time/ms;Fluo/V;P700 deltaI/I x10³;
-199.8000;1.0379;-5.2812;
-199.5000;1.0395;-5.2680;
-199.2000;1.0379;-5.2759;
-198.9000;1.0379;-5.2732;
-198.6000;1.0411;-5.2680;
-198.3000;1.0395;-5.2627;
-198.0000;1.0395;-5.2627;
-197.7000;1.0297;-5.2864;
-197.4000;1.0379;-5.2812;
-197.1000;1.0419;-5.2706;
-196.8000;1.0387;-5.2732;
-196.5000;1.0403;-5.2759;
-196.2000;1.0379;-5.2759;
-195.9000;1.0387;-5.2838;
-195.6000;1.0379;-5.2970;
-195.3000;1.0354;-5.3102;
-195.0000;1.0411;-5.2944;
-194.7000;1.0395;-5.2970;
-194.4000;1.0379;-5.3023;
-194.1000;1.0370;-5.2996;
-193.8000;1.0379;-5.3076;
-193.5000;1.0403;-5.3076;
-193.2000;1.0370;-5.3102;
-192.9000;1.0387;-5.2970;
-192.6000;1.0411;-5.2864;
-192.3000;1.0379;-5.2891;
-192.0000;1.0419;-5.2864;
-191.7000;1.0370;-5.3023;
-191.4000;1.0419;-5.2944;
-191.1000;1.0362;-5.3129;
-190.8000;1.0403;-5.2996;
-190.5000;1.0395;-5.2944;
-190.2000;1.0395;-5.2970;
-189.9000;1.0387;-5.2996;
-189.6000;1.0379;-5.2996;
-189.3000;1.0346;-5.3155;
-189.0000;1.0387;-5.3049;
-188.7000;1.0403;-5.2944;
-188.4000;1.0395;-5.3023;
-188.1000;1.0387;-5.3023;
-187.8000;1.0379;-5.3023;
-187.5000;1.0387;-5.2944;
-187.2000;1.0354;-5.3023;
-186.9000;1.0395;-5.2944;
-186.6000;1.0370;-5.3023;
-186.3000;1.0354;-5.3076;
-186.0000;1.0370;-5.2996;
-185.7000;1.0370;-5.2917;
-185.4000;1.0370;-5.2917;
-185.1000;1.0370;-5.2944;
-184.8000;1.0370;-5.2970;
-184.5000;1.0403;-5.2891;
-184.2000;1.0387;-5.2891;
-183.9000;1.0411;-5.2864;
-183.6000;1.0370;-5.2917;
-183.3000;1.0387;-5.2944;
-183.0000;1.0379;-5.3023;
-182.7000;1.0362;-5.3076;
-182.4000;1.0435;-5.2891;
-182.1000;1.0370;-5.3076;
-181.8000;1.0395;-5.2996;
-181.5000;1.0395;-5.3023;
-181.2000;1.0346;-5.3023;
-180.9000;1.0330;-5.3023;
-180.6000;1.0370;-5.2944;
-180.3000;1.0379;-5.2944;
-180.0000;1.0362;-5.2996;
-179.7000;1.0387;-5.2970;
-179.4000;1.0387;-5.2970;
-179.1000;1.0395;-5.2970;
-178.8000;1.0379;-5.2996;
-178.5000;1.0379;-5.3049;
-178.2000;1.0370;-5.3076;
-177.9000;1.0379;-5.3102;
-177.6000;1.0370;-5.2970;
-177.3000;1.0362;-5.2970;
-177.0000;1.0379;-5.2917;
-176.7000;1.0379;-5.2891;
-176.4000;1.0322;-5.3076;
-176.1000;1.0411;-5.2864;
-175.8000;1.0379;-5.2917;
-175.5000;1.0395;-5.2891;
-175.2000;1.0346;-5.3049;
-174.9000;1.0362;-5.2944;
-174.6000;1.0379;-5.2891;
-174.3000;1.0379;-5.2838;
-174.0000;1.0370;-5.2917;
-173.7000;1.0313;-5.2864;
-173.4000;1.0354;-5.2812;
-173.1000;1.0444;-5.2653;
-172.8000;1.0387;-5.2838;
-172.5000;1.0387;-5.2891;
-172.2000;1.0387;-5.2917;
-171.9000;1.0379;-5.2970;
-171.6000;1.0395;-5.3023;
-171.3000;1.0379;-5.3102;
-171.0000;1.0362;-5.3076;
-170.7000;1.0468;-5.2838;
-170.4000;1.0387;-5.2996;
-170.1000;1.0387;-5.3076;
-169.8000;1.0370;-5.3234;
-169.5000;1.0370;-5.3234;
-169.2000;1.0379;-5.3287;
-168.9000;1.0362;-5.3340;
-168.6000;1.0362;-5.3393;
-168.3000;1.0362;-5.3445;
-168.0000;1.0379;-5.3208;
-167.7000;1.0362;-5.3234;
-167.4000;1.0362;-5.3234;
-167.1000;1.0370;-5.3155;
-166.8000;1.0379;-5.3102;
-166.5000;1.0379;-5.3155;
-166.2000;1.0387;-5.3155;
-165.9000;1.0362;-5.3049;
-165.6000;1.0362;-5.2996;
-165.3000;1.0387;-5.2996;
-165.0000;1.0387;-5.3049;
-164.7000;1.0379;-5.3076;
-164.4000;1.0354;-5.3023;
-164.1000;1.0387;-5.2970;
-163.8000;1.0379;-5.2996;
-163.5000;1.0395;-5.2891;
-163.2000;1.0379;-5.2944;
-162.9000;1.0362;-5.3076;
-162.6000;1.0387;-5.3049;
-162.3000;1.0379;-5.3076;
-162.0000;1.0379;-5.3181;
-161.7000;1.0370;-5.3102;
-161.4000;1.0427;-5.3023;
-161.1000;1.0395;-5.3076;
-160.8000;1.0379;-5.3049;
-160.5000;1.0370;-5.3023;
-160.2000;1.0387;-5.3049;
-159.9000;1.0379;-5.3102;
-159.6000;1.0379;-5.3129;
-159.3000;1.0379;-5.3076;
-159.0000;1.0411;-5.2996;
-158.7000;1.0435;-5.3076;
-158.4000;1.0379;-5.3181;
-158.1000;1.0411;-5.3076;
-157.8000;1.0395;-5.3155;
-157.5000;1.0379;-5.3234;
-157.2000;1.0362;-5.3287;
-156.9000;1.0403;-5.3155;
-156.6000;1.0370;-5.3181;
-156.3000;1.0387;-5.3155;
-156.0000;1.0387;-5.3023;
-155.7000;1.0379;-5.3155;
-155.4000;1.0387;-5.3076;
-155.1000;1.0379;-5.3129;
-154.8000;1.0419;-5.3049;
-154.5000;1.0346;-5.3181;
-154.2000;1.0362;-5.3129;
-153.9000;1.0370;-5.3102;
-153.6000;1.0362;-5.3076;
-153.3000;1.0395;-5.3023;
-153.0000;1.0395;-5.2996;
-152.7000;1.0362;-5.3076;
-152.4000;1.0346;-5.3129;
-152.1000;1.0379;-5.3023;
-151.8000;1.0370;-5.2996;
-151.5000;1.0313;-5.3181;
-151.2000;1.0403;-5.2996;
-150.9000;1.0387;-5.3023;
-150.6000;1.0379;-5.2996;
-150.3000;1.0444;-5.2864;
-150.0000;1.0395;-5.2944;
-149.7000;1.0403;-5.2944;
-149.4000;1.0379;-5.2944;
-149.1000;1.0379;-5.2970;
-148.8000;1.0403;-5.2891;
-148.5000;1.0403;-5.2970;
-148.2000;1.0379;-5.3049;
-147.9000;1.0379;-5.3102;
-147.6000;1.0370;-5.3076;
-147.3000;1.0411;-5.3076;
-147.0000;1.0379;-5.3129;
-146.7000;1.0379;-5.3023;
-146.4000;1.0379;-5.2944;
-146.1000;1.0387;-5.2944;
-145.8000;1.0427;-5.2838;
-145.5000;1.0395;-5.2917;
-145.2000;1.0387;-5.2917;
-144.9000;1.0403;-5.2970;
-144.6000;1.0411;-5.2917;
-144.3000;1.0395;-5.2996;
-144.0000;1.0395;-5.2996;
-143.7000;1.0387;-5.2917;
-143.4000;1.0379;-5.2944;
-143.1000;1.0395;-5.2864;
-142.8000;1.0297;-5.3155;
-142.5000;1.0362;-5.3023;
-142.2000;1.0379;-5.2996;
-141.9000;1.0379;-5.3049;
-141.6000;1.0379;-5.3049;
-141.3000;1.0379;-5.2970;
-141.0000;1.0387;-5.2970;
-140.7000;1.0403;-5.2864;
-140.4000;1.0370;-5.2891;
-140.1000;1.0379;-5.2944;
-139.8000;1.0379;-5.2891;
-139.5000;1.0403;-5.2812;
-139.2000;1.0379;-5.2759;
-138.9000;1.0387;-5.2732;
-138.6000;1.0370;-5.2732;
-138.3000;1.0362;-5.2785;
-138.0000;1.0370;-5.2785;
-137.7000;1.0370;-5.2785;
-137.4000;1.0395;-5.2732;
-137.1000;1.0370;-5.2864;
-136.8000;1.0379;-5.2864;
-136.5000;1.0379;-5.2944;
-136.2000;1.0403;-5.2891;
-135.9000;1.0427;-5.2891;
-135.6000;1.0379;-5.2970;
-135.3000;1.0387;-5.2996;
-135.0000;1.0395;-5.2970;
-134.7000;1.0379;-5.2970;
-134.4000;1.0395;-5.2838;
-134.1000;1.0387;-5.2785;
-133.8000;1.0370;-5.2891;
-133.5000;1.0370;-5.2970;
-133.2000;1.0379;-5.2944;
-132.9000;1.0387;-5.2891;
-132.6000;1.0370;-5.2944;
-132.3000;1.0379;-5.2917;
-132.0000;1.0387;-5.2838;
-131.7000;1.0379;-5.2838;
-131.4000;1.0387;-5.2891;
-131.1000;1.0330;-5.3023;
-130.8000;1.0370;-5.2864;
-130.5000;1.0395;-5.2864;
-130.2000;1.0370;-5.2838;
-129.9000;1.0395;-5.2759;
-129.6000;1.0362;-5.2838;
-129.3000;1.0362;-5.2838;
-129.0000;1.0370;-5.2838;
-128.7000;1.0379;-5.2917;
-128.4000;1.0370;-5.2917;
-128.1000;1.0395;-5.2996;
-127.8000;1.0370;-5.3049;
-127.5000;1.0354;-5.3049;
-127.2000;1.0370;-5.2944;
-126.9000;1.0387;-5.2970;
-126.6000;1.0395;-5.2970;
-126.3000;1.0379;-5.2970;
-126.0000;1.0370;-5.3023;
-125.7000;1.0452;-5.2812;
-125.4000;1.0379;-5.2996;
-125.1000;1.0379;-5.2970;
-124.8000;1.0379;-5.2891;
-124.5000;1.0379;-5.2891;
-124.2000;1.0387;-5.2864;
-123.9000;1.0379;-5.2891;
-123.6000;1.0403;-5.2891;
-123.3000;1.0379;-5.2917;
-123.0000;1.0395;-5.2917;
-122.7000;1.0346;-5.2996;
-122.4000;1.0379;-5.2970;
-122.1000;1.0395;-5.2917;
-121.8000;1.0403;-5.2944;
-121.5000;1.0387;-5.2970;
-121.2000;1.0379;-5.2917;
-120.9000;1.0379;-5.2917;
-120.6000;1.0387;-5.2944;
-120.3000;1.0387;-5.2864;
-120.0000;1.0403;-5.2864;
-119.7000;1.0379;-5.2891;
-119.4000;1.0387;-5.2891;
-119.1000;1.0395;-5.2891;
-118.8000;1.0395;-5.2944;
-118.5000;1.0362;-5.2970;
-118.2000;1.0379;-5.2944;
-117.9000;1.0395;-5.2944;
-117.6000;1.0387;-5.2891;
-117.3000;1.0395;-5.2838;
-117.0000;1.0379;-5.2864;
-116.7000;1.0395;-5.2838;
-116.4000;1.0395;-5.2759;
-116.1000;1.0387;-5.2732;
-115.8000;1.0379;-5.2759;
-115.5000;1.0395;-5.2812;
-115.2000;1.0395;-5.2917;
-114.9000;1.0379;-5.2917;
-114.6000;1.0403;-5.2812;
-114.3000;1.0370;-5.2917;
-114.0000;1.0387;-5.2891;
-113.7000;1.0387;-5.2944;
-113.4000;1.0379;-5.2917;
-113.1000;1.0403;-5.2944;
-112.8000;1.0387;-5.2970;
-112.5000;1.0370;-5.2970;
-112.2000;1.0387;-5.2917;
-111.9000;1.0387;-5.2891;
-111.6000;1.0370;-5.2864;
-111.3000;1.0379;-5.2891;
-111.0000;1.0395;-5.2864;
-110.7000;1.0379;-5.2917;
-110.4000;1.0395;-5.2891;
-110.1000;1.0411;-5.2864;
-109.8000;1.0379;-5.2917;
-109.5000;1.0370;-5.2864;
-109.2000;1.0379;-5.2891;
-108.9000;1.0322;-5.3023;
-108.6000;1.0395;-5.2970;
-108.3000;1.0403;-5.2996;
-108.0000;1.0362;-5.3155;
-107.7000;1.0379;-5.3076;
-107.4000;1.0379;-5.3023;
-107.1000;1.0370;-5.2996;
-106.8000;1.0322;-5.3076;
-106.5000;1.0387;-5.2917;
-106.2000;1.0387;-5.2970;
-105.9000;1.0330;-5.3023;
-105.6000;1.0395;-5.2891;
-105.3000;1.0379;-5.2891;
-105.0000;1.0362;-5.2996;
-104.7000;1.0370;-5.2970;
-104.4000;1.0403;-5.2944;
-104.1000;1.0387;-5.2996;
-103.8000;1.0338;-5.3102;
-103.5000;1.0346;-5.3023;
-103.2000;1.0379;-5.2944;
-102.9000;1.0379;-5.2917;
-102.6000;1.0370;-5.2864;
-102.3000;1.0379;-5.2917;
-102.0000;1.0362;-5.3102;
-101.7000;1.0419;-5.2996;
-101.4000;1.0362;-5.3129;
-101.1000;1.0370;-5.3076;
-100.8000;1.0370;-5.2996;
-100.5000;1.0346;-5.3129;
-100.2000;1.0346;-5.3155;
-99.9000;1.0411;-5.2996;
-99.6000;1.0379;-5.2996;
-99.3000;1.0379;-5.2970;
-99.0000;1.0379;-5.2970;
-98.7000;1.0403;-5.3049;
-98.4000;1.0387;-5.3129;
-98.1000;1.0379;-5.3129;
-97.8000;1.0387;-5.3023;
-97.5000;1.0379;-5.3102;
-97.2000;1.0370;-5.3076;
-96.9000;1.0395;-5.2970;
-96.6000;1.0379;-5.2996;
-96.3000;1.0370;-5.3049;
-96.0000;1.0346;-5.3102;
-95.7000;1.0419;-5.2838;
-95.4000;1.0370;-5.2944;
-95.1000;1.0379;-5.2917;
-94.8000;1.0379;-5.2944;
-94.5000;1.0395;-5.2864;
-94.2000;1.0379;-5.2891;
-93.9000;1.0379;-5.2917;
-93.6000;1.0387;-5.2996;
-93.3000;1.0395;-5.2970;
-93.0000;1.0346;-5.2970;
-92.7000;1.0379;-5.2944;
-92.4000;1.0370;-5.2970;
-92.1000;1.0370;-5.2970;
-91.8000;1.0370;-5.2917;
-91.5000;1.0379;-5.2864;
-91.2000;1.0370;-5.2996;
-90.9000;1.0387;-5.2996;
-90.6000;1.0370;-5.3076;
-90.3000;1.0362;-5.3129;
-90.0000;1.0395;-5.3076;
-89.7000;1.0379;-5.3076;
-89.4000;1.0411;-5.2996;
-89.1000;1.0379;-5.3023;
-88.8000;1.0362;-5.2996;
-88.5000;1.0395;-5.2996;
-88.2000;1.0379;-5.2970;
-87.9000;1.0322;-5.3076;
-87.6000;1.0370;-5.2944;
-87.3000;1.0370;-5.2944;
-87.0000;1.0387;-5.2996;
-86.7000;1.0379;-5.3023;
-86.4000;1.0362;-5.3049;
-86.1000;1.0370;-5.2944;
-85.8000;1.0395;-5.2864;
-85.5000;1.0370;-5.2864;
-85.2000;1.0379;-5.2864;
-84.9000;1.0427;-5.2759;
-84.6000;1.0395;-5.2812;
-84.3000;1.0379;-5.2785;
-84.0000;1.0395;-5.2785;
-83.7000;1.0370;-5.2838;
-83.4000;1.0419;-5.2706;
-83.1000;1.0387;-5.2785;
-82.8000;1.0362;-5.2891;
-82.5000;1.0379;-5.2864;
-82.2000;1.0379;-5.2917;
-81.9000;1.0370;-5.2970;
-81.6000;1.0395;-5.2970;
-81.3000;1.0370;-5.2996;
-81.0000;1.0387;-5.2996;
-80.7000;1.0395;-5.2970;
-80.4000;1.0387;-5.2996;
-80.1000;1.0379;-5.2970;
-79.8000;1.0379;-5.2917;
-79.5000;1.0387;-5.2891;
-79.2000;1.0387;-5.2838;
-78.9000;1.0395;-5.2838;
-78.6000;1.0387;-5.2891;
-78.3000;1.0395;-5.2864;
-78.0000;1.0411;-5.2812;
-77.7000;1.0354;-5.2944;
-77.4000;1.0370;-5.2917;
-77.1000;1.0387;-5.2864;
-76.8000;1.0395;-5.2838;
-76.5000;1.0395;-5.2812;
-76.2000;1.0395;-5.2785;
-75.9000;1.0411;-5.2706;
-75.6000;1.0427;-5.2600;
-75.3000;1.0387;-5.2759;
-75.0000;1.0322;-5.2917;
-74.7000;1.0403;-5.2732;
-74.4000;1.0468;-5.2627;
-74.1000;1.0354;-5.2864;
-73.8000;1.0387;-5.2838;
-73.5000;1.0379;-5.2864;
-73.2000;1.0297;-5.3023;
-72.9000;1.0395;-5.2838;
-72.6000;1.0387;-5.2838;
-72.3000;1.0379;-5.2864;
-72.0000;1.0379;-5.2864;
-71.7000;1.0403;-5.2864;
-71.4000;1.0387;-5.2838;
-71.1000;1.0387;-5.2759;
-70.8000;1.0387;-5.2785;
-70.5000;1.0387;-5.2732;
-70.2000;1.0379;-5.2732;
-69.9000;1.0379;-5.2627;
-69.6000;1.0387;-5.2627;
-69.3000;1.0395;-5.2627;
-69.0000;1.0403;-5.2600;
-68.7000;1.0395;-5.2574;
-68.4000;1.0387;-5.2600;
-68.1000;1.0419;-5.2548;
-67.8000;1.0403;-5.2548;
-67.5000;1.0379;-5.2680;
-67.2000;1.0346;-5.2732;
-66.9000;1.0362;-5.2759;
-66.6000;1.0379;-5.2706;
-66.3000;1.0370;-5.2627;
-66.0000;1.0379;-5.2548;
-65.7000;1.0395;-5.2468;
-65.4000;1.0403;-5.2468;
-65.1000;1.0379;-5.2600;
-64.8000;1.0379;-5.2574;
-64.5000;1.0370;-5.2548;
-64.2000;1.0370;-5.2521;
-63.9000;1.0379;-5.2680;
-63.6000;1.0370;-5.2706;
-63.3000;1.0354;-5.2732;
-63.0000;1.0370;-5.2653;
-62.7000;1.0379;-5.2732;
-62.4000;1.0427;-5.2680;
-62.1000;1.0379;-5.2812;
-61.8000;1.0379;-5.2838;
-61.5000;1.0435;-5.2812;
-61.2000;1.0379;-5.2970;
-60.9000;1.0379;-5.2864;
-60.6000;1.0379;-5.2785;
-60.3000;1.0379;-5.2785;
-60.0000;1.0419;-5.2627;
-59.7000;1.0370;-5.2917;
-59.4000;1.0256;-5.3313;
-59.1000;1.0387;-5.3049;
-58.8000;1.0379;-5.2970;
-58.5000;1.0387;-5.2944;
-58.2000;1.0395;-5.2944;
-57.9000;1.0387;-5.2917;
-57.6000;1.0444;-5.2759;
-57.3000;1.0387;-5.2996;
-57.0000;1.0362;-5.3023;
-56.7000;1.0379;-5.2944;
-56.4000;1.0403;-5.2970;
-56.1000;1.0379;-5.2917;
-55.8000;1.0370;-5.2838;
-55.5000;1.0379;-5.2838;
-55.2000;1.0379;-5.2838;
-54.9000;1.0387;-5.2864;
-54.6000;1.0395;-5.2812;
-54.3000;1.0362;-5.2864;
-54.0000;1.0370;-5.2812;
-53.7000;1.0379;-5.2864;
-53.4000;1.0403;-5.2838;
-53.1000;1.0387;-5.2864;
-52.8000;1.0403;-5.2812;
-52.5000;1.0411;-5.2759;
-52.2000;1.0435;-5.2680;
-51.9000;1.0370;-5.2785;
-51.6000;1.0354;-5.2812;
-51.3000;1.0387;-5.2838;
-51.0000;1.0387;-5.2785;
-50.7000;1.0379;-5.2812;
-50.4000;1.0379;-5.2812;
-50.1000;1.0370;-5.2864;
-49.8000;1.0370;-5.2996;
-49.5000;1.0354;-5.2996;
-49.2000;1.0362;-5.2944;
-48.9000;1.0379;-5.2891;
-48.6000;1.0395;-5.2917;
-48.3000;1.0387;-5.2917;
-48.0000;1.0379;-5.2917;
-47.7000;1.0370;-5.2944;
-47.4000;1.0322;-5.2970;
-47.1000;1.0379;-5.2838;
-46.8000;1.0379;-5.2864;
-46.5000;1.0379;-5.2891;
-46.2000;1.0387;-5.2838;
-45.9000;1.0379;-5.2864;
-45.6000;1.0362;-5.2917;
-45.3000;1.0387;-5.2944;
-45.0000;1.0362;-5.2891;
-44.7000;1.0379;-5.2838;
-44.4000;1.0370;-5.2891;
-44.1000;1.0354;-5.2864;
-43.8000;1.0395;-5.2759;
-43.5000;1.0395;-5.2785;
-43.2000;1.0379;-5.2812;
-42.9000;1.0379;-5.2785;
-42.6000;1.0370;-5.2732;
-42.3000;1.0370;-5.2759;
-42.0000;1.0411;-5.2706;
-41.7000;1.0379;-5.2838;
-41.4000;1.0379;-5.2838;
-41.1000;1.0395;-5.2864;
-40.8000;1.0379;-5.2944;
-40.5000;1.0387;-5.2970;
-40.2000;1.0370;-5.2970;
-39.9000;1.0387;-5.2917;
-39.6000;1.0379;-5.2864;
-39.3000;1.0370;-5.2864;
-39.0000;1.0427;-5.2759;
-38.7000;1.0387;-5.2812;
-38.4000;1.0403;-5.2785;
-38.1000;1.0379;-5.2785;
-37.8000;1.0427;-5.2732;
-37.5000;1.0387;-5.2812;
-37.2000;1.0403;-5.2732;
-36.9000;1.0346;-5.2838;
-36.6000;1.0387;-5.2706;
-36.3000;1.0387;-5.2732;
-36.0000;1.0379;-5.2812;
-35.7000;1.0395;-5.2812;
-35.4000;1.0387;-5.2759;
-35.1000;1.0370;-5.2785;
-34.8000;1.0354;-5.2864;
-34.5000;1.0387;-5.2759;
-34.2000;1.0387;-5.2785;
-33.9000;1.0354;-5.2838;
-33.6000;1.0379;-5.2785;
-33.3000;1.0362;-5.2812;
-33.0000;1.0379;-5.2864;
-32.7000;1.0370;-5.2838;
-32.4000;1.0362;-5.2891;
-32.1000;1.0387;-5.2891;
-31.8000;1.0370;-5.2944;
-31.5000;1.0387;-5.2970;
-31.2000;1.0387;-5.3049;
-30.9000;1.0370;-5.3102;
-30.6000;1.0395;-5.3049;
-30.3000;1.0370;-5.3076;
-30.0000;1.0379;-5.3076;
-29.7000;1.0419;-5.2944;
-29.4000;1.0379;-5.3049;
-29.1000;1.0370;-5.3102;
-28.8000;1.0338;-5.3129;
-28.5000;1.0379;-5.3129;
-28.2000;1.0370;-5.3023;
-27.9000;1.0370;-5.2944;
-27.6000;1.0379;-5.2917;
-27.3000;1.0362;-5.3076;
-27.0000;1.0387;-5.2944;
-26.7000;1.0395;-5.2812;
-26.4000;1.0379;-5.2917;
-26.1000;1.0387;-5.2891;
-25.8000;1.0395;-5.2891;
-25.5000;1.0379;-5.2970;
-25.2000;1.0370;-5.3023;
-24.9000;1.0379;-5.2970;
-24.6000;1.0362;-5.3023;
-24.3000;1.0379;-5.2944;
-24.0000;1.0313;-5.3181;
-23.7000;1.0362;-5.2944;
-23.4000;1.0379;-5.2864;
-23.1000;1.0379;-5.2864;
-22.8000;1.0379;-5.2891;
-22.5000;1.0395;-5.2864;
-22.2000;1.0379;-5.2891;
-21.9000;1.0370;-5.2891;
-21.6000;1.0346;-5.2996;
-21.3000;1.0370;-5.3023;
-21.0000;1.0370;-5.2944;
-20.7000;1.0403;-5.2785;
-20.4000;1.0379;-5.2812;
-20.1000;1.0370;-5.2891;
-19.8000;1.0370;-5.2917;
-19.5000;1.0419;-5.2785;
-19.2000;1.0379;-5.2812;
-18.9000;1.0370;-5.2917;
-18.6000;1.0354;-5.2917;
-18.3000;1.0379;-5.2944;
-18.0000;1.0395;-5.2785;
-17.7000;1.0379;-5.2838;
-17.4000;1.0387;-5.2812;
-17.1000;1.0370;-5.2812;
-16.8000;1.0387;-5.2785;
-16.5000;1.0435;-5.2706;
-16.2000;1.0387;-5.2838;
-15.9000;1.0387;-5.2838;
-15.6000;1.0379;-5.2812;
-15.3000;1.0379;-5.2838;
-15.0000;1.0509;-5.2574;
-14.7000;1.0379;-5.2891;
-14.4000;1.0387;-5.2838;
-14.1000;1.0395;-5.2838;
-13.8000;1.0403;-5.2785;
-13.5000;1.0362;-5.2838;
-13.2000;1.0403;-5.2812;
-12.9000;1.0379;-5.2838;
-12.6000;1.0387;-5.2917;
-12.3000;1.0330;-5.3234;
-12.0000;1.0387;-5.3102;
-11.7000;1.0387;-5.3076;
-11.4000;1.0395;-5.3049;
-11.1000;1.0395;-5.3076;
-10.8000;1.0370;-5.3076;
-10.5000;1.0395;-5.2944;
-10.2000;1.0403;-5.2864;
-9.9000;1.0387;-5.2864;
-9.6000;1.0387;-5.2917;
-9.3000;1.0379;-5.2864;
-9.0000;1.0395;-5.2838;
-8.7000;1.0370;-5.2838;
-8.4000;1.0387;-5.2891;
-8.1000;1.0362;-5.2864;
-7.8000;1.0379;-5.2759;
-7.5000;1.0411;-5.2680;
-7.2000;1.0395;-5.2759;
-6.9000;1.0379;-5.2812;
-6.6000;1.0354;-5.2891;
-6.3000;1.0403;-5.2732;
-6.0000;1.0403;-5.2680;
-5.7000;1.0387;-5.2732;
-5.4000;1.0379;-5.2680;
-5.1000;1.0395;-5.2680;
-4.8000;1.0387;-5.2759;
-4.5000;1.0387;-5.2785;
-4.2000;1.0395;-5.2838;
-3.9000;1.0395;-5.2759;
-3.6000;1.0387;-5.2838;
-3.3000;1.0370;-5.2785;
-3.0000;1.0395;-5.2706;
-2.7000;1.0435;-5.2627;
-2.4000;1.0387;-5.2812;
-2.1000;1.0387;-5.2732;
-1.8000;1.0379;-5.2759;
-1.5000;1.0387;-5.2812;
-1.2000;1.0395;-5.2917;
-0.9000;1.0370;-5.2917;
-0.6000;1.0379;-5.2838;
-0.3000;1.0379;-5.2838;
0.0000;1.0379;-5.2838;
0.3000;1.0549;-5.2653;
0.6000;1.0891;-5.2151;
0.9000;1.1168;-5.1571;
1.2000;1.1420;-5.0963;
1.5000;1.1551;-5.0620;
1.8000;1.1681;-5.0382;
2.1000;1.1819;-5.0145;
2.4000;1.1901;-5.0039;
2.7000;1.1998;-4.9828;
3.0000;1.2039;-4.9696;
3.3000;1.2112;-4.9511;
3.6000;1.2186;-4.9432;
3.9000;1.2218;-4.9379;
4.2000;1.2259;-4.9405;
4.5000;1.2308;-4.9273;
4.8000;1.2357;-4.9273;
5.1000;1.2422;-4.9168;
5.4000;1.2422;-4.9141;
5.7000;1.2462;-4.9141;
6.0000;1.2519;-4.9088;
6.3000;1.2527;-4.9168;
6.6000;1.2544;-4.9141;
6.9000;1.2487;-4.9326;
7.2000;1.2641;-4.9062;
7.5000;1.2609;-4.9194;
7.8000;1.2650;-4.9194;
8.1000;1.2674;-4.9088;
8.4000;1.2690;-4.9009;
8.7000;1.2723;-4.9062;
9.0000;1.2772;-4.9062;
9.3000;1.2755;-4.9168;
9.6000;1.2796;-4.9220;
9.9000;1.2812;-4.9326;
10.2000;1.2812;-4.9352;
10.5000;1.2837;-4.9273;
10.8000;1.2845;-4.9300;
11.1000;1.2845;-4.9273;
11.4000;1.2877;-4.9220;
11.7000;1.2910;-4.9141;
12.0000;1.2894;-4.9141;
12.3000;1.2902;-4.9220;
12.6000;1.2943;-4.9115;
12.9000;1.2943;-4.9168;
13.2000;1.2926;-4.9141;
13.5000;1.2967;-4.9141;
13.8000;1.2975;-4.9088;
14.1000;1.3016;-4.9009;
14.4000;1.3024;-4.9115;
14.7000;1.3024;-4.9168;
15.0000;1.3032;-4.9168;
15.3000;1.3057;-4.9115;
15.6000;1.3065;-4.9088;
15.9000;1.3057;-4.9088;
16.2000;1.3073;-4.9115;
16.5000;1.3089;-4.9141;
16.8000;1.3105;-4.9009;
17.1000;1.3105;-4.8930;
17.4000;1.3122;-4.8904;
17.7000;1.3114;-4.8877;
18.0000;1.3130;-4.8904;
18.3000;1.3146;-4.8956;
18.6000;1.3146;-4.8983;
18.9000;1.3154;-4.8983;
19.2000;1.3195;-4.8930;
19.5000;1.3187;-4.9009;
19.8000;1.3179;-4.8983;
20.1000;1.3203;-4.8956;
20.4000;1.3171;-4.9141;
20.7000;1.3203;-4.9062;
21.0000;1.3195;-4.9088;
21.3000;1.3195;-4.9088;
21.6000;1.3244;-4.8956;
21.9000;1.3228;-4.8956;
22.2000;1.3219;-4.9062;
22.5000;1.3211;-4.9009;
22.8000;1.3228;-4.8956;
23.1000;1.3154;-4.9062;
23.4000;1.3244;-4.8904;
23.7000;1.3236;-4.8930;
24.0000;1.3252;-4.8983;
24.3000;1.3244;-4.9036;
24.6000;1.3252;-4.9062;
24.9000;1.3260;-4.9036;
25.2000;1.3268;-4.9009;
25.5000;1.3276;-4.8904;
25.8000;1.3366;-4.8692;
26.1000;1.3284;-4.8930;
26.4000;1.3317;-4.8877;
26.7000;1.3276;-4.8983;
27.0000;1.3236;-4.9062;
27.3000;1.3284;-4.8904;
27.6000;1.3284;-4.8851;
27.9000;1.3293;-4.8904;
28.2000;1.3293;-4.8983;
28.5000;1.3301;-4.9088;
28.8000;1.3301;-4.9088;
29.1000;1.3301;-4.9088;
29.4000;1.3309;-4.9088;
29.7000;1.3301;-4.9168;
30.0000;1.3301;-4.9168;
30.3000;1.3309;-4.9194;
30.6000;1.3325;-4.9088;
30.9000;1.3333;-4.9062;
31.2000;1.3333;-4.8904;
31.5000;1.3333;-4.8983;
31.8000;1.3341;-4.8983;
32.1000;1.3350;-4.8983;
32.4000;1.3301;-4.9115;
32.7000;1.3341;-4.9036;
33.0000;1.3309;-4.9141;
33.3000;1.3350;-4.9062;
33.6000;1.3341;-4.9115;
33.9000;1.3350;-4.9062;
34.2000;1.3350;-4.9062;
34.5000;1.3358;-4.9088;
34.8000;1.3358;-4.9088;
35.1000;1.3358;-4.9194;
35.4000;1.3366;-4.9168;
35.7000;1.3374;-4.9088;
36.0000;1.3317;-4.9168;
36.3000;1.3366;-4.9036;
36.6000;1.3325;-4.9141;
36.9000;1.3366;-4.9009;
37.2000;1.3382;-4.9009;
37.5000;1.3358;-4.8956;
37.8000;1.3358;-4.9062;
38.1000;1.3366;-4.9062;
38.4000;1.3358;-4.9062;
38.7000;1.3358;-4.9088;
39.0000;1.3366;-4.9194;
39.3000;1.3358;-4.9220;
39.6000;1.3390;-4.9168;
39.9000;1.3366;-4.9168;
40.2000;1.3366;-4.9088;
40.5000;1.3366;-4.9062;
40.8000;1.3398;-4.8851;
41.1000;1.3366;-4.8983;
41.4000;1.3390;-4.8930;
41.7000;1.3366;-4.9009;
42.0000;1.3366;-4.8956;
42.3000;1.3390;-4.8956;
42.6000;1.3398;-4.8956;
42.9000;1.3366;-4.9062;
43.2000;1.3374;-4.9062;
43.5000;1.3366;-4.9088;
43.8000;1.3366;-4.9062;
44.1000;1.3382;-4.9009;
44.4000;1.3390;-4.9062;
44.7000;1.3382;-4.9115;
45.0000;1.3398;-4.9168;
45.3000;1.3382;-4.9141;
45.6000;1.3374;-4.9220;
45.9000;1.3390;-4.9115;
46.2000;1.3398;-4.9088;
46.5000;1.3398;-4.9115;
46.8000;1.3439;-4.9009;
47.1000;1.3398;-4.9009;
47.4000;1.3390;-4.8983;
47.7000;1.3358;-4.9088;
48.0000;1.3390;-4.9036;
48.3000;1.3390;-4.9036;
48.6000;1.3325;-4.9168;
48.9000;1.3390;-4.9009;
49.2000;1.3358;-4.9141;
49.5000;1.3382;-4.9141;
49.8000;1.3407;-4.9115;
50.1000;1.3317;-4.9326;
50.4000;1.3390;-4.9088;
50.7000;1.3398;-4.9009;
51.0000;1.3415;-4.9062;
51.3000;1.3407;-4.9062;
51.6000;1.3390;-4.9088;
51.9000;1.3415;-4.9009;
52.2000;1.3423;-4.9088;
52.5000;1.3439;-4.9088;
52.8000;1.3415;-4.9088;
53.1000;1.3398;-4.9062;
53.4000;1.3415;-4.9088;
53.7000;1.3407;-4.9088;
54.0000;1.3423;-4.9194;
54.3000;1.3431;-4.9036;
54.6000;1.3407;-4.9036;
54.9000;1.3423;-4.8956;
55.2000;1.3472;-4.8851;
55.5000;1.3504;-4.8851;
55.8000;1.3407;-4.9009;
56.1000;1.3423;-4.9036;
56.4000;1.3407;-4.9062;
56.7000;1.3447;-4.8956;
57.0000;1.3423;-4.8904;
57.3000;1.3398;-4.8956;
57.6000;1.3480;-4.8798;
57.9000;1.3407;-4.8851;
58.2000;1.3398;-4.8877;
58.5000;1.3398;-4.8930;
58.8000;1.3407;-4.8956;
59.1000;1.3398;-4.8956;
59.4000;1.3398;-4.8930;
59.7000;1.3407;-4.8930;
60.0000;1.3464;-4.8983;
60.3000;1.3431;-4.9115;
60.6000;1.3398;-4.9194;
60.9000;1.3423;-4.9194;
61.2000;1.3423;-4.9115;
61.5000;1.3439;-4.9062;
61.8000;1.3398;-4.9115;
62.1000;1.3415;-4.8983;
62.4000;1.3423;-4.8956;
62.7000;1.3415;-4.8798;
63.0000;1.3415;-4.8798;
63.3000;1.3415;-4.8798;
63.6000;1.3415;-4.8772;
63.9000;1.3398;-4.8798;
64.2000;1.3415;-4.8719;
64.5000;1.3407;-4.8851;
64.8000;1.3415;-4.8772;
65.1000;1.3431;-4.8772;
65.4000;1.3431;-4.8772;
65.7000;1.3423;-4.8824;
66.0000;1.3431;-4.8824;
66.3000;1.3423;-4.8798;
66.6000;1.3423;-4.8719;
66.9000;1.3431;-4.8719;
67.2000;1.3423;-4.8877;
67.5000;1.3439;-4.8877;
67.8000;1.3423;-4.8930;
68.1000;1.3464;-4.8824;
68.4000;1.3415;-4.8983;
68.7000;1.3431;-4.8930;
69.0000;1.3431;-4.8956;
69.3000;1.3431;-4.8983;
69.6000;1.3447;-4.8930;
69.9000;1.3431;-4.8983;
70.2000;1.3431;-4.8956;
70.5000;1.3431;-4.8956;
70.8000;1.3415;-4.8983;
71.1000;1.3423;-4.8983;
71.4000;1.3431;-4.8930;
71.7000;1.3431;-4.9036;
72.0000;1.3447;-4.9062;
72.3000;1.3431;-4.9062;
72.6000;1.3431;-4.9115;
72.9000;1.3439;-4.9247;
73.2000;1.3464;-4.9141;
73.5000;1.3431;-4.9115;
73.8000;1.3431;-4.9168;
74.1000;1.3464;-4.9088;
74.4000;1.3464;-4.9036;
74.7000;1.3415;-4.9062;
75.0000;1.3480;-4.8877;
75.3000;1.3439;-4.8983;
75.6000;1.3447;-4.8983;
75.9000;1.3439;-4.9009;
76.2000;1.3447;-4.8956;
76.5000;1.3407;-4.9088;
76.8000;1.3431;-4.8956;
77.1000;1.3439;-4.8983;
77.4000;1.3431;-4.9036;
77.7000;1.3431;-4.9088;
78.0000;1.3439;-4.8983;
78.3000;1.3431;-4.9009;
78.6000;1.3423;-4.9062;
78.9000;1.3431;-4.9088;
79.2000;1.3455;-4.9088;
79.5000;1.3398;-4.9194;
79.8000;1.3431;-4.9115;
80.1000;1.3423;-4.9062;
80.4000;1.3431;-4.9036;
80.7000;1.3447;-4.9036;
81.0000;1.3439;-4.9062;
81.3000;1.3431;-4.9036;
81.6000;1.3423;-4.8983;
81.9000;1.3423;-4.9009;
82.2000;1.3439;-4.8930;
82.5000;1.3407;-4.8904;
82.8000;1.3431;-4.8798;
83.1000;1.3439;-4.8877;
83.4000;1.3439;-4.8851;
83.7000;1.3447;-4.8851;
84.0000;1.3431;-4.8877;
84.3000;1.3431;-4.8877;
84.6000;1.3455;-4.8824;
84.9000;1.3431;-4.8824;
85.2000;1.3423;-4.8877;
85.5000;1.3431;-4.8904;
85.8000;1.3480;-4.8772;
86.1000;1.3431;-4.8877;
86.4000;1.3439;-4.8877;
86.7000;1.3423;-4.8851;
87.0000;1.3455;-4.8824;
87.3000;1.3439;-4.8798;
87.6000;1.3447;-4.8904;
87.9000;1.3464;-4.8983;
88.2000;1.3439;-4.9036;
88.5000;1.3447;-4.9062;
88.8000;1.3439;-4.9088;
89.1000;1.3415;-4.9141;
89.4000;1.3455;-4.8983;
89.7000;1.3439;-4.8983;
90.0000;1.3455;-4.8930;
90.3000;1.3439;-4.8956;
90.6000;1.3455;-4.9009;
90.9000;1.3431;-4.9062;
91.2000;1.3464;-4.9009;
91.5000;1.3431;-4.9088;
91.8000;1.3455;-4.9009;
92.1000;1.3455;-4.8983;
92.4000;1.3439;-4.9009;
92.7000;1.3415;-4.9009;
93.0000;1.3455;-4.8983;
93.3000;1.3431;-4.9062;
93.6000;1.3398;-4.9115;
93.9000;1.3439;-4.9036;
94.2000;1.3431;-4.9088;
94.5000;1.3480;-4.8983;
94.8000;1.3398;-4.9115;
95.1000;1.3439;-4.9036;
95.4000;1.3431;-4.9088;
95.7000;1.3439;-4.9141;
96.0000;1.3455;-4.9036;
96.3000;1.3439;-4.9036;
96.6000;1.3447;-4.8983;
96.9000;1.3415;-4.9062;
97.2000;1.3447;-4.8983;
97.5000;1.3439;-4.8930;
97.8000;1.3439;-4.8772;
98.1000;1.3439;-4.8798;
98.4000;1.3496;-4.8692;
98.7000;1.3480;-4.8772;
99.0000;1.3472;-4.8851;
99.3000;1.3464;-4.8956;
99.6000;1.3472;-4.8930;
99.9000;1.3464;-4.9036;
100.2000;1.3447;-4.9141;
100.5000;1.3431;-4.9194;
100.8000;1.3431;-4.9247;
101.1000;1.3447;-4.9273;
101.4000;1.3431;-4.9326;
101.7000;1.3431;-4.9300;
102.0000;1.3455;-4.9194;
102.3000;1.3374;-4.9379;
102.6000;1.3447;-4.9194;
102.9000;1.3439;-4.9194;
103.2000;1.3480;-4.9088;
103.5000;1.3431;-4.9247;
103.8000;1.3455;-4.9194;
104.1000;1.3455;-4.9141;
104.4000;1.3447;-4.9062;
104.7000;1.3447;-4.8983;
105.0000;1.3423;-4.9036;
105.3000;1.3439;-4.8983;
105.6000;1.3423;-4.9062;
105.9000;1.3423;-4.9088;
106.2000;1.3407;-4.9141;
106.5000;1.3431;-4.9115;
106.8000;1.3431;-4.9088;
107.1000;1.3423;-4.9062;
107.4000;1.3423;-4.9194;
107.7000;1.3439;-4.9141;
108.0000;1.3415;-4.9194;
108.3000;1.3431;-4.9115;
108.6000;1.3447;-4.9062;
108.9000;1.3439;-4.9036;
109.2000;1.3439;-4.9088;
109.5000;1.3439;-4.9115;
109.8000;1.3439;-4.9115;
110.1000;1.3439;-4.9194;
110.4000;1.3439;-4.9141;
110.7000;1.3455;-4.9115;
111.0000;1.3431;-4.9220;
111.3000;1.3455;-4.9220;
111.6000;1.3423;-4.9300;
111.9000;1.3480;-4.9168;
112.2000;1.3455;-4.9168;
112.5000;1.3431;-4.9115;
112.8000;1.3423;-4.9036;
113.1000;1.3415;-4.9009;
113.4000;1.3447;-4.8930;
113.7000;1.3447;-4.8983;
114.0000;1.3472;-4.8930;
114.3000;1.3439;-4.9009;
114.6000;1.3447;-4.9062;
114.9000;1.3447;-4.9062;
115.2000;1.3431;-4.9062;
115.5000;1.3464;-4.9009;
115.8000;1.3431;-4.9062;
116.1000;1.3439;-4.9036;
116.4000;1.3504;-4.8772;
116.7000;1.3447;-4.8877;
117.0000;1.3423;-4.8904;
117.3000;1.3431;-4.9009;
117.6000;1.3431;-4.9036;
117.9000;1.3431;-4.9062;
118.2000;1.3431;-4.8983;
118.5000;1.3415;-4.8983;
118.8000;1.3423;-4.9036;
119.1000;1.3431;-4.9062;
119.4000;1.3390;-4.9141;
119.7000;1.3423;-4.8983;
120.0000;1.3439;-4.8956;
120.3000;1.3431;-4.8930;
120.6000;1.3439;-4.8983;
120.9000;1.3423;-4.8956;
121.2000;1.3382;-4.9009;
121.5000;1.3423;-4.8930;
121.8000;1.3407;-4.8930;
122.1000;1.3431;-4.8956;
122.4000;1.3431;-4.9009;
122.7000;1.3447;-4.8956;
123.0000;1.3431;-4.8851;
123.3000;1.3439;-4.8798;
123.6000;1.3439;-4.8772;
123.9000;1.3447;-4.8772;
124.2000;1.3390;-4.8930;
124.5000;1.3464;-4.8877;
124.8000;1.3455;-4.8877;
125.1000;1.3464;-4.8904;
125.4000;1.3423;-4.9062;
125.7000;1.3431;-4.9009;
126.0000;1.3431;-4.8904;
126.3000;1.3431;-4.8877;
126.6000;1.3464;-4.8851;
126.9000;1.3464;-4.8851;
127.2000;1.3472;-4.8745;
127.5000;1.3423;-4.8798;
127.8000;1.3455;-4.8798;
128.1000;1.3415;-4.9009;
128.4000;1.3439;-4.8904;
128.7000;1.3431;-4.8904;
129.0000;1.3447;-4.8877;
129.3000;1.3431;-4.8877;
129.6000;1.3439;-4.8824;
129.9000;1.3431;-4.8930;
130.2000;1.3366;-4.9088;
130.5000;1.3439;-4.8983;
130.8000;1.3415;-4.8904;
131.1000;1.3439;-4.8798;
131.4000;1.3439;-4.8851;
131.7000;1.3431;-4.8877;
132.0000;1.3431;-4.8956;
132.3000;1.3431;-4.9009;
132.6000;1.3423;-4.9036;
132.9000;1.3472;-4.8851;
133.2000;1.3447;-4.8877;
133.5000;1.3447;-4.8772;
133.8000;1.3439;-4.8772;
134.1000;1.3447;-4.8798;
134.4000;1.3439;-4.8745;
134.7000;1.3439;-4.8745;
135.0000;1.3407;-4.8904;
135.3000;1.3464;-4.8824;
135.6000;1.3455;-4.8877;
135.9000;1.3439;-4.8877;
136.2000;1.3455;-4.8877;
136.5000;1.3439;-4.8904;
136.8000;1.3431;-4.8956;
137.1000;1.3447;-4.8798;
137.4000;1.3431;-4.8851;
137.7000;1.3431;-4.8904;
138.0000;1.3447;-4.8956;
138.3000;1.3439;-4.8930;
138.6000;1.3439;-4.8983;
138.9000;1.3447;-4.9062;
139.2000;1.3431;-4.9062;
139.5000;1.3423;-4.9062;
139.8000;1.3447;-4.8983;
140.1000;1.3439;-4.9009;
140.4000;1.3447;-4.8983;
140.7000;1.3447;-4.8930;
141.0000;1.3447;-4.8851;
141.3000;1.3407;-4.8877;
141.6000;1.3431;-4.8772;
141.9000;1.3447;-4.8772;
142.2000;1.3431;-4.8824;
142.5000;1.3423;-4.8798;
142.8000;1.3407;-4.8983;
143.1000;1.3431;-4.8930;
143.4000;1.3431;-4.8956;
143.7000;1.3439;-4.8956;
144.0000;1.3431;-4.8956;
144.3000;1.3415;-4.8930;
144.6000;1.3415;-4.8877;
144.9000;1.3431;-4.8851;
145.2000;1.3423;-4.8877;
145.5000;1.3464;-4.8904;
145.8000;1.3431;-4.9062;
146.1000;1.3447;-4.9062;
146.4000;1.3431;-4.8983;
146.7000;1.3423;-4.9062;
147.0000;1.3423;-4.9088;
147.3000;1.3431;-4.9009;
147.6000;1.3447;-4.9009;
147.9000;1.3423;-4.9036;
148.2000;1.3455;-4.9036;
148.5000;1.3407;-4.9141;
148.8000;1.3447;-4.9062;
149.1000;1.3415;-4.9115;
149.4000;1.3390;-4.9194;
149.7000;1.3439;-4.8930;
150.0000;1.3431;-4.8930;
150.3000;1.3455;-4.8930;
150.6000;1.3439;-4.8930;
150.9000;1.3447;-4.8877;
151.2000;1.3504;-4.8692;
151.5000;1.3447;-4.8904;
151.8000;1.3431;-4.8877;
152.1000;1.3431;-4.8983;
152.4000;1.3447;-4.8983;
152.7000;1.3415;-4.9036;
153.0000;1.3415;-4.9009;
153.3000;1.3423;-4.8956;
153.6000;1.3439;-4.8904;
153.9000;1.3423;-4.8877;
154.2000;1.3431;-4.8904;
154.5000;1.3439;-4.8904;
154.8000;1.3431;-4.8930;
155.1000;1.3439;-4.9115;
155.4000;1.3439;-4.9115;
155.7000;1.3455;-4.9088;
156.0000;1.3431;-4.9168;
156.3000;1.3455;-4.9194;
156.6000;1.3439;-4.9247;
156.9000;1.3439;-4.9141;
157.2000;1.3431;-4.9088;
157.5000;1.3439;-4.8983;
157.8000;1.3439;-4.9009;
158.1000;1.3431;-4.9062;
158.4000;1.3431;-4.9036;
158.7000;1.3447;-4.8956;
159.0000;1.3431;-4.8956;
159.3000;1.3431;-4.8904;
159.6000;1.3423;-4.8904;
159.9000;1.3431;-4.8824;
160.2000;1.3431;-4.8772;
160.5000;1.3390;-4.8930;
160.8000;1.3431;-4.8745;
161.1000;1.3431;-4.8851;
161.4000;1.3439;-4.8983;
161.7000;1.3431;-4.9009;
162.0000;1.3423;-4.9062;
162.3000;1.3439;-4.9009;
162.6000;1.3447;-4.9062;
162.9000;1.3431;-4.9088;
163.2000;1.3431;-4.9009;
163.5000;1.3447;-4.8824;
163.8000;1.3447;-4.8877;
164.1000;1.3415;-4.8930;
164.4000;1.3431;-4.8956;
164.7000;1.3423;-4.8956;
165.0000;1.3439;-4.8956;
165.3000;1.3374;-4.9036;
165.6000;1.3431;-4.9009;
165.9000;1.3423;-4.9115;
166.2000;1.3439;-4.9009;
166.5000;1.3439;-4.9009;
166.8000;1.3447;-4.8983;
167.1000;1.3439;-4.8877;
167.4000;1.3407;-4.8877;
167.7000;1.3431;-4.8877;
168.0000;1.3390;-4.9036;
168.3000;1.3423;-4.8983;
168.6000;1.3382;-4.9036;
168.9000;1.3512;-4.8745;
169.2000;1.3439;-4.8877;
169.5000;1.3431;-4.8824;
169.8000;1.3431;-4.8904;
170.1000;1.3398;-4.9115;
170.4000;1.3447;-4.9062;
170.7000;1.3447;-4.9115;
171.0000;1.3407;-4.9247;
171.3000;1.3431;-4.9115;
171.6000;1.3488;-4.8930;
171.9000;1.3423;-4.9141;
172.2000;1.3415;-4.9194;
172.5000;1.3472;-4.8983;
172.8000;1.3431;-4.9009;
173.1000;1.3455;-4.8877;
173.4000;1.3447;-4.8956;
173.7000;1.3488;-4.8824;
174.0000;1.3447;-4.8877;
174.3000;1.3480;-4.8772;
174.6000;1.3415;-4.8983;
174.9000;1.3407;-4.8904;
175.2000;1.3431;-4.8772;
175.5000;1.3439;-4.8824;
175.8000;1.3431;-4.8851;
176.1000;1.3431;-4.8904;
176.4000;1.3423;-4.8930;
176.7000;1.3431;-4.8824;
177.0000;1.3431;-4.8877;
177.3000;1.3423;-4.9009;
177.6000;1.3431;-4.8983;
177.9000;1.3431;-4.8956;
178.2000;1.3431;-4.9009;
178.5000;1.3415;-4.9062;
178.8000;1.3415;-4.9036;
179.1000;1.3423;-4.9009;
179.4000;1.3415;-4.9009;
179.7000;1.3415;-4.9036;
180.0000;1.3512;-4.8772;
180.3000;1.3431;-4.8956;
180.6000;1.3447;-4.8956;
180.9000;1.3480;-4.8824;
181.2000;1.3431;-4.8956;
181.5000;1.3415;-4.8956;
181.8000;1.3455;-4.8904;
182.1000;1.3447;-4.8877;
182.4000;1.3431;-4.8930;
182.7000;1.3398;-4.9009;
183.0000;1.3488;-4.8745;
183.3000;1.3415;-4.8956;
183.6000;1.3415;-4.9009;
183.9000;1.3488;-4.8877;
184.2000;1.3431;-4.9009;
184.5000;1.3423;-4.9036;
184.8000;1.3431;-4.9036;
185.1000;1.3415;-4.9115;
185.4000;1.3423;-4.9115;
185.7000;1.3431;-4.9115;
186.0000;1.3415;-4.9168;
186.3000;1.3423;-4.9168;
186.6000;1.3415;-4.9273;
186.9000;1.3423;-4.9168;
187.2000;1.3423;-4.9141;
187.5000;1.3423;-4.9168;
187.8000;1.3431;-4.9141;
188.1000;1.3431;-4.9115;
188.4000;1.3415;-4.9194;
188.7000;1.3423;-4.9194;
189.0000;1.3398;-4.9220;
189.3000;1.3390;-4.9247;
189.6000;1.3512;-4.8904;
189.9000;1.3382;-4.9115;
190.2000;1.3423;-4.9088;
190.5000;1.3407;-4.9141;
190.8000;1.3431;-4.9036;
191.1000;1.3407;-4.9141;
191.4000;1.3415;-4.9115;
191.7000;1.3423;-4.9194;
192.0000;1.3431;-4.9220;
192.3000;1.3407;-4.9247;
192.6000;1.3423;-4.9194;
192.9000;1.3415;-4.9220;
193.2000;1.3431;-4.9115;
193.5000;1.3423;-4.9088;
193.8000;1.3415;-4.9141;
194.1000;1.3366;-4.9220;
194.4000;1.3423;-4.9088;
194.7000;1.3439;-4.9088;
195.0000;1.3464;-4.9088;
195.3000;1.3415;-4.9115;
195.6000;1.3407;-4.9115;
195.9000;1.3431;-4.9115;
196.2000;1.3415;-4.9141;
196.5000;1.3423;-4.9062;
196.8000;1.3431;-4.8983;
197.1000;1.3423;-4.8956;
197.4000;1.3423;-4.8983;
197.7000;1.3431;-4.8904;
198.0000;1.3415;-4.8983;
198.3000;1.3398;-4.9009;
198.6000;1.3423;-4.8904;
198.9000;1.3415;-4.8983;
199.2000;1.3423;-4.8904;
199.5000;1.3423;-4.8930;
199.8000;1.3439;-4.8983;
200.1000;1.3439;-4.8930;
200.4000;1.3415;-4.8983;
200.7000;1.3398;-4.9009;
201.0000;1.3431;-4.8904;
201.3000;1.3423;-4.8930;
201.6000;1.3423;-4.8851;
201.9000;1.3407;-4.8904;
202.2000;1.3415;-4.8930;
202.5000;1.3431;-4.8930;
202.8000;1.3423;-4.8983;
203.1000;1.3431;-4.8983;
203.4000;1.3423;-4.9009;
203.7000;1.3431;-4.8904;
204.0000;1.3407;-4.8956;
204.3000;1.3423;-4.8851;
204.6000;1.3431;-4.8824;
204.9000;1.3423;-4.8824;
205.2000;1.3423;-4.8798;
205.5000;1.3431;-4.8851;
205.8000;1.3423;-4.8904;
206.1000;1.3447;-4.8904;
206.4000;1.3398;-4.8983;
206.7000;1.3423;-4.8983;
207.0000;1.3439;-4.8877;
207.3000;1.3431;-4.8798;
207.6000;1.3423;-4.8824;
207.9000;1.3390;-4.8930;
208.2000;1.3407;-4.8851;
208.5000;1.3447;-4.8772;
208.8000;1.3415;-4.8851;
209.1000;1.3407;-4.8824;
209.4000;1.3415;-4.8904;
209.7000;1.3415;-4.8956;
210.0000;1.3423;-4.8983;
210.3000;1.3398;-4.9009;
210.6000;1.3398;-4.9009;
210.9000;1.3447;-4.8930;
211.2000;1.3423;-4.9062;
211.5000;1.3415;-4.9141;
211.8000;1.3464;-4.9009;
212.1000;1.3423;-4.9115;
212.4000;1.3439;-4.9115;
212.7000;1.3431;-4.9088;
213.0000;1.3423;-4.9009;
213.3000;1.3415;-4.9115;
213.6000;1.3407;-4.9088;
213.9000;1.3423;-4.9062;
214.2000;1.3398;-4.9141;
214.5000;1.3423;-4.9036;
214.8000;1.3439;-4.9088;
215.1000;1.3431;-4.9036;
215.4000;1.3415;-4.9009;
215.7000;1.3415;-4.9062;
216.0000;1.3423;-4.9062;
216.3000;1.3431;-4.9141;
216.6000;1.3382;-4.9194;
216.9000;1.3415;-4.9088;
217.2000;1.3407;-4.9062;
217.5000;1.3415;-4.9036;
217.8000;1.3423;-4.9036;
218.1000;1.3488;-4.8904;
218.4000;1.3350;-4.9220;
218.7000;1.3407;-4.9062;
219.0000;1.3455;-4.8877;
219.3000;1.3423;-4.8930;
219.6000;1.3423;-4.8904;
219.9000;1.3455;-4.8745;
220.2000;1.3415;-4.8745;
220.5000;1.3407;-4.8745;
220.8000;1.3398;-4.8772;
221.1000;1.3423;-4.8745;
221.4000;1.3415;-4.8745;
221.7000;1.3423;-4.8824;
222.0000;1.3407;-4.8956;
222.3000;1.3398;-4.9009;
222.6000;1.3407;-4.9009;
222.9000;1.3415;-4.9036;
223.2000;1.3415;-4.8983;
223.5000;1.3415;-4.9036;
223.8000;1.3415;-4.9036;
224.1000;1.3415;-4.9009;
224.4000;1.3415;-4.9088;
224.7000;1.3423;-4.8983;
225.0000;1.3415;-4.8956;
225.3000;1.3374;-4.9062;
225.6000;1.3415;-4.8956;
225.9000;1.3439;-4.8930;
226.2000;1.3431;-4.8904;
226.5000;1.3439;-4.9036;
226.8000;1.3390;-4.9062;
227.1000;1.3398;-4.9009;
227.4000;1.3350;-4.9220;
227.7000;1.3423;-4.9009;
228.0000;1.3423;-4.8956;
228.3000;1.3374;-4.8983;
228.6000;1.3407;-4.8851;
228.9000;1.3480;-4.8692;
229.2000;1.3423;-4.8824;
229.5000;1.3439;-4.8772;
229.8000;1.3431;-4.8772;
230.1000;1.3431;-4.8772;
230.4000;1.3423;-4.8824;
230.7000;1.3439;-4.8798;
231.0000;1.3423;-4.8956;
231.3000;1.3407;-4.9036;
231.6000;1.3423;-4.8930;
231.9000;1.3407;-4.9036;
232.2000;1.3390;-4.8956;
232.5000;1.3447;-4.8851;
232.8000;1.3423;-4.8956;
233.1000;1.3415;-4.8983;
233.4000;1.3423;-4.8983;
233.7000;1.3423;-4.9009;
234.0000;1.3415;-4.9036;
234.3000;1.3423;-4.8930;
234.6000;1.3358;-4.9088;
234.9000;1.3415;-4.8930;
235.2000;1.3423;-4.8904;
235.5000;1.3415;-4.8983;
235.8000;1.3415;-4.8956;
236.1000;1.3464;-4.8719;
236.4000;1.3407;-4.8983;
236.7000;1.3407;-4.8983;
237.0000;1.3423;-4.9036;
237.3000;1.3398;-4.9062;
237.6000;1.3407;-4.9088;
237.9000;1.3447;-4.9009;
238.2000;1.3415;-4.9141;
238.5000;1.3423;-4.9141;
238.8000;1.3439;-4.9115;
239.1000;1.3464;-4.8956;
239.4000;1.3439;-4.8956;
239.7000;1.3431;-4.8877;
240.0000;1.3398;-4.8877;
240.3000;1.3423;-4.8904;
240.6000;1.3407;-4.8877;
240.9000;1.3415;-4.8824;
241.2000;1.3407;-4.8877;
241.5000;1.3415;-4.8904;
241.8000;1.3415;-4.8851;
242.1000;1.3431;-4.8904;
242.4000;1.3398;-4.8983;
242.7000;1.3407;-4.8877;
243.0000;1.3407;-4.8877;
243.3000;1.3407;-4.8930;
243.6000;1.3415;-4.8824;
243.9000;1.3407;-4.8824;
244.2000;1.3415;-4.8772;
244.5000;1.3366;-4.8930;
244.8000;1.3415;-4.8877;
245.1000;1.3358;-4.9036;
245.4000;1.3398;-4.8904;
245.7000;1.3407;-4.8877;
246.0000;1.3455;-4.8692;
246.3000;1.3415;-4.8851;
246.6000;1.3390;-4.8877;
246.9000;1.3407;-4.8983;
247.2000;1.3398;-4.9036;
247.5000;1.3407;-4.9141;
247.8000;1.3407;-4.9088;
248.1000;1.3415;-4.9141;
248.4000;1.3423;-4.9220;
248.7000;1.3415;-4.9220;
249.0000;1.3398;-4.9220;
249.3000;1.3415;-4.9141;
249.6000;1.3423;-4.9115;
249.9000;1.3350;-4.9220;
250.2000;1.3423;-4.8983;
250.5000;1.3390;-4.8851;
250.8000;1.3439;-4.8772;
251.1000;1.3415;-4.8983;
251.4000;1.3398;-4.9036;
251.7000;1.3398;-4.8956;
252.0000;1.3407;-4.8877;
252.3000;1.3472;-4.8772;
252.6000;1.3415;-4.8877;
252.9000;1.3415;-4.8904;
253.2000;1.3423;-4.8904;
253.5000;1.3431;-4.8877;
253.8000;1.3423;-4.8877;
254.1000;1.3407;-4.8851;
254.4000;1.3398;-4.8904;
254.7000;1.3415;-4.8904;
255.0000;1.3398;-4.8956;
255.3000;1.3415;-4.8930;
255.6000;1.3407;-4.9009;
255.9000;1.3415;-4.9115;
256.2000;1.3415;-4.9088;
256.5000;1.3415;-4.9141;
256.8000;1.3423;-4.9115;
257.1000;1.3423;-4.9141;
257.4000;1.3431;-4.9062;
257.7000;1.3398;-4.9088;
258.0000;1.3407;-4.9088;
258.3000;1.3407;-4.9088;
258.6000;1.3390;-4.9088;
258.9000;1.3423;-4.9036;
259.2000;1.3423;-4.8956;
259.5000;1.3415;-4.8956;
259.8000;1.3415;-4.8904;
260.1000;1.3431;-4.8904;
260.4000;1.3431;-4.8930;
260.7000;1.3415;-4.8956;
261.0000;1.3415;-4.8956;
261.3000;1.3407;-4.9009;
261.6000;1.3415;-4.8904;
261.9000;1.3398;-4.8956;
262.2000;1.3439;-4.8877;
262.5000;1.3407;-4.8904;
262.8000;1.3415;-4.8851;
263.1000;1.3407;-4.8904;
263.4000;1.3423;-4.8904;
263.7000;1.3447;-4.8877;
264.0000;1.3415;-4.8904;
264.3000;1.3423;-4.8824;
264.6000;1.3439;-4.8851;
264.9000;1.3423;-4.8904;
265.2000;1.3398;-4.9036;
265.5000;1.3398;-4.9115;
265.8000;1.3407;-4.9088;
266.1000;1.3423;-4.9036;
266.4000;1.3423;-4.9115;
266.7000;1.3398;-4.9220;
267.0000;1.3390;-4.9194;
267.3000;1.3398;-4.9141;
267.6000;1.3317;-4.9300;
267.9000;1.3407;-4.9036;
268.2000;1.3407;-4.9036;
268.5000;1.3407;-4.9009;
268.8000;1.3407;-4.8983;
269.1000;1.3382;-4.9088;
269.4000;1.3398;-4.9036;
269.7000;1.3415;-4.9088;
270.0000;1.3464;-4.8824;
270.3000;1.3431;-4.8904;
270.6000;1.3407;-4.8930;
270.9000;1.3407;-4.8930;
271.2000;1.3415;-4.8983;
271.5000;1.3398;-4.9062;
271.8000;1.3423;-4.9036;
272.1000;1.3431;-4.8956;
272.4000;1.3415;-4.8930;
272.7000;1.3407;-4.8956;
273.0000;1.3431;-4.8904;
273.3000;1.3398;-4.8956;
273.6000;1.3415;-4.8956;
273.9000;1.3407;-4.9009;
274.2000;1.3407;-4.9036;
274.5000;1.3407;-4.8956;
274.8000;1.3390;-4.9036;
275.1000;1.3423;-4.8983;
275.4000;1.3447;-4.8798;
275.7000;1.3423;-4.8877;
276.0000;1.3382;-4.8904;
276.3000;1.3407;-4.8877;
276.6000;1.3423;-4.8904;
276.9000;1.3415;-4.8983;
277.2000;1.3398;-4.9062;
277.5000;1.3415;-4.9062;
277.8000;1.3390;-4.9088;
278.1000;1.3415;-4.9036;
278.4000;1.3407;-4.9036;
278.7000;1.3431;-4.9036;
279.0000;1.3407;-4.9088;
279.3000;1.3415;-4.9009;
279.6000;1.3398;-4.9009;
279.9000;1.3407;-4.9036;
280.2000;1.3398;-4.9062;
280.5000;1.3407;-4.9009;
280.8000;1.3398;-4.8983;
281.1000;1.3407;-4.8930;
281.4000;1.3398;-4.8983;
281.7000;1.3398;-4.8904;
282.0000;1.3423;-4.8798;
282.3000;1.3423;-4.8745;
282.6000;1.3472;-4.8640;
282.9000;1.3407;-4.8745;
283.2000;1.3407;-4.8719;
283.5000;1.3366;-4.8824;
283.8000;1.3423;-4.8772;
284.1000;1.3439;-4.8640;
284.4000;1.3439;-4.8560;
284.7000;1.3415;-4.8666;
285.0000;1.3431;-4.8640;
285.3000;1.3423;-4.8692;
285.6000;1.3439;-4.8692;
285.9000;1.3358;-4.8851;
286.2000;1.3398;-4.8824;
286.5000;1.3407;-4.8877;
286.8000;1.3423;-4.8798;
287.1000;1.3366;-4.8824;
287.4000;1.3415;-4.8798;
287.7000;1.3431;-4.8719;
288.0000;1.3398;-4.8798;
288.3000;1.3431;-4.8798;
288.6000;1.3407;-4.8877;
288.9000;1.3374;-4.8956;
289.2000;1.3374;-4.9062;
289.5000;1.3398;-4.9088;
289.8000;1.3407;-4.9062;
290.1000;1.3382;-4.9115;
290.4000;1.3398;-4.9062;
290.7000;1.3398;-4.8956;
291.0000;1.3398;-4.8956;
291.3000;1.3398;-4.8904;
291.6000;1.3423;-4.8824;
291.9000;1.3415;-4.8798;
292.2000;1.3423;-4.8798;
292.5000;1.3423;-4.8824;
292.8000;1.3398;-4.8877;
293.1000;1.3407;-4.8772;
293.4000;1.3407;-4.8745;
293.7000;1.3398;-4.8745;
294.0000;1.3398;-4.8798;
294.3000;1.3407;-4.8772;
294.6000;1.3415;-4.8798;
294.9000;1.3407;-4.8930;
295.2000;1.3398;-4.8983;
295.5000;1.3423;-4.8930;
295.8000;1.3423;-4.8904;
296.1000;1.3407;-4.8983;
296.4000;1.3398;-4.9115;
296.7000;1.3390;-4.9115;
297.0000;1.3317;-4.9220;
297.3000;1.3398;-4.8983;
297.6000;1.3390;-4.8983;
297.9000;1.3398;-4.8956;
298.2000;1.3398;-4.8877;
298.5000;1.3398;-4.8851;
298.8000;1.3390;-4.8877;
299.1000;1.3382;-4.8851;
299.4000;1.3407;-4.8851;
299.7000;1.3398;-4.8745;
300.0000;1.3398;-4.8719;
300.3000;1.3390;-4.8613;
300.6000;1.3390;-4.8560;
300.9000;1.3398;-4.8640;
301.2000;1.3366;-4.8745;
301.5000;1.3407;-4.8666;
301.8000;1.3439;-4.8587;
302.1000;1.3407;-4.8666;
302.4000;1.3423;-4.8640;
302.7000;1.3390;-4.8772;
303.0000;1.3390;-4.8798;
303.3000;1.3407;-4.8824;
303.6000;1.3496;-4.8613;
303.9000;1.3398;-4.8930;
304.2000;1.3382;-4.8930;
304.5000;1.3382;-4.8904;
304.8000;1.3398;-4.8824;
305.1000;1.3407;-4.8904;
305.4000;1.3431;-4.8851;
305.7000;1.3407;-4.8930;
306.0000;1.3407;-4.8798;
306.3000;1.3480;-4.8613;
306.6000;1.3512;-4.8455;
306.9000;1.3415;-4.8692;
307.2000;1.3415;-4.8798;
307.5000;1.3415;-4.8745;
307.8000;1.3398;-4.8824;
308.1000;1.3407;-4.8824;
308.4000;1.3398;-4.8904;
308.7000;1.3423;-4.8824;
309.0000;1.3423;-4.8824;
309.3000;1.3407;-4.8851;
309.6000;1.3398;-4.8983;
309.9000;1.3455;-4.8851;
310.2000;1.3390;-4.8956;
310.5000;1.3390;-4.8983;
310.8000;1.3407;-4.8956;
311.1000;1.3439;-4.8824;
311.4000;1.3431;-4.8772;
311.7000;1.3390;-4.8798;
312.0000;1.3398;-4.8772;
312.3000;1.3415;-4.8772;
312.6000;1.3423;-4.8851;
312.9000;1.3390;-4.9009;
313.2000;1.3415;-4.9062;
313.5000;1.3415;-4.9036;
313.8000;1.3407;-4.9036;
314.1000;1.3390;-4.9115;
314.4000;1.3366;-4.9194;
314.7000;1.3407;-4.9036;
315.0000;1.3398;-4.8956;
315.3000;1.3423;-4.8877;
315.6000;1.3407;-4.8956;
315.9000;1.3398;-4.8930;
316.2000;1.3398;-4.8904;
316.5000;1.3423;-4.8877;
316.8000;1.3407;-4.9036;
317.1000;1.3407;-4.9088;
317.4000;1.3382;-4.9088;
317.7000;1.3415;-4.8956;
318.0000;1.3398;-4.9009;
318.3000;1.3415;-4.8983;
318.6000;1.3431;-4.8930;
318.9000;1.3415;-4.9009;
319.2000;1.3390;-4.9088;
319.5000;1.3407;-4.9088;
319.8000;1.3382;-4.9115;
320.1000;1.3398;-4.9036;
320.4000;1.3423;-4.9088;
320.7000;1.3398;-4.9194;
321.0000;1.3398;-4.9168;
321.3000;1.3423;-4.9062;
321.6000;1.3415;-4.8904;
321.9000;1.3350;-4.9062;
322.2000;1.3423;-4.8930;
322.5000;1.3390;-4.9088;
322.8000;1.3423;-4.9062;
323.1000;1.3390;-4.9062;
323.4000;1.3480;-4.8745;
323.7000;1.3398;-4.8956;
324.0000;1.3398;-4.9036;
324.3000;1.3407;-4.9088;
324.6000;1.3390;-4.9141;
324.9000;1.3390;-4.9115;
325.2000;1.3366;-4.9115;
325.5000;1.3390;-4.8983;
325.8000;1.3358;-4.9141;
326.1000;1.3382;-4.9115;
326.4000;1.3464;-4.9009;
326.7000;1.3366;-4.9220;
327.0000;1.3382;-4.9115;
327.3000;1.3390;-4.9088;
327.6000;1.3398;-4.9062;
327.9000;1.3398;-4.9141;
328.2000;1.3407;-4.9168;
328.5000;1.3398;-4.9115;
328.8000;1.3407;-4.9062;
329.1000;1.3407;-4.8983;
329.4000;1.3488;-4.8851;
329.7000;1.3390;-4.9194;
330.0000;1.3390;-4.9141;
330.3000;1.3398;-4.9115;
330.6000;1.3415;-4.9088;
330.9000;1.3407;-4.9141;
331.2000;1.3407;-4.9168;
331.5000;1.3415;-4.9036;
331.8000;1.3415;-4.9009;
332.1000;1.3398;-4.9062;
332.4000;1.3423;-4.9062;
332.7000;1.3415;-4.9088;
333.0000;1.3415;-4.9062;
333.3000;1.3390;-4.9168;
333.6000;1.3398;-4.9115;
333.9000;1.3350;-4.9220;
334.2000;1.3407;-4.9036;
334.5000;1.3398;-4.9009;
334.8000;1.3382;-4.8983;
335.1000;1.3390;-4.8983;
335.4000;1.3390;-4.8904;
335.7000;1.3390;-4.8851;
336.0000;1.3382;-4.8877;
336.3000;1.3382;-4.8956;
336.6000;1.3366;-4.9036;
336.9000;1.3390;-4.9036;
337.2000;1.3374;-4.9036;
337.5000;1.3390;-4.8851;
337.8000;1.3407;-4.8824;
338.1000;1.3407;-4.8930;
338.4000;1.3398;-4.8772;
338.7000;1.3398;-4.8692;
339.0000;1.3398;-4.8640;
339.3000;1.3431;-4.8613;
339.6000;1.3398;-4.8772;
339.9000;1.3398;-4.8824;
340.2000;1.3407;-4.8851;
340.5000;1.3407;-4.8851;
340.8000;1.3398;-4.8824;
341.1000;1.3382;-4.8824;
341.4000;1.3390;-4.8798;
341.7000;1.3398;-4.8798;
342.0000;1.3423;-4.8745;
342.3000;1.3325;-4.9115;
342.6000;1.3390;-4.8904;
342.9000;1.3390;-4.8983;
343.2000;1.3407;-4.9088;
343.5000;1.3398;-4.9115;
343.8000;1.3382;-4.9088;
344.1000;1.3382;-4.9115;
344.4000;1.3398;-4.9088;
344.7000;1.3398;-4.9062;
345.0000;1.3333;-4.9168;
345.3000;1.3423;-4.8956;
345.6000;1.3398;-4.9009;
345.9000;1.3407;-4.9009;
346.2000;1.3390;-4.9036;
346.5000;1.3431;-4.8930;
346.8000;1.3398;-4.8956;
347.1000;1.3398;-4.8956;
347.4000;1.3398;-4.8930;
347.7000;1.3407;-4.8904;
348.0000;1.3390;-4.8877;
348.3000;1.3407;-4.8904;
348.6000;1.3398;-4.8983;
348.9000;1.3398;-4.9062;
349.2000;1.3398;-4.9062;
349.5000;1.3398;-4.9062;
349.8000;1.3390;-4.9062;
350.1000;1.3390;-4.9088;
350.4000;1.3382;-4.9115;
350.7000;1.3415;-4.9062;
351.0000;1.3398;-4.9036;
351.3000;1.3374;-4.9115;
351.6000;1.3374;-4.9141;
351.9000;1.3398;-4.9088;
352.2000;1.3415;-4.9009;
352.5000;1.3390;-4.8956;
352.8000;1.3398;-4.8983;
353.1000;1.3407;-4.8877;
353.4000;1.3390;-4.8956;
353.7000;1.3407;-4.8904;
354.0000;1.3390;-4.8851;
354.3000;1.3358;-4.8983;
354.6000;1.3398;-4.8930;
354.9000;1.3398;-4.8877;
355.2000;1.3382;-4.8956;
355.5000;1.3366;-4.9062;
355.8000;1.3382;-4.8851;
356.1000;1.3447;-4.8745;
356.4000;1.3382;-4.8851;
356.7000;1.3398;-4.8824;
357.0000;1.3407;-4.8719;
357.3000;1.3407;-4.8798;
357.6000;1.3407;-4.8824;
357.9000;1.3382;-4.8930;
358.2000;1.3398;-4.8956;
358.5000;1.3390;-4.9009;
358.8000;1.3398;-4.8930;
359.1000;1.3390;-4.8877;
359.4000;1.3398;-4.8904;
359.7000;1.3398;-4.8956;
360.0000;1.3398;-4.8877;
360.3000;1.3382;-4.8851;
360.6000;1.3374;-4.8930;
360.9000;1.3407;-4.8851;
361.2000;1.3390;-4.8851;
361.5000;1.3390;-4.8930;
361.8000;1.3398;-4.8956;
362.1000;1.3382;-4.9009;
362.4000;1.3382;-4.9009;
362.7000;1.3382;-4.8983;
363.0000;1.3382;-4.9036;
363.3000;1.3390;-4.9115;
363.6000;1.3407;-4.9115;
363.9000;1.3398;-4.8983;
364.2000;1.3390;-4.8956;
364.5000;1.3407;-4.8877;
364.8000;1.3398;-4.8956;
365.1000;1.3415;-4.8798;
365.4000;1.3407;-4.8877;
365.7000;1.3398;-4.8877;
366.0000;1.3415;-4.8798;
366.3000;1.3382;-4.8851;
366.6000;1.3398;-4.8877;
366.9000;1.3398;-4.8772;
367.2000;1.3398;-4.8877;
367.5000;1.3374;-4.8930;
367.8000;1.3390;-4.8930;
368.1000;1.3390;-4.9009;
368.4000;1.3398;-4.9062;
368.7000;1.3398;-4.9088;
369.0000;1.3390;-4.9036;
369.3000;1.3407;-4.9088;
369.6000;1.3390;-4.9062;
369.9000;1.3407;-4.8956;
370.2000;1.3407;-4.8956;
370.5000;1.3415;-4.8904;
370.8000;1.3398;-4.8956;
371.1000;1.3382;-4.8983;
371.4000;1.3382;-4.9009;
371.7000;1.3415;-4.8824;
372.0000;1.3374;-4.8983;
372.3000;1.3382;-4.8930;
372.6000;1.3390;-4.8904;
372.9000;1.3407;-4.8904;
373.2000;1.3374;-4.9009;
373.5000;1.3398;-4.8904;
373.8000;1.3415;-4.8877;
374.1000;1.3407;-4.8824;
374.4000;1.3333;-4.8956;
374.7000;1.3382;-4.8851;
375.0000;1.3407;-4.8798;
375.3000;1.3390;-4.8772;
375.6000;1.3407;-4.8904;
375.9000;1.3390;-4.9009;
376.2000;1.3398;-4.9009;
376.5000;1.3350;-4.9141;
376.8000;1.3407;-4.9009;
377.1000;1.3374;-4.9036;
377.4000;1.3398;-4.8877;
377.7000;1.3415;-4.8824;
378.0000;1.3415;-4.8904;
378.3000;1.3398;-4.8930;
378.6000;1.3398;-4.8983;
378.9000;1.3415;-4.8877;
379.2000;1.3423;-4.8904;
379.5000;1.3415;-4.8904;
379.8000;1.3415;-4.8877;
380.1000;1.3407;-4.8904;
380.4000;1.3398;-4.8956;
380.7000;1.3390;-4.8956;
381.0000;1.3455;-4.8772;
381.3000;1.3390;-4.8824;
381.6000;1.3398;-4.8824;
381.9000;1.3358;-4.8904;
382.2000;1.3390;-4.8877;
382.5000;1.3374;-4.8877;
382.8000;1.3382;-4.8877;
383.1000;1.3374;-4.8824;
383.4000;1.3382;-4.8772;
383.7000;1.3374;-4.8666;
384.0000;1.3374;-4.8719;
384.3000;1.3423;-4.8613;
384.6000;1.3374;-4.8772;
384.9000;1.3374;-4.8851;
385.2000;1.3382;-4.8851;
385.5000;1.3374;-4.8930;
385.8000;1.3382;-4.8824;
386.1000;1.3382;-4.8745;
386.4000;1.3390;-4.8824;
386.7000;1.3382;-4.8824;
387.0000;1.3407;-4.8772;
387.3000;1.3350;-4.8956;
387.6000;1.3366;-4.8983;
387.9000;1.3415;-4.8877;
388.2000;1.3423;-4.8772;
388.5000;1.3366;-4.8956;
388.8000;1.3374;-4.8983;
389.1000;1.3390;-4.8930;
389.4000;1.3390;-4.8930;
389.7000;1.3390;-4.8983;
390.0000;1.3382;-4.9036;
390.3000;1.3398;-4.9036;
390.6000;1.3407;-4.8983;
390.9000;1.3398;-4.9088;
391.2000;1.3407;-4.9088;
391.5000;1.3382;-4.9168;
391.8000;1.3398;-4.9088;
392.1000;1.3382;-4.9115;
392.4000;1.3325;-4.9326;
392.7000;1.3390;-4.9141;
393.0000;1.3439;-4.9036;
393.3000;1.3382;-4.9168;
393.6000;1.3407;-4.9036;
393.9000;1.3382;-4.9115;
394.2000;1.3390;-4.9088;
394.5000;1.3398;-4.9088;
394.8000;1.3398;-4.8956;
395.1000;1.3374;-4.8983;
395.4000;1.3390;-4.8956;
395.7000;1.3398;-4.8983;
396.0000;1.3415;-4.9009;
396.3000;1.3382;-4.9036;
396.6000;1.3374;-4.9062;
396.9000;1.3390;-4.8983;
397.2000;1.3390;-4.9036;
397.5000;1.3366;-4.9141;
397.8000;1.3415;-4.9115;
398.1000;1.3382;-4.9247;
398.4000;1.3398;-4.9220;
398.7000;1.3382;-4.9220;
399.0000;1.3382;-4.9247;
399.3000;1.3398;-4.9273;
399.6000;1.3455;-4.9088;
399.9000;1.3398;-4.9141;
400.2000;1.3390;-4.9115;
400.5000;1.3415;-4.9036;
400.8000;1.3398;-4.8956;
401.1000;1.3472;-4.8745;
401.4000;1.3382;-4.8904;
401.7000;1.3390;-4.8956;
402.0000;1.3333;-4.9062;
402.3000;1.3407;-4.8877;
402.6000;1.3390;-4.8956;
402.9000;1.3358;-4.9009;
403.2000;1.3390;-4.8956;
403.5000;1.3390;-4.8930;
403.8000;1.3374;-4.9009;
404.1000;1.3350;-4.9088;
404.4000;1.3374;-4.9062;
404.7000;1.3382;-4.9062;
405.0000;1.3350;-4.9194;
405.3000;1.3390;-4.9115;
405.6000;1.3382;-4.9168;
405.9000;1.3382;-4.9220;
406.2000;1.3390;-4.9194;
406.5000;1.3366;-4.9273;
406.8000;1.3390;-4.9220;
407.1000;1.3407;-4.9194;
407.4000;1.3374;-4.9247;
407.7000;1.3382;-4.9141;
408.0000;1.3382;-4.9141;
408.3000;1.3398;-4.9115;
408.6000;1.3382;-4.9115;
408.9000;1.3382;-4.9168;
409.2000;1.3382;-4.9220;
409.5000;1.3407;-4.9088;
409.8000;1.3398;-4.9141;
410.1000;1.3390;-4.9220;
410.4000;1.3382;-4.9220;
410.7000;1.3398;-4.9168;
411.0000;1.3407;-4.9115;
411.3000;1.3398;-4.9115;
411.6000;1.3472;-4.8983;
411.9000;1.3398;-4.9194;
412.2000;1.3398;-4.9247;
412.5000;1.3398;-4.9326;
412.8000;1.3390;-4.9141;
413.1000;1.3374;-4.9168;
413.4000;1.3358;-4.9220;
413.7000;1.3407;-4.9194;
414.0000;1.3333;-4.9352;
414.3000;1.3382;-4.9062;
414.6000;1.3398;-4.9088;
414.9000;1.3382;-4.9194;
415.2000;1.3398;-4.9168;
415.5000;1.3390;-4.9194;
415.8000;1.3374;-4.9141;
416.1000;1.3415;-4.9062;
416.4000;1.3366;-4.9088;
416.7000;1.3382;-4.8930;
417.0000;1.3390;-4.8877;
417.3000;1.3390;-4.8851;
417.6000;1.3382;-4.8904;
417.9000;1.3374;-4.8798;
418.2000;1.3374;-4.8772;
418.5000;1.3350;-4.8877;
418.8000;1.3390;-4.8798;
419.1000;1.3390;-4.8824;
419.4000;1.3382;-4.8772;
419.7000;1.3382;-4.8824;
420.0000;1.3398;-4.8719;
420.3000;1.3415;-4.8719;
420.6000;1.3374;-4.8719;
420.9000;1.3374;-4.8719;
421.2000;1.3374;-4.8798;
421.5000;1.3398;-4.8824;
421.8000;1.3390;-4.8904;
422.1000;1.3398;-4.8956;
422.4000;1.3447;-4.8798;
422.7000;1.3382;-4.8983;
423.0000;1.3350;-4.9009;
423.3000;1.3398;-4.8877;
423.6000;1.3390;-4.9009;
423.9000;1.3390;-4.9009;
424.2000;1.3390;-4.9009;
424.5000;1.3390;-4.9009;
424.8000;1.3398;-4.8930;
425.1000;1.3439;-4.8798;
425.4000;1.3398;-4.8930;
425.7000;1.3407;-4.8983;
426.0000;1.3398;-4.9009;
426.3000;1.3407;-4.8983;
426.6000;1.3390;-4.8956;
426.9000;1.3398;-4.8983;
427.2000;1.3374;-4.8983;
427.5000;1.3398;-4.8904;
427.8000;1.3390;-4.8877;
428.1000;1.3390;-4.8956;
428.4000;1.3374;-4.8983;
428.7000;1.3382;-4.8956;
429.0000;1.3374;-4.8983;
429.3000;1.3366;-4.8877;
429.6000;1.3366;-4.8983;
429.9000;1.3374;-4.9036;
430.2000;1.3374;-4.9062;
430.5000;1.3407;-4.9009;
430.8000;1.3390;-4.9009;
431.1000;1.3358;-4.9036;
431.4000;1.3374;-4.9036;
431.7000;1.3382;-4.9009;
432.0000;1.3374;-4.9036;
432.3000;1.3390;-4.9036;
432.6000;1.3382;-4.8983;
432.9000;1.3374;-4.8930;
433.2000;1.3464;-4.8692;
433.5000;1.3358;-4.8956;
433.8000;1.3358;-4.8930;
434.1000;1.3464;-4.8613;
434.4000;1.3374;-4.8798;
434.7000;1.3415;-4.8745;
435.0000;1.3358;-4.8851;
435.3000;1.3350;-4.8930;
435.6000;1.3374;-4.8956;
435.9000;1.3382;-4.9036;
436.2000;1.3358;-4.9088;
436.5000;1.3390;-4.9009;
436.8000;1.3382;-4.8877;
437.1000;1.3366;-4.8930;
437.4000;1.3382;-4.8930;
437.7000;1.3382;-4.8904;
438.0000;1.3350;-4.8904;
438.3000;1.3374;-4.8798;
438.6000;1.3415;-4.8692;
438.9000;1.3350;-4.8824;
439.2000;1.3382;-4.8824;
439.5000;1.3398;-4.8719;
439.8000;1.3374;-4.8745;
440.1000;1.3382;-4.8824;
440.4000;1.3382;-4.8877;
440.7000;1.3366;-4.8824;
441.0000;1.3398;-4.8719;
441.3000;1.3374;-4.8824;
441.6000;1.3350;-4.8824;
441.9000;1.3382;-4.8772;
442.2000;1.3341;-4.8824;
442.5000;1.3374;-4.8745;
442.8000;1.3390;-4.8772;
443.1000;1.3390;-4.8666;
443.4000;1.3390;-4.8640;
443.7000;1.3382;-4.8719;
444.0000;1.3374;-4.8719;
444.3000;1.3374;-4.8772;
444.6000;1.3431;-4.8640;
444.9000;1.3350;-4.8824;
445.2000;1.3374;-4.8772;
445.5000;1.3374;-4.8798;
445.8000;1.3390;-4.8719;
446.1000;1.3350;-4.8851;
446.4000;1.3325;-4.9009;
446.7000;1.3374;-4.8930;
447.0000;1.3382;-4.8877;
447.3000;1.3374;-4.8930;
447.6000;1.3374;-4.8930;
447.9000;1.3382;-4.8877;
448.2000;1.3374;-4.8824;
448.5000;1.3382;-4.8798;
448.8000;1.3382;-4.8745;
449.1000;1.3415;-4.8666;
449.4000;1.3472;-4.8613;
449.7000;1.3374;-4.8851;
450.0000;1.3382;-4.8851;
450.3000;1.3382;-4.8904;
450.6000;1.3358;-4.8877;
450.9000;1.3374;-4.8824;
451.2000;1.3374;-4.8851;
451.5000;1.3374;-4.8824;
451.8000;1.3366;-4.8798;
452.1000;1.3374;-4.8772;
452.4000;1.3366;-4.8745;
452.7000;1.3374;-4.8719;
453.0000;1.3358;-4.8798;
453.3000;1.3382;-4.8824;
453.6000;1.3382;-4.8851;
453.9000;1.3374;-4.8956;
454.2000;1.3382;-4.8930;
454.5000;1.3390;-4.8877;
454.8000;1.3398;-4.8904;
455.1000;1.3398;-4.8904;
455.4000;1.3366;-4.8983;
455.7000;1.3382;-4.8956;
456.0000;1.3382;-4.8983;
456.3000;1.3382;-4.8956;
456.6000;1.3382;-4.8930;
456.9000;1.3358;-4.9009;
457.2000;1.3374;-4.8930;
457.5000;1.3341;-4.9036;
457.8000;1.3398;-4.8877;
458.1000;1.3423;-4.8824;
458.4000;1.3390;-4.8851;
458.7000;1.3390;-4.8824;
459.0000;1.3333;-4.9009;
459.3000;1.3374;-4.8851;
459.6000;1.3382;-4.8692;
459.9000;1.3407;-4.8640;
460.2000;1.3390;-4.8666;
460.5000;1.3358;-4.8719;
460.8000;1.3374;-4.8666;
461.1000;1.3366;-4.8613;
461.4000;1.3390;-4.8666;
461.7000;1.3366;-4.8719;
462.0000;1.3382;-4.8692;
462.3000;1.3407;-4.8640;
462.6000;1.3382;-4.8772;
462.9000;1.3415;-4.8640;
463.2000;1.3382;-4.8745;
463.5000;1.3390;-4.8798;
463.8000;1.3374;-4.8877;
464.1000;1.3358;-4.8983;
464.4000;1.3366;-4.9009;
464.7000;1.3358;-4.8956;
465.0000;1.3382;-4.8956;
465.3000;1.3366;-4.8904;
465.6000;1.3374;-4.8877;
465.9000;1.3374;-4.8772;
466.2000;1.3366;-4.8772;
466.5000;1.3366;-4.8824;
466.8000;1.3366;-4.8877;
467.1000;1.3407;-4.8745;
467.4000;1.3374;-4.8772;
467.7000;1.3358;-4.8851;
468.0000;1.3366;-4.8877;
468.3000;1.3358;-4.8851;
468.6000;1.3374;-4.8851;
468.9000;1.3382;-4.8930;
469.2000;1.3390;-4.8956;
469.5000;1.3366;-4.9009;
469.8000;1.3382;-4.8956;
470.1000;1.3398;-4.8956;
470.4000;1.3382;-4.8983;
470.7000;1.3350;-4.9036;
471.0000;1.3366;-4.9009;
471.3000;1.3374;-4.8956;
471.6000;1.3366;-4.8930;
471.9000;1.3366;-4.8983;
472.2000;1.3350;-4.9036;
472.5000;1.3276;-4.9115;
472.8000;1.3382;-4.8956;
473.1000;1.3358;-4.8956;
473.4000;1.3374;-4.8904;
473.7000;1.3366;-4.8851;
474.0000;1.3382;-4.8930;
474.3000;1.3390;-4.8956;
474.6000;1.3366;-4.8877;
474.9000;1.3374;-4.8824;
475.2000;1.3382;-4.8824;
475.5000;1.3366;-4.8798;
475.8000;1.3374;-4.8692;
476.1000;1.3374;-4.8692;
476.4000;1.3341;-4.8824;
476.7000;1.3358;-4.8851;
477.0000;1.3374;-4.8824;
477.3000;1.3374;-4.8745;
477.6000;1.3382;-4.8798;
477.9000;1.3382;-4.8824;
478.2000;1.3374;-4.8772;
478.5000;1.3390;-4.8719;
478.8000;1.3382;-4.8692;
479.1000;1.3390;-4.8613;
479.4000;1.3374;-4.8613;
479.7000;1.3358;-4.8640;
480.0000;1.3382;-4.8692;
480.3000;1.3382;-4.8745;
480.6000;1.3382;-4.8719;
480.9000;1.3374;-4.8692;
481.2000;1.3382;-4.8666;
481.5000;1.3374;-4.8692;
481.8000;1.3382;-4.8745;
482.1000;1.3366;-4.8798;
482.4000;1.3366;-4.8745;
482.7000;1.3382;-4.8692;
483.0000;1.3390;-4.8666;
483.3000;1.3390;-4.8692;
483.6000;1.3382;-4.8692;
483.9000;1.3341;-4.8772;
484.2000;1.3382;-4.8719;
484.5000;1.3333;-4.8904;
484.8000;1.3341;-4.8956;
485.1000;1.3390;-4.8772;
485.4000;1.3341;-4.8877;
485.7000;1.3382;-4.8772;
486.0000;1.3341;-4.8824;
486.3000;1.3374;-4.8772;
486.6000;1.3382;-4.8745;
486.9000;1.3366;-4.8692;
487.2000;1.3333;-4.8745;
487.5000;1.3390;-4.8587;
487.8000;1.3382;-4.8613;
488.1000;1.3382;-4.8587;
488.4000;1.3390;-4.8640;
488.7000;1.3366;-4.8692;
489.0000;1.3374;-4.8745;
489.3000;1.3366;-4.8745;
489.6000;1.3382;-4.8745;
489.9000;1.3366;-4.8772;
490.2000;1.3366;-4.8772;
490.5000;1.3358;-4.8745;
490.8000;1.3317;-4.8851;
491.1000;1.3366;-4.8824;
491.4000;1.3374;-4.8824;
491.7000;1.3366;-4.8904;
492.0000;1.3366;-4.8956;
492.3000;1.3358;-4.8956;
492.6000;1.3358;-4.8956;
492.9000;1.3358;-4.8904;
493.2000;1.3374;-4.8824;
493.5000;1.3382;-4.8798;
493.8000;1.3341;-4.8798;
494.1000;1.3301;-4.8956;
494.4000;1.3366;-4.8824;
494.7000;1.3374;-4.8851;
495.0000;1.3366;-4.8824;
495.3000;1.3366;-4.8877;
495.6000;1.3382;-4.8824;
495.9000;1.3341;-4.8956;
496.2000;1.3374;-4.8956;
496.5000;1.3333;-4.9062;
496.8000;1.3358;-4.8983;
497.1000;1.3358;-4.8956;
497.4000;1.3374;-4.8930;
497.7000;1.3358;-4.8904;
498.0000;1.3390;-4.8719;
498.3000;1.3382;-4.8798;
498.6000;1.3374;-4.8877;
498.9000;1.3382;-4.8877;
499.2000;1.3366;-4.8904;
499.5000;1.3382;-4.8956;
499.8000;1.3382;-4.8904;
500.1000;1.3350;-4.8983;
500.4000;1.3358;-4.9009;
500.7000;1.3366;-4.8983;
501.0000;1.3374;-4.8956;
501.3000;1.3431;-4.8877;
501.6000;1.3366;-4.8956;
501.9000;1.3366;-4.8904;
502.2000;1.3398;-4.8798;
502.5000;1.3366;-4.8983;
502.8000;1.3366;-4.9036;
503.1000;1.3358;-4.8930;
503.4000;1.3374;-4.8904;
503.7000;1.3382;-4.8956;
504.0000;1.3374;-4.9036;
504.3000;1.3382;-4.9009;
504.6000;1.3382;-4.8904;
504.9000;1.3374;-4.8824;
505.2000;1.3358;-4.8772;
505.5000;1.3407;-4.8587;
505.8000;1.3374;-4.8798;
506.1000;1.3390;-4.8798;
506.4000;1.3374;-4.8798;
506.7000;1.3374;-4.8772;
507.0000;1.3390;-4.8772;
507.3000;1.3374;-4.8798;
507.6000;1.3358;-4.8824;
507.9000;1.3366;-4.8798;
508.2000;1.3366;-4.8824;
508.5000;1.3382;-4.8798;
508.8000;1.3366;-4.8772;
509.1000;1.3366;-4.8745;
509.4000;1.3374;-4.8640;
509.7000;1.3374;-4.8745;
510.0000;1.3390;-4.8824;
510.3000;1.3382;-4.8824;
510.6000;1.3382;-4.8851;
510.9000;1.3374;-4.8824;
511.2000;1.3382;-4.8851;
511.5000;1.3374;-4.8930;
511.8000;1.3358;-4.8930;
512.1000;1.3374;-4.8851;
512.4000;1.3350;-4.8904;
512.7000;1.3407;-4.8719;
513.0000;1.3374;-4.8745;
513.3000;1.3358;-4.8745;
513.6000;1.3398;-4.8613;
513.9000;1.3374;-4.8745;
514.2000;1.3382;-4.8798;
514.5000;1.3382;-4.8851;
514.8000;1.3382;-4.8772;
515.1000;1.3374;-4.8745;
515.4000;1.3366;-4.8666;
515.7000;1.3366;-4.8666;
516.0000;1.3366;-4.8666;
516.3000;1.3382;-4.8640;
516.6000;1.3382;-4.8692;
516.9000;1.3374;-4.8745;
517.2000;1.3382;-4.8719;
517.5000;1.3366;-4.8772;
517.8000;1.3374;-4.8798;
518.1000;1.3366;-4.8745;
518.4000;1.3374;-4.8692;
518.7000;1.3374;-4.8719;
519.0000;1.3366;-4.8772;
519.3000;1.3382;-4.8745;
519.6000;1.3366;-4.8745;
519.9000;1.3382;-4.8745;
520.2000;1.3374;-4.8798;
520.5000;1.3374;-4.8877;
520.8000;1.3350;-4.8930;
521.1000;1.3366;-4.8877;
521.4000;1.3374;-4.8772;
521.7000;1.3358;-4.8824;
522.0000;1.3358;-4.8824;
522.3000;1.3358;-4.8851;
522.6000;1.3382;-4.8956;
522.9000;1.3374;-4.8930;
523.2000;1.3366;-4.8851;
523.5000;1.3358;-4.8798;
523.8000;1.3382;-4.8692;
524.1000;1.3341;-4.8851;
524.4000;1.3358;-4.8772;
524.7000;1.3366;-4.8666;
525.0000;1.3374;-4.8692;
525.3000;1.3374;-4.8692;
525.6000;1.3366;-4.8824;
525.9000;1.3366;-4.8824;
526.2000;1.3366;-4.8824;
526.5000;1.3366;-4.8745;
526.8000;1.3350;-4.8798;
527.1000;1.3366;-4.8745;
527.4000;1.3374;-4.8692;
527.7000;1.3350;-4.8719;
528.0000;1.3358;-4.8772;
528.3000;1.3382;-4.8772;
528.6000;1.3350;-4.8904;
528.9000;1.3374;-4.8798;
529.2000;1.3382;-4.8798;
529.5000;1.3382;-4.8798;
529.8000;1.3390;-4.8640;
530.1000;1.3390;-4.8666;
530.4000;1.3374;-4.8587;
530.7000;1.3366;-4.8560;
531.0000;1.3341;-4.8692;
531.3000;1.3366;-4.8613;
531.6000;1.3374;-4.8692;
531.9000;1.3398;-4.8666;
532.2000;1.3366;-4.8745;
532.5000;1.3358;-4.8745;
532.8000;1.3366;-4.8719;
533.1000;1.3358;-4.8772;
533.4000;1.3350;-4.8851;
533.7000;1.3358;-4.8798;
534.0000;1.3447;-4.8640;
534.3000;1.3366;-4.8824;
534.6000;1.3333;-4.8904;
534.9000;1.3366;-4.8745;
535.2000;1.3374;-4.8851;
535.5000;1.3374;-4.8851;
535.8000;1.3358;-4.8956;
536.1000;1.3398;-4.8877;
536.4000;1.3358;-4.8930;
536.7000;1.3358;-4.8956;
537.0000;1.3390;-4.9036;
537.3000;1.3350;-4.9009;
537.6000;1.3325;-4.9036;
537.9000;1.3358;-4.8983;
538.2000;1.3358;-4.8904;
538.5000;1.3341;-4.8904;
538.8000;1.3341;-4.8904;
539.1000;1.3341;-4.8851;
539.4000;1.3350;-4.8772;
539.7000;1.3358;-4.8692;
540.0000;1.3358;-4.8772;
540.3000;1.3341;-4.8930;
540.6000;1.3284;-4.9036;
540.9000;1.3366;-4.8851;
541.2000;1.3366;-4.8824;
541.5000;1.3374;-4.8824;
541.8000;1.3382;-4.8824;
542.1000;1.3447;-4.8666;
542.4000;1.3366;-4.8877;
542.7000;1.3366;-4.8851;
543.0000;1.3382;-4.8772;
543.3000;1.3374;-4.8745;
543.6000;1.3382;-4.8798;
543.9000;1.3358;-4.8719;
544.2000;1.3374;-4.8719;
544.5000;1.3358;-4.8745;
544.8000;1.3358;-4.8745;
545.1000;1.3341;-4.8745;
545.4000;1.3374;-4.8613;
545.7000;1.3382;-4.8640;
546.0000;1.3398;-4.8613;
546.3000;1.3301;-4.8851;
546.6000;1.3374;-4.8666;
546.9000;1.3382;-4.8745;
547.2000;1.3374;-4.8745;
547.5000;1.3374;-4.8824;
547.8000;1.3374;-4.8772;
548.1000;1.3382;-4.8666;
548.4000;1.3358;-4.8640;
548.7000;1.3350;-4.8666;
549.0000;1.3341;-4.8666;
549.3000;1.3341;-4.8745;
549.6000;1.3341;-4.8798;
549.9000;1.3350;-4.8772;
550.2000;1.3333;-4.8798;
550.5000;1.3366;-4.8719;
550.8000;1.3358;-4.8745;
551.1000;1.3382;-4.8719;
551.4000;1.3390;-4.8745;
551.7000;1.3358;-4.8904;
552.0000;1.3358;-4.8904;
552.3000;1.3350;-4.8983;
552.6000;1.3366;-4.8956;
552.9000;1.3398;-4.8877;
553.2000;1.3350;-4.8930;
553.5000;1.3382;-4.8772;
553.8000;1.3366;-4.8772;
554.1000;1.3358;-4.8692;
554.4000;1.3366;-4.8692;
554.7000;1.3366;-4.8613;
555.0000;1.3358;-4.8666;
555.3000;1.3358;-4.8692;
555.6000;1.3366;-4.8719;
555.9000;1.3358;-4.8587;
556.2000;1.3358;-4.8613;
556.5000;1.3341;-4.8692;
556.8000;1.3366;-4.8692;
557.1000;1.3358;-4.8745;
557.4000;1.3358;-4.8798;
557.7000;1.3366;-4.8798;
558.0000;1.3350;-4.8851;
558.3000;1.3382;-4.8851;
558.6000;1.3374;-4.8851;
558.9000;1.3358;-4.8930;
559.2000;1.3382;-4.8877;
559.5000;1.3366;-4.8851;
559.8000;1.3390;-4.8798;
560.1000;1.3350;-4.8983;
560.4000;1.3374;-4.8930;
560.7000;1.3366;-4.8930;
561.0000;1.3309;-4.8956;
561.3000;1.3358;-4.8877;
561.6000;1.3350;-4.8904;
561.9000;1.3358;-4.8904;
562.2000;1.3333;-4.8877;
562.5000;1.3366;-4.8745;
562.8000;1.3358;-4.8719;
563.1000;1.3350;-4.8798;
563.4000;1.3358;-4.8798;
563.7000;1.3358;-4.8772;
564.0000;1.3358;-4.8904;
564.3000;1.3341;-4.8824;
564.6000;1.3350;-4.8692;
564.9000;1.3350;-4.8666;
565.2000;1.3333;-4.8692;
565.5000;1.3341;-4.8745;
565.8000;1.3358;-4.8745;
566.1000;1.3366;-4.8772;
566.4000;1.3350;-4.8851;
566.7000;1.3358;-4.8745;
567.0000;1.3374;-4.8666;
567.3000;1.3407;-4.8534;
567.6000;1.3382;-4.8587;
567.9000;1.3366;-4.8640;
568.2000;1.3366;-4.8587;
568.5000;1.3374;-4.8534;
568.8000;1.3366;-4.8560;
569.1000;1.3358;-4.8560;
569.4000;1.3350;-4.8640;
569.7000;1.3350;-4.8692;
570.0000;1.3358;-4.8640;
570.3000;1.3317;-4.8877;
570.6000;1.3358;-4.8772;
570.9000;1.3341;-4.8851;
571.2000;1.3358;-4.8824;
571.5000;1.3366;-4.8851;
571.8000;1.3350;-4.8824;
572.1000;1.3366;-4.8877;
572.4000;1.3358;-4.8930;
572.7000;1.3358;-4.8983;
573.0000;1.3366;-4.8877;
573.3000;1.3333;-4.8851;
573.6000;1.3366;-4.8745;
573.9000;1.3366;-4.8692;
574.2000;1.3350;-4.8692;
574.5000;1.3333;-4.8719;
574.8000;1.3341;-4.8692;
575.1000;1.3366;-4.8692;
575.4000;1.3358;-4.8798;
575.7000;1.3358;-4.8798;
576.0000;1.3350;-4.8745;
576.3000;1.3350;-4.8772;
576.6000;1.3382;-4.8719;
576.9000;1.3284;-4.8983;
577.2000;1.3366;-4.8824;
577.5000;1.3382;-4.8824;
577.8000;1.3317;-4.8877;
578.1000;1.3390;-4.8613;
578.4000;1.3366;-4.8640;
578.7000;1.3333;-4.8745;
579.0000;1.3358;-4.8772;
579.3000;1.3333;-4.8772;
579.6000;1.3333;-4.8824;
579.9000;1.3325;-4.8824;
580.2000;1.3374;-4.8719;
580.5000;1.3350;-4.8719;
580.8000;1.3398;-4.8613;
581.1000;1.3358;-4.8692;
581.4000;1.3358;-4.8719;
581.7000;1.3366;-4.8745;
582.0000;1.3407;-4.8692;
582.3000;1.3341;-4.8877;
582.6000;1.3317;-4.8904;
582.9000;1.3366;-4.8719;
583.2000;1.3374;-4.8719;
583.5000;1.3366;-4.8692;
583.8000;1.3358;-4.8613;
584.1000;1.3366;-4.8560;
584.4000;1.3358;-4.8613;
584.7000;1.3333;-4.8640;
585.0000;1.3350;-4.8719;
585.3000;1.3350;-4.8692;
585.6000;1.3358;-4.8587;
585.9000;1.3350;-4.8613;
586.2000;1.3358;-4.8666;
586.5000;1.3366;-4.8719;
586.8000;1.3374;-4.8745;
587.1000;1.3366;-4.8798;
587.4000;1.3358;-4.8877;
587.7000;1.3366;-4.8877;
588.0000;1.3350;-4.8851;
588.3000;1.3366;-4.8877;
588.6000;1.3358;-4.8904;
588.9000;1.3358;-4.8851;
589.2000;1.3366;-4.8824;
589.5000;1.3350;-4.8877;
589.8000;1.3358;-4.8772;
590.1000;1.3358;-4.8772;
590.4000;1.3366;-4.8692;
590.7000;1.3358;-4.8692;
591.0000;1.3358;-4.8772;
591.3000;1.3333;-4.8877;
591.6000;1.3350;-4.8798;
591.9000;1.3350;-4.8851;
592.2000;1.3301;-4.8904;
592.5000;1.3366;-4.8719;
592.8000;1.3358;-4.8692;
593.1000;1.3341;-4.8692;
593.4000;1.3341;-4.8692;
593.7000;1.3350;-4.8692;
594.0000;1.3374;-4.8719;
594.3000;1.3350;-4.8692;
594.6000;1.3366;-4.8692;
594.9000;1.3358;-4.8640;
595.2000;1.3358;-4.8745;
595.5000;1.3366;-4.8745;
595.8000;1.3341;-4.8772;
596.1000;1.3276;-4.9036;
596.4000;1.3341;-4.8904;
596.7000;1.3341;-4.8877;
597.0000;1.3358;-4.8798;
597.3000;1.3341;-4.8824;
597.6000;1.3358;-4.8877;
597.9000;1.3350;-4.8930;
598.2000;1.3374;-4.8824;
598.5000;1.3317;-4.8956;
598.8000;1.3341;-4.8877;
599.1000;1.3366;-4.8930;
599.4000;1.3415;-4.8851;
599.7000;1.3276;-4.9088;
600.0000;1.3350;-4.9009;
600.3000;1.3358;-4.9141;
600.6000;1.3333;-4.9326;
600.9000;1.3309;-4.9432;
601.2000;1.3228;-4.9564;
601.5000;1.3089;-4.9828;
601.8000;1.3000;-5.0013;
602.1000;1.2894;-5.0197;
602.4000;1.2764;-5.0435;
602.7000;1.2641;-5.0752;
603.0000;1.2568;-5.0778;
603.3000;1.2462;-5.0990;
603.6000;1.2389;-5.1122;
603.9000;1.2283;-5.1333;
604.2000;1.2194;-5.1491;
604.5000;1.2104;-5.1544;
604.8000;1.2031;-5.1650;
605.1000;1.1933;-5.1808;
605.4000;1.1909;-5.1835;
605.7000;1.1803;-5.1940;
606.0000;1.1730;-5.2125;
606.3000;1.1697;-5.2072;
606.6000;1.1600;-5.2099;
606.9000;1.1518;-5.2178;
607.2000;1.1461;-5.2442;
607.5000;1.1429;-5.2416;
607.8000;1.1331;-5.2548;
608.1000;1.1290;-5.2548;
608.4000;1.1258;-5.2600;
608.7000;1.1168;-5.2759;
609.0000;1.1111;-5.2759;
609.3000;1.1070;-5.2732;
609.6000;1.1005;-5.2759;
609.9000;1.0997;-5.2732;
610.2000;1.0891;-5.2944;
610.5000;1.0867;-5.2917;
610.8000;1.0810;-5.3076;
611.1000;1.0818;-5.3023;
611.4000;1.0712;-5.3129;
611.7000;1.0663;-5.3181;
612.0000;1.0631;-5.3208;
612.3000;1.0582;-5.3208;
612.6000;1.0558;-5.3129;
612.9000;1.0476;-5.3234;
613.2000;1.0435;-5.3234;
613.5000;1.0387;-5.3287;
613.8000;1.0346;-5.3313;
614.1000;1.0297;-5.3419;
614.4000;1.0265;-5.3472;
614.7000;1.0224;-5.3577;
615.0000;1.0175;-5.3551;
615.3000;1.0159;-5.3498;
615.6000;1.0094;-5.3630;
615.9000;1.0061;-5.3630;
616.2000;1.0028;-5.3657;
616.5000;0.9988;-5.3630;
616.8000;0.9955;-5.3736;
617.1000;0.9923;-5.3762;
617.4000;0.9890;-5.3736;
617.7000;0.9849;-5.3762;
618.0000;0.9817;-5.3683;
618.3000;0.9784;-5.3762;
618.6000;0.9744;-5.3841;
618.9000;0.9719;-5.3841;
619.2000;0.9695;-5.3841;
619.5000;0.9654;-5.3789;
619.8000;0.9630;-5.3789;
620.1000;0.9589;-5.3789;
620.4000;0.9581;-5.3789;
620.7000;0.9524;-5.3921;
621.0000;0.9491;-5.3894;
621.3000;0.9565;-5.3630;
621.6000;0.9467;-5.3868;
621.9000;0.9418;-5.3947;
622.2000;0.9394;-5.3894;
622.5000;0.9377;-5.3894;
622.8000;0.9320;-5.4000;
623.1000;0.9296;-5.3947;
623.4000;0.9288;-5.4000;
623.7000;0.9255;-5.4158;
624.0000;0.9239;-5.4158;
624.3000;0.9239;-5.4132;
624.6000;0.9125;-5.4317;
624.9000;0.9068;-5.4343;
625.2000;0.9125;-5.4185;
625.5000;0.9068;-5.4317;
625.8000;0.9084;-5.4211;
626.1000;0.9076;-5.4185;
626.4000;0.9060;-5.4106;
626.7000;0.9003;-5.4317;
627.0000;0.8987;-5.4290;
627.3000;0.8962;-5.4396;
627.6000;0.8913;-5.4528;
627.9000;0.8930;-5.4449;
628.2000;0.8832;-5.4581;
628.5000;0.8889;-5.4422;
628.8000;0.8873;-5.4475;
629.1000;0.8840;-5.4528;
629.4000;0.8840;-5.4422;
629.7000;0.8783;-5.4449;
630.0000;0.8783;-5.4370;
630.3000;0.8751;-5.4317;
630.6000;0.8742;-5.4238;
630.9000;0.8726;-5.4132;
631.2000;0.8718;-5.4185;
631.5000;0.8661;-5.4290;
631.8000;0.8637;-5.4290;
632.1000;0.8645;-5.4264;
632.4000;0.8653;-5.4211;
632.7000;0.8685;-5.4132;
633.0000;0.8596;-5.4264;
633.3000;0.8637;-5.4211;
633.6000;0.8555;-5.4396;
633.9000;0.8555;-5.4343;
634.2000;0.8531;-5.4317;
634.5000;0.8523;-5.4238;
634.8000;0.8498;-5.4317;
635.1000;0.8490;-5.4343;
635.4000;0.8506;-5.4238;
635.7000;0.8457;-5.4343;
636.0000;0.8457;-5.4290;
636.3000;0.8433;-5.4370;
636.6000;0.8433;-5.4422;
636.9000;0.8409;-5.4475;
637.2000;0.8384;-5.4449;
637.5000;0.8376;-5.4422;
637.8000;0.8360;-5.4422;
638.1000;0.8344;-5.4502;
638.4000;0.8335;-5.4528;
638.7000;0.8303;-5.4528;
639.0000;0.8311;-5.4502;
639.3000;0.8295;-5.4554;
639.6000;0.8262;-5.4634;
639.9000;0.8262;-5.4660;
640.2000;0.8262;-5.4581;
640.5000;0.8238;-5.4634;
640.8000;0.8213;-5.4686;
641.1000;0.8205;-5.4634;
641.4000;0.8197;-5.4607;
641.7000;0.8181;-5.4528;
642.0000;0.8164;-5.4502;
642.3000;0.8148;-5.4528;
642.6000;0.8132;-5.4607;
642.9000;0.8148;-5.4607;
643.2000;0.8116;-5.4607;
643.5000;0.8107;-5.4634;
643.8000;0.8099;-5.4634;
644.1000;0.8083;-5.4739;
644.4000;0.8099;-5.4660;
644.7000;0.8067;-5.4634;
645.0000;0.8026;-5.4739;
645.3000;0.8026;-5.4713;
645.6000;0.8050;-5.4634;
645.9000;0.8034;-5.4634;
646.2000;0.8026;-5.4660;
646.5000;0.7993;-5.4766;
646.8000;0.7977;-5.4713;
647.1000;0.7977;-5.4686;
647.4000;0.7961;-5.4686;
647.7000;0.7969;-5.4634;
648.0000;0.7977;-5.4634;
648.3000;0.7985;-5.4634;
648.6000;0.8018;-5.4502;
648.9000;0.7912;-5.4739;
649.2000;0.7920;-5.4660;
649.5000;0.7912;-5.4581;
649.8000;0.7863;-5.4713;
650.1000;0.7896;-5.4660;
650.4000;0.7888;-5.4713;
650.7000;0.7871;-5.4713;
651.0000;0.7847;-5.4686;
651.3000;0.7855;-5.4660;
651.6000;0.7880;-5.4607;
651.9000;0.7855;-5.4607;
652.2000;0.7814;-5.4739;
652.5000;0.7823;-5.4713;
652.8000;0.7839;-5.4554;
653.1000;0.7814;-5.4449;
653.4000;0.7798;-5.4528;
653.7000;0.7766;-5.4554;
654.0000;0.7766;-5.4502;
654.3000;0.7798;-5.4475;
654.6000;0.7766;-5.4581;
654.9000;0.7733;-5.4607;
655.2000;0.7709;-5.4713;
655.5000;0.7733;-5.4607;
655.8000;0.7725;-5.4634;
656.1000;0.7725;-5.4686;
656.4000;0.7709;-5.4686;
656.7000;0.7700;-5.4713;
657.0000;0.7717;-5.4607;
657.3000;0.7627;-5.4766;
657.6000;0.7692;-5.4607;
657.9000;0.7709;-5.4528;
658.2000;0.7652;-5.4713;
658.5000;0.7668;-5.4739;
658.8000;0.7652;-5.4818;
659.1000;0.7652;-5.4766;
659.4000;0.7643;-5.4686;
659.7000;0.7643;-5.4660;
660.0000;0.7627;-5.4660;
660.3000;0.7603;-5.4554;
660.6000;0.7619;-5.4554;
660.9000;0.7619;-5.4554;
661.2000;0.7546;-5.4686;
661.5000;0.7603;-5.4607;
661.8000;0.7586;-5.4581;
662.1000;0.7586;-5.4581;
662.4000;0.7513;-5.4845;
662.7000;0.7570;-5.4766;
663.0000;0.7554;-5.4766;
663.3000;0.7578;-5.4713;
663.6000;0.7546;-5.4792;
663.9000;0.7538;-5.4686;
664.2000;0.7464;-5.4766;
664.5000;0.7538;-5.4660;
664.8000;0.7521;-5.4660;
665.1000;0.7513;-5.4607;
665.4000;0.7521;-5.4713;
665.7000;0.7489;-5.4713;
666.0000;0.7513;-5.4660;
666.3000;0.7497;-5.4686;
666.6000;0.7489;-5.4713;
666.9000;0.7481;-5.4713;
667.2000;0.7497;-5.4660;
667.5000;0.7407;-5.4871;
667.8000;0.7473;-5.4713;
668.1000;0.7464;-5.4660;
668.4000;0.7456;-5.4607;
668.7000;0.7448;-5.4607;
669.0000;0.7432;-5.4554;
669.3000;0.7432;-5.4475;
669.6000;0.7391;-5.4660;
669.9000;0.7399;-5.4607;
670.2000;0.7416;-5.4581;
670.5000;0.7399;-5.4634;
670.8000;0.7367;-5.4792;
671.1000;0.7407;-5.4686;
671.4000;0.7407;-5.4660;
671.7000;0.7407;-5.4660;
672.0000;0.7391;-5.4660;
672.3000;0.7375;-5.4713;
672.6000;0.7375;-5.4660;
672.9000;0.7391;-5.4660;
673.2000;0.7375;-5.4660;
673.5000;0.7375;-5.4634;
673.8000;0.7375;-5.4660;
674.1000;0.7359;-5.4686;
674.4000;0.7367;-5.4686;
674.7000;0.7350;-5.4713;
675.0000;0.7359;-5.4766;
675.3000;0.7342;-5.4739;
675.6000;0.7342;-5.4766;
675.9000;0.7334;-5.4660;
676.2000;0.7334;-5.4686;
676.5000;0.7334;-5.4713;
676.8000;0.7293;-5.4792;
677.1000;0.7310;-5.4792;
677.4000;0.7326;-5.4713;
677.7000;0.7269;-5.4871;
678.0000;0.7302;-5.4871;
678.3000;0.7293;-5.4924;
678.6000;0.7293;-5.4871;
678.9000;0.7293;-5.4845;
679.2000;0.7285;-5.4871;
679.5000;0.7269;-5.4871;
679.8000;0.7293;-5.4766;
680.1000;0.7285;-5.4713;
680.4000;0.7253;-5.4686;
680.7000;0.7253;-5.4634;
681.0000;0.7253;-5.4660;
681.3000;0.7261;-5.4634;
681.6000;0.7261;-5.4686;
681.9000;0.7245;-5.4686;
682.2000;0.7253;-5.4686;
682.5000;0.7245;-5.4660;
682.8000;0.7228;-5.4686;
683.1000;0.7220;-5.4660;
683.4000;0.7228;-5.4581;
683.7000;0.7228;-5.4581;
684.0000;0.7236;-5.4607;
684.3000;0.7204;-5.4686;
684.6000;0.7204;-5.4713;
684.9000;0.7220;-5.4686;
685.2000;0.7196;-5.4739;
685.5000;0.7179;-5.4766;
685.8000;0.7196;-5.4739;
686.1000;0.7179;-5.4818;
686.4000;0.7196;-5.4739;
686.7000;0.7171;-5.4739;
687.0000;0.7163;-5.4739;
687.3000;0.7220;-5.4634;
687.6000;0.7179;-5.4713;
687.9000;0.7163;-5.4792;
688.2000;0.7139;-5.4977;
688.5000;0.7163;-5.4845;
688.8000;0.7147;-5.4792;
689.1000;0.7147;-5.4792;
689.4000;0.7139;-5.4871;
689.7000;0.7131;-5.4924;
690.0000;0.7131;-5.4871;
690.3000;0.7131;-5.4845;
690.6000;0.7131;-5.4898;
690.9000;0.7123;-5.4898;
691.2000;0.7131;-5.4845;
691.5000;0.7171;-5.4713;
691.8000;0.7123;-5.4792;
692.1000;0.7106;-5.4766;
692.4000;0.7114;-5.4739;
692.7000;0.7025;-5.4898;
693.0000;0.7114;-5.4792;
693.3000;0.7074;-5.4951;
693.6000;0.7123;-5.4818;
693.9000;0.7114;-5.4818;
694.2000;0.7114;-5.4766;
694.5000;0.7098;-5.4845;
694.8000;0.7106;-5.4818;
695.1000;0.7082;-5.4871;
695.4000;0.7090;-5.4818;
695.7000;0.7090;-5.4818;
696.0000;0.7066;-5.4766;
696.3000;0.7123;-5.4660;
696.6000;0.7090;-5.4739;
696.9000;0.7074;-5.4739;
697.2000;0.7066;-5.4713;
697.5000;0.7057;-5.4660;
697.8000;0.7049;-5.4634;
698.1000;0.7057;-5.4581;
698.4000;0.7049;-5.4607;
698.7000;0.7033;-5.4660;
699.0000;0.7066;-5.4660;
699.3000;0.7033;-5.4686;
699.6000;0.7041;-5.4607;
699.9000;0.7025;-5.4607;
700.2000;0.7025;-5.4607;
700.5000;0.7033;-5.4607;
700.8000;0.7017;-5.4581;
701.1000;0.7009;-5.4634;
701.4000;0.7017;-5.4607;
701.7000;0.7025;-5.4686;
702.0000;0.7066;-5.4528;
702.3000;0.7017;-5.4660;
702.6000;0.7025;-5.4686;
702.9000;0.6952;-5.4766;
703.2000;0.7017;-5.4660;
703.5000;0.7033;-5.4660;
703.8000;0.7009;-5.4686;
704.1000;0.7000;-5.4660;
704.4000;0.7017;-5.4660;
704.7000;0.7000;-5.4713;
705.0000;0.6984;-5.4713;
705.3000;0.6984;-5.4686;
705.6000;0.6992;-5.4607;
705.9000;0.7000;-5.4634;
706.2000;0.6992;-5.4581;
706.5000;0.6976;-5.4634;
706.8000;0.6976;-5.4554;
707.1000;0.6992;-5.4554;
707.4000;0.6968;-5.4660;
707.7000;0.6976;-5.4766;
708.0000;0.6968;-5.4818;
708.3000;0.6984;-5.4766;
708.6000;0.6960;-5.4713;
708.9000;0.6952;-5.4686;
709.2000;0.6952;-5.4739;
709.5000;0.6952;-5.4766;
709.8000;0.6935;-5.4818;
710.1000;0.6935;-5.4845;
710.4000;0.6952;-5.4792;
710.7000;0.6911;-5.4818;
711.0000;0.6927;-5.4766;
711.3000;0.6935;-5.4739;
711.6000;0.6927;-5.4792;
711.9000;0.6919;-5.4713;
712.2000;0.6911;-5.4713;
712.5000;0.6870;-5.4924;
712.8000;0.6911;-5.4739;
713.1000;0.6903;-5.4739;
713.4000;0.6927;-5.4686;
713.7000;0.6919;-5.4686;
714.0000;0.6903;-5.4713;
714.3000;0.6919;-5.4686;
714.6000;0.6919;-5.4660;
714.9000;0.6927;-5.4607;
715.2000;0.6895;-5.4660;
715.5000;0.6895;-5.4607;
715.8000;0.6878;-5.4581;
716.1000;0.6895;-5.4581;
716.4000;0.6903;-5.4528;
716.7000;0.6862;-5.4581;
717.0000;0.6878;-5.4502;
717.3000;0.6895;-5.4502;
717.6000;0.6895;-5.4607;
717.9000;0.6886;-5.4528;
718.2000;0.6895;-5.4502;
718.5000;0.6903;-5.4581;
718.8000;0.6895;-5.4660;
719.1000;0.6903;-5.4686;
719.4000;0.6886;-5.4660;
719.7000;0.6846;-5.4739;
720.0000;0.6886;-5.4660;
720.3000;0.6886;-5.4607;
720.6000;0.6886;-5.4581;
720.9000;0.6870;-5.4660;
721.2000;0.6862;-5.4607;
721.5000;0.6862;-5.4713;
721.8000;0.6895;-5.4607;
722.1000;0.6829;-5.4818;
722.4000;0.6846;-5.4739;
722.7000;0.6854;-5.4686;
723.0000;0.6854;-5.4739;
723.3000;0.6878;-5.4713;
723.6000;0.6846;-5.4739;
723.9000;0.6846;-5.4713;
724.2000;0.6846;-5.4713;
724.5000;0.6846;-5.4660;
724.8000;0.6854;-5.4607;
725.1000;0.6862;-5.4581;
725.4000;0.6854;-5.4634;
725.7000;0.6821;-5.4818;
726.0000;0.6829;-5.4766;
726.3000;0.6838;-5.4686;
726.6000;0.6829;-5.4660;
726.9000;0.6854;-5.4713;
727.2000;0.6813;-5.4818;
727.5000;0.6846;-5.4713;
727.8000;0.6813;-5.4792;
728.1000;0.6813;-5.4766;
728.4000;0.6821;-5.4686;
728.7000;0.6821;-5.4739;
729.0000;0.6797;-5.4845;
729.3000;0.6813;-5.4766;
729.6000;0.6813;-5.4713;
729.9000;0.6821;-5.4766;
730.2000;0.6797;-5.4871;
730.5000;0.6797;-5.4845;
730.8000;0.6805;-5.4871;
731.1000;0.6854;-5.4766;
731.4000;0.6797;-5.4898;
731.7000;0.6797;-5.4845;
732.0000;0.6789;-5.4818;
732.3000;0.6797;-5.4792;
732.6000;0.6789;-5.4792;
732.9000;0.6789;-5.4792;
733.2000;0.6789;-5.4924;
733.5000;0.6781;-5.4924;
733.8000;0.6797;-5.4871;
734.1000;0.6789;-5.4818;
734.4000;0.6789;-5.4898;
734.7000;0.6772;-5.4871;
735.0000;0.6797;-5.4845;
735.3000;0.6764;-5.4818;
735.6000;0.6772;-5.4766;
735.9000;0.6789;-5.4845;
736.2000;0.6789;-5.4818;
736.5000;0.6772;-5.4818;
736.8000;0.6756;-5.4924;
737.1000;0.6748;-5.4924;
737.4000;0.6797;-5.4713;
737.7000;0.6772;-5.4818;
738.0000;0.6748;-5.4845;
738.3000;0.6748;-5.4845;
738.6000;0.6781;-5.4766;
738.9000;0.6764;-5.4713;
739.2000;0.6772;-5.4634;
739.5000;0.6740;-5.4686;
739.8000;0.6756;-5.4713;
740.1000;0.6748;-5.4660;
740.4000;0.6732;-5.4686;
740.7000;0.6764;-5.4634;
741.0000;0.6805;-5.4422;
741.3000;0.6716;-5.4528;
741.6000;0.6756;-5.4581;
741.9000;0.6740;-5.4634;
742.2000;0.6740;-5.4739;
742.5000;0.6756;-5.4739;
742.8000;0.6772;-5.4686;
743.1000;0.6732;-5.4739;
743.4000;0.6724;-5.4739;
743.7000;0.6740;-5.4686;
744.0000;0.6724;-5.4766;
744.3000;0.6740;-5.4766;
744.6000;0.6732;-5.4924;
744.9000;0.6732;-5.4924;
745.2000;0.6716;-5.4951;
745.5000;0.6732;-5.4871;
745.8000;0.6740;-5.4871;
746.1000;0.6707;-5.4898;
746.4000;0.6716;-5.4898;
746.7000;0.6724;-5.4951;
747.0000;0.6740;-5.4951;
747.3000;0.6716;-5.4977;
747.6000;0.6756;-5.4818;
747.9000;0.6716;-5.4845;
748.2000;0.6732;-5.4792;
748.5000;0.6716;-5.4818;
748.8000;0.6756;-5.4739;
749.1000;0.6724;-5.4818;
749.4000;0.6724;-5.4818;
749.7000;0.6675;-5.4871;
750.0000;0.6707;-5.4766;
750.3000;0.6716;-5.4792;
750.6000;0.6699;-5.4871;
750.9000;0.6707;-5.4845;
751.2000;0.6707;-5.4845;
751.5000;0.6732;-5.4766;
751.8000;0.6707;-5.4739;
752.1000;0.6683;-5.4871;
752.4000;0.6683;-5.4766;
752.7000;0.6675;-5.4818;
753.0000;0.6716;-5.4713;
753.3000;0.6699;-5.4845;
753.6000;0.6675;-5.4871;
753.9000;0.6691;-5.4818;
754.2000;0.6699;-5.4766;
754.5000;0.6691;-5.4766;
754.8000;0.6699;-5.4739;
755.1000;0.6699;-5.4871;
755.4000;0.6691;-5.4792;
755.7000;0.6675;-5.4845;
756.0000;0.6691;-5.4845;
756.3000;0.6699;-5.4871;
756.6000;0.6650;-5.4977;
756.9000;0.6683;-5.4739;
757.2000;0.6675;-5.4766;
757.5000;0.6659;-5.4739;
757.8000;0.6683;-5.4634;
758.1000;0.6642;-5.4686;
758.4000;0.6650;-5.4686;
758.7000;0.6659;-5.4686;
759.0000;0.6667;-5.4660;
759.3000;0.6659;-5.4739;
759.6000;0.6667;-5.4739;
759.9000;0.6667;-5.4739;
760.2000;0.6650;-5.4845;
760.5000;0.6675;-5.4739;
760.8000;0.6667;-5.4686;
761.1000;0.6699;-5.4686;
761.4000;0.6634;-5.4792;
761.7000;0.6667;-5.4739;
762.0000;0.6659;-5.4739;
762.3000;0.6634;-5.4766;
762.6000;0.6642;-5.4634;
762.9000;0.6675;-5.4475;
763.2000;0.6667;-5.4554;
763.5000;0.6585;-5.4739;
763.8000;0.6675;-5.4528;
764.1000;0.6585;-5.4766;
764.4000;0.6667;-5.4554;
764.7000;0.6618;-5.4634;
765.0000;0.6642;-5.4475;
765.3000;0.6642;-5.4554;
765.6000;0.6667;-5.4581;
765.9000;0.6634;-5.4713;
766.2000;0.6650;-5.4713;
766.5000;0.6659;-5.4660;
766.8000;0.6667;-5.4607;
767.1000;0.6642;-5.4581;
767.4000;0.6634;-5.4713;
767.7000;0.6602;-5.4845;
768.0000;0.6618;-5.4739;
768.3000;0.6650;-5.4713;
768.6000;0.6683;-5.4581;
768.9000;0.6626;-5.4713;
769.2000;0.6634;-5.4686;
769.5000;0.6642;-5.4660;
769.8000;0.6642;-5.4607;
770.1000;0.6642;-5.4660;
770.4000;0.6618;-5.4739;
770.7000;0.6618;-5.4660;
771.0000;0.6626;-5.4634;
771.3000;0.6610;-5.4713;
771.6000;0.6569;-5.4871;
771.9000;0.6634;-5.4792;
772.2000;0.6634;-5.4818;
772.5000;0.6634;-5.4766;
772.8000;0.6610;-5.4686;
773.1000;0.6634;-5.4713;
773.4000;0.6626;-5.4713;
773.7000;0.6634;-5.4766;
774.0000;0.6610;-5.4871;
774.3000;0.6618;-5.4845;
774.6000;0.6618;-5.4845;
774.9000;0.6650;-5.4898;
775.2000;0.6585;-5.5030;
775.5000;0.6610;-5.4871;
775.8000;0.6593;-5.4792;
776.1000;0.6626;-5.4713;
776.4000;0.6634;-5.4581;
776.7000;0.6610;-5.4686;
777.0000;0.6610;-5.4634;
777.3000;0.6634;-5.4528;
777.6000;0.6593;-5.4686;
777.9000;0.6593;-5.4713;
778.2000;0.6602;-5.4766;
778.5000;0.6561;-5.4871;
778.8000;0.6602;-5.4713;
779.1000;0.6602;-5.4739;
779.4000;0.6569;-5.4818;
779.7000;0.6602;-5.4818;
780.0000;0.6610;-5.4818;
780.3000;0.6569;-5.4792;
780.6000;0.6545;-5.4792;
780.9000;0.6593;-5.4660;
781.2000;0.6634;-5.4581;
781.5000;0.6585;-5.4607;
781.8000;0.6602;-5.4528;
782.1000;0.6602;-5.4554;
782.4000;0.6602;-5.4502;
782.7000;0.6602;-5.4528;
783.0000;0.6593;-5.4554;
783.3000;0.6585;-5.4581;
783.6000;0.6593;-5.4554;
783.9000;0.6585;-5.4554;
784.2000;0.6593;-5.4502;
784.5000;0.6569;-5.4502;
784.8000;0.6593;-5.4581;
785.1000;0.6610;-5.4634;
785.4000;0.6561;-5.4713;
785.7000;0.6569;-5.4607;
786.0000;0.6610;-5.4528;
786.3000;0.6585;-5.4713;
786.6000;0.6593;-5.4686;
786.9000;0.6593;-5.4660;
787.2000;0.6577;-5.4634;
787.5000;0.6561;-5.4686;
787.8000;0.6593;-5.4554;
788.1000;0.6545;-5.4686;
788.4000;0.6585;-5.4660;
788.7000;0.6561;-5.4766;
789.0000;0.6545;-5.4766;
789.3000;0.6553;-5.4739;
789.6000;0.6545;-5.4739;
789.9000;0.6650;-5.4502;
790.2000;0.6626;-5.4528;
790.5000;0.6561;-5.4660;
790.8000;0.6528;-5.4660;
791.1000;0.6561;-5.4528;
791.4000;0.6569;-5.4528;
791.7000;0.6569;-5.4554;
792.0000;0.6553;-5.4528;
792.3000;0.6561;-5.4581;
792.6000;0.6561;-5.4713;
792.9000;0.6561;-5.4818;
793.2000;0.6553;-5.4739;
793.5000;0.6545;-5.4818;
793.8000;0.6569;-5.4818;
794.1000;0.6545;-5.4818;
794.4000;0.6536;-5.4818;
794.7000;0.6553;-5.4845;
795.0000;0.6585;-5.4766;
795.3000;0.6561;-5.4818;
795.6000;0.6553;-5.4871;
795.9000;0.6561;-5.4845;
796.2000;0.6569;-5.4818;
796.5000;0.6545;-5.4792;
796.8000;0.6618;-5.4739;
797.1000;0.6553;-5.4871;
797.4000;0.6569;-5.4845;
797.7000;0.6569;-5.4792;
798.0000;0.6553;-5.4792;
798.3000;0.6561;-5.4739;
798.6000;0.6545;-5.4818;
798.9000;0.6545;-5.4871;
799.2000;0.6577;-5.4845;
799.5000;0.6553;-5.4951;
799.8000;0.6536;-5.4924;
800.1000;0.6528;-5.4951;
800.4000;0.6553;-5.4766;
800.7000;0.6545;-5.4766;
801.0000;0.6536;-5.4818;
801.3000;0.6536;-5.4818;
801.6000;0.6545;-5.4845;
801.9000;0.6528;-5.5003;
802.2000;0.6488;-5.5162;
802.5000;0.6520;-5.5083;
802.8000;0.6536;-5.5056;
803.1000;0.6520;-5.5056;
803.4000;0.6528;-5.5083;
803.7000;0.6520;-5.5083;
804.0000;0.6496;-5.5056;
804.3000;0.6536;-5.4871;
804.6000;0.6528;-5.4898;
804.9000;0.6536;-5.4713;
805.2000;0.6512;-5.4739;
805.5000;0.6520;-5.4739;
805.8000;0.6536;-5.4818;
806.1000;0.6520;-5.4818;
806.4000;0.6545;-5.4713;
806.7000;0.6512;-5.4766;
807.0000;0.6520;-5.4739;
807.3000;0.6520;-5.4686;
807.6000;0.6561;-5.4607;
807.9000;0.6536;-5.4660;
808.2000;0.6536;-5.4634;
808.5000;0.6512;-5.4634;
808.8000;0.6479;-5.4818;
809.1000;0.6545;-5.4634;
809.4000;0.6545;-5.4713;
809.7000;0.6528;-5.4739;
810.0000;0.6520;-5.4686;
810.3000;0.6504;-5.4713;
810.6000;0.6488;-5.4739;
810.9000;0.6520;-5.4713;
811.2000;0.6520;-5.4845;
811.5000;0.6569;-5.4660;
811.8000;0.6520;-5.4845;
812.1000;0.6528;-5.4792;
812.4000;0.6520;-5.4818;
812.7000;0.6545;-5.4686;
813.0000;0.6512;-5.4739;
813.3000;0.6520;-5.4739;
813.6000;0.6488;-5.4818;
813.9000;0.6520;-5.4871;
814.2000;0.6520;-5.4792;
814.5000;0.6512;-5.4713;
814.8000;0.6463;-5.4766;
815.1000;0.6504;-5.4581;
815.4000;0.6504;-5.4554;
815.7000;0.6520;-5.4581;
816.0000;0.6512;-5.4581;
816.3000;0.6512;-5.4634;
816.6000;0.6479;-5.4686;
816.9000;0.6471;-5.4634;
817.2000;0.6520;-5.4554;
817.5000;0.6504;-5.4686;
817.8000;0.6536;-5.4607;
818.1000;0.6520;-5.4660;
818.4000;0.6504;-5.4713;
818.7000;0.6520;-5.4713;
819.0000;0.6520;-5.4660;
819.3000;0.6512;-5.4713;
819.6000;0.6504;-5.4686;
819.9000;0.6496;-5.4739;
820.2000;0.6496;-5.4713;
820.5000;0.6488;-5.4660;
820.8000;0.6512;-5.4686;
821.1000;0.6504;-5.4792;
821.4000;0.6504;-5.4871;
821.7000;0.6496;-5.4871;
822.0000;0.6504;-5.4845;
822.3000;0.6504;-5.4766;
822.6000;0.6512;-5.4739;
822.9000;0.6488;-5.4739;
823.2000;0.6496;-5.4686;
823.5000;0.6520;-5.4660;
823.8000;0.6504;-5.4660;
824.1000;0.6496;-5.4660;
824.4000;0.6528;-5.4528;
824.7000;0.6504;-5.4554;
825.0000;0.6488;-5.4607;
825.3000;0.6488;-5.4713;
825.6000;0.6471;-5.4713;
825.9000;0.6504;-5.4686;
826.2000;0.6545;-5.4554;
826.5000;0.6496;-5.4686;
826.8000;0.6471;-5.4660;
827.1000;0.6479;-5.4607;
827.4000;0.6496;-5.4713;
827.7000;0.6496;-5.4739;
828.0000;0.6561;-5.4607;
828.3000;0.6496;-5.4792;
828.6000;0.6488;-5.4739;
828.9000;0.6479;-5.4739;
829.2000;0.6479;-5.4818;
829.5000;0.6463;-5.4792;
829.8000;0.6479;-5.4792;
830.1000;0.6488;-5.4792;
830.4000;0.6479;-5.4713;
830.7000;0.6471;-5.4739;
831.0000;0.6528;-5.4581;
831.3000;0.6471;-5.4607;
831.6000;0.6463;-5.4528;
831.9000;0.6471;-5.4449;
832.2000;0.6439;-5.4475;
832.5000;0.6496;-5.4475;
832.8000;0.6463;-5.4502;
833.1000;0.6479;-5.4449;
833.4000;0.6471;-5.4449;
833.7000;0.6496;-5.4449;
834.0000;0.6463;-5.4528;
834.3000;0.6463;-5.4528;
834.6000;0.6496;-5.4502;
834.9000;0.6479;-5.4528;
835.2000;0.6479;-5.4502;
835.5000;0.6488;-5.4502;
835.8000;0.6455;-5.4528;
836.1000;0.6479;-5.4528;
836.4000;0.6439;-5.4686;
836.7000;0.6439;-5.4634;
837.0000;0.6479;-5.4581;
837.3000;0.6496;-5.4634;
837.6000;0.6488;-5.4713;
837.9000;0.6488;-5.4686;
838.2000;0.6471;-5.4607;
838.5000;0.6479;-5.4449;
838.8000;0.6471;-5.4449;
839.1000;0.6471;-5.4449;
839.4000;0.6447;-5.4528;
839.7000;0.6471;-5.4502;
840.0000;0.6455;-5.4502;
840.3000;0.6471;-5.4475;
840.6000;0.6479;-5.4502;
840.9000;0.6455;-5.4502;
841.2000;0.6455;-5.4554;
841.5000;0.6471;-5.4528;
841.8000;0.6439;-5.4581;
842.1000;0.6471;-5.4475;
842.4000;0.6471;-5.4502;
842.7000;0.6471;-5.4528;
843.0000;0.6471;-5.4581;
843.3000;0.6455;-5.4607;
843.6000;0.6439;-5.4660;
843.9000;0.6479;-5.4607;
844.2000;0.6479;-5.4554;
844.5000;0.6471;-5.4581;
844.8000;0.6488;-5.4502;
845.1000;0.6471;-5.4502;
845.4000;0.6504;-5.4370;
845.7000;0.6463;-5.4475;
846.0000;0.6463;-5.4502;
846.3000;0.6463;-5.4502;
846.6000;0.6447;-5.4607;
846.9000;0.6455;-5.4686;
847.2000;0.6455;-5.4686;
847.5000;0.6414;-5.4739;
847.8000;0.6455;-5.4634;
848.1000;0.6447;-5.4607;
848.4000;0.6447;-5.4713;
848.7000;0.6439;-5.4739;
849.0000;0.6455;-5.4713;
849.3000;0.6455;-5.4713;
849.6000;0.6455;-5.4686;
849.9000;0.6455;-5.4713;
850.2000;0.6455;-5.4634;
850.5000;0.6463;-5.4581;
850.8000;0.6439;-5.4660;
851.1000;0.6439;-5.4554;
851.4000;0.6447;-5.4449;
851.7000;0.6447;-5.4449;
852.0000;0.6431;-5.4475;
852.3000;0.6463;-5.4422;
852.6000;0.6447;-5.4554;
852.9000;0.6447;-5.4475;
853.2000;0.6455;-5.4422;
853.5000;0.6447;-5.4502;
853.8000;0.6463;-5.4528;
854.1000;0.6455;-5.4581;
854.4000;0.6496;-5.4502;
854.7000;0.6414;-5.4686;
855.0000;0.6439;-5.4502;
855.3000;0.6512;-5.4343;
855.6000;0.6447;-5.4475;
855.9000;0.6479;-5.4396;
856.2000;0.6422;-5.4502;
856.5000;0.6431;-5.4554;
856.8000;0.6439;-5.4475;
857.1000;0.6455;-5.4475;
857.4000;0.6447;-5.4475;
857.7000;0.6447;-5.4634;
858.0000;0.6439;-5.4686;
858.3000;0.6439;-5.4660;
858.6000;0.6439;-5.4766;
858.9000;0.6374;-5.4898;
859.2000;0.6455;-5.4660;
859.5000;0.6439;-5.4739;
859.8000;0.6471;-5.4607;
860.1000;0.6471;-5.4713;
860.4000;0.6439;-5.4686;
860.7000;0.6447;-5.4607;
861.0000;0.6455;-5.4475;
861.3000;0.6422;-5.4449;
861.6000;0.6431;-5.4396;
861.9000;0.6439;-5.4422;
862.2000;0.6422;-5.4449;
862.5000;0.6431;-5.4449;
862.8000;0.6447;-5.4343;
863.1000;0.6447;-5.4422;
863.4000;0.6439;-5.4449;
863.7000;0.6414;-5.4502;
864.0000;0.6422;-5.4502;
864.3000;0.6431;-5.4370;
864.6000;0.6431;-5.4422;
864.9000;0.6414;-5.4607;
865.2000;0.6431;-5.4581;
865.5000;0.6422;-5.4634;
865.8000;0.6422;-5.4581;
866.1000;0.6447;-5.4554;
866.4000;0.6422;-5.4581;
866.7000;0.6431;-5.4528;
867.0000;0.6439;-5.4449;
867.3000;0.6422;-5.4528;
867.6000;0.6422;-5.4607;
867.9000;0.6422;-5.4528;
868.2000;0.6414;-5.4528;
868.5000;0.6431;-5.4502;
868.8000;0.6406;-5.4607;
869.1000;0.6422;-5.4581;
869.4000;0.6447;-5.4528;
869.7000;0.6447;-5.4581;
870.0000;0.6447;-5.4528;
870.3000;0.6431;-5.4660;
870.6000;0.6414;-5.4713;
870.9000;0.6422;-5.4634;
871.2000;0.6447;-5.4502;
871.5000;0.6414;-5.4502;
871.8000;0.6414;-5.4554;
872.1000;0.6439;-5.4475;
872.4000;0.6439;-5.4343;
872.7000;0.6422;-5.4422;
873.0000;0.6439;-5.4396;
873.3000;0.6431;-5.4528;
873.6000;0.6431;-5.4607;
873.9000;0.6422;-5.4554;
874.2000;0.6422;-5.4449;
874.5000;0.6439;-5.4422;
874.8000;0.6398;-5.4502;
875.1000;0.6406;-5.4422;
875.4000;0.6406;-5.4475;
875.7000;0.6406;-5.4317;
876.0000;0.6439;-5.4370;
876.3000;0.6365;-5.4554;
876.6000;0.6398;-5.4502;
876.9000;0.6398;-5.4554;
877.2000;0.6414;-5.4528;
877.5000;0.6447;-5.4528;
877.8000;0.6398;-5.4634;
878.1000;0.6398;-5.4581;
878.4000;0.6406;-5.4660;
878.7000;0.6365;-5.4686;
879.0000;0.6414;-5.4739;
879.3000;0.6422;-5.4660;
879.6000;0.6439;-5.4581;
879.9000;0.6471;-5.4396;
880.2000;0.6414;-5.4449;
880.5000;0.6406;-5.4396;
880.8000;0.6390;-5.4422;
881.1000;0.6390;-5.4475;
881.4000;0.6414;-5.4449;
881.7000;0.6447;-5.4343;
882.0000;0.6406;-5.4449;
882.3000;0.6414;-5.4528;
882.6000;0.6398;-5.4634;
882.9000;0.6390;-5.4660;
883.2000;0.6414;-5.4581;
883.5000;0.6406;-5.4528;
883.8000;0.6414;-5.4528;
884.1000;0.6414;-5.4528;
884.4000;0.6422;-5.4502;
884.7000;0.6414;-5.4634;
885.0000;0.6406;-5.4660;
885.3000;0.6406;-5.4739;
885.6000;0.6406;-5.4739;
885.9000;0.6414;-5.4660;
886.2000;0.6406;-5.4581;
886.5000;0.6406;-5.4660;
886.8000;0.6398;-5.4607;
887.1000;0.6422;-5.4554;
887.4000;0.6406;-5.4502;
887.7000;0.6325;-5.4766;
888.0000;0.6390;-5.4528;
888.3000;0.6390;-5.4449;
888.6000;0.6398;-5.4449;
888.9000;0.6406;-5.4475;
889.2000;0.6390;-5.4581;
889.5000;0.6398;-5.4686;
889.8000;0.6398;-5.4739;
890.1000;0.6406;-5.4686;
890.4000;0.6390;-5.4766;
890.7000;0.6374;-5.4818;
891.0000;0.6390;-5.4766;
891.3000;0.6406;-5.4660;
891.6000;0.6398;-5.4713;
891.9000;0.6398;-5.4686;
892.2000;0.6414;-5.4713;
892.5000;0.6414;-5.4634;
892.8000;0.6406;-5.4554;
893.1000;0.6365;-5.4554;
893.4000;0.6374;-5.4502;
893.7000;0.6406;-5.4370;
894.0000;0.6382;-5.4396;
894.3000;0.6341;-5.4396;
894.6000;0.6390;-5.4475;
894.9000;0.6390;-5.4475;
895.2000;0.6398;-5.4449;
895.5000;0.6398;-5.4581;
895.8000;0.6374;-5.4554;
896.1000;0.6398;-5.4554;
896.4000;0.6382;-5.4581;
896.7000;0.6390;-5.4554;
897.0000;0.6382;-5.4528;
897.3000;0.6365;-5.4449;
897.6000;0.6374;-5.4422;
897.9000;0.6382;-5.4502;
898.2000;0.6349;-5.4634;
898.5000;0.6357;-5.4581;
898.8000;0.6382;-5.4528;
899.1000;0.6398;-5.4554;
899.4000;0.6382;-5.4581;
899.7000;0.6365;-5.4554;
900.0000;0.6374;-5.4528;
900.3000;0.6374;-5.4449;
900.6000;0.6390;-5.4422;
900.9000;0.6382;-5.4502;
901.2000;0.6374;-5.4475;
901.5000;0.6382;-5.4422;
901.8000;0.6390;-5.4475;
902.1000;0.6390;-5.4502;
902.4000;0.6374;-5.4554;
902.7000;0.6398;-5.4475;
903.0000;0.6390;-5.4475;
903.3000;0.6406;-5.4422;
903.6000;0.6365;-5.4475;
903.9000;0.6422;-5.4238;
904.2000;0.6365;-5.4264;
904.5000;0.6374;-5.4317;
904.8000;0.6374;-5.4264;
905.1000;0.6365;-5.4290;
905.4000;0.6374;-5.4343;
905.7000;0.6382;-5.4317;
906.0000;0.6390;-5.4343;
906.3000;0.6390;-5.4317;
906.6000;0.6390;-5.4370;
906.9000;0.6382;-5.4422;
907.2000;0.6382;-5.4396;
907.5000;0.6374;-5.4475;
907.8000;0.6374;-5.4502;
908.1000;0.6382;-5.4449;
908.4000;0.6382;-5.4475;
908.7000;0.6357;-5.4554;
909.0000;0.6365;-5.4607;
909.3000;0.6390;-5.4475;
909.6000;0.6365;-5.4475;
909.9000;0.6365;-5.4449;
910.2000;0.6406;-5.4396;
910.5000;0.6382;-5.4422;
910.8000;0.6390;-5.4502;
911.1000;0.6365;-5.4581;
911.4000;0.6382;-5.4475;
911.7000;0.6382;-5.4554;
912.0000;0.6382;-5.4502;
912.3000;0.6309;-5.4766;
912.6000;0.6382;-5.4502;
912.9000;0.6382;-5.4502;
913.2000;0.6390;-5.4449;
913.5000;0.6357;-5.4554;
913.8000;0.6365;-5.4475;
914.1000;0.6382;-5.4449;
914.4000;0.6382;-5.4422;
914.7000;0.6374;-5.4502;
915.0000;0.6365;-5.4634;
915.3000;0.6365;-5.4686;
915.6000;0.6382;-5.4581;
915.9000;0.6390;-5.4581;
916.2000;0.6382;-5.4581;
916.5000;0.6382;-5.4528;
916.8000;0.6382;-5.4502;
917.1000;0.6382;-5.4422;
917.4000;0.6317;-5.4528;
917.7000;0.6357;-5.4475;
918.0000;0.6365;-5.4396;
918.3000;0.6365;-5.4343;
918.6000;0.6365;-5.4211;
918.9000;0.6374;-5.4264;
919.2000;0.6374;-5.4290;
919.5000;0.6374;-5.4317;
919.8000;0.6374;-5.4317;
920.1000;0.6365;-5.4422;
920.4000;0.6300;-5.4581;
920.7000;0.6382;-5.4370;
921.0000;0.6357;-5.4396;
921.3000;0.6374;-5.4343;
921.6000;0.6382;-5.4290;
921.9000;0.6390;-5.4343;
922.2000;0.6390;-5.4343;
922.5000;0.6374;-5.4290;
922.8000;0.6374;-5.4290;
923.1000;0.6365;-5.4370;
923.4000;0.6365;-5.4343;
923.7000;0.6357;-5.4396;
924.0000;0.6325;-5.4528;
924.3000;0.6357;-5.4449;
924.6000;0.6398;-5.4449;
924.9000;0.6349;-5.4607;
925.2000;0.6349;-5.4581;
925.5000;0.6349;-5.4607;
925.8000;0.6382;-5.4554;
926.1000;0.6374;-5.4475;
926.4000;0.6357;-5.4502;
926.7000;0.6398;-5.4422;
927.0000;0.6365;-5.4554;
927.3000;0.6357;-5.4528;
927.6000;0.6349;-5.4528;
927.9000;0.6365;-5.4475;
928.2000;0.6349;-5.4502;
928.5000;0.6317;-5.4607;
928.8000;0.6357;-5.4449;
929.1000;0.6349;-5.4528;
929.4000;0.6365;-5.4422;
929.7000;0.6349;-5.4290;
930.0000;0.6325;-5.4449;
930.3000;0.6365;-5.4449;
930.6000;0.6357;-5.4528;
930.9000;0.6357;-5.4554;
931.2000;0.6341;-5.4554;
931.5000;0.6341;-5.4422;
931.8000;0.6341;-5.4449;
932.1000;0.6374;-5.4502;
932.4000;0.6374;-5.4475;
932.7000;0.6374;-5.4502;
933.0000;0.6357;-5.4502;
933.3000;0.6341;-5.4528;
933.6000;0.6325;-5.4554;
933.9000;0.6365;-5.4502;
934.2000;0.6406;-5.4290;
934.5000;0.6357;-5.4396;
934.8000;0.6382;-5.4290;
935.1000;0.6406;-5.4211;
935.4000;0.6357;-5.4290;
935.7000;0.6317;-5.4422;
936.0000;0.6349;-5.4317;
936.3000;0.6365;-5.4290;
936.6000;0.6357;-5.4290;
936.9000;0.6357;-5.4264;
937.2000;0.6349;-5.4317;
937.5000;0.6365;-5.4238;
937.8000;0.6357;-5.4211;
938.1000;0.6349;-5.4158;
938.4000;0.6333;-5.4264;
938.7000;0.6341;-5.4238;
939.0000;0.6341;-5.4264;
939.3000;0.6349;-5.4264;
939.6000;0.6349;-5.4158;
939.9000;0.6357;-5.4185;
940.2000;0.6349;-5.4185;
940.5000;0.6333;-5.4290;
940.8000;0.6349;-5.4264;
941.1000;0.6357;-5.4238;
941.4000;0.6374;-5.4264;
941.7000;0.6349;-5.4290;
942.0000;0.6365;-5.4370;
942.3000;0.6349;-5.4343;
942.6000;0.6341;-5.4264;
942.9000;0.6349;-5.4264;
943.2000;0.6325;-5.4396;
943.5000;0.6382;-5.4370;
943.8000;0.6357;-5.4317;
944.1000;0.6357;-5.4317;
944.4000;0.6325;-5.4396;
944.7000;0.6341;-5.4396;
945.0000;0.6341;-5.4528;
945.3000;0.6333;-5.4475;
945.6000;0.6357;-5.4475;
945.9000;0.6300;-5.4581;
946.2000;0.6349;-5.4502;
946.5000;0.6300;-5.4607;
946.8000;0.6317;-5.4607;
947.1000;0.6333;-5.4449;
947.4000;0.6382;-5.4475;
947.7000;0.6341;-5.4528;
948.0000;0.6333;-5.4554;
948.3000;0.6309;-5.4634;
948.6000;0.6325;-5.4554;
948.9000;0.6357;-5.4422;
949.2000;0.6357;-5.4475;
949.5000;0.6365;-5.4343;
949.8000;0.6382;-5.4238;
950.1000;0.6341;-5.4238;
950.4000;0.6365;-5.4158;
950.7000;0.6284;-5.4475;
951.0000;0.6309;-5.4528;
951.3000;0.6333;-5.4554;
951.6000;0.6341;-5.4528;
951.9000;0.6341;-5.4502;
952.2000;0.6333;-5.4528;
952.5000;0.6349;-5.4502;
952.8000;0.6325;-5.4634;
953.1000;0.6317;-5.4686;
953.4000;0.6341;-5.4554;
953.7000;0.6300;-5.4607;
954.0000;0.6349;-5.4475;
954.3000;0.6333;-5.4528;
954.6000;0.6349;-5.4449;
954.9000;0.6341;-5.4449;
955.2000;0.6357;-5.4343;
955.5000;0.6341;-5.4449;
955.8000;0.6341;-5.4475;
956.1000;0.6349;-5.4502;
956.4000;0.6365;-5.4554;
956.7000;0.6357;-5.4502;
957.0000;0.6309;-5.4554;
957.3000;0.6325;-5.4449;
957.6000;0.6341;-5.4449;
957.9000;0.6309;-5.4528;
958.2000;0.6349;-5.4449;
958.5000;0.6341;-5.4422;
958.8000;0.6341;-5.4475;
959.1000;0.6341;-5.4502;
959.4000;0.6333;-5.4554;
959.7000;0.6333;-5.4554;
960.0000;0.6382;-5.4396;
960.3000;0.6341;-5.4528;
960.6000;0.6333;-5.4554;
960.9000;0.6333;-5.4634;
961.2000;0.6325;-5.4634;
961.5000;0.6325;-5.4660;
961.8000;0.6357;-5.4528;
962.1000;0.6341;-5.4475;
962.4000;0.6309;-5.4475;
962.7000;0.6300;-5.4475;
963.0000;0.6333;-5.4370;
963.3000;0.6325;-5.4343;
963.6000;0.6357;-5.4290;
963.9000;0.6349;-5.4317;
964.2000;0.6341;-5.4343;
964.5000;0.6309;-5.4422;
964.8000;0.6325;-5.4422;
965.1000;0.6325;-5.4475;
965.4000;0.6268;-5.4713;
965.7000;0.6349;-5.4607;
966.0000;0.6325;-5.4581;
966.3000;0.6341;-5.4528;
966.6000;0.6317;-5.4502;
966.9000;0.6357;-5.4396;
967.2000;0.6341;-5.4370;
967.5000;0.6341;-5.4396;
967.8000;0.6325;-5.4396;
968.1000;0.6349;-5.4370;
968.4000;0.6325;-5.4422;
968.7000;0.6333;-5.4396;
969.0000;0.6317;-5.4422;
969.3000;0.6300;-5.4475;
969.6000;0.6365;-5.4264;
969.9000;0.6325;-5.4343;
970.2000;0.6341;-5.4264;
970.5000;0.6365;-5.4158;
970.8000;0.6325;-5.4317;
971.1000;0.6317;-5.4422;
971.4000;0.6333;-5.4343;
971.7000;0.6300;-5.4396;
972.0000;0.6357;-5.4238;
972.3000;0.6317;-5.4343;
972.6000;0.6325;-5.4343;
972.9000;0.6292;-5.4422;
973.2000;0.6333;-5.4343;
973.5000;0.6349;-5.4343;
973.8000;0.6349;-5.4449;
974.1000;0.6309;-5.4607;
974.4000;0.6292;-5.4528;
974.7000;0.6325;-5.4422;
975.0000;0.6309;-5.4422;
975.3000;0.6333;-5.4396;
975.6000;0.6325;-5.4422;
975.9000;0.6276;-5.4528;
976.2000;0.6317;-5.4396;
976.5000;0.6300;-5.4502;
976.8000;0.6325;-5.4449;
977.1000;0.6333;-5.4370;
977.4000;0.6309;-5.4343;
977.7000;0.6325;-5.4343;
978.0000;0.6325;-5.4343;
978.3000;0.6333;-5.4343;
978.6000;0.6284;-5.4475;
978.9000;0.6309;-5.4422;
979.2000;0.6300;-5.4449;
979.5000;0.6317;-5.4370;
979.8000;0.6333;-5.4370;
980.1000;0.6333;-5.4396;
980.4000;0.6341;-5.4422;
980.7000;0.6341;-5.4343;
981.0000;0.6317;-5.4317;
981.3000;0.6333;-5.4343;
981.6000;0.6325;-5.4317;
981.9000;0.6325;-5.4317;
982.2000;0.6341;-5.4211;
982.5000;0.6325;-5.4238;
982.8000;0.6309;-5.4185;
983.1000;0.6333;-5.4079;
983.4000;0.6333;-5.4053;
983.7000;0.6325;-5.4185;
984.0000;0.6333;-5.4132;
984.3000;0.6309;-5.4238;
984.6000;0.6341;-5.4132;
984.9000;0.6325;-5.4158;
985.2000;0.6333;-5.4158;
985.5000;0.6317;-5.4158;
985.8000;0.6341;-5.4158;
986.1000;0.6333;-5.4158;
986.4000;0.6333;-5.4053;
986.7000;0.6300;-5.4132;
987.0000;0.6333;-5.4132;
987.3000;0.6325;-5.4158;
987.6000;0.6325;-5.4106;
987.9000;0.6325;-5.4158;
988.2000;0.6300;-5.4238;
988.5000;0.6341;-5.4158;
988.8000;0.6325;-5.4158;
989.1000;0.6333;-5.4158;
989.4000;0.6382;-5.4000;
989.7000;0.6333;-5.4079;
990.0000;0.6325;-5.4106;
990.3000;0.6325;-5.4132;
990.6000;0.6309;-5.4185;
990.9000;0.6333;-5.4211;
991.2000;0.6292;-5.4317;
991.5000;0.6325;-5.4290;
991.8000;0.6309;-5.4264;
992.1000;0.6309;-5.4290;
992.4000;0.6309;-5.4238;
992.7000;0.6325;-5.4290;
993.0000;0.6300;-5.4370;
993.3000;0.6300;-5.4343;
993.6000;0.6300;-5.4317;
993.9000;0.6333;-5.4343;
994.2000;0.6317;-5.4396;
994.5000;0.6333;-5.4238;
994.8000;0.6325;-5.4264;
995.1000;0.6325;-5.4185;
995.4000;0.6317;-5.4238;
995.7000;0.6317;-5.4264;
996.0000;0.6333;-5.4264;
996.3000;0.6317;-5.4290;
996.6000;0.6300;-5.4317;
996.9000;0.6300;-5.4343;
997.2000;0.6300;-5.4290;
997.5000;0.6309;-5.4238;
997.8000;0.6260;-5.4317;
998.1000;0.6309;-5.4238;
998.4000;0.6300;-5.4343;
998.7000;0.6284;-5.4475;
999.0000;0.6325;-5.4396;
999.3000;0.6317;-5.4290;
999.6000;0.6325;-5.4264;
999.9000;0.6300;-5.4317;
1000.2000;0.6317;-5.4211;
1000.5000;0.6317;-5.4290;
1000.8000;0.6333;-5.4396;
1001.1000;0.6333;-5.4422;
1001.4000;0.6325;-5.4422;
1001.7000;0.6292;-5.4528;
1002.0000;0.6300;-5.4528;
1002.3000;0.6317;-5.4449;
1002.6000;0.6292;-5.4449;
1002.9000;0.6317;-5.4396;
1003.2000;0.6325;-5.4317;
1003.5000;0.6292;-5.4422;
1003.8000;0.6325;-5.4370;
1004.1000;0.6309;-5.4396;
1004.4000;0.6309;-5.4422;
1004.7000;0.6357;-5.4264;
1005.0000;0.6292;-5.4449;
1005.3000;0.6309;-5.4343;
1005.6000;0.6341;-5.4211;
1005.9000;0.6292;-5.4343;
1006.2000;0.6309;-5.4396;
1006.5000;0.6333;-5.4317;
1006.8000;0.6333;-5.4317;
1007.1000;0.6317;-5.4422;
1007.4000;0.6300;-5.4396;
1007.7000;0.6309;-5.4475;
1008.0000;0.6300;-5.4475;
1008.3000;0.6292;-5.4475;
1008.6000;0.6292;-5.4554;
1008.9000;0.6309;-5.4528;
1009.2000;0.6325;-5.4502;
1009.5000;0.6309;-5.4554;
1009.8000;0.6341;-5.4449;
1010.1000;0.6309;-5.4449;
1010.4000;0.6292;-5.4502;
1010.7000;0.6317;-5.4422;
1011.0000;0.6333;-5.4290;
1011.3000;0.6260;-5.4422;
1011.6000;0.6325;-5.4317;
1011.9000;0.6317;-5.4290;
1012.2000;0.6349;-5.4185;
1012.5000;0.6317;-5.4238;
1012.8000;0.6325;-5.4264;
1013.1000;0.6317;-5.4238;
1013.4000;0.6284;-5.4370;
1013.7000;0.6317;-5.4211;
1014.0000;0.6317;-5.4211;
1014.3000;0.6300;-5.4264;
1014.6000;0.6300;-5.4317;
1014.9000;0.6309;-5.4290;
1015.2000;0.6292;-5.4343;
1015.5000;0.6300;-5.4396;
1015.8000;0.6300;-5.4502;
1016.1000;0.6284;-5.4502;
1016.4000;0.6284;-5.4396;
1016.7000;0.6309;-5.4317;
1017.0000;0.6309;-5.4317;
1017.3000;0.6309;-5.4317;
1017.6000;0.6300;-5.4290;
1017.9000;0.6284;-5.4317;
1018.2000;0.6300;-5.4343;
1018.5000;0.6276;-5.4396;
1018.8000;0.6300;-5.4290;
1019.1000;0.6309;-5.4343;
1019.4000;0.6300;-5.4343;
1019.7000;0.6309;-5.4317;
1020.0000;0.6292;-5.4317;
1020.3000;0.6284;-5.4396;
1020.6000;0.6300;-5.4343;
1020.9000;0.6300;-5.4317;
1021.2000;0.6243;-5.4554;
1021.5000;0.6276;-5.4449;
1021.8000;0.6284;-5.4370;
1022.1000;0.6300;-5.4317;
1022.4000;0.6292;-5.4264;
1022.7000;0.6268;-5.4370;
1023.0000;0.6268;-5.4290;
1023.3000;0.6292;-5.4211;
1023.6000;0.6309;-5.4211;
1023.9000;0.6260;-5.4264;
1024.2000;0.6300;-5.4132;
1024.5000;0.6284;-5.4185;
1024.8000;0.6276;-5.4158;
1025.1000;0.6284;-5.4264;
1025.4000;0.6309;-5.4158;
1025.7000;0.6333;-5.4106;
1026.0000;0.6300;-5.4238;
1026.3000;0.6284;-5.4264;
1026.6000;0.6284;-5.4317;
1026.9000;0.6300;-5.4343;
1027.2000;0.6284;-5.4317;
1027.5000;0.6292;-5.4317;
1027.8000;0.6292;-5.4422;
1028.1000;0.6268;-5.4449;
1028.4000;0.6300;-5.4264;
1028.7000;0.6235;-5.4475;
1029.0000;0.6276;-5.4396;
1029.3000;0.6284;-5.4396;
1029.6000;0.6276;-5.4449;
1029.9000;0.6317;-5.4317;
1030.2000;0.6300;-5.4422;
1030.5000;0.6309;-5.4422;
1030.8000;0.6292;-5.4422;
1031.1000;0.6317;-5.4370;
1031.4000;0.6284;-5.4290;
1031.7000;0.6317;-5.4185;
1032.0000;0.6300;-5.4185;
1032.3000;0.6292;-5.4132;
1032.6000;0.6300;-5.4079;
1032.9000;0.6284;-5.4106;
1033.2000;0.6276;-5.4053;
1033.5000;0.6284;-5.4106;
1033.8000;0.6284;-5.4079;
1034.1000;0.6276;-5.4026;
1034.4000;0.6276;-5.4026;
1034.7000;0.6292;-5.4026;
1035.0000;0.6284;-5.4106;
1035.3000;0.6333;-5.4000;
1035.6000;0.6284;-5.4106;
1035.9000;0.6309;-5.4132;
1036.2000;0.6260;-5.4211;
1036.5000;0.6276;-5.4264;
1036.8000;0.6292;-5.4238;
1037.1000;0.6284;-5.4264;
1037.4000;0.6300;-5.4185;
1037.7000;0.6276;-5.4290;
1038.0000;0.6292;-5.4238;
1038.3000;0.6309;-5.4211;
1038.6000;0.6284;-5.4238;
1038.9000;0.6300;-5.4211;
1039.2000;0.6268;-5.4317;
1039.5000;0.6284;-5.4317;
1039.8000;0.6284;-5.4211;
1040.1000;0.6268;-5.4185;
1040.4000;0.6300;-5.4079;
1040.7000;0.6284;-5.4106;
1041.0000;0.6276;-5.4211;
1041.3000;0.6292;-5.4211;
1041.6000;0.6284;-5.4185;
1041.9000;0.6268;-5.4290;
1042.2000;0.6292;-5.4264;
1042.5000;0.6284;-5.4211;
1042.8000;0.6292;-5.4238;
1043.1000;0.6300;-5.4264;
1043.4000;0.6292;-5.4317;
1043.7000;0.6317;-5.4211;
1044.0000;0.6276;-5.4185;
1044.3000;0.6292;-5.4132;
1044.6000;0.6252;-5.4132;
1044.9000;0.6292;-5.3973;
1045.2000;0.6268;-5.4026;
1045.5000;0.6292;-5.3894;
1045.8000;0.6309;-5.3868;
1046.1000;0.6284;-5.3973;
1046.4000;0.6325;-5.4000;
1046.7000;0.6284;-5.4211;
1047.0000;0.6276;-5.4185;
1047.3000;0.6284;-5.4211;
1047.6000;0.6317;-5.4185;
1047.9000;0.6309;-5.4079;
1048.2000;0.6292;-5.4079;
1048.5000;0.6292;-5.4185;
1048.8000;0.6317;-5.4106;
1049.1000;0.6292;-5.4185;
1049.4000;0.6276;-5.4211;
1049.7000;0.6268;-5.4158;
1050.0000;0.6292;-5.4158;
1050.3000;0.6276;-5.4185;
1050.6000;0.6268;-5.4106;
1050.9000;0.6276;-5.4079;
1051.2000;0.6325;-5.3947;
1051.5000;0.6276;-5.4211;
1051.8000;0.6284;-5.4264;
1052.1000;0.6300;-5.4158;
1052.4000;0.6284;-5.4211;
1052.7000;0.6284;-5.4106;
1053.0000;0.6284;-5.4158;
1053.3000;0.6276;-5.4158;
1053.6000;0.6284;-5.4290;
1053.9000;0.6284;-5.4211;
1054.2000;0.6268;-5.4238;
1054.5000;0.6276;-5.4343;
1054.8000;0.6268;-5.4264;
1055.1000;0.6292;-5.4211;
1055.4000;0.6325;-5.4185;
1055.7000;0.6284;-5.4370;
1056.0000;0.6284;-5.4343;
1056.3000;0.6284;-5.4317;
1056.6000;0.6276;-5.4343;
1056.9000;0.6276;-5.4396;
1057.2000;0.6268;-5.4449;
1057.5000;0.6276;-5.4396;
1057.8000;0.6284;-5.4343;
1058.1000;0.6268;-5.4370;
1058.4000;0.6309;-5.4317;
1058.7000;0.6284;-5.4502;
1059.0000;0.6268;-5.4554;
1059.3000;0.6317;-5.4370;
1059.6000;0.6268;-5.4449;
1059.9000;0.6260;-5.4475;
1060.2000;0.6284;-5.4370;
1060.5000;0.6292;-5.4343;
1060.8000;0.6284;-5.4343;
1061.1000;0.6276;-5.4317;
1061.4000;0.6276;-5.4317;
1061.7000;0.6317;-5.4238;
1062.0000;0.6268;-5.4370;
1062.3000;0.6276;-5.4370;
1062.6000;0.6325;-5.4343;
1062.9000;0.6276;-5.4422;
1063.2000;0.6276;-5.4502;
1063.5000;0.6309;-5.4370;
1063.8000;0.6284;-5.4290;
1064.1000;0.6292;-5.4238;
1064.4000;0.6276;-5.4343;
1064.7000;0.6268;-5.4343;
1065.0000;0.6276;-5.4238;
1065.3000;0.6260;-5.4238;
1065.6000;0.6292;-5.4132;
1065.9000;0.6276;-5.4132;
1066.2000;0.6284;-5.4132;
1066.5000;0.6309;-5.4185;
1066.8000;0.6357;-5.4053;
1067.1000;0.6268;-5.4211;
1067.4000;0.6284;-5.4106;
1067.7000;0.6276;-5.4132;
1068.0000;0.6276;-5.4106;
1068.3000;0.6268;-5.4211;
1068.6000;0.6276;-5.4290;
1068.9000;0.6292;-5.4290;
1069.2000;0.6284;-5.4238;
1069.5000;0.6268;-5.4264;
1069.8000;0.6260;-5.4185;
1070.1000;0.6284;-5.4132;
1070.4000;0.6268;-5.4132;
1070.7000;0.6276;-5.4185;
1071.0000;0.6276;-5.4185;
1071.3000;0.6276;-5.4211;
1071.6000;0.6268;-5.4158;
1071.9000;0.6276;-5.4106;
1072.2000;0.6300;-5.4000;
1072.5000;0.6300;-5.4000;
1072.8000;0.6235;-5.4158;
1073.1000;0.6317;-5.4026;
1073.4000;0.6268;-5.4158;
1073.7000;0.6227;-5.4343;
1074.0000;0.6309;-5.4238;
1074.3000;0.6292;-5.4185;
1074.6000;0.6284;-5.4106;
1074.9000;0.6292;-5.4132;
1075.2000;0.6243;-5.4290;
1075.5000;0.6268;-5.4264;
1075.8000;0.6276;-5.4185;
1076.1000;0.6260;-5.4211;
1076.4000;0.6260;-5.4211;
1076.7000;0.6252;-5.4238;
1077.0000;0.6268;-5.4158;
1077.3000;0.6268;-5.4158;
1077.6000;0.6260;-5.4158;
1077.9000;0.6243;-5.4238;
1078.2000;0.6235;-5.4343;
1078.5000;0.6309;-5.4158;
1078.8000;0.6260;-5.4317;
1079.1000;0.6243;-5.4343;
1079.4000;0.6300;-5.4264;
1079.7000;0.6276;-5.4290;
1080.0000;0.6268;-5.4264;
1080.3000;0.6252;-5.4290;
1080.6000;0.6284;-5.4185;
1080.9000;0.6268;-5.4238;
1081.2000;0.6276;-5.4290;
1081.5000;0.6341;-5.4026;
1081.8000;0.6260;-5.4238;
1082.1000;0.6284;-5.4264;
1082.4000;0.6292;-5.4264;
1082.7000;0.6235;-5.4422;
1083.0000;0.6284;-5.4185;
1083.3000;0.6260;-5.4211;
1083.6000;0.6268;-5.4106;
1083.9000;0.6268;-5.4053;
1084.2000;0.6341;-5.3894;
1084.5000;0.6284;-5.4026;
1084.8000;0.6268;-5.4106;
1085.1000;0.6235;-5.4132;
1085.4000;0.6268;-5.4132;
1085.7000;0.6252;-5.4132;
1086.0000;0.6260;-5.4106;
1086.3000;0.6260;-5.4106;
1086.6000;0.6243;-5.4185;
1086.9000;0.6243;-5.4185;
1087.2000;0.6284;-5.4026;
1087.5000;0.6243;-5.4132;
1087.8000;0.6252;-5.4053;
1088.1000;0.6268;-5.4132;
1088.4000;0.6260;-5.4264;
1088.7000;0.6276;-5.4185;
1089.0000;0.6268;-5.4317;
1089.3000;0.6252;-5.4396;
1089.6000;0.6260;-5.4343;
1089.9000;0.6268;-5.4343;
1090.2000;0.6252;-5.4422;
1090.5000;0.6260;-5.4449;
1090.8000;0.6252;-5.4449;
1091.1000;0.6243;-5.4343;
1091.4000;0.6252;-5.4343;
1091.7000;0.6252;-5.4264;
1092.0000;0.6235;-5.4370;
1092.3000;0.6260;-5.4317;
1092.6000;0.6300;-5.4264;
1092.9000;0.6252;-5.4370;
1093.2000;0.6268;-5.4343;
1093.5000;0.6268;-5.4343;
1093.8000;0.6268;-5.4317;
1094.1000;0.6374;-5.4106;
1094.4000;0.6260;-5.4290;
1094.7000;0.6268;-5.4185;
1095.0000;0.6268;-5.4158;
1095.3000;0.6252;-5.4185;
1095.6000;0.6260;-5.4211;
1095.9000;0.6235;-5.4370;
1096.2000;0.6252;-5.4238;
1096.5000;0.6243;-5.4317;
1096.8000;0.6211;-5.4422;
1097.1000;0.6243;-5.4290;
1097.4000;0.6260;-5.4238;
1097.7000;0.6268;-5.4158;
1098.0000;0.6260;-5.4158;
1098.3000;0.6268;-5.4079;
1098.6000;0.6268;-5.4053;
1098.9000;0.6260;-5.4079;
1099.2000;0.6260;-5.4106;
1099.5000;0.6252;-5.4106;
1099.8000;0.6252;-5.4026;
1100.1000;0.6260;-5.4053;
1100.4000;0.6260;-5.4106;
1100.7000;0.6252;-5.4238;
1101.0000;0.6252;-5.4238;
1101.3000;0.6260;-5.4158;
1101.6000;0.6260;-5.4211;
1101.9000;0.6292;-5.4079;
1102.2000;0.6243;-5.4211;
1102.5000;0.6292;-5.4158;
1102.8000;0.6276;-5.4185;
1103.1000;0.6268;-5.4185;
1103.4000;0.6276;-5.4079;
1103.7000;0.6268;-5.4079;
1104.0000;0.6276;-5.4026;
1104.3000;0.6300;-5.4053;
1104.6000;0.6252;-5.4238;
1104.9000;0.6268;-5.4185;
1105.2000;0.6276;-5.4158;
1105.5000;0.6260;-5.4185;
1105.8000;0.6268;-5.4158;
1106.1000;0.6243;-5.4238;
1106.4000;0.6260;-5.4185;
1106.7000;0.6260;-5.4238;
1107.0000;0.6243;-5.4264;
1107.3000;0.6276;-5.4185;
1107.6000;0.6276;-5.4211;
1107.9000;0.6268;-5.4132;
1108.2000;0.6260;-5.4158;
1108.5000;0.6235;-5.4185;
1108.8000;0.6268;-5.4079;
1109.1000;0.6268;-5.4000;
1109.4000;0.6243;-5.4026;
1109.7000;0.6276;-5.3973;
1110.0000;0.6276;-5.3921;
1110.3000;0.6284;-5.3921;
1110.6000;0.6252;-5.4079;
1110.9000;0.6260;-5.4079;
1111.2000;0.6252;-5.4106;
1111.5000;0.6243;-5.4106;
1111.8000;0.6268;-5.4106;
1112.1000;0.6260;-5.4132;
1112.4000;0.6243;-5.4185;
1112.7000;0.6260;-5.4106;
1113.0000;0.6243;-5.4185;
1113.3000;0.6252;-5.4053;
1113.6000;0.6243;-5.4106;
1113.9000;0.6252;-5.4053;
1114.2000;0.6243;-5.4106;
1114.5000;0.6268;-5.4000;
1114.8000;0.6260;-5.4026;
1115.1000;0.6203;-5.4211;
1115.4000;0.6284;-5.4106;
1115.7000;0.6252;-5.4185;
1116.0000;0.6252;-5.4132;
1116.3000;0.6252;-5.4132;
1116.6000;0.6243;-5.4185;
1116.9000;0.6260;-5.4158;
1117.2000;0.6203;-5.4238;
1117.5000;0.6284;-5.4053;
1117.8000;0.6292;-5.3947;
1118.1000;0.6284;-5.4000;
1118.4000;0.6309;-5.4000;
1118.7000;0.6243;-5.4158;
1119.0000;0.6260;-5.4132;
1119.3000;0.6227;-5.4211;
1119.6000;0.6252;-5.4185;
1119.9000;0.6243;-5.4132;
1120.2000;0.6260;-5.4185;
1120.5000;0.6243;-5.4185;
1120.8000;0.6260;-5.4238;
1121.1000;0.6284;-5.4264;
1121.4000;0.6235;-5.4317;
1121.7000;0.6252;-5.4211;
1122.0000;0.6252;-5.4238;
1122.3000;0.6243;-5.4185;
1122.6000;0.6235;-5.4185;
1122.9000;0.6243;-5.4185;
1123.2000;0.6243;-5.4132;
1123.5000;0.6252;-5.4158;
1123.8000;0.6235;-5.4158;
1124.1000;0.6284;-5.4026;
1124.4000;0.6260;-5.4053;
1124.7000;0.6260;-5.4158;
1125.0000;0.6252;-5.4079;
1125.3000;0.6260;-5.4158;
1125.6000;0.6284;-5.4158;
1125.9000;0.6252;-5.4185;
1126.2000;0.6260;-5.4264;
1126.5000;0.6268;-5.4317;
1126.8000;0.6260;-5.4317;
1127.1000;0.6276;-5.4290;
1127.4000;0.6284;-5.4290;
1127.7000;0.6252;-5.4317;
1128.0000;0.6260;-5.4238;
1128.3000;0.6260;-5.4264;
1128.6000;0.6260;-5.4370;
1128.9000;0.6211;-5.4396;
1129.2000;0.6260;-5.4211;
1129.5000;0.6292;-5.4106;
1129.8000;0.6252;-5.4264;
1130.1000;0.6243;-5.4211;
1130.4000;0.6243;-5.4238;
1130.7000;0.6252;-5.4343;
1131.0000;0.6276;-5.4290;
1131.3000;0.6260;-5.4343;
1131.6000;0.6252;-5.4290;
1131.9000;0.6268;-5.4211;
1132.2000;0.6243;-5.4185;
1132.5000;0.6243;-5.4211;
1132.8000;0.6252;-5.4185;
1133.1000;0.6235;-5.4238;
1133.4000;0.6243;-5.4132;
1133.7000;0.6235;-5.4158;
1134.0000;0.6252;-5.4211;
1134.3000;0.6252;-5.4264;
1134.6000;0.6252;-5.4290;
1134.9000;0.6252;-5.4290;
1135.2000;0.6252;-5.4264;
1135.5000;0.6235;-5.4370;
1135.8000;0.6252;-5.4317;
1136.1000;0.6276;-5.4317;
1136.4000;0.6252;-5.4290;
1136.7000;0.6203;-5.4396;
1137.0000;0.6235;-5.4343;
1137.3000;0.6243;-5.4343;
1137.6000;0.6235;-5.4396;
1137.9000;0.6243;-5.4317;
1138.2000;0.6235;-5.4211;
1138.5000;0.6252;-5.4211;
1138.8000;0.6243;-5.4343;
1139.1000;0.6211;-5.4475;
1139.4000;0.6243;-5.4475;
1139.7000;0.6211;-5.4528;
1140.0000;0.6243;-5.4475;
1140.3000;0.6243;-5.4449;
1140.6000;0.6252;-5.4422;
1140.9000;0.6252;-5.4343;
1141.2000;0.6260;-5.4317;
1141.5000;0.6211;-5.4502;
1141.8000;0.6260;-5.4396;
1142.1000;0.6260;-5.4396;
1142.4000;0.6260;-5.4317;
1142.7000;0.6203;-5.4396;
1143.0000;0.6235;-5.4317;
1143.3000;0.6317;-5.4079;
1143.6000;0.6252;-5.4264;
1143.9000;0.6235;-5.4317;
1144.2000;0.6243;-5.4396;
1144.5000;0.6243;-5.4370;
1144.8000;0.6235;-5.4422;
1145.1000;0.6211;-5.4422;
1145.4000;0.6227;-5.4475;
1145.7000;0.6243;-5.4449;
1146.0000;0.6235;-5.4370;
1146.3000;0.6243;-5.4290;
1146.6000;0.6235;-5.4290;
1146.9000;0.6235;-5.4396;
1147.2000;0.6243;-5.4264;
1147.5000;0.6235;-5.4290;
1147.8000;0.6235;-5.4290;
1148.1000;0.6227;-5.4290;
1148.4000;0.6227;-5.4238;
1148.7000;0.6235;-5.4158;
1149.0000;0.6243;-5.4185;
1149.3000;0.6252;-5.4185;
1149.6000;0.6252;-5.4264;
1149.9000;0.6252;-5.4185;
1150.2000;0.6252;-5.4211;
1150.5000;0.6252;-5.4158;
1150.8000;0.6252;-5.4132;
1151.1000;0.6252;-5.4053;
1151.4000;0.6252;-5.4053;
1151.7000;0.6252;-5.4079;
1152.0000;0.6252;-5.4000;
1152.3000;0.6260;-5.4026;
1152.6000;0.6227;-5.4106;
1152.9000;0.6138;-5.4396;
1153.2000;0.6243;-5.4185;
1153.5000;0.6227;-5.4264;
1153.8000;0.6243;-5.4238;
1154.1000;0.6243;-5.4238;
1154.4000;0.6243;-5.4238;
1154.7000;0.6227;-5.4290;
1155.0000;0.6252;-5.4264;
1155.3000;0.6243;-5.4290;
1155.6000;0.6252;-5.4264;
1155.9000;0.6252;-5.4264;
1156.2000;0.6252;-5.4211;
1156.5000;0.6243;-5.4185;
1156.8000;0.6268;-5.4264;
1157.1000;0.6235;-5.4370;
1157.4000;0.6235;-5.4370;
1157.7000;0.6203;-5.4422;
1158.0000;0.6227;-5.4290;
1158.3000;0.6243;-5.4290;
1158.6000;0.6243;-5.4185;
1158.9000;0.6243;-5.4185;
1159.2000;0.6243;-5.4158;
1159.5000;0.6284;-5.4079;
1159.8000;0.6203;-5.4185;
1160.1000;0.6252;-5.4026;
1160.4000;0.6268;-5.4053;
1160.7000;0.6203;-5.4132;
1161.0000;0.6203;-5.4026;
1161.3000;0.6219;-5.4026;
1161.6000;0.6243;-5.4000;
1161.9000;0.6268;-5.4000;
1162.2000;0.6276;-5.3973;
1162.5000;0.6252;-5.3973;
1162.8000;0.6235;-5.4026;
1163.1000;0.6243;-5.4053;
1163.4000;0.6243;-5.4079;
1163.7000;0.6235;-5.4079;
1164.0000;0.6252;-5.4026;
1164.3000;0.6243;-5.4106;
1164.6000;0.6300;-5.4000;
1164.9000;0.6243;-5.4211;
1165.2000;0.6227;-5.4211;
1165.5000;0.6203;-5.4211;
1165.8000;0.6276;-5.4053;
1166.1000;0.6235;-5.4158;
1166.4000;0.6252;-5.4079;
1166.7000;0.6260;-5.4079;
1167.0000;0.6252;-5.4106;
1167.3000;0.6243;-5.4158;
1167.6000;0.6243;-5.4158;
1167.9000;0.6227;-5.4211;
1168.2000;0.6260;-5.4211;
1168.5000;0.6203;-5.4370;
1168.8000;0.6243;-5.4264;
1169.1000;0.6235;-5.4343;
1169.4000;0.6186;-5.4475;
1169.7000;0.6243;-5.4290;
1170.0000;0.6243;-5.4317;
1170.3000;0.6227;-5.4343;
1170.6000;0.6252;-5.4185;
1170.9000;0.6235;-5.4264;
1171.2000;0.6243;-5.4290;
1171.5000;0.6211;-5.4290;
1171.8000;0.6243;-5.4238;
1172.1000;0.6252;-5.4264;
1172.4000;0.6260;-5.4343;
1172.7000;0.6243;-5.4343;
1173.0000;0.6252;-5.4343;
1173.3000;0.6276;-5.4185;
1173.6000;0.6227;-5.4211;
1173.9000;0.6211;-5.4211;
1174.2000;0.6235;-5.4106;
1174.5000;0.6260;-5.4158;
1174.8000;0.6219;-5.4238;
1175.1000;0.6227;-5.4264;
1175.4000;0.6235;-5.4264;
1175.7000;0.6260;-5.4132;
1176.0000;0.6219;-5.4238;
1176.3000;0.6235;-5.4211;
1176.6000;0.6154;-5.4475;
1176.9000;0.6252;-5.4211;
1177.2000;0.6235;-5.4238;
1177.5000;0.6211;-5.4238;
1177.8000;0.6235;-5.4106;
1178.1000;0.6243;-5.4106;
1178.4000;0.6235;-5.4132;
1178.7000;0.6243;-5.4158;
1179.0000;0.6235;-5.4158;
1179.3000;0.6252;-5.4132;
1179.6000;0.6268;-5.4106;
1179.9000;0.6219;-5.4238;
1180.2000;0.6219;-5.4264;
1180.5000;0.6227;-5.4238;
1180.8000;0.6235;-5.4106;
1181.1000;0.6219;-5.4026;
1181.4000;0.6219;-5.4053;
1181.7000;0.6268;-5.3947;
1182.0000;0.6235;-5.4053;
1182.3000;0.6235;-5.4079;
1182.6000;0.6219;-5.4158;
1182.9000;0.6235;-5.4132;
1183.2000;0.6252;-5.4158;
1183.5000;0.6252;-5.4158;
1183.8000;0.6243;-5.4106;
1184.1000;0.6178;-5.4238;
1184.4000;0.6227;-5.4079;
1184.7000;0.6243;-5.4053;
1185.0000;0.6252;-5.4053;
1185.3000;0.6252;-5.4132;
1185.6000;0.6235;-5.4211;
1185.9000;0.6243;-5.4185;
1186.2000;0.6243;-5.4264;
1186.5000;0.6268;-5.4264;
1186.8000;0.6252;-5.4396;
1187.1000;0.6235;-5.4343;
1187.4000;0.6252;-5.4238;
1187.7000;0.6227;-5.4343;
1188.0000;0.6235;-5.4370;
1188.3000;0.6219;-5.4475;
1188.6000;0.6211;-5.4502;
1188.9000;0.6235;-5.4475;
1189.2000;0.6219;-5.4554;
1189.5000;0.6227;-5.4581;
1189.8000;0.6284;-5.4422;
1190.1000;0.6252;-5.4475;
1190.4000;0.6219;-5.4475;
1190.7000;0.6235;-5.4396;
1191.0000;0.6235;-5.4317;
1191.3000;0.6235;-5.4264;
1191.6000;0.6219;-5.4317;
1191.9000;0.6235;-5.4264;
1192.2000;0.6243;-5.4290;
1192.5000;0.6227;-5.4370;
1192.8000;0.6235;-5.4370;
1193.1000;0.6227;-5.4317;
1193.4000;0.6211;-5.4396;
1193.7000;0.6235;-5.4343;
1194.0000;0.6243;-5.4343;
1194.3000;0.6211;-5.4370;
1194.6000;0.6252;-5.4264;
1194.9000;0.6235;-5.4290;
1195.2000;0.6268;-5.4185;
1195.5000;0.6219;-5.4422;
1195.8000;0.6235;-5.4317;
1196.1000;0.6227;-5.4317;
1196.4000;0.6276;-5.4264;
1196.7000;0.6235;-5.4370;
1197.0000;0.6219;-5.4343;
1197.3000;0.6170;-5.4475;
1197.6000;0.6219;-5.4317;
1197.9000;0.6211;-5.4290;
1198.2000;0.6260;-5.4158;
1198.5000;0.6235;-5.4264;
1198.8000;0.6260;-5.4264;
1199.1000;0.6219;-5.4290;
1199.4000;0.6219;-5.4290;
1199.7000;0.6235;-5.4211;
1200.0000;0.6252;-5.4079;
1200.3000;0.6219;-5.4132;
1200.6000;0.6227;-5.4079;
1200.9000;0.6268;-5.3947;
1201.2000;0.6252;-5.4000;
1201.5000;0.6195;-5.4132;
1201.8000;0.6227;-5.4000;
1202.1000;0.6235;-5.4053;
1202.4000;0.6235;-5.4053;
1202.7000;0.6268;-5.3921;
1203.0000;0.6211;-5.4000;
1203.3000;0.6219;-5.4079;
1203.6000;0.6219;-5.4079;
1203.9000;0.6243;-5.4026;
1204.2000;0.6219;-5.4106;
1204.5000;0.6219;-5.4106;
1204.8000;0.6211;-5.4079;
1205.1000;0.6219;-5.4106;
1205.4000;0.6235;-5.4185;
1205.7000;0.6211;-5.4211;
1206.0000;0.6219;-5.4158;
1206.3000;0.6235;-5.4053;
1206.6000;0.6252;-5.4079;
1206.9000;0.6243;-5.4000;
1207.2000;0.6203;-5.4106;
1207.5000;0.6219;-5.4053;
1207.8000;0.6243;-5.4000;
1208.1000;0.6235;-5.4053;
1208.4000;0.6227;-5.4158;
1208.7000;0.6243;-5.4158;
1209.0000;0.6219;-5.4158;
1209.3000;0.6211;-5.4238;
1209.6000;0.6227;-5.4185;
1209.9000;0.6227;-5.4158;
1210.2000;0.6219;-5.4238;
1210.5000;0.6243;-5.4158;
1210.8000;0.6252;-5.4211;
1211.1000;0.6227;-5.4317;
1211.4000;0.6235;-5.4264;
1211.7000;0.6186;-5.4422;
1212.0000;0.6227;-5.4370;
1212.3000;0.6260;-5.4317;
1212.6000;0.6227;-5.4343;
1212.9000;0.6227;-5.4264;
1213.2000;0.6227;-5.4317;
1213.5000;0.6227;-5.4264;
1213.8000;0.6260;-5.4238;
1214.1000;0.6268;-5.4238;
1214.4000;0.6227;-5.4422;
1214.7000;0.6235;-5.4396;
1215.0000;0.6235;-5.4396;
1215.3000;0.6227;-5.4422;
1215.6000;0.6235;-5.4422;
1215.9000;0.6235;-5.4396;
1216.2000;0.6243;-5.4370;
1216.5000;0.6219;-5.4370;
1216.8000;0.6227;-5.4290;
1217.1000;0.6219;-5.4290;
1217.4000;0.6219;-5.4211;
1217.7000;0.6235;-5.4053;
1218.0000;0.6235;-5.4026;
1218.3000;0.6260;-5.4026;
1218.6000;0.6227;-5.4185;
1218.9000;0.6243;-5.4185;
1219.2000;0.6227;-5.4238;
1219.5000;0.6243;-5.4185;
1219.8000;0.6243;-5.4053;
1220.1000;0.6227;-5.4079;
1220.4000;0.6268;-5.3973;
1220.7000;0.6243;-5.4079;
1221.0000;0.6243;-5.4158;
1221.3000;0.6227;-5.4264;
1221.6000;0.6252;-5.4185;
1221.9000;0.6235;-5.4185;
1222.2000;0.6243;-5.4238;
1222.5000;0.6252;-5.4264;
1222.8000;0.6252;-5.4290;
1223.1000;0.6268;-5.4211;
1223.4000;0.6227;-5.4290;
1223.7000;0.6227;-5.4343;
1224.0000;0.6243;-5.4317;
1224.3000;0.6219;-5.4290;
1224.6000;0.6227;-5.4317;
1224.9000;0.6235;-5.4290;
1225.2000;0.6227;-5.4290;
1225.5000;0.6235;-5.4290;
1225.8000;0.6227;-5.4422;
1226.1000;0.6211;-5.4502;
1226.4000;0.6211;-5.4396;
1226.7000;0.6260;-5.4264;
1227.0000;0.6235;-5.4290;
1227.3000;0.6235;-5.4290;
1227.6000;0.6235;-5.4396;
1227.9000;0.6243;-5.4396;
1228.2000;0.6252;-5.4343;
1228.5000;0.6243;-5.4317;
1228.8000;0.6235;-5.4290;
1229.1000;0.6235;-5.4238;
1229.4000;0.6252;-5.4185;
1229.7000;0.6243;-5.4185;
1230.0000;0.6227;-5.4238;
1230.3000;0.6219;-5.4396;
1230.6000;0.6235;-5.4317;
1230.9000;0.6227;-5.4422;
1231.2000;0.6227;-5.4475;
1231.5000;0.6235;-5.4422;
1231.8000;0.6203;-5.4422;
1232.1000;0.6235;-5.4370;
1232.4000;0.6227;-5.4528;
1232.7000;0.6252;-5.4422;
1233.0000;0.6252;-5.4317;
1233.3000;0.6260;-5.4290;
1233.6000;0.6276;-5.4158;
1233.9000;0.6243;-5.4264;
1234.2000;0.6227;-5.4290;
1234.5000;0.6227;-5.4290;
1234.8000;0.6268;-5.4185;
1235.1000;0.6235;-5.4211;
1235.4000;0.6162;-5.4290;
1235.7000;0.6211;-5.4079;
1236.0000;0.6219;-5.4079;
1236.3000;0.6235;-5.4079;
1236.6000;0.6219;-5.4079;
1236.9000;0.6227;-5.4079;
1237.2000;0.6211;-5.4132;
1237.5000;0.6203;-5.4211;
1237.8000;0.6211;-5.4238;
1238.1000;0.6235;-5.4106;
1238.4000;0.6203;-5.4264;
1238.7000;0.6227;-5.4264;
1239.0000;0.6219;-5.4211;
1239.3000;0.6219;-5.4079;
1239.6000;0.6235;-5.4079;
1239.9000;0.6219;-5.4079;
1240.2000;0.6227;-5.4053;
1240.5000;0.6219;-5.4026;
1240.8000;0.6227;-5.4000;
1241.1000;0.6219;-5.4026;
1241.4000;0.6203;-5.4132;
1241.7000;0.6211;-5.4106;
1242.0000;0.6235;-5.4026;
1242.3000;0.6219;-5.4053;
1242.6000;0.6219;-5.4026;
1242.9000;0.6235;-5.4053;
1243.2000;0.6235;-5.4026;
1243.5000;0.6227;-5.4053;
1243.8000;0.6211;-5.4053;
1244.1000;0.6219;-5.4000;
1244.4000;0.6186;-5.4079;
1244.7000;0.6219;-5.4053;
1245.0000;0.6219;-5.4053;
1245.3000;0.6211;-5.4000;
1245.6000;0.6227;-5.3947;
1245.9000;0.6227;-5.3947;
1246.2000;0.6211;-5.4053;
1246.5000;0.6219;-5.4053;
1246.8000;0.6211;-5.4079;
1247.1000;0.6235;-5.4079;
1247.4000;0.6227;-5.4026;
1247.7000;0.6219;-5.4079;
1248.0000;0.6219;-5.4106;
1248.3000;0.6219;-5.4106;
1248.6000;0.6219;-5.4132;
1248.9000;0.6227;-5.4185;
1249.2000;0.6211;-5.4264;
1249.5000;0.6195;-5.4370;
1249.8000;0.6227;-5.4211;
1250.1000;0.6219;-5.4158;
1250.4000;0.6235;-5.4158;
1250.7000;0.6186;-5.4317;
1251.0000;0.6219;-5.4290;
1251.3000;0.6235;-5.4343;
1251.6000;0.6227;-5.4422;
1251.9000;0.6235;-5.4317;
1252.2000;0.6227;-5.4317;
1252.5000;0.6203;-5.4290;
1252.8000;0.6227;-5.4264;
1253.1000;0.6195;-5.4238;
1253.4000;0.6211;-5.4185;
1253.7000;0.6235;-5.4106;
1254.0000;0.6227;-5.4158;
1254.3000;0.6235;-5.4211;
1254.6000;0.6211;-5.4264;
1254.9000;0.6227;-5.4211;
1255.2000;0.6162;-5.4290;
1255.5000;0.6235;-5.4079;
1255.8000;0.6219;-5.4106;
1256.1000;0.6219;-5.4026;
1256.4000;0.6227;-5.4026;
1256.7000;0.6227;-5.3973;
1257.0000;0.6211;-5.4026;
1257.3000;0.6227;-5.4026;
1257.6000;0.6227;-5.4053;
1257.9000;0.6211;-5.4158;
1258.2000;0.6219;-5.4106;
1258.5000;0.6219;-5.3973;
1258.8000;0.6235;-5.3841;
1259.1000;0.6227;-5.3868;
1259.4000;0.6203;-5.3973;
1259.7000;0.6243;-5.3921;
1260.0000;0.6211;-5.4000;
1260.3000;0.6219;-5.3973;
1260.6000;0.6219;-5.4000;
1260.9000;0.6211;-5.4053;
1261.2000;0.6227;-5.4053;
1261.5000;0.6227;-5.4158;
1261.8000;0.6309;-5.3973;
1262.1000;0.6219;-5.4132;
1262.4000;0.6219;-5.4158;
1262.7000;0.6227;-5.4132;
1263.0000;0.6219;-5.4211;
1263.3000;0.6219;-5.4238;
1263.6000;0.6203;-5.4211;
1263.9000;0.6219;-5.4185;
1264.2000;0.6211;-5.4185;
1264.5000;0.6211;-5.4158;
1264.8000;0.6219;-5.4132;
1265.1000;0.6211;-5.4264;
1265.4000;0.6227;-5.4158;
1265.7000;0.6219;-5.4079;
1266.0000;0.6219;-5.4053;
1266.3000;0.6227;-5.3973;
1266.6000;0.6203;-5.3947;
1266.9000;0.6211;-5.3973;
1267.2000;0.6211;-5.4026;
1267.5000;0.6235;-5.4000;
1267.8000;0.6227;-5.3973;
1268.1000;0.6243;-5.3868;
1268.4000;0.6195;-5.4026;
1268.7000;0.6195;-5.4053;
1269.0000;0.6260;-5.3789;
1269.3000;0.6219;-5.3947;
1269.6000;0.6219;-5.3947;
1269.9000;0.6227;-5.3973;
1270.2000;0.6227;-5.3973;
1270.5000;0.6195;-5.4053;
1270.8000;0.6211;-5.4000;
1271.1000;0.6203;-5.3973;
1271.4000;0.6211;-5.3973;
1271.7000;0.6219;-5.4053;
1272.0000;0.6219;-5.4026;
1272.3000;0.6219;-5.4026;
1272.6000;0.6219;-5.4053;
1272.9000;0.6235;-5.4026;
1273.2000;0.6227;-5.4026;
1273.5000;0.6146;-5.4290;
1273.8000;0.6203;-5.4106;
1274.1000;0.6219;-5.4053;
1274.4000;0.6203;-5.4026;
1274.7000;0.6170;-5.3947;
1275.0000;0.6178;-5.3947;
1275.3000;0.6195;-5.3921;
1275.6000;0.6219;-5.3868;
1275.9000;0.6203;-5.4000;
1276.2000;0.6203;-5.3947;
1276.5000;0.6203;-5.3973;
1276.8000;0.6211;-5.3921;
1277.1000;0.6211;-5.3921;
1277.4000;0.6219;-5.3868;
1277.7000;0.6219;-5.3868;
1278.0000;0.6235;-5.3841;
1278.3000;0.6252;-5.3868;
1278.6000;0.6211;-5.3947;
1278.9000;0.6203;-5.3947;
1279.2000;0.6203;-5.3973;
1279.5000;0.6211;-5.3947;
1279.8000;0.6203;-5.4000;
1280.1000;0.6203;-5.4026;
1280.4000;0.6203;-5.4026;
1280.7000;0.6219;-5.3973;
1281.0000;0.6211;-5.4106;
1281.3000;0.6219;-5.4000;
1281.6000;0.6243;-5.3921;
1281.9000;0.6243;-5.3921;
1282.2000;0.6227;-5.3973;
1282.5000;0.6227;-5.4026;
1282.8000;0.6195;-5.4079;
1283.1000;0.6219;-5.4053;
1283.4000;0.6219;-5.4158;
1283.7000;0.6211;-5.4185;
1284.0000;0.6203;-5.4238;
1284.3000;0.6211;-5.4185;
1284.6000;0.6235;-5.4158;
1284.9000;0.6211;-5.4185;
1285.2000;0.6227;-5.4158;
1285.5000;0.6252;-5.4079;
1285.8000;0.6219;-5.4158;
1286.1000;0.6211;-5.4158;
1286.4000;0.6195;-5.4211;
1286.7000;0.6227;-5.4132;
1287.0000;0.6235;-5.4079;
1287.3000;0.6219;-5.4211;
1287.6000;0.6203;-5.4290;
1287.9000;0.6211;-5.4343;
1288.2000;0.6219;-5.4396;
1288.5000;0.6227;-5.4422;
1288.8000;0.6203;-5.4502;
1289.1000;0.6219;-5.4396;
1289.4000;0.6170;-5.4528;
1289.7000;0.6227;-5.4449;
1290.0000;0.6219;-5.4449;
1290.3000;0.6268;-5.4343;
1290.6000;0.6227;-5.4396;
1290.9000;0.6186;-5.4422;
1291.2000;0.6203;-5.4396;
1291.5000;0.6219;-5.4370;
1291.8000;0.6211;-5.4343;
1292.1000;0.6235;-5.4343;
1292.4000;0.6211;-5.4370;
1292.7000;0.6203;-5.4422;
1293.0000;0.6211;-5.4370;
1293.3000;0.6211;-5.4317;
1293.6000;0.6227;-5.4264;
1293.9000;0.6195;-5.4290;
1294.2000;0.6203;-5.4422;
1294.5000;0.6219;-5.4370;
1294.8000;0.6211;-5.4422;
1295.1000;0.6195;-5.4475;
1295.4000;0.6219;-5.4449;
1295.7000;0.6227;-5.4396;
1296.0000;0.6211;-5.4422;
1296.3000;0.6219;-5.4422;
1296.6000;0.6227;-5.4396;
1296.9000;0.6211;-5.4396;
1297.2000;0.6219;-5.4290;
1297.5000;0.6227;-5.4264;
1297.8000;0.6203;-5.4211;
1298.1000;0.6227;-5.4185;
1298.4000;0.6211;-5.4132;
1298.7000;0.6227;-5.4132;
1299.0000;0.6203;-5.4211;
1299.3000;0.6203;-5.4132;
1299.6000;0.6203;-5.4158;
1299.9000;0.6203;-5.4158;
1300.2000;0.6211;-5.4211;
1300.5000;0.6178;-5.4317;
1300.8000;0.6219;-5.4185;
1301.1000;0.6186;-5.4185;
1301.4000;0.6219;-5.4132;
1301.7000;0.6219;-5.4238;
1302.0000;0.6203;-5.4185;
1302.3000;0.6195;-5.4370;
1302.6000;0.6211;-5.4238;
1302.9000;0.6227;-5.4185;
1303.2000;0.6203;-5.4317;
1303.5000;0.6195;-5.4343;
1303.8000;0.6268;-5.4238;
1304.1000;0.6195;-5.4370;
1304.4000;0.6219;-5.4264;
1304.7000;0.6235;-5.4211;
1305.0000;0.6219;-5.4238;
1305.3000;0.6243;-5.4211;
1305.6000;0.6211;-5.4264;
1305.9000;0.6219;-5.4158;
1306.2000;0.6227;-5.4158;
1306.5000;0.6227;-5.4211;
1306.8000;0.6203;-5.4238;
1307.1000;0.6219;-5.4238;
1307.4000;0.6227;-5.4211;
1307.7000;0.6219;-5.4158;
1308.0000;0.6227;-5.4106;
1308.3000;0.6186;-5.4158;
1308.6000;0.6211;-5.4106;
1308.9000;0.6219;-5.4026;
1309.2000;0.6227;-5.4026;
1309.5000;0.6219;-5.4079;
1309.8000;0.6219;-5.4026;
1310.1000;0.6219;-5.3973;
1310.4000;0.6186;-5.4053;
1310.7000;0.6219;-5.4053;
1311.0000;0.6219;-5.4053;
1311.3000;0.6219;-5.3973;
1311.6000;0.6219;-5.4026;
1311.9000;0.6211;-5.4026;
1312.2000;0.6203;-5.4026;
1312.5000;0.6178;-5.4079;
1312.8000;0.6227;-5.3947;
1313.1000;0.6211;-5.3973;
1313.4000;0.6203;-5.4079;
1313.7000;0.6219;-5.4079;
1314.0000;0.6211;-5.4079;
1314.3000;0.6219;-5.4158;
1314.6000;0.6219;-5.4026;
1314.9000;0.6203;-5.4185;
1315.2000;0.6219;-5.4185;
1315.5000;0.6219;-5.4290;
1315.8000;0.6211;-5.4290;
1316.1000;0.6219;-5.4290;
1316.4000;0.6260;-5.4106;
1316.7000;0.6235;-5.4185;
1317.0000;0.6219;-5.4238;
1317.3000;0.6235;-5.4185;
1317.6000;0.6219;-5.4185;
1317.9000;0.6227;-5.4079;
1318.2000;0.6219;-5.4185;
1318.5000;0.6219;-5.4238;
1318.8000;0.6235;-5.4211;
1319.1000;0.6227;-5.4370;
1319.4000;0.6227;-5.4370;
1319.7000;0.6227;-5.4343;
1320.0000;0.6211;-5.4396;
1320.3000;0.6227;-5.4238;
1320.6000;0.6195;-5.4264;
1320.9000;0.6219;-5.4238;
1321.2000;0.6195;-5.4238;
1321.5000;0.6211;-5.4290;
1321.8000;0.6211;-5.4238;
1322.1000;0.6203;-5.4185;
1322.4000;0.6203;-5.4106;
1322.7000;0.6203;-5.4053;
1323.0000;0.6211;-5.4000;
1323.3000;0.6219;-5.3973;
1323.6000;0.6227;-5.4000;
1323.9000;0.6252;-5.3947;
1324.2000;0.6219;-5.3947;
1324.5000;0.6186;-5.4053;
1324.8000;0.6211;-5.4000;
1325.1000;0.6252;-5.3841;
1325.4000;0.6227;-5.3973;
1325.7000;0.6235;-5.3973;
1326.0000;0.6211;-5.4000;
1326.3000;0.6211;-5.3921;
1326.6000;0.6211;-5.3921;
1326.9000;0.6219;-5.3894;
1327.2000;0.6203;-5.3921;
1327.5000;0.6178;-5.4026;
1327.8000;0.6195;-5.4026;
1328.1000;0.6211;-5.3947;
1328.4000;0.6235;-5.3947;
1328.7000;0.6219;-5.3947;
1329.0000;0.6211;-5.3894;
1329.3000;0.6072;-5.4264;
1329.6000;0.6203;-5.3973;
1329.9000;0.6219;-5.4000;
1330.2000;0.6219;-5.4000;
1330.5000;0.6235;-5.4000;
1330.8000;0.6195;-5.4106;
1331.1000;0.6154;-5.4158;
1331.4000;0.6219;-5.4000;
1331.7000;0.6211;-5.4026;
1332.0000;0.6219;-5.3973;
1332.3000;0.6195;-5.3973;
1332.6000;0.6203;-5.4026;
1332.9000;0.6227;-5.4000;
1333.2000;0.6219;-5.4000;
1333.5000;0.6219;-5.3921;
1333.8000;0.6203;-5.3894;
1334.1000;0.6211;-5.3894;
1334.4000;0.6219;-5.3841;
1334.7000;0.6227;-5.3868;
1335.0000;0.6211;-5.4000;
1335.3000;0.6211;-5.4000;
1335.6000;0.6284;-5.3947;
1335.9000;0.6203;-5.4132;
1336.2000;0.6211;-5.4053;
1336.5000;0.6211;-5.4000;
1336.8000;0.6211;-5.3921;
1337.1000;0.6186;-5.3921;
1337.4000;0.6186;-5.3894;
1337.7000;0.6195;-5.3947;
1338.0000;0.6203;-5.3921;
1338.3000;0.6178;-5.3973;
1338.6000;0.6195;-5.4000;
1338.9000;0.6203;-5.3973;
1339.2000;0.6203;-5.3921;
1339.5000;0.6227;-5.3921;
1339.8000;0.6203;-5.3921;
1340.1000;0.6252;-5.3841;
1340.4000;0.6203;-5.3947;
1340.7000;0.6203;-5.3973;
1341.0000;0.6227;-5.4026;
1341.3000;0.6211;-5.4000;
1341.6000;0.6195;-5.4026;
1341.9000;0.6195;-5.4026;
1342.2000;0.6227;-5.4000;
1342.5000;0.6203;-5.4000;
1342.8000;0.6219;-5.4053;
1343.1000;0.6227;-5.4000;
1343.4000;0.6219;-5.4106;
1343.7000;0.6203;-5.4185;
1344.0000;0.6186;-5.4264;
1344.3000;0.6219;-5.4132;
1344.6000;0.6227;-5.4106;
1344.9000;0.6219;-5.4132;
1345.2000;0.6195;-5.4079;
1345.5000;0.6203;-5.4079;
1345.8000;0.6203;-5.4000;
1346.1000;0.6195;-5.4026;
1346.4000;0.6203;-5.4053;
1346.7000;0.6211;-5.4053;
1347.0000;0.6235;-5.3973;
1347.3000;0.6195;-5.4000;
1347.6000;0.6243;-5.3921;
1347.9000;0.6129;-5.4238;
1348.2000;0.6235;-5.4000;
1348.5000;0.6203;-5.4079;
1348.8000;0.6203;-5.4106;
1349.1000;0.6162;-5.4238;
1349.4000;0.6227;-5.4079;
1349.7000;0.6219;-5.4079;
1350.0000;0.6211;-5.4106;
1350.3000;0.6219;-5.4106;
1350.6000;0.6243;-5.4026;
1350.9000;0.6219;-5.4026;
1351.2000;0.6186;-5.4158;
1351.5000;0.6186;-5.4132;
1351.8000;0.6211;-5.4053;
1352.1000;0.6235;-5.3921;
1352.4000;0.6235;-5.3921;
1352.7000;0.6219;-5.4000;
1353.0000;0.6211;-5.3973;
1353.3000;0.6243;-5.3947;
1353.6000;0.6219;-5.4000;
1353.9000;0.6219;-5.4000;
1354.2000;0.6211;-5.3947;
1354.5000;0.6203;-5.3947;
1354.8000;0.6219;-5.3921;
1355.1000;0.6211;-5.4026;
1355.4000;0.6211;-5.4000;
1355.7000;0.6211;-5.4026;
1356.0000;0.6219;-5.4000;
1356.3000;0.6211;-5.4000;
1356.6000;0.6211;-5.4026;
1356.9000;0.6219;-5.4079;
1357.2000;0.6211;-5.4079;
1357.5000;0.6195;-5.4053;
1357.8000;0.6186;-5.4079;
1358.1000;0.6195;-5.4106;
1358.4000;0.6186;-5.4053;
1358.7000;0.6211;-5.4026;
1359.0000;0.6219;-5.4000;
1359.3000;0.6203;-5.4053;
1359.6000;0.6203;-5.4053;
1359.9000;0.6227;-5.4132;
1360.2000;0.6203;-5.4132;
1360.5000;0.6195;-5.4132;
1360.8000;0.6195;-5.4106;
1361.1000;0.6219;-5.4079;
1361.4000;0.6227;-5.4026;
1361.7000;0.6203;-5.4158;
1362.0000;0.6227;-5.4053;
1362.3000;0.6203;-5.4185;
1362.6000;0.6195;-5.4238;
1362.9000;0.6195;-5.4211;
1363.2000;0.6195;-5.4185;
1363.5000;0.6178;-5.4238;
1363.8000;0.6203;-5.4106;
1364.1000;0.6195;-5.4026;
1364.4000;0.6186;-5.4026;
1364.7000;0.6203;-5.4079;
1365.0000;0.6227;-5.4053;
1365.3000;0.6203;-5.4079;
1365.6000;0.6203;-5.4079;
1365.9000;0.6211;-5.4132;
1366.2000;0.6203;-5.4053;
1366.5000;0.6227;-5.4106;
1366.8000;0.6195;-5.4158;
1367.1000;0.6195;-5.4158;
1367.4000;0.6211;-5.4026;
1367.7000;0.6178;-5.4000;
1368.0000;0.6178;-5.3947;
1368.3000;0.6203;-5.3973;
1368.6000;0.6227;-5.4026;
1368.9000;0.6203;-5.4158;
1369.2000;0.6243;-5.4132;
1369.5000;0.6186;-5.4264;
1369.8000;0.6203;-5.4158;
1370.1000;0.6203;-5.4079;
1370.4000;0.6211;-5.4106;
1370.7000;0.6235;-5.4106;
1371.0000;0.6170;-5.4290;
1371.3000;0.6162;-5.4211;
1371.6000;0.6203;-5.4079;
1371.9000;0.6195;-5.4026;
1372.2000;0.6252;-5.3815;
1372.5000;0.6195;-5.4000;
1372.8000;0.6203;-5.3868;
1373.1000;0.6203;-5.3789;
1373.4000;0.6195;-5.3789;
1373.7000;0.6195;-5.3841;
1374.0000;0.6211;-5.3815;
1374.3000;0.6219;-5.3683;
1374.6000;0.6154;-5.3868;
1374.9000;0.6235;-5.3736;
1375.2000;0.6203;-5.3815;
1375.5000;0.6219;-5.3894;
1375.8000;0.6219;-5.3894;
1376.1000;0.6219;-5.3947;
1376.4000;0.6203;-5.3973;
1376.7000;0.6227;-5.3947;
1377.0000;0.6268;-5.3921;
1377.3000;0.6203;-5.4000;
1377.6000;0.6211;-5.4000;
1377.9000;0.6211;-5.4026;
1378.2000;0.6203;-5.4000;
1378.5000;0.6203;-5.4000;
1378.8000;0.6203;-5.4053;
1379.1000;0.6211;-5.4053;
1379.4000;0.6211;-5.4053;
1379.7000;0.6203;-5.4079;
1380.0000;0.6203;-5.4132;
1380.3000;0.6203;-5.4079;
1380.6000;0.6211;-5.4132;
1380.9000;0.6211;-5.4106;
1381.2000;0.6203;-5.4132;
1381.5000;0.6219;-5.4026;
1381.8000;0.6219;-5.4053;
1382.1000;0.6211;-5.4185;
1382.4000;0.6203;-5.4158;
1382.7000;0.6203;-5.4053;
1383.0000;0.6203;-5.4026;
1383.3000;0.6211;-5.3947;
1383.6000;0.6138;-5.4158;
1383.9000;0.6121;-5.4158;
1384.2000;0.6203;-5.3973;
1384.5000;0.6235;-5.3789;
1384.8000;0.6195;-5.3815;
1385.1000;0.6146;-5.3947;
1385.4000;0.6195;-5.3789;
1385.7000;0.6203;-5.3789;
1386.0000;0.6211;-5.3789;
1386.3000;0.6203;-5.3841;
1386.6000;0.6211;-5.3841;
1386.9000;0.6219;-5.3894;
1387.2000;0.6195;-5.3868;
1387.5000;0.6203;-5.3789;
1387.8000;0.6227;-5.3894;
1388.1000;0.6186;-5.4053;
1388.4000;0.6203;-5.4026;
1388.7000;0.6195;-5.4079;
1389.0000;0.6195;-5.4185;
1389.3000;0.6195;-5.4132;
1389.6000;0.6186;-5.4238;
1389.9000;0.6203;-5.4290;
1390.2000;0.6195;-5.4211;
1390.5000;0.6203;-5.4132;
1390.8000;0.6162;-5.4264;
1391.1000;0.6276;-5.4079;
1391.4000;0.6195;-5.4290;
1391.7000;0.6146;-5.4370;
1392.0000;0.6211;-5.4238;
1392.3000;0.6219;-5.4106;
1392.6000;0.6195;-5.4132;
1392.9000;0.6203;-5.4185;
1393.2000;0.6219;-5.4053;
1393.5000;0.6203;-5.4132;
1393.8000;0.6211;-5.4158;
1394.1000;0.6178;-5.4185;
1394.4000;0.6235;-5.3947;
1394.7000;0.6195;-5.4079;
1395.0000;0.6203;-5.4053;
1395.3000;0.6154;-5.4079;
1395.6000;0.6186;-5.3868;
1395.9000;0.6211;-5.3789;
1396.2000;0.6211;-5.3815;
1396.5000;0.6162;-5.3868;
1396.8000;0.6146;-5.3973;
1397.1000;0.6203;-5.3841;
1397.4000;0.6211;-5.3841;
1397.7000;0.6146;-5.3947;
1398.0000;0.6235;-5.3815;
1398.3000;0.6211;-5.3789;
1398.6000;0.6203;-5.3841;
1398.9000;0.6243;-5.3789;
1399.2000;0.6211;-5.3868;
1399.5000;0.6211;-5.3815;
1399.8000;0.6219;-5.3789;
