time/ms;Fluo/V;P700 deltaI/I x10³;
-199.8000;0.6471;1.2681;
-199.5000;0.6561;1.2859;
-199.2000;0.6455;1.2631;
-198.9000;0.6488;1.2681;
-198.6000;0.6488;1.2580;
-198.3000;0.6479;1.2707;
-198.0000;0.6471;1.2681;
-197.7000;0.6479;1.2758;
-197.4000;0.6471;1.2834;
-197.1000;0.6479;1.2884;
-196.8000;0.6479;1.2884;
-196.5000;0.6471;1.2783;
-196.2000;0.6463;1.2834;
-195.9000;0.6479;1.2859;
-195.6000;0.6463;1.2884;
-195.3000;0.6479;1.2910;
-195.0000;0.6471;1.2808;
-194.7000;0.6471;1.2758;
-194.4000;0.6488;1.2884;
-194.1000;0.6439;1.2707;
-193.8000;0.6479;1.2783;
-193.5000;0.6471;1.2656;
-193.2000;0.6479;1.2580;
-192.9000;0.6479;1.2555;
-192.6000;0.6463;1.2529;
-192.3000;0.6471;1.2707;
-192.0000;0.6488;1.2732;
-191.7000;0.6479;1.2707;
-191.4000;0.6488;1.2681;
-191.1000;0.6479;1.2681;
-190.8000;0.6488;1.2656;
-190.5000;0.6479;1.2681;
-190.2000;0.6479;1.2758;
-189.9000;0.6463;1.2732;
-189.6000;0.6545;1.2884;
-189.3000;0.6479;1.2783;
-189.0000;0.6463;1.2707;
-188.7000;0.6471;1.2732;
-188.4000;0.6488;1.2834;
-188.1000;0.6479;1.2834;
-187.8000;0.6479;1.2859;
-187.5000;0.6455;1.2910;
-187.2000;0.6479;1.2960;
-186.9000;0.6496;1.2910;
-186.6000;0.6504;1.2884;
-186.3000;0.6479;1.2859;
-186.0000;0.6471;1.2808;
-185.7000;0.6471;1.2783;
-185.4000;0.6455;1.2808;
-185.1000;0.6479;1.2808;
-184.8000;0.6455;1.2859;
-184.5000;0.6479;1.2935;
-184.2000;0.6471;1.2960;
-183.9000;0.6455;1.2859;
-183.6000;0.6471;1.2884;
-183.3000;0.6479;1.2859;
-183.0000;0.6479;1.2859;
-182.7000;0.6488;1.2910;
-182.4000;0.6488;1.2859;
-182.1000;0.6504;1.2884;
-181.8000;0.6488;1.2834;
-181.5000;0.6553;1.2910;
-181.2000;0.6463;1.2656;
-180.9000;0.6463;1.2681;
-180.6000;0.6455;1.2681;
-180.3000;0.6447;1.2681;
-180.0000;0.6463;1.2631;
-179.7000;0.6479;1.2758;
-179.4000;0.6463;1.2681;
-179.1000;0.6471;1.2758;
-178.8000;0.6455;1.2681;
-178.5000;0.6463;1.2656;
-178.2000;0.6504;1.2732;
-177.9000;0.6496;1.2758;
-177.6000;0.6471;1.2707;
-177.3000;0.6479;1.2707;
-177.0000;0.6471;1.2681;
-176.7000;0.6488;1.2681;
-176.4000;0.6479;1.2681;
-176.1000;0.6471;1.2707;
-175.8000;0.6471;1.2783;
-175.5000;0.6496;1.2859;
-175.2000;0.6471;1.2808;
-174.9000;0.6479;1.2758;
-174.6000;0.6463;1.2732;
-174.3000;0.6496;1.2884;
-174.0000;0.6479;1.2808;
-173.7000;0.6463;1.2859;
-173.4000;0.6536;1.3011;
-173.1000;0.6479;1.2808;
-172.8000;0.6471;1.2834;
-172.5000;0.6471;1.2808;
-172.2000;0.6463;1.2783;
-171.9000;0.6471;1.2732;
-171.6000;0.6471;1.2732;
-171.3000;0.6471;1.2732;
-171.0000;0.6471;1.2707;
-170.7000;0.6471;1.2681;
-170.4000;0.6471;1.2707;
-170.1000;0.6463;1.2656;
-169.8000;0.6488;1.2681;
-169.5000;0.6488;1.2631;
-169.2000;0.6488;1.2732;
-168.9000;0.6488;1.2783;
-168.6000;0.6471;1.2834;
-168.3000;0.6463;1.2859;
-168.0000;0.6479;1.2935;
-167.7000;0.6488;1.2910;
-167.4000;0.6471;1.2834;
-167.1000;0.6479;1.2808;
-166.8000;0.6496;1.2808;
-166.5000;0.6496;1.2859;
-166.2000;0.6479;1.2834;
-165.9000;0.6496;1.2758;
-165.6000;0.6471;1.2834;
-165.3000;0.6488;1.2935;
-165.0000;0.6471;1.2960;
-164.7000;0.6479;1.3011;
-164.4000;0.6463;1.3037;
-164.1000;0.6471;1.3011;
-163.8000;0.6479;1.3011;
-163.5000;0.6471;1.2986;
-163.2000;0.6471;1.3011;
-162.9000;0.6479;1.2986;
-162.6000;0.6479;1.2884;
-162.3000;0.6488;1.2859;
-162.0000;0.6496;1.2783;
-161.7000;0.6488;1.2834;
-161.4000;0.6496;1.2808;
-161.1000;0.6479;1.2732;
-160.8000;0.6479;1.2707;
-160.5000;0.6479;1.2732;
-160.2000;0.6488;1.2783;
-159.9000;0.6463;1.2758;
-159.6000;0.6447;1.2707;
-159.3000;0.6479;1.2834;
-159.0000;0.6488;1.2910;
-158.7000;0.6520;1.2960;
-158.4000;0.6479;1.2808;
-158.1000;0.6488;1.2808;
-157.8000;0.6471;1.2783;
-157.5000;0.6479;1.2859;
-157.2000;0.6463;1.2859;
-156.9000;0.6479;1.2834;
-156.6000;0.6488;1.2910;
-156.3000;0.6504;1.2910;
-156.0000;0.6463;1.2783;
-155.7000;0.6439;1.2783;
-155.4000;0.6479;1.2935;
-155.1000;0.6488;1.2910;
-154.8000;0.6488;1.2884;
-154.5000;0.6496;1.2884;
-154.2000;0.6471;1.2859;
-153.9000;0.6496;1.2910;
-153.6000;0.6455;1.2707;
-153.3000;0.6471;1.2859;
-153.0000;0.6553;1.3138;
-152.7000;0.6488;1.2986;
-152.4000;0.6471;1.2884;
-152.1000;0.6488;1.2910;
-151.8000;0.6488;1.2935;
-151.5000;0.6479;1.2960;
-151.2000;0.6471;1.2935;
-150.9000;0.6463;1.2960;
-150.6000;0.6374;1.2681;
-150.3000;0.6488;1.2960;
-150.0000;0.6479;1.2910;
-149.7000;0.6471;1.2910;
-149.4000;0.6488;1.2834;
-149.1000;0.6471;1.2910;
-148.8000;0.6479;1.2884;
-148.5000;0.6471;1.2834;
-148.2000;0.6463;1.2758;
-147.9000;0.6479;1.2783;
-147.6000;0.6488;1.2808;
-147.3000;0.6479;1.2732;
-147.0000;0.6488;1.2758;
-146.7000;0.6488;1.2834;
-146.4000;0.6504;1.2884;
-146.1000;0.6496;1.2935;
-145.8000;0.6479;1.2910;
-145.5000;0.6479;1.2910;
-145.2000;0.6496;1.2986;
-144.9000;0.6488;1.2935;
-144.6000;0.6545;1.3062;
-144.3000;0.6496;1.2960;
-144.0000;0.6479;1.2960;
-143.7000;0.6488;1.2910;
-143.4000;0.6577;1.3138;
-143.1000;0.6479;1.2808;
-142.8000;0.6496;1.2859;
-142.5000;0.6577;1.3087;
-142.2000;0.6496;1.2834;
-141.9000;0.6455;1.2783;
-141.6000;0.6496;1.2859;
-141.3000;0.6479;1.2884;
-141.0000;0.6488;1.2884;
-140.7000;0.6479;1.2859;
-140.4000;0.6463;1.2808;
-140.1000;0.6471;1.2910;
-139.8000;0.6479;1.2884;
-139.5000;0.6463;1.2884;
-139.2000;0.6471;1.2859;
-138.9000;0.6471;1.2884;
-138.6000;0.6479;1.2859;
-138.3000;0.6471;1.2808;
-138.0000;0.6471;1.2808;
-137.7000;0.6479;1.2910;
-137.4000;0.6455;1.2884;
-137.1000;0.6431;1.2808;
-136.8000;0.6528;1.2935;
-136.5000;0.6471;1.2783;
-136.2000;0.6479;1.2859;
-135.9000;0.6479;1.2808;
-135.6000;0.6471;1.2707;
-135.3000;0.6479;1.2681;
-135.0000;0.6455;1.2707;
-134.7000;0.6479;1.2783;
-134.4000;0.6463;1.2758;
-134.1000;0.6447;1.2580;
-133.8000;0.6471;1.2631;
-133.5000;0.6488;1.2656;
-133.2000;0.6463;1.2631;
-132.9000;0.6496;1.2707;
-132.6000;0.6463;1.2707;
-132.3000;0.6488;1.2681;
-132.0000;0.6593;1.3011;
-131.7000;0.6488;1.2732;
-131.4000;0.6479;1.2681;
-131.1000;0.6463;1.2656;
-130.8000;0.6455;1.2555;
-130.5000;0.6488;1.2529;
-130.2000;0.6471;1.2479;
-129.9000;0.6463;1.2504;
-129.6000;0.6479;1.2631;
-129.3000;0.6504;1.2631;
-129.0000;0.6479;1.2580;
-128.7000;0.6479;1.2631;
-128.4000;0.6463;1.2580;
-128.1000;0.6471;1.2605;
-127.8000;0.6447;1.2681;
-127.5000;0.6463;1.2758;
-127.2000;0.6471;1.2834;
-126.9000;0.6471;1.2859;
-126.6000;0.6479;1.2808;
-126.3000;0.6471;1.2834;
-126.0000;0.6357;1.2428;
-125.7000;0.6479;1.2681;
-125.4000;0.6479;1.2656;
-125.1000;0.6479;1.2707;
-124.8000;0.6471;1.2707;
-124.5000;0.6463;1.2681;
-124.2000;0.6496;1.2783;
-123.9000;0.6455;1.2631;
-123.6000;0.6471;1.2631;
-123.3000;0.6479;1.2605;
-123.0000;0.6471;1.2504;
-122.7000;0.6455;1.2479;
-122.4000;0.6479;1.2555;
-122.1000;0.6504;1.2631;
-121.8000;0.6496;1.2504;
-121.5000;0.6488;1.2504;
-121.2000;0.6496;1.2580;
-120.9000;0.6496;1.2529;
-120.6000;0.6471;1.2428;
-120.3000;0.6471;1.2555;
-120.0000;0.6479;1.2580;
-119.7000;0.6479;1.2631;
-119.4000;0.6488;1.2631;
-119.1000;0.6471;1.2656;
-118.8000;0.6463;1.2631;
-118.5000;0.6463;1.2504;
-118.2000;0.6488;1.2681;
-117.9000;0.6463;1.2656;
-117.6000;0.6479;1.2707;
-117.3000;0.6471;1.2707;
-117.0000;0.6455;1.2631;
-116.7000;0.6463;1.2707;
-116.4000;0.6545;1.2935;
-116.1000;0.6479;1.2783;
-115.8000;0.6471;1.2783;
-115.5000;0.6577;1.3037;
-115.2000;0.6463;1.2681;
-114.9000;0.6455;1.2707;
-114.6000;0.6496;1.2758;
-114.3000;0.6488;1.2732;
-114.0000;0.6463;1.2707;
-113.7000;0.6479;1.2681;
-113.4000;0.6488;1.2758;
-113.1000;0.6496;1.2681;
-112.8000;0.6471;1.2656;
-112.5000;0.6463;1.2707;
-112.2000;0.6512;1.2758;
-111.9000;0.6504;1.2707;
-111.6000;0.6496;1.2707;
-111.3000;0.6479;1.2732;
-111.0000;0.6504;1.2783;
-110.7000;0.6479;1.2732;
-110.4000;0.6471;1.2732;
-110.1000;0.6520;1.2935;
-109.8000;0.6488;1.2783;
-109.5000;0.6463;1.2834;
-109.2000;0.6536;1.3011;
-108.9000;0.6471;1.2834;
-108.6000;0.6479;1.2884;
-108.3000;0.6479;1.2910;
-108.0000;0.6488;1.2935;
-107.7000;0.6471;1.2884;
-107.4000;0.6463;1.2884;
-107.1000;0.6455;1.2681;
-106.8000;0.6488;1.2656;
-106.5000;0.6471;1.2580;
-106.2000;0.6447;1.2453;
-105.9000;0.6471;1.2479;
-105.6000;0.6463;1.2402;
-105.3000;0.6479;1.2402;
-105.0000;0.6585;1.2656;
-104.7000;0.6479;1.2377;
-104.4000;0.6463;1.2402;
-104.1000;0.6471;1.2402;
-103.8000;0.6479;1.2529;
-103.5000;0.6471;1.2504;
-103.2000;0.6455;1.2529;
-102.9000;0.6545;1.2707;
-102.6000;0.6479;1.2555;
-102.3000;0.6471;1.2504;
-102.0000;0.6488;1.2656;
-101.7000;0.6488;1.2631;
-101.4000;0.6520;1.2732;
-101.1000;0.6471;1.2732;
-100.8000;0.6488;1.2707;
-100.5000;0.6520;1.2808;
-100.2000;0.6479;1.2681;
-99.9000;0.6471;1.2681;
-99.6000;0.6520;1.2859;
-99.3000;0.6496;1.2834;
-99.0000;0.6471;1.2783;
-98.7000;0.6488;1.2884;
-98.4000;0.6488;1.2884;
-98.1000;0.6488;1.2859;
-97.8000;0.6496;1.2935;
-97.5000;0.6479;1.2834;
-97.2000;0.6488;1.2884;
-96.9000;0.6496;1.2884;
-96.6000;0.6569;1.3087;
-96.3000;0.6479;1.2783;
-96.0000;0.6479;1.2910;
-95.7000;0.6479;1.2986;
-95.4000;0.6463;1.2834;
-95.1000;0.6479;1.2910;
-94.8000;0.6479;1.2783;
-94.5000;0.6471;1.2681;
-94.2000;0.6488;1.2758;
-93.9000;0.6479;1.2834;
-93.6000;0.6463;1.2732;
-93.3000;0.6479;1.2707;
-93.0000;0.6528;1.2884;
-92.7000;0.6479;1.2808;
-92.4000;0.6455;1.2758;
-92.1000;0.6471;1.2808;
-91.8000;0.6439;1.2681;
-91.5000;0.6471;1.2783;
-91.2000;0.6479;1.2808;
-90.9000;0.6479;1.2783;
-90.6000;0.6471;1.2808;
-90.3000;0.6488;1.2884;
-90.0000;0.6488;1.2960;
-89.7000;0.6479;1.2935;
-89.4000;0.6488;1.2935;
-89.1000;0.6488;1.2935;
-88.8000;0.6471;1.2783;
-88.5000;0.6496;1.2783;
-88.2000;0.6528;1.2859;
-87.9000;0.6479;1.2707;
-87.6000;0.6528;1.2884;
-87.3000;0.6479;1.2783;
-87.0000;0.6471;1.2681;
-86.7000;0.6528;1.3011;
-86.4000;0.6390;1.2580;
-86.1000;0.6496;1.2808;
-85.8000;0.6488;1.2783;
-85.5000;0.6536;1.2834;
-85.2000;0.6455;1.2656;
-84.9000;0.6496;1.2758;
-84.6000;0.6479;1.2732;
-84.3000;0.6561;1.3011;
-84.0000;0.6504;1.2884;
-83.7000;0.6496;1.2859;
-83.4000;0.6471;1.2732;
-83.1000;0.6488;1.2884;
-82.8000;0.6488;1.2884;
-82.5000;0.6471;1.2783;
-82.2000;0.6479;1.2808;
-81.9000;0.6463;1.2758;
-81.6000;0.6488;1.2758;
-81.3000;0.6488;1.2631;
-81.0000;0.6488;1.2631;
-80.7000;0.6471;1.2605;
-80.4000;0.6463;1.2453;
-80.1000;0.6488;1.2580;
-79.8000;0.6496;1.2681;
-79.5000;0.6479;1.2707;
-79.2000;0.6463;1.2681;
-78.9000;0.6479;1.2707;
-78.6000;0.6479;1.2732;
-78.3000;0.6479;1.2732;
-78.0000;0.6479;1.2681;
-77.7000;0.6479;1.2529;
-77.4000;0.6496;1.2631;
-77.1000;0.6496;1.2681;
-76.8000;0.6520;1.2681;
-76.5000;0.6488;1.2580;
-76.2000;0.6496;1.2707;
-75.9000;0.6471;1.2681;
-75.6000;0.6488;1.2681;
-75.3000;0.6471;1.2555;
-75.0000;0.6496;1.2555;
-74.7000;0.6422;1.2377;
-74.4000;0.6398;1.2301;
-74.1000;0.6471;1.2479;
-73.8000;0.6471;1.2479;
-73.5000;0.6463;1.2479;
-73.2000;0.6488;1.2555;
-72.9000;0.6479;1.2605;
-72.6000;0.6471;1.2605;
-72.3000;0.6471;1.2555;
-72.0000;0.6463;1.2504;
-71.7000;0.6463;1.2504;
-71.4000;0.6471;1.2529;
-71.1000;0.6512;1.2631;
-70.8000;0.6479;1.2580;
-70.5000;0.6479;1.2580;
-70.2000;0.6463;1.2529;
-69.9000;0.6504;1.2529;
-69.6000;0.6479;1.2377;
-69.3000;0.6479;1.2428;
-69.0000;0.6479;1.2504;
-68.7000;0.6496;1.2580;
-68.4000;0.6471;1.2504;
-68.1000;0.6479;1.2453;
-67.8000;0.6479;1.2453;
-67.5000;0.6479;1.2402;
-67.2000;0.6479;1.2402;
-66.9000;0.6488;1.2402;
-66.6000;0.6463;1.2377;
-66.3000;0.6479;1.2453;
-66.0000;0.6479;1.2428;
-65.7000;0.6455;1.2504;
-65.4000;0.6496;1.2758;
-65.1000;0.6488;1.2758;
-64.8000;0.6471;1.2631;
-64.5000;0.6463;1.2707;
-64.2000;0.6577;1.2935;
-63.9000;0.6504;1.2707;
-63.6000;0.6455;1.2580;
-63.3000;0.6431;1.2504;
-63.0000;0.6528;1.2758;
-62.7000;0.6463;1.2707;
-62.4000;0.6496;1.2783;
-62.1000;0.6496;1.2758;
-61.8000;0.6471;1.2707;
-61.5000;0.6479;1.2732;
-61.2000;0.6504;1.2732;
-60.9000;0.6496;1.2656;
-60.6000;0.6479;1.2656;
-60.3000;0.6496;1.2681;
-60.0000;0.6479;1.2681;
-59.7000;0.6471;1.2681;
-59.4000;0.6479;1.2631;
-59.1000;0.6479;1.2529;
-58.8000;0.6471;1.2605;
-58.5000;0.6488;1.2707;
-58.2000;0.6455;1.2656;
-57.9000;0.6455;1.2656;
-57.6000;0.6512;1.2732;
-57.3000;0.6479;1.2631;
-57.0000;0.6488;1.2707;
-56.7000;0.6504;1.2783;
-56.4000;0.6479;1.2732;
-56.1000;0.6488;1.2631;
-55.8000;0.6479;1.2707;
-55.5000;0.6488;1.2656;
-55.2000;0.6455;1.2580;
-54.9000;0.6479;1.2631;
-54.6000;0.6488;1.2707;
-54.3000;0.6471;1.2605;
-54.0000;0.6488;1.2656;
-53.7000;0.6504;1.2681;
-53.4000;0.6479;1.2529;
-53.1000;0.6488;1.2479;
-52.8000;0.6471;1.2479;
-52.5000;0.6447;1.2504;
-52.2000;0.6471;1.2529;
-51.9000;0.6479;1.2529;
-51.6000;0.6528;1.2707;
-51.3000;0.6488;1.2656;
-51.0000;0.6463;1.2555;
-50.7000;0.6512;1.2656;
-50.4000;0.6488;1.2605;
-50.1000;0.6536;1.2783;
-49.8000;0.6471;1.2580;
-49.5000;0.6496;1.2681;
-49.2000;0.6479;1.2707;
-48.9000;0.6496;1.2758;
-48.6000;0.6479;1.2783;
-48.3000;0.6512;1.2732;
-48.0000;0.6496;1.2707;
-47.7000;0.6471;1.2605;
-47.4000;0.6545;1.2935;
-47.1000;0.6488;1.2808;
-46.8000;0.6488;1.2834;
-46.5000;0.6479;1.2732;
-46.2000;0.6447;1.2681;
-45.9000;0.6431;1.2631;
-45.6000;0.6463;1.2656;
-45.3000;0.6471;1.2580;
-45.0000;0.6488;1.2681;
-44.7000;0.6463;1.2656;
-44.4000;0.6463;1.2681;
-44.1000;0.6455;1.2707;
-43.8000;0.6447;1.2732;
-43.5000;0.6471;1.2732;
-43.2000;0.6463;1.2707;
-42.9000;0.6471;1.2732;
-42.6000;0.6496;1.2808;
-42.3000;0.6471;1.2808;
-42.0000;0.6504;1.2859;
-41.7000;0.6479;1.2859;
-41.4000;0.6488;1.2834;
-41.1000;0.6471;1.2783;
-40.8000;0.6496;1.2834;
-40.5000;0.6471;1.2808;
-40.2000;0.6496;1.2732;
-39.9000;0.6479;1.2631;
-39.6000;0.6406;1.2555;
-39.3000;0.6455;1.2656;
-39.0000;0.6463;1.2656;
-38.7000;0.6488;1.2656;
-38.4000;0.6479;1.2631;
-38.1000;0.6496;1.2656;
-37.8000;0.6488;1.2707;
-37.5000;0.6463;1.2707;
-37.2000;0.6479;1.2707;
-36.9000;0.6488;1.2631;
-36.6000;0.6488;1.2605;
-36.3000;0.6488;1.2656;
-36.0000;0.6463;1.2681;
-35.7000;0.6479;1.2783;
-35.4000;0.6479;1.2834;
-35.1000;0.6479;1.2859;
-34.8000;0.6479;1.2859;
-34.5000;0.6479;1.2834;
-34.2000;0.6488;1.2884;
-33.9000;0.6471;1.2707;
-33.6000;0.6406;1.2580;
-33.3000;0.6488;1.2834;
-33.0000;0.6463;1.2656;
-32.7000;0.6479;1.2681;
-32.4000;0.6479;1.2732;
-32.1000;0.6471;1.2732;
-31.8000;0.6471;1.2631;
-31.5000;0.6496;1.2656;
-31.2000;0.6479;1.2605;
-30.9000;0.6447;1.2580;
-30.6000;0.6471;1.2631;
-30.3000;0.6496;1.2681;
-30.0000;0.6496;1.2681;
-29.7000;0.6471;1.2732;
-29.4000;0.6536;1.2859;
-29.1000;0.6463;1.2631;
-28.8000;0.6447;1.2555;
-28.5000;0.6463;1.2555;
-28.2000;0.6471;1.2580;
-27.9000;0.6463;1.2732;
-27.6000;0.6471;1.2732;
-27.3000;0.6471;1.2656;
-27.0000;0.6479;1.2656;
-26.7000;0.6479;1.2681;
-26.4000;0.6455;1.2529;
-26.1000;0.6471;1.2504;
-25.8000;0.6479;1.2504;
-25.5000;0.6504;1.2580;
-25.2000;0.6463;1.2555;
-24.9000;0.6479;1.2681;
-24.6000;0.6463;1.2605;
-24.3000;0.6333;1.2352;
-24.0000;0.6488;1.2758;
-23.7000;0.6471;1.2707;
-23.4000;0.6455;1.2732;
-23.1000;0.6447;1.2681;
-22.8000;0.6463;1.2732;
-22.5000;0.6488;1.2758;
-22.2000;0.6512;1.2808;
-21.9000;0.6479;1.2732;
-21.6000;0.6455;1.2681;
-21.3000;0.6496;1.2808;
-21.0000;0.6479;1.2732;
-20.7000;0.6455;1.2681;
-20.4000;0.6463;1.2758;
-20.1000;0.6479;1.2859;
-19.8000;0.6463;1.2834;
-19.5000;0.6479;1.2808;
-19.2000;0.6488;1.2884;
-18.9000;0.6471;1.2834;
-18.6000;0.6471;1.2783;
-18.3000;0.6488;1.2783;
-18.0000;0.6488;1.2783;
-17.7000;0.6488;1.2834;
-17.4000;0.6463;1.2808;
-17.1000;0.6471;1.2732;
-16.8000;0.6479;1.2732;
-16.5000;0.6471;1.2681;
-16.2000;0.6488;1.2732;
-15.9000;0.6479;1.2758;
-15.6000;0.6488;1.2732;
-15.3000;0.6488;1.2758;
-15.0000;0.6479;1.2656;
-14.7000;0.6520;1.2656;
-14.4000;0.6463;1.2529;
-14.1000;0.6431;1.2402;
-13.8000;0.6471;1.2504;
-13.5000;0.6479;1.2504;
-13.2000;0.6422;1.2453;
-12.9000;0.6479;1.2656;
-12.6000;0.6488;1.2681;
-12.3000;0.6488;1.2707;
-12.0000;0.6463;1.2681;
-11.7000;0.6479;1.2732;
-11.4000;0.6479;1.2707;
-11.1000;0.6447;1.2555;
-10.8000;0.6488;1.2631;
-10.5000;0.6471;1.2555;
-10.2000;0.6479;1.2555;
-9.9000;0.6455;1.2504;
-9.6000;0.6471;1.2580;
-9.3000;0.6471;1.2580;
-9.0000;0.6455;1.2529;
-8.7000;0.6479;1.2504;
-8.4000;0.6455;1.2479;
-8.1000;0.6488;1.2555;
-7.8000;0.6536;1.2656;
-7.5000;0.6479;1.2529;
-7.2000;0.6463;1.2555;
-6.9000;0.6479;1.2580;
-6.6000;0.6479;1.2555;
-6.3000;0.6496;1.2656;
-6.0000;0.6488;1.2707;
-5.7000;0.6496;1.2758;
-5.4000;0.6479;1.2808;
-5.1000;0.6447;1.2707;
-4.8000;0.6431;1.2555;
-4.5000;0.6455;1.2504;
-4.2000;0.6471;1.2555;
-3.9000;0.6463;1.2580;
-3.6000;0.6545;1.2859;
-3.3000;0.6455;1.2656;
-3.0000;0.6439;1.2656;
-2.7000;0.6488;1.2758;
-2.4000;0.6471;1.2783;
-2.1000;0.6488;1.2732;
-1.8000;0.6479;1.2834;
-1.5000;0.6463;1.2859;
-1.2000;0.6479;1.2834;
-0.9000;0.6520;1.3037;
-0.6000;0.6455;1.2758;
-0.3000;0.6422;1.2707;
0.0000;0.6422;1.2707;
0.3000;0.6829;1.3341;
0.6000;0.7627;1.4254;
0.9000;0.8230;1.5116;
1.2000;0.8710;1.5928;
1.5000;0.9060;1.6587;
1.8000;0.9328;1.7196;
2.1000;0.9548;1.7500;
2.4000;0.9768;1.7881;
2.7000;0.9931;1.8211;
3.0000;1.0053;1.8388;
3.3000;1.0183;1.8490;
3.6000;1.0297;1.8616;
3.9000;1.0403;1.8794;
4.2000;1.0476;1.8870;
4.5000;1.0549;1.8845;
4.8000;1.0655;1.8921;
5.1000;1.0737;1.8997;
5.4000;1.0794;1.8997;
5.7000;1.0932;1.9250;
6.0000;1.0956;1.9149;
6.3000;1.1038;1.9174;
6.6000;1.1111;1.9200;
6.9000;1.1176;1.9250;
7.2000;1.1241;1.9225;
7.5000;1.1315;1.9250;
7.8000;1.1347;1.9149;
8.1000;1.1445;1.9200;
8.4000;1.1469;1.9250;
8.7000;1.1559;1.9403;
9.0000;1.1632;1.9352;
9.3000;1.1689;1.9301;
9.6000;1.1738;1.9276;
9.9000;1.1705;1.9124;
10.2000;1.1836;1.9250;
10.5000;1.1909;1.9301;
10.8000;1.1982;1.9352;
11.1000;1.2015;1.9250;
11.4000;1.2072;1.9250;
11.7000;1.2112;1.9301;
12.0000;1.2145;1.9301;
12.3000;1.2210;1.9276;
12.6000;1.2259;1.9301;
12.9000;1.2300;1.9225;
13.2000;1.2365;1.9225;
13.5000;1.2405;1.9149;
13.8000;1.2454;1.9149;
14.1000;1.2495;1.9174;
14.4000;1.2560;1.9098;
14.7000;1.2568;1.9098;
15.0000;1.2617;1.9124;
15.3000;1.2698;1.9124;
15.6000;1.2739;1.9174;
15.9000;1.2715;1.9073;
16.2000;1.2796;1.9200;
16.5000;1.2821;1.9174;
16.8000;1.2829;1.9098;
17.1000;1.2853;1.9073;
17.4000;1.2886;1.9124;
17.7000;1.2926;1.9174;
18.0000;1.2991;1.9250;
18.3000;1.2983;1.9149;
18.6000;1.3008;1.9149;
18.9000;1.3040;1.9174;
19.2000;1.3048;1.9124;
19.5000;1.3040;1.8997;
19.8000;1.3130;1.9149;
20.1000;1.3138;1.9124;
20.4000;1.3146;1.9022;
20.7000;1.3179;1.9124;
21.0000;1.3203;1.8921;
21.3000;1.3219;1.8971;
21.6000;1.3228;1.8921;
21.9000;1.3260;1.9022;
22.2000;1.3260;1.8971;
22.5000;1.3284;1.8895;
22.8000;1.3301;1.8895;
23.1000;1.3390;1.9124;
23.4000;1.3309;1.8971;
23.7000;1.3341;1.9022;
24.0000;1.3366;1.9022;
24.3000;1.3350;1.8870;
24.6000;1.3496;1.9200;
24.9000;1.3407;1.8870;
25.2000;1.3423;1.8819;
25.5000;1.3431;1.8870;
25.8000;1.3439;1.8845;
26.1000;1.3439;1.8870;
26.4000;1.3455;1.8895;
26.7000;1.3480;1.8997;
27.0000;1.3423;1.8845;
27.3000;1.3488;1.8971;
27.6000;1.3512;1.9073;
27.9000;1.3504;1.9174;
28.2000;1.3512;1.9225;
28.5000;1.3553;1.9225;
28.8000;1.3464;1.9048;
29.1000;1.3545;1.9073;
29.4000;1.3569;1.9048;
29.7000;1.3594;1.9048;
30.0000;1.3561;1.8895;
30.3000;1.3594;1.8997;
30.6000;1.3602;1.9022;
30.9000;1.3578;1.9022;
31.2000;1.3578;1.9073;
31.5000;1.3561;1.9022;
31.8000;1.3472;1.8743;
32.1000;1.3561;1.8946;
32.4000;1.3683;1.9225;
32.7000;1.3610;1.8971;
33.0000;1.3635;1.9022;
33.3000;1.3651;1.9073;
33.6000;1.3659;1.9124;
33.9000;1.3659;1.9200;
34.2000;1.3659;1.9200;
34.5000;1.3667;1.9149;
34.8000;1.3618;1.8946;
35.1000;1.3683;1.9048;
35.4000;1.3691;1.9048;
35.7000;1.3691;1.8895;
36.0000;1.3700;1.8921;
36.3000;1.3691;1.8997;
36.6000;1.3708;1.8997;
36.9000;1.3724;1.8997;
37.2000;1.3716;1.8895;
37.5000;1.3716;1.8819;
37.8000;1.3732;1.8819;
38.1000;1.3748;1.8794;
38.4000;1.3732;1.8819;
38.7000;1.3740;1.8870;
39.0000;1.3732;1.8921;
39.3000;1.3732;1.8819;
39.6000;1.3789;1.8971;
39.9000;1.3765;1.8895;
40.2000;1.3781;1.8921;
40.5000;1.3781;1.8921;
40.8000;1.3773;1.8845;
41.1000;1.3797;1.8870;
41.4000;1.3781;1.8819;
41.7000;1.3773;1.8667;
42.0000;1.3797;1.8642;
42.3000;1.3797;1.8718;
42.6000;1.3781;1.8718;
42.9000;1.3781;1.8819;
43.2000;1.3781;1.8794;
43.5000;1.3781;1.8845;
43.8000;1.3805;1.8870;
44.1000;1.3797;1.8870;
44.4000;1.3814;1.8946;
44.7000;1.3740;1.8718;
45.0000;1.3814;1.8819;
45.3000;1.3789;1.8794;
45.6000;1.3838;1.8895;
45.9000;1.3814;1.8845;
46.2000;1.3805;1.8743;
46.5000;1.3805;1.8743;
46.8000;1.3814;1.8794;
47.1000;1.3805;1.8870;
47.4000;1.3830;1.8895;
47.7000;1.3830;1.8946;
48.0000;1.3846;1.8997;
48.3000;1.3830;1.8921;
48.6000;1.3838;1.8921;
48.9000;1.3830;1.8895;
49.2000;1.3846;1.8946;
49.5000;1.3854;1.8971;
49.8000;1.3838;1.8921;
50.1000;1.3903;1.9048;
50.4000;1.3854;1.8819;
50.7000;1.3830;1.8693;
51.0000;1.3838;1.8693;
51.3000;1.3854;1.8667;
51.6000;1.3830;1.8642;
51.9000;1.3862;1.8794;
52.2000;1.3822;1.8693;
52.5000;1.3871;1.8718;
52.8000;1.3871;1.8693;
53.1000;1.3879;1.8642;
53.4000;1.3879;1.8642;
53.7000;1.3895;1.8718;
54.0000;1.3895;1.8591;
54.3000;1.3871;1.8566;
54.6000;1.3903;1.8616;
54.9000;1.3944;1.8743;
55.2000;1.3830;1.8490;
55.5000;1.3862;1.8718;
55.8000;1.3895;1.8895;
56.1000;1.3854;1.8819;
56.4000;1.3895;1.8870;
56.7000;1.3879;1.8718;
57.0000;1.3895;1.8616;
57.3000;1.3895;1.8540;
57.6000;1.3871;1.8540;
57.9000;1.3879;1.8616;
58.2000;1.3887;1.8616;
58.5000;1.3887;1.8718;
58.8000;1.3911;1.8769;
59.1000;1.3895;1.8794;
59.4000;1.3903;1.8794;
59.7000;1.3903;1.8845;
60.0000;1.3895;1.8895;
60.3000;1.3919;1.8946;
60.6000;1.3895;1.8997;
60.9000;1.3887;1.8997;
61.2000;1.3903;1.8997;
61.5000;1.3895;1.8870;
61.8000;1.3887;1.8845;
62.1000;1.3895;1.8870;
62.4000;1.3911;1.8921;
62.7000;1.3903;1.8845;
63.0000;1.3903;1.8921;
63.3000;1.3903;1.8971;
63.6000;1.3919;1.8997;
63.9000;1.3968;1.9098;
64.2000;1.3928;1.8971;
64.5000;1.3919;1.8870;
64.8000;1.3944;1.8845;
65.1000;1.3879;1.8693;
65.4000;1.4033;1.9200;
65.7000;1.3936;1.9022;
66.0000;1.3936;1.8921;
66.3000;1.3919;1.8845;
66.6000;1.3911;1.8819;
66.9000;1.3919;1.8794;
67.2000;1.3936;1.8794;
67.5000;1.3895;1.8667;
67.8000;1.3911;1.8769;
68.1000;1.3936;1.8819;
68.4000;1.3928;1.8845;
68.7000;1.4001;1.9022;
69.0000;1.3968;1.8845;
69.3000;1.3928;1.8743;
69.6000;1.3944;1.8718;
69.9000;1.3952;1.8769;
70.2000;1.3944;1.8743;
70.5000;1.3952;1.8693;
70.8000;1.3952;1.8667;
71.1000;1.3862;1.8464;
71.4000;1.3919;1.8718;
71.7000;1.3952;1.8693;
72.0000;1.3928;1.8667;
72.3000;1.3952;1.8642;
72.6000;1.3968;1.8693;
72.9000;1.3928;1.8642;
73.2000;1.3911;1.8439;
73.5000;1.3960;1.8591;
73.8000;1.3952;1.8591;
74.1000;1.3960;1.8566;
74.4000;1.3944;1.8540;
74.7000;1.4042;1.8794;
75.0000;1.3944;1.8591;
75.3000;1.3968;1.8591;
75.6000;1.3944;1.8439;
75.9000;1.4009;1.8591;
76.2000;1.3968;1.8464;
76.5000;1.3985;1.8591;
76.8000;1.3960;1.8490;
77.1000;1.3976;1.8515;
77.4000;1.3976;1.8566;
77.7000;1.3952;1.8490;
78.0000;1.4033;1.8642;
78.3000;1.3960;1.8388;
78.6000;1.3960;1.8439;
78.9000;1.3960;1.8414;
79.2000;1.3960;1.8414;
79.5000;1.3960;1.8363;
79.8000;1.3985;1.8439;
80.1000;1.3968;1.8414;
80.4000;1.3968;1.8414;
80.7000;1.3976;1.8337;
81.0000;1.3968;1.8287;
81.3000;1.4042;1.8540;
81.6000;1.3968;1.8388;
81.9000;1.3993;1.8439;
82.2000;1.3968;1.8439;
82.5000;1.3985;1.8540;
82.8000;1.3976;1.8540;
83.1000;1.3960;1.8490;
83.4000;1.3960;1.8540;
83.7000;1.3968;1.8616;
84.0000;1.3985;1.8591;
84.3000;1.3976;1.8616;
84.6000;1.3993;1.8616;
84.9000;1.3985;1.8642;
85.2000;1.3968;1.8591;
85.5000;1.3985;1.8743;
85.8000;1.3960;1.8693;
86.1000;1.3968;1.8693;
86.4000;1.3993;1.8794;
86.7000;1.4001;1.8794;
87.0000;1.3993;1.8819;
87.3000;1.3976;1.8667;
87.6000;1.3968;1.8616;
87.9000;1.4001;1.8819;
88.2000;1.3985;1.8718;
88.5000;1.4058;1.8946;
88.8000;1.4009;1.8769;
89.1000;1.4001;1.8667;
89.4000;1.4017;1.8642;
89.7000;1.3985;1.8515;
90.0000;1.4001;1.8540;
90.3000;1.4009;1.8566;
90.6000;1.4009;1.8667;
90.9000;1.3976;1.8591;
91.2000;1.3960;1.8439;
91.5000;1.3911;1.8388;
91.8000;1.3993;1.8616;
92.1000;1.3993;1.8540;
92.4000;1.3993;1.8566;
92.7000;1.3993;1.8540;
93.0000;1.3993;1.8464;
93.3000;1.3976;1.8414;
93.6000;1.3985;1.8388;
93.9000;1.4001;1.8388;
94.2000;1.4001;1.8464;
94.5000;1.4025;1.8515;
94.8000;1.4001;1.8464;
95.1000;1.3985;1.8363;
95.4000;1.4017;1.8337;
95.7000;1.4001;1.8236;
96.0000;1.4017;1.8337;
96.3000;1.3993;1.8236;
96.6000;1.4017;1.8261;
96.9000;1.4042;1.8287;
97.2000;1.4001;1.8261;
97.5000;1.3993;1.8312;
97.8000;1.4009;1.8363;
98.1000;1.4017;1.8388;
98.4000;1.3985;1.8236;
98.7000;1.4001;1.8236;
99.0000;1.4009;1.8312;
99.3000;1.4017;1.8287;
99.6000;1.4017;1.8312;
99.9000;1.3993;1.8337;
100.2000;1.4001;1.8337;
100.5000;1.3985;1.8388;
100.8000;1.4017;1.8464;
101.1000;1.4009;1.8566;
101.4000;1.4001;1.8490;
101.7000;1.3993;1.8439;
102.0000;1.4017;1.8388;
102.3000;1.4009;1.8337;
102.6000;1.4017;1.8414;
102.9000;1.4001;1.8439;
103.2000;1.4009;1.8388;
103.5000;1.4009;1.8337;
103.8000;1.3993;1.8261;
104.1000;1.4009;1.8337;
104.4000;1.4098;1.8616;
104.7000;1.4017;1.8439;
105.0000;1.4009;1.8540;
105.3000;1.4017;1.8616;
105.6000;1.4001;1.8490;
105.9000;1.3985;1.8439;
106.2000;1.3993;1.8464;
106.5000;1.4025;1.8591;
106.8000;1.4001;1.8642;
107.1000;1.4017;1.8591;
107.4000;1.4009;1.8490;
107.7000;1.3985;1.8414;
108.0000;1.3985;1.8312;
108.3000;1.4009;1.8464;
108.6000;1.3993;1.8363;
108.9000;1.4009;1.8312;
109.2000;1.3985;1.8185;
109.5000;1.4025;1.8236;
109.8000;1.4017;1.8211;
110.1000;1.4025;1.8160;
110.4000;1.4017;1.8211;
110.7000;1.4025;1.8287;
111.0000;1.3985;1.8084;
111.3000;1.3919;1.7881;
111.6000;1.4017;1.8033;
111.9000;1.4009;1.8185;
112.2000;1.4058;1.8388;
112.5000;1.4009;1.8261;
112.8000;1.4009;1.8211;
113.1000;1.4017;1.8185;
113.4000;1.3993;1.8084;
113.7000;1.4123;1.8388;
114.0000;1.4001;1.8058;
114.3000;1.4017;1.8109;
114.6000;1.4001;1.8109;
114.9000;1.3993;1.8109;
115.2000;1.4009;1.8084;
115.5000;1.4025;1.8160;
115.8000;1.4090;1.8261;
116.1000;1.4025;1.8160;
116.4000;1.4017;1.8211;
116.7000;1.4025;1.8211;
117.0000;1.4033;1.8287;
117.3000;1.4033;1.8287;
117.6000;1.4025;1.8236;
117.9000;1.4025;1.8312;
118.2000;1.4017;1.8236;
118.5000;1.4025;1.8236;
118.8000;1.4033;1.8337;
119.1000;1.4025;1.8337;
119.4000;1.4033;1.8414;
119.7000;1.4009;1.8337;
120.0000;1.4107;1.8490;
120.3000;1.4009;1.8185;
120.6000;1.4042;1.8261;
120.9000;1.4025;1.8236;
121.2000;1.4017;1.8261;
121.5000;1.4017;1.8261;
121.8000;1.3985;1.8185;
122.1000;1.4017;1.8211;
122.4000;1.3993;1.8160;
122.7000;1.3985;1.8211;
123.0000;1.3993;1.8185;
123.3000;1.3936;1.8084;
123.6000;1.3968;1.8109;
123.9000;1.4017;1.8160;
124.2000;1.4017;1.8236;
124.5000;1.4017;1.8287;
124.8000;1.4009;1.8287;
125.1000;1.4009;1.8287;
125.4000;1.4017;1.8236;
125.7000;1.3928;1.8084;
126.0000;1.4017;1.8261;
126.3000;1.4025;1.8236;
126.6000;1.4050;1.8337;
126.9000;1.4025;1.8236;
127.2000;1.4033;1.8236;
127.5000;1.4017;1.8261;
127.8000;1.4017;1.8211;
128.1000;1.4025;1.8160;
128.4000;1.4017;1.8109;
128.7000;1.4025;1.8109;
129.0000;1.4009;1.8084;
129.3000;1.4009;1.8109;
129.6000;1.4042;1.8135;
129.9000;1.4017;1.8109;
130.2000;1.4025;1.8236;
130.5000;1.4025;1.8287;
130.8000;1.4033;1.8261;
131.1000;1.4033;1.8261;
131.4000;1.4025;1.8287;
131.7000;1.4017;1.8287;
132.0000;1.4017;1.8363;
132.3000;1.4033;1.8312;
132.6000;1.4025;1.8287;
132.9000;1.4017;1.8312;
133.2000;1.3976;1.8135;
133.5000;1.4025;1.8312;
133.8000;1.4025;1.8388;
134.1000;1.4009;1.8414;
134.4000;1.4009;1.8414;
134.7000;1.4009;1.8388;
135.0000;1.4025;1.8388;
135.3000;1.4033;1.8388;
135.6000;1.4017;1.8337;
135.9000;1.4025;1.8261;
136.2000;1.3985;1.8135;
136.5000;1.4025;1.8236;
136.8000;1.3985;1.8109;
137.1000;1.3968;1.8033;
137.4000;1.4033;1.8109;
137.7000;1.4001;1.8058;
138.0000;1.4025;1.8084;
138.3000;1.4009;1.8033;
138.6000;1.4001;1.8084;
138.9000;1.4042;1.8135;
139.2000;1.4033;1.8109;
139.5000;1.4025;1.8109;
139.8000;1.4017;1.8109;
140.1000;1.4025;1.8084;
140.4000;1.4033;1.8185;
140.7000;1.4025;1.8160;
141.0000;1.4017;1.8160;
141.3000;1.4033;1.8211;
141.6000;1.4017;1.8185;
141.9000;1.4017;1.8312;
142.2000;1.4009;1.8312;
142.5000;1.4033;1.8439;
142.8000;1.3985;1.8211;
143.1000;1.3968;1.8135;
143.4000;1.4025;1.8337;
143.7000;1.4017;1.8388;
144.0000;1.4017;1.8363;
144.3000;1.3993;1.8388;
144.6000;1.4001;1.8337;
144.9000;1.4009;1.8363;
145.2000;1.4017;1.8363;
145.5000;1.4001;1.8287;
145.8000;1.4009;1.8211;
146.1000;1.4017;1.8236;
146.4000;1.4025;1.8337;
146.7000;1.4009;1.8211;
147.0000;1.4001;1.8135;
147.3000;1.4017;1.8135;
147.6000;1.4025;1.8185;
147.9000;1.4009;1.8185;
148.2000;1.4025;1.8236;
148.5000;1.4017;1.8261;
148.8000;1.4017;1.8312;
149.1000;1.4017;1.8261;
149.4000;1.4025;1.8160;
149.7000;1.4009;1.8135;
150.0000;1.4025;1.8109;
150.3000;1.4042;1.8135;
150.6000;1.4025;1.8109;
150.9000;1.4009;1.8160;
151.2000;1.4001;1.8185;
151.5000;1.4009;1.8261;
151.8000;1.4001;1.8236;
152.1000;1.4017;1.8261;
152.4000;1.4025;1.8236;
152.7000;1.4033;1.8287;
153.0000;1.4033;1.8211;
153.3000;1.4017;1.8160;
153.6000;1.4001;1.8160;
153.9000;1.4050;1.8388;
154.2000;1.4025;1.8414;
154.5000;1.3960;1.8211;
154.8000;1.4033;1.8287;
155.1000;1.4017;1.8211;
155.4000;1.4025;1.8287;
155.7000;1.4017;1.8211;
156.0000;1.4017;1.8084;
156.3000;1.3976;1.8008;
156.6000;1.4017;1.8058;
156.9000;1.4017;1.8058;
157.2000;1.4009;1.8058;
157.5000;1.4017;1.8008;
157.8000;1.4025;1.7957;
158.1000;1.4017;1.8008;
158.4000;1.4017;1.8058;
158.7000;1.4009;1.8033;
159.0000;1.4001;1.7957;
159.3000;1.4017;1.8033;
159.6000;1.4009;1.8033;
159.9000;1.3993;1.8084;
160.2000;1.4009;1.8185;
160.5000;1.4082;1.8312;
160.8000;1.4017;1.8084;
161.1000;1.4025;1.8135;
161.4000;1.4042;1.8109;
161.7000;1.4017;1.8109;
162.0000;1.4033;1.8084;
162.3000;1.4042;1.8211;
162.6000;1.4033;1.8236;
162.9000;1.4025;1.8185;
163.2000;1.4001;1.8084;
163.5000;1.3944;1.7906;
163.8000;1.4033;1.8160;
164.1000;1.4066;1.8388;
164.4000;1.4050;1.8388;
164.7000;1.4009;1.8312;
165.0000;1.4001;1.8363;
165.3000;1.4009;1.8439;
165.6000;1.4017;1.8464;
165.9000;1.4025;1.8439;
166.2000;1.4009;1.8287;
166.5000;1.4025;1.8261;
166.8000;1.3968;1.8211;
167.1000;1.4017;1.8337;
167.4000;1.4017;1.8337;
167.7000;1.4009;1.8261;
168.0000;1.4025;1.8363;
168.3000;1.4025;1.8261;
168.6000;1.4009;1.8261;
168.9000;1.3993;1.8261;
169.2000;1.4009;1.8312;
169.5000;1.4009;1.8287;
169.8000;1.4001;1.8312;
170.1000;1.4017;1.8236;
170.4000;1.4025;1.8236;
170.7000;1.4001;1.8211;
171.0000;1.4017;1.8185;
171.3000;1.4009;1.8261;
171.6000;1.4017;1.8261;
171.9000;1.4017;1.8236;
172.2000;1.4009;1.8211;
172.5000;1.3993;1.8160;
172.8000;1.4033;1.8211;
173.1000;1.4025;1.8287;
173.4000;1.3985;1.8287;
173.7000;1.4033;1.8414;
174.0000;1.4009;1.8388;
174.3000;1.4033;1.8261;
174.6000;1.4001;1.8185;
174.9000;1.4009;1.8185;
175.2000;1.4025;1.8261;
175.5000;1.4009;1.8211;
175.8000;1.4009;1.8185;
176.1000;1.4009;1.8084;
176.4000;1.4009;1.8084;
176.7000;1.4017;1.8135;
177.0000;1.4001;1.8135;
177.3000;1.4017;1.8109;
177.6000;1.3993;1.8084;
177.9000;1.4001;1.8160;
178.2000;1.3993;1.8160;
178.5000;1.4017;1.8236;
178.8000;1.4001;1.8185;
179.1000;1.4123;1.8490;
179.4000;1.4017;1.8261;
179.7000;1.4009;1.8287;
180.0000;1.4017;1.8287;
180.3000;1.4017;1.8287;
180.6000;1.4025;1.8312;
180.9000;1.4033;1.8287;
181.2000;1.4025;1.8363;
181.5000;1.3993;1.8236;
181.8000;1.4033;1.8312;
182.1000;1.4025;1.8211;
182.4000;1.3993;1.8109;
182.7000;1.4001;1.8135;
183.0000;1.4001;1.8033;
183.3000;1.4017;1.8033;
183.6000;1.3968;1.7957;
183.9000;1.4033;1.8211;
184.2000;1.4017;1.8160;
184.5000;1.4033;1.8160;
184.8000;1.4025;1.8211;
185.1000;1.4033;1.8160;
185.4000;1.4017;1.8160;
185.7000;1.4009;1.8109;
186.0000;1.4017;1.8185;
186.3000;1.4017;1.8135;
186.6000;1.4009;1.8160;
186.9000;1.4025;1.8185;
187.2000;1.4017;1.8236;
187.5000;1.4058;1.8388;
187.8000;1.4001;1.8388;
188.1000;1.3993;1.8363;
188.4000;1.4009;1.8287;
188.7000;1.4058;1.8439;
189.0000;1.4009;1.8363;
189.3000;1.4009;1.8414;
189.6000;1.3993;1.8287;
189.9000;1.4009;1.8312;
190.2000;1.4017;1.8337;
190.5000;1.4017;1.8388;
190.8000;1.4017;1.8363;
191.1000;1.4009;1.8388;
191.4000;1.4017;1.8337;
191.7000;1.4009;1.8261;
192.0000;1.4017;1.8211;
192.3000;1.4025;1.8287;
192.6000;1.4009;1.8312;
192.9000;1.4001;1.8287;
193.2000;1.4001;1.8363;
193.5000;1.4025;1.8388;
193.8000;1.4017;1.8312;
194.1000;1.4033;1.8363;
194.4000;1.4025;1.8363;
194.7000;1.4025;1.8490;
195.0000;1.4017;1.8490;
195.3000;1.4009;1.8414;
195.6000;1.4017;1.8363;
195.9000;1.4090;1.8540;
196.2000;1.4025;1.8337;
196.5000;1.3976;1.8185;
196.8000;1.4009;1.8211;
197.1000;1.4009;1.8236;
197.4000;1.4115;1.8490;
197.7000;1.4009;1.8236;
198.0000;1.4033;1.8287;
198.3000;1.4017;1.8236;
198.6000;1.4017;1.8236;
198.9000;1.4042;1.8414;
199.2000;1.4001;1.8287;
199.5000;1.4025;1.8363;
199.8000;1.4017;1.8312;
200.1000;1.4025;1.8388;
200.4000;1.4009;1.8312;
200.7000;1.4017;1.8363;
201.0000;1.4009;1.8287;
201.3000;1.4009;1.8388;
201.6000;1.4009;1.8388;
201.9000;1.4090;1.8616;
202.2000;1.4017;1.8566;
202.5000;1.3976;1.8540;
202.8000;1.4009;1.8515;
203.1000;1.4017;1.8566;
203.4000;1.4025;1.8515;
203.7000;1.4009;1.8388;
204.0000;1.4017;1.8414;
204.3000;1.4017;1.8388;
204.6000;1.4017;1.8414;
204.9000;1.4009;1.8439;
205.2000;1.4009;1.8287;
205.5000;1.4001;1.8337;
205.8000;1.4009;1.8388;
206.1000;1.4033;1.8439;
206.4000;1.3960;1.8312;
206.7000;1.4025;1.8490;
207.0000;1.4025;1.8515;
207.3000;1.4025;1.8616;
207.6000;1.4009;1.8540;
207.9000;1.4009;1.8490;
208.2000;1.4009;1.8464;
208.5000;1.4042;1.8591;
208.8000;1.4009;1.8515;
209.1000;1.4042;1.8540;
209.4000;1.4066;1.8591;
209.7000;1.4009;1.8363;
210.0000;1.4017;1.8337;
210.3000;1.4025;1.8337;
210.6000;1.4033;1.8261;
210.9000;1.4025;1.8312;
211.2000;1.4033;1.8388;
211.5000;1.4017;1.8414;
211.8000;1.4017;1.8414;
212.1000;1.4025;1.8414;
212.4000;1.4017;1.8464;
212.7000;1.4033;1.8464;
213.0000;1.4001;1.8414;
213.3000;1.4001;1.8312;
213.6000;1.4009;1.8312;
213.9000;1.4025;1.8312;
214.2000;1.3993;1.8211;
214.5000;1.3993;1.8236;
214.8000;1.3952;1.8135;
215.1000;1.4009;1.8312;
215.4000;1.3993;1.8312;
215.7000;1.4001;1.8211;
216.0000;1.4001;1.8185;
216.3000;1.4033;1.8287;
216.6000;1.4025;1.8312;
216.9000;1.4009;1.8414;
217.2000;1.4017;1.8363;
217.5000;1.4017;1.8312;
217.8000;1.3993;1.8211;
218.1000;1.4009;1.8261;
218.4000;1.3993;1.8236;
218.7000;1.4009;1.8261;
219.0000;1.4009;1.8211;
219.3000;1.4017;1.8109;
219.6000;1.3993;1.8033;
219.9000;1.4017;1.8109;
220.2000;1.4017;1.8109;
220.5000;1.3976;1.8058;
220.8000;1.4009;1.8160;
221.1000;1.4025;1.8211;
221.4000;1.4058;1.8363;
221.7000;1.4009;1.8261;
222.0000;1.4017;1.8337;
222.3000;1.4025;1.8261;
222.6000;1.4017;1.8261;
222.9000;1.4009;1.8261;
223.2000;1.3985;1.8160;
223.5000;1.3985;1.8211;
223.8000;1.3976;1.8236;
224.1000;1.3993;1.8211;
224.4000;1.3993;1.8261;
224.7000;1.3993;1.8337;
225.0000;1.4017;1.8414;
225.3000;1.4001;1.8337;
225.6000;1.4001;1.8337;
225.9000;1.4009;1.8363;
226.2000;1.3985;1.8312;
226.5000;1.4017;1.8388;
226.8000;1.4131;1.8667;
227.1000;1.4001;1.8261;
227.4000;1.3993;1.8236;
227.7000;1.4017;1.8261;
228.0000;1.4009;1.8312;
228.3000;1.4001;1.8312;
228.6000;1.4017;1.8439;
228.9000;1.4025;1.8464;
229.2000;1.4001;1.8439;
229.5000;1.3993;1.8388;
229.8000;1.3985;1.8439;
230.1000;1.3976;1.8414;
230.4000;1.4009;1.8490;
230.7000;1.4009;1.8515;
231.0000;1.4001;1.8464;
231.3000;1.4001;1.8490;
231.6000;1.3993;1.8414;
231.9000;1.3968;1.8312;
232.2000;1.4009;1.8464;
232.5000;1.3993;1.8515;
232.8000;1.3993;1.8566;
233.1000;1.4115;1.8743;
233.4000;1.3985;1.8312;
233.7000;1.3985;1.8312;
234.0000;1.4001;1.8337;
234.3000;1.3993;1.8261;
234.6000;1.3993;1.8388;
234.9000;1.4001;1.8414;
235.2000;1.4001;1.8414;
235.5000;1.4009;1.8439;
235.8000;1.4107;1.8642;
236.1000;1.4001;1.8388;
236.4000;1.4001;1.8388;
236.7000;1.4009;1.8439;
237.0000;1.3993;1.8490;
237.3000;1.3985;1.8464;
237.6000;1.4001;1.8464;
237.9000;1.4009;1.8414;
238.2000;1.4009;1.8439;
238.5000;1.4009;1.8464;
238.8000;1.4025;1.8414;
239.1000;1.4009;1.8388;
239.4000;1.4025;1.8414;
239.7000;1.4001;1.8388;
240.0000;1.4009;1.8261;
240.3000;1.4017;1.8211;
240.6000;1.4025;1.8337;
240.9000;1.4009;1.8261;
241.2000;1.4009;1.8236;
241.5000;1.4017;1.8211;
241.8000;1.3993;1.8236;
242.1000;1.3993;1.8211;
242.4000;1.3976;1.8236;
242.7000;1.3985;1.8287;
243.0000;1.3993;1.8211;
243.3000;1.4001;1.8236;
243.6000;1.3993;1.8287;
243.9000;1.3993;1.8287;
244.2000;1.3993;1.8337;
244.5000;1.3960;1.8236;
244.8000;1.4001;1.8337;
245.1000;1.4009;1.8287;
245.4000;1.4017;1.8287;
245.7000;1.4033;1.8388;
246.0000;1.3968;1.8211;
246.3000;1.3985;1.8363;
246.6000;1.4001;1.8363;
246.9000;1.4001;1.8363;
247.2000;1.4009;1.8414;
247.5000;1.3993;1.8363;
247.8000;1.3928;1.8236;
248.1000;1.4009;1.8464;
248.4000;1.4001;1.8363;
248.7000;1.3976;1.8236;
249.0000;1.3993;1.8211;
249.3000;1.3993;1.8236;
249.6000;1.4001;1.8236;
249.9000;1.4001;1.8236;
250.2000;1.3976;1.8236;
250.5000;1.4009;1.8261;
250.8000;1.4033;1.8312;
251.1000;1.3968;1.8109;
251.4000;1.3985;1.8185;
251.7000;1.3976;1.8084;
252.0000;1.3993;1.8109;
252.3000;1.3985;1.8084;
252.6000;1.4009;1.8109;
252.9000;1.4001;1.8135;
253.2000;1.4001;1.8312;
253.5000;1.4115;1.8642;
253.8000;1.3985;1.8337;
254.1000;1.3993;1.8414;
254.4000;1.4001;1.8439;
254.7000;1.4001;1.8464;
255.0000;1.4025;1.8464;
255.3000;1.4001;1.8464;
255.6000;1.3976;1.8414;
255.9000;1.4074;1.8566;
256.2000;1.3903;1.8211;
256.5000;1.4001;1.8388;
256.8000;1.4033;1.8414;
257.1000;1.4025;1.8439;
257.4000;1.3985;1.8363;
257.7000;1.3985;1.8363;
258.0000;1.3993;1.8287;
258.3000;1.3993;1.8236;
258.6000;1.4001;1.8261;
258.9000;1.3895;1.7932;
259.2000;1.3993;1.8185;
259.5000;1.3985;1.8261;
259.8000;1.3976;1.8185;
260.1000;1.3985;1.8236;
260.4000;1.3993;1.8236;
260.7000;1.3993;1.8211;
261.0000;1.3985;1.8236;
261.3000;1.3968;1.8236;
261.6000;1.3968;1.8337;
261.9000;1.3985;1.8414;
262.2000;1.3976;1.8388;
262.5000;1.3985;1.8439;
262.8000;1.3976;1.8337;
263.1000;1.3952;1.8211;
263.4000;1.3985;1.8363;
263.7000;1.3993;1.8414;
264.0000;1.3985;1.8414;
264.3000;1.4001;1.8414;
264.6000;1.3976;1.8439;
264.9000;1.3993;1.8363;
265.2000;1.3993;1.8363;
265.5000;1.3976;1.8363;
265.8000;1.3976;1.8439;
266.1000;1.3976;1.8414;
266.4000;1.3968;1.8337;
266.7000;1.3985;1.8464;
267.0000;1.3993;1.8540;
267.3000;1.3976;1.8540;
267.6000;1.3968;1.8591;
267.9000;1.3976;1.8566;
268.2000;1.3985;1.8490;
268.5000;1.3985;1.8439;
268.8000;1.3976;1.8464;
269.1000;1.3968;1.8464;
269.4000;1.3968;1.8490;
269.7000;1.3993;1.8540;
270.0000;1.3976;1.8490;
270.3000;1.3968;1.8388;
270.6000;1.3976;1.8312;
270.9000;1.4001;1.8363;
271.2000;1.3985;1.8363;
271.5000;1.3985;1.8337;
271.8000;1.4050;1.8515;
272.1000;1.3976;1.8337;
272.4000;1.3985;1.8287;
272.7000;1.3985;1.8312;
273.0000;1.3993;1.8261;
273.3000;1.3968;1.8211;
273.6000;1.3993;1.8337;
273.9000;1.3968;1.8211;
274.2000;1.3985;1.8261;
274.5000;1.4001;1.8388;
274.8000;1.3887;1.8211;
275.1000;1.3919;1.8312;
275.4000;1.4001;1.8388;
275.7000;1.3968;1.8261;
276.0000;1.4001;1.8414;
276.3000;1.4009;1.8439;
276.6000;1.3968;1.8236;
276.9000;1.4001;1.8388;
277.2000;1.4001;1.8414;
277.5000;1.3993;1.8414;
277.8000;1.3993;1.8439;
278.1000;1.3968;1.8439;
278.4000;1.3993;1.8464;
278.7000;1.4001;1.8414;
279.0000;1.3985;1.8312;
279.3000;1.3985;1.8261;
279.6000;1.4164;1.8794;
279.9000;1.3993;1.8414;
280.2000;1.4090;1.8591;
280.5000;1.3985;1.8287;
280.8000;1.3976;1.8287;
281.1000;1.3985;1.8211;
281.4000;1.3985;1.8236;
281.7000;1.3993;1.8236;
282.0000;1.3976;1.8236;
282.3000;1.3985;1.8261;
282.6000;1.3985;1.8236;
282.9000;1.3985;1.8287;
283.2000;1.3968;1.8236;
283.5000;1.3985;1.8261;
283.8000;1.3976;1.8236;
284.1000;1.3976;1.8287;
284.4000;1.3968;1.8337;
284.7000;1.3952;1.8363;
285.0000;1.3985;1.8439;
285.3000;1.3960;1.8312;
285.6000;1.3985;1.8337;
285.9000;1.3985;1.8312;
286.2000;1.3993;1.8261;
286.5000;1.4001;1.8337;
286.8000;1.4042;1.8515;
287.1000;1.3993;1.8312;
287.4000;1.4009;1.8363;
287.7000;1.4001;1.8388;
288.0000;1.3968;1.8261;
288.3000;1.3968;1.8337;
288.6000;1.3993;1.8287;
288.9000;1.3993;1.8236;
289.2000;1.3985;1.8160;
289.5000;1.3968;1.7982;
289.8000;1.3944;1.8008;
290.1000;1.3985;1.8084;
290.4000;1.3985;1.8084;
290.7000;1.3976;1.8058;
291.0000;1.3985;1.8084;
291.3000;1.4009;1.8135;
291.6000;1.3968;1.8033;
291.9000;1.3936;1.8008;
292.2000;1.3976;1.8211;
292.5000;1.3993;1.8312;
292.8000;1.3968;1.8287;
293.1000;1.3993;1.8261;
293.4000;1.3976;1.8211;
293.7000;1.3968;1.8135;
294.0000;1.3985;1.8109;
294.3000;1.3976;1.8185;
294.6000;1.4082;1.8490;
294.9000;1.3960;1.8236;
295.2000;1.3968;1.8312;
295.5000;1.3960;1.8388;
295.8000;1.3879;1.8058;
296.1000;1.3976;1.8388;
296.4000;1.3985;1.8337;
296.7000;1.3976;1.8287;
297.0000;1.3960;1.8211;
297.3000;1.3887;1.7932;
297.6000;1.3985;1.8109;
297.9000;1.3993;1.8185;
298.2000;1.3968;1.8185;
298.5000;1.3960;1.8160;
298.8000;1.3960;1.8135;
299.1000;1.3976;1.8261;
299.4000;1.3976;1.8388;
299.7000;1.3960;1.8312;
300.0000;1.3968;1.8388;
300.3000;1.3960;1.8363;
300.6000;1.4017;1.8439;
300.9000;1.3944;1.8287;
301.2000;1.3993;1.8287;
301.5000;1.3993;1.8287;
301.8000;1.3968;1.8160;
302.1000;1.3976;1.8185;
302.4000;1.3993;1.8185;
302.7000;1.3985;1.8084;
303.0000;1.3985;1.8033;
303.3000;1.3976;1.7957;
303.6000;1.3985;1.7906;
303.9000;1.3960;1.7932;
304.2000;1.3976;1.7932;
304.5000;1.4001;1.7957;
304.8000;1.3976;1.7856;
305.1000;1.3976;1.7957;
305.4000;1.4001;1.8008;
305.7000;1.3928;1.7830;
306.0000;1.4115;1.8261;
306.3000;1.3976;1.7982;
306.6000;1.3968;1.8008;
306.9000;1.3976;1.8084;
307.2000;1.3985;1.8135;
307.5000;1.3985;1.8109;
307.8000;1.3936;1.8058;
308.1000;1.3976;1.8211;
308.4000;1.3968;1.8185;
308.7000;1.3968;1.8160;
309.0000;1.3952;1.8058;
309.3000;1.3976;1.8135;
309.6000;1.3960;1.8008;
309.9000;1.3976;1.8058;
310.2000;1.3960;1.8033;
310.5000;1.3968;1.8109;
310.8000;1.3952;1.8109;
311.1000;1.3968;1.8084;
311.4000;1.3985;1.8211;
311.7000;1.3985;1.8185;
312.0000;1.3976;1.8135;
312.3000;1.3968;1.8084;
312.6000;1.3976;1.8185;
312.9000;1.3993;1.8236;
313.2000;1.3968;1.8287;
313.5000;1.3968;1.8312;
313.8000;1.3976;1.8414;
314.1000;1.3976;1.8464;
314.4000;1.3960;1.8439;
314.7000;1.3968;1.8439;
315.0000;1.3960;1.8388;
315.3000;1.3960;1.8337;
315.6000;1.3952;1.8287;
315.9000;1.3960;1.8287;
316.2000;1.3952;1.8363;
316.5000;1.3968;1.8388;
316.8000;1.3960;1.8312;
317.1000;1.3976;1.8287;
317.4000;1.3976;1.8236;
317.7000;1.3960;1.8312;
318.0000;1.3952;1.8312;
318.3000;1.3968;1.8337;
318.6000;1.3952;1.8312;
318.9000;1.3952;1.8236;
319.2000;1.3960;1.8287;
319.5000;1.3968;1.8261;
319.8000;1.4017;1.8337;
320.1000;1.3928;1.8135;
320.4000;1.3968;1.8185;
320.7000;1.3968;1.8236;
321.0000;1.3968;1.8160;
321.3000;1.4001;1.8312;
321.6000;1.3952;1.8312;
321.9000;1.3968;1.8312;
322.2000;1.3976;1.8287;
322.5000;1.3960;1.8261;
322.8000;1.4025;1.8464;
323.1000;1.3952;1.8312;
323.4000;1.3944;1.8236;
323.7000;1.3952;1.8312;
324.0000;1.3952;1.8287;
324.3000;1.4074;1.8616;
324.6000;1.3960;1.8414;
324.9000;1.3960;1.8439;
325.2000;1.3952;1.8363;
325.5000;1.3960;1.8414;
325.8000;1.3936;1.8388;
326.1000;1.3952;1.8363;
326.4000;1.3960;1.8414;
326.7000;1.3960;1.8363;
327.0000;1.3952;1.8337;
327.3000;1.3960;1.8439;
327.6000;1.3960;1.8337;
327.9000;1.3976;1.8312;
328.2000;1.3968;1.8337;
328.5000;1.3960;1.8287;
328.8000;1.3976;1.8337;
329.1000;1.3960;1.8363;
329.4000;1.3960;1.8337;
329.7000;1.3968;1.8261;
330.0000;1.3960;1.8185;
330.3000;1.3960;1.8160;
330.6000;1.3976;1.8236;
330.9000;1.4074;1.8515;
331.2000;1.3903;1.8109;
331.5000;1.3960;1.8363;
331.8000;1.3879;1.8185;
332.1000;1.3968;1.8439;
332.4000;1.3960;1.8439;
332.7000;1.3952;1.8337;
333.0000;1.3952;1.8414;
333.3000;1.3960;1.8591;
333.6000;1.3976;1.8540;
333.9000;1.3944;1.8439;
334.2000;1.3944;1.8414;
334.5000;1.3944;1.8439;
334.8000;1.3968;1.8464;
335.1000;1.3952;1.8388;
335.4000;1.3968;1.8312;
335.7000;1.3960;1.8414;
336.0000;1.3968;1.8490;
336.3000;1.3952;1.8540;
336.6000;1.3960;1.8464;
336.9000;1.3944;1.8414;
337.2000;1.3944;1.8388;
337.5000;1.4001;1.8439;
337.8000;1.3968;1.8261;
338.1000;1.3960;1.8211;
338.4000;1.3952;1.8135;
338.7000;1.3952;1.8084;
339.0000;1.3960;1.8033;
339.3000;1.4001;1.8211;
339.6000;1.3944;1.8109;
339.9000;1.3952;1.8160;
340.2000;1.3911;1.8084;
340.5000;1.3944;1.8236;
340.8000;1.3960;1.8261;
341.1000;1.3968;1.8337;
341.4000;1.3952;1.8337;
341.7000;1.3911;1.8211;
342.0000;1.3952;1.8287;
342.3000;1.3960;1.8312;
342.6000;1.3976;1.8439;
342.9000;1.3944;1.8388;
343.2000;1.3960;1.8439;
343.5000;1.3960;1.8414;
343.8000;1.3944;1.8363;
344.1000;1.3895;1.8287;
344.4000;1.3928;1.8464;
344.7000;1.3936;1.8515;
345.0000;1.3919;1.8414;
345.3000;1.3944;1.8540;
345.6000;1.3928;1.8312;
345.9000;1.3952;1.8414;
346.2000;1.3952;1.8439;
346.5000;1.3952;1.8439;
346.8000;1.3944;1.8414;
347.1000;1.3895;1.8312;
347.4000;1.3960;1.8439;
347.7000;1.3952;1.8490;
348.0000;1.3944;1.8490;
348.3000;1.3960;1.8490;
348.6000;1.3919;1.8439;
348.9000;1.4025;1.8718;
349.2000;1.3952;1.8414;
349.5000;1.3952;1.8388;
349.8000;1.3944;1.8363;
350.1000;1.3960;1.8337;
350.4000;1.3960;1.8312;
350.7000;1.3928;1.8261;
351.0000;1.3960;1.8312;
351.3000;1.3936;1.8337;
351.6000;1.3952;1.8439;
351.9000;1.3952;1.8388;
352.2000;1.3952;1.8337;
352.5000;1.3960;1.8439;
352.8000;1.3936;1.8414;
353.1000;1.3854;1.8160;
353.4000;1.3944;1.8287;
353.7000;1.3960;1.8287;
354.0000;1.3936;1.8312;
354.3000;1.3952;1.8312;
354.6000;1.3887;1.8185;
354.9000;1.3936;1.8312;
355.2000;1.4001;1.8414;
355.5000;1.3944;1.8287;
355.8000;1.3936;1.8287;
356.1000;1.3960;1.8388;
356.4000;1.3944;1.8312;
356.7000;1.3968;1.8439;
357.0000;1.3944;1.8464;
357.3000;1.3919;1.8414;
357.6000;1.3952;1.8490;
357.9000;1.3985;1.8616;
358.2000;1.3952;1.8540;
358.5000;1.3968;1.8642;
358.8000;1.4009;1.8718;
359.1000;1.3960;1.8566;
359.4000;1.3960;1.8616;
359.7000;1.3952;1.8566;
360.0000;1.3960;1.8540;
360.3000;1.3960;1.8566;
360.6000;1.3952;1.8566;
360.9000;1.3952;1.8616;
361.2000;1.3960;1.8591;
361.5000;1.3936;1.8515;
361.8000;1.3903;1.8515;
362.1000;1.3944;1.8616;
362.4000;1.3952;1.8743;
362.7000;1.3968;1.8743;
363.0000;1.3936;1.8743;
363.3000;1.3944;1.8718;
363.6000;1.3952;1.8693;
363.9000;1.3952;1.8616;
364.2000;1.3960;1.8642;
364.5000;1.3944;1.8566;
364.8000;1.3919;1.8490;
365.1000;1.4042;1.8718;
365.4000;1.3944;1.8388;
365.7000;1.3960;1.8414;
366.0000;1.3936;1.8388;
366.3000;1.3911;1.8363;
366.6000;1.3895;1.8261;
366.9000;1.3952;1.8490;
367.2000;1.3936;1.8464;
367.5000;1.3944;1.8591;
367.8000;1.3952;1.8642;
368.1000;1.3952;1.8642;
368.4000;1.3944;1.8616;
368.7000;1.3854;1.8363;
369.0000;1.3944;1.8515;
369.3000;1.3936;1.8515;
369.6000;1.3952;1.8439;
369.9000;1.3944;1.8515;
370.2000;1.3944;1.8540;
370.5000;1.3960;1.8616;
370.8000;1.3944;1.8616;
371.1000;1.3936;1.8667;
371.4000;1.4050;1.8997;
371.7000;1.3944;1.8693;
372.0000;1.3968;1.8819;
372.3000;1.3944;1.8769;
372.6000;1.3952;1.8769;
372.9000;1.3968;1.8693;
373.2000;1.3936;1.8566;
373.5000;1.3960;1.8693;
373.8000;1.3960;1.8616;
374.1000;1.3936;1.8540;
374.4000;1.3936;1.8439;
374.7000;1.3944;1.8464;
375.0000;1.3944;1.8515;
375.3000;1.3952;1.8540;
375.6000;1.3887;1.8388;
375.9000;1.3928;1.8515;
376.2000;1.3919;1.8515;
376.5000;1.3993;1.8718;
376.8000;1.3936;1.8616;
377.1000;1.3928;1.8566;
377.4000;1.3928;1.8591;
377.7000;1.4009;1.8743;
378.0000;1.3936;1.8616;
378.3000;1.3944;1.8540;
378.6000;1.3919;1.8414;
378.9000;1.3944;1.8414;
379.2000;1.3895;1.8312;
379.5000;1.3936;1.8490;
379.8000;1.3936;1.8515;
380.1000;1.3936;1.8616;
380.4000;1.3928;1.8667;
380.7000;1.3928;1.8693;
381.0000;1.3936;1.8642;
381.3000;1.3928;1.8591;
381.6000;1.3936;1.8591;
381.9000;1.3928;1.8490;
382.2000;1.3928;1.8439;
382.5000;1.3911;1.8566;
382.8000;1.3928;1.8591;
383.1000;1.3911;1.8616;
383.4000;1.3928;1.8693;
383.7000;1.3936;1.8743;
384.0000;1.3944;1.8743;
384.3000;1.3944;1.8667;
384.6000;1.3944;1.8693;
384.9000;1.3936;1.8718;
385.2000;1.3928;1.8718;
385.5000;1.3919;1.8667;
385.8000;1.3936;1.8718;
386.1000;1.3944;1.8769;
386.4000;1.3952;1.8718;
386.7000;1.3952;1.8642;
387.0000;1.3944;1.8591;
387.3000;1.3928;1.8566;
387.6000;1.3944;1.8540;
387.9000;1.3936;1.8414;
388.2000;1.3944;1.8464;
388.5000;1.3960;1.8591;
388.8000;1.3936;1.8566;
389.1000;1.3928;1.8642;
389.4000;1.3936;1.8718;
389.7000;1.3919;1.8616;
390.0000;1.3928;1.8566;
390.3000;1.3887;1.8414;
390.6000;1.3936;1.8566;
390.9000;1.3903;1.8515;
391.2000;1.3895;1.8515;
391.5000;1.3928;1.8515;
391.8000;1.3903;1.8464;
392.1000;1.3944;1.8616;
392.4000;1.3895;1.8515;
392.7000;1.3919;1.8515;
393.0000;1.3952;1.8642;
393.3000;1.3936;1.8616;
393.6000;1.4001;1.8794;
393.9000;1.3944;1.8490;
394.2000;1.3919;1.8540;
394.5000;1.3944;1.8642;
394.8000;1.3936;1.8642;
395.1000;1.3928;1.8566;
395.4000;1.3960;1.8667;
395.7000;1.3919;1.8616;
396.0000;1.3919;1.8566;
396.3000;1.3911;1.8515;
396.6000;1.3936;1.8414;
396.9000;1.3928;1.8414;
397.2000;1.3936;1.8414;
397.5000;1.3944;1.8388;
397.8000;1.3936;1.8312;
398.1000;1.3936;1.8363;
398.4000;1.3919;1.8414;
398.7000;1.3968;1.8591;
399.0000;1.3936;1.8464;
399.3000;1.3928;1.8515;
399.6000;1.3944;1.8540;
399.9000;1.3952;1.8515;
400.2000;1.3895;1.8439;
400.5000;1.3903;1.8439;
400.8000;1.3952;1.8490;
401.1000;1.3928;1.8515;
401.4000;1.3936;1.8540;
401.7000;1.3903;1.8464;
402.0000;1.3911;1.8591;
402.3000;1.3936;1.8616;
402.6000;1.3928;1.8566;
402.9000;1.3911;1.8566;
403.2000;1.3928;1.8616;
403.5000;1.3960;1.8667;
403.8000;1.3936;1.8667;
404.1000;1.3936;1.8667;
404.4000;1.3928;1.8718;
404.7000;1.3944;1.8693;
405.0000;1.3936;1.8667;
405.3000;1.3928;1.8693;
405.6000;1.3911;1.8591;
405.9000;1.3944;1.8616;
406.2000;1.3919;1.8616;
406.5000;1.3911;1.8616;
406.8000;1.3936;1.8566;
407.1000;1.3936;1.8616;
407.4000;1.3936;1.8642;
407.7000;1.3911;1.8667;
408.0000;1.3944;1.8667;
408.3000;1.3993;1.8769;
408.6000;1.3936;1.8642;
408.9000;1.3919;1.8490;
409.2000;1.3936;1.8515;
409.5000;1.3928;1.8591;
409.8000;1.3928;1.8667;
410.1000;1.3903;1.8490;
410.4000;1.3887;1.8388;
410.7000;1.3928;1.8464;
411.0000;1.3919;1.8515;
411.3000;1.3928;1.8464;
411.6000;1.3903;1.8337;
411.9000;1.3911;1.8312;
412.2000;1.3919;1.8312;
412.5000;1.3911;1.8261;
412.8000;1.3976;1.8363;
413.1000;1.3968;1.8464;
413.4000;1.3919;1.8414;
413.7000;1.3830;1.8236;
414.0000;1.3928;1.8464;
414.3000;1.3895;1.8388;
414.6000;1.3911;1.8490;
414.9000;1.3911;1.8566;
415.2000;1.3944;1.8718;
415.5000;1.3911;1.8667;
415.8000;1.3903;1.8616;
416.1000;1.3911;1.8667;
416.4000;1.3903;1.8642;
416.7000;1.3911;1.8616;
417.0000;1.3919;1.8616;
417.3000;1.3944;1.8743;
417.6000;1.3928;1.8667;
417.9000;1.3919;1.8693;
418.2000;1.3895;1.8642;
418.5000;1.3936;1.8667;
418.8000;1.3928;1.8642;
419.1000;1.3928;1.8642;
419.4000;1.3919;1.8642;
419.7000;1.3928;1.8616;
420.0000;1.3911;1.8642;
420.3000;1.3919;1.8616;
420.6000;1.3911;1.8515;
420.9000;1.3862;1.8439;
421.2000;1.3919;1.8616;
421.5000;1.3903;1.8515;
421.8000;1.3903;1.8515;
422.1000;1.3993;1.8718;
422.4000;1.3944;1.8591;
422.7000;1.3919;1.8566;
423.0000;1.3919;1.8540;
423.3000;1.3911;1.8591;
423.6000;1.3911;1.8667;
423.9000;1.3911;1.8693;
424.2000;1.3911;1.8616;
424.5000;1.3911;1.8616;
424.8000;1.3903;1.8642;
425.1000;1.3919;1.8718;
425.4000;1.3911;1.8693;
425.7000;1.3903;1.8718;
426.0000;1.3919;1.8794;
426.3000;1.3919;1.8693;
426.6000;1.3903;1.8642;
426.9000;1.3903;1.8642;
427.2000;1.3936;1.8667;
427.5000;1.3919;1.8616;
427.8000;1.3911;1.8667;
428.1000;1.3919;1.8642;
428.4000;1.3895;1.8540;
428.7000;1.3928;1.8464;
429.0000;1.3936;1.8490;
429.3000;1.3871;1.8388;
429.6000;1.3928;1.8566;
429.9000;1.3936;1.8616;
430.2000;1.3919;1.8616;
430.5000;1.3928;1.8515;
430.8000;1.3944;1.8566;
431.1000;1.3944;1.8515;
431.4000;1.3846;1.8185;
431.7000;1.3903;1.8337;
432.0000;1.3911;1.8414;
432.3000;1.3895;1.8464;
432.6000;1.3928;1.8591;
432.9000;1.3919;1.8616;
433.2000;1.3911;1.8642;
433.5000;1.3903;1.8591;
433.8000;1.3911;1.8540;
434.1000;1.3928;1.8540;
434.4000;1.3919;1.8591;
434.7000;1.3911;1.8591;
435.0000;1.3903;1.8743;
435.3000;1.3928;1.8794;
435.6000;1.3895;1.8616;
435.9000;1.3895;1.8642;
436.2000;1.3895;1.8693;
436.5000;1.3936;1.8693;
436.8000;1.3903;1.8591;
437.1000;1.3903;1.8566;
437.4000;1.3919;1.8642;
437.7000;1.3919;1.8769;
438.0000;1.3895;1.8566;
438.3000;1.3911;1.8540;
438.6000;1.3879;1.8439;
438.9000;1.3895;1.8540;
439.2000;1.3985;1.8693;
439.5000;1.3911;1.8515;
439.8000;1.3944;1.8566;
440.1000;1.3903;1.8388;
440.4000;1.3928;1.8515;
440.7000;1.3911;1.8464;
441.0000;1.3911;1.8388;
441.3000;1.3919;1.8337;
441.6000;1.3911;1.8515;
441.9000;1.3911;1.8439;
442.2000;1.3911;1.8464;
442.5000;1.3919;1.8464;
442.8000;1.3911;1.8540;
443.1000;1.3919;1.8490;
443.4000;1.3887;1.8414;
443.7000;1.3919;1.8540;
444.0000;1.3928;1.8515;
444.3000;1.3928;1.8515;
444.6000;1.3928;1.8540;
444.9000;1.3903;1.8540;
445.2000;1.3903;1.8540;
445.5000;1.3887;1.8540;
445.8000;1.3887;1.8464;
446.1000;1.3911;1.8515;
446.4000;1.3911;1.8515;
446.7000;1.3887;1.8439;
447.0000;1.3952;1.8515;
447.3000;1.3903;1.8464;
447.6000;1.3911;1.8515;
447.9000;1.3895;1.8439;
448.2000;1.3903;1.8490;
448.5000;1.3911;1.8363;
448.8000;1.3976;1.8515;
449.1000;1.3911;1.8388;
449.4000;1.3919;1.8464;
449.7000;1.3936;1.8515;
450.0000;1.3903;1.8439;
450.3000;1.3895;1.8464;
450.6000;1.3903;1.8515;
450.9000;1.3895;1.8566;
451.2000;1.3903;1.8642;
451.5000;1.3903;1.8693;
451.8000;1.3903;1.8667;
452.1000;1.3911;1.8718;
452.4000;1.3854;1.8642;
452.7000;1.3936;1.8845;
453.0000;1.3985;1.9048;
453.3000;1.3911;1.8870;
453.6000;1.3911;1.8769;
453.9000;1.3895;1.8743;
454.2000;1.3919;1.8769;
454.5000;1.3911;1.8794;
454.8000;1.3903;1.8769;
455.1000;1.3911;1.8642;
455.4000;1.3903;1.8667;
455.7000;1.3919;1.8693;
456.0000;1.4033;1.9073;
456.3000;1.3879;1.8718;
456.6000;1.3895;1.8743;
456.9000;1.3911;1.8794;
457.2000;1.3903;1.8819;
457.5000;1.3903;1.8870;
457.8000;1.3919;1.8870;
458.1000;1.3919;1.8845;
458.4000;1.3911;1.8845;
458.7000;1.3928;1.8845;
459.0000;1.3911;1.8794;
459.3000;1.3903;1.8845;
459.6000;1.3903;1.8794;
459.9000;1.3903;1.8819;
460.2000;1.3846;1.8743;
460.5000;1.3895;1.8845;
460.8000;1.3765;1.8439;
461.1000;1.3871;1.8642;
461.4000;1.3895;1.8616;
461.7000;1.3960;1.8743;
462.0000;1.3911;1.8616;
462.3000;1.3903;1.8693;
462.6000;1.3911;1.8819;
462.9000;1.3895;1.8819;
463.2000;1.3919;1.8819;
463.5000;1.3928;1.8845;
463.8000;1.3903;1.8769;
464.1000;1.3911;1.8769;
464.4000;1.3903;1.8718;
464.7000;1.3919;1.8693;
465.0000;1.3895;1.8642;
465.3000;1.3903;1.8693;
465.6000;1.3838;1.8464;
465.9000;1.3895;1.8667;
466.2000;1.3903;1.8693;
466.5000;1.3919;1.8743;
466.8000;1.3887;1.8718;
467.1000;1.3903;1.8794;
467.4000;1.4009;1.9174;
467.7000;1.3936;1.8921;
468.0000;1.3944;1.8895;
468.3000;1.3919;1.8870;
468.6000;1.3919;1.8895;
468.9000;1.3919;1.8845;
469.2000;1.3830;1.8642;
469.5000;1.3928;1.8921;
469.8000;1.3895;1.8667;
470.1000;1.3944;1.8819;
470.4000;1.3911;1.8769;
470.7000;1.3895;1.8743;
471.0000;1.3879;1.8769;
471.3000;1.3928;1.8819;
471.6000;1.3903;1.8718;
471.9000;1.3911;1.8718;
472.2000;1.3911;1.8819;
472.5000;1.3903;1.8743;
472.8000;1.3911;1.8743;
473.1000;1.3903;1.8693;
473.4000;1.3919;1.8718;
473.7000;1.3895;1.8693;
474.0000;1.3887;1.8616;
474.3000;1.3903;1.8718;
474.6000;1.3871;1.8616;
474.9000;1.3919;1.8718;
475.2000;1.3960;1.8895;
475.5000;1.3903;1.8794;
475.8000;1.3887;1.8743;
476.1000;1.3879;1.8769;
476.4000;1.3903;1.8845;
476.7000;1.3879;1.8718;
477.0000;1.3895;1.8743;
477.3000;1.3903;1.8870;
477.6000;1.3903;1.8895;
477.9000;1.3895;1.8845;
478.2000;1.3895;1.8895;
478.5000;1.3862;1.8819;
478.8000;1.3879;1.8895;
479.1000;1.3903;1.9073;
479.4000;1.3862;1.9048;
479.7000;1.3887;1.9073;
480.0000;1.3887;1.9073;
480.3000;1.3879;1.9098;
480.6000;1.3903;1.9149;
480.9000;1.3887;1.9022;
481.2000;1.3903;1.8971;
481.5000;1.3903;1.8921;
481.8000;1.3928;1.9022;
482.1000;1.3903;1.8946;
482.4000;1.3903;1.8946;
482.7000;1.3903;1.8946;
483.0000;1.3887;1.8895;
483.3000;1.3911;1.9022;
483.6000;1.3911;1.8997;
483.9000;1.3911;1.8997;
484.2000;1.3887;1.8895;
484.5000;1.3903;1.8971;
484.8000;1.3887;1.8971;
485.1000;1.3895;1.8946;
485.4000;1.3895;1.8997;
485.7000;1.3887;1.8997;
486.0000;1.3911;1.9149;
486.3000;1.3887;1.9124;
486.6000;1.3781;1.8921;
486.9000;1.3879;1.9073;
487.2000;1.3928;1.9174;
487.5000;1.3871;1.8946;
487.8000;1.3805;1.8819;
488.1000;1.3879;1.9048;
488.4000;1.3879;1.9022;
488.7000;1.3911;1.9149;
489.0000;1.3895;1.9098;
489.3000;1.3895;1.9022;
489.6000;1.3830;1.8819;
489.9000;1.3911;1.9098;
490.2000;1.3895;1.8971;
490.5000;1.3895;1.8946;
490.8000;1.3862;1.8794;
491.1000;1.3895;1.8971;
491.4000;1.3871;1.8997;
491.7000;1.3871;1.9098;
492.0000;1.4001;1.9377;
492.3000;1.3895;1.9174;
492.6000;1.3936;1.9352;
492.9000;1.3887;1.9225;
493.2000;1.3871;1.9200;
493.5000;1.3854;1.9174;
493.8000;1.3887;1.9124;
494.1000;1.3879;1.9124;
494.4000;1.3903;1.9073;
494.7000;1.3879;1.8895;
495.0000;1.3903;1.8895;
495.3000;1.3887;1.8921;
495.6000;1.3854;1.8794;
495.9000;1.3887;1.8845;
496.2000;1.3903;1.8946;
496.5000;1.3871;1.8921;
496.8000;1.3879;1.8971;
497.1000;1.3879;1.8946;
497.4000;1.3871;1.8921;
497.7000;1.3879;1.9022;
498.0000;1.3879;1.8997;
498.3000;1.3879;1.9048;
498.6000;1.3887;1.9048;
498.9000;1.3887;1.9048;
499.2000;1.3879;1.8946;
499.5000;1.3895;1.8946;
499.8000;1.3887;1.8921;
500.1000;1.3887;1.8895;
500.4000;1.3862;1.8921;
500.7000;1.3871;1.8769;
501.0000;1.3879;1.8819;
501.3000;1.3887;1.8819;
501.6000;1.3887;1.8946;
501.9000;1.3903;1.8997;
502.2000;1.3862;1.8870;
502.5000;1.3879;1.8921;
502.8000;1.3895;1.8946;
503.1000;1.3887;1.8870;
503.4000;1.3871;1.8819;
503.7000;1.3895;1.8946;
504.0000;1.3871;1.8895;
504.3000;1.3887;1.8895;
504.6000;1.3879;1.8895;
504.9000;1.3879;1.8845;
505.2000;1.3895;1.8819;
505.5000;1.3887;1.8845;
505.8000;1.3895;1.8845;
506.1000;1.3944;1.9073;
506.4000;1.3903;1.8971;
506.7000;1.3854;1.8845;
507.0000;1.3871;1.8895;
507.3000;1.3879;1.9022;
507.6000;1.3862;1.8997;
507.9000;1.3871;1.8971;
508.2000;1.3879;1.9022;
508.5000;1.3887;1.9022;
508.8000;1.3879;1.8971;
509.1000;1.3944;1.9200;
509.4000;1.3887;1.9048;
509.7000;1.3879;1.8997;
510.0000;1.3919;1.9149;
510.3000;1.3895;1.9073;
510.6000;1.3805;1.8870;
510.9000;1.3887;1.8971;
511.2000;1.3887;1.8997;
511.5000;1.3928;1.9124;
511.8000;1.3887;1.8946;
512.1000;1.3895;1.8895;
512.4000;1.3862;1.8895;
512.7000;1.3879;1.8895;
513.0000;1.3879;1.8946;
513.3000;1.3887;1.8997;
513.6000;1.3805;1.8769;
513.9000;1.3879;1.9022;
514.2000;1.3895;1.8997;
514.5000;1.3879;1.9022;
514.8000;1.3879;1.8921;
515.1000;1.3887;1.8971;
515.4000;1.3968;1.8997;
515.7000;1.3879;1.8693;
516.0000;1.3879;1.8667;
516.3000;1.3887;1.8667;
516.6000;1.3871;1.8566;
516.9000;1.3871;1.8566;
517.2000;1.3879;1.8591;
517.5000;1.3846;1.8591;
517.8000;1.3871;1.8642;
518.1000;1.3895;1.8743;
518.4000;1.3895;1.8769;
518.7000;1.3871;1.8794;
519.0000;1.3871;1.8819;
519.3000;1.3871;1.8895;
519.6000;1.3879;1.8895;
519.9000;1.3862;1.8870;
520.2000;1.3879;1.8895;
520.5000;1.3903;1.8946;
520.8000;1.3871;1.8921;
521.1000;1.3887;1.8971;
521.4000;1.3871;1.8946;
521.7000;1.3871;1.9022;
522.0000;1.3879;1.8921;
522.3000;1.3895;1.8921;
522.6000;1.3879;1.8870;
522.9000;1.3871;1.8946;
523.2000;1.3879;1.8971;
523.5000;1.3822;1.8845;
523.8000;1.3879;1.8997;
524.1000;1.3911;1.9098;
524.4000;1.3919;1.9225;
524.7000;1.3871;1.9048;
525.0000;1.3871;1.8971;
525.3000;1.3789;1.8718;
525.6000;1.3895;1.8870;
525.9000;1.3854;1.8819;
526.2000;1.3871;1.8895;
526.5000;1.3854;1.8819;
526.8000;1.3879;1.8971;
527.1000;1.3879;1.8997;
527.4000;1.3854;1.8895;
527.7000;1.3862;1.8921;
528.0000;1.3862;1.8921;
528.3000;1.3846;1.8794;
528.6000;1.3854;1.8769;
528.9000;1.3862;1.8794;
529.2000;1.3871;1.8895;
529.5000;1.3879;1.8819;
529.8000;1.3862;1.8794;
530.1000;1.3862;1.8794;
530.4000;1.3887;1.8794;
530.7000;1.3895;1.8794;
531.0000;1.3879;1.8743;
531.3000;1.3871;1.8819;
531.6000;1.3789;1.8515;
531.9000;1.3862;1.8693;
532.2000;1.3936;1.8743;
532.5000;1.3871;1.8616;
532.8000;1.3846;1.8566;
533.1000;1.3871;1.8616;
533.4000;1.3862;1.8642;
533.7000;1.3879;1.8667;
534.0000;1.3854;1.8743;
534.3000;1.3871;1.8794;
534.6000;1.3854;1.8743;
534.9000;1.3862;1.8794;
535.2000;1.3895;1.8971;
535.5000;1.3879;1.8921;
535.8000;1.3887;1.8971;
536.1000;1.3838;1.8845;
536.4000;1.3862;1.8895;
536.7000;1.3919;1.9200;
537.0000;1.3895;1.9048;
537.3000;1.3887;1.9022;
537.6000;1.3887;1.9022;
537.9000;1.3871;1.8971;
538.2000;1.3879;1.8870;
538.5000;1.3854;1.8870;
538.8000;1.3911;1.8946;
539.1000;1.3879;1.8819;
539.4000;1.3871;1.8794;
539.7000;1.3879;1.8870;
540.0000;1.3789;1.8566;
540.3000;1.3871;1.8743;
540.6000;1.3871;1.8845;
540.9000;1.3871;1.8895;
541.2000;1.3862;1.8895;
541.5000;1.3871;1.8921;
541.8000;1.3871;1.8997;
542.1000;1.3879;1.9048;
542.4000;1.3862;1.9073;
542.7000;1.3887;1.9048;
543.0000;1.3879;1.8997;
543.3000;1.3862;1.9073;
543.6000;1.3879;1.8997;
543.9000;1.3879;1.8971;
544.2000;1.3854;1.8946;
544.5000;1.3879;1.8997;
544.8000;1.3911;1.9048;
545.1000;1.3862;1.8895;
545.4000;1.3854;1.8895;
545.7000;1.3879;1.8971;
546.0000;1.3862;1.8946;
546.3000;1.3871;1.8895;
546.6000;1.3871;1.8946;
546.9000;1.3862;1.8921;
547.2000;1.3854;1.8921;
547.5000;1.3862;1.8921;
547.8000;1.3903;1.8971;
548.1000;1.3846;1.8819;
548.4000;1.3822;1.8693;
548.7000;1.3871;1.8769;
549.0000;1.3862;1.8743;
549.3000;1.3822;1.8693;
549.6000;1.3871;1.8794;
549.9000;1.3871;1.8743;
550.2000;1.3879;1.8819;
550.5000;1.3871;1.8819;
550.8000;1.3887;1.8997;
551.1000;1.3862;1.9022;
551.4000;1.3854;1.9098;
551.7000;1.3854;1.9098;
552.0000;1.3871;1.9174;
552.3000;1.3911;1.9174;
552.6000;1.3862;1.9048;
552.9000;1.3838;1.8971;
553.2000;1.3854;1.8946;
553.5000;1.3862;1.8870;
553.8000;1.3854;1.8895;
554.1000;1.3854;1.8895;
554.4000;1.3830;1.8769;
554.7000;1.3797;1.8591;
555.0000;1.3862;1.8667;
555.3000;1.3862;1.8718;
555.6000;1.3846;1.8667;
555.9000;1.3895;1.8743;
556.2000;1.3862;1.8794;
556.5000;1.3846;1.8794;
556.8000;1.3838;1.8819;
557.1000;1.3862;1.8845;
557.4000;1.3838;1.8794;
557.7000;1.3838;1.8819;
558.0000;1.3862;1.8895;
558.3000;1.3838;1.8870;
558.6000;1.3879;1.8921;
558.9000;1.3871;1.8895;
559.2000;1.3911;1.8870;
559.5000;1.3887;1.8971;
559.8000;1.3862;1.8997;
560.1000;1.3879;1.9022;
560.4000;1.3862;1.8997;
560.7000;1.3879;1.8971;
561.0000;1.3862;1.8870;
561.3000;1.3871;1.8895;
561.6000;1.3748;1.8667;
561.9000;1.3854;1.8870;
562.2000;1.3871;1.8946;
562.5000;1.3871;1.8997;
562.8000;1.3846;1.8895;
563.1000;1.3854;1.8895;
563.4000;1.3846;1.8921;
563.7000;1.3854;1.9022;
564.0000;1.3846;1.8921;
564.3000;1.3862;1.8870;
564.6000;1.3862;1.8997;
564.9000;1.3822;1.9098;
565.2000;1.3846;1.9149;
565.5000;1.3871;1.9200;
565.8000;1.3862;1.9048;
566.1000;1.3871;1.9048;
566.4000;1.3862;1.8971;
566.7000;1.3862;1.8921;
567.0000;1.3862;1.8921;
567.3000;1.3879;1.8921;
567.6000;1.3871;1.8946;
567.9000;1.3879;1.9022;
568.2000;1.3862;1.9073;
568.5000;1.3879;1.9124;
568.8000;1.3871;1.9098;
569.1000;1.3887;1.9149;
569.4000;1.3846;1.9073;
569.7000;1.3862;1.9098;
570.0000;1.3838;1.8971;
570.3000;1.3871;1.8946;
570.6000;1.3846;1.8921;
570.9000;1.3854;1.8845;
571.2000;1.3846;1.8845;
571.5000;1.3862;1.8921;
571.8000;1.3838;1.8845;
572.1000;1.3822;1.8794;
572.4000;1.3830;1.8769;
572.7000;1.3854;1.8743;
573.0000;1.3838;1.8718;
573.3000;1.3838;1.8743;
573.6000;1.3846;1.8845;
573.9000;1.3854;1.8819;
574.2000;1.3830;1.8693;
574.5000;1.3781;1.8667;
574.8000;1.3911;1.8997;
575.1000;1.3862;1.8845;
575.4000;1.3854;1.8845;
575.7000;1.3757;1.8490;
576.0000;1.3854;1.8769;
576.3000;1.3846;1.8794;
576.6000;1.3846;1.8819;
576.9000;1.3862;1.8895;
577.2000;1.3773;1.8819;
577.5000;1.3846;1.8997;
577.8000;1.3838;1.8946;
578.1000;1.3846;1.8845;
578.4000;1.3830;1.8769;
578.7000;1.3854;1.8819;
579.0000;1.3879;1.8845;
579.3000;1.3862;1.8819;
579.6000;1.3862;1.8794;
579.9000;1.3854;1.8819;
580.2000;1.3871;1.8845;
580.5000;1.3846;1.8769;
580.8000;1.3854;1.8794;
581.1000;1.3976;1.9073;
581.4000;1.3871;1.8819;
581.7000;1.3862;1.8895;
582.0000;1.3838;1.8895;
582.3000;1.3822;1.8895;
582.6000;1.3838;1.9022;
582.9000;1.3781;1.8921;
583.2000;1.3846;1.9124;
583.5000;1.3854;1.9174;
583.8000;1.3765;1.8997;
584.1000;1.3862;1.9149;
584.4000;1.3854;1.8997;
584.7000;1.3822;1.8895;
585.0000;1.3862;1.8921;
585.3000;1.3862;1.8921;
585.6000;1.3846;1.8971;
585.9000;1.3871;1.9098;
586.2000;1.3854;1.9022;
586.5000;1.3879;1.9124;
586.8000;1.3838;1.9073;
587.1000;1.3846;1.9124;
587.4000;1.3838;1.9048;
587.7000;1.3838;1.9048;
588.0000;1.3822;1.8971;
588.3000;1.3838;1.8997;
588.6000;1.3822;1.9048;
588.9000;1.3854;1.9124;
589.2000;1.3838;1.8997;
589.5000;1.3838;1.8997;
589.8000;1.3838;1.9022;
590.1000;1.3854;1.9073;
590.4000;1.3862;1.9048;
590.7000;1.3871;1.9022;
591.0000;1.3854;1.8971;
591.3000;1.3846;1.8895;
591.6000;1.3854;1.8971;
591.9000;1.3838;1.8971;
592.2000;1.3887;1.9124;
592.5000;1.3846;1.8921;
592.8000;1.3814;1.8997;
593.1000;1.3846;1.8997;
593.4000;1.3854;1.9048;
593.7000;1.3846;1.8997;
594.0000;1.3854;1.8971;
594.3000;1.3854;1.8997;
594.6000;1.3838;1.8997;
594.9000;1.3830;1.8971;
595.2000;1.3846;1.8997;
595.5000;1.3854;1.8971;
595.8000;1.3846;1.8870;
596.1000;1.3797;1.8819;
596.4000;1.3846;1.9022;
596.7000;1.3862;1.9073;
597.0000;1.3862;1.9048;
597.3000;1.3838;1.9022;
597.6000;1.3846;1.9022;
597.9000;1.3846;1.9073;
598.2000;1.3838;1.8946;
598.5000;1.3822;1.8819;
598.8000;1.3846;1.8895;
599.1000;1.3862;1.8997;
599.4000;1.3854;1.8946;
599.7000;1.3838;1.8845;
600.0000;1.3854;1.8946;
600.3000;1.3862;1.8819;
600.6000;1.3830;1.8718;
600.9000;1.3716;1.8464;
601.2000;1.3635;1.8312;
601.5000;1.3480;1.8058;
601.8000;1.3333;1.7779;
602.1000;1.3211;1.7500;
602.4000;1.3032;1.7095;
602.7000;1.2894;1.6841;
603.0000;1.2772;1.6689;
603.3000;1.2552;1.6182;
603.6000;1.2454;1.6029;
603.9000;1.2381;1.6004;
604.2000;1.2259;1.5801;
604.5000;1.2177;1.5649;
604.8000;1.2072;1.5547;
605.1000;1.1966;1.5370;
605.4000;1.1860;1.5243;
605.7000;1.1795;1.5192;
606.0000;1.1697;1.5091;
606.3000;1.1600;1.4888;
606.6000;1.1486;1.4736;
606.9000;1.1453;1.4736;
607.2000;1.1363;1.4584;
607.5000;1.1266;1.4432;
607.8000;1.1209;1.4533;
608.1000;1.1160;1.4533;
608.4000;1.1054;1.4457;
608.7000;1.1013;1.4406;
609.0000;1.0916;1.4203;
609.3000;1.0891;1.4254;
609.6000;1.0834;1.4330;
609.9000;1.0753;1.4330;
610.2000;1.0696;1.4229;
610.5000;1.0631;1.4153;
610.8000;1.0598;1.4127;
611.1000;1.0517;1.3975;
611.4000;1.0435;1.3874;
611.7000;1.0395;1.3899;
612.0000;1.0346;1.3874;
612.3000;1.0305;1.3772;
612.6000;1.0240;1.3721;
612.9000;1.0167;1.3696;
613.2000;1.0151;1.3671;
613.5000;1.0102;1.3518;
613.8000;1.0020;1.3442;
614.1000;1.0020;1.3392;
614.4000;0.9947;1.3316;
614.7000;0.9931;1.3442;
615.0000;0.9882;1.3392;
615.3000;0.9817;1.3290;
615.6000;0.9768;1.3239;
615.9000;0.9735;1.3163;
616.2000;0.9703;1.3214;
616.5000;0.9678;1.3265;
616.8000;0.9605;1.3239;
617.1000;0.9613;1.3392;
617.4000;0.9532;1.3341;
617.7000;0.9499;1.3265;
618.0000;0.9459;1.3239;
618.3000;0.9385;1.3011;
618.6000;0.9361;1.2986;
618.9000;0.9328;1.3062;
619.2000;0.9296;1.3087;
619.5000;0.9271;1.3087;
619.8000;0.9255;1.3062;
620.1000;0.9198;1.2986;
620.4000;0.9174;1.3062;
620.7000;0.9084;1.2808;
621.0000;0.9141;1.3037;
621.3000;0.9060;1.2910;
621.6000;0.9027;1.2884;
621.9000;0.9019;1.2910;
622.2000;0.9003;1.3011;
622.5000;0.8954;1.2910;
622.8000;0.8913;1.2783;
623.1000;0.8873;1.2707;
623.4000;0.8864;1.2605;
623.7000;0.8905;1.2783;
624.0000;0.8791;1.2504;
624.3000;0.8783;1.2580;
624.6000;0.8775;1.2605;
624.9000;0.8751;1.2605;
625.2000;0.8726;1.2631;
625.5000;0.8694;1.2605;
625.8000;0.8661;1.2580;
626.1000;0.8596;1.2428;
626.4000;0.8637;1.2555;
626.7000;0.8612;1.2453;
627.0000;0.8596;1.2453;
627.3000;0.8563;1.2529;
627.6000;0.8506;1.2504;
627.9000;0.8498;1.2605;
628.2000;0.8490;1.2555;
628.5000;0.8474;1.2631;
628.8000;0.8474;1.2631;
629.1000;0.8441;1.2656;
629.4000;0.8417;1.2681;
629.7000;0.8409;1.2529;
630.0000;0.8384;1.2453;
630.3000;0.8335;1.2377;
630.6000;0.8344;1.2377;
630.9000;0.8319;1.2402;
631.2000;0.8295;1.2352;
631.5000;0.8287;1.2301;
631.8000;0.8254;1.2276;
632.1000;0.8246;1.2402;
632.4000;0.8303;1.2605;
632.7000;0.8213;1.2377;
633.0000;0.8205;1.2250;
633.3000;0.8181;1.2276;
633.6000;0.8164;1.2276;
633.9000;0.8156;1.2352;
634.2000;0.8132;1.2377;
634.5000;0.8140;1.2402;
634.8000;0.8083;1.2276;
635.1000;0.8091;1.2276;
635.4000;0.8075;1.2200;
635.7000;0.8067;1.2326;
636.0000;0.8050;1.2301;
636.3000;0.8018;1.2301;
636.6000;0.8026;1.2428;
636.9000;0.8002;1.2377;
637.2000;0.8010;1.2479;
637.5000;0.7961;1.2504;
637.8000;0.7969;1.2529;
638.1000;0.7969;1.2479;
638.4000;0.7953;1.2402;
638.7000;0.7953;1.2428;
639.0000;0.7912;1.2377;
639.3000;0.7912;1.2326;
639.6000;0.7880;1.2250;
639.9000;0.7871;1.2301;
640.2000;0.7888;1.2352;
640.5000;0.7912;1.2428;
640.8000;0.7855;1.2250;
641.1000;0.7855;1.2326;
641.4000;0.7831;1.2326;
641.7000;0.7806;1.2428;
642.0000;0.7831;1.2631;
642.3000;0.7782;1.2580;
642.6000;0.7741;1.2479;
642.9000;0.7717;1.2402;
643.2000;0.7741;1.2479;
643.5000;0.7725;1.2504;
643.8000;0.7725;1.2479;
644.1000;0.7725;1.2402;
644.4000;0.7717;1.2402;
644.7000;0.7717;1.2428;
645.0000;0.7700;1.2377;
645.3000;0.7684;1.2402;
645.6000;0.7676;1.2377;
645.9000;0.7660;1.2326;
646.2000;0.7652;1.2301;
646.5000;0.7652;1.2301;
646.8000;0.7643;1.2276;
647.1000;0.7627;1.2225;
647.4000;0.7619;1.2301;
647.7000;0.7611;1.2276;
648.0000;0.7595;1.2276;
648.3000;0.7603;1.2326;
648.6000;0.7570;1.2225;
648.9000;0.7570;1.2326;
649.2000;0.7619;1.2529;
649.5000;0.7538;1.2301;
649.8000;0.7546;1.2326;
650.1000;0.7554;1.2301;
650.4000;0.7538;1.2301;
650.7000;0.7538;1.2225;
651.0000;0.7521;1.2301;
651.3000;0.7554;1.2479;
651.6000;0.7521;1.2479;
651.9000;0.7497;1.2479;
652.2000;0.7481;1.2402;
652.5000;0.7489;1.2377;
652.8000;0.7473;1.2301;
653.1000;0.7473;1.2352;
653.4000;0.7448;1.2225;
653.7000;0.7432;1.2073;
654.0000;0.7440;1.2073;
654.3000;0.7440;1.2047;
654.6000;0.7407;1.2047;
654.9000;0.7407;1.2022;
655.2000;0.7424;1.2123;
655.5000;0.7407;1.2073;
655.8000;0.7448;1.2200;
656.1000;0.7383;1.2047;
656.4000;0.7367;1.2022;
656.7000;0.7375;1.1997;
657.0000;0.7367;1.2047;
657.3000;0.7367;1.1997;
657.6000;0.7334;1.1946;
657.9000;0.7342;1.1895;
658.2000;0.7334;1.1921;
658.5000;0.7334;1.1921;
658.8000;0.7318;1.1946;
659.1000;0.7334;1.2022;
659.4000;0.7326;1.1997;
659.7000;0.7318;1.2022;
660.0000;0.7310;1.1997;
660.3000;0.7293;1.1971;
660.6000;0.7285;1.1921;
660.9000;0.7310;1.1946;
661.2000;0.7277;1.1971;
661.5000;0.7277;1.2098;
661.8000;0.7269;1.2098;
662.1000;0.7269;1.2098;
662.4000;0.7253;1.2047;
662.7000;0.7269;1.2047;
663.0000;0.7253;1.1946;
663.3000;0.7253;1.1921;
663.6000;0.7253;1.1921;
663.9000;0.7228;1.1997;
664.2000;0.7236;1.2098;
664.5000;0.7236;1.2149;
664.8000;0.7228;1.2200;
665.1000;0.7171;1.2149;
665.4000;0.7196;1.2301;
665.7000;0.7179;1.2301;
666.0000;0.7179;1.2352;
666.3000;0.7188;1.2428;
666.6000;0.7188;1.2377;
666.9000;0.7188;1.2276;
667.2000;0.7196;1.2250;
667.5000;0.7196;1.2250;
667.8000;0.7155;1.2225;
668.1000;0.7179;1.2250;
668.4000;0.7139;1.2123;
668.7000;0.7163;1.2149;
669.0000;0.7139;1.2098;
669.3000;0.7155;1.2098;
669.6000;0.7131;1.2073;
669.9000;0.7147;1.2047;
670.2000;0.7114;1.2022;
670.5000;0.7106;1.1997;
670.8000;0.7114;1.2098;
671.1000;0.7106;1.2200;
671.4000;0.7106;1.2174;
671.7000;0.7082;1.2174;
672.0000;0.7106;1.2301;
672.3000;0.7090;1.2225;
672.6000;0.7074;1.2174;
672.9000;0.7074;1.2301;
673.2000;0.7082;1.2326;
673.5000;0.7090;1.2225;
673.8000;0.7066;1.2225;
674.1000;0.7066;1.2276;
674.4000;0.7049;1.2225;
674.7000;0.7074;1.2276;
675.0000;0.7066;1.2276;
675.3000;0.7057;1.2276;
675.6000;0.7066;1.2276;
675.9000;0.7057;1.2225;
676.2000;0.7041;1.2073;
676.5000;0.7025;1.1997;
676.8000;0.7066;1.2047;
677.1000;0.7041;1.1946;
677.4000;0.7009;1.1971;
677.7000;0.7009;1.1921;
678.0000;0.7009;1.1921;
678.3000;0.7009;1.1895;
678.6000;0.7009;1.1921;
678.9000;0.7000;1.2022;
679.2000;0.6992;1.2073;
679.5000;0.7017;1.2149;
679.8000;0.7106;1.2428;
680.1000;0.7000;1.2200;
680.4000;0.7000;1.2149;
680.7000;0.7000;1.2149;
681.0000;0.6960;1.2123;
681.3000;0.6984;1.2149;
681.6000;0.6992;1.2149;
681.9000;0.6976;1.2174;
682.2000;0.6984;1.2225;
682.5000;0.6952;1.2098;
682.8000;0.6943;1.2073;
683.1000;0.6960;1.2047;
683.4000;0.6952;1.2073;
683.7000;0.6927;1.2098;
684.0000;0.6927;1.2047;
684.3000;0.6943;1.2022;
684.6000;0.6927;1.1971;
684.9000;0.6935;1.2022;
685.2000;0.6943;1.2073;
685.5000;0.6919;1.2047;
685.8000;0.6911;1.1971;
686.1000;0.6927;1.2022;
686.4000;0.6878;1.1946;
686.7000;0.6903;1.2047;
687.0000;0.6919;1.2098;
687.3000;0.6911;1.2123;
687.6000;0.6911;1.2123;
687.9000;0.6895;1.2149;
688.2000;0.6886;1.2174;
688.5000;0.6895;1.2225;
688.8000;0.6886;1.2225;
689.1000;0.6903;1.2250;
689.4000;0.6886;1.2149;
689.7000;0.6903;1.2174;
690.0000;0.6968;1.2352;
690.3000;0.6878;1.2098;
690.6000;0.6878;1.2123;
690.9000;0.6870;1.2123;
691.2000;0.6862;1.2098;
691.5000;0.6821;1.1971;
691.8000;0.6854;1.1997;
692.1000;0.6846;1.2047;
692.4000;0.6854;1.2022;
692.7000;0.6846;1.2073;
693.0000;0.6854;1.2098;
693.3000;0.6829;1.2047;
693.6000;0.6829;1.2073;
693.9000;0.6813;1.2047;
694.2000;0.6838;1.2149;
694.5000;0.6846;1.2250;
694.8000;0.6846;1.2174;
695.1000;0.6829;1.2073;
695.4000;0.6829;1.2149;
695.7000;0.6821;1.2098;
696.0000;0.6829;1.2149;
696.3000;0.6854;1.2225;
696.6000;0.6805;1.2200;
696.9000;0.6789;1.2073;
697.2000;0.6829;1.2123;
697.5000;0.6797;1.2098;
697.8000;0.6870;1.2200;
698.1000;0.6748;1.1870;
698.4000;0.6821;1.2047;
698.7000;0.6789;1.1946;
699.0000;0.6862;1.2174;
699.3000;0.6789;1.2073;
699.6000;0.6821;1.2149;
699.9000;0.6797;1.2149;
700.2000;0.6797;1.2200;
700.5000;0.6756;1.2073;
700.8000;0.6789;1.2301;
701.1000;0.6781;1.2301;
701.4000;0.6772;1.2276;
701.7000;0.6781;1.2276;
702.0000;0.6724;1.2174;
702.3000;0.6764;1.2352;
702.6000;0.6756;1.2301;
702.9000;0.6813;1.2504;
703.2000;0.6724;1.2326;
703.5000;0.6789;1.2529;
703.8000;0.6764;1.2504;
704.1000;0.6756;1.2529;
704.4000;0.6748;1.2504;
704.7000;0.6748;1.2605;
705.0000;0.6740;1.2580;
705.3000;0.6740;1.2605;
705.6000;0.6716;1.2555;
705.9000;0.6724;1.2529;
706.2000;0.6756;1.2656;
706.5000;0.6724;1.2580;
706.8000;0.6691;1.2479;
707.1000;0.6740;1.2656;
707.4000;0.6748;1.2732;
707.7000;0.6732;1.2732;
708.0000;0.6716;1.2707;
708.3000;0.6724;1.2681;
708.6000;0.6716;1.2656;
708.9000;0.6716;1.2631;
709.2000;0.6707;1.2529;
709.5000;0.6699;1.2529;
709.8000;0.6683;1.2529;
710.1000;0.6764;1.2732;
710.4000;0.6675;1.2453;
710.7000;0.6724;1.2529;
711.0000;0.6724;1.2529;
711.3000;0.6732;1.2479;
711.6000;0.6699;1.2402;
711.9000;0.6683;1.2402;
712.2000;0.6732;1.2479;
712.5000;0.6618;1.2200;
712.8000;0.6707;1.2555;
713.1000;0.6707;1.2555;
713.4000;0.6691;1.2453;
713.7000;0.6675;1.2504;
714.0000;0.6691;1.2504;
714.3000;0.6667;1.2504;
714.6000;0.6667;1.2453;
714.9000;0.6683;1.2529;
715.2000;0.6675;1.2402;
715.5000;0.6740;1.2605;
715.8000;0.6683;1.2453;
716.1000;0.6683;1.2453;
716.4000;0.6675;1.2504;
716.7000;0.6675;1.2428;
717.0000;0.6675;1.2377;
717.3000;0.6675;1.2377;
717.6000;0.6667;1.2326;
717.9000;0.6650;1.2352;
718.2000;0.6659;1.2326;
718.5000;0.6642;1.2352;
718.8000;0.6675;1.2453;
719.1000;0.6650;1.2301;
719.4000;0.6642;1.2123;
719.7000;0.6659;1.2174;
720.0000;0.6626;1.2073;
720.3000;0.6650;1.2225;
720.6000;0.6650;1.2174;
720.9000;0.6650;1.2225;
721.2000;0.6577;1.2047;
721.5000;0.6634;1.2301;
721.8000;0.6626;1.2276;
722.1000;0.6626;1.2200;
722.4000;0.6634;1.2123;
722.7000;0.6634;1.2225;
723.0000;0.6691;1.2428;
723.3000;0.6675;1.2326;
723.6000;0.6610;1.2225;
723.9000;0.6626;1.2301;
724.2000;0.6626;1.2326;
724.5000;0.6602;1.2276;
724.8000;0.6626;1.2326;
725.1000;0.6618;1.2352;
725.4000;0.6610;1.2326;
725.7000;0.6650;1.2453;
726.0000;0.6618;1.2326;
726.3000;0.6577;1.2276;
726.6000;0.6618;1.2428;
726.9000;0.6642;1.2504;
727.2000;0.6585;1.2352;
727.5000;0.6602;1.2377;
727.8000;0.6618;1.2326;
728.1000;0.6593;1.2301;
728.4000;0.6569;1.2200;
728.7000;0.6585;1.2250;
729.0000;0.6593;1.2276;
729.3000;0.6593;1.2250;
729.6000;0.6593;1.2200;
729.9000;0.6610;1.2174;
730.2000;0.6610;1.2301;
730.5000;0.6593;1.2276;
730.8000;0.6593;1.2377;
731.1000;0.6610;1.2428;
731.4000;0.6585;1.2276;
731.7000;0.6610;1.2250;
732.0000;0.6585;1.2276;
732.3000;0.6577;1.2250;
732.6000;0.6569;1.2225;
732.9000;0.6569;1.2276;
733.2000;0.6602;1.2402;
733.5000;0.6553;1.2301;
733.8000;0.6561;1.2352;
734.1000;0.6545;1.2504;
734.4000;0.6569;1.2428;
734.7000;0.6569;1.2402;
735.0000;0.6545;1.2377;
735.3000;0.6496;1.2276;
735.6000;0.6545;1.2428;
735.9000;0.6561;1.2428;
736.2000;0.6553;1.2453;
736.5000;0.6536;1.2377;
736.8000;0.6561;1.2479;
737.1000;0.6536;1.2479;
737.4000;0.6463;1.2301;
737.7000;0.6545;1.2453;
738.0000;0.6545;1.2479;
738.3000;0.6536;1.2428;
738.6000;0.6431;1.2225;
738.9000;0.6528;1.2479;
739.2000;0.6553;1.2529;
739.5000;0.6536;1.2479;
739.8000;0.6520;1.2428;
740.1000;0.6545;1.2428;
740.4000;0.6536;1.2453;
740.7000;0.6520;1.2402;
741.0000;0.6536;1.2504;
741.3000;0.6528;1.2453;
741.6000;0.6520;1.2605;
741.9000;0.6536;1.2631;
742.2000;0.6536;1.2555;
742.5000;0.6520;1.2428;
742.8000;0.6528;1.2529;
743.1000;0.6528;1.2453;
743.4000;0.6496;1.2479;
743.7000;0.6520;1.2504;
744.0000;0.6520;1.2479;
744.3000;0.6520;1.2504;
744.6000;0.6512;1.2453;
744.9000;0.6520;1.2428;
745.2000;0.6504;1.2479;
745.5000;0.6504;1.2479;
745.8000;0.6528;1.2555;
746.1000;0.6585;1.2656;
746.4000;0.6496;1.2402;
746.7000;0.6520;1.2479;
747.0000;0.6504;1.2453;
747.3000;0.6496;1.2479;
747.6000;0.6496;1.2529;
747.9000;0.6504;1.2605;
748.2000;0.6504;1.2555;
748.5000;0.6496;1.2580;
748.8000;0.6479;1.2479;
749.1000;0.6488;1.2479;
749.4000;0.6504;1.2529;
749.7000;0.6479;1.2428;
750.0000;0.6479;1.2479;
750.3000;0.6504;1.2529;
750.6000;0.6488;1.2555;
750.9000;0.6488;1.2555;
751.2000;0.6479;1.2529;
751.5000;0.6471;1.2555;
751.8000;0.6488;1.2529;
752.1000;0.6479;1.2555;
752.4000;0.6471;1.2504;
752.7000;0.6496;1.2529;
753.0000;0.6488;1.2479;
753.3000;0.6496;1.2555;
753.6000;0.6504;1.2529;
753.9000;0.6488;1.2428;
754.2000;0.6488;1.2504;
754.5000;0.6488;1.2453;
754.8000;0.6455;1.2453;
755.1000;0.6455;1.2479;
755.4000;0.6463;1.2580;
755.7000;0.6488;1.2605;
756.0000;0.6455;1.2479;
756.3000;0.6496;1.2479;
756.6000;0.6471;1.2402;
756.9000;0.6463;1.2352;
757.2000;0.6479;1.2402;
757.5000;0.6479;1.2377;
757.8000;0.6455;1.2402;
758.1000;0.6504;1.2580;
758.4000;0.6463;1.2555;
758.7000;0.6455;1.2580;
759.0000;0.6439;1.2580;
759.3000;0.6471;1.2732;
759.6000;0.6463;1.2783;
759.9000;0.6471;1.2783;
760.2000;0.6455;1.2681;
760.5000;0.6496;1.2656;
760.8000;0.6447;1.2479;
761.1000;0.6447;1.2479;
761.4000;0.6431;1.2453;
761.7000;0.6447;1.2504;
762.0000;0.6455;1.2479;
762.3000;0.6463;1.2504;
762.6000;0.6447;1.2402;
762.9000;0.6447;1.2453;
763.2000;0.6463;1.2402;
763.5000;0.6447;1.2326;
763.8000;0.6439;1.2250;
764.1000;0.6439;1.2250;
764.4000;0.6439;1.2225;
764.7000;0.6439;1.2301;
765.0000;0.6422;1.2301;
765.3000;0.6439;1.2352;
765.6000;0.6431;1.2377;
765.9000;0.6447;1.2377;
766.2000;0.6439;1.2352;
766.5000;0.6414;1.2326;
766.8000;0.6431;1.2352;
767.1000;0.6406;1.2250;
767.4000;0.6447;1.2326;
767.7000;0.6431;1.2276;
768.0000;0.6447;1.2352;
768.3000;0.6455;1.2250;
768.6000;0.6431;1.2276;
768.9000;0.6406;1.2352;
769.2000;0.6520;1.2555;
769.5000;0.6406;1.2352;
769.8000;0.6422;1.2377;
770.1000;0.6439;1.2453;
770.4000;0.6349;1.2352;
770.7000;0.6414;1.2428;
771.0000;0.6422;1.2402;
771.3000;0.6349;1.2149;
771.6000;0.6414;1.2377;
771.9000;0.6422;1.2377;
772.2000;0.6414;1.2352;
772.5000;0.6431;1.2301;
772.8000;0.6406;1.2225;
773.1000;0.6431;1.2377;
773.4000;0.6422;1.2377;
773.7000;0.6414;1.2377;
774.0000;0.6422;1.2428;
774.3000;0.6398;1.2352;
774.6000;0.6374;1.2377;
774.9000;0.6422;1.2402;
775.2000;0.6398;1.2377;
775.5000;0.6398;1.2453;
775.8000;0.6414;1.2453;
776.1000;0.6406;1.2529;
776.4000;0.6406;1.2529;
776.7000;0.6227;1.1997;
777.0000;0.6406;1.2504;
777.3000;0.6398;1.2453;
777.6000;0.6406;1.2428;
777.9000;0.6374;1.2402;
778.2000;0.6422;1.2479;
778.5000;0.6422;1.2555;
778.8000;0.6439;1.2605;
779.1000;0.6390;1.2402;
779.4000;0.6398;1.2402;
779.7000;0.6365;1.2352;
780.0000;0.6284;1.2047;
780.3000;0.6390;1.2276;
780.6000;0.6365;1.2200;
780.9000;0.6406;1.2326;
781.2000;0.6390;1.2352;
781.5000;0.6398;1.2428;
781.8000;0.6398;1.2453;
782.1000;0.6382;1.2428;
782.4000;0.6398;1.2352;
782.7000;0.6398;1.2453;
783.0000;0.6406;1.2529;
783.3000;0.6406;1.2555;
783.6000;0.6382;1.2555;
783.9000;0.6390;1.2529;
784.2000;0.6463;1.2808;
784.5000;0.6349;1.2605;
784.8000;0.6374;1.2631;
785.1000;0.6390;1.2580;
785.4000;0.6374;1.2555;
785.7000;0.6390;1.2555;
786.0000;0.6317;1.2428;
786.3000;0.6374;1.2555;
786.6000;0.6374;1.2555;
786.9000;0.6382;1.2631;
787.2000;0.6349;1.2453;
787.5000;0.6374;1.2479;
787.8000;0.6406;1.2555;
788.1000;0.6431;1.2580;
788.4000;0.6349;1.2428;
788.7000;0.6390;1.2504;
789.0000;0.6382;1.2529;
789.3000;0.6382;1.2453;
789.6000;0.6365;1.2377;
789.9000;0.6349;1.2352;
790.2000;0.6357;1.2377;
790.5000;0.6341;1.2352;
790.8000;0.6414;1.2529;
791.1000;0.6341;1.2326;
791.4000;0.6365;1.2402;
791.7000;0.6349;1.2453;
792.0000;0.6333;1.2479;
792.3000;0.6317;1.2402;
792.6000;0.6349;1.2453;
792.9000;0.6390;1.2529;
793.2000;0.6325;1.2352;
793.5000;0.6422;1.2504;
793.8000;0.6357;1.2326;
794.1000;0.6349;1.2377;
794.4000;0.6341;1.2402;
794.7000;0.6333;1.2326;
795.0000;0.6406;1.2479;
795.3000;0.6349;1.2352;
795.6000;0.6276;1.2123;
795.9000;0.6357;1.2276;
796.2000;0.6333;1.2250;
796.5000;0.6227;1.1946;
796.8000;0.6349;1.2352;
797.1000;0.6365;1.2377;
797.4000;0.6325;1.2301;
797.7000;0.6325;1.2301;
798.0000;0.6349;1.2301;
798.3000;0.6349;1.2352;
798.6000;0.6325;1.2326;
798.9000;0.6341;1.2402;
799.2000;0.6333;1.2402;
799.5000;0.6317;1.2402;
799.8000;0.6333;1.2453;
800.1000;0.6325;1.2453;
800.4000;0.6349;1.2504;
800.7000;0.6243;1.2225;
801.0000;0.6309;1.2326;
801.3000;0.6309;1.2428;
801.6000;0.6317;1.2479;
801.9000;0.6309;1.2479;
802.2000;0.6300;1.2428;
802.5000;0.6317;1.2479;
802.8000;0.6317;1.2428;
803.1000;0.6309;1.2479;
803.4000;0.6333;1.2555;
803.7000;0.6333;1.2529;
804.0000;0.6374;1.2580;
804.3000;0.6317;1.2453;
804.6000;0.6317;1.2428;
804.9000;0.6341;1.2453;
805.2000;0.6317;1.2352;
805.5000;0.6333;1.2453;
805.8000;0.6292;1.2352;
806.1000;0.6300;1.2402;
806.4000;0.6390;1.2631;
806.7000;0.6317;1.2555;
807.0000;0.6284;1.2504;
807.3000;0.6317;1.2555;
807.6000;0.6333;1.2732;
807.9000;0.6325;1.2681;
808.2000;0.6317;1.2605;
808.5000;0.6317;1.2529;
808.8000;0.6309;1.2453;
809.1000;0.6317;1.2377;
809.4000;0.6333;1.2504;
809.7000;0.6317;1.2352;
810.0000;0.6292;1.2301;
810.3000;0.6309;1.2453;
810.6000;0.6317;1.2504;
810.9000;0.6317;1.2605;
811.2000;0.6357;1.2605;
811.5000;0.6284;1.2428;
811.8000;0.6300;1.2479;
812.1000;0.6292;1.2428;
812.4000;0.6300;1.2555;
812.7000;0.6317;1.2707;
813.0000;0.6414;1.2986;
813.3000;0.6317;1.2605;
813.6000;0.6317;1.2631;
813.9000;0.6349;1.2555;
814.2000;0.6268;1.2377;
814.5000;0.6300;1.2479;
814.8000;0.6292;1.2402;
815.1000;0.6300;1.2479;
815.4000;0.6317;1.2504;
815.7000;0.6300;1.2504;
816.0000;0.6284;1.2428;
816.3000;0.6284;1.2428;
816.6000;0.6309;1.2529;
816.9000;0.6325;1.2580;
817.2000;0.6292;1.2605;
817.5000;0.6365;1.2681;
817.8000;0.6333;1.2580;
818.1000;0.6284;1.2555;
818.4000;0.6325;1.2656;
818.7000;0.6300;1.2605;
819.0000;0.6292;1.2529;
819.3000;0.6382;1.2656;
819.6000;0.6300;1.2402;
819.9000;0.6300;1.2529;
820.2000;0.6292;1.2504;
820.5000;0.6284;1.2504;
820.8000;0.6268;1.2504;
821.1000;0.6284;1.2631;
821.4000;0.6292;1.2580;
821.7000;0.6260;1.2504;
822.0000;0.6276;1.2605;
822.3000;0.6284;1.2656;
822.6000;0.6292;1.2707;
822.9000;0.6292;1.2732;
823.2000;0.6292;1.2656;
823.5000;0.6268;1.2656;
823.8000;0.6284;1.2707;
824.1000;0.6276;1.2783;
824.4000;0.6268;1.2834;
824.7000;0.6284;1.2859;
825.0000;0.6276;1.2834;
825.3000;0.6284;1.2783;
825.6000;0.6284;1.2732;
825.9000;0.6300;1.2758;
826.2000;0.6276;1.2656;
826.5000;0.6292;1.2656;
826.8000;0.6284;1.2529;
827.1000;0.6284;1.2504;
827.4000;0.6276;1.2479;
827.7000;0.6268;1.2555;
828.0000;0.6284;1.2504;
828.3000;0.6276;1.2453;
828.6000;0.6268;1.2377;
828.9000;0.6292;1.2529;
829.2000;0.6284;1.2428;
829.5000;0.6276;1.2453;
829.8000;0.6284;1.2555;
830.1000;0.6170;1.2250;
830.4000;0.6268;1.2529;
830.7000;0.6260;1.2504;
831.0000;0.6243;1.2504;
831.3000;0.6162;1.2276;
831.6000;0.6260;1.2580;
831.9000;0.6276;1.2656;
832.2000;0.6268;1.2529;
832.5000;0.6260;1.2453;
832.8000;0.6268;1.2529;
833.1000;0.6243;1.2453;
833.4000;0.6252;1.2428;
833.7000;0.6268;1.2428;
834.0000;0.6243;1.2428;
834.3000;0.6268;1.2453;
834.6000;0.6260;1.2479;
834.9000;0.6227;1.2377;
835.2000;0.6243;1.2352;
835.5000;0.6260;1.2402;
835.8000;0.6276;1.2453;
836.1000;0.6292;1.2479;
836.4000;0.6260;1.2453;
836.7000;0.6268;1.2504;
837.0000;0.6284;1.2681;
837.3000;0.6227;1.2555;
837.6000;0.6260;1.2656;
837.9000;0.6243;1.2580;
838.2000;0.6260;1.2656;
838.5000;0.6276;1.2656;
838.8000;0.6186;1.2377;
839.1000;0.6227;1.2504;
839.4000;0.6252;1.2555;
839.7000;0.6260;1.2555;
840.0000;0.6276;1.2631;
840.3000;0.6317;1.2707;
840.6000;0.6341;1.2732;
840.9000;0.6260;1.2529;
841.2000;0.6260;1.2529;
841.5000;0.6260;1.2453;
841.8000;0.6243;1.2352;
842.1000;0.6252;1.2428;
842.4000;0.6260;1.2428;
842.7000;0.6317;1.2555;
843.0000;0.6260;1.2402;
843.3000;0.6243;1.2479;
843.6000;0.6260;1.2529;
843.9000;0.6252;1.2555;
844.2000;0.6243;1.2377;
844.5000;0.6227;1.2352;
844.8000;0.6252;1.2352;
845.1000;0.6268;1.2428;
845.4000;0.6219;1.2276;
845.7000;0.6219;1.2250;
846.0000;0.6252;1.2402;
846.3000;0.6243;1.2402;
846.6000;0.6121;1.2073;
846.9000;0.6235;1.2377;
847.2000;0.6260;1.2377;
847.5000;0.6252;1.2453;
847.8000;0.6227;1.2428;
848.1000;0.6227;1.2402;
848.4000;0.6219;1.2428;
848.7000;0.6276;1.2605;
849.0000;0.6243;1.2479;
849.3000;0.6227;1.2326;
849.6000;0.6243;1.2402;
849.9000;0.6252;1.2402;
850.2000;0.6235;1.2428;
850.5000;0.6260;1.2479;
850.8000;0.6211;1.2276;
851.1000;0.6252;1.2402;
851.4000;0.6243;1.2402;
851.7000;0.6235;1.2352;
852.0000;0.6219;1.2352;
852.3000;0.6276;1.2631;
852.6000;0.6227;1.2555;
852.9000;0.6235;1.2555;
853.2000;0.6227;1.2555;
853.5000;0.6260;1.2681;
853.8000;0.6162;1.2402;
854.1000;0.6252;1.2681;
854.4000;0.6219;1.2681;
854.7000;0.6227;1.2681;
855.0000;0.6260;1.2808;
855.3000;0.6390;1.3062;
855.6000;0.6252;1.2656;
855.9000;0.6195;1.2377;
856.2000;0.6243;1.2504;
856.5000;0.6268;1.2605;
856.8000;0.6186;1.2402;
857.1000;0.6211;1.2402;
857.4000;0.6219;1.2479;
857.7000;0.6211;1.2453;
858.0000;0.6227;1.2580;
858.3000;0.6219;1.2631;
858.6000;0.6227;1.2758;
858.9000;0.6219;1.2808;
859.2000;0.6235;1.2758;
859.5000;0.6235;1.2783;
859.8000;0.6227;1.2707;
860.1000;0.6227;1.2758;
860.4000;0.6219;1.2732;
860.7000;0.6219;1.2631;
861.0000;0.6227;1.2580;
861.3000;0.6235;1.2580;
861.6000;0.6227;1.2580;
861.9000;0.6219;1.2555;
862.2000;0.6235;1.2580;
862.5000;0.6219;1.2555;
862.8000;0.6227;1.2555;
863.1000;0.6219;1.2428;
863.4000;0.6211;1.2479;
863.7000;0.6219;1.2529;
864.0000;0.6227;1.2605;
864.3000;0.6219;1.2580;
864.6000;0.6219;1.2504;
864.9000;0.6203;1.2555;
865.2000;0.6203;1.2479;
865.5000;0.6195;1.2352;
865.8000;0.6211;1.2326;
866.1000;0.6211;1.2377;
866.4000;0.6219;1.2402;
866.7000;0.6235;1.2377;
867.0000;0.6211;1.2301;
867.3000;0.6211;1.2377;
867.6000;0.6235;1.2504;
867.9000;0.6219;1.2529;
868.2000;0.6195;1.2529;
868.5000;0.6203;1.2504;
868.8000;0.6211;1.2504;
869.1000;0.6211;1.2479;
869.4000;0.6219;1.2428;
869.7000;0.6227;1.2377;
870.0000;0.6219;1.2402;
870.3000;0.6227;1.2453;
870.6000;0.6219;1.2453;
870.9000;0.6203;1.2479;
871.2000;0.6219;1.2504;
871.5000;0.6211;1.2479;
871.8000;0.6219;1.2479;
872.1000;0.6211;1.2605;
872.4000;0.6211;1.2580;
872.7000;0.6203;1.2555;
873.0000;0.6235;1.2580;
873.3000;0.6211;1.2529;
873.6000;0.6243;1.2555;
873.9000;0.6195;1.2453;
874.2000;0.6227;1.2580;
874.5000;0.6227;1.2580;
874.8000;0.6195;1.2453;
875.1000;0.6219;1.2428;
875.4000;0.6203;1.2377;
875.7000;0.6211;1.2377;
876.0000;0.6260;1.2428;
876.3000;0.6243;1.2428;
876.6000;0.6227;1.2479;
876.9000;0.6317;1.2859;
877.2000;0.6219;1.2631;
877.5000;0.6186;1.2631;
877.8000;0.6284;1.2935;
878.1000;0.6211;1.2656;
878.4000;0.6268;1.2681;
878.7000;0.6203;1.2529;
879.0000;0.6219;1.2605;
879.3000;0.6195;1.2605;
879.6000;0.6203;1.2555;
879.9000;0.6235;1.2707;
880.2000;0.6186;1.2529;
880.5000;0.6227;1.2580;
880.8000;0.6186;1.2453;
881.1000;0.6195;1.2479;
881.4000;0.6195;1.2504;
881.7000;0.6121;1.2276;
882.0000;0.6203;1.2453;
882.3000;0.6235;1.2605;
882.6000;0.6195;1.2529;
882.9000;0.6195;1.2428;
883.2000;0.6211;1.2479;
883.5000;0.6211;1.2504;
883.8000;0.6195;1.2479;
884.1000;0.6195;1.2605;
884.4000;0.6203;1.2580;
884.7000;0.6178;1.2479;
885.0000;0.6186;1.2453;
885.3000;0.6203;1.2479;
885.6000;0.6186;1.2479;
885.9000;0.6195;1.2555;
886.2000;0.6195;1.2555;
886.5000;0.6178;1.2479;
886.8000;0.6211;1.2555;
887.1000;0.6186;1.2555;
887.4000;0.6186;1.2504;
887.7000;0.6203;1.2504;
888.0000;0.6211;1.2504;
888.3000;0.6186;1.2479;
888.6000;0.6195;1.2555;
888.9000;0.6089;1.2250;
889.2000;0.6186;1.2529;
889.5000;0.6178;1.2529;
889.8000;0.6178;1.2453;
890.1000;0.6186;1.2479;
890.4000;0.6186;1.2529;
890.7000;0.6203;1.2656;
891.0000;0.6186;1.2605;
891.3000;0.6186;1.2580;
891.6000;0.6186;1.2631;
891.9000;0.6195;1.2707;
892.2000;0.6203;1.2732;
892.5000;0.6186;1.2631;
892.8000;0.6195;1.2580;
893.1000;0.6195;1.2631;
893.4000;0.6186;1.2631;
893.7000;0.6195;1.2605;
894.0000;0.6178;1.2555;
894.3000;0.6170;1.2580;
894.6000;0.6195;1.2605;
894.9000;0.6138;1.2555;
895.2000;0.6178;1.2707;
895.5000;0.6203;1.2732;
895.8000;0.6129;1.2453;
896.1000;0.6195;1.2631;
896.4000;0.6203;1.2656;
896.7000;0.6219;1.2707;
897.0000;0.6186;1.2555;
897.3000;0.6178;1.2479;
897.6000;0.6186;1.2529;
897.9000;0.6138;1.2529;
898.2000;0.6162;1.2732;
898.5000;0.6195;1.2732;
898.8000;0.6178;1.2707;
899.1000;0.6178;1.2707;
899.4000;0.6195;1.2758;
899.7000;0.6195;1.2808;
900.0000;0.6227;1.2834;
900.3000;0.6195;1.2681;
900.6000;0.6178;1.2758;
900.9000;0.6178;1.2783;
901.2000;0.6186;1.2758;
901.5000;0.6186;1.2758;
901.8000;0.6195;1.2732;
902.1000;0.6105;1.2479;
902.4000;0.6178;1.2631;
902.7000;0.6178;1.2605;
903.0000;0.6146;1.2453;
903.3000;0.6154;1.2479;
903.6000;0.6178;1.2479;
903.9000;0.6162;1.2504;
904.2000;0.6154;1.2428;
904.5000;0.6162;1.2580;
904.8000;0.6154;1.2631;
905.1000;0.6170;1.2681;
905.4000;0.6154;1.2681;
905.7000;0.6162;1.2656;
906.0000;0.6121;1.2605;
906.3000;0.6252;1.2910;
906.6000;0.6178;1.2783;
906.9000;0.6178;1.2783;
907.2000;0.6178;1.2783;
907.5000;0.6170;1.2808;
907.8000;0.6235;1.3037;
908.1000;0.6203;1.2960;
908.4000;0.6178;1.2910;
908.7000;0.6170;1.2834;
909.0000;0.6170;1.2808;
909.3000;0.6081;1.2529;
909.6000;0.6178;1.2783;
909.9000;0.6178;1.2707;
910.2000;0.6146;1.2707;
910.5000;0.6162;1.2834;
910.8000;0.6129;1.2834;
911.1000;0.6113;1.2808;
911.4000;0.6170;1.2758;
911.7000;0.6162;1.2707;
912.0000;0.6170;1.2707;
912.3000;0.6186;1.2707;
912.6000;0.6178;1.2631;
912.9000;0.6178;1.2605;
913.2000;0.6195;1.2555;
913.5000;0.6178;1.2529;
913.8000;0.6138;1.2402;
914.1000;0.6178;1.2580;
914.4000;0.6170;1.2504;
914.7000;0.6195;1.2631;
915.0000;0.6170;1.2529;
915.3000;0.6146;1.2529;
915.6000;0.6129;1.2580;
915.9000;0.6186;1.2758;
916.2000;0.6146;1.2681;
916.5000;0.6154;1.2580;
916.8000;0.6138;1.2453;
917.1000;0.6162;1.2529;
917.4000;0.6178;1.2529;
917.7000;0.6178;1.2605;
918.0000;0.6170;1.2453;
918.3000;0.6170;1.2453;
918.6000;0.6186;1.2504;
918.9000;0.6178;1.2529;
919.2000;0.6170;1.2631;
919.5000;0.6170;1.2631;
919.8000;0.6170;1.2605;
920.1000;0.6162;1.2605;
920.4000;0.6162;1.2656;
920.7000;0.6170;1.2707;
921.0000;0.6154;1.2681;
921.3000;0.6170;1.2732;
921.6000;0.6154;1.2656;
921.9000;0.6146;1.2681;
922.2000;0.6138;1.2707;
922.5000;0.6146;1.2758;
922.8000;0.6162;1.2707;
923.1000;0.6170;1.2808;
923.4000;0.6170;1.2758;
923.7000;0.6162;1.2707;
924.0000;0.6162;1.2656;
924.3000;0.6170;1.2732;
924.6000;0.6146;1.2681;
924.9000;0.6162;1.2681;
925.2000;0.6146;1.2707;
925.5000;0.6129;1.2707;
925.8000;0.6146;1.2681;
926.1000;0.6146;1.2758;
926.4000;0.6154;1.2707;
926.7000;0.6170;1.2656;
927.0000;0.6162;1.2681;
927.3000;0.6162;1.2758;
927.6000;0.6211;1.2884;
927.9000;0.6154;1.2834;
928.2000;0.6138;1.2758;
928.5000;0.6154;1.2808;
928.8000;0.6146;1.2707;
929.1000;0.6105;1.2479;
929.4000;0.6162;1.2681;
929.7000;0.6081;1.2580;
930.0000;0.6162;1.2834;
930.3000;0.6162;1.2884;
930.6000;0.6146;1.2834;
930.9000;0.6146;1.2808;
931.2000;0.6129;1.2783;
931.5000;0.6138;1.2783;
931.8000;0.6138;1.2681;
932.1000;0.6146;1.2732;
932.4000;0.6170;1.2758;
932.7000;0.6146;1.2631;
933.0000;0.6154;1.2555;
933.3000;0.6211;1.2681;
933.6000;0.6154;1.2555;
933.9000;0.6146;1.2605;
934.2000;0.6178;1.2732;
934.5000;0.6170;1.2758;
934.8000;0.6162;1.2681;
935.1000;0.6146;1.2656;
935.4000;0.6170;1.2707;
935.7000;0.6219;1.2859;
936.0000;0.6170;1.2681;
936.3000;0.6154;1.2707;
936.6000;0.6170;1.2707;
936.9000;0.6138;1.2656;
937.2000;0.6138;1.2758;
937.5000;0.6154;1.2808;
937.8000;0.6162;1.2656;
938.1000;0.6154;1.2504;
938.4000;0.6162;1.2453;
938.7000;0.6162;1.2504;
939.0000;0.6154;1.2479;
939.3000;0.6146;1.2504;
939.6000;0.6178;1.2631;
939.9000;0.6186;1.2555;
940.2000;0.6170;1.2479;
940.5000;0.6154;1.2555;
940.8000;0.6129;1.2402;
941.1000;0.6138;1.2377;
941.4000;0.6146;1.2402;
941.7000;0.6154;1.2504;
942.0000;0.6162;1.2605;
942.3000;0.6162;1.2707;
942.6000;0.6162;1.2732;
942.9000;0.6040;1.2402;
943.2000;0.6129;1.2656;
943.5000;0.6195;1.2783;
943.8000;0.6138;1.2681;
944.1000;0.6170;1.2656;
944.4000;0.6121;1.2504;
944.7000;0.6113;1.2631;
945.0000;0.6129;1.2707;
945.3000;0.6129;1.2656;
945.6000;0.6138;1.2656;
945.9000;0.6081;1.2504;
946.2000;0.6129;1.2580;
946.5000;0.6154;1.2707;
946.8000;0.6138;1.2707;
947.1000;0.6162;1.2707;
947.4000;0.6064;1.2504;
947.7000;0.6154;1.2707;
948.0000;0.6121;1.2732;
948.3000;0.6317;1.3290;
948.6000;0.6146;1.2758;
948.9000;0.6121;1.2732;
949.2000;0.6162;1.2758;
949.5000;0.6186;1.2834;
949.8000;0.6129;1.2758;
950.1000;0.6121;1.2732;
950.4000;0.6138;1.2783;
950.7000;0.6138;1.2783;
951.0000;0.6105;1.2631;
951.3000;0.6146;1.2783;
951.6000;0.6154;1.2834;
951.9000;0.6113;1.2707;
952.2000;0.6121;1.2758;
952.5000;0.6138;1.2808;
952.8000;0.6121;1.2834;
953.1000;0.6129;1.2732;
953.4000;0.6129;1.2732;
953.7000;0.6162;1.2859;
954.0000;0.6138;1.2732;
954.3000;0.6146;1.2758;
954.6000;0.6129;1.2808;
954.9000;0.6129;1.2707;
955.2000;0.6138;1.2707;
955.5000;0.6121;1.2758;
955.8000;0.6129;1.2808;
956.1000;0.6121;1.2783;
956.4000;0.6129;1.2834;
956.7000;0.6138;1.2834;
957.0000;0.6138;1.2834;
957.3000;0.6129;1.2707;
957.6000;0.6105;1.2681;
957.9000;0.6138;1.2758;
958.2000;0.6097;1.2580;
958.5000;0.6121;1.2504;
958.8000;0.6121;1.2580;
959.1000;0.6154;1.2580;
959.4000;0.6121;1.2555;
959.7000;0.6146;1.2681;
960.0000;0.6146;1.2732;
960.3000;0.6138;1.2808;
960.6000;0.6138;1.2884;
960.9000;0.6138;1.2859;
961.2000;0.6113;1.2758;
961.5000;0.6105;1.2631;
961.8000;0.6138;1.2605;
962.1000;0.6113;1.2504;
962.4000;0.6138;1.2605;
962.7000;0.6138;1.2631;
963.0000;0.6129;1.2631;
963.3000;0.6129;1.2707;
963.6000;0.6113;1.2681;
963.9000;0.6113;1.2631;
964.2000;0.6121;1.2656;
964.5000;0.6154;1.2732;
964.8000;0.6146;1.2656;
965.1000;0.6105;1.2555;
965.4000;0.6129;1.2605;
965.7000;0.6129;1.2479;
966.0000;0.6138;1.2453;
966.3000;0.6121;1.2402;
966.6000;0.6129;1.2402;
966.9000;0.6121;1.2377;
967.2000;0.6138;1.2377;
967.5000;0.6146;1.2453;
967.8000;0.6081;1.2352;
968.1000;0.6129;1.2529;
968.4000;0.6081;1.2453;
968.7000;0.6105;1.2529;
969.0000;0.6015;1.2276;
969.3000;0.6129;1.2555;
969.6000;0.6113;1.2529;
969.9000;0.6121;1.2529;
970.2000;0.6113;1.2428;
970.5000;0.6121;1.2453;
970.8000;0.6097;1.2453;
971.1000;0.6154;1.2656;
971.4000;0.6121;1.2504;
971.7000;0.6129;1.2605;
972.0000;0.6129;1.2605;
972.3000;0.6081;1.2580;
972.6000;0.6178;1.2834;
972.9000;0.6129;1.2732;
973.2000;0.6072;1.2580;
973.5000;0.6195;1.2834;
973.8000;0.6072;1.2605;
974.1000;0.6105;1.2681;
974.4000;0.6178;1.2859;
974.7000;0.6121;1.2783;
975.0000;0.6129;1.2783;
975.3000;0.6146;1.2681;
975.6000;0.6121;1.2631;
975.9000;0.6129;1.2758;
976.2000;0.6162;1.2884;
976.5000;0.6064;1.2631;
976.8000;0.6113;1.2758;
977.1000;0.6121;1.2783;
977.4000;0.6105;1.2707;
977.7000;0.6129;1.2707;
978.0000;0.6113;1.2681;
978.3000;0.6121;1.2732;
978.6000;0.6129;1.2732;
978.9000;0.6121;1.2732;
979.2000;0.6064;1.2656;
979.5000;0.6113;1.2758;
979.8000;0.6113;1.2884;
980.1000;0.6113;1.3011;
980.4000;0.6129;1.3087;
980.7000;0.6105;1.3037;
981.0000;0.6105;1.3113;
981.3000;0.6129;1.3214;
981.6000;0.6105;1.3138;
981.9000;0.6129;1.3113;
982.2000;0.6138;1.2986;
982.5000;0.6121;1.2884;
982.8000;0.6105;1.2834;
983.1000;0.6121;1.2808;
983.4000;0.6129;1.2834;
983.7000;0.6121;1.2884;
984.0000;0.6089;1.2783;
984.3000;0.6138;1.2935;
984.6000;0.6129;1.2986;
984.9000;0.6162;1.3087;
985.2000;0.6129;1.2960;
985.5000;0.6064;1.2681;
985.8000;0.6105;1.2808;
986.1000;0.6081;1.2758;
986.4000;0.6129;1.2935;
986.7000;0.6105;1.2884;
987.0000;0.6154;1.3113;
987.3000;0.6129;1.2986;
987.6000;0.6129;1.2808;
987.9000;0.6113;1.2707;
988.2000;0.6105;1.2681;
988.5000;0.6138;1.2631;
988.8000;0.6121;1.2580;
989.1000;0.6146;1.2605;
989.4000;0.6129;1.2681;
989.7000;0.6129;1.2707;
990.0000;0.6113;1.2707;
990.3000;0.6129;1.2707;
990.6000;0.6121;1.2758;
990.9000;0.6113;1.2681;
991.2000;0.6105;1.2681;
991.5000;0.6121;1.2758;
991.8000;0.6081;1.2631;
992.1000;0.6129;1.2783;
992.4000;0.6121;1.2783;
992.7000;0.6138;1.2783;
993.0000;0.6252;1.3062;
993.3000;0.6129;1.2707;
993.6000;0.6113;1.2707;
993.9000;0.6113;1.2707;
994.2000;0.6089;1.2656;
994.5000;0.6113;1.2631;
994.8000;0.6121;1.2605;
995.1000;0.6113;1.2580;
995.4000;0.6203;1.2859;
995.7000;0.6097;1.2605;
996.0000;0.6121;1.2732;
996.3000;0.6113;1.2808;
996.6000;0.6121;1.2859;
996.9000;0.6113;1.2808;
997.2000;0.6178;1.2986;
997.5000;0.6113;1.2884;
997.8000;0.6113;1.2808;
998.1000;0.6129;1.2834;
998.4000;0.6105;1.2707;
998.7000;0.6121;1.2732;
999.0000;0.6162;1.2859;
999.3000;0.6105;1.2605;
999.6000;0.6113;1.2681;
999.9000;0.6113;1.2631;
1000.2000;0.6064;1.2555;
1000.5000;0.6121;1.2732;
1000.8000;0.6121;1.2758;
1001.1000;0.6113;1.2783;
1001.4000;0.6097;1.2656;
1001.7000;0.6129;1.2707;
1002.0000;0.6105;1.2732;
1002.3000;0.6024;1.2555;
1002.6000;0.6154;1.2783;
1002.9000;0.6105;1.2656;
1003.2000;0.6097;1.2707;
1003.5000;0.6113;1.2758;
1003.8000;0.6129;1.2681;
1004.1000;0.6203;1.2859;
1004.4000;0.6121;1.2555;
1004.7000;0.6105;1.2555;
1005.0000;0.6138;1.2707;
1005.3000;0.6105;1.2732;
1005.6000;0.6097;1.2783;
1005.9000;0.6129;1.2834;
1006.2000;0.6081;1.2732;
1006.5000;0.6121;1.2783;
1006.8000;0.6089;1.2707;
1007.1000;0.6064;1.2631;
1007.4000;0.6129;1.2808;
1007.7000;0.6113;1.2732;
1008.0000;0.6097;1.2707;
1008.3000;0.6113;1.2783;
1008.6000;0.6064;1.2681;
1008.9000;0.6113;1.2859;
1009.2000;0.6097;1.2834;
1009.5000;0.6105;1.2859;
1009.8000;0.6081;1.2808;
1010.1000;0.6105;1.2935;
1010.4000;0.6089;1.2783;
1010.7000;0.6089;1.2808;
1011.0000;0.6146;1.2884;
1011.3000;0.6113;1.2783;
1011.6000;0.6178;1.2960;
1011.9000;0.6121;1.2859;
1012.2000;0.6113;1.2732;
1012.5000;0.6105;1.2758;
1012.8000;0.6146;1.2910;
1013.1000;0.6089;1.2834;
1013.4000;0.6113;1.2910;
1013.7000;0.6105;1.2884;
1014.0000;0.6113;1.2783;
1014.3000;0.6105;1.2732;
1014.6000;0.6105;1.2808;
1014.9000;0.6089;1.2783;
1015.2000;0.6129;1.2986;
1015.5000;0.6105;1.2910;
1015.8000;0.6081;1.2884;
1016.1000;0.6097;1.2884;
1016.4000;0.6113;1.2884;
1016.7000;0.6105;1.2960;
1017.0000;0.6032;1.2758;
1017.3000;0.6056;1.2783;
1017.6000;0.6113;1.2910;
1017.9000;0.6129;1.2986;
1018.2000;0.6154;1.2986;
1018.5000;0.6105;1.2834;
1018.8000;0.6072;1.2758;
1019.1000;0.6105;1.2758;
1019.4000;0.6113;1.2707;
1019.7000;0.6121;1.2656;
1020.0000;0.6081;1.2707;
1020.3000;0.6105;1.2808;
1020.6000;0.6113;1.2859;
1020.9000;0.6105;1.2758;
1021.2000;0.6097;1.2758;
1021.5000;0.6097;1.2732;
1021.8000;0.6089;1.2707;
1022.1000;0.6105;1.2707;
1022.4000;0.6097;1.2707;
1022.7000;0.6089;1.2783;
1023.0000;0.6097;1.2834;
1023.3000;0.6097;1.2834;
1023.6000;0.6121;1.2834;
1023.9000;0.6097;1.2656;
1024.2000;0.6089;1.2656;
1024.5000;0.6105;1.2631;
1024.8000;0.6089;1.2529;
1025.1000;0.6081;1.2529;
1025.4000;0.6097;1.2605;
1025.7000;0.6097;1.2656;
1026.0000;0.6089;1.2631;
1026.3000;0.6072;1.2707;
1026.6000;0.6105;1.2859;
1026.9000;0.6113;1.2834;
1027.2000;0.6097;1.2859;
1027.5000;0.6089;1.2884;
1027.8000;0.6081;1.2910;
1028.1000;0.6113;1.3037;
1028.4000;0.6121;1.3011;
1028.7000;0.6113;1.3037;
1029.0000;0.6121;1.2986;
1029.3000;0.6113;1.2960;
1029.6000;0.6105;1.2960;
1029.9000;0.6089;1.2986;
1030.2000;0.6097;1.2859;
1030.5000;0.6081;1.2834;
1030.8000;0.6089;1.2910;
1031.1000;0.6113;1.2884;
1031.4000;0.6064;1.2834;
1031.7000;0.6129;1.2986;
1032.0000;0.6154;1.3037;
1032.3000;0.6089;1.2859;
1032.6000;0.6081;1.2783;
1032.9000;0.6105;1.2935;
1033.2000;0.6105;1.2960;
1033.5000;0.6097;1.2960;
1033.8000;0.6105;1.2960;
1034.1000;0.6089;1.2884;
1034.4000;0.6113;1.2859;
1034.7000;0.6089;1.2859;
1035.0000;0.6081;1.2808;
1035.3000;0.6072;1.2707;
1035.6000;0.6121;1.2783;
1035.9000;0.6081;1.2681;
1036.2000;0.6081;1.2707;
1036.5000;0.6089;1.2707;
1036.8000;0.6097;1.2707;
1037.1000;0.6105;1.2681;
1037.4000;0.6089;1.2707;
1037.7000;0.6105;1.2707;
1038.0000;0.6113;1.2656;
1038.3000;0.6105;1.2707;
1038.6000;0.6089;1.2656;
1038.9000;0.6081;1.2605;
1039.2000;0.6072;1.2555;
1039.5000;0.6089;1.2605;
1039.8000;0.5999;1.2377;
1040.1000;0.6081;1.2631;
1040.4000;0.6097;1.2681;
1040.7000;0.6089;1.2681;
1041.0000;0.6113;1.2707;
1041.3000;0.6097;1.2707;
1041.6000;0.6089;1.2732;
1041.9000;0.6146;1.2910;
1042.2000;0.6097;1.2834;
1042.5000;0.6113;1.2884;
1042.8000;0.6195;1.3011;
1043.1000;0.6138;1.2808;
1043.4000;0.6129;1.2859;
1043.7000;0.6113;1.2859;
1044.0000;0.6081;1.2732;
1044.3000;0.6097;1.2859;
1044.6000;0.6089;1.2935;
1044.9000;0.6097;1.2859;
1045.2000;0.6081;1.2783;
1045.5000;0.6048;1.2656;
1045.8000;0.6072;1.2758;
1046.1000;0.6089;1.2758;
1046.4000;0.6097;1.2834;
1046.7000;0.6081;1.2783;
1047.0000;0.6081;1.2808;
1047.3000;0.6097;1.2859;
1047.6000;0.5975;1.2504;
1047.9000;0.6081;1.2681;
1048.2000;0.6105;1.2656;
1048.5000;0.6089;1.2605;
1048.8000;0.6081;1.2605;
1049.1000;0.6081;1.2555;
1049.4000;0.6064;1.2529;
1049.7000;0.6138;1.2732;
1050.0000;0.6072;1.2681;
1050.3000;0.6105;1.2783;
1050.6000;0.6081;1.2808;
1050.9000;0.6089;1.2783;
1051.2000;0.6129;1.2884;
1051.5000;0.6081;1.2808;
1051.8000;0.6056;1.2656;
1052.1000;0.6081;1.2631;
1052.4000;0.6097;1.2707;
1052.7000;0.6081;1.2656;
1053.0000;0.6081;1.2605;
1053.3000;0.6097;1.2656;
1053.6000;0.6097;1.2732;
1053.9000;0.6081;1.2732;
1054.2000;0.6089;1.2834;
1054.5000;0.6097;1.2834;
1054.8000;0.6113;1.2859;
1055.1000;0.6121;1.2808;
1055.4000;0.6072;1.2758;
1055.7000;0.6097;1.2884;
1056.0000;0.6097;1.2884;
1056.3000;0.6097;1.2960;
1056.6000;0.6072;1.2884;
1056.9000;0.6154;1.3062;
1057.2000;0.6113;1.2960;
1057.5000;0.6081;1.2910;
1057.8000;0.6089;1.2834;
1058.1000;0.6097;1.2783;
1058.4000;0.6015;1.2605;
1058.7000;0.6089;1.2732;
1059.0000;0.6097;1.2707;
1059.3000;0.6089;1.2783;
1059.6000;0.6048;1.2631;
1059.9000;0.6105;1.2783;
1060.2000;0.6089;1.2656;
1060.5000;0.6072;1.2580;
1060.8000;0.6105;1.2707;
1061.1000;0.6081;1.2783;
1061.4000;0.6064;1.2758;
1061.7000;0.6072;1.2707;
1062.0000;0.6097;1.2681;
1062.3000;0.6081;1.2605;
1062.6000;0.6097;1.2656;
1062.9000;0.6072;1.2555;
1063.2000;0.6064;1.2555;
1063.5000;0.5983;1.2453;
1063.8000;0.6089;1.2808;
1064.1000;0.6089;1.2834;
1064.4000;0.6048;1.2707;
1064.7000;0.6097;1.2808;
1065.0000;0.6048;1.2656;
1065.3000;0.6097;1.2808;
1065.6000;0.6081;1.2808;
1065.9000;0.6015;1.2656;
1066.2000;0.6081;1.2910;
1066.5000;0.6081;1.2910;
1066.8000;0.6089;1.2935;
1067.1000;0.6097;1.2859;
1067.4000;0.6072;1.2681;
1067.7000;0.6129;1.2910;
1068.0000;0.6072;1.2681;
1068.3000;0.6056;1.2656;
1068.6000;0.6056;1.2529;
1068.9000;0.6056;1.2555;
1069.2000;0.6089;1.2631;
1069.5000;0.6081;1.2707;
1069.8000;0.6081;1.2783;
1070.1000;0.6072;1.2758;
1070.4000;0.6072;1.2783;
1070.7000;0.6081;1.2808;
1071.0000;0.6072;1.2783;
1071.3000;0.6072;1.2834;
1071.6000;0.6081;1.2859;
1071.9000;0.6081;1.2783;
1072.2000;0.6081;1.2758;
1072.5000;0.6097;1.2808;
1072.8000;0.6081;1.2758;
1073.1000;0.6056;1.2732;
1073.4000;0.6089;1.2859;
1073.7000;0.6105;1.2960;
1074.0000;0.6105;1.2960;
1074.3000;0.6097;1.2935;
1074.6000;0.6072;1.2935;
1074.9000;0.6081;1.3087;
1075.2000;0.6064;1.3011;
1075.5000;0.6081;1.3011;
1075.8000;0.6056;1.2960;
1076.1000;0.6089;1.3087;
1076.4000;0.6081;1.3113;
1076.7000;0.6081;1.3062;
1077.0000;0.6072;1.3062;
1077.3000;0.6089;1.3011;
1077.6000;0.6081;1.2986;
1077.9000;0.6081;1.2935;
1078.2000;0.6072;1.2960;
1078.5000;0.6105;1.3087;
1078.8000;0.6089;1.3113;
1079.1000;0.6097;1.3214;
1079.4000;0.6081;1.3163;
1079.7000;0.6072;1.3113;
1080.0000;0.6081;1.3138;
1080.3000;0.6089;1.3138;
1080.6000;0.6081;1.3037;
1080.9000;0.6195;1.3214;
1081.2000;0.6089;1.2910;
1081.5000;0.6024;1.2681;
1081.8000;0.6081;1.2834;
1082.1000;0.6081;1.2859;
1082.4000;0.6121;1.3037;
1082.7000;0.6105;1.2986;
1083.0000;0.6121;1.3037;
1083.3000;0.6072;1.2834;
1083.6000;0.6024;1.2707;
1083.9000;0.6097;1.2808;
1084.2000;0.6105;1.2834;
1084.5000;0.6097;1.2834;
1084.8000;0.6089;1.2834;
1085.1000;0.6072;1.2783;
1085.4000;0.6121;1.2986;
1085.7000;0.6081;1.2859;
1086.0000;0.6040;1.2808;
1086.3000;0.6081;1.2859;
1086.6000;0.6089;1.2783;
1086.9000;0.6072;1.2758;
1087.2000;0.6089;1.2783;
1087.5000;0.6064;1.2732;
1087.8000;0.6097;1.2986;
1088.1000;0.6105;1.2935;
1088.4000;0.6064;1.2884;
1088.7000;0.6097;1.2960;
1089.0000;0.6113;1.2960;
1089.3000;0.6186;1.3239;
1089.6000;0.6097;1.3062;
1089.9000;0.6154;1.3189;
1090.2000;0.6097;1.3087;
1090.5000;0.6089;1.2986;
1090.8000;0.6072;1.2884;
1091.1000;0.5991;1.2732;
1091.4000;0.6072;1.2910;
1091.7000;0.6072;1.2834;
1092.0000;0.6072;1.2834;
1092.3000;0.6056;1.2808;
1092.6000;0.6081;1.2808;
1092.9000;0.6138;1.3037;
1093.2000;0.6081;1.2935;
1093.5000;0.6081;1.2884;
1093.8000;0.6081;1.2910;
1094.1000;0.6072;1.2884;
1094.4000;0.6081;1.2758;
1094.7000;0.6048;1.2707;
1095.0000;0.6064;1.2834;
1095.3000;0.6105;1.2960;
1095.6000;0.6081;1.3062;
1095.9000;0.6056;1.2960;
1096.2000;0.6081;1.3011;
1096.5000;0.6089;1.3037;
1096.8000;0.6064;1.3011;
1097.1000;0.6089;1.3062;
1097.4000;0.6089;1.3037;
1097.7000;0.6081;1.2986;
1098.0000;0.6056;1.3062;
1098.3000;0.6081;1.3037;
1098.6000;0.6089;1.2986;
1098.9000;0.6072;1.3011;
1099.2000;0.6105;1.3037;
1099.5000;0.6089;1.3062;
1099.8000;0.6089;1.3011;
1100.1000;0.6089;1.2986;
1100.4000;0.6081;1.2960;
1100.7000;0.6081;1.2935;
1101.0000;0.6072;1.2758;
1101.3000;0.6081;1.2681;
1101.6000;0.6089;1.2631;
1101.9000;0.6089;1.2580;
1102.2000;0.6097;1.2605;
1102.5000;0.6081;1.2479;
1102.8000;0.6081;1.2479;
1103.1000;0.6089;1.2504;
1103.4000;0.5967;1.2250;
1103.7000;0.6081;1.2555;
1104.0000;0.6081;1.2631;
1104.3000;0.6072;1.2580;
1104.6000;0.6089;1.2605;
1104.9000;0.6081;1.2631;
1105.2000;0.6081;1.2631;
1105.5000;0.6064;1.2529;
1105.8000;0.6089;1.2631;
1106.1000;0.6081;1.2479;
1106.4000;0.6081;1.2555;
1106.7000;0.6081;1.2605;
1107.0000;0.6015;1.2352;
1107.3000;0.6097;1.2555;
1107.6000;0.6072;1.2580;
1107.9000;0.6064;1.2631;
1108.2000;0.6040;1.2631;
1108.5000;0.6081;1.2758;
1108.8000;0.6081;1.2707;
1109.1000;0.6105;1.2859;
1109.4000;0.6097;1.2935;
1109.7000;0.6081;1.2758;
1110.0000;0.6072;1.2732;
1110.3000;0.6064;1.2681;
1110.6000;0.6064;1.2783;
1110.9000;0.6064;1.2859;
1111.2000;0.6064;1.2808;
1111.5000;0.6056;1.2808;
1111.8000;0.6097;1.2960;
1112.1000;0.6081;1.2935;
1112.4000;0.6056;1.2960;
1112.7000;0.6081;1.2986;
1113.0000;0.6089;1.3087;
1113.3000;0.6072;1.3062;
1113.6000;0.6072;1.3037;
1113.9000;0.6048;1.3037;
1114.2000;0.6113;1.3189;
1114.5000;0.6081;1.3087;
1114.8000;0.6056;1.2935;
1115.1000;0.5999;1.2783;
1115.4000;0.6072;1.2960;
1115.7000;0.6081;1.2960;
1116.0000;0.6064;1.2859;
1116.3000;0.6064;1.2783;
1116.6000;0.6040;1.2707;
1116.9000;0.6072;1.2808;
1117.2000;0.6097;1.2758;
1117.5000;0.6081;1.2707;
1117.8000;0.6089;1.2707;
1118.1000;0.6105;1.2783;
1118.4000;0.6064;1.2732;
1118.7000;0.6064;1.2859;
1119.0000;0.6089;1.2783;
1119.3000;0.6064;1.2732;
1119.6000;0.6064;1.2758;
1119.9000;0.6056;1.2732;
1120.2000;0.6064;1.2681;
1120.5000;0.6064;1.2758;
1120.8000;0.6072;1.2859;
1121.1000;0.6072;1.2783;
1121.4000;0.6064;1.2707;
1121.7000;0.6072;1.2758;
1122.0000;0.6081;1.2758;
1122.3000;0.6064;1.2707;
1122.6000;0.6097;1.2884;
1122.9000;0.6064;1.2910;
1123.2000;0.6024;1.2732;
1123.5000;0.6064;1.2859;
1123.8000;0.6072;1.2834;
1124.1000;0.6064;1.2884;
1124.4000;0.6081;1.2884;
1124.7000;0.6072;1.2732;
1125.0000;0.6007;1.2555;
1125.3000;0.6081;1.2859;
1125.6000;0.6056;1.2783;
1125.9000;0.6072;1.2910;
1126.2000;0.6064;1.2808;
1126.5000;0.6064;1.2758;
1126.8000;0.6056;1.2834;
1127.1000;0.6072;1.2834;
1127.4000;0.6056;1.2859;
1127.7000;0.6105;1.2859;
1128.0000;0.6097;1.2834;
1128.3000;0.6056;1.2681;
1128.6000;0.6072;1.2783;
1128.9000;0.6129;1.3011;
1129.2000;0.6081;1.2910;
1129.5000;0.6129;1.3062;
1129.8000;0.6081;1.3011;
1130.1000;0.6056;1.2986;
1130.4000;0.6081;1.3062;
1130.7000;0.6048;1.2960;
1131.0000;0.6024;1.2935;
1131.3000;0.6064;1.3062;
1131.6000;0.6048;1.2986;
1131.9000;0.6064;1.2960;
1132.2000;0.6072;1.2986;
1132.5000;0.6064;1.3037;
1132.8000;0.6064;1.3037;
1133.1000;0.6072;1.3037;
1133.4000;0.6064;1.3037;
1133.7000;0.6081;1.3062;
1134.0000;0.6056;1.2834;
1134.3000;0.6072;1.2859;
1134.6000;0.6089;1.2935;
1134.9000;0.6081;1.2960;
1135.2000;0.6064;1.2935;
1135.5000;0.6089;1.2960;
1135.8000;0.6089;1.2960;
1136.1000;0.6089;1.2960;
1136.4000;0.6081;1.2935;
1136.7000;0.6072;1.2884;
1137.0000;0.6064;1.2783;
1137.3000;0.6056;1.2758;
1137.6000;0.6040;1.2656;
1137.9000;0.6072;1.2910;
1138.2000;0.6064;1.2910;
1138.5000;0.6064;1.2884;
1138.8000;0.6097;1.3011;
1139.1000;0.6097;1.2986;
1139.4000;0.6097;1.3062;
1139.7000;0.6081;1.3011;
1140.0000;0.6081;1.3011;
1140.3000;0.6097;1.3062;
1140.6000;0.6056;1.3011;
1140.9000;0.6048;1.3062;
1141.2000;0.6162;1.3442;
1141.5000;0.6072;1.3087;
1141.8000;0.6064;1.2986;
1142.1000;0.6048;1.2935;
1142.4000;0.6056;1.2986;
1142.7000;0.6072;1.3037;
1143.0000;0.6072;1.3062;
1143.3000;0.6048;1.3062;
1143.6000;0.6056;1.3087;
1143.9000;0.6081;1.3163;
1144.2000;0.6081;1.3163;
1144.5000;0.6056;1.3138;
1144.8000;0.6056;1.3138;
1145.1000;0.6089;1.3214;
1145.4000;0.6072;1.3138;
1145.7000;0.6064;1.3163;
1146.0000;0.6081;1.3138;
1146.3000;0.6081;1.3214;
1146.6000;0.6072;1.3265;
1146.9000;0.6056;1.3189;
1147.2000;0.6138;1.3392;
1147.5000;0.6081;1.3163;
1147.8000;0.6072;1.3189;
1148.1000;0.6072;1.3189;
1148.4000;0.6048;1.3087;
1148.7000;0.6072;1.3239;
1149.0000;0.6064;1.3214;
1149.3000;0.6072;1.3113;
1149.6000;0.6072;1.3138;
1149.9000;0.6121;1.3239;
1150.2000;0.6072;1.3062;
1150.5000;0.6097;1.3037;
1150.8000;0.6113;1.3113;
1151.1000;0.6064;1.3138;
1151.4000;0.6121;1.3316;
1151.7000;0.6072;1.3189;
1152.0000;0.6015;1.3113;
1152.3000;0.6072;1.3341;
1152.6000;0.6064;1.3290;
1152.9000;0.6048;1.3265;
1153.2000;0.6040;1.3239;
1153.5000;0.6186;1.3645;
1153.8000;0.6081;1.3366;
1154.1000;0.6072;1.3392;
1154.4000;0.6056;1.3341;
1154.7000;0.6129;1.3493;
1155.0000;0.6081;1.3392;
1155.3000;0.6072;1.3290;
1155.6000;0.6195;1.3544;
1155.9000;0.6072;1.3138;
1156.2000;0.6040;1.3037;
1156.5000;0.6081;1.3138;
1156.8000;0.6007;1.2935;
1157.1000;0.6056;1.3113;
1157.4000;0.6056;1.3189;
1157.7000;0.6056;1.3189;
1158.0000;0.5967;1.2935;
1158.3000;0.6032;1.3037;
1158.6000;0.6072;1.3062;
1158.9000;0.6105;1.3087;
1159.2000;0.6089;1.3138;
1159.5000;0.6121;1.3239;
1159.8000;0.6162;1.3341;
1160.1000;0.6081;1.3163;
1160.4000;0.6024;1.2960;
1160.7000;0.6064;1.3011;
1161.0000;0.6154;1.3214;
1161.3000;0.6064;1.2986;
1161.6000;0.6064;1.2986;
1161.9000;0.6056;1.3062;
1162.2000;0.6064;1.3011;
1162.5000;0.6064;1.3011;
1162.8000;0.6056;1.2960;
1163.1000;0.6048;1.2935;
1163.4000;0.6064;1.2986;
1163.7000;0.6064;1.3037;
1164.0000;0.6064;1.3113;
1164.3000;0.6072;1.3138;
1164.6000;0.6081;1.3138;
1164.9000;0.6048;1.3138;
1165.2000;0.6064;1.3113;
1165.5000;0.6072;1.3138;
1165.8000;0.6072;1.3113;
1166.1000;0.6064;1.3087;
1166.4000;0.6064;1.3113;
1166.7000;0.6064;1.3062;
1167.0000;0.6072;1.2986;
1167.3000;0.6056;1.3011;
1167.6000;0.6056;1.2986;
1167.9000;0.6064;1.2986;
1168.2000;0.6064;1.2986;
1168.5000;0.6064;1.3011;
1168.8000;0.6015;1.2808;
1169.1000;0.6072;1.2960;
1169.4000;0.6064;1.3011;
1169.7000;0.6064;1.3062;
1170.0000;0.6056;1.3011;
1170.3000;0.6072;1.3138;
1170.6000;0.6056;1.2986;
1170.9000;0.6064;1.3011;
1171.2000;0.6064;1.3037;
1171.5000;0.6081;1.3138;
1171.8000;0.6072;1.3087;
1172.1000;0.6064;1.2935;
1172.4000;0.6064;1.2910;
1172.7000;0.6072;1.2986;
1173.0000;0.6072;1.2986;
1173.3000;0.6089;1.3037;
1173.6000;0.6072;1.2986;
1173.9000;0.6064;1.3037;
1174.2000;0.6072;1.3062;
1174.5000;0.6081;1.3011;
1174.8000;0.6064;1.2935;
1175.1000;0.6048;1.3011;
1175.4000;0.6040;1.3113;
1175.7000;0.6072;1.3138;
1176.0000;0.6048;1.2960;
1176.3000;0.6072;1.2960;
1176.6000;0.6048;1.2834;
1176.9000;0.6040;1.2884;
1177.2000;0.6056;1.2960;
1177.5000;0.6097;1.3037;
1177.8000;0.6048;1.3011;
1178.1000;0.6064;1.3037;
1178.4000;0.6064;1.3037;
1178.7000;0.6081;1.3037;
1179.0000;0.6040;1.3011;
1179.3000;0.6048;1.3062;
1179.6000;0.6081;1.3163;
1179.9000;0.6056;1.3113;
1180.2000;0.5975;1.2935;
1180.5000;0.6048;1.3189;
1180.8000;0.6089;1.3214;
1181.1000;0.6056;1.3011;
1181.4000;0.6056;1.3062;
1181.7000;0.6056;1.3138;
1182.0000;0.6064;1.3163;
1182.3000;0.6024;1.3062;
1182.6000;0.6048;1.3087;
1182.9000;0.5999;1.3011;
1183.2000;0.6129;1.3189;
1183.5000;0.6056;1.2935;
1183.8000;0.6162;1.3163;
1184.1000;0.6081;1.2986;
1184.4000;0.6113;1.3113;
1184.7000;0.6072;1.2960;
1185.0000;0.6064;1.2986;
1185.3000;0.6064;1.3163;
1185.6000;0.6072;1.3113;
1185.9000;0.6048;1.2986;
1186.2000;0.6064;1.2910;
1186.5000;0.6056;1.2859;
1186.8000;0.6048;1.2935;
1187.1000;0.6081;1.3087;
1187.4000;0.6072;1.3087;
1187.7000;0.6048;1.3062;
1188.0000;0.6056;1.3214;
1188.3000;0.6024;1.3138;
1188.6000;0.6056;1.3138;
1188.9000;0.6056;1.3011;
1189.2000;0.6048;1.2910;
1189.5000;0.6064;1.3011;
1189.8000;0.6056;1.2986;
1190.1000;0.6064;1.2986;
1190.4000;0.6040;1.2935;
1190.7000;0.6072;1.2859;
1191.0000;0.6064;1.2859;
1191.3000;0.6121;1.3062;
1191.6000;0.6081;1.3037;
1191.9000;0.6072;1.3011;
1192.2000;0.6048;1.2960;
1192.5000;0.6040;1.2960;
1192.8000;0.6064;1.2935;
1193.1000;0.6056;1.2859;
1193.4000;0.6056;1.2884;
1193.7000;0.6097;1.3062;
1194.0000;0.6064;1.3011;
1194.3000;0.6072;1.2960;
1194.6000;0.6064;1.2960;
1194.9000;0.6048;1.2884;
1195.2000;0.6056;1.2808;
1195.5000;0.6048;1.2783;
1195.8000;0.6064;1.2884;
1196.1000;0.6072;1.2834;
1196.4000;0.6097;1.2834;
1196.7000;0.6040;1.2707;
1197.0000;0.6081;1.2834;
1197.3000;0.6072;1.2834;
1197.6000;0.6072;1.2910;
1197.9000;0.6072;1.2960;
1198.2000;0.6056;1.2960;
1198.5000;0.6097;1.2986;
1198.8000;0.6056;1.2884;
1199.1000;0.6072;1.2859;
1199.4000;0.5983;1.2707;
1199.7000;0.6089;1.2960;
1200.0000;0.6064;1.2986;
1200.3000;0.6064;1.3037;
1200.6000;0.6056;1.3011;
1200.9000;0.6064;1.3138;
1201.2000;0.6040;1.3062;
1201.5000;0.6048;1.3062;
1201.8000;0.6040;1.2986;
1202.1000;0.6064;1.3087;
1202.4000;0.6072;1.3138;
1202.7000;0.6072;1.3087;
1203.0000;0.6024;1.3037;
1203.3000;0.6064;1.3138;
1203.6000;0.6048;1.3163;
1203.9000;0.6064;1.3163;
1204.2000;0.6105;1.3163;
1204.5000;0.6056;1.3087;
1204.8000;0.6072;1.3189;
1205.1000;0.6072;1.3189;
1205.4000;0.6032;1.3087;
1205.7000;0.6056;1.3037;
1206.0000;0.6113;1.3138;
1206.3000;0.6121;1.3138;
1206.6000;0.6064;1.2935;
1206.9000;0.6048;1.2935;
1207.2000;0.6056;1.2986;
1207.5000;0.6064;1.3037;
1207.8000;0.6056;1.2986;
1208.1000;0.6056;1.2935;
1208.4000;0.6048;1.2935;
1208.7000;0.6056;1.2884;
1209.0000;0.6064;1.2910;
1209.3000;0.6048;1.2935;
1209.6000;0.6072;1.2960;
1209.9000;0.6064;1.2986;
1210.2000;0.6032;1.2986;
1210.5000;0.6064;1.3087;
1210.8000;0.6056;1.3062;
1211.1000;0.6064;1.3062;
1211.4000;0.6064;1.3062;
1211.7000;0.6081;1.3087;
1212.0000;0.6040;1.3062;
1212.3000;0.6072;1.3214;
1212.6000;0.6072;1.3239;
1212.9000;0.6048;1.3163;
1213.2000;0.6040;1.3037;
1213.5000;0.6032;1.3037;
1213.8000;0.6048;1.3113;
1214.1000;0.5983;1.2910;
1214.4000;0.6048;1.3113;
1214.7000;0.6081;1.3138;
1215.0000;0.6081;1.3062;
1215.3000;0.6154;1.3341;
1215.6000;0.6064;1.3011;
1215.9000;0.6064;1.3011;
1216.2000;0.6089;1.3113;
1216.5000;0.6072;1.3113;
1216.8000;0.6048;1.3214;
1217.1000;0.6048;1.3138;
1217.4000;0.6089;1.3214;
1217.7000;0.6064;1.3138;
1218.0000;0.6056;1.3163;
1218.3000;0.6032;1.3037;
1218.6000;0.6056;1.3062;
1218.9000;0.6072;1.3062;
1219.2000;0.6056;1.2935;
1219.5000;0.6056;1.2935;
1219.8000;0.6064;1.2986;
1220.1000;0.6007;1.2960;
1220.4000;0.6105;1.3316;
1220.7000;0.6015;1.3113;
1221.0000;0.6089;1.3239;
1221.3000;0.6040;1.3087;
1221.6000;0.6032;1.3113;
1221.9000;0.6081;1.3265;
1222.2000;0.6040;1.3189;
1222.5000;0.6081;1.3366;
1222.8000;0.6081;1.3366;
1223.1000;0.6056;1.3239;
1223.4000;0.6007;1.3087;
1223.7000;0.6007;1.3214;
1224.0000;0.6064;1.3290;
1224.3000;0.6048;1.3239;
1224.6000;0.6056;1.3163;
1224.9000;0.6048;1.3087;
1225.2000;0.6064;1.3113;
1225.5000;0.6024;1.3037;
1225.8000;0.6040;1.3138;
1226.1000;0.6048;1.3163;
1226.4000;0.6048;1.3163;
1226.7000;0.6056;1.3239;
1227.0000;0.6064;1.3239;
1227.3000;0.6032;1.3239;
1227.6000;0.6064;1.3316;
1227.9000;0.6064;1.3392;
1228.2000;0.6056;1.3417;
1228.5000;0.6056;1.3366;
1228.8000;0.6056;1.3366;
1229.1000;0.6056;1.3366;
1229.4000;0.6081;1.3468;
1229.7000;0.6056;1.3493;
1230.0000;0.6056;1.3392;
1230.3000;0.6089;1.3417;
1230.6000;0.6089;1.3417;
1230.9000;0.6064;1.3265;
1231.2000;0.6064;1.3341;
1231.5000;0.6064;1.3341;
1231.8000;0.6064;1.3290;
1232.1000;0.6072;1.3341;
1232.4000;0.6048;1.3341;
1232.7000;0.6064;1.3290;
1233.0000;0.6056;1.3189;
1233.3000;0.6024;1.3087;
1233.6000;0.6048;1.3087;
1233.9000;0.6048;1.3062;
1234.2000;0.6048;1.3062;
1234.5000;0.6056;1.3189;
1234.8000;0.6040;1.3239;
1235.1000;0.6105;1.3392;
1235.4000;0.6040;1.3239;
1235.7000;0.6097;1.3138;
1236.0000;0.6064;1.3062;
1236.3000;0.6015;1.2986;
1236.6000;0.6056;1.3062;
1236.9000;0.6056;1.3011;
1237.2000;0.6048;1.2986;
1237.5000;0.5999;1.2808;
1237.8000;0.6056;1.2910;
1238.1000;0.6056;1.2808;
1238.4000;0.6040;1.2783;
1238.7000;0.6040;1.2884;
1239.0000;0.6056;1.3011;
1239.3000;0.6056;1.3113;
1239.6000;0.6064;1.3239;
1239.9000;0.6064;1.3163;
1240.2000;0.6081;1.3214;
1240.5000;0.6064;1.3214;
1240.8000;0.6064;1.3214;
1241.1000;0.6072;1.3265;
1241.4000;0.6072;1.3290;
1241.7000;0.6048;1.3163;
1242.0000;0.6064;1.3189;
1242.3000;0.6081;1.3163;
1242.6000;0.6064;1.3087;
1242.9000;0.6056;1.2986;
1243.2000;0.6064;1.2935;
1243.5000;0.6064;1.2935;
1243.8000;0.6040;1.2884;
1244.1000;0.6056;1.3037;
1244.4000;0.6072;1.3163;
1244.7000;0.6056;1.3113;
1245.0000;0.6064;1.3163;
1245.3000;0.6056;1.3239;
1245.6000;0.6007;1.3037;
1245.9000;0.6040;1.3037;
1246.2000;0.6048;1.2960;
1246.5000;0.6056;1.3062;
1246.8000;0.6056;1.3087;
1247.1000;0.6072;1.3138;
1247.4000;0.6032;1.2986;
1247.7000;0.6048;1.2986;
1248.0000;0.6056;1.2960;
1248.3000;0.6040;1.2960;
1248.6000;0.6024;1.2884;
1248.9000;0.6040;1.2960;
1249.2000;0.6040;1.2986;
1249.5000;0.6048;1.2986;
1249.8000;0.6064;1.3113;
1250.1000;0.6048;1.3037;
1250.4000;0.6048;1.3113;
1250.7000;0.6048;1.3062;
1251.0000;0.6056;1.3087;
1251.3000;0.6056;1.3087;
1251.6000;0.6072;1.3189;
1251.9000;0.6064;1.3138;
1252.2000;0.6154;1.3316;
1252.5000;0.6056;1.3087;
1252.8000;0.6056;1.3087;
1253.1000;0.5950;1.2732;
1253.4000;0.6048;1.3011;
1253.7000;0.6064;1.2960;
1254.0000;0.6048;1.2986;
1254.3000;0.6072;1.3062;
1254.6000;0.5983;1.2859;
1254.9000;0.6032;1.3138;
1255.2000;0.6056;1.3113;
1255.5000;0.6048;1.3011;
1255.8000;0.6072;1.3113;
1256.1000;0.6081;1.3113;
1256.4000;0.6056;1.3037;
1256.7000;0.6072;1.3087;
1257.0000;0.6064;1.3087;
1257.3000;0.6081;1.3265;
1257.6000;0.6056;1.3214;
1257.9000;0.6048;1.3189;
1258.2000;0.6064;1.3189;
1258.5000;0.6056;1.3087;
1258.8000;0.6056;1.3087;
1259.1000;0.6072;1.3062;
1259.4000;0.6072;1.3138;
1259.7000;0.6072;1.3113;
1260.0000;0.6056;1.3062;
1260.3000;0.6064;1.3214;
1260.6000;0.6072;1.3214;
1260.9000;0.6064;1.3214;
1261.2000;0.6056;1.3113;
1261.5000;0.6056;1.3138;
1261.8000;0.6064;1.3163;
1262.1000;0.6056;1.3163;
1262.4000;0.6048;1.3239;
1262.7000;0.6048;1.3265;
1263.0000;0.6032;1.3214;
1263.3000;0.6040;1.3189;
1263.6000;0.6048;1.3138;
1263.9000;0.6040;1.3163;
1264.2000;0.6056;1.3163;
1264.5000;0.6064;1.3138;
1264.8000;0.6056;1.3138;
1265.1000;0.6048;1.3138;
1265.4000;0.6048;1.3113;
1265.7000;0.6056;1.3189;
1266.0000;0.6072;1.3290;
1266.3000;0.6064;1.3316;
1266.6000;0.6072;1.3316;
1266.9000;0.6056;1.3265;
1267.2000;0.6048;1.3239;
1267.5000;0.6024;1.3163;
1267.8000;0.6048;1.3113;
1268.1000;0.6024;1.3087;
1268.4000;0.5975;1.2859;
1268.7000;0.6040;1.3037;
1269.0000;0.6040;1.3087;
1269.3000;0.6056;1.3113;
1269.6000;0.6048;1.3189;
1269.9000;0.6056;1.3316;
1270.2000;0.6081;1.3316;
1270.5000;0.6056;1.3265;
1270.8000;0.6056;1.3239;
1271.1000;0.6007;1.3113;
1271.4000;0.6064;1.3290;
1271.7000;0.6032;1.3138;
1272.0000;0.6048;1.3265;
1272.3000;0.6056;1.3189;
1272.6000;0.6048;1.3163;
1272.9000;0.6056;1.3163;
1273.2000;0.6032;1.3087;
1273.5000;0.6040;1.3087;
1273.8000;0.6064;1.3163;
1274.1000;0.5999;1.3011;
1274.4000;0.6048;1.3163;
1274.7000;0.6056;1.3214;
1275.0000;0.6064;1.3214;
1275.3000;0.6040;1.3189;
1275.6000;0.6072;1.3214;
1275.9000;0.6056;1.3214;
1276.2000;0.6064;1.3290;
1276.5000;0.6048;1.3189;
1276.8000;0.6048;1.3239;
1277.1000;0.6081;1.3214;
1277.4000;0.6007;1.2986;
1277.7000;0.6056;1.3189;
1278.0000;0.6032;1.3189;
1278.3000;0.6040;1.3239;
1278.6000;0.6056;1.3239;
1278.9000;0.6064;1.3265;
1279.2000;0.5991;1.3062;
1279.5000;0.6048;1.3189;
1279.8000;0.6072;1.3214;
1280.1000;0.6064;1.3163;
1280.4000;0.6064;1.3113;
1280.7000;0.6064;1.3011;
1281.0000;0.6072;1.3011;
1281.3000;0.6056;1.3087;
1281.6000;0.6056;1.3037;
1281.9000;0.6048;1.3037;
1282.2000;0.6040;1.3037;
1282.5000;0.6048;1.3062;
1282.8000;0.6040;1.3087;
1283.1000;0.6024;1.2986;
1283.4000;0.6048;1.2960;
1283.7000;0.6056;1.2960;
1284.0000;0.5958;1.2758;
1284.3000;0.6032;1.2986;
1284.6000;0.6040;1.2935;
1284.9000;0.5958;1.2783;
1285.2000;0.6072;1.3087;
1285.5000;0.6056;1.3087;
1285.8000;0.6064;1.3163;
1286.1000;0.6056;1.3163;
1286.4000;0.6113;1.3366;
1286.7000;0.6024;1.3087;
1287.0000;0.6056;1.3113;
1287.3000;0.6064;1.3163;
1287.6000;0.6072;1.3163;
1287.9000;0.6064;1.3113;
1288.2000;0.6056;1.3113;
1288.5000;0.6064;1.3214;
1288.8000;0.6040;1.3113;
1289.1000;0.6040;1.3062;
1289.4000;0.6048;1.3087;
1289.7000;0.5967;1.2935;
1290.0000;0.6056;1.3163;
1290.3000;0.6048;1.3163;
1290.6000;0.6064;1.3214;
1290.9000;0.6048;1.3138;
1291.2000;0.6081;1.3290;
1291.5000;0.6064;1.3214;
1291.8000;0.6105;1.3265;
1292.1000;0.6064;1.3138;
1292.4000;0.6081;1.3113;
1292.7000;0.6048;1.3011;
1293.0000;0.6064;1.3011;
1293.3000;0.6072;1.3113;
1293.6000;0.6064;1.3138;
1293.9000;0.6064;1.3138;
1294.2000;0.6048;1.3113;
1294.5000;0.6040;1.3062;
1294.8000;0.6048;1.3062;
1295.1000;0.6064;1.3037;
1295.4000;0.6048;1.3011;
1295.7000;0.6015;1.2910;
1296.0000;0.6056;1.3062;
1296.3000;0.6048;1.3087;
1296.6000;0.6048;1.3037;
1296.9000;0.6048;1.2986;
1297.2000;0.6024;1.2859;
1297.5000;0.6064;1.2935;
1297.8000;0.6064;1.2884;
1298.1000;0.6048;1.2910;
1298.4000;0.6048;1.2935;
1298.7000;0.6024;1.2732;
1299.0000;0.6056;1.2910;
1299.3000;0.6048;1.2935;
1299.6000;0.6015;1.2834;
1299.9000;0.6040;1.2935;
1300.2000;0.6064;1.3087;
1300.5000;0.6032;1.2935;
1300.8000;0.6056;1.2935;
1301.1000;0.6048;1.2935;
1301.4000;0.6105;1.3163;
1301.7000;0.6072;1.3163;
1302.0000;0.6064;1.3062;
1302.3000;0.5991;1.2960;
1302.6000;0.6056;1.3113;
1302.9000;0.6056;1.3189;
1303.2000;0.6056;1.3265;
1303.5000;0.6056;1.3189;
1303.8000;0.6056;1.3239;
1304.1000;0.6048;1.3265;
1304.4000;0.6064;1.3214;
1304.7000;0.6024;1.3138;
1305.0000;0.6064;1.3239;
1305.3000;0.6048;1.3138;
1305.6000;0.6040;1.3163;
1305.9000;0.6105;1.3290;
1306.2000;0.6064;1.3189;
1306.5000;0.6064;1.3214;
1306.8000;0.6040;1.3037;
1307.1000;0.6048;1.3062;
1307.4000;0.6056;1.3062;
1307.7000;0.6056;1.3138;
1308.0000;0.6056;1.3062;
1308.3000;0.6032;1.3062;
1308.6000;0.6064;1.3087;
1308.9000;0.6015;1.2986;
1309.2000;0.6138;1.3316;
1309.5000;0.6048;1.3087;
1309.8000;0.6056;1.3163;
1310.1000;0.6048;1.3138;
1310.4000;0.6056;1.3087;
1310.7000;0.6072;1.3189;
1311.0000;0.6097;1.3239;
1311.3000;0.6040;1.3138;
1311.6000;0.6064;1.3189;
1311.9000;0.6040;1.3138;
1312.2000;0.6048;1.3037;
1312.5000;0.6064;1.3062;
1312.8000;0.6056;1.3011;
1313.1000;0.6064;1.3037;
1313.4000;0.6064;1.3138;
1313.7000;0.6048;1.3113;
1314.0000;0.6048;1.3113;
1314.3000;0.6064;1.3062;
1314.6000;0.6056;1.3037;
1314.9000;0.6032;1.3037;
1315.2000;0.6048;1.3087;
1315.5000;0.6048;1.3163;
1315.8000;0.6048;1.3062;
1316.1000;0.6162;1.3366;
1316.4000;0.6056;1.3062;
1316.7000;0.6040;1.3062;
1317.0000;0.6081;1.3189;
1317.3000;0.6064;1.3163;
1317.6000;0.6015;1.3062;
1317.9000;0.6064;1.3239;
1318.2000;0.6056;1.3239;
1318.5000;0.6024;1.3113;
1318.8000;0.5967;1.2960;
1319.1000;0.6040;1.3163;
1319.4000;0.6040;1.3113;
1319.7000;0.6048;1.3163;
1320.0000;0.6024;1.3113;
1320.3000;0.6040;1.3163;
1320.6000;0.6048;1.3163;
1320.9000;0.6048;1.3138;
1321.2000;0.6048;1.3138;
1321.5000;0.6024;1.3138;
1321.8000;0.6048;1.3087;
1322.1000;0.6064;1.3062;
1322.4000;0.6048;1.2986;
1322.7000;0.6072;1.3037;
1323.0000;0.6048;1.3037;
1323.3000;0.6064;1.3138;
1323.6000;0.6032;1.3037;
1323.9000;0.6048;1.3062;
1324.2000;0.6048;1.3087;
1324.5000;0.6072;1.3113;
1324.8000;0.6032;1.3113;
1325.1000;0.6040;1.3113;
1325.4000;0.6089;1.3189;
1325.7000;0.6081;1.3087;
1326.0000;0.6056;1.3011;
1326.3000;0.6072;1.3062;
1326.6000;0.6056;1.2986;
1326.9000;0.6081;1.3011;
1327.2000;0.6056;1.2986;
1327.5000;0.6048;1.2960;
1327.8000;0.6056;1.2960;
1328.1000;0.6040;1.2834;
1328.4000;0.6048;1.2884;
1328.7000;0.6064;1.2986;
1329.0000;0.5958;1.2808;
1329.3000;0.6048;1.3037;
1329.6000;0.6032;1.2935;
1329.9000;0.6072;1.3037;
1330.2000;0.6032;1.2986;
1330.5000;0.6032;1.2960;
1330.8000;0.6064;1.3113;
1331.1000;0.6040;1.3087;
1331.4000;0.6048;1.3138;
1331.7000;0.6162;1.3341;
1332.0000;0.6056;1.3113;
1332.3000;0.6081;1.3062;
1332.6000;0.6032;1.2935;
1332.9000;0.6064;1.2986;
1333.2000;0.6040;1.2859;
1333.5000;0.6048;1.2884;
1333.8000;0.6064;1.2935;
1334.1000;0.6032;1.2859;
1334.4000;0.6040;1.2884;
1334.7000;0.6048;1.2935;
1335.0000;0.6040;1.2910;
1335.3000;0.5967;1.2732;
1335.6000;0.6048;1.3011;
1335.9000;0.6032;1.2859;
1336.2000;0.6032;1.2783;
1336.5000;0.6032;1.2808;
1336.8000;0.6048;1.2859;
1337.1000;0.6089;1.2935;
1337.4000;0.6048;1.2935;
1337.7000;0.6032;1.2986;
1338.0000;0.6024;1.2935;
1338.3000;0.6040;1.3037;
1338.6000;0.6048;1.3087;
1338.9000;0.6056;1.3163;
1339.2000;0.6040;1.3062;
1339.5000;0.6040;1.2986;
1339.8000;0.6048;1.3087;
1340.1000;0.6040;1.3163;
1340.4000;0.6048;1.3214;
1340.7000;0.6064;1.3265;
1341.0000;0.6048;1.3239;
1341.3000;0.6048;1.3290;
1341.6000;0.6048;1.3239;
1341.9000;0.6032;1.3239;
1342.2000;0.6056;1.3265;
1342.5000;0.6040;1.3062;
1342.8000;0.6040;1.3138;
1343.1000;0.6121;1.3316;
1343.4000;0.6056;1.3113;
1343.7000;0.6056;1.3113;
1344.0000;0.6048;1.3138;
1344.3000;0.6040;1.3189;
1344.6000;0.6048;1.3189;
1344.9000;0.6056;1.3214;
1345.2000;0.6040;1.3189;
1345.5000;0.6048;1.3163;
1345.8000;0.6056;1.3163;
1346.1000;0.6048;1.3138;
1346.4000;0.6032;1.3087;
1346.7000;0.6032;1.3037;
1347.0000;0.6056;1.3037;
1347.3000;0.6056;1.3011;
1347.6000;0.6040;1.2960;
1347.9000;0.6064;1.2986;
1348.2000;0.6056;1.2834;
1348.5000;0.6056;1.2783;
1348.8000;0.6048;1.2732;
1349.1000;0.6040;1.2631;
1349.4000;0.6056;1.2656;
1349.7000;0.6097;1.2758;
1350.0000;0.6056;1.2656;
1350.3000;0.6064;1.2732;
1350.6000;0.6048;1.2681;
1350.9000;0.6064;1.2808;
1351.2000;0.6072;1.2808;
1351.5000;0.6081;1.2834;
1351.8000;0.6154;1.3062;
1352.1000;0.6056;1.2783;
1352.4000;0.6056;1.2859;
1352.7000;0.6056;1.2834;
1353.0000;0.6007;1.2707;
1353.3000;0.6056;1.2732;
1353.6000;0.6056;1.2808;
1353.9000;0.6056;1.2935;
1354.2000;0.6032;1.2910;
1354.5000;0.6024;1.2834;
1354.8000;0.6024;1.2960;
1355.1000;0.6064;1.3163;
1355.4000;0.6048;1.3062;
1355.7000;0.6056;1.3011;
1356.0000;0.6032;1.3037;
1356.3000;0.6056;1.3163;
1356.6000;0.6048;1.3163;
1356.9000;0.6048;1.3138;
1357.2000;0.6072;1.3138;
1357.5000;0.6056;1.3113;
1357.8000;0.6048;1.3037;
1358.1000;0.6040;1.3037;
1358.4000;0.6048;1.3011;
1358.7000;0.6064;1.3087;
1359.0000;0.6056;1.2935;
1359.3000;0.6064;1.3011;
1359.6000;0.6048;1.3011;
1359.9000;0.6048;1.3011;
1360.2000;0.6032;1.3011;
1360.5000;0.6024;1.3037;
1360.8000;0.6048;1.3163;
1361.1000;0.6032;1.3087;
1361.4000;0.6056;1.3138;
1361.7000;0.6048;1.3037;
1362.0000;0.6081;1.3087;
1362.3000;0.6056;1.3037;
1362.6000;0.6007;1.2986;
1362.9000;0.6072;1.3138;
1363.2000;0.6056;1.3037;
1363.5000;0.6048;1.3011;
1363.8000;0.6081;1.2986;
1364.1000;0.6064;1.2986;
1364.4000;0.6072;1.3011;
1364.7000;0.6064;1.3037;
1365.0000;0.6056;1.3011;
1365.3000;0.6040;1.2986;
1365.6000;0.6040;1.2960;
1365.9000;0.6040;1.2910;
1366.2000;0.6081;1.2935;
1366.5000;0.6048;1.2910;
1366.8000;0.6056;1.2935;
1367.1000;0.6048;1.2935;
1367.4000;0.6170;1.3265;
1367.7000;0.6072;1.3087;
1368.0000;0.6064;1.2986;
1368.3000;0.6064;1.3011;
1368.6000;0.6056;1.2986;
1368.9000;0.6056;1.3011;
1369.2000;0.6072;1.3113;
1369.5000;0.6040;1.3011;
1369.8000;0.6064;1.3113;
1370.1000;0.6024;1.3037;
1370.4000;0.6056;1.3011;
1370.7000;0.5958;1.2631;
1371.0000;0.6072;1.2986;
1371.3000;0.6072;1.2960;
1371.6000;0.6048;1.2960;
1371.9000;0.6072;1.3113;
1372.2000;0.6056;1.3163;
1372.5000;0.6048;1.3062;
1372.8000;0.6154;1.3392;
1373.1000;0.6081;1.3113;
1373.4000;0.6056;1.3113;
1373.7000;0.6056;1.3062;
1374.0000;0.6056;1.3113;
1374.3000;0.6048;1.3011;
1374.6000;0.6024;1.2935;
1374.9000;0.6040;1.2910;
1375.2000;0.6064;1.2935;
1375.5000;0.6024;1.2808;
1375.8000;0.6089;1.2935;
1376.1000;0.6064;1.3011;
1376.4000;0.6056;1.3037;
1376.7000;0.6064;1.3138;
1377.0000;0.6056;1.3113;
1377.3000;0.6056;1.2986;
1377.6000;0.6056;1.2884;
1377.9000;0.6056;1.3011;
1378.2000;0.6040;1.2960;
1378.5000;0.6032;1.2986;
1378.8000;0.6032;1.2986;
1379.1000;0.6032;1.3113;
1379.4000;0.6032;1.3087;
1379.7000;0.6024;1.3113;
1380.0000;0.6032;1.3113;
1380.3000;0.6040;1.3037;
1380.6000;0.6040;1.3062;
1380.9000;0.6032;1.3011;
1381.2000;0.6040;1.2986;
1381.5000;0.6040;1.3011;
1381.8000;0.6048;1.3113;
1382.1000;0.6072;1.3239;
1382.4000;0.6048;1.3214;
1382.7000;0.6032;1.3189;
1383.0000;0.6081;1.3265;
1383.3000;0.6048;1.3138;
1383.6000;0.6056;1.3062;
1383.9000;0.6113;1.3239;
1384.2000;0.6064;1.3138;
1384.5000;0.6056;1.3189;
1384.8000;0.6064;1.3113;
1385.1000;0.6056;1.3113;
1385.4000;0.6081;1.3239;
1385.7000;0.6056;1.3087;
1386.0000;0.6024;1.3062;
1386.3000;0.6048;1.3113;
1386.6000;0.6064;1.3037;
1386.9000;0.6056;1.3087;
1387.2000;0.6048;1.3011;
1387.5000;0.6048;1.3087;
1387.8000;0.6040;1.3037;
1388.1000;0.6048;1.3087;
1388.4000;0.6064;1.3062;
1388.7000;0.6040;1.2935;
1389.0000;0.6048;1.3011;
1389.3000;0.6064;1.3062;
1389.6000;0.6040;1.3011;
1389.9000;0.6040;1.3011;
1390.2000;0.6032;1.2960;
1390.5000;0.6040;1.3011;
1390.8000;0.6040;1.2986;
1391.1000;0.6048;1.3011;
1391.4000;0.6064;1.3087;
1391.7000;0.6032;1.3037;
1392.0000;0.6064;1.3087;
1392.3000;0.5999;1.2935;
1392.6000;0.6040;1.3011;
1392.9000;0.6040;1.2986;
1393.2000;0.6105;1.3341;
1393.5000;0.6040;1.3189;
1393.8000;0.6048;1.3189;
1394.1000;0.6040;1.3138;
1394.4000;0.6032;1.3163;
1394.7000;0.6064;1.3189;
1395.0000;0.6024;1.3138;
1395.3000;0.6015;1.3062;
1395.6000;0.6040;1.3113;
1395.9000;0.6072;1.3214;
1396.2000;0.6032;1.3062;
1396.5000;0.6072;1.3163;
1396.8000;0.6056;1.3087;
1397.1000;0.6056;1.3138;
1397.4000;0.6048;1.3087;
1397.7000;0.6032;1.3087;
1398.0000;0.6048;1.3087;
1398.3000;0.6064;1.3113;
1398.6000;0.6048;1.3087;
1398.9000;0.6032;1.3037;
1399.2000;0.6056;1.3113;
1399.5000;0.6064;1.3087;
1399.8000;0.6024;1.2935;
