time/ms;Fluo/V;P700 deltaI/I x10³;
-199.8000;0.3915;0.4578;
-199.5000;0.3940;0.4651;
-199.2000;0.3923;0.4700;
-198.9000;0.3932;0.4724;
-198.6000;0.3940;0.4700;
-198.3000;0.3932;0.4700;
-198.0000;0.3932;0.4675;
-197.7000;0.3915;0.4578;
-197.4000;0.3907;0.4553;
-197.1000;0.3923;0.4529;
-196.8000;0.3956;0.4627;
-196.5000;0.3915;0.4627;
-196.2000;0.3915;0.4553;
-195.9000;0.3923;0.4505;
-195.6000;0.3932;0.4602;
-195.3000;0.3940;0.4578;
-195.0000;0.3940;0.4602;
-194.7000;0.3940;0.4602;
-194.4000;0.3932;0.4651;
-194.1000;0.3932;0.4627;
-193.8000;0.3940;0.4675;
-193.5000;0.3940;0.4700;
-193.2000;0.3940;0.4651;
-192.9000;0.3923;0.4627;
-192.6000;0.3932;0.4578;
-192.3000;0.3940;0.4627;
-192.0000;0.3948;0.4675;
-191.7000;0.3956;0.4675;
-191.4000;0.3940;0.4675;
-191.1000;0.3940;0.4773;
-190.8000;0.3940;0.4724;
-190.5000;0.3932;0.4773;
-190.2000;0.3940;0.4846;
-189.9000;0.3923;0.4846;
-189.6000;0.3899;0.4748;
-189.3000;0.3948;0.4846;
-189.0000;0.3948;0.4821;
-188.7000;0.3972;0.4870;
-188.4000;0.3932;0.4773;
-188.1000;0.3923;0.4821;
-187.8000;0.3858;0.4602;
-187.5000;0.3923;0.4700;
-187.2000;0.3932;0.4700;
-186.9000;0.3948;0.4773;
-186.6000;0.3940;0.4797;
-186.3000;0.3932;0.4821;
-186.0000;0.3932;0.4846;
-185.7000;0.3899;0.4821;
-185.4000;0.3923;0.4748;
-185.1000;0.3923;0.4724;
-184.8000;0.3932;0.4602;
-184.5000;0.3940;0.4553;
-184.2000;0.3940;0.4651;
-183.9000;0.3940;0.4724;
-183.6000;0.3940;0.4724;
-183.3000;0.3940;0.4724;
-183.0000;0.3940;0.4675;
-182.7000;0.3932;0.4700;
-182.4000;0.3989;0.4846;
-182.1000;0.3923;0.4675;
-181.8000;0.3915;0.4675;
-181.5000;0.3915;0.4651;
-181.2000;0.3932;0.4602;
-180.9000;0.3940;0.4578;
-180.6000;0.3940;0.4627;
-180.3000;0.3997;0.4797;
-180.0000;0.3932;0.4651;
-179.7000;0.3932;0.4651;
-179.4000;0.3932;0.4578;
-179.1000;0.4013;0.4821;
-178.8000;0.3948;0.4700;
-178.5000;0.3907;0.4602;
-178.2000;0.3923;0.4602;
-177.9000;0.3940;0.4797;
-177.6000;0.3940;0.4821;
-177.3000;0.3940;0.4846;
-177.0000;0.3891;0.4748;
-176.7000;0.3932;0.4967;
-176.4000;0.3915;0.4967;
-176.1000;0.3923;0.4967;
-175.8000;0.3940;0.5016;
-175.5000;0.3932;0.5089;
-175.2000;0.3940;0.5187;
-174.9000;0.3989;0.5211;
-174.6000;0.3915;0.5040;
-174.3000;0.3940;0.5040;
-174.0000;0.3932;0.4967;
-173.7000;0.3940;0.4992;
-173.4000;0.3964;0.5089;
-173.1000;0.3923;0.5089;
-172.8000;0.3932;0.5114;
-172.5000;0.3964;0.5138;
-172.2000;0.3923;0.5114;
-171.9000;0.3932;0.5114;
-171.6000;0.3932;0.5089;
-171.3000;0.3940;0.5065;
-171.0000;0.3923;0.5040;
-170.7000;0.3932;0.5114;
-170.4000;0.3915;0.5065;
-170.1000;0.3964;0.5089;
-169.8000;0.3932;0.5089;
-169.5000;0.3940;0.5016;
-169.2000;0.3932;0.5016;
-168.9000;0.3964;0.5089;
-168.6000;0.3948;0.5089;
-168.3000;0.3940;0.5040;
-168.0000;0.3940;0.4967;
-167.7000;0.3932;0.5016;
-167.4000;0.3948;0.5016;
-167.1000;0.3940;0.4943;
-166.8000;0.3940;0.4992;
-166.5000;0.3972;0.4943;
-166.2000;0.3923;0.4821;
-165.9000;0.3940;0.4846;
-165.6000;0.3948;0.4846;
-165.3000;0.3907;0.4797;
-165.0000;0.3923;0.4870;
-164.7000;0.3932;0.4992;
-164.4000;0.3907;0.4967;
-164.1000;0.3940;0.5016;
-163.8000;0.3972;0.5089;
-163.5000;0.3948;0.4967;
-163.2000;0.3932;0.4894;
-162.9000;0.3923;0.4846;
-162.6000;0.3948;0.4870;
-162.3000;0.3932;0.4821;
-162.0000;0.3964;0.4967;
-161.7000;0.3948;0.4894;
-161.4000;0.3948;0.4846;
-161.1000;0.3989;0.4894;
-160.8000;0.3891;0.4748;
-160.5000;0.3899;0.4894;
-160.2000;0.3948;0.5016;
-159.9000;0.3891;0.4870;
-159.6000;0.3956;0.5016;
-159.3000;0.3956;0.4967;
-159.0000;0.3932;0.4821;
-158.7000;0.3891;0.4724;
-158.4000;0.3948;0.4992;
-158.1000;0.3956;0.5016;
-157.8000;0.3932;0.4992;
-157.5000;0.3940;0.4967;
-157.2000;0.3883;0.4773;
-156.9000;0.3948;0.4967;
-156.6000;0.3948;0.4967;
-156.3000;0.3891;0.4773;
-156.0000;0.3932;0.4943;
-155.7000;0.3932;0.4967;
-155.4000;0.3932;0.5065;
-155.1000;0.3891;0.4894;
-154.8000;0.3932;0.4894;
-154.5000;0.3940;0.5016;
-154.2000;0.3948;0.4992;
-153.9000;0.3923;0.4919;
-153.6000;0.3932;0.4943;
-153.3000;0.3956;0.4992;
-153.0000;0.3940;0.4846;
-152.7000;0.3948;0.4797;
-152.4000;0.3964;0.4846;
-152.1000;0.3972;0.4870;
-151.8000;0.3956;0.4870;
-151.5000;0.3923;0.4894;
-151.2000;0.3923;0.4797;
-150.9000;0.3948;0.4870;
-150.6000;0.3956;0.4943;
-150.3000;0.3915;0.4846;
-150.0000;0.3940;0.4797;
-149.7000;0.3948;0.4870;
-149.4000;0.3940;0.4894;
-149.1000;0.3932;0.4967;
-148.8000;0.3923;0.4992;
-148.5000;0.3940;0.4943;
-148.2000;0.3932;0.4846;
-147.9000;0.3980;0.4943;
-147.6000;0.3932;0.4773;
-147.3000;0.3932;0.4821;
-147.0000;0.3948;0.4797;
-146.7000;0.3940;0.4773;
-146.4000;0.3932;0.4748;
-146.1000;0.3940;0.4724;
-145.8000;0.3923;0.4748;
-145.5000;0.3932;0.4675;
-145.2000;0.3915;0.4651;
-144.9000;0.3940;0.4675;
-144.6000;0.3989;0.4894;
-144.3000;0.3956;0.4773;
-144.0000;0.3940;0.4821;
-143.7000;0.3940;0.4797;
-143.4000;0.3915;0.4748;
-143.1000;0.3948;0.4870;
-142.8000;0.3932;0.4870;
-142.5000;0.3923;0.4870;
-142.2000;0.3932;0.4894;
-141.9000;0.3940;0.4919;
-141.6000;0.3964;0.4992;
-141.3000;0.3932;0.4870;
-141.0000;0.3940;0.4967;
-140.7000;0.3956;0.5040;
-140.4000;0.3956;0.5016;
-140.1000;0.3940;0.5016;
-139.8000;0.3915;0.4967;
-139.5000;0.3948;0.5065;
-139.2000;0.3956;0.5040;
-138.9000;0.4119;0.5454;
-138.6000;0.3940;0.4943;
-138.3000;0.3989;0.4943;
-138.0000;0.3948;0.4919;
-137.7000;0.3932;0.4919;
-137.4000;0.3948;0.4894;
-137.1000;0.3883;0.4748;
-136.8000;0.3940;0.4846;
-136.5000;0.3948;0.4870;
-136.2000;0.3932;0.4967;
-135.9000;0.3932;0.4967;
-135.6000;0.3940;0.4894;
-135.3000;0.3915;0.4773;
-135.0000;0.3932;0.4797;
-134.7000;0.3915;0.4773;
-134.4000;0.3932;0.4821;
-134.1000;0.3948;0.4821;
-133.8000;0.3923;0.4748;
-133.5000;0.3932;0.4724;
-133.2000;0.3956;0.4821;
-132.9000;0.3923;0.4846;
-132.6000;0.3932;0.4894;
-132.3000;0.3923;0.4870;
-132.0000;0.3932;0.4919;
-131.7000;0.3948;0.5040;
-131.4000;0.3932;0.5065;
-131.1000;0.3923;0.4943;
-130.8000;0.3923;0.4870;
-130.5000;0.3948;0.4894;
-130.2000;0.3940;0.4821;
-129.9000;0.3940;0.4773;
-129.6000;0.3948;0.4748;
-129.3000;0.3948;0.4797;
-129.0000;0.3964;0.4797;
-128.7000;0.3907;0.4724;
-128.4000;0.3948;0.4724;
-128.1000;0.3932;0.4797;
-127.8000;0.3932;0.4773;
-127.5000;0.3923;0.4748;
-127.2000;0.3907;0.4651;
-126.9000;0.3923;0.4773;
-126.6000;0.3932;0.4797;
-126.3000;0.3932;0.4773;
-126.0000;0.3907;0.4651;
-125.7000;0.3850;0.4602;
-125.4000;0.3940;0.4821;
-125.1000;0.3923;0.4821;
-124.8000;0.3932;0.4846;
-124.5000;0.3940;0.4797;
-124.2000;0.3940;0.4870;
-123.9000;0.3899;0.4797;
-123.6000;0.3932;0.4846;
-123.3000;0.3940;0.4797;
-123.0000;0.3972;0.4846;
-122.7000;0.3956;0.4797;
-122.4000;0.3932;0.4797;
-122.1000;0.3899;0.4724;
-121.8000;0.3923;0.4846;
-121.5000;0.3932;0.4846;
-121.2000;0.3923;0.4748;
-120.9000;0.3932;0.4797;
-120.6000;0.3915;0.4846;
-120.3000;0.3932;0.4821;
-120.0000;0.3932;0.4821;
-119.7000;0.3940;0.4846;
-119.4000;0.3940;0.4821;
-119.1000;0.3867;0.4627;
-118.8000;0.3932;0.4821;
-118.5000;0.3932;0.4748;
-118.2000;0.3948;0.4821;
-117.9000;0.3948;0.4846;
-117.6000;0.3932;0.4821;
-117.3000;0.3932;0.4846;
-117.0000;0.3923;0.4894;
-116.7000;0.3923;0.5016;
-116.4000;0.3940;0.5065;
-116.1000;0.3883;0.4870;
-115.8000;0.3956;0.5065;
-115.5000;0.3915;0.4967;
-115.2000;0.3948;0.4992;
-114.9000;0.3923;0.4821;
-114.6000;0.3940;0.4846;
-114.3000;0.3940;0.4919;
-114.0000;0.3932;0.4846;
-113.7000;0.3923;0.4797;
-113.4000;0.3915;0.4797;
-113.1000;0.3948;0.4846;
-112.8000;0.3956;0.5016;
-112.5000;0.3940;0.4967;
-112.2000;0.3940;0.5016;
-111.9000;0.3948;0.5065;
-111.6000;0.3932;0.5138;
-111.3000;0.3940;0.5211;
-111.0000;0.3948;0.5284;
-110.7000;0.3980;0.5284;
-110.4000;0.3932;0.5089;
-110.1000;0.3923;0.5089;
-109.8000;0.3932;0.5089;
-109.5000;0.3932;0.5114;
-109.2000;0.3932;0.5089;
-108.9000;0.3932;0.5138;
-108.6000;0.3932;0.5187;
-108.3000;0.3932;0.5089;
-108.0000;0.3932;0.5016;
-107.7000;0.3948;0.5016;
-107.4000;0.3932;0.5040;
-107.1000;0.3923;0.5016;
-106.8000;0.3932;0.5016;
-106.5000;0.3923;0.4992;
-106.2000;0.3940;0.4992;
-105.9000;0.3932;0.4919;
-105.6000;0.3923;0.4943;
-105.3000;0.3932;0.5016;
-105.0000;0.3932;0.4919;
-104.7000;0.3948;0.4967;
-104.4000;0.3899;0.4870;
-104.1000;0.3932;0.4919;
-103.8000;0.3932;0.4870;
-103.5000;0.3948;0.4967;
-103.2000;0.3948;0.4967;
-102.9000;0.3940;0.4943;
-102.6000;0.3940;0.5016;
-102.3000;0.3875;0.4773;
-102.0000;0.3923;0.4967;
-101.7000;0.3923;0.5040;
-101.4000;0.3923;0.5187;
-101.1000;0.3956;0.5284;
-100.8000;0.3940;0.5308;
-100.5000;0.3932;0.5235;
-100.2000;0.3980;0.5284;
-99.9000;0.3923;0.5114;
-99.6000;0.3923;0.5016;
-99.3000;0.3940;0.5040;
-99.0000;0.3923;0.5065;
-98.7000;0.3940;0.5162;
-98.4000;0.3948;0.5138;
-98.1000;0.3940;0.5138;
-97.8000;0.3964;0.5138;
-97.5000;0.3940;0.5065;
-97.2000;0.3883;0.4919;
-96.9000;0.3932;0.5040;
-96.6000;0.3997;0.5138;
-96.3000;0.3940;0.5089;
-96.0000;0.3907;0.4992;
-95.7000;0.3948;0.5162;
-95.4000;0.3948;0.5187;
-95.1000;0.3964;0.5211;
-94.8000;0.3948;0.5138;
-94.5000;0.3940;0.5089;
-94.2000;0.3883;0.4943;
-93.9000;0.3948;0.5040;
-93.6000;0.3932;0.5016;
-93.3000;0.3964;0.5040;
-93.0000;0.3932;0.4943;
-92.7000;0.3948;0.4919;
-92.4000;0.3956;0.4992;
-92.1000;0.3891;0.4821;
-91.8000;0.3932;0.4992;
-91.5000;0.3948;0.4992;
-91.2000;0.3964;0.5065;
-90.9000;0.3956;0.5040;
-90.6000;0.3932;0.5016;
-90.3000;0.3932;0.5016;
-90.0000;0.3932;0.5016;
-89.7000;0.3940;0.4967;
-89.4000;0.3940;0.4919;
-89.1000;0.3956;0.4943;
-88.8000;0.3948;0.4992;
-88.5000;0.3932;0.4943;
-88.2000;0.3940;0.4943;
-87.9000;0.3932;0.4967;
-87.6000;0.3932;0.5016;
-87.3000;0.3940;0.5138;
-87.0000;0.3923;0.5138;
-86.7000;0.3964;0.5211;
-86.4000;0.3932;0.5138;
-86.1000;0.3915;0.5114;
-85.8000;0.3989;0.5235;
-85.5000;0.3923;0.4992;
-85.2000;0.3932;0.4967;
-84.9000;0.3923;0.4894;
-84.6000;0.3932;0.4943;
-84.3000;0.3948;0.4967;
-84.0000;0.3940;0.4943;
-83.7000;0.3940;0.4919;
-83.4000;0.3915;0.4870;
-83.1000;0.3940;0.4894;
-82.8000;0.3948;0.4967;
-82.5000;0.3964;0.5065;
-82.2000;0.3948;0.5114;
-81.9000;0.3972;0.5040;
-81.6000;0.3948;0.4967;
-81.3000;0.3940;0.4943;
-81.0000;0.3940;0.4919;
-80.7000;0.3956;0.4943;
-80.4000;0.3948;0.4967;
-80.1000;0.3915;0.4870;
-79.8000;0.3940;0.4943;
-79.5000;0.3956;0.4943;
-79.2000;0.3948;0.4919;
-78.9000;0.3932;0.4821;
-78.6000;0.3948;0.4870;
-78.3000;0.3932;0.4773;
-78.0000;0.3972;0.4919;
-77.7000;0.3907;0.4821;
-77.4000;0.3932;0.4919;
-77.1000;0.3932;0.4919;
-76.8000;0.3940;0.4992;
-76.5000;0.3932;0.4992;
-76.2000;0.3932;0.4967;
-75.9000;0.3940;0.4919;
-75.6000;0.3948;0.4919;
-75.3000;0.3932;0.4919;
-75.0000;0.3923;0.4773;
-74.7000;0.3932;0.4700;
-74.4000;0.3923;0.4675;
-74.1000;0.3940;0.4651;
-73.8000;0.3875;0.4529;
-73.5000;0.3940;0.4724;
-73.2000;0.3923;0.4651;
-72.9000;0.3932;0.4651;
-72.6000;0.3932;0.4627;
-72.3000;0.3932;0.4602;
-72.0000;0.3948;0.4602;
-71.7000;0.3956;0.4675;
-71.4000;0.3980;0.4821;
-71.1000;0.3956;0.4724;
-70.8000;0.3956;0.4700;
-70.5000;0.3940;0.4578;
-70.2000;0.3948;0.4602;
-69.9000;0.3948;0.4651;
-69.6000;0.3948;0.4578;
-69.3000;0.3940;0.4578;
-69.0000;0.3948;0.4700;
-68.7000;0.3915;0.4627;
-68.4000;0.3940;0.4773;
-68.1000;0.3948;0.4748;
-67.8000;0.3915;0.4602;
-67.5000;0.4005;0.4748;
-67.2000;0.3940;0.4553;
-66.9000;0.3867;0.4334;
-66.6000;0.3956;0.4553;
-66.3000;0.3932;0.4553;
-66.0000;0.3915;0.4505;
-65.7000;0.3923;0.4529;
-65.4000;0.3915;0.4578;
-65.1000;0.3915;0.4675;
-64.8000;0.3932;0.4651;
-64.5000;0.3932;0.4724;
-64.2000;0.3932;0.4651;
-63.9000;0.3989;0.4797;
-63.6000;0.3940;0.4651;
-63.3000;0.3923;0.4627;
-63.0000;0.3932;0.4627;
-62.7000;0.3940;0.4651;
-62.4000;0.3940;0.4627;
-62.1000;0.3932;0.4675;
-61.8000;0.3948;0.4651;
-61.5000;0.3899;0.4529;
-61.2000;0.3956;0.4627;
-60.9000;0.3948;0.4724;
-60.6000;0.3940;0.4748;
-60.3000;0.3956;0.4748;
-60.0000;0.3964;0.4748;
-59.7000;0.3940;0.4700;
-59.4000;0.3948;0.4724;
-59.1000;0.3948;0.4627;
-58.8000;0.3980;0.4700;
-58.5000;0.3964;0.4748;
-58.2000;0.3940;0.4700;
-57.9000;0.3948;0.4748;
-57.6000;0.3956;0.4700;
-57.3000;0.3940;0.4773;
-57.0000;0.3956;0.4724;
-56.7000;0.3956;0.4797;
-56.4000;0.3907;0.4724;
-56.1000;0.3948;0.4821;
-55.8000;0.3940;0.4846;
-55.5000;0.3956;0.4797;
-55.2000;0.3956;0.4651;
-54.9000;0.3923;0.4578;
-54.6000;0.3932;0.4480;
-54.3000;0.3875;0.4359;
-54.0000;0.3997;0.4627;
-53.7000;0.3932;0.4529;
-53.4000;0.3948;0.4651;
-53.1000;0.3932;0.4578;
-52.8000;0.3948;0.4602;
-52.5000;0.3948;0.4602;
-52.2000;0.3932;0.4627;
-51.9000;0.3875;0.4529;
-51.6000;0.3940;0.4627;
-51.3000;0.3932;0.4529;
-51.0000;0.3932;0.4578;
-50.7000;0.3923;0.4553;
-50.4000;0.3948;0.4627;
-50.1000;0.3940;0.4651;
-49.8000;0.3940;0.4627;
-49.5000;0.3940;0.4675;
-49.2000;0.3940;0.4700;
-48.9000;0.3932;0.4675;
-48.6000;0.3940;0.4578;
-48.3000;0.3948;0.4529;
-48.0000;0.3875;0.4359;
-47.7000;0.3948;0.4480;
-47.4000;0.3940;0.4480;
-47.1000;0.3956;0.4480;
-46.8000;0.3956;0.4480;
-46.5000;0.3915;0.4432;
-46.2000;0.3956;0.4529;
-45.9000;0.3932;0.4553;
-45.6000;0.3940;0.4627;
-45.3000;0.3891;0.4553;
-45.0000;0.3940;0.4724;
-44.7000;0.3932;0.4748;
-44.4000;0.3858;0.4602;
-44.1000;0.3989;0.4894;
-43.8000;0.3915;0.4700;
-43.5000;0.3940;0.4675;
-43.2000;0.3923;0.4675;
-42.9000;0.3940;0.4724;
-42.6000;0.3948;0.4748;
-42.3000;0.3932;0.4700;
-42.0000;0.3907;0.4700;
-41.7000;0.3932;0.4797;
-41.4000;0.3940;0.4846;
-41.1000;0.3972;0.4870;
-40.8000;0.3956;0.4700;
-40.5000;0.3923;0.4602;
-40.2000;0.3923;0.4651;
-39.9000;0.3948;0.4675;
-39.6000;0.3932;0.4553;
-39.3000;0.3932;0.4578;
-39.0000;0.3948;0.4553;
-38.7000;0.3948;0.4627;
-38.4000;0.3948;0.4651;
-38.1000;0.3948;0.4602;
-37.8000;0.3940;0.4675;
-37.5000;0.3948;0.4651;
-37.2000;0.3940;0.4627;
-36.9000;0.3940;0.4553;
-36.6000;0.4005;0.4773;
-36.3000;0.3940;0.4700;
-36.0000;0.3956;0.4773;
-35.7000;0.3867;0.4505;
-35.4000;0.3940;0.4553;
-35.1000;0.3940;0.4651;
-34.8000;0.3956;0.4748;
-34.5000;0.3932;0.4700;
-34.2000;0.4005;0.4846;
-33.9000;0.4037;0.4943;
-33.6000;0.3956;0.4724;
-33.3000;0.3980;0.4748;
-33.0000;0.3948;0.4651;
-32.7000;0.3948;0.4651;
-32.4000;0.3948;0.4578;
-32.1000;0.3932;0.4602;
-31.8000;0.3932;0.4651;
-31.5000;0.3932;0.4578;
-31.2000;0.3940;0.4578;
-30.9000;0.3948;0.4553;
-30.6000;0.3932;0.4553;
-30.3000;0.3923;0.4553;
-30.0000;0.3923;0.4529;
-29.7000;0.3997;0.4724;
-29.4000;0.3948;0.4553;
-29.1000;0.3948;0.4480;
-28.8000;0.3940;0.4480;
-28.5000;0.3956;0.4456;
-28.2000;0.3940;0.4432;
-27.9000;0.3923;0.4334;
-27.6000;0.3964;0.4480;
-27.3000;0.3948;0.4432;
-27.0000;0.3948;0.4480;
-26.7000;0.3923;0.4383;
-26.4000;0.3923;0.4383;
-26.1000;0.3940;0.4480;
-25.8000;0.3899;0.4334;
-25.5000;0.3932;0.4480;
-25.2000;0.3948;0.4505;
-24.9000;0.3940;0.4480;
-24.6000;0.3940;0.4480;
-24.3000;0.3883;0.4310;
-24.0000;0.3932;0.4529;
-23.7000;0.3948;0.4627;
-23.4000;0.3932;0.4700;
-23.1000;0.3964;0.4846;
-22.8000;0.3932;0.4821;
-22.5000;0.3932;0.4821;
-22.2000;0.3940;0.4748;
-21.9000;0.3940;0.4797;
-21.6000;0.3923;0.4773;
-21.3000;0.4005;0.4992;
-21.0000;0.3940;0.4821;
-20.7000;0.3932;0.4846;
-20.4000;0.3948;0.4821;
-20.1000;0.3932;0.4773;
-19.8000;0.3932;0.4773;
-19.5000;0.3940;0.4748;
-19.2000;0.3932;0.4773;
-18.9000;0.3932;0.4724;
-18.6000;0.3948;0.4700;
-18.3000;0.3940;0.4797;
-18.0000;0.3932;0.4651;
-17.7000;0.3923;0.4578;
-17.4000;0.3932;0.4675;
-17.1000;0.3948;0.4724;
-16.8000;0.3948;0.4773;
-16.5000;0.3956;0.4748;
-16.2000;0.3956;0.4627;
-15.9000;0.3989;0.4675;
-15.6000;0.3956;0.4602;
-15.3000;0.3940;0.4505;
-15.0000;0.3923;0.4432;
-14.7000;0.3940;0.4456;
-14.4000;0.3948;0.4553;
-14.1000;0.3932;0.4602;
-13.8000;0.3940;0.4675;
-13.5000;0.3932;0.4627;
-13.2000;0.3940;0.4553;
-12.9000;0.3940;0.4456;
-12.6000;0.3858;0.4480;
-12.3000;0.3940;0.4724;
-12.0000;0.3956;0.4748;
-11.7000;0.3989;0.4773;
-11.4000;0.3948;0.4651;
-11.1000;0.3932;0.4578;
-10.8000;0.3964;0.4700;
-10.5000;0.3923;0.4724;
-10.2000;0.3940;0.4748;
-9.9000;0.3948;0.4724;
-9.6000;0.3940;0.4797;
-9.3000;0.3940;0.4675;
-9.0000;0.3948;0.4627;
-8.7000;0.3940;0.4553;
-8.4000;0.3899;0.4407;
-8.1000;0.3948;0.4553;
-7.8000;0.3940;0.4529;
-7.5000;0.3940;0.4553;
-7.2000;0.3883;0.4407;
-6.9000;0.3948;0.4480;
-6.6000;0.3948;0.4553;
-6.3000;0.3907;0.4432;
-6.0000;0.3923;0.4359;
-5.7000;0.3940;0.4407;
-5.4000;0.3923;0.4407;
-5.1000;0.3964;0.4529;
-4.8000;0.3915;0.4407;
-4.5000;0.3940;0.4310;
-4.2000;0.3923;0.4310;
-3.9000;0.3923;0.4383;
-3.6000;0.3940;0.4432;
-3.3000;0.3907;0.4383;
-3.0000;0.3923;0.4432;
-2.7000;0.3940;0.4383;
-2.4000;0.3956;0.4432;
-2.1000;0.3915;0.4383;
-1.8000;0.4005;0.4724;
-1.5000;0.3915;0.4553;
-1.2000;0.3940;0.4553;
-0.9000;0.3940;0.4553;
-0.6000;0.3932;0.4553;
-0.3000;0.3932;0.4602;
0.0000;0.3932;0.4602;
0.3000;0.3956;0.4602;
0.6000;0.4005;0.4846;
0.9000;0.4005;0.4992;
1.2000;0.4021;0.5308;
1.5000;0.4103;0.5722;
1.8000;0.4046;0.5722;
2.1000;0.4054;0.5941;
2.4000;0.4094;0.6136;
2.7000;0.4094;0.6282;
3.0000;0.4127;0.6477;
3.3000;0.4111;0.6526;
3.6000;0.4135;0.6575;
3.9000;0.4119;0.6575;
4.2000;0.4135;0.6672;
4.5000;0.4143;0.6721;
4.8000;0.4111;0.6721;
5.1000;0.4192;0.6940;
5.4000;0.4103;0.6745;
5.7000;0.4127;0.6964;
6.0000;0.4151;0.6940;
6.3000;0.4135;0.6842;
6.6000;0.4111;0.6818;
6.9000;0.4143;0.6842;
7.2000;0.4143;0.6891;
7.5000;0.4127;0.6988;
7.8000;0.4143;0.7062;
8.1000;0.4143;0.6988;
8.4000;0.4160;0.6988;
8.7000;0.4151;0.6964;
9.0000;0.4151;0.6988;
9.3000;0.4168;0.6988;
9.6000;0.4151;0.6915;
9.9000;0.4176;0.6988;
10.2000;0.4168;0.6988;
10.5000;0.4168;0.6988;
10.8000;0.4168;0.7062;
11.1000;0.4111;0.6915;
11.4000;0.4168;0.7013;
11.7000;0.4168;0.6940;
12.0000;0.4168;0.6915;
12.3000;0.4135;0.6842;
12.6000;0.4151;0.6891;
12.9000;0.4176;0.6867;
13.2000;0.4217;0.7013;
13.5000;0.4200;0.7062;
13.8000;0.4168;0.7013;
14.1000;0.4151;0.6988;
14.4000;0.4184;0.6964;
14.7000;0.4208;0.6940;
15.0000;0.4176;0.6964;
15.3000;0.4192;0.6940;
15.6000;0.4176;0.6867;
15.9000;0.4135;0.6818;
16.2000;0.4176;0.6964;
16.5000;0.4160;0.6867;
16.8000;0.4168;0.6867;
17.1000;0.4176;0.6940;
17.4000;0.4192;0.7110;
17.7000;0.4127;0.6964;
18.0000;0.4160;0.6988;
18.3000;0.4184;0.7086;
18.6000;0.4200;0.7159;
18.9000;0.4200;0.7037;
19.2000;0.4127;0.6867;
19.5000;0.4192;0.7086;
19.8000;0.4184;0.7062;
20.1000;0.4200;0.7208;
20.4000;0.4208;0.7159;
20.7000;0.4184;0.7086;
21.0000;0.4200;0.7135;
21.3000;0.4200;0.7062;
21.6000;0.4168;0.6940;
21.9000;0.4208;0.6915;
22.2000;0.4184;0.6915;
22.5000;0.4200;0.7013;
22.8000;0.4200;0.6964;
23.1000;0.4192;0.6988;
23.4000;0.4127;0.6745;
23.7000;0.4168;0.6818;
24.0000;0.4208;0.6964;
24.3000;0.4200;0.6988;
24.6000;0.4208;0.7062;
24.9000;0.4168;0.6964;
25.2000;0.4208;0.6940;
25.5000;0.4192;0.6867;
25.8000;0.4257;0.7062;
26.1000;0.4208;0.6988;
26.4000;0.4200;0.6915;
26.7000;0.4200;0.6915;
27.0000;0.4208;0.6940;
27.3000;0.4200;0.6940;
27.6000;0.4200;0.6988;
27.9000;0.4208;0.6964;
28.2000;0.4200;0.6988;
28.5000;0.4217;0.6867;
28.8000;0.4217;0.6940;
29.1000;0.4257;0.7037;
29.4000;0.4217;0.6940;
29.7000;0.4225;0.6988;
30.0000;0.4249;0.7159;
30.3000;0.4225;0.7110;
30.6000;0.4217;0.7086;
30.9000;0.4192;0.7013;
31.2000;0.4217;0.6988;
31.5000;0.4225;0.7062;
31.8000;0.4208;0.7013;
32.1000;0.4168;0.7013;
32.4000;0.4225;0.7110;
32.7000;0.4225;0.7013;
33.0000;0.4225;0.6988;
33.3000;0.4225;0.6988;
33.6000;0.4241;0.6940;
33.9000;0.4225;0.7062;
34.2000;0.4233;0.7062;
34.5000;0.4208;0.7062;
34.8000;0.4225;0.7110;
35.1000;0.4217;0.7135;
35.4000;0.4225;0.7159;
35.7000;0.4233;0.7159;
36.0000;0.4208;0.7062;
36.3000;0.4217;0.6988;
36.6000;0.4282;0.7159;
36.9000;0.4274;0.7086;
37.2000;0.4208;0.6964;
37.5000;0.4225;0.6988;
37.8000;0.4249;0.6940;
38.1000;0.4168;0.6721;
38.4000;0.4200;0.6769;
38.7000;0.4217;0.6891;
39.0000;0.4233;0.6964;
39.3000;0.4233;0.6915;
39.6000;0.4200;0.6721;
39.9000;0.4274;0.6915;
40.2000;0.4225;0.6769;
40.5000;0.4233;0.6745;
40.8000;0.4160;0.6575;
41.1000;0.4282;0.6915;
41.4000;0.4217;0.6769;
41.7000;0.4208;0.6769;
42.0000;0.4208;0.6818;
42.3000;0.4274;0.7110;
42.6000;0.4192;0.6988;
42.9000;0.4225;0.7135;
43.2000;0.4217;0.7110;
43.5000;0.4225;0.7062;
43.8000;0.4208;0.7110;
44.1000;0.4217;0.7135;
44.4000;0.4241;0.7159;
44.7000;0.4208;0.7110;
45.0000;0.4225;0.7110;
45.3000;0.4233;0.7135;
45.6000;0.4233;0.7208;
45.9000;0.4208;0.7159;
46.2000;0.4225;0.7159;
46.5000;0.4200;0.7183;
46.8000;0.4249;0.7183;
47.1000;0.4217;0.7110;
47.4000;0.4241;0.7135;
47.7000;0.4225;0.7135;
48.0000;0.4225;0.7062;
48.3000;0.4241;0.7037;
48.6000;0.4241;0.6940;
48.9000;0.4241;0.7013;
49.2000;0.4233;0.7086;
49.5000;0.4241;0.7013;
49.8000;0.4241;0.7037;
50.1000;0.4233;0.6988;
50.4000;0.4233;0.6964;
50.7000;0.4233;0.7013;
51.0000;0.4233;0.7037;
51.3000;0.4217;0.6915;
51.6000;0.4257;0.6964;
51.9000;0.4233;0.6867;
52.2000;0.4225;0.6964;
52.5000;0.4208;0.7013;
52.8000;0.4217;0.7086;
53.1000;0.4241;0.7062;
53.4000;0.4225;0.7062;
53.7000;0.4249;0.7110;
54.0000;0.4225;0.7086;
54.3000;0.4233;0.7110;
54.6000;0.4233;0.7086;
54.9000;0.4257;0.7135;
55.2000;0.4151;0.6891;
55.5000;0.4233;0.7037;
55.8000;0.4225;0.6964;
56.1000;0.4217;0.6915;
56.4000;0.4208;0.6940;
56.7000;0.4241;0.7037;
57.0000;0.4217;0.6891;
57.3000;0.4217;0.7013;
57.6000;0.4217;0.7037;
57.9000;0.4217;0.7037;
58.2000;0.4208;0.6964;
58.5000;0.4168;0.6769;
58.8000;0.4249;0.7013;
59.1000;0.4208;0.6988;
59.4000;0.4249;0.7062;
59.7000;0.4249;0.7013;
60.0000;0.4241;0.7062;
60.3000;0.4249;0.7135;
60.6000;0.4257;0.7183;
60.9000;0.4249;0.7183;
61.2000;0.4233;0.7183;
61.5000;0.4233;0.7159;
61.8000;0.4233;0.7159;
62.1000;0.4257;0.7183;
62.4000;0.4241;0.7159;
62.7000;0.4225;0.7110;
63.0000;0.4225;0.7062;
63.3000;0.4233;0.7086;
63.6000;0.4233;0.7062;
63.9000;0.4217;0.6964;
64.2000;0.4249;0.7159;
64.5000;0.4249;0.7159;
64.8000;0.4265;0.7183;
65.1000;0.4208;0.6988;
65.4000;0.4249;0.7159;
65.7000;0.4249;0.7110;
66.0000;0.4249;0.7135;
66.3000;0.4249;0.7062;
66.6000;0.4233;0.7086;
66.9000;0.4265;0.7135;
67.2000;0.4257;0.7086;
67.5000;0.4249;0.7135;
67.8000;0.4257;0.7110;
68.1000;0.4257;0.7110;
68.4000;0.4257;0.7086;
68.7000;0.4249;0.7159;
69.0000;0.4225;0.7159;
69.3000;0.4241;0.7159;
69.6000;0.4249;0.7183;
69.9000;0.4249;0.7135;
70.2000;0.4233;0.7183;
70.5000;0.4249;0.7281;
70.8000;0.4241;0.7256;
71.1000;0.4306;0.7378;
71.4000;0.4233;0.7329;
71.7000;0.4233;0.7378;
72.0000;0.4233;0.7354;
72.3000;0.4225;0.7354;
72.6000;0.4200;0.7183;
72.9000;0.4225;0.7256;
73.2000;0.4233;0.7281;
73.5000;0.4233;0.7232;
73.8000;0.4233;0.7159;
74.1000;0.4233;0.7183;
74.4000;0.4225;0.7086;
74.7000;0.4217;0.7062;
75.0000;0.4225;0.7183;
75.3000;0.4233;0.7232;
75.6000;0.4208;0.7110;
75.9000;0.4233;0.7086;
76.2000;0.4265;0.7135;
76.5000;0.4241;0.7037;
76.8000;0.4241;0.7037;
77.1000;0.4282;0.7159;
77.4000;0.4249;0.7013;
77.7000;0.4225;0.6964;
78.0000;0.4233;0.7062;
78.3000;0.4241;0.7086;
78.6000;0.4274;0.7135;
78.9000;0.4217;0.7062;
79.2000;0.4184;0.6964;
79.5000;0.4233;0.7110;
79.8000;0.4249;0.7159;
80.1000;0.4265;0.7232;
80.4000;0.4168;0.6988;
80.7000;0.4249;0.7232;
81.0000;0.4249;0.7281;
81.3000;0.4184;0.7062;
81.6000;0.4274;0.7208;
81.9000;0.4241;0.7208;
82.2000;0.4249;0.7208;
82.5000;0.4217;0.7110;
82.8000;0.4233;0.7110;
83.1000;0.4233;0.7159;
83.4000;0.4233;0.7159;
83.7000;0.4241;0.7110;
84.0000;0.4233;0.7110;
84.3000;0.4217;0.7110;
84.6000;0.4241;0.7110;
84.9000;0.4257;0.7086;
85.2000;0.4241;0.7135;
85.5000;0.4241;0.7159;
85.8000;0.4200;0.7135;
86.1000;0.4233;0.7232;
86.4000;0.4241;0.7232;
86.7000;0.4233;0.7232;
87.0000;0.4249;0.7183;
87.3000;0.4257;0.7183;
87.6000;0.4249;0.7159;
87.9000;0.4265;0.7232;
88.2000;0.4200;0.7013;
88.5000;0.4233;0.7110;
88.8000;0.4298;0.7256;
89.1000;0.4241;0.7208;
89.4000;0.4241;0.7281;
89.7000;0.4241;0.7256;
90.0000;0.4274;0.7208;
90.3000;0.4241;0.7159;
90.6000;0.4233;0.7135;
90.9000;0.4225;0.7208;
91.2000;0.4233;0.7183;
91.5000;0.4257;0.7159;
91.8000;0.4249;0.6988;
92.1000;0.4241;0.7013;
92.4000;0.4208;0.6964;
92.7000;0.4347;0.7354;
93.0000;0.4257;0.7013;
93.3000;0.4249;0.7062;
93.6000;0.4257;0.7013;
93.9000;0.4257;0.6988;
94.2000;0.4257;0.7013;
94.5000;0.4233;0.6964;
94.8000;0.4249;0.7062;
95.1000;0.4265;0.7086;
95.4000;0.4241;0.7135;
95.7000;0.4233;0.7037;
96.0000;0.4249;0.7013;
96.3000;0.4249;0.7135;
96.6000;0.4241;0.7110;
96.9000;0.4233;0.7037;
97.2000;0.4241;0.7110;
97.5000;0.4225;0.7086;
97.8000;0.4225;0.7135;
98.1000;0.4225;0.7037;
98.4000;0.4241;0.7037;
98.7000;0.4306;0.7354;
99.0000;0.4233;0.7135;
99.3000;0.4241;0.7208;
99.6000;0.4233;0.7232;
99.9000;0.4249;0.7232;
100.2000;0.4249;0.7183;
100.5000;0.4241;0.7159;
100.8000;0.4241;0.7037;
101.1000;0.4249;0.7037;
101.4000;0.4233;0.7110;
101.7000;0.4233;0.7086;
102.0000;0.4241;0.7062;
102.3000;0.4225;0.7037;
102.6000;0.4249;0.7135;
102.9000;0.4233;0.7183;
103.2000;0.4265;0.7208;
103.5000;0.4208;0.7135;
103.8000;0.4241;0.7183;
104.1000;0.4249;0.7183;
104.4000;0.4233;0.7208;
104.7000;0.4225;0.7110;
105.0000;0.4225;0.7013;
105.3000;0.4200;0.6940;
105.6000;0.4241;0.6964;
105.9000;0.4265;0.7086;
106.2000;0.4241;0.7110;
106.5000;0.4249;0.7232;
106.8000;0.4241;0.7208;
107.1000;0.4233;0.7183;
107.4000;0.4217;0.7208;
107.7000;0.4249;0.7305;
108.0000;0.4241;0.7329;
108.3000;0.4241;0.7305;
108.6000;0.4200;0.7256;
108.9000;0.4225;0.7232;
109.2000;0.4208;0.7183;
109.5000;0.4233;0.7208;
109.8000;0.4168;0.6940;
110.1000;0.4225;0.7037;
110.4000;0.4233;0.7037;
110.7000;0.4257;0.7135;
111.0000;0.4217;0.6964;
111.3000;0.4241;0.7086;
111.6000;0.4225;0.7013;
111.9000;0.4249;0.7037;
112.2000;0.4225;0.7013;
112.5000;0.4225;0.7013;
112.8000;0.4241;0.7110;
113.1000;0.4233;0.7037;
113.4000;0.4217;0.6964;
113.7000;0.4241;0.7013;
114.0000;0.4225;0.6940;
114.3000;0.4249;0.6964;
114.6000;0.4306;0.7135;
114.9000;0.4233;0.6940;
115.2000;0.4249;0.7013;
115.5000;0.4257;0.7086;
115.8000;0.4265;0.7159;
116.1000;0.4265;0.7208;
116.4000;0.4274;0.7232;
116.7000;0.4274;0.7183;
117.0000;0.4241;0.7062;
117.3000;0.4233;0.7013;
117.6000;0.4241;0.7037;
117.9000;0.4241;0.7110;
118.2000;0.4249;0.7135;
118.5000;0.4208;0.7135;
118.8000;0.4233;0.7183;
119.1000;0.4176;0.6988;
119.4000;0.4257;0.7135;
119.7000;0.4298;0.7256;
120.0000;0.4233;0.7110;
120.3000;0.4257;0.7159;
120.6000;0.4241;0.7135;
120.9000;0.4257;0.7208;
121.2000;0.4241;0.7159;
121.5000;0.4249;0.7281;
121.8000;0.4249;0.7354;
122.1000;0.4225;0.7256;
122.4000;0.4249;0.7208;
122.7000;0.4249;0.7159;
123.0000;0.4233;0.7159;
123.3000;0.4249;0.7159;
123.6000;0.4233;0.7062;
123.9000;0.4249;0.7159;
124.2000;0.4257;0.7183;
124.5000;0.4257;0.7208;
124.8000;0.4249;0.7159;
125.1000;0.4249;0.7183;
125.4000;0.4225;0.7110;
125.7000;0.4257;0.7256;
126.0000;0.4249;0.7256;
126.3000;0.4249;0.7256;
126.6000;0.4257;0.7256;
126.9000;0.4249;0.7232;
127.2000;0.4249;0.7159;
127.5000;0.4249;0.7159;
127.8000;0.4208;0.7086;
128.1000;0.4241;0.7159;
128.4000;0.4249;0.7159;
128.7000;0.4241;0.7086;
129.0000;0.4241;0.7086;
129.3000;0.4257;0.7086;
129.6000;0.4225;0.7037;
129.9000;0.4257;0.7232;
130.2000;0.4241;0.7232;
130.5000;0.4249;0.7305;
130.8000;0.4274;0.7402;
131.1000;0.4257;0.7427;
131.4000;0.4241;0.7378;
131.7000;0.4322;0.7573;
132.0000;0.4290;0.7475;
132.3000;0.4290;0.7475;
132.6000;0.4249;0.7329;
132.9000;0.4217;0.7329;
133.2000;0.4322;0.7573;
133.5000;0.4249;0.7305;
133.8000;0.4184;0.7159;
134.1000;0.4217;0.7305;
134.4000;0.4233;0.7354;
134.7000;0.4241;0.7329;
135.0000;0.4208;0.7208;
135.3000;0.4233;0.7378;
135.6000;0.4233;0.7378;
135.9000;0.4233;0.7402;
136.2000;0.4225;0.7427;
136.5000;0.4241;0.7402;
136.8000;0.4241;0.7329;
137.1000;0.4241;0.7256;
137.4000;0.4274;0.7281;
137.7000;0.4257;0.7305;
138.0000;0.4192;0.7183;
138.3000;0.4241;0.7281;
138.6000;0.4257;0.7329;
138.9000;0.4217;0.7208;
139.2000;0.4233;0.7183;
139.5000;0.4249;0.7305;
139.8000;0.4249;0.7378;
140.1000;0.4257;0.7256;
140.4000;0.4233;0.7256;
140.7000;0.4225;0.7208;
141.0000;0.4241;0.7305;
141.3000;0.4265;0.7378;
141.6000;0.4233;0.7305;
141.9000;0.4241;0.7378;
142.2000;0.4233;0.7475;
142.5000;0.4233;0.7427;
142.8000;0.4249;0.7427;
143.1000;0.4233;0.7305;
143.4000;0.4192;0.7208;
143.7000;0.4233;0.7329;
144.0000;0.4241;0.7281;
144.3000;0.4233;0.7305;
144.6000;0.4265;0.7354;
144.9000;0.4249;0.7256;
145.2000;0.4241;0.7305;
145.5000;0.4241;0.7329;
145.8000;0.4217;0.7256;
146.1000;0.4249;0.7281;
146.4000;0.4233;0.7232;
146.7000;0.4241;0.7208;
147.0000;0.4241;0.7135;
147.3000;0.4249;0.7159;
147.6000;0.4241;0.7159;
147.9000;0.4241;0.7183;
148.2000;0.4217;0.7086;
148.5000;0.4241;0.7159;
148.8000;0.4233;0.7062;
149.1000;0.4217;0.7062;
149.4000;0.4225;0.7159;
149.7000;0.4241;0.7183;
150.0000;0.4249;0.7135;
150.3000;0.4233;0.7208;
150.6000;0.4233;0.7329;
150.9000;0.4249;0.7402;
151.2000;0.4233;0.7354;
151.5000;0.4290;0.7549;
151.8000;0.4257;0.7475;
152.1000;0.4249;0.7378;
152.4000;0.4249;0.7329;
152.7000;0.4257;0.7329;
153.0000;0.4233;0.7281;
153.3000;0.4208;0.7183;
153.6000;0.4241;0.7281;
153.9000;0.4233;0.7281;
154.2000;0.4241;0.7256;
154.5000;0.4225;0.7183;
154.8000;0.4241;0.7208;
155.1000;0.4241;0.7232;
155.4000;0.4217;0.7159;
155.7000;0.4265;0.7208;
156.0000;0.4184;0.7037;
156.3000;0.4225;0.7183;
156.6000;0.4282;0.7305;
156.9000;0.4274;0.7208;
157.2000;0.4290;0.7281;
157.5000;0.4241;0.7183;
157.8000;0.4225;0.7159;
158.1000;0.4225;0.7159;
158.4000;0.4249;0.7183;
158.7000;0.4241;0.7183;
159.0000;0.4241;0.7062;
159.3000;0.4249;0.7062;
159.6000;0.4241;0.6988;
159.9000;0.4233;0.7013;
160.2000;0.4249;0.7062;
160.5000;0.4233;0.7062;
160.8000;0.4233;0.7037;
161.1000;0.4241;0.7062;
161.4000;0.4249;0.7037;
161.7000;0.4249;0.7037;
162.0000;0.4233;0.6988;
162.3000;0.4249;0.7037;
162.6000;0.4241;0.6988;
162.9000;0.4241;0.6915;
163.2000;0.4249;0.6964;
163.5000;0.4233;0.6915;
163.8000;0.4225;0.6964;
164.1000;0.4225;0.6988;
164.4000;0.4233;0.6940;
164.7000;0.4217;0.6988;
165.0000;0.4225;0.7086;
165.3000;0.4249;0.7183;
165.6000;0.4192;0.7086;
165.9000;0.4241;0.7183;
166.2000;0.4249;0.7232;
166.5000;0.4241;0.7256;
166.8000;0.4233;0.7232;
167.1000;0.4233;0.7281;
167.4000;0.4241;0.7159;
167.7000;0.4225;0.7135;
168.0000;0.4233;0.7110;
168.3000;0.4241;0.7110;
168.6000;0.4241;0.7135;
168.9000;0.4241;0.7159;
169.2000;0.4249;0.7159;
169.5000;0.4225;0.7183;
169.8000;0.4225;0.7232;
170.1000;0.4241;0.7305;
170.4000;0.4233;0.7329;
170.7000;0.4241;0.7256;
171.0000;0.4225;0.7208;
171.3000;0.4241;0.7256;
171.6000;0.4241;0.7305;
171.9000;0.4241;0.7208;
172.2000;0.4225;0.7183;
172.5000;0.4217;0.7208;
172.8000;0.4241;0.7256;
173.1000;0.4241;0.7232;
173.4000;0.4233;0.7183;
173.7000;0.4200;0.7086;
174.0000;0.4233;0.7232;
174.3000;0.4241;0.7232;
174.6000;0.4241;0.7208;
174.9000;0.4225;0.7256;
175.2000;0.4176;0.7013;
175.5000;0.4257;0.7232;
175.8000;0.4241;0.7159;
176.1000;0.4241;0.7135;
176.4000;0.4249;0.7135;
176.7000;0.4200;0.7013;
177.0000;0.4322;0.7305;
177.3000;0.4233;0.7062;
177.6000;0.4241;0.7159;
177.9000;0.4241;0.7159;
178.2000;0.4208;0.7037;
178.5000;0.4241;0.7086;
178.8000;0.4208;0.7062;
179.1000;0.4241;0.7062;
179.4000;0.4241;0.7062;
179.7000;0.4241;0.7086;
180.0000;0.4192;0.6964;
180.3000;0.4249;0.7159;
180.6000;0.4241;0.7183;
180.9000;0.4233;0.7329;
181.2000;0.4314;0.7524;
181.5000;0.4233;0.7305;
181.8000;0.4241;0.7232;
182.1000;0.4241;0.7232;
182.4000;0.4233;0.7208;
182.7000;0.4233;0.7208;
183.0000;0.4241;0.7135;
183.3000;0.4249;0.7232;
183.6000;0.4233;0.7281;
183.9000;0.4184;0.7208;
184.2000;0.4314;0.7427;
184.5000;0.4225;0.7208;
184.8000;0.4233;0.7256;
185.1000;0.4217;0.7232;
185.4000;0.4217;0.7232;
185.7000;0.4241;0.7256;
186.0000;0.4265;0.7329;
186.3000;0.4225;0.7232;
186.6000;0.4225;0.7208;
186.9000;0.4225;0.7062;
187.2000;0.4233;0.7062;
187.5000;0.4217;0.7037;
187.8000;0.4241;0.7110;
188.1000;0.4257;0.7159;
188.4000;0.4241;0.7013;
188.7000;0.4241;0.7013;
189.0000;0.4257;0.6988;
189.3000;0.4233;0.7013;
189.6000;0.4208;0.7037;
189.9000;0.4233;0.7086;
190.2000;0.4225;0.7086;
190.5000;0.4200;0.7062;
190.8000;0.4233;0.7183;
191.1000;0.4257;0.7159;
191.4000;0.4249;0.7208;
191.7000;0.4274;0.7378;
192.0000;0.4249;0.7281;
192.3000;0.4241;0.7256;
192.6000;0.4225;0.7135;
192.9000;0.4330;0.7451;
193.2000;0.4290;0.7256;
193.5000;0.4241;0.7183;
193.8000;0.4233;0.7232;
194.1000;0.4233;0.7256;
194.4000;0.4241;0.7232;
194.7000;0.4241;0.7256;
195.0000;0.4282;0.7378;
195.3000;0.4233;0.7256;
195.6000;0.4241;0.7232;
195.9000;0.4241;0.7135;
196.2000;0.4257;0.7232;
196.5000;0.4233;0.7256;
196.8000;0.4225;0.7183;
197.1000;0.4225;0.7062;
197.4000;0.4233;0.7159;
197.7000;0.4257;0.7183;
198.0000;0.4249;0.7232;
198.3000;0.4249;0.7135;
198.6000;0.4233;0.7013;
198.9000;0.4241;0.7013;
199.2000;0.4233;0.7110;
199.5000;0.4200;0.7086;
199.8000;0.4217;0.7135;
200.1000;0.4282;0.7256;
200.4000;0.4225;0.7135;
200.7000;0.4225;0.7110;
201.0000;0.4241;0.7135;
201.3000;0.4249;0.7159;
201.6000;0.4233;0.7135;
201.9000;0.4249;0.7232;
202.2000;0.4192;0.7086;
202.5000;0.4249;0.7232;
202.8000;0.4241;0.7232;
203.1000;0.4233;0.7159;
203.4000;0.4241;0.7159;
203.7000;0.4241;0.7159;
204.0000;0.4265;0.7208;
204.3000;0.4241;0.7183;
204.6000;0.4241;0.7329;
204.9000;0.4241;0.7305;
205.2000;0.4298;0.7500;
205.5000;0.4225;0.7256;
205.8000;0.4233;0.7232;
206.1000;0.4265;0.7281;
206.4000;0.4233;0.7208;
206.7000;0.4225;0.7256;
207.0000;0.4233;0.7256;
207.3000;0.4249;0.7354;
207.6000;0.4257;0.7354;
207.9000;0.4241;0.7378;
208.2000;0.4241;0.7402;
208.5000;0.4241;0.7378;
208.8000;0.4241;0.7354;
209.1000;0.4274;0.7427;
209.4000;0.4184;0.7110;
209.7000;0.4233;0.7086;
210.0000;0.4233;0.7062;
210.3000;0.4217;0.6988;
210.6000;0.4241;0.7037;
210.9000;0.4241;0.7062;
211.2000;0.4233;0.7183;
211.5000;0.4249;0.7281;
211.8000;0.4217;0.7256;
212.1000;0.4241;0.7256;
212.4000;0.4249;0.7329;
212.7000;0.4241;0.7281;
213.0000;0.4200;0.7183;
213.3000;0.4241;0.7208;
213.6000;0.4241;0.7281;
213.9000;0.4233;0.7354;
214.2000;0.4233;0.7354;
214.5000;0.4217;0.7305;
214.8000;0.4249;0.7329;
215.1000;0.4249;0.7329;
215.4000;0.4200;0.7062;
215.7000;0.4249;0.7135;
216.0000;0.4233;0.7135;
216.3000;0.4217;0.7135;
216.6000;0.4241;0.7281;
216.9000;0.4241;0.7232;
217.2000;0.4225;0.7232;
217.5000;0.4241;0.7305;
217.8000;0.4241;0.7281;
218.1000;0.4233;0.7256;
218.4000;0.4249;0.7232;
218.7000;0.4225;0.7183;
219.0000;0.4249;0.7305;
219.3000;0.4241;0.7305;
219.6000;0.4208;0.7305;
219.9000;0.4225;0.7256;
220.2000;0.4225;0.7208;
220.5000;0.4217;0.7256;
220.8000;0.4225;0.7305;
221.1000;0.4233;0.7427;
221.4000;0.4225;0.7475;
221.7000;0.4233;0.7378;
222.0000;0.4225;0.7256;
222.3000;0.4241;0.7281;
222.6000;0.4249;0.7329;
222.9000;0.4225;0.7305;
223.2000;0.4233;0.7378;
223.5000;0.4249;0.7427;
223.8000;0.4249;0.7475;
224.1000;0.4241;0.7402;
224.4000;0.4233;0.7378;
224.7000;0.4208;0.7354;
225.0000;0.4217;0.7427;
225.3000;0.4233;0.7451;
225.6000;0.4322;0.7646;
225.9000;0.4249;0.7427;
226.2000;0.4257;0.7427;
226.5000;0.4249;0.7378;
226.8000;0.4241;0.7256;
227.1000;0.4233;0.7183;
227.4000;0.4241;0.7135;
227.7000;0.4257;0.7183;
228.0000;0.4241;0.7256;
228.3000;0.4176;0.7110;
228.6000;0.4330;0.7475;
228.9000;0.4233;0.7256;
229.2000;0.4241;0.7232;
229.5000;0.4192;0.7135;
229.8000;0.4225;0.7232;
230.1000;0.4257;0.7256;
230.4000;0.4233;0.7135;
230.7000;0.4249;0.7062;
231.0000;0.4241;0.7159;
231.3000;0.4200;0.7135;
231.6000;0.4233;0.7183;
231.9000;0.4233;0.7159;
232.2000;0.4241;0.7183;
232.5000;0.4233;0.7086;
232.8000;0.4249;0.7135;
233.1000;0.4241;0.7208;
233.4000;0.4217;0.7208;
233.7000;0.4241;0.7159;
234.0000;0.4217;0.7062;
234.3000;0.4241;0.7086;
234.6000;0.4233;0.7062;
234.9000;0.4225;0.7037;
235.2000;0.4249;0.7062;
235.5000;0.4225;0.6988;
235.8000;0.4208;0.6915;
236.1000;0.4233;0.6940;
236.4000;0.4241;0.6988;
236.7000;0.4233;0.7037;
237.0000;0.4241;0.7086;
237.3000;0.4225;0.7110;
237.6000;0.4233;0.7135;
237.9000;0.4225;0.7110;
238.2000;0.4208;0.7062;
238.5000;0.4241;0.7232;
238.8000;0.4233;0.7183;
239.1000;0.4265;0.7256;
239.4000;0.4249;0.7159;
239.7000;0.4274;0.7232;
240.0000;0.4249;0.7135;
240.3000;0.4265;0.7183;
240.6000;0.4241;0.7183;
240.9000;0.4249;0.7183;
241.2000;0.4217;0.7183;
241.5000;0.4241;0.7305;
241.8000;0.4233;0.7256;
242.1000;0.4233;0.7208;
242.4000;0.4225;0.7110;
242.7000;0.4265;0.7159;
243.0000;0.4265;0.7183;
243.3000;0.4217;0.7062;
243.6000;0.4241;0.7037;
243.9000;0.4249;0.7086;
244.2000;0.4233;0.7159;
244.5000;0.4233;0.7159;
244.8000;0.4241;0.7135;
245.1000;0.4225;0.7159;
245.4000;0.4233;0.7135;
245.7000;0.4249;0.7256;
246.0000;0.4200;0.7232;
246.3000;0.4225;0.7256;
246.6000;0.4143;0.7013;
246.9000;0.4233;0.7110;
247.2000;0.4225;0.7159;
247.5000;0.4184;0.7110;
247.8000;0.4257;0.7208;
248.1000;0.4241;0.7281;
248.4000;0.4249;0.7305;
248.7000;0.4265;0.7402;
249.0000;0.4322;0.7573;
249.3000;0.4192;0.7183;
249.6000;0.4241;0.7183;
249.9000;0.4225;0.7110;
250.2000;0.4241;0.7159;
250.5000;0.4249;0.7183;
250.8000;0.4233;0.7110;
251.1000;0.4241;0.7062;
251.4000;0.4225;0.7062;
251.7000;0.4249;0.7135;
252.0000;0.4241;0.7159;
252.3000;0.4249;0.7183;
252.6000;0.4249;0.7183;
252.9000;0.4249;0.7208;
253.2000;0.4249;0.7232;
253.5000;0.4233;0.7159;
253.8000;0.4225;0.7086;
254.1000;0.4233;0.7013;
254.4000;0.4217;0.6940;
254.7000;0.4168;0.6818;
255.0000;0.4217;0.6867;
255.3000;0.4225;0.6721;
255.6000;0.4233;0.6769;
255.9000;0.4217;0.6818;
256.2000;0.4208;0.6915;
256.5000;0.4200;0.6891;
256.8000;0.4233;0.6988;
257.1000;0.4241;0.7013;
257.4000;0.4241;0.7110;
257.7000;0.4241;0.7183;
258.0000;0.4225;0.7135;
258.3000;0.4233;0.7159;
258.6000;0.4274;0.7183;
258.9000;0.4241;0.7110;
259.2000;0.4241;0.7086;
259.5000;0.4176;0.6964;
259.8000;0.4257;0.7086;
260.1000;0.4217;0.6940;
260.4000;0.4233;0.6940;
260.7000;0.4249;0.7037;
261.0000;0.4257;0.7037;
261.3000;0.4233;0.6940;
261.6000;0.4208;0.6891;
261.9000;0.4233;0.6964;
262.2000;0.4217;0.7013;
262.5000;0.4241;0.6988;
262.8000;0.4217;0.7037;
263.1000;0.4225;0.7159;
263.4000;0.4241;0.7281;
263.7000;0.4208;0.7183;
264.0000;0.4233;0.7183;
264.3000;0.4265;0.7329;
264.6000;0.4233;0.7281;
264.9000;0.4225;0.7208;
265.2000;0.4249;0.7208;
265.5000;0.4241;0.7183;
265.8000;0.4225;0.7135;
266.1000;0.4225;0.7256;
266.4000;0.4233;0.7305;
266.7000;0.4233;0.7354;
267.0000;0.4233;0.7329;
267.3000;0.4241;0.7329;
267.6000;0.4184;0.7281;
267.9000;0.4233;0.7305;
268.2000;0.4233;0.7281;
268.5000;0.4225;0.7232;
268.8000;0.4241;0.7208;
269.1000;0.4233;0.7256;
269.4000;0.4241;0.7354;
269.7000;0.4274;0.7427;
270.0000;0.4225;0.7329;
270.3000;0.4217;0.7329;
270.6000;0.4225;0.7232;
270.9000;0.4168;0.7037;
271.2000;0.4298;0.7500;
271.5000;0.4225;0.7232;
271.8000;0.4257;0.7256;
272.1000;0.4241;0.7256;
272.4000;0.4233;0.7183;
272.7000;0.4241;0.7183;
273.0000;0.4233;0.7256;
273.3000;0.4241;0.7281;
273.6000;0.4249;0.7305;
273.9000;0.4233;0.7256;
274.2000;0.4225;0.7232;
274.5000;0.4241;0.7232;
274.8000;0.4274;0.7305;
275.1000;0.4233;0.7183;
275.4000;0.4241;0.7208;
275.7000;0.4298;0.7256;
276.0000;0.4192;0.7013;
276.3000;0.4233;0.7110;
276.6000;0.4233;0.7159;
276.9000;0.4225;0.7086;
277.2000;0.4241;0.7037;
277.5000;0.4225;0.7086;
277.8000;0.4233;0.7110;
278.1000;0.4225;0.7086;
278.4000;0.4225;0.7013;
278.7000;0.4241;0.7159;
279.0000;0.4208;0.7013;
279.3000;0.4225;0.7062;
279.6000;0.4257;0.7110;
279.9000;0.4241;0.7013;
280.2000;0.4233;0.7037;
280.5000;0.4217;0.7086;
280.8000;0.4217;0.7086;
281.1000;0.4249;0.7159;
281.4000;0.4241;0.7256;
281.7000;0.4233;0.7256;
282.0000;0.4225;0.7281;
282.3000;0.4233;0.7329;
282.6000;0.4225;0.7281;
282.9000;0.4208;0.7208;
283.2000;0.4257;0.7256;
283.5000;0.4217;0.7183;
283.8000;0.4233;0.7232;
284.1000;0.4306;0.7354;
284.4000;0.4241;0.7183;
284.7000;0.4233;0.7208;
285.0000;0.4233;0.7232;
285.3000;0.4225;0.7256;
285.6000;0.4233;0.7305;
285.9000;0.4225;0.7281;
286.2000;0.4241;0.7256;
286.5000;0.4241;0.7281;
286.8000;0.4241;0.7256;
287.1000;0.4200;0.7208;
287.4000;0.4225;0.7329;
287.7000;0.4265;0.7427;
288.0000;0.4233;0.7378;
288.3000;0.4241;0.7378;
288.6000;0.4217;0.7281;
288.9000;0.4241;0.7281;
289.2000;0.4192;0.7086;
289.5000;0.4233;0.7183;
289.8000;0.4225;0.7086;
290.1000;0.4225;0.7013;
290.4000;0.4225;0.7110;
290.7000;0.4249;0.7183;
291.0000;0.4208;0.7086;
291.3000;0.4257;0.7159;
291.6000;0.4241;0.7037;
291.9000;0.4225;0.7086;
292.2000;0.4225;0.7062;
292.5000;0.4290;0.7159;
292.8000;0.4233;0.7037;
293.1000;0.4225;0.7110;
293.4000;0.4241;0.7135;
293.7000;0.4225;0.7086;
294.0000;0.4233;0.7110;
294.3000;0.4233;0.7086;
294.6000;0.4233;0.7110;
294.9000;0.4233;0.7110;
295.2000;0.4241;0.7135;
295.5000;0.4233;0.7086;
295.8000;0.4225;0.7135;
296.1000;0.4241;0.7256;
296.4000;0.4241;0.7208;
296.7000;0.4241;0.7159;
297.0000;0.4225;0.7110;
297.3000;0.4208;0.7135;
297.6000;0.4233;0.7135;
297.9000;0.4249;0.7110;
298.2000;0.4233;0.7062;
298.5000;0.4241;0.7037;
298.8000;0.4257;0.7086;
299.1000;0.4265;0.7110;
299.4000;0.4241;0.7013;
299.7000;0.4233;0.7013;
300.0000;0.4241;0.7110;
300.3000;0.4225;0.7110;
300.6000;0.4233;0.7062;
300.9000;0.4208;0.6940;
301.2000;0.4233;0.6940;
301.5000;0.4241;0.7013;
301.8000;0.4241;0.7062;
302.1000;0.4233;0.7086;
302.4000;0.4233;0.7159;
302.7000;0.4241;0.7232;
303.0000;0.4233;0.7183;
303.3000;0.4208;0.7208;
303.6000;0.4225;0.7256;
303.9000;0.4233;0.7183;
304.2000;0.4241;0.7256;
304.5000;0.4225;0.7135;
304.8000;0.4233;0.6988;
305.1000;0.4241;0.6988;
305.4000;0.4257;0.7037;
305.7000;0.4241;0.7037;
306.0000;0.4241;0.7013;
306.3000;0.4225;0.7013;
306.6000;0.4233;0.7037;
306.9000;0.4217;0.6988;
307.2000;0.4217;0.7013;
307.5000;0.4208;0.6988;
307.8000;0.4217;0.7037;
308.1000;0.4225;0.7062;
308.4000;0.4241;0.7110;
308.7000;0.4225;0.7135;
309.0000;0.4217;0.7086;
309.3000;0.4241;0.7086;
309.6000;0.4217;0.6988;
309.9000;0.4233;0.7013;
310.2000;0.4257;0.7110;
310.5000;0.4233;0.7135;
310.8000;0.4217;0.7110;
311.1000;0.4160;0.6915;
311.4000;0.4225;0.6891;
311.7000;0.4176;0.6769;
312.0000;0.4241;0.7013;
312.3000;0.4225;0.7062;
312.6000;0.4233;0.7110;
312.9000;0.4233;0.7135;
313.2000;0.4225;0.7135;
313.5000;0.4217;0.7232;
313.8000;0.4225;0.7232;
314.1000;0.4233;0.7329;
314.4000;0.4241;0.7329;
314.7000;0.4225;0.7305;
315.0000;0.4233;0.7281;
315.3000;0.4225;0.7305;
315.6000;0.4233;0.7329;
315.9000;0.4249;0.7378;
316.2000;0.4217;0.7232;
316.5000;0.4217;0.7135;
316.8000;0.4233;0.7013;
317.1000;0.4241;0.6891;
317.4000;0.4233;0.6818;
317.7000;0.4249;0.6940;
318.0000;0.4233;0.6964;
318.3000;0.4257;0.7062;
318.6000;0.4217;0.7037;
318.9000;0.4233;0.7062;
319.2000;0.4233;0.7086;
319.5000;0.4282;0.7281;
319.8000;0.4314;0.7354;
320.1000;0.4225;0.7062;
320.4000;0.4249;0.7135;
320.7000;0.4241;0.7135;
321.0000;0.4225;0.7110;
321.3000;0.4225;0.7159;
321.6000;0.4176;0.7086;
321.9000;0.4265;0.7329;
322.2000;0.4241;0.7256;
322.5000;0.4225;0.7208;
322.8000;0.4184;0.7086;
323.1000;0.4200;0.7086;
323.4000;0.4233;0.7232;
323.7000;0.4217;0.7159;
324.0000;0.4200;0.7086;
324.3000;0.4241;0.7183;
324.6000;0.4249;0.7256;
324.9000;0.4217;0.7159;
325.2000;0.4225;0.7110;
325.5000;0.4225;0.7232;
325.8000;0.4233;0.7378;
326.1000;0.4208;0.7329;
326.4000;0.4233;0.7329;
326.7000;0.4217;0.7232;
327.0000;0.4217;0.7232;
327.3000;0.4217;0.7208;
327.6000;0.4233;0.7159;
327.9000;0.4225;0.7062;
328.2000;0.4225;0.7037;
328.5000;0.4217;0.7135;
328.8000;0.4241;0.7159;
329.1000;0.4233;0.7135;
329.4000;0.4241;0.7232;
329.7000;0.4249;0.7281;
330.0000;0.4241;0.7281;
330.3000;0.4241;0.7232;
330.6000;0.4249;0.7256;
330.9000;0.4257;0.7256;
331.2000;0.4241;0.7232;
331.5000;0.4249;0.7305;
331.8000;0.4225;0.7232;
332.1000;0.4233;0.7232;
332.4000;0.4241;0.7159;
332.7000;0.4233;0.7110;
333.0000;0.4241;0.7037;
333.3000;0.4322;0.7329;
333.6000;0.4233;0.7037;
333.9000;0.4241;0.7086;
334.2000;0.4217;0.7037;
334.5000;0.4241;0.7135;
334.8000;0.4233;0.7159;
335.1000;0.4225;0.7183;
335.4000;0.4225;0.7208;
335.7000;0.4233;0.7208;
336.0000;0.4249;0.7208;
336.3000;0.4217;0.7232;
336.6000;0.4208;0.7135;
336.9000;0.4208;0.7037;
337.2000;0.4192;0.6915;
337.5000;0.4257;0.7062;
337.8000;0.4233;0.7013;
338.1000;0.4241;0.6988;
338.4000;0.4233;0.6964;
338.7000;0.4314;0.7208;
339.0000;0.4257;0.7062;
339.3000;0.4233;0.7013;
339.6000;0.4290;0.7183;
339.9000;0.4241;0.7062;
340.2000;0.4225;0.7037;
340.5000;0.4274;0.7159;
340.8000;0.4249;0.7110;
341.1000;0.4217;0.6915;
341.4000;0.4249;0.6988;
341.7000;0.4176;0.6794;
342.0000;0.4233;0.6964;
342.3000;0.4241;0.6988;
342.6000;0.4225;0.6988;
342.9000;0.4225;0.6988;
343.2000;0.4233;0.7037;
343.5000;0.4225;0.7013;
343.8000;0.4233;0.6940;
344.1000;0.4217;0.6794;
344.4000;0.4225;0.6794;
344.7000;0.4257;0.6964;
345.0000;0.4241;0.6940;
345.3000;0.4208;0.6940;
345.6000;0.4314;0.7305;
345.9000;0.4233;0.7062;
346.2000;0.4200;0.7013;
346.5000;0.4233;0.7037;
346.8000;0.4225;0.7013;
347.1000;0.4208;0.6988;
347.4000;0.4274;0.7159;
347.7000;0.4233;0.7062;
348.0000;0.4217;0.7110;
348.3000;0.4233;0.7110;
348.6000;0.4233;0.7110;
348.9000;0.4274;0.7208;
349.2000;0.4257;0.7208;
349.5000;0.4241;0.7135;
349.8000;0.4225;0.7062;
350.1000;0.4233;0.7110;
350.4000;0.4200;0.7013;
350.7000;0.4225;0.7159;
351.0000;0.4225;0.7086;
351.3000;0.4233;0.7183;
351.6000;0.4233;0.7159;
351.9000;0.4233;0.7062;
352.2000;0.4241;0.7062;
352.5000;0.4249;0.7062;
352.8000;0.4225;0.7013;
353.1000;0.4217;0.6988;
353.4000;0.4233;0.7013;
353.7000;0.4217;0.7086;
354.0000;0.4225;0.7086;
354.3000;0.4225;0.7013;
354.6000;0.4257;0.7062;
354.9000;0.4225;0.6988;
355.2000;0.4265;0.7037;
355.5000;0.4225;0.7013;
355.8000;0.4233;0.6988;
356.1000;0.4233;0.6964;
356.4000;0.4241;0.6988;
356.7000;0.4200;0.6891;
357.0000;0.4208;0.6842;
357.3000;0.4208;0.6842;
357.6000;0.4233;0.7013;
357.9000;0.4217;0.7013;
358.2000;0.4200;0.6964;
358.5000;0.4225;0.6988;
358.8000;0.4233;0.7013;
359.1000;0.4241;0.7037;
359.4000;0.4233;0.7135;
359.7000;0.4192;0.7037;
360.0000;0.4233;0.7110;
360.3000;0.4225;0.7232;
360.6000;0.4225;0.7281;
360.9000;0.4217;0.7256;
361.2000;0.4290;0.7427;
361.5000;0.4233;0.7159;
361.8000;0.4233;0.7086;
362.1000;0.4217;0.7086;
362.4000;0.4241;0.7159;
362.7000;0.4151;0.6915;
363.0000;0.4265;0.7256;
363.3000;0.4192;0.7062;
363.6000;0.4176;0.7086;
363.9000;0.4249;0.7232;
364.2000;0.4217;0.7208;
364.5000;0.4233;0.7183;
364.8000;0.4257;0.7232;
365.1000;0.4265;0.7305;
365.4000;0.4241;0.7305;
365.7000;0.4249;0.7208;
366.0000;0.4241;0.7232;
366.3000;0.4249;0.7256;
366.6000;0.4241;0.7281;
366.9000;0.4225;0.7281;
367.2000;0.4225;0.7281;
367.5000;0.4233;0.7281;
367.8000;0.4208;0.7232;
368.1000;0.4233;0.7256;
368.4000;0.4217;0.7159;
368.7000;0.4217;0.6988;
369.0000;0.4217;0.6988;
369.3000;0.4217;0.7013;
369.6000;0.4192;0.6940;
369.9000;0.4217;0.7086;
370.2000;0.4233;0.7110;
370.5000;0.4249;0.7062;
370.8000;0.4225;0.7062;
371.1000;0.4217;0.7208;
371.4000;0.4225;0.7256;
371.7000;0.4233;0.7208;
372.0000;0.4225;0.7159;
372.3000;0.4225;0.7135;
372.6000;0.4217;0.7135;
372.9000;0.4217;0.7110;
373.2000;0.4241;0.7159;
373.5000;0.4217;0.7159;
373.8000;0.4208;0.7110;
374.1000;0.4233;0.7110;
374.4000;0.4208;0.7013;
374.7000;0.4241;0.7135;
375.0000;0.4208;0.7062;
375.3000;0.4249;0.7062;
375.6000;0.4241;0.6964;
375.9000;0.4217;0.6964;
376.2000;0.4217;0.7013;
376.5000;0.4241;0.7062;
376.8000;0.4233;0.7037;
377.1000;0.4233;0.6940;
377.4000;0.4241;0.6964;
377.7000;0.4200;0.6842;
378.0000;0.4241;0.6940;
378.3000;0.4217;0.6867;
378.6000;0.4265;0.7013;
378.9000;0.4241;0.6867;
379.2000;0.4225;0.6818;
379.5000;0.4233;0.6842;
379.8000;0.4184;0.6818;
380.1000;0.4225;0.6842;
380.4000;0.4241;0.6769;
380.7000;0.4241;0.6794;
381.0000;0.4265;0.6769;
381.3000;0.4233;0.6721;
381.6000;0.4225;0.6842;
381.9000;0.4265;0.6915;
382.2000;0.4274;0.6891;
382.5000;0.4249;0.6867;
382.8000;0.4241;0.6842;
383.1000;0.4208;0.6769;
383.4000;0.4265;0.7013;
383.7000;0.4241;0.6964;
384.0000;0.4265;0.7110;
384.3000;0.4249;0.7086;
384.6000;0.4233;0.7135;
384.9000;0.4257;0.7208;
385.2000;0.4217;0.7086;
385.5000;0.4233;0.7110;
385.8000;0.4306;0.7305;
386.1000;0.4225;0.7086;
386.4000;0.4225;0.7013;
386.7000;0.4241;0.7037;
387.0000;0.4249;0.7062;
387.3000;0.4217;0.6988;
387.6000;0.4160;0.6891;
387.9000;0.4249;0.7086;
388.2000;0.4265;0.7037;
388.5000;0.4233;0.6891;
388.8000;0.4233;0.6940;
389.1000;0.4241;0.7037;
389.4000;0.4241;0.7013;
389.7000;0.4233;0.6940;
390.0000;0.4233;0.6964;
390.3000;0.4233;0.6964;
390.6000;0.4241;0.6940;
390.9000;0.4233;0.6964;
391.2000;0.4233;0.6915;
391.5000;0.4233;0.6988;
391.8000;0.4233;0.7062;
392.1000;0.4225;0.7062;
392.4000;0.4241;0.7037;
392.7000;0.4225;0.6964;
393.0000;0.4233;0.6940;
393.3000;0.4241;0.6915;
393.6000;0.4233;0.6940;
393.9000;0.4233;0.6915;
394.2000;0.4249;0.6940;
394.5000;0.4249;0.6964;
394.8000;0.4249;0.6915;
395.1000;0.4233;0.6891;
395.4000;0.4233;0.6915;
395.7000;0.4233;0.6891;
396.0000;0.4241;0.6794;
396.3000;0.4241;0.6745;
396.6000;0.4249;0.6794;
396.9000;0.4233;0.6794;
397.2000;0.4241;0.6794;
397.5000;0.4274;0.6867;
397.8000;0.4208;0.6818;
398.1000;0.4225;0.6964;
398.4000;0.4233;0.7037;
398.7000;0.4225;0.6915;
399.0000;0.4225;0.6964;
399.3000;0.4249;0.6988;
399.6000;0.4192;0.6988;
399.9000;0.4233;0.7062;
400.2000;0.4217;0.7013;
400.5000;0.4208;0.7086;
400.8000;0.4233;0.7208;
401.1000;0.4241;0.7183;
401.4000;0.4225;0.7086;
401.7000;0.4192;0.6964;
402.0000;0.4233;0.7013;
402.3000;0.4225;0.6988;
402.6000;0.4225;0.6940;
402.9000;0.4233;0.6915;
403.2000;0.4217;0.6842;
403.5000;0.4225;0.6867;
403.8000;0.4241;0.6867;
404.1000;0.4217;0.6867;
404.4000;0.4151;0.6648;
404.7000;0.4241;0.6867;
405.0000;0.4233;0.6940;
405.3000;0.4265;0.7086;
405.6000;0.4233;0.6988;
405.9000;0.4274;0.7037;
406.2000;0.4249;0.7037;
406.5000;0.4241;0.7086;
406.8000;0.4233;0.7135;
407.1000;0.4225;0.7135;
407.4000;0.4184;0.6964;
407.7000;0.4233;0.6988;
408.0000;0.4208;0.6940;
408.3000;0.4217;0.7037;
408.6000;0.4225;0.7013;
408.9000;0.4217;0.6964;
409.2000;0.4217;0.6769;
409.5000;0.4233;0.6940;
409.8000;0.4200;0.6988;
410.1000;0.4249;0.7159;
410.4000;0.4241;0.7110;
410.7000;0.4233;0.7062;
411.0000;0.4217;0.7013;
411.3000;0.4314;0.7232;
411.6000;0.4233;0.6988;
411.9000;0.4233;0.6964;
412.2000;0.4176;0.6891;
412.5000;0.4249;0.6988;
412.8000;0.4225;0.7013;
413.1000;0.4200;0.6988;
413.4000;0.4217;0.7062;
413.7000;0.4217;0.7086;
414.0000;0.4233;0.7086;
414.3000;0.4233;0.7037;
414.6000;0.4225;0.7013;
414.9000;0.4233;0.7037;
415.2000;0.4225;0.6940;
415.5000;0.4233;0.6988;
415.8000;0.4208;0.6915;
416.1000;0.4217;0.6964;
416.4000;0.4249;0.7062;
416.7000;0.4208;0.6988;
417.0000;0.4241;0.7086;
417.3000;0.4208;0.6964;
417.6000;0.4200;0.6915;
417.9000;0.4217;0.6964;
418.2000;0.4217;0.6915;
418.5000;0.4225;0.6915;
418.8000;0.4217;0.6915;
419.1000;0.4314;0.7159;
419.4000;0.4217;0.6915;
419.7000;0.4225;0.6891;
420.0000;0.4257;0.7062;
420.3000;0.4225;0.7037;
420.6000;0.4274;0.7135;
420.9000;0.4225;0.6988;
421.2000;0.4233;0.7013;
421.5000;0.4265;0.7062;
421.8000;0.4208;0.6940;
422.1000;0.4217;0.6891;
422.4000;0.4217;0.6940;
422.7000;0.4233;0.6915;
423.0000;0.4208;0.6818;
423.3000;0.4192;0.6769;
423.6000;0.4282;0.6964;
423.9000;0.4200;0.6769;
424.2000;0.4225;0.6867;
424.5000;0.4217;0.6818;
424.8000;0.4217;0.6818;
425.1000;0.4225;0.6818;
425.4000;0.4225;0.6940;
425.7000;0.4233;0.7013;
426.0000;0.4241;0.7013;
426.3000;0.4257;0.7062;
426.6000;0.4249;0.6988;
426.9000;0.4249;0.6988;
427.2000;0.4265;0.6988;
427.5000;0.4233;0.6818;
427.8000;0.4241;0.6818;
428.1000;0.4241;0.6891;
428.4000;0.4225;0.6794;
428.7000;0.4225;0.6794;
429.0000;0.4233;0.6721;
429.3000;0.4225;0.6818;
429.6000;0.4208;0.6794;
429.9000;0.4265;0.6964;
430.2000;0.4208;0.6867;
430.5000;0.4274;0.7013;
430.8000;0.4225;0.6867;
431.1000;0.4200;0.6818;
431.4000;0.4225;0.6867;
431.7000;0.4241;0.6891;
432.0000;0.4241;0.6940;
432.3000;0.4217;0.7013;
432.6000;0.4257;0.7037;
432.9000;0.4241;0.6988;
433.2000;0.4233;0.6940;
433.5000;0.4217;0.6915;
433.8000;0.4225;0.6818;
434.1000;0.4217;0.6769;
434.4000;0.4217;0.6891;
434.7000;0.4233;0.6915;
435.0000;0.4233;0.6988;
435.3000;0.4233;0.6988;
435.6000;0.4217;0.6964;
435.9000;0.4233;0.7086;
436.2000;0.4241;0.7159;
436.5000;0.4249;0.7062;
436.8000;0.4233;0.6988;
437.1000;0.4208;0.7037;
437.4000;0.4233;0.7086;
437.7000;0.4184;0.6964;
438.0000;0.4241;0.7135;
438.3000;0.4192;0.7062;
438.6000;0.4249;0.7281;
438.9000;0.4217;0.7256;
439.2000;0.4257;0.7329;
439.5000;0.4241;0.7281;
439.8000;0.4225;0.7135;
440.1000;0.4208;0.7086;
440.4000;0.4225;0.7208;
440.7000;0.4225;0.7208;
441.0000;0.4217;0.7329;
441.3000;0.4225;0.7378;
441.6000;0.4225;0.7427;
441.9000;0.4225;0.7451;
442.2000;0.4168;0.7305;
442.5000;0.4217;0.7378;
442.8000;0.4225;0.7451;
443.1000;0.4241;0.7402;
443.4000;0.4217;0.7329;
443.7000;0.4217;0.7329;
444.0000;0.4225;0.7305;
444.3000;0.4233;0.7183;
444.6000;0.4217;0.7086;
444.9000;0.4217;0.7013;
445.2000;0.4225;0.7037;
445.5000;0.4249;0.7159;
445.8000;0.4225;0.7110;
446.1000;0.4200;0.7062;
446.4000;0.4184;0.6964;
446.7000;0.4208;0.7062;
447.0000;0.4208;0.7013;
447.3000;0.4217;0.6915;
447.6000;0.4225;0.6915;
447.9000;0.4233;0.6940;
448.2000;0.4217;0.6842;
448.5000;0.4208;0.6818;
448.8000;0.4208;0.6818;
449.1000;0.4176;0.6867;
449.4000;0.4233;0.7013;
449.7000;0.4200;0.7013;
450.0000;0.4208;0.7135;
450.3000;0.4225;0.7110;
450.6000;0.4233;0.7037;
450.9000;0.4225;0.7135;
451.2000;0.4217;0.7159;
451.5000;0.4217;0.7159;
451.8000;0.4241;0.7159;
452.1000;0.4225;0.7062;
452.4000;0.4217;0.7086;
452.7000;0.4233;0.7159;
453.0000;0.4225;0.7135;
453.3000;0.4151;0.7037;
453.6000;0.4208;0.7183;
453.9000;0.4160;0.7037;
454.2000;0.4217;0.7208;
454.5000;0.4225;0.7208;
454.8000;0.4265;0.7281;
455.1000;0.4233;0.7256;
455.4000;0.4225;0.7256;
455.7000;0.4225;0.7256;
456.0000;0.4241;0.7208;
456.3000;0.4233;0.7086;
456.6000;0.4233;0.7110;
456.9000;0.4225;0.7110;
457.2000;0.4241;0.7086;
457.5000;0.4176;0.6915;
457.8000;0.4249;0.7086;
458.1000;0.4208;0.7110;
458.4000;0.4217;0.7159;
458.7000;0.4225;0.7086;
459.0000;0.4225;0.7062;
459.3000;0.4233;0.7062;
459.6000;0.4306;0.7159;
459.9000;0.4233;0.6988;
460.2000;0.4257;0.7183;
460.5000;0.4241;0.7183;
460.8000;0.4257;0.7232;
461.1000;0.4249;0.7232;
461.4000;0.4249;0.7183;
461.7000;0.4225;0.7110;
462.0000;0.4249;0.7110;
462.3000;0.4192;0.7037;
462.6000;0.4233;0.7110;
462.9000;0.4233;0.7135;
463.2000;0.4241;0.7256;
463.5000;0.4249;0.7232;
463.8000;0.4265;0.7305;
464.1000;0.4225;0.7305;
464.4000;0.4225;0.7281;
464.7000;0.4241;0.7329;
465.0000;0.4208;0.7208;
465.3000;0.4233;0.7232;
465.6000;0.4241;0.7354;
465.9000;0.4241;0.7329;
466.2000;0.4249;0.7305;
466.5000;0.4208;0.7183;
466.8000;0.4225;0.7183;
467.1000;0.4217;0.7086;
467.4000;0.4217;0.7183;
467.7000;0.4225;0.7232;
468.0000;0.4241;0.7232;
468.3000;0.4241;0.7232;
468.6000;0.4225;0.7183;
468.9000;0.4241;0.7256;
469.2000;0.4200;0.7183;
469.5000;0.4217;0.7232;
469.8000;0.4241;0.7256;
470.1000;0.4233;0.7281;
470.4000;0.4225;0.7135;
470.7000;0.4217;0.7110;
471.0000;0.4233;0.7159;
471.3000;0.4225;0.7183;
471.6000;0.4265;0.7232;
471.9000;0.4225;0.7135;
472.2000;0.4233;0.7110;
472.5000;0.4225;0.7135;
472.8000;0.4225;0.7183;
473.1000;0.4233;0.7232;
473.4000;0.4233;0.7232;
473.7000;0.4200;0.7183;
474.0000;0.4217;0.7208;
474.3000;0.4225;0.7208;
474.6000;0.4208;0.7281;
474.9000;0.4217;0.7354;
475.2000;0.4200;0.7329;
475.5000;0.4192;0.7281;
475.8000;0.4184;0.7305;
476.1000;0.4225;0.7354;
476.4000;0.4257;0.7402;
476.7000;0.4200;0.7281;
477.0000;0.4217;0.7256;
477.3000;0.4225;0.7208;
477.6000;0.4233;0.7159;
477.9000;0.4257;0.7208;
478.2000;0.4143;0.6940;
478.5000;0.4225;0.7208;
478.8000;0.4233;0.7208;
479.1000;0.4200;0.7208;
479.4000;0.4192;0.7110;
479.7000;0.4200;0.7232;
480.0000;0.4249;0.7402;
480.3000;0.4217;0.7354;
480.6000;0.4233;0.7329;
480.9000;0.4217;0.7329;
481.2000;0.4241;0.7378;
481.5000;0.4200;0.7281;
481.8000;0.4233;0.7305;
482.1000;0.4241;0.7256;
482.4000;0.4241;0.7232;
482.7000;0.4233;0.7256;
483.0000;0.4233;0.7329;
483.3000;0.4225;0.7281;
483.6000;0.4208;0.7208;
483.9000;0.4225;0.7135;
484.2000;0.4217;0.7062;
484.5000;0.4208;0.7062;
484.8000;0.4208;0.7135;
485.1000;0.4233;0.7208;
485.4000;0.4208;0.7159;
485.7000;0.4208;0.7086;
486.0000;0.4208;0.7135;
486.3000;0.4208;0.7135;
486.6000;0.4225;0.7208;
486.9000;0.4241;0.7135;
487.2000;0.4217;0.7086;
487.5000;0.4233;0.7208;
487.8000;0.4233;0.7208;
488.1000;0.4233;0.7208;
488.4000;0.4233;0.7281;
488.7000;0.4208;0.7281;
489.0000;0.4241;0.7402;
489.3000;0.4208;0.7329;
489.6000;0.4208;0.7232;
489.9000;0.4225;0.7256;
490.2000;0.4233;0.7208;
490.5000;0.4208;0.7232;
490.8000;0.4208;0.7208;
491.1000;0.4217;0.7281;
491.4000;0.4217;0.7281;
491.7000;0.4208;0.7256;
492.0000;0.4225;0.7256;
492.3000;0.4241;0.7281;
492.6000;0.4176;0.7159;
492.9000;0.4225;0.7305;
493.2000;0.4200;0.7281;
493.5000;0.4208;0.7378;
493.8000;0.4225;0.7378;
494.1000;0.4233;0.7402;
494.4000;0.4225;0.7354;
494.7000;0.4217;0.7305;
495.0000;0.4184;0.7135;
495.3000;0.4217;0.7135;
495.6000;0.4192;0.6964;
495.9000;0.4217;0.7110;
496.2000;0.4217;0.7183;
496.5000;0.4233;0.7183;
496.8000;0.4241;0.7183;
497.1000;0.4225;0.7062;
497.4000;0.4225;0.6940;
497.7000;0.4225;0.6964;
498.0000;0.4233;0.7037;
498.3000;0.4233;0.7062;
498.6000;0.4225;0.7086;
498.9000;0.4208;0.7037;
499.2000;0.4200;0.7159;
499.5000;0.4217;0.7232;
499.8000;0.4225;0.7208;
500.1000;0.4208;0.7183;
500.4000;0.4200;0.7256;
500.7000;0.4200;0.7256;
501.0000;0.4233;0.7281;
501.3000;0.4225;0.7329;
501.6000;0.4225;0.7402;
501.9000;0.4257;0.7500;
502.2000;0.4241;0.7354;
502.5000;0.4233;0.7427;
502.8000;0.4208;0.7451;
503.1000;0.4225;0.7451;
503.4000;0.4225;0.7329;
503.7000;0.4249;0.7305;
504.0000;0.4225;0.7183;
504.3000;0.4233;0.7135;
504.6000;0.4233;0.7110;
504.9000;0.4225;0.7159;
505.2000;0.4217;0.7208;
505.5000;0.4233;0.7305;
505.8000;0.4225;0.7281;
506.1000;0.4192;0.7183;
506.4000;0.4233;0.7183;
506.7000;0.4217;0.7135;
507.0000;0.4217;0.7208;
507.3000;0.4225;0.7183;
507.6000;0.4208;0.7135;
507.9000;0.4200;0.7086;
508.2000;0.4225;0.7183;
508.5000;0.4200;0.7135;
508.8000;0.4208;0.7208;
509.1000;0.4225;0.7256;
509.4000;0.4249;0.7305;
509.7000;0.4208;0.7354;
510.0000;0.4208;0.7281;
510.3000;0.4233;0.7232;
510.6000;0.4233;0.7159;
510.9000;0.4208;0.7110;
511.2000;0.4192;0.7135;
511.5000;0.4241;0.7135;
511.8000;0.4249;0.7159;
512.1000;0.4225;0.7062;
512.4000;0.4241;0.7208;
512.7000;0.4225;0.7232;
513.0000;0.4225;0.7329;
513.3000;0.4233;0.7378;
513.6000;0.4241;0.7402;
513.9000;0.4233;0.7378;
514.2000;0.4208;0.7378;
514.5000;0.4208;0.7378;
514.8000;0.4217;0.7354;
515.1000;0.4192;0.7281;
515.4000;0.4200;0.7281;
515.7000;0.4208;0.7232;
516.0000;0.4208;0.7208;
516.3000;0.4208;0.7208;
516.6000;0.4233;0.7232;
516.9000;0.4233;0.7256;
517.2000;0.4208;0.7135;
517.5000;0.4143;0.7013;
517.8000;0.4233;0.7232;
518.1000;0.4241;0.7305;
518.4000;0.4322;0.7549;
518.7000;0.4241;0.7378;
519.0000;0.4249;0.7378;
519.3000;0.4241;0.7305;
519.6000;0.4225;0.7354;
519.9000;0.4225;0.7329;
520.2000;0.4217;0.7329;
520.5000;0.4233;0.7281;
520.8000;0.4233;0.7281;
521.1000;0.4217;0.7329;
521.4000;0.4200;0.7256;
521.7000;0.4265;0.7378;
522.0000;0.4225;0.7329;
522.3000;0.4217;0.7329;
522.6000;0.4217;0.7281;
522.9000;0.4200;0.7135;
523.2000;0.4225;0.7232;
523.5000;0.4225;0.7183;
523.8000;0.4200;0.7110;
524.1000;0.4208;0.7086;
524.4000;0.4225;0.7110;
524.7000;0.4217;0.7062;
525.0000;0.4249;0.7232;
525.3000;0.4200;0.7110;
525.6000;0.4217;0.7135;
525.9000;0.4217;0.7110;
526.2000;0.4217;0.7062;
526.5000;0.4184;0.6988;
526.8000;0.4225;0.7135;
527.1000;0.4233;0.7183;
527.4000;0.4241;0.7208;
527.7000;0.4200;0.7062;
528.0000;0.4208;0.7110;
528.3000;0.4225;0.7159;
528.6000;0.4225;0.7159;
528.9000;0.4225;0.7159;
529.2000;0.4225;0.7305;
529.5000;0.4217;0.7208;
529.8000;0.4225;0.7183;
530.1000;0.4225;0.7232;
530.4000;0.4208;0.7232;
530.7000;0.4208;0.7183;
531.0000;0.4217;0.7232;
531.3000;0.4208;0.7135;
531.6000;0.4200;0.7110;
531.9000;0.4200;0.7135;
532.2000;0.4257;0.7159;
532.5000;0.4233;0.7135;
532.8000;0.4208;0.7037;
533.1000;0.4217;0.7183;
533.4000;0.4233;0.7135;
533.7000;0.4208;0.7183;
534.0000;0.4208;0.7232;
534.3000;0.4192;0.7232;
534.6000;0.4143;0.7086;
534.9000;0.4208;0.7281;
535.2000;0.4217;0.7232;
535.5000;0.4225;0.7256;
535.8000;0.4225;0.7402;
536.1000;0.4176;0.7208;
536.4000;0.4225;0.7402;
536.7000;0.4208;0.7378;
537.0000;0.4241;0.7378;
537.3000;0.4208;0.7208;
537.6000;0.4208;0.7135;
537.9000;0.4192;0.7183;
538.2000;0.4306;0.7451;
538.5000;0.4241;0.7329;
538.8000;0.4233;0.7305;
539.1000;0.4257;0.7354;
539.4000;0.4217;0.7305;
539.7000;0.4217;0.7305;
540.0000;0.4217;0.7256;
540.3000;0.4208;0.7256;
540.6000;0.4200;0.7329;
540.9000;0.4208;0.7354;
541.2000;0.4208;0.7451;
541.5000;0.4168;0.7329;
541.8000;0.4200;0.7378;
542.1000;0.4217;0.7427;
542.4000;0.4200;0.7475;
542.7000;0.4200;0.7305;
543.0000;0.4257;0.7305;
543.3000;0.4217;0.7208;
543.6000;0.4217;0.7232;
543.9000;0.4217;0.7183;
544.2000;0.4241;0.7086;
544.5000;0.4257;0.7281;
544.8000;0.4241;0.7183;
545.1000;0.4225;0.7086;
545.4000;0.4249;0.7110;
545.7000;0.4217;0.6964;
546.0000;0.4274;0.7062;
546.3000;0.4225;0.6964;
546.6000;0.4160;0.6915;
546.9000;0.4274;0.7208;
547.2000;0.4225;0.7183;
547.5000;0.4233;0.7232;
547.8000;0.4208;0.7354;
548.1000;0.4217;0.7451;
548.4000;0.4200;0.7378;
548.7000;0.4233;0.7378;
549.0000;0.4233;0.7402;
549.3000;0.4200;0.7281;
549.6000;0.4225;0.7354;
549.9000;0.4233;0.7378;
550.2000;0.4241;0.7305;
550.5000;0.4241;0.7281;
550.8000;0.4290;0.7475;
551.1000;0.4225;0.7378;
551.4000;0.4306;0.7573;
551.7000;0.4217;0.7329;
552.0000;0.4208;0.7305;
552.3000;0.4225;0.7354;
552.6000;0.4249;0.7378;
552.9000;0.4217;0.7305;
553.2000;0.4233;0.7232;
553.5000;0.4176;0.7208;
553.8000;0.4233;0.7208;
554.1000;0.4225;0.7086;
554.4000;0.4217;0.7135;
554.7000;0.4217;0.7062;
555.0000;0.4160;0.6915;
555.3000;0.4217;0.7135;
555.6000;0.4208;0.7159;
555.9000;0.4208;0.7110;
556.2000;0.4249;0.7183;
556.5000;0.4217;0.7086;
556.8000;0.4208;0.7086;
557.1000;0.4233;0.7232;
557.4000;0.4233;0.7256;
557.7000;0.4241;0.7305;
558.0000;0.4192;0.7256;
558.3000;0.4233;0.7305;
558.6000;0.4225;0.7256;
558.9000;0.4241;0.7354;
559.2000;0.4233;0.7354;
559.5000;0.4217;0.7208;
559.8000;0.4217;0.7110;
560.1000;0.4225;0.7159;
560.4000;0.4217;0.7062;
560.7000;0.4217;0.7159;
561.0000;0.4208;0.7232;
561.3000;0.4225;0.7256;
561.6000;0.4241;0.7305;
561.9000;0.4217;0.7256;
562.2000;0.4200;0.7354;
562.5000;0.4233;0.7451;
562.8000;0.4249;0.7475;
563.1000;0.4257;0.7475;
563.4000;0.4225;0.7378;
563.7000;0.4225;0.7305;
564.0000;0.4233;0.7378;
564.3000;0.4225;0.7378;
564.6000;0.4200;0.7256;
564.9000;0.4249;0.7329;
565.2000;0.4200;0.7208;
565.5000;0.4208;0.7281;
565.8000;0.4208;0.7208;
566.1000;0.4217;0.7183;
566.4000;0.4200;0.7232;
566.7000;0.4200;0.7183;
567.0000;0.4217;0.7159;
567.3000;0.4200;0.7159;
567.6000;0.4225;0.7256;
567.9000;0.4208;0.7281;
568.2000;0.4249;0.7427;
568.5000;0.4225;0.7378;
568.8000;0.4160;0.7159;
569.1000;0.4257;0.7329;
569.4000;0.4225;0.7305;
569.7000;0.4168;0.7135;
570.0000;0.4168;0.7159;
570.3000;0.4322;0.7573;
570.6000;0.4184;0.7256;
570.9000;0.4217;0.7402;
571.2000;0.4241;0.7402;
571.5000;0.4225;0.7305;
571.8000;0.4151;0.7086;
572.1000;0.4225;0.7232;
572.4000;0.4225;0.7232;
572.7000;0.4200;0.7183;
573.0000;0.4241;0.7256;
573.3000;0.4274;0.7475;
573.6000;0.4241;0.7354;
573.9000;0.4225;0.7378;
574.2000;0.4233;0.7402;
574.5000;0.4217;0.7329;
574.8000;0.4217;0.7305;
575.1000;0.4217;0.7378;
575.4000;0.4225;0.7451;
575.7000;0.4233;0.7451;
576.0000;0.4225;0.7354;
576.3000;0.4217;0.7354;
576.6000;0.4217;0.7354;
576.9000;0.4217;0.7451;
577.2000;0.4208;0.7378;
577.5000;0.4208;0.7402;
577.8000;0.4225;0.7475;
578.1000;0.4217;0.7305;
578.4000;0.4241;0.7378;
578.7000;0.4217;0.7354;
579.0000;0.4208;0.7256;
579.3000;0.4233;0.7256;
579.6000;0.4217;0.7183;
579.9000;0.4241;0.7305;
580.2000;0.4233;0.7256;
580.5000;0.4217;0.7281;
580.8000;0.4192;0.7183;
581.1000;0.4192;0.7159;
581.4000;0.4225;0.7329;
581.7000;0.4208;0.7354;
582.0000;0.4184;0.7256;
582.3000;0.4200;0.7329;
582.6000;0.4208;0.7354;
582.9000;0.4241;0.7378;
583.2000;0.4249;0.7329;
583.5000;0.4225;0.7281;
583.8000;0.4200;0.7208;
584.1000;0.4200;0.7208;
584.4000;0.4200;0.7256;
584.7000;0.4143;0.7037;
585.0000;0.4225;0.7232;
585.3000;0.4233;0.7232;
585.6000;0.4208;0.7183;
585.9000;0.4233;0.7183;
586.2000;0.4208;0.7208;
586.5000;0.4200;0.7208;
586.8000;0.4208;0.7281;
587.1000;0.4184;0.7208;
587.4000;0.4192;0.7159;
587.7000;0.4208;0.7232;
588.0000;0.4208;0.7208;
588.3000;0.4208;0.7135;
588.6000;0.4298;0.7354;
588.9000;0.4217;0.7110;
589.2000;0.4217;0.7135;
589.5000;0.4217;0.7135;
589.8000;0.4192;0.7062;
590.1000;0.4257;0.7159;
590.4000;0.4233;0.7110;
590.7000;0.4241;0.7110;
591.0000;0.4241;0.7086;
591.3000;0.4225;0.7062;
591.6000;0.4217;0.6988;
591.9000;0.4143;0.6794;
592.2000;0.4168;0.6842;
592.5000;0.4217;0.7062;
592.8000;0.4217;0.7037;
593.1000;0.4233;0.7159;
593.4000;0.4265;0.7208;
593.7000;0.4151;0.6891;
594.0000;0.4225;0.6964;
594.3000;0.4274;0.7086;
594.6000;0.4233;0.7037;
594.9000;0.4192;0.6940;
595.2000;0.4225;0.6964;
595.5000;0.4217;0.6988;
595.8000;0.4225;0.7135;
596.1000;0.4208;0.7135;
596.4000;0.4217;0.7159;
596.7000;0.4160;0.6988;
597.0000;0.4208;0.7135;
597.3000;0.4233;0.7183;
597.6000;0.4217;0.7183;
597.9000;0.4208;0.7208;
598.2000;0.4217;0.7232;
598.5000;0.4225;0.7305;
598.8000;0.4184;0.7305;
599.1000;0.4298;0.7573;
599.4000;0.4217;0.7329;
599.7000;0.4217;0.7281;
600.0000;0.4217;0.7232;
600.3000;0.4217;0.7037;
600.6000;0.4257;0.7135;
600.9000;0.4192;0.6842;
601.2000;0.4200;0.6721;
601.5000;0.4160;0.6599;
601.8000;0.4135;0.6526;
602.1000;0.4127;0.6428;
602.4000;0.4119;0.6282;
602.7000;0.4086;0.6088;
603.0000;0.4086;0.5990;
603.3000;0.4054;0.5844;
603.6000;0.4062;0.5795;
603.9000;0.4037;0.5674;
604.2000;0.4005;0.5576;
604.5000;0.4013;0.5527;
604.8000;0.4005;0.5503;
605.1000;0.3997;0.5308;
605.4000;0.3989;0.5187;
605.7000;0.3980;0.5138;
606.0000;0.3948;0.5114;
606.3000;0.3948;0.5065;
606.6000;0.3940;0.4992;
606.9000;0.3940;0.4894;
607.2000;0.3932;0.4821;
607.5000;0.3923;0.4773;
607.8000;0.3915;0.4675;
608.1000;0.3907;0.4627;
608.4000;0.3923;0.4602;
608.7000;0.3907;0.4553;
609.0000;0.3891;0.4529;
609.3000;0.3891;0.4602;
609.6000;0.3834;0.4456;
609.9000;0.3858;0.4675;
610.2000;0.3858;0.4651;
610.5000;0.3850;0.4651;
610.8000;0.3891;0.4700;
611.1000;0.3834;0.4602;
611.4000;0.3810;0.4480;
611.7000;0.3818;0.4480;
612.0000;0.3818;0.4505;
612.3000;0.3826;0.4578;
612.6000;0.3875;0.4700;
612.9000;0.3810;0.4553;
613.2000;0.3785;0.4578;
613.5000;0.3801;0.4651;
613.8000;0.3818;0.4602;
614.1000;0.3777;0.4432;
614.4000;0.3801;0.4432;
614.7000;0.3801;0.4505;
615.0000;0.3793;0.4480;
615.3000;0.3785;0.4456;
615.6000;0.3769;0.4432;
615.9000;0.3810;0.4407;
616.2000;0.3793;0.4407;
616.5000;0.3777;0.4359;
616.8000;0.3744;0.4432;
617.1000;0.3761;0.4456;
617.4000;0.3761;0.4383;
617.7000;0.3753;0.4407;
618.0000;0.3761;0.4383;
618.3000;0.3810;0.4480;
618.6000;0.3753;0.4383;
618.9000;0.3769;0.4480;
619.2000;0.3744;0.4432;
619.5000;0.3728;0.4432;
619.8000;0.3736;0.4407;
620.1000;0.3728;0.4334;
620.4000;0.3736;0.4383;
620.7000;0.3720;0.4383;
621.0000;0.3712;0.4359;
621.3000;0.3736;0.4480;
621.6000;0.3704;0.4383;
621.9000;0.3696;0.4359;
622.2000;0.3704;0.4359;
622.5000;0.3712;0.4383;
622.8000;0.3704;0.4383;
623.1000;0.3696;0.4359;
623.4000;0.3687;0.4310;
623.7000;0.3704;0.4359;
624.0000;0.3696;0.4310;
624.3000;0.3728;0.4383;
624.6000;0.3704;0.4359;
624.9000;0.3687;0.4334;
625.2000;0.3712;0.4432;
625.5000;0.3687;0.4407;
625.8000;0.3671;0.4310;
626.1000;0.3687;0.4310;
626.4000;0.3679;0.4286;
626.7000;0.3663;0.4310;
627.0000;0.3647;0.4286;
627.3000;0.3655;0.4261;
627.6000;0.3671;0.4359;
627.9000;0.3671;0.4359;
628.2000;0.3663;0.4359;
628.5000;0.3639;0.4261;
628.8000;0.3655;0.4383;
629.1000;0.3679;0.4553;
629.4000;0.3663;0.4578;
629.7000;0.3679;0.4505;
630.0000;0.3663;0.4456;
630.3000;0.3630;0.4286;
630.6000;0.3663;0.4286;
630.9000;0.3663;0.4334;
631.2000;0.3647;0.4359;
631.5000;0.3655;0.4334;
631.8000;0.3655;0.4237;
632.1000;0.3630;0.4213;
632.4000;0.3639;0.4213;
632.7000;0.3630;0.4237;
633.0000;0.3647;0.4310;
633.3000;0.3639;0.4359;
633.6000;0.3639;0.4334;
633.9000;0.3696;0.4529;
634.2000;0.3720;0.4675;
634.5000;0.3630;0.4529;
634.8000;0.3639;0.4602;
635.1000;0.3582;0.4432;
635.4000;0.3598;0.4432;
635.7000;0.3639;0.4456;
636.0000;0.3614;0.4359;
636.3000;0.3622;0.4456;
636.6000;0.3622;0.4456;
636.9000;0.3598;0.4456;
637.2000;0.3614;0.4359;
637.5000;0.3590;0.4286;
637.8000;0.3598;0.4359;
638.1000;0.3614;0.4407;
638.4000;0.3565;0.4286;
638.7000;0.3606;0.4383;
639.0000;0.3598;0.4359;
639.3000;0.3606;0.4359;
639.6000;0.3598;0.4359;
639.9000;0.3630;0.4407;
640.2000;0.3606;0.4359;
640.5000;0.3614;0.4359;
640.8000;0.3655;0.4407;
641.1000;0.3606;0.4237;
641.4000;0.3565;0.4213;
641.7000;0.3614;0.4334;
642.0000;0.3598;0.4359;
642.3000;0.3663;0.4480;
642.6000;0.3622;0.4383;
642.9000;0.3614;0.4310;
643.2000;0.3614;0.4383;
643.5000;0.3614;0.4383;
643.8000;0.3598;0.4310;
644.1000;0.3598;0.4213;
644.4000;0.3590;0.4091;
644.7000;0.3606;0.4091;
645.0000;0.3590;0.4042;
645.3000;0.3582;0.4091;
645.6000;0.3606;0.4091;
645.9000;0.3573;0.4066;
646.2000;0.3573;0.4091;
646.5000;0.3582;0.4188;
646.8000;0.3582;0.4213;
647.1000;0.3573;0.4115;
647.4000;0.3557;0.4164;
647.7000;0.3557;0.4164;
648.0000;0.3549;0.4115;
648.3000;0.3573;0.4213;
648.6000;0.3549;0.4188;
648.9000;0.3565;0.4261;
649.2000;0.3557;0.4286;
649.5000;0.3582;0.4359;
649.8000;0.3573;0.4432;
650.1000;0.3557;0.4310;
650.4000;0.3565;0.4286;
650.7000;0.3590;0.4334;
651.0000;0.3557;0.4237;
651.3000;0.3541;0.4237;
651.6000;0.3582;0.4286;
651.9000;0.3565;0.4237;
652.2000;0.3549;0.4213;
652.5000;0.3549;0.4286;
652.8000;0.3549;0.4164;
653.1000;0.3565;0.4140;
653.4000;0.3565;0.4310;
653.7000;0.3565;0.4286;
654.0000;0.3573;0.4310;
654.3000;0.3516;0.4286;
654.6000;0.3565;0.4432;
654.9000;0.3557;0.4407;
655.2000;0.3541;0.4383;
655.5000;0.3549;0.4407;
655.8000;0.3557;0.4334;
656.1000;0.3549;0.4286;
656.4000;0.3533;0.4237;
656.7000;0.3549;0.4164;
657.0000;0.3541;0.4042;
657.3000;0.3541;0.4018;
657.6000;0.3541;0.4042;
657.9000;0.3525;0.4018;
658.2000;0.3533;0.4018;
658.5000;0.3549;0.4042;
658.8000;0.3541;0.4042;
659.1000;0.3541;0.4140;
659.4000;0.3525;0.4115;
659.7000;0.3533;0.4140;
660.0000;0.3557;0.4188;
660.3000;0.3525;0.4042;
660.6000;0.3533;0.4140;
660.9000;0.3565;0.4237;
661.2000;0.3549;0.4286;
661.5000;0.3516;0.4115;
661.8000;0.3549;0.4213;
662.1000;0.3525;0.4164;
662.4000;0.3541;0.4140;
662.7000;0.3557;0.4213;
663.0000;0.3533;0.4188;
663.3000;0.3533;0.4164;
663.6000;0.3533;0.4188;
663.9000;0.3516;0.4164;
664.2000;0.3525;0.4091;
664.5000;0.3541;0.4066;
664.8000;0.3533;0.4115;
665.1000;0.3451;0.3969;
665.4000;0.3525;0.4213;
665.7000;0.3533;0.4213;
666.0000;0.3533;0.4213;
666.3000;0.3598;0.4432;
666.6000;0.3516;0.4213;
666.9000;0.3516;0.4164;
667.2000;0.3606;0.4237;
667.5000;0.3533;0.4066;
667.8000;0.3533;0.4042;
668.1000;0.3573;0.4213;
668.4000;0.3525;0.4018;
668.7000;0.3516;0.4091;
669.0000;0.3516;0.4091;
669.3000;0.3500;0.4042;
669.6000;0.3557;0.4188;
669.9000;0.3508;0.4115;
670.2000;0.3516;0.4140;
670.5000;0.3533;0.4164;
670.8000;0.3500;0.3993;
671.1000;0.3525;0.4188;
671.4000;0.3525;0.4164;
671.7000;0.3582;0.4237;
672.0000;0.3525;0.4091;
672.3000;0.3516;0.4018;
672.6000;0.3508;0.3993;
672.9000;0.3508;0.4042;
673.2000;0.3516;0.3969;
673.5000;0.3508;0.3920;
673.8000;0.3508;0.3896;
674.1000;0.3500;0.3920;
674.4000;0.3500;0.3920;
674.7000;0.3516;0.4018;
675.0000;0.3508;0.3920;
675.3000;0.3508;0.3969;
675.6000;0.3500;0.4066;
675.9000;0.3525;0.4164;
676.2000;0.3508;0.4140;
676.5000;0.3516;0.4188;
676.8000;0.3492;0.4237;
677.1000;0.3516;0.4237;
677.4000;0.3508;0.4310;
677.7000;0.3533;0.4334;
678.0000;0.3492;0.4188;
678.3000;0.3492;0.4164;
678.6000;0.3476;0.4115;
678.9000;0.3476;0.4140;
679.2000;0.3492;0.4188;
679.5000;0.3476;0.4140;
679.8000;0.3484;0.4188;
680.1000;0.3508;0.4213;
680.4000;0.3508;0.4213;
680.7000;0.3541;0.4261;
681.0000;0.3508;0.4140;
681.3000;0.3492;0.4115;
681.6000;0.3508;0.4188;
681.9000;0.3435;0.3969;
682.2000;0.3516;0.4140;
682.5000;0.3500;0.4237;
682.8000;0.3484;0.4188;
683.1000;0.3492;0.4237;
683.4000;0.3492;0.4359;
683.7000;0.3492;0.4359;
684.0000;0.3468;0.4334;
684.3000;0.3492;0.4310;
684.6000;0.3484;0.4310;
684.9000;0.3484;0.4383;
685.2000;0.3516;0.4432;
685.5000;0.3500;0.4359;
685.8000;0.3484;0.4261;
686.1000;0.3476;0.4237;
686.4000;0.3500;0.4213;
686.7000;0.3484;0.4188;
687.0000;0.3484;0.4188;
687.3000;0.3484;0.4140;
687.6000;0.3492;0.4164;
687.9000;0.3468;0.4188;
688.2000;0.3508;0.4286;
688.5000;0.3468;0.4213;
688.8000;0.3476;0.4286;
689.1000;0.3468;0.4213;
689.4000;0.3500;0.4310;
689.7000;0.3468;0.4237;
690.0000;0.3508;0.4383;
690.3000;0.3476;0.4407;
690.6000;0.3500;0.4432;
690.9000;0.3451;0.4237;
691.2000;0.3484;0.4261;
691.5000;0.3403;0.3969;
691.8000;0.3476;0.4140;
692.1000;0.3435;0.4237;
692.4000;0.3492;0.4334;
692.7000;0.3451;0.4310;
693.0000;0.3476;0.4432;
693.3000;0.3468;0.4432;
693.6000;0.3427;0.4383;
693.9000;0.3484;0.4529;
694.2000;0.3484;0.4553;
694.5000;0.3484;0.4505;
694.8000;0.3484;0.4529;
695.1000;0.3500;0.4553;
695.4000;0.3500;0.4553;
695.7000;0.3484;0.4359;
696.0000;0.3476;0.4310;
696.3000;0.3492;0.4359;
696.6000;0.3492;0.4383;
696.9000;0.3476;0.4334;
697.2000;0.3476;0.4286;
697.5000;0.3500;0.4237;
697.8000;0.3476;0.4310;
698.1000;0.3500;0.4310;
698.4000;0.3468;0.4310;
698.7000;0.3484;0.4407;
699.0000;0.3451;0.4237;
699.3000;0.3492;0.4261;
699.6000;0.3476;0.4310;
699.9000;0.3484;0.4334;
700.2000;0.3460;0.4261;
700.5000;0.3500;0.4237;
700.8000;0.3484;0.4188;
701.1000;0.3468;0.4091;
701.4000;0.3484;0.4042;
701.7000;0.3484;0.4091;
702.0000;0.3500;0.4140;
702.3000;0.3476;0.4066;
702.6000;0.3476;0.4018;
702.9000;0.3468;0.4018;
703.2000;0.3484;0.4042;
703.5000;0.3492;0.4091;
703.8000;0.3460;0.4018;
704.1000;0.3484;0.4091;
704.4000;0.3460;0.4018;
704.7000;0.3484;0.4018;
705.0000;0.3484;0.4042;
705.3000;0.3500;0.4164;
705.6000;0.3419;0.4018;
705.9000;0.3468;0.4213;
706.2000;0.3468;0.4286;
706.5000;0.3468;0.4286;
706.8000;0.3484;0.4140;
707.1000;0.3476;0.4213;
707.4000;0.3468;0.4140;
707.7000;0.3460;0.4091;
708.0000;0.3427;0.3969;
708.3000;0.3443;0.4091;
708.6000;0.3541;0.4310;
708.9000;0.3460;0.4091;
709.2000;0.3468;0.4213;
709.5000;0.3468;0.4164;
709.8000;0.3500;0.4213;
710.1000;0.3427;0.4042;
710.4000;0.3451;0.4018;
710.7000;0.3460;0.4042;
711.0000;0.3451;0.4042;
711.3000;0.3492;0.4188;
711.6000;0.3451;0.4140;
711.9000;0.3468;0.4066;
712.2000;0.3394;0.3969;
712.5000;0.3460;0.4115;
712.8000;0.3468;0.4213;
713.1000;0.3460;0.4237;
713.4000;0.3435;0.4164;
713.7000;0.3468;0.4286;
714.0000;0.3476;0.4261;
714.3000;0.3484;0.4286;
714.6000;0.3468;0.4237;
714.9000;0.3378;0.4018;
715.2000;0.3435;0.4213;
715.5000;0.3468;0.4237;
715.8000;0.3468;0.4164;
716.1000;0.3476;0.4164;
716.4000;0.3460;0.4188;
716.7000;0.3476;0.4261;
717.0000;0.3492;0.4310;
717.3000;0.3468;0.4237;
717.6000;0.3468;0.4261;
717.9000;0.3468;0.4334;
718.2000;0.3476;0.4407;
718.5000;0.3460;0.4261;
718.8000;0.3460;0.4188;
719.1000;0.3451;0.4237;
719.4000;0.3451;0.4310;
719.7000;0.3468;0.4432;
720.0000;0.3451;0.4383;
720.3000;0.3476;0.4383;
720.6000;0.3476;0.4432;
720.9000;0.3468;0.4480;
721.2000;0.3484;0.4480;
721.5000;0.3476;0.4505;
721.8000;0.3411;0.4383;
722.1000;0.3492;0.4553;
722.4000;0.3451;0.4456;
722.7000;0.3460;0.4529;
723.0000;0.3460;0.4553;
723.3000;0.3460;0.4456;
723.6000;0.3484;0.4529;
723.9000;0.3443;0.4359;
724.2000;0.3419;0.4261;
724.5000;0.3460;0.4334;
724.8000;0.3451;0.4334;
725.1000;0.3468;0.4310;
725.4000;0.3492;0.4237;
725.7000;0.3460;0.4188;
726.0000;0.3468;0.4310;
726.3000;0.3443;0.4334;
726.6000;0.3460;0.4359;
726.9000;0.3460;0.4310;
727.2000;0.3460;0.4310;
727.5000;0.3508;0.4432;
727.8000;0.3460;0.4359;
728.1000;0.3460;0.4359;
728.4000;0.3427;0.4310;
728.7000;0.3435;0.4359;
729.0000;0.3460;0.4310;
729.3000;0.3443;0.4237;
729.6000;0.3443;0.4310;
729.9000;0.3435;0.4334;
730.2000;0.3451;0.4383;
730.5000;0.3460;0.4383;
730.8000;0.3476;0.4310;
731.1000;0.3500;0.4407;
731.4000;0.3460;0.4286;
731.7000;0.3451;0.4213;
732.0000;0.3435;0.4188;
732.3000;0.3460;0.4286;
732.6000;0.3451;0.4261;
732.9000;0.3468;0.4359;
733.2000;0.3419;0.4261;
733.5000;0.3451;0.4310;
733.8000;0.3468;0.4359;
734.1000;0.3451;0.4286;
734.4000;0.3451;0.4334;
734.7000;0.3443;0.4286;
735.0000;0.3468;0.4310;
735.3000;0.3451;0.4261;
735.6000;0.3468;0.4237;
735.9000;0.3468;0.4188;
736.2000;0.3386;0.3993;
736.5000;0.3451;0.4188;
736.8000;0.3500;0.4286;
737.1000;0.3435;0.4164;
737.4000;0.3460;0.4237;
737.7000;0.3451;0.4310;
738.0000;0.3443;0.4286;
738.3000;0.3443;0.4237;
738.6000;0.3435;0.4140;
738.9000;0.3451;0.4188;
739.2000;0.3451;0.4115;
739.5000;0.3460;0.4164;
739.8000;0.3460;0.4042;
740.1000;0.3460;0.4115;
740.4000;0.3451;0.4140;
740.7000;0.3443;0.4164;
741.0000;0.3492;0.4383;
741.3000;0.3451;0.4310;
741.6000;0.3427;0.4286;
741.9000;0.3443;0.4359;
742.2000;0.3451;0.4407;
742.5000;0.3468;0.4383;
742.8000;0.3435;0.4383;
743.1000;0.3460;0.4456;
743.4000;0.3443;0.4359;
743.7000;0.3443;0.4383;
744.0000;0.3435;0.4310;
744.3000;0.3435;0.4237;
744.6000;0.3419;0.4237;
744.9000;0.3435;0.4286;
745.2000;0.3460;0.4261;
745.5000;0.3419;0.4188;
745.8000;0.3419;0.4261;
746.1000;0.3435;0.4286;
746.4000;0.3451;0.4310;
746.7000;0.3451;0.4359;
747.0000;0.3443;0.4334;
747.3000;0.3460;0.4383;
747.6000;0.3419;0.4286;
747.9000;0.3435;0.4237;
748.2000;0.3419;0.4164;
748.5000;0.3460;0.4310;
748.8000;0.3443;0.4432;
749.1000;0.3443;0.4505;
749.4000;0.3427;0.4456;
749.7000;0.3435;0.4456;
750.0000;0.3435;0.4407;
750.3000;0.3443;0.4456;
750.6000;0.3427;0.4407;
750.9000;0.3435;0.4432;
751.2000;0.3419;0.4456;
751.5000;0.3435;0.4480;
751.8000;0.3394;0.4359;
752.1000;0.3419;0.4456;
752.4000;0.3443;0.4432;
752.7000;0.3435;0.4383;
753.0000;0.3362;0.4164;
753.3000;0.3435;0.4334;
753.6000;0.3427;0.4310;
753.9000;0.3443;0.4334;
754.2000;0.3435;0.4359;
754.5000;0.3419;0.4286;
754.8000;0.3451;0.4383;
755.1000;0.3451;0.4359;
755.4000;0.3500;0.4480;
755.7000;0.3427;0.4310;
756.0000;0.3403;0.4261;
756.3000;0.3443;0.4286;
756.6000;0.3460;0.4188;
756.9000;0.3435;0.4213;
757.2000;0.3451;0.4310;
757.5000;0.3435;0.4359;
757.8000;0.3403;0.4237;
758.1000;0.3443;0.4261;
758.4000;0.3427;0.4261;
758.7000;0.3427;0.4188;
759.0000;0.3451;0.4286;
759.3000;0.3492;0.4310;
759.6000;0.3419;0.4091;
759.9000;0.3468;0.4188;
760.2000;0.3460;0.4213;
760.5000;0.3435;0.4115;
760.8000;0.3435;0.4164;
761.1000;0.3443;0.4261;
761.4000;0.3435;0.4286;
761.7000;0.3443;0.4310;
762.0000;0.3443;0.4334;
762.3000;0.3443;0.4432;
762.6000;0.3468;0.4553;
762.9000;0.3435;0.4480;
763.2000;0.3427;0.4407;
763.5000;0.3427;0.4456;
763.8000;0.3435;0.4407;
764.1000;0.3427;0.4383;
764.4000;0.3451;0.4456;
764.7000;0.3419;0.4456;
765.0000;0.3419;0.4456;
765.3000;0.3435;0.4456;
765.6000;0.3443;0.4407;
765.9000;0.3443;0.4334;
766.2000;0.3419;0.4310;
766.5000;0.3443;0.4310;
766.8000;0.3443;0.4359;
767.1000;0.3492;0.4480;
767.4000;0.3443;0.4407;
767.7000;0.3443;0.4505;
768.0000;0.3508;0.4651;
768.3000;0.3435;0.4407;
768.6000;0.3419;0.4432;
768.9000;0.3468;0.4456;
769.2000;0.3427;0.4383;
769.5000;0.3460;0.4553;
769.8000;0.3435;0.4529;
770.1000;0.3427;0.4480;
770.4000;0.3435;0.4529;
770.7000;0.3443;0.4578;
771.0000;0.3419;0.4578;
771.3000;0.3427;0.4627;
771.6000;0.3411;0.4529;
771.9000;0.3427;0.4553;
772.2000;0.3419;0.4529;
772.5000;0.3435;0.4529;
772.8000;0.3427;0.4407;
773.1000;0.3386;0.4310;
773.4000;0.3427;0.4359;
773.7000;0.3419;0.4261;
774.0000;0.3427;0.4237;
774.3000;0.3435;0.4237;
774.6000;0.3403;0.4164;
774.9000;0.3435;0.4261;
775.2000;0.3435;0.4334;
775.5000;0.3403;0.4334;
775.8000;0.3427;0.4383;
776.1000;0.3427;0.4359;
776.4000;0.3435;0.4286;
776.7000;0.3443;0.4261;
777.0000;0.3435;0.4164;
777.3000;0.3500;0.4261;
777.6000;0.3435;0.4188;
777.9000;0.3427;0.4213;
778.2000;0.3435;0.4310;
778.5000;0.3411;0.4237;
778.8000;0.3419;0.4237;
779.1000;0.3451;0.4383;
779.4000;0.3435;0.4310;
779.7000;0.3451;0.4188;
780.0000;0.3394;0.4042;
780.3000;0.3435;0.4237;
780.6000;0.3525;0.4456;
780.9000;0.3460;0.4286;
781.2000;0.3386;0.4091;
781.5000;0.3427;0.4261;
781.8000;0.3443;0.4383;
782.1000;0.3484;0.4505;
782.4000;0.3533;0.4675;
782.7000;0.3443;0.4578;
783.0000;0.3484;0.4651;
783.3000;0.3427;0.4529;
783.6000;0.3419;0.4578;
783.9000;0.3419;0.4505;
784.2000;0.3443;0.4432;
784.5000;0.3451;0.4505;
784.8000;0.3427;0.4383;
785.1000;0.3427;0.4456;
785.4000;0.3435;0.4480;
785.7000;0.3451;0.4553;
786.0000;0.3419;0.4456;
786.3000;0.3419;0.4407;
786.6000;0.3435;0.4407;
786.9000;0.3419;0.4407;
787.2000;0.3451;0.4505;
787.5000;0.3443;0.4432;
787.8000;0.3419;0.4383;
788.1000;0.3451;0.4456;
788.4000;0.3427;0.4383;
788.7000;0.3403;0.4407;
789.0000;0.3419;0.4505;
789.3000;0.3435;0.4529;
789.6000;0.3411;0.4505;
789.9000;0.3419;0.4505;
790.2000;0.3419;0.4407;
790.5000;0.3419;0.4359;
790.8000;0.3419;0.4213;
791.1000;0.3443;0.4261;
791.4000;0.3427;0.4310;
791.7000;0.3435;0.4383;
792.0000;0.3411;0.4310;
792.3000;0.3435;0.4383;
792.6000;0.3427;0.4286;
792.9000;0.3427;0.4310;
793.2000;0.3427;0.4237;
793.5000;0.3451;0.4286;
793.8000;0.3427;0.4310;
794.1000;0.3386;0.4237;
794.4000;0.3419;0.4383;
794.7000;0.3435;0.4310;
795.0000;0.3435;0.4188;
795.3000;0.3427;0.4091;
795.6000;0.3451;0.4213;
795.9000;0.3443;0.4237;
796.2000;0.3419;0.4237;
796.5000;0.3427;0.4188;
796.8000;0.3435;0.4237;
797.1000;0.3419;0.4140;
797.4000;0.3394;0.4018;
797.7000;0.3460;0.4164;
798.0000;0.3419;0.4115;
798.3000;0.3427;0.4213;
798.6000;0.3468;0.4286;
798.9000;0.3403;0.4164;
799.2000;0.3427;0.4237;
799.5000;0.3346;0.4091;
799.8000;0.3492;0.4456;
800.1000;0.3427;0.4286;
800.4000;0.3435;0.4383;
800.7000;0.3451;0.4480;
801.0000;0.3411;0.4432;
801.3000;0.3427;0.4407;
801.6000;0.3411;0.4407;
801.9000;0.3419;0.4456;
802.2000;0.3362;0.4261;
802.5000;0.3427;0.4310;
802.8000;0.3419;0.4334;
803.1000;0.3435;0.4310;
803.4000;0.3435;0.4310;
803.7000;0.3403;0.4261;
804.0000;0.3443;0.4334;
804.3000;0.3427;0.4359;
804.6000;0.3427;0.4310;
804.9000;0.3427;0.4407;
805.2000;0.3419;0.4383;
805.5000;0.3411;0.4359;
805.8000;0.3435;0.4407;
806.1000;0.3419;0.4407;
806.4000;0.3427;0.4407;
806.7000;0.3419;0.4432;
807.0000;0.3427;0.4456;
807.3000;0.3460;0.4553;
807.6000;0.3427;0.4505;
807.9000;0.3419;0.4553;
808.2000;0.3411;0.4529;
808.5000;0.3411;0.4553;
808.8000;0.3443;0.4602;
809.1000;0.3419;0.4553;
809.4000;0.3419;0.4432;
809.7000;0.3435;0.4407;
810.0000;0.3443;0.4480;
810.3000;0.3419;0.4407;
810.6000;0.3427;0.4456;
810.9000;0.3403;0.4505;
811.2000;0.3427;0.4505;
811.5000;0.3419;0.4529;
811.8000;0.3411;0.4456;
812.1000;0.3411;0.4480;
812.4000;0.3435;0.4505;
812.7000;0.3427;0.4505;
813.0000;0.3411;0.4553;
813.3000;0.3419;0.4505;
813.6000;0.3419;0.4505;
813.9000;0.3435;0.4529;
814.2000;0.3427;0.4529;
814.5000;0.3419;0.4553;
814.8000;0.3476;0.4675;
815.1000;0.3411;0.4480;
815.4000;0.3451;0.4553;
815.7000;0.3419;0.4505;
816.0000;0.3419;0.4578;
816.3000;0.3427;0.4480;
816.6000;0.3403;0.4480;
816.9000;0.3419;0.4553;
817.2000;0.3435;0.4627;
817.5000;0.3419;0.4675;
817.8000;0.3411;0.4553;
818.1000;0.3419;0.4553;
818.4000;0.3403;0.4505;
818.7000;0.3411;0.4505;
819.0000;0.3435;0.4602;
819.3000;0.3411;0.4529;
819.6000;0.3484;0.4675;
819.9000;0.3427;0.4553;
820.2000;0.3411;0.4553;
820.5000;0.3403;0.4553;
820.8000;0.3411;0.4578;
821.1000;0.3346;0.4359;
821.4000;0.3354;0.4286;
821.7000;0.3435;0.4407;
822.0000;0.3419;0.4456;
822.3000;0.3427;0.4456;
822.6000;0.3419;0.4505;
822.9000;0.3419;0.4505;
823.2000;0.3427;0.4529;
823.5000;0.3443;0.4553;
823.8000;0.3451;0.4529;
824.1000;0.3427;0.4432;
824.4000;0.3370;0.4237;
824.7000;0.3411;0.4261;
825.0000;0.3403;0.4261;
825.3000;0.3435;0.4261;
825.6000;0.3370;0.4140;
825.9000;0.3411;0.4310;
826.2000;0.3419;0.4359;
826.5000;0.3419;0.4310;
826.8000;0.3411;0.4286;
827.1000;0.3411;0.4237;
827.4000;0.3419;0.4286;
827.7000;0.3427;0.4310;
828.0000;0.3419;0.4310;
828.3000;0.3427;0.4261;
828.6000;0.3427;0.4261;
828.9000;0.3427;0.4310;
829.2000;0.3346;0.4042;
829.5000;0.3419;0.4310;
829.8000;0.3419;0.4334;
830.1000;0.3419;0.4432;
830.4000;0.3427;0.4456;
830.7000;0.3427;0.4456;
831.0000;0.3427;0.4505;
831.3000;0.3419;0.4529;
831.6000;0.3419;0.4529;
831.9000;0.3419;0.4529;
832.2000;0.3419;0.4432;
832.5000;0.3411;0.4407;
832.8000;0.3419;0.4359;
833.1000;0.3435;0.4310;
833.4000;0.3403;0.4286;
833.7000;0.3419;0.4188;
834.0000;0.3419;0.4213;
834.3000;0.3419;0.4237;
834.6000;0.3427;0.4286;
834.9000;0.3468;0.4383;
835.2000;0.3419;0.4359;
835.5000;0.3411;0.4383;
835.8000;0.3386;0.4432;
836.1000;0.3419;0.4553;
836.4000;0.3411;0.4505;
836.7000;0.3419;0.4480;
837.0000;0.3419;0.4383;
837.3000;0.3427;0.4407;
837.6000;0.3411;0.4359;
837.9000;0.3435;0.4432;
838.2000;0.3419;0.4432;
838.5000;0.3419;0.4432;
838.8000;0.3394;0.4359;
839.1000;0.3411;0.4407;
839.4000;0.3427;0.4432;
839.7000;0.3394;0.4334;
840.0000;0.3403;0.4310;
840.3000;0.3419;0.4286;
840.6000;0.3427;0.4310;
840.9000;0.3427;0.4432;
841.2000;0.3370;0.4407;
841.5000;0.3386;0.4456;
841.8000;0.3419;0.4578;
842.1000;0.3508;0.4748;
842.4000;0.3435;0.4505;
842.7000;0.3419;0.4407;
843.0000;0.3427;0.4456;
843.3000;0.3419;0.4480;
843.6000;0.3427;0.4480;
843.9000;0.3427;0.4480;
844.2000;0.3484;0.4700;
844.5000;0.3443;0.4578;
844.8000;0.3419;0.4456;
845.1000;0.3419;0.4432;
845.4000;0.3435;0.4383;
845.7000;0.3411;0.4310;
846.0000;0.3419;0.4237;
846.3000;0.3419;0.4261;
846.6000;0.3427;0.4359;
846.9000;0.3443;0.4407;
847.2000;0.3386;0.4286;
847.5000;0.3411;0.4310;
847.8000;0.3427;0.4310;
848.1000;0.3419;0.4310;
848.4000;0.3419;0.4334;
848.7000;0.3394;0.4310;
849.0000;0.3419;0.4407;
849.3000;0.3403;0.4359;
849.6000;0.3411;0.4261;
849.9000;0.3419;0.4237;
850.2000;0.3419;0.4286;
850.5000;0.3419;0.4261;
850.8000;0.3411;0.4237;
851.1000;0.3419;0.4286;
851.4000;0.3427;0.4334;
851.7000;0.3403;0.4310;
852.0000;0.3403;0.4261;
852.3000;0.3419;0.4261;
852.6000;0.3427;0.4261;
852.9000;0.3386;0.4237;
853.2000;0.3419;0.4261;
853.5000;0.3427;0.4261;
853.8000;0.3427;0.4261;
854.1000;0.3403;0.4286;
854.4000;0.3435;0.4456;
854.7000;0.3427;0.4480;
855.0000;0.3419;0.4432;
855.3000;0.3411;0.4407;
855.6000;0.3419;0.4334;
855.9000;0.3411;0.4286;
856.2000;0.3403;0.4237;
856.5000;0.3435;0.4286;
856.8000;0.3419;0.4310;
857.1000;0.3411;0.4383;
857.4000;0.3435;0.4310;
857.7000;0.3411;0.4213;
858.0000;0.3411;0.4310;
858.3000;0.3427;0.4359;
858.6000;0.3427;0.4261;
858.9000;0.3427;0.4261;
859.2000;0.3411;0.4237;
859.5000;0.3419;0.4164;
859.8000;0.3403;0.4091;
860.1000;0.3427;0.4140;
860.4000;0.3411;0.4140;
860.7000;0.3394;0.4091;
861.0000;0.3411;0.4115;
861.3000;0.3411;0.4115;
861.6000;0.3411;0.4188;
861.9000;0.3411;0.4261;
862.2000;0.3419;0.4310;
862.5000;0.3411;0.4261;
862.8000;0.3403;0.4164;
863.1000;0.3419;0.4237;
863.4000;0.3411;0.4188;
863.7000;0.3362;0.4042;
864.0000;0.3419;0.4261;
864.3000;0.3403;0.4188;
864.6000;0.3419;0.4334;
864.9000;0.3378;0.4261;
865.2000;0.3411;0.4359;
865.5000;0.3427;0.4456;
865.8000;0.3411;0.4456;
866.1000;0.3411;0.4359;
866.4000;0.3411;0.4334;
866.7000;0.3403;0.4383;
867.0000;0.3419;0.4407;
867.3000;0.3443;0.4432;
867.6000;0.3419;0.4383;
867.9000;0.3451;0.4480;
868.2000;0.3427;0.4407;
868.5000;0.3476;0.4480;
868.8000;0.3394;0.4310;
869.1000;0.3460;0.4432;
869.4000;0.3460;0.4432;
869.7000;0.3419;0.4407;
870.0000;0.3419;0.4286;
870.3000;0.3460;0.4359;
870.6000;0.3411;0.4164;
870.9000;0.3435;0.4140;
871.2000;0.3427;0.4091;
871.5000;0.3460;0.4188;
871.8000;0.3378;0.4018;
872.1000;0.3427;0.4188;
872.4000;0.3411;0.4188;
872.7000;0.3419;0.4213;
873.0000;0.3403;0.4188;
873.3000;0.3451;0.4286;
873.6000;0.3508;0.4407;
873.9000;0.3427;0.4188;
874.2000;0.3419;0.4237;
874.5000;0.3411;0.4261;
874.8000;0.3419;0.4310;
875.1000;0.3419;0.4334;
875.4000;0.3378;0.4188;
875.7000;0.3378;0.4237;
876.0000;0.3419;0.4334;
876.3000;0.3419;0.4383;
876.6000;0.3394;0.4286;
876.9000;0.3435;0.4310;
877.2000;0.3427;0.4310;
877.5000;0.3419;0.4310;
877.8000;0.3403;0.4286;
878.1000;0.3403;0.4359;
878.4000;0.3427;0.4407;
878.7000;0.3419;0.4383;
879.0000;0.3419;0.4334;
879.3000;0.3378;0.4286;
879.6000;0.3419;0.4286;
879.9000;0.3419;0.4334;
880.2000;0.3419;0.4310;
880.5000;0.3394;0.4164;
880.8000;0.3394;0.4164;
881.1000;0.3411;0.4188;
881.4000;0.3411;0.4164;
881.7000;0.3419;0.4286;
882.0000;0.3403;0.4310;
882.3000;0.3419;0.4286;
882.6000;0.3427;0.4334;
882.9000;0.3427;0.4286;
883.2000;0.3427;0.4359;
883.5000;0.3411;0.4237;
883.8000;0.3411;0.4261;
884.1000;0.3419;0.4164;
884.4000;0.3427;0.4188;
884.7000;0.3419;0.4188;
885.0000;0.3427;0.4164;
885.3000;0.3419;0.4213;
885.6000;0.3394;0.4188;
885.9000;0.3435;0.4310;
886.2000;0.3403;0.4164;
886.5000;0.3386;0.4164;
886.8000;0.3386;0.4140;
887.1000;0.3411;0.4115;
887.4000;0.3427;0.4237;
887.7000;0.3411;0.4261;
888.0000;0.3427;0.4334;
888.3000;0.3403;0.4237;
888.6000;0.3435;0.4310;
888.9000;0.3411;0.4334;
889.2000;0.3370;0.4164;
889.5000;0.3411;0.4286;
889.8000;0.3411;0.4334;
890.1000;0.3403;0.4334;
890.4000;0.3419;0.4383;
890.7000;0.3378;0.4359;
891.0000;0.3394;0.4456;
891.3000;0.3403;0.4553;
891.6000;0.3411;0.4578;
891.9000;0.3411;0.4675;
892.2000;0.3394;0.4700;
892.5000;0.3411;0.4651;
892.8000;0.3411;0.4602;
893.1000;0.3419;0.4578;
893.4000;0.3411;0.4578;
893.7000;0.3403;0.4602;
894.0000;0.3411;0.4651;
894.3000;0.3386;0.4700;
894.6000;0.3419;0.4748;
894.9000;0.3403;0.4651;
895.2000;0.3476;0.4846;
895.5000;0.3419;0.4675;
895.8000;0.3394;0.4602;
896.1000;0.3411;0.4724;
896.4000;0.3419;0.4602;
896.7000;0.3370;0.4505;
897.0000;0.3411;0.4505;
897.3000;0.3403;0.4578;
897.6000;0.3394;0.4529;
897.9000;0.3394;0.4529;
898.2000;0.3443;0.4700;
898.5000;0.3419;0.4505;
898.8000;0.3394;0.4480;
899.1000;0.3394;0.4334;
899.4000;0.3386;0.4334;
899.7000;0.3427;0.4359;
900.0000;0.3403;0.4383;
900.3000;0.3435;0.4529;
900.6000;0.3419;0.4432;
900.9000;0.3403;0.4383;
901.2000;0.3419;0.4480;
901.5000;0.3370;0.4383;
901.8000;0.3411;0.4505;
902.1000;0.3411;0.4529;
902.4000;0.3411;0.4480;
902.7000;0.3419;0.4529;
903.0000;0.3411;0.4480;
903.3000;0.3411;0.4480;
903.6000;0.3411;0.4505;
903.9000;0.3435;0.4529;
904.2000;0.3411;0.4578;
904.5000;0.3411;0.4529;
904.8000;0.3411;0.4432;
905.1000;0.3427;0.4553;
905.4000;0.3403;0.4480;
905.7000;0.3394;0.4456;
906.0000;0.3394;0.4383;
906.3000;0.3394;0.4432;
906.6000;0.3394;0.4407;
906.9000;0.3403;0.4407;
907.2000;0.3386;0.4432;
907.5000;0.3386;0.4383;
907.8000;0.3411;0.4407;
908.1000;0.3411;0.4334;
908.4000;0.3378;0.4286;
908.7000;0.3435;0.4383;
909.0000;0.3411;0.4359;
909.3000;0.3354;0.4164;
909.6000;0.3411;0.4286;
909.9000;0.3394;0.4310;
910.2000;0.3403;0.4310;
910.5000;0.3411;0.4359;
910.8000;0.3394;0.4359;
911.1000;0.3394;0.4432;
911.4000;0.3411;0.4407;
911.7000;0.3403;0.4383;
912.0000;0.3419;0.4286;
912.3000;0.3411;0.4261;
912.6000;0.3443;0.4432;
912.9000;0.3354;0.4188;
913.2000;0.3427;0.4383;
913.5000;0.3451;0.4456;
913.8000;0.3403;0.4383;
914.1000;0.3403;0.4456;
914.4000;0.3411;0.4480;
914.7000;0.3394;0.4480;
915.0000;0.3386;0.4456;
915.3000;0.3427;0.4505;
915.6000;0.3435;0.4505;
915.9000;0.3386;0.4383;
916.2000;0.3411;0.4383;
916.5000;0.3492;0.4627;
916.8000;0.3411;0.4359;
917.1000;0.3411;0.4432;
917.4000;0.3403;0.4529;
917.7000;0.3411;0.4505;
918.0000;0.3419;0.4407;
918.3000;0.3411;0.4334;
918.6000;0.3394;0.4407;
918.9000;0.3370;0.4432;
919.2000;0.3403;0.4480;
919.5000;0.3411;0.4456;
919.8000;0.3419;0.4505;
920.1000;0.3403;0.4432;
920.4000;0.3394;0.4383;
920.7000;0.3394;0.4383;
921.0000;0.3419;0.4480;
921.3000;0.3403;0.4480;
921.6000;0.3411;0.4480;
921.9000;0.3403;0.4553;
922.2000;0.3321;0.4261;
922.5000;0.3403;0.4553;
922.8000;0.3378;0.4578;
923.1000;0.3403;0.4724;
923.4000;0.3435;0.4846;
923.7000;0.3411;0.4748;
924.0000;0.3411;0.4821;
924.3000;0.3403;0.4797;
924.6000;0.3419;0.4846;
924.9000;0.3419;0.4870;
925.2000;0.3403;0.4797;
925.5000;0.3411;0.4724;
925.8000;0.3346;0.4651;
926.1000;0.3403;0.4797;
926.4000;0.3403;0.4821;
926.7000;0.3476;0.4967;
927.0000;0.3419;0.4675;
927.3000;0.3411;0.4700;
927.6000;0.3435;0.4675;
927.9000;0.3378;0.4505;
928.2000;0.3419;0.4578;
928.5000;0.3451;0.4529;
928.8000;0.3435;0.4553;
929.1000;0.3419;0.4553;
929.4000;0.3427;0.4578;
929.7000;0.3419;0.4529;
930.0000;0.3411;0.4529;
930.3000;0.3419;0.4578;
930.6000;0.3411;0.4553;
930.9000;0.3419;0.4578;
931.2000;0.3468;0.4700;
931.5000;0.3337;0.4310;
931.8000;0.3411;0.4480;
932.1000;0.3394;0.4529;
932.4000;0.3394;0.4553;
932.7000;0.3386;0.4480;
933.0000;0.3411;0.4553;
933.3000;0.3419;0.4700;
933.6000;0.3403;0.4724;
933.9000;0.3427;0.4700;
934.2000;0.3403;0.4602;
934.5000;0.3419;0.4602;
934.8000;0.3411;0.4553;
935.1000;0.3427;0.4578;
935.4000;0.3451;0.4627;
935.7000;0.3411;0.4651;
936.0000;0.3500;0.4919;
936.3000;0.3419;0.4651;
936.6000;0.3403;0.4602;
936.9000;0.3451;0.4602;
937.2000;0.3394;0.4529;
937.5000;0.3476;0.4773;
937.8000;0.3411;0.4627;
938.1000;0.3394;0.4651;
938.4000;0.3411;0.4675;
938.7000;0.3427;0.4700;
939.0000;0.3419;0.4675;
939.3000;0.3419;0.4724;
939.6000;0.3370;0.4675;
939.9000;0.3427;0.4821;
940.2000;0.3394;0.4700;
940.5000;0.3476;0.4943;
940.8000;0.3403;0.4821;
941.1000;0.3427;0.4773;
941.4000;0.3411;0.4797;
941.7000;0.3386;0.4675;
942.0000;0.3403;0.4700;
942.3000;0.3403;0.4748;
942.6000;0.3411;0.4724;
942.9000;0.3403;0.4748;
943.2000;0.3386;0.4675;
943.5000;0.3411;0.4700;
943.8000;0.3411;0.4700;
944.1000;0.3427;0.4773;
944.4000;0.3403;0.4797;
944.7000;0.3427;0.4846;
945.0000;0.3435;0.4846;
945.3000;0.3419;0.4821;
945.6000;0.3427;0.4894;
945.9000;0.3411;0.4846;
946.2000;0.3411;0.4797;
946.5000;0.3403;0.4675;
946.8000;0.3403;0.4602;
947.1000;0.3411;0.4627;
947.4000;0.3411;0.4675;
947.7000;0.3419;0.4602;
948.0000;0.3394;0.4578;
948.3000;0.3403;0.4602;
948.6000;0.3411;0.4651;
948.9000;0.3419;0.4651;
949.2000;0.3427;0.4700;
949.5000;0.3386;0.4578;
949.8000;0.3394;0.4578;
950.1000;0.3419;0.4627;
950.4000;0.3394;0.4602;
950.7000;0.3305;0.4383;
951.0000;0.3411;0.4602;
951.3000;0.3427;0.4627;
951.6000;0.3394;0.4529;
951.9000;0.3419;0.4529;
952.2000;0.3394;0.4505;
952.5000;0.3386;0.4480;
952.8000;0.3435;0.4627;
953.1000;0.3337;0.4407;
953.4000;0.3394;0.4675;
953.7000;0.3484;0.4967;
954.0000;0.3443;0.4870;
954.3000;0.3411;0.4700;
954.6000;0.3411;0.4700;
954.9000;0.3419;0.4724;
955.2000;0.3411;0.4700;
955.5000;0.3386;0.4578;
955.8000;0.3394;0.4602;
956.1000;0.3394;0.4553;
956.4000;0.3411;0.4602;
956.7000;0.3419;0.4505;
957.0000;0.3394;0.4602;
957.3000;0.3411;0.4651;
957.6000;0.3427;0.4675;
957.9000;0.3411;0.4578;
958.2000;0.3419;0.4578;
958.5000;0.3411;0.4651;
958.8000;0.3419;0.4724;
959.1000;0.3427;0.4748;
959.4000;0.3403;0.4651;
959.7000;0.3394;0.4724;
960.0000;0.3435;0.4894;
960.3000;0.3427;0.4821;
960.6000;0.3419;0.4773;
960.9000;0.3411;0.4627;
961.2000;0.3427;0.4553;
961.5000;0.3427;0.4553;
961.8000;0.3427;0.4602;
962.1000;0.3346;0.4529;
962.4000;0.3419;0.4748;
962.7000;0.3403;0.4675;
963.0000;0.3403;0.4651;
963.3000;0.3435;0.4700;
963.6000;0.3403;0.4627;
963.9000;0.3394;0.4602;
964.2000;0.3411;0.4627;
964.5000;0.3394;0.4651;
964.8000;0.3419;0.4651;
965.1000;0.3403;0.4627;
965.4000;0.3411;0.4627;
965.7000;0.3411;0.4651;
966.0000;0.3419;0.4651;
966.3000;0.3484;0.4870;
966.6000;0.3403;0.4627;
966.9000;0.3394;0.4553;
967.2000;0.3386;0.4480;
967.5000;0.3394;0.4505;
967.8000;0.3411;0.4480;
968.1000;0.3403;0.4432;
968.4000;0.3411;0.4480;
968.7000;0.3403;0.4480;
969.0000;0.3394;0.4553;
969.3000;0.3411;0.4700;
969.6000;0.3411;0.4651;
969.9000;0.3394;0.4602;
970.2000;0.3403;0.4651;
970.5000;0.3403;0.4602;
970.8000;0.3411;0.4602;
971.1000;0.3403;0.4700;
971.4000;0.3443;0.4821;
971.7000;0.3394;0.4675;
972.0000;0.3411;0.4724;
972.3000;0.3403;0.4675;
972.6000;0.3386;0.4602;
972.9000;0.3403;0.4651;
973.2000;0.3419;0.4627;
973.5000;0.3386;0.4505;
973.8000;0.3403;0.4578;
974.1000;0.3394;0.4627;
974.4000;0.3419;0.4651;
974.7000;0.3386;0.4578;
975.0000;0.3403;0.4553;
975.3000;0.3419;0.4651;
975.6000;0.3419;0.4627;
975.9000;0.3394;0.4553;
976.2000;0.3403;0.4651;
976.5000;0.3419;0.4651;
976.8000;0.3370;0.4578;
977.1000;0.3354;0.4578;
977.4000;0.3386;0.4602;
977.7000;0.3378;0.4651;
978.0000;0.3411;0.4748;
978.3000;0.3394;0.4651;
978.6000;0.3403;0.4553;
978.9000;0.3403;0.4529;
979.2000;0.3362;0.4432;
979.5000;0.3411;0.4529;
979.8000;0.3370;0.4480;
980.1000;0.3370;0.4432;
980.4000;0.3411;0.4480;
980.7000;0.3411;0.4432;
981.0000;0.3419;0.4456;
981.3000;0.3394;0.4407;
981.6000;0.3386;0.4407;
981.9000;0.3403;0.4359;
982.2000;0.3386;0.4334;
982.5000;0.3411;0.4407;
982.8000;0.3411;0.4359;
983.1000;0.3411;0.4383;
983.4000;0.3411;0.4334;
983.7000;0.3419;0.4383;
984.0000;0.3419;0.4432;
984.3000;0.3386;0.4310;
984.6000;0.3378;0.4334;
984.9000;0.3419;0.4334;
985.2000;0.3403;0.4359;
985.5000;0.3403;0.4383;
985.8000;0.3427;0.4383;
986.1000;0.3386;0.4310;
986.4000;0.3419;0.4456;
986.7000;0.3411;0.4480;
987.0000;0.3386;0.4505;
987.3000;0.3346;0.4310;
987.6000;0.3403;0.4456;
987.9000;0.3435;0.4553;
988.2000;0.3411;0.4480;
988.5000;0.3460;0.4529;
988.8000;0.3411;0.4383;
989.1000;0.3411;0.4383;
989.4000;0.3394;0.4407;
989.7000;0.3411;0.4334;
990.0000;0.3411;0.4334;
990.3000;0.3411;0.4310;
990.6000;0.3394;0.4286;
990.9000;0.3411;0.4359;
991.2000;0.3411;0.4237;
991.5000;0.3394;0.4188;
991.8000;0.3394;0.4286;
992.1000;0.3419;0.4286;
992.4000;0.3411;0.4261;
992.7000;0.3394;0.4164;
993.0000;0.3403;0.4164;
993.3000;0.3354;0.4115;
993.6000;0.3419;0.4213;
993.9000;0.3386;0.4164;
994.2000;0.3394;0.4213;
994.5000;0.3403;0.4188;
994.8000;0.3419;0.4188;
995.1000;0.3411;0.4213;
995.4000;0.3403;0.4213;
995.7000;0.3411;0.4164;
996.0000;0.3411;0.4237;
996.3000;0.3411;0.4237;
996.6000;0.3394;0.4188;
996.9000;0.3403;0.4237;
997.2000;0.3427;0.4310;
997.5000;0.3451;0.4383;
997.8000;0.3362;0.4091;
998.1000;0.3492;0.4480;
998.4000;0.3403;0.4237;
998.7000;0.3370;0.4188;
999.0000;0.3403;0.4359;
999.3000;0.3419;0.4432;
999.6000;0.3403;0.4456;
999.9000;0.3411;0.4407;
1000.2000;0.3403;0.4383;
1000.5000;0.3394;0.4383;
1000.8000;0.3427;0.4480;
1001.1000;0.3419;0.4578;
1001.4000;0.3411;0.4529;
1001.7000;0.3411;0.4407;
1002.0000;0.3427;0.4359;
1002.3000;0.3419;0.4407;
1002.6000;0.3354;0.4261;
1002.9000;0.3427;0.4383;
1003.2000;0.3411;0.4334;
1003.5000;0.3419;0.4359;
1003.8000;0.3419;0.4334;
1004.1000;0.3394;0.4334;
1004.4000;0.3386;0.4407;
1004.7000;0.3394;0.4359;
1005.0000;0.3386;0.4359;
1005.3000;0.3403;0.4432;
1005.6000;0.3403;0.4505;
1005.9000;0.3451;0.4675;
1006.2000;0.3403;0.4480;
1006.5000;0.3394;0.4432;
1006.8000;0.3411;0.4480;
1007.1000;0.3411;0.4505;
1007.4000;0.3403;0.4432;
1007.7000;0.3403;0.4407;
1008.0000;0.3411;0.4456;
1008.3000;0.3370;0.4334;
1008.6000;0.3411;0.4432;
1008.9000;0.3386;0.4383;
1009.2000;0.3321;0.4237;
1009.5000;0.3394;0.4456;
1009.8000;0.3411;0.4553;
1010.1000;0.3403;0.4529;
1010.4000;0.3394;0.4529;
1010.7000;0.3386;0.4553;
1011.0000;0.3411;0.4529;
1011.3000;0.3370;0.4359;
1011.6000;0.3419;0.4456;
1011.9000;0.3427;0.4505;
1012.2000;0.3411;0.4480;
1012.5000;0.3419;0.4456;
1012.8000;0.3411;0.4359;
1013.1000;0.3411;0.4432;
1013.4000;0.3403;0.4310;
1013.7000;0.3411;0.4334;
1014.0000;0.3411;0.4237;
1014.3000;0.3427;0.4237;
1014.6000;0.3427;0.4237;
1014.9000;0.3411;0.4261;
1015.2000;0.3435;0.4286;
1015.5000;0.3394;0.4334;
1015.8000;0.3403;0.4359;
1016.1000;0.3411;0.4407;
1016.4000;0.3443;0.4529;
1016.7000;0.3394;0.4407;
1017.0000;0.3411;0.4432;
1017.3000;0.3378;0.4407;
1017.6000;0.3394;0.4480;
1017.9000;0.3411;0.4456;
1018.2000;0.3411;0.4407;
1018.5000;0.3362;0.4359;
1018.8000;0.3403;0.4505;
1019.1000;0.3403;0.4407;
1019.4000;0.3378;0.4456;
1019.7000;0.3403;0.4529;
1020.0000;0.3411;0.4651;
1020.3000;0.3403;0.4651;
1020.6000;0.3411;0.4627;
1020.9000;0.3403;0.4578;
1021.2000;0.3411;0.4529;
1021.5000;0.3435;0.4578;
1021.8000;0.3443;0.4578;
1022.1000;0.3403;0.4456;
1022.4000;0.3403;0.4505;
1022.7000;0.3394;0.4529;
1023.0000;0.3411;0.4480;
1023.3000;0.3411;0.4505;
1023.6000;0.3411;0.4553;
1023.9000;0.3411;0.4529;
1024.2000;0.3411;0.4432;
1024.5000;0.3394;0.4407;
1024.8000;0.3403;0.4334;
1025.1000;0.3394;0.4261;
1025.4000;0.3403;0.4359;
1025.7000;0.3476;0.4505;
1026.0000;0.3411;0.4383;
1026.3000;0.3411;0.4359;
1026.6000;0.3403;0.4432;
1026.9000;0.3403;0.4407;
1027.2000;0.3378;0.4359;
1027.5000;0.3403;0.4432;
1027.8000;0.3386;0.4529;
1028.1000;0.3378;0.4480;
1028.4000;0.3337;0.4334;
1028.7000;0.3403;0.4529;
1029.0000;0.3378;0.4480;
1029.3000;0.3411;0.4627;
1029.6000;0.3443;0.4773;
1029.9000;0.3403;0.4627;
1030.2000;0.3435;0.4724;
1030.5000;0.3411;0.4602;
1030.8000;0.3411;0.4529;
1031.1000;0.3411;0.4383;
1031.4000;0.3411;0.4334;
1031.7000;0.3394;0.4261;
1032.0000;0.3476;0.4480;
1032.3000;0.3370;0.4261;
1032.6000;0.3403;0.4359;
1032.9000;0.3378;0.4359;
1033.2000;0.3411;0.4553;
1033.5000;0.3386;0.4456;
1033.8000;0.3435;0.4578;
1034.1000;0.3403;0.4480;
1034.4000;0.3403;0.4553;
1034.7000;0.3394;0.4432;
1035.0000;0.3419;0.4456;
1035.3000;0.3403;0.4432;
1035.6000;0.3411;0.4480;
1035.9000;0.3403;0.4334;
1036.2000;0.3378;0.4237;
1036.5000;0.3386;0.4213;
1036.8000;0.3411;0.4261;
1037.1000;0.3403;0.4237;
1037.4000;0.3394;0.4213;
1037.7000;0.3427;0.4359;
1038.0000;0.3411;0.4310;
1038.3000;0.3419;0.4286;
1038.6000;0.3386;0.4213;
1038.9000;0.3370;0.4188;
1039.2000;0.3403;0.4261;
1039.5000;0.3411;0.4261;
1039.8000;0.3386;0.4140;
1040.1000;0.3394;0.4164;
1040.4000;0.3403;0.4091;
1040.7000;0.3337;0.3920;
1041.0000;0.3403;0.4115;
1041.3000;0.3394;0.4066;
1041.6000;0.3403;0.4188;
1041.9000;0.3403;0.4164;
1042.2000;0.3411;0.4140;
1042.5000;0.3394;0.4164;
1042.8000;0.3403;0.4188;
1043.1000;0.3411;0.4237;
1043.4000;0.3403;0.4213;
1043.7000;0.3443;0.4359;
1044.0000;0.3419;0.4383;
1044.3000;0.3411;0.4407;
1044.6000;0.3386;0.4432;
1044.9000;0.3411;0.4432;
1045.2000;0.3403;0.4505;
1045.5000;0.3378;0.4359;
1045.8000;0.3403;0.4407;
1046.1000;0.3403;0.4407;
1046.4000;0.3386;0.4432;
1046.7000;0.3403;0.4432;
1047.0000;0.3403;0.4407;
1047.3000;0.3394;0.4334;
1047.6000;0.3346;0.4213;
1047.9000;0.3403;0.4383;
1048.2000;0.3451;0.4480;
1048.5000;0.3394;0.4286;
1048.8000;0.3403;0.4261;
1049.1000;0.3403;0.4261;
1049.4000;0.3394;0.4310;
1049.7000;0.3394;0.4286;
1050.0000;0.3403;0.4359;
1050.3000;0.3394;0.4261;
1050.6000;0.3403;0.4359;
1050.9000;0.3411;0.4334;
1051.2000;0.3411;0.4334;
1051.5000;0.3378;0.4334;
1051.8000;0.3411;0.4407;
1052.1000;0.3419;0.4480;
1052.4000;0.3443;0.4578;
1052.7000;0.3411;0.4553;
1053.0000;0.3427;0.4627;
1053.3000;0.3435;0.4578;
1053.6000;0.3419;0.4505;
1053.9000;0.3321;0.4286;
1054.2000;0.3403;0.4407;
1054.5000;0.3468;0.4578;
1054.8000;0.3394;0.4480;
1055.1000;0.3411;0.4553;
1055.4000;0.3386;0.4505;
1055.7000;0.3403;0.4529;
1056.0000;0.3403;0.4505;
1056.3000;0.3378;0.4432;
1056.6000;0.3394;0.4505;
1056.9000;0.3419;0.4456;
1057.2000;0.3419;0.4383;
1057.5000;0.3403;0.4334;
1057.8000;0.3403;0.4310;
1058.1000;0.3403;0.4359;
1058.4000;0.3411;0.4480;
1058.7000;0.3394;0.4456;
1059.0000;0.3394;0.4407;
1059.3000;0.3419;0.4407;
1059.6000;0.3394;0.4261;
1059.9000;0.3403;0.4261;
1060.2000;0.3411;0.4334;
1060.5000;0.3403;0.4334;
1060.8000;0.3362;0.4213;
1061.1000;0.3411;0.4407;
1061.4000;0.3427;0.4432;
1061.7000;0.3411;0.4359;
1062.0000;0.3427;0.4359;
1062.3000;0.3394;0.4359;
1062.6000;0.3386;0.4359;
1062.9000;0.3378;0.4334;
1063.2000;0.3394;0.4334;
1063.5000;0.3378;0.4286;
1063.8000;0.3386;0.4237;
1064.1000;0.3411;0.4286;
1064.4000;0.3403;0.4261;
1064.7000;0.3427;0.4359;
1065.0000;0.3403;0.4310;
1065.3000;0.3394;0.4334;
1065.6000;0.3411;0.4359;
1065.9000;0.3386;0.4359;
1066.2000;0.3394;0.4407;
1066.5000;0.3411;0.4407;
1066.8000;0.3411;0.4407;
1067.1000;0.3403;0.4383;
1067.4000;0.3386;0.4261;
1067.7000;0.3378;0.4213;
1068.0000;0.3362;0.4164;
1068.3000;0.3403;0.4261;
1068.6000;0.3378;0.4213;
1068.9000;0.3403;0.4237;
1069.2000;0.3378;0.4115;
1069.5000;0.3460;0.4432;
1069.8000;0.3419;0.4310;
1070.1000;0.3411;0.4261;
1070.4000;0.3419;0.4407;
1070.7000;0.3460;0.4529;
1071.0000;0.3451;0.4432;
1071.3000;0.3419;0.4383;
1071.6000;0.3394;0.4261;
1071.9000;0.3386;0.4286;
1072.2000;0.3386;0.4261;
1072.5000;0.3394;0.4261;
1072.8000;0.3403;0.4334;
1073.1000;0.3403;0.4334;
1073.4000;0.3403;0.4432;
1073.7000;0.3403;0.4383;
1074.0000;0.3394;0.4310;
1074.3000;0.3394;0.4359;
1074.6000;0.3394;0.4383;
1074.9000;0.3394;0.4432;
1075.2000;0.3411;0.4432;
1075.5000;0.3403;0.4334;
1075.8000;0.3394;0.4334;
1076.1000;0.3443;0.4456;
1076.4000;0.3419;0.4383;
1076.7000;0.3394;0.4310;
1077.0000;0.3394;0.4286;
1077.3000;0.3370;0.4261;
1077.6000;0.3411;0.4383;
1077.9000;0.3419;0.4456;
1078.2000;0.3411;0.4480;
1078.5000;0.3403;0.4456;
1078.8000;0.3354;0.4432;
1079.1000;0.3386;0.4456;
1079.4000;0.3386;0.4432;
1079.7000;0.3394;0.4407;
1080.0000;0.3411;0.4432;
1080.3000;0.3403;0.4480;
1080.6000;0.3419;0.4432;
1080.9000;0.3411;0.4432;
1081.2000;0.3394;0.4286;
1081.5000;0.3427;0.4334;
1081.8000;0.3411;0.4286;
1082.1000;0.3403;0.4237;
1082.4000;0.3354;0.4164;
1082.7000;0.3403;0.4334;
1083.0000;0.3411;0.4334;
1083.3000;0.3394;0.4334;
1083.6000;0.3394;0.4383;
1083.9000;0.3427;0.4432;
1084.2000;0.3362;0.4237;
1084.5000;0.3394;0.4310;
1084.8000;0.3394;0.4359;
1085.1000;0.3386;0.4359;
1085.4000;0.3427;0.4407;
1085.7000;0.3403;0.4334;
1086.0000;0.3394;0.4261;
1086.3000;0.3403;0.4286;
1086.6000;0.3394;0.4261;
1086.9000;0.3403;0.4237;
1087.2000;0.3403;0.4334;
1087.5000;0.3403;0.4334;
1087.8000;0.3394;0.4261;
1088.1000;0.3386;0.4286;
1088.4000;0.3394;0.4286;
1088.7000;0.3492;0.4578;
1089.0000;0.3378;0.4359;
1089.3000;0.3411;0.4310;
1089.6000;0.3386;0.4237;
1089.9000;0.3411;0.4286;
1090.2000;0.3411;0.4359;
1090.5000;0.3427;0.4407;
1090.8000;0.3411;0.4456;
1091.1000;0.3419;0.4529;
1091.4000;0.3411;0.4553;
1091.7000;0.3419;0.4553;
1092.0000;0.3354;0.4359;
1092.3000;0.3403;0.4432;
1092.6000;0.3411;0.4383;
1092.9000;0.3427;0.4456;
1093.2000;0.3403;0.4456;
1093.5000;0.3394;0.4359;
1093.8000;0.3403;0.4432;
1094.1000;0.3419;0.4480;
1094.4000;0.3403;0.4407;
1094.7000;0.3411;0.4505;
1095.0000;0.3394;0.4480;
1095.3000;0.3394;0.4432;
1095.6000;0.3394;0.4505;
1095.9000;0.3362;0.4456;
1096.2000;0.3403;0.4578;
1096.5000;0.3403;0.4529;
1096.8000;0.3394;0.4529;
1097.1000;0.3411;0.4505;
1097.4000;0.3403;0.4553;
1097.7000;0.3435;0.4578;
1098.0000;0.3411;0.4480;
1098.3000;0.3403;0.4432;
1098.6000;0.3394;0.4432;
1098.9000;0.3354;0.4310;
1099.2000;0.3419;0.4480;
1099.5000;0.3403;0.4432;
1099.8000;0.3386;0.4480;
1100.1000;0.3394;0.4480;
1100.4000;0.3403;0.4407;
1100.7000;0.3460;0.4529;
1101.0000;0.3403;0.4359;
1101.3000;0.3394;0.4310;
1101.6000;0.3403;0.4407;
1101.9000;0.3386;0.4432;
1102.2000;0.3386;0.4334;
1102.5000;0.3362;0.4237;
1102.8000;0.3411;0.4383;
1103.1000;0.3321;0.4115;
1103.4000;0.3427;0.4383;
1103.7000;0.3386;0.4286;
1104.0000;0.3337;0.4140;
1104.3000;0.3378;0.4188;
1104.6000;0.3394;0.4164;
1104.9000;0.3419;0.4213;
1105.2000;0.3403;0.4286;
1105.5000;0.3403;0.4310;
1105.8000;0.3403;0.4237;
1106.1000;0.3403;0.4237;
1106.4000;0.3370;0.4237;
1106.7000;0.3411;0.4359;
1107.0000;0.3419;0.4310;
1107.3000;0.3411;0.4310;
1107.6000;0.3419;0.4310;
1107.9000;0.3411;0.4407;
1108.2000;0.3403;0.4383;
1108.5000;0.3394;0.4383;
1108.8000;0.3394;0.4407;
1109.1000;0.3394;0.4529;
1109.4000;0.3354;0.4359;
1109.7000;0.3378;0.4432;
1110.0000;0.3394;0.4456;
1110.3000;0.3468;0.4553;
1110.6000;0.3394;0.4261;
1110.9000;0.3403;0.4261;
1111.2000;0.3386;0.4213;
1111.5000;0.3403;0.4286;
1111.8000;0.3443;0.4529;
1112.1000;0.3394;0.4383;
1112.4000;0.3403;0.4334;
1112.7000;0.3403;0.4261;
1113.0000;0.3394;0.4213;
1113.3000;0.3403;0.4140;
1113.6000;0.3403;0.4213;
1113.9000;0.3394;0.4213;
1114.2000;0.3411;0.4334;
1114.5000;0.3394;0.4334;
1114.8000;0.3378;0.4383;
1115.1000;0.3378;0.4407;
1115.4000;0.3403;0.4578;
1115.7000;0.3386;0.4602;
1116.0000;0.3403;0.4651;
1116.3000;0.3403;0.4627;
1116.6000;0.3370;0.4553;
1116.9000;0.3394;0.4700;
1117.2000;0.3386;0.4627;
1117.5000;0.3386;0.4627;
1117.8000;0.3386;0.4578;
1118.1000;0.3403;0.4578;
1118.4000;0.3386;0.4529;
1118.7000;0.3378;0.4407;
1119.0000;0.3451;0.4553;
1119.3000;0.3378;0.4359;
1119.6000;0.3411;0.4456;
1119.9000;0.3403;0.4432;
1120.2000;0.3378;0.4456;
1120.5000;0.3370;0.4456;
1120.8000;0.3394;0.4529;
1121.1000;0.3394;0.4480;
1121.4000;0.3386;0.4480;
1121.7000;0.3403;0.4432;
1122.0000;0.3403;0.4334;
1122.3000;0.3386;0.4334;
1122.6000;0.3394;0.4383;
1122.9000;0.3378;0.4407;
1123.2000;0.3386;0.4432;
1123.5000;0.3403;0.4432;
1123.8000;0.3403;0.4456;
1124.1000;0.3346;0.4334;
1124.4000;0.3394;0.4432;
1124.7000;0.3419;0.4505;
1125.0000;0.3386;0.4407;
1125.3000;0.3403;0.4383;
1125.6000;0.3476;0.4529;
1125.9000;0.3362;0.4261;
1126.2000;0.3403;0.4334;
1126.5000;0.3354;0.4188;
1126.8000;0.3394;0.4237;
1127.1000;0.3386;0.4213;
1127.4000;0.3451;0.4286;
1127.7000;0.3386;0.4188;
1128.0000;0.3403;0.4359;
1128.3000;0.3354;0.4359;
1128.6000;0.3394;0.4480;
1128.9000;0.3378;0.4553;
1129.2000;0.3386;0.4432;
1129.5000;0.3411;0.4383;
1129.8000;0.3378;0.4359;
1130.1000;0.3394;0.4407;
1130.4000;0.3394;0.4432;
1130.7000;0.3370;0.4407;
1131.0000;0.3411;0.4407;
1131.3000;0.3394;0.4286;
1131.6000;0.3378;0.4261;
1131.9000;0.3378;0.4310;
1132.2000;0.3403;0.4286;
1132.5000;0.3411;0.4286;
1132.8000;0.3411;0.4359;
1133.1000;0.3403;0.4310;
1133.4000;0.3411;0.4334;
1133.7000;0.3394;0.4188;
1134.0000;0.3394;0.4164;
1134.3000;0.3321;0.3993;
1134.6000;0.3411;0.4213;
1134.9000;0.3411;0.4237;
1135.2000;0.3411;0.4213;
1135.5000;0.3394;0.4140;
1135.8000;0.3394;0.4115;
1136.1000;0.3427;0.4213;
1136.4000;0.3403;0.4140;
1136.7000;0.3419;0.4140;
1137.0000;0.3443;0.4237;
1137.3000;0.3427;0.4213;
1137.6000;0.3411;0.4188;
1137.9000;0.3468;0.4310;
1138.2000;0.3403;0.4140;
1138.5000;0.3362;0.4091;
1138.8000;0.3411;0.4091;
1139.1000;0.3403;0.4213;
1139.4000;0.3378;0.4164;
1139.7000;0.3435;0.4359;
1140.0000;0.3329;0.4042;
1140.3000;0.3394;0.4164;
1140.6000;0.3411;0.4164;
1140.9000;0.3370;0.4140;
1141.2000;0.3435;0.4359;
1141.5000;0.3354;0.4213;
1141.8000;0.3403;0.4310;
1142.1000;0.3403;0.4286;
1142.4000;0.3411;0.4359;
1142.7000;0.3370;0.4359;
1143.0000;0.3403;0.4480;
1143.3000;0.3394;0.4432;
1143.6000;0.3403;0.4407;
1143.9000;0.3419;0.4432;
1144.2000;0.3394;0.4359;
1144.5000;0.3394;0.4359;
1144.8000;0.3378;0.4359;
1145.1000;0.3403;0.4456;
1145.4000;0.3394;0.4359;
1145.7000;0.3394;0.4286;
1146.0000;0.3370;0.4213;
1146.3000;0.3492;0.4480;
1146.6000;0.3378;0.4164;
1146.9000;0.3411;0.4237;
1147.2000;0.3419;0.4310;
1147.5000;0.3419;0.4310;
1147.8000;0.3419;0.4334;
1148.1000;0.3435;0.4432;
1148.4000;0.3427;0.4407;
1148.7000;0.3419;0.4407;
1149.0000;0.3362;0.4359;
1149.3000;0.3386;0.4432;
1149.6000;0.3394;0.4529;
1149.9000;0.3419;0.4578;
1150.2000;0.3403;0.4553;
1150.5000;0.3435;0.4553;
1150.8000;0.3394;0.4505;
1151.1000;0.3427;0.4553;
1151.4000;0.3427;0.4505;
1151.7000;0.3419;0.4456;
1152.0000;0.3411;0.4480;
1152.3000;0.3346;0.4359;
1152.6000;0.3411;0.4480;
1152.9000;0.3419;0.4480;
1153.2000;0.3443;0.4529;
1153.5000;0.3419;0.4480;
1153.8000;0.3403;0.4334;
1154.1000;0.3386;0.4261;
1154.4000;0.3403;0.4310;
1154.7000;0.3403;0.4359;
1155.0000;0.3411;0.4359;
1155.3000;0.3419;0.4407;
1155.6000;0.3394;0.4456;
1155.9000;0.3403;0.4407;
1156.2000;0.3403;0.4456;
1156.5000;0.3403;0.4383;
1156.8000;0.3403;0.4432;
1157.1000;0.3386;0.4456;
1157.4000;0.3403;0.4505;
1157.7000;0.3411;0.4553;
1158.0000;0.3419;0.4456;
1158.3000;0.3427;0.4432;
1158.6000;0.3403;0.4407;
1158.9000;0.3419;0.4432;
1159.2000;0.3386;0.4407;
1159.5000;0.3386;0.4456;
1159.8000;0.3386;0.4505;
1160.1000;0.3403;0.4553;
1160.4000;0.3411;0.4578;
1160.7000;0.3394;0.4529;
1161.0000;0.3419;0.4578;
1161.3000;0.3411;0.4578;
1161.6000;0.3386;0.4505;
1161.9000;0.3411;0.4651;
1162.2000;0.3435;0.4675;
1162.5000;0.3411;0.4627;
1162.8000;0.3427;0.4675;
1163.1000;0.3419;0.4578;
1163.4000;0.3427;0.4529;
1163.7000;0.3411;0.4553;
1164.0000;0.3354;0.4407;
1164.3000;0.3411;0.4627;
1164.6000;0.3394;0.4651;
1164.9000;0.3403;0.4627;
1165.2000;0.3386;0.4578;
1165.5000;0.3394;0.4578;
1165.8000;0.3419;0.4627;
1166.1000;0.3403;0.4675;
1166.4000;0.3403;0.4602;
1166.7000;0.3419;0.4602;
1167.0000;0.3386;0.4480;
1167.3000;0.3394;0.4432;
1167.6000;0.3419;0.4407;
1167.9000;0.3411;0.4456;
1168.2000;0.3419;0.4578;
1168.5000;0.3378;0.4529;
1168.8000;0.3403;0.4553;
1169.1000;0.3378;0.4480;
1169.4000;0.3394;0.4529;
1169.7000;0.3386;0.4480;
1170.0000;0.3394;0.4480;
1170.3000;0.3386;0.4480;
1170.6000;0.3411;0.4529;
1170.9000;0.3370;0.4432;
1171.2000;0.3394;0.4505;
1171.5000;0.3403;0.4505;
1171.8000;0.3411;0.4529;
1172.1000;0.3427;0.4602;
1172.4000;0.3403;0.4553;
1172.7000;0.3403;0.4407;
1173.0000;0.3346;0.4237;
1173.3000;0.3443;0.4456;
1173.6000;0.3403;0.4383;
1173.9000;0.3419;0.4383;
1174.2000;0.3394;0.4432;
1174.5000;0.3435;0.4529;
1174.8000;0.3394;0.4480;
1175.1000;0.3403;0.4359;
1175.4000;0.3378;0.4310;
1175.7000;0.3386;0.4383;
1176.0000;0.3411;0.4432;
1176.3000;0.3427;0.4578;
1176.6000;0.3394;0.4529;
1176.9000;0.3411;0.4602;
1177.2000;0.3386;0.4505;
1177.5000;0.3411;0.4529;
1177.8000;0.3411;0.4456;
1178.1000;0.3403;0.4407;
1178.4000;0.3411;0.4383;
1178.7000;0.3403;0.4407;
1179.0000;0.3403;0.4480;
1179.3000;0.3411;0.4480;
1179.6000;0.3403;0.4456;
1179.9000;0.3378;0.4480;
1180.2000;0.3394;0.4480;
1180.5000;0.3386;0.4480;
1180.8000;0.3378;0.4553;
1181.1000;0.3386;0.4651;
1181.4000;0.3321;0.4383;
1181.7000;0.3403;0.4651;
1182.0000;0.3411;0.4675;
1182.3000;0.3386;0.4553;
1182.6000;0.3386;0.4505;
1182.9000;0.3403;0.4627;
1183.2000;0.3362;0.4578;
1183.5000;0.3403;0.4675;
1183.8000;0.3386;0.4602;
1184.1000;0.3394;0.4675;
1184.4000;0.3411;0.4700;
1184.7000;0.3386;0.4602;
1185.0000;0.3386;0.4529;
1185.3000;0.3386;0.4553;
1185.6000;0.3411;0.4529;
1185.9000;0.3411;0.4529;
1186.2000;0.3427;0.4553;
1186.5000;0.3419;0.4456;
1186.8000;0.3370;0.4310;
1187.1000;0.3386;0.4261;
1187.4000;0.3386;0.4310;
1187.7000;0.3394;0.4188;
1188.0000;0.3419;0.4261;
1188.3000;0.3411;0.4359;
1188.6000;0.3378;0.4383;
1188.9000;0.3443;0.4480;
1189.2000;0.3386;0.4505;
1189.5000;0.3435;0.4651;
1189.8000;0.3386;0.4529;
1190.1000;0.3370;0.4480;
1190.4000;0.3370;0.4505;
1190.7000;0.3386;0.4456;
1191.0000;0.3394;0.4529;
1191.3000;0.3394;0.4675;
1191.6000;0.3394;0.4627;
1191.9000;0.3394;0.4748;
1192.2000;0.3394;0.4651;
1192.5000;0.3394;0.4627;
1192.8000;0.3386;0.4627;
1193.1000;0.3403;0.4602;
1193.4000;0.3386;0.4529;
1193.7000;0.3411;0.4529;
1194.0000;0.3394;0.4529;
1194.3000;0.3403;0.4529;
1194.6000;0.3394;0.4480;
1194.9000;0.3411;0.4553;
1195.2000;0.3386;0.4505;
1195.5000;0.3386;0.4456;
1195.8000;0.3386;0.4432;
1196.1000;0.3394;0.4505;
1196.4000;0.3386;0.4529;
1196.7000;0.3386;0.4432;
1197.0000;0.3403;0.4529;
1197.3000;0.3394;0.4456;
1197.6000;0.3394;0.4456;
1197.9000;0.3386;0.4383;
1198.2000;0.3394;0.4407;
1198.5000;0.3411;0.4407;
1198.8000;0.3403;0.4432;
1199.1000;0.3435;0.4553;
1199.4000;0.3403;0.4480;
1199.7000;0.3419;0.4578;
1200.0000;0.3403;0.4578;
1200.3000;0.3403;0.4578;
1200.6000;0.3386;0.4505;
1200.9000;0.3386;0.4602;
1201.2000;0.3484;0.4894;
1201.5000;0.3386;0.4700;
1201.8000;0.3378;0.4700;
1202.1000;0.3394;0.4675;
1202.4000;0.3394;0.4651;
1202.7000;0.3370;0.4602;
1203.0000;0.3386;0.4627;
1203.3000;0.3386;0.4675;
1203.6000;0.3403;0.4627;
1203.9000;0.3378;0.4651;
1204.2000;0.3362;0.4627;
1204.5000;0.3386;0.4773;
1204.8000;0.3403;0.4846;
1205.1000;0.3370;0.4724;
1205.4000;0.3435;0.4821;
1205.7000;0.3419;0.4846;
1206.0000;0.3394;0.4724;
1206.3000;0.3386;0.4675;
1206.6000;0.3386;0.4675;
1206.9000;0.3394;0.4700;
1207.2000;0.3435;0.4797;
1207.5000;0.3403;0.4700;
1207.8000;0.3403;0.4724;
1208.1000;0.3394;0.4700;
1208.4000;0.3386;0.4627;
1208.7000;0.3411;0.4675;
1209.0000;0.3403;0.4651;
1209.3000;0.3394;0.4480;
1209.6000;0.3403;0.4529;
1209.9000;0.3419;0.4578;
1210.2000;0.3435;0.4627;
1210.5000;0.3419;0.4505;
1210.8000;0.3411;0.4456;
1211.1000;0.3419;0.4456;
1211.4000;0.3411;0.4432;
1211.7000;0.3394;0.4456;
1212.0000;0.3435;0.4578;
1212.3000;0.3419;0.4553;
1212.6000;0.3443;0.4602;
1212.9000;0.3386;0.4407;
1213.2000;0.3394;0.4383;
1213.5000;0.3403;0.4407;
1213.8000;0.3427;0.4456;
1214.1000;0.3386;0.4310;
1214.4000;0.3403;0.4334;
1214.7000;0.3386;0.4310;
1215.0000;0.3484;0.4529;
1215.3000;0.3394;0.4334;
1215.6000;0.3443;0.4407;
1215.9000;0.3403;0.4359;
1216.2000;0.3435;0.4456;
1216.5000;0.3411;0.4383;
1216.8000;0.3403;0.4334;
1217.1000;0.3403;0.4310;
1217.4000;0.3403;0.4407;
1217.7000;0.3394;0.4359;
1218.0000;0.3411;0.4407;
1218.3000;0.3427;0.4334;
1218.6000;0.3403;0.4310;
1218.9000;0.3419;0.4432;
1219.2000;0.3394;0.4359;
1219.5000;0.3403;0.4310;
1219.8000;0.3403;0.4359;
1220.1000;0.3500;0.4553;
1220.4000;0.3362;0.4188;
1220.7000;0.3394;0.4261;
1221.0000;0.3403;0.4261;
1221.3000;0.3460;0.4359;
1221.6000;0.3386;0.4164;
1221.9000;0.3403;0.4237;
1222.2000;0.3411;0.4213;
1222.5000;0.3403;0.4334;
1222.8000;0.3403;0.4334;
1223.1000;0.3394;0.4334;
1223.4000;0.3354;0.4237;
1223.7000;0.3403;0.4383;
1224.0000;0.3427;0.4383;
1224.3000;0.3394;0.4359;
1224.6000;0.3403;0.4456;
1224.9000;0.3394;0.4383;
1225.2000;0.3394;0.4359;
1225.5000;0.3378;0.4359;
1225.8000;0.3386;0.4407;
1226.1000;0.3378;0.4359;
1226.4000;0.3403;0.4456;
1226.7000;0.3403;0.4505;
1227.0000;0.3378;0.4456;
1227.3000;0.3386;0.4407;
1227.6000;0.3394;0.4407;
1227.9000;0.3394;0.4334;
1228.2000;0.3411;0.4261;
1228.5000;0.3419;0.4334;
1228.8000;0.3419;0.4261;
1229.1000;0.3394;0.4261;
1229.4000;0.3411;0.4261;
1229.7000;0.3378;0.4237;
1230.0000;0.3403;0.4188;
1230.3000;0.3419;0.4213;
1230.6000;0.3419;0.4164;
1230.9000;0.3386;0.4091;
1231.2000;0.3403;0.4066;
1231.5000;0.3386;0.3993;
1231.8000;0.3403;0.4091;
1232.1000;0.3403;0.4140;
1232.4000;0.3386;0.4213;
1232.7000;0.3435;0.4334;
1233.0000;0.3346;0.4042;
1233.3000;0.3403;0.4164;
1233.6000;0.3403;0.4140;
1233.9000;0.3411;0.4213;
1234.2000;0.3411;0.4115;
1234.5000;0.3403;0.4140;
1234.8000;0.3394;0.4188;
1235.1000;0.3403;0.4213;
1235.4000;0.3403;0.4213;
1235.7000;0.3403;0.4188;
1236.0000;0.3476;0.4432;
1236.3000;0.3386;0.4164;
1236.6000;0.3411;0.4213;
1236.9000;0.3403;0.4310;
1237.2000;0.3411;0.4261;
1237.5000;0.3386;0.4261;
1237.8000;0.3403;0.4261;
1238.1000;0.3403;0.4261;
1238.4000;0.3403;0.4310;
1238.7000;0.3411;0.4286;
1239.0000;0.3484;0.4480;
1239.3000;0.3411;0.4237;
1239.6000;0.3419;0.4140;
1239.9000;0.3394;0.4066;
1240.2000;0.3337;0.3945;
1240.5000;0.3394;0.4115;
1240.8000;0.3403;0.4091;
1241.1000;0.3394;0.4018;
1241.4000;0.3362;0.3945;
1241.7000;0.3419;0.4091;
1242.0000;0.3394;0.4091;
1242.3000;0.3362;0.3945;
1242.6000;0.3386;0.3969;
1242.9000;0.3386;0.3896;
1243.2000;0.3451;0.4018;
1243.5000;0.3476;0.4164;
1243.8000;0.3386;0.3872;
1244.1000;0.3403;0.3823;
1244.4000;0.3427;0.3847;
1244.7000;0.3394;0.3896;
1245.0000;0.3394;0.3896;
1245.3000;0.3354;0.3969;
1245.6000;0.3354;0.3993;
1245.9000;0.3329;0.3993;
1246.2000;0.3394;0.4115;
1246.5000;0.3419;0.4310;
1246.8000;0.3386;0.4286;
1247.1000;0.3394;0.4286;
1247.4000;0.3378;0.4261;
1247.7000;0.3427;0.4407;
1248.0000;0.3386;0.4286;
1248.3000;0.3394;0.4310;
1248.6000;0.3378;0.4237;
1248.9000;0.3427;0.4310;
1249.2000;0.3403;0.4310;
1249.5000;0.3411;0.4432;
1249.8000;0.3386;0.4407;
1250.1000;0.3403;0.4505;
1250.4000;0.3403;0.4529;
1250.7000;0.3394;0.4553;
1251.0000;0.3362;0.4480;
1251.3000;0.3411;0.4553;
1251.6000;0.3411;0.4480;
1251.9000;0.3386;0.4505;
1252.2000;0.3394;0.4529;
1252.5000;0.3394;0.4432;
1252.8000;0.3451;0.4480;
1253.1000;0.3386;0.4237;
1253.4000;0.3386;0.4213;
1253.7000;0.3403;0.4334;
1254.0000;0.3378;0.4359;
1254.3000;0.3386;0.4359;
1254.6000;0.3394;0.4407;
1254.9000;0.3403;0.4432;
1255.2000;0.3411;0.4456;
1255.5000;0.3394;0.4432;
1255.8000;0.3394;0.4286;
1256.1000;0.3419;0.4383;
1256.4000;0.3403;0.4432;
1256.7000;0.3378;0.4334;
1257.0000;0.3443;0.4505;
1257.3000;0.3394;0.4334;
1257.6000;0.3403;0.4310;
1257.9000;0.3305;0.4042;
1258.2000;0.3427;0.4334;
1258.5000;0.3403;0.4334;
1258.8000;0.3321;0.4115;
1259.1000;0.3443;0.4456;
1259.4000;0.3394;0.4310;
1259.7000;0.3411;0.4334;
1260.0000;0.3403;0.4334;
1260.3000;0.3386;0.4286;
1260.6000;0.3394;0.4359;
1260.9000;0.3411;0.4359;
1261.2000;0.3378;0.4359;
1261.5000;0.3419;0.4432;
1261.8000;0.3386;0.4310;
1262.1000;0.3403;0.4383;
1262.4000;0.3419;0.4432;
1262.7000;0.3394;0.4310;
1263.0000;0.3394;0.4261;
1263.3000;0.3419;0.4359;
1263.6000;0.3394;0.4334;
1263.9000;0.3394;0.4310;
1264.2000;0.3435;0.4383;
1264.5000;0.3394;0.4237;
1264.8000;0.3419;0.4286;
1265.1000;0.3411;0.4359;
1265.4000;0.3386;0.4480;
1265.7000;0.3394;0.4456;
1266.0000;0.3403;0.4505;
1266.3000;0.3394;0.4407;
1266.6000;0.3411;0.4383;
1266.9000;0.3403;0.4432;
1267.2000;0.3394;0.4529;
1267.5000;0.3443;0.4578;
1267.8000;0.3476;0.4651;
1268.1000;0.3403;0.4456;
1268.4000;0.3403;0.4456;
1268.7000;0.3403;0.4456;
1269.0000;0.3378;0.4383;
1269.3000;0.3411;0.4383;
1269.6000;0.3435;0.4383;
1269.9000;0.3419;0.4359;
1270.2000;0.3403;0.4334;
1270.5000;0.3394;0.4407;
1270.8000;0.3403;0.4456;
1271.1000;0.3403;0.4432;
1271.4000;0.3386;0.4383;
1271.7000;0.3394;0.4432;
1272.0000;0.3354;0.4359;
1272.3000;0.3354;0.4456;
1272.6000;0.3419;0.4627;
1272.9000;0.3386;0.4553;
1273.2000;0.3378;0.4553;
1273.5000;0.3386;0.4627;
1273.8000;0.3411;0.4627;
1274.1000;0.3394;0.4651;
1274.4000;0.3394;0.4505;
1274.7000;0.3411;0.4480;
1275.0000;0.3427;0.4505;
1275.3000;0.3403;0.4505;
1275.6000;0.3394;0.4432;
1275.9000;0.3411;0.4505;
1276.2000;0.3386;0.4383;
1276.5000;0.3386;0.4334;
1276.8000;0.3427;0.4286;
1277.1000;0.3419;0.4359;
1277.4000;0.3403;0.4359;
1277.7000;0.3403;0.4432;
1278.0000;0.3378;0.4383;
1278.3000;0.3394;0.4310;
1278.6000;0.3394;0.4383;
1278.9000;0.3411;0.4310;
1279.2000;0.3411;0.4286;
1279.5000;0.3394;0.4261;
1279.8000;0.3386;0.4286;
1280.1000;0.3403;0.4261;
1280.4000;0.3419;0.4237;
1280.7000;0.3394;0.4237;
1281.0000;0.3435;0.4334;
1281.3000;0.3386;0.4334;
1281.6000;0.3403;0.4359;
1281.9000;0.3321;0.4115;
1282.2000;0.3476;0.4505;
1282.5000;0.3386;0.4237;
1282.8000;0.3411;0.4310;
1283.1000;0.3419;0.4164;
1283.4000;0.3411;0.4213;
1283.7000;0.3403;0.4164;
1284.0000;0.3443;0.4310;
1284.3000;0.3403;0.4286;
1284.6000;0.3427;0.4334;
1284.9000;0.3468;0.4456;
1285.2000;0.3411;0.4334;
1285.5000;0.3403;0.4334;
1285.8000;0.3370;0.4237;
1286.1000;0.3403;0.4383;
1286.4000;0.3386;0.4407;
1286.7000;0.3403;0.4480;
1287.0000;0.3411;0.4553;
1287.3000;0.3394;0.4480;
1287.6000;0.3403;0.4505;
1287.9000;0.3394;0.4432;
1288.2000;0.3386;0.4286;
1288.5000;0.3403;0.4237;
1288.8000;0.3394;0.4188;
1289.1000;0.3337;0.4042;
1289.4000;0.3403;0.4140;
1289.7000;0.3403;0.4213;
1290.0000;0.3411;0.4213;
1290.3000;0.3419;0.4261;
1290.6000;0.3411;0.4286;
1290.9000;0.3394;0.4237;
1291.2000;0.3403;0.4334;
1291.5000;0.3403;0.4383;
1291.8000;0.3403;0.4407;
1292.1000;0.3378;0.4286;
1292.4000;0.3337;0.4213;
1292.7000;0.3403;0.4383;
1293.0000;0.3419;0.4334;
1293.3000;0.3435;0.4407;
1293.6000;0.3362;0.4237;
1293.9000;0.3460;0.4407;
1294.2000;0.3427;0.4359;
1294.5000;0.3394;0.4286;
1294.8000;0.3403;0.4334;
1295.1000;0.3403;0.4286;
1295.4000;0.3427;0.4359;
1295.7000;0.3411;0.4261;
1296.0000;0.3435;0.4432;
1296.3000;0.3394;0.4505;
1296.6000;0.3411;0.4578;
1296.9000;0.3386;0.4529;
1297.2000;0.3378;0.4480;
1297.5000;0.3411;0.4383;
1297.8000;0.3394;0.4237;
1298.1000;0.3329;0.4066;
1298.4000;0.3378;0.4115;
1298.7000;0.3411;0.4237;
1299.0000;0.3378;0.4237;
1299.3000;0.3394;0.4334;
1299.6000;0.3403;0.4286;
1299.9000;0.3386;0.4334;
1300.2000;0.3419;0.4359;
1300.5000;0.3394;0.4286;
1300.8000;0.3362;0.4213;
1301.1000;0.3403;0.4261;
1301.4000;0.3394;0.4237;
1301.7000;0.3394;0.4310;
1302.0000;0.3411;0.4286;
1302.3000;0.3403;0.4310;
1302.6000;0.3394;0.4334;
1302.9000;0.3403;0.4359;
1303.2000;0.3403;0.4286;
1303.5000;0.3394;0.4286;
1303.8000;0.3386;0.4286;
1304.1000;0.3411;0.4359;
1304.4000;0.3403;0.4407;
1304.7000;0.3411;0.4432;
1305.0000;0.3394;0.4407;
1305.3000;0.3403;0.4456;
1305.6000;0.3411;0.4456;
1305.9000;0.3394;0.4456;
1306.2000;0.3378;0.4383;
1306.5000;0.3386;0.4432;
1306.8000;0.3411;0.4480;
1307.1000;0.3394;0.4480;
1307.4000;0.3403;0.4480;
1307.7000;0.3386;0.4383;
1308.0000;0.3386;0.4310;
1308.3000;0.3403;0.4286;
1308.6000;0.3435;0.4432;
1308.9000;0.3394;0.4407;
1309.2000;0.3403;0.4407;
1309.5000;0.3411;0.4407;
1309.8000;0.3394;0.4383;
1310.1000;0.3386;0.4383;
1310.4000;0.3403;0.4432;
1310.7000;0.3403;0.4480;
1311.0000;0.3386;0.4480;
1311.3000;0.3378;0.4407;
1311.6000;0.3394;0.4456;
1311.9000;0.3386;0.4407;
1312.2000;0.3378;0.4456;
1312.5000;0.3386;0.4432;
1312.8000;0.3370;0.4407;
1313.1000;0.3329;0.4188;
1313.4000;0.3394;0.4383;
1313.7000;0.3386;0.4334;
1314.0000;0.3403;0.4334;
1314.3000;0.3378;0.4286;
1314.6000;0.3403;0.4359;
1314.9000;0.3419;0.4407;
1315.2000;0.3419;0.4310;
1315.5000;0.3411;0.4310;
1315.8000;0.3394;0.4456;
1316.1000;0.3419;0.4456;
1316.4000;0.3394;0.4383;
1316.7000;0.3386;0.4334;
1317.0000;0.3378;0.4261;
1317.3000;0.3394;0.4237;
1317.6000;0.3394;0.4213;
1317.9000;0.3337;0.4042;
1318.2000;0.3394;0.4091;
1318.5000;0.3394;0.4115;
1318.8000;0.3378;0.4066;
1319.1000;0.3403;0.3993;
1319.4000;0.3403;0.3969;
1319.7000;0.3394;0.4018;
1320.0000;0.3403;0.4091;
1320.3000;0.3378;0.4164;
1320.6000;0.3394;0.4261;
1320.9000;0.3468;0.4407;
1321.2000;0.3362;0.4164;
1321.5000;0.3394;0.4213;
1321.8000;0.3403;0.4164;
1322.1000;0.3386;0.4115;
1322.4000;0.3386;0.4018;
1322.7000;0.3378;0.3896;
1323.0000;0.3386;0.3896;
1323.3000;0.3386;0.3847;
1323.6000;0.3394;0.3920;
1323.9000;0.3386;0.3920;
1324.2000;0.3403;0.4042;
1324.5000;0.3378;0.3993;
1324.8000;0.3394;0.3969;
1325.1000;0.3403;0.4066;
1325.4000;0.3386;0.4091;
1325.7000;0.3403;0.4188;
1326.0000;0.3419;0.4140;
1326.3000;0.3403;0.4140;
1326.6000;0.3403;0.4164;
1326.9000;0.3403;0.4310;
1327.2000;0.3378;0.4213;
1327.5000;0.3394;0.4213;
1327.8000;0.3394;0.4213;
1328.1000;0.3386;0.4237;
1328.4000;0.3386;0.4213;
1328.7000;0.3394;0.4261;
1329.0000;0.3460;0.4480;
1329.3000;0.3435;0.4359;
1329.6000;0.3394;0.4261;
1329.9000;0.3386;0.4286;
1330.2000;0.3378;0.4261;
1330.5000;0.3394;0.4261;
1330.8000;0.3460;0.4456;
1331.1000;0.3411;0.4310;
1331.4000;0.3419;0.4334;
1331.7000;0.3394;0.4310;
1332.0000;0.3394;0.4261;
1332.3000;0.3378;0.4237;
1332.6000;0.3394;0.4237;
1332.9000;0.3386;0.4164;
1333.2000;0.3378;0.4237;
1333.5000;0.3386;0.4334;
1333.8000;0.3394;0.4383;
1334.1000;0.3386;0.4383;
1334.4000;0.3394;0.4310;
1334.7000;0.3411;0.4383;
1335.0000;0.3411;0.4261;
1335.3000;0.3386;0.4286;
1335.6000;0.3394;0.4188;
1335.9000;0.3403;0.4140;
1336.2000;0.3329;0.3945;
1336.5000;0.3378;0.4018;
1336.8000;0.3394;0.4115;
1337.1000;0.3411;0.4091;
1337.4000;0.3394;0.4091;
1337.7000;0.3386;0.4115;
1338.0000;0.3403;0.4140;
1338.3000;0.3370;0.4115;
1338.6000;0.3378;0.4237;
1338.9000;0.3403;0.4237;
1339.2000;0.3354;0.4042;
1339.5000;0.3443;0.4237;
1339.8000;0.3403;0.4115;
1340.1000;0.3419;0.4115;
1340.4000;0.3346;0.4018;
1340.7000;0.3403;0.4188;
1341.0000;0.3386;0.4140;
1341.3000;0.3411;0.4115;
1341.6000;0.3403;0.4188;
1341.9000;0.3435;0.4310;
1342.2000;0.3443;0.4334;
1342.5000;0.3378;0.4213;
1342.8000;0.3386;0.4188;
1343.1000;0.3394;0.4286;
1343.4000;0.3403;0.4310;
1343.7000;0.3419;0.4286;
1344.0000;0.3394;0.4237;
1344.3000;0.3394;0.4261;
1344.6000;0.3394;0.4261;
1344.9000;0.3403;0.4286;
1345.2000;0.3403;0.4334;
1345.5000;0.3378;0.4164;
1345.8000;0.3403;0.4261;
1346.1000;0.3370;0.4213;
1346.4000;0.3403;0.4261;
1346.7000;0.3386;0.4188;
1347.0000;0.3403;0.4261;
1347.3000;0.3386;0.4164;
1347.6000;0.3411;0.4286;
1347.9000;0.3378;0.4188;
1348.2000;0.3403;0.4213;
1348.5000;0.3435;0.4286;
1348.8000;0.3419;0.4213;
1349.1000;0.3435;0.4213;
1349.4000;0.3394;0.4115;
1349.7000;0.3403;0.4164;
1350.0000;0.3394;0.4237;
1350.3000;0.3403;0.4310;
1350.6000;0.3403;0.4334;
1350.9000;0.3403;0.4213;
1351.2000;0.3419;0.4237;
1351.5000;0.3394;0.4164;
1351.8000;0.3411;0.4091;
1352.1000;0.3403;0.3969;
1352.4000;0.3411;0.3969;
1352.7000;0.3403;0.3969;
1353.0000;0.3370;0.3945;
1353.3000;0.3394;0.3969;
1353.6000;0.3370;0.3847;
1353.9000;0.3403;0.3969;
1354.2000;0.3386;0.3920;
1354.5000;0.3386;0.3896;
1354.8000;0.3362;0.3896;
1355.1000;0.3337;0.3969;
1355.4000;0.3394;0.4066;
1355.7000;0.3386;0.3969;
1356.0000;0.3394;0.3969;
1356.3000;0.3362;0.3945;
1356.6000;0.3411;0.4164;
1356.9000;0.3394;0.4188;
1357.2000;0.3394;0.4213;
1357.5000;0.3394;0.4164;
1357.8000;0.3386;0.4115;
1358.1000;0.3354;0.4042;
1358.4000;0.3403;0.4188;
1358.7000;0.3394;0.4261;
1359.0000;0.3394;0.4334;
1359.3000;0.3394;0.4310;
1359.6000;0.3403;0.4286;
1359.9000;0.3378;0.4164;
1360.2000;0.3386;0.4164;
1360.5000;0.3451;0.4432;
1360.8000;0.3411;0.4334;
1361.1000;0.3386;0.4310;
1361.4000;0.3378;0.4286;
1361.7000;0.3386;0.4383;
1362.0000;0.3403;0.4334;
1362.3000;0.3386;0.4286;
1362.6000;0.3394;0.4261;
1362.9000;0.3394;0.4286;
1363.2000;0.3362;0.4188;
1363.5000;0.3403;0.4261;
1363.8000;0.3378;0.4237;
1364.1000;0.3394;0.4213;
1364.4000;0.3362;0.4091;
1364.7000;0.3403;0.4213;
1365.0000;0.3386;0.4188;
1365.3000;0.3394;0.4188;
1365.6000;0.3378;0.4140;
1365.9000;0.3354;0.4018;
1366.2000;0.3403;0.4213;
1366.5000;0.3427;0.4261;
1366.8000;0.3419;0.4286;
1367.1000;0.3403;0.4261;
1367.4000;0.3394;0.4115;
1367.7000;0.3386;0.4188;
1368.0000;0.3386;0.4115;
1368.3000;0.3394;0.4164;
1368.6000;0.3394;0.4237;
1368.9000;0.3386;0.4164;
1369.2000;0.3386;0.4140;
1369.5000;0.3394;0.4115;
1369.8000;0.3394;0.4091;
1370.1000;0.3403;0.4188;
1370.4000;0.3403;0.4310;
1370.7000;0.3427;0.4432;
1371.0000;0.3386;0.4334;
1371.3000;0.3403;0.4407;
1371.6000;0.3403;0.4359;
1371.9000;0.3386;0.4383;
1372.2000;0.3427;0.4383;
1372.5000;0.3403;0.4359;
1372.8000;0.3411;0.4334;
1373.1000;0.3411;0.4334;
1373.4000;0.3411;0.4310;
1373.7000;0.3468;0.4553;
1374.0000;0.3329;0.4188;
1374.3000;0.3394;0.4310;
1374.6000;0.3394;0.4237;
1374.9000;0.3386;0.4188;
1375.2000;0.3386;0.4164;
1375.5000;0.3403;0.4213;
1375.8000;0.3394;0.4286;
1376.1000;0.3411;0.4334;
1376.4000;0.3386;0.4286;
1376.7000;0.3403;0.4334;
1377.0000;0.3419;0.4286;
1377.3000;0.3403;0.4188;
1377.6000;0.3394;0.4188;
1377.9000;0.3403;0.4140;
1378.2000;0.3403;0.4213;
1378.5000;0.3362;0.4188;
1378.8000;0.3386;0.4261;
1379.1000;0.3362;0.4237;
1379.4000;0.3394;0.4261;
1379.7000;0.3411;0.4261;
1380.0000;0.3403;0.4213;
1380.3000;0.3394;0.4164;
1380.6000;0.3403;0.4213;
1380.9000;0.3394;0.4188;
1381.2000;0.3403;0.4164;
1381.5000;0.3403;0.4140;
1381.8000;0.3378;0.4066;
1382.1000;0.3403;0.4188;
1382.4000;0.3403;0.4140;
1382.7000;0.3378;0.4115;
1383.0000;0.3394;0.4188;
1383.3000;0.3362;0.4164;
1383.6000;0.3476;0.4456;
1383.9000;0.3386;0.4140;
1384.2000;0.3451;0.4334;
1384.5000;0.3435;0.4310;
1384.8000;0.3394;0.4237;
1385.1000;0.3411;0.4261;
1385.4000;0.3403;0.4286;
1385.7000;0.3394;0.4261;
1386.0000;0.3403;0.4261;
1386.3000;0.3403;0.4164;
1386.6000;0.3403;0.4115;
1386.9000;0.3411;0.4066;
1387.2000;0.3411;0.4018;
1387.5000;0.3403;0.4042;
1387.8000;0.3403;0.4042;
1388.1000;0.3394;0.3969;
1388.4000;0.3386;0.4018;
1388.7000;0.3394;0.3896;
1389.0000;0.3386;0.3945;
1389.3000;0.3378;0.3993;
1389.6000;0.3403;0.4018;
1389.9000;0.3411;0.3945;
1390.2000;0.3394;0.3847;
1390.5000;0.3411;0.3847;
1390.8000;0.3394;0.3823;
1391.1000;0.3419;0.3799;
1391.4000;0.3403;0.3896;
1391.7000;0.3386;0.3969;
1392.0000;0.3394;0.3945;
1392.3000;0.3411;0.3993;
1392.6000;0.3403;0.3945;
1392.9000;0.3394;0.3920;
1393.2000;0.3403;0.3993;
1393.5000;0.3411;0.4066;
1393.8000;0.3427;0.4140;
1394.1000;0.3403;0.4115;
1394.4000;0.3378;0.4042;
1394.7000;0.3403;0.4091;
1395.0000;0.3394;0.4164;
1395.3000;0.3378;0.4213;
1395.6000;0.3403;0.4164;
1395.9000;0.3386;0.4164;
1396.2000;0.3386;0.4164;
1396.5000;0.3386;0.4213;
1396.8000;0.3394;0.4261;
1397.1000;0.3394;0.4237;
1397.4000;0.3394;0.4310;
1397.7000;0.3386;0.4261;
1398.0000;0.3386;0.4237;
1398.3000;0.3386;0.4286;
1398.6000;0.3403;0.4261;
1398.9000;0.3394;0.4286;
1399.2000;0.3394;0.4334;
1399.5000;0.3386;0.4334;
1399.8000;0.3403;0.4407;
