time/ms;Fluo/V;P700 deltaI/I x10³;
-199.8000;0.3590;0.3872;
-199.5000;0.3500;0.3531;
-199.2000;0.3525;0.3579;
-198.9000;0.3525;0.3458;
-198.6000;0.3516;0.3433;
-198.3000;0.3516;0.3531;
-198.0000;0.3525;0.3555;
-197.7000;0.3516;0.3555;
-197.4000;0.3525;0.3555;
-197.1000;0.3525;0.3628;
-196.8000;0.3525;0.3726;
-196.5000;0.3549;0.3774;
-196.2000;0.3525;0.3750;
-195.9000;0.3541;0.3750;
-195.6000;0.3533;0.3701;
-195.3000;0.3533;0.3726;
-195.0000;0.3435;0.3555;
-194.7000;0.3533;0.3799;
-194.4000;0.3525;0.3823;
-194.1000;0.3533;0.3799;
-193.8000;0.3549;0.3823;
-193.5000;0.3508;0.3823;
-193.2000;0.3508;0.3847;
-192.9000;0.3525;0.3847;
-192.6000;0.3533;0.3750;
-192.3000;0.3533;0.3799;
-192.0000;0.3516;0.3726;
-191.7000;0.3516;0.3774;
-191.4000;0.3541;0.3823;
-191.1000;0.3525;0.3872;
-190.8000;0.3557;0.3945;
-190.5000;0.3525;0.3920;
-190.2000;0.3533;0.3945;
-189.9000;0.3541;0.3920;
-189.6000;0.3525;0.3823;
-189.3000;0.3533;0.3872;
-189.0000;0.3541;0.3774;
-188.7000;0.3492;0.3604;
-188.4000;0.3525;0.3653;
-188.1000;0.3533;0.3653;
-187.8000;0.3508;0.3653;
-187.5000;0.3525;0.3774;
-187.2000;0.3525;0.3750;
-186.9000;0.3516;0.3774;
-186.6000;0.3541;0.3750;
-186.3000;0.3541;0.3823;
-186.0000;0.3516;0.3799;
-185.7000;0.3468;0.3555;
-185.4000;0.3533;0.3774;
-185.1000;0.3525;0.3750;
-184.8000;0.3557;0.3774;
-184.5000;0.3549;0.3774;
-184.2000;0.3525;0.3701;
-183.9000;0.3525;0.3701;
-183.6000;0.3533;0.3726;
-183.3000;0.3525;0.3579;
-183.0000;0.3541;0.3677;
-182.7000;0.3525;0.3726;
-182.4000;0.3508;0.3628;
-182.1000;0.3533;0.3677;
-181.8000;0.3533;0.3701;
-181.5000;0.3549;0.3628;
-181.2000;0.3533;0.3604;
-180.9000;0.3541;0.3579;
-180.6000;0.3525;0.3531;
-180.3000;0.3590;0.3677;
-180.0000;0.3484;0.3433;
-179.7000;0.3533;0.3604;
-179.4000;0.3516;0.3579;
-179.1000;0.3516;0.3653;
-178.8000;0.3516;0.3750;
-178.5000;0.3533;0.3774;
-178.2000;0.3525;0.3799;
-177.9000;0.3525;0.3847;
-177.6000;0.3492;0.3774;
-177.3000;0.3541;0.3799;
-177.0000;0.3508;0.3750;
-176.7000;0.3435;0.3482;
-176.4000;0.3541;0.3701;
-176.1000;0.3525;0.3653;
-175.8000;0.3508;0.3677;
-175.5000;0.3508;0.3701;
-175.2000;0.3549;0.3799;
-174.9000;0.3451;0.3628;
-174.6000;0.3541;0.3774;
-174.3000;0.3525;0.3799;
-174.0000;0.3573;0.4018;
-173.7000;0.3541;0.4042;
-173.4000;0.3533;0.4018;
-173.1000;0.3582;0.4042;
-172.8000;0.3516;0.3872;
-172.5000;0.3484;0.3726;
-172.2000;0.3525;0.3847;
-171.9000;0.3533;0.3872;
-171.6000;0.3549;0.3896;
-171.3000;0.3533;0.3896;
-171.0000;0.3484;0.3653;
-170.7000;0.3500;0.3823;
-170.4000;0.3516;0.3896;
-170.1000;0.3533;0.3799;
-169.8000;0.3533;0.3847;
-169.5000;0.3606;0.4042;
-169.2000;0.3541;0.3750;
-168.9000;0.3525;0.3750;
-168.6000;0.3590;0.3945;
-168.3000;0.3508;0.3726;
-168.0000;0.3508;0.3774;
-167.7000;0.3533;0.3847;
-167.4000;0.3541;0.3847;
-167.1000;0.3468;0.3701;
-166.8000;0.3508;0.3799;
-166.5000;0.3541;0.3847;
-166.2000;0.3525;0.3872;
-165.9000;0.3525;0.3945;
-165.6000;0.3533;0.3993;
-165.3000;0.3606;0.4237;
-165.0000;0.3533;0.3993;
-164.7000;0.3541;0.3945;
-164.4000;0.3533;0.3969;
-164.1000;0.3541;0.4018;
-163.8000;0.3516;0.3872;
-163.5000;0.3541;0.3945;
-163.2000;0.3549;0.3823;
-162.9000;0.3525;0.3726;
-162.6000;0.3582;0.3896;
-162.3000;0.3541;0.3799;
-162.0000;0.3525;0.3847;
-161.7000;0.3525;0.3896;
-161.4000;0.3516;0.3920;
-161.1000;0.3516;0.3945;
-160.8000;0.3508;0.3799;
-160.5000;0.3508;0.3823;
-160.2000;0.3533;0.3872;
-159.9000;0.3525;0.3847;
-159.6000;0.3500;0.3774;
-159.3000;0.3573;0.3920;
-159.0000;0.3525;0.3847;
-158.7000;0.3557;0.3896;
-158.4000;0.3533;0.3872;
-158.1000;0.3533;0.3823;
-157.8000;0.3525;0.3750;
-157.5000;0.3476;0.3628;
-157.2000;0.3541;0.3774;
-156.9000;0.3541;0.3774;
-156.6000;0.3557;0.3847;
-156.3000;0.3525;0.3799;
-156.0000;0.3516;0.3799;
-155.7000;0.3541;0.3823;
-155.4000;0.3533;0.3677;
-155.1000;0.3533;0.3774;
-154.8000;0.3541;0.3726;
-154.5000;0.3533;0.3506;
-154.2000;0.3508;0.3409;
-153.9000;0.3533;0.3433;
-153.6000;0.3533;0.3458;
-153.3000;0.3541;0.3555;
-153.0000;0.3525;0.3628;
-152.7000;0.3525;0.3604;
-152.4000;0.3525;0.3677;
-152.1000;0.3573;0.3823;
-151.8000;0.3533;0.3823;
-151.5000;0.3525;0.3750;
-151.2000;0.3533;0.3774;
-150.9000;0.3533;0.3872;
-150.6000;0.3525;0.3896;
-150.3000;0.3525;0.3872;
-150.0000;0.3525;0.3799;
-149.7000;0.3525;0.3799;
-149.4000;0.3508;0.3799;
-149.1000;0.3525;0.3823;
-148.8000;0.3508;0.3701;
-148.5000;0.3533;0.3726;
-148.2000;0.3582;0.3896;
-147.9000;0.3541;0.3750;
-147.6000;0.3500;0.3579;
-147.3000;0.3508;0.3677;
-147.0000;0.3533;0.3774;
-146.7000;0.3533;0.3872;
-146.4000;0.3525;0.3896;
-146.1000;0.3525;0.3993;
-145.8000;0.3525;0.3993;
-145.5000;0.3549;0.4042;
-145.2000;0.3606;0.4188;
-144.9000;0.3557;0.4018;
-144.6000;0.3533;0.4091;
-144.3000;0.3533;0.4066;
-144.0000;0.3541;0.4066;
-143.7000;0.3516;0.4066;
-143.4000;0.3476;0.3945;
-143.1000;0.3435;0.3774;
-142.8000;0.3533;0.3920;
-142.5000;0.3549;0.3993;
-142.2000;0.3541;0.3920;
-141.9000;0.3590;0.4091;
-141.6000;0.3541;0.3945;
-141.3000;0.3549;0.4018;
-141.0000;0.3516;0.3993;
-140.7000;0.3549;0.4018;
-140.4000;0.3533;0.3969;
-140.1000;0.3525;0.3969;
-139.8000;0.3525;0.4042;
-139.5000;0.3541;0.4066;
-139.2000;0.3541;0.3993;
-138.9000;0.3508;0.3945;
-138.6000;0.3508;0.3945;
-138.3000;0.3500;0.3945;
-138.0000;0.3598;0.4018;
-137.7000;0.3468;0.3774;
-137.4000;0.3508;0.3799;
-137.1000;0.3533;0.3920;
-136.8000;0.3525;0.4018;
-136.5000;0.3525;0.3993;
-136.2000;0.3541;0.4018;
-135.9000;0.3533;0.3896;
-135.6000;0.3582;0.4066;
-135.3000;0.3557;0.4042;
-135.0000;0.3533;0.3945;
-134.7000;0.3525;0.3945;
-134.4000;0.3525;0.4018;
-134.1000;0.3541;0.3920;
-133.8000;0.3533;0.3896;
-133.5000;0.3541;0.3872;
-133.2000;0.3525;0.3774;
-132.9000;0.3533;0.3823;
-132.6000;0.3492;0.3726;
-132.3000;0.3533;0.3847;
-132.0000;0.3549;0.3823;
-131.7000;0.3525;0.3750;
-131.4000;0.3525;0.3726;
-131.1000;0.3516;0.3750;
-130.8000;0.3508;0.3774;
-130.5000;0.3525;0.3896;
-130.2000;0.3525;0.3872;
-129.9000;0.3500;0.3896;
-129.6000;0.3500;0.3872;
-129.3000;0.3533;0.3920;
-129.0000;0.3508;0.3945;
-128.7000;0.3508;0.4091;
-128.4000;0.3533;0.4140;
-128.1000;0.3508;0.3969;
-127.8000;0.3516;0.3920;
-127.5000;0.3525;0.3872;
-127.2000;0.3525;0.3823;
-126.9000;0.3525;0.3847;
-126.6000;0.3492;0.3750;
-126.3000;0.3557;0.3945;
-126.0000;0.3533;0.3896;
-125.7000;0.3525;0.3823;
-125.4000;0.3541;0.3847;
-125.1000;0.3541;0.3872;
-124.8000;0.3541;0.3872;
-124.5000;0.3573;0.4018;
-124.2000;0.3525;0.3993;
-123.9000;0.3533;0.4042;
-123.6000;0.3484;0.3969;
-123.3000;0.3533;0.4018;
-123.0000;0.3582;0.4140;
-122.7000;0.3533;0.4018;
-122.4000;0.3590;0.4091;
-122.1000;0.3557;0.3920;
-121.8000;0.3533;0.3896;
-121.5000;0.3533;0.3920;
-121.2000;0.3573;0.4018;
-120.9000;0.3516;0.3896;
-120.6000;0.3533;0.3896;
-120.3000;0.3533;0.3945;
-120.0000;0.3541;0.3920;
-119.7000;0.3516;0.3920;
-119.4000;0.3525;0.3920;
-119.1000;0.3460;0.3726;
-118.8000;0.3533;0.3920;
-118.5000;0.3525;0.3945;
-118.2000;0.3525;0.3920;
-117.9000;0.3533;0.3945;
-117.6000;0.3533;0.3896;
-117.3000;0.3516;0.3872;
-117.0000;0.3525;0.3872;
-116.7000;0.3533;0.3896;
-116.4000;0.3557;0.3920;
-116.1000;0.3525;0.3774;
-115.8000;0.3557;0.3799;
-115.5000;0.3533;0.3799;
-115.2000;0.3533;0.3823;
-114.9000;0.3541;0.3823;
-114.6000;0.3516;0.3750;
-114.3000;0.3525;0.3750;
-114.0000;0.3525;0.3701;
-113.7000;0.3541;0.3823;
-113.4000;0.3533;0.3823;
-113.1000;0.3541;0.3701;
-112.8000;0.3516;0.3579;
-112.5000;0.3516;0.3677;
-112.2000;0.3516;0.3726;
-111.9000;0.3500;0.3701;
-111.6000;0.3541;0.3726;
-111.3000;0.3533;0.3726;
-111.0000;0.3516;0.3677;
-110.7000;0.3443;0.3409;
-110.4000;0.3516;0.3677;
-110.1000;0.3541;0.3677;
-109.8000;0.3516;0.3653;
-109.5000;0.3549;0.3726;
-109.2000;0.3533;0.3726;
-108.9000;0.3533;0.3653;
-108.6000;0.3525;0.3579;
-108.3000;0.3525;0.3604;
-108.0000;0.3525;0.3604;
-107.7000;0.3516;0.3555;
-107.4000;0.3533;0.3653;
-107.1000;0.3508;0.3677;
-106.8000;0.3525;0.3750;
-106.5000;0.3533;0.3799;
-106.2000;0.3541;0.3774;
-105.9000;0.3533;0.3799;
-105.6000;0.3508;0.3774;
-105.3000;0.3525;0.3774;
-105.0000;0.3533;0.3872;
-104.7000;0.3516;0.3993;
-104.4000;0.3557;0.4066;
-104.1000;0.3525;0.4042;
-103.8000;0.3508;0.3993;
-103.5000;0.3516;0.3945;
-103.2000;0.3533;0.3945;
-102.9000;0.3533;0.3896;
-102.6000;0.3533;0.3872;
-102.3000;0.3516;0.3823;
-102.0000;0.3516;0.3872;
-101.7000;0.3516;0.3872;
-101.4000;0.3443;0.3677;
-101.1000;0.3516;0.3896;
-100.8000;0.3516;0.3945;
-100.5000;0.3508;0.3945;
-100.2000;0.3557;0.4042;
-99.9000;0.3525;0.4018;
-99.6000;0.3541;0.4042;
-99.3000;0.3541;0.3993;
-99.0000;0.3549;0.4018;
-98.7000;0.3541;0.3945;
-98.4000;0.3541;0.3896;
-98.1000;0.3565;0.3896;
-97.8000;0.3541;0.3872;
-97.5000;0.3516;0.3896;
-97.2000;0.3525;0.3969;
-96.9000;0.3525;0.3969;
-96.6000;0.3533;0.4018;
-96.3000;0.3533;0.4091;
-96.0000;0.3525;0.4091;
-95.7000;0.3533;0.4066;
-95.4000;0.3525;0.4042;
-95.1000;0.3476;0.3847;
-94.8000;0.3516;0.3920;
-94.5000;0.3533;0.3969;
-94.2000;0.3525;0.3896;
-93.9000;0.3541;0.3920;
-93.6000;0.3525;0.4042;
-93.3000;0.3533;0.4140;
-93.0000;0.3533;0.4213;
-92.7000;0.3525;0.4140;
-92.4000;0.3525;0.4091;
-92.1000;0.3533;0.4140;
-91.8000;0.3533;0.4164;
-91.5000;0.3516;0.4091;
-91.2000;0.3516;0.4188;
-90.9000;0.3565;0.4310;
-90.6000;0.3533;0.4066;
-90.3000;0.3541;0.4091;
-90.0000;0.3525;0.4042;
-89.7000;0.3508;0.3920;
-89.4000;0.3622;0.4213;
-89.1000;0.3533;0.3945;
-88.8000;0.3508;0.3799;
-88.5000;0.3500;0.3774;
-88.2000;0.3533;0.3774;
-87.9000;0.3508;0.3726;
-87.6000;0.3516;0.3726;
-87.3000;0.3557;0.3799;
-87.0000;0.3557;0.3872;
-86.7000;0.3525;0.3799;
-86.4000;0.3516;0.3799;
-86.1000;0.3525;0.3847;
-85.8000;0.3451;0.3628;
-85.5000;0.3525;0.3872;
-85.2000;0.3525;0.3872;
-84.9000;0.3533;0.3799;
-84.6000;0.3533;0.3750;
-84.3000;0.3541;0.3750;
-84.0000;0.3484;0.3653;
-83.7000;0.3460;0.3555;
-83.4000;0.3525;0.3774;
-83.1000;0.3541;0.3799;
-82.8000;0.3582;0.3920;
-82.5000;0.3500;0.3774;
-82.2000;0.3525;0.3872;
-81.9000;0.3533;0.3872;
-81.6000;0.3525;0.3896;
-81.3000;0.3533;0.3920;
-81.0000;0.3500;0.3896;
-80.7000;0.3533;0.3896;
-80.4000;0.3516;0.3872;
-80.1000;0.3508;0.3872;
-79.8000;0.3508;0.3969;
-79.5000;0.3533;0.4018;
-79.2000;0.3549;0.3920;
-78.9000;0.3541;0.3847;
-78.6000;0.3525;0.3920;
-78.3000;0.3549;0.3969;
-78.0000;0.3533;0.3969;
-77.7000;0.3460;0.3774;
-77.4000;0.3500;0.3872;
-77.1000;0.3541;0.3872;
-76.8000;0.3557;0.3896;
-76.5000;0.3590;0.4018;
-76.2000;0.3525;0.3847;
-75.9000;0.3533;0.3872;
-75.6000;0.3533;0.3872;
-75.3000;0.3533;0.3896;
-75.0000;0.3541;0.3872;
-74.7000;0.3525;0.3726;
-74.4000;0.3541;0.3872;
-74.1000;0.3541;0.3945;
-73.8000;0.3508;0.3920;
-73.5000;0.3533;0.3993;
-73.2000;0.3533;0.4042;
-72.9000;0.3525;0.3993;
-72.6000;0.3516;0.3945;
-72.3000;0.3525;0.3945;
-72.0000;0.3533;0.3969;
-71.7000;0.3533;0.4042;
-71.4000;0.3525;0.4115;
-71.1000;0.3525;0.4164;
-70.8000;0.3533;0.4140;
-70.5000;0.3549;0.4115;
-70.2000;0.3549;0.4115;
-69.9000;0.3541;0.4091;
-69.6000;0.3541;0.4140;
-69.3000;0.3541;0.4091;
-69.0000;0.3525;0.4066;
-68.7000;0.3525;0.3920;
-68.4000;0.3533;0.3945;
-68.1000;0.3582;0.4140;
-67.8000;0.3525;0.3920;
-67.5000;0.3533;0.3920;
-67.2000;0.3525;0.3872;
-66.9000;0.3541;0.4018;
-66.6000;0.3541;0.4042;
-66.3000;0.3533;0.3896;
-66.0000;0.3492;0.3799;
-65.7000;0.3533;0.3945;
-65.4000;0.3525;0.3896;
-65.1000;0.3541;0.3945;
-64.8000;0.3476;0.3823;
-64.5000;0.3516;0.4042;
-64.2000;0.3549;0.4066;
-63.9000;0.3541;0.4042;
-63.6000;0.3508;0.3969;
-63.3000;0.3525;0.3920;
-63.0000;0.3533;0.3920;
-62.7000;0.3533;0.3847;
-62.4000;0.3525;0.3969;
-62.1000;0.3492;0.3896;
-61.8000;0.3525;0.3969;
-61.5000;0.3525;0.3993;
-61.2000;0.3492;0.3872;
-60.9000;0.3525;0.3896;
-60.6000;0.3541;0.3945;
-60.3000;0.3541;0.3872;
-60.0000;0.3533;0.3896;
-59.7000;0.3525;0.3872;
-59.4000;0.3549;0.3896;
-59.1000;0.3541;0.3920;
-58.8000;0.3533;0.3896;
-58.5000;0.3516;0.3945;
-58.2000;0.3508;0.3896;
-57.9000;0.3549;0.3945;
-57.6000;0.3533;0.3823;
-57.3000;0.3533;0.3823;
-57.0000;0.3533;0.3847;
-56.7000;0.3525;0.3726;
-56.4000;0.3533;0.3896;
-56.1000;0.3525;0.3847;
-55.8000;0.3525;0.3823;
-55.5000;0.3525;0.3872;
-55.2000;0.3533;0.3872;
-54.9000;0.3549;0.3896;
-54.6000;0.3533;0.3872;
-54.3000;0.3541;0.3847;
-54.0000;0.3549;0.3896;
-53.7000;0.3533;0.3896;
-53.4000;0.3598;0.3993;
-53.1000;0.3533;0.3847;
-52.8000;0.3541;0.3872;
-52.5000;0.3525;0.3896;
-52.2000;0.3565;0.3896;
-51.9000;0.3525;0.3799;
-51.6000;0.3516;0.3750;
-51.3000;0.3533;0.3701;
-51.0000;0.3549;0.3701;
-50.7000;0.3525;0.3677;
-50.4000;0.3533;0.3653;
-50.1000;0.3525;0.3653;
-49.8000;0.3541;0.3701;
-49.5000;0.3525;0.3701;
-49.2000;0.3614;0.3847;
-48.9000;0.3516;0.3653;
-48.6000;0.3557;0.3750;
-48.3000;0.3516;0.3579;
-48.0000;0.3508;0.3506;
-47.7000;0.3541;0.3604;
-47.4000;0.3533;0.3726;
-47.1000;0.3492;0.3653;
-46.8000;0.3516;0.3823;
-46.5000;0.3533;0.3823;
-46.2000;0.3516;0.3774;
-45.9000;0.3533;0.3799;
-45.6000;0.3606;0.3945;
-45.3000;0.3525;0.3750;
-45.0000;0.3590;0.3969;
-44.7000;0.3516;0.3920;
-44.4000;0.3541;0.3945;
-44.1000;0.3541;0.3920;
-43.8000;0.3525;0.3847;
-43.5000;0.3533;0.3896;
-43.2000;0.3533;0.3920;
-42.9000;0.3508;0.3872;
-42.6000;0.3549;0.3847;
-42.3000;0.3541;0.3823;
-42.0000;0.3525;0.3726;
-41.7000;0.3541;0.3799;
-41.4000;0.3533;0.3847;
-41.1000;0.3516;0.3920;
-40.8000;0.3541;0.4042;
-40.5000;0.3541;0.3920;
-40.2000;0.3573;0.4066;
-39.9000;0.3541;0.3920;
-39.6000;0.3533;0.3872;
-39.3000;0.3533;0.3774;
-39.0000;0.3516;0.3750;
-38.7000;0.3533;0.3872;
-38.4000;0.3533;0.3872;
-38.1000;0.3525;0.3847;
-37.8000;0.3565;0.3920;
-37.5000;0.3541;0.3896;
-37.2000;0.3516;0.3726;
-36.9000;0.3541;0.3726;
-36.6000;0.3500;0.3701;
-36.3000;0.3443;0.3555;
-36.0000;0.3533;0.3896;
-35.7000;0.3508;0.3847;
-35.4000;0.3516;0.3872;
-35.1000;0.3525;0.4018;
-34.8000;0.3525;0.4018;
-34.5000;0.3541;0.3969;
-34.2000;0.3516;0.3969;
-33.9000;0.3541;0.3969;
-33.6000;0.3508;0.3945;
-33.3000;0.3525;0.3872;
-33.0000;0.3533;0.3872;
-32.7000;0.3516;0.3872;
-32.4000;0.3549;0.3920;
-32.1000;0.3573;0.4042;
-31.8000;0.3516;0.3847;
-31.5000;0.3533;0.3896;
-31.2000;0.3541;0.3847;
-30.9000;0.3533;0.3847;
-30.6000;0.3582;0.4042;
-30.3000;0.3525;0.3945;
-30.0000;0.3533;0.3920;
-29.7000;0.3533;0.3920;
-29.4000;0.3525;0.3872;
-29.1000;0.3557;0.3847;
-28.8000;0.3533;0.3799;
-28.5000;0.3508;0.3799;
-28.2000;0.3508;0.3726;
-27.9000;0.3516;0.3799;
-27.6000;0.3549;0.3920;
-27.3000;0.3484;0.3799;
-27.0000;0.3598;0.4018;
-26.7000;0.3533;0.3872;
-26.4000;0.3508;0.3823;
-26.1000;0.3443;0.3677;
-25.8000;0.3525;0.3896;
-25.5000;0.3516;0.3847;
-25.2000;0.3435;0.3653;
-24.9000;0.3525;0.3896;
-24.6000;0.3565;0.3993;
-24.3000;0.3508;0.3896;
-24.0000;0.3541;0.3945;
-23.7000;0.3516;0.3872;
-23.4000;0.3525;0.3969;
-23.1000;0.3451;0.3726;
-22.8000;0.3533;0.3872;
-22.5000;0.3516;0.3872;
-22.2000;0.3525;0.3920;
-21.9000;0.3484;0.3799;
-21.6000;0.3525;0.3896;
-21.3000;0.3508;0.3969;
-21.0000;0.3573;0.4164;
-20.7000;0.3541;0.4091;
-20.4000;0.3525;0.3945;
-20.1000;0.3541;0.3920;
-19.8000;0.3508;0.3872;
-19.5000;0.3516;0.3823;
-19.2000;0.3525;0.3872;
-18.9000;0.3525;0.3872;
-18.6000;0.3533;0.3920;
-18.3000;0.3541;0.3920;
-18.0000;0.3533;0.3896;
-17.7000;0.3525;0.3799;
-17.4000;0.3541;0.3823;
-17.1000;0.3533;0.3799;
-16.8000;0.3460;0.3628;
-16.5000;0.3508;0.3653;
-16.2000;0.3525;0.3774;
-15.9000;0.3525;0.3701;
-15.6000;0.3525;0.3872;
-15.3000;0.3525;0.3823;
-15.0000;0.3516;0.3799;
-14.7000;0.3541;0.3945;
-14.4000;0.3533;0.3993;
-14.1000;0.3525;0.3969;
-13.8000;0.3533;0.3945;
-13.5000;0.3516;0.3823;
-13.2000;0.3516;0.3896;
-12.9000;0.3533;0.4018;
-12.6000;0.3549;0.4042;
-12.3000;0.3549;0.4042;
-12.0000;0.3516;0.3993;
-11.7000;0.3533;0.3945;
-11.4000;0.3516;0.3847;
-11.1000;0.3516;0.3872;
-10.8000;0.3541;0.3872;
-10.5000;0.3557;0.3920;
-10.2000;0.3516;0.3920;
-9.9000;0.3533;0.3993;
-9.6000;0.3533;0.3896;
-9.3000;0.3533;0.3969;
-9.0000;0.3541;0.3847;
-8.7000;0.3573;0.3969;
-8.4000;0.3525;0.3872;
-8.1000;0.3541;0.4018;
-7.8000;0.3533;0.3993;
-7.5000;0.3549;0.4115;
-7.2000;0.3549;0.4066;
-6.9000;0.3516;0.3945;
-6.6000;0.3516;0.3847;
-6.3000;0.3598;0.4066;
-6.0000;0.3533;0.3945;
-5.7000;0.3565;0.4066;
-5.4000;0.3525;0.3896;
-5.1000;0.3525;0.3896;
-4.8000;0.3525;0.3920;
-4.5000;0.3508;0.3847;
-4.2000;0.3516;0.3823;
-3.9000;0.3541;0.3774;
-3.6000;0.3541;0.3872;
-3.3000;0.3525;0.3823;
-3.0000;0.3557;0.3896;
-2.7000;0.3525;0.3823;
-2.4000;0.3533;0.3945;
-2.1000;0.3533;0.3920;
-1.8000;0.3541;0.3896;
-1.5000;0.3516;0.3945;
-1.2000;0.3525;0.4042;
-0.9000;0.3508;0.4091;
-0.6000;0.3533;0.4164;
-0.3000;0.3541;0.4237;
0.0000;0.3541;0.4237;
0.3000;0.3582;0.4140;
0.6000;0.3687;0.4432;
0.9000;0.3736;0.4748;
1.2000;0.3826;0.4967;
1.5000;0.3867;0.5187;
1.8000;0.3915;0.5430;
2.1000;0.3997;0.5747;
2.4000;0.3948;0.5649;
2.7000;0.3980;0.5844;
3.0000;0.4005;0.6014;
3.3000;0.4013;0.6136;
3.6000;0.4029;0.6234;
3.9000;0.4037;0.6355;
4.2000;0.4054;0.6453;
4.5000;0.4062;0.6575;
4.8000;0.4062;0.6575;
5.1000;0.4054;0.6550;
5.4000;0.4062;0.6501;
5.7000;0.4094;0.6575;
6.0000;0.4086;0.6477;
6.3000;0.4119;0.6575;
6.6000;0.4119;0.6672;
6.9000;0.4111;0.6648;
7.2000;0.4135;0.6721;
7.5000;0.4135;0.6721;
7.8000;0.4127;0.6672;
8.1000;0.4119;0.6575;
8.4000;0.4135;0.6501;
8.7000;0.4103;0.6404;
9.0000;0.4135;0.6477;
9.3000;0.4127;0.6477;
9.6000;0.4143;0.6428;
9.9000;0.4119;0.6404;
10.2000;0.4135;0.6453;
10.5000;0.4160;0.6526;
10.8000;0.4151;0.6623;
11.1000;0.4168;0.6623;
11.4000;0.4208;0.6745;
11.7000;0.4160;0.6672;
12.0000;0.4160;0.6648;
12.3000;0.4160;0.6648;
12.6000;0.4151;0.6526;
12.9000;0.4143;0.6477;
13.2000;0.4168;0.6453;
13.5000;0.4200;0.6526;
13.8000;0.4184;0.6501;
14.1000;0.4184;0.6526;
14.4000;0.4200;0.6575;
14.7000;0.4184;0.6599;
15.0000;0.4184;0.6623;
15.3000;0.4200;0.6672;
15.6000;0.4192;0.6501;
15.9000;0.4217;0.6550;
16.2000;0.4217;0.6501;
16.5000;0.4225;0.6550;
16.8000;0.4200;0.6453;
17.1000;0.4217;0.6477;
17.4000;0.4249;0.6477;
17.7000;0.4290;0.6599;
18.0000;0.4225;0.6428;
18.3000;0.4225;0.6501;
18.6000;0.4241;0.6453;
18.9000;0.4241;0.6501;
19.2000;0.4225;0.6550;
19.5000;0.4241;0.6599;
19.8000;0.4241;0.6648;
20.1000;0.4249;0.6672;
20.4000;0.4241;0.6696;
20.7000;0.4241;0.6648;
21.0000;0.4282;0.6721;
21.3000;0.4249;0.6721;
21.6000;0.4249;0.6648;
21.9000;0.4257;0.6599;
22.2000;0.4257;0.6575;
22.5000;0.4257;0.6575;
22.8000;0.4257;0.6477;
23.1000;0.4257;0.6453;
23.4000;0.4265;0.6550;
23.7000;0.4265;0.6501;
24.0000;0.4282;0.6453;
24.3000;0.4274;0.6380;
24.6000;0.4274;0.6355;
24.9000;0.4282;0.6331;
25.2000;0.4208;0.6136;
25.5000;0.4257;0.6307;
25.8000;0.4282;0.6307;
26.1000;0.4282;0.6404;
26.4000;0.4282;0.6477;
26.7000;0.4265;0.6428;
27.0000;0.4282;0.6623;
27.3000;0.4274;0.6672;
27.6000;0.4330;0.6794;
27.9000;0.4290;0.6648;
28.2000;0.4290;0.6623;
28.5000;0.4298;0.6599;
28.8000;0.4290;0.6672;
29.1000;0.4347;0.6794;
29.4000;0.4290;0.6648;
29.7000;0.4282;0.6623;
30.0000;0.4306;0.6696;
30.3000;0.4306;0.6721;
30.6000;0.4274;0.6648;
30.9000;0.4274;0.6672;
31.2000;0.4298;0.6648;
31.5000;0.4306;0.6721;
31.8000;0.4290;0.6769;
32.1000;0.4290;0.6794;
32.4000;0.4306;0.6794;
32.7000;0.4306;0.6867;
33.0000;0.4314;0.6891;
33.3000;0.4290;0.6867;
33.6000;0.4257;0.6769;
33.9000;0.4298;0.6915;
34.2000;0.4306;0.6891;
34.5000;0.4290;0.6794;
34.8000;0.4257;0.6696;
35.1000;0.4298;0.6769;
35.4000;0.4371;0.6964;
35.7000;0.4282;0.6818;
36.0000;0.4363;0.6940;
36.3000;0.4290;0.6745;
36.6000;0.4322;0.6842;
36.9000;0.4322;0.6818;
37.2000;0.4339;0.6842;
37.5000;0.4347;0.6891;
37.8000;0.4322;0.6794;
38.1000;0.4314;0.6672;
38.4000;0.4322;0.6696;
38.7000;0.4347;0.6745;
39.0000;0.4257;0.6453;
39.3000;0.4322;0.6672;
39.6000;0.4339;0.6745;
39.9000;0.4298;0.6721;
40.2000;0.4322;0.6721;
40.5000;0.4282;0.6623;
40.8000;0.4322;0.6745;
41.1000;0.4314;0.6769;
41.4000;0.4322;0.6769;
41.7000;0.4339;0.6842;
42.0000;0.4282;0.6696;
42.3000;0.4371;0.6867;
42.6000;0.4330;0.6818;
42.9000;0.4330;0.6648;
43.2000;0.4322;0.6672;
43.5000;0.4339;0.6648;
43.8000;0.4347;0.6769;
44.1000;0.4436;0.6988;
44.4000;0.4330;0.6696;
44.7000;0.4363;0.6818;
45.0000;0.4322;0.6794;
45.3000;0.4298;0.6745;
45.6000;0.4347;0.6940;
45.9000;0.4330;0.6915;
46.2000;0.4339;0.6915;
46.5000;0.4330;0.6818;
46.8000;0.4339;0.6721;
47.1000;0.4363;0.6696;
47.4000;0.4339;0.6550;
47.7000;0.4330;0.6599;
48.0000;0.4347;0.6696;
48.3000;0.4347;0.6599;
48.6000;0.4347;0.6599;
48.9000;0.4347;0.6599;
49.2000;0.4339;0.6623;
49.5000;0.4330;0.6575;
49.8000;0.4330;0.6623;
50.1000;0.4330;0.6672;
50.4000;0.4355;0.6696;
50.7000;0.4355;0.6599;
51.0000;0.4355;0.6648;
51.3000;0.4347;0.6648;
51.6000;0.4347;0.6721;
51.9000;0.4355;0.6769;
52.2000;0.4339;0.6696;
52.5000;0.4339;0.6696;
52.8000;0.4355;0.6672;
53.1000;0.4347;0.6648;
53.4000;0.4290;0.6404;
53.7000;0.4347;0.6575;
54.0000;0.4355;0.6526;
54.3000;0.4347;0.6526;
54.6000;0.4347;0.6501;
54.9000;0.4314;0.6404;
55.2000;0.4355;0.6550;
55.5000;0.4339;0.6477;
55.8000;0.4379;0.6623;
56.1000;0.4347;0.6501;
56.4000;0.4355;0.6477;
56.7000;0.4330;0.6380;
57.0000;0.4363;0.6428;
57.3000;0.4363;0.6404;
57.6000;0.4355;0.6380;
57.9000;0.4339;0.6380;
58.2000;0.4363;0.6477;
58.5000;0.4371;0.6453;
58.8000;0.4355;0.6526;
59.1000;0.4363;0.6575;
59.4000;0.4379;0.6575;
59.7000;0.4355;0.6575;
60.0000;0.4347;0.6599;
60.3000;0.4355;0.6672;
60.6000;0.4347;0.6672;
60.9000;0.4363;0.6745;
61.2000;0.4339;0.6745;
61.5000;0.4347;0.6721;
61.8000;0.4322;0.6623;
62.1000;0.4347;0.6599;
62.4000;0.4363;0.6623;
62.7000;0.4363;0.6599;
63.0000;0.4379;0.6672;
63.3000;0.4298;0.6575;
63.6000;0.4355;0.6769;
63.9000;0.4347;0.6648;
64.2000;0.4322;0.6575;
64.5000;0.4363;0.6648;
64.8000;0.4371;0.6721;
65.1000;0.4363;0.6648;
65.4000;0.4347;0.6599;
65.7000;0.4355;0.6575;
66.0000;0.4355;0.6550;
66.3000;0.4363;0.6575;
66.6000;0.4339;0.6526;
66.9000;0.4355;0.6501;
67.2000;0.4379;0.6575;
67.5000;0.4363;0.6550;
67.8000;0.4355;0.6453;
68.1000;0.4379;0.6477;
68.4000;0.4379;0.6526;
68.7000;0.4371;0.6550;
69.0000;0.4282;0.6282;
69.3000;0.4339;0.6501;
69.6000;0.4371;0.6575;
69.9000;0.4363;0.6575;
70.2000;0.4347;0.6526;
70.5000;0.4355;0.6575;
70.8000;0.4363;0.6526;
71.1000;0.4363;0.6501;
71.4000;0.4363;0.6453;
71.7000;0.4363;0.6428;
72.0000;0.4387;0.6501;
72.3000;0.4379;0.6453;
72.6000;0.4379;0.6453;
72.9000;0.4371;0.6428;
73.2000;0.4298;0.6331;
73.5000;0.4371;0.6623;
73.8000;0.4387;0.6696;
74.1000;0.4404;0.6769;
74.4000;0.4387;0.6696;
74.7000;0.4387;0.6745;
75.0000;0.4404;0.6721;
75.3000;0.4371;0.6575;
75.6000;0.4339;0.6404;
75.9000;0.4363;0.6428;
76.2000;0.4387;0.6453;
76.5000;0.4371;0.6307;
76.8000;0.4371;0.6282;
77.1000;0.4371;0.6307;
77.4000;0.4363;0.6355;
77.7000;0.4404;0.6453;
78.0000;0.4379;0.6380;
78.3000;0.4379;0.6453;
78.6000;0.4371;0.6501;
78.9000;0.4371;0.6526;
79.2000;0.4363;0.6575;
79.5000;0.4379;0.6477;
79.8000;0.4371;0.6453;
80.1000;0.4396;0.6404;
80.4000;0.4379;0.6453;
80.7000;0.4363;0.6550;
81.0000;0.4355;0.6575;
81.3000;0.4363;0.6672;
81.6000;0.4355;0.6745;
81.9000;0.4379;0.6769;
82.2000;0.4371;0.6745;
82.5000;0.4396;0.6769;
82.8000;0.4387;0.6745;
83.1000;0.4371;0.6721;
83.4000;0.4363;0.6745;
83.7000;0.4404;0.6745;
84.0000;0.4387;0.6745;
84.3000;0.4355;0.6648;
84.6000;0.4371;0.6721;
84.9000;0.4396;0.6769;
85.2000;0.4379;0.6745;
85.5000;0.4363;0.6696;
85.8000;0.4371;0.6721;
86.1000;0.4379;0.6794;
86.4000;0.4412;0.6842;
86.7000;0.4371;0.6745;
87.0000;0.4363;0.6745;
87.3000;0.4379;0.6842;
87.6000;0.4339;0.6721;
87.9000;0.4379;0.6769;
88.2000;0.4363;0.6745;
88.5000;0.4387;0.6696;
88.8000;0.4363;0.6526;
89.1000;0.4371;0.6501;
89.4000;0.4371;0.6599;
89.7000;0.4371;0.6550;
90.0000;0.4371;0.6550;
90.3000;0.4387;0.6501;
90.6000;0.4379;0.6550;
90.9000;0.4363;0.6526;
91.2000;0.4363;0.6550;
91.5000;0.4379;0.6672;
91.8000;0.4371;0.6672;
92.1000;0.4363;0.6672;
92.4000;0.4404;0.6672;
92.7000;0.4379;0.6575;
93.0000;0.4387;0.6575;
93.3000;0.4396;0.6477;
93.6000;0.4379;0.6550;
93.9000;0.4396;0.6575;
94.2000;0.4371;0.6550;
94.5000;0.4379;0.6599;
94.8000;0.4387;0.6550;
95.1000;0.4404;0.6550;
95.4000;0.4379;0.6501;
95.7000;0.4371;0.6526;
96.0000;0.4387;0.6599;
96.3000;0.4379;0.6550;
96.6000;0.4387;0.6648;
96.9000;0.4379;0.6745;
97.2000;0.4396;0.6721;
97.5000;0.4387;0.6696;
97.8000;0.4387;0.6599;
98.1000;0.4371;0.6575;
98.4000;0.4428;0.6745;
98.7000;0.4379;0.6599;
99.0000;0.4387;0.6623;
99.3000;0.4412;0.6648;
99.6000;0.4379;0.6526;
99.9000;0.4387;0.6623;
100.2000;0.4363;0.6501;
100.5000;0.4379;0.6453;
100.8000;0.4387;0.6526;
101.1000;0.4404;0.6721;
101.4000;0.4355;0.6550;
101.7000;0.4371;0.6575;
102.0000;0.4387;0.6575;
102.3000;0.4355;0.6453;
102.6000;0.4412;0.6477;
102.9000;0.4396;0.6453;
103.2000;0.4379;0.6428;
103.5000;0.4363;0.6404;
103.8000;0.4387;0.6453;
104.1000;0.4396;0.6380;
104.4000;0.4355;0.6185;
104.7000;0.4355;0.6161;
105.0000;0.4363;0.6282;
105.3000;0.4396;0.6453;
105.6000;0.4363;0.6477;
105.9000;0.4371;0.6428;
106.2000;0.4314;0.6258;
106.5000;0.4387;0.6477;
106.8000;0.4363;0.6501;
107.1000;0.4371;0.6599;
107.4000;0.4330;0.6526;
107.7000;0.4379;0.6575;
108.0000;0.4404;0.6599;
108.3000;0.4420;0.6721;
108.6000;0.4387;0.6696;
108.9000;0.4379;0.6672;
109.2000;0.4396;0.6550;
109.5000;0.4387;0.6453;
109.8000;0.4387;0.6428;
110.1000;0.4379;0.6428;
110.4000;0.4355;0.6307;
110.7000;0.4371;0.6355;
111.0000;0.4396;0.6477;
111.3000;0.4371;0.6453;
111.6000;0.4444;0.6599;
111.9000;0.4396;0.6526;
112.2000;0.4387;0.6526;
112.5000;0.4396;0.6550;
112.8000;0.4396;0.6477;
113.1000;0.4379;0.6477;
113.4000;0.4387;0.6501;
113.7000;0.4387;0.6501;
114.0000;0.4387;0.6501;
114.3000;0.4355;0.6477;
114.6000;0.4379;0.6599;
114.9000;0.4347;0.6550;
115.2000;0.4339;0.6599;
115.5000;0.4371;0.6623;
115.8000;0.4363;0.6526;
116.1000;0.4339;0.6404;
116.4000;0.4387;0.6501;
116.7000;0.4371;0.6599;
117.0000;0.4371;0.6623;
117.3000;0.4404;0.6672;
117.6000;0.4387;0.6599;
117.9000;0.4371;0.6623;
118.2000;0.4404;0.6672;
118.5000;0.4404;0.6672;
118.8000;0.4379;0.6526;
119.1000;0.4379;0.6526;
119.4000;0.4387;0.6550;
119.7000;0.4396;0.6477;
120.0000;0.4387;0.6453;
120.3000;0.4387;0.6477;
120.6000;0.4387;0.6428;
120.9000;0.4404;0.6428;
121.2000;0.4387;0.6477;
121.5000;0.4396;0.6648;
121.8000;0.4387;0.6696;
122.1000;0.4404;0.6696;
122.4000;0.4371;0.6599;
122.7000;0.4371;0.6526;
123.0000;0.4404;0.6575;
123.3000;0.4396;0.6501;
123.6000;0.4428;0.6526;
123.9000;0.4396;0.6453;
124.2000;0.4396;0.6501;
124.5000;0.4387;0.6501;
124.8000;0.4379;0.6501;
125.1000;0.4387;0.6501;
125.4000;0.4314;0.6307;
125.7000;0.4420;0.6599;
126.0000;0.4363;0.6453;
126.3000;0.4379;0.6404;
126.6000;0.4379;0.6404;
126.9000;0.4330;0.6209;
127.2000;0.4444;0.6404;
127.5000;0.4363;0.6282;
127.8000;0.4387;0.6331;
128.1000;0.4387;0.6380;
128.4000;0.4412;0.6380;
128.7000;0.4428;0.6453;
129.0000;0.4363;0.6331;
129.3000;0.4363;0.6380;
129.6000;0.4379;0.6355;
129.9000;0.4396;0.6404;
130.2000;0.4363;0.6477;
130.5000;0.4371;0.6477;
130.8000;0.4387;0.6599;
131.1000;0.4396;0.6501;
131.4000;0.4379;0.6355;
131.7000;0.4339;0.6282;
132.0000;0.4387;0.6453;
132.3000;0.4404;0.6453;
132.6000;0.4396;0.6380;
132.9000;0.4404;0.6331;
133.2000;0.4420;0.6550;
133.5000;0.4412;0.6526;
133.8000;0.4396;0.6526;
134.1000;0.4404;0.6550;
134.4000;0.4436;0.6648;
134.7000;0.4379;0.6550;
135.0000;0.4404;0.6526;
135.3000;0.4404;0.6428;
135.6000;0.4396;0.6428;
135.9000;0.4379;0.6380;
136.2000;0.4387;0.6428;
136.5000;0.4444;0.6599;
136.8000;0.4396;0.6453;
137.1000;0.4396;0.6477;
137.4000;0.4387;0.6501;
137.7000;0.4371;0.6550;
138.0000;0.4387;0.6575;
138.3000;0.4396;0.6550;
138.6000;0.4404;0.6550;
138.9000;0.4363;0.6428;
139.2000;0.4404;0.6501;
139.5000;0.4371;0.6453;
139.8000;0.4396;0.6575;
140.1000;0.4396;0.6477;
140.4000;0.4404;0.6550;
140.7000;0.4387;0.6501;
141.0000;0.4404;0.6477;
141.3000;0.4387;0.6453;
141.6000;0.4379;0.6404;
141.9000;0.4396;0.6501;
142.2000;0.4387;0.6550;
142.5000;0.4396;0.6526;
142.8000;0.4387;0.6477;
143.1000;0.4404;0.6501;
143.4000;0.4379;0.6477;
143.7000;0.4404;0.6526;
144.0000;0.4412;0.6526;
144.3000;0.4387;0.6477;
144.6000;0.4396;0.6501;
144.9000;0.4396;0.6477;
145.2000;0.4412;0.6501;
145.5000;0.4396;0.6477;
145.8000;0.4363;0.6428;
146.1000;0.4387;0.6453;
146.4000;0.4412;0.6501;
146.7000;0.4387;0.6477;
147.0000;0.4396;0.6526;
147.3000;0.4387;0.6477;
147.6000;0.4330;0.6258;
147.9000;0.4396;0.6404;
148.2000;0.4396;0.6453;
148.5000;0.4387;0.6404;
148.8000;0.4387;0.6355;
149.1000;0.4387;0.6404;
149.4000;0.4322;0.6307;
149.7000;0.4347;0.6355;
150.0000;0.4396;0.6428;
150.3000;0.4396;0.6575;
150.6000;0.4396;0.6453;
150.9000;0.4387;0.6501;
151.2000;0.4404;0.6501;
151.5000;0.4387;0.6575;
151.8000;0.4396;0.6599;
152.1000;0.4412;0.6575;
152.4000;0.4396;0.6526;
152.7000;0.4396;0.6526;
153.0000;0.4371;0.6428;
153.3000;0.4396;0.6501;
153.6000;0.4404;0.6575;
153.9000;0.4396;0.6501;
154.2000;0.4404;0.6477;
154.5000;0.4387;0.6526;
154.8000;0.4396;0.6404;
155.1000;0.4387;0.6428;
155.4000;0.4396;0.6428;
155.7000;0.4404;0.6428;
156.0000;0.4330;0.6161;
156.3000;0.4396;0.6258;
156.6000;0.4396;0.6258;
156.9000;0.4396;0.6234;
157.2000;0.4379;0.6331;
157.5000;0.4396;0.6380;
157.8000;0.4404;0.6380;
158.1000;0.4396;0.6380;
158.4000;0.4379;0.6331;
158.7000;0.4396;0.6404;
159.0000;0.4379;0.6307;
159.3000;0.4396;0.6355;
159.6000;0.4404;0.6380;
159.9000;0.4387;0.6355;
160.2000;0.4396;0.6404;
160.5000;0.4387;0.6477;
160.8000;0.4396;0.6404;
161.1000;0.4396;0.6501;
161.4000;0.4396;0.6453;
161.7000;0.4379;0.6501;
162.0000;0.4387;0.6575;
162.3000;0.4379;0.6526;
162.6000;0.4387;0.6575;
162.9000;0.4396;0.6550;
163.2000;0.4404;0.6477;
163.5000;0.4387;0.6404;
163.8000;0.4412;0.6428;
164.1000;0.4404;0.6404;
164.4000;0.4404;0.6355;
164.7000;0.4404;0.6307;
165.0000;0.4404;0.6355;
165.3000;0.4404;0.6355;
165.6000;0.4387;0.6307;
165.9000;0.4428;0.6428;
166.2000;0.4387;0.6404;
166.5000;0.4404;0.6453;
166.8000;0.4396;0.6501;
167.1000;0.4387;0.6404;
167.4000;0.4379;0.6380;
167.7000;0.4396;0.6355;
168.0000;0.4396;0.6282;
168.3000;0.4379;0.6307;
168.6000;0.4379;0.6331;
168.9000;0.4379;0.6380;
169.2000;0.4387;0.6428;
169.5000;0.4404;0.6477;
169.8000;0.4379;0.6501;
170.1000;0.4371;0.6501;
170.4000;0.4330;0.6307;
170.7000;0.4379;0.6453;
171.0000;0.4387;0.6453;
171.3000;0.4396;0.6477;
171.6000;0.4387;0.6404;
171.9000;0.4396;0.6428;
172.2000;0.4387;0.6428;
172.5000;0.4379;0.6428;
172.8000;0.4379;0.6355;
173.1000;0.4379;0.6331;
173.4000;0.4412;0.6355;
173.7000;0.4387;0.6282;
174.0000;0.4396;0.6258;
174.3000;0.4404;0.6355;
174.6000;0.4387;0.6355;
174.9000;0.4387;0.6477;
175.2000;0.4387;0.6404;
175.5000;0.4420;0.6501;
175.8000;0.4420;0.6550;
176.1000;0.4420;0.6575;
176.4000;0.4444;0.6623;
176.7000;0.4387;0.6599;
177.0000;0.4371;0.6599;
177.3000;0.4396;0.6648;
177.6000;0.4436;0.6623;
177.9000;0.4412;0.6648;
178.2000;0.4420;0.6672;
178.5000;0.4404;0.6526;
178.8000;0.4396;0.6526;
179.1000;0.4396;0.6599;
179.4000;0.4412;0.6623;
179.7000;0.4363;0.6501;
180.0000;0.4396;0.6575;
180.3000;0.4453;0.6721;
180.6000;0.4420;0.6526;
180.9000;0.4404;0.6355;
181.2000;0.4404;0.6380;
181.5000;0.4485;0.6648;
181.8000;0.4387;0.6428;
182.1000;0.4404;0.6526;
182.4000;0.4396;0.6550;
182.7000;0.4371;0.6453;
183.0000;0.4379;0.6428;
183.3000;0.4387;0.6404;
183.6000;0.4371;0.6307;
183.9000;0.4339;0.6161;
184.2000;0.4404;0.6209;
184.5000;0.4404;0.6234;
184.8000;0.4412;0.6307;
185.1000;0.4436;0.6453;
185.4000;0.4387;0.6428;
185.7000;0.4396;0.6526;
186.0000;0.4371;0.6526;
186.3000;0.4396;0.6453;
186.6000;0.4404;0.6428;
186.9000;0.4387;0.6380;
187.2000;0.4404;0.6428;
187.5000;0.4387;0.6331;
187.8000;0.4387;0.6380;
188.1000;0.4396;0.6428;
188.4000;0.4396;0.6428;
188.7000;0.4396;0.6380;
189.0000;0.4387;0.6380;
189.3000;0.4444;0.6501;
189.6000;0.4404;0.6404;
189.9000;0.4396;0.6404;
190.2000;0.4420;0.6380;
190.5000;0.4420;0.6404;
190.8000;0.4404;0.6331;
191.1000;0.4339;0.6136;
191.4000;0.4387;0.6282;
191.7000;0.4396;0.6258;
192.0000;0.4404;0.6258;
192.3000;0.4387;0.6307;
192.6000;0.4396;0.6428;
192.9000;0.4396;0.6428;
193.2000;0.4469;0.6599;
193.5000;0.4412;0.6477;
193.8000;0.4396;0.6380;
194.1000;0.4420;0.6331;
194.4000;0.4363;0.6282;
194.7000;0.4371;0.6380;
195.0000;0.4379;0.6428;
195.3000;0.4347;0.6331;
195.6000;0.4404;0.6501;
195.9000;0.4387;0.6501;
196.2000;0.4396;0.6526;
196.5000;0.4379;0.6501;
196.8000;0.4396;0.6453;
197.1000;0.4396;0.6453;
197.4000;0.4387;0.6355;
197.7000;0.4387;0.6355;
198.0000;0.4404;0.6404;
198.3000;0.4404;0.6380;
198.6000;0.4396;0.6380;
198.9000;0.4387;0.6355;
199.2000;0.4379;0.6355;
199.5000;0.4379;0.6355;
199.8000;0.4396;0.6453;
200.1000;0.4396;0.6380;
200.4000;0.4347;0.6331;
200.7000;0.4404;0.6234;
201.0000;0.4420;0.6331;
201.3000;0.4355;0.6161;
201.6000;0.4396;0.6355;
201.9000;0.4404;0.6404;
202.2000;0.4404;0.6380;
202.5000;0.4412;0.6428;
202.8000;0.4387;0.6331;
203.1000;0.4387;0.6282;
203.4000;0.4428;0.6331;
203.7000;0.4404;0.6282;
204.0000;0.4412;0.6282;
204.3000;0.4347;0.6088;
204.6000;0.4387;0.6209;
204.9000;0.4396;0.6282;
205.2000;0.4420;0.6355;
205.5000;0.4396;0.6282;
205.8000;0.4404;0.6380;
206.1000;0.4371;0.6307;
206.4000;0.4404;0.6355;
206.7000;0.4379;0.6331;
207.0000;0.4444;0.6477;
207.3000;0.4396;0.6355;
207.6000;0.4387;0.6380;
207.9000;0.4371;0.6307;
208.2000;0.4379;0.6307;
208.5000;0.4355;0.6355;
208.8000;0.4387;0.6428;
209.1000;0.4387;0.6428;
209.4000;0.4404;0.6404;
209.7000;0.4396;0.6307;
210.0000;0.4412;0.6307;
210.3000;0.4387;0.6282;
210.6000;0.4404;0.6331;
210.9000;0.4396;0.6331;
211.2000;0.4387;0.6307;
211.5000;0.4396;0.6355;
211.8000;0.4404;0.6331;
212.1000;0.4404;0.6404;
212.4000;0.4396;0.6428;
212.7000;0.4396;0.6428;
213.0000;0.4396;0.6453;
213.3000;0.4396;0.6477;
213.6000;0.4396;0.6501;
213.9000;0.4387;0.6477;
214.2000;0.4404;0.6501;
214.5000;0.4379;0.6428;
214.8000;0.4396;0.6453;
215.1000;0.4387;0.6501;
215.4000;0.4363;0.6331;
215.7000;0.4387;0.6355;
216.0000;0.4404;0.6428;
216.3000;0.4379;0.6307;
216.6000;0.4396;0.6282;
216.9000;0.4404;0.6355;
217.2000;0.4396;0.6404;
217.5000;0.4404;0.6428;
217.8000;0.4404;0.6404;
218.1000;0.4387;0.6307;
218.4000;0.4387;0.6258;
218.7000;0.4379;0.6209;
219.0000;0.4396;0.6282;
219.3000;0.4379;0.6258;
219.6000;0.4453;0.6380;
219.9000;0.4396;0.6209;
220.2000;0.4477;0.6526;
220.5000;0.4396;0.6307;
220.8000;0.4347;0.6112;
221.1000;0.4396;0.6161;
221.4000;0.4363;0.6088;
221.7000;0.4396;0.6161;
222.0000;0.4396;0.6112;
222.3000;0.4412;0.6136;
222.6000;0.4396;0.6088;
222.9000;0.4396;0.6112;
223.2000;0.4387;0.6161;
223.5000;0.4371;0.6014;
223.8000;0.4396;0.6063;
224.1000;0.4404;0.6185;
224.4000;0.4404;0.6185;
224.7000;0.4379;0.6234;
225.0000;0.4404;0.6307;
225.3000;0.4404;0.6355;
225.6000;0.4396;0.6331;
225.9000;0.4387;0.6282;
226.2000;0.4404;0.6355;
226.5000;0.4396;0.6355;
226.8000;0.4396;0.6331;
227.1000;0.4396;0.6258;
227.4000;0.4387;0.6209;
227.7000;0.4461;0.6307;
228.0000;0.4387;0.6209;
228.3000;0.4387;0.6161;
228.6000;0.4387;0.6136;
228.9000;0.4396;0.6185;
229.2000;0.4387;0.6185;
229.5000;0.4387;0.6161;
229.8000;0.4404;0.6258;
230.1000;0.4396;0.6380;
230.4000;0.4387;0.6428;
230.7000;0.4396;0.6526;
231.0000;0.4379;0.6380;
231.3000;0.4387;0.6428;
231.6000;0.4396;0.6477;
231.9000;0.4396;0.6477;
232.2000;0.4396;0.6453;
232.5000;0.4444;0.6599;
232.8000;0.4404;0.6526;
233.1000;0.4396;0.6477;
233.4000;0.4379;0.6501;
233.7000;0.4379;0.6501;
234.0000;0.4396;0.6550;
234.3000;0.4404;0.6550;
234.6000;0.4396;0.6453;
234.9000;0.4412;0.6477;
235.2000;0.4387;0.6355;
235.5000;0.4412;0.6380;
235.8000;0.4396;0.6355;
236.1000;0.4396;0.6307;
236.4000;0.4420;0.6380;
236.7000;0.4404;0.6428;
237.0000;0.4396;0.6428;
237.3000;0.4404;0.6453;
237.6000;0.4412;0.6526;
237.9000;0.4420;0.6453;
238.2000;0.4436;0.6550;
238.5000;0.4396;0.6550;
238.8000;0.4322;0.6428;
239.1000;0.4396;0.6575;
239.4000;0.4363;0.6477;
239.7000;0.4387;0.6550;
240.0000;0.4396;0.6575;
240.3000;0.4396;0.6501;
240.6000;0.4396;0.6404;
240.9000;0.4290;0.6112;
241.2000;0.4339;0.6185;
241.5000;0.4363;0.6258;
241.8000;0.4355;0.6185;
242.1000;0.4387;0.6234;
242.4000;0.4339;0.6063;
242.7000;0.4436;0.6185;
243.0000;0.4453;0.6258;
243.3000;0.4396;0.6112;
243.6000;0.4493;0.6428;
243.9000;0.4396;0.6185;
244.2000;0.4436;0.6282;
244.5000;0.4461;0.6404;
244.8000;0.4444;0.6380;
245.1000;0.4371;0.6234;
245.4000;0.4396;0.6258;
245.7000;0.4371;0.6161;
246.0000;0.4396;0.6234;
246.3000;0.4387;0.6282;
246.6000;0.4412;0.6355;
246.9000;0.4379;0.6355;
247.2000;0.4396;0.6331;
247.5000;0.4444;0.6428;
247.8000;0.4298;0.6112;
248.1000;0.4387;0.6331;
248.4000;0.4396;0.6331;
248.7000;0.4387;0.6258;
249.0000;0.4404;0.6258;
249.3000;0.4404;0.6307;
249.6000;0.4404;0.6331;
249.9000;0.4396;0.6331;
250.2000;0.4371;0.6331;
250.5000;0.4404;0.6404;
250.8000;0.4404;0.6404;
251.1000;0.4387;0.6380;
251.4000;0.4404;0.6428;
251.7000;0.4355;0.6331;
252.0000;0.4404;0.6307;
252.3000;0.4387;0.6258;
252.6000;0.4379;0.6258;
252.9000;0.4396;0.6282;
253.2000;0.4396;0.6234;
253.5000;0.4387;0.6282;
253.8000;0.4387;0.6331;
254.1000;0.4420;0.6355;
254.4000;0.4387;0.6355;
254.7000;0.4396;0.6355;
255.0000;0.4404;0.6331;
255.3000;0.4379;0.6355;
255.6000;0.4404;0.6428;
255.9000;0.4412;0.6380;
256.2000;0.4404;0.6380;
256.5000;0.4404;0.6307;
256.8000;0.4404;0.6380;
257.1000;0.4379;0.6355;
257.4000;0.4387;0.6331;
257.7000;0.4396;0.6355;
258.0000;0.4396;0.6404;
258.3000;0.4355;0.6355;
258.6000;0.4396;0.6477;
258.9000;0.4387;0.6477;
259.2000;0.4396;0.6501;
259.5000;0.4379;0.6501;
259.8000;0.4387;0.6477;
260.1000;0.4387;0.6501;
260.4000;0.4396;0.6526;
260.7000;0.4379;0.6453;
261.0000;0.4339;0.6355;
261.3000;0.4396;0.6501;
261.6000;0.4412;0.6550;
261.9000;0.4379;0.6501;
262.2000;0.4396;0.6575;
262.5000;0.4387;0.6501;
262.8000;0.4412;0.6453;
263.1000;0.4387;0.6355;
263.4000;0.4355;0.6331;
263.7000;0.4371;0.6380;
264.0000;0.4379;0.6355;
264.3000;0.4396;0.6453;
264.6000;0.4412;0.6477;
264.9000;0.4371;0.6453;
265.2000;0.4363;0.6404;
265.5000;0.4379;0.6404;
265.8000;0.4387;0.6477;
266.1000;0.4404;0.6453;
266.4000;0.4444;0.6599;
266.7000;0.4387;0.6404;
267.0000;0.4404;0.6453;
267.3000;0.4428;0.6501;
267.6000;0.4396;0.6355;
267.9000;0.4396;0.6355;
268.2000;0.4412;0.6404;
268.5000;0.4396;0.6404;
268.8000;0.4371;0.6307;
269.1000;0.4420;0.6428;
269.4000;0.4387;0.6380;
269.7000;0.4404;0.6404;
270.0000;0.4396;0.6380;
270.3000;0.4379;0.6307;
270.6000;0.4387;0.6355;
270.9000;0.4379;0.6282;
271.2000;0.4477;0.6575;
271.5000;0.4396;0.6404;
271.8000;0.4396;0.6380;
272.1000;0.4404;0.6355;
272.4000;0.4404;0.6404;
272.7000;0.4396;0.6355;
273.0000;0.4453;0.6526;
273.3000;0.4379;0.6282;
273.6000;0.4387;0.6355;
273.9000;0.4396;0.6307;
274.2000;0.4412;0.6428;
274.5000;0.4387;0.6331;
274.8000;0.4396;0.6380;
275.1000;0.4396;0.6380;
275.4000;0.4387;0.6355;
275.7000;0.4387;0.6404;
276.0000;0.4404;0.6404;
276.3000;0.4363;0.6234;
276.6000;0.4339;0.6234;
276.9000;0.4379;0.6331;
277.2000;0.4379;0.6307;
277.5000;0.4396;0.6355;
277.8000;0.4387;0.6307;
278.1000;0.4428;0.6380;
278.4000;0.4379;0.6307;
278.7000;0.4379;0.6355;
279.0000;0.4363;0.6307;
279.3000;0.4444;0.6355;
279.6000;0.4396;0.6209;
279.9000;0.4387;0.6258;
280.2000;0.4387;0.6331;
280.5000;0.4379;0.6355;
280.8000;0.4371;0.6307;
281.1000;0.4404;0.6453;
281.4000;0.4387;0.6404;
281.7000;0.4396;0.6428;
282.0000;0.4396;0.6453;
282.3000;0.4420;0.6599;
282.6000;0.4387;0.6526;
282.9000;0.4396;0.6428;
283.2000;0.4396;0.6428;
283.5000;0.4379;0.6404;
283.8000;0.4379;0.6380;
284.1000;0.4396;0.6404;
284.4000;0.4387;0.6331;
284.7000;0.4396;0.6355;
285.0000;0.4387;0.6331;
285.3000;0.4387;0.6331;
285.6000;0.4396;0.6380;
285.9000;0.4379;0.6404;
286.2000;0.4404;0.6453;
286.5000;0.4371;0.6453;
286.8000;0.4396;0.6501;
287.1000;0.4347;0.6453;
287.4000;0.4387;0.6501;
287.7000;0.4404;0.6501;
288.0000;0.4387;0.6575;
288.3000;0.4404;0.6599;
288.6000;0.4379;0.6453;
288.9000;0.4387;0.6380;
289.2000;0.4412;0.6331;
289.5000;0.4387;0.6282;
289.8000;0.4461;0.6404;
290.1000;0.4387;0.6136;
290.4000;0.4387;0.6136;
290.7000;0.4387;0.6209;
291.0000;0.4387;0.6136;
291.3000;0.4387;0.6234;
291.6000;0.4404;0.6307;
291.9000;0.4330;0.6209;
292.2000;0.4363;0.6234;
292.5000;0.4379;0.6282;
292.8000;0.4412;0.6453;
293.1000;0.4379;0.6380;
293.4000;0.4387;0.6453;
293.7000;0.4387;0.6428;
294.0000;0.4387;0.6380;
294.3000;0.4396;0.6428;
294.6000;0.4396;0.6404;
294.9000;0.4379;0.6380;
295.2000;0.4379;0.6404;
295.5000;0.4453;0.6501;
295.8000;0.4379;0.6404;
296.1000;0.4379;0.6501;
296.4000;0.4412;0.6623;
296.7000;0.4396;0.6648;
297.0000;0.4387;0.6623;
297.3000;0.4314;0.6355;
297.6000;0.4387;0.6477;
297.9000;0.4412;0.6380;
298.2000;0.4379;0.6282;
298.5000;0.4420;0.6428;
298.8000;0.4379;0.6355;
299.1000;0.4379;0.6404;
299.4000;0.4379;0.6477;
299.7000;0.4387;0.6501;
300.0000;0.4387;0.6428;
300.3000;0.4363;0.6258;
300.6000;0.4371;0.6282;
300.9000;0.4379;0.6331;
301.2000;0.4379;0.6355;
301.5000;0.4396;0.6453;
301.8000;0.4387;0.6477;
302.1000;0.4371;0.6404;
302.4000;0.4387;0.6404;
302.7000;0.4396;0.6404;
303.0000;0.4396;0.6428;
303.3000;0.4436;0.6477;
303.6000;0.4404;0.6477;
303.9000;0.4404;0.6453;
304.2000;0.4396;0.6404;
304.5000;0.4396;0.6404;
304.8000;0.4387;0.6453;
305.1000;0.4412;0.6428;
305.4000;0.4396;0.6428;
305.7000;0.4396;0.6428;
306.0000;0.4396;0.6404;
306.3000;0.4363;0.6404;
306.6000;0.4379;0.6404;
306.9000;0.4396;0.6453;
307.2000;0.4396;0.6428;
307.5000;0.4396;0.6355;
307.8000;0.4396;0.6355;
308.1000;0.4387;0.6331;
308.4000;0.4379;0.6161;
308.7000;0.4379;0.6185;
309.0000;0.4387;0.6258;
309.3000;0.4387;0.6282;
309.6000;0.4379;0.6307;
309.9000;0.4379;0.6331;
310.2000;0.4396;0.6234;
310.5000;0.4404;0.6258;
310.8000;0.4363;0.6209;
311.1000;0.4387;0.6282;
311.4000;0.4379;0.6355;
311.7000;0.4396;0.6453;
312.0000;0.4379;0.6428;
312.3000;0.4379;0.6404;
312.6000;0.4339;0.6355;
312.9000;0.4469;0.6745;
313.2000;0.4420;0.6623;
313.5000;0.4420;0.6623;
313.8000;0.4396;0.6575;
314.1000;0.4387;0.6648;
314.4000;0.4379;0.6672;
314.7000;0.4477;0.7013;
315.0000;0.4396;0.6745;
315.3000;0.4363;0.6745;
315.6000;0.4428;0.6891;
315.9000;0.4404;0.6842;
316.2000;0.4461;0.6940;
316.5000;0.4379;0.6745;
316.8000;0.4363;0.6672;
317.1000;0.4363;0.6648;
317.4000;0.4379;0.6623;
317.7000;0.4412;0.6648;
318.0000;0.4379;0.6648;
318.3000;0.4371;0.6599;
318.6000;0.4387;0.6648;
318.9000;0.4363;0.6550;
319.2000;0.4387;0.6623;
319.5000;0.4371;0.6550;
319.8000;0.4363;0.6575;
320.1000;0.4404;0.6721;
320.4000;0.4379;0.6623;
320.7000;0.4379;0.6623;
321.0000;0.4363;0.6550;
321.3000;0.4379;0.6648;
321.6000;0.4396;0.6794;
321.9000;0.4355;0.6721;
322.2000;0.4412;0.6794;
322.5000;0.4428;0.6794;
322.8000;0.4387;0.6623;
323.1000;0.4396;0.6648;
323.4000;0.4404;0.6672;
323.7000;0.4387;0.6696;
324.0000;0.4379;0.6745;
324.3000;0.4396;0.6794;
324.6000;0.4387;0.6745;
324.9000;0.4371;0.6550;
325.2000;0.4396;0.6550;
325.5000;0.4387;0.6550;
325.8000;0.4404;0.6599;
326.1000;0.4363;0.6623;
326.4000;0.4396;0.6575;
326.7000;0.4387;0.6599;
327.0000;0.4396;0.6672;
327.3000;0.4453;0.6842;
327.6000;0.4387;0.6696;
327.9000;0.4379;0.6648;
328.2000;0.4396;0.6721;
328.5000;0.4396;0.6794;
328.8000;0.4396;0.6769;
329.1000;0.4387;0.6721;
329.4000;0.4379;0.6623;
329.7000;0.4387;0.6648;
330.0000;0.4387;0.6575;
330.3000;0.4396;0.6550;
330.6000;0.4387;0.6526;
330.9000;0.4428;0.6599;
331.2000;0.4404;0.6526;
331.5000;0.4379;0.6501;
331.8000;0.4387;0.6526;
332.1000;0.4396;0.6599;
332.4000;0.4412;0.6599;
332.7000;0.4396;0.6575;
333.0000;0.4387;0.6526;
333.3000;0.4396;0.6575;
333.6000;0.4469;0.6818;
333.9000;0.4363;0.6599;
334.2000;0.4428;0.6623;
334.5000;0.4330;0.6404;
334.8000;0.4428;0.6672;
335.1000;0.4387;0.6501;
335.4000;0.4387;0.6599;
335.7000;0.4396;0.6575;
336.0000;0.4363;0.6501;
336.3000;0.4412;0.6501;
336.6000;0.4322;0.6355;
336.9000;0.4355;0.6428;
337.2000;0.4396;0.6550;
337.5000;0.4363;0.6526;
337.8000;0.4396;0.6599;
338.1000;0.4404;0.6550;
338.4000;0.4396;0.6672;
338.7000;0.4420;0.6623;
339.0000;0.4396;0.6550;
339.3000;0.4387;0.6623;
339.6000;0.4379;0.6575;
339.9000;0.4387;0.6648;
340.2000;0.4404;0.6623;
340.5000;0.4387;0.6623;
340.8000;0.4387;0.6599;
341.1000;0.4420;0.6648;
341.4000;0.4387;0.6599;
341.7000;0.4428;0.6696;
342.0000;0.4404;0.6696;
342.3000;0.4396;0.6672;
342.6000;0.4436;0.6745;
342.9000;0.4314;0.6331;
343.2000;0.4387;0.6550;
343.5000;0.4396;0.6526;
343.8000;0.4412;0.6550;
344.1000;0.4379;0.6575;
344.4000;0.4371;0.6550;
344.7000;0.4387;0.6575;
345.0000;0.4379;0.6526;
345.3000;0.4371;0.6623;
345.6000;0.4396;0.6696;
345.9000;0.4404;0.6648;
346.2000;0.4420;0.6648;
346.5000;0.4404;0.6648;
346.8000;0.4404;0.6526;
347.1000;0.4396;0.6428;
347.4000;0.4412;0.6355;
347.7000;0.4412;0.6404;
348.0000;0.4396;0.6355;
348.3000;0.4387;0.6404;
348.6000;0.4387;0.6477;
348.9000;0.4404;0.6501;
349.2000;0.4412;0.6550;
349.5000;0.4396;0.6575;
349.8000;0.4396;0.6575;
350.1000;0.4420;0.6648;
350.4000;0.4387;0.6721;
350.7000;0.4404;0.6794;
351.0000;0.4387;0.6721;
351.3000;0.4387;0.6672;
351.6000;0.4387;0.6623;
351.9000;0.4387;0.6575;
352.2000;0.4387;0.6550;
352.5000;0.4396;0.6550;
352.8000;0.4387;0.6550;
353.1000;0.4412;0.6648;
353.4000;0.4371;0.6526;
353.7000;0.4396;0.6575;
354.0000;0.4404;0.6623;
354.3000;0.4461;0.6794;
354.6000;0.4387;0.6648;
354.9000;0.4404;0.6721;
355.2000;0.4436;0.6745;
355.5000;0.4387;0.6648;
355.8000;0.4371;0.6599;
356.1000;0.4355;0.6526;
356.4000;0.4379;0.6648;
356.7000;0.4379;0.6550;
357.0000;0.4379;0.6453;
357.3000;0.4396;0.6575;
357.6000;0.4404;0.6623;
357.9000;0.4355;0.6575;
358.2000;0.4412;0.6794;
358.5000;0.4396;0.6721;
358.8000;0.4379;0.6623;
359.1000;0.4396;0.6672;
359.4000;0.4420;0.6721;
359.7000;0.4485;0.6891;
360.0000;0.4371;0.6575;
360.3000;0.4379;0.6599;
360.6000;0.4379;0.6648;
360.9000;0.4363;0.6623;
361.2000;0.4347;0.6526;
361.5000;0.4412;0.6599;
361.8000;0.4371;0.6477;
362.1000;0.4355;0.6428;
362.4000;0.4379;0.6477;
362.7000;0.4371;0.6477;
363.0000;0.4404;0.6599;
363.3000;0.4404;0.6599;
363.6000;0.4404;0.6696;
363.9000;0.4396;0.6721;
364.2000;0.4396;0.6648;
364.5000;0.4387;0.6501;
364.8000;0.4371;0.6404;
365.1000;0.4396;0.6526;
365.4000;0.4396;0.6575;
365.7000;0.4387;0.6550;
366.0000;0.4379;0.6550;
366.3000;0.4387;0.6575;
366.6000;0.4396;0.6550;
366.9000;0.4396;0.6550;
367.2000;0.4379;0.6623;
367.5000;0.4363;0.6575;
367.8000;0.4379;0.6648;
368.1000;0.4404;0.6696;
368.4000;0.4396;0.6769;
368.7000;0.4387;0.6745;
369.0000;0.4477;0.6867;
369.3000;0.4412;0.6672;
369.6000;0.4387;0.6599;
369.9000;0.4379;0.6599;
370.2000;0.4363;0.6477;
370.5000;0.4379;0.6575;
370.8000;0.4371;0.6623;
371.1000;0.4396;0.6648;
371.4000;0.4396;0.6599;
371.7000;0.4387;0.6745;
372.0000;0.4404;0.6769;
372.3000;0.4379;0.6769;
372.6000;0.4371;0.6769;
372.9000;0.4396;0.6842;
373.2000;0.4379;0.6867;
373.5000;0.4396;0.6794;
373.8000;0.4396;0.6696;
374.1000;0.4371;0.6599;
374.4000;0.4379;0.6575;
374.7000;0.4379;0.6575;
375.0000;0.4379;0.6672;
375.3000;0.4371;0.6623;
375.6000;0.4387;0.6672;
375.9000;0.4396;0.6623;
376.2000;0.4347;0.6526;
376.5000;0.4387;0.6623;
376.8000;0.4379;0.6575;
377.1000;0.4404;0.6623;
377.4000;0.4387;0.6648;
377.7000;0.4379;0.6696;
378.0000;0.4404;0.6672;
378.3000;0.4387;0.6672;
378.6000;0.4404;0.6818;
378.9000;0.4387;0.6769;
379.2000;0.4404;0.6648;
379.5000;0.4404;0.6599;
379.8000;0.4396;0.6623;
380.1000;0.4387;0.6599;
380.4000;0.4387;0.6501;
380.7000;0.4396;0.6453;
381.0000;0.4404;0.6477;
381.3000;0.4387;0.6477;
381.6000;0.4379;0.6453;
381.9000;0.4387;0.6453;
382.2000;0.4387;0.6453;
382.5000;0.4379;0.6477;
382.8000;0.4387;0.6550;
383.1000;0.4396;0.6648;
383.4000;0.4363;0.6526;
383.7000;0.4355;0.6453;
384.0000;0.4387;0.6550;
384.3000;0.4387;0.6526;
384.6000;0.4355;0.6428;
384.9000;0.4387;0.6453;
385.2000;0.4371;0.6428;
385.5000;0.4379;0.6404;
385.8000;0.4379;0.6428;
386.1000;0.4355;0.6380;
386.4000;0.4379;0.6355;
386.7000;0.4387;0.6355;
387.0000;0.4387;0.6380;
387.3000;0.4387;0.6380;
387.6000;0.4379;0.6380;
387.9000;0.4396;0.6355;
388.2000;0.4371;0.6307;
388.5000;0.4387;0.6428;
388.8000;0.4387;0.6526;
389.1000;0.4379;0.6501;
389.4000;0.4396;0.6550;
389.7000;0.4404;0.6550;
390.0000;0.4396;0.6550;
390.3000;0.4371;0.6575;
390.6000;0.4404;0.6696;
390.9000;0.4379;0.6599;
391.2000;0.4355;0.6477;
391.5000;0.4314;0.6331;
391.8000;0.4371;0.6428;
392.1000;0.4363;0.6380;
392.4000;0.4379;0.6404;
392.7000;0.4396;0.6404;
393.0000;0.4387;0.6453;
393.3000;0.4396;0.6477;
393.6000;0.4387;0.6477;
393.9000;0.4396;0.6477;
394.2000;0.4371;0.6453;
394.5000;0.4363;0.6428;
394.8000;0.4396;0.6599;
395.1000;0.4322;0.6428;
395.4000;0.4387;0.6526;
395.7000;0.4387;0.6477;
396.0000;0.4379;0.6526;
396.3000;0.4387;0.6575;
396.6000;0.4371;0.6550;
396.9000;0.4379;0.6526;
397.2000;0.4396;0.6550;
397.5000;0.4387;0.6550;
397.8000;0.4396;0.6575;
398.1000;0.4379;0.6477;
398.4000;0.4404;0.6550;
398.7000;0.4404;0.6501;
399.0000;0.4412;0.6550;
399.3000;0.4404;0.6501;
399.6000;0.4396;0.6575;
399.9000;0.4404;0.6550;
400.2000;0.4396;0.6575;
400.5000;0.4339;0.6404;
400.8000;0.4387;0.6501;
401.1000;0.4396;0.6599;
401.4000;0.4404;0.6550;
401.7000;0.4379;0.6501;
402.0000;0.4339;0.6477;
402.3000;0.4387;0.6550;
402.6000;0.4404;0.6575;
402.9000;0.4404;0.6526;
403.2000;0.4387;0.6404;
403.5000;0.4396;0.6453;
403.8000;0.4396;0.6453;
404.1000;0.4404;0.6599;
404.4000;0.4387;0.6672;
404.7000;0.4387;0.6575;
405.0000;0.4387;0.6648;
405.3000;0.4396;0.6623;
405.6000;0.4363;0.6477;
405.9000;0.4396;0.6575;
406.2000;0.4396;0.6623;
406.5000;0.4347;0.6477;
406.8000;0.4371;0.6575;
407.1000;0.4379;0.6623;
407.4000;0.4396;0.6721;
407.7000;0.4412;0.6745;
408.0000;0.4363;0.6575;
408.3000;0.4396;0.6575;
408.6000;0.4420;0.6721;
408.9000;0.4477;0.6818;
409.2000;0.4444;0.6769;
409.5000;0.4428;0.6599;
409.8000;0.4387;0.6453;
410.1000;0.4396;0.6477;
410.4000;0.4379;0.6526;
410.7000;0.4371;0.6550;
411.0000;0.4379;0.6599;
411.3000;0.4387;0.6550;
411.6000;0.4330;0.6404;
411.9000;0.4387;0.6599;
412.2000;0.4363;0.6623;
412.5000;0.4436;0.6769;
412.8000;0.4387;0.6648;
413.1000;0.4379;0.6648;
413.4000;0.4396;0.6672;
413.7000;0.4396;0.6721;
414.0000;0.4396;0.6599;
414.3000;0.4396;0.6623;
414.6000;0.4298;0.6307;
414.9000;0.4379;0.6477;
415.2000;0.4387;0.6501;
415.5000;0.4379;0.6428;
415.8000;0.4371;0.6428;
416.1000;0.4396;0.6501;
416.4000;0.4396;0.6380;
416.7000;0.4387;0.6355;
417.0000;0.4347;0.6258;
417.3000;0.4387;0.6453;
417.6000;0.4396;0.6477;
417.9000;0.4404;0.6428;
418.2000;0.4404;0.6599;
418.5000;0.4379;0.6550;
418.8000;0.4404;0.6550;
419.1000;0.4453;0.6648;
419.4000;0.4387;0.6453;
419.7000;0.4396;0.6477;
420.0000;0.4387;0.6453;
420.3000;0.4396;0.6526;
420.6000;0.4387;0.6453;
420.9000;0.4387;0.6428;
421.2000;0.4330;0.6258;
421.5000;0.4412;0.6501;
421.8000;0.4371;0.6526;
422.1000;0.4379;0.6575;
422.4000;0.4420;0.6648;
422.7000;0.4396;0.6550;
423.0000;0.4355;0.6526;
423.3000;0.4453;0.6745;
423.6000;0.4396;0.6623;
423.9000;0.4404;0.6672;
424.2000;0.4412;0.6696;
424.5000;0.4396;0.6623;
424.8000;0.4396;0.6623;
425.1000;0.4387;0.6599;
425.4000;0.4387;0.6623;
425.7000;0.4387;0.6623;
426.0000;0.4371;0.6575;
426.3000;0.4387;0.6550;
426.6000;0.4355;0.6501;
426.9000;0.4379;0.6575;
427.2000;0.4371;0.6575;
427.5000;0.4355;0.6501;
427.8000;0.4396;0.6550;
428.1000;0.4387;0.6575;
428.4000;0.4404;0.6599;
428.7000;0.4412;0.6599;
429.0000;0.4396;0.6526;
429.3000;0.4396;0.6550;
429.6000;0.4396;0.6599;
429.9000;0.4371;0.6648;
430.2000;0.4347;0.6575;
430.5000;0.4396;0.6794;
430.8000;0.4290;0.6575;
431.1000;0.4371;0.6721;
431.4000;0.4493;0.6988;
431.7000;0.4387;0.6623;
432.0000;0.4322;0.6526;
432.3000;0.4355;0.6575;
432.6000;0.4379;0.6745;
432.9000;0.4387;0.6769;
433.2000;0.4387;0.6696;
433.5000;0.4371;0.6721;
433.8000;0.4379;0.6769;
434.1000;0.4379;0.6769;
434.4000;0.4396;0.6745;
434.7000;0.4387;0.6769;
435.0000;0.4379;0.6794;
435.3000;0.4396;0.6891;
435.6000;0.4412;0.6964;
435.9000;0.4363;0.6794;
436.2000;0.4387;0.6769;
436.5000;0.4387;0.6745;
436.8000;0.4396;0.6648;
437.1000;0.4379;0.6550;
437.4000;0.4387;0.6501;
437.7000;0.4371;0.6428;
438.0000;0.4339;0.6258;
438.3000;0.4412;0.6355;
438.6000;0.4387;0.6331;
438.9000;0.4396;0.6404;
439.2000;0.4404;0.6477;
439.5000;0.4444;0.6745;
439.8000;0.4387;0.6550;
440.1000;0.4396;0.6501;
440.4000;0.4379;0.6453;
440.7000;0.4371;0.6550;
441.0000;0.4387;0.6550;
441.3000;0.4379;0.6501;
441.6000;0.4379;0.6623;
441.9000;0.4387;0.6599;
442.2000;0.4404;0.6599;
442.5000;0.4396;0.6477;
442.8000;0.4363;0.6453;
443.1000;0.4379;0.6477;
443.4000;0.4396;0.6575;
443.7000;0.4379;0.6453;
444.0000;0.4363;0.6331;
444.3000;0.4387;0.6380;
444.6000;0.4396;0.6477;
444.9000;0.4363;0.6428;
445.2000;0.4363;0.6453;
445.5000;0.4412;0.6550;
445.8000;0.4387;0.6550;
446.1000;0.4404;0.6599;
446.4000;0.4379;0.6599;
446.7000;0.4396;0.6648;
447.0000;0.4387;0.6526;
447.3000;0.4363;0.6526;
447.6000;0.4387;0.6550;
447.9000;0.4387;0.6575;
448.2000;0.4363;0.6477;
448.5000;0.4355;0.6453;
448.8000;0.4363;0.6477;
449.1000;0.4379;0.6501;
449.4000;0.4379;0.6501;
449.7000;0.4420;0.6526;
450.0000;0.4387;0.6477;
450.3000;0.4379;0.6526;
450.6000;0.4387;0.6453;
450.9000;0.4420;0.6526;
451.2000;0.4420;0.6501;
451.5000;0.4396;0.6428;
451.8000;0.4404;0.6428;
452.1000;0.4396;0.6453;
452.4000;0.4387;0.6477;
452.7000;0.4420;0.6550;
453.0000;0.4371;0.6428;
453.3000;0.4339;0.6307;
453.6000;0.4428;0.6526;
453.9000;0.4355;0.6307;
454.2000;0.4396;0.6453;
454.5000;0.4371;0.6380;
454.8000;0.4298;0.6136;
455.1000;0.4396;0.6453;
455.4000;0.4379;0.6453;
455.7000;0.4387;0.6404;
456.0000;0.4404;0.6355;
456.3000;0.4379;0.6185;
456.6000;0.4387;0.6136;
456.9000;0.4396;0.6185;
457.2000;0.4387;0.6161;
457.5000;0.4387;0.6185;
457.8000;0.4387;0.6282;
458.1000;0.4371;0.6355;
458.4000;0.4387;0.6331;
458.7000;0.4396;0.6307;
459.0000;0.4363;0.6258;
459.3000;0.4387;0.6355;
459.6000;0.4379;0.6355;
459.9000;0.4371;0.6282;
460.2000;0.4387;0.6307;
460.5000;0.4379;0.6355;
460.8000;0.4396;0.6380;
461.1000;0.4387;0.6404;
461.4000;0.4396;0.6380;
461.7000;0.4379;0.6331;
462.0000;0.4387;0.6404;
462.3000;0.4396;0.6404;
462.6000;0.4322;0.6185;
462.9000;0.4387;0.6331;
463.2000;0.4404;0.6282;
463.5000;0.4396;0.6282;
463.8000;0.4412;0.6331;
464.1000;0.4396;0.6355;
464.4000;0.4379;0.6258;
464.7000;0.4371;0.6355;
465.0000;0.4379;0.6380;
465.3000;0.4387;0.6404;
465.6000;0.4404;0.6331;
465.9000;0.4387;0.6282;
466.2000;0.4396;0.6331;
466.5000;0.4396;0.6404;
466.8000;0.4387;0.6477;
467.1000;0.4371;0.6501;
467.4000;0.4379;0.6550;
467.7000;0.4371;0.6453;
468.0000;0.4387;0.6453;
468.3000;0.4412;0.6477;
468.6000;0.4387;0.6428;
468.9000;0.4387;0.6428;
469.2000;0.4363;0.6404;
469.5000;0.4379;0.6526;
469.8000;0.4387;0.6648;
470.1000;0.4371;0.6648;
470.4000;0.4355;0.6672;
470.7000;0.4379;0.6623;
471.0000;0.4396;0.6648;
471.3000;0.4387;0.6623;
471.6000;0.4412;0.6769;
471.9000;0.4379;0.6648;
472.2000;0.4347;0.6550;
472.5000;0.4396;0.6599;
472.8000;0.4387;0.6550;
473.1000;0.4396;0.6575;
473.4000;0.4371;0.6575;
473.7000;0.4363;0.6599;
474.0000;0.4396;0.6575;
474.3000;0.4355;0.6477;
474.6000;0.4379;0.6550;
474.9000;0.4379;0.6477;
475.2000;0.4396;0.6477;
475.5000;0.4387;0.6428;
475.8000;0.4387;0.6428;
476.1000;0.4404;0.6428;
476.4000;0.4396;0.6477;
476.7000;0.4404;0.6453;
477.0000;0.4379;0.6526;
477.3000;0.4371;0.6550;
477.6000;0.4404;0.6623;
477.9000;0.4387;0.6550;
478.2000;0.4371;0.6526;
478.5000;0.4379;0.6477;
478.8000;0.4379;0.6428;
479.1000;0.4420;0.6501;
479.4000;0.4387;0.6453;
479.7000;0.4371;0.6453;
480.0000;0.4387;0.6404;
480.3000;0.4379;0.6404;
480.6000;0.4404;0.6428;
480.9000;0.4396;0.6428;
481.2000;0.4387;0.6453;
481.5000;0.4387;0.6501;
481.8000;0.4371;0.6453;
482.1000;0.4363;0.6428;
482.4000;0.4387;0.6477;
482.7000;0.4436;0.6575;
483.0000;0.4387;0.6428;
483.3000;0.4379;0.6453;
483.6000;0.4371;0.6477;
483.9000;0.4396;0.6526;
484.2000;0.4404;0.6477;
484.5000;0.4396;0.6501;
484.8000;0.4387;0.6501;
485.1000;0.4387;0.6550;
485.4000;0.4396;0.6550;
485.7000;0.4404;0.6550;
486.0000;0.4387;0.6428;
486.3000;0.4396;0.6453;
486.6000;0.4412;0.6477;
486.9000;0.4371;0.6453;
487.2000;0.4371;0.6380;
487.5000;0.4412;0.6477;
487.8000;0.4387;0.6404;
488.1000;0.4396;0.6453;
488.4000;0.4396;0.6428;
488.7000;0.4379;0.6453;
489.0000;0.4371;0.6550;
489.3000;0.4355;0.6477;
489.6000;0.4396;0.6648;
489.9000;0.4387;0.6550;
490.2000;0.4339;0.6428;
490.5000;0.4371;0.6453;
490.8000;0.4396;0.6453;
491.1000;0.4355;0.6355;
491.4000;0.4387;0.6477;
491.7000;0.4387;0.6380;
492.0000;0.4371;0.6380;
492.3000;0.4387;0.6428;
492.6000;0.4387;0.6453;
492.9000;0.4371;0.6501;
493.2000;0.4396;0.6526;
493.5000;0.4387;0.6550;
493.8000;0.4379;0.6550;
494.1000;0.4428;0.6648;
494.4000;0.4363;0.6453;
494.7000;0.4387;0.6404;
495.0000;0.4379;0.6355;
495.3000;0.4436;0.6477;
495.6000;0.4379;0.6380;
495.9000;0.4387;0.6355;
496.2000;0.4363;0.6307;
496.5000;0.4387;0.6355;
496.8000;0.4371;0.6307;
497.1000;0.4379;0.6380;
497.4000;0.4379;0.6404;
497.7000;0.4387;0.6428;
498.0000;0.4379;0.6404;
498.3000;0.4396;0.6380;
498.6000;0.4404;0.6428;
498.9000;0.4396;0.6404;
499.2000;0.4396;0.6380;
499.5000;0.4306;0.6136;
499.8000;0.4387;0.6355;
500.1000;0.4387;0.6428;
500.4000;0.4387;0.6526;
500.7000;0.4396;0.6575;
501.0000;0.4420;0.6623;
501.3000;0.4379;0.6599;
501.6000;0.4420;0.6696;
501.9000;0.4396;0.6623;
502.2000;0.4396;0.6599;
502.5000;0.4387;0.6575;
502.8000;0.4387;0.6599;
503.1000;0.4396;0.6501;
503.4000;0.4387;0.6623;
503.7000;0.4387;0.6623;
504.0000;0.4387;0.6599;
504.3000;0.4298;0.6355;
504.6000;0.4355;0.6501;
504.9000;0.4387;0.6575;
505.2000;0.4387;0.6623;
505.5000;0.4412;0.6672;
505.8000;0.4404;0.6721;
506.1000;0.4412;0.6696;
506.4000;0.4387;0.6745;
506.7000;0.4396;0.6672;
507.0000;0.4387;0.6672;
507.3000;0.4404;0.6696;
507.6000;0.4379;0.6623;
507.9000;0.4379;0.6672;
508.2000;0.4387;0.6696;
508.5000;0.4363;0.6599;
508.8000;0.4371;0.6575;
509.1000;0.4436;0.6769;
509.4000;0.4396;0.6696;
509.7000;0.4387;0.6721;
510.0000;0.4379;0.6623;
510.3000;0.4396;0.6696;
510.6000;0.4387;0.6623;
510.9000;0.4371;0.6428;
511.2000;0.4387;0.6477;
511.5000;0.4363;0.6501;
511.8000;0.4379;0.6501;
512.1000;0.4379;0.6428;
512.4000;0.4387;0.6477;
512.7000;0.4379;0.6501;
513.0000;0.4396;0.6575;
513.3000;0.4404;0.6599;
513.6000;0.4355;0.6477;
513.9000;0.4355;0.6550;
514.2000;0.4396;0.6648;
514.5000;0.4379;0.6550;
514.8000;0.4379;0.6501;
515.1000;0.4371;0.6550;
515.4000;0.4339;0.6501;
515.7000;0.4396;0.6623;
516.0000;0.4379;0.6575;
516.3000;0.4412;0.6648;
516.6000;0.4371;0.6599;
516.9000;0.4396;0.6696;
517.2000;0.4428;0.6745;
517.5000;0.4371;0.6623;
517.8000;0.4387;0.6648;
518.1000;0.4396;0.6623;
518.4000;0.4396;0.6623;
518.7000;0.4379;0.6599;
519.0000;0.4371;0.6672;
519.3000;0.4387;0.6696;
519.6000;0.4387;0.6672;
519.9000;0.4387;0.6623;
520.2000;0.4387;0.6599;
520.5000;0.4379;0.6623;
520.8000;0.4412;0.6648;
521.1000;0.4396;0.6623;
521.4000;0.4363;0.6477;
521.7000;0.4371;0.6501;
522.0000;0.4379;0.6575;
522.3000;0.4420;0.6721;
522.6000;0.4396;0.6721;
522.9000;0.4371;0.6672;
523.2000;0.4379;0.6623;
523.5000;0.4355;0.6526;
523.8000;0.4379;0.6672;
524.1000;0.4379;0.6672;
524.4000;0.4387;0.6769;
524.7000;0.4387;0.6745;
525.0000;0.4371;0.6672;
525.3000;0.4363;0.6648;
525.6000;0.4355;0.6623;
525.9000;0.4379;0.6696;
526.2000;0.4379;0.6672;
526.5000;0.4379;0.6672;
526.8000;0.4387;0.6745;
527.1000;0.4453;0.6988;
527.4000;0.4363;0.6769;
527.7000;0.4404;0.6721;
528.0000;0.4379;0.6672;
528.3000;0.4339;0.6575;
528.6000;0.4396;0.6769;
528.9000;0.4379;0.6721;
529.2000;0.4412;0.6745;
529.5000;0.4387;0.6769;
529.8000;0.4396;0.6769;
530.1000;0.4404;0.6696;
530.4000;0.4379;0.6575;
530.7000;0.4387;0.6623;
531.0000;0.4314;0.6428;
531.3000;0.4412;0.6672;
531.6000;0.4420;0.6648;
531.9000;0.4396;0.6599;
532.2000;0.4387;0.6501;
532.5000;0.4387;0.6501;
532.8000;0.4387;0.6599;
533.1000;0.4412;0.6575;
533.4000;0.4396;0.6575;
533.7000;0.4404;0.6648;
534.0000;0.4379;0.6575;
534.3000;0.4396;0.6575;
534.6000;0.4396;0.6575;
534.9000;0.4396;0.6550;
535.2000;0.4387;0.6526;
535.5000;0.4420;0.6623;
535.8000;0.4363;0.6477;
536.1000;0.4387;0.6526;
536.4000;0.4396;0.6550;
536.7000;0.4387;0.6501;
537.0000;0.4387;0.6526;
537.3000;0.4371;0.6501;
537.6000;0.4387;0.6550;
537.9000;0.4387;0.6526;
538.2000;0.4396;0.6599;
538.5000;0.4339;0.6428;
538.8000;0.4379;0.6575;
539.1000;0.4404;0.6575;
539.4000;0.4396;0.6599;
539.7000;0.4371;0.6477;
540.0000;0.4412;0.6501;
540.3000;0.4347;0.6307;
540.6000;0.4371;0.6404;
540.9000;0.4387;0.6428;
541.2000;0.4396;0.6477;
541.5000;0.4379;0.6575;
541.8000;0.4379;0.6575;
542.1000;0.4379;0.6599;
542.4000;0.4387;0.6648;
542.7000;0.4501;0.6891;
543.0000;0.4396;0.6575;
543.3000;0.4387;0.6575;
543.6000;0.4412;0.6623;
543.9000;0.4379;0.6599;
544.2000;0.4371;0.6623;
544.5000;0.4396;0.6648;
544.8000;0.4330;0.6599;
545.1000;0.4363;0.6769;
545.4000;0.4347;0.6745;
545.7000;0.4371;0.6842;
546.0000;0.4387;0.6769;
546.3000;0.4412;0.6769;
546.6000;0.4412;0.6769;
546.9000;0.4379;0.6745;
547.2000;0.4330;0.6648;
547.5000;0.4387;0.6769;
547.8000;0.4379;0.6721;
548.1000;0.4404;0.6745;
548.4000;0.4404;0.6745;
548.7000;0.4396;0.6769;
549.0000;0.4387;0.6672;
549.3000;0.4404;0.6672;
549.6000;0.4363;0.6526;
549.9000;0.4363;0.6526;
550.2000;0.4371;0.6623;
550.5000;0.4387;0.6672;
550.8000;0.4339;0.6599;
551.1000;0.4363;0.6721;
551.4000;0.4363;0.6769;
551.7000;0.4387;0.6818;
552.0000;0.4363;0.6696;
552.3000;0.4371;0.6672;
552.6000;0.4453;0.6794;
552.9000;0.4371;0.6575;
553.2000;0.4371;0.6550;
553.5000;0.4363;0.6599;
553.8000;0.4371;0.6623;
554.1000;0.4404;0.6721;
554.4000;0.4387;0.6672;
554.7000;0.4371;0.6745;
555.0000;0.4379;0.6623;
555.3000;0.4404;0.6599;
555.6000;0.4453;0.6745;
555.9000;0.4387;0.6550;
556.2000;0.4404;0.6526;
556.5000;0.4371;0.6404;
556.8000;0.4387;0.6404;
557.1000;0.4387;0.6453;
557.4000;0.4371;0.6380;
557.7000;0.4404;0.6428;
558.0000;0.4412;0.6477;
558.3000;0.4355;0.6404;
558.6000;0.4379;0.6404;
558.9000;0.4379;0.6477;
559.2000;0.4387;0.6526;
559.5000;0.4355;0.6501;
559.8000;0.4379;0.6575;
560.1000;0.4371;0.6477;
560.4000;0.4412;0.6672;
560.7000;0.4387;0.6550;
561.0000;0.4371;0.6526;
561.3000;0.4379;0.6501;
561.6000;0.4396;0.6575;
561.9000;0.4379;0.6550;
562.2000;0.4371;0.6575;
562.5000;0.4379;0.6623;
562.8000;0.4371;0.6550;
563.1000;0.4404;0.6648;
563.4000;0.4469;0.6745;
563.7000;0.4396;0.6575;
564.0000;0.4412;0.6672;
564.3000;0.4428;0.6648;
564.6000;0.4379;0.6526;
564.9000;0.4387;0.6501;
565.2000;0.4339;0.6380;
565.5000;0.4387;0.6501;
565.8000;0.4396;0.6526;
566.1000;0.4371;0.6526;
566.4000;0.4371;0.6453;
566.7000;0.4412;0.6575;
567.0000;0.4314;0.6453;
567.3000;0.4387;0.6623;
567.6000;0.4387;0.6648;
567.9000;0.4355;0.6599;
568.2000;0.4404;0.6745;
568.5000;0.4387;0.6721;
568.8000;0.4412;0.6721;
569.1000;0.4396;0.6623;
569.4000;0.4412;0.6648;
569.7000;0.4371;0.6453;
570.0000;0.4387;0.6575;
570.3000;0.4387;0.6575;
570.6000;0.4379;0.6526;
570.9000;0.4469;0.6818;
571.2000;0.4379;0.6623;
571.5000;0.4379;0.6575;
571.8000;0.4371;0.6599;
572.1000;0.4379;0.6648;
572.4000;0.4363;0.6623;
572.7000;0.4396;0.6623;
573.0000;0.4444;0.6696;
573.3000;0.4371;0.6623;
573.6000;0.4347;0.6526;
573.9000;0.4387;0.6623;
574.2000;0.4363;0.6575;
574.5000;0.4379;0.6526;
574.8000;0.4379;0.6575;
575.1000;0.4371;0.6648;
575.4000;0.4363;0.6648;
575.7000;0.4379;0.6648;
576.0000;0.4379;0.6575;
576.3000;0.4371;0.6550;
576.6000;0.4396;0.6745;
576.9000;0.4396;0.6769;
577.2000;0.4387;0.6842;
577.5000;0.4371;0.6745;
577.8000;0.4387;0.6721;
578.1000;0.4371;0.6721;
578.4000;0.4371;0.6818;
578.7000;0.4379;0.6696;
579.0000;0.4396;0.6745;
579.3000;0.4396;0.6721;
579.6000;0.4379;0.6623;
579.9000;0.4379;0.6623;
580.2000;0.4396;0.6623;
580.5000;0.4396;0.6648;
580.8000;0.4396;0.6672;
581.1000;0.4420;0.6745;
581.4000;0.4387;0.6672;
581.7000;0.4371;0.6623;
582.0000;0.4436;0.6842;
582.3000;0.4363;0.6769;
582.6000;0.4396;0.6721;
582.9000;0.4371;0.6648;
583.2000;0.4396;0.6672;
583.5000;0.4404;0.6721;
583.8000;0.4379;0.6721;
584.1000;0.4363;0.6672;
584.4000;0.4387;0.6648;
584.7000;0.4371;0.6526;
585.0000;0.4379;0.6428;
585.3000;0.4379;0.6453;
585.6000;0.4371;0.6501;
585.9000;0.4396;0.6526;
586.2000;0.4371;0.6404;
586.5000;0.4363;0.6355;
586.8000;0.4371;0.6477;
587.1000;0.4371;0.6428;
587.4000;0.4371;0.6575;
587.7000;0.4387;0.6623;
588.0000;0.4371;0.6599;
588.3000;0.4363;0.6599;
588.6000;0.4379;0.6550;
588.9000;0.4371;0.6380;
589.2000;0.4363;0.6404;
589.5000;0.4396;0.6355;
589.8000;0.4404;0.6428;
590.1000;0.4387;0.6453;
590.4000;0.4371;0.6428;
590.7000;0.4379;0.6428;
591.0000;0.4379;0.6550;
591.3000;0.4379;0.6623;
591.6000;0.4387;0.6672;
591.9000;0.4387;0.6696;
592.2000;0.4371;0.6648;
592.5000;0.4404;0.6696;
592.8000;0.4387;0.6623;
593.1000;0.4387;0.6550;
593.4000;0.4387;0.6501;
593.7000;0.4379;0.6526;
594.0000;0.4363;0.6526;
594.3000;0.4363;0.6575;
594.6000;0.4371;0.6550;
594.9000;0.4371;0.6623;
595.2000;0.4387;0.6575;
595.5000;0.4379;0.6526;
595.8000;0.4371;0.6526;
596.1000;0.4379;0.6672;
596.4000;0.4371;0.6575;
596.7000;0.4387;0.6599;
597.0000;0.4379;0.6599;
597.3000;0.4387;0.6648;
597.6000;0.4379;0.6672;
597.9000;0.4387;0.6672;
598.2000;0.4387;0.6648;
598.5000;0.4371;0.6623;
598.8000;0.4420;0.6696;
599.1000;0.4371;0.6623;
599.4000;0.4387;0.6672;
599.7000;0.4428;0.6769;
600.0000;0.4436;0.6721;
600.3000;0.4379;0.6428;
600.6000;0.4387;0.6307;
600.9000;0.4363;0.6258;
601.2000;0.4387;0.6185;
601.5000;0.4330;0.6039;
601.8000;0.4330;0.5990;
602.1000;0.4314;0.5747;
602.4000;0.4290;0.5601;
602.7000;0.4274;0.5430;
603.0000;0.4265;0.5284;
603.3000;0.4233;0.5114;
603.6000;0.4217;0.4992;
603.9000;0.4200;0.4870;
604.2000;0.4184;0.4797;
604.5000;0.4160;0.4821;
604.8000;0.4241;0.5040;
605.1000;0.4151;0.4748;
605.4000;0.4135;0.4602;
605.7000;0.4135;0.4602;
606.0000;0.4086;0.4456;
606.3000;0.4111;0.4432;
606.6000;0.4094;0.4310;
606.9000;0.4086;0.4286;
607.2000;0.4070;0.4237;
607.5000;0.4111;0.4407;
607.8000;0.4062;0.4310;
608.1000;0.4029;0.4213;
608.4000;0.4029;0.4188;
608.7000;0.4054;0.4237;
609.0000;0.4021;0.4115;
609.3000;0.4046;0.4164;
609.6000;0.4013;0.4164;
609.9000;0.4005;0.4188;
610.2000;0.3948;0.4091;
610.5000;0.4037;0.4310;
610.8000;0.3956;0.4115;
611.1000;0.3964;0.4091;
611.4000;0.3972;0.4018;
611.7000;0.3989;0.3945;
612.0000;0.3956;0.3920;
612.3000;0.3964;0.4018;
612.6000;0.3972;0.4042;
612.9000;0.3940;0.3969;
613.2000;0.3964;0.3993;
613.5000;0.3980;0.4018;
613.8000;0.3964;0.4018;
614.1000;0.3972;0.4115;
614.4000;0.3940;0.4042;
614.7000;0.3932;0.4091;
615.0000;0.3940;0.4091;
615.3000;0.3915;0.4042;
615.6000;0.3956;0.4140;
615.9000;0.3915;0.3993;
616.2000;0.3875;0.3799;
616.5000;0.3899;0.3750;
616.8000;0.3899;0.3701;
617.1000;0.3891;0.3726;
617.4000;0.3899;0.3726;
617.7000;0.3891;0.3750;
618.0000;0.3875;0.3628;
618.3000;0.3891;0.3677;
618.6000;0.3875;0.3531;
618.9000;0.3875;0.3555;
619.2000;0.3875;0.3653;
619.5000;0.3858;0.3701;
619.8000;0.3883;0.3847;
620.1000;0.3875;0.3872;
620.4000;0.3818;0.3799;
620.7000;0.3858;0.3799;
621.0000;0.3858;0.3750;
621.3000;0.3834;0.3726;
621.6000;0.3826;0.3774;
621.9000;0.3826;0.3799;
622.2000;0.3818;0.3774;
622.5000;0.3826;0.3726;
622.8000;0.3842;0.3653;
623.1000;0.3818;0.3628;
623.4000;0.3834;0.3579;
623.7000;0.3810;0.3531;
624.0000;0.3810;0.3506;
624.3000;0.3810;0.3531;
624.6000;0.3801;0.3531;
624.9000;0.3801;0.3628;
625.2000;0.3810;0.3726;
625.5000;0.3818;0.3799;
625.8000;0.3810;0.3847;
626.1000;0.3785;0.3799;
626.4000;0.3785;0.3823;
626.7000;0.3728;0.3750;
627.0000;0.3793;0.3823;
627.3000;0.3777;0.3823;
627.6000;0.3777;0.3726;
627.9000;0.3777;0.3774;
628.2000;0.3785;0.3823;
628.5000;0.3769;0.3653;
628.8000;0.3761;0.3628;
629.1000;0.3793;0.3701;
629.4000;0.3777;0.3677;
629.7000;0.3761;0.3628;
630.0000;0.3769;0.3653;
630.3000;0.3785;0.3653;
630.6000;0.3761;0.3677;
630.9000;0.3761;0.3604;
631.2000;0.3736;0.3555;
631.5000;0.3696;0.3360;
631.8000;0.3728;0.3482;
632.1000;0.3728;0.3555;
632.4000;0.3712;0.3628;
632.7000;0.3736;0.3653;
633.0000;0.3744;0.3653;
633.3000;0.3744;0.3701;
633.6000;0.3720;0.3628;
633.9000;0.3720;0.3653;
634.2000;0.3720;0.3653;
634.5000;0.3736;0.3701;
634.8000;0.3712;0.3677;
635.1000;0.3720;0.3579;
635.4000;0.3744;0.3579;
635.7000;0.3720;0.3506;
636.0000;0.3753;0.3579;
636.3000;0.3736;0.3531;
636.6000;0.3712;0.3604;
636.9000;0.3736;0.3677;
637.2000;0.3793;0.3847;
637.5000;0.3720;0.3628;
637.8000;0.3704;0.3579;
638.1000;0.3720;0.3653;
638.4000;0.3720;0.3701;
638.7000;0.3704;0.3701;
639.0000;0.3712;0.3677;
639.3000;0.3712;0.3726;
639.6000;0.3704;0.3604;
639.9000;0.3606;0.3239;
640.2000;0.3728;0.3555;
640.5000;0.3712;0.3506;
640.8000;0.3663;0.3433;
641.1000;0.3696;0.3555;
641.4000;0.3671;0.3555;
641.7000;0.3777;0.3847;
642.0000;0.3696;0.3677;
642.3000;0.3712;0.3799;
642.6000;0.3622;0.3628;
642.9000;0.3671;0.3774;
643.2000;0.3696;0.3847;
643.5000;0.3679;0.3701;
643.8000;0.3687;0.3726;
644.1000;0.3679;0.3726;
644.4000;0.3655;0.3677;
644.7000;0.3647;0.3628;
645.0000;0.3687;0.3701;
645.3000;0.3679;0.3677;
645.6000;0.3679;0.3726;
645.9000;0.3704;0.3750;
646.2000;0.3679;0.3677;
646.5000;0.3679;0.3628;
646.8000;0.3663;0.3579;
647.1000;0.3679;0.3555;
647.4000;0.3679;0.3482;
647.7000;0.3671;0.3506;
648.0000;0.3679;0.3579;
648.3000;0.3663;0.3628;
648.6000;0.3671;0.3604;
648.9000;0.3655;0.3628;
649.2000;0.3647;0.3604;
649.5000;0.3704;0.3726;
649.8000;0.3671;0.3677;
650.1000;0.3639;0.3555;
650.4000;0.3647;0.3628;
650.7000;0.3663;0.3653;
651.0000;0.3630;0.3604;
651.3000;0.3663;0.3726;
651.6000;0.3647;0.3750;
651.9000;0.3655;0.3750;
652.2000;0.3639;0.3750;
652.5000;0.3679;0.3799;
652.8000;0.3639;0.3677;
653.1000;0.3671;0.3750;
653.4000;0.3647;0.3653;
653.7000;0.3647;0.3701;
654.0000;0.3663;0.3799;
654.3000;0.3606;0.3750;
654.6000;0.3622;0.3823;
654.9000;0.3614;0.3847;
655.2000;0.3639;0.3799;
655.5000;0.3622;0.3701;
655.8000;0.3622;0.3726;
656.1000;0.3630;0.3799;
656.4000;0.3622;0.3750;
656.7000;0.3622;0.3750;
657.0000;0.3606;0.3701;
657.3000;0.3630;0.3750;
657.6000;0.3598;0.3604;
657.9000;0.3614;0.3653;
658.2000;0.3663;0.3750;
658.5000;0.3647;0.3701;
658.8000;0.3622;0.3726;
659.1000;0.3622;0.3774;
659.4000;0.3590;0.3750;
659.7000;0.3606;0.3847;
660.0000;0.3630;0.3945;
660.3000;0.3696;0.4018;
660.6000;0.3639;0.3799;
660.9000;0.3630;0.3799;
661.2000;0.3590;0.3701;
661.5000;0.3557;0.3653;
661.8000;0.3630;0.3920;
662.1000;0.3614;0.3872;
662.4000;0.3630;0.3872;
662.7000;0.3630;0.3872;
663.0000;0.3606;0.3799;
663.3000;0.3639;0.3847;
663.6000;0.3639;0.3823;
663.9000;0.3622;0.3823;
664.2000;0.3614;0.3774;
664.5000;0.3590;0.3726;
664.8000;0.3606;0.3677;
665.1000;0.3614;0.3653;
665.4000;0.3549;0.3482;
665.7000;0.3630;0.3726;
666.0000;0.3565;0.3677;
666.3000;0.3622;0.3774;
666.6000;0.3630;0.3774;
666.9000;0.3614;0.3799;
667.2000;0.3630;0.3799;
667.5000;0.3622;0.3799;
667.8000;0.3590;0.3653;
668.1000;0.3614;0.3726;
668.4000;0.3614;0.3726;
668.7000;0.3590;0.3774;
669.0000;0.3598;0.3872;
669.3000;0.3590;0.3872;
669.6000;0.3590;0.3847;
669.9000;0.3598;0.3847;
670.2000;0.3590;0.3799;
670.5000;0.3590;0.3847;
670.8000;0.3590;0.3896;
671.1000;0.3565;0.3799;
671.4000;0.3582;0.3774;
671.7000;0.3590;0.3701;
672.0000;0.3582;0.3677;
672.3000;0.3565;0.3701;
672.6000;0.3590;0.3774;
672.9000;0.3582;0.3726;
673.2000;0.3590;0.3750;
673.5000;0.3582;0.3677;
673.8000;0.3606;0.3677;
674.1000;0.3590;0.3750;
674.4000;0.3598;0.3774;
674.7000;0.3565;0.3750;
675.0000;0.3598;0.3799;
675.3000;0.3573;0.3823;
675.6000;0.3573;0.3799;
675.9000;0.3573;0.3774;
676.2000;0.3573;0.3726;
676.5000;0.3582;0.3701;
676.8000;0.3573;0.3653;
677.1000;0.3590;0.3750;
677.4000;0.3541;0.3653;
677.7000;0.3582;0.3677;
678.0000;0.3565;0.3677;
678.3000;0.3565;0.3726;
678.6000;0.3573;0.3701;
678.9000;0.3590;0.3653;
679.2000;0.3614;0.3701;
679.5000;0.3614;0.3677;
679.8000;0.3549;0.3531;
680.1000;0.3541;0.3555;
680.4000;0.3565;0.3750;
680.7000;0.3582;0.3653;
681.0000;0.3557;0.3604;
681.3000;0.3590;0.3677;
681.6000;0.3582;0.3653;
681.9000;0.3557;0.3628;
682.2000;0.3622;0.3896;
682.5000;0.3565;0.3774;
682.8000;0.3557;0.3774;
683.1000;0.3549;0.3750;
683.4000;0.3557;0.3750;
683.7000;0.3549;0.3799;
684.0000;0.3598;0.3945;
684.3000;0.3557;0.3823;
684.6000;0.3557;0.3823;
684.9000;0.3557;0.3799;
685.2000;0.3549;0.3726;
685.5000;0.3557;0.3701;
685.8000;0.3541;0.3653;
686.1000;0.3557;0.3653;
686.4000;0.3573;0.3726;
686.7000;0.3582;0.3677;
687.0000;0.3541;0.3677;
687.3000;0.3549;0.3677;
687.6000;0.3533;0.3726;
687.9000;0.3565;0.3774;
688.2000;0.3557;0.3677;
688.5000;0.3549;0.3604;
688.8000;0.3565;0.3701;
689.1000;0.3557;0.3701;
689.4000;0.3541;0.3628;
689.7000;0.3541;0.3653;
690.0000;0.3500;0.3555;
690.3000;0.3557;0.3653;
690.6000;0.3557;0.3628;
690.9000;0.3533;0.3579;
691.2000;0.3533;0.3604;
691.5000;0.3541;0.3653;
691.8000;0.3557;0.3604;
692.1000;0.3541;0.3555;
692.4000;0.3533;0.3628;
692.7000;0.3598;0.3799;
693.0000;0.3533;0.3677;
693.3000;0.3549;0.3628;
693.6000;0.3541;0.3653;
693.9000;0.3541;0.3750;
694.2000;0.3557;0.3799;
694.5000;0.3516;0.3677;
694.8000;0.3541;0.3774;
695.1000;0.3533;0.3726;
695.4000;0.3541;0.3774;
695.7000;0.3565;0.3799;
696.0000;0.3525;0.3774;
696.3000;0.3525;0.3774;
696.6000;0.3533;0.3750;
696.9000;0.3460;0.3555;
697.2000;0.3541;0.3701;
697.5000;0.3541;0.3677;
697.8000;0.3508;0.3653;
698.1000;0.3525;0.3774;
698.4000;0.3525;0.3774;
698.7000;0.3565;0.3896;
699.0000;0.3533;0.3799;
699.3000;0.3525;0.3774;
699.6000;0.3533;0.3774;
699.9000;0.3525;0.3774;
700.2000;0.3549;0.3677;
700.5000;0.3516;0.3482;
700.8000;0.3557;0.3579;
701.1000;0.3525;0.3579;
701.4000;0.3565;0.3677;
701.7000;0.3508;0.3628;
702.0000;0.3525;0.3750;
702.3000;0.3549;0.3823;
702.6000;0.3516;0.3799;
702.9000;0.3508;0.3774;
703.2000;0.3533;0.3823;
703.5000;0.3525;0.3750;
703.8000;0.3516;0.3750;
704.1000;0.3516;0.3774;
704.4000;0.3525;0.3847;
704.7000;0.3533;0.3896;
705.0000;0.3525;0.3872;
705.3000;0.3533;0.3774;
705.6000;0.3508;0.3726;
705.9000;0.3533;0.3847;
706.2000;0.3525;0.3774;
706.5000;0.3516;0.3726;
706.8000;0.3533;0.3701;
707.1000;0.3516;0.3750;
707.4000;0.3508;0.3653;
707.7000;0.3516;0.3774;
708.0000;0.3516;0.3847;
708.3000;0.3525;0.3823;
708.6000;0.3525;0.3774;
708.9000;0.3516;0.3701;
709.2000;0.3525;0.3726;
709.5000;0.3541;0.3823;
709.8000;0.3533;0.3726;
710.1000;0.3525;0.3701;
710.4000;0.3516;0.3677;
710.7000;0.3541;0.3726;
711.0000;0.3508;0.3628;
711.3000;0.3508;0.3653;
711.6000;0.3508;0.3531;
711.9000;0.3525;0.3604;
712.2000;0.3533;0.3653;
712.5000;0.3476;0.3506;
712.8000;0.3590;0.3920;
713.1000;0.3533;0.3750;
713.4000;0.3525;0.3774;
713.7000;0.3525;0.3774;
714.0000;0.3557;0.3799;
714.3000;0.3508;0.3750;
714.6000;0.3525;0.3774;
714.9000;0.3565;0.3847;
715.2000;0.3516;0.3726;
715.5000;0.3525;0.3677;
715.8000;0.3500;0.3701;
716.1000;0.3508;0.3701;
716.4000;0.3508;0.3628;
716.7000;0.3500;0.3555;
717.0000;0.3484;0.3628;
717.3000;0.3516;0.3726;
717.6000;0.3525;0.3823;
717.9000;0.3516;0.3823;
718.2000;0.3541;0.3799;
718.5000;0.3500;0.3701;
718.8000;0.3492;0.3750;
719.1000;0.3516;0.3847;
719.4000;0.3508;0.3847;
719.7000;0.3460;0.3750;
720.0000;0.3492;0.3823;
720.3000;0.3516;0.3896;
720.6000;0.3541;0.3969;
720.9000;0.3516;0.3872;
721.2000;0.3516;0.3896;
721.5000;0.3525;0.3847;
721.8000;0.3508;0.3799;
722.1000;0.3525;0.3774;
722.4000;0.3508;0.3774;
722.7000;0.3533;0.3750;
723.0000;0.3492;0.3677;
723.3000;0.3500;0.3653;
723.6000;0.3525;0.3726;
723.9000;0.3500;0.3750;
724.2000;0.3508;0.3750;
724.5000;0.3525;0.3750;
724.8000;0.3500;0.3677;
725.1000;0.3533;0.3774;
725.4000;0.3516;0.3774;
725.7000;0.3492;0.3726;
726.0000;0.3500;0.3799;
726.3000;0.3508;0.3847;
726.6000;0.3492;0.3677;
726.9000;0.3492;0.3726;
727.2000;0.3508;0.3653;
727.5000;0.3500;0.3677;
727.8000;0.3484;0.3579;
728.1000;0.3508;0.3726;
728.4000;0.3500;0.3653;
728.7000;0.3508;0.3677;
729.0000;0.3508;0.3774;
729.3000;0.3500;0.3726;
729.6000;0.3508;0.3774;
729.9000;0.3468;0.3677;
730.2000;0.3492;0.3799;
730.5000;0.3500;0.3701;
730.8000;0.3492;0.3653;
731.1000;0.3508;0.3726;
731.4000;0.3508;0.3774;
731.7000;0.3533;0.3823;
732.0000;0.3492;0.3774;
732.3000;0.3508;0.3823;
732.6000;0.3525;0.3896;
732.9000;0.3508;0.3945;
733.2000;0.3492;0.3945;
733.5000;0.3500;0.3945;
733.8000;0.3508;0.3969;
734.1000;0.3443;0.3823;
734.4000;0.3492;0.3920;
734.7000;0.3468;0.3896;
735.0000;0.3492;0.3920;
735.3000;0.3476;0.3872;
735.6000;0.3492;0.3872;
735.9000;0.3492;0.3872;
736.2000;0.3508;0.3847;
736.5000;0.3533;0.3945;
736.8000;0.3492;0.3945;
737.1000;0.3492;0.4018;
737.4000;0.3500;0.4066;
737.7000;0.3500;0.4018;
738.0000;0.3508;0.4066;
738.3000;0.3516;0.4066;
738.6000;0.3484;0.4042;
738.9000;0.3484;0.4042;
739.2000;0.3500;0.4018;
739.5000;0.3516;0.3993;
739.8000;0.3549;0.4164;
740.1000;0.3460;0.3969;
740.4000;0.3516;0.4140;
740.7000;0.3508;0.4066;
741.0000;0.3516;0.4018;
741.3000;0.3508;0.4018;
741.6000;0.3492;0.3920;
741.9000;0.3508;0.3945;
742.2000;0.3484;0.3872;
742.5000;0.3460;0.3774;
742.8000;0.3508;0.3847;
743.1000;0.3492;0.3750;
743.4000;0.3476;0.3750;
743.7000;0.3500;0.3799;
744.0000;0.3508;0.3774;
744.3000;0.3500;0.3750;
744.6000;0.3492;0.3726;
744.9000;0.3484;0.3677;
745.2000;0.3500;0.3726;
745.5000;0.3476;0.3726;
745.8000;0.3500;0.3774;
746.1000;0.3508;0.3799;
746.4000;0.3500;0.3750;
746.7000;0.3508;0.3799;
747.0000;0.3492;0.3774;
747.3000;0.3492;0.3823;
747.6000;0.3492;0.3872;
747.9000;0.3468;0.3872;
748.2000;0.3484;0.3896;
748.5000;0.3476;0.3945;
748.8000;0.3484;0.3920;
749.1000;0.3419;0.3653;
749.4000;0.3476;0.3750;
749.7000;0.3500;0.3823;
750.0000;0.3516;0.3896;
750.3000;0.3484;0.3847;
750.6000;0.3500;0.3847;
750.9000;0.3533;0.4018;
751.2000;0.3500;0.3896;
751.5000;0.3492;0.3847;
751.8000;0.3500;0.3823;
752.1000;0.3500;0.3799;
752.4000;0.3484;0.3750;
752.7000;0.3484;0.3653;
753.0000;0.3484;0.3653;
753.3000;0.3492;0.3701;
753.6000;0.3500;0.3677;
753.9000;0.3492;0.3677;
754.2000;0.3484;0.3677;
754.5000;0.3500;0.3701;
754.8000;0.3484;0.3677;
755.1000;0.3508;0.3750;
755.4000;0.3500;0.3799;
755.7000;0.3500;0.3726;
756.0000;0.3500;0.3823;
756.3000;0.3492;0.3774;
756.6000;0.3492;0.3726;
756.9000;0.3500;0.3726;
757.2000;0.3508;0.3726;
757.5000;0.3468;0.3653;
757.8000;0.3492;0.3701;
758.1000;0.3492;0.3750;
758.4000;0.3411;0.3531;
758.7000;0.3435;0.3579;
759.0000;0.3492;0.3677;
759.3000;0.3492;0.3677;
759.6000;0.3460;0.3677;
759.9000;0.3484;0.3799;
760.2000;0.3508;0.3896;
760.5000;0.3468;0.3872;
760.8000;0.3476;0.3896;
761.1000;0.3508;0.3969;
761.4000;0.3460;0.3823;
761.7000;0.3492;0.3920;
762.0000;0.3492;0.3896;
762.3000;0.3476;0.3701;
762.6000;0.3476;0.3604;
762.9000;0.3411;0.3458;
763.2000;0.3468;0.3579;
763.5000;0.3468;0.3555;
763.8000;0.3492;0.3628;
764.1000;0.3484;0.3579;
764.4000;0.3516;0.3653;
764.7000;0.3500;0.3701;
765.0000;0.3484;0.3701;
765.3000;0.3484;0.3701;
765.6000;0.3492;0.3726;
765.9000;0.3516;0.3847;
766.2000;0.3484;0.3750;
766.5000;0.3500;0.3823;
766.8000;0.3492;0.3847;
767.1000;0.3500;0.3872;
767.4000;0.3435;0.3750;
767.7000;0.3468;0.3872;
768.0000;0.3460;0.3945;
768.3000;0.3508;0.4018;
768.6000;0.3476;0.3920;
768.9000;0.3484;0.3896;
769.2000;0.3476;0.3872;
769.5000;0.3500;0.3872;
769.8000;0.3460;0.3701;
770.1000;0.3484;0.3726;
770.4000;0.3460;0.3799;
770.7000;0.3484;0.3726;
771.0000;0.3516;0.3774;
771.3000;0.3468;0.3701;
771.6000;0.3484;0.3653;
771.9000;0.3508;0.3701;
772.2000;0.3484;0.3653;
772.5000;0.3460;0.3653;
772.8000;0.3451;0.3677;
773.1000;0.3476;0.3701;
773.4000;0.3500;0.3774;
773.7000;0.3476;0.3726;
774.0000;0.3427;0.3628;
774.3000;0.3468;0.3653;
774.6000;0.3500;0.3701;
774.9000;0.3492;0.3750;
775.2000;0.3533;0.3847;
775.5000;0.3492;0.3726;
775.8000;0.3492;0.3726;
776.1000;0.3500;0.3823;
776.4000;0.3476;0.3799;
776.7000;0.3468;0.3799;
777.0000;0.3492;0.3872;
777.3000;0.3484;0.3799;
777.6000;0.3460;0.3726;
777.9000;0.3492;0.3726;
778.2000;0.3468;0.3677;
778.5000;0.3484;0.3726;
778.8000;0.3468;0.3701;
779.1000;0.3443;0.3604;
779.4000;0.3484;0.3774;
779.7000;0.3500;0.3726;
780.0000;0.3476;0.3701;
780.3000;0.3468;0.3677;
780.6000;0.3468;0.3701;
780.9000;0.3484;0.3726;
781.2000;0.3484;0.3628;
781.5000;0.3525;0.3653;
781.8000;0.3451;0.3531;
782.1000;0.3492;0.3677;
782.4000;0.3492;0.3799;
782.7000;0.3508;0.3872;
783.0000;0.3468;0.3774;
783.3000;0.3484;0.3799;
783.6000;0.3460;0.3750;
783.9000;0.3468;0.3823;
784.2000;0.3460;0.3750;
784.5000;0.3403;0.3653;
784.8000;0.3484;0.3799;
785.1000;0.3468;0.3726;
785.4000;0.3468;0.3701;
785.7000;0.3484;0.3774;
786.0000;0.3484;0.3799;
786.3000;0.3484;0.3774;
786.6000;0.3460;0.3774;
786.9000;0.3516;0.3920;
787.2000;0.3451;0.3847;
787.5000;0.3468;0.3799;
787.8000;0.3468;0.3750;
788.1000;0.3468;0.3726;
788.4000;0.3484;0.3701;
788.7000;0.3476;0.3653;
789.0000;0.3443;0.3555;
789.3000;0.3451;0.3579;
789.6000;0.3427;0.3579;
789.9000;0.3484;0.3701;
790.2000;0.3484;0.3774;
790.5000;0.3492;0.3750;
790.8000;0.3484;0.3750;
791.1000;0.3500;0.3799;
791.4000;0.3476;0.3774;
791.7000;0.3476;0.3847;
792.0000;0.3460;0.3774;
792.3000;0.3508;0.3872;
792.6000;0.3411;0.3653;
792.9000;0.3468;0.3823;
793.2000;0.3476;0.3847;
793.5000;0.3476;0.3750;
793.8000;0.3468;0.3774;
794.1000;0.3460;0.3701;
794.4000;0.3468;0.3750;
794.7000;0.3476;0.3701;
795.0000;0.3460;0.3677;
795.3000;0.3403;0.3506;
795.6000;0.3468;0.3604;
795.9000;0.3468;0.3579;
796.2000;0.3484;0.3604;
796.5000;0.3484;0.3677;
796.8000;0.3468;0.3726;
797.1000;0.3476;0.3701;
797.4000;0.3460;0.3604;
797.7000;0.3460;0.3677;
798.0000;0.3460;0.3677;
798.3000;0.3460;0.3677;
798.6000;0.3476;0.3750;
798.9000;0.3460;0.3774;
799.2000;0.3451;0.3726;
799.5000;0.3476;0.3799;
799.8000;0.3476;0.3750;
800.1000;0.3525;0.3750;
800.4000;0.3468;0.3653;
800.7000;0.3476;0.3628;
801.0000;0.3484;0.3677;
801.3000;0.3484;0.3628;
801.6000;0.3476;0.3628;
801.9000;0.3468;0.3604;
802.2000;0.3468;0.3604;
802.5000;0.3516;0.3750;
802.8000;0.3492;0.3677;
803.1000;0.3468;0.3653;
803.4000;0.3484;0.3750;
803.7000;0.3484;0.3750;
804.0000;0.3476;0.3726;
804.3000;0.3451;0.3701;
804.6000;0.3468;0.3750;
804.9000;0.3476;0.3774;
805.2000;0.3484;0.3774;
805.5000;0.3468;0.3701;
805.8000;0.3484;0.3774;
806.1000;0.3484;0.3823;
806.4000;0.3484;0.3920;
806.7000;0.3508;0.3993;
807.0000;0.3500;0.3945;
807.3000;0.3476;0.3799;
807.6000;0.3525;0.3823;
807.9000;0.3492;0.3701;
808.2000;0.3476;0.3677;
808.5000;0.3484;0.3604;
808.8000;0.3484;0.3726;
809.1000;0.3484;0.3750;
809.4000;0.3411;0.3653;
809.7000;0.3468;0.3799;
810.0000;0.3492;0.3945;
810.3000;0.3484;0.3920;
810.6000;0.3484;0.3920;
810.9000;0.3476;0.3799;
811.2000;0.3484;0.3872;
811.5000;0.3484;0.3920;
811.8000;0.3541;0.3993;
812.1000;0.3476;0.3847;
812.4000;0.3443;0.3774;
812.7000;0.3476;0.3823;
813.0000;0.3476;0.3774;
813.3000;0.3468;0.3774;
813.6000;0.3476;0.3847;
813.9000;0.3484;0.3872;
814.2000;0.3476;0.3823;
814.5000;0.3525;0.3920;
814.8000;0.3468;0.3799;
815.1000;0.3460;0.3896;
815.4000;0.3516;0.4042;
815.7000;0.3468;0.3896;
816.0000;0.3476;0.3993;
816.3000;0.3460;0.4042;
816.6000;0.3443;0.3896;
816.9000;0.3468;0.3823;
817.2000;0.3476;0.3847;
817.5000;0.3468;0.3726;
817.8000;0.3468;0.3847;
818.1000;0.3476;0.3969;
818.4000;0.3476;0.4018;
818.7000;0.3460;0.3945;
819.0000;0.3460;0.4018;
819.3000;0.3460;0.4018;
819.6000;0.3460;0.4066;
819.9000;0.3468;0.4042;
820.2000;0.3476;0.3969;
820.5000;0.3484;0.3969;
820.8000;0.3476;0.3896;
821.1000;0.3460;0.3896;
821.4000;0.3525;0.4042;
821.7000;0.3484;0.3872;
822.0000;0.3468;0.3872;
822.3000;0.3533;0.3969;
822.6000;0.3476;0.3774;
822.9000;0.3468;0.3823;
823.2000;0.3468;0.3896;
823.5000;0.3476;0.3920;
823.8000;0.3468;0.3896;
824.1000;0.3476;0.3969;
824.4000;0.3460;0.3969;
824.7000;0.3476;0.3872;
825.0000;0.3460;0.3823;
825.3000;0.3476;0.3896;
825.6000;0.3492;0.4018;
825.9000;0.3443;0.3993;
826.2000;0.3476;0.3993;
826.5000;0.3419;0.3896;
826.8000;0.3468;0.3993;
827.1000;0.3484;0.4042;
827.4000;0.3468;0.3993;
827.7000;0.3476;0.3969;
828.0000;0.3476;0.4018;
828.3000;0.3476;0.4042;
828.6000;0.3460;0.3945;
828.9000;0.3451;0.3872;
829.2000;0.3476;0.3872;
829.5000;0.3565;0.4042;
829.8000;0.3468;0.3726;
830.1000;0.3451;0.3653;
830.4000;0.3476;0.3677;
830.7000;0.3468;0.3701;
831.0000;0.3476;0.3701;
831.3000;0.3435;0.3677;
831.6000;0.3582;0.3969;
831.9000;0.3468;0.3701;
832.2000;0.3451;0.3701;
832.5000;0.3484;0.3726;
832.8000;0.3460;0.3701;
833.1000;0.3451;0.3750;
833.4000;0.3451;0.3774;
833.7000;0.3468;0.3750;
834.0000;0.3492;0.3726;
834.3000;0.3541;0.3945;
834.6000;0.3411;0.3531;
834.9000;0.3468;0.3774;
835.2000;0.3451;0.3774;
835.5000;0.3460;0.3774;
835.8000;0.3468;0.3823;
836.1000;0.3476;0.3872;
836.4000;0.3460;0.3945;
836.7000;0.3484;0.3993;
837.0000;0.3492;0.4018;
837.3000;0.3476;0.3945;
837.6000;0.3484;0.4042;
837.9000;0.3468;0.4018;
838.2000;0.3484;0.4066;
838.5000;0.3476;0.3920;
838.8000;0.3468;0.3896;
839.1000;0.3460;0.3847;
839.4000;0.3476;0.3847;
839.7000;0.3484;0.3920;
840.0000;0.3468;0.3823;
840.3000;0.3451;0.3750;
840.6000;0.3460;0.3823;
840.9000;0.3484;0.3847;
841.2000;0.3476;0.3920;
841.5000;0.3460;0.3945;
841.8000;0.3476;0.3896;
842.1000;0.3484;0.4018;
842.4000;0.3484;0.4188;
842.7000;0.3476;0.4115;
843.0000;0.3476;0.4091;
843.3000;0.3500;0.4140;
843.6000;0.3476;0.4066;
843.9000;0.3460;0.4042;
844.2000;0.3476;0.4091;
844.5000;0.3443;0.4018;
844.8000;0.3460;0.3993;
845.1000;0.3451;0.3969;
845.4000;0.3451;0.3969;
845.7000;0.3460;0.4042;
846.0000;0.3484;0.4115;
846.3000;0.3468;0.3993;
846.6000;0.3460;0.3945;
846.9000;0.3468;0.3945;
847.2000;0.3460;0.3847;
847.5000;0.3451;0.3750;
847.8000;0.3476;0.3750;
848.1000;0.3468;0.3823;
848.4000;0.3435;0.3823;
848.7000;0.3460;0.3847;
849.0000;0.3460;0.3823;
849.3000;0.3460;0.3823;
849.6000;0.3476;0.3920;
849.9000;0.3476;0.3920;
850.2000;0.3460;0.3896;
850.5000;0.3468;0.3920;
850.8000;0.3451;0.3896;
851.1000;0.3468;0.3993;
851.4000;0.3516;0.4188;
851.7000;0.3468;0.3945;
852.0000;0.3476;0.4018;
852.3000;0.3460;0.4042;
852.6000;0.3484;0.4042;
852.9000;0.3541;0.4261;
853.2000;0.3476;0.4042;
853.5000;0.3492;0.4091;
853.8000;0.3427;0.3872;
854.1000;0.3468;0.3969;
854.4000;0.3460;0.3945;
854.7000;0.3500;0.3969;
855.0000;0.3492;0.3920;
855.3000;0.3460;0.3872;
855.6000;0.3443;0.3847;
855.9000;0.3451;0.4018;
856.2000;0.3443;0.3993;
856.5000;0.3443;0.3945;
856.8000;0.3451;0.3945;
857.1000;0.3468;0.3993;
857.4000;0.3500;0.4018;
857.7000;0.3484;0.3945;
858.0000;0.3460;0.3920;
858.3000;0.3468;0.3896;
858.6000;0.3492;0.3896;
858.9000;0.3468;0.3823;
859.2000;0.3435;0.3701;
859.5000;0.3419;0.3774;
859.8000;0.3468;0.3945;
860.1000;0.3468;0.3993;
860.4000;0.3476;0.3969;
860.7000;0.3435;0.3872;
861.0000;0.3460;0.3920;
861.3000;0.3460;0.3896;
861.6000;0.3492;0.3920;
861.9000;0.3451;0.3847;
862.2000;0.3476;0.3945;
862.5000;0.3484;0.4018;
862.8000;0.3443;0.3969;
863.1000;0.3460;0.4018;
863.4000;0.3484;0.4018;
863.7000;0.3476;0.4018;
864.0000;0.3476;0.3896;
864.3000;0.3468;0.3872;
864.6000;0.3460;0.3799;
864.9000;0.3476;0.3872;
865.2000;0.3451;0.3872;
865.5000;0.3460;0.3823;
865.8000;0.3460;0.3799;
866.1000;0.3533;0.4066;
866.4000;0.3468;0.3920;
866.7000;0.3468;0.3896;
867.0000;0.3443;0.3847;
867.3000;0.3516;0.4042;
867.6000;0.3460;0.3993;
867.9000;0.3500;0.4066;
868.2000;0.3468;0.3920;
868.5000;0.3468;0.3799;
868.8000;0.3468;0.3799;
869.1000;0.3427;0.3726;
869.4000;0.3451;0.3872;
869.7000;0.3451;0.3847;
870.0000;0.3468;0.3969;
870.3000;0.3451;0.3945;
870.6000;0.3435;0.3872;
870.9000;0.3460;0.3847;
871.2000;0.3460;0.3872;
871.5000;0.3468;0.3969;
871.8000;0.3435;0.3969;
872.1000;0.3460;0.4018;
872.4000;0.3427;0.3823;
872.7000;0.3476;0.3872;
873.0000;0.3468;0.3872;
873.3000;0.3468;0.3896;
873.6000;0.3468;0.3945;
873.9000;0.3484;0.3993;
874.2000;0.3476;0.3969;
874.5000;0.3460;0.3945;
874.8000;0.3468;0.3969;
875.1000;0.3468;0.3993;
875.4000;0.3500;0.4091;
875.7000;0.3443;0.3993;
876.0000;0.3492;0.4115;
876.3000;0.3468;0.4091;
876.6000;0.3411;0.3993;
876.9000;0.3468;0.4042;
877.2000;0.3468;0.4042;
877.5000;0.3451;0.4140;
877.8000;0.3419;0.4018;
878.1000;0.3468;0.4140;
878.4000;0.3451;0.3969;
878.7000;0.3419;0.3847;
879.0000;0.3451;0.3823;
879.3000;0.3460;0.3847;
879.6000;0.3451;0.3823;
879.9000;0.3460;0.3920;
880.2000;0.3451;0.4018;
880.5000;0.3443;0.4042;
880.8000;0.3451;0.4042;
881.1000;0.3443;0.3920;
881.4000;0.3492;0.4042;
881.7000;0.3476;0.3993;
882.0000;0.3468;0.3920;
882.3000;0.3427;0.3872;
882.6000;0.3468;0.4018;
882.9000;0.3484;0.4115;
883.2000;0.3460;0.3969;
883.5000;0.3476;0.3774;
883.8000;0.3468;0.3726;
884.1000;0.3451;0.3677;
884.4000;0.3468;0.3799;
884.7000;0.3427;0.3701;
885.0000;0.3484;0.3920;
885.3000;0.3460;0.3847;
885.6000;0.3476;0.3945;
885.9000;0.3468;0.3945;
886.2000;0.3460;0.3872;
886.5000;0.3468;0.3920;
886.8000;0.3492;0.3969;
887.1000;0.3484;0.3920;
887.4000;0.3460;0.3920;
887.7000;0.3468;0.3847;
888.0000;0.3468;0.3872;
888.3000;0.3443;0.3847;
888.6000;0.3468;0.3945;
888.9000;0.3492;0.3920;
889.2000;0.3508;0.3920;
889.5000;0.3484;0.3774;
889.8000;0.3451;0.3579;
890.1000;0.3427;0.3531;
890.4000;0.3427;0.3555;
890.7000;0.3435;0.3653;
891.0000;0.3451;0.3774;
891.3000;0.3443;0.3774;
891.6000;0.3460;0.3847;
891.9000;0.3492;0.3896;
892.2000;0.3443;0.3823;
892.5000;0.3557;0.4164;
892.8000;0.3435;0.3920;
893.1000;0.3451;0.3945;
893.4000;0.3443;0.4042;
893.7000;0.3451;0.4018;
894.0000;0.3435;0.3872;
894.3000;0.3443;0.3823;
894.6000;0.3451;0.3872;
894.9000;0.3427;0.3726;
895.2000;0.3468;0.3799;
895.5000;0.3468;0.3872;
895.8000;0.3386;0.3726;
896.1000;0.3460;0.3872;
896.4000;0.3451;0.3896;
896.7000;0.3476;0.3920;
897.0000;0.3460;0.3847;
897.3000;0.3476;0.3872;
897.6000;0.3516;0.3920;
897.9000;0.3386;0.3750;
898.2000;0.3476;0.3969;
898.5000;0.3476;0.3896;
898.8000;0.3460;0.3823;
899.1000;0.3460;0.3847;
899.4000;0.3484;0.3823;
899.7000;0.3468;0.3799;
900.0000;0.3525;0.3969;
900.3000;0.3468;0.3726;
900.6000;0.3451;0.3750;
900.9000;0.3468;0.3774;
901.2000;0.3460;0.3774;
901.5000;0.3451;0.3799;
901.8000;0.3419;0.3677;
902.1000;0.3468;0.3726;
902.4000;0.3476;0.3579;
902.7000;0.3451;0.3531;
903.0000;0.3468;0.3579;
903.3000;0.3460;0.3506;
903.6000;0.3484;0.3579;
903.9000;0.3451;0.3628;
904.2000;0.3451;0.3750;
904.5000;0.3460;0.3896;
904.8000;0.3451;0.3920;
905.1000;0.3460;0.3969;
905.4000;0.3443;0.3872;
905.7000;0.3443;0.3774;
906.0000;0.3451;0.3847;
906.3000;0.3460;0.3872;
906.6000;0.3460;0.3823;
906.9000;0.3451;0.3799;
907.2000;0.3460;0.3774;
907.5000;0.3460;0.3799;
907.8000;0.3394;0.3677;
908.1000;0.3411;0.3774;
908.4000;0.3476;0.3896;
908.7000;0.3419;0.3628;
909.0000;0.3460;0.3750;
909.3000;0.3460;0.3701;
909.6000;0.3451;0.3726;
909.9000;0.3460;0.3799;
910.2000;0.3460;0.3896;
910.5000;0.3508;0.4066;
910.8000;0.3476;0.3945;
911.1000;0.3468;0.3920;
911.4000;0.3476;0.3993;
911.7000;0.3460;0.3896;
912.0000;0.3476;0.3969;
912.3000;0.3484;0.4091;
912.6000;0.3468;0.3945;
912.9000;0.3460;0.3993;
913.2000;0.3484;0.4066;
913.5000;0.3476;0.4018;
913.8000;0.3476;0.4018;
914.1000;0.3468;0.3969;
914.4000;0.3460;0.3920;
914.7000;0.3460;0.3920;
915.0000;0.3460;0.3945;
915.3000;0.3427;0.3847;
915.6000;0.3427;0.3896;
915.9000;0.3460;0.3993;
916.2000;0.3476;0.3945;
916.5000;0.3468;0.3896;
916.8000;0.3460;0.3945;
917.1000;0.3443;0.4018;
917.4000;0.3468;0.4042;
917.7000;0.3460;0.3969;
918.0000;0.3460;0.3969;
918.3000;0.3460;0.4018;
918.6000;0.3468;0.3993;
918.9000;0.3460;0.4042;
919.2000;0.3468;0.4042;
919.5000;0.3460;0.4042;
919.8000;0.3484;0.4066;
920.1000;0.3451;0.4042;
920.4000;0.3427;0.4066;
920.7000;0.3460;0.4042;
921.0000;0.3443;0.3920;
921.3000;0.3460;0.3945;
921.6000;0.3468;0.3969;
921.9000;0.3460;0.3920;
922.2000;0.3435;0.3872;
922.5000;0.3451;0.3872;
922.8000;0.3468;0.3945;
923.1000;0.3460;0.3847;
923.4000;0.3460;0.3847;
923.7000;0.3476;0.3799;
924.0000;0.3451;0.3677;
924.3000;0.3460;0.3774;
924.6000;0.3378;0.3579;
924.9000;0.3460;0.3726;
925.2000;0.3451;0.3677;
925.5000;0.3435;0.3604;
925.8000;0.3443;0.3750;
926.1000;0.3460;0.3799;
926.4000;0.3460;0.3823;
926.7000;0.3443;0.3823;
927.0000;0.3460;0.3847;
927.3000;0.3451;0.3920;
927.6000;0.3411;0.3774;
927.9000;0.3443;0.3896;
928.2000;0.3451;0.3847;
928.5000;0.3492;0.3969;
928.8000;0.3460;0.3872;
929.1000;0.3451;0.3896;
929.4000;0.3411;0.3920;
929.7000;0.3378;0.3823;
930.0000;0.3443;0.3969;
930.3000;0.3492;0.3969;
930.6000;0.3460;0.3872;
930.9000;0.3451;0.3872;
931.2000;0.3451;0.3799;
931.5000;0.3460;0.3726;
931.8000;0.3460;0.3677;
932.1000;0.3435;0.3555;
932.4000;0.3533;0.3774;
932.7000;0.3508;0.3701;
933.0000;0.3451;0.3579;
933.3000;0.3484;0.3628;
933.6000;0.3516;0.3677;
933.9000;0.3492;0.3604;
934.2000;0.3460;0.3653;
934.5000;0.3468;0.3653;
934.8000;0.3492;0.3774;
935.1000;0.3468;0.3799;
935.4000;0.3443;0.3847;
935.7000;0.3443;0.3896;
936.0000;0.3460;0.3896;
936.3000;0.3443;0.3823;
936.6000;0.3451;0.3823;
936.9000;0.3451;0.3823;
937.2000;0.3443;0.3750;
937.5000;0.3476;0.3823;
937.8000;0.3468;0.3726;
938.1000;0.3435;0.3701;
938.4000;0.3468;0.3774;
938.7000;0.3460;0.3726;
939.0000;0.3451;0.3774;
939.3000;0.3451;0.3750;
939.6000;0.3468;0.3823;
939.9000;0.3451;0.3750;
940.2000;0.3484;0.3774;
940.5000;0.3460;0.3726;
940.8000;0.3443;0.3701;
941.1000;0.3427;0.3750;
941.4000;0.3484;0.3799;
941.7000;0.3476;0.3750;
942.0000;0.3468;0.3750;
942.3000;0.3476;0.3823;
942.6000;0.3451;0.3872;
942.9000;0.3460;0.3872;
943.2000;0.3468;0.3969;
943.5000;0.3516;0.4066;
943.8000;0.3468;0.3945;
944.1000;0.3443;0.3847;
944.4000;0.3451;0.3847;
944.7000;0.3443;0.3896;
945.0000;0.3427;0.3847;
945.3000;0.3468;0.3896;
945.6000;0.3460;0.3872;
945.9000;0.3443;0.3823;
946.2000;0.3460;0.3750;
946.5000;0.3476;0.3872;
946.8000;0.3460;0.3799;
947.1000;0.3460;0.3799;
947.4000;0.3451;0.3799;
947.7000;0.3451;0.3750;
948.0000;0.3484;0.3750;
948.3000;0.3460;0.3750;
948.6000;0.3419;0.3653;
948.9000;0.3476;0.3823;
949.2000;0.3484;0.3872;
949.5000;0.3443;0.3774;
949.8000;0.3460;0.3872;
950.1000;0.3403;0.3726;
950.4000;0.3451;0.3823;
950.7000;0.3451;0.3823;
951.0000;0.3403;0.3799;
951.3000;0.3541;0.4115;
951.6000;0.3476;0.3920;
951.9000;0.3435;0.3774;
952.2000;0.3492;0.3896;
952.5000;0.3435;0.3750;
952.8000;0.3443;0.3774;
953.1000;0.3460;0.3920;
953.4000;0.3443;0.3872;
953.7000;0.3419;0.3823;
954.0000;0.3427;0.3823;
954.3000;0.3484;0.3993;
954.6000;0.3492;0.3993;
954.9000;0.3460;0.3847;
955.2000;0.3460;0.3872;
955.5000;0.3451;0.3847;
955.8000;0.3468;0.3920;
956.1000;0.3443;0.3872;
956.4000;0.3451;0.3823;
956.7000;0.3419;0.3701;
957.0000;0.3435;0.3750;
957.3000;0.3460;0.3677;
957.6000;0.3451;0.3653;
957.9000;0.3476;0.3604;
958.2000;0.3451;0.3653;
958.5000;0.3443;0.3726;
958.8000;0.3460;0.3799;
959.1000;0.3468;0.3726;
959.4000;0.3525;0.3872;
959.7000;0.3451;0.3701;
960.0000;0.3476;0.3799;
960.3000;0.3476;0.3774;
960.6000;0.3451;0.3726;
960.9000;0.3451;0.3823;
961.2000;0.3468;0.3872;
961.5000;0.3443;0.3823;
961.8000;0.3451;0.3872;
962.1000;0.3468;0.3896;
962.4000;0.3476;0.3896;
962.7000;0.3476;0.3872;
963.0000;0.3451;0.3726;
963.3000;0.3451;0.3701;
963.6000;0.3460;0.3701;
963.9000;0.3460;0.3677;
964.2000;0.3451;0.3701;
964.5000;0.3468;0.3555;
964.8000;0.3460;0.3604;
965.1000;0.3468;0.3677;
965.4000;0.3451;0.3604;
965.7000;0.3468;0.3701;
966.0000;0.3451;0.3701;
966.3000;0.3443;0.3579;
966.6000;0.3460;0.3531;
966.9000;0.3460;0.3506;
967.2000;0.3451;0.3482;
967.5000;0.3500;0.3628;
967.8000;0.3427;0.3482;
968.1000;0.3427;0.3458;
968.4000;0.3468;0.3555;
968.7000;0.3443;0.3555;
969.0000;0.3443;0.3579;
969.3000;0.3476;0.3628;
969.6000;0.3460;0.3579;
969.9000;0.3451;0.3628;
970.2000;0.3476;0.3750;
970.5000;0.3460;0.3701;
970.8000;0.3468;0.3799;
971.1000;0.3468;0.3847;
971.4000;0.3460;0.3823;
971.7000;0.3443;0.3799;
972.0000;0.3460;0.3872;
972.3000;0.3443;0.3872;
972.6000;0.3460;0.3896;
972.9000;0.3492;0.3993;
973.2000;0.3484;0.3993;
973.5000;0.3492;0.4042;
973.8000;0.3443;0.3993;
974.1000;0.3468;0.4042;
974.4000;0.3451;0.4018;
974.7000;0.3451;0.3993;
975.0000;0.3460;0.3993;
975.3000;0.3460;0.3945;
975.6000;0.3419;0.3896;
975.9000;0.3468;0.4066;
976.2000;0.3476;0.3969;
976.5000;0.3443;0.3896;
976.8000;0.3468;0.3920;
977.1000;0.3476;0.3993;
977.4000;0.3525;0.4115;
977.7000;0.3468;0.3945;
978.0000;0.3476;0.4066;
978.3000;0.3435;0.3920;
978.6000;0.3468;0.3993;
978.9000;0.3460;0.4066;
979.2000;0.3468;0.4091;
979.5000;0.3460;0.3993;
979.8000;0.3460;0.3945;
980.1000;0.3451;0.3920;
980.4000;0.3557;0.4115;
980.7000;0.3468;0.3847;
981.0000;0.3468;0.3896;
981.3000;0.3443;0.3847;
981.6000;0.3460;0.3799;
981.9000;0.3549;0.3945;
982.2000;0.3443;0.3750;
982.5000;0.3451;0.3799;
982.8000;0.3451;0.3799;
983.1000;0.3411;0.3701;
983.4000;0.3451;0.3774;
983.7000;0.3468;0.3847;
984.0000;0.3443;0.3847;
984.3000;0.3435;0.3750;
984.6000;0.3484;0.3774;
984.9000;0.3451;0.3677;
985.2000;0.3411;0.3579;
985.5000;0.3476;0.3799;
985.8000;0.3451;0.3847;
986.1000;0.3460;0.3823;
986.4000;0.3460;0.3799;
986.7000;0.3435;0.3677;
987.0000;0.3460;0.3726;
987.3000;0.3460;0.3799;
987.6000;0.3451;0.3872;
987.9000;0.3460;0.3872;
988.2000;0.3419;0.3774;
988.5000;0.3451;0.3847;
988.8000;0.3468;0.3872;
989.1000;0.3460;0.3847;
989.4000;0.3468;0.3872;
989.7000;0.3451;0.3847;
990.0000;0.3460;0.3823;
990.3000;0.3460;0.3774;
990.6000;0.3492;0.3823;
990.9000;0.3476;0.3823;
991.2000;0.3460;0.3750;
991.5000;0.3468;0.3823;
991.8000;0.3460;0.3799;
992.1000;0.3435;0.3726;
992.4000;0.3460;0.3726;
992.7000;0.3476;0.3750;
993.0000;0.3476;0.3774;
993.3000;0.3435;0.3750;
993.6000;0.3460;0.3847;
993.9000;0.3460;0.3896;
994.2000;0.3443;0.4018;
994.5000;0.3468;0.4115;
994.8000;0.3451;0.4066;
995.1000;0.3443;0.3945;
995.4000;0.3460;0.3872;
995.7000;0.3460;0.3896;
996.0000;0.3427;0.3896;
996.3000;0.3443;0.4042;
996.6000;0.3443;0.4115;
996.9000;0.3492;0.4091;
997.2000;0.3476;0.4091;
997.5000;0.3460;0.4018;
997.8000;0.3460;0.4091;
998.1000;0.3516;0.4140;
998.4000;0.3525;0.4115;
998.7000;0.3443;0.3920;
999.0000;0.3476;0.3945;
999.3000;0.3451;0.3920;
999.6000;0.3443;0.3920;
999.9000;0.3460;0.3945;
1000.2000;0.3451;0.3799;
1000.5000;0.3443;0.3847;
1000.8000;0.3435;0.3799;
1001.1000;0.3500;0.4042;
1001.4000;0.3484;0.3993;
1001.7000;0.3468;0.3945;
1002.0000;0.3435;0.3896;
1002.3000;0.3451;0.3993;
1002.6000;0.3460;0.3969;
1002.9000;0.3451;0.3945;
1003.2000;0.3468;0.3993;
1003.5000;0.3451;0.3945;
1003.8000;0.3451;0.3872;
1004.1000;0.3427;0.3872;
1004.4000;0.3443;0.3872;
1004.7000;0.3508;0.3993;
1005.0000;0.3484;0.3945;
1005.3000;0.3451;0.3799;
1005.6000;0.3460;0.3872;
1005.9000;0.3468;0.3823;
1006.2000;0.3443;0.3774;
1006.5000;0.3435;0.3799;
1006.8000;0.3451;0.3847;
1007.1000;0.3435;0.3847;
1007.4000;0.3451;0.3920;
1007.7000;0.3443;0.3969;
1008.0000;0.3443;0.3920;
1008.3000;0.3451;0.3896;
1008.6000;0.3443;0.3774;
1008.9000;0.3451;0.3799;
1009.2000;0.3484;0.3872;
1009.5000;0.3460;0.3677;
1009.8000;0.3460;0.3726;
1010.1000;0.3451;0.3701;
1010.4000;0.3460;0.3701;
1010.7000;0.3435;0.3653;
1011.0000;0.3435;0.3701;
1011.3000;0.3451;0.3726;
1011.6000;0.3460;0.3799;
1011.9000;0.3451;0.3774;
1012.2000;0.3451;0.3677;
1012.5000;0.3468;0.3701;
1012.8000;0.3460;0.3774;
1013.1000;0.3451;0.3774;
1013.4000;0.3451;0.3774;
1013.7000;0.3427;0.3701;
1014.0000;0.3484;0.3799;
1014.3000;0.3468;0.3799;
1014.6000;0.3508;0.3920;
1014.9000;0.3451;0.3872;
1015.2000;0.3451;0.3920;
1015.5000;0.3451;0.3847;
1015.8000;0.3403;0.3750;
1016.1000;0.3435;0.3920;
1016.4000;0.3427;0.3847;
1016.7000;0.3451;0.3847;
1017.0000;0.3443;0.3799;
1017.3000;0.3451;0.3945;
1017.6000;0.3476;0.3945;
1017.9000;0.3451;0.3823;
1018.2000;0.3427;0.3945;
1018.5000;0.3443;0.3920;
1018.8000;0.3435;0.3896;
1019.1000;0.3476;0.4018;
1019.4000;0.3427;0.3847;
1019.7000;0.3468;0.3896;
1020.0000;0.3443;0.3774;
1020.3000;0.3427;0.3799;
1020.6000;0.3525;0.3993;
1020.9000;0.3460;0.3872;
1021.2000;0.3468;0.3847;
1021.5000;0.3394;0.3677;
1021.8000;0.3468;0.3823;
1022.1000;0.3451;0.3799;
1022.4000;0.3451;0.3726;
1022.7000;0.3468;0.3750;
1023.0000;0.3468;0.3799;
1023.3000;0.3460;0.3847;
1023.6000;0.3427;0.3653;
1023.9000;0.3443;0.3799;
1024.2000;0.3403;0.3774;
1024.5000;0.3451;0.3872;
1024.8000;0.3435;0.3945;
1025.1000;0.3549;0.4188;
1025.4000;0.3468;0.3896;
1025.7000;0.3533;0.4042;
1026.0000;0.3460;0.3872;
1026.3000;0.3435;0.3823;
1026.6000;0.3435;0.3823;
1026.9000;0.3443;0.3823;
1027.2000;0.3451;0.3847;
1027.5000;0.3435;0.3774;
1027.8000;0.3435;0.3896;
1028.1000;0.3492;0.3969;
1028.4000;0.3451;0.3945;
1028.7000;0.3427;0.3823;
1029.0000;0.3427;0.3847;
1029.3000;0.3484;0.3920;
1029.6000;0.3460;0.3847;
1029.9000;0.3451;0.3847;
1030.2000;0.3451;0.3823;
1030.5000;0.3443;0.3872;
1030.8000;0.3443;0.3774;
1031.1000;0.3451;0.3799;
1031.4000;0.3427;0.3774;
1031.7000;0.3427;0.3799;
1032.0000;0.3435;0.3872;
1032.3000;0.3443;0.3847;
1032.6000;0.3419;0.3750;
1032.9000;0.3460;0.3872;
1033.2000;0.3460;0.3872;
1033.5000;0.3435;0.3847;
1033.8000;0.3451;0.3847;
1034.1000;0.3419;0.3799;
1034.4000;0.3435;0.3896;
1034.7000;0.3476;0.3945;
1035.0000;0.3451;0.3920;
1035.3000;0.3435;0.3945;
1035.6000;0.3460;0.4018;
1035.9000;0.3460;0.3993;
1036.2000;0.3460;0.3969;
1036.5000;0.3451;0.3945;
1036.8000;0.3460;0.3969;
1037.1000;0.3460;0.3969;
1037.4000;0.3468;0.3945;
1037.7000;0.3443;0.3847;
1038.0000;0.3443;0.3920;
1038.3000;0.3435;0.3896;
1038.6000;0.3403;0.3701;
1038.9000;0.3451;0.3823;
1039.2000;0.3435;0.3823;
1039.5000;0.3403;0.3823;
1039.8000;0.3460;0.3945;
1040.1000;0.3525;0.4140;
1040.4000;0.3460;0.3993;
1040.7000;0.3451;0.3945;
1041.0000;0.3460;0.3969;
1041.3000;0.3451;0.3872;
1041.6000;0.3460;0.3993;
1041.9000;0.3460;0.4018;
1042.2000;0.3451;0.3969;
1042.5000;0.3468;0.3945;
1042.8000;0.3435;0.3847;
1043.1000;0.3500;0.3920;
1043.4000;0.3427;0.3774;
1043.7000;0.3451;0.3823;
1044.0000;0.3451;0.3774;
1044.3000;0.3435;0.3653;
1044.6000;0.3460;0.3799;
1044.9000;0.3451;0.3896;
1045.2000;0.3500;0.3920;
1045.5000;0.3443;0.3799;
1045.8000;0.3468;0.3847;
1046.1000;0.3492;0.3945;
1046.4000;0.3411;0.3726;
1046.7000;0.3435;0.3896;
1047.0000;0.3451;0.3847;
1047.3000;0.3468;0.3872;
1047.6000;0.3435;0.3774;
1047.9000;0.3435;0.3774;
1048.2000;0.3427;0.3750;
1048.5000;0.3443;0.3799;
1048.8000;0.3443;0.3847;
1049.1000;0.3427;0.3799;
1049.4000;0.3427;0.3750;
1049.7000;0.3443;0.3701;
1050.0000;0.3460;0.3701;
1050.3000;0.3443;0.3677;
1050.6000;0.3460;0.3726;
1050.9000;0.3460;0.3726;
1051.2000;0.3460;0.3677;
1051.5000;0.3451;0.3653;
1051.8000;0.3451;0.3628;
1052.1000;0.3451;0.3677;
1052.4000;0.3460;0.3726;
1052.7000;0.3460;0.3726;
1053.0000;0.3460;0.3628;
1053.3000;0.3435;0.3458;
1053.6000;0.3468;0.3555;
1053.9000;0.3451;0.3653;
1054.2000;0.3443;0.3653;
1054.5000;0.3443;0.3677;
1054.8000;0.3427;0.3677;
1055.1000;0.3435;0.3653;
1055.4000;0.3435;0.3628;
1055.7000;0.3460;0.3677;
1056.0000;0.3460;0.3677;
1056.3000;0.3468;0.3823;
1056.6000;0.3443;0.3872;
1056.9000;0.3476;0.3920;
1057.2000;0.3451;0.3750;
1057.5000;0.3443;0.3653;
1057.8000;0.3460;0.3774;
1058.1000;0.3460;0.3677;
1058.4000;0.3443;0.3653;
1058.7000;0.3435;0.3653;
1059.0000;0.3451;0.3726;
1059.3000;0.3476;0.3726;
1059.6000;0.3427;0.3604;
1059.9000;0.3427;0.3677;
1060.2000;0.3468;0.3677;
1060.5000;0.3460;0.3555;
1060.8000;0.3451;0.3555;
1061.1000;0.3460;0.3653;
1061.4000;0.3443;0.3579;
1061.7000;0.3468;0.3701;
1062.0000;0.3451;0.3628;
1062.3000;0.3460;0.3653;
1062.6000;0.3378;0.3433;
1062.9000;0.3443;0.3653;
1063.2000;0.3460;0.3726;
1063.5000;0.3435;0.3750;
1063.8000;0.3451;0.3872;
1064.1000;0.3443;0.3847;
1064.4000;0.3451;0.3823;
1064.7000;0.3451;0.3726;
1065.0000;0.3451;0.3701;
1065.3000;0.3468;0.3750;
1065.6000;0.3468;0.3750;
1065.9000;0.3476;0.3750;
1066.2000;0.3460;0.3677;
1066.5000;0.3427;0.3677;
1066.8000;0.3468;0.3750;
1067.1000;0.3394;0.3677;
1067.4000;0.3443;0.3799;
1067.7000;0.3460;0.3847;
1068.0000;0.3460;0.3823;
1068.3000;0.3435;0.3799;
1068.6000;0.3451;0.3799;
1068.9000;0.3443;0.3726;
1069.2000;0.3443;0.3726;
1069.5000;0.3435;0.3628;
1069.8000;0.3435;0.3531;
1070.1000;0.3460;0.3677;
1070.4000;0.3443;0.3604;
1070.7000;0.3460;0.3677;
1071.0000;0.3468;0.3750;
1071.3000;0.3443;0.3555;
1071.6000;0.3460;0.3482;
1071.9000;0.3460;0.3506;
1072.2000;0.3460;0.3531;
1072.5000;0.3451;0.3482;
1072.8000;0.3460;0.3531;
1073.1000;0.3468;0.3604;
1073.4000;0.3443;0.3604;
1073.7000;0.3443;0.3653;
1074.0000;0.3476;0.3872;
1074.3000;0.3451;0.3896;
1074.6000;0.3443;0.3847;
1074.9000;0.3451;0.3799;
1075.2000;0.3427;0.3726;
1075.5000;0.3435;0.3579;
1075.8000;0.3460;0.3579;
1076.1000;0.3435;0.3531;
1076.4000;0.3460;0.3579;
1076.7000;0.3460;0.3506;
1077.0000;0.3443;0.3579;
1077.3000;0.3460;0.3677;
1077.6000;0.3451;0.3579;
1077.9000;0.3468;0.3579;
1078.2000;0.3443;0.3433;
1078.5000;0.3451;0.3458;
1078.8000;0.3451;0.3579;
1079.1000;0.3451;0.3653;
1079.4000;0.3443;0.3726;
1079.7000;0.3451;0.3653;
1080.0000;0.3443;0.3677;
1080.3000;0.3386;0.3555;
1080.6000;0.3443;0.3774;
1080.9000;0.3435;0.3799;
1081.2000;0.3427;0.3872;
1081.5000;0.3468;0.3896;
1081.8000;0.3460;0.3847;
1082.1000;0.3460;0.3896;
1082.4000;0.3460;0.3920;
1082.7000;0.3451;0.3847;
1083.0000;0.3443;0.3799;
1083.3000;0.3443;0.3896;
1083.6000;0.3394;0.3774;
1083.9000;0.3451;0.3896;
1084.2000;0.3443;0.3945;
1084.5000;0.3451;0.3896;
1084.8000;0.3443;0.3847;
1085.1000;0.3435;0.3823;
1085.4000;0.3460;0.3896;
1085.7000;0.3460;0.3823;
1086.0000;0.3443;0.3750;
1086.3000;0.3443;0.3726;
1086.6000;0.3492;0.3823;
1086.9000;0.3468;0.3823;
1087.2000;0.3460;0.3774;
1087.5000;0.3435;0.3799;
1087.8000;0.3443;0.3872;
1088.1000;0.3451;0.3872;
1088.4000;0.3451;0.3872;
1088.7000;0.3443;0.3920;
1089.0000;0.3451;0.3945;
1089.3000;0.3451;0.3896;
1089.6000;0.3451;0.3823;
1089.9000;0.3451;0.3823;
1090.2000;0.3468;0.3823;
1090.5000;0.3451;0.3799;
1090.8000;0.3468;0.3823;
1091.1000;0.3427;0.3799;
1091.4000;0.3451;0.3823;
1091.7000;0.3460;0.3872;
1092.0000;0.3484;0.3945;
1092.3000;0.3468;0.3823;
1092.6000;0.3451;0.3799;
1092.9000;0.3443;0.3750;
1093.2000;0.3484;0.3896;
1093.5000;0.3443;0.3823;
1093.8000;0.3427;0.3847;
1094.1000;0.3427;0.3847;
1094.4000;0.3451;0.3847;
1094.7000;0.3468;0.3896;
1095.0000;0.3451;0.3823;
1095.3000;0.3443;0.3847;
1095.6000;0.3451;0.3993;
1095.9000;0.3460;0.3993;
1096.2000;0.3403;0.3896;
1096.5000;0.3468;0.3969;
1096.8000;0.3468;0.3896;
1097.1000;0.3443;0.3823;
1097.4000;0.3460;0.3847;
1097.7000;0.3435;0.3847;
1098.0000;0.3435;0.3872;
1098.3000;0.3451;0.3872;
1098.6000;0.3460;0.3920;
1098.9000;0.3427;0.3945;
1099.2000;0.3435;0.3945;
1099.5000;0.3427;0.4042;
1099.8000;0.3468;0.4164;
1100.1000;0.3443;0.4188;
1100.4000;0.3468;0.4213;
1100.7000;0.3451;0.4164;
1101.0000;0.3443;0.4140;
1101.3000;0.3492;0.4261;
1101.6000;0.3476;0.4261;
1101.9000;0.3443;0.4140;
1102.2000;0.3460;0.4115;
1102.5000;0.3435;0.4066;
1102.8000;0.3443;0.4066;
1103.1000;0.3427;0.4091;
1103.4000;0.3427;0.4066;
1103.7000;0.3451;0.4115;
1104.0000;0.3427;0.4018;
1104.3000;0.3394;0.3920;
1104.6000;0.3403;0.3872;
1104.9000;0.3451;0.3945;
1105.2000;0.3427;0.3920;
1105.5000;0.3443;0.3872;
1105.8000;0.3443;0.3872;
1106.1000;0.3435;0.3872;
1106.4000;0.3411;0.3750;
1106.7000;0.3435;0.3847;
1107.0000;0.3451;0.3847;
1107.3000;0.3435;0.3823;
1107.6000;0.3451;0.3847;
1107.9000;0.3476;0.3920;
1108.2000;0.3427;0.3847;
1108.5000;0.3476;0.3896;
1108.8000;0.3451;0.3823;
1109.1000;0.3411;0.3774;
1109.4000;0.3411;0.3677;
1109.7000;0.3443;0.3799;
1110.0000;0.3468;0.3823;
1110.3000;0.3451;0.3774;
1110.6000;0.3435;0.3823;
1110.9000;0.3460;0.3872;
1111.2000;0.3435;0.3750;
1111.5000;0.3443;0.3701;
1111.8000;0.3468;0.3847;
1112.1000;0.3468;0.3993;
1112.4000;0.3443;0.3993;
1112.7000;0.3443;0.3969;
1113.0000;0.3508;0.4115;
1113.3000;0.3435;0.3896;
1113.6000;0.3468;0.3945;
1113.9000;0.3378;0.3750;
1114.2000;0.3403;0.3872;
1114.5000;0.3411;0.3799;
1114.8000;0.3435;0.3774;
1115.1000;0.3451;0.3847;
1115.4000;0.3476;0.3896;
1115.7000;0.3427;0.3799;
1116.0000;0.3443;0.3847;
1116.3000;0.3427;0.3750;
1116.6000;0.3411;0.3628;
1116.9000;0.3427;0.3628;
1117.2000;0.3500;0.3823;
1117.5000;0.3451;0.3774;
1117.8000;0.3419;0.3750;
1118.1000;0.3451;0.3799;
1118.4000;0.3419;0.3799;
1118.7000;0.3451;0.3847;
1119.0000;0.3435;0.3799;
1119.3000;0.3443;0.3847;
1119.6000;0.3451;0.3872;
1119.9000;0.3476;0.3799;
1120.2000;0.3354;0.3531;
1120.5000;0.3435;0.3774;
1120.8000;0.3435;0.3750;
1121.1000;0.3443;0.3799;
1121.4000;0.3427;0.3726;
1121.7000;0.3443;0.3823;
1122.0000;0.3435;0.3823;
1122.3000;0.3476;0.3847;
1122.6000;0.3435;0.3847;
1122.9000;0.3460;0.3823;
1123.2000;0.3427;0.3726;
1123.5000;0.3443;0.3677;
1123.8000;0.3460;0.3628;
1124.1000;0.3451;0.3579;
1124.4000;0.3451;0.3555;
1124.7000;0.3451;0.3531;
1125.0000;0.3435;0.3555;
1125.3000;0.3443;0.3531;
1125.6000;0.3435;0.3531;
1125.9000;0.3427;0.3531;
1126.2000;0.3451;0.3604;
1126.5000;0.3443;0.3653;
1126.8000;0.3411;0.3579;
1127.1000;0.3451;0.3726;
1127.4000;0.3443;0.3799;
1127.7000;0.3508;0.3920;
1128.0000;0.3443;0.3799;
1128.3000;0.3435;0.3774;
1128.6000;0.3435;0.3847;
1128.9000;0.3443;0.3823;
1129.2000;0.3460;0.3701;
1129.5000;0.3435;0.3677;
1129.8000;0.3427;0.3701;
1130.1000;0.3443;0.3653;
1130.4000;0.3427;0.3555;
1130.7000;0.3435;0.3628;
1131.0000;0.3451;0.3604;
1131.3000;0.3460;0.3628;
1131.6000;0.3435;0.3531;
1131.9000;0.3419;0.3433;
1132.2000;0.3460;0.3531;
1132.5000;0.3451;0.3433;
1132.8000;0.3451;0.3458;
1133.1000;0.3443;0.3385;
1133.4000;0.3460;0.3385;
1133.7000;0.3435;0.3458;
1134.0000;0.3484;0.3604;
1134.3000;0.3411;0.3458;
1134.6000;0.3362;0.3287;
1134.9000;0.3443;0.3458;
1135.2000;0.3460;0.3458;
1135.5000;0.3443;0.3482;
1135.8000;0.3427;0.3555;
1136.1000;0.3460;0.3677;
1136.4000;0.3443;0.3677;
1136.7000;0.3468;0.3726;
1137.0000;0.3451;0.3774;
1137.3000;0.3435;0.3701;
1137.6000;0.3460;0.3701;
1137.9000;0.3451;0.3823;
1138.2000;0.3427;0.3726;
1138.5000;0.3443;0.3726;
1138.8000;0.3435;0.3750;
1139.1000;0.3492;0.4042;
1139.4000;0.3460;0.3872;
1139.7000;0.3451;0.3823;
1140.0000;0.3443;0.3799;
1140.3000;0.3443;0.3799;
1140.6000;0.3411;0.3701;
1140.9000;0.3443;0.3726;
1141.2000;0.3427;0.3726;
1141.5000;0.3468;0.3823;
1141.8000;0.3427;0.3701;
1142.1000;0.3435;0.3750;
1142.4000;0.3435;0.3701;
1142.7000;0.3435;0.3701;
1143.0000;0.3419;0.3555;
1143.3000;0.3443;0.3628;
1143.6000;0.3468;0.3579;
1143.9000;0.3451;0.3628;
1144.2000;0.3460;0.3579;
1144.5000;0.3443;0.3579;
1144.8000;0.3419;0.3604;
1145.1000;0.3451;0.3653;
1145.4000;0.3460;0.3701;
1145.7000;0.3427;0.3701;
1146.0000;0.3451;0.3701;
1146.3000;0.3451;0.3726;
1146.6000;0.3443;0.3701;
1146.9000;0.3460;0.3799;
1147.2000;0.3435;0.3701;
1147.5000;0.3451;0.3726;
1147.8000;0.3403;0.3579;
1148.1000;0.3435;0.3628;
1148.4000;0.3476;0.3653;
1148.7000;0.3443;0.3531;
1149.0000;0.3435;0.3531;
1149.3000;0.3460;0.3628;
1149.6000;0.3460;0.3628;
1149.9000;0.3468;0.3531;
1150.2000;0.3451;0.3506;
1150.5000;0.3435;0.3628;
1150.8000;0.3460;0.3653;
1151.1000;0.3435;0.3604;
1151.4000;0.3443;0.3579;
1151.7000;0.3460;0.3677;
1152.0000;0.3443;0.3726;
1152.3000;0.3427;0.3604;
1152.6000;0.3451;0.3726;
1152.9000;0.3451;0.3701;
1153.2000;0.3476;0.3750;
1153.5000;0.3443;0.3555;
1153.8000;0.3443;0.3604;
1154.1000;0.3492;0.3653;
1154.4000;0.3468;0.3579;
1154.7000;0.3435;0.3531;
1155.0000;0.3468;0.3604;
1155.3000;0.3435;0.3531;
1155.6000;0.3460;0.3531;
1155.9000;0.3435;0.3555;
1156.2000;0.3460;0.3653;
1156.5000;0.3427;0.3604;
1156.8000;0.3443;0.3628;
1157.1000;0.3411;0.3555;
1157.4000;0.3435;0.3653;
1157.7000;0.3435;0.3653;
1158.0000;0.3419;0.3458;
1158.3000;0.3508;0.3604;
1158.6000;0.3443;0.3433;
1158.9000;0.3435;0.3433;
1159.2000;0.3443;0.3506;
1159.5000;0.3460;0.3531;
1159.8000;0.3451;0.3506;
1160.1000;0.3451;0.3604;
1160.4000;0.3443;0.3677;
1160.7000;0.3427;0.3677;
1161.0000;0.3451;0.3677;
1161.3000;0.3451;0.3774;
1161.6000;0.3451;0.3750;
1161.9000;0.3460;0.3701;
1162.2000;0.3468;0.3726;
1162.5000;0.3427;0.3604;
1162.8000;0.3443;0.3653;
1163.1000;0.3516;0.3847;
1163.4000;0.3451;0.3653;
1163.7000;0.3476;0.3701;
1164.0000;0.3451;0.3701;
1164.3000;0.3435;0.3726;
1164.6000;0.3451;0.3774;
1164.9000;0.3411;0.3701;
1165.2000;0.3443;0.3701;
1165.5000;0.3435;0.3677;
1165.8000;0.3460;0.3677;
1166.1000;0.3468;0.3726;
1166.4000;0.3460;0.3872;
1166.7000;0.3435;0.3726;
1167.0000;0.3443;0.3750;
1167.3000;0.3435;0.3677;
1167.6000;0.3427;0.3604;
1167.9000;0.3460;0.3677;
1168.2000;0.3394;0.3506;
1168.5000;0.3451;0.3677;
1168.8000;0.3443;0.3579;
1169.1000;0.3427;0.3482;
1169.4000;0.3451;0.3506;
1169.7000;0.3460;0.3506;
1170.0000;0.3468;0.3531;
1170.3000;0.3378;0.3409;
1170.6000;0.3443;0.3506;
1170.9000;0.3435;0.3506;
1171.2000;0.3435;0.3531;
1171.5000;0.3460;0.3604;
1171.8000;0.3435;0.3531;
1172.1000;0.3427;0.3531;
1172.4000;0.3443;0.3653;
1172.7000;0.3427;0.3506;
1173.0000;0.3508;0.3726;
1173.3000;0.3451;0.3628;
1173.6000;0.3451;0.3726;
1173.9000;0.3451;0.3774;
1174.2000;0.3443;0.3701;
1174.5000;0.3435;0.3726;
1174.8000;0.3443;0.3628;
1175.1000;0.3435;0.3579;
1175.4000;0.3427;0.3579;
1175.7000;0.3484;0.3677;
1176.0000;0.3460;0.3701;
1176.3000;0.3419;0.3726;
1176.6000;0.3427;0.3799;
1176.9000;0.3427;0.3726;
1177.2000;0.3362;0.3506;
1177.5000;0.3435;0.3677;
1177.8000;0.3451;0.3677;
1178.1000;0.3435;0.3579;
1178.4000;0.3484;0.3726;
1178.7000;0.3443;0.3628;
1179.0000;0.3460;0.3653;
1179.3000;0.3435;0.3604;
1179.6000;0.3346;0.3385;
1179.9000;0.3451;0.3628;
1180.2000;0.3386;0.3458;
1180.5000;0.3427;0.3628;
1180.8000;0.3451;0.3677;
1181.1000;0.3443;0.3726;
1181.4000;0.3443;0.3677;
1181.7000;0.3443;0.3653;
1182.0000;0.3403;0.3531;
1182.3000;0.3451;0.3628;
1182.6000;0.3460;0.3579;
1182.9000;0.3476;0.3555;
1183.2000;0.3443;0.3506;
1183.5000;0.3460;0.3579;
1183.8000;0.3500;0.3896;
1184.1000;0.3443;0.3872;
1184.4000;0.3476;0.3847;
1184.7000;0.3435;0.3750;
1185.0000;0.3386;0.3531;
1185.3000;0.3443;0.3531;
1185.6000;0.3443;0.3482;
1185.9000;0.3427;0.3482;
1186.2000;0.3443;0.3506;
1186.5000;0.3451;0.3482;
1186.8000;0.3435;0.3409;
1187.1000;0.3427;0.3458;
1187.4000;0.3443;0.3458;
1187.7000;0.3443;0.3506;
1188.0000;0.3460;0.3433;
1188.3000;0.3451;0.3433;
1188.6000;0.3451;0.3482;
1188.9000;0.3468;0.3579;
1189.2000;0.3460;0.3653;
1189.5000;0.3443;0.3628;
1189.8000;0.3435;0.3701;
1190.1000;0.3443;0.3628;
1190.4000;0.3435;0.3701;
1190.7000;0.3427;0.3677;
1191.0000;0.3427;0.3653;
1191.3000;0.3435;0.3653;
1191.6000;0.3451;0.3677;
1191.9000;0.3476;0.3750;
1192.2000;0.3435;0.3653;
1192.5000;0.3476;0.3750;
1192.8000;0.3435;0.3531;
1193.1000;0.3443;0.3531;
1193.4000;0.3451;0.3604;
1193.7000;0.3451;0.3677;
1194.0000;0.3451;0.3555;
1194.3000;0.3460;0.3555;
1194.6000;0.3435;0.3482;
1194.9000;0.3468;0.3531;
1195.2000;0.3451;0.3506;
1195.5000;0.3403;0.3360;
1195.8000;0.3427;0.3458;
1196.1000;0.3435;0.3433;
1196.4000;0.3460;0.3506;
1196.7000;0.3443;0.3506;
1197.0000;0.3435;0.3482;
1197.3000;0.3460;0.3579;
1197.6000;0.3468;0.3653;
1197.9000;0.3460;0.3628;
1198.2000;0.3427;0.3482;
1198.5000;0.3451;0.3555;
1198.8000;0.3451;0.3604;
1199.1000;0.3451;0.3653;
1199.4000;0.3451;0.3604;
1199.7000;0.3443;0.3701;
1200.0000;0.3419;0.3774;
1200.3000;0.3468;0.3920;
1200.6000;0.3427;0.3872;
1200.9000;0.3427;0.3726;
1201.2000;0.3394;0.3531;
1201.5000;0.3419;0.3531;
1201.8000;0.3411;0.3555;
1202.1000;0.3427;0.3628;
1202.4000;0.3443;0.3677;
1202.7000;0.3386;0.3579;
1203.0000;0.3460;0.3750;
1203.3000;0.3362;0.3482;
1203.6000;0.3435;0.3701;
1203.9000;0.3443;0.3823;
1204.2000;0.3443;0.3774;
1204.5000;0.3435;0.3628;
1204.8000;0.3419;0.3579;
1205.1000;0.3435;0.3579;
1205.4000;0.3451;0.3628;
1205.7000;0.3443;0.3677;
1206.0000;0.3443;0.3726;
1206.3000;0.3427;0.3653;
1206.6000;0.3460;0.3653;
1206.9000;0.3460;0.3531;
1207.2000;0.3443;0.3604;
1207.5000;0.3460;0.3677;
1207.8000;0.3451;0.3604;
1208.1000;0.3435;0.3531;
1208.4000;0.3443;0.3531;
1208.7000;0.3411;0.3458;
1209.0000;0.3451;0.3482;
1209.3000;0.3443;0.3653;
1209.6000;0.3411;0.3579;
1209.9000;0.3427;0.3799;
1210.2000;0.3435;0.3774;
1210.5000;0.3443;0.3799;
1210.8000;0.3443;0.3677;
1211.1000;0.3411;0.3579;
1211.4000;0.3443;0.3628;
1211.7000;0.3370;0.3385;
1212.0000;0.3394;0.3433;
1212.3000;0.3443;0.3579;
1212.6000;0.3484;0.3677;
1212.9000;0.3435;0.3628;
1213.2000;0.3451;0.3653;
1213.5000;0.3443;0.3677;
1213.8000;0.3492;0.3823;
1214.1000;0.3451;0.3726;
1214.4000;0.3427;0.3604;
1214.7000;0.3427;0.3458;
1215.0000;0.3419;0.3433;
1215.3000;0.3443;0.3531;
1215.6000;0.3443;0.3506;
1215.9000;0.3427;0.3458;
1216.2000;0.3427;0.3482;
1216.5000;0.3443;0.3555;
1216.8000;0.3435;0.3579;
1217.1000;0.3435;0.3579;
1217.4000;0.3443;0.3579;
1217.7000;0.3435;0.3555;
1218.0000;0.3476;0.3653;
1218.3000;0.3451;0.3604;
1218.6000;0.3419;0.3579;
1218.9000;0.3435;0.3653;
1219.2000;0.3460;0.3628;
1219.5000;0.3370;0.3409;
1219.8000;0.3443;0.3628;
1220.1000;0.3435;0.3579;
1220.4000;0.3451;0.3579;
1220.7000;0.3435;0.3555;
1221.0000;0.3451;0.3628;
1221.3000;0.3460;0.3482;
1221.6000;0.3435;0.3555;
1221.9000;0.3443;0.3628;
1222.2000;0.3427;0.3628;
1222.5000;0.3443;0.3701;
1222.8000;0.3443;0.3774;
1223.1000;0.3451;0.3823;
1223.4000;0.3435;0.3823;
1223.7000;0.3443;0.3799;
1224.0000;0.3427;0.3847;
1224.3000;0.3451;0.3896;
1224.6000;0.3443;0.3872;
1224.9000;0.3460;0.3750;
1225.2000;0.3484;0.3823;
1225.5000;0.3460;0.3799;
1225.8000;0.3443;0.3847;
1226.1000;0.3435;0.3774;
1226.4000;0.3460;0.3872;
1226.7000;0.3427;0.3799;
1227.0000;0.3435;0.3799;
1227.3000;0.3468;0.3847;
1227.6000;0.3460;0.3945;
1227.9000;0.3419;0.3847;
1228.2000;0.3476;0.3920;
1228.5000;0.3403;0.3750;
1228.8000;0.3435;0.3896;
1229.1000;0.3460;0.3920;
1229.4000;0.3460;0.3945;
1229.7000;0.3443;0.3896;
1230.0000;0.3508;0.3969;
1230.3000;0.3443;0.3750;
1230.6000;0.3435;0.3847;
1230.9000;0.3451;0.3896;
1231.2000;0.3460;0.3799;
1231.5000;0.3427;0.3653;
1231.8000;0.3427;0.3677;
1232.1000;0.3460;0.3823;
1232.4000;0.3435;0.3726;
1232.7000;0.3451;0.3726;
1233.0000;0.3427;0.3726;
1233.3000;0.3411;0.3677;
1233.6000;0.3460;0.3750;
1233.9000;0.3451;0.3653;
1234.2000;0.3386;0.3482;
1234.5000;0.3451;0.3653;
1234.8000;0.3451;0.3701;
1235.1000;0.3419;0.3653;
1235.4000;0.3435;0.3677;
1235.7000;0.3484;0.3799;
1236.0000;0.3435;0.3677;
1236.3000;0.3460;0.3653;
1236.6000;0.3435;0.3701;
1236.9000;0.3451;0.3701;
1237.2000;0.3443;0.3726;
1237.5000;0.3451;0.3799;
1237.8000;0.3468;0.3701;
1238.1000;0.3451;0.3579;
1238.4000;0.3411;0.3506;
1238.7000;0.3460;0.3579;
1239.0000;0.3451;0.3579;
1239.3000;0.3419;0.3579;
1239.6000;0.3443;0.3628;
1239.9000;0.3427;0.3701;
1240.2000;0.3435;0.3799;
1240.5000;0.3435;0.3823;
1240.8000;0.3427;0.3872;
1241.1000;0.3451;0.3847;
1241.4000;0.3451;0.3774;
1241.7000;0.3427;0.3750;
1242.0000;0.3419;0.3750;
1242.3000;0.3451;0.3872;
1242.6000;0.3427;0.3823;
1242.9000;0.3460;0.3920;
1243.2000;0.3451;0.3872;
1243.5000;0.3443;0.3896;
1243.8000;0.3435;0.3872;
1244.1000;0.3451;0.3823;
1244.4000;0.3492;0.3872;
1244.7000;0.3443;0.3750;
1245.0000;0.3435;0.3750;
1245.3000;0.3460;0.3677;
1245.6000;0.3435;0.3701;
1245.9000;0.3460;0.3726;
1246.2000;0.3492;0.3872;
1246.5000;0.3451;0.3799;
1246.8000;0.3451;0.3726;
1247.1000;0.3451;0.3750;
1247.4000;0.3443;0.3750;
1247.7000;0.3443;0.3726;
1248.0000;0.3468;0.3823;
1248.3000;0.3451;0.3847;
1248.6000;0.3451;0.3847;
1248.9000;0.3451;0.3872;
1249.2000;0.3411;0.3701;
1249.5000;0.3370;0.3458;
1249.8000;0.3435;0.3653;
1250.1000;0.3443;0.3677;
1250.4000;0.3370;0.3531;
1250.7000;0.3468;0.3823;
1251.0000;0.3443;0.3823;
1251.3000;0.3476;0.3920;
1251.6000;0.3460;0.3896;
1251.9000;0.3443;0.3799;
1252.2000;0.3443;0.3774;
1252.5000;0.3533;0.3993;
1252.8000;0.3435;0.3677;
1253.1000;0.3484;0.3896;
1253.4000;0.3435;0.3653;
1253.7000;0.3435;0.3653;
1254.0000;0.3468;0.3701;
1254.3000;0.3403;0.3531;
1254.6000;0.3443;0.3579;
1254.9000;0.3468;0.3653;
1255.2000;0.3411;0.3531;
1255.5000;0.3435;0.3604;
1255.8000;0.3427;0.3653;
1256.1000;0.3427;0.3604;
1256.4000;0.3476;0.3750;
1256.7000;0.3435;0.3653;
1257.0000;0.3525;0.3823;
1257.3000;0.3460;0.3701;
1257.6000;0.3443;0.3653;
1257.9000;0.3435;0.3677;
1258.2000;0.3435;0.3677;
1258.5000;0.3451;0.3701;
1258.8000;0.3435;0.3701;
1259.1000;0.3435;0.3750;
1259.4000;0.3435;0.3799;
1259.7000;0.3484;0.3847;
1260.0000;0.3476;0.3726;
1260.3000;0.3419;0.3653;
1260.6000;0.3435;0.3726;
1260.9000;0.3435;0.3701;
1261.2000;0.3443;0.3701;
1261.5000;0.3451;0.3726;
1261.8000;0.3468;0.3823;
1262.1000;0.3443;0.3701;
1262.4000;0.3435;0.3726;
1262.7000;0.3468;0.3823;
1263.0000;0.3443;0.3774;
1263.3000;0.3443;0.3726;
1263.6000;0.3460;0.3774;
1263.9000;0.3451;0.3799;
1264.2000;0.3443;0.3726;
1264.5000;0.3435;0.3701;
1264.8000;0.3451;0.3774;
1265.1000;0.3451;0.3799;
1265.4000;0.3435;0.3750;
1265.7000;0.3443;0.3677;
1266.0000;0.3435;0.3677;
1266.3000;0.3443;0.3604;
1266.6000;0.3476;0.3677;
1266.9000;0.3435;0.3555;
1267.2000;0.3427;0.3604;
1267.5000;0.3443;0.3653;
1267.8000;0.3451;0.3677;
1268.1000;0.3435;0.3677;
1268.4000;0.3386;0.3555;
1268.7000;0.3443;0.3701;
1269.0000;0.3427;0.3701;
1269.3000;0.3427;0.3628;
1269.6000;0.3427;0.3774;
1269.9000;0.3419;0.3750;
1270.2000;0.3460;0.3774;
1270.5000;0.3500;0.3896;
1270.8000;0.3411;0.3726;
1271.1000;0.3427;0.3823;
1271.4000;0.3468;0.3823;
1271.7000;0.3443;0.3774;
1272.0000;0.3460;0.3726;
1272.3000;0.3443;0.3677;
1272.6000;0.3435;0.3653;
1272.9000;0.3443;0.3628;
1273.2000;0.3460;0.3726;
1273.5000;0.3451;0.3726;
1273.8000;0.3443;0.3726;
1274.1000;0.3500;0.3799;
1274.4000;0.3435;0.3604;
1274.7000;0.3411;0.3531;
1275.0000;0.3468;0.3677;
1275.3000;0.3476;0.3726;
1275.6000;0.3468;0.3750;
1275.9000;0.3468;0.3799;
1276.2000;0.3460;0.3799;
1276.5000;0.3451;0.3677;
1276.8000;0.3460;0.3653;
1277.1000;0.3476;0.3726;
1277.4000;0.3443;0.3701;
1277.7000;0.3443;0.3726;
1278.0000;0.3443;0.3750;
1278.3000;0.3419;0.3799;
1278.6000;0.3451;0.3823;
1278.9000;0.3411;0.3799;
1279.2000;0.3411;0.3847;
1279.5000;0.3443;0.3896;
1279.8000;0.3468;0.3872;
1280.1000;0.3443;0.3823;
1280.4000;0.3460;0.3799;
1280.7000;0.3508;0.3945;
1281.0000;0.3451;0.3799;
1281.3000;0.3443;0.3799;
1281.6000;0.3451;0.3799;
1281.9000;0.3451;0.3823;
1282.2000;0.3460;0.3823;
1282.5000;0.3451;0.3847;
1282.8000;0.3460;0.3896;
1283.1000;0.3427;0.3823;
1283.4000;0.3443;0.3799;
1283.7000;0.3451;0.3847;
1284.0000;0.3427;0.3750;
1284.3000;0.3435;0.3653;
1284.6000;0.3443;0.3604;
1284.9000;0.3460;0.3628;
1285.2000;0.3435;0.3628;
1285.5000;0.3468;0.3726;
1285.8000;0.3451;0.3726;
1286.1000;0.3468;0.3750;
1286.4000;0.3492;0.3701;
1286.7000;0.3443;0.3579;
1287.0000;0.3443;0.3506;
1287.3000;0.3419;0.3433;
1287.6000;0.3451;0.3555;
1287.9000;0.3460;0.3579;
1288.2000;0.3427;0.3628;
1288.5000;0.3378;0.3409;
1288.8000;0.3427;0.3579;
1289.1000;0.3443;0.3677;
1289.4000;0.3460;0.3604;
1289.7000;0.3443;0.3579;
1290.0000;0.3443;0.3701;
1290.3000;0.3435;0.3701;
1290.6000;0.3443;0.3799;
1290.9000;0.3451;0.3774;
1291.2000;0.3468;0.3847;
1291.5000;0.3460;0.3823;
1291.8000;0.3443;0.3823;
1292.1000;0.3451;0.3872;
1292.4000;0.3435;0.3726;
1292.7000;0.3460;0.3774;
1293.0000;0.3451;0.3750;
1293.3000;0.3435;0.3823;
1293.6000;0.3427;0.3920;
1293.9000;0.3451;0.3920;
1294.2000;0.3403;0.3774;
1294.5000;0.3451;0.3920;
1294.8000;0.3476;0.3920;
1295.1000;0.3419;0.3774;
1295.4000;0.3435;0.3726;
1295.7000;0.3460;0.3726;
1296.0000;0.3443;0.3555;
1296.3000;0.3443;0.3555;
1296.6000;0.3443;0.3482;
1296.9000;0.3427;0.3409;
1297.2000;0.3460;0.3433;
1297.5000;0.3435;0.3409;
1297.8000;0.3427;0.3482;
1298.1000;0.3468;0.3555;
1298.4000;0.3460;0.3531;
1298.7000;0.3460;0.3531;
1299.0000;0.3451;0.3506;
1299.3000;0.3427;0.3409;
1299.6000;0.3468;0.3482;
1299.9000;0.3468;0.3506;
1300.2000;0.3435;0.3482;
1300.5000;0.3460;0.3482;
1300.8000;0.3460;0.3482;
1301.1000;0.3492;0.3579;
1301.4000;0.3476;0.3579;
1301.7000;0.3451;0.3482;
1302.0000;0.3443;0.3409;
1302.3000;0.3460;0.3433;
1302.6000;0.3435;0.3409;
1302.9000;0.3435;0.3506;
1303.2000;0.3484;0.3677;
1303.5000;0.3460;0.3604;
1303.8000;0.3451;0.3555;
1304.1000;0.3435;0.3579;
1304.4000;0.3468;0.3604;
1304.7000;0.3468;0.3579;
1305.0000;0.3508;0.3726;
1305.3000;0.3451;0.3531;
1305.6000;0.3451;0.3506;
1305.9000;0.3468;0.3579;
1306.2000;0.3476;0.3653;
1306.5000;0.3451;0.3726;
1306.8000;0.3443;0.3701;
1307.1000;0.3443;0.3653;
1307.4000;0.3427;0.3604;
1307.7000;0.3451;0.3653;
1308.0000;0.3484;0.3799;
1308.3000;0.3443;0.3726;
1308.6000;0.3354;0.3482;
1308.9000;0.3435;0.3701;
1309.2000;0.3419;0.3701;
1309.5000;0.3411;0.3677;
1309.8000;0.3435;0.3799;
1310.1000;0.3443;0.3945;
1310.4000;0.3451;0.3896;
1310.7000;0.3443;0.3872;
1311.0000;0.3451;0.3847;
1311.3000;0.3427;0.3726;
1311.6000;0.3443;0.3677;
1311.9000;0.3451;0.3701;
1312.2000;0.3451;0.3701;
1312.5000;0.3451;0.3823;
1312.8000;0.3443;0.3774;
1313.1000;0.3435;0.3677;
1313.4000;0.3419;0.3726;
1313.7000;0.3443;0.3823;
1314.0000;0.3427;0.3847;
1314.3000;0.3460;0.3847;
1314.6000;0.3435;0.3872;
1314.9000;0.3435;0.3872;
1315.2000;0.3427;0.3774;
1315.5000;0.3411;0.3774;
1315.8000;0.3451;0.3750;
1316.1000;0.3443;0.3677;
1316.4000;0.3435;0.3677;
1316.7000;0.3443;0.3750;
1317.0000;0.3435;0.3872;
1317.3000;0.3451;0.3896;
1317.6000;0.3460;0.3799;
1317.9000;0.3443;0.3750;
1318.2000;0.3443;0.3701;
1318.5000;0.3435;0.3701;
1318.8000;0.3451;0.3628;
1319.1000;0.3443;0.3726;
1319.4000;0.3451;0.3653;
1319.7000;0.3435;0.3628;
1320.0000;0.3451;0.3653;
1320.3000;0.3468;0.3653;
1320.6000;0.3451;0.3628;
1320.9000;0.3468;0.3628;
1321.2000;0.3451;0.3750;
1321.5000;0.3468;0.3774;
1321.8000;0.3460;0.3653;
1322.1000;0.3451;0.3604;
1322.4000;0.3451;0.3726;
1322.7000;0.3460;0.3653;
1323.0000;0.3443;0.3677;
1323.3000;0.3427;0.3677;
1323.6000;0.3451;0.3726;
1323.9000;0.3468;0.3774;
1324.2000;0.3460;0.3677;
1324.5000;0.3460;0.3701;
1324.8000;0.3435;0.3604;
1325.1000;0.3435;0.3677;
1325.4000;0.3443;0.3750;
1325.7000;0.3468;0.3823;
1326.0000;0.3394;0.3677;
1326.3000;0.3443;0.3872;
1326.6000;0.3492;0.4018;
1326.9000;0.3451;0.3969;
1327.2000;0.3386;0.3750;
1327.5000;0.3451;0.3799;
1327.8000;0.3435;0.3774;
1328.1000;0.3435;0.3750;
1328.4000;0.3451;0.3653;
1328.7000;0.3419;0.3506;
1329.0000;0.3443;0.3555;
1329.3000;0.3435;0.3579;
1329.6000;0.3443;0.3604;
1329.9000;0.3435;0.3531;
1330.2000;0.3451;0.3531;
1330.5000;0.3460;0.3628;
1330.8000;0.3419;0.3579;
1331.1000;0.3435;0.3555;
1331.4000;0.3484;0.3701;
1331.7000;0.3451;0.3579;
1332.0000;0.3427;0.3458;
1332.3000;0.3443;0.3482;
1332.6000;0.3460;0.3555;
1332.9000;0.3443;0.3628;
1333.2000;0.3451;0.3604;
1333.5000;0.3378;0.3506;
1333.8000;0.3443;0.3628;
1334.1000;0.3460;0.3604;
1334.4000;0.3427;0.3579;
1334.7000;0.3443;0.3677;
1335.0000;0.3443;0.3701;
1335.3000;0.3443;0.3653;
1335.6000;0.3451;0.3774;
1335.9000;0.3435;0.3774;
1336.2000;0.3460;0.3774;
1336.5000;0.3460;0.3726;
1336.8000;0.3451;0.3726;
1337.1000;0.3443;0.3726;
1337.4000;0.3451;0.3799;
1337.7000;0.3451;0.3774;
1338.0000;0.3435;0.3701;
1338.3000;0.3411;0.3653;
1338.6000;0.3451;0.3653;
1338.9000;0.3484;0.3847;
1339.2000;0.3443;0.3701;
1339.5000;0.3435;0.3604;
1339.8000;0.3476;0.3653;
1340.1000;0.3443;0.3604;
1340.4000;0.3460;0.3750;
1340.7000;0.3451;0.3701;
1341.0000;0.3468;0.3677;
1341.3000;0.3386;0.3531;
1341.6000;0.3451;0.3701;
1341.9000;0.3484;0.3774;
1342.2000;0.3508;0.3872;
1342.5000;0.3435;0.3653;
1342.8000;0.3435;0.3628;
1343.1000;0.3419;0.3458;
1343.4000;0.3427;0.3458;
1343.7000;0.3443;0.3433;
1344.0000;0.3451;0.3482;
1344.3000;0.3435;0.3458;
1344.6000;0.3411;0.3409;
1344.9000;0.3468;0.3579;
1345.2000;0.3451;0.3555;
1345.5000;0.3451;0.3628;
1345.8000;0.3460;0.3701;
1346.1000;0.3468;0.3726;
1346.4000;0.3443;0.3677;
1346.7000;0.3460;0.3750;
1347.0000;0.3500;0.3847;
1347.3000;0.3435;0.3701;
1347.6000;0.3451;0.3774;
1347.9000;0.3419;0.3628;
1348.2000;0.3435;0.3604;
1348.5000;0.3443;0.3604;
1348.8000;0.3443;0.3555;
1349.1000;0.3362;0.3409;
1349.4000;0.3451;0.3579;
1349.7000;0.3460;0.3579;
1350.0000;0.3468;0.3458;
1350.3000;0.3484;0.3482;
1350.6000;0.3378;0.3141;
1350.9000;0.3468;0.3287;
1351.2000;0.3451;0.3287;
1351.5000;0.3443;0.3360;
1351.8000;0.3460;0.3433;
1352.1000;0.3451;0.3409;
1352.4000;0.3427;0.3433;
1352.7000;0.3435;0.3506;
1353.0000;0.3508;0.3677;
1353.3000;0.3451;0.3531;
1353.6000;0.3435;0.3506;
1353.9000;0.3427;0.3555;
1354.2000;0.3443;0.3628;
1354.5000;0.3443;0.3628;
1354.8000;0.3443;0.3579;
1355.1000;0.3443;0.3579;
1355.4000;0.3435;0.3555;
1355.7000;0.3451;0.3677;
1356.0000;0.3468;0.3774;
1356.3000;0.3443;0.3726;
1356.6000;0.3525;0.3920;
1356.9000;0.3460;0.3750;
1357.2000;0.3460;0.3726;
1357.5000;0.3451;0.3726;
1357.8000;0.3443;0.3628;
1358.1000;0.3443;0.3604;
1358.4000;0.3451;0.3531;
1358.7000;0.3443;0.3482;
1359.0000;0.3435;0.3385;
1359.3000;0.3451;0.3433;
1359.6000;0.3468;0.3458;
1359.9000;0.3460;0.3385;
1360.2000;0.3476;0.3482;
1360.5000;0.3492;0.3653;
1360.8000;0.3443;0.3579;
1361.1000;0.3476;0.3701;
1361.4000;0.3435;0.3677;
1361.7000;0.3435;0.3677;
1362.0000;0.3451;0.3726;
1362.3000;0.3451;0.3677;
1362.6000;0.3460;0.3726;
1362.9000;0.3435;0.3653;
1363.2000;0.3443;0.3677;
1363.5000;0.3460;0.3701;
1363.8000;0.3460;0.3701;
1364.1000;0.3460;0.3628;
1364.4000;0.3460;0.3555;
1364.7000;0.3443;0.3531;
1365.0000;0.3508;0.3726;
1365.3000;0.3451;0.3531;
1365.6000;0.3427;0.3555;
1365.9000;0.3468;0.3555;
1366.2000;0.3451;0.3628;
1366.5000;0.3484;0.3701;
1366.8000;0.3460;0.3677;
1367.1000;0.3451;0.3726;
1367.4000;0.3443;0.3677;
1367.7000;0.3443;0.3653;
1368.0000;0.3443;0.3628;
1368.3000;0.3451;0.3555;
1368.6000;0.3460;0.3506;
1368.9000;0.3476;0.3458;
1369.2000;0.3460;0.3506;
1369.5000;0.3460;0.3531;
1369.8000;0.3443;0.3482;
1370.1000;0.3525;0.3604;
1370.4000;0.3460;0.3433;
1370.7000;0.3435;0.3482;
1371.0000;0.3411;0.3458;
1371.3000;0.3451;0.3653;
1371.6000;0.3443;0.3628;
1371.9000;0.3460;0.3579;
1372.2000;0.3468;0.3579;
1372.5000;0.3443;0.3555;
1372.8000;0.3451;0.3628;
1373.1000;0.3394;0.3458;
1373.4000;0.3435;0.3628;
1373.7000;0.3394;0.3458;
1374.0000;0.3419;0.3579;
1374.3000;0.3427;0.3555;
1374.6000;0.3427;0.3531;
1374.9000;0.3427;0.3555;
1375.2000;0.3419;0.3555;
1375.5000;0.3419;0.3409;
1375.8000;0.3411;0.3409;
1376.1000;0.3443;0.3458;
1376.4000;0.3427;0.3385;
1376.7000;0.3337;0.3214;
1377.0000;0.3443;0.3506;
1377.3000;0.3411;0.3604;
1377.6000;0.3427;0.3555;
1377.9000;0.3419;0.3628;
1378.2000;0.3419;0.3555;
1378.5000;0.3411;0.3506;
1378.8000;0.3460;0.3531;
1379.1000;0.3451;0.3336;
1379.4000;0.3411;0.3287;
1379.7000;0.3460;0.3360;
1380.0000;0.3451;0.3385;
1380.3000;0.3443;0.3409;
1380.6000;0.3427;0.3409;
1380.9000;0.3460;0.3506;
1381.2000;0.3427;0.3579;
1381.5000;0.3460;0.3701;
1381.8000;0.3435;0.3628;
1382.1000;0.3427;0.3604;
1382.4000;0.3419;0.3555;
1382.7000;0.3435;0.3653;
1383.0000;0.3443;0.3628;
1383.3000;0.3468;0.3677;
1383.6000;0.3451;0.3628;
1383.9000;0.3451;0.3604;
1384.2000;0.3419;0.3531;
1384.5000;0.3403;0.3458;
1384.8000;0.3476;0.3726;
1385.1000;0.3451;0.3653;
1385.4000;0.3427;0.3604;
1385.7000;0.3443;0.3726;
1386.0000;0.3435;0.3653;
1386.3000;0.3443;0.3653;
1386.6000;0.3427;0.3531;
1386.9000;0.3460;0.3531;
1387.2000;0.3435;0.3506;
1387.5000;0.3460;0.3482;
1387.8000;0.3451;0.3458;
1388.1000;0.3435;0.3433;
1388.4000;0.3435;0.3531;
1388.7000;0.3443;0.3579;
1389.0000;0.3468;0.3677;
1389.3000;0.3435;0.3628;
1389.6000;0.3443;0.3628;
1389.9000;0.3443;0.3555;
1390.2000;0.3443;0.3506;
1390.5000;0.3443;0.3482;
1390.8000;0.3435;0.3506;
1391.1000;0.3435;0.3409;
1391.4000;0.3451;0.3531;
1391.7000;0.3460;0.3604;
1392.0000;0.3386;0.3409;
1392.3000;0.3516;0.3750;
1392.6000;0.3460;0.3531;
1392.9000;0.3460;0.3531;
1393.2000;0.3435;0.3531;
1393.5000;0.3443;0.3482;
1393.8000;0.3451;0.3506;
1394.1000;0.3460;0.3555;
1394.4000;0.3451;0.3579;
1394.7000;0.3435;0.3604;
1395.0000;0.3435;0.3628;
1395.3000;0.3460;0.3604;
1395.6000;0.3427;0.3604;
1395.9000;0.3419;0.3653;
1396.2000;0.3427;0.3750;
1396.5000;0.3443;0.3847;
1396.8000;0.3435;0.3823;
1397.1000;0.3443;0.3799;
1397.4000;0.3443;0.3774;
1397.7000;0.3443;0.3799;
1398.0000;0.3435;0.3726;
1398.3000;0.3378;0.3482;
1398.6000;0.3451;0.3628;
1398.9000;0.3443;0.3628;
1399.2000;0.3468;0.3653;
1399.5000;0.3435;0.3604;
1399.8000;0.3427;0.3555;
