time/ms;Fluo/V;P700 deltaI/I x10³;
-199.8000;0.3525;0.3579;
-199.5000;0.3590;0.3701;
-199.2000;0.3582;0.3823;
-198.9000;0.3573;0.3872;
-198.6000;0.3582;0.3823;
-198.3000;0.3582;0.3823;
-198.0000;0.3573;0.3823;
-197.7000;0.3565;0.3726;
-197.4000;0.3590;0.3774;
-197.1000;0.3598;0.3823;
-196.8000;0.3582;0.3823;
-196.5000;0.3582;0.3847;
-196.2000;0.3590;0.3872;
-195.9000;0.3590;0.3847;
-195.6000;0.3541;0.3823;
-195.3000;0.3573;0.3920;
-195.0000;0.3582;0.3872;
-194.7000;0.3639;0.3993;
-194.4000;0.3590;0.3896;
-194.1000;0.3582;0.3945;
-193.8000;0.3582;0.3920;
-193.5000;0.3590;0.3993;
-193.2000;0.3582;0.3993;
-192.9000;0.3590;0.3969;
-192.6000;0.3590;0.3920;
-192.3000;0.3590;0.3920;
-192.0000;0.3582;0.4018;
-191.7000;0.3573;0.3993;
-191.4000;0.3582;0.3969;
-191.1000;0.3573;0.3993;
-190.8000;0.3590;0.3969;
-190.5000;0.3565;0.3920;
-190.2000;0.3590;0.3920;
-189.9000;0.3582;0.3896;
-189.6000;0.3582;0.3872;
-189.3000;0.3573;0.3896;
-189.0000;0.3573;0.3969;
-188.7000;0.3598;0.3993;
-188.4000;0.3582;0.3799;
-188.1000;0.3590;0.3799;
-187.8000;0.3614;0.3823;
-187.5000;0.3582;0.3653;
-187.2000;0.3590;0.3750;
-186.9000;0.3590;0.3726;
-186.6000;0.3590;0.3799;
-186.3000;0.3590;0.3774;
-186.0000;0.3590;0.3726;
-185.7000;0.3590;0.3774;
-185.4000;0.3590;0.3799;
-185.1000;0.3582;0.3823;
-184.8000;0.3565;0.3823;
-184.5000;0.3582;0.3896;
-184.2000;0.3573;0.3799;
-183.9000;0.3582;0.3896;
-183.6000;0.3590;0.3823;
-183.3000;0.3590;0.3847;
-183.0000;0.3549;0.3774;
-182.7000;0.3582;0.3774;
-182.4000;0.3590;0.3726;
-182.1000;0.3590;0.3701;
-181.8000;0.3590;0.3701;
-181.5000;0.3573;0.3677;
-181.2000;0.3590;0.3750;
-180.9000;0.3565;0.3750;
-180.6000;0.3582;0.3701;
-180.3000;0.3573;0.3677;
-180.0000;0.3582;0.3726;
-179.7000;0.3590;0.3823;
-179.4000;0.3590;0.3896;
-179.1000;0.3582;0.3847;
-178.8000;0.3582;0.3823;
-178.5000;0.3590;0.3799;
-178.2000;0.3565;0.3799;
-177.9000;0.3573;0.3726;
-177.6000;0.3582;0.3774;
-177.3000;0.3590;0.3823;
-177.0000;0.3525;0.3726;
-176.7000;0.3590;0.3945;
-176.4000;0.3557;0.3920;
-176.1000;0.3582;0.4018;
-175.8000;0.3590;0.4066;
-175.5000;0.3573;0.3920;
-175.2000;0.3582;0.3872;
-174.9000;0.3582;0.3847;
-174.6000;0.3590;0.3847;
-174.3000;0.3590;0.3847;
-174.0000;0.3598;0.3920;
-173.7000;0.3573;0.3896;
-173.4000;0.3582;0.3993;
-173.1000;0.3598;0.3969;
-172.8000;0.3590;0.3969;
-172.5000;0.3590;0.3847;
-172.2000;0.3533;0.3653;
-171.9000;0.3590;0.3726;
-171.6000;0.3565;0.3653;
-171.3000;0.3582;0.3677;
-171.0000;0.3541;0.3555;
-170.7000;0.3573;0.3628;
-170.4000;0.3573;0.3653;
-170.1000;0.3582;0.3677;
-169.8000;0.3582;0.3726;
-169.5000;0.3590;0.3799;
-169.2000;0.3590;0.3872;
-168.9000;0.3582;0.3847;
-168.6000;0.3582;0.3969;
-168.3000;0.3598;0.4042;
-168.0000;0.3606;0.4042;
-167.7000;0.3606;0.4018;
-167.4000;0.3582;0.3920;
-167.1000;0.3582;0.3945;
-166.8000;0.3606;0.3969;
-166.5000;0.3590;0.3920;
-166.2000;0.3598;0.3969;
-165.9000;0.3598;0.3945;
-165.6000;0.3533;0.3774;
-165.3000;0.3590;0.3872;
-165.0000;0.3582;0.3920;
-164.7000;0.3573;0.3872;
-164.4000;0.3590;0.3847;
-164.1000;0.3590;0.3823;
-163.8000;0.3639;0.3969;
-163.5000;0.3590;0.3726;
-163.2000;0.3590;0.3701;
-162.9000;0.3582;0.3750;
-162.6000;0.3647;0.3920;
-162.3000;0.3582;0.3726;
-162.0000;0.3525;0.3579;
-161.7000;0.3598;0.3823;
-161.4000;0.3582;0.3701;
-161.1000;0.3590;0.3750;
-160.8000;0.3606;0.3847;
-160.5000;0.3590;0.3847;
-160.2000;0.3622;0.3993;
-159.9000;0.3598;0.3969;
-159.6000;0.3573;0.3920;
-159.3000;0.3590;0.3872;
-159.0000;0.3590;0.3920;
-158.7000;0.3582;0.3774;
-158.4000;0.3582;0.3677;
-158.1000;0.3614;0.3726;
-157.8000;0.3590;0.3653;
-157.5000;0.3598;0.3653;
-157.2000;0.3573;0.3604;
-156.9000;0.3590;0.3628;
-156.6000;0.3565;0.3628;
-156.3000;0.3590;0.3677;
-156.0000;0.3590;0.3653;
-155.7000;0.3573;0.3604;
-155.4000;0.3573;0.3628;
-155.1000;0.3573;0.3750;
-154.8000;0.3541;0.3604;
-154.5000;0.3582;0.3726;
-154.2000;0.3598;0.3774;
-153.9000;0.3598;0.3750;
-153.6000;0.3590;0.3823;
-153.3000;0.3606;0.3847;
-153.0000;0.3573;0.3823;
-152.7000;0.3606;0.3847;
-152.4000;0.3541;0.3726;
-152.1000;0.3598;0.3847;
-151.8000;0.3614;0.3847;
-151.5000;0.3606;0.3896;
-151.2000;0.3598;0.3872;
-150.9000;0.3573;0.3920;
-150.6000;0.3598;0.3945;
-150.3000;0.3590;0.3872;
-150.0000;0.3590;0.3896;
-149.7000;0.3582;0.3969;
-149.4000;0.3565;0.3872;
-149.1000;0.3598;0.3872;
-148.8000;0.3573;0.3847;
-148.5000;0.3582;0.3823;
-148.2000;0.3582;0.3823;
-147.9000;0.3598;0.3799;
-147.6000;0.3582;0.3750;
-147.3000;0.3582;0.3823;
-147.0000;0.3590;0.3872;
-146.7000;0.3484;0.3604;
-146.4000;0.3582;0.3872;
-146.1000;0.3590;0.3896;
-145.8000;0.3573;0.3872;
-145.5000;0.3573;0.3774;
-145.2000;0.3582;0.3823;
-144.9000;0.3639;0.3847;
-144.6000;0.3639;0.3896;
-144.3000;0.3590;0.3774;
-144.0000;0.3598;0.3799;
-143.7000;0.3525;0.3555;
-143.4000;0.3582;0.3653;
-143.1000;0.3590;0.3579;
-142.8000;0.3590;0.3677;
-142.5000;0.3598;0.3701;
-142.2000;0.3565;0.3653;
-141.9000;0.3622;0.3726;
-141.6000;0.3590;0.3726;
-141.3000;0.3598;0.3677;
-141.0000;0.3590;0.3628;
-140.7000;0.3582;0.3677;
-140.4000;0.3573;0.3726;
-140.1000;0.3582;0.3726;
-139.8000;0.3573;0.3726;
-139.5000;0.3582;0.3823;
-139.2000;0.3582;0.3799;
-138.9000;0.3590;0.3677;
-138.6000;0.3598;0.3726;
-138.3000;0.3606;0.3774;
-138.0000;0.3573;0.3677;
-137.7000;0.3582;0.3726;
-137.4000;0.3606;0.3750;
-137.1000;0.3590;0.3628;
-136.8000;0.3630;0.3774;
-136.5000;0.3598;0.3726;
-136.2000;0.3525;0.3579;
-135.9000;0.3573;0.3774;
-135.6000;0.3590;0.3823;
-135.3000;0.3565;0.3677;
-135.0000;0.3565;0.3555;
-134.7000;0.3557;0.3653;
-134.4000;0.3573;0.3677;
-134.1000;0.3565;0.3653;
-133.8000;0.3598;0.3750;
-133.5000;0.3565;0.3774;
-133.2000;0.3508;0.3653;
-132.9000;0.3533;0.3653;
-132.6000;0.3590;0.3799;
-132.3000;0.3590;0.3774;
-132.0000;0.3582;0.3701;
-131.7000;0.3598;0.3701;
-131.4000;0.3573;0.3677;
-131.1000;0.3606;0.3774;
-130.8000;0.3590;0.3726;
-130.5000;0.3582;0.3750;
-130.2000;0.3598;0.3872;
-129.9000;0.3582;0.3799;
-129.6000;0.3590;0.3823;
-129.3000;0.3590;0.3872;
-129.0000;0.3565;0.3872;
-128.7000;0.3622;0.3896;
-128.4000;0.3590;0.3920;
-128.1000;0.3606;0.3872;
-127.8000;0.3598;0.3847;
-127.5000;0.3598;0.3847;
-127.2000;0.3639;0.3969;
-126.9000;0.3573;0.3823;
-126.6000;0.3647;0.3945;
-126.3000;0.3590;0.3750;
-126.0000;0.3606;0.3799;
-125.7000;0.3590;0.3823;
-125.4000;0.3573;0.3872;
-125.1000;0.3598;0.3872;
-124.8000;0.3590;0.3945;
-124.5000;0.3590;0.3969;
-124.2000;0.3573;0.3920;
-123.9000;0.3582;0.3872;
-123.6000;0.3663;0.4042;
-123.3000;0.3606;0.3847;
-123.0000;0.3565;0.3750;
-122.7000;0.3598;0.3823;
-122.4000;0.3606;0.3872;
-122.1000;0.3598;0.3896;
-121.8000;0.3590;0.3774;
-121.5000;0.3614;0.3823;
-121.2000;0.3573;0.3774;
-120.9000;0.3582;0.3799;
-120.6000;0.3590;0.3774;
-120.3000;0.3573;0.3628;
-120.0000;0.3590;0.3628;
-119.7000;0.3582;0.3555;
-119.4000;0.3582;0.3653;
-119.1000;0.3622;0.3701;
-118.8000;0.3590;0.3604;
-118.5000;0.3582;0.3653;
-118.2000;0.3598;0.3677;
-117.9000;0.3565;0.3555;
-117.6000;0.3573;0.3555;
-117.3000;0.3582;0.3579;
-117.0000;0.3590;0.3531;
-116.7000;0.3606;0.3628;
-116.4000;0.3582;0.3653;
-116.1000;0.3590;0.3677;
-115.8000;0.3582;0.3579;
-115.5000;0.3525;0.3458;
-115.2000;0.3565;0.3433;
-114.9000;0.3598;0.3433;
-114.6000;0.3590;0.3287;
-114.3000;0.3582;0.3336;
-114.0000;0.3582;0.3458;
-113.7000;0.3590;0.3579;
-113.4000;0.3630;0.3604;
-113.1000;0.3696;0.3750;
-112.8000;0.3590;0.3579;
-112.5000;0.3590;0.3726;
-112.2000;0.3671;0.3969;
-111.9000;0.3573;0.3750;
-111.6000;0.3606;0.3726;
-111.3000;0.3590;0.3579;
-111.0000;0.3565;0.3579;
-110.7000;0.3573;0.3604;
-110.4000;0.3598;0.3726;
-110.1000;0.3565;0.3628;
-109.8000;0.3582;0.3579;
-109.5000;0.3573;0.3531;
-109.2000;0.3582;0.3482;
-108.9000;0.3598;0.3555;
-108.6000;0.3639;0.3677;
-108.3000;0.3582;0.3579;
-108.0000;0.3582;0.3677;
-107.7000;0.3573;0.3677;
-107.4000;0.3573;0.3677;
-107.1000;0.3582;0.3653;
-106.8000;0.3590;0.3774;
-106.5000;0.3590;0.3872;
-106.2000;0.3573;0.3872;
-105.9000;0.3582;0.3799;
-105.6000;0.3590;0.3896;
-105.3000;0.3565;0.3726;
-105.0000;0.3582;0.3726;
-104.7000;0.3598;0.3774;
-104.4000;0.3582;0.3799;
-104.1000;0.3598;0.3799;
-103.8000;0.3606;0.3896;
-103.5000;0.3565;0.3799;
-103.2000;0.3582;0.3750;
-102.9000;0.3573;0.3555;
-102.6000;0.3614;0.3677;
-102.3000;0.3573;0.3579;
-102.0000;0.3590;0.3579;
-101.7000;0.3549;0.3555;
-101.4000;0.3590;0.3604;
-101.1000;0.3590;0.3628;
-100.8000;0.3598;0.3677;
-100.5000;0.3614;0.3726;
-100.2000;0.3614;0.3701;
-99.9000;0.3590;0.3604;
-99.6000;0.3606;0.3677;
-99.3000;0.3590;0.3750;
-99.0000;0.3565;0.3896;
-98.7000;0.3573;0.3993;
-98.4000;0.3573;0.4066;
-98.1000;0.3549;0.4091;
-97.8000;0.3590;0.4188;
-97.5000;0.3573;0.4115;
-97.2000;0.3598;0.4115;
-96.9000;0.3565;0.4042;
-96.6000;0.3565;0.3969;
-96.3000;0.3598;0.3993;
-96.0000;0.3533;0.3799;
-95.7000;0.3533;0.3750;
-95.4000;0.3598;0.3945;
-95.1000;0.3573;0.4066;
-94.8000;0.3565;0.4066;
-94.5000;0.3590;0.4140;
-94.2000;0.3565;0.4018;
-93.9000;0.3573;0.4066;
-93.6000;0.3582;0.4042;
-93.3000;0.3573;0.3993;
-93.0000;0.3590;0.3969;
-92.7000;0.3590;0.3993;
-92.4000;0.3582;0.3945;
-92.1000;0.3590;0.4018;
-91.8000;0.3606;0.3993;
-91.5000;0.3606;0.3969;
-91.2000;0.3622;0.3945;
-90.9000;0.3565;0.3823;
-90.6000;0.3606;0.4042;
-90.3000;0.3606;0.4115;
-90.0000;0.3582;0.4018;
-89.7000;0.3590;0.3896;
-89.4000;0.3582;0.3920;
-89.1000;0.3590;0.3945;
-88.8000;0.3565;0.3896;
-88.5000;0.3573;0.3945;
-88.2000;0.3590;0.3945;
-87.9000;0.3598;0.3872;
-87.6000;0.3598;0.3799;
-87.3000;0.3582;0.3750;
-87.0000;0.3590;0.3823;
-86.7000;0.3598;0.3799;
-86.4000;0.3533;0.3653;
-86.1000;0.3606;0.3896;
-85.8000;0.3573;0.3847;
-85.5000;0.3598;0.3896;
-85.2000;0.3614;0.3920;
-84.9000;0.3582;0.3920;
-84.6000;0.3590;0.3872;
-84.3000;0.3606;0.3847;
-84.0000;0.3565;0.3701;
-83.7000;0.3582;0.3799;
-83.4000;0.3573;0.3799;
-83.1000;0.3590;0.3774;
-82.8000;0.3590;0.3847;
-82.5000;0.3573;0.3847;
-82.2000;0.3549;0.3726;
-81.9000;0.3573;0.3799;
-81.6000;0.3541;0.3677;
-81.3000;0.3541;0.3628;
-81.0000;0.3565;0.3653;
-80.7000;0.3565;0.3555;
-80.4000;0.3630;0.3774;
-80.1000;0.3582;0.3677;
-79.8000;0.3557;0.3555;
-79.5000;0.3557;0.3482;
-79.2000;0.3590;0.3482;
-78.9000;0.3590;0.3604;
-78.6000;0.3590;0.3653;
-78.3000;0.3533;0.3433;
-78.0000;0.3573;0.3653;
-77.7000;0.3590;0.3677;
-77.4000;0.3622;0.3677;
-77.1000;0.3622;0.3628;
-76.8000;0.3573;0.3506;
-76.5000;0.3573;0.3506;
-76.2000;0.3655;0.3677;
-75.9000;0.3541;0.3433;
-75.6000;0.3565;0.3409;
-75.3000;0.3590;0.3433;
-75.0000;0.3557;0.3409;
-74.7000;0.3557;0.3458;
-74.4000;0.3565;0.3506;
-74.1000;0.3590;0.3604;
-73.8000;0.3590;0.3555;
-73.5000;0.3622;0.3628;
-73.2000;0.3541;0.3409;
-72.9000;0.3582;0.3409;
-72.6000;0.3565;0.3409;
-72.3000;0.3582;0.3458;
-72.0000;0.3590;0.3433;
-71.7000;0.3590;0.3458;
-71.4000;0.3590;0.3458;
-71.1000;0.3582;0.3506;
-70.8000;0.3565;0.3628;
-70.5000;0.3573;0.3726;
-70.2000;0.3582;0.3750;
-69.9000;0.3582;0.3701;
-69.6000;0.3565;0.3653;
-69.3000;0.3582;0.3726;
-69.0000;0.3533;0.3701;
-68.7000;0.3565;0.3799;
-68.4000;0.3590;0.3872;
-68.1000;0.3573;0.3847;
-67.8000;0.3573;0.3920;
-67.5000;0.3582;0.3920;
-67.2000;0.3606;0.3993;
-66.9000;0.3590;0.3920;
-66.6000;0.3606;0.3993;
-66.3000;0.3590;0.3896;
-66.0000;0.3590;0.3872;
-65.7000;0.3590;0.3847;
-65.4000;0.3590;0.3896;
-65.1000;0.3573;0.3896;
-64.8000;0.3598;0.3993;
-64.5000;0.3582;0.3896;
-64.2000;0.3541;0.3774;
-63.9000;0.3582;0.3872;
-63.6000;0.3590;0.3847;
-63.3000;0.3565;0.3750;
-63.0000;0.3590;0.3701;
-62.7000;0.3541;0.3531;
-62.4000;0.3590;0.3653;
-62.1000;0.3590;0.3604;
-61.8000;0.3549;0.3579;
-61.5000;0.3582;0.3628;
-61.2000;0.3590;0.3677;
-60.9000;0.3573;0.3726;
-60.6000;0.3606;0.3799;
-60.3000;0.3557;0.3701;
-60.0000;0.3590;0.3847;
-59.7000;0.3590;0.3872;
-59.4000;0.3573;0.3799;
-59.1000;0.3565;0.3799;
-58.8000;0.3606;0.3969;
-58.5000;0.3582;0.3945;
-58.2000;0.3598;0.3993;
-57.9000;0.3582;0.3920;
-57.6000;0.3533;0.3847;
-57.3000;0.3582;0.3969;
-57.0000;0.3582;0.3945;
-56.7000;0.3573;0.3945;
-56.4000;0.3557;0.3969;
-56.1000;0.3573;0.4066;
-55.8000;0.3663;0.4261;
-55.5000;0.3582;0.3993;
-55.2000;0.3573;0.3920;
-54.9000;0.3696;0.4115;
-54.6000;0.3606;0.3823;
-54.3000;0.3606;0.3823;
-54.0000;0.3590;0.3750;
-53.7000;0.3590;0.3774;
-53.4000;0.3606;0.3872;
-53.1000;0.3557;0.3750;
-52.8000;0.3598;0.3920;
-52.5000;0.3606;0.3969;
-52.2000;0.3516;0.3799;
-51.9000;0.3630;0.3969;
-51.6000;0.3565;0.3847;
-51.3000;0.3590;0.3945;
-51.0000;0.3598;0.3920;
-50.7000;0.3582;0.3920;
-50.4000;0.3573;0.3920;
-50.1000;0.3557;0.3945;
-49.8000;0.3590;0.3993;
-49.5000;0.3590;0.4091;
-49.2000;0.3590;0.4042;
-48.9000;0.3582;0.3847;
-48.6000;0.3590;0.3847;
-48.3000;0.3573;0.3872;
-48.0000;0.3582;0.3847;
-47.7000;0.3582;0.3847;
-47.4000;0.3565;0.3945;
-47.1000;0.3582;0.3993;
-46.8000;0.3598;0.4066;
-46.5000;0.3582;0.4018;
-46.2000;0.3573;0.3993;
-45.9000;0.3582;0.4066;
-45.6000;0.3606;0.4164;
-45.3000;0.3573;0.4091;
-45.0000;0.3573;0.3993;
-44.7000;0.3582;0.3993;
-44.4000;0.3598;0.3993;
-44.1000;0.3582;0.3969;
-43.8000;0.3573;0.3896;
-43.5000;0.3582;0.3872;
-43.2000;0.3590;0.3969;
-42.9000;0.3614;0.3993;
-42.6000;0.3606;0.4042;
-42.3000;0.3573;0.3920;
-42.0000;0.3500;0.3677;
-41.7000;0.3573;0.3847;
-41.4000;0.3590;0.3896;
-41.1000;0.3582;0.3872;
-40.8000;0.3582;0.3896;
-40.5000;0.3573;0.3750;
-40.2000;0.3622;0.3847;
-39.9000;0.3582;0.3726;
-39.6000;0.3582;0.3823;
-39.3000;0.3549;0.3774;
-39.0000;0.3606;0.3945;
-38.7000;0.3590;0.3896;
-38.4000;0.3590;0.3920;
-38.1000;0.3573;0.3847;
-37.8000;0.3573;0.3799;
-37.5000;0.3590;0.3799;
-37.2000;0.3590;0.3847;
-36.9000;0.3565;0.3799;
-36.6000;0.3630;0.3993;
-36.3000;0.3590;0.3847;
-36.0000;0.3598;0.3847;
-35.7000;0.3598;0.3823;
-35.4000;0.3614;0.3872;
-35.1000;0.3606;0.3750;
-34.8000;0.3582;0.3847;
-34.5000;0.3598;0.3847;
-34.2000;0.3582;0.3726;
-33.9000;0.3573;0.3701;
-33.6000;0.3573;0.3701;
-33.3000;0.3557;0.3799;
-33.0000;0.3582;0.3896;
-32.7000;0.3541;0.3774;
-32.4000;0.3663;0.4042;
-32.1000;0.3573;0.3799;
-31.8000;0.3565;0.3774;
-31.5000;0.3508;0.3579;
-31.2000;0.3565;0.3750;
-30.9000;0.3549;0.3628;
-30.6000;0.3573;0.3726;
-30.3000;0.3582;0.3677;
-30.0000;0.3590;0.3653;
-29.7000;0.3573;0.3628;
-29.4000;0.3573;0.3653;
-29.1000;0.3606;0.3701;
-28.8000;0.3598;0.3799;
-28.5000;0.3565;0.3701;
-28.2000;0.3590;0.3799;
-27.9000;0.3582;0.3823;
-27.6000;0.3590;0.3872;
-27.3000;0.3590;0.3774;
-27.0000;0.3565;0.3774;
-26.7000;0.3590;0.3726;
-26.4000;0.3582;0.3726;
-26.1000;0.3590;0.3799;
-25.8000;0.3590;0.3823;
-25.5000;0.3590;0.3774;
-25.2000;0.3590;0.3750;
-24.9000;0.3533;0.3677;
-24.6000;0.3565;0.3774;
-24.3000;0.3590;0.3872;
-24.0000;0.3647;0.3993;
-23.7000;0.3582;0.3847;
-23.4000;0.3582;0.3799;
-23.1000;0.3582;0.3774;
-22.8000;0.3582;0.3750;
-22.5000;0.3565;0.3750;
-22.2000;0.3573;0.3799;
-21.9000;0.3451;0.3482;
-21.6000;0.3582;0.3726;
-21.3000;0.3573;0.3823;
-21.0000;0.3573;0.3847;
-20.7000;0.3557;0.3847;
-20.4000;0.3573;0.3823;
-20.1000;0.3557;0.3774;
-19.8000;0.3590;0.3872;
-19.5000;0.3582;0.3799;
-19.2000;0.3582;0.3823;
-18.9000;0.3590;0.3847;
-18.6000;0.3573;0.3847;
-18.3000;0.3557;0.3823;
-18.0000;0.3565;0.3847;
-17.7000;0.3565;0.3774;
-17.4000;0.3590;0.3774;
-17.1000;0.3573;0.3823;
-16.8000;0.3590;0.3799;
-16.5000;0.3582;0.3701;
-16.2000;0.3565;0.3677;
-15.9000;0.3565;0.3701;
-15.6000;0.3565;0.3677;
-15.3000;0.3622;0.3823;
-15.0000;0.3582;0.3823;
-14.7000;0.3573;0.3872;
-14.4000;0.3565;0.3823;
-14.1000;0.3582;0.3847;
-13.8000;0.3598;0.3872;
-13.5000;0.3573;0.3847;
-13.2000;0.3573;0.3823;
-12.9000;0.3500;0.3677;
-12.6000;0.3573;0.3823;
-12.3000;0.3573;0.3750;
-12.0000;0.3582;0.3823;
-11.7000;0.3557;0.3774;
-11.4000;0.3598;0.3920;
-11.1000;0.3582;0.3920;
-10.8000;0.3582;0.3920;
-10.5000;0.3533;0.3750;
-10.2000;0.3598;0.3945;
-9.9000;0.3606;0.3969;
-9.6000;0.3525;0.3847;
-9.3000;0.3557;0.3920;
-9.0000;0.3582;0.3969;
-8.7000;0.3590;0.4042;
-8.4000;0.3598;0.3945;
-8.1000;0.3606;0.3945;
-7.8000;0.3639;0.3969;
-7.5000;0.3590;0.3799;
-7.2000;0.3582;0.3750;
-6.9000;0.3590;0.3726;
-6.6000;0.3590;0.3701;
-6.3000;0.3590;0.3823;
-6.0000;0.3573;0.3847;
-5.7000;0.3573;0.3823;
-5.4000;0.3565;0.3823;
-5.1000;0.3598;0.3945;
-4.8000;0.3622;0.3969;
-4.5000;0.3630;0.3920;
-4.2000;0.3582;0.3872;
-3.9000;0.3582;0.3726;
-3.6000;0.3614;0.3823;
-3.3000;0.3565;0.3653;
-3.0000;0.3557;0.3677;
-2.7000;0.3557;0.3628;
-2.4000;0.3582;0.3677;
-2.1000;0.3590;0.3677;
-1.8000;0.3582;0.3628;
-1.5000;0.3573;0.3653;
-1.2000;0.3557;0.3579;
-0.9000;0.3573;0.3628;
-0.6000;0.3557;0.3677;
-0.3000;0.3590;0.3726;
0.0000;0.3590;0.3726;
0.3000;0.3598;0.3555;
0.6000;0.3728;0.4042;
0.9000;0.3793;0.4407;
1.2000;0.3915;0.4748;
1.5000;0.3923;0.4846;
1.8000;0.3932;0.4943;
2.1000;0.3972;0.5187;
2.4000;0.3989;0.5503;
2.7000;0.4013;0.5698;
3.0000;0.4037;0.5747;
3.3000;0.4046;0.5893;
3.6000;0.4037;0.5941;
3.9000;0.4070;0.6039;
4.2000;0.4070;0.6063;
4.5000;0.4070;0.6112;
4.8000;0.4070;0.6014;
5.1000;0.4078;0.6063;
5.4000;0.4078;0.6088;
5.7000;0.4111;0.6161;
6.0000;0.4103;0.6185;
6.3000;0.4078;0.6209;
6.6000;0.4062;0.6185;
6.9000;0.4103;0.6307;
7.2000;0.4111;0.6282;
7.5000;0.4127;0.6258;
7.8000;0.4094;0.6355;
8.1000;0.4119;0.6404;
8.4000;0.4094;0.6307;
8.7000;0.4111;0.6331;
9.0000;0.4127;0.6331;
9.3000;0.4135;0.6428;
9.6000;0.4135;0.6355;
9.9000;0.4127;0.6331;
10.2000;0.4135;0.6307;
10.5000;0.4135;0.6307;
10.8000;0.4143;0.6404;
11.1000;0.4143;0.6404;
11.4000;0.4168;0.6477;
11.7000;0.4143;0.6307;
12.0000;0.4168;0.6355;
12.3000;0.4160;0.6380;
12.6000;0.4168;0.6331;
12.9000;0.4184;0.6331;
13.2000;0.4200;0.6404;
13.5000;0.4151;0.6234;
13.8000;0.4184;0.6282;
14.1000;0.4200;0.6258;
14.4000;0.4184;0.6234;
14.7000;0.4151;0.6234;
15.0000;0.4192;0.6258;
15.3000;0.4200;0.6209;
15.6000;0.4192;0.6234;
15.9000;0.4225;0.6380;
16.2000;0.4200;0.6380;
16.5000;0.4249;0.6477;
16.8000;0.4249;0.6453;
17.1000;0.4184;0.6209;
17.4000;0.4225;0.6258;
17.7000;0.4208;0.6234;
18.0000;0.4160;0.6258;
18.3000;0.4160;0.6258;
18.6000;0.4192;0.6404;
18.9000;0.4200;0.6404;
19.2000;0.4217;0.6282;
19.5000;0.4217;0.6258;
19.8000;0.4208;0.6209;
20.1000;0.4233;0.6307;
20.4000;0.4225;0.6282;
20.7000;0.4241;0.6355;
21.0000;0.4200;0.6282;
21.3000;0.4217;0.6331;
21.6000;0.4241;0.6404;
21.9000;0.4298;0.6526;
22.2000;0.4233;0.6380;
22.5000;0.4257;0.6380;
22.8000;0.4298;0.6355;
23.1000;0.4249;0.6258;
23.4000;0.4217;0.6209;
23.7000;0.4249;0.6282;
24.0000;0.4233;0.6258;
24.3000;0.4265;0.6380;
24.6000;0.4249;0.6355;
24.9000;0.4249;0.6355;
25.2000;0.4257;0.6380;
25.5000;0.4265;0.6355;
25.8000;0.4265;0.6282;
26.1000;0.4290;0.6258;
26.4000;0.4265;0.6209;
26.7000;0.4265;0.6209;
27.0000;0.4265;0.6234;
27.3000;0.4265;0.6209;
27.6000;0.4233;0.6161;
27.9000;0.4274;0.6307;
28.2000;0.4274;0.6282;
28.5000;0.4274;0.6209;
28.8000;0.4249;0.6234;
29.1000;0.4257;0.6209;
29.4000;0.4265;0.6209;
29.7000;0.4290;0.6258;
30.0000;0.4241;0.6088;
30.3000;0.4274;0.6185;
30.6000;0.4274;0.6234;
30.9000;0.4282;0.6258;
31.2000;0.4282;0.6258;
31.5000;0.4265;0.6234;
31.8000;0.4330;0.6380;
32.1000;0.4290;0.6380;
32.4000;0.4298;0.6355;
32.7000;0.4265;0.6258;
33.0000;0.4290;0.6307;
33.3000;0.4306;0.6380;
33.6000;0.4306;0.6404;
33.9000;0.4282;0.6282;
34.2000;0.4274;0.6185;
34.5000;0.4241;0.6185;
34.8000;0.4265;0.6258;
35.1000;0.4274;0.6282;
35.4000;0.4347;0.6380;
35.7000;0.4282;0.6234;
36.0000;0.4282;0.6234;
36.3000;0.4290;0.6209;
36.6000;0.4298;0.6234;
36.9000;0.4290;0.6282;
37.2000;0.4274;0.6258;
37.5000;0.4290;0.6307;
37.8000;0.4306;0.6355;
38.1000;0.4290;0.6380;
38.4000;0.4339;0.6575;
38.7000;0.4298;0.6380;
39.0000;0.4290;0.6355;
39.3000;0.4306;0.6404;
39.6000;0.4298;0.6380;
39.9000;0.4314;0.6380;
40.2000;0.4290;0.6380;
40.5000;0.4290;0.6404;
40.8000;0.4347;0.6453;
41.1000;0.4306;0.6404;
41.4000;0.4306;0.6453;
41.7000;0.4282;0.6428;
42.0000;0.4339;0.6672;
42.3000;0.4298;0.6648;
42.6000;0.4298;0.6721;
42.9000;0.4314;0.6769;
43.2000;0.4306;0.6842;
43.5000;0.4290;0.6794;
43.8000;0.4290;0.6745;
44.1000;0.4306;0.6623;
44.4000;0.4306;0.6599;
44.7000;0.4322;0.6623;
45.0000;0.4314;0.6599;
45.3000;0.4298;0.6501;
45.6000;0.4298;0.6453;
45.9000;0.4314;0.6453;
46.2000;0.4298;0.6380;
46.5000;0.4314;0.6404;
46.8000;0.4322;0.6380;
47.1000;0.4298;0.6307;
47.4000;0.4330;0.6331;
47.7000;0.4314;0.6282;
48.0000;0.4306;0.6331;
48.3000;0.4322;0.6258;
48.6000;0.4330;0.6282;
48.9000;0.4330;0.6380;
49.2000;0.4330;0.6428;
49.5000;0.4314;0.6477;
49.8000;0.4330;0.6575;
50.1000;0.4322;0.6550;
50.4000;0.4314;0.6526;
50.7000;0.4306;0.6599;
51.0000;0.4371;0.6745;
51.3000;0.4314;0.6648;
51.6000;0.4314;0.6696;
51.9000;0.4306;0.6623;
52.2000;0.4314;0.6623;
52.5000;0.4330;0.6623;
52.8000;0.4314;0.6575;
53.1000;0.4314;0.6477;
53.4000;0.4314;0.6453;
53.7000;0.4322;0.6477;
54.0000;0.4322;0.6453;
54.3000;0.4330;0.6477;
54.6000;0.4322;0.6477;
54.9000;0.4339;0.6453;
55.2000;0.4347;0.6355;
55.5000;0.4290;0.6209;
55.8000;0.4330;0.6404;
56.1000;0.4322;0.6453;
56.4000;0.4322;0.6477;
56.7000;0.4314;0.6428;
57.0000;0.4298;0.6282;
57.3000;0.4322;0.6355;
57.6000;0.4330;0.6404;
57.9000;0.4322;0.6428;
58.2000;0.4322;0.6453;
58.5000;0.4330;0.6453;
58.8000;0.4322;0.6501;
59.1000;0.4274;0.6404;
59.4000;0.4322;0.6550;
59.7000;0.4330;0.6526;
60.0000;0.4330;0.6550;
60.3000;0.4339;0.6648;
60.6000;0.4257;0.6404;
60.9000;0.4339;0.6575;
61.2000;0.4339;0.6599;
61.5000;0.4379;0.6648;
61.8000;0.4330;0.6599;
62.1000;0.4330;0.6648;
62.4000;0.4347;0.6648;
62.7000;0.4330;0.6721;
63.0000;0.4339;0.6721;
63.3000;0.4322;0.6696;
63.6000;0.4339;0.6623;
63.9000;0.4314;0.6501;
64.2000;0.4314;0.6477;
64.5000;0.4330;0.6526;
64.8000;0.4330;0.6526;
65.1000;0.4339;0.6526;
65.4000;0.4339;0.6623;
65.7000;0.4322;0.6599;
66.0000;0.4314;0.6526;
66.3000;0.4347;0.6575;
66.6000;0.4347;0.6501;
66.9000;0.4330;0.6453;
67.2000;0.4274;0.6404;
67.5000;0.4274;0.6404;
67.8000;0.4322;0.6599;
68.1000;0.4330;0.6477;
68.4000;0.4330;0.6453;
68.7000;0.4330;0.6428;
69.0000;0.4339;0.6404;
69.3000;0.4355;0.6331;
69.6000;0.4339;0.6282;
69.9000;0.4428;0.6526;
70.2000;0.4347;0.6282;
70.5000;0.4428;0.6550;
70.8000;0.4322;0.6258;
71.1000;0.4322;0.6331;
71.4000;0.4290;0.6234;
71.7000;0.4298;0.6404;
72.0000;0.4330;0.6380;
72.3000;0.4330;0.6428;
72.6000;0.4322;0.6404;
72.9000;0.4355;0.6404;
73.2000;0.4387;0.6501;
73.5000;0.4330;0.6355;
73.8000;0.4339;0.6185;
74.1000;0.4298;0.6088;
74.4000;0.4347;0.6161;
74.7000;0.4371;0.6258;
75.0000;0.4322;0.6209;
75.3000;0.4322;0.6209;
75.6000;0.4339;0.6258;
75.9000;0.4339;0.6234;
76.2000;0.4339;0.6282;
76.5000;0.4347;0.6258;
76.8000;0.4314;0.6258;
77.1000;0.4339;0.6453;
77.4000;0.4339;0.6477;
77.7000;0.4306;0.6307;
78.0000;0.4379;0.6380;
78.3000;0.4330;0.6307;
78.6000;0.4339;0.6234;
78.9000;0.4322;0.6258;
79.2000;0.4355;0.6404;
79.5000;0.4347;0.6501;
79.8000;0.4339;0.6477;
80.1000;0.4330;0.6501;
80.4000;0.4339;0.6648;
80.7000;0.4347;0.6599;
81.0000;0.4347;0.6575;
81.3000;0.4330;0.6501;
81.6000;0.4355;0.6526;
81.9000;0.4347;0.6575;
82.2000;0.4347;0.6575;
82.5000;0.4371;0.6696;
82.8000;0.4347;0.6721;
83.1000;0.4347;0.6696;
83.4000;0.4355;0.6745;
83.7000;0.4339;0.6648;
84.0000;0.4347;0.6648;
84.3000;0.4339;0.6599;
84.6000;0.4339;0.6575;
84.9000;0.4355;0.6648;
85.2000;0.4322;0.6526;
85.5000;0.4363;0.6623;
85.8000;0.4363;0.6501;
86.1000;0.4355;0.6355;
86.4000;0.4355;0.6428;
86.7000;0.4387;0.6550;
87.0000;0.4355;0.6404;
87.3000;0.4347;0.6355;
87.6000;0.4330;0.6380;
87.9000;0.4428;0.6550;
88.2000;0.4420;0.6477;
88.5000;0.4330;0.6380;
88.8000;0.4355;0.6428;
89.1000;0.4347;0.6428;
89.4000;0.4347;0.6453;
89.7000;0.4363;0.6501;
90.0000;0.4363;0.6550;
90.3000;0.4339;0.6526;
90.6000;0.4347;0.6550;
90.9000;0.4355;0.6453;
91.2000;0.4298;0.6380;
91.5000;0.4339;0.6477;
91.8000;0.4363;0.6453;
92.1000;0.4379;0.6599;
92.4000;0.4363;0.6575;
92.7000;0.4347;0.6526;
93.0000;0.4347;0.6550;
93.3000;0.4363;0.6550;
93.6000;0.4339;0.6501;
93.9000;0.4363;0.6477;
94.2000;0.4371;0.6453;
94.5000;0.4347;0.6453;
94.8000;0.4363;0.6477;
95.1000;0.4330;0.6355;
95.4000;0.4339;0.6380;
95.7000;0.4379;0.6501;
96.0000;0.4347;0.6428;
96.3000;0.4363;0.6501;
96.6000;0.4355;0.6526;
96.9000;0.4355;0.6477;
97.2000;0.4355;0.6428;
97.5000;0.4347;0.6428;
97.8000;0.4347;0.6428;
98.1000;0.4379;0.6623;
98.4000;0.4347;0.6477;
98.7000;0.4347;0.6453;
99.0000;0.4347;0.6428;
99.3000;0.4347;0.6526;
99.6000;0.4347;0.6477;
99.9000;0.4339;0.6550;
100.2000;0.4339;0.6526;
100.5000;0.4347;0.6575;
100.8000;0.4298;0.6477;
101.1000;0.4330;0.6477;
101.4000;0.4339;0.6477;
101.7000;0.4347;0.6526;
102.0000;0.4363;0.6575;
102.3000;0.4347;0.6477;
102.6000;0.4314;0.6428;
102.9000;0.4339;0.6380;
103.2000;0.4330;0.6380;
103.5000;0.4355;0.6501;
103.8000;0.4347;0.6477;
104.1000;0.4339;0.6428;
104.4000;0.4347;0.6404;
104.7000;0.4355;0.6355;
105.0000;0.4355;0.6380;
105.3000;0.4347;0.6282;
105.6000;0.4282;0.6112;
105.9000;0.4371;0.6282;
106.2000;0.4355;0.6307;
106.5000;0.4322;0.6380;
106.8000;0.4355;0.6550;
107.1000;0.4355;0.6575;
107.4000;0.4379;0.6550;
107.7000;0.4396;0.6599;
108.0000;0.4339;0.6404;
108.3000;0.4404;0.6526;
108.6000;0.4461;0.6672;
108.9000;0.4339;0.6380;
109.2000;0.4347;0.6355;
109.5000;0.4355;0.6355;
109.8000;0.4396;0.6501;
110.1000;0.4347;0.6428;
110.4000;0.4363;0.6428;
110.7000;0.4339;0.6428;
111.0000;0.4363;0.6526;
111.3000;0.4347;0.6477;
111.6000;0.4355;0.6404;
111.9000;0.4355;0.6355;
112.2000;0.4322;0.6258;
112.5000;0.4363;0.6258;
112.8000;0.4347;0.6282;
113.1000;0.4347;0.6331;
113.4000;0.4322;0.6234;
113.7000;0.4322;0.6209;
114.0000;0.4347;0.6234;
114.3000;0.4322;0.6380;
114.6000;0.4363;0.6453;
114.9000;0.4363;0.6428;
115.2000;0.4347;0.6428;
115.5000;0.4347;0.6526;
115.8000;0.4347;0.6428;
116.1000;0.4347;0.6282;
116.4000;0.4363;0.6307;
116.7000;0.4363;0.6282;
117.0000;0.4363;0.6307;
117.3000;0.4379;0.6331;
117.6000;0.4371;0.6380;
117.9000;0.4355;0.6331;
118.2000;0.4347;0.6380;
118.5000;0.4339;0.6331;
118.8000;0.4322;0.6282;
119.1000;0.4314;0.6258;
119.4000;0.4322;0.6282;
119.7000;0.4330;0.6282;
120.0000;0.4347;0.6234;
120.3000;0.4339;0.6258;
120.6000;0.4347;0.6380;
120.9000;0.4355;0.6404;
121.2000;0.4387;0.6428;
121.5000;0.4363;0.6380;
121.8000;0.4347;0.6404;
122.1000;0.4347;0.6355;
122.4000;0.4371;0.6453;
122.7000;0.4404;0.6501;
123.0000;0.4347;0.6331;
123.3000;0.4347;0.6331;
123.6000;0.4363;0.6355;
123.9000;0.4355;0.6209;
124.2000;0.4371;0.6331;
124.5000;0.4363;0.6355;
124.8000;0.4355;0.6428;
125.1000;0.4355;0.6428;
125.4000;0.4330;0.6307;
125.7000;0.4355;0.6355;
126.0000;0.4355;0.6282;
126.3000;0.4355;0.6258;
126.6000;0.4355;0.6161;
126.9000;0.4428;0.6355;
127.2000;0.4347;0.6282;
127.5000;0.4314;0.6307;
127.8000;0.4371;0.6453;
128.1000;0.4363;0.6428;
128.4000;0.4347;0.6404;
128.7000;0.4371;0.6380;
129.0000;0.4371;0.6428;
129.3000;0.4290;0.6209;
129.6000;0.4322;0.6185;
129.9000;0.4363;0.6258;
130.2000;0.4387;0.6404;
130.5000;0.4363;0.6307;
130.8000;0.4355;0.6282;
131.1000;0.4363;0.6209;
131.4000;0.4347;0.6234;
131.7000;0.4371;0.6307;
132.0000;0.4363;0.6331;
132.3000;0.4379;0.6404;
132.6000;0.4371;0.6355;
132.9000;0.4404;0.6501;
133.2000;0.4355;0.6380;
133.5000;0.4355;0.6355;
133.8000;0.4420;0.6477;
134.1000;0.4363;0.6307;
134.4000;0.4355;0.6234;
134.7000;0.4396;0.6282;
135.0000;0.4339;0.6185;
135.3000;0.4355;0.6161;
135.6000;0.4347;0.6112;
135.9000;0.4355;0.6234;
136.2000;0.4396;0.6331;
136.5000;0.4363;0.6234;
136.8000;0.4387;0.6331;
137.1000;0.4314;0.6185;
137.4000;0.4339;0.6234;
137.7000;0.4363;0.6282;
138.0000;0.4355;0.6331;
138.3000;0.4347;0.6282;
138.6000;0.4363;0.6234;
138.9000;0.4363;0.6282;
139.2000;0.4371;0.6234;
139.5000;0.4355;0.6209;
139.8000;0.4355;0.6209;
140.1000;0.4371;0.6209;
140.4000;0.4379;0.6161;
140.7000;0.4355;0.6185;
141.0000;0.4363;0.6185;
141.3000;0.4355;0.6136;
141.6000;0.4371;0.6282;
141.9000;0.4379;0.6355;
142.2000;0.4379;0.6404;
142.5000;0.4371;0.6404;
142.8000;0.4371;0.6453;
143.1000;0.4355;0.6404;
143.4000;0.4355;0.6331;
143.7000;0.4363;0.6234;
144.0000;0.4347;0.6258;
144.3000;0.4330;0.6282;
144.6000;0.4347;0.6282;
144.9000;0.4355;0.6234;
145.2000;0.4330;0.6161;
145.5000;0.4290;0.6039;
145.8000;0.4347;0.6209;
146.1000;0.4347;0.6234;
146.4000;0.4363;0.6282;
146.7000;0.4355;0.6185;
147.0000;0.4379;0.6209;
147.3000;0.4363;0.6209;
147.6000;0.4355;0.6234;
147.9000;0.4363;0.6258;
148.2000;0.4387;0.6355;
148.5000;0.4363;0.6355;
148.8000;0.4363;0.6380;
149.1000;0.4355;0.6380;
149.4000;0.4363;0.6404;
149.7000;0.4363;0.6428;
150.0000;0.4371;0.6550;
150.3000;0.4330;0.6404;
150.6000;0.4371;0.6404;
150.9000;0.4355;0.6282;
151.2000;0.4363;0.6331;
151.5000;0.4355;0.6234;
151.8000;0.4363;0.6234;
152.1000;0.4363;0.6209;
152.4000;0.4347;0.6185;
152.7000;0.4339;0.6112;
153.0000;0.4347;0.6161;
153.3000;0.4404;0.6307;
153.6000;0.4330;0.6088;
153.9000;0.4355;0.6063;
154.2000;0.4306;0.5917;
154.5000;0.4347;0.5990;
154.8000;0.4355;0.6014;
155.1000;0.4339;0.5990;
155.4000;0.4330;0.6014;
155.7000;0.4339;0.6039;
156.0000;0.4347;0.6161;
156.3000;0.4347;0.6209;
156.6000;0.4339;0.6185;
156.9000;0.4363;0.6258;
157.2000;0.4371;0.6258;
157.5000;0.4347;0.6234;
157.8000;0.4371;0.6185;
158.1000;0.4371;0.6258;
158.4000;0.4355;0.6331;
158.7000;0.4355;0.6209;
159.0000;0.4347;0.6209;
159.3000;0.4355;0.6234;
159.6000;0.4347;0.6307;
159.9000;0.4355;0.6307;
160.2000;0.4355;0.6258;
160.5000;0.4363;0.6282;
160.8000;0.4363;0.6307;
161.1000;0.4363;0.6258;
161.4000;0.4363;0.6209;
161.7000;0.4355;0.6209;
162.0000;0.4371;0.6282;
162.3000;0.4347;0.6136;
162.6000;0.4379;0.6234;
162.9000;0.4363;0.6307;
163.2000;0.4371;0.6307;
163.5000;0.4363;0.6234;
163.8000;0.4396;0.6331;
164.1000;0.4347;0.6185;
164.4000;0.4363;0.6234;
164.7000;0.4371;0.6282;
165.0000;0.4347;0.6234;
165.3000;0.4387;0.6380;
165.6000;0.4379;0.6331;
165.9000;0.4347;0.6355;
166.2000;0.4355;0.6355;
166.5000;0.4363;0.6331;
166.8000;0.4347;0.6307;
167.1000;0.4355;0.6355;
167.4000;0.4371;0.6380;
167.7000;0.4339;0.6258;
168.0000;0.4339;0.6355;
168.3000;0.4363;0.6428;
168.6000;0.4339;0.6331;
168.9000;0.4355;0.6380;
169.2000;0.4355;0.6380;
169.5000;0.4347;0.6307;
169.8000;0.4306;0.6258;
170.1000;0.4420;0.6428;
170.4000;0.4347;0.6307;
170.7000;0.4290;0.6282;
171.0000;0.4298;0.6282;
171.3000;0.4347;0.6282;
171.6000;0.4330;0.6209;
171.9000;0.4347;0.6161;
172.2000;0.4379;0.6234;
172.5000;0.4379;0.6282;
172.8000;0.4412;0.6355;
173.1000;0.4363;0.6258;
173.4000;0.4330;0.6185;
173.7000;0.4355;0.6307;
174.0000;0.4290;0.6088;
174.3000;0.4339;0.6234;
174.6000;0.4355;0.6258;
174.9000;0.4355;0.6282;
175.2000;0.4363;0.6258;
175.5000;0.4339;0.6234;
175.8000;0.4347;0.6307;
176.1000;0.4339;0.6234;
176.4000;0.4363;0.6209;
176.7000;0.4371;0.6282;
177.0000;0.4339;0.6282;
177.3000;0.4363;0.6282;
177.6000;0.4371;0.6234;
177.9000;0.4371;0.6209;
178.2000;0.4371;0.6209;
178.5000;0.4363;0.6258;
178.8000;0.4363;0.6307;
179.1000;0.4314;0.6161;
179.4000;0.4363;0.6331;
179.7000;0.4355;0.6355;
180.0000;0.4355;0.6331;
180.3000;0.4347;0.6258;
180.6000;0.4387;0.6331;
180.9000;0.4387;0.6404;
181.2000;0.4371;0.6355;
181.5000;0.4371;0.6404;
181.8000;0.4347;0.6282;
182.1000;0.4363;0.6209;
182.4000;0.4371;0.6307;
182.7000;0.4355;0.6282;
183.0000;0.4322;0.6258;
183.3000;0.4355;0.6307;
183.6000;0.4363;0.6331;
183.9000;0.4363;0.6355;
184.2000;0.4363;0.6355;
184.5000;0.4339;0.6428;
184.8000;0.4330;0.6477;
185.1000;0.4330;0.6550;
185.4000;0.4347;0.6501;
185.7000;0.4330;0.6428;
186.0000;0.4339;0.6575;
186.3000;0.4371;0.6599;
186.6000;0.4347;0.6526;
186.9000;0.4379;0.6550;
187.2000;0.4379;0.6575;
187.5000;0.4379;0.6648;
187.8000;0.4379;0.6623;
188.1000;0.4371;0.6623;
188.4000;0.4355;0.6575;
188.7000;0.4379;0.6672;
189.0000;0.4387;0.6672;
189.3000;0.4347;0.6599;
189.6000;0.4355;0.6648;
189.9000;0.4371;0.6672;
190.2000;0.4371;0.6696;
190.5000;0.4347;0.6648;
190.8000;0.4330;0.6599;
191.1000;0.4355;0.6623;
191.4000;0.4371;0.6575;
191.7000;0.4363;0.6550;
192.0000;0.4379;0.6550;
192.3000;0.4363;0.6599;
192.6000;0.4404;0.6648;
192.9000;0.4363;0.6526;
193.2000;0.4314;0.6380;
193.5000;0.4322;0.6453;
193.8000;0.4363;0.6501;
194.1000;0.4371;0.6526;
194.4000;0.4355;0.6501;
194.7000;0.4330;0.6501;
195.0000;0.4322;0.6477;
195.3000;0.4347;0.6550;
195.6000;0.4339;0.6623;
195.9000;0.4347;0.6648;
196.2000;0.4347;0.6575;
196.5000;0.4322;0.6501;
196.8000;0.4330;0.6550;
197.1000;0.4363;0.6599;
197.4000;0.4347;0.6575;
197.7000;0.4371;0.6623;
198.0000;0.4387;0.6623;
198.3000;0.4363;0.6550;
198.6000;0.4371;0.6696;
198.9000;0.4355;0.6575;
199.2000;0.4371;0.6672;
199.5000;0.4412;0.6648;
199.8000;0.4339;0.6501;
200.1000;0.4363;0.6599;
200.4000;0.4363;0.6599;
200.7000;0.4355;0.6550;
201.0000;0.4363;0.6623;
201.3000;0.4355;0.6623;
201.6000;0.4379;0.6648;
201.9000;0.4379;0.6672;
202.2000;0.4363;0.6696;
202.5000;0.4355;0.6672;
202.8000;0.4355;0.6599;
203.1000;0.4363;0.6575;
203.4000;0.4347;0.6575;
203.7000;0.4339;0.6575;
204.0000;0.4379;0.6672;
204.3000;0.4355;0.6696;
204.6000;0.4347;0.6599;
204.9000;0.4412;0.6794;
205.2000;0.4355;0.6672;
205.5000;0.4363;0.6721;
205.8000;0.4379;0.6818;
206.1000;0.4363;0.6745;
206.4000;0.4363;0.6672;
206.7000;0.4363;0.6575;
207.0000;0.4363;0.6575;
207.3000;0.4355;0.6599;
207.6000;0.4371;0.6550;
207.9000;0.4371;0.6526;
208.2000;0.4379;0.6599;
208.5000;0.4363;0.6623;
208.8000;0.4371;0.6575;
209.1000;0.4363;0.6599;
209.4000;0.4371;0.6599;
209.7000;0.4371;0.6623;
210.0000;0.4355;0.6599;
210.3000;0.4363;0.6526;
210.6000;0.4363;0.6526;
210.9000;0.4339;0.6428;
211.2000;0.4363;0.6550;
211.5000;0.4355;0.6599;
211.8000;0.4363;0.6550;
212.1000;0.4355;0.6550;
212.4000;0.4363;0.6526;
212.7000;0.4347;0.6550;
213.0000;0.4387;0.6672;
213.3000;0.4371;0.6526;
213.6000;0.4355;0.6550;
213.9000;0.4363;0.6599;
214.2000;0.4387;0.6672;
214.5000;0.4363;0.6721;
214.8000;0.4355;0.6769;
215.1000;0.4355;0.6794;
215.4000;0.4363;0.6818;
215.7000;0.4371;0.6867;
216.0000;0.4363;0.6672;
216.3000;0.4347;0.6501;
216.6000;0.4322;0.6355;
216.9000;0.4363;0.6404;
217.2000;0.4347;0.6550;
217.5000;0.4355;0.6526;
217.8000;0.4347;0.6648;
218.1000;0.4371;0.6818;
218.4000;0.4363;0.6818;
218.7000;0.4347;0.6769;
219.0000;0.4363;0.6915;
219.3000;0.4371;0.6940;
219.6000;0.4371;0.6891;
219.9000;0.4363;0.6794;
220.2000;0.4363;0.6794;
220.5000;0.4363;0.6794;
220.8000;0.4355;0.6745;
221.1000;0.4355;0.6745;
221.4000;0.4355;0.6721;
221.7000;0.4355;0.6745;
222.0000;0.4314;0.6672;
222.3000;0.4363;0.6818;
222.6000;0.4371;0.6794;
222.9000;0.4339;0.6794;
223.2000;0.4371;0.6818;
223.5000;0.4371;0.6769;
223.8000;0.4355;0.6672;
224.1000;0.4290;0.6526;
224.4000;0.4404;0.6745;
224.7000;0.4379;0.6599;
225.0000;0.4355;0.6672;
225.3000;0.4371;0.6672;
225.6000;0.4371;0.6648;
225.9000;0.4387;0.6745;
226.2000;0.4355;0.6745;
226.5000;0.4363;0.6745;
226.8000;0.4322;0.6672;
227.1000;0.4363;0.6745;
227.4000;0.4363;0.6721;
227.7000;0.4339;0.6648;
228.0000;0.4363;0.6672;
228.3000;0.4339;0.6623;
228.6000;0.4379;0.6648;
228.9000;0.4379;0.6818;
229.2000;0.4355;0.6794;
229.5000;0.4363;0.6769;
229.8000;0.4298;0.6575;
230.1000;0.4363;0.6721;
230.4000;0.4371;0.6721;
230.7000;0.4420;0.6915;
231.0000;0.4363;0.6842;
231.3000;0.4355;0.6891;
231.6000;0.4355;0.6891;
231.9000;0.4363;0.6988;
232.2000;0.4371;0.7013;
232.5000;0.4339;0.6940;
232.8000;0.4347;0.6940;
233.1000;0.4387;0.6891;
233.4000;0.4363;0.6769;
233.7000;0.4347;0.6721;
234.0000;0.4387;0.6794;
234.3000;0.4363;0.6648;
234.6000;0.4371;0.6623;
234.9000;0.4363;0.6672;
235.2000;0.4339;0.6648;
235.5000;0.4371;0.6672;
235.8000;0.4371;0.6648;
236.1000;0.4371;0.6648;
236.4000;0.4355;0.6526;
236.7000;0.4339;0.6550;
237.0000;0.4339;0.6623;
237.3000;0.4371;0.6745;
237.6000;0.4355;0.6696;
237.9000;0.4347;0.6648;
238.2000;0.4379;0.6745;
238.5000;0.4379;0.6769;
238.8000;0.4355;0.6794;
239.1000;0.4363;0.6794;
239.4000;0.4347;0.6745;
239.7000;0.4371;0.6745;
240.0000;0.4355;0.6672;
240.3000;0.4412;0.6745;
240.6000;0.4339;0.6526;
240.9000;0.4355;0.6672;
241.2000;0.4347;0.6672;
241.5000;0.4347;0.6696;
241.8000;0.4363;0.6623;
242.1000;0.4355;0.6599;
242.4000;0.4314;0.6599;
242.7000;0.4339;0.6696;
243.0000;0.4347;0.6721;
243.3000;0.4371;0.6745;
243.6000;0.4371;0.6745;
243.9000;0.4379;0.6818;
244.2000;0.4420;0.7037;
244.5000;0.4371;0.6769;
244.8000;0.4363;0.6794;
245.1000;0.4371;0.6794;
245.4000;0.4355;0.6696;
245.7000;0.4363;0.6648;
246.0000;0.4371;0.6672;
246.3000;0.4363;0.6672;
246.6000;0.4347;0.6599;
246.9000;0.4355;0.6526;
247.2000;0.4396;0.6721;
247.5000;0.4371;0.6623;
247.8000;0.4355;0.6599;
248.1000;0.4363;0.6575;
248.4000;0.4355;0.6599;
248.7000;0.4387;0.6721;
249.0000;0.4355;0.6648;
249.3000;0.4290;0.6575;
249.6000;0.4428;0.6915;
249.9000;0.4339;0.6745;
250.2000;0.4355;0.6818;
250.5000;0.4347;0.6721;
250.8000;0.4412;0.6745;
251.1000;0.4363;0.6599;
251.4000;0.4363;0.6648;
251.7000;0.4355;0.6599;
252.0000;0.4355;0.6599;
252.3000;0.4298;0.6575;
252.6000;0.4363;0.6745;
252.9000;0.4347;0.6745;
253.2000;0.4339;0.6769;
253.5000;0.4363;0.6794;
253.8000;0.4339;0.6842;
254.1000;0.4363;0.6940;
254.4000;0.4371;0.6964;
254.7000;0.4347;0.6891;
255.0000;0.4355;0.6794;
255.3000;0.4371;0.6672;
255.6000;0.4363;0.6696;
255.9000;0.4363;0.6623;
256.2000;0.4379;0.6794;
256.5000;0.4371;0.6696;
256.8000;0.4355;0.6623;
257.1000;0.4363;0.6672;
257.4000;0.4363;0.6648;
257.7000;0.4379;0.6721;
258.0000;0.4371;0.6794;
258.3000;0.4363;0.6696;
258.6000;0.4371;0.6575;
258.9000;0.4396;0.6696;
259.2000;0.4379;0.6672;
259.5000;0.4371;0.6672;
259.8000;0.4371;0.6696;
260.1000;0.4371;0.6623;
260.4000;0.4371;0.6623;
260.7000;0.4363;0.6623;
261.0000;0.4355;0.6623;
261.3000;0.4339;0.6550;
261.6000;0.4396;0.6575;
261.9000;0.4355;0.6501;
262.2000;0.4355;0.6477;
262.5000;0.4347;0.6404;
262.8000;0.4396;0.6501;
263.1000;0.4363;0.6477;
263.4000;0.4363;0.6648;
263.7000;0.4347;0.6599;
264.0000;0.4290;0.6550;
264.3000;0.4347;0.6672;
264.6000;0.4363;0.6721;
264.9000;0.4347;0.6623;
265.2000;0.4355;0.6575;
265.5000;0.4330;0.6623;
265.8000;0.4306;0.6526;
266.1000;0.4339;0.6623;
266.4000;0.4379;0.6721;
266.7000;0.4363;0.6672;
267.0000;0.4355;0.6648;
267.3000;0.4363;0.6769;
267.6000;0.4322;0.6769;
267.9000;0.4379;0.6842;
268.2000;0.4322;0.6599;
268.5000;0.4355;0.6550;
268.8000;0.4355;0.6501;
269.1000;0.4379;0.6477;
269.4000;0.4363;0.6453;
269.7000;0.4355;0.6404;
270.0000;0.4363;0.6380;
270.3000;0.4420;0.6453;
270.6000;0.4404;0.6355;
270.9000;0.4371;0.6355;
271.2000;0.4322;0.6209;
271.5000;0.4363;0.6282;
271.8000;0.4379;0.6282;
272.1000;0.4371;0.6234;
272.4000;0.4363;0.6307;
272.7000;0.4355;0.6380;
273.0000;0.4363;0.6380;
273.3000;0.4355;0.6428;
273.6000;0.4355;0.6526;
273.9000;0.4363;0.6599;
274.2000;0.4355;0.6672;
274.5000;0.4347;0.6599;
274.8000;0.4347;0.6526;
275.1000;0.4363;0.6575;
275.4000;0.4363;0.6599;
275.7000;0.4363;0.6575;
276.0000;0.4379;0.6575;
276.3000;0.4355;0.6599;
276.6000;0.4363;0.6623;
276.9000;0.4363;0.6575;
277.2000;0.4347;0.6550;
277.5000;0.4355;0.6575;
277.8000;0.4363;0.6550;
278.1000;0.4347;0.6501;
278.4000;0.4371;0.6550;
278.7000;0.4363;0.6575;
279.0000;0.4355;0.6575;
279.3000;0.4371;0.6599;
279.6000;0.4363;0.6550;
279.9000;0.4444;0.6818;
280.2000;0.4371;0.6672;
280.5000;0.4371;0.6672;
280.8000;0.4387;0.6721;
281.1000;0.4363;0.6648;
281.4000;0.4355;0.6696;
281.7000;0.4347;0.6721;
282.0000;0.4298;0.6526;
282.3000;0.4379;0.6745;
282.6000;0.4355;0.6794;
282.9000;0.4387;0.6769;
283.2000;0.4396;0.6721;
283.5000;0.4379;0.6599;
283.8000;0.4355;0.6550;
284.1000;0.4339;0.6575;
284.4000;0.4371;0.6648;
284.7000;0.4387;0.6721;
285.0000;0.4355;0.6672;
285.3000;0.4404;0.6891;
285.6000;0.4298;0.6428;
285.9000;0.4290;0.6477;
286.2000;0.4314;0.6501;
286.5000;0.4371;0.6575;
286.8000;0.4339;0.6550;
287.1000;0.4355;0.6526;
287.4000;0.4322;0.6428;
287.7000;0.4339;0.6501;
288.0000;0.4355;0.6696;
288.3000;0.4339;0.6672;
288.6000;0.4290;0.6575;
288.9000;0.4339;0.6575;
289.2000;0.4355;0.6672;
289.5000;0.4379;0.6769;
289.8000;0.4355;0.6721;
290.1000;0.4371;0.6648;
290.4000;0.4363;0.6623;
290.7000;0.4379;0.6648;
291.0000;0.4379;0.6721;
291.3000;0.4371;0.6648;
291.6000;0.4363;0.6623;
291.9000;0.4371;0.6696;
292.2000;0.4339;0.6599;
292.5000;0.4355;0.6623;
292.8000;0.4363;0.6672;
293.1000;0.4363;0.6599;
293.4000;0.4379;0.6648;
293.7000;0.4355;0.6696;
294.0000;0.4339;0.6599;
294.3000;0.4347;0.6599;
294.6000;0.4322;0.6526;
294.9000;0.4371;0.6550;
295.2000;0.4355;0.6526;
295.5000;0.4363;0.6550;
295.8000;0.4347;0.6526;
296.1000;0.4420;0.6721;
296.4000;0.4355;0.6428;
296.7000;0.4371;0.6453;
297.0000;0.4396;0.6526;
297.3000;0.4355;0.6428;
297.6000;0.4355;0.6477;
297.9000;0.4339;0.6453;
298.2000;0.4355;0.6453;
298.5000;0.4363;0.6526;
298.8000;0.4355;0.6428;
299.1000;0.4314;0.6355;
299.4000;0.4355;0.6477;
299.7000;0.4363;0.6526;
300.0000;0.4363;0.6526;
300.3000;0.4355;0.6501;
300.6000;0.4339;0.6380;
300.9000;0.4355;0.6428;
301.2000;0.4379;0.6550;
301.5000;0.4339;0.6575;
301.8000;0.4363;0.6501;
302.1000;0.4371;0.6550;
302.4000;0.4347;0.6575;
302.7000;0.4371;0.6623;
303.0000;0.4339;0.6550;
303.3000;0.4363;0.6501;
303.6000;0.4363;0.6453;
303.9000;0.4330;0.6355;
304.2000;0.4371;0.6355;
304.5000;0.4355;0.6234;
304.8000;0.4387;0.6380;
305.1000;0.4347;0.6380;
305.4000;0.4371;0.6404;
305.7000;0.4371;0.6428;
306.0000;0.4363;0.6331;
306.3000;0.4339;0.6258;
306.6000;0.4355;0.6307;
306.9000;0.4355;0.6234;
307.2000;0.4347;0.6136;
307.5000;0.4355;0.6136;
307.8000;0.4339;0.6063;
308.1000;0.4322;0.6136;
308.4000;0.4347;0.6258;
308.7000;0.4355;0.6209;
309.0000;0.4347;0.6282;
309.3000;0.4355;0.6258;
309.6000;0.4339;0.6258;
309.9000;0.4371;0.6428;
310.2000;0.4347;0.6428;
310.5000;0.4347;0.6404;
310.8000;0.4322;0.6307;
311.1000;0.4355;0.6355;
311.4000;0.4371;0.6380;
311.7000;0.4347;0.6404;
312.0000;0.4339;0.6453;
312.3000;0.4298;0.6380;
312.6000;0.4396;0.6648;
312.9000;0.4339;0.6599;
313.2000;0.4347;0.6526;
313.5000;0.4453;0.6672;
313.8000;0.4363;0.6428;
314.1000;0.4339;0.6331;
314.4000;0.4355;0.6355;
314.7000;0.4363;0.6453;
315.0000;0.4371;0.6623;
315.3000;0.4379;0.6696;
315.6000;0.4355;0.6648;
315.9000;0.4363;0.6672;
316.2000;0.4371;0.6721;
316.5000;0.4347;0.6623;
316.8000;0.4363;0.6599;
317.1000;0.4330;0.6526;
317.4000;0.4330;0.6575;
317.7000;0.4347;0.6696;
318.0000;0.4347;0.6745;
318.3000;0.4355;0.6696;
318.6000;0.4355;0.6672;
318.9000;0.4339;0.6648;
319.2000;0.4339;0.6721;
319.5000;0.4339;0.6648;
319.8000;0.4379;0.6721;
320.1000;0.4363;0.6721;
320.4000;0.4339;0.6721;
320.7000;0.4371;0.6769;
321.0000;0.4355;0.6672;
321.3000;0.4314;0.6453;
321.6000;0.4363;0.6575;
321.9000;0.4355;0.6550;
322.2000;0.4355;0.6648;
322.5000;0.4347;0.6526;
322.8000;0.4330;0.6380;
323.1000;0.4412;0.6550;
323.4000;0.4363;0.6477;
323.7000;0.4363;0.6550;
324.0000;0.4355;0.6477;
324.3000;0.4371;0.6550;
324.6000;0.4363;0.6575;
324.9000;0.4371;0.6623;
325.2000;0.4371;0.6526;
325.5000;0.4379;0.6648;
325.8000;0.4355;0.6599;
326.1000;0.4371;0.6623;
326.4000;0.4363;0.6599;
326.7000;0.4371;0.6501;
327.0000;0.4355;0.6453;
327.3000;0.4363;0.6453;
327.6000;0.4363;0.6453;
327.9000;0.4347;0.6331;
328.2000;0.4371;0.6331;
328.5000;0.4363;0.6258;
328.8000;0.4355;0.6234;
329.1000;0.4404;0.6404;
329.4000;0.4363;0.6331;
329.7000;0.4347;0.6331;
330.0000;0.4355;0.6428;
330.3000;0.4363;0.6477;
330.6000;0.4330;0.6477;
330.9000;0.4347;0.6501;
331.2000;0.4363;0.6550;
331.5000;0.4363;0.6501;
331.8000;0.4371;0.6550;
332.1000;0.4347;0.6453;
332.4000;0.4363;0.6428;
332.7000;0.4371;0.6428;
333.0000;0.4363;0.6453;
333.3000;0.4322;0.6282;
333.6000;0.4314;0.6258;
333.9000;0.4379;0.6380;
334.2000;0.4363;0.6331;
334.5000;0.4404;0.6307;
334.8000;0.4371;0.6234;
335.1000;0.4347;0.6209;
335.4000;0.4355;0.6355;
335.7000;0.4363;0.6331;
336.0000;0.4347;0.6331;
336.3000;0.4363;0.6355;
336.6000;0.4355;0.6258;
336.9000;0.4379;0.6380;
337.2000;0.4355;0.6307;
337.5000;0.4257;0.6136;
337.8000;0.4387;0.6404;
338.1000;0.4355;0.6331;
338.4000;0.4330;0.6307;
338.7000;0.4339;0.6355;
339.0000;0.4355;0.6355;
339.3000;0.4371;0.6307;
339.6000;0.4387;0.6355;
339.9000;0.4371;0.6355;
340.2000;0.4347;0.6209;
340.5000;0.4339;0.6185;
340.8000;0.4363;0.6234;
341.1000;0.4347;0.6209;
341.4000;0.4387;0.6258;
341.7000;0.4347;0.6185;
342.0000;0.4363;0.6234;
342.3000;0.4265;0.5990;
342.6000;0.4330;0.6112;
342.9000;0.4339;0.6307;
343.2000;0.4371;0.6404;
343.5000;0.4339;0.6355;
343.8000;0.4355;0.6355;
344.1000;0.4347;0.6380;
344.4000;0.4339;0.6307;
344.7000;0.4347;0.6282;
345.0000;0.4330;0.6282;
345.3000;0.4339;0.6258;
345.6000;0.4363;0.6282;
345.9000;0.4339;0.6234;
346.2000;0.4363;0.6282;
346.5000;0.4347;0.6258;
346.8000;0.4339;0.6258;
347.1000;0.4387;0.6258;
347.4000;0.4363;0.6307;
347.7000;0.4363;0.6331;
348.0000;0.4363;0.6380;
348.3000;0.4355;0.6404;
348.6000;0.4339;0.6428;
348.9000;0.4363;0.6526;
349.2000;0.4322;0.6355;
349.5000;0.4363;0.6501;
349.8000;0.4347;0.6526;
350.1000;0.4355;0.6453;
350.4000;0.4347;0.6453;
350.7000;0.4371;0.6550;
351.0000;0.4347;0.6380;
351.3000;0.4347;0.6428;
351.6000;0.4355;0.6428;
351.9000;0.4347;0.6428;
352.2000;0.4355;0.6404;
352.5000;0.4371;0.6477;
352.8000;0.4347;0.6550;
353.1000;0.4387;0.6672;
353.4000;0.4396;0.6575;
353.7000;0.4363;0.6453;
354.0000;0.4347;0.6380;
354.3000;0.4330;0.6380;
354.6000;0.4347;0.6355;
354.9000;0.4355;0.6331;
355.2000;0.4363;0.6453;
355.5000;0.4347;0.6477;
355.8000;0.4363;0.6599;
356.1000;0.4412;0.6696;
356.4000;0.4355;0.6599;
356.7000;0.4347;0.6575;
357.0000;0.4355;0.6575;
357.3000;0.4355;0.6501;
357.6000;0.4428;0.6672;
357.9000;0.4330;0.6453;
358.2000;0.4379;0.6550;
358.5000;0.4347;0.6477;
358.8000;0.4355;0.6477;
359.1000;0.4420;0.6501;
359.4000;0.4339;0.6234;
359.7000;0.4355;0.6307;
360.0000;0.4347;0.6307;
360.3000;0.4371;0.6404;
360.6000;0.4347;0.6331;
360.9000;0.4363;0.6404;
361.2000;0.4396;0.6501;
361.5000;0.4347;0.6428;
361.8000;0.4363;0.6428;
362.1000;0.4363;0.6428;
362.4000;0.4314;0.6355;
362.7000;0.4355;0.6331;
363.0000;0.4347;0.6331;
363.3000;0.4404;0.6477;
363.6000;0.4363;0.6404;
363.9000;0.4298;0.6282;
364.2000;0.4339;0.6380;
364.5000;0.4355;0.6453;
364.8000;0.4355;0.6428;
365.1000;0.4371;0.6477;
365.4000;0.4265;0.6331;
365.7000;0.4355;0.6575;
366.0000;0.4339;0.6453;
366.3000;0.4355;0.6599;
366.6000;0.4339;0.6526;
366.9000;0.4347;0.6526;
367.2000;0.4347;0.6453;
367.5000;0.4347;0.6453;
367.8000;0.4371;0.6477;
368.1000;0.4355;0.6526;
368.4000;0.4363;0.6453;
368.7000;0.4339;0.6428;
369.0000;0.4355;0.6477;
369.3000;0.4355;0.6501;
369.6000;0.4355;0.6477;
369.9000;0.4363;0.6477;
370.2000;0.4339;0.6404;
370.5000;0.4347;0.6453;
370.8000;0.4339;0.6501;
371.1000;0.4363;0.6550;
371.4000;0.4371;0.6526;
371.7000;0.4347;0.6526;
372.0000;0.4428;0.6769;
372.3000;0.4355;0.6550;
372.6000;0.4355;0.6599;
372.9000;0.4371;0.6453;
373.2000;0.4355;0.6404;
373.5000;0.4355;0.6380;
373.8000;0.4412;0.6477;
374.1000;0.4371;0.6526;
374.4000;0.4347;0.6453;
374.7000;0.4355;0.6428;
375.0000;0.4371;0.6550;
375.3000;0.4322;0.6501;
375.6000;0.4355;0.6599;
375.9000;0.4355;0.6526;
376.2000;0.4363;0.6550;
376.5000;0.4396;0.6696;
376.8000;0.4371;0.6623;
377.1000;0.4396;0.6721;
377.4000;0.4379;0.6623;
377.7000;0.4355;0.6526;
378.0000;0.4347;0.6550;
378.3000;0.4363;0.6501;
378.6000;0.4371;0.6501;
378.9000;0.4379;0.6501;
379.2000;0.4420;0.6575;
379.5000;0.4371;0.6526;
379.8000;0.4363;0.6526;
380.1000;0.4379;0.6575;
380.4000;0.4363;0.6599;
380.7000;0.4339;0.6623;
381.0000;0.4347;0.6648;
381.3000;0.4371;0.6672;
381.6000;0.4330;0.6623;
381.9000;0.4330;0.6648;
382.2000;0.4355;0.6769;
382.5000;0.4436;0.6842;
382.8000;0.4314;0.6526;
383.1000;0.4339;0.6623;
383.4000;0.4347;0.6599;
383.7000;0.4363;0.6721;
384.0000;0.4371;0.6745;
384.3000;0.4428;0.6915;
384.6000;0.4355;0.6672;
384.9000;0.4371;0.6599;
385.2000;0.4379;0.6648;
385.5000;0.4363;0.6672;
385.8000;0.4347;0.6623;
386.1000;0.4371;0.6794;
386.4000;0.4355;0.6721;
386.7000;0.4347;0.6696;
387.0000;0.4347;0.6696;
387.3000;0.4371;0.6672;
387.6000;0.4404;0.6794;
387.9000;0.4363;0.6721;
388.2000;0.4355;0.6648;
388.5000;0.4355;0.6648;
388.8000;0.4363;0.6648;
389.1000;0.4387;0.6745;
389.4000;0.4355;0.6599;
389.7000;0.4347;0.6599;
390.0000;0.4355;0.6672;
390.3000;0.4355;0.6672;
390.6000;0.4363;0.6769;
390.9000;0.4363;0.6794;
391.2000;0.4339;0.6696;
391.5000;0.4355;0.6599;
391.8000;0.4387;0.6672;
392.1000;0.4355;0.6575;
392.4000;0.4355;0.6526;
392.7000;0.4363;0.6575;
393.0000;0.4355;0.6550;
393.3000;0.4363;0.6526;
393.6000;0.4363;0.6550;
393.9000;0.4371;0.6599;
394.2000;0.4355;0.6721;
394.5000;0.4355;0.6672;
394.8000;0.4355;0.6648;
395.1000;0.4387;0.6794;
395.4000;0.4371;0.6794;
395.7000;0.4355;0.6769;
396.0000;0.4355;0.6818;
396.3000;0.4347;0.6769;
396.6000;0.4347;0.6696;
396.9000;0.4355;0.6599;
397.2000;0.4347;0.6575;
397.5000;0.4363;0.6575;
397.8000;0.4355;0.6599;
398.1000;0.4379;0.6721;
398.4000;0.4355;0.6696;
398.7000;0.4355;0.6623;
399.0000;0.4371;0.6648;
399.3000;0.4355;0.6599;
399.6000;0.4330;0.6550;
399.9000;0.4355;0.6672;
400.2000;0.4298;0.6526;
400.5000;0.4363;0.6721;
400.8000;0.4379;0.6623;
401.1000;0.4339;0.6550;
401.4000;0.4363;0.6501;
401.7000;0.4387;0.6526;
402.0000;0.4371;0.6550;
402.3000;0.4396;0.6648;
402.6000;0.4314;0.6453;
402.9000;0.4387;0.6696;
403.2000;0.4371;0.6623;
403.5000;0.4412;0.6745;
403.8000;0.4347;0.6648;
404.1000;0.4347;0.6672;
404.4000;0.4347;0.6721;
404.7000;0.4306;0.6550;
405.0000;0.4322;0.6623;
405.3000;0.4355;0.6648;
405.6000;0.4306;0.6575;
405.9000;0.4355;0.6745;
406.2000;0.4339;0.6696;
406.5000;0.4282;0.6453;
406.8000;0.4363;0.6745;
407.1000;0.4347;0.6721;
407.4000;0.4339;0.6623;
407.7000;0.4314;0.6550;
408.0000;0.4347;0.6769;
408.3000;0.4347;0.6696;
408.6000;0.4347;0.6672;
408.9000;0.4339;0.6672;
409.2000;0.4371;0.6696;
409.5000;0.4347;0.6648;
409.8000;0.4339;0.6623;
410.1000;0.4339;0.6648;
410.4000;0.4347;0.6672;
410.7000;0.4347;0.6745;
411.0000;0.4371;0.6794;
411.3000;0.4371;0.6818;
411.6000;0.4347;0.6696;
411.9000;0.4355;0.6721;
412.2000;0.4371;0.6696;
412.5000;0.4387;0.6696;
412.8000;0.4363;0.6672;
413.1000;0.4371;0.6672;
413.4000;0.4363;0.6745;
413.7000;0.4355;0.6721;
414.0000;0.4371;0.6745;
414.3000;0.4355;0.6745;
414.6000;0.4363;0.6745;
414.9000;0.4347;0.6696;
415.2000;0.4363;0.6696;
415.5000;0.4322;0.6575;
415.8000;0.4355;0.6721;
416.1000;0.4355;0.6623;
416.4000;0.4355;0.6599;
416.7000;0.4339;0.6550;
417.0000;0.4371;0.6794;
417.3000;0.4379;0.6818;
417.6000;0.4371;0.6745;
417.9000;0.4379;0.6648;
418.2000;0.4371;0.6623;
418.5000;0.4371;0.6721;
418.8000;0.4274;0.6526;
419.1000;0.4371;0.6794;
419.4000;0.4339;0.6769;
419.7000;0.4371;0.6794;
420.0000;0.4363;0.6794;
420.3000;0.4355;0.6672;
420.6000;0.4363;0.6696;
420.9000;0.4404;0.6891;
421.2000;0.4347;0.6623;
421.5000;0.4347;0.6575;
421.8000;0.4371;0.6648;
422.1000;0.4436;0.6794;
422.4000;0.4355;0.6599;
422.7000;0.4355;0.6599;
423.0000;0.4347;0.6550;
423.3000;0.4339;0.6599;
423.6000;0.4314;0.6599;
423.9000;0.4347;0.6648;
424.2000;0.4339;0.6623;
424.5000;0.4363;0.6599;
424.8000;0.4371;0.6672;
425.1000;0.4355;0.6599;
425.4000;0.4363;0.6648;
425.7000;0.4355;0.6599;
426.0000;0.4355;0.6623;
426.3000;0.4363;0.6648;
426.6000;0.4330;0.6599;
426.9000;0.4339;0.6599;
427.2000;0.4355;0.6672;
427.5000;0.4355;0.6648;
427.8000;0.4347;0.6696;
428.1000;0.4363;0.6696;
428.4000;0.4371;0.6599;
428.7000;0.4371;0.6526;
429.0000;0.4363;0.6501;
429.3000;0.4404;0.6599;
429.6000;0.4347;0.6404;
429.9000;0.4371;0.6404;
430.2000;0.4347;0.6380;
430.5000;0.4363;0.6380;
430.8000;0.4347;0.6355;
431.1000;0.4347;0.6331;
431.4000;0.4339;0.6355;
431.7000;0.4322;0.6355;
432.0000;0.4355;0.6428;
432.3000;0.4379;0.6575;
432.6000;0.4355;0.6477;
432.9000;0.4347;0.6428;
433.2000;0.4322;0.6404;
433.5000;0.4339;0.6404;
433.8000;0.4347;0.6477;
434.1000;0.4339;0.6526;
434.4000;0.4339;0.6575;
434.7000;0.4355;0.6599;
435.0000;0.4347;0.6623;
435.3000;0.4339;0.6672;
435.6000;0.4347;0.6599;
435.9000;0.4330;0.6575;
436.2000;0.4347;0.6550;
436.5000;0.4347;0.6550;
436.8000;0.4379;0.6696;
437.1000;0.4355;0.6575;
437.4000;0.4355;0.6575;
437.7000;0.4379;0.6672;
438.0000;0.4347;0.6648;
438.3000;0.4379;0.6769;
438.6000;0.4371;0.6769;
438.9000;0.4355;0.6769;
439.2000;0.4363;0.6721;
439.5000;0.4355;0.6721;
439.8000;0.4355;0.6794;
440.1000;0.4371;0.6867;
440.4000;0.4404;0.6915;
440.7000;0.4330;0.6794;
441.0000;0.4347;0.6769;
441.3000;0.4371;0.6721;
441.6000;0.4339;0.6648;
441.9000;0.4347;0.6696;
442.2000;0.4379;0.6721;
442.5000;0.4371;0.6769;
442.8000;0.4355;0.6794;
443.1000;0.4363;0.6696;
443.4000;0.4355;0.6599;
443.7000;0.4347;0.6575;
444.0000;0.4347;0.6501;
444.3000;0.4347;0.6501;
444.6000;0.4339;0.6453;
444.9000;0.4355;0.6404;
445.2000;0.4355;0.6404;
445.5000;0.4330;0.6404;
445.8000;0.4339;0.6428;
446.1000;0.4347;0.6404;
446.4000;0.4355;0.6404;
446.7000;0.4339;0.6380;
447.0000;0.4363;0.6550;
447.3000;0.4371;0.6648;
447.6000;0.4355;0.6672;
447.9000;0.4363;0.6696;
448.2000;0.4339;0.6696;
448.5000;0.4363;0.6721;
448.8000;0.4371;0.6721;
449.1000;0.4396;0.6745;
449.4000;0.4347;0.6696;
449.7000;0.4355;0.6721;
450.0000;0.4355;0.6721;
450.3000;0.4363;0.6648;
450.6000;0.4347;0.6672;
450.9000;0.4330;0.6550;
451.2000;0.4347;0.6599;
451.5000;0.4355;0.6672;
451.8000;0.4371;0.6696;
452.1000;0.4355;0.6575;
452.4000;0.4339;0.6501;
452.7000;0.4363;0.6550;
453.0000;0.4347;0.6477;
453.3000;0.4355;0.6526;
453.6000;0.4355;0.6575;
453.9000;0.4298;0.6453;
454.2000;0.4347;0.6648;
454.5000;0.4436;0.6891;
454.8000;0.4330;0.6648;
455.1000;0.4379;0.6769;
455.4000;0.4339;0.6599;
455.7000;0.4339;0.6648;
456.0000;0.4290;0.6501;
456.3000;0.4412;0.6769;
456.6000;0.4347;0.6648;
456.9000;0.4371;0.6672;
457.2000;0.4355;0.6672;
457.5000;0.4363;0.6623;
457.8000;0.4363;0.6672;
458.1000;0.4371;0.6721;
458.4000;0.4371;0.6769;
458.7000;0.4355;0.6721;
459.0000;0.4274;0.6380;
459.3000;0.4371;0.6648;
459.6000;0.4339;0.6648;
459.9000;0.4339;0.6672;
460.2000;0.4347;0.6769;
460.5000;0.4396;0.6940;
460.8000;0.4290;0.6672;
461.1000;0.4420;0.6915;
461.4000;0.4355;0.6721;
461.7000;0.4355;0.6769;
462.0000;0.4355;0.6769;
462.3000;0.4355;0.6648;
462.6000;0.4355;0.6575;
462.9000;0.4355;0.6672;
463.2000;0.4347;0.6745;
463.5000;0.4347;0.6696;
463.8000;0.4404;0.6818;
464.1000;0.4347;0.6794;
464.4000;0.4355;0.6842;
464.7000;0.4347;0.6915;
465.0000;0.4347;0.6818;
465.3000;0.4347;0.6794;
465.6000;0.4347;0.6745;
465.9000;0.4347;0.6648;
466.2000;0.4347;0.6623;
466.5000;0.4363;0.6599;
466.8000;0.4363;0.6745;
467.1000;0.4355;0.6721;
467.4000;0.4347;0.6794;
467.7000;0.4339;0.6842;
468.0000;0.4355;0.6842;
468.3000;0.4387;0.6891;
468.6000;0.4363;0.6842;
468.9000;0.4371;0.6794;
469.2000;0.4355;0.6745;
469.5000;0.4379;0.6672;
469.8000;0.4339;0.6477;
470.1000;0.4347;0.6428;
470.4000;0.4363;0.6404;
470.7000;0.4355;0.6380;
471.0000;0.4339;0.6380;
471.3000;0.4347;0.6380;
471.6000;0.4355;0.6453;
471.9000;0.4371;0.6477;
472.2000;0.4347;0.6404;
472.5000;0.4347;0.6428;
472.8000;0.4379;0.6526;
473.1000;0.4363;0.6575;
473.4000;0.4298;0.6501;
473.7000;0.4420;0.6891;
474.0000;0.4355;0.6672;
474.3000;0.4290;0.6404;
474.6000;0.4371;0.6599;
474.9000;0.4412;0.6769;
475.2000;0.4347;0.6623;
475.5000;0.4355;0.6648;
475.8000;0.4347;0.6623;
476.1000;0.4347;0.6575;
476.4000;0.4371;0.6623;
476.7000;0.4363;0.6672;
477.0000;0.4355;0.6696;
477.3000;0.4347;0.6648;
477.6000;0.4306;0.6599;
477.9000;0.4355;0.6745;
478.2000;0.4355;0.6769;
478.5000;0.4371;0.6794;
478.8000;0.4355;0.6769;
479.1000;0.4355;0.6794;
479.4000;0.4347;0.6769;
479.7000;0.4347;0.6648;
480.0000;0.4420;0.6818;
480.3000;0.4363;0.6623;
480.6000;0.4379;0.6745;
480.9000;0.4371;0.6672;
481.2000;0.4355;0.6696;
481.5000;0.4371;0.6745;
481.8000;0.4355;0.6696;
482.1000;0.4355;0.6721;
482.4000;0.4379;0.6745;
482.7000;0.4387;0.6867;
483.0000;0.4355;0.6794;
483.3000;0.4355;0.6696;
483.6000;0.4363;0.6745;
483.9000;0.4347;0.6696;
484.2000;0.4355;0.6648;
484.5000;0.4355;0.6648;
484.8000;0.4363;0.6648;
485.1000;0.4371;0.6599;
485.4000;0.4347;0.6623;
485.7000;0.4387;0.6842;
486.0000;0.4379;0.6867;
486.3000;0.4355;0.6867;
486.6000;0.4339;0.6842;
486.9000;0.4355;0.6867;
487.2000;0.4347;0.6867;
487.5000;0.4347;0.6842;
487.8000;0.4387;0.6891;
488.1000;0.4371;0.6721;
488.4000;0.4355;0.6696;
488.7000;0.4347;0.6623;
489.0000;0.4355;0.6623;
489.3000;0.4330;0.6550;
489.6000;0.4355;0.6648;
489.9000;0.4363;0.6769;
490.2000;0.4379;0.6818;
490.5000;0.4355;0.6818;
490.8000;0.4355;0.6818;
491.1000;0.4363;0.6794;
491.4000;0.4355;0.6721;
491.7000;0.4387;0.6745;
492.0000;0.4330;0.6721;
492.3000;0.4339;0.6769;
492.6000;0.4347;0.6696;
492.9000;0.4339;0.6672;
493.2000;0.4339;0.6672;
493.5000;0.4355;0.6745;
493.8000;0.4347;0.6721;
494.1000;0.4339;0.6648;
494.4000;0.4347;0.6599;
494.7000;0.4363;0.6623;
495.0000;0.4355;0.6648;
495.3000;0.4396;0.6818;
495.6000;0.4347;0.6745;
495.9000;0.4322;0.6672;
496.2000;0.4371;0.6867;
496.5000;0.4363;0.6818;
496.8000;0.4379;0.6867;
497.1000;0.4339;0.6721;
497.4000;0.4347;0.6696;
497.7000;0.4363;0.6745;
498.0000;0.4355;0.6696;
498.3000;0.4371;0.6745;
498.6000;0.4363;0.6794;
498.9000;0.4347;0.6745;
499.2000;0.4330;0.6721;
499.5000;0.4306;0.6696;
499.8000;0.4363;0.6891;
500.1000;0.4322;0.6745;
500.4000;0.4339;0.6769;
500.7000;0.4444;0.6988;
501.0000;0.4290;0.6550;
501.3000;0.4339;0.6672;
501.6000;0.4330;0.6648;
501.9000;0.4396;0.6867;
502.2000;0.4347;0.6769;
502.5000;0.4339;0.6842;
502.8000;0.4330;0.6794;
503.1000;0.4306;0.6745;
503.4000;0.4347;0.6891;
503.7000;0.4347;0.6818;
504.0000;0.4339;0.6672;
504.3000;0.4339;0.6745;
504.6000;0.4339;0.6769;
504.9000;0.4355;0.6891;
505.2000;0.4355;0.6915;
505.5000;0.4330;0.6891;
505.8000;0.4363;0.6915;
506.1000;0.4355;0.6964;
506.4000;0.4355;0.6988;
506.7000;0.4355;0.6891;
507.0000;0.4363;0.6940;
507.3000;0.4379;0.7013;
507.6000;0.4355;0.6988;
507.9000;0.4363;0.6940;
508.2000;0.4347;0.6891;
508.5000;0.4347;0.6940;
508.8000;0.4347;0.6988;
509.1000;0.4355;0.6988;
509.4000;0.4363;0.6915;
509.7000;0.4347;0.6818;
510.0000;0.4347;0.6769;
510.3000;0.4330;0.6696;
510.6000;0.4339;0.6648;
510.9000;0.4347;0.6648;
511.2000;0.4363;0.6672;
511.5000;0.4379;0.6721;
511.8000;0.4404;0.6842;
512.1000;0.4379;0.6623;
512.4000;0.4339;0.6575;
512.7000;0.4355;0.6672;
513.0000;0.4322;0.6550;
513.3000;0.4363;0.6599;
513.6000;0.4347;0.6599;
513.9000;0.4363;0.6623;
514.2000;0.4290;0.6428;
514.5000;0.4355;0.6599;
514.8000;0.4363;0.6575;
515.1000;0.4371;0.6648;
515.4000;0.4347;0.6575;
515.7000;0.4355;0.6477;
516.0000;0.4363;0.6501;
516.3000;0.4363;0.6526;
516.6000;0.4379;0.6599;
516.9000;0.4355;0.6550;
517.2000;0.4396;0.6696;
517.5000;0.4355;0.6599;
517.8000;0.4363;0.6599;
518.1000;0.4330;0.6501;
518.4000;0.4355;0.6575;
518.7000;0.4339;0.6501;
519.0000;0.4355;0.6477;
519.3000;0.4371;0.6526;
519.6000;0.4355;0.6575;
519.9000;0.4363;0.6648;
520.2000;0.4347;0.6672;
520.5000;0.4339;0.6648;
520.8000;0.4355;0.6721;
521.1000;0.4330;0.6794;
521.4000;0.4355;0.6842;
521.7000;0.4290;0.6648;
522.0000;0.4347;0.6769;
522.3000;0.4339;0.6745;
522.6000;0.4363;0.6818;
522.9000;0.4314;0.6794;
523.2000;0.4339;0.6842;
523.5000;0.4371;0.6818;
523.8000;0.4347;0.6794;
524.1000;0.4355;0.6842;
524.4000;0.4330;0.6794;
524.7000;0.4306;0.6745;
525.0000;0.4347;0.6867;
525.3000;0.4347;0.6818;
525.6000;0.4355;0.6842;
525.9000;0.4347;0.6818;
526.2000;0.4330;0.6721;
526.5000;0.4355;0.6769;
526.8000;0.4355;0.6745;
527.1000;0.4339;0.6721;
527.4000;0.4347;0.6745;
527.7000;0.4347;0.6745;
528.0000;0.4355;0.6696;
528.3000;0.4363;0.6575;
528.6000;0.4347;0.6526;
528.9000;0.4355;0.6550;
529.2000;0.4355;0.6550;
529.5000;0.4371;0.6623;
529.8000;0.4355;0.6623;
530.1000;0.4347;0.6623;
530.4000;0.4371;0.6745;
530.7000;0.4355;0.6721;
531.0000;0.4355;0.6672;
531.3000;0.4347;0.6623;
531.6000;0.4371;0.6672;
531.9000;0.4363;0.6623;
532.2000;0.4330;0.6501;
532.5000;0.4298;0.6453;
532.8000;0.4330;0.6575;
533.1000;0.4363;0.6623;
533.4000;0.4330;0.6550;
533.7000;0.4339;0.6696;
534.0000;0.4363;0.6672;
534.3000;0.4355;0.6648;
534.6000;0.4339;0.6501;
534.9000;0.4347;0.6550;
535.2000;0.4355;0.6599;
535.5000;0.4339;0.6648;
535.8000;0.4314;0.6575;
536.1000;0.4347;0.6648;
536.4000;0.4363;0.6648;
536.7000;0.4371;0.6721;
537.0000;0.4347;0.6721;
537.3000;0.4330;0.6648;
537.6000;0.4339;0.6696;
537.9000;0.4347;0.6696;
538.2000;0.4339;0.6672;
538.5000;0.4330;0.6453;
538.8000;0.4330;0.6575;
539.1000;0.4363;0.6575;
539.4000;0.4347;0.6501;
539.7000;0.4355;0.6526;
540.0000;0.4339;0.6550;
540.3000;0.4412;0.6623;
540.6000;0.4363;0.6477;
540.9000;0.4347;0.6453;
541.2000;0.4347;0.6501;
541.5000;0.4379;0.6623;
541.8000;0.4355;0.6526;
542.1000;0.4347;0.6428;
542.4000;0.4314;0.6355;
542.7000;0.4347;0.6404;
543.0000;0.4339;0.6526;
543.3000;0.4428;0.6745;
543.6000;0.4330;0.6526;
543.9000;0.4339;0.6550;
544.2000;0.4355;0.6575;
544.5000;0.4371;0.6623;
544.8000;0.4339;0.6526;
545.1000;0.4339;0.6672;
545.4000;0.4371;0.6696;
545.7000;0.4355;0.6550;
546.0000;0.4396;0.6623;
546.3000;0.4347;0.6477;
546.6000;0.4339;0.6380;
546.9000;0.4355;0.6453;
547.2000;0.4339;0.6428;
547.5000;0.4339;0.6282;
547.8000;0.4339;0.6355;
548.1000;0.4339;0.6428;
548.4000;0.4339;0.6453;
548.7000;0.4363;0.6428;
549.0000;0.4355;0.6355;
549.3000;0.4355;0.6380;
549.6000;0.4363;0.6501;
549.9000;0.4347;0.6404;
550.2000;0.4355;0.6428;
550.5000;0.4306;0.6355;
550.8000;0.4339;0.6355;
551.1000;0.4290;0.6185;
551.4000;0.4355;0.6404;
551.7000;0.4347;0.6355;
552.0000;0.4379;0.6453;
552.3000;0.4347;0.6501;
552.6000;0.4347;0.6599;
552.9000;0.4339;0.6550;
553.2000;0.4347;0.6526;
553.5000;0.4339;0.6550;
553.8000;0.4363;0.6526;
554.1000;0.4347;0.6501;
554.4000;0.4339;0.6526;
554.7000;0.4363;0.6575;
555.0000;0.4347;0.6501;
555.3000;0.4339;0.6380;
555.6000;0.4355;0.6453;
555.9000;0.4347;0.6404;
556.2000;0.4347;0.6501;
556.5000;0.4363;0.6526;
556.8000;0.4347;0.6526;
557.1000;0.4355;0.6550;
557.4000;0.4339;0.6599;
557.7000;0.4339;0.6672;
558.0000;0.4322;0.6794;
558.3000;0.4371;0.6842;
558.6000;0.4355;0.6672;
558.9000;0.4339;0.6599;
559.2000;0.4355;0.6696;
559.5000;0.4355;0.6696;
559.8000;0.4363;0.6696;
560.1000;0.4363;0.6623;
560.4000;0.4371;0.6696;
560.7000;0.4355;0.6696;
561.0000;0.4355;0.6745;
561.3000;0.4363;0.6794;
561.6000;0.4371;0.6818;
561.9000;0.4363;0.6769;
562.2000;0.4355;0.6745;
562.5000;0.4363;0.6769;
562.8000;0.4404;0.6818;
563.1000;0.4330;0.6648;
563.4000;0.4371;0.6599;
563.7000;0.4347;0.6526;
564.0000;0.4355;0.6477;
564.3000;0.4387;0.6477;
564.6000;0.4347;0.6355;
564.9000;0.4363;0.6380;
565.2000;0.4355;0.6428;
565.5000;0.4347;0.6477;
565.8000;0.4363;0.6599;
566.1000;0.4371;0.6550;
566.4000;0.4363;0.6501;
566.7000;0.4347;0.6550;
567.0000;0.4347;0.6648;
567.3000;0.4282;0.6404;
567.6000;0.4355;0.6477;
567.9000;0.4314;0.6355;
568.2000;0.4330;0.6453;
568.5000;0.4339;0.6526;
568.8000;0.4355;0.6575;
569.1000;0.4379;0.6696;
569.4000;0.4330;0.6599;
569.7000;0.4347;0.6721;
570.0000;0.4347;0.6623;
570.3000;0.4298;0.6501;
570.6000;0.4347;0.6599;
570.9000;0.4347;0.6550;
571.2000;0.4339;0.6526;
571.5000;0.4330;0.6501;
571.8000;0.4322;0.6453;
572.1000;0.4257;0.6209;
572.4000;0.4306;0.6380;
572.7000;0.4330;0.6648;
573.0000;0.4322;0.6550;
573.3000;0.4339;0.6550;
573.6000;0.4363;0.6501;
573.9000;0.4396;0.6550;
574.2000;0.4363;0.6453;
574.5000;0.4347;0.6404;
574.8000;0.4347;0.6526;
575.1000;0.4363;0.6550;
575.4000;0.4420;0.6769;
575.7000;0.4363;0.6599;
576.0000;0.4339;0.6526;
576.3000;0.4371;0.6575;
576.6000;0.4371;0.6501;
576.9000;0.4347;0.6526;
577.2000;0.4363;0.6550;
577.5000;0.4412;0.6575;
577.8000;0.4355;0.6477;
578.1000;0.4347;0.6404;
578.4000;0.4355;0.6404;
578.7000;0.4347;0.6404;
579.0000;0.4355;0.6428;
579.3000;0.4347;0.6428;
579.6000;0.4347;0.6428;
579.9000;0.4347;0.6501;
580.2000;0.4347;0.6477;
580.5000;0.4355;0.6501;
580.8000;0.4453;0.6672;
581.1000;0.4347;0.6477;
581.4000;0.4339;0.6404;
581.7000;0.4347;0.6428;
582.0000;0.4347;0.6404;
582.3000;0.4322;0.6380;
582.6000;0.4339;0.6428;
582.9000;0.4453;0.6769;
583.2000;0.4339;0.6477;
583.5000;0.4347;0.6477;
583.8000;0.4339;0.6501;
584.1000;0.4330;0.6501;
584.4000;0.4347;0.6477;
584.7000;0.4347;0.6501;
585.0000;0.4330;0.6501;
585.3000;0.4347;0.6575;
585.6000;0.4363;0.6575;
585.9000;0.4371;0.6501;
586.2000;0.4363;0.6575;
586.5000;0.4371;0.6526;
586.8000;0.4355;0.6404;
587.1000;0.4355;0.6380;
587.4000;0.4347;0.6331;
587.7000;0.4347;0.6331;
588.0000;0.4290;0.6209;
588.3000;0.4355;0.6477;
588.6000;0.4355;0.6453;
588.9000;0.4347;0.6404;
589.2000;0.4322;0.6355;
589.5000;0.4330;0.6453;
589.8000;0.4306;0.6404;
590.1000;0.4387;0.6623;
590.4000;0.4314;0.6380;
590.7000;0.4355;0.6501;
591.0000;0.4282;0.6380;
591.3000;0.4314;0.6428;
591.6000;0.4330;0.6501;
591.9000;0.4339;0.6477;
592.2000;0.4355;0.6526;
592.5000;0.4306;0.6477;
592.8000;0.4314;0.6477;
593.1000;0.4314;0.6477;
593.4000;0.4339;0.6623;
593.7000;0.4274;0.6526;
594.0000;0.4330;0.6599;
594.3000;0.4322;0.6648;
594.6000;0.4355;0.6696;
594.9000;0.4339;0.6696;
595.2000;0.4339;0.6623;
595.5000;0.4379;0.6794;
595.8000;0.4347;0.6599;
596.1000;0.4347;0.6550;
596.4000;0.4339;0.6550;
596.7000;0.4347;0.6575;
597.0000;0.4339;0.6501;
597.3000;0.4339;0.6526;
597.6000;0.4355;0.6550;
597.9000;0.4330;0.6575;
598.2000;0.4339;0.6550;
598.5000;0.4314;0.6501;
598.8000;0.4339;0.6501;
599.1000;0.4355;0.6575;
599.4000;0.4330;0.6453;
599.7000;0.4347;0.6599;
600.0000;0.4412;0.6769;
600.3000;0.4363;0.6599;
600.6000;0.4363;0.6575;
600.9000;0.4339;0.6380;
601.2000;0.4339;0.6282;
601.5000;0.4298;0.6063;
601.8000;0.4290;0.5941;
602.1000;0.4265;0.5722;
602.4000;0.4225;0.5479;
602.7000;0.4233;0.5381;
603.0000;0.4200;0.5187;
603.3000;0.4200;0.5138;
603.6000;0.4160;0.4992;
603.9000;0.4143;0.4943;
604.2000;0.4168;0.4943;
604.5000;0.4127;0.4724;
604.8000;0.4127;0.4700;
605.1000;0.4046;0.4359;
605.4000;0.4078;0.4529;
605.7000;0.4103;0.4480;
606.0000;0.4143;0.4602;
606.3000;0.4103;0.4456;
606.6000;0.4037;0.4359;
606.9000;0.4037;0.4334;
607.2000;0.4046;0.4310;
607.5000;0.4021;0.4213;
607.8000;0.3997;0.4188;
608.1000;0.4070;0.4407;
608.4000;0.4029;0.4310;
608.7000;0.4029;0.4334;
609.0000;0.4005;0.4310;
609.3000;0.3940;0.4188;
609.6000;0.3980;0.4310;
609.9000;0.3964;0.4310;
610.2000;0.3956;0.4286;
610.5000;0.3964;0.4286;
610.8000;0.3915;0.4188;
611.1000;0.3940;0.4261;
611.4000;0.3923;0.4213;
611.7000;0.3940;0.4286;
612.0000;0.3932;0.4310;
612.3000;0.3923;0.4164;
612.6000;0.3923;0.4066;
612.9000;0.3923;0.4066;
613.2000;0.3907;0.4066;
613.5000;0.3923;0.4140;
613.8000;0.3923;0.4091;
614.1000;0.3891;0.4042;
614.4000;0.3891;0.3969;
614.7000;0.3875;0.3872;
615.0000;0.3883;0.3872;
615.3000;0.3850;0.3823;
615.6000;0.3875;0.3872;
615.9000;0.3899;0.3969;
616.2000;0.3867;0.3993;
616.5000;0.3850;0.4042;
616.8000;0.3907;0.4115;
617.1000;0.3899;0.4091;
617.4000;0.3875;0.4042;
617.7000;0.3753;0.3726;
618.0000;0.3834;0.3920;
618.3000;0.3858;0.4066;
618.6000;0.3842;0.4042;
618.9000;0.3834;0.3993;
619.2000;0.3850;0.4018;
619.5000;0.3834;0.4066;
619.8000;0.3842;0.4042;
620.1000;0.3810;0.3920;
620.4000;0.3842;0.4018;
620.7000;0.3801;0.3945;
621.0000;0.3793;0.3823;
621.3000;0.3810;0.3872;
621.6000;0.3801;0.3823;
621.9000;0.3769;0.3847;
622.2000;0.3834;0.3920;
622.5000;0.3769;0.3774;
622.8000;0.3810;0.3920;
623.1000;0.3769;0.3872;
623.4000;0.3720;0.3701;
623.7000;0.3810;0.3799;
624.0000;0.3793;0.3799;
624.3000;0.3785;0.3799;
624.6000;0.3736;0.3677;
624.9000;0.3818;0.3799;
625.2000;0.3736;0.3653;
625.5000;0.3769;0.3726;
625.8000;0.3801;0.3872;
626.1000;0.3761;0.3726;
626.4000;0.3753;0.3774;
626.7000;0.3777;0.3799;
627.0000;0.3753;0.3750;
627.3000;0.3777;0.3726;
627.6000;0.3753;0.3750;
627.9000;0.3761;0.3701;
628.2000;0.3769;0.3726;
628.5000;0.3744;0.3726;
628.8000;0.3744;0.3774;
629.1000;0.3728;0.3750;
629.4000;0.3720;0.3774;
629.7000;0.3753;0.3799;
630.0000;0.3687;0.3628;
630.3000;0.3736;0.3799;
630.6000;0.3720;0.3701;
630.9000;0.3728;0.3701;
631.2000;0.3769;0.3872;
631.5000;0.3720;0.3653;
631.8000;0.3712;0.3653;
632.1000;0.3753;0.3726;
632.4000;0.3761;0.3701;
632.7000;0.3671;0.3482;
633.0000;0.3696;0.3604;
633.3000;0.3712;0.3604;
633.6000;0.3704;0.3604;
633.9000;0.3712;0.3628;
634.2000;0.3687;0.3653;
634.5000;0.3712;0.3726;
634.8000;0.3696;0.3653;
635.1000;0.3696;0.3677;
635.4000;0.3696;0.3701;
635.7000;0.3679;0.3750;
636.0000;0.3704;0.3750;
636.3000;0.3704;0.3750;
636.6000;0.3712;0.3750;
636.9000;0.3696;0.3750;
637.2000;0.3704;0.3799;
637.5000;0.3704;0.3823;
637.8000;0.3728;0.3920;
638.1000;0.3704;0.3774;
638.4000;0.3671;0.3799;
638.7000;0.3663;0.3774;
639.0000;0.3663;0.3774;
639.3000;0.3671;0.3726;
639.6000;0.3671;0.3701;
639.9000;0.3655;0.3726;
640.2000;0.3679;0.3677;
640.5000;0.3663;0.3604;
640.8000;0.3663;0.3531;
641.1000;0.3655;0.3531;
641.4000;0.3679;0.3604;
641.7000;0.3679;0.3750;
642.0000;0.3663;0.3774;
642.3000;0.3679;0.3896;
642.6000;0.3655;0.3799;
642.9000;0.3679;0.3799;
643.2000;0.3671;0.3872;
643.5000;0.3655;0.3847;
643.8000;0.3679;0.3969;
644.1000;0.3671;0.3969;
644.4000;0.3663;0.3920;
644.7000;0.3630;0.3823;
645.0000;0.3663;0.3896;
645.3000;0.3647;0.3872;
645.6000;0.3679;0.3969;
645.9000;0.3639;0.3872;
646.2000;0.3655;0.3896;
646.5000;0.3582;0.3726;
646.8000;0.3663;0.3920;
647.1000;0.3655;0.3920;
647.4000;0.3671;0.3969;
647.7000;0.3663;0.3969;
648.0000;0.3663;0.3896;
648.3000;0.3630;0.3896;
648.6000;0.3630;0.3872;
648.9000;0.3639;0.3847;
649.2000;0.3622;0.3872;
649.5000;0.3606;0.3872;
649.8000;0.3639;0.3945;
650.1000;0.3663;0.4018;
650.4000;0.3606;0.3920;
650.7000;0.3663;0.4042;
651.0000;0.3630;0.4066;
651.3000;0.3606;0.4042;
651.6000;0.3647;0.4164;
651.9000;0.3639;0.4091;
652.2000;0.3639;0.4018;
652.5000;0.3614;0.3969;
652.8000;0.3647;0.4042;
653.1000;0.3622;0.4066;
653.4000;0.3655;0.4115;
653.7000;0.3606;0.4066;
654.0000;0.3590;0.3847;
654.3000;0.3590;0.3823;
654.6000;0.3606;0.3847;
654.9000;0.3614;0.3896;
655.2000;0.3614;0.3896;
655.5000;0.3614;0.3920;
655.8000;0.3598;0.3847;
656.1000;0.3590;0.3774;
656.4000;0.3622;0.3872;
656.7000;0.3622;0.3799;
657.0000;0.3606;0.3750;
657.3000;0.3622;0.3823;
657.6000;0.3606;0.3799;
657.9000;0.3614;0.3774;
658.2000;0.3606;0.3677;
658.5000;0.3614;0.3701;
658.8000;0.3590;0.3677;
659.1000;0.3606;0.3604;
659.4000;0.3590;0.3555;
659.7000;0.3590;0.3555;
660.0000;0.3590;0.3506;
660.3000;0.3622;0.3653;
660.6000;0.3614;0.3701;
660.9000;0.3639;0.3701;
661.2000;0.3606;0.3628;
661.5000;0.3582;0.3604;
661.8000;0.3598;0.3750;
662.1000;0.3582;0.3701;
662.4000;0.3598;0.3774;
662.7000;0.3614;0.3823;
663.0000;0.3606;0.3774;
663.3000;0.3590;0.3750;
663.6000;0.3565;0.3823;
663.9000;0.3630;0.4018;
664.2000;0.3557;0.3799;
664.5000;0.3598;0.3945;
664.8000;0.3582;0.3896;
665.1000;0.3598;0.3847;
665.4000;0.3565;0.3774;
665.7000;0.3622;0.3993;
666.0000;0.3565;0.3847;
666.3000;0.3573;0.3896;
666.6000;0.3565;0.3799;
666.9000;0.3622;0.3945;
667.2000;0.3582;0.3823;
667.5000;0.3655;0.4115;
667.8000;0.3606;0.4042;
668.1000;0.3590;0.4066;
668.4000;0.3573;0.3993;
668.7000;0.3573;0.3920;
669.0000;0.3573;0.3969;
669.3000;0.3565;0.4042;
669.6000;0.3622;0.4066;
669.9000;0.3525;0.3726;
670.2000;0.3565;0.3823;
670.5000;0.3598;0.3969;
670.8000;0.3565;0.3896;
671.1000;0.3573;0.3872;
671.4000;0.3582;0.3872;
671.7000;0.3573;0.3799;
672.0000;0.3565;0.3750;
672.3000;0.3590;0.3823;
672.6000;0.3582;0.3872;
672.9000;0.3573;0.3847;
673.2000;0.3573;0.3920;
673.5000;0.3557;0.3799;
673.8000;0.3565;0.3896;
674.1000;0.3573;0.3872;
674.4000;0.3565;0.3774;
674.7000;0.3549;0.3750;
675.0000;0.3565;0.3726;
675.3000;0.3565;0.3653;
675.6000;0.3565;0.3628;
675.9000;0.3525;0.3604;
676.2000;0.3549;0.3628;
676.5000;0.3541;0.3555;
676.8000;0.3549;0.3579;
677.1000;0.3573;0.3677;
677.4000;0.3565;0.3653;
677.7000;0.3549;0.3653;
678.0000;0.3549;0.3677;
678.3000;0.3606;0.3920;
678.6000;0.3557;0.3920;
678.9000;0.3549;0.3945;
679.2000;0.3541;0.3993;
679.5000;0.3549;0.3993;
679.8000;0.3549;0.3945;
680.1000;0.3500;0.3799;
680.4000;0.3525;0.3799;
680.7000;0.3549;0.3872;
681.0000;0.3582;0.3993;
681.3000;0.3525;0.3847;
681.6000;0.3533;0.3896;
681.9000;0.3557;0.3969;
682.2000;0.3565;0.4018;
682.5000;0.3565;0.3969;
682.8000;0.3533;0.3847;
683.1000;0.3468;0.3677;
683.4000;0.3573;0.3969;
683.7000;0.3557;0.3920;
684.0000;0.3533;0.3969;
684.3000;0.3549;0.3969;
684.6000;0.3525;0.3920;
684.9000;0.3533;0.3945;
685.2000;0.3573;0.3945;
685.5000;0.3468;0.3701;
685.8000;0.3516;0.3799;
686.1000;0.3460;0.3653;
686.4000;0.3468;0.3750;
686.7000;0.3549;0.4018;
687.0000;0.3484;0.3896;
687.3000;0.3598;0.4261;
687.6000;0.3508;0.4066;
687.9000;0.3533;0.4091;
688.2000;0.3500;0.4164;
688.5000;0.3582;0.4359;
688.8000;0.3533;0.4310;
689.1000;0.3516;0.4213;
689.4000;0.3516;0.4213;
689.7000;0.3516;0.4164;
690.0000;0.3508;0.4188;
690.3000;0.3541;0.4261;
690.6000;0.3541;0.4164;
690.9000;0.3549;0.4091;
691.2000;0.3525;0.4115;
691.5000;0.3541;0.4140;
691.8000;0.3525;0.4042;
692.1000;0.3549;0.3993;
692.4000;0.3533;0.3872;
692.7000;0.3541;0.3872;
693.0000;0.3476;0.3847;
693.3000;0.3525;0.4042;
693.6000;0.3476;0.4066;
693.9000;0.3533;0.4188;
694.2000;0.3541;0.4091;
694.5000;0.3541;0.4091;
694.8000;0.3533;0.4115;
695.1000;0.3549;0.4115;
695.4000;0.3525;0.4091;
695.7000;0.3516;0.4018;
696.0000;0.3541;0.4115;
696.3000;0.3533;0.4091;
696.6000;0.3533;0.4018;
696.9000;0.3516;0.4066;
697.2000;0.3565;0.4140;
697.5000;0.3541;0.4042;
697.8000;0.3525;0.4018;
698.1000;0.3525;0.4066;
698.4000;0.3508;0.3969;
698.7000;0.3508;0.3993;
699.0000;0.3508;0.3993;
699.3000;0.3525;0.3969;
699.6000;0.3533;0.4018;
699.9000;0.3492;0.3945;
700.2000;0.3484;0.4018;
700.5000;0.3516;0.4066;
700.8000;0.3508;0.3969;
701.1000;0.3516;0.3920;
701.4000;0.3525;0.3920;
701.7000;0.3525;0.3945;
702.0000;0.3541;0.4018;
702.3000;0.3525;0.3896;
702.6000;0.3541;0.3945;
702.9000;0.3500;0.3896;
703.2000;0.3492;0.3945;
703.5000;0.3525;0.3993;
703.8000;0.3525;0.4042;
704.1000;0.3484;0.4018;
704.4000;0.3476;0.3969;
704.7000;0.3508;0.4018;
705.0000;0.3500;0.3969;
705.3000;0.3525;0.4018;
705.6000;0.3516;0.3920;
705.9000;0.3525;0.3969;
706.2000;0.3476;0.3847;
706.5000;0.3476;0.3823;
706.8000;0.3508;0.3945;
707.1000;0.3508;0.3969;
707.4000;0.3516;0.3945;
707.7000;0.3508;0.3896;
708.0000;0.3508;0.3896;
708.3000;0.3508;0.3896;
708.6000;0.3533;0.3993;
708.9000;0.3549;0.4091;
709.2000;0.3484;0.3969;
709.5000;0.3508;0.4018;
709.8000;0.3492;0.4042;
710.1000;0.3516;0.3993;
710.4000;0.3516;0.4066;
710.7000;0.3516;0.4066;
711.0000;0.3500;0.3945;
711.3000;0.3500;0.3896;
711.6000;0.3500;0.3920;
711.9000;0.3582;0.4237;
712.2000;0.3468;0.3945;
712.5000;0.3476;0.3945;
712.8000;0.3508;0.4091;
713.1000;0.3500;0.4066;
713.4000;0.3525;0.4115;
713.7000;0.3508;0.4091;
714.0000;0.3492;0.4066;
714.3000;0.3500;0.4042;
714.6000;0.3492;0.4066;
714.9000;0.3484;0.4066;
715.2000;0.3508;0.4115;
715.5000;0.3516;0.4140;
715.8000;0.3516;0.4115;
716.1000;0.3500;0.4042;
716.4000;0.3508;0.4042;
716.7000;0.3508;0.4066;
717.0000;0.3508;0.4188;
717.3000;0.3500;0.4091;
717.6000;0.3565;0.4188;
717.9000;0.3492;0.3945;
718.2000;0.3516;0.4018;
718.5000;0.3516;0.4066;
718.8000;0.3508;0.3945;
719.1000;0.3525;0.4018;
719.4000;0.3516;0.4018;
719.7000;0.3508;0.3993;
720.0000;0.3525;0.4091;
720.3000;0.3508;0.4066;
720.6000;0.3443;0.3847;
720.9000;0.3500;0.4018;
721.2000;0.3533;0.4042;
721.5000;0.3484;0.3993;
721.8000;0.3492;0.4018;
722.1000;0.3492;0.4066;
722.4000;0.3549;0.4164;
722.7000;0.3533;0.4115;
723.0000;0.3508;0.4066;
723.3000;0.3492;0.4042;
723.6000;0.3492;0.4115;
723.9000;0.3492;0.4066;
724.2000;0.3492;0.4066;
724.5000;0.3484;0.3920;
724.8000;0.3508;0.3872;
725.1000;0.3557;0.4018;
725.4000;0.3508;0.3969;
725.7000;0.3500;0.3945;
726.0000;0.3435;0.3701;
726.3000;0.3500;0.3896;
726.6000;0.3508;0.3920;
726.9000;0.3500;0.3993;
727.2000;0.3508;0.4018;
727.5000;0.3500;0.4042;
727.8000;0.3500;0.4091;
728.1000;0.3500;0.4140;
728.4000;0.3508;0.4140;
728.7000;0.3508;0.4042;
729.0000;0.3533;0.4066;
729.3000;0.3525;0.4115;
729.6000;0.3476;0.3945;
729.9000;0.3508;0.4018;
730.2000;0.3508;0.4018;
730.5000;0.3500;0.3969;
730.8000;0.3492;0.3993;
731.1000;0.3484;0.3993;
731.4000;0.3500;0.3993;
731.7000;0.3492;0.3920;
732.0000;0.3484;0.3872;
732.3000;0.3484;0.3872;
732.6000;0.3451;0.3872;
732.9000;0.3500;0.4018;
733.2000;0.3476;0.3993;
733.5000;0.3525;0.4091;
733.8000;0.3484;0.3969;
734.1000;0.3492;0.4066;
734.4000;0.3492;0.4091;
734.7000;0.3500;0.4115;
735.0000;0.3484;0.3993;
735.3000;0.3484;0.3993;
735.6000;0.3500;0.3969;
735.9000;0.3492;0.3920;
736.2000;0.3484;0.3823;
736.5000;0.3484;0.3896;
736.8000;0.3484;0.3969;
737.1000;0.3484;0.3945;
737.4000;0.3484;0.3896;
737.7000;0.3492;0.3920;
738.0000;0.3492;0.3993;
738.3000;0.3492;0.4140;
738.6000;0.3508;0.4164;
738.9000;0.3492;0.4188;
739.2000;0.3492;0.4164;
739.5000;0.3500;0.4188;
739.8000;0.3508;0.4164;
740.1000;0.3500;0.4188;
740.4000;0.3500;0.4188;
740.7000;0.3492;0.4164;
741.0000;0.3492;0.4140;
741.3000;0.3492;0.4066;
741.6000;0.3484;0.4115;
741.9000;0.3492;0.4140;
742.2000;0.3492;0.4115;
742.5000;0.3484;0.4164;
742.8000;0.3476;0.4115;
743.1000;0.3500;0.4164;
743.4000;0.3508;0.4237;
743.7000;0.3525;0.4286;
744.0000;0.3476;0.4140;
744.3000;0.3500;0.4188;
744.6000;0.3525;0.4359;
744.9000;0.3492;0.4188;
745.2000;0.3541;0.4261;
745.5000;0.3484;0.4018;
745.8000;0.3476;0.3896;
746.1000;0.3508;0.3945;
746.4000;0.3525;0.3945;
746.7000;0.3533;0.3945;
747.0000;0.3484;0.3872;
747.3000;0.3500;0.3823;
747.6000;0.3468;0.3774;
747.9000;0.3492;0.3799;
748.2000;0.3516;0.3847;
748.5000;0.3468;0.3847;
748.8000;0.3476;0.3872;
749.1000;0.3460;0.3823;
749.4000;0.3508;0.3945;
749.7000;0.3492;0.3969;
750.0000;0.3476;0.3945;
750.3000;0.3476;0.3945;
750.6000;0.3468;0.3945;
750.9000;0.3484;0.3920;
751.2000;0.3476;0.3896;
751.5000;0.3460;0.3823;
751.8000;0.3484;0.3896;
752.1000;0.3476;0.3896;
752.4000;0.3484;0.4018;
752.7000;0.3492;0.3969;
753.0000;0.3476;0.3945;
753.3000;0.3484;0.3969;
753.6000;0.3476;0.3945;
753.9000;0.3476;0.3896;
754.2000;0.3468;0.3896;
754.5000;0.3476;0.3823;
754.8000;0.3476;0.3823;
755.1000;0.3468;0.3896;
755.4000;0.3460;0.3896;
755.7000;0.3484;0.4042;
756.0000;0.3476;0.3969;
756.3000;0.3492;0.3847;
756.6000;0.3468;0.3726;
756.9000;0.3484;0.3872;
757.2000;0.3484;0.3847;
757.5000;0.3460;0.3799;
757.8000;0.3460;0.3896;
758.1000;0.3516;0.4018;
758.4000;0.3500;0.3969;
758.7000;0.3460;0.3872;
759.0000;0.3492;0.3920;
759.3000;0.3492;0.4018;
759.6000;0.3525;0.4091;
759.9000;0.3460;0.3945;
760.2000;0.3500;0.3969;
760.5000;0.3427;0.3823;
760.8000;0.3443;0.3847;
761.1000;0.3484;0.3896;
761.4000;0.3484;0.3872;
761.7000;0.3468;0.3872;
762.0000;0.3484;0.3896;
762.3000;0.3492;0.3945;
762.6000;0.3484;0.4018;
762.9000;0.3492;0.4115;
763.2000;0.3484;0.4115;
763.5000;0.3484;0.4188;
763.8000;0.3484;0.4091;
764.1000;0.3460;0.4042;
764.4000;0.3460;0.3993;
764.7000;0.3460;0.3993;
765.0000;0.3533;0.4237;
765.3000;0.3460;0.4066;
765.6000;0.3468;0.4115;
765.9000;0.3435;0.3969;
766.2000;0.3484;0.4018;
766.5000;0.3468;0.3847;
766.8000;0.3460;0.3750;
767.1000;0.3427;0.3726;
767.4000;0.3451;0.3750;
767.7000;0.3476;0.3799;
768.0000;0.3468;0.3701;
768.3000;0.3484;0.3750;
768.6000;0.3468;0.3799;
768.9000;0.3484;0.3896;
769.2000;0.3460;0.3823;
769.5000;0.3484;0.3847;
769.8000;0.3460;0.3847;
770.1000;0.3476;0.3823;
770.4000;0.3468;0.3774;
770.7000;0.3500;0.3872;
771.0000;0.3443;0.3847;
771.3000;0.3468;0.3872;
771.6000;0.3460;0.3969;
771.9000;0.3451;0.3872;
772.2000;0.3484;0.3969;
772.5000;0.3468;0.4018;
772.8000;0.3476;0.4140;
773.1000;0.3484;0.4188;
773.4000;0.3468;0.4042;
773.7000;0.3476;0.3993;
774.0000;0.3468;0.3969;
774.3000;0.3476;0.3847;
774.6000;0.3468;0.3774;
774.9000;0.3468;0.3750;
775.2000;0.3484;0.3701;
775.5000;0.3468;0.3579;
775.8000;0.3476;0.3628;
776.1000;0.3484;0.3726;
776.4000;0.3476;0.3701;
776.7000;0.3468;0.3677;
777.0000;0.3468;0.3726;
777.3000;0.3451;0.3799;
777.6000;0.3468;0.3847;
777.9000;0.3500;0.3920;
778.2000;0.3468;0.3750;
778.5000;0.3403;0.3628;
778.8000;0.3476;0.3847;
779.1000;0.3500;0.3920;
779.4000;0.3451;0.3823;
779.7000;0.3484;0.3945;
780.0000;0.3476;0.3920;
780.3000;0.3476;0.3847;
780.6000;0.3484;0.3993;
780.9000;0.3468;0.4018;
781.2000;0.3460;0.3969;
781.5000;0.3468;0.3969;
781.8000;0.3451;0.3920;
782.1000;0.3468;0.3969;
782.4000;0.3460;0.3920;
782.7000;0.3500;0.3969;
783.0000;0.3468;0.3969;
783.3000;0.3460;0.4066;
783.6000;0.3443;0.4188;
783.9000;0.3468;0.4261;
784.2000;0.3476;0.4261;
784.5000;0.3476;0.4261;
784.8000;0.3460;0.4310;
785.1000;0.3419;0.4261;
785.4000;0.3476;0.4359;
785.7000;0.3484;0.4310;
786.0000;0.3468;0.4261;
786.3000;0.3476;0.4188;
786.6000;0.3492;0.4237;
786.9000;0.3476;0.4091;
787.2000;0.3476;0.4018;
787.5000;0.3484;0.4066;
787.8000;0.3476;0.3993;
788.1000;0.3476;0.3920;
788.4000;0.3484;0.3920;
788.7000;0.3460;0.3872;
789.0000;0.3508;0.3945;
789.3000;0.3476;0.3896;
789.6000;0.3460;0.3920;
789.9000;0.3451;0.3945;
790.2000;0.3468;0.4066;
790.5000;0.3468;0.4018;
790.8000;0.3451;0.4066;
791.1000;0.3476;0.4140;
791.4000;0.3435;0.4066;
791.7000;0.3476;0.4066;
792.0000;0.3500;0.4091;
792.3000;0.3460;0.3993;
792.6000;0.3468;0.4066;
792.9000;0.3500;0.4066;
793.2000;0.3508;0.4066;
793.5000;0.3476;0.3920;
793.8000;0.3468;0.3896;
794.1000;0.3476;0.3993;
794.4000;0.3476;0.3945;
794.7000;0.3460;0.3847;
795.0000;0.3476;0.3920;
795.3000;0.3484;0.3969;
795.6000;0.3484;0.4018;
795.9000;0.3476;0.3993;
796.2000;0.3468;0.3896;
796.5000;0.3451;0.3896;
796.8000;0.3492;0.4042;
797.1000;0.3443;0.3945;
797.4000;0.3460;0.4018;
797.7000;0.3468;0.4091;
798.0000;0.3468;0.4042;
798.3000;0.3476;0.4066;
798.6000;0.3476;0.4018;
798.9000;0.3468;0.3993;
799.2000;0.3460;0.3920;
799.5000;0.3565;0.4140;
799.8000;0.3476;0.3969;
800.1000;0.3451;0.3945;
800.4000;0.3468;0.4018;
800.7000;0.3468;0.4213;
801.0000;0.3468;0.4213;
801.3000;0.3468;0.4237;
801.6000;0.3435;0.4115;
801.9000;0.3476;0.4091;
802.2000;0.3460;0.4115;
802.5000;0.3484;0.4237;
802.8000;0.3460;0.4213;
803.1000;0.3460;0.4237;
803.4000;0.3476;0.4213;
803.7000;0.3460;0.4164;
804.0000;0.3460;0.4140;
804.3000;0.3492;0.4188;
804.6000;0.3476;0.4164;
804.9000;0.3435;0.4115;
805.2000;0.3451;0.4140;
805.5000;0.3525;0.4310;
805.8000;0.3468;0.4188;
806.1000;0.3468;0.4237;
806.4000;0.3460;0.4237;
806.7000;0.3403;0.3993;
807.0000;0.3451;0.4091;
807.3000;0.3443;0.4042;
807.6000;0.3451;0.4091;
807.9000;0.3468;0.4091;
808.2000;0.3468;0.4115;
808.5000;0.3451;0.4164;
808.8000;0.3476;0.4164;
809.1000;0.3508;0.4115;
809.4000;0.3468;0.3920;
809.7000;0.3476;0.3872;
810.0000;0.3476;0.3823;
810.3000;0.3468;0.3774;
810.6000;0.3427;0.3750;
810.9000;0.3468;0.3847;
811.2000;0.3468;0.3896;
811.5000;0.3460;0.3847;
811.8000;0.3403;0.3677;
812.1000;0.3460;0.3896;
812.4000;0.3516;0.3993;
812.7000;0.3460;0.3872;
813.0000;0.3476;0.3969;
813.3000;0.3443;0.3945;
813.6000;0.3468;0.4018;
813.9000;0.3451;0.3920;
814.2000;0.3451;0.3969;
814.5000;0.3468;0.3993;
814.8000;0.3468;0.4042;
815.1000;0.3460;0.4018;
815.4000;0.3451;0.4018;
815.7000;0.3451;0.4018;
816.0000;0.3476;0.4042;
816.3000;0.3443;0.3969;
816.6000;0.3468;0.3969;
816.9000;0.3557;0.4164;
817.2000;0.3443;0.3847;
817.5000;0.3476;0.3872;
817.8000;0.3451;0.3847;
818.1000;0.3468;0.3896;
818.4000;0.3411;0.3823;
818.7000;0.3468;0.3945;
819.0000;0.3468;0.4042;
819.3000;0.3468;0.4042;
819.6000;0.3468;0.4066;
819.9000;0.3484;0.4091;
820.2000;0.3451;0.4140;
820.5000;0.3460;0.4140;
820.8000;0.3451;0.4115;
821.1000;0.3451;0.4115;
821.4000;0.3460;0.4188;
821.7000;0.3468;0.4213;
822.0000;0.3468;0.4213;
822.3000;0.3451;0.4164;
822.6000;0.3451;0.4188;
822.9000;0.3451;0.4066;
823.2000;0.3484;0.4066;
823.5000;0.3468;0.4066;
823.8000;0.3362;0.3774;
824.1000;0.3443;0.4018;
824.4000;0.3460;0.4091;
824.7000;0.3476;0.4115;
825.0000;0.3476;0.4115;
825.3000;0.3468;0.4115;
825.6000;0.3435;0.3945;
825.9000;0.3476;0.4091;
826.2000;0.3451;0.4115;
826.5000;0.3460;0.4091;
826.8000;0.3451;0.4018;
827.1000;0.3476;0.4091;
827.4000;0.3476;0.4018;
827.7000;0.3476;0.3969;
828.0000;0.3468;0.3945;
828.3000;0.3468;0.4018;
828.6000;0.3468;0.3969;
828.9000;0.3451;0.3896;
829.2000;0.3460;0.3872;
829.5000;0.3468;0.3993;
829.8000;0.3411;0.3872;
830.1000;0.3484;0.3945;
830.4000;0.3460;0.3920;
830.7000;0.3460;0.3993;
831.0000;0.3468;0.4042;
831.3000;0.3476;0.4042;
831.6000;0.3468;0.3993;
831.9000;0.3468;0.3896;
832.2000;0.3468;0.3847;
832.5000;0.3492;0.3945;
832.8000;0.3460;0.3993;
833.1000;0.3411;0.3920;
833.4000;0.3484;0.4042;
833.7000;0.3451;0.3993;
834.0000;0.3460;0.3920;
834.3000;0.3460;0.3896;
834.6000;0.3435;0.3920;
834.9000;0.3419;0.3872;
835.2000;0.3460;0.3993;
835.5000;0.3525;0.4213;
835.8000;0.3443;0.4066;
836.1000;0.3492;0.4213;
836.4000;0.3403;0.3920;
836.7000;0.3443;0.3945;
837.0000;0.3451;0.3945;
837.3000;0.3468;0.3993;
837.6000;0.3468;0.4018;
837.9000;0.3468;0.4091;
838.2000;0.3419;0.3945;
838.5000;0.3460;0.4042;
838.8000;0.3460;0.4091;
839.1000;0.3484;0.4140;
839.4000;0.3460;0.4042;
839.7000;0.3451;0.4115;
840.0000;0.3460;0.4115;
840.3000;0.3435;0.3920;
840.6000;0.3468;0.3945;
840.9000;0.3451;0.3969;
841.2000;0.3403;0.3847;
841.5000;0.3460;0.3969;
841.8000;0.3460;0.4066;
842.1000;0.3419;0.3920;
842.4000;0.3460;0.4066;
842.7000;0.3468;0.4115;
843.0000;0.3541;0.4286;
843.3000;0.3451;0.4115;
843.6000;0.3443;0.4091;
843.9000;0.3460;0.4091;
844.2000;0.3451;0.4042;
844.5000;0.3476;0.4091;
844.8000;0.3468;0.4066;
845.1000;0.3460;0.4042;
845.4000;0.3468;0.4042;
845.7000;0.3451;0.3969;
846.0000;0.3451;0.3993;
846.3000;0.3451;0.4042;
846.6000;0.3451;0.4018;
846.9000;0.3411;0.3920;
847.2000;0.3468;0.4091;
847.5000;0.3427;0.3896;
847.8000;0.3476;0.4042;
848.1000;0.3435;0.4042;
848.4000;0.3460;0.4042;
848.7000;0.3468;0.4066;
849.0000;0.3443;0.4018;
849.3000;0.3484;0.4091;
849.6000;0.3476;0.4091;
849.9000;0.3468;0.4042;
850.2000;0.3484;0.4164;
850.5000;0.3476;0.4091;
850.8000;0.3476;0.4066;
851.1000;0.3476;0.3993;
851.4000;0.3451;0.4018;
851.7000;0.3460;0.3823;
852.0000;0.3443;0.3799;
852.3000;0.3451;0.3799;
852.6000;0.3394;0.3677;
852.9000;0.3468;0.3920;
853.2000;0.3451;0.3872;
853.5000;0.3443;0.3847;
853.8000;0.3468;0.3945;
854.1000;0.3500;0.4042;
854.4000;0.3451;0.3920;
854.7000;0.3468;0.4042;
855.0000;0.3460;0.4042;
855.3000;0.3468;0.4042;
855.6000;0.3403;0.3872;
855.9000;0.3460;0.3969;
856.2000;0.3476;0.3945;
856.5000;0.3435;0.3993;
856.8000;0.3460;0.4042;
857.1000;0.3346;0.3774;
857.4000;0.3468;0.4066;
857.7000;0.3460;0.3993;
858.0000;0.3468;0.3896;
858.3000;0.3451;0.3774;
858.6000;0.3394;0.3677;
858.9000;0.3460;0.3920;
859.2000;0.3443;0.3969;
859.5000;0.3525;0.4140;
859.8000;0.3451;0.3993;
860.1000;0.3427;0.3969;
860.4000;0.3435;0.3993;
860.7000;0.3443;0.3969;
861.0000;0.3419;0.3896;
861.3000;0.3443;0.3896;
861.6000;0.3460;0.3896;
861.9000;0.3435;0.3896;
862.2000;0.3468;0.4018;
862.5000;0.3460;0.3945;
862.8000;0.3451;0.3872;
863.1000;0.3500;0.4018;
863.4000;0.3411;0.3774;
863.7000;0.3411;0.3774;
864.0000;0.3451;0.3920;
864.3000;0.3460;0.3872;
864.6000;0.3476;0.3872;
864.9000;0.3451;0.3847;
865.2000;0.3443;0.3774;
865.5000;0.3460;0.3823;
865.8000;0.3460;0.3823;
866.1000;0.3460;0.3847;
866.4000;0.3443;0.3920;
866.7000;0.3460;0.3896;
867.0000;0.3451;0.3945;
867.3000;0.3427;0.3969;
867.6000;0.3411;0.3872;
867.9000;0.3443;0.3945;
868.2000;0.3451;0.3969;
868.5000;0.3460;0.3945;
868.8000;0.3435;0.3896;
869.1000;0.3460;0.3945;
869.4000;0.3451;0.3945;
869.7000;0.3460;0.4018;
870.0000;0.3451;0.4018;
870.3000;0.3451;0.4018;
870.6000;0.3468;0.3993;
870.9000;0.3476;0.3993;
871.2000;0.3443;0.3920;
871.5000;0.3500;0.4115;
871.8000;0.3468;0.3896;
872.1000;0.3451;0.3945;
872.4000;0.3476;0.3969;
872.7000;0.3435;0.3920;
873.0000;0.3435;0.3969;
873.3000;0.3451;0.3945;
873.6000;0.3468;0.3945;
873.9000;0.3443;0.3896;
874.2000;0.3460;0.3969;
874.5000;0.3476;0.3993;
874.8000;0.3460;0.3969;
875.1000;0.3476;0.4091;
875.4000;0.3460;0.4018;
875.7000;0.3468;0.3969;
876.0000;0.3468;0.3993;
876.3000;0.3460;0.3969;
876.6000;0.3460;0.3969;
876.9000;0.3460;0.3969;
877.2000;0.3468;0.3920;
877.5000;0.3451;0.3896;
877.8000;0.3435;0.3847;
878.1000;0.3468;0.3896;
878.4000;0.3435;0.3847;
878.7000;0.3451;0.3945;
879.0000;0.3435;0.3920;
879.3000;0.3460;0.3993;
879.6000;0.3468;0.3920;
879.9000;0.3451;0.3847;
880.2000;0.3460;0.3823;
880.5000;0.3468;0.3823;
880.8000;0.3460;0.3823;
881.1000;0.3460;0.3750;
881.4000;0.3476;0.3799;
881.7000;0.3443;0.3750;
882.0000;0.3492;0.3969;
882.3000;0.3451;0.3945;
882.6000;0.3460;0.3920;
882.9000;0.3443;0.3920;
883.2000;0.3460;0.3896;
883.5000;0.3460;0.3945;
883.8000;0.3460;0.3896;
884.1000;0.3403;0.3677;
884.4000;0.3443;0.3823;
884.7000;0.3460;0.3847;
885.0000;0.3460;0.3823;
885.3000;0.3468;0.3799;
885.6000;0.3443;0.3799;
885.9000;0.3443;0.3799;
886.2000;0.3460;0.3847;
886.5000;0.3460;0.3799;
886.8000;0.3362;0.3628;
887.1000;0.3468;0.3872;
887.4000;0.3460;0.3799;
887.7000;0.3451;0.3799;
888.0000;0.3427;0.3750;
888.3000;0.3451;0.3701;
888.6000;0.3468;0.3677;
888.9000;0.3460;0.3726;
889.2000;0.3394;0.3653;
889.5000;0.3451;0.3945;
889.8000;0.3451;0.3896;
890.1000;0.3468;0.4018;
890.4000;0.3435;0.3993;
890.7000;0.3443;0.4066;
891.0000;0.3451;0.4042;
891.3000;0.3460;0.4042;
891.6000;0.3386;0.3799;
891.9000;0.3451;0.3993;
892.2000;0.3468;0.3993;
892.5000;0.3435;0.3993;
892.8000;0.3435;0.3945;
893.1000;0.3443;0.3920;
893.4000;0.3435;0.3896;
893.7000;0.3378;0.3750;
894.0000;0.3468;0.3969;
894.3000;0.3468;0.4018;
894.6000;0.3451;0.4018;
894.9000;0.3460;0.4091;
895.2000;0.3451;0.4066;
895.5000;0.3411;0.4042;
895.8000;0.3460;0.4091;
896.1000;0.3460;0.4091;
896.4000;0.3468;0.4115;
896.7000;0.3460;0.4115;
897.0000;0.3468;0.4042;
897.3000;0.3460;0.3993;
897.6000;0.3386;0.3750;
897.9000;0.3451;0.3920;
898.2000;0.3443;0.3823;
898.5000;0.3403;0.3774;
898.8000;0.3460;0.3920;
899.1000;0.3443;0.3920;
899.4000;0.3435;0.3896;
899.7000;0.3451;0.3969;
900.0000;0.3451;0.4042;
900.3000;0.3451;0.4091;
900.6000;0.3451;0.4018;
900.9000;0.3451;0.3847;
901.2000;0.3468;0.3872;
901.5000;0.3460;0.3872;
901.8000;0.3443;0.3847;
902.1000;0.3468;0.3993;
902.4000;0.3468;0.4018;
902.7000;0.3451;0.3969;
903.0000;0.3443;0.3872;
903.3000;0.3443;0.3945;
903.6000;0.3435;0.3872;
903.9000;0.3443;0.4018;
904.2000;0.3411;0.3993;
904.5000;0.3435;0.3969;
904.8000;0.3451;0.4018;
905.1000;0.3468;0.4188;
905.4000;0.3443;0.4237;
905.7000;0.3435;0.4213;
906.0000;0.3451;0.4115;
906.3000;0.3435;0.4018;
906.6000;0.3451;0.4018;
906.9000;0.3460;0.4018;
907.2000;0.3451;0.3945;
907.5000;0.3460;0.3920;
907.8000;0.3468;0.3920;
908.1000;0.3362;0.3579;
908.4000;0.3443;0.3799;
908.7000;0.3460;0.3750;
909.0000;0.3468;0.3799;
909.3000;0.3468;0.3774;
909.6000;0.3435;0.3726;
909.9000;0.3549;0.4042;
910.2000;0.3427;0.3701;
910.5000;0.3468;0.3774;
910.8000;0.3468;0.3726;
911.1000;0.3411;0.3677;
911.4000;0.3419;0.3701;
911.7000;0.3468;0.3847;
912.0000;0.3403;0.3823;
912.3000;0.3427;0.3799;
912.6000;0.3435;0.3847;
912.9000;0.3435;0.3847;
913.2000;0.3476;0.3920;
913.5000;0.3435;0.3750;
913.8000;0.3386;0.3701;
914.1000;0.3460;0.3993;
914.4000;0.3435;0.3993;
914.7000;0.3443;0.3945;
915.0000;0.3460;0.3969;
915.3000;0.3427;0.3945;
915.6000;0.3460;0.3920;
915.9000;0.3460;0.3872;
916.2000;0.3443;0.3701;
916.5000;0.3451;0.3726;
916.8000;0.3460;0.3774;
917.1000;0.3451;0.3726;
917.4000;0.3525;0.3945;
917.7000;0.3443;0.3677;
918.0000;0.3460;0.3750;
918.3000;0.3468;0.3677;
918.6000;0.3443;0.3531;
918.9000;0.3460;0.3555;
919.2000;0.3468;0.3579;
919.5000;0.3476;0.3799;
919.8000;0.3443;0.3726;
920.1000;0.3411;0.3750;
920.4000;0.3427;0.3847;
920.7000;0.3403;0.3701;
921.0000;0.3476;0.3799;
921.3000;0.3443;0.3774;
921.6000;0.3403;0.3628;
921.9000;0.3451;0.3774;
922.2000;0.3443;0.3701;
922.5000;0.3484;0.3920;
922.8000;0.3435;0.3774;
923.1000;0.3476;0.3847;
923.4000;0.3443;0.3823;
923.7000;0.3500;0.3969;
924.0000;0.3460;0.3896;
924.3000;0.3451;0.3823;
924.6000;0.3443;0.3847;
924.9000;0.3451;0.3872;
925.2000;0.3451;0.3872;
925.5000;0.3443;0.3847;
925.8000;0.3460;0.3774;
926.1000;0.3435;0.3726;
926.4000;0.3403;0.3604;
926.7000;0.3460;0.3701;
927.0000;0.3460;0.3750;
927.3000;0.3427;0.3677;
927.6000;0.3451;0.3701;
927.9000;0.3435;0.3628;
928.2000;0.3362;0.3506;
928.5000;0.3451;0.3701;
928.8000;0.3508;0.3896;
929.1000;0.3435;0.3726;
929.4000;0.3451;0.3823;
929.7000;0.3468;0.3799;
930.0000;0.3435;0.3823;
930.3000;0.3451;0.3872;
930.6000;0.3443;0.3945;
930.9000;0.3451;0.3920;
931.2000;0.3451;0.3872;
931.5000;0.3443;0.3920;
931.8000;0.3443;0.3872;
932.1000;0.3451;0.3847;
932.4000;0.3460;0.3872;
932.7000;0.3443;0.3872;
933.0000;0.3403;0.3726;
933.3000;0.3411;0.3653;
933.6000;0.3427;0.3799;
933.9000;0.3451;0.3847;
934.2000;0.3435;0.3872;
934.5000;0.3460;0.3969;
934.8000;0.3460;0.4042;
935.1000;0.3443;0.4042;
935.4000;0.3435;0.4018;
935.7000;0.3435;0.3969;
936.0000;0.3492;0.4018;
936.3000;0.3427;0.3823;
936.6000;0.3451;0.3750;
936.9000;0.3435;0.3701;
937.2000;0.3451;0.3653;
937.5000;0.3451;0.3677;
937.8000;0.3476;0.3677;
938.1000;0.3451;0.3701;
938.4000;0.3403;0.3653;
938.7000;0.3443;0.3677;
939.0000;0.3427;0.3677;
939.3000;0.3451;0.3799;
939.6000;0.3435;0.3920;
939.9000;0.3443;0.3945;
940.2000;0.3443;0.3896;
940.5000;0.3435;0.3872;
940.8000;0.3443;0.3823;
941.1000;0.3443;0.3774;
941.4000;0.3435;0.3677;
941.7000;0.3460;0.3677;
942.0000;0.3460;0.3750;
942.3000;0.3427;0.3726;
942.6000;0.3443;0.3750;
942.9000;0.3443;0.3750;
943.2000;0.3443;0.3847;
943.5000;0.3427;0.3847;
943.8000;0.3541;0.4115;
944.1000;0.3443;0.3774;
944.4000;0.3451;0.3823;
944.7000;0.3460;0.3847;
945.0000;0.3435;0.3823;
945.3000;0.3443;0.3872;
945.6000;0.3403;0.3799;
945.9000;0.3476;0.4018;
946.2000;0.3460;0.4042;
946.5000;0.3435;0.3969;
946.8000;0.3435;0.4018;
947.1000;0.3443;0.4066;
947.4000;0.3460;0.4066;
947.7000;0.3443;0.4018;
948.0000;0.3460;0.4018;
948.3000;0.3451;0.4018;
948.6000;0.3443;0.4018;
948.9000;0.3443;0.4066;
949.2000;0.3435;0.3896;
949.5000;0.3468;0.4066;
949.8000;0.3500;0.4188;
950.1000;0.3427;0.3920;
950.4000;0.3403;0.3799;
950.7000;0.3435;0.3823;
951.0000;0.3403;0.3847;
951.3000;0.3443;0.3920;
951.6000;0.3460;0.4042;
951.9000;0.3443;0.4066;
952.2000;0.3443;0.4140;
952.5000;0.3386;0.3920;
952.8000;0.3443;0.4042;
953.1000;0.3443;0.4042;
953.4000;0.3451;0.4042;
953.7000;0.3468;0.4091;
954.0000;0.3460;0.4042;
954.3000;0.3435;0.4042;
954.6000;0.3451;0.3969;
954.9000;0.3476;0.4018;
955.2000;0.3411;0.3799;
955.5000;0.3460;0.3920;
955.8000;0.3451;0.3823;
956.1000;0.3468;0.3872;
956.4000;0.3460;0.3799;
956.7000;0.3451;0.3823;
957.0000;0.3460;0.3847;
957.3000;0.3468;0.3847;
957.6000;0.3468;0.3945;
957.9000;0.3427;0.3823;
958.2000;0.3476;0.3945;
958.5000;0.3443;0.3896;
958.8000;0.3460;0.3993;
959.1000;0.3386;0.3823;
959.4000;0.3443;0.3945;
959.7000;0.3451;0.3920;
960.0000;0.3476;0.3969;
960.3000;0.3443;0.3872;
960.6000;0.3443;0.3920;
960.9000;0.3443;0.3872;
961.2000;0.3451;0.4018;
961.5000;0.3443;0.4066;
961.8000;0.3435;0.4042;
962.1000;0.3419;0.3969;
962.4000;0.3451;0.3993;
962.7000;0.3460;0.3969;
963.0000;0.3468;0.3920;
963.3000;0.3451;0.3969;
963.6000;0.3443;0.3969;
963.9000;0.3435;0.3993;
964.2000;0.3435;0.3945;
964.5000;0.3435;0.3969;
964.8000;0.3419;0.3945;
965.1000;0.3443;0.3945;
965.4000;0.3460;0.3969;
965.7000;0.3435;0.3823;
966.0000;0.3460;0.3823;
966.3000;0.3451;0.3726;
966.6000;0.3468;0.3774;
966.9000;0.3451;0.3774;
967.2000;0.3435;0.3872;
967.5000;0.3468;0.3993;
967.8000;0.3468;0.4042;
968.1000;0.3435;0.3945;
968.4000;0.3435;0.3969;
968.7000;0.3476;0.3969;
969.0000;0.3468;0.3945;
969.3000;0.3460;0.3872;
969.6000;0.3460;0.3799;
969.9000;0.3451;0.3774;
970.2000;0.3460;0.3701;
970.5000;0.3460;0.3628;
970.8000;0.3443;0.3726;
971.1000;0.3460;0.3799;
971.4000;0.3427;0.3774;
971.7000;0.3443;0.3774;
972.0000;0.3443;0.3774;
972.3000;0.3411;0.3726;
972.6000;0.3435;0.3774;
972.9000;0.3451;0.3799;
973.2000;0.3451;0.3799;
973.5000;0.3411;0.3726;
973.8000;0.3403;0.3774;
974.1000;0.3427;0.3872;
974.4000;0.3443;0.3920;
974.7000;0.3427;0.3847;
975.0000;0.3362;0.3701;
975.3000;0.3443;0.3896;
975.6000;0.3460;0.3945;
975.9000;0.3476;0.3993;
976.2000;0.3468;0.4018;
976.5000;0.3476;0.4066;
976.8000;0.3443;0.4066;
977.1000;0.3443;0.4091;
977.4000;0.3476;0.4140;
977.7000;0.3435;0.4042;
978.0000;0.3451;0.4042;
978.3000;0.3476;0.4066;
978.6000;0.3451;0.3920;
978.9000;0.3468;0.3945;
979.2000;0.3460;0.3896;
979.5000;0.3451;0.3945;
979.8000;0.3443;0.3920;
980.1000;0.3443;0.3872;
980.4000;0.3460;0.3872;
980.7000;0.3435;0.3799;
981.0000;0.3451;0.3774;
981.3000;0.3435;0.3750;
981.6000;0.3435;0.3774;
981.9000;0.3435;0.3774;
982.2000;0.3419;0.3750;
982.5000;0.3443;0.3750;
982.8000;0.3460;0.3799;
983.1000;0.3443;0.3799;
983.4000;0.3451;0.3799;
983.7000;0.3427;0.3750;
984.0000;0.3460;0.3872;
984.3000;0.3435;0.3872;
984.6000;0.3451;0.3896;
984.9000;0.3435;0.3847;
985.2000;0.3427;0.3847;
985.5000;0.3460;0.3872;
985.8000;0.3435;0.3872;
986.1000;0.3435;0.3896;
986.4000;0.3476;0.4018;
986.7000;0.3460;0.3969;
987.0000;0.3451;0.4018;
987.3000;0.3451;0.4018;
987.6000;0.3435;0.3969;
987.9000;0.3427;0.4066;
988.2000;0.3443;0.4140;
988.5000;0.3435;0.4140;
988.8000;0.3427;0.4115;
989.1000;0.3435;0.4188;
989.4000;0.3500;0.4286;
989.7000;0.3427;0.4140;
990.0000;0.3419;0.4115;
990.3000;0.3451;0.4091;
990.6000;0.3451;0.4066;
990.9000;0.3419;0.3993;
991.2000;0.3419;0.3993;
991.5000;0.3451;0.4091;
991.8000;0.3460;0.4115;
992.1000;0.3468;0.4042;
992.4000;0.3451;0.3945;
992.7000;0.3451;0.3969;
993.0000;0.3403;0.3872;
993.3000;0.3468;0.4066;
993.6000;0.3427;0.4066;
993.9000;0.3443;0.4042;
994.2000;0.3451;0.4018;
994.5000;0.3435;0.3993;
994.8000;0.3443;0.3969;
995.1000;0.3451;0.3945;
995.4000;0.3460;0.3945;
995.7000;0.3451;0.4018;
996.0000;0.3533;0.4164;
996.3000;0.3435;0.3872;
996.6000;0.3451;0.3872;
996.9000;0.3476;0.3896;
997.2000;0.3427;0.3920;
997.5000;0.3451;0.3920;
997.8000;0.3443;0.3920;
998.1000;0.3516;0.4188;
998.4000;0.3435;0.4091;
998.7000;0.3427;0.3969;
999.0000;0.3435;0.3969;
999.3000;0.3451;0.3969;
999.6000;0.3435;0.3945;
999.9000;0.3435;0.3969;
1000.2000;0.3411;0.3920;
1000.5000;0.3435;0.3920;
1000.8000;0.3427;0.3993;
1001.1000;0.3435;0.4018;
1001.4000;0.3443;0.4018;
1001.7000;0.3435;0.3945;
1002.0000;0.3411;0.3945;
1002.3000;0.3451;0.4018;
1002.6000;0.3443;0.3993;
1002.9000;0.3435;0.3920;
1003.2000;0.3451;0.3993;
1003.5000;0.3443;0.3945;
1003.8000;0.3427;0.4018;
1004.1000;0.3427;0.4066;
1004.4000;0.3451;0.4115;
1004.7000;0.3427;0.4115;
1005.0000;0.3435;0.4115;
1005.3000;0.3435;0.4091;
1005.6000;0.3419;0.4091;
1005.9000;0.3460;0.4237;
1006.2000;0.3403;0.4091;
1006.5000;0.3443;0.4140;
1006.8000;0.3435;0.4188;
1007.1000;0.3451;0.4237;
1007.4000;0.3427;0.4188;
1007.7000;0.3443;0.4213;
1008.0000;0.3460;0.4261;
1008.3000;0.3435;0.4115;
1008.6000;0.3443;0.4042;
1008.9000;0.3435;0.4115;
1009.2000;0.3435;0.4140;
1009.5000;0.3435;0.4164;
1009.8000;0.3451;0.4188;
1010.1000;0.3443;0.4164;
1010.4000;0.3419;0.4115;
1010.7000;0.3427;0.4140;
1011.0000;0.3443;0.4140;
1011.3000;0.3468;0.4140;
1011.6000;0.3411;0.3920;
1011.9000;0.3460;0.3969;
1012.2000;0.3443;0.3969;
1012.5000;0.3451;0.4018;
1012.8000;0.3451;0.4018;
1013.1000;0.3427;0.4042;
1013.4000;0.3451;0.4140;
1013.7000;0.3435;0.4091;
1014.0000;0.3419;0.4091;
1014.3000;0.3435;0.4066;
1014.6000;0.3427;0.3993;
1014.9000;0.3443;0.4091;
1015.2000;0.3419;0.4091;
1015.5000;0.3435;0.4140;
1015.8000;0.3427;0.4091;
1016.1000;0.3451;0.4164;
1016.4000;0.3451;0.4115;
1016.7000;0.3451;0.4140;
1017.0000;0.3443;0.4213;
1017.3000;0.3451;0.4261;
1017.6000;0.3468;0.4237;
1017.9000;0.3443;0.4237;
1018.2000;0.3451;0.4188;
1018.5000;0.3443;0.4066;
1018.8000;0.3427;0.4091;
1019.1000;0.3508;0.4213;
1019.4000;0.3427;0.3993;
1019.7000;0.3435;0.3993;
1020.0000;0.3476;0.4091;
1020.3000;0.3451;0.3920;
1020.6000;0.3419;0.3872;
1020.9000;0.3435;0.3920;
1021.2000;0.3427;0.3920;
1021.5000;0.3419;0.3872;
1021.8000;0.3419;0.3823;
1022.1000;0.3427;0.3799;
1022.4000;0.3451;0.3847;
1022.7000;0.3468;0.3872;
1023.0000;0.3443;0.3872;
1023.3000;0.3460;0.3872;
1023.6000;0.3460;0.3920;
1023.9000;0.3484;0.3920;
1024.2000;0.3468;0.3799;
1024.5000;0.3435;0.3653;
1024.8000;0.3460;0.3726;
1025.1000;0.3427;0.3653;
1025.4000;0.3451;0.3628;
1025.7000;0.3443;0.3653;
1026.0000;0.3451;0.3701;
1026.3000;0.3476;0.3799;
1026.6000;0.3435;0.3774;
1026.9000;0.3419;0.3823;
1027.2000;0.3394;0.3750;
1027.5000;0.3451;0.3920;
1027.8000;0.3451;0.3969;
1028.1000;0.3451;0.3993;
1028.4000;0.3451;0.4042;
1028.7000;0.3451;0.4115;
1029.0000;0.3508;0.4286;
1029.3000;0.3451;0.4115;
1029.6000;0.3435;0.4018;
1029.9000;0.3435;0.3969;
1030.2000;0.3541;0.4188;
1030.5000;0.3443;0.3945;
1030.8000;0.3451;0.4042;
1031.1000;0.3427;0.4066;
1031.4000;0.3435;0.4115;
1031.7000;0.3435;0.4091;
1032.0000;0.3411;0.3993;
1032.3000;0.3386;0.3872;
1032.6000;0.3443;0.4018;
1032.9000;0.3435;0.4042;
1033.2000;0.3419;0.4066;
1033.5000;0.3435;0.4066;
1033.8000;0.3427;0.4091;
1034.1000;0.3427;0.4091;
1034.4000;0.3443;0.4042;
1034.7000;0.3419;0.4018;
1035.0000;0.3443;0.4213;
1035.3000;0.3451;0.4164;
1035.6000;0.3451;0.4042;
1035.9000;0.3435;0.4018;
1036.2000;0.3419;0.3945;
1036.5000;0.3443;0.3945;
1036.8000;0.3451;0.4042;
1037.1000;0.3451;0.4091;
1037.4000;0.3435;0.4091;
1037.7000;0.3451;0.4115;
1038.0000;0.3451;0.4115;
1038.3000;0.3451;0.4213;
1038.6000;0.3443;0.4188;
1038.9000;0.3484;0.4237;
1039.2000;0.3443;0.4091;
1039.5000;0.3435;0.4091;
1039.8000;0.3443;0.4213;
1040.1000;0.3443;0.4237;
1040.4000;0.3419;0.3993;
1040.7000;0.3419;0.3969;
1041.0000;0.3427;0.4042;
1041.3000;0.3427;0.3993;
1041.6000;0.3460;0.3920;
1041.9000;0.3443;0.3945;
1042.2000;0.3435;0.3872;
1042.5000;0.3451;0.3847;
1042.8000;0.3460;0.3945;
1043.1000;0.3443;0.3920;
1043.4000;0.3427;0.3872;
1043.7000;0.3403;0.3799;
1044.0000;0.3435;0.3847;
1044.3000;0.3468;0.3945;
1044.6000;0.3443;0.3896;
1044.9000;0.3516;0.4066;
1045.2000;0.3451;0.3993;
1045.5000;0.3411;0.3823;
1045.8000;0.3427;0.3920;
1046.1000;0.3451;0.4018;
1046.4000;0.3443;0.3896;
1046.7000;0.3468;0.3872;
1047.0000;0.3435;0.3774;
1047.3000;0.3443;0.3750;
1047.6000;0.3435;0.3799;
1047.9000;0.3468;0.3823;
1048.2000;0.3435;0.3726;
1048.5000;0.3516;0.3945;
1048.8000;0.3451;0.3726;
1049.1000;0.3435;0.3799;
1049.4000;0.3451;0.3847;
1049.7000;0.3435;0.3750;
1050.0000;0.3435;0.3847;
1050.3000;0.3370;0.3701;
1050.6000;0.3435;0.3896;
1050.9000;0.3419;0.3847;
1051.2000;0.3460;0.3872;
1051.5000;0.3419;0.3872;
1051.8000;0.3443;0.3993;
1052.1000;0.3411;0.3993;
1052.4000;0.3411;0.3969;
1052.7000;0.3419;0.3993;
1053.0000;0.3386;0.3969;
1053.3000;0.3435;0.4115;
1053.6000;0.3427;0.4140;
1053.9000;0.3427;0.4091;
1054.2000;0.3484;0.4261;
1054.5000;0.3427;0.4164;
1054.8000;0.3435;0.4164;
1055.1000;0.3427;0.4091;
1055.4000;0.3443;0.4115;
1055.7000;0.3443;0.4115;
1056.0000;0.3435;0.4140;
1056.3000;0.3427;0.4164;
1056.6000;0.3427;0.4115;
1056.9000;0.3451;0.4164;
1057.2000;0.3427;0.4140;
1057.5000;0.3435;0.4164;
1057.8000;0.3443;0.4261;
1058.1000;0.3451;0.4237;
1058.4000;0.3460;0.4188;
1058.7000;0.3427;0.4066;
1059.0000;0.3443;0.3993;
1059.3000;0.3468;0.4066;
1059.6000;0.3468;0.3969;
1059.9000;0.3443;0.3945;
1060.2000;0.3460;0.4018;
1060.5000;0.3443;0.3896;
1060.8000;0.3451;0.3872;
1061.1000;0.3443;0.3872;
1061.4000;0.3443;0.3920;
1061.7000;0.3427;0.3993;
1062.0000;0.3484;0.4066;
1062.3000;0.3435;0.3969;
1062.6000;0.3443;0.3945;
1062.9000;0.3443;0.3945;
1063.2000;0.3427;0.3945;
1063.5000;0.3435;0.3993;
1063.8000;0.3403;0.3920;
1064.1000;0.3451;0.4115;
1064.4000;0.3451;0.4091;
1064.7000;0.3492;0.4213;
1065.0000;0.3492;0.4286;
1065.3000;0.3484;0.4286;
1065.6000;0.3500;0.4334;
1065.9000;0.3411;0.4115;
1066.2000;0.3468;0.4237;
1066.5000;0.3419;0.4091;
1066.8000;0.3443;0.4091;
1067.1000;0.3492;0.4188;
1067.4000;0.3451;0.4115;
1067.7000;0.3435;0.4018;
1068.0000;0.3443;0.4018;
1068.3000;0.3394;0.3823;
1068.6000;0.3443;0.3945;
1068.9000;0.3460;0.3945;
1069.2000;0.3451;0.3969;
1069.5000;0.3451;0.4018;
1069.8000;0.3460;0.3993;
1070.1000;0.3443;0.3945;
1070.4000;0.3435;0.3896;
1070.7000;0.3451;0.3920;
1071.0000;0.3451;0.3920;
1071.3000;0.3427;0.3872;
1071.6000;0.3427;0.3823;
1071.9000;0.3427;0.3872;
1072.2000;0.3435;0.3823;
1072.5000;0.3378;0.3701;
1072.8000;0.3435;0.3847;
1073.1000;0.3443;0.3969;
1073.4000;0.3419;0.3920;
1073.7000;0.3443;0.3945;
1074.0000;0.3460;0.3993;
1074.3000;0.3451;0.4018;
1074.6000;0.3451;0.4018;
1074.9000;0.3451;0.3969;
1075.2000;0.3427;0.3945;
1075.5000;0.3451;0.4042;
1075.8000;0.3435;0.3993;
1076.1000;0.3427;0.3920;
1076.4000;0.3443;0.3945;
1076.7000;0.3419;0.3945;
1077.0000;0.3435;0.4091;
1077.3000;0.3451;0.4164;
1077.6000;0.3443;0.4066;
1077.9000;0.3427;0.3945;
1078.2000;0.3443;0.4042;
1078.5000;0.3419;0.3993;
1078.8000;0.3427;0.4018;
1079.1000;0.3435;0.4042;
1079.4000;0.3460;0.4091;
1079.7000;0.3468;0.4066;
1080.0000;0.3460;0.4018;
1080.3000;0.3419;0.4066;
1080.6000;0.3443;0.4091;
1080.9000;0.3443;0.4115;
1081.2000;0.3443;0.4115;
1081.5000;0.3427;0.4042;
1081.8000;0.3419;0.3969;
1082.1000;0.3435;0.4066;
1082.4000;0.3378;0.3945;
1082.7000;0.3443;0.4018;
1083.0000;0.3443;0.4018;
1083.3000;0.3443;0.3993;
1083.6000;0.3435;0.3920;
1083.9000;0.3451;0.3920;
1084.2000;0.3451;0.3920;
1084.5000;0.3468;0.3969;
1084.8000;0.3460;0.4018;
1085.1000;0.3460;0.4091;
1085.4000;0.3435;0.4066;
1085.7000;0.3451;0.4018;
1086.0000;0.3443;0.4042;
1086.3000;0.3460;0.4115;
1086.6000;0.3443;0.4140;
1086.9000;0.3403;0.4115;
1087.2000;0.3435;0.4237;
1087.5000;0.3427;0.4237;
1087.8000;0.3451;0.4188;
1088.1000;0.3427;0.4140;
1088.4000;0.3427;0.4091;
1088.7000;0.3427;0.4091;
1089.0000;0.3427;0.4066;
1089.3000;0.3435;0.4042;
1089.6000;0.3451;0.3993;
1089.9000;0.3468;0.4042;
1090.2000;0.3516;0.4164;
1090.5000;0.3427;0.3896;
1090.8000;0.3427;0.3920;
1091.1000;0.3394;0.3823;
1091.4000;0.3427;0.3920;
1091.7000;0.3427;0.3872;
1092.0000;0.3411;0.3750;
1092.3000;0.3394;0.3774;
1092.6000;0.3468;0.3945;
1092.9000;0.3476;0.4018;
1093.2000;0.3427;0.3920;
1093.5000;0.3435;0.3945;
1093.8000;0.3443;0.3969;
1094.1000;0.3451;0.4042;
1094.4000;0.3435;0.4018;
1094.7000;0.3443;0.3993;
1095.0000;0.3451;0.4042;
1095.3000;0.3460;0.4042;
1095.6000;0.3443;0.3920;
1095.9000;0.3476;0.3945;
1096.2000;0.3451;0.3896;
1096.5000;0.3468;0.3920;
1096.8000;0.3443;0.3993;
1097.1000;0.3435;0.3969;
1097.4000;0.3443;0.3969;
1097.7000;0.3451;0.4018;
1098.0000;0.3443;0.4091;
1098.3000;0.3451;0.4018;
1098.6000;0.3443;0.4018;
1098.9000;0.3435;0.4018;
1099.2000;0.3362;0.3799;
1099.5000;0.3435;0.3896;
1099.8000;0.3435;0.3993;
1100.1000;0.3443;0.4091;
1100.4000;0.3460;0.4115;
1100.7000;0.3443;0.4066;
1101.0000;0.3435;0.4018;
1101.3000;0.3411;0.3945;
1101.6000;0.3443;0.4018;
1101.9000;0.3443;0.4018;
1102.2000;0.3443;0.3896;
1102.5000;0.3443;0.3896;
1102.8000;0.3443;0.3847;
1103.1000;0.3427;0.3799;
1103.4000;0.3443;0.3847;
1103.7000;0.3443;0.3872;
1104.0000;0.3419;0.3823;
1104.3000;0.3411;0.3823;
1104.6000;0.3451;0.3872;
1104.9000;0.3451;0.3847;
1105.2000;0.3435;0.3799;
1105.5000;0.3476;0.3823;
1105.8000;0.3451;0.3799;
1106.1000;0.3443;0.3823;
1106.4000;0.3460;0.3945;
1106.7000;0.3451;0.3993;
1107.0000;0.3443;0.3920;
1107.3000;0.3435;0.3945;
1107.6000;0.3443;0.3993;
1107.9000;0.3443;0.4018;
1108.2000;0.3451;0.3920;
1108.5000;0.3435;0.3896;
1108.8000;0.3508;0.4091;
1109.1000;0.3451;0.3969;
1109.4000;0.3460;0.3993;
1109.7000;0.3435;0.3945;
1110.0000;0.3443;0.3969;
1110.3000;0.3443;0.4042;
1110.6000;0.3443;0.4066;
1110.9000;0.3435;0.4091;
1111.2000;0.3427;0.4018;
1111.5000;0.3427;0.3993;
1111.8000;0.3443;0.4091;
1112.1000;0.3435;0.4066;
1112.4000;0.3451;0.4066;
1112.7000;0.3435;0.4066;
1113.0000;0.3484;0.4213;
1113.3000;0.3435;0.3969;
1113.6000;0.3419;0.3945;
1113.9000;0.3435;0.4066;
1114.2000;0.3362;0.3896;
1114.5000;0.3403;0.4066;
1114.8000;0.3419;0.4066;
1115.1000;0.3435;0.4066;
1115.4000;0.3443;0.4091;
1115.7000;0.3435;0.4042;
1116.0000;0.3427;0.3993;
1116.3000;0.3468;0.4042;
1116.6000;0.3451;0.3920;
1116.9000;0.3443;0.3920;
1117.2000;0.3419;0.3945;
1117.5000;0.3435;0.3969;
1117.8000;0.3435;0.3945;
1118.1000;0.3451;0.4018;
1118.4000;0.3435;0.3969;
1118.7000;0.3443;0.3969;
1119.0000;0.3443;0.4018;
1119.3000;0.3443;0.4042;
1119.6000;0.3460;0.4115;
1119.9000;0.3427;0.4018;
1120.2000;0.3443;0.4115;
1120.5000;0.3443;0.4140;
1120.8000;0.3443;0.4066;
1121.1000;0.3435;0.3920;
1121.4000;0.3427;0.3969;
1121.7000;0.3435;0.4018;
1122.0000;0.3443;0.3969;
1122.3000;0.3443;0.3969;
1122.6000;0.3419;0.3920;
1122.9000;0.3468;0.4066;
1123.2000;0.3451;0.4066;
1123.5000;0.3435;0.4066;
1123.8000;0.3435;0.4115;
1124.1000;0.3435;0.4091;
1124.4000;0.3427;0.4066;
1124.7000;0.3435;0.4115;
1125.0000;0.3435;0.4018;
1125.3000;0.3427;0.3969;
1125.6000;0.3451;0.3945;
1125.9000;0.3435;0.3993;
1126.2000;0.3419;0.3969;
1126.5000;0.3435;0.4018;
1126.8000;0.3451;0.4066;
1127.1000;0.3435;0.3993;
1127.4000;0.3419;0.3969;
1127.7000;0.3427;0.3993;
1128.0000;0.3427;0.4018;
1128.3000;0.3451;0.3969;
1128.6000;0.3443;0.3993;
1128.9000;0.3435;0.4042;
1129.2000;0.3500;0.4188;
1129.5000;0.3443;0.4042;
1129.8000;0.3435;0.3969;
1130.1000;0.3443;0.3993;
1130.4000;0.3435;0.3993;
1130.7000;0.3451;0.4066;
1131.0000;0.3451;0.4066;
1131.3000;0.3443;0.3993;
1131.6000;0.3443;0.3969;
1131.9000;0.3549;0.4188;
1132.2000;0.3443;0.3969;
1132.5000;0.3435;0.3969;
1132.8000;0.3427;0.3920;
1133.1000;0.3427;0.3945;
1133.4000;0.3451;0.3920;
1133.7000;0.3460;0.3896;
1134.0000;0.3403;0.3726;
1134.3000;0.3460;0.3799;
1134.6000;0.3435;0.3726;
1134.9000;0.3378;0.3701;
1135.2000;0.3427;0.3896;
1135.5000;0.3427;0.3872;
1135.8000;0.3443;0.3945;
1136.1000;0.3435;0.3896;
1136.4000;0.3419;0.3750;
1136.7000;0.3435;0.3823;
1137.0000;0.3484;0.4018;
1137.3000;0.3468;0.3993;
1137.6000;0.3451;0.4018;
1137.9000;0.3427;0.4018;
1138.2000;0.3451;0.3920;
1138.5000;0.3370;0.3799;
1138.8000;0.3435;0.3969;
1139.1000;0.3435;0.3945;
1139.4000;0.3443;0.3993;
1139.7000;0.3451;0.3993;
1140.0000;0.3435;0.4091;
1140.3000;0.3443;0.4140;
1140.6000;0.3500;0.4261;
1140.9000;0.3435;0.4188;
1141.2000;0.3460;0.4261;
1141.5000;0.3451;0.4213;
1141.8000;0.3525;0.4310;
1142.1000;0.3443;0.4140;
1142.4000;0.3427;0.4164;
1142.7000;0.3443;0.4261;
1143.0000;0.3419;0.4164;
1143.3000;0.3386;0.4066;
1143.6000;0.3427;0.4140;
1143.9000;0.3435;0.4164;
1144.2000;0.3451;0.4115;
1144.5000;0.3435;0.4115;
1144.8000;0.3443;0.4042;
1145.1000;0.3460;0.4091;
1145.4000;0.3468;0.4213;
1145.7000;0.3451;0.4188;
1146.0000;0.3427;0.4091;
1146.3000;0.3492;0.4115;
1146.6000;0.3435;0.3969;
1146.9000;0.3443;0.3847;
1147.2000;0.3435;0.3799;
1147.5000;0.3443;0.3872;
1147.8000;0.3435;0.3920;
1148.1000;0.3427;0.3945;
1148.4000;0.3435;0.3969;
1148.7000;0.3460;0.4018;
1149.0000;0.3427;0.4042;
1149.3000;0.3435;0.3969;
1149.6000;0.3419;0.3920;
1149.9000;0.3427;0.3993;
1150.2000;0.3419;0.3969;
1150.5000;0.3435;0.4018;
1150.8000;0.3427;0.4018;
1151.1000;0.3468;0.4091;
1151.4000;0.3492;0.4188;
1151.7000;0.3460;0.4140;
1152.0000;0.3451;0.4164;
1152.3000;0.3460;0.4213;
1152.6000;0.3525;0.4359;
1152.9000;0.3403;0.4042;
1153.2000;0.3435;0.4042;
1153.5000;0.3443;0.4018;
1153.8000;0.3443;0.4042;
1154.1000;0.3435;0.4066;
1154.4000;0.3451;0.4091;
1154.7000;0.3476;0.4140;
1155.0000;0.3435;0.4066;
1155.3000;0.3451;0.4091;
1155.6000;0.3427;0.3993;
1155.9000;0.3476;0.4091;
1156.2000;0.3443;0.3969;
1156.5000;0.3435;0.4018;
1156.8000;0.3427;0.3993;
1157.1000;0.3427;0.3993;
1157.4000;0.3435;0.3945;
1157.7000;0.3460;0.3920;
1158.0000;0.3419;0.3823;
1158.3000;0.3419;0.3872;
1158.6000;0.3451;0.3945;
1158.9000;0.3411;0.3847;
1159.2000;0.3386;0.3823;
1159.5000;0.3460;0.3945;
1159.8000;0.3451;0.3969;
1160.1000;0.3500;0.4140;
1160.4000;0.3435;0.4018;
1160.7000;0.3427;0.4018;
1161.0000;0.3403;0.3945;
1161.3000;0.3403;0.3945;
1161.6000;0.3443;0.4091;
1161.9000;0.3370;0.3920;
1162.2000;0.3500;0.4237;
1162.5000;0.3443;0.3945;
1162.8000;0.3427;0.3847;
1163.1000;0.3541;0.4140;
1163.4000;0.3427;0.3969;
1163.7000;0.3468;0.3993;
1164.0000;0.3460;0.4066;
1164.3000;0.3451;0.4018;
1164.6000;0.3427;0.3969;
1164.9000;0.3443;0.3896;
1165.2000;0.3468;0.3945;
1165.5000;0.3435;0.3823;
1165.8000;0.3443;0.3872;
1166.1000;0.3443;0.3847;
1166.4000;0.3419;0.3823;
1166.7000;0.3427;0.3774;
1167.0000;0.3443;0.3823;
1167.3000;0.3451;0.3872;
1167.6000;0.3443;0.3872;
1167.9000;0.3451;0.3945;
1168.2000;0.3460;0.3969;
1168.5000;0.3476;0.4018;
1168.8000;0.3443;0.3945;
1169.1000;0.3403;0.3920;
1169.4000;0.3476;0.4042;
1169.7000;0.3427;0.3920;
1170.0000;0.3435;0.3896;
1170.3000;0.3435;0.3847;
1170.6000;0.3443;0.3823;
1170.9000;0.3435;0.3823;
1171.2000;0.3427;0.3774;
1171.5000;0.3451;0.3847;
1171.8000;0.3443;0.3823;
1172.1000;0.3419;0.3774;
1172.4000;0.3427;0.3799;
1172.7000;0.3435;0.3896;
1173.0000;0.3443;0.3872;
1173.3000;0.3451;0.3969;
1173.6000;0.3435;0.4042;
1173.9000;0.3419;0.4042;
1174.2000;0.3451;0.4140;
1174.5000;0.3468;0.4115;
1174.8000;0.3435;0.4066;
1175.1000;0.3427;0.3993;
1175.4000;0.3451;0.4066;
1175.7000;0.3443;0.4091;
1176.0000;0.3427;0.4091;
1176.3000;0.3468;0.4042;
1176.6000;0.3460;0.4018;
1176.9000;0.3451;0.4042;
1177.2000;0.3419;0.3896;
1177.5000;0.3476;0.4091;
1177.8000;0.3443;0.3993;
1178.1000;0.3443;0.3945;
1178.4000;0.3443;0.3872;
1178.7000;0.3435;0.3799;
1179.0000;0.3460;0.3799;
1179.3000;0.3427;0.3701;
1179.6000;0.3419;0.3726;
1179.9000;0.3443;0.3872;
1180.2000;0.3403;0.3823;
1180.5000;0.3484;0.4042;
1180.8000;0.3443;0.3969;
1181.1000;0.3411;0.3896;
1181.4000;0.3427;0.3750;
1181.7000;0.3451;0.3847;
1182.0000;0.3435;0.3896;
1182.3000;0.3427;0.3872;
1182.6000;0.3460;0.3993;
1182.9000;0.3435;0.3945;
1183.2000;0.3525;0.4213;
1183.5000;0.3443;0.3993;
1183.8000;0.3435;0.4042;
1184.1000;0.3443;0.3920;
1184.4000;0.3427;0.3872;
1184.7000;0.3378;0.3750;
1185.0000;0.3443;0.3945;
1185.3000;0.3435;0.3993;
1185.6000;0.3354;0.3823;
1185.9000;0.3460;0.4188;
1186.2000;0.3468;0.4188;
1186.5000;0.3516;0.4310;
1186.8000;0.3435;0.4115;
1187.1000;0.3443;0.4091;
1187.4000;0.3451;0.4042;
1187.7000;0.3394;0.3945;
1188.0000;0.3419;0.4018;
1188.3000;0.3435;0.4188;
1188.6000;0.3435;0.4237;
1188.9000;0.3427;0.4164;
1189.2000;0.3435;0.4213;
1189.5000;0.3451;0.4213;
1189.8000;0.3443;0.4164;
1190.1000;0.3443;0.4115;
1190.4000;0.3451;0.4066;
1190.7000;0.3460;0.4091;
1191.0000;0.3427;0.4042;
1191.3000;0.3403;0.3872;
1191.6000;0.3443;0.4042;
1191.9000;0.3468;0.4018;
1192.2000;0.3484;0.4042;
1192.5000;0.3451;0.3945;
1192.8000;0.3443;0.3920;
1193.1000;0.3451;0.3920;
1193.4000;0.3451;0.3872;
1193.7000;0.3451;0.3847;
1194.0000;0.3427;0.3799;
1194.3000;0.3525;0.4091;
1194.6000;0.3435;0.3847;
1194.9000;0.3500;0.4018;
1195.2000;0.3435;0.3823;
1195.5000;0.3419;0.3872;
1195.8000;0.3435;0.3920;
1196.1000;0.3435;0.3847;
1196.4000;0.3411;0.3872;
1196.7000;0.3435;0.3993;
1197.0000;0.3500;0.4164;
1197.3000;0.3451;0.4066;
1197.6000;0.3427;0.3993;
1197.9000;0.3419;0.3993;
1198.2000;0.3460;0.4164;
1198.5000;0.3508;0.4237;
1198.8000;0.3419;0.4042;
1199.1000;0.3484;0.4237;
1199.4000;0.3370;0.3969;
1199.7000;0.3443;0.4140;
1200.0000;0.3419;0.4042;
1200.3000;0.3468;0.4213;
1200.6000;0.3427;0.4164;
1200.9000;0.3435;0.4140;
1201.2000;0.3476;0.4140;
1201.5000;0.3427;0.3969;
1201.8000;0.3443;0.4018;
1202.1000;0.3451;0.4018;
1202.4000;0.3468;0.3920;
1202.7000;0.3451;0.3993;
1203.0000;0.3460;0.3969;
1203.3000;0.3451;0.3993;
1203.6000;0.3427;0.4018;
1203.9000;0.3411;0.3993;
1204.2000;0.3435;0.3993;
1204.5000;0.3386;0.3847;
1204.8000;0.3411;0.3847;
1205.1000;0.3403;0.3823;
1205.4000;0.3427;0.3920;
1205.7000;0.3443;0.4018;
1206.0000;0.3484;0.4091;
1206.3000;0.3435;0.3993;
1206.6000;0.3443;0.4066;
1206.9000;0.3443;0.4018;
1207.2000;0.3460;0.4042;
1207.5000;0.3403;0.3896;
1207.8000;0.3443;0.4018;
1208.1000;0.3419;0.4042;
1208.4000;0.3427;0.4115;
1208.7000;0.3419;0.4066;
1209.0000;0.3419;0.4042;
1209.3000;0.3427;0.4018;
1209.6000;0.3476;0.4115;
1209.9000;0.3435;0.4115;
1210.2000;0.3427;0.4091;
1210.5000;0.3435;0.4018;
1210.8000;0.3451;0.4042;
1211.1000;0.3435;0.4066;
1211.4000;0.3419;0.3920;
1211.7000;0.3435;0.3847;
1212.0000;0.3451;0.3872;
1212.3000;0.3443;0.3823;
1212.6000;0.3451;0.3969;
1212.9000;0.3370;0.3799;
1213.2000;0.3427;0.3920;
1213.5000;0.3427;0.3993;
1213.8000;0.3443;0.4018;
1214.1000;0.3443;0.3823;
1214.4000;0.3435;0.3799;
1214.7000;0.3443;0.3823;
1215.0000;0.3435;0.3847;
1215.3000;0.3451;0.3847;
1215.6000;0.3435;0.3774;
1215.9000;0.3443;0.3872;
1216.2000;0.3460;0.3799;
1216.5000;0.3451;0.3774;
1216.8000;0.3460;0.3726;
1217.1000;0.3460;0.3701;
1217.4000;0.3451;0.3677;
1217.7000;0.3508;0.3823;
1218.0000;0.3435;0.3701;
1218.3000;0.3435;0.3677;
1218.6000;0.3443;0.3677;
1218.9000;0.3443;0.3677;
1219.2000;0.3443;0.3604;
1219.5000;0.3419;0.3506;
1219.8000;0.3427;0.3506;
1220.1000;0.3443;0.3531;
1220.4000;0.3443;0.3506;
1220.7000;0.3443;0.3458;
1221.0000;0.3451;0.3409;
1221.3000;0.3460;0.3458;
1221.6000;0.3451;0.3458;
1221.9000;0.3443;0.3604;
1222.2000;0.3460;0.3677;
1222.5000;0.3451;0.3750;
1222.8000;0.3419;0.3774;
1223.1000;0.3427;0.3847;
1223.4000;0.3443;0.3920;
1223.7000;0.3419;0.3896;
1224.0000;0.3427;0.3920;
1224.3000;0.3460;0.3969;
1224.6000;0.3435;0.3823;
1224.9000;0.3451;0.3774;
1225.2000;0.3378;0.3628;
1225.5000;0.3427;0.3799;
1225.8000;0.3435;0.3823;
1226.1000;0.3435;0.3920;
1226.4000;0.3443;0.3969;
1226.7000;0.3435;0.3969;
1227.0000;0.3427;0.3993;
1227.3000;0.3427;0.3920;
1227.6000;0.3460;0.3920;
1227.9000;0.3443;0.3896;
1228.2000;0.3427;0.3896;
1228.5000;0.3427;0.3823;
1228.8000;0.3435;0.3774;
1229.1000;0.3468;0.3799;
1229.4000;0.3427;0.3799;
1229.7000;0.3460;0.3799;
1230.0000;0.3443;0.3823;
1230.3000;0.3427;0.3750;
1230.6000;0.3435;0.3799;
1230.9000;0.3419;0.3726;
1231.2000;0.3435;0.3750;
1231.5000;0.3451;0.3774;
1231.8000;0.3460;0.3799;
1232.1000;0.3451;0.3847;
1232.4000;0.3451;0.3847;
1232.7000;0.3443;0.3847;
1233.0000;0.3451;0.3872;
1233.3000;0.3354;0.3653;
1233.6000;0.3435;0.3847;
1233.9000;0.3427;0.3774;
1234.2000;0.3435;0.3823;
1234.5000;0.3435;0.3872;
1234.8000;0.3443;0.3896;
1235.1000;0.3419;0.3823;
1235.4000;0.3411;0.3823;
1235.7000;0.3427;0.3872;
1236.0000;0.3427;0.3896;
1236.3000;0.3378;0.3677;
1236.6000;0.3435;0.3774;
1236.9000;0.3443;0.3799;
1237.2000;0.3451;0.3750;
1237.5000;0.3443;0.3823;
1237.8000;0.3451;0.3823;
1238.1000;0.3443;0.3847;
1238.4000;0.3354;0.3677;
1238.7000;0.3443;0.3920;
1239.0000;0.3427;0.3969;
1239.3000;0.3451;0.3993;
1239.6000;0.3419;0.3969;
1239.9000;0.3435;0.4042;
1240.2000;0.3443;0.4115;
1240.5000;0.3435;0.4091;
1240.8000;0.3435;0.4042;
1241.1000;0.3435;0.4042;
1241.4000;0.3451;0.4066;
1241.7000;0.3435;0.4066;
1242.0000;0.3460;0.4188;
1242.3000;0.3419;0.4140;
1242.6000;0.3443;0.4140;
1242.9000;0.3460;0.4164;
1243.2000;0.3443;0.4091;
1243.5000;0.3451;0.4140;
1243.8000;0.3435;0.4066;
1244.1000;0.3451;0.3945;
1244.4000;0.3403;0.3823;
1244.7000;0.3403;0.3799;
1245.0000;0.3419;0.3823;
1245.3000;0.3443;0.3847;
1245.6000;0.3435;0.3872;
1245.9000;0.3427;0.3945;
1246.2000;0.3419;0.3920;
1246.5000;0.3435;0.3993;
1246.8000;0.3427;0.4018;
1247.1000;0.3443;0.3993;
1247.4000;0.3451;0.4091;
1247.7000;0.3460;0.4188;
1248.0000;0.3411;0.4018;
1248.3000;0.3427;0.4018;
1248.6000;0.3435;0.3945;
1248.9000;0.3419;0.3993;
1249.2000;0.3451;0.4018;
1249.5000;0.3443;0.3920;
1249.8000;0.3451;0.3945;
1250.1000;0.3451;0.4066;
1250.4000;0.3435;0.4091;
1250.7000;0.3435;0.4042;
1251.0000;0.3427;0.4066;
1251.3000;0.3435;0.4140;
1251.6000;0.3435;0.4018;
1251.9000;0.3435;0.3896;
1252.2000;0.3411;0.3799;
1252.5000;0.3394;0.3701;
1252.8000;0.3427;0.3872;
1253.1000;0.3500;0.4018;
1253.4000;0.3435;0.3920;
1253.7000;0.3460;0.4091;
1254.0000;0.3427;0.4140;
1254.3000;0.3411;0.4091;
1254.6000;0.3370;0.4018;
1254.9000;0.3451;0.4164;
1255.2000;0.3435;0.4042;
1255.5000;0.3476;0.4140;
1255.8000;0.3419;0.4042;
1256.1000;0.3419;0.4066;
1256.4000;0.3443;0.4115;
1256.7000;0.3443;0.4091;
1257.0000;0.3451;0.4066;
1257.3000;0.3403;0.3896;
1257.6000;0.3435;0.4018;
1257.9000;0.3427;0.4066;
1258.2000;0.3435;0.4115;
1258.5000;0.3435;0.4115;
1258.8000;0.3451;0.4140;
1259.1000;0.3443;0.4091;
1259.4000;0.3435;0.4042;
1259.7000;0.3411;0.3896;
1260.0000;0.3427;0.3847;
1260.3000;0.3411;0.3847;
1260.6000;0.3451;0.3993;
1260.9000;0.3435;0.3993;
1261.2000;0.3451;0.4042;
1261.5000;0.3419;0.3945;
1261.8000;0.3435;0.3993;
1262.1000;0.3443;0.3993;
1262.4000;0.3403;0.3945;
1262.7000;0.3435;0.3993;
1263.0000;0.3443;0.3969;
1263.3000;0.3451;0.3993;
1263.6000;0.3435;0.3945;
1263.9000;0.3435;0.3969;
1264.2000;0.3476;0.4115;
1264.5000;0.3451;0.3993;
1264.8000;0.3443;0.4091;
1265.1000;0.3443;0.4066;
1265.4000;0.3451;0.4140;
1265.7000;0.3443;0.4164;
1266.0000;0.3443;0.4140;
1266.3000;0.3427;0.4042;
1266.6000;0.3443;0.4042;
1266.9000;0.3443;0.4066;
1267.2000;0.3451;0.4140;
1267.5000;0.3443;0.4066;
1267.8000;0.3435;0.4091;
1268.1000;0.3435;0.4066;
1268.4000;0.3443;0.4115;
1268.7000;0.3443;0.4115;
1269.0000;0.3443;0.4066;
1269.3000;0.3443;0.4018;
1269.6000;0.3468;0.4115;
1269.9000;0.3451;0.4091;
1270.2000;0.3435;0.4066;
1270.5000;0.3435;0.4091;
1270.8000;0.3435;0.4140;
1271.1000;0.3419;0.4042;
1271.4000;0.3419;0.4066;
1271.7000;0.3435;0.4066;
1272.0000;0.3378;0.3872;
1272.3000;0.3427;0.3993;
1272.6000;0.3443;0.3993;
1272.9000;0.3411;0.3847;
1273.2000;0.3451;0.3872;
1273.5000;0.3460;0.4018;
1273.8000;0.3443;0.3896;
1274.1000;0.3484;0.3945;
1274.4000;0.3419;0.3896;
1274.7000;0.3443;0.4091;
1275.0000;0.3411;0.4066;
1275.3000;0.3419;0.3969;
1275.6000;0.3443;0.4018;
1275.9000;0.3492;0.4140;
1276.2000;0.3451;0.3969;
1276.5000;0.3427;0.3945;
1276.8000;0.3443;0.3896;
1277.1000;0.3549;0.4164;
1277.4000;0.3468;0.4018;
1277.7000;0.3451;0.3969;
1278.0000;0.3476;0.4018;
1278.3000;0.3443;0.3872;
1278.6000;0.3370;0.3750;
1278.9000;0.3403;0.3726;
1279.2000;0.3500;0.3920;
1279.5000;0.3427;0.3726;
1279.8000;0.3386;0.3726;
1280.1000;0.3476;0.3993;
1280.4000;0.3427;0.3896;
1280.7000;0.3419;0.3945;
1281.0000;0.3468;0.4018;
1281.3000;0.3435;0.3920;
1281.6000;0.3460;0.3945;
1281.9000;0.3427;0.3847;
1282.2000;0.3427;0.3896;
1282.5000;0.3460;0.3920;
1282.8000;0.3443;0.4042;
1283.1000;0.3451;0.4042;
1283.4000;0.3435;0.4042;
1283.7000;0.3435;0.4140;
1284.0000;0.3419;0.4042;
1284.3000;0.3427;0.4018;
1284.6000;0.3427;0.3847;
1284.9000;0.3443;0.3847;
1285.2000;0.3443;0.3799;
1285.5000;0.3427;0.3847;
1285.8000;0.3435;0.3872;
1286.1000;0.3427;0.3847;
1286.4000;0.3427;0.3799;
1286.7000;0.3451;0.3872;
1287.0000;0.3419;0.3896;
1287.3000;0.3468;0.3920;
1287.6000;0.3443;0.3847;
1287.9000;0.3460;0.3847;
1288.2000;0.3443;0.3799;
1288.5000;0.3411;0.3774;
1288.8000;0.3460;0.3896;
1289.1000;0.3419;0.3920;
1289.4000;0.3435;0.4018;
1289.7000;0.3443;0.4066;
1290.0000;0.3427;0.4091;
1290.3000;0.3435;0.4140;
1290.6000;0.3460;0.4213;
1290.9000;0.3427;0.4164;
1291.2000;0.3443;0.4140;
1291.5000;0.3435;0.4066;
1291.8000;0.3451;0.4140;
1292.1000;0.3435;0.4091;
1292.4000;0.3443;0.4091;
1292.7000;0.3435;0.4091;
1293.0000;0.3427;0.3993;
1293.3000;0.3451;0.4091;
1293.6000;0.3451;0.4140;
1293.9000;0.3443;0.4066;
1294.2000;0.3419;0.3993;
1294.5000;0.3443;0.3920;
1294.8000;0.3468;0.3872;
1295.1000;0.3468;0.3847;
1295.4000;0.3451;0.3653;
1295.7000;0.3419;0.3579;
1296.0000;0.3419;0.3701;
1296.3000;0.3468;0.3945;
1296.6000;0.3435;0.3896;
1296.9000;0.3427;0.3847;
1297.2000;0.3435;0.3847;
1297.5000;0.3443;0.3945;
1297.8000;0.3427;0.3823;
1298.1000;0.3435;0.3774;
1298.4000;0.3443;0.3726;
1298.7000;0.3451;0.3726;
1299.0000;0.3468;0.3750;
1299.3000;0.3403;0.3555;
1299.6000;0.3435;0.3750;
1299.9000;0.3460;0.3847;
1300.2000;0.3443;0.3750;
1300.5000;0.3427;0.3799;
1300.8000;0.3443;0.3920;
1301.1000;0.3435;0.3993;
1301.4000;0.3451;0.3969;
1301.7000;0.3451;0.4018;
1302.0000;0.3337;0.3726;
1302.3000;0.3427;0.3847;
1302.6000;0.3435;0.3799;
1302.9000;0.3411;0.3726;
1303.2000;0.3427;0.3823;
1303.5000;0.3419;0.3823;
1303.8000;0.3394;0.3823;
1304.1000;0.3427;0.3872;
1304.4000;0.3443;0.3847;
1304.7000;0.3435;0.3920;
1305.0000;0.3443;0.3945;
1305.3000;0.3443;0.3896;
1305.6000;0.3435;0.3823;
1305.9000;0.3435;0.3847;
1306.2000;0.3427;0.3799;
1306.5000;0.3443;0.3847;
1306.8000;0.3419;0.3799;
1307.1000;0.3419;0.3726;
1307.4000;0.3411;0.3726;
1307.7000;0.3435;0.3774;
1308.0000;0.3451;0.3774;
1308.3000;0.3435;0.3701;
1308.6000;0.3419;0.3701;
1308.9000;0.3427;0.3726;
1309.2000;0.3451;0.3726;
1309.5000;0.3419;0.3701;
1309.8000;0.3419;0.3701;
1310.1000;0.3443;0.3799;
1310.4000;0.3378;0.3726;
1310.7000;0.3451;0.3896;
1311.0000;0.3435;0.3896;
1311.3000;0.3443;0.3920;
1311.6000;0.3427;0.3896;
1311.9000;0.3443;0.3945;
1312.2000;0.3451;0.3969;
1312.5000;0.3435;0.3896;
1312.8000;0.3460;0.3799;
1313.1000;0.3443;0.3774;
1313.4000;0.3443;0.3701;
1313.7000;0.3443;0.3677;
1314.0000;0.3435;0.3677;
1314.3000;0.3419;0.3677;
1314.6000;0.3443;0.3799;
1314.9000;0.3419;0.3799;
1315.2000;0.3427;0.3799;
1315.5000;0.3419;0.3701;
1315.8000;0.3419;0.3701;
1316.1000;0.3419;0.3774;
1316.4000;0.3460;0.3945;
1316.7000;0.3451;0.3847;
1317.0000;0.3354;0.3555;
1317.3000;0.3403;0.3701;
1317.6000;0.3427;0.3701;
1317.9000;0.3435;0.3750;
1318.2000;0.3451;0.3823;
1318.5000;0.3427;0.3847;
1318.8000;0.3419;0.3750;
1319.1000;0.3427;0.3701;
1319.4000;0.3492;0.3872;
1319.7000;0.3427;0.3750;
1320.0000;0.3427;0.3701;
1320.3000;0.3427;0.3774;
1320.6000;0.3435;0.3774;
1320.9000;0.3443;0.3847;
1321.2000;0.3460;0.3896;
1321.5000;0.3435;0.3823;
1321.8000;0.3451;0.3847;
1322.1000;0.3451;0.3847;
1322.4000;0.3435;0.3872;
1322.7000;0.3427;0.3847;
1323.0000;0.3403;0.3872;
1323.3000;0.3427;0.3920;
1323.6000;0.3435;0.3920;
1323.9000;0.3435;0.3969;
1324.2000;0.3435;0.3872;
1324.5000;0.3460;0.3750;
1324.8000;0.3451;0.3750;
1325.1000;0.3427;0.3750;
1325.4000;0.3451;0.3872;
1325.7000;0.3460;0.3896;
1326.0000;0.3451;0.3945;
1326.3000;0.3476;0.3969;
1326.6000;0.3435;0.3896;
1326.9000;0.3443;0.3872;
1327.2000;0.3435;0.3823;
1327.5000;0.3435;0.3847;
1327.8000;0.3394;0.3799;
1328.1000;0.3411;0.3920;
1328.4000;0.3419;0.3847;
1328.7000;0.3427;0.3945;
1329.0000;0.3451;0.4018;
1329.3000;0.3451;0.4042;
1329.6000;0.3451;0.4018;
1329.9000;0.3443;0.3969;
1330.2000;0.3427;0.3872;
1330.5000;0.3427;0.3896;
1330.8000;0.3451;0.3945;
1331.1000;0.3443;0.3896;
1331.4000;0.3443;0.3823;
1331.7000;0.3460;0.3872;
1332.0000;0.3443;0.3750;
1332.3000;0.3411;0.3774;
1332.6000;0.3460;0.3896;
1332.9000;0.3403;0.3847;
1333.2000;0.3394;0.3823;
1333.5000;0.3435;0.3847;
1333.8000;0.3468;0.3896;
1334.1000;0.3443;0.3847;
1334.4000;0.3508;0.3969;
1334.7000;0.3451;0.3896;
1335.0000;0.3435;0.3896;
1335.3000;0.3451;0.3945;
1335.6000;0.3435;0.3872;
1335.9000;0.3443;0.3799;
1336.2000;0.3443;0.3847;
1336.5000;0.3435;0.3847;
1336.8000;0.3435;0.3945;
1337.1000;0.3443;0.3945;
1337.4000;0.3411;0.3945;
1337.7000;0.3435;0.4042;
1338.0000;0.3427;0.4042;
1338.3000;0.3435;0.4091;
1338.6000;0.3443;0.4115;
1338.9000;0.3443;0.4115;
1339.2000;0.3435;0.4018;
1339.5000;0.3484;0.4115;
1339.8000;0.3443;0.4091;
1340.1000;0.3468;0.4066;
1340.4000;0.3427;0.3896;
1340.7000;0.3435;0.3969;
1341.0000;0.3427;0.3920;
1341.3000;0.3427;0.3969;
1341.6000;0.3427;0.3993;
1341.9000;0.3419;0.3920;
1342.2000;0.3427;0.3945;
1342.5000;0.3427;0.3920;
1342.8000;0.3460;0.3945;
1343.1000;0.3419;0.3872;
1343.4000;0.3419;0.3896;
1343.7000;0.3443;0.4018;
1344.0000;0.3451;0.4091;
1344.3000;0.3427;0.3945;
1344.6000;0.3427;0.3969;
1344.9000;0.3435;0.4018;
1345.2000;0.3435;0.3993;
1345.5000;0.3435;0.4018;
1345.8000;0.3403;0.3993;
1346.1000;0.3451;0.4042;
1346.4000;0.3443;0.4042;
1346.7000;0.3419;0.3896;
1347.0000;0.3354;0.3726;
1347.3000;0.3435;0.3872;
1347.6000;0.3435;0.3896;
1347.9000;0.3411;0.3920;
1348.2000;0.3427;0.3872;
1348.5000;0.3427;0.3823;
1348.8000;0.3427;0.3799;
1349.1000;0.3443;0.3896;
1349.4000;0.3419;0.3847;
1349.7000;0.3411;0.3774;
1350.0000;0.3443;0.3847;
1350.3000;0.3443;0.3823;
1350.6000;0.3435;0.3774;
1350.9000;0.3443;0.3701;
1351.2000;0.3460;0.3726;
1351.5000;0.3435;0.3653;
1351.8000;0.3435;0.3653;
1352.1000;0.3346;0.3458;
1352.4000;0.3484;0.3847;
1352.7000;0.3443;0.3774;
1353.0000;0.3427;0.3774;
1353.3000;0.3427;0.3823;
1353.6000;0.3435;0.3726;
1353.9000;0.3419;0.3750;
1354.2000;0.3435;0.3847;
1354.5000;0.3435;0.3799;
1354.8000;0.3443;0.3847;
1355.1000;0.3451;0.3774;
1355.4000;0.3435;0.3774;
1355.7000;0.3427;0.3750;
1356.0000;0.3435;0.3847;
1356.3000;0.3403;0.3823;
1356.6000;0.3435;0.3945;
1356.9000;0.3435;0.4018;
1357.2000;0.3435;0.4042;
1357.5000;0.3443;0.4042;
1357.8000;0.3435;0.4018;
1358.1000;0.3411;0.3896;
1358.4000;0.3476;0.4042;
1358.7000;0.3476;0.3969;
1359.0000;0.3427;0.3823;
1359.3000;0.3435;0.3823;
1359.6000;0.3427;0.3823;
1359.9000;0.3443;0.3823;
1360.2000;0.3411;0.3750;
1360.5000;0.3419;0.3726;
1360.8000;0.3419;0.3726;
1361.1000;0.3419;0.3823;
1361.4000;0.3427;0.3920;
1361.7000;0.3411;0.3872;
1362.0000;0.3411;0.3896;
1362.3000;0.3427;0.3896;
1362.6000;0.3419;0.3920;
1362.9000;0.3435;0.3945;
1363.2000;0.3378;0.3847;
1363.5000;0.3427;0.3969;
1363.8000;0.3427;0.3993;
1364.1000;0.3443;0.3993;
1364.4000;0.3419;0.3945;
1364.7000;0.3411;0.3993;
1365.0000;0.3370;0.3896;
1365.3000;0.3508;0.4115;
1365.6000;0.3435;0.3896;
1365.9000;0.3427;0.3823;
1366.2000;0.3443;0.3920;
1366.5000;0.3419;0.3872;
1366.8000;0.3427;0.3920;
1367.1000;0.3411;0.3847;
1367.4000;0.3411;0.3847;
1367.7000;0.3460;0.3945;
1368.0000;0.3403;0.3799;
1368.3000;0.3435;0.3896;
1368.6000;0.3460;0.3920;
1368.9000;0.3451;0.3945;
1369.2000;0.3427;0.3847;
1369.5000;0.3427;0.3823;
1369.8000;0.3460;0.3896;
1370.1000;0.3411;0.3872;
1370.4000;0.3451;0.3945;
1370.7000;0.3435;0.3872;
1371.0000;0.3419;0.3726;
1371.3000;0.3362;0.3628;
1371.6000;0.3427;0.3847;
1371.9000;0.3378;0.3799;
1372.2000;0.3419;0.3920;
1372.5000;0.3419;0.3969;
1372.8000;0.3419;0.3847;
1373.1000;0.3346;0.3726;
1373.4000;0.3460;0.3969;
1373.7000;0.3411;0.3896;
1374.0000;0.3443;0.3969;
1374.3000;0.3435;0.3896;
1374.6000;0.3460;0.4018;
1374.9000;0.3435;0.3993;
1375.2000;0.3468;0.4042;
1375.5000;0.3484;0.4140;
1375.8000;0.3435;0.4091;
1376.1000;0.3386;0.3896;
1376.4000;0.3451;0.4066;
1376.7000;0.3394;0.3823;
1377.0000;0.3435;0.3920;
1377.3000;0.3419;0.3847;
1377.6000;0.3435;0.3896;
1377.9000;0.3468;0.3920;
1378.2000;0.3419;0.3799;
1378.5000;0.3435;0.3799;
1378.8000;0.3451;0.3823;
1379.1000;0.3443;0.3774;
1379.4000;0.3435;0.3823;
1379.7000;0.3484;0.3993;
1380.0000;0.3451;0.4018;
1380.3000;0.3443;0.4066;
1380.6000;0.3443;0.4066;
1380.9000;0.3451;0.4018;
1381.2000;0.3443;0.4018;
1381.5000;0.3419;0.3945;
1381.8000;0.3435;0.3945;
1382.1000;0.3427;0.3969;
1382.4000;0.3419;0.3872;
1382.7000;0.3435;0.3920;
1383.0000;0.3443;0.3896;
1383.3000;0.3427;0.3896;
1383.6000;0.3419;0.3847;
1383.9000;0.3411;0.3799;
1384.2000;0.3460;0.3969;
1384.5000;0.3451;0.3993;
1384.8000;0.3435;0.4042;
1385.1000;0.3419;0.3969;
1385.4000;0.3419;0.3920;
1385.7000;0.3427;0.3872;
1386.0000;0.3435;0.3993;
1386.3000;0.3411;0.3969;
1386.6000;0.3443;0.4018;
1386.9000;0.3419;0.3896;
1387.2000;0.3403;0.3872;
1387.5000;0.3403;0.3896;
1387.8000;0.3460;0.4018;
1388.1000;0.3460;0.4018;
1388.4000;0.3451;0.4018;
1388.7000;0.3403;0.3945;
1389.0000;0.3435;0.4018;
1389.3000;0.3419;0.3969;
1389.6000;0.3451;0.4018;
1389.9000;0.3370;0.3799;
1390.2000;0.3460;0.4066;
1390.5000;0.3451;0.4091;
1390.8000;0.3460;0.4115;
1391.1000;0.3435;0.4115;
1391.4000;0.3492;0.4213;
1391.7000;0.3435;0.4140;
1392.0000;0.3435;0.4140;
1392.3000;0.3427;0.4115;
1392.6000;0.3419;0.4164;
1392.9000;0.3427;0.4237;
1393.2000;0.3443;0.4213;
1393.5000;0.3419;0.4164;
1393.8000;0.3435;0.4213;
1394.1000;0.3443;0.4188;
1394.4000;0.3451;0.4164;
1394.7000;0.3451;0.4164;
1395.0000;0.3435;0.4091;
1395.3000;0.3419;0.4042;
1395.6000;0.3427;0.3993;
1395.9000;0.3451;0.3993;
1396.2000;0.3419;0.3920;
1396.5000;0.3411;0.3920;
1396.8000;0.3419;0.3896;
1397.1000;0.3443;0.3920;
1397.4000;0.3435;0.3969;
1397.7000;0.3451;0.3969;
1398.0000;0.3435;0.3993;
1398.3000;0.3435;0.3872;
1398.6000;0.3443;0.3847;
1398.9000;0.3411;0.3799;
1399.2000;0.3427;0.3823;
1399.5000;0.3419;0.3847;
1399.8000;0.3451;0.3993;
