time/ms;Fluo/V;P700 deltaI/I x10³;
-199.8000;0.3500;0.4140;
-199.5000;0.3476;0.3969;
-199.2000;0.3492;0.3920;
-198.9000;0.3500;0.3993;
-198.6000;0.3435;0.3847;
-198.3000;0.3492;0.3993;
-198.0000;0.3484;0.3920;
-197.7000;0.3460;0.3847;
-197.4000;0.3500;0.3969;
-197.1000;0.3549;0.4140;
-196.8000;0.3516;0.4066;
-196.5000;0.3500;0.3993;
-196.2000;0.3508;0.3993;
-195.9000;0.3508;0.4042;
-195.6000;0.3492;0.4091;
-195.3000;0.3484;0.4042;
-195.0000;0.3516;0.4140;
-194.7000;0.3508;0.4042;
-194.4000;0.3492;0.3945;
-194.1000;0.3492;0.3969;
-193.8000;0.3492;0.4018;
-193.5000;0.3500;0.4018;
-193.2000;0.3492;0.3993;
-192.9000;0.3492;0.4018;
-192.6000;0.3525;0.4066;
-192.3000;0.3508;0.3945;
-192.0000;0.3492;0.3969;
-191.7000;0.3500;0.3993;
-191.4000;0.3484;0.3896;
-191.1000;0.3492;0.3920;
-190.8000;0.3500;0.3993;
-190.5000;0.3476;0.4018;
-190.2000;0.3500;0.4091;
-189.9000;0.3500;0.4140;
-189.6000;0.3549;0.4213;
-189.3000;0.3484;0.4018;
-189.0000;0.3508;0.4188;
-188.7000;0.3476;0.4140;
-188.4000;0.3549;0.4359;
-188.1000;0.3516;0.4334;
-187.8000;0.3500;0.4310;
-187.5000;0.3492;0.4286;
-187.2000;0.3508;0.4286;
-186.9000;0.3500;0.4213;
-186.6000;0.3484;0.4164;
-186.3000;0.3492;0.4115;
-186.0000;0.3525;0.4164;
-185.7000;0.3500;0.4115;
-185.4000;0.3508;0.4140;
-185.1000;0.3516;0.4091;
-184.8000;0.3516;0.4164;
-184.5000;0.3460;0.4042;
-184.2000;0.3508;0.4237;
-183.9000;0.3516;0.4164;
-183.6000;0.3525;0.4188;
-183.3000;0.3508;0.4091;
-183.0000;0.3508;0.4140;
-182.7000;0.3508;0.4115;
-182.4000;0.3468;0.4042;
-182.1000;0.3525;0.4115;
-181.8000;0.3500;0.4091;
-181.5000;0.3533;0.4091;
-181.2000;0.3492;0.4018;
-180.9000;0.3500;0.4066;
-180.6000;0.3492;0.4018;
-180.3000;0.3508;0.4091;
-180.0000;0.3508;0.4091;
-179.7000;0.3508;0.4140;
-179.4000;0.3516;0.4188;
-179.1000;0.3516;0.4213;
-178.8000;0.3492;0.4237;
-178.5000;0.3500;0.4286;
-178.2000;0.3508;0.4261;
-177.9000;0.3476;0.4213;
-177.6000;0.3508;0.4286;
-177.3000;0.3492;0.4188;
-177.0000;0.3476;0.4188;
-176.7000;0.3508;0.4213;
-176.4000;0.3516;0.4261;
-176.1000;0.3500;0.4140;
-175.8000;0.3508;0.4140;
-175.5000;0.3516;0.4164;
-175.2000;0.3500;0.4042;
-174.9000;0.3516;0.4091;
-174.6000;0.3516;0.4213;
-174.3000;0.3484;0.4091;
-174.0000;0.3492;0.4140;
-173.7000;0.3484;0.4066;
-173.4000;0.3476;0.4018;
-173.1000;0.3451;0.3969;
-172.8000;0.3516;0.4066;
-172.5000;0.3492;0.3945;
-172.2000;0.3516;0.4066;
-171.9000;0.3516;0.3993;
-171.6000;0.3492;0.4042;
-171.3000;0.3492;0.4066;
-171.0000;0.3508;0.4091;
-170.7000;0.3500;0.4018;
-170.4000;0.3516;0.4066;
-170.1000;0.3516;0.3993;
-169.8000;0.3557;0.4115;
-169.5000;0.3525;0.4066;
-169.2000;0.3516;0.4042;
-168.9000;0.3492;0.3920;
-168.6000;0.3508;0.3993;
-168.3000;0.3500;0.4042;
-168.0000;0.3516;0.4140;
-167.7000;0.3492;0.4066;
-167.4000;0.3492;0.4042;
-167.1000;0.3500;0.3993;
-166.8000;0.3557;0.3993;
-166.5000;0.3492;0.3823;
-166.2000;0.3500;0.3847;
-165.9000;0.3492;0.3872;
-165.6000;0.3492;0.3896;
-165.3000;0.3508;0.3896;
-165.0000;0.3484;0.3774;
-164.7000;0.3516;0.3896;
-164.4000;0.3516;0.3920;
-164.1000;0.3468;0.3799;
-163.8000;0.3500;0.3847;
-163.5000;0.3508;0.3896;
-163.2000;0.3516;0.3823;
-162.9000;0.3484;0.3726;
-162.6000;0.3516;0.3823;
-162.3000;0.3484;0.3774;
-162.0000;0.3492;0.3872;
-161.7000;0.3484;0.4066;
-161.4000;0.3508;0.4213;
-161.1000;0.3492;0.4188;
-160.8000;0.3460;0.4066;
-160.5000;0.3500;0.4140;
-160.2000;0.3508;0.4188;
-159.9000;0.3500;0.4164;
-159.6000;0.3500;0.4140;
-159.3000;0.3508;0.4261;
-159.0000;0.3516;0.4310;
-158.7000;0.3508;0.4286;
-158.4000;0.3508;0.4237;
-158.1000;0.3492;0.4286;
-157.8000;0.3508;0.4286;
-157.5000;0.3492;0.4213;
-157.2000;0.3484;0.4164;
-156.9000;0.3516;0.4213;
-156.6000;0.3508;0.4261;
-156.3000;0.3508;0.4237;
-156.0000;0.3516;0.4237;
-155.7000;0.3492;0.4091;
-155.4000;0.3533;0.4140;
-155.1000;0.3557;0.4188;
-154.8000;0.3476;0.4042;
-154.5000;0.3492;0.4042;
-154.2000;0.3525;0.4140;
-153.9000;0.3500;0.4066;
-153.6000;0.3476;0.4018;
-153.3000;0.3500;0.4042;
-153.0000;0.3516;0.4115;
-152.7000;0.3435;0.3872;
-152.4000;0.3557;0.4213;
-152.1000;0.3525;0.4140;
-151.8000;0.3500;0.4042;
-151.5000;0.3508;0.4091;
-151.2000;0.3500;0.4115;
-150.9000;0.3508;0.4115;
-150.6000;0.3508;0.4140;
-150.3000;0.3451;0.4115;
-150.0000;0.3460;0.4237;
-149.7000;0.3508;0.4261;
-149.4000;0.3508;0.4188;
-149.1000;0.3516;0.4261;
-148.8000;0.3508;0.4286;
-148.5000;0.3508;0.4334;
-148.2000;0.3516;0.4334;
-147.9000;0.3549;0.4383;
-147.6000;0.3516;0.4334;
-147.3000;0.3508;0.4359;
-147.0000;0.3516;0.4286;
-146.7000;0.3516;0.4407;
-146.4000;0.3500;0.4359;
-146.1000;0.3508;0.4383;
-145.8000;0.3508;0.4359;
-145.5000;0.3484;0.4261;
-145.2000;0.3484;0.4237;
-144.9000;0.3516;0.4188;
-144.6000;0.3500;0.4091;
-144.3000;0.3500;0.3993;
-144.0000;0.3500;0.4018;
-143.7000;0.3516;0.4140;
-143.4000;0.3508;0.4164;
-143.1000;0.3573;0.4334;
-142.8000;0.3476;0.4066;
-142.5000;0.3516;0.4188;
-142.2000;0.3516;0.4115;
-141.9000;0.3500;0.4213;
-141.6000;0.3500;0.4237;
-141.3000;0.3500;0.4310;
-141.0000;0.3468;0.4164;
-140.7000;0.3500;0.4237;
-140.4000;0.3508;0.4140;
-140.1000;0.3525;0.4213;
-139.8000;0.3484;0.4140;
-139.5000;0.3484;0.4213;
-139.2000;0.3500;0.4213;
-138.9000;0.3508;0.4237;
-138.6000;0.3492;0.4261;
-138.3000;0.3557;0.4383;
-138.0000;0.3516;0.4286;
-137.7000;0.3500;0.4188;
-137.4000;0.3492;0.4066;
-137.1000;0.3516;0.4091;
-136.8000;0.3443;0.3896;
-136.5000;0.3533;0.4091;
-136.2000;0.3549;0.4140;
-135.9000;0.3516;0.4091;
-135.6000;0.3508;0.4091;
-135.3000;0.3492;0.3993;
-135.0000;0.3500;0.3896;
-134.7000;0.3484;0.3945;
-134.4000;0.3500;0.4018;
-134.1000;0.3508;0.4018;
-133.8000;0.3598;0.4237;
-133.5000;0.3508;0.4018;
-133.2000;0.3500;0.4042;
-132.9000;0.3500;0.4042;
-132.6000;0.3525;0.4042;
-132.3000;0.3525;0.4091;
-132.0000;0.3500;0.3969;
-131.7000;0.3492;0.3896;
-131.4000;0.3500;0.3872;
-131.1000;0.3492;0.3847;
-130.8000;0.3492;0.3847;
-130.5000;0.3492;0.3847;
-130.2000;0.3500;0.3847;
-129.9000;0.3500;0.3945;
-129.6000;0.3508;0.3993;
-129.3000;0.3565;0.4164;
-129.0000;0.3484;0.4018;
-128.7000;0.3492;0.4066;
-128.4000;0.3516;0.4140;
-128.1000;0.3516;0.4140;
-127.8000;0.3508;0.3993;
-127.5000;0.3484;0.3945;
-127.2000;0.3443;0.3847;
-126.9000;0.3492;0.3993;
-126.6000;0.3492;0.4018;
-126.3000;0.3484;0.3993;
-126.0000;0.3500;0.3993;
-125.7000;0.3500;0.3993;
-125.4000;0.3484;0.3896;
-125.1000;0.3484;0.3993;
-124.8000;0.3508;0.4042;
-124.5000;0.3508;0.4115;
-124.2000;0.3508;0.4115;
-123.9000;0.3492;0.4066;
-123.6000;0.3533;0.4091;
-123.3000;0.3508;0.4066;
-123.0000;0.3508;0.4042;
-122.7000;0.3525;0.4066;
-122.4000;0.3525;0.4091;
-122.1000;0.3484;0.3993;
-121.8000;0.3549;0.4188;
-121.5000;0.3500;0.4115;
-121.2000;0.3508;0.4164;
-120.9000;0.3468;0.4091;
-120.6000;0.3549;0.4213;
-120.3000;0.3500;0.4066;
-120.0000;0.3492;0.4066;
-119.7000;0.3492;0.4115;
-119.4000;0.3492;0.3993;
-119.1000;0.3508;0.4066;
-118.8000;0.3500;0.4091;
-118.5000;0.3525;0.4066;
-118.2000;0.3525;0.4066;
-117.9000;0.3484;0.4018;
-117.6000;0.3500;0.3969;
-117.3000;0.3508;0.3969;
-117.0000;0.3500;0.3969;
-116.7000;0.3500;0.3969;
-116.4000;0.3508;0.3969;
-116.1000;0.3492;0.3872;
-115.8000;0.3525;0.3993;
-115.5000;0.3476;0.3847;
-115.2000;0.3484;0.3969;
-114.9000;0.3476;0.4066;
-114.6000;0.3492;0.4042;
-114.3000;0.3492;0.4091;
-114.0000;0.3492;0.4140;
-113.7000;0.3484;0.4188;
-113.4000;0.3500;0.4237;
-113.1000;0.3500;0.4237;
-112.8000;0.3500;0.4164;
-112.5000;0.3484;0.4115;
-112.2000;0.3484;0.4115;
-111.9000;0.3508;0.4237;
-111.6000;0.3516;0.4164;
-111.3000;0.3484;0.4042;
-111.0000;0.3492;0.4140;
-110.7000;0.3516;0.4213;
-110.4000;0.3508;0.4164;
-110.1000;0.3500;0.4261;
-109.8000;0.3492;0.4237;
-109.5000;0.3500;0.4237;
-109.2000;0.3516;0.4359;
-108.9000;0.3508;0.4334;
-108.6000;0.3492;0.4237;
-108.3000;0.3533;0.4334;
-108.0000;0.3492;0.4286;
-107.7000;0.3516;0.4237;
-107.4000;0.3484;0.4164;
-107.1000;0.3492;0.4164;
-106.8000;0.3525;0.4164;
-106.5000;0.3508;0.4213;
-106.2000;0.3500;0.4237;
-105.9000;0.3525;0.4334;
-105.6000;0.3435;0.4164;
-105.3000;0.3516;0.4286;
-105.0000;0.3500;0.4261;
-104.7000;0.3541;0.4310;
-104.4000;0.3508;0.4213;
-104.1000;0.3508;0.4237;
-103.8000;0.3500;0.4164;
-103.5000;0.3492;0.4140;
-103.2000;0.3516;0.4091;
-102.9000;0.3525;0.4115;
-102.6000;0.3435;0.3896;
-102.3000;0.3492;0.4042;
-102.0000;0.3516;0.4042;
-101.7000;0.3500;0.3993;
-101.4000;0.3508;0.3969;
-101.1000;0.3500;0.3872;
-100.8000;0.3435;0.3726;
-100.5000;0.3500;0.3823;
-100.2000;0.3476;0.3677;
-99.9000;0.3533;0.4042;
-99.6000;0.3500;0.4042;
-99.3000;0.3508;0.4018;
-99.0000;0.3573;0.4164;
-98.7000;0.3500;0.4042;
-98.4000;0.3500;0.4066;
-98.1000;0.3492;0.4115;
-97.8000;0.3508;0.4115;
-97.5000;0.3525;0.4140;
-97.2000;0.3508;0.4042;
-96.9000;0.3476;0.3847;
-96.6000;0.3516;0.4018;
-96.3000;0.3516;0.4042;
-96.0000;0.3492;0.4066;
-95.7000;0.3476;0.3993;
-95.4000;0.3508;0.4018;
-95.1000;0.3500;0.3945;
-94.8000;0.3484;0.3969;
-94.5000;0.3492;0.4091;
-94.2000;0.3500;0.4115;
-93.9000;0.3508;0.4140;
-93.6000;0.3500;0.3993;
-93.3000;0.3516;0.3993;
-93.0000;0.3516;0.3920;
-92.7000;0.3508;0.3920;
-92.4000;0.3525;0.3969;
-92.1000;0.3492;0.4042;
-91.8000;0.3500;0.4115;
-91.5000;0.3508;0.4237;
-91.2000;0.3516;0.4261;
-90.9000;0.3508;0.4213;
-90.6000;0.3500;0.4091;
-90.3000;0.3476;0.3945;
-90.0000;0.3525;0.4018;
-89.7000;0.3525;0.3969;
-89.4000;0.3508;0.3896;
-89.1000;0.3508;0.3920;
-88.8000;0.3516;0.3896;
-88.5000;0.3484;0.3847;
-88.2000;0.3484;0.3799;
-87.9000;0.3484;0.3823;
-87.6000;0.3500;0.3847;
-87.3000;0.3500;0.3896;
-87.0000;0.3484;0.3920;
-86.7000;0.3557;0.4140;
-86.4000;0.3500;0.3993;
-86.1000;0.3492;0.3920;
-85.8000;0.3492;0.4018;
-85.5000;0.3541;0.4140;
-85.2000;0.3492;0.4115;
-84.9000;0.3508;0.4115;
-84.6000;0.3500;0.4115;
-84.3000;0.3500;0.4042;
-84.0000;0.3492;0.4042;
-83.7000;0.3508;0.4066;
-83.4000;0.3500;0.3993;
-83.1000;0.3508;0.3993;
-82.8000;0.3516;0.4066;
-82.5000;0.3516;0.4091;
-82.2000;0.3492;0.4066;
-81.9000;0.3516;0.4115;
-81.6000;0.3492;0.4066;
-81.3000;0.3508;0.4091;
-81.0000;0.3516;0.4115;
-80.7000;0.3484;0.4018;
-80.4000;0.3500;0.4066;
-80.1000;0.3468;0.3945;
-79.8000;0.3492;0.4018;
-79.5000;0.3492;0.4042;
-79.2000;0.3541;0.4091;
-78.9000;0.3500;0.3993;
-78.6000;0.3476;0.3920;
-78.3000;0.3557;0.4140;
-78.0000;0.3492;0.3969;
-77.7000;0.3516;0.3993;
-77.4000;0.3516;0.3969;
-77.1000;0.3492;0.4018;
-76.8000;0.3492;0.4018;
-76.5000;0.3582;0.4286;
-76.2000;0.3508;0.4115;
-75.9000;0.3516;0.4091;
-75.6000;0.3492;0.3945;
-75.3000;0.3508;0.3993;
-75.0000;0.3492;0.4018;
-74.7000;0.3484;0.4042;
-74.4000;0.3500;0.4042;
-74.1000;0.3492;0.4115;
-73.8000;0.3468;0.4018;
-73.5000;0.3484;0.4066;
-73.2000;0.3484;0.4091;
-72.9000;0.3500;0.4188;
-72.6000;0.3500;0.4237;
-72.3000;0.3492;0.4213;
-72.0000;0.3492;0.4140;
-71.7000;0.3508;0.4140;
-71.4000;0.3484;0.4042;
-71.1000;0.3525;0.4115;
-70.8000;0.3476;0.3993;
-70.5000;0.3492;0.4042;
-70.2000;0.3500;0.4042;
-69.9000;0.3492;0.3969;
-69.6000;0.3500;0.4018;
-69.3000;0.3484;0.3945;
-69.0000;0.3500;0.4066;
-68.7000;0.3500;0.4115;
-68.4000;0.3500;0.4042;
-68.1000;0.3492;0.3945;
-67.8000;0.3451;0.3799;
-67.5000;0.3500;0.4115;
-67.2000;0.3500;0.4164;
-66.9000;0.3492;0.4164;
-66.6000;0.3500;0.4164;
-66.3000;0.3419;0.4018;
-66.0000;0.3525;0.4213;
-65.7000;0.3476;0.4091;
-65.4000;0.3525;0.4115;
-65.1000;0.3484;0.4042;
-64.8000;0.3492;0.4091;
-64.5000;0.3500;0.4164;
-64.2000;0.3500;0.4164;
-63.9000;0.3492;0.4213;
-63.6000;0.3508;0.4213;
-63.3000;0.3500;0.4164;
-63.0000;0.3492;0.4140;
-62.7000;0.3476;0.4066;
-62.4000;0.3516;0.4140;
-62.1000;0.3508;0.4140;
-61.8000;0.3516;0.4286;
-61.5000;0.3500;0.4140;
-61.2000;0.3492;0.4115;
-60.9000;0.3492;0.4091;
-60.6000;0.3484;0.4066;
-60.3000;0.3484;0.4042;
-60.0000;0.3500;0.4066;
-59.7000;0.3516;0.4115;
-59.4000;0.3443;0.3945;
-59.1000;0.3476;0.4042;
-58.8000;0.3476;0.4091;
-58.5000;0.3500;0.4140;
-58.2000;0.3508;0.4140;
-57.9000;0.3484;0.4042;
-57.6000;0.3500;0.4140;
-57.3000;0.3533;0.4140;
-57.0000;0.3508;0.4042;
-56.7000;0.3508;0.4066;
-56.4000;0.3500;0.4042;
-56.1000;0.3500;0.4018;
-55.8000;0.3500;0.3945;
-55.5000;0.3541;0.3920;
-55.2000;0.3516;0.3872;
-54.9000;0.3508;0.3823;
-54.6000;0.3533;0.3945;
-54.3000;0.3516;0.3896;
-54.0000;0.3484;0.3823;
-53.7000;0.3500;0.3799;
-53.4000;0.3541;0.3896;
-53.1000;0.3500;0.3823;
-52.8000;0.3500;0.3823;
-52.5000;0.3516;0.3896;
-52.2000;0.3516;0.3993;
-51.9000;0.3484;0.3969;
-51.6000;0.3541;0.4091;
-51.3000;0.3516;0.4066;
-51.0000;0.3525;0.4066;
-50.7000;0.3500;0.3993;
-50.4000;0.3549;0.4091;
-50.1000;0.3565;0.4164;
-49.8000;0.3484;0.3969;
-49.5000;0.3500;0.4018;
-49.2000;0.3492;0.3993;
-48.9000;0.3492;0.4018;
-48.6000;0.3476;0.3896;
-48.3000;0.3500;0.3945;
-48.0000;0.3500;0.3920;
-47.7000;0.3492;0.3945;
-47.4000;0.3492;0.3896;
-47.1000;0.3525;0.3920;
-46.8000;0.3492;0.3847;
-46.5000;0.3492;0.3896;
-46.2000;0.3508;0.3969;
-45.9000;0.3500;0.3920;
-45.6000;0.3500;0.3896;
-45.3000;0.3516;0.3920;
-45.0000;0.3500;0.3847;
-44.7000;0.3500;0.3799;
-44.4000;0.3500;0.3750;
-44.1000;0.3500;0.3726;
-43.8000;0.3484;0.3653;
-43.5000;0.3500;0.3701;
-43.2000;0.3500;0.3701;
-42.9000;0.3516;0.3726;
-42.6000;0.3476;0.3677;
-42.3000;0.3508;0.3799;
-42.0000;0.3508;0.3872;
-41.7000;0.3500;0.3920;
-41.4000;0.3460;0.3847;
-41.1000;0.3500;0.3896;
-40.8000;0.3500;0.3969;
-40.5000;0.3525;0.4140;
-40.2000;0.3484;0.4042;
-39.9000;0.3500;0.3993;
-39.6000;0.3492;0.4018;
-39.3000;0.3516;0.4066;
-39.0000;0.3508;0.3993;
-38.7000;0.3500;0.3920;
-38.4000;0.3508;0.3799;
-38.1000;0.3508;0.3920;
-37.8000;0.3508;0.3896;
-37.5000;0.3525;0.3847;
-37.2000;0.3500;0.3872;
-36.9000;0.3468;0.3823;
-36.6000;0.3508;0.3920;
-36.3000;0.3411;0.3726;
-36.0000;0.3492;0.4042;
-35.7000;0.3443;0.3969;
-35.4000;0.3508;0.4115;
-35.1000;0.3500;0.4091;
-34.8000;0.3492;0.4018;
-34.5000;0.3508;0.4018;
-34.2000;0.3508;0.4091;
-33.9000;0.3484;0.4115;
-33.6000;0.3492;0.4115;
-33.3000;0.3500;0.4164;
-33.0000;0.3492;0.4188;
-32.7000;0.3500;0.4261;
-32.4000;0.3508;0.4310;
-32.1000;0.3476;0.4140;
-31.8000;0.3508;0.4188;
-31.5000;0.3460;0.4042;
-31.2000;0.3492;0.4188;
-30.9000;0.3500;0.4164;
-30.6000;0.3500;0.4188;
-30.3000;0.3508;0.4213;
-30.0000;0.3541;0.4261;
-29.7000;0.3500;0.4140;
-29.4000;0.3516;0.4237;
-29.1000;0.3508;0.4286;
-28.8000;0.3508;0.4261;
-28.5000;0.3500;0.4261;
-28.2000;0.3484;0.4164;
-27.9000;0.3500;0.4066;
-27.6000;0.3492;0.4091;
-27.3000;0.3500;0.4018;
-27.0000;0.3508;0.4042;
-26.7000;0.3508;0.4164;
-26.4000;0.3508;0.4140;
-26.1000;0.3516;0.4261;
-25.8000;0.3516;0.4213;
-25.5000;0.3516;0.4213;
-25.2000;0.3508;0.4140;
-24.9000;0.3508;0.4091;
-24.6000;0.3492;0.4140;
-24.3000;0.3516;0.4261;
-24.0000;0.3508;0.4237;
-23.7000;0.3443;0.4018;
-23.4000;0.3500;0.4018;
-23.1000;0.3492;0.3993;
-22.8000;0.3508;0.4066;
-22.5000;0.3508;0.4115;
-22.2000;0.3492;0.4115;
-21.9000;0.3468;0.4115;
-21.6000;0.3516;0.4213;
-21.3000;0.3484;0.4188;
-21.0000;0.3500;0.4261;
-20.7000;0.3516;0.4310;
-20.4000;0.3508;0.4334;
-20.1000;0.3508;0.4310;
-19.8000;0.3508;0.4237;
-19.5000;0.3500;0.4237;
-19.2000;0.3500;0.4261;
-18.9000;0.3533;0.4310;
-18.6000;0.3516;0.4237;
-18.3000;0.3500;0.4213;
-18.0000;0.3508;0.4140;
-17.7000;0.3516;0.4261;
-17.4000;0.3508;0.4164;
-17.1000;0.3500;0.4115;
-16.8000;0.3500;0.4164;
-16.5000;0.3500;0.4115;
-16.2000;0.3508;0.4115;
-15.9000;0.3508;0.4188;
-15.6000;0.3476;0.4115;
-15.3000;0.3508;0.4140;
-15.0000;0.3500;0.4164;
-14.7000;0.3525;0.4140;
-14.4000;0.3500;0.4140;
-14.1000;0.3492;0.4140;
-13.8000;0.3508;0.4115;
-13.5000;0.3492;0.4091;
-13.2000;0.3492;0.4115;
-12.9000;0.3492;0.4066;
-12.6000;0.3460;0.3969;
-12.3000;0.3492;0.4115;
-12.0000;0.3484;0.4140;
-11.7000;0.3549;0.4115;
-11.4000;0.3525;0.4213;
-11.1000;0.3525;0.4188;
-10.8000;0.3508;0.4115;
-10.5000;0.3508;0.4066;
-10.2000;0.3516;0.4140;
-9.9000;0.3500;0.4164;
-9.6000;0.3484;0.4115;
-9.3000;0.3484;0.4115;
-9.0000;0.3492;0.4140;
-8.7000;0.3492;0.4140;
-8.4000;0.3492;0.4066;
-8.1000;0.3500;0.4066;
-7.8000;0.3516;0.3993;
-7.5000;0.3500;0.3945;
-7.2000;0.3516;0.3945;
-6.9000;0.3508;0.3920;
-6.6000;0.3525;0.3993;
-6.3000;0.3492;0.3993;
-6.0000;0.3500;0.4018;
-5.7000;0.3500;0.4066;
-5.4000;0.3516;0.4066;
-5.1000;0.3508;0.4066;
-4.8000;0.3525;0.4018;
-4.5000;0.3508;0.3945;
-4.2000;0.3508;0.3920;
-3.9000;0.3500;0.3920;
-3.6000;0.3451;0.3847;
-3.3000;0.3492;0.4042;
-3.0000;0.3484;0.4066;
-2.7000;0.3492;0.4018;
-2.4000;0.3508;0.4091;
-2.1000;0.3500;0.3993;
-1.8000;0.3492;0.4140;
-1.5000;0.3516;0.4213;
-1.2000;0.3500;0.4237;
-0.9000;0.3516;0.4237;
-0.6000;0.3508;0.4188;
-0.3000;0.3516;0.4237;
0.0000;0.3516;0.4237;
0.3000;0.3508;0.4261;
0.6000;0.3655;0.4675;
0.9000;0.3744;0.4894;
1.2000;0.3826;0.5187;
1.5000;0.3858;0.5381;
1.8000;0.3891;0.5527;
2.1000;0.3915;0.5698;
2.4000;0.3956;0.5917;
2.7000;0.4021;0.6112;
3.0000;0.4037;0.6185;
3.3000;0.4046;0.6185;
3.6000;0.4046;0.6380;
3.9000;0.4070;0.6453;
4.2000;0.4086;0.6648;
4.5000;0.4086;0.6648;
4.8000;0.4094;0.6599;
5.1000;0.4094;0.6648;
5.4000;0.4111;0.6721;
5.7000;0.4103;0.6794;
6.0000;0.4070;0.6648;
6.3000;0.4127;0.6696;
6.6000;0.4160;0.6672;
6.9000;0.4135;0.6648;
7.2000;0.4135;0.6672;
7.5000;0.4135;0.6599;
7.8000;0.4160;0.6769;
8.1000;0.4151;0.6745;
8.4000;0.4249;0.7013;
8.7000;0.4225;0.6915;
9.0000;0.4184;0.6745;
9.3000;0.4192;0.6794;
9.6000;0.4176;0.6842;
9.9000;0.4192;0.6891;
10.2000;0.4208;0.6867;
10.5000;0.4208;0.6745;
10.8000;0.4200;0.6696;
11.1000;0.4217;0.6696;
11.4000;0.4208;0.6623;
11.7000;0.4249;0.6721;
12.0000;0.4184;0.6745;
12.3000;0.4274;0.6964;
12.6000;0.4217;0.6745;
12.9000;0.4249;0.6745;
13.2000;0.4249;0.6745;
13.5000;0.4257;0.6672;
13.8000;0.4265;0.6623;
14.1000;0.4290;0.6721;
14.4000;0.4265;0.6696;
14.7000;0.4257;0.6599;
15.0000;0.4249;0.6550;
15.3000;0.4265;0.6599;
15.6000;0.4282;0.6648;
15.9000;0.4274;0.6623;
16.2000;0.4282;0.6599;
16.5000;0.4282;0.6599;
16.8000;0.4290;0.6599;
17.1000;0.4282;0.6575;
17.4000;0.4290;0.6623;
17.7000;0.4290;0.6672;
18.0000;0.4306;0.6721;
18.3000;0.4282;0.6721;
18.6000;0.4290;0.6842;
18.9000;0.4306;0.6867;
19.2000;0.4330;0.6940;
19.5000;0.4306;0.6818;
19.8000;0.4314;0.6818;
20.1000;0.4306;0.6842;
20.4000;0.4306;0.6940;
20.7000;0.4322;0.6940;
21.0000;0.4330;0.6842;
21.3000;0.4322;0.6794;
21.6000;0.4282;0.6794;
21.9000;0.4330;0.6867;
22.2000;0.4330;0.6721;
22.5000;0.4330;0.6696;
22.8000;0.4298;0.6721;
23.1000;0.4339;0.6940;
23.4000;0.4339;0.6915;
23.7000;0.4339;0.6940;
24.0000;0.4339;0.6940;
24.3000;0.4355;0.6940;
24.6000;0.4339;0.6940;
24.9000;0.4355;0.6964;
25.2000;0.4330;0.6842;
25.5000;0.4339;0.6769;
25.8000;0.4396;0.6867;
26.1000;0.4387;0.6867;
26.4000;0.4322;0.6623;
26.7000;0.4363;0.6891;
27.0000;0.4363;0.6891;
27.3000;0.4461;0.7037;
27.6000;0.4379;0.6794;
27.9000;0.4371;0.6769;
28.2000;0.4363;0.6794;
28.5000;0.4396;0.6867;
28.8000;0.4371;0.6891;
29.1000;0.4379;0.6867;
29.4000;0.4379;0.6964;
29.7000;0.4387;0.6988;
30.0000;0.4387;0.6915;
30.3000;0.4314;0.6745;
30.6000;0.4428;0.6940;
30.9000;0.4404;0.6842;
31.2000;0.4387;0.6842;
31.5000;0.4420;0.6988;
31.8000;0.4387;0.6891;
32.1000;0.4396;0.6842;
32.4000;0.4387;0.6818;
32.7000;0.4387;0.6794;
33.0000;0.4371;0.6769;
33.3000;0.4396;0.6915;
33.6000;0.4355;0.6891;
33.9000;0.4396;0.6964;
34.2000;0.4412;0.6940;
34.5000;0.4363;0.6842;
34.8000;0.4396;0.6842;
35.1000;0.4404;0.6794;
35.4000;0.4396;0.6769;
35.7000;0.4387;0.6721;
36.0000;0.4428;0.6818;
36.3000;0.4444;0.6867;
36.6000;0.4412;0.6818;
36.9000;0.4412;0.6867;
37.2000;0.4420;0.6915;
37.5000;0.4444;0.6964;
37.8000;0.4363;0.6794;
38.1000;0.4436;0.6964;
38.4000;0.4412;0.6867;
38.7000;0.4428;0.6988;
39.0000;0.4420;0.6988;
39.3000;0.4444;0.7013;
39.6000;0.4453;0.7062;
39.9000;0.4428;0.6964;
40.2000;0.4412;0.7013;
40.5000;0.4436;0.7135;
40.8000;0.4412;0.7062;
41.1000;0.4436;0.7110;
41.4000;0.4355;0.6867;
41.7000;0.4404;0.6964;
42.0000;0.4404;0.6964;
42.3000;0.4420;0.7062;
42.6000;0.4420;0.7086;
42.9000;0.4444;0.7086;
43.2000;0.4428;0.6964;
43.5000;0.4453;0.6964;
43.8000;0.4453;0.6988;
44.1000;0.4412;0.6940;
44.4000;0.4379;0.6867;
44.7000;0.4420;0.6988;
45.0000;0.4461;0.7037;
45.3000;0.4420;0.6964;
45.6000;0.4428;0.6964;
45.9000;0.4444;0.6988;
46.2000;0.4436;0.6915;
46.5000;0.4444;0.6867;
46.8000;0.4420;0.6818;
47.1000;0.4379;0.6745;
47.4000;0.4436;0.6842;
47.7000;0.4428;0.6867;
48.0000;0.4436;0.6891;
48.3000;0.4444;0.6915;
48.6000;0.4436;0.6915;
48.9000;0.4453;0.6915;
49.2000;0.4412;0.6867;
49.5000;0.4420;0.6842;
49.8000;0.4444;0.6818;
50.1000;0.4461;0.6842;
50.4000;0.4436;0.6818;
50.7000;0.4453;0.6842;
51.0000;0.4453;0.6891;
51.3000;0.4428;0.6867;
51.6000;0.4453;0.6818;
51.9000;0.4436;0.6769;
52.2000;0.4436;0.6745;
52.5000;0.4453;0.6818;
52.8000;0.4444;0.6721;
53.1000;0.4444;0.6769;
53.4000;0.4453;0.6867;
53.7000;0.4469;0.7013;
54.0000;0.4461;0.7013;
54.3000;0.4436;0.6842;
54.6000;0.4453;0.6794;
54.9000;0.4453;0.6745;
55.2000;0.4461;0.6769;
55.5000;0.4469;0.6915;
55.8000;0.4461;0.6915;
56.1000;0.4461;0.6988;
56.4000;0.4461;0.6940;
56.7000;0.4461;0.6964;
57.0000;0.4436;0.6915;
57.3000;0.4453;0.6988;
57.6000;0.4469;0.6940;
57.9000;0.4453;0.6964;
58.2000;0.4461;0.7037;
58.5000;0.4550;0.7281;
58.8000;0.4444;0.7013;
59.1000;0.4469;0.7062;
59.4000;0.4477;0.7013;
59.7000;0.4477;0.7037;
60.0000;0.4477;0.7062;
60.3000;0.4461;0.6964;
60.6000;0.4469;0.6988;
60.9000;0.4396;0.6818;
61.2000;0.4453;0.6988;
61.5000;0.4469;0.6964;
61.8000;0.4493;0.6964;
62.1000;0.4453;0.6842;
62.4000;0.4461;0.6842;
62.7000;0.4485;0.6891;
63.0000;0.4558;0.7135;
63.3000;0.4453;0.6867;
63.6000;0.4453;0.6891;
63.9000;0.4477;0.6915;
64.2000;0.4477;0.6818;
64.5000;0.4485;0.6818;
64.8000;0.4469;0.6769;
65.1000;0.4477;0.6842;
65.4000;0.4453;0.6794;
65.7000;0.4469;0.6891;
66.0000;0.4453;0.6842;
66.3000;0.4461;0.6769;
66.6000;0.4477;0.6672;
66.9000;0.4444;0.6599;
67.2000;0.4461;0.6721;
67.5000;0.4501;0.6794;
67.8000;0.4477;0.6842;
68.1000;0.4469;0.6867;
68.4000;0.4477;0.6769;
68.7000;0.4469;0.6672;
69.0000;0.4461;0.6648;
69.3000;0.4420;0.6550;
69.6000;0.4469;0.6648;
69.9000;0.4477;0.6575;
70.2000;0.4485;0.6672;
70.5000;0.4469;0.6672;
70.8000;0.4461;0.6623;
71.1000;0.4469;0.6648;
71.4000;0.4485;0.6721;
71.7000;0.4477;0.6623;
72.0000;0.4477;0.6696;
72.3000;0.4469;0.6769;
72.6000;0.4477;0.6818;
72.9000;0.4510;0.6940;
73.2000;0.4477;0.6842;
73.5000;0.4477;0.6794;
73.8000;0.4485;0.6769;
74.1000;0.4477;0.6721;
74.4000;0.4485;0.6721;
74.7000;0.4469;0.6745;
75.0000;0.4501;0.6721;
75.3000;0.4477;0.6696;
75.6000;0.4485;0.6794;
75.9000;0.4493;0.6794;
76.2000;0.4469;0.6721;
76.5000;0.4461;0.6818;
76.8000;0.4428;0.6721;
77.1000;0.4526;0.6964;
77.4000;0.4412;0.6721;
77.7000;0.4469;0.6818;
78.0000;0.4461;0.6842;
78.3000;0.4501;0.6940;
78.6000;0.4444;0.6794;
78.9000;0.4493;0.6794;
79.2000;0.4477;0.6745;
79.5000;0.4493;0.6867;
79.8000;0.4436;0.6818;
80.1000;0.4444;0.6794;
80.4000;0.4493;0.6891;
80.7000;0.4469;0.6867;
81.0000;0.4469;0.6867;
81.3000;0.4477;0.6940;
81.6000;0.4518;0.7037;
81.9000;0.4477;0.6964;
82.2000;0.4485;0.6964;
82.5000;0.4526;0.7013;
82.8000;0.4518;0.6988;
83.1000;0.4485;0.6915;
83.4000;0.4501;0.6915;
83.7000;0.4477;0.6891;
84.0000;0.4493;0.6940;
84.3000;0.4493;0.6964;
84.6000;0.4477;0.6867;
84.9000;0.4469;0.6867;
85.2000;0.4469;0.6818;
85.5000;0.4493;0.6964;
85.8000;0.4518;0.7062;
86.1000;0.4461;0.6867;
86.4000;0.4485;0.6964;
86.7000;0.4469;0.7062;
87.0000;0.4485;0.7013;
87.3000;0.4510;0.7062;
87.6000;0.4485;0.6988;
87.9000;0.4477;0.7013;
88.2000;0.4477;0.7086;
88.5000;0.4485;0.7013;
88.8000;0.4477;0.6988;
89.1000;0.4469;0.7086;
89.4000;0.4485;0.7013;
89.7000;0.4461;0.6964;
90.0000;0.4477;0.6988;
90.3000;0.4510;0.7013;
90.6000;0.4493;0.6940;
90.9000;0.4550;0.6988;
91.2000;0.4477;0.6769;
91.5000;0.4477;0.6721;
91.8000;0.4477;0.6745;
92.1000;0.4477;0.6818;
92.4000;0.4469;0.6745;
92.7000;0.4469;0.6818;
93.0000;0.4477;0.6891;
93.3000;0.4477;0.6915;
93.6000;0.4493;0.6915;
93.9000;0.4461;0.6769;
94.2000;0.4534;0.6940;
94.5000;0.4485;0.6867;
94.8000;0.4493;0.6891;
95.1000;0.4485;0.6842;
95.4000;0.4534;0.6915;
95.7000;0.4575;0.7037;
96.0000;0.4493;0.6842;
96.3000;0.4477;0.6818;
96.6000;0.4469;0.6794;
96.9000;0.4461;0.6794;
97.2000;0.4534;0.6988;
97.5000;0.4493;0.6867;
97.8000;0.4493;0.6891;
98.1000;0.4493;0.7037;
98.4000;0.4477;0.7013;
98.7000;0.4485;0.7086;
99.0000;0.4477;0.7062;
99.3000;0.4485;0.6988;
99.6000;0.4461;0.6940;
99.9000;0.4477;0.6940;
100.2000;0.4485;0.6891;
100.5000;0.4493;0.6891;
100.8000;0.4485;0.6915;
101.1000;0.4501;0.6842;
101.4000;0.4510;0.6867;
101.7000;0.4477;0.6915;
102.0000;0.4485;0.6915;
102.3000;0.4493;0.6988;
102.6000;0.4477;0.6891;
102.9000;0.4477;0.6867;
103.2000;0.4477;0.6818;
103.5000;0.4485;0.6842;
103.8000;0.4485;0.6867;
104.1000;0.4477;0.6867;
104.4000;0.4493;0.6818;
104.7000;0.4485;0.6867;
105.0000;0.4501;0.6867;
105.3000;0.4485;0.6915;
105.6000;0.4493;0.6988;
105.9000;0.4510;0.7062;
106.2000;0.4485;0.6940;
106.5000;0.4550;0.7013;
106.8000;0.4477;0.6842;
107.1000;0.4477;0.6867;
107.4000;0.4485;0.6867;
107.7000;0.4485;0.6842;
108.0000;0.4469;0.6794;
108.3000;0.4493;0.6915;
108.6000;0.4501;0.6915;
108.9000;0.4493;0.6915;
109.2000;0.4485;0.6891;
109.5000;0.4477;0.6842;
109.8000;0.4493;0.6794;
110.1000;0.4485;0.6794;
110.4000;0.4477;0.6818;
110.7000;0.4493;0.6794;
111.0000;0.4485;0.6794;
111.3000;0.4485;0.6818;
111.6000;0.4477;0.6818;
111.9000;0.4469;0.6794;
112.2000;0.4469;0.6794;
112.5000;0.4461;0.6794;
112.8000;0.4477;0.6794;
113.1000;0.4477;0.6818;
113.4000;0.4469;0.6794;
113.7000;0.4477;0.6721;
114.0000;0.4428;0.6599;
114.3000;0.4477;0.6623;
114.6000;0.4485;0.6769;
114.9000;0.4501;0.6818;
115.2000;0.4493;0.6867;
115.5000;0.4485;0.6842;
115.8000;0.4493;0.6940;
116.1000;0.4501;0.6988;
116.4000;0.4469;0.6891;
116.7000;0.4501;0.6964;
117.0000;0.4485;0.6867;
117.3000;0.4485;0.6940;
117.6000;0.4501;0.6867;
117.9000;0.4493;0.6818;
118.2000;0.4493;0.6794;
118.5000;0.4501;0.6672;
118.8000;0.4558;0.6818;
119.1000;0.4526;0.6842;
119.4000;0.4510;0.6915;
119.7000;0.4493;0.6940;
120.0000;0.4542;0.7086;
120.3000;0.4501;0.6940;
120.6000;0.4493;0.6964;
120.9000;0.4493;0.7013;
121.2000;0.4469;0.6842;
121.5000;0.4485;0.6988;
121.8000;0.4485;0.7013;
122.1000;0.4477;0.6964;
122.4000;0.4485;0.6988;
122.7000;0.4493;0.7062;
123.0000;0.4477;0.7110;
123.3000;0.4485;0.7183;
123.6000;0.4493;0.7159;
123.9000;0.4485;0.7037;
124.2000;0.4501;0.6915;
124.5000;0.4493;0.6818;
124.8000;0.4485;0.6818;
125.1000;0.4493;0.6769;
125.4000;0.4493;0.6891;
125.7000;0.4485;0.6867;
126.0000;0.4485;0.6964;
126.3000;0.4477;0.6988;
126.6000;0.4493;0.7013;
126.9000;0.4493;0.6915;
127.2000;0.4477;0.6915;
127.5000;0.4575;0.7159;
127.8000;0.4493;0.6964;
128.1000;0.4518;0.7062;
128.4000;0.4469;0.6988;
128.7000;0.4485;0.6964;
129.0000;0.4493;0.7013;
129.3000;0.4510;0.7037;
129.6000;0.4518;0.7037;
129.9000;0.4485;0.6794;
130.2000;0.4485;0.6745;
130.5000;0.4493;0.6867;
130.8000;0.4477;0.6818;
131.1000;0.4477;0.6891;
131.4000;0.4485;0.7037;
131.7000;0.4469;0.6964;
132.0000;0.4469;0.6842;
132.3000;0.4485;0.6769;
132.6000;0.4477;0.6745;
132.9000;0.4493;0.6721;
133.2000;0.4485;0.6721;
133.5000;0.4493;0.6818;
133.8000;0.4558;0.7037;
134.1000;0.4477;0.6891;
134.4000;0.4493;0.6867;
134.7000;0.4493;0.6867;
135.0000;0.4477;0.6915;
135.3000;0.4469;0.6891;
135.6000;0.4493;0.6988;
135.9000;0.4485;0.6891;
136.2000;0.4485;0.6891;
136.5000;0.4493;0.6915;
136.8000;0.4493;0.6818;
137.1000;0.4501;0.6867;
137.4000;0.4493;0.6964;
137.7000;0.4477;0.6867;
138.0000;0.4493;0.6891;
138.3000;0.4485;0.6867;
138.6000;0.4485;0.6818;
138.9000;0.4501;0.6891;
139.2000;0.4558;0.7013;
139.5000;0.4501;0.6940;
139.8000;0.4493;0.6940;
140.1000;0.4461;0.6891;
140.4000;0.4493;0.6891;
140.7000;0.4510;0.6940;
141.0000;0.4477;0.7013;
141.3000;0.4501;0.7086;
141.6000;0.4510;0.7208;
141.9000;0.4444;0.7062;
142.2000;0.4493;0.7135;
142.5000;0.4477;0.7086;
142.8000;0.4493;0.7135;
143.1000;0.4485;0.7135;
143.4000;0.4444;0.7062;
143.7000;0.4436;0.6988;
144.0000;0.4485;0.7110;
144.3000;0.4510;0.7159;
144.6000;0.4501;0.7110;
144.9000;0.4493;0.7062;
145.2000;0.4485;0.7037;
145.5000;0.4485;0.7013;
145.8000;0.4469;0.6915;
146.1000;0.4469;0.6964;
146.4000;0.4493;0.6988;
146.7000;0.4485;0.7013;
147.0000;0.4469;0.7062;
147.3000;0.4485;0.7135;
147.6000;0.4477;0.7110;
147.9000;0.4493;0.7135;
148.2000;0.4485;0.7086;
148.5000;0.4501;0.7086;
148.8000;0.4453;0.6794;
149.1000;0.4534;0.6964;
149.4000;0.4493;0.6964;
149.7000;0.4501;0.6940;
150.0000;0.4493;0.6842;
150.3000;0.4428;0.6769;
150.6000;0.4485;0.6988;
150.9000;0.4510;0.7013;
151.2000;0.4485;0.6891;
151.5000;0.4493;0.6891;
151.8000;0.4534;0.7013;
152.1000;0.4510;0.7037;
152.4000;0.4428;0.6818;
152.7000;0.4493;0.6940;
153.0000;0.4493;0.6842;
153.3000;0.4477;0.6745;
153.6000;0.4526;0.6842;
153.9000;0.4396;0.6428;
154.2000;0.4510;0.6696;
154.5000;0.4501;0.6696;
154.8000;0.4493;0.6696;
155.1000;0.4501;0.6696;
155.4000;0.4510;0.6745;
155.7000;0.4501;0.6745;
156.0000;0.4526;0.6794;
156.3000;0.4493;0.6769;
156.6000;0.4485;0.6745;
156.9000;0.4542;0.6818;
157.2000;0.4550;0.6818;
157.5000;0.4501;0.6818;
157.8000;0.4485;0.6867;
158.1000;0.4477;0.6745;
158.4000;0.4493;0.6745;
158.7000;0.4501;0.6818;
159.0000;0.4477;0.6623;
159.3000;0.4493;0.6648;
159.6000;0.4501;0.6648;
159.9000;0.4493;0.6672;
160.2000;0.4485;0.6599;
160.5000;0.4501;0.6550;
160.8000;0.4485;0.6526;
161.1000;0.4493;0.6575;
161.4000;0.4493;0.6672;
161.7000;0.4485;0.6769;
162.0000;0.4493;0.6842;
162.3000;0.4501;0.6867;
162.6000;0.4493;0.6842;
162.9000;0.4510;0.6940;
163.2000;0.4477;0.6818;
163.5000;0.4518;0.6818;
163.8000;0.4501;0.6794;
164.1000;0.4501;0.6721;
164.4000;0.4510;0.6721;
164.7000;0.4501;0.6696;
165.0000;0.4526;0.6745;
165.3000;0.4485;0.6696;
165.6000;0.4501;0.6721;
165.9000;0.4510;0.6794;
166.2000;0.4493;0.6915;
166.5000;0.4493;0.6915;
166.8000;0.4461;0.6721;
167.1000;0.4518;0.6818;
167.4000;0.4501;0.6696;
167.7000;0.4485;0.6672;
168.0000;0.4485;0.6818;
168.3000;0.4501;0.6794;
168.6000;0.4501;0.6794;
168.9000;0.4469;0.6696;
169.2000;0.4493;0.6769;
169.5000;0.4477;0.6745;
169.8000;0.4493;0.6818;
170.1000;0.4485;0.6745;
170.4000;0.4469;0.6745;
170.7000;0.4510;0.6818;
171.0000;0.4485;0.6794;
171.3000;0.4501;0.6867;
171.6000;0.4501;0.6867;
171.9000;0.4485;0.6867;
172.2000;0.4493;0.6915;
172.5000;0.4420;0.6696;
172.8000;0.4485;0.6769;
173.1000;0.4485;0.6769;
173.4000;0.4485;0.6769;
173.7000;0.4501;0.6769;
174.0000;0.4469;0.6721;
174.3000;0.4420;0.6599;
174.6000;0.4420;0.6696;
174.9000;0.4493;0.6891;
175.2000;0.4485;0.6891;
175.5000;0.4567;0.7159;
175.8000;0.4477;0.7013;
176.1000;0.4518;0.7062;
176.4000;0.4526;0.7062;
176.7000;0.4485;0.6964;
177.0000;0.4526;0.6988;
177.3000;0.4469;0.6769;
177.6000;0.4583;0.7159;
177.9000;0.4485;0.6915;
178.2000;0.4501;0.6940;
178.5000;0.4510;0.6988;
178.8000;0.4526;0.7013;
179.1000;0.4518;0.6964;
179.4000;0.4493;0.6891;
179.7000;0.4501;0.6891;
180.0000;0.4493;0.6867;
180.3000;0.4477;0.6891;
180.6000;0.4493;0.6988;
180.9000;0.4542;0.7037;
181.2000;0.4493;0.6988;
181.5000;0.4485;0.6940;
181.8000;0.4485;0.6915;
182.1000;0.4485;0.6940;
182.4000;0.4501;0.6940;
182.7000;0.4493;0.6940;
183.0000;0.4477;0.6891;
183.3000;0.4493;0.6794;
183.6000;0.4485;0.6769;
183.9000;0.4485;0.6818;
184.2000;0.4493;0.6745;
184.5000;0.4493;0.6818;
184.8000;0.4477;0.6818;
185.1000;0.4493;0.6769;
185.4000;0.4485;0.6769;
185.7000;0.4485;0.6842;
186.0000;0.4493;0.6891;
186.3000;0.4501;0.6915;
186.6000;0.4469;0.6818;
186.9000;0.4493;0.6794;
187.2000;0.4485;0.6672;
187.5000;0.4493;0.6745;
187.8000;0.4518;0.6818;
188.1000;0.4501;0.6721;
188.4000;0.4591;0.6915;
188.7000;0.4477;0.6648;
189.0000;0.4501;0.6623;
189.3000;0.4469;0.6623;
189.6000;0.4493;0.6794;
189.9000;0.4485;0.6818;
190.2000;0.4493;0.6818;
190.5000;0.4493;0.6818;
190.8000;0.4453;0.6721;
191.1000;0.4510;0.6867;
191.4000;0.4591;0.7110;
191.7000;0.4501;0.6818;
192.0000;0.4493;0.6842;
192.3000;0.4526;0.6988;
192.6000;0.4518;0.7037;
192.9000;0.4493;0.7037;
193.2000;0.4428;0.6940;
193.5000;0.4469;0.7037;
193.8000;0.4477;0.7037;
194.1000;0.4477;0.7037;
194.4000;0.4485;0.7013;
194.7000;0.4493;0.7013;
195.0000;0.4493;0.7037;
195.3000;0.4477;0.6940;
195.6000;0.4477;0.6940;
195.9000;0.4477;0.6891;
196.2000;0.4501;0.6915;
196.5000;0.4510;0.6891;
196.8000;0.4436;0.6721;
197.1000;0.4493;0.6891;
197.4000;0.4485;0.6915;
197.7000;0.4477;0.6818;
198.0000;0.4510;0.6940;
198.3000;0.4453;0.6794;
198.6000;0.4493;0.6915;
198.9000;0.4477;0.6915;
199.2000;0.4469;0.6915;
199.5000;0.4518;0.7062;
199.8000;0.4485;0.6988;
200.1000;0.4501;0.7062;
200.4000;0.4493;0.7037;
200.7000;0.4485;0.7062;
201.0000;0.4493;0.6988;
201.3000;0.4510;0.6915;
201.6000;0.4518;0.6940;
201.9000;0.4501;0.6915;
202.2000;0.4501;0.6940;
202.5000;0.4501;0.6964;
202.8000;0.4518;0.7037;
203.1000;0.4501;0.6915;
203.4000;0.4493;0.6867;
203.7000;0.4493;0.6867;
204.0000;0.4428;0.6672;
204.3000;0.4534;0.6964;
204.6000;0.4493;0.6818;
204.9000;0.4501;0.6818;
205.2000;0.4493;0.6794;
205.5000;0.4493;0.6721;
205.8000;0.4493;0.6818;
206.1000;0.4542;0.7013;
206.4000;0.4493;0.6867;
206.7000;0.4510;0.6867;
207.0000;0.4501;0.6794;
207.3000;0.4501;0.6794;
207.6000;0.4493;0.6769;
207.9000;0.4518;0.6867;
208.2000;0.4501;0.6867;
208.5000;0.4485;0.6842;
208.8000;0.4485;0.6867;
209.1000;0.4493;0.6867;
209.4000;0.4518;0.6964;
209.7000;0.4485;0.6891;
210.0000;0.4493;0.6867;
210.3000;0.4501;0.6891;
210.6000;0.4501;0.6867;
210.9000;0.4485;0.6818;
211.2000;0.4485;0.6794;
211.5000;0.4534;0.6891;
211.8000;0.4518;0.6794;
212.1000;0.4501;0.6745;
212.4000;0.4485;0.6648;
212.7000;0.4501;0.6721;
213.0000;0.4510;0.6818;
213.3000;0.4501;0.6818;
213.6000;0.4493;0.6818;
213.9000;0.4469;0.6769;
214.2000;0.4485;0.6794;
214.5000;0.4501;0.6867;
214.8000;0.4485;0.6745;
215.1000;0.4485;0.6721;
215.4000;0.4469;0.6648;
215.7000;0.4501;0.6696;
216.0000;0.4493;0.6769;
216.3000;0.4501;0.6842;
216.6000;0.4501;0.6769;
216.9000;0.4510;0.6794;
217.2000;0.4477;0.6842;
217.5000;0.4485;0.6940;
217.8000;0.4485;0.6964;
218.1000;0.4493;0.6964;
218.4000;0.4477;0.6964;
218.7000;0.4501;0.7086;
219.0000;0.4485;0.7110;
219.3000;0.4469;0.6988;
219.6000;0.4444;0.6988;
219.9000;0.4485;0.7110;
220.2000;0.4493;0.7013;
220.5000;0.4526;0.7086;
220.8000;0.4501;0.7013;
221.1000;0.4501;0.7062;
221.4000;0.4493;0.7037;
221.7000;0.4493;0.6988;
222.0000;0.4510;0.6988;
222.3000;0.4485;0.6891;
222.6000;0.4518;0.7037;
222.9000;0.4493;0.6988;
223.2000;0.4493;0.7013;
223.5000;0.4510;0.6988;
223.8000;0.4501;0.7013;
224.1000;0.4461;0.6867;
224.4000;0.4493;0.6940;
224.7000;0.4501;0.6988;
225.0000;0.4477;0.6964;
225.3000;0.4477;0.6891;
225.6000;0.4550;0.7013;
225.9000;0.4501;0.6915;
226.2000;0.4485;0.6867;
226.5000;0.4477;0.6842;
226.8000;0.4493;0.6891;
227.1000;0.4485;0.6794;
227.4000;0.4493;0.6745;
227.7000;0.4501;0.6842;
228.0000;0.4501;0.6867;
228.3000;0.4501;0.6915;
228.6000;0.4510;0.7013;
228.9000;0.4493;0.6915;
229.2000;0.4477;0.6940;
229.5000;0.4461;0.6867;
229.8000;0.4493;0.7013;
230.1000;0.4485;0.6940;
230.4000;0.4493;0.6867;
230.7000;0.4501;0.6794;
231.0000;0.4469;0.6769;
231.3000;0.4477;0.6794;
231.6000;0.4485;0.6818;
231.9000;0.4493;0.6794;
232.2000;0.4518;0.6915;
232.5000;0.4501;0.6988;
232.8000;0.4501;0.6915;
233.1000;0.4493;0.6891;
233.4000;0.4485;0.6891;
233.7000;0.4493;0.6964;
234.0000;0.4493;0.7013;
234.3000;0.4485;0.6988;
234.6000;0.4518;0.7062;
234.9000;0.4453;0.6891;
235.2000;0.4493;0.7110;
235.5000;0.4453;0.6964;
235.8000;0.4510;0.7037;
236.1000;0.4501;0.6940;
236.4000;0.4501;0.6842;
236.7000;0.4510;0.6818;
237.0000;0.4510;0.6794;
237.3000;0.4510;0.6842;
237.6000;0.4518;0.6794;
237.9000;0.4518;0.6891;
238.2000;0.4518;0.6818;
238.5000;0.4485;0.6842;
238.8000;0.4469;0.6794;
239.1000;0.4477;0.6818;
239.4000;0.4485;0.6842;
239.7000;0.4485;0.6891;
240.0000;0.4501;0.6842;
240.3000;0.4485;0.6842;
240.6000;0.4485;0.6867;
240.9000;0.4477;0.6891;
241.2000;0.4477;0.6915;
241.5000;0.4493;0.7037;
241.8000;0.4493;0.6915;
242.1000;0.4469;0.6769;
242.4000;0.4510;0.6940;
242.7000;0.4485;0.6964;
243.0000;0.4501;0.6988;
243.3000;0.4493;0.6940;
243.6000;0.4510;0.7062;
243.9000;0.4493;0.6988;
244.2000;0.4501;0.6940;
244.5000;0.4493;0.6842;
244.8000;0.4501;0.6769;
245.1000;0.4526;0.6818;
245.4000;0.4493;0.6745;
245.7000;0.4453;0.6672;
246.0000;0.4461;0.6721;
246.3000;0.4501;0.6745;
246.6000;0.4485;0.6721;
246.9000;0.4485;0.6721;
247.2000;0.4493;0.6769;
247.5000;0.4501;0.6818;
247.8000;0.4501;0.6842;
248.1000;0.4485;0.6842;
248.4000;0.4501;0.6842;
248.7000;0.4493;0.6769;
249.0000;0.4501;0.6745;
249.3000;0.4501;0.6769;
249.6000;0.4493;0.6794;
249.9000;0.4550;0.6842;
250.2000;0.4518;0.6818;
250.5000;0.4510;0.6842;
250.8000;0.4493;0.6867;
251.1000;0.4493;0.6940;
251.4000;0.4493;0.7037;
251.7000;0.4493;0.6988;
252.0000;0.4469;0.6891;
252.3000;0.4510;0.6867;
252.6000;0.4501;0.6842;
252.9000;0.4501;0.6794;
253.2000;0.4477;0.6745;
253.5000;0.4485;0.6769;
253.8000;0.4493;0.6842;
254.1000;0.4477;0.6818;
254.4000;0.4493;0.6891;
254.7000;0.4485;0.6818;
255.0000;0.4493;0.6745;
255.3000;0.4550;0.6940;
255.6000;0.4493;0.6818;
255.9000;0.4501;0.6891;
256.2000;0.4501;0.6867;
256.5000;0.4485;0.6891;
256.8000;0.4526;0.6915;
257.1000;0.4485;0.6745;
257.4000;0.4501;0.6794;
257.7000;0.4501;0.6818;
258.0000;0.4501;0.6842;
258.3000;0.4493;0.6794;
258.6000;0.4485;0.6842;
258.9000;0.4493;0.6940;
259.2000;0.4501;0.7013;
259.5000;0.4477;0.6964;
259.8000;0.4477;0.6842;
260.1000;0.4493;0.6818;
260.4000;0.4526;0.6940;
260.7000;0.4501;0.6915;
261.0000;0.4493;0.6915;
261.3000;0.4493;0.6842;
261.6000;0.4501;0.6818;
261.9000;0.4493;0.6794;
262.2000;0.4510;0.6842;
262.5000;0.4501;0.6794;
262.8000;0.4510;0.6818;
263.1000;0.4501;0.6842;
263.4000;0.4477;0.6745;
263.7000;0.4493;0.6818;
264.0000;0.4485;0.6818;
264.3000;0.4485;0.6696;
264.6000;0.4493;0.6696;
264.9000;0.4493;0.6623;
265.2000;0.4510;0.6648;
265.5000;0.4510;0.6696;
265.8000;0.4501;0.6721;
266.1000;0.4493;0.6721;
266.4000;0.4510;0.6842;
266.7000;0.4461;0.6721;
267.0000;0.4518;0.6915;
267.3000;0.4501;0.6891;
267.6000;0.4526;0.6964;
267.9000;0.4526;0.6988;
268.2000;0.4510;0.6915;
268.5000;0.4510;0.6915;
268.8000;0.4501;0.6964;
269.1000;0.4436;0.6818;
269.4000;0.4510;0.7013;
269.7000;0.4493;0.6940;
270.0000;0.4477;0.6769;
270.3000;0.4501;0.6818;
270.6000;0.4510;0.6818;
270.9000;0.4461;0.6648;
271.2000;0.4501;0.6842;
271.5000;0.4485;0.6867;
271.8000;0.4542;0.7013;
272.1000;0.4485;0.6915;
272.4000;0.4477;0.6867;
272.7000;0.4477;0.6915;
273.0000;0.4404;0.6648;
273.3000;0.4453;0.6745;
273.6000;0.4485;0.6745;
273.9000;0.4404;0.6501;
274.2000;0.4518;0.6769;
274.5000;0.4501;0.6672;
274.8000;0.4396;0.6453;
275.1000;0.4493;0.6696;
275.4000;0.4501;0.6623;
275.7000;0.4485;0.6623;
276.0000;0.4477;0.6550;
276.3000;0.4493;0.6672;
276.6000;0.4493;0.6721;
276.9000;0.4501;0.6721;
277.2000;0.4485;0.6721;
277.5000;0.4477;0.6575;
277.8000;0.4493;0.6623;
278.1000;0.4485;0.6623;
278.4000;0.4501;0.6672;
278.7000;0.4493;0.6721;
279.0000;0.4501;0.6696;
279.3000;0.4493;0.6696;
279.6000;0.4501;0.6818;
279.9000;0.4501;0.6794;
280.2000;0.4485;0.6867;
280.5000;0.4510;0.6964;
280.8000;0.4501;0.6964;
281.1000;0.4510;0.6964;
281.4000;0.4501;0.6891;
281.7000;0.4485;0.6867;
282.0000;0.4493;0.6867;
282.3000;0.4501;0.6818;
282.6000;0.4493;0.6818;
282.9000;0.4469;0.6696;
283.2000;0.4510;0.6769;
283.5000;0.4510;0.6721;
283.8000;0.4485;0.6672;
284.1000;0.4493;0.6745;
284.4000;0.4477;0.6721;
284.7000;0.4518;0.6794;
285.0000;0.4485;0.6721;
285.3000;0.4444;0.6648;
285.6000;0.4518;0.6842;
285.9000;0.4461;0.6696;
286.2000;0.4485;0.6721;
286.5000;0.4477;0.6696;
286.8000;0.4485;0.6721;
287.1000;0.4485;0.6745;
287.4000;0.4501;0.6696;
287.7000;0.4477;0.6721;
288.0000;0.4485;0.6794;
288.3000;0.4485;0.6745;
288.6000;0.4469;0.6696;
288.9000;0.4485;0.6672;
289.2000;0.4518;0.6648;
289.5000;0.4501;0.6648;
289.8000;0.4518;0.6672;
290.1000;0.4501;0.6672;
290.4000;0.4567;0.6867;
290.7000;0.4493;0.6794;
291.0000;0.4501;0.6818;
291.3000;0.4526;0.6940;
291.6000;0.4453;0.6769;
291.9000;0.4493;0.6842;
292.2000;0.4477;0.6696;
292.5000;0.4485;0.6696;
292.8000;0.4485;0.6721;
293.1000;0.4501;0.6769;
293.4000;0.4510;0.6769;
293.7000;0.4518;0.6769;
294.0000;0.4501;0.6745;
294.3000;0.4493;0.6745;
294.6000;0.4493;0.6721;
294.9000;0.4542;0.6794;
295.2000;0.4501;0.6745;
295.5000;0.4485;0.6794;
295.8000;0.4501;0.6867;
296.1000;0.4493;0.6794;
296.4000;0.4485;0.6721;
296.7000;0.4477;0.6745;
297.0000;0.4485;0.6721;
297.3000;0.4485;0.6721;
297.6000;0.4485;0.6794;
297.9000;0.4485;0.6867;
298.2000;0.4501;0.6964;
298.5000;0.4493;0.7013;
298.8000;0.4493;0.7037;
299.1000;0.4477;0.6915;
299.4000;0.4485;0.6867;
299.7000;0.4501;0.6915;
300.0000;0.4493;0.6842;
300.3000;0.4493;0.6867;
300.6000;0.4501;0.6842;
300.9000;0.4518;0.6745;
301.2000;0.4501;0.6745;
301.5000;0.4493;0.6794;
301.8000;0.4493;0.6891;
302.1000;0.4501;0.6891;
302.4000;0.4493;0.6915;
302.7000;0.4501;0.7013;
303.0000;0.4493;0.6964;
303.3000;0.4485;0.7062;
303.6000;0.4485;0.7135;
303.9000;0.4493;0.7159;
304.2000;0.4501;0.7135;
304.5000;0.4485;0.7037;
304.8000;0.4493;0.7086;
305.1000;0.4493;0.7086;
305.4000;0.4493;0.6964;
305.7000;0.4485;0.6867;
306.0000;0.4493;0.6696;
306.3000;0.4518;0.6672;
306.6000;0.4493;0.6648;
306.9000;0.4436;0.6501;
307.2000;0.4469;0.6575;
307.5000;0.4493;0.6721;
307.8000;0.4453;0.6550;
308.1000;0.4550;0.6818;
308.4000;0.4485;0.6599;
308.7000;0.4501;0.6599;
309.0000;0.4501;0.6696;
309.3000;0.4550;0.6842;
309.6000;0.4501;0.6867;
309.9000;0.4510;0.6794;
310.2000;0.4493;0.6842;
310.5000;0.4526;0.6964;
310.8000;0.4510;0.6964;
311.1000;0.4477;0.6915;
311.4000;0.4493;0.6964;
311.7000;0.4493;0.6915;
312.0000;0.4469;0.6940;
312.3000;0.4477;0.7037;
312.6000;0.4493;0.7013;
312.9000;0.4485;0.6988;
313.2000;0.4485;0.6964;
313.5000;0.4493;0.6867;
313.8000;0.4493;0.6867;
314.1000;0.4501;0.6794;
314.4000;0.4510;0.6769;
314.7000;0.4510;0.6891;
315.0000;0.4510;0.6964;
315.3000;0.4526;0.7013;
315.6000;0.4420;0.6842;
315.9000;0.4469;0.6940;
316.2000;0.4485;0.6988;
316.5000;0.4510;0.7037;
316.8000;0.4501;0.7013;
317.1000;0.4493;0.7062;
317.4000;0.4493;0.6988;
317.7000;0.4461;0.6818;
318.0000;0.4493;0.6794;
318.3000;0.4477;0.6745;
318.6000;0.4485;0.6842;
318.9000;0.4510;0.6940;
319.2000;0.4485;0.6964;
319.5000;0.4501;0.6867;
319.8000;0.4477;0.6818;
320.1000;0.4575;0.7013;
320.4000;0.4518;0.6842;
320.7000;0.4485;0.6745;
321.0000;0.4477;0.6648;
321.3000;0.4469;0.6501;
321.6000;0.4501;0.6526;
321.9000;0.4477;0.6477;
322.2000;0.4493;0.6501;
322.5000;0.4477;0.6477;
322.8000;0.4493;0.6526;
323.1000;0.4469;0.6599;
323.4000;0.4493;0.6721;
323.7000;0.4493;0.6672;
324.0000;0.4501;0.6599;
324.3000;0.4501;0.6648;
324.6000;0.4485;0.6526;
324.9000;0.4485;0.6575;
325.2000;0.4493;0.6623;
325.5000;0.4493;0.6648;
325.8000;0.4469;0.6575;
326.1000;0.4493;0.6696;
326.4000;0.4493;0.6526;
326.7000;0.4493;0.6453;
327.0000;0.4493;0.6501;
327.3000;0.4485;0.6477;
327.6000;0.4453;0.6380;
327.9000;0.4493;0.6477;
328.2000;0.4453;0.6453;
328.5000;0.4534;0.6623;
328.8000;0.4493;0.6550;
329.1000;0.4493;0.6599;
329.4000;0.4510;0.6696;
329.7000;0.4485;0.6648;
330.0000;0.4510;0.6648;
330.3000;0.4550;0.6794;
330.6000;0.4477;0.6526;
330.9000;0.4526;0.6477;
331.2000;0.4469;0.6355;
331.5000;0.4583;0.6745;
331.8000;0.4542;0.6696;
332.1000;0.4542;0.6672;
332.4000;0.4477;0.6672;
332.7000;0.4477;0.6648;
333.0000;0.4493;0.6599;
333.3000;0.4469;0.6526;
333.6000;0.4510;0.6648;
333.9000;0.4510;0.6623;
334.2000;0.4510;0.6599;
334.5000;0.4501;0.6672;
334.8000;0.4428;0.6501;
335.1000;0.4485;0.6696;
335.4000;0.4485;0.6721;
335.7000;0.4469;0.6721;
336.0000;0.4534;0.6940;
336.3000;0.4477;0.6745;
336.6000;0.4493;0.6745;
336.9000;0.4493;0.6842;
337.2000;0.4485;0.6818;
337.5000;0.4510;0.6842;
337.8000;0.4477;0.6696;
338.1000;0.4485;0.6672;
338.4000;0.4493;0.6599;
338.7000;0.4493;0.6623;
339.0000;0.4501;0.6721;
339.3000;0.4501;0.6794;
339.6000;0.4501;0.6794;
339.9000;0.4493;0.6769;
340.2000;0.4493;0.6818;
340.5000;0.4485;0.6794;
340.8000;0.4485;0.6721;
341.1000;0.4477;0.6769;
341.4000;0.4477;0.6842;
341.7000;0.4542;0.6915;
342.0000;0.4485;0.6891;
342.3000;0.4428;0.6696;
342.6000;0.4477;0.6867;
342.9000;0.4469;0.6915;
343.2000;0.4477;0.6964;
343.5000;0.4485;0.6940;
343.8000;0.4477;0.6940;
344.1000;0.4412;0.6696;
344.4000;0.4485;0.6891;
344.7000;0.4477;0.6818;
345.0000;0.4485;0.6867;
345.3000;0.4412;0.6745;
345.6000;0.4485;0.6867;
345.9000;0.4477;0.6842;
346.2000;0.4477;0.6891;
346.5000;0.4493;0.6842;
346.8000;0.4501;0.6842;
347.1000;0.4477;0.6842;
347.4000;0.4501;0.6915;
347.7000;0.4485;0.6867;
348.0000;0.4493;0.6867;
348.3000;0.4485;0.6891;
348.6000;0.4493;0.6794;
348.9000;0.4477;0.6794;
349.2000;0.4477;0.6794;
349.5000;0.4493;0.6818;
349.8000;0.4501;0.6891;
350.1000;0.4493;0.6915;
350.4000;0.4461;0.6867;
350.7000;0.4485;0.7013;
351.0000;0.4501;0.6988;
351.3000;0.4485;0.6964;
351.6000;0.4518;0.6988;
351.9000;0.4485;0.6867;
352.2000;0.4501;0.6867;
352.5000;0.4493;0.6842;
352.8000;0.4501;0.6867;
353.1000;0.4501;0.6842;
353.4000;0.4493;0.6721;
353.7000;0.4493;0.6721;
354.0000;0.4501;0.6769;
354.3000;0.4485;0.6818;
354.6000;0.4453;0.6794;
354.9000;0.4453;0.6818;
355.2000;0.4461;0.6867;
355.5000;0.4477;0.6940;
355.8000;0.4493;0.6940;
356.1000;0.4501;0.7013;
356.4000;0.4534;0.7159;
356.7000;0.4485;0.7037;
357.0000;0.4461;0.7013;
357.3000;0.4501;0.6964;
357.6000;0.4453;0.6818;
357.9000;0.4477;0.6867;
358.2000;0.4501;0.6891;
358.5000;0.4493;0.6915;
358.8000;0.4558;0.7037;
359.1000;0.4485;0.6842;
359.4000;0.4469;0.6794;
359.7000;0.4493;0.6867;
360.0000;0.4493;0.6818;
360.3000;0.4493;0.6818;
360.6000;0.4575;0.7183;
360.9000;0.4461;0.6964;
361.2000;0.4461;0.6940;
361.5000;0.4461;0.6891;
361.8000;0.4493;0.6964;
362.1000;0.4501;0.6915;
362.4000;0.4510;0.6891;
362.7000;0.4510;0.6867;
363.0000;0.4501;0.6867;
363.3000;0.4493;0.6915;
363.6000;0.4477;0.6818;
363.9000;0.4485;0.6964;
364.2000;0.4534;0.7013;
364.5000;0.4493;0.6891;
364.8000;0.4469;0.6867;
365.1000;0.4477;0.6842;
365.4000;0.4436;0.6648;
365.7000;0.4477;0.6721;
366.0000;0.4493;0.6794;
366.3000;0.4493;0.6794;
366.6000;0.4461;0.6648;
366.9000;0.4461;0.6672;
367.2000;0.4453;0.6599;
367.5000;0.4493;0.6672;
367.8000;0.4493;0.6648;
368.1000;0.4412;0.6501;
368.4000;0.4485;0.6721;
368.7000;0.4477;0.6672;
369.0000;0.4469;0.6672;
369.3000;0.4485;0.6696;
369.6000;0.4469;0.6818;
369.9000;0.4485;0.6745;
370.2000;0.4485;0.6696;
370.5000;0.4461;0.6672;
370.8000;0.4477;0.6721;
371.1000;0.4477;0.6696;
371.4000;0.4469;0.6769;
371.7000;0.4477;0.6842;
372.0000;0.4477;0.6891;
372.3000;0.4461;0.6867;
372.6000;0.4477;0.6867;
372.9000;0.4477;0.6915;
373.2000;0.4485;0.6988;
373.5000;0.4501;0.7037;
373.8000;0.4510;0.7013;
374.1000;0.4510;0.6964;
374.4000;0.4485;0.6940;
374.7000;0.4510;0.6964;
375.0000;0.4469;0.6867;
375.3000;0.4501;0.7013;
375.6000;0.4485;0.6964;
375.9000;0.4485;0.6964;
376.2000;0.4510;0.6940;
376.5000;0.4510;0.6988;
376.8000;0.4501;0.6940;
377.1000;0.4493;0.6964;
377.4000;0.4493;0.6915;
377.7000;0.4493;0.6891;
378.0000;0.4485;0.6915;
378.3000;0.4485;0.6915;
378.6000;0.4469;0.6891;
378.9000;0.4493;0.6940;
379.2000;0.4477;0.6940;
379.5000;0.4542;0.7013;
379.8000;0.4485;0.6915;
380.1000;0.4493;0.6915;
380.4000;0.4493;0.6988;
380.7000;0.4485;0.6988;
381.0000;0.4485;0.7062;
381.3000;0.4493;0.7013;
381.6000;0.4485;0.6988;
381.9000;0.4485;0.6988;
382.2000;0.4469;0.6915;
382.5000;0.4469;0.6915;
382.8000;0.4477;0.6915;
383.1000;0.4493;0.6915;
383.4000;0.4428;0.6745;
383.7000;0.4493;0.6940;
384.0000;0.4493;0.6964;
384.3000;0.4542;0.7062;
384.6000;0.4485;0.6915;
384.9000;0.4501;0.6964;
385.2000;0.4501;0.6964;
385.5000;0.4534;0.7062;
385.8000;0.4493;0.6915;
386.1000;0.4485;0.6891;
386.4000;0.4420;0.6721;
386.7000;0.4461;0.6867;
387.0000;0.4493;0.6964;
387.3000;0.4485;0.6867;
387.6000;0.4501;0.6818;
387.9000;0.4510;0.6891;
388.2000;0.4501;0.6891;
388.5000;0.4485;0.6842;
388.8000;0.4493;0.6842;
389.1000;0.4485;0.6891;
389.4000;0.4469;0.6891;
389.7000;0.4558;0.7086;
390.0000;0.4501;0.6891;
390.3000;0.4493;0.6842;
390.6000;0.4493;0.6842;
390.9000;0.4493;0.6818;
391.2000;0.4501;0.6842;
391.5000;0.4501;0.6842;
391.8000;0.4510;0.6891;
392.1000;0.4518;0.7013;
392.4000;0.4485;0.6915;
392.7000;0.4485;0.6867;
393.0000;0.4493;0.6940;
393.3000;0.4485;0.6940;
393.6000;0.4477;0.6940;
393.9000;0.4485;0.6940;
394.2000;0.4542;0.7037;
394.5000;0.4501;0.6891;
394.8000;0.4493;0.6891;
395.1000;0.4485;0.6891;
395.4000;0.4518;0.6940;
395.7000;0.4510;0.6915;
396.0000;0.4485;0.6988;
396.3000;0.4501;0.7062;
396.6000;0.4485;0.7086;
396.9000;0.4501;0.7037;
397.2000;0.4493;0.6940;
397.5000;0.4485;0.6891;
397.8000;0.4493;0.6867;
398.1000;0.4510;0.6891;
398.4000;0.4485;0.6842;
398.7000;0.4501;0.6842;
399.0000;0.4493;0.6842;
399.3000;0.4501;0.6891;
399.6000;0.4501;0.6915;
399.9000;0.4485;0.6867;
400.2000;0.4485;0.6964;
400.5000;0.4493;0.6964;
400.8000;0.4477;0.6964;
401.1000;0.4420;0.6794;
401.4000;0.4501;0.7037;
401.7000;0.4453;0.6794;
402.0000;0.4485;0.6867;
402.3000;0.4428;0.6721;
402.6000;0.4485;0.6794;
402.9000;0.4558;0.6940;
403.2000;0.4493;0.6696;
403.5000;0.4444;0.6526;
403.8000;0.4477;0.6623;
404.1000;0.4501;0.6696;
404.4000;0.4501;0.6696;
404.7000;0.4493;0.6696;
405.0000;0.4469;0.6696;
405.3000;0.4412;0.6501;
405.6000;0.4477;0.6672;
405.9000;0.4493;0.6769;
406.2000;0.4493;0.6721;
406.5000;0.4436;0.6648;
406.8000;0.4510;0.6867;
407.1000;0.4493;0.6794;
407.4000;0.4510;0.6745;
407.7000;0.4469;0.6599;
408.0000;0.4493;0.6623;
408.3000;0.4526;0.6745;
408.6000;0.4493;0.6696;
408.9000;0.4477;0.6721;
409.2000;0.4485;0.6696;
409.5000;0.4493;0.6623;
409.8000;0.4485;0.6721;
410.1000;0.4461;0.6721;
410.4000;0.4436;0.6648;
410.7000;0.4510;0.6915;
411.0000;0.4510;0.6891;
411.3000;0.4501;0.6842;
411.6000;0.4493;0.6818;
411.9000;0.4510;0.6794;
412.2000;0.4501;0.6745;
412.5000;0.4469;0.6721;
412.8000;0.4477;0.6745;
413.1000;0.4493;0.6721;
413.4000;0.4493;0.6721;
413.7000;0.4493;0.6745;
414.0000;0.4469;0.6769;
414.3000;0.4485;0.6672;
414.6000;0.4485;0.6769;
414.9000;0.4477;0.6794;
415.2000;0.4477;0.6867;
415.5000;0.4493;0.6842;
415.8000;0.4477;0.6818;
416.1000;0.4501;0.6794;
416.4000;0.4485;0.6721;
416.7000;0.4477;0.6769;
417.0000;0.4493;0.6696;
417.3000;0.4510;0.6696;
417.6000;0.4493;0.6672;
417.9000;0.4469;0.6599;
418.2000;0.4469;0.6721;
418.5000;0.4493;0.6794;
418.8000;0.4477;0.6769;
419.1000;0.4493;0.6794;
419.4000;0.4461;0.6721;
419.7000;0.4485;0.6867;
420.0000;0.4493;0.6940;
420.3000;0.4485;0.6940;
420.6000;0.4485;0.6915;
420.9000;0.4493;0.6988;
421.2000;0.4469;0.6964;
421.5000;0.4461;0.6891;
421.8000;0.4501;0.6988;
422.1000;0.4501;0.6964;
422.4000;0.4518;0.7013;
422.7000;0.4550;0.7086;
423.0000;0.4501;0.6940;
423.3000;0.4542;0.7062;
423.6000;0.4453;0.6794;
423.9000;0.4436;0.6648;
424.2000;0.4485;0.6745;
424.5000;0.4501;0.6818;
424.8000;0.4469;0.6721;
425.1000;0.4493;0.6696;
425.4000;0.4518;0.6818;
425.7000;0.4542;0.6794;
426.0000;0.4510;0.6696;
426.3000;0.4493;0.6648;
426.6000;0.4477;0.6501;
426.9000;0.4534;0.6575;
427.2000;0.4493;0.6526;
427.5000;0.4493;0.6648;
427.8000;0.4501;0.6623;
428.1000;0.4477;0.6648;
428.4000;0.4453;0.6575;
428.7000;0.4485;0.6672;
429.0000;0.4469;0.6599;
429.3000;0.4485;0.6648;
429.6000;0.4493;0.6721;
429.9000;0.4485;0.6721;
430.2000;0.4493;0.6550;
430.5000;0.4485;0.6575;
430.8000;0.4493;0.6575;
431.1000;0.4501;0.6623;
431.4000;0.4485;0.6623;
431.7000;0.4461;0.6501;
432.0000;0.4510;0.6696;
432.3000;0.4501;0.6721;
432.6000;0.4493;0.6794;
432.9000;0.4485;0.6891;
433.2000;0.4485;0.6915;
433.5000;0.4469;0.6940;
433.8000;0.4485;0.6964;
434.1000;0.4469;0.6891;
434.4000;0.4469;0.6794;
434.7000;0.4477;0.6818;
435.0000;0.4485;0.6867;
435.3000;0.4477;0.6818;
435.6000;0.4501;0.6794;
435.9000;0.4485;0.6794;
436.2000;0.4501;0.6867;
436.5000;0.4477;0.6745;
436.8000;0.4485;0.6794;
437.1000;0.4485;0.6842;
437.4000;0.4493;0.6818;
437.7000;0.4493;0.6769;
438.0000;0.4485;0.6745;
438.3000;0.4501;0.6769;
438.6000;0.4493;0.6842;
438.9000;0.4510;0.6940;
439.2000;0.4436;0.6769;
439.5000;0.4477;0.6940;
439.8000;0.4485;0.6988;
440.1000;0.4485;0.6988;
440.4000;0.4469;0.6891;
440.7000;0.4477;0.6818;
441.0000;0.4485;0.6842;
441.3000;0.4477;0.6769;
441.6000;0.4485;0.6623;
441.9000;0.4493;0.6648;
442.2000;0.4469;0.6648;
442.5000;0.4461;0.6648;
442.8000;0.4501;0.6721;
443.1000;0.4493;0.6623;
443.4000;0.4518;0.6818;
443.7000;0.4493;0.6745;
444.0000;0.4493;0.6672;
444.3000;0.4485;0.6623;
444.6000;0.4469;0.6648;
444.9000;0.4436;0.6550;
445.2000;0.4493;0.6696;
445.5000;0.4477;0.6769;
445.8000;0.4453;0.6672;
446.1000;0.4493;0.6842;
446.4000;0.4501;0.6867;
446.7000;0.4493;0.6891;
447.0000;0.4501;0.6891;
447.3000;0.4493;0.6818;
447.6000;0.4428;0.6599;
447.9000;0.4526;0.6940;
448.2000;0.4453;0.6769;
448.5000;0.4493;0.6842;
448.8000;0.4518;0.6988;
449.1000;0.4420;0.6672;
449.4000;0.4461;0.6696;
449.7000;0.4510;0.6745;
450.0000;0.4493;0.6745;
450.3000;0.4493;0.6745;
450.6000;0.4444;0.6575;
450.9000;0.4493;0.6769;
451.2000;0.4493;0.6794;
451.5000;0.4485;0.6794;
451.8000;0.4485;0.6721;
452.1000;0.4558;0.6915;
452.4000;0.4485;0.6672;
452.7000;0.4485;0.6672;
453.0000;0.4510;0.6721;
453.3000;0.4493;0.6745;
453.6000;0.4485;0.6623;
453.9000;0.4493;0.6648;
454.2000;0.4518;0.6721;
454.5000;0.4485;0.6599;
454.8000;0.4493;0.6623;
455.1000;0.4534;0.6842;
455.4000;0.4501;0.6818;
455.7000;0.4477;0.6794;
456.0000;0.4493;0.6745;
456.3000;0.4493;0.6769;
456.6000;0.4501;0.6818;
456.9000;0.4485;0.6818;
457.2000;0.4485;0.6818;
457.5000;0.4501;0.6818;
457.8000;0.4510;0.6818;
458.1000;0.4501;0.6818;
458.4000;0.4493;0.6794;
458.7000;0.4485;0.6769;
459.0000;0.4485;0.6794;
459.3000;0.4493;0.6794;
459.6000;0.4469;0.6818;
459.9000;0.4477;0.6794;
460.2000;0.4485;0.6818;
460.5000;0.4493;0.6794;
460.8000;0.4477;0.6769;
461.1000;0.4501;0.6794;
461.4000;0.4493;0.6867;
461.7000;0.4501;0.6891;
462.0000;0.4485;0.6794;
462.3000;0.4534;0.6891;
462.6000;0.4477;0.6769;
462.9000;0.4485;0.6745;
463.2000;0.4493;0.6721;
463.5000;0.4493;0.6672;
463.8000;0.4477;0.6648;
464.1000;0.4501;0.6745;
464.4000;0.4477;0.6769;
464.7000;0.4485;0.6794;
465.0000;0.4477;0.6745;
465.3000;0.4469;0.6769;
465.6000;0.4485;0.6842;
465.9000;0.4469;0.6769;
466.2000;0.4493;0.6696;
466.5000;0.4485;0.6745;
466.8000;0.4493;0.6721;
467.1000;0.4501;0.6648;
467.4000;0.4510;0.6648;
467.7000;0.4501;0.6672;
468.0000;0.4485;0.6672;
468.3000;0.4453;0.6526;
468.6000;0.4493;0.6623;
468.9000;0.4485;0.6599;
469.2000;0.4477;0.6575;
469.5000;0.4493;0.6648;
469.8000;0.4485;0.6599;
470.1000;0.4469;0.6575;
470.4000;0.4493;0.6672;
470.7000;0.4477;0.6672;
471.0000;0.4485;0.6648;
471.3000;0.4485;0.6623;
471.6000;0.4420;0.6282;
471.9000;0.4501;0.6477;
472.2000;0.4485;0.6550;
472.5000;0.4469;0.6550;
472.8000;0.4428;0.6477;
473.1000;0.4501;0.6745;
473.4000;0.4501;0.6672;
473.7000;0.4453;0.6526;
474.0000;0.4469;0.6550;
474.3000;0.4493;0.6575;
474.6000;0.4567;0.6867;
474.9000;0.4477;0.6599;
475.2000;0.4550;0.6696;
475.5000;0.4510;0.6648;
475.8000;0.4485;0.6575;
476.1000;0.4477;0.6672;
476.4000;0.4477;0.6672;
476.7000;0.4485;0.6648;
477.0000;0.4493;0.6745;
477.3000;0.4493;0.6769;
477.6000;0.4469;0.6721;
477.9000;0.4485;0.6794;
478.2000;0.4501;0.6891;
478.5000;0.4510;0.6842;
478.8000;0.4485;0.6818;
479.1000;0.4510;0.6818;
479.4000;0.4485;0.6818;
479.7000;0.4461;0.6721;
480.0000;0.4534;0.6842;
480.3000;0.4485;0.6696;
480.6000;0.4469;0.6721;
480.9000;0.4485;0.6818;
481.2000;0.4485;0.6769;
481.5000;0.4461;0.6648;
481.8000;0.4485;0.6769;
482.1000;0.4485;0.6721;
482.4000;0.4493;0.6769;
482.7000;0.4469;0.6745;
483.0000;0.4485;0.6745;
483.3000;0.4485;0.6696;
483.6000;0.4477;0.6696;
483.9000;0.4485;0.6623;
484.2000;0.4477;0.6599;
484.5000;0.4501;0.6575;
484.8000;0.4493;0.6575;
485.1000;0.4485;0.6526;
485.4000;0.4477;0.6550;
485.7000;0.4477;0.6575;
486.0000;0.4526;0.6623;
486.3000;0.4477;0.6550;
486.6000;0.4477;0.6550;
486.9000;0.4485;0.6648;
487.2000;0.4485;0.6648;
487.5000;0.4485;0.6672;
487.8000;0.4477;0.6672;
488.1000;0.4485;0.6721;
488.4000;0.4493;0.6696;
488.7000;0.4485;0.6745;
489.0000;0.4485;0.6842;
489.3000;0.4477;0.6794;
489.6000;0.4510;0.6769;
489.9000;0.4501;0.6794;
490.2000;0.4477;0.6794;
490.5000;0.4485;0.6818;
490.8000;0.4493;0.6842;
491.1000;0.4485;0.6915;
491.4000;0.4461;0.6818;
491.7000;0.4501;0.6891;
492.0000;0.4501;0.7013;
492.3000;0.4501;0.7013;
492.6000;0.4493;0.7037;
492.9000;0.4493;0.6940;
493.2000;0.4485;0.6842;
493.5000;0.4501;0.6940;
493.8000;0.4501;0.6988;
494.1000;0.4477;0.6964;
494.4000;0.4485;0.6988;
494.7000;0.4477;0.7110;
495.0000;0.4493;0.7135;
495.3000;0.4477;0.7037;
495.6000;0.4461;0.6940;
495.9000;0.4493;0.7013;
496.2000;0.4485;0.6915;
496.5000;0.4485;0.6794;
496.8000;0.4485;0.6842;
497.1000;0.4477;0.6867;
497.4000;0.4453;0.6745;
497.7000;0.4493;0.6867;
498.0000;0.4534;0.7062;
498.3000;0.4485;0.6818;
498.6000;0.4493;0.6915;
498.9000;0.4485;0.6964;
499.2000;0.4485;0.6940;
499.5000;0.4428;0.6721;
499.8000;0.4485;0.6891;
500.1000;0.4485;0.6891;
500.4000;0.4469;0.6818;
500.7000;0.4485;0.6794;
501.0000;0.4510;0.6891;
501.3000;0.4477;0.6818;
501.6000;0.4461;0.6769;
501.9000;0.4469;0.6818;
502.2000;0.4461;0.6891;
502.5000;0.4477;0.6915;
502.8000;0.4477;0.6794;
503.1000;0.4444;0.6745;
503.4000;0.4469;0.6721;
503.7000;0.4461;0.6721;
504.0000;0.4558;0.7013;
504.3000;0.4493;0.6745;
504.6000;0.4461;0.6623;
504.9000;0.4477;0.6769;
505.2000;0.4469;0.6794;
505.5000;0.4575;0.6915;
505.8000;0.4493;0.6648;
506.1000;0.4501;0.6696;
506.4000;0.4518;0.6623;
506.7000;0.4493;0.6648;
507.0000;0.4485;0.6696;
507.3000;0.4493;0.6721;
507.6000;0.4510;0.6745;
507.9000;0.4485;0.6745;
508.2000;0.4461;0.6696;
508.5000;0.4485;0.6721;
508.8000;0.4501;0.6721;
509.1000;0.4501;0.6794;
509.4000;0.4501;0.6721;
509.7000;0.4469;0.6623;
510.0000;0.4550;0.6915;
510.3000;0.4444;0.6599;
510.6000;0.4477;0.6721;
510.9000;0.4469;0.6721;
511.2000;0.4477;0.6818;
511.5000;0.4485;0.6745;
511.8000;0.4469;0.6672;
512.1000;0.4477;0.6745;
512.4000;0.4469;0.6769;
512.7000;0.4477;0.6842;
513.0000;0.4485;0.6891;
513.3000;0.4461;0.6818;
513.6000;0.4469;0.6794;
513.9000;0.4461;0.6818;
514.2000;0.4493;0.6988;
514.5000;0.4469;0.6940;
514.8000;0.4493;0.6915;
515.1000;0.4493;0.6915;
515.4000;0.4485;0.6891;
515.7000;0.4453;0.6696;
516.0000;0.4485;0.6721;
516.3000;0.4412;0.6575;
516.6000;0.4583;0.7037;
516.9000;0.4453;0.6623;
517.2000;0.4477;0.6672;
517.5000;0.4477;0.6696;
517.8000;0.4453;0.6672;
518.1000;0.4477;0.6745;
518.4000;0.4485;0.6769;
518.7000;0.4453;0.6721;
519.0000;0.4469;0.6818;
519.3000;0.4493;0.6891;
519.6000;0.4461;0.6794;
519.9000;0.4461;0.6794;
520.2000;0.4493;0.6842;
520.5000;0.4501;0.6867;
520.8000;0.4469;0.6867;
521.1000;0.4469;0.6818;
521.4000;0.4493;0.6818;
521.7000;0.4510;0.6794;
522.0000;0.4501;0.6745;
522.3000;0.4485;0.6599;
522.6000;0.4469;0.6599;
522.9000;0.4469;0.6599;
523.2000;0.4412;0.6453;
523.5000;0.4469;0.6648;
523.8000;0.4477;0.6672;
524.1000;0.4469;0.6648;
524.4000;0.4485;0.6721;
524.7000;0.4485;0.6648;
525.0000;0.4469;0.6599;
525.3000;0.4469;0.6599;
525.6000;0.4477;0.6721;
525.9000;0.4461;0.6648;
526.2000;0.4477;0.6745;
526.5000;0.4477;0.6769;
526.8000;0.4469;0.6745;
527.1000;0.4469;0.6769;
527.4000;0.4477;0.6769;
527.7000;0.4493;0.6842;
528.0000;0.4477;0.6745;
528.3000;0.4485;0.6745;
528.6000;0.4485;0.6696;
528.9000;0.4493;0.6672;
529.2000;0.4501;0.6672;
529.5000;0.4485;0.6575;
529.8000;0.4485;0.6623;
530.1000;0.4501;0.6672;
530.4000;0.4493;0.6672;
530.7000;0.4485;0.6623;
531.0000;0.4485;0.6648;
531.3000;0.4485;0.6623;
531.6000;0.4469;0.6648;
531.9000;0.4534;0.6769;
532.2000;0.4469;0.6575;
532.5000;0.4469;0.6648;
532.8000;0.4485;0.6672;
533.1000;0.4477;0.6648;
533.4000;0.4485;0.6599;
533.7000;0.4461;0.6575;
534.0000;0.4396;0.6404;
534.3000;0.4469;0.6648;
534.6000;0.4485;0.6648;
534.9000;0.4461;0.6599;
535.2000;0.4542;0.6842;
535.5000;0.4469;0.6526;
535.8000;0.4485;0.6599;
536.1000;0.4493;0.6721;
536.4000;0.4453;0.6745;
536.7000;0.4485;0.6769;
537.0000;0.4436;0.6672;
537.3000;0.4461;0.6769;
537.6000;0.4461;0.6745;
537.9000;0.4469;0.6794;
538.2000;0.4477;0.6842;
538.5000;0.4461;0.6721;
538.8000;0.4493;0.6721;
539.1000;0.4501;0.6672;
539.4000;0.4485;0.6623;
539.7000;0.4420;0.6501;
540.0000;0.4477;0.6501;
540.3000;0.4518;0.6696;
540.6000;0.4518;0.6648;
540.9000;0.4485;0.6623;
541.2000;0.4453;0.6550;
541.5000;0.4485;0.6550;
541.8000;0.4526;0.6696;
542.1000;0.4469;0.6623;
542.4000;0.4453;0.6623;
542.7000;0.4477;0.6575;
543.0000;0.4485;0.6599;
543.3000;0.4485;0.6648;
543.6000;0.4477;0.6599;
543.9000;0.4485;0.6550;
544.2000;0.4477;0.6575;
544.5000;0.4493;0.6648;
544.8000;0.4501;0.6648;
545.1000;0.4501;0.6696;
545.4000;0.4477;0.6623;
545.7000;0.4436;0.6501;
546.0000;0.4453;0.6501;
546.3000;0.4501;0.6648;
546.6000;0.4469;0.6526;
546.9000;0.4485;0.6575;
547.2000;0.4493;0.6599;
547.5000;0.4469;0.6623;
547.8000;0.4501;0.6794;
548.1000;0.4493;0.6721;
548.4000;0.4493;0.6648;
548.7000;0.4469;0.6648;
549.0000;0.4485;0.6575;
549.3000;0.4477;0.6575;
549.6000;0.4477;0.6648;
549.9000;0.4493;0.6550;
550.2000;0.4485;0.6672;
550.5000;0.4469;0.6623;
550.8000;0.4485;0.6550;
551.1000;0.4485;0.6648;
551.4000;0.4485;0.6575;
551.7000;0.4477;0.6623;
552.0000;0.4477;0.6672;
552.3000;0.4493;0.6696;
552.6000;0.4493;0.6721;
552.9000;0.4477;0.6721;
553.2000;0.4493;0.6794;
553.5000;0.4469;0.6745;
553.8000;0.4485;0.6842;
554.1000;0.4461;0.6818;
554.4000;0.4485;0.6891;
554.7000;0.4493;0.6794;
555.0000;0.4493;0.6721;
555.3000;0.4493;0.6696;
555.6000;0.4485;0.6696;
555.9000;0.4477;0.6721;
556.2000;0.4420;0.6623;
556.5000;0.4469;0.6818;
556.8000;0.4469;0.6891;
557.1000;0.4477;0.6867;
557.4000;0.4510;0.6867;
557.7000;0.4469;0.6818;
558.0000;0.4469;0.6721;
558.3000;0.4477;0.6745;
558.6000;0.4510;0.6794;
558.9000;0.4477;0.6794;
559.2000;0.4485;0.6769;
559.5000;0.4477;0.6745;
559.8000;0.4469;0.6721;
560.1000;0.4485;0.6818;
560.4000;0.4485;0.6818;
560.7000;0.4461;0.6696;
561.0000;0.4453;0.6648;
561.3000;0.4461;0.6696;
561.6000;0.4469;0.6769;
561.9000;0.4477;0.6745;
562.2000;0.4477;0.6745;
562.5000;0.4469;0.6769;
562.8000;0.4477;0.6745;
563.1000;0.4477;0.6769;
563.4000;0.4485;0.6721;
563.7000;0.4485;0.6648;
564.0000;0.4477;0.6721;
564.3000;0.4477;0.6721;
564.6000;0.4453;0.6745;
564.9000;0.4469;0.6842;
565.2000;0.4477;0.6891;
565.5000;0.4510;0.6915;
565.8000;0.4493;0.6842;
566.1000;0.4526;0.6988;
566.4000;0.4501;0.6940;
566.7000;0.4420;0.6794;
567.0000;0.4493;0.6964;
567.3000;0.4493;0.7013;
567.6000;0.4485;0.6964;
567.9000;0.4485;0.6842;
568.2000;0.4485;0.6794;
568.5000;0.4493;0.6842;
568.8000;0.4485;0.6818;
569.1000;0.4477;0.6867;
569.4000;0.4493;0.6867;
569.7000;0.4477;0.6867;
570.0000;0.4404;0.6648;
570.3000;0.4493;0.6915;
570.6000;0.4485;0.6867;
570.9000;0.4485;0.6842;
571.2000;0.4428;0.6794;
571.5000;0.4461;0.6940;
571.8000;0.4461;0.7013;
572.1000;0.4469;0.7062;
572.4000;0.4461;0.6988;
572.7000;0.4453;0.6988;
573.0000;0.4477;0.7037;
573.3000;0.4485;0.7062;
573.6000;0.4436;0.6915;
573.9000;0.4493;0.7110;
574.2000;0.4469;0.6988;
574.5000;0.4420;0.6842;
574.8000;0.4477;0.7086;
575.1000;0.4493;0.7159;
575.4000;0.4477;0.7110;
575.7000;0.4485;0.7037;
576.0000;0.4453;0.6915;
576.3000;0.4485;0.7037;
576.6000;0.4485;0.7062;
576.9000;0.4485;0.7062;
577.2000;0.4469;0.6988;
577.5000;0.4453;0.6891;
577.8000;0.4485;0.6964;
578.1000;0.4485;0.6940;
578.4000;0.4477;0.6891;
578.7000;0.4477;0.6891;
579.0000;0.4477;0.6842;
579.3000;0.4469;0.6769;
579.6000;0.4477;0.6818;
579.9000;0.4485;0.6745;
580.2000;0.4550;0.6988;
580.5000;0.4412;0.6599;
580.8000;0.4461;0.6794;
581.1000;0.4477;0.6988;
581.4000;0.4501;0.7037;
581.7000;0.4493;0.6940;
582.0000;0.4510;0.6964;
582.3000;0.4412;0.6623;
582.6000;0.4477;0.6721;
582.9000;0.4469;0.6794;
583.2000;0.4485;0.6891;
583.5000;0.4461;0.6964;
583.8000;0.4453;0.6964;
584.1000;0.4501;0.7013;
584.4000;0.4469;0.6940;
584.7000;0.4469;0.6891;
585.0000;0.4477;0.6891;
585.3000;0.4485;0.6842;
585.6000;0.4469;0.6867;
585.9000;0.4477;0.6842;
586.2000;0.4477;0.6745;
586.5000;0.4518;0.6842;
586.8000;0.4493;0.6721;
587.1000;0.4485;0.6672;
587.4000;0.4477;0.6745;
587.7000;0.4461;0.6721;
588.0000;0.4412;0.6575;
588.3000;0.4477;0.6745;
588.6000;0.4469;0.6818;
588.9000;0.4493;0.6891;
589.2000;0.4493;0.6842;
589.5000;0.4493;0.6842;
589.8000;0.4510;0.6818;
590.1000;0.4501;0.6818;
590.4000;0.4485;0.6745;
590.7000;0.4493;0.6794;
591.0000;0.4485;0.6794;
591.3000;0.4485;0.6891;
591.6000;0.4453;0.6867;
591.9000;0.4477;0.6940;
592.2000;0.4469;0.6940;
592.5000;0.4469;0.6964;
592.8000;0.4461;0.6891;
593.1000;0.4477;0.6940;
593.4000;0.4493;0.6964;
593.7000;0.4493;0.7062;
594.0000;0.4477;0.7013;
594.3000;0.4558;0.7281;
594.6000;0.4453;0.7037;
594.9000;0.4444;0.7013;
595.2000;0.4485;0.7159;
595.5000;0.4461;0.7086;
595.8000;0.4477;0.7110;
596.1000;0.4501;0.7013;
596.4000;0.4477;0.6988;
596.7000;0.4461;0.6988;
597.0000;0.4493;0.7062;
597.3000;0.4485;0.7086;
597.6000;0.4485;0.7110;
597.9000;0.4477;0.7086;
598.2000;0.4534;0.7232;
598.5000;0.4550;0.7208;
598.8000;0.4485;0.7086;
599.1000;0.4477;0.7110;
599.4000;0.4493;0.7110;
599.7000;0.4493;0.7159;
600.0000;0.4493;0.7110;
600.3000;0.4493;0.7013;
600.6000;0.4436;0.6818;
600.9000;0.4501;0.6696;
601.2000;0.4461;0.6477;
601.5000;0.4501;0.6477;
601.8000;0.4428;0.6234;
602.1000;0.4404;0.6014;
602.4000;0.4420;0.5966;
602.7000;0.4355;0.5722;
603.0000;0.4355;0.5576;
603.3000;0.4298;0.5406;
603.6000;0.4330;0.5406;
603.9000;0.4298;0.5260;
604.2000;0.4217;0.4992;
604.5000;0.4306;0.5211;
604.8000;0.4282;0.5040;
605.1000;0.4282;0.4967;
605.4000;0.4249;0.4846;
605.7000;0.4241;0.4821;
606.0000;0.4249;0.4700;
606.3000;0.4225;0.4675;
606.6000;0.4217;0.4578;
606.9000;0.4200;0.4456;
607.2000;0.4192;0.4480;
607.5000;0.4208;0.4553;
607.8000;0.4184;0.4553;
608.1000;0.4127;0.4480;
608.4000;0.4143;0.4480;
608.7000;0.4176;0.4505;
609.0000;0.4143;0.4456;
609.3000;0.4119;0.4407;
609.6000;0.4143;0.4627;
609.9000;0.4135;0.4675;
610.2000;0.4160;0.4748;
610.5000;0.4217;0.4846;
610.8000;0.4127;0.4505;
611.1000;0.4119;0.4456;
611.4000;0.4184;0.4505;
611.7000;0.4103;0.4334;
612.0000;0.4086;0.4310;
612.3000;0.4086;0.4334;
612.6000;0.4111;0.4310;
612.9000;0.4062;0.4286;
613.2000;0.4046;0.4334;
613.5000;0.4119;0.4602;
613.8000;0.4037;0.4334;
614.1000;0.4054;0.4505;
614.4000;0.4054;0.4505;
614.7000;0.4062;0.4505;
615.0000;0.4046;0.4505;
615.3000;0.4037;0.4480;
615.6000;0.4005;0.4383;
615.9000;0.4046;0.4407;
616.2000;0.4070;0.4359;
616.5000;0.4046;0.4237;
616.8000;0.4029;0.4188;
617.1000;0.4021;0.4188;
617.4000;0.3997;0.4091;
617.7000;0.3997;0.4115;
618.0000;0.3997;0.4091;
618.3000;0.3972;0.4066;
618.6000;0.3972;0.4115;
618.9000;0.3964;0.4188;
619.2000;0.3989;0.4237;
619.5000;0.4013;0.4261;
619.8000;0.3980;0.4310;
620.1000;0.3948;0.4261;
620.4000;0.3972;0.4286;
620.7000;0.3964;0.4334;
621.0000;0.3964;0.4359;
621.3000;0.3964;0.4286;
621.6000;0.3948;0.4334;
621.9000;0.3964;0.4334;
622.2000;0.3964;0.4359;
622.5000;0.3948;0.4286;
622.8000;0.3964;0.4164;
623.1000;0.3932;0.4066;
623.4000;0.3964;0.4018;
623.7000;0.3964;0.4042;
624.0000;0.3940;0.4042;
624.3000;0.3932;0.4115;
624.6000;0.3932;0.4115;
624.9000;0.3948;0.4213;
625.2000;0.3923;0.4042;
625.5000;0.3915;0.3993;
625.8000;0.3883;0.3847;
626.1000;0.3923;0.3920;
626.4000;0.3907;0.3993;
626.7000;0.3907;0.4018;
627.0000;0.3940;0.4042;
627.3000;0.3867;0.3799;
627.6000;0.3915;0.3945;
627.9000;0.3867;0.3872;
628.2000;0.3858;0.3920;
628.5000;0.3899;0.4042;
628.8000;0.3891;0.4066;
629.1000;0.3842;0.3969;
629.4000;0.3883;0.4091;
629.7000;0.3875;0.4115;
630.0000;0.3891;0.4164;
630.3000;0.3875;0.4164;
630.6000;0.3858;0.4188;
630.9000;0.3858;0.4066;
631.2000;0.3875;0.4140;
631.5000;0.3891;0.4213;
631.8000;0.3858;0.4115;
632.1000;0.3850;0.4042;
632.4000;0.3867;0.4140;
632.7000;0.3858;0.4140;
633.0000;0.3858;0.4091;
633.3000;0.3850;0.4042;
633.6000;0.3842;0.4042;
633.9000;0.3899;0.4188;
634.2000;0.3858;0.3969;
634.5000;0.3850;0.3847;
634.8000;0.3810;0.3774;
635.1000;0.3867;0.3896;
635.4000;0.3948;0.4140;
635.7000;0.3842;0.3945;
636.0000;0.3834;0.3872;
636.3000;0.3826;0.3799;
636.6000;0.3956;0.4164;
636.9000;0.3826;0.3872;
637.2000;0.3842;0.3872;
637.5000;0.3867;0.3896;
637.8000;0.3834;0.3823;
638.1000;0.3801;0.3823;
638.4000;0.3793;0.3847;
638.7000;0.3834;0.3969;
639.0000;0.3801;0.3872;
639.3000;0.3818;0.3896;
639.6000;0.3818;0.3847;
639.9000;0.3801;0.3872;
640.2000;0.3810;0.3896;
640.5000;0.3801;0.3945;
640.8000;0.3810;0.3993;
641.1000;0.3801;0.3920;
641.4000;0.3810;0.3969;
641.7000;0.3801;0.3847;
642.0000;0.3744;0.3701;
642.3000;0.3793;0.3920;
642.6000;0.3761;0.3872;
642.9000;0.3769;0.3872;
643.2000;0.3785;0.3872;
643.5000;0.3777;0.3872;
643.8000;0.3785;0.3847;
644.1000;0.3777;0.3799;
644.4000;0.3850;0.4042;
644.7000;0.3785;0.3847;
645.0000;0.3720;0.3701;
645.3000;0.3777;0.3799;
645.6000;0.3777;0.3847;
645.9000;0.3769;0.3847;
646.2000;0.3769;0.3920;
646.5000;0.3785;0.3920;
646.8000;0.3769;0.3945;
647.1000;0.3761;0.3920;
647.4000;0.3712;0.3896;
647.7000;0.3728;0.4018;
648.0000;0.3761;0.4042;
648.3000;0.3753;0.3945;
648.6000;0.3736;0.3799;
648.9000;0.3744;0.3823;
649.2000;0.3769;0.3847;
649.5000;0.3712;0.3726;
649.8000;0.3720;0.3799;
650.1000;0.3679;0.3677;
650.4000;0.3704;0.3750;
650.7000;0.3736;0.3799;
651.0000;0.3696;0.3774;
651.3000;0.3793;0.4042;
651.6000;0.3753;0.3969;
651.9000;0.3712;0.3799;
652.2000;0.3573;0.3385;
652.5000;0.3736;0.3726;
652.8000;0.3736;0.3750;
653.1000;0.3720;0.3750;
653.4000;0.3728;0.3823;
653.7000;0.3744;0.3896;
654.0000;0.3728;0.3896;
654.3000;0.3728;0.3920;
654.6000;0.3720;0.3945;
654.9000;0.3720;0.3945;
655.2000;0.3761;0.3993;
655.5000;0.3728;0.3920;
655.8000;0.3777;0.4091;
656.1000;0.3704;0.3945;
656.4000;0.3704;0.3993;
656.7000;0.3728;0.4018;
657.0000;0.3728;0.3945;
657.3000;0.3728;0.3920;
657.6000;0.3736;0.3993;
657.9000;0.3704;0.3823;
658.2000;0.3704;0.3945;
658.5000;0.3704;0.3920;
658.8000;0.3728;0.3945;
659.1000;0.3671;0.3823;
659.4000;0.3704;0.3969;
659.7000;0.3663;0.3896;
660.0000;0.3769;0.4237;
660.3000;0.3712;0.4115;
660.6000;0.3712;0.4164;
660.9000;0.3728;0.4091;
661.2000;0.3720;0.4091;
661.5000;0.3663;0.3896;
661.8000;0.3744;0.4115;
662.1000;0.3728;0.4140;
662.4000;0.3712;0.4042;
662.7000;0.3687;0.3945;
663.0000;0.3704;0.4042;
663.3000;0.3704;0.4066;
663.6000;0.3744;0.4286;
663.9000;0.3687;0.4140;
664.2000;0.3687;0.4115;
664.5000;0.3687;0.4140;
664.8000;0.3696;0.4115;
665.1000;0.3679;0.4091;
665.4000;0.3671;0.4091;
665.7000;0.3687;0.4042;
666.0000;0.3712;0.4066;
666.3000;0.3704;0.4042;
666.6000;0.3704;0.4091;
666.9000;0.3704;0.4140;
667.2000;0.3687;0.4042;
667.5000;0.3687;0.4115;
667.8000;0.3704;0.4213;
668.1000;0.3712;0.4188;
668.4000;0.3671;0.4140;
668.7000;0.3679;0.4213;
669.0000;0.3712;0.4188;
669.3000;0.3687;0.4091;
669.6000;0.3687;0.4091;
669.9000;0.3671;0.4115;
670.2000;0.3679;0.4188;
670.5000;0.3696;0.4188;
670.8000;0.3679;0.4140;
671.1000;0.3696;0.4213;
671.4000;0.3679;0.4164;
671.7000;0.3663;0.4164;
672.0000;0.3630;0.4042;
672.3000;0.3663;0.4115;
672.6000;0.3679;0.4213;
672.9000;0.3663;0.4188;
673.2000;0.3679;0.4237;
673.5000;0.3671;0.4140;
673.8000;0.3679;0.4115;
674.1000;0.3639;0.4042;
674.4000;0.3663;0.4115;
674.7000;0.3671;0.4091;
675.0000;0.3639;0.3969;
675.3000;0.3712;0.4066;
675.6000;0.3647;0.3920;
675.9000;0.3614;0.3823;
676.2000;0.3712;0.4042;
676.5000;0.3663;0.3969;
676.8000;0.3671;0.3823;
677.1000;0.3679;0.3872;
677.4000;0.3671;0.3750;
677.7000;0.3687;0.3945;
678.0000;0.3647;0.3945;
678.3000;0.3647;0.3969;
678.6000;0.3630;0.3872;
678.9000;0.3663;0.3969;
679.2000;0.3655;0.4018;
679.5000;0.3663;0.4042;
679.8000;0.3655;0.4091;
680.1000;0.3647;0.3993;
680.4000;0.3663;0.4066;
680.7000;0.3647;0.3969;
681.0000;0.3671;0.3993;
681.3000;0.3655;0.3920;
681.6000;0.3671;0.3872;
681.9000;0.3663;0.3896;
682.2000;0.3663;0.3945;
682.5000;0.3663;0.3993;
682.8000;0.3655;0.4018;
683.1000;0.3639;0.3896;
683.4000;0.3647;0.3872;
683.7000;0.3655;0.3920;
684.0000;0.3647;0.4018;
684.3000;0.3655;0.4018;
684.6000;0.3639;0.4018;
684.9000;0.3647;0.4066;
685.2000;0.3639;0.4018;
685.5000;0.3598;0.3945;
685.8000;0.3622;0.3872;
686.1000;0.3663;0.3920;
686.4000;0.3622;0.3896;
686.7000;0.3606;0.3799;
687.0000;0.3647;0.3896;
687.3000;0.3647;0.3945;
687.6000;0.3630;0.3847;
687.9000;0.3647;0.3823;
688.2000;0.3630;0.3750;
688.5000;0.3655;0.3774;
688.8000;0.3630;0.3774;
689.1000;0.3630;0.3847;
689.4000;0.3647;0.3945;
689.7000;0.3614;0.3993;
690.0000;0.3639;0.3969;
690.3000;0.3639;0.3969;
690.6000;0.3630;0.3993;
690.9000;0.3622;0.3969;
691.2000;0.3647;0.3969;
691.5000;0.3622;0.3847;
691.8000;0.3639;0.3896;
692.1000;0.3622;0.4066;
692.4000;0.3639;0.4091;
692.7000;0.3647;0.4066;
693.0000;0.3647;0.4066;
693.3000;0.3622;0.4042;
693.6000;0.3639;0.4091;
693.9000;0.3630;0.4164;
694.2000;0.3614;0.4164;
694.5000;0.3614;0.4066;
694.8000;0.3622;0.4042;
695.1000;0.3622;0.3993;
695.4000;0.3630;0.3920;
695.7000;0.3614;0.3823;
696.0000;0.3647;0.3920;
696.3000;0.3639;0.3993;
696.6000;0.3614;0.4042;
696.9000;0.3622;0.4042;
697.2000;0.3630;0.4042;
697.5000;0.3598;0.3993;
697.8000;0.3622;0.3993;
698.1000;0.3606;0.3969;
698.4000;0.3614;0.4042;
698.7000;0.3606;0.4066;
699.0000;0.3614;0.4091;
699.3000;0.3622;0.4042;
699.6000;0.3622;0.4018;
699.9000;0.3606;0.3993;
700.2000;0.3630;0.4066;
700.5000;0.3614;0.3993;
700.8000;0.3606;0.3920;
701.1000;0.3557;0.3774;
701.4000;0.3679;0.4164;
701.7000;0.3606;0.3969;
702.0000;0.3622;0.4018;
702.3000;0.3598;0.3920;
702.6000;0.3606;0.4018;
702.9000;0.3606;0.3969;
703.2000;0.3590;0.3993;
703.5000;0.3606;0.4042;
703.8000;0.3614;0.4066;
704.1000;0.3606;0.4066;
704.4000;0.3582;0.3993;
704.7000;0.3606;0.4042;
705.0000;0.3606;0.4066;
705.3000;0.3598;0.4042;
705.6000;0.3598;0.3993;
705.9000;0.3606;0.4018;
706.2000;0.3614;0.4091;
706.5000;0.3606;0.4042;
706.8000;0.3590;0.3945;
707.1000;0.3606;0.3945;
707.4000;0.3696;0.4213;
707.7000;0.3622;0.4091;
708.0000;0.3614;0.4091;
708.3000;0.3598;0.4018;
708.6000;0.3582;0.4042;
708.9000;0.3606;0.4115;
709.2000;0.3582;0.4042;
709.5000;0.3573;0.4066;
709.8000;0.3590;0.4188;
710.1000;0.3590;0.4091;
710.4000;0.3582;0.3969;
710.7000;0.3557;0.3896;
711.0000;0.3582;0.3993;
711.3000;0.3598;0.4066;
711.6000;0.3533;0.3847;
711.9000;0.3606;0.3993;
712.2000;0.3598;0.3969;
712.5000;0.3573;0.3945;
712.8000;0.3590;0.3945;
713.1000;0.3606;0.3969;
713.4000;0.3582;0.3896;
713.7000;0.3606;0.3896;
714.0000;0.3590;0.3847;
714.3000;0.3598;0.3847;
714.6000;0.3671;0.4042;
714.9000;0.3582;0.3872;
715.2000;0.3590;0.3920;
715.5000;0.3573;0.3847;
715.8000;0.3590;0.3920;
716.1000;0.3590;0.3920;
716.4000;0.3590;0.3872;
716.7000;0.3598;0.3945;
717.0000;0.3598;0.4018;
717.3000;0.3573;0.4042;
717.6000;0.3598;0.4115;
717.9000;0.3590;0.4042;
718.2000;0.3582;0.4066;
718.5000;0.3639;0.4237;
718.8000;0.3565;0.3969;
719.1000;0.3606;0.3969;
719.4000;0.3622;0.4066;
719.7000;0.3573;0.3993;
720.0000;0.3565;0.4066;
720.3000;0.3614;0.4188;
720.6000;0.3582;0.4237;
720.9000;0.3590;0.4164;
721.2000;0.3582;0.4213;
721.5000;0.3565;0.4237;
721.8000;0.3573;0.4286;
722.1000;0.3582;0.4261;
722.4000;0.3565;0.4237;
722.7000;0.3582;0.4261;
723.0000;0.3582;0.4310;
723.3000;0.3590;0.4286;
723.6000;0.3573;0.4237;
723.9000;0.3565;0.4213;
724.2000;0.3573;0.4140;
724.5000;0.3582;0.4115;
724.8000;0.3573;0.4018;
725.1000;0.3557;0.4042;
725.4000;0.3573;0.4115;
725.7000;0.3582;0.4140;
726.0000;0.3557;0.4066;
726.3000;0.3582;0.4188;
726.6000;0.3582;0.4188;
726.9000;0.3573;0.4140;
727.2000;0.3630;0.4213;
727.5000;0.3639;0.4140;
727.8000;0.3606;0.4091;
728.1000;0.3590;0.4066;
728.4000;0.3655;0.4286;
728.7000;0.3582;0.4018;
729.0000;0.3573;0.3896;
729.3000;0.3598;0.3872;
729.6000;0.3590;0.3920;
729.9000;0.3565;0.3896;
730.2000;0.3484;0.3799;
730.5000;0.3573;0.4066;
730.8000;0.3622;0.4213;
731.1000;0.3582;0.4164;
731.4000;0.3582;0.4042;
731.7000;0.3557;0.4066;
732.0000;0.3508;0.4018;
732.3000;0.3590;0.4140;
732.6000;0.3573;0.3993;
732.9000;0.3582;0.4018;
733.2000;0.3573;0.4018;
733.5000;0.3508;0.3847;
733.8000;0.3590;0.4018;
734.1000;0.3557;0.4018;
734.4000;0.3565;0.4140;
734.7000;0.3508;0.4018;
735.0000;0.3549;0.4140;
735.3000;0.3549;0.4164;
735.6000;0.3565;0.4164;
735.9000;0.3573;0.4188;
736.2000;0.3565;0.4188;
736.5000;0.3525;0.3969;
736.8000;0.3541;0.4018;
737.1000;0.3573;0.4091;
737.4000;0.3573;0.4066;
737.7000;0.3557;0.4091;
738.0000;0.3573;0.4140;
738.3000;0.3598;0.4140;
738.6000;0.3582;0.4115;
738.9000;0.3573;0.4066;
739.2000;0.3573;0.4115;
739.5000;0.3557;0.4066;
739.8000;0.3573;0.4164;
740.1000;0.3557;0.4188;
740.4000;0.3525;0.4140;
740.7000;0.3582;0.4261;
741.0000;0.3476;0.3993;
741.3000;0.3573;0.4213;
741.6000;0.3565;0.4140;
741.9000;0.3582;0.4115;
742.2000;0.3557;0.4018;
742.5000;0.3573;0.4018;
742.8000;0.3565;0.4042;
743.1000;0.3582;0.4140;
743.4000;0.3573;0.4066;
743.7000;0.3573;0.4140;
744.0000;0.3549;0.4140;
744.3000;0.3549;0.4091;
744.6000;0.3565;0.4213;
744.9000;0.3565;0.4164;
745.2000;0.3573;0.4164;
745.5000;0.3565;0.4115;
745.8000;0.3565;0.4091;
746.1000;0.3565;0.4066;
746.4000;0.3533;0.3969;
746.7000;0.3557;0.4042;
747.0000;0.3549;0.4042;
747.3000;0.3557;0.4018;
747.6000;0.3525;0.3945;
747.9000;0.3565;0.4042;
748.2000;0.3582;0.4018;
748.5000;0.3590;0.4066;
748.8000;0.3557;0.3993;
749.1000;0.3492;0.3872;
749.4000;0.3565;0.4018;
749.7000;0.3557;0.3993;
750.0000;0.3541;0.4018;
750.3000;0.3533;0.4115;
750.6000;0.3525;0.4164;
750.9000;0.3557;0.4237;
751.2000;0.3565;0.4213;
751.5000;0.3557;0.4140;
751.8000;0.3565;0.4042;
752.1000;0.3565;0.4115;
752.4000;0.3557;0.4140;
752.7000;0.3582;0.4213;
753.0000;0.3565;0.4261;
753.3000;0.3557;0.4237;
753.6000;0.3516;0.4066;
753.9000;0.3557;0.4164;
754.2000;0.3565;0.4115;
754.5000;0.3541;0.3993;
754.8000;0.3557;0.4115;
755.1000;0.3549;0.4018;
755.4000;0.3565;0.4018;
755.7000;0.3533;0.3896;
756.0000;0.3573;0.4018;
756.3000;0.3565;0.4066;
756.6000;0.3549;0.4091;
756.9000;0.3541;0.4091;
757.2000;0.3549;0.4042;
757.5000;0.3541;0.4018;
757.8000;0.3533;0.4042;
758.1000;0.3484;0.3920;
758.4000;0.3557;0.4066;
758.7000;0.3598;0.4188;
759.0000;0.3565;0.4188;
759.3000;0.3557;0.4213;
759.6000;0.3549;0.4237;
759.9000;0.3573;0.4286;
760.2000;0.3549;0.4164;
760.5000;0.3541;0.4018;
760.8000;0.3525;0.3945;
761.1000;0.3549;0.3969;
761.4000;0.3541;0.4042;
761.7000;0.3533;0.4091;
762.0000;0.3500;0.4042;
762.3000;0.3565;0.4188;
762.6000;0.3557;0.4188;
762.9000;0.3573;0.4237;
763.2000;0.3541;0.4213;
763.5000;0.3565;0.4286;
763.8000;0.3565;0.4261;
764.1000;0.3549;0.4261;
764.4000;0.3549;0.4261;
764.7000;0.3549;0.4286;
765.0000;0.3525;0.4188;
765.3000;0.3549;0.4188;
765.6000;0.3582;0.4237;
765.9000;0.3533;0.4140;
766.2000;0.3549;0.4213;
766.5000;0.3565;0.4213;
766.8000;0.3557;0.4261;
767.1000;0.3443;0.3920;
767.4000;0.3508;0.4115;
767.7000;0.3557;0.4213;
768.0000;0.3533;0.4066;
768.3000;0.3573;0.4188;
768.6000;0.3549;0.4140;
768.9000;0.3533;0.4140;
769.2000;0.3525;0.4042;
769.5000;0.3541;0.3993;
769.8000;0.3549;0.4018;
770.1000;0.3533;0.4042;
770.4000;0.3541;0.4018;
770.7000;0.3541;0.3945;
771.0000;0.3541;0.3945;
771.3000;0.3541;0.3993;
771.6000;0.3525;0.4042;
771.9000;0.3549;0.4140;
772.2000;0.3533;0.4042;
772.5000;0.3533;0.4042;
772.8000;0.3557;0.4066;
773.1000;0.3549;0.4066;
773.4000;0.3525;0.4066;
773.7000;0.3541;0.4164;
774.0000;0.3549;0.4213;
774.3000;0.3541;0.4261;
774.6000;0.3541;0.4213;
774.9000;0.3508;0.4140;
775.2000;0.3549;0.4261;
775.5000;0.3549;0.4237;
775.8000;0.3541;0.4213;
776.1000;0.3541;0.4188;
776.4000;0.3549;0.4237;
776.7000;0.3533;0.4237;
777.0000;0.3541;0.4091;
777.3000;0.3533;0.4066;
777.6000;0.3573;0.4115;
777.9000;0.3557;0.4018;
778.2000;0.3541;0.3920;
778.5000;0.3541;0.3993;
778.8000;0.3541;0.4042;
779.1000;0.3549;0.4091;
779.4000;0.3541;0.4018;
779.7000;0.3500;0.3945;
780.0000;0.3508;0.3920;
780.3000;0.3541;0.3945;
780.6000;0.3500;0.3823;
780.9000;0.3525;0.3872;
781.2000;0.3565;0.3896;
781.5000;0.3533;0.3823;
781.8000;0.3525;0.3872;
782.1000;0.3541;0.3896;
782.4000;0.3508;0.3872;
782.7000;0.3630;0.4237;
783.0000;0.3541;0.4042;
783.3000;0.3549;0.4042;
783.6000;0.3508;0.3969;
783.9000;0.3525;0.4042;
784.2000;0.3541;0.4066;
784.5000;0.3460;0.3896;
784.8000;0.3533;0.4091;
785.1000;0.3533;0.4066;
785.4000;0.3525;0.3993;
785.7000;0.3533;0.3969;
786.0000;0.3533;0.4066;
786.3000;0.3541;0.4164;
786.6000;0.3533;0.4140;
786.9000;0.3516;0.4140;
787.2000;0.3557;0.4237;
787.5000;0.3525;0.4237;
787.8000;0.3565;0.4310;
788.1000;0.3565;0.4334;
788.4000;0.3549;0.4213;
788.7000;0.3582;0.4310;
789.0000;0.3541;0.4213;
789.3000;0.3525;0.4188;
789.6000;0.3525;0.4164;
789.9000;0.3500;0.4091;
790.2000;0.3525;0.4164;
790.5000;0.3468;0.3993;
790.8000;0.3557;0.4164;
791.1000;0.3549;0.4115;
791.4000;0.3582;0.4188;
791.7000;0.3492;0.4042;
792.0000;0.3533;0.4066;
792.3000;0.3630;0.4286;
792.6000;0.3508;0.3969;
792.9000;0.3533;0.4042;
793.2000;0.3541;0.4115;
793.5000;0.3557;0.4213;
793.8000;0.3557;0.4115;
794.1000;0.3549;0.4164;
794.4000;0.3557;0.4237;
794.7000;0.3541;0.4140;
795.0000;0.3541;0.4140;
795.3000;0.3525;0.4164;
795.6000;0.3541;0.4237;
795.9000;0.3533;0.4261;
796.2000;0.3541;0.4115;
796.5000;0.3516;0.4042;
796.8000;0.3549;0.4140;
797.1000;0.3533;0.4042;
797.4000;0.3533;0.4042;
797.7000;0.3533;0.4091;
798.0000;0.3549;0.4115;
798.3000;0.3533;0.4188;
798.6000;0.3500;0.4091;
798.9000;0.3541;0.4237;
799.2000;0.3541;0.4286;
799.5000;0.3525;0.4188;
799.8000;0.3541;0.4213;
800.1000;0.3516;0.4115;
800.4000;0.3549;0.4164;
800.7000;0.3500;0.4091;
801.0000;0.3508;0.4140;
801.3000;0.3533;0.4213;
801.6000;0.3582;0.4359;
801.9000;0.3565;0.4237;
802.2000;0.3541;0.4310;
802.5000;0.3541;0.4286;
802.8000;0.3549;0.4237;
803.1000;0.3500;0.4042;
803.4000;0.3541;0.4188;
803.7000;0.3533;0.4188;
804.0000;0.3508;0.4164;
804.3000;0.3516;0.4188;
804.6000;0.3508;0.4164;
804.9000;0.3508;0.4261;
805.2000;0.3533;0.4286;
805.5000;0.3516;0.4237;
805.8000;0.3533;0.4213;
806.1000;0.3565;0.4188;
806.4000;0.3516;0.4164;
806.7000;0.3533;0.4213;
807.0000;0.3525;0.4261;
807.3000;0.3525;0.4237;
807.6000;0.3557;0.4237;
807.9000;0.3541;0.4188;
808.2000;0.3533;0.4188;
808.5000;0.3541;0.4334;
808.8000;0.3525;0.4286;
809.1000;0.3525;0.4286;
809.4000;0.3533;0.4359;
809.7000;0.3468;0.4237;
810.0000;0.3525;0.4261;
810.3000;0.3516;0.4310;
810.6000;0.3508;0.4237;
810.9000;0.3565;0.4456;
811.2000;0.3525;0.4383;
811.5000;0.3533;0.4334;
811.8000;0.3492;0.4213;
812.1000;0.3525;0.4213;
812.4000;0.3590;0.4237;
812.7000;0.3541;0.4066;
813.0000;0.3533;0.4018;
813.3000;0.3533;0.3969;
813.6000;0.3533;0.4091;
813.9000;0.3541;0.4164;
814.2000;0.3525;0.4091;
814.5000;0.3533;0.4237;
814.8000;0.3533;0.4286;
815.1000;0.3525;0.4213;
815.4000;0.3525;0.4213;
815.7000;0.3516;0.4188;
816.0000;0.3508;0.4188;
816.3000;0.3508;0.4164;
816.6000;0.3508;0.4164;
816.9000;0.3516;0.4140;
817.2000;0.3533;0.4091;
817.5000;0.3500;0.4042;
817.8000;0.3525;0.4188;
818.1000;0.3525;0.4140;
818.4000;0.3525;0.4066;
818.7000;0.3541;0.4091;
819.0000;0.3541;0.4115;
819.3000;0.3525;0.4091;
819.6000;0.3549;0.4213;
819.9000;0.3557;0.4359;
820.2000;0.3557;0.4407;
820.5000;0.3549;0.4334;
820.8000;0.3516;0.4334;
821.1000;0.3557;0.4480;
821.4000;0.3516;0.4407;
821.7000;0.3525;0.4383;
822.0000;0.3500;0.4237;
822.3000;0.3533;0.4286;
822.6000;0.3557;0.4383;
822.9000;0.3516;0.4310;
823.2000;0.3508;0.4237;
823.5000;0.3541;0.4286;
823.8000;0.3541;0.4237;
824.1000;0.3516;0.4213;
824.4000;0.3614;0.4334;
824.7000;0.3533;0.3993;
825.0000;0.3516;0.4042;
825.3000;0.3525;0.4115;
825.6000;0.3541;0.4188;
825.9000;0.3516;0.4213;
826.2000;0.3525;0.4286;
826.5000;0.3549;0.4334;
826.8000;0.3590;0.4553;
827.1000;0.3533;0.4359;
827.4000;0.3533;0.4334;
827.7000;0.3533;0.4407;
828.0000;0.3525;0.4334;
828.3000;0.3533;0.4359;
828.6000;0.3516;0.4359;
828.9000;0.3525;0.4334;
829.2000;0.3533;0.4359;
829.5000;0.3516;0.4310;
829.8000;0.3525;0.4432;
830.1000;0.3516;0.4359;
830.4000;0.3549;0.4383;
830.7000;0.3516;0.4334;
831.0000;0.3443;0.4164;
831.3000;0.3516;0.4310;
831.6000;0.3476;0.4188;
831.9000;0.3516;0.4310;
832.2000;0.3516;0.4237;
832.5000;0.3500;0.4213;
832.8000;0.3508;0.4237;
833.1000;0.3516;0.4334;
833.4000;0.3427;0.4261;
833.7000;0.3476;0.4261;
834.0000;0.3525;0.4383;
834.3000;0.3533;0.4359;
834.6000;0.3525;0.4286;
834.9000;0.3533;0.4310;
835.2000;0.3533;0.4286;
835.5000;0.3549;0.4359;
835.8000;0.3516;0.4261;
836.1000;0.3533;0.4261;
836.4000;0.3533;0.4261;
836.7000;0.3525;0.4261;
837.0000;0.3525;0.4310;
837.3000;0.3549;0.4432;
837.6000;0.3525;0.4261;
837.9000;0.3525;0.4164;
838.2000;0.3525;0.4188;
838.5000;0.3533;0.4213;
838.8000;0.3525;0.4115;
839.1000;0.3508;0.4091;
839.4000;0.3533;0.4164;
839.7000;0.3533;0.4188;
840.0000;0.3500;0.4140;
840.3000;0.3541;0.4188;
840.6000;0.3525;0.4237;
840.9000;0.3427;0.4018;
841.2000;0.3484;0.4066;
841.5000;0.3516;0.4188;
841.8000;0.3516;0.4237;
842.1000;0.3525;0.4237;
842.4000;0.3508;0.4164;
842.7000;0.3541;0.4237;
843.0000;0.3525;0.4261;
843.3000;0.3525;0.4310;
843.6000;0.3500;0.4286;
843.9000;0.3525;0.4310;
844.2000;0.3533;0.4261;
844.5000;0.3525;0.4188;
844.8000;0.3525;0.4164;
845.1000;0.3525;0.4261;
845.4000;0.3516;0.4237;
845.7000;0.3500;0.4213;
846.0000;0.3468;0.4091;
846.3000;0.3492;0.4140;
846.6000;0.3468;0.4115;
846.9000;0.3541;0.4310;
847.2000;0.3525;0.4261;
847.5000;0.3516;0.4164;
847.8000;0.3516;0.4091;
848.1000;0.3516;0.4066;
848.4000;0.3533;0.4091;
848.7000;0.3557;0.4310;
849.0000;0.3516;0.4261;
849.3000;0.3541;0.4334;
849.6000;0.3451;0.4042;
849.9000;0.3573;0.4359;
850.2000;0.3484;0.4140;
850.5000;0.3541;0.4261;
850.8000;0.3533;0.4261;
851.1000;0.3525;0.4237;
851.4000;0.3516;0.4164;
851.7000;0.3516;0.4286;
852.0000;0.3508;0.4286;
852.3000;0.3484;0.4115;
852.6000;0.3508;0.4188;
852.9000;0.3516;0.4115;
853.2000;0.3500;0.4066;
853.5000;0.3508;0.4018;
853.8000;0.3525;0.4018;
854.1000;0.3541;0.4140;
854.4000;0.3525;0.4188;
854.7000;0.3525;0.4213;
855.0000;0.3525;0.4286;
855.3000;0.3557;0.4456;
855.6000;0.3541;0.4310;
855.9000;0.3533;0.4310;
856.2000;0.3516;0.4237;
856.5000;0.3508;0.4188;
856.8000;0.3525;0.4334;
857.1000;0.3516;0.4359;
857.4000;0.3525;0.4359;
857.7000;0.3508;0.4310;
858.0000;0.3541;0.4505;
858.3000;0.3516;0.4383;
858.6000;0.3533;0.4407;
858.9000;0.3516;0.4383;
859.2000;0.3516;0.4359;
859.5000;0.3541;0.4310;
859.8000;0.3516;0.4310;
860.1000;0.3533;0.4334;
860.4000;0.3565;0.4407;
860.7000;0.3525;0.4188;
861.0000;0.3525;0.4261;
861.3000;0.3516;0.4334;
861.6000;0.3516;0.4359;
861.9000;0.3516;0.4359;
862.2000;0.3476;0.4237;
862.5000;0.3500;0.4237;
862.8000;0.3516;0.4213;
863.1000;0.3582;0.4334;
863.4000;0.3533;0.4261;
863.7000;0.3516;0.4261;
864.0000;0.3468;0.4066;
864.3000;0.3516;0.4286;
864.6000;0.3525;0.4286;
864.9000;0.3525;0.4237;
865.2000;0.3516;0.4188;
865.5000;0.3508;0.4188;
865.8000;0.3525;0.4310;
866.1000;0.3516;0.4310;
866.4000;0.3492;0.4261;
866.7000;0.3500;0.4261;
867.0000;0.3573;0.4480;
867.3000;0.3516;0.4480;
867.6000;0.3516;0.4505;
867.9000;0.3492;0.4359;
868.2000;0.3533;0.4456;
868.5000;0.3525;0.4407;
868.8000;0.3508;0.4432;
869.1000;0.3500;0.4456;
869.4000;0.3500;0.4456;
869.7000;0.3525;0.4432;
870.0000;0.3525;0.4407;
870.3000;0.3533;0.4456;
870.6000;0.3484;0.4359;
870.9000;0.3533;0.4407;
871.2000;0.3525;0.4286;
871.5000;0.3541;0.4237;
871.8000;0.3525;0.4261;
872.1000;0.3525;0.4213;
872.4000;0.3516;0.4213;
872.7000;0.3468;0.4213;
873.0000;0.3508;0.4407;
873.3000;0.3516;0.4456;
873.6000;0.3508;0.4456;
873.9000;0.3516;0.4505;
874.2000;0.3516;0.4505;
874.5000;0.3516;0.4432;
874.8000;0.3525;0.4456;
875.1000;0.3508;0.4432;
875.4000;0.3508;0.4359;
875.7000;0.3516;0.4456;
876.0000;0.3516;0.4432;
876.3000;0.3516;0.4407;
876.6000;0.3525;0.4432;
876.9000;0.3508;0.4310;
877.2000;0.3492;0.4213;
877.5000;0.3525;0.4261;
877.8000;0.3508;0.4188;
878.1000;0.3427;0.4018;
878.4000;0.3573;0.4383;
878.7000;0.3516;0.4261;
879.0000;0.3516;0.4261;
879.3000;0.3492;0.4213;
879.6000;0.3516;0.4261;
879.9000;0.3533;0.4359;
880.2000;0.3525;0.4359;
880.5000;0.3508;0.4310;
880.8000;0.3484;0.4213;
881.1000;0.3516;0.4286;
881.4000;0.3533;0.4261;
881.7000;0.3525;0.4261;
882.0000;0.3508;0.4261;
882.3000;0.3508;0.4261;
882.6000;0.3508;0.4188;
882.9000;0.3508;0.4237;
883.2000;0.3492;0.4310;
883.5000;0.3516;0.4261;
883.8000;0.3516;0.4237;
884.1000;0.3500;0.4310;
884.4000;0.3516;0.4334;
884.7000;0.3508;0.4286;
885.0000;0.3525;0.4310;
885.3000;0.3476;0.4164;
885.6000;0.3500;0.4140;
885.9000;0.3525;0.4213;
886.2000;0.3435;0.4066;
886.5000;0.3508;0.4261;
886.8000;0.3516;0.4310;
887.1000;0.3500;0.4359;
887.4000;0.3500;0.4310;
887.7000;0.3516;0.4310;
888.0000;0.3492;0.4188;
888.3000;0.3508;0.4091;
888.6000;0.3508;0.4213;
888.9000;0.3516;0.4286;
889.2000;0.3476;0.4188;
889.5000;0.3508;0.4310;
889.8000;0.3516;0.4334;
890.1000;0.3508;0.4359;
890.4000;0.3500;0.4237;
890.7000;0.3500;0.4334;
891.0000;0.3508;0.4383;
891.3000;0.3508;0.4383;
891.6000;0.3500;0.4261;
891.9000;0.3508;0.4310;
892.2000;0.3516;0.4310;
892.5000;0.3468;0.4115;
892.8000;0.3508;0.4261;
893.1000;0.3508;0.4359;
893.4000;0.3492;0.4432;
893.7000;0.3484;0.4383;
894.0000;0.3516;0.4456;
894.3000;0.3525;0.4480;
894.6000;0.3516;0.4432;
894.9000;0.3525;0.4383;
895.2000;0.3516;0.4432;
895.5000;0.3525;0.4407;
895.8000;0.3508;0.4286;
896.1000;0.3500;0.4286;
896.4000;0.3516;0.4213;
896.7000;0.3500;0.4164;
897.0000;0.3484;0.4164;
897.3000;0.3525;0.4237;
897.6000;0.3622;0.4407;
897.9000;0.3516;0.4188;
898.2000;0.3500;0.4261;
898.5000;0.3508;0.4261;
898.8000;0.3516;0.4237;
899.1000;0.3582;0.4407;
899.4000;0.3533;0.4334;
899.7000;0.3500;0.4286;
900.0000;0.3500;0.4359;
900.3000;0.3476;0.4261;
900.6000;0.3468;0.4286;
900.9000;0.3492;0.4383;
901.2000;0.3516;0.4456;
901.5000;0.3508;0.4407;
901.8000;0.3508;0.4383;
902.1000;0.3508;0.4432;
902.4000;0.3590;0.4651;
902.7000;0.3516;0.4432;
903.0000;0.3500;0.4432;
903.3000;0.3516;0.4359;
903.6000;0.3516;0.4334;
903.9000;0.3516;0.4407;
904.2000;0.3525;0.4505;
904.5000;0.3533;0.4529;
904.8000;0.3508;0.4505;
905.1000;0.3451;0.4334;
905.4000;0.3484;0.4407;
905.7000;0.3508;0.4505;
906.0000;0.3557;0.4627;
906.3000;0.3541;0.4553;
906.6000;0.3516;0.4383;
906.9000;0.3508;0.4359;
907.2000;0.3508;0.4359;
907.5000;0.3549;0.4432;
907.8000;0.3541;0.4383;
908.1000;0.3525;0.4310;
908.4000;0.3557;0.4359;
908.7000;0.3533;0.4286;
909.0000;0.3516;0.4286;
909.3000;0.3525;0.4334;
909.6000;0.3525;0.4383;
909.9000;0.3516;0.4334;
910.2000;0.3549;0.4383;
910.5000;0.3565;0.4456;
910.8000;0.3508;0.4407;
911.1000;0.3516;0.4383;
911.4000;0.3525;0.4407;
911.7000;0.3516;0.4383;
912.0000;0.3508;0.4456;
912.3000;0.3516;0.4553;
912.6000;0.3492;0.4334;
912.9000;0.3516;0.4334;
913.2000;0.3525;0.4334;
913.5000;0.3614;0.4553;
913.8000;0.3508;0.4261;
914.1000;0.3516;0.4383;
914.4000;0.3460;0.4286;
914.7000;0.3508;0.4456;
915.0000;0.3541;0.4651;
915.3000;0.3508;0.4578;
915.6000;0.3508;0.4651;
915.9000;0.3516;0.4553;
916.2000;0.3508;0.4529;
916.5000;0.3500;0.4383;
916.8000;0.3492;0.4286;
917.1000;0.3492;0.4237;
917.4000;0.3484;0.4188;
917.7000;0.3492;0.4237;
918.0000;0.3508;0.4261;
918.3000;0.3516;0.4286;
918.6000;0.3516;0.4310;
918.9000;0.3492;0.4310;
919.2000;0.3484;0.4334;
919.5000;0.3516;0.4334;
919.8000;0.3525;0.4286;
920.1000;0.3508;0.4286;
920.4000;0.3516;0.4261;
920.7000;0.3508;0.4164;
921.0000;0.3435;0.3993;
921.3000;0.3525;0.4261;
921.6000;0.3516;0.4237;
921.9000;0.3500;0.4213;
922.2000;0.3500;0.4213;
922.5000;0.3533;0.4310;
922.8000;0.3500;0.4261;
923.1000;0.3565;0.4407;
923.4000;0.3533;0.4359;
923.7000;0.3500;0.4237;
924.0000;0.3492;0.4237;
924.3000;0.3598;0.4480;
924.6000;0.3516;0.4213;
924.9000;0.3500;0.4188;
925.2000;0.3500;0.4188;
925.5000;0.3500;0.4237;
925.8000;0.3516;0.4359;
926.1000;0.3500;0.4334;
926.4000;0.3484;0.4334;
926.7000;0.3508;0.4407;
927.0000;0.3492;0.4407;
927.3000;0.3525;0.4480;
927.6000;0.3492;0.4432;
927.9000;0.3508;0.4456;
928.2000;0.3508;0.4505;
928.5000;0.3516;0.4627;
928.8000;0.3492;0.4505;
929.1000;0.3500;0.4553;
929.4000;0.3508;0.4578;
929.7000;0.3508;0.4627;
930.0000;0.3516;0.4505;
930.3000;0.3606;0.4675;
930.6000;0.3500;0.4432;
930.9000;0.3516;0.4480;
931.2000;0.3508;0.4456;
931.5000;0.3500;0.4432;
931.8000;0.3516;0.4578;
932.1000;0.3508;0.4553;
932.4000;0.3508;0.4602;
932.7000;0.3525;0.4578;
933.0000;0.3508;0.4456;
933.3000;0.3500;0.4359;
933.6000;0.3508;0.4286;
933.9000;0.3500;0.4286;
934.2000;0.3508;0.4334;
934.5000;0.3516;0.4432;
934.8000;0.3508;0.4456;
935.1000;0.3508;0.4359;
935.4000;0.3508;0.4383;
935.7000;0.3508;0.4407;
936.0000;0.3500;0.4407;
936.3000;0.3500;0.4456;
936.6000;0.3516;0.4383;
936.9000;0.3508;0.4383;
937.2000;0.3492;0.4286;
937.5000;0.3492;0.4286;
937.8000;0.3492;0.4407;
938.1000;0.3492;0.4359;
938.4000;0.3500;0.4383;
938.7000;0.3500;0.4310;
939.0000;0.3484;0.4310;
939.3000;0.3508;0.4383;
939.6000;0.3508;0.4432;
939.9000;0.3492;0.4334;
940.2000;0.3500;0.4310;
940.5000;0.3492;0.4237;
940.8000;0.3500;0.4188;
941.1000;0.3582;0.4407;
941.4000;0.3476;0.4188;
941.7000;0.3508;0.4286;
942.0000;0.3500;0.4188;
942.3000;0.3525;0.4188;
942.6000;0.3516;0.4188;
942.9000;0.3541;0.4334;
943.2000;0.3533;0.4286;
943.5000;0.3525;0.4310;
943.8000;0.3516;0.4359;
944.1000;0.3484;0.4334;
944.4000;0.3508;0.4383;
944.7000;0.3500;0.4310;
945.0000;0.3508;0.4286;
945.3000;0.3541;0.4286;
945.6000;0.3500;0.4213;
945.9000;0.3492;0.4286;
946.2000;0.3516;0.4261;
946.5000;0.3516;0.4286;
946.8000;0.3516;0.4383;
947.1000;0.3525;0.4359;
947.4000;0.3508;0.4310;
947.7000;0.3525;0.4383;
948.0000;0.3500;0.4359;
948.3000;0.3508;0.4359;
948.6000;0.3516;0.4407;
948.9000;0.3533;0.4383;
949.2000;0.3500;0.4359;
949.5000;0.3492;0.4310;
949.8000;0.3516;0.4383;
950.1000;0.3500;0.4310;
950.4000;0.3500;0.4261;
950.7000;0.3484;0.4140;
951.0000;0.3500;0.4188;
951.3000;0.3525;0.4188;
951.6000;0.3508;0.4164;
951.9000;0.3492;0.4188;
952.2000;0.3525;0.4334;
952.5000;0.3516;0.4334;
952.8000;0.3492;0.4213;
953.1000;0.3516;0.4261;
953.4000;0.3516;0.4237;
953.7000;0.3516;0.4237;
954.0000;0.3508;0.4310;
954.3000;0.3500;0.4261;
954.6000;0.3500;0.4310;
954.9000;0.3516;0.4359;
955.2000;0.3508;0.4407;
955.5000;0.3508;0.4310;
955.8000;0.3500;0.4140;
956.1000;0.3549;0.4261;
956.4000;0.3508;0.4188;
956.7000;0.3516;0.4188;
957.0000;0.3500;0.4091;
957.3000;0.3541;0.4237;
957.6000;0.3525;0.4213;
957.9000;0.3525;0.4286;
958.2000;0.3508;0.4286;
958.5000;0.3492;0.4310;
958.8000;0.3492;0.4383;
959.1000;0.3500;0.4407;
959.4000;0.3500;0.4359;
959.7000;0.3492;0.4383;
960.0000;0.3484;0.4286;
960.3000;0.3508;0.4407;
960.6000;0.3492;0.4432;
960.9000;0.3500;0.4456;
961.2000;0.3516;0.4456;
961.5000;0.3508;0.4383;
961.8000;0.3525;0.4407;
962.1000;0.3516;0.4310;
962.4000;0.3533;0.4286;
962.7000;0.3533;0.4188;
963.0000;0.3508;0.4066;
963.3000;0.3492;0.4140;
963.6000;0.3500;0.4237;
963.9000;0.3500;0.4237;
964.2000;0.3500;0.4164;
964.5000;0.3541;0.4359;
964.8000;0.3582;0.4553;
965.1000;0.3516;0.4432;
965.4000;0.3508;0.4359;
965.7000;0.3533;0.4432;
966.0000;0.3484;0.4261;
966.3000;0.3525;0.4359;
966.6000;0.3516;0.4334;
966.9000;0.3500;0.4213;
967.2000;0.3516;0.4286;
967.5000;0.3516;0.4334;
967.8000;0.3468;0.4286;
968.1000;0.3500;0.4407;
968.4000;0.3468;0.4310;
968.7000;0.3508;0.4383;
969.0000;0.3525;0.4359;
969.3000;0.3516;0.4432;
969.6000;0.3525;0.4359;
969.9000;0.3508;0.4286;
970.2000;0.3451;0.4286;
970.5000;0.3500;0.4456;
970.8000;0.3516;0.4480;
971.1000;0.3451;0.4383;
971.4000;0.3500;0.4553;
971.7000;0.3476;0.4480;
972.0000;0.3476;0.4407;
972.3000;0.3500;0.4505;
972.6000;0.3492;0.4480;
972.9000;0.3500;0.4432;
973.2000;0.3500;0.4407;
973.5000;0.3476;0.4407;
973.8000;0.3500;0.4407;
974.1000;0.3468;0.4237;
974.4000;0.3500;0.4334;
974.7000;0.3492;0.4286;
975.0000;0.3541;0.4432;
975.3000;0.3541;0.4432;
975.6000;0.3492;0.4334;
975.9000;0.3484;0.4261;
976.2000;0.3508;0.4334;
976.5000;0.3525;0.4383;
976.8000;0.3525;0.4456;
977.1000;0.3500;0.4432;
977.4000;0.3492;0.4480;
977.7000;0.3508;0.4553;
978.0000;0.3492;0.4480;
978.3000;0.3516;0.4529;
978.6000;0.3508;0.4480;
978.9000;0.3516;0.4359;
979.2000;0.3484;0.4286;
979.5000;0.3476;0.4286;
979.8000;0.3508;0.4310;
980.1000;0.3508;0.4310;
980.4000;0.3500;0.4310;
980.7000;0.3476;0.4237;
981.0000;0.3492;0.4237;
981.3000;0.3492;0.4213;
981.6000;0.3508;0.4237;
981.9000;0.3435;0.4164;
982.2000;0.3525;0.4286;
982.5000;0.3492;0.4164;
982.8000;0.3516;0.4286;
983.1000;0.3500;0.4261;
983.4000;0.3468;0.4164;
983.7000;0.3492;0.4213;
984.0000;0.3476;0.4213;
984.3000;0.3492;0.4286;
984.6000;0.3516;0.4359;
984.9000;0.3484;0.4383;
985.2000;0.3492;0.4407;
985.5000;0.3500;0.4529;
985.8000;0.3516;0.4480;
986.1000;0.3516;0.4480;
986.4000;0.3492;0.4456;
986.7000;0.3460;0.4383;
987.0000;0.3508;0.4407;
987.3000;0.3492;0.4334;
987.6000;0.3525;0.4407;
987.9000;0.3484;0.4286;
988.2000;0.3508;0.4334;
988.5000;0.3516;0.4334;
988.8000;0.3533;0.4359;
989.1000;0.3516;0.4334;
989.4000;0.3508;0.4359;
989.7000;0.3516;0.4383;
990.0000;0.3484;0.4261;
990.3000;0.3500;0.4286;
990.6000;0.3468;0.4237;
990.9000;0.3508;0.4286;
991.2000;0.3492;0.4237;
991.5000;0.3484;0.4188;
991.8000;0.3541;0.4310;
992.1000;0.3468;0.4164;
992.4000;0.3582;0.4505;
992.7000;0.3492;0.4310;
993.0000;0.3525;0.4286;
993.3000;0.3525;0.4213;
993.6000;0.3508;0.4286;
993.9000;0.3492;0.4310;
994.2000;0.3500;0.4480;
994.5000;0.3508;0.4432;
994.8000;0.3508;0.4383;
995.1000;0.3476;0.4286;
995.4000;0.3492;0.4237;
995.7000;0.3508;0.4164;
996.0000;0.3525;0.4261;
996.3000;0.3533;0.4334;
996.6000;0.3598;0.4529;
996.9000;0.3557;0.4505;
997.2000;0.3525;0.4432;
997.5000;0.3500;0.4310;
997.8000;0.3508;0.4310;
998.1000;0.3525;0.4310;
998.4000;0.3484;0.4213;
998.7000;0.3508;0.4237;
999.0000;0.3508;0.4286;
999.3000;0.3516;0.4261;
999.6000;0.3516;0.4261;
999.9000;0.3516;0.4213;
1000.2000;0.3500;0.4213;
1000.5000;0.3508;0.4164;
1000.8000;0.3500;0.4188;
1001.1000;0.3500;0.4261;
1001.4000;0.3500;0.4237;
1001.7000;0.3508;0.4188;
1002.0000;0.3492;0.4140;
1002.3000;0.3516;0.4164;
1002.6000;0.3492;0.4115;
1002.9000;0.3500;0.4164;
1003.2000;0.3451;0.4018;
1003.5000;0.3516;0.4188;
1003.8000;0.3508;0.4188;
1004.1000;0.3508;0.4213;
1004.4000;0.3500;0.4213;
1004.7000;0.3508;0.4213;
1005.0000;0.3500;0.4213;
1005.3000;0.3484;0.4213;
1005.6000;0.3508;0.4237;
1005.9000;0.3516;0.4286;
1006.2000;0.3500;0.4359;
1006.5000;0.3500;0.4359;
1006.8000;0.3492;0.4359;
1007.1000;0.3484;0.4261;
1007.4000;0.3516;0.4237;
1007.7000;0.3516;0.4237;
1008.0000;0.3508;0.4213;
1008.3000;0.3516;0.4213;
1008.6000;0.3500;0.4188;
1008.9000;0.3500;0.4164;
1009.2000;0.3492;0.4188;
1009.5000;0.3500;0.4286;
1009.8000;0.3484;0.4164;
1010.1000;0.3500;0.4115;
1010.4000;0.3476;0.4066;
1010.7000;0.3500;0.4066;
1011.0000;0.3508;0.4213;
1011.3000;0.3516;0.4286;
1011.6000;0.3508;0.4310;
1011.9000;0.3508;0.4286;
1012.2000;0.3508;0.4261;
1012.5000;0.3484;0.4140;
1012.8000;0.3533;0.4237;
1013.1000;0.3516;0.4115;
1013.4000;0.3549;0.4261;
1013.7000;0.3516;0.4261;
1014.0000;0.3516;0.4188;
1014.3000;0.3525;0.4213;
1014.6000;0.3492;0.4115;
1014.9000;0.3549;0.4213;
1015.2000;0.3476;0.3993;
1015.5000;0.3460;0.3896;
1015.8000;0.3492;0.4018;
1016.1000;0.3525;0.4115;
1016.4000;0.3516;0.4066;
1016.7000;0.3549;0.4164;
1017.0000;0.3541;0.4188;
1017.3000;0.3500;0.4091;
1017.6000;0.3508;0.4164;
1017.9000;0.3500;0.4140;
1018.2000;0.3492;0.4091;
1018.5000;0.3419;0.4042;
1018.8000;0.3500;0.4261;
1019.1000;0.3508;0.4286;
1019.4000;0.3500;0.4213;
1019.7000;0.3508;0.4140;
1020.0000;0.3492;0.4164;
1020.3000;0.3525;0.4188;
1020.6000;0.3508;0.4091;
1020.9000;0.3500;0.4140;
1021.2000;0.3484;0.4091;
1021.5000;0.3508;0.4261;
1021.8000;0.3492;0.4261;
1022.1000;0.3500;0.4286;
1022.4000;0.3500;0.4286;
1022.7000;0.3516;0.4310;
1023.0000;0.3508;0.4286;
1023.3000;0.3508;0.4286;
1023.6000;0.3516;0.4334;
1023.9000;0.3525;0.4359;
1024.2000;0.3500;0.4286;
1024.5000;0.3500;0.4261;
1024.8000;0.3484;0.4237;
1025.1000;0.3492;0.4213;
1025.4000;0.3508;0.4237;
1025.7000;0.3492;0.4286;
1026.0000;0.3508;0.4286;
1026.3000;0.3508;0.4286;
1026.6000;0.3500;0.4213;
1026.9000;0.3508;0.4334;
1027.2000;0.3492;0.4310;
1027.5000;0.3500;0.4286;
1027.8000;0.3516;0.4383;
1028.1000;0.3516;0.4334;
1028.4000;0.3516;0.4286;
1028.7000;0.3492;0.4310;
1029.0000;0.3508;0.4310;
1029.3000;0.3484;0.4213;
1029.6000;0.3492;0.4286;
1029.9000;0.3476;0.4334;
1030.2000;0.3500;0.4286;
1030.5000;0.3484;0.4237;
1030.8000;0.3484;0.4237;
1031.1000;0.3484;0.4237;
1031.4000;0.3582;0.4480;
1031.7000;0.3516;0.4310;
1032.0000;0.3500;0.4334;
1032.3000;0.3484;0.4359;
1032.6000;0.3516;0.4383;
1032.9000;0.3500;0.4286;
1033.2000;0.3500;0.4310;
1033.5000;0.3484;0.4310;
1033.8000;0.3500;0.4310;
1034.1000;0.3492;0.4213;
1034.4000;0.3435;0.4066;
1034.7000;0.3484;0.4140;
1035.0000;0.3419;0.3872;
1035.3000;0.3500;0.4213;
1035.6000;0.3500;0.4115;
1035.9000;0.3500;0.4066;
1036.2000;0.3476;0.4066;
1036.5000;0.3500;0.4213;
1036.8000;0.3508;0.4261;
1037.1000;0.3541;0.4383;
1037.4000;0.3508;0.4310;
1037.7000;0.3508;0.4383;
1038.0000;0.3508;0.4383;
1038.3000;0.3484;0.4432;
1038.6000;0.3492;0.4383;
1038.9000;0.3500;0.4359;
1039.2000;0.3500;0.4334;
1039.5000;0.3500;0.4286;
1039.8000;0.3492;0.4261;
1040.1000;0.3500;0.4310;
1040.4000;0.3508;0.4383;
1040.7000;0.3484;0.4456;
1041.0000;0.3492;0.4480;
1041.3000;0.3508;0.4627;
1041.6000;0.3500;0.4553;
1041.9000;0.3500;0.4480;
1042.2000;0.3484;0.4480;
1042.5000;0.3492;0.4529;
1042.8000;0.3492;0.4505;
1043.1000;0.3549;0.4627;
1043.4000;0.3500;0.4505;
1043.7000;0.3484;0.4407;
1044.0000;0.3500;0.4456;
1044.3000;0.3492;0.4505;
1044.6000;0.3500;0.4529;
1044.9000;0.3468;0.4480;
1045.2000;0.3484;0.4456;
1045.5000;0.3508;0.4456;
1045.8000;0.3516;0.4529;
1046.1000;0.3500;0.4627;
1046.4000;0.3484;0.4700;
1046.7000;0.3516;0.4700;
1047.0000;0.3508;0.4651;
1047.3000;0.3516;0.4773;
1047.6000;0.3492;0.4700;
1047.9000;0.3492;0.4748;
1048.2000;0.3516;0.4846;
1048.5000;0.3541;0.4846;
1048.8000;0.3500;0.4821;
1049.1000;0.3484;0.4773;
1049.4000;0.3484;0.4724;
1049.7000;0.3492;0.4748;
1050.0000;0.3492;0.4724;
1050.3000;0.3492;0.4627;
1050.6000;0.3525;0.4578;
1050.9000;0.3484;0.4505;
1051.2000;0.3484;0.4553;
1051.5000;0.3460;0.4456;
1051.8000;0.3492;0.4529;
1052.1000;0.3476;0.4480;
1052.4000;0.3484;0.4553;
1052.7000;0.3492;0.4627;
1053.0000;0.3492;0.4675;
1053.3000;0.3362;0.4310;
1053.6000;0.3508;0.4627;
1053.9000;0.3525;0.4748;
1054.2000;0.3492;0.4724;
1054.5000;0.3460;0.4602;
1054.8000;0.3476;0.4627;
1055.1000;0.3508;0.4651;
1055.4000;0.3516;0.4700;
1055.7000;0.3500;0.4675;
1056.0000;0.3500;0.4675;
1056.3000;0.3492;0.4724;
1056.6000;0.3500;0.4675;
1056.9000;0.3500;0.4724;
1057.2000;0.3508;0.4675;
1057.5000;0.3500;0.4627;
1057.8000;0.3500;0.4578;
1058.1000;0.3500;0.4529;
1058.4000;0.3516;0.4578;
1058.7000;0.3508;0.4432;
1059.0000;0.3508;0.4383;
1059.3000;0.3508;0.4334;
1059.6000;0.3508;0.4359;
1059.9000;0.3516;0.4432;
1060.2000;0.3525;0.4480;
1060.5000;0.3492;0.4383;
1060.8000;0.3508;0.4456;
1061.1000;0.3500;0.4334;
1061.4000;0.3476;0.4261;
1061.7000;0.3516;0.4383;
1062.0000;0.3476;0.4286;
1062.3000;0.3492;0.4334;
1062.6000;0.3500;0.4480;
1062.9000;0.3508;0.4602;
1063.2000;0.3451;0.4383;
1063.5000;0.3492;0.4578;
1063.8000;0.3500;0.4505;
1064.1000;0.3484;0.4480;
1064.4000;0.3492;0.4505;
1064.7000;0.3492;0.4432;
1065.0000;0.3468;0.4310;
1065.3000;0.3476;0.4310;
1065.6000;0.3508;0.4334;
1065.9000;0.3500;0.4310;
1066.2000;0.3492;0.4334;
1066.5000;0.3500;0.4334;
1066.8000;0.3484;0.4310;
1067.1000;0.3492;0.4359;
1067.4000;0.3533;0.4480;
1067.7000;0.3500;0.4432;
1068.0000;0.3492;0.4456;
1068.3000;0.3500;0.4505;
1068.6000;0.3516;0.4553;
1068.9000;0.3500;0.4529;
1069.2000;0.3427;0.4310;
1069.5000;0.3500;0.4578;
1069.8000;0.3500;0.4553;
1070.1000;0.3516;0.4627;
1070.4000;0.3476;0.4627;
1070.7000;0.3476;0.4627;
1071.0000;0.3516;0.4553;
1071.3000;0.3492;0.4505;
1071.6000;0.3516;0.4602;
1071.9000;0.3549;0.4651;
1072.2000;0.3460;0.4480;
1072.5000;0.3492;0.4578;
1072.8000;0.3500;0.4553;
1073.1000;0.3484;0.4529;
1073.4000;0.3492;0.4480;
1073.7000;0.3508;0.4407;
1074.0000;0.3492;0.4261;
1074.3000;0.3525;0.4383;
1074.6000;0.3484;0.4286;
1074.9000;0.3508;0.4237;
1075.2000;0.3508;0.4286;
1075.5000;0.3525;0.4383;
1075.8000;0.3500;0.4407;
1076.1000;0.3508;0.4407;
1076.4000;0.3533;0.4432;
1076.7000;0.3500;0.4286;
1077.0000;0.3492;0.4310;
1077.3000;0.3443;0.4261;
1077.6000;0.3484;0.4383;
1077.9000;0.3508;0.4383;
1078.2000;0.3492;0.4359;
1078.5000;0.3500;0.4407;
1078.8000;0.3500;0.4383;
1079.1000;0.3508;0.4432;
1079.4000;0.3541;0.4456;
1079.7000;0.3541;0.4407;
1080.0000;0.3484;0.4334;
1080.3000;0.3508;0.4432;
1080.6000;0.3484;0.4480;
1080.9000;0.3492;0.4432;
1081.2000;0.3508;0.4505;
1081.5000;0.3484;0.4359;
1081.8000;0.3484;0.4432;
1082.1000;0.3500;0.4407;
1082.4000;0.3484;0.4456;
1082.7000;0.3516;0.4553;
1083.0000;0.3492;0.4432;
1083.3000;0.3492;0.4553;
1083.6000;0.3484;0.4480;
1083.9000;0.3516;0.4578;
1084.2000;0.3508;0.4529;
1084.5000;0.3468;0.4529;
1084.8000;0.3500;0.4480;
1085.1000;0.3516;0.4456;
1085.4000;0.3484;0.4432;
1085.7000;0.3443;0.4456;
1086.0000;0.3484;0.4578;
1086.3000;0.3500;0.4529;
1086.6000;0.3476;0.4480;
1086.9000;0.3500;0.4651;
1087.2000;0.3573;0.4821;
1087.5000;0.3500;0.4651;
1087.8000;0.3484;0.4529;
1088.1000;0.3476;0.4529;
1088.4000;0.3484;0.4480;
1088.7000;0.3476;0.4529;
1089.0000;0.3484;0.4529;
1089.3000;0.3500;0.4480;
1089.6000;0.3508;0.4456;
1089.9000;0.3516;0.4480;
1090.2000;0.3541;0.4578;
1090.5000;0.3525;0.4529;
1090.8000;0.3476;0.4383;
1091.1000;0.3484;0.4407;
1091.4000;0.3500;0.4407;
1091.7000;0.3508;0.4456;
1092.0000;0.3484;0.4432;
1092.3000;0.3492;0.4480;
1092.6000;0.3508;0.4432;
1092.9000;0.3500;0.4407;
1093.2000;0.3492;0.4334;
1093.5000;0.3476;0.4310;
1093.8000;0.3508;0.4432;
1094.1000;0.3492;0.4432;
1094.4000;0.3525;0.4602;
1094.7000;0.3508;0.4602;
1095.0000;0.3525;0.4675;
1095.3000;0.3476;0.4505;
1095.6000;0.3500;0.4700;
1095.9000;0.3492;0.4700;
1096.2000;0.3484;0.4724;
1096.5000;0.3492;0.4627;
1096.8000;0.3500;0.4529;
1097.1000;0.3500;0.4553;
1097.4000;0.3525;0.4651;
1097.7000;0.3500;0.4578;
1098.0000;0.3500;0.4505;
1098.3000;0.3541;0.4651;
1098.6000;0.3492;0.4407;
1098.9000;0.3516;0.4407;
1099.2000;0.3508;0.4359;
1099.5000;0.3492;0.4383;
1099.8000;0.3476;0.4432;
1100.1000;0.3508;0.4456;
1100.4000;0.3468;0.4334;
1100.7000;0.3492;0.4383;
1101.0000;0.3516;0.4359;
1101.3000;0.3476;0.4334;
1101.6000;0.3508;0.4407;
1101.9000;0.3565;0.4529;
1102.2000;0.3492;0.4334;
1102.5000;0.3492;0.4359;
1102.8000;0.3484;0.4359;
1103.1000;0.3516;0.4432;
1103.4000;0.3492;0.4359;
1103.7000;0.3492;0.4359;
1104.0000;0.3492;0.4407;
1104.3000;0.3500;0.4480;
1104.6000;0.3492;0.4456;
1104.9000;0.3484;0.4456;
1105.2000;0.3476;0.4407;
1105.5000;0.3492;0.4480;
1105.8000;0.3492;0.4505;
1106.1000;0.3500;0.4432;
1106.4000;0.3484;0.4383;
1106.7000;0.3468;0.4383;
1107.0000;0.3484;0.4359;
1107.3000;0.3492;0.4432;
1107.6000;0.3516;0.4359;
1107.9000;0.3500;0.4334;
1108.2000;0.3516;0.4261;
1108.5000;0.3508;0.4310;
1108.8000;0.3516;0.4334;
1109.1000;0.3516;0.4383;
1109.4000;0.3500;0.4432;
1109.7000;0.3492;0.4432;
1110.0000;0.3516;0.4505;
1110.3000;0.3549;0.4602;
1110.6000;0.3500;0.4505;
1110.9000;0.3492;0.4407;
1111.2000;0.3484;0.4407;
1111.5000;0.3525;0.4432;
1111.8000;0.3500;0.4432;
1112.1000;0.3419;0.4213;
1112.4000;0.3492;0.4286;
1112.7000;0.3476;0.4310;
1113.0000;0.3500;0.4407;
1113.3000;0.3492;0.4383;
1113.6000;0.3451;0.4213;
1113.9000;0.3508;0.4359;
1114.2000;0.3516;0.4383;
1114.5000;0.3500;0.4359;
1114.8000;0.3492;0.4383;
1115.1000;0.3484;0.4334;
1115.4000;0.3508;0.4383;
1115.7000;0.3500;0.4383;
1116.0000;0.3484;0.4383;
1116.3000;0.3468;0.4383;
1116.6000;0.3484;0.4383;
1116.9000;0.3460;0.4359;
1117.2000;0.3484;0.4334;
1117.5000;0.3492;0.4334;
1117.8000;0.3508;0.4407;
1118.1000;0.3508;0.4432;
1118.4000;0.3500;0.4359;
1118.7000;0.3508;0.4310;
1119.0000;0.3508;0.4334;
1119.3000;0.3508;0.4334;
1119.6000;0.3516;0.4213;
1119.9000;0.3500;0.4188;
1120.2000;0.3468;0.4188;
1120.5000;0.3500;0.4213;
1120.8000;0.3508;0.4237;
1121.1000;0.3508;0.4213;
1121.4000;0.3443;0.4042;
1121.7000;0.3476;0.4115;
1122.0000;0.3500;0.4140;
1122.3000;0.3500;0.4213;
1122.6000;0.3476;0.4115;
1122.9000;0.3484;0.4164;
1123.2000;0.3492;0.4310;
1123.5000;0.3508;0.4383;
1123.8000;0.3508;0.4359;
1124.1000;0.3492;0.4286;
1124.4000;0.3500;0.4334;
1124.7000;0.3476;0.4237;
1125.0000;0.3435;0.4066;
1125.3000;0.3492;0.4213;
1125.6000;0.3500;0.4164;
1125.9000;0.3492;0.4164;
1126.2000;0.3508;0.4164;
1126.5000;0.3508;0.4164;
1126.8000;0.3476;0.4066;
1127.1000;0.3492;0.4140;
1127.4000;0.3508;0.4164;
1127.7000;0.3492;0.4091;
1128.0000;0.3508;0.4213;
1128.3000;0.3484;0.4115;
1128.6000;0.3508;0.4091;
1128.9000;0.3525;0.4091;
1129.2000;0.3500;0.4066;
1129.5000;0.3492;0.4066;
1129.8000;0.3500;0.4042;
1130.1000;0.3500;0.4066;
1130.4000;0.3476;0.4115;
1130.7000;0.3500;0.4213;
1131.0000;0.3500;0.4213;
1131.3000;0.3500;0.4164;
1131.6000;0.3484;0.4140;
1131.9000;0.3516;0.4213;
1132.2000;0.3500;0.4164;
1132.5000;0.3508;0.4115;
1132.8000;0.3500;0.4164;
1133.1000;0.3500;0.4164;
1133.4000;0.3492;0.4115;
1133.7000;0.3508;0.4091;
1134.0000;0.3460;0.3969;
1134.3000;0.3484;0.4066;
1134.6000;0.3508;0.4164;
1134.9000;0.3508;0.4213;
1135.2000;0.3484;0.4261;
1135.5000;0.3492;0.4310;
1135.8000;0.3492;0.4310;
1136.1000;0.3500;0.4407;
1136.4000;0.3508;0.4432;
1136.7000;0.3500;0.4383;
1137.0000;0.3516;0.4383;
1137.3000;0.3508;0.4213;
1137.6000;0.3516;0.4237;
1137.9000;0.3476;0.4115;
1138.2000;0.3500;0.4188;
1138.5000;0.3500;0.4213;
1138.8000;0.3476;0.4237;
1139.1000;0.3484;0.4237;
1139.4000;0.3492;0.4237;
1139.7000;0.3500;0.4261;
1140.0000;0.3516;0.4286;
1140.3000;0.3500;0.4261;
1140.6000;0.3492;0.4213;
1140.9000;0.3508;0.4310;
1141.2000;0.3508;0.4213;
1141.5000;0.3492;0.4140;
1141.8000;0.3427;0.3945;
1142.1000;0.3492;0.4140;
1142.4000;0.3492;0.4140;
1142.7000;0.3500;0.4140;
1143.0000;0.3525;0.4140;
1143.3000;0.3525;0.4188;
1143.6000;0.3508;0.4286;
1143.9000;0.3508;0.4310;
1144.2000;0.3516;0.4286;
1144.5000;0.3500;0.4213;
1144.8000;0.3516;0.4188;
1145.1000;0.3500;0.4115;
1145.4000;0.3508;0.4188;
1145.7000;0.3492;0.4188;
1146.0000;0.3500;0.4188;
1146.3000;0.3484;0.4091;
1146.6000;0.3500;0.4066;
1146.9000;0.3484;0.4091;
1147.2000;0.3492;0.4091;
1147.5000;0.3484;0.4164;
1147.8000;0.3500;0.4188;
1148.1000;0.3492;0.4018;
1148.4000;0.3508;0.4115;
1148.7000;0.3484;0.4018;
1149.0000;0.3525;0.4091;
1149.3000;0.3508;0.4066;
1149.6000;0.3516;0.4091;
1149.9000;0.3525;0.4091;
1150.2000;0.3492;0.4042;
1150.5000;0.3476;0.3847;
1150.8000;0.3516;0.3945;
1151.1000;0.3516;0.3945;
1151.4000;0.3443;0.3847;
1151.7000;0.3476;0.3945;
1152.0000;0.3492;0.4018;
1152.3000;0.3484;0.4018;
1152.6000;0.3484;0.4066;
1152.9000;0.3484;0.4091;
1153.2000;0.3476;0.4091;
1153.5000;0.3500;0.4164;
1153.8000;0.3492;0.4213;
1154.1000;0.3484;0.4164;
1154.4000;0.3500;0.4237;
1154.7000;0.3484;0.4261;
1155.0000;0.3508;0.4286;
1155.3000;0.3525;0.4213;
1155.6000;0.3460;0.4042;
1155.9000;0.3476;0.4140;
1156.2000;0.3476;0.4140;
1156.5000;0.3476;0.4140;
1156.8000;0.3492;0.4188;
1157.1000;0.3484;0.4188;
1157.4000;0.3468;0.4237;
1157.7000;0.3500;0.4310;
1158.0000;0.3500;0.4261;
1158.3000;0.3427;0.4042;
1158.6000;0.3468;0.4164;
1158.9000;0.3500;0.4237;
1159.2000;0.3492;0.4286;
1159.5000;0.3492;0.4334;
1159.8000;0.3492;0.4407;
1160.1000;0.3500;0.4432;
1160.4000;0.3590;0.4578;
1160.7000;0.3484;0.4261;
1161.0000;0.3541;0.4432;
1161.3000;0.3492;0.4334;
1161.6000;0.3516;0.4310;
1161.9000;0.3492;0.4213;
1162.2000;0.3500;0.4213;
1162.5000;0.3484;0.4115;
1162.8000;0.3492;0.4066;
1163.1000;0.3500;0.4091;
1163.4000;0.3508;0.4115;
1163.7000;0.3508;0.4091;
1164.0000;0.3500;0.4091;
1164.3000;0.3500;0.4115;
1164.6000;0.3516;0.4140;
1164.9000;0.3500;0.4115;
1165.2000;0.3508;0.4188;
1165.5000;0.3500;0.4237;
1165.8000;0.3492;0.4237;
1166.1000;0.3492;0.4261;
1166.4000;0.3484;0.4213;
1166.7000;0.3516;0.4164;
1167.0000;0.3492;0.4091;
1167.3000;0.3525;0.4115;
1167.6000;0.3508;0.4018;
1167.9000;0.3516;0.4066;
1168.2000;0.3500;0.4042;
1168.5000;0.3492;0.3872;
1168.8000;0.3484;0.3896;
1169.1000;0.3492;0.3920;
1169.4000;0.3451;0.3774;
1169.7000;0.3484;0.3920;
1170.0000;0.3516;0.4066;
1170.3000;0.3500;0.4115;
1170.6000;0.3492;0.4115;
1170.9000;0.3484;0.3969;
1171.2000;0.3508;0.3969;
1171.5000;0.3492;0.3920;
1171.8000;0.3508;0.3993;
1172.1000;0.3525;0.4066;
1172.4000;0.3492;0.4042;
1172.7000;0.3476;0.3969;
1173.0000;0.3500;0.3993;
1173.3000;0.3500;0.3969;
1173.6000;0.3484;0.3969;
1173.9000;0.3508;0.4018;
1174.2000;0.3484;0.3969;
1174.5000;0.3525;0.4018;
1174.8000;0.3484;0.3920;
1175.1000;0.3508;0.4018;
1175.4000;0.3508;0.4042;
1175.7000;0.3500;0.4164;
1176.0000;0.3492;0.4140;
1176.3000;0.3492;0.4115;
1176.6000;0.3516;0.4115;
1176.9000;0.3508;0.4164;
1177.2000;0.3468;0.4018;
1177.5000;0.3508;0.4164;
1177.8000;0.3484;0.4164;
1178.1000;0.3500;0.4140;
1178.4000;0.3492;0.4018;
1178.7000;0.3500;0.4042;
1179.0000;0.3484;0.3969;
1179.3000;0.3492;0.3969;
1179.6000;0.3500;0.3969;
1179.9000;0.3500;0.3969;
1180.2000;0.3492;0.3993;
1180.5000;0.3500;0.3993;
1180.8000;0.3508;0.4042;
1181.1000;0.3492;0.4042;
1181.4000;0.3492;0.3993;
1181.7000;0.3500;0.4042;
1182.0000;0.3492;0.4042;
1182.3000;0.3541;0.4188;
1182.6000;0.3492;0.4018;
1182.9000;0.3508;0.4091;
1183.2000;0.3525;0.4091;
1183.5000;0.3492;0.4018;
1183.8000;0.3500;0.3993;
1184.1000;0.3500;0.4018;
1184.4000;0.3508;0.4066;
1184.7000;0.3508;0.4066;
1185.0000;0.3468;0.4018;
1185.3000;0.3516;0.4140;
1185.6000;0.3516;0.4188;
1185.9000;0.3500;0.4164;
1186.2000;0.3484;0.4066;
1186.5000;0.3500;0.4164;
1186.8000;0.3484;0.4310;
1187.1000;0.3500;0.4310;
1187.4000;0.3516;0.4359;
1187.7000;0.3508;0.4237;
1188.0000;0.3508;0.4237;
1188.3000;0.3525;0.4261;
1188.6000;0.3484;0.4115;
1188.9000;0.3492;0.4140;
1189.2000;0.3484;0.4066;
1189.5000;0.3508;0.4164;
1189.8000;0.3500;0.4188;
1190.1000;0.3484;0.4115;
1190.4000;0.3460;0.4042;
1190.7000;0.3500;0.4091;
1191.0000;0.3541;0.4237;
1191.3000;0.3500;0.4066;
1191.6000;0.3516;0.4164;
1191.9000;0.3500;0.4140;
1192.2000;0.3492;0.4140;
1192.5000;0.3508;0.4140;
1192.8000;0.3500;0.4140;
1193.1000;0.3516;0.4213;
1193.4000;0.3484;0.4066;
1193.7000;0.3500;0.4042;
1194.0000;0.3492;0.4018;
1194.3000;0.3508;0.4115;
1194.6000;0.3500;0.4164;
1194.9000;0.3484;0.4091;
1195.2000;0.3508;0.4115;
1195.5000;0.3533;0.4115;
1195.8000;0.3500;0.4091;
1196.1000;0.3500;0.4188;
1196.4000;0.3492;0.4115;
1196.7000;0.3476;0.4042;
1197.0000;0.3516;0.4164;
1197.3000;0.3484;0.4066;
1197.6000;0.3508;0.4066;
1197.9000;0.3500;0.3993;
1198.2000;0.3516;0.4066;
1198.5000;0.3500;0.4042;
1198.8000;0.3484;0.3945;
1199.1000;0.3492;0.3993;
1199.4000;0.3492;0.4018;
1199.7000;0.3500;0.3969;
1200.0000;0.3492;0.3920;
1200.3000;0.3500;0.4018;
1200.6000;0.3484;0.3993;
1200.9000;0.3492;0.4115;
1201.2000;0.3500;0.4213;
1201.5000;0.3500;0.4237;
1201.8000;0.3508;0.4261;
1202.1000;0.3500;0.4286;
1202.4000;0.3525;0.4286;
1202.7000;0.3500;0.4237;
1203.0000;0.3500;0.4261;
1203.3000;0.3476;0.4140;
1203.6000;0.3508;0.4188;
1203.9000;0.3492;0.4164;
1204.2000;0.3451;0.3945;
1204.5000;0.3508;0.4140;
1204.8000;0.3508;0.4115;
1205.1000;0.3492;0.4091;
1205.4000;0.3484;0.3993;
1205.7000;0.3508;0.4018;
1206.0000;0.3565;0.4237;
1206.3000;0.3508;0.4188;
1206.6000;0.3492;0.4213;
1206.9000;0.3492;0.4164;
1207.2000;0.3460;0.4042;
1207.5000;0.3492;0.4164;
1207.8000;0.3500;0.4188;
1208.1000;0.3492;0.4140;
1208.4000;0.3500;0.4213;
1208.7000;0.3476;0.4237;
1209.0000;0.3468;0.4286;
1209.3000;0.3533;0.4505;
1209.6000;0.3443;0.4237;
1209.9000;0.3500;0.4237;
1210.2000;0.3492;0.4140;
1210.5000;0.3443;0.3969;
1210.8000;0.3500;0.4140;
1211.1000;0.3500;0.4140;
1211.4000;0.3460;0.4091;
1211.7000;0.3492;0.4091;
1212.0000;0.3492;0.4115;
1212.3000;0.3500;0.4188;
1212.6000;0.3484;0.4164;
1212.9000;0.3500;0.4237;
1213.2000;0.3492;0.4213;
1213.5000;0.3508;0.4286;
1213.8000;0.3516;0.4261;
1214.1000;0.3508;0.4237;
1214.4000;0.3508;0.4286;
1214.7000;0.3500;0.4237;
1215.0000;0.3500;0.4261;
1215.3000;0.3500;0.4286;
1215.6000;0.3500;0.4286;
1215.9000;0.3476;0.4261;
1216.2000;0.3500;0.4359;
1216.5000;0.3516;0.4310;
1216.8000;0.3500;0.4164;
1217.1000;0.3500;0.4188;
1217.4000;0.3484;0.4091;
1217.7000;0.3492;0.4115;
1218.0000;0.3500;0.4091;
1218.3000;0.3460;0.4018;
1218.6000;0.3476;0.4042;
1218.9000;0.3500;0.4115;
1219.2000;0.3492;0.4091;
1219.5000;0.3492;0.4091;
1219.8000;0.3492;0.3945;
1220.1000;0.3484;0.4018;
1220.4000;0.3476;0.4018;
1220.7000;0.3500;0.4018;
1221.0000;0.3508;0.3969;
1221.3000;0.3492;0.3945;
1221.6000;0.3516;0.4018;
1221.9000;0.3492;0.4042;
1222.2000;0.3435;0.3920;
1222.5000;0.3500;0.4091;
1222.8000;0.3492;0.4042;
1223.1000;0.3484;0.3993;
1223.4000;0.3492;0.3969;
1223.7000;0.3460;0.3847;
1224.0000;0.3443;0.3799;
1224.3000;0.3500;0.4018;
1224.6000;0.3500;0.4066;
1224.9000;0.3484;0.4140;
1225.2000;0.3516;0.4213;
1225.5000;0.3541;0.4164;
1225.8000;0.3500;0.3969;
1226.1000;0.3394;0.3799;
1226.4000;0.3516;0.4042;
1226.7000;0.3565;0.4115;
1227.0000;0.3557;0.4115;
1227.3000;0.3516;0.4018;
1227.6000;0.3492;0.3969;
1227.9000;0.3500;0.4018;
1228.2000;0.3500;0.4042;
1228.5000;0.3525;0.4091;
1228.8000;0.3492;0.3993;
1229.1000;0.3508;0.4115;
1229.4000;0.3484;0.4115;
1229.7000;0.3508;0.4042;
1230.0000;0.3484;0.3969;
1230.3000;0.3508;0.4042;
1230.6000;0.3508;0.4066;
1230.9000;0.3508;0.4115;
1231.2000;0.3500;0.4091;
1231.5000;0.3508;0.4091;
1231.8000;0.3508;0.4115;
1232.1000;0.3500;0.4066;
1232.4000;0.3476;0.3920;
1232.7000;0.3484;0.3945;
1233.0000;0.3484;0.3847;
1233.3000;0.3500;0.3823;
1233.6000;0.3492;0.3920;
1233.9000;0.3500;0.3945;
1234.2000;0.3516;0.4042;
1234.5000;0.3484;0.3945;
1234.8000;0.3500;0.3945;
1235.1000;0.3508;0.3945;
1235.4000;0.3549;0.4140;
1235.7000;0.3484;0.4018;
1236.0000;0.3476;0.3945;
1236.3000;0.3500;0.3993;
1236.6000;0.3533;0.4091;
1236.9000;0.3484;0.3920;
1237.2000;0.3492;0.3872;
1237.5000;0.3476;0.3799;
1237.8000;0.3492;0.3799;
1238.1000;0.3476;0.3701;
1238.4000;0.3492;0.3701;
1238.7000;0.3484;0.3774;
1239.0000;0.3476;0.3726;
1239.3000;0.3451;0.3628;
1239.6000;0.3468;0.3628;
1239.9000;0.3492;0.3774;
1240.2000;0.3468;0.3750;
1240.5000;0.3492;0.3799;
1240.8000;0.3500;0.3799;
1241.1000;0.3500;0.3799;
1241.4000;0.3500;0.3774;
1241.7000;0.3516;0.3847;
1242.0000;0.3508;0.3872;
1242.3000;0.3516;0.3872;
1242.6000;0.3484;0.3823;
1242.9000;0.3484;0.3872;
1243.2000;0.3541;0.3969;
1243.5000;0.3492;0.3750;
1243.8000;0.3484;0.3847;
1244.1000;0.3435;0.3750;
1244.4000;0.3451;0.3847;
1244.7000;0.3460;0.3896;
1245.0000;0.3492;0.4018;
1245.3000;0.3508;0.3969;
1245.6000;0.3484;0.3993;
1245.9000;0.3525;0.4164;
1246.2000;0.3500;0.4091;
1246.5000;0.3460;0.4042;
1246.8000;0.3508;0.4164;
1247.1000;0.3500;0.4091;
1247.4000;0.3500;0.4115;
1247.7000;0.3508;0.4115;
1248.0000;0.3508;0.4115;
1248.3000;0.3492;0.4018;
1248.6000;0.3508;0.3920;
1248.9000;0.3476;0.3774;
1249.2000;0.3476;0.3774;
1249.5000;0.3516;0.3872;
1249.8000;0.3492;0.3750;
1250.1000;0.3460;0.3726;
1250.4000;0.3460;0.3774;
1250.7000;0.3476;0.3823;
1251.0000;0.3549;0.4042;
1251.3000;0.3492;0.3896;
1251.6000;0.3492;0.4042;
1251.9000;0.3500;0.4066;
1252.2000;0.3516;0.4091;
1252.5000;0.3451;0.3945;
1252.8000;0.3484;0.4091;
1253.1000;0.3500;0.4115;
1253.4000;0.3508;0.4066;
1253.7000;0.3484;0.3945;
1254.0000;0.3492;0.3920;
1254.3000;0.3484;0.3945;
1254.6000;0.3492;0.3993;
1254.9000;0.3427;0.3823;
1255.2000;0.3484;0.3920;
1255.5000;0.3476;0.3872;
1255.8000;0.3492;0.3847;
1256.1000;0.3484;0.3920;
1256.4000;0.3508;0.3920;
1256.7000;0.3484;0.3847;
1257.0000;0.3549;0.3993;
1257.3000;0.3508;0.3920;
1257.6000;0.3484;0.3872;
1257.9000;0.3492;0.3920;
1258.2000;0.3484;0.3945;
1258.5000;0.3476;0.3945;
1258.8000;0.3427;0.3774;
1259.1000;0.3476;0.3945;
1259.4000;0.3484;0.4066;
1259.7000;0.3492;0.4140;
1260.0000;0.3541;0.4188;
1260.3000;0.3492;0.4042;
1260.6000;0.3484;0.3896;
1260.9000;0.3508;0.3969;
1261.2000;0.3492;0.3945;
1261.5000;0.3508;0.3920;
1261.8000;0.3484;0.3920;
1262.1000;0.3500;0.4091;
1262.4000;0.3500;0.4066;
1262.7000;0.3492;0.3993;
1263.0000;0.3492;0.3969;
1263.3000;0.3492;0.3920;
1263.6000;0.3500;0.3993;
1263.9000;0.3492;0.4018;
1264.2000;0.3476;0.4018;
1264.5000;0.3484;0.4091;
1264.8000;0.3508;0.4042;
1265.1000;0.3484;0.4066;
1265.4000;0.3549;0.4140;
1265.7000;0.3484;0.4115;
1266.0000;0.3508;0.4237;
1266.3000;0.3500;0.4188;
1266.6000;0.3541;0.4286;
1266.9000;0.3492;0.4286;
1267.2000;0.3541;0.4286;
1267.5000;0.3508;0.4140;
1267.8000;0.3500;0.4140;
1268.1000;0.3476;0.4140;
1268.4000;0.3484;0.4091;
1268.7000;0.3492;0.4091;
1269.0000;0.3500;0.4140;
1269.3000;0.3500;0.4115;
1269.6000;0.3492;0.3945;
1269.9000;0.3492;0.4042;
1270.2000;0.3484;0.4018;
1270.5000;0.3492;0.4066;
1270.8000;0.3492;0.4164;
1271.1000;0.3492;0.4213;
1271.4000;0.3500;0.4115;
1271.7000;0.3508;0.4115;
1272.0000;0.3508;0.4140;
1272.3000;0.3516;0.4115;
1272.6000;0.3484;0.4042;
1272.9000;0.3500;0.4066;
1273.2000;0.3492;0.4140;
1273.5000;0.3492;0.4115;
1273.8000;0.3500;0.4213;
1274.1000;0.3573;0.4286;
1274.4000;0.3484;0.4140;
1274.7000;0.3500;0.4164;
1275.0000;0.3508;0.4164;
1275.3000;0.3492;0.4091;
1275.6000;0.3484;0.4091;
1275.9000;0.3516;0.4164;
1276.2000;0.3508;0.4091;
1276.5000;0.3492;0.4018;
1276.8000;0.3492;0.4066;
1277.1000;0.3476;0.4091;
1277.4000;0.3484;0.4066;
1277.7000;0.3500;0.4140;
1278.0000;0.3500;0.4091;
1278.3000;0.3492;0.4140;
1278.6000;0.3492;0.4091;
1278.9000;0.3484;0.4066;
1279.2000;0.3476;0.4042;
1279.5000;0.3508;0.4115;
1279.8000;0.3492;0.3945;
1280.1000;0.3516;0.3945;
1280.4000;0.3476;0.3896;
1280.7000;0.3484;0.3896;
1281.0000;0.3484;0.3920;
1281.3000;0.3525;0.3993;
1281.6000;0.3508;0.3920;
1281.9000;0.3443;0.3701;
1282.2000;0.3476;0.3872;
1282.5000;0.3500;0.3993;
1282.8000;0.3492;0.4018;
1283.1000;0.3484;0.3920;
1283.4000;0.3484;0.3896;
1283.7000;0.3500;0.3969;
1284.0000;0.3500;0.3969;
1284.3000;0.3484;0.4018;
1284.6000;0.3500;0.3993;
1284.9000;0.3492;0.3993;
1285.2000;0.3500;0.3945;
1285.5000;0.3460;0.3847;
1285.8000;0.3533;0.3993;
1286.1000;0.3484;0.3896;
1286.4000;0.3516;0.3945;
1286.7000;0.3508;0.3872;
1287.0000;0.3500;0.3872;
1287.3000;0.3492;0.3847;
1287.6000;0.3492;0.3920;
1287.9000;0.3492;0.3920;
1288.2000;0.3484;0.3920;
1288.5000;0.3476;0.3969;
1288.8000;0.3484;0.3993;
1289.1000;0.3484;0.3993;
1289.4000;0.3468;0.3847;
1289.7000;0.3443;0.3799;
1290.0000;0.3484;0.3920;
1290.3000;0.3484;0.4018;
1290.6000;0.3476;0.3969;
1290.9000;0.3476;0.3969;
1291.2000;0.3476;0.3896;
1291.5000;0.3451;0.3920;
1291.8000;0.3500;0.4042;
1292.1000;0.3476;0.3993;
1292.4000;0.3476;0.3969;
1292.7000;0.3500;0.3993;
1293.0000;0.3516;0.4066;
1293.3000;0.3492;0.4042;
1293.6000;0.3492;0.4115;
1293.9000;0.3484;0.4237;
1294.2000;0.3484;0.4237;
1294.5000;0.3484;0.4237;
1294.8000;0.3476;0.4140;
1295.1000;0.3484;0.4164;
1295.4000;0.3508;0.4188;
1295.7000;0.3492;0.4164;
1296.0000;0.3468;0.4115;
1296.3000;0.3492;0.4261;
1296.6000;0.3492;0.4286;
1296.9000;0.3541;0.4334;
1297.2000;0.3492;0.4188;
1297.5000;0.3492;0.4237;
1297.8000;0.3516;0.4261;
1298.1000;0.3590;0.4480;
1298.4000;0.3451;0.4091;
1298.7000;0.3443;0.4164;
1299.0000;0.3533;0.4383;
1299.3000;0.3525;0.4407;
1299.6000;0.3484;0.4261;
1299.9000;0.3476;0.4261;
1300.2000;0.3492;0.4359;
1300.5000;0.3451;0.4261;
1300.8000;0.3500;0.4334;
1301.1000;0.3525;0.4310;
1301.4000;0.3500;0.4237;
1301.7000;0.3525;0.4237;
1302.0000;0.3533;0.4334;
1302.3000;0.3484;0.4286;
1302.6000;0.3516;0.4407;
1302.9000;0.3508;0.4334;
1303.2000;0.3508;0.4334;
1303.5000;0.3484;0.4261;
1303.8000;0.3484;0.4237;
1304.1000;0.3500;0.4237;
1304.4000;0.3484;0.4188;
1304.7000;0.3508;0.4261;
1305.0000;0.3492;0.4213;
1305.3000;0.3492;0.4261;
1305.6000;0.3484;0.4237;
1305.9000;0.3492;0.4237;
1306.2000;0.3500;0.4188;
1306.5000;0.3476;0.4115;
1306.8000;0.3516;0.4164;
1307.1000;0.3492;0.4164;
1307.4000;0.3500;0.4213;
1307.7000;0.3484;0.4286;
1308.0000;0.3500;0.4261;
1308.3000;0.3516;0.4164;
1308.6000;0.3508;0.4091;
1308.9000;0.3508;0.4042;
1309.2000;0.3484;0.4018;
1309.5000;0.3508;0.4091;
1309.8000;0.3565;0.4286;
1310.1000;0.3460;0.4018;
1310.4000;0.3484;0.4018;
1310.7000;0.3492;0.3993;
1311.0000;0.3484;0.3896;
1311.3000;0.3484;0.3750;
1311.6000;0.3492;0.3896;
1311.9000;0.3484;0.3993;
1312.2000;0.3492;0.4018;
1312.5000;0.3492;0.4066;
1312.8000;0.3460;0.4066;
1313.1000;0.3492;0.4188;
1313.4000;0.3492;0.4140;
1313.7000;0.3500;0.4091;
1314.0000;0.3525;0.4115;
1314.3000;0.3500;0.4115;
1314.6000;0.3492;0.4164;
1314.9000;0.3492;0.4140;
1315.2000;0.3476;0.4115;
1315.5000;0.3500;0.4164;
1315.8000;0.3500;0.4066;
1316.1000;0.3508;0.4091;
1316.4000;0.3484;0.4091;
1316.7000;0.3484;0.4115;
1317.0000;0.3533;0.4213;
1317.3000;0.3492;0.4164;
1317.6000;0.3427;0.4018;
1317.9000;0.3500;0.4140;
1318.2000;0.3508;0.4213;
1318.5000;0.3500;0.4261;
1318.8000;0.3500;0.4286;
1319.1000;0.3525;0.4334;
1319.4000;0.3484;0.4091;
1319.7000;0.3484;0.4091;
1320.0000;0.3516;0.4164;
1320.3000;0.3500;0.4091;
1320.6000;0.3500;0.4091;
1320.9000;0.3460;0.4066;
1321.2000;0.3533;0.4237;
1321.5000;0.3492;0.4164;
1321.8000;0.3508;0.4213;
1322.1000;0.3500;0.4140;
1322.4000;0.3484;0.4091;
1322.7000;0.3525;0.4286;
1323.0000;0.3435;0.3993;
1323.3000;0.3508;0.4261;
1323.6000;0.3460;0.4042;
1323.9000;0.3484;0.4042;
1324.2000;0.3451;0.3920;
1324.5000;0.3516;0.3993;
1324.8000;0.3500;0.3945;
1325.1000;0.3533;0.4018;
1325.4000;0.3516;0.4042;
1325.7000;0.3533;0.4164;
1326.0000;0.3500;0.4115;
1326.3000;0.3484;0.4188;
1326.6000;0.3468;0.4164;
1326.9000;0.3476;0.4140;
1327.2000;0.3492;0.4164;
1327.5000;0.3484;0.4188;
1327.8000;0.3500;0.4237;
1328.1000;0.3500;0.4213;
1328.4000;0.3565;0.4407;
1328.7000;0.3484;0.4261;
1329.0000;0.3484;0.4237;
1329.3000;0.3468;0.4237;
1329.6000;0.3492;0.4334;
1329.9000;0.3492;0.4334;
1330.2000;0.3492;0.4310;
1330.5000;0.3451;0.4188;
1330.8000;0.3508;0.4334;
1331.1000;0.3516;0.4407;
1331.4000;0.3508;0.4334;
1331.7000;0.3484;0.4334;
1332.0000;0.3500;0.4383;
1332.3000;0.3492;0.4310;
1332.6000;0.3500;0.4261;
1332.9000;0.3460;0.4164;
1333.2000;0.3484;0.4115;
1333.5000;0.3492;0.4091;
1333.8000;0.3508;0.4140;
1334.1000;0.3500;0.4115;
1334.4000;0.3500;0.4261;
1334.7000;0.3508;0.4213;
1335.0000;0.3500;0.4261;
1335.3000;0.3468;0.4188;
1335.6000;0.3484;0.4188;
1335.9000;0.3492;0.4188;
1336.2000;0.3508;0.4188;
1336.5000;0.3492;0.4140;
1336.8000;0.3492;0.4237;
1337.1000;0.3460;0.4115;
1337.4000;0.3492;0.4286;
1337.7000;0.3484;0.4310;
1338.0000;0.3468;0.4334;
1338.3000;0.3525;0.4480;
1338.6000;0.3484;0.4334;
1338.9000;0.3508;0.4334;
1339.2000;0.3508;0.4456;
1339.5000;0.3451;0.4310;
1339.8000;0.3443;0.4310;
1340.1000;0.3492;0.4286;
1340.4000;0.3508;0.4213;
1340.7000;0.3484;0.4115;
1341.0000;0.3484;0.4091;
1341.3000;0.3492;0.4188;
1341.6000;0.3492;0.4237;
1341.9000;0.3460;0.4140;
1342.2000;0.3525;0.4334;
1342.5000;0.3484;0.4310;
1342.8000;0.3492;0.4383;
1343.1000;0.3500;0.4359;
1343.4000;0.3492;0.4261;
1343.7000;0.3492;0.4237;
1344.0000;0.3435;0.4140;
1344.3000;0.3500;0.4261;
1344.6000;0.3508;0.4237;
1344.9000;0.3508;0.4213;
1345.2000;0.3500;0.4164;
1345.5000;0.3500;0.4066;
1345.8000;0.3476;0.3993;
1346.1000;0.3500;0.4042;
1346.4000;0.3492;0.4091;
1346.7000;0.3443;0.3847;
1347.0000;0.3516;0.4091;
1347.3000;0.3492;0.4066;
1347.6000;0.3508;0.4261;
1347.9000;0.3492;0.4213;
1348.2000;0.3549;0.4261;
1348.5000;0.3484;0.4091;
1348.8000;0.3525;0.4310;
1349.1000;0.3484;0.4188;
1349.4000;0.3492;0.4310;
1349.7000;0.3484;0.4334;
1350.0000;0.3492;0.4359;
1350.3000;0.3525;0.4359;
1350.6000;0.3508;0.4286;
1350.9000;0.3492;0.4213;
1351.2000;0.3484;0.4237;
1351.5000;0.3492;0.4310;
1351.8000;0.3484;0.4286;
1352.1000;0.3476;0.4310;
1352.4000;0.3468;0.4334;
1352.7000;0.3492;0.4359;
1353.0000;0.3484;0.4334;
1353.3000;0.3508;0.4261;
1353.6000;0.3476;0.4042;
1353.9000;0.3492;0.3969;
1354.2000;0.3492;0.3896;
1354.5000;0.3492;0.4042;
1354.8000;0.3492;0.4066;
1355.1000;0.3492;0.4164;
1355.4000;0.3508;0.4213;
1355.7000;0.3508;0.4188;
1356.0000;0.3516;0.4213;
1356.3000;0.3484;0.4115;
1356.6000;0.3500;0.4164;
1356.9000;0.3492;0.4164;
1357.2000;0.3468;0.4115;
1357.5000;0.3484;0.4213;
1357.8000;0.3492;0.4164;
1358.1000;0.3484;0.4188;
1358.4000;0.3492;0.4213;
1358.7000;0.3492;0.4091;
1359.0000;0.3492;0.4164;
1359.3000;0.3492;0.4261;
1359.6000;0.3443;0.4115;
1359.9000;0.3492;0.4237;
1360.2000;0.3484;0.4188;
1360.5000;0.3476;0.4164;
1360.8000;0.3492;0.4188;
1361.1000;0.3492;0.4115;
1361.4000;0.3508;0.4115;
1361.7000;0.3508;0.4188;
1362.0000;0.3508;0.4164;
1362.3000;0.3484;0.4140;
1362.6000;0.3484;0.4237;
1362.9000;0.3516;0.4286;
1363.2000;0.3492;0.4213;
1363.5000;0.3508;0.4213;
1363.8000;0.3500;0.4115;
1364.1000;0.3492;0.4213;
1364.4000;0.3525;0.4359;
1364.7000;0.3508;0.4286;
1365.0000;0.3492;0.4237;
1365.3000;0.3492;0.4310;
1365.6000;0.3500;0.4407;
1365.9000;0.3516;0.4505;
1366.2000;0.3508;0.4480;
1366.5000;0.3484;0.4310;
1366.8000;0.3525;0.4334;
1367.1000;0.3549;0.4383;
1367.4000;0.3484;0.4237;
1367.7000;0.3492;0.4237;
1368.0000;0.3500;0.4286;
1368.3000;0.3508;0.4261;
1368.6000;0.3508;0.4286;
1368.9000;0.3476;0.4237;
1369.2000;0.3484;0.4286;
1369.5000;0.3500;0.4286;
1369.8000;0.3492;0.4237;
1370.1000;0.3492;0.4261;
1370.4000;0.3427;0.4164;
1370.7000;0.3500;0.4334;
1371.0000;0.3500;0.4286;
1371.3000;0.3468;0.4237;
1371.6000;0.3500;0.4213;
1371.9000;0.3508;0.4261;
1372.2000;0.3500;0.4188;
1372.5000;0.3476;0.4115;
1372.8000;0.3492;0.4188;
1373.1000;0.3492;0.4188;
1373.4000;0.3508;0.4164;
1373.7000;0.3500;0.4213;
1374.0000;0.3500;0.4140;
1374.3000;0.3492;0.4140;
1374.6000;0.3500;0.4164;
1374.9000;0.3484;0.4115;
1375.2000;0.3492;0.4164;
1375.5000;0.3557;0.4383;
1375.8000;0.3500;0.4261;
1376.1000;0.3492;0.4310;
1376.4000;0.3492;0.4286;
1376.7000;0.3492;0.4237;
1377.0000;0.3500;0.4213;
1377.3000;0.3492;0.4115;
1377.6000;0.3492;0.4164;
1377.9000;0.3443;0.3969;
1378.2000;0.3492;0.4091;
1378.5000;0.3476;0.4066;
1378.8000;0.3484;0.4115;
1379.1000;0.3492;0.4018;
1379.4000;0.3492;0.4091;
1379.7000;0.3516;0.4115;
1380.0000;0.3516;0.4115;
1380.3000;0.3508;0.4066;
1380.6000;0.3508;0.4115;
1380.9000;0.3492;0.4164;
1381.2000;0.3525;0.4261;
1381.5000;0.3492;0.4310;
1381.8000;0.3460;0.4237;
1382.1000;0.3516;0.4213;
1382.4000;0.3500;0.4164;
1382.7000;0.3476;0.4091;
1383.0000;0.3500;0.4164;
1383.3000;0.3508;0.4140;
1383.6000;0.3500;0.4140;
1383.9000;0.3508;0.4188;
1384.2000;0.3500;0.4164;
1384.5000;0.3492;0.4188;
1384.8000;0.3492;0.4237;
1385.1000;0.3500;0.4237;
1385.4000;0.3492;0.4140;
1385.7000;0.3500;0.4115;
1386.0000;0.3500;0.4091;
1386.3000;0.3533;0.4164;
1386.6000;0.3476;0.4091;
1386.9000;0.3500;0.4042;
1387.2000;0.3460;0.4091;
1387.5000;0.3516;0.4261;
1387.8000;0.3492;0.4237;
1388.1000;0.3484;0.4115;
1388.4000;0.3508;0.4261;
1388.7000;0.3484;0.4164;
1389.0000;0.3492;0.4213;
1389.3000;0.3476;0.4091;
1389.6000;0.3500;0.4140;
1389.9000;0.3508;0.4237;
1390.2000;0.3492;0.4237;
1390.5000;0.3476;0.4261;
1390.8000;0.3476;0.4164;
1391.1000;0.3508;0.4188;
1391.4000;0.3492;0.4066;
1391.7000;0.3492;0.4066;
1392.0000;0.3492;0.4115;
1392.3000;0.3533;0.4188;
1392.6000;0.3443;0.3920;
1392.9000;0.3484;0.4042;
1393.2000;0.3451;0.3945;
1393.5000;0.3484;0.3993;
1393.8000;0.3492;0.4042;
1394.1000;0.3484;0.4066;
1394.4000;0.3435;0.3896;
1394.7000;0.3516;0.4042;
1395.0000;0.3500;0.4066;
1395.3000;0.3492;0.4018;
1395.6000;0.3484;0.3993;
1395.9000;0.3468;0.4018;
1396.2000;0.3468;0.4018;
1396.5000;0.3468;0.4115;
1396.8000;0.3476;0.4091;
1397.1000;0.3492;0.4115;
1397.4000;0.3525;0.4237;
1397.7000;0.3476;0.4164;
1398.0000;0.3484;0.4188;
1398.3000;0.3533;0.4359;
1398.6000;0.3500;0.4261;
1398.9000;0.3500;0.4213;
1399.2000;0.3533;0.4213;
1399.5000;0.3362;0.3823;
1399.8000;0.3508;0.4188;
