time/ms;Fluo/V;P700 deltaI/I x10³;
-199.8000;0.3468;0.3726;
-199.5000;0.3460;0.3653;
-199.2000;0.3451;0.3677;
-198.9000;0.3443;0.3774;
-198.6000;0.3468;0.3774;
-198.3000;0.3451;0.3774;
-198.0000;0.3435;0.3774;
-197.7000;0.3451;0.3823;
-197.4000;0.3419;0.3823;
-197.1000;0.3443;0.3945;
-196.8000;0.3427;0.4018;
-196.5000;0.3411;0.3945;
-196.2000;0.3451;0.3993;
-195.9000;0.3451;0.4018;
-195.6000;0.3370;0.3701;
-195.3000;0.3427;0.3872;
-195.0000;0.3451;0.3945;
-194.7000;0.3451;0.3823;
-194.4000;0.3435;0.3799;
-194.1000;0.3435;0.3750;
-193.8000;0.3394;0.3653;
-193.5000;0.3443;0.3701;
-193.2000;0.3443;0.3653;
-192.9000;0.3435;0.3604;
-192.6000;0.3435;0.3604;
-192.3000;0.3451;0.3701;
-192.0000;0.3443;0.3701;
-191.7000;0.3427;0.3726;
-191.4000;0.3427;0.3774;
-191.1000;0.3419;0.3799;
-190.8000;0.3460;0.3847;
-190.5000;0.3451;0.3799;
-190.2000;0.3427;0.3726;
-189.9000;0.3419;0.3677;
-189.6000;0.3378;0.3579;
-189.3000;0.3443;0.3653;
-189.0000;0.3443;0.3653;
-188.7000;0.3403;0.3482;
-188.4000;0.3533;0.3774;
-188.1000;0.3451;0.3506;
-187.8000;0.3443;0.3409;
-187.5000;0.3443;0.3433;
-187.2000;0.3451;0.3385;
-186.9000;0.3451;0.3433;
-186.6000;0.3394;0.3287;
-186.3000;0.3435;0.3409;
-186.0000;0.3468;0.3555;
-185.7000;0.3443;0.3579;
-185.4000;0.3443;0.3653;
-185.1000;0.3451;0.3628;
-184.8000;0.3460;0.3750;
-184.5000;0.3427;0.3677;
-184.2000;0.3460;0.3823;
-183.9000;0.3451;0.3872;
-183.6000;0.3419;0.3847;
-183.3000;0.3443;0.3969;
-183.0000;0.3419;0.3823;
-182.7000;0.3460;0.3799;
-182.4000;0.3403;0.3726;
-182.1000;0.3451;0.3872;
-181.8000;0.3468;0.3847;
-181.5000;0.3435;0.3726;
-181.2000;0.3435;0.3701;
-180.9000;0.3435;0.3726;
-180.6000;0.3443;0.3750;
-180.3000;0.3346;0.3506;
-180.0000;0.3419;0.3774;
-179.7000;0.3468;0.3847;
-179.4000;0.3468;0.3896;
-179.1000;0.3460;0.3896;
-178.8000;0.3443;0.3920;
-178.5000;0.3443;0.3920;
-178.2000;0.3541;0.4115;
-177.9000;0.3435;0.3969;
-177.6000;0.3468;0.4066;
-177.3000;0.3427;0.3969;
-177.0000;0.3460;0.4018;
-176.7000;0.3435;0.3872;
-176.4000;0.3451;0.3872;
-176.1000;0.3435;0.3726;
-175.8000;0.3451;0.3774;
-175.5000;0.3468;0.3750;
-175.2000;0.3435;0.3701;
-174.9000;0.3435;0.3653;
-174.6000;0.3435;0.3701;
-174.3000;0.3492;0.3896;
-174.0000;0.3460;0.3750;
-173.7000;0.3460;0.3774;
-173.4000;0.3435;0.3677;
-173.1000;0.3435;0.3701;
-172.8000;0.3451;0.3750;
-172.5000;0.3419;0.3628;
-172.2000;0.3484;0.3920;
-171.9000;0.3460;0.3969;
-171.6000;0.3427;0.3896;
-171.3000;0.3411;0.3896;
-171.0000;0.3427;0.3920;
-170.7000;0.3419;0.3847;
-170.4000;0.3419;0.3799;
-170.1000;0.3427;0.3750;
-169.8000;0.3435;0.3701;
-169.5000;0.3443;0.3677;
-169.2000;0.3435;0.3701;
-168.9000;0.3435;0.3774;
-168.6000;0.3443;0.3750;
-168.3000;0.3427;0.3701;
-168.0000;0.3419;0.3701;
-167.7000;0.3362;0.3555;
-167.4000;0.3451;0.3847;
-167.1000;0.3427;0.3823;
-166.8000;0.3508;0.4115;
-166.5000;0.3468;0.3969;
-166.2000;0.3386;0.3774;
-165.9000;0.3451;0.3920;
-165.6000;0.3451;0.3896;
-165.3000;0.3468;0.3969;
-165.0000;0.3460;0.3969;
-164.7000;0.3435;0.3847;
-164.4000;0.3451;0.3799;
-164.1000;0.3435;0.3872;
-163.8000;0.3370;0.3799;
-163.5000;0.3443;0.3896;
-163.2000;0.3443;0.3896;
-162.9000;0.3451;0.3896;
-162.6000;0.3427;0.3872;
-162.3000;0.3443;0.3896;
-162.0000;0.3460;0.3920;
-161.7000;0.3451;0.3847;
-161.4000;0.3468;0.3799;
-161.1000;0.3435;0.3701;
-160.8000;0.3435;0.3701;
-160.5000;0.3435;0.3774;
-160.2000;0.3451;0.3774;
-159.9000;0.3451;0.3750;
-159.6000;0.3435;0.3847;
-159.3000;0.3435;0.3896;
-159.0000;0.3451;0.3993;
-158.7000;0.3451;0.3969;
-158.4000;0.3451;0.3945;
-158.1000;0.3451;0.3872;
-157.8000;0.3460;0.3920;
-157.5000;0.3451;0.3969;
-157.2000;0.3443;0.3969;
-156.9000;0.3451;0.3993;
-156.6000;0.3443;0.4018;
-156.3000;0.3443;0.3872;
-156.0000;0.3427;0.3750;
-155.7000;0.3435;0.3774;
-155.4000;0.3451;0.3774;
-155.1000;0.3476;0.3823;
-154.8000;0.3451;0.3774;
-154.5000;0.3427;0.3750;
-154.2000;0.3460;0.3774;
-153.9000;0.3435;0.3701;
-153.6000;0.3468;0.3653;
-153.3000;0.3435;0.3555;
-153.0000;0.3460;0.3653;
-152.7000;0.3460;0.3677;
-152.4000;0.3443;0.3701;
-152.1000;0.3443;0.3677;
-151.8000;0.3435;0.3701;
-151.5000;0.3451;0.3701;
-151.2000;0.3435;0.3750;
-150.9000;0.3435;0.3726;
-150.6000;0.3435;0.3823;
-150.3000;0.3443;0.3823;
-150.0000;0.3443;0.3823;
-149.7000;0.3427;0.3823;
-149.4000;0.3443;0.3847;
-149.1000;0.3427;0.3799;
-148.8000;0.3460;0.3872;
-148.5000;0.3476;0.3847;
-148.2000;0.3460;0.3823;
-147.9000;0.3460;0.3823;
-147.6000;0.3468;0.3896;
-147.3000;0.3427;0.3896;
-147.0000;0.3443;0.3896;
-146.7000;0.3394;0.3750;
-146.4000;0.3460;0.3945;
-146.1000;0.3451;0.3896;
-145.8000;0.3460;0.3920;
-145.5000;0.3451;0.3945;
-145.2000;0.3394;0.3774;
-144.9000;0.3460;0.3896;
-144.6000;0.3427;0.3872;
-144.3000;0.3443;0.3799;
-144.0000;0.3468;0.3847;
-143.7000;0.3451;0.3750;
-143.4000;0.3451;0.3823;
-143.1000;0.3451;0.3847;
-142.8000;0.3443;0.3774;
-142.5000;0.3451;0.3750;
-142.2000;0.3443;0.3677;
-141.9000;0.3427;0.3653;
-141.6000;0.3443;0.3701;
-141.3000;0.3435;0.3726;
-141.0000;0.3435;0.3726;
-140.7000;0.3460;0.3799;
-140.4000;0.3484;0.3945;
-140.1000;0.3435;0.3847;
-139.8000;0.3451;0.3945;
-139.5000;0.3435;0.3920;
-139.2000;0.3443;0.3969;
-138.9000;0.3443;0.3945;
-138.6000;0.3443;0.4018;
-138.3000;0.3443;0.3896;
-138.0000;0.3427;0.3774;
-137.7000;0.3435;0.3920;
-137.4000;0.3443;0.3993;
-137.1000;0.3460;0.3969;
-136.8000;0.3427;0.3823;
-136.5000;0.3419;0.3823;
-136.2000;0.3394;0.3701;
-135.9000;0.3427;0.3872;
-135.6000;0.3435;0.3945;
-135.3000;0.3443;0.3920;
-135.0000;0.3427;0.3872;
-134.7000;0.3443;0.3920;
-134.4000;0.3419;0.3847;
-134.1000;0.3451;0.3823;
-133.8000;0.3451;0.3750;
-133.5000;0.3500;0.3872;
-133.2000;0.3484;0.3823;
-132.9000;0.3460;0.3823;
-132.6000;0.3460;0.3872;
-132.3000;0.3443;0.3896;
-132.0000;0.3443;0.3750;
-131.7000;0.3451;0.3726;
-131.4000;0.3476;0.3823;
-131.1000;0.3435;0.3750;
-130.8000;0.3435;0.3872;
-130.5000;0.3403;0.3799;
-130.2000;0.3435;0.3823;
-129.9000;0.3435;0.3750;
-129.6000;0.3451;0.3701;
-129.3000;0.3435;0.3604;
-129.0000;0.3460;0.3653;
-128.7000;0.3443;0.3628;
-128.4000;0.3476;0.3774;
-128.1000;0.3468;0.3701;
-127.8000;0.3435;0.3628;
-127.5000;0.3451;0.3677;
-127.2000;0.3443;0.3604;
-126.9000;0.3443;0.3604;
-126.6000;0.3443;0.3677;
-126.3000;0.3411;0.3531;
-126.0000;0.3451;0.3531;
-125.7000;0.3451;0.3653;
-125.4000;0.3460;0.3653;
-125.1000;0.3443;0.3653;
-124.8000;0.3460;0.3701;
-124.5000;0.3451;0.3774;
-124.2000;0.3419;0.3653;
-123.9000;0.3484;0.3653;
-123.6000;0.3476;0.3579;
-123.3000;0.3411;0.3385;
-123.0000;0.3443;0.3482;
-122.7000;0.3443;0.3506;
-122.4000;0.3468;0.3531;
-122.1000;0.3451;0.3579;
-121.8000;0.3443;0.3604;
-121.5000;0.3443;0.3628;
-121.2000;0.3411;0.3774;
-120.9000;0.3468;0.3969;
-120.6000;0.3427;0.3945;
-120.3000;0.3451;0.4018;
-120.0000;0.3451;0.3872;
-119.7000;0.3476;0.3945;
-119.4000;0.3451;0.3920;
-119.1000;0.3443;0.3920;
-118.8000;0.3435;0.3920;
-118.5000;0.3476;0.4091;
-118.2000;0.3427;0.3969;
-117.9000;0.3460;0.3969;
-117.6000;0.3427;0.3945;
-117.3000;0.3419;0.3993;
-117.0000;0.3451;0.4018;
-116.7000;0.3451;0.3969;
-116.4000;0.3411;0.3823;
-116.1000;0.3451;0.3872;
-115.8000;0.3443;0.3823;
-115.5000;0.3435;0.3799;
-115.2000;0.3427;0.3799;
-114.9000;0.3435;0.3896;
-114.6000;0.3419;0.3823;
-114.3000;0.3435;0.3823;
-114.0000;0.3443;0.3896;
-113.7000;0.3427;0.3872;
-113.4000;0.3435;0.3945;
-113.1000;0.3427;0.3945;
-112.8000;0.3460;0.3993;
-112.5000;0.3427;0.3920;
-112.2000;0.3443;0.3920;
-111.9000;0.3460;0.3920;
-111.6000;0.3476;0.3920;
-111.3000;0.3435;0.3799;
-111.0000;0.3443;0.3896;
-110.7000;0.3484;0.3969;
-110.4000;0.3460;0.3945;
-110.1000;0.3378;0.3677;
-109.8000;0.3427;0.3701;
-109.5000;0.3419;0.3628;
-109.2000;0.3386;0.3604;
-108.9000;0.3435;0.3774;
-108.6000;0.3427;0.3750;
-108.3000;0.3451;0.3799;
-108.0000;0.3460;0.3774;
-107.7000;0.3460;0.3799;
-107.4000;0.3443;0.3726;
-107.1000;0.3411;0.3653;
-106.8000;0.3460;0.3701;
-106.5000;0.3451;0.3750;
-106.2000;0.3443;0.3726;
-105.9000;0.3427;0.3799;
-105.6000;0.3451;0.3799;
-105.3000;0.3451;0.3847;
-105.0000;0.3443;0.3823;
-104.7000;0.3362;0.3701;
-104.4000;0.3451;0.3896;
-104.1000;0.3460;0.3896;
-103.8000;0.3443;0.3896;
-103.5000;0.3435;0.3945;
-103.2000;0.3468;0.4018;
-102.9000;0.3460;0.4018;
-102.6000;0.3460;0.3969;
-102.3000;0.3451;0.3969;
-102.0000;0.3468;0.4042;
-101.7000;0.3468;0.4066;
-101.4000;0.3460;0.3993;
-101.1000;0.3443;0.3847;
-100.8000;0.3435;0.3847;
-100.5000;0.3427;0.3945;
-100.2000;0.3427;0.3969;
-99.9000;0.3451;0.4018;
-99.6000;0.3443;0.4042;
-99.3000;0.3460;0.3993;
-99.0000;0.3460;0.3969;
-98.7000;0.3451;0.3920;
-98.4000;0.3435;0.3872;
-98.1000;0.3460;0.3896;
-97.8000;0.3460;0.3896;
-97.5000;0.3443;0.3872;
-97.2000;0.3443;0.3896;
-96.9000;0.3403;0.3847;
-96.6000;0.3451;0.3896;
-96.3000;0.3435;0.3847;
-96.0000;0.3460;0.3896;
-95.7000;0.3435;0.3823;
-95.4000;0.3484;0.3920;
-95.1000;0.3435;0.3847;
-94.8000;0.3378;0.3750;
-94.5000;0.3419;0.3847;
-94.2000;0.3435;0.3847;
-93.9000;0.3427;0.3847;
-93.6000;0.3411;0.3847;
-93.3000;0.3435;0.3847;
-93.0000;0.3435;0.3823;
-92.7000;0.3460;0.3847;
-92.4000;0.3451;0.3847;
-92.1000;0.3443;0.3750;
-91.8000;0.3435;0.3774;
-91.5000;0.3435;0.3750;
-91.2000;0.3460;0.3750;
-90.9000;0.3411;0.3677;
-90.6000;0.3435;0.3701;
-90.3000;0.3460;0.3799;
-90.0000;0.3427;0.3726;
-89.7000;0.3492;0.3750;
-89.4000;0.3435;0.3653;
-89.1000;0.3435;0.3579;
-88.8000;0.3468;0.3579;
-88.5000;0.3460;0.3604;
-88.2000;0.3451;0.3677;
-87.9000;0.3443;0.3677;
-87.6000;0.3435;0.3774;
-87.3000;0.3427;0.3750;
-87.0000;0.3435;0.3799;
-86.7000;0.3516;0.3993;
-86.4000;0.3443;0.3896;
-86.1000;0.3427;0.3847;
-85.8000;0.3435;0.3726;
-85.5000;0.3451;0.3774;
-85.2000;0.3427;0.3774;
-84.9000;0.3443;0.3847;
-84.6000;0.3435;0.3823;
-84.3000;0.3435;0.3799;
-84.0000;0.3435;0.3896;
-83.7000;0.3451;0.3969;
-83.4000;0.3460;0.3969;
-83.1000;0.3419;0.3872;
-82.8000;0.3435;0.3920;
-82.5000;0.3435;0.3920;
-82.2000;0.3460;0.3896;
-81.9000;0.3451;0.3823;
-81.6000;0.3451;0.3872;
-81.3000;0.3460;0.3920;
-81.0000;0.3435;0.3774;
-80.7000;0.3435;0.3847;
-80.4000;0.3451;0.3896;
-80.1000;0.3460;0.3823;
-79.8000;0.3427;0.3823;
-79.5000;0.3451;0.3896;
-79.2000;0.3435;0.3847;
-78.9000;0.3443;0.3823;
-78.6000;0.3435;0.3726;
-78.3000;0.3435;0.3677;
-78.0000;0.3435;0.3604;
-77.7000;0.3451;0.3677;
-77.4000;0.3451;0.3726;
-77.1000;0.3443;0.3774;
-76.8000;0.3460;0.3823;
-76.5000;0.3427;0.3799;
-76.2000;0.3451;0.3920;
-75.9000;0.3443;0.4018;
-75.6000;0.3468;0.4042;
-75.3000;0.3451;0.4066;
-75.0000;0.3435;0.4042;
-74.7000;0.3460;0.3993;
-74.4000;0.3443;0.3872;
-74.1000;0.3419;0.3750;
-73.8000;0.3443;0.3774;
-73.5000;0.3460;0.3823;
-73.2000;0.3427;0.3774;
-72.9000;0.3427;0.3896;
-72.6000;0.3460;0.3920;
-72.3000;0.3460;0.3920;
-72.0000;0.3427;0.3823;
-71.7000;0.3451;0.3847;
-71.4000;0.3451;0.3847;
-71.1000;0.3500;0.3945;
-70.8000;0.3460;0.3823;
-70.5000;0.3403;0.3701;
-70.2000;0.3435;0.3726;
-69.9000;0.3411;0.3628;
-69.6000;0.3451;0.3653;
-69.3000;0.3451;0.3653;
-69.0000;0.3443;0.3701;
-68.7000;0.3451;0.3677;
-68.4000;0.3451;0.3653;
-68.1000;0.3451;0.3579;
-67.8000;0.3427;0.3458;
-67.5000;0.3468;0.3579;
-67.2000;0.3443;0.3579;
-66.9000;0.3468;0.3628;
-66.6000;0.3443;0.3628;
-66.3000;0.3460;0.3653;
-66.0000;0.3460;0.3750;
-65.7000;0.3468;0.3823;
-65.4000;0.3435;0.3750;
-65.1000;0.3427;0.3823;
-64.8000;0.3443;0.3823;
-64.5000;0.3435;0.3823;
-64.2000;0.3443;0.3799;
-63.9000;0.3435;0.3896;
-63.6000;0.3435;0.3847;
-63.3000;0.3427;0.3799;
-63.0000;0.3370;0.3531;
-62.7000;0.3419;0.3653;
-62.4000;0.3443;0.3604;
-62.1000;0.3443;0.3555;
-61.8000;0.3476;0.3628;
-61.5000;0.3443;0.3628;
-61.2000;0.3435;0.3653;
-60.9000;0.3460;0.3653;
-60.6000;0.3435;0.3579;
-60.3000;0.3435;0.3653;
-60.0000;0.3435;0.3677;
-59.7000;0.3443;0.3677;
-59.4000;0.3427;0.3604;
-59.1000;0.3443;0.3677;
-58.8000;0.3427;0.3604;
-58.5000;0.3468;0.3750;
-58.2000;0.3443;0.3653;
-57.9000;0.3435;0.3628;
-57.6000;0.3419;0.3555;
-57.3000;0.3427;0.3604;
-57.0000;0.3443;0.3653;
-56.7000;0.3460;0.3701;
-56.4000;0.3460;0.3750;
-56.1000;0.3443;0.3628;
-55.8000;0.3435;0.3628;
-55.5000;0.3508;0.3774;
-55.2000;0.3427;0.3604;
-54.9000;0.3443;0.3579;
-54.6000;0.3411;0.3458;
-54.3000;0.3403;0.3409;
-54.0000;0.3435;0.3555;
-53.7000;0.3443;0.3555;
-53.4000;0.3443;0.3653;
-53.1000;0.3435;0.3701;
-52.8000;0.3492;0.3799;
-52.5000;0.3386;0.3433;
-52.2000;0.3460;0.3628;
-51.9000;0.3451;0.3604;
-51.6000;0.3443;0.3653;
-51.3000;0.3419;0.3677;
-51.0000;0.3435;0.3653;
-50.7000;0.3443;0.3750;
-50.4000;0.3476;0.3896;
-50.1000;0.3427;0.3750;
-49.8000;0.3394;0.3579;
-49.5000;0.3451;0.3799;
-49.2000;0.3443;0.3799;
-48.9000;0.3435;0.3701;
-48.6000;0.3427;0.3750;
-48.3000;0.3443;0.3750;
-48.0000;0.3460;0.3750;
-47.7000;0.3419;0.3726;
-47.4000;0.3435;0.3750;
-47.1000;0.3427;0.3774;
-46.8000;0.3411;0.3726;
-46.5000;0.3427;0.3774;
-46.2000;0.3435;0.3799;
-45.9000;0.3451;0.3774;
-45.6000;0.3435;0.3604;
-45.3000;0.3427;0.3531;
-45.0000;0.3427;0.3555;
-44.7000;0.3451;0.3628;
-44.4000;0.3451;0.3653;
-44.1000;0.3443;0.3677;
-43.8000;0.3443;0.3701;
-43.5000;0.3443;0.3653;
-43.2000;0.3468;0.3701;
-42.9000;0.3451;0.3653;
-42.6000;0.3419;0.3604;
-42.3000;0.3451;0.3653;
-42.0000;0.3468;0.3750;
-41.7000;0.3468;0.3750;
-41.4000;0.3435;0.3750;
-41.1000;0.3484;0.3799;
-40.8000;0.3451;0.3750;
-40.5000;0.3435;0.3726;
-40.2000;0.3427;0.3579;
-39.9000;0.3443;0.3653;
-39.6000;0.3468;0.3653;
-39.3000;0.3435;0.3555;
-39.0000;0.3435;0.3506;
-38.7000;0.3443;0.3628;
-38.4000;0.3443;0.3653;
-38.1000;0.3451;0.3750;
-37.8000;0.3460;0.3799;
-37.5000;0.3451;0.3799;
-37.2000;0.3460;0.3920;
-36.9000;0.3451;0.3920;
-36.6000;0.3460;0.3896;
-36.3000;0.3451;0.3896;
-36.0000;0.3468;0.3896;
-35.7000;0.3451;0.3872;
-35.4000;0.3435;0.3774;
-35.1000;0.3451;0.3799;
-34.8000;0.3403;0.3750;
-34.5000;0.3484;0.3896;
-34.2000;0.3443;0.3726;
-33.9000;0.3403;0.3701;
-33.6000;0.3460;0.3847;
-33.3000;0.3427;0.3726;
-33.0000;0.3443;0.3823;
-32.7000;0.3451;0.3774;
-32.4000;0.3451;0.3774;
-32.1000;0.3435;0.3726;
-31.8000;0.3451;0.3847;
-31.5000;0.3443;0.3872;
-31.2000;0.3411;0.3774;
-30.9000;0.3443;0.3774;
-30.6000;0.3443;0.3945;
-30.3000;0.3492;0.4091;
-30.0000;0.3435;0.4018;
-29.7000;0.3468;0.4066;
-29.4000;0.3443;0.3945;
-29.1000;0.3427;0.3847;
-28.8000;0.3443;0.3872;
-28.5000;0.3484;0.3993;
-28.2000;0.3451;0.3823;
-27.9000;0.3443;0.3726;
-27.6000;0.3508;0.3920;
-27.3000;0.3419;0.3701;
-27.0000;0.3427;0.3701;
-26.7000;0.3435;0.3774;
-26.4000;0.3484;0.3872;
-26.1000;0.3443;0.3726;
-25.8000;0.3427;0.3653;
-25.5000;0.3435;0.3653;
-25.2000;0.3451;0.3726;
-24.9000;0.3476;0.3872;
-24.6000;0.3435;0.3847;
-24.3000;0.3435;0.3823;
-24.0000;0.3419;0.3774;
-23.7000;0.3419;0.3823;
-23.4000;0.3460;0.3896;
-23.1000;0.3435;0.3847;
-22.8000;0.3435;0.3823;
-22.5000;0.3435;0.3847;
-22.2000;0.3435;0.3872;
-21.9000;0.3419;0.3896;
-21.6000;0.3427;0.3945;
-21.3000;0.3451;0.4066;
-21.0000;0.3476;0.4091;
-20.7000;0.3435;0.3872;
-20.4000;0.3508;0.4115;
-20.1000;0.3443;0.4018;
-19.8000;0.3443;0.4042;
-19.5000;0.3435;0.4042;
-19.2000;0.3443;0.4066;
-18.9000;0.3435;0.4091;
-18.6000;0.3435;0.4066;
-18.3000;0.3451;0.4091;
-18.0000;0.3443;0.4066;
-17.7000;0.3435;0.4042;
-17.4000;0.3460;0.4066;
-17.1000;0.3468;0.4091;
-16.8000;0.3443;0.4042;
-16.5000;0.3394;0.3896;
-16.2000;0.3451;0.4115;
-15.9000;0.3443;0.4042;
-15.6000;0.3508;0.4164;
-15.3000;0.3427;0.4018;
-15.0000;0.3508;0.4188;
-14.7000;0.3435;0.3969;
-14.4000;0.3435;0.3993;
-14.1000;0.3443;0.3993;
-13.8000;0.3460;0.3993;
-13.5000;0.3435;0.3896;
-13.2000;0.3435;0.3847;
-12.9000;0.3443;0.3823;
-12.6000;0.3419;0.3726;
-12.3000;0.3460;0.3823;
-12.0000;0.3435;0.3896;
-11.7000;0.3411;0.3872;
-11.4000;0.3476;0.3969;
-11.1000;0.3427;0.3823;
-10.8000;0.3451;0.3872;
-10.5000;0.3435;0.3799;
-10.2000;0.3411;0.3823;
-9.9000;0.3435;0.3945;
-9.6000;0.3394;0.3847;
-9.3000;0.3411;0.3872;
-9.0000;0.3435;0.3945;
-8.7000;0.3451;0.3920;
-8.4000;0.3419;0.3872;
-8.1000;0.3451;0.3969;
-7.8000;0.3443;0.3896;
-7.5000;0.3419;0.3872;
-7.2000;0.3468;0.3945;
-6.9000;0.3443;0.3945;
-6.6000;0.3411;0.3847;
-6.3000;0.3419;0.3799;
-6.0000;0.3411;0.3774;
-5.7000;0.3451;0.3823;
-5.4000;0.3443;0.3823;
-5.1000;0.3443;0.3847;
-4.8000;0.3468;0.3920;
-4.5000;0.3411;0.3823;
-4.2000;0.3443;0.3896;
-3.9000;0.3451;0.4018;
-3.6000;0.3435;0.4042;
-3.3000;0.3468;0.4018;
-3.0000;0.3427;0.3920;
-2.7000;0.3435;0.3945;
-2.4000;0.3468;0.3969;
-2.1000;0.3443;0.3750;
-1.8000;0.3451;0.3750;
-1.5000;0.3435;0.3726;
-1.2000;0.3427;0.3726;
-0.9000;0.3443;0.3799;
-0.6000;0.3451;0.3774;
-0.3000;0.3443;0.3799;
0.0000;0.3443;0.3799;
0.3000;0.3500;0.3823;
0.6000;0.3630;0.4115;
0.9000;0.3704;0.4383;
1.2000;0.3769;0.4748;
1.5000;0.3834;0.5114;
1.8000;0.3875;0.5430;
2.1000;0.3875;0.5552;
2.4000;0.3899;0.5722;
2.7000;0.3956;0.5868;
3.0000;0.3964;0.5917;
3.3000;0.3980;0.5966;
3.6000;0.3989;0.6136;
3.9000;0.3989;0.6209;
4.2000;0.4037;0.6307;
4.5000;0.4054;0.6428;
4.8000;0.4046;0.6526;
5.1000;0.4054;0.6575;
5.4000;0.4037;0.6648;
5.7000;0.4054;0.6623;
6.0000;0.4054;0.6575;
6.3000;0.4078;0.6501;
6.6000;0.4078;0.6501;
6.9000;0.4086;0.6355;
7.2000;0.4078;0.6307;
7.5000;0.4086;0.6307;
7.8000;0.4086;0.6355;
8.1000;0.4054;0.6380;
8.4000;0.4094;0.6477;
8.7000;0.4103;0.6550;
9.0000;0.4103;0.6453;
9.3000;0.4127;0.6550;
9.6000;0.4143;0.6477;
9.9000;0.4143;0.6599;
10.2000;0.4127;0.6526;
10.5000;0.4151;0.6526;
10.8000;0.4119;0.6526;
11.1000;0.4127;0.6599;
11.4000;0.4143;0.6696;
11.7000;0.4143;0.6696;
12.0000;0.4151;0.6648;
12.3000;0.4176;0.6721;
12.6000;0.4151;0.6696;
12.9000;0.4160;0.6721;
13.2000;0.4160;0.6721;
13.5000;0.4160;0.6648;
13.8000;0.4168;0.6575;
14.1000;0.4184;0.6599;
14.4000;0.4184;0.6672;
14.7000;0.4184;0.6696;
15.0000;0.4168;0.6623;
15.3000;0.4151;0.6526;
15.6000;0.4208;0.6672;
15.9000;0.4200;0.6575;
16.2000;0.4217;0.6575;
16.5000;0.4208;0.6575;
16.8000;0.4208;0.6599;
17.1000;0.4208;0.6526;
17.4000;0.4200;0.6575;
17.7000;0.4200;0.6575;
18.0000;0.4241;0.6696;
18.3000;0.4217;0.6721;
18.6000;0.4225;0.6648;
18.9000;0.4225;0.6648;
19.2000;0.4233;0.6769;
19.5000;0.4225;0.6721;
19.8000;0.4257;0.6769;
20.1000;0.4233;0.6794;
20.4000;0.4241;0.6842;
20.7000;0.4249;0.6915;
21.0000;0.4249;0.6745;
21.3000;0.4241;0.6696;
21.6000;0.4257;0.6745;
21.9000;0.4257;0.6794;
22.2000;0.4257;0.6745;
22.5000;0.4257;0.6696;
22.8000;0.4249;0.6745;
23.1000;0.4233;0.6721;
23.4000;0.4265;0.6672;
23.7000;0.4274;0.6696;
24.0000;0.4274;0.6721;
24.3000;0.4322;0.6940;
24.6000;0.4274;0.6842;
24.9000;0.4257;0.6818;
25.2000;0.4274;0.6769;
25.5000;0.4282;0.6721;
25.8000;0.4306;0.6696;
26.1000;0.4274;0.6672;
26.4000;0.4306;0.6794;
26.7000;0.4282;0.6696;
27.0000;0.4339;0.6794;
27.3000;0.4290;0.6745;
27.6000;0.4290;0.6745;
27.9000;0.4298;0.6745;
28.2000;0.4306;0.6745;
28.5000;0.4306;0.6599;
28.8000;0.4298;0.6599;
29.1000;0.4306;0.6648;
29.4000;0.4298;0.6623;
29.7000;0.4298;0.6575;
30.0000;0.4290;0.6623;
30.3000;0.4306;0.6648;
30.6000;0.4306;0.6648;
30.9000;0.4314;0.6696;
31.2000;0.4306;0.6648;
31.5000;0.4290;0.6648;
31.8000;0.4282;0.6550;
32.1000;0.4314;0.6623;
32.4000;0.4306;0.6550;
32.7000;0.4314;0.6623;
33.0000;0.4306;0.6648;
33.3000;0.4322;0.6672;
33.6000;0.4355;0.6696;
33.9000;0.4314;0.6721;
34.2000;0.4314;0.6599;
34.5000;0.4330;0.6672;
34.8000;0.4330;0.6696;
35.1000;0.4314;0.6672;
35.4000;0.4322;0.6769;
35.7000;0.4322;0.6842;
36.0000;0.4339;0.6794;
36.3000;0.4339;0.6794;
36.6000;0.4314;0.6696;
36.9000;0.4339;0.6818;
37.2000;0.4314;0.6721;
37.5000;0.4330;0.6696;
37.8000;0.4322;0.6745;
38.1000;0.4347;0.6623;
38.4000;0.4306;0.6526;
38.7000;0.4330;0.6599;
39.0000;0.4379;0.6623;
39.3000;0.4322;0.6477;
39.6000;0.4363;0.6575;
39.9000;0.4347;0.6501;
40.2000;0.4339;0.6501;
40.5000;0.4355;0.6526;
40.8000;0.4339;0.6501;
41.1000;0.4347;0.6477;
41.4000;0.4355;0.6501;
41.7000;0.4314;0.6428;
42.0000;0.4355;0.6575;
42.3000;0.4355;0.6721;
42.6000;0.4290;0.6526;
42.9000;0.4339;0.6648;
43.2000;0.4314;0.6648;
43.5000;0.4339;0.6648;
43.8000;0.4347;0.6477;
44.1000;0.4339;0.6404;
44.4000;0.4330;0.6404;
44.7000;0.4330;0.6428;
45.0000;0.4363;0.6428;
45.3000;0.4347;0.6501;
45.6000;0.4339;0.6550;
45.9000;0.4314;0.6526;
46.2000;0.4371;0.6575;
46.5000;0.4347;0.6501;
46.8000;0.4347;0.6477;
47.1000;0.4363;0.6501;
47.4000;0.4306;0.6428;
47.7000;0.4339;0.6599;
48.0000;0.4363;0.6648;
48.3000;0.4330;0.6526;
48.6000;0.4355;0.6550;
48.9000;0.4339;0.6526;
49.2000;0.4355;0.6575;
49.5000;0.4363;0.6599;
49.8000;0.4379;0.6526;
50.1000;0.4355;0.6477;
50.4000;0.4339;0.6477;
50.7000;0.4371;0.6575;
51.0000;0.4282;0.6526;
51.3000;0.4355;0.6648;
51.6000;0.4404;0.6769;
51.9000;0.4387;0.6842;
52.2000;0.4379;0.6842;
52.5000;0.4355;0.6818;
52.8000;0.4363;0.6721;
53.1000;0.4363;0.6721;
53.4000;0.4355;0.6721;
53.7000;0.4363;0.6721;
54.0000;0.4306;0.6575;
54.3000;0.4355;0.6672;
54.6000;0.4379;0.6721;
54.9000;0.4371;0.6745;
55.2000;0.4298;0.6623;
55.5000;0.4387;0.6842;
55.8000;0.4363;0.6769;
56.1000;0.4363;0.6721;
56.4000;0.4371;0.6769;
56.7000;0.4363;0.6769;
57.0000;0.4306;0.6721;
57.3000;0.4371;0.6867;
57.6000;0.4363;0.6745;
57.9000;0.4371;0.6745;
58.2000;0.4363;0.6696;
58.5000;0.4453;0.6940;
58.8000;0.4387;0.6745;
59.1000;0.4420;0.6940;
59.4000;0.4387;0.6867;
59.7000;0.4387;0.6867;
60.0000;0.4379;0.6915;
60.3000;0.4379;0.6842;
60.6000;0.4363;0.6794;
60.9000;0.4363;0.6818;
61.2000;0.4371;0.6794;
61.5000;0.4387;0.6818;
61.8000;0.4363;0.6696;
62.1000;0.4347;0.6672;
62.4000;0.4387;0.6769;
62.7000;0.4379;0.6672;
63.0000;0.4379;0.6769;
63.3000;0.4347;0.6745;
63.6000;0.4420;0.6988;
63.9000;0.4387;0.7013;
64.2000;0.4396;0.7013;
64.5000;0.4379;0.6915;
64.8000;0.4477;0.7013;
65.1000;0.4396;0.6769;
65.4000;0.4387;0.6672;
65.7000;0.4387;0.6623;
66.0000;0.4379;0.6648;
66.3000;0.4330;0.6477;
66.6000;0.4396;0.6623;
66.9000;0.4371;0.6599;
67.2000;0.4371;0.6599;
67.5000;0.4379;0.6648;
67.8000;0.4387;0.6648;
68.1000;0.4363;0.6575;
68.4000;0.4355;0.6623;
68.7000;0.4387;0.6721;
69.0000;0.4387;0.6745;
69.3000;0.4396;0.6745;
69.6000;0.4396;0.6794;
69.9000;0.4371;0.6648;
70.2000;0.4461;0.6891;
70.5000;0.4404;0.6721;
70.8000;0.4387;0.6769;
71.1000;0.4396;0.6745;
71.4000;0.4404;0.6721;
71.7000;0.4355;0.6696;
72.0000;0.4404;0.6794;
72.3000;0.4379;0.6721;
72.6000;0.4379;0.6648;
72.9000;0.4396;0.6721;
73.2000;0.4396;0.6769;
73.5000;0.4379;0.6794;
73.8000;0.4363;0.6867;
74.1000;0.4347;0.6769;
74.4000;0.4404;0.6891;
74.7000;0.4387;0.6842;
75.0000;0.4387;0.6818;
75.3000;0.4387;0.6745;
75.6000;0.4379;0.6818;
75.9000;0.4428;0.6891;
76.2000;0.4428;0.6867;
76.5000;0.4387;0.6818;
76.8000;0.4420;0.6867;
77.1000;0.4322;0.6599;
77.4000;0.4387;0.6672;
77.7000;0.4420;0.6648;
78.0000;0.4396;0.6769;
78.3000;0.4396;0.6794;
78.6000;0.4379;0.6648;
78.9000;0.4322;0.6575;
79.2000;0.4428;0.6818;
79.5000;0.4363;0.6672;
79.8000;0.4396;0.6623;
80.1000;0.4379;0.6575;
80.4000;0.4387;0.6550;
80.7000;0.4404;0.6575;
81.0000;0.4396;0.6623;
81.3000;0.4396;0.6575;
81.6000;0.4387;0.6648;
81.9000;0.4396;0.6696;
82.2000;0.4379;0.6721;
82.5000;0.4436;0.6940;
82.8000;0.4396;0.6915;
83.1000;0.4379;0.6818;
83.4000;0.4428;0.6891;
83.7000;0.4371;0.6745;
84.0000;0.4387;0.6745;
84.3000;0.4412;0.6745;
84.6000;0.4379;0.6696;
84.9000;0.4396;0.6745;
85.2000;0.4387;0.6648;
85.5000;0.4379;0.6599;
85.8000;0.4436;0.6794;
86.1000;0.4379;0.6696;
86.4000;0.4387;0.6769;
86.7000;0.4396;0.6794;
87.0000;0.4428;0.6794;
87.3000;0.4396;0.6745;
87.6000;0.4306;0.6453;
87.9000;0.4396;0.6696;
88.2000;0.4412;0.6745;
88.5000;0.4404;0.6696;
88.8000;0.4371;0.6623;
89.1000;0.4387;0.6721;
89.4000;0.4396;0.6623;
89.7000;0.4396;0.6599;
90.0000;0.4396;0.6623;
90.3000;0.4396;0.6672;
90.6000;0.4444;0.6794;
90.9000;0.4420;0.6721;
91.2000;0.4404;0.6721;
91.5000;0.4396;0.6721;
91.8000;0.4412;0.6745;
92.1000;0.4396;0.6672;
92.4000;0.4396;0.6672;
92.7000;0.4314;0.6355;
93.0000;0.4387;0.6575;
93.3000;0.4387;0.6575;
93.6000;0.4404;0.6623;
93.9000;0.4420;0.6648;
94.2000;0.4387;0.6526;
94.5000;0.4412;0.6550;
94.8000;0.4404;0.6599;
95.1000;0.4396;0.6575;
95.4000;0.4404;0.6599;
95.7000;0.4355;0.6453;
96.0000;0.4371;0.6477;
96.3000;0.4404;0.6599;
96.6000;0.4396;0.6575;
96.9000;0.4396;0.6575;
97.2000;0.4371;0.6380;
97.5000;0.4404;0.6428;
97.8000;0.4404;0.6453;
98.1000;0.4436;0.6501;
98.4000;0.4396;0.6453;
98.7000;0.4396;0.6501;
99.0000;0.4420;0.6526;
99.3000;0.4379;0.6526;
99.6000;0.4420;0.6696;
99.9000;0.4371;0.6648;
100.2000;0.4371;0.6672;
100.5000;0.4396;0.6745;
100.8000;0.4412;0.6769;
101.1000;0.4404;0.6769;
101.4000;0.4404;0.6745;
101.7000;0.4396;0.6721;
102.0000;0.4412;0.6745;
102.3000;0.4412;0.6745;
102.6000;0.4404;0.6648;
102.9000;0.4404;0.6623;
103.2000;0.4420;0.6648;
103.5000;0.4404;0.6575;
103.8000;0.4412;0.6623;
104.1000;0.4387;0.6526;
104.4000;0.4387;0.6404;
104.7000;0.4404;0.6428;
105.0000;0.4412;0.6453;
105.3000;0.4404;0.6526;
105.6000;0.4404;0.6453;
105.9000;0.4404;0.6477;
106.2000;0.4412;0.6526;
106.5000;0.4428;0.6501;
106.8000;0.4420;0.6453;
107.1000;0.4387;0.6404;
107.4000;0.4412;0.6477;
107.7000;0.4428;0.6575;
108.0000;0.4412;0.6550;
108.3000;0.4396;0.6477;
108.6000;0.4469;0.6672;
108.9000;0.4404;0.6428;
109.2000;0.4379;0.6380;
109.5000;0.4444;0.6428;
109.8000;0.4412;0.6453;
110.1000;0.4404;0.6404;
110.4000;0.4404;0.6404;
110.7000;0.4420;0.6404;
111.0000;0.4404;0.6453;
111.3000;0.4404;0.6501;
111.6000;0.4412;0.6550;
111.9000;0.4404;0.6575;
112.2000;0.4436;0.6599;
112.5000;0.4420;0.6648;
112.8000;0.4404;0.6575;
113.1000;0.4396;0.6550;
113.4000;0.4420;0.6648;
113.7000;0.4444;0.6842;
114.0000;0.4396;0.6696;
114.3000;0.4412;0.6696;
114.6000;0.4396;0.6672;
114.9000;0.4436;0.6818;
115.2000;0.4404;0.6769;
115.5000;0.4387;0.6672;
115.8000;0.4404;0.6696;
116.1000;0.4428;0.6721;
116.4000;0.4477;0.6891;
116.7000;0.4420;0.6818;
117.0000;0.4355;0.6599;
117.3000;0.4404;0.6721;
117.6000;0.4404;0.6769;
117.9000;0.4387;0.6721;
118.2000;0.4387;0.6794;
118.5000;0.4396;0.6769;
118.8000;0.4412;0.6794;
119.1000;0.4404;0.6842;
119.4000;0.4404;0.6867;
119.7000;0.4396;0.6842;
120.0000;0.4412;0.6842;
120.3000;0.4412;0.6891;
120.6000;0.4396;0.6842;
120.9000;0.4412;0.6794;
121.2000;0.4412;0.6745;
121.5000;0.4436;0.6818;
121.8000;0.4436;0.6867;
122.1000;0.4420;0.6842;
122.4000;0.4363;0.6623;
122.7000;0.4412;0.6721;
123.0000;0.4396;0.6721;
123.3000;0.4396;0.6672;
123.6000;0.4396;0.6672;
123.9000;0.4404;0.6672;
124.2000;0.4396;0.6599;
124.5000;0.4453;0.6721;
124.8000;0.4396;0.6575;
125.1000;0.4444;0.6721;
125.4000;0.4404;0.6623;
125.7000;0.4412;0.6672;
126.0000;0.4387;0.6623;
126.3000;0.4404;0.6672;
126.6000;0.4412;0.6721;
126.9000;0.4420;0.6769;
127.2000;0.4428;0.6818;
127.5000;0.4420;0.6721;
127.8000;0.4420;0.6745;
128.1000;0.4404;0.6696;
128.4000;0.4420;0.6721;
128.7000;0.4404;0.6575;
129.0000;0.4404;0.6550;
129.3000;0.4420;0.6526;
129.6000;0.4420;0.6550;
129.9000;0.4404;0.6623;
130.2000;0.4420;0.6623;
130.5000;0.4379;0.6501;
130.8000;0.4404;0.6672;
131.1000;0.4420;0.6769;
131.4000;0.4404;0.6721;
131.7000;0.4420;0.6794;
132.0000;0.4436;0.6745;
132.3000;0.4412;0.6648;
132.6000;0.4436;0.6575;
132.9000;0.4436;0.6575;
133.2000;0.4428;0.6672;
133.5000;0.4387;0.6526;
133.8000;0.4420;0.6623;
134.1000;0.4404;0.6599;
134.4000;0.4436;0.6599;
134.7000;0.4420;0.6477;
135.0000;0.4387;0.6477;
135.3000;0.4371;0.6453;
135.6000;0.4420;0.6550;
135.9000;0.4412;0.6428;
136.2000;0.4436;0.6599;
136.5000;0.4420;0.6526;
136.8000;0.4428;0.6501;
137.1000;0.4420;0.6477;
137.4000;0.4404;0.6404;
137.7000;0.4420;0.6380;
138.0000;0.4404;0.6331;
138.3000;0.4355;0.6282;
138.6000;0.4387;0.6307;
138.9000;0.4420;0.6380;
139.2000;0.4404;0.6453;
139.5000;0.4461;0.6623;
139.8000;0.4404;0.6501;
140.1000;0.4387;0.6477;
140.4000;0.4420;0.6623;
140.7000;0.4412;0.6599;
141.0000;0.4436;0.6648;
141.3000;0.4428;0.6623;
141.6000;0.4420;0.6623;
141.9000;0.4428;0.6575;
142.2000;0.4420;0.6575;
142.5000;0.4404;0.6501;
142.8000;0.4420;0.6575;
143.1000;0.4428;0.6526;
143.4000;0.4404;0.6550;
143.7000;0.4404;0.6599;
144.0000;0.4404;0.6599;
144.3000;0.4428;0.6623;
144.6000;0.4404;0.6575;
144.9000;0.4396;0.6501;
145.2000;0.4412;0.6550;
145.5000;0.4420;0.6599;
145.8000;0.4412;0.6599;
146.1000;0.4412;0.6575;
146.4000;0.4404;0.6477;
146.7000;0.4412;0.6501;
147.0000;0.4420;0.6526;
147.3000;0.4436;0.6550;
147.6000;0.4420;0.6428;
147.9000;0.4420;0.6575;
148.2000;0.4428;0.6526;
148.5000;0.4412;0.6453;
148.8000;0.4396;0.6404;
149.1000;0.4453;0.6477;
149.4000;0.4412;0.6404;
149.7000;0.4404;0.6331;
150.0000;0.4404;0.6355;
150.3000;0.4396;0.6380;
150.6000;0.4428;0.6380;
150.9000;0.4436;0.6428;
151.2000;0.4412;0.6453;
151.5000;0.4428;0.6428;
151.8000;0.4420;0.6453;
152.1000;0.4412;0.6428;
152.4000;0.4461;0.6575;
152.7000;0.4420;0.6453;
153.0000;0.4412;0.6453;
153.3000;0.4420;0.6477;
153.6000;0.4420;0.6501;
153.9000;0.4404;0.6404;
154.2000;0.4404;0.6355;
154.5000;0.4420;0.6307;
154.8000;0.4412;0.6331;
155.1000;0.4387;0.6355;
155.4000;0.4371;0.6282;
155.7000;0.4404;0.6404;
156.0000;0.4412;0.6404;
156.3000;0.4420;0.6307;
156.6000;0.4420;0.6282;
156.9000;0.4428;0.6355;
157.2000;0.4428;0.6453;
157.5000;0.4404;0.6428;
157.8000;0.4420;0.6428;
158.1000;0.4396;0.6477;
158.4000;0.4420;0.6477;
158.7000;0.4412;0.6380;
159.0000;0.4404;0.6380;
159.3000;0.4428;0.6428;
159.6000;0.4436;0.6428;
159.9000;0.4420;0.6453;
160.2000;0.4412;0.6428;
160.5000;0.4396;0.6428;
160.8000;0.4404;0.6355;
161.1000;0.4469;0.6550;
161.4000;0.4420;0.6404;
161.7000;0.4412;0.6453;
162.0000;0.4428;0.6428;
162.3000;0.4420;0.6428;
162.6000;0.4444;0.6428;
162.9000;0.4428;0.6453;
163.2000;0.4387;0.6380;
163.5000;0.4420;0.6477;
163.8000;0.4436;0.6501;
164.1000;0.4412;0.6428;
164.4000;0.4412;0.6428;
164.7000;0.4436;0.6501;
165.0000;0.4420;0.6501;
165.3000;0.4469;0.6648;
165.6000;0.4404;0.6453;
165.9000;0.4412;0.6501;
166.2000;0.4436;0.6599;
166.5000;0.4420;0.6623;
166.8000;0.4428;0.6672;
167.1000;0.4436;0.6623;
167.4000;0.4428;0.6672;
167.7000;0.4436;0.6623;
168.0000;0.4428;0.6623;
168.3000;0.4420;0.6550;
168.6000;0.4420;0.6648;
168.9000;0.4412;0.6599;
169.2000;0.4420;0.6623;
169.5000;0.4396;0.6526;
169.8000;0.4404;0.6501;
170.1000;0.4420;0.6501;
170.4000;0.4396;0.6355;
170.7000;0.4412;0.6428;
171.0000;0.4347;0.6234;
171.3000;0.4428;0.6428;
171.6000;0.4428;0.6404;
171.9000;0.4420;0.6428;
172.2000;0.4420;0.6501;
172.5000;0.4436;0.6453;
172.8000;0.4428;0.6428;
173.1000;0.4428;0.6453;
173.4000;0.4436;0.6526;
173.7000;0.4436;0.6501;
174.0000;0.4428;0.6404;
174.3000;0.4412;0.6404;
174.6000;0.4379;0.6355;
174.9000;0.4420;0.6428;
175.2000;0.4428;0.6428;
175.5000;0.4412;0.6355;
175.8000;0.4420;0.6404;
176.1000;0.4428;0.6477;
176.4000;0.4404;0.6404;
176.7000;0.4420;0.6477;
177.0000;0.4444;0.6550;
177.3000;0.4404;0.6477;
177.6000;0.4420;0.6575;
177.9000;0.4404;0.6526;
178.2000;0.4404;0.6526;
178.5000;0.4396;0.6550;
178.8000;0.4420;0.6599;
179.1000;0.4396;0.6575;
179.4000;0.4412;0.6453;
179.7000;0.4412;0.6428;
180.0000;0.4428;0.6477;
180.3000;0.4404;0.6453;
180.6000;0.4420;0.6477;
180.9000;0.4396;0.6404;
181.2000;0.4404;0.6428;
181.5000;0.4436;0.6428;
181.8000;0.4420;0.6428;
182.1000;0.4428;0.6355;
182.4000;0.4420;0.6331;
182.7000;0.4420;0.6380;
183.0000;0.4428;0.6380;
183.3000;0.4420;0.6234;
183.6000;0.4428;0.6282;
183.9000;0.4420;0.6331;
184.2000;0.4461;0.6477;
184.5000;0.4461;0.6453;
184.8000;0.4428;0.6355;
185.1000;0.4412;0.6282;
185.4000;0.4412;0.6234;
185.7000;0.4420;0.6161;
186.0000;0.4420;0.6282;
186.3000;0.4404;0.6331;
186.6000;0.4428;0.6453;
186.9000;0.4436;0.6453;
187.2000;0.4428;0.6526;
187.5000;0.4428;0.6526;
187.8000;0.4420;0.6477;
188.1000;0.4428;0.6453;
188.4000;0.4412;0.6355;
188.7000;0.4412;0.6428;
189.0000;0.4420;0.6477;
189.3000;0.4396;0.6453;
189.6000;0.4404;0.6477;
189.9000;0.4420;0.6575;
190.2000;0.4436;0.6550;
190.5000;0.4412;0.6526;
190.8000;0.4428;0.6575;
191.1000;0.4330;0.6380;
191.4000;0.4396;0.6575;
191.7000;0.4428;0.6599;
192.0000;0.4428;0.6550;
192.3000;0.4420;0.6672;
192.6000;0.4412;0.6672;
192.9000;0.4436;0.6648;
193.2000;0.4420;0.6575;
193.5000;0.4469;0.6672;
193.8000;0.4420;0.6526;
194.1000;0.4453;0.6623;
194.4000;0.4355;0.6453;
194.7000;0.4396;0.6672;
195.0000;0.4412;0.6672;
195.3000;0.4412;0.6696;
195.6000;0.4428;0.6648;
195.9000;0.4420;0.6575;
196.2000;0.4412;0.6599;
196.5000;0.4428;0.6550;
196.8000;0.4436;0.6526;
197.1000;0.4420;0.6550;
197.4000;0.4420;0.6550;
197.7000;0.4420;0.6550;
198.0000;0.4469;0.6623;
198.3000;0.4420;0.6526;
198.6000;0.4436;0.6599;
198.9000;0.4428;0.6526;
199.2000;0.4428;0.6501;
199.5000;0.4420;0.6550;
199.8000;0.4420;0.6599;
200.1000;0.4453;0.6672;
200.4000;0.4412;0.6623;
200.7000;0.4436;0.6526;
201.0000;0.4436;0.6526;
201.3000;0.4412;0.6453;
201.6000;0.4322;0.6234;
201.9000;0.4428;0.6477;
202.2000;0.4444;0.6501;
202.5000;0.4387;0.6331;
202.8000;0.4355;0.6234;
203.1000;0.4428;0.6477;
203.4000;0.4412;0.6501;
203.7000;0.4412;0.6477;
204.0000;0.4396;0.6453;
204.3000;0.4444;0.6550;
204.6000;0.4420;0.6501;
204.9000;0.4363;0.6380;
205.2000;0.4404;0.6428;
205.5000;0.4412;0.6453;
205.8000;0.4412;0.6477;
206.1000;0.4387;0.6453;
206.4000;0.4412;0.6477;
206.7000;0.4371;0.6453;
207.0000;0.4412;0.6501;
207.3000;0.4436;0.6575;
207.6000;0.4396;0.6453;
207.9000;0.4436;0.6623;
208.2000;0.4420;0.6550;
208.5000;0.4339;0.6380;
208.8000;0.4428;0.6575;
209.1000;0.4420;0.6648;
209.4000;0.4428;0.6696;
209.7000;0.4436;0.6623;
210.0000;0.4461;0.6599;
210.3000;0.4387;0.6501;
210.6000;0.4420;0.6550;
210.9000;0.4436;0.6501;
211.2000;0.4461;0.6477;
211.5000;0.4420;0.6355;
211.8000;0.4436;0.6428;
212.1000;0.4436;0.6404;
212.4000;0.4412;0.6404;
212.7000;0.4404;0.6380;
213.0000;0.4428;0.6355;
213.3000;0.4404;0.6355;
213.6000;0.4420;0.6404;
213.9000;0.4428;0.6428;
214.2000;0.4404;0.6307;
214.5000;0.4444;0.6380;
214.8000;0.4428;0.6331;
215.1000;0.4420;0.6331;
215.4000;0.4412;0.6501;
215.7000;0.4428;0.6550;
216.0000;0.4428;0.6550;
216.3000;0.4412;0.6501;
216.6000;0.4396;0.6623;
216.9000;0.4420;0.6623;
217.2000;0.4387;0.6526;
217.5000;0.4404;0.6453;
217.8000;0.4396;0.6453;
218.1000;0.4412;0.6404;
218.4000;0.4420;0.6404;
218.7000;0.4420;0.6453;
219.0000;0.4428;0.6526;
219.3000;0.4379;0.6380;
219.6000;0.4412;0.6477;
219.9000;0.4420;0.6501;
220.2000;0.4404;0.6501;
220.5000;0.4412;0.6428;
220.8000;0.4412;0.6355;
221.1000;0.4444;0.6404;
221.4000;0.4412;0.6453;
221.7000;0.4412;0.6380;
222.0000;0.4404;0.6355;
222.3000;0.4436;0.6355;
222.6000;0.4363;0.6258;
222.9000;0.4412;0.6380;
223.2000;0.4420;0.6380;
223.5000;0.4404;0.6355;
223.8000;0.4420;0.6428;
224.1000;0.4412;0.6404;
224.4000;0.4412;0.6428;
224.7000;0.4412;0.6477;
225.0000;0.4396;0.6404;
225.3000;0.4428;0.6501;
225.6000;0.4420;0.6380;
225.9000;0.4404;0.6380;
226.2000;0.4412;0.6404;
226.5000;0.4387;0.6404;
226.8000;0.4420;0.6404;
227.1000;0.4444;0.6453;
227.4000;0.4420;0.6404;
227.7000;0.4412;0.6428;
228.0000;0.4404;0.6550;
228.3000;0.4444;0.6672;
228.6000;0.4428;0.6550;
228.9000;0.4412;0.6550;
229.2000;0.4404;0.6575;
229.5000;0.4371;0.6428;
229.8000;0.4428;0.6550;
230.1000;0.4420;0.6501;
230.4000;0.4444;0.6550;
230.7000;0.4436;0.6623;
231.0000;0.4412;0.6501;
231.3000;0.4412;0.6477;
231.6000;0.4428;0.6477;
231.9000;0.4404;0.6404;
232.2000;0.4428;0.6575;
232.5000;0.4428;0.6477;
232.8000;0.4428;0.6477;
233.1000;0.4436;0.6599;
233.4000;0.4412;0.6477;
233.7000;0.4420;0.6599;
234.0000;0.4436;0.6648;
234.3000;0.4436;0.6550;
234.6000;0.4404;0.6404;
234.9000;0.4428;0.6501;
235.2000;0.4412;0.6526;
235.5000;0.4396;0.6526;
235.8000;0.4444;0.6575;
236.1000;0.4412;0.6404;
236.4000;0.4412;0.6404;
236.7000;0.4404;0.6331;
237.0000;0.4436;0.6477;
237.3000;0.4412;0.6453;
237.6000;0.4404;0.6477;
237.9000;0.4428;0.6501;
238.2000;0.4396;0.6501;
238.5000;0.4412;0.6477;
238.8000;0.4420;0.6477;
239.1000;0.4412;0.6477;
239.4000;0.4412;0.6526;
239.7000;0.4420;0.6575;
240.0000;0.4420;0.6623;
240.3000;0.4404;0.6501;
240.6000;0.4412;0.6501;
240.9000;0.4428;0.6526;
241.2000;0.4379;0.6453;
241.5000;0.4404;0.6477;
241.8000;0.4404;0.6477;
242.1000;0.4420;0.6550;
242.4000;0.4412;0.6526;
242.7000;0.4428;0.6526;
243.0000;0.4444;0.6501;
243.3000;0.4404;0.6404;
243.6000;0.4420;0.6453;
243.9000;0.4412;0.6380;
244.2000;0.4412;0.6428;
244.5000;0.4428;0.6428;
244.8000;0.4412;0.6453;
245.1000;0.4420;0.6526;
245.4000;0.4420;0.6526;
245.7000;0.4404;0.6380;
246.0000;0.4420;0.6428;
246.3000;0.4412;0.6453;
246.6000;0.4412;0.6526;
246.9000;0.4412;0.6550;
247.2000;0.4412;0.6599;
247.5000;0.4428;0.6575;
247.8000;0.4428;0.6550;
248.1000;0.4371;0.6477;
248.4000;0.4387;0.6575;
248.7000;0.4420;0.6623;
249.0000;0.4428;0.6672;
249.3000;0.4404;0.6623;
249.6000;0.4404;0.6526;
249.9000;0.4420;0.6526;
250.2000;0.4412;0.6501;
250.5000;0.4436;0.6575;
250.8000;0.4404;0.6623;
251.1000;0.4412;0.6550;
251.4000;0.4339;0.6501;
251.7000;0.4412;0.6623;
252.0000;0.4412;0.6575;
252.3000;0.4363;0.6428;
252.6000;0.4420;0.6526;
252.9000;0.4396;0.6477;
253.2000;0.4404;0.6428;
253.5000;0.4453;0.6428;
253.8000;0.4428;0.6355;
254.1000;0.4453;0.6477;
254.4000;0.4436;0.6404;
254.7000;0.4436;0.6404;
255.0000;0.4396;0.6307;
255.3000;0.4436;0.6331;
255.6000;0.4420;0.6282;
255.9000;0.4412;0.6307;
256.2000;0.4444;0.6404;
256.5000;0.4436;0.6477;
256.8000;0.4420;0.6501;
257.1000;0.4420;0.6428;
257.4000;0.4404;0.6477;
257.7000;0.4477;0.6696;
258.0000;0.4444;0.6550;
258.3000;0.4428;0.6526;
258.6000;0.4420;0.6575;
258.9000;0.4404;0.6526;
259.2000;0.4428;0.6599;
259.5000;0.4428;0.6623;
259.8000;0.4428;0.6575;
260.1000;0.4436;0.6575;
260.4000;0.4420;0.6575;
260.7000;0.4412;0.6550;
261.0000;0.4428;0.6501;
261.3000;0.4412;0.6477;
261.6000;0.4412;0.6477;
261.9000;0.4420;0.6526;
262.2000;0.4404;0.6526;
262.5000;0.4428;0.6575;
262.8000;0.4428;0.6575;
263.1000;0.4453;0.6599;
263.4000;0.4404;0.6526;
263.7000;0.4412;0.6575;
264.0000;0.4428;0.6599;
264.3000;0.4396;0.6526;
264.6000;0.4428;0.6599;
264.9000;0.4420;0.6599;
265.2000;0.4420;0.6599;
265.5000;0.4436;0.6575;
265.8000;0.4428;0.6550;
266.1000;0.4404;0.6453;
266.4000;0.4444;0.6526;
266.7000;0.4436;0.6453;
267.0000;0.4428;0.6404;
267.3000;0.4469;0.6550;
267.6000;0.4396;0.6331;
267.9000;0.4428;0.6355;
268.2000;0.4428;0.6307;
268.5000;0.4436;0.6380;
268.8000;0.4461;0.6477;
269.1000;0.4436;0.6453;
269.4000;0.4461;0.6477;
269.7000;0.4428;0.6355;
270.0000;0.4420;0.6258;
270.3000;0.4428;0.6234;
270.6000;0.4453;0.6234;
270.9000;0.4428;0.6161;
271.2000;0.4412;0.6161;
271.5000;0.4444;0.6209;
271.8000;0.4420;0.6234;
272.1000;0.4420;0.6258;
272.4000;0.4428;0.6307;
272.7000;0.4477;0.6380;
273.0000;0.4412;0.6234;
273.3000;0.4444;0.6307;
273.6000;0.4420;0.6161;
273.9000;0.4387;0.6088;
274.2000;0.4412;0.6234;
274.5000;0.4412;0.6331;
274.8000;0.4404;0.6307;
275.1000;0.4420;0.6355;
275.4000;0.4436;0.6428;
275.7000;0.4412;0.6453;
276.0000;0.4396;0.6331;
276.3000;0.4436;0.6331;
276.6000;0.4404;0.6331;
276.9000;0.4420;0.6258;
277.2000;0.4461;0.6331;
277.5000;0.4436;0.6185;
277.8000;0.4412;0.6112;
278.1000;0.4485;0.6380;
278.4000;0.4412;0.6258;
278.7000;0.4420;0.6234;
279.0000;0.4420;0.6258;
279.3000;0.4404;0.6209;
279.6000;0.4444;0.6355;
279.9000;0.4436;0.6453;
280.2000;0.4485;0.6623;
280.5000;0.4436;0.6477;
280.8000;0.4436;0.6550;
281.1000;0.4412;0.6428;
281.4000;0.4396;0.6428;
281.7000;0.4412;0.6501;
282.0000;0.4412;0.6501;
282.3000;0.4420;0.6526;
282.6000;0.4420;0.6380;
282.9000;0.4412;0.6404;
283.2000;0.4404;0.6380;
283.5000;0.4444;0.6453;
283.8000;0.4436;0.6404;
284.1000;0.4412;0.6428;
284.4000;0.4371;0.6234;
284.7000;0.4444;0.6282;
285.0000;0.4371;0.6136;
285.3000;0.4420;0.6307;
285.6000;0.4428;0.6355;
285.9000;0.4396;0.6331;
286.2000;0.4420;0.6380;
286.5000;0.4387;0.6234;
286.8000;0.4412;0.6355;
287.1000;0.4404;0.6282;
287.4000;0.4453;0.6404;
287.7000;0.4404;0.6380;
288.0000;0.4420;0.6355;
288.3000;0.4420;0.6428;
288.6000;0.4379;0.6282;
288.9000;0.4404;0.6404;
289.2000;0.4420;0.6404;
289.5000;0.4444;0.6428;
289.8000;0.4420;0.6331;
290.1000;0.4379;0.6282;
290.4000;0.4428;0.6477;
290.7000;0.4404;0.6355;
291.0000;0.4436;0.6404;
291.3000;0.4428;0.6428;
291.6000;0.4396;0.6331;
291.9000;0.4404;0.6355;
292.2000;0.4412;0.6501;
292.5000;0.4412;0.6453;
292.8000;0.4347;0.6355;
293.1000;0.4387;0.6380;
293.4000;0.4396;0.6428;
293.7000;0.4428;0.6428;
294.0000;0.4444;0.6404;
294.3000;0.4404;0.6380;
294.6000;0.4412;0.6477;
294.9000;0.4428;0.6526;
295.2000;0.4444;0.6550;
295.5000;0.4428;0.6672;
295.8000;0.4428;0.6575;
296.1000;0.4444;0.6648;
296.4000;0.4453;0.6648;
296.7000;0.4420;0.6599;
297.0000;0.4485;0.6842;
297.3000;0.4428;0.6745;
297.6000;0.4428;0.6769;
297.9000;0.4436;0.6769;
298.2000;0.4420;0.6721;
298.5000;0.4436;0.6769;
298.8000;0.4428;0.6648;
299.1000;0.4436;0.6501;
299.4000;0.4461;0.6672;
299.7000;0.4444;0.6550;
300.0000;0.4412;0.6501;
300.3000;0.4444;0.6550;
300.6000;0.4412;0.6453;
300.9000;0.4404;0.6355;
301.2000;0.4412;0.6380;
301.5000;0.4412;0.6404;
301.8000;0.4420;0.6404;
302.1000;0.4404;0.6453;
302.4000;0.4420;0.6428;
302.7000;0.4428;0.6331;
303.0000;0.4412;0.6282;
303.3000;0.4428;0.6331;
303.6000;0.4436;0.6355;
303.9000;0.4436;0.6355;
304.2000;0.4379;0.6234;
304.5000;0.4420;0.6355;
304.8000;0.4436;0.6380;
305.1000;0.4444;0.6355;
305.4000;0.4436;0.6355;
305.7000;0.4412;0.6355;
306.0000;0.4428;0.6404;
306.3000;0.4428;0.6428;
306.6000;0.4428;0.6380;
306.9000;0.4510;0.6623;
307.2000;0.4412;0.6355;
307.5000;0.4404;0.6331;
307.8000;0.4428;0.6380;
308.1000;0.4428;0.6355;
308.4000;0.4396;0.6258;
308.7000;0.4436;0.6404;
309.0000;0.4420;0.6355;
309.3000;0.4469;0.6477;
309.6000;0.4436;0.6428;
309.9000;0.4436;0.6380;
310.2000;0.4412;0.6307;
310.5000;0.4412;0.6234;
310.8000;0.4428;0.6307;
311.1000;0.4412;0.6355;
311.4000;0.4420;0.6331;
311.7000;0.4404;0.6307;
312.0000;0.4412;0.6258;
312.3000;0.4404;0.6307;
312.6000;0.4396;0.6307;
312.9000;0.4510;0.6599;
313.2000;0.4412;0.6428;
313.5000;0.4420;0.6404;
313.8000;0.4420;0.6404;
314.1000;0.4412;0.6307;
314.4000;0.4412;0.6307;
314.7000;0.4420;0.6282;
315.0000;0.4436;0.6307;
315.3000;0.4436;0.6355;
315.6000;0.4420;0.6404;
315.9000;0.4420;0.6477;
316.2000;0.4412;0.6501;
316.5000;0.4412;0.6404;
316.8000;0.4412;0.6331;
317.1000;0.4371;0.6185;
317.4000;0.4420;0.6331;
317.7000;0.4396;0.6282;
318.0000;0.4420;0.6404;
318.3000;0.4412;0.6550;
318.6000;0.4510;0.6696;
318.9000;0.4428;0.6550;
319.2000;0.4444;0.6501;
319.5000;0.4428;0.6477;
319.8000;0.4453;0.6501;
320.1000;0.4428;0.6453;
320.4000;0.4412;0.6380;
320.7000;0.4420;0.6355;
321.0000;0.4387;0.6234;
321.3000;0.4436;0.6355;
321.6000;0.4428;0.6380;
321.9000;0.4436;0.6404;
322.2000;0.4453;0.6453;
322.5000;0.4412;0.6404;
322.8000;0.4428;0.6453;
323.1000;0.4404;0.6428;
323.4000;0.4510;0.6623;
323.7000;0.4379;0.6355;
324.0000;0.4420;0.6477;
324.3000;0.4412;0.6501;
324.6000;0.4404;0.6404;
324.9000;0.4412;0.6453;
325.2000;0.4444;0.6526;
325.5000;0.4371;0.6307;
325.8000;0.4420;0.6404;
326.1000;0.4428;0.6307;
326.4000;0.4436;0.6307;
326.7000;0.4420;0.6282;
327.0000;0.4412;0.6258;
327.3000;0.4428;0.6234;
327.6000;0.4428;0.6258;
327.9000;0.4420;0.6185;
328.2000;0.4404;0.6161;
328.5000;0.4420;0.6209;
328.8000;0.4404;0.6209;
329.1000;0.4412;0.6136;
329.4000;0.4444;0.6258;
329.7000;0.4404;0.6258;
330.0000;0.4387;0.6185;
330.3000;0.4436;0.6331;
330.6000;0.4404;0.6331;
330.9000;0.4412;0.6258;
331.2000;0.4412;0.6258;
331.5000;0.4428;0.6307;
331.8000;0.4412;0.6282;
332.1000;0.4436;0.6428;
332.4000;0.4396;0.6307;
332.7000;0.4420;0.6380;
333.0000;0.4396;0.6331;
333.3000;0.4420;0.6307;
333.6000;0.4404;0.6209;
333.9000;0.4412;0.6258;
334.2000;0.4420;0.6307;
334.5000;0.4371;0.6209;
334.8000;0.4412;0.6404;
335.1000;0.4420;0.6355;
335.4000;0.4412;0.6380;
335.7000;0.4412;0.6331;
336.0000;0.4428;0.6380;
336.3000;0.4428;0.6404;
336.6000;0.4428;0.6404;
336.9000;0.4428;0.6404;
337.2000;0.4436;0.6428;
337.5000;0.4420;0.6404;
337.8000;0.4428;0.6428;
338.1000;0.4420;0.6380;
338.4000;0.4404;0.6428;
338.7000;0.4420;0.6428;
339.0000;0.4412;0.6453;
339.3000;0.4428;0.6526;
339.6000;0.4428;0.6550;
339.9000;0.4428;0.6404;
340.2000;0.4404;0.6380;
340.5000;0.4477;0.6623;
340.8000;0.4412;0.6404;
341.1000;0.4412;0.6380;
341.4000;0.4371;0.6331;
341.7000;0.4404;0.6428;
342.0000;0.4420;0.6404;
342.3000;0.4428;0.6404;
342.6000;0.4371;0.6282;
342.9000;0.4404;0.6428;
343.2000;0.4396;0.6404;
343.5000;0.4412;0.6404;
343.8000;0.4493;0.6526;
344.1000;0.4420;0.6380;
344.4000;0.4420;0.6428;
344.7000;0.4412;0.6404;
345.0000;0.4428;0.6331;
345.3000;0.4420;0.6234;
345.6000;0.4444;0.6234;
345.9000;0.4444;0.6234;
346.2000;0.4420;0.6209;
346.5000;0.4436;0.6307;
346.8000;0.4428;0.6355;
347.1000;0.4436;0.6404;
347.4000;0.4420;0.6380;
347.7000;0.4396;0.6380;
348.0000;0.4412;0.6404;
348.3000;0.4420;0.6380;
348.6000;0.4436;0.6355;
348.9000;0.4412;0.6258;
349.2000;0.4420;0.6307;
349.5000;0.4404;0.6404;
349.8000;0.4420;0.6501;
350.1000;0.4444;0.6623;
350.4000;0.4428;0.6550;
350.7000;0.4428;0.6550;
351.0000;0.4420;0.6550;
351.3000;0.4412;0.6501;
351.6000;0.4420;0.6599;
351.9000;0.4412;0.6550;
352.2000;0.4436;0.6575;
352.5000;0.4436;0.6501;
352.8000;0.4428;0.6501;
353.1000;0.4355;0.6355;
353.4000;0.4420;0.6501;
353.7000;0.4420;0.6453;
354.0000;0.4420;0.6404;
354.3000;0.4428;0.6380;
354.6000;0.4412;0.6380;
354.9000;0.4428;0.6477;
355.2000;0.4461;0.6550;
355.5000;0.4420;0.6477;
355.8000;0.4420;0.6477;
356.1000;0.4412;0.6453;
356.4000;0.4412;0.6501;
356.7000;0.4420;0.6501;
357.0000;0.4396;0.6453;
357.3000;0.4363;0.6258;
357.6000;0.4412;0.6501;
357.9000;0.4420;0.6428;
358.2000;0.4420;0.6331;
358.5000;0.4404;0.6355;
358.8000;0.4436;0.6404;
359.1000;0.4420;0.6380;
359.4000;0.4493;0.6575;
359.7000;0.4412;0.6355;
360.0000;0.4404;0.6331;
360.3000;0.4371;0.6331;
360.6000;0.4396;0.6428;
360.9000;0.4420;0.6575;
361.2000;0.4387;0.6477;
361.5000;0.4453;0.6575;
361.8000;0.4387;0.6428;
362.1000;0.4461;0.6526;
362.4000;0.4428;0.6477;
362.7000;0.4428;0.6477;
363.0000;0.4396;0.6404;
363.3000;0.4412;0.6404;
363.6000;0.4428;0.6477;
363.9000;0.4420;0.6453;
364.2000;0.4420;0.6575;
364.5000;0.4396;0.6501;
364.8000;0.4436;0.6477;
365.1000;0.4444;0.6526;
365.4000;0.4355;0.6404;
365.7000;0.4404;0.6453;
366.0000;0.4396;0.6501;
366.3000;0.4404;0.6526;
366.6000;0.4404;0.6623;
366.9000;0.4404;0.6575;
367.2000;0.4404;0.6599;
367.5000;0.4436;0.6696;
367.8000;0.4412;0.6599;
368.1000;0.4412;0.6550;
368.4000;0.4420;0.6575;
368.7000;0.4420;0.6526;
369.0000;0.4412;0.6501;
369.3000;0.4436;0.6428;
369.6000;0.4412;0.6428;
369.9000;0.4412;0.6428;
370.2000;0.4387;0.6258;
370.5000;0.4404;0.6453;
370.8000;0.4412;0.6355;
371.1000;0.4436;0.6453;
371.4000;0.4436;0.6404;
371.7000;0.4412;0.6331;
372.0000;0.4330;0.6209;
372.3000;0.4444;0.6501;
372.6000;0.4420;0.6477;
372.9000;0.4420;0.6526;
373.2000;0.4387;0.6355;
373.5000;0.4420;0.6453;
373.8000;0.4404;0.6380;
374.1000;0.4461;0.6550;
374.4000;0.4412;0.6380;
374.7000;0.4404;0.6331;
375.0000;0.4404;0.6331;
375.3000;0.4404;0.6404;
375.6000;0.4404;0.6428;
375.9000;0.4428;0.6453;
376.2000;0.4428;0.6501;
376.5000;0.4404;0.6477;
376.8000;0.4420;0.6404;
377.1000;0.4404;0.6428;
377.4000;0.4396;0.6331;
377.7000;0.4420;0.6355;
378.0000;0.4428;0.6258;
378.3000;0.4420;0.6307;
378.6000;0.4420;0.6258;
378.9000;0.4412;0.6209;
379.2000;0.4404;0.6234;
379.5000;0.4428;0.6234;
379.8000;0.4420;0.6185;
380.1000;0.4412;0.6112;
380.4000;0.4371;0.5990;
380.7000;0.4420;0.6112;
381.0000;0.4404;0.6112;
381.3000;0.4387;0.6088;
381.6000;0.4453;0.6234;
381.9000;0.4461;0.6282;
382.2000;0.4412;0.6282;
382.5000;0.4428;0.6355;
382.8000;0.4436;0.6428;
383.1000;0.4436;0.6428;
383.4000;0.4420;0.6526;
383.7000;0.4404;0.6477;
384.0000;0.4428;0.6526;
384.3000;0.4379;0.6477;
384.6000;0.4420;0.6501;
384.9000;0.4379;0.6404;
385.2000;0.4396;0.6428;
385.5000;0.4420;0.6501;
385.8000;0.4420;0.6477;
386.1000;0.4412;0.6501;
386.4000;0.4436;0.6575;
386.7000;0.4444;0.6550;
387.0000;0.4428;0.6404;
387.3000;0.4428;0.6380;
387.6000;0.4420;0.6428;
387.9000;0.4469;0.6575;
388.2000;0.4428;0.6550;
388.5000;0.4396;0.6501;
388.8000;0.4371;0.6453;
389.1000;0.4404;0.6599;
389.4000;0.4420;0.6599;
389.7000;0.4404;0.6599;
390.0000;0.4404;0.6599;
390.3000;0.4436;0.6672;
390.6000;0.4485;0.6745;
390.9000;0.4412;0.6550;
391.2000;0.4420;0.6648;
391.5000;0.4444;0.6648;
391.8000;0.4420;0.6575;
392.1000;0.4428;0.6550;
392.4000;0.4428;0.6477;
392.7000;0.4428;0.6477;
393.0000;0.4469;0.6550;
393.3000;0.4412;0.6355;
393.6000;0.4412;0.6380;
393.9000;0.4444;0.6501;
394.2000;0.4420;0.6428;
394.5000;0.4396;0.6380;
394.8000;0.4404;0.6355;
395.1000;0.4387;0.6331;
395.4000;0.4404;0.6380;
395.7000;0.4412;0.6404;
396.0000;0.4412;0.6404;
396.3000;0.4379;0.6355;
396.6000;0.4404;0.6501;
396.9000;0.4404;0.6501;
397.2000;0.4444;0.6550;
397.5000;0.4428;0.6453;
397.8000;0.4387;0.6404;
398.1000;0.4420;0.6501;
398.4000;0.4412;0.6575;
398.7000;0.4396;0.6501;
399.0000;0.4404;0.6428;
399.3000;0.4404;0.6355;
399.6000;0.4396;0.6258;
399.9000;0.4404;0.6380;
400.2000;0.4412;0.6501;
400.5000;0.4404;0.6501;
400.8000;0.4420;0.6599;
401.1000;0.4453;0.6599;
401.4000;0.4412;0.6550;
401.7000;0.4420;0.6477;
402.0000;0.4404;0.6404;
402.3000;0.4387;0.6355;
402.6000;0.4387;0.6258;
402.9000;0.4396;0.6380;
403.2000;0.4363;0.6307;
403.5000;0.4420;0.6453;
403.8000;0.4379;0.6355;
404.1000;0.4404;0.6404;
404.4000;0.4420;0.6404;
404.7000;0.4420;0.6501;
405.0000;0.4412;0.6477;
405.3000;0.4396;0.6453;
405.6000;0.4412;0.6550;
405.9000;0.4404;0.6526;
406.2000;0.4404;0.6550;
406.5000;0.4404;0.6501;
406.8000;0.4428;0.6477;
407.1000;0.4412;0.6453;
407.4000;0.4396;0.6501;
407.7000;0.4420;0.6575;
408.0000;0.4428;0.6575;
408.3000;0.4404;0.6501;
408.6000;0.4396;0.6477;
408.9000;0.4412;0.6453;
409.2000;0.4412;0.6380;
409.5000;0.4404;0.6355;
409.8000;0.4404;0.6380;
410.1000;0.4510;0.6623;
410.4000;0.4412;0.6380;
410.7000;0.4379;0.6307;
411.0000;0.4420;0.6404;
411.3000;0.4420;0.6380;
411.6000;0.4404;0.6428;
411.9000;0.4420;0.6404;
412.2000;0.4453;0.6404;
412.5000;0.4420;0.6209;
412.8000;0.4404;0.6136;
413.1000;0.4330;0.6014;
413.4000;0.4412;0.6234;
413.7000;0.4420;0.6307;
414.0000;0.4339;0.6209;
414.3000;0.4412;0.6404;
414.6000;0.4404;0.6404;
414.9000;0.4436;0.6453;
415.2000;0.4404;0.6355;
415.5000;0.4404;0.6380;
415.8000;0.4404;0.6404;
416.1000;0.4412;0.6428;
416.4000;0.4420;0.6355;
416.7000;0.4412;0.6501;
417.0000;0.4436;0.6599;
417.3000;0.4428;0.6526;
417.6000;0.4412;0.6428;
417.9000;0.4412;0.6404;
418.2000;0.4412;0.6331;
418.5000;0.4493;0.6599;
418.8000;0.4412;0.6428;
419.1000;0.4404;0.6453;
419.4000;0.4387;0.6404;
419.7000;0.4436;0.6623;
420.0000;0.4412;0.6550;
420.3000;0.4404;0.6477;
420.6000;0.4444;0.6599;
420.9000;0.4412;0.6453;
421.2000;0.4404;0.6477;
421.5000;0.4404;0.6453;
421.8000;0.4404;0.6331;
422.1000;0.4420;0.6404;
422.4000;0.4428;0.6428;
422.7000;0.4428;0.6477;
423.0000;0.4396;0.6453;
423.3000;0.4387;0.6453;
423.6000;0.4379;0.6428;
423.9000;0.4420;0.6404;
424.2000;0.4371;0.6258;
424.5000;0.4404;0.6307;
424.8000;0.4404;0.6404;
425.1000;0.4412;0.6526;
425.4000;0.4404;0.6501;
425.7000;0.4428;0.6526;
426.0000;0.4412;0.6575;
426.3000;0.4444;0.6599;
426.6000;0.4420;0.6550;
426.9000;0.4420;0.6501;
427.2000;0.4469;0.6623;
427.5000;0.4436;0.6623;
427.8000;0.4420;0.6526;
428.1000;0.4428;0.6599;
428.4000;0.4436;0.6696;
428.7000;0.4420;0.6623;
429.0000;0.4404;0.6623;
429.3000;0.4371;0.6501;
429.6000;0.4396;0.6575;
429.9000;0.4404;0.6575;
430.2000;0.4420;0.6672;
430.5000;0.4428;0.6672;
430.8000;0.4387;0.6575;
431.1000;0.4387;0.6550;
431.4000;0.4412;0.6550;
431.7000;0.4396;0.6550;
432.0000;0.4396;0.6453;
432.3000;0.4363;0.6355;
432.6000;0.4469;0.6623;
432.9000;0.4420;0.6355;
433.2000;0.4420;0.6307;
433.5000;0.4379;0.6258;
433.8000;0.4404;0.6355;
434.1000;0.4436;0.6380;
434.4000;0.4396;0.6234;
434.7000;0.4396;0.6355;
435.0000;0.4412;0.6428;
435.3000;0.4412;0.6331;
435.6000;0.4412;0.6307;
435.9000;0.4387;0.6258;
436.2000;0.4453;0.6453;
436.5000;0.4461;0.6550;
436.8000;0.4387;0.6404;
437.1000;0.4420;0.6428;
437.4000;0.4420;0.6526;
437.7000;0.4436;0.6501;
438.0000;0.4371;0.6331;
438.3000;0.4428;0.6477;
438.6000;0.4420;0.6453;
438.9000;0.4428;0.6404;
439.2000;0.4444;0.6428;
439.5000;0.4347;0.6185;
439.8000;0.4420;0.6355;
440.1000;0.4404;0.6404;
440.4000;0.4412;0.6428;
440.7000;0.4428;0.6428;
441.0000;0.4396;0.6331;
441.3000;0.4396;0.6331;
441.6000;0.4436;0.6355;
441.9000;0.4404;0.6307;
442.2000;0.4420;0.6355;
442.5000;0.4453;0.6453;
442.8000;0.4412;0.6404;
443.1000;0.4420;0.6428;
443.4000;0.4412;0.6453;
443.7000;0.4404;0.6453;
444.0000;0.4469;0.6575;
444.3000;0.4355;0.6258;
444.6000;0.4379;0.6282;
444.9000;0.4387;0.6307;
445.2000;0.4387;0.6258;
445.5000;0.4404;0.6234;
445.8000;0.4396;0.6282;
446.1000;0.4396;0.6307;
446.4000;0.4404;0.6307;
446.7000;0.4412;0.6282;
447.0000;0.4379;0.6307;
447.3000;0.4444;0.6404;
447.6000;0.4396;0.6307;
447.9000;0.4428;0.6404;
448.2000;0.4444;0.6477;
448.5000;0.4412;0.6404;
448.8000;0.4420;0.6501;
449.1000;0.4387;0.6404;
449.4000;0.4412;0.6477;
449.7000;0.4396;0.6453;
450.0000;0.4412;0.6404;
450.3000;0.4436;0.6526;
450.6000;0.4412;0.6428;
450.9000;0.4453;0.6575;
451.2000;0.4404;0.6477;
451.5000;0.4404;0.6453;
451.8000;0.4428;0.6355;
452.1000;0.4404;0.6331;
452.4000;0.4404;0.6380;
452.7000;0.4420;0.6428;
453.0000;0.4412;0.6404;
453.3000;0.4420;0.6380;
453.6000;0.4420;0.6307;
453.9000;0.4420;0.6380;
454.2000;0.4428;0.6428;
454.5000;0.4420;0.6380;
454.8000;0.4420;0.6355;
455.1000;0.4404;0.6355;
455.4000;0.4404;0.6355;
455.7000;0.4412;0.6331;
456.0000;0.4412;0.6331;
456.3000;0.4404;0.6307;
456.6000;0.4412;0.6453;
456.9000;0.4420;0.6428;
457.2000;0.4412;0.6404;
457.5000;0.4453;0.6501;
457.8000;0.4469;0.6501;
458.1000;0.4420;0.6331;
458.4000;0.4453;0.6404;
458.7000;0.4387;0.6185;
459.0000;0.4436;0.6331;
459.3000;0.4428;0.6380;
459.6000;0.4436;0.6331;
459.9000;0.4412;0.6282;
460.2000;0.4412;0.6404;
460.5000;0.4485;0.6769;
460.8000;0.4420;0.6623;
461.1000;0.4420;0.6599;
461.4000;0.4420;0.6623;
461.7000;0.4412;0.6526;
462.0000;0.4412;0.6550;
462.3000;0.4420;0.6575;
462.6000;0.4404;0.6501;
462.9000;0.4412;0.6648;
463.2000;0.4412;0.6672;
463.5000;0.4371;0.6550;
463.8000;0.4412;0.6696;
464.1000;0.4469;0.6794;
464.4000;0.4461;0.6721;
464.7000;0.4420;0.6599;
465.0000;0.4404;0.6526;
465.3000;0.4404;0.6526;
465.6000;0.4444;0.6575;
465.9000;0.4412;0.6550;
466.2000;0.4412;0.6477;
466.5000;0.4404;0.6477;
466.8000;0.4420;0.6599;
467.1000;0.4404;0.6575;
467.4000;0.4404;0.6550;
467.7000;0.4404;0.6526;
468.0000;0.4420;0.6623;
468.3000;0.4412;0.6599;
468.6000;0.4404;0.6550;
468.9000;0.4412;0.6501;
469.2000;0.4404;0.6477;
469.5000;0.4420;0.6526;
469.8000;0.4420;0.6501;
470.1000;0.4420;0.6477;
470.4000;0.4420;0.6453;
470.7000;0.4428;0.6477;
471.0000;0.4420;0.6501;
471.3000;0.4396;0.6404;
471.6000;0.4396;0.6355;
471.9000;0.4355;0.6258;
472.2000;0.4493;0.6721;
472.5000;0.4404;0.6428;
472.8000;0.4404;0.6501;
473.1000;0.4396;0.6501;
473.4000;0.4404;0.6501;
473.7000;0.4404;0.6501;
474.0000;0.4469;0.6623;
474.3000;0.4461;0.6648;
474.6000;0.4420;0.6526;
474.9000;0.4396;0.6428;
475.2000;0.4396;0.6404;
475.5000;0.4396;0.6428;
475.8000;0.4412;0.6428;
476.1000;0.4404;0.6428;
476.4000;0.4404;0.6355;
476.7000;0.4404;0.6307;
477.0000;0.4420;0.6282;
477.3000;0.4412;0.6258;
477.6000;0.4387;0.6209;
477.9000;0.4412;0.6258;
478.2000;0.4412;0.6355;
478.5000;0.4396;0.6453;
478.8000;0.4436;0.6501;
479.1000;0.4412;0.6380;
479.4000;0.4412;0.6331;
479.7000;0.4412;0.6355;
480.0000;0.4420;0.6428;
480.3000;0.4404;0.6404;
480.6000;0.4404;0.6477;
480.9000;0.4420;0.6453;
481.2000;0.4404;0.6380;
481.5000;0.4420;0.6526;
481.8000;0.4420;0.6477;
482.1000;0.4420;0.6501;
482.4000;0.4412;0.6550;
482.7000;0.4412;0.6501;
483.0000;0.4412;0.6501;
483.3000;0.4428;0.6575;
483.6000;0.4404;0.6575;
483.9000;0.4404;0.6575;
484.2000;0.4404;0.6550;
484.5000;0.4420;0.6428;
484.8000;0.4420;0.6453;
485.1000;0.4412;0.6477;
485.4000;0.4396;0.6404;
485.7000;0.4412;0.6453;
486.0000;0.4396;0.6355;
486.3000;0.4428;0.6428;
486.6000;0.4404;0.6355;
486.9000;0.4404;0.6282;
487.2000;0.4412;0.6282;
487.5000;0.4485;0.6550;
487.8000;0.4420;0.6331;
488.1000;0.4404;0.6209;
488.4000;0.4404;0.6282;
488.7000;0.4428;0.6282;
489.0000;0.4396;0.6282;
489.3000;0.4404;0.6209;
489.6000;0.4412;0.6161;
489.9000;0.4412;0.6234;
490.2000;0.4412;0.6209;
490.5000;0.4396;0.6258;
490.8000;0.4404;0.6282;
491.1000;0.4420;0.6282;
491.4000;0.4428;0.6282;
491.7000;0.4396;0.6258;
492.0000;0.4396;0.6355;
492.3000;0.4412;0.6380;
492.6000;0.4404;0.6282;
492.9000;0.4412;0.6355;
493.2000;0.4412;0.6380;
493.5000;0.4428;0.6404;
493.8000;0.4412;0.6380;
494.1000;0.4420;0.6428;
494.4000;0.4420;0.6477;
494.7000;0.4412;0.6575;
495.0000;0.4428;0.6550;
495.3000;0.4404;0.6550;
495.6000;0.4404;0.6453;
495.9000;0.4420;0.6501;
496.2000;0.4396;0.6477;
496.5000;0.4485;0.6623;
496.8000;0.4404;0.6477;
497.1000;0.4412;0.6477;
497.4000;0.4404;0.6526;
497.7000;0.4404;0.6575;
498.0000;0.4396;0.6526;
498.3000;0.4371;0.6453;
498.6000;0.4412;0.6501;
498.9000;0.4404;0.6404;
499.2000;0.4371;0.6380;
499.5000;0.4469;0.6648;
499.8000;0.4404;0.6501;
500.1000;0.4412;0.6550;
500.4000;0.4412;0.6599;
500.7000;0.4404;0.6648;
501.0000;0.4461;0.6794;
501.3000;0.4396;0.6648;
501.6000;0.4355;0.6428;
501.9000;0.4461;0.6648;
502.2000;0.4379;0.6428;
502.5000;0.4412;0.6428;
502.8000;0.4412;0.6428;
503.1000;0.4412;0.6282;
503.4000;0.4428;0.6209;
503.7000;0.4420;0.6282;
504.0000;0.4404;0.6234;
504.3000;0.4461;0.6258;
504.6000;0.4412;0.6161;
504.9000;0.4412;0.6185;
505.2000;0.4428;0.6307;
505.5000;0.4404;0.6282;
505.8000;0.4444;0.6404;
506.1000;0.4396;0.6355;
506.4000;0.4420;0.6380;
506.7000;0.4355;0.6282;
507.0000;0.4379;0.6282;
507.3000;0.4412;0.6331;
507.6000;0.4404;0.6355;
507.9000;0.4420;0.6307;
508.2000;0.4412;0.6331;
508.5000;0.4396;0.6258;
508.8000;0.4436;0.6355;
509.1000;0.4420;0.6234;
509.4000;0.4404;0.6258;
509.7000;0.4404;0.6282;
510.0000;0.4420;0.6331;
510.3000;0.4436;0.6404;
510.6000;0.4412;0.6331;
510.9000;0.4404;0.6331;
511.2000;0.4412;0.6355;
511.5000;0.4404;0.6307;
511.8000;0.4412;0.6307;
512.1000;0.4420;0.6331;
512.4000;0.4420;0.6234;
512.7000;0.4436;0.6282;
513.0000;0.4420;0.6282;
513.3000;0.4355;0.6258;
513.6000;0.4404;0.6404;
513.9000;0.4420;0.6501;
514.2000;0.4453;0.6526;
514.5000;0.4412;0.6453;
514.8000;0.4404;0.6453;
515.1000;0.4404;0.6501;
515.4000;0.4420;0.6648;
515.7000;0.4412;0.6623;
516.0000;0.4396;0.6550;
516.3000;0.4404;0.6501;
516.6000;0.4404;0.6501;
516.9000;0.4412;0.6355;
517.2000;0.4428;0.6404;
517.5000;0.4420;0.6380;
517.8000;0.4412;0.6404;
518.1000;0.4420;0.6428;
518.4000;0.4404;0.6404;
518.7000;0.4412;0.6331;
519.0000;0.4428;0.6380;
519.3000;0.4404;0.6428;
519.6000;0.4428;0.6380;
519.9000;0.4404;0.6282;
520.2000;0.4412;0.6307;
520.5000;0.4420;0.6380;
520.8000;0.4396;0.6355;
521.1000;0.4404;0.6282;
521.4000;0.4396;0.6258;
521.7000;0.4404;0.6209;
522.0000;0.4404;0.6307;
522.3000;0.4404;0.6428;
522.6000;0.4396;0.6428;
522.9000;0.4396;0.6380;
523.2000;0.4396;0.6380;
523.5000;0.4404;0.6355;
523.8000;0.4420;0.6453;
524.1000;0.4420;0.6453;
524.4000;0.4404;0.6477;
524.7000;0.4412;0.6526;
525.0000;0.4436;0.6550;
525.3000;0.4428;0.6550;
525.6000;0.4412;0.6550;
525.9000;0.4412;0.6550;
526.2000;0.4396;0.6501;
526.5000;0.4412;0.6501;
526.8000;0.4404;0.6575;
527.1000;0.4412;0.6599;
527.4000;0.4396;0.6550;
527.7000;0.4412;0.6501;
528.0000;0.4404;0.6501;
528.3000;0.4396;0.6550;
528.6000;0.4404;0.6526;
528.9000;0.4428;0.6575;
529.2000;0.4412;0.6599;
529.5000;0.4420;0.6599;
529.8000;0.4420;0.6599;
530.1000;0.4493;0.6721;
530.4000;0.4420;0.6453;
530.7000;0.4428;0.6477;
531.0000;0.4428;0.6428;
531.3000;0.4387;0.6282;
531.6000;0.4379;0.6282;
531.9000;0.4420;0.6355;
532.2000;0.4420;0.6380;
532.5000;0.4404;0.6428;
532.8000;0.4420;0.6380;
533.1000;0.4412;0.6404;
533.4000;0.4412;0.6355;
533.7000;0.4404;0.6355;
534.0000;0.4420;0.6258;
534.3000;0.4379;0.6063;
534.6000;0.4412;0.6209;
534.9000;0.4412;0.6258;
535.2000;0.4420;0.6282;
535.5000;0.4420;0.6282;
535.8000;0.4420;0.6234;
536.1000;0.4412;0.6258;
536.4000;0.4404;0.6307;
536.7000;0.4420;0.6331;
537.0000;0.4396;0.6380;
537.3000;0.4330;0.6136;
537.6000;0.4412;0.6380;
537.9000;0.4420;0.6258;
538.2000;0.4485;0.6331;
538.5000;0.4412;0.6185;
538.8000;0.4412;0.6209;
539.1000;0.4379;0.6161;
539.4000;0.4453;0.6380;
539.7000;0.4412;0.6355;
540.0000;0.4420;0.6331;
540.3000;0.4396;0.6307;
540.6000;0.4428;0.6404;
540.9000;0.4461;0.6550;
541.2000;0.4396;0.6428;
541.5000;0.4404;0.6428;
541.8000;0.4428;0.6501;
542.1000;0.4420;0.6477;
542.4000;0.4412;0.6477;
542.7000;0.4412;0.6404;
543.0000;0.4404;0.6404;
543.3000;0.4396;0.6355;
543.6000;0.4412;0.6258;
543.9000;0.4396;0.6185;
544.2000;0.4420;0.6112;
544.5000;0.4387;0.6063;
544.8000;0.4428;0.6161;
545.1000;0.4371;0.6063;
545.4000;0.4371;0.6063;
545.7000;0.4330;0.6014;
546.0000;0.4428;0.6161;
546.3000;0.4477;0.6331;
546.6000;0.4412;0.6063;
546.9000;0.4387;0.6112;
547.2000;0.4404;0.6258;
547.5000;0.4453;0.6355;
547.8000;0.4404;0.6234;
548.1000;0.4396;0.6355;
548.4000;0.4412;0.6331;
548.7000;0.4420;0.6307;
549.0000;0.4436;0.6355;
549.3000;0.4404;0.6234;
549.6000;0.4396;0.6209;
549.9000;0.4420;0.6307;
550.2000;0.4412;0.6355;
550.5000;0.4412;0.6453;
550.8000;0.4420;0.6453;
551.1000;0.4453;0.6453;
551.4000;0.4420;0.6355;
551.7000;0.4412;0.6355;
552.0000;0.4428;0.6477;
552.3000;0.4404;0.6404;
552.6000;0.4396;0.6404;
552.9000;0.4404;0.6453;
553.2000;0.4371;0.6380;
553.5000;0.4387;0.6380;
553.8000;0.4371;0.6258;
554.1000;0.4371;0.6307;
554.4000;0.4404;0.6404;
554.7000;0.4493;0.6745;
555.0000;0.4404;0.6404;
555.3000;0.4420;0.6501;
555.6000;0.4428;0.6428;
555.9000;0.4420;0.6428;
556.2000;0.4420;0.6404;
556.5000;0.4404;0.6355;
556.8000;0.4404;0.6258;
557.1000;0.4412;0.6234;
557.4000;0.4428;0.6209;
557.7000;0.4412;0.6136;
558.0000;0.4412;0.6136;
558.3000;0.4404;0.6185;
558.6000;0.4412;0.6331;
558.9000;0.4371;0.6161;
559.2000;0.4404;0.6185;
559.5000;0.4412;0.6258;
559.8000;0.4428;0.6380;
560.1000;0.4420;0.6258;
560.4000;0.4396;0.6185;
560.7000;0.4412;0.6258;
561.0000;0.4461;0.6380;
561.3000;0.4412;0.6355;
561.6000;0.4404;0.6234;
561.9000;0.4412;0.6234;
562.2000;0.4404;0.6258;
562.5000;0.4412;0.6234;
562.8000;0.4404;0.6209;
563.1000;0.4379;0.6136;
563.4000;0.4396;0.6282;
563.7000;0.4404;0.6282;
564.0000;0.4404;0.6185;
564.3000;0.4412;0.6258;
564.6000;0.4404;0.6307;
564.9000;0.4428;0.6331;
565.2000;0.4420;0.6355;
565.5000;0.4420;0.6453;
565.8000;0.4436;0.6526;
566.1000;0.4404;0.6355;
566.4000;0.4412;0.6355;
566.7000;0.4379;0.6307;
567.0000;0.4412;0.6282;
567.3000;0.4428;0.6258;
567.6000;0.4412;0.6355;
567.9000;0.4404;0.6331;
568.2000;0.4396;0.6331;
568.5000;0.4436;0.6501;
568.8000;0.4420;0.6477;
569.1000;0.4412;0.6404;
569.4000;0.4379;0.6331;
569.7000;0.4404;0.6404;
570.0000;0.4404;0.6477;
570.3000;0.4396;0.6453;
570.6000;0.4420;0.6526;
570.9000;0.4404;0.6477;
571.2000;0.4404;0.6453;
571.5000;0.4444;0.6501;
571.8000;0.4396;0.6331;
572.1000;0.4404;0.6404;
572.4000;0.4387;0.6428;
572.7000;0.4412;0.6550;
573.0000;0.4404;0.6477;
573.3000;0.4412;0.6453;
573.6000;0.4363;0.6282;
573.9000;0.4404;0.6404;
574.2000;0.4436;0.6501;
574.5000;0.4404;0.6404;
574.8000;0.4444;0.6428;
575.1000;0.4371;0.6258;
575.4000;0.4420;0.6404;
575.7000;0.4404;0.6404;
576.0000;0.4412;0.6380;
576.3000;0.4363;0.6380;
576.6000;0.4396;0.6501;
576.9000;0.4396;0.6550;
577.2000;0.4412;0.6550;
577.5000;0.4477;0.6623;
577.8000;0.4404;0.6380;
578.1000;0.4396;0.6404;
578.4000;0.4436;0.6453;
578.7000;0.4404;0.6550;
579.0000;0.4412;0.6623;
579.3000;0.4420;0.6623;
579.6000;0.4371;0.6501;
579.9000;0.4428;0.6599;
580.2000;0.4420;0.6526;
580.5000;0.4404;0.6477;
580.8000;0.4404;0.6453;
581.1000;0.4412;0.6428;
581.4000;0.4387;0.6428;
581.7000;0.4412;0.6477;
582.0000;0.4396;0.6428;
582.3000;0.4387;0.6428;
582.6000;0.4396;0.6404;
582.9000;0.4404;0.6404;
583.2000;0.4396;0.6380;
583.5000;0.4396;0.6234;
583.8000;0.4404;0.6234;
584.1000;0.4444;0.6331;
584.4000;0.4461;0.6355;
584.7000;0.4420;0.6161;
585.0000;0.4412;0.6136;
585.3000;0.4428;0.6307;
585.6000;0.4436;0.6380;
585.9000;0.4436;0.6428;
586.2000;0.4420;0.6453;
586.5000;0.4428;0.6501;
586.8000;0.4420;0.6550;
587.1000;0.4371;0.6331;
587.4000;0.4396;0.6380;
587.7000;0.4412;0.6331;
588.0000;0.4404;0.6380;
588.3000;0.4412;0.6355;
588.6000;0.4396;0.6258;
588.9000;0.4404;0.6307;
589.2000;0.4404;0.6258;
589.5000;0.4461;0.6404;
589.8000;0.4404;0.6282;
590.1000;0.4396;0.6258;
590.4000;0.4420;0.6355;
590.7000;0.4428;0.6355;
591.0000;0.4404;0.6331;
591.3000;0.4404;0.6234;
591.6000;0.4412;0.6258;
591.9000;0.4420;0.6282;
592.2000;0.4412;0.6307;
592.5000;0.4396;0.6380;
592.8000;0.4404;0.6404;
593.1000;0.4396;0.6380;
593.4000;0.4404;0.6404;
593.7000;0.4379;0.6258;
594.0000;0.4404;0.6307;
594.3000;0.4420;0.6282;
594.6000;0.4412;0.6282;
594.9000;0.4404;0.6282;
595.2000;0.4412;0.6404;
595.5000;0.4412;0.6331;
595.8000;0.4404;0.6258;
596.1000;0.4412;0.6282;
596.4000;0.4428;0.6258;
596.7000;0.4404;0.6234;
597.0000;0.4412;0.6185;
597.3000;0.4428;0.6209;
597.6000;0.4412;0.6185;
597.9000;0.4412;0.6209;
598.2000;0.4420;0.6258;
598.5000;0.4404;0.6307;
598.8000;0.4404;0.6307;
599.1000;0.4396;0.6355;
599.4000;0.4436;0.6453;
599.7000;0.4396;0.6355;
600.0000;0.4396;0.6282;
600.3000;0.4330;0.6088;
600.6000;0.4461;0.6258;
600.9000;0.4387;0.5990;
601.2000;0.4371;0.5893;
601.5000;0.4420;0.5941;
601.8000;0.4339;0.5625;
602.1000;0.4339;0.5527;
602.4000;0.4298;0.5357;
602.7000;0.4290;0.5162;
603.0000;0.4282;0.5040;
603.3000;0.4265;0.4967;
603.6000;0.4233;0.4773;
603.9000;0.4225;0.4602;
604.2000;0.4200;0.4529;
604.5000;0.4192;0.4505;
604.8000;0.4168;0.4432;
605.1000;0.4151;0.4407;
605.4000;0.4151;0.4407;
605.7000;0.4127;0.4359;
606.0000;0.4127;0.4310;
606.3000;0.4119;0.4164;
606.6000;0.4103;0.4140;
606.9000;0.4103;0.4066;
607.2000;0.4094;0.4091;
607.5000;0.4078;0.3920;
607.8000;0.4062;0.3920;
608.1000;0.4062;0.3896;
608.4000;0.4070;0.3920;
608.7000;0.4054;0.3823;
609.0000;0.4054;0.3872;
609.3000;0.4078;0.3896;
609.6000;0.4037;0.3872;
609.9000;0.4029;0.3920;
610.2000;0.4037;0.3993;
610.5000;0.4005;0.3969;
610.8000;0.4029;0.4018;
611.1000;0.4005;0.3945;
611.4000;0.3923;0.3677;
611.7000;0.3997;0.3896;
612.0000;0.3997;0.3896;
612.3000;0.4005;0.3920;
612.6000;0.3940;0.3750;
612.9000;0.3980;0.3774;
613.2000;0.3997;0.3872;
613.5000;0.3972;0.3896;
613.8000;0.3972;0.3847;
614.1000;0.3948;0.3750;
614.4000;0.3923;0.3701;
614.7000;0.3964;0.3774;
615.0000;0.3948;0.3774;
615.3000;0.3932;0.3750;
615.6000;0.3940;0.3750;
615.9000;0.3923;0.3750;
616.2000;0.3932;0.3750;
616.5000;0.3891;0.3750;
616.8000;0.3907;0.3799;
617.1000;0.3891;0.3799;
617.4000;0.3907;0.3920;
617.7000;0.3891;0.3872;
618.0000;0.3891;0.3920;
618.3000;0.3899;0.3896;
618.6000;0.3891;0.3896;
618.9000;0.3891;0.3799;
619.2000;0.3891;0.3774;
619.5000;0.3777;0.3458;
619.8000;0.3867;0.3653;
620.1000;0.3867;0.3653;
620.4000;0.3867;0.3677;
620.7000;0.3858;0.3677;
621.0000;0.3858;0.3774;
621.3000;0.3891;0.3872;
621.6000;0.3858;0.3799;
621.9000;0.3850;0.3726;
622.2000;0.3842;0.3677;
622.5000;0.3875;0.3799;
622.8000;0.3858;0.3774;
623.1000;0.3793;0.3555;
623.4000;0.3842;0.3677;
623.7000;0.3810;0.3628;
624.0000;0.3834;0.3799;
624.3000;0.3818;0.3799;
624.6000;0.3834;0.3823;
624.9000;0.3834;0.3847;
625.2000;0.3826;0.3823;
625.5000;0.3810;0.3823;
625.8000;0.3818;0.3872;
626.1000;0.3810;0.3847;
626.4000;0.3834;0.3847;
626.7000;0.3810;0.3750;
627.0000;0.3793;0.3628;
627.3000;0.3810;0.3677;
627.6000;0.3671;0.3360;
627.9000;0.3793;0.3726;
628.2000;0.3761;0.3677;
628.5000;0.3801;0.3750;
628.8000;0.3785;0.3774;
629.1000;0.3785;0.3799;
629.4000;0.3801;0.3896;
629.7000;0.3785;0.3896;
630.0000;0.3785;0.3896;
630.3000;0.3793;0.3774;
630.6000;0.3753;0.3726;
630.9000;0.3761;0.3774;
631.2000;0.3744;0.3628;
631.5000;0.3793;0.3628;
631.8000;0.3761;0.3531;
632.1000;0.3761;0.3531;
632.4000;0.3834;0.3701;
632.7000;0.3769;0.3555;
633.0000;0.3753;0.3531;
633.3000;0.3744;0.3555;
633.6000;0.3777;0.3653;
633.9000;0.3761;0.3628;
634.2000;0.3761;0.3677;
634.5000;0.3777;0.3726;
634.8000;0.3753;0.3701;
635.1000;0.3777;0.3823;
635.4000;0.3736;0.3823;
635.7000;0.3744;0.3896;
636.0000;0.3728;0.3920;
636.3000;0.3777;0.3993;
636.6000;0.3753;0.3969;
636.9000;0.3728;0.3920;
637.2000;0.3728;0.3872;
637.5000;0.3647;0.3701;
637.8000;0.3744;0.3823;
638.1000;0.3712;0.3701;
638.4000;0.3728;0.3701;
638.7000;0.3728;0.3726;
639.0000;0.3720;0.3750;
639.3000;0.3712;0.3823;
639.6000;0.3736;0.3799;
639.9000;0.3712;0.3653;
640.2000;0.3720;0.3628;
640.5000;0.3761;0.3726;
640.8000;0.3712;0.3677;
641.1000;0.3720;0.3774;
641.4000;0.3720;0.3774;
641.7000;0.3696;0.3701;
642.0000;0.3704;0.3628;
642.3000;0.3712;0.3628;
642.6000;0.3704;0.3579;
642.9000;0.3712;0.3774;
643.2000;0.3704;0.3774;
643.5000;0.3712;0.3847;
643.8000;0.3696;0.3847;
644.1000;0.3687;0.3847;
644.4000;0.3736;0.3945;
644.7000;0.3687;0.3823;
645.0000;0.3655;0.3701;
645.3000;0.3679;0.3701;
645.6000;0.3687;0.3628;
645.9000;0.3671;0.3628;
646.2000;0.3671;0.3701;
646.5000;0.3712;0.3799;
646.8000;0.3671;0.3726;
647.1000;0.3687;0.3750;
647.4000;0.3679;0.3677;
647.7000;0.3679;0.3653;
648.0000;0.3696;0.3701;
648.3000;0.3679;0.3653;
648.6000;0.3679;0.3653;
648.9000;0.3663;0.3628;
649.2000;0.3671;0.3604;
649.5000;0.3655;0.3579;
649.8000;0.3639;0.3579;
650.1000;0.3647;0.3579;
650.4000;0.3655;0.3750;
650.7000;0.3663;0.3872;
651.0000;0.3639;0.3896;
651.3000;0.3647;0.3896;
651.6000;0.3606;0.3726;
651.9000;0.3663;0.3823;
652.2000;0.3655;0.3726;
652.5000;0.3647;0.3726;
652.8000;0.3687;0.3823;
653.1000;0.3655;0.3799;
653.4000;0.3663;0.3774;
653.7000;0.3639;0.3555;
654.0000;0.3647;0.3579;
654.3000;0.3622;0.3531;
654.6000;0.3639;0.3531;
654.9000;0.3639;0.3579;
655.2000;0.3647;0.3653;
655.5000;0.3630;0.3604;
655.8000;0.3622;0.3604;
656.1000;0.3622;0.3628;
656.4000;0.3647;0.3701;
656.7000;0.3639;0.3701;
657.0000;0.3647;0.3726;
657.3000;0.3630;0.3701;
657.6000;0.3622;0.3701;
657.9000;0.3655;0.3823;
658.2000;0.3647;0.3799;
658.5000;0.3630;0.3750;
658.8000;0.3639;0.3726;
659.1000;0.3614;0.3701;
659.4000;0.3614;0.3677;
659.7000;0.3614;0.3677;
660.0000;0.3630;0.3677;
660.3000;0.3614;0.3628;
660.6000;0.3639;0.3677;
660.9000;0.3590;0.3604;
661.2000;0.3590;0.3555;
661.5000;0.3606;0.3653;
661.8000;0.3598;0.3750;
662.1000;0.3630;0.3847;
662.4000;0.3606;0.3896;
662.7000;0.3614;0.3969;
663.0000;0.3606;0.3969;
663.3000;0.3606;0.3969;
663.6000;0.3573;0.3799;
663.9000;0.3630;0.3896;
664.2000;0.3614;0.3847;
664.5000;0.3614;0.3774;
664.8000;0.3671;0.3896;
665.1000;0.3606;0.3799;
665.4000;0.3622;0.3823;
665.7000;0.3606;0.3774;
666.0000;0.3630;0.3823;
666.3000;0.3598;0.3799;
666.6000;0.3590;0.3750;
666.9000;0.3622;0.3823;
667.2000;0.3639;0.3847;
667.5000;0.3614;0.3726;
667.8000;0.3598;0.3677;
668.1000;0.3622;0.3726;
668.4000;0.3565;0.3555;
668.7000;0.3598;0.3677;
669.0000;0.3606;0.3653;
669.3000;0.3606;0.3677;
669.6000;0.3573;0.3653;
669.9000;0.3614;0.3726;
670.2000;0.3606;0.3774;
670.5000;0.3557;0.3653;
670.8000;0.3606;0.3726;
671.1000;0.3614;0.3628;
671.4000;0.3606;0.3628;
671.7000;0.3598;0.3653;
672.0000;0.3590;0.3604;
672.3000;0.3573;0.3555;
672.6000;0.3590;0.3677;
672.9000;0.3598;0.3677;
673.2000;0.3598;0.3604;
673.5000;0.3590;0.3653;
673.8000;0.3598;0.3653;
674.1000;0.3541;0.3604;
674.4000;0.3598;0.3774;
674.7000;0.3582;0.3653;
675.0000;0.3565;0.3653;
675.3000;0.3557;0.3677;
675.6000;0.3565;0.3750;
675.9000;0.3573;0.3799;
676.2000;0.3590;0.3799;
676.5000;0.3582;0.3726;
676.8000;0.3573;0.3750;
677.1000;0.3598;0.3823;
677.4000;0.3598;0.3799;
677.7000;0.3582;0.3823;
678.0000;0.3557;0.3774;
678.3000;0.3565;0.3774;
678.6000;0.3565;0.3774;
678.9000;0.3557;0.3750;
679.2000;0.3549;0.3701;
679.5000;0.3557;0.3726;
679.8000;0.3541;0.3677;
680.1000;0.3541;0.3677;
680.4000;0.3557;0.3531;
680.7000;0.3541;0.3555;
681.0000;0.3606;0.3726;
681.3000;0.3565;0.3628;
681.6000;0.3573;0.3677;
681.9000;0.3541;0.3579;
682.2000;0.3549;0.3531;
682.5000;0.3541;0.3555;
682.8000;0.3557;0.3604;
683.1000;0.3565;0.3653;
683.4000;0.3541;0.3653;
683.7000;0.3565;0.3799;
684.0000;0.3500;0.3701;
684.3000;0.3565;0.3823;
684.6000;0.3573;0.3872;
684.9000;0.3541;0.3847;
685.2000;0.3541;0.3750;
685.5000;0.3541;0.3701;
685.8000;0.3541;0.3677;
686.1000;0.3557;0.3750;
686.4000;0.3557;0.3750;
686.7000;0.3484;0.3653;
687.0000;0.3533;0.3774;
687.3000;0.3565;0.3799;
687.6000;0.3557;0.3774;
687.9000;0.3614;0.3945;
688.2000;0.3549;0.3774;
688.5000;0.3533;0.3726;
688.8000;0.3549;0.3872;
689.1000;0.3549;0.3823;
689.4000;0.3525;0.3774;
689.7000;0.3508;0.3726;
690.0000;0.3565;0.3872;
690.3000;0.3541;0.3701;
690.6000;0.3533;0.3628;
690.9000;0.3525;0.3604;
691.2000;0.3533;0.3750;
691.5000;0.3541;0.3750;
691.8000;0.3549;0.3750;
692.1000;0.3541;0.3799;
692.4000;0.3557;0.3823;
692.7000;0.3541;0.3799;
693.0000;0.3614;0.3872;
693.3000;0.3541;0.3677;
693.6000;0.3549;0.3726;
693.9000;0.3533;0.3701;
694.2000;0.3565;0.3823;
694.5000;0.3516;0.3750;
694.8000;0.3663;0.4066;
695.1000;0.3541;0.3847;
695.4000;0.3541;0.3872;
695.7000;0.3598;0.4018;
696.0000;0.3525;0.3847;
696.3000;0.3525;0.3823;
696.6000;0.3541;0.3896;
696.9000;0.3533;0.3920;
697.2000;0.3525;0.3945;
697.5000;0.3541;0.4018;
697.8000;0.3549;0.3920;
698.1000;0.3541;0.3847;
698.4000;0.3525;0.3847;
698.7000;0.3541;0.3945;
699.0000;0.3541;0.3969;
699.3000;0.3525;0.3896;
699.6000;0.3516;0.3872;
699.9000;0.3508;0.3896;
700.2000;0.3460;0.3701;
700.5000;0.3549;0.3945;
700.8000;0.3525;0.3920;
701.1000;0.3525;0.3872;
701.4000;0.3525;0.3823;
701.7000;0.3541;0.3847;
702.0000;0.3525;0.3750;
702.3000;0.3492;0.3677;
702.6000;0.3508;0.3774;
702.9000;0.3525;0.3799;
703.2000;0.3533;0.3872;
703.5000;0.3533;0.3799;
703.8000;0.3533;0.3847;
704.1000;0.3516;0.3847;
704.4000;0.3533;0.3969;
704.7000;0.3508;0.3920;
705.0000;0.3525;0.3969;
705.3000;0.3525;0.3920;
705.6000;0.3525;0.3920;
705.9000;0.3533;0.3920;
706.2000;0.3573;0.4018;
706.5000;0.3573;0.3993;
706.8000;0.3516;0.3823;
707.1000;0.3525;0.3847;
707.4000;0.3525;0.3847;
707.7000;0.3533;0.3896;
708.0000;0.3533;0.3823;
708.3000;0.3549;0.3847;
708.6000;0.3508;0.3701;
708.9000;0.3525;0.3750;
709.2000;0.3500;0.3774;
709.5000;0.3492;0.3677;
709.8000;0.3508;0.3653;
710.1000;0.3516;0.3653;
710.4000;0.3516;0.3701;
710.7000;0.3500;0.3628;
711.0000;0.3492;0.3531;
711.3000;0.3500;0.3433;
711.6000;0.3508;0.3433;
711.9000;0.3516;0.3385;
712.2000;0.3508;0.3336;
712.5000;0.3525;0.3385;
712.8000;0.3516;0.3482;
713.1000;0.3590;0.3604;
713.4000;0.3516;0.3506;
713.7000;0.3549;0.3653;
714.0000;0.3500;0.3506;
714.3000;0.3533;0.3604;
714.6000;0.3525;0.3506;
714.9000;0.3516;0.3458;
715.2000;0.3508;0.3482;
715.5000;0.3508;0.3482;
715.8000;0.3508;0.3409;
716.1000;0.3508;0.3458;
716.4000;0.3492;0.3482;
716.7000;0.3508;0.3458;
717.0000;0.3516;0.3409;
717.3000;0.3508;0.3336;
717.6000;0.3516;0.3360;
717.9000;0.3525;0.3458;
718.2000;0.3508;0.3458;
718.5000;0.3516;0.3579;
718.8000;0.3500;0.3506;
719.1000;0.3508;0.3604;
719.4000;0.3516;0.3604;
719.7000;0.3468;0.3482;
720.0000;0.3508;0.3579;
720.3000;0.3500;0.3677;
720.6000;0.3500;0.3628;
720.9000;0.3508;0.3531;
721.2000;0.3549;0.3677;
721.5000;0.3516;0.3579;
721.8000;0.3516;0.3628;
722.1000;0.3500;0.3628;
722.4000;0.3508;0.3677;
722.7000;0.3508;0.3677;
723.0000;0.3492;0.3726;
723.3000;0.3516;0.3774;
723.6000;0.3516;0.3823;
723.9000;0.3508;0.3823;
724.2000;0.3516;0.3847;
724.5000;0.3525;0.3774;
724.8000;0.3492;0.3701;
725.1000;0.3492;0.3677;
725.4000;0.3516;0.3677;
725.7000;0.3508;0.3677;
726.0000;0.3500;0.3653;
726.3000;0.3492;0.3531;
726.6000;0.3500;0.3555;
726.9000;0.3500;0.3604;
727.2000;0.3500;0.3555;
727.5000;0.3492;0.3458;
727.8000;0.3500;0.3555;
728.1000;0.3508;0.3531;
728.4000;0.3500;0.3604;
728.7000;0.3500;0.3628;
729.0000;0.3525;0.3701;
729.3000;0.3508;0.3677;
729.6000;0.3500;0.3750;
729.9000;0.3476;0.3604;
730.2000;0.3500;0.3653;
730.5000;0.3525;0.3677;
730.8000;0.3508;0.3531;
731.1000;0.3508;0.3555;
731.4000;0.3508;0.3653;
731.7000;0.3508;0.3677;
732.0000;0.3476;0.3628;
732.3000;0.3492;0.3628;
732.6000;0.3492;0.3701;
732.9000;0.3508;0.3774;
733.2000;0.3508;0.3677;
733.5000;0.3508;0.3604;
733.8000;0.3533;0.3653;
734.1000;0.3492;0.3506;
734.4000;0.3476;0.3531;
734.7000;0.3500;0.3701;
735.0000;0.3500;0.3701;
735.3000;0.3484;0.3701;
735.6000;0.3500;0.3701;
735.9000;0.3492;0.3604;
736.2000;0.3516;0.3677;
736.5000;0.3500;0.3677;
736.8000;0.3484;0.3555;
737.1000;0.3533;0.3604;
737.4000;0.3492;0.3482;
737.7000;0.3525;0.3579;
738.0000;0.3508;0.3458;
738.3000;0.3500;0.3482;
738.6000;0.3492;0.3531;
738.9000;0.3492;0.3555;
739.2000;0.3492;0.3555;
739.5000;0.3484;0.3531;
739.8000;0.3500;0.3433;
740.1000;0.3508;0.3506;
740.4000;0.3460;0.3433;
740.7000;0.3525;0.3677;
741.0000;0.3500;0.3653;
741.3000;0.3476;0.3579;
741.6000;0.3492;0.3628;
741.9000;0.3500;0.3653;
742.2000;0.3557;0.3799;
742.5000;0.3484;0.3726;
742.8000;0.3500;0.3896;
743.1000;0.3516;0.4042;
743.4000;0.3516;0.4042;
743.7000;0.3508;0.3993;
744.0000;0.3500;0.3945;
744.3000;0.3460;0.3774;
744.6000;0.3500;0.3847;
744.9000;0.3508;0.3799;
745.2000;0.3476;0.3628;
745.5000;0.3492;0.3604;
745.8000;0.3500;0.3701;
746.1000;0.3403;0.3458;
746.4000;0.3565;0.3920;
746.7000;0.3492;0.3653;
747.0000;0.3484;0.3653;
747.3000;0.3492;0.3628;
747.6000;0.3476;0.3628;
747.9000;0.3484;0.3677;
748.2000;0.3508;0.3701;
748.5000;0.3484;0.3750;
748.8000;0.3484;0.3677;
749.1000;0.3460;0.3628;
749.4000;0.3427;0.3482;
749.7000;0.3484;0.3653;
750.0000;0.3484;0.3677;
750.3000;0.3492;0.3604;
750.6000;0.3468;0.3482;
750.9000;0.3476;0.3458;
751.2000;0.3492;0.3506;
751.5000;0.3468;0.3506;
751.8000;0.3484;0.3506;
752.1000;0.3484;0.3506;
752.4000;0.3460;0.3482;
752.7000;0.3468;0.3506;
753.0000;0.3484;0.3653;
753.3000;0.3492;0.3750;
753.6000;0.3500;0.3774;
753.9000;0.3484;0.3847;
754.2000;0.3484;0.3823;
754.5000;0.3476;0.3774;
754.8000;0.3476;0.3750;
755.1000;0.3476;0.3677;
755.4000;0.3476;0.3604;
755.7000;0.3573;0.3872;
756.0000;0.3476;0.3677;
756.3000;0.3484;0.3726;
756.6000;0.3500;0.3677;
756.9000;0.3500;0.3677;
757.2000;0.3468;0.3579;
757.5000;0.3500;0.3726;
757.8000;0.3476;0.3653;
758.1000;0.3460;0.3604;
758.4000;0.3500;0.3677;
758.7000;0.3484;0.3677;
759.0000;0.3443;0.3579;
759.3000;0.3484;0.3774;
759.6000;0.3468;0.3774;
759.9000;0.3500;0.3872;
760.2000;0.3484;0.3750;
760.5000;0.3484;0.3653;
760.8000;0.3460;0.3604;
761.1000;0.3492;0.3701;
761.4000;0.3533;0.3774;
761.7000;0.3476;0.3628;
762.0000;0.3492;0.3579;
762.3000;0.3443;0.3433;
762.6000;0.3403;0.3336;
762.9000;0.3443;0.3433;
763.2000;0.3484;0.3653;
763.5000;0.3476;0.3628;
763.8000;0.3451;0.3531;
764.1000;0.3500;0.3604;
764.4000;0.3541;0.3799;
764.7000;0.3403;0.3653;
765.0000;0.3492;0.3774;
765.3000;0.3500;0.3872;
765.6000;0.3468;0.3799;
765.9000;0.3443;0.3750;
766.2000;0.3476;0.3799;
766.5000;0.3492;0.3920;
766.8000;0.3468;0.3920;
767.1000;0.3476;0.3774;
767.4000;0.3435;0.3677;
767.7000;0.3451;0.3823;
768.0000;0.3476;0.3774;
768.3000;0.3460;0.3701;
768.6000;0.3484;0.3677;
768.9000;0.3476;0.3677;
769.2000;0.3484;0.3628;
769.5000;0.3492;0.3579;
769.8000;0.3500;0.3677;
770.1000;0.3484;0.3628;
770.4000;0.3492;0.3604;
770.7000;0.3500;0.3506;
771.0000;0.3492;0.3506;
771.3000;0.3476;0.3531;
771.6000;0.3492;0.3677;
771.9000;0.3508;0.3799;
772.2000;0.3451;0.3677;
772.5000;0.3492;0.3847;
772.8000;0.3460;0.3823;
773.1000;0.3484;0.3847;
773.4000;0.3460;0.3774;
773.7000;0.3468;0.3823;
774.0000;0.3468;0.3896;
774.3000;0.3476;0.3920;
774.6000;0.3468;0.3823;
774.9000;0.3460;0.3750;
775.2000;0.3468;0.3774;
775.5000;0.3484;0.3847;
775.8000;0.3451;0.3677;
776.1000;0.3468;0.3726;
776.4000;0.3476;0.3701;
776.7000;0.3468;0.3726;
777.0000;0.3476;0.3799;
777.3000;0.3460;0.3799;
777.6000;0.3476;0.3847;
777.9000;0.3476;0.3847;
778.2000;0.3476;0.3920;
778.5000;0.3492;0.3993;
778.8000;0.3484;0.3920;
779.1000;0.3435;0.3750;
779.4000;0.3500;0.3847;
779.7000;0.3484;0.3799;
780.0000;0.3533;0.3896;
780.3000;0.3394;0.3579;
780.6000;0.3492;0.3872;
780.9000;0.3484;0.3920;
781.2000;0.3451;0.3872;
781.5000;0.3484;0.3896;
781.8000;0.3492;0.3896;
782.1000;0.3460;0.3847;
782.4000;0.3476;0.3872;
782.7000;0.3468;0.3823;
783.0000;0.3476;0.3799;
783.3000;0.3484;0.3896;
783.6000;0.3468;0.3896;
783.9000;0.3460;0.3896;
784.2000;0.3468;0.3872;
784.5000;0.3443;0.3799;
784.8000;0.3427;0.3701;
785.1000;0.3443;0.3750;
785.4000;0.3460;0.3701;
785.7000;0.3476;0.3799;
786.0000;0.3460;0.3677;
786.3000;0.3451;0.3677;
786.6000;0.3403;0.3628;
786.9000;0.3476;0.3920;
787.2000;0.3476;0.3969;
787.5000;0.3492;0.3993;
787.8000;0.3451;0.3847;
788.1000;0.3476;0.3872;
788.4000;0.3468;0.3799;
788.7000;0.3460;0.3750;
789.0000;0.3476;0.3823;
789.3000;0.3484;0.3896;
789.6000;0.3451;0.3847;
789.9000;0.3460;0.3945;
790.2000;0.3460;0.3993;
790.5000;0.3476;0.3969;
790.8000;0.3484;0.3969;
791.1000;0.3435;0.3969;
791.4000;0.3460;0.4066;
791.7000;0.3419;0.3969;
792.0000;0.3476;0.4140;
792.3000;0.3468;0.4140;
792.6000;0.3460;0.4091;
792.9000;0.3476;0.4115;
793.2000;0.3476;0.3945;
793.5000;0.3468;0.3920;
793.8000;0.3468;0.3896;
794.1000;0.3476;0.3945;
794.4000;0.3403;0.3653;
794.7000;0.3492;0.3969;
795.0000;0.3484;0.4066;
795.3000;0.3460;0.4042;
795.6000;0.3484;0.4018;
795.9000;0.3468;0.3969;
796.2000;0.3460;0.3993;
796.5000;0.3468;0.3920;
796.8000;0.3476;0.4018;
797.1000;0.3451;0.4018;
797.4000;0.3451;0.3969;
797.7000;0.3460;0.3896;
798.0000;0.3451;0.3847;
798.3000;0.3468;0.3847;
798.6000;0.3476;0.3920;
798.9000;0.3468;0.3896;
799.2000;0.3468;0.3896;
799.5000;0.3468;0.3872;
799.8000;0.3468;0.3750;
800.1000;0.3476;0.3774;
800.4000;0.3427;0.3701;
800.7000;0.3419;0.3677;
801.0000;0.3468;0.3823;
801.3000;0.3549;0.4066;
801.6000;0.3427;0.3677;
801.9000;0.3451;0.3677;
802.2000;0.3460;0.3677;
802.5000;0.3443;0.3555;
802.8000;0.3435;0.3604;
803.1000;0.3484;0.3677;
803.4000;0.3460;0.3531;
803.7000;0.3492;0.3579;
804.0000;0.3460;0.3579;
804.3000;0.3492;0.3653;
804.6000;0.3451;0.3604;
804.9000;0.3484;0.3726;
805.2000;0.3460;0.3628;
805.5000;0.3460;0.3653;
805.8000;0.3484;0.3799;
806.1000;0.3468;0.3823;
806.4000;0.3443;0.3750;
806.7000;0.3460;0.3896;
807.0000;0.3460;0.3969;
807.3000;0.3460;0.3969;
807.6000;0.3468;0.3920;
807.9000;0.3460;0.3774;
808.2000;0.3443;0.3726;
808.5000;0.3451;0.3823;
808.8000;0.3460;0.3774;
809.1000;0.3468;0.3872;
809.4000;0.3476;0.3896;
809.7000;0.3468;0.3847;
810.0000;0.3468;0.3823;
810.3000;0.3492;0.4018;
810.6000;0.3460;0.3920;
810.9000;0.3468;0.3896;
811.2000;0.3468;0.4018;
811.5000;0.3460;0.3945;
811.8000;0.3435;0.3872;
812.1000;0.3435;0.3799;
812.4000;0.3460;0.3774;
812.7000;0.3435;0.3628;
813.0000;0.3443;0.3677;
813.3000;0.3451;0.3677;
813.6000;0.3451;0.3750;
813.9000;0.3460;0.3653;
814.2000;0.3451;0.3628;
814.5000;0.3460;0.3701;
814.8000;0.3468;0.3750;
815.1000;0.3460;0.3677;
815.4000;0.3435;0.3701;
815.7000;0.3443;0.3774;
816.0000;0.3468;0.3872;
816.3000;0.3451;0.3799;
816.6000;0.3443;0.3774;
816.9000;0.3435;0.3750;
817.2000;0.3476;0.3774;
817.5000;0.3468;0.3701;
817.8000;0.3451;0.3677;
818.1000;0.3427;0.3726;
818.4000;0.3427;0.3750;
818.7000;0.3443;0.3726;
819.0000;0.3460;0.3726;
819.3000;0.3476;0.3896;
819.6000;0.3460;0.3920;
819.9000;0.3451;0.3945;
820.2000;0.3451;0.3847;
820.5000;0.3443;0.3823;
820.8000;0.3435;0.3799;
821.1000;0.3468;0.3823;
821.4000;0.3476;0.3920;
821.7000;0.3468;0.3896;
822.0000;0.3451;0.3847;
822.3000;0.3460;0.3872;
822.6000;0.3468;0.3896;
822.9000;0.3468;0.3872;
823.2000;0.3476;0.3750;
823.5000;0.3460;0.3701;
823.8000;0.3460;0.3750;
824.1000;0.3468;0.3774;
824.4000;0.3435;0.3750;
824.7000;0.3460;0.3872;
825.0000;0.3460;0.3920;
825.3000;0.3492;0.3896;
825.6000;0.3427;0.3750;
825.9000;0.3427;0.3750;
826.2000;0.3451;0.3799;
826.5000;0.3435;0.3872;
826.8000;0.3443;0.3872;
827.1000;0.3460;0.3896;
827.4000;0.3492;0.3969;
827.7000;0.3460;0.3945;
828.0000;0.3403;0.3750;
828.3000;0.3468;0.3945;
828.6000;0.3451;0.3872;
828.9000;0.3468;0.3920;
829.2000;0.3468;0.3847;
829.5000;0.3468;0.3896;
829.8000;0.3492;0.3993;
830.1000;0.3476;0.3993;
830.4000;0.3460;0.4042;
830.7000;0.3443;0.4066;
831.0000;0.3460;0.4140;
831.3000;0.3451;0.4140;
831.6000;0.3451;0.4091;
831.9000;0.3468;0.4115;
832.2000;0.3468;0.3993;
832.5000;0.3460;0.3945;
832.8000;0.3468;0.3969;
833.1000;0.3451;0.3993;
833.4000;0.3460;0.4066;
833.7000;0.3443;0.4018;
834.0000;0.3476;0.4091;
834.3000;0.3443;0.4042;
834.6000;0.3451;0.4018;
834.9000;0.3460;0.3945;
835.2000;0.3484;0.3945;
835.5000;0.3460;0.3872;
835.8000;0.3516;0.4091;
836.1000;0.3451;0.3920;
836.4000;0.3435;0.3945;
836.7000;0.3460;0.4066;
837.0000;0.3451;0.3993;
837.3000;0.3443;0.3993;
837.6000;0.3460;0.4042;
837.9000;0.3468;0.3993;
838.2000;0.3460;0.3920;
838.5000;0.3460;0.4018;
838.8000;0.3435;0.4018;
839.1000;0.3557;0.4334;
839.4000;0.3468;0.4066;
839.7000;0.3468;0.4018;
840.0000;0.3460;0.3993;
840.3000;0.3476;0.4091;
840.6000;0.3460;0.4042;
840.9000;0.3460;0.4018;
841.2000;0.3484;0.4018;
841.5000;0.3451;0.4018;
841.8000;0.3451;0.3993;
842.1000;0.3460;0.3993;
842.4000;0.3403;0.3872;
842.7000;0.3435;0.4018;
843.0000;0.3451;0.4042;
843.3000;0.3443;0.3969;
843.6000;0.3451;0.3969;
843.9000;0.3443;0.3969;
844.2000;0.3460;0.4042;
844.5000;0.3435;0.3969;
844.8000;0.3451;0.4018;
845.1000;0.3468;0.3993;
845.4000;0.3460;0.3945;
845.7000;0.3541;0.4115;
846.0000;0.3443;0.3872;
846.3000;0.3451;0.3872;
846.6000;0.3460;0.3847;
846.9000;0.3451;0.3872;
847.2000;0.3443;0.3847;
847.5000;0.3443;0.3847;
847.8000;0.3443;0.3872;
848.1000;0.3460;0.3945;
848.4000;0.3451;0.3896;
848.7000;0.3484;0.3945;
849.0000;0.3460;0.3872;
849.3000;0.3468;0.3872;
849.6000;0.3460;0.3847;
849.9000;0.3460;0.3823;
850.2000;0.3468;0.3872;
850.5000;0.3476;0.3945;
850.8000;0.3476;0.3920;
851.1000;0.3460;0.3945;
851.4000;0.3516;0.4188;
851.7000;0.3451;0.3896;
852.0000;0.3492;0.4018;
852.3000;0.3427;0.3920;
852.6000;0.3435;0.3993;
852.9000;0.3460;0.3945;
853.2000;0.3443;0.3872;
853.5000;0.3443;0.3823;
853.8000;0.3435;0.3774;
854.1000;0.3435;0.3774;
854.4000;0.3435;0.3750;
854.7000;0.3427;0.3677;
855.0000;0.3451;0.3677;
855.3000;0.3460;0.3847;
855.6000;0.3460;0.3896;
855.9000;0.3451;0.3920;
856.2000;0.3443;0.3823;
856.5000;0.3427;0.3847;
856.8000;0.3451;0.3945;
857.1000;0.3427;0.3774;
857.4000;0.3435;0.3799;
857.7000;0.3435;0.3799;
858.0000;0.3443;0.3872;
858.3000;0.3435;0.3945;
858.6000;0.3427;0.3945;
858.9000;0.3435;0.3993;
859.2000;0.3394;0.3896;
859.5000;0.3451;0.3993;
859.8000;0.3451;0.3993;
860.1000;0.3435;0.3969;
860.4000;0.3451;0.3920;
860.7000;0.3451;0.4042;
861.0000;0.3451;0.4066;
861.3000;0.3476;0.4164;
861.6000;0.3443;0.4042;
861.9000;0.3460;0.4066;
862.2000;0.3435;0.4018;
862.5000;0.3427;0.3896;
862.8000;0.3451;0.3993;
863.1000;0.3443;0.3945;
863.4000;0.3443;0.3847;
863.7000;0.3435;0.3726;
864.0000;0.3443;0.3726;
864.3000;0.3443;0.3726;
864.6000;0.3451;0.3750;
864.9000;0.3443;0.3774;
865.2000;0.3435;0.3750;
865.5000;0.3435;0.3726;
865.8000;0.3451;0.3823;
866.1000;0.3460;0.3799;
866.4000;0.3468;0.3701;
866.7000;0.3419;0.3653;
867.0000;0.3443;0.3701;
867.3000;0.3451;0.3677;
867.6000;0.3427;0.3726;
867.9000;0.3451;0.3799;
868.2000;0.3468;0.3872;
868.5000;0.3460;0.3872;
868.8000;0.3443;0.3774;
869.1000;0.3451;0.3701;
869.4000;0.3460;0.3750;
869.7000;0.3435;0.3628;
870.0000;0.3468;0.3726;
870.3000;0.3451;0.3653;
870.6000;0.3460;0.3653;
870.9000;0.3460;0.3677;
871.2000;0.3435;0.3579;
871.5000;0.3460;0.3653;
871.8000;0.3468;0.3701;
872.1000;0.3443;0.3604;
872.4000;0.3451;0.3506;
872.7000;0.3476;0.3458;
873.0000;0.3427;0.3385;
873.3000;0.3451;0.3506;
873.6000;0.3451;0.3555;
873.9000;0.3460;0.3531;
874.2000;0.3451;0.3555;
874.5000;0.3427;0.3604;
874.8000;0.3427;0.3726;
875.1000;0.3411;0.3628;
875.4000;0.3451;0.3750;
875.7000;0.3460;0.3896;
876.0000;0.3419;0.3774;
876.3000;0.3476;0.3872;
876.6000;0.3460;0.3774;
876.9000;0.3451;0.3799;
877.2000;0.3468;0.3774;
877.5000;0.3468;0.3799;
877.8000;0.3443;0.3774;
878.1000;0.3386;0.3628;
878.4000;0.3468;0.3750;
878.7000;0.3451;0.3677;
879.0000;0.3451;0.3750;
879.3000;0.3435;0.3677;
879.6000;0.3468;0.3677;
879.9000;0.3443;0.3653;
880.2000;0.3443;0.3677;
880.5000;0.3443;0.3701;
880.8000;0.3443;0.3677;
881.1000;0.3411;0.3628;
881.4000;0.3451;0.3653;
881.7000;0.3427;0.3653;
882.0000;0.3451;0.3726;
882.3000;0.3427;0.3531;
882.6000;0.3443;0.3555;
882.9000;0.3451;0.3555;
883.2000;0.3419;0.3506;
883.5000;0.3435;0.3701;
883.8000;0.3427;0.3653;
884.1000;0.3419;0.3677;
884.4000;0.3427;0.3653;
884.7000;0.3476;0.3701;
885.0000;0.3460;0.3701;
885.3000;0.3427;0.3604;
885.6000;0.3435;0.3628;
885.9000;0.3411;0.3701;
886.2000;0.3443;0.3799;
886.5000;0.3419;0.3726;
886.8000;0.3435;0.3726;
887.1000;0.3443;0.3677;
887.4000;0.3460;0.3653;
887.7000;0.3460;0.3701;
888.0000;0.3451;0.3701;
888.3000;0.3451;0.3701;
888.6000;0.3468;0.3726;
888.9000;0.3492;0.3823;
889.2000;0.3435;0.3726;
889.5000;0.3451;0.3653;
889.8000;0.3443;0.3726;
890.1000;0.3460;0.3774;
890.4000;0.3354;0.3506;
890.7000;0.3427;0.3726;
891.0000;0.3435;0.3774;
891.3000;0.3451;0.3823;
891.6000;0.3427;0.3726;
891.9000;0.3443;0.3750;
892.2000;0.3468;0.3726;
892.5000;0.3460;0.3750;
892.8000;0.3451;0.3726;
893.1000;0.3460;0.3750;
893.4000;0.3435;0.3677;
893.7000;0.3443;0.3726;
894.0000;0.3435;0.3774;
894.3000;0.3427;0.3823;
894.6000;0.3500;0.4018;
894.9000;0.3468;0.3945;
895.2000;0.3468;0.3969;
895.5000;0.3411;0.3872;
895.8000;0.3411;0.3799;
896.1000;0.3443;0.3969;
896.4000;0.3427;0.3920;
896.7000;0.3386;0.3726;
897.0000;0.3484;0.3920;
897.3000;0.3443;0.3847;
897.6000;0.3451;0.3823;
897.9000;0.3419;0.3750;
898.2000;0.3443;0.3847;
898.5000;0.3516;0.4091;
898.8000;0.3443;0.3872;
899.1000;0.3419;0.3774;
899.4000;0.3435;0.3799;
899.7000;0.3435;0.3896;
900.0000;0.3476;0.4066;
900.3000;0.3476;0.4091;
900.6000;0.3427;0.4042;
900.9000;0.3435;0.4042;
901.2000;0.3370;0.3823;
901.5000;0.3451;0.4042;
901.8000;0.3443;0.3945;
902.1000;0.3386;0.3750;
902.4000;0.3443;0.3920;
902.7000;0.3419;0.3823;
903.0000;0.3443;0.3799;
903.3000;0.3419;0.3701;
903.6000;0.3443;0.3750;
903.9000;0.3427;0.3701;
904.2000;0.3435;0.3677;
904.5000;0.3451;0.3750;
904.8000;0.3443;0.3726;
905.1000;0.3451;0.3750;
905.4000;0.3427;0.3823;
905.7000;0.3468;0.4042;
906.0000;0.3435;0.3920;
906.3000;0.3435;0.3993;
906.6000;0.3443;0.3847;
906.9000;0.3443;0.3774;
907.2000;0.3435;0.3774;
907.5000;0.3443;0.3847;
907.8000;0.3386;0.3750;
908.1000;0.3460;0.3872;
908.4000;0.3411;0.3799;
908.7000;0.3435;0.3872;
909.0000;0.3443;0.3896;
909.3000;0.3451;0.4018;
909.6000;0.3443;0.3872;
909.9000;0.3435;0.3799;
910.2000;0.3435;0.3896;
910.5000;0.3468;0.3896;
910.8000;0.3451;0.3896;
911.1000;0.3451;0.3872;
911.4000;0.3443;0.3799;
911.7000;0.3435;0.3774;
912.0000;0.3451;0.3847;
912.3000;0.3419;0.3799;
912.6000;0.3435;0.3823;
912.9000;0.3460;0.3872;
913.2000;0.3378;0.3628;
913.5000;0.3435;0.3774;
913.8000;0.3435;0.3774;
914.1000;0.3427;0.3799;
914.4000;0.3411;0.3750;
914.7000;0.3451;0.3823;
915.0000;0.3419;0.3701;
915.3000;0.3435;0.3677;
915.6000;0.3419;0.3726;
915.9000;0.3435;0.3823;
916.2000;0.3403;0.3799;
916.5000;0.3435;0.3969;
916.8000;0.3460;0.3969;
917.1000;0.3443;0.3872;
917.4000;0.3403;0.3799;
917.7000;0.3443;0.3799;
918.0000;0.3435;0.3847;
918.3000;0.3443;0.3969;
918.6000;0.3435;0.3969;
918.9000;0.3427;0.3945;
919.2000;0.3435;0.3993;
919.5000;0.3435;0.3945;
919.8000;0.3460;0.3993;
920.1000;0.3419;0.3847;
920.4000;0.3411;0.3799;
920.7000;0.3492;0.3945;
921.0000;0.3443;0.3847;
921.3000;0.3427;0.3847;
921.6000;0.3435;0.3872;
921.9000;0.3460;0.3920;
922.2000;0.3427;0.3872;
922.5000;0.3443;0.3896;
922.8000;0.3419;0.3799;
923.1000;0.3427;0.3774;
923.4000;0.3443;0.3799;
923.7000;0.3427;0.3799;
924.0000;0.3484;0.3920;
924.3000;0.3443;0.3823;
924.6000;0.3427;0.3823;
924.9000;0.3419;0.3872;
925.2000;0.3435;0.3872;
925.5000;0.3451;0.3945;
925.8000;0.3394;0.3774;
926.1000;0.3443;0.3920;
926.4000;0.3443;0.3920;
926.7000;0.3460;0.3920;
927.0000;0.3460;0.3969;
927.3000;0.3443;0.3872;
927.6000;0.3435;0.3920;
927.9000;0.3443;0.3945;
928.2000;0.3451;0.3872;
928.5000;0.3443;0.3847;
928.8000;0.3451;0.3774;
929.1000;0.3394;0.3628;
929.4000;0.3443;0.3774;
929.7000;0.3443;0.3799;
930.0000;0.3435;0.3847;
930.3000;0.3411;0.3823;
930.6000;0.3443;0.4018;
930.9000;0.3443;0.4018;
931.2000;0.3443;0.3969;
931.5000;0.3443;0.3969;
931.8000;0.3460;0.3920;
932.1000;0.3451;0.3945;
932.4000;0.3443;0.3969;
932.7000;0.3427;0.3799;
933.0000;0.3443;0.3847;
933.3000;0.3427;0.3847;
933.6000;0.3451;0.3920;
933.9000;0.3435;0.3872;
934.2000;0.3394;0.3726;
934.5000;0.3492;0.3969;
934.8000;0.3525;0.4091;
935.1000;0.3378;0.3628;
935.4000;0.3427;0.3726;
935.7000;0.3460;0.3677;
936.0000;0.3451;0.3653;
936.3000;0.3525;0.3750;
936.6000;0.3500;0.3847;
936.9000;0.3460;0.3774;
937.2000;0.3427;0.3677;
937.5000;0.3451;0.3823;
937.8000;0.3435;0.3847;
938.1000;0.3427;0.3823;
938.4000;0.3443;0.3847;
938.7000;0.3468;0.3823;
939.0000;0.3460;0.3847;
939.3000;0.3443;0.3920;
939.6000;0.3451;0.4042;
939.9000;0.3435;0.4042;
940.2000;0.3443;0.4018;
940.5000;0.3378;0.3920;
940.8000;0.3443;0.3945;
941.1000;0.3460;0.3945;
941.4000;0.3427;0.3823;
941.7000;0.3476;0.3872;
942.0000;0.3484;0.3847;
942.3000;0.3508;0.3945;
942.6000;0.3460;0.3872;
942.9000;0.3468;0.3872;
943.2000;0.3460;0.3750;
943.5000;0.3443;0.3823;
943.8000;0.3451;0.3823;
944.1000;0.3451;0.3872;
944.4000;0.3443;0.3945;
944.7000;0.3508;0.4140;
945.0000;0.3435;0.3920;
945.3000;0.3419;0.3896;
945.6000;0.3468;0.3847;
945.9000;0.3435;0.3726;
946.2000;0.3443;0.3677;
946.5000;0.3451;0.3628;
946.8000;0.3451;0.3628;
947.1000;0.3435;0.3604;
947.4000;0.3443;0.3701;
947.7000;0.3451;0.3750;
948.0000;0.3451;0.3750;
948.3000;0.3443;0.3750;
948.6000;0.3435;0.3823;
948.9000;0.3443;0.3847;
949.2000;0.3427;0.3847;
949.5000;0.3443;0.3823;
949.8000;0.3500;0.4018;
950.1000;0.3403;0.3701;
950.4000;0.3443;0.3823;
950.7000;0.3435;0.3774;
951.0000;0.3460;0.3847;
951.3000;0.3427;0.3823;
951.6000;0.3443;0.3847;
951.9000;0.3435;0.3701;
952.2000;0.3451;0.3774;
952.5000;0.3451;0.3823;
952.8000;0.3443;0.3799;
953.1000;0.3500;0.3847;
953.4000;0.3451;0.3579;
953.7000;0.3443;0.3531;
954.0000;0.3427;0.3506;
954.3000;0.3435;0.3579;
954.6000;0.3435;0.3579;
954.9000;0.3460;0.3653;
955.2000;0.3549;0.3872;
955.5000;0.3435;0.3433;
955.8000;0.3443;0.3482;
956.1000;0.3427;0.3482;
956.4000;0.3435;0.3506;
956.7000;0.3427;0.3458;
957.0000;0.3451;0.3482;
957.3000;0.3419;0.3506;
957.6000;0.3370;0.3360;
957.9000;0.3443;0.3531;
958.2000;0.3451;0.3531;
958.5000;0.3435;0.3555;
958.8000;0.3451;0.3628;
959.1000;0.3435;0.3531;
959.4000;0.3435;0.3458;
959.7000;0.3443;0.3506;
960.0000;0.3443;0.3579;
960.3000;0.3435;0.3555;
960.6000;0.3451;0.3677;
960.9000;0.3460;0.3750;
961.2000;0.3443;0.3750;
961.5000;0.3460;0.3799;
961.8000;0.3460;0.3701;
962.1000;0.3443;0.3677;
962.4000;0.3435;0.3628;
962.7000;0.3435;0.3774;
963.0000;0.3435;0.3799;
963.3000;0.3443;0.3823;
963.6000;0.3419;0.3677;
963.9000;0.3443;0.3774;
964.2000;0.3427;0.3726;
964.5000;0.3427;0.3774;
964.8000;0.3419;0.3872;
965.1000;0.3443;0.3969;
965.4000;0.3435;0.3945;
965.7000;0.3443;0.3896;
966.0000;0.3443;0.3872;
966.3000;0.3443;0.3774;
966.6000;0.3460;0.3799;
966.9000;0.3435;0.3847;
967.2000;0.3394;0.3750;
967.5000;0.3435;0.3774;
967.8000;0.3443;0.3872;
968.1000;0.3443;0.3872;
968.4000;0.3460;0.3896;
968.7000;0.3435;0.3823;
969.0000;0.3460;0.3920;
969.3000;0.3435;0.3920;
969.6000;0.3411;0.3896;
969.9000;0.3419;0.3847;
970.2000;0.3443;0.3872;
970.5000;0.3419;0.3872;
970.8000;0.3435;0.3945;
971.1000;0.3443;0.3945;
971.4000;0.3427;0.3920;
971.7000;0.3451;0.3847;
972.0000;0.3451;0.3799;
972.3000;0.3451;0.3847;
972.6000;0.3492;0.3920;
972.9000;0.3451;0.3872;
973.2000;0.3451;0.3799;
973.5000;0.3460;0.3799;
973.8000;0.3403;0.3750;
974.1000;0.3451;0.3872;
974.4000;0.3427;0.3847;
974.7000;0.3460;0.3945;
975.0000;0.3443;0.3896;
975.3000;0.3451;0.3896;
975.6000;0.3533;0.4042;
975.9000;0.3435;0.3774;
976.2000;0.3419;0.3726;
976.5000;0.3451;0.3799;
976.8000;0.3435;0.3750;
977.1000;0.3468;0.3750;
977.4000;0.3427;0.3701;
977.7000;0.3427;0.3750;
978.0000;0.3443;0.3799;
978.3000;0.3419;0.3823;
978.6000;0.3451;0.3872;
978.9000;0.3403;0.3774;
979.2000;0.3435;0.3823;
979.5000;0.3451;0.3823;
979.8000;0.3427;0.3774;
980.1000;0.3427;0.3823;
980.4000;0.3460;0.3920;
980.7000;0.3419;0.3847;
981.0000;0.3411;0.3847;
981.3000;0.3435;0.3823;
981.6000;0.3435;0.3799;
981.9000;0.3451;0.3847;
982.2000;0.3394;0.3701;
982.5000;0.3427;0.3774;
982.8000;0.3427;0.3750;
983.1000;0.3443;0.3823;
983.4000;0.3476;0.3896;
983.7000;0.3419;0.3726;
984.0000;0.3435;0.3726;
984.3000;0.3427;0.3750;
984.6000;0.3443;0.3799;
984.9000;0.3419;0.3823;
985.2000;0.3427;0.3799;
985.5000;0.3443;0.3823;
985.8000;0.3435;0.3774;
986.1000;0.3443;0.3847;
986.4000;0.3435;0.3847;
986.7000;0.3443;0.3726;
987.0000;0.3451;0.3774;
987.3000;0.3427;0.3774;
987.6000;0.3427;0.3823;
987.9000;0.3460;0.3872;
988.2000;0.3427;0.3969;
988.5000;0.3443;0.3945;
988.8000;0.3411;0.3872;
989.1000;0.3419;0.3774;
989.4000;0.3427;0.3799;
989.7000;0.3443;0.3750;
990.0000;0.3411;0.3653;
990.3000;0.3378;0.3531;
990.6000;0.3427;0.3701;
990.9000;0.3394;0.3531;
991.2000;0.3451;0.3628;
991.5000;0.3468;0.3701;
991.8000;0.3427;0.3653;
992.1000;0.3460;0.3701;
992.4000;0.3451;0.3677;
992.7000;0.3427;0.3604;
993.0000;0.3451;0.3799;
993.3000;0.3451;0.3847;
993.6000;0.3451;0.3774;
993.9000;0.3435;0.3847;
994.2000;0.3435;0.3750;
994.5000;0.3451;0.3701;
994.8000;0.3427;0.3628;
995.1000;0.3435;0.3726;
995.4000;0.3427;0.3774;
995.7000;0.3394;0.3677;
996.0000;0.3427;0.3750;
996.3000;0.3435;0.3677;
996.6000;0.3427;0.3701;
996.9000;0.3443;0.3677;
997.2000;0.3362;0.3604;
997.5000;0.3427;0.3799;
997.8000;0.3443;0.3823;
998.1000;0.3451;0.3799;
998.4000;0.3435;0.3847;
998.7000;0.3427;0.3823;
999.0000;0.3411;0.3677;
999.3000;0.3435;0.3750;
999.6000;0.3435;0.3701;
999.9000;0.3394;0.3701;
1000.2000;0.3427;0.3701;
1000.5000;0.3419;0.3653;
1000.8000;0.3451;0.3677;
1001.1000;0.3427;0.3628;
1001.4000;0.3419;0.3653;
1001.7000;0.3443;0.3555;
1002.0000;0.3443;0.3604;
1002.3000;0.3443;0.3604;
1002.6000;0.3443;0.3604;
1002.9000;0.3435;0.3701;
1003.2000;0.3435;0.3726;
1003.5000;0.3451;0.3750;
1003.8000;0.3451;0.3847;
1004.1000;0.3468;0.3750;
1004.4000;0.3476;0.3750;
1004.7000;0.3451;0.3774;
1005.0000;0.3443;0.3847;
1005.3000;0.3419;0.3726;
1005.6000;0.3451;0.3653;
1005.9000;0.3451;0.3774;
1006.2000;0.3443;0.3750;
1006.5000;0.3443;0.3726;
1006.8000;0.3427;0.3726;
1007.1000;0.3435;0.3774;
1007.4000;0.3451;0.3896;
1007.7000;0.3443;0.3847;
1008.0000;0.3435;0.3750;
1008.3000;0.3427;0.3750;
1008.6000;0.3427;0.3823;
1008.9000;0.3435;0.3799;
1009.2000;0.3460;0.3799;
1009.5000;0.3468;0.3969;
1009.8000;0.3419;0.3823;
1010.1000;0.3451;0.3969;
1010.4000;0.3394;0.3920;
1010.7000;0.3419;0.3920;
1011.0000;0.3427;0.3896;
1011.3000;0.3419;0.3823;
1011.6000;0.3411;0.3774;
1011.9000;0.3468;0.3920;
1012.2000;0.3427;0.3799;
1012.5000;0.3451;0.3847;
1012.8000;0.3476;0.3945;
1013.1000;0.3443;0.3993;
1013.4000;0.3435;0.4042;
1013.7000;0.3451;0.3945;
1014.0000;0.3427;0.3823;
1014.3000;0.3378;0.3701;
1014.6000;0.3411;0.3750;
1014.9000;0.3443;0.3847;
1015.2000;0.3451;0.3872;
1015.5000;0.3468;0.3945;
1015.8000;0.3451;0.3920;
1016.1000;0.3435;0.3823;
1016.4000;0.3435;0.3750;
1016.7000;0.3435;0.3701;
1017.0000;0.3386;0.3555;
1017.3000;0.3419;0.3653;
1017.6000;0.3435;0.3677;
1017.9000;0.3435;0.3628;
1018.2000;0.3370;0.3506;
1018.5000;0.3443;0.3799;
1018.8000;0.3443;0.3920;
1019.1000;0.3419;0.3920;
1019.4000;0.3435;0.3920;
1019.7000;0.3443;0.3896;
1020.0000;0.3435;0.3896;
1020.3000;0.3443;0.3920;
1020.6000;0.3443;0.3993;
1020.9000;0.3411;0.3823;
1021.2000;0.3362;0.3653;
1021.5000;0.3460;0.3823;
1021.8000;0.3370;0.3677;
1022.1000;0.3411;0.3774;
1022.4000;0.3443;0.3750;
1022.7000;0.3451;0.3774;
1023.0000;0.3451;0.3823;
1023.3000;0.3435;0.3774;
1023.6000;0.3427;0.3677;
1023.9000;0.3443;0.3774;
1024.2000;0.3443;0.3823;
1024.5000;0.3443;0.3823;
1024.8000;0.3435;0.3799;
1025.1000;0.3435;0.3823;
1025.4000;0.3394;0.3726;
1025.7000;0.3427;0.3701;
1026.0000;0.3411;0.3677;
1026.3000;0.3427;0.3726;
1026.6000;0.3435;0.3701;
1026.9000;0.3451;0.3823;
1027.2000;0.3435;0.3799;
1027.5000;0.3419;0.3799;
1027.8000;0.3468;0.3896;
1028.1000;0.3451;0.3799;
1028.4000;0.3451;0.3774;
1028.7000;0.3443;0.3872;
1029.0000;0.3460;0.3920;
1029.3000;0.3411;0.3847;
1029.6000;0.3451;0.3969;
1029.9000;0.3427;0.3847;
1030.2000;0.3443;0.3896;
1030.5000;0.3443;0.3872;
1030.8000;0.3443;0.3920;
1031.1000;0.3427;0.3823;
1031.4000;0.3427;0.3847;
1031.7000;0.3427;0.3896;
1032.0000;0.3411;0.3872;
1032.3000;0.3419;0.3872;
1032.6000;0.3435;0.3847;
1032.9000;0.3443;0.3896;
1033.2000;0.3419;0.3701;
1033.5000;0.3386;0.3604;
1033.8000;0.3443;0.3750;
1034.1000;0.3435;0.3701;
1034.4000;0.3443;0.3701;
1034.7000;0.3427;0.3628;
1035.0000;0.3435;0.3579;
1035.3000;0.3435;0.3628;
1035.6000;0.3460;0.3726;
1035.9000;0.3346;0.3458;
1036.2000;0.3451;0.3677;
1036.5000;0.3435;0.3555;
1036.8000;0.3443;0.3653;
1037.1000;0.3427;0.3750;
1037.4000;0.3411;0.3726;
1037.7000;0.3386;0.3701;
1038.0000;0.3443;0.3872;
1038.3000;0.3443;0.3823;
1038.6000;0.3419;0.3823;
1038.9000;0.3435;0.3920;
1039.2000;0.3468;0.3896;
1039.5000;0.3435;0.3823;
1039.8000;0.3419;0.3823;
1040.1000;0.3443;0.3726;
1040.4000;0.3443;0.3799;
1040.7000;0.3435;0.3799;
1041.0000;0.3362;0.3628;
1041.3000;0.3435;0.3920;
1041.6000;0.3443;0.3872;
1041.9000;0.3451;0.3920;
1042.2000;0.3403;0.3726;
1042.5000;0.3411;0.3774;
1042.8000;0.3435;0.3799;
1043.1000;0.3435;0.3750;
1043.4000;0.3427;0.3677;
1043.7000;0.3443;0.3677;
1044.0000;0.3443;0.3677;
1044.3000;0.3451;0.3774;
1044.6000;0.3443;0.3774;
1044.9000;0.3460;0.3750;
1045.2000;0.3451;0.3653;
1045.5000;0.3435;0.3628;
1045.8000;0.3451;0.3726;
1046.1000;0.3451;0.3799;
1046.4000;0.3435;0.3750;
1046.7000;0.3435;0.3847;
1047.0000;0.3435;0.3896;
1047.3000;0.3427;0.3920;
1047.6000;0.3427;0.3774;
1047.9000;0.3427;0.3774;
1048.2000;0.3427;0.3677;
1048.5000;0.3427;0.3653;
1048.8000;0.3427;0.3774;
1049.1000;0.3443;0.3799;
1049.4000;0.3508;0.3945;
1049.7000;0.3427;0.3726;
1050.0000;0.3435;0.3677;
1050.3000;0.3468;0.3774;
1050.6000;0.3443;0.3799;
1050.9000;0.3443;0.3701;
1051.2000;0.3427;0.3799;
1051.5000;0.3419;0.3896;
1051.8000;0.3427;0.3896;
1052.1000;0.3443;0.3799;
1052.4000;0.3451;0.3823;
1052.7000;0.3443;0.3847;
1053.0000;0.3427;0.3774;
1053.3000;0.3435;0.3774;
1053.6000;0.3427;0.3726;
1053.9000;0.3427;0.3677;
1054.2000;0.3427;0.3701;
1054.5000;0.3427;0.3750;
1054.8000;0.3427;0.3701;
1055.1000;0.3443;0.3774;
1055.4000;0.3468;0.3847;
1055.7000;0.3484;0.3799;
1056.0000;0.3403;0.3628;
1056.3000;0.3411;0.3799;
1056.6000;0.3386;0.3628;
1056.9000;0.3419;0.3701;
1057.2000;0.3443;0.3701;
1057.5000;0.3411;0.3701;
1057.8000;0.3419;0.3774;
1058.1000;0.3443;0.3872;
1058.4000;0.3427;0.3799;
1058.7000;0.3427;0.3701;
1059.0000;0.3435;0.3726;
1059.3000;0.3427;0.3604;
1059.6000;0.3435;0.3653;
1059.9000;0.3443;0.3677;
1060.2000;0.3435;0.3701;
1060.5000;0.3370;0.3579;
1060.8000;0.3435;0.3726;
1061.1000;0.3435;0.3799;
1061.4000;0.3435;0.3823;
1061.7000;0.3403;0.3750;
1062.0000;0.3451;0.3896;
1062.3000;0.3427;0.3799;
1062.6000;0.3451;0.3823;
1062.9000;0.3451;0.3799;
1063.2000;0.3370;0.3628;
1063.5000;0.3443;0.3847;
1063.8000;0.3427;0.3701;
1064.1000;0.3427;0.3677;
1064.4000;0.3443;0.3701;
1064.7000;0.3435;0.3677;
1065.0000;0.3435;0.3701;
1065.3000;0.3435;0.3677;
1065.6000;0.3484;0.3774;
1065.9000;0.3451;0.3677;
1066.2000;0.3468;0.3701;
1066.5000;0.3435;0.3555;
1066.8000;0.3451;0.3531;
1067.1000;0.3492;0.3701;
1067.4000;0.3427;0.3701;
1067.7000;0.3427;0.3701;
1068.0000;0.3427;0.3701;
1068.3000;0.3386;0.3555;
1068.6000;0.3443;0.3628;
1068.9000;0.3435;0.3604;
1069.2000;0.3451;0.3701;
1069.5000;0.3460;0.3726;
1069.8000;0.3443;0.3677;
1070.1000;0.3443;0.3774;
1070.4000;0.3435;0.3531;
1070.7000;0.3435;0.3433;
1071.0000;0.3411;0.3458;
1071.3000;0.3435;0.3628;
1071.6000;0.3362;0.3482;
1071.9000;0.3435;0.3653;
1072.2000;0.3419;0.3579;
1072.5000;0.3427;0.3677;
1072.8000;0.3435;0.3726;
1073.1000;0.3460;0.3750;
1073.4000;0.3435;0.3726;
1073.7000;0.3451;0.3750;
1074.0000;0.3435;0.3701;
1074.3000;0.3476;0.3799;
1074.6000;0.3451;0.3653;
1074.9000;0.3435;0.3653;
1075.2000;0.3451;0.3628;
1075.5000;0.3435;0.3653;
1075.8000;0.3427;0.3677;
1076.1000;0.3427;0.3701;
1076.4000;0.3386;0.3628;
1076.7000;0.3435;0.3774;
1077.0000;0.3427;0.3774;
1077.3000;0.3451;0.3799;
1077.6000;0.3427;0.3750;
1077.9000;0.3419;0.3750;
1078.2000;0.3451;0.3701;
1078.5000;0.3427;0.3701;
1078.8000;0.3354;0.3482;
1079.1000;0.3427;0.3726;
1079.4000;0.3435;0.3750;
1079.7000;0.3427;0.3726;
1080.0000;0.3435;0.3799;
1080.3000;0.3451;0.3847;
1080.6000;0.3427;0.3872;
1080.9000;0.3443;0.3896;
1081.2000;0.3427;0.3945;
1081.5000;0.3443;0.4042;
1081.8000;0.3419;0.3920;
1082.1000;0.3435;0.4018;
1082.4000;0.3435;0.4018;
1082.7000;0.3386;0.3872;
1083.0000;0.3427;0.3945;
1083.3000;0.3427;0.3823;
1083.6000;0.3443;0.3799;
1083.9000;0.3443;0.3750;
1084.2000;0.3451;0.3774;
1084.5000;0.3435;0.3726;
1084.8000;0.3460;0.3823;
1085.1000;0.3435;0.3726;
1085.4000;0.3443;0.3677;
1085.7000;0.3427;0.3726;
1086.0000;0.3443;0.3823;
1086.3000;0.3435;0.3823;
1086.6000;0.3460;0.3847;
1086.9000;0.3419;0.3799;
1087.2000;0.3451;0.3847;
1087.5000;0.3289;0.3385;
1087.8000;0.3460;0.3823;
1088.1000;0.3427;0.3750;
1088.4000;0.3427;0.3774;
1088.7000;0.3386;0.3726;
1089.0000;0.3362;0.3726;
1089.3000;0.3427;0.3872;
1089.6000;0.3427;0.3823;
1089.9000;0.3435;0.3847;
1090.2000;0.3443;0.3872;
1090.5000;0.3427;0.3774;
1090.8000;0.3419;0.3726;
1091.1000;0.3419;0.3677;
1091.4000;0.3443;0.3750;
1091.7000;0.3435;0.3701;
1092.0000;0.3435;0.3677;
1092.3000;0.3427;0.3628;
1092.6000;0.3419;0.3628;
1092.9000;0.3427;0.3750;
1093.2000;0.3443;0.3677;
1093.5000;0.3419;0.3701;
1093.8000;0.3435;0.3726;
1094.1000;0.3443;0.3750;
1094.4000;0.3419;0.3799;
1094.7000;0.3435;0.3823;
1095.0000;0.3435;0.3726;
1095.3000;0.3443;0.3726;
1095.6000;0.3427;0.3653;
1095.9000;0.3419;0.3774;
1096.2000;0.3427;0.3774;
1096.5000;0.3427;0.3750;
1096.8000;0.3411;0.3628;
1097.1000;0.3435;0.3628;
1097.4000;0.3411;0.3579;
1097.7000;0.3443;0.3555;
1098.0000;0.3411;0.3531;
1098.3000;0.3427;0.3531;
1098.6000;0.3443;0.3555;
1098.9000;0.3451;0.3506;
1099.2000;0.3443;0.3458;
1099.5000;0.3435;0.3604;
1099.8000;0.3435;0.3653;
1100.1000;0.3443;0.3701;
1100.4000;0.3394;0.3604;
1100.7000;0.3460;0.3750;
1101.0000;0.3419;0.3701;
1101.3000;0.3427;0.3653;
1101.6000;0.3500;0.3799;
1101.9000;0.3427;0.3677;
1102.2000;0.3443;0.3799;
1102.5000;0.3427;0.3726;
1102.8000;0.3451;0.3750;
1103.1000;0.3427;0.3750;
1103.4000;0.3451;0.3799;
1103.7000;0.3427;0.3653;
1104.0000;0.3411;0.3555;
1104.3000;0.3427;0.3555;
1104.6000;0.3435;0.3531;
1104.9000;0.3451;0.3555;
1105.2000;0.3427;0.3506;
1105.5000;0.3451;0.3653;
1105.8000;0.3427;0.3677;
1106.1000;0.3411;0.3604;
1106.4000;0.3386;0.3628;
1106.7000;0.3427;0.3677;
1107.0000;0.3419;0.3677;
1107.3000;0.3443;0.3653;
1107.6000;0.3427;0.3628;
1107.9000;0.3468;0.3774;
1108.2000;0.3451;0.3774;
1108.5000;0.3533;0.4115;
1108.8000;0.3427;0.3823;
1109.1000;0.3403;0.3799;
1109.4000;0.3451;0.3823;
1109.7000;0.3443;0.3726;
1110.0000;0.3427;0.3701;
1110.3000;0.3443;0.3701;
1110.6000;0.3427;0.3726;
1110.9000;0.3411;0.3653;
1111.2000;0.3516;0.3945;
1111.5000;0.3403;0.3701;
1111.8000;0.3443;0.3774;
1112.1000;0.3451;0.3726;
1112.4000;0.3443;0.3653;
1112.7000;0.3419;0.3604;
1113.0000;0.3435;0.3677;
1113.3000;0.3435;0.3701;
1113.6000;0.3427;0.3555;
1113.9000;0.3427;0.3555;
1114.2000;0.3468;0.3653;
1114.5000;0.3435;0.3653;
1114.8000;0.3443;0.3750;
1115.1000;0.3435;0.3677;
1115.4000;0.3451;0.3701;
1115.7000;0.3443;0.3653;
1116.0000;0.3427;0.3579;
1116.3000;0.3443;0.3506;
1116.6000;0.3443;0.3579;
1116.9000;0.3443;0.3604;
1117.2000;0.3443;0.3701;
1117.5000;0.3411;0.3555;
1117.8000;0.3435;0.3604;
1118.1000;0.3362;0.3458;
1118.4000;0.3419;0.3555;
1118.7000;0.3419;0.3482;
1119.0000;0.3419;0.3628;
1119.3000;0.3451;0.3653;
1119.6000;0.3427;0.3579;
1119.9000;0.3419;0.3579;
1120.2000;0.3435;0.3555;
1120.5000;0.3435;0.3677;
1120.8000;0.3427;0.3653;
1121.1000;0.3435;0.3628;
1121.4000;0.3337;0.3360;
1121.7000;0.3411;0.3604;
1122.0000;0.3443;0.3628;
1122.3000;0.3411;0.3628;
1122.6000;0.3427;0.3506;
1122.9000;0.3460;0.3555;
1123.2000;0.3443;0.3531;
1123.5000;0.3411;0.3555;
1123.8000;0.3411;0.3482;
1124.1000;0.3451;0.3628;
1124.4000;0.3525;0.3823;
1124.7000;0.3492;0.3774;
1125.0000;0.3394;0.3506;
1125.3000;0.3435;0.3628;
1125.6000;0.3435;0.3628;
1125.9000;0.3451;0.3604;
1126.2000;0.3443;0.3653;
1126.5000;0.3443;0.3628;
1126.8000;0.3435;0.3701;
1127.1000;0.3435;0.3677;
1127.4000;0.3451;0.3677;
1127.7000;0.3460;0.3628;
1128.0000;0.3435;0.3555;
1128.3000;0.3443;0.3579;
1128.6000;0.3508;0.3774;
1128.9000;0.3419;0.3579;
1129.2000;0.3419;0.3531;
1129.5000;0.3411;0.3531;
1129.8000;0.3435;0.3726;
1130.1000;0.3411;0.3799;
1130.4000;0.3403;0.3872;
1130.7000;0.3427;0.3920;
1131.0000;0.3451;0.3896;
1131.3000;0.3443;0.3847;
1131.6000;0.3443;0.3896;
1131.9000;0.3468;0.3896;
1132.2000;0.3435;0.3920;
1132.5000;0.3451;0.3945;
1132.8000;0.3386;0.3677;
1133.1000;0.3411;0.3726;
1133.4000;0.3427;0.3701;
1133.7000;0.3435;0.3604;
1134.0000;0.3468;0.3628;
1134.3000;0.3460;0.3701;
1134.6000;0.3443;0.3653;
1134.9000;0.3435;0.3653;
1135.2000;0.3443;0.3726;
1135.5000;0.3419;0.3701;
1135.8000;0.3427;0.3677;
1136.1000;0.3394;0.3531;
1136.4000;0.3435;0.3653;
1136.7000;0.3435;0.3604;
1137.0000;0.3443;0.3701;
1137.3000;0.3435;0.3726;
1137.6000;0.3451;0.3653;
1137.9000;0.3435;0.3677;
1138.2000;0.3411;0.3628;
1138.5000;0.3403;0.3701;
1138.8000;0.3427;0.3750;
1139.1000;0.3468;0.3920;
1139.4000;0.3427;0.3896;
1139.7000;0.3427;0.3920;
1140.0000;0.3460;0.3969;
1140.3000;0.3443;0.3920;
1140.6000;0.3419;0.3896;
1140.9000;0.3435;0.3823;
1141.2000;0.3443;0.3823;
1141.5000;0.3403;0.3677;
1141.8000;0.3411;0.3726;
1142.1000;0.3427;0.3774;
1142.4000;0.3435;0.3872;
1142.7000;0.3427;0.3872;
1143.0000;0.3451;0.3823;
1143.3000;0.3427;0.3847;
1143.6000;0.3435;0.3896;
1143.9000;0.3443;0.3945;
1144.2000;0.3460;0.3969;
1144.5000;0.3419;0.3823;
1144.8000;0.3443;0.3872;
1145.1000;0.3435;0.3872;
1145.4000;0.3411;0.3799;
1145.7000;0.3435;0.3823;
1146.0000;0.3435;0.3799;
1146.3000;0.3435;0.3847;
1146.6000;0.3419;0.3799;
1146.9000;0.3443;0.3823;
1147.2000;0.3435;0.3799;
1147.5000;0.3443;0.3823;
1147.8000;0.3443;0.3799;
1148.1000;0.3411;0.3823;
1148.4000;0.3419;0.3872;
1148.7000;0.3443;0.3872;
1149.0000;0.3419;0.3774;
1149.3000;0.3435;0.3799;
1149.6000;0.3419;0.3726;
1149.9000;0.3435;0.3726;
1150.2000;0.3427;0.3701;
1150.5000;0.3419;0.3653;
1150.8000;0.3411;0.3628;
1151.1000;0.3443;0.3823;
1151.4000;0.3443;0.3799;
1151.7000;0.3427;0.3823;
1152.0000;0.3419;0.3750;
1152.3000;0.3411;0.3799;
1152.6000;0.3403;0.3872;
1152.9000;0.3435;0.4018;
1153.2000;0.3443;0.3945;
1153.5000;0.3354;0.3726;
1153.8000;0.3394;0.3847;
1154.1000;0.3443;0.3847;
1154.4000;0.3427;0.3799;
1154.7000;0.3435;0.3945;
1155.0000;0.3451;0.3945;
1155.3000;0.3435;0.3920;
1155.6000;0.3468;0.4018;
1155.9000;0.3435;0.3969;
1156.2000;0.3435;0.3993;
1156.5000;0.3435;0.3847;
1156.8000;0.3451;0.3823;
1157.1000;0.3443;0.3750;
1157.4000;0.3435;0.3799;
1157.7000;0.3435;0.3847;
1158.0000;0.3427;0.3774;
1158.3000;0.3443;0.3726;
1158.6000;0.3411;0.3677;
1158.9000;0.3419;0.3774;
1159.2000;0.3411;0.3726;
1159.5000;0.3443;0.3823;
1159.8000;0.3435;0.3847;
1160.1000;0.3443;0.3847;
1160.4000;0.3443;0.3774;
1160.7000;0.3508;0.3896;
1161.0000;0.3443;0.3750;
1161.3000;0.3394;0.3653;
1161.6000;0.3419;0.3701;
1161.9000;0.3435;0.3701;
1162.2000;0.3362;0.3531;
1162.5000;0.3403;0.3653;
1162.8000;0.3435;0.3701;
1163.1000;0.3419;0.3701;
1163.4000;0.3411;0.3726;
1163.7000;0.3427;0.3750;
1164.0000;0.3403;0.3726;
1164.3000;0.3427;0.3774;
1164.6000;0.3443;0.3823;
1164.9000;0.3427;0.3823;
1165.2000;0.3427;0.3799;
1165.5000;0.3451;0.3920;
1165.8000;0.3411;0.3799;
1166.1000;0.3394;0.3799;
1166.4000;0.3460;0.3993;
1166.7000;0.3427;0.3872;
1167.0000;0.3403;0.3726;
1167.3000;0.3460;0.3847;
1167.6000;0.3419;0.3823;
1167.9000;0.3468;0.3969;
1168.2000;0.3443;0.3945;
1168.5000;0.3492;0.4042;
1168.8000;0.3419;0.3969;
1169.1000;0.3460;0.4066;
1169.4000;0.3451;0.4042;
1169.7000;0.3451;0.4066;
1170.0000;0.3435;0.3969;
1170.3000;0.3427;0.3896;
1170.6000;0.3378;0.3726;
1170.9000;0.3411;0.3750;
1171.2000;0.3419;0.3847;
1171.5000;0.3427;0.3969;
1171.8000;0.3435;0.3920;
1172.1000;0.3427;0.3872;
1172.4000;0.3427;0.3774;
1172.7000;0.3419;0.3750;
1173.0000;0.3460;0.3774;
1173.3000;0.3443;0.3701;
1173.6000;0.3419;0.3799;
1173.9000;0.3435;0.3945;
1174.2000;0.3435;0.3945;
1174.5000;0.3435;0.3993;
1174.8000;0.3435;0.3945;
1175.1000;0.3427;0.3896;
1175.4000;0.3427;0.3896;
1175.7000;0.3451;0.3993;
1176.0000;0.3435;0.3993;
1176.3000;0.3443;0.3969;
1176.6000;0.3443;0.4042;
1176.9000;0.3411;0.3896;
1177.2000;0.3403;0.3847;
1177.5000;0.3419;0.3896;
1177.8000;0.3403;0.3896;
1178.1000;0.3419;0.4066;
1178.4000;0.3435;0.4042;
1178.7000;0.3419;0.4018;
1179.0000;0.3468;0.4237;
1179.3000;0.3435;0.4042;
1179.6000;0.3476;0.4115;
1179.9000;0.3451;0.3993;
1180.2000;0.3468;0.4091;
1180.5000;0.3451;0.3969;
1180.8000;0.3451;0.4018;
1181.1000;0.3443;0.3896;
1181.4000;0.3419;0.3799;
1181.7000;0.3443;0.3799;
1182.0000;0.3411;0.3799;
1182.3000;0.3451;0.3823;
1182.6000;0.3443;0.3628;
1182.9000;0.3435;0.3555;
1183.2000;0.3427;0.3555;
1183.5000;0.3427;0.3579;
1183.8000;0.3419;0.3604;
1184.1000;0.3476;0.3750;
1184.4000;0.3419;0.3701;
1184.7000;0.3419;0.3750;
1185.0000;0.3443;0.3823;
1185.3000;0.3435;0.3823;
1185.6000;0.3427;0.3823;
1185.9000;0.3435;0.3799;
1186.2000;0.3354;0.3579;
1186.5000;0.3435;0.3750;
1186.8000;0.3386;0.3750;
1187.1000;0.3443;0.3847;
1187.4000;0.3435;0.3896;
1187.7000;0.3451;0.3847;
1188.0000;0.3435;0.3799;
1188.3000;0.3435;0.3750;
1188.6000;0.3427;0.3847;
1188.9000;0.3435;0.3920;
1189.2000;0.3427;0.3920;
1189.5000;0.3411;0.3993;
1189.8000;0.3476;0.4164;
1190.1000;0.3427;0.4115;
1190.4000;0.3468;0.4213;
1190.7000;0.3427;0.4091;
1191.0000;0.3435;0.3920;
1191.3000;0.3419;0.3774;
1191.6000;0.3443;0.3872;
1191.9000;0.3451;0.3872;
1192.2000;0.3427;0.3896;
1192.5000;0.3435;0.3920;
1192.8000;0.3443;0.3823;
1193.1000;0.3443;0.3799;
1193.4000;0.3460;0.3799;
1193.7000;0.3435;0.3774;
1194.0000;0.3419;0.3726;
1194.3000;0.3435;0.3823;
1194.6000;0.3435;0.3726;
1194.9000;0.3451;0.3750;
1195.2000;0.3435;0.3750;
1195.5000;0.3435;0.3799;
1195.8000;0.3443;0.3750;
1196.1000;0.3435;0.3823;
1196.4000;0.3443;0.3872;
1196.7000;0.3411;0.3823;
1197.0000;0.3460;0.3872;
1197.3000;0.3443;0.3872;
1197.6000;0.3443;0.3799;
1197.9000;0.3443;0.3823;
1198.2000;0.3443;0.3847;
1198.5000;0.3427;0.3823;
1198.8000;0.3427;0.3726;
1199.1000;0.3419;0.3750;
1199.4000;0.3427;0.3774;
1199.7000;0.3427;0.3799;
1200.0000;0.3443;0.3823;
1200.3000;0.3427;0.3872;
1200.6000;0.3435;0.3823;
1200.9000;0.3427;0.3774;
1201.2000;0.3443;0.3750;
1201.5000;0.3435;0.3750;
1201.8000;0.3411;0.3604;
1202.1000;0.3460;0.3726;
1202.4000;0.3435;0.3726;
1202.7000;0.3427;0.3726;
1203.0000;0.3427;0.3677;
1203.3000;0.3411;0.3677;
1203.6000;0.3451;0.3799;
1203.9000;0.3427;0.3774;
1204.2000;0.3419;0.3823;
1204.5000;0.3435;0.3823;
1204.8000;0.3435;0.3872;
1205.1000;0.3451;0.3920;
1205.4000;0.3443;0.3945;
1205.7000;0.3435;0.3920;
1206.0000;0.3460;0.4042;
1206.3000;0.3435;0.4018;
1206.6000;0.3443;0.3969;
1206.9000;0.3443;0.3993;
1207.2000;0.3411;0.3847;
1207.5000;0.3451;0.3872;
1207.8000;0.3427;0.3872;
1208.1000;0.3435;0.3847;
1208.4000;0.3451;0.3920;
1208.7000;0.3427;0.3872;
1209.0000;0.3427;0.3872;
1209.3000;0.3435;0.3799;
1209.6000;0.3435;0.3872;
1209.9000;0.3435;0.3872;
1210.2000;0.3484;0.3969;
1210.5000;0.3435;0.3847;
1210.8000;0.3435;0.3872;
1211.1000;0.3411;0.3920;
1211.4000;0.3451;0.4018;
1211.7000;0.3411;0.3969;
1212.0000;0.3435;0.4018;
1212.3000;0.3451;0.4018;
1212.6000;0.3435;0.4066;
1212.9000;0.3419;0.4042;
1213.2000;0.3419;0.4018;
1213.5000;0.3411;0.4042;
1213.8000;0.3435;0.4091;
1214.1000;0.3419;0.4066;
1214.4000;0.3476;0.4091;
1214.7000;0.3427;0.3969;
1215.0000;0.3419;0.3969;
1215.3000;0.3427;0.4018;
1215.6000;0.3476;0.4018;
1215.9000;0.3435;0.3799;
1216.2000;0.3451;0.3847;
1216.5000;0.3435;0.3701;
1216.8000;0.3386;0.3653;
1217.1000;0.3419;0.3823;
1217.4000;0.3427;0.3920;
1217.7000;0.3443;0.3993;
1218.0000;0.3435;0.3945;
1218.3000;0.3419;0.3969;
1218.6000;0.3427;0.3920;
1218.9000;0.3451;0.3920;
1219.2000;0.3468;0.3945;
1219.5000;0.3451;0.3896;
1219.8000;0.3427;0.3872;
1220.1000;0.3411;0.3872;
1220.4000;0.3427;0.3969;
1220.7000;0.3403;0.3920;
1221.0000;0.3427;0.3896;
1221.3000;0.3435;0.3847;
1221.6000;0.3460;0.3799;
1221.9000;0.3427;0.3774;
1222.2000;0.3435;0.3823;
1222.5000;0.3451;0.3896;
1222.8000;0.3435;0.3872;
1223.1000;0.3435;0.3945;
1223.4000;0.3443;0.3920;
1223.7000;0.3411;0.3823;
1224.0000;0.3435;0.3896;
1224.3000;0.3427;0.3896;
1224.6000;0.3427;0.3896;
1224.9000;0.3435;0.3847;
1225.2000;0.3419;0.3847;
1225.5000;0.3443;0.3920;
1225.8000;0.3451;0.4042;
1226.1000;0.3419;0.4042;
1226.4000;0.3435;0.3969;
1226.7000;0.3427;0.3920;
1227.0000;0.3403;0.3823;
1227.3000;0.3419;0.3872;
1227.6000;0.3403;0.3872;
1227.9000;0.3435;0.3945;
1228.2000;0.3460;0.3969;
1228.5000;0.3427;0.3872;
1228.8000;0.3427;0.3847;
1229.1000;0.3443;0.3920;
1229.4000;0.3394;0.3847;
1229.7000;0.3403;0.3823;
1230.0000;0.3435;0.3799;
1230.3000;0.3451;0.3945;
1230.6000;0.3427;0.3896;
1230.9000;0.3427;0.3945;
1231.2000;0.3427;0.3920;
1231.5000;0.3435;0.3969;
1231.8000;0.3443;0.3993;
1232.1000;0.3443;0.3969;
1232.4000;0.3427;0.3945;
1232.7000;0.3427;0.3945;
1233.0000;0.3435;0.3969;
1233.3000;0.3419;0.3896;
1233.6000;0.3427;0.3945;
1233.9000;0.3427;0.3993;
1234.2000;0.3427;0.3920;
1234.5000;0.3443;0.3993;
1234.8000;0.3427;0.4018;
1235.1000;0.3427;0.3945;
1235.4000;0.3411;0.3945;
1235.7000;0.3451;0.3993;
1236.0000;0.3427;0.3993;
1236.3000;0.3435;0.3969;
1236.6000;0.3427;0.3945;
1236.9000;0.3427;0.3896;
1237.2000;0.3435;0.3920;
1237.5000;0.3451;0.3896;
1237.8000;0.3468;0.4018;
1238.1000;0.3460;0.4115;
1238.4000;0.3435;0.4018;
1238.7000;0.3362;0.3872;
1239.0000;0.3443;0.4140;
1239.3000;0.3427;0.4091;
1239.6000;0.3419;0.4018;
1239.9000;0.3427;0.4042;
1240.2000;0.3492;0.4164;
1240.5000;0.3443;0.3969;
1240.8000;0.3435;0.3969;
1241.1000;0.3476;0.4115;
1241.4000;0.3460;0.4018;
1241.7000;0.3411;0.3774;
1242.0000;0.3476;0.3896;
1242.3000;0.3451;0.3896;
1242.6000;0.3508;0.4042;
1242.9000;0.3451;0.3969;
1243.2000;0.3468;0.4018;
1243.5000;0.3435;0.3896;
1243.8000;0.3525;0.4115;
1244.1000;0.3435;0.3969;
1244.4000;0.3419;0.3945;
1244.7000;0.3468;0.3993;
1245.0000;0.3419;0.3799;
1245.3000;0.3443;0.3726;
1245.6000;0.3427;0.3701;
1245.9000;0.3427;0.3774;
1246.2000;0.3443;0.3823;
1246.5000;0.3427;0.3799;
1246.8000;0.3435;0.3847;
1247.1000;0.3419;0.3799;
1247.4000;0.3443;0.3823;
1247.7000;0.3427;0.3847;
1248.0000;0.3419;0.3847;
1248.3000;0.3443;0.3993;
1248.6000;0.3435;0.4091;
1248.9000;0.3427;0.4066;
1249.2000;0.3443;0.4115;
1249.5000;0.3460;0.4140;
1249.8000;0.3451;0.4140;
1250.1000;0.3443;0.3993;
1250.4000;0.3427;0.3969;
1250.7000;0.3427;0.4018;
1251.0000;0.3451;0.4018;
1251.3000;0.3443;0.3993;
1251.6000;0.3427;0.3993;
1251.9000;0.3460;0.4066;
1252.2000;0.3451;0.4042;
1252.5000;0.3451;0.4018;
1252.8000;0.3451;0.4042;
1253.1000;0.3484;0.4188;
1253.4000;0.3435;0.4115;
1253.7000;0.3419;0.4066;
1254.0000;0.3435;0.4091;
1254.3000;0.3451;0.4066;
1254.6000;0.3443;0.4018;
1254.9000;0.3435;0.4018;
1255.2000;0.3427;0.4018;
1255.5000;0.3411;0.3896;
1255.8000;0.3460;0.3993;
1256.1000;0.3443;0.3920;
1256.4000;0.3443;0.3993;
1256.7000;0.3443;0.3993;
1257.0000;0.3443;0.3993;
1257.3000;0.3451;0.4042;
1257.6000;0.3443;0.4042;
1257.9000;0.3451;0.4115;
1258.2000;0.3443;0.4115;
1258.5000;0.3443;0.4091;
1258.8000;0.3427;0.4115;
1259.1000;0.3435;0.4115;
1259.4000;0.3403;0.4140;
1259.7000;0.3435;0.4213;
1260.0000;0.3419;0.4213;
1260.3000;0.3411;0.4213;
1260.6000;0.3435;0.4164;
1260.9000;0.3435;0.4213;
1261.2000;0.3411;0.4091;
1261.5000;0.3451;0.4066;
1261.8000;0.3435;0.4018;
1262.1000;0.3443;0.4066;
1262.4000;0.3460;0.4018;
1262.7000;0.3443;0.3993;
1263.0000;0.3419;0.3920;
1263.3000;0.3427;0.3969;
1263.6000;0.3435;0.3945;
1263.9000;0.3508;0.4091;
1264.2000;0.3346;0.3701;
1264.5000;0.3435;0.3945;
1264.8000;0.3435;0.3969;
1265.1000;0.3419;0.4018;
1265.4000;0.3435;0.3993;
1265.7000;0.3435;0.4042;
1266.0000;0.3427;0.3945;
1266.3000;0.3435;0.3945;
1266.6000;0.3403;0.3823;
1266.9000;0.3427;0.3872;
1267.2000;0.3451;0.3896;
1267.5000;0.3386;0.3847;
1267.8000;0.3435;0.4066;
1268.1000;0.3427;0.4018;
1268.4000;0.3435;0.4018;
1268.7000;0.3427;0.4042;
1269.0000;0.3427;0.4066;
1269.3000;0.3427;0.4066;
1269.6000;0.3411;0.4018;
1269.9000;0.3435;0.4091;
1270.2000;0.3411;0.3993;
1270.5000;0.3411;0.4042;
1270.8000;0.3427;0.3969;
1271.1000;0.3460;0.4042;
1271.4000;0.3411;0.4018;
1271.7000;0.3411;0.4066;
1272.0000;0.3435;0.4091;
1272.3000;0.3476;0.4213;
1272.6000;0.3443;0.4164;
1272.9000;0.3443;0.4140;
1273.2000;0.3427;0.4091;
1273.5000;0.3443;0.4091;
1273.8000;0.3451;0.4091;
1274.1000;0.3427;0.4115;
1274.4000;0.3427;0.4018;
1274.7000;0.3435;0.4091;
1275.0000;0.3533;0.4286;
1275.3000;0.3403;0.3969;
1275.6000;0.3427;0.4066;
1275.9000;0.3451;0.4140;
1276.2000;0.3403;0.3969;
1276.5000;0.3443;0.3969;
1276.8000;0.3435;0.4066;
1277.1000;0.3427;0.3969;
1277.4000;0.3435;0.4066;
1277.7000;0.3451;0.4091;
1278.0000;0.3419;0.4018;
1278.3000;0.3419;0.4042;
1278.6000;0.3435;0.4115;
1278.9000;0.3451;0.4140;
1279.2000;0.3435;0.4042;
1279.5000;0.3451;0.4091;
1279.8000;0.3427;0.3969;
1280.1000;0.3435;0.4042;
1280.4000;0.3476;0.4091;
1280.7000;0.3427;0.3920;
1281.0000;0.3427;0.3969;
1281.3000;0.3443;0.3945;
1281.6000;0.3435;0.3945;
1281.9000;0.3427;0.3920;
1282.2000;0.3427;0.3920;
1282.5000;0.3427;0.3896;
1282.8000;0.3435;0.3920;
1283.1000;0.3419;0.3896;
1283.4000;0.3419;0.3945;
1283.7000;0.3427;0.3945;
1284.0000;0.3419;0.3847;
1284.3000;0.3427;0.3847;
1284.6000;0.3435;0.3896;
1284.9000;0.3451;0.3920;
1285.2000;0.3460;0.3872;
1285.5000;0.3443;0.3920;
1285.8000;0.3468;0.4066;
1286.1000;0.3451;0.4066;
1286.4000;0.3403;0.3872;
1286.7000;0.3451;0.3993;
1287.0000;0.3443;0.3969;
1287.3000;0.3451;0.3969;
1287.6000;0.3443;0.3993;
1287.9000;0.3451;0.3945;
1288.2000;0.3484;0.4018;
1288.5000;0.3435;0.3799;
1288.8000;0.3460;0.3774;
1289.1000;0.3435;0.3677;
1289.4000;0.3443;0.3726;
1289.7000;0.3435;0.3726;
1290.0000;0.3460;0.3677;
1290.3000;0.3443;0.3726;
1290.6000;0.3427;0.3677;
1290.9000;0.3435;0.3653;
1291.2000;0.3435;0.3750;
1291.5000;0.3435;0.3726;
1291.8000;0.3435;0.3701;
1292.1000;0.3427;0.3653;
1292.4000;0.3403;0.3604;
1292.7000;0.3443;0.3726;
1293.0000;0.3435;0.3750;
1293.3000;0.3427;0.3677;
1293.6000;0.3468;0.3677;
1293.9000;0.3435;0.3579;
1294.2000;0.3419;0.3604;
1294.5000;0.3419;0.3701;
1294.8000;0.3419;0.3701;
1295.1000;0.3443;0.3701;
1295.4000;0.3443;0.3799;
1295.7000;0.3451;0.3774;
1296.0000;0.3435;0.3774;
1296.3000;0.3427;0.3774;
1296.6000;0.3435;0.3774;
1296.9000;0.3427;0.3799;
1297.2000;0.3411;0.3774;
1297.5000;0.3411;0.3823;
1297.8000;0.3435;0.3872;
1298.1000;0.3443;0.3993;
1298.4000;0.3451;0.4018;
1298.7000;0.3435;0.4018;
1299.0000;0.3435;0.3920;
1299.3000;0.3443;0.3896;
1299.6000;0.3435;0.3872;
1299.9000;0.3419;0.3774;
1300.2000;0.3403;0.3653;
1300.5000;0.3419;0.3628;
1300.8000;0.3427;0.3579;
1301.1000;0.3411;0.3482;
1301.4000;0.3411;0.3555;
1301.7000;0.3427;0.3653;
1302.0000;0.3435;0.3750;
1302.3000;0.3394;0.3677;
1302.6000;0.3411;0.3774;
1302.9000;0.3443;0.3847;
1303.2000;0.3476;0.3920;
1303.5000;0.3435;0.3799;
1303.8000;0.3435;0.3823;
1304.1000;0.3386;0.3774;
1304.4000;0.3443;0.3847;
1304.7000;0.3419;0.3799;
1305.0000;0.3427;0.3896;
1305.3000;0.3419;0.3896;
1305.6000;0.3460;0.3920;
1305.9000;0.3443;0.3799;
1306.2000;0.3419;0.3799;
1306.5000;0.3451;0.3945;
1306.8000;0.3443;0.3969;
1307.1000;0.3411;0.3945;
1307.4000;0.3419;0.3993;
1307.7000;0.3443;0.4115;
1308.0000;0.3443;0.4018;
1308.3000;0.3451;0.4066;
1308.6000;0.3451;0.3945;
1308.9000;0.3435;0.3847;
1309.2000;0.3451;0.3799;
1309.5000;0.3460;0.3726;
1309.8000;0.3435;0.3750;
1310.1000;0.3435;0.3847;
1310.4000;0.3516;0.3969;
1310.7000;0.3443;0.3750;
1311.0000;0.3435;0.3701;
1311.3000;0.3476;0.3823;
1311.6000;0.3435;0.3701;
1311.9000;0.3394;0.3628;
1312.2000;0.3443;0.3750;
1312.5000;0.3419;0.3701;
1312.8000;0.3427;0.3726;
1313.1000;0.3443;0.3726;
1313.4000;0.3435;0.3653;
1313.7000;0.3427;0.3653;
1314.0000;0.3525;0.3969;
1314.3000;0.3419;0.3701;
1314.6000;0.3435;0.3750;
1314.9000;0.3411;0.3677;
1315.2000;0.3435;0.3750;
1315.5000;0.3411;0.3726;
1315.8000;0.3443;0.3799;
1316.1000;0.3427;0.3726;
1316.4000;0.3419;0.3604;
1316.7000;0.3370;0.3482;
1317.0000;0.3460;0.3677;
1317.3000;0.3443;0.3628;
1317.6000;0.3411;0.3482;
1317.9000;0.3460;0.3579;
1318.2000;0.3476;0.3628;
1318.5000;0.3411;0.3531;
1318.8000;0.3484;0.3677;
1319.1000;0.3394;0.3555;
1319.4000;0.3443;0.3701;
1319.7000;0.3427;0.3555;
1320.0000;0.3419;0.3531;
1320.3000;0.3427;0.3555;
1320.6000;0.3435;0.3555;
1320.9000;0.3443;0.3604;
1321.2000;0.3468;0.3799;
1321.5000;0.3435;0.3701;
1321.8000;0.3427;0.3799;
1322.1000;0.3443;0.3799;
1322.4000;0.3435;0.3872;
1322.7000;0.3443;0.3872;
1323.0000;0.3443;0.3823;
1323.3000;0.3435;0.3847;
1323.6000;0.3451;0.3726;
1323.9000;0.3427;0.3604;
1324.2000;0.3443;0.3628;
1324.5000;0.3435;0.3628;
1324.8000;0.3443;0.3677;
1325.1000;0.3435;0.3653;
1325.4000;0.3403;0.3701;
1325.7000;0.3419;0.3823;
1326.0000;0.3427;0.3750;
1326.3000;0.3354;0.3628;
1326.6000;0.3419;0.3750;
1326.9000;0.3435;0.3774;
1327.2000;0.3427;0.3701;
1327.5000;0.3451;0.3774;
1327.8000;0.3427;0.3799;
1328.1000;0.3443;0.3847;
1328.4000;0.3435;0.3823;
1328.7000;0.3427;0.3847;
1329.0000;0.3427;0.3823;
1329.3000;0.3427;0.3823;
1329.6000;0.3435;0.3872;
1329.9000;0.3435;0.3799;
1330.2000;0.3411;0.3823;
1330.5000;0.3419;0.3847;
1330.8000;0.3427;0.3920;
1331.1000;0.3435;0.3872;
1331.4000;0.3419;0.3823;
1331.7000;0.3435;0.3823;
1332.0000;0.3443;0.3847;
1332.3000;0.3370;0.3653;
1332.6000;0.3435;0.3823;
1332.9000;0.3443;0.3896;
1333.2000;0.3451;0.3920;
1333.5000;0.3476;0.3920;
1333.8000;0.3476;0.3872;
1334.1000;0.3492;0.3799;
1334.4000;0.3468;0.3799;
1334.7000;0.3451;0.3774;
1335.0000;0.3451;0.3750;
1335.3000;0.3500;0.3872;
1335.6000;0.3411;0.3701;
1335.9000;0.3525;0.3969;
1336.2000;0.3427;0.3701;
1336.5000;0.3411;0.3701;
1336.8000;0.3435;0.3726;
1337.1000;0.3427;0.3774;
1337.4000;0.3435;0.3774;
1337.7000;0.3411;0.3823;
1338.0000;0.3419;0.3823;
1338.3000;0.3411;0.3726;
1338.6000;0.3419;0.3726;
1338.9000;0.3419;0.3823;
1339.2000;0.3419;0.3750;
1339.5000;0.3435;0.3653;
1339.8000;0.3451;0.3750;
1340.1000;0.3411;0.3774;
1340.4000;0.3419;0.3872;
1340.7000;0.3419;0.3847;
1341.0000;0.3435;0.3945;
1341.3000;0.3427;0.3920;
1341.6000;0.3362;0.3726;
1341.9000;0.3403;0.3799;
1342.2000;0.3411;0.3823;
1342.5000;0.3427;0.3872;
1342.8000;0.3419;0.3847;
1343.1000;0.3435;0.3823;
1343.4000;0.3419;0.3774;
1343.7000;0.3443;0.3726;
1344.0000;0.3443;0.3750;
1344.3000;0.3411;0.3750;
1344.6000;0.3427;0.3774;
1344.9000;0.3427;0.3750;
1345.2000;0.3403;0.3677;
1345.5000;0.3419;0.3677;
1345.8000;0.3435;0.3726;
1346.1000;0.3411;0.3701;
1346.4000;0.3443;0.3847;
1346.7000;0.3435;0.3750;
1347.0000;0.3427;0.3750;
1347.3000;0.3427;0.3750;
1347.6000;0.3435;0.3750;
1347.9000;0.3451;0.3774;
1348.2000;0.3451;0.3799;
1348.5000;0.3419;0.3774;
1348.8000;0.3451;0.3799;
1349.1000;0.3443;0.3774;
1349.4000;0.3427;0.3701;
1349.7000;0.3427;0.3799;
1350.0000;0.3435;0.3750;
1350.3000;0.3435;0.3750;
1350.6000;0.3435;0.3726;
1350.9000;0.3419;0.3726;
1351.2000;0.3370;0.3604;
1351.5000;0.3468;0.3847;
1351.8000;0.3427;0.3750;
1352.1000;0.3403;0.3677;
1352.4000;0.3443;0.3750;
1352.7000;0.3370;0.3531;
1353.0000;0.3427;0.3628;
1353.3000;0.3460;0.3750;
1353.6000;0.3419;0.3750;
1353.9000;0.3435;0.3823;
1354.2000;0.3435;0.3823;
1354.5000;0.3419;0.3799;
1354.8000;0.3411;0.3799;
1355.1000;0.3443;0.3969;
1355.4000;0.3435;0.3896;
1355.7000;0.3419;0.3847;
1356.0000;0.3451;0.3872;
1356.3000;0.3476;0.3847;
1356.6000;0.3411;0.3774;
1356.9000;0.3427;0.3774;
1357.2000;0.3403;0.3774;
1357.5000;0.3443;0.3872;
1357.8000;0.3435;0.3847;
1358.1000;0.3419;0.3750;
1358.4000;0.3451;0.3799;
1358.7000;0.3427;0.3774;
1359.0000;0.3460;0.3799;
1359.3000;0.3427;0.3701;
1359.6000;0.3427;0.3653;
1359.9000;0.3443;0.3628;
1360.2000;0.3435;0.3628;
1360.5000;0.3427;0.3701;
1360.8000;0.3460;0.3823;
1361.1000;0.3427;0.3750;
1361.4000;0.3443;0.3823;
1361.7000;0.3443;0.3872;
1362.0000;0.3435;0.3847;
1362.3000;0.3403;0.3774;
1362.6000;0.3403;0.3799;
1362.9000;0.3435;0.3896;
1363.2000;0.3427;0.3920;
1363.5000;0.3427;0.3945;
1363.8000;0.3419;0.3945;
1364.1000;0.3427;0.3945;
1364.4000;0.3435;0.3969;
1364.7000;0.3427;0.3945;
1365.0000;0.3435;0.4018;
1365.3000;0.3427;0.3920;
1365.6000;0.3419;0.3920;
1365.9000;0.3435;0.3969;
1366.2000;0.3427;0.4042;
1366.5000;0.3427;0.4018;
1366.8000;0.3419;0.4018;
1367.1000;0.3460;0.4018;
1367.4000;0.3435;0.3969;
1367.7000;0.3411;0.3945;
1368.0000;0.3435;0.3969;
1368.3000;0.3443;0.3969;
1368.6000;0.3435;0.3969;
1368.9000;0.3435;0.3945;
1369.2000;0.3443;0.3993;
1369.5000;0.3403;0.3872;
1369.8000;0.3435;0.4018;
1370.1000;0.3435;0.3969;
1370.4000;0.3435;0.3969;
1370.7000;0.3460;0.4018;
1371.0000;0.3460;0.3993;
1371.3000;0.3419;0.3945;
1371.6000;0.3403;0.3896;
1371.9000;0.3443;0.3920;
1372.2000;0.3419;0.3920;
1372.5000;0.3419;0.3945;
1372.8000;0.3427;0.3945;
1373.1000;0.3443;0.3969;
1373.4000;0.3419;0.3896;
1373.7000;0.3427;0.3896;
1374.0000;0.3443;0.3969;
1374.3000;0.3541;0.4261;
1374.6000;0.3435;0.4042;
1374.9000;0.3427;0.3969;
1375.2000;0.3435;0.3896;
1375.5000;0.3411;0.3872;
1375.8000;0.3419;0.3896;
1376.1000;0.3435;0.3872;
1376.4000;0.3403;0.3847;
1376.7000;0.3427;0.3896;
1377.0000;0.3419;0.3847;
1377.3000;0.3411;0.3872;
1377.6000;0.3411;0.3872;
1377.9000;0.3435;0.3872;
1378.2000;0.3443;0.3872;
1378.5000;0.3435;0.3750;
1378.8000;0.3435;0.3677;
1379.1000;0.3435;0.3701;
1379.4000;0.3443;0.3774;
1379.7000;0.3419;0.3774;
1380.0000;0.3419;0.3823;
1380.3000;0.3411;0.3969;
1380.6000;0.3451;0.3969;
1380.9000;0.3435;0.3896;
1381.2000;0.3451;0.3945;
1381.5000;0.3427;0.3920;
1381.8000;0.3411;0.3920;
1382.1000;0.3435;0.3969;
1382.4000;0.3419;0.3920;
1382.7000;0.3427;0.3847;
1383.0000;0.3411;0.3847;
1383.3000;0.3427;0.3847;
1383.6000;0.3460;0.3847;
1383.9000;0.3435;0.3653;
1384.2000;0.3443;0.3701;
1384.5000;0.3419;0.3701;
1384.8000;0.3435;0.3750;
1385.1000;0.3443;0.3774;
1385.4000;0.3419;0.3726;
1385.7000;0.3427;0.3823;
1386.0000;0.3435;0.3847;
1386.3000;0.3427;0.3896;
1386.6000;0.3394;0.3774;
1386.9000;0.3403;0.3847;
1387.2000;0.3435;0.3920;
1387.5000;0.3435;0.3993;
1387.8000;0.3419;0.3823;
1388.1000;0.3419;0.3799;
1388.4000;0.3435;0.3799;
1388.7000;0.3354;0.3555;
1389.0000;0.3427;0.3701;
1389.3000;0.3443;0.3750;
1389.6000;0.3443;0.3872;
1389.9000;0.3443;0.3872;
1390.2000;0.3427;0.3847;
1390.5000;0.3435;0.3896;
1390.8000;0.3403;0.3920;
1391.1000;0.3427;0.3969;
1391.4000;0.3435;0.3945;
1391.7000;0.3403;0.3872;
1392.0000;0.3500;0.4066;
1392.3000;0.3435;0.3823;
1392.6000;0.3419;0.3823;
1392.9000;0.3427;0.3872;
1393.2000;0.3419;0.3774;
1393.5000;0.3435;0.3750;
1393.8000;0.3435;0.3774;
1394.1000;0.3427;0.3701;
1394.4000;0.3435;0.3677;
1394.7000;0.3451;0.3750;
1395.0000;0.3427;0.3799;
1395.3000;0.3427;0.3774;
1395.6000;0.3435;0.3799;
1395.9000;0.3419;0.3799;
1396.2000;0.3427;0.3823;
1396.5000;0.3427;0.3726;
1396.8000;0.3411;0.3726;
1397.1000;0.3394;0.3726;
1397.4000;0.3427;0.3945;
1397.7000;0.3419;0.3969;
1398.0000;0.3394;0.4018;
1398.3000;0.3435;0.4091;
1398.6000;0.3443;0.4115;
1398.9000;0.3403;0.3920;
1399.2000;0.3403;0.3969;
1399.5000;0.3427;0.3872;
1399.8000;0.3443;0.3920;
