time/ms;Fluo/V;P700 deltaI/I x10³;
-199.8000;1.2194;0.4155;
-199.5000;1.2218;0.4131;
-199.2000;1.2226;0.4108;
-198.9000;1.2210;0.4038;
-198.6000;1.2202;0.4108;
-198.3000;1.2194;0.4061;
-198.0000;1.2218;0.4061;
-197.7000;1.2226;0.4015;
-197.4000;1.2210;0.3991;
-197.1000;1.2218;0.3991;
-196.8000;1.2243;0.4061;
-196.5000;1.2218;0.4085;
-196.2000;1.2210;0.4155;
-195.9000;1.2210;0.4271;
-195.6000;1.2210;0.4201;
-195.3000;1.2218;0.4248;
-195.0000;1.2218;0.4248;
-194.7000;1.2202;0.4155;
-194.4000;1.2210;0.4108;
-194.1000;1.2210;0.4131;
-193.8000;1.2202;0.4155;
-193.5000;1.2210;0.4271;
-193.2000;1.2210;0.4225;
-192.9000;1.2218;0.4248;
-192.6000;1.2226;0.4295;
-192.3000;1.2202;0.4248;
-192.0000;1.2210;0.4365;
-191.7000;1.2234;0.4411;
-191.4000;1.2234;0.4551;
-191.1000;1.2202;0.4481;
-190.8000;1.2210;0.4505;
-190.5000;1.2177;0.4435;
-190.2000;1.2218;0.4481;
-189.9000;1.2202;0.4411;
-189.6000;1.2186;0.4318;
-189.3000;1.2194;0.4271;
-189.0000;1.2202;0.4341;
-188.7000;1.2169;0.4225;
-188.4000;1.2202;0.4248;
-188.1000;1.2202;0.4155;
-187.8000;1.2210;0.4178;
-187.5000;1.2145;0.4155;
-187.2000;1.2202;0.4225;
-186.9000;1.2202;0.4318;
-186.6000;1.2218;0.4365;
-186.3000;1.2202;0.4341;
-186.0000;1.2202;0.4341;
-185.7000;1.2210;0.4458;
-185.4000;1.2210;0.4505;
-185.1000;1.2226;0.4528;
-184.8000;1.2218;0.4481;
-184.5000;1.2218;0.4528;
-184.2000;1.2202;0.4505;
-183.9000;1.2226;0.4458;
-183.6000;1.2210;0.4505;
-183.3000;1.2202;0.4411;
-183.0000;1.2202;0.4481;
-182.7000;1.2210;0.4505;
-182.4000;1.2202;0.4458;
-182.1000;1.2202;0.4458;
-181.8000;1.2194;0.4481;
-181.5000;1.2226;0.4598;
-181.2000;1.2226;0.4505;
-180.9000;1.2218;0.4435;
-180.6000;1.2210;0.4411;
-180.3000;1.2210;0.4435;
-180.0000;1.2218;0.4411;
-179.7000;1.2243;0.4528;
-179.4000;1.2194;0.4411;
-179.1000;1.2210;0.4458;
-178.8000;1.2218;0.4411;
-178.5000;1.2218;0.4388;
-178.2000;1.2251;0.4458;
-177.9000;1.2202;0.4318;
-177.6000;1.2186;0.4178;
-177.3000;1.2210;0.4295;
-177.0000;1.2210;0.4271;
-176.7000;1.2234;0.4388;
-176.4000;1.2210;0.4318;
-176.1000;1.2251;0.4411;
-175.8000;1.2210;0.4341;
-175.5000;1.2194;0.4248;
-175.2000;1.2202;0.4341;
-174.9000;1.2218;0.4318;
-174.6000;1.2218;0.4318;
-174.3000;1.2169;0.4131;
-174.0000;1.2202;0.4248;
-173.7000;1.2202;0.4178;
-173.4000;1.2226;0.4295;
-173.1000;1.2202;0.4271;
-172.8000;1.2177;0.4271;
-172.5000;1.2251;0.4365;
-172.2000;1.2202;0.4295;
-171.9000;1.2202;0.4295;
-171.6000;1.2210;0.4341;
-171.3000;1.2218;0.4271;
-171.0000;1.2202;0.4248;
-170.7000;1.2210;0.4318;
-170.4000;1.2210;0.4411;
-170.1000;1.2234;0.4458;
-169.8000;1.2226;0.4411;
-169.5000;1.2210;0.4481;
-169.2000;1.2291;0.4668;
-168.9000;1.2202;0.4411;
-168.6000;1.2210;0.4435;
-168.3000;1.2218;0.4481;
-168.0000;1.2218;0.4435;
-167.7000;1.2210;0.4388;
-167.4000;1.2194;0.4365;
-167.1000;1.2194;0.4318;
-166.8000;1.2202;0.4271;
-166.5000;1.2202;0.4341;
-166.2000;1.2218;0.4411;
-165.9000;1.2210;0.4318;
-165.6000;1.2259;0.4481;
-165.3000;1.2202;0.4411;
-165.0000;1.2218;0.4505;
-164.7000;1.2226;0.4528;
-164.4000;1.2267;0.4621;
-164.1000;1.2218;0.4505;
-163.8000;1.2210;0.4435;
-163.5000;1.2226;0.4458;
-163.2000;1.2291;0.4598;
-162.9000;1.2218;0.4435;
-162.6000;1.2202;0.4411;
-162.3000;1.2210;0.4458;
-162.0000;1.2226;0.4528;
-161.7000;1.2194;0.4505;
-161.4000;1.2194;0.4575;
-161.1000;1.2275;0.4785;
-160.8000;1.2210;0.4621;
-160.5000;1.2210;0.4528;
-160.2000;1.2218;0.4528;
-159.9000;1.2226;0.4505;
-159.6000;1.2210;0.4458;
-159.3000;1.2234;0.4481;
-159.0000;1.2153;0.4341;
-158.7000;1.2210;0.4435;
-158.4000;1.2234;0.4575;
-158.1000;1.2243;0.4551;
-157.8000;1.2275;0.4645;
-157.5000;1.2210;0.4551;
-157.2000;1.2243;0.4551;
-156.9000;1.2226;0.4551;
-156.6000;1.2202;0.4481;
-156.3000;1.2202;0.4505;
-156.0000;1.2210;0.4575;
-155.7000;1.2218;0.4551;
-155.4000;1.2210;0.4505;
-155.1000;1.2226;0.4528;
-154.8000;1.2210;0.4505;
-154.5000;1.2210;0.4481;
-154.2000;1.2218;0.4435;
-153.9000;1.2194;0.4365;
-153.6000;1.2210;0.4411;
-153.3000;1.2169;0.4365;
-153.0000;1.2210;0.4435;
-152.7000;1.2259;0.4551;
-152.4000;1.2226;0.4435;
-152.1000;1.2202;0.4435;
-151.8000;1.2210;0.4458;
-151.5000;1.2226;0.4458;
-151.2000;1.2210;0.4435;
-150.9000;1.2202;0.4505;
-150.6000;1.2210;0.4481;
-150.3000;1.2291;0.4715;
-150.0000;1.2210;0.4481;
-149.7000;1.2129;0.4271;
-149.4000;1.2218;0.4435;
-149.1000;1.2243;0.4458;
-148.8000;1.2226;0.4341;
-148.5000;1.2210;0.4388;
-148.2000;1.2234;0.4435;
-147.9000;1.2234;0.4411;
-147.6000;1.2234;0.4388;
-147.3000;1.2210;0.4435;
-147.0000;1.2218;0.4435;
-146.7000;1.2218;0.4411;
-146.4000;1.2210;0.4388;
-146.1000;1.2210;0.4341;
-145.8000;1.2210;0.4411;
-145.5000;1.2145;0.4271;
-145.2000;1.2210;0.4458;
-144.9000;1.2226;0.4458;
-144.6000;1.2210;0.4388;
-144.3000;1.2210;0.4411;
-144.0000;1.2226;0.4481;
-143.7000;1.2218;0.4528;
-143.4000;1.2234;0.4575;
-143.1000;1.2218;0.4528;
-142.8000;1.2210;0.4598;
-142.5000;1.2218;0.4691;
-142.2000;1.2210;0.4738;
-141.9000;1.2202;0.4645;
-141.6000;1.2202;0.4551;
-141.3000;1.2218;0.4551;
-141.0000;1.2202;0.4481;
-140.7000;1.2210;0.4481;
-140.4000;1.2210;0.4458;
-140.1000;1.2218;0.4435;
-139.8000;1.2202;0.4365;
-139.5000;1.2210;0.4388;
-139.2000;1.2177;0.4248;
-138.9000;1.2218;0.4295;
-138.6000;1.2275;0.4365;
-138.3000;1.2169;0.4155;
-138.0000;1.2194;0.4271;
-137.7000;1.2234;0.4318;
-137.4000;1.2210;0.4365;
-137.1000;1.2194;0.4365;
-136.8000;1.2194;0.4411;
-136.5000;1.2194;0.4458;
-136.2000;1.2202;0.4575;
-135.9000;1.2218;0.4575;
-135.6000;1.2243;0.4668;
-135.3000;1.2194;0.4551;
-135.0000;1.2194;0.4551;
-134.7000;1.2218;0.4575;
-134.4000;1.2218;0.4551;
-134.1000;1.2194;0.4505;
-133.8000;1.2218;0.4575;
-133.5000;1.2218;0.4575;
-133.2000;1.2218;0.4598;
-132.9000;1.2194;0.4551;
-132.6000;1.2210;0.4598;
-132.3000;1.2218;0.4598;
-132.0000;1.2202;0.4598;
-131.7000;1.2202;0.4645;
-131.4000;1.2202;0.4645;
-131.1000;1.2218;0.4691;
-130.8000;1.2226;0.4691;
-130.5000;1.2194;0.4575;
-130.2000;1.2194;0.4645;
-129.9000;1.2177;0.4481;
-129.6000;1.2186;0.4411;
-129.3000;1.2202;0.4388;
-129.0000;1.2218;0.4435;
-128.7000;1.2210;0.4505;
-128.4000;1.2202;0.4528;
-128.1000;1.2210;0.4598;
-127.8000;1.2169;0.4528;
-127.5000;1.2202;0.4668;
-127.2000;1.2226;0.4715;
-126.9000;1.2283;0.4785;
-126.6000;1.2194;0.4575;
-126.3000;1.2145;0.4435;
-126.0000;1.2308;0.4855;
-125.7000;1.2218;0.4668;
-125.4000;1.2194;0.4528;
-125.1000;1.2202;0.4481;
-124.8000;1.2210;0.4528;
-124.5000;1.2210;0.4551;
-124.2000;1.2202;0.4551;
-123.9000;1.2194;0.4505;
-123.6000;1.2202;0.4528;
-123.3000;1.2210;0.4505;
-123.0000;1.2259;0.4551;
-122.7000;1.2210;0.4435;
-122.4000;1.2234;0.4505;
-122.1000;1.2218;0.4388;
-121.8000;1.2194;0.4411;
-121.5000;1.2218;0.4528;
-121.2000;1.2194;0.4505;
-120.9000;1.2218;0.4598;
-120.6000;1.2234;0.4575;
-120.3000;1.2218;0.4528;
-120.0000;1.2145;0.4341;
-119.7000;1.2210;0.4458;
-119.4000;1.2210;0.4411;
-119.1000;1.2218;0.4458;
-118.8000;1.2210;0.4388;
-118.5000;1.2226;0.4481;
-118.2000;1.2226;0.4528;
-117.9000;1.2218;0.4505;
-117.6000;1.2202;0.4388;
-117.3000;1.2186;0.4365;
-117.0000;1.2218;0.4435;
-116.7000;1.2210;0.4458;
-116.4000;1.2218;0.4458;
-116.1000;1.2202;0.4411;
-115.8000;1.2210;0.4388;
-115.5000;1.2202;0.4271;
-115.2000;1.2194;0.4248;
-114.9000;1.2202;0.4271;
-114.6000;1.2243;0.4271;
-114.3000;1.2202;0.4225;
-114.0000;1.2202;0.4271;
-113.7000;1.2218;0.4318;
-113.4000;1.2251;0.4388;
-113.1000;1.2210;0.4458;
-112.8000;1.2186;0.4388;
-112.5000;1.2243;0.4481;
-112.2000;1.2194;0.4411;
-111.9000;1.2202;0.4435;
-111.6000;1.2218;0.4435;
-111.3000;1.2210;0.4411;
-111.0000;1.2234;0.4411;
-110.7000;1.2234;0.4411;
-110.4000;1.2218;0.4365;
-110.1000;1.2226;0.4481;
-109.8000;1.2202;0.4435;
-109.5000;1.2218;0.4411;
-109.2000;1.2145;0.4365;
-108.9000;1.2194;0.4528;
-108.6000;1.2210;0.4551;
-108.3000;1.2210;0.4551;
-108.0000;1.2218;0.4551;
-107.7000;1.2210;0.4505;
-107.4000;1.2210;0.4458;
-107.1000;1.2218;0.4505;
-106.8000;1.2186;0.4458;
-106.5000;1.2218;0.4551;
-106.2000;1.2226;0.4575;
-105.9000;1.2218;0.4621;
-105.6000;1.2210;0.4505;
-105.3000;1.2210;0.4435;
-105.0000;1.2194;0.4341;
-104.7000;1.2218;0.4435;
-104.4000;1.2210;0.4365;
-104.1000;1.2210;0.4411;
-103.8000;1.2234;0.4458;
-103.5000;1.2210;0.4411;
-103.2000;1.2202;0.4411;
-102.9000;1.2210;0.4458;
-102.6000;1.2218;0.4481;
-102.3000;1.2210;0.4528;
-102.0000;1.2275;0.4575;
-101.7000;1.2186;0.4295;
-101.4000;1.2202;0.4365;
-101.1000;1.2218;0.4341;
-100.8000;1.2202;0.4411;
-100.5000;1.2210;0.4528;
-100.2000;1.2210;0.4551;
-99.9000;1.2186;0.4528;
-99.6000;1.2202;0.4528;
-99.3000;1.2210;0.4575;
-99.0000;1.2186;0.4481;
-98.7000;1.2218;0.4481;
-98.4000;1.2210;0.4505;
-98.1000;1.2145;0.4411;
-97.8000;1.2210;0.4481;
-97.5000;1.2210;0.4411;
-97.2000;1.2267;0.4551;
-96.9000;1.2202;0.4388;
-96.6000;1.2259;0.4458;
-96.3000;1.2177;0.4295;
-96.0000;1.2194;0.4248;
-95.7000;1.2194;0.4178;
-95.4000;1.2202;0.4178;
-95.1000;1.2218;0.4295;
-94.8000;1.2218;0.4341;
-94.5000;1.2194;0.4341;
-94.2000;1.2194;0.4365;
-93.9000;1.2218;0.4458;
-93.6000;1.2202;0.4435;
-93.3000;1.2202;0.4411;
-93.0000;1.2161;0.4388;
-92.7000;1.2226;0.4481;
-92.4000;1.2218;0.4435;
-92.1000;1.2210;0.4365;
-91.8000;1.2177;0.4341;
-91.5000;1.2210;0.4411;
-91.2000;1.2202;0.4458;
-90.9000;1.2210;0.4435;
-90.6000;1.2210;0.4318;
-90.3000;1.2161;0.4248;
-90.0000;1.2226;0.4341;
-89.7000;1.2218;0.4318;
-89.4000;1.2153;0.4178;
-89.1000;1.2161;0.4131;
-88.8000;1.2202;0.4201;
-88.5000;1.2202;0.4248;
-88.2000;1.2202;0.4248;
-87.9000;1.2218;0.4271;
-87.6000;1.2186;0.4225;
-87.3000;1.2186;0.4225;
-87.0000;1.2186;0.4271;
-86.7000;1.2194;0.4178;
-86.4000;1.2210;0.4248;
-86.1000;1.2226;0.4248;
-85.8000;1.2202;0.4225;
-85.5000;1.2169;0.4085;
-85.2000;1.2218;0.4085;
-84.9000;1.2226;0.4131;
-84.6000;1.2218;0.4155;
-84.3000;1.2210;0.4225;
-84.0000;1.2202;0.4271;
-83.7000;1.2234;0.4341;
-83.4000;1.2218;0.4341;
-83.1000;1.2267;0.4435;
-82.8000;1.2218;0.4341;
-82.5000;1.2202;0.4295;
-82.2000;1.2210;0.4295;
-81.9000;1.2202;0.4341;
-81.6000;1.2202;0.4365;
-81.3000;1.2202;0.4365;
-81.0000;1.2218;0.4341;
-80.7000;1.2275;0.4458;
-80.4000;1.2218;0.4365;
-80.1000;1.2169;0.4318;
-79.8000;1.2226;0.4435;
-79.5000;1.2259;0.4575;
-79.2000;1.2243;0.4528;
-78.9000;1.2210;0.4341;
-78.6000;1.2210;0.4248;
-78.3000;1.2210;0.4295;
-78.0000;1.2210;0.4341;
-77.7000;1.2161;0.4365;
-77.4000;1.2169;0.4435;
-77.1000;1.2202;0.4481;
-76.8000;1.2202;0.4481;
-76.5000;1.2194;0.4481;
-76.2000;1.2186;0.4458;
-75.9000;1.2210;0.4458;
-75.6000;1.2210;0.4341;
-75.3000;1.2226;0.4318;
-75.0000;1.2210;0.4295;
-74.7000;1.2234;0.4458;
-74.4000;1.2210;0.4458;
-74.1000;1.2218;0.4575;
-73.8000;1.2218;0.4645;
-73.5000;1.2275;0.4831;
-73.2000;1.2210;0.4621;
-72.9000;1.2210;0.4598;
-72.6000;1.2153;0.4411;
-72.3000;1.2218;0.4505;
-72.0000;1.2194;0.4458;
-71.7000;1.2202;0.4528;
-71.4000;1.2202;0.4435;
-71.1000;1.2145;0.4318;
-70.8000;1.2202;0.4528;
-70.5000;1.2210;0.4481;
-70.2000;1.2202;0.4411;
-69.9000;1.2194;0.4365;
-69.6000;1.2210;0.4341;
-69.3000;1.2194;0.4271;
-69.0000;1.2186;0.4225;
-68.7000;1.2210;0.4318;
-68.4000;1.2202;0.4271;
-68.1000;1.2194;0.4295;
-67.8000;1.2210;0.4295;
-67.5000;1.2194;0.4271;
-67.2000;1.2186;0.4341;
-66.9000;1.2202;0.4411;
-66.6000;1.2218;0.4388;
-66.3000;1.2202;0.4341;
-66.0000;1.2202;0.4295;
-65.7000;1.2202;0.4225;
-65.4000;1.2177;0.4201;
-65.1000;1.2218;0.4318;
-64.8000;1.2210;0.4271;
-64.5000;1.2202;0.4201;
-64.2000;1.2226;0.4248;
-63.9000;1.2218;0.4248;
-63.6000;1.2210;0.4201;
-63.3000;1.2210;0.4155;
-63.0000;1.2218;0.4248;
-62.7000;1.2210;0.4271;
-62.4000;1.2194;0.4248;
-62.1000;1.2243;0.4271;
-61.8000;1.2210;0.4295;
-61.5000;1.2210;0.4318;
-61.2000;1.2202;0.4365;
-60.9000;1.2194;0.4388;
-60.6000;1.2202;0.4411;
-60.3000;1.2226;0.4388;
-60.0000;1.2218;0.4411;
-59.7000;1.2210;0.4365;
-59.4000;1.2202;0.4271;
-59.1000;1.2234;0.4341;
-58.8000;1.2210;0.4295;
-58.5000;1.2218;0.4295;
-58.2000;1.2291;0.4505;
-57.9000;1.2210;0.4341;
-57.6000;1.2210;0.4365;
-57.3000;1.2210;0.4388;
-57.0000;1.2210;0.4388;
-56.7000;1.2210;0.4435;
-56.4000;1.2210;0.4411;
-56.1000;1.2226;0.4365;
-55.8000;1.2186;0.4295;
-55.5000;1.2234;0.4365;
-55.2000;1.2177;0.4248;
-54.9000;1.2202;0.4341;
-54.6000;1.2194;0.4271;
-54.3000;1.2210;0.4435;
-54.0000;1.2243;0.4551;
-53.7000;1.2210;0.4388;
-53.4000;1.2186;0.4365;
-53.1000;1.2210;0.4318;
-52.8000;1.2210;0.4341;
-52.5000;1.2218;0.4411;
-52.2000;1.2194;0.4388;
-51.9000;1.2202;0.4365;
-51.6000;1.2186;0.4248;
-51.3000;1.2194;0.4271;
-51.0000;1.2137;0.4225;
-50.7000;1.2202;0.4365;
-50.4000;1.2202;0.4388;
-50.1000;1.2202;0.4365;
-49.8000;1.2210;0.4248;
-49.5000;1.2177;0.4271;
-49.2000;1.2202;0.4318;
-48.9000;1.2202;0.4318;
-48.6000;1.2210;0.4341;
-48.3000;1.2194;0.4295;
-48.0000;1.2194;0.4365;
-47.7000;1.2202;0.4341;
-47.4000;1.2210;0.4365;
-47.1000;1.2210;0.4341;
-46.8000;1.2210;0.4295;
-46.5000;1.2194;0.4295;
-46.2000;1.2210;0.4365;
-45.9000;1.2210;0.4341;
-45.6000;1.2202;0.4318;
-45.3000;1.2218;0.4388;
-45.0000;1.2226;0.4435;
-44.7000;1.2202;0.4435;
-44.4000;1.2194;0.4341;
-44.1000;1.2210;0.4341;
-43.8000;1.2161;0.4178;
-43.5000;1.2202;0.4295;
-43.2000;1.2194;0.4318;
-42.9000;1.2202;0.4411;
-42.6000;1.2202;0.4365;
-42.3000;1.2202;0.4411;
-42.0000;1.2218;0.4458;
-41.7000;1.2210;0.4435;
-41.4000;1.2275;0.4551;
-41.1000;1.2202;0.4365;
-40.8000;1.2194;0.4388;
-40.5000;1.2202;0.4341;
-40.2000;1.2202;0.4318;
-39.9000;1.2202;0.4318;
-39.6000;1.2210;0.4341;
-39.3000;1.2177;0.4201;
-39.0000;1.2194;0.4295;
-38.7000;1.2194;0.4225;
-38.4000;1.2210;0.4248;
-38.1000;1.2210;0.4318;
-37.8000;1.2218;0.4365;
-37.5000;1.2202;0.4341;
-37.2000;1.2234;0.4341;
-36.9000;1.2218;0.4388;
-36.6000;1.2202;0.4318;
-36.3000;1.2202;0.4341;
-36.0000;1.2210;0.4388;
-35.7000;1.2202;0.4295;
-35.4000;1.2202;0.4318;
-35.1000;1.2210;0.4341;
-34.8000;1.2177;0.4271;
-34.5000;1.2194;0.4295;
-34.2000;1.2202;0.4295;
-33.9000;1.2177;0.4271;
-33.6000;1.2218;0.4458;
-33.3000;1.2210;0.4505;
-33.0000;1.2218;0.4551;
-32.7000;1.2218;0.4528;
-32.4000;1.2243;0.4551;
-32.1000;1.2218;0.4411;
-31.8000;1.2243;0.4551;
-31.5000;1.2226;0.4458;
-31.2000;1.2210;0.4341;
-30.9000;1.2210;0.4295;
-30.6000;1.2218;0.4388;
-30.3000;1.2218;0.4365;
-30.0000;1.2202;0.4295;
-29.7000;1.2202;0.4295;
-29.4000;1.2218;0.4318;
-29.1000;1.2153;0.4225;
-28.8000;1.2186;0.4318;
-28.5000;1.2210;0.4388;
-28.2000;1.2226;0.4528;
-27.9000;1.2202;0.4388;
-27.6000;1.2186;0.4318;
-27.3000;1.2210;0.4365;
-27.0000;1.2218;0.4458;
-26.7000;1.2226;0.4575;
-26.4000;1.2218;0.4621;
-26.1000;1.2226;0.4621;
-25.8000;1.2210;0.4551;
-25.5000;1.2218;0.4598;
-25.2000;1.2194;0.4505;
-24.9000;1.2210;0.4458;
-24.6000;1.2275;0.4598;
-24.3000;1.2194;0.4458;
-24.0000;1.2186;0.4575;
-23.7000;1.2210;0.4528;
-23.4000;1.2194;0.4435;
-23.1000;1.2210;0.4388;
-22.8000;1.2210;0.4365;
-22.5000;1.2194;0.4341;
-22.2000;1.2202;0.4318;
-21.9000;1.2218;0.4271;
-21.6000;1.2234;0.4318;
-21.3000;1.2210;0.4248;
-21.0000;1.2218;0.4341;
-20.7000;1.2210;0.4318;
-20.4000;1.2210;0.4318;
-20.1000;1.2194;0.4155;
-19.8000;1.2120;0.4085;
-19.5000;1.2226;0.4341;
-19.2000;1.2210;0.4295;
-18.9000;1.2210;0.4271;
-18.6000;1.2243;0.4458;
-18.3000;1.2210;0.4411;
-18.0000;1.2210;0.4435;
-17.7000;1.2251;0.4505;
-17.4000;1.2177;0.4388;
-17.1000;1.2218;0.4505;
-16.8000;1.2202;0.4505;
-16.5000;1.2202;0.4551;
-16.2000;1.2202;0.4598;
-15.9000;1.2210;0.4598;
-15.6000;1.2202;0.4575;
-15.3000;1.2348;0.4855;
-15.0000;1.2202;0.4481;
-14.7000;1.2226;0.4528;
-14.4000;1.2218;0.4505;
-14.1000;1.2210;0.4575;
-13.8000;1.2210;0.4575;
-13.5000;1.2218;0.4575;
-13.2000;1.2194;0.4505;
-12.9000;1.2218;0.4551;
-12.6000;1.2210;0.4575;
-12.3000;1.2218;0.4621;
-12.0000;1.2218;0.4575;
-11.7000;1.2186;0.4551;
-11.4000;1.2210;0.4575;
-11.1000;1.2243;0.4691;
-10.8000;1.2210;0.4691;
-10.5000;1.2202;0.4691;
-10.2000;1.2210;0.4691;
-9.9000;1.2202;0.4668;
-9.6000;1.2234;0.4738;
-9.3000;1.2194;0.4528;
-9.0000;1.2218;0.4598;
-8.7000;1.2202;0.4575;
-8.4000;1.2202;0.4575;
-8.1000;1.2226;0.4645;
-7.8000;1.2275;0.4691;
-7.5000;1.2177;0.4481;
-7.2000;1.2194;0.4575;
-6.9000;1.2202;0.4668;
-6.6000;1.2210;0.4715;
-6.3000;1.2210;0.4761;
-6.0000;1.2202;0.4715;
-5.7000;1.2202;0.4715;
-5.4000;1.2186;0.4668;
-5.1000;1.2218;0.4738;
-4.8000;1.2210;0.4761;
-4.5000;1.2218;0.4761;
-4.2000;1.2218;0.4761;
-3.9000;1.2251;0.4831;
-3.6000;1.2267;0.4831;
-3.3000;1.2210;0.4691;
-3.0000;1.2202;0.4645;
-2.7000;1.2218;0.4715;
-2.4000;1.2210;0.4621;
-2.1000;1.2210;0.4505;
-1.8000;1.2177;0.4411;
-1.5000;1.2210;0.4528;
-1.2000;1.2202;0.4481;
-0.9000;1.2202;0.4388;
-0.6000;1.2186;0.4388;
-0.3000;1.2186;0.4341;
0.0000;1.2186;0.4341;
0.3000;1.2283;0.4271;
0.6000;1.2446;0.4785;
0.9000;1.2568;0.5205;
1.2000;1.2650;0.5508;
1.5000;1.2739;0.5882;
1.8000;1.2780;0.6092;
2.1000;1.2829;0.6279;
2.4000;1.2861;0.6325;
2.7000;1.2910;0.6512;
3.0000;1.2951;0.6699;
3.3000;1.2983;0.6839;
3.6000;1.3016;0.6932;
3.9000;1.3024;0.7002;
4.2000;1.3040;0.7025;
4.5000;1.3065;0.7072;
4.8000;1.3065;0.7166;
5.1000;1.3097;0.7259;
5.4000;1.3179;0.7329;
5.7000;1.3146;0.7189;
6.0000;1.3122;0.7189;
6.3000;1.3162;0.7166;
6.6000;1.3162;0.7166;
6.9000;1.3162;0.7236;
7.2000;1.3187;0.7212;
7.5000;1.3211;0.7236;
7.8000;1.3211;0.7259;
8.1000;1.3219;0.7376;
8.4000;1.3211;0.7329;
8.7000;1.3236;0.7399;
9.0000;1.3244;0.7469;
9.3000;1.3244;0.7446;
9.6000;1.3276;0.7516;
9.9000;1.3268;0.7539;
10.2000;1.3293;0.7539;
10.5000;1.3301;0.7562;
10.8000;1.3301;0.7586;
11.1000;1.3284;0.7492;
11.4000;1.3301;0.7562;
11.7000;1.3333;0.7586;
12.0000;1.3350;0.7562;
12.3000;1.3325;0.7446;
12.6000;1.3333;0.7469;
12.9000;1.3374;0.7562;
13.2000;1.3317;0.7422;
13.5000;1.3350;0.7539;
13.8000;1.3358;0.7562;
14.1000;1.3366;0.7492;
14.4000;1.3358;0.7492;
14.7000;1.3366;0.7446;
15.0000;1.3366;0.7469;
15.3000;1.3423;0.7516;
15.6000;1.3407;0.7376;
15.9000;1.3390;0.7236;
16.2000;1.3390;0.7306;
16.5000;1.3325;0.7212;
16.8000;1.3398;0.7329;
17.1000;1.3407;0.7282;
17.4000;1.3447;0.7376;
17.7000;1.3398;0.7259;
18.0000;1.3439;0.7422;
18.3000;1.3423;0.7399;
18.6000;1.3398;0.7282;
18.9000;1.3333;0.7119;
19.2000;1.3431;0.7259;
19.5000;1.3423;0.7236;
19.8000;1.3415;0.7282;
20.1000;1.3350;0.7189;
20.4000;1.3431;0.7329;
20.7000;1.3447;0.7306;
21.0000;1.3488;0.7422;
21.3000;1.3431;0.7399;
21.6000;1.3423;0.7469;
21.9000;1.3431;0.7399;
22.2000;1.3431;0.7422;
22.5000;1.3439;0.7352;
22.8000;1.3472;0.7399;
23.1000;1.3480;0.7376;
23.4000;1.3455;0.7329;
23.7000;1.3447;0.7399;
24.0000;1.3464;0.7376;
24.3000;1.3447;0.7399;
24.6000;1.3455;0.7516;
24.9000;1.3464;0.7469;
25.2000;1.3455;0.7422;
25.5000;1.3455;0.7352;
25.8000;1.3455;0.7422;
26.1000;1.3455;0.7539;
26.4000;1.3455;0.7469;
26.7000;1.3464;0.7492;
27.0000;1.3464;0.7422;
27.3000;1.3415;0.7352;
27.6000;1.3472;0.7399;
27.9000;1.3488;0.7376;
28.2000;1.3480;0.7446;
28.5000;1.3480;0.7352;
28.8000;1.3480;0.7376;
29.1000;1.3464;0.7329;
29.4000;1.3464;0.7376;
29.7000;1.3480;0.7446;
30.0000;1.3472;0.7422;
30.3000;1.3464;0.7422;
30.6000;1.3464;0.7492;
30.9000;1.3488;0.7562;
31.2000;1.3586;0.7842;
31.5000;1.3455;0.7539;
31.8000;1.3472;0.7586;
32.1000;1.3496;0.7679;
32.4000;1.3496;0.7679;
32.7000;1.3488;0.7656;
33.0000;1.3480;0.7632;
33.3000;1.3512;0.7679;
33.6000;1.3504;0.7539;
33.9000;1.3472;0.7539;
34.2000;1.3472;0.7516;
34.5000;1.3488;0.7539;
34.8000;1.3472;0.7446;
35.1000;1.3496;0.7586;
35.4000;1.3488;0.7609;
35.7000;1.3504;0.7562;
36.0000;1.3545;0.7679;
36.3000;1.3529;0.7656;
36.6000;1.3504;0.7609;
36.9000;1.3472;0.7586;
37.2000;1.3512;0.7586;
37.5000;1.3512;0.7562;
37.8000;1.3423;0.7422;
38.1000;1.3504;0.7632;
38.4000;1.3480;0.7539;
38.7000;1.3521;0.7609;
39.0000;1.3464;0.7562;
39.3000;1.3464;0.7562;
39.6000;1.3496;0.7679;
39.9000;1.3504;0.7632;
40.2000;1.3496;0.7539;
40.5000;1.3651;0.7842;
40.8000;1.3512;0.7516;
41.1000;1.3529;0.7492;
41.4000;1.3537;0.7539;
41.7000;1.3512;0.7516;
42.0000;1.3472;0.7446;
42.3000;1.3512;0.7492;
42.6000;1.3431;0.7259;
42.9000;1.3512;0.7492;
43.2000;1.3496;0.7399;
43.5000;1.3496;0.7376;
43.8000;1.3521;0.7422;
44.1000;1.3504;0.7352;
44.4000;1.3521;0.7376;
44.7000;1.3504;0.7329;
45.0000;1.3504;0.7306;
45.3000;1.3504;0.7329;
45.6000;1.3504;0.7376;
45.9000;1.3512;0.7376;
46.2000;1.3504;0.7446;
46.5000;1.3512;0.7586;
46.8000;1.3521;0.7609;
47.1000;1.3504;0.7516;
47.4000;1.3529;0.7539;
47.7000;1.3529;0.7492;
48.0000;1.3512;0.7469;
48.3000;1.3504;0.7376;
48.6000;1.3504;0.7446;
48.9000;1.3529;0.7469;
49.2000;1.3521;0.7469;
49.5000;1.3504;0.7469;
49.8000;1.3496;0.7422;
50.1000;1.3512;0.7469;
50.4000;1.3472;0.7422;
50.7000;1.3504;0.7446;
51.0000;1.3496;0.7399;
51.3000;1.3496;0.7376;
51.6000;1.3512;0.7422;
51.9000;1.3529;0.7399;
52.2000;1.3423;0.7212;
52.5000;1.3496;0.7399;
52.8000;1.3512;0.7376;
53.1000;1.3504;0.7376;
53.4000;1.3521;0.7399;
53.7000;1.3504;0.7352;
54.0000;1.3521;0.7282;
54.3000;1.3504;0.7282;
54.6000;1.3496;0.7282;
54.9000;1.3496;0.7236;
55.2000;1.3488;0.7306;
55.5000;1.3496;0.7329;
55.8000;1.3537;0.7422;
56.1000;1.3512;0.7446;
56.4000;1.3488;0.7352;
56.7000;1.3512;0.7329;
57.0000;1.3537;0.7446;
57.3000;1.3496;0.7399;
57.6000;1.3496;0.7516;
57.9000;1.3521;0.7632;
58.2000;1.3512;0.7702;
58.5000;1.3512;0.7656;
58.8000;1.3455;0.7516;
59.1000;1.3512;0.7539;
59.4000;1.3512;0.7539;
59.7000;1.3504;0.7562;
60.0000;1.3504;0.7562;
60.3000;1.3512;0.7679;
60.6000;1.3529;0.7702;
60.9000;1.3504;0.7656;
61.2000;1.3521;0.7609;
61.5000;1.3529;0.7539;
61.8000;1.3569;0.7656;
62.1000;1.3521;0.7632;
62.4000;1.3512;0.7609;
62.7000;1.3496;0.7492;
63.0000;1.3504;0.7492;
63.3000;1.3521;0.7492;
63.6000;1.3504;0.7586;
63.9000;1.3480;0.7586;
64.2000;1.3488;0.7562;
64.5000;1.3480;0.7516;
64.8000;1.3496;0.7446;
65.1000;1.3504;0.7562;
65.4000;1.3488;0.7586;
65.7000;1.3521;0.7702;
66.0000;1.3504;0.7679;
66.3000;1.3504;0.7702;
66.6000;1.3488;0.7632;
66.9000;1.3512;0.7656;
67.2000;1.3496;0.7609;
67.5000;1.3488;0.7516;
67.8000;1.3504;0.7492;
68.1000;1.3512;0.7516;
68.4000;1.3529;0.7516;
68.7000;1.3496;0.7469;
69.0000;1.3496;0.7492;
69.3000;1.3512;0.7469;
69.6000;1.3569;0.7609;
69.9000;1.3504;0.7562;
70.2000;1.3496;0.7586;
70.5000;1.3504;0.7586;
70.8000;1.3504;0.7586;
71.1000;1.3504;0.7586;
71.4000;1.3512;0.7516;
71.7000;1.3504;0.7469;
72.0000;1.3512;0.7492;
72.3000;1.3512;0.7516;
72.6000;1.3512;0.7586;
72.9000;1.3504;0.7609;
73.2000;1.3504;0.7632;
73.5000;1.3504;0.7609;
73.8000;1.3504;0.7632;
74.1000;1.3512;0.7586;
74.4000;1.3496;0.7586;
74.7000;1.3521;0.7656;
75.0000;1.3496;0.7609;
75.3000;1.3480;0.7632;
75.6000;1.3504;0.7702;
75.9000;1.3512;0.7772;
76.2000;1.3521;0.7772;
76.5000;1.3496;0.7702;
76.8000;1.3512;0.7702;
77.1000;1.3512;0.7562;
77.4000;1.3521;0.7586;
77.7000;1.3496;0.7539;
78.0000;1.3504;0.7562;
78.3000;1.3529;0.7632;
78.6000;1.3504;0.7562;
78.9000;1.3512;0.7609;
79.2000;1.3512;0.7656;
79.5000;1.3496;0.7609;
79.8000;1.3529;0.7702;
80.1000;1.3529;0.7679;
80.4000;1.3504;0.7632;
80.7000;1.3488;0.7609;
81.0000;1.3578;0.7842;
81.3000;1.3512;0.7772;
81.6000;1.3512;0.7749;
81.9000;1.3504;0.7702;
82.2000;1.3480;0.7609;
82.5000;1.3504;0.7656;
82.8000;1.3496;0.7656;
83.1000;1.3496;0.7702;
83.4000;1.3504;0.7679;
83.7000;1.3496;0.7609;
84.0000;1.3504;0.7679;
84.3000;1.3504;0.7632;
84.6000;1.3504;0.7609;
84.9000;1.3504;0.7562;
85.2000;1.3496;0.7516;
85.5000;1.3512;0.7539;
85.8000;1.3504;0.7469;
86.1000;1.3512;0.7446;
86.4000;1.3455;0.7446;
86.7000;1.3504;0.7539;
87.0000;1.3488;0.7562;
87.3000;1.3488;0.7609;
87.6000;1.3496;0.7586;
87.9000;1.3464;0.7492;
88.2000;1.3496;0.7586;
88.5000;1.3464;0.7539;
88.8000;1.3496;0.7539;
89.1000;1.3480;0.7609;
89.4000;1.3488;0.7679;
89.7000;1.3488;0.7656;
90.0000;1.3504;0.7586;
90.3000;1.3504;0.7516;
90.6000;1.3504;0.7422;
90.9000;1.3561;0.7492;
91.2000;1.3512;0.7399;
91.5000;1.3472;0.7282;
91.8000;1.3504;0.7399;
92.1000;1.3504;0.7376;
92.4000;1.3512;0.7539;
92.7000;1.3537;0.7609;
93.0000;1.3512;0.7586;
93.3000;1.3480;0.7516;
93.6000;1.3488;0.7469;
93.9000;1.3504;0.7492;
94.2000;1.3512;0.7516;
94.5000;1.3496;0.7492;
94.8000;1.3488;0.7446;
95.1000;1.3496;0.7446;
95.4000;1.3488;0.7422;
95.7000;1.3545;0.7562;
96.0000;1.3496;0.7376;
96.3000;1.3504;0.7492;
96.6000;1.3504;0.7586;
96.9000;1.3512;0.7562;
97.2000;1.3496;0.7516;
97.5000;1.3504;0.7492;
97.8000;1.3504;0.7329;
98.1000;1.3504;0.7352;
98.4000;1.3512;0.7376;
98.7000;1.3496;0.7329;
99.0000;1.3504;0.7329;
99.3000;1.3480;0.7306;
99.6000;1.3488;0.7236;
99.9000;1.3488;0.7166;
100.2000;1.3496;0.7212;
100.5000;1.3504;0.7259;
100.8000;1.3561;0.7352;
101.1000;1.3504;0.7259;
101.4000;1.3512;0.7236;
101.7000;1.3521;0.7329;
102.0000;1.3504;0.7352;
102.3000;1.3504;0.7352;
102.6000;1.3496;0.7376;
102.9000;1.3512;0.7492;
103.2000;1.3496;0.7376;
103.5000;1.3512;0.7446;
103.8000;1.3521;0.7516;
104.1000;1.3496;0.7516;
104.4000;1.3521;0.7586;
104.7000;1.3480;0.7562;
105.0000;1.3496;0.7609;
105.3000;1.3488;0.7446;
105.6000;1.3496;0.7492;
105.9000;1.3537;0.7609;
106.2000;1.3504;0.7516;
106.5000;1.3537;0.7492;
106.8000;1.3529;0.7516;
107.1000;1.3496;0.7469;
107.4000;1.3415;0.7236;
107.7000;1.3504;0.7422;
108.0000;1.3512;0.7422;
108.3000;1.3521;0.7446;
108.6000;1.3496;0.7399;
108.9000;1.3472;0.7352;
109.2000;1.3504;0.7492;
109.5000;1.3512;0.7352;
109.8000;1.3504;0.7399;
110.1000;1.3455;0.7282;
110.4000;1.3578;0.7632;
110.7000;1.3504;0.7609;
111.0000;1.3504;0.7586;
111.3000;1.3504;0.7632;
111.6000;1.3480;0.7516;
111.9000;1.3553;0.7702;
112.2000;1.3512;0.7539;
112.5000;1.3455;0.7376;
112.8000;1.3496;0.7469;
113.1000;1.3464;0.7422;
113.4000;1.3545;0.7632;
113.7000;1.3488;0.7492;
114.0000;1.3488;0.7422;
114.3000;1.3488;0.7446;
114.6000;1.3496;0.7492;
114.9000;1.3496;0.7609;
115.2000;1.3472;0.7539;
115.5000;1.3488;0.7422;
115.8000;1.3488;0.7446;
116.1000;1.3488;0.7422;
116.4000;1.3504;0.7446;
116.7000;1.3488;0.7399;
117.0000;1.3496;0.7469;
117.3000;1.3480;0.7352;
117.6000;1.3488;0.7352;
117.9000;1.3480;0.7282;
118.2000;1.3521;0.7376;
118.5000;1.3488;0.7329;
118.8000;1.3488;0.7352;
119.1000;1.3488;0.7329;
119.4000;1.3480;0.7446;
119.7000;1.3504;0.7539;
120.0000;1.3504;0.7516;
120.3000;1.3504;0.7492;
120.6000;1.3496;0.7539;
120.9000;1.3504;0.7446;
121.2000;1.3521;0.7492;
121.5000;1.3496;0.7399;
121.8000;1.3496;0.7422;
122.1000;1.3504;0.7446;
122.4000;1.3480;0.7399;
122.7000;1.3504;0.7469;
123.0000;1.3504;0.7492;
123.3000;1.3610;0.7702;
123.6000;1.3504;0.7469;
123.9000;1.3521;0.7446;
124.2000;1.3512;0.7376;
124.5000;1.3512;0.7399;
124.8000;1.3496;0.7422;
125.1000;1.3521;0.7446;
125.4000;1.3504;0.7446;
125.7000;1.3496;0.7446;
126.0000;1.3545;0.7539;
126.3000;1.3512;0.7469;
126.6000;1.3504;0.7516;
126.9000;1.3529;0.7539;
127.2000;1.3496;0.7516;
127.5000;1.3480;0.7609;
127.8000;1.3496;0.7656;
128.1000;1.3480;0.7656;
128.4000;1.3480;0.7656;
128.7000;1.3480;0.7656;
129.0000;1.3488;0.7609;
129.3000;1.3488;0.7632;
129.6000;1.3488;0.7726;
129.9000;1.3480;0.7656;
130.2000;1.3455;0.7632;
130.5000;1.3480;0.7656;
130.8000;1.3480;0.7702;
131.1000;1.3488;0.7632;
131.4000;1.3569;0.7912;
131.7000;1.3488;0.7679;
132.0000;1.3512;0.7772;
132.3000;1.3521;0.7702;
132.6000;1.3545;0.7702;
132.9000;1.3496;0.7609;
133.2000;1.3480;0.7562;
133.5000;1.3447;0.7352;
133.8000;1.3488;0.7446;
134.1000;1.3529;0.7446;
134.4000;1.3545;0.7492;
134.7000;1.3504;0.7376;
135.0000;1.3512;0.7282;
135.3000;1.3488;0.7282;
135.6000;1.3488;0.7236;
135.9000;1.3504;0.7282;
136.2000;1.3504;0.7329;
136.5000;1.3496;0.7306;
136.8000;1.3504;0.7306;
137.1000;1.3472;0.7212;
137.4000;1.3504;0.7306;
137.7000;1.3504;0.7446;
138.0000;1.3488;0.7422;
138.3000;1.3504;0.7376;
138.6000;1.3496;0.7376;
138.9000;1.3594;0.7586;
139.2000;1.3488;0.7329;
139.5000;1.3488;0.7422;
139.8000;1.3488;0.7352;
140.1000;1.3472;0.7399;
140.4000;1.3455;0.7446;
140.7000;1.3480;0.7492;
141.0000;1.3472;0.7399;
141.3000;1.3488;0.7446;
141.6000;1.3496;0.7422;
141.9000;1.3472;0.7376;
142.2000;1.3480;0.7399;
142.5000;1.3504;0.7469;
142.8000;1.3504;0.7446;
143.1000;1.3472;0.7399;
143.4000;1.3455;0.7352;
143.7000;1.3488;0.7376;
144.0000;1.3472;0.7446;
144.3000;1.3488;0.7562;
144.6000;1.3464;0.7586;
144.9000;1.3504;0.7632;
145.2000;1.3480;0.7609;
145.5000;1.3496;0.7679;
145.8000;1.3488;0.7656;
146.1000;1.3472;0.7562;
146.4000;1.3480;0.7609;
146.7000;1.3488;0.7656;
147.0000;1.3504;0.7702;
147.3000;1.3472;0.7586;
147.6000;1.3472;0.7632;
147.9000;1.3488;0.7679;
148.2000;1.3496;0.7679;
148.5000;1.3504;0.7702;
148.8000;1.3504;0.7679;
149.1000;1.3496;0.7632;
149.4000;1.3496;0.7656;
149.7000;1.3496;0.7586;
150.0000;1.3602;0.7796;
150.3000;1.3496;0.7656;
150.6000;1.3553;0.7726;
150.9000;1.3504;0.7609;
151.2000;1.3480;0.7539;
151.5000;1.3455;0.7469;
151.8000;1.3521;0.7679;
152.1000;1.3447;0.7516;
152.4000;1.3464;0.7562;
152.7000;1.3472;0.7656;
153.0000;1.3480;0.7656;
153.3000;1.3447;0.7586;
153.6000;1.3488;0.7632;
153.9000;1.3455;0.7469;
154.2000;1.3472;0.7492;
154.5000;1.3488;0.7469;
154.8000;1.3447;0.7306;
155.1000;1.3472;0.7399;
155.4000;1.3480;0.7329;
155.7000;1.3480;0.7446;
156.0000;1.3561;0.7679;
156.3000;1.3488;0.7422;
156.6000;1.3464;0.7469;
156.9000;1.3488;0.7469;
157.2000;1.3480;0.7492;
157.5000;1.3488;0.7399;
157.8000;1.3480;0.7399;
158.1000;1.3488;0.7446;
158.4000;1.3504;0.7492;
158.7000;1.3488;0.7516;
159.0000;1.3480;0.7492;
159.3000;1.3480;0.7539;
159.6000;1.3504;0.7516;
159.9000;1.3504;0.7516;
160.2000;1.3480;0.7562;
160.5000;1.3496;0.7609;
160.8000;1.3488;0.7609;
161.1000;1.3553;0.7656;
161.4000;1.3488;0.7562;
161.7000;1.3504;0.7539;
162.0000;1.3480;0.7609;
162.3000;1.3488;0.7562;
162.6000;1.3488;0.7469;
162.9000;1.3488;0.7516;
163.2000;1.3504;0.7632;
163.5000;1.3480;0.7586;
163.8000;1.3472;0.7516;
164.1000;1.3496;0.7562;
164.4000;1.3480;0.7539;
164.7000;1.3488;0.7586;
165.0000;1.3472;0.7516;
165.3000;1.3504;0.7609;
165.6000;1.3512;0.7539;
165.9000;1.3488;0.7492;
166.2000;1.3488;0.7446;
166.5000;1.3480;0.7469;
166.8000;1.3488;0.7446;
167.1000;1.3496;0.7539;
167.4000;1.3488;0.7562;
167.7000;1.3472;0.7562;
168.0000;1.3464;0.7539;
168.3000;1.3472;0.7492;
168.6000;1.3464;0.7516;
168.9000;1.3488;0.7562;
169.2000;1.3472;0.7492;
169.5000;1.3496;0.7469;
169.8000;1.3512;0.7492;
170.1000;1.3488;0.7492;
170.4000;1.3504;0.7609;
170.7000;1.3480;0.7586;
171.0000;1.3512;0.7632;
171.3000;1.3496;0.7632;
171.6000;1.3569;0.7842;
171.9000;1.3488;0.7702;
172.2000;1.3480;0.7656;
172.5000;1.3455;0.7632;
172.8000;1.3455;0.7609;
173.1000;1.3480;0.7609;
173.4000;1.3488;0.7562;
173.7000;1.3512;0.7609;
174.0000;1.3464;0.7492;
174.3000;1.3464;0.7422;
174.6000;1.3472;0.7469;
174.9000;1.3496;0.7492;
175.2000;1.3488;0.7376;
175.5000;1.3464;0.7399;
175.8000;1.3455;0.7352;
176.1000;1.3439;0.7282;
176.4000;1.3464;0.7376;
176.7000;1.3472;0.7376;
177.0000;1.3455;0.7352;
177.3000;1.3464;0.7352;
177.6000;1.3488;0.7376;
177.9000;1.3480;0.7399;
178.2000;1.3472;0.7376;
178.5000;1.3488;0.7422;
178.8000;1.3472;0.7399;
179.1000;1.3464;0.7422;
179.4000;1.3390;0.7166;
179.7000;1.3455;0.7212;
180.0000;1.3504;0.7329;
180.3000;1.3496;0.7329;
180.6000;1.3496;0.7376;
180.9000;1.3480;0.7469;
181.2000;1.3480;0.7469;
181.5000;1.3488;0.7469;
181.8000;1.3464;0.7469;
182.1000;1.3488;0.7492;
182.4000;1.3480;0.7586;
182.7000;1.3488;0.7656;
183.0000;1.3480;0.7632;
183.3000;1.3472;0.7586;
183.6000;1.3464;0.7562;
183.9000;1.3480;0.7586;
184.2000;1.3480;0.7609;
184.5000;1.3488;0.7586;
184.8000;1.3488;0.7539;
185.1000;1.3464;0.7469;
185.4000;1.3472;0.7469;
185.7000;1.3472;0.7492;
186.0000;1.3464;0.7516;
186.3000;1.3472;0.7562;
186.6000;1.3455;0.7516;
186.9000;1.3472;0.7539;
187.2000;1.3455;0.7609;
187.5000;1.3464;0.7679;
187.8000;1.3455;0.7796;
188.1000;1.3464;0.7749;
188.4000;1.3472;0.7702;
188.7000;1.3455;0.7702;
189.0000;1.3472;0.7632;
189.3000;1.3496;0.7656;
189.6000;1.3472;0.7562;
189.9000;1.3472;0.7469;
190.2000;1.3398;0.7259;
190.5000;1.3480;0.7446;
190.8000;1.3464;0.7562;
191.1000;1.3472;0.7539;
191.4000;1.3464;0.7562;
191.7000;1.3480;0.7492;
192.0000;1.3455;0.7469;
192.3000;1.3480;0.7446;
192.6000;1.3472;0.7539;
192.9000;1.3472;0.7609;
193.2000;1.3464;0.7632;
193.5000;1.3455;0.7656;
193.8000;1.3480;0.7796;
194.1000;1.3480;0.7772;
194.4000;1.3480;0.7749;
194.7000;1.3464;0.7632;
195.0000;1.3480;0.7632;
195.3000;1.3464;0.7562;
195.6000;1.3504;0.7586;
195.9000;1.3480;0.7656;
196.2000;1.3472;0.7609;
196.5000;1.3488;0.7609;
196.8000;1.3488;0.7516;
197.1000;1.3480;0.7539;
197.4000;1.3472;0.7539;
197.7000;1.3472;0.7562;
198.0000;1.3472;0.7562;
198.3000;1.3496;0.7562;
198.6000;1.3455;0.7586;
198.9000;1.3447;0.7586;
199.2000;1.3447;0.7562;
199.5000;1.3488;0.7609;
199.8000;1.3455;0.7446;
200.1000;1.3447;0.7352;
200.4000;1.3455;0.7376;
200.7000;1.3464;0.7469;
201.0000;1.3480;0.7469;
201.3000;1.3455;0.7399;
201.6000;1.3464;0.7469;
201.9000;1.3480;0.7492;
202.2000;1.3464;0.7469;
202.5000;1.3480;0.7539;
202.8000;1.3455;0.7516;
203.1000;1.3480;0.7539;
203.4000;1.3488;0.7516;
203.7000;1.3496;0.7586;
204.0000;1.3480;0.7562;
204.3000;1.3464;0.7516;
204.6000;1.3472;0.7562;
204.9000;1.3472;0.7562;
205.2000;1.3480;0.7562;
205.5000;1.3472;0.7562;
205.8000;1.3472;0.7562;
206.1000;1.3480;0.7586;
206.4000;1.3472;0.7516;
206.7000;1.3472;0.7609;
207.0000;1.3472;0.7632;
207.3000;1.3488;0.7702;
207.6000;1.3464;0.7632;
207.9000;1.3431;0.7469;
208.2000;1.3472;0.7469;
208.5000;1.3447;0.7352;
208.8000;1.3464;0.7329;
209.1000;1.3480;0.7329;
209.4000;1.3455;0.7376;
209.7000;1.3480;0.7399;
210.0000;1.3480;0.7469;
210.3000;1.3447;0.7446;
210.6000;1.3455;0.7469;
210.9000;1.3472;0.7516;
211.2000;1.3488;0.7492;
211.5000;1.3472;0.7516;
211.8000;1.3455;0.7446;
212.1000;1.3472;0.7446;
212.4000;1.3480;0.7539;
212.7000;1.3472;0.7516;
213.0000;1.3472;0.7562;
213.3000;1.3447;0.7469;
213.6000;1.3480;0.7492;
213.9000;1.3472;0.7516;
214.2000;1.3431;0.7492;
214.5000;1.3447;0.7469;
214.8000;1.3472;0.7469;
215.1000;1.3464;0.7492;
215.4000;1.3488;0.7516;
215.7000;1.3464;0.7399;
216.0000;1.3480;0.7446;
216.3000;1.3464;0.7446;
216.6000;1.3504;0.7609;
216.9000;1.3455;0.7492;
217.2000;1.3455;0.7539;
217.5000;1.3488;0.7609;
217.8000;1.3521;0.7632;
218.1000;1.3480;0.7609;
218.4000;1.3480;0.7656;
218.7000;1.3480;0.7632;
219.0000;1.3472;0.7562;
219.3000;1.3480;0.7632;
219.6000;1.3472;0.7609;
219.9000;1.3480;0.7609;
220.2000;1.3464;0.7586;
220.5000;1.3480;0.7516;
220.8000;1.3464;0.7516;
221.1000;1.3472;0.7562;
221.4000;1.3464;0.7562;
221.7000;1.3455;0.7609;
222.0000;1.3455;0.7632;
222.3000;1.3464;0.7702;
222.6000;1.3496;0.7726;
222.9000;1.3480;0.7772;
223.2000;1.3464;0.7702;
223.5000;1.3464;0.7726;
223.8000;1.3472;0.7656;
224.1000;1.3455;0.7562;
224.4000;1.3464;0.7586;
224.7000;1.3455;0.7516;
225.0000;1.3472;0.7352;
225.3000;1.3415;0.7236;
225.6000;1.3464;0.7352;
225.9000;1.3464;0.7422;
226.2000;1.3472;0.7399;
226.5000;1.3431;0.7352;
226.8000;1.3472;0.7492;
227.1000;1.3455;0.7469;
227.4000;1.3480;0.7492;
227.7000;1.3480;0.7586;
228.0000;1.3480;0.7656;
228.3000;1.3472;0.7562;
228.6000;1.3464;0.7632;
228.9000;1.3431;0.7539;
229.2000;1.3480;0.7632;
229.5000;1.3455;0.7562;
229.8000;1.3464;0.7586;
230.1000;1.3529;0.7749;
230.4000;1.3480;0.7586;
230.7000;1.3488;0.7539;
231.0000;1.3537;0.7586;
231.3000;1.3472;0.7422;
231.6000;1.3455;0.7446;
231.9000;1.3472;0.7446;
232.2000;1.3447;0.7422;
232.5000;1.3464;0.7539;
232.8000;1.3455;0.7516;
233.1000;1.3464;0.7539;
233.4000;1.3472;0.7562;
233.7000;1.3455;0.7399;
234.0000;1.3472;0.7399;
234.3000;1.3480;0.7446;
234.6000;1.3480;0.7422;
234.9000;1.3455;0.7422;
235.2000;1.3447;0.7492;
235.5000;1.3480;0.7609;
235.8000;1.3455;0.7609;
236.1000;1.3447;0.7609;
236.4000;1.3464;0.7609;
236.7000;1.3455;0.7609;
237.0000;1.3464;0.7586;
237.3000;1.3439;0.7539;
237.6000;1.3447;0.7586;
237.9000;1.3464;0.7609;
238.2000;1.3447;0.7539;
238.5000;1.3464;0.7609;
238.8000;1.3423;0.7539;
239.1000;1.3480;0.7632;
239.4000;1.3488;0.7679;
239.7000;1.3496;0.7726;
240.0000;1.3480;0.7772;
240.3000;1.3472;0.7796;
240.6000;1.3496;0.7749;
240.9000;1.3496;0.7726;
241.2000;1.3488;0.7656;
241.5000;1.3488;0.7679;
241.8000;1.3496;0.7726;
242.1000;1.3472;0.7656;
242.4000;1.3455;0.7586;
242.7000;1.3464;0.7656;
243.0000;1.3447;0.7609;
243.3000;1.3447;0.7586;
243.6000;1.3447;0.7586;
243.9000;1.3455;0.7632;
244.2000;1.3472;0.7609;
244.5000;1.3464;0.7562;
244.8000;1.3472;0.7586;
245.1000;1.3472;0.7539;
245.4000;1.3480;0.7539;
245.7000;1.3480;0.7422;
246.0000;1.3480;0.7446;
246.3000;1.3455;0.7469;
246.6000;1.3455;0.7469;
246.9000;1.3455;0.7282;
247.2000;1.3464;0.7306;
247.5000;1.3455;0.7352;
247.8000;1.3472;0.7516;
248.1000;1.3415;0.7422;
248.4000;1.3464;0.7492;
248.7000;1.3447;0.7539;
249.0000;1.3439;0.7539;
249.3000;1.3496;0.7632;
249.6000;1.3407;0.7422;
249.9000;1.3447;0.7516;
250.2000;1.3455;0.7446;
250.5000;1.3455;0.7376;
250.8000;1.3455;0.7469;
251.1000;1.3472;0.7516;
251.4000;1.3464;0.7516;
251.7000;1.3472;0.7492;
252.0000;1.3464;0.7492;
252.3000;1.3472;0.7516;
252.6000;1.3480;0.7539;
252.9000;1.3439;0.7469;
253.2000;1.3455;0.7422;
253.5000;1.3464;0.7399;
253.8000;1.3480;0.7376;
254.1000;1.3480;0.7376;
254.4000;1.3472;0.7376;
254.7000;1.3423;0.7236;
255.0000;1.3480;0.7306;
255.3000;1.3480;0.7282;
255.6000;1.3464;0.7306;
255.9000;1.3480;0.7399;
256.2000;1.3455;0.7492;
256.5000;1.3464;0.7492;
256.8000;1.3455;0.7492;
257.1000;1.3464;0.7516;
257.4000;1.3464;0.7469;
257.7000;1.3480;0.7562;
258.0000;1.3455;0.7562;
258.3000;1.3439;0.7609;
258.6000;1.3472;0.7516;
258.9000;1.3439;0.7376;
259.2000;1.3447;0.7399;
259.5000;1.3447;0.7399;
259.8000;1.3439;0.7446;
260.1000;1.3472;0.7516;
260.4000;1.3447;0.7539;
260.7000;1.3464;0.7609;
261.0000;1.3464;0.7679;
261.3000;1.3447;0.7679;
261.6000;1.3464;0.7679;
261.9000;1.3480;0.7726;
262.2000;1.3464;0.7656;
262.5000;1.3472;0.7702;
262.8000;1.3464;0.7679;
263.1000;1.3447;0.7609;
263.4000;1.3464;0.7702;
263.7000;1.3423;0.7656;
264.0000;1.3455;0.7702;
264.3000;1.3447;0.7702;
264.6000;1.3447;0.7656;
264.9000;1.3464;0.7656;
265.2000;1.3455;0.7609;
265.5000;1.3455;0.7609;
265.8000;1.3455;0.7702;
266.1000;1.3472;0.7702;
266.4000;1.3464;0.7679;
266.7000;1.3521;0.7772;
267.0000;1.3472;0.7702;
267.3000;1.3439;0.7632;
267.6000;1.3447;0.7609;
267.9000;1.3455;0.7632;
268.2000;1.3464;0.7632;
268.5000;1.3447;0.7586;
268.8000;1.3464;0.7632;
269.1000;1.3439;0.7609;
269.4000;1.3439;0.7632;
269.7000;1.3496;0.7772;
270.0000;1.3512;0.7772;
270.3000;1.3455;0.7562;
270.6000;1.3553;0.7726;
270.9000;1.3447;0.7492;
271.2000;1.3455;0.7516;
271.5000;1.3464;0.7516;
271.8000;1.3464;0.7492;
272.1000;1.3464;0.7422;
272.4000;1.3464;0.7352;
272.7000;1.3480;0.7376;
273.0000;1.3472;0.7376;
273.3000;1.3472;0.7446;
273.6000;1.3480;0.7516;
273.9000;1.3464;0.7399;
274.2000;1.3464;0.7236;
274.5000;1.3455;0.7189;
274.8000;1.3472;0.7352;
275.1000;1.3447;0.7282;
275.4000;1.3480;0.7329;
275.7000;1.3455;0.7282;
276.0000;1.3455;0.7259;
276.3000;1.3447;0.7329;
276.6000;1.3504;0.7399;
276.9000;1.3488;0.7352;
277.2000;1.3455;0.7329;
277.5000;1.3488;0.7376;
277.8000;1.3480;0.7306;
278.1000;1.3472;0.7282;
278.4000;1.3464;0.7306;
278.7000;1.3464;0.7212;
279.0000;1.3455;0.7212;
279.3000;1.3455;0.7189;
279.6000;1.3464;0.7212;
279.9000;1.3439;0.7189;
280.2000;1.3455;0.7189;
280.5000;1.3464;0.7212;
280.8000;1.3447;0.7259;
281.1000;1.3447;0.7282;
281.4000;1.3431;0.7259;
281.7000;1.3439;0.7306;
282.0000;1.3447;0.7399;
282.3000;1.3464;0.7352;
282.6000;1.3480;0.7446;
282.9000;1.3512;0.7562;
283.2000;1.3472;0.7492;
283.5000;1.3464;0.7446;
283.8000;1.3464;0.7469;
284.1000;1.3464;0.7539;
284.4000;1.3488;0.7562;
284.7000;1.3447;0.7539;
285.0000;1.3439;0.7492;
285.3000;1.3423;0.7376;
285.6000;1.3439;0.7446;
285.9000;1.3439;0.7469;
286.2000;1.3423;0.7446;
286.5000;1.3447;0.7492;
286.8000;1.3455;0.7516;
287.1000;1.3464;0.7446;
287.4000;1.3464;0.7469;
287.7000;1.3423;0.7376;
288.0000;1.3464;0.7376;
288.3000;1.3464;0.7492;
288.6000;1.3464;0.7492;
288.9000;1.3447;0.7399;
289.2000;1.3480;0.7562;
289.5000;1.3464;0.7562;
289.8000;1.3407;0.7492;
290.1000;1.3398;0.7399;
290.4000;1.3439;0.7586;
290.7000;1.3439;0.7586;
291.0000;1.3455;0.7539;
291.3000;1.3439;0.7562;
291.6000;1.3382;0.7399;
291.9000;1.3431;0.7492;
292.2000;1.3529;0.7726;
292.5000;1.3464;0.7609;
292.8000;1.3390;0.7399;
293.1000;1.3447;0.7469;
293.4000;1.3455;0.7539;
293.7000;1.3455;0.7562;
294.0000;1.3455;0.7562;
294.3000;1.3455;0.7609;
294.6000;1.3398;0.7446;
294.9000;1.3447;0.7516;
295.2000;1.3447;0.7446;
295.5000;1.3455;0.7469;
295.8000;1.3431;0.7562;
296.1000;1.3455;0.7586;
296.4000;1.3447;0.7562;
296.7000;1.3431;0.7539;
297.0000;1.3439;0.7586;
297.3000;1.3455;0.7609;
297.6000;1.3439;0.7562;
297.9000;1.3439;0.7609;
298.2000;1.3439;0.7516;
298.5000;1.3447;0.7562;
298.8000;1.3488;0.7656;
299.1000;1.3455;0.7516;
299.4000;1.3464;0.7516;
299.7000;1.3480;0.7516;
300.0000;1.3447;0.7516;
300.3000;1.3447;0.7516;
300.6000;1.3496;0.7632;
300.9000;1.3472;0.7632;
301.2000;1.3455;0.7632;
301.5000;1.3431;0.7562;
301.8000;1.3423;0.7516;
302.1000;1.3431;0.7492;
302.4000;1.3366;0.7352;
302.7000;1.3472;0.7609;
303.0000;1.3439;0.7516;
303.3000;1.3447;0.7539;
303.6000;1.3447;0.7539;
303.9000;1.3455;0.7492;
304.2000;1.3439;0.7539;
304.5000;1.3431;0.7469;
304.8000;1.3431;0.7422;
305.1000;1.3447;0.7446;
305.4000;1.3455;0.7422;
305.7000;1.3431;0.7446;
306.0000;1.3455;0.7492;
306.3000;1.3472;0.7562;
306.6000;1.3464;0.7609;
306.9000;1.3398;0.7516;
307.2000;1.3488;0.7772;
307.5000;1.3455;0.7702;
307.8000;1.3455;0.7609;
308.1000;1.3439;0.7516;
308.4000;1.3455;0.7586;
308.7000;1.3374;0.7329;
309.0000;1.3464;0.7609;
309.3000;1.3431;0.7609;
309.6000;1.3455;0.7516;
309.9000;1.3455;0.7376;
310.2000;1.3480;0.7422;
310.5000;1.3472;0.7492;
310.8000;1.3439;0.7446;
311.1000;1.3464;0.7492;
311.4000;1.3496;0.7586;
311.7000;1.3464;0.7539;
312.0000;1.3431;0.7539;
312.3000;1.3431;0.7446;
312.6000;1.3447;0.7469;
312.9000;1.3439;0.7539;
313.2000;1.3431;0.7539;
313.5000;1.3439;0.7492;
313.8000;1.3455;0.7492;
314.1000;1.3455;0.7492;
314.4000;1.3447;0.7422;
314.7000;1.3455;0.7469;
315.0000;1.3447;0.7586;
315.3000;1.3455;0.7632;
315.6000;1.3464;0.7632;
315.9000;1.3447;0.7632;
316.2000;1.3447;0.7562;
316.5000;1.3464;0.7632;
316.8000;1.3447;0.7609;
317.1000;1.3455;0.7609;
317.4000;1.3431;0.7586;
317.7000;1.3447;0.7586;
318.0000;1.3439;0.7539;
318.3000;1.3455;0.7516;
318.6000;1.3439;0.7492;
318.9000;1.3455;0.7492;
319.2000;1.3455;0.7446;
319.5000;1.3504;0.7586;
319.8000;1.3464;0.7516;
320.1000;1.3472;0.7609;
320.4000;1.3415;0.7469;
320.7000;1.3472;0.7539;
321.0000;1.3464;0.7516;
321.3000;1.3464;0.7586;
321.6000;1.3488;0.7656;
321.9000;1.3447;0.7562;
322.2000;1.3447;0.7609;
322.5000;1.3447;0.7609;
322.8000;1.3431;0.7632;
323.1000;1.3415;0.7539;
323.4000;1.3431;0.7586;
323.7000;1.3439;0.7562;
324.0000;1.3398;0.7446;
324.3000;1.3464;0.7562;
324.6000;1.3472;0.7469;
324.9000;1.3423;0.7376;
325.2000;1.3464;0.7376;
325.5000;1.3439;0.7376;
325.8000;1.3455;0.7422;
326.1000;1.3439;0.7376;
326.4000;1.3439;0.7376;
326.7000;1.3455;0.7306;
327.0000;1.3464;0.7282;
327.3000;1.3439;0.7119;
327.6000;1.3439;0.7142;
327.9000;1.3455;0.7212;
328.2000;1.3447;0.7259;
328.5000;1.3431;0.7212;
328.8000;1.3439;0.7189;
329.1000;1.3455;0.7212;
329.4000;1.3464;0.7306;
329.7000;1.3439;0.7282;
330.0000;1.3439;0.7329;
330.3000;1.3464;0.7469;
330.6000;1.3455;0.7492;
330.9000;1.3447;0.7609;
331.2000;1.3472;0.7726;
331.5000;1.3447;0.7679;
331.8000;1.3472;0.7679;
332.1000;1.3455;0.7702;
332.4000;1.3407;0.7539;
332.7000;1.3447;0.7516;
333.0000;1.3455;0.7469;
333.3000;1.3447;0.7399;
333.6000;1.3431;0.7422;
333.9000;1.3439;0.7446;
334.2000;1.3455;0.7539;
334.5000;1.3464;0.7562;
334.8000;1.3455;0.7469;
335.1000;1.3480;0.7516;
335.4000;1.3488;0.7562;
335.7000;1.3464;0.7516;
336.0000;1.3431;0.7422;
336.3000;1.3447;0.7399;
336.6000;1.3455;0.7399;
336.9000;1.3431;0.7376;
337.2000;1.3455;0.7352;
337.5000;1.3455;0.7352;
337.8000;1.3480;0.7422;
338.1000;1.3472;0.7376;
338.4000;1.3439;0.7352;
338.7000;1.3447;0.7422;
339.0000;1.3423;0.7399;
339.3000;1.3366;0.7189;
339.6000;1.3496;0.7469;
339.9000;1.3455;0.7399;
340.2000;1.3496;0.7516;
340.5000;1.3439;0.7446;
340.8000;1.3431;0.7516;
341.1000;1.3439;0.7586;
341.4000;1.3439;0.7609;
341.7000;1.3415;0.7656;
342.0000;1.3407;0.7632;
342.3000;1.3455;0.7796;
342.6000;1.3464;0.7842;
342.9000;1.3455;0.7726;
343.2000;1.3464;0.7796;
343.5000;1.3455;0.7796;
343.8000;1.3521;0.7936;
344.1000;1.3431;0.7819;
344.4000;1.3480;0.7866;
344.7000;1.3439;0.7726;
345.0000;1.3447;0.7656;
345.3000;1.3431;0.7702;
345.6000;1.3390;0.7586;
345.9000;1.3472;0.7726;
346.2000;1.3464;0.7609;
346.5000;1.3431;0.7609;
346.8000;1.3439;0.7632;
347.1000;1.3423;0.7586;
347.4000;1.3472;0.7656;
347.7000;1.3464;0.7609;
348.0000;1.3415;0.7492;
348.3000;1.3455;0.7539;
348.6000;1.3423;0.7539;
348.9000;1.3496;0.7679;
349.2000;1.3431;0.7539;
349.5000;1.3423;0.7469;
349.8000;1.3431;0.7516;
350.1000;1.3431;0.7516;
350.4000;1.3431;0.7516;
350.7000;1.3439;0.7516;
351.0000;1.3439;0.7562;
351.3000;1.3431;0.7562;
351.6000;1.3455;0.7609;
351.9000;1.3447;0.7539;
352.2000;1.3464;0.7586;
352.5000;1.3447;0.7516;
352.8000;1.3439;0.7469;
353.1000;1.3431;0.7516;
353.4000;1.3439;0.7492;
353.7000;1.3455;0.7586;
354.0000;1.3423;0.7516;
354.3000;1.3439;0.7539;
354.6000;1.3439;0.7656;
354.9000;1.3431;0.7632;
355.2000;1.3431;0.7539;
355.5000;1.3415;0.7492;
355.8000;1.3407;0.7539;
356.1000;1.3431;0.7656;
356.4000;1.3439;0.7749;
356.7000;1.3447;0.7772;
357.0000;1.3423;0.7702;
357.3000;1.3423;0.7702;
357.6000;1.3439;0.7726;
357.9000;1.3431;0.7702;
358.2000;1.3431;0.7632;
358.5000;1.3439;0.7539;
358.8000;1.3423;0.7446;
359.1000;1.3455;0.7469;
359.4000;1.3464;0.7422;
359.7000;1.3447;0.7446;
360.0000;1.3439;0.7422;
360.3000;1.3455;0.7632;
360.6000;1.3431;0.7586;
360.9000;1.3439;0.7492;
361.2000;1.3423;0.7446;
361.5000;1.3423;0.7562;
361.8000;1.3423;0.7562;
362.1000;1.3455;0.7656;
362.4000;1.3431;0.7632;
362.7000;1.3431;0.7609;
363.0000;1.3431;0.7656;
363.3000;1.3423;0.7702;
363.6000;1.3439;0.7632;
363.9000;1.3447;0.7702;
364.2000;1.3439;0.7632;
364.5000;1.3455;0.7656;
364.8000;1.3431;0.7609;
365.1000;1.3472;0.7749;
365.4000;1.3447;0.7702;
365.7000;1.3431;0.7679;
366.0000;1.3415;0.7656;
366.3000;1.3423;0.7586;
366.6000;1.3439;0.7539;
366.9000;1.3447;0.7422;
367.2000;1.3439;0.7469;
367.5000;1.3423;0.7446;
367.8000;1.3439;0.7516;
368.1000;1.3447;0.7586;
368.4000;1.3431;0.7679;
368.7000;1.3439;0.7656;
369.0000;1.3439;0.7539;
369.3000;1.3447;0.7539;
369.6000;1.3439;0.7516;
369.9000;1.3447;0.7516;
370.2000;1.3455;0.7492;
370.5000;1.3407;0.7469;
370.8000;1.3447;0.7586;
371.1000;1.3439;0.7656;
371.4000;1.3439;0.7586;
371.7000;1.3455;0.7469;
372.0000;1.3447;0.7446;
372.3000;1.3439;0.7492;
372.6000;1.3431;0.7446;
372.9000;1.3431;0.7399;
373.2000;1.3423;0.7422;
373.5000;1.3431;0.7399;
373.8000;1.3415;0.7329;
374.1000;1.3439;0.7329;
374.4000;1.3439;0.7376;
374.7000;1.3447;0.7352;
375.0000;1.3431;0.7329;
375.3000;1.3447;0.7329;
375.6000;1.3415;0.7282;
375.9000;1.3439;0.7306;
376.2000;1.3439;0.7376;
376.5000;1.3439;0.7376;
376.8000;1.3447;0.7516;
377.1000;1.3439;0.7492;
377.4000;1.3455;0.7539;
377.7000;1.3512;0.7679;
378.0000;1.3439;0.7539;
378.3000;1.3439;0.7609;
378.6000;1.3423;0.7516;
378.9000;1.3382;0.7306;
379.2000;1.3439;0.7399;
379.5000;1.3439;0.7492;
379.8000;1.3439;0.7446;
380.1000;1.3431;0.7352;
380.4000;1.3423;0.7306;
380.7000;1.3439;0.7352;
381.0000;1.3447;0.7329;
381.3000;1.3431;0.7212;
381.6000;1.3431;0.7212;
381.9000;1.3439;0.7329;
382.2000;1.3423;0.7259;
382.5000;1.3439;0.7212;
382.8000;1.3350;0.7072;
383.1000;1.3431;0.7306;
383.4000;1.3447;0.7376;
383.7000;1.3431;0.7352;
384.0000;1.3439;0.7352;
384.3000;1.3447;0.7446;
384.6000;1.3431;0.7376;
384.9000;1.3439;0.7516;
385.2000;1.3423;0.7562;
385.5000;1.3431;0.7562;
385.8000;1.3431;0.7609;
386.1000;1.3398;0.7516;
386.4000;1.3423;0.7562;
386.7000;1.3431;0.7492;
387.0000;1.3341;0.7329;
387.3000;1.3447;0.7586;
387.6000;1.3512;0.7772;
387.9000;1.3464;0.7586;
388.2000;1.3447;0.7516;
388.5000;1.3455;0.7446;
388.8000;1.3415;0.7446;
389.1000;1.3431;0.7539;
389.4000;1.3423;0.7469;
389.7000;1.3447;0.7562;
390.0000;1.3464;0.7586;
390.3000;1.3455;0.7469;
390.6000;1.3447;0.7469;
390.9000;1.3455;0.7516;
391.2000;1.3447;0.7516;
391.5000;1.3431;0.7562;
391.8000;1.3423;0.7492;
392.1000;1.3423;0.7562;
392.4000;1.3455;0.7562;
392.7000;1.3423;0.7492;
393.0000;1.3423;0.7516;
393.3000;1.3415;0.7469;
393.6000;1.3447;0.7516;
393.9000;1.3439;0.7562;
394.2000;1.3423;0.7562;
394.5000;1.3439;0.7702;
394.8000;1.3447;0.7772;
395.1000;1.3439;0.7842;
395.4000;1.3423;0.7819;
395.7000;1.3439;0.7819;
396.0000;1.3439;0.7702;
396.3000;1.3455;0.7656;
396.6000;1.3407;0.7516;
396.9000;1.3423;0.7469;
397.2000;1.3447;0.7539;
397.5000;1.3439;0.7469;
397.8000;1.3439;0.7446;
398.1000;1.3455;0.7492;
398.4000;1.3423;0.7446;
398.7000;1.3431;0.7469;
399.0000;1.3431;0.7492;
399.3000;1.3431;0.7609;
399.6000;1.3431;0.7656;
399.9000;1.3431;0.7586;
400.2000;1.3390;0.7492;
400.5000;1.3431;0.7586;
400.8000;1.3447;0.7656;
401.1000;1.3439;0.7609;
401.4000;1.3415;0.7516;
401.7000;1.3431;0.7469;
402.0000;1.3423;0.7399;
402.3000;1.3415;0.7492;
402.6000;1.3423;0.7469;
402.9000;1.3431;0.7492;
403.2000;1.3407;0.7539;
403.5000;1.3415;0.7586;
403.8000;1.3431;0.7632;
404.1000;1.3431;0.7679;
404.4000;1.3439;0.7679;
404.7000;1.3382;0.7562;
405.0000;1.3423;0.7586;
405.3000;1.3431;0.7562;
405.6000;1.3431;0.7632;
405.9000;1.3439;0.7656;
406.2000;1.3423;0.7656;
406.5000;1.3431;0.7656;
406.8000;1.3423;0.7586;
407.1000;1.3415;0.7562;
407.4000;1.3423;0.7586;
407.7000;1.3447;0.7656;
408.0000;1.3431;0.7609;
408.3000;1.3431;0.7656;
408.6000;1.3431;0.7632;
408.9000;1.3407;0.7562;
409.2000;1.3415;0.7586;
409.5000;1.3431;0.7632;
409.8000;1.3382;0.7516;
410.1000;1.3431;0.7656;
410.4000;1.3431;0.7656;
410.7000;1.3439;0.7749;
411.0000;1.3423;0.7679;
411.3000;1.3407;0.7609;
411.6000;1.3447;0.7586;
411.9000;1.3512;0.7796;
412.2000;1.3447;0.7539;
412.5000;1.3431;0.7469;
412.8000;1.3431;0.7492;
413.1000;1.3455;0.7492;
413.4000;1.3447;0.7492;
413.7000;1.3431;0.7539;
414.0000;1.3423;0.7516;
414.3000;1.3431;0.7516;
414.6000;1.3447;0.7516;
414.9000;1.3423;0.7492;
415.2000;1.3423;0.7516;
415.5000;1.3431;0.7562;
415.8000;1.3439;0.7586;
416.1000;1.3439;0.7586;
416.4000;1.3431;0.7562;
416.7000;1.3455;0.7679;
417.0000;1.3455;0.7586;
417.3000;1.3431;0.7562;
417.6000;1.3431;0.7492;
417.9000;1.3423;0.7469;
418.2000;1.3447;0.7492;
418.5000;1.3431;0.7376;
418.8000;1.3439;0.7469;
419.1000;1.3431;0.7516;
419.4000;1.3447;0.7539;
419.7000;1.3439;0.7562;
420.0000;1.3431;0.7586;
420.3000;1.3423;0.7586;
420.6000;1.3439;0.7632;
420.9000;1.3447;0.7749;
421.2000;1.3431;0.7656;
421.5000;1.3415;0.7586;
421.8000;1.3407;0.7586;
422.1000;1.3431;0.7609;
422.4000;1.3415;0.7562;
422.7000;1.3423;0.7562;
423.0000;1.3447;0.7586;
423.3000;1.3439;0.7492;
423.6000;1.3415;0.7446;
423.9000;1.3415;0.7422;
424.2000;1.3439;0.7516;
424.5000;1.3431;0.7609;
424.8000;1.3439;0.7679;
425.1000;1.3431;0.7586;
425.4000;1.3423;0.7539;
425.7000;1.3455;0.7632;
426.0000;1.3447;0.7656;
426.3000;1.3455;0.7656;
426.6000;1.3439;0.7492;
426.9000;1.3431;0.7516;
427.2000;1.3423;0.7492;
427.5000;1.3431;0.7539;
427.8000;1.3407;0.7609;
428.1000;1.3423;0.7656;
428.4000;1.3504;0.7796;
428.7000;1.3439;0.7656;
429.0000;1.3382;0.7492;
429.3000;1.3439;0.7516;
429.6000;1.3431;0.7562;
429.9000;1.3439;0.7539;
430.2000;1.3431;0.7562;
430.5000;1.3431;0.7516;
430.8000;1.3439;0.7539;
431.1000;1.3455;0.7516;
431.4000;1.3439;0.7446;
431.7000;1.3431;0.7329;
432.0000;1.3447;0.7469;
432.3000;1.3447;0.7492;
432.6000;1.3447;0.7469;
432.9000;1.3439;0.7469;
433.2000;1.3439;0.7539;
433.5000;1.3431;0.7516;
433.8000;1.3431;0.7422;
434.1000;1.3415;0.7352;
434.4000;1.3439;0.7422;
434.7000;1.3415;0.7329;
435.0000;1.3415;0.7422;
435.3000;1.3390;0.7399;
435.6000;1.3423;0.7516;
435.9000;1.3431;0.7492;
436.2000;1.3423;0.7562;
436.5000;1.3423;0.7609;
436.8000;1.3423;0.7609;
437.1000;1.3431;0.7586;
437.4000;1.3439;0.7586;
437.7000;1.3439;0.7562;
438.0000;1.3439;0.7469;
438.3000;1.3439;0.7516;
438.6000;1.3423;0.7446;
438.9000;1.3431;0.7446;
439.2000;1.3480;0.7562;
439.5000;1.3407;0.7422;
439.8000;1.3415;0.7446;
440.1000;1.3423;0.7492;
440.4000;1.3415;0.7586;
440.7000;1.3407;0.7516;
441.0000;1.3415;0.7562;
441.3000;1.3431;0.7609;
441.6000;1.3415;0.7539;
441.9000;1.3415;0.7562;
442.2000;1.3423;0.7586;
442.5000;1.3439;0.7609;
442.8000;1.3423;0.7632;
443.1000;1.3415;0.7562;
443.4000;1.3423;0.7539;
443.7000;1.3407;0.7469;
444.0000;1.3431;0.7492;
444.3000;1.3431;0.7469;
444.6000;1.3407;0.7422;
444.9000;1.3415;0.7469;
445.2000;1.3431;0.7399;
445.5000;1.3390;0.7329;
445.8000;1.3415;0.7469;
446.1000;1.3407;0.7469;
446.4000;1.3415;0.7492;
446.7000;1.3447;0.7469;
447.0000;1.3423;0.7422;
447.3000;1.3423;0.7422;
447.6000;1.3423;0.7422;
447.9000;1.3415;0.7446;
448.2000;1.3447;0.7539;
448.5000;1.3488;0.7539;
448.8000;1.3423;0.7422;
449.1000;1.3415;0.7399;
449.4000;1.3439;0.7352;
449.7000;1.3439;0.7329;
450.0000;1.3431;0.7376;
450.3000;1.3439;0.7516;
450.6000;1.3423;0.7492;
450.9000;1.3423;0.7469;
451.2000;1.3439;0.7492;
451.5000;1.3431;0.7492;
451.8000;1.3431;0.7422;
452.1000;1.3431;0.7376;
452.4000;1.3423;0.7422;
452.7000;1.3439;0.7539;
453.0000;1.3423;0.7586;
453.3000;1.3431;0.7516;
453.6000;1.3431;0.7516;
453.9000;1.3431;0.7469;
454.2000;1.3439;0.7422;
454.5000;1.3439;0.7446;
454.8000;1.3439;0.7376;
455.1000;1.3423;0.7376;
455.4000;1.3431;0.7446;
455.7000;1.3439;0.7446;
456.0000;1.3390;0.7329;
456.3000;1.3423;0.7469;
456.6000;1.3439;0.7399;
456.9000;1.3439;0.7446;
457.2000;1.3423;0.7422;
457.5000;1.3415;0.7376;
457.8000;1.3407;0.7399;
458.1000;1.3431;0.7586;
458.4000;1.3423;0.7656;
458.7000;1.3431;0.7656;
459.0000;1.3431;0.7632;
459.3000;1.3431;0.7609;
459.6000;1.3382;0.7446;
459.9000;1.3366;0.7422;
460.2000;1.3415;0.7516;
460.5000;1.3439;0.7492;
460.8000;1.3431;0.7586;
461.1000;1.3415;0.7632;
461.4000;1.3423;0.7679;
461.7000;1.3423;0.7679;
462.0000;1.3415;0.7702;
462.3000;1.3423;0.7609;
462.6000;1.3423;0.7609;
462.9000;1.3439;0.7609;
463.2000;1.3431;0.7586;
463.5000;1.3439;0.7516;
463.8000;1.3431;0.7469;
464.1000;1.3431;0.7469;
464.4000;1.3431;0.7446;
464.7000;1.3455;0.7469;
465.0000;1.3423;0.7399;
465.3000;1.3415;0.7376;
465.6000;1.3431;0.7469;
465.9000;1.3431;0.7446;
466.2000;1.3431;0.7469;
466.5000;1.3423;0.7469;
466.8000;1.3423;0.7492;
467.1000;1.3423;0.7492;
467.4000;1.3407;0.7469;
467.7000;1.3415;0.7469;
468.0000;1.3423;0.7422;
468.3000;1.3423;0.7446;
468.6000;1.3423;0.7469;
468.9000;1.3423;0.7469;
469.2000;1.3431;0.7516;
469.5000;1.3431;0.7469;
469.8000;1.3423;0.7516;
470.1000;1.3472;0.7562;
470.4000;1.3407;0.7376;
470.7000;1.3423;0.7422;
471.0000;1.3439;0.7352;
471.3000;1.3431;0.7306;
471.6000;1.3423;0.7236;
471.9000;1.3439;0.7352;
472.2000;1.3431;0.7329;
472.5000;1.3423;0.7306;
472.8000;1.3423;0.7399;
473.1000;1.3504;0.7586;
473.4000;1.3464;0.7516;
473.7000;1.3439;0.7352;
474.0000;1.3431;0.7352;
474.3000;1.3455;0.7399;
474.6000;1.3423;0.7306;
474.9000;1.3431;0.7306;
475.2000;1.3439;0.7282;
475.5000;1.3447;0.7329;
475.8000;1.3423;0.7422;
476.1000;1.3439;0.7469;
476.4000;1.3447;0.7539;
476.7000;1.3423;0.7469;
477.0000;1.3423;0.7422;
477.3000;1.3431;0.7352;
477.6000;1.3398;0.7236;
477.9000;1.3374;0.7259;
478.2000;1.3447;0.7422;
478.5000;1.3398;0.7352;
478.8000;1.3398;0.7446;
479.1000;1.3407;0.7516;
479.4000;1.3407;0.7586;
479.7000;1.3415;0.7492;
480.0000;1.3415;0.7539;
480.3000;1.3415;0.7586;
480.6000;1.3407;0.7539;
480.9000;1.3407;0.7586;
481.2000;1.3407;0.7609;
481.5000;1.3431;0.7586;
481.8000;1.3398;0.7469;
482.1000;1.3415;0.7446;
482.4000;1.3415;0.7516;
482.7000;1.3423;0.7539;
483.0000;1.3407;0.7469;
483.3000;1.3398;0.7492;
483.6000;1.3398;0.7446;
483.9000;1.3407;0.7469;
484.2000;1.3423;0.7492;
484.5000;1.3415;0.7422;
484.8000;1.3390;0.7376;
485.1000;1.3431;0.7376;
485.4000;1.3415;0.7352;
485.7000;1.3423;0.7376;
486.0000;1.3423;0.7446;
486.3000;1.3423;0.7562;
486.6000;1.3447;0.7609;
486.9000;1.3431;0.7609;
487.2000;1.3423;0.7539;
487.5000;1.3407;0.7562;
487.8000;1.3407;0.7562;
488.1000;1.3423;0.7516;
488.4000;1.3407;0.7492;
488.7000;1.3407;0.7446;
489.0000;1.3415;0.7562;
489.3000;1.3407;0.7632;
489.6000;1.3423;0.7656;
489.9000;1.3439;0.7702;
490.2000;1.3431;0.7609;
490.5000;1.3423;0.7632;
490.8000;1.3407;0.7562;
491.1000;1.3431;0.7656;
491.4000;1.3431;0.7586;
491.7000;1.3447;0.7609;
492.0000;1.3439;0.7539;
492.3000;1.3431;0.7586;
492.6000;1.3431;0.7609;
492.9000;1.3415;0.7492;
493.2000;1.3415;0.7469;
493.5000;1.3423;0.7446;
493.8000;1.3366;0.7189;
494.1000;1.3439;0.7399;
494.4000;1.3423;0.7352;
494.7000;1.3423;0.7352;
495.0000;1.3398;0.7306;
495.3000;1.3415;0.7329;
495.6000;1.3431;0.7352;
495.9000;1.3472;0.7539;
496.2000;1.3407;0.7376;
496.5000;1.3431;0.7399;
496.8000;1.3447;0.7446;
497.1000;1.3431;0.7399;
497.4000;1.3358;0.7259;
497.7000;1.3423;0.7399;
498.0000;1.3439;0.7352;
498.3000;1.3423;0.7259;
498.6000;1.3439;0.7329;
498.9000;1.3415;0.7329;
499.2000;1.3415;0.7422;
499.5000;1.3407;0.7492;
499.8000;1.3415;0.7516;
500.1000;1.3407;0.7562;
500.4000;1.3415;0.7632;
500.7000;1.3431;0.7562;
501.0000;1.3512;0.7842;
501.3000;1.3423;0.7469;
501.6000;1.3407;0.7492;
501.9000;1.3423;0.7586;
502.2000;1.3423;0.7562;
502.5000;1.3374;0.7446;
502.8000;1.3423;0.7539;
503.1000;1.3423;0.7609;
503.4000;1.3407;0.7562;
503.7000;1.3415;0.7632;
504.0000;1.3333;0.7469;
504.3000;1.3398;0.7609;
504.6000;1.3407;0.7609;
504.9000;1.3407;0.7586;
505.2000;1.3415;0.7469;
505.5000;1.3431;0.7399;
505.8000;1.3398;0.7446;
506.1000;1.3415;0.7446;
506.4000;1.3390;0.7329;
506.7000;1.3431;0.7469;
507.0000;1.3423;0.7399;
507.3000;1.3431;0.7376;
507.6000;1.3423;0.7376;
507.9000;1.3415;0.7376;
508.2000;1.3423;0.7399;
508.5000;1.3423;0.7399;
508.8000;1.3382;0.7422;
509.1000;1.3398;0.7516;
509.4000;1.3423;0.7539;
509.7000;1.3423;0.7516;
510.0000;1.3415;0.7446;
510.3000;1.3415;0.7469;
510.6000;1.3423;0.7492;
510.9000;1.3423;0.7492;
511.2000;1.3423;0.7516;
511.5000;1.3415;0.7632;
511.8000;1.3415;0.7656;
512.1000;1.3415;0.7679;
512.4000;1.3423;0.7726;
512.7000;1.3415;0.7726;
513.0000;1.3431;0.7749;
513.3000;1.3431;0.7679;
513.6000;1.3423;0.7632;
513.9000;1.3407;0.7562;
514.2000;1.3415;0.7539;
514.5000;1.3398;0.7422;
514.8000;1.3407;0.7469;
515.1000;1.3415;0.7446;
515.4000;1.3407;0.7422;
515.7000;1.3423;0.7376;
516.0000;1.3407;0.7399;
516.3000;1.3423;0.7446;
516.6000;1.3415;0.7492;
516.9000;1.3423;0.7516;
517.2000;1.3415;0.7516;
517.5000;1.3423;0.7539;
517.8000;1.3415;0.7562;
518.1000;1.3423;0.7562;
518.4000;1.3423;0.7609;
518.7000;1.3350;0.7492;
519.0000;1.3407;0.7632;
519.3000;1.3407;0.7586;
519.6000;1.3423;0.7632;
519.9000;1.3431;0.7562;
520.2000;1.3423;0.7492;
520.5000;1.3415;0.7376;
520.8000;1.3374;0.7376;
521.1000;1.3407;0.7446;
521.4000;1.3423;0.7469;
521.7000;1.3407;0.7469;
522.0000;1.3390;0.7539;
522.3000;1.3415;0.7586;
522.6000;1.3415;0.7609;
522.9000;1.3407;0.7656;
523.2000;1.3407;0.7609;
523.5000;1.3431;0.7609;
523.8000;1.3423;0.7632;
524.1000;1.3407;0.7539;
524.4000;1.3464;0.7656;
524.7000;1.3423;0.7539;
525.0000;1.3423;0.7492;
525.3000;1.3431;0.7539;
525.6000;1.3415;0.7469;
525.9000;1.3423;0.7399;
526.2000;1.3407;0.7376;
526.5000;1.3398;0.7399;
526.8000;1.3398;0.7422;
527.1000;1.3407;0.7516;
527.4000;1.3407;0.7516;
527.7000;1.3390;0.7562;
528.0000;1.3398;0.7562;
528.3000;1.3423;0.7562;
528.6000;1.3415;0.7562;
528.9000;1.3423;0.7562;
529.2000;1.3407;0.7492;
529.5000;1.3407;0.7516;
529.8000;1.3407;0.7469;
530.1000;1.3423;0.7446;
530.4000;1.3415;0.7469;
530.7000;1.3390;0.7399;
531.0000;1.3407;0.7469;
531.3000;1.3415;0.7562;
531.6000;1.3407;0.7516;
531.9000;1.3398;0.7562;
532.2000;1.3398;0.7516;
532.5000;1.3407;0.7422;
532.8000;1.3390;0.7422;
533.1000;1.3415;0.7422;
533.4000;1.3423;0.7469;
533.7000;1.3407;0.7516;
534.0000;1.3423;0.7586;
534.3000;1.3398;0.7539;
534.6000;1.3358;0.7446;
534.9000;1.3407;0.7492;
535.2000;1.3398;0.7562;
535.5000;1.3407;0.7516;
535.8000;1.3415;0.7562;
536.1000;1.3398;0.7516;
536.4000;1.3390;0.7469;
536.7000;1.3415;0.7516;
537.0000;1.3398;0.7539;
537.3000;1.3407;0.7492;
537.6000;1.3415;0.7399;
537.9000;1.3415;0.7399;
538.2000;1.3423;0.7376;
538.5000;1.3407;0.7376;
538.8000;1.3390;0.7329;
539.1000;1.3423;0.7446;
539.4000;1.3447;0.7516;
539.7000;1.3415;0.7422;
540.0000;1.3431;0.7352;
540.3000;1.3423;0.7352;
540.6000;1.3431;0.7399;
540.9000;1.3447;0.7446;
541.2000;1.3407;0.7399;
541.5000;1.3472;0.7539;
541.8000;1.3398;0.7376;
542.1000;1.3415;0.7469;
542.4000;1.3431;0.7492;
542.7000;1.3407;0.7469;
543.0000;1.3407;0.7376;
543.3000;1.3407;0.7376;
543.6000;1.3407;0.7399;
543.9000;1.3472;0.7516;
544.2000;1.3407;0.7492;
544.5000;1.3423;0.7492;
544.8000;1.3431;0.7446;
545.1000;1.3423;0.7399;
545.4000;1.3398;0.7376;
545.7000;1.3390;0.7306;
546.0000;1.3415;0.7306;
546.3000;1.3415;0.7329;
546.6000;1.3431;0.7352;
546.9000;1.3415;0.7329;
547.2000;1.3415;0.7376;
547.5000;1.3423;0.7469;
547.8000;1.3398;0.7399;
548.1000;1.3415;0.7516;
548.4000;1.3398;0.7446;
548.7000;1.3407;0.7399;
549.0000;1.3366;0.7189;
549.3000;1.3398;0.7259;
549.6000;1.3415;0.7236;
549.9000;1.3407;0.7142;
550.2000;1.3407;0.7166;
550.5000;1.3415;0.7119;
550.8000;1.3455;0.7212;
551.1000;1.3415;0.7189;
551.4000;1.3407;0.7259;
551.7000;1.3423;0.7236;
552.0000;1.3407;0.7189;
552.3000;1.3407;0.7236;
552.6000;1.3398;0.7119;
552.9000;1.3407;0.7236;
553.2000;1.3415;0.7306;
553.5000;1.3382;0.7376;
553.8000;1.3423;0.7516;
554.1000;1.3407;0.7469;
554.4000;1.3415;0.7492;
554.7000;1.3390;0.7399;
555.0000;1.3415;0.7399;
555.3000;1.3382;0.7352;
555.6000;1.3423;0.7399;
555.9000;1.3455;0.7492;
556.2000;1.3398;0.7446;
556.5000;1.3390;0.7422;
556.8000;1.3407;0.7446;
557.1000;1.3407;0.7516;
557.4000;1.3415;0.7516;
557.7000;1.3374;0.7469;
558.0000;1.3382;0.7399;
558.3000;1.3407;0.7446;
558.6000;1.3390;0.7422;
558.9000;1.3407;0.7422;
559.2000;1.3390;0.7376;
559.5000;1.3455;0.7516;
559.8000;1.3407;0.7446;
560.1000;1.3390;0.7329;
560.4000;1.3390;0.7376;
560.7000;1.3398;0.7492;
561.0000;1.3382;0.7516;
561.3000;1.3398;0.7586;
561.6000;1.3407;0.7726;
561.9000;1.3398;0.7656;
562.2000;1.3415;0.7632;
562.5000;1.3407;0.7562;
562.8000;1.3390;0.7539;
563.1000;1.3382;0.7516;
563.4000;1.3317;0.7352;
563.7000;1.3398;0.7469;
564.0000;1.3423;0.7492;
564.3000;1.3390;0.7446;
564.6000;1.3398;0.7422;
564.9000;1.3341;0.7282;
565.2000;1.3382;0.7376;
565.5000;1.3415;0.7352;
565.8000;1.3407;0.7422;
566.1000;1.3333;0.7189;
566.4000;1.3374;0.7306;
566.7000;1.3480;0.7609;
567.0000;1.3407;0.7492;
567.3000;1.3390;0.7469;
567.6000;1.3407;0.7399;
567.9000;1.3472;0.7539;
568.2000;1.3390;0.7329;
568.5000;1.3398;0.7352;
568.8000;1.3398;0.7446;
569.1000;1.3390;0.7422;
569.4000;1.3390;0.7469;
569.7000;1.3374;0.7469;
570.0000;1.3415;0.7539;
570.3000;1.3407;0.7469;
570.6000;1.3390;0.7539;
570.9000;1.3415;0.7539;
571.2000;1.3407;0.7446;
571.5000;1.3407;0.7516;
571.8000;1.3390;0.7446;
572.1000;1.3415;0.7352;
572.4000;1.3464;0.7422;
572.7000;1.3374;0.7236;
573.0000;1.3447;0.7352;
573.3000;1.3407;0.7282;
573.6000;1.3407;0.7352;
573.9000;1.3480;0.7539;
574.2000;1.3366;0.7306;
574.5000;1.3398;0.7399;
574.8000;1.3488;0.7562;
575.1000;1.3415;0.7352;
575.4000;1.3398;0.7352;
575.7000;1.3398;0.7399;
576.0000;1.3374;0.7352;
576.3000;1.3398;0.7422;
576.6000;1.3407;0.7399;
576.9000;1.3398;0.7352;
577.2000;1.3382;0.7329;
577.5000;1.3415;0.7376;
577.8000;1.3423;0.7539;
578.1000;1.3407;0.7539;
578.4000;1.3447;0.7632;
578.7000;1.3398;0.7492;
579.0000;1.3398;0.7492;
579.3000;1.3423;0.7539;
579.6000;1.3423;0.7516;
579.9000;1.3398;0.7422;
580.2000;1.3398;0.7376;
580.5000;1.3407;0.7376;
580.8000;1.3398;0.7399;
581.1000;1.3390;0.7352;
581.4000;1.3407;0.7259;
581.7000;1.3431;0.7399;
582.0000;1.3398;0.7352;
582.3000;1.3390;0.7422;
582.6000;1.3398;0.7376;
582.9000;1.3407;0.7446;
583.2000;1.3407;0.7492;
583.5000;1.3431;0.7632;
583.8000;1.3366;0.7352;
584.1000;1.3390;0.7446;
584.4000;1.3382;0.7399;
584.7000;1.3390;0.7399;
585.0000;1.3390;0.7422;
585.3000;1.3317;0.7212;
585.6000;1.3390;0.7352;
585.9000;1.3390;0.7282;
586.2000;1.3390;0.7282;
586.5000;1.3390;0.7352;
586.8000;1.3398;0.7376;
587.1000;1.3398;0.7469;
587.4000;1.3398;0.7516;
587.7000;1.3390;0.7539;
588.0000;1.3398;0.7632;
588.3000;1.3407;0.7679;
588.6000;1.3390;0.7562;
588.9000;1.3374;0.7469;
589.2000;1.3390;0.7492;
589.5000;1.3423;0.7632;
589.8000;1.3447;0.7632;
590.1000;1.3390;0.7446;
590.4000;1.3341;0.7352;
590.7000;1.3415;0.7516;
591.0000;1.3398;0.7516;
591.3000;1.3398;0.7492;
591.6000;1.3390;0.7446;
591.9000;1.3439;0.7492;
592.2000;1.3415;0.7422;
592.5000;1.3407;0.7422;
592.8000;1.3415;0.7539;
593.1000;1.3407;0.7516;
593.4000;1.3382;0.7422;
593.7000;1.3398;0.7516;
594.0000;1.3374;0.7446;
594.3000;1.3398;0.7422;
594.6000;1.3398;0.7469;
594.9000;1.3423;0.7609;
595.2000;1.3350;0.7539;
595.5000;1.3407;0.7656;
595.8000;1.3398;0.7656;
596.1000;1.3390;0.7632;
596.4000;1.3398;0.7656;
596.7000;1.3398;0.7632;
597.0000;1.3398;0.7609;
597.3000;1.3415;0.7609;
597.6000;1.3407;0.7562;
597.9000;1.3407;0.7516;
598.2000;1.3415;0.7446;
598.5000;1.3407;0.7539;
598.8000;1.3407;0.7586;
599.1000;1.3407;0.7609;
599.4000;1.3415;0.7609;
599.7000;1.3398;0.7562;
600.0000;1.3407;0.7586;
600.3000;1.3407;0.7539;
600.6000;1.3374;0.7376;
600.9000;1.3325;0.7212;
601.2000;1.3228;0.7049;
601.5000;1.3097;0.6769;
601.8000;1.2967;0.6559;
602.1000;1.2861;0.6279;
602.4000;1.2755;0.6069;
602.7000;1.2650;0.5812;
603.0000;1.2536;0.5532;
603.3000;1.2422;0.5392;
603.6000;1.2316;0.5182;
603.9000;1.2226;0.5018;
604.2000;1.2129;0.4878;
604.5000;1.2063;0.4785;
604.8000;1.1950;0.4551;
605.1000;1.1868;0.4388;
605.4000;1.1803;0.4341;
605.7000;1.1689;0.4108;
606.0000;1.1673;0.4131;
606.3000;1.1583;0.4108;
606.6000;1.1445;0.3945;
606.9000;1.1453;0.4085;
607.2000;1.1380;0.3945;
607.5000;1.1331;0.3921;
607.8000;1.1217;0.3734;
608.1000;1.1209;0.3781;
608.4000;1.1144;0.3711;
608.7000;1.1111;0.3664;
609.0000;1.1030;0.3454;
609.3000;1.0973;0.3384;
609.6000;1.0908;0.3268;
609.9000;1.0810;0.3058;
610.2000;1.0802;0.3128;
610.5000;1.0802;0.3268;
610.8000;1.0655;0.3034;
611.1000;1.0647;0.3151;
611.4000;1.0639;0.3221;
611.7000;1.0574;0.3151;
612.0000;1.0525;0.3104;
612.3000;1.0468;0.3011;
612.6000;1.0419;0.3081;
612.9000;1.0346;0.2964;
613.2000;1.0273;0.2778;
613.5000;1.0305;0.2964;
613.8000;1.0248;0.2964;
614.1000;1.0216;0.2964;
614.4000;1.0159;0.2848;
614.7000;1.0126;0.2778;
615.0000;1.0118;0.2848;
615.3000;1.0061;0.2754;
615.6000;1.0012;0.2731;
615.9000;0.9947;0.2661;
616.2000;0.9931;0.2684;
616.5000;0.9906;0.2684;
616.8000;0.9874;0.2661;
617.1000;0.9817;0.2684;
617.4000;0.9776;0.2731;
617.7000;0.9760;0.2731;
618.0000;0.9719;0.2591;
618.3000;0.9687;0.2591;
618.6000;0.9687;0.2684;
618.9000;0.9630;0.2614;
619.2000;0.9589;0.2591;
619.5000;0.9540;0.2521;
619.8000;0.9524;0.2521;
620.1000;0.9491;0.2451;
620.4000;0.9467;0.2404;
620.7000;0.9426;0.2264;
621.0000;0.9385;0.2147;
621.3000;0.9361;0.2194;
621.6000;0.9337;0.2217;
621.9000;0.9337;0.2171;
622.2000;0.9288;0.2077;
622.5000;0.9263;0.2147;
622.8000;0.9247;0.2124;
623.1000;0.9223;0.2217;
623.4000;0.9174;0.2077;
623.7000;0.9166;0.2077;
624.0000;0.9141;0.1984;
624.3000;0.9117;0.1937;
624.6000;0.9076;0.1937;
624.9000;0.9076;0.1984;
625.2000;0.9060;0.2054;
625.5000;0.9035;0.2077;
625.8000;0.8987;0.1961;
626.1000;0.8978;0.1984;
626.4000;0.8962;0.2031;
626.7000;0.8930;0.2077;
627.0000;0.8930;0.2077;
627.3000;0.8921;0.2101;
627.6000;0.8873;0.1984;
627.9000;0.8856;0.1937;
628.2000;0.8840;0.1937;
628.5000;0.8807;0.1937;
628.8000;0.8807;0.2031;
629.1000;0.8783;0.2054;
629.4000;0.8759;0.1961;
629.7000;0.8718;0.1867;
630.0000;0.8710;0.1937;
630.3000;0.8685;0.1937;
630.6000;0.8685;0.1891;
630.9000;0.8645;0.1774;
631.2000;0.8645;0.1774;
631.5000;0.8620;0.1751;
631.8000;0.8547;0.1587;
632.1000;0.8571;0.1610;
632.4000;0.8571;0.1564;
632.7000;0.8555;0.1610;
633.0000;0.8498;0.1587;
633.3000;0.8514;0.1704;
633.6000;0.8506;0.1681;
633.9000;0.8498;0.1704;
634.2000;0.8514;0.1867;
634.5000;0.8466;0.1797;
634.8000;0.8449;0.1751;
635.1000;0.8417;0.1657;
635.4000;0.8360;0.1587;
635.7000;0.8417;0.1727;
636.0000;0.8400;0.1704;
636.3000;0.8376;0.1610;
636.6000;0.8376;0.1610;
636.9000;0.8392;0.1634;
637.2000;0.8344;0.1587;
637.5000;0.8327;0.1634;
637.8000;0.8303;0.1657;
638.1000;0.8262;0.1564;
638.4000;0.8270;0.1610;
638.7000;0.8311;0.1727;
639.0000;0.8287;0.1681;
639.3000;0.8262;0.1657;
639.6000;0.8238;0.1727;
639.9000;0.8238;0.1774;
640.2000;0.8221;0.1751;
640.5000;0.8221;0.1704;
640.8000;0.8205;0.1704;
641.1000;0.8205;0.1610;
641.4000;0.8164;0.1517;
641.7000;0.8164;0.1540;
642.0000;0.8148;0.1494;
642.3000;0.8140;0.1400;
642.6000;0.8124;0.1424;
642.9000;0.8116;0.1447;
643.2000;0.8091;0.1470;
643.5000;0.8116;0.1540;
643.8000;0.8075;0.1400;
644.1000;0.8034;0.1330;
644.4000;0.8091;0.1540;
644.7000;0.8050;0.1587;
645.0000;0.7977;0.1424;
645.3000;0.8018;0.1424;
645.6000;0.8010;0.1377;
645.9000;0.8026;0.1494;
646.2000;0.8026;0.1564;
646.5000;0.7993;0.1494;
646.8000;0.7977;0.1447;
647.1000;0.8002;0.1564;
647.4000;0.7969;0.1540;
647.7000;0.7961;0.1540;
648.0000;0.7993;0.1610;
648.3000;0.7920;0.1400;
648.6000;0.7953;0.1400;
648.9000;0.7920;0.1307;
649.2000;0.7928;0.1307;
649.5000;0.7912;0.1330;
649.8000;0.7896;0.1307;
650.1000;0.7896;0.1354;
650.4000;0.7863;0.1284;
650.7000;0.7863;0.1377;
651.0000;0.7847;0.1307;
651.3000;0.7847;0.1354;
651.6000;0.7806;0.1307;
651.9000;0.7814;0.1354;
652.2000;0.7831;0.1447;
652.5000;0.7823;0.1447;
652.8000;0.7806;0.1400;
653.1000;0.7806;0.1400;
653.4000;0.7782;0.1447;
653.7000;0.7782;0.1494;
654.0000;0.7766;0.1470;
654.3000;0.7757;0.1447;
654.6000;0.7782;0.1470;
654.9000;0.7749;0.1470;
655.2000;0.7757;0.1447;
655.5000;0.7733;0.1377;
655.8000;0.7717;0.1307;
656.1000;0.7717;0.1354;
656.4000;0.7725;0.1424;
656.7000;0.7700;0.1424;
657.0000;0.7709;0.1447;
657.3000;0.7709;0.1447;
657.6000;0.7692;0.1540;
657.9000;0.7692;0.1564;
658.2000;0.7684;0.1517;
658.5000;0.7676;0.1494;
658.8000;0.7684;0.1587;
659.1000;0.7660;0.1610;
659.4000;0.7627;0.1564;
659.7000;0.7635;0.1587;
660.0000;0.7668;0.1610;
660.3000;0.7595;0.1470;
660.6000;0.7611;0.1517;
660.9000;0.7603;0.1470;
661.2000;0.7586;0.1424;
661.5000;0.7619;0.1470;
661.8000;0.7586;0.1424;
662.1000;0.7595;0.1424;
662.4000;0.7595;0.1447;
662.7000;0.7586;0.1354;
663.0000;0.7578;0.1330;
663.3000;0.7578;0.1237;
663.6000;0.7578;0.1144;
663.9000;0.7578;0.1144;
664.2000;0.7554;0.1120;
664.5000;0.7497;0.0934;
664.8000;0.7570;0.1050;
665.1000;0.7530;0.1074;
665.4000;0.7521;0.1027;
665.7000;0.7530;0.1074;
666.0000;0.7456;0.0934;
666.3000;0.7497;0.1097;
666.6000;0.7521;0.1144;
666.9000;0.7456;0.0910;
667.2000;0.7505;0.1004;
667.5000;0.7464;0.0980;
667.8000;0.7497;0.1074;
668.1000;0.7489;0.1097;
668.4000;0.7505;0.1190;
668.7000;0.7473;0.1167;
669.0000;0.7497;0.1260;
669.3000;0.7481;0.1354;
669.6000;0.7456;0.1377;
669.9000;0.7464;0.1377;
670.2000;0.7424;0.1377;
670.5000;0.7464;0.1517;
670.8000;0.7440;0.1494;
671.1000;0.7432;0.1494;
671.4000;0.7432;0.1540;
671.7000;0.7432;0.1681;
672.0000;0.7375;0.1587;
672.3000;0.7448;0.1657;
672.6000;0.7407;0.1470;
672.9000;0.7416;0.1517;
673.2000;0.7407;0.1424;
673.5000;0.7326;0.1284;
673.8000;0.7383;0.1424;
674.1000;0.7399;0.1424;
674.4000;0.7375;0.1377;
674.7000;0.7367;0.1470;
675.0000;0.7334;0.1494;
675.3000;0.7367;0.1681;
675.6000;0.7350;0.1751;
675.9000;0.7375;0.1821;
676.2000;0.7342;0.1751;
676.5000;0.7334;0.1727;
676.8000;0.7342;0.1704;
677.1000;0.7350;0.1704;
677.4000;0.7326;0.1634;
677.7000;0.7342;0.1657;
678.0000;0.7302;0.1564;
678.3000;0.7326;0.1657;
678.6000;0.7326;0.1657;
678.9000;0.7318;0.1657;
679.2000;0.7318;0.1564;
679.5000;0.7326;0.1517;
679.8000;0.7310;0.1470;
680.1000;0.7269;0.1447;
680.4000;0.7302;0.1517;
680.7000;0.7285;0.1447;
681.0000;0.7277;0.1447;
681.3000;0.7269;0.1494;
681.6000;0.7277;0.1564;
681.9000;0.7359;0.1727;
682.2000;0.7318;0.1634;
682.5000;0.7261;0.1517;
682.8000;0.7253;0.1540;
683.1000;0.7277;0.1517;
683.4000;0.7253;0.1424;
683.7000;0.7236;0.1354;
684.0000;0.7220;0.1307;
684.3000;0.7245;0.1494;
684.6000;0.7236;0.1587;
684.9000;0.7236;0.1704;
685.2000;0.7228;0.1704;
685.5000;0.7212;0.1540;
685.8000;0.7204;0.1400;
686.1000;0.7212;0.1377;
686.4000;0.7220;0.1424;
686.7000;0.7171;0.1307;
687.0000;0.7188;0.1330;
687.3000;0.7220;0.1400;
687.6000;0.7204;0.1424;
687.9000;0.7204;0.1400;
688.2000;0.7212;0.1424;
688.5000;0.7228;0.1494;
688.8000;0.7204;0.1517;
689.1000;0.7204;0.1494;
689.4000;0.7212;0.1587;
689.7000;0.7204;0.1587;
690.0000;0.7212;0.1587;
690.3000;0.7171;0.1540;
690.6000;0.7163;0.1494;
690.9000;0.7171;0.1517;
691.2000;0.7123;0.1400;
691.5000;0.7163;0.1564;
691.8000;0.7139;0.1494;
692.1000;0.7236;0.1727;
692.4000;0.7163;0.1470;
692.7000;0.7139;0.1494;
693.0000;0.7179;0.1540;
693.3000;0.7114;0.1470;
693.6000;0.7147;0.1587;
693.9000;0.7188;0.1540;
694.2000;0.7139;0.1330;
694.5000;0.7114;0.1307;
694.8000;0.7131;0.1354;
695.1000;0.7139;0.1260;
695.4000;0.7123;0.1284;
695.7000;0.7123;0.1330;
696.0000;0.7139;0.1447;
696.3000;0.7090;0.1330;
696.6000;0.7106;0.1354;
696.9000;0.7090;0.1330;
697.2000;0.7106;0.1400;
697.5000;0.7106;0.1400;
697.8000;0.7123;0.1517;
698.1000;0.7082;0.1540;
698.4000;0.7098;0.1587;
698.7000;0.7057;0.1540;
699.0000;0.7098;0.1564;
699.3000;0.7082;0.1517;
699.6000;0.7131;0.1587;
699.9000;0.7074;0.1587;
700.2000;0.7090;0.1634;
700.5000;0.7074;0.1540;
700.8000;0.7057;0.1494;
701.1000;0.7082;0.1540;
701.4000;0.7066;0.1540;
701.7000;0.7057;0.1517;
702.0000;0.7057;0.1494;
702.3000;0.7057;0.1540;
702.6000;0.7074;0.1564;
702.9000;0.7066;0.1540;
703.2000;0.7049;0.1517;
703.5000;0.7041;0.1470;
703.8000;0.7041;0.1494;
704.1000;0.7057;0.1517;
704.4000;0.7066;0.1470;
704.7000;0.7074;0.1540;
705.0000;0.6992;0.1330;
705.3000;0.7057;0.1447;
705.6000;0.7033;0.1494;
705.9000;0.7041;0.1540;
706.2000;0.7066;0.1681;
706.5000;0.7025;0.1610;
706.8000;0.7041;0.1751;
707.1000;0.7074;0.1821;
707.4000;0.7009;0.1610;
707.7000;0.6968;0.1517;
708.0000;0.7009;0.1681;
708.3000;0.6976;0.1634;
708.6000;0.7066;0.1984;
708.9000;0.7041;0.1914;
709.2000;0.7009;0.1984;
709.5000;0.7000;0.1891;
709.8000;0.7000;0.1914;
710.1000;0.6911;0.1751;
710.4000;0.6992;0.1891;
710.7000;0.6984;0.1844;
711.0000;0.6976;0.1657;
711.3000;0.6984;0.1634;
711.6000;0.6992;0.1610;
711.9000;0.6984;0.1681;
712.2000;0.7009;0.1681;
712.5000;0.6968;0.1540;
712.8000;0.6968;0.1470;
713.1000;0.6952;0.1540;
713.4000;0.6976;0.1634;
713.7000;0.6992;0.1681;
714.0000;0.6976;0.1610;
714.3000;0.6976;0.1540;
714.6000;0.6960;0.1564;
714.9000;0.6911;0.1470;
715.2000;0.6952;0.1540;
715.5000;0.6952;0.1494;
715.8000;0.6952;0.1540;
716.1000;0.6919;0.1517;
716.4000;0.6935;0.1657;
716.7000;0.6935;0.1704;
717.0000;0.6943;0.1634;
717.3000;0.6943;0.1610;
717.6000;0.6927;0.1634;
717.9000;0.6935;0.1704;
718.2000;0.6927;0.1704;
718.5000;0.6927;0.1751;
718.8000;0.6927;0.1727;
719.1000;0.6919;0.1681;
719.4000;0.6919;0.1587;
719.7000;0.6927;0.1540;
720.0000;0.6919;0.1610;
720.3000;0.6903;0.1657;
720.6000;0.6935;0.1681;
720.9000;0.6927;0.1657;
721.2000;0.6911;0.1610;
721.5000;0.6960;0.1704;
721.8000;0.6854;0.1540;
722.1000;0.6903;0.1704;
722.4000;0.6903;0.1657;
722.7000;0.6895;0.1681;
723.0000;0.6911;0.1564;
723.3000;0.6886;0.1424;
723.6000;0.6886;0.1424;
723.9000;0.6895;0.1400;
724.2000;0.6886;0.1400;
724.5000;0.6903;0.1307;
724.8000;0.6886;0.1237;
725.1000;0.6886;0.1284;
725.4000;0.6895;0.1400;
725.7000;0.6895;0.1540;
726.0000;0.6886;0.1540;
726.3000;0.6895;0.1657;
726.6000;0.6886;0.1610;
726.9000;0.6886;0.1657;
727.2000;0.6903;0.1727;
727.5000;0.6862;0.1727;
727.8000;0.6846;0.1681;
728.1000;0.6870;0.1681;
728.4000;0.6838;0.1540;
728.7000;0.6854;0.1587;
729.0000;0.6870;0.1704;
729.3000;0.6878;0.1704;
729.6000;0.6862;0.1727;
729.9000;0.6862;0.1704;
730.2000;0.6854;0.1681;
730.5000;0.6854;0.1774;
730.8000;0.6854;0.1704;
731.1000;0.6846;0.1657;
731.4000;0.6854;0.1704;
731.7000;0.6862;0.1727;
732.0000;0.6878;0.1751;
732.3000;0.6854;0.1821;
732.6000;0.6854;0.1774;
732.9000;0.6854;0.1681;
733.2000;0.6838;0.1657;
733.5000;0.6829;0.1797;
733.8000;0.6829;0.1867;
734.1000;0.6838;0.1821;
734.4000;0.6838;0.1867;
734.7000;0.6838;0.1704;
735.0000;0.6821;0.1681;
735.3000;0.6838;0.1610;
735.6000;0.6813;0.1540;
735.9000;0.6838;0.1517;
736.2000;0.6821;0.1447;
736.5000;0.6805;0.1424;
736.8000;0.6813;0.1494;
737.1000;0.6854;0.1610;
737.4000;0.6821;0.1540;
737.7000;0.6829;0.1540;
738.0000;0.6797;0.1540;
738.3000;0.6789;0.1634;
738.6000;0.6772;0.1634;
738.9000;0.6821;0.1774;
739.2000;0.6805;0.1704;
739.5000;0.6805;0.1564;
739.8000;0.6805;0.1610;
740.1000;0.6748;0.1494;
740.4000;0.6813;0.1727;
740.7000;0.6805;0.1681;
741.0000;0.6813;0.1821;
741.3000;0.6805;0.1774;
741.6000;0.6813;0.1797;
741.9000;0.6797;0.1727;
742.2000;0.6821;0.1751;
742.5000;0.6805;0.1727;
742.8000;0.6821;0.1634;
743.1000;0.6797;0.1587;
743.4000;0.6781;0.1517;
743.7000;0.6789;0.1540;
744.0000;0.6789;0.1494;
744.3000;0.6781;0.1540;
744.6000;0.6772;0.1494;
744.9000;0.6764;0.1494;
745.2000;0.6756;0.1540;
745.5000;0.6764;0.1564;
745.8000;0.6756;0.1564;
746.1000;0.6756;0.1564;
746.4000;0.6772;0.1540;
746.7000;0.6772;0.1540;
747.0000;0.6756;0.1540;
747.3000;0.6781;0.1587;
747.6000;0.6772;0.1517;
747.9000;0.6772;0.1517;
748.2000;0.6764;0.1494;
748.5000;0.6764;0.1447;
748.8000;0.6764;0.1517;
749.1000;0.6748;0.1470;
749.4000;0.6772;0.1447;
749.7000;0.6756;0.1424;
750.0000;0.6764;0.1447;
750.3000;0.6764;0.1400;
750.6000;0.6764;0.1424;
750.9000;0.6756;0.1424;
751.2000;0.6764;0.1494;
751.5000;0.6756;0.1540;
751.8000;0.6764;0.1564;
752.1000;0.6732;0.1517;
752.4000;0.6756;0.1470;
752.7000;0.6764;0.1470;
753.0000;0.6724;0.1354;
753.3000;0.6732;0.1424;
753.6000;0.6764;0.1540;
753.9000;0.6756;0.1470;
754.2000;0.6740;0.1400;
754.5000;0.6740;0.1354;
754.8000;0.6732;0.1377;
755.1000;0.6862;0.1751;
755.4000;0.6707;0.1447;
755.7000;0.6732;0.1634;
756.0000;0.6764;0.1681;
756.3000;0.6732;0.1587;
756.6000;0.6732;0.1517;
756.9000;0.6716;0.1447;
757.2000;0.6740;0.1494;
757.5000;0.6740;0.1564;
757.8000;0.6732;0.1587;
758.1000;0.6781;0.1610;
758.4000;0.6740;0.1470;
758.7000;0.6764;0.1494;
759.0000;0.6772;0.1564;
759.3000;0.6707;0.1354;
759.6000;0.6707;0.1400;
759.9000;0.6707;0.1260;
760.2000;0.6740;0.1307;
760.5000;0.6716;0.1284;
760.8000;0.6707;0.1260;
761.1000;0.6716;0.1377;
761.4000;0.6650;0.1284;
761.7000;0.6716;0.1470;
762.0000;0.6732;0.1587;
762.3000;0.6748;0.1681;
762.6000;0.6691;0.1540;
762.9000;0.6716;0.1681;
763.2000;0.6699;0.1657;
763.5000;0.6691;0.1587;
763.8000;0.6699;0.1564;
764.1000;0.6740;0.1634;
764.4000;0.6797;0.1867;
764.7000;0.6699;0.1681;
765.0000;0.6756;0.1774;
765.3000;0.6707;0.1634;
765.6000;0.6667;0.1681;
765.9000;0.6667;0.1727;
766.2000;0.6740;0.1797;
766.5000;0.6634;0.1540;
766.8000;0.6683;0.1634;
767.1000;0.6707;0.1610;
767.4000;0.6683;0.1587;
767.7000;0.6707;0.1610;
768.0000;0.6699;0.1681;
768.3000;0.6691;0.1657;
768.6000;0.6716;0.1704;
768.9000;0.6618;0.1540;
769.2000;0.6683;0.1751;
769.5000;0.6683;0.1774;
769.8000;0.6683;0.1844;
770.1000;0.6683;0.1751;
770.4000;0.6675;0.1727;
770.7000;0.6675;0.1727;
771.0000;0.6667;0.1797;
771.3000;0.6667;0.1867;
771.6000;0.6618;0.1704;
771.9000;0.6675;0.1751;
772.2000;0.6667;0.1704;
772.5000;0.6675;0.1727;
772.8000;0.6659;0.1704;
773.1000;0.6667;0.1657;
773.4000;0.6667;0.1704;
773.7000;0.6675;0.1657;
774.0000;0.6650;0.1657;
774.3000;0.6675;0.1610;
774.6000;0.6691;0.1681;
774.9000;0.6732;0.1821;
775.2000;0.6667;0.1681;
775.5000;0.6650;0.1610;
775.8000;0.6659;0.1657;
776.1000;0.6667;0.1610;
776.4000;0.6642;0.1681;
776.7000;0.6634;0.1681;
777.0000;0.6691;0.1937;
777.3000;0.6699;0.1914;
777.6000;0.6642;0.1704;
777.9000;0.6683;0.1844;
778.2000;0.6650;0.1797;
778.5000;0.6659;0.1797;
778.8000;0.6642;0.1844;
779.1000;0.6634;0.1797;
779.4000;0.6650;0.1867;
779.7000;0.6667;0.1891;
780.0000;0.6642;0.1774;
780.3000;0.6642;0.1727;
780.6000;0.6650;0.1774;
780.9000;0.6618;0.1704;
781.2000;0.6626;0.1727;
781.5000;0.6642;0.1704;
781.8000;0.6650;0.1751;
782.1000;0.6650;0.1751;
782.4000;0.6707;0.1891;
782.7000;0.6659;0.1751;
783.0000;0.6593;0.1610;
783.3000;0.6650;0.1844;
783.6000;0.6634;0.1751;
783.9000;0.6642;0.1704;
784.2000;0.6675;0.1797;
784.5000;0.6634;0.1844;
784.8000;0.6626;0.1797;
785.1000;0.6602;0.1681;
785.4000;0.6618;0.1681;
785.7000;0.6626;0.1657;
786.0000;0.6626;0.1657;
786.3000;0.6626;0.1634;
786.6000;0.6593;0.1587;
786.9000;0.6610;0.1587;
787.2000;0.6618;0.1681;
787.5000;0.6683;0.1867;
787.8000;0.6610;0.1727;
788.1000;0.6610;0.1751;
788.4000;0.6610;0.1751;
788.7000;0.6618;0.1751;
789.0000;0.6602;0.1751;
789.3000;0.6610;0.1774;
789.6000;0.6610;0.1867;
789.9000;0.6691;0.2007;
790.2000;0.6610;0.1774;
790.5000;0.6610;0.1914;
790.8000;0.6585;0.1914;
791.1000;0.6626;0.1937;
791.4000;0.6602;0.1867;
791.7000;0.6610;0.1844;
792.0000;0.6593;0.1891;
792.3000;0.6577;0.1867;
792.6000;0.6602;0.1821;
792.9000;0.6593;0.1891;
793.2000;0.6585;0.1797;
793.5000;0.6593;0.1797;
793.8000;0.6618;0.1797;
794.1000;0.6626;0.1797;
794.4000;0.6610;0.1797;
794.7000;0.6585;0.1821;
795.0000;0.6602;0.1914;
795.3000;0.6593;0.1937;
795.6000;0.6618;0.2054;
795.9000;0.6569;0.1937;
796.2000;0.6602;0.1937;
796.5000;0.6602;0.1914;
796.8000;0.6577;0.1867;
797.1000;0.6593;0.1844;
797.4000;0.6577;0.1751;
797.7000;0.6545;0.1727;
798.0000;0.6569;0.1821;
798.3000;0.6585;0.1891;
798.6000;0.6553;0.1821;
798.9000;0.6593;0.1984;
799.2000;0.6577;0.1914;
799.5000;0.6593;0.1774;
799.8000;0.6593;0.1774;
800.1000;0.6577;0.1751;
800.4000;0.6585;0.1727;
800.7000;0.6545;0.1704;
801.0000;0.6585;0.1774;
801.3000;0.6536;0.1587;
801.6000;0.6593;0.1727;
801.9000;0.6553;0.1657;
802.2000;0.6569;0.1751;
802.5000;0.6561;0.1797;
802.8000;0.6561;0.1774;
803.1000;0.6626;0.1984;
803.4000;0.6610;0.1984;
803.7000;0.6528;0.1774;
804.0000;0.6577;0.1867;
804.3000;0.6569;0.1914;
804.6000;0.6553;0.1844;
804.9000;0.6577;0.1867;
805.2000;0.6593;0.1821;
805.5000;0.6577;0.1774;
805.8000;0.6561;0.1797;
806.1000;0.6545;0.1751;
806.4000;0.6561;0.1891;
806.7000;0.6536;0.1821;
807.0000;0.6569;0.1914;
807.3000;0.6561;0.1867;
807.6000;0.6545;0.1774;
807.9000;0.6569;0.1751;
808.2000;0.6569;0.1681;
808.5000;0.6553;0.1587;
808.8000;0.6561;0.1540;
809.1000;0.6585;0.1540;
809.4000;0.6561;0.1540;
809.7000;0.6553;0.1540;
810.0000;0.6553;0.1657;
810.3000;0.6553;0.1727;
810.6000;0.6577;0.1774;
810.9000;0.6545;0.1797;
811.2000;0.6553;0.1891;
811.5000;0.6593;0.1937;
811.8000;0.6561;0.1891;
812.1000;0.6545;0.1821;
812.4000;0.6553;0.1844;
812.7000;0.6553;0.1797;
813.0000;0.6561;0.1751;
813.3000;0.6528;0.1681;
813.6000;0.6561;0.1774;
813.9000;0.6602;0.1867;
814.2000;0.6528;0.1681;
814.5000;0.6553;0.1774;
814.8000;0.6528;0.1610;
815.1000;0.6471;0.1564;
815.4000;0.6528;0.1727;
815.7000;0.6545;0.1657;
816.0000;0.6520;0.1634;
816.3000;0.6553;0.1727;
816.6000;0.6561;0.1657;
816.9000;0.6553;0.1657;
817.2000;0.6553;0.1681;
817.5000;0.6528;0.1587;
817.8000;0.6536;0.1610;
818.1000;0.6553;0.1634;
818.4000;0.6512;0.1681;
818.7000;0.6528;0.1797;
819.0000;0.6536;0.1844;
819.3000;0.6528;0.1844;
819.6000;0.6561;0.1937;
819.9000;0.6585;0.1984;
820.2000;0.6536;0.1937;
820.5000;0.6536;0.1914;
820.8000;0.6528;0.2007;
821.1000;0.6561;0.2124;
821.4000;0.6536;0.2077;
821.7000;0.6488;0.1961;
822.0000;0.6561;0.2124;
822.3000;0.6536;0.2054;
822.6000;0.6536;0.1984;
822.9000;0.6536;0.1961;
823.2000;0.6536;0.1984;
823.5000;0.6512;0.2007;
823.8000;0.6520;0.2031;
824.1000;0.6561;0.2077;
824.4000;0.6528;0.1937;
824.7000;0.6545;0.2031;
825.0000;0.6561;0.1984;
825.3000;0.6536;0.1984;
825.6000;0.6545;0.2007;
825.9000;0.6610;0.2217;
826.2000;0.6528;0.1937;
826.5000;0.6528;0.1937;
826.8000;0.6536;0.1891;
827.1000;0.6528;0.1774;
827.4000;0.6545;0.1797;
827.7000;0.6520;0.1867;
828.0000;0.6520;0.1821;
828.3000;0.6479;0.1844;
828.6000;0.6536;0.1961;
828.9000;0.6528;0.2007;
829.2000;0.6528;0.2054;
829.5000;0.6520;0.1937;
829.8000;0.6528;0.1984;
830.1000;0.6545;0.2007;
830.4000;0.6520;0.1914;
830.7000;0.6512;0.1844;
831.0000;0.6504;0.1891;
831.3000;0.6520;0.1867;
831.6000;0.6520;0.1774;
831.9000;0.6488;0.1727;
832.2000;0.6512;0.1774;
832.5000;0.6528;0.1727;
832.8000;0.6528;0.1751;
833.1000;0.6520;0.1821;
833.4000;0.6520;0.1751;
833.7000;0.6512;0.1751;
834.0000;0.6528;0.1751;
834.3000;0.6504;0.1681;
834.6000;0.6520;0.1751;
834.9000;0.6488;0.1774;
835.2000;0.6504;0.1797;
835.5000;0.6488;0.1821;
835.8000;0.6512;0.1937;
836.1000;0.6504;0.1891;
836.4000;0.6504;0.1914;
836.7000;0.6471;0.1774;
837.0000;0.6545;0.1984;
837.3000;0.6504;0.1961;
837.6000;0.6520;0.1984;
837.9000;0.6496;0.1914;
838.2000;0.6488;0.1867;
838.5000;0.6504;0.1937;
838.8000;0.6471;0.1821;
839.1000;0.6504;0.1891;
839.4000;0.6488;0.1867;
839.7000;0.6528;0.1937;
840.0000;0.6528;0.1914;
840.3000;0.6496;0.1821;
840.6000;0.6504;0.1867;
840.9000;0.6496;0.1891;
841.2000;0.6504;0.1891;
841.5000;0.6504;0.1867;
841.8000;0.6520;0.1844;
842.1000;0.6528;0.1867;
842.4000;0.6512;0.1914;
842.7000;0.6496;0.1891;
843.0000;0.6488;0.1844;
843.3000;0.6496;0.1844;
843.6000;0.6479;0.1891;
843.9000;0.6520;0.1961;
844.2000;0.6488;0.1961;
844.5000;0.6488;0.1891;
844.8000;0.6496;0.1797;
845.1000;0.6488;0.1867;
845.4000;0.6488;0.1774;
845.7000;0.6496;0.1751;
846.0000;0.6479;0.1681;
846.3000;0.6479;0.1704;
846.6000;0.6471;0.1704;
846.9000;0.6479;0.1727;
847.2000;0.6479;0.1681;
847.5000;0.6504;0.1704;
847.8000;0.6488;0.1797;
848.1000;0.6528;0.1797;
848.4000;0.6488;0.1751;
848.7000;0.6496;0.1844;
849.0000;0.6479;0.1821;
849.3000;0.6488;0.1844;
849.6000;0.6496;0.1867;
849.9000;0.6488;0.1821;
850.2000;0.6496;0.1797;
850.5000;0.6512;0.1844;
850.8000;0.6488;0.1891;
851.1000;0.6439;0.1797;
851.4000;0.6479;0.1891;
851.7000;0.6512;0.1891;
852.0000;0.6528;0.1891;
852.3000;0.6496;0.1821;
852.6000;0.6479;0.1797;
852.9000;0.6488;0.1774;
853.2000;0.6471;0.1727;
853.5000;0.6471;0.1704;
853.8000;0.6479;0.1751;
854.1000;0.6496;0.1751;
854.4000;0.6455;0.1634;
854.7000;0.6463;0.1727;
855.0000;0.6479;0.1797;
855.3000;0.6496;0.1937;
855.6000;0.6479;0.1961;
855.9000;0.6471;0.1914;
856.2000;0.6479;0.1844;
856.5000;0.6504;0.1844;
856.8000;0.6479;0.1797;
857.1000;0.6488;0.1891;
857.4000;0.6471;0.1961;
857.7000;0.6479;0.1984;
858.0000;0.6479;0.1891;
858.3000;0.6496;0.1844;
858.6000;0.6553;0.1937;
858.9000;0.6479;0.1774;
859.2000;0.6520;0.1797;
859.5000;0.6471;0.1821;
859.8000;0.6463;0.1821;
860.1000;0.6455;0.1937;
860.4000;0.6471;0.1961;
860.7000;0.6455;0.1937;
861.0000;0.6455;0.1984;
861.3000;0.6496;0.2007;
861.6000;0.6447;0.1914;
861.9000;0.6471;0.1914;
862.2000;0.6471;0.1961;
862.5000;0.6398;0.1727;
862.8000;0.6414;0.1844;
863.1000;0.6471;0.2031;
863.4000;0.6488;0.2077;
863.7000;0.6488;0.2077;
864.0000;0.6471;0.2031;
864.3000;0.6455;0.1984;
864.6000;0.6471;0.2054;
864.9000;0.6463;0.2007;
865.2000;0.6471;0.2077;
865.5000;0.6455;0.2054;
865.8000;0.6455;0.2101;
866.1000;0.6455;0.2124;
866.4000;0.6447;0.2124;
866.7000;0.6447;0.2171;
867.0000;0.6496;0.2311;
867.3000;0.6463;0.2264;
867.6000;0.6455;0.2194;
867.9000;0.6471;0.2194;
868.2000;0.6455;0.2147;
868.5000;0.6471;0.2147;
868.8000;0.6455;0.2101;
869.1000;0.6439;0.2054;
869.4000;0.6439;0.2031;
869.7000;0.6455;0.2077;
870.0000;0.6463;0.2077;
870.3000;0.6471;0.2124;
870.6000;0.6447;0.2194;
870.9000;0.6447;0.2147;
871.2000;0.6455;0.2124;
871.5000;0.6455;0.2077;
871.8000;0.6431;0.2077;
872.1000;0.6488;0.2171;
872.4000;0.6447;0.2054;
872.7000;0.6447;0.2031;
873.0000;0.6431;0.2054;
873.3000;0.6455;0.2077;
873.6000;0.6398;0.1937;
873.9000;0.6471;0.2031;
874.2000;0.6439;0.1937;
874.5000;0.6447;0.1937;
874.8000;0.6455;0.2054;
875.1000;0.6439;0.2007;
875.4000;0.6439;0.2031;
875.7000;0.6463;0.2031;
876.0000;0.6414;0.2007;
876.3000;0.6431;0.1891;
876.6000;0.6431;0.1867;
876.9000;0.6447;0.1891;
877.2000;0.6398;0.1774;
877.5000;0.6463;0.1984;
877.8000;0.6447;0.1961;
878.1000;0.6439;0.1821;
878.4000;0.6414;0.1774;
878.7000;0.6439;0.1844;
879.0000;0.6365;0.1751;
879.3000;0.6455;0.1937;
879.6000;0.6422;0.1797;
879.9000;0.6447;0.1844;
880.2000;0.6512;0.1961;
880.5000;0.6431;0.1774;
880.8000;0.6422;0.1797;
881.1000;0.6447;0.1891;
881.4000;0.6447;0.1891;
881.7000;0.6463;0.1984;
882.0000;0.6439;0.1961;
882.3000;0.6439;0.2054;
882.6000;0.6431;0.2007;
882.9000;0.6422;0.1961;
883.2000;0.6414;0.1937;
883.5000;0.6431;0.1961;
883.8000;0.6406;0.1891;
884.1000;0.6439;0.1891;
884.4000;0.6431;0.1891;
884.7000;0.6431;0.1914;
885.0000;0.6439;0.1961;
885.3000;0.6422;0.1961;
885.6000;0.6455;0.2077;
885.9000;0.6422;0.1961;
886.2000;0.6431;0.2007;
886.5000;0.6374;0.1914;
886.8000;0.6431;0.1914;
887.1000;0.6422;0.1961;
887.4000;0.6422;0.1984;
887.7000;0.6439;0.1914;
888.0000;0.6406;0.1751;
888.3000;0.6406;0.1751;
888.6000;0.6406;0.1751;
888.9000;0.6439;0.1891;
889.2000;0.6422;0.1867;
889.5000;0.6414;0.1797;
889.8000;0.6414;0.1704;
890.1000;0.6431;0.1751;
890.4000;0.6431;0.1774;
890.7000;0.6431;0.1774;
891.0000;0.6357;0.1681;
891.3000;0.6431;0.1751;
891.6000;0.6439;0.1751;
891.9000;0.6422;0.1727;
892.2000;0.6414;0.1774;
892.5000;0.6479;0.1937;
892.8000;0.6374;0.1657;
893.1000;0.6406;0.1821;
893.4000;0.6455;0.1867;
893.7000;0.6365;0.1657;
894.0000;0.6398;0.1774;
894.3000;0.6431;0.1797;
894.6000;0.6406;0.1727;
894.9000;0.6414;0.1774;
895.2000;0.6398;0.1751;
895.5000;0.6439;0.1821;
895.8000;0.6374;0.1704;
896.1000;0.6365;0.1657;
896.4000;0.6431;0.1844;
896.7000;0.6414;0.1937;
897.0000;0.6414;0.1891;
897.3000;0.6414;0.1914;
897.6000;0.6406;0.1961;
897.9000;0.6406;0.1984;
898.2000;0.6447;0.2077;
898.5000;0.6414;0.1914;
898.8000;0.6398;0.1844;
899.1000;0.6439;0.1961;
899.4000;0.6422;0.1984;
899.7000;0.6422;0.1961;
900.0000;0.6422;0.1891;
900.3000;0.6439;0.1961;
900.6000;0.6471;0.2101;
900.9000;0.6414;0.2031;
901.2000;0.6422;0.2054;
901.5000;0.6406;0.2054;
901.8000;0.6414;0.2031;
902.1000;0.6325;0.1844;
902.4000;0.6406;0.1914;
902.7000;0.6414;0.1937;
903.0000;0.6406;0.1891;
903.3000;0.6455;0.1937;
903.6000;0.6414;0.1867;
903.9000;0.6422;0.1867;
904.2000;0.6414;0.1937;
904.5000;0.6463;0.2101;
904.8000;0.6414;0.2007;
905.1000;0.6406;0.1937;
905.4000;0.6431;0.1937;
905.7000;0.6406;0.1891;
906.0000;0.6398;0.1891;
906.3000;0.6422;0.1914;
906.6000;0.6406;0.2007;
906.9000;0.6431;0.1961;
907.2000;0.6422;0.1961;
907.5000;0.6422;0.1937;
907.8000;0.6422;0.2007;
908.1000;0.6414;0.2031;
908.4000;0.6406;0.2054;
908.7000;0.6398;0.2007;
909.0000;0.6439;0.2101;
909.3000;0.6398;0.2031;
909.6000;0.6398;0.2147;
909.9000;0.6317;0.2007;
910.2000;0.6390;0.2171;
910.5000;0.6390;0.2147;
910.8000;0.6390;0.2124;
911.1000;0.6406;0.2101;
911.4000;0.6382;0.2054;
911.7000;0.6431;0.2054;
912.0000;0.6406;0.1984;
912.3000;0.6390;0.1961;
912.6000;0.6390;0.1961;
912.9000;0.6398;0.1844;
913.2000;0.6406;0.1751;
913.5000;0.6422;0.1704;
913.8000;0.6406;0.1751;
914.1000;0.6398;0.1797;
914.4000;0.6357;0.1657;
914.7000;0.6382;0.1704;
915.0000;0.6422;0.1844;
915.3000;0.6390;0.1797;
915.6000;0.6398;0.1984;
915.9000;0.6406;0.1937;
916.2000;0.6471;0.2147;
916.5000;0.6382;0.1914;
916.8000;0.6406;0.1914;
917.1000;0.6374;0.1727;
917.4000;0.6463;0.1891;
917.7000;0.6374;0.1704;
918.0000;0.6398;0.1751;
918.3000;0.6398;0.1681;
918.6000;0.6398;0.1727;
918.9000;0.6414;0.1797;
919.2000;0.6406;0.1821;
919.5000;0.6398;0.1867;
919.8000;0.6398;0.1914;
920.1000;0.6357;0.1844;
920.4000;0.6390;0.2007;
920.7000;0.6398;0.1961;
921.0000;0.6439;0.1961;
921.3000;0.6390;0.1821;
921.6000;0.6414;0.1891;
921.9000;0.6406;0.1891;
922.2000;0.6398;0.1937;
922.5000;0.6349;0.1891;
922.8000;0.6398;0.1961;
923.1000;0.6390;0.1961;
923.4000;0.6414;0.2007;
923.7000;0.6398;0.1961;
924.0000;0.6390;0.2007;
924.3000;0.6382;0.1891;
924.6000;0.6374;0.1867;
924.9000;0.6382;0.1891;
925.2000;0.6365;0.1937;
925.5000;0.6365;0.2031;
925.8000;0.6382;0.2077;
926.1000;0.6309;0.1914;
926.4000;0.6390;0.2124;
926.7000;0.6382;0.2101;
927.0000;0.6382;0.2077;
927.3000;0.6390;0.2101;
927.6000;0.6398;0.2031;
927.9000;0.6406;0.2054;
928.2000;0.6390;0.2054;
928.5000;0.6390;0.2077;
928.8000;0.6406;0.2147;
929.1000;0.6398;0.2101;
929.4000;0.6382;0.1961;
929.7000;0.6390;0.1984;
930.0000;0.6357;0.1867;
930.3000;0.6382;0.1891;
930.6000;0.6414;0.1961;
930.9000;0.6382;0.1961;
931.2000;0.6398;0.2031;
931.5000;0.6398;0.2054;
931.8000;0.6382;0.2077;
932.1000;0.6382;0.2054;
932.4000;0.6406;0.2101;
932.7000;0.6398;0.1984;
933.0000;0.6406;0.2007;
933.3000;0.6406;0.2007;
933.6000;0.6422;0.2031;
933.9000;0.6333;0.1797;
934.2000;0.6382;0.1961;
934.5000;0.6390;0.1961;
934.8000;0.6374;0.1867;
935.1000;0.6365;0.1844;
935.4000;0.6357;0.1751;
935.7000;0.6382;0.1891;
936.0000;0.6374;0.1797;
936.3000;0.6374;0.1891;
936.6000;0.6374;0.1914;
936.9000;0.6382;0.1914;
937.2000;0.6382;0.1774;
937.5000;0.6317;0.1657;
937.8000;0.6382;0.1867;
938.1000;0.6365;0.1844;
938.4000;0.6374;0.1867;
938.7000;0.6398;0.1914;
939.0000;0.6309;0.1681;
939.3000;0.6341;0.1774;
939.6000;0.6382;0.1821;
939.9000;0.6365;0.1774;
940.2000;0.6333;0.1774;
940.5000;0.6382;0.1914;
940.8000;0.6374;0.1937;
941.1000;0.6390;0.1914;
941.4000;0.6422;0.1961;
941.7000;0.6365;0.1844;
942.0000;0.6382;0.1867;
942.3000;0.6284;0.1587;
942.6000;0.6374;0.1821;
942.9000;0.6357;0.1797;
943.2000;0.6398;0.1891;
943.5000;0.6382;0.1844;
943.8000;0.6382;0.2007;
944.1000;0.6382;0.2101;
944.4000;0.6382;0.2101;
944.7000;0.6390;0.2124;
945.0000;0.6390;0.2147;
945.3000;0.6382;0.2171;
945.6000;0.6374;0.2147;
945.9000;0.6390;0.2194;
946.2000;0.6341;0.2031;
946.5000;0.6357;0.1961;
946.8000;0.6365;0.2031;
947.1000;0.6349;0.2031;
947.4000;0.6357;0.2054;
947.7000;0.6357;0.2101;
948.0000;0.6357;0.2147;
948.3000;0.6365;0.2194;
948.6000;0.6349;0.2124;
948.9000;0.6374;0.2194;
949.2000;0.6357;0.2171;
949.5000;0.6357;0.2194;
949.8000;0.6382;0.2264;
950.1000;0.6325;0.2101;
950.4000;0.6374;0.2241;
950.7000;0.6431;0.2264;
951.0000;0.6365;0.2077;
951.3000;0.6357;0.2031;
951.6000;0.6365;0.2007;
951.9000;0.6382;0.2147;
952.2000;0.6357;0.2031;
952.5000;0.6365;0.2054;
952.8000;0.6341;0.1937;
953.1000;0.6349;0.1914;
953.4000;0.6357;0.1984;
953.7000;0.6374;0.2124;
954.0000;0.6357;0.2124;
954.3000;0.6374;0.2194;
954.6000;0.6374;0.2194;
954.9000;0.6357;0.2124;
955.2000;0.6357;0.2217;
955.5000;0.6357;0.2217;
955.8000;0.6365;0.2194;
956.1000;0.6365;0.2101;
956.4000;0.6374;0.2031;
956.7000;0.6349;0.1937;
957.0000;0.6317;0.1867;
957.3000;0.6374;0.2007;
957.6000;0.6365;0.1961;
957.9000;0.6357;0.1914;
958.2000;0.6349;0.1961;
958.5000;0.6341;0.2007;
958.8000;0.6341;0.2031;
959.1000;0.6349;0.2101;
959.4000;0.6349;0.2077;
959.7000;0.6341;0.2007;
960.0000;0.6300;0.1914;
960.3000;0.6365;0.2077;
960.6000;0.6349;0.2007;
960.9000;0.6365;0.2054;
961.2000;0.6365;0.2031;
961.5000;0.6349;0.2031;
961.8000;0.6365;0.1937;
962.1000;0.6349;0.1937;
962.4000;0.6374;0.1984;
962.7000;0.6357;0.2031;
963.0000;0.6357;0.1961;
963.3000;0.6374;0.2007;
963.6000;0.6365;0.2101;
963.9000;0.6357;0.2101;
964.2000;0.6374;0.2124;
964.5000;0.6349;0.1914;
964.8000;0.6365;0.2031;
965.1000;0.6406;0.2147;
965.4000;0.6357;0.2101;
965.7000;0.6357;0.2077;
966.0000;0.6447;0.2287;
966.3000;0.6357;0.2007;
966.6000;0.6341;0.1867;
966.9000;0.6349;0.1914;
967.2000;0.6357;0.2007;
967.5000;0.6357;0.2054;
967.8000;0.6349;0.2054;
968.1000;0.6349;0.2077;
968.4000;0.6357;0.2124;
968.7000;0.6357;0.2124;
969.0000;0.6357;0.2077;
969.3000;0.6414;0.2217;
969.6000;0.6349;0.2124;
969.9000;0.6357;0.2077;
970.2000;0.6349;0.2147;
970.5000;0.6341;0.2194;
970.8000;0.6365;0.2124;
971.1000;0.6414;0.2147;
971.4000;0.6447;0.2311;
971.7000;0.6349;0.2031;
972.0000;0.6365;0.2171;
972.3000;0.6349;0.2147;
972.6000;0.6309;0.2194;
972.9000;0.6341;0.2287;
973.2000;0.6341;0.2311;
973.5000;0.6341;0.2357;
973.8000;0.6357;0.2474;
974.1000;0.6357;0.2381;
974.4000;0.6333;0.2334;
974.7000;0.6349;0.2241;
975.0000;0.6325;0.2194;
975.3000;0.6357;0.2147;
975.6000;0.6349;0.2124;
975.9000;0.6349;0.2101;
976.2000;0.6341;0.2031;
976.5000;0.6374;0.1984;
976.8000;0.6357;0.1937;
977.1000;0.6341;0.1961;
977.4000;0.6349;0.1937;
977.7000;0.6365;0.2007;
978.0000;0.6349;0.2031;
978.3000;0.6349;0.2031;
978.6000;0.6333;0.2054;
978.9000;0.6341;0.2101;
979.2000;0.6341;0.2054;
979.5000;0.6333;0.2077;
979.8000;0.6333;0.2077;
980.1000;0.6341;0.2124;
980.4000;0.6325;0.2054;
980.7000;0.6349;0.2171;
981.0000;0.6325;0.2147;
981.3000;0.6333;0.2147;
981.6000;0.6357;0.2124;
981.9000;0.6357;0.2077;
982.2000;0.6325;0.2077;
982.5000;0.6341;0.2101;
982.8000;0.6341;0.2101;
983.1000;0.6341;0.2147;
983.4000;0.6325;0.2031;
983.7000;0.6325;0.1961;
984.0000;0.6309;0.1961;
984.3000;0.6317;0.2007;
984.6000;0.6341;0.2077;
984.9000;0.6349;0.2101;
985.2000;0.6357;0.2124;
985.5000;0.6349;0.2077;
985.8000;0.6333;0.2054;
986.1000;0.6341;0.2101;
986.4000;0.6341;0.2077;
986.7000;0.6341;0.2077;
987.0000;0.6349;0.2031;
987.3000;0.6349;0.2031;
987.6000;0.6341;0.2101;
987.9000;0.6349;0.2217;
988.2000;0.6341;0.2241;
988.5000;0.6357;0.2217;
988.8000;0.6317;0.2031;
989.1000;0.6341;0.2007;
989.4000;0.6284;0.1891;
989.7000;0.6325;0.2054;
990.0000;0.6341;0.2054;
990.3000;0.6317;0.2031;
990.6000;0.6333;0.2077;
990.9000;0.6333;0.2054;
991.2000;0.6341;0.2007;
991.5000;0.6333;0.2031;
991.8000;0.6349;0.2101;
992.1000;0.6349;0.2077;
992.4000;0.6309;0.2031;
992.7000;0.6341;0.2147;
993.0000;0.6349;0.2194;
993.3000;0.6357;0.2147;
993.6000;0.6341;0.2147;
993.9000;0.6325;0.2077;
994.2000;0.6333;0.2147;
994.5000;0.6341;0.2101;
994.8000;0.6333;0.2101;
995.1000;0.6357;0.2124;
995.4000;0.6325;0.1961;
995.7000;0.6300;0.1961;
996.0000;0.6325;0.2077;
996.3000;0.6333;0.2124;
996.6000;0.6333;0.2124;
996.9000;0.6317;0.2077;
997.2000;0.6325;0.2101;
997.5000;0.6325;0.2054;
997.8000;0.6325;0.2054;
998.1000;0.6341;0.2124;
998.4000;0.6357;0.2147;
998.7000;0.6325;0.2031;
999.0000;0.6325;0.1937;
999.3000;0.6333;0.2007;
999.6000;0.6325;0.2031;
999.9000;0.6349;0.2101;
1000.2000;0.6365;0.2217;
1000.5000;0.6333;0.2124;
1000.8000;0.6341;0.2101;
1001.1000;0.6333;0.2101;
1001.4000;0.6317;0.2101;
1001.7000;0.6309;0.2054;
1002.0000;0.6333;0.2054;
1002.3000;0.6357;0.2054;
1002.6000;0.6341;0.2054;
1002.9000;0.6374;0.2124;
1003.2000;0.6317;0.2007;
1003.5000;0.6325;0.2077;
1003.8000;0.6292;0.1961;
1004.1000;0.6309;0.2031;
1004.4000;0.6333;0.1984;
1004.7000;0.6333;0.1937;
1005.0000;0.6390;0.2054;
1005.3000;0.6341;0.1984;
1005.6000;0.6317;0.1961;
1005.9000;0.6325;0.1937;
1006.2000;0.6333;0.2054;
1006.5000;0.6317;0.2077;
1006.8000;0.6300;0.2124;
1007.1000;0.6325;0.2241;
1007.4000;0.6333;0.2311;
1007.7000;0.6333;0.2264;
1008.0000;0.6357;0.2287;
1008.3000;0.6300;0.2194;
1008.6000;0.6325;0.2217;
1008.9000;0.6317;0.2101;
1009.2000;0.6276;0.1984;
1009.5000;0.6341;0.2101;
1009.8000;0.6276;0.1891;
1010.1000;0.6333;0.2007;
1010.4000;0.6317;0.2101;
1010.7000;0.6374;0.2217;
1011.0000;0.6325;0.2171;
1011.3000;0.6292;0.2054;
1011.6000;0.6309;0.2007;
1011.9000;0.6333;0.2077;
1012.2000;0.6365;0.2124;
1012.5000;0.6333;0.2147;
1012.8000;0.6333;0.2241;
1013.1000;0.6325;0.2334;
1013.4000;0.6309;0.2241;
1013.7000;0.6325;0.2194;
1014.0000;0.6317;0.2171;
1014.3000;0.6317;0.2124;
1014.6000;0.6309;0.2077;
1014.9000;0.6333;0.2031;
1015.2000;0.6325;0.2124;
1015.5000;0.6292;0.2124;
1015.8000;0.6374;0.2264;
1016.1000;0.6341;0.2171;
1016.4000;0.6284;0.2054;
1016.7000;0.6325;0.2101;
1017.0000;0.6317;0.2054;
1017.3000;0.6333;0.2077;
1017.6000;0.6317;0.2054;
1017.9000;0.6317;0.2007;
1018.2000;0.6309;0.2101;
1018.5000;0.6309;0.2124;
1018.8000;0.6309;0.2217;
1019.1000;0.6317;0.2194;
1019.4000;0.6317;0.2124;
1019.7000;0.6292;0.2077;
1020.0000;0.6317;0.2124;
1020.3000;0.6317;0.2077;
1020.6000;0.6317;0.2031;
1020.9000;0.6309;0.2101;
1021.2000;0.6309;0.2007;
1021.5000;0.6349;0.2147;
1021.8000;0.6325;0.2077;
1022.1000;0.6317;0.2054;
1022.4000;0.6300;0.2031;
1022.7000;0.6341;0.2147;
1023.0000;0.6325;0.2147;
1023.3000;0.6292;0.2077;
1023.6000;0.6325;0.2171;
1023.9000;0.6333;0.2171;
1024.2000;0.6333;0.2241;
1024.5000;0.6325;0.2287;
1024.8000;0.6365;0.2381;
1025.1000;0.6333;0.2241;
1025.4000;0.6341;0.2194;
1025.7000;0.6333;0.2217;
1026.0000;0.6333;0.2264;
1026.3000;0.6325;0.2217;
1026.6000;0.6317;0.2311;
1026.9000;0.6309;0.2311;
1027.2000;0.6333;0.2334;
1027.5000;0.6309;0.2311;
1027.8000;0.6325;0.2404;
1028.1000;0.6309;0.2381;
1028.4000;0.6300;0.2381;
1028.7000;0.6317;0.2427;
1029.0000;0.6317;0.2451;
1029.3000;0.6325;0.2404;
1029.6000;0.6317;0.2287;
1029.9000;0.6317;0.2241;
1030.2000;0.6317;0.2241;
1030.5000;0.6325;0.2241;
1030.8000;0.6325;0.2264;
1031.1000;0.6300;0.2194;
1031.4000;0.6300;0.2194;
1031.7000;0.6309;0.2311;
1032.0000;0.6325;0.2334;
1032.3000;0.6292;0.2287;
1032.6000;0.6292;0.2287;
1032.9000;0.6333;0.2171;
1033.2000;0.6317;0.2101;
1033.5000;0.6309;0.2054;
1033.8000;0.6317;0.2171;
1034.1000;0.6317;0.2171;
1034.4000;0.6309;0.2147;
1034.7000;0.6276;0.2031;
1035.0000;0.6292;0.2031;
1035.3000;0.6325;0.2124;
1035.6000;0.6333;0.2124;
1035.9000;0.6349;0.2334;
1036.2000;0.6325;0.2311;
1036.5000;0.6325;0.2287;
1036.8000;0.6325;0.2287;
1037.1000;0.6333;0.2264;
1037.4000;0.6292;0.2147;
1037.7000;0.6292;0.2171;
1038.0000;0.6300;0.2264;
1038.3000;0.6268;0.2194;
1038.6000;0.6309;0.2311;
1038.9000;0.6309;0.2311;
1039.2000;0.6292;0.2311;
1039.5000;0.6309;0.2381;
1039.8000;0.6325;0.2381;
1040.1000;0.6260;0.2194;
1040.4000;0.6317;0.2311;
1040.7000;0.6292;0.2287;
1041.0000;0.6284;0.2287;
1041.3000;0.6317;0.2311;
1041.6000;0.6284;0.2217;
1041.9000;0.6309;0.2194;
1042.2000;0.6292;0.2171;
1042.5000;0.6300;0.2171;
1042.8000;0.6292;0.2217;
1043.1000;0.6309;0.2124;
1043.4000;0.6243;0.2031;
1043.7000;0.6292;0.2217;
1044.0000;0.6309;0.2287;
1044.3000;0.6309;0.2287;
1044.6000;0.6300;0.2194;
1044.9000;0.6292;0.2171;
1045.2000;0.6292;0.2217;
1045.5000;0.6317;0.2264;
1045.8000;0.6325;0.2287;
1046.1000;0.6309;0.2194;
1046.4000;0.6284;0.2171;
1046.7000;0.6284;0.2147;
1047.0000;0.6276;0.2077;
1047.3000;0.6292;0.2054;
1047.6000;0.6300;0.2101;
1047.9000;0.6292;0.2031;
1048.2000;0.6300;0.1984;
1048.5000;0.6300;0.2101;
1048.8000;0.6333;0.2217;
1049.1000;0.6317;0.2264;
1049.4000;0.6292;0.2077;
1049.7000;0.6300;0.2124;
1050.0000;0.6333;0.2287;
1050.3000;0.6300;0.2194;
1050.6000;0.6300;0.2101;
1050.9000;0.6309;0.2031;
1051.2000;0.6300;0.1984;
1051.5000;0.6284;0.2007;
1051.8000;0.6300;0.2077;
1052.1000;0.6284;0.2077;
1052.4000;0.6300;0.2054;
1052.7000;0.6284;0.2101;
1053.0000;0.6276;0.2077;
1053.3000;0.6284;0.1961;
1053.6000;0.6292;0.1937;
1053.9000;0.6260;0.1937;
1054.2000;0.6276;0.1914;
1054.5000;0.6284;0.1891;
1054.8000;0.6284;0.1844;
1055.1000;0.6276;0.1797;
1055.4000;0.6284;0.1867;
1055.7000;0.6309;0.1891;
1056.0000;0.6284;0.1961;
1056.3000;0.6300;0.1961;
1056.6000;0.6292;0.2007;
1056.9000;0.6300;0.2031;
1057.2000;0.6300;0.2077;
1057.5000;0.6300;0.2077;
1057.8000;0.6309;0.2031;
1058.1000;0.6284;0.2007;
1058.4000;0.6252;0.1867;
1058.7000;0.6284;0.1984;
1059.0000;0.6309;0.2007;
1059.3000;0.6309;0.2031;
1059.6000;0.6300;0.2054;
1059.9000;0.6252;0.1961;
1060.2000;0.6317;0.2147;
1060.5000;0.6284;0.2101;
1060.8000;0.6300;0.2147;
1061.1000;0.6292;0.2077;
1061.4000;0.6309;0.2124;
1061.7000;0.6300;0.2194;
1062.0000;0.6276;0.2101;
1062.3000;0.6284;0.2077;
1062.6000;0.6276;0.2147;
1062.9000;0.6292;0.2124;
1063.2000;0.6268;0.2217;
1063.5000;0.6276;0.2264;
1063.8000;0.6292;0.2311;
1064.1000;0.6276;0.2311;
1064.4000;0.6276;0.2334;
1064.7000;0.6292;0.2241;
1065.0000;0.6284;0.2264;
1065.3000;0.6292;0.2334;
1065.6000;0.6292;0.2357;
1065.9000;0.6292;0.2311;
1066.2000;0.6292;0.2334;
1066.5000;0.6317;0.2404;
1066.8000;0.6309;0.2474;
1067.1000;0.6333;0.2497;
1067.4000;0.6292;0.2404;
1067.7000;0.6300;0.2357;
1068.0000;0.6300;0.2334;
1068.3000;0.6276;0.2311;
1068.6000;0.6300;0.2381;
1068.9000;0.6309;0.2404;
1069.2000;0.6309;0.2451;
1069.5000;0.6284;0.2381;
1069.8000;0.6309;0.2497;
1070.1000;0.6292;0.2497;
1070.4000;0.6268;0.2497;
1070.7000;0.6276;0.2497;
1071.0000;0.6268;0.2427;
1071.3000;0.6252;0.2311;
1071.6000;0.6292;0.2334;
1071.9000;0.6292;0.2334;
1072.2000;0.6341;0.2427;
1072.5000;0.6276;0.2264;
1072.8000;0.6284;0.2264;
1073.1000;0.6300;0.2287;
1073.4000;0.6268;0.2217;
1073.7000;0.6276;0.2217;
1074.0000;0.6284;0.2264;
1074.3000;0.6300;0.2311;
1074.6000;0.6309;0.2404;
1074.9000;0.6284;0.2404;
1075.2000;0.6268;0.2334;
1075.5000;0.6284;0.2404;
1075.8000;0.6276;0.2497;
1076.1000;0.6284;0.2497;
1076.4000;0.6284;0.2451;
1076.7000;0.6276;0.2427;
1077.0000;0.6268;0.2357;
1077.3000;0.6276;0.2311;
1077.6000;0.6284;0.2287;
1077.9000;0.6284;0.2287;
1078.2000;0.6292;0.2311;
1078.5000;0.6292;0.2357;
1078.8000;0.6284;0.2171;
1079.1000;0.6292;0.2194;
1079.4000;0.6284;0.2287;
1079.7000;0.6276;0.2357;
1080.0000;0.6276;0.2381;
1080.3000;0.6276;0.2334;
1080.6000;0.6284;0.2381;
1080.9000;0.6284;0.2381;
1081.2000;0.6268;0.2334;
1081.5000;0.6276;0.2357;
1081.8000;0.6284;0.2427;
1082.1000;0.6284;0.2497;
1082.4000;0.6276;0.2404;
1082.7000;0.6292;0.2521;
1083.0000;0.6292;0.2544;
1083.3000;0.6284;0.2521;
1083.6000;0.6300;0.2544;
1083.9000;0.6268;0.2591;
1084.2000;0.6276;0.2521;
1084.5000;0.6276;0.2614;
1084.8000;0.6268;0.2614;
1085.1000;0.6260;0.2544;
1085.4000;0.6276;0.2544;
1085.7000;0.6276;0.2591;
1086.0000;0.6252;0.2497;
1086.3000;0.6276;0.2474;
1086.6000;0.6260;0.2381;
1086.9000;0.6276;0.2451;
1087.2000;0.6268;0.2451;
1087.5000;0.6292;0.2474;
1087.8000;0.6276;0.2497;
1088.1000;0.6284;0.2474;
1088.4000;0.6300;0.2451;
1088.7000;0.6300;0.2521;
1089.0000;0.6292;0.2521;
1089.3000;0.6276;0.2451;
1089.6000;0.6268;0.2427;
1089.9000;0.6300;0.2451;
1090.2000;0.6333;0.2544;
1090.5000;0.6268;0.2287;
1090.8000;0.6276;0.2334;
1091.1000;0.6276;0.2404;
1091.4000;0.6268;0.2334;
1091.7000;0.6252;0.2287;
1092.0000;0.6284;0.2217;
1092.3000;0.6284;0.2264;
1092.6000;0.6268;0.2287;
1092.9000;0.6284;0.2241;
1093.2000;0.6260;0.2147;
1093.5000;0.6243;0.2171;
1093.8000;0.6284;0.2171;
1094.1000;0.6276;0.2101;
1094.4000;0.6276;0.2077;
1094.7000;0.6284;0.2077;
1095.0000;0.6284;0.2101;
1095.3000;0.6276;0.2077;
1095.6000;0.6260;0.2077;
1095.9000;0.6276;0.2077;
1096.2000;0.6276;0.2101;
1096.5000;0.6276;0.2171;
1096.8000;0.6243;0.2171;
1097.1000;0.6260;0.2194;
1097.4000;0.6284;0.2264;
1097.7000;0.6276;0.2334;
1098.0000;0.6268;0.2311;
1098.3000;0.6260;0.2264;
1098.6000;0.6284;0.2217;
1098.9000;0.6292;0.2264;
1099.2000;0.6284;0.2311;
1099.5000;0.6268;0.2264;
1099.8000;0.6268;0.2241;
1100.1000;0.6276;0.2334;
1100.4000;0.6268;0.2241;
1100.7000;0.6268;0.2217;
1101.0000;0.6260;0.2311;
1101.3000;0.6276;0.2334;
1101.6000;0.6284;0.2311;
1101.9000;0.6276;0.2287;
1102.2000;0.6276;0.2381;
1102.5000;0.6292;0.2381;
1102.8000;0.6268;0.2334;
1103.1000;0.6284;0.2287;
1103.4000;0.6276;0.2264;
1103.7000;0.6300;0.2311;
1104.0000;0.6309;0.2287;
1104.3000;0.6268;0.2171;
1104.6000;0.6276;0.2194;
1104.9000;0.6292;0.2217;
1105.2000;0.6276;0.2194;
1105.5000;0.6292;0.2194;
1105.8000;0.6276;0.2241;
1106.1000;0.6260;0.2194;
1106.4000;0.6276;0.2217;
1106.7000;0.6284;0.2217;
1107.0000;0.6276;0.2264;
1107.3000;0.6268;0.2241;
1107.6000;0.6284;0.2194;
1107.9000;0.6260;0.2171;
1108.2000;0.6268;0.2171;
1108.5000;0.6195;0.2054;
1108.8000;0.6268;0.2287;
1109.1000;0.6235;0.2217;
1109.4000;0.6268;0.2217;
1109.7000;0.6276;0.2171;
1110.0000;0.6276;0.2194;
1110.3000;0.6252;0.2217;
1110.6000;0.6292;0.2381;
1110.9000;0.6276;0.2381;
1111.2000;0.6276;0.2381;
1111.5000;0.6300;0.2404;
1111.8000;0.6252;0.2287;
1112.1000;0.6284;0.2357;
1112.4000;0.6260;0.2287;
1112.7000;0.6243;0.2264;
1113.0000;0.6260;0.2357;
1113.3000;0.6268;0.2334;
1113.6000;0.6341;0.2451;
1113.9000;0.6260;0.2217;
1114.2000;0.6276;0.2264;
1114.5000;0.6260;0.2217;
1114.8000;0.6252;0.2194;
1115.1000;0.6276;0.2217;
1115.4000;0.6284;0.2147;
1115.7000;0.6284;0.2124;
1116.0000;0.6268;0.2077;
1116.3000;0.6260;0.2007;
1116.6000;0.6276;0.2054;
1116.9000;0.6284;0.2054;
1117.2000;0.6268;0.2101;
1117.5000;0.6276;0.2101;
1117.8000;0.6260;0.2077;
1118.1000;0.6260;0.2147;
1118.4000;0.6243;0.2147;
1118.7000;0.6252;0.2147;
1119.0000;0.6211;0.2124;
1119.3000;0.6268;0.2287;
1119.6000;0.6268;0.2264;
1119.9000;0.6260;0.2217;
1120.2000;0.6276;0.2194;
1120.5000;0.6268;0.2194;
1120.8000;0.6186;0.2054;
1121.1000;0.6268;0.2287;
1121.4000;0.6268;0.2241;
1121.7000;0.6260;0.2194;
1122.0000;0.6211;0.2124;
1122.3000;0.6252;0.2217;
1122.6000;0.6227;0.2287;
1122.9000;0.6260;0.2241;
1123.2000;0.6260;0.2241;
1123.5000;0.6260;0.2264;
1123.8000;0.6300;0.2381;
1124.1000;0.6260;0.2287;
1124.4000;0.6292;0.2311;
1124.7000;0.6276;0.2241;
1125.0000;0.6276;0.2171;
1125.3000;0.6276;0.2124;
1125.6000;0.6284;0.2171;
1125.9000;0.6284;0.2124;
1126.2000;0.6276;0.1961;
1126.5000;0.6276;0.2054;
1126.8000;0.6260;0.2101;
1127.1000;0.6276;0.2147;
1127.4000;0.6260;0.2101;
1127.7000;0.6284;0.2101;
1128.0000;0.6243;0.2171;
1128.3000;0.6260;0.2147;
1128.6000;0.6276;0.2124;
1128.9000;0.6268;0.2147;
1129.2000;0.6252;0.2171;
1129.5000;0.6284;0.2264;
1129.8000;0.6260;0.2264;
1130.1000;0.6260;0.2357;
1130.4000;0.6300;0.2334;
1130.7000;0.6260;0.2264;
1131.0000;0.6292;0.2287;
1131.3000;0.6276;0.2287;
1131.6000;0.6333;0.2451;
1131.9000;0.6276;0.2264;
1132.2000;0.6276;0.2147;
1132.5000;0.6260;0.2101;
1132.8000;0.6252;0.2031;
1133.1000;0.6268;0.2031;
1133.4000;0.6235;0.1937;
1133.7000;0.6268;0.2007;
1134.0000;0.6284;0.1961;
1134.3000;0.6252;0.1914;
1134.6000;0.6276;0.1961;
1134.9000;0.6276;0.2007;
1135.2000;0.6268;0.1961;
1135.5000;0.6252;0.1937;
1135.8000;0.6252;0.1937;
1136.1000;0.6300;0.2101;
1136.4000;0.6235;0.1867;
1136.7000;0.6276;0.1961;
1137.0000;0.6243;0.1984;
1137.3000;0.6260;0.2077;
1137.6000;0.6252;0.2077;
1137.9000;0.6260;0.2007;
1138.2000;0.6260;0.2077;
1138.5000;0.6252;0.2031;
1138.8000;0.6260;0.2054;
1139.1000;0.6252;0.2054;
1139.4000;0.6268;0.2101;
1139.7000;0.6276;0.2171;
1140.0000;0.6268;0.2077;
1140.3000;0.6268;0.2031;
1140.6000;0.6243;0.2077;
1140.9000;0.6243;0.2054;
1141.2000;0.6260;0.2124;
1141.5000;0.6284;0.2147;
1141.8000;0.6268;0.2007;
1142.1000;0.6268;0.2007;
1142.4000;0.6300;0.2124;
1142.7000;0.6268;0.2194;
1143.0000;0.6227;0.2007;
1143.3000;0.6252;0.2147;
1143.6000;0.6284;0.2217;
1143.9000;0.6260;0.2171;
1144.2000;0.6276;0.2287;
1144.5000;0.6260;0.2404;
1144.8000;0.6325;0.2591;
1145.1000;0.6252;0.2381;
1145.4000;0.6252;0.2451;
1145.7000;0.6260;0.2497;
1146.0000;0.6252;0.2591;
1146.3000;0.6260;0.2497;
1146.6000;0.6260;0.2497;
1146.9000;0.6235;0.2427;
1147.2000;0.6260;0.2357;
1147.5000;0.6260;0.2427;
1147.8000;0.6243;0.2427;
1148.1000;0.6227;0.2381;
1148.4000;0.6252;0.2497;
1148.7000;0.6268;0.2544;
1149.0000;0.6268;0.2567;
1149.3000;0.6268;0.2521;
1149.6000;0.6252;0.2544;
1149.9000;0.6292;0.2614;
1150.2000;0.6268;0.2474;
1150.5000;0.6268;0.2334;
1150.8000;0.6252;0.2287;
1151.1000;0.6243;0.2311;
1151.4000;0.6235;0.2287;
1151.7000;0.6260;0.2311;
1152.0000;0.6260;0.2311;
1152.3000;0.6252;0.2311;
1152.6000;0.6260;0.2427;
1152.9000;0.6260;0.2427;
1153.2000;0.6260;0.2311;
1153.5000;0.6260;0.2334;
1153.8000;0.6268;0.2381;
1154.1000;0.6252;0.2381;
1154.4000;0.6243;0.2381;
1154.7000;0.6243;0.2381;
1155.0000;0.6260;0.2404;
1155.3000;0.6252;0.2404;
1155.6000;0.6170;0.2171;
1155.9000;0.6227;0.2334;
1156.2000;0.6276;0.2451;
1156.5000;0.6235;0.2451;
1156.8000;0.6243;0.2451;
1157.1000;0.6252;0.2427;
1157.4000;0.6243;0.2404;
1157.7000;0.6252;0.2427;
1158.0000;0.6260;0.2427;
1158.3000;0.6260;0.2404;
1158.6000;0.6260;0.2521;
1158.9000;0.6268;0.2544;
1159.2000;0.6268;0.2591;
1159.5000;0.6260;0.2591;
1159.8000;0.6227;0.2357;
1160.1000;0.6260;0.2427;
1160.4000;0.6260;0.2497;
1160.7000;0.6268;0.2474;
1161.0000;0.6211;0.2404;
1161.3000;0.6243;0.2497;
1161.6000;0.6252;0.2521;
1161.9000;0.6260;0.2521;
1162.2000;0.6260;0.2474;
1162.5000;0.6252;0.2381;
1162.8000;0.6252;0.2311;
1163.1000;0.6252;0.2381;
1163.4000;0.6268;0.2357;
1163.7000;0.6178;0.2194;
1164.0000;0.6268;0.2497;
1164.3000;0.6252;0.2427;
1164.6000;0.6252;0.2357;
1164.9000;0.6325;0.2567;
1165.2000;0.6243;0.2427;
1165.5000;0.6260;0.2451;
1165.8000;0.6276;0.2614;
1166.1000;0.6243;0.2451;
1166.4000;0.6227;0.2451;
1166.7000;0.6235;0.2381;
1167.0000;0.6260;0.2451;
1167.3000;0.6252;0.2451;
1167.6000;0.6284;0.2474;
1167.9000;0.6260;0.2404;
1168.2000;0.6260;0.2451;
1168.5000;0.6252;0.2451;
1168.8000;0.6243;0.2474;
1169.1000;0.6268;0.2474;
1169.4000;0.6276;0.2591;
1169.7000;0.6268;0.2497;
1170.0000;0.6235;0.2311;
1170.3000;0.6227;0.2264;
1170.6000;0.6235;0.2334;
1170.9000;0.6252;0.2241;
1171.2000;0.6252;0.2124;
1171.5000;0.6243;0.2171;
1171.8000;0.6276;0.2217;
1172.1000;0.6252;0.2241;
1172.4000;0.6243;0.2264;
1172.7000;0.6260;0.2357;
1173.0000;0.6243;0.2404;
1173.3000;0.6243;0.2427;
1173.6000;0.6252;0.2427;
1173.9000;0.6252;0.2381;
1174.2000;0.6276;0.2451;
1174.5000;0.6227;0.2311;
1174.8000;0.6252;0.2311;
1175.1000;0.6227;0.2194;
1175.4000;0.6227;0.2194;
1175.7000;0.6252;0.2264;
1176.0000;0.6252;0.2241;
1176.3000;0.6243;0.2171;
1176.6000;0.6235;0.2147;
1176.9000;0.6252;0.2264;
1177.2000;0.6268;0.2381;
1177.5000;0.6309;0.2474;
1177.8000;0.6252;0.2311;
1178.1000;0.6260;0.2357;
1178.4000;0.6243;0.2217;
1178.7000;0.6260;0.2264;
1179.0000;0.6243;0.2171;
1179.3000;0.6252;0.2147;
1179.6000;0.6276;0.2217;
1179.9000;0.6252;0.2217;
1180.2000;0.6235;0.2264;
1180.5000;0.6284;0.2334;
1180.8000;0.6252;0.2264;
1181.1000;0.6284;0.2357;
1181.4000;0.6243;0.2311;
1181.7000;0.6268;0.2404;
1182.0000;0.6252;0.2381;
1182.3000;0.6260;0.2404;
1182.6000;0.6276;0.2451;
1182.9000;0.6243;0.2404;
1183.2000;0.6154;0.2171;
1183.5000;0.6292;0.2404;
1183.8000;0.6284;0.2381;
1184.1000;0.6227;0.2241;
1184.4000;0.6252;0.2311;
1184.7000;0.6252;0.2311;
1185.0000;0.6243;0.2311;
1185.3000;0.6284;0.2451;
1185.6000;0.6252;0.2264;
1185.9000;0.6235;0.2147;
1186.2000;0.6227;0.2217;
1186.5000;0.6252;0.2241;
1186.8000;0.6203;0.2101;
1187.1000;0.6252;0.2171;
1187.4000;0.6252;0.2147;
1187.7000;0.6243;0.2124;
1188.0000;0.6252;0.2147;
1188.3000;0.6203;0.2031;
1188.6000;0.6260;0.2147;
1188.9000;0.6260;0.2124;
1189.2000;0.6235;0.2031;
1189.5000;0.6252;0.2031;
1189.8000;0.6235;0.2007;
1190.1000;0.6252;0.2101;
1190.4000;0.6235;0.2194;
1190.7000;0.6235;0.2101;
1191.0000;0.6235;0.2124;
1191.3000;0.6211;0.2171;
1191.6000;0.6235;0.2311;
1191.9000;0.6178;0.2171;
1192.2000;0.6252;0.2311;
1192.5000;0.6252;0.2357;
1192.8000;0.6235;0.2311;
1193.1000;0.6227;0.2264;
1193.4000;0.6260;0.2311;
1193.7000;0.6203;0.2147;
1194.0000;0.6243;0.2194;
1194.3000;0.6243;0.2171;
1194.6000;0.6243;0.2217;
1194.9000;0.6260;0.2217;
1195.2000;0.6252;0.2124;
1195.5000;0.6317;0.2194;
1195.8000;0.6227;0.2007;
1196.1000;0.6243;0.2124;
1196.4000;0.6243;0.2217;
1196.7000;0.6235;0.2124;
1197.0000;0.6260;0.2101;
1197.3000;0.6227;0.2147;
1197.6000;0.6243;0.2194;
1197.9000;0.6243;0.2194;
1198.2000;0.6243;0.2194;
1198.5000;0.6227;0.2124;
1198.8000;0.6252;0.2077;
1199.1000;0.6268;0.2194;
1199.4000;0.6252;0.2217;
1199.7000;0.6219;0.2171;
1200.0000;0.6243;0.2241;
1200.3000;0.6252;0.2264;
1200.6000;0.6260;0.2264;
1200.9000;0.6243;0.2217;
1201.2000;0.6243;0.2217;
1201.5000;0.6268;0.2194;
1201.8000;0.6243;0.2147;
1202.1000;0.6252;0.2077;
1202.4000;0.6227;0.2031;
1202.7000;0.6227;0.2101;
1203.0000;0.6252;0.2031;
1203.3000;0.6243;0.2217;
1203.6000;0.6260;0.2287;
1203.9000;0.6235;0.2287;
1204.2000;0.6243;0.2241;
1204.5000;0.6211;0.2124;
1204.8000;0.6227;0.2171;
1205.1000;0.6227;0.2124;
1205.4000;0.6243;0.2147;
1205.7000;0.6154;0.2007;
1206.0000;0.6235;0.2194;
1206.3000;0.6243;0.2124;
1206.6000;0.6211;0.2007;
1206.9000;0.6243;0.2007;
1207.2000;0.6178;0.1774;
1207.5000;0.6227;0.1821;
1207.8000;0.6243;0.1914;
1208.1000;0.6235;0.2007;
1208.4000;0.6243;0.2077;
1208.7000;0.6235;0.2101;
1209.0000;0.6211;0.2124;
1209.3000;0.6243;0.2124;
1209.6000;0.6235;0.2217;
1209.9000;0.6235;0.2264;
1210.2000;0.6235;0.2287;
1210.5000;0.6243;0.2357;
1210.8000;0.6235;0.2404;
1211.1000;0.6252;0.2474;
1211.4000;0.6235;0.2451;
1211.7000;0.6243;0.2544;
1212.0000;0.6252;0.2521;
1212.3000;0.6243;0.2427;
1212.6000;0.6252;0.2334;
1212.9000;0.6252;0.2357;
1213.2000;0.6243;0.2357;
1213.5000;0.6243;0.2381;
1213.8000;0.6235;0.2497;
1214.1000;0.6227;0.2497;
1214.4000;0.6243;0.2474;
1214.7000;0.6227;0.2381;
1215.0000;0.6284;0.2497;
1215.3000;0.6243;0.2357;
1215.6000;0.6243;0.2381;
1215.9000;0.6309;0.2474;
1216.2000;0.6243;0.2381;
1216.5000;0.6235;0.2404;
1216.8000;0.6235;0.2427;
1217.1000;0.6260;0.2451;
1217.4000;0.6243;0.2381;
1217.7000;0.6219;0.2311;
1218.0000;0.6260;0.2427;
1218.3000;0.6284;0.2451;
1218.6000;0.6227;0.2287;
1218.9000;0.6235;0.2334;
1219.2000;0.6219;0.2287;
1219.5000;0.6276;0.2497;
1219.8000;0.6235;0.2427;
1220.1000;0.6227;0.2451;
1220.4000;0.6235;0.2474;
1220.7000;0.6260;0.2427;
1221.0000;0.6268;0.2451;
1221.3000;0.6260;0.2381;
1221.6000;0.6252;0.2311;
1221.9000;0.6268;0.2381;
1222.2000;0.6260;0.2311;
1222.5000;0.6252;0.2311;
1222.8000;0.6260;0.2357;
1223.1000;0.6170;0.2241;
1223.4000;0.6243;0.2381;
1223.7000;0.6252;0.2334;
1224.0000;0.6276;0.2334;
1224.3000;0.6178;0.2124;
1224.6000;0.6243;0.2241;
1224.9000;0.6219;0.2264;
1225.2000;0.6252;0.2334;
1225.5000;0.6227;0.2311;
1225.8000;0.6235;0.2287;
1226.1000;0.6235;0.2217;
1226.4000;0.6260;0.2311;
1226.7000;0.6292;0.2357;
1227.0000;0.6243;0.2217;
1227.3000;0.6252;0.2241;
1227.6000;0.6260;0.2217;
1227.9000;0.6219;0.2241;
1228.2000;0.6235;0.2287;
1228.5000;0.6235;0.2171;
1228.8000;0.6203;0.2031;
1229.1000;0.6227;0.2171;
1229.4000;0.6227;0.2217;
1229.7000;0.6219;0.2217;
1230.0000;0.6178;0.2124;
1230.3000;0.6235;0.2194;
1230.6000;0.6235;0.2171;
1230.9000;0.6235;0.2054;
1231.2000;0.6243;0.2031;
1231.5000;0.6243;0.2054;
1231.8000;0.6252;0.2101;
1232.1000;0.6243;0.2171;
1232.4000;0.6235;0.2241;
1232.7000;0.6252;0.2264;
1233.0000;0.6227;0.2241;
1233.3000;0.6243;0.2287;
1233.6000;0.6227;0.2194;
1233.9000;0.6219;0.2241;
1234.2000;0.6227;0.2217;
1234.5000;0.6211;0.2217;
1234.8000;0.6235;0.2241;
1235.1000;0.6252;0.2264;
1235.4000;0.6219;0.2241;
1235.7000;0.6211;0.2241;
1236.0000;0.6219;0.2287;
1236.3000;0.6227;0.2287;
1236.6000;0.6195;0.2264;
1236.9000;0.6252;0.2264;
1237.2000;0.6243;0.2194;
1237.5000;0.6260;0.2241;
1237.8000;0.6252;0.2241;
1238.1000;0.6227;0.2194;
1238.4000;0.6227;0.2287;
1238.7000;0.6268;0.2311;
1239.0000;0.6252;0.2241;
1239.3000;0.6195;0.2147;
1239.6000;0.6227;0.2311;
1239.9000;0.6227;0.2287;
1240.2000;0.6235;0.2381;
1240.5000;0.6243;0.2427;
1240.8000;0.6243;0.2474;
1241.1000;0.6219;0.2334;
1241.4000;0.6243;0.2404;
1241.7000;0.6227;0.2427;
1242.0000;0.6252;0.2427;
1242.3000;0.6227;0.2311;
1242.6000;0.6260;0.2287;
1242.9000;0.6252;0.2241;
1243.2000;0.6219;0.2194;
1243.5000;0.6219;0.2194;
1243.8000;0.6235;0.2171;
1244.1000;0.6235;0.2217;
1244.4000;0.6227;0.2194;
1244.7000;0.6227;0.2217;
1245.0000;0.6219;0.2171;
1245.3000;0.6243;0.2264;
1245.6000;0.6235;0.2241;
1245.9000;0.6235;0.2287;
1246.2000;0.6227;0.2381;
1246.5000;0.6243;0.2427;
1246.8000;0.6235;0.2404;
1247.1000;0.6317;0.2614;
1247.4000;0.6227;0.2427;
1247.7000;0.6235;0.2451;
1248.0000;0.6235;0.2427;
1248.3000;0.6260;0.2474;
1248.6000;0.6211;0.2334;
1248.9000;0.6235;0.2381;
1249.2000;0.6235;0.2427;
1249.5000;0.6219;0.2381;
1249.8000;0.6235;0.2357;
1250.1000;0.6243;0.2474;
1250.4000;0.6227;0.2427;
1250.7000;0.6235;0.2404;
1251.0000;0.6219;0.2334;
1251.3000;0.6203;0.2287;
1251.6000;0.6227;0.2311;
1251.9000;0.6219;0.2264;
1252.2000;0.6268;0.2451;
1252.5000;0.6227;0.2404;
1252.8000;0.6235;0.2451;
1253.1000;0.6243;0.2474;
1253.4000;0.6227;0.2497;
1253.7000;0.6162;0.2357;
1254.0000;0.6219;0.2567;
1254.3000;0.6235;0.2567;
1254.6000;0.6243;0.2521;
1254.9000;0.6203;0.2381;
1255.2000;0.6211;0.2451;
1255.5000;0.6211;0.2404;
1255.8000;0.6219;0.2334;
1256.1000;0.6219;0.2287;
1256.4000;0.6227;0.2334;
1256.7000;0.6227;0.2357;
1257.0000;0.6243;0.2427;
1257.3000;0.6243;0.2404;
1257.6000;0.6219;0.2381;
1257.9000;0.6219;0.2474;
1258.2000;0.6227;0.2567;
1258.5000;0.6219;0.2497;
1258.8000;0.6268;0.2544;
1259.1000;0.6219;0.2381;
1259.4000;0.6227;0.2311;
1259.7000;0.6211;0.2241;
1260.0000;0.6235;0.2264;
1260.3000;0.6227;0.2194;
1260.6000;0.6186;0.2077;
1260.9000;0.6235;0.2101;
1261.2000;0.6219;0.2031;
1261.5000;0.6211;0.1984;
1261.8000;0.6243;0.1937;
1262.1000;0.6243;0.1937;
1262.4000;0.6227;0.1937;
1262.7000;0.6227;0.1984;
1263.0000;0.6252;0.2101;
1263.3000;0.6252;0.2194;
1263.6000;0.6219;0.2217;
1263.9000;0.6235;0.2241;
1264.2000;0.6243;0.2264;
1264.5000;0.6252;0.2287;
1264.8000;0.6252;0.2287;
1265.1000;0.6203;0.2217;
1265.4000;0.6219;0.2217;
1265.7000;0.6235;0.2171;
1266.0000;0.6227;0.2217;
1266.3000;0.6227;0.2287;
1266.6000;0.6219;0.2287;
1266.9000;0.6227;0.2264;
1267.2000;0.6243;0.2311;
1267.5000;0.6219;0.2311;
1267.8000;0.6227;0.2404;
1268.1000;0.6300;0.2614;
1268.4000;0.6219;0.2497;
1268.7000;0.6252;0.2567;
1269.0000;0.6186;0.2451;
1269.3000;0.6227;0.2544;
1269.6000;0.6252;0.2544;
1269.9000;0.6235;0.2451;
1270.2000;0.6186;0.2311;
1270.5000;0.6235;0.2427;
1270.8000;0.6243;0.2334;
1271.1000;0.6235;0.2334;
1271.4000;0.6235;0.2357;
1271.7000;0.6227;0.2334;
1272.0000;0.6219;0.2357;
1272.3000;0.6186;0.2357;
1272.6000;0.6252;0.2497;
1272.9000;0.6219;0.2474;
1273.2000;0.6252;0.2474;
1273.5000;0.6243;0.2404;
1273.8000;0.6243;0.2474;
1274.1000;0.6227;0.2497;
1274.4000;0.6227;0.2474;
1274.7000;0.6219;0.2474;
1275.0000;0.6227;0.2497;
1275.3000;0.6227;0.2334;
1275.6000;0.6243;0.2334;
1275.9000;0.6203;0.2311;
1276.2000;0.6243;0.2451;
1276.5000;0.6211;0.2474;
1276.8000;0.6195;0.2521;
1277.1000;0.6170;0.2357;
1277.4000;0.6219;0.2404;
1277.7000;0.6227;0.2404;
1278.0000;0.6243;0.2357;
1278.3000;0.6227;0.2334;
1278.6000;0.6203;0.2311;
1278.9000;0.6235;0.2381;
1279.2000;0.6243;0.2451;
1279.5000;0.6235;0.2544;
1279.8000;0.6235;0.2567;
1280.1000;0.6243;0.2451;
1280.4000;0.6219;0.2451;
1280.7000;0.6243;0.2521;
1281.0000;0.6227;0.2427;
1281.3000;0.6235;0.2381;
1281.6000;0.6211;0.2381;
1281.9000;0.6170;0.2171;
1282.2000;0.6227;0.2334;
1282.5000;0.6243;0.2357;
1282.8000;0.6203;0.2334;
1283.1000;0.6227;0.2404;
1283.4000;0.6211;0.2311;
1283.7000;0.6219;0.2357;
1284.0000;0.6252;0.2287;
1284.3000;0.6219;0.2147;
1284.6000;0.6211;0.2124;
1284.9000;0.6203;0.2031;
1285.2000;0.6243;0.2194;
1285.5000;0.6243;0.2241;
1285.8000;0.6195;0.2217;
1286.1000;0.6227;0.2334;
1286.4000;0.6219;0.2357;
1286.7000;0.6260;0.2427;
1287.0000;0.6219;0.2311;
1287.3000;0.6219;0.2334;
1287.6000;0.6227;0.2381;
1287.9000;0.6235;0.2357;
1288.2000;0.6235;0.2287;
1288.5000;0.6227;0.2287;
1288.8000;0.6219;0.2241;
1289.1000;0.6252;0.2194;
1289.4000;0.6227;0.2171;
1289.7000;0.6227;0.2171;
1290.0000;0.6203;0.2171;
1290.3000;0.6186;0.2124;
1290.6000;0.6219;0.2311;
1290.9000;0.6219;0.2427;
1291.2000;0.6235;0.2451;
1291.5000;0.6227;0.2474;
1291.8000;0.6227;0.2474;
1292.1000;0.6219;0.2451;
1292.4000;0.6211;0.2404;
1292.7000;0.6235;0.2451;
1293.0000;0.6227;0.2451;
1293.3000;0.6235;0.2497;
1293.6000;0.6243;0.2497;
1293.9000;0.6219;0.2451;
1294.2000;0.6235;0.2567;
1294.5000;0.6235;0.2497;
1294.8000;0.6219;0.2497;
1295.1000;0.6235;0.2544;
1295.4000;0.6235;0.2521;
1295.7000;0.6227;0.2567;
1296.0000;0.6243;0.2661;
1296.3000;0.6268;0.2661;
1296.6000;0.6243;0.2614;
1296.9000;0.6227;0.2544;
1297.2000;0.6268;0.2544;
1297.5000;0.6235;0.2497;
1297.8000;0.6211;0.2427;
1298.1000;0.6227;0.2451;
1298.4000;0.6211;0.2334;
1298.7000;0.6227;0.2287;
1299.0000;0.6227;0.2287;
1299.3000;0.6227;0.2334;
1299.6000;0.6235;0.2451;
1299.9000;0.6235;0.2427;
1300.2000;0.6227;0.2474;
1300.5000;0.6243;0.2451;
1300.8000;0.6243;0.2474;
1301.1000;0.6219;0.2427;
1301.4000;0.6227;0.2427;
1301.7000;0.6235;0.2521;
1302.0000;0.6227;0.2544;
1302.3000;0.6211;0.2451;
1302.6000;0.6211;0.2404;
1302.9000;0.6227;0.2497;
1303.2000;0.6227;0.2521;
1303.5000;0.6219;0.2474;
1303.8000;0.6235;0.2497;
1304.1000;0.6211;0.2521;
1304.4000;0.6219;0.2567;
1304.7000;0.6235;0.2637;
1305.0000;0.6211;0.2661;
1305.3000;0.6219;0.2661;
1305.6000;0.6219;0.2637;
1305.9000;0.6219;0.2591;
1306.2000;0.6227;0.2497;
1306.5000;0.6211;0.2521;
1306.8000;0.6252;0.2614;
1307.1000;0.6235;0.2637;
1307.4000;0.6227;0.2637;
1307.7000;0.6227;0.2661;
1308.0000;0.6219;0.2707;
1308.3000;0.6219;0.2661;
1308.6000;0.6219;0.2591;
1308.9000;0.6243;0.2637;
1309.2000;0.6227;0.2637;
1309.5000;0.6219;0.2637;
1309.8000;0.6219;0.2731;
1310.1000;0.6211;0.2731;
1310.4000;0.6219;0.2684;
1310.7000;0.6219;0.2707;
1311.0000;0.6146;0.2567;
1311.3000;0.6227;0.2731;
1311.6000;0.6203;0.2661;
1311.9000;0.6235;0.2707;
1312.2000;0.6227;0.2637;
1312.5000;0.6235;0.2544;
1312.8000;0.6227;0.2451;
1313.1000;0.6219;0.2474;
1313.4000;0.6227;0.2474;
1313.7000;0.6235;0.2474;
1314.0000;0.6243;0.2451;
1314.3000;0.6178;0.2357;
1314.6000;0.6219;0.2404;
1314.9000;0.6211;0.2404;
1315.2000;0.6227;0.2334;
1315.5000;0.6211;0.2287;
1315.8000;0.6211;0.2217;
1316.1000;0.6227;0.2194;
1316.4000;0.6219;0.2194;
1316.7000;0.6235;0.2147;
1317.0000;0.6195;0.2054;
1317.3000;0.6235;0.2194;
1317.6000;0.6186;0.2171;
1317.9000;0.6211;0.2311;
1318.2000;0.6203;0.2357;
1318.5000;0.6211;0.2381;
1318.8000;0.6252;0.2497;
1319.1000;0.6243;0.2427;
1319.4000;0.6211;0.2381;
1319.7000;0.6211;0.2451;
1320.0000;0.6195;0.2334;
1320.3000;0.6195;0.2264;
1320.6000;0.6162;0.2241;
1320.9000;0.6219;0.2311;
1321.2000;0.6219;0.2404;
1321.5000;0.6252;0.2451;
1321.8000;0.6219;0.2381;
1322.1000;0.6211;0.2381;
1322.4000;0.6243;0.2544;
1322.7000;0.6227;0.2497;
1323.0000;0.6243;0.2544;
1323.3000;0.6227;0.2451;
1323.6000;0.6227;0.2497;
1323.9000;0.6268;0.2474;
1324.2000;0.6203;0.2381;
1324.5000;0.6203;0.2404;
1324.8000;0.6211;0.2381;
1325.1000;0.6235;0.2427;
1325.4000;0.6227;0.2404;
1325.7000;0.6211;0.2357;
1326.0000;0.6203;0.2381;
1326.3000;0.6211;0.2451;
1326.6000;0.6227;0.2427;
1326.9000;0.6235;0.2474;
1327.2000;0.6211;0.2451;
1327.5000;0.6219;0.2544;
1327.8000;0.6235;0.2591;
1328.1000;0.6235;0.2567;
1328.4000;0.6227;0.2521;
1328.7000;0.6227;0.2451;
1329.0000;0.6219;0.2451;
1329.3000;0.6235;0.2451;
1329.6000;0.6219;0.2451;
1329.9000;0.6235;0.2521;
1330.2000;0.6235;0.2521;
1330.5000;0.6243;0.2567;
1330.8000;0.6203;0.2521;
1331.1000;0.6235;0.2614;
1331.4000;0.6227;0.2591;
1331.7000;0.6219;0.2591;
1332.0000;0.6219;0.2567;
1332.3000;0.6235;0.2591;
1332.6000;0.6227;0.2637;
1332.9000;0.6219;0.2544;
1333.2000;0.6219;0.2544;
1333.5000;0.6203;0.2427;
1333.8000;0.6219;0.2544;
1334.1000;0.6227;0.2637;
1334.4000;0.6227;0.2661;
1334.7000;0.6227;0.2684;
1335.0000;0.6227;0.2661;
1335.3000;0.6211;0.2661;
1335.6000;0.6292;0.2754;
1335.9000;0.6211;0.2544;
1336.2000;0.6211;0.2614;
1336.5000;0.6219;0.2614;
1336.8000;0.6219;0.2614;
1337.1000;0.6219;0.2591;
1337.4000;0.6211;0.2637;
1337.7000;0.6219;0.2661;
1338.0000;0.6219;0.2661;
1338.3000;0.6219;0.2684;
1338.6000;0.6219;0.2684;
1338.9000;0.6243;0.2707;
1339.2000;0.6235;0.2637;
1339.5000;0.6227;0.2614;
1339.8000;0.6203;0.2637;
1340.1000;0.6162;0.2591;
1340.4000;0.6219;0.2637;
1340.7000;0.6219;0.2637;
1341.0000;0.6203;0.2684;
1341.3000;0.6203;0.2661;
1341.6000;0.6227;0.2754;
1341.9000;0.6219;0.2754;
1342.2000;0.6219;0.2707;
1342.5000;0.6252;0.2754;
1342.8000;0.6203;0.2731;
1343.1000;0.6227;0.2754;
1343.4000;0.6300;0.2894;
1343.7000;0.6227;0.2731;
1344.0000;0.6243;0.2684;
1344.3000;0.6219;0.2567;
1344.6000;0.6195;0.2451;
1344.9000;0.6211;0.2404;
1345.2000;0.6243;0.2474;
1345.5000;0.6219;0.2567;
1345.8000;0.6211;0.2661;
1346.1000;0.6203;0.2591;
1346.4000;0.6203;0.2544;
1346.7000;0.6211;0.2451;
1347.0000;0.6211;0.2427;
1347.3000;0.6235;0.2544;
1347.6000;0.6219;0.2544;
1347.9000;0.6235;0.2614;
1348.2000;0.6203;0.2591;
1348.5000;0.6235;0.2707;
1348.8000;0.6219;0.2684;
1349.1000;0.6227;0.2754;
1349.4000;0.6227;0.2778;
1349.7000;0.6227;0.2754;
1350.0000;0.6243;0.2754;
1350.3000;0.6219;0.2684;
1350.6000;0.6235;0.2661;
1350.9000;0.6235;0.2707;
1351.2000;0.6211;0.2684;
1351.5000;0.6211;0.2637;
1351.8000;0.6203;0.2591;
1352.1000;0.6227;0.2684;
1352.4000;0.6203;0.2707;
1352.7000;0.6235;0.2754;
1353.0000;0.6203;0.2754;
1353.3000;0.6211;0.2731;
1353.6000;0.6260;0.2894;
1353.9000;0.6170;0.2661;
1354.2000;0.6211;0.2824;
1354.5000;0.6219;0.2754;
1354.8000;0.6260;0.2801;
1355.1000;0.6211;0.2707;
1355.4000;0.6211;0.2661;
1355.7000;0.6235;0.2778;
1356.0000;0.6243;0.2848;
1356.3000;0.6219;0.2801;
1356.6000;0.6219;0.2707;
1356.9000;0.6211;0.2754;
1357.2000;0.6219;0.2801;
1357.5000;0.6227;0.2801;
1357.8000;0.6211;0.2848;
1358.1000;0.6219;0.2824;
1358.4000;0.6162;0.2637;
1358.7000;0.6211;0.2824;
1359.0000;0.6235;0.2778;
1359.3000;0.6211;0.2731;
1359.6000;0.6284;0.2824;
1359.9000;0.6219;0.2731;
1360.2000;0.6252;0.2754;
1360.5000;0.6211;0.2731;
1360.8000;0.6211;0.2684;
1361.1000;0.6227;0.2614;
1361.4000;0.6219;0.2567;
1361.7000;0.6219;0.2521;
1362.0000;0.6219;0.2567;
1362.3000;0.6195;0.2567;
1362.6000;0.6203;0.2614;
1362.9000;0.6252;0.2731;
1363.2000;0.6211;0.2661;
1363.5000;0.6211;0.2661;
1363.8000;0.6219;0.2661;
1364.1000;0.6292;0.2707;
1364.4000;0.6219;0.2497;
1364.7000;0.6211;0.2544;
1365.0000;0.6219;0.2521;
1365.3000;0.6227;0.2474;
1365.6000;0.6203;0.2544;
1365.9000;0.6219;0.2614;
1366.2000;0.6219;0.2637;
1366.5000;0.6219;0.2637;
1366.8000;0.6284;0.2894;
1367.1000;0.6211;0.2591;
1367.4000;0.6227;0.2567;
1367.7000;0.6211;0.2521;
1368.0000;0.6186;0.2427;
1368.3000;0.6211;0.2544;
1368.6000;0.6211;0.2591;
1368.9000;0.6235;0.2637;
1369.2000;0.6243;0.2614;
1369.5000;0.6243;0.2637;
1369.8000;0.6162;0.2451;
1370.1000;0.6243;0.2614;
1370.4000;0.6219;0.2591;
1370.7000;0.6186;0.2591;
1371.0000;0.6203;0.2591;
1371.3000;0.6211;0.2684;
1371.6000;0.6195;0.2567;
1371.9000;0.6186;0.2427;
1372.2000;0.6162;0.2404;
1372.5000;0.6235;0.2591;
1372.8000;0.6211;0.2614;
1373.1000;0.6211;0.2614;
1373.4000;0.6211;0.2614;
1373.7000;0.6211;0.2544;
1374.0000;0.6195;0.2521;
1374.3000;0.6211;0.2521;
1374.6000;0.6235;0.2591;
1374.9000;0.6227;0.2614;
1375.2000;0.6219;0.2731;
1375.5000;0.6227;0.2754;
1375.8000;0.6219;0.2754;
1376.1000;0.6211;0.2661;
1376.4000;0.6211;0.2637;
1376.7000;0.6211;0.2637;
1377.0000;0.6203;0.2637;
1377.3000;0.6219;0.2567;
1377.6000;0.6219;0.2614;
1377.9000;0.6227;0.2567;
1378.2000;0.6219;0.2591;
1378.5000;0.6219;0.2567;
1378.8000;0.6162;0.2404;
1379.1000;0.6203;0.2451;
1379.4000;0.6203;0.2381;
1379.7000;0.6203;0.2451;
1380.0000;0.6227;0.2497;
1380.3000;0.6211;0.2404;
1380.6000;0.6227;0.2404;
1380.9000;0.6211;0.2357;
1381.2000;0.6203;0.2311;
1381.5000;0.6211;0.2381;
1381.8000;0.6219;0.2427;
1382.1000;0.6219;0.2427;
1382.4000;0.6203;0.2357;
1382.7000;0.6219;0.2451;
1383.0000;0.6219;0.2544;
1383.3000;0.6203;0.2544;
1383.6000;0.6219;0.2497;
1383.9000;0.6195;0.2427;
1384.2000;0.6219;0.2497;
1384.5000;0.6203;0.2544;
1384.8000;0.6211;0.2521;
1385.1000;0.6219;0.2474;
1385.4000;0.6227;0.2521;
1385.7000;0.6227;0.2474;
1386.0000;0.6219;0.2427;
1386.3000;0.6211;0.2427;
1386.6000;0.6211;0.2427;
1386.9000;0.6211;0.2474;
1387.2000;0.6227;0.2497;
1387.5000;0.6203;0.2427;
1387.8000;0.6211;0.2381;
1388.1000;0.6211;0.2311;
1388.4000;0.6227;0.2311;
1388.7000;0.6195;0.2381;
1389.0000;0.6203;0.2474;
1389.3000;0.6211;0.2591;
1389.6000;0.6219;0.2637;
1389.9000;0.6203;0.2544;
1390.2000;0.6203;0.2567;
1390.5000;0.6211;0.2497;
1390.8000;0.6211;0.2451;
1391.1000;0.6211;0.2427;
1391.4000;0.6195;0.2427;
1391.7000;0.6235;0.2544;
1392.0000;0.6211;0.2567;
1392.3000;0.6211;0.2474;
1392.6000;0.6211;0.2474;
1392.9000;0.6219;0.2451;
1393.2000;0.6219;0.2427;
1393.5000;0.6227;0.2357;
1393.8000;0.6211;0.2334;
1394.1000;0.6211;0.2404;
1394.4000;0.6219;0.2404;
1394.7000;0.6243;0.2544;
1395.0000;0.6227;0.2497;
1395.3000;0.6219;0.2544;
1395.6000;0.6219;0.2544;
1395.9000;0.6219;0.2544;
1396.2000;0.6227;0.2474;
1396.5000;0.6211;0.2451;
1396.8000;0.6195;0.2474;
1397.1000;0.6219;0.2544;
1397.4000;0.6211;0.2521;
1397.7000;0.6235;0.2591;
1398.0000;0.6219;0.2497;
1398.3000;0.6235;0.2521;
1398.6000;0.6219;0.2567;
1398.9000;0.6211;0.2474;
1399.2000;0.6203;0.2544;
1399.5000;0.6203;0.2544;
1399.8000;0.6203;0.2567;
