time/ms;Fluo/V;P700 deltaI/I x10³;
-199.8000;1.2340;0.4831;
-199.5000;1.2357;0.4785;
-199.2000;1.2348;0.4761;
-198.9000;1.2340;0.4715;
-198.6000;1.2340;0.4645;
-198.3000;1.2340;0.4668;
-198.0000;1.2357;0.4668;
-197.7000;1.2357;0.4761;
-197.4000;1.2332;0.4855;
-197.1000;1.2324;0.4878;
-196.8000;1.2332;0.4785;
-196.5000;1.2332;0.4855;
-196.2000;1.2324;0.4785;
-195.9000;1.2308;0.4691;
-195.6000;1.2324;0.4598;
-195.3000;1.2348;0.4598;
-195.0000;1.2340;0.4528;
-194.7000;1.2332;0.4528;
-194.4000;1.2348;0.4575;
-194.1000;1.2332;0.4598;
-193.8000;1.2348;0.4808;
-193.5000;1.2340;0.4855;
-193.2000;1.2308;0.4855;
-192.9000;1.2340;0.4925;
-192.6000;1.2332;0.4855;
-192.3000;1.2340;0.4878;
-192.0000;1.2357;0.4855;
-191.7000;1.2348;0.4878;
-191.4000;1.2357;0.4878;
-191.1000;1.2373;0.4948;
-190.8000;1.2324;0.4808;
-190.5000;1.2348;0.4901;
-190.2000;1.2357;0.4878;
-189.9000;1.2324;0.4785;
-189.6000;1.2324;0.4761;
-189.3000;1.2348;0.4901;
-189.0000;1.2357;0.4831;
-188.7000;1.2348;0.4831;
-188.4000;1.2357;0.4855;
-188.1000;1.2348;0.4901;
-187.8000;1.2373;0.4901;
-187.5000;1.2357;0.4878;
-187.2000;1.2283;0.4785;
-186.9000;1.2348;0.4855;
-186.6000;1.2348;0.4808;
-186.3000;1.2438;0.5018;
-186.0000;1.2340;0.4785;
-185.7000;1.2373;0.4831;
-185.4000;1.2340;0.4761;
-185.1000;1.2348;0.4785;
-184.8000;1.2324;0.4668;
-184.5000;1.2405;0.4901;
-184.2000;1.2324;0.4761;
-183.9000;1.2324;0.4715;
-183.6000;1.2340;0.4785;
-183.3000;1.2340;0.4738;
-183.0000;1.2422;0.4831;
-182.7000;1.2348;0.4738;
-182.4000;1.2340;0.4808;
-182.1000;1.2308;0.4901;
-181.8000;1.2348;0.4948;
-181.5000;1.2340;0.4925;
-181.2000;1.2332;0.4948;
-180.9000;1.2357;0.4948;
-180.6000;1.2332;0.4925;
-180.3000;1.2332;0.4855;
-180.0000;1.2357;0.4901;
-179.7000;1.2357;0.4808;
-179.4000;1.2365;0.4855;
-179.1000;1.2340;0.4808;
-178.8000;1.2348;0.4878;
-178.5000;1.2332;0.4808;
-178.2000;1.2340;0.4785;
-177.9000;1.2340;0.4808;
-177.6000;1.2340;0.4785;
-177.3000;1.2348;0.4831;
-177.0000;1.2340;0.4831;
-176.7000;1.2340;0.4878;
-176.4000;1.2324;0.4855;
-176.1000;1.2365;0.4808;
-175.8000;1.2340;0.4761;
-175.5000;1.2332;0.4761;
-175.2000;1.2332;0.4691;
-174.9000;1.2332;0.4738;
-174.6000;1.2340;0.4691;
-174.3000;1.2389;0.4738;
-174.0000;1.2348;0.4738;
-173.7000;1.2348;0.4738;
-173.4000;1.2316;0.4645;
-173.1000;1.2324;0.4715;
-172.8000;1.2332;0.4808;
-172.5000;1.2348;0.4878;
-172.2000;1.2340;0.4761;
-171.9000;1.2422;0.4972;
-171.6000;1.2332;0.4808;
-171.3000;1.2316;0.4691;
-171.0000;1.2340;0.4761;
-170.7000;1.2340;0.4855;
-170.4000;1.2348;0.4901;
-170.1000;1.2357;0.4901;
-169.8000;1.2357;0.4948;
-169.5000;1.2348;0.4995;
-169.2000;1.2348;0.4972;
-168.9000;1.2389;0.4972;
-168.6000;1.2373;0.4948;
-168.3000;1.2316;0.4808;
-168.0000;1.2348;0.4948;
-167.7000;1.2340;0.4972;
-167.4000;1.2340;0.5088;
-167.1000;1.2357;0.5042;
-166.8000;1.2373;0.5018;
-166.5000;1.2348;0.4901;
-166.2000;1.2373;0.4878;
-165.9000;1.2365;0.4878;
-165.6000;1.2357;0.4901;
-165.3000;1.2340;0.4808;
-165.0000;1.2365;0.4878;
-164.7000;1.2348;0.4925;
-164.4000;1.2340;0.4831;
-164.1000;1.2332;0.4808;
-163.8000;1.2316;0.4738;
-163.5000;1.2340;0.4738;
-163.2000;1.2340;0.4761;
-162.9000;1.2332;0.4785;
-162.6000;1.2324;0.4855;
-162.3000;1.2316;0.4831;
-162.0000;1.2348;0.4948;
-161.7000;1.2340;0.4948;
-161.4000;1.2340;0.4901;
-161.1000;1.2340;0.4925;
-160.8000;1.2357;0.4972;
-160.5000;1.2348;0.4972;
-160.2000;1.2357;0.5088;
-159.9000;1.2365;0.5112;
-159.6000;1.2332;0.4995;
-159.3000;1.2373;0.5088;
-159.0000;1.2324;0.4995;
-158.7000;1.2332;0.5018;
-158.4000;1.2316;0.5018;
-158.1000;1.2348;0.5042;
-157.8000;1.2324;0.4972;
-157.5000;1.2332;0.5018;
-157.2000;1.2422;0.5182;
-156.9000;1.2291;0.4925;
-156.6000;1.2340;0.5042;
-156.3000;1.2340;0.5018;
-156.0000;1.2389;0.5042;
-155.7000;1.2357;0.4901;
-155.4000;1.2397;0.4948;
-155.1000;1.2340;0.4855;
-154.8000;1.2348;0.4808;
-154.5000;1.2340;0.4831;
-154.2000;1.2332;0.4878;
-153.9000;1.2332;0.4878;
-153.6000;1.2340;0.4878;
-153.3000;1.2340;0.4831;
-153.0000;1.2332;0.4785;
-152.7000;1.2340;0.4738;
-152.4000;1.2324;0.4761;
-152.1000;1.2324;0.4668;
-151.8000;1.2340;0.4668;
-151.5000;1.2357;0.4621;
-151.2000;1.2332;0.4551;
-150.9000;1.2340;0.4575;
-150.6000;1.2340;0.4551;
-150.3000;1.2357;0.4551;
-150.0000;1.2348;0.4551;
-149.7000;1.2340;0.4598;
-149.4000;1.2340;0.4598;
-149.1000;1.2316;0.4598;
-148.8000;1.2316;0.4668;
-148.5000;1.2332;0.4691;
-148.2000;1.2308;0.4715;
-147.9000;1.2291;0.4761;
-147.6000;1.2324;0.4808;
-147.3000;1.2332;0.4785;
-147.0000;1.2291;0.4645;
-146.7000;1.2340;0.4785;
-146.4000;1.2332;0.4878;
-146.1000;1.2332;0.4925;
-145.8000;1.2340;0.4901;
-145.5000;1.2357;0.4808;
-145.2000;1.2357;0.4901;
-144.9000;1.2348;0.4878;
-144.6000;1.2340;0.4808;
-144.3000;1.2348;0.4855;
-144.0000;1.2365;0.4925;
-143.7000;1.2348;0.4831;
-143.4000;1.2348;0.4831;
-143.1000;1.2357;0.4855;
-142.8000;1.2414;0.5088;
-142.5000;1.2340;0.4925;
-142.2000;1.2365;0.4948;
-141.9000;1.2340;0.4855;
-141.6000;1.2267;0.4668;
-141.3000;1.2357;0.4785;
-141.0000;1.2308;0.4715;
-140.7000;1.2348;0.4878;
-140.4000;1.2316;0.4831;
-140.1000;1.2340;0.4925;
-139.8000;1.2430;0.5065;
-139.5000;1.2340;0.4901;
-139.2000;1.2340;0.4878;
-138.9000;1.2348;0.4878;
-138.6000;1.2340;0.4831;
-138.3000;1.2316;0.4761;
-138.0000;1.2316;0.4761;
-137.7000;1.2316;0.4715;
-137.4000;1.2348;0.4715;
-137.1000;1.2340;0.4738;
-136.8000;1.2332;0.4761;
-136.5000;1.2316;0.4761;
-136.2000;1.2316;0.4761;
-135.9000;1.2324;0.4785;
-135.6000;1.2332;0.4785;
-135.3000;1.2340;0.4785;
-135.0000;1.2332;0.4785;
-134.7000;1.2381;0.4855;
-134.4000;1.2332;0.4785;
-134.1000;1.2340;0.4738;
-133.8000;1.2348;0.4738;
-133.5000;1.2332;0.4761;
-133.2000;1.2267;0.4598;
-132.9000;1.2332;0.4785;
-132.6000;1.2324;0.4808;
-132.3000;1.2332;0.4808;
-132.0000;1.2324;0.4925;
-131.7000;1.2348;0.5018;
-131.4000;1.2348;0.4995;
-131.1000;1.2340;0.4972;
-130.8000;1.2332;0.5018;
-130.5000;1.2348;0.5065;
-130.2000;1.2357;0.5088;
-129.9000;1.2324;0.5088;
-129.6000;1.2340;0.5228;
-129.3000;1.2332;0.5158;
-129.0000;1.2300;0.5065;
-128.7000;1.2324;0.5088;
-128.4000;1.2405;0.5298;
-128.1000;1.2324;0.5158;
-127.8000;1.2324;0.5135;
-127.5000;1.2340;0.5205;
-127.2000;1.2340;0.5182;
-126.9000;1.2324;0.5018;
-126.6000;1.2300;0.4855;
-126.3000;1.2348;0.5042;
-126.0000;1.2348;0.4972;
-125.7000;1.2332;0.4948;
-125.4000;1.2332;0.4855;
-125.1000;1.2438;0.5018;
-124.8000;1.2340;0.4761;
-124.5000;1.2348;0.4855;
-124.2000;1.2340;0.4761;
-123.9000;1.2332;0.4761;
-123.6000;1.2348;0.4785;
-123.3000;1.2340;0.4831;
-123.0000;1.2300;0.4691;
-122.7000;1.2348;0.4808;
-122.4000;1.2357;0.4831;
-122.1000;1.2332;0.4738;
-121.8000;1.2340;0.4738;
-121.5000;1.2340;0.4715;
-121.2000;1.2348;0.4715;
-120.9000;1.2357;0.4785;
-120.6000;1.2340;0.4808;
-120.3000;1.2332;0.4738;
-120.0000;1.2332;0.4761;
-119.7000;1.2308;0.4715;
-119.4000;1.2340;0.4855;
-119.1000;1.2348;0.4878;
-118.8000;1.2340;0.4785;
-118.5000;1.2357;0.4855;
-118.2000;1.2373;0.4901;
-117.9000;1.2332;0.4808;
-117.6000;1.2332;0.4831;
-117.3000;1.2397;0.4972;
-117.0000;1.2308;0.4855;
-116.7000;1.2340;0.4972;
-116.4000;1.2332;0.4948;
-116.1000;1.2324;0.4901;
-115.8000;1.2357;0.4995;
-115.5000;1.2332;0.4948;
-115.2000;1.2324;0.4925;
-114.9000;1.2300;0.4831;
-114.6000;1.2348;0.5112;
-114.3000;1.2438;0.5368;
-114.0000;1.2348;0.5112;
-113.7000;1.2332;0.5018;
-113.4000;1.2332;0.5018;
-113.1000;1.2365;0.4995;
-112.8000;1.2340;0.4972;
-112.5000;1.2332;0.4972;
-112.2000;1.2340;0.4948;
-111.9000;1.2340;0.4901;
-111.6000;1.2324;0.4901;
-111.3000;1.2324;0.4901;
-111.0000;1.2348;0.5018;
-110.7000;1.2324;0.5018;
-110.4000;1.2332;0.5042;
-110.1000;1.2348;0.4995;
-109.8000;1.2348;0.5088;
-109.5000;1.2348;0.5135;
-109.2000;1.2332;0.5182;
-108.9000;1.2348;0.5135;
-108.6000;1.2332;0.5182;
-108.3000;1.2348;0.5228;
-108.0000;1.2340;0.5205;
-107.7000;1.2373;0.5298;
-107.4000;1.2324;0.5228;
-107.1000;1.2316;0.5112;
-106.8000;1.2340;0.5112;
-106.5000;1.2348;0.5205;
-106.2000;1.2357;0.5298;
-105.9000;1.2348;0.5205;
-105.6000;1.2365;0.5228;
-105.3000;1.2308;0.5065;
-105.0000;1.2324;0.5112;
-104.7000;1.2332;0.5252;
-104.4000;1.2324;0.5205;
-104.1000;1.2340;0.5205;
-103.8000;1.2340;0.5112;
-103.5000;1.2324;0.4972;
-103.2000;1.2348;0.5018;
-102.9000;1.2381;0.5158;
-102.6000;1.2332;0.5042;
-102.3000;1.2332;0.5065;
-102.0000;1.2308;0.4925;
-101.7000;1.2348;0.5042;
-101.4000;1.2348;0.4995;
-101.1000;1.2357;0.4948;
-100.8000;1.2332;0.4925;
-100.5000;1.2357;0.4948;
-100.2000;1.2348;0.4948;
-99.9000;1.2324;0.4901;
-99.6000;1.2357;0.4972;
-99.3000;1.2340;0.4948;
-99.0000;1.2348;0.4901;
-98.7000;1.2340;0.4808;
-98.4000;1.2348;0.4855;
-98.1000;1.2340;0.4785;
-97.8000;1.2357;0.4855;
-97.5000;1.2348;0.4925;
-97.2000;1.2324;0.4785;
-96.9000;1.2357;0.4808;
-96.6000;1.2405;0.4948;
-96.3000;1.2332;0.4808;
-96.0000;1.2308;0.4785;
-95.7000;1.2348;0.4901;
-95.4000;1.2340;0.4925;
-95.1000;1.2340;0.4925;
-94.8000;1.2283;0.4831;
-94.5000;1.2340;0.4901;
-94.2000;1.2332;0.4878;
-93.9000;1.2332;0.4901;
-93.6000;1.2324;0.4925;
-93.3000;1.2332;0.4948;
-93.0000;1.2340;0.4925;
-92.7000;1.2340;0.4972;
-92.4000;1.2243;0.4761;
-92.1000;1.2340;0.5088;
-91.8000;1.2332;0.5088;
-91.5000;1.2348;0.5182;
-91.2000;1.2332;0.5135;
-90.9000;1.2332;0.5065;
-90.6000;1.2324;0.4995;
-90.3000;1.2332;0.5042;
-90.0000;1.2357;0.5135;
-89.7000;1.2340;0.5088;
-89.4000;1.2324;0.5088;
-89.1000;1.2324;0.5112;
-88.8000;1.2332;0.5112;
-88.5000;1.2332;0.5018;
-88.2000;1.2324;0.4972;
-87.9000;1.2332;0.4995;
-87.6000;1.2365;0.4995;
-87.3000;1.2348;0.4972;
-87.0000;1.2340;0.4995;
-86.7000;1.2332;0.5018;
-86.4000;1.2357;0.5088;
-86.1000;1.2357;0.5018;
-85.8000;1.2332;0.4878;
-85.5000;1.2340;0.4855;
-85.2000;1.2340;0.4808;
-84.9000;1.2340;0.4785;
-84.6000;1.2414;0.4972;
-84.3000;1.2348;0.4785;
-84.0000;1.2332;0.4691;
-83.7000;1.2324;0.4738;
-83.4000;1.2348;0.4831;
-83.1000;1.2332;0.4761;
-82.8000;1.2348;0.4808;
-82.5000;1.2357;0.4761;
-82.2000;1.2348;0.4831;
-81.9000;1.2373;0.4901;
-81.6000;1.2373;0.4901;
-81.3000;1.2357;0.4901;
-81.0000;1.2340;0.4831;
-80.7000;1.2332;0.4808;
-80.4000;1.2324;0.4761;
-80.1000;1.2348;0.4738;
-79.8000;1.2365;0.4715;
-79.5000;1.2332;0.4668;
-79.2000;1.2316;0.4668;
-78.9000;1.2332;0.4668;
-78.6000;1.2332;0.4715;
-78.3000;1.2340;0.4785;
-78.0000;1.2357;0.4808;
-77.7000;1.2348;0.4715;
-77.4000;1.2332;0.4691;
-77.1000;1.2422;0.4808;
-76.8000;1.2348;0.4691;
-76.5000;1.2332;0.4691;
-76.2000;1.2348;0.4668;
-75.9000;1.2381;0.4738;
-75.6000;1.2332;0.4668;
-75.3000;1.2373;0.4831;
-75.0000;1.2324;0.4761;
-74.7000;1.2332;0.4738;
-74.4000;1.2348;0.4761;
-74.1000;1.2332;0.4785;
-73.8000;1.2332;0.4785;
-73.5000;1.2340;0.4855;
-73.2000;1.2357;0.4925;
-72.9000;1.2357;0.4925;
-72.6000;1.2340;0.4785;
-72.3000;1.2300;0.4808;
-72.0000;1.2357;0.4901;
-71.7000;1.2357;0.4831;
-71.4000;1.2332;0.4831;
-71.1000;1.2340;0.4925;
-70.8000;1.2332;0.4948;
-70.5000;1.2324;0.4948;
-70.2000;1.2340;0.4925;
-69.9000;1.2324;0.4901;
-69.6000;1.2308;0.4878;
-69.3000;1.2348;0.4855;
-69.0000;1.2283;0.4645;
-68.7000;1.2348;0.4808;
-68.4000;1.2332;0.4715;
-68.1000;1.2332;0.4785;
-67.8000;1.2316;0.4715;
-67.5000;1.2283;0.4621;
-67.2000;1.2340;0.4761;
-66.9000;1.2316;0.4831;
-66.6000;1.2332;0.4808;
-66.3000;1.2332;0.4785;
-66.0000;1.2340;0.4761;
-65.7000;1.2308;0.4738;
-65.4000;1.2340;0.4878;
-65.1000;1.2340;0.4901;
-64.8000;1.2357;0.4925;
-64.5000;1.2340;0.4901;
-64.2000;1.2348;0.4901;
-63.9000;1.2332;0.4878;
-63.6000;1.2348;0.4878;
-63.3000;1.2357;0.4785;
-63.0000;1.2373;0.4855;
-62.7000;1.2324;0.4761;
-62.4000;1.2324;0.4668;
-62.1000;1.2357;0.4738;
-61.8000;1.2316;0.4691;
-61.5000;1.2332;0.4715;
-61.2000;1.2316;0.4621;
-60.9000;1.2332;0.4785;
-60.6000;1.2365;0.4925;
-60.3000;1.2348;0.4995;
-60.0000;1.2340;0.4948;
-59.7000;1.2316;0.4831;
-59.4000;1.2357;0.4901;
-59.1000;1.2357;0.4925;
-58.8000;1.2348;0.4878;
-58.5000;1.2340;0.4855;
-58.2000;1.2332;0.4808;
-57.9000;1.2332;0.4691;
-57.6000;1.2340;0.4691;
-57.3000;1.2283;0.4528;
-57.0000;1.2308;0.4598;
-56.7000;1.2340;0.4645;
-56.4000;1.2332;0.4715;
-56.1000;1.2381;0.4831;
-55.8000;1.2332;0.4785;
-55.5000;1.2348;0.4831;
-55.2000;1.2300;0.4738;
-54.9000;1.2332;0.4878;
-54.6000;1.2357;0.4995;
-54.3000;1.2340;0.4901;
-54.0000;1.2324;0.4925;
-53.7000;1.2340;0.4948;
-53.4000;1.2332;0.4925;
-53.1000;1.2324;0.4785;
-52.8000;1.2340;0.4831;
-52.5000;1.2324;0.4831;
-52.2000;1.2340;0.4855;
-51.9000;1.2332;0.4901;
-51.6000;1.2332;0.4831;
-51.3000;1.2348;0.4901;
-51.0000;1.2340;0.4925;
-50.7000;1.2332;0.4948;
-50.4000;1.2340;0.4901;
-50.1000;1.2365;0.4925;
-49.8000;1.2348;0.4948;
-49.5000;1.2357;0.5018;
-49.2000;1.2348;0.4925;
-48.9000;1.2365;0.4901;
-48.6000;1.2340;0.4855;
-48.3000;1.2340;0.4878;
-48.0000;1.2357;0.4831;
-47.7000;1.2340;0.4878;
-47.4000;1.2340;0.4878;
-47.1000;1.2348;0.4878;
-46.8000;1.2324;0.4972;
-46.5000;1.2324;0.4972;
-46.2000;1.2340;0.4995;
-45.9000;1.2340;0.4948;
-45.6000;1.2324;0.4925;
-45.3000;1.2332;0.4972;
-45.0000;1.2332;0.4948;
-44.7000;1.2332;0.4948;
-44.4000;1.2324;0.4948;
-44.1000;1.2332;0.4925;
-43.8000;1.2348;0.4901;
-43.5000;1.2357;0.4855;
-43.2000;1.2348;0.4855;
-42.9000;1.2332;0.4808;
-42.6000;1.2348;0.4972;
-42.3000;1.2340;0.4925;
-42.0000;1.2357;0.4855;
-41.7000;1.2332;0.4831;
-41.4000;1.2348;0.4901;
-41.1000;1.2340;0.4878;
-40.8000;1.2340;0.4901;
-40.5000;1.2340;0.4785;
-40.2000;1.2373;0.4761;
-39.9000;1.2348;0.4738;
-39.6000;1.2357;0.4808;
-39.3000;1.2348;0.4785;
-39.0000;1.2389;0.4831;
-38.7000;1.2357;0.4808;
-38.4000;1.2340;0.4738;
-38.1000;1.2316;0.4645;
-37.8000;1.2365;0.4738;
-37.5000;1.2373;0.4831;
-37.2000;1.2340;0.4855;
-36.9000;1.2340;0.4831;
-36.6000;1.2332;0.4878;
-36.3000;1.2283;0.4808;
-36.0000;1.2357;0.4925;
-35.7000;1.2332;0.4901;
-35.4000;1.2324;0.4855;
-35.1000;1.2340;0.4948;
-34.8000;1.2340;0.4995;
-34.5000;1.2348;0.5088;
-34.2000;1.2259;0.4925;
-33.9000;1.2389;0.5205;
-33.6000;1.2291;0.5018;
-33.3000;1.2381;0.5205;
-33.0000;1.2308;0.4925;
-32.7000;1.2332;0.4925;
-32.4000;1.2316;0.4948;
-32.1000;1.2422;0.5158;
-31.8000;1.2357;0.4925;
-31.5000;1.2332;0.4948;
-31.2000;1.2340;0.4878;
-30.9000;1.2357;0.4878;
-30.6000;1.2324;0.4831;
-30.3000;1.2324;0.4878;
-30.0000;1.2316;0.4808;
-29.7000;1.2332;0.4878;
-29.4000;1.2340;0.4972;
-29.1000;1.2332;0.4948;
-28.8000;1.2348;0.5042;
-28.5000;1.2324;0.4972;
-28.2000;1.2332;0.4995;
-27.9000;1.2332;0.4972;
-27.6000;1.2340;0.5018;
-27.3000;1.2348;0.4995;
-27.0000;1.2332;0.4925;
-26.7000;1.2340;0.4878;
-26.4000;1.2324;0.4808;
-26.1000;1.2348;0.4831;
-25.8000;1.2340;0.4808;
-25.5000;1.2357;0.4831;
-25.2000;1.2357;0.4808;
-24.9000;1.2348;0.4761;
-24.6000;1.2357;0.4785;
-24.3000;1.2340;0.4691;
-24.0000;1.2340;0.4668;
-23.7000;1.2340;0.4668;
-23.4000;1.2324;0.4715;
-23.1000;1.2308;0.4621;
-22.8000;1.2340;0.4668;
-22.5000;1.2340;0.4668;
-22.2000;1.2340;0.4668;
-21.9000;1.2340;0.4738;
-21.6000;1.2348;0.4808;
-21.3000;1.2340;0.4761;
-21.0000;1.2348;0.4808;
-20.7000;1.2340;0.4785;
-20.4000;1.2340;0.4901;
-20.1000;1.2357;0.4972;
-19.8000;1.2324;0.4925;
-19.5000;1.2340;0.4995;
-19.2000;1.2357;0.5088;
-18.9000;1.2316;0.4995;
-18.6000;1.2332;0.5088;
-18.3000;1.2316;0.5088;
-18.0000;1.2430;0.5322;
-17.7000;1.2340;0.5088;
-17.4000;1.2332;0.5018;
-17.1000;1.2373;0.5065;
-16.8000;1.2373;0.5042;
-16.5000;1.2348;0.5018;
-16.2000;1.2332;0.4972;
-15.9000;1.2332;0.5018;
-15.6000;1.2357;0.5042;
-15.3000;1.2348;0.5065;
-15.0000;1.2275;0.4925;
-14.7000;1.2267;0.4831;
-14.4000;1.2340;0.4995;
-14.1000;1.2357;0.4995;
-13.8000;1.2348;0.4948;
-13.5000;1.2340;0.4995;
-13.2000;1.2332;0.4995;
-12.9000;1.2357;0.5018;
-12.6000;1.2348;0.4995;
-12.3000;1.2340;0.4972;
-12.0000;1.2348;0.4995;
-11.7000;1.2332;0.4972;
-11.4000;1.2348;0.4995;
-11.1000;1.2308;0.4878;
-10.8000;1.2324;0.4972;
-10.5000;1.2340;0.4995;
-10.2000;1.2332;0.5088;
-9.9000;1.2324;0.5135;
-9.6000;1.2332;0.5135;
-9.3000;1.2340;0.5205;
-9.0000;1.2357;0.5182;
-8.7000;1.2316;0.5018;
-8.4000;1.2316;0.4948;
-8.1000;1.2324;0.4972;
-7.8000;1.2340;0.4972;
-7.5000;1.2324;0.4901;
-7.2000;1.2332;0.4901;
-6.9000;1.2332;0.4901;
-6.6000;1.2357;0.4948;
-6.3000;1.2348;0.4972;
-6.0000;1.2332;0.5042;
-5.7000;1.2332;0.4995;
-5.4000;1.2332;0.4972;
-5.1000;1.2316;0.4995;
-4.8000;1.2324;0.5018;
-4.5000;1.2308;0.4972;
-4.2000;1.2340;0.5042;
-3.9000;1.2340;0.4972;
-3.6000;1.2332;0.4855;
-3.3000;1.2348;0.4855;
-3.0000;1.2340;0.4925;
-2.7000;1.2340;0.4948;
-2.4000;1.2332;0.4995;
-2.1000;1.2357;0.4972;
-1.8000;1.2348;0.4901;
-1.5000;1.2357;0.4901;
-1.2000;1.2357;0.4878;
-0.9000;1.2332;0.4808;
-0.6000;1.2340;0.4901;
-0.3000;1.2332;0.4901;
0.0000;1.2332;0.4901;
0.3000;1.2397;0.5088;
0.6000;1.2487;0.5368;
0.9000;1.2568;0.5625;
1.2000;1.2601;0.5812;
1.5000;1.2658;0.6115;
1.8000;1.2715;0.6442;
2.1000;1.2739;0.6582;
2.4000;1.2796;0.6792;
2.7000;1.2788;0.6792;
3.0000;1.2845;0.6955;
3.3000;1.2829;0.6932;
3.6000;1.2877;0.7095;
3.9000;1.2910;0.7142;
4.2000;1.2934;0.7259;
4.5000;1.2910;0.7189;
4.8000;1.2934;0.7259;
5.1000;1.2959;0.7306;
5.4000;1.2959;0.7282;
5.7000;1.2951;0.7236;
6.0000;1.2975;0.7282;
6.3000;1.2983;0.7282;
6.6000;1.3000;0.7306;
6.9000;1.3000;0.7306;
7.2000;1.3024;0.7469;
7.5000;1.3016;0.7376;
7.8000;1.3048;0.7399;
8.1000;1.3040;0.7399;
8.4000;1.3024;0.7446;
8.7000;1.3057;0.7539;
9.0000;1.3057;0.7586;
9.3000;1.3057;0.7632;
9.6000;1.3065;0.7609;
9.9000;1.3073;0.7562;
10.2000;1.3048;0.7422;
10.5000;1.3089;0.7492;
10.8000;1.3114;0.7562;
11.1000;1.3057;0.7422;
11.4000;1.3097;0.7516;
11.7000;1.3089;0.7516;
12.0000;1.3105;0.7446;
12.3000;1.3097;0.7399;
12.6000;1.3114;0.7492;
12.9000;1.3130;0.7609;
13.2000;1.3105;0.7492;
13.5000;1.3105;0.7446;
13.8000;1.3122;0.7469;
14.1000;1.3146;0.7516;
14.4000;1.3138;0.7516;
14.7000;1.3138;0.7516;
15.0000;1.3162;0.7562;
15.3000;1.3146;0.7586;
15.6000;1.3162;0.7586;
15.9000;1.3219;0.7726;
16.2000;1.3162;0.7539;
16.5000;1.3154;0.7539;
16.8000;1.3211;0.7609;
17.1000;1.3162;0.7562;
17.4000;1.3162;0.7539;
17.7000;1.3162;0.7586;
18.0000;1.3179;0.7539;
18.3000;1.3195;0.7586;
18.6000;1.3187;0.7562;
18.9000;1.3187;0.7539;
19.2000;1.3187;0.7562;
19.5000;1.3179;0.7539;
19.8000;1.3187;0.7539;
20.1000;1.3187;0.7539;
20.4000;1.3228;0.7516;
20.7000;1.3203;0.7469;
21.0000;1.3187;0.7492;
21.3000;1.3203;0.7539;
21.6000;1.3162;0.7446;
21.9000;1.3187;0.7539;
22.2000;1.3211;0.7656;
22.5000;1.3122;0.7516;
22.8000;1.3187;0.7702;
23.1000;1.3179;0.7772;
23.4000;1.3187;0.7819;
23.7000;1.3138;0.7702;
24.0000;1.3146;0.7772;
24.3000;1.3187;0.7866;
24.6000;1.3187;0.7772;
24.9000;1.3195;0.7796;
25.2000;1.3179;0.7749;
25.5000;1.3138;0.7609;
25.8000;1.3211;0.7656;
26.1000;1.3171;0.7539;
26.4000;1.3187;0.7562;
26.7000;1.3244;0.7679;
27.0000;1.3195;0.7562;
27.3000;1.3203;0.7562;
27.6000;1.3195;0.7539;
27.9000;1.3211;0.7632;
28.2000;1.3203;0.7539;
28.5000;1.3187;0.7492;
28.8000;1.3171;0.7446;
29.1000;1.3179;0.7492;
29.4000;1.3219;0.7586;
29.7000;1.3219;0.7586;
30.0000;1.3187;0.7562;
30.3000;1.3211;0.7516;
30.6000;1.3219;0.7492;
30.9000;1.3219;0.7539;
31.2000;1.3228;0.7539;
31.5000;1.3203;0.7492;
31.8000;1.3162;0.7399;
32.1000;1.3219;0.7446;
32.4000;1.3236;0.7516;
32.7000;1.3228;0.7446;
33.0000;1.3219;0.7446;
33.3000;1.3219;0.7492;
33.6000;1.3252;0.7609;
33.9000;1.3219;0.7586;
34.2000;1.3244;0.7562;
34.5000;1.3219;0.7516;
34.8000;1.3309;0.7726;
35.1000;1.3219;0.7562;
35.4000;1.3228;0.7632;
35.7000;1.3244;0.7679;
36.0000;1.3228;0.7679;
36.3000;1.3252;0.7702;
36.6000;1.3244;0.7632;
36.9000;1.3244;0.7632;
37.2000;1.3236;0.7586;
37.5000;1.3252;0.7586;
37.8000;1.3171;0.7376;
38.1000;1.3171;0.7446;
38.4000;1.3236;0.7562;
38.7000;1.3171;0.7376;
39.0000;1.3260;0.7586;
39.3000;1.3203;0.7352;
39.6000;1.3228;0.7492;
39.9000;1.3268;0.7539;
40.2000;1.3228;0.7492;
40.5000;1.3228;0.7492;
40.8000;1.3236;0.7516;
41.1000;1.3236;0.7656;
41.4000;1.3195;0.7609;
41.7000;1.3228;0.7632;
42.0000;1.3219;0.7609;
42.3000;1.3244;0.7679;
42.6000;1.3244;0.7772;
42.9000;1.3228;0.7702;
43.2000;1.3219;0.7702;
43.5000;1.3195;0.7656;
43.8000;1.3228;0.7679;
44.1000;1.3228;0.7632;
44.4000;1.3236;0.7586;
44.7000;1.3244;0.7702;
45.0000;1.3219;0.7702;
45.3000;1.3211;0.7772;
45.6000;1.3219;0.7749;
45.9000;1.3211;0.7679;
46.2000;1.3260;0.7726;
46.5000;1.3219;0.7656;
46.8000;1.3236;0.7656;
47.1000;1.3244;0.7632;
47.4000;1.3219;0.7609;
47.7000;1.3244;0.7656;
48.0000;1.3219;0.7539;
48.3000;1.3228;0.7539;
48.6000;1.3236;0.7656;
48.9000;1.3236;0.7702;
49.2000;1.3252;0.7726;
49.5000;1.3179;0.7656;
49.8000;1.3211;0.7819;
50.1000;1.3203;0.7749;
50.4000;1.3219;0.7702;
50.7000;1.3219;0.7679;
51.0000;1.3203;0.7586;
51.3000;1.3211;0.7632;
51.6000;1.3219;0.7726;
51.9000;1.3211;0.7679;
52.2000;1.3244;0.7772;
52.5000;1.3244;0.7749;
52.8000;1.3211;0.7679;
53.1000;1.3236;0.7702;
53.4000;1.3228;0.7679;
53.7000;1.3219;0.7679;
54.0000;1.3228;0.7679;
54.3000;1.3252;0.7726;
54.6000;1.3219;0.7679;
54.9000;1.3276;0.7772;
55.2000;1.3228;0.7632;
55.5000;1.3228;0.7539;
55.8000;1.3228;0.7562;
56.1000;1.3211;0.7516;
56.4000;1.3187;0.7516;
56.7000;1.3211;0.7516;
57.0000;1.3195;0.7516;
57.3000;1.3219;0.7632;
57.6000;1.3146;0.7516;
57.9000;1.3252;0.7796;
58.2000;1.3293;0.7866;
58.5000;1.3236;0.7796;
58.8000;1.3244;0.7772;
59.1000;1.3195;0.7656;
59.4000;1.3228;0.7726;
59.7000;1.3236;0.7749;
60.0000;1.3236;0.7609;
60.3000;1.3236;0.7726;
60.6000;1.3244;0.7772;
60.9000;1.3252;0.7772;
61.2000;1.3219;0.7842;
61.5000;1.3228;0.7796;
61.8000;1.3236;0.7889;
62.1000;1.3187;0.7726;
62.4000;1.3228;0.7749;
62.7000;1.3211;0.7749;
63.0000;1.3236;0.7796;
63.3000;1.3219;0.7726;
63.6000;1.3228;0.7702;
63.9000;1.3228;0.7749;
64.2000;1.3211;0.7772;
64.5000;1.3219;0.7842;
64.8000;1.3203;0.7819;
65.1000;1.3219;0.7842;
65.4000;1.3203;0.7912;
65.7000;1.3211;0.7936;
66.0000;1.3211;0.8029;
66.3000;1.3211;0.8029;
66.6000;1.3219;0.8052;
66.9000;1.3236;0.8099;
67.2000;1.3228;0.8052;
67.5000;1.3236;0.7959;
67.8000;1.3236;0.7959;
68.1000;1.3236;0.7936;
68.4000;1.3228;0.7912;
68.7000;1.3244;0.7936;
69.0000;1.3252;0.7819;
69.3000;1.3268;0.7889;
69.6000;1.3219;0.7702;
69.9000;1.3219;0.7702;
70.2000;1.3228;0.7726;
70.5000;1.3244;0.7796;
70.8000;1.3252;0.7726;
71.1000;1.3219;0.7702;
71.4000;1.3219;0.7749;
71.7000;1.3236;0.7796;
72.0000;1.3228;0.7819;
72.3000;1.3236;0.7842;
72.6000;1.3244;0.7889;
72.9000;1.3219;0.7796;
73.2000;1.3244;0.7866;
73.5000;1.3211;0.7866;
73.8000;1.3203;0.7819;
74.1000;1.3211;0.7819;
74.4000;1.3211;0.7796;
74.7000;1.3219;0.7772;
75.0000;1.3219;0.7772;
75.3000;1.3219;0.7749;
75.6000;1.3219;0.7842;
75.9000;1.3187;0.7772;
76.2000;1.3211;0.7889;
76.5000;1.3211;0.7936;
76.8000;1.3203;0.7982;
77.1000;1.3203;0.8029;
77.4000;1.3203;0.8006;
77.7000;1.3211;0.8052;
78.0000;1.3219;0.8076;
78.3000;1.3219;0.8076;
78.6000;1.3211;0.8076;
78.9000;1.3219;0.8099;
79.2000;1.3244;0.8052;
79.5000;1.3211;0.7889;
79.8000;1.3228;0.7982;
80.1000;1.3219;0.7819;
80.4000;1.3211;0.7702;
80.7000;1.3228;0.7749;
81.0000;1.3195;0.7679;
81.3000;1.3203;0.7726;
81.6000;1.3219;0.7796;
81.9000;1.3203;0.7702;
82.2000;1.3236;0.7726;
82.5000;1.3211;0.7772;
82.8000;1.3219;0.7702;
83.1000;1.3211;0.7656;
83.4000;1.3236;0.7679;
83.7000;1.3284;0.7819;
84.0000;1.3171;0.7586;
84.3000;1.3236;0.7819;
84.6000;1.3203;0.7796;
84.9000;1.3219;0.7842;
85.2000;1.3219;0.7889;
85.5000;1.3228;0.8006;
85.8000;1.3219;0.8029;
86.1000;1.3236;0.8076;
86.4000;1.3219;0.8052;
86.7000;1.3219;0.8052;
87.0000;1.3130;0.7842;
87.3000;1.3203;0.8029;
87.6000;1.3228;0.8076;
87.9000;1.3244;0.8099;
88.2000;1.3219;0.7866;
88.5000;1.3236;0.7772;
88.8000;1.3228;0.7772;
89.1000;1.3171;0.7819;
89.4000;1.3228;0.7889;
89.7000;1.3244;0.7889;
90.0000;1.3219;0.7819;
90.3000;1.3228;0.7772;
90.6000;1.3244;0.7842;
90.9000;1.3195;0.7749;
91.2000;1.3203;0.7749;
91.5000;1.3211;0.7819;
91.8000;1.3211;0.7889;
92.1000;1.3219;0.7866;
92.4000;1.3219;0.7936;
92.7000;1.3228;0.7819;
93.0000;1.3244;0.7796;
93.3000;1.3219;0.7749;
93.6000;1.3228;0.7866;
93.9000;1.3219;0.7889;
94.2000;1.3219;0.7959;
94.5000;1.3203;0.7842;
94.8000;1.3219;0.7889;
95.1000;1.3219;0.7866;
95.4000;1.3236;0.7866;
95.7000;1.3284;0.7959;
96.0000;1.3228;0.7842;
96.3000;1.3228;0.7796;
96.6000;1.3219;0.7796;
96.9000;1.3203;0.7796;
97.2000;1.3203;0.7772;
97.5000;1.3203;0.7819;
97.8000;1.3219;0.7819;
98.1000;1.3211;0.7772;
98.4000;1.3187;0.7702;
98.7000;1.3195;0.7749;
99.0000;1.3309;0.7936;
99.3000;1.3228;0.7772;
99.6000;1.3219;0.7749;
99.9000;1.3260;0.7889;
100.2000;1.3219;0.7772;
100.5000;1.3219;0.7819;
100.8000;1.3203;0.7772;
101.1000;1.3244;0.7889;
101.4000;1.3219;0.7866;
101.7000;1.3219;0.7889;
102.0000;1.3211;0.7796;
102.3000;1.3203;0.7749;
102.6000;1.3211;0.7819;
102.9000;1.3211;0.7842;
103.2000;1.3211;0.7819;
103.5000;1.3195;0.7866;
103.8000;1.3203;0.7842;
104.1000;1.3219;0.7889;
104.4000;1.3203;0.7936;
104.7000;1.3203;0.8006;
105.0000;1.3284;0.8216;
105.3000;1.3228;0.7982;
105.6000;1.3187;0.7912;
105.9000;1.3203;0.7959;
106.2000;1.3211;0.7959;
106.5000;1.3211;0.7912;
106.8000;1.3203;0.7959;
107.1000;1.3179;0.7912;
107.4000;1.3203;0.7842;
107.7000;1.3211;0.7796;
108.0000;1.3211;0.7772;
108.3000;1.3211;0.7796;
108.6000;1.3203;0.7772;
108.9000;1.3187;0.7772;
109.2000;1.3211;0.7819;
109.5000;1.3219;0.7772;
109.8000;1.3211;0.7749;
110.1000;1.3171;0.7632;
110.4000;1.3211;0.7749;
110.7000;1.3228;0.7726;
111.0000;1.3228;0.7842;
111.3000;1.3203;0.7819;
111.6000;1.3228;0.7819;
111.9000;1.3228;0.7842;
112.2000;1.3219;0.7866;
112.5000;1.3203;0.7866;
112.8000;1.3195;0.7866;
113.1000;1.3203;0.7842;
113.4000;1.3211;0.7842;
113.7000;1.3228;0.7889;
114.0000;1.3195;0.7866;
114.3000;1.3228;0.7889;
114.6000;1.3219;0.7889;
114.9000;1.3203;0.7796;
115.2000;1.3211;0.7842;
115.5000;1.3228;0.7936;
115.8000;1.3211;0.7866;
116.1000;1.3252;0.7936;
116.4000;1.3203;0.7796;
116.7000;1.3203;0.7796;
117.0000;1.3219;0.7866;
117.3000;1.3219;0.7819;
117.6000;1.3236;0.7866;
117.9000;1.3195;0.7772;
118.2000;1.3203;0.7866;
118.5000;1.3252;0.8099;
118.8000;1.3195;0.7912;
119.1000;1.3187;0.7819;
119.4000;1.3211;0.7842;
119.7000;1.3203;0.7842;
120.0000;1.3195;0.7749;
120.3000;1.3211;0.7749;
120.6000;1.3211;0.7679;
120.9000;1.3211;0.7749;
121.2000;1.3219;0.7772;
121.5000;1.3211;0.7726;
121.8000;1.3211;0.7749;
122.1000;1.3211;0.7749;
122.4000;1.3203;0.7772;
122.7000;1.3203;0.7796;
123.0000;1.3203;0.7726;
123.3000;1.3203;0.7726;
123.6000;1.3211;0.7679;
123.9000;1.3179;0.7772;
124.2000;1.3203;0.7819;
124.5000;1.3211;0.7866;
124.8000;1.3228;0.7982;
125.1000;1.3211;0.7912;
125.4000;1.3211;0.7866;
125.7000;1.3203;0.7889;
126.0000;1.3211;0.7959;
126.3000;1.3211;0.7959;
126.6000;1.3203;0.7982;
126.9000;1.3203;0.7959;
127.2000;1.3211;0.7866;
127.5000;1.3228;0.7889;
127.8000;1.3211;0.7889;
128.1000;1.3203;0.7912;
128.4000;1.3195;0.7889;
128.7000;1.3154;0.7749;
129.0000;1.3195;0.7819;
129.3000;1.3268;0.7982;
129.6000;1.3146;0.7702;
129.9000;1.3219;0.7889;
130.2000;1.3187;0.7819;
130.5000;1.3187;0.7866;
130.8000;1.3187;0.7912;
131.1000;1.3195;0.7889;
131.4000;1.3211;0.7912;
131.7000;1.3219;0.7842;
132.0000;1.3187;0.7749;
132.3000;1.3219;0.7842;
132.6000;1.3219;0.7819;
132.9000;1.3195;0.7819;
133.2000;1.3187;0.7772;
133.5000;1.3187;0.7819;
133.8000;1.3203;0.7842;
134.1000;1.3195;0.7772;
134.4000;1.3195;0.7772;
134.7000;1.3195;0.7726;
135.0000;1.3203;0.7772;
135.3000;1.3211;0.7749;
135.6000;1.3187;0.7702;
135.9000;1.3211;0.7819;
136.2000;1.3268;0.8099;
136.5000;1.3195;0.7936;
136.8000;1.3187;0.7842;
137.1000;1.3179;0.7819;
137.4000;1.3203;0.7912;
137.7000;1.3195;0.7819;
138.0000;1.3211;0.7889;
138.3000;1.3203;0.7842;
138.6000;1.3195;0.7842;
138.9000;1.3195;0.7912;
139.2000;1.3195;0.7959;
139.5000;1.3179;0.7889;
139.8000;1.3195;0.7936;
140.1000;1.3179;0.7936;
140.4000;1.3195;0.7959;
140.7000;1.3171;0.7959;
141.0000;1.3187;0.8099;
141.3000;1.3228;0.8052;
141.6000;1.3171;0.7866;
141.9000;1.3187;0.7936;
142.2000;1.3187;0.7866;
142.5000;1.3154;0.7749;
142.8000;1.3195;0.7982;
143.1000;1.3187;0.7889;
143.4000;1.3203;0.8006;
143.7000;1.3203;0.8076;
144.0000;1.3195;0.8052;
144.3000;1.3187;0.8006;
144.6000;1.3195;0.7912;
144.9000;1.3228;0.7982;
145.2000;1.3203;0.7959;
145.5000;1.3203;0.8029;
145.8000;1.3195;0.8122;
146.1000;1.3179;0.8052;
146.4000;1.3203;0.8006;
146.7000;1.3203;0.7982;
147.0000;1.3203;0.7912;
147.3000;1.3187;0.7889;
147.6000;1.3211;0.7912;
147.9000;1.3219;0.7796;
148.2000;1.3219;0.7819;
148.5000;1.3195;0.7749;
148.8000;1.3187;0.7726;
149.1000;1.3211;0.7702;
149.4000;1.3203;0.7679;
149.7000;1.3187;0.7656;
150.0000;1.3195;0.7656;
150.3000;1.3195;0.7609;
150.6000;1.3211;0.7609;
150.9000;1.3203;0.7609;
151.2000;1.3195;0.7562;
151.5000;1.3187;0.7609;
151.8000;1.3203;0.7679;
152.1000;1.3211;0.7702;
152.4000;1.3203;0.7702;
152.7000;1.3195;0.7702;
153.0000;1.3228;0.7749;
153.3000;1.3187;0.7726;
153.6000;1.3203;0.7796;
153.9000;1.3219;0.7819;
154.2000;1.3211;0.7819;
154.5000;1.3252;0.7866;
154.8000;1.3211;0.7796;
155.1000;1.3219;0.7889;
155.4000;1.3203;0.7936;
155.7000;1.3211;0.7912;
156.0000;1.3195;0.7819;
156.3000;1.3162;0.7726;
156.6000;1.3187;0.7842;
156.9000;1.3195;0.7912;
157.2000;1.3195;0.7912;
157.5000;1.3203;0.7912;
157.8000;1.3187;0.7889;
158.1000;1.3195;0.7819;
158.4000;1.3195;0.7889;
158.7000;1.3195;0.7912;
159.0000;1.3219;0.7959;
159.3000;1.3203;0.7936;
159.6000;1.3203;0.7866;
159.9000;1.3203;0.7866;
160.2000;1.3211;0.7912;
160.5000;1.3211;0.7936;
160.8000;1.3203;0.7889;
161.1000;1.3203;0.7796;
161.4000;1.3203;0.7819;
161.7000;1.3195;0.7842;
162.0000;1.3187;0.7772;
162.3000;1.3219;0.7819;
162.6000;1.3195;0.7866;
162.9000;1.3203;0.7889;
163.2000;1.3195;0.7912;
163.5000;1.3195;0.7889;
163.8000;1.3179;0.7912;
164.1000;1.3179;0.7866;
164.4000;1.3187;0.7842;
164.7000;1.3228;0.7866;
165.0000;1.3203;0.7702;
165.3000;1.3187;0.7679;
165.6000;1.3187;0.7749;
165.9000;1.3195;0.7819;
166.2000;1.3195;0.7796;
166.5000;1.3203;0.7842;
166.8000;1.3195;0.7866;
167.1000;1.3203;0.7866;
167.4000;1.3195;0.7959;
167.7000;1.3187;0.7936;
168.0000;1.3219;0.7889;
168.3000;1.3211;0.7842;
168.6000;1.3219;0.7866;
168.9000;1.3211;0.7866;
169.2000;1.3252;0.7982;
169.5000;1.3187;0.7772;
169.8000;1.3203;0.7889;
170.1000;1.3260;0.7959;
170.4000;1.3187;0.7749;
170.7000;1.3203;0.7679;
171.0000;1.3162;0.7609;
171.3000;1.3171;0.7679;
171.6000;1.3171;0.7726;
171.9000;1.3171;0.7749;
172.2000;1.3187;0.7842;
172.5000;1.3187;0.7772;
172.8000;1.3171;0.7702;
173.1000;1.3179;0.7749;
173.4000;1.3293;0.8052;
173.7000;1.3187;0.7912;
174.0000;1.3203;0.7936;
174.3000;1.3195;0.7912;
174.6000;1.3195;0.7866;
174.9000;1.3211;0.7842;
175.2000;1.3179;0.7866;
175.5000;1.3187;0.7889;
175.8000;1.3195;0.7889;
176.1000;1.3187;0.7912;
176.4000;1.3187;0.7889;
176.7000;1.3187;0.7936;
177.0000;1.3203;0.8006;
177.3000;1.3195;0.8006;
177.6000;1.3195;0.7982;
177.9000;1.3187;0.7889;
178.2000;1.3187;0.7866;
178.5000;1.3162;0.7819;
178.8000;1.3162;0.7866;
179.1000;1.3187;0.7982;
179.4000;1.3187;0.7982;
179.7000;1.3187;0.8052;
180.0000;1.3187;0.8006;
180.3000;1.3179;0.7912;
180.6000;1.3162;0.7912;
180.9000;1.3179;0.7889;
181.2000;1.3187;0.8006;
181.5000;1.3179;0.7936;
181.8000;1.3162;0.7889;
182.1000;1.3171;0.7866;
182.4000;1.3179;0.7889;
182.7000;1.3187;0.7889;
183.0000;1.3179;0.7842;
183.3000;1.3162;0.7796;
183.6000;1.3187;0.7842;
183.9000;1.3195;0.7772;
184.2000;1.3130;0.7586;
184.5000;1.3179;0.7632;
184.8000;1.3179;0.7726;
185.1000;1.3179;0.7796;
185.4000;1.3187;0.7702;
185.7000;1.3187;0.7726;
186.0000;1.3179;0.7796;
186.3000;1.3162;0.7772;
186.6000;1.3195;0.7866;
186.9000;1.3195;0.7889;
187.2000;1.3146;0.7819;
187.5000;1.3171;0.7889;
187.8000;1.3203;0.8052;
188.1000;1.3187;0.8052;
188.4000;1.3179;0.8052;
188.7000;1.3187;0.7912;
189.0000;1.3211;0.7936;
189.3000;1.3203;0.7889;
189.6000;1.3187;0.7866;
189.9000;1.3179;0.7772;
190.2000;1.3195;0.7982;
190.5000;1.3203;0.8052;
190.8000;1.3203;0.8076;
191.1000;1.3179;0.7912;
191.4000;1.3195;0.8052;
191.7000;1.3284;0.8193;
192.0000;1.3195;0.7936;
192.3000;1.3179;0.7889;
192.6000;1.3195;0.7819;
192.9000;1.3203;0.7796;
193.2000;1.3187;0.7796;
193.5000;1.3195;0.7912;
193.8000;1.3187;0.7982;
194.1000;1.3187;0.8006;
194.4000;1.3179;0.7982;
194.7000;1.3171;0.7866;
195.0000;1.3146;0.7772;
195.3000;1.3162;0.7796;
195.6000;1.3179;0.7796;
195.9000;1.3179;0.7796;
196.2000;1.3171;0.7702;
196.5000;1.3179;0.7819;
196.8000;1.3195;0.7889;
197.1000;1.3179;0.7842;
197.4000;1.3171;0.7749;
197.7000;1.3195;0.7726;
198.0000;1.3187;0.7702;
198.3000;1.3195;0.7726;
198.6000;1.3203;0.7796;
198.9000;1.3179;0.7772;
199.2000;1.3154;0.7726;
199.5000;1.3195;0.7842;
199.8000;1.3179;0.7819;
200.1000;1.3211;0.7842;
200.4000;1.3179;0.7866;
200.7000;1.3179;0.7889;
201.0000;1.3187;0.7819;
201.3000;1.3171;0.7796;
201.6000;1.3244;0.7936;
201.9000;1.3219;0.7959;
202.2000;1.3179;0.7889;
202.5000;1.3171;0.7819;
202.8000;1.3179;0.7842;
203.1000;1.3171;0.7866;
203.4000;1.3179;0.7866;
203.7000;1.3162;0.7772;
204.0000;1.3195;0.7936;
204.3000;1.3179;0.7959;
204.6000;1.3187;0.7982;
204.9000;1.3179;0.7982;
205.2000;1.3171;0.7959;
205.5000;1.3187;0.7982;
205.8000;1.3162;0.7912;
206.1000;1.3187;0.8006;
206.4000;1.3171;0.7912;
206.7000;1.3171;0.7866;
207.0000;1.3179;0.7819;
207.3000;1.3179;0.7912;
207.6000;1.3195;0.7912;
207.9000;1.3179;0.7936;
208.2000;1.3171;0.8029;
208.5000;1.3187;0.8029;
208.8000;1.3171;0.8052;
209.1000;1.3203;0.8099;
209.4000;1.3154;0.7889;
209.7000;1.3171;0.7772;
210.0000;1.3162;0.7796;
210.3000;1.3179;0.7912;
210.6000;1.3138;0.7889;
210.9000;1.3211;0.8076;
211.2000;1.3179;0.8029;
211.5000;1.3187;0.8076;
211.8000;1.3179;0.7982;
212.1000;1.3187;0.7889;
212.4000;1.3195;0.7912;
212.7000;1.3179;0.7866;
213.0000;1.3138;0.7912;
213.3000;1.3211;0.8122;
213.6000;1.3162;0.8006;
213.9000;1.3171;0.8052;
214.2000;1.3162;0.8029;
214.5000;1.3171;0.8006;
214.8000;1.3179;0.8006;
215.1000;1.3187;0.8099;
215.4000;1.3162;0.8006;
215.7000;1.3138;0.7889;
216.0000;1.3162;0.8029;
216.3000;1.3179;0.8052;
216.6000;1.3171;0.7936;
216.9000;1.3179;0.7866;
217.2000;1.3187;0.7866;
217.5000;1.3154;0.7702;
217.8000;1.3187;0.7866;
218.1000;1.3171;0.7866;
218.4000;1.3203;0.7959;
218.7000;1.3179;0.7889;
219.0000;1.3114;0.7749;
219.3000;1.3154;0.7842;
219.6000;1.3179;0.7889;
219.9000;1.3219;0.7936;
220.2000;1.3171;0.7796;
220.5000;1.3179;0.7912;
220.8000;1.3171;0.7889;
221.1000;1.3171;0.7982;
221.4000;1.3179;0.7936;
221.7000;1.3179;0.7959;
222.0000;1.3219;0.8029;
222.3000;1.3179;0.7866;
222.6000;1.3179;0.7842;
222.9000;1.3195;0.7796;
223.2000;1.3171;0.7749;
223.5000;1.3162;0.7819;
223.8000;1.3179;0.7866;
224.1000;1.3171;0.7912;
224.4000;1.3162;0.7889;
224.7000;1.3179;0.7796;
225.0000;1.3162;0.7749;
225.3000;1.3146;0.7726;
225.6000;1.3162;0.7749;
225.9000;1.3154;0.7819;
226.2000;1.3171;0.7936;
226.5000;1.3171;0.8052;
226.8000;1.3171;0.8076;
227.1000;1.3162;0.8029;
227.4000;1.3195;0.8076;
227.7000;1.3195;0.8006;
228.0000;1.3187;0.7866;
228.3000;1.3179;0.7819;
228.6000;1.3171;0.7796;
228.9000;1.3162;0.7866;
229.2000;1.3179;0.7889;
229.5000;1.3187;0.7889;
229.8000;1.3195;0.7959;
230.1000;1.3179;0.7842;
230.4000;1.3179;0.7866;
230.7000;1.3171;0.7819;
231.0000;1.3171;0.7749;
231.3000;1.3171;0.7749;
231.6000;1.3171;0.7772;
231.9000;1.3171;0.7726;
232.2000;1.3122;0.7586;
232.5000;1.3171;0.7749;
232.8000;1.3179;0.7772;
233.1000;1.3171;0.7749;
233.4000;1.3179;0.7889;
233.7000;1.3179;0.7842;
234.0000;1.3179;0.7842;
234.3000;1.3171;0.7912;
234.6000;1.3211;0.8099;
234.9000;1.3171;0.7912;
235.2000;1.3171;0.7866;
235.5000;1.3179;0.7912;
235.8000;1.3171;0.7866;
236.1000;1.3187;0.7842;
236.4000;1.3162;0.7726;
236.7000;1.3187;0.7819;
237.0000;1.3114;0.7656;
237.3000;1.3162;0.7749;
237.6000;1.3171;0.7819;
237.9000;1.3114;0.7679;
238.2000;1.3154;0.7772;
238.5000;1.3154;0.7819;
238.8000;1.3162;0.7889;
239.1000;1.3187;0.7982;
239.4000;1.3203;0.7982;
239.7000;1.3146;0.7842;
240.0000;1.3179;0.7959;
240.3000;1.3154;0.7889;
240.6000;1.3162;0.7936;
240.9000;1.3162;0.7866;
241.2000;1.3171;0.7842;
241.5000;1.3162;0.7866;
241.8000;1.3179;0.7912;
242.1000;1.3187;0.7912;
242.4000;1.3171;0.7866;
242.7000;1.3162;0.7819;
243.0000;1.3236;0.7982;
243.3000;1.3171;0.7866;
243.6000;1.3187;0.8006;
243.9000;1.3179;0.8029;
244.2000;1.3162;0.7959;
244.5000;1.3097;0.7889;
244.8000;1.3162;0.8076;
245.1000;1.3138;0.7959;
245.4000;1.3162;0.8029;
245.7000;1.3162;0.7982;
246.0000;1.3171;0.8006;
246.3000;1.3162;0.8029;
246.6000;1.3187;0.8029;
246.9000;1.3162;0.7982;
247.2000;1.3179;0.8029;
247.5000;1.3154;0.7936;
247.8000;1.3162;0.7936;
248.1000;1.3179;0.7959;
248.4000;1.3179;0.7982;
248.7000;1.3179;0.8052;
249.0000;1.3162;0.8029;
249.3000;1.3179;0.8052;
249.6000;1.3179;0.8006;
249.9000;1.3228;0.8099;
250.2000;1.3179;0.7936;
250.5000;1.3171;0.7936;
250.8000;1.3162;0.7959;
251.1000;1.3154;0.8006;
251.4000;1.3154;0.7959;
251.7000;1.3162;0.7959;
252.0000;1.3171;0.8029;
252.3000;1.3171;0.8076;
252.6000;1.3171;0.8099;
252.9000;1.3162;0.8052;
253.2000;1.3154;0.8076;
253.5000;1.3179;0.8076;
253.8000;1.3162;0.8122;
254.1000;1.3171;0.8146;
254.4000;1.3162;0.8216;
254.7000;1.3162;0.8146;
255.0000;1.3195;0.8169;
255.3000;1.3179;0.8076;
255.6000;1.3154;0.7936;
255.9000;1.3171;0.7912;
256.2000;1.3171;0.8006;
256.5000;1.3154;0.7936;
256.8000;1.3138;0.7866;
257.1000;1.3146;0.7936;
257.4000;1.3171;0.7889;
257.7000;1.3187;0.7912;
258.0000;1.3089;0.7749;
258.3000;1.3162;0.8052;
258.6000;1.3179;0.8076;
258.9000;1.3154;0.8029;
259.2000;1.3122;0.7959;
259.5000;1.3195;0.8076;
259.8000;1.3195;0.8052;
260.1000;1.3130;0.8006;
260.4000;1.3171;0.8052;
260.7000;1.3179;0.8006;
261.0000;1.3179;0.7959;
261.3000;1.3162;0.7982;
261.6000;1.3171;0.7889;
261.9000;1.3130;0.7749;
262.2000;1.3154;0.7819;
262.5000;1.3162;0.7866;
262.8000;1.3146;0.7866;
263.1000;1.3138;0.7842;
263.4000;1.3162;0.7912;
263.7000;1.3162;0.7866;
264.0000;1.3187;0.7936;
264.3000;1.3171;0.7982;
264.6000;1.3146;0.7959;
264.9000;1.3162;0.8052;
265.2000;1.3187;0.8076;
265.5000;1.3105;0.7889;
265.8000;1.3162;0.8006;
266.1000;1.3162;0.8052;
266.4000;1.3171;0.8076;
266.7000;1.3162;0.8052;
267.0000;1.3171;0.8076;
267.3000;1.3171;0.8146;
267.6000;1.3162;0.8122;
267.9000;1.3171;0.8099;
268.2000;1.3171;0.8076;
268.5000;1.3171;0.8029;
268.8000;1.3171;0.8029;
269.1000;1.3171;0.8029;
269.4000;1.3162;0.8006;
269.7000;1.3203;0.8099;
270.0000;1.3171;0.8029;
270.3000;1.3171;0.8029;
270.6000;1.3138;0.7912;
270.9000;1.3171;0.7936;
271.2000;1.3162;0.7936;
271.5000;1.3179;0.7936;
271.8000;1.3171;0.7912;
272.1000;1.3203;0.7936;
272.4000;1.3154;0.7866;
272.7000;1.3187;0.7912;
273.0000;1.3179;0.7866;
273.3000;1.3171;0.7842;
273.6000;1.3171;0.7796;
273.9000;1.3187;0.7866;
274.2000;1.3171;0.7819;
274.5000;1.3171;0.7772;
274.8000;1.3162;0.7889;
275.1000;1.3236;0.7959;
275.4000;1.3179;0.7819;
275.7000;1.3171;0.7796;
276.0000;1.3162;0.7772;
276.3000;1.3179;0.7796;
276.6000;1.3162;0.7819;
276.9000;1.3171;0.7889;
277.2000;1.3154;0.7889;
277.5000;1.3154;0.7889;
277.8000;1.3171;0.7842;
278.1000;1.3154;0.7749;
278.4000;1.3162;0.7726;
278.7000;1.3162;0.7679;
279.0000;1.3171;0.7702;
279.3000;1.3171;0.7749;
279.6000;1.3195;0.7842;
279.9000;1.3162;0.7702;
280.2000;1.3171;0.7702;
280.5000;1.3162;0.7796;
280.8000;1.3171;0.7749;
281.1000;1.3171;0.7772;
281.4000;1.3162;0.7796;
281.7000;1.3162;0.7772;
282.0000;1.3179;0.7796;
282.3000;1.3179;0.7749;
282.6000;1.3171;0.7702;
282.9000;1.3187;0.7726;
283.2000;1.3179;0.7726;
283.5000;1.3171;0.7749;
283.8000;1.3203;0.7819;
284.1000;1.3154;0.7772;
284.4000;1.3171;0.7866;
284.7000;1.3138;0.7796;
285.0000;1.3146;0.7842;
285.3000;1.3138;0.7772;
285.6000;1.3162;0.7842;
285.9000;1.3179;0.7842;
286.2000;1.3154;0.7772;
286.5000;1.3154;0.7819;
286.8000;1.3171;0.7842;
287.1000;1.3154;0.7796;
287.4000;1.3187;0.7912;
287.7000;1.3138;0.7749;
288.0000;1.3122;0.7632;
288.3000;1.3146;0.7656;
288.6000;1.3146;0.7656;
288.9000;1.3114;0.7586;
289.2000;1.3154;0.7656;
289.5000;1.3162;0.7656;
289.8000;1.3154;0.7702;
290.1000;1.3154;0.7726;
290.4000;1.3154;0.7749;
290.7000;1.3154;0.7842;
291.0000;1.3179;0.7936;
291.3000;1.3162;0.7959;
291.6000;1.3154;0.7936;
291.9000;1.3171;0.7959;
292.2000;1.3162;0.7982;
292.5000;1.3162;0.8006;
292.8000;1.3146;0.7982;
293.1000;1.3179;0.7982;
293.4000;1.3171;0.7959;
293.7000;1.3171;0.7982;
294.0000;1.3162;0.7912;
294.3000;1.3138;0.7842;
294.6000;1.3114;0.7819;
294.9000;1.3146;0.7889;
295.2000;1.3162;0.7866;
295.5000;1.3154;0.7772;
295.8000;1.3154;0.7842;
296.1000;1.3171;0.7982;
296.4000;1.3154;0.7936;
296.7000;1.3162;0.7936;
297.0000;1.3162;0.7912;
297.3000;1.3154;0.7889;
297.6000;1.3162;0.7819;
297.9000;1.3154;0.7749;
298.2000;1.3154;0.7796;
298.5000;1.3162;0.7772;
298.8000;1.3162;0.7772;
299.1000;1.3162;0.7819;
299.4000;1.3162;0.7866;
299.7000;1.3179;0.7866;
300.0000;1.3154;0.7796;
300.3000;1.3162;0.7796;
300.6000;1.3154;0.7866;
300.9000;1.3154;0.7842;
301.2000;1.3162;0.7866;
301.5000;1.3162;0.7866;
301.8000;1.3154;0.7796;
302.1000;1.3154;0.7772;
302.4000;1.3130;0.7679;
302.7000;1.3162;0.7842;
303.0000;1.3162;0.7982;
303.3000;1.3171;0.8006;
303.6000;1.3236;0.8099;
303.9000;1.3162;0.7912;
304.2000;1.3154;0.7842;
304.5000;1.3162;0.7819;
304.8000;1.3146;0.7772;
305.1000;1.3138;0.7749;
305.4000;1.3138;0.7702;
305.7000;1.3138;0.7726;
306.0000;1.3154;0.7702;
306.3000;1.3154;0.7819;
306.6000;1.3130;0.7772;
306.9000;1.3130;0.7796;
307.2000;1.3146;0.7912;
307.5000;1.3146;0.7889;
307.8000;1.3179;0.7959;
308.1000;1.3146;0.7889;
308.4000;1.3138;0.7889;
308.7000;1.3162;0.7982;
309.0000;1.3138;0.7959;
309.3000;1.3162;0.7982;
309.6000;1.3122;0.7982;
309.9000;1.3154;0.8052;
310.2000;1.3146;0.7982;
310.5000;1.3146;0.7912;
310.8000;1.3171;0.8006;
311.1000;1.3171;0.7959;
311.4000;1.3130;0.7936;
311.7000;1.3138;0.7889;
312.0000;1.3138;0.7842;
312.3000;1.3146;0.7842;
312.6000;1.3154;0.7842;
312.9000;1.3138;0.7819;
313.2000;1.3130;0.7842;
313.5000;1.3146;0.7726;
313.8000;1.3171;0.7796;
314.1000;1.3146;0.7796;
314.4000;1.3154;0.7912;
314.7000;1.3154;0.7912;
315.0000;1.3203;0.7936;
315.3000;1.3162;0.7866;
315.6000;1.3162;0.7889;
315.9000;1.3187;0.7912;
316.2000;1.3154;0.7842;
316.5000;1.3162;0.7889;
316.8000;1.3154;0.7866;
317.1000;1.3154;0.7842;
317.4000;1.3146;0.7866;
317.7000;1.3171;0.7866;
318.0000;1.3154;0.7819;
318.3000;1.3154;0.7726;
318.6000;1.3162;0.7819;
318.9000;1.3154;0.7842;
319.2000;1.3162;0.7889;
319.5000;1.3154;0.7959;
319.8000;1.3154;0.7982;
320.1000;1.3154;0.7936;
320.4000;1.3162;0.7982;
320.7000;1.3171;0.7982;
321.0000;1.3162;0.7912;
321.3000;1.3162;0.7982;
321.6000;1.3162;0.8006;
321.9000;1.3146;0.7889;
322.2000;1.3162;0.7936;
322.5000;1.3146;0.7936;
322.8000;1.3130;0.7912;
323.1000;1.3154;0.7936;
323.4000;1.3146;0.7936;
323.7000;1.3130;0.7912;
324.0000;1.3138;0.7959;
324.3000;1.3154;0.8052;
324.6000;1.3146;0.8029;
324.9000;1.3138;0.7936;
325.2000;1.3162;0.7982;
325.5000;1.3162;0.8029;
325.8000;1.3154;0.7959;
326.1000;1.3154;0.7889;
326.4000;1.3162;0.7959;
326.7000;1.3203;0.8122;
327.0000;1.3146;0.8006;
327.3000;1.3162;0.8076;
327.6000;1.3073;0.7842;
327.9000;1.3146;0.7982;
328.2000;1.3146;0.7912;
328.5000;1.3130;0.7959;
328.8000;1.3179;0.8099;
329.1000;1.3138;0.7982;
329.4000;1.3228;0.8122;
329.7000;1.3073;0.7796;
330.0000;1.3138;0.8006;
330.3000;1.3154;0.7982;
330.6000;1.3089;0.7866;
330.9000;1.3146;0.7936;
331.2000;1.3146;0.7936;
331.5000;1.3130;0.7819;
331.8000;1.3130;0.7796;
332.1000;1.3146;0.7842;
332.4000;1.3138;0.7726;
332.7000;1.3138;0.7656;
333.0000;1.3162;0.7679;
333.3000;1.3154;0.7702;
333.6000;1.3162;0.7796;
333.9000;1.3146;0.7772;
334.2000;1.3171;0.7796;
334.5000;1.3154;0.7819;
334.8000;1.3154;0.7749;
335.1000;1.3154;0.7679;
335.4000;1.3162;0.7749;
335.7000;1.3154;0.7726;
336.0000;1.3179;0.7772;
336.3000;1.3203;0.7796;
336.6000;1.3179;0.7772;
336.9000;1.3146;0.7702;
337.2000;1.3146;0.7726;
337.5000;1.3138;0.7749;
337.8000;1.3138;0.7726;
338.1000;1.3138;0.7702;
338.4000;1.3154;0.7726;
338.7000;1.3130;0.7749;
339.0000;1.3138;0.7796;
339.3000;1.3138;0.7772;
339.6000;1.3146;0.7726;
339.9000;1.3146;0.7702;
340.2000;1.3146;0.7749;
340.5000;1.3146;0.7772;
340.8000;1.3162;0.7889;
341.1000;1.3146;0.7866;
341.4000;1.3146;0.7796;
341.7000;1.3146;0.7819;
342.0000;1.3171;0.7912;
342.3000;1.3154;0.7912;
342.6000;1.3138;0.7842;
342.9000;1.3138;0.7889;
343.2000;1.3162;0.7796;
343.5000;1.3162;0.7772;
343.8000;1.3154;0.7796;
344.1000;1.3154;0.7726;
344.4000;1.3122;0.7679;
344.7000;1.3154;0.7749;
345.0000;1.3171;0.7726;
345.3000;1.3162;0.7749;
345.6000;1.3154;0.7796;
345.9000;1.3122;0.7796;
346.2000;1.3162;0.7889;
346.5000;1.3162;0.7936;
346.8000;1.3171;0.7936;
347.1000;1.3154;0.7959;
347.4000;1.3154;0.8029;
347.7000;1.3154;0.8029;
348.0000;1.3138;0.7866;
348.3000;1.3146;0.7796;
348.6000;1.3146;0.7749;
348.9000;1.3122;0.7796;
349.2000;1.3146;0.7936;
349.5000;1.3138;0.7959;
349.8000;1.3138;0.7936;
350.1000;1.3138;0.7912;
350.4000;1.3130;0.7866;
350.7000;1.3138;0.7889;
351.0000;1.3154;0.8029;
351.3000;1.3154;0.8029;
351.6000;1.3146;0.7819;
351.9000;1.3146;0.7819;
352.2000;1.3146;0.7796;
352.5000;1.3162;0.7819;
352.8000;1.3162;0.7842;
353.1000;1.3146;0.7796;
353.4000;1.3219;0.8052;
353.7000;1.3130;0.7912;
354.0000;1.3122;0.7936;
354.3000;1.3130;0.7866;
354.6000;1.3130;0.7912;
354.9000;1.3138;0.7912;
355.2000;1.3138;0.7842;
355.5000;1.3130;0.7772;
355.8000;1.3146;0.7842;
356.1000;1.3146;0.7866;
356.4000;1.3130;0.7819;
356.7000;1.3122;0.7749;
357.0000;1.3154;0.7772;
357.3000;1.3122;0.7819;
357.6000;1.3130;0.7889;
357.9000;1.3138;0.7889;
358.2000;1.3130;0.7889;
358.5000;1.3171;0.8006;
358.8000;1.3154;0.7982;
359.1000;1.3154;0.7889;
359.4000;1.3211;0.8006;
359.7000;1.3130;0.7842;
360.0000;1.3114;0.7772;
360.3000;1.3073;0.7819;
360.6000;1.3195;0.8052;
360.9000;1.3073;0.7749;
361.2000;1.3122;0.7889;
361.5000;1.3065;0.7772;
361.8000;1.3162;0.8029;
362.1000;1.3162;0.8006;
362.4000;1.3146;0.8029;
362.7000;1.3244;0.8169;
363.0000;1.3154;0.7912;
363.3000;1.3162;0.7889;
363.6000;1.3105;0.7726;
363.9000;1.3138;0.7702;
364.2000;1.3154;0.7726;
364.5000;1.3162;0.7726;
364.8000;1.3146;0.7702;
365.1000;1.3138;0.7702;
365.4000;1.3154;0.7702;
365.7000;1.3195;0.7796;
366.0000;1.3146;0.7586;
366.3000;1.3162;0.7609;
366.6000;1.3154;0.7609;
366.9000;1.3162;0.7702;
367.2000;1.3130;0.7749;
367.5000;1.3146;0.7796;
367.8000;1.3138;0.7749;
368.1000;1.3162;0.7749;
368.4000;1.3146;0.7586;
368.7000;1.3138;0.7586;
369.0000;1.3146;0.7702;
369.3000;1.3162;0.7702;
369.6000;1.3146;0.7772;
369.9000;1.3130;0.7726;
370.2000;1.3146;0.7749;
370.5000;1.3146;0.7796;
370.8000;1.3154;0.7796;
371.1000;1.3203;0.7889;
371.4000;1.3138;0.7749;
371.7000;1.3146;0.7772;
372.0000;1.3146;0.7772;
372.3000;1.3130;0.7702;
372.6000;1.3097;0.7702;
372.9000;1.3179;0.7936;
373.2000;1.3171;0.7936;
373.5000;1.3146;0.7796;
373.8000;1.3146;0.7772;
374.1000;1.3130;0.7726;
374.4000;1.3138;0.7842;
374.7000;1.3154;0.7796;
375.0000;1.3138;0.7679;
375.3000;1.3114;0.7562;
375.6000;1.3171;0.7679;
375.9000;1.3130;0.7632;
376.2000;1.3057;0.7446;
376.5000;1.3081;0.7446;
376.8000;1.3122;0.7562;
377.1000;1.3081;0.7422;
377.4000;1.3138;0.7609;
377.7000;1.3122;0.7609;
378.0000;1.3146;0.7749;
378.3000;1.3162;0.7819;
378.6000;1.3154;0.7702;
378.9000;1.3146;0.7726;
379.2000;1.3162;0.7702;
379.5000;1.3203;0.7912;
379.8000;1.3105;0.7656;
380.1000;1.3138;0.7819;
380.4000;1.3138;0.7796;
380.7000;1.3138;0.7819;
381.0000;1.3138;0.7772;
381.3000;1.3154;0.7726;
381.6000;1.3146;0.7819;
381.9000;1.3195;0.7889;
382.2000;1.3154;0.7819;
382.5000;1.3162;0.7866;
382.8000;1.3154;0.7889;
383.1000;1.3154;0.7912;
383.4000;1.3089;0.7702;
383.7000;1.3146;0.7772;
384.0000;1.3138;0.7772;
384.3000;1.3219;0.8006;
384.6000;1.3138;0.7866;
384.9000;1.3097;0.7749;
385.2000;1.3130;0.7796;
385.5000;1.3130;0.7726;
385.8000;1.3138;0.7796;
386.1000;1.3130;0.7772;
386.4000;1.3114;0.7702;
386.7000;1.3146;0.7772;
387.0000;1.3122;0.7749;
387.3000;1.3138;0.7749;
387.6000;1.3114;0.7656;
387.9000;1.3138;0.7679;
388.2000;1.3122;0.7702;
388.5000;1.3154;0.7819;
388.8000;1.3114;0.7819;
389.1000;1.3138;0.7912;
389.4000;1.3122;0.7819;
389.7000;1.3171;0.7959;
390.0000;1.3138;0.7936;
390.3000;1.3130;0.8029;
390.6000;1.3122;0.7936;
390.9000;1.3138;0.7936;
391.2000;1.3138;0.7936;
391.5000;1.3138;0.7936;
391.8000;1.3130;0.7912;
392.1000;1.3122;0.7959;
392.4000;1.3122;0.8006;
392.7000;1.3122;0.7936;
393.0000;1.3122;0.8006;
393.3000;1.3146;0.8122;
393.6000;1.3138;0.8122;
393.9000;1.3146;0.8169;
394.2000;1.3138;0.8146;
394.5000;1.3130;0.8076;
394.8000;1.3146;0.8099;
395.1000;1.3138;0.8029;
395.4000;1.3146;0.7959;
395.7000;1.3130;0.7889;
396.0000;1.3154;0.7889;
396.3000;1.3162;0.7959;
396.6000;1.3122;0.7889;
396.9000;1.3146;0.7866;
397.2000;1.3122;0.7842;
397.5000;1.3171;0.8006;
397.8000;1.3130;0.7959;
398.1000;1.3154;0.8122;
398.4000;1.3122;0.8006;
398.7000;1.3146;0.8099;
399.0000;1.3154;0.8052;
399.3000;1.3171;0.8146;
399.6000;1.3138;0.8006;
399.9000;1.3162;0.7982;
400.2000;1.3114;0.7936;
400.5000;1.3138;0.7959;
400.8000;1.3130;0.7889;
401.1000;1.3089;0.7772;
401.4000;1.3138;0.7819;
401.7000;1.3146;0.7749;
402.0000;1.3130;0.7772;
402.3000;1.3195;0.7982;
402.6000;1.3130;0.7889;
402.9000;1.3154;0.8029;
403.2000;1.3146;0.8006;
403.5000;1.3089;0.7796;
403.8000;1.3130;0.7959;
404.1000;1.3146;0.8006;
404.4000;1.3130;0.7982;
404.7000;1.3130;0.8052;
405.0000;1.3154;0.8052;
405.3000;1.3130;0.7959;
405.6000;1.3138;0.7982;
405.9000;1.3130;0.7912;
406.2000;1.3130;0.7936;
406.5000;1.3162;0.7982;
406.8000;1.3097;0.7889;
407.1000;1.3130;0.8029;
407.4000;1.3146;0.8052;
407.7000;1.3146;0.8076;
408.0000;1.3081;0.7936;
408.3000;1.3130;0.8029;
408.6000;1.3122;0.8076;
408.9000;1.3130;0.8122;
409.2000;1.3195;0.8146;
409.5000;1.3162;0.8122;
409.8000;1.3162;0.8122;
410.1000;1.3154;0.8099;
410.4000;1.3162;0.8052;
410.7000;1.3162;0.8052;
411.0000;1.3138;0.7936;
411.3000;1.3138;0.7936;
411.6000;1.3146;0.8029;
411.9000;1.3130;0.8076;
412.2000;1.3130;0.7959;
412.5000;1.3146;0.7982;
412.8000;1.3146;0.7959;
413.1000;1.3138;0.7936;
413.4000;1.3130;0.7936;
413.7000;1.3138;0.7936;
414.0000;1.3154;0.8029;
414.3000;1.3138;0.8006;
414.6000;1.3130;0.7959;
414.9000;1.3130;0.7912;
415.2000;1.3146;0.7936;
415.5000;1.3146;0.8052;
415.8000;1.3130;0.8122;
416.1000;1.3122;0.8122;
416.4000;1.3154;0.8122;
416.7000;1.3130;0.8076;
417.0000;1.3154;0.8099;
417.3000;1.3138;0.7959;
417.6000;1.3122;0.8006;
417.9000;1.3138;0.8076;
418.2000;1.3146;0.8052;
418.5000;1.3122;0.8006;
418.8000;1.3130;0.7912;
419.1000;1.3138;0.7959;
419.4000;1.3146;0.7959;
419.7000;1.3154;0.7959;
420.0000;1.3138;0.7912;
420.3000;1.3154;0.7959;
420.6000;1.3130;0.7959;
420.9000;1.3162;0.7982;
421.2000;1.3146;0.7936;
421.5000;1.3203;0.8099;
421.8000;1.3138;0.7936;
422.1000;1.3138;0.7912;
422.4000;1.3138;0.7912;
422.7000;1.3138;0.8006;
423.0000;1.3130;0.7959;
423.3000;1.3179;0.8076;
423.6000;1.3114;0.7889;
423.9000;1.3146;0.7982;
424.2000;1.3138;0.8006;
424.5000;1.3146;0.8146;
424.8000;1.3130;0.8076;
425.1000;1.3138;0.8052;
425.4000;1.3130;0.8076;
425.7000;1.3114;0.8006;
426.0000;1.3162;0.8146;
426.3000;1.3105;0.8052;
426.6000;1.3105;0.8029;
426.9000;1.3122;0.8076;
427.2000;1.3130;0.8076;
427.5000;1.3130;0.8029;
427.8000;1.3179;0.8076;
428.1000;1.3138;0.8052;
428.4000;1.3130;0.7982;
428.7000;1.3122;0.8052;
429.0000;1.3122;0.8076;
429.3000;1.3114;0.8099;
429.6000;1.3130;0.8076;
429.9000;1.3130;0.8076;
430.2000;1.3138;0.8169;
430.5000;1.3105;0.8052;
430.8000;1.3130;0.7982;
431.1000;1.3130;0.7982;
431.4000;1.3228;0.8263;
431.7000;1.3146;0.8052;
432.0000;1.3138;0.8099;
432.3000;1.3146;0.8146;
432.6000;1.3130;0.8076;
432.9000;1.3146;0.8006;
433.2000;1.3154;0.8076;
433.5000;1.3162;0.8076;
433.8000;1.3122;0.7982;
434.1000;1.3130;0.8052;
434.4000;1.3114;0.7936;
434.7000;1.3122;0.7866;
435.0000;1.3130;0.7889;
435.3000;1.3130;0.7959;
435.6000;1.3130;0.7959;
435.9000;1.3122;0.8006;
436.2000;1.3138;0.8029;
436.5000;1.3146;0.8099;
436.8000;1.3146;0.8052;
437.1000;1.3138;0.8076;
437.4000;1.3138;0.8052;
437.7000;1.3122;0.7959;
438.0000;1.3114;0.7912;
438.3000;1.3122;0.7936;
438.6000;1.3122;0.7959;
438.9000;1.3138;0.8006;
439.2000;1.3122;0.8029;
439.5000;1.3146;0.8006;
439.8000;1.3122;0.7982;
440.1000;1.3146;0.8006;
440.4000;1.3122;0.7912;
440.7000;1.3146;0.7936;
441.0000;1.3130;0.8076;
441.3000;1.3122;0.8146;
441.6000;1.3130;0.8193;
441.9000;1.3130;0.8169;
442.2000;1.3122;0.8099;
442.5000;1.3146;0.7959;
442.8000;1.3122;0.7842;
443.1000;1.3130;0.7889;
443.4000;1.3138;0.7912;
443.7000;1.3122;0.7912;
444.0000;1.3122;0.7866;
444.3000;1.3162;0.7959;
444.6000;1.3195;0.8146;
444.9000;1.3122;0.7936;
445.2000;1.3130;0.7982;
445.5000;1.3138;0.8029;
445.8000;1.3105;0.8006;
446.1000;1.3122;0.8029;
446.4000;1.3171;0.8169;
446.7000;1.3138;0.8076;
447.0000;1.3122;0.8146;
447.3000;1.3130;0.8239;
447.6000;1.3122;0.8263;
447.9000;1.3073;0.8169;
448.2000;1.3105;0.8193;
448.5000;1.3097;0.8169;
448.8000;1.3105;0.8169;
449.1000;1.3114;0.8193;
449.4000;1.3114;0.8122;
449.7000;1.3105;0.8099;
450.0000;1.3114;0.8006;
450.3000;1.3171;0.8122;
450.6000;1.3138;0.8052;
450.9000;1.3089;0.7819;
451.2000;1.3122;0.7936;
451.5000;1.3138;0.7959;
451.8000;1.3122;0.7959;
452.1000;1.3122;0.7959;
452.4000;1.3114;0.7936;
452.7000;1.3114;0.7912;
453.0000;1.3073;0.7912;
453.3000;1.3122;0.8052;
453.6000;1.3130;0.7982;
453.9000;1.3146;0.8029;
454.2000;1.3146;0.8029;
454.5000;1.3130;0.7936;
454.8000;1.3105;0.7819;
455.1000;1.3130;0.7866;
455.4000;1.3122;0.7866;
455.7000;1.3130;0.7912;
456.0000;1.3130;0.7866;
456.3000;1.3114;0.7842;
456.6000;1.3130;0.7842;
456.9000;1.3105;0.7749;
457.2000;1.3122;0.7726;
457.5000;1.3114;0.7819;
457.8000;1.3138;0.7842;
458.1000;1.3138;0.7842;
458.4000;1.3114;0.7819;
458.7000;1.3114;0.7842;
459.0000;1.3122;0.7842;
459.3000;1.3114;0.7936;
459.6000;1.3130;0.7959;
459.9000;1.3114;0.7982;
460.2000;1.3138;0.7982;
460.5000;1.3138;0.8029;
460.8000;1.3146;0.8006;
461.1000;1.3130;0.7959;
461.4000;1.3122;0.8029;
461.7000;1.3130;0.8076;
462.0000;1.3105;0.8052;
462.3000;1.3114;0.8029;
462.6000;1.3122;0.7982;
462.9000;1.3146;0.7959;
463.2000;1.3130;0.7912;
463.5000;1.3122;0.7936;
463.8000;1.3105;0.7889;
464.1000;1.3122;0.7912;
464.4000;1.3122;0.8052;
464.7000;1.3130;0.8076;
465.0000;1.3105;0.8076;
465.3000;1.3122;0.8099;
465.6000;1.3138;0.8052;
465.9000;1.3146;0.8076;
466.2000;1.3114;0.8099;
466.5000;1.3130;0.8099;
466.8000;1.3138;0.8052;
467.1000;1.3122;0.7936;
467.4000;1.3146;0.7959;
467.7000;1.3122;0.7889;
468.0000;1.3130;0.8006;
468.3000;1.3138;0.7936;
468.6000;1.3179;0.7959;
468.9000;1.3114;0.7796;
469.2000;1.3122;0.7842;
469.5000;1.3089;0.7726;
469.8000;1.3105;0.7796;
470.1000;1.3211;0.8099;
470.4000;1.3114;0.8029;
470.7000;1.3105;0.8052;
471.0000;1.3105;0.8029;
471.3000;1.3105;0.8006;
471.6000;1.3105;0.7959;
471.9000;1.3130;0.8006;
472.2000;1.3114;0.7982;
472.5000;1.3130;0.7866;
472.8000;1.3089;0.7796;
473.1000;1.3065;0.7772;
473.4000;1.3097;0.7866;
473.7000;1.3138;0.8006;
474.0000;1.3130;0.8006;
474.3000;1.3154;0.7959;
474.6000;1.3146;0.7912;
474.9000;1.3138;0.7936;
475.2000;1.3114;0.7936;
475.5000;1.3114;0.8052;
475.8000;1.3122;0.8006;
476.1000;1.3130;0.8006;
476.4000;1.3146;0.8052;
476.7000;1.3122;0.7959;
477.0000;1.3122;0.7982;
477.3000;1.3146;0.8029;
477.6000;1.3130;0.8029;
477.9000;1.3138;0.8146;
478.2000;1.3122;0.8076;
478.5000;1.3130;0.8076;
478.8000;1.3122;0.8076;
479.1000;1.3114;0.8076;
479.4000;1.3114;0.8076;
479.7000;1.3122;0.8076;
480.0000;1.3130;0.8052;
480.3000;1.3105;0.8052;
480.6000;1.3114;0.8099;
480.9000;1.3105;0.8122;
481.2000;1.3114;0.8052;
481.5000;1.3130;0.8076;
481.8000;1.3114;0.8052;
482.1000;1.3114;0.8076;
482.4000;1.3122;0.8052;
482.7000;1.3114;0.8006;
483.0000;1.3114;0.8052;
483.3000;1.3114;0.8052;
483.6000;1.3130;0.8146;
483.9000;1.3130;0.8216;
484.2000;1.3114;0.8122;
484.5000;1.3122;0.8052;
484.8000;1.3122;0.8099;
485.1000;1.3114;0.8169;
485.4000;1.3105;0.8122;
485.7000;1.3097;0.8076;
486.0000;1.3122;0.8146;
486.3000;1.3122;0.7936;
486.6000;1.3130;0.7936;
486.9000;1.3130;0.7889;
487.2000;1.3114;0.7796;
487.5000;1.3122;0.7796;
487.8000;1.3122;0.7842;
488.1000;1.3097;0.7842;
488.4000;1.3114;0.7936;
488.7000;1.3122;0.8052;
489.0000;1.3130;0.8029;
489.3000;1.3105;0.8029;
489.6000;1.3105;0.7982;
489.9000;1.3122;0.8076;
490.2000;1.3114;0.8076;
490.5000;1.3105;0.8052;
490.8000;1.3122;0.8122;
491.1000;1.3114;0.8122;
491.4000;1.3089;0.8146;
491.7000;1.3114;0.8239;
492.0000;1.3081;0.8216;
492.3000;1.3097;0.8239;
492.6000;1.3105;0.8169;
492.9000;1.3097;0.8122;
493.2000;1.3105;0.8076;
493.5000;1.3105;0.8052;
493.8000;1.3114;0.7982;
494.1000;1.3138;0.8076;
494.4000;1.3105;0.8076;
494.7000;1.3122;0.8052;
495.0000;1.3122;0.8099;
495.3000;1.3130;0.8076;
495.6000;1.3138;0.8076;
495.9000;1.3130;0.8169;
496.2000;1.3105;0.8169;
496.5000;1.3122;0.8099;
496.8000;1.3114;0.8052;
497.1000;1.3130;0.7982;
497.4000;1.3114;0.7866;
497.7000;1.3122;0.7889;
498.0000;1.3057;0.7796;
498.3000;1.3105;0.7866;
498.6000;1.3114;0.7819;
498.9000;1.3130;0.7936;
499.2000;1.3114;0.7912;
499.5000;1.3130;0.8006;
499.8000;1.3114;0.7936;
500.1000;1.3105;0.8006;
500.4000;1.3097;0.8052;
500.7000;1.3122;0.8076;
501.0000;1.3097;0.8076;
501.3000;1.3179;0.8286;
501.6000;1.3122;0.8076;
501.9000;1.3114;0.8006;
502.2000;1.3114;0.7936;
502.5000;1.3114;0.8006;
502.8000;1.3114;0.7959;
503.1000;1.3122;0.7796;
503.4000;1.3105;0.7749;
503.7000;1.3114;0.7749;
504.0000;1.3105;0.7796;
504.3000;1.3138;0.7959;
504.6000;1.3122;0.8006;
504.9000;1.3154;0.8076;
505.2000;1.3105;0.8052;
505.5000;1.3130;0.8099;
505.8000;1.3122;0.7936;
506.1000;1.3114;0.7889;
506.4000;1.3122;0.8006;
506.7000;1.3122;0.8099;
507.0000;1.3105;0.7959;
507.3000;1.3138;0.8029;
507.6000;1.3114;0.7912;
507.9000;1.3114;0.7866;
508.2000;1.3114;0.7796;
508.5000;1.3114;0.7842;
508.8000;1.3130;0.7842;
509.1000;1.3048;0.7726;
509.4000;1.3122;0.7866;
509.7000;1.3130;0.7912;
510.0000;1.3114;0.7842;
510.3000;1.3122;0.7912;
510.6000;1.3105;0.7912;
510.9000;1.3114;0.7959;
511.2000;1.3122;0.7912;
511.5000;1.3114;0.7912;
511.8000;1.3138;0.7936;
512.1000;1.3162;0.7959;
512.4000;1.3105;0.7889;
512.7000;1.3105;0.7842;
513.0000;1.3097;0.7842;
513.3000;1.3114;0.7866;
513.6000;1.3114;0.7912;
513.9000;1.3122;0.7819;
514.2000;1.3057;0.7632;
514.5000;1.3114;0.7749;
514.8000;1.3105;0.7749;
515.1000;1.3122;0.7772;
515.4000;1.3114;0.7819;
515.7000;1.3162;0.7959;
516.0000;1.3114;0.7842;
516.3000;1.3097;0.7866;
516.6000;1.3097;0.7819;
516.9000;1.3122;0.7772;
517.2000;1.3171;0.7912;
517.5000;1.3228;0.8076;
517.8000;1.3122;0.7796;
518.1000;1.3122;0.7749;
518.4000;1.3130;0.7772;
518.7000;1.3105;0.7702;
519.0000;1.3105;0.7749;
519.3000;1.3122;0.7796;
519.6000;1.3105;0.7796;
519.9000;1.3195;0.8006;
520.2000;1.3097;0.7796;
520.5000;1.3097;0.7889;
520.8000;1.3130;0.7959;
521.1000;1.3089;0.7936;
521.4000;1.3097;0.7936;
521.7000;1.3105;0.7936;
522.0000;1.3105;0.7866;
522.3000;1.3097;0.7819;
522.6000;1.3114;0.7749;
522.9000;1.3105;0.7772;
523.2000;1.3130;0.7819;
523.5000;1.3122;0.7819;
523.8000;1.3122;0.7866;
524.1000;1.3122;0.8006;
524.4000;1.3097;0.8029;
524.7000;1.3114;0.8122;
525.0000;1.3032;0.8006;
525.3000;1.3114;0.8193;
525.6000;1.3089;0.8146;
525.9000;1.3105;0.8239;
526.2000;1.3114;0.8263;
526.5000;1.3114;0.8263;
526.8000;1.3114;0.8216;
527.1000;1.3105;0.8193;
527.4000;1.3114;0.8146;
527.7000;1.3122;0.8216;
528.0000;1.3105;0.8122;
528.3000;1.3114;0.8099;
528.6000;1.3114;0.8169;
528.9000;1.3097;0.8169;
529.2000;1.3105;0.8193;
529.5000;1.3097;0.8146;
529.8000;1.3089;0.8146;
530.1000;1.3105;0.8099;
530.4000;1.3114;0.8076;
530.7000;1.3048;0.7889;
531.0000;1.3097;0.8052;
531.3000;1.3097;0.8006;
531.6000;1.3048;0.7936;
531.9000;1.3105;0.7982;
532.2000;1.3105;0.7959;
532.5000;1.3105;0.8029;
532.8000;1.3122;0.8146;
533.1000;1.3114;0.8076;
533.4000;1.3114;0.8052;
533.7000;1.3219;0.8216;
534.0000;1.3105;0.8052;
534.3000;1.3105;0.8076;
534.6000;1.3097;0.8052;
534.9000;1.3114;0.8076;
535.2000;1.3081;0.8076;
535.5000;1.3097;0.8052;
535.8000;1.3114;0.7982;
536.1000;1.3114;0.7889;
536.4000;1.3122;0.7936;
536.7000;1.3122;0.7889;
537.0000;1.3105;0.7842;
537.3000;1.3097;0.7842;
537.6000;1.3130;0.7982;
537.9000;1.3114;0.7959;
538.2000;1.3065;0.7912;
538.5000;1.3138;0.8122;
538.8000;1.3097;0.8029;
539.1000;1.3048;0.7842;
539.4000;1.3114;0.8006;
539.7000;1.3154;0.8122;
540.0000;1.3081;0.8006;
540.3000;1.3114;0.8052;
540.6000;1.3081;0.8146;
540.9000;1.3081;0.8076;
541.2000;1.3114;0.8099;
541.5000;1.3073;0.7959;
541.8000;1.3122;0.8122;
542.1000;1.3105;0.8052;
542.4000;1.3016;0.7889;
542.7000;1.3105;0.8076;
543.0000;1.3105;0.8122;
543.3000;1.3097;0.8099;
543.6000;1.3089;0.8076;
543.9000;1.3097;0.8146;
544.2000;1.3114;0.8146;
544.5000;1.3105;0.8122;
544.8000;1.3114;0.8122;
545.1000;1.3097;0.8122;
545.4000;1.3114;0.8146;
545.7000;1.3105;0.8052;
546.0000;1.3097;0.8076;
546.3000;1.3089;0.8029;
546.6000;1.3114;0.8122;
546.9000;1.3130;0.8193;
547.2000;1.3105;0.8146;
547.5000;1.3105;0.8216;
547.8000;1.3138;0.8356;
548.1000;1.3097;0.8239;
548.4000;1.3081;0.8169;
548.7000;1.3105;0.8239;
549.0000;1.3097;0.8263;
549.3000;1.3105;0.8263;
549.6000;1.3122;0.8286;
549.9000;1.3114;0.8333;
550.2000;1.3097;0.8193;
550.5000;1.3097;0.8146;
550.8000;1.3105;0.8193;
551.1000;1.3105;0.8122;
551.4000;1.3114;0.8169;
551.7000;1.3105;0.8193;
552.0000;1.3114;0.8216;
552.3000;1.3089;0.8146;
552.6000;1.3089;0.8006;
552.9000;1.3089;0.7982;
553.2000;1.3114;0.8052;
553.5000;1.3097;0.8029;
553.8000;1.3097;0.7959;
554.1000;1.3105;0.8052;
554.4000;1.3138;0.8029;
554.7000;1.3073;0.8006;
555.0000;1.3114;0.8169;
555.3000;1.3097;0.8099;
555.6000;1.3154;0.8309;
555.9000;1.3114;0.8263;
556.2000;1.3114;0.8239;
556.5000;1.3032;0.7982;
556.8000;1.3114;0.8239;
557.1000;1.3114;0.8263;
557.4000;1.3097;0.8193;
557.7000;1.3130;0.8263;
558.0000;1.3114;0.8193;
558.3000;1.3114;0.8193;
558.6000;1.3114;0.8216;
558.9000;1.3105;0.8239;
559.2000;1.3105;0.8263;
559.5000;1.3122;0.8263;
559.8000;1.3114;0.8193;
560.1000;1.3138;0.8216;
560.4000;1.3097;0.8146;
560.7000;1.3114;0.8216;
561.0000;1.3105;0.8146;
561.3000;1.3105;0.8169;
561.6000;1.3097;0.8029;
561.9000;1.3097;0.7982;
562.2000;1.3097;0.8006;
562.5000;1.3057;0.7842;
562.8000;1.3105;0.7936;
563.1000;1.3097;0.7936;
563.4000;1.3171;0.8169;
563.7000;1.3114;0.7936;
564.0000;1.3105;0.8006;
564.3000;1.3040;0.7866;
564.6000;1.3057;0.7936;
564.9000;1.3154;0.8146;
565.2000;1.3097;0.7982;
565.5000;1.3105;0.7982;
565.8000;1.3097;0.8052;
566.1000;1.3097;0.8076;
566.4000;1.3105;0.8146;
566.7000;1.3057;0.8029;
567.0000;1.3065;0.8052;
567.3000;1.3097;0.8076;
567.6000;1.3081;0.8052;
567.9000;1.3065;0.8052;
568.2000;1.3081;0.8193;
568.5000;1.3081;0.8193;
568.8000;1.3073;0.8076;
569.1000;1.3089;0.8146;
569.4000;1.3105;0.8169;
569.7000;1.3114;0.8169;
570.0000;1.3146;0.8309;
570.3000;1.3105;0.8216;
570.6000;1.3105;0.8169;
570.9000;1.3114;0.8193;
571.2000;1.3122;0.8146;
571.5000;1.3024;0.7866;
571.8000;1.3089;0.8029;
572.1000;1.3089;0.8006;
572.4000;1.3114;0.7959;
572.7000;1.3097;0.7912;
573.0000;1.3089;0.7796;
573.3000;1.3081;0.7772;
573.6000;1.3097;0.7772;
573.9000;1.3146;0.7936;
574.2000;1.3114;0.7936;
574.5000;1.3081;0.8052;
574.8000;1.3130;0.8193;
575.1000;1.3122;0.8239;
575.4000;1.3122;0.8286;
575.7000;1.3122;0.8239;
576.0000;1.3105;0.8239;
576.3000;1.3114;0.8263;
576.6000;1.3114;0.8146;
576.9000;1.3097;0.8099;
577.2000;1.3105;0.8076;
577.5000;1.3097;0.8052;
577.8000;1.3097;0.8122;
578.1000;1.3122;0.8263;
578.4000;1.3081;0.8146;
578.7000;1.3105;0.8169;
579.0000;1.3097;0.8239;
579.3000;1.3089;0.8239;
579.6000;1.3114;0.8286;
579.9000;1.3114;0.8309;
580.2000;1.3122;0.8403;
580.5000;1.3105;0.8286;
580.8000;1.3097;0.8239;
581.1000;1.3097;0.8169;
581.4000;1.3105;0.8052;
581.7000;1.3105;0.8029;
582.0000;1.3097;0.8076;
582.3000;1.3097;0.8076;
582.6000;1.3105;0.8006;
582.9000;1.3097;0.8029;
583.2000;1.3105;0.8076;
583.5000;1.3089;0.8052;
583.8000;1.3089;0.8076;
584.1000;1.3114;0.8146;
584.4000;1.3114;0.8099;
584.7000;1.3097;0.8099;
585.0000;1.3105;0.8169;
585.3000;1.3114;0.8193;
585.6000;1.3105;0.8193;
585.9000;1.3114;0.8216;
586.2000;1.3105;0.8263;
586.5000;1.3114;0.8216;
586.8000;1.3097;0.8239;
587.1000;1.3097;0.8286;
587.4000;1.3081;0.8263;
587.7000;1.3097;0.8333;
588.0000;1.3097;0.8263;
588.3000;1.3048;0.8146;
588.6000;1.3073;0.8099;
588.9000;1.3008;0.7889;
589.2000;1.3065;0.8099;
589.5000;1.3073;0.8146;
589.8000;1.3114;0.8169;
590.1000;1.3057;0.8099;
590.4000;1.3105;0.8216;
590.7000;1.3057;0.8052;
591.0000;1.3114;0.8122;
591.3000;1.3040;0.7936;
591.6000;1.3097;0.8006;
591.9000;1.3065;0.7959;
592.2000;1.3089;0.8029;
592.5000;1.3081;0.8029;
592.8000;1.3114;0.8076;
593.1000;1.3097;0.8029;
593.4000;1.3073;0.8006;
593.7000;1.3073;0.7982;
594.0000;1.3057;0.7982;
594.3000;1.3105;0.8076;
594.6000;1.3114;0.8122;
594.9000;1.3089;0.8099;
595.2000;1.3089;0.8052;
595.5000;1.3089;0.7959;
595.8000;1.3097;0.8052;
596.1000;1.3122;0.8122;
596.4000;1.3089;0.8029;
596.7000;1.3081;0.8029;
597.0000;1.3122;0.8052;
597.3000;1.3073;0.8029;
597.6000;1.3105;0.8099;
597.9000;1.3097;0.8146;
598.2000;1.3105;0.8146;
598.5000;1.3097;0.8146;
598.8000;1.3097;0.8076;
599.1000;1.3065;0.7936;
599.4000;1.3105;0.8122;
599.7000;1.3097;0.8169;
600.0000;1.3073;0.8122;
600.3000;1.3122;0.8076;
600.6000;1.3089;0.7796;
600.9000;1.3032;0.7726;
601.2000;1.2943;0.7446;
601.5000;1.2812;0.7212;
601.8000;1.2707;0.7095;
602.1000;1.2527;0.6792;
602.4000;1.2470;0.6629;
602.7000;1.2324;0.6302;
603.0000;1.2234;0.6115;
603.3000;1.2145;0.5975;
603.6000;1.2047;0.5788;
603.9000;1.1950;0.5602;
604.2000;1.1852;0.5438;
604.5000;1.1762;0.5322;
604.8000;1.1722;0.5182;
605.1000;1.1665;0.5135;
605.4000;1.1543;0.4948;
605.7000;1.1477;0.4855;
606.0000;1.1396;0.4785;
606.3000;1.1306;0.4691;
606.6000;1.1249;0.4645;
606.9000;1.1201;0.4551;
607.2000;1.1152;0.4388;
607.5000;1.1079;0.4341;
607.8000;1.1005;0.4201;
608.1000;1.0940;0.4061;
608.4000;1.0916;0.4108;
608.7000;1.0826;0.4015;
609.0000;1.0786;0.3968;
609.3000;1.0729;0.3875;
609.6000;1.0672;0.3875;
609.9000;1.0639;0.3898;
610.2000;1.0663;0.4061;
610.5000;1.0509;0.3804;
610.8000;1.0452;0.3804;
611.1000;1.0444;0.3851;
611.4000;1.0305;0.3664;
611.7000;1.0297;0.3781;
612.0000;1.0256;0.3711;
612.3000;1.0256;0.3758;
612.6000;1.0216;0.3758;
612.9000;1.0167;0.3711;
613.2000;1.0118;0.3641;
613.5000;1.0077;0.3594;
613.8000;0.9988;0.3478;
614.1000;1.0004;0.3548;
614.4000;0.9947;0.3478;
614.7000;0.9841;0.3268;
615.0000;0.9931;0.3571;
615.3000;0.9776;0.3338;
615.6000;0.9792;0.3408;
615.9000;0.9768;0.3314;
616.2000;0.9744;0.3268;
616.5000;0.9695;0.3151;
616.8000;0.9662;0.3081;
617.1000;0.9630;0.3081;
617.4000;0.9605;0.3058;
617.7000;0.9556;0.3034;
618.0000;0.9532;0.2964;
618.3000;0.9491;0.2918;
618.6000;0.9459;0.2894;
618.9000;0.9434;0.2918;
619.2000;0.9410;0.2894;
619.5000;0.9353;0.2824;
619.8000;0.9337;0.2871;
620.1000;0.9296;0.2871;
620.4000;0.9288;0.2848;
620.7000;0.9271;0.2894;
621.0000;0.9231;0.2824;
621.3000;0.9206;0.2801;
621.6000;0.9182;0.2778;
621.9000;0.9133;0.2707;
622.2000;0.9141;0.2778;
622.5000;0.9101;0.2778;
622.8000;0.9060;0.2707;
623.1000;0.9027;0.2661;
623.4000;0.9019;0.2707;
623.7000;0.8995;0.2707;
624.0000;0.8995;0.2707;
624.3000;0.8946;0.2731;
624.6000;0.8921;0.2661;
624.9000;0.8889;0.2637;
625.2000;0.8897;0.2778;
625.5000;0.8856;0.2778;
625.8000;0.8832;0.2824;
626.1000;0.8807;0.2871;
626.4000;0.8791;0.2848;
626.7000;0.8856;0.3034;
627.0000;0.8816;0.2941;
627.3000;0.8734;0.2778;
627.6000;0.8734;0.2824;
627.9000;0.8702;0.2824;
628.2000;0.8767;0.2988;
628.5000;0.8669;0.2801;
628.8000;0.8653;0.2824;
629.1000;0.8612;0.2848;
629.4000;0.8596;0.2661;
629.7000;0.8612;0.2661;
630.0000;0.8563;0.2544;
630.3000;0.8588;0.2661;
630.6000;0.8588;0.2684;
630.9000;0.8523;0.2567;
631.2000;0.8490;0.2567;
631.5000;0.8441;0.2497;
631.8000;0.8490;0.2567;
632.1000;0.8466;0.2637;
632.4000;0.8457;0.2614;
632.7000;0.8433;0.2567;
633.0000;0.8400;0.2427;
633.3000;0.8400;0.2404;
633.6000;0.8417;0.2474;
633.9000;0.8352;0.2404;
634.2000;0.8344;0.2404;
634.5000;0.8360;0.2451;
634.8000;0.8335;0.2404;
635.1000;0.8303;0.2311;
635.4000;0.8246;0.2194;
635.7000;0.8270;0.2334;
636.0000;0.8262;0.2334;
636.3000;0.8303;0.2427;
636.6000;0.8221;0.2287;
636.9000;0.8230;0.2404;
637.2000;0.8197;0.2404;
637.5000;0.8164;0.2287;
637.8000;0.8181;0.2357;
638.1000;0.8181;0.2311;
638.4000;0.8164;0.2264;
638.7000;0.8156;0.2217;
639.0000;0.8132;0.2287;
639.3000;0.8124;0.2287;
639.6000;0.8156;0.2357;
639.9000;0.8124;0.2287;
640.2000;0.8107;0.2264;
640.5000;0.8083;0.2334;
640.8000;0.8075;0.2334;
641.1000;0.8059;0.2287;
641.4000;0.8067;0.2334;
641.7000;0.8042;0.2334;
642.0000;0.8026;0.2357;
642.3000;0.7953;0.2147;
642.6000;0.8002;0.2334;
642.9000;0.8002;0.2311;
643.2000;0.7985;0.2311;
643.5000;0.7985;0.2311;
643.8000;0.7977;0.2404;
644.1000;0.7945;0.2381;
644.4000;0.7961;0.2381;
644.7000;0.7928;0.2287;
645.0000;0.7920;0.2334;
645.3000;0.7912;0.2334;
645.6000;0.7912;0.2311;
645.9000;0.7912;0.2381;
646.2000;0.7920;0.2451;
646.5000;0.7896;0.2427;
646.8000;0.7896;0.2544;
647.1000;0.7871;0.2451;
647.4000;0.7863;0.2404;
647.7000;0.7847;0.2287;
648.0000;0.7823;0.2264;
648.3000;0.7839;0.2287;
648.6000;0.7831;0.2287;
648.9000;0.7790;0.2124;
649.2000;0.7814;0.2194;
649.5000;0.7782;0.2194;
649.8000;0.7798;0.2241;
650.1000;0.7782;0.2217;
650.4000;0.7774;0.2124;
650.7000;0.7839;0.2334;
651.0000;0.7749;0.2147;
651.3000;0.7733;0.2124;
651.6000;0.7733;0.2101;
651.9000;0.7725;0.2124;
652.2000;0.7684;0.2101;
652.5000;0.7717;0.2147;
652.8000;0.7709;0.2217;
653.1000;0.7709;0.2147;
653.4000;0.7717;0.2194;
653.7000;0.7717;0.2287;
654.0000;0.7684;0.2241;
654.3000;0.7668;0.2171;
654.6000;0.7692;0.2264;
654.9000;0.7676;0.2287;
655.2000;0.7652;0.2217;
655.5000;0.7578;0.2054;
655.8000;0.7627;0.2217;
656.1000;0.7627;0.2311;
656.4000;0.7643;0.2381;
656.7000;0.7611;0.2194;
657.0000;0.7635;0.2241;
657.3000;0.7611;0.2264;
657.6000;0.7554;0.2147;
657.9000;0.7603;0.2194;
658.2000;0.7586;0.2194;
658.5000;0.7611;0.2404;
658.8000;0.7578;0.2381;
659.1000;0.7586;0.2404;
659.4000;0.7595;0.2474;
659.7000;0.7554;0.2264;
660.0000;0.7546;0.2264;
660.3000;0.7554;0.2241;
660.6000;0.7546;0.2147;
660.9000;0.7538;0.2101;
661.2000;0.7546;0.2101;
661.5000;0.7546;0.2101;
661.8000;0.7473;0.1937;
662.1000;0.7513;0.1961;
662.4000;0.7489;0.1937;
662.7000;0.7505;0.2007;
663.0000;0.7489;0.2101;
663.3000;0.7481;0.2101;
663.6000;0.7505;0.2124;
663.9000;0.7521;0.2171;
664.2000;0.7513;0.2147;
664.5000;0.7505;0.2194;
664.8000;0.7448;0.2124;
665.1000;0.7464;0.2194;
665.4000;0.7505;0.2241;
665.7000;0.7456;0.2101;
666.0000;0.7440;0.2124;
666.3000;0.7424;0.2147;
666.6000;0.7440;0.2147;
666.9000;0.7350;0.1891;
667.2000;0.7416;0.2031;
667.5000;0.7416;0.1984;
667.8000;0.7407;0.2054;
668.1000;0.7407;0.2054;
668.4000;0.7391;0.2007;
668.7000;0.7416;0.2077;
669.0000;0.7407;0.2101;
669.3000;0.7399;0.2054;
669.6000;0.7375;0.2054;
669.9000;0.7367;0.2077;
670.2000;0.7375;0.2124;
670.5000;0.7375;0.2101;
670.8000;0.7342;0.2031;
671.1000;0.7359;0.2101;
671.4000;0.7350;0.2147;
671.7000;0.7367;0.2217;
672.0000;0.7342;0.2194;
672.3000;0.7334;0.2101;
672.6000;0.7350;0.2077;
672.9000;0.7342;0.1961;
673.2000;0.7310;0.1914;
673.5000;0.7318;0.1914;
673.8000;0.7293;0.1891;
674.1000;0.7277;0.1867;
674.4000;0.7318;0.1914;
674.7000;0.7302;0.1867;
675.0000;0.7285;0.1937;
675.3000;0.7302;0.1984;
675.6000;0.7310;0.1984;
675.9000;0.7293;0.1937;
676.2000;0.7293;0.1937;
676.5000;0.7269;0.1937;
676.8000;0.7293;0.1937;
677.1000;0.7269;0.1867;
677.4000;0.7285;0.1797;
677.7000;0.7285;0.1844;
678.0000;0.7261;0.1751;
678.3000;0.7277;0.1797;
678.6000;0.7236;0.1797;
678.9000;0.7236;0.1797;
679.2000;0.7204;0.1774;
679.5000;0.7236;0.1867;
679.8000;0.7228;0.1984;
680.1000;0.7228;0.2031;
680.4000;0.7220;0.2054;
680.7000;0.7318;0.2264;
681.0000;0.7220;0.1984;
681.3000;0.7204;0.2054;
681.6000;0.7236;0.2077;
681.9000;0.7204;0.2031;
682.2000;0.7212;0.2031;
682.5000;0.7188;0.2171;
682.8000;0.7155;0.2171;
683.1000;0.7196;0.2311;
683.4000;0.7253;0.2427;
683.7000;0.7179;0.2311;
684.0000;0.7163;0.2311;
684.3000;0.7188;0.2357;
684.6000;0.7163;0.2357;
684.9000;0.7163;0.2334;
685.2000;0.7114;0.2311;
685.5000;0.7147;0.2357;
685.8000;0.7147;0.2311;
686.1000;0.7155;0.2311;
686.4000;0.7147;0.2171;
686.7000;0.7155;0.2241;
687.0000;0.7155;0.2404;
687.3000;0.7188;0.2497;
687.6000;0.7131;0.2404;
687.9000;0.7139;0.2451;
688.2000;0.7147;0.2404;
688.5000;0.7114;0.2217;
688.8000;0.7131;0.2241;
689.1000;0.7106;0.2194;
689.4000;0.7106;0.2171;
689.7000;0.7123;0.2217;
690.0000;0.7114;0.2147;
690.3000;0.7082;0.2147;
690.6000;0.7098;0.2311;
690.9000;0.7114;0.2334;
691.2000;0.7106;0.2311;
691.5000;0.7114;0.2311;
691.8000;0.7090;0.2194;
692.1000;0.7106;0.2194;
692.4000;0.7090;0.2147;
692.7000;0.7098;0.2124;
693.0000;0.7082;0.2101;
693.3000;0.7090;0.2007;
693.6000;0.7131;0.2124;
693.9000;0.7106;0.2054;
694.2000;0.7074;0.1984;
694.5000;0.7074;0.2054;
694.8000;0.7025;0.1984;
695.1000;0.7057;0.1984;
695.4000;0.7066;0.2077;
695.7000;0.7066;0.2031;
696.0000;0.7074;0.2101;
696.3000;0.7057;0.2124;
696.6000;0.7057;0.2101;
696.9000;0.7090;0.2124;
697.2000;0.7049;0.2031;
697.5000;0.7041;0.1961;
697.8000;0.7009;0.1891;
698.1000;0.7041;0.1914;
698.4000;0.7033;0.1914;
698.7000;0.7049;0.2007;
699.0000;0.7025;0.1937;
699.3000;0.7025;0.1891;
699.6000;0.7017;0.1961;
699.9000;0.7033;0.1961;
700.2000;0.7000;0.2007;
700.5000;0.7009;0.2031;
700.8000;0.7025;0.2147;
701.1000;0.7017;0.2171;
701.4000;0.7009;0.2171;
701.7000;0.7000;0.2194;
702.0000;0.7000;0.2171;
702.3000;0.7017;0.2171;
702.6000;0.7033;0.2241;
702.9000;0.7000;0.2241;
703.2000;0.6984;0.2101;
703.5000;0.7009;0.2194;
703.8000;0.6992;0.2147;
704.1000;0.6984;0.2217;
704.4000;0.6943;0.2147;
704.7000;0.6968;0.2147;
705.0000;0.6984;0.2101;
705.3000;0.6935;0.1937;
705.6000;0.6960;0.2031;
705.9000;0.6992;0.2031;
706.2000;0.6960;0.2101;
706.5000;0.6943;0.2054;
706.8000;0.6976;0.2124;
707.1000;0.6895;0.1961;
707.4000;0.6952;0.2124;
707.7000;0.6976;0.2194;
708.0000;0.6943;0.2101;
708.3000;0.6960;0.2147;
708.6000;0.7000;0.2311;
708.9000;0.6943;0.2194;
709.2000;0.6952;0.2264;
709.5000;0.6952;0.2287;
709.8000;0.6927;0.2217;
710.1000;0.6935;0.2287;
710.4000;0.7025;0.2497;
710.7000;0.6911;0.2217;
711.0000;0.6903;0.2171;
711.3000;0.6911;0.2194;
711.6000;0.6911;0.2171;
711.9000;0.6927;0.2241;
712.2000;0.6911;0.2287;
712.5000;0.6927;0.2217;
712.8000;0.6927;0.2241;
713.1000;0.6952;0.2334;
713.4000;0.6895;0.2241;
713.7000;0.6911;0.2241;
714.0000;0.6862;0.2124;
714.3000;0.6911;0.2217;
714.6000;0.6911;0.2217;
714.9000;0.6878;0.2147;
715.2000;0.6903;0.2194;
715.5000;0.6895;0.2171;
715.8000;0.6903;0.2194;
716.1000;0.6870;0.2171;
716.4000;0.6886;0.2334;
716.7000;0.6895;0.2357;
717.0000;0.6919;0.2451;
717.3000;0.6886;0.2287;
717.6000;0.6878;0.2241;
717.9000;0.6886;0.2264;
718.2000;0.6878;0.2287;
718.5000;0.6878;0.2404;
718.8000;0.6886;0.2404;
719.1000;0.6829;0.2311;
719.4000;0.6870;0.2311;
719.7000;0.6878;0.2381;
720.0000;0.6829;0.2241;
720.3000;0.6870;0.2287;
720.6000;0.6862;0.2264;
720.9000;0.6862;0.2287;
721.2000;0.6789;0.2101;
721.5000;0.6870;0.2311;
721.8000;0.6838;0.2287;
722.1000;0.6838;0.2264;
722.4000;0.6862;0.2241;
722.7000;0.6838;0.2264;
723.0000;0.6821;0.2241;
723.3000;0.6829;0.2334;
723.6000;0.6854;0.2381;
723.9000;0.6846;0.2334;
724.2000;0.6886;0.2474;
724.5000;0.6846;0.2381;
724.8000;0.6829;0.2334;
725.1000;0.6821;0.2287;
725.4000;0.6829;0.2241;
725.7000;0.6854;0.2241;
726.0000;0.6805;0.2194;
726.3000;0.6797;0.2217;
726.6000;0.6797;0.2311;
726.9000;0.6846;0.2381;
727.2000;0.6838;0.2287;
727.5000;0.6813;0.2147;
727.8000;0.6813;0.2077;
728.1000;0.6829;0.2101;
728.4000;0.6797;0.2054;
728.7000;0.6821;0.2101;
729.0000;0.6862;0.2217;
729.3000;0.6813;0.2194;
729.6000;0.6781;0.2124;
729.9000;0.6821;0.2311;
730.2000;0.6789;0.2287;
730.5000;0.6789;0.2357;
730.8000;0.6781;0.2194;
731.1000;0.6797;0.2264;
731.4000;0.6805;0.2264;
731.7000;0.6764;0.2077;
732.0000;0.6813;0.2241;
732.3000;0.6748;0.2101;
732.6000;0.6797;0.2287;
732.9000;0.6781;0.2264;
733.2000;0.6772;0.2264;
733.5000;0.6821;0.2334;
733.8000;0.6813;0.2404;
734.1000;0.6781;0.2334;
734.4000;0.6732;0.2311;
734.7000;0.6781;0.2474;
735.0000;0.6789;0.2427;
735.3000;0.6772;0.2357;
735.6000;0.6781;0.2334;
735.9000;0.6756;0.2287;
736.2000;0.6740;0.2241;
736.5000;0.6764;0.2334;
736.8000;0.6764;0.2311;
737.1000;0.6772;0.2381;
737.4000;0.6764;0.2311;
737.7000;0.6789;0.2404;
738.0000;0.6781;0.2427;
738.3000;0.6764;0.2334;
738.6000;0.6772;0.2311;
738.9000;0.6748;0.2194;
739.2000;0.6756;0.2147;
739.5000;0.6764;0.2194;
739.8000;0.6724;0.2077;
740.1000;0.6772;0.2171;
740.4000;0.6756;0.2171;
740.7000;0.6740;0.2194;
741.0000;0.6756;0.2311;
741.3000;0.6772;0.2451;
741.6000;0.6748;0.2357;
741.9000;0.6740;0.2264;
742.2000;0.6781;0.2451;
742.5000;0.6740;0.2381;
742.8000;0.6740;0.2357;
743.1000;0.6789;0.2451;
743.4000;0.6740;0.2334;
743.7000;0.6724;0.2311;
744.0000;0.6691;0.2241;
744.3000;0.6732;0.2357;
744.6000;0.6748;0.2357;
744.9000;0.6724;0.2217;
745.2000;0.6683;0.2194;
745.5000;0.6707;0.2287;
745.8000;0.6724;0.2287;
746.1000;0.6781;0.2497;
746.4000;0.6740;0.2381;
746.7000;0.6707;0.2264;
747.0000;0.6716;0.2287;
747.3000;0.6724;0.2241;
747.6000;0.6724;0.2217;
747.9000;0.6691;0.2334;
748.2000;0.6707;0.2311;
748.5000;0.6699;0.2264;
748.8000;0.6716;0.2241;
749.1000;0.6707;0.2147;
749.4000;0.6716;0.2101;
749.7000;0.6699;0.2054;
750.0000;0.6707;0.2077;
750.3000;0.6707;0.2054;
750.6000;0.6699;0.2031;
750.9000;0.6716;0.2031;
751.2000;0.6716;0.2031;
751.5000;0.6707;0.2007;
751.8000;0.6707;0.2054;
752.1000;0.6699;0.1937;
752.4000;0.6716;0.1961;
752.7000;0.6724;0.2077;
753.0000;0.6707;0.2101;
753.3000;0.6716;0.2147;
753.6000;0.6756;0.2287;
753.9000;0.6691;0.2147;
754.2000;0.6683;0.2101;
754.5000;0.6740;0.2217;
754.8000;0.6699;0.2101;
755.1000;0.6691;0.2147;
755.4000;0.6699;0.2124;
755.7000;0.6683;0.2101;
756.0000;0.6683;0.2171;
756.3000;0.6716;0.2241;
756.6000;0.6667;0.2194;
756.9000;0.6675;0.2264;
757.2000;0.6683;0.2311;
757.5000;0.6683;0.2311;
757.8000;0.6610;0.2194;
758.1000;0.6667;0.2311;
758.4000;0.6659;0.2381;
758.7000;0.6667;0.2451;
759.0000;0.6691;0.2474;
759.3000;0.6667;0.2451;
759.6000;0.6659;0.2357;
759.9000;0.6659;0.2404;
760.2000;0.6659;0.2427;
760.5000;0.6675;0.2381;
760.8000;0.6667;0.2404;
761.1000;0.6667;0.2357;
761.4000;0.6659;0.2264;
761.7000;0.6667;0.2264;
762.0000;0.6683;0.2147;
762.3000;0.6659;0.2077;
762.6000;0.6642;0.1984;
762.9000;0.6659;0.1984;
763.2000;0.6667;0.1961;
763.5000;0.6659;0.2007;
763.8000;0.6642;0.1984;
764.1000;0.6659;0.2007;
764.4000;0.6642;0.2031;
764.7000;0.6667;0.2077;
765.0000;0.6634;0.2124;
765.3000;0.6642;0.2264;
765.6000;0.6650;0.2264;
765.9000;0.6634;0.2241;
766.2000;0.6626;0.2264;
766.5000;0.6659;0.2311;
766.8000;0.6642;0.2287;
767.1000;0.6642;0.2264;
767.4000;0.6634;0.2124;
767.7000;0.6699;0.2241;
768.0000;0.6626;0.2077;
768.3000;0.6634;0.2054;
768.6000;0.6642;0.2124;
768.9000;0.6634;0.2147;
769.2000;0.6626;0.2287;
769.5000;0.6634;0.2264;
769.8000;0.6626;0.2217;
770.1000;0.6634;0.2264;
770.4000;0.6626;0.2311;
770.7000;0.6610;0.2217;
771.0000;0.6618;0.2264;
771.3000;0.6634;0.2334;
771.6000;0.6618;0.2287;
771.9000;0.6675;0.2381;
772.2000;0.6626;0.2217;
772.5000;0.6602;0.2077;
772.8000;0.6618;0.2147;
773.1000;0.6618;0.2124;
773.4000;0.6610;0.2077;
773.7000;0.6618;0.2171;
774.0000;0.6610;0.2241;
774.3000;0.6610;0.2241;
774.6000;0.6650;0.2311;
774.9000;0.6610;0.2171;
775.2000;0.6593;0.2147;
775.5000;0.6618;0.2264;
775.8000;0.6602;0.2241;
776.1000;0.6610;0.2241;
776.4000;0.6561;0.2101;
776.7000;0.6577;0.2124;
777.0000;0.6610;0.2241;
777.3000;0.6618;0.2241;
777.6000;0.6593;0.2217;
777.9000;0.6618;0.2217;
778.2000;0.6618;0.2124;
778.5000;0.6602;0.2054;
778.8000;0.6593;0.2054;
779.1000;0.6577;0.2101;
779.4000;0.6593;0.2217;
779.7000;0.6561;0.2124;
780.0000;0.6593;0.2147;
780.3000;0.6561;0.2054;
780.6000;0.6577;0.2147;
780.9000;0.6545;0.2147;
781.2000;0.6569;0.2217;
781.5000;0.6528;0.2124;
781.8000;0.6577;0.2241;
782.1000;0.6585;0.2194;
782.4000;0.6585;0.2217;
782.7000;0.6577;0.2264;
783.0000;0.6610;0.2334;
783.3000;0.6593;0.2404;
783.6000;0.6569;0.2381;
783.9000;0.6593;0.2404;
784.2000;0.6577;0.2357;
784.5000;0.6577;0.2427;
784.8000;0.6593;0.2381;
785.1000;0.6585;0.2357;
785.4000;0.6585;0.2381;
785.7000;0.6610;0.2427;
786.0000;0.6593;0.2404;
786.3000;0.6585;0.2451;
786.6000;0.6536;0.2311;
786.9000;0.6577;0.2474;
787.2000;0.6577;0.2474;
787.5000;0.6561;0.2404;
787.8000;0.6561;0.2451;
788.1000;0.6585;0.2544;
788.4000;0.6569;0.2451;
788.7000;0.6634;0.2591;
789.0000;0.6561;0.2544;
789.3000;0.6553;0.2567;
789.6000;0.6553;0.2591;
789.9000;0.6569;0.2591;
790.2000;0.6553;0.2544;
790.5000;0.6553;0.2544;
790.8000;0.6553;0.2474;
791.1000;0.6545;0.2357;
791.4000;0.6553;0.2357;
791.7000;0.6545;0.2287;
792.0000;0.6536;0.2264;
792.3000;0.6569;0.2311;
792.6000;0.6545;0.2287;
792.9000;0.6553;0.2334;
793.2000;0.6553;0.2381;
793.5000;0.6536;0.2334;
793.8000;0.6545;0.2474;
794.1000;0.6553;0.2521;
794.4000;0.6561;0.2497;
794.7000;0.6553;0.2357;
795.0000;0.6545;0.2357;
795.3000;0.6569;0.2381;
795.6000;0.6536;0.2311;
795.9000;0.6545;0.2404;
796.2000;0.6553;0.2404;
796.5000;0.6553;0.2381;
796.8000;0.6545;0.2357;
797.1000;0.6553;0.2311;
797.4000;0.6553;0.2381;
797.7000;0.6536;0.2357;
798.0000;0.6504;0.2264;
798.3000;0.6536;0.2311;
798.6000;0.6528;0.2404;
798.9000;0.6528;0.2404;
799.2000;0.6545;0.2427;
799.5000;0.6536;0.2381;
799.8000;0.6512;0.2334;
800.1000;0.6553;0.2404;
800.4000;0.6528;0.2427;
800.7000;0.6528;0.2357;
801.0000;0.6528;0.2451;
801.3000;0.6545;0.2497;
801.6000;0.6553;0.2451;
801.9000;0.6496;0.2311;
802.2000;0.6528;0.2474;
802.5000;0.6512;0.2451;
802.8000;0.6496;0.2357;
803.1000;0.6520;0.2404;
803.4000;0.6520;0.2357;
803.7000;0.6536;0.2357;
804.0000;0.6545;0.2451;
804.3000;0.6463;0.2357;
804.6000;0.6528;0.2474;
804.9000;0.6512;0.2451;
805.2000;0.6536;0.2451;
805.5000;0.6536;0.2474;
805.8000;0.6536;0.2427;
806.1000;0.6520;0.2357;
806.4000;0.6536;0.2381;
806.7000;0.6553;0.2404;
807.0000;0.6512;0.2311;
807.3000;0.6512;0.2334;
807.6000;0.6512;0.2497;
807.9000;0.6512;0.2474;
808.2000;0.6512;0.2404;
808.5000;0.6512;0.2357;
808.8000;0.6528;0.2381;
809.1000;0.6528;0.2334;
809.4000;0.6512;0.2241;
809.7000;0.6512;0.2264;
810.0000;0.6512;0.2287;
810.3000;0.6512;0.2404;
810.6000;0.6512;0.2451;
810.9000;0.6504;0.2427;
811.2000;0.6545;0.2521;
811.5000;0.6512;0.2567;
811.8000;0.6504;0.2521;
812.1000;0.6504;0.2427;
812.4000;0.6504;0.2521;
812.7000;0.6488;0.2544;
813.0000;0.6496;0.2591;
813.3000;0.6504;0.2614;
813.6000;0.6439;0.2497;
813.9000;0.6504;0.2684;
814.2000;0.6569;0.2894;
814.5000;0.6496;0.2684;
814.8000;0.6479;0.2567;
815.1000;0.6471;0.2474;
815.4000;0.6504;0.2521;
815.7000;0.6488;0.2544;
816.0000;0.6504;0.2567;
816.3000;0.6504;0.2544;
816.6000;0.6479;0.2591;
816.9000;0.6520;0.2637;
817.2000;0.6520;0.2661;
817.5000;0.6504;0.2614;
817.8000;0.6504;0.2544;
818.1000;0.6504;0.2591;
818.4000;0.6488;0.2567;
818.7000;0.6488;0.2591;
819.0000;0.6496;0.2591;
819.3000;0.6504;0.2591;
819.6000;0.6496;0.2451;
819.9000;0.6504;0.2404;
820.2000;0.6488;0.2334;
820.5000;0.6496;0.2264;
820.8000;0.6512;0.2357;
821.1000;0.6504;0.2334;
821.4000;0.6479;0.2381;
821.7000;0.6488;0.2474;
822.0000;0.6504;0.2474;
822.3000;0.6471;0.2334;
822.6000;0.6488;0.2381;
822.9000;0.6488;0.2357;
823.2000;0.6447;0.2311;
823.5000;0.6488;0.2334;
823.8000;0.6488;0.2334;
824.1000;0.6463;0.2287;
824.4000;0.6463;0.2287;
824.7000;0.6488;0.2264;
825.0000;0.6479;0.2194;
825.3000;0.6439;0.2101;
825.6000;0.6471;0.2147;
825.9000;0.6471;0.2217;
826.2000;0.6479;0.2311;
826.5000;0.6463;0.2217;
826.8000;0.6471;0.2171;
827.1000;0.6471;0.2217;
827.4000;0.6504;0.2334;
827.7000;0.6479;0.2404;
828.0000;0.6479;0.2451;
828.3000;0.6431;0.2334;
828.6000;0.6455;0.2451;
828.9000;0.6455;0.2451;
829.2000;0.6455;0.2404;
829.5000;0.6463;0.2427;
829.8000;0.6463;0.2334;
830.1000;0.6455;0.2241;
830.4000;0.6488;0.2334;
830.7000;0.6471;0.2264;
831.0000;0.6504;0.2381;
831.3000;0.6479;0.2334;
831.6000;0.6463;0.2264;
831.9000;0.6488;0.2334;
832.2000;0.6479;0.2357;
832.5000;0.6471;0.2381;
832.8000;0.6439;0.2334;
833.1000;0.6455;0.2451;
833.4000;0.6471;0.2521;
833.7000;0.6455;0.2427;
834.0000;0.6414;0.2287;
834.3000;0.6463;0.2381;
834.6000;0.6488;0.2381;
834.9000;0.6479;0.2357;
835.2000;0.6496;0.2404;
835.5000;0.6463;0.2334;
835.8000;0.6439;0.2311;
836.1000;0.6463;0.2334;
836.4000;0.6463;0.2264;
836.7000;0.6455;0.2311;
837.0000;0.6479;0.2357;
837.3000;0.6406;0.2217;
837.6000;0.6447;0.2264;
837.9000;0.6431;0.2241;
838.2000;0.6439;0.2217;
838.5000;0.6447;0.2334;
838.8000;0.6496;0.2451;
839.1000;0.6447;0.2381;
839.4000;0.6455;0.2311;
839.7000;0.6447;0.2217;
840.0000;0.6463;0.2241;
840.3000;0.6447;0.2194;
840.6000;0.6447;0.2217;
840.9000;0.6455;0.2217;
841.2000;0.6479;0.2311;
841.5000;0.6455;0.2217;
841.8000;0.6471;0.2147;
842.1000;0.6455;0.2147;
842.4000;0.6455;0.2241;
842.7000;0.6439;0.2264;
843.0000;0.6463;0.2287;
843.3000;0.6447;0.2311;
843.6000;0.6447;0.2311;
843.9000;0.6422;0.2357;
844.2000;0.6390;0.2334;
844.5000;0.6455;0.2544;
844.8000;0.6439;0.2427;
845.1000;0.6439;0.2497;
845.4000;0.6439;0.2521;
845.7000;0.6463;0.2521;
846.0000;0.6439;0.2427;
846.3000;0.6439;0.2381;
846.6000;0.6455;0.2404;
846.9000;0.6447;0.2357;
847.2000;0.6374;0.2241;
847.5000;0.6439;0.2451;
847.8000;0.6512;0.2521;
848.1000;0.6439;0.2427;
848.4000;0.6422;0.2357;
848.7000;0.6439;0.2381;
849.0000;0.6431;0.2381;
849.3000;0.6431;0.2474;
849.6000;0.6439;0.2591;
849.9000;0.6414;0.2567;
850.2000;0.6439;0.2591;
850.5000;0.6447;0.2567;
850.8000;0.6431;0.2474;
851.1000;0.6398;0.2357;
851.4000;0.6431;0.2404;
851.7000;0.6447;0.2451;
852.0000;0.6447;0.2357;
852.3000;0.6406;0.2287;
852.6000;0.6431;0.2357;
852.9000;0.6422;0.2334;
853.2000;0.6455;0.2334;
853.5000;0.6431;0.2334;
853.8000;0.6422;0.2357;
854.1000;0.6447;0.2474;
854.4000;0.6439;0.2521;
854.7000;0.6422;0.2474;
855.0000;0.6422;0.2451;
855.3000;0.6455;0.2544;
855.6000;0.6439;0.2521;
855.9000;0.6422;0.2474;
856.2000;0.6414;0.2381;
856.5000;0.6382;0.2264;
856.8000;0.6422;0.2451;
857.1000;0.6431;0.2427;
857.4000;0.6422;0.2404;
857.7000;0.6422;0.2404;
858.0000;0.6447;0.2381;
858.3000;0.6365;0.2287;
858.6000;0.6422;0.2357;
858.9000;0.6414;0.2357;
859.2000;0.6431;0.2311;
859.5000;0.6414;0.2311;
859.8000;0.6398;0.2334;
860.1000;0.6406;0.2404;
860.4000;0.6406;0.2404;
860.7000;0.6406;0.2451;
861.0000;0.6398;0.2404;
861.3000;0.6455;0.2474;
861.6000;0.6382;0.2287;
861.9000;0.6414;0.2451;
862.2000;0.6431;0.2497;
862.5000;0.6422;0.2567;
862.8000;0.6398;0.2544;
863.1000;0.6414;0.2544;
863.4000;0.6406;0.2544;
863.7000;0.6422;0.2544;
864.0000;0.6414;0.2567;
864.3000;0.6414;0.2567;
864.6000;0.6422;0.2614;
864.9000;0.6398;0.2637;
865.2000;0.6398;0.2591;
865.5000;0.6422;0.2754;
865.8000;0.6414;0.2778;
866.1000;0.6414;0.2801;
866.4000;0.6414;0.2707;
866.7000;0.6414;0.2661;
867.0000;0.6422;0.2661;
867.3000;0.6414;0.2661;
867.6000;0.6414;0.2614;
867.9000;0.6406;0.2567;
868.2000;0.6406;0.2614;
868.5000;0.6398;0.2614;
868.8000;0.6422;0.2661;
869.1000;0.6398;0.2544;
869.4000;0.6431;0.2521;
869.7000;0.6455;0.2591;
870.0000;0.6406;0.2474;
870.3000;0.6382;0.2451;
870.6000;0.6382;0.2427;
870.9000;0.6398;0.2497;
871.2000;0.6406;0.2567;
871.5000;0.6414;0.2614;
871.8000;0.6390;0.2591;
872.1000;0.6406;0.2684;
872.4000;0.6414;0.2661;
872.7000;0.6374;0.2614;
873.0000;0.6398;0.2661;
873.3000;0.6398;0.2661;
873.6000;0.6406;0.2707;
873.9000;0.6398;0.2684;
874.2000;0.6406;0.2661;
874.5000;0.6390;0.2591;
874.8000;0.6398;0.2567;
875.1000;0.6398;0.2521;
875.4000;0.6382;0.2427;
875.7000;0.6382;0.2474;
876.0000;0.6398;0.2451;
876.3000;0.6390;0.2404;
876.6000;0.6406;0.2427;
876.9000;0.6398;0.2404;
877.2000;0.6398;0.2334;
877.5000;0.6390;0.2381;
877.8000;0.6382;0.2357;
878.1000;0.6382;0.2451;
878.4000;0.6382;0.2591;
878.7000;0.6390;0.2661;
879.0000;0.6406;0.2614;
879.3000;0.6390;0.2591;
879.6000;0.6382;0.2614;
879.9000;0.6398;0.2661;
880.2000;0.6390;0.2684;
880.5000;0.6382;0.2614;
880.8000;0.6374;0.2567;
881.1000;0.6374;0.2614;
881.4000;0.6390;0.2684;
881.7000;0.6447;0.2848;
882.0000;0.6382;0.2567;
882.3000;0.6374;0.2591;
882.6000;0.6398;0.2707;
882.9000;0.6365;0.2684;
883.2000;0.6374;0.2684;
883.5000;0.6382;0.2707;
883.8000;0.6349;0.2567;
884.1000;0.6349;0.2497;
884.4000;0.6374;0.2614;
884.7000;0.6365;0.2707;
885.0000;0.6365;0.2637;
885.3000;0.6357;0.2614;
885.6000;0.6382;0.2567;
885.9000;0.6374;0.2521;
886.2000;0.6398;0.2474;
886.5000;0.6365;0.2451;
886.8000;0.6365;0.2497;
887.1000;0.6374;0.2591;
887.4000;0.6374;0.2614;
887.7000;0.6390;0.2567;
888.0000;0.6406;0.2637;
888.3000;0.6382;0.2521;
888.6000;0.6390;0.2497;
888.9000;0.6390;0.2567;
889.2000;0.6382;0.2544;
889.5000;0.6406;0.2591;
889.8000;0.6382;0.2661;
890.1000;0.6382;0.2614;
890.4000;0.6374;0.2544;
890.7000;0.6390;0.2614;
891.0000;0.6357;0.2544;
891.3000;0.6365;0.2567;
891.6000;0.6365;0.2591;
891.9000;0.6374;0.2591;
892.2000;0.6455;0.2778;
892.5000;0.6382;0.2591;
892.8000;0.6365;0.2614;
893.1000;0.6390;0.2684;
893.4000;0.6317;0.2451;
893.7000;0.6357;0.2521;
894.0000;0.6374;0.2591;
894.3000;0.6374;0.2544;
894.6000;0.6374;0.2497;
894.9000;0.6365;0.2451;
895.2000;0.6365;0.2474;
895.5000;0.6374;0.2521;
895.8000;0.6382;0.2567;
896.1000;0.6374;0.2544;
896.4000;0.6374;0.2591;
896.7000;0.6382;0.2544;
897.0000;0.6374;0.2591;
897.3000;0.6374;0.2591;
897.6000;0.6341;0.2521;
897.9000;0.6357;0.2567;
898.2000;0.6390;0.2637;
898.5000;0.6398;0.2754;
898.8000;0.6374;0.2707;
899.1000;0.6374;0.2614;
899.4000;0.6325;0.2451;
899.7000;0.6349;0.2544;
900.0000;0.6357;0.2451;
900.3000;0.6365;0.2544;
900.6000;0.6365;0.2614;
900.9000;0.6382;0.2567;
901.2000;0.6349;0.2544;
901.5000;0.6365;0.2591;
901.8000;0.6341;0.2614;
902.1000;0.6357;0.2591;
902.4000;0.6349;0.2521;
902.7000;0.6349;0.2497;
903.0000;0.6374;0.2591;
903.3000;0.6374;0.2567;
903.6000;0.6341;0.2451;
903.9000;0.6398;0.2591;
904.2000;0.6357;0.2567;
904.5000;0.6365;0.2637;
904.8000;0.6341;0.2567;
905.1000;0.6357;0.2544;
905.4000;0.6357;0.2497;
905.7000;0.6365;0.2544;
906.0000;0.6349;0.2544;
906.3000;0.6325;0.2591;
906.6000;0.6325;0.2591;
906.9000;0.6357;0.2707;
907.2000;0.6333;0.2637;
907.5000;0.6365;0.2731;
907.8000;0.6333;0.2637;
908.1000;0.6349;0.2637;
908.4000;0.6365;0.2707;
908.7000;0.6333;0.2637;
909.0000;0.6333;0.2637;
909.3000;0.6300;0.2544;
909.6000;0.6349;0.2684;
909.9000;0.6349;0.2637;
910.2000;0.6374;0.2661;
910.5000;0.6365;0.2591;
910.8000;0.6365;0.2497;
911.1000;0.6365;0.2497;
911.4000;0.6349;0.2474;
911.7000;0.6357;0.2474;
912.0000;0.6349;0.2451;
912.3000;0.6357;0.2451;
912.6000;0.6357;0.2567;
912.9000;0.6349;0.2521;
913.2000;0.6365;0.2614;
913.5000;0.6365;0.2684;
913.8000;0.6357;0.2684;
914.1000;0.6349;0.2637;
914.4000;0.6341;0.2614;
914.7000;0.6349;0.2614;
915.0000;0.6357;0.2637;
915.3000;0.6300;0.2544;
915.6000;0.6325;0.2614;
915.9000;0.6349;0.2637;
916.2000;0.6341;0.2684;
916.5000;0.6325;0.2637;
916.8000;0.6349;0.2591;
917.1000;0.6349;0.2614;
917.4000;0.6390;0.2661;
917.7000;0.6333;0.2567;
918.0000;0.6325;0.2591;
918.3000;0.6325;0.2637;
918.6000;0.6333;0.2684;
918.9000;0.6333;0.2637;
919.2000;0.6333;0.2684;
919.5000;0.6341;0.2754;
919.8000;0.6382;0.2918;
920.1000;0.6365;0.2894;
920.4000;0.6365;0.2871;
920.7000;0.6349;0.2731;
921.0000;0.6349;0.2661;
921.3000;0.6317;0.2544;
921.6000;0.6341;0.2567;
921.9000;0.6349;0.2614;
922.2000;0.6349;0.2591;
922.5000;0.6357;0.2544;
922.8000;0.6439;0.2684;
923.1000;0.6341;0.2474;
923.4000;0.6333;0.2474;
923.7000;0.6357;0.2474;
924.0000;0.6447;0.2684;
924.3000;0.6390;0.2614;
924.6000;0.6357;0.2567;
924.9000;0.6357;0.2614;
925.2000;0.6333;0.2614;
925.5000;0.6317;0.2497;
925.8000;0.6341;0.2591;
926.1000;0.6341;0.2567;
926.4000;0.6333;0.2521;
926.7000;0.6333;0.2591;
927.0000;0.6309;0.2567;
927.3000;0.6390;0.2707;
927.6000;0.6333;0.2451;
927.9000;0.6349;0.2427;
928.2000;0.6382;0.2567;
928.5000;0.6333;0.2451;
928.8000;0.6357;0.2474;
929.1000;0.6341;0.2404;
929.4000;0.6325;0.2404;
929.7000;0.6325;0.2521;
930.0000;0.6333;0.2567;
930.3000;0.6333;0.2497;
930.6000;0.6292;0.2427;
930.9000;0.6317;0.2497;
931.2000;0.6333;0.2474;
931.5000;0.6333;0.2381;
931.8000;0.6317;0.2357;
932.1000;0.6325;0.2334;
932.4000;0.6333;0.2381;
932.7000;0.6349;0.2404;
933.0000;0.6349;0.2381;
933.3000;0.6243;0.2194;
933.6000;0.6325;0.2497;
933.9000;0.6341;0.2497;
934.2000;0.6317;0.2427;
934.5000;0.6325;0.2381;
934.8000;0.6325;0.2334;
935.1000;0.6325;0.2287;
935.4000;0.6309;0.2334;
935.7000;0.6325;0.2334;
936.0000;0.6333;0.2311;
936.3000;0.6325;0.2334;
936.6000;0.6349;0.2381;
936.9000;0.6292;0.2287;
937.2000;0.6325;0.2287;
937.5000;0.6325;0.2264;
937.8000;0.6341;0.2357;
938.1000;0.6341;0.2334;
938.4000;0.6211;0.2054;
938.7000;0.6325;0.2381;
939.0000;0.6325;0.2357;
939.3000;0.6365;0.2451;
939.6000;0.6309;0.2334;
939.9000;0.6317;0.2451;
940.2000;0.6325;0.2474;
940.5000;0.6309;0.2474;
940.8000;0.6325;0.2567;
941.1000;0.6309;0.2637;
941.4000;0.6382;0.2731;
941.7000;0.6309;0.2567;
942.0000;0.6325;0.2591;
942.3000;0.6309;0.2544;
942.6000;0.6325;0.2497;
942.9000;0.6325;0.2591;
943.2000;0.6333;0.2637;
943.5000;0.6325;0.2684;
943.8000;0.6309;0.2661;
944.1000;0.6317;0.2637;
944.4000;0.6309;0.2544;
944.7000;0.6317;0.2427;
945.0000;0.6309;0.2404;
945.3000;0.6357;0.2591;
945.6000;0.6309;0.2544;
945.9000;0.6235;0.2334;
946.2000;0.6300;0.2427;
946.5000;0.6284;0.2404;
946.8000;0.6333;0.2544;
947.1000;0.6211;0.2264;
947.4000;0.6325;0.2567;
947.7000;0.6309;0.2567;
948.0000;0.6325;0.2497;
948.3000;0.6317;0.2497;
948.6000;0.6325;0.2521;
948.9000;0.6317;0.2567;
949.2000;0.6317;0.2661;
949.5000;0.6325;0.2614;
949.8000;0.6309;0.2521;
950.1000;0.6309;0.2544;
950.4000;0.6317;0.2544;
950.7000;0.6333;0.2497;
951.0000;0.6325;0.2427;
951.3000;0.6317;0.2427;
951.6000;0.6276;0.2381;
951.9000;0.6276;0.2311;
952.2000;0.6317;0.2497;
952.5000;0.6317;0.2544;
952.8000;0.6365;0.2707;
953.1000;0.6349;0.2707;
953.4000;0.6325;0.2521;
953.7000;0.6300;0.2404;
954.0000;0.6309;0.2427;
954.3000;0.6292;0.2451;
954.6000;0.6243;0.2311;
954.9000;0.6300;0.2381;
955.2000;0.6284;0.2404;
955.5000;0.6300;0.2404;
955.8000;0.6276;0.2357;
956.1000;0.6317;0.2427;
956.4000;0.6300;0.2404;
956.7000;0.6309;0.2474;
957.0000;0.6406;0.2754;
957.3000;0.6374;0.2707;
957.6000;0.6317;0.2544;
957.9000;0.6317;0.2637;
958.2000;0.6292;0.2544;
958.5000;0.6300;0.2521;
958.8000;0.6252;0.2357;
959.1000;0.6317;0.2567;
959.4000;0.6300;0.2474;
959.7000;0.6317;0.2591;
960.0000;0.6325;0.2544;
960.3000;0.6292;0.2544;
960.6000;0.6300;0.2567;
960.9000;0.6317;0.2661;
961.2000;0.6268;0.2567;
961.5000;0.6276;0.2614;
961.8000;0.6309;0.2637;
962.1000;0.6317;0.2707;
962.4000;0.6398;0.2894;
962.7000;0.6333;0.2731;
963.0000;0.6292;0.2707;
963.3000;0.6300;0.2731;
963.6000;0.6333;0.2778;
963.9000;0.6284;0.2684;
964.2000;0.6211;0.2497;
964.5000;0.6292;0.2754;
964.8000;0.6309;0.2824;
965.1000;0.6309;0.2754;
965.4000;0.6349;0.2988;
965.7000;0.6292;0.2848;
966.0000;0.6276;0.2801;
966.3000;0.6309;0.2824;
966.6000;0.6292;0.2754;
966.9000;0.6309;0.2778;
967.2000;0.6292;0.2707;
967.5000;0.6300;0.2661;
967.8000;0.6317;0.2661;
968.1000;0.6300;0.2521;
968.4000;0.6309;0.2567;
968.7000;0.6325;0.2731;
969.0000;0.6317;0.2731;
969.3000;0.6252;0.2637;
969.6000;0.6309;0.2778;
969.9000;0.6317;0.2731;
970.2000;0.6325;0.2754;
970.5000;0.6300;0.2661;
970.8000;0.6309;0.2731;
971.1000;0.6325;0.2824;
971.4000;0.6309;0.2707;
971.7000;0.6309;0.2684;
972.0000;0.6300;0.2661;
972.3000;0.6300;0.2684;
972.6000;0.6260;0.2567;
972.9000;0.6260;0.2567;
973.2000;0.6260;0.2567;
973.5000;0.6268;0.2591;
973.8000;0.6260;0.2567;
974.1000;0.6317;0.2754;
974.4000;0.6276;0.2591;
974.7000;0.6357;0.2824;
975.0000;0.6284;0.2684;
975.3000;0.6300;0.2778;
975.6000;0.6292;0.2731;
975.9000;0.6284;0.2754;
976.2000;0.6195;0.2521;
976.5000;0.6292;0.2707;
976.8000;0.6268;0.2661;
977.1000;0.6317;0.2637;
977.4000;0.6276;0.2544;
977.7000;0.6276;0.2614;
978.0000;0.6268;0.2614;
978.3000;0.6252;0.2521;
978.6000;0.6284;0.2684;
978.9000;0.6292;0.2707;
979.2000;0.6292;0.2707;
979.5000;0.6309;0.2754;
979.8000;0.6309;0.2824;
980.1000;0.6309;0.2778;
980.4000;0.6309;0.2661;
980.7000;0.6292;0.2614;
981.0000;0.6284;0.2544;
981.3000;0.6284;0.2637;
981.6000;0.6276;0.2614;
981.9000;0.6284;0.2637;
982.2000;0.6292;0.2731;
982.5000;0.6309;0.2801;
982.8000;0.6300;0.2707;
983.1000;0.6317;0.2731;
983.4000;0.6284;0.2731;
983.7000;0.6300;0.2778;
984.0000;0.6309;0.2754;
984.3000;0.6325;0.2754;
984.6000;0.6300;0.2684;
984.9000;0.6284;0.2637;
985.2000;0.6292;0.2661;
985.5000;0.6284;0.2661;
985.8000;0.6243;0.2544;
986.1000;0.6292;0.2661;
986.4000;0.6284;0.2707;
986.7000;0.6292;0.2707;
987.0000;0.6292;0.2731;
987.3000;0.6276;0.2661;
987.6000;0.6252;0.2591;
987.9000;0.6268;0.2567;
988.2000;0.6292;0.2591;
988.5000;0.6243;0.2521;
988.8000;0.6276;0.2567;
989.1000;0.6276;0.2637;
989.4000;0.6268;0.2591;
989.7000;0.6284;0.2614;
990.0000;0.6309;0.2637;
990.3000;0.6243;0.2474;
990.6000;0.6284;0.2591;
990.9000;0.6284;0.2567;
991.2000;0.6349;0.2824;
991.5000;0.6243;0.2497;
991.8000;0.6284;0.2637;
992.1000;0.6284;0.2637;
992.4000;0.6227;0.2544;
992.7000;0.6284;0.2614;
993.0000;0.6260;0.2497;
993.3000;0.6252;0.2497;
993.6000;0.6260;0.2497;
993.9000;0.6268;0.2451;
994.2000;0.6260;0.2427;
994.5000;0.6235;0.2497;
994.8000;0.6276;0.2544;
995.1000;0.6317;0.2614;
995.4000;0.6276;0.2614;
995.7000;0.6284;0.2637;
996.0000;0.6292;0.2707;
996.3000;0.6284;0.2684;
996.6000;0.6268;0.2684;
996.9000;0.6325;0.2894;
997.2000;0.6292;0.2778;
997.5000;0.6284;0.2707;
997.8000;0.6203;0.2497;
998.1000;0.6268;0.2637;
998.4000;0.6276;0.2684;
998.7000;0.6260;0.2661;
999.0000;0.6268;0.2684;
999.3000;0.6276;0.2637;
999.6000;0.6284;0.2661;
999.9000;0.6268;0.2661;
1000.2000;0.6284;0.2661;
1000.5000;0.6284;0.2637;
1000.8000;0.6292;0.2754;
1001.1000;0.6276;0.2684;
1001.4000;0.6268;0.2707;
1001.7000;0.6268;0.2684;
1002.0000;0.6292;0.2778;
1002.3000;0.6284;0.2778;
1002.6000;0.6284;0.2824;
1002.9000;0.6260;0.2824;
1003.2000;0.6276;0.2894;
1003.5000;0.6284;0.2894;
1003.8000;0.6284;0.2871;
1004.1000;0.6260;0.2848;
1004.4000;0.6243;0.2801;
1004.7000;0.6284;0.2918;
1005.0000;0.6268;0.2801;
1005.3000;0.6268;0.2801;
1005.6000;0.6252;0.2778;
1005.9000;0.6284;0.2871;
1006.2000;0.6284;0.2871;
1006.5000;0.6284;0.2894;
1006.8000;0.6284;0.2894;
1007.1000;0.6341;0.3011;
1007.4000;0.6292;0.2941;
1007.7000;0.6292;0.2918;
1008.0000;0.6300;0.2964;
1008.3000;0.6203;0.2731;
1008.6000;0.6284;0.2918;
1008.9000;0.6292;0.2894;
1009.2000;0.6276;0.2918;
1009.5000;0.6276;0.2894;
1009.8000;0.6292;0.2941;
1010.1000;0.6243;0.2871;
1010.4000;0.6268;0.2848;
1010.7000;0.6349;0.2964;
1011.0000;0.6268;0.2871;
1011.3000;0.6276;0.2964;
1011.6000;0.6252;0.2894;
1011.9000;0.6260;0.2824;
1012.2000;0.6284;0.2894;
1012.5000;0.6276;0.2824;
1012.8000;0.6284;0.2801;
1013.1000;0.6260;0.2824;
1013.4000;0.6260;0.2801;
1013.7000;0.6260;0.2824;
1014.0000;0.6243;0.2918;
1014.3000;0.6227;0.2918;
1014.6000;0.6243;0.2964;
1014.9000;0.6252;0.2988;
1015.2000;0.6203;0.2801;
1015.5000;0.6284;0.2918;
1015.8000;0.6235;0.2848;
1016.1000;0.6243;0.2801;
1016.4000;0.6219;0.2731;
1016.7000;0.6268;0.2894;
1017.0000;0.6252;0.2918;
1017.3000;0.6211;0.2778;
1017.6000;0.6260;0.2871;
1017.9000;0.6284;0.2941;
1018.2000;0.6252;0.2941;
1018.5000;0.6252;0.2941;
1018.8000;0.6260;0.3034;
1019.1000;0.6219;0.2941;
1019.4000;0.6243;0.3034;
1019.7000;0.6243;0.2988;
1020.0000;0.6268;0.3058;
1020.3000;0.6219;0.2918;
1020.6000;0.6268;0.2941;
1020.9000;0.6252;0.2918;
1021.2000;0.6252;0.2941;
1021.5000;0.6284;0.2941;
1021.8000;0.6276;0.2941;
1022.1000;0.6260;0.2918;
1022.4000;0.6284;0.2964;
1022.7000;0.6309;0.3058;
1023.0000;0.6292;0.3011;
1023.3000;0.6260;0.2964;
1023.6000;0.6203;0.2778;
1023.9000;0.6260;0.2848;
1024.2000;0.6252;0.2871;
1024.5000;0.6243;0.2918;
1024.8000;0.6252;0.2871;
1025.1000;0.6235;0.2941;
1025.4000;0.6235;0.2964;
1025.7000;0.6252;0.2964;
1026.0000;0.6252;0.2988;
1026.3000;0.6260;0.2988;
1026.6000;0.6284;0.3058;
1026.9000;0.6260;0.3058;
1027.2000;0.6260;0.3011;
1027.5000;0.6276;0.3011;
1027.8000;0.6195;0.2871;
1028.1000;0.6268;0.3011;
1028.4000;0.6235;0.2964;
1028.7000;0.6252;0.3081;
1029.0000;0.6284;0.3174;
1029.3000;0.6252;0.3058;
1029.6000;0.6243;0.3011;
1029.9000;0.6252;0.2964;
1030.2000;0.6284;0.3104;
1030.5000;0.6268;0.3081;
1030.8000;0.6260;0.3081;
1031.1000;0.6252;0.3011;
1031.4000;0.6252;0.2988;
1031.7000;0.6260;0.2964;
1032.0000;0.6252;0.3058;
1032.3000;0.6252;0.3034;
1032.6000;0.6252;0.3011;
1032.9000;0.6252;0.2988;
1033.2000;0.6268;0.2941;
1033.5000;0.6260;0.2941;
1033.8000;0.6252;0.2871;
1034.1000;0.6252;0.2778;
1034.4000;0.6252;0.2848;
1034.7000;0.6252;0.2824;
1035.0000;0.6235;0.2871;
1035.3000;0.6235;0.2894;
1035.6000;0.6252;0.2941;
1035.9000;0.6243;0.2988;
1036.2000;0.6235;0.2988;
1036.5000;0.6203;0.2894;
1036.8000;0.6243;0.3011;
1037.1000;0.6252;0.3011;
1037.4000;0.6243;0.3058;
1037.7000;0.6252;0.3104;
1038.0000;0.6235;0.3081;
1038.3000;0.6227;0.3081;
1038.6000;0.6252;0.3104;
1038.9000;0.6243;0.3128;
1039.2000;0.6252;0.3198;
1039.5000;0.6260;0.3174;
1039.8000;0.6276;0.3198;
1040.1000;0.6252;0.3058;
1040.4000;0.6243;0.3011;
1040.7000;0.6260;0.3081;
1041.0000;0.6260;0.3034;
1041.3000;0.6243;0.2871;
1041.6000;0.6252;0.2824;
1041.9000;0.6260;0.2871;
1042.2000;0.6243;0.2754;
1042.5000;0.6243;0.2824;
1042.8000;0.6252;0.2918;
1043.1000;0.6211;0.2824;
1043.4000;0.6260;0.3011;
1043.7000;0.6235;0.2941;
1044.0000;0.6252;0.3081;
1044.3000;0.6243;0.3034;
1044.6000;0.6252;0.3011;
1044.9000;0.6243;0.3011;
1045.2000;0.6235;0.2918;
1045.5000;0.6243;0.2964;
1045.8000;0.6227;0.3034;
1046.1000;0.6260;0.3104;
1046.4000;0.6235;0.3034;
1046.7000;0.6227;0.3034;
1047.0000;0.6268;0.3104;
1047.3000;0.6243;0.3104;
1047.6000;0.6219;0.2988;
1047.9000;0.6227;0.3081;
1048.2000;0.6252;0.3104;
1048.5000;0.6252;0.3104;
1048.8000;0.6243;0.3058;
1049.1000;0.6235;0.2988;
1049.4000;0.6235;0.2964;
1049.7000;0.6219;0.2918;
1050.0000;0.6260;0.3011;
1050.3000;0.6260;0.2964;
1050.6000;0.6235;0.2941;
1050.9000;0.6219;0.2941;
1051.2000;0.6235;0.3011;
1051.5000;0.6260;0.3034;
1051.8000;0.6235;0.2964;
1052.1000;0.6243;0.2894;
1052.4000;0.6317;0.3011;
1052.7000;0.6252;0.2778;
1053.0000;0.6243;0.2824;
1053.3000;0.6243;0.2824;
1053.6000;0.6235;0.2824;
1053.9000;0.6260;0.2941;
1054.2000;0.6170;0.2707;
1054.5000;0.6243;0.2941;
1054.8000;0.6243;0.2871;
1055.1000;0.6276;0.2964;
1055.4000;0.6276;0.3034;
1055.7000;0.6243;0.2988;
1056.0000;0.6260;0.3058;
1056.3000;0.6268;0.3034;
1056.6000;0.6243;0.2894;
1056.9000;0.6243;0.2871;
1057.2000;0.6235;0.2871;
1057.5000;0.6235;0.2824;
1057.8000;0.6235;0.2778;
1058.1000;0.6203;0.2754;
1058.4000;0.6195;0.2707;
1058.7000;0.6235;0.2801;
1059.0000;0.6243;0.2778;
1059.3000;0.6227;0.2871;
1059.6000;0.6227;0.2964;
1059.9000;0.6260;0.3034;
1060.2000;0.6252;0.3034;
1060.5000;0.6219;0.3011;
1060.8000;0.6227;0.2964;
1061.1000;0.6260;0.2988;
1061.4000;0.6227;0.2964;
1061.7000;0.6227;0.3034;
1062.0000;0.6243;0.3104;
1062.3000;0.6170;0.2801;
1062.6000;0.6243;0.2894;
1062.9000;0.6284;0.2941;
1063.2000;0.6243;0.2848;
1063.5000;0.6243;0.2848;
1063.8000;0.6235;0.2824;
1064.1000;0.6227;0.2754;
1064.4000;0.6243;0.2754;
1064.7000;0.6219;0.2731;
1065.0000;0.6243;0.2801;
1065.3000;0.6243;0.2778;
1065.6000;0.6235;0.2801;
1065.9000;0.6235;0.2778;
1066.2000;0.6235;0.2754;
1066.5000;0.6252;0.2731;
1066.8000;0.6219;0.2684;
1067.1000;0.6235;0.2801;
1067.4000;0.6243;0.2824;
1067.7000;0.6252;0.3011;
1068.0000;0.6227;0.2964;
1068.3000;0.6227;0.2871;
1068.6000;0.6235;0.2801;
1068.9000;0.6219;0.2824;
1069.2000;0.6260;0.2964;
1069.5000;0.6235;0.2918;
1069.8000;0.6195;0.2894;
1070.1000;0.6219;0.2988;
1070.4000;0.6252;0.3011;
1070.7000;0.6227;0.2988;
1071.0000;0.6219;0.3011;
1071.3000;0.6243;0.3198;
1071.6000;0.6243;0.3198;
1071.9000;0.6211;0.3104;
1072.2000;0.6219;0.3058;
1072.5000;0.6219;0.3058;
1072.8000;0.6219;0.3081;
1073.1000;0.6203;0.2941;
1073.4000;0.6235;0.3011;
1073.7000;0.6211;0.2964;
1074.0000;0.6219;0.2988;
1074.3000;0.6219;0.2941;
1074.6000;0.6227;0.2848;
1074.9000;0.6211;0.2778;
1075.2000;0.6260;0.2941;
1075.5000;0.6211;0.2824;
1075.8000;0.6235;0.2894;
1076.1000;0.6203;0.2848;
1076.4000;0.6227;0.2871;
1076.7000;0.6243;0.2824;
1077.0000;0.6243;0.2778;
1077.3000;0.6227;0.2778;
1077.6000;0.6211;0.2778;
1077.9000;0.6219;0.2778;
1078.2000;0.6227;0.2848;
1078.5000;0.6235;0.2964;
1078.8000;0.6203;0.2918;
1079.1000;0.6243;0.3011;
1079.4000;0.6235;0.3011;
1079.7000;0.6268;0.3011;
1080.0000;0.6219;0.2894;
1080.3000;0.6235;0.2918;
1080.6000;0.6243;0.2918;
1080.9000;0.6235;0.2894;
1081.2000;0.6211;0.2824;
1081.5000;0.6195;0.2848;
1081.8000;0.6219;0.2918;
1082.1000;0.6227;0.2941;
1082.4000;0.6211;0.2964;
1082.7000;0.6219;0.3011;
1083.0000;0.6211;0.2941;
1083.3000;0.6235;0.3081;
1083.6000;0.6219;0.3104;
1083.9000;0.6260;0.3174;
1084.2000;0.6300;0.3338;
1084.5000;0.6219;0.3221;
1084.8000;0.6227;0.3268;
1085.1000;0.6227;0.3151;
1085.4000;0.6260;0.3104;
1085.7000;0.6219;0.3058;
1086.0000;0.6195;0.2964;
1086.3000;0.6211;0.2918;
1086.6000;0.6227;0.2941;
1086.9000;0.6235;0.2988;
1087.2000;0.6219;0.3011;
1087.5000;0.6309;0.3198;
1087.8000;0.6227;0.3011;
1088.1000;0.6252;0.3081;
1088.4000;0.6219;0.3034;
1088.7000;0.6178;0.2941;
1089.0000;0.6243;0.3058;
1089.3000;0.6292;0.3221;
1089.6000;0.6219;0.3104;
1089.9000;0.6195;0.2988;
1090.2000;0.6235;0.3081;
1090.5000;0.6227;0.3058;
1090.8000;0.6235;0.3034;
1091.1000;0.6235;0.3034;
1091.4000;0.6227;0.3034;
1091.7000;0.6260;0.3058;
1092.0000;0.6252;0.3034;
1092.3000;0.6227;0.2941;
1092.6000;0.6227;0.2894;
1092.9000;0.6227;0.2964;
1093.2000;0.6235;0.3034;
1093.5000;0.6235;0.3081;
1093.8000;0.6227;0.3081;
1094.1000;0.6178;0.2964;
1094.4000;0.6203;0.3058;
1094.7000;0.6162;0.2871;
1095.0000;0.6219;0.3151;
1095.3000;0.6227;0.3081;
1095.6000;0.6211;0.3034;
1095.9000;0.6227;0.3058;
1096.2000;0.6219;0.2941;
1096.5000;0.6227;0.2918;
1096.8000;0.6227;0.2918;
1097.1000;0.6227;0.2941;
1097.4000;0.6211;0.2964;
1097.7000;0.6252;0.3011;
1098.0000;0.6211;0.2918;
1098.3000;0.6219;0.2918;
1098.6000;0.6211;0.2848;
1098.9000;0.6235;0.2871;
1099.2000;0.6219;0.2941;
1099.5000;0.6235;0.2964;
1099.8000;0.6252;0.3034;
1100.1000;0.6227;0.2918;
1100.4000;0.6219;0.2918;
1100.7000;0.6227;0.2894;
1101.0000;0.6227;0.2871;
1101.3000;0.6243;0.2871;
1101.6000;0.6227;0.2894;
1101.9000;0.6227;0.2731;
1102.2000;0.6227;0.2754;
1102.5000;0.6227;0.2754;
1102.8000;0.6219;0.2731;
1103.1000;0.6227;0.2824;
1103.4000;0.6219;0.2848;
1103.7000;0.6219;0.2848;
1104.0000;0.6211;0.2824;
1104.3000;0.6211;0.2754;
1104.6000;0.6211;0.2778;
1104.9000;0.6211;0.2754;
1105.2000;0.6211;0.2707;
1105.5000;0.6227;0.2754;
1105.8000;0.6195;0.2848;
1106.1000;0.6203;0.2918;
1106.4000;0.6211;0.2918;
1106.7000;0.6211;0.2894;
1107.0000;0.6211;0.2941;
1107.3000;0.6211;0.2941;
1107.6000;0.6235;0.3011;
1107.9000;0.6211;0.2918;
1108.2000;0.6227;0.2988;
1108.5000;0.6170;0.2988;
1108.8000;0.6219;0.3058;
1109.1000;0.6235;0.3174;
1109.4000;0.6219;0.3058;
1109.7000;0.6219;0.3034;
1110.0000;0.6186;0.2918;
1110.3000;0.6195;0.2848;
1110.6000;0.6211;0.2918;
1110.9000;0.6211;0.2824;
1111.2000;0.6203;0.2848;
1111.5000;0.6243;0.2988;
1111.8000;0.6178;0.2707;
1112.1000;0.6235;0.2871;
1112.4000;0.6243;0.2964;
1112.7000;0.6252;0.3011;
1113.0000;0.6252;0.3034;
1113.3000;0.6243;0.2918;
1113.6000;0.6219;0.2894;
1113.9000;0.6252;0.3011;
1114.2000;0.6252;0.2964;
1114.5000;0.6219;0.2941;
1114.8000;0.6195;0.2871;
1115.1000;0.6211;0.2894;
1115.4000;0.6211;0.2941;
1115.7000;0.6276;0.2964;
1116.0000;0.6219;0.2778;
1116.3000;0.6211;0.2824;
1116.6000;0.6227;0.2824;
1116.9000;0.6211;0.2824;
1117.2000;0.6219;0.2848;
1117.5000;0.6219;0.2941;
1117.8000;0.6235;0.3081;
1118.1000;0.6186;0.2918;
1118.4000;0.6211;0.2964;
1118.7000;0.6211;0.2894;
1119.0000;0.6219;0.3011;
1119.3000;0.6219;0.3011;
1119.6000;0.6195;0.2918;
1119.9000;0.6219;0.3081;
1120.2000;0.6211;0.3081;
1120.5000;0.6203;0.3034;
1120.8000;0.6178;0.2964;
1121.1000;0.6170;0.3011;
1121.4000;0.6195;0.3011;
1121.7000;0.6211;0.3011;
1122.0000;0.6211;0.2918;
1122.3000;0.6243;0.3034;
1122.6000;0.6211;0.3058;
1122.9000;0.6227;0.3058;
1123.2000;0.6300;0.3291;
1123.5000;0.6211;0.3081;
1123.8000;0.6219;0.3058;
1124.1000;0.6227;0.3104;
1124.4000;0.6235;0.3081;
1124.7000;0.6211;0.3058;
1125.0000;0.6235;0.3011;
1125.3000;0.6243;0.2988;
1125.6000;0.6219;0.3011;
1125.9000;0.6219;0.2964;
1126.2000;0.6203;0.2918;
1126.5000;0.6211;0.2988;
1126.8000;0.6186;0.2918;
1127.1000;0.6235;0.3011;
1127.4000;0.6195;0.2871;
1127.7000;0.6235;0.3058;
1128.0000;0.6243;0.3011;
1128.3000;0.6219;0.3034;
1128.6000;0.6211;0.2964;
1128.9000;0.6211;0.2964;
1129.2000;0.6219;0.2918;
1129.5000;0.6227;0.2941;
1129.8000;0.6211;0.2894;
1130.1000;0.6219;0.2941;
1130.4000;0.6195;0.2871;
1130.7000;0.6219;0.2988;
1131.0000;0.6235;0.3011;
1131.3000;0.6235;0.2988;
1131.6000;0.6211;0.2964;
1131.9000;0.6203;0.2941;
1132.2000;0.6227;0.2918;
1132.5000;0.6203;0.2848;
1132.8000;0.6211;0.2918;
1133.1000;0.6252;0.3058;
1133.4000;0.6219;0.2988;
1133.7000;0.6203;0.2988;
1134.0000;0.6203;0.2871;
1134.3000;0.6186;0.2754;
1134.6000;0.6211;0.2754;
1134.9000;0.6154;0.2591;
1135.2000;0.6203;0.2684;
1135.5000;0.6219;0.2871;
1135.8000;0.6227;0.2848;
1136.1000;0.6219;0.2778;
1136.4000;0.6211;0.2731;
1136.7000;0.6203;0.2801;
1137.0000;0.6268;0.2964;
1137.3000;0.6211;0.2941;
1137.6000;0.6211;0.2824;
1137.9000;0.6195;0.2848;
1138.2000;0.6195;0.2918;
1138.5000;0.6211;0.2941;
1138.8000;0.6203;0.2918;
1139.1000;0.6162;0.2871;
1139.4000;0.6211;0.2964;
1139.7000;0.6219;0.2988;
1140.0000;0.6211;0.3034;
1140.3000;0.6170;0.2918;
1140.6000;0.6227;0.2988;
1140.9000;0.6219;0.2964;
1141.2000;0.6195;0.2894;
1141.5000;0.6178;0.2848;
1141.8000;0.6186;0.2871;
1142.1000;0.6195;0.2894;
1142.4000;0.6195;0.2941;
1142.7000;0.6268;0.3034;
1143.0000;0.6203;0.2918;
1143.3000;0.6203;0.3011;
1143.6000;0.6211;0.3011;
1143.9000;0.6195;0.2988;
1144.2000;0.6195;0.3034;
1144.5000;0.6203;0.3034;
1144.8000;0.6195;0.3011;
1145.1000;0.6195;0.3011;
1145.4000;0.6195;0.2941;
1145.7000;0.6203;0.2894;
1146.0000;0.6138;0.2848;
1146.3000;0.6211;0.2918;
1146.6000;0.6211;0.2894;
1146.9000;0.6211;0.2941;
1147.2000;0.6276;0.3151;
1147.5000;0.6219;0.2941;
1147.8000;0.6203;0.2941;
1148.1000;0.6203;0.2894;
1148.4000;0.6178;0.2848;
1148.7000;0.6219;0.2918;
1149.0000;0.6219;0.2918;
1149.3000;0.6243;0.2964;
1149.6000;0.6211;0.2918;
1149.9000;0.6211;0.2918;
1150.2000;0.6227;0.2918;
1150.5000;0.6203;0.2871;
1150.8000;0.6203;0.2964;
1151.1000;0.6219;0.2988;
1151.4000;0.6219;0.3058;
1151.7000;0.6211;0.3058;
1152.0000;0.6219;0.3011;
1152.3000;0.6203;0.2988;
1152.6000;0.6211;0.2988;
1152.9000;0.6211;0.2964;
1153.2000;0.6186;0.2964;
1153.5000;0.6195;0.2941;
1153.8000;0.6211;0.2871;
1154.1000;0.6211;0.3011;
1154.4000;0.6211;0.2941;
1154.7000;0.6203;0.2918;
1155.0000;0.6203;0.2871;
1155.3000;0.6195;0.2871;
1155.6000;0.6203;0.2894;
1155.9000;0.6203;0.2941;
1156.2000;0.6186;0.2894;
1156.5000;0.6203;0.2894;
1156.8000;0.6219;0.2988;
1157.1000;0.6170;0.2941;
1157.4000;0.6203;0.3104;
1157.7000;0.6203;0.3128;
1158.0000;0.6211;0.3081;
1158.3000;0.6211;0.3034;
1158.6000;0.6203;0.3011;
1158.9000;0.6219;0.3081;
1159.2000;0.6203;0.3081;
1159.5000;0.6203;0.3104;
1159.8000;0.6227;0.3104;
1160.1000;0.6219;0.3011;
1160.4000;0.6219;0.2801;
1160.7000;0.6203;0.2754;
1161.0000;0.6219;0.2801;
1161.3000;0.6211;0.2848;
1161.6000;0.6195;0.2801;
1161.9000;0.6227;0.2824;
1162.2000;0.6235;0.2801;
1162.5000;0.6195;0.2731;
1162.8000;0.6203;0.2731;
1163.1000;0.6227;0.2801;
1163.4000;0.6186;0.2684;
1163.7000;0.6178;0.2684;
1164.0000;0.6178;0.2707;
1164.3000;0.6203;0.2731;
1164.6000;0.6178;0.2731;
1164.9000;0.6186;0.2731;
1165.2000;0.6203;0.2754;
1165.5000;0.6195;0.2848;
1165.8000;0.6211;0.2988;
1166.1000;0.6195;0.2894;
1166.4000;0.6195;0.2894;
1166.7000;0.6195;0.2871;
1167.0000;0.6195;0.2778;
1167.3000;0.6211;0.2801;
1167.6000;0.6195;0.2754;
1167.9000;0.6195;0.2871;
1168.2000;0.6203;0.2824;
1168.5000;0.6195;0.2778;
1168.8000;0.6195;0.2801;
1169.1000;0.6195;0.2848;
1169.4000;0.6195;0.2801;
1169.7000;0.6195;0.2894;
1170.0000;0.6186;0.2871;
1170.3000;0.6260;0.3011;
1170.6000;0.6211;0.2848;
1170.9000;0.6203;0.2848;
1171.2000;0.6227;0.2824;
1171.5000;0.6211;0.2707;
1171.8000;0.6211;0.2707;
1172.1000;0.6227;0.2731;
1172.4000;0.6252;0.2848;
1172.7000;0.6203;0.2778;
1173.0000;0.6211;0.2848;
1173.3000;0.6219;0.2801;
1173.6000;0.6186;0.2801;
1173.9000;0.6211;0.2754;
1174.2000;0.6203;0.2731;
1174.5000;0.6211;0.2731;
1174.8000;0.6195;0.2754;
1175.1000;0.6203;0.2894;
1175.4000;0.6195;0.2824;
1175.7000;0.6186;0.2848;
1176.0000;0.6227;0.2941;
1176.3000;0.6186;0.2894;
1176.6000;0.6211;0.3011;
1176.9000;0.6203;0.3011;
1177.2000;0.6203;0.3011;
1177.5000;0.6195;0.3034;
1177.8000;0.6154;0.2988;
1178.1000;0.6203;0.3128;
1178.4000;0.6203;0.3151;
1178.7000;0.6195;0.3268;
1179.0000;0.6195;0.3128;
1179.3000;0.6195;0.3104;
1179.6000;0.6203;0.3034;
1179.9000;0.6203;0.2941;
1180.2000;0.6129;0.2707;
1180.5000;0.6170;0.2871;
1180.8000;0.6195;0.3034;
1181.1000;0.6211;0.2988;
1181.4000;0.6138;0.2941;
1181.7000;0.6203;0.3081;
1182.0000;0.6203;0.3034;
1182.3000;0.6195;0.3058;
1182.6000;0.6203;0.2964;
1182.9000;0.6195;0.2964;
1183.2000;0.6195;0.2964;
1183.5000;0.6203;0.2964;
1183.8000;0.6203;0.2894;
1184.1000;0.6178;0.2848;
1184.4000;0.6211;0.2894;
1184.7000;0.6195;0.2801;
1185.0000;0.6195;0.2684;
1185.3000;0.6195;0.2707;
1185.6000;0.6186;0.2731;
1185.9000;0.6203;0.2778;
1186.2000;0.6211;0.2918;
1186.5000;0.6186;0.2941;
1186.8000;0.6186;0.2988;
1187.1000;0.6162;0.2941;
1187.4000;0.6203;0.3034;
1187.7000;0.6186;0.2964;
1188.0000;0.6203;0.2988;
1188.3000;0.6211;0.3081;
1188.6000;0.6170;0.2918;
1188.9000;0.6227;0.3034;
1189.2000;0.6203;0.2941;
1189.5000;0.6178;0.2918;
1189.8000;0.6186;0.2894;
1190.1000;0.6203;0.2894;
1190.4000;0.6195;0.2731;
1190.7000;0.6195;0.2731;
1191.0000;0.6195;0.2801;
1191.3000;0.6211;0.2894;
1191.6000;0.6195;0.2731;
1191.9000;0.6211;0.2661;
1192.2000;0.6211;0.2684;
1192.5000;0.6211;0.2731;
1192.8000;0.6219;0.2684;
1193.1000;0.6203;0.2661;
1193.4000;0.6227;0.2731;
1193.7000;0.6178;0.2661;
1194.0000;0.6211;0.2824;
1194.3000;0.6195;0.2778;
1194.6000;0.6195;0.2824;
1194.9000;0.6211;0.2824;
1195.2000;0.6195;0.2684;
1195.5000;0.6146;0.2637;
1195.8000;0.6186;0.2801;
1196.1000;0.6195;0.2778;
1196.4000;0.6129;0.2544;
1196.7000;0.6154;0.2521;
1197.0000;0.6211;0.2684;
1197.3000;0.6203;0.2731;
1197.6000;0.6178;0.2684;
1197.9000;0.6203;0.2707;
1198.2000;0.6195;0.2707;
1198.5000;0.6203;0.2778;
1198.8000;0.6195;0.2778;
1199.1000;0.6186;0.2731;
1199.4000;0.6195;0.2731;
1199.7000;0.6195;0.2684;
1200.0000;0.6195;0.2731;
1200.3000;0.6203;0.2754;
1200.6000;0.6195;0.2707;
1200.9000;0.6178;0.2684;
1201.2000;0.6203;0.2731;
1201.5000;0.6195;0.2754;
1201.8000;0.6186;0.2684;
1202.1000;0.6146;0.2661;
1202.4000;0.6186;0.2801;
1202.7000;0.6186;0.2871;
1203.0000;0.6195;0.2848;
1203.3000;0.6138;0.2661;
1203.6000;0.6186;0.2731;
1203.9000;0.6195;0.2661;
1204.2000;0.6146;0.2614;
1204.5000;0.6178;0.2707;
1204.8000;0.6146;0.2684;
1205.1000;0.6203;0.2871;
1205.4000;0.6268;0.3034;
1205.7000;0.6195;0.2684;
1206.0000;0.6162;0.2661;
1206.3000;0.6195;0.2754;
1206.6000;0.6203;0.2801;
1206.9000;0.6203;0.2848;
1207.2000;0.6186;0.2801;
1207.5000;0.6186;0.2754;
1207.8000;0.6195;0.2824;
1208.1000;0.6146;0.2707;
1208.4000;0.6203;0.2778;
1208.7000;0.6195;0.2661;
1209.0000;0.6186;0.2637;
1209.3000;0.6186;0.2591;
1209.6000;0.6195;0.2661;
1209.9000;0.6195;0.2614;
1210.2000;0.6211;0.2544;
1210.5000;0.6203;0.2474;
1210.8000;0.6203;0.2544;
1211.1000;0.6178;0.2567;
1211.4000;0.6178;0.2684;
1211.7000;0.6195;0.2637;
1212.0000;0.6178;0.2567;
1212.3000;0.6186;0.2591;
1212.6000;0.6186;0.2731;
1212.9000;0.6195;0.2824;
1213.2000;0.6162;0.2778;
1213.5000;0.6203;0.2801;
1213.8000;0.6195;0.2801;
1214.1000;0.6203;0.2848;
1214.4000;0.6186;0.2778;
1214.7000;0.6162;0.2707;
1215.0000;0.6186;0.2824;
1215.3000;0.6186;0.2894;
1215.6000;0.6211;0.2918;
1215.9000;0.6203;0.2848;
1216.2000;0.6186;0.2778;
1216.5000;0.6178;0.2661;
1216.8000;0.6195;0.2731;
1217.1000;0.6186;0.2661;
1217.4000;0.6162;0.2614;
1217.7000;0.6170;0.2614;
1218.0000;0.6195;0.2637;
1218.3000;0.6203;0.2637;
1218.6000;0.6186;0.2707;
1218.9000;0.6170;0.2684;
1219.2000;0.6195;0.2754;
1219.5000;0.6138;0.2614;
1219.8000;0.6195;0.2684;
1220.1000;0.6203;0.2731;
1220.4000;0.6203;0.2801;
1220.7000;0.6162;0.2707;
1221.0000;0.6219;0.2754;
1221.3000;0.6195;0.2614;
1221.6000;0.6154;0.2567;
1221.9000;0.6203;0.2754;
1222.2000;0.6195;0.2731;
1222.5000;0.6162;0.2707;
1222.8000;0.6203;0.2754;
1223.1000;0.6162;0.2754;
1223.4000;0.6186;0.2754;
1223.7000;0.6178;0.2754;
1224.0000;0.6178;0.2707;
1224.3000;0.6203;0.2684;
1224.6000;0.6186;0.2684;
1224.9000;0.6203;0.2707;
1225.2000;0.6162;0.2661;
1225.5000;0.6227;0.2824;
1225.8000;0.6178;0.2778;
1226.1000;0.6235;0.2918;
1226.4000;0.6170;0.2801;
1226.7000;0.6162;0.2778;
1227.0000;0.6219;0.2918;
1227.3000;0.6105;0.2637;
1227.6000;0.6186;0.2731;
1227.9000;0.6195;0.2731;
1228.2000;0.6178;0.2684;
1228.5000;0.6178;0.2684;
1228.8000;0.6178;0.2661;
1229.1000;0.6186;0.2707;
1229.4000;0.6203;0.2778;
1229.7000;0.6186;0.2684;
1230.0000;0.6203;0.2731;
1230.3000;0.6186;0.2707;
1230.6000;0.6186;0.2754;
1230.9000;0.6195;0.2848;
1231.2000;0.6203;0.2871;
1231.5000;0.6186;0.2871;
1231.8000;0.6186;0.2964;
1232.1000;0.6195;0.2871;
1232.4000;0.6178;0.2801;
1232.7000;0.6195;0.2684;
1233.0000;0.6186;0.2637;
1233.3000;0.6195;0.2567;
1233.6000;0.6195;0.2637;
1233.9000;0.6186;0.2661;
1234.2000;0.6178;0.2684;
1234.5000;0.6170;0.2637;
1234.8000;0.6203;0.2707;
1235.1000;0.6195;0.2684;
1235.4000;0.6195;0.2754;
1235.7000;0.6178;0.2684;
1236.0000;0.6195;0.2801;
1236.3000;0.6195;0.2707;
1236.6000;0.6178;0.2684;
1236.9000;0.6154;0.2637;
1237.2000;0.6162;0.2567;
1237.5000;0.6178;0.2591;
1237.8000;0.6178;0.2637;
1238.1000;0.6227;0.2778;
1238.4000;0.6154;0.2591;
1238.7000;0.6195;0.2707;
1239.0000;0.6178;0.2637;
1239.3000;0.6162;0.2567;
1239.6000;0.6186;0.2637;
1239.9000;0.6195;0.2637;
1240.2000;0.6170;0.2544;
1240.5000;0.6195;0.2637;
1240.8000;0.6178;0.2591;
1241.1000;0.6186;0.2544;
1241.4000;0.6178;0.2614;
1241.7000;0.6178;0.2707;
1242.0000;0.6203;0.2824;
1242.3000;0.6170;0.2614;
1242.6000;0.6186;0.2661;
1242.9000;0.6195;0.2614;
1243.2000;0.6243;0.2661;
1243.5000;0.6195;0.2591;
1243.8000;0.6203;0.2684;
1244.1000;0.6178;0.2614;
1244.4000;0.6186;0.2521;
1244.7000;0.6178;0.2521;
1245.0000;0.6170;0.2521;
1245.3000;0.6186;0.2497;
1245.6000;0.6178;0.2474;
1245.9000;0.6195;0.2474;
1246.2000;0.6170;0.2474;
1246.5000;0.6195;0.2521;
1246.8000;0.6195;0.2544;
1247.1000;0.6178;0.2637;
1247.4000;0.6178;0.2637;
1247.7000;0.6178;0.2684;
1248.0000;0.6195;0.2707;
1248.3000;0.6170;0.2614;
1248.6000;0.6195;0.2684;
1248.9000;0.6170;0.2637;
1249.2000;0.6186;0.2661;
1249.5000;0.6195;0.2684;
1249.8000;0.6178;0.2684;
1250.1000;0.6154;0.2614;
1250.4000;0.6186;0.2778;
1250.7000;0.6186;0.2801;
1251.0000;0.6186;0.2731;
1251.3000;0.6292;0.2988;
1251.6000;0.6203;0.2848;
1251.9000;0.6178;0.2801;
1252.2000;0.6146;0.2778;
1252.5000;0.6178;0.2894;
1252.8000;0.6170;0.2941;
1253.1000;0.6146;0.2848;
1253.4000;0.6162;0.2778;
1253.7000;0.6170;0.2731;
1254.0000;0.6170;0.2754;
1254.3000;0.6186;0.2778;
1254.6000;0.6170;0.2801;
1254.9000;0.6162;0.2848;
1255.2000;0.6162;0.2848;
1255.5000;0.6162;0.2778;
1255.8000;0.6178;0.2778;
1256.1000;0.6170;0.2778;
1256.4000;0.6178;0.2731;
1256.7000;0.6203;0.2778;
1257.0000;0.6178;0.2801;
1257.3000;0.6186;0.2801;
1257.6000;0.6170;0.2801;
1257.9000;0.6170;0.2801;
1258.2000;0.6260;0.2918;
1258.5000;0.6178;0.2684;
1258.8000;0.6178;0.2684;
1259.1000;0.6186;0.2731;
1259.4000;0.6195;0.2778;
1259.7000;0.6178;0.2754;
1260.0000;0.6170;0.2731;
1260.3000;0.6186;0.2848;
1260.6000;0.6170;0.2707;
1260.9000;0.6170;0.2707;
1261.2000;0.6235;0.2894;
1261.5000;0.6178;0.2778;
1261.8000;0.6170;0.2778;
1262.1000;0.6243;0.2848;
1262.4000;0.6170;0.2707;
1262.7000;0.6186;0.2754;
1263.0000;0.6195;0.2731;
1263.3000;0.6170;0.2684;
1263.6000;0.6178;0.2707;
1263.9000;0.6178;0.2778;
1264.2000;0.6203;0.2964;
1264.5000;0.6260;0.3151;
1264.8000;0.6178;0.3011;
1265.1000;0.6178;0.3104;
1265.4000;0.6121;0.2941;
1265.7000;0.6170;0.2941;
1266.0000;0.6154;0.3011;
1266.3000;0.6186;0.3034;
1266.6000;0.6170;0.2918;
1266.9000;0.6186;0.2894;
1267.2000;0.6195;0.2894;
1267.5000;0.6154;0.2871;
1267.8000;0.6178;0.2871;
1268.1000;0.6219;0.2964;
1268.4000;0.6178;0.2848;
1268.7000;0.6203;0.2824;
1269.0000;0.6186;0.2801;
1269.3000;0.6170;0.2778;
1269.6000;0.6170;0.2778;
1269.9000;0.6170;0.2801;
1270.2000;0.6162;0.2801;
1270.5000;0.6178;0.2824;
1270.8000;0.6178;0.2754;
1271.1000;0.6162;0.2731;
1271.4000;0.6170;0.2871;
1271.7000;0.6178;0.2918;
1272.0000;0.6252;0.3128;
1272.3000;0.6186;0.3058;
1272.6000;0.6186;0.3058;
1272.9000;0.6170;0.3104;
1273.2000;0.6170;0.3058;
1273.5000;0.6186;0.3151;
1273.8000;0.6186;0.3081;
1274.1000;0.6186;0.3034;
1274.4000;0.6170;0.2964;
1274.7000;0.6186;0.3081;
1275.0000;0.6178;0.3058;
1275.3000;0.6186;0.3104;
1275.6000;0.6162;0.3058;
1275.9000;0.6170;0.3034;
1276.2000;0.6154;0.3011;
1276.5000;0.6178;0.3081;
1276.8000;0.6105;0.2941;
1277.1000;0.6252;0.3244;
1277.4000;0.6178;0.3058;
1277.7000;0.6178;0.3011;
1278.0000;0.6178;0.2918;
1278.3000;0.6178;0.2848;
1278.6000;0.6178;0.2894;
1278.9000;0.6186;0.2918;
1279.2000;0.6178;0.2894;
1279.5000;0.6178;0.3104;
1279.8000;0.6170;0.3034;
1280.1000;0.6178;0.3034;
1280.4000;0.6170;0.3011;
1280.7000;0.6170;0.3011;
1281.0000;0.6162;0.2941;
1281.3000;0.6203;0.2964;
1281.6000;0.6186;0.2894;
1281.9000;0.6203;0.2988;
1282.2000;0.6243;0.3128;
1282.5000;0.6178;0.3081;
1282.8000;0.6186;0.3081;
1283.1000;0.6129;0.2918;
1283.4000;0.6170;0.3034;
1283.7000;0.6186;0.3151;
1284.0000;0.6195;0.3081;
1284.3000;0.6170;0.2988;
1284.6000;0.6170;0.2988;
1284.9000;0.6195;0.2988;
1285.2000;0.6186;0.2964;
1285.5000;0.6203;0.2988;
1285.8000;0.6178;0.2871;
1286.1000;0.6203;0.2941;
1286.4000;0.6170;0.2941;
1286.7000;0.6162;0.2894;
1287.0000;0.6186;0.2988;
1287.3000;0.6178;0.2941;
1287.6000;0.6195;0.3011;
1287.9000;0.6138;0.2894;
1288.2000;0.6170;0.2988;
1288.5000;0.6186;0.3011;
1288.8000;0.6186;0.3058;
1289.1000;0.6186;0.3058;
1289.4000;0.6178;0.3011;
1289.7000;0.6170;0.3011;
1290.0000;0.6235;0.3221;
1290.3000;0.6178;0.2988;
1290.6000;0.6203;0.2964;
1290.9000;0.6170;0.2941;
1291.2000;0.6162;0.2918;
1291.5000;0.6170;0.2941;
1291.8000;0.6170;0.2988;
1292.1000;0.6186;0.3058;
1292.4000;0.6154;0.2988;
1292.7000;0.6178;0.3034;
1293.0000;0.6178;0.3104;
1293.3000;0.6186;0.3011;
1293.6000;0.6162;0.2988;
1293.9000;0.6170;0.2988;
1294.2000;0.6146;0.2988;
1294.5000;0.6162;0.3011;
1294.8000;0.6178;0.2918;
1295.1000;0.6162;0.2871;
1295.4000;0.6186;0.2964;
1295.7000;0.6170;0.2941;
1296.0000;0.6186;0.2941;
1296.3000;0.6170;0.2918;
1296.6000;0.6170;0.2918;
1296.9000;0.6170;0.2871;
1297.2000;0.6170;0.2801;
1297.5000;0.6178;0.2778;
1297.8000;0.6170;0.2801;
1298.1000;0.6170;0.2801;
1298.4000;0.6162;0.2848;
1298.7000;0.6170;0.2848;
1299.0000;0.6178;0.2778;
1299.3000;0.6195;0.2754;
1299.6000;0.6195;0.2824;
1299.9000;0.6186;0.2824;
1300.2000;0.6162;0.2848;
1300.5000;0.6178;0.2848;
1300.8000;0.6162;0.2894;
1301.1000;0.6186;0.2988;
1301.4000;0.6170;0.2918;
1301.7000;0.6170;0.2988;
1302.0000;0.6252;0.3174;
1302.3000;0.6170;0.2964;
1302.6000;0.6170;0.2918;
1302.9000;0.6186;0.2848;
1303.2000;0.6186;0.2801;
1303.5000;0.6186;0.2801;
1303.8000;0.6146;0.2731;
1304.1000;0.6162;0.2731;
1304.4000;0.6186;0.2848;
1304.7000;0.6203;0.2871;
1305.0000;0.6170;0.2801;
1305.3000;0.6195;0.2894;
1305.6000;0.6186;0.2824;
1305.9000;0.6162;0.2801;
1306.2000;0.6162;0.2778;
1306.5000;0.6170;0.2871;
1306.8000;0.6170;0.2918;
1307.1000;0.6178;0.2964;
1307.4000;0.6162;0.2918;
1307.7000;0.6170;0.2918;
1308.0000;0.6121;0.2801;
1308.3000;0.6170;0.2894;
1308.6000;0.6162;0.2918;
1308.9000;0.6170;0.2941;
1309.2000;0.6195;0.3128;
1309.5000;0.6138;0.2964;
1309.8000;0.6178;0.3058;
1310.1000;0.6162;0.3081;
1310.4000;0.6186;0.3081;
1310.7000;0.6178;0.3081;
1311.0000;0.6178;0.3011;
1311.3000;0.6186;0.3011;
1311.6000;0.6170;0.2964;
1311.9000;0.6195;0.2988;
1312.2000;0.6186;0.2941;
1312.5000;0.6170;0.2941;
1312.8000;0.6162;0.2988;
1313.1000;0.6186;0.2988;
1313.4000;0.6146;0.2848;
1313.7000;0.6170;0.2754;
1314.0000;0.6138;0.2707;
1314.3000;0.6162;0.2848;
1314.6000;0.6162;0.2848;
1314.9000;0.6195;0.2964;
1315.2000;0.6178;0.2964;
1315.5000;0.6195;0.2918;
1315.8000;0.6195;0.2871;
1316.1000;0.6203;0.2871;
1316.4000;0.6170;0.2824;
1316.7000;0.6178;0.2848;
1317.0000;0.6178;0.2871;
1317.3000;0.6170;0.2871;
1317.6000;0.6195;0.2824;
1317.9000;0.6178;0.2731;
1318.2000;0.6146;0.2731;
1318.5000;0.6186;0.2871;
1318.8000;0.6170;0.2894;
1319.1000;0.6113;0.2801;
1319.4000;0.6195;0.2894;
1319.7000;0.6186;0.2848;
1320.0000;0.6138;0.2778;
1320.3000;0.6113;0.2778;
1320.6000;0.6178;0.2964;
1320.9000;0.6105;0.2848;
1321.2000;0.6178;0.3081;
1321.5000;0.6121;0.2894;
1321.8000;0.6162;0.3034;
1322.1000;0.6186;0.3104;
1322.4000;0.6178;0.3081;
1322.7000;0.6170;0.3034;
1323.0000;0.6178;0.2964;
1323.3000;0.6162;0.3034;
1323.6000;0.6170;0.2988;
1323.9000;0.6178;0.2894;
1324.2000;0.6178;0.2848;
1324.5000;0.6170;0.2894;
1324.8000;0.6178;0.2918;
1325.1000;0.6170;0.2894;
1325.4000;0.6162;0.2894;
1325.7000;0.6170;0.2894;
1326.0000;0.6195;0.2848;
1326.3000;0.6178;0.2848;
1326.6000;0.6170;0.2801;
1326.9000;0.6195;0.2824;
1327.2000;0.6186;0.2801;
1327.5000;0.6195;0.2754;
1327.8000;0.6178;0.2731;
1328.1000;0.6162;0.2707;
1328.4000;0.6170;0.2848;
1328.7000;0.6235;0.3011;
1329.0000;0.6170;0.2871;
1329.3000;0.6178;0.2894;
1329.6000;0.6154;0.2941;
1329.9000;0.6113;0.2871;
1330.2000;0.6162;0.3011;
1330.5000;0.6154;0.2941;
1330.8000;0.6154;0.2894;
1331.1000;0.6178;0.2964;
1331.4000;0.6195;0.2871;
1331.7000;0.6162;0.2824;
1332.0000;0.6162;0.2894;
1332.3000;0.6170;0.2941;
1332.6000;0.6203;0.2988;
1332.9000;0.6170;0.3011;
1333.2000;0.6178;0.3011;
1333.5000;0.6170;0.3011;
1333.8000;0.6186;0.3081;
1334.1000;0.6186;0.3174;
1334.4000;0.6105;0.3058;
1334.7000;0.6162;0.3291;
1335.0000;0.6162;0.3314;
1335.3000;0.6138;0.3314;
1335.6000;0.6154;0.3314;
1335.9000;0.6170;0.3268;
1336.2000;0.6178;0.3151;
1336.5000;0.6170;0.3058;
1336.8000;0.6162;0.2988;
1337.1000;0.6146;0.2894;
1337.4000;0.6162;0.2941;
1337.7000;0.6162;0.3011;
1338.0000;0.6178;0.3011;
1338.3000;0.6170;0.2988;
1338.6000;0.6162;0.2894;
1338.9000;0.6186;0.2848;
1339.2000;0.6170;0.2824;
1339.5000;0.6162;0.2778;
1339.8000;0.6154;0.2684;
1340.1000;0.6162;0.2661;
1340.4000;0.6138;0.2684;
1340.7000;0.6178;0.2778;
1341.0000;0.6170;0.2778;
1341.3000;0.6170;0.2778;
1341.6000;0.6170;0.2848;
1341.9000;0.6170;0.2824;
1342.2000;0.6162;0.2731;
1342.5000;0.6162;0.2637;
1342.8000;0.6162;0.2684;
1343.1000;0.6178;0.2754;
1343.4000;0.6186;0.2824;
1343.7000;0.6162;0.2871;
1344.0000;0.6154;0.2778;
1344.3000;0.6186;0.2848;
1344.6000;0.6154;0.2848;
1344.9000;0.6170;0.2801;
1345.2000;0.6162;0.2731;
1345.5000;0.6170;0.2707;
1345.8000;0.6178;0.2707;
1346.1000;0.6170;0.2661;
1346.4000;0.6162;0.2778;
1346.7000;0.6162;0.2684;
1347.0000;0.6170;0.2591;
1347.3000;0.6170;0.2544;
1347.6000;0.6170;0.2637;
1347.9000;0.6162;0.2637;
1348.2000;0.6170;0.2637;
1348.5000;0.6162;0.2707;
1348.8000;0.6138;0.2591;
1349.1000;0.6170;0.2684;
1349.4000;0.6170;0.2778;
1349.7000;0.6113;0.2707;
1350.0000;0.6121;0.2684;
1350.3000;0.6154;0.2684;
1350.6000;0.6162;0.2707;
1350.9000;0.6162;0.2731;
1351.2000;0.6178;0.2707;
1351.5000;0.6154;0.2707;
1351.8000;0.6178;0.2848;
1352.1000;0.6178;0.2941;
1352.4000;0.6195;0.2871;
1352.7000;0.6170;0.2824;
1353.0000;0.6186;0.2848;
1353.3000;0.6170;0.2731;
1353.6000;0.6170;0.2731;
1353.9000;0.6178;0.2707;
1354.2000;0.6170;0.2637;
1354.5000;0.6162;0.2684;
1354.8000;0.6170;0.2731;
1355.1000;0.6186;0.2754;
1355.4000;0.6170;0.2684;
1355.7000;0.6178;0.2614;
1356.0000;0.6178;0.2661;
1356.3000;0.6154;0.2731;
1356.6000;0.6170;0.2778;
1356.9000;0.6170;0.2894;
1357.2000;0.6178;0.2918;
1357.5000;0.6178;0.2894;
1357.8000;0.6178;0.2824;
1358.1000;0.6162;0.2754;
1358.4000;0.6203;0.2754;
1358.7000;0.6178;0.2778;
1359.0000;0.6162;0.2778;
1359.3000;0.6138;0.2707;
1359.6000;0.6178;0.2801;
1359.9000;0.6170;0.2801;
1360.2000;0.6178;0.2778;
1360.5000;0.6178;0.2848;
1360.8000;0.6170;0.2801;
1361.1000;0.6146;0.2801;
1361.4000;0.6154;0.2894;
1361.7000;0.6146;0.2941;
1362.0000;0.6146;0.2894;
1362.3000;0.6195;0.2894;
1362.6000;0.6186;0.2824;
1362.9000;0.6178;0.2824;
1363.2000;0.6162;0.2824;
1363.5000;0.6178;0.2871;
1363.8000;0.6162;0.2941;
1364.1000;0.6170;0.2988;
1364.4000;0.6162;0.3011;
1364.7000;0.6178;0.3011;
1365.0000;0.6154;0.3034;
1365.3000;0.6162;0.2988;
1365.6000;0.6211;0.3081;
1365.9000;0.6162;0.2894;
1366.2000;0.6170;0.2918;
1366.5000;0.6170;0.2964;
1366.8000;0.6154;0.2941;
1367.1000;0.6129;0.2918;
1367.4000;0.6162;0.2988;
1367.7000;0.6162;0.2848;
1368.0000;0.6170;0.2824;
1368.3000;0.6170;0.2824;
1368.6000;0.6186;0.2918;
1368.9000;0.6178;0.2918;
1369.2000;0.6089;0.2684;
1369.5000;0.6154;0.2801;
1369.8000;0.6170;0.2848;
1370.1000;0.6170;0.2918;
1370.4000;0.6162;0.2848;
1370.7000;0.6170;0.2894;
1371.0000;0.6170;0.2824;
1371.3000;0.6211;0.2848;
1371.6000;0.6195;0.2824;
1371.9000;0.6170;0.2848;
1372.2000;0.6186;0.2894;
1372.5000;0.6186;0.2871;
1372.8000;0.6186;0.2824;
1373.1000;0.6170;0.2754;
1373.4000;0.6170;0.2637;
1373.7000;0.6243;0.2848;
1374.0000;0.6170;0.2707;
1374.3000;0.6154;0.2661;
1374.6000;0.6170;0.2731;
1374.9000;0.6186;0.2801;
1375.2000;0.6186;0.2801;
1375.5000;0.6170;0.2637;
1375.8000;0.6178;0.2661;
1376.1000;0.6178;0.2707;
1376.4000;0.6170;0.2637;
1376.7000;0.6170;0.2614;
1377.0000;0.6178;0.2684;
1377.3000;0.6138;0.2707;
1377.6000;0.6162;0.2848;
1377.9000;0.6129;0.2707;
1378.2000;0.6170;0.2801;
1378.5000;0.6129;0.2731;
1378.8000;0.6146;0.2707;
1379.1000;0.6178;0.2778;
1379.4000;0.6162;0.2754;
1379.7000;0.6146;0.2661;
1380.0000;0.6154;0.2661;
1380.3000;0.6162;0.2754;
1380.6000;0.6219;0.2871;
1380.9000;0.6162;0.2707;
1381.2000;0.6162;0.2754;
1381.5000;0.6162;0.2778;
1381.8000;0.6146;0.2754;
1382.1000;0.6178;0.2848;
1382.4000;0.6203;0.3011;
1382.7000;0.6162;0.2871;
1383.0000;0.6170;0.2988;
1383.3000;0.6138;0.2964;
1383.6000;0.6235;0.3221;
1383.9000;0.6162;0.2988;
1384.2000;0.6162;0.2918;
1384.5000;0.6170;0.2848;
1384.8000;0.6162;0.2778;
1385.1000;0.6162;0.2778;
1385.4000;0.6154;0.2824;
1385.7000;0.6170;0.2894;
1386.0000;0.6154;0.2824;
1386.3000;0.6170;0.2801;
1386.6000;0.6170;0.2754;
1386.9000;0.6138;0.2707;
1387.2000;0.6178;0.2871;
1387.5000;0.6162;0.2894;
1387.8000;0.6195;0.2894;
1388.1000;0.6162;0.2824;
1388.4000;0.6162;0.2824;
1388.7000;0.6154;0.2731;
1389.0000;0.6170;0.2707;
1389.3000;0.6178;0.2707;
1389.6000;0.6195;0.2801;
1389.9000;0.6162;0.2731;
1390.2000;0.6170;0.2778;
1390.5000;0.6178;0.2731;
1390.8000;0.6195;0.2778;
1391.1000;0.6178;0.2754;
1391.4000;0.6186;0.2731;
1391.7000;0.6121;0.2567;
1392.0000;0.6154;0.2707;
1392.3000;0.6162;0.2684;
1392.6000;0.6170;0.2778;
1392.9000;0.6146;0.2684;
1393.2000;0.6170;0.2731;
1393.5000;0.6170;0.2684;
1393.8000;0.6146;0.2661;
1394.1000;0.6162;0.2684;
1394.4000;0.6097;0.2637;
1394.7000;0.6146;0.2778;
1395.0000;0.6178;0.2894;
1395.3000;0.6186;0.2918;
1395.6000;0.6186;0.2871;
1395.9000;0.6162;0.2778;
1396.2000;0.6121;0.2637;
1396.5000;0.6162;0.2707;
1396.8000;0.6162;0.2614;
1397.1000;0.6162;0.2637;
1397.4000;0.6203;0.2731;
1397.7000;0.6113;0.2474;
1398.0000;0.6154;0.2614;
1398.3000;0.6178;0.2661;
1398.6000;0.6154;0.2684;
1398.9000;0.6121;0.2637;
1399.2000;0.6178;0.2637;
1399.5000;0.6170;0.2567;
1399.8000;0.6203;0.2637;
