time/ms;Fluo/V;P700 deltaI/I x10³;
-199.8000;0.6716;0.6222;
-199.5000;0.6716;0.6222;
-199.2000;0.6683;0.6222;
-198.9000;0.6716;0.6197;
-198.6000;0.6756;0.6297;
-198.3000;0.6707;0.6222;
-198.0000;0.6716;0.6222;
-197.7000;0.6707;0.6272;
-197.4000;0.6724;0.6222;
-197.1000;0.6732;0.6247;
-196.8000;0.6707;0.6172;
-196.5000;0.6707;0.6272;
-196.2000;0.6707;0.6222;
-195.9000;0.6716;0.6272;
-195.6000;0.6716;0.6348;
-195.3000;0.6716;0.6373;
-195.0000;0.6724;0.6348;
-194.7000;0.6724;0.6398;
-194.4000;0.6716;0.6474;
-194.1000;0.6699;0.6398;
-193.8000;0.6732;0.6449;
-193.5000;0.6716;0.6499;
-193.2000;0.6716;0.6549;
-192.9000;0.6707;0.6474;
-192.6000;0.6740;0.6449;
-192.3000;0.6789;0.6499;
-192.0000;0.6724;0.6197;
-191.7000;0.6699;0.6172;
-191.4000;0.6699;0.6197;
-191.1000;0.6740;0.6222;
-190.8000;0.6716;0.6146;
-190.5000;0.6707;0.6146;
-190.2000;0.6707;0.6172;
-189.9000;0.6707;0.6272;
-189.6000;0.6716;0.6323;
-189.3000;0.6707;0.6222;
-189.0000;0.6707;0.6172;
-188.7000;0.6724;0.6272;
-188.4000;0.6707;0.6172;
-188.1000;0.6716;0.6247;
-187.8000;0.6699;0.6272;
-187.5000;0.6699;0.6323;
-187.2000;0.6716;0.6323;
-186.9000;0.6732;0.6423;
-186.6000;0.6724;0.6398;
-186.3000;0.6716;0.6297;
-186.0000;0.6716;0.6272;
-185.7000;0.6724;0.6247;
-185.4000;0.6716;0.6272;
-185.1000;0.6716;0.6172;
-184.8000;0.6707;0.6121;
-184.5000;0.6724;0.6172;
-184.2000;0.6724;0.6222;
-183.9000;0.6707;0.6172;
-183.6000;0.6699;0.6197;
-183.3000;0.6732;0.6197;
-183.0000;0.6724;0.6146;
-182.7000;0.6724;0.6046;
-182.4000;0.6716;0.6121;
-182.1000;0.6724;0.6146;
-181.8000;0.6772;0.6297;
-181.5000;0.6691;0.6096;
-181.2000;0.6716;0.6172;
-180.9000;0.6716;0.6272;
-180.6000;0.6716;0.6222;
-180.3000;0.6716;0.6197;
-180.0000;0.6716;0.6146;
-179.7000;0.6699;0.6247;
-179.4000;0.6716;0.6348;
-179.1000;0.6716;0.6398;
-178.8000;0.6691;0.6323;
-178.5000;0.6707;0.6373;
-178.2000;0.6716;0.6323;
-177.9000;0.6707;0.6272;
-177.6000;0.6716;0.6323;
-177.3000;0.6740;0.6398;
-177.0000;0.6707;0.6323;
-176.7000;0.6707;0.6373;
-176.4000;0.6699;0.6297;
-176.1000;0.6724;0.6348;
-175.8000;0.6716;0.6297;
-175.5000;0.6691;0.6247;
-175.2000;0.6691;0.6272;
-174.9000;0.6724;0.6323;
-174.6000;0.6748;0.6398;
-174.3000;0.6732;0.6398;
-174.0000;0.6716;0.6297;
-173.7000;0.6716;0.6272;
-173.4000;0.6699;0.6272;
-173.1000;0.6716;0.6146;
-172.8000;0.6716;0.6172;
-172.5000;0.6707;0.6172;
-172.2000;0.6724;0.6121;
-171.9000;0.6716;0.6071;
-171.6000;0.6716;0.6071;
-171.3000;0.6716;0.6172;
-171.0000;0.6724;0.6222;
-170.7000;0.6724;0.6272;
-170.4000;0.6732;0.6197;
-170.1000;0.6716;0.6146;
-169.8000;0.6724;0.6247;
-169.5000;0.6724;0.6222;
-169.2000;0.6732;0.6247;
-168.9000;0.6740;0.6197;
-168.6000;0.6740;0.6197;
-168.3000;0.6716;0.6121;
-168.0000;0.6716;0.6071;
-167.7000;0.6716;0.6197;
-167.4000;0.6716;0.6247;
-167.1000;0.6675;0.6197;
-166.8000;0.6707;0.6272;
-166.5000;0.6707;0.6272;
-166.2000;0.6707;0.6323;
-165.9000;0.6707;0.6323;
-165.6000;0.6724;0.6323;
-165.3000;0.6740;0.6348;
-165.0000;0.6716;0.6297;
-164.7000;0.6716;0.6297;
-164.4000;0.6716;0.6197;
-164.1000;0.6659;0.6096;
-163.8000;0.6716;0.6172;
-163.5000;0.6707;0.6121;
-163.2000;0.6707;0.6197;
-162.9000;0.6707;0.6197;
-162.6000;0.6707;0.6197;
-162.3000;0.6724;0.6222;
-162.0000;0.6707;0.6222;
-161.7000;0.6707;0.6272;
-161.4000;0.6724;0.6297;
-161.1000;0.6732;0.6247;
-160.8000;0.6707;0.6172;
-160.5000;0.6724;0.6323;
-160.2000;0.6732;0.6348;
-159.9000;0.6716;0.6348;
-159.6000;0.6724;0.6323;
-159.3000;0.6707;0.6348;
-159.0000;0.6724;0.6348;
-158.7000;0.6716;0.6348;
-158.4000;0.6732;0.6398;
-158.1000;0.6707;0.6222;
-157.8000;0.6707;0.6197;
-157.5000;0.6707;0.6172;
-157.2000;0.6724;0.6197;
-156.9000;0.6707;0.6121;
-156.6000;0.6724;0.6222;
-156.3000;0.6724;0.6197;
-156.0000;0.6716;0.6172;
-155.7000;0.6707;0.6146;
-155.4000;0.6756;0.6323;
-155.1000;0.6716;0.6197;
-154.8000;0.6732;0.6222;
-154.5000;0.6716;0.6096;
-154.2000;0.6740;0.6146;
-153.9000;0.6740;0.6197;
-153.6000;0.6740;0.6146;
-153.3000;0.6756;0.6146;
-153.0000;0.6732;0.6096;
-152.7000;0.6724;0.6121;
-152.4000;0.6707;0.6172;
-152.1000;0.6691;0.6146;
-151.8000;0.6707;0.6121;
-151.5000;0.6707;0.6197;
-151.2000;0.6707;0.6197;
-150.9000;0.6716;0.6297;
-150.6000;0.6716;0.6172;
-150.3000;0.6650;0.6046;
-150.0000;0.6732;0.6222;
-149.7000;0.6716;0.6323;
-149.4000;0.6707;0.6272;
-149.1000;0.6716;0.6272;
-148.8000;0.6683;0.6096;
-148.5000;0.6740;0.6172;
-148.2000;0.6716;0.6046;
-147.9000;0.6716;0.5945;
-147.6000;0.6724;0.5970;
-147.3000;0.6716;0.5945;
-147.0000;0.6707;0.5970;
-146.7000;0.6716;0.6046;
-146.4000;0.6707;0.6046;
-146.1000;0.6724;0.6020;
-145.8000;0.6756;0.6121;
-145.5000;0.6724;0.6172;
-145.2000;0.6724;0.6146;
-144.9000;0.6724;0.6121;
-144.6000;0.6756;0.6323;
-144.3000;0.6707;0.6247;
-144.0000;0.6724;0.6197;
-143.7000;0.6716;0.6172;
-143.4000;0.6707;0.6247;
-143.1000;0.6707;0.6222;
-142.8000;0.6699;0.6197;
-142.5000;0.6724;0.6222;
-142.2000;0.6716;0.6096;
-141.9000;0.6716;0.6071;
-141.6000;0.6707;0.6046;
-141.3000;0.6707;0.6121;
-141.0000;0.6716;0.6121;
-140.7000;0.6724;0.6071;
-140.4000;0.6699;0.5995;
-140.1000;0.6732;0.6071;
-139.8000;0.6683;0.5894;
-139.5000;0.6716;0.5945;
-139.2000;0.6707;0.5920;
-138.9000;0.6724;0.5869;
-138.6000;0.6724;0.5869;
-138.3000;0.6724;0.5869;
-138.0000;0.6732;0.5844;
-137.7000;0.6716;0.5844;
-137.4000;0.6724;0.5995;
-137.1000;0.6716;0.6096;
-136.8000;0.6716;0.6020;
-136.5000;0.6716;0.5995;
-136.2000;0.6716;0.6046;
-135.9000;0.6716;0.6071;
-135.6000;0.6716;0.6071;
-135.3000;0.6724;0.6096;
-135.0000;0.6732;0.6121;
-134.7000;0.6724;0.6096;
-134.4000;0.6707;0.6071;
-134.1000;0.6716;0.6121;
-133.8000;0.6716;0.6121;
-133.5000;0.6699;0.6172;
-133.2000;0.6707;0.6172;
-132.9000;0.6707;0.6121;
-132.6000;0.6724;0.6146;
-132.3000;0.6748;0.6222;
-132.0000;0.6724;0.6222;
-131.7000;0.6716;0.6272;
-131.4000;0.6650;0.6096;
-131.1000;0.6707;0.6121;
-130.8000;0.6716;0.6172;
-130.5000;0.6716;0.6172;
-130.2000;0.6716;0.6222;
-129.9000;0.6716;0.6172;
-129.6000;0.6732;0.6272;
-129.3000;0.6732;0.6272;
-129.0000;0.6756;0.6247;
-128.7000;0.6724;0.6146;
-128.4000;0.6732;0.6222;
-128.1000;0.6675;0.6046;
-127.8000;0.6789;0.6398;
-127.5000;0.6716;0.6172;
-127.2000;0.6772;0.6398;
-126.9000;0.6707;0.6222;
-126.6000;0.6724;0.6222;
-126.3000;0.6716;0.6121;
-126.0000;0.6748;0.6197;
-125.7000;0.6716;0.6121;
-125.4000;0.6699;0.6046;
-125.1000;0.6707;0.6096;
-124.8000;0.6683;0.5995;
-124.5000;0.6724;0.6121;
-124.2000;0.6716;0.6096;
-123.9000;0.6699;0.6020;
-123.6000;0.6716;0.6071;
-123.3000;0.6724;0.6121;
-123.0000;0.6732;0.6121;
-122.7000;0.6716;0.6121;
-122.4000;0.6724;0.6222;
-122.1000;0.6716;0.6121;
-121.8000;0.6716;0.6096;
-121.5000;0.6724;0.6121;
-121.2000;0.6707;0.6020;
-120.9000;0.6724;0.6046;
-120.6000;0.6716;0.6046;
-120.3000;0.6716;0.5945;
-120.0000;0.6707;0.5844;
-119.7000;0.6789;0.6121;
-119.4000;0.6764;0.6096;
-119.1000;0.6716;0.6020;
-118.8000;0.6724;0.6046;
-118.5000;0.6699;0.6071;
-118.2000;0.6691;0.6046;
-117.9000;0.6732;0.6121;
-117.6000;0.6699;0.6020;
-117.3000;0.6724;0.6096;
-117.0000;0.6732;0.6146;
-116.7000;0.6699;0.6096;
-116.4000;0.6716;0.6046;
-116.1000;0.6716;0.5945;
-115.8000;0.6699;0.5920;
-115.5000;0.6716;0.5970;
-115.2000;0.6724;0.6046;
-114.9000;0.6716;0.6020;
-114.6000;0.6724;0.6096;
-114.3000;0.6716;0.6146;
-114.0000;0.6732;0.6121;
-113.7000;0.6748;0.5995;
-113.4000;0.6716;0.5894;
-113.1000;0.6724;0.6020;
-112.8000;0.6724;0.6096;
-112.5000;0.6691;0.6071;
-112.2000;0.6707;0.6096;
-111.9000;0.6716;0.6146;
-111.6000;0.6667;0.6046;
-111.3000;0.6716;0.6146;
-111.0000;0.6716;0.6197;
-110.7000;0.6699;0.6146;
-110.4000;0.6699;0.6146;
-110.1000;0.6716;0.6146;
-109.8000;0.6781;0.6297;
-109.5000;0.6707;0.6046;
-109.2000;0.6667;0.6020;
-108.9000;0.6724;0.6222;
-108.6000;0.6707;0.6172;
-108.3000;0.6716;0.6272;
-108.0000;0.6691;0.6146;
-107.7000;0.6716;0.6272;
-107.4000;0.6748;0.6323;
-107.1000;0.6716;0.6323;
-106.8000;0.6732;0.6373;
-106.5000;0.6716;0.6247;
-106.2000;0.6724;0.6247;
-105.9000;0.6724;0.6222;
-105.6000;0.6716;0.6172;
-105.3000;0.6716;0.6297;
-105.0000;0.6764;0.6348;
-104.7000;0.6724;0.6172;
-104.4000;0.6707;0.6172;
-104.1000;0.6724;0.6197;
-103.8000;0.6724;0.6096;
-103.5000;0.6724;0.6096;
-103.2000;0.6732;0.6197;
-102.9000;0.6740;0.6172;
-102.6000;0.6707;0.6071;
-102.3000;0.6724;0.6071;
-102.0000;0.6716;0.6096;
-101.7000;0.6659;0.5995;
-101.4000;0.6707;0.6096;
-101.1000;0.6707;0.6071;
-100.8000;0.6716;0.6046;
-100.5000;0.6699;0.6146;
-100.2000;0.6707;0.6146;
-99.9000;0.6707;0.6172;
-99.6000;0.6699;0.6172;
-99.3000;0.6724;0.6247;
-99.0000;0.6707;0.6197;
-98.7000;0.6716;0.6247;
-98.4000;0.6707;0.6247;
-98.1000;0.6699;0.6247;
-97.8000;0.6691;0.6096;
-97.5000;0.6707;0.6172;
-97.2000;0.6748;0.6272;
-96.9000;0.6707;0.6146;
-96.6000;0.6716;0.6146;
-96.3000;0.6764;0.6297;
-96.0000;0.6707;0.6121;
-95.7000;0.6707;0.6071;
-95.4000;0.6691;0.6046;
-95.1000;0.6724;0.6197;
-94.8000;0.6732;0.6172;
-94.5000;0.6707;0.6121;
-94.2000;0.6699;0.6046;
-93.9000;0.6740;0.6146;
-93.6000;0.6740;0.6071;
-93.3000;0.6724;0.6071;
-93.0000;0.6732;0.6146;
-92.7000;0.6732;0.6146;
-92.4000;0.6732;0.6272;
-92.1000;0.6724;0.6297;
-91.8000;0.6740;0.6272;
-91.5000;0.6716;0.6197;
-91.2000;0.6732;0.6146;
-90.9000;0.6683;0.5970;
-90.6000;0.6707;0.5894;
-90.3000;0.6724;0.5970;
-90.0000;0.6716;0.5869;
-89.7000;0.6699;0.5869;
-89.4000;0.6724;0.5844;
-89.1000;0.6707;0.5794;
-88.8000;0.6740;0.5844;
-88.5000;0.6716;0.5819;
-88.2000;0.6699;0.5945;
-87.9000;0.6724;0.5995;
-87.6000;0.6724;0.6071;
-87.3000;0.6699;0.5995;
-87.0000;0.6683;0.5894;
-86.7000;0.6707;0.5894;
-86.4000;0.6724;0.5945;
-86.1000;0.6707;0.5894;
-85.8000;0.6724;0.5995;
-85.5000;0.6772;0.6146;
-85.2000;0.6707;0.6071;
-84.9000;0.6716;0.6020;
-84.6000;0.6716;0.5945;
-84.3000;0.6650;0.5819;
-84.0000;0.6716;0.6071;
-83.7000;0.6716;0.6046;
-83.4000;0.6772;0.6197;
-83.1000;0.6732;0.6197;
-82.8000;0.6772;0.6373;
-82.5000;0.6724;0.6247;
-82.2000;0.6707;0.6222;
-81.9000;0.6707;0.6222;
-81.6000;0.6732;0.6247;
-81.3000;0.6732;0.6297;
-81.0000;0.6724;0.6222;
-80.7000;0.6732;0.6172;
-80.4000;0.6716;0.6071;
-80.1000;0.6724;0.6096;
-79.8000;0.6732;0.6121;
-79.5000;0.6716;0.6020;
-79.2000;0.6732;0.6046;
-78.9000;0.6724;0.6071;
-78.6000;0.6732;0.6146;
-78.3000;0.6724;0.6096;
-78.0000;0.6724;0.6096;
-77.7000;0.6732;0.6222;
-77.4000;0.6724;0.6146;
-77.1000;0.6683;0.5995;
-76.8000;0.6699;0.6121;
-76.5000;0.6707;0.6197;
-76.2000;0.6699;0.6121;
-75.9000;0.6724;0.6071;
-75.6000;0.6748;0.6096;
-75.3000;0.6740;0.6046;
-75.0000;0.6716;0.6020;
-74.7000;0.6716;0.5995;
-74.4000;0.6691;0.5869;
-74.1000;0.6724;0.5920;
-73.8000;0.6732;0.5945;
-73.5000;0.6716;0.5869;
-73.2000;0.6716;0.5894;
-72.9000;0.6667;0.5718;
-72.6000;0.6707;0.5894;
-72.3000;0.6740;0.5970;
-72.0000;0.6716;0.5894;
-71.7000;0.6716;0.5844;
-71.4000;0.6724;0.5869;
-71.1000;0.6716;0.6020;
-70.8000;0.6707;0.5995;
-70.5000;0.6716;0.6121;
-70.2000;0.6707;0.6121;
-69.9000;0.6724;0.6121;
-69.6000;0.6724;0.6096;
-69.3000;0.6699;0.6020;
-69.0000;0.6707;0.6121;
-68.7000;0.6732;0.6146;
-68.4000;0.6724;0.6121;
-68.1000;0.6813;0.6272;
-67.8000;0.6748;0.6071;
-67.5000;0.6716;0.5995;
-67.2000;0.6732;0.5995;
-66.9000;0.6699;0.5970;
-66.6000;0.6724;0.6096;
-66.3000;0.6740;0.6121;
-66.0000;0.6724;0.6146;
-65.7000;0.6716;0.6121;
-65.4000;0.6707;0.6096;
-65.1000;0.6748;0.6172;
-64.8000;0.6716;0.6046;
-64.5000;0.6716;0.6046;
-64.2000;0.6699;0.5945;
-63.9000;0.6699;0.5945;
-63.6000;0.6699;0.5945;
-63.3000;0.6716;0.6071;
-63.0000;0.6716;0.5920;
-62.7000;0.6707;0.5844;
-62.4000;0.6748;0.5970;
-62.1000;0.6740;0.5920;
-61.8000;0.6740;0.5970;
-61.5000;0.6675;0.5819;
-61.2000;0.6699;0.5869;
-60.9000;0.6707;0.5894;
-60.6000;0.6724;0.5920;
-60.3000;0.6667;0.5794;
-60.0000;0.6716;0.5970;
-59.7000;0.6724;0.6071;
-59.4000;0.6724;0.6121;
-59.1000;0.6724;0.6071;
-58.8000;0.6716;0.6071;
-58.5000;0.6699;0.6046;
-58.2000;0.6675;0.5920;
-57.9000;0.6675;0.5920;
-57.6000;0.6716;0.5945;
-57.3000;0.6724;0.6046;
-57.0000;0.6764;0.6046;
-56.7000;0.6748;0.6096;
-56.4000;0.6732;0.6146;
-56.1000;0.6724;0.6146;
-55.8000;0.6732;0.6071;
-55.5000;0.6716;0.6046;
-55.2000;0.6732;0.6071;
-54.9000;0.6724;0.6096;
-54.6000;0.6724;0.6071;
-54.3000;0.6724;0.6121;
-54.0000;0.6707;0.6071;
-53.7000;0.6724;0.6071;
-53.4000;0.6724;0.6096;
-53.1000;0.6707;0.6096;
-52.8000;0.6707;0.6096;
-52.5000;0.6707;0.6096;
-52.2000;0.6707;0.6046;
-51.9000;0.6740;0.6046;
-51.6000;0.6707;0.5970;
-51.3000;0.6699;0.5945;
-51.0000;0.6724;0.5970;
-50.7000;0.6716;0.5920;
-50.4000;0.6772;0.6121;
-50.1000;0.6772;0.6146;
-49.8000;0.6699;0.5920;
-49.5000;0.6716;0.5995;
-49.2000;0.6716;0.6121;
-48.9000;0.6707;0.6197;
-48.6000;0.6707;0.6297;
-48.3000;0.6707;0.6247;
-48.0000;0.6724;0.6121;
-47.7000;0.6707;0.6121;
-47.4000;0.6707;0.6096;
-47.1000;0.6716;0.6020;
-46.8000;0.6716;0.5945;
-46.5000;0.6699;0.5894;
-46.2000;0.6691;0.5970;
-45.9000;0.6691;0.5995;
-45.6000;0.6716;0.5970;
-45.3000;0.6699;0.5920;
-45.0000;0.6724;0.5894;
-44.7000;0.6716;0.5869;
-44.4000;0.6740;0.5995;
-44.1000;0.6732;0.5920;
-43.8000;0.6716;0.5920;
-43.5000;0.6716;0.6020;
-43.2000;0.6732;0.6071;
-42.9000;0.6732;0.6172;
-42.6000;0.6716;0.6146;
-42.3000;0.6642;0.5945;
-42.0000;0.6707;0.6046;
-41.7000;0.6707;0.5995;
-41.4000;0.6683;0.5920;
-41.1000;0.6691;0.5945;
-40.8000;0.6691;0.5995;
-40.5000;0.6707;0.6071;
-40.2000;0.6716;0.6121;
-39.9000;0.6699;0.6146;
-39.6000;0.6707;0.6247;
-39.3000;0.6724;0.6247;
-39.0000;0.6716;0.6146;
-38.7000;0.6707;0.6197;
-38.4000;0.6707;0.6121;
-38.1000;0.6716;0.6121;
-37.8000;0.6667;0.6020;
-37.5000;0.6789;0.6348;
-37.2000;0.6756;0.6197;
-36.9000;0.6716;0.6071;
-36.6000;0.6732;0.6121;
-36.3000;0.6724;0.6146;
-36.0000;0.6707;0.6096;
-35.7000;0.6691;0.6096;
-35.4000;0.6675;0.5945;
-35.1000;0.6716;0.6071;
-34.8000;0.6707;0.5995;
-34.5000;0.6707;0.5995;
-34.2000;0.6724;0.5920;
-33.9000;0.6748;0.5920;
-33.6000;0.6716;0.5844;
-33.3000;0.6764;0.5995;
-33.0000;0.6707;0.5945;
-32.7000;0.6707;0.6071;
-32.4000;0.6724;0.5970;
-32.1000;0.6764;0.6096;
-31.8000;0.6707;0.6046;
-31.5000;0.6716;0.6046;
-31.2000;0.6707;0.6046;
-30.9000;0.6691;0.6020;
-30.6000;0.6699;0.5945;
-30.3000;0.6707;0.5945;
-30.0000;0.6707;0.5995;
-29.7000;0.6707;0.5920;
-29.4000;0.6691;0.6020;
-29.1000;0.6683;0.6071;
-28.8000;0.6707;0.6071;
-28.5000;0.6691;0.6096;
-28.2000;0.6699;0.6121;
-27.9000;0.6716;0.6172;
-27.6000;0.6740;0.6222;
-27.3000;0.6724;0.6121;
-27.0000;0.6716;0.6096;
-26.7000;0.6716;0.6121;
-26.4000;0.6699;0.6020;
-26.1000;0.6716;0.6020;
-25.8000;0.6716;0.6197;
-25.5000;0.6716;0.6222;
-25.2000;0.6724;0.6247;
-24.9000;0.6724;0.6272;
-24.6000;0.6691;0.6297;
-24.3000;0.6716;0.6373;
-24.0000;0.6659;0.6197;
-23.7000;0.6724;0.6348;
-23.4000;0.6707;0.6323;
-23.1000;0.6699;0.6247;
-22.8000;0.6724;0.6272;
-22.5000;0.6724;0.6272;
-22.2000;0.6716;0.6272;
-21.9000;0.6707;0.6272;
-21.6000;0.6724;0.6297;
-21.3000;0.6732;0.6272;
-21.0000;0.6740;0.6272;
-20.7000;0.6716;0.6323;
-20.4000;0.6716;0.6297;
-20.1000;0.6724;0.6297;
-19.8000;0.6724;0.6323;
-19.5000;0.6716;0.6323;
-19.2000;0.6707;0.6272;
-18.9000;0.6707;0.6297;
-18.6000;0.6716;0.6272;
-18.3000;0.6789;0.6474;
-18.0000;0.6707;0.6272;
-17.7000;0.6699;0.6323;
-17.4000;0.6691;0.6197;
-17.1000;0.6732;0.6222;
-16.8000;0.6699;0.6121;
-16.5000;0.6707;0.6222;
-16.2000;0.6699;0.6197;
-15.9000;0.6716;0.6146;
-15.6000;0.6716;0.6121;
-15.3000;0.6732;0.6247;
-15.0000;0.6724;0.6247;
-14.7000;0.6724;0.6222;
-14.4000;0.6716;0.6222;
-14.1000;0.6716;0.6146;
-13.8000;0.6716;0.6146;
-13.5000;0.6724;0.6247;
-13.2000;0.6707;0.6247;
-12.9000;0.6716;0.6172;
-12.6000;0.6732;0.6146;
-12.3000;0.6724;0.6121;
-12.0000;0.6732;0.6146;
-11.7000;0.6724;0.6172;
-11.4000;0.6716;0.6096;
-11.1000;0.6707;0.6121;
-10.8000;0.6797;0.6398;
-10.5000;0.6732;0.6146;
-10.2000;0.6732;0.6096;
-9.9000;0.6650;0.5819;
-9.6000;0.6716;0.6020;
-9.3000;0.6716;0.5995;
-9.0000;0.6707;0.5945;
-8.7000;0.6716;0.5920;
-8.4000;0.6724;0.6046;
-8.1000;0.6667;0.5894;
-7.8000;0.6724;0.5970;
-7.5000;0.6732;0.5945;
-7.2000;0.6716;0.5920;
-6.9000;0.6732;0.5945;
-6.6000;0.6716;0.5920;
-6.3000;0.6707;0.5894;
-6.0000;0.6675;0.5769;
-5.7000;0.6716;0.5819;
-5.4000;0.6724;0.5769;
-5.1000;0.6707;0.5668;
-4.8000;0.6707;0.5743;
-4.5000;0.6716;0.5718;
-4.2000;0.6724;0.5693;
-3.9000;0.6707;0.5693;
-3.6000;0.6667;0.5643;
-3.3000;0.6740;0.5869;
-3.0000;0.6724;0.5920;
-2.7000;0.6716;0.6020;
-2.4000;0.6707;0.6046;
-2.1000;0.6724;0.6121;
-1.8000;0.6707;0.6096;
-1.5000;0.6724;0.6046;
-1.2000;0.6724;0.6071;
-0.9000;0.6724;0.6020;
-0.6000;0.6724;0.6121;
-0.3000;0.6716;0.6197;
0.0000;0.6716;0.6197;
0.3000;0.7041;0.6423;
0.6000;0.7562;0.6776;
0.9000;0.7953;0.7204;
1.2000;0.8270;0.7633;
1.5000;0.8514;0.7935;
1.8000;0.8742;0.8363;
2.1000;0.8864;0.8413;
2.4000;0.8978;0.8489;
2.7000;0.9133;0.8791;
3.0000;0.9198;0.8917;
3.3000;0.9263;0.9043;
3.6000;0.9337;0.9018;
3.9000;0.9394;0.8993;
4.2000;0.9434;0.9018;
4.5000;0.9499;0.9094;
4.8000;0.9508;0.9144;
5.1000;0.9573;0.9270;
5.4000;0.9638;0.9320;
5.7000;0.9678;0.9371;
6.0000;0.9719;0.9421;
6.3000;0.9727;0.9421;
6.6000;0.9760;0.9295;
6.9000;0.9825;0.9345;
7.2000;0.9849;0.9371;
7.5000;0.9866;0.9345;
7.8000;0.9931;0.9421;
8.1000;0.9947;0.9522;
8.4000;0.9988;0.9572;
8.7000;1.0037;0.9623;
9.0000;1.0037;0.9522;
9.3000;1.0094;0.9497;
9.6000;1.0102;0.9471;
9.9000;1.0118;0.9446;
10.2000;1.0134;0.9471;
10.5000;1.0191;0.9572;
10.8000;1.0232;0.9623;
11.1000;1.0240;0.9597;
11.4000;1.0265;0.9572;
11.7000;1.0305;0.9547;
12.0000;1.0338;0.9597;
12.3000;1.0346;0.9522;
12.6000;1.0387;0.9497;
12.9000;1.0403;0.9572;
13.2000;1.0427;0.9547;
13.5000;1.0452;0.9572;
13.8000;1.0452;0.9623;
14.1000;1.0476;0.9698;
14.4000;1.0517;0.9749;
14.7000;1.0549;0.9698;
15.0000;1.0549;0.9572;
15.3000;1.0566;0.9446;
15.6000;1.0606;0.9446;
15.9000;1.0623;0.9371;
16.2000;1.0647;0.9497;
16.5000;1.0663;0.9572;
16.8000;1.0647;0.9497;
17.1000;1.0688;0.9547;
17.4000;1.0696;0.9547;
17.7000;1.0712;0.9547;
18.0000;1.0753;0.9623;
18.3000;1.0761;0.9547;
18.6000;1.0777;0.9547;
18.9000;1.0794;0.9522;
19.2000;1.0794;0.9497;
19.5000;1.0842;0.9597;
19.8000;1.0834;0.9648;
20.1000;1.0810;0.9547;
20.4000;1.0859;0.9648;
20.7000;1.0875;0.9572;
21.0000;1.0924;0.9623;
21.3000;1.0899;0.9497;
21.6000;1.0932;0.9648;
21.9000;1.0916;0.9673;
22.2000;1.0940;0.9723;
22.5000;1.0940;0.9723;
22.8000;1.0956;0.9749;
23.1000;1.0965;0.9799;
23.4000;1.0973;0.9799;
23.7000;1.0981;0.9749;
24.0000;1.0989;0.9799;
24.3000;1.0997;0.9698;
24.6000;1.1030;0.9723;
24.9000;1.1062;0.9799;
25.2000;1.1038;0.9723;
25.5000;1.1046;0.9723;
25.8000;1.1062;0.9723;
26.1000;1.1103;0.9723;
26.4000;1.1070;0.9547;
26.7000;1.1079;0.9497;
27.0000;1.1127;0.9673;
27.3000;1.1103;0.9623;
27.6000;1.1103;0.9723;
27.9000;1.1111;0.9673;
28.2000;1.1152;0.9698;
28.5000;1.1136;0.9698;
28.8000;1.1119;0.9648;
29.1000;1.1127;0.9597;
29.4000;1.1152;0.9547;
29.7000;1.1152;0.9648;
30.0000;1.1168;0.9648;
30.3000;1.1168;0.9597;
30.6000;1.1168;0.9597;
30.9000;1.1176;0.9572;
31.2000;1.1217;0.9547;
31.5000;1.1111;0.9320;
31.8000;1.1184;0.9371;
32.1000;1.1233;0.9421;
32.4000;1.1217;0.9471;
32.7000;1.1217;0.9446;
33.0000;1.1217;0.9446;
33.3000;1.1217;0.9446;
33.6000;1.1225;0.9547;
33.9000;1.1258;0.9623;
34.2000;1.1258;0.9673;
34.5000;1.1233;0.9648;
34.8000;1.1266;0.9648;
35.1000;1.1241;0.9673;
35.4000;1.1249;0.9673;
35.7000;1.1233;0.9673;
36.0000;1.1282;0.9774;
36.3000;1.1274;0.9723;
36.6000;1.1274;0.9774;
36.9000;1.1258;0.9723;
37.2000;1.1339;0.9799;
37.5000;1.1290;0.9572;
37.8000;1.1282;0.9497;
38.1000;1.1282;0.9497;
38.4000;1.1306;0.9522;
38.7000;1.1306;0.9572;
39.0000;1.1306;0.9572;
39.3000;1.1315;0.9471;
39.6000;1.1298;0.9396;
39.9000;1.1315;0.9396;
40.2000;1.1323;0.9396;
40.5000;1.1306;0.9320;
40.8000;1.1315;0.9295;
41.1000;1.1323;0.9270;
41.4000;1.1315;0.9320;
41.7000;1.1372;0.9471;
42.0000;1.1323;0.9320;
42.3000;1.1339;0.9396;
42.6000;1.1339;0.9446;
42.9000;1.1331;0.9421;
43.2000;1.1306;0.9396;
43.5000;1.1347;0.9471;
43.8000;1.1355;0.9572;
44.1000;1.1380;0.9597;
44.4000;1.1298;0.9371;
44.7000;1.1331;0.9396;
45.0000;1.1363;0.9522;
45.3000;1.1363;0.9547;
45.6000;1.1347;0.9522;
45.9000;1.1372;0.9572;
46.2000;1.1372;0.9597;
46.5000;1.1380;0.9572;
46.8000;1.1380;0.9572;
47.1000;1.1347;0.9471;
47.4000;1.1396;0.9497;
47.7000;1.1388;0.9446;
48.0000;1.1461;0.9723;
48.3000;1.1388;0.9497;
48.6000;1.1396;0.9547;
48.9000;1.1396;0.9547;
49.2000;1.1396;0.9497;
49.5000;1.1396;0.9572;
49.8000;1.1396;0.9572;
50.1000;1.1420;0.9623;
50.4000;1.1380;0.9446;
50.7000;1.1453;0.9623;
51.0000;1.1404;0.9547;
51.3000;1.1412;0.9547;
51.6000;1.1404;0.9471;
51.9000;1.1420;0.9446;
52.2000;1.1412;0.9446;
52.5000;1.1396;0.9345;
52.8000;1.1429;0.9421;
53.1000;1.1420;0.9446;
53.4000;1.1412;0.9371;
53.7000;1.1404;0.9421;
54.0000;1.1445;0.9421;
54.3000;1.1429;0.9446;
54.6000;1.1429;0.9421;
54.9000;1.1429;0.9446;
55.2000;1.1453;0.9471;
55.5000;1.1445;0.9421;
55.8000;1.1477;0.9497;
56.1000;1.1437;0.9371;
56.4000;1.1453;0.9396;
56.7000;1.1486;0.9396;
57.0000;1.1437;0.9396;
57.3000;1.1437;0.9320;
57.6000;1.1445;0.9220;
57.9000;1.1445;0.9270;
58.2000;1.1437;0.9270;
58.5000;1.1445;0.9295;
58.8000;1.1453;0.9320;
59.1000;1.1453;0.9371;
59.4000;1.1461;0.9345;
59.7000;1.1461;0.9320;
60.0000;1.1453;0.9270;
60.3000;1.1486;0.9245;
60.6000;1.1469;0.9194;
60.9000;1.1469;0.9194;
61.2000;1.1469;0.9220;
61.5000;1.1461;0.9144;
61.8000;1.1469;0.9144;
62.1000;1.1445;0.9144;
62.4000;1.1486;0.9194;
62.7000;1.1445;0.9194;
63.0000;1.1477;0.9320;
63.3000;1.1461;0.9220;
63.6000;1.1461;0.9169;
63.9000;1.1469;0.9345;
64.2000;1.1477;0.9371;
64.5000;1.1461;0.9295;
64.8000;1.1469;0.9245;
65.1000;1.1477;0.9245;
65.4000;1.1494;0.9345;
65.7000;1.1477;0.9220;
66.0000;1.1420;0.9068;
66.3000;1.1461;0.9169;
66.6000;1.1469;0.9194;
66.9000;1.1486;0.9245;
67.2000;1.1477;0.9295;
67.5000;1.1477;0.9320;
67.8000;1.1494;0.9320;
68.1000;1.1486;0.9245;
68.4000;1.1477;0.9320;
68.7000;1.1469;0.9396;
69.0000;1.1477;0.9421;
69.3000;1.1486;0.9396;
69.6000;1.1445;0.9245;
69.9000;1.1486;0.9270;
70.2000;1.1477;0.9245;
70.5000;1.1494;0.9119;
70.8000;1.1494;0.9119;
71.1000;1.1486;0.9094;
71.4000;1.1486;0.9119;
71.7000;1.1494;0.9094;
72.0000;1.1494;0.9068;
72.3000;1.1510;0.9119;
72.6000;1.1486;0.9144;
72.9000;1.1469;0.9068;
73.2000;1.1534;0.9295;
73.5000;1.1494;0.9270;
73.8000;1.1477;0.9320;
74.1000;1.1494;0.9345;
74.4000;1.1502;0.9396;
74.7000;1.1486;0.9295;
75.0000;1.1437;0.9194;
75.3000;1.1486;0.9320;
75.6000;1.1510;0.9371;
75.9000;1.1510;0.9270;
76.2000;1.1526;0.9371;
76.5000;1.1494;0.9220;
76.8000;1.1518;0.9194;
77.1000;1.1502;0.9245;
77.4000;1.1494;0.9295;
77.7000;1.1494;0.9220;
78.0000;1.1510;0.9169;
78.3000;1.1502;0.9220;
78.6000;1.1575;0.9396;
78.9000;1.1526;0.9320;
79.2000;1.1518;0.9396;
79.5000;1.1518;0.9371;
79.8000;1.1526;0.9421;
80.1000;1.1526;0.9371;
80.4000;1.1510;0.9446;
80.7000;1.1502;0.9396;
81.0000;1.1543;0.9497;
81.3000;1.1518;0.9270;
81.6000;1.1526;0.9320;
81.9000;1.1518;0.9320;
82.2000;1.1526;0.9320;
82.5000;1.1510;0.9295;
82.8000;1.1543;0.9396;
83.1000;1.1518;0.9371;
83.4000;1.1526;0.9371;
83.7000;1.1518;0.9320;
84.0000;1.1510;0.9270;
84.3000;1.1526;0.9270;
84.6000;1.1534;0.9295;
84.9000;1.1526;0.9270;
85.2000;1.1518;0.9194;
85.5000;1.1526;0.9245;
85.8000;1.1534;0.9345;
86.1000;1.1526;0.9345;
86.4000;1.1526;0.9295;
86.7000;1.1518;0.9295;
87.0000;1.1518;0.9320;
87.3000;1.1534;0.9245;
87.6000;1.1526;0.9144;
87.9000;1.1567;0.9295;
88.2000;1.1526;0.9194;
88.5000;1.1518;0.9094;
88.8000;1.1518;0.9169;
89.1000;1.1510;0.9169;
89.4000;1.1518;0.9220;
89.7000;1.1526;0.9320;
90.0000;1.1534;0.9345;
90.3000;1.1526;0.9371;
90.6000;1.1518;0.9270;
90.9000;1.1551;0.9295;
91.2000;1.1551;0.9270;
91.5000;1.1526;0.9169;
91.8000;1.1518;0.9169;
92.1000;1.1518;0.9144;
92.4000;1.1543;0.9220;
92.7000;1.1526;0.9144;
93.0000;1.1551;0.9220;
93.3000;1.1583;0.9245;
93.6000;1.1551;0.9194;
93.9000;1.1543;0.9295;
94.2000;1.1534;0.9220;
94.5000;1.1510;0.9194;
94.8000;1.1534;0.9245;
95.1000;1.1543;0.9119;
95.4000;1.1534;0.9094;
95.7000;1.1551;0.9119;
96.0000;1.1551;0.9169;
96.3000;1.1567;0.9169;
96.6000;1.1543;0.9194;
96.9000;1.1543;0.9169;
97.2000;1.1534;0.9169;
97.5000;1.1543;0.9144;
97.8000;1.1624;0.9396;
98.1000;1.1567;0.9345;
98.4000;1.1559;0.9320;
98.7000;1.1518;0.9245;
99.0000;1.1534;0.9295;
99.3000;1.1534;0.9320;
99.6000;1.1543;0.9345;
99.9000;1.1534;0.9295;
100.2000;1.1551;0.9270;
100.5000;1.1518;0.9094;
100.8000;1.1534;0.9144;
101.1000;1.1534;0.9194;
101.4000;1.1551;0.9220;
101.7000;1.1518;0.9119;
102.0000;1.1518;0.9094;
102.3000;1.1518;0.8993;
102.6000;1.1543;0.9068;
102.9000;1.1551;0.9018;
103.2000;1.1518;0.8942;
103.5000;1.1526;0.8892;
103.8000;1.1534;0.8917;
104.1000;1.1534;0.8867;
104.4000;1.1526;0.8892;
104.7000;1.1543;0.8917;
105.0000;1.1534;0.8917;
105.3000;1.1543;0.8942;
105.6000;1.1543;0.8993;
105.9000;1.1510;0.8968;
106.2000;1.1494;0.8993;
106.5000;1.1543;0.9043;
106.8000;1.1534;0.9094;
107.1000;1.1551;0.9094;
107.4000;1.1543;0.9169;
107.7000;1.1559;0.9094;
108.0000;1.1543;0.9043;
108.3000;1.1526;0.9068;
108.6000;1.1543;0.9119;
108.9000;1.1559;0.9144;
109.2000;1.1559;0.9144;
109.5000;1.1543;0.9119;
109.8000;1.1534;0.9144;
110.1000;1.1567;0.9295;
110.4000;1.1575;0.9345;
110.7000;1.1543;0.9270;
111.0000;1.1567;0.9245;
111.3000;1.1551;0.9220;
111.6000;1.1559;0.9245;
111.9000;1.1559;0.9295;
112.2000;1.1551;0.9345;
112.5000;1.1567;0.9446;
112.8000;1.1559;0.9547;
113.1000;1.1543;0.9547;
113.4000;1.1526;0.9446;
113.7000;1.1534;0.9446;
114.0000;1.1534;0.9497;
114.3000;1.1543;0.9547;
114.6000;1.1526;0.9522;
114.9000;1.1567;0.9547;
115.2000;1.1551;0.9421;
115.5000;1.1559;0.9345;
115.8000;1.1575;0.9320;
116.1000;1.1551;0.9295;
116.4000;1.1543;0.9295;
116.7000;1.1567;0.9345;
117.0000;1.1559;0.9295;
117.3000;1.1551;0.9295;
117.6000;1.1567;0.9320;
117.9000;1.1559;0.9295;
118.2000;1.1583;0.9345;
118.5000;1.1551;0.9270;
118.8000;1.1600;0.9345;
119.1000;1.1567;0.9270;
119.4000;1.1591;0.9320;
119.7000;1.1559;0.9345;
120.0000;1.1575;0.9345;
120.3000;1.1567;0.9295;
120.6000;1.1559;0.9295;
120.9000;1.1575;0.9270;
121.2000;1.1551;0.9270;
121.5000;1.1551;0.9396;
121.8000;1.1551;0.9446;
122.1000;1.1567;0.9371;
122.4000;1.1559;0.9320;
122.7000;1.1551;0.9345;
123.0000;1.1559;0.9245;
123.3000;1.1567;0.9169;
123.6000;1.1559;0.9169;
123.9000;1.1543;0.9220;
124.2000;1.1559;0.9320;
124.5000;1.1551;0.9295;
124.8000;1.1551;0.9245;
125.1000;1.1575;0.9295;
125.4000;1.1567;0.9320;
125.7000;1.1575;0.9270;
126.0000;1.1567;0.9295;
126.3000;1.1551;0.9320;
126.6000;1.1559;0.9396;
126.9000;1.1567;0.9497;
127.2000;1.1494;0.9245;
127.5000;1.1567;0.9371;
127.8000;1.1543;0.9320;
128.1000;1.1526;0.9169;
128.4000;1.1551;0.9194;
128.7000;1.1632;0.9396;
129.0000;1.1559;0.9194;
129.3000;1.1559;0.9245;
129.6000;1.1567;0.9270;
129.9000;1.1543;0.9270;
130.2000;1.1591;0.9345;
130.5000;1.1559;0.9194;
130.8000;1.1575;0.9245;
131.1000;1.1551;0.9320;
131.4000;1.1551;0.9295;
131.7000;1.1559;0.9245;
132.0000;1.1583;0.9295;
132.3000;1.1567;0.9144;
132.6000;1.1551;0.9094;
132.9000;1.1559;0.9094;
133.2000;1.1567;0.9094;
133.5000;1.1559;0.8993;
133.8000;1.1551;0.8993;
134.1000;1.1543;0.8968;
134.4000;1.1583;0.9094;
134.7000;1.1559;0.8993;
135.0000;1.1567;0.9094;
135.3000;1.1559;0.9144;
135.6000;1.1551;0.9169;
135.9000;1.1551;0.9194;
136.2000;1.1543;0.9245;
136.5000;1.1518;0.9144;
136.8000;1.1575;0.9245;
137.1000;1.1616;0.9371;
137.4000;1.1551;0.9245;
137.7000;1.1543;0.9295;
138.0000;1.1591;0.9421;
138.3000;1.1559;0.9270;
138.6000;1.1591;0.9371;
138.9000;1.1551;0.9245;
139.2000;1.1559;0.9295;
139.5000;1.1551;0.9396;
139.8000;1.1575;0.9446;
140.1000;1.1551;0.9345;
140.4000;1.1559;0.9396;
140.7000;1.1567;0.9320;
141.0000;1.1567;0.9270;
141.3000;1.1567;0.9270;
141.6000;1.1559;0.9320;
141.9000;1.1567;0.9371;
142.2000;1.1526;0.9270;
142.5000;1.1559;0.9295;
142.8000;1.1510;0.9169;
143.1000;1.1559;0.9245;
143.4000;1.1583;0.9295;
143.7000;1.1502;0.9043;
144.0000;1.1567;0.9245;
144.3000;1.1518;0.9169;
144.6000;1.1575;0.9371;
144.9000;1.1543;0.9270;
145.2000;1.1575;0.9295;
145.5000;1.1575;0.9345;
145.8000;1.1567;0.9270;
146.1000;1.1567;0.9194;
146.4000;1.1559;0.9220;
146.7000;1.1551;0.9169;
147.0000;1.1559;0.9220;
147.3000;1.1575;0.9270;
147.6000;1.1551;0.9295;
147.9000;1.1559;0.9295;
148.2000;1.1567;0.9345;
148.5000;1.1567;0.9295;
148.8000;1.1575;0.9295;
149.1000;1.1591;0.9320;
149.4000;1.1559;0.9194;
149.7000;1.1567;0.9245;
150.0000;1.1551;0.9119;
150.3000;1.1551;0.9119;
150.6000;1.1526;0.9043;
150.9000;1.1591;0.9220;
151.2000;1.1526;0.9144;
151.5000;1.1575;0.9270;
151.8000;1.1575;0.9295;
152.1000;1.1648;0.9497;
152.4000;1.1583;0.9345;
152.7000;1.1575;0.9320;
153.0000;1.1559;0.9320;
153.3000;1.1575;0.9295;
153.6000;1.1567;0.9371;
153.9000;1.1567;0.9295;
154.2000;1.1567;0.9245;
154.5000;1.1624;0.9371;
154.8000;1.1559;0.9144;
155.1000;1.1583;0.9169;
155.4000;1.1551;0.9169;
155.7000;1.1551;0.9169;
156.0000;1.1567;0.9270;
156.3000;1.1567;0.9194;
156.6000;1.1559;0.9169;
156.9000;1.1567;0.9270;
157.2000;1.1559;0.9270;
157.5000;1.1575;0.9295;
157.8000;1.1567;0.9270;
158.1000;1.1567;0.9320;
158.4000;1.1567;0.9295;
158.7000;1.1575;0.9295;
159.0000;1.1551;0.9220;
159.3000;1.1551;0.9245;
159.6000;1.1551;0.9245;
159.9000;1.1575;0.9345;
160.2000;1.1559;0.9320;
160.5000;1.1543;0.9295;
160.8000;1.1551;0.9320;
161.1000;1.1567;0.9295;
161.4000;1.1567;0.9295;
161.7000;1.1559;0.9220;
162.0000;1.1559;0.9220;
162.3000;1.1575;0.9345;
162.6000;1.1575;0.9421;
162.9000;1.1567;0.9446;
163.2000;1.1567;0.9396;
163.5000;1.1575;0.9396;
163.8000;1.1551;0.9320;
164.1000;1.1567;0.9320;
164.4000;1.1534;0.9245;
164.7000;1.1583;0.9320;
165.0000;1.1575;0.9295;
165.3000;1.1608;0.9396;
165.6000;1.1575;0.9295;
165.9000;1.1567;0.9194;
166.2000;1.1583;0.9320;
166.5000;1.1567;0.9295;
166.8000;1.1494;0.8993;
167.1000;1.1575;0.9194;
167.4000;1.1543;0.9220;
167.7000;1.1600;0.9396;
168.0000;1.1575;0.9371;
168.3000;1.1559;0.9245;
168.6000;1.1600;0.9295;
168.9000;1.1591;0.9295;
169.2000;1.1624;0.9396;
169.5000;1.1575;0.9220;
169.8000;1.1575;0.9194;
170.1000;1.1559;0.9194;
170.4000;1.1575;0.9320;
170.7000;1.1583;0.9396;
171.0000;1.1551;0.9295;
171.3000;1.1567;0.9295;
171.6000;1.1583;0.9371;
171.9000;1.1551;0.9345;
172.2000;1.1543;0.9220;
172.5000;1.1575;0.9396;
172.8000;1.1575;0.9396;
173.1000;1.1600;0.9371;
173.4000;1.1567;0.9245;
173.7000;1.1600;0.9371;
174.0000;1.1583;0.9396;
174.3000;1.1591;0.9371;
174.6000;1.1567;0.9371;
174.9000;1.1551;0.9371;
175.2000;1.1559;0.9396;
175.5000;1.1559;0.9345;
175.8000;1.1559;0.9345;
176.1000;1.1551;0.9421;
176.4000;1.1551;0.9497;
176.7000;1.1591;0.9547;
177.0000;1.1551;0.9446;
177.3000;1.1559;0.9421;
177.6000;1.1559;0.9371;
177.9000;1.1575;0.9345;
178.2000;1.1567;0.9371;
178.5000;1.1559;0.9446;
178.8000;1.1559;0.9421;
179.1000;1.1575;0.9396;
179.4000;1.1559;0.9371;
179.7000;1.1567;0.9446;
180.0000;1.1567;0.9371;
180.3000;1.1567;0.9345;
180.6000;1.1567;0.9371;
180.9000;1.1567;0.9320;
181.2000;1.1559;0.9245;
181.5000;1.1551;0.9220;
181.8000;1.1559;0.9245;
182.1000;1.1559;0.9220;
182.4000;1.1567;0.9245;
182.7000;1.1567;0.9295;
183.0000;1.1567;0.9345;
183.3000;1.1567;0.9270;
183.6000;1.1600;0.9270;
183.9000;1.1575;0.9220;
184.2000;1.1575;0.9245;
184.5000;1.1551;0.9194;
184.8000;1.1551;0.9169;
185.1000;1.1559;0.9194;
185.4000;1.1534;0.9144;
185.7000;1.1567;0.9270;
186.0000;1.1559;0.9220;
186.3000;1.1583;0.9169;
186.6000;1.1559;0.9169;
186.9000;1.1567;0.9220;
187.2000;1.1559;0.9270;
187.5000;1.1567;0.9270;
187.8000;1.1551;0.9295;
188.1000;1.1559;0.9371;
188.4000;1.1583;0.9345;
188.7000;1.1559;0.9245;
189.0000;1.1575;0.9270;
189.3000;1.1567;0.9169;
189.6000;1.1567;0.9094;
189.9000;1.1583;0.9068;
190.2000;1.1551;0.9043;
190.5000;1.1583;0.9194;
190.8000;1.1543;0.9144;
191.1000;1.1534;0.9119;
191.4000;1.1526;0.9094;
191.7000;1.1559;0.9144;
192.0000;1.1551;0.9119;
192.3000;1.1567;0.9144;
192.6000;1.1591;0.9295;
192.9000;1.1575;0.9245;
193.2000;1.1583;0.9270;
193.5000;1.1559;0.9220;
193.8000;1.1575;0.9220;
194.1000;1.1543;0.9094;
194.4000;1.1575;0.9144;
194.7000;1.1575;0.9194;
195.0000;1.1583;0.9144;
195.3000;1.1575;0.9220;
195.6000;1.1583;0.9270;
195.9000;1.1583;0.9270;
196.2000;1.1567;0.9169;
196.5000;1.1567;0.9068;
196.8000;1.1600;0.9194;
197.1000;1.1559;0.9144;
197.4000;1.1567;0.9194;
197.7000;1.1551;0.9068;
198.0000;1.1567;0.9068;
198.3000;1.1583;0.9094;
198.6000;1.1583;0.9043;
198.9000;1.1567;0.8993;
199.2000;1.1551;0.8993;
199.5000;1.1567;0.9018;
199.8000;1.1575;0.9018;
200.1000;1.1567;0.9043;
200.4000;1.1559;0.9094;
200.7000;1.1567;0.9144;
201.0000;1.1608;0.9194;
201.3000;1.1559;0.9119;
201.6000;1.1551;0.9068;
201.9000;1.1551;0.9094;
202.2000;1.1551;0.9144;
202.5000;1.1559;0.9119;
202.8000;1.1575;0.9068;
203.1000;1.1575;0.9068;
203.4000;1.1583;0.9043;
203.7000;1.1583;0.9119;
204.0000;1.1567;0.9119;
204.3000;1.1583;0.9194;
204.6000;1.1526;0.9094;
204.9000;1.1616;0.9245;
205.2000;1.1575;0.9068;
205.5000;1.1567;0.8993;
205.8000;1.1575;0.9119;
206.1000;1.1567;0.9119;
206.4000;1.1551;0.9068;
206.7000;1.1551;0.9018;
207.0000;1.1591;0.9144;
207.3000;1.1591;0.9194;
207.6000;1.1534;0.9094;
207.9000;1.1583;0.9270;
208.2000;1.1559;0.9144;
208.5000;1.1591;0.9245;
208.8000;1.1567;0.9144;
209.1000;1.1575;0.9169;
209.4000;1.1575;0.9169;
209.7000;1.1583;0.9094;
210.0000;1.1567;0.9018;
210.3000;1.1559;0.9018;
210.6000;1.1551;0.9094;
210.9000;1.1559;0.9169;
211.2000;1.1559;0.9119;
211.5000;1.1551;0.9043;
211.8000;1.1526;0.8942;
212.1000;1.1591;0.9043;
212.4000;1.1559;0.8968;
212.7000;1.1559;0.8867;
213.0000;1.1567;0.8867;
213.3000;1.1575;0.8917;
213.6000;1.1591;0.8917;
213.9000;1.1583;0.8892;
214.2000;1.1567;0.8842;
214.5000;1.1567;0.8917;
214.8000;1.1591;0.8867;
215.1000;1.1583;0.8867;
215.4000;1.1575;0.8867;
215.7000;1.1567;0.8993;
216.0000;1.1575;0.9043;
216.3000;1.1575;0.9094;
216.6000;1.1575;0.9043;
216.9000;1.1567;0.9144;
217.2000;1.1567;0.9194;
217.5000;1.1656;0.9371;
217.8000;1.1567;0.9094;
218.1000;1.1543;0.9119;
218.4000;1.1567;0.9094;
218.7000;1.1575;0.9094;
219.0000;1.1648;0.9320;
219.3000;1.1559;0.9119;
219.6000;1.1616;0.9245;
219.9000;1.1559;0.9119;
220.2000;1.1567;0.9144;
220.5000;1.1551;0.9119;
220.8000;1.1583;0.9169;
221.1000;1.1559;0.9094;
221.4000;1.1575;0.9169;
221.7000;1.1567;0.9220;
222.0000;1.1551;0.9194;
222.3000;1.1551;0.9068;
222.6000;1.1567;0.8968;
222.9000;1.1575;0.9018;
223.2000;1.1567;0.9018;
223.5000;1.1575;0.8968;
223.8000;1.1575;0.8993;
224.1000;1.1583;0.8917;
224.4000;1.1567;0.8917;
224.7000;1.1583;0.8968;
225.0000;1.1591;0.8942;
225.3000;1.1591;0.8942;
225.6000;1.1575;0.8816;
225.9000;1.1575;0.8942;
226.2000;1.1575;0.9068;
226.5000;1.1575;0.9094;
226.8000;1.1583;0.9094;
227.1000;1.1551;0.9068;
227.4000;1.1559;0.9068;
227.7000;1.1567;0.9169;
228.0000;1.1567;0.9144;
228.3000;1.1559;0.9144;
228.6000;1.1591;0.9169;
228.9000;1.1559;0.9169;
229.2000;1.1559;0.9194;
229.5000;1.1559;0.9220;
229.8000;1.1567;0.9295;
230.1000;1.1543;0.9169;
230.4000;1.1543;0.9119;
230.7000;1.1543;0.9144;
231.0000;1.1567;0.9169;
231.3000;1.1567;0.9194;
231.6000;1.1575;0.9194;
231.9000;1.1543;0.9068;
232.2000;1.1559;0.9068;
232.5000;1.1624;0.9320;
232.8000;1.1567;0.9119;
233.1000;1.1551;0.9094;
233.4000;1.1559;0.9194;
233.7000;1.1551;0.9194;
234.0000;1.1575;0.9194;
234.3000;1.1551;0.9144;
234.6000;1.1551;0.9068;
234.9000;1.1567;0.9018;
235.2000;1.1575;0.9094;
235.5000;1.1575;0.8942;
235.8000;1.1559;0.8917;
236.1000;1.1559;0.8942;
236.4000;1.1575;0.8942;
236.7000;1.1583;0.8993;
237.0000;1.1583;0.9043;
237.3000;1.1543;0.8993;
237.6000;1.1567;0.9043;
237.9000;1.1575;0.9018;
238.2000;1.1575;0.9169;
238.5000;1.1567;0.9094;
238.8000;1.1559;0.9220;
239.1000;1.1583;0.9295;
239.4000;1.1591;0.9270;
239.7000;1.1567;0.9194;
240.0000;1.1591;0.9245;
240.3000;1.1567;0.9270;
240.6000;1.1567;0.9245;
240.9000;1.1559;0.9270;
241.2000;1.1567;0.9194;
241.5000;1.1616;0.9345;
241.8000;1.1583;0.9220;
242.1000;1.1591;0.9270;
242.4000;1.1567;0.9169;
242.7000;1.1608;0.9245;
243.0000;1.1567;0.9119;
243.3000;1.1648;0.9295;
243.6000;1.1632;0.9270;
243.9000;1.1600;0.9194;
244.2000;1.1534;0.9043;
244.5000;1.1567;0.9094;
244.8000;1.1543;0.9068;
245.1000;1.1543;0.9043;
245.4000;1.1583;0.9094;
245.7000;1.1551;0.8993;
246.0000;1.1600;0.9094;
246.3000;1.1551;0.8993;
246.6000;1.1591;0.9119;
246.9000;1.1591;0.9144;
247.2000;1.1583;0.9094;
247.5000;1.1559;0.9068;
247.8000;1.1575;0.9068;
248.1000;1.1575;0.9068;
248.4000;1.1575;0.9068;
248.7000;1.1591;0.9018;
249.0000;1.1567;0.9068;
249.3000;1.1567;0.9043;
249.6000;1.1559;0.9119;
249.9000;1.1608;0.9270;
250.2000;1.1551;0.9094;
250.5000;1.1567;0.9220;
250.8000;1.1559;0.9270;
251.1000;1.1559;0.9320;
251.4000;1.1559;0.9320;
251.7000;1.1551;0.9396;
252.0000;1.1559;0.9320;
252.3000;1.1567;0.9320;
252.6000;1.1534;0.9194;
252.9000;1.1559;0.9270;
253.2000;1.1567;0.9220;
253.5000;1.1559;0.9220;
253.8000;1.1567;0.9194;
254.1000;1.1543;0.9169;
254.4000;1.1575;0.9220;
254.7000;1.1567;0.9245;
255.0000;1.1551;0.9169;
255.3000;1.1543;0.9144;
255.6000;1.1551;0.9119;
255.9000;1.1559;0.9194;
256.2000;1.1559;0.9270;
256.5000;1.1551;0.9194;
256.8000;1.1583;0.9169;
257.1000;1.1551;0.9144;
257.4000;1.1567;0.9169;
257.7000;1.1551;0.9119;
258.0000;1.1551;0.9144;
258.3000;1.1567;0.9194;
258.6000;1.1559;0.9169;
258.9000;1.1559;0.9144;
259.2000;1.1526;0.8993;
259.5000;1.1534;0.9119;
259.8000;1.1551;0.9068;
260.1000;1.1551;0.8993;
260.4000;1.1559;0.9043;
260.7000;1.1567;0.9018;
261.0000;1.1526;0.8867;
261.3000;1.1640;0.9068;
261.6000;1.1567;0.8791;
261.9000;1.1559;0.8766;
262.2000;1.1567;0.8942;
262.5000;1.1575;0.8942;
262.8000;1.1510;0.8816;
263.1000;1.1551;0.8917;
263.4000;1.1551;0.8993;
263.7000;1.1640;0.9295;
264.0000;1.1567;0.9043;
264.3000;1.1551;0.8942;
264.6000;1.1543;0.8917;
264.9000;1.1559;0.9043;
265.2000;1.1526;0.8892;
265.5000;1.1518;0.8867;
265.8000;1.1518;0.8968;
266.1000;1.1559;0.9043;
266.4000;1.1559;0.8942;
266.7000;1.1583;0.9018;
267.0000;1.1591;0.8993;
267.3000;1.1575;0.8993;
267.6000;1.1518;0.8842;
267.9000;1.1526;0.9018;
268.2000;1.1551;0.9068;
268.5000;1.1575;0.9094;
268.8000;1.1551;0.9094;
269.1000;1.1567;0.9169;
269.4000;1.1551;0.9119;
269.7000;1.1567;0.9194;
270.0000;1.1575;0.9043;
270.3000;1.1559;0.9043;
270.6000;1.1559;0.8993;
270.9000;1.1583;0.9043;
271.2000;1.1559;0.8968;
271.5000;1.1559;0.9068;
271.8000;1.1551;0.9043;
272.1000;1.1559;0.8993;
272.4000;1.1559;0.9068;
272.7000;1.1543;0.9119;
273.0000;1.1559;0.9068;
273.3000;1.1575;0.9119;
273.6000;1.1567;0.9068;
273.9000;1.1559;0.8993;
274.2000;1.1567;0.9043;
274.5000;1.1575;0.9043;
274.8000;1.1567;0.9018;
275.1000;1.1575;0.8942;
275.4000;1.1551;0.8892;
275.7000;1.1543;0.8842;
276.0000;1.1616;0.9068;
276.3000;1.1567;0.9018;
276.6000;1.1567;0.8968;
276.9000;1.1526;0.8892;
277.2000;1.1551;0.8942;
277.5000;1.1518;0.8867;
277.8000;1.1551;0.9068;
278.1000;1.1551;0.9094;
278.4000;1.1551;0.9144;
278.7000;1.1575;0.9169;
279.0000;1.1559;0.9119;
279.3000;1.1559;0.8993;
279.6000;1.1551;0.8942;
279.9000;1.1575;0.8942;
280.2000;1.1551;0.8842;
280.5000;1.1551;0.8816;
280.8000;1.1567;0.8816;
281.1000;1.1559;0.8892;
281.4000;1.1583;0.8892;
281.7000;1.1575;0.8892;
282.0000;1.1551;0.8892;
282.3000;1.1543;0.8917;
282.6000;1.1551;0.8942;
282.9000;1.1551;0.8993;
283.2000;1.1534;0.8917;
283.5000;1.1567;0.8942;
283.8000;1.1567;0.8942;
284.1000;1.1600;0.9094;
284.4000;1.1551;0.8993;
284.7000;1.1551;0.8968;
285.0000;1.1543;0.9018;
285.3000;1.1567;0.9043;
285.6000;1.1559;0.9043;
285.9000;1.1551;0.8917;
286.2000;1.1543;0.8842;
286.5000;1.1567;0.8917;
286.8000;1.1559;0.8892;
287.1000;1.1559;0.8917;
287.4000;1.1551;0.9018;
287.7000;1.1567;0.9068;
288.0000;1.1559;0.8993;
288.3000;1.1559;0.8993;
288.6000;1.1551;0.8993;
288.9000;1.1567;0.9169;
289.2000;1.1575;0.9169;
289.5000;1.1600;0.9194;
289.8000;1.1567;0.9119;
290.1000;1.1567;0.9194;
290.4000;1.1575;0.9144;
290.7000;1.1559;0.9094;
291.0000;1.1567;0.9068;
291.3000;1.1591;0.9119;
291.6000;1.1559;0.8993;
291.9000;1.1551;0.8968;
292.2000;1.1559;0.8942;
292.5000;1.1567;0.8867;
292.8000;1.1510;0.8691;
293.1000;1.1559;0.8842;
293.4000;1.1551;0.8892;
293.7000;1.1559;0.8892;
294.0000;1.1567;0.8968;
294.3000;1.1551;0.8993;
294.6000;1.1543;0.9018;
294.9000;1.1567;0.9043;
295.2000;1.1575;0.9068;
295.5000;1.1575;0.9068;
295.8000;1.1575;0.9018;
296.1000;1.1567;0.9068;
296.4000;1.1575;0.9043;
296.7000;1.1559;0.9043;
297.0000;1.1567;0.9043;
297.3000;1.1559;0.9018;
297.6000;1.1559;0.8842;
297.9000;1.1575;0.8942;
298.2000;1.1567;0.8993;
298.5000;1.1559;0.9094;
298.8000;1.1559;0.9119;
299.1000;1.1551;0.9119;
299.4000;1.1616;0.9245;
299.7000;1.1559;0.9144;
300.0000;1.1583;0.9295;
300.3000;1.1575;0.9270;
300.6000;1.1559;0.9194;
300.9000;1.1559;0.9119;
301.2000;1.1534;0.9169;
301.5000;1.1567;0.9320;
301.8000;1.1559;0.9295;
302.1000;1.1559;0.9270;
302.4000;1.1543;0.9245;
302.7000;1.1551;0.9220;
303.0000;1.1534;0.9194;
303.3000;1.1551;0.9169;
303.6000;1.1543;0.9144;
303.9000;1.1567;0.9094;
304.2000;1.1575;0.9094;
304.5000;1.1559;0.9119;
304.8000;1.1543;0.9245;
305.1000;1.1543;0.9270;
305.4000;1.1600;0.9320;
305.7000;1.1559;0.9220;
306.0000;1.1551;0.9270;
306.3000;1.1551;0.9169;
306.6000;1.1559;0.9144;
306.9000;1.1567;0.9119;
307.2000;1.1567;0.9144;
307.5000;1.1567;0.9119;
307.8000;1.1559;0.9119;
308.1000;1.1510;0.9018;
308.4000;1.1575;0.9094;
308.7000;1.1567;0.9144;
309.0000;1.1567;0.9094;
309.3000;1.1575;0.9018;
309.6000;1.1575;0.8942;
309.9000;1.1567;0.8968;
310.2000;1.1518;0.8791;
310.5000;1.1583;0.8968;
310.8000;1.1551;0.8867;
311.1000;1.1551;0.8816;
311.4000;1.1559;0.8766;
311.7000;1.1559;0.8867;
312.0000;1.1559;0.8968;
312.3000;1.1551;0.8968;
312.6000;1.1543;0.8917;
312.9000;1.1551;0.8993;
313.2000;1.1559;0.8968;
313.5000;1.1534;0.8968;
313.8000;1.1551;0.8993;
314.1000;1.1543;0.8993;
314.4000;1.1551;0.9094;
314.7000;1.1551;0.8993;
315.0000;1.1559;0.9068;
315.3000;1.1559;0.9094;
315.6000;1.1575;0.9068;
315.9000;1.1559;0.9068;
316.2000;1.1575;0.9220;
316.5000;1.1583;0.9295;
316.8000;1.1543;0.9169;
317.1000;1.1575;0.9169;
317.4000;1.1551;0.9119;
317.7000;1.1543;0.9068;
318.0000;1.1551;0.9144;
318.3000;1.1559;0.9144;
318.6000;1.1567;0.9220;
318.9000;1.1543;0.9245;
319.2000;1.1559;0.9194;
319.5000;1.1559;0.9220;
319.8000;1.1526;0.9220;
320.1000;1.1543;0.9295;
320.4000;1.1567;0.9371;
320.7000;1.1567;0.9295;
321.0000;1.1583;0.9396;
321.3000;1.1551;0.9295;
321.6000;1.1575;0.9295;
321.9000;1.1616;0.9421;
322.2000;1.1559;0.9245;
322.5000;1.1486;0.9043;
322.8000;1.1551;0.9220;
323.1000;1.1575;0.9295;
323.4000;1.1591;0.9421;
323.7000;1.1551;0.9169;
324.0000;1.1583;0.9295;
324.3000;1.1551;0.9245;
324.6000;1.1551;0.9194;
324.9000;1.1567;0.9169;
325.2000;1.1551;0.9245;
325.5000;1.1567;0.9194;
325.8000;1.1575;0.9220;
326.1000;1.1559;0.9169;
326.4000;1.1534;0.9094;
326.7000;1.1551;0.9144;
327.0000;1.1583;0.9245;
327.3000;1.1534;0.9119;
327.6000;1.1559;0.9068;
327.9000;1.1543;0.9043;
328.2000;1.1559;0.9094;
328.5000;1.1559;0.9094;
328.8000;1.1559;0.9043;
329.1000;1.1551;0.9068;
329.4000;1.1543;0.8993;
329.7000;1.1567;0.9144;
330.0000;1.1518;0.9043;
330.3000;1.1559;0.9119;
330.6000;1.1559;0.9119;
330.9000;1.1551;0.9119;
331.2000;1.1608;0.9169;
331.5000;1.1559;0.9119;
331.8000;1.1567;0.9144;
332.1000;1.1567;0.9144;
332.4000;1.1551;0.9220;
332.7000;1.1551;0.9295;
333.0000;1.1543;0.9245;
333.3000;1.1543;0.9169;
333.6000;1.1551;0.9169;
333.9000;1.1543;0.9169;
334.2000;1.1543;0.9194;
334.5000;1.1559;0.9194;
334.8000;1.1551;0.9194;
335.1000;1.1543;0.9144;
335.4000;1.1559;0.9068;
335.7000;1.1559;0.9094;
336.0000;1.1567;0.9068;
336.3000;1.1551;0.9144;
336.6000;1.1591;0.9245;
336.9000;1.1543;0.9220;
337.2000;1.1551;0.9144;
337.5000;1.1543;0.9144;
337.8000;1.1543;0.9094;
338.1000;1.1543;0.8968;
338.4000;1.1551;0.8968;
338.7000;1.1469;0.8791;
339.0000;1.1559;0.9018;
339.3000;1.1543;0.8968;
339.6000;1.1543;0.8917;
339.9000;1.1559;0.8942;
340.2000;1.1559;0.8968;
340.5000;1.1551;0.8993;
340.8000;1.1567;0.9018;
341.1000;1.1583;0.9068;
341.4000;1.1551;0.9018;
341.7000;1.1575;0.9043;
342.0000;1.1575;0.9018;
342.3000;1.1583;0.9119;
342.6000;1.1567;0.9094;
342.9000;1.1551;0.9043;
343.2000;1.1567;0.9169;
343.5000;1.1575;0.9119;
343.8000;1.1567;0.9094;
344.1000;1.1567;0.9094;
344.4000;1.1559;0.9144;
344.7000;1.1551;0.9169;
345.0000;1.1551;0.9245;
345.3000;1.1559;0.9245;
345.6000;1.1567;0.9320;
345.9000;1.1616;0.9396;
346.2000;1.1567;0.9245;
346.5000;1.1534;0.9094;
346.8000;1.1543;0.9068;
347.1000;1.1559;0.9119;
347.4000;1.1567;0.9144;
347.7000;1.1551;0.9068;
348.0000;1.1543;0.9119;
348.3000;1.1534;0.9094;
348.6000;1.1551;0.9094;
348.9000;1.1559;0.9119;
349.2000;1.1567;0.9245;
349.5000;1.1534;0.9169;
349.8000;1.1575;0.9194;
350.1000;1.1575;0.9144;
350.4000;1.1543;0.9043;
350.7000;1.1567;0.9094;
351.0000;1.1543;0.9018;
351.3000;1.1559;0.9119;
351.6000;1.1543;0.9068;
351.9000;1.1559;0.9094;
352.2000;1.1551;0.9094;
352.5000;1.1559;0.9068;
352.8000;1.1551;0.8968;
353.1000;1.1551;0.8993;
353.4000;1.1534;0.8942;
353.7000;1.1559;0.9094;
354.0000;1.1526;0.9043;
354.3000;1.1559;0.9043;
354.6000;1.1534;0.8993;
354.9000;1.1551;0.9043;
355.2000;1.1486;0.8917;
355.5000;1.1575;0.9194;
355.8000;1.1575;0.9119;
356.1000;1.1543;0.8993;
356.4000;1.1543;0.8942;
356.7000;1.1551;0.8917;
357.0000;1.1551;0.8993;
357.3000;1.1567;0.9018;
357.6000;1.1567;0.9144;
357.9000;1.1591;0.9220;
358.2000;1.1526;0.9094;
358.5000;1.1559;0.9245;
358.8000;1.1518;0.9119;
359.1000;1.1559;0.9220;
359.4000;1.1551;0.9220;
359.7000;1.1477;0.9043;
360.0000;1.1543;0.9194;
360.3000;1.1551;0.9270;
360.6000;1.1534;0.9169;
360.9000;1.1526;0.9220;
361.2000;1.1518;0.9169;
361.5000;1.1543;0.9169;
361.8000;1.1534;0.9119;
362.1000;1.1534;0.9094;
362.4000;1.1543;0.9068;
362.7000;1.1551;0.9094;
363.0000;1.1551;0.9144;
363.3000;1.1534;0.9018;
363.6000;1.1534;0.9018;
363.9000;1.1559;0.9119;
364.2000;1.1567;0.9144;
364.5000;1.1543;0.9068;
364.8000;1.1551;0.8993;
365.1000;1.1543;0.8968;
365.4000;1.1567;0.9119;
365.7000;1.1559;0.9144;
366.0000;1.1567;0.9245;
366.3000;1.1559;0.9194;
366.6000;1.1559;0.9220;
366.9000;1.1567;0.9194;
367.2000;1.1551;0.9144;
367.5000;1.1551;0.9144;
367.8000;1.1567;0.9270;
368.1000;1.1559;0.9194;
368.4000;1.1559;0.9194;
368.7000;1.1543;0.9144;
369.0000;1.1551;0.9119;
369.3000;1.1583;0.9169;
369.6000;1.1551;0.9094;
369.9000;1.1559;0.9169;
370.2000;1.1551;0.9169;
370.5000;1.1518;0.9144;
370.8000;1.1543;0.9194;
371.1000;1.1559;0.9169;
371.4000;1.1543;0.9194;
371.7000;1.1567;0.9320;
372.0000;1.1543;0.9220;
372.3000;1.1543;0.9169;
372.6000;1.1534;0.9194;
372.9000;1.1518;0.9068;
373.2000;1.1551;0.9119;
373.5000;1.1551;0.9119;
373.8000;1.1543;0.9043;
374.1000;1.1502;0.8968;
374.4000;1.1551;0.9144;
374.7000;1.1648;0.9371;
375.0000;1.1518;0.9094;
375.3000;1.1608;0.9270;
375.6000;1.1551;0.9144;
375.9000;1.1526;0.9144;
376.2000;1.1502;0.9068;
376.5000;1.1543;0.9119;
376.8000;1.1551;0.9094;
377.1000;1.1551;0.9144;
377.4000;1.1551;0.9220;
377.7000;1.1526;0.9194;
378.0000;1.1543;0.9245;
378.3000;1.1534;0.9220;
378.6000;1.1559;0.9295;
378.9000;1.1551;0.9220;
379.2000;1.1559;0.9169;
379.5000;1.1559;0.9068;
379.8000;1.1543;0.8993;
380.1000;1.1559;0.9018;
380.4000;1.1551;0.9043;
380.7000;1.1575;0.9043;
381.0000;1.1559;0.8968;
381.3000;1.1543;0.8993;
381.6000;1.1534;0.8942;
381.9000;1.1534;0.9043;
382.2000;1.1534;0.9043;
382.5000;1.1583;0.9119;
382.8000;1.1543;0.8968;
383.1000;1.1551;0.9094;
383.4000;1.1551;0.9169;
383.7000;1.1543;0.9169;
384.0000;1.1543;0.9169;
384.3000;1.1543;0.9043;
384.6000;1.1543;0.8942;
384.9000;1.1567;0.9043;
385.2000;1.1543;0.8892;
385.5000;1.1543;0.9018;
385.8000;1.1551;0.9043;
386.1000;1.1551;0.9119;
386.4000;1.1551;0.9094;
386.7000;1.1559;0.9068;
387.0000;1.1567;0.9119;
387.3000;1.1551;0.9245;
387.6000;1.1543;0.9270;
387.9000;1.1559;0.9169;
388.2000;1.1567;0.9270;
388.5000;1.1559;0.9220;
388.8000;1.1551;0.9194;
389.1000;1.1559;0.9245;
389.4000;1.1567;0.9169;
389.7000;1.1551;0.9119;
390.0000;1.1526;0.9094;
390.3000;1.1559;0.9169;
390.6000;1.1534;0.9119;
390.9000;1.1559;0.9144;
391.2000;1.1543;0.9068;
391.5000;1.1518;0.8993;
391.8000;1.1567;0.9119;
392.1000;1.1551;0.9018;
392.4000;1.1583;0.9043;
392.7000;1.1534;0.8892;
393.0000;1.1543;0.8892;
393.3000;1.1559;0.8993;
393.6000;1.1543;0.9018;
393.9000;1.1543;0.8968;
394.2000;1.1567;0.9043;
394.5000;1.1543;0.8942;
394.8000;1.1551;0.8942;
395.1000;1.1543;0.8842;
395.4000;1.1526;0.8741;
395.7000;1.1534;0.8766;
396.0000;1.1551;0.8766;
396.3000;1.1551;0.8968;
396.6000;1.1559;0.9043;
396.9000;1.1551;0.8993;
397.2000;1.1583;0.9094;
397.5000;1.1551;0.9068;
397.8000;1.1551;0.9119;
398.1000;1.1543;0.9119;
398.4000;1.1526;0.9094;
398.7000;1.1518;0.9094;
399.0000;1.1543;0.9169;
399.3000;1.1543;0.9094;
399.6000;1.1551;0.9119;
399.9000;1.1559;0.9018;
400.2000;1.1543;0.8892;
400.5000;1.1543;0.8867;
400.8000;1.1551;0.8842;
401.1000;1.1583;0.8968;
401.4000;1.1543;0.8867;
401.7000;1.1551;0.8867;
402.0000;1.1551;0.8968;
402.3000;1.1543;0.9119;
402.6000;1.1559;0.9094;
402.9000;1.1551;0.8993;
403.2000;1.1510;0.8867;
403.5000;1.1543;0.8942;
403.8000;1.1551;0.8917;
404.1000;1.1551;0.8942;
404.4000;1.1551;0.9018;
404.7000;1.1543;0.8993;
405.0000;1.1551;0.8993;
405.3000;1.1567;0.9018;
405.6000;1.1551;0.8993;
405.9000;1.1567;0.9043;
406.2000;1.1559;0.9018;
406.5000;1.1534;0.8842;
406.8000;1.1543;0.8791;
407.1000;1.1534;0.8867;
407.4000;1.1551;0.8942;
407.7000;1.1534;0.9018;
408.0000;1.1551;0.9094;
408.3000;1.1543;0.9068;
408.6000;1.1567;0.9169;
408.9000;1.1559;0.9169;
409.2000;1.1551;0.9119;
409.5000;1.1526;0.9094;
409.8000;1.1551;0.9144;
410.1000;1.1551;0.9119;
410.4000;1.1543;0.9043;
410.7000;1.1543;0.8968;
411.0000;1.1543;0.8968;
411.3000;1.1551;0.8968;
411.6000;1.1567;0.9068;
411.9000;1.1551;0.9094;
412.2000;1.1551;0.9119;
412.5000;1.1559;0.9169;
412.8000;1.1567;0.9245;
413.1000;1.1575;0.9245;
413.4000;1.1551;0.9144;
413.7000;1.1583;0.9144;
414.0000;1.1559;0.9194;
414.3000;1.1551;0.9144;
414.6000;1.1559;0.9119;
414.9000;1.1551;0.9043;
415.2000;1.1551;0.9018;
415.5000;1.1543;0.9018;
415.8000;1.1543;0.8968;
416.1000;1.1551;0.9043;
416.4000;1.1534;0.9094;
416.7000;1.1559;0.9169;
417.0000;1.1543;0.9119;
417.3000;1.1551;0.9144;
417.6000;1.1543;0.9144;
417.9000;1.1559;0.9194;
418.2000;1.1559;0.9169;
418.5000;1.1518;0.9119;
418.8000;1.1510;0.9119;
419.1000;1.1567;0.9169;
419.4000;1.1551;0.9043;
419.7000;1.1534;0.9043;
420.0000;1.1551;0.9144;
420.3000;1.1551;0.9169;
420.6000;1.1551;0.9220;
420.9000;1.1534;0.9220;
421.2000;1.1551;0.9245;
421.5000;1.1551;0.9220;
421.8000;1.1534;0.9144;
422.1000;1.1551;0.9144;
422.4000;1.1583;0.9144;
422.7000;1.1551;0.9068;
423.0000;1.1543;0.8968;
423.3000;1.1559;0.8968;
423.6000;1.1551;0.8968;
423.9000;1.1559;0.8993;
424.2000;1.1567;0.9043;
424.5000;1.1551;0.9094;
424.8000;1.1551;0.9144;
425.1000;1.1534;0.8993;
425.4000;1.1551;0.9018;
425.7000;1.1510;0.8917;
426.0000;1.1534;0.8917;
426.3000;1.1526;0.8942;
426.6000;1.1543;0.8993;
426.9000;1.1526;0.9018;
427.2000;1.1518;0.8993;
427.5000;1.1543;0.9094;
427.8000;1.1518;0.9119;
428.1000;1.1559;0.9169;
428.4000;1.1551;0.9144;
428.7000;1.1551;0.9144;
429.0000;1.1543;0.9119;
429.3000;1.1559;0.8993;
429.6000;1.1551;0.9043;
429.9000;1.1559;0.9018;
430.2000;1.1551;0.9068;
430.5000;1.1551;0.9194;
430.8000;1.1543;0.9119;
431.1000;1.1543;0.9144;
431.4000;1.1543;0.9220;
431.7000;1.1526;0.9295;
432.0000;1.1534;0.9245;
432.3000;1.1543;0.9220;
432.6000;1.1526;0.9194;
432.9000;1.1534;0.9220;
433.2000;1.1543;0.9169;
433.5000;1.1502;0.9119;
433.8000;1.1551;0.9169;
434.1000;1.1559;0.9194;
434.4000;1.1551;0.9169;
434.7000;1.1551;0.9270;
435.0000;1.1551;0.9371;
435.3000;1.1551;0.9371;
435.6000;1.1559;0.9345;
435.9000;1.1526;0.9270;
436.2000;1.1543;0.9345;
436.5000;1.1510;0.9270;
436.8000;1.1543;0.9421;
437.1000;1.1534;0.9446;
437.4000;1.1543;0.9371;
437.7000;1.1543;0.9320;
438.0000;1.1534;0.9320;
438.3000;1.1543;0.9345;
438.6000;1.1510;0.9245;
438.9000;1.1543;0.9245;
439.2000;1.1534;0.9295;
439.5000;1.1559;0.9295;
439.8000;1.1551;0.9270;
440.1000;1.1624;0.9471;
440.4000;1.1534;0.9270;
440.7000;1.1551;0.9320;
441.0000;1.1534;0.9169;
441.3000;1.1534;0.9144;
441.6000;1.1543;0.9094;
441.9000;1.1534;0.9094;
442.2000;1.1534;0.9018;
442.5000;1.1543;0.9043;
442.8000;1.1461;0.8816;
443.1000;1.1502;0.8993;
443.4000;1.1534;0.9018;
443.7000;1.1543;0.8993;
444.0000;1.1526;0.8942;
444.3000;1.1543;0.9018;
444.6000;1.1567;0.9119;
444.9000;1.1534;0.9018;
445.2000;1.1551;0.9043;
445.5000;1.1534;0.9043;
445.8000;1.1575;0.9094;
446.1000;1.1551;0.9018;
446.4000;1.1575;0.9043;
446.7000;1.1543;0.8942;
447.0000;1.1534;0.8968;
447.3000;1.1551;0.9068;
447.6000;1.1543;0.9094;
447.9000;1.1534;0.9094;
448.2000;1.1608;0.9220;
448.5000;1.1575;0.9144;
448.8000;1.1575;0.9144;
449.1000;1.1551;0.9119;
449.4000;1.1551;0.9018;
449.7000;1.1543;0.9018;
450.0000;1.1518;0.9018;
450.3000;1.1534;0.9068;
450.6000;1.1559;0.9094;
450.9000;1.1551;0.9119;
451.2000;1.1543;0.9094;
451.5000;1.1477;0.8917;
451.8000;1.1526;0.9094;
452.1000;1.1543;0.9094;
452.4000;1.1543;0.9144;
452.7000;1.1469;0.8993;
453.0000;1.1534;0.9119;
453.3000;1.1543;0.9119;
453.6000;1.1534;0.9144;
453.9000;1.1543;0.9144;
454.2000;1.1526;0.9068;
454.5000;1.1543;0.9220;
454.8000;1.1559;0.9194;
455.1000;1.1534;0.9119;
455.4000;1.1551;0.9119;
455.7000;1.1551;0.9169;
456.0000;1.1559;0.9144;
456.3000;1.1543;0.9043;
456.6000;1.1534;0.9094;
456.9000;1.1543;0.9194;
457.2000;1.1543;0.9245;
457.5000;1.1534;0.9169;
457.8000;1.1551;0.9119;
458.1000;1.1559;0.8942;
458.4000;1.1575;0.8993;
458.7000;1.1559;0.9068;
459.0000;1.1543;0.9043;
459.3000;1.1543;0.9043;
459.6000;1.1543;0.9043;
459.9000;1.1534;0.9094;
460.2000;1.1567;0.9169;
460.5000;1.1543;0.9094;
460.8000;1.1534;0.9119;
461.1000;1.1526;0.9043;
461.4000;1.1559;0.9094;
461.7000;1.1534;0.9043;
462.0000;1.1526;0.8968;
462.3000;1.1510;0.8993;
462.6000;1.1510;0.8917;
462.9000;1.1526;0.9018;
463.2000;1.1559;0.9068;
463.5000;1.1551;0.9018;
463.8000;1.1534;0.8993;
464.1000;1.1534;0.9144;
464.4000;1.1526;0.9094;
464.7000;1.1543;0.9068;
465.0000;1.1591;0.9169;
465.3000;1.1526;0.8917;
465.6000;1.1534;0.8892;
465.9000;1.1526;0.8917;
466.2000;1.1559;0.9018;
466.5000;1.1543;0.9068;
466.8000;1.1543;0.9119;
467.1000;1.1551;0.9245;
467.4000;1.1543;0.9270;
467.7000;1.1543;0.9220;
468.0000;1.1502;0.9068;
468.3000;1.1543;0.9068;
468.6000;1.1559;0.9094;
468.9000;1.1526;0.8993;
469.2000;1.1534;0.9018;
469.5000;1.1518;0.8917;
469.8000;1.1559;0.8968;
470.1000;1.1543;0.8917;
470.4000;1.1551;0.8892;
470.7000;1.1567;0.8968;
471.0000;1.1534;0.8968;
471.3000;1.1551;0.9018;
471.6000;1.1551;0.9043;
471.9000;1.1543;0.9068;
472.2000;1.1543;0.9068;
472.5000;1.1526;0.9094;
472.8000;1.1510;0.8993;
473.1000;1.1526;0.8942;
473.4000;1.1518;0.8917;
473.7000;1.1494;0.8842;
474.0000;1.1518;0.8993;
474.3000;1.1534;0.9068;
474.6000;1.1526;0.9068;
474.9000;1.1673;0.9345;
475.2000;1.1559;0.9119;
475.5000;1.1559;0.9094;
475.8000;1.1534;0.9094;
476.1000;1.1510;0.9043;
476.4000;1.1534;0.9043;
476.7000;1.1551;0.9094;
477.0000;1.1543;0.9018;
477.3000;1.1551;0.9043;
477.6000;1.1543;0.8968;
477.9000;1.1534;0.8942;
478.2000;1.1543;0.9068;
478.5000;1.1534;0.8942;
478.8000;1.1526;0.8917;
479.1000;1.1551;0.8968;
479.4000;1.1551;0.9018;
479.7000;1.1526;0.9043;
480.0000;1.1543;0.8968;
480.3000;1.1551;0.8968;
480.6000;1.1543;0.8968;
480.9000;1.1543;0.8917;
481.2000;1.1551;0.8968;
481.5000;1.1543;0.8816;
481.8000;1.1526;0.8716;
482.1000;1.1534;0.8741;
482.4000;1.1526;0.8791;
482.7000;1.1534;0.8791;
483.0000;1.1543;0.8791;
483.3000;1.1534;0.8766;
483.6000;1.1494;0.8741;
483.9000;1.1526;0.8892;
484.2000;1.1526;0.8942;
484.5000;1.1526;0.8917;
484.8000;1.1543;0.8942;
485.1000;1.1534;0.8867;
485.4000;1.1534;0.8816;
485.7000;1.1534;0.8867;
486.0000;1.1600;0.9119;
486.3000;1.1526;0.8942;
486.6000;1.1575;0.9094;
486.9000;1.1543;0.8993;
487.2000;1.1551;0.8993;
487.5000;1.1526;0.8993;
487.8000;1.1526;0.9119;
488.1000;1.1534;0.9169;
488.4000;1.1534;0.9119;
488.7000;1.1518;0.9169;
489.0000;1.1526;0.9194;
489.3000;1.1534;0.9169;
489.6000;1.1518;0.9094;
489.9000;1.1518;0.9043;
490.2000;1.1534;0.9043;
490.5000;1.1534;0.8968;
490.8000;1.1551;0.8942;
491.1000;1.1551;0.8917;
491.4000;1.1543;0.8917;
491.7000;1.1551;0.8942;
492.0000;1.1583;0.8993;
492.3000;1.1543;0.9043;
492.6000;1.1526;0.9018;
492.9000;1.1551;0.9068;
493.2000;1.1534;0.9018;
493.5000;1.1534;0.9068;
493.8000;1.1534;0.8942;
494.1000;1.1543;0.8942;
494.4000;1.1477;0.8791;
494.7000;1.1534;0.8917;
495.0000;1.1510;0.8892;
495.3000;1.1559;0.8993;
495.6000;1.1559;0.9068;
495.9000;1.1608;0.9245;
496.2000;1.1551;0.9018;
496.5000;1.1534;0.8892;
496.8000;1.1551;0.8942;
497.1000;1.1534;0.9018;
497.4000;1.1518;0.8993;
497.7000;1.1526;0.9018;
498.0000;1.1502;0.8968;
498.3000;1.1526;0.8993;
498.6000;1.1510;0.9018;
498.9000;1.1526;0.8968;
499.2000;1.1534;0.8917;
499.5000;1.1534;0.8867;
499.8000;1.1551;0.8816;
500.1000;1.1534;0.8766;
500.4000;1.1543;0.8816;
500.7000;1.1526;0.8816;
501.0000;1.1543;0.8867;
501.3000;1.1534;0.8816;
501.6000;1.1526;0.8766;
501.9000;1.1559;0.8867;
502.2000;1.1559;0.8867;
502.5000;1.1526;0.8816;
502.8000;1.1534;0.8816;
503.1000;1.1543;0.8942;
503.4000;1.1526;0.8942;
503.7000;1.1526;0.8867;
504.0000;1.1510;0.8791;
504.3000;1.1543;0.8867;
504.6000;1.1559;0.8917;
504.9000;1.1518;0.8942;
505.2000;1.1534;0.8968;
505.5000;1.1534;0.8892;
505.8000;1.1534;0.8867;
506.1000;1.1551;0.8942;
506.4000;1.1526;0.8842;
506.7000;1.1510;0.8766;
507.0000;1.1534;0.8867;
507.3000;1.1526;0.8766;
507.6000;1.1526;0.8766;
507.9000;1.1534;0.8816;
508.2000;1.1526;0.8816;
508.5000;1.1502;0.8816;
508.8000;1.1526;0.8842;
509.1000;1.1526;0.8867;
509.4000;1.1526;0.8917;
509.7000;1.1526;0.8917;
510.0000;1.1543;0.8917;
510.3000;1.1543;0.8867;
510.6000;1.1534;0.8791;
510.9000;1.1502;0.8791;
511.2000;1.1551;0.8942;
511.5000;1.1543;0.8892;
511.8000;1.1534;0.8892;
512.1000;1.1526;0.8867;
512.4000;1.1526;0.8892;
512.7000;1.1518;0.8942;
513.0000;1.1526;0.9043;
513.3000;1.1518;0.8993;
513.6000;1.1518;0.9018;
513.9000;1.1518;0.9068;
514.2000;1.1518;0.9119;
514.5000;1.1526;0.9068;
514.8000;1.1543;0.9043;
515.1000;1.1543;0.9043;
515.4000;1.1608;0.9320;
515.7000;1.1543;0.9270;
516.0000;1.1510;0.9194;
516.3000;1.1543;0.9194;
516.6000;1.1543;0.9169;
516.9000;1.1551;0.9169;
517.2000;1.1543;0.9119;
517.5000;1.1526;0.8993;
517.8000;1.1510;0.9068;
518.1000;1.1510;0.9094;
518.4000;1.1526;0.9169;
518.7000;1.1591;0.9295;
519.0000;1.1559;0.9194;
519.3000;1.1518;0.9068;
519.6000;1.1534;0.9094;
519.9000;1.1534;0.9169;
520.2000;1.1543;0.9245;
520.5000;1.1518;0.9169;
520.8000;1.1502;0.9144;
521.1000;1.1526;0.9194;
521.4000;1.1526;0.9169;
521.7000;1.1518;0.9194;
522.0000;1.1518;0.9194;
522.3000;1.1534;0.9220;
522.6000;1.1518;0.9169;
522.9000;1.1510;0.9169;
523.2000;1.1518;0.9220;
523.5000;1.1526;0.9194;
523.8000;1.1477;0.9094;
524.1000;1.1518;0.9169;
524.4000;1.1526;0.9169;
524.7000;1.1518;0.9194;
525.0000;1.1543;0.9194;
525.3000;1.1534;0.9068;
525.6000;1.1543;0.9018;
525.9000;1.1543;0.9068;
526.2000;1.1534;0.9094;
526.5000;1.1543;0.9094;
526.8000;1.1526;0.9068;
527.1000;1.1518;0.9043;
527.4000;1.1526;0.9169;
527.7000;1.1534;0.9144;
528.0000;1.1526;0.9119;
528.3000;1.1518;0.9119;
528.6000;1.1518;0.9169;
528.9000;1.1534;0.9194;
529.2000;1.1526;0.9220;
529.5000;1.1534;0.9169;
529.8000;1.1543;0.9094;
530.1000;1.1551;0.9043;
530.4000;1.1559;0.9068;
530.7000;1.1526;0.9043;
531.0000;1.1510;0.8968;
531.3000;1.1559;0.9068;
531.6000;1.1543;0.9119;
531.9000;1.1543;0.9194;
532.2000;1.1534;0.9220;
532.5000;1.1616;0.9446;
532.8000;1.1526;0.9270;
533.1000;1.1494;0.9119;
533.4000;1.1534;0.9194;
533.7000;1.1543;0.9220;
534.0000;1.1526;0.9245;
534.3000;1.1526;0.9194;
534.6000;1.1461;0.8942;
534.9000;1.1526;0.9068;
535.2000;1.1543;0.9144;
535.5000;1.1543;0.9068;
535.8000;1.1526;0.9043;
536.1000;1.1543;0.8968;
536.4000;1.1543;0.9068;
536.7000;1.1543;0.9068;
537.0000;1.1526;0.9119;
537.3000;1.1551;0.9169;
537.6000;1.1534;0.9169;
537.9000;1.1534;0.9144;
538.2000;1.1518;0.9068;
538.5000;1.1551;0.9068;
538.8000;1.1526;0.9068;
539.1000;1.1526;0.9068;
539.4000;1.1518;0.9094;
539.7000;1.1494;0.9043;
540.0000;1.1526;0.9194;
540.3000;1.1543;0.9245;
540.6000;1.1534;0.9220;
540.9000;1.1526;0.9169;
541.2000;1.1526;0.9068;
541.5000;1.1567;0.9119;
541.8000;1.1543;0.9068;
542.1000;1.1543;0.9043;
542.4000;1.1543;0.9043;
542.7000;1.1518;0.8993;
543.0000;1.1526;0.8993;
543.3000;1.1534;0.8917;
543.6000;1.1518;0.8892;
543.9000;1.1534;0.8993;
544.2000;1.1534;0.8968;
544.5000;1.1518;0.8993;
544.8000;1.1551;0.9068;
545.1000;1.1534;0.8993;
545.4000;1.1551;0.9043;
545.7000;1.1551;0.9094;
546.0000;1.1518;0.9043;
546.3000;1.1551;0.9068;
546.6000;1.1534;0.9094;
546.9000;1.1534;0.9068;
547.2000;1.1518;0.8968;
547.5000;1.1534;0.9043;
547.8000;1.1526;0.8968;
548.1000;1.1518;0.8892;
548.4000;1.1534;0.8842;
548.7000;1.1534;0.8942;
549.0000;1.1543;0.9043;
549.3000;1.1534;0.9018;
549.6000;1.1526;0.8968;
549.9000;1.1518;0.8942;
550.2000;1.1543;0.8968;
550.5000;1.1551;0.8892;
550.8000;1.1518;0.8842;
551.1000;1.1526;0.8892;
551.4000;1.1543;0.8917;
551.7000;1.1518;0.8842;
552.0000;1.1534;0.8816;
552.3000;1.1510;0.8716;
552.6000;1.1510;0.8716;
552.9000;1.1510;0.8766;
553.2000;1.1526;0.8741;
553.5000;1.1502;0.8766;
553.8000;1.1534;0.8892;
554.1000;1.1526;0.8867;
554.4000;1.1494;0.8816;
554.7000;1.1526;0.8917;
555.0000;1.1510;0.8968;
555.3000;1.1518;0.8993;
555.6000;1.1526;0.9068;
555.9000;1.1526;0.9043;
556.2000;1.1534;0.9068;
556.5000;1.1494;0.8892;
556.8000;1.1526;0.8968;
557.1000;1.1583;0.9068;
557.4000;1.1510;0.8842;
557.7000;1.1534;0.8942;
558.0000;1.1526;0.9018;
558.3000;1.1477;0.8867;
558.6000;1.1526;0.8867;
558.9000;1.1551;0.8892;
559.2000;1.1518;0.8816;
559.5000;1.1526;0.8867;
559.8000;1.1526;0.8867;
560.1000;1.1518;0.8942;
560.4000;1.1526;0.8968;
560.7000;1.1559;0.9068;
561.0000;1.1510;0.9018;
561.3000;1.1502;0.8968;
561.6000;1.1526;0.9068;
561.9000;1.1543;0.9043;
562.2000;1.1510;0.8867;
562.5000;1.1534;0.8867;
562.8000;1.1526;0.8867;
563.1000;1.1526;0.8917;
563.4000;1.1510;0.8917;
563.7000;1.1518;0.8892;
564.0000;1.1502;0.8842;
564.3000;1.1518;0.8842;
564.6000;1.1526;0.8942;
564.9000;1.1526;0.9068;
565.2000;1.1526;0.9068;
565.5000;1.1543;0.9043;
565.8000;1.1526;0.9018;
566.1000;1.1543;0.9018;
566.4000;1.1518;0.8867;
566.7000;1.1543;0.8867;
567.0000;1.1534;0.8867;
567.3000;1.1518;0.8842;
567.6000;1.1510;0.8842;
567.9000;1.1526;0.8867;
568.2000;1.1543;0.8917;
568.5000;1.1551;0.8942;
568.8000;1.1518;0.8867;
569.1000;1.1510;0.8867;
569.4000;1.1518;0.8917;
569.7000;1.1518;0.8968;
570.0000;1.1526;0.8968;
570.3000;1.1518;0.8993;
570.6000;1.1510;0.8942;
570.9000;1.1526;0.8917;
571.2000;1.1526;0.8892;
571.5000;1.1526;0.8791;
571.8000;1.1526;0.8741;
572.1000;1.1543;0.8816;
572.4000;1.1518;0.8791;
572.7000;1.1534;0.8892;
573.0000;1.1526;0.8917;
573.3000;1.1534;0.8968;
573.6000;1.1526;0.8993;
573.9000;1.1510;0.8917;
574.2000;1.1510;0.8942;
574.5000;1.1510;0.9068;
574.8000;1.1518;0.8968;
575.1000;1.1469;0.8892;
575.4000;1.1526;0.9043;
575.7000;1.1518;0.8993;
576.0000;1.1534;0.8968;
576.3000;1.1526;0.8968;
576.6000;1.1518;0.8892;
576.9000;1.1526;0.8942;
577.2000;1.1559;0.9119;
577.5000;1.1534;0.9018;
577.8000;1.1534;0.8917;
578.1000;1.1510;0.8968;
578.4000;1.1543;0.9119;
578.7000;1.1526;0.9119;
579.0000;1.1510;0.9094;
579.3000;1.1518;0.9094;
579.6000;1.1510;0.9068;
579.9000;1.1518;0.9068;
580.2000;1.1526;0.9043;
580.5000;1.1534;0.9119;
580.8000;1.1551;0.9220;
581.1000;1.1543;0.9094;
581.4000;1.1510;0.9068;
581.7000;1.1534;0.9018;
582.0000;1.1543;0.9119;
582.3000;1.1543;0.9144;
582.6000;1.1551;0.9245;
582.9000;1.1510;0.9144;
583.2000;1.1526;0.9245;
583.5000;1.1526;0.9220;
583.8000;1.1502;0.9144;
584.1000;1.1526;0.9245;
584.4000;1.1518;0.9119;
584.7000;1.1526;0.9169;
585.0000;1.1551;0.9245;
585.3000;1.1502;0.9245;
585.6000;1.1510;0.9194;
585.9000;1.1510;0.9144;
586.2000;1.1583;0.9345;
586.5000;1.1518;0.9245;
586.8000;1.1534;0.9295;
587.1000;1.1543;0.9245;
587.4000;1.1518;0.9194;
587.7000;1.1526;0.9194;
588.0000;1.1583;0.9295;
588.3000;1.1551;0.9220;
588.6000;1.1502;0.9068;
588.9000;1.1534;0.9245;
589.2000;1.1543;0.9396;
589.5000;1.1502;0.9220;
589.8000;1.1510;0.9295;
590.1000;1.1526;0.9270;
590.4000;1.1502;0.9169;
590.7000;1.1559;0.9245;
591.0000;1.1518;0.9144;
591.3000;1.1518;0.9169;
591.6000;1.1486;0.9043;
591.9000;1.1518;0.9119;
592.2000;1.1526;0.9068;
592.5000;1.1534;0.9043;
592.8000;1.1510;0.9068;
593.1000;1.1510;0.9018;
593.4000;1.1518;0.8968;
593.7000;1.1526;0.8968;
594.0000;1.1526;0.8993;
594.3000;1.1543;0.8993;
594.6000;1.1518;0.8942;
594.9000;1.1510;0.8968;
595.2000;1.1526;0.9018;
595.5000;1.1518;0.8993;
595.8000;1.1518;0.8942;
596.1000;1.1543;0.8917;
596.4000;1.1534;0.8917;
596.7000;1.1559;0.8917;
597.0000;1.1518;0.8842;
597.3000;1.1526;0.8942;
597.6000;1.1543;0.9043;
597.9000;1.1510;0.8968;
598.2000;1.1543;0.8993;
598.5000;1.1526;0.8993;
598.8000;1.1534;0.8968;
599.1000;1.1502;0.8867;
599.4000;1.1510;0.8968;
599.7000;1.1518;0.8942;
600.0000;1.1534;0.9018;
600.3000;1.1543;0.8791;
600.6000;1.1502;0.8565;
600.9000;1.1486;0.8489;
601.2000;1.1396;0.8338;
601.5000;1.1323;0.8262;
601.8000;1.1241;0.8111;
602.1000;1.1103;0.7834;
602.4000;1.1022;0.7708;
602.7000;1.0981;0.7683;
603.0000;1.0826;0.7305;
603.3000;1.0712;0.7154;
603.6000;1.0680;0.7129;
603.9000;1.0582;0.6952;
604.2000;1.0549;0.6902;
604.5000;1.0460;0.6726;
604.8000;1.0387;0.6701;
605.1000;1.0411;0.6826;
605.4000;1.0281;0.6600;
605.7000;1.0216;0.6524;
606.0000;1.0159;0.6549;
606.3000;1.0110;0.6575;
606.6000;1.0069;0.6600;
606.9000;1.0012;0.6499;
607.2000;0.9947;0.6398;
607.5000;0.9915;0.6398;
607.8000;0.9874;0.6398;
608.1000;0.9784;0.6247;
608.4000;0.9784;0.6348;
608.7000;0.9735;0.6423;
609.0000;0.9711;0.6423;
609.3000;0.9654;0.6348;
609.6000;0.9589;0.6297;
609.9000;0.9597;0.6348;
610.2000;0.9532;0.6247;
610.5000;0.9524;0.6247;
610.8000;0.9475;0.6222;
611.1000;0.9385;0.6046;
611.4000;0.9385;0.6096;
611.7000;0.9361;0.6121;
612.0000;0.9337;0.6096;
612.3000;0.9255;0.5945;
612.6000;0.9271;0.5995;
612.9000;0.9239;0.5970;
613.2000;0.9190;0.5970;
613.5000;0.9166;0.5970;
613.8000;0.9141;0.6020;
614.1000;0.9109;0.6046;
614.4000;0.9076;0.5945;
614.7000;0.9101;0.5995;
615.0000;0.9035;0.5945;
615.3000;0.9003;0.5894;
615.6000;0.8978;0.5869;
615.9000;0.8954;0.5869;
616.2000;0.8913;0.5794;
616.5000;0.8881;0.5794;
616.8000;0.8881;0.5844;
617.1000;0.8856;0.5769;
617.4000;0.8840;0.5819;
617.7000;0.8824;0.5844;
618.0000;0.8807;0.5894;
618.3000;0.8767;0.5718;
618.6000;0.8742;0.5743;
618.9000;0.8718;0.5819;
619.2000;0.8726;0.5894;
619.5000;0.8702;0.5920;
619.8000;0.8661;0.5794;
620.1000;0.8653;0.5869;
620.4000;0.8645;0.5970;
620.7000;0.8612;0.5920;
621.0000;0.8604;0.5844;
621.3000;0.8571;0.5844;
621.6000;0.8539;0.5794;
621.9000;0.8547;0.5819;
622.2000;0.8514;0.5794;
622.5000;0.8506;0.5794;
622.8000;0.8490;0.5769;
623.1000;0.8449;0.5794;
623.4000;0.8441;0.5869;
623.7000;0.8441;0.5920;
624.0000;0.8417;0.5819;
624.3000;0.8409;0.5819;
624.6000;0.8352;0.5668;
624.9000;0.8335;0.5617;
625.2000;0.8368;0.5743;
625.5000;0.8352;0.5743;
625.8000;0.8335;0.5844;
626.1000;0.8270;0.5718;
626.4000;0.8287;0.5794;
626.7000;0.8270;0.5693;
627.0000;0.8262;0.5592;
627.3000;0.8303;0.5743;
627.6000;0.8213;0.5391;
627.9000;0.8221;0.5466;
628.2000;0.8230;0.5466;
628.5000;0.8164;0.5315;
628.8000;0.8189;0.5491;
629.1000;0.8189;0.5441;
629.4000;0.8173;0.5517;
629.7000;0.8164;0.5567;
630.0000;0.8205;0.5668;
630.3000;0.8181;0.5567;
630.6000;0.8124;0.5466;
630.9000;0.8124;0.5542;
631.2000;0.8099;0.5517;
631.5000;0.8124;0.5617;
631.8000;0.8099;0.5617;
632.1000;0.8050;0.5617;
632.4000;0.7993;0.5567;
632.7000;0.8026;0.5718;
633.0000;0.8018;0.5743;
633.3000;0.7993;0.5794;
633.6000;0.7993;0.5894;
633.9000;0.7985;0.5945;
634.2000;0.8034;0.6020;
634.5000;0.7961;0.5869;
634.8000;0.7961;0.5844;
635.1000;0.7945;0.5668;
635.4000;0.7928;0.5668;
635.7000;0.7928;0.5668;
636.0000;0.7937;0.5718;
636.3000;0.7912;0.5718;
636.6000;0.7896;0.5769;
636.9000;0.7871;0.5693;
637.2000;0.7863;0.5693;
637.5000;0.7863;0.5643;
637.8000;0.7839;0.5643;
638.1000;0.7847;0.5718;
638.4000;0.7839;0.5769;
638.7000;0.7831;0.5794;
639.0000;0.7814;0.5794;
639.3000;0.7814;0.5718;
639.6000;0.7831;0.5743;
639.9000;0.7798;0.5668;
640.2000;0.7782;0.5542;
640.5000;0.7766;0.5542;
640.8000;0.7782;0.5668;
641.1000;0.7774;0.5718;
641.4000;0.7749;0.5718;
641.7000;0.7741;0.5718;
642.0000;0.7733;0.5718;
642.3000;0.7733;0.5769;
642.6000;0.7741;0.5769;
642.9000;0.7717;0.5743;
643.2000;0.7757;0.5869;
643.5000;0.7717;0.5743;
643.8000;0.7700;0.5794;
644.1000;0.7709;0.5668;
644.4000;0.7684;0.5592;
644.7000;0.7684;0.5542;
645.0000;0.7692;0.5592;
645.3000;0.7635;0.5592;
645.6000;0.7643;0.5542;
645.9000;0.7635;0.5567;
646.2000;0.7635;0.5617;
646.5000;0.7619;0.5668;
646.8000;0.7611;0.5718;
647.1000;0.7570;0.5617;
647.4000;0.7619;0.5769;
647.7000;0.7627;0.5819;
648.0000;0.7603;0.5794;
648.3000;0.7595;0.5794;
648.6000;0.7586;0.5844;
648.9000;0.7570;0.5743;
649.2000;0.7530;0.5567;
649.5000;0.7562;0.5668;
649.8000;0.7562;0.5769;
650.1000;0.7538;0.5718;
650.4000;0.7530;0.5693;
650.7000;0.7521;0.5617;
651.0000;0.7538;0.5668;
651.3000;0.7562;0.5794;
651.6000;0.7521;0.5769;
651.9000;0.7497;0.5643;
652.2000;0.7497;0.5592;
652.5000;0.7521;0.5592;
652.8000;0.7505;0.5617;
653.1000;0.7481;0.5567;
653.4000;0.7489;0.5592;
653.7000;0.7489;0.5643;
654.0000;0.7456;0.5617;
654.3000;0.7440;0.5567;
654.6000;0.7464;0.5693;
654.9000;0.7448;0.5592;
655.2000;0.7521;0.5743;
655.5000;0.7432;0.5466;
655.8000;0.7424;0.5491;
656.1000;0.7424;0.5466;
656.4000;0.7407;0.5340;
656.7000;0.7416;0.5340;
657.0000;0.7399;0.5214;
657.3000;0.7391;0.5189;
657.6000;0.7399;0.5189;
657.9000;0.7350;0.5038;
658.2000;0.7375;0.5189;
658.5000;0.7391;0.5265;
658.8000;0.7391;0.5315;
659.1000;0.7375;0.5391;
659.4000;0.7391;0.5491;
659.7000;0.7359;0.5466;
660.0000;0.7367;0.5441;
660.3000;0.7367;0.5542;
660.6000;0.7342;0.5441;
660.9000;0.7326;0.5315;
661.2000;0.7342;0.5365;
661.5000;0.7334;0.5315;
661.8000;0.7342;0.5416;
662.1000;0.7326;0.5391;
662.4000;0.7334;0.5416;
662.7000;0.7318;0.5441;
663.0000;0.7326;0.5441;
663.3000;0.7302;0.5441;
663.6000;0.7310;0.5391;
663.9000;0.7318;0.5365;
664.2000;0.7310;0.5391;
664.5000;0.7302;0.5391;
664.8000;0.7302;0.5416;
665.1000;0.7285;0.5441;
665.4000;0.7277;0.5517;
665.7000;0.7261;0.5416;
666.0000;0.7261;0.5466;
666.3000;0.7277;0.5517;
666.6000;0.7269;0.5466;
666.9000;0.7228;0.5240;
667.2000;0.7236;0.5340;
667.5000;0.7236;0.5441;
667.8000;0.7253;0.5491;
668.1000;0.7236;0.5416;
668.4000;0.7220;0.5416;
668.7000;0.7220;0.5416;
669.0000;0.7228;0.5441;
669.3000;0.7236;0.5441;
669.6000;0.7204;0.5340;
669.9000;0.7236;0.5416;
670.2000;0.7220;0.5466;
670.5000;0.7212;0.5517;
670.8000;0.7212;0.5441;
671.1000;0.7163;0.5290;
671.4000;0.7204;0.5441;
671.7000;0.7204;0.5441;
672.0000;0.7179;0.5441;
672.3000;0.7220;0.5592;
672.6000;0.7188;0.5517;
672.9000;0.7188;0.5542;
673.2000;0.7171;0.5517;
673.5000;0.7171;0.5542;
673.8000;0.7228;0.5718;
674.1000;0.7196;0.5668;
674.4000;0.7179;0.5567;
674.7000;0.7163;0.5617;
675.0000;0.7106;0.5466;
675.3000;0.7155;0.5617;
675.6000;0.7155;0.5617;
675.9000;0.7155;0.5592;
676.2000;0.7147;0.5617;
676.5000;0.7147;0.5567;
676.8000;0.7155;0.5517;
677.1000;0.7139;0.5517;
677.4000;0.7114;0.5416;
677.7000;0.7123;0.5365;
678.0000;0.7106;0.5365;
678.3000;0.7123;0.5441;
678.6000;0.7106;0.5416;
678.9000;0.7106;0.5416;
679.2000;0.7074;0.5365;
679.5000;0.7098;0.5391;
679.8000;0.7082;0.5391;
680.1000;0.7090;0.5416;
680.4000;0.7074;0.5315;
680.7000;0.7057;0.5315;
681.0000;0.7090;0.5441;
681.3000;0.7082;0.5491;
681.6000;0.7074;0.5491;
681.9000;0.7066;0.5441;
682.2000;0.7090;0.5441;
682.5000;0.7066;0.5391;
682.8000;0.7082;0.5365;
683.1000;0.7082;0.5466;
683.4000;0.7074;0.5416;
683.7000;0.7057;0.5441;
684.0000;0.7057;0.5466;
684.3000;0.7066;0.5517;
684.6000;0.7066;0.5466;
684.9000;0.7041;0.5466;
685.2000;0.7049;0.5416;
685.5000;0.7025;0.5391;
685.8000;0.7041;0.5441;
686.1000;0.7033;0.5365;
686.4000;0.7009;0.5365;
686.7000;0.7017;0.5416;
687.0000;0.7025;0.5416;
687.3000;0.7033;0.5441;
687.6000;0.7017;0.5391;
687.9000;0.7025;0.5391;
688.2000;0.7025;0.5441;
688.5000;0.7000;0.5365;
688.8000;0.7000;0.5365;
689.1000;0.7017;0.5466;
689.4000;0.7017;0.5517;
689.7000;0.7009;0.5542;
690.0000;0.6992;0.5617;
690.3000;0.7000;0.5617;
690.6000;0.7000;0.5542;
690.9000;0.7000;0.5567;
691.2000;0.6984;0.5517;
691.5000;0.6984;0.5542;
691.8000;0.6976;0.5617;
692.1000;0.6976;0.5617;
692.4000;0.6976;0.5542;
692.7000;0.6960;0.5542;
693.0000;0.6968;0.5466;
693.3000;0.6976;0.5466;
693.6000;0.6952;0.5466;
693.9000;0.6960;0.5416;
694.2000;0.6976;0.5517;
694.5000;0.6968;0.5517;
694.8000;0.6960;0.5517;
695.1000;0.6952;0.5517;
695.4000;0.6943;0.5517;
695.7000;0.6943;0.5466;
696.0000;0.6960;0.5517;
696.3000;0.6935;0.5416;
696.6000;0.6919;0.5441;
696.9000;0.6960;0.5567;
697.2000;0.6943;0.5517;
697.5000;0.6927;0.5491;
697.8000;0.6919;0.5491;
698.1000;0.6927;0.5491;
698.4000;0.6943;0.5517;
698.7000;0.6943;0.5491;
699.0000;0.6919;0.5517;
699.3000;0.6919;0.5542;
699.6000;0.6935;0.5592;
699.9000;0.6927;0.5466;
700.2000;0.6903;0.5391;
700.5000;0.6911;0.5416;
700.8000;0.6911;0.5466;
701.1000;0.6919;0.5441;
701.4000;0.6903;0.5491;
701.7000;0.6895;0.5491;
702.0000;0.6886;0.5491;
702.3000;0.6895;0.5517;
702.6000;0.6903;0.5517;
702.9000;0.6886;0.5491;
703.2000;0.6911;0.5542;
703.5000;0.6886;0.5441;
703.8000;0.6895;0.5416;
704.1000;0.6886;0.5416;
704.4000;0.6870;0.5441;
704.7000;0.6870;0.5517;
705.0000;0.6878;0.5567;
705.3000;0.6878;0.5592;
705.6000;0.6870;0.5617;
705.9000;0.6878;0.5643;
706.2000;0.6878;0.5542;
706.5000;0.6862;0.5491;
706.8000;0.6870;0.5542;
707.1000;0.6870;0.5542;
707.4000;0.6870;0.5517;
707.7000;0.6854;0.5567;
708.0000;0.6854;0.5592;
708.3000;0.6870;0.5542;
708.6000;0.6870;0.5491;
708.9000;0.6862;0.5491;
709.2000;0.6854;0.5491;
709.5000;0.6854;0.5491;
709.8000;0.6846;0.5491;
710.1000;0.6862;0.5491;
710.4000;0.6838;0.5517;
710.7000;0.6829;0.5517;
711.0000;0.6838;0.5517;
711.3000;0.6838;0.5542;
711.6000;0.6829;0.5592;
711.9000;0.6821;0.5617;
712.2000;0.6789;0.5592;
712.5000;0.6829;0.5769;
712.8000;0.6854;0.5819;
713.1000;0.6821;0.5869;
713.4000;0.6805;0.5894;
713.7000;0.6821;0.5894;
714.0000;0.6862;0.5920;
714.3000;0.6805;0.5743;
714.6000;0.6821;0.5769;
714.9000;0.6813;0.5718;
715.2000;0.6805;0.5743;
715.5000;0.6805;0.5743;
715.8000;0.6813;0.5769;
716.1000;0.6805;0.5769;
716.4000;0.6821;0.5769;
716.7000;0.6805;0.5643;
717.0000;0.6813;0.5592;
717.3000;0.6813;0.5567;
717.6000;0.6821;0.5542;
717.9000;0.6781;0.5517;
718.2000;0.6781;0.5542;
718.5000;0.6838;0.5668;
718.8000;0.6789;0.5567;
719.1000;0.6789;0.5567;
719.4000;0.6724;0.5365;
719.7000;0.6740;0.5441;
720.0000;0.6772;0.5592;
720.3000;0.6772;0.5542;
720.6000;0.6813;0.5617;
720.9000;0.6813;0.5643;
721.2000;0.6781;0.5567;
721.5000;0.6781;0.5567;
721.8000;0.6781;0.5592;
722.1000;0.6732;0.5441;
722.4000;0.6781;0.5617;
722.7000;0.6781;0.5668;
723.0000;0.6781;0.5794;
723.3000;0.6740;0.5693;
723.6000;0.6781;0.5743;
723.9000;0.6789;0.5718;
724.2000;0.6781;0.5718;
724.5000;0.6748;0.5567;
724.8000;0.6772;0.5693;
725.1000;0.6764;0.5617;
725.4000;0.6772;0.5718;
725.7000;0.6772;0.5718;
726.0000;0.6764;0.5693;
726.3000;0.6756;0.5643;
726.6000;0.6748;0.5643;
726.9000;0.6756;0.5718;
727.2000;0.6756;0.5718;
727.5000;0.6748;0.5617;
727.8000;0.6748;0.5542;
728.1000;0.6724;0.5517;
728.4000;0.6716;0.5491;
728.7000;0.6732;0.5617;
729.0000;0.6756;0.5592;
729.3000;0.6748;0.5567;
729.6000;0.6732;0.5466;
729.9000;0.6732;0.5517;
730.2000;0.6797;0.5743;
730.5000;0.6716;0.5592;
730.8000;0.6732;0.5617;
731.1000;0.6740;0.5592;
731.4000;0.6740;0.5617;
731.7000;0.6748;0.5693;
732.0000;0.6732;0.5693;
732.3000;0.6724;0.5517;
732.6000;0.6724;0.5466;
732.9000;0.6732;0.5592;
733.2000;0.6699;0.5567;
733.5000;0.6707;0.5517;
733.8000;0.6707;0.5491;
734.1000;0.6732;0.5592;
734.4000;0.6707;0.5542;
734.7000;0.6716;0.5542;
735.0000;0.6691;0.5567;
735.3000;0.6724;0.5643;
735.6000;0.6724;0.5643;
735.9000;0.6740;0.5718;
736.2000;0.6675;0.5643;
736.5000;0.6724;0.5718;
736.8000;0.6699;0.5668;
737.1000;0.6699;0.5718;
737.4000;0.6691;0.5743;
737.7000;0.6724;0.5769;
738.0000;0.6650;0.5567;
738.3000;0.6707;0.5794;
738.6000;0.6683;0.5769;
738.9000;0.6716;0.5794;
739.2000;0.6707;0.5743;
739.5000;0.6675;0.5819;
739.8000;0.6699;0.5844;
740.1000;0.6683;0.5794;
740.4000;0.6699;0.5844;
740.7000;0.6675;0.5718;
741.0000;0.6756;0.5894;
741.3000;0.6691;0.5668;
741.6000;0.6683;0.5693;
741.9000;0.6675;0.5617;
742.2000;0.6683;0.5643;
742.5000;0.6716;0.5693;
742.8000;0.6683;0.5668;
743.1000;0.6602;0.5517;
743.4000;0.6650;0.5718;
743.7000;0.6650;0.5794;
744.0000;0.6626;0.5769;
744.3000;0.6626;0.5617;
744.6000;0.6659;0.5643;
744.9000;0.6634;0.5542;
745.2000;0.6675;0.5517;
745.5000;0.6683;0.5491;
745.8000;0.6683;0.5491;
746.1000;0.6667;0.5441;
746.4000;0.6650;0.5517;
746.7000;0.6707;0.5693;
747.0000;0.6683;0.5643;
747.3000;0.6659;0.5617;
747.6000;0.6659;0.5416;
747.9000;0.6683;0.5391;
748.2000;0.6667;0.5315;
748.5000;0.6650;0.5391;
748.8000;0.6667;0.5542;
749.1000;0.6634;0.5491;
749.4000;0.6707;0.5718;
749.7000;0.6667;0.5567;
750.0000;0.6650;0.5491;
750.3000;0.6650;0.5491;
750.6000;0.6650;0.5517;
750.9000;0.6650;0.5567;
751.2000;0.6650;0.5542;
751.5000;0.6659;0.5542;
751.8000;0.6650;0.5592;
752.1000;0.6642;0.5617;
752.4000;0.6699;0.5794;
752.7000;0.6642;0.5592;
753.0000;0.6650;0.5567;
753.3000;0.6642;0.5466;
753.6000;0.6642;0.5466;
753.9000;0.6610;0.5391;
754.2000;0.6618;0.5441;
754.5000;0.6626;0.5466;
754.8000;0.6642;0.5567;
755.1000;0.6650;0.5617;
755.4000;0.6610;0.5567;
755.7000;0.6634;0.5592;
756.0000;0.6642;0.5542;
756.3000;0.6626;0.5466;
756.6000;0.6610;0.5391;
756.9000;0.6618;0.5491;
757.2000;0.6642;0.5542;
757.5000;0.6650;0.5466;
757.8000;0.6642;0.5542;
758.1000;0.6634;0.5517;
758.4000;0.6618;0.5542;
758.7000;0.6626;0.5517;
759.0000;0.6610;0.5441;
759.3000;0.6618;0.5441;
759.6000;0.6626;0.5466;
759.9000;0.6610;0.5441;
760.2000;0.6667;0.5542;
760.5000;0.6626;0.5466;
760.8000;0.6602;0.5491;
761.1000;0.6618;0.5517;
761.4000;0.6618;0.5491;
761.7000;0.6618;0.5491;
762.0000;0.6675;0.5668;
762.3000;0.6602;0.5542;
762.6000;0.6618;0.5617;
762.9000;0.6577;0.5542;
763.2000;0.6569;0.5617;
763.5000;0.6610;0.5643;
763.8000;0.6602;0.5592;
764.1000;0.6528;0.5290;
764.4000;0.6618;0.5441;
764.7000;0.6593;0.5391;
765.0000;0.6618;0.5416;
765.3000;0.6626;0.5391;
765.6000;0.6569;0.5189;
765.9000;0.6618;0.5240;
766.2000;0.6618;0.5290;
766.5000;0.6593;0.5265;
766.8000;0.6569;0.5391;
767.1000;0.6577;0.5441;
767.4000;0.6610;0.5567;
767.7000;0.6585;0.5542;
768.0000;0.6577;0.5592;
768.3000;0.6593;0.5643;
768.6000;0.6585;0.5517;
768.9000;0.6561;0.5491;
769.2000;0.6577;0.5491;
769.5000;0.6577;0.5466;
769.8000;0.6585;0.5466;
770.1000;0.6536;0.5290;
770.4000;0.6569;0.5466;
770.7000;0.6593;0.5542;
771.0000;0.6577;0.5517;
771.3000;0.6577;0.5542;
771.6000;0.6569;0.5567;
771.9000;0.6593;0.5668;
772.2000;0.6585;0.5668;
772.5000;0.6602;0.5718;
772.8000;0.6602;0.5769;
773.1000;0.6585;0.5743;
773.4000;0.6618;0.5794;
773.7000;0.6593;0.5794;
774.0000;0.6577;0.5794;
774.3000;0.6528;0.5718;
774.6000;0.6561;0.5819;
774.9000;0.6569;0.5869;
775.2000;0.6569;0.5769;
775.5000;0.6553;0.5668;
775.8000;0.6561;0.5643;
776.1000;0.6545;0.5592;
776.4000;0.6569;0.5743;
776.7000;0.6553;0.5668;
777.0000;0.6569;0.5743;
777.3000;0.6585;0.5794;
777.6000;0.6569;0.5743;
777.9000;0.6577;0.5769;
778.2000;0.6577;0.5693;
778.5000;0.6577;0.5643;
778.8000;0.6569;0.5668;
779.1000;0.6569;0.5693;
779.4000;0.6545;0.5643;
779.7000;0.6545;0.5668;
780.0000;0.6585;0.5743;
780.3000;0.6553;0.5743;
780.6000;0.6561;0.5668;
780.9000;0.6504;0.5542;
781.2000;0.6561;0.5718;
781.5000;0.6593;0.5743;
781.8000;0.6561;0.5643;
782.1000;0.6610;0.5693;
782.4000;0.6569;0.5517;
782.7000;0.6561;0.5517;
783.0000;0.6545;0.5542;
783.3000;0.6553;0.5517;
783.6000;0.6569;0.5466;
783.9000;0.6569;0.5517;
784.2000;0.6593;0.5592;
784.5000;0.6536;0.5517;
784.8000;0.6545;0.5617;
785.1000;0.6561;0.5668;
785.4000;0.6545;0.5617;
785.7000;0.6528;0.5617;
786.0000;0.6553;0.5693;
786.3000;0.6545;0.5668;
786.6000;0.6536;0.5643;
786.9000;0.6545;0.5617;
787.2000;0.6545;0.5567;
787.5000;0.6528;0.5567;
787.8000;0.6553;0.5567;
788.1000;0.6545;0.5542;
788.4000;0.6528;0.5517;
788.7000;0.6536;0.5567;
789.0000;0.6528;0.5491;
789.3000;0.6545;0.5466;
789.6000;0.6536;0.5517;
789.9000;0.6545;0.5517;
790.2000;0.6561;0.5567;
790.5000;0.6536;0.5592;
790.8000;0.6528;0.5567;
791.1000;0.6553;0.5617;
791.4000;0.6545;0.5668;
791.7000;0.6536;0.5693;
792.0000;0.6520;0.5643;
792.3000;0.6520;0.5668;
792.6000;0.6553;0.5643;
792.9000;0.6520;0.5567;
793.2000;0.6512;0.5542;
793.5000;0.6520;0.5592;
793.8000;0.6528;0.5643;
794.1000;0.6512;0.5668;
794.4000;0.6520;0.5718;
794.7000;0.6520;0.5668;
795.0000;0.6520;0.5617;
795.3000;0.6528;0.5617;
795.6000;0.6545;0.5617;
795.9000;0.6520;0.5567;
796.2000;0.6528;0.5668;
796.5000;0.6520;0.5643;
796.8000;0.6528;0.5668;
797.1000;0.6536;0.5491;
797.4000;0.6512;0.5441;
797.7000;0.6512;0.5391;
798.0000;0.6528;0.5315;
798.3000;0.6512;0.5240;
798.6000;0.6504;0.5340;
798.9000;0.6520;0.5391;
799.2000;0.6520;0.5391;
799.5000;0.6512;0.5466;
799.8000;0.6504;0.5466;
800.1000;0.6536;0.5542;
800.4000;0.6512;0.5365;
800.7000;0.6512;0.5365;
801.0000;0.6536;0.5441;
801.3000;0.6520;0.5365;
801.6000;0.6520;0.5391;
801.9000;0.6528;0.5365;
802.2000;0.6512;0.5315;
802.5000;0.6504;0.5340;
802.8000;0.6488;0.5315;
803.1000;0.6512;0.5441;
803.4000;0.6504;0.5517;
803.7000;0.6528;0.5592;
804.0000;0.6455;0.5441;
804.3000;0.6512;0.5567;
804.6000;0.6504;0.5542;
804.9000;0.6488;0.5491;
805.2000;0.6488;0.5567;
805.5000;0.6504;0.5592;
805.8000;0.6479;0.5441;
806.1000;0.6488;0.5340;
806.4000;0.6479;0.5391;
806.7000;0.6504;0.5315;
807.0000;0.6504;0.5265;
807.3000;0.6496;0.5290;
807.6000;0.6488;0.5315;
807.9000;0.6504;0.5365;
808.2000;0.6488;0.5391;
808.5000;0.6479;0.5365;
808.8000;0.6496;0.5365;
809.1000;0.6504;0.5416;
809.4000;0.6504;0.5416;
809.7000;0.6488;0.5416;
810.0000;0.6471;0.5391;
810.3000;0.6488;0.5416;
810.6000;0.6488;0.5466;
810.9000;0.6488;0.5592;
811.2000;0.6488;0.5542;
811.5000;0.6471;0.5567;
811.8000;0.6504;0.5668;
812.1000;0.6479;0.5643;
812.4000;0.6496;0.5643;
812.7000;0.6479;0.5592;
813.0000;0.6496;0.5718;
813.3000;0.6479;0.5542;
813.6000;0.6479;0.5542;
813.9000;0.6455;0.5491;
814.2000;0.6463;0.5567;
814.5000;0.6471;0.5517;
814.8000;0.6479;0.5542;
815.1000;0.6463;0.5542;
815.4000;0.6463;0.5592;
815.7000;0.6439;0.5491;
816.0000;0.6488;0.5617;
816.3000;0.6447;0.5491;
816.6000;0.6471;0.5542;
816.9000;0.6488;0.5567;
817.2000;0.6471;0.5592;
817.5000;0.6488;0.5617;
817.8000;0.6479;0.5718;
818.1000;0.6488;0.5668;
818.4000;0.6488;0.5668;
818.7000;0.6471;0.5693;
819.0000;0.6463;0.5668;
819.3000;0.6471;0.5743;
819.6000;0.6488;0.5794;
819.9000;0.6479;0.5819;
820.2000;0.6479;0.5844;
820.5000;0.6463;0.5844;
820.8000;0.6471;0.5819;
821.1000;0.6479;0.5794;
821.4000;0.6463;0.5769;
821.7000;0.6455;0.5869;
822.0000;0.6488;0.5894;
822.3000;0.6471;0.5869;
822.6000;0.6471;0.5920;
822.9000;0.6463;0.5844;
823.2000;0.6488;0.5844;
823.5000;0.6471;0.5718;
823.8000;0.6471;0.5643;
824.1000;0.6488;0.5743;
824.4000;0.6463;0.5718;
824.7000;0.6439;0.5643;
825.0000;0.6471;0.5643;
825.3000;0.6463;0.5542;
825.6000;0.6471;0.5542;
825.9000;0.6463;0.5567;
826.2000;0.6455;0.5668;
826.5000;0.6463;0.5643;
826.8000;0.6479;0.5643;
827.1000;0.6479;0.5769;
827.4000;0.6471;0.5693;
827.7000;0.6471;0.5643;
828.0000;0.6463;0.5617;
828.3000;0.6463;0.5617;
828.6000;0.6463;0.5567;
828.9000;0.6463;0.5567;
829.2000;0.6463;0.5617;
829.5000;0.6471;0.5592;
829.8000;0.6569;0.5819;
830.1000;0.6431;0.5517;
830.4000;0.6463;0.5542;
830.7000;0.6455;0.5517;
831.0000;0.6463;0.5491;
831.3000;0.6455;0.5491;
831.6000;0.6382;0.5240;
831.9000;0.6455;0.5466;
832.2000;0.6463;0.5542;
832.5000;0.6471;0.5592;
832.8000;0.6471;0.5567;
833.1000;0.6463;0.5617;
833.4000;0.6455;0.5643;
833.7000;0.6422;0.5542;
834.0000;0.6447;0.5693;
834.3000;0.6447;0.5743;
834.6000;0.6422;0.5743;
834.9000;0.6471;0.5844;
835.2000;0.6455;0.5819;
835.5000;0.6504;0.5945;
835.8000;0.6447;0.5769;
836.1000;0.6447;0.5819;
836.4000;0.6414;0.5718;
836.7000;0.6447;0.5794;
837.0000;0.6471;0.5769;
837.3000;0.6447;0.5693;
837.6000;0.6447;0.5693;
837.9000;0.6439;0.5718;
838.2000;0.6431;0.5668;
838.5000;0.6431;0.5693;
838.8000;0.6414;0.5617;
839.1000;0.6439;0.5718;
839.4000;0.6447;0.5718;
839.7000;0.6447;0.5743;
840.0000;0.6439;0.5794;
840.3000;0.6439;0.5819;
840.6000;0.6422;0.5819;
840.9000;0.6414;0.5794;
841.2000;0.6447;0.5869;
841.5000;0.6455;0.5869;
841.8000;0.6431;0.5794;
842.1000;0.6447;0.5819;
842.4000;0.6455;0.5769;
842.7000;0.6439;0.5668;
843.0000;0.6447;0.5643;
843.3000;0.6422;0.5693;
843.6000;0.6439;0.5769;
843.9000;0.6431;0.5769;
844.2000;0.6431;0.5794;
844.5000;0.6422;0.5844;
844.8000;0.6439;0.5894;
845.1000;0.6439;0.5844;
845.4000;0.6349;0.5542;
845.7000;0.6414;0.5668;
846.0000;0.6439;0.5617;
846.3000;0.6414;0.5643;
846.6000;0.6439;0.5718;
846.9000;0.6431;0.5668;
847.2000;0.6398;0.5643;
847.5000;0.6422;0.5617;
847.8000;0.6422;0.5643;
848.1000;0.6431;0.5668;
848.4000;0.6414;0.5643;
848.7000;0.6431;0.5668;
849.0000;0.6431;0.5769;
849.3000;0.6422;0.5743;
849.6000;0.6422;0.5743;
849.9000;0.6422;0.5844;
850.2000;0.6431;0.5869;
850.5000;0.6414;0.5794;
850.8000;0.6414;0.5769;
851.1000;0.6422;0.5794;
851.4000;0.6431;0.5869;
851.7000;0.6455;0.5894;
852.0000;0.6406;0.5794;
852.3000;0.6414;0.5844;
852.6000;0.6455;0.5894;
852.9000;0.6390;0.5668;
853.2000;0.6431;0.5819;
853.5000;0.6447;0.5894;
853.8000;0.6431;0.5894;
854.1000;0.6447;0.5819;
854.4000;0.6463;0.5894;
854.7000;0.6431;0.5794;
855.0000;0.6422;0.5769;
855.3000;0.6455;0.5894;
855.6000;0.6398;0.5718;
855.9000;0.6414;0.5794;
856.2000;0.6414;0.5743;
856.5000;0.6447;0.5819;
856.8000;0.6439;0.5869;
857.1000;0.6398;0.5743;
857.4000;0.6390;0.5668;
857.7000;0.6447;0.5718;
858.0000;0.6422;0.5718;
858.3000;0.6439;0.5794;
858.6000;0.6365;0.5643;
858.9000;0.6439;0.5794;
859.2000;0.6390;0.5693;
859.5000;0.6390;0.5693;
859.8000;0.6398;0.5769;
860.1000;0.6406;0.5794;
860.4000;0.6374;0.5668;
860.7000;0.6406;0.5844;
861.0000;0.6431;0.5945;
861.3000;0.6390;0.5769;
861.6000;0.6406;0.5769;
861.9000;0.6406;0.5718;
862.2000;0.6414;0.5718;
862.5000;0.6406;0.5769;
862.8000;0.6422;0.5794;
863.1000;0.6422;0.5869;
863.4000;0.6374;0.5769;
863.7000;0.6414;0.5869;
864.0000;0.6414;0.5819;
864.3000;0.6414;0.5794;
864.6000;0.6406;0.5794;
864.9000;0.6422;0.5844;
865.2000;0.6406;0.5743;
865.5000;0.6414;0.5743;
865.8000;0.6406;0.5643;
866.1000;0.6398;0.5567;
866.4000;0.6406;0.5567;
866.7000;0.6357;0.5542;
867.0000;0.6406;0.5718;
867.3000;0.6365;0.5567;
867.6000;0.6390;0.5668;
867.9000;0.6414;0.5668;
868.2000;0.6414;0.5668;
868.5000;0.6406;0.5743;
868.8000;0.6406;0.5693;
869.1000;0.6406;0.5693;
869.4000;0.6414;0.5718;
869.7000;0.6398;0.5743;
870.0000;0.6390;0.5693;
870.3000;0.6398;0.5769;
870.6000;0.6406;0.5794;
870.9000;0.6390;0.5743;
871.2000;0.6414;0.5743;
871.5000;0.6390;0.5743;
871.8000;0.6390;0.5819;
872.1000;0.6382;0.5869;
872.4000;0.6374;0.5794;
872.7000;0.6382;0.5819;
873.0000;0.6390;0.5894;
873.3000;0.6398;0.5894;
873.6000;0.6390;0.5894;
873.9000;0.6382;0.5819;
874.2000;0.6398;0.5769;
874.5000;0.6390;0.5844;
874.8000;0.6365;0.5668;
875.1000;0.6357;0.5693;
875.4000;0.6374;0.5844;
875.7000;0.6406;0.5894;
876.0000;0.6390;0.5819;
876.3000;0.6382;0.5869;
876.6000;0.6414;0.5970;
876.9000;0.6341;0.5743;
877.2000;0.6406;0.5769;
877.5000;0.6390;0.5693;
877.8000;0.6374;0.5643;
878.1000;0.6398;0.5794;
878.4000;0.6398;0.5769;
878.7000;0.6406;0.5794;
879.0000;0.6390;0.5718;
879.3000;0.6398;0.5794;
879.6000;0.6398;0.5819;
879.9000;0.6390;0.5869;
880.2000;0.6414;0.6046;
880.5000;0.6398;0.5995;
880.8000;0.6398;0.5970;
881.1000;0.6422;0.6096;
881.4000;0.6382;0.5920;
881.7000;0.6382;0.5894;
882.0000;0.6382;0.5945;
882.3000;0.6390;0.5995;
882.6000;0.6365;0.5869;
882.9000;0.6382;0.5794;
883.2000;0.6382;0.5769;
883.5000;0.6398;0.5743;
883.8000;0.6398;0.5819;
884.1000;0.6406;0.5894;
884.4000;0.6398;0.5844;
884.7000;0.6406;0.5844;
885.0000;0.6398;0.5869;
885.3000;0.6390;0.5894;
885.6000;0.6382;0.5844;
885.9000;0.6390;0.5743;
886.2000;0.6455;0.6020;
886.5000;0.6341;0.5718;
886.8000;0.6382;0.5743;
887.1000;0.6374;0.5668;
887.4000;0.6357;0.5617;
887.7000;0.6374;0.5567;
888.0000;0.6374;0.5491;
888.3000;0.6365;0.5491;
888.6000;0.6382;0.5567;
888.9000;0.6390;0.5567;
889.2000;0.6431;0.5743;
889.5000;0.6398;0.5718;
889.8000;0.6390;0.5794;
890.1000;0.6374;0.5743;
890.4000;0.6325;0.5592;
890.7000;0.6374;0.5769;
891.0000;0.6390;0.5819;
891.3000;0.6382;0.5844;
891.6000;0.6406;0.5920;
891.9000;0.6374;0.5894;
892.2000;0.6390;0.5970;
892.5000;0.6382;0.5995;
892.8000;0.6365;0.5819;
893.1000;0.6382;0.5869;
893.4000;0.6382;0.5894;
893.7000;0.6398;0.5894;
894.0000;0.6398;0.5819;
894.3000;0.6398;0.5844;
894.6000;0.6382;0.5869;
894.9000;0.6357;0.5819;
895.2000;0.6382;0.6020;
895.5000;0.6374;0.5945;
895.8000;0.6333;0.5769;
896.1000;0.6382;0.5869;
896.4000;0.6382;0.5920;
896.7000;0.6382;0.5894;
897.0000;0.6382;0.5844;
897.3000;0.6374;0.5819;
897.6000;0.6374;0.5894;
897.9000;0.6357;0.5920;
898.2000;0.6365;0.5945;
898.5000;0.6349;0.5970;
898.8000;0.6390;0.6046;
899.1000;0.6374;0.5995;
899.4000;0.6365;0.5970;
899.7000;0.6374;0.5945;
900.0000;0.6439;0.6071;
900.3000;0.6382;0.5970;
900.6000;0.6374;0.5970;
900.9000;0.6374;0.5869;
901.2000;0.6390;0.5819;
901.5000;0.6374;0.5844;
901.8000;0.6365;0.5819;
902.1000;0.6365;0.5743;
902.4000;0.6374;0.5693;
902.7000;0.6365;0.5693;
903.0000;0.6365;0.5769;
903.3000;0.6357;0.5693;
903.6000;0.6365;0.5718;
903.9000;0.6365;0.5643;
904.2000;0.6374;0.5668;
904.5000;0.6357;0.5592;
904.8000;0.6317;0.5643;
905.1000;0.6357;0.5693;
905.4000;0.6357;0.5743;
905.7000;0.6357;0.5819;
906.0000;0.6341;0.5794;
906.3000;0.6357;0.5794;
906.6000;0.6357;0.5718;
906.9000;0.6349;0.5743;
907.2000;0.6333;0.5617;
907.5000;0.6357;0.5743;
907.8000;0.6390;0.5693;
908.1000;0.6365;0.5617;
908.4000;0.6357;0.5643;
908.7000;0.6357;0.5718;
909.0000;0.6374;0.5794;
909.3000;0.6365;0.5743;
909.6000;0.6365;0.5869;
909.9000;0.6300;0.5643;
910.2000;0.6374;0.5869;
910.5000;0.6374;0.5945;
910.8000;0.6349;0.5869;
911.1000;0.6365;0.5844;
911.4000;0.6333;0.5693;
911.7000;0.6365;0.5743;
912.0000;0.6357;0.5718;
912.3000;0.6365;0.5743;
912.6000;0.6374;0.5769;
912.9000;0.6374;0.5819;
913.2000;0.6349;0.5794;
913.5000;0.6357;0.5819;
913.8000;0.6365;0.5894;
914.1000;0.6357;0.5869;
914.4000;0.6357;0.5869;
914.7000;0.6357;0.5819;
915.0000;0.6349;0.5819;
915.3000;0.6317;0.5693;
915.6000;0.6349;0.5819;
915.9000;0.6357;0.5769;
916.2000;0.6365;0.5794;
916.5000;0.6325;0.5668;
916.8000;0.6349;0.5718;
917.1000;0.6333;0.5718;
917.4000;0.6341;0.5794;
917.7000;0.6357;0.5869;
918.0000;0.6357;0.5869;
918.3000;0.6357;0.5743;
918.6000;0.6357;0.5718;
918.9000;0.6325;0.5718;
919.2000;0.6365;0.5693;
919.5000;0.6357;0.5668;
919.8000;0.6341;0.5592;
920.1000;0.6382;0.5668;
920.4000;0.6357;0.5542;
920.7000;0.6357;0.5567;
921.0000;0.6325;0.5617;
921.3000;0.6349;0.5743;
921.6000;0.6341;0.5743;
921.9000;0.6406;0.5894;
922.2000;0.6341;0.5693;
922.5000;0.6349;0.5718;
922.8000;0.6357;0.5794;
923.1000;0.6365;0.5844;
923.4000;0.6357;0.5769;
923.7000;0.6349;0.5718;
924.0000;0.6365;0.5794;
924.3000;0.6341;0.5794;
924.6000;0.6349;0.5819;
924.9000;0.6349;0.5794;
925.2000;0.6349;0.5844;
925.5000;0.6365;0.5894;
925.8000;0.6349;0.5844;
926.1000;0.6357;0.5920;
926.4000;0.6341;0.5718;
926.7000;0.6357;0.5693;
927.0000;0.6365;0.5743;
927.3000;0.6349;0.5718;
927.6000;0.6333;0.5743;
927.9000;0.6349;0.5769;
928.2000;0.6349;0.5769;
928.5000;0.6365;0.5794;
928.8000;0.6284;0.5567;
929.1000;0.6268;0.5592;
929.4000;0.6325;0.5693;
929.7000;0.6349;0.5743;
930.0000;0.6341;0.5769;
930.3000;0.6349;0.5769;
930.6000;0.6341;0.5794;
930.9000;0.6374;0.5970;
931.2000;0.6325;0.5894;
931.5000;0.6357;0.6020;
931.8000;0.6341;0.5869;
932.1000;0.6341;0.5894;
932.4000;0.6325;0.5844;
932.7000;0.6333;0.5844;
933.0000;0.6325;0.5894;
933.3000;0.6341;0.5945;
933.6000;0.6374;0.5970;
933.9000;0.6325;0.5869;
934.2000;0.6349;0.5920;
934.5000;0.6325;0.5794;
934.8000;0.6341;0.5819;
935.1000;0.6333;0.5869;
935.4000;0.6333;0.6020;
935.7000;0.6349;0.6046;
936.0000;0.6341;0.5945;
936.3000;0.6357;0.5970;
936.6000;0.6333;0.5794;
936.9000;0.6341;0.5819;
937.2000;0.6317;0.5819;
937.5000;0.6325;0.5844;
937.8000;0.6333;0.5844;
938.1000;0.6349;0.5945;
938.4000;0.6333;0.5970;
938.7000;0.6325;0.5920;
939.0000;0.6325;0.5920;
939.3000;0.6341;0.5894;
939.6000;0.6341;0.5894;
939.9000;0.6309;0.5920;
940.2000;0.6333;0.5920;
940.5000;0.6341;0.5894;
940.8000;0.6341;0.5945;
941.1000;0.6349;0.6046;
941.4000;0.6325;0.6071;
941.7000;0.6333;0.5970;
942.0000;0.6333;0.5995;
942.3000;0.6333;0.5945;
942.6000;0.6333;0.5945;
942.9000;0.6325;0.5995;
943.2000;0.6333;0.6046;
943.5000;0.6325;0.6096;
943.8000;0.6333;0.6071;
944.1000;0.6325;0.6046;
944.4000;0.6333;0.6020;
944.7000;0.6333;0.5995;
945.0000;0.6341;0.5995;
945.3000;0.6333;0.5995;
945.6000;0.6333;0.5970;
945.9000;0.6341;0.5970;
946.2000;0.6374;0.5869;
946.5000;0.6333;0.5743;
946.8000;0.6341;0.5869;
947.1000;0.6349;0.5869;
947.4000;0.6333;0.5819;
947.7000;0.6333;0.5794;
948.0000;0.6333;0.5869;
948.3000;0.6325;0.5844;
948.6000;0.6333;0.5819;
948.9000;0.6325;0.5718;
949.2000;0.6333;0.5819;
949.5000;0.6333;0.5794;
949.8000;0.6341;0.5894;
950.1000;0.6325;0.5945;
950.4000;0.6325;0.5920;
950.7000;0.6325;0.5869;
951.0000;0.6349;0.5869;
951.3000;0.6317;0.5769;
951.6000;0.6317;0.5794;
951.9000;0.6341;0.5769;
952.2000;0.6341;0.5693;
952.5000;0.6357;0.5668;
952.8000;0.6325;0.5693;
953.1000;0.6292;0.5693;
953.4000;0.6325;0.5718;
953.7000;0.6325;0.5819;
954.0000;0.6300;0.5869;
954.3000;0.6252;0.5743;
954.6000;0.6309;0.5945;
954.9000;0.6365;0.6046;
955.2000;0.6317;0.5894;
955.5000;0.6333;0.5920;
955.8000;0.6317;0.5869;
956.1000;0.6325;0.5844;
956.4000;0.6333;0.5894;
956.7000;0.6300;0.5894;
957.0000;0.6325;0.5970;
957.3000;0.6325;0.5920;
957.6000;0.6349;0.6020;
957.9000;0.6382;0.6121;
958.2000;0.6325;0.5995;
958.5000;0.6333;0.5945;
958.8000;0.6317;0.5995;
959.1000;0.6309;0.5920;
959.4000;0.6317;0.5920;
959.7000;0.6317;0.5894;
960.0000;0.6357;0.5970;
960.3000;0.6317;0.5970;
960.6000;0.6325;0.6020;
960.9000;0.6325;0.6046;
961.2000;0.6333;0.6071;
961.5000;0.6325;0.5945;
961.8000;0.6333;0.5894;
962.1000;0.6300;0.5945;
962.4000;0.6325;0.5995;
962.7000;0.6325;0.6071;
963.0000;0.6325;0.6071;
963.3000;0.6317;0.6020;
963.6000;0.6325;0.6020;
963.9000;0.6317;0.6071;
964.2000;0.6317;0.6071;
964.5000;0.6317;0.6071;
964.8000;0.6300;0.5970;
965.1000;0.6333;0.5970;
965.4000;0.6325;0.5920;
965.7000;0.6317;0.5869;
966.0000;0.6325;0.5970;
966.3000;0.6309;0.6020;
966.6000;0.6309;0.5894;
966.9000;0.6317;0.5920;
967.2000;0.6341;0.5970;
967.5000;0.6325;0.5970;
967.8000;0.6284;0.5794;
968.1000;0.6325;0.5920;
968.4000;0.6309;0.5844;
968.7000;0.6317;0.5844;
969.0000;0.6292;0.5844;
969.3000;0.6325;0.5894;
969.6000;0.6325;0.5869;
969.9000;0.6341;0.5894;
970.2000;0.6357;0.5945;
970.5000;0.6317;0.5819;
970.8000;0.6317;0.5819;
971.1000;0.6325;0.5769;
971.4000;0.6317;0.5693;
971.7000;0.6317;0.5769;
972.0000;0.6309;0.5819;
972.3000;0.6325;0.5920;
972.6000;0.6317;0.5995;
972.9000;0.6325;0.5970;
973.2000;0.6309;0.5920;
973.5000;0.6260;0.5844;
973.8000;0.6309;0.5970;
974.1000;0.6309;0.5970;
974.4000;0.6333;0.6121;
974.7000;0.6325;0.6146;
975.0000;0.6325;0.6096;
975.3000;0.6300;0.5995;
975.6000;0.6325;0.6020;
975.9000;0.6333;0.5945;
976.2000;0.6325;0.5995;
976.5000;0.6292;0.5970;
976.8000;0.6317;0.6020;
977.1000;0.6309;0.5995;
977.4000;0.6317;0.6096;
977.7000;0.6309;0.6121;
978.0000;0.6300;0.6071;
978.3000;0.6325;0.6071;
978.6000;0.6292;0.6046;
978.9000;0.6317;0.5970;
979.2000;0.6309;0.5920;
979.5000;0.6309;0.6020;
979.8000;0.6349;0.6071;
980.1000;0.6325;0.5970;
980.4000;0.6374;0.6071;
980.7000;0.6333;0.5945;
981.0000;0.6309;0.5945;
981.3000;0.6309;0.5945;
981.6000;0.6317;0.5995;
981.9000;0.6300;0.5970;
982.2000;0.6284;0.5995;
982.5000;0.6300;0.5970;
982.8000;0.6325;0.5970;
983.1000;0.6317;0.6020;
983.4000;0.6276;0.5970;
983.7000;0.6317;0.5970;
984.0000;0.6317;0.5945;
984.3000;0.6309;0.5945;
984.6000;0.6309;0.5920;
984.9000;0.6292;0.5869;
985.2000;0.6300;0.5920;
985.5000;0.6292;0.5920;
985.8000;0.6309;0.5894;
986.1000;0.6300;0.5920;
986.4000;0.6292;0.5894;
986.7000;0.6317;0.5945;
987.0000;0.6276;0.5869;
987.3000;0.6268;0.5970;
987.6000;0.6317;0.6121;
987.9000;0.6292;0.6096;
988.2000;0.6300;0.6096;
988.5000;0.6268;0.6020;
988.8000;0.6317;0.6020;
989.1000;0.6292;0.5970;
989.4000;0.6276;0.5894;
989.7000;0.6292;0.5844;
990.0000;0.6268;0.5769;
990.3000;0.6284;0.5769;
990.6000;0.6333;0.5894;
990.9000;0.6317;0.5894;
991.2000;0.6309;0.5920;
991.5000;0.6268;0.5743;
991.8000;0.6317;0.5769;
992.1000;0.6317;0.5693;
992.4000;0.6276;0.5743;
992.7000;0.6284;0.5693;
993.0000;0.6300;0.5668;
993.3000;0.6292;0.5668;
993.6000;0.6268;0.5643;
993.9000;0.6284;0.5718;
994.2000;0.6284;0.5794;
994.5000;0.6333;0.5894;
994.8000;0.6284;0.5869;
995.1000;0.6292;0.5844;
995.4000;0.6325;0.5869;
995.7000;0.6300;0.5894;
996.0000;0.6317;0.5945;
996.3000;0.6317;0.5970;
996.6000;0.6309;0.5970;
996.9000;0.6333;0.6020;
997.2000;0.6317;0.6096;
997.5000;0.6309;0.6020;
997.8000;0.6292;0.5920;
998.1000;0.6300;0.5945;
998.4000;0.6309;0.5894;
998.7000;0.6292;0.5869;
999.0000;0.6284;0.5869;
999.3000;0.6227;0.5794;
999.6000;0.6260;0.5869;
999.9000;0.6284;0.5970;
1000.2000;0.6219;0.5920;
1000.5000;0.6284;0.6071;
1000.8000;0.6292;0.6121;
1001.1000;0.6260;0.5995;
1001.4000;0.6317;0.6046;
1001.7000;0.6300;0.5995;
1002.0000;0.6292;0.5945;
1002.3000;0.6309;0.5970;
1002.6000;0.6284;0.5920;
1002.9000;0.6276;0.5920;
1003.2000;0.6276;0.5920;
1003.5000;0.6284;0.5970;
1003.8000;0.6292;0.6020;
1004.1000;0.6292;0.6046;
1004.4000;0.6284;0.6121;
1004.7000;0.6300;0.6096;
1005.0000;0.6284;0.6172;
1005.3000;0.6309;0.6146;
1005.6000;0.6284;0.6121;
1005.9000;0.6300;0.6146;
1006.2000;0.6292;0.6096;
1006.5000;0.6292;0.6146;
1006.8000;0.6284;0.6146;
1007.1000;0.6309;0.6172;
1007.4000;0.6260;0.6071;
1007.7000;0.6268;0.6096;
1008.0000;0.6292;0.6121;
1008.3000;0.6235;0.6020;
1008.6000;0.6276;0.6096;
1008.9000;0.6284;0.6096;
1009.2000;0.6284;0.6146;
1009.5000;0.6268;0.6071;
1009.8000;0.6292;0.6020;
1010.1000;0.6268;0.5920;
1010.4000;0.6284;0.5920;
1010.7000;0.6309;0.5970;
1011.0000;0.6292;0.5995;
1011.3000;0.6284;0.5945;
1011.6000;0.6243;0.5819;
1011.9000;0.6284;0.5970;
1012.2000;0.6300;0.5995;
1012.5000;0.6284;0.5970;
1012.8000;0.6300;0.6046;
1013.1000;0.6284;0.6046;
1013.4000;0.6292;0.6096;
1013.7000;0.6309;0.6197;
1014.0000;0.6276;0.6121;
1014.3000;0.6292;0.6222;
1014.6000;0.6268;0.6121;
1014.9000;0.6284;0.6096;
1015.2000;0.6284;0.6046;
1015.5000;0.6268;0.6046;
1015.8000;0.6276;0.6046;
1016.1000;0.6260;0.5995;
1016.4000;0.6284;0.6020;
1016.7000;0.6284;0.6121;
1017.0000;0.6284;0.6146;
1017.3000;0.6268;0.6247;
1017.6000;0.6276;0.6247;
1017.9000;0.6260;0.6121;
1018.2000;0.6284;0.6197;
1018.5000;0.6268;0.6121;
1018.8000;0.6268;0.6096;
1019.1000;0.6276;0.6146;
1019.4000;0.6268;0.5970;
1019.7000;0.6260;0.5995;
1020.0000;0.6276;0.6020;
1020.3000;0.6300;0.6071;
1020.6000;0.6276;0.5995;
1020.9000;0.6284;0.5945;
1021.2000;0.6317;0.6096;
1021.5000;0.6284;0.6121;
1021.8000;0.6276;0.6071;
1022.1000;0.6268;0.6046;
1022.4000;0.6300;0.6071;
1022.7000;0.6284;0.5995;
1023.0000;0.6276;0.6046;
1023.3000;0.6268;0.5970;
1023.6000;0.6284;0.6020;
1023.9000;0.6284;0.5970;
1024.2000;0.6268;0.6046;
1024.5000;0.6260;0.5945;
1024.8000;0.6284;0.5945;
1025.1000;0.6276;0.5995;
1025.4000;0.6260;0.5970;
1025.7000;0.6276;0.5995;
1026.0000;0.6284;0.5995;
1026.3000;0.6276;0.6046;
1026.6000;0.6276;0.6046;
1026.9000;0.6260;0.6020;
1027.2000;0.6260;0.5995;
1027.5000;0.6260;0.5970;
1027.8000;0.6284;0.5970;
1028.1000;0.6268;0.5869;
1028.4000;0.6292;0.5869;
1028.7000;0.6276;0.5945;
1029.0000;0.6284;0.5995;
1029.3000;0.6268;0.5970;
1029.6000;0.6276;0.5995;
1029.9000;0.6268;0.5995;
1030.2000;0.6284;0.6121;
1030.5000;0.6276;0.6071;
1030.8000;0.6284;0.6121;
1031.1000;0.6292;0.6096;
1031.4000;0.6227;0.5920;
1031.7000;0.6292;0.6121;
1032.0000;0.6276;0.6096;
1032.3000;0.6252;0.6096;
1032.6000;0.6284;0.6197;
1032.9000;0.6276;0.6071;
1033.2000;0.6260;0.6020;
1033.5000;0.6300;0.6096;
1033.8000;0.6292;0.6146;
1034.1000;0.6284;0.6071;
1034.4000;0.6268;0.5995;
1034.7000;0.6284;0.6046;
1035.0000;0.6252;0.5945;
1035.3000;0.6268;0.6046;
1035.6000;0.6268;0.6046;
1035.9000;0.6284;0.6096;
1036.2000;0.6235;0.5995;
1036.5000;0.6276;0.6146;
1036.8000;0.6268;0.6121;
1037.1000;0.6268;0.6146;
1037.4000;0.6268;0.6197;
1037.7000;0.6219;0.6071;
1038.0000;0.6292;0.6323;
1038.3000;0.6243;0.6121;
1038.6000;0.6252;0.6046;
1038.9000;0.6219;0.5945;
1039.2000;0.6292;0.6096;
1039.5000;0.6268;0.5995;
1039.8000;0.6252;0.5995;
1040.1000;0.6276;0.6071;
1040.4000;0.6292;0.6121;
1040.7000;0.6276;0.6096;
1041.0000;0.6276;0.6096;
1041.3000;0.6260;0.6071;
1041.6000;0.6276;0.6020;
1041.9000;0.6292;0.6071;
1042.2000;0.6252;0.6046;
1042.5000;0.6276;0.5995;
1042.8000;0.6292;0.6046;
1043.1000;0.6276;0.6071;
1043.4000;0.6276;0.6071;
1043.7000;0.6268;0.6071;
1044.0000;0.6268;0.6096;
1044.3000;0.6268;0.6146;
1044.6000;0.6268;0.6121;
1044.9000;0.6284;0.6071;
1045.2000;0.6252;0.6046;
1045.5000;0.6276;0.6071;
1045.8000;0.6309;0.6172;
1046.1000;0.6260;0.5970;
1046.4000;0.6276;0.5945;
1046.7000;0.6276;0.6071;
1047.0000;0.6268;0.6096;
1047.3000;0.6243;0.5995;
1047.6000;0.6252;0.6121;
1047.9000;0.6235;0.6071;
1048.2000;0.6268;0.6096;
1048.5000;0.6276;0.6046;
1048.8000;0.6243;0.5970;
1049.1000;0.6276;0.6046;
1049.4000;0.6276;0.5995;
1049.7000;0.6243;0.5920;
1050.0000;0.6235;0.5945;
1050.3000;0.6243;0.5970;
1050.6000;0.6260;0.5995;
1050.9000;0.6235;0.5945;
1051.2000;0.6252;0.5995;
1051.5000;0.6317;0.6172;
1051.8000;0.6268;0.6071;
1052.1000;0.6252;0.6020;
1052.4000;0.6243;0.5945;
1052.7000;0.6252;0.6020;
1053.0000;0.6260;0.6046;
1053.3000;0.6252;0.6071;
1053.6000;0.6268;0.5970;
1053.9000;0.6260;0.6071;
1054.2000;0.6284;0.6046;
1054.5000;0.6252;0.6096;
1054.8000;0.6252;0.6046;
1055.1000;0.6243;0.5970;
1055.4000;0.6268;0.6071;
1055.7000;0.6276;0.6071;
1056.0000;0.6276;0.6096;
1056.3000;0.6243;0.6046;
1056.6000;0.6211;0.5970;
1056.9000;0.6276;0.6247;
1057.2000;0.6243;0.6172;
1057.5000;0.6284;0.6222;
1057.8000;0.6252;0.6172;
1058.1000;0.6268;0.6172;
1058.4000;0.6276;0.6096;
1058.7000;0.6260;0.6020;
1059.0000;0.6276;0.5945;
1059.3000;0.6252;0.5995;
1059.6000;0.6260;0.6020;
1059.9000;0.6227;0.5995;
1060.2000;0.6276;0.6121;
1060.5000;0.6260;0.6146;
1060.8000;0.6252;0.6096;
1061.1000;0.6260;0.6146;
1061.4000;0.6252;0.6071;
1061.7000;0.6268;0.6071;
1062.0000;0.6300;0.6172;
1062.3000;0.6260;0.6121;
1062.6000;0.6260;0.6046;
1062.9000;0.6268;0.5995;
1063.2000;0.6292;0.6020;
1063.5000;0.6284;0.6046;
1063.8000;0.6268;0.6046;
1064.1000;0.6268;0.6071;
1064.4000;0.6252;0.5945;
1064.7000;0.6268;0.5970;
1065.0000;0.6268;0.6046;
1065.3000;0.6268;0.6096;
1065.6000;0.6260;0.5995;
1065.9000;0.6243;0.5995;
1066.2000;0.6260;0.6020;
1066.5000;0.6260;0.6046;
1066.8000;0.6268;0.6172;
1067.1000;0.6284;0.6222;
1067.4000;0.6243;0.6121;
1067.7000;0.6260;0.6071;
1068.0000;0.6260;0.6096;
1068.3000;0.6284;0.6146;
1068.6000;0.6268;0.6096;
1068.9000;0.6276;0.6121;
1069.2000;0.6252;0.6046;
1069.5000;0.6260;0.6172;
1069.8000;0.6260;0.6197;
1070.1000;0.6243;0.6172;
1070.4000;0.6243;0.6121;
1070.7000;0.6252;0.6096;
1071.0000;0.6235;0.6172;
1071.3000;0.6186;0.6071;
1071.6000;0.6260;0.6297;
1071.9000;0.6243;0.6323;
1072.2000;0.6235;0.6323;
1072.5000;0.6276;0.6348;
1072.8000;0.6252;0.6222;
1073.1000;0.6252;0.6297;
1073.4000;0.6252;0.6348;
1073.7000;0.6243;0.6272;
1074.0000;0.6260;0.6272;
1074.3000;0.6243;0.6172;
1074.6000;0.6260;0.6146;
1074.9000;0.6268;0.6172;
1075.2000;0.6227;0.6071;
1075.5000;0.6243;0.6121;
1075.8000;0.6243;0.6121;
1076.1000;0.6252;0.6121;
1076.4000;0.6243;0.6121;
1076.7000;0.6260;0.6146;
1077.0000;0.6292;0.6222;
1077.3000;0.6300;0.6323;
1077.6000;0.6276;0.6272;
1077.9000;0.6292;0.6247;
1078.2000;0.6219;0.6046;
1078.5000;0.6268;0.6222;
1078.8000;0.6268;0.6297;
1079.1000;0.6243;0.6146;
1079.4000;0.6243;0.6172;
1079.7000;0.6252;0.6222;
1080.0000;0.6227;0.6172;
1080.3000;0.6243;0.6121;
1080.6000;0.6268;0.6172;
1080.9000;0.6235;0.6071;
1081.2000;0.6235;0.6121;
1081.5000;0.6186;0.6096;
1081.8000;0.6227;0.6146;
1082.1000;0.6227;0.6121;
1082.4000;0.6227;0.6172;
1082.7000;0.6227;0.6146;
1083.0000;0.6211;0.6020;
1083.3000;0.6235;0.6146;
1083.6000;0.6243;0.6096;
1083.9000;0.6292;0.6096;
1084.2000;0.6252;0.5995;
1084.5000;0.6235;0.5970;
1084.8000;0.6195;0.5920;
1085.1000;0.6252;0.6071;
1085.4000;0.6260;0.6046;
1085.7000;0.6243;0.5970;
1086.0000;0.6227;0.5970;
1086.3000;0.6260;0.5970;
1086.6000;0.6195;0.5769;
1086.9000;0.6243;0.5844;
1087.2000;0.6235;0.5869;
1087.5000;0.6260;0.5920;
1087.8000;0.6252;0.5970;
1088.1000;0.6252;0.5894;
1088.4000;0.6235;0.5894;
1088.7000;0.6284;0.5970;
1089.0000;0.6260;0.5995;
1089.3000;0.6235;0.5970;
1089.6000;0.6252;0.6197;
1089.9000;0.6252;0.6222;
1090.2000;0.6268;0.6247;
1090.5000;0.6252;0.6197;
1090.8000;0.6243;0.6146;
1091.1000;0.6243;0.6121;
1091.4000;0.6235;0.6222;
1091.7000;0.6252;0.6297;
1092.0000;0.6227;0.6172;
1092.3000;0.6252;0.6172;
1092.6000;0.6252;0.6121;
1092.9000;0.6252;0.6172;
1093.2000;0.6235;0.6071;
1093.5000;0.6227;0.6071;
1093.8000;0.6252;0.6121;
1094.1000;0.6243;0.6146;
1094.4000;0.6260;0.6146;
1094.7000;0.6252;0.6121;
1095.0000;0.6235;0.6046;
1095.3000;0.6243;0.6096;
1095.6000;0.6243;0.6071;
1095.9000;0.6243;0.6020;
1096.2000;0.6252;0.6071;
1096.5000;0.6227;0.6071;
1096.8000;0.6243;0.6096;
1097.1000;0.6252;0.6172;
1097.4000;0.6243;0.5995;
1097.7000;0.6243;0.6046;
1098.0000;0.6260;0.6046;
1098.3000;0.6252;0.6046;
1098.6000;0.6235;0.6071;
1098.9000;0.6260;0.6020;
1099.2000;0.6284;0.6071;
1099.5000;0.6243;0.5970;
1099.8000;0.6243;0.5945;
1100.1000;0.6211;0.5844;
1100.4000;0.6252;0.5995;
1100.7000;0.6235;0.5920;
1101.0000;0.6219;0.5794;
1101.3000;0.6292;0.5995;
1101.6000;0.6235;0.5894;
1101.9000;0.6260;0.5970;
1102.2000;0.6211;0.5819;
1102.5000;0.6252;0.5945;
1102.8000;0.6252;0.6020;
1103.1000;0.6235;0.6046;
1103.4000;0.6268;0.6146;
1103.7000;0.6235;0.6096;
1104.0000;0.6268;0.6222;
1104.3000;0.6243;0.6222;
1104.6000;0.6227;0.6197;
1104.9000;0.6203;0.6172;
1105.2000;0.6186;0.6197;
1105.5000;0.6243;0.6272;
1105.8000;0.6243;0.6222;
1106.1000;0.6227;0.6121;
1106.4000;0.6235;0.6096;
1106.7000;0.6235;0.5995;
1107.0000;0.6243;0.5995;
1107.3000;0.6235;0.5995;
1107.6000;0.6243;0.6071;
1107.9000;0.6243;0.6046;
1108.2000;0.6227;0.5995;
1108.5000;0.6227;0.6020;
1108.8000;0.6243;0.5945;
1109.1000;0.6243;0.5894;
1109.4000;0.6243;0.5945;
1109.7000;0.6243;0.5995;
1110.0000;0.6235;0.6020;
1110.3000;0.6268;0.6096;
1110.6000;0.6260;0.6121;
1110.9000;0.6252;0.6197;
1111.2000;0.6235;0.6121;
1111.5000;0.6227;0.6121;
1111.8000;0.6243;0.6146;
1112.1000;0.6243;0.6146;
1112.4000;0.6235;0.6172;
1112.7000;0.6243;0.6172;
1113.0000;0.6227;0.6096;
1113.3000;0.6235;0.6222;
1113.6000;0.6211;0.6172;
1113.9000;0.6227;0.6297;
1114.2000;0.6252;0.6247;
1114.5000;0.6243;0.6222;
1114.8000;0.6243;0.6297;
1115.1000;0.6243;0.6373;
1115.4000;0.6243;0.6373;
1115.7000;0.6252;0.6323;
1116.0000;0.6227;0.6247;
1116.3000;0.6227;0.6197;
1116.6000;0.6227;0.6247;
1116.9000;0.6227;0.6323;
1117.2000;0.6243;0.6398;
1117.5000;0.6227;0.6348;
1117.8000;0.6252;0.6373;
1118.1000;0.6227;0.6323;
1118.4000;0.6243;0.6373;
1118.7000;0.6195;0.6323;
1119.0000;0.6211;0.6247;
1119.3000;0.6243;0.6323;
1119.6000;0.6260;0.6323;
1119.9000;0.6219;0.6222;
1120.2000;0.6243;0.6222;
1120.5000;0.6235;0.6197;
1120.8000;0.6252;0.6247;
1121.1000;0.6243;0.6172;
1121.4000;0.6235;0.6172;
1121.7000;0.6235;0.6197;
1122.0000;0.6235;0.6172;
1122.3000;0.6186;0.6046;
1122.6000;0.6243;0.6247;
1122.9000;0.6227;0.6247;
1123.2000;0.6227;0.6272;
1123.5000;0.6235;0.6272;
1123.8000;0.6227;0.6197;
1124.1000;0.6195;0.6146;
1124.4000;0.6211;0.6172;
1124.7000;0.6203;0.6146;
1125.0000;0.6219;0.6297;
1125.3000;0.6252;0.6398;
1125.6000;0.6243;0.6398;
1125.9000;0.6235;0.6297;
1126.2000;0.6219;0.6172;
1126.5000;0.6227;0.6096;
1126.8000;0.6252;0.6121;
1127.1000;0.6268;0.6247;
1127.4000;0.6235;0.6297;
1127.7000;0.6227;0.6297;
1128.0000;0.6235;0.6247;
1128.3000;0.6252;0.6197;
1128.6000;0.6227;0.6172;
1128.9000;0.6243;0.6172;
1129.2000;0.6227;0.6020;
1129.5000;0.6235;0.5920;
1129.8000;0.6252;0.5995;
1130.1000;0.6227;0.5995;
1130.4000;0.6186;0.5920;
1130.7000;0.6235;0.6096;
1131.0000;0.6243;0.6172;
1131.3000;0.6219;0.6146;
1131.6000;0.6219;0.6096;
1131.9000;0.6227;0.6046;
1132.2000;0.6162;0.5970;
1132.5000;0.6243;0.6172;
1132.8000;0.6211;0.6121;
1133.1000;0.6219;0.6121;
1133.4000;0.6227;0.6146;
1133.7000;0.6243;0.6096;
1134.0000;0.6268;0.6197;
1134.3000;0.6235;0.6096;
1134.6000;0.6243;0.6146;
1134.9000;0.6243;0.6172;
1135.2000;0.6211;0.6046;
1135.5000;0.6219;0.6071;
1135.8000;0.6235;0.6096;
1136.1000;0.6235;0.6071;
1136.4000;0.6243;0.6121;
1136.7000;0.6243;0.6096;
1137.0000;0.6219;0.6020;
1137.3000;0.6227;0.5995;
1137.6000;0.6227;0.6071;
1137.9000;0.6227;0.6071;
1138.2000;0.6235;0.6121;
1138.5000;0.6219;0.6020;
1138.8000;0.6260;0.6020;
1139.1000;0.6219;0.5945;
1139.4000;0.6227;0.6071;
1139.7000;0.6235;0.6046;
1140.0000;0.6243;0.6046;
1140.3000;0.6252;0.6096;
1140.6000;0.6243;0.6046;
1140.9000;0.6243;0.6071;
1141.2000;0.6243;0.6071;
1141.5000;0.6219;0.6046;
1141.8000;0.6219;0.6071;
1142.1000;0.6227;0.6020;
1142.4000;0.6219;0.6046;
1142.7000;0.6227;0.6172;
1143.0000;0.6219;0.6197;
1143.3000;0.6186;0.6197;
1143.6000;0.6235;0.6323;
1143.9000;0.6235;0.6348;
1144.2000;0.6235;0.6272;
1144.5000;0.6219;0.6146;
1144.8000;0.6227;0.6121;
1145.1000;0.6235;0.6121;
1145.4000;0.6227;0.6172;
1145.7000;0.6211;0.6146;
1146.0000;0.6235;0.6247;
1146.3000;0.6260;0.6272;
1146.6000;0.6235;0.6172;
1146.9000;0.6235;0.6197;
1147.2000;0.6219;0.6247;
1147.5000;0.6243;0.6323;
1147.8000;0.6219;0.6272;
1148.1000;0.6211;0.6146;
1148.4000;0.6219;0.6096;
1148.7000;0.6235;0.6046;
1149.0000;0.6219;0.5970;
1149.3000;0.6211;0.5945;
1149.6000;0.6219;0.6071;
1149.9000;0.6219;0.6046;
1150.2000;0.6227;0.5995;
1150.5000;0.6211;0.5945;
1150.8000;0.6227;0.5920;
1151.1000;0.6243;0.5920;
1151.4000;0.6243;0.5894;
1151.7000;0.6219;0.5819;
1152.0000;0.6235;0.5894;
1152.3000;0.6219;0.5844;
1152.6000;0.6235;0.5869;
1152.9000;0.6227;0.5945;
1153.2000;0.6203;0.5995;
1153.5000;0.6203;0.5894;
1153.8000;0.6219;0.5995;
1154.1000;0.6203;0.6020;
1154.4000;0.6235;0.6071;
1154.7000;0.6219;0.5995;
1155.0000;0.6252;0.6121;
1155.3000;0.6235;0.6096;
1155.6000;0.6219;0.6071;
1155.9000;0.6219;0.6071;
1156.2000;0.6186;0.5945;
1156.5000;0.6211;0.6096;
1156.8000;0.6227;0.6096;
1157.1000;0.6227;0.5995;
1157.4000;0.6211;0.5945;
1157.7000;0.6211;0.5970;
1158.0000;0.6252;0.6146;
1158.3000;0.6219;0.5970;
1158.6000;0.6227;0.6071;
1158.9000;0.6219;0.5970;
1159.2000;0.6227;0.5894;
1159.5000;0.6178;0.5819;
1159.8000;0.6235;0.5920;
1160.1000;0.6219;0.5920;
1160.4000;0.6219;0.5945;
1160.7000;0.6292;0.6020;
1161.0000;0.6219;0.5894;
1161.3000;0.6227;0.5970;
1161.6000;0.6235;0.5995;
1161.9000;0.6227;0.5970;
1162.2000;0.6219;0.5945;
1162.5000;0.6243;0.5920;
1162.8000;0.6235;0.5894;
1163.1000;0.6235;0.6020;
1163.4000;0.6243;0.6121;
1163.7000;0.6219;0.5970;
1164.0000;0.6227;0.5920;
1164.3000;0.6219;0.5869;
1164.6000;0.6300;0.6020;
1164.9000;0.6243;0.5844;
1165.2000;0.6227;0.5869;
1165.5000;0.6235;0.5894;
1165.8000;0.6219;0.5894;
1166.1000;0.6195;0.5869;
1166.4000;0.6170;0.5794;
1166.7000;0.6211;0.5995;
1167.0000;0.6219;0.5995;
1167.3000;0.6211;0.5894;
1167.6000;0.6211;0.5995;
1167.9000;0.6235;0.6071;
1168.2000;0.6227;0.6020;
1168.5000;0.6219;0.5945;
1168.8000;0.6235;0.5995;
1169.1000;0.6227;0.5920;
1169.4000;0.6235;0.5945;
1169.7000;0.6170;0.5794;
1170.0000;0.6227;0.5945;
1170.3000;0.6219;0.6020;
1170.6000;0.6219;0.6046;
1170.9000;0.6186;0.5894;
1171.2000;0.6227;0.5894;
1171.5000;0.6227;0.5894;
1171.8000;0.6235;0.5894;
1172.1000;0.6227;0.5869;
1172.4000;0.6211;0.5970;
1172.7000;0.6235;0.6071;
1173.0000;0.6252;0.6121;
1173.3000;0.6243;0.6046;
1173.6000;0.6219;0.5844;
1173.9000;0.6203;0.5819;
1174.2000;0.6219;0.5920;
1174.5000;0.6252;0.5995;
1174.8000;0.6211;0.5894;
1175.1000;0.6211;0.5920;
1175.4000;0.6227;0.5970;
1175.7000;0.6235;0.5995;
1176.0000;0.6219;0.5995;
1176.3000;0.6211;0.6096;
1176.6000;0.6235;0.6197;
1176.9000;0.6227;0.6071;
1177.2000;0.6195;0.6020;
1177.5000;0.6211;0.6096;
1177.8000;0.6195;0.6146;
1178.1000;0.6235;0.6247;
1178.4000;0.6211;0.6247;
1178.7000;0.6203;0.6222;
1179.0000;0.6235;0.6222;
1179.3000;0.6235;0.6121;
1179.6000;0.6243;0.6146;
1179.9000;0.6227;0.6046;
1180.2000;0.6243;0.5995;
1180.5000;0.6227;0.5995;
1180.8000;0.6252;0.5995;
1181.1000;0.6211;0.5894;
1181.4000;0.6211;0.5894;
1181.7000;0.6219;0.5945;
1182.0000;0.6227;0.5945;
1182.3000;0.6203;0.5920;
1182.6000;0.6211;0.5970;
1182.9000;0.6219;0.5920;
1183.2000;0.6227;0.5995;
1183.5000;0.6219;0.5945;
1183.8000;0.6211;0.5920;
1184.1000;0.6203;0.6020;
1184.4000;0.6211;0.6046;
1184.7000;0.6227;0.5945;
1185.0000;0.6243;0.5894;
1185.3000;0.6243;0.5920;
1185.6000;0.6227;0.5920;
1185.9000;0.6243;0.5945;
1186.2000;0.6211;0.5869;
1186.5000;0.6178;0.5769;
1186.8000;0.6211;0.5894;
1187.1000;0.6195;0.5844;
1187.4000;0.6203;0.5920;
1187.7000;0.6211;0.5970;
1188.0000;0.6211;0.5920;
1188.3000;0.6203;0.5945;
1188.6000;0.6211;0.5945;
1188.9000;0.6211;0.5945;
1189.2000;0.6195;0.5970;
1189.5000;0.6195;0.5920;
1189.8000;0.6203;0.5869;
1190.1000;0.6178;0.5794;
1190.4000;0.6211;0.5869;
1190.7000;0.6186;0.5819;
1191.0000;0.6211;0.5844;
1191.3000;0.6219;0.5844;
1191.6000;0.6219;0.5869;
1191.9000;0.6162;0.5769;
1192.2000;0.6211;0.5995;
1192.5000;0.6219;0.6020;
1192.8000;0.6203;0.5995;
1193.1000;0.6186;0.5894;
1193.4000;0.6227;0.6020;
1193.7000;0.6219;0.6046;
1194.0000;0.6235;0.6146;
1194.3000;0.6203;0.6020;
1194.6000;0.6227;0.6071;
1194.9000;0.6235;0.6046;
1195.2000;0.6195;0.5995;
1195.5000;0.6211;0.6020;
1195.8000;0.6219;0.5945;
1196.1000;0.6219;0.6020;
1196.4000;0.6276;0.6121;
1196.7000;0.6211;0.5945;
1197.0000;0.6227;0.5920;
1197.3000;0.6235;0.5995;
1197.6000;0.6211;0.5995;
1197.9000;0.6260;0.6146;
1198.2000;0.6203;0.5945;
1198.5000;0.6211;0.5970;
1198.8000;0.6203;0.5945;
1199.1000;0.6219;0.6020;
1199.4000;0.6203;0.5995;
1199.7000;0.6219;0.6046;
1200.0000;0.6211;0.6121;
1200.3000;0.6203;0.6096;
1200.6000;0.6211;0.6071;
1200.9000;0.6211;0.6146;
1201.2000;0.6211;0.6121;
1201.5000;0.6211;0.6071;
1201.8000;0.6227;0.6096;
1202.1000;0.6227;0.6172;
1202.4000;0.6219;0.6096;
1202.7000;0.6211;0.5995;
1203.0000;0.6178;0.5894;
1203.3000;0.6227;0.5970;
1203.6000;0.6203;0.5995;
1203.9000;0.6211;0.5970;
1204.2000;0.6195;0.6020;
1204.5000;0.6211;0.5945;
1204.8000;0.6219;0.5920;
1205.1000;0.6211;0.5945;
1205.4000;0.6203;0.5970;
1205.7000;0.6235;0.5970;
1206.0000;0.6276;0.6172;
1206.3000;0.6219;0.6046;
1206.6000;0.6211;0.5970;
1206.9000;0.6211;0.5920;
1207.2000;0.6203;0.5819;
1207.5000;0.6211;0.5819;
1207.8000;0.6203;0.5794;
1208.1000;0.6252;0.5894;
1208.4000;0.6211;0.5920;
1208.7000;0.6260;0.6096;
1209.0000;0.6227;0.5995;
1209.3000;0.6203;0.6071;
1209.6000;0.6203;0.6046;
1209.9000;0.6235;0.6172;
1210.2000;0.6235;0.6222;
1210.5000;0.6219;0.6121;
1210.8000;0.6235;0.6146;
1211.1000;0.6243;0.6197;
1211.4000;0.6227;0.6222;
1211.7000;0.6203;0.6222;
1212.0000;0.6219;0.6197;
1212.3000;0.6219;0.6222;
1212.6000;0.6211;0.6172;
1212.9000;0.6219;0.6020;
1213.2000;0.6211;0.5995;
1213.5000;0.6235;0.6071;
1213.8000;0.6211;0.6046;
1214.1000;0.6227;0.6046;
1214.4000;0.6203;0.5945;
1214.7000;0.6203;0.5945;
1215.0000;0.6211;0.5945;
1215.3000;0.6203;0.5894;
1215.6000;0.6195;0.5945;
1215.9000;0.6186;0.5844;
1216.2000;0.6252;0.5970;
1216.5000;0.6227;0.6020;
1216.8000;0.6162;0.5869;
1217.1000;0.6203;0.5970;
1217.4000;0.6170;0.5894;
1217.7000;0.6170;0.5869;
1218.0000;0.6203;0.5945;
1218.3000;0.6203;0.5920;
1218.6000;0.6203;0.5894;
1218.9000;0.6195;0.5894;
1219.2000;0.6219;0.5945;
1219.5000;0.6203;0.6020;
1219.8000;0.6203;0.6020;
1220.1000;0.6243;0.6146;
1220.4000;0.6219;0.6046;
1220.7000;0.6203;0.5945;
1221.0000;0.6203;0.5995;
1221.3000;0.6211;0.5869;
1221.6000;0.6219;0.5894;
1221.9000;0.6219;0.5920;
1222.2000;0.6203;0.5894;
1222.5000;0.6211;0.5869;
1222.8000;0.6211;0.5869;
1223.1000;0.6211;0.5894;
1223.4000;0.6203;0.5920;
1223.7000;0.6203;0.5945;
1224.0000;0.6211;0.6046;
1224.3000;0.6211;0.5995;
1224.6000;0.6195;0.5970;
1224.9000;0.6219;0.5945;
1225.2000;0.6211;0.6071;
1225.5000;0.6211;0.6071;
1225.8000;0.6211;0.6071;
1226.1000;0.6203;0.6121;
1226.4000;0.6203;0.6172;
1226.7000;0.6219;0.6197;
1227.0000;0.6211;0.6172;
1227.3000;0.6186;0.6096;
1227.6000;0.6203;0.6071;
1227.9000;0.6227;0.6071;
1228.2000;0.6211;0.5970;
1228.5000;0.6203;0.5945;
1228.8000;0.6211;0.6020;
1229.1000;0.6211;0.6096;
1229.4000;0.6203;0.6146;
1229.7000;0.6227;0.6197;
1230.0000;0.6211;0.6197;
1230.3000;0.6219;0.6197;
1230.6000;0.6203;0.6172;
1230.9000;0.6219;0.6197;
1231.2000;0.6268;0.6423;
1231.5000;0.6219;0.6272;
1231.8000;0.6211;0.6323;
1232.1000;0.6219;0.6247;
1232.4000;0.6195;0.6197;
1232.7000;0.6235;0.6297;
1233.0000;0.6219;0.6247;
1233.3000;0.6203;0.6121;
1233.6000;0.6211;0.6197;
1233.9000;0.6178;0.6172;
1234.2000;0.6211;0.6172;
1234.5000;0.6219;0.6172;
1234.8000;0.6203;0.6146;
1235.1000;0.6219;0.6197;
1235.4000;0.6203;0.6121;
1235.7000;0.6186;0.6071;
1236.0000;0.6195;0.6222;
1236.3000;0.6203;0.6272;
1236.6000;0.6195;0.6222;
1236.9000;0.6219;0.6247;
1237.2000;0.6219;0.6197;
1237.5000;0.6203;0.6197;
1237.8000;0.6211;0.6172;
1238.1000;0.6227;0.6272;
1238.4000;0.6203;0.6146;
1238.7000;0.6195;0.6071;
1239.0000;0.6227;0.6121;
1239.3000;0.6219;0.6046;
1239.6000;0.6203;0.6020;
1239.9000;0.6195;0.5869;
1240.2000;0.6203;0.5844;
1240.5000;0.6227;0.5920;
1240.8000;0.6211;0.5945;
1241.1000;0.6219;0.5920;
1241.4000;0.6203;0.5869;
1241.7000;0.6203;0.5869;
1242.0000;0.6252;0.6096;
1242.3000;0.6211;0.6071;
1242.6000;0.6195;0.6172;
1242.9000;0.6203;0.6197;
1243.2000;0.6227;0.6197;
1243.5000;0.6211;0.6146;
1243.8000;0.6203;0.6121;
1244.1000;0.6211;0.6096;
1244.4000;0.6211;0.6071;
1244.7000;0.6211;0.6046;
1245.0000;0.6219;0.6020;
1245.3000;0.6219;0.5995;
1245.6000;0.6211;0.6046;
1245.9000;0.6195;0.6071;
1246.2000;0.6203;0.6071;
1246.5000;0.6203;0.5995;
1246.8000;0.6211;0.5970;
1247.1000;0.6227;0.6046;
1247.4000;0.6203;0.6121;
1247.7000;0.6203;0.6096;
1248.0000;0.6235;0.6247;
1248.3000;0.6203;0.6071;
1248.6000;0.6211;0.6046;
1248.9000;0.6203;0.6071;
1249.2000;0.6178;0.6046;
1249.5000;0.6195;0.6146;
1249.8000;0.6260;0.6272;
1250.1000;0.6186;0.5995;
1250.4000;0.6203;0.6096;
1250.7000;0.6203;0.6096;
1251.0000;0.6203;0.6046;
1251.3000;0.6195;0.6046;
1251.6000;0.6203;0.6096;
1251.9000;0.6211;0.6096;
1252.2000;0.6211;0.6096;
1252.5000;0.6211;0.6020;
1252.8000;0.6195;0.6020;
1253.1000;0.6186;0.5995;
1253.4000;0.6211;0.5995;
1253.7000;0.6203;0.6020;
1254.0000;0.6195;0.5970;
1254.3000;0.6186;0.5894;
1254.6000;0.6195;0.5869;
1254.9000;0.6203;0.6046;
1255.2000;0.6203;0.6020;
1255.5000;0.6178;0.6071;
1255.8000;0.6186;0.5995;
1256.1000;0.6186;0.6071;
1256.4000;0.6195;0.5995;
1256.7000;0.6170;0.5970;
1257.0000;0.6211;0.6020;
1257.3000;0.6211;0.6046;
1257.6000;0.6203;0.6020;
1257.9000;0.6203;0.6046;
1258.2000;0.6203;0.6020;
1258.5000;0.6219;0.6046;
1258.8000;0.6203;0.6071;
1259.1000;0.6195;0.6020;
1259.4000;0.6195;0.5945;
1259.7000;0.6203;0.5945;
1260.0000;0.6203;0.5894;
1260.3000;0.6186;0.5869;
1260.6000;0.6203;0.5844;
1260.9000;0.6211;0.5819;
1261.2000;0.6203;0.5794;
1261.5000;0.6203;0.5819;
1261.8000;0.6211;0.5794;
1262.1000;0.6195;0.5794;
1262.4000;0.6211;0.5920;
1262.7000;0.6195;0.5869;
1263.0000;0.6211;0.5970;
1263.3000;0.6203;0.5945;
1263.6000;0.6138;0.5794;
1263.9000;0.6203;0.5970;
1264.2000;0.6203;0.5920;
1264.5000;0.6203;0.5970;
1264.8000;0.6211;0.5995;
1265.1000;0.6219;0.5945;
1265.4000;0.6195;0.5920;
1265.7000;0.6276;0.6197;
1266.0000;0.6211;0.6046;
1266.3000;0.6219;0.6146;
1266.6000;0.6203;0.6146;
1266.9000;0.6195;0.6121;
1267.2000;0.6211;0.6121;
1267.5000;0.6186;0.6071;
1267.8000;0.6203;0.6121;
1268.1000;0.6186;0.6096;
1268.4000;0.6211;0.6172;
1268.7000;0.6211;0.6121;
1269.0000;0.6186;0.5995;
1269.3000;0.6195;0.5995;
1269.6000;0.6203;0.5945;
1269.9000;0.6211;0.6071;
1270.2000;0.6219;0.6096;
1270.5000;0.6211;0.6146;
1270.8000;0.6154;0.6020;
1271.1000;0.6178;0.6096;
1271.4000;0.6211;0.6046;
1271.7000;0.6186;0.5945;
1272.0000;0.6211;0.6046;
1272.3000;0.6195;0.6071;
1272.6000;0.6203;0.6071;
1272.9000;0.6138;0.5970;
1273.2000;0.6219;0.6172;
1273.5000;0.6203;0.6096;
1273.8000;0.6252;0.6197;
1274.1000;0.6227;0.6121;
1274.4000;0.6203;0.6020;
1274.7000;0.6178;0.5945;
1275.0000;0.6203;0.5970;
1275.3000;0.6219;0.5920;
1275.6000;0.6211;0.5894;
1275.9000;0.6203;0.5819;
1276.2000;0.6186;0.5794;
1276.5000;0.6227;0.5794;
1276.8000;0.6219;0.5769;
1277.1000;0.6195;0.5743;
1277.4000;0.6195;0.5769;
1277.7000;0.6211;0.5844;
1278.0000;0.6195;0.5869;
1278.3000;0.6219;0.5945;
1278.6000;0.6227;0.5945;
1278.9000;0.6203;0.5945;
1279.2000;0.6186;0.5970;
1279.5000;0.6219;0.6020;
1279.8000;0.6195;0.5995;
1280.1000;0.6203;0.5920;
1280.4000;0.6195;0.5894;
1280.7000;0.6195;0.5945;
1281.0000;0.6211;0.5920;
1281.3000;0.6203;0.5869;
1281.6000;0.6195;0.5920;
1281.9000;0.6211;0.5970;
1282.2000;0.6203;0.5920;
1282.5000;0.6121;0.5794;
1282.8000;0.6195;0.5970;
1283.1000;0.6203;0.5945;
1283.4000;0.6195;0.6046;
1283.7000;0.6170;0.6046;
1284.0000;0.6203;0.6046;
1284.3000;0.6211;0.6020;
1284.6000;0.6195;0.6046;
1284.9000;0.6195;0.5920;
1285.2000;0.6211;0.5844;
1285.5000;0.6203;0.5869;
1285.8000;0.6203;0.5920;
1286.1000;0.6186;0.5894;
1286.4000;0.6186;0.5945;
1286.7000;0.6203;0.6071;
1287.0000;0.6203;0.6121;
1287.3000;0.6195;0.6121;
1287.6000;0.6219;0.6197;
1287.9000;0.6203;0.6197;
1288.2000;0.6219;0.6197;
1288.5000;0.6195;0.6121;
1288.8000;0.6211;0.6146;
1289.1000;0.6219;0.6197;
1289.4000;0.6170;0.6046;
1289.7000;0.6203;0.6096;
1290.0000;0.6195;0.5945;
1290.3000;0.6170;0.5970;
1290.6000;0.6276;0.6247;
1290.9000;0.6203;0.6096;
1291.2000;0.6195;0.6096;
1291.5000;0.6195;0.6020;
1291.8000;0.6203;0.6071;
1292.1000;0.6178;0.6071;
1292.4000;0.6195;0.6046;
1292.7000;0.6195;0.5995;
1293.0000;0.6178;0.6020;
1293.3000;0.6195;0.6121;
1293.6000;0.6195;0.6172;
1293.9000;0.6170;0.6146;
1294.2000;0.6195;0.6247;
1294.5000;0.6195;0.6297;
1294.8000;0.6170;0.6146;
1295.1000;0.6178;0.6172;
1295.4000;0.6195;0.6146;
1295.7000;0.6195;0.6121;
1296.0000;0.6162;0.6046;
1296.3000;0.6178;0.6071;
1296.6000;0.6186;0.6046;
1296.9000;0.6195;0.6096;
1297.2000;0.6195;0.6046;
1297.5000;0.6195;0.6020;
1297.8000;0.6186;0.6121;
1298.1000;0.6186;0.6071;
1298.4000;0.6203;0.6146;
1298.7000;0.6178;0.6146;
1299.0000;0.6186;0.6222;
1299.3000;0.6186;0.6247;
1299.6000;0.6203;0.6297;
1299.9000;0.6203;0.6197;
1300.2000;0.6186;0.6247;
1300.5000;0.6195;0.6373;
1300.8000;0.6186;0.6323;
1301.1000;0.6178;0.6272;
1301.4000;0.6186;0.6272;
1301.7000;0.6195;0.6272;
1302.0000;0.6203;0.6272;
1302.3000;0.6219;0.6272;
1302.6000;0.6186;0.6197;
1302.9000;0.6195;0.6222;
1303.2000;0.6227;0.6197;
1303.5000;0.6203;0.6020;
1303.8000;0.6211;0.6046;
1304.1000;0.6195;0.6046;
1304.4000;0.6211;0.6096;
1304.7000;0.6195;0.6046;
1305.0000;0.6178;0.5945;
1305.3000;0.6186;0.5920;
1305.6000;0.6195;0.5995;
1305.9000;0.6170;0.6046;
1306.2000;0.6186;0.6096;
1306.5000;0.6154;0.5945;
1306.8000;0.6195;0.5995;
1307.1000;0.6203;0.6071;
1307.4000;0.6203;0.6071;
1307.7000;0.6186;0.6046;
1308.0000;0.6195;0.6121;
1308.3000;0.6203;0.6121;
1308.6000;0.6203;0.6197;
1308.9000;0.6178;0.6146;
1309.2000;0.6203;0.6146;
1309.5000;0.6195;0.6096;
1309.8000;0.6211;0.6071;
1310.1000;0.6186;0.6071;
1310.4000;0.6203;0.6096;
1310.7000;0.6203;0.6071;
1311.0000;0.6227;0.6146;
1311.3000;0.6195;0.6046;
1311.6000;0.6203;0.5995;
1311.9000;0.6195;0.5920;
1312.2000;0.6227;0.5995;
1312.5000;0.6203;0.5945;
1312.8000;0.6211;0.5970;
1313.1000;0.6203;0.5945;
1313.4000;0.6203;0.5995;
1313.7000;0.6211;0.6046;
1314.0000;0.6195;0.5894;
1314.3000;0.6195;0.5920;
1314.6000;0.6252;0.5970;
1314.9000;0.6211;0.5894;
1315.2000;0.6203;0.5844;
1315.5000;0.6195;0.5869;
1315.8000;0.6195;0.5945;
1316.1000;0.6178;0.5920;
1316.4000;0.6195;0.5970;
1316.7000;0.6178;0.5945;
1317.0000;0.6186;0.6020;
1317.3000;0.6203;0.6071;
1317.6000;0.6170;0.5995;
1317.9000;0.6186;0.6046;
1318.2000;0.6195;0.6071;
1318.5000;0.6203;0.6096;
1318.8000;0.6203;0.6046;
1319.1000;0.6186;0.6071;
1319.4000;0.6186;0.6071;
1319.7000;0.6203;0.6172;
1320.0000;0.6178;0.6172;
1320.3000;0.6186;0.6172;
1320.6000;0.6129;0.5945;
1320.9000;0.6203;0.6121;
1321.2000;0.6195;0.6071;
1321.5000;0.6195;0.6046;
1321.8000;0.6195;0.6071;
1322.1000;0.6121;0.5970;
1322.4000;0.6186;0.6222;
1322.7000;0.6195;0.6247;
1323.0000;0.6178;0.6222;
1323.3000;0.6186;0.6222;
1323.6000;0.6203;0.6297;
1323.9000;0.6211;0.6272;
1324.2000;0.6195;0.6297;
1324.5000;0.6211;0.6348;
1324.8000;0.6195;0.6373;
1325.1000;0.6195;0.6272;
1325.4000;0.6195;0.6197;
1325.7000;0.6186;0.6146;
1326.0000;0.6186;0.6096;
1326.3000;0.6211;0.6121;
1326.6000;0.6203;0.6071;
1326.9000;0.6195;0.6046;
1327.2000;0.6203;0.6096;
1327.5000;0.6195;0.6146;
1327.8000;0.6195;0.6096;
1328.1000;0.6186;0.6046;
1328.4000;0.6195;0.5970;
1328.7000;0.6211;0.6020;
1329.0000;0.6195;0.5920;
1329.3000;0.6186;0.5920;
1329.6000;0.6227;0.5920;
1329.9000;0.6203;0.5894;
1330.2000;0.6138;0.5693;
1330.5000;0.6195;0.5894;
1330.8000;0.6186;0.5995;
1331.1000;0.6186;0.6020;
1331.4000;0.6178;0.6020;
1331.7000;0.6276;0.6197;
1332.0000;0.6186;0.5970;
1332.3000;0.6195;0.5970;
1332.6000;0.6186;0.5995;
1332.9000;0.6211;0.6046;
1333.2000;0.6203;0.5995;
1333.5000;0.6195;0.5970;
1333.8000;0.6211;0.6071;
1334.1000;0.6195;0.6071;
1334.4000;0.6203;0.6121;
1334.7000;0.6203;0.6096;
1335.0000;0.6211;0.6172;
1335.3000;0.6211;0.6247;
1335.6000;0.6211;0.6222;
1335.9000;0.6186;0.6096;
1336.2000;0.6195;0.6071;
1336.5000;0.6203;0.6096;
1336.8000;0.6195;0.6146;
1337.1000;0.6178;0.6096;
1337.4000;0.6186;0.6222;
1337.7000;0.6203;0.6247;
1338.0000;0.6203;0.6222;
1338.3000;0.6195;0.6020;
1338.6000;0.6203;0.6046;
1338.9000;0.6203;0.6071;
1339.2000;0.6195;0.6172;
1339.5000;0.6186;0.6071;
1339.8000;0.6170;0.5995;
1340.1000;0.6195;0.6071;
1340.4000;0.6195;0.6071;
1340.7000;0.6178;0.6020;
1341.0000;0.6252;0.6096;
1341.3000;0.6186;0.5970;
1341.6000;0.6186;0.5970;
1341.9000;0.6186;0.6020;
1342.2000;0.6146;0.5920;
1342.5000;0.6170;0.5970;
1342.8000;0.6195;0.5970;
1343.1000;0.6186;0.5995;
1343.4000;0.6186;0.5894;
1343.7000;0.6186;0.5844;
1344.0000;0.6203;0.5869;
1344.3000;0.6203;0.5920;
1344.6000;0.6178;0.5894;
1344.9000;0.6170;0.5920;
1345.2000;0.6195;0.5920;
1345.5000;0.6195;0.5995;
1345.8000;0.6186;0.6020;
1346.1000;0.6178;0.5945;
1346.4000;0.6195;0.5920;
1346.7000;0.6195;0.5945;
1347.0000;0.6178;0.5869;
1347.3000;0.6178;0.5769;
1347.6000;0.6195;0.5844;
1347.9000;0.6195;0.5869;
1348.2000;0.6211;0.5945;
1348.5000;0.6195;0.5869;
1348.8000;0.6186;0.5844;
1349.1000;0.6203;0.5920;
1349.4000;0.6203;0.5945;
1349.7000;0.6186;0.5869;
1350.0000;0.6195;0.5945;
1350.3000;0.6178;0.5920;
1350.6000;0.6203;0.6020;
1350.9000;0.6186;0.6020;
1351.2000;0.6154;0.5819;
1351.5000;0.6186;0.5920;
1351.8000;0.6195;0.5920;
1352.1000;0.6170;0.5894;
1352.4000;0.6178;0.5920;
1352.7000;0.6203;0.6046;
1353.0000;0.6219;0.6071;
1353.3000;0.6178;0.6046;
1353.6000;0.6178;0.6121;
1353.9000;0.6203;0.6121;
1354.2000;0.6235;0.6247;
1354.5000;0.6195;0.6096;
1354.8000;0.6195;0.6121;
1355.1000;0.6186;0.6071;
1355.4000;0.6203;0.6046;
1355.7000;0.6211;0.6096;
1356.0000;0.6178;0.6020;
1356.3000;0.6195;0.6046;
1356.6000;0.6195;0.6121;
1356.9000;0.6178;0.6146;
1357.2000;0.6186;0.6146;
1357.5000;0.6121;0.5945;
1357.8000;0.6195;0.6222;
1358.1000;0.6211;0.6222;
1358.4000;0.6203;0.6222;
1358.7000;0.6235;0.6247;
1359.0000;0.6219;0.6247;
1359.3000;0.6203;0.6121;
1359.6000;0.6211;0.6146;
1359.9000;0.6195;0.6197;
1360.2000;0.6195;0.6272;
1360.5000;0.6195;0.6222;
1360.8000;0.6203;0.6172;
1361.1000;0.6195;0.6071;
1361.4000;0.6186;0.6046;
1361.7000;0.6195;0.6046;
1362.0000;0.6219;0.6071;
1362.3000;0.6203;0.5995;
1362.6000;0.6195;0.5995;
1362.9000;0.6195;0.6020;
1363.2000;0.6186;0.6020;
1363.5000;0.6195;0.6046;
1363.8000;0.6195;0.6020;
1364.1000;0.6154;0.5970;
1364.4000;0.6186;0.6172;
1364.7000;0.6178;0.6121;
1365.0000;0.6186;0.6222;
1365.3000;0.6186;0.6323;
1365.6000;0.6195;0.6297;
1365.9000;0.6186;0.6272;
1366.2000;0.6170;0.6247;
1366.5000;0.6170;0.6197;
1366.8000;0.6170;0.6272;
1367.1000;0.6260;0.6449;
1367.4000;0.6195;0.6247;
1367.7000;0.6203;0.6297;
1368.0000;0.6178;0.6247;
1368.3000;0.6195;0.6272;
1368.6000;0.6195;0.6197;
1368.9000;0.6178;0.6146;
1369.2000;0.6211;0.6323;
1369.5000;0.6178;0.6146;
1369.8000;0.6195;0.6172;
1370.1000;0.6195;0.6121;
1370.4000;0.6186;0.6121;
1370.7000;0.6186;0.6096;
1371.0000;0.6203;0.6121;
1371.3000;0.6219;0.6197;
1371.6000;0.6195;0.6222;
1371.9000;0.6195;0.6272;
1372.2000;0.6203;0.6247;
1372.5000;0.6195;0.6247;
1372.8000;0.6195;0.6247;
1373.1000;0.6195;0.6222;
1373.4000;0.6186;0.6146;
1373.7000;0.6203;0.6247;
1374.0000;0.6195;0.6247;
1374.3000;0.6186;0.6247;
1374.6000;0.6203;0.6272;
1374.9000;0.6195;0.6272;
1375.2000;0.6203;0.6197;
1375.5000;0.6195;0.6197;
1375.8000;0.6203;0.6272;
1376.1000;0.6186;0.6222;
1376.4000;0.6186;0.6197;
1376.7000;0.6178;0.6121;
1377.0000;0.6170;0.6121;
1377.3000;0.6186;0.6172;
1377.6000;0.6178;0.6146;
1377.9000;0.6186;0.6172;
1378.2000;0.6178;0.6197;
1378.5000;0.6186;0.6121;
1378.8000;0.6178;0.6096;
1379.1000;0.6203;0.6146;
1379.4000;0.6178;0.6071;
1379.7000;0.6195;0.6071;
1380.0000;0.6178;0.6046;
1380.3000;0.6178;0.6020;
1380.6000;0.6186;0.6020;
1380.9000;0.6186;0.6020;
1381.2000;0.6186;0.6046;
1381.5000;0.6178;0.6096;
1381.8000;0.6178;0.6146;
1382.1000;0.6178;0.6121;
1382.4000;0.6243;0.6172;
1382.7000;0.6203;0.6020;
1383.0000;0.6170;0.5945;
1383.3000;0.6186;0.5920;
1383.6000;0.6186;0.5920;
1383.9000;0.6186;0.5920;
1384.2000;0.6186;0.6020;
1384.5000;0.6170;0.5945;
1384.8000;0.6170;0.6020;
1385.1000;0.6162;0.5995;
1385.4000;0.6211;0.6096;
1385.7000;0.6195;0.6071;
1386.0000;0.6195;0.6121;
1386.3000;0.6195;0.6121;
1386.6000;0.6154;0.5995;
1386.9000;0.6195;0.6172;
1387.2000;0.6195;0.6172;
1387.5000;0.6195;0.6071;
1387.8000;0.6195;0.6096;
1388.1000;0.6195;0.6096;
1388.4000;0.6195;0.6121;
1388.7000;0.6211;0.6121;
1389.0000;0.6195;0.6071;
1389.3000;0.6203;0.6020;
1389.6000;0.6178;0.6071;
1389.9000;0.6195;0.6121;
1390.2000;0.6203;0.6121;
1390.5000;0.6186;0.6121;
1390.8000;0.6186;0.5995;
1391.1000;0.6178;0.5920;
1391.4000;0.6178;0.5894;
1391.7000;0.6227;0.6121;
1392.0000;0.6186;0.6046;
1392.3000;0.6162;0.5995;
1392.6000;0.6170;0.5995;
1392.9000;0.6203;0.6096;
1393.2000;0.6178;0.6071;
1393.5000;0.6219;0.6172;
1393.8000;0.6186;0.6046;
1394.1000;0.6186;0.5995;
1394.4000;0.6203;0.6020;
1394.7000;0.6170;0.5970;
1395.0000;0.6178;0.6020;
1395.3000;0.6170;0.6020;
1395.6000;0.6260;0.6247;
1395.9000;0.6186;0.6121;
1396.2000;0.6219;0.6222;
1396.5000;0.6195;0.6146;
1396.8000;0.6186;0.6096;
1397.1000;0.6195;0.6096;
1397.4000;0.6170;0.6096;
1397.7000;0.6186;0.6071;
1398.0000;0.6195;0.6046;
1398.3000;0.6235;0.6146;
1398.6000;0.6195;0.6020;
1398.9000;0.6203;0.5995;
1399.2000;0.6186;0.5844;
1399.5000;0.6195;0.5869;
1399.8000;0.6186;0.5869;
