time/ms;Fluo/V;P700 deltaI/I x10³;
-199.8000;0.9931;0.7104;
-199.5000;0.9931;0.7154;
-199.2000;0.9931;0.7078;
-198.9000;0.9923;0.7053;
-198.6000;0.9963;0.7104;
-198.3000;0.9947;0.7003;
-198.0000;0.9947;0.7078;
-197.7000;0.9939;0.7129;
-197.4000;0.9915;0.7104;
-197.1000;0.9939;0.7129;
-196.8000;0.9882;0.7078;
-196.5000;0.9939;0.7230;
-196.2000;0.9931;0.7129;
-195.9000;0.9931;0.7028;
-195.6000;0.9931;0.7028;
-195.3000;0.9931;0.7028;
-195.0000;0.9931;0.7129;
-194.7000;0.9931;0.7129;
-194.4000;0.9931;0.7129;
-194.1000;0.9939;0.7104;
-193.8000;0.9882;0.6826;
-193.5000;0.9939;0.6877;
-193.2000;0.9939;0.6877;
-192.9000;0.9923;0.6978;
-192.6000;0.9931;0.6978;
-192.3000;0.9939;0.6927;
-192.0000;0.9988;0.7104;
-191.7000;0.9947;0.7053;
-191.4000;0.9931;0.7078;
-191.1000;0.9923;0.7078;
-190.8000;0.9923;0.7129;
-190.5000;0.9915;0.7003;
-190.2000;0.9915;0.7053;
-189.9000;0.9906;0.7053;
-189.6000;0.9923;0.7028;
-189.3000;0.9923;0.7028;
-189.0000;0.9931;0.7053;
-188.7000;0.9906;0.7053;
-188.4000;0.9923;0.7028;
-188.1000;0.9923;0.6978;
-187.8000;0.9931;0.7129;
-187.5000;0.9923;0.7104;
-187.2000;0.9923;0.7078;
-186.9000;0.9947;0.7154;
-186.6000;0.9931;0.7179;
-186.3000;0.9923;0.7053;
-186.0000;0.9939;0.7053;
-185.7000;0.9923;0.7053;
-185.4000;0.9923;0.7053;
-185.1000;0.9915;0.7104;
-184.8000;0.9931;0.7028;
-184.5000;0.9939;0.6978;
-184.2000;0.9931;0.6978;
-183.9000;0.9931;0.6978;
-183.6000;0.9923;0.6902;
-183.3000;0.9906;0.6927;
-183.0000;0.9923;0.6952;
-182.7000;0.9923;0.6927;
-182.4000;0.9915;0.6978;
-182.1000;0.9931;0.7028;
-181.8000;0.9939;0.7053;
-181.5000;0.9939;0.7129;
-181.2000;0.9931;0.7129;
-180.9000;0.9931;0.7028;
-180.6000;0.9939;0.7104;
-180.3000;0.9931;0.7104;
-180.0000;0.9923;0.7053;
-179.7000;0.9882;0.6877;
-179.4000;0.9923;0.6927;
-179.1000;0.9939;0.6927;
-178.8000;0.9915;0.6952;
-178.5000;0.9923;0.6877;
-178.2000;0.9931;0.6852;
-177.9000;0.9947;0.6877;
-177.6000;0.9939;0.6902;
-177.3000;0.9923;0.7003;
-177.0000;0.9915;0.7003;
-176.7000;0.9898;0.7053;
-176.4000;0.9931;0.7154;
-176.1000;0.9923;0.7179;
-175.8000;0.9923;0.7129;
-175.5000;0.9923;0.7154;
-175.2000;0.9955;0.7204;
-174.9000;0.9923;0.7129;
-174.6000;0.9923;0.7078;
-174.3000;0.9906;0.7003;
-174.0000;0.9931;0.6978;
-173.7000;0.9882;0.6927;
-173.4000;0.9939;0.6978;
-173.1000;0.9939;0.6927;
-172.8000;0.9931;0.6902;
-172.5000;0.9931;0.6902;
-172.2000;0.9947;0.6877;
-171.9000;0.9931;0.6877;
-171.6000;0.9963;0.7003;
-171.3000;0.9939;0.6978;
-171.0000;0.9923;0.6952;
-170.7000;0.9915;0.6826;
-170.4000;0.9939;0.6877;
-170.1000;0.9947;0.6902;
-169.8000;0.9890;0.6701;
-169.5000;0.9906;0.6726;
-169.2000;0.9931;0.6902;
-168.9000;0.9931;0.6801;
-168.6000;0.9947;0.6801;
-168.3000;0.9931;0.6826;
-168.0000;0.9947;0.6852;
-167.7000;0.9939;0.6952;
-167.4000;0.9931;0.6978;
-167.1000;0.9939;0.7028;
-166.8000;0.9931;0.7003;
-166.5000;0.9939;0.7078;
-166.2000;0.9931;0.7104;
-165.9000;0.9947;0.7129;
-165.6000;0.9931;0.7179;
-165.3000;0.9923;0.7230;
-165.0000;0.9923;0.7179;
-164.7000;1.0028;0.7355;
-164.4000;0.9931;0.6978;
-164.1000;0.9898;0.6877;
-163.8000;0.9947;0.7003;
-163.5000;0.9947;0.7078;
-163.2000;0.9931;0.6927;
-162.9000;0.9939;0.6902;
-162.6000;0.9931;0.6801;
-162.3000;0.9988;0.6978;
-162.0000;0.9898;0.6776;
-161.7000;0.9939;0.6826;
-161.4000;0.9947;0.6852;
-161.1000;0.9947;0.6902;
-160.8000;0.9939;0.6902;
-160.5000;0.9906;0.6826;
-160.2000;0.9931;0.6826;
-159.9000;0.9963;0.6927;
-159.6000;0.9923;0.6852;
-159.3000;0.9923;0.6877;
-159.0000;0.9931;0.6927;
-158.7000;0.9939;0.6877;
-158.4000;0.9931;0.6801;
-158.1000;0.9923;0.6826;
-157.8000;0.9890;0.6776;
-157.5000;0.9947;0.6877;
-157.2000;0.9947;0.6801;
-156.9000;0.9939;0.6801;
-156.6000;0.9923;0.6801;
-156.3000;0.9947;0.6826;
-156.0000;0.9963;0.6751;
-155.7000;0.9939;0.6751;
-155.4000;0.9947;0.6877;
-155.1000;0.9980;0.6927;
-154.8000;0.9931;0.6751;
-154.5000;0.9923;0.6751;
-154.2000;0.9931;0.6751;
-153.9000;0.9923;0.6826;
-153.6000;0.9939;0.6952;
-153.3000;0.9923;0.7003;
-153.0000;0.9923;0.7003;
-152.7000;0.9923;0.7003;
-152.4000;0.9931;0.6978;
-152.1000;0.9923;0.6952;
-151.8000;0.9915;0.6902;
-151.5000;0.9923;0.6877;
-151.2000;0.9939;0.6978;
-150.9000;0.9931;0.6902;
-150.6000;0.9931;0.6852;
-150.3000;0.9906;0.6852;
-150.0000;0.9931;0.6952;
-149.7000;0.9882;0.6902;
-149.4000;0.9923;0.6978;
-149.1000;0.9915;0.6927;
-148.8000;0.9939;0.6902;
-148.5000;0.9931;0.6902;
-148.2000;0.9931;0.6902;
-147.9000;0.9931;0.6902;
-147.6000;0.9915;0.6852;
-147.3000;0.9931;0.6902;
-147.0000;0.9931;0.6877;
-146.7000;0.9939;0.6826;
-146.4000;0.9915;0.6826;
-146.1000;0.9931;0.6902;
-145.8000;0.9939;0.7028;
-145.5000;0.9939;0.7053;
-145.2000;0.9915;0.7003;
-144.9000;0.9923;0.7028;
-144.6000;0.9988;0.7154;
-144.3000;0.9923;0.7078;
-144.0000;0.9923;0.7003;
-143.7000;0.9923;0.6902;
-143.4000;0.9931;0.6927;
-143.1000;0.9898;0.6801;
-142.8000;0.9866;0.6852;
-142.5000;0.9882;0.6952;
-142.2000;0.9947;0.7154;
-141.9000;0.9923;0.7129;
-141.6000;0.9849;0.6826;
-141.3000;0.9915;0.7003;
-141.0000;0.9915;0.7003;
-140.7000;0.9931;0.7104;
-140.4000;0.9939;0.7078;
-140.1000;0.9939;0.7129;
-139.8000;0.9841;0.6852;
-139.5000;0.9866;0.6927;
-139.2000;0.9931;0.7028;
-138.9000;0.9939;0.7028;
-138.6000;0.9931;0.6978;
-138.3000;0.9923;0.6978;
-138.0000;0.9947;0.7104;
-137.7000;0.9939;0.7078;
-137.4000;0.9939;0.7078;
-137.1000;0.9947;0.7028;
-136.8000;0.9939;0.6902;
-136.5000;0.9939;0.6952;
-136.2000;0.9931;0.7003;
-135.9000;0.9931;0.6927;
-135.6000;0.9947;0.6952;
-135.3000;0.9931;0.6877;
-135.0000;0.9915;0.6952;
-134.7000;0.9947;0.6978;
-134.4000;0.9947;0.6952;
-134.1000;0.9939;0.6978;
-133.8000;0.9947;0.6978;
-133.5000;0.9923;0.6877;
-133.2000;0.9898;0.6801;
-132.9000;0.9939;0.6952;
-132.6000;0.9915;0.6978;
-132.3000;0.9947;0.7028;
-132.0000;0.9939;0.7053;
-131.7000;0.9931;0.7028;
-131.4000;0.9939;0.7003;
-131.1000;0.9939;0.7028;
-130.8000;0.9947;0.7078;
-130.5000;0.9923;0.7028;
-130.2000;0.9923;0.7003;
-129.9000;0.9955;0.7104;
-129.6000;0.9931;0.7053;
-129.3000;0.9947;0.7003;
-129.0000;0.9931;0.6952;
-128.7000;0.9947;0.7028;
-128.4000;0.9915;0.6952;
-128.1000;0.9931;0.6978;
-127.8000;0.9923;0.7003;
-127.5000;0.9890;0.6952;
-127.2000;0.9923;0.7078;
-126.9000;0.9931;0.7078;
-126.6000;0.9939;0.7179;
-126.3000;0.9939;0.7230;
-126.0000;0.9939;0.7179;
-125.7000;0.9939;0.7204;
-125.4000;0.9955;0.7179;
-125.1000;0.9972;0.7280;
-124.8000;0.9923;0.7154;
-124.5000;0.9915;0.7104;
-124.2000;0.9939;0.7104;
-123.9000;0.9923;0.7028;
-123.6000;0.9898;0.7104;
-123.3000;0.9947;0.7179;
-123.0000;0.9939;0.7129;
-122.7000;0.9931;0.6952;
-122.4000;0.9890;0.6877;
-122.1000;0.9923;0.6902;
-121.8000;0.9963;0.7053;
-121.5000;0.9947;0.7003;
-121.2000;0.9923;0.6952;
-120.9000;0.9931;0.6978;
-120.6000;0.9939;0.6978;
-120.3000;0.9963;0.7104;
-120.0000;0.9972;0.7230;
-119.7000;0.9955;0.7230;
-119.4000;0.9939;0.7255;
-119.1000;0.9939;0.7230;
-118.8000;0.9931;0.7204;
-118.5000;0.9939;0.7129;
-118.2000;0.9906;0.7053;
-117.9000;0.9923;0.7078;
-117.6000;0.9931;0.7053;
-117.3000;0.9915;0.6927;
-117.0000;0.9939;0.6978;
-116.7000;0.9923;0.7028;
-116.4000;0.9923;0.7154;
-116.1000;0.9923;0.7078;
-115.8000;0.9890;0.6927;
-115.5000;0.9939;0.7104;
-115.2000;0.9923;0.7078;
-114.9000;0.9931;0.7230;
-114.6000;0.9931;0.7179;
-114.3000;0.9931;0.7154;
-114.0000;0.9923;0.7179;
-113.7000;0.9915;0.7104;
-113.4000;0.9923;0.7129;
-113.1000;0.9931;0.7230;
-112.8000;0.9939;0.7230;
-112.5000;0.9947;0.7204;
-112.2000;0.9915;0.7179;
-111.9000;0.9931;0.7154;
-111.6000;0.9947;0.7179;
-111.3000;0.9923;0.7129;
-111.0000;0.9931;0.6927;
-110.7000;0.9923;0.6852;
-110.4000;0.9939;0.6877;
-110.1000;0.9931;0.6877;
-109.8000;0.9906;0.6826;
-109.5000;0.9947;0.6902;
-109.2000;0.9923;0.6927;
-108.9000;0.9939;0.7003;
-108.6000;0.9939;0.6978;
-108.3000;0.9923;0.6927;
-108.0000;0.9915;0.6852;
-107.7000;0.9939;0.6952;
-107.4000;0.9939;0.6902;
-107.1000;0.9923;0.6877;
-106.8000;0.9947;0.6927;
-106.5000;0.9915;0.6902;
-106.2000;0.9939;0.6978;
-105.9000;0.9923;0.6978;
-105.6000;0.9923;0.6978;
-105.3000;0.9915;0.6877;
-105.0000;0.9947;0.6978;
-104.7000;0.9947;0.6952;
-104.4000;0.9931;0.7003;
-104.1000;0.9931;0.7028;
-103.8000;0.9923;0.7104;
-103.5000;0.9947;0.7230;
-103.2000;0.9931;0.7104;
-102.9000;0.9947;0.7255;
-102.6000;0.9923;0.7104;
-102.3000;0.9939;0.7154;
-102.0000;0.9915;0.7078;
-101.7000;0.9972;0.7381;
-101.4000;0.9915;0.7154;
-101.1000;0.9923;0.7154;
-100.8000;0.9915;0.7078;
-100.5000;0.9931;0.7104;
-100.2000;0.9915;0.7104;
-99.9000;0.9939;0.7003;
-99.6000;0.9915;0.7003;
-99.3000;0.9931;0.7053;
-99.0000;0.9939;0.7053;
-98.7000;0.9931;0.7003;
-98.4000;0.9931;0.7028;
-98.1000;0.9923;0.7053;
-97.8000;0.9939;0.7003;
-97.5000;0.9931;0.7003;
-97.2000;0.9923;0.6978;
-96.9000;0.9931;0.6902;
-96.6000;0.9931;0.6902;
-96.3000;0.9915;0.6852;
-96.0000;0.9947;0.6877;
-95.7000;0.9923;0.6751;
-95.4000;0.9931;0.6852;
-95.1000;0.9931;0.6877;
-94.8000;0.9947;0.6826;
-94.5000;0.9923;0.6801;
-94.2000;0.9923;0.6877;
-93.9000;0.9939;0.6902;
-93.6000;0.9931;0.6952;
-93.3000;0.9947;0.6952;
-93.0000;0.9931;0.7003;
-92.7000;0.9939;0.7078;
-92.4000;0.9923;0.7179;
-92.1000;0.9923;0.7255;
-91.8000;0.9923;0.7230;
-91.5000;0.9906;0.7204;
-91.2000;0.9931;0.7230;
-90.9000;0.9898;0.7204;
-90.6000;0.9931;0.7179;
-90.3000;0.9939;0.7053;
-90.0000;0.9947;0.7129;
-89.7000;0.9955;0.7104;
-89.4000;0.9915;0.6978;
-89.1000;0.9931;0.7003;
-88.8000;0.9923;0.7053;
-88.5000;0.9923;0.7053;
-88.2000;0.9923;0.7129;
-87.9000;0.9931;0.7104;
-87.6000;0.9906;0.7053;
-87.3000;0.9931;0.7154;
-87.0000;0.9955;0.7179;
-86.7000;0.9923;0.7053;
-86.4000;0.9923;0.6902;
-86.1000;0.9906;0.6902;
-85.8000;0.9939;0.6978;
-85.5000;0.9947;0.6978;
-85.2000;0.9923;0.7003;
-84.9000;0.9947;0.7003;
-84.6000;0.9923;0.6952;
-84.3000;0.9923;0.6927;
-84.0000;0.9923;0.6877;
-83.7000;0.9923;0.6902;
-83.4000;0.9947;0.7028;
-83.1000;0.9939;0.7028;
-82.8000;0.9915;0.6902;
-82.5000;0.9939;0.6952;
-82.2000;0.9931;0.6927;
-81.9000;0.9939;0.6952;
-81.6000;0.9931;0.6826;
-81.3000;0.9923;0.6902;
-81.0000;0.9931;0.6952;
-80.7000;0.9931;0.6952;
-80.4000;0.9874;0.6701;
-80.1000;0.9939;0.6978;
-79.8000;0.9923;0.6927;
-79.5000;0.9947;0.6927;
-79.2000;0.9898;0.6877;
-78.9000;0.9939;0.7078;
-78.6000;0.9915;0.7053;
-78.3000;0.9931;0.7078;
-78.0000;0.9931;0.7104;
-77.7000;0.9939;0.7078;
-77.4000;0.9915;0.7078;
-77.1000;0.9939;0.7028;
-76.8000;0.9939;0.7003;
-76.5000;0.9923;0.7154;
-76.2000;0.9923;0.7078;
-75.9000;0.9931;0.7129;
-75.6000;0.9963;0.7230;
-75.3000;0.9923;0.7154;
-75.0000;0.9947;0.7129;
-74.7000;0.9906;0.7053;
-74.4000;0.9931;0.7104;
-74.1000;0.9874;0.6952;
-73.8000;0.9939;0.7154;
-73.5000;0.9923;0.7003;
-73.2000;0.9931;0.7028;
-72.9000;0.9939;0.7078;
-72.6000;0.9890;0.6978;
-72.3000;0.9923;0.7003;
-72.0000;0.9939;0.7053;
-71.7000;0.9955;0.7003;
-71.4000;0.9906;0.6902;
-71.1000;0.9915;0.6902;
-70.8000;0.9939;0.7028;
-70.5000;0.9923;0.7053;
-70.2000;0.9939;0.7028;
-69.9000;0.9955;0.7003;
-69.6000;0.9923;0.7003;
-69.3000;0.9931;0.7003;
-69.0000;0.9931;0.6952;
-68.7000;0.9931;0.6978;
-68.4000;0.9939;0.7003;
-68.1000;0.9931;0.7003;
-67.8000;0.9915;0.7003;
-67.5000;0.9898;0.6927;
-67.2000;0.9923;0.6978;
-66.9000;0.9963;0.7078;
-66.6000;0.9923;0.7053;
-66.3000;0.9915;0.7078;
-66.0000;0.9915;0.7078;
-65.7000;0.9931;0.7078;
-65.4000;0.9947;0.7104;
-65.1000;0.9915;0.7078;
-64.8000;0.9947;0.7230;
-64.5000;0.9939;0.7154;
-64.2000;0.9955;0.7255;
-63.9000;0.9947;0.7154;
-63.6000;0.9947;0.7078;
-63.3000;0.9923;0.7028;
-63.0000;0.9939;0.7104;
-62.7000;0.9931;0.7053;
-62.4000;0.9923;0.7053;
-62.1000;0.9955;0.7230;
-61.8000;0.9939;0.7255;
-61.5000;0.9923;0.7179;
-61.2000;0.9923;0.7230;
-60.9000;0.9931;0.7230;
-60.6000;0.9931;0.7154;
-60.3000;0.9947;0.7204;
-60.0000;0.9931;0.7204;
-59.7000;0.9947;0.7230;
-59.4000;0.9931;0.7179;
-59.1000;0.9947;0.7280;
-58.8000;0.9939;0.7305;
-58.5000;0.9923;0.7230;
-58.2000;0.9931;0.7230;
-57.9000;0.9931;0.7280;
-57.6000;0.9947;0.7230;
-57.3000;0.9923;0.7104;
-57.0000;0.9915;0.7053;
-56.7000;0.9939;0.7078;
-56.4000;0.9898;0.6952;
-56.1000;0.9939;0.7003;
-55.8000;0.9939;0.7003;
-55.5000;0.9923;0.7003;
-55.2000;0.9931;0.7154;
-54.9000;0.9955;0.7154;
-54.6000;0.9931;0.7154;
-54.3000;0.9931;0.7280;
-54.0000;0.9931;0.7179;
-53.7000;0.9931;0.7230;
-53.4000;0.9955;0.7204;
-53.1000;0.9955;0.7104;
-52.8000;0.9955;0.7028;
-52.5000;0.9947;0.7129;
-52.2000;0.9923;0.7003;
-51.9000;0.9931;0.7028;
-51.6000;0.9906;0.7028;
-51.3000;0.9931;0.7078;
-51.0000;0.9874;0.6978;
-50.7000;0.9996;0.7305;
-50.4000;0.9947;0.7129;
-50.1000;0.9947;0.7053;
-49.8000;0.9915;0.7053;
-49.5000;0.9931;0.7129;
-49.2000;0.9923;0.7179;
-48.9000;0.9931;0.7179;
-48.6000;0.9939;0.7204;
-48.3000;0.9906;0.7028;
-48.0000;0.9931;0.7053;
-47.7000;0.9955;0.7204;
-47.4000;0.9931;0.7104;
-47.1000;0.9931;0.7129;
-46.8000;0.9915;0.7053;
-46.5000;0.9923;0.7028;
-46.2000;0.9939;0.7179;
-45.9000;0.9931;0.7154;
-45.6000;0.9915;0.7003;
-45.3000;0.9939;0.7104;
-45.0000;0.9931;0.7104;
-44.7000;0.9939;0.7053;
-44.4000;0.9931;0.7053;
-44.1000;0.9923;0.7154;
-43.8000;0.9915;0.7154;
-43.5000;0.9931;0.7078;
-43.2000;0.9923;0.7053;
-42.9000;0.9963;0.7154;
-42.6000;0.9947;0.7053;
-42.3000;0.9947;0.6952;
-42.0000;0.9906;0.6927;
-41.7000;1.0004;0.7255;
-41.4000;0.9923;0.6978;
-41.1000;0.9923;0.6978;
-40.8000;0.9915;0.7053;
-40.5000;0.9939;0.7129;
-40.2000;0.9931;0.7204;
-39.9000;0.9947;0.7179;
-39.6000;0.9923;0.7154;
-39.3000;0.9923;0.7003;
-39.0000;0.9931;0.7053;
-38.7000;0.9955;0.7104;
-38.4000;0.9931;0.7154;
-38.1000;0.9939;0.7154;
-37.8000;0.9931;0.7204;
-37.5000;0.9947;0.7255;
-37.2000;0.9931;0.7179;
-36.9000;0.9931;0.7053;
-36.6000;0.9923;0.7003;
-36.3000;0.9931;0.7003;
-36.0000;0.9923;0.7028;
-35.7000;0.9939;0.7129;
-35.4000;0.9923;0.7154;
-35.1000;0.9931;0.7179;
-34.8000;0.9931;0.7154;
-34.5000;0.9955;0.7230;
-34.2000;0.9906;0.7154;
-33.9000;0.9931;0.7179;
-33.6000;1.0020;0.7431;
-33.3000;0.9947;0.7204;
-33.0000;0.9923;0.7003;
-32.7000;0.9947;0.6952;
-32.4000;0.9939;0.6952;
-32.1000;0.9939;0.6978;
-31.8000;0.9963;0.7078;
-31.5000;0.9947;0.7078;
-31.2000;0.9931;0.7078;
-30.9000;0.9931;0.7104;
-30.6000;0.9939;0.7053;
-30.3000;0.9906;0.7028;
-30.0000;0.9915;0.7003;
-29.7000;0.9923;0.7028;
-29.4000;0.9947;0.7028;
-29.1000;0.9939;0.7028;
-28.8000;0.9963;0.7154;
-28.5000;0.9963;0.7129;
-28.2000;0.9931;0.6978;
-27.9000;0.9939;0.6927;
-27.6000;0.9939;0.6927;
-27.3000;0.9939;0.7053;
-27.0000;0.9906;0.6978;
-26.7000;0.9931;0.6952;
-26.4000;0.9947;0.6902;
-26.1000;1.0004;0.7003;
-25.8000;0.9939;0.6701;
-25.5000;0.9866;0.6499;
-25.2000;0.9915;0.6650;
-24.9000;0.9963;0.6776;
-24.6000;0.9923;0.6751;
-24.3000;0.9939;0.6776;
-24.0000;0.9939;0.6826;
-23.7000;0.9923;0.6902;
-23.4000;0.9939;0.7003;
-23.1000;1.0020;0.7204;
-22.8000;0.9915;0.6902;
-22.5000;0.9906;0.6902;
-22.2000;0.9939;0.6952;
-21.9000;0.9915;0.6826;
-21.6000;0.9939;0.6952;
-21.3000;0.9931;0.6927;
-21.0000;0.9915;0.7053;
-20.7000;0.9939;0.7104;
-20.4000;0.9923;0.7078;
-20.1000;0.9923;0.7104;
-19.8000;0.9923;0.7104;
-19.5000;0.9947;0.7078;
-19.2000;0.9947;0.7003;
-18.9000;0.9915;0.6978;
-18.6000;0.9931;0.7078;
-18.3000;0.9931;0.7129;
-18.0000;0.9915;0.7028;
-17.7000;0.9931;0.7104;
-17.4000;0.9931;0.7053;
-17.1000;0.9939;0.7078;
-16.8000;0.9931;0.7078;
-16.5000;0.9939;0.7053;
-16.2000;0.9923;0.7078;
-15.9000;0.9939;0.7078;
-15.6000;0.9939;0.7104;
-15.3000;0.9980;0.7154;
-15.0000;0.9906;0.7028;
-14.7000;0.9931;0.7078;
-14.4000;0.9931;0.7003;
-14.1000;0.9923;0.6952;
-13.8000;0.9923;0.6927;
-13.5000;0.9931;0.6978;
-13.2000;0.9931;0.7078;
-12.9000;0.9931;0.7154;
-12.6000;0.9947;0.7204;
-12.3000;0.9931;0.7179;
-12.0000;0.9915;0.7129;
-11.7000;0.9923;0.7053;
-11.4000;0.9915;0.7078;
-11.1000;0.9923;0.6978;
-10.8000;0.9890;0.6978;
-10.5000;0.9915;0.7003;
-10.2000;0.9931;0.7179;
-9.9000;0.9898;0.7154;
-9.6000;0.9939;0.7154;
-9.3000;0.9923;0.7028;
-9.0000;0.9931;0.7129;
-8.7000;0.9906;0.7154;
-8.4000;0.9923;0.7204;
-8.1000;0.9882;0.7129;
-7.8000;0.9858;0.7053;
-7.5000;0.9963;0.7280;
-7.2000;0.9931;0.7129;
-6.9000;0.9955;0.7154;
-6.6000;0.9939;0.6952;
-6.3000;0.9931;0.6902;
-6.0000;0.9923;0.6852;
-5.7000;0.9931;0.6852;
-5.4000;0.9939;0.6877;
-5.1000;0.9915;0.6902;
-4.8000;0.9947;0.6952;
-4.5000;0.9931;0.6952;
-4.2000;0.9939;0.7003;
-3.9000;0.9931;0.7028;
-3.6000;0.9963;0.7053;
-3.3000;0.9972;0.7078;
-3.0000;0.9939;0.7003;
-2.7000;0.9866;0.7028;
-2.4000;0.9915;0.7255;
-2.1000;0.9931;0.7305;
-1.8000;1.0028;0.7456;
-1.5000;0.9923;0.7129;
-1.2000;0.9947;0.7230;
-0.9000;0.9923;0.7179;
-0.6000;0.9947;0.7154;
-0.3000;0.9939;0.7179;
0.0000;0.9939;0.7179;
0.3000;1.0012;0.6978;
0.6000;1.0126;0.7381;
0.9000;1.0224;0.7708;
1.2000;1.0297;0.7910;
1.5000;1.0330;0.8136;
1.8000;1.0403;0.8388;
2.1000;1.0444;0.8565;
2.4000;1.0468;0.8665;
2.7000;1.0492;0.8791;
3.0000;1.0525;0.8968;
3.3000;1.0541;0.9094;
3.6000;1.0549;0.9119;
3.9000;1.0558;0.9094;
4.2000;1.0574;0.9068;
4.5000;1.0582;0.9194;
4.8000;1.0598;0.9295;
5.1000;1.0606;0.9270;
5.4000;1.0623;0.9371;
5.7000;1.0639;0.9421;
6.0000;1.0647;0.9471;
6.3000;1.0680;0.9396;
6.6000;1.0655;0.9245;
6.9000;1.0680;0.9220;
7.2000;1.0696;0.9245;
7.5000;1.0720;0.9320;
7.8000;1.0615;0.9119;
8.1000;1.0704;0.9371;
8.4000;1.0720;0.9446;
8.7000;1.0704;0.9396;
9.0000;1.0712;0.9421;
9.3000;1.0720;0.9446;
9.6000;1.0720;0.9471;
9.9000;1.0729;0.9446;
10.2000;1.0745;0.9497;
10.5000;1.0729;0.9522;
10.8000;1.0745;0.9471;
11.1000;1.0761;0.9497;
11.4000;1.0777;0.9471;
11.7000;1.0761;0.9396;
12.0000;1.0761;0.9396;
12.3000;1.0745;0.9396;
12.6000;1.0769;0.9446;
12.9000;1.0777;0.9446;
13.2000;1.0769;0.9371;
13.5000;1.0810;0.9446;
13.8000;1.0810;0.9446;
14.1000;1.0802;0.9471;
14.4000;1.0786;0.9396;
14.7000;1.0810;0.9471;
15.0000;1.0802;0.9446;
15.3000;1.0777;0.9446;
15.6000;1.0802;0.9446;
15.9000;1.0802;0.9471;
16.2000;1.0802;0.9446;
16.5000;1.0786;0.9421;
16.8000;1.0802;0.9497;
17.1000;1.0810;0.9471;
17.4000;1.0826;0.9446;
17.7000;1.0818;0.9471;
18.0000;1.0810;0.9446;
18.3000;1.0810;0.9471;
18.6000;1.0826;0.9497;
18.9000;1.0826;0.9446;
19.2000;1.0826;0.9396;
19.5000;1.0810;0.9396;
19.8000;1.0826;0.9421;
20.1000;1.0802;0.9371;
20.4000;1.0818;0.9345;
20.7000;1.0802;0.9345;
21.0000;1.0826;0.9320;
21.3000;1.0818;0.9295;
21.6000;1.0802;0.9144;
21.9000;1.0834;0.9295;
22.2000;1.0842;0.9345;
22.5000;1.0875;0.9396;
22.8000;1.0859;0.9371;
23.1000;1.0842;0.9371;
23.4000;1.0834;0.9345;
23.7000;1.0851;0.9345;
24.0000;1.0818;0.9295;
24.3000;1.0851;0.9421;
24.6000;1.0834;0.9446;
24.9000;1.0859;0.9471;
25.2000;1.0859;0.9522;
25.5000;1.0851;0.9522;
25.8000;1.0826;0.9446;
26.1000;1.0842;0.9396;
26.4000;1.0834;0.9396;
26.7000;1.0834;0.9345;
27.0000;1.0834;0.9396;
27.3000;1.0859;0.9421;
27.6000;1.0826;0.9320;
27.9000;1.0834;0.9245;
28.2000;1.0802;0.9245;
28.5000;1.0851;0.9396;
28.8000;1.0859;0.9396;
29.1000;1.0859;0.9497;
29.4000;1.0867;0.9471;
29.7000;1.0834;0.9421;
30.0000;1.0851;0.9471;
30.3000;1.0851;0.9522;
30.6000;1.0851;0.9497;
30.9000;1.0859;0.9547;
31.2000;1.0851;0.9597;
31.5000;1.0891;0.9547;
31.8000;1.0883;0.9471;
32.1000;1.0867;0.9471;
32.4000;1.0867;0.9421;
32.7000;1.0891;0.9471;
33.0000;1.0859;0.9396;
33.3000;1.0867;0.9371;
33.6000;1.0867;0.9320;
33.9000;1.0859;0.9295;
34.2000;1.0867;0.9345;
34.5000;1.0867;0.9421;
34.8000;1.0859;0.9371;
35.1000;1.0859;0.9320;
35.4000;1.0875;0.9345;
35.7000;1.0867;0.9421;
36.0000;1.0867;0.9471;
36.3000;1.0875;0.9471;
36.6000;1.0891;0.9522;
36.9000;1.0842;0.9371;
37.2000;1.0875;0.9522;
37.5000;1.0867;0.9597;
37.8000;1.0875;0.9623;
38.1000;1.0891;0.9648;
38.4000;1.0891;0.9648;
38.7000;1.0875;0.9572;
39.0000;1.0842;0.9572;
39.3000;1.0883;0.9673;
39.6000;1.0867;0.9572;
39.9000;1.0867;0.9522;
40.2000;1.0924;0.9648;
40.5000;1.0932;0.9547;
40.8000;1.0867;0.9522;
41.1000;1.0875;0.9572;
41.4000;1.0875;0.9597;
41.7000;1.0875;0.9648;
42.0000;1.0867;0.9572;
42.3000;1.0867;0.9522;
42.6000;1.0883;0.9497;
42.9000;1.0883;0.9547;
43.2000;1.0891;0.9597;
43.5000;1.0859;0.9497;
43.8000;1.0842;0.9497;
44.1000;1.0851;0.9446;
44.4000;1.0883;0.9522;
44.7000;1.0875;0.9497;
45.0000;1.0867;0.9421;
45.3000;1.0859;0.9446;
45.6000;1.0867;0.9522;
45.9000;1.0859;0.9471;
46.2000;1.0875;0.9421;
46.5000;1.0867;0.9345;
46.8000;1.0851;0.9345;
47.1000;1.0883;0.9497;
47.4000;1.0867;0.9572;
47.7000;1.0875;0.9572;
48.0000;1.0875;0.9547;
48.3000;1.0851;0.9421;
48.6000;1.0867;0.9446;
48.9000;1.0818;0.9396;
49.2000;1.0883;0.9547;
49.5000;1.0867;0.9547;
49.8000;1.0794;0.9371;
50.1000;1.0867;0.9522;
50.4000;1.0883;0.9522;
50.7000;1.0875;0.9547;
51.0000;1.0875;0.9497;
51.3000;1.0859;0.9572;
51.6000;1.0875;0.9623;
51.9000;1.0867;0.9572;
52.2000;1.0826;0.9497;
52.5000;1.0867;0.9623;
52.8000;1.0883;0.9749;
53.1000;1.0875;0.9749;
53.4000;1.0867;0.9749;
53.7000;1.0859;0.9723;
54.0000;1.0859;0.9597;
54.3000;1.0875;0.9673;
54.6000;1.0883;0.9698;
54.9000;1.0875;0.9547;
55.2000;1.0851;0.9522;
55.5000;1.0875;0.9648;
55.8000;1.0891;0.9673;
56.1000;1.0859;0.9547;
56.4000;1.0875;0.9547;
56.7000;1.0867;0.9597;
57.0000;1.0875;0.9597;
57.3000;1.0867;0.9623;
57.6000;1.0875;0.9623;
57.9000;1.0867;0.9522;
58.2000;1.0899;0.9597;
58.5000;1.0875;0.9547;
58.8000;1.0875;0.9623;
59.1000;1.0867;0.9572;
59.4000;1.0899;0.9522;
59.7000;1.0883;0.9471;
60.0000;1.0875;0.9396;
60.3000;1.0859;0.9371;
60.6000;1.0908;0.9471;
60.9000;1.0899;0.9497;
61.2000;1.0875;0.9421;
61.5000;1.0867;0.9396;
61.8000;1.0859;0.9371;
62.1000;1.0875;0.9396;
62.4000;1.0875;0.9421;
62.7000;1.0859;0.9270;
63.0000;1.0899;0.9371;
63.3000;1.0899;0.9396;
63.6000;1.0891;0.9446;
63.9000;1.0891;0.9396;
64.2000;1.0859;0.9396;
64.5000;1.0867;0.9371;
64.8000;1.0891;0.9396;
65.1000;1.0956;0.9522;
65.4000;1.0834;0.9194;
65.7000;1.0899;0.9371;
66.0000;1.0875;0.9421;
66.3000;1.0883;0.9446;
66.6000;1.0883;0.9371;
66.9000;1.0875;0.9396;
67.2000;1.0851;0.9421;
67.5000;1.0842;0.9446;
67.8000;1.0851;0.9421;
68.1000;1.0883;0.9522;
68.4000;1.0899;0.9597;
68.7000;1.0899;0.9497;
69.0000;1.0875;0.9371;
69.3000;1.0859;0.9270;
69.6000;1.0867;0.9245;
69.9000;1.0899;0.9270;
70.2000;1.0875;0.9169;
70.5000;1.0859;0.9169;
70.8000;1.0899;0.9320;
71.1000;1.0875;0.9295;
71.4000;1.0867;0.9320;
71.7000;1.0883;0.9421;
72.0000;1.0875;0.9446;
72.3000;1.0859;0.9396;
72.6000;1.0899;0.9446;
72.9000;1.0826;0.9245;
73.2000;1.0883;0.9471;
73.5000;1.0875;0.9421;
73.8000;1.0875;0.9371;
74.1000;1.0875;0.9421;
74.4000;1.0867;0.9446;
74.7000;1.0875;0.9446;
75.0000;1.0859;0.9371;
75.3000;1.0851;0.9345;
75.6000;1.0842;0.9345;
75.9000;1.0867;0.9421;
76.2000;1.0859;0.9396;
76.5000;1.0859;0.9295;
76.8000;1.0859;0.9245;
77.1000;1.0851;0.9245;
77.4000;1.0875;0.9245;
77.7000;1.0859;0.9220;
78.0000;1.0859;0.9194;
78.3000;1.0851;0.9220;
78.6000;1.0891;0.9320;
78.9000;1.0875;0.9320;
79.2000;1.0891;0.9295;
79.5000;1.0867;0.9320;
79.8000;1.0867;0.9371;
80.1000;1.0867;0.9295;
80.4000;1.0883;0.9270;
80.7000;1.0859;0.9245;
81.0000;1.0883;0.9295;
81.3000;1.0891;0.9371;
81.6000;1.0842;0.9245;
81.9000;1.0859;0.9220;
82.2000;1.0842;0.9295;
82.5000;1.0859;0.9421;
82.8000;1.0956;0.9623;
83.1000;1.0891;0.9471;
83.4000;1.0851;0.9371;
83.7000;1.0867;0.9421;
84.0000;1.0908;0.9648;
84.3000;1.0875;0.9547;
84.6000;1.0867;0.9446;
84.9000;1.0875;0.9471;
85.2000;1.0875;0.9497;
85.5000;1.0842;0.9421;
85.8000;1.0867;0.9471;
86.1000;1.0851;0.9471;
86.4000;1.0875;0.9446;
86.7000;1.0859;0.9421;
87.0000;1.0883;0.9421;
87.3000;1.0859;0.9320;
87.6000;1.0867;0.9421;
87.9000;1.0883;0.9522;
88.2000;1.0883;0.9497;
88.5000;1.0859;0.9471;
88.8000;1.0867;0.9497;
89.1000;1.0842;0.9421;
89.4000;1.0908;0.9522;
89.7000;1.0810;0.9270;
90.0000;1.0842;0.9396;
90.3000;1.0859;0.9522;
90.6000;1.0859;0.9597;
90.9000;1.0842;0.9522;
91.2000;1.0859;0.9597;
91.5000;1.0834;0.9471;
91.8000;1.0859;0.9446;
92.1000;1.0883;0.9497;
92.4000;1.0851;0.9497;
92.7000;1.0867;0.9547;
93.0000;1.0859;0.9623;
93.3000;1.0859;0.9623;
93.6000;1.0867;0.9648;
93.9000;1.0867;0.9673;
94.2000;1.0867;0.9673;
94.5000;1.0859;0.9673;
94.8000;1.0859;0.9673;
95.1000;1.0867;0.9648;
95.4000;1.0859;0.9547;
95.7000;1.0851;0.9572;
96.0000;1.0859;0.9623;
96.3000;1.0867;0.9597;
96.6000;1.0859;0.9421;
96.9000;1.0867;0.9345;
97.2000;1.0851;0.9371;
97.5000;1.0867;0.9421;
97.8000;1.0859;0.9471;
98.1000;1.0859;0.9623;
98.4000;1.0851;0.9597;
98.7000;1.0851;0.9623;
99.0000;1.0875;0.9824;
99.3000;1.0867;0.9849;
99.6000;1.0867;0.9849;
99.9000;1.0867;0.9824;
100.2000;1.0875;0.9723;
100.5000;1.0875;0.9723;
100.8000;1.0875;0.9723;
101.1000;1.0875;0.9774;
101.4000;1.0834;0.9723;
101.7000;1.0867;0.9749;
102.0000;1.0867;0.9774;
102.3000;1.0842;0.9597;
102.6000;1.0851;0.9698;
102.9000;1.0851;0.9723;
103.2000;1.0859;0.9698;
103.5000;1.0851;0.9547;
103.8000;1.0851;0.9648;
104.1000;1.0842;0.9522;
104.4000;1.0867;0.9572;
104.7000;1.0867;0.9623;
105.0000;1.0859;0.9522;
105.3000;1.0867;0.9597;
105.6000;1.0859;0.9597;
105.9000;1.0842;0.9572;
106.2000;1.0851;0.9673;
106.5000;1.0842;0.9597;
106.8000;1.0859;0.9673;
107.1000;1.0851;0.9623;
107.4000;1.0859;0.9623;
107.7000;1.0851;0.9597;
108.0000;1.0818;0.9547;
108.3000;1.0867;0.9572;
108.6000;1.0810;0.9446;
108.9000;1.0810;0.9471;
109.2000;1.0851;0.9648;
109.5000;1.0867;0.9698;
109.8000;1.0875;0.9749;
110.1000;1.0818;0.9597;
110.4000;1.0859;0.9698;
110.7000;1.0891;0.9623;
111.0000;1.0867;0.9623;
111.3000;1.0875;0.9572;
111.6000;1.0859;0.9597;
111.9000;1.0859;0.9673;
112.2000;1.0842;0.9673;
112.5000;1.0842;0.9698;
112.8000;1.0859;0.9698;
113.1000;1.0867;0.9673;
113.4000;1.0859;0.9698;
113.7000;1.0842;0.9648;
114.0000;1.0818;0.9522;
114.3000;1.0859;0.9497;
114.6000;1.0883;0.9597;
114.9000;1.0842;0.9497;
115.2000;1.0859;0.9572;
115.5000;1.0883;0.9673;
115.8000;1.0875;0.9623;
116.1000;1.0883;0.9648;
116.4000;1.0867;0.9572;
116.7000;1.0875;0.9597;
117.0000;1.0859;0.9623;
117.3000;1.0859;0.9673;
117.6000;1.0851;0.9597;
117.9000;1.0842;0.9547;
118.2000;1.0859;0.9623;
118.5000;1.0834;0.9597;
118.8000;1.0842;0.9623;
119.1000;1.0851;0.9572;
119.4000;1.0834;0.9572;
119.7000;1.0851;0.9648;
120.0000;1.0867;0.9673;
120.3000;1.0859;0.9723;
120.6000;1.0859;0.9723;
120.9000;1.0875;0.9749;
121.2000;1.0859;0.9698;
121.5000;1.0859;0.9673;
121.8000;1.0859;0.9749;
122.1000;1.0859;0.9874;
122.4000;1.0842;0.9824;
122.7000;1.0859;0.9900;
123.0000;1.0859;0.9900;
123.3000;1.0899;1.0026;
123.6000;1.0867;0.9874;
123.9000;1.0867;0.9799;
124.2000;1.0891;0.9774;
124.5000;1.0859;0.9623;
124.8000;1.0859;0.9723;
125.1000;1.0859;0.9774;
125.4000;1.0867;0.9774;
125.7000;1.0875;0.9749;
126.0000;1.0851;0.9774;
126.3000;1.0859;0.9723;
126.6000;1.0875;0.9799;
126.9000;1.0859;0.9799;
127.2000;1.0851;0.9749;
127.5000;1.0867;0.9774;
127.8000;1.0834;0.9597;
128.1000;1.0842;0.9471;
128.4000;1.0859;0.9623;
128.7000;1.0851;0.9673;
129.0000;1.0851;0.9648;
129.3000;1.0842;0.9648;
129.6000;1.0859;0.9547;
129.9000;1.0867;0.9547;
130.2000;1.0826;0.9471;
130.5000;1.0851;0.9597;
130.8000;1.0842;0.9572;
131.1000;1.0867;0.9673;
131.4000;1.0867;0.9749;
131.7000;1.0851;0.9673;
132.0000;1.0867;0.9749;
132.3000;1.0875;0.9673;
132.6000;1.0859;0.9623;
132.9000;1.0867;0.9547;
133.2000;1.0851;0.9522;
133.5000;1.0851;0.9471;
133.8000;1.0842;0.9471;
134.1000;1.0842;0.9522;
134.4000;1.0834;0.9547;
134.7000;1.0859;0.9572;
135.0000;1.0859;0.9547;
135.3000;1.0859;0.9572;
135.6000;1.0859;0.9547;
135.9000;1.0859;0.9698;
136.2000;1.0867;0.9774;
136.5000;1.0859;0.9673;
136.8000;1.0851;0.9597;
137.1000;1.0810;0.9547;
137.4000;1.0859;0.9673;
137.7000;1.0867;0.9648;
138.0000;1.0834;0.9522;
138.3000;1.0851;0.9623;
138.6000;1.0875;0.9623;
138.9000;1.0826;0.9446;
139.2000;1.0867;0.9572;
139.5000;1.0842;0.9572;
139.8000;1.0842;0.9698;
140.1000;1.0867;0.9698;
140.4000;1.0851;0.9623;
140.7000;1.0851;0.9522;
141.0000;1.0867;0.9547;
141.3000;1.0867;0.9547;
141.6000;1.0851;0.9547;
141.9000;1.0842;0.9497;
142.2000;1.0859;0.9522;
142.5000;1.0859;0.9522;
142.8000;1.0883;0.9522;
143.1000;1.0851;0.9497;
143.4000;1.0851;0.9421;
143.7000;1.0810;0.9169;
144.0000;1.0826;0.9119;
144.3000;1.0842;0.9220;
144.6000;1.0842;0.9144;
144.9000;1.0859;0.9245;
145.2000;1.0794;0.9169;
145.5000;1.0851;0.9295;
145.8000;1.0859;0.9295;
146.1000;1.0859;0.9396;
146.4000;1.0859;0.9421;
146.7000;1.0851;0.9421;
147.0000;1.0834;0.9396;
147.3000;1.0834;0.9396;
147.6000;1.0826;0.9421;
147.9000;1.0851;0.9446;
148.2000;1.0834;0.9446;
148.5000;1.0834;0.9396;
148.8000;1.0826;0.9396;
149.1000;1.0851;0.9547;
149.4000;1.0842;0.9522;
149.7000;1.0859;0.9522;
150.0000;1.0834;0.9396;
150.3000;1.0851;0.9421;
150.6000;1.0851;0.9421;
150.9000;1.0851;0.9421;
151.2000;1.0851;0.9497;
151.5000;1.0818;0.9446;
151.8000;1.0826;0.9421;
152.1000;1.0826;0.9446;
152.4000;1.0851;0.9522;
152.7000;1.0851;0.9497;
153.0000;1.0842;0.9471;
153.3000;1.0834;0.9396;
153.6000;1.0875;0.9497;
153.9000;1.0842;0.9446;
154.2000;1.0851;0.9421;
154.5000;1.0842;0.9396;
154.8000;1.0842;0.9471;
155.1000;1.0842;0.9522;
155.4000;1.0851;0.9572;
155.7000;1.0834;0.9547;
156.0000;1.0777;0.9497;
156.3000;1.0859;0.9597;
156.6000;1.0834;0.9597;
156.9000;1.0810;0.9497;
157.2000;1.0834;0.9547;
157.5000;1.0842;0.9522;
157.8000;1.0842;0.9497;
158.1000;1.0859;0.9547;
158.4000;1.0851;0.9497;
158.7000;1.0826;0.9471;
159.0000;1.0867;0.9547;
159.3000;1.0859;0.9522;
159.6000;1.0875;0.9522;
159.9000;1.0842;0.9446;
160.2000;1.0842;0.9497;
160.5000;1.0842;0.9572;
160.8000;1.0851;0.9597;
161.1000;1.0851;0.9547;
161.4000;1.0859;0.9497;
161.7000;1.0859;0.9522;
162.0000;1.0834;0.9547;
162.3000;1.0834;0.9547;
162.6000;1.0924;0.9723;
162.9000;1.0842;0.9471;
163.2000;1.0826;0.9421;
163.5000;1.0826;0.9446;
163.8000;1.0826;0.9497;
164.1000;1.0826;0.9572;
164.4000;1.0842;0.9698;
164.7000;1.0834;0.9698;
165.0000;1.0818;0.9547;
165.3000;1.0810;0.9572;
165.6000;1.0834;0.9673;
165.9000;1.0818;0.9623;
166.2000;1.0834;0.9673;
166.5000;1.0834;0.9749;
166.8000;1.0818;0.9749;
167.1000;1.0810;0.9749;
167.4000;1.0851;0.9799;
167.7000;1.0834;0.9723;
168.0000;1.0851;0.9723;
168.3000;1.0834;0.9673;
168.6000;1.0818;0.9572;
168.9000;1.0826;0.9572;
169.2000;1.0859;0.9572;
169.5000;1.0834;0.9597;
169.8000;1.0851;0.9673;
170.1000;1.0826;0.9572;
170.4000;1.0842;0.9673;
170.7000;1.0842;0.9648;
171.0000;1.0859;0.9648;
171.3000;1.0834;0.9597;
171.6000;1.0842;0.9572;
171.9000;1.0834;0.9673;
172.2000;1.0810;0.9597;
172.5000;1.0842;0.9673;
172.8000;1.0834;0.9723;
173.1000;1.0842;0.9774;
173.4000;1.0842;0.9698;
173.7000;1.0818;0.9673;
174.0000;1.0834;0.9597;
174.3000;1.0834;0.9698;
174.6000;1.0834;0.9623;
174.9000;1.0826;0.9673;
175.2000;1.0810;0.9623;
175.5000;1.0826;0.9799;
175.8000;1.0818;0.9749;
176.1000;1.0818;0.9623;
176.4000;1.0842;0.9597;
176.7000;1.0842;0.9597;
177.0000;1.0834;0.9648;
177.3000;1.0867;0.9698;
177.6000;1.0834;0.9497;
177.9000;1.0810;0.9371;
178.2000;1.0834;0.9497;
178.5000;1.0834;0.9471;
178.8000;1.0826;0.9371;
179.1000;1.0818;0.9421;
179.4000;1.0834;0.9471;
179.7000;1.0810;0.9421;
180.0000;1.0883;0.9597;
180.3000;1.0826;0.9421;
180.6000;1.0851;0.9371;
180.9000;1.0802;0.9320;
181.2000;1.0842;0.9471;
181.5000;1.0842;0.9421;
181.8000;1.0834;0.9446;
182.1000;1.0794;0.9295;
182.4000;1.0834;0.9320;
182.7000;1.0851;0.9396;
183.0000;1.0851;0.9421;
183.3000;1.0842;0.9497;
183.6000;1.0826;0.9522;
183.9000;1.0818;0.9547;
184.2000;1.0842;0.9597;
184.5000;1.0834;0.9597;
184.8000;1.0842;0.9497;
185.1000;1.0834;0.9421;
185.4000;1.0818;0.9522;
185.7000;1.0842;0.9572;
186.0000;1.0859;0.9572;
186.3000;1.0842;0.9597;
186.6000;1.0851;0.9698;
186.9000;1.0834;0.9623;
187.2000;1.0842;0.9623;
187.5000;1.0834;0.9572;
187.8000;1.0810;0.9522;
188.1000;1.0826;0.9597;
188.4000;1.0834;0.9547;
188.7000;1.0818;0.9522;
189.0000;1.0826;0.9471;
189.3000;1.0826;0.9522;
189.6000;1.0826;0.9522;
189.9000;1.0826;0.9547;
190.2000;1.0826;0.9597;
190.5000;1.0826;0.9597;
190.8000;1.0842;0.9597;
191.1000;1.0842;0.9497;
191.4000;1.0826;0.9572;
191.7000;1.0826;0.9547;
192.0000;1.0802;0.9547;
192.3000;1.0826;0.9597;
192.6000;1.0851;0.9623;
192.9000;1.0818;0.9522;
193.2000;1.0834;0.9572;
193.5000;1.0794;0.9597;
193.8000;1.0834;0.9623;
194.1000;1.0826;0.9648;
194.4000;1.0834;0.9597;
194.7000;1.0834;0.9597;
195.0000;1.0867;0.9673;
195.3000;1.0826;0.9698;
195.6000;1.0826;0.9723;
195.9000;1.0826;0.9648;
196.2000;1.0826;0.9673;
196.5000;1.0891;0.9824;
196.8000;1.0818;0.9597;
197.1000;1.0826;0.9572;
197.4000;1.0834;0.9648;
197.7000;1.0834;0.9597;
198.0000;1.0834;0.9597;
198.3000;1.0867;0.9597;
198.6000;1.0875;0.9623;
198.9000;1.0834;0.9597;
199.2000;1.0834;0.9597;
199.5000;1.0737;0.9345;
199.8000;1.0818;0.9547;
200.1000;1.0818;0.9597;
200.4000;1.0883;0.9648;
200.7000;1.0802;0.9421;
201.0000;1.0777;0.9371;
201.3000;1.0826;0.9497;
201.6000;1.0826;0.9547;
201.9000;1.0826;0.9547;
202.2000;1.0826;0.9497;
202.5000;1.0842;0.9597;
202.8000;1.0842;0.9497;
203.1000;1.0834;0.9497;
203.4000;1.0834;0.9471;
203.7000;1.0818;0.9446;
204.0000;1.0842;0.9371;
204.3000;1.0834;0.9396;
204.6000;1.0826;0.9371;
204.9000;1.0826;0.9446;
205.2000;1.0834;0.9471;
205.5000;1.0810;0.9396;
205.8000;1.0818;0.9446;
206.1000;1.0842;0.9547;
206.4000;1.0834;0.9471;
206.7000;1.0826;0.9396;
207.0000;1.0834;0.9371;
207.3000;1.0826;0.9471;
207.6000;1.0834;0.9471;
207.9000;1.0834;0.9497;
208.2000;1.0818;0.9522;
208.5000;1.0834;0.9522;
208.8000;1.0818;0.9522;
209.1000;1.0818;0.9497;
209.4000;1.0818;0.9497;
209.7000;1.0818;0.9497;
210.0000;1.0826;0.9471;
210.3000;1.0842;0.9421;
210.6000;1.0826;0.9446;
210.9000;1.0810;0.9421;
211.2000;1.0818;0.9320;
211.5000;1.0826;0.9320;
211.8000;1.0818;0.9345;
212.1000;1.0826;0.9371;
212.4000;1.0810;0.9270;
212.7000;1.0826;0.9320;
213.0000;1.0802;0.9270;
213.3000;1.0834;0.9270;
213.6000;1.0826;0.9295;
213.9000;1.0851;0.9396;
214.2000;1.0777;0.9194;
214.5000;1.0851;0.9320;
214.8000;1.0826;0.9169;
215.1000;1.0834;0.9270;
215.4000;1.0818;0.9245;
215.7000;1.0842;0.9320;
216.0000;1.0810;0.9270;
216.3000;1.0818;0.9270;
216.6000;1.0818;0.9245;
216.9000;1.0818;0.9295;
217.2000;1.0818;0.9320;
217.5000;1.0769;0.9144;
217.8000;1.0851;0.9345;
218.1000;1.0867;0.9320;
218.4000;1.0851;0.9345;
218.7000;1.0851;0.9345;
219.0000;1.0842;0.9421;
219.3000;1.0842;0.9497;
219.6000;1.0842;0.9497;
219.9000;1.0834;0.9396;
220.2000;1.0842;0.9371;
220.5000;1.0851;0.9345;
220.8000;1.0834;0.9371;
221.1000;1.0842;0.9396;
221.4000;1.0851;0.9471;
221.7000;1.0834;0.9421;
222.0000;1.0842;0.9446;
222.3000;1.0834;0.9396;
222.6000;1.0834;0.9345;
222.9000;1.0834;0.9371;
223.2000;1.0826;0.9345;
223.5000;1.0834;0.9295;
223.8000;1.0818;0.9295;
224.1000;1.0826;0.9345;
224.4000;1.0826;0.9345;
224.7000;1.0842;0.9295;
225.0000;1.0834;0.9320;
225.3000;1.0818;0.9371;
225.6000;1.0818;0.9446;
225.9000;1.0818;0.9497;
226.2000;1.0826;0.9547;
226.5000;1.0826;0.9522;
226.8000;1.0802;0.9522;
227.1000;1.0810;0.9648;
227.4000;1.0818;0.9597;
227.7000;1.0826;0.9572;
228.0000;1.0826;0.9497;
228.3000;1.0826;0.9421;
228.6000;1.0818;0.9371;
228.9000;1.0851;0.9547;
229.2000;1.0834;0.9522;
229.5000;1.0826;0.9522;
229.8000;1.0826;0.9547;
230.1000;1.0842;0.9648;
230.4000;1.0818;0.9648;
230.7000;1.0826;0.9698;
231.0000;1.0818;0.9698;
231.3000;1.0826;0.9749;
231.6000;1.0834;0.9774;
231.9000;1.0818;0.9723;
232.2000;1.0842;0.9749;
232.5000;1.0818;0.9648;
232.8000;1.0834;0.9698;
233.1000;1.0834;0.9698;
233.4000;1.0818;0.9673;
233.7000;1.0834;0.9673;
234.0000;1.0818;0.9723;
234.3000;1.0842;0.9799;
234.6000;1.0826;0.9698;
234.9000;1.0818;0.9648;
235.2000;1.0802;0.9547;
235.5000;1.0826;0.9597;
235.8000;1.0818;0.9547;
236.1000;1.0818;0.9597;
236.4000;1.0810;0.9572;
236.7000;1.0826;0.9623;
237.0000;1.0826;0.9673;
237.3000;1.0818;0.9698;
237.6000;1.0818;0.9648;
237.9000;1.0777;0.9547;
238.2000;1.0826;0.9572;
238.5000;1.0786;0.9396;
238.8000;1.0834;0.9522;
239.1000;1.0810;0.9522;
239.4000;1.0826;0.9547;
239.7000;1.0859;0.9698;
240.0000;1.0834;0.9673;
240.3000;1.0867;0.9799;
240.6000;1.0834;0.9723;
240.9000;1.0826;0.9648;
241.2000;1.0818;0.9597;
241.5000;1.0810;0.9547;
241.8000;1.0818;0.9522;
242.1000;1.0826;0.9547;
242.4000;1.0818;0.9547;
242.7000;1.0818;0.9471;
243.0000;1.0794;0.9522;
243.3000;1.0794;0.9572;
243.6000;1.0826;0.9597;
243.9000;1.0834;0.9547;
244.2000;1.0842;0.9648;
244.5000;1.0818;0.9547;
244.8000;1.0834;0.9623;
245.1000;1.0818;0.9648;
245.4000;1.0826;0.9648;
245.7000;1.0818;0.9597;
246.0000;1.0794;0.9572;
246.3000;1.0810;0.9547;
246.6000;1.0802;0.9522;
246.9000;1.0802;0.9547;
247.2000;1.0810;0.9597;
247.5000;1.0818;0.9623;
247.8000;1.0802;0.9522;
248.1000;1.0859;0.9648;
248.4000;1.0842;0.9673;
248.7000;1.0834;0.9648;
249.0000;1.0826;0.9497;
249.3000;1.0818;0.9471;
249.6000;1.0818;0.9572;
249.9000;1.0794;0.9597;
250.2000;1.0818;0.9723;
250.5000;1.0818;0.9749;
250.8000;1.0810;0.9749;
251.1000;1.0818;0.9749;
251.4000;1.0842;0.9774;
251.7000;1.0842;0.9849;
252.0000;1.0851;0.9824;
252.3000;1.0842;0.9698;
252.6000;1.0826;0.9623;
252.9000;1.0818;0.9597;
253.2000;1.0842;0.9623;
253.5000;1.0834;0.9648;
253.8000;1.0834;0.9547;
254.1000;1.0834;0.9522;
254.4000;1.0826;0.9522;
254.7000;1.0818;0.9522;
255.0000;1.0826;0.9497;
255.3000;1.0818;0.9421;
255.6000;1.0810;0.9396;
255.9000;1.0818;0.9471;
256.2000;1.0818;0.9547;
256.5000;1.0810;0.9547;
256.8000;1.0810;0.9522;
257.1000;1.0810;0.9597;
257.4000;1.0810;0.9572;
257.7000;1.0802;0.9522;
258.0000;1.0818;0.9471;
258.3000;1.0818;0.9497;
258.6000;1.0818;0.9446;
258.9000;1.0826;0.9522;
259.2000;1.0769;0.9446;
259.5000;1.0810;0.9522;
259.8000;1.0826;0.9597;
260.1000;1.0826;0.9572;
260.4000;1.0834;0.9572;
260.7000;1.0818;0.9471;
261.0000;1.0802;0.9471;
261.3000;1.0859;0.9597;
261.6000;1.0769;0.9396;
261.9000;1.0826;0.9597;
262.2000;1.0777;0.9547;
262.5000;1.0842;0.9673;
262.8000;1.0834;0.9673;
263.1000;1.0794;0.9572;
263.4000;1.0826;0.9547;
263.7000;1.0810;0.9497;
264.0000;1.0826;0.9522;
264.3000;1.0810;0.9572;
264.6000;1.0818;0.9597;
264.9000;1.0810;0.9597;
265.2000;1.0826;0.9547;
265.5000;1.0794;0.9522;
265.8000;1.0810;0.9547;
266.1000;1.0826;0.9623;
266.4000;1.0834;0.9522;
266.7000;1.0826;0.9471;
267.0000;1.0810;0.9446;
267.3000;1.0810;0.9471;
267.6000;1.0834;0.9547;
267.9000;1.0818;0.9471;
268.2000;1.0818;0.9421;
268.5000;1.0818;0.9421;
268.8000;1.0818;0.9471;
269.1000;1.0802;0.9371;
269.4000;1.0810;0.9396;
269.7000;1.0810;0.9421;
270.0000;1.0810;0.9471;
270.3000;1.0794;0.9522;
270.6000;1.0745;0.9446;
270.9000;1.0802;0.9522;
271.2000;1.0802;0.9597;
271.5000;1.0786;0.9446;
271.8000;1.0810;0.9547;
272.1000;1.0802;0.9497;
272.4000;1.0818;0.9497;
272.7000;1.0818;0.9471;
273.0000;1.0851;0.9547;
273.3000;1.0810;0.9446;
273.6000;1.0834;0.9522;
273.9000;1.0826;0.9597;
274.2000;1.0826;0.9572;
274.5000;1.0818;0.9522;
274.8000;1.0818;0.9572;
275.1000;1.0834;0.9572;
275.4000;1.0810;0.9597;
275.7000;1.0810;0.9572;
276.0000;1.0802;0.9497;
276.3000;1.0802;0.9547;
276.6000;1.0810;0.9572;
276.9000;1.0826;0.9547;
277.2000;1.0810;0.9497;
277.5000;1.0810;0.9421;
277.8000;1.0818;0.9471;
278.1000;1.0761;0.9220;
278.4000;1.0810;0.9396;
278.7000;1.0826;0.9572;
279.0000;1.0810;0.9522;
279.3000;1.0794;0.9572;
279.6000;1.0810;0.9648;
279.9000;1.0802;0.9623;
280.2000;1.0786;0.9547;
280.5000;1.0826;0.9623;
280.8000;1.0802;0.9522;
281.1000;1.0810;0.9597;
281.4000;1.0826;0.9623;
281.7000;1.0834;0.9673;
282.0000;1.0826;0.9648;
282.3000;1.0810;0.9547;
282.6000;1.0794;0.9547;
282.9000;1.0818;0.9623;
283.2000;1.0818;0.9648;
283.5000;1.0818;0.9623;
283.8000;1.0810;0.9597;
284.1000;1.0826;0.9623;
284.4000;1.0826;0.9623;
284.7000;1.0810;0.9522;
285.0000;1.0794;0.9497;
285.3000;1.0810;0.9497;
285.6000;1.0786;0.9547;
285.9000;1.0786;0.9547;
286.2000;1.0794;0.9446;
286.5000;1.0842;0.9471;
286.8000;1.0826;0.9345;
287.1000;1.0826;0.9320;
287.4000;1.0810;0.9270;
287.7000;1.0818;0.9295;
288.0000;1.0810;0.9295;
288.3000;1.0810;0.9320;
288.6000;1.0810;0.9320;
288.9000;1.0834;0.9270;
289.2000;1.0818;0.9169;
289.5000;1.0810;0.9094;
289.8000;1.0802;0.9094;
290.1000;1.0810;0.9220;
290.4000;1.0753;0.9144;
290.7000;1.0810;0.9245;
291.0000;1.0802;0.9270;
291.3000;1.0794;0.9220;
291.6000;1.0818;0.9270;
291.9000;1.0818;0.9295;
292.2000;1.0777;0.9169;
292.5000;1.0818;0.9270;
292.8000;1.0818;0.9270;
293.1000;1.0826;0.9270;
293.4000;1.0802;0.9320;
293.7000;1.0810;0.9371;
294.0000;1.0826;0.9371;
294.3000;1.0818;0.9220;
294.6000;1.0786;0.9194;
294.9000;1.0818;0.9345;
295.2000;1.0786;0.9245;
295.5000;1.0867;0.9471;
295.8000;1.0794;0.9345;
296.1000;1.0802;0.9471;
296.4000;1.0802;0.9446;
296.7000;1.0802;0.9471;
297.0000;1.0818;0.9522;
297.3000;1.0810;0.9547;
297.6000;1.0786;0.9446;
297.9000;1.0802;0.9471;
298.2000;1.0802;0.9522;
298.5000;1.0810;0.9497;
298.8000;1.0802;0.9522;
299.1000;1.0769;0.9471;
299.4000;1.0810;0.9522;
299.7000;1.0810;0.9471;
300.0000;1.0794;0.9497;
300.3000;1.0818;0.9497;
300.6000;1.0802;0.9497;
300.9000;1.0802;0.9522;
301.2000;1.0802;0.9522;
301.5000;1.0761;0.9421;
301.8000;1.0802;0.9522;
302.1000;1.0802;0.9547;
302.4000;1.0810;0.9446;
302.7000;1.0786;0.9371;
303.0000;1.0802;0.9572;
303.3000;1.0802;0.9648;
303.6000;1.0810;0.9723;
303.9000;1.0810;0.9597;
304.2000;1.0802;0.9547;
304.5000;1.0834;0.9547;
304.8000;1.0818;0.9396;
305.1000;1.0810;0.9396;
305.4000;1.0794;0.9345;
305.7000;1.0818;0.9446;
306.0000;1.0826;0.9497;
306.3000;1.0810;0.9446;
306.6000;1.0826;0.9446;
306.9000;1.0818;0.9471;
307.2000;1.0818;0.9497;
307.5000;1.0810;0.9421;
307.8000;1.0802;0.9446;
308.1000;1.0834;0.9572;
308.4000;1.0802;0.9446;
308.7000;1.0794;0.9421;
309.0000;1.0802;0.9497;
309.3000;1.0753;0.9396;
309.6000;1.0810;0.9421;
309.9000;1.0794;0.9421;
310.2000;1.0794;0.9371;
310.5000;1.0802;0.9320;
310.8000;1.0802;0.9295;
311.1000;1.0802;0.9295;
311.4000;1.0777;0.9194;
311.7000;1.0794;0.9270;
312.0000;1.0818;0.9295;
312.3000;1.0851;0.9497;
312.6000;1.0802;0.9396;
312.9000;1.0802;0.9396;
313.2000;1.0794;0.9446;
313.5000;1.0786;0.9421;
313.8000;1.0867;0.9572;
314.1000;1.0810;0.9497;
314.4000;1.0834;0.9547;
314.7000;1.0851;0.9522;
315.0000;1.0818;0.9371;
315.3000;1.0753;0.9119;
315.6000;1.0802;0.9220;
315.9000;1.0818;0.9295;
316.2000;1.0786;0.9295;
316.5000;1.0802;0.9345;
316.8000;1.0753;0.9194;
317.1000;1.0802;0.9270;
317.4000;1.0851;0.9471;
317.7000;1.0810;0.9421;
318.0000;1.0786;0.9320;
318.3000;1.0842;0.9421;
318.6000;1.0818;0.9320;
318.9000;1.0802;0.9295;
319.2000;1.0802;0.9396;
319.5000;1.0794;0.9371;
319.8000;1.0802;0.9345;
320.1000;1.0802;0.9320;
320.4000;1.0810;0.9345;
320.7000;1.0802;0.9371;
321.0000;1.0769;0.9295;
321.3000;1.0818;0.9320;
321.6000;1.0802;0.9345;
321.9000;1.0802;0.9320;
322.2000;1.0802;0.9471;
322.5000;1.0818;0.9471;
322.8000;1.0810;0.9345;
323.1000;1.0794;0.9320;
323.4000;1.0794;0.9320;
323.7000;1.0818;0.9371;
324.0000;1.0810;0.9345;
324.3000;1.0810;0.9345;
324.6000;1.0810;0.9396;
324.9000;1.0810;0.9421;
325.2000;1.0810;0.9522;
325.5000;1.0826;0.9497;
325.8000;1.0810;0.9371;
326.1000;1.0810;0.9295;
326.4000;1.0810;0.9144;
326.7000;1.0794;0.9169;
327.0000;1.0802;0.9270;
327.3000;1.0810;0.9371;
327.6000;1.0810;0.9295;
327.9000;1.0810;0.9295;
328.2000;1.0737;0.9169;
328.5000;1.0810;0.9371;
328.8000;1.0802;0.9396;
329.1000;1.0810;0.9421;
329.4000;1.0745;0.9295;
329.7000;1.0818;0.9421;
330.0000;1.0777;0.9371;
330.3000;1.0712;0.9245;
330.6000;1.0802;0.9497;
330.9000;1.0769;0.9371;
331.2000;1.0794;0.9471;
331.5000;1.0810;0.9572;
331.8000;1.0794;0.9497;
332.1000;1.0777;0.9396;
332.4000;1.0786;0.9320;
332.7000;1.0794;0.9320;
333.0000;1.0810;0.9371;
333.3000;1.0802;0.9295;
333.6000;1.0810;0.9295;
333.9000;1.0802;0.9371;
334.2000;1.0826;0.9371;
334.5000;1.0810;0.9320;
334.8000;1.0802;0.9245;
335.1000;1.0794;0.9220;
335.4000;1.0810;0.9245;
335.7000;1.0818;0.9295;
336.0000;1.0761;0.9119;
336.3000;1.0794;0.9295;
336.6000;1.0794;0.9194;
336.9000;1.0753;0.9144;
337.2000;1.0761;0.9068;
337.5000;1.0826;0.9220;
337.8000;1.0818;0.9245;
338.1000;1.0794;0.9194;
338.4000;1.0794;0.9194;
338.7000;1.0794;0.9194;
339.0000;1.0802;0.9220;
339.3000;1.0794;0.9194;
339.6000;1.0794;0.9270;
339.9000;1.0810;0.9345;
340.2000;1.0802;0.9295;
340.5000;1.0818;0.9270;
340.8000;1.0818;0.9169;
341.1000;1.0794;0.9169;
341.4000;1.0786;0.9144;
341.7000;1.0810;0.9295;
342.0000;1.0867;0.9522;
342.3000;1.0818;0.9371;
342.6000;1.0786;0.9270;
342.9000;1.0810;0.9371;
343.2000;1.0794;0.9421;
343.5000;1.0794;0.9421;
343.8000;1.0794;0.9471;
344.1000;1.0859;0.9597;
344.4000;1.0859;0.9522;
344.7000;1.0786;0.9320;
345.0000;1.0794;0.9371;
345.3000;1.0794;0.9471;
345.6000;1.0802;0.9421;
345.9000;1.0753;0.9270;
346.2000;1.0794;0.9345;
346.5000;1.0786;0.9446;
346.8000;1.0786;0.9497;
347.1000;1.0769;0.9446;
347.4000;1.0777;0.9497;
347.7000;1.0794;0.9497;
348.0000;1.0794;0.9371;
348.3000;1.0769;0.9320;
348.6000;1.0777;0.9345;
348.9000;1.0802;0.9396;
349.2000;1.0802;0.9396;
349.5000;1.0794;0.9371;
349.8000;1.0802;0.9446;
350.1000;1.0851;0.9673;
350.4000;1.0794;0.9446;
350.7000;1.0826;0.9547;
351.0000;1.0794;0.9522;
351.3000;1.0794;0.9497;
351.6000;1.0810;0.9471;
351.9000;1.0802;0.9471;
352.2000;1.0818;0.9497;
352.5000;1.0777;0.9396;
352.8000;1.0794;0.9446;
353.1000;1.0810;0.9421;
353.4000;1.0794;0.9371;
353.7000;1.0786;0.9320;
354.0000;1.0802;0.9396;
354.3000;1.0769;0.9320;
354.6000;1.0786;0.9396;
354.9000;1.0794;0.9497;
355.2000;1.0802;0.9471;
355.5000;1.0786;0.9421;
355.8000;1.0810;0.9497;
356.1000;1.0802;0.9446;
356.4000;1.0794;0.9497;
356.7000;1.0786;0.9547;
357.0000;1.0794;0.9597;
357.3000;1.0786;0.9673;
357.6000;1.0777;0.9547;
357.9000;1.0786;0.9497;
358.2000;1.0794;0.9522;
358.5000;1.0769;0.9446;
358.8000;1.0786;0.9497;
359.1000;1.0761;0.9547;
359.4000;1.0786;0.9572;
359.7000;1.0794;0.9673;
360.0000;1.0777;0.9623;
360.3000;1.0786;0.9623;
360.6000;1.0777;0.9597;
360.9000;1.0777;0.9547;
361.2000;1.0777;0.9497;
361.5000;1.0794;0.9446;
361.8000;1.0810;0.9396;
362.1000;1.0802;0.9421;
362.4000;1.0761;0.9295;
362.7000;1.0786;0.9345;
363.0000;1.0794;0.9345;
363.3000;1.0802;0.9371;
363.6000;1.0786;0.9345;
363.9000;1.0802;0.9421;
364.2000;1.0786;0.9320;
364.5000;1.0777;0.9270;
364.8000;1.0810;0.9270;
365.1000;1.0777;0.9270;
365.4000;1.0794;0.9371;
365.7000;1.0794;0.9446;
366.0000;1.0810;0.9371;
366.3000;1.0802;0.9345;
366.6000;1.0777;0.9270;
366.9000;1.0786;0.9295;
367.2000;1.0794;0.9371;
367.5000;1.0794;0.9446;
367.8000;1.0794;0.9446;
368.1000;1.0786;0.9446;
368.4000;1.0802;0.9522;
368.7000;1.0802;0.9446;
369.0000;1.0794;0.9396;
369.3000;1.0810;0.9421;
369.6000;1.0786;0.9471;
369.9000;1.0786;0.9547;
370.2000;1.0777;0.9471;
370.5000;1.0777;0.9471;
370.8000;1.0802;0.9446;
371.1000;1.0818;0.9471;
371.4000;1.0802;0.9345;
371.7000;1.0810;0.9345;
372.0000;1.0834;0.9345;
372.3000;1.0810;0.9295;
372.6000;1.0794;0.9245;
372.9000;1.0802;0.9295;
373.2000;1.0777;0.9320;
373.5000;1.0802;0.9371;
373.8000;1.0777;0.9320;
374.1000;1.0794;0.9345;
374.4000;1.0802;0.9471;
374.7000;1.0802;0.9446;
375.0000;1.0786;0.9497;
375.3000;1.0777;0.9572;
375.6000;1.0786;0.9522;
375.9000;1.0802;0.9547;
376.2000;1.0786;0.9547;
376.5000;1.0786;0.9497;
376.8000;1.0786;0.9471;
377.1000;1.0786;0.9497;
377.4000;1.0802;0.9471;
377.7000;1.0802;0.9547;
378.0000;1.0777;0.9471;
378.3000;1.0786;0.9471;
378.6000;1.0786;0.9497;
378.9000;1.0777;0.9396;
379.2000;1.0777;0.9421;
379.5000;1.0842;0.9597;
379.8000;1.0794;0.9572;
380.1000;1.0802;0.9597;
380.4000;1.0802;0.9572;
380.7000;1.0786;0.9547;
381.0000;1.0818;0.9597;
381.3000;1.0769;0.9446;
381.6000;1.0777;0.9446;
381.9000;1.0786;0.9421;
382.2000;1.0802;0.9421;
382.5000;1.0786;0.9547;
382.8000;1.0777;0.9497;
383.1000;1.0769;0.9446;
383.4000;1.0777;0.9371;
383.7000;1.0786;0.9320;
384.0000;1.0786;0.9345;
384.3000;1.0802;0.9320;
384.6000;1.0777;0.9371;
384.9000;1.0769;0.9446;
385.2000;1.0810;0.9446;
385.5000;1.0794;0.9497;
385.8000;1.0794;0.9572;
386.1000;1.0802;0.9648;
386.4000;1.0769;0.9572;
386.7000;1.0794;0.9547;
387.0000;1.0810;0.9547;
387.3000;1.0802;0.9547;
387.6000;1.0818;0.9446;
387.9000;1.0777;0.9320;
388.2000;1.0729;0.9245;
388.5000;1.0769;0.9345;
388.8000;1.0777;0.9396;
389.1000;1.0794;0.9446;
389.4000;1.0794;0.9522;
389.7000;1.0802;0.9446;
390.0000;1.0761;0.9345;
390.3000;1.0802;0.9497;
390.6000;1.0810;0.9547;
390.9000;1.0794;0.9522;
391.2000;1.0810;0.9623;
391.5000;1.0794;0.9648;
391.8000;1.0777;0.9673;
392.1000;1.0786;0.9723;
392.4000;1.0794;0.9673;
392.7000;1.0810;0.9698;
393.0000;1.0777;0.9648;
393.3000;1.0777;0.9648;
393.6000;1.0777;0.9749;
393.9000;1.0786;0.9749;
394.2000;1.0777;0.9648;
394.5000;1.0794;0.9547;
394.8000;1.0777;0.9497;
395.1000;1.0794;0.9522;
395.4000;1.0802;0.9597;
395.7000;1.0810;0.9597;
396.0000;1.0761;0.9572;
396.3000;1.0777;0.9623;
396.6000;1.0794;0.9673;
396.9000;1.0761;0.9623;
397.2000;1.0769;0.9673;
397.5000;1.0777;0.9723;
397.8000;1.0794;0.9698;
398.1000;1.0777;0.9648;
398.4000;1.0777;0.9547;
398.7000;1.0777;0.9471;
399.0000;1.0777;0.9446;
399.3000;1.0769;0.9396;
399.6000;1.0777;0.9371;
399.9000;1.0769;0.9295;
400.2000;1.0777;0.9295;
400.5000;1.0810;0.9345;
400.8000;1.0802;0.9421;
401.1000;1.0802;0.9446;
401.4000;1.0818;0.9572;
401.7000;1.0786;0.9547;
402.0000;1.0794;0.9547;
402.3000;1.0794;0.9572;
402.6000;1.0786;0.9572;
402.9000;1.0794;0.9623;
403.2000;1.0777;0.9623;
403.5000;1.0842;0.9749;
403.8000;1.0745;0.9497;
404.1000;1.0777;0.9497;
404.4000;1.0777;0.9371;
404.7000;1.0769;0.9421;
405.0000;1.0769;0.9446;
405.3000;1.0810;0.9471;
405.6000;1.0737;0.9371;
405.9000;1.0794;0.9522;
406.2000;1.0786;0.9471;
406.5000;1.0802;0.9648;
406.8000;1.0777;0.9547;
407.1000;1.0777;0.9623;
407.4000;1.0786;0.9648;
407.7000;1.0794;0.9698;
408.0000;1.0802;0.9723;
408.3000;1.0794;0.9698;
408.6000;1.0794;0.9623;
408.9000;1.0794;0.9623;
409.2000;1.0786;0.9497;
409.5000;1.0794;0.9446;
409.8000;1.0753;0.9220;
410.1000;1.0769;0.9345;
410.4000;1.0720;0.9295;
410.7000;1.0810;0.9547;
411.0000;1.0769;0.9547;
411.3000;1.0696;0.9446;
411.6000;1.0777;0.9623;
411.9000;1.0802;0.9749;
412.2000;1.0802;0.9698;
412.5000;1.0802;0.9673;
412.8000;1.0786;0.9623;
413.1000;1.0777;0.9572;
413.4000;1.0802;0.9497;
413.7000;1.0794;0.9572;
414.0000;1.0810;0.9522;
414.3000;1.0786;0.9446;
414.6000;1.0786;0.9371;
414.9000;1.0777;0.9245;
415.2000;1.0786;0.9345;
415.5000;1.0786;0.9295;
415.8000;1.0802;0.9396;
416.1000;1.0769;0.9396;
416.4000;1.0777;0.9471;
416.7000;1.0786;0.9522;
417.0000;1.0794;0.9572;
417.3000;1.0786;0.9597;
417.6000;1.0777;0.9522;
417.9000;1.0786;0.9497;
418.2000;1.0786;0.9421;
418.5000;1.0786;0.9320;
418.8000;1.0794;0.9270;
419.1000;1.0826;0.9345;
419.4000;1.0794;0.9245;
419.7000;1.0769;0.9220;
420.0000;1.0802;0.9295;
420.3000;1.0777;0.9270;
420.6000;1.0777;0.9320;
420.9000;1.0786;0.9345;
421.2000;1.0769;0.9320;
421.5000;1.0786;0.9396;
421.8000;1.0794;0.9497;
422.1000;1.0769;0.9522;
422.4000;1.0826;0.9623;
422.7000;1.0769;0.9522;
423.0000;1.0777;0.9597;
423.3000;1.0802;0.9648;
423.6000;1.0777;0.9547;
423.9000;1.0786;0.9597;
424.2000;1.0794;0.9597;
424.5000;1.0777;0.9497;
424.8000;1.0769;0.9446;
425.1000;1.0777;0.9471;
425.4000;1.0769;0.9547;
425.7000;1.0786;0.9597;
426.0000;1.0786;0.9623;
426.3000;1.0826;0.9774;
426.6000;1.0769;0.9698;
426.9000;1.0786;0.9673;
427.2000;1.0777;0.9698;
427.5000;1.0777;0.9799;
427.8000;1.0786;0.9900;
428.1000;1.0794;0.9874;
428.4000;1.0777;0.9749;
428.7000;1.0729;0.9698;
429.0000;1.0769;0.9774;
429.3000;1.0777;0.9749;
429.6000;1.0761;0.9648;
429.9000;1.0786;0.9648;
430.2000;1.0769;0.9597;
430.5000;1.0761;0.9547;
430.8000;1.0786;0.9497;
431.1000;1.0794;0.9547;
431.4000;1.0786;0.9497;
431.7000;1.0769;0.9471;
432.0000;1.0769;0.9547;
432.3000;1.0802;0.9623;
432.6000;1.0794;0.9623;
432.9000;1.0786;0.9673;
433.2000;1.0769;0.9623;
433.5000;1.0761;0.9597;
433.8000;1.0786;0.9597;
434.1000;1.0802;0.9673;
434.4000;1.0696;0.9421;
434.7000;1.0753;0.9597;
435.0000;1.0802;0.9723;
435.3000;1.0826;0.9824;
435.6000;1.0794;0.9749;
435.9000;1.0834;0.9824;
436.2000;1.0786;0.9673;
436.5000;1.0802;0.9799;
436.8000;1.0777;0.9749;
437.1000;1.0769;0.9774;
437.4000;1.0786;0.9698;
437.7000;1.0786;0.9673;
438.0000;1.0745;0.9572;
438.3000;1.0786;0.9623;
438.6000;1.0802;0.9698;
438.9000;1.0786;0.9673;
439.2000;1.0769;0.9723;
439.5000;1.0769;0.9648;
439.8000;1.0802;0.9648;
440.1000;1.0777;0.9623;
440.4000;1.0777;0.9522;
440.7000;1.0769;0.9522;
441.0000;1.0769;0.9497;
441.3000;1.0777;0.9497;
441.6000;1.0777;0.9522;
441.9000;1.0753;0.9446;
442.2000;1.0786;0.9497;
442.5000;1.0777;0.9497;
442.8000;1.0810;0.9547;
443.1000;1.0777;0.9471;
443.4000;1.0777;0.9421;
443.7000;1.0794;0.9471;
444.0000;1.0769;0.9446;
444.3000;1.0753;0.9471;
444.6000;1.0769;0.9547;
444.9000;1.0769;0.9597;
445.2000;1.0769;0.9522;
445.5000;1.0761;0.9471;
445.8000;1.0786;0.9572;
446.1000;1.0786;0.9623;
446.4000;1.0810;0.9673;
446.7000;1.0769;0.9572;
447.0000;1.0769;0.9623;
447.3000;1.0794;0.9673;
447.6000;1.0786;0.9648;
447.9000;1.0794;0.9648;
448.2000;1.0777;0.9597;
448.5000;1.0794;0.9698;
448.8000;1.0777;0.9547;
449.1000;1.0777;0.9572;
449.4000;1.0769;0.9522;
449.7000;1.0769;0.9547;
450.0000;1.0786;0.9572;
450.3000;1.0810;0.9623;
450.6000;1.0786;0.9572;
450.9000;1.0777;0.9547;
451.2000;1.0794;0.9597;
451.5000;1.0786;0.9547;
451.8000;1.0769;0.9522;
452.1000;1.0777;0.9446;
452.4000;1.0769;0.9421;
452.7000;1.0786;0.9471;
453.0000;1.0786;0.9497;
453.3000;1.0786;0.9497;
453.6000;1.0786;0.9547;
453.9000;1.0777;0.9522;
454.2000;1.0769;0.9446;
454.5000;1.0761;0.9446;
454.8000;1.0786;0.9497;
455.1000;1.0761;0.9497;
455.4000;1.0769;0.9497;
455.7000;1.0769;0.9522;
456.0000;1.0761;0.9497;
456.3000;1.0777;0.9547;
456.6000;1.0786;0.9522;
456.9000;1.0769;0.9522;
457.2000;1.0753;0.9522;
457.5000;1.0777;0.9547;
457.8000;1.0753;0.9421;
458.1000;1.0786;0.9471;
458.4000;1.0777;0.9371;
458.7000;1.0786;0.9345;
459.0000;1.0786;0.9371;
459.3000;1.0786;0.9345;
459.6000;1.0769;0.9320;
459.9000;1.0769;0.9345;
460.2000;1.0769;0.9371;
460.5000;1.0818;0.9446;
460.8000;1.0777;0.9446;
461.1000;1.0777;0.9522;
461.4000;1.0777;0.9547;
461.7000;1.0777;0.9446;
462.0000;1.0769;0.9446;
462.3000;1.0769;0.9396;
462.6000;1.0769;0.9421;
462.9000;1.0794;0.9471;
463.2000;1.0753;0.9396;
463.5000;1.0777;0.9421;
463.8000;1.0761;0.9421;
464.1000;1.0769;0.9421;
464.4000;1.0777;0.9446;
464.7000;1.0769;0.9446;
465.0000;1.0745;0.9396;
465.3000;1.0786;0.9547;
465.6000;1.0777;0.9522;
465.9000;1.0769;0.9597;
466.2000;1.0777;0.9673;
466.5000;1.0761;0.9673;
466.8000;1.0745;0.9673;
467.1000;1.0753;0.9623;
467.4000;1.0753;0.9648;
467.7000;1.0786;0.9723;
468.0000;1.0834;0.9900;
468.3000;1.0786;0.9774;
468.6000;1.0777;0.9673;
468.9000;1.0769;0.9723;
469.2000;1.0794;0.9698;
469.5000;1.0794;0.9673;
469.8000;1.0737;0.9497;
470.1000;1.0769;0.9597;
470.4000;1.0777;0.9597;
470.7000;1.0810;0.9723;
471.0000;1.0745;0.9497;
471.3000;1.0777;0.9597;
471.6000;1.0777;0.9597;
471.9000;1.0769;0.9522;
472.2000;1.0753;0.9522;
472.5000;1.0761;0.9471;
472.8000;1.0769;0.9522;
473.1000;1.0786;0.9547;
473.4000;1.0794;0.9396;
473.7000;1.0761;0.9371;
474.0000;1.0769;0.9396;
474.3000;1.0859;0.9648;
474.6000;1.0777;0.9572;
474.9000;1.0794;0.9648;
475.2000;1.0777;0.9673;
475.5000;1.0786;0.9673;
475.8000;1.0802;0.9723;
476.1000;1.0786;0.9749;
476.4000;1.0818;0.9799;
476.7000;1.0729;0.9648;
477.0000;1.0761;0.9849;
477.3000;1.0769;0.9824;
477.6000;1.0761;0.9723;
477.9000;1.0777;0.9698;
478.2000;1.0769;0.9698;
478.5000;1.0769;0.9648;
478.8000;1.0761;0.9673;
479.1000;1.0769;0.9597;
479.4000;1.0777;0.9623;
479.7000;1.0769;0.9648;
480.0000;1.0794;0.9749;
480.3000;1.0769;0.9648;
480.6000;1.0777;0.9723;
480.9000;1.0761;0.9673;
481.2000;1.0761;0.9749;
481.5000;1.0761;0.9749;
481.8000;1.0761;0.9749;
482.1000;1.0786;0.9799;
482.4000;1.0753;0.9749;
482.7000;1.0761;0.9749;
483.0000;1.0777;0.9774;
483.3000;1.0769;0.9723;
483.6000;1.0786;0.9673;
483.9000;1.0729;0.9673;
484.2000;1.0786;0.9723;
484.5000;1.0802;0.9799;
484.8000;1.0777;0.9723;
485.1000;1.0777;0.9723;
485.4000;1.0769;0.9673;
485.7000;1.0769;0.9723;
486.0000;1.0761;0.9673;
486.3000;1.0777;0.9522;
486.6000;1.0761;0.9497;
486.9000;1.0777;0.9547;
487.2000;1.0745;0.9572;
487.5000;1.0769;0.9673;
487.8000;1.0786;0.9749;
488.1000;1.0777;0.9698;
488.4000;1.0786;0.9749;
488.7000;1.0769;0.9774;
489.0000;1.0720;0.9547;
489.3000;1.0786;0.9723;
489.6000;1.0761;0.9749;
489.9000;1.0777;0.9749;
490.2000;1.0753;0.9623;
490.5000;1.0769;0.9749;
490.8000;1.0777;0.9698;
491.1000;1.0761;0.9572;
491.4000;1.0720;0.9446;
491.7000;1.0761;0.9597;
492.0000;1.0769;0.9597;
492.3000;1.0769;0.9471;
492.6000;1.0786;0.9497;
492.9000;1.0769;0.9522;
493.2000;1.0777;0.9597;
493.5000;1.0737;0.9547;
493.8000;1.0769;0.9597;
494.1000;1.0761;0.9497;
494.4000;1.0720;0.9396;
494.7000;1.0777;0.9497;
495.0000;1.0777;0.9572;
495.3000;1.0753;0.9471;
495.6000;1.0753;0.9471;
495.9000;1.0761;0.9446;
496.2000;1.0769;0.9446;
496.5000;1.0769;0.9396;
496.8000;1.0720;0.9220;
497.1000;1.0761;0.9295;
497.4000;1.0777;0.9421;
497.7000;1.0786;0.9421;
498.0000;1.0786;0.9446;
498.3000;1.0777;0.9522;
498.6000;1.0786;0.9648;
498.9000;1.0769;0.9547;
499.2000;1.0777;0.9597;
499.5000;1.0769;0.9572;
499.8000;1.0777;0.9698;
500.1000;1.0777;0.9723;
500.4000;1.0745;0.9597;
500.7000;1.0777;0.9547;
501.0000;1.0769;0.9547;
501.3000;1.0769;0.9522;
501.6000;1.0753;0.9572;
501.9000;1.0769;0.9547;
502.2000;1.0761;0.9623;
502.5000;1.0761;0.9698;
502.8000;1.0777;0.9749;
503.1000;1.0761;0.9648;
503.4000;1.0769;0.9623;
503.7000;1.0777;0.9673;
504.0000;1.0794;0.9749;
504.3000;1.0769;0.9723;
504.6000;1.0753;0.9723;
504.9000;1.0777;0.9749;
505.2000;1.0769;0.9673;
505.5000;1.0753;0.9547;
505.8000;1.0753;0.9547;
506.1000;1.0802;0.9749;
506.4000;1.0753;0.9572;
506.7000;1.0769;0.9673;
507.0000;1.0761;0.9623;
507.3000;1.0769;0.9572;
507.6000;1.0769;0.9497;
507.9000;1.0769;0.9597;
508.2000;1.0761;0.9673;
508.5000;1.0769;0.9673;
508.8000;1.0761;0.9623;
509.1000;1.0777;0.9648;
509.4000;1.0761;0.9698;
509.7000;1.0794;0.9749;
510.0000;1.0786;0.9723;
510.3000;1.0769;0.9623;
510.6000;1.0769;0.9698;
510.9000;1.0753;0.9623;
511.2000;1.0786;0.9623;
511.5000;1.0786;0.9597;
511.8000;1.0761;0.9547;
512.1000;1.0769;0.9572;
512.4000;1.0769;0.9547;
512.7000;1.0786;0.9572;
513.0000;1.0777;0.9547;
513.3000;1.0761;0.9597;
513.6000;1.0745;0.9597;
513.9000;1.0786;0.9723;
514.2000;1.0761;0.9623;
514.5000;1.0753;0.9648;
514.8000;1.0777;0.9723;
515.1000;1.0769;0.9723;
515.4000;1.0769;0.9698;
515.7000;1.0769;0.9597;
516.0000;1.0834;0.9774;
516.3000;1.0769;0.9522;
516.6000;1.0761;0.9497;
516.9000;1.0777;0.9547;
517.2000;1.0769;0.9547;
517.5000;1.0761;0.9572;
517.8000;1.0786;0.9572;
518.1000;1.0769;0.9497;
518.4000;1.0769;0.9497;
518.7000;1.0761;0.9547;
519.0000;1.0777;0.9547;
519.3000;1.0794;0.9623;
519.6000;1.0753;0.9623;
519.9000;1.0753;0.9623;
520.2000;1.0761;0.9597;
520.5000;1.0769;0.9572;
520.8000;1.0769;0.9597;
521.1000;1.0761;0.9497;
521.4000;1.0769;0.9497;
521.7000;1.0777;0.9497;
522.0000;1.0769;0.9522;
522.3000;1.0769;0.9522;
522.6000;1.0769;0.9471;
522.9000;1.0777;0.9547;
523.2000;1.0769;0.9522;
523.5000;1.0753;0.9522;
523.8000;1.0761;0.9623;
524.1000;1.0777;0.9673;
524.4000;1.0769;0.9648;
524.7000;1.0761;0.9698;
525.0000;1.0761;0.9698;
525.3000;1.0769;0.9673;
525.6000;1.0786;0.9698;
525.9000;1.0769;0.9673;
526.2000;1.0753;0.9723;
526.5000;1.0769;0.9723;
526.8000;1.0761;0.9673;
527.1000;1.0761;0.9648;
527.4000;1.0761;0.9648;
527.7000;1.0753;0.9723;
528.0000;1.0769;0.9749;
528.3000;1.0753;0.9723;
528.6000;1.0761;0.9698;
528.9000;1.0745;0.9673;
529.2000;1.0761;0.9673;
529.5000;1.0794;0.9698;
529.8000;1.0769;0.9698;
530.1000;1.0753;0.9698;
530.4000;1.0753;0.9723;
530.7000;1.0761;0.9698;
531.0000;1.0745;0.9698;
531.3000;1.0745;0.9698;
531.6000;1.0753;0.9623;
531.9000;1.0753;0.9648;
532.2000;1.0753;0.9648;
532.5000;1.0737;0.9698;
532.8000;1.0761;0.9648;
533.1000;1.0769;0.9698;
533.4000;1.0794;0.9723;
533.7000;1.0753;0.9673;
534.0000;1.0761;0.9623;
534.3000;1.0769;0.9749;
534.6000;1.0769;0.9698;
534.9000;1.0769;0.9673;
535.2000;1.0761;0.9799;
535.5000;1.0769;0.9723;
535.8000;1.0769;0.9749;
536.1000;1.0777;0.9849;
536.4000;1.0745;0.9749;
536.7000;1.0761;0.9673;
537.0000;1.0729;0.9623;
537.3000;1.0753;0.9698;
537.6000;1.0753;0.9623;
537.9000;1.0753;0.9572;
538.2000;1.0769;0.9648;
538.5000;1.0761;0.9623;
538.8000;1.0745;0.9547;
539.1000;1.0786;0.9623;
539.4000;1.0737;0.9497;
539.7000;1.0737;0.9471;
540.0000;1.0777;0.9547;
540.3000;1.0737;0.9497;
540.6000;1.0761;0.9623;
540.9000;1.0777;0.9673;
541.2000;1.0769;0.9648;
541.5000;1.0729;0.9572;
541.8000;1.0769;0.9648;
542.1000;1.0761;0.9648;
542.4000;1.0761;0.9673;
542.7000;1.0745;0.9623;
543.0000;1.0761;0.9623;
543.3000;1.0753;0.9723;
543.6000;1.0769;0.9673;
543.9000;1.0745;0.9673;
544.2000;1.0753;0.9623;
544.5000;1.0753;0.9547;
544.8000;1.0753;0.9597;
545.1000;1.0769;0.9648;
545.4000;1.0753;0.9597;
545.7000;1.0769;0.9547;
546.0000;1.0802;0.9572;
546.3000;1.0761;0.9497;
546.6000;1.0720;0.9471;
546.9000;1.0769;0.9547;
547.2000;1.0745;0.9497;
547.5000;1.0753;0.9446;
547.8000;1.0761;0.9471;
548.1000;1.0737;0.9421;
548.4000;1.0745;0.9471;
548.7000;1.0761;0.9471;
549.0000;1.0753;0.9371;
549.3000;1.0769;0.9371;
549.6000;1.0753;0.9345;
549.9000;1.0761;0.9421;
550.2000;1.0769;0.9497;
550.5000;1.0761;0.9547;
550.8000;1.0786;0.9597;
551.1000;1.0769;0.9522;
551.4000;1.0769;0.9471;
551.7000;1.0761;0.9497;
552.0000;1.0769;0.9572;
552.3000;1.0769;0.9497;
552.6000;1.0745;0.9547;
552.9000;1.0712;0.9371;
553.2000;1.0753;0.9471;
553.5000;1.0761;0.9522;
553.8000;1.0737;0.9471;
554.1000;1.0769;0.9547;
554.4000;1.0753;0.9522;
554.7000;1.0745;0.9497;
555.0000;1.0704;0.9371;
555.3000;1.0769;0.9572;
555.6000;1.0786;0.9648;
555.9000;1.0761;0.9547;
556.2000;1.0745;0.9522;
556.5000;1.0769;0.9648;
556.8000;1.0769;0.9623;
557.1000;1.0753;0.9597;
557.4000;1.0753;0.9572;
557.7000;1.0753;0.9597;
558.0000;1.0729;0.9572;
558.3000;1.0753;0.9547;
558.6000;1.0745;0.9547;
558.9000;1.0745;0.9572;
559.2000;1.0720;0.9547;
559.5000;1.0745;0.9597;
559.8000;1.0745;0.9547;
560.1000;1.0745;0.9623;
560.4000;1.0712;0.9572;
560.7000;1.0761;0.9623;
561.0000;1.0769;0.9723;
561.3000;1.0769;0.9648;
561.6000;1.0745;0.9572;
561.9000;1.0761;0.9597;
562.2000;1.0745;0.9572;
562.5000;1.0761;0.9623;
562.8000;1.0745;0.9572;
563.1000;1.0737;0.9673;
563.4000;1.0794;0.9749;
563.7000;1.0745;0.9673;
564.0000;1.0753;0.9648;
564.3000;1.0761;0.9623;
564.6000;1.0753;0.9522;
564.9000;1.0712;0.9446;
565.2000;1.0753;0.9497;
565.5000;1.0761;0.9446;
565.8000;1.0769;0.9471;
566.1000;1.0729;0.9371;
566.4000;1.0777;0.9421;
566.7000;1.0753;0.9371;
567.0000;1.0777;0.9471;
567.3000;1.0769;0.9497;
567.6000;1.0745;0.9547;
567.9000;1.0794;0.9597;
568.2000;1.0688;0.9345;
568.5000;1.0769;0.9547;
568.8000;1.0761;0.9547;
569.1000;1.0753;0.9522;
569.4000;1.0745;0.9522;
569.7000;1.0761;0.9522;
570.0000;1.0761;0.9673;
570.3000;1.0769;0.9698;
570.6000;1.0745;0.9597;
570.9000;1.0753;0.9648;
571.2000;1.0745;0.9648;
571.5000;1.0851;0.9849;
571.8000;1.0704;0.9572;
572.1000;1.0745;0.9623;
572.4000;1.0769;0.9673;
572.7000;1.0753;0.9547;
573.0000;1.0745;0.9547;
573.3000;1.0753;0.9522;
573.6000;1.0737;0.9471;
573.9000;1.0761;0.9522;
574.2000;1.0753;0.9547;
574.5000;1.0777;0.9497;
574.8000;1.0745;0.9345;
575.1000;1.0753;0.9270;
575.4000;1.0745;0.9220;
575.7000;1.0745;0.9245;
576.0000;1.0745;0.9220;
576.3000;1.0769;0.9295;
576.6000;1.0761;0.9270;
576.9000;1.0786;0.9245;
577.2000;1.0753;0.9270;
577.5000;1.0753;0.9295;
577.8000;1.0745;0.9245;
578.1000;1.0720;0.9220;
578.4000;1.0729;0.9295;
578.7000;1.0745;0.9320;
579.0000;1.0745;0.9371;
579.3000;1.0777;0.9371;
579.6000;1.0745;0.9295;
579.9000;1.0745;0.9396;
580.2000;1.0818;0.9597;
580.5000;1.0777;0.9446;
580.8000;1.0761;0.9446;
581.1000;1.0794;0.9497;
581.4000;1.0753;0.9396;
581.7000;1.0769;0.9446;
582.0000;1.0712;0.9295;
582.3000;1.0761;0.9421;
582.6000;1.0761;0.9547;
582.9000;1.0761;0.9572;
583.2000;1.0737;0.9446;
583.5000;1.0745;0.9396;
583.8000;1.0737;0.9396;
584.1000;1.0720;0.9371;
584.4000;1.0745;0.9446;
584.7000;1.0753;0.9421;
585.0000;1.0769;0.9497;
585.3000;1.0753;0.9547;
585.6000;1.0761;0.9572;
585.9000;1.0761;0.9497;
586.2000;1.0729;0.9295;
586.5000;1.0761;0.9396;
586.8000;1.0761;0.9396;
587.1000;1.0769;0.9446;
587.4000;1.0761;0.9446;
587.7000;1.0761;0.9471;
588.0000;1.0761;0.9522;
588.3000;1.0761;0.9497;
588.6000;1.0753;0.9497;
588.9000;1.0769;0.9547;
589.2000;1.0753;0.9421;
589.5000;1.0761;0.9421;
589.8000;1.0753;0.9345;
590.1000;1.0753;0.9295;
590.4000;1.0753;0.9295;
590.7000;1.0745;0.9320;
591.0000;1.0761;0.9371;
591.3000;1.0745;0.9396;
591.6000;1.0753;0.9471;
591.9000;1.0786;0.9572;
592.2000;1.0745;0.9522;
592.5000;1.0704;0.9471;
592.8000;1.0745;0.9547;
593.1000;1.0753;0.9673;
593.4000;1.0729;0.9547;
593.7000;1.0753;0.9471;
594.0000;1.0745;0.9471;
594.3000;1.0745;0.9522;
594.6000;1.0753;0.9522;
594.9000;1.0745;0.9547;
595.2000;1.0761;0.9597;
595.5000;1.0802;0.9623;
595.8000;1.0737;0.9446;
596.1000;1.0753;0.9446;
596.4000;1.0745;0.9522;
596.7000;1.0761;0.9572;
597.0000;1.0753;0.9497;
597.3000;1.0745;0.9471;
597.6000;1.0777;0.9572;
597.9000;1.0737;0.9497;
598.2000;1.0745;0.9421;
598.5000;1.0745;0.9446;
598.8000;1.0729;0.9396;
599.1000;1.0712;0.9421;
599.4000;1.0761;0.9547;
599.7000;1.0737;0.9471;
600.0000;1.0712;0.9396;
600.3000;1.0761;0.9320;
600.6000;1.0720;0.9194;
600.9000;1.0696;0.9043;
601.2000;1.0631;0.8867;
601.5000;1.0582;0.8816;
601.8000;1.0460;0.8565;
602.1000;1.0379;0.8464;
602.4000;1.0273;0.8237;
602.7000;1.0183;0.8086;
603.0000;1.0110;0.8010;
603.3000;1.0028;0.7834;
603.6000;0.9955;0.7759;
603.9000;0.9890;0.7633;
604.2000;0.9825;0.7557;
604.5000;0.9760;0.7481;
604.8000;0.9695;0.7280;
605.1000;0.9638;0.7154;
605.4000;0.9573;0.7078;
605.7000;0.9540;0.7003;
606.0000;0.9451;0.6952;
606.3000;0.9442;0.7028;
606.6000;0.9394;0.7053;
606.9000;0.9353;0.7028;
607.2000;0.9296;0.7028;
607.5000;0.9223;0.6927;
607.8000;0.9214;0.6952;
608.1000;0.9166;0.6852;
608.4000;0.9125;0.6701;
608.7000;0.9101;0.6600;
609.0000;0.9052;0.6499;
609.3000;0.9027;0.6600;
609.6000;0.8987;0.6600;
609.9000;0.8954;0.6625;
610.2000;0.8913;0.6499;
610.5000;0.8881;0.6524;
610.8000;0.8864;0.6499;
611.1000;0.8816;0.6474;
611.4000;0.8775;0.6474;
611.7000;0.8759;0.6449;
612.0000;0.8726;0.6323;
612.3000;0.8718;0.6449;
612.6000;0.8702;0.6373;
612.9000;0.8669;0.6247;
613.2000;0.8653;0.6197;
613.5000;0.8612;0.6096;
613.8000;0.8580;0.6121;
614.1000;0.8539;0.6096;
614.4000;0.8490;0.6146;
614.7000;0.8457;0.6020;
615.0000;0.8466;0.6096;
615.3000;0.8466;0.6046;
615.6000;0.8433;0.6096;
615.9000;0.8417;0.6172;
616.2000;0.8400;0.6222;
616.5000;0.8344;0.6172;
616.8000;0.8287;0.5970;
617.1000;0.8352;0.6222;
617.4000;0.8327;0.6172;
617.7000;0.8295;0.6146;
618.0000;0.8270;0.6121;
618.3000;0.8254;0.6071;
618.6000;0.8287;0.6146;
618.9000;0.8173;0.5894;
619.2000;0.8197;0.6071;
619.5000;0.8189;0.6096;
619.8000;0.8156;0.6121;
620.1000;0.8148;0.6146;
620.4000;0.8132;0.6146;
620.7000;0.8116;0.6146;
621.0000;0.8107;0.6096;
621.3000;0.8091;0.6121;
621.6000;0.8083;0.6121;
621.9000;0.8034;0.5970;
622.2000;0.8059;0.6020;
622.5000;0.8026;0.5920;
622.8000;0.8010;0.5920;
623.1000;0.7993;0.5844;
623.4000;0.7985;0.5769;
623.7000;0.7969;0.5794;
624.0000;0.7953;0.5794;
624.3000;0.7937;0.5819;
624.6000;0.7888;0.5794;
624.9000;0.7904;0.5894;
625.2000;0.7904;0.5894;
625.5000;0.7880;0.5844;
625.8000;0.7896;0.5819;
626.1000;0.7896;0.5869;
626.4000;0.7814;0.5668;
626.7000;0.7855;0.5769;
627.0000;0.7831;0.5718;
627.3000;0.7831;0.5819;
627.6000;0.7839;0.5844;
627.9000;0.7806;0.5819;
628.2000;0.7806;0.5743;
628.5000;0.7782;0.5718;
628.8000;0.7782;0.5693;
629.1000;0.7774;0.5693;
629.4000;0.7749;0.5718;
629.7000;0.7725;0.5693;
630.0000;0.7790;0.5769;
630.3000;0.7717;0.5567;
630.6000;0.7700;0.5592;
630.9000;0.7700;0.5592;
631.2000;0.7692;0.5617;
631.5000;0.7660;0.5643;
631.8000;0.7660;0.5668;
632.1000;0.7668;0.5743;
632.4000;0.7652;0.5769;
632.7000;0.7684;0.5769;
633.0000;0.7627;0.5643;
633.3000;0.7619;0.5718;
633.6000;0.7603;0.5718;
633.9000;0.7603;0.5693;
634.2000;0.7619;0.5844;
634.5000;0.7652;0.6020;
634.8000;0.7595;0.5794;
635.1000;0.7595;0.5945;
635.4000;0.7546;0.5920;
635.7000;0.7538;0.5920;
636.0000;0.7546;0.5920;
636.3000;0.7562;0.5894;
636.6000;0.7521;0.5894;
636.9000;0.7521;0.5945;
637.2000;0.7505;0.5945;
637.5000;0.7513;0.5894;
637.8000;0.7505;0.5844;
638.1000;0.7489;0.5794;
638.4000;0.7473;0.5743;
638.7000;0.7481;0.5743;
639.0000;0.7473;0.5743;
639.3000;0.7456;0.5693;
639.6000;0.7456;0.5693;
639.9000;0.7473;0.5718;
640.2000;0.7448;0.5693;
640.5000;0.7424;0.5668;
640.8000;0.7424;0.5769;
641.1000;0.7399;0.5819;
641.4000;0.7399;0.5819;
641.7000;0.7407;0.5819;
642.0000;0.7399;0.5743;
642.3000;0.7391;0.5718;
642.6000;0.7375;0.5668;
642.9000;0.7367;0.5718;
643.2000;0.7375;0.5743;
643.5000;0.7293;0.5517;
643.8000;0.7342;0.5693;
644.1000;0.7342;0.5718;
644.4000;0.7334;0.5718;
644.7000;0.7277;0.5517;
645.0000;0.7318;0.5718;
645.3000;0.7326;0.5844;
645.6000;0.7310;0.5844;
645.9000;0.7293;0.5819;
646.2000;0.7293;0.5894;
646.5000;0.7293;0.5894;
646.8000;0.7293;0.5920;
647.1000;0.7269;0.5819;
647.4000;0.7261;0.5844;
647.7000;0.7277;0.5945;
648.0000;0.7204;0.5718;
648.3000;0.7253;0.5894;
648.6000;0.7220;0.5844;
648.9000;0.7253;0.5844;
649.2000;0.7236;0.5819;
649.5000;0.7236;0.5769;
649.8000;0.7212;0.5794;
650.1000;0.7179;0.5617;
650.4000;0.7220;0.5718;
650.7000;0.7188;0.5693;
651.0000;0.7188;0.5617;
651.3000;0.7212;0.5668;
651.6000;0.7171;0.5567;
651.9000;0.7188;0.5542;
652.2000;0.7147;0.5491;
652.5000;0.7179;0.5542;
652.8000;0.7188;0.5491;
653.1000;0.7196;0.5491;
653.4000;0.7171;0.5517;
653.7000;0.7147;0.5517;
654.0000;0.7147;0.5542;
654.3000;0.7147;0.5643;
654.6000;0.7147;0.5592;
654.9000;0.7147;0.5643;
655.2000;0.7155;0.5643;
655.5000;0.7147;0.5693;
655.8000;0.7139;0.5693;
656.1000;0.7139;0.5794;
656.4000;0.7123;0.5794;
656.7000;0.7114;0.5769;
657.0000;0.7106;0.5718;
657.3000;0.7131;0.5794;
657.6000;0.7131;0.5819;
657.9000;0.7106;0.5819;
658.2000;0.7139;0.5945;
658.5000;0.7082;0.5819;
658.8000;0.7090;0.5844;
659.1000;0.7082;0.5769;
659.4000;0.7147;0.5970;
659.7000;0.7082;0.5844;
660.0000;0.7074;0.5743;
660.3000;0.7057;0.5819;
660.6000;0.7066;0.5819;
660.9000;0.7025;0.5718;
661.2000;0.7090;0.5894;
661.5000;0.7049;0.5718;
661.8000;0.7041;0.5718;
662.1000;0.7049;0.5769;
662.4000;0.7033;0.5718;
662.7000;0.7049;0.5769;
663.0000;0.7041;0.5819;
663.3000;0.7033;0.5743;
663.6000;0.7009;0.5693;
663.9000;0.7009;0.5718;
664.2000;0.6992;0.5643;
664.5000;0.7025;0.5743;
664.8000;0.7000;0.5693;
665.1000;0.7000;0.5769;
665.4000;0.6976;0.5769;
665.7000;0.6992;0.5844;
666.0000;0.6992;0.5844;
666.3000;0.6976;0.5743;
666.6000;0.6952;0.5693;
666.9000;0.6992;0.5718;
667.2000;0.6943;0.5542;
667.5000;0.6968;0.5643;
667.8000;0.6960;0.5643;
668.1000;0.6976;0.5643;
668.4000;0.6976;0.5668;
668.7000;0.6895;0.5466;
669.0000;0.6935;0.5643;
669.3000;0.6935;0.5592;
669.6000;0.6960;0.5617;
669.9000;0.6960;0.5668;
670.2000;0.6911;0.5643;
670.5000;0.6935;0.5693;
670.8000;0.6911;0.5718;
671.1000;0.6919;0.5819;
671.4000;0.6919;0.5869;
671.7000;0.6903;0.5894;
672.0000;0.6911;0.5894;
672.3000;0.6911;0.5844;
672.6000;0.6903;0.5794;
672.9000;0.6911;0.5794;
673.2000;0.6943;0.5794;
673.5000;0.6886;0.5668;
673.8000;0.6911;0.5718;
674.1000;0.6960;0.5819;
674.4000;0.6903;0.5668;
674.7000;0.6895;0.5668;
675.0000;0.6911;0.5643;
675.3000;0.6976;0.5743;
675.6000;0.6886;0.5542;
675.9000;0.6886;0.5592;
676.2000;0.6919;0.5668;
676.5000;0.6862;0.5617;
676.8000;0.6854;0.5643;
677.1000;0.6846;0.5668;
677.4000;0.6854;0.5643;
677.7000;0.6854;0.5643;
678.0000;0.6838;0.5517;
678.3000;0.6870;0.5542;
678.6000;0.6854;0.5542;
678.9000;0.6854;0.5542;
679.2000;0.6846;0.5517;
679.5000;0.6846;0.5517;
679.8000;0.6829;0.5441;
680.1000;0.6854;0.5491;
680.4000;0.6829;0.5517;
680.7000;0.6821;0.5517;
681.0000;0.6854;0.5592;
681.3000;0.6838;0.5517;
681.6000;0.6813;0.5441;
681.9000;0.6797;0.5466;
682.2000;0.6789;0.5491;
682.5000;0.6886;0.5769;
682.8000;0.6764;0.5441;
683.1000;0.6781;0.5416;
683.4000;0.6797;0.5567;
683.7000;0.6797;0.5617;
684.0000;0.6781;0.5693;
684.3000;0.6772;0.5693;
684.6000;0.6789;0.5743;
684.9000;0.6781;0.5794;
685.2000;0.6781;0.5743;
685.5000;0.6789;0.5894;
685.8000;0.6781;0.5869;
686.1000;0.6789;0.5894;
686.4000;0.6764;0.5894;
686.7000;0.6764;0.5945;
687.0000;0.6764;0.5894;
687.3000;0.6772;0.5819;
687.6000;0.6756;0.5794;
687.9000;0.6748;0.5794;
688.2000;0.6781;0.5819;
688.5000;0.6756;0.5819;
688.8000;0.6764;0.5769;
689.1000;0.6764;0.5668;
689.4000;0.6740;0.5592;
689.7000;0.6748;0.5617;
690.0000;0.6748;0.5617;
690.3000;0.6740;0.5542;
690.6000;0.6748;0.5517;
690.9000;0.6740;0.5567;
691.2000;0.6724;0.5517;
691.5000;0.6724;0.5592;
691.8000;0.6716;0.5718;
692.1000;0.6724;0.5794;
692.4000;0.6724;0.5769;
692.7000;0.6732;0.5743;
693.0000;0.6724;0.5794;
693.3000;0.6699;0.5743;
693.6000;0.6716;0.5668;
693.9000;0.6716;0.5693;
694.2000;0.6699;0.5643;
694.5000;0.6707;0.5668;
694.8000;0.6724;0.5592;
695.1000;0.6699;0.5567;
695.4000;0.6667;0.5491;
695.7000;0.6691;0.5592;
696.0000;0.6691;0.5643;
696.3000;0.6707;0.5668;
696.6000;0.6691;0.5693;
696.9000;0.6691;0.5693;
697.2000;0.6650;0.5567;
697.5000;0.6707;0.5718;
697.8000;0.6675;0.5743;
698.1000;0.6659;0.5769;
698.4000;0.6626;0.5668;
698.7000;0.6667;0.5794;
699.0000;0.6699;0.5869;
699.3000;0.6724;0.5844;
699.6000;0.6650;0.5718;
699.9000;0.6667;0.5718;
700.2000;0.6618;0.5542;
700.5000;0.6650;0.5617;
700.8000;0.6650;0.5668;
701.1000;0.6642;0.5617;
701.4000;0.6650;0.5693;
701.7000;0.6659;0.5718;
702.0000;0.6650;0.5769;
702.3000;0.6650;0.5869;
702.6000;0.6650;0.5920;
702.9000;0.6659;0.5945;
703.2000;0.6650;0.5945;
703.5000;0.6650;0.5945;
703.8000;0.6626;0.5945;
704.1000;0.6650;0.5920;
704.4000;0.6634;0.5869;
704.7000;0.6626;0.5920;
705.0000;0.6626;0.5794;
705.3000;0.6626;0.5844;
705.6000;0.6618;0.5718;
705.9000;0.6626;0.5718;
706.2000;0.6618;0.5693;
706.5000;0.6626;0.5743;
706.8000;0.6618;0.5794;
707.1000;0.6610;0.5718;
707.4000;0.6602;0.5794;
707.7000;0.6618;0.5693;
708.0000;0.6634;0.5693;
708.3000;0.6610;0.5643;
708.6000;0.6610;0.5643;
708.9000;0.6602;0.5718;
709.2000;0.6618;0.5769;
709.5000;0.6602;0.5819;
709.8000;0.6577;0.5743;
710.1000;0.6602;0.5794;
710.4000;0.6585;0.5794;
710.7000;0.6602;0.5844;
711.0000;0.6577;0.5945;
711.3000;0.6585;0.5945;
711.6000;0.6618;0.5920;
711.9000;0.6593;0.5769;
712.2000;0.6577;0.5643;
712.5000;0.6577;0.5693;
712.8000;0.6593;0.5844;
713.1000;0.6593;0.5894;
713.4000;0.6577;0.5794;
713.7000;0.6585;0.5894;
714.0000;0.6577;0.5945;
714.3000;0.6569;0.5920;
714.6000;0.6569;0.5945;
714.9000;0.6561;0.5945;
715.2000;0.6577;0.5970;
715.5000;0.6577;0.5920;
715.8000;0.6553;0.5869;
716.1000;0.6536;0.5743;
716.4000;0.6520;0.5693;
716.7000;0.6569;0.5743;
717.0000;0.6585;0.5794;
717.3000;0.6545;0.5617;
717.6000;0.6561;0.5668;
717.9000;0.6569;0.5718;
718.2000;0.6561;0.5794;
718.5000;0.6545;0.5819;
718.8000;0.6553;0.5844;
719.1000;0.6561;0.5819;
719.4000;0.6569;0.5794;
719.7000;0.6545;0.5668;
720.0000;0.6528;0.5668;
720.3000;0.6545;0.5718;
720.6000;0.6536;0.5668;
720.9000;0.6536;0.5542;
721.2000;0.6602;0.5718;
721.5000;0.6536;0.5567;
721.8000;0.6528;0.5592;
722.1000;0.6512;0.5592;
722.4000;0.6520;0.5643;
722.7000;0.6520;0.5718;
723.0000;0.6528;0.5693;
723.3000;0.6520;0.5668;
723.6000;0.6553;0.5693;
723.9000;0.6520;0.5592;
724.2000;0.6504;0.5643;
724.5000;0.6504;0.5617;
724.8000;0.6504;0.5617;
725.1000;0.6504;0.5567;
725.4000;0.6512;0.5542;
725.7000;0.6504;0.5517;
726.0000;0.6504;0.5567;
726.3000;0.6496;0.5643;
726.6000;0.6512;0.5592;
726.9000;0.6496;0.5567;
727.2000;0.6496;0.5466;
727.5000;0.6504;0.5517;
727.8000;0.6488;0.5441;
728.1000;0.6496;0.5466;
728.4000;0.6504;0.5567;
728.7000;0.6512;0.5592;
729.0000;0.6488;0.5466;
729.3000;0.6504;0.5517;
729.6000;0.6504;0.5542;
729.9000;0.6471;0.5441;
730.2000;0.6488;0.5416;
730.5000;0.6496;0.5491;
730.8000;0.6496;0.5441;
731.1000;0.6471;0.5466;
731.4000;0.6471;0.5466;
731.7000;0.6471;0.5391;
732.0000;0.6479;0.5466;
732.3000;0.6471;0.5517;
732.6000;0.6496;0.5592;
732.9000;0.6496;0.5643;
733.2000;0.6496;0.5668;
733.5000;0.6463;0.5491;
733.8000;0.6512;0.5643;
734.1000;0.6479;0.5542;
734.4000;0.6479;0.5542;
734.7000;0.6406;0.5365;
735.0000;0.6479;0.5542;
735.3000;0.6463;0.5542;
735.6000;0.6471;0.5517;
735.9000;0.6488;0.5617;
736.2000;0.6447;0.5567;
736.5000;0.6455;0.5617;
736.8000;0.6463;0.5668;
737.1000;0.6471;0.5693;
737.4000;0.6471;0.5693;
737.7000;0.6463;0.5668;
738.0000;0.6471;0.5617;
738.3000;0.6463;0.5567;
738.6000;0.6455;0.5542;
738.9000;0.6463;0.5592;
739.2000;0.6455;0.5643;
739.5000;0.6455;0.5693;
739.8000;0.6455;0.5693;
740.1000;0.6439;0.5643;
740.4000;0.6447;0.5718;
740.7000;0.6479;0.5769;
741.0000;0.6447;0.5718;
741.3000;0.6447;0.5668;
741.6000;0.6439;0.5643;
741.9000;0.6439;0.5718;
742.2000;0.6455;0.5819;
742.5000;0.6455;0.5794;
742.8000;0.6431;0.5693;
743.1000;0.6463;0.5869;
743.4000;0.6447;0.5819;
743.7000;0.6439;0.5743;
744.0000;0.6431;0.5668;
744.3000;0.6439;0.5743;
744.6000;0.6422;0.5668;
744.9000;0.6439;0.5668;
745.2000;0.6422;0.5718;
745.5000;0.6414;0.5718;
745.8000;0.6431;0.5769;
746.1000;0.6406;0.5668;
746.4000;0.6422;0.5668;
746.7000;0.6382;0.5542;
747.0000;0.6398;0.5592;
747.3000;0.6406;0.5567;
747.6000;0.6414;0.5617;
747.9000;0.6414;0.5567;
748.2000;0.6406;0.5668;
748.5000;0.6422;0.5693;
748.8000;0.6414;0.5617;
749.1000;0.6406;0.5542;
749.4000;0.6390;0.5617;
749.7000;0.6406;0.5743;
750.0000;0.6414;0.5743;
750.3000;0.6431;0.5844;
750.6000;0.6406;0.5769;
750.9000;0.6398;0.5769;
751.2000;0.6406;0.5819;
751.5000;0.6463;0.5945;
751.8000;0.6398;0.5718;
752.1000;0.6398;0.5643;
752.4000;0.6406;0.5617;
752.7000;0.6422;0.5668;
753.0000;0.6333;0.5491;
753.3000;0.6365;0.5592;
753.6000;0.6431;0.5718;
753.9000;0.6422;0.5743;
754.2000;0.6406;0.5743;
754.5000;0.6406;0.5718;
754.8000;0.6422;0.5794;
755.1000;0.6382;0.5769;
755.4000;0.6382;0.5743;
755.7000;0.6390;0.5743;
756.0000;0.6374;0.5769;
756.3000;0.6309;0.5592;
756.6000;0.6406;0.5769;
756.9000;0.6365;0.5769;
757.2000;0.6382;0.5869;
757.5000;0.6390;0.5970;
757.8000;0.6374;0.5970;
758.1000;0.6365;0.5869;
758.4000;0.6390;0.5869;
758.7000;0.6365;0.5869;
759.0000;0.6349;0.5819;
759.3000;0.6357;0.5819;
759.6000;0.6300;0.5668;
759.9000;0.6390;0.5894;
760.2000;0.6374;0.5894;
760.5000;0.6365;0.5844;
760.8000;0.6365;0.5743;
761.1000;0.6357;0.5668;
761.4000;0.6374;0.5743;
761.7000;0.6365;0.5769;
762.0000;0.6365;0.5743;
762.3000;0.6365;0.5743;
762.6000;0.6374;0.5718;
762.9000;0.6365;0.5794;
763.2000;0.6374;0.5794;
763.5000;0.6349;0.5718;
763.8000;0.6365;0.5718;
764.1000;0.6382;0.5844;
764.4000;0.6365;0.5819;
764.7000;0.6365;0.5743;
765.0000;0.6390;0.5894;
765.3000;0.6365;0.5794;
765.6000;0.6357;0.5794;
765.9000;0.6349;0.5819;
766.2000;0.6365;0.5743;
766.5000;0.6382;0.5794;
766.8000;0.6357;0.5743;
767.1000;0.6357;0.5743;
767.4000;0.6341;0.5668;
767.7000;0.6357;0.5592;
768.0000;0.6341;0.5491;
768.3000;0.6349;0.5491;
768.6000;0.6357;0.5491;
768.9000;0.6349;0.5491;
769.2000;0.6463;0.5844;
769.5000;0.6349;0.5517;
769.8000;0.6325;0.5592;
770.1000;0.6317;0.5592;
770.4000;0.6357;0.5693;
770.7000;0.6349;0.5617;
771.0000;0.6333;0.5567;
771.3000;0.6349;0.5592;
771.6000;0.6349;0.5617;
771.9000;0.6317;0.5643;
772.2000;0.6374;0.5794;
772.5000;0.6349;0.5693;
772.8000;0.6349;0.5668;
773.1000;0.6317;0.5567;
773.4000;0.6349;0.5718;
773.7000;0.6325;0.5693;
774.0000;0.6349;0.5743;
774.3000;0.6341;0.5844;
774.6000;0.6341;0.5894;
774.9000;0.6333;0.5920;
775.2000;0.6325;0.5945;
775.5000;0.6341;0.5995;
775.8000;0.6333;0.5995;
776.1000;0.6333;0.5995;
776.4000;0.6333;0.5945;
776.7000;0.6341;0.5920;
777.0000;0.6300;0.5819;
777.3000;0.6317;0.5920;
777.6000;0.6333;0.5844;
777.9000;0.6325;0.5769;
778.2000;0.6365;0.5869;
778.5000;0.6300;0.5693;
778.8000;0.6325;0.5693;
779.1000;0.6333;0.5668;
779.4000;0.6333;0.5794;
779.7000;0.6309;0.5819;
780.0000;0.6341;0.5970;
780.3000;0.6333;0.5869;
780.6000;0.6341;0.5894;
780.9000;0.6317;0.5920;
781.2000;0.6317;0.5920;
781.5000;0.6325;0.5995;
781.8000;0.6325;0.5995;
782.1000;0.6325;0.5995;
782.4000;0.6317;0.5920;
782.7000;0.6325;0.5869;
783.0000;0.6325;0.5869;
783.3000;0.6309;0.5844;
783.6000;0.6292;0.5819;
783.9000;0.6284;0.5794;
784.2000;0.6276;0.5819;
784.5000;0.6300;0.5819;
784.8000;0.6300;0.5794;
785.1000;0.6300;0.5769;
785.4000;0.6309;0.5743;
785.7000;0.6325;0.5743;
786.0000;0.6309;0.5693;
786.3000;0.6284;0.5643;
786.6000;0.6292;0.5643;
786.9000;0.6284;0.5718;
787.2000;0.6292;0.5693;
787.5000;0.6284;0.5592;
787.8000;0.6284;0.5617;
788.1000;0.6300;0.5743;
788.4000;0.6252;0.5643;
788.7000;0.6268;0.5617;
789.0000;0.6252;0.5542;
789.3000;0.6252;0.5592;
789.6000;0.6284;0.5693;
789.9000;0.6284;0.5718;
790.2000;0.6309;0.5743;
790.5000;0.6276;0.5592;
790.8000;0.6300;0.5643;
791.1000;0.6300;0.5643;
791.4000;0.6268;0.5567;
791.7000;0.6276;0.5617;
792.0000;0.6309;0.5643;
792.3000;0.6268;0.5542;
792.6000;0.6276;0.5592;
792.9000;0.6268;0.5643;
793.2000;0.6268;0.5668;
793.5000;0.6276;0.5743;
793.8000;0.6276;0.5743;
794.1000;0.6276;0.5718;
794.4000;0.6268;0.5668;
794.7000;0.6292;0.5743;
795.0000;0.6292;0.5718;
795.3000;0.6260;0.5668;
795.6000;0.6284;0.5743;
795.9000;0.6292;0.5743;
796.2000;0.6268;0.5643;
796.5000;0.6260;0.5542;
796.8000;0.6284;0.5542;
797.1000;0.6284;0.5542;
797.4000;0.6276;0.5491;
797.7000;0.6268;0.5567;
798.0000;0.6268;0.5567;
798.3000;0.6227;0.5542;
798.6000;0.6268;0.5668;
798.9000;0.6252;0.5668;
799.2000;0.6252;0.5693;
799.5000;0.6276;0.5794;
799.8000;0.6276;0.5844;
800.1000;0.6268;0.5769;
800.4000;0.6260;0.5794;
800.7000;0.6260;0.5819;
801.0000;0.6268;0.5769;
801.3000;0.6268;0.5794;
801.6000;0.6260;0.5869;
801.9000;0.6276;0.5794;
802.2000;0.6260;0.5794;
802.5000;0.6284;0.5769;
802.8000;0.6260;0.5718;
803.1000;0.6260;0.5718;
803.4000;0.6268;0.5819;
803.7000;0.6252;0.5819;
804.0000;0.6252;0.5819;
804.3000;0.6243;0.5894;
804.6000;0.6252;0.5945;
804.9000;0.6268;0.5995;
805.2000;0.6260;0.5894;
805.5000;0.6252;0.5743;
805.8000;0.6243;0.5693;
806.1000;0.6260;0.5693;
806.4000;0.6235;0.5592;
806.7000;0.6252;0.5567;
807.0000;0.6252;0.5617;
807.3000;0.6260;0.5617;
807.6000;0.6227;0.5517;
807.9000;0.6227;0.5542;
808.2000;0.6252;0.5491;
808.5000;0.6243;0.5416;
808.8000;0.6252;0.5491;
809.1000;0.6235;0.5466;
809.4000;0.6252;0.5592;
809.7000;0.6252;0.5517;
810.0000;0.6243;0.5542;
810.3000;0.6235;0.5592;
810.6000;0.6252;0.5718;
810.9000;0.6276;0.5819;
811.2000;0.6243;0.5769;
811.5000;0.6276;0.5844;
811.8000;0.6252;0.5769;
812.1000;0.6243;0.5743;
812.4000;0.6252;0.5794;
812.7000;0.6243;0.5769;
813.0000;0.6252;0.5743;
813.3000;0.6260;0.5718;
813.6000;0.6235;0.5693;
813.9000;0.6227;0.5617;
814.2000;0.6195;0.5542;
814.5000;0.6227;0.5592;
814.8000;0.6235;0.5693;
815.1000;0.6243;0.5643;
815.4000;0.6219;0.5567;
815.7000;0.6243;0.5542;
816.0000;0.6268;0.5567;
816.3000;0.6252;0.5567;
816.6000;0.6243;0.5542;
816.9000;0.6227;0.5491;
817.2000;0.6243;0.5617;
817.5000;0.6243;0.5567;
817.8000;0.6235;0.5617;
818.1000;0.6227;0.5592;
818.4000;0.6219;0.5567;
818.7000;0.6235;0.5517;
819.0000;0.6219;0.5567;
819.3000;0.6211;0.5592;
819.6000;0.6219;0.5617;
819.9000;0.6235;0.5718;
820.2000;0.6227;0.5668;
820.5000;0.6211;0.5643;
820.8000;0.6211;0.5643;
821.1000;0.6227;0.5668;
821.4000;0.6276;0.5844;
821.7000;0.6219;0.5693;
822.0000;0.6203;0.5567;
822.3000;0.6219;0.5517;
822.6000;0.6227;0.5617;
822.9000;0.6178;0.5592;
823.2000;0.6227;0.5693;
823.5000;0.6195;0.5668;
823.8000;0.6227;0.5617;
824.1000;0.6219;0.5668;
824.4000;0.6227;0.5592;
824.7000;0.6219;0.5592;
825.0000;0.6203;0.5668;
825.3000;0.6227;0.5718;
825.6000;0.6219;0.5718;
825.9000;0.6162;0.5517;
826.2000;0.6203;0.5668;
826.5000;0.6227;0.5718;
826.8000;0.6211;0.5668;
827.1000;0.6219;0.5668;
827.4000;0.6211;0.5643;
827.7000;0.6227;0.5743;
828.0000;0.6195;0.5668;
828.3000;0.6219;0.5693;
828.6000;0.6211;0.5643;
828.9000;0.6211;0.5643;
829.2000;0.6211;0.5491;
829.5000;0.6211;0.5567;
829.8000;0.6219;0.5718;
830.1000;0.6211;0.5794;
830.4000;0.6211;0.5693;
830.7000;0.6195;0.5668;
831.0000;0.6195;0.5668;
831.3000;0.6219;0.5668;
831.6000;0.6203;0.5668;
831.9000;0.6203;0.5668;
832.2000;0.6195;0.5643;
832.5000;0.6195;0.5693;
832.8000;0.6195;0.5743;
833.1000;0.6203;0.5718;
833.4000;0.6195;0.5743;
833.7000;0.6178;0.5718;
834.0000;0.6219;0.5844;
834.3000;0.6195;0.5769;
834.6000;0.6203;0.5718;
834.9000;0.6178;0.5668;
835.2000;0.6203;0.5718;
835.5000;0.6195;0.5718;
835.8000;0.6195;0.5743;
836.1000;0.6186;0.5769;
836.4000;0.6178;0.5794;
836.7000;0.6203;0.5844;
837.0000;0.6178;0.5819;
837.3000;0.6203;0.5920;
837.6000;0.6186;0.5819;
837.9000;0.6186;0.5769;
838.2000;0.6195;0.5693;
838.5000;0.6186;0.5668;
838.8000;0.6170;0.5668;
839.1000;0.6211;0.5869;
839.4000;0.6178;0.5769;
839.7000;0.6178;0.5668;
840.0000;0.6195;0.5668;
840.3000;0.6186;0.5819;
840.6000;0.6178;0.5794;
840.9000;0.6178;0.5769;
841.2000;0.6178;0.5769;
841.5000;0.6195;0.5794;
841.8000;0.6195;0.5844;
842.1000;0.6195;0.5920;
842.4000;0.6178;0.5844;
842.7000;0.6186;0.5819;
843.0000;0.6186;0.5869;
843.3000;0.6178;0.5819;
843.6000;0.6178;0.5769;
843.9000;0.6178;0.5718;
844.2000;0.6195;0.5769;
844.5000;0.6129;0.5693;
844.8000;0.6170;0.5769;
845.1000;0.6170;0.5718;
845.4000;0.6195;0.5769;
845.7000;0.6186;0.5743;
846.0000;0.6146;0.5567;
846.3000;0.6129;0.5542;
846.6000;0.6178;0.5643;
846.9000;0.6178;0.5693;
847.2000;0.6178;0.5743;
847.5000;0.6186;0.5668;
847.8000;0.6186;0.5643;
848.1000;0.6170;0.5668;
848.4000;0.6162;0.5693;
848.7000;0.6178;0.5743;
849.0000;0.6170;0.5769;
849.3000;0.6195;0.5743;
849.6000;0.6178;0.5718;
849.9000;0.6162;0.5668;
850.2000;0.6170;0.5693;
850.5000;0.6154;0.5668;
850.8000;0.6195;0.5769;
851.1000;0.6186;0.5643;
851.4000;0.6170;0.5617;
851.7000;0.6170;0.5592;
852.0000;0.6186;0.5617;
852.3000;0.6235;0.5769;
852.6000;0.6178;0.5643;
852.9000;0.6186;0.5668;
853.2000;0.6178;0.5693;
853.5000;0.6195;0.5718;
853.8000;0.6170;0.5643;
854.1000;0.6129;0.5592;
854.4000;0.6162;0.5718;
854.7000;0.6170;0.5844;
855.0000;0.6154;0.5819;
855.3000;0.6162;0.5743;
855.6000;0.6170;0.5718;
855.9000;0.6162;0.5693;
856.2000;0.6170;0.5718;
856.5000;0.6162;0.5693;
856.8000;0.6178;0.5743;
857.1000;0.6178;0.5718;
857.4000;0.6178;0.5693;
857.7000;0.6170;0.5668;
858.0000;0.6170;0.5693;
858.3000;0.6178;0.5643;
858.6000;0.6178;0.5693;
858.9000;0.6195;0.5743;
859.2000;0.6154;0.5617;
859.5000;0.6154;0.5668;
859.8000;0.6154;0.5643;
860.1000;0.6154;0.5643;
860.4000;0.6154;0.5643;
860.7000;0.6146;0.5643;
861.0000;0.6138;0.5542;
861.3000;0.6154;0.5617;
861.6000;0.6154;0.5592;
861.9000;0.6154;0.5617;
862.2000;0.6162;0.5668;
862.5000;0.6162;0.5693;
862.8000;0.6170;0.5668;
863.1000;0.6162;0.5643;
863.4000;0.6146;0.5592;
863.7000;0.6138;0.5643;
864.0000;0.6162;0.5769;
864.3000;0.6154;0.5894;
864.6000;0.6138;0.5819;
864.9000;0.6146;0.5844;
865.2000;0.6154;0.5869;
865.5000;0.6154;0.5769;
865.8000;0.6154;0.5743;
866.1000;0.6146;0.5794;
866.4000;0.6105;0.5617;
866.7000;0.6113;0.5592;
867.0000;0.6113;0.5592;
867.3000;0.6154;0.5718;
867.6000;0.6162;0.5819;
867.9000;0.6146;0.5743;
868.2000;0.6138;0.5769;
868.5000;0.6170;0.5844;
868.8000;0.6162;0.5819;
869.1000;0.6162;0.5819;
869.4000;0.6146;0.5743;
869.7000;0.6154;0.5743;
870.0000;0.6170;0.5769;
870.3000;0.6146;0.5794;
870.6000;0.6138;0.5794;
870.9000;0.6097;0.5668;
871.2000;0.6154;0.5794;
871.5000;0.6138;0.5743;
871.8000;0.6154;0.5718;
872.1000;0.6154;0.5819;
872.4000;0.6170;0.5945;
872.7000;0.6146;0.5869;
873.0000;0.6146;0.5844;
873.3000;0.6129;0.5668;
873.6000;0.6203;0.5869;
873.9000;0.6154;0.5794;
874.2000;0.6146;0.5718;
874.5000;0.6097;0.5542;
874.8000;0.6146;0.5668;
875.1000;0.6129;0.5517;
875.4000;0.6154;0.5517;
875.7000;0.6129;0.5416;
876.0000;0.6129;0.5466;
876.3000;0.6138;0.5441;
876.6000;0.6162;0.5542;
876.9000;0.6162;0.5643;
877.2000;0.6138;0.5567;
877.5000;0.6138;0.5542;
877.8000;0.6138;0.5517;
878.1000;0.6121;0.5542;
878.4000;0.6146;0.5567;
878.7000;0.6138;0.5466;
879.0000;0.6154;0.5466;
879.3000;0.6138;0.5466;
879.6000;0.6129;0.5391;
879.9000;0.6138;0.5517;
880.2000;0.6178;0.5693;
880.5000;0.6113;0.5567;
880.8000;0.6146;0.5718;
881.1000;0.6121;0.5693;
881.4000;0.6121;0.5643;
881.7000;0.6129;0.5643;
882.0000;0.6138;0.5693;
882.3000;0.6129;0.5743;
882.6000;0.6129;0.5718;
882.9000;0.6129;0.5718;
883.2000;0.6146;0.5693;
883.5000;0.6129;0.5643;
883.8000;0.6146;0.5693;
884.1000;0.6154;0.5693;
884.4000;0.6121;0.5643;
884.7000;0.6129;0.5517;
885.0000;0.6089;0.5441;
885.3000;0.6162;0.5668;
885.6000;0.6138;0.5693;
885.9000;0.6129;0.5718;
886.2000;0.6129;0.5769;
886.5000;0.6121;0.5668;
886.8000;0.6129;0.5668;
887.1000;0.6089;0.5592;
887.4000;0.6113;0.5668;
887.7000;0.6138;0.5769;
888.0000;0.6113;0.5668;
888.3000;0.6138;0.5693;
888.6000;0.6121;0.5668;
888.9000;0.6146;0.5743;
889.2000;0.6129;0.5693;
889.5000;0.6121;0.5693;
889.8000;0.6113;0.5743;
890.1000;0.6129;0.5769;
890.4000;0.6129;0.5718;
890.7000;0.6121;0.5769;
891.0000;0.6129;0.5819;
891.3000;0.6113;0.5769;
891.6000;0.6129;0.5693;
891.9000;0.6113;0.5693;
892.2000;0.6121;0.5693;
892.5000;0.6105;0.5668;
892.8000;0.6138;0.5743;
893.1000;0.6129;0.5668;
893.4000;0.6113;0.5592;
893.7000;0.6129;0.5617;
894.0000;0.6129;0.5617;
894.3000;0.6129;0.5693;
894.6000;0.6121;0.5718;
894.9000;0.6040;0.5491;
895.2000;0.6129;0.5668;
895.5000;0.6105;0.5643;
895.8000;0.6113;0.5567;
896.1000;0.6113;0.5668;
896.4000;0.6081;0.5592;
896.7000;0.6121;0.5643;
897.0000;0.6105;0.5567;
897.3000;0.6097;0.5643;
897.6000;0.6121;0.5592;
897.9000;0.6105;0.5693;
898.2000;0.6121;0.5592;
898.5000;0.6121;0.5617;
898.8000;0.6121;0.5718;
899.1000;0.6105;0.5693;
899.4000;0.6105;0.5718;
899.7000;0.6121;0.5743;
900.0000;0.6105;0.5794;
900.3000;0.6081;0.5718;
900.6000;0.6113;0.5693;
900.9000;0.6097;0.5693;
901.2000;0.6081;0.5668;
901.5000;0.6105;0.5668;
901.8000;0.6089;0.5643;
902.1000;0.6105;0.5668;
902.4000;0.6097;0.5769;
902.7000;0.6105;0.5769;
903.0000;0.6121;0.5819;
903.3000;0.6121;0.5819;
903.6000;0.6089;0.5718;
903.9000;0.6097;0.5693;
904.2000;0.6121;0.5718;
904.5000;0.6105;0.5769;
904.8000;0.6113;0.5844;
905.1000;0.6129;0.5844;
905.4000;0.6105;0.5794;
905.7000;0.6105;0.5794;
906.0000;0.6129;0.5769;
906.3000;0.6105;0.5794;
906.6000;0.6097;0.5819;
906.9000;0.6105;0.5819;
907.2000;0.6146;0.5844;
907.5000;0.6121;0.5769;
907.8000;0.6105;0.5743;
908.1000;0.6105;0.5819;
908.4000;0.6097;0.5844;
908.7000;0.6097;0.5894;
909.0000;0.6170;0.6020;
909.3000;0.6113;0.5693;
909.6000;0.6113;0.5668;
909.9000;0.6105;0.5718;
910.2000;0.6089;0.5718;
910.5000;0.6097;0.5769;
910.8000;0.6105;0.5743;
911.1000;0.6105;0.5693;
911.4000;0.6097;0.5567;
911.7000;0.6097;0.5542;
912.0000;0.6089;0.5441;
912.3000;0.6089;0.5441;
912.6000;0.6097;0.5466;
912.9000;0.6089;0.5441;
913.2000;0.6081;0.5491;
913.5000;0.6081;0.5517;
913.8000;0.6097;0.5567;
914.1000;0.6089;0.5592;
914.4000;0.6105;0.5718;
914.7000;0.6146;0.5894;
915.0000;0.6113;0.5844;
915.3000;0.6081;0.5844;
915.6000;0.6089;0.5819;
915.9000;0.6081;0.5844;
916.2000;0.6072;0.5819;
916.5000;0.6089;0.5769;
916.8000;0.6089;0.5769;
917.1000;0.6089;0.5844;
917.4000;0.6097;0.5970;
917.7000;0.6097;0.5995;
918.0000;0.6097;0.5995;
918.3000;0.6113;0.5995;
918.6000;0.6121;0.5894;
918.9000;0.6081;0.5869;
919.2000;0.6097;0.5970;
919.5000;0.6113;0.6020;
919.8000;0.6089;0.5920;
920.1000;0.6105;0.5945;
920.4000;0.6072;0.5844;
920.7000;0.6097;0.5894;
921.0000;0.6097;0.5819;
921.3000;0.6097;0.5894;
921.6000;0.6072;0.5869;
921.9000;0.6081;0.5869;
922.2000;0.6081;0.5869;
922.5000;0.6081;0.5844;
922.8000;0.6072;0.5769;
923.1000;0.6040;0.5668;
923.4000;0.6048;0.5668;
923.7000;0.6089;0.5743;
924.0000;0.6113;0.5819;
924.3000;0.6097;0.5769;
924.6000;0.6089;0.5743;
924.9000;0.6081;0.5693;
925.2000;0.6081;0.5718;
925.5000;0.6007;0.5567;
925.8000;0.6072;0.5718;
926.1000;0.6064;0.5668;
926.4000;0.6081;0.5718;
926.7000;0.6081;0.5794;
927.0000;0.6089;0.5869;
927.3000;0.6072;0.5844;
927.6000;0.6089;0.5794;
927.9000;0.6081;0.5769;
928.2000;0.6097;0.5743;
928.5000;0.6089;0.5718;
928.8000;0.6105;0.5794;
929.1000;0.6105;0.5769;
929.4000;0.6089;0.5769;
929.7000;0.6072;0.5844;
930.0000;0.6113;0.5945;
930.3000;0.6072;0.5869;
930.6000;0.6064;0.5844;
930.9000;0.6064;0.5819;
931.2000;0.6154;0.6046;
931.5000;0.6064;0.5769;
931.8000;0.6097;0.5819;
932.1000;0.6072;0.5718;
932.4000;0.6081;0.5769;
932.7000;0.6072;0.5693;
933.0000;0.6072;0.5668;
933.3000;0.6089;0.5718;
933.6000;0.6089;0.5643;
933.9000;0.6064;0.5592;
934.2000;0.6089;0.5617;
934.5000;0.6064;0.5693;
934.8000;0.6072;0.5743;
935.1000;0.6064;0.5693;
935.4000;0.6056;0.5693;
935.7000;0.6072;0.5819;
936.0000;0.6113;0.5844;
936.3000;0.6081;0.5743;
936.6000;0.6064;0.5769;
936.9000;0.6081;0.5869;
937.2000;0.6064;0.5869;
937.5000;0.6089;0.5920;
937.8000;0.6048;0.5743;
938.1000;0.6064;0.5844;
938.4000;0.6081;0.5869;
938.7000;0.6072;0.5894;
939.0000;0.6081;0.5869;
939.3000;0.6081;0.5894;
939.6000;0.6081;0.5869;
939.9000;0.6105;0.5869;
940.2000;0.6081;0.5869;
940.5000;0.6048;0.5769;
940.8000;0.6072;0.5819;
941.1000;0.6048;0.5743;
941.4000;0.6081;0.5693;
941.7000;0.6072;0.5718;
942.0000;0.6089;0.5819;
942.3000;0.6072;0.5743;
942.6000;0.6081;0.5743;
942.9000;0.6064;0.5794;
943.2000;0.6089;0.5794;
943.5000;0.6105;0.5844;
943.8000;0.6121;0.5894;
944.1000;0.6072;0.5819;
944.4000;0.6064;0.5869;
944.7000;0.6089;0.5970;
945.0000;0.6089;0.5995;
945.3000;0.6064;0.5920;
945.6000;0.6032;0.5894;
945.9000;0.6072;0.6096;
946.2000;0.6024;0.5970;
946.5000;0.6089;0.6071;
946.8000;0.6072;0.5970;
947.1000;0.6056;0.5920;
947.4000;0.6056;0.5945;
947.7000;0.6064;0.5945;
948.0000;0.6072;0.5945;
948.3000;0.6089;0.5970;
948.6000;0.6064;0.5970;
948.9000;0.6081;0.6020;
949.2000;0.6056;0.6020;
949.5000;0.6048;0.5995;
949.8000;0.6056;0.5970;
950.1000;0.6072;0.6020;
950.4000;0.6105;0.6046;
950.7000;0.6064;0.5970;
951.0000;0.6064;0.5970;
951.3000;0.6072;0.5995;
951.6000;0.6064;0.5995;
951.9000;0.6048;0.6071;
952.2000;0.6048;0.6071;
952.5000;0.6064;0.5945;
952.8000;0.6056;0.5945;
953.1000;0.6113;0.6071;
953.4000;0.6064;0.5995;
953.7000;0.6064;0.5945;
954.0000;0.6081;0.5920;
954.3000;0.6072;0.5844;
954.6000;0.6056;0.5794;
954.9000;0.6056;0.5819;
955.2000;0.6040;0.5769;
955.5000;0.6056;0.5819;
955.8000;0.6040;0.5743;
956.1000;0.6024;0.5718;
956.4000;0.6015;0.5643;
956.7000;0.6064;0.5718;
957.0000;0.6040;0.5668;
957.3000;0.6056;0.5643;
957.6000;0.6072;0.5743;
957.9000;0.6064;0.5819;
958.2000;0.6056;0.5794;
958.5000;0.6040;0.5769;
958.8000;0.6064;0.5869;
959.1000;0.6064;0.5844;
959.4000;0.6056;0.5869;
959.7000;0.6056;0.5844;
960.0000;0.6056;0.5945;
960.3000;0.6072;0.5995;
960.6000;0.6056;0.5945;
960.9000;0.6040;0.5920;
961.2000;0.6056;0.5920;
961.5000;0.6072;0.5995;
961.8000;0.6015;0.5844;
962.1000;0.6048;0.5894;
962.4000;0.6032;0.5844;
962.7000;0.6056;0.5869;
963.0000;0.6072;0.5920;
963.3000;0.6048;0.5869;
963.6000;0.5967;0.5592;
963.9000;0.6056;0.5844;
964.2000;0.6040;0.5794;
964.5000;0.6064;0.5794;
964.8000;0.6048;0.5668;
965.1000;0.6048;0.5617;
965.4000;0.6072;0.5693;
965.7000;0.6056;0.5693;
966.0000;0.6056;0.5769;
966.3000;0.6048;0.5668;
966.6000;0.6064;0.5743;
966.9000;0.6056;0.5743;
967.2000;0.6048;0.5743;
967.5000;0.6138;0.6046;
967.8000;0.6064;0.5794;
968.1000;0.6064;0.5844;
968.4000;0.6040;0.5718;
968.7000;0.6040;0.5819;
969.0000;0.6056;0.5894;
969.3000;0.6007;0.5743;
969.6000;0.6048;0.5894;
969.9000;0.6064;0.5869;
970.2000;0.6032;0.5819;
970.5000;0.6056;0.5819;
970.8000;0.6048;0.5794;
971.1000;0.6056;0.5743;
971.4000;0.6048;0.5643;
971.7000;0.6048;0.5743;
972.0000;0.6072;0.5743;
972.3000;0.6024;0.5693;
972.6000;0.6040;0.5743;
972.9000;0.6064;0.5743;
973.2000;0.6048;0.5769;
973.5000;0.6048;0.5794;
973.8000;0.6040;0.5869;
974.1000;0.6056;0.5920;
974.4000;0.6064;0.5970;
974.7000;0.6040;0.5920;
975.0000;0.5999;0.5794;
975.3000;0.6056;0.5894;
975.6000;0.6064;0.5920;
975.9000;0.6040;0.5894;
976.2000;0.6032;0.5945;
976.5000;0.6040;0.5945;
976.8000;0.6040;0.5995;
977.1000;0.6040;0.5995;
977.4000;0.6056;0.6046;
977.7000;0.6032;0.5894;
978.0000;0.6081;0.5970;
978.3000;0.6040;0.5920;
978.6000;0.6048;0.5894;
978.9000;0.6040;0.5894;
979.2000;0.6121;0.6046;
979.5000;0.6064;0.5945;
979.8000;0.6048;0.5920;
980.1000;0.6056;0.5970;
980.4000;0.6097;0.6096;
980.7000;0.6056;0.5995;
981.0000;0.6024;0.5945;
981.3000;0.6040;0.5869;
981.6000;0.6024;0.5869;
981.9000;0.6040;0.5920;
982.2000;0.6032;0.5894;
982.5000;0.6040;0.5844;
982.8000;0.6015;0.5794;
983.1000;0.6048;0.5894;
983.4000;0.6040;0.5819;
983.7000;0.6024;0.5668;
984.0000;0.6024;0.5668;
984.3000;0.6056;0.5693;
984.6000;0.6056;0.5668;
984.9000;0.6048;0.5693;
985.2000;0.6048;0.5794;
985.5000;0.6056;0.5743;
985.8000;0.6056;0.5794;
986.1000;0.6048;0.5869;
986.4000;0.6048;0.5920;
986.7000;0.6032;0.5970;
987.0000;0.6048;0.5920;
987.3000;0.6048;0.5945;
987.6000;0.6032;0.5920;
987.9000;0.6024;0.5869;
988.2000;0.6040;0.5869;
988.5000;0.6032;0.5869;
988.8000;0.6032;0.5869;
989.1000;0.6040;0.5894;
989.4000;0.6032;0.5894;
989.7000;0.6048;0.5920;
990.0000;0.6048;0.5920;
990.3000;0.6048;0.5920;
990.6000;0.6032;0.5819;
990.9000;0.6056;0.5819;
991.2000;0.6048;0.5844;
991.5000;0.6056;0.5819;
991.8000;0.6015;0.5819;
992.1000;0.6040;0.5819;
992.4000;0.6064;0.5920;
992.7000;0.6032;0.5894;
993.0000;0.6015;0.5819;
993.3000;0.6024;0.5844;
993.6000;0.6040;0.5920;
993.9000;0.6032;0.5920;
994.2000;0.6024;0.5920;
994.5000;0.6024;0.5945;
994.8000;0.6032;0.5970;
995.1000;0.6024;0.6046;
995.4000;0.6024;0.6046;
995.7000;0.6007;0.5920;
996.0000;0.6056;0.5995;
996.3000;0.6040;0.5945;
996.6000;0.6032;0.5894;
996.9000;0.6097;0.5995;
997.2000;0.6048;0.5920;
997.5000;0.6015;0.5894;
997.8000;0.6024;0.5844;
998.1000;0.6081;0.5970;
998.4000;0.6007;0.5819;
998.7000;0.6024;0.5945;
999.0000;0.5967;0.5869;
999.3000;0.6015;0.5945;
999.6000;0.6024;0.5945;
999.9000;0.6024;0.5945;
1000.2000;0.6015;0.5945;
1000.5000;0.6024;0.5945;
1000.8000;0.6040;0.5945;
1001.1000;0.6072;0.5995;
1001.4000;0.6024;0.5894;
1001.7000;0.6024;0.5869;
1002.0000;0.5999;0.5769;
1002.3000;0.6040;0.5920;
1002.6000;0.6024;0.5869;
1002.9000;0.6007;0.5894;
1003.2000;0.5991;0.5794;
1003.5000;0.6024;0.5869;
1003.8000;0.6024;0.5769;
1004.1000;0.6015;0.5920;
1004.4000;0.5999;0.5869;
1004.7000;0.6007;0.5743;
1005.0000;0.5999;0.5743;
1005.3000;0.6032;0.5819;
1005.6000;0.6032;0.5844;
1005.9000;0.6024;0.5769;
1006.2000;0.6032;0.5794;
1006.5000;0.6032;0.5819;
1006.8000;0.6040;0.5819;
1007.1000;0.6032;0.5844;
1007.4000;0.6024;0.5794;
1007.7000;0.6015;0.5819;
1008.0000;0.6015;0.5844;
1008.3000;0.6007;0.5894;
1008.6000;0.6032;0.5945;
1008.9000;0.6024;0.6046;
1009.2000;0.6024;0.6071;
1009.5000;0.6015;0.6046;
1009.8000;0.6064;0.6172;
1010.1000;0.6032;0.6071;
1010.4000;0.6024;0.5995;
1010.7000;0.6024;0.5970;
1011.0000;0.6032;0.5970;
1011.3000;0.6032;0.5995;
1011.6000;0.6015;0.6020;
1011.9000;0.6032;0.6096;
1012.2000;0.6007;0.6071;
1012.5000;0.5975;0.6020;
1012.8000;0.6007;0.6071;
1013.1000;0.6007;0.6020;
1013.4000;0.6024;0.6046;
1013.7000;0.6040;0.6046;
1014.0000;0.6015;0.6046;
1014.3000;0.6040;0.6172;
1014.6000;0.6032;0.6172;
1014.9000;0.6040;0.6197;
1015.2000;0.6015;0.6046;
1015.5000;0.6032;0.6046;
1015.8000;0.5999;0.5945;
1016.1000;0.6032;0.5945;
1016.4000;0.6015;0.5920;
1016.7000;0.6015;0.5945;
1017.0000;0.6007;0.5920;
1017.3000;0.6007;0.5894;
1017.6000;0.6024;0.5995;
1017.9000;0.6015;0.6071;
1018.2000;0.6032;0.6020;
1018.5000;0.5999;0.5920;
1018.8000;0.5991;0.5869;
1019.1000;0.5999;0.5894;
1019.4000;0.6007;0.5894;
1019.7000;0.6024;0.5894;
1020.0000;0.5991;0.5869;
1020.3000;0.6024;0.6020;
1020.6000;0.6032;0.6071;
1020.9000;0.6024;0.6146;
1021.2000;0.6032;0.6146;
1021.5000;0.6032;0.6121;
1021.8000;0.6024;0.6121;
1022.1000;0.5999;0.6071;
1022.4000;0.6007;0.6046;
1022.7000;0.6007;0.6096;
1023.0000;0.5999;0.6172;
1023.3000;0.5991;0.6121;
1023.6000;0.6015;0.6096;
1023.9000;0.6032;0.6046;
1024.2000;0.6024;0.6071;
1024.5000;0.6024;0.6096;
1024.8000;0.6007;0.6046;
1025.1000;0.5999;0.6172;
1025.4000;0.6015;0.6297;
1025.7000;0.6024;0.6272;
1026.0000;0.5999;0.6272;
1026.3000;0.6007;0.6323;
1026.6000;0.6015;0.6348;
1026.9000;0.5999;0.6297;
1027.2000;0.6007;0.6247;
1027.5000;0.5999;0.6197;
1027.8000;0.5991;0.6146;
1028.1000;0.6007;0.6222;
1028.4000;0.6007;0.6121;
1028.7000;0.6007;0.6146;
1029.0000;0.5999;0.6121;
1029.3000;0.6024;0.6146;
1029.6000;0.6015;0.6121;
1029.9000;0.6007;0.6197;
1030.2000;0.6015;0.6222;
1030.5000;0.6015;0.6096;
1030.8000;0.6007;0.6046;
1031.1000;0.6024;0.6071;
1031.4000;0.6007;0.5970;
1031.7000;0.6015;0.5945;
1032.0000;0.6015;0.5920;
1032.3000;0.6015;0.5970;
1032.6000;0.6015;0.6046;
1032.9000;0.6007;0.6071;
1033.2000;0.6007;0.6146;
1033.5000;0.6007;0.6121;
1033.8000;0.5991;0.6046;
1034.1000;0.6015;0.6121;
1034.4000;0.6024;0.6172;
1034.7000;0.6015;0.6096;
1035.0000;0.6007;0.6071;
1035.3000;0.6007;0.6046;
1035.6000;0.6024;0.6096;
1035.9000;0.6015;0.6096;
1036.2000;0.5999;0.6071;
1036.5000;0.5999;0.6146;
1036.8000;0.5999;0.6096;
1037.1000;0.6007;0.6121;
1037.4000;0.6015;0.6146;
1037.7000;0.6015;0.6172;
1038.0000;0.5999;0.6172;
1038.3000;0.6015;0.6272;
1038.6000;0.6007;0.6247;
1038.9000;0.6007;0.6197;
1039.2000;0.5991;0.6222;
1039.5000;0.6024;0.6272;
1039.8000;0.6007;0.6197;
1040.1000;0.6015;0.6172;
1040.4000;0.6015;0.6197;
1040.7000;0.6032;0.6197;
1041.0000;0.6007;0.6121;
1041.3000;0.6097;0.6449;
1041.6000;0.6007;0.6247;
1041.9000;0.5950;0.6046;
1042.2000;0.6007;0.6121;
1042.5000;0.5991;0.6020;
1042.8000;0.5999;0.6020;
1043.1000;0.5958;0.5920;
1043.4000;0.6007;0.6020;
1043.7000;0.5999;0.6071;
1044.0000;0.5991;0.6046;
1044.3000;0.6007;0.6146;
1044.6000;0.5999;0.6197;
1044.9000;0.5967;0.6071;
1045.2000;0.6007;0.6071;
1045.5000;0.6007;0.6096;
1045.8000;0.6015;0.6096;
1046.1000;0.6007;0.5970;
1046.4000;0.6056;0.6146;
1046.7000;0.6015;0.5970;
1047.0000;0.6015;0.6071;
1047.3000;0.6064;0.6323;
1047.6000;0.5991;0.6071;
1047.9000;0.5991;0.6046;
1048.2000;0.5999;0.6096;
1048.5000;0.5999;0.6096;
1048.8000;0.5999;0.6046;
1049.1000;0.5983;0.6071;
1049.4000;0.5967;0.6020;
1049.7000;0.6007;0.6121;
1050.0000;0.5999;0.6247;
1050.3000;0.5999;0.6172;
1050.6000;0.5999;0.6222;
1050.9000;0.6007;0.6197;
1051.2000;0.5999;0.6172;
1051.5000;0.5991;0.6071;
1051.8000;0.6007;0.6071;
1052.1000;0.6024;0.6096;
1052.4000;0.5991;0.6071;
1052.7000;0.6007;0.6121;
1053.0000;0.5983;0.6121;
1053.3000;0.5991;0.6172;
1053.6000;0.5983;0.6146;
1053.9000;0.5999;0.6172;
1054.2000;0.5983;0.6096;
1054.5000;0.5999;0.6121;
1054.8000;0.6007;0.6197;
1055.1000;0.5991;0.6096;
1055.4000;0.5983;0.6121;
1055.7000;0.5991;0.6071;
1056.0000;0.5983;0.6096;
1056.3000;0.6007;0.6146;
1056.6000;0.5983;0.6146;
1056.9000;0.6007;0.6146;
1057.2000;0.5991;0.6096;
1057.5000;0.5999;0.6096;
1057.8000;0.5991;0.6121;
1058.1000;0.5983;0.6020;
1058.4000;0.5991;0.5945;
1058.7000;0.5991;0.5970;
1059.0000;0.5983;0.6020;
1059.3000;0.5975;0.5945;
1059.6000;0.5991;0.6020;
1059.9000;0.6015;0.6096;
1060.2000;0.5958;0.6020;
1060.5000;0.5950;0.5894;
1060.8000;0.6007;0.6020;
1061.1000;0.5991;0.6020;
1061.4000;0.5999;0.5995;
1061.7000;0.5991;0.6046;
1062.0000;0.5999;0.6046;
1062.3000;0.5991;0.5970;
1062.6000;0.5983;0.5995;
1062.9000;0.6007;0.6121;
1063.2000;0.5999;0.6046;
1063.5000;0.5999;0.6020;
1063.8000;0.5991;0.5995;
1064.1000;0.6007;0.6121;
1064.4000;0.6007;0.6121;
1064.7000;0.6015;0.6146;
1065.0000;0.6007;0.6020;
1065.3000;0.6007;0.5945;
1065.6000;0.5999;0.5920;
1065.9000;0.6007;0.5869;
1066.2000;0.5999;0.5995;
1066.5000;0.6007;0.5995;
1066.8000;0.5983;0.5869;
1067.1000;0.5991;0.5869;
1067.4000;0.5991;0.5920;
1067.7000;0.5999;0.5945;
1068.0000;0.6007;0.5995;
1068.3000;0.5999;0.6071;
1068.6000;0.5983;0.6020;
1068.9000;0.6015;0.6096;
1069.2000;0.5991;0.5995;
1069.5000;0.6056;0.6096;
1069.8000;0.5983;0.5920;
1070.1000;0.6007;0.5894;
1070.4000;0.5983;0.5945;
1070.7000;0.5999;0.5945;
1071.0000;0.5975;0.5995;
1071.3000;0.5991;0.6071;
1071.6000;0.5991;0.6071;
1071.9000;0.5991;0.5970;
1072.2000;0.5999;0.5970;
1072.5000;0.5975;0.5920;
1072.8000;0.5999;0.5995;
1073.1000;0.5999;0.5995;
1073.4000;0.5975;0.5970;
1073.7000;0.5991;0.6046;
1074.0000;0.5991;0.6071;
1074.3000;0.5934;0.5945;
1074.6000;0.5975;0.6020;
1074.9000;0.5991;0.5995;
1075.2000;0.5934;0.5794;
1075.5000;0.6007;0.5920;
1075.8000;0.5999;0.5920;
1076.1000;0.5999;0.5920;
1076.4000;0.5999;0.5894;
1076.7000;0.5991;0.5869;
1077.0000;0.5991;0.5894;
1077.3000;0.5958;0.5920;
1077.6000;0.6007;0.6046;
1077.9000;0.6024;0.5995;
1078.2000;0.5958;0.5794;
1078.5000;0.5999;0.5869;
1078.8000;0.5991;0.5894;
1079.1000;0.5999;0.5920;
1079.4000;0.5999;0.5920;
1079.7000;0.5975;0.5995;
1080.0000;0.5967;0.5920;
1080.3000;0.5991;0.5945;
1080.6000;0.5942;0.5869;
1080.9000;0.5999;0.6020;
1081.2000;0.6007;0.6172;
1081.5000;0.6024;0.6197;
1081.8000;0.5983;0.6071;
1082.1000;0.5991;0.5995;
1082.4000;0.6015;0.6020;
1082.7000;0.6007;0.5920;
1083.0000;0.5975;0.5894;
1083.3000;0.5975;0.5819;
1083.6000;0.6007;0.5920;
1083.9000;0.5991;0.5945;
1084.2000;0.5991;0.5945;
1084.5000;0.6040;0.6071;
1084.8000;0.5991;0.6020;
1085.1000;0.5999;0.6096;
1085.4000;0.5991;0.6121;
1085.7000;0.5991;0.6096;
1086.0000;0.5918;0.5920;
1086.3000;0.5983;0.6121;
1086.6000;0.5999;0.6096;
1086.9000;0.5999;0.6121;
1087.2000;0.5926;0.5869;
1087.5000;0.6040;0.6172;
1087.8000;0.5991;0.5970;
1088.1000;0.5999;0.5844;
1088.4000;0.6040;0.5970;
1088.7000;0.5991;0.5769;
1089.0000;0.5934;0.5592;
1089.3000;0.5999;0.5743;
1089.6000;0.5967;0.5844;
1089.9000;0.5910;0.5718;
1090.2000;0.5926;0.5743;
1090.5000;0.5942;0.5743;
1090.8000;0.5999;0.5894;
1091.1000;0.5991;0.5844;
1091.4000;0.5999;0.5794;
1091.7000;0.6007;0.5920;
1092.0000;0.5991;0.5945;
1092.3000;0.5983;0.5995;
1092.6000;0.5991;0.5970;
1092.9000;0.5983;0.5894;
1093.2000;0.5983;0.5769;
1093.5000;0.5983;0.5819;
1093.8000;0.5975;0.5819;
1094.1000;0.5991;0.5844;
1094.4000;0.5991;0.5920;
1094.7000;0.5975;0.5819;
1095.0000;0.5918;0.5743;
1095.3000;0.5983;0.5970;
1095.6000;0.5975;0.5970;
1095.9000;0.5967;0.6046;
1096.2000;0.5975;0.6146;
1096.5000;0.6007;0.6146;
1096.8000;0.5975;0.6121;
1097.1000;0.5967;0.6071;
1097.4000;0.6007;0.6146;
1097.7000;0.5975;0.6046;
1098.0000;0.5926;0.5945;
1098.3000;0.5983;0.6020;
1098.6000;0.6024;0.6121;
1098.9000;0.5967;0.5970;
1099.2000;0.5967;0.6096;
1099.5000;0.5991;0.6172;
1099.8000;0.5958;0.6096;
1100.1000;0.5958;0.6121;
1100.4000;0.5975;0.6121;
1100.7000;0.5975;0.6046;
1101.0000;0.6056;0.6323;
1101.3000;0.5983;0.6096;
1101.6000;0.5983;0.6071;
1101.9000;0.5967;0.5970;
1102.2000;0.5999;0.6096;
1102.5000;0.5975;0.5995;
1102.8000;0.5983;0.6096;
1103.1000;0.5991;0.6197;
1103.4000;0.5999;0.6172;
1103.7000;0.5967;0.6121;
1104.0000;0.5926;0.5970;
1104.3000;0.5983;0.6020;
1104.6000;0.5942;0.5995;
1104.9000;0.5950;0.6046;
1105.2000;0.5975;0.6172;
1105.5000;0.5975;0.6096;
1105.8000;0.5975;0.6096;
1106.1000;0.5967;0.6071;
1106.4000;0.5975;0.6020;
1106.7000;0.5950;0.5920;
1107.0000;0.5967;0.5894;
1107.3000;0.5983;0.5945;
1107.6000;0.5975;0.5945;
1107.9000;0.6056;0.6121;
1108.2000;0.5975;0.5869;
1108.5000;0.5983;0.5794;
1108.8000;0.5975;0.5844;
1109.1000;0.5958;0.5869;
1109.4000;0.5983;0.5869;
1109.7000;0.5991;0.5894;
1110.0000;0.5967;0.5794;
1110.3000;0.5991;0.5869;
1110.6000;0.5999;0.5869;
1110.9000;0.5975;0.5844;
1111.2000;0.5999;0.5995;
1111.5000;0.5983;0.5945;
1111.8000;0.5999;0.5920;
1112.1000;0.5991;0.6020;
1112.4000;0.5991;0.6020;
1112.7000;0.5991;0.6071;
1113.0000;0.5910;0.5869;
1113.3000;0.5983;0.6046;
1113.6000;0.6032;0.6071;
1113.9000;0.5975;0.5970;
1114.2000;0.5975;0.5869;
1114.5000;0.5950;0.5794;
1114.8000;0.5958;0.5894;
1115.1000;0.5958;0.5869;
1115.4000;0.5967;0.5920;
1115.7000;0.5975;0.5920;
1116.0000;0.5975;0.5970;
1116.3000;0.5967;0.5920;
1116.6000;0.5975;0.6020;
1116.9000;0.5975;0.5920;
1117.2000;0.5991;0.5920;
1117.5000;0.5975;0.5920;
1117.8000;0.5958;0.5844;
1118.1000;0.5983;0.5920;
1118.4000;0.5991;0.6046;
1118.7000;0.5983;0.5970;
1119.0000;0.5991;0.5970;
1119.3000;0.5983;0.5970;
1119.6000;0.5983;0.5970;
1119.9000;0.5983;0.6046;
1120.2000;0.5967;0.6096;
1120.5000;0.5983;0.6096;
1120.8000;0.5975;0.6096;
1121.1000;0.5983;0.6146;
1121.4000;0.5983;0.6197;
1121.7000;0.5967;0.6121;
1122.0000;0.5975;0.6121;
1122.3000;0.5983;0.6172;
1122.6000;0.5967;0.6222;
1122.9000;0.5967;0.6222;
1123.2000;0.5975;0.6172;
1123.5000;0.5983;0.6096;
1123.8000;0.5983;0.6146;
1124.1000;0.5983;0.5995;
1124.4000;0.5942;0.5894;
1124.7000;0.5983;0.5970;
1125.0000;0.5991;0.5970;
1125.3000;0.5975;0.5894;
1125.6000;0.5983;0.5894;
1125.9000;0.5967;0.5945;
1126.2000;0.5967;0.5920;
1126.5000;0.5958;0.5920;
1126.8000;0.5983;0.5995;
1127.1000;0.5975;0.5920;
1127.4000;0.5975;0.5819;
1127.7000;0.5991;0.5995;
1128.0000;0.5958;0.5920;
1128.3000;0.5967;0.6020;
1128.6000;0.5983;0.6096;
1128.9000;0.5975;0.6071;
1129.2000;0.5967;0.6020;
1129.5000;0.5975;0.5920;
1129.8000;0.5967;0.5920;
1130.1000;0.5967;0.5920;
1130.4000;0.5958;0.5869;
1130.7000;0.5975;0.5869;
1131.0000;0.5967;0.5769;
1131.3000;0.5967;0.5743;
1131.6000;0.5950;0.5668;
1131.9000;0.5975;0.5643;
1132.2000;0.5958;0.5592;
1132.5000;0.5991;0.5743;
1132.8000;0.5958;0.5693;
1133.1000;0.5967;0.5794;
1133.4000;0.5975;0.5894;
1133.7000;0.5983;0.5945;
1134.0000;0.5975;0.5769;
1134.3000;0.5967;0.5794;
1134.6000;0.5975;0.5869;
1134.9000;0.5967;0.5894;
1135.2000;0.5967;0.5970;
1135.5000;0.5958;0.5970;
1135.8000;0.5958;0.6096;
1136.1000;0.5967;0.6121;
1136.4000;0.5967;0.6071;
1136.7000;0.5967;0.6121;
1137.0000;0.5983;0.6172;
1137.3000;0.5958;0.6146;
1137.6000;0.5991;0.6297;
1137.9000;0.5983;0.6222;
1138.2000;0.5967;0.6247;
1138.5000;0.5967;0.6222;
1138.8000;0.5967;0.6197;
1139.1000;0.5958;0.6172;
1139.4000;0.5958;0.6172;
1139.7000;0.5975;0.6272;
1140.0000;0.5983;0.6272;
1140.3000;0.5958;0.6247;
1140.6000;0.5967;0.6197;
1140.9000;0.5950;0.6172;
1141.2000;0.5950;0.6222;
1141.5000;0.5975;0.6247;
1141.8000;0.5950;0.6247;
1142.1000;0.5950;0.6247;
1142.4000;0.5942;0.6222;
1142.7000;0.5975;0.6272;
1143.0000;0.5967;0.6297;
1143.3000;0.5950;0.6247;
1143.6000;0.5983;0.6272;
1143.9000;0.5975;0.6197;
1144.2000;0.5983;0.6247;
1144.5000;0.5958;0.6172;
1144.8000;0.5975;0.6096;
1145.1000;0.5983;0.6121;
1145.4000;0.5967;0.6146;
1145.7000;0.5967;0.6172;
1146.0000;0.5958;0.6096;
1146.3000;0.5967;0.6272;
1146.6000;0.5967;0.6247;
1146.9000;0.5967;0.6222;
1147.2000;0.5950;0.6096;
1147.5000;0.5975;0.6323;
1147.8000;0.5975;0.6247;
1148.1000;0.5991;0.6323;
1148.4000;0.5942;0.6197;
1148.7000;0.5958;0.6272;
1149.0000;0.5983;0.6323;
1149.3000;0.5958;0.6197;
1149.6000;0.5967;0.6146;
1149.9000;0.5958;0.6146;
1150.2000;0.5967;0.6222;
1150.5000;0.5967;0.6172;
1150.8000;0.5958;0.6146;
1151.1000;0.5975;0.6071;
1151.4000;0.5958;0.6020;
1151.7000;0.5975;0.6020;
1152.0000;0.5975;0.6046;
1152.3000;0.5950;0.5945;
1152.6000;0.5950;0.5920;
1152.9000;0.5983;0.5995;
1153.2000;0.5967;0.6071;
1153.5000;0.5967;0.6096;
1153.8000;0.5958;0.6096;
1154.1000;0.5983;0.6121;
1154.4000;0.5934;0.6020;
1154.7000;0.5967;0.6046;
1155.0000;0.5950;0.5970;
1155.3000;0.5958;0.6046;
1155.6000;0.5975;0.6046;
1155.9000;0.5950;0.6020;
1156.2000;0.5958;0.5995;
1156.5000;0.5958;0.6046;
1156.8000;0.5958;0.6071;
1157.1000;0.5958;0.6096;
1157.4000;0.5958;0.6096;
1157.7000;0.5967;0.5995;
1158.0000;0.5967;0.6020;
1158.3000;0.5991;0.6046;
1158.6000;0.5975;0.5970;
1158.9000;0.5967;0.5995;
1159.2000;0.5967;0.5945;
1159.5000;0.5983;0.6020;
1159.8000;0.5967;0.5995;
1160.1000;0.5991;0.6020;
1160.4000;0.5958;0.5970;
1160.7000;0.5975;0.5970;
1161.0000;0.5958;0.5869;
1161.3000;0.5942;0.5894;
1161.6000;0.5991;0.5970;
1161.9000;0.5950;0.5794;
1162.2000;0.5942;0.5844;
1162.5000;0.5967;0.5894;
1162.8000;0.5975;0.5920;
1163.1000;0.5958;0.5869;
1163.4000;0.5967;0.5945;
1163.7000;0.5942;0.5920;
1164.0000;0.5950;0.5970;
1164.3000;0.5983;0.6096;
1164.6000;0.5958;0.6046;
1164.9000;0.5950;0.6172;
1165.2000;0.5926;0.6096;
1165.5000;0.5958;0.6146;
1165.8000;0.5958;0.6071;
1166.1000;0.5958;0.6096;
1166.4000;0.5950;0.5995;
1166.7000;0.5958;0.6046;
1167.0000;0.5958;0.5995;
1167.3000;0.5958;0.5945;
1167.6000;0.5910;0.5769;
1167.9000;0.5950;0.5945;
1168.2000;0.5967;0.5920;
1168.5000;0.5967;0.5869;
1168.8000;0.5958;0.5920;
1169.1000;0.5967;0.6020;
1169.4000;0.5983;0.6046;
1169.7000;0.5950;0.5970;
1170.0000;0.5967;0.5920;
1170.3000;0.5950;0.5844;
1170.6000;0.5950;0.5894;
1170.9000;0.5967;0.5869;
1171.2000;0.5983;0.5945;
1171.5000;0.5958;0.5920;
1171.8000;0.5975;0.5995;
1172.1000;0.5967;0.5995;
1172.4000;0.5950;0.5920;
1172.7000;0.5958;0.5995;
1173.0000;0.5910;0.5894;
1173.3000;0.5926;0.5970;
1173.6000;0.5958;0.6020;
1173.9000;0.5975;0.6046;
1174.2000;0.5975;0.6046;
1174.5000;0.5975;0.5894;
1174.8000;0.5967;0.5894;
1175.1000;0.5975;0.5894;
1175.4000;0.5958;0.5894;
1175.7000;0.5967;0.5894;
1176.0000;0.5958;0.5995;
1176.3000;0.5958;0.5995;
1176.6000;0.5958;0.5995;
1176.9000;0.5991;0.6046;
1177.2000;0.5950;0.5995;
1177.5000;0.5967;0.6046;
1177.8000;0.5967;0.6071;
1178.1000;0.5975;0.6172;
1178.4000;0.5975;0.6121;
1178.7000;0.5967;0.6096;
1179.0000;0.5950;0.6020;
1179.3000;0.6015;0.6172;
1179.6000;0.5950;0.5970;
1179.9000;0.6015;0.6096;
1180.2000;0.5950;0.5995;
1180.5000;0.5967;0.6146;
1180.8000;0.5950;0.6071;
1181.1000;0.5983;0.6146;
1181.4000;0.5950;0.6146;
1181.7000;0.5950;0.6146;
1182.0000;0.5958;0.6096;
1182.3000;0.5967;0.6121;
1182.6000;0.5942;0.6046;
1182.9000;0.5967;0.6121;
1183.2000;0.5950;0.6046;
1183.5000;0.5975;0.6071;
1183.8000;0.5942;0.5945;
1184.1000;0.5975;0.5970;
1184.4000;0.5967;0.5945;
1184.7000;0.5983;0.5945;
1185.0000;0.5950;0.5844;
1185.3000;0.5958;0.5869;
1185.6000;0.5950;0.5920;
1185.9000;0.5958;0.6046;
1186.2000;0.5983;0.6071;
1186.5000;0.5918;0.5794;
1186.8000;0.5950;0.5869;
1187.1000;0.5958;0.5995;
1187.4000;0.5926;0.5945;
1187.7000;0.5942;0.5945;
1188.0000;0.5958;0.5894;
1188.3000;0.5926;0.5869;
1188.6000;0.5967;0.5970;
1188.9000;0.5958;0.6046;
1189.2000;0.5950;0.5995;
1189.5000;0.5942;0.5945;
1189.8000;0.5999;0.6020;
1190.1000;0.5942;0.5920;
1190.4000;0.5967;0.6020;
1190.7000;0.5942;0.6046;
1191.0000;0.5950;0.6121;
1191.3000;0.5967;0.6197;
1191.6000;0.5967;0.6146;
1191.9000;0.5950;0.6146;
1192.2000;0.5950;0.6121;
1192.5000;0.5942;0.6172;
1192.8000;0.5967;0.6121;
1193.1000;0.5958;0.6046;
1193.4000;0.5902;0.5844;
1193.7000;0.5926;0.5844;
1194.0000;0.5950;0.5920;
1194.3000;0.5958;0.5995;
1194.6000;0.5942;0.5995;
1194.9000;0.5967;0.6071;
1195.2000;0.5967;0.6046;
1195.5000;0.5942;0.5970;
1195.8000;0.5942;0.6046;
1196.1000;0.5958;0.6071;
1196.4000;0.5958;0.6071;
1196.7000;0.5958;0.6197;
1197.0000;0.5950;0.6222;
1197.3000;0.5950;0.6272;
1197.6000;0.5942;0.6172;
1197.9000;0.5991;0.6197;
1198.2000;0.5958;0.6096;
1198.5000;0.5958;0.6146;
1198.8000;0.5991;0.6197;
1199.1000;0.5934;0.6020;
1199.4000;0.5967;0.6146;
1199.7000;0.5967;0.6323;
1200.0000;0.5958;0.6272;
1200.3000;0.5958;0.6247;
1200.6000;0.5950;0.6146;
1200.9000;0.5950;0.6197;
1201.2000;0.5942;0.6146;
1201.5000;0.5950;0.6172;
1201.8000;0.5950;0.6222;
1202.1000;0.5918;0.6096;
1202.4000;0.5934;0.6096;
1202.7000;0.5950;0.6121;
1203.0000;0.5942;0.6071;
1203.3000;0.5983;0.6146;
1203.6000;0.5934;0.6020;
1203.9000;0.5926;0.5995;
1204.2000;0.5958;0.6046;
1204.5000;0.5983;0.6096;
1204.8000;0.5934;0.6020;
1205.1000;0.5950;0.6121;
1205.4000;0.5958;0.6121;
1205.7000;0.5934;0.5995;
1206.0000;0.5958;0.5995;
1206.3000;0.5950;0.6020;
1206.6000;0.5967;0.6046;
1206.9000;0.5942;0.5970;
1207.2000;0.6015;0.6247;
1207.5000;0.5934;0.5970;
1207.8000;0.5958;0.5970;
1208.1000;0.5950;0.5970;
1208.4000;0.5950;0.5995;
1208.7000;0.5950;0.5970;
1209.0000;0.5958;0.5945;
1209.3000;0.5958;0.5894;
1209.6000;0.5942;0.5869;
1209.9000;0.5958;0.5995;
1210.2000;0.5967;0.5995;
1210.5000;0.5950;0.5995;
1210.8000;0.5950;0.5970;
1211.1000;0.5934;0.5970;
1211.4000;0.5918;0.5970;
1211.7000;0.5958;0.6071;
1212.0000;0.5926;0.6020;
1212.3000;0.5950;0.6121;
1212.6000;0.5967;0.6146;
1212.9000;0.5893;0.5995;
1213.2000;0.5950;0.6197;
1213.5000;0.5942;0.6121;
1213.8000;0.5967;0.6146;
1214.1000;0.5967;0.6121;
1214.4000;0.5950;0.6096;
1214.7000;0.5950;0.6121;
1215.0000;0.5942;0.6071;
1215.3000;0.5958;0.6096;
1215.6000;0.5975;0.6197;
1215.9000;0.5942;0.6146;
1216.2000;0.5934;0.6071;
1216.5000;0.5942;0.6121;
1216.8000;0.5958;0.6096;
1217.1000;0.5942;0.6146;
1217.4000;0.5958;0.6146;
1217.7000;0.5967;0.6046;
1218.0000;0.5950;0.6046;
1218.3000;0.5958;0.6071;
1218.6000;0.5950;0.6071;
1218.9000;0.5975;0.6172;
1219.2000;0.5967;0.6121;
1219.5000;0.5902;0.6020;
1219.8000;0.5942;0.6096;
1220.1000;0.5934;0.6146;
1220.4000;0.5950;0.6222;
1220.7000;0.5958;0.6272;
1221.0000;0.5942;0.6197;
1221.3000;0.5958;0.6197;
1221.6000;0.5942;0.6247;
1221.9000;0.5950;0.6297;
1222.2000;0.5934;0.6197;
1222.5000;0.5934;0.6172;
1222.8000;0.5942;0.6121;
1223.1000;0.5942;0.6146;
1223.4000;0.5950;0.6197;
1223.7000;0.5942;0.6222;
1224.0000;0.5950;0.6146;
1224.3000;0.5934;0.6096;
1224.6000;0.5926;0.6046;
1224.9000;0.5942;0.6071;
1225.2000;0.5926;0.6020;
1225.5000;0.5934;0.6046;
1225.8000;0.5975;0.6020;
1226.1000;0.5942;0.5894;
1226.4000;0.5983;0.5970;
1226.7000;0.5942;0.5995;
1227.0000;0.5958;0.6071;
1227.3000;0.5950;0.5995;
1227.6000;0.5942;0.5995;
1227.9000;0.5958;0.6071;
1228.2000;0.5950;0.6071;
1228.5000;0.5942;0.6046;
1228.8000;0.5958;0.6071;
1229.1000;0.5950;0.6046;
1229.4000;0.5942;0.5970;
1229.7000;0.5958;0.5920;
1230.0000;0.5926;0.5945;
1230.3000;0.5942;0.6020;
1230.6000;0.5950;0.6020;
1230.9000;0.5950;0.5920;
1231.2000;0.5950;0.5869;
1231.5000;0.5942;0.5920;
1231.8000;0.5934;0.5995;
1232.1000;0.5950;0.6046;
1232.4000;0.5934;0.5945;
1232.7000;0.5934;0.5819;
1233.0000;0.5950;0.5794;
1233.3000;0.5950;0.5769;
1233.6000;0.5942;0.5819;
1233.9000;0.5934;0.5844;
1234.2000;0.5934;0.5844;
1234.5000;0.5942;0.5869;
1234.8000;0.5967;0.5819;
1235.1000;0.5950;0.5819;
1235.4000;0.5975;0.5894;
1235.7000;0.5967;0.5894;
1236.0000;0.5958;0.5970;
1236.3000;0.5958;0.5894;
1236.6000;0.5942;0.5794;
1236.9000;0.5934;0.5844;
1237.2000;0.5950;0.5844;
1237.5000;0.5934;0.5869;
1237.8000;0.5950;0.5819;
1238.1000;0.5942;0.5794;
1238.4000;0.5942;0.5844;
1238.7000;0.5942;0.5894;
1239.0000;0.5942;0.5920;
1239.3000;0.5958;0.5945;
1239.6000;0.5967;0.5894;
1239.9000;0.5958;0.5894;
1240.2000;0.5942;0.5794;
1240.5000;0.5950;0.5743;
1240.8000;0.5950;0.5718;
1241.1000;0.5950;0.5819;
1241.4000;0.5950;0.5844;
1241.7000;0.5942;0.5819;
1242.0000;0.5942;0.5794;
1242.3000;0.5942;0.5718;
1242.6000;0.5926;0.5668;
1242.9000;0.5918;0.5743;
1243.2000;0.5934;0.5819;
1243.5000;0.5950;0.5844;
1243.8000;0.5934;0.5794;
1244.1000;0.5991;0.5894;
1244.4000;0.5934;0.5693;
1244.7000;0.5942;0.5743;
1245.0000;0.5991;0.5945;
1245.3000;0.5942;0.5769;
1245.6000;0.5942;0.5844;
1245.9000;0.5942;0.5894;
1246.2000;0.5958;0.5869;
1246.5000;0.5926;0.5819;
1246.8000;0.5926;0.5819;
1247.1000;0.5934;0.5894;
1247.4000;0.5942;0.5920;
1247.7000;0.5934;0.5920;
1248.0000;0.5926;0.5869;
1248.3000;0.5902;0.5920;
1248.6000;0.5934;0.5970;
1248.9000;0.5942;0.6020;
1249.2000;0.5926;0.5945;
1249.5000;0.5942;0.5920;
1249.8000;0.5958;0.5869;
1250.1000;0.5910;0.5794;
1250.4000;0.5958;0.5920;
1250.7000;0.5942;0.5920;
1251.0000;0.5958;0.5945;
1251.3000;0.5958;0.5945;
1251.6000;0.5934;0.6020;
1251.9000;0.5934;0.6071;
1252.2000;0.5942;0.6071;
1252.5000;0.5942;0.6071;
1252.8000;0.5926;0.6096;
1253.1000;0.5934;0.6121;
1253.4000;0.5926;0.6121;
1253.7000;0.5934;0.6247;
1254.0000;0.5934;0.6222;
1254.3000;0.5926;0.6222;
1254.6000;0.5926;0.6172;
1254.9000;0.5942;0.6247;
1255.2000;0.5926;0.6197;
1255.5000;0.5942;0.6272;
1255.8000;0.5934;0.6297;
1256.1000;0.5950;0.6323;
1256.4000;0.5942;0.6247;
1256.7000;0.5950;0.6197;
1257.0000;0.5934;0.6247;
1257.3000;0.5942;0.6272;
1257.6000;0.5942;0.6222;
1257.9000;0.5950;0.6172;
1258.2000;0.5934;0.6146;
1258.5000;0.5934;0.6096;
1258.8000;0.5934;0.6096;
1259.1000;0.5958;0.6222;
1259.4000;0.5942;0.6247;
1259.7000;0.5942;0.6197;
1260.0000;0.5942;0.6172;
1260.3000;0.5942;0.6172;
1260.6000;0.5926;0.6046;
1260.9000;0.5942;0.5995;
1261.2000;0.5934;0.6046;
1261.5000;0.5934;0.6046;
1261.8000;0.5942;0.6071;
1262.1000;0.5926;0.5995;
1262.4000;0.5934;0.5970;
1262.7000;0.5934;0.5970;
1263.0000;0.5926;0.5945;
1263.3000;0.5918;0.5920;
1263.6000;0.5934;0.5894;
1263.9000;0.5926;0.5945;
1264.2000;0.5934;0.5995;
1264.5000;0.5942;0.6020;
1264.8000;0.5934;0.6071;
1265.1000;0.5926;0.6046;
1265.4000;0.5950;0.6121;
1265.7000;0.5934;0.6071;
1266.0000;0.5926;0.6121;
1266.3000;0.5942;0.6222;
1266.6000;0.5942;0.6121;
1266.9000;0.5958;0.6096;
1267.2000;0.5926;0.6046;
1267.5000;0.5942;0.6096;
1267.8000;0.5950;0.6071;
1268.1000;0.5942;0.6020;
1268.4000;0.5926;0.5970;
1268.7000;0.5934;0.5995;
1269.0000;0.5950;0.6096;
1269.3000;0.5958;0.6121;
1269.6000;0.5893;0.5844;
1269.9000;0.5934;0.5894;
1270.2000;0.5942;0.5970;
1270.5000;0.5918;0.5970;
1270.8000;0.5934;0.5945;
1271.1000;0.5950;0.6071;
1271.4000;0.5934;0.6020;
1271.7000;0.5934;0.6046;
1272.0000;0.5918;0.5970;
1272.3000;0.5950;0.6071;
1272.6000;0.5926;0.5995;
1272.9000;0.5942;0.6046;
1273.2000;0.5902;0.5970;
1273.5000;0.5926;0.5945;
1273.8000;0.5934;0.5920;
1274.1000;0.5918;0.5869;
1274.4000;0.5942;0.5869;
1274.7000;0.5934;0.5794;
1275.0000;0.5958;0.5844;
1275.3000;0.5942;0.5844;
1275.6000;0.5958;0.5970;
1275.9000;0.5999;0.6096;
1276.2000;0.5950;0.5970;
1276.5000;0.5918;0.5844;
1276.8000;0.5861;0.5769;
1277.1000;0.5845;0.5769;
1277.4000;0.5934;0.6020;
1277.7000;0.5991;0.6172;
1278.0000;0.5950;0.5995;
1278.3000;0.5934;0.5970;
1278.6000;0.5942;0.6046;
1278.9000;0.5926;0.5869;
1279.2000;0.5926;0.5920;
1279.5000;0.5934;0.5970;
1279.8000;0.5942;0.5844;
1280.1000;0.5926;0.5794;
1280.4000;0.5975;0.5970;
1280.7000;0.5934;0.5869;
1281.0000;0.5926;0.5844;
1281.3000;0.5934;0.5844;
1281.6000;0.5918;0.5819;
1281.9000;0.5934;0.5945;
1282.2000;0.5950;0.5995;
1282.5000;0.5991;0.6121;
1282.8000;0.5958;0.6121;
1283.1000;0.5942;0.5995;
1283.4000;0.5983;0.6121;
1283.7000;0.5918;0.5945;
1284.0000;0.5934;0.5920;
1284.3000;0.5918;0.5995;
1284.6000;0.5926;0.6046;
1284.9000;0.5934;0.5995;
1285.2000;0.5918;0.6020;
1285.5000;0.5926;0.6046;
1285.8000;0.5942;0.6121;
1286.1000;0.5950;0.6121;
1286.4000;0.5926;0.6146;
1286.7000;0.5934;0.6247;
1287.0000;0.5918;0.6071;
1287.3000;0.5934;0.6096;
1287.6000;0.5926;0.6071;
1287.9000;0.5910;0.6046;
1288.2000;0.5942;0.6146;
1288.5000;0.5926;0.6172;
1288.8000;0.5926;0.6121;
1289.1000;0.5934;0.5995;
1289.4000;0.5942;0.6020;
1289.7000;0.5991;0.6272;
1290.0000;0.5942;0.6146;
1290.3000;0.5926;0.6146;
1290.6000;0.5983;0.6348;
1290.9000;0.5926;0.6247;
1291.2000;0.5934;0.6297;
1291.5000;0.5942;0.6222;
1291.8000;0.5934;0.6146;
1292.1000;0.5950;0.6222;
1292.4000;0.5934;0.6146;
1292.7000;0.5902;0.6071;
1293.0000;0.5942;0.6222;
1293.3000;0.5958;0.6297;
1293.6000;0.5942;0.6323;
1293.9000;0.5885;0.6121;
1294.2000;0.5975;0.6323;
1294.5000;0.5942;0.6247;
1294.8000;0.5934;0.6222;
1295.1000;0.5950;0.6348;
1295.4000;0.5926;0.6323;
1295.7000;0.5926;0.6297;
1296.0000;0.5934;0.6323;
1296.3000;0.5902;0.6197;
1296.6000;0.5926;0.6247;
1296.9000;0.5934;0.6247;
1297.2000;0.5942;0.6222;
1297.5000;0.5910;0.6172;
1297.8000;0.5926;0.6222;
1298.1000;0.5934;0.6247;
1298.4000;0.5950;0.6197;
1298.7000;0.5950;0.6020;
1299.0000;0.5934;0.5945;
1299.3000;0.5934;0.5970;
1299.6000;0.5950;0.5970;
1299.9000;0.5975;0.6071;
1300.2000;0.5893;0.5869;
1300.5000;0.5926;0.5920;
1300.8000;0.5942;0.6046;
1301.1000;0.5942;0.6046;
1301.4000;0.5967;0.6121;
1301.7000;0.5918;0.6096;
1302.0000;0.5926;0.6222;
1302.3000;0.5934;0.6373;
1302.6000;0.5942;0.6373;
1302.9000;0.5942;0.6348;
1303.2000;0.5926;0.6323;
1303.5000;0.5975;0.6272;
1303.8000;0.5991;0.6247;
1304.1000;0.5926;0.6096;
1304.4000;0.5958;0.6121;
1304.7000;0.5869;0.5995;
1305.0000;0.5926;0.6096;
1305.3000;0.5934;0.6146;
1305.6000;0.5910;0.6046;
1305.9000;0.5934;0.6096;
1306.2000;0.5918;0.5995;
1306.5000;0.5902;0.6046;
1306.8000;0.5934;0.6121;
1307.1000;0.5934;0.6146;
1307.4000;0.6015;0.6323;
1307.7000;0.5926;0.6071;
1308.0000;0.5926;0.6046;
1308.3000;0.5950;0.6121;
1308.6000;0.5950;0.6096;
1308.9000;0.5958;0.6071;
1309.2000;0.5950;0.6096;
1309.5000;0.5950;0.6121;
1309.8000;0.5942;0.6121;
1310.1000;0.5950;0.6096;
1310.4000;0.5950;0.6020;
1310.7000;0.5934;0.5970;
1311.0000;0.5942;0.5995;
1311.3000;0.5950;0.5970;
1311.6000;0.5926;0.5945;
1311.9000;0.5926;0.5995;
1312.2000;0.5950;0.5945;
1312.5000;0.5934;0.5995;
1312.8000;0.5926;0.5844;
1313.1000;0.5950;0.5970;
1313.4000;0.5967;0.6146;
1313.7000;0.5950;0.6222;
1314.0000;0.5934;0.6146;
1314.3000;0.5934;0.6071;
1314.6000;0.5853;0.5894;
1314.9000;0.5918;0.6071;
1315.2000;0.5926;0.6020;
1315.5000;0.5918;0.5970;
1315.8000;0.5934;0.6046;
1316.1000;0.5934;0.6046;
1316.4000;0.5950;0.6096;
1316.7000;0.5934;0.6071;
1317.0000;0.5950;0.6146;
1317.3000;0.5902;0.6096;
1317.6000;0.5950;0.6071;
1317.9000;0.5910;0.5970;
1318.2000;0.5926;0.5970;
1318.5000;0.5926;0.5970;
1318.8000;0.5934;0.6046;
1319.1000;0.5934;0.6046;
1319.4000;0.5958;0.6121;
1319.7000;0.5934;0.6096;
1320.0000;0.5918;0.6121;
1320.3000;0.5934;0.6071;
1320.6000;0.5926;0.6071;
1320.9000;0.5934;0.6071;
1321.2000;0.5926;0.5995;
1321.5000;0.5926;0.5945;
1321.8000;0.5950;0.5920;
1322.1000;0.5942;0.5869;
1322.4000;0.5942;0.5894;
1322.7000;0.5950;0.5844;
1323.0000;0.5934;0.5844;
1323.3000;0.5950;0.5894;
1323.6000;0.5918;0.5844;
1323.9000;0.5934;0.5894;
1324.2000;0.5926;0.5869;
1324.5000;0.5910;0.5794;
1324.8000;0.5910;0.5844;
1325.1000;0.5934;0.5970;
1325.4000;0.5942;0.5995;
1325.7000;0.5934;0.5970;
1326.0000;0.5918;0.5920;
1326.3000;0.5934;0.5869;
1326.6000;0.5934;0.5995;
1326.9000;0.5975;0.6172;
1327.2000;0.5934;0.6096;
1327.5000;0.5950;0.6121;
1327.8000;0.5934;0.6020;
1328.1000;0.5942;0.6020;
1328.4000;0.5902;0.5844;
1328.7000;0.5926;0.5945;
1329.0000;0.5950;0.5995;
1329.3000;0.5926;0.6046;
1329.6000;0.5918;0.6020;
1329.9000;0.5950;0.6071;
1330.2000;0.5942;0.5995;
1330.5000;0.5942;0.6020;
1330.8000;0.5934;0.5970;
1331.1000;0.5934;0.6020;
1331.4000;0.5975;0.6096;
1331.7000;0.5942;0.5995;
1332.0000;0.5926;0.6020;
1332.3000;0.5926;0.6046;
1332.6000;0.5934;0.6046;
1332.9000;0.5934;0.6046;
1333.2000;0.5942;0.6020;
1333.5000;0.5934;0.6020;
1333.8000;0.5869;0.5844;
1334.1000;0.5942;0.6071;
1334.4000;0.5910;0.5945;
1334.7000;0.5918;0.5844;
1335.0000;0.5885;0.5769;
1335.3000;0.5926;0.5894;
1335.6000;0.5918;0.5920;
1335.9000;0.5926;0.5945;
1336.2000;0.5926;0.5945;
1336.5000;0.5942;0.5945;
1336.8000;0.5934;0.6020;
1337.1000;0.5942;0.6071;
1337.4000;0.5845;0.6020;
1337.7000;0.5934;0.6247;
1338.0000;0.5926;0.6197;
1338.3000;0.5918;0.6172;
1338.6000;0.5926;0.6297;
1338.9000;0.5926;0.6197;
1339.2000;0.5926;0.6172;
1339.5000;0.5902;0.6121;
1339.8000;0.5902;0.6020;
1340.1000;0.5918;0.6121;
1340.4000;0.5934;0.6121;
1340.7000;0.5926;0.6172;
1341.0000;0.5910;0.6146;
1341.3000;0.5918;0.6096;
1341.6000;0.5942;0.6046;
1341.9000;0.5950;0.6046;
1342.2000;0.5918;0.6071;
1342.5000;0.5934;0.6096;
1342.8000;0.5942;0.6071;
1343.1000;0.5942;0.6046;
1343.4000;0.5934;0.6096;
1343.7000;0.5926;0.6046;
1344.0000;0.5926;0.6020;
1344.3000;0.5926;0.6046;
1344.6000;0.5934;0.5995;
1344.9000;0.5926;0.5970;
1345.2000;0.5934;0.6020;
1345.5000;0.5918;0.5945;
1345.8000;0.5910;0.5920;
1346.1000;0.5926;0.5970;
1346.4000;0.5918;0.5995;
1346.7000;0.5926;0.6121;
1347.0000;0.5934;0.6146;
1347.3000;0.5926;0.6096;
1347.6000;0.5942;0.6071;
1347.9000;0.5934;0.6046;
1348.2000;0.5934;0.6071;
1348.5000;0.5934;0.6020;
1348.8000;0.5934;0.6071;
1349.1000;0.5918;0.5970;
1349.4000;0.5934;0.6121;
1349.7000;0.5926;0.6096;
1350.0000;0.5926;0.6146;
1350.3000;0.5918;0.6071;
1350.6000;0.5902;0.6020;
1350.9000;0.5918;0.6046;
1351.2000;0.5934;0.6046;
1351.5000;0.5918;0.6046;
1351.8000;0.5918;0.6020;
1352.1000;0.5934;0.5995;
1352.4000;0.5934;0.5945;
1352.7000;0.5934;0.5970;
1353.0000;0.5926;0.5995;
1353.3000;0.5942;0.6020;
1353.6000;0.5926;0.6020;
1353.9000;0.5934;0.5995;
1354.2000;0.5918;0.5920;
1354.5000;0.5934;0.6020;
1354.8000;0.5918;0.5945;
1355.1000;0.5918;0.5869;
1355.4000;0.5926;0.5894;
1355.7000;0.5926;0.5894;
1356.0000;0.5877;0.5819;
1356.3000;0.5934;0.5995;
1356.6000;0.5926;0.5945;
1356.9000;0.5942;0.5920;
1357.2000;0.5934;0.5920;
1357.5000;0.5926;0.5970;
1357.8000;0.5910;0.6020;
1358.1000;0.5926;0.6096;
1358.4000;0.5926;0.6046;
1358.7000;0.5910;0.5970;
1359.0000;0.5918;0.6046;
1359.3000;0.5918;0.6197;
1359.6000;0.5918;0.6247;
1359.9000;0.5918;0.6172;
1360.2000;0.5885;0.5970;
1360.5000;0.5918;0.6172;
1360.8000;0.5918;0.6096;
1361.1000;0.5934;0.6172;
1361.4000;0.5902;0.6172;
1361.7000;0.5910;0.6297;
1362.0000;0.5918;0.6222;
1362.3000;0.5918;0.6272;
1362.6000;0.5918;0.6247;
1362.9000;0.5918;0.6197;
1363.2000;0.5926;0.6172;
1363.5000;0.5926;0.6222;
1363.8000;0.5926;0.6146;
1364.1000;0.5918;0.6046;
1364.4000;0.5926;0.6146;
1364.7000;0.5934;0.6172;
1365.0000;0.5918;0.6046;
1365.3000;0.5918;0.6096;
1365.6000;0.5918;0.6121;
1365.9000;0.5926;0.6121;
1366.2000;0.5918;0.6071;
1366.5000;0.5918;0.6020;
1366.8000;0.5910;0.6096;
1367.1000;0.5869;0.6020;
1367.4000;0.5934;0.6197;
1367.7000;0.5926;0.6121;
1368.0000;0.5910;0.6071;
1368.3000;0.5934;0.6197;
1368.6000;0.5934;0.6146;
1368.9000;0.5934;0.6146;
1369.2000;0.5926;0.6096;
1369.5000;0.5934;0.6197;
1369.8000;0.5934;0.6247;
1370.1000;0.5885;0.6096;
1370.4000;0.5926;0.6046;
1370.7000;0.5926;0.6071;
1371.0000;0.5918;0.6121;
1371.3000;0.5926;0.6272;
1371.6000;0.5926;0.6247;
1371.9000;0.5934;0.6247;
1372.2000;0.5918;0.6172;
1372.5000;0.5926;0.6121;
1372.8000;0.5918;0.6146;
1373.1000;0.5926;0.6146;
1373.4000;0.5926;0.6197;
1373.7000;0.5934;0.6172;
1374.0000;0.5926;0.6146;
1374.3000;0.5918;0.6197;
1374.6000;0.5918;0.6272;
1374.9000;0.5926;0.6348;
1375.2000;0.5926;0.6373;
1375.5000;0.5910;0.6323;
1375.8000;0.5893;0.6247;
1376.1000;0.5918;0.6247;
1376.4000;0.5926;0.6247;
1376.7000;0.5910;0.6222;
1377.0000;0.5910;0.6247;
1377.3000;0.5934;0.6247;
1377.6000;0.5934;0.6172;
1377.9000;0.5918;0.6146;
1378.2000;0.5926;0.6146;
1378.5000;0.5918;0.6197;
1378.8000;0.5934;0.6222;
1379.1000;0.5926;0.6172;
1379.4000;0.5918;0.6247;
1379.7000;0.5918;0.6297;
1380.0000;0.5926;0.6323;
1380.3000;0.5918;0.6272;
1380.6000;0.5910;0.6247;
1380.9000;0.5926;0.6272;
1381.2000;0.5885;0.6172;
1381.5000;0.5934;0.6272;
1381.8000;0.5918;0.6247;
1382.1000;0.5926;0.6272;
1382.4000;0.5926;0.6172;
1382.7000;0.5926;0.6197;
1383.0000;0.5910;0.6197;
1383.3000;0.5926;0.6222;
1383.6000;0.5910;0.6146;
1383.9000;0.5942;0.6172;
1384.2000;0.5926;0.6121;
1384.5000;0.5926;0.6071;
1384.8000;0.5926;0.6071;
1385.1000;0.5918;0.5970;
1385.4000;0.5926;0.5945;
1385.7000;0.5918;0.5970;
1386.0000;0.5934;0.6046;
1386.3000;0.5926;0.6020;
1386.6000;0.5934;0.6121;
1386.9000;0.5918;0.6121;
1387.2000;0.5902;0.6046;
1387.5000;0.5983;0.6247;
1387.8000;0.5934;0.6071;
1388.1000;0.5934;0.6020;
1388.4000;0.5926;0.6046;
1388.7000;0.5918;0.6020;
1389.0000;0.5934;0.6096;
1389.3000;0.5926;0.6096;
1389.6000;0.5967;0.6247;
1389.9000;0.5910;0.6197;
1390.2000;0.5910;0.6146;
1390.5000;0.5910;0.6071;
1390.8000;0.5926;0.6096;
1391.1000;0.5950;0.6121;
1391.4000;0.5942;0.6046;
1391.7000;0.5934;0.5945;
1392.0000;0.5885;0.5794;
1392.3000;0.5983;0.6096;
1392.6000;0.5942;0.6071;
1392.9000;0.5942;0.6096;
1393.2000;0.5934;0.6121;
1393.5000;0.5942;0.6096;
1393.8000;0.5918;0.6096;
1394.1000;0.5918;0.6096;
1394.4000;0.5902;0.6146;
1394.7000;0.5877;0.6020;
1395.0000;0.5926;0.6172;
1395.3000;0.5918;0.6121;
1395.6000;0.5918;0.6172;
1395.9000;0.5910;0.6096;
1396.2000;0.5918;0.6096;
1396.5000;0.5926;0.6046;
1396.8000;0.5942;0.6121;
1397.1000;0.5902;0.6020;
1397.4000;0.5918;0.6046;
1397.7000;0.5942;0.6146;
1398.0000;0.5942;0.6146;
1398.3000;0.5926;0.6146;
1398.6000;0.5885;0.5945;
1398.9000;0.5934;0.5970;
1399.2000;0.5918;0.5844;
1399.5000;0.5934;0.5945;
1399.8000;0.5934;0.5995;
