time/ms;Fluo/V;P700 deltaI/I x10³;
-199.8000;0.5022;0.8337;
-199.5000;0.4949;0.8111;
-199.2000;0.4933;0.8035;
-198.9000;0.4974;0.8035;
-198.6000;0.4957;0.7960;
-198.3000;0.4941;0.7884;
-198.0000;0.4949;0.7758;
-197.7000;0.4949;0.7733;
-197.4000;0.4949;0.7708;
-197.1000;0.4949;0.7708;
-196.8000;0.4949;0.7708;
-196.5000;0.4900;0.7607;
-196.2000;0.4990;0.7783;
-195.9000;0.4949;0.7682;
-195.6000;0.4949;0.7682;
-195.3000;0.4884;0.7557;
-195.0000;0.4965;0.7808;
-194.7000;0.4957;0.7808;
-194.4000;0.4974;0.7834;
-194.1000;0.4933;0.7758;
-193.8000;0.4965;0.7934;
-193.5000;0.4941;0.7884;
-193.2000;0.4957;0.7934;
-192.9000;0.4941;0.7960;
-192.6000;0.4949;0.7985;
-192.3000;0.4965;0.8060;
-192.0000;0.4949;0.8035;
-191.7000;0.4941;0.7934;
-191.4000;0.4949;0.7960;
-191.1000;0.4957;0.7934;
-190.8000;0.4965;0.7909;
-190.5000;0.4965;0.7909;
-190.2000;0.4957;0.7884;
-189.9000;0.4965;0.7884;
-189.6000;0.4974;0.7909;
-189.3000;0.4949;0.7783;
-189.0000;0.4949;0.7884;
-188.7000;0.4941;0.7834;
-188.4000;0.4957;0.7985;
-188.1000;0.4982;0.8060;
-187.8000;0.4957;0.7909;
-187.5000;0.4949;0.7859;
-187.2000;0.4974;0.7834;
-186.9000;0.4949;0.7783;
-186.6000;0.4925;0.7783;
-186.3000;0.4933;0.7758;
-186.0000;0.4941;0.7733;
-185.7000;0.4908;0.7682;
-185.4000;0.4917;0.7682;
-185.1000;0.4941;0.7758;
-184.8000;0.4949;0.7808;
-184.5000;0.4917;0.7657;
-184.2000;0.4941;0.7758;
-183.9000;0.4941;0.7657;
-183.6000;0.4941;0.7708;
-183.3000;0.4941;0.7632;
-183.0000;0.4941;0.7582;
-182.7000;0.4949;0.7657;
-182.4000;0.4957;0.7708;
-182.1000;0.4974;0.7834;
-181.8000;0.4949;0.7783;
-181.5000;0.4933;0.7808;
-181.2000;0.4941;0.7708;
-180.9000;0.4925;0.7758;
-180.6000;0.4941;0.7783;
-180.3000;0.4941;0.7758;
-180.0000;0.4974;0.7783;
-179.7000;0.4949;0.7808;
-179.4000;0.4965;0.7884;
-179.1000;0.4949;0.7884;
-178.8000;0.4957;0.8010;
-178.5000;0.4900;0.7985;
-178.2000;0.4998;0.8262;
-177.9000;0.4965;0.8136;
-177.6000;0.4957;0.8161;
-177.3000;0.4974;0.8262;
-177.0000;0.4949;0.8237;
-176.7000;0.4965;0.8136;
-176.4000;0.4965;0.8111;
-176.1000;0.4933;0.8060;
-175.8000;0.4957;0.8211;
-175.5000;0.4974;0.8262;
-175.2000;0.4957;0.8211;
-174.9000;0.4949;0.8262;
-174.6000;0.4957;0.8237;
-174.3000;0.4941;0.8237;
-174.0000;0.5031;0.8388;
-173.7000;0.4974;0.8262;
-173.4000;0.5039;0.8388;
-173.1000;0.4957;0.8211;
-172.8000;0.4941;0.8211;
-172.5000;0.4949;0.8186;
-172.2000;0.4957;0.8186;
-171.9000;0.4965;0.8186;
-171.6000;0.4941;0.8136;
-171.3000;0.4941;0.8086;
-171.0000;0.4957;0.8060;
-170.7000;0.4974;0.8136;
-170.4000;0.4941;0.8010;
-170.1000;0.4949;0.8060;
-169.8000;0.4998;0.8161;
-169.5000;0.4974;0.8060;
-169.2000;0.4957;0.7934;
-168.9000;0.4941;0.7960;
-168.6000;0.4949;0.7985;
-168.3000;0.4957;0.7960;
-168.0000;0.4949;0.7884;
-167.7000;0.4941;0.7934;
-167.4000;0.4949;0.7934;
-167.1000;0.4941;0.7909;
-166.8000;0.4917;0.7834;
-166.5000;0.4949;0.7909;
-166.2000;0.4949;0.7960;
-165.9000;0.4933;0.7960;
-165.6000;0.4957;0.8010;
-165.3000;0.4933;0.7960;
-165.0000;0.4941;0.8035;
-164.7000;0.4949;0.8060;
-164.4000;0.4949;0.8111;
-164.1000;0.4957;0.8136;
-163.8000;0.4957;0.8161;
-163.5000;0.4941;0.8060;
-163.2000;0.4982;0.8136;
-162.9000;0.4941;0.8035;
-162.6000;0.4933;0.8010;
-162.3000;0.4957;0.7985;
-162.0000;0.4957;0.8035;
-161.7000;0.4949;0.8086;
-161.4000;0.4925;0.8035;
-161.1000;0.4957;0.8010;
-160.8000;0.4941;0.7834;
-160.5000;0.4933;0.7783;
-160.2000;0.4957;0.7808;
-159.9000;0.4941;0.7758;
-159.6000;0.4949;0.7859;
-159.3000;0.4933;0.7859;
-159.0000;0.4949;0.7859;
-158.7000;0.4933;0.7783;
-158.4000;0.4941;0.7758;
-158.1000;0.4965;0.7859;
-157.8000;0.4957;0.7909;
-157.5000;0.4957;0.7909;
-157.2000;0.4949;0.7960;
-156.9000;0.4941;0.8010;
-156.6000;0.4925;0.8060;
-156.3000;0.4990;0.8237;
-156.0000;0.4957;0.8211;
-155.7000;0.4965;0.8186;
-155.4000;0.4965;0.8161;
-155.1000;0.4949;0.8086;
-154.8000;0.4941;0.8035;
-154.5000;0.4974;0.8111;
-154.2000;0.5047;0.8413;
-153.9000;0.4925;0.8060;
-153.6000;0.4941;0.8035;
-153.3000;0.4949;0.8010;
-153.0000;0.4965;0.8035;
-152.7000;0.4957;0.7985;
-152.4000;0.4949;0.7909;
-152.1000;0.4933;0.7834;
-151.8000;0.4957;0.7884;
-151.5000;0.4982;0.7985;
-151.2000;0.4965;0.8010;
-150.9000;0.4933;0.7985;
-150.6000;0.4933;0.8010;
-150.3000;0.4965;0.8136;
-150.0000;0.4990;0.8211;
-149.7000;0.4957;0.8111;
-149.4000;0.5047;0.8262;
-149.1000;0.4949;0.8010;
-148.8000;0.4965;0.7985;
-148.5000;0.4941;0.7859;
-148.2000;0.4949;0.7859;
-147.9000;0.4965;0.7909;
-147.6000;0.4949;0.7884;
-147.3000;0.4941;0.7934;
-147.0000;0.4933;0.7909;
-146.7000;0.4949;0.7884;
-146.4000;0.4949;0.7909;
-146.1000;0.4949;0.7884;
-145.8000;0.4949;0.7884;
-145.5000;0.4957;0.7909;
-145.2000;0.4949;0.7985;
-144.9000;0.4957;0.8136;
-144.6000;0.4965;0.8237;
-144.3000;0.4982;0.8237;
-144.0000;0.4957;0.8111;
-143.7000;0.4949;0.8111;
-143.4000;0.4957;0.8111;
-143.1000;0.4949;0.8111;
-142.8000;0.4957;0.8186;
-142.5000;0.4965;0.8161;
-142.2000;0.4933;0.8035;
-141.9000;0.4941;0.8086;
-141.6000;0.4965;0.8161;
-141.3000;0.4957;0.8111;
-141.0000;0.4965;0.8161;
-140.7000;0.4941;0.8010;
-140.4000;0.4949;0.7934;
-140.1000;0.4965;0.7909;
-139.8000;0.4965;0.7909;
-139.5000;0.4974;0.7884;
-139.2000;0.4965;0.7834;
-138.9000;0.4965;0.7909;
-138.6000;0.4965;0.7909;
-138.3000;0.4925;0.7884;
-138.0000;0.4949;0.8010;
-137.7000;0.5039;0.8337;
-137.4000;0.4941;0.8111;
-137.1000;0.4957;0.8136;
-136.8000;0.4941;0.8086;
-136.5000;0.4957;0.8186;
-136.2000;0.4957;0.8237;
-135.9000;0.4965;0.8136;
-135.6000;0.4957;0.8111;
-135.3000;0.4843;0.7884;
-135.0000;0.4949;0.8161;
-134.7000;0.4949;0.8035;
-134.4000;0.4949;0.7985;
-134.1000;0.4974;0.8086;
-133.8000;0.4965;0.8111;
-133.5000;0.4965;0.8161;
-133.2000;0.4949;0.8111;
-132.9000;0.4892;0.7934;
-132.6000;0.4974;0.8136;
-132.3000;0.4957;0.8111;
-132.0000;0.4957;0.8136;
-131.7000;0.4941;0.8086;
-131.4000;0.4941;0.8010;
-131.1000;0.4957;0.8086;
-130.8000;0.4933;0.8086;
-130.5000;0.4941;0.8060;
-130.2000;0.4949;0.7934;
-129.9000;0.4965;0.7884;
-129.6000;0.4949;0.7934;
-129.3000;0.4941;0.7859;
-129.0000;0.4941;0.7884;
-128.7000;0.4949;0.7934;
-128.4000;0.4982;0.8086;
-128.1000;0.4949;0.8010;
-127.8000;0.4933;0.8035;
-127.5000;0.4900;0.7934;
-127.2000;0.4925;0.7884;
-126.9000;0.4917;0.7859;
-126.6000;0.4949;0.7884;
-126.3000;0.4974;0.7934;
-126.0000;0.4998;0.8136;
-125.7000;0.4949;0.8086;
-125.4000;0.5006;0.8262;
-125.1000;0.4933;0.8060;
-124.8000;0.4941;0.8111;
-124.5000;0.4925;0.8060;
-124.2000;0.4933;0.8086;
-123.9000;0.4949;0.8010;
-123.6000;0.4957;0.7934;
-123.3000;0.4941;0.7985;
-123.0000;0.4941;0.8010;
-122.7000;0.4957;0.8086;
-122.4000;0.4957;0.8060;
-122.1000;0.4965;0.8086;
-121.8000;0.4965;0.8060;
-121.5000;0.4949;0.7985;
-121.2000;0.4965;0.8086;
-120.9000;0.4941;0.8010;
-120.6000;0.4965;0.7985;
-120.3000;0.4974;0.8010;
-120.0000;0.4957;0.8010;
-119.7000;0.4974;0.8086;
-119.4000;0.4949;0.8060;
-119.1000;0.4949;0.8010;
-118.8000;0.4941;0.8111;
-118.5000;0.4949;0.8161;
-118.2000;0.4965;0.8211;
-117.9000;0.4949;0.8161;
-117.6000;0.4917;0.8111;
-117.3000;0.4974;0.8237;
-117.0000;0.4965;0.8262;
-116.7000;0.4908;0.8111;
-116.4000;0.4949;0.8262;
-116.1000;0.4957;0.8312;
-115.8000;0.4965;0.8363;
-115.5000;0.4990;0.8438;
-115.2000;0.4965;0.8262;
-114.9000;0.4965;0.8237;
-114.6000;0.4974;0.8237;
-114.3000;0.4974;0.8312;
-114.0000;0.4925;0.8111;
-113.7000;0.4965;0.8136;
-113.4000;0.4982;0.8262;
-113.1000;0.4974;0.8262;
-112.8000;0.4949;0.8186;
-112.5000;0.5039;0.8413;
-112.2000;0.4957;0.8211;
-111.9000;0.4949;0.8237;
-111.6000;0.4941;0.8136;
-111.3000;0.4917;0.7985;
-111.0000;0.4957;0.8086;
-110.7000;0.4941;0.8136;
-110.4000;0.4949;0.8161;
-110.1000;0.4957;0.8211;
-109.8000;0.4965;0.8237;
-109.5000;0.4974;0.8237;
-109.2000;0.4965;0.8186;
-108.9000;0.4965;0.8086;
-108.6000;0.4957;0.8035;
-108.3000;0.4949;0.7985;
-108.0000;0.4908;0.7859;
-107.7000;0.4949;0.7909;
-107.4000;0.4998;0.8010;
-107.1000;0.4941;0.7934;
-106.8000;0.4965;0.8035;
-106.5000;0.4917;0.7985;
-106.2000;0.4949;0.8060;
-105.9000;0.4957;0.8060;
-105.6000;0.4933;0.7985;
-105.3000;0.4957;0.8060;
-105.0000;0.4965;0.8010;
-104.7000;0.4957;0.8010;
-104.4000;0.4990;0.8060;
-104.1000;0.4941;0.8035;
-103.8000;0.4941;0.8010;
-103.5000;0.4941;0.8060;
-103.2000;0.4949;0.7985;
-102.9000;0.4957;0.7960;
-102.6000;0.4965;0.8010;
-102.3000;0.4974;0.8035;
-102.0000;0.4965;0.8035;
-101.7000;0.4957;0.8010;
-101.4000;0.4965;0.7985;
-101.1000;0.4974;0.8086;
-100.8000;0.4957;0.7884;
-100.5000;0.4957;0.7884;
-100.2000;0.4949;0.7808;
-99.9000;0.4884;0.7607;
-99.6000;0.4974;0.7834;
-99.3000;0.4949;0.7859;
-99.0000;0.4957;0.7909;
-98.7000;0.4949;0.7934;
-98.4000;0.4957;0.8010;
-98.1000;0.4965;0.7985;
-97.8000;0.4949;0.7985;
-97.5000;0.4957;0.8010;
-97.2000;0.4941;0.7960;
-96.9000;0.4941;0.7960;
-96.6000;0.4982;0.7960;
-96.3000;0.4941;0.7909;
-96.0000;0.4949;0.7934;
-95.7000;0.4957;0.7960;
-95.4000;0.4941;0.7934;
-95.1000;0.4933;0.7960;
-94.8000;0.4941;0.7909;
-94.5000;0.4949;0.8035;
-94.2000;0.4957;0.8186;
-93.9000;0.4884;0.8010;
-93.6000;0.4982;0.8161;
-93.3000;0.4982;0.8136;
-93.0000;0.4917;0.7960;
-92.7000;0.4933;0.7960;
-92.4000;0.4933;0.7909;
-92.1000;0.4949;0.7884;
-91.8000;0.4957;0.8060;
-91.5000;0.4892;0.7960;
-91.2000;0.4982;0.8211;
-90.9000;0.4941;0.8086;
-90.6000;0.4957;0.8060;
-90.3000;0.4908;0.7985;
-90.0000;0.4933;0.8035;
-89.7000;0.4957;0.8237;
-89.4000;0.4941;0.8136;
-89.1000;0.4965;0.8111;
-88.8000;0.4949;0.7985;
-88.5000;0.4908;0.7834;
-88.2000;0.4949;0.7934;
-87.9000;0.4957;0.8010;
-87.6000;0.4965;0.8060;
-87.3000;0.4957;0.8060;
-87.0000;0.4925;0.8035;
-86.7000;0.4957;0.8086;
-86.4000;0.4949;0.8086;
-86.1000;0.4957;0.8136;
-85.8000;0.4941;0.8086;
-85.5000;0.4957;0.8060;
-85.2000;0.4949;0.8111;
-84.9000;0.4949;0.8186;
-84.6000;0.4949;0.8060;
-84.3000;0.4957;0.8060;
-84.0000;0.4957;0.8161;
-83.7000;0.4957;0.8186;
-83.4000;0.4949;0.8211;
-83.1000;0.4957;0.8262;
-82.8000;0.4949;0.8237;
-82.5000;0.4908;0.8060;
-82.2000;0.4949;0.8211;
-81.9000;0.4949;0.8186;
-81.6000;0.4957;0.8237;
-81.3000;0.4949;0.8161;
-81.0000;0.4974;0.8136;
-80.7000;0.4941;0.8086;
-80.4000;0.4941;0.8035;
-80.1000;0.4965;0.8035;
-79.8000;0.4957;0.8060;
-79.5000;0.4965;0.8010;
-79.2000;0.4974;0.8111;
-78.9000;0.4982;0.8111;
-78.6000;0.4965;0.8060;
-78.3000;0.4949;0.8060;
-78.0000;0.4965;0.8111;
-77.7000;0.5047;0.8388;
-77.4000;0.4974;0.8161;
-77.1000;0.4957;0.8111;
-76.8000;0.4949;0.8086;
-76.5000;0.4949;0.8161;
-76.2000;0.4957;0.8186;
-75.9000;0.4957;0.8136;
-75.6000;0.4965;0.8060;
-75.3000;0.4957;0.8136;
-75.0000;0.4933;0.7985;
-74.7000;0.4965;0.8035;
-74.4000;0.4957;0.8010;
-74.1000;0.4900;0.7960;
-73.8000;0.4908;0.7985;
-73.5000;0.4949;0.8161;
-73.2000;0.4974;0.8186;
-72.9000;0.4957;0.8086;
-72.6000;0.4957;0.8161;
-72.3000;0.4957;0.8287;
-72.0000;0.4974;0.8363;
-71.7000;0.4974;0.8337;
-71.4000;0.4957;0.8287;
-71.1000;0.4974;0.8363;
-70.8000;0.4957;0.8211;
-70.5000;0.4957;0.8237;
-70.2000;0.4949;0.8186;
-69.9000;0.4949;0.8237;
-69.6000;0.4949;0.8211;
-69.3000;0.4941;0.8211;
-69.0000;0.4949;0.8287;
-68.7000;0.4949;0.8363;
-68.4000;0.4957;0.8438;
-68.1000;0.4949;0.8363;
-67.8000;0.4965;0.8312;
-67.5000;0.4957;0.8237;
-67.2000;0.4941;0.8111;
-66.9000;0.4949;0.8060;
-66.6000;0.4933;0.8060;
-66.3000;0.4957;0.8111;
-66.0000;0.4941;0.8161;
-65.7000;0.4941;0.8161;
-65.4000;0.4925;0.8136;
-65.1000;0.4965;0.8186;
-64.8000;0.4941;0.8086;
-64.5000;0.4933;0.8060;
-64.2000;0.4892;0.7909;
-63.9000;0.4941;0.8111;
-63.6000;0.4965;0.8186;
-63.3000;0.4965;0.8161;
-63.0000;0.4933;0.8186;
-62.7000;0.4965;0.8237;
-62.4000;0.4957;0.8211;
-62.1000;0.4941;0.8086;
-61.8000;0.4965;0.8060;
-61.5000;0.4925;0.7934;
-61.2000;0.4949;0.7960;
-60.9000;0.4965;0.8111;
-60.6000;0.4949;0.8161;
-60.3000;0.4941;0.8211;
-60.0000;0.4957;0.8312;
-59.7000;0.4965;0.8262;
-59.4000;0.4965;0.8211;
-59.1000;0.4957;0.8237;
-58.8000;0.4982;0.8211;
-58.5000;0.4908;0.8111;
-58.2000;0.4949;0.8262;
-57.9000;0.4941;0.8186;
-57.6000;0.4876;0.8035;
-57.3000;0.4949;0.8287;
-57.0000;0.4957;0.8237;
-56.7000;0.4965;0.8161;
-56.4000;0.4876;0.7859;
-56.1000;0.5022;0.8186;
-55.8000;0.4957;0.7960;
-55.5000;0.4957;0.7934;
-55.2000;0.4957;0.8035;
-54.9000;0.4949;0.7985;
-54.6000;0.4965;0.7934;
-54.3000;0.4917;0.7783;
-54.0000;0.4941;0.7884;
-53.7000;0.4965;0.7909;
-53.4000;0.4949;0.7985;
-53.1000;0.4949;0.8035;
-52.8000;0.4990;0.8186;
-52.5000;0.4949;0.8111;
-52.2000;0.4982;0.8086;
-51.9000;0.4965;0.8010;
-51.6000;0.4908;0.7884;
-51.3000;0.5014;0.8086;
-51.0000;0.4957;0.7985;
-50.7000;0.4933;0.7960;
-50.4000;0.4941;0.7960;
-50.1000;0.4941;0.7909;
-49.8000;0.4965;0.7985;
-49.5000;0.4957;0.8086;
-49.2000;0.4957;0.8211;
-48.9000;0.4949;0.8237;
-48.6000;0.4941;0.8161;
-48.3000;0.4965;0.8237;
-48.0000;0.4974;0.8262;
-47.7000;0.4957;0.8287;
-47.4000;0.4941;0.8363;
-47.1000;0.4949;0.8337;
-46.8000;0.4933;0.8211;
-46.5000;0.4900;0.8060;
-46.2000;0.4949;0.8161;
-45.9000;0.4949;0.8035;
-45.6000;0.4965;0.8111;
-45.3000;0.4941;0.8010;
-45.0000;0.4933;0.7934;
-44.7000;0.4957;0.7985;
-44.4000;0.4990;0.8161;
-44.1000;0.4941;0.8161;
-43.8000;0.4933;0.8211;
-43.5000;0.4957;0.8312;
-43.2000;0.4974;0.8237;
-42.9000;0.4949;0.8186;
-42.6000;0.4933;0.8060;
-42.3000;0.4965;0.8161;
-42.0000;0.5031;0.8337;
-41.7000;0.4941;0.8161;
-41.4000;0.4843;0.7884;
-41.1000;0.4925;0.8161;
-40.8000;0.4957;0.8136;
-40.5000;0.4941;0.8111;
-40.2000;0.4941;0.8111;
-39.9000;0.4949;0.8186;
-39.6000;0.4949;0.8161;
-39.3000;0.4957;0.8211;
-39.0000;0.4941;0.8186;
-38.7000;0.4941;0.8186;
-38.4000;0.4941;0.8161;
-38.1000;0.4974;0.8186;
-37.8000;0.4957;0.8136;
-37.5000;0.4941;0.8086;
-37.2000;0.4957;0.8086;
-36.9000;0.4949;0.8060;
-36.6000;0.4957;0.8035;
-36.3000;0.4941;0.8060;
-36.0000;0.4974;0.7960;
-35.7000;0.4965;0.7934;
-35.4000;0.4990;0.8086;
-35.1000;0.4982;0.8086;
-34.8000;0.4990;0.8186;
-34.5000;0.4957;0.8060;
-34.2000;0.4868;0.7783;
-33.9000;0.4941;0.8010;
-33.6000;0.4917;0.7960;
-33.3000;0.4933;0.8060;
-33.0000;0.4949;0.8186;
-32.7000;0.4900;0.8010;
-32.4000;0.4933;0.8060;
-32.1000;0.4925;0.8010;
-31.8000;0.4965;0.7985;
-31.5000;0.4941;0.7985;
-31.2000;0.4941;0.8035;
-30.9000;0.4941;0.8035;
-30.6000;0.4941;0.8136;
-30.3000;0.4933;0.7985;
-30.0000;0.4925;0.7934;
-29.7000;0.4949;0.7960;
-29.4000;0.4941;0.7884;
-29.1000;0.4941;0.7985;
-28.8000;0.4933;0.7934;
-28.5000;0.4941;0.7960;
-28.2000;0.4941;0.7934;
-27.9000;0.4957;0.8035;
-27.6000;0.4957;0.8136;
-27.3000;0.4965;0.8136;
-27.0000;0.4957;0.8136;
-26.7000;0.4957;0.8111;
-26.4000;0.4957;0.8060;
-26.1000;0.4933;0.8060;
-25.8000;0.4957;0.8086;
-25.5000;0.4949;0.8086;
-25.2000;0.4965;0.8060;
-24.9000;0.4949;0.8035;
-24.6000;0.4965;0.8136;
-24.3000;0.4949;0.8136;
-24.0000;0.4949;0.8060;
-23.7000;0.4949;0.8060;
-23.4000;0.4941;0.8060;
-23.1000;0.4941;0.8035;
-22.8000;0.5022;0.8161;
-22.5000;0.4941;0.7934;
-22.2000;0.4900;0.7783;
-21.9000;0.4965;0.7909;
-21.6000;0.5104;0.8363;
-21.3000;0.4949;0.7985;
-21.0000;0.4965;0.8035;
-20.7000;0.4908;0.7909;
-20.4000;0.4965;0.8035;
-20.1000;0.4974;0.8035;
-19.8000;0.4941;0.7960;
-19.5000;0.4933;0.7960;
-19.2000;0.4949;0.8035;
-18.9000;0.4933;0.8035;
-18.6000;0.4933;0.8111;
-18.3000;0.4933;0.8136;
-18.0000;0.4957;0.8161;
-17.7000;0.4974;0.8186;
-17.4000;0.5055;0.8363;
-17.1000;0.4957;0.7960;
-16.8000;0.4965;0.8010;
-16.5000;0.4965;0.7934;
-16.2000;0.4998;0.7960;
-15.9000;0.4957;0.7884;
-15.6000;0.4957;0.7909;
-15.3000;0.4868;0.7657;
-15.0000;0.4949;0.7834;
-14.7000;0.4949;0.7859;
-14.4000;0.4974;0.7934;
-14.1000;0.4957;0.7985;
-13.8000;0.4949;0.8010;
-13.5000;0.4941;0.7985;
-13.2000;0.4941;0.8010;
-12.9000;0.4990;0.8060;
-12.6000;0.4941;0.7934;
-12.3000;0.4949;0.7909;
-12.0000;0.4965;0.7934;
-11.7000;0.4957;0.7960;
-11.4000;0.4965;0.8086;
-11.1000;0.4941;0.8136;
-10.8000;0.4949;0.8161;
-10.5000;0.4933;0.8161;
-10.2000;0.4949;0.8186;
-9.9000;0.4965;0.8186;
-9.6000;0.4957;0.8136;
-9.3000;0.4933;0.8086;
-9.0000;0.4957;0.8161;
-8.7000;0.4965;0.8136;
-8.4000;0.4949;0.8060;
-8.1000;0.4941;0.8086;
-7.8000;0.4949;0.8186;
-7.5000;0.4949;0.8237;
-7.2000;0.4949;0.8161;
-6.9000;0.4941;0.8111;
-6.6000;0.4957;0.8186;
-6.3000;0.4900;0.8035;
-6.0000;0.4982;0.8337;
-5.7000;0.4917;0.8237;
-5.4000;0.4933;0.8262;
-5.1000;0.4949;0.8262;
-4.8000;0.4933;0.8161;
-4.5000;0.4941;0.8237;
-4.2000;0.4949;0.8211;
-3.9000;0.4949;0.8186;
-3.6000;0.4982;0.8262;
-3.3000;0.4941;0.8211;
-3.0000;0.4949;0.8237;
-2.7000;0.4957;0.8186;
-2.4000;0.4965;0.8136;
-2.1000;0.4974;0.8111;
-1.8000;0.4965;0.8136;
-1.5000;0.4949;0.7985;
-1.2000;0.4957;0.7934;
-0.9000;0.4957;0.7960;
-0.6000;0.5031;0.8161;
-0.3000;0.4957;0.7934;
0.0000;0.4957;0.7934;
0.3000;0.5153;0.7834;
0.6000;0.5543;0.8363;
0.9000;0.5796;0.8740;
1.2000;0.6032;0.9143;
1.5000;0.6252;0.9597;
1.8000;0.6365;0.9824;
2.1000;0.6488;1.0227;
2.4000;0.6569;1.0378;
2.7000;0.6675;1.0680;
3.0000;0.6716;1.0831;
3.3000;0.6716;1.0831;
3.6000;0.6878;1.1007;
3.9000;0.6878;1.1007;
4.2000;0.6927;1.1083;
4.5000;0.6960;1.1184;
4.8000;0.6960;1.1184;
5.1000;0.7049;1.1234;
5.4000;0.7082;1.1360;
5.7000;0.7114;1.1335;
6.0000;0.7147;1.1259;
6.3000;0.7179;1.1310;
6.6000;0.7245;1.1461;
6.9000;0.7245;1.1385;
7.2000;0.7375;1.1612;
7.5000;0.7302;1.1385;
7.8000;0.7359;1.1461;
8.1000;0.7367;1.1461;
8.4000;0.7391;1.1410;
8.7000;0.7432;1.1385;
9.0000;0.7464;1.1360;
9.3000;0.7497;1.1486;
9.6000;0.7489;1.1461;
9.9000;0.7538;1.1310;
10.2000;0.7546;1.1284;
10.5000;0.7554;1.1234;
10.8000;0.7570;1.1284;
11.1000;0.7595;1.1360;
11.4000;0.7627;1.1410;
11.7000;0.7660;1.1385;
12.0000;0.7652;1.1259;
12.3000;0.7684;1.1284;
12.6000;0.7717;1.1335;
12.9000;0.7733;1.1284;
13.2000;0.7749;1.1335;
13.5000;0.7782;1.1436;
13.8000;0.7782;1.1461;
14.1000;0.7782;1.1562;
14.4000;0.7806;1.1637;
14.7000;0.7839;1.1713;
15.0000;0.7855;1.1738;
15.3000;0.7871;1.1637;
15.6000;0.7888;1.1637;
15.9000;0.7896;1.1587;
16.2000;0.7863;1.1536;
16.5000;0.7920;1.1612;
16.8000;0.8042;1.1813;
17.1000;0.7953;1.1562;
17.4000;0.7969;1.1511;
17.7000;0.7953;1.1410;
18.0000;0.8002;1.1587;
18.3000;0.8018;1.1637;
18.6000;0.8042;1.1687;
18.9000;0.8059;1.1713;
19.2000;0.8091;1.1738;
19.5000;0.8075;1.1536;
19.8000;0.8050;1.1385;
20.1000;0.8075;1.1436;
20.4000;0.8116;1.1486;
20.7000;0.8083;1.1410;
21.0000;0.8075;1.1360;
21.3000;0.8116;1.1536;
21.6000;0.8124;1.1536;
21.9000;0.8124;1.1562;
22.2000;0.8156;1.1587;
22.5000;0.8164;1.1587;
22.8000;0.8164;1.1461;
23.1000;0.8189;1.1511;
23.4000;0.8221;1.1612;
23.7000;0.8189;1.1410;
24.0000;0.8197;1.1436;
24.3000;0.8246;1.1562;
24.6000;0.8230;1.1436;
24.9000;0.8230;1.1486;
25.2000;0.8221;1.1486;
25.5000;0.8246;1.1511;
25.8000;0.8213;1.1562;
26.1000;0.8238;1.1486;
26.4000;0.8278;1.1486;
26.7000;0.8254;1.1436;
27.0000;0.8238;1.1436;
27.3000;0.8262;1.1360;
27.6000;0.8213;1.1184;
27.9000;0.8295;1.1335;
28.2000;0.8303;1.1461;
28.5000;0.8303;1.1385;
28.8000;0.8295;1.1360;
29.1000;0.8303;1.1385;
29.4000;0.8303;1.1360;
29.7000;0.8311;1.1310;
30.0000;0.8327;1.1410;
30.3000;0.8352;1.1511;
30.6000;0.8392;1.1738;
30.9000;0.8327;1.1587;
31.2000;0.8327;1.1486;
31.5000;0.8327;1.1511;
31.8000;0.8376;1.1536;
32.1000;0.8278;1.1310;
32.4000;0.8344;1.1385;
32.7000;0.8344;1.1360;
33.0000;0.8360;1.1410;
33.3000;0.8376;1.1410;
33.6000;0.8368;1.1436;
33.9000;0.8392;1.1511;
34.2000;0.8433;1.1486;
34.5000;0.8400;1.1385;
34.8000;0.8400;1.1436;
35.1000;0.8392;1.1410;
35.4000;0.8392;1.1284;
35.7000;0.8400;1.1385;
36.0000;0.8384;1.1335;
36.3000;0.8400;1.1360;
36.6000;0.8400;1.1310;
36.9000;0.8409;1.1385;
37.2000;0.8344;1.1310;
37.5000;0.8417;1.1486;
37.8000;0.8400;1.1360;
38.1000;0.8417;1.1461;
38.4000;0.8433;1.1562;
38.7000;0.8417;1.1612;
39.0000;0.8433;1.1562;
39.3000;0.8441;1.1486;
39.6000;0.8449;1.1562;
39.9000;0.8400;1.1310;
40.2000;0.8425;1.1410;
40.5000;0.8457;1.1486;
40.8000;0.8514;1.1612;
41.1000;0.8441;1.1461;
41.4000;0.8449;1.1486;
41.7000;0.8433;1.1310;
42.0000;0.8457;1.1436;
42.3000;0.8449;1.1410;
42.6000;0.8457;1.1360;
42.9000;0.8457;1.1284;
43.2000;0.8457;1.1385;
43.5000;0.8457;1.1410;
43.8000;0.8466;1.1486;
44.1000;0.8498;1.1511;
44.4000;0.8490;1.1410;
44.7000;0.8482;1.1461;
45.0000;0.8474;1.1385;
45.3000;0.8466;1.1360;
45.6000;0.8506;1.1486;
45.9000;0.8482;1.1536;
46.2000;0.8457;1.1461;
46.5000;0.8474;1.1461;
46.8000;0.8425;1.1360;
47.1000;0.8490;1.1612;
47.4000;0.8547;1.1763;
47.7000;0.8498;1.1687;
48.0000;0.8523;1.1788;
48.3000;0.8506;1.1662;
48.6000;0.8506;1.1637;
48.9000;0.8498;1.1612;
49.2000;0.8506;1.1562;
49.5000;0.8474;1.1461;
49.8000;0.8523;1.1612;
50.1000;0.8514;1.1511;
50.4000;0.8498;1.1436;
50.7000;0.8498;1.1410;
51.0000;0.8490;1.1385;
51.3000;0.8531;1.1410;
51.6000;0.8466;1.1335;
51.9000;0.8506;1.1385;
52.2000;0.8523;1.1385;
52.5000;0.8506;1.1360;
52.8000;0.8523;1.1410;
53.1000;0.8498;1.1385;
53.4000;0.8547;1.1486;
53.7000;0.8555;1.1461;
54.0000;0.8523;1.1410;
54.3000;0.8506;1.1385;
54.6000;0.8506;1.1360;
54.9000;0.8531;1.1436;
55.2000;0.8523;1.1385;
55.5000;0.8531;1.1511;
55.8000;0.8531;1.1461;
56.1000;0.8523;1.1486;
56.4000;0.8531;1.1410;
56.7000;0.8514;1.1310;
57.0000;0.8514;1.1310;
57.3000;0.8523;1.1335;
57.6000;0.8531;1.1360;
57.9000;0.8563;1.1410;
58.2000;0.8531;1.1360;
58.5000;0.8539;1.1335;
58.8000;0.8555;1.1410;
59.1000;0.8539;1.1335;
59.4000;0.8547;1.1410;
59.7000;0.8580;1.1486;
60.0000;0.8555;1.1385;
60.3000;0.8555;1.1385;
60.6000;0.8539;1.1410;
60.9000;0.8547;1.1436;
61.2000;0.8571;1.1461;
61.5000;0.8539;1.1335;
61.8000;0.8547;1.1310;
62.1000;0.8523;1.1209;
62.4000;0.8498;1.1184;
62.7000;0.8531;1.1184;
63.0000;0.8555;1.1159;
63.3000;0.8563;1.1209;
63.6000;0.8571;1.1259;
63.9000;0.8514;1.1108;
64.2000;0.8555;1.1184;
64.5000;0.8539;1.1209;
64.8000;0.8563;1.1360;
65.1000;0.8571;1.1310;
65.4000;0.8563;1.1310;
65.7000;0.8571;1.1335;
66.0000;0.8539;1.1209;
66.3000;0.8563;1.1259;
66.6000;0.8571;1.1259;
66.9000;0.8555;1.1259;
67.2000;0.8539;1.1310;
67.5000;0.8563;1.1360;
67.8000;0.8555;1.1410;
68.1000;0.8653;1.1536;
68.4000;0.8555;1.1310;
68.7000;0.8571;1.1410;
69.0000;0.8580;1.1436;
69.3000;0.8580;1.1536;
69.6000;0.8563;1.1461;
69.9000;0.8539;1.1461;
70.2000;0.8571;1.1562;
70.5000;0.8580;1.1536;
70.8000;0.8596;1.1461;
71.1000;0.8588;1.1436;
71.4000;0.8580;1.1410;
71.7000;0.8571;1.1360;
72.0000;0.8571;1.1360;
72.3000;0.8571;1.1335;
72.6000;0.8580;1.1335;
72.9000;0.8580;1.1310;
73.2000;0.8580;1.1259;
73.5000;0.8604;1.1385;
73.8000;0.8563;1.1335;
74.1000;0.8588;1.1284;
74.4000;0.8588;1.1335;
74.7000;0.8531;1.1209;
75.0000;0.8580;1.1284;
75.3000;0.8645;1.1486;
75.6000;0.8588;1.1335;
75.9000;0.8571;1.1284;
76.2000;0.8580;1.1284;
76.5000;0.8669;1.1562;
76.8000;0.8580;1.1284;
77.1000;0.8596;1.1410;
77.4000;0.8596;1.1511;
77.7000;0.8571;1.1461;
78.0000;0.8612;1.1612;
78.3000;0.8596;1.1562;
78.6000;0.8612;1.1486;
78.9000;0.8596;1.1562;
79.2000;0.8612;1.1662;
79.5000;0.8604;1.1612;
79.8000;0.8596;1.1562;
80.1000;0.8588;1.1511;
80.4000;0.8596;1.1536;
80.7000;0.8596;1.1511;
81.0000;0.8596;1.1511;
81.3000;0.8604;1.1436;
81.6000;0.8596;1.1486;
81.9000;0.8604;1.1436;
82.2000;0.8596;1.1410;
82.5000;0.8596;1.1410;
82.8000;0.8596;1.1385;
83.1000;0.8620;1.1461;
83.4000;0.8588;1.1360;
83.7000;0.8612;1.1436;
84.0000;0.8620;1.1360;
84.3000;0.8661;1.1385;
84.6000;0.8620;1.1310;
84.9000;0.8710;1.1436;
85.2000;0.8596;1.1184;
85.5000;0.8620;1.1259;
85.8000;0.8604;1.1234;
86.1000;0.8563;1.1184;
86.4000;0.8596;1.1259;
86.7000;0.8612;1.1259;
87.0000;0.8604;1.1234;
87.3000;0.8596;1.1209;
87.6000;0.8588;1.1234;
87.9000;0.8588;1.1184;
88.2000;0.8612;1.1259;
88.5000;0.8604;1.1259;
88.8000;0.8612;1.1234;
89.1000;0.8612;1.1259;
89.4000;0.8653;1.1360;
89.7000;0.8620;1.1209;
90.0000;0.8620;1.1284;
90.3000;0.8628;1.1385;
90.6000;0.8637;1.1436;
90.9000;0.8628;1.1360;
91.2000;0.8620;1.1360;
91.5000;0.8620;1.1360;
91.8000;0.8612;1.1335;
92.1000;0.8612;1.1335;
92.4000;0.8628;1.1360;
92.7000;0.8612;1.1310;
93.0000;0.8604;1.1234;
93.3000;0.8612;1.1259;
93.6000;0.8612;1.1259;
93.9000;0.8620;1.1259;
94.2000;0.8620;1.1284;
94.5000;0.8580;1.1259;
94.8000;0.8620;1.1360;
95.1000;0.8645;1.1410;
95.4000;0.8620;1.1360;
95.7000;0.8637;1.1360;
96.0000;0.8620;1.1259;
96.3000;0.8604;1.1159;
96.6000;0.8612;1.1159;
96.9000;0.8628;1.1310;
97.2000;0.8563;1.1234;
97.5000;0.8620;1.1335;
97.8000;0.8612;1.1234;
98.1000;0.8596;1.1209;
98.4000;0.8612;1.1209;
98.7000;0.8555;1.1108;
99.0000;0.8596;1.1284;
99.3000;0.8620;1.1284;
99.6000;0.8637;1.1310;
99.9000;0.8612;1.1209;
100.2000;0.8628;1.1234;
100.5000;0.8612;1.1284;
100.8000;0.8628;1.1310;
101.1000;0.8620;1.1385;
101.4000;0.8645;1.1436;
101.7000;0.8612;1.1360;
102.0000;0.8637;1.1436;
102.3000;0.8645;1.1511;
102.6000;0.8637;1.1385;
102.9000;0.8612;1.1360;
103.2000;0.8628;1.1385;
103.5000;0.8620;1.1259;
103.8000;0.8612;1.1234;
104.1000;0.8637;1.1360;
104.4000;0.8620;1.1310;
104.7000;0.8637;1.1284;
105.0000;0.8604;1.1209;
105.3000;0.8620;1.1310;
105.6000;0.8628;1.1360;
105.9000;0.8596;1.1410;
106.2000;0.8620;1.1536;
106.5000;0.8620;1.1511;
106.8000;0.8588;1.1486;
107.1000;0.8628;1.1536;
107.4000;0.8620;1.1410;
107.7000;0.8620;1.1385;
108.0000;0.8645;1.1360;
108.3000;0.8596;1.1259;
108.6000;0.8620;1.1284;
108.9000;0.8620;1.1259;
109.2000;0.8604;1.1310;
109.5000;0.8620;1.1335;
109.8000;0.8620;1.1310;
110.1000;0.8620;1.1436;
110.4000;0.8620;1.1436;
110.7000;0.8734;1.1788;
111.0000;0.8628;1.1562;
111.3000;0.8628;1.1536;
111.6000;0.8620;1.1511;
111.9000;0.8612;1.1562;
112.2000;0.8612;1.1536;
112.5000;0.8620;1.1511;
112.8000;0.8628;1.1436;
113.1000;0.8620;1.1385;
113.4000;0.8637;1.1385;
113.7000;0.8620;1.1335;
114.0000;0.8637;1.1310;
114.3000;0.8645;1.1310;
114.6000;0.8653;1.1335;
114.9000;0.8694;1.1486;
115.2000;0.8685;1.1436;
115.5000;0.8620;1.1335;
115.8000;0.8628;1.1360;
116.1000;0.8637;1.1385;
116.4000;0.8653;1.1436;
116.7000;0.8637;1.1511;
117.0000;0.8596;1.1410;
117.3000;0.8645;1.1511;
117.6000;0.8628;1.1436;
117.9000;0.8612;1.1410;
118.2000;0.8620;1.1335;
118.5000;0.8620;1.1259;
118.8000;0.8685;1.1385;
119.1000;0.8620;1.1310;
119.4000;0.8628;1.1310;
119.7000;0.8669;1.1511;
120.0000;0.8620;1.1360;
120.3000;0.8669;1.1562;
120.6000;0.8628;1.1511;
120.9000;0.8637;1.1360;
121.2000;0.8620;1.1436;
121.5000;0.8604;1.1335;
121.8000;0.8661;1.1511;
122.1000;0.8637;1.1461;
122.4000;0.8628;1.1436;
122.7000;0.8645;1.1461;
123.0000;0.8628;1.1360;
123.3000;0.8628;1.1259;
123.6000;0.8620;1.1159;
123.9000;0.8637;1.1360;
124.2000;0.8628;1.1385;
124.5000;0.8637;1.1360;
124.8000;0.8628;1.1310;
125.1000;0.8653;1.1310;
125.4000;0.8653;1.1385;
125.7000;0.8637;1.1360;
126.0000;0.8645;1.1360;
126.3000;0.8637;1.1310;
126.6000;0.8645;1.1310;
126.9000;0.8645;1.1360;
127.2000;0.8637;1.1310;
127.5000;0.8653;1.1360;
127.8000;0.8661;1.1436;
128.1000;0.8653;1.1360;
128.4000;0.8669;1.1310;
128.7000;0.8653;1.1284;
129.0000;0.8661;1.1259;
129.3000;0.8661;1.1284;
129.6000;0.8653;1.1310;
129.9000;0.8653;1.1259;
130.2000;0.8661;1.1360;
130.5000;0.8645;1.1410;
130.8000;0.8661;1.1511;
131.1000;0.8645;1.1511;
131.4000;0.8685;1.1612;
131.7000;0.8653;1.1511;
132.0000;0.8653;1.1436;
132.3000;0.8628;1.1385;
132.6000;0.8588;1.1284;
132.9000;0.8628;1.1410;
133.2000;0.8653;1.1486;
133.5000;0.8637;1.1486;
133.8000;0.8620;1.1360;
134.1000;0.8653;1.1385;
134.4000;0.8645;1.1335;
134.7000;0.8669;1.1486;
135.0000;0.8645;1.1436;
135.3000;0.8661;1.1461;
135.6000;0.8637;1.1436;
135.9000;0.8628;1.1385;
136.2000;0.8653;1.1410;
136.5000;0.8661;1.1461;
136.8000;0.8620;1.1360;
137.1000;0.8637;1.1335;
137.4000;0.8669;1.1385;
137.7000;0.8612;1.1310;
138.0000;0.8653;1.1436;
138.3000;0.8669;1.1335;
138.6000;0.8653;1.1284;
138.9000;0.8669;1.1360;
139.2000;0.8628;1.1310;
139.5000;0.8628;1.1310;
139.8000;0.8661;1.1360;
140.1000;0.8645;1.1335;
140.4000;0.8669;1.1385;
140.7000;0.8645;1.1360;
141.0000;0.8661;1.1410;
141.3000;0.8661;1.1410;
141.6000;0.8653;1.1360;
141.9000;0.8637;1.1360;
142.2000;0.8596;1.1310;
142.5000;0.8628;1.1335;
142.8000;0.8677;1.1385;
143.1000;0.8645;1.1310;
143.4000;0.8604;1.1284;
143.7000;0.8653;1.1511;
144.0000;0.8645;1.1562;
144.3000;0.8637;1.1486;
144.6000;0.8645;1.1436;
144.9000;0.8620;1.1284;
145.2000;0.8637;1.1310;
145.5000;0.8637;1.1284;
145.8000;0.8645;1.1385;
146.1000;0.8653;1.1385;
146.4000;0.8637;1.1335;
146.7000;0.8645;1.1385;
147.0000;0.8580;1.1335;
147.3000;0.8645;1.1461;
147.6000;0.8645;1.1385;
147.9000;0.8734;1.1511;
148.2000;0.8653;1.1385;
148.5000;0.8661;1.1284;
148.8000;0.8653;1.1184;
149.1000;0.8669;1.1159;
149.4000;0.8669;1.1184;
149.7000;0.8669;1.1259;
150.0000;0.8645;1.1234;
150.3000;0.8661;1.1159;
150.6000;0.8661;1.1259;
150.9000;0.8628;1.1209;
151.2000;0.8628;1.1335;
151.5000;0.8653;1.1385;
151.8000;0.8653;1.1410;
152.1000;0.8645;1.1436;
152.4000;0.8637;1.1335;
152.7000;0.8637;1.1284;
153.0000;0.8653;1.1360;
153.3000;0.8669;1.1385;
153.6000;0.8637;1.1284;
153.9000;0.8645;1.1284;
154.2000;0.8645;1.1234;
154.5000;0.8637;1.1259;
154.8000;0.8685;1.1385;
155.1000;0.8645;1.1259;
155.4000;0.8628;1.1410;
155.7000;0.8669;1.1511;
156.0000;0.8669;1.1511;
156.3000;0.8628;1.1360;
156.6000;0.8677;1.1486;
156.9000;0.8645;1.1436;
157.2000;0.8637;1.1335;
157.5000;0.8653;1.1461;
157.8000;0.8637;1.1385;
158.1000;0.8645;1.1436;
158.4000;0.8653;1.1410;
158.7000;0.8645;1.1360;
159.0000;0.8620;1.1360;
159.3000;0.8637;1.1284;
159.6000;0.8628;1.1234;
159.9000;0.8661;1.1310;
160.2000;0.8645;1.1310;
160.5000;0.8653;1.1335;
160.8000;0.8661;1.1360;
161.1000;0.8710;1.1385;
161.4000;0.8661;1.1259;
161.7000;0.8669;1.1335;
162.0000;0.8685;1.1360;
162.3000;0.8669;1.1310;
162.6000;0.8637;1.1159;
162.9000;0.8645;1.1284;
163.2000;0.8637;1.1284;
163.5000;0.8661;1.1284;
163.8000;0.8661;1.1259;
164.1000;0.8661;1.1209;
164.4000;0.8702;1.1310;
164.7000;0.8661;1.1284;
165.0000;0.8661;1.1310;
165.3000;0.8653;1.1284;
165.6000;0.8669;1.1259;
165.9000;0.8669;1.1234;
166.2000;0.8596;1.1133;
166.5000;0.8637;1.1209;
166.8000;0.8653;1.1184;
167.1000;0.8645;1.1184;
167.4000;0.8661;1.1259;
167.7000;0.8596;1.1058;
168.0000;0.8653;1.1259;
168.3000;0.8677;1.1310;
168.6000;0.8677;1.1259;
168.9000;0.8637;1.1159;
169.2000;0.8637;1.1284;
169.5000;0.8628;1.1310;
169.8000;0.8653;1.1360;
170.1000;0.8637;1.1335;
170.4000;0.8637;1.1335;
170.7000;0.8653;1.1461;
171.0000;0.8637;1.1385;
171.3000;0.8645;1.1259;
171.6000;0.8669;1.1259;
171.9000;0.8645;1.1234;
172.2000;0.8710;1.1259;
172.5000;0.8669;1.1033;
172.8000;0.8669;1.1007;
173.1000;0.8661;1.1033;
173.4000;0.8669;1.1058;
173.7000;0.8604;1.0932;
174.0000;0.8653;1.1209;
174.3000;0.8677;1.1360;
174.6000;0.8653;1.1284;
174.9000;0.8669;1.1284;
175.2000;0.8677;1.1284;
175.5000;0.8677;1.1284;
175.8000;0.8669;1.1335;
176.1000;0.8653;1.1310;
176.4000;0.8637;1.1209;
176.7000;0.8645;1.1184;
177.0000;0.8645;1.1159;
177.3000;0.8661;1.1209;
177.6000;0.8645;1.1133;
177.9000;0.8637;1.1083;
178.2000;0.8653;1.1058;
178.5000;0.8645;1.1083;
178.8000;0.8628;1.1033;
179.1000;0.8645;1.1083;
179.4000;0.8637;1.1159;
179.7000;0.8645;1.1184;
180.0000;0.8677;1.1310;
180.3000;0.8653;1.1284;
180.6000;0.8637;1.1284;
180.9000;0.8637;1.1234;
181.2000;0.8661;1.1310;
181.5000;0.8645;1.1284;
181.8000;0.8685;1.1335;
182.1000;0.8661;1.1385;
182.4000;0.8653;1.1335;
182.7000;0.8653;1.1360;
183.0000;0.8685;1.1410;
183.3000;0.8653;1.1335;
183.6000;0.8661;1.1209;
183.9000;0.8669;1.1259;
184.2000;0.8653;1.1234;
184.5000;0.8677;1.1310;
184.8000;0.8669;1.1310;
185.1000;0.8653;1.1335;
185.4000;0.8653;1.1310;
185.7000;0.8653;1.1310;
186.0000;0.8669;1.1259;
186.3000;0.8677;1.1360;
186.6000;0.8637;1.1284;
186.9000;0.8637;1.1234;
187.2000;0.8653;1.1284;
187.5000;0.8661;1.1234;
187.8000;0.8637;1.1234;
188.1000;0.8669;1.1335;
188.4000;0.8661;1.1310;
188.7000;0.8669;1.1360;
189.0000;0.8661;1.1335;
189.3000;0.8620;1.1234;
189.6000;0.8661;1.1310;
189.9000;0.8596;1.1184;
190.2000;0.8669;1.1360;
190.5000;0.8628;1.1133;
190.8000;0.8628;1.1184;
191.1000;0.8645;1.1209;
191.4000;0.8653;1.1234;
191.7000;0.8588;1.1033;
192.0000;0.8645;1.1133;
192.3000;0.8653;1.1184;
192.6000;0.8661;1.1209;
192.9000;0.8604;1.1108;
193.2000;0.8653;1.1209;
193.5000;0.8669;1.1234;
193.8000;0.8694;1.1410;
194.1000;0.8677;1.1385;
194.4000;0.8645;1.1335;
194.7000;0.8661;1.1410;
195.0000;0.8661;1.1385;
195.3000;0.8669;1.1284;
195.6000;0.8661;1.1184;
195.9000;0.8669;1.1159;
196.2000;0.8677;1.1209;
196.5000;0.8661;1.1209;
196.8000;0.8653;1.1159;
197.1000;0.8661;1.1209;
197.4000;0.8645;1.1259;
197.7000;0.8661;1.1284;
198.0000;0.8669;1.1234;
198.3000;0.8653;1.1184;
198.6000;0.8661;1.1184;
198.9000;0.8669;1.1234;
199.2000;0.8669;1.1184;
199.5000;0.8653;1.1108;
199.8000;0.8645;1.1033;
200.1000;0.8669;1.1083;
200.4000;0.8653;1.1133;
200.7000;0.8645;1.1133;
201.0000;0.8637;1.1108;
201.3000;0.8653;1.1209;
201.6000;0.8661;1.1310;
201.9000;0.8661;1.1259;
202.2000;0.8669;1.1184;
202.5000;0.8637;1.1108;
202.8000;0.8669;1.1159;
203.1000;0.8661;1.1108;
203.4000;0.8669;1.1133;
203.7000;0.8661;1.1083;
204.0000;0.8694;1.1159;
204.3000;0.8645;1.1058;
204.6000;0.8653;1.1184;
204.9000;0.8661;1.1159;
205.2000;0.8661;1.1209;
205.5000;0.8677;1.1259;
205.8000;0.8637;1.1159;
206.1000;0.8661;1.1133;
206.4000;0.8677;1.1108;
206.7000;0.8661;1.1033;
207.0000;0.8661;1.1108;
207.3000;0.8702;1.1259;
207.6000;0.8677;1.1259;
207.9000;0.8694;1.1234;
208.2000;0.8677;1.1284;
208.5000;0.8620;1.1133;
208.8000;0.8669;1.1335;
209.1000;0.8694;1.1360;
209.4000;0.8661;1.1259;
209.7000;0.8661;1.1184;
210.0000;0.8645;1.1133;
210.3000;0.8645;1.1209;
210.6000;0.8653;1.1184;
210.9000;0.8669;1.1184;
211.2000;0.8653;1.1159;
211.5000;0.8571;1.0932;
211.8000;0.8677;1.1209;
212.1000;0.8661;1.1209;
212.4000;0.8669;1.1310;
212.7000;0.8669;1.1259;
213.0000;0.8661;1.1259;
213.3000;0.8669;1.1209;
213.6000;0.8661;1.1133;
213.9000;0.8661;1.1184;
214.2000;0.8645;1.1133;
214.5000;0.8653;1.1108;
214.8000;0.8645;1.1108;
215.1000;0.8645;1.1159;
215.4000;0.8669;1.1209;
215.7000;0.8685;1.1284;
216.0000;0.8669;1.1234;
216.3000;0.8645;1.1209;
216.6000;0.8653;1.1234;
216.9000;0.8653;1.1234;
217.2000;0.8653;1.1234;
217.5000;0.8653;1.1184;
217.8000;0.8661;1.1108;
218.1000;0.8661;1.1159;
218.4000;0.8661;1.1209;
218.7000;0.8620;1.1159;
219.0000;0.8653;1.1234;
219.3000;0.8645;1.1310;
219.6000;0.8637;1.1335;
219.9000;0.8645;1.1310;
220.2000;0.8653;1.1284;
220.5000;0.8661;1.1259;
220.8000;0.8645;1.1184;
221.1000;0.8645;1.1209;
221.4000;0.8637;1.1234;
221.7000;0.8628;1.1234;
222.0000;0.8677;1.1284;
222.3000;0.8645;1.1284;
222.6000;0.8669;1.1385;
222.9000;0.8653;1.1436;
223.2000;0.8653;1.1410;
223.5000;0.8637;1.1234;
223.8000;0.8620;1.1259;
224.1000;0.8637;1.1310;
224.4000;0.8637;1.1284;
224.7000;0.8734;1.1562;
225.0000;0.8653;1.1284;
225.3000;0.8669;1.1234;
225.6000;0.8661;1.1234;
225.9000;0.8661;1.1159;
226.2000;0.8653;1.1133;
226.5000;0.8645;1.1159;
226.8000;0.8604;1.1108;
227.1000;0.8677;1.1234;
227.4000;0.8669;1.1259;
227.7000;0.8645;1.1108;
228.0000;0.8685;1.1234;
228.3000;0.8669;1.1234;
228.6000;0.8661;1.1209;
228.9000;0.8637;1.1184;
229.2000;0.8653;1.1234;
229.5000;0.8685;1.1310;
229.8000;0.8645;1.1184;
230.1000;0.8628;1.1209;
230.4000;0.8653;1.1184;
230.7000;0.8653;1.1234;
231.0000;0.8653;1.1310;
231.3000;0.8702;1.1360;
231.6000;0.8628;1.1335;
231.9000;0.8653;1.1310;
232.2000;0.8677;1.1436;
232.5000;0.8694;1.1486;
232.8000;0.8653;1.1335;
233.1000;0.8653;1.1310;
233.4000;0.8653;1.1360;
233.7000;0.8653;1.1410;
234.0000;0.8694;1.1486;
234.3000;0.8694;1.1461;
234.6000;0.8661;1.1335;
234.9000;0.8669;1.1310;
235.2000;0.8637;1.1184;
235.5000;0.8612;1.1159;
235.8000;0.8669;1.1310;
236.1000;0.8661;1.1259;
236.4000;0.8669;1.1284;
236.7000;0.8661;1.1209;
237.0000;0.8669;1.1209;
237.3000;0.8685;1.1310;
237.6000;0.8637;1.1310;
237.9000;0.8661;1.1360;
238.2000;0.8620;1.1234;
238.5000;0.8669;1.1310;
238.8000;0.8653;1.1259;
239.1000;0.8661;1.1284;
239.4000;0.8661;1.1234;
239.7000;0.8669;1.1284;
240.0000;0.8710;1.1436;
240.3000;0.8661;1.1335;
240.6000;0.8653;1.1360;
240.9000;0.8653;1.1310;
241.2000;0.8653;1.1284;
241.5000;0.8661;1.1360;
241.8000;0.8661;1.1461;
242.1000;0.8604;1.1310;
242.4000;0.8653;1.1385;
242.7000;0.8669;1.1360;
243.0000;0.8653;1.1234;
243.3000;0.8661;1.1259;
243.6000;0.8677;1.1234;
243.9000;0.8661;1.1133;
244.2000;0.8645;1.1083;
244.5000;0.8645;1.1159;
244.8000;0.8637;1.1108;
245.1000;0.8653;1.1209;
245.4000;0.8645;1.1159;
245.7000;0.8661;1.1159;
246.0000;0.8653;1.1159;
246.3000;0.8669;1.1184;
246.6000;0.8653;1.1184;
246.9000;0.8523;1.0932;
247.2000;0.8669;1.1360;
247.5000;0.8669;1.1284;
247.8000;0.8604;1.1108;
248.1000;0.8677;1.1410;
248.4000;0.8694;1.1461;
248.7000;0.8669;1.1436;
249.0000;0.8669;1.1410;
249.3000;0.8677;1.1385;
249.6000;0.8653;1.1284;
249.9000;0.8677;1.1461;
250.2000;0.8661;1.1410;
250.5000;0.8645;1.1335;
250.8000;0.8669;1.1284;
251.1000;0.8669;1.1335;
251.4000;0.8653;1.1284;
251.7000;0.8653;1.1335;
252.0000;0.8645;1.1284;
252.3000;0.8645;1.1234;
252.6000;0.8726;1.1410;
252.9000;0.8653;1.1234;
253.2000;0.8661;1.1259;
253.5000;0.8661;1.1234;
253.8000;0.8669;1.1310;
254.1000;0.8628;1.1209;
254.4000;0.8653;1.1234;
254.7000;0.8637;1.1209;
255.0000;0.8637;1.1184;
255.3000;0.8645;1.1209;
255.6000;0.8637;1.1184;
255.9000;0.8604;1.1159;
256.2000;0.8628;1.1259;
256.5000;0.8637;1.1234;
256.8000;0.8645;1.1234;
257.1000;0.8653;1.1360;
257.4000;0.8645;1.1461;
257.7000;0.8580;1.1209;
258.0000;0.8645;1.1410;
258.3000;0.8653;1.1385;
258.6000;0.8669;1.1335;
258.9000;0.8653;1.1284;
259.2000;0.8669;1.1385;
259.5000;0.8661;1.1360;
259.8000;0.8653;1.1385;
260.1000;0.8645;1.1410;
260.4000;0.8661;1.1436;
260.7000;0.8645;1.1461;
261.0000;0.8645;1.1436;
261.3000;0.8661;1.1360;
261.6000;0.8653;1.1234;
261.9000;0.8628;1.1234;
262.2000;0.8653;1.1259;
262.5000;0.8661;1.1284;
262.8000;0.8677;1.1310;
263.1000;0.8661;1.1259;
263.4000;0.8645;1.1310;
263.7000;0.8702;1.1461;
264.0000;0.8653;1.1284;
264.3000;0.8685;1.1410;
264.6000;0.8653;1.1436;
264.9000;0.8653;1.1511;
265.2000;0.8645;1.1360;
265.5000;0.8653;1.1335;
265.8000;0.8620;1.1385;
266.1000;0.8620;1.1335;
266.4000;0.8628;1.1385;
266.7000;0.8718;1.1436;
267.0000;0.8637;1.1259;
267.3000;0.8637;1.1159;
267.6000;0.8645;1.1209;
267.9000;0.8669;1.1335;
268.2000;0.8637;1.1209;
268.5000;0.8645;1.1133;
268.8000;0.8653;1.1133;
269.1000;0.8661;1.1184;
269.4000;0.8645;1.1133;
269.7000;0.8661;1.1159;
270.0000;0.8620;1.1058;
270.3000;0.8669;1.1184;
270.6000;0.8653;1.1108;
270.9000;0.8604;1.1007;
271.2000;0.8669;1.1159;
271.5000;0.8661;1.1159;
271.8000;0.8669;1.1159;
272.1000;0.8604;1.1133;
272.4000;0.8653;1.1284;
272.7000;0.8653;1.1310;
273.0000;0.8661;1.1335;
273.3000;0.8637;1.1234;
273.6000;0.8661;1.1259;
273.9000;0.8637;1.1209;
274.2000;0.8645;1.1133;
274.5000;0.8685;1.1108;
274.8000;0.8669;1.1133;
275.1000;0.8661;1.1184;
275.4000;0.8751;1.1461;
275.7000;0.8669;1.1259;
276.0000;0.8628;1.1159;
276.3000;0.8645;1.1108;
276.6000;0.8645;1.1159;
276.9000;0.8645;1.1108;
277.2000;0.8669;1.1209;
277.5000;0.8637;1.1159;
277.8000;0.8677;1.1184;
278.1000;0.8694;1.1133;
278.4000;0.8653;1.1007;
278.7000;0.8677;1.1007;
279.0000;0.8669;1.1033;
279.3000;0.8628;1.1033;
279.6000;0.8669;1.1159;
279.9000;0.8661;1.1234;
280.2000;0.8669;1.1284;
280.5000;0.8694;1.1335;
280.8000;0.8702;1.1385;
281.1000;0.8661;1.1284;
281.4000;0.8653;1.1159;
281.7000;0.8669;1.1108;
282.0000;0.8718;1.1234;
282.3000;0.8620;1.0932;
282.6000;0.8669;1.1083;
282.9000;0.8628;1.0957;
283.2000;0.8677;1.1159;
283.5000;0.8661;1.1108;
283.8000;0.8661;1.1083;
284.1000;0.8661;1.1108;
284.4000;0.8653;1.1007;
284.7000;0.8645;1.1133;
285.0000;0.8751;1.1385;
285.3000;0.8653;1.1133;
285.6000;0.8661;1.1234;
285.9000;0.8653;1.1159;
286.2000;0.8653;1.1083;
286.5000;0.8653;1.1108;
286.8000;0.8694;1.1209;
287.1000;0.8669;1.1184;
287.4000;0.8653;1.1159;
287.7000;0.8637;1.1058;
288.0000;0.8620;1.1133;
288.3000;0.8653;1.1133;
288.6000;0.8661;1.1108;
288.9000;0.8661;1.1083;
289.2000;0.8661;1.1033;
289.5000;0.8661;1.1007;
289.8000;0.8653;1.0982;
290.1000;0.8694;1.1058;
290.4000;0.8669;1.0957;
290.7000;0.8645;1.1083;
291.0000;0.8653;1.1184;
291.3000;0.8653;1.1083;
291.6000;0.8645;1.1058;
291.9000;0.8661;1.1007;
292.2000;0.8661;1.1083;
292.5000;0.8677;1.1108;
292.8000;0.8653;1.1108;
293.1000;0.8669;1.1083;
293.4000;0.8669;1.1159;
293.7000;0.8637;1.1159;
294.0000;0.8653;1.1159;
294.3000;0.8645;1.1209;
294.6000;0.8677;1.1310;
294.9000;0.8661;1.1284;
295.2000;0.8653;1.1310;
295.5000;0.8637;1.1335;
295.8000;0.8669;1.1335;
296.1000;0.8661;1.1209;
296.4000;0.8620;1.1058;
296.7000;0.8661;1.1159;
297.0000;0.8637;1.1133;
297.3000;0.8653;1.1209;
297.6000;0.8580;1.1058;
297.9000;0.8653;1.1159;
298.2000;0.8677;1.1159;
298.5000;0.8669;1.1159;
298.8000;0.8653;1.1108;
299.1000;0.8685;1.1234;
299.4000;0.8645;1.1108;
299.7000;0.8661;1.1108;
300.0000;0.8669;1.1159;
300.3000;0.8637;1.1159;
300.6000;0.8653;1.1108;
300.9000;0.8653;1.1108;
301.2000;0.8661;1.1133;
301.5000;0.8661;1.1209;
301.8000;0.8637;1.1184;
302.1000;0.8653;1.1234;
302.4000;0.8661;1.1209;
302.7000;0.8653;1.1284;
303.0000;0.8645;1.1259;
303.3000;0.8645;1.1209;
303.6000;0.8653;1.1284;
303.9000;0.8685;1.1310;
304.2000;0.8653;1.1209;
304.5000;0.8677;1.1234;
304.8000;0.8694;1.1310;
305.1000;0.8669;1.1184;
305.4000;0.8661;1.1159;
305.7000;0.8661;1.1209;
306.0000;0.8669;1.1310;
306.3000;0.8653;1.1234;
306.6000;0.8694;1.1385;
306.9000;0.8637;1.1284;
307.2000;0.8661;1.1410;
307.5000;0.8685;1.1410;
307.8000;0.8637;1.1184;
308.1000;0.8645;1.1234;
308.4000;0.8653;1.1234;
308.7000;0.8669;1.1335;
309.0000;0.8645;1.1284;
309.3000;0.8620;1.1184;
309.6000;0.8645;1.1310;
309.9000;0.8653;1.1284;
310.2000;0.8702;1.1511;
310.5000;0.8628;1.1284;
310.8000;0.8645;1.1259;
311.1000;0.8637;1.1209;
311.4000;0.8661;1.1310;
311.7000;0.8620;1.1259;
312.0000;0.8653;1.1310;
312.3000;0.8653;1.1335;
312.6000;0.8620;1.1335;
312.9000;0.8645;1.1436;
313.2000;0.8661;1.1410;
313.5000;0.8661;1.1385;
313.8000;0.8751;1.1562;
314.1000;0.8661;1.1335;
314.4000;0.8661;1.1310;
314.7000;0.8661;1.1335;
315.0000;0.8653;1.1360;
315.3000;0.8653;1.1410;
315.6000;0.8653;1.1385;
315.9000;0.8661;1.1360;
316.2000;0.8661;1.1310;
316.5000;0.8653;1.1335;
316.8000;0.8645;1.1284;
317.1000;0.8637;1.1310;
317.4000;0.8612;1.1184;
317.7000;0.8661;1.1335;
318.0000;0.8580;1.1159;
318.3000;0.8653;1.1284;
318.6000;0.8669;1.1259;
318.9000;0.8653;1.1234;
319.2000;0.8645;1.1159;
319.5000;0.8645;1.1209;
319.8000;0.8628;1.1209;
320.1000;0.8653;1.1259;
320.4000;0.8685;1.1335;
320.7000;0.8604;1.1184;
321.0000;0.8645;1.1310;
321.3000;0.8677;1.1360;
321.6000;0.8637;1.1209;
321.9000;0.8710;1.1436;
322.2000;0.8637;1.1284;
322.5000;0.8645;1.1159;
322.8000;0.8637;1.1184;
323.1000;0.8661;1.1284;
323.4000;0.8645;1.1259;
323.7000;0.8628;1.1209;
324.0000;0.8661;1.1209;
324.3000;0.8637;1.1159;
324.6000;0.8645;1.1133;
324.9000;0.8669;1.1209;
325.2000;0.8677;1.1310;
325.5000;0.8653;1.1259;
325.8000;0.8588;1.0957;
326.1000;0.8653;1.1159;
326.4000;0.8669;1.1234;
326.7000;0.8661;1.1259;
327.0000;0.8669;1.1234;
327.3000;0.8620;1.1083;
327.6000;0.8653;1.1234;
327.9000;0.8661;1.1335;
328.2000;0.8612;1.1234;
328.5000;0.8653;1.1259;
328.8000;0.8669;1.1310;
329.1000;0.8677;1.1284;
329.4000;0.8669;1.1284;
329.7000;0.8661;1.1360;
330.0000;0.8685;1.1486;
330.3000;0.8637;1.1436;
330.6000;0.8669;1.1410;
330.9000;0.8645;1.1209;
331.2000;0.8694;1.1461;
331.5000;0.8661;1.1385;
331.8000;0.8637;1.1335;
332.1000;0.8645;1.1410;
332.4000;0.8661;1.1486;
332.7000;0.8669;1.1461;
333.0000;0.8661;1.1410;
333.3000;0.8645;1.1410;
333.6000;0.8653;1.1436;
333.9000;0.8637;1.1410;
334.2000;0.8685;1.1486;
334.5000;0.8645;1.1436;
334.8000;0.8653;1.1385;
335.1000;0.8661;1.1436;
335.4000;0.8653;1.1436;
335.7000;0.8645;1.1385;
336.0000;0.8645;1.1436;
336.3000;0.8742;1.1713;
336.6000;0.8637;1.1385;
336.9000;0.8669;1.1360;
337.2000;0.8653;1.1360;
337.5000;0.8645;1.1436;
337.8000;0.8677;1.1461;
338.1000;0.8669;1.1335;
338.4000;0.8661;1.1284;
338.7000;0.8653;1.1284;
339.0000;0.8734;1.1360;
339.3000;0.8661;1.1159;
339.6000;0.8653;1.1108;
339.9000;0.8645;1.1209;
340.2000;0.8661;1.1259;
340.5000;0.8645;1.1209;
340.8000;0.8604;1.1184;
341.1000;0.8637;1.1410;
341.4000;0.8661;1.1511;
341.7000;0.8669;1.1536;
342.0000;0.8661;1.1562;
342.3000;0.8661;1.1612;
342.6000;0.8677;1.1662;
342.9000;0.8661;1.1687;
343.2000;0.8580;1.1486;
343.5000;0.8645;1.1637;
343.8000;0.8620;1.1587;
344.1000;0.8661;1.1587;
344.4000;0.8637;1.1587;
344.7000;0.8653;1.1486;
345.0000;0.8653;1.1461;
345.3000;0.8653;1.1486;
345.6000;0.8588;1.1335;
345.9000;0.8645;1.1486;
346.2000;0.8653;1.1436;
346.5000;0.8645;1.1436;
346.8000;0.8653;1.1612;
347.1000;0.8653;1.1536;
347.4000;0.8637;1.1511;
347.7000;0.8645;1.1536;
348.0000;0.8645;1.1562;
348.3000;0.8637;1.1587;
348.6000;0.8653;1.1562;
348.9000;0.8645;1.1562;
349.2000;0.8653;1.1562;
349.5000;0.8661;1.1536;
349.8000;0.8677;1.1587;
350.1000;0.8653;1.1436;
350.4000;0.8669;1.1410;
350.7000;0.8661;1.1461;
351.0000;0.8620;1.1360;
351.3000;0.8669;1.1436;
351.6000;0.8637;1.1360;
351.9000;0.8661;1.1310;
352.2000;0.8677;1.1385;
352.5000;0.8637;1.1259;
352.8000;0.8637;1.1310;
353.1000;0.8620;1.1209;
353.4000;0.8645;1.1234;
353.7000;0.8645;1.1259;
354.0000;0.8645;1.1385;
354.3000;0.8637;1.1335;
354.6000;0.8580;1.1184;
354.9000;0.8653;1.1410;
355.2000;0.8661;1.1486;
355.5000;0.8628;1.1486;
355.8000;0.8669;1.1536;
356.1000;0.8637;1.1536;
356.4000;0.8661;1.1461;
356.7000;0.8628;1.1436;
357.0000;0.8637;1.1436;
357.3000;0.8637;1.1360;
357.6000;0.8645;1.1511;
357.9000;0.8637;1.1536;
358.2000;0.8604;1.1486;
358.5000;0.8628;1.1637;
358.8000;0.8653;1.1662;
359.1000;0.8653;1.1738;
359.4000;0.8645;1.1637;
359.7000;0.8628;1.1612;
360.0000;0.8653;1.1637;
360.3000;0.8628;1.1536;
360.6000;0.8669;1.1562;
360.9000;0.8620;1.1436;
361.2000;0.8637;1.1536;
361.5000;0.8645;1.1562;
361.8000;0.8661;1.1461;
362.1000;0.8669;1.1511;
362.4000;0.8677;1.1436;
362.7000;0.8645;1.1184;
363.0000;0.8645;1.1234;
363.3000;0.8645;1.1209;
363.6000;0.8628;1.1159;
363.9000;0.8653;1.1259;
364.2000;0.8637;1.1209;
364.5000;0.8653;1.1259;
364.8000;0.8661;1.1335;
365.1000;0.8685;1.1436;
365.4000;0.8677;1.1436;
365.7000;0.8661;1.1385;
366.0000;0.8637;1.1335;
366.3000;0.8653;1.1436;
366.6000;0.8620;1.1385;
366.9000;0.8726;1.1738;
367.2000;0.8653;1.1536;
367.5000;0.8702;1.1637;
367.8000;0.8645;1.1486;
368.1000;0.8653;1.1436;
368.4000;0.8685;1.1486;
368.7000;0.8653;1.1410;
369.0000;0.8661;1.1461;
369.3000;0.8628;1.1436;
369.6000;0.8661;1.1486;
369.9000;0.8563;1.1284;
370.2000;0.8661;1.1486;
370.5000;0.8645;1.1461;
370.8000;0.8645;1.1562;
371.1000;0.8661;1.1637;
371.4000;0.8645;1.1587;
371.7000;0.8620;1.1587;
372.0000;0.8645;1.1637;
372.3000;0.8637;1.1637;
372.6000;0.8653;1.1662;
372.9000;0.8637;1.1562;
373.2000;0.8645;1.1562;
373.5000;0.8628;1.1511;
373.8000;0.8653;1.1461;
374.1000;0.8661;1.1410;
374.4000;0.8653;1.1436;
374.7000;0.8645;1.1436;
375.0000;0.8612;1.1360;
375.3000;0.8645;1.1486;
375.6000;0.8653;1.1461;
375.9000;0.8661;1.1436;
376.2000;0.8653;1.1410;
376.5000;0.8637;1.1360;
376.8000;0.8661;1.1335;
377.1000;0.8637;1.1284;
377.4000;0.8645;1.1259;
377.7000;0.8645;1.1234;
378.0000;0.8637;1.1234;
378.3000;0.8661;1.1410;
378.6000;0.8612;1.1360;
378.9000;0.8628;1.1335;
379.2000;0.8653;1.1335;
379.5000;0.8563;1.1108;
379.8000;0.8628;1.1284;
380.1000;0.8653;1.1385;
380.4000;0.8637;1.1310;
380.7000;0.8612;1.1335;
381.0000;0.8677;1.1486;
381.3000;0.8604;1.1335;
381.6000;0.8661;1.1536;
381.9000;0.8653;1.1511;
382.2000;0.8637;1.1511;
382.5000;0.8669;1.1562;
382.8000;0.8653;1.1486;
383.1000;0.8645;1.1511;
383.4000;0.8628;1.1486;
383.7000;0.8645;1.1587;
384.0000;0.8653;1.1562;
384.3000;0.8645;1.1562;
384.6000;0.8637;1.1587;
384.9000;0.8637;1.1612;
385.2000;0.8669;1.1612;
385.5000;0.8637;1.1461;
385.8000;0.8645;1.1410;
386.1000;0.8612;1.1360;
386.4000;0.8653;1.1385;
386.7000;0.8653;1.1410;
387.0000;0.8653;1.1385;
387.3000;0.8653;1.1410;
387.6000;0.8661;1.1486;
387.9000;0.8637;1.1385;
388.2000;0.8637;1.1385;
388.5000;0.8645;1.1410;
388.8000;0.8653;1.1410;
389.1000;0.8653;1.1461;
389.4000;0.8653;1.1410;
389.7000;0.8628;1.1385;
390.0000;0.8604;1.1385;
390.3000;0.8628;1.1436;
390.6000;0.8628;1.1385;
390.9000;0.8637;1.1310;
391.2000;0.8637;1.1335;
391.5000;0.8653;1.1310;
391.8000;0.8628;1.1360;
392.1000;0.8637;1.1385;
392.4000;0.8612;1.1360;
392.7000;0.8645;1.1360;
393.0000;0.8710;1.1562;
393.3000;0.8645;1.1360;
393.6000;0.8637;1.1410;
393.9000;0.8645;1.1511;
394.2000;0.8596;1.1410;
394.5000;0.8628;1.1461;
394.8000;0.8637;1.1511;
395.1000;0.8645;1.1562;
395.4000;0.8653;1.1511;
395.7000;0.8661;1.1536;
396.0000;0.8742;1.1839;
396.3000;0.8637;1.1536;
396.6000;0.8653;1.1637;
396.9000;0.8637;1.1536;
397.2000;0.8637;1.1461;
397.5000;0.8604;1.1284;
397.8000;0.8669;1.1410;
398.1000;0.8637;1.1360;
398.4000;0.8637;1.1436;
398.7000;0.8588;1.1310;
399.0000;0.8653;1.1536;
399.3000;0.8645;1.1486;
399.6000;0.8645;1.1385;
399.9000;0.8759;1.1536;
400.2000;0.8588;1.1184;
400.5000;0.8677;1.1385;
400.8000;0.8645;1.1310;
401.1000;0.8637;1.1284;
401.4000;0.8661;1.1436;
401.7000;0.8637;1.1385;
402.0000;0.8637;1.1310;
402.3000;0.8620;1.1360;
402.6000;0.8677;1.1637;
402.9000;0.8637;1.1410;
403.2000;0.8612;1.1410;
403.5000;0.8637;1.1461;
403.8000;0.8661;1.1637;
404.1000;0.8637;1.1612;
404.4000;0.8661;1.1662;
404.7000;0.8637;1.1612;
405.0000;0.8645;1.1738;
405.3000;0.8604;1.1637;
405.6000;0.8661;1.1864;
405.9000;0.8661;1.1788;
406.2000;0.8653;1.1713;
406.5000;0.8645;1.1738;
406.8000;0.8661;1.1738;
407.1000;0.8645;1.1662;
407.4000;0.8661;1.1536;
407.7000;0.8661;1.1486;
408.0000;0.8653;1.1436;
408.3000;0.8645;1.1436;
408.6000;0.8685;1.1486;
408.9000;0.8637;1.1385;
409.2000;0.8645;1.1385;
409.5000;0.8620;1.1310;
409.8000;0.8571;1.1159;
410.1000;0.8726;1.1562;
410.4000;0.8653;1.1486;
410.7000;0.8685;1.1461;
411.0000;0.8645;1.1385;
411.3000;0.8645;1.1461;
411.6000;0.8645;1.1410;
411.9000;0.8653;1.1536;
412.2000;0.8637;1.1587;
412.5000;0.8637;1.1713;
412.8000;0.8637;1.1662;
413.1000;0.8637;1.1637;
413.4000;0.8628;1.1612;
413.7000;0.8637;1.1637;
414.0000;0.8620;1.1662;
414.3000;0.8628;1.1587;
414.6000;0.8637;1.1562;
414.9000;0.8645;1.1587;
415.2000;0.8637;1.1562;
415.5000;0.8653;1.1612;
415.8000;0.8653;1.1562;
416.1000;0.8653;1.1511;
416.4000;0.8637;1.1612;
416.7000;0.8653;1.1687;
417.0000;0.8637;1.1637;
417.3000;0.8645;1.1612;
417.6000;0.8637;1.1536;
417.9000;0.8628;1.1511;
418.2000;0.8637;1.1536;
418.5000;0.8645;1.1486;
418.8000;0.8637;1.1385;
419.1000;0.8637;1.1360;
419.4000;0.8637;1.1385;
419.7000;0.8628;1.1335;
420.0000;0.8628;1.1284;
420.3000;0.8637;1.1335;
420.6000;0.8620;1.1335;
420.9000;0.8645;1.1410;
421.2000;0.8645;1.1310;
421.5000;0.8612;1.1184;
421.8000;0.8645;1.1259;
422.1000;0.8661;1.1360;
422.4000;0.8661;1.1360;
422.7000;0.8628;1.1284;
423.0000;0.8628;1.1436;
423.3000;0.8661;1.1486;
423.6000;0.8628;1.1436;
423.9000;0.8628;1.1486;
424.2000;0.8620;1.1536;
424.5000;0.8596;1.1536;
424.8000;0.8637;1.1612;
425.1000;0.8620;1.1562;
425.4000;0.8637;1.1536;
425.7000;0.8645;1.1511;
426.0000;0.8637;1.1637;
426.3000;0.8620;1.1612;
426.6000;0.8637;1.1562;
426.9000;0.8620;1.1612;
427.2000;0.8620;1.1662;
427.5000;0.8604;1.1662;
427.8000;0.8637;1.1763;
428.1000;0.8620;1.1713;
428.4000;0.8628;1.1763;
428.7000;0.8637;1.1738;
429.0000;0.8620;1.1713;
429.3000;0.8620;1.1763;
429.6000;0.8637;1.1763;
429.9000;0.8637;1.1612;
430.2000;0.8620;1.1662;
430.5000;0.8645;1.1637;
430.8000;0.8637;1.1612;
431.1000;0.8669;1.1687;
431.4000;0.8620;1.1562;
431.7000;0.8637;1.1612;
432.0000;0.8628;1.1587;
432.3000;0.8661;1.1713;
432.6000;0.8645;1.1738;
432.9000;0.8637;1.1713;
433.2000;0.8628;1.1637;
433.5000;0.8637;1.1687;
433.8000;0.8637;1.1687;
434.1000;0.8596;1.1536;
434.4000;0.8637;1.1562;
434.7000;0.8612;1.1511;
435.0000;0.8637;1.1562;
435.3000;0.8653;1.1587;
435.6000;0.8628;1.1687;
435.9000;0.8661;1.1839;
436.2000;0.8637;1.1738;
436.5000;0.8645;1.1763;
436.8000;0.8718;1.1889;
437.1000;0.8677;1.1864;
437.4000;0.8677;1.1889;
437.7000;0.8628;1.1763;
438.0000;0.8645;1.1788;
438.3000;0.8653;1.1687;
438.6000;0.8612;1.1637;
438.9000;0.8669;1.1864;
439.2000;0.8628;1.1813;
439.5000;0.8612;1.1738;
439.8000;0.8702;1.1914;
440.1000;0.8612;1.1612;
440.4000;0.8612;1.1536;
440.7000;0.8637;1.1536;
441.0000;0.8612;1.1461;
441.3000;0.8653;1.1511;
441.6000;0.8637;1.1486;
441.9000;0.8612;1.1511;
442.2000;0.8645;1.1587;
442.5000;0.8637;1.1536;
442.8000;0.8645;1.1486;
443.1000;0.8661;1.1612;
443.4000;0.8653;1.1637;
443.7000;0.8653;1.1713;
444.0000;0.8653;1.1788;
444.3000;0.8685;1.1738;
444.6000;0.8645;1.1612;
444.9000;0.8661;1.1562;
445.2000;0.8637;1.1461;
445.5000;0.8645;1.1436;
445.8000;0.8685;1.1562;
446.1000;0.8628;1.1461;
446.4000;0.8628;1.1410;
446.7000;0.8653;1.1410;
447.0000;0.8645;1.1360;
447.3000;0.8563;1.1159;
447.6000;0.8653;1.1410;
447.9000;0.8653;1.1410;
448.2000;0.8653;1.1511;
448.5000;0.8645;1.1536;
448.8000;0.8628;1.1536;
449.1000;0.8628;1.1612;
449.4000;0.8628;1.1662;
449.7000;0.8620;1.1687;
450.0000;0.8637;1.1637;
450.3000;0.8637;1.1536;
450.6000;0.8620;1.1486;
450.9000;0.8612;1.1486;
451.2000;0.8612;1.1486;
451.5000;0.8653;1.1612;
451.8000;0.8661;1.1637;
452.1000;0.8620;1.1562;
452.4000;0.8620;1.1536;
452.7000;0.8637;1.1461;
453.0000;0.8628;1.1511;
453.3000;0.8637;1.1511;
453.6000;0.8718;1.1687;
453.9000;0.8653;1.1511;
454.2000;0.8645;1.1587;
454.5000;0.8628;1.1562;
454.8000;0.8669;1.1587;
455.1000;0.8645;1.1511;
455.4000;0.8661;1.1486;
455.7000;0.8637;1.1436;
456.0000;0.8628;1.1486;
456.3000;0.8645;1.1587;
456.6000;0.8645;1.1612;
456.9000;0.8645;1.1587;
457.2000;0.8637;1.1612;
457.5000;0.8669;1.1713;
457.8000;0.8653;1.1687;
458.1000;0.8653;1.1738;
458.4000;0.8645;1.1612;
458.7000;0.8669;1.1713;
459.0000;0.8661;1.1687;
459.3000;0.8645;1.1562;
459.6000;0.8677;1.1687;
459.9000;0.8645;1.1713;
460.2000;0.8637;1.1612;
460.5000;0.8645;1.1637;
460.8000;0.8620;1.1562;
461.1000;0.8628;1.1486;
461.4000;0.8637;1.1536;
461.7000;0.8661;1.1587;
462.0000;0.8645;1.1511;
462.3000;0.8661;1.1562;
462.6000;0.8637;1.1511;
462.9000;0.8653;1.1536;
463.2000;0.8645;1.1511;
463.5000;0.8645;1.1436;
463.8000;0.8604;1.1335;
464.1000;0.8628;1.1436;
464.4000;0.8637;1.1486;
464.7000;0.8637;1.1562;
465.0000;0.8612;1.1587;
465.3000;0.8612;1.1461;
465.6000;0.8620;1.1410;
465.9000;0.8604;1.1385;
466.2000;0.8612;1.1310;
466.5000;0.8612;1.1259;
466.8000;0.8637;1.1385;
467.1000;0.8628;1.1360;
467.4000;0.8596;1.1360;
467.7000;0.8620;1.1360;
468.0000;0.8677;1.1436;
468.3000;0.8645;1.1335;
468.6000;0.8653;1.1410;
468.9000;0.8645;1.1410;
469.2000;0.8628;1.1385;
469.5000;0.8628;1.1385;
469.8000;0.8645;1.1461;
470.1000;0.8637;1.1436;
470.4000;0.8637;1.1436;
470.7000;0.8669;1.1562;
471.0000;0.8637;1.1436;
471.3000;0.8620;1.1410;
471.6000;0.8645;1.1436;
471.9000;0.8653;1.1385;
472.2000;0.8612;1.1209;
472.5000;0.8604;1.1133;
472.8000;0.8628;1.1209;
473.1000;0.8661;1.1234;
473.4000;0.8645;1.1083;
473.7000;0.8645;1.1159;
474.0000;0.8637;1.1108;
474.3000;0.8637;1.1133;
474.6000;0.8637;1.1108;
474.9000;0.8628;1.1108;
475.2000;0.8580;1.1058;
475.5000;0.8637;1.1209;
475.8000;0.8645;1.1259;
476.1000;0.8604;1.1209;
476.4000;0.8620;1.1360;
476.7000;0.8596;1.1284;
477.0000;0.8653;1.1335;
477.3000;0.8661;1.1335;
477.6000;0.8669;1.1511;
477.9000;0.8588;1.1360;
478.2000;0.8710;1.1587;
478.5000;0.8637;1.1410;
478.8000;0.8661;1.1486;
479.1000;0.8628;1.1385;
479.4000;0.8653;1.1410;
479.7000;0.8661;1.1385;
480.0000;0.8620;1.1335;
480.3000;0.8645;1.1310;
480.6000;0.8620;1.1234;
480.9000;0.8685;1.1335;
481.2000;0.8628;1.1108;
481.5000;0.8580;1.1007;
481.8000;0.8637;1.1058;
482.1000;0.8637;1.1083;
482.4000;0.8628;1.1133;
482.7000;0.8628;1.1184;
483.0000;0.8628;1.1310;
483.3000;0.8637;1.1410;
483.6000;0.8604;1.1385;
483.9000;0.8620;1.1436;
484.2000;0.8620;1.1385;
484.5000;0.8645;1.1360;
484.8000;0.8628;1.1360;
485.1000;0.8620;1.1335;
485.4000;0.8653;1.1360;
485.7000;0.8645;1.1335;
486.0000;0.8628;1.1310;
486.3000;0.8628;1.1360;
486.6000;0.8637;1.1385;
486.9000;0.8628;1.1335;
487.2000;0.8637;1.1360;
487.5000;0.8620;1.1335;
487.8000;0.8628;1.1385;
488.1000;0.8637;1.1310;
488.4000;0.8637;1.1259;
488.7000;0.8669;1.1335;
489.0000;0.8637;1.1209;
489.3000;0.8628;1.1159;
489.6000;0.8637;1.1184;
489.9000;0.8612;1.1184;
490.2000;0.8620;1.1108;
490.5000;0.8637;1.1133;
490.8000;0.8645;1.1284;
491.1000;0.8612;1.1259;
491.4000;0.8628;1.1184;
491.7000;0.8645;1.1184;
492.0000;0.8677;1.1284;
492.3000;0.8637;1.1234;
492.6000;0.8653;1.1284;
492.9000;0.8620;1.1259;
493.2000;0.8628;1.1234;
493.5000;0.8645;1.1234;
493.8000;0.8653;1.1259;
494.1000;0.8645;1.1284;
494.4000;0.8588;1.1108;
494.7000;0.8661;1.1360;
495.0000;0.8620;1.1234;
495.3000;0.8604;1.1234;
495.6000;0.8612;1.1360;
495.9000;0.8620;1.1360;
496.2000;0.8588;1.1234;
496.5000;0.8620;1.1284;
496.8000;0.8628;1.1310;
497.1000;0.8653;1.1385;
497.4000;0.8637;1.1436;
497.7000;0.8669;1.1536;
498.0000;0.8645;1.1335;
498.3000;0.8677;1.1410;
498.6000;0.8620;1.1284;
498.9000;0.8637;1.1310;
499.2000;0.8620;1.1284;
499.5000;0.8637;1.1335;
499.8000;0.8628;1.1284;
500.1000;0.8661;1.1360;
500.4000;0.8628;1.1259;
500.7000;0.8628;1.1335;
501.0000;0.8588;1.1184;
501.3000;0.8628;1.1108;
501.6000;0.8596;1.1033;
501.9000;0.8620;1.1133;
502.2000;0.8637;1.1159;
502.5000;0.8620;1.1108;
502.8000;0.8645;1.1083;
503.1000;0.8637;1.1058;
503.4000;0.8628;1.1209;
503.7000;0.8645;1.1360;
504.0000;0.8645;1.1385;
504.3000;0.8628;1.1385;
504.6000;0.8645;1.1436;
504.9000;0.8628;1.1385;
505.2000;0.8637;1.1410;
505.5000;0.8539;1.1083;
505.8000;0.8628;1.1360;
506.1000;0.8628;1.1335;
506.4000;0.8628;1.1284;
506.7000;0.8620;1.1310;
507.0000;0.8620;1.1310;
507.3000;0.8620;1.1284;
507.6000;0.8628;1.1284;
507.9000;0.8628;1.1209;
508.2000;0.8628;1.1159;
508.5000;0.8620;1.1184;
508.8000;0.8612;1.1259;
509.1000;0.8588;1.1310;
509.4000;0.8612;1.1335;
509.7000;0.8645;1.1410;
510.0000;0.8637;1.1461;
510.3000;0.8612;1.1360;
510.6000;0.8596;1.1284;
510.9000;0.8620;1.1335;
511.2000;0.8620;1.1335;
511.5000;0.8620;1.1335;
511.8000;0.8588;1.1284;
512.1000;0.8596;1.1360;
512.4000;0.8620;1.1385;
512.7000;0.8726;1.1637;
513.0000;0.8539;1.1133;
513.3000;0.8620;1.1360;
513.6000;0.8604;1.1410;
513.9000;0.8628;1.1461;
514.2000;0.8620;1.1385;
514.5000;0.8628;1.1410;
514.8000;0.8645;1.1436;
515.1000;0.8653;1.1461;
515.4000;0.8628;1.1410;
515.7000;0.8645;1.1461;
516.0000;0.8620;1.1385;
516.3000;0.8555;1.1234;
516.6000;0.8620;1.1410;
516.9000;0.8620;1.1410;
517.2000;0.8620;1.1360;
517.5000;0.8653;1.1335;
517.8000;0.8645;1.1284;
518.1000;0.8563;1.1108;
518.4000;0.8669;1.1486;
518.7000;0.8661;1.1486;
519.0000;0.8637;1.1486;
519.3000;0.8620;1.1436;
519.6000;0.8612;1.1385;
519.9000;0.8628;1.1385;
520.2000;0.8637;1.1360;
520.5000;0.8620;1.1335;
520.8000;0.8637;1.1486;
521.1000;0.8612;1.1436;
521.4000;0.8637;1.1486;
521.7000;0.8645;1.1436;
522.0000;0.8685;1.1587;
522.3000;0.8612;1.1410;
522.6000;0.8604;1.1335;
522.9000;0.8620;1.1360;
523.2000;0.8628;1.1436;
523.5000;0.8628;1.1436;
523.8000;0.8628;1.1486;
524.1000;0.8645;1.1587;
524.4000;0.8628;1.1562;
524.7000;0.8628;1.1562;
525.0000;0.8620;1.1486;
525.3000;0.8628;1.1486;
525.6000;0.8628;1.1511;
525.9000;0.8677;1.1536;
526.2000;0.8612;1.1385;
526.5000;0.8596;1.1310;
526.8000;0.8645;1.1385;
527.1000;0.8620;1.1335;
527.4000;0.8612;1.1385;
527.7000;0.8645;1.1335;
528.0000;0.8661;1.1259;
528.3000;0.8612;1.1284;
528.6000;0.8628;1.1284;
528.9000;0.8645;1.1461;
529.2000;0.8620;1.1410;
529.5000;0.8645;1.1410;
529.8000;0.8620;1.1410;
530.1000;0.8628;1.1284;
530.4000;0.8677;1.1360;
530.7000;0.8645;1.1234;
531.0000;0.8612;1.1259;
531.3000;0.8628;1.1335;
531.6000;0.8620;1.1284;
531.9000;0.8612;1.1259;
532.2000;0.8628;1.1310;
532.5000;0.8645;1.1284;
532.8000;0.8620;1.1284;
533.1000;0.8628;1.1259;
533.4000;0.8571;1.1108;
533.7000;0.8645;1.1234;
534.0000;0.8637;1.1209;
534.3000;0.8645;1.1184;
534.6000;0.8620;1.1159;
534.9000;0.8653;1.1284;
535.2000;0.8604;1.1159;
535.5000;0.8628;1.1234;
535.8000;0.8620;1.1083;
536.1000;0.8612;1.1007;
536.4000;0.8637;1.1033;
536.7000;0.8620;1.0982;
537.0000;0.8612;1.0957;
537.3000;0.8612;1.0982;
537.6000;0.8612;1.1033;
537.9000;0.8628;1.1133;
538.2000;0.8588;1.1058;
538.5000;0.8596;1.1159;
538.8000;0.8628;1.1108;
539.1000;0.8628;1.1209;
539.4000;0.8710;1.1436;
539.7000;0.8669;1.1284;
540.0000;0.8628;1.1209;
540.3000;0.8612;1.1234;
540.6000;0.8628;1.1234;
540.9000;0.8637;1.1335;
541.2000;0.8669;1.1461;
541.5000;0.8620;1.1259;
541.8000;0.8612;1.1284;
542.1000;0.8669;1.1410;
542.4000;0.8604;1.1310;
542.7000;0.8637;1.1385;
543.0000;0.8620;1.1410;
543.3000;0.8637;1.1335;
543.6000;0.8685;1.1436;
543.9000;0.8637;1.1360;
544.2000;0.8628;1.1360;
544.5000;0.8661;1.1410;
544.8000;0.8604;1.1385;
545.1000;0.8620;1.1360;
545.4000;0.8620;1.1436;
545.7000;0.8637;1.1385;
546.0000;0.8596;1.1310;
546.3000;0.8612;1.1335;
546.6000;0.8620;1.1335;
546.9000;0.8580;1.1159;
547.2000;0.8612;1.1159;
547.5000;0.8637;1.1284;
547.8000;0.8637;1.1360;
548.1000;0.8628;1.1259;
548.4000;0.8645;1.1209;
548.7000;0.8628;1.1159;
549.0000;0.8612;1.1159;
549.3000;0.8620;1.1159;
549.6000;0.8677;1.1335;
549.9000;0.8588;1.1184;
550.2000;0.8612;1.1234;
550.5000;0.8628;1.1259;
550.8000;0.8628;1.1284;
551.1000;0.8637;1.1436;
551.4000;0.8628;1.1511;
551.7000;0.8612;1.1436;
552.0000;0.8628;1.1410;
552.3000;0.8628;1.1436;
552.6000;0.8588;1.1335;
552.9000;0.8628;1.1410;
553.2000;0.8628;1.1360;
553.5000;0.8596;1.1284;
553.8000;0.8612;1.1335;
554.1000;0.8612;1.1335;
554.4000;0.8596;1.1234;
554.7000;0.8637;1.1335;
555.0000;0.8612;1.1335;
555.3000;0.8628;1.1410;
555.6000;0.8612;1.1360;
555.9000;0.8612;1.1360;
556.2000;0.8620;1.1335;
556.5000;0.8604;1.1310;
556.8000;0.8612;1.1360;
557.1000;0.8612;1.1385;
557.4000;0.8612;1.1436;
557.7000;0.8637;1.1536;
558.0000;0.8620;1.1511;
558.3000;0.8596;1.1385;
558.6000;0.8628;1.1536;
558.9000;0.8628;1.1486;
559.2000;0.8612;1.1410;
559.5000;0.8620;1.1511;
559.8000;0.8637;1.1562;
560.1000;0.8620;1.1587;
560.4000;0.8604;1.1511;
560.7000;0.8637;1.1637;
561.0000;0.8628;1.1612;
561.3000;0.8637;1.1662;
561.6000;0.8612;1.1612;
561.9000;0.8612;1.1687;
562.2000;0.8612;1.1662;
562.5000;0.8612;1.1738;
562.8000;0.8620;1.1687;
563.1000;0.8612;1.1587;
563.4000;0.8645;1.1662;
563.7000;0.8620;1.1662;
564.0000;0.8612;1.1637;
564.3000;0.8637;1.1662;
564.6000;0.8612;1.1587;
564.9000;0.8628;1.1612;
565.2000;0.8604;1.1511;
565.5000;0.8620;1.1612;
565.8000;0.8620;1.1662;
566.1000;0.8628;1.1687;
566.4000;0.8620;1.1662;
566.7000;0.8637;1.1687;
567.0000;0.8612;1.1637;
567.3000;0.8612;1.1637;
567.6000;0.8596;1.1612;
567.9000;0.8588;1.1637;
568.2000;0.8620;1.1687;
568.5000;0.8628;1.1662;
568.8000;0.8612;1.1612;
569.1000;0.8604;1.1536;
569.4000;0.8620;1.1436;
569.7000;0.8604;1.1284;
570.0000;0.8620;1.1335;
570.3000;0.8580;1.1209;
570.6000;0.8604;1.1259;
570.9000;0.8645;1.1436;
571.2000;0.8612;1.1360;
571.5000;0.8628;1.1310;
571.8000;0.8612;1.1284;
572.1000;0.8596;1.1234;
572.4000;0.8604;1.1234;
572.7000;0.8604;1.1310;
573.0000;0.8620;1.1410;
573.3000;0.8620;1.1335;
573.6000;0.8620;1.1335;
573.9000;0.8628;1.1335;
574.2000;0.8628;1.1310;
574.5000;0.8571;1.1108;
574.8000;0.8718;1.1461;
575.1000;0.8620;1.1259;
575.4000;0.8620;1.1310;
575.7000;0.8620;1.1209;
576.0000;0.8612;1.1184;
576.3000;0.8620;1.1159;
576.6000;0.8571;1.1058;
576.9000;0.8628;1.1234;
577.2000;0.8612;1.1310;
577.5000;0.8637;1.1436;
577.8000;0.8628;1.1410;
578.1000;0.8612;1.1360;
578.4000;0.8612;1.1335;
578.7000;0.8604;1.1410;
579.0000;0.8612;1.1410;
579.3000;0.8604;1.1385;
579.6000;0.8628;1.1486;
579.9000;0.8718;1.1763;
580.2000;0.8612;1.1461;
580.5000;0.8628;1.1486;
580.8000;0.8612;1.1461;
581.1000;0.8628;1.1486;
581.4000;0.8612;1.1436;
581.7000;0.8628;1.1461;
582.0000;0.8604;1.1436;
582.3000;0.8604;1.1486;
582.6000;0.8620;1.1562;
582.9000;0.8628;1.1612;
583.2000;0.8710;1.1813;
583.5000;0.8637;1.1662;
583.8000;0.8637;1.1637;
584.1000;0.8645;1.1637;
584.4000;0.8628;1.1562;
584.7000;0.8620;1.1511;
585.0000;0.8596;1.1461;
585.3000;0.8628;1.1562;
585.6000;0.8612;1.1461;
585.9000;0.8604;1.1385;
586.2000;0.8612;1.1436;
586.5000;0.8637;1.1562;
586.8000;0.8628;1.1562;
587.1000;0.8620;1.1511;
587.4000;0.8612;1.1587;
587.7000;0.8612;1.1612;
588.0000;0.8628;1.1587;
588.3000;0.8604;1.1511;
588.6000;0.8653;1.1587;
588.9000;0.8604;1.1335;
589.2000;0.8628;1.1436;
589.5000;0.8620;1.1461;
589.8000;0.8612;1.1410;
590.1000;0.8620;1.1410;
590.4000;0.8620;1.1385;
590.7000;0.8694;1.1637;
591.0000;0.8588;1.1385;
591.3000;0.8620;1.1486;
591.6000;0.8669;1.1536;
591.9000;0.8612;1.1461;
592.2000;0.8588;1.1335;
592.5000;0.8628;1.1436;
592.8000;0.8612;1.1385;
593.1000;0.8620;1.1360;
593.4000;0.8604;1.1310;
593.7000;0.8596;1.1209;
594.0000;0.8604;1.1234;
594.3000;0.8628;1.1360;
594.6000;0.8628;1.1284;
594.9000;0.8596;1.1234;
595.2000;0.8612;1.1284;
595.5000;0.8620;1.1335;
595.8000;0.8620;1.1410;
596.1000;0.8620;1.1511;
596.4000;0.8588;1.1511;
596.7000;0.8612;1.1511;
597.0000;0.8596;1.1587;
597.3000;0.8604;1.1562;
597.6000;0.8604;1.1511;
597.9000;0.8620;1.1511;
598.2000;0.8637;1.1738;
598.5000;0.8628;1.1763;
598.8000;0.8628;1.1713;
599.1000;0.8612;1.1587;
599.4000;0.8628;1.1662;
599.7000;0.8596;1.1587;
600.0000;0.8588;1.1511;
600.3000;0.8612;1.1536;
600.6000;0.8620;1.1486;
600.9000;0.8661;1.1511;
601.2000;0.8571;1.1310;
601.5000;0.8555;1.1234;
601.8000;0.8466;1.1033;
602.1000;0.8384;1.0755;
602.4000;0.8335;1.0504;
602.7000;0.8262;1.0252;
603.0000;0.8221;1.0176;
603.3000;0.8164;1.0050;
603.6000;0.8107;0.9849;
603.9000;0.8059;0.9672;
604.2000;0.8010;0.9521;
604.5000;0.7977;0.9421;
604.8000;0.7904;0.9295;
605.1000;0.7871;0.9269;
605.4000;0.7831;0.9219;
605.7000;0.7896;0.9521;
606.0000;0.7766;0.9219;
606.3000;0.7692;0.9043;
606.6000;0.7660;0.9043;
606.9000;0.7619;0.8917;
607.2000;0.7586;0.8917;
607.5000;0.7546;0.8892;
607.8000;0.7513;0.8866;
608.1000;0.7416;0.8589;
608.4000;0.7456;0.8740;
608.7000;0.7432;0.8740;
609.0000;0.7448;0.8892;
609.3000;0.7367;0.8791;
609.6000;0.7326;0.8715;
609.9000;0.7261;0.8489;
610.2000;0.7318;0.8690;
610.5000;0.7293;0.8665;
610.8000;0.7236;0.8514;
611.1000;0.7220;0.8463;
611.4000;0.7179;0.8463;
611.7000;0.7171;0.8463;
612.0000;0.7123;0.8438;
612.3000;0.7114;0.8463;
612.6000;0.7074;0.8463;
612.9000;0.7041;0.8438;
613.2000;0.7025;0.8438;
613.5000;0.7033;0.8438;
613.8000;0.6895;0.8161;
614.1000;0.6968;0.8388;
614.4000;0.6943;0.8262;
614.7000;0.6935;0.8287;
615.0000;0.6886;0.8211;
615.3000;0.6870;0.8262;
615.6000;0.6838;0.8287;
615.9000;0.6870;0.8413;
616.2000;0.6821;0.8337;
616.5000;0.6805;0.8287;
616.8000;0.6781;0.8287;
617.1000;0.6781;0.8337;
617.4000;0.6740;0.8337;
617.7000;0.6740;0.8388;
618.0000;0.6691;0.8337;
618.3000;0.6683;0.8363;
618.6000;0.6667;0.8363;
618.9000;0.6634;0.8262;
619.2000;0.6642;0.8287;
619.5000;0.6618;0.8186;
619.8000;0.6610;0.8211;
620.1000;0.6602;0.8136;
620.4000;0.6577;0.8161;
620.7000;0.6561;0.8186;
621.0000;0.6545;0.8186;
621.3000;0.6512;0.8136;
621.6000;0.6528;0.8136;
621.9000;0.6479;0.7985;
622.2000;0.6488;0.8035;
622.5000;0.6471;0.8010;
622.8000;0.6422;0.7884;
623.1000;0.6431;0.7884;
623.4000;0.6422;0.7884;
623.7000;0.6479;0.8010;
624.0000;0.6422;0.7934;
624.3000;0.6382;0.7960;
624.6000;0.6382;0.7859;
624.9000;0.6374;0.7834;
625.2000;0.6349;0.7783;
625.5000;0.6309;0.7758;
625.8000;0.6325;0.7859;
626.1000;0.6333;0.7934;
626.4000;0.6300;0.7909;
626.7000;0.6284;0.8010;
627.0000;0.6292;0.8111;
627.3000;0.6260;0.8111;
627.6000;0.6252;0.8161;
627.9000;0.6227;0.8060;
628.2000;0.6170;0.7909;
628.5000;0.6219;0.8035;
628.8000;0.6203;0.7985;
629.1000;0.6186;0.7934;
629.4000;0.6178;0.7859;
629.7000;0.6170;0.7859;
630.0000;0.6162;0.7859;
630.3000;0.6138;0.7859;
630.6000;0.6105;0.7783;
630.9000;0.6146;0.7859;
631.2000;0.6105;0.7808;
631.5000;0.6113;0.7834;
631.8000;0.6129;0.7859;
632.1000;0.6162;0.7960;
632.4000;0.6138;0.7884;
632.7000;0.6048;0.7758;
633.0000;0.6056;0.7859;
633.3000;0.6056;0.7884;
633.6000;0.6040;0.7884;
633.9000;0.6056;0.7808;
634.2000;0.6040;0.7808;
634.5000;0.6032;0.7808;
634.8000;0.6040;0.7859;
635.1000;0.6024;0.7884;
635.4000;0.6056;0.7834;
635.7000;0.5975;0.7657;
636.0000;0.5999;0.7834;
636.3000;0.5975;0.7808;
636.6000;0.5975;0.7808;
636.9000;0.6064;0.7985;
637.2000;0.5958;0.7808;
637.5000;0.5967;0.7859;
637.8000;0.5950;0.7783;
638.1000;0.5918;0.7758;
638.4000;0.5926;0.7733;
638.7000;0.5918;0.7758;
639.0000;0.5934;0.7733;
639.3000;0.5910;0.7682;
639.6000;0.5893;0.7607;
639.9000;0.5885;0.7657;
640.2000;0.5918;0.7834;
640.5000;0.5902;0.7783;
640.8000;0.5893;0.7783;
641.1000;0.5877;0.7758;
641.4000;0.5877;0.7783;
641.7000;0.5869;0.7834;
642.0000;0.5861;0.7808;
642.3000;0.5845;0.7808;
642.6000;0.5861;0.7783;
642.9000;0.5845;0.7758;
643.2000;0.5828;0.7607;
643.5000;0.5828;0.7607;
643.8000;0.5861;0.7657;
644.1000;0.5820;0.7531;
644.4000;0.5804;0.7481;
644.7000;0.5804;0.7506;
645.0000;0.5779;0.7582;
645.3000;0.5804;0.7708;
645.6000;0.5788;0.7682;
645.9000;0.5779;0.7733;
646.2000;0.5771;0.7783;
646.5000;0.5771;0.7859;
646.8000;0.5771;0.7758;
647.1000;0.5747;0.7758;
647.4000;0.5731;0.7758;
647.7000;0.5763;0.7884;
648.0000;0.5722;0.7808;
648.3000;0.5739;0.7758;
648.6000;0.5706;0.7657;
648.9000;0.5747;0.7708;
649.2000;0.5706;0.7582;
649.5000;0.5698;0.7582;
649.8000;0.5649;0.7431;
650.1000;0.5731;0.7758;
650.4000;0.5731;0.7783;
650.7000;0.5739;0.7733;
651.0000;0.5690;0.7682;
651.3000;0.5690;0.7708;
651.6000;0.5706;0.7657;
651.9000;0.5747;0.7783;
652.2000;0.5665;0.7632;
652.5000;0.5657;0.7708;
652.8000;0.5665;0.7758;
653.1000;0.5674;0.7733;
653.4000;0.5657;0.7632;
653.7000;0.5649;0.7632;
654.0000;0.5665;0.7682;
654.3000;0.5625;0.7607;
654.6000;0.5641;0.7582;
654.9000;0.5657;0.7657;
655.2000;0.5625;0.7708;
655.5000;0.5649;0.7708;
655.8000;0.5633;0.7682;
656.1000;0.5633;0.7682;
656.4000;0.5633;0.7808;
656.7000;0.5625;0.7859;
657.0000;0.5625;0.7783;
657.3000;0.5608;0.7733;
657.6000;0.5600;0.7758;
657.9000;0.5608;0.7859;
658.2000;0.5600;0.7859;
658.5000;0.5576;0.7808;
658.8000;0.5600;0.7859;
659.1000;0.5600;0.7834;
659.4000;0.5682;0.8010;
659.7000;0.5584;0.7808;
660.0000;0.5608;0.7859;
660.3000;0.5560;0.7708;
660.6000;0.5576;0.7834;
660.9000;0.5568;0.7834;
661.2000;0.5568;0.7834;
661.5000;0.5649;0.8060;
661.8000;0.5560;0.7859;
662.1000;0.5584;0.7884;
662.4000;0.5551;0.7783;
662.7000;0.5560;0.7884;
663.0000;0.5560;0.7859;
663.3000;0.5495;0.7682;
663.6000;0.5576;0.7758;
663.9000;0.5527;0.7632;
664.2000;0.5535;0.7607;
664.5000;0.5527;0.7557;
664.8000;0.5535;0.7531;
665.1000;0.5608;0.7758;
665.4000;0.5527;0.7682;
665.7000;0.5560;0.7808;
666.0000;0.5486;0.7708;
666.3000;0.5511;0.7733;
666.6000;0.5519;0.7758;
666.9000;0.5511;0.7834;
667.2000;0.5519;0.7884;
667.5000;0.5462;0.7682;
667.8000;0.5495;0.7708;
668.1000;0.5503;0.7632;
668.4000;0.5503;0.7657;
668.7000;0.5486;0.7557;
669.0000;0.5503;0.7657;
669.3000;0.5503;0.7657;
669.6000;0.5584;0.7834;
669.9000;0.5486;0.7657;
670.2000;0.5470;0.7632;
670.5000;0.5478;0.7758;
670.8000;0.5421;0.7733;
671.1000;0.5470;0.7884;
671.4000;0.5421;0.7657;
671.7000;0.5438;0.7682;
672.0000;0.5454;0.7657;
672.3000;0.5462;0.7682;
672.6000;0.5454;0.7682;
672.9000;0.5446;0.7607;
673.2000;0.5438;0.7708;
673.5000;0.5438;0.7682;
673.8000;0.5429;0.7733;
674.1000;0.5446;0.7808;
674.4000;0.5421;0.7884;
674.7000;0.5454;0.7859;
675.0000;0.5397;0.7758;
675.3000;0.5429;0.7859;
675.6000;0.5421;0.7909;
675.9000;0.5429;0.7934;
676.2000;0.5413;0.7884;
676.5000;0.5413;0.7909;
676.8000;0.5429;0.7960;
677.1000;0.5446;0.7909;
677.4000;0.5421;0.7909;
677.7000;0.5421;0.7859;
678.0000;0.5413;0.7808;
678.3000;0.5372;0.7758;
678.6000;0.5438;0.7909;
678.9000;0.5397;0.7758;
679.2000;0.5397;0.7733;
679.5000;0.5405;0.7808;
679.8000;0.5397;0.7733;
680.1000;0.5405;0.7733;
680.4000;0.5405;0.7758;
680.7000;0.5381;0.7758;
681.0000;0.5397;0.7909;
681.3000;0.5397;0.7934;
681.6000;0.5372;0.7834;
681.9000;0.5389;0.7682;
682.2000;0.5397;0.7708;
682.5000;0.5372;0.7733;
682.8000;0.5372;0.7682;
683.1000;0.5356;0.7557;
683.4000;0.5356;0.7657;
683.7000;0.5364;0.7657;
684.0000;0.5348;0.7708;
684.3000;0.5299;0.7582;
684.6000;0.5364;0.7682;
684.9000;0.5324;0.7607;
685.2000;0.5340;0.7708;
685.5000;0.5364;0.7834;
685.8000;0.5356;0.7859;
686.1000;0.5356;0.7859;
686.4000;0.5356;0.7884;
686.7000;0.5356;0.7859;
687.0000;0.5372;0.7884;
687.3000;0.5356;0.7909;
687.6000;0.5348;0.7808;
687.9000;0.5356;0.7708;
688.2000;0.5348;0.7808;
688.5000;0.5356;0.7783;
688.8000;0.5340;0.7682;
689.1000;0.5324;0.7657;
689.4000;0.5324;0.7733;
689.7000;0.5340;0.7733;
690.0000;0.5356;0.7708;
690.3000;0.5332;0.7607;
690.6000;0.5267;0.7380;
690.9000;0.5307;0.7531;
691.2000;0.5307;0.7582;
691.5000;0.5324;0.7632;
691.8000;0.5315;0.7708;
692.1000;0.5315;0.7632;
692.4000;0.5315;0.7682;
692.7000;0.5275;0.7506;
693.0000;0.5315;0.7708;
693.3000;0.5324;0.7783;
693.6000;0.5324;0.7808;
693.9000;0.5291;0.7834;
694.2000;0.5283;0.7808;
694.5000;0.5307;0.7808;
694.8000;0.5291;0.7783;
695.1000;0.5315;0.7884;
695.4000;0.5299;0.8035;
695.7000;0.5291;0.8010;
696.0000;0.5307;0.7985;
696.3000;0.5299;0.7884;
696.6000;0.5332;0.7985;
696.9000;0.5291;0.7909;
697.2000;0.5299;0.7884;
697.5000;0.5250;0.7733;
697.8000;0.5283;0.7960;
698.1000;0.5275;0.7934;
698.4000;0.5283;0.7934;
698.7000;0.5299;0.7934;
699.0000;0.5258;0.7859;
699.3000;0.5291;0.7884;
699.6000;0.5258;0.7808;
699.9000;0.5275;0.7783;
700.2000;0.5275;0.7758;
700.5000;0.5283;0.7834;
700.8000;0.5291;0.7834;
701.1000;0.5307;0.7909;
701.4000;0.5299;0.7834;
701.7000;0.5299;0.7808;
702.0000;0.5283;0.7834;
702.3000;0.5267;0.7859;
702.6000;0.5258;0.7834;
702.9000;0.5283;0.7884;
703.2000;0.5332;0.8010;
703.5000;0.5307;0.7985;
703.8000;0.5275;0.7934;
704.1000;0.5283;0.7909;
704.4000;0.5250;0.7808;
704.7000;0.5307;0.7934;
705.0000;0.5267;0.7758;
705.3000;0.5275;0.7834;
705.6000;0.5234;0.7758;
705.9000;0.5258;0.7682;
706.2000;0.5242;0.7682;
706.5000;0.5258;0.7733;
706.8000;0.5234;0.7733;
707.1000;0.5315;0.7909;
707.4000;0.5234;0.7884;
707.7000;0.5234;0.7960;
708.0000;0.5250;0.7934;
708.3000;0.5250;0.7934;
708.6000;0.5267;0.7884;
708.9000;0.5291;0.7934;
709.2000;0.5210;0.7682;
709.5000;0.5226;0.7783;
709.8000;0.5218;0.7733;
710.1000;0.5226;0.7708;
710.4000;0.5226;0.7733;
710.7000;0.5218;0.7758;
711.0000;0.5193;0.7708;
711.3000;0.5234;0.7808;
711.6000;0.5226;0.7909;
711.9000;0.5201;0.7834;
712.2000;0.5218;0.7960;
712.5000;0.5234;0.8010;
712.8000;0.5201;0.7960;
713.1000;0.5234;0.7960;
713.4000;0.5218;0.7859;
713.7000;0.5210;0.7783;
714.0000;0.5234;0.7985;
714.3000;0.5218;0.7934;
714.6000;0.5210;0.7985;
714.9000;0.5185;0.7934;
715.2000;0.5218;0.7909;
715.5000;0.5250;0.8010;
715.8000;0.5210;0.7960;
716.1000;0.5218;0.8010;
716.4000;0.5210;0.7909;
716.7000;0.5226;0.7960;
717.0000;0.5210;0.7859;
717.3000;0.5218;0.7884;
717.6000;0.5226;0.7884;
717.9000;0.5210;0.7834;
718.2000;0.5177;0.7708;
718.5000;0.5112;0.7531;
718.8000;0.5120;0.7506;
719.1000;0.5185;0.7657;
719.4000;0.5283;0.7859;
719.7000;0.5185;0.7682;
720.0000;0.5128;0.7557;
720.3000;0.5201;0.7783;
720.6000;0.5185;0.7808;
720.9000;0.5185;0.7859;
721.2000;0.5185;0.7909;
721.5000;0.5144;0.7859;
721.8000;0.5201;0.8010;
722.1000;0.5177;0.8086;
722.4000;0.5177;0.8035;
722.7000;0.5201;0.8035;
723.0000;0.5210;0.8010;
723.3000;0.5185;0.7934;
723.6000;0.5185;0.7934;
723.9000;0.5185;0.7934;
724.2000;0.5210;0.7934;
724.5000;0.5201;0.7884;
724.8000;0.5169;0.7834;
725.1000;0.5136;0.7783;
725.4000;0.5185;0.7884;
725.7000;0.5177;0.7834;
726.0000;0.5185;0.7909;
726.3000;0.5177;0.7834;
726.6000;0.5185;0.7934;
726.9000;0.5193;0.7960;
727.2000;0.5177;0.7808;
727.5000;0.5185;0.7758;
727.8000;0.5161;0.7708;
728.1000;0.5185;0.7682;
728.4000;0.5177;0.7708;
728.7000;0.5201;0.7733;
729.0000;0.5185;0.7632;
729.3000;0.5136;0.7657;
729.6000;0.5234;0.7960;
729.9000;0.5153;0.7808;
730.2000;0.5161;0.7783;
730.5000;0.5153;0.7808;
730.8000;0.5177;0.7909;
731.1000;0.5153;0.7808;
731.4000;0.5153;0.7783;
731.7000;0.5218;0.7985;
732.0000;0.5177;0.7985;
732.3000;0.5161;0.7909;
732.6000;0.5161;0.7834;
732.9000;0.5161;0.7859;
733.2000;0.5169;0.7808;
733.5000;0.5169;0.7834;
733.8000;0.5161;0.7859;
734.1000;0.5153;0.7859;
734.4000;0.5161;0.7909;
734.7000;0.5153;0.7960;
735.0000;0.5128;0.7834;
735.3000;0.5153;0.7884;
735.6000;0.5161;0.7884;
735.9000;0.5177;0.7909;
736.2000;0.5161;0.7834;
736.5000;0.5153;0.7834;
736.8000;0.5177;0.7934;
737.1000;0.5136;0.7808;
737.4000;0.5169;0.7934;
737.7000;0.5153;0.7934;
738.0000;0.5153;0.7985;
738.3000;0.5161;0.7884;
738.6000;0.5177;0.7960;
738.9000;0.5096;0.7708;
739.2000;0.5144;0.7808;
739.5000;0.5104;0.7733;
739.8000;0.5169;0.7834;
740.1000;0.5144;0.7682;
740.4000;0.5144;0.7557;
740.7000;0.5136;0.7557;
741.0000;0.5128;0.7557;
741.3000;0.5153;0.7531;
741.6000;0.5144;0.7582;
741.9000;0.5128;0.7632;
742.2000;0.5161;0.7733;
742.5000;0.5136;0.7733;
742.8000;0.5063;0.7557;
743.1000;0.5136;0.7808;
743.4000;0.5128;0.7859;
743.7000;0.5136;0.7960;
744.0000;0.5120;0.7960;
744.3000;0.5144;0.7909;
744.6000;0.5136;0.7859;
744.9000;0.5120;0.7834;
745.2000;0.5120;0.7783;
745.5000;0.5128;0.7834;
745.8000;0.5128;0.7859;
746.1000;0.5112;0.7884;
746.4000;0.5120;0.7859;
746.7000;0.5144;0.7934;
747.0000;0.5120;0.7884;
747.3000;0.5120;0.7834;
747.6000;0.5144;0.7884;
747.9000;0.5120;0.7808;
748.2000;0.5128;0.7909;
748.5000;0.5104;0.7834;
748.8000;0.5079;0.7808;
749.1000;0.5096;0.7808;
749.4000;0.5104;0.7934;
749.7000;0.5144;0.8010;
750.0000;0.5120;0.7909;
750.3000;0.5096;0.7834;
750.6000;0.5120;0.7859;
750.9000;0.5128;0.7960;
751.2000;0.5104;0.7934;
751.5000;0.5112;0.7783;
751.8000;0.5079;0.7733;
752.1000;0.5112;0.7834;
752.4000;0.5120;0.7783;
752.7000;0.5112;0.7708;
753.0000;0.5104;0.7682;
753.3000;0.5136;0.7808;
753.6000;0.5112;0.7808;
753.9000;0.5104;0.7834;
754.2000;0.5079;0.7733;
754.5000;0.5153;0.7859;
754.8000;0.5088;0.7808;
755.1000;0.5096;0.7783;
755.4000;0.5079;0.7733;
755.7000;0.5079;0.7758;
756.0000;0.5104;0.7808;
756.3000;0.5104;0.7758;
756.6000;0.5112;0.7783;
756.9000;0.5088;0.7884;
757.2000;0.5112;0.7985;
757.5000;0.5104;0.8086;
757.8000;0.5096;0.8060;
758.1000;0.5055;0.7884;
758.4000;0.5104;0.7960;
758.7000;0.5104;0.7909;
759.0000;0.5112;0.7834;
759.3000;0.5104;0.7859;
759.6000;0.5120;0.7909;
759.9000;0.5128;0.7960;
760.2000;0.5104;0.7834;
760.5000;0.5071;0.7682;
760.8000;0.5096;0.7733;
761.1000;0.5096;0.7657;
761.4000;0.5120;0.7758;
761.7000;0.5079;0.7682;
762.0000;0.5104;0.7682;
762.3000;0.5096;0.7682;
762.6000;0.5161;0.7834;
762.9000;0.5071;0.7733;
763.2000;0.5088;0.7834;
763.5000;0.5071;0.7808;
763.8000;0.5088;0.7985;
764.1000;0.4998;0.7783;
764.4000;0.5071;0.8086;
764.7000;0.5088;0.8035;
765.0000;0.5096;0.8161;
765.3000;0.5088;0.7934;
765.6000;0.5022;0.7657;
765.9000;0.5153;0.7934;
766.2000;0.5088;0.7758;
766.5000;0.5096;0.7859;
766.8000;0.5079;0.7834;
767.1000;0.5088;0.7909;
767.4000;0.5096;0.7834;
767.7000;0.5104;0.7834;
768.0000;0.5088;0.7783;
768.3000;0.5088;0.7808;
768.6000;0.5144;0.7960;
768.9000;0.5088;0.7808;
769.2000;0.5079;0.7859;
769.5000;0.5079;0.7758;
769.8000;0.5096;0.7708;
770.1000;0.5071;0.7682;
770.4000;0.5079;0.7808;
770.7000;0.5153;0.8035;
771.0000;0.5039;0.7682;
771.3000;0.5079;0.7783;
771.6000;0.5079;0.7758;
771.9000;0.5071;0.7733;
772.2000;0.5055;0.7733;
772.5000;0.5088;0.7783;
772.8000;0.5096;0.7733;
773.1000;0.5169;0.8010;
773.4000;0.5063;0.7783;
773.7000;0.5120;0.7934;
774.0000;0.5088;0.7783;
774.3000;0.5055;0.7657;
774.6000;0.5079;0.7708;
774.9000;0.5071;0.7682;
775.2000;0.5063;0.7657;
775.5000;0.5063;0.7607;
775.8000;0.5055;0.7582;
776.1000;0.5063;0.7557;
776.4000;0.5079;0.7481;
776.7000;0.5031;0.7330;
777.0000;0.5055;0.7405;
777.3000;0.5104;0.7557;
777.6000;0.5055;0.7456;
777.9000;0.5055;0.7506;
778.2000;0.5071;0.7531;
778.5000;0.5063;0.7607;
778.8000;0.5071;0.7632;
779.1000;0.5079;0.7607;
779.4000;0.5071;0.7657;
779.7000;0.5006;0.7431;
780.0000;0.5055;0.7557;
780.3000;0.5161;0.7909;
780.6000;0.5079;0.7708;
780.9000;0.5079;0.7682;
781.2000;0.5079;0.7783;
781.5000;0.5079;0.7859;
781.8000;0.5079;0.7808;
782.1000;0.5088;0.7834;
782.4000;0.5071;0.7783;
782.7000;0.5055;0.7708;
783.0000;0.5071;0.7783;
783.3000;0.5079;0.7834;
783.6000;0.5047;0.7708;
783.9000;0.5104;0.7859;
784.2000;0.5088;0.7884;
784.5000;0.5088;0.7960;
784.8000;0.5047;0.7909;
785.1000;0.5047;0.7884;
785.4000;0.5063;0.7808;
785.7000;0.5031;0.7733;
786.0000;0.5104;0.7934;
786.3000;0.5063;0.7808;
786.6000;0.5047;0.7783;
786.9000;0.5047;0.7733;
787.2000;0.5039;0.7758;
787.5000;0.5047;0.7783;
787.8000;0.5063;0.7783;
788.1000;0.5063;0.7859;
788.4000;0.5063;0.7834;
788.7000;0.5063;0.7834;
789.0000;0.5071;0.7834;
789.3000;0.5055;0.7859;
789.6000;0.5055;0.7834;
789.9000;0.5047;0.7808;
790.2000;0.5039;0.7708;
790.5000;0.5071;0.7834;
790.8000;0.5022;0.7808;
791.1000;0.5014;0.7758;
791.4000;0.5063;0.7834;
791.7000;0.5096;0.7934;
792.0000;0.5071;0.7960;
792.3000;0.5063;0.7859;
792.6000;0.5063;0.7859;
792.9000;0.5063;0.7934;
793.2000;0.5055;0.7808;
793.5000;0.5063;0.7808;
793.8000;0.5039;0.7758;
794.1000;0.5063;0.7783;
794.4000;0.5006;0.7708;
794.7000;0.5031;0.7834;
795.0000;0.5047;0.7783;
795.3000;0.5128;0.7960;
795.6000;0.5047;0.7758;
795.9000;0.5022;0.7733;
796.2000;0.5047;0.7758;
796.5000;0.5039;0.7708;
796.8000;0.5014;0.7808;
797.1000;0.5071;0.7960;
797.4000;0.5047;0.7834;
797.7000;0.5096;0.7909;
798.0000;0.5031;0.7733;
798.3000;0.5047;0.7783;
798.6000;0.5055;0.7859;
798.9000;0.5047;0.7884;
799.2000;0.5071;0.7909;
799.5000;0.4982;0.7758;
799.8000;0.5047;0.7859;
800.1000;0.5047;0.7909;
800.4000;0.5014;0.7758;
800.7000;0.5047;0.7783;
801.0000;0.5039;0.7758;
801.3000;0.5031;0.7733;
801.6000;0.5063;0.7884;
801.9000;0.5031;0.7783;
802.2000;0.5031;0.7783;
802.5000;0.5031;0.7834;
802.8000;0.5096;0.7985;
803.1000;0.5063;0.7834;
803.4000;0.5047;0.7708;
803.7000;0.5055;0.7758;
804.0000;0.5039;0.7682;
804.3000;0.5112;0.7808;
804.6000;0.5047;0.7708;
804.9000;0.5039;0.7758;
805.2000;0.5039;0.7783;
805.5000;0.5039;0.7733;
805.8000;0.5063;0.7783;
806.1000;0.5047;0.7808;
806.4000;0.5055;0.7859;
806.7000;0.5039;0.7859;
807.0000;0.5031;0.7884;
807.3000;0.5022;0.7834;
807.6000;0.5031;0.7859;
807.9000;0.5071;0.7960;
808.2000;0.5022;0.7909;
808.5000;0.5039;0.7884;
808.8000;0.5031;0.7909;
809.1000;0.5022;0.7985;
809.4000;0.5039;0.8010;
809.7000;0.5047;0.8060;
810.0000;0.5014;0.7960;
810.3000;0.5022;0.8010;
810.6000;0.5039;0.8035;
810.9000;0.5031;0.7960;
811.2000;0.5031;0.8010;
811.5000;0.4965;0.7859;
811.8000;0.5039;0.7985;
812.1000;0.5022;0.7909;
812.4000;0.5022;0.7884;
812.7000;0.5014;0.7934;
813.0000;0.4990;0.7884;
813.3000;0.5014;0.7960;
813.6000;0.5031;0.7960;
813.9000;0.4941;0.7657;
814.2000;0.5047;0.7884;
814.5000;0.5031;0.7808;
814.8000;0.5014;0.7783;
815.1000;0.5022;0.7808;
815.4000;0.5031;0.7808;
815.7000;0.5031;0.7783;
816.0000;0.5006;0.7758;
816.3000;0.5022;0.7708;
816.6000;0.5022;0.7708;
816.9000;0.5039;0.7808;
817.2000;0.5079;0.7960;
817.5000;0.4982;0.7783;
817.8000;0.5039;0.7909;
818.1000;0.5022;0.7909;
818.4000;0.5014;0.7808;
818.7000;0.5022;0.7783;
819.0000;0.5014;0.7808;
819.3000;0.5022;0.7834;
819.6000;0.4957;0.7758;
819.9000;0.5014;0.7834;
820.2000;0.5014;0.7934;
820.5000;0.5022;0.7859;
820.8000;0.5039;0.7859;
821.1000;0.5022;0.7884;
821.4000;0.5022;0.7884;
821.7000;0.5014;0.7859;
822.0000;0.4998;0.7884;
822.3000;0.5022;0.8035;
822.6000;0.5022;0.7985;
822.9000;0.5022;0.7934;
823.2000;0.5014;0.7859;
823.5000;0.5022;0.7934;
823.8000;0.5022;0.8035;
824.1000;0.5047;0.8111;
824.4000;0.5031;0.7909;
824.7000;0.5014;0.7783;
825.0000;0.5014;0.7808;
825.3000;0.5014;0.7808;
825.6000;0.5014;0.7834;
825.9000;0.5014;0.7884;
826.2000;0.5031;0.7909;
826.5000;0.5006;0.7834;
826.8000;0.5014;0.7884;
827.1000;0.5031;0.8010;
827.4000;0.5014;0.7934;
827.7000;0.5014;0.7909;
828.0000;0.5022;0.7834;
828.3000;0.5014;0.7783;
828.6000;0.5022;0.7808;
828.9000;0.5039;0.7884;
829.2000;0.5022;0.7808;
829.5000;0.5022;0.7884;
829.8000;0.5039;0.7934;
830.1000;0.5022;0.7960;
830.4000;0.5014;0.7859;
830.7000;0.5014;0.7783;
831.0000;0.5014;0.7808;
831.3000;0.5022;0.7909;
831.6000;0.5022;0.7960;
831.9000;0.5055;0.8161;
832.2000;0.4990;0.8010;
832.5000;0.5014;0.7985;
832.8000;0.5039;0.7985;
833.1000;0.5014;0.7934;
833.4000;0.5006;0.7960;
833.7000;0.5022;0.8010;
834.0000;0.4949;0.7960;
834.3000;0.5006;0.8161;
834.6000;0.5006;0.8186;
834.9000;0.5014;0.8237;
835.2000;0.5014;0.8211;
835.5000;0.5006;0.8186;
835.8000;0.5088;0.8388;
836.1000;0.5006;0.8111;
836.4000;0.5006;0.8161;
836.7000;0.5022;0.8211;
837.0000;0.5006;0.8136;
837.3000;0.5006;0.8060;
837.6000;0.5022;0.8111;
837.9000;0.5006;0.8086;
838.2000;0.4990;0.8010;
838.5000;0.5014;0.8035;
838.8000;0.5022;0.8086;
839.1000;0.5031;0.8010;
839.4000;0.5014;0.7960;
839.7000;0.5014;0.7960;
840.0000;0.5022;0.8035;
840.3000;0.5039;0.8086;
840.6000;0.5063;0.8136;
840.9000;0.5006;0.8035;
841.2000;0.5014;0.8060;
841.5000;0.5006;0.8035;
841.8000;0.4957;0.7834;
842.1000;0.5006;0.7909;
842.4000;0.4990;0.7808;
842.7000;0.5022;0.7884;
843.0000;0.5031;0.7960;
843.3000;0.5022;0.8060;
843.6000;0.5014;0.8060;
843.9000;0.5031;0.8161;
844.2000;0.5014;0.8035;
844.5000;0.4998;0.7960;
844.8000;0.5031;0.8010;
845.1000;0.5006;0.8060;
845.4000;0.5006;0.7985;
845.7000;0.5006;0.8060;
846.0000;0.4998;0.8010;
846.3000;0.4998;0.8010;
846.6000;0.4949;0.7884;
846.9000;0.5006;0.8111;
847.2000;0.4990;0.8060;
847.5000;0.4990;0.7960;
847.8000;0.4949;0.7859;
848.1000;0.4998;0.7934;
848.4000;0.5006;0.7909;
848.7000;0.4990;0.7884;
849.0000;0.4998;0.7859;
849.3000;0.5006;0.7934;
849.6000;0.5006;0.7909;
849.9000;0.4974;0.7884;
850.2000;0.4949;0.7834;
850.5000;0.4998;0.7859;
850.8000;0.5022;0.7859;
851.1000;0.4990;0.7783;
851.4000;0.4998;0.7884;
851.7000;0.5006;0.7960;
852.0000;0.5079;0.8161;
852.3000;0.5014;0.7960;
852.6000;0.5014;0.7960;
852.9000;0.5006;0.7960;
853.2000;0.5014;0.7960;
853.5000;0.5006;0.7934;
853.8000;0.4990;0.7934;
854.1000;0.4998;0.7934;
854.4000;0.5014;0.8010;
854.7000;0.5014;0.8010;
855.0000;0.5031;0.8060;
855.3000;0.5014;0.8035;
855.6000;0.5014;0.8161;
855.9000;0.5006;0.8136;
856.2000;0.4982;0.8111;
856.5000;0.5006;0.8111;
856.8000;0.5006;0.8111;
857.1000;0.4957;0.7960;
857.4000;0.4990;0.8060;
857.7000;0.4965;0.8035;
858.0000;0.4965;0.8060;
858.3000;0.4998;0.8060;
858.6000;0.4990;0.8111;
858.9000;0.4990;0.8086;
859.2000;0.4982;0.8010;
859.5000;0.4974;0.8010;
859.8000;0.4974;0.8060;
860.1000;0.4990;0.8060;
860.4000;0.4990;0.7960;
860.7000;0.5039;0.8086;
861.0000;0.5006;0.8136;
861.3000;0.4982;0.8136;
861.6000;0.4982;0.8035;
861.9000;0.4982;0.8136;
862.2000;0.4957;0.8060;
862.5000;0.4974;0.8111;
862.8000;0.4982;0.8161;
863.1000;0.4998;0.8136;
863.4000;0.4998;0.8086;
863.7000;0.5006;0.8086;
864.0000;0.4990;0.8035;
864.3000;0.4974;0.7960;
864.6000;0.4974;0.8010;
864.9000;0.4990;0.8086;
865.2000;0.4860;0.7758;
865.5000;0.5006;0.8086;
865.8000;0.4982;0.8060;
866.1000;0.4998;0.8060;
866.4000;0.5006;0.8111;
866.7000;0.4998;0.8161;
867.0000;0.4998;0.8211;
867.3000;0.4998;0.8111;
867.6000;0.4982;0.8060;
867.9000;0.4990;0.7985;
868.2000;0.4990;0.7884;
868.5000;0.4990;0.7859;
868.8000;0.5022;0.8035;
869.1000;0.4974;0.7934;
869.4000;0.5014;0.8035;
869.7000;0.5006;0.8035;
870.0000;0.4990;0.8111;
870.3000;0.4990;0.8111;
870.6000;0.4998;0.8086;
870.9000;0.4998;0.8035;
871.2000;0.5055;0.8211;
871.5000;0.4990;0.7960;
871.8000;0.4974;0.7985;
872.1000;0.5006;0.8086;
872.4000;0.4990;0.8035;
872.7000;0.4941;0.7909;
873.0000;0.4990;0.7960;
873.3000;0.4941;0.7834;
873.6000;0.4990;0.7934;
873.9000;0.4933;0.7808;
874.2000;0.4917;0.7783;
874.5000;0.4982;0.7960;
874.8000;0.4941;0.7985;
875.1000;0.4965;0.8086;
875.4000;0.4974;0.8111;
875.7000;0.5014;0.8186;
876.0000;0.4965;0.7985;
876.3000;0.4957;0.8010;
876.6000;0.4982;0.8010;
876.9000;0.4982;0.8086;
877.2000;0.5006;0.8186;
877.5000;0.4957;0.8086;
877.8000;0.4974;0.8060;
878.1000;0.4982;0.8035;
878.4000;0.4990;0.8035;
878.7000;0.4965;0.7934;
879.0000;0.4974;0.7934;
879.3000;0.4998;0.7884;
879.6000;0.5006;0.7884;
879.9000;0.5006;0.7934;
880.2000;0.4974;0.7859;
880.5000;0.4974;0.7909;
880.8000;0.4990;0.7985;
881.1000;0.4990;0.7985;
881.4000;0.4982;0.7960;
881.7000;0.4957;0.7859;
882.0000;0.5006;0.7909;
882.3000;0.4982;0.7834;
882.6000;0.4982;0.7758;
882.9000;0.4982;0.7708;
883.2000;0.4982;0.7758;
883.5000;0.4974;0.7834;
883.8000;0.4965;0.7733;
884.1000;0.4982;0.7909;
884.4000;0.5014;0.7985;
884.7000;0.4957;0.7783;
885.0000;0.4982;0.7834;
885.3000;0.4974;0.7909;
885.6000;0.4965;0.7909;
885.9000;0.4982;0.8035;
886.2000;0.4982;0.7909;
886.5000;0.4982;0.7758;
886.8000;0.4990;0.7733;
887.1000;0.4982;0.7733;
887.4000;0.4965;0.7607;
887.7000;0.4982;0.7682;
888.0000;0.4917;0.7506;
888.3000;0.4974;0.7657;
888.6000;0.4974;0.7758;
888.9000;0.4990;0.7708;
889.2000;0.4990;0.7733;
889.5000;0.4965;0.7758;
889.8000;0.4982;0.7884;
890.1000;0.4982;0.7985;
890.4000;0.4974;0.7909;
890.7000;0.4974;0.7934;
891.0000;0.4982;0.7909;
891.3000;0.4974;0.7909;
891.6000;0.4990;0.7859;
891.9000;0.4982;0.7859;
892.2000;0.5006;0.7934;
892.5000;0.5006;0.8010;
892.8000;0.4982;0.7960;
893.1000;0.4990;0.7834;
893.4000;0.4990;0.7733;
893.7000;0.4990;0.7758;
894.0000;0.4990;0.7783;
894.3000;0.4982;0.7834;
894.6000;0.4974;0.7783;
894.9000;0.4974;0.7834;
895.2000;0.4965;0.7884;
895.5000;0.4957;0.7909;
895.8000;0.4965;0.7934;
896.1000;0.4941;0.7934;
896.4000;0.4982;0.8010;
896.7000;0.5006;0.8060;
897.0000;0.4949;0.7985;
897.3000;0.4941;0.7985;
897.6000;0.4982;0.8086;
897.9000;0.4965;0.7960;
898.2000;0.4917;0.7808;
898.5000;0.4965;0.7934;
898.8000;0.4974;0.8010;
899.1000;0.5022;0.8136;
899.4000;0.4974;0.8035;
899.7000;0.4974;0.8010;
900.0000;0.4957;0.7934;
900.3000;0.4982;0.7960;
900.6000;0.4974;0.7985;
900.9000;0.4998;0.8035;
901.2000;0.4990;0.8010;
901.5000;0.4990;0.8010;
901.8000;0.4990;0.8060;
902.1000;0.4974;0.8035;
902.4000;0.4957;0.8035;
902.7000;0.5039;0.8186;
903.0000;0.4990;0.8010;
903.3000;0.4965;0.8111;
903.6000;0.4974;0.8136;
903.9000;0.4990;0.8136;
904.2000;0.4974;0.8060;
904.5000;0.4965;0.8010;
904.8000;0.4998;0.7960;
905.1000;0.4965;0.8035;
905.4000;0.4933;0.7960;
905.7000;0.4982;0.8060;
906.0000;0.4974;0.8161;
906.3000;0.4982;0.8136;
906.6000;0.4974;0.8010;
906.9000;0.4982;0.7985;
907.2000;0.4990;0.8086;
907.5000;0.4974;0.8060;
907.8000;0.4957;0.8161;
908.1000;0.4974;0.8262;
908.4000;0.4974;0.8186;
908.7000;0.5006;0.8237;
909.0000;0.5006;0.8237;
909.3000;0.4965;0.8262;
909.6000;0.4965;0.8237;
909.9000;0.5031;0.8337;
910.2000;0.4990;0.8211;
910.5000;0.4974;0.8262;
910.8000;0.4965;0.8237;
911.1000;0.4917;0.8136;
911.4000;0.4982;0.8211;
911.7000;0.4957;0.8211;
912.0000;0.4982;0.8262;
912.3000;0.5006;0.8262;
912.6000;0.4949;0.8211;
912.9000;0.4974;0.8237;
913.2000;0.4982;0.8287;
913.5000;0.4965;0.8287;
913.8000;0.4974;0.8413;
914.1000;0.4933;0.8363;
914.4000;0.4982;0.8489;
914.7000;0.4965;0.8413;
915.0000;0.4982;0.8413;
915.3000;0.5014;0.8489;
915.6000;0.4965;0.8413;
915.9000;0.4965;0.8413;
916.2000;0.4949;0.8312;
916.5000;0.4974;0.8438;
916.8000;0.4990;0.8463;
917.1000;0.5022;0.8640;
917.4000;0.4982;0.8463;
917.7000;0.4974;0.8363;
918.0000;0.4974;0.8363;
918.3000;0.4965;0.8287;
918.6000;0.4957;0.8262;
918.9000;0.4949;0.8262;
919.2000;0.4965;0.8186;
919.5000;0.4982;0.8262;
919.8000;0.4982;0.8237;
920.1000;0.4965;0.8136;
920.4000;0.4982;0.8186;
920.7000;0.4974;0.8086;
921.0000;0.4965;0.8060;
921.3000;0.4957;0.8060;
921.6000;0.4965;0.8060;
921.9000;0.4941;0.8035;
922.2000;0.4974;0.8161;
922.5000;0.4965;0.8060;
922.8000;0.4925;0.7960;
923.1000;0.4982;0.8287;
923.4000;0.4957;0.8237;
923.7000;0.4933;0.8186;
924.0000;0.4965;0.8211;
924.3000;0.4974;0.8211;
924.6000;0.4965;0.8186;
924.9000;0.4925;0.8086;
925.2000;0.4990;0.8262;
925.5000;0.4982;0.8337;
925.8000;0.4974;0.8287;
926.1000;0.4974;0.8237;
926.4000;0.4965;0.8161;
926.7000;0.4974;0.8186;
927.0000;0.4933;0.8035;
927.3000;0.4957;0.7985;
927.6000;0.4949;0.8010;
927.9000;0.5047;0.8312;
928.2000;0.4990;0.8111;
928.5000;0.4925;0.7934;
928.8000;0.4965;0.7985;
929.1000;0.4957;0.8010;
929.4000;0.4974;0.8111;
929.7000;0.4974;0.8086;
930.0000;0.4974;0.8136;
930.3000;0.4982;0.8060;
930.6000;0.4974;0.8111;
930.9000;0.4990;0.8186;
931.2000;0.4982;0.8136;
931.5000;0.4974;0.8035;
931.8000;0.4990;0.8161;
932.1000;0.4965;0.8161;
932.4000;0.4990;0.8237;
932.7000;0.4982;0.8262;
933.0000;0.4941;0.8287;
933.3000;0.4982;0.8337;
933.6000;0.4974;0.8312;
933.9000;0.4965;0.8186;
934.2000;0.4998;0.8211;
934.5000;0.4965;0.8060;
934.8000;0.5039;0.8237;
935.1000;0.4957;0.8111;
935.4000;0.4933;0.8060;
935.7000;0.4965;0.8086;
936.0000;0.5039;0.8337;
936.3000;0.4941;0.8035;
936.6000;0.4957;0.8211;
936.9000;0.4949;0.8186;
937.2000;0.4974;0.8211;
937.5000;0.4965;0.8111;
937.8000;0.4957;0.8060;
938.1000;0.4949;0.8111;
938.4000;0.4982;0.8211;
938.7000;0.4965;0.8086;
939.0000;0.5031;0.8287;
939.3000;0.4965;0.8136;
939.6000;0.4860;0.7884;
939.9000;0.4957;0.8111;
940.2000;0.4957;0.8010;
940.5000;0.4957;0.7985;
940.8000;0.4974;0.8060;
941.1000;0.4982;0.8060;
941.4000;0.4949;0.7960;
941.7000;0.4941;0.7985;
942.0000;0.4965;0.8111;
942.3000;0.4957;0.8111;
942.6000;0.4965;0.8111;
942.9000;0.4990;0.8161;
943.2000;0.4965;0.8161;
943.5000;0.4941;0.8111;
943.8000;0.4982;0.8211;
944.1000;0.4957;0.8136;
944.4000;0.4949;0.8086;
944.7000;0.4949;0.7985;
945.0000;0.4917;0.7909;
945.3000;0.4957;0.8010;
945.6000;0.4957;0.8035;
945.9000;0.4974;0.8161;
946.2000;0.4974;0.8060;
946.5000;0.4933;0.8060;
946.8000;0.4974;0.8161;
947.1000;0.4957;0.8186;
947.4000;0.4965;0.8262;
947.7000;0.4982;0.8287;
948.0000;0.4965;0.8312;
948.3000;0.4949;0.8211;
948.6000;0.4957;0.8287;
948.9000;0.4949;0.8312;
949.2000;0.4957;0.8363;
949.5000;0.4957;0.8438;
949.8000;0.4957;0.8413;
950.1000;0.4982;0.8438;
950.4000;0.4965;0.8312;
950.7000;0.4957;0.8413;
951.0000;0.5063;0.8665;
951.3000;0.4965;0.8388;
951.6000;0.4965;0.8388;
951.9000;0.4974;0.8337;
952.2000;0.4933;0.8262;
952.5000;0.4957;0.8337;
952.8000;0.4957;0.8262;
953.1000;0.4965;0.8337;
953.4000;0.4965;0.8388;
953.7000;0.4941;0.8363;
954.0000;0.4965;0.8413;
954.3000;0.4933;0.8363;
954.6000;0.4949;0.8388;
954.9000;0.5006;0.8463;
955.2000;0.4990;0.8363;
955.5000;0.4974;0.8237;
955.8000;0.4949;0.8262;
956.1000;0.4965;0.8262;
956.4000;0.4957;0.8237;
956.7000;0.4957;0.8262;
957.0000;0.4949;0.8237;
957.3000;0.4957;0.8312;
957.6000;0.4965;0.8262;
957.9000;0.4974;0.8363;
958.2000;0.4957;0.8337;
958.5000;0.4949;0.8337;
958.8000;0.4965;0.8413;
959.1000;0.4974;0.8363;
959.4000;0.4965;0.8388;
959.7000;0.4974;0.8413;
960.0000;0.4949;0.8312;
960.3000;0.4933;0.8287;
960.6000;0.4957;0.8262;
960.9000;0.4949;0.8262;
961.2000;0.4965;0.8186;
961.5000;0.4974;0.8161;
961.8000;0.4965;0.8111;
962.1000;0.4957;0.8136;
962.4000;0.4982;0.8237;
962.7000;0.4949;0.8186;
963.0000;0.4949;0.8262;
963.3000;0.4965;0.8287;
963.6000;0.4965;0.8312;
963.9000;0.4957;0.8363;
964.2000;0.4957;0.8287;
964.5000;0.4941;0.8237;
964.8000;0.4965;0.8287;
965.1000;0.4941;0.8262;
965.4000;0.4949;0.8287;
965.7000;0.4965;0.8211;
966.0000;0.4941;0.8136;
966.3000;0.4965;0.8161;
966.6000;0.4949;0.8161;
966.9000;0.4941;0.8237;
967.2000;0.4957;0.8211;
967.5000;0.4957;0.8211;
967.8000;0.4949;0.8262;
968.1000;0.4965;0.8262;
968.4000;0.4957;0.8287;
968.7000;0.4949;0.8211;
969.0000;0.4965;0.8237;
969.3000;0.4949;0.8136;
969.6000;0.5014;0.8262;
969.9000;0.4917;0.8010;
970.2000;0.4965;0.8111;
970.5000;0.4941;0.7985;
970.8000;0.4957;0.8060;
971.1000;0.4941;0.8010;
971.4000;0.4982;0.8111;
971.7000;0.4957;0.8161;
972.0000;0.5014;0.8388;
972.3000;0.4941;0.8060;
972.6000;0.4949;0.8111;
972.9000;0.4917;0.8010;
973.2000;0.4933;0.8060;
973.5000;0.4957;0.8060;
973.8000;0.4917;0.8111;
974.1000;0.4917;0.8161;
974.4000;0.4908;0.8186;
974.7000;0.4957;0.8312;
975.0000;0.4957;0.8287;
975.3000;0.4949;0.8388;
975.6000;0.4957;0.8463;
975.9000;0.4949;0.8463;
976.2000;0.4949;0.8489;
976.5000;0.4949;0.8463;
976.8000;0.4965;0.8388;
977.1000;0.4949;0.8337;
977.4000;0.4957;0.8262;
977.7000;0.4949;0.8237;
978.0000;0.4974;0.8337;
978.3000;0.4957;0.8337;
978.6000;0.4974;0.8388;
978.9000;0.4965;0.8413;
979.2000;0.4957;0.8388;
979.5000;0.4949;0.8262;
979.8000;0.4941;0.8186;
980.1000;0.4957;0.8186;
980.4000;0.4925;0.8136;
980.7000;0.4990;0.8337;
981.0000;0.4949;0.8161;
981.3000;0.5006;0.8287;
981.6000;0.4949;0.8086;
981.9000;0.4957;0.8060;
982.2000;0.4917;0.8086;
982.5000;0.4949;0.8086;
982.8000;0.4925;0.8010;
983.1000;0.4957;0.8060;
983.4000;0.4957;0.8136;
983.7000;0.5022;0.8363;
984.0000;0.4957;0.8211;
984.3000;0.4965;0.8312;
984.6000;0.4933;0.8237;
984.9000;0.4965;0.8337;
985.2000;0.4941;0.8186;
985.5000;0.4957;0.8060;
985.8000;0.4957;0.8086;
986.1000;0.4982;0.8035;
986.4000;0.4949;0.8010;
986.7000;0.4949;0.8010;
987.0000;0.4982;0.8060;
987.3000;0.4982;0.8111;
987.6000;0.4949;0.7985;
987.9000;0.5063;0.8287;
988.2000;0.4990;0.8060;
988.5000;0.4949;0.7960;
988.8000;0.4884;0.7733;
989.1000;0.4876;0.7859;
989.4000;0.4941;0.8035;
989.7000;0.4965;0.8111;
990.0000;0.4949;0.8035;
990.3000;0.4917;0.8086;
990.6000;0.4949;0.8237;
990.9000;0.4990;0.8262;
991.2000;0.4982;0.8186;
991.5000;0.4925;0.8086;
991.8000;0.4941;0.8237;
992.1000;0.4933;0.8262;
992.4000;0.4957;0.8363;
992.7000;0.4965;0.8312;
993.0000;0.4965;0.8363;
993.3000;0.4957;0.8337;
993.6000;0.4982;0.8388;
993.9000;0.4949;0.8237;
994.2000;0.4933;0.8211;
994.5000;0.4957;0.8312;
994.8000;0.4965;0.8211;
995.1000;0.4949;0.8211;
995.4000;0.4933;0.8262;
995.7000;0.4949;0.8211;
996.0000;0.4949;0.8161;
996.3000;0.4949;0.8161;
996.6000;0.4949;0.8161;
996.9000;0.4957;0.8337;
997.2000;0.4941;0.8287;
997.5000;0.4965;0.8363;
997.8000;0.4990;0.8363;
998.1000;0.4965;0.8262;
998.4000;0.4974;0.8262;
998.7000;0.4933;0.8086;
999.0000;0.4965;0.8136;
999.3000;0.4933;0.8111;
999.6000;0.4974;0.8237;
999.9000;0.4949;0.8211;
1000.2000;0.4917;0.8136;
1000.5000;0.4949;0.8363;
1000.8000;0.4957;0.8413;
1001.1000;0.4949;0.8363;
1001.4000;0.4957;0.8413;
1001.7000;0.4949;0.8413;
1002.0000;0.4974;0.8438;
1002.3000;0.4965;0.8489;
1002.6000;0.4900;0.8363;
1002.9000;0.4941;0.8514;
1003.2000;0.4957;0.8539;
1003.5000;0.5031;0.8690;
1003.8000;0.4933;0.8363;
1004.1000;0.4949;0.8363;
1004.4000;0.4941;0.8388;
1004.7000;0.4933;0.8413;
1005.0000;0.4933;0.8413;
1005.3000;0.4974;0.8514;
1005.6000;0.4949;0.8489;
1005.9000;0.4957;0.8489;
1006.2000;0.4892;0.8262;
1006.5000;0.4941;0.8438;
1006.8000;0.4957;0.8463;
1007.1000;0.4957;0.8388;
1007.4000;0.4949;0.8363;
1007.7000;0.4941;0.8363;
1008.0000;0.4949;0.8363;
1008.3000;0.4974;0.8363;
1008.6000;0.4998;0.8463;
1008.9000;0.4949;0.8388;
1009.2000;0.4941;0.8363;
1009.5000;0.4965;0.8514;
1009.8000;0.4900;0.8237;
1010.1000;0.4957;0.8262;
1010.4000;0.4933;0.8237;
1010.7000;0.4949;0.8337;
1011.0000;0.4965;0.8388;
1011.3000;0.4998;0.8438;
1011.6000;0.4941;0.8262;
1011.9000;0.4949;0.8211;
1012.2000;0.4957;0.8262;
1012.5000;0.4957;0.8262;
1012.8000;0.4925;0.8211;
1013.1000;0.4892;0.8136;
1013.4000;0.4892;0.8111;
1013.7000;0.5006;0.8413;
1014.0000;0.4957;0.8287;
1014.3000;0.4949;0.8211;
1014.6000;0.4933;0.8161;
1014.9000;0.4941;0.8111;
1015.2000;0.4957;0.8086;
1015.5000;0.4917;0.8136;
1015.8000;0.4957;0.8161;
1016.1000;0.4941;0.8111;
1016.4000;0.4949;0.8161;
1016.7000;0.4949;0.8186;
1017.0000;0.4957;0.8237;
1017.3000;0.4949;0.8211;
1017.6000;0.4933;0.8186;
1017.9000;0.4949;0.8237;
1018.2000;0.4957;0.8237;
1018.5000;0.4957;0.8287;
1018.8000;0.4957;0.8262;
1019.1000;0.4949;0.8262;
1019.4000;0.4957;0.8287;
1019.7000;0.4941;0.8312;
1020.0000;0.4941;0.8312;
1020.3000;0.4933;0.8211;
1020.6000;0.4949;0.8111;
1020.9000;0.4949;0.8136;
1021.2000;0.4949;0.8161;
1021.5000;0.4941;0.8186;
1021.8000;0.4933;0.8161;
1022.1000;0.4949;0.8237;
1022.4000;0.4965;0.8211;
1022.7000;0.4957;0.8237;
1023.0000;0.4933;0.8211;
1023.3000;0.4925;0.8211;
1023.6000;0.4941;0.8237;
1023.9000;0.4949;0.8211;
1024.2000;0.4941;0.8111;
1024.5000;0.4949;0.8161;
1024.8000;0.4965;0.8237;
1025.1000;0.4965;0.8237;
1025.4000;0.4982;0.8262;
1025.7000;0.4925;0.8237;
1026.0000;0.4949;0.8287;
1026.3000;0.4957;0.8337;
1026.6000;0.4965;0.8312;
1026.9000;0.4941;0.8211;
1027.2000;0.4982;0.8337;
1027.5000;0.4965;0.8211;
1027.8000;0.4941;0.8086;
1028.1000;0.4941;0.8111;
1028.4000;0.4860;0.7934;
1028.7000;0.4876;0.7985;
1029.0000;0.4925;0.8211;
1029.3000;0.4933;0.8186;
1029.6000;0.4933;0.8161;
1029.9000;0.4933;0.8237;
1030.2000;0.5006;0.8337;
1030.5000;0.4941;0.8161;
1030.8000;0.4917;0.8111;
1031.1000;0.4957;0.8161;
1031.4000;0.4957;0.8211;
1031.7000;0.4965;0.8211;
1032.0000;0.4949;0.8237;
1032.3000;0.4957;0.8237;
1032.6000;0.4957;0.8237;
1032.9000;0.4925;0.8186;
1033.2000;0.4933;0.8237;
1033.5000;0.4949;0.8262;
1033.8000;0.5047;0.8564;
1034.1000;0.4933;0.8186;
1034.4000;0.4941;0.8211;
1034.7000;0.4949;0.8237;
1035.0000;0.4933;0.8237;
1035.3000;0.4949;0.8363;
1035.6000;0.4941;0.8363;
1035.9000;0.4957;0.8413;
1036.2000;0.4933;0.8363;
1036.5000;0.4941;0.8363;
1036.8000;0.4884;0.8262;
1037.1000;0.4933;0.8388;
1037.4000;0.4908;0.8388;
1037.7000;0.4949;0.8463;
1038.0000;0.4949;0.8337;
1038.3000;0.4957;0.8312;
1038.6000;0.4941;0.8287;
1038.9000;0.4957;0.8388;
1039.2000;0.4974;0.8388;
1039.5000;0.4949;0.8337;
1039.8000;0.4949;0.8363;
1040.1000;0.4941;0.8363;
1040.4000;0.4965;0.8388;
1040.7000;0.4941;0.8413;
1041.0000;0.4933;0.8463;
1041.3000;0.4957;0.8489;
1041.6000;0.4949;0.8489;
1041.9000;0.4925;0.8438;
1042.2000;0.4941;0.8438;
1042.5000;0.5039;0.8690;
1042.8000;0.4949;0.8388;
1043.1000;0.4982;0.8413;
1043.4000;0.4941;0.8287;
1043.7000;0.4941;0.8237;
1044.0000;0.4860;0.8010;
1044.3000;0.4941;0.8262;
1044.6000;0.4957;0.8312;
1044.9000;0.4892;0.8060;
1045.2000;0.4949;0.8237;
1045.5000;0.4949;0.8237;
1045.8000;0.4957;0.8111;
1046.1000;0.4917;0.7960;
1046.4000;0.4949;0.8060;
1046.7000;0.4949;0.8060;
1047.0000;0.4949;0.8161;
1047.3000;0.4908;0.8086;
1047.6000;0.4949;0.8161;
1047.9000;0.4941;0.8186;
1048.2000;0.4933;0.8111;
1048.5000;0.4949;0.8010;
1048.8000;0.4957;0.7985;
1049.1000;0.4957;0.7960;
1049.4000;0.4949;0.7960;
1049.7000;0.4949;0.7960;
1050.0000;0.4965;0.8136;
1050.3000;0.4941;0.8060;
1050.6000;0.4965;0.8111;
1050.9000;0.4949;0.8035;
1051.2000;0.4933;0.8060;
1051.5000;0.4941;0.8035;
1051.8000;0.4941;0.8136;
1052.1000;0.4949;0.8186;
1052.4000;0.4941;0.8060;
1052.7000;0.4925;0.7960;
1053.0000;0.4949;0.8060;
1053.3000;0.4941;0.8111;
1053.6000;0.4949;0.8035;
1053.9000;0.4957;0.8035;
1054.2000;0.4941;0.8060;
1054.5000;0.4933;0.7960;
1054.8000;0.4925;0.7960;
1055.1000;0.4933;0.7960;
1055.4000;0.4933;0.8086;
1055.7000;0.4957;0.8211;
1056.0000;0.4933;0.8086;
1056.3000;0.4941;0.8035;
1056.6000;0.4941;0.7985;
1056.9000;0.4974;0.8010;
1057.2000;0.4949;0.7909;
1057.5000;0.4941;0.7985;
1057.8000;0.4933;0.8010;
1058.1000;0.4941;0.8035;
1058.4000;0.4941;0.8035;
1058.7000;0.4933;0.8035;
1059.0000;0.4941;0.8086;
1059.3000;0.4957;0.8136;
1059.6000;0.4957;0.8136;
1059.9000;0.4957;0.8111;
1060.2000;0.4941;0.8035;
1060.5000;0.4941;0.8136;
1060.8000;0.4982;0.8211;
1061.1000;0.4917;0.8035;
1061.4000;0.4941;0.8111;
1061.7000;0.4933;0.8086;
1062.0000;0.4949;0.8035;
1062.3000;0.4933;0.8010;
1062.6000;0.4933;0.8035;
1062.9000;0.4965;0.8111;
1063.2000;0.4941;0.8035;
1063.5000;0.4982;0.8111;
1063.8000;0.4982;0.8287;
1064.1000;0.4965;0.8211;
1064.4000;0.4941;0.8161;
1064.7000;0.4933;0.8111;
1065.0000;0.4982;0.8161;
1065.3000;0.4941;0.8086;
1065.6000;0.4957;0.8161;
1065.9000;0.4949;0.8136;
1066.2000;0.4941;0.8060;
1066.5000;0.4917;0.8035;
1066.8000;0.4941;0.8161;
1067.1000;0.4974;0.8337;
1067.4000;0.4957;0.8262;
1067.7000;0.4933;0.8136;
1068.0000;0.4933;0.8111;
1068.3000;0.4949;0.8136;
1068.6000;0.4941;0.8111;
1068.9000;0.4933;0.8086;
1069.2000;0.4917;0.7985;
1069.5000;0.4949;0.8060;
1069.8000;0.4933;0.8086;
1070.1000;0.4941;0.8136;
1070.4000;0.4949;0.8186;
1070.7000;0.4941;0.8237;
1071.0000;0.4933;0.8136;
1071.3000;0.4908;0.8060;
1071.6000;0.4917;0.8035;
1071.9000;0.4941;0.8035;
1072.2000;0.4949;0.8035;
1072.5000;0.4941;0.7960;
1072.8000;0.4949;0.7985;
1073.1000;0.4941;0.7859;
1073.4000;0.4949;0.7934;
1073.7000;0.4949;0.7985;
1074.0000;0.4949;0.8035;
1074.3000;0.4949;0.8035;
1074.6000;0.4892;0.7960;
1074.9000;0.4941;0.8186;
1075.2000;0.4908;0.8035;
1075.5000;0.4933;0.8060;
1075.8000;0.4933;0.8035;
1076.1000;0.4957;0.8111;
1076.4000;0.4925;0.8086;
1076.7000;0.4933;0.8060;
1077.0000;0.4949;0.8136;
1077.3000;0.4933;0.8086;
1077.6000;0.4925;0.8060;
1077.9000;0.4933;0.8035;
1078.2000;0.4941;0.7884;
1078.5000;0.4941;0.8035;
1078.8000;0.4933;0.8086;
1079.1000;0.4933;0.8035;
1079.4000;0.4949;0.8010;
1079.7000;0.4957;0.7960;
1080.0000;0.4941;0.7960;
1080.3000;0.4917;0.8010;
1080.6000;0.4917;0.7934;
1080.9000;0.4917;0.8010;
1081.2000;0.4933;0.8060;
1081.5000;0.4925;0.8010;
1081.8000;0.4908;0.7934;
1082.1000;0.4949;0.7985;
1082.4000;0.4941;0.7934;
1082.7000;0.4933;0.7934;
1083.0000;0.4876;0.7682;
1083.3000;0.4941;0.7758;
1083.6000;0.4949;0.7834;
1083.9000;0.5031;0.8186;
1084.2000;0.4949;0.8060;
1084.5000;0.4949;0.8010;
1084.8000;0.5014;0.8287;
1085.1000;0.4949;0.8111;
1085.4000;0.4957;0.7985;
1085.7000;0.4917;0.7934;
1086.0000;0.4892;0.7884;
1086.3000;0.4949;0.7934;
1086.6000;0.4933;0.7909;
1086.9000;0.4925;0.7808;
1087.2000;0.4941;0.7909;
1087.5000;0.4925;0.7783;
1087.8000;0.4965;0.7859;
1088.1000;0.4949;0.7834;
1088.4000;0.4933;0.7884;
1088.7000;0.5022;0.8186;
1089.0000;0.4957;0.7985;
1089.3000;0.4941;0.8010;
1089.6000;0.4957;0.8111;
1089.9000;0.4949;0.8161;
1090.2000;0.4949;0.8136;
1090.5000;0.4933;0.8086;
1090.8000;0.4949;0.8111;
1091.1000;0.4949;0.8136;
1091.4000;0.4949;0.8086;
1091.7000;0.4917;0.8136;
1092.0000;0.4892;0.8086;
1092.3000;0.4933;0.8010;
1092.6000;0.4933;0.7960;
1092.9000;0.4933;0.7884;
1093.2000;0.4949;0.7985;
1093.5000;0.4925;0.7960;
1093.8000;0.4949;0.8086;
1094.1000;0.4860;0.7909;
1094.4000;0.4941;0.8111;
1094.7000;0.4949;0.8060;
1095.0000;0.4925;0.8035;
1095.3000;0.4933;0.8060;
1095.6000;0.4892;0.7884;
1095.9000;0.4933;0.7985;
1096.2000;0.4941;0.8010;
1096.5000;0.4949;0.8035;
1096.8000;0.4949;0.8035;
1097.1000;0.4925;0.8010;
1097.4000;0.4900;0.8035;
1097.7000;0.4941;0.8211;
1098.0000;0.4949;0.8161;
1098.3000;0.4884;0.7985;
1098.6000;0.4908;0.8060;
1098.9000;0.4949;0.8060;
1099.2000;0.4957;0.8010;
1099.5000;0.4941;0.8035;
1099.8000;0.4900;0.7909;
1100.1000;0.4965;0.8086;
1100.4000;0.4933;0.8035;
1100.7000;0.4933;0.8010;
1101.0000;0.4933;0.8010;
1101.3000;0.4941;0.8060;
1101.6000;0.4933;0.8010;
1101.9000;0.4941;0.8060;
1102.2000;0.4933;0.7985;
1102.5000;0.4949;0.7909;
1102.8000;0.4925;0.7909;
1103.1000;0.4917;0.7808;
1103.4000;0.4917;0.7834;
1103.7000;0.4892;0.7834;
1104.0000;0.4925;0.7960;
1104.3000;0.4941;0.8010;
1104.6000;0.4949;0.8086;
1104.9000;0.4965;0.8136;
1105.2000;0.4933;0.8136;
1105.5000;0.4957;0.8186;
1105.8000;0.4982;0.8211;
1106.1000;0.4933;0.8111;
1106.4000;0.4933;0.8161;
1106.7000;0.4949;0.8186;
1107.0000;0.4941;0.8136;
1107.3000;0.4917;0.8035;
1107.6000;0.4933;0.8010;
1107.9000;0.4925;0.7934;
1108.2000;0.4933;0.7909;
1108.5000;0.4941;0.7960;
1108.8000;0.4965;0.8010;
1109.1000;0.4925;0.7985;
1109.4000;0.4925;0.7960;
1109.7000;0.4949;0.7934;
1110.0000;0.4884;0.7783;
1110.3000;0.4925;0.7909;
1110.6000;0.4917;0.7884;
1110.9000;0.4925;0.7859;
1111.2000;0.4933;0.7859;
1111.5000;0.4933;0.7934;
1111.8000;0.4917;0.7859;
1112.1000;0.4933;0.7884;
1112.4000;0.4941;0.8010;
1112.7000;0.4851;0.7758;
1113.0000;0.4933;0.8035;
1113.3000;0.4990;0.8111;
1113.6000;0.4957;0.8010;
1113.9000;0.4933;0.8010;
1114.2000;0.4974;0.8186;
1114.5000;0.4949;0.7985;
1114.8000;0.4917;0.7960;
1115.1000;0.4941;0.8035;
1115.4000;0.4933;0.8035;
1115.7000;0.4925;0.8060;
1116.0000;0.4941;0.8010;
1116.3000;0.4925;0.7960;
1116.6000;0.4933;0.7985;
1116.9000;0.4941;0.7985;
1117.2000;0.4925;0.7960;
1117.5000;0.4925;0.7834;
1117.8000;0.4917;0.7859;
1118.1000;0.4925;0.7934;
1118.4000;0.4925;0.7909;
1118.7000;0.4949;0.7960;
1119.0000;0.4949;0.8060;
1119.3000;0.4957;0.8086;
1119.6000;0.4949;0.8111;
1119.9000;0.4949;0.8136;
1120.2000;0.4917;0.8086;
1120.5000;0.4941;0.8161;
1120.8000;0.4949;0.8060;
1121.1000;0.4949;0.8010;
1121.4000;0.4925;0.7934;
1121.7000;0.4933;0.7909;
1122.0000;0.4941;0.7909;
1122.3000;0.4908;0.7808;
1122.6000;0.4933;0.7834;
1122.9000;0.4941;0.7909;
1123.2000;0.4949;0.8010;
1123.5000;0.4949;0.8010;
1123.8000;0.4908;0.7960;
1124.1000;0.4925;0.8035;
1124.4000;0.4933;0.8136;
1124.7000;0.4957;0.8136;
1125.0000;0.4933;0.8010;
1125.3000;0.4949;0.8010;
1125.6000;0.4941;0.8010;
1125.9000;0.4941;0.8010;
1126.2000;0.4941;0.8010;
1126.5000;0.4917;0.8010;
1126.8000;0.4933;0.8035;
1127.1000;0.4917;0.8010;
1127.4000;0.4917;0.7985;
1127.7000;0.4917;0.7934;
1128.0000;0.4941;0.7960;
1128.3000;0.4925;0.7985;
1128.6000;0.4949;0.8086;
1128.9000;0.4933;0.8060;
1129.2000;0.4925;0.8035;
1129.5000;0.4925;0.8136;
1129.8000;0.4900;0.8111;
1130.1000;0.4908;0.8060;
1130.4000;0.4925;0.7960;
1130.7000;0.4941;0.8035;
1131.0000;0.4949;0.8035;
1131.3000;0.4933;0.7960;
1131.6000;0.4917;0.7934;
1131.9000;0.4925;0.7934;
1132.2000;0.4941;0.7909;
1132.5000;0.4949;0.7934;
1132.8000;0.4998;0.8111;
1133.1000;0.4933;0.7985;
1133.4000;0.4941;0.7960;
1133.7000;0.4949;0.7934;
1134.0000;0.4957;0.8010;
1134.3000;0.4925;0.7985;
1134.6000;0.4949;0.8111;
1134.9000;0.4941;0.8111;
1135.2000;0.4957;0.8211;
1135.5000;0.4941;0.8186;
1135.8000;0.4957;0.8211;
1136.1000;0.4949;0.8186;
1136.4000;0.4941;0.8161;
1136.7000;0.4957;0.8111;
1137.0000;0.4933;0.8010;
1137.3000;0.4900;0.7834;
1137.6000;0.4933;0.7934;
1137.9000;0.4933;0.7909;
1138.2000;0.4925;0.7960;
1138.5000;0.5031;0.8211;
1138.8000;0.4933;0.7960;
1139.1000;0.4925;0.7985;
1139.4000;0.4933;0.7934;
1139.7000;0.4925;0.7934;
1140.0000;0.4941;0.7960;
1140.3000;0.4908;0.7859;
1140.6000;0.4925;0.7985;
1140.9000;0.4925;0.8035;
1141.2000;0.4982;0.8060;
1141.5000;0.4949;0.8010;
1141.8000;0.4925;0.7960;
1142.1000;0.4941;0.8010;
1142.4000;0.4974;0.8161;
1142.7000;0.4965;0.8111;
1143.0000;0.4933;0.7934;
1143.3000;0.4965;0.8010;
1143.6000;0.4933;0.7960;
1143.9000;0.4941;0.7985;
1144.2000;0.4982;0.8161;
1144.5000;0.4917;0.8086;
1144.8000;0.4933;0.8035;
1145.1000;0.4941;0.7934;
1145.4000;0.4933;0.7960;
1145.7000;0.4933;0.7909;
1146.0000;0.4941;0.8010;
1146.3000;0.4925;0.8010;
1146.6000;0.4917;0.8035;
1146.9000;0.4908;0.8010;
1147.2000;0.4949;0.8086;
1147.5000;0.4925;0.8035;
1147.8000;0.4933;0.8035;
1148.1000;0.4925;0.8010;
1148.4000;0.4941;0.7985;
1148.7000;0.4925;0.8060;
1149.0000;0.4917;0.8035;
1149.3000;0.4908;0.7884;
1149.6000;0.4925;0.7909;
1149.9000;0.4941;0.7909;
1150.2000;0.4957;0.7859;
1150.5000;0.4965;0.7909;
1150.8000;0.4933;0.7834;
1151.1000;0.4957;0.7934;
1151.4000;0.4933;0.7960;
1151.7000;0.4925;0.8010;
1152.0000;0.4917;0.8035;
1152.3000;0.4941;0.7985;
1152.6000;0.4949;0.7985;
1152.9000;0.4941;0.7960;
1153.2000;0.4892;0.7934;
1153.5000;0.4933;0.7985;
1153.8000;0.4941;0.8035;
1154.1000;0.4941;0.8086;
1154.4000;0.4941;0.8060;
1154.7000;0.4908;0.7960;
1155.0000;0.4917;0.8010;
1155.3000;0.4917;0.8035;
1155.6000;0.4917;0.8010;
1155.9000;0.4941;0.7884;
1156.2000;0.4941;0.7960;
1156.5000;0.4917;0.7808;
1156.8000;0.4957;0.7808;
1157.1000;0.4908;0.7758;
1157.4000;0.4925;0.7808;
1157.7000;0.4933;0.7960;
1158.0000;0.4917;0.8035;
1158.3000;0.4925;0.8035;
1158.6000;0.4917;0.8111;
1158.9000;0.4965;0.8262;
1159.2000;0.4933;0.8161;
1159.5000;0.4933;0.8060;
1159.8000;0.4941;0.8035;
1160.1000;0.4941;0.8161;
1160.4000;0.4933;0.8136;
1160.7000;0.4957;0.8237;
1161.0000;0.4957;0.8186;
1161.3000;0.4941;0.8060;
1161.6000;0.4925;0.7985;
1161.9000;0.4949;0.8136;
1162.2000;0.4917;0.7985;
1162.5000;0.4957;0.8060;
1162.8000;0.4949;0.8086;
1163.1000;0.4949;0.8111;
1163.4000;0.4925;0.7985;
1163.7000;0.4917;0.7960;
1164.0000;0.4941;0.8060;
1164.3000;0.4941;0.8111;
1164.6000;0.4908;0.8086;
1164.9000;0.4941;0.8161;
1165.2000;0.4917;0.8086;
1165.5000;0.4974;0.8237;
1165.8000;0.4965;0.8186;
1166.1000;0.4917;0.8161;
1166.4000;0.4933;0.8186;
1166.7000;0.4949;0.8136;
1167.0000;0.4933;0.8161;
1167.3000;0.4933;0.8161;
1167.6000;0.4941;0.8237;
1167.9000;0.4933;0.8312;
1168.2000;0.4949;0.8363;
1168.5000;0.4933;0.8287;
1168.8000;0.4917;0.8186;
1169.1000;0.4949;0.8161;
1169.4000;0.4925;0.8111;
1169.7000;0.4941;0.8136;
1170.0000;0.4925;0.8010;
1170.3000;0.4998;0.8186;
1170.6000;0.4957;0.8060;
1170.9000;0.4933;0.8010;
1171.2000;0.4933;0.8060;
1171.5000;0.4965;0.8136;
1171.8000;0.4965;0.8161;
1172.1000;0.4933;0.8136;
1172.4000;0.4908;0.8035;
1172.7000;0.4908;0.7985;
1173.0000;0.4925;0.7985;
1173.3000;0.4917;0.7960;
1173.6000;0.4908;0.7985;
1173.9000;0.4917;0.7934;
1174.2000;0.4925;0.7960;
1174.5000;0.4925;0.7985;
1174.8000;0.4925;0.8060;
1175.1000;0.4965;0.8262;
1175.4000;0.4941;0.8287;
1175.7000;0.4957;0.8337;
1176.0000;0.4933;0.8262;
1176.3000;0.4933;0.8237;
1176.6000;0.4933;0.8237;
1176.9000;0.4925;0.8287;
1177.2000;0.4933;0.8312;
1177.5000;0.4933;0.8262;
1177.8000;0.4949;0.8312;
1178.1000;0.4957;0.8388;
1178.4000;0.4917;0.8388;
1178.7000;0.4917;0.8262;
1179.0000;0.4957;0.8413;
1179.3000;0.4941;0.8463;
1179.6000;0.4917;0.8413;
1179.9000;0.4941;0.8489;
1180.2000;0.4933;0.8489;
1180.5000;0.4925;0.8539;
1180.8000;0.4925;0.8489;
1181.1000;0.4868;0.8237;
1181.4000;0.4917;0.8262;
1181.7000;0.4949;0.8312;
1182.0000;0.4933;0.8262;
1182.3000;0.4941;0.8312;
1182.6000;0.4908;0.8262;
1182.9000;0.4925;0.8312;
1183.2000;0.4933;0.8363;
1183.5000;0.4949;0.8388;
1183.8000;0.4933;0.8312;
1184.1000;0.4925;0.8287;
1184.4000;0.4933;0.8312;
1184.7000;0.4949;0.8186;
1185.0000;0.4876;0.7985;
1185.3000;0.4957;0.8237;
1185.6000;0.4925;0.8186;
1185.9000;0.4957;0.8211;
1186.2000;0.4949;0.8161;
1186.5000;0.4884;0.7859;
1186.8000;0.4949;0.7985;
1187.1000;0.4925;0.7934;
1187.4000;0.4941;0.7934;
1187.7000;0.4941;0.8035;
1188.0000;0.4925;0.8136;
1188.3000;0.4949;0.8136;
1188.6000;0.4949;0.8111;
1188.9000;0.4933;0.8111;
1189.2000;0.4941;0.8262;
1189.5000;0.4933;0.8287;
1189.8000;0.4949;0.8262;
1190.1000;0.4933;0.8262;
1190.4000;0.4892;0.8111;
1190.7000;0.4941;0.8136;
1191.0000;0.4949;0.8186;
1191.3000;0.4933;0.8186;
1191.6000;0.4965;0.8237;
1191.9000;0.4933;0.8161;
1192.2000;0.4900;0.8111;
1192.5000;0.4827;0.8010;
1192.8000;0.4933;0.8136;
1193.1000;0.4917;0.8086;
1193.4000;0.4917;0.8010;
1193.7000;0.5006;0.8186;
1194.0000;0.4933;0.8010;
1194.3000;0.4933;0.8010;
1194.6000;0.4965;0.8060;
1194.9000;0.4949;0.8035;
1195.2000;0.4949;0.8010;
1195.5000;0.4941;0.8035;
1195.8000;0.4941;0.8035;
1196.1000;0.4933;0.7985;
1196.4000;0.4941;0.8035;
1196.7000;0.4925;0.8035;
1197.0000;0.4941;0.7985;
1197.3000;0.4925;0.8035;
1197.6000;0.4941;0.8086;
1197.9000;0.4941;0.8035;
1198.2000;0.4925;0.8035;
1198.5000;0.4957;0.8086;
1198.8000;0.4965;0.8111;
1199.1000;0.4908;0.7909;
1199.4000;0.4933;0.7960;
1199.7000;0.4925;0.7934;
1200.0000;0.4925;0.7960;
1200.3000;0.4933;0.7985;
1200.6000;0.4884;0.7960;
1200.9000;0.4998;0.8086;
1201.2000;0.4949;0.7985;
1201.5000;0.4925;0.7985;
1201.8000;0.4900;0.7934;
1202.1000;0.4941;0.8060;
1202.4000;0.4917;0.8010;
1202.7000;0.4933;0.8060;
1203.0000;0.4925;0.8186;
1203.3000;0.4933;0.8111;
1203.6000;0.4941;0.8161;
1203.9000;0.4917;0.8136;
1204.2000;0.4925;0.8211;
1204.5000;0.4933;0.8287;
1204.8000;0.4917;0.8287;
1205.1000;0.4990;0.8463;
1205.4000;0.4925;0.8312;
1205.7000;0.4908;0.8262;
1206.0000;0.4933;0.8237;
1206.3000;0.4957;0.8186;
1206.6000;0.4933;0.8111;
1206.9000;0.4941;0.8211;
1207.2000;0.4949;0.8161;
1207.5000;0.4941;0.8186;
1207.8000;0.4941;0.8211;
1208.1000;0.4925;0.8262;
1208.4000;0.4957;0.8237;
1208.7000;0.4917;0.8111;
1209.0000;0.4908;0.8111;
1209.3000;0.4925;0.8060;
1209.6000;0.4933;0.8060;
1209.9000;0.4941;0.8111;
1210.2000;0.4892;0.8035;
1210.5000;0.4941;0.8136;
1210.8000;0.4917;0.8136;
1211.1000;0.4908;0.8086;
1211.4000;0.4965;0.8211;
1211.7000;0.4933;0.8086;
1212.0000;0.4933;0.8111;
1212.3000;0.4925;0.8035;
1212.6000;0.4933;0.8035;
1212.9000;0.4917;0.8035;
1213.2000;0.4876;0.7859;
1213.5000;0.4933;0.8035;
1213.8000;0.4957;0.8060;
1214.1000;0.4933;0.7960;
1214.4000;0.4957;0.7985;
1214.7000;0.4949;0.8010;
1215.0000;0.4925;0.8010;
1215.3000;0.4949;0.8060;
1215.6000;0.4949;0.8111;
1215.9000;0.4941;0.8211;
1216.2000;0.4908;0.8136;
1216.5000;0.4925;0.8186;
1216.8000;0.4933;0.8186;
1217.1000;0.4933;0.8186;
1217.4000;0.4925;0.8186;
1217.7000;0.4917;0.8086;
1218.0000;0.4925;0.8136;
1218.3000;0.4933;0.8211;
1218.6000;0.4933;0.8111;
1218.9000;0.4908;0.8060;
1219.2000;0.4917;0.8111;
1219.5000;0.4908;0.8161;
1219.8000;0.4925;0.8262;
1220.1000;0.4941;0.8312;
1220.4000;0.4974;0.8413;
1220.7000;0.4957;0.8363;
1221.0000;0.4982;0.8363;
1221.3000;0.4949;0.8337;
1221.6000;0.4974;0.8413;
1221.9000;0.4933;0.8287;
1222.2000;0.4957;0.8237;
1222.5000;0.4957;0.8161;
1222.8000;0.4892;0.8010;
1223.1000;0.4933;0.8211;
1223.4000;0.4941;0.8186;
1223.7000;0.4925;0.8211;
1224.0000;0.4949;0.8312;
1224.3000;0.4933;0.8287;
1224.6000;0.4908;0.8262;
1224.9000;0.4900;0.8211;
1225.2000;0.4925;0.8287;
1225.5000;0.4925;0.8186;
1225.8000;0.4933;0.8186;
1226.1000;0.4925;0.8161;
1226.4000;0.4917;0.8161;
1226.7000;0.4957;0.8262;
1227.0000;0.4941;0.8186;
1227.3000;0.4900;0.8111;
1227.6000;0.4851;0.7859;
1227.9000;0.4908;0.8035;
1228.2000;0.4900;0.8010;
1228.5000;0.4908;0.8035;
1228.8000;0.4908;0.8010;
1229.1000;0.4884;0.7884;
1229.4000;0.4917;0.7960;
1229.7000;0.4925;0.7884;
1230.0000;0.4925;0.7834;
1230.3000;0.4884;0.7808;
1230.6000;0.4892;0.7884;
1230.9000;0.4925;0.8035;
1231.2000;0.4917;0.8035;
1231.5000;0.4949;0.8211;
1231.8000;0.4965;0.8237;
1232.1000;0.4925;0.8186;
1232.4000;0.4925;0.8211;
1232.7000;0.4957;0.8388;
1233.0000;0.4925;0.8287;
1233.3000;0.4917;0.8337;
1233.6000;0.4900;0.8287;
1233.9000;0.4925;0.8337;
1234.2000;0.4900;0.8237;
1234.5000;0.4933;0.8237;
1234.8000;0.4917;0.8161;
1235.1000;0.4949;0.8086;
1235.4000;0.4941;0.8086;
1235.7000;0.4941;0.8136;
1236.0000;0.4982;0.8237;
1236.3000;0.4941;0.8186;
1236.6000;0.4941;0.8136;
1236.9000;0.4941;0.8111;
1237.2000;0.4965;0.8211;
1237.5000;0.4917;0.8186;
1237.8000;0.4949;0.8262;
1238.1000;0.4917;0.8161;
1238.4000;0.4925;0.8136;
1238.7000;0.4917;0.8010;
1239.0000;0.4908;0.8010;
1239.3000;0.4933;0.8161;
1239.6000;0.4941;0.8237;
1239.9000;0.4974;0.8388;
1240.2000;0.5014;0.8589;
1240.5000;0.4941;0.8337;
1240.8000;0.4925;0.8186;
1241.1000;0.4941;0.8237;
1241.4000;0.4949;0.8237;
1241.7000;0.4933;0.8186;
1242.0000;0.4908;0.8312;
1242.3000;0.4941;0.8363;
1242.6000;0.4917;0.8312;
1242.9000;0.4941;0.8438;
1243.2000;0.4949;0.8312;
1243.5000;0.4925;0.8287;
1243.8000;0.4917;0.8262;
1244.1000;0.4941;0.8186;
1244.4000;0.4941;0.8161;
1244.7000;0.4908;0.8136;
1245.0000;0.5022;0.8489;
1245.3000;0.4941;0.8262;
1245.6000;0.4933;0.8211;
1245.9000;0.4949;0.8211;
1246.2000;0.4949;0.8237;
1246.5000;0.4925;0.8211;
1246.8000;0.4925;0.8237;
1247.1000;0.4957;0.8237;
1247.4000;0.4933;0.8161;
1247.7000;0.4884;0.8086;
1248.0000;0.4925;0.8237;
1248.3000;0.4933;0.8287;
1248.6000;0.4941;0.8312;
1248.9000;0.4933;0.8211;
1249.2000;0.4941;0.8262;
1249.5000;0.4949;0.8312;
1249.8000;0.4925;0.8262;
1250.1000;0.4917;0.8186;
1250.4000;0.4908;0.8186;
1250.7000;0.4957;0.8237;
1251.0000;0.4917;0.8161;
1251.3000;0.4917;0.8161;
1251.6000;0.4917;0.8237;
1251.9000;0.4860;0.8186;
1252.2000;0.4908;0.8363;
1252.5000;0.4917;0.8388;
1252.8000;0.4925;0.8413;
1253.1000;0.4892;0.8312;
1253.4000;0.4957;0.8463;
1253.7000;0.4982;0.8589;
1254.0000;0.4933;0.8438;
1254.3000;0.4908;0.8388;
1254.6000;0.4957;0.8489;
1254.9000;0.4933;0.8363;
1255.2000;0.4925;0.8237;
1255.5000;0.4933;0.8262;
1255.8000;0.4925;0.8287;
1256.1000;0.4965;0.8363;
1256.4000;0.4949;0.8287;
1256.7000;0.4990;0.8489;
1257.0000;0.4957;0.8312;
1257.3000;0.4941;0.8211;
1257.6000;0.4933;0.8111;
1257.9000;0.4892;0.7884;
1258.2000;0.4941;0.7934;
1258.5000;0.4908;0.7859;
1258.8000;0.4941;0.8035;
1259.1000;0.4949;0.8010;
1259.4000;0.4941;0.7985;
1259.7000;0.4941;0.7985;
1260.0000;0.4933;0.7934;
1260.3000;0.4941;0.7909;
1260.6000;0.4941;0.7934;
1260.9000;0.4933;0.7985;
1261.2000;0.4941;0.7985;
1261.5000;0.4884;0.7884;
1261.8000;0.4925;0.8060;
1262.1000;0.4941;0.8111;
1262.4000;0.4949;0.8111;
1262.7000;0.4941;0.8161;
1263.0000;0.4925;0.8237;
1263.3000;0.4925;0.8287;
1263.6000;0.4941;0.8237;
1263.9000;0.4933;0.8161;
1264.2000;0.4917;0.8035;
1264.5000;0.4941;0.8136;
1264.8000;0.4925;0.8086;
1265.1000;0.4925;0.8035;
1265.4000;0.4941;0.8060;
1265.7000;0.4876;0.8010;
1266.0000;0.4933;0.8211;
1266.3000;0.4941;0.8237;
1266.6000;0.4941;0.8161;
1266.9000;0.4941;0.8111;
1267.2000;0.4957;0.8161;
1267.5000;0.4925;0.8010;
1267.8000;0.4957;0.8060;
1268.1000;0.4908;0.7985;
1268.4000;0.4925;0.8060;
1268.7000;0.4908;0.8086;
1269.0000;0.4925;0.8211;
1269.3000;0.4941;0.8186;
1269.6000;0.4949;0.8211;
1269.9000;0.4917;0.8111;
1270.2000;0.4933;0.8262;
1270.5000;0.4933;0.8262;
1270.8000;0.4933;0.8287;
1271.1000;0.4941;0.8312;
1271.4000;0.4941;0.8312;
1271.7000;0.4941;0.8287;
1272.0000;0.4933;0.8262;
1272.3000;0.4933;0.8237;
1272.6000;0.4933;0.8161;
1272.9000;0.4917;0.8186;
1273.2000;0.4941;0.8262;
1273.5000;0.4941;0.8262;
1273.8000;0.4941;0.8211;
1274.1000;0.4933;0.8136;
1274.4000;0.4917;0.8186;
1274.7000;0.5014;0.8438;
1275.0000;0.4941;0.8237;
1275.3000;0.4941;0.8237;
1275.6000;0.4925;0.8161;
1275.9000;0.4957;0.8237;
1276.2000;0.4925;0.8287;
1276.5000;0.4925;0.8287;
1276.8000;0.4933;0.8287;
1277.1000;0.4900;0.8237;
1277.4000;0.4925;0.8337;
1277.7000;0.4925;0.8287;
1278.0000;0.4925;0.8287;
1278.3000;0.5006;0.8489;
1278.6000;0.4933;0.8262;
1278.9000;0.4933;0.8312;
1279.2000;0.4941;0.8337;
1279.5000;0.4917;0.8337;
1279.8000;0.4933;0.8388;
1280.1000;0.4941;0.8438;
1280.4000;0.4925;0.8363;
1280.7000;0.4908;0.8312;
1281.0000;0.4933;0.8363;
1281.3000;0.4949;0.8388;
1281.6000;0.4949;0.8413;
1281.9000;0.4925;0.8413;
1282.2000;0.4925;0.8388;
1282.5000;0.4941;0.8388;
1282.8000;0.4941;0.8388;
1283.1000;0.4941;0.8337;
1283.4000;0.4860;0.8111;
1283.7000;0.4949;0.8337;
1284.0000;0.4933;0.8262;
1284.3000;0.4917;0.8262;
1284.6000;0.4949;0.8262;
1284.9000;0.4925;0.8211;
1285.2000;0.4949;0.8312;
1285.5000;0.4941;0.8211;
1285.8000;0.4925;0.8111;
1286.1000;0.4925;0.8086;
1286.4000;0.4925;0.8010;
1286.7000;0.4868;0.7934;
1287.0000;0.4941;0.8111;
1287.3000;0.4908;0.8035;
1287.6000;0.4925;0.8086;
1287.9000;0.4925;0.8136;
1288.2000;0.4925;0.8161;
1288.5000;0.4998;0.8337;
1288.8000;0.4917;0.8262;
1289.1000;0.4949;0.8312;
1289.4000;0.4925;0.8237;
1289.7000;0.4933;0.8262;
1290.0000;0.4941;0.8287;
1290.3000;0.4941;0.8186;
1290.6000;0.4933;0.8237;
1290.9000;0.4941;0.8186;
1291.2000;0.4941;0.8287;
1291.5000;0.4957;0.8337;
1291.8000;0.4949;0.8388;
1292.1000;0.4925;0.8312;
1292.4000;0.4925;0.8287;
1292.7000;0.4949;0.8262;
1293.0000;0.4908;0.8186;
1293.3000;0.4933;0.8262;
1293.6000;0.4933;0.8287;
1293.9000;0.4949;0.8363;
1294.2000;0.4925;0.8262;
1294.5000;0.4941;0.8312;
1294.8000;0.4917;0.8312;
1295.1000;0.4925;0.8287;
1295.4000;0.4949;0.8312;
1295.7000;0.4925;0.8287;
1296.0000;0.4908;0.8186;
1296.3000;0.4925;0.8211;
1296.6000;0.4933;0.8262;
1296.9000;0.4949;0.8287;
1297.2000;0.4925;0.8363;
1297.5000;0.4917;0.8438;
1297.8000;0.4917;0.8388;
1298.1000;0.4933;0.8388;
1298.4000;0.4941;0.8363;
1298.7000;0.4900;0.8237;
1299.0000;0.4941;0.8262;
1299.3000;0.4900;0.8136;
1299.6000;0.4974;0.8262;
1299.9000;0.5006;0.8363;
1300.2000;0.4949;0.8111;
1300.5000;0.4933;0.8111;
1300.8000;0.4933;0.8237;
1301.1000;0.4827;0.8086;
1301.4000;0.4925;0.8262;
1301.7000;0.4925;0.8211;
1302.0000;0.4933;0.8136;
1302.3000;0.4957;0.8186;
1302.6000;0.4917;0.8161;
1302.9000;0.4917;0.8186;
1303.2000;0.4941;0.8237;
1303.5000;0.4900;0.8161;
1303.8000;0.4941;0.8161;
1304.1000;0.4941;0.8060;
1304.4000;0.4965;0.8161;
1304.7000;0.4925;0.8186;
1305.0000;0.4925;0.8237;
1305.3000;0.4957;0.8388;
1305.6000;0.4925;0.8438;
1305.9000;0.4925;0.8438;
1306.2000;0.4868;0.8312;
1306.5000;0.4892;0.8312;
1306.8000;0.4917;0.8438;
1307.1000;0.4925;0.8564;
1307.4000;0.4917;0.8564;
1307.7000;0.4965;0.8640;
1308.0000;0.4925;0.8539;
1308.3000;0.4965;0.8564;
1308.6000;0.4917;0.8388;
1308.9000;0.4941;0.8363;
1309.2000;0.4925;0.8337;
1309.5000;0.4917;0.8262;
1309.8000;0.4933;0.8262;
1310.1000;0.4965;0.8337;
1310.4000;0.4941;0.8262;
1310.7000;0.4925;0.8262;
1311.0000;0.4917;0.8136;
1311.3000;0.4925;0.8086;
1311.6000;0.4925;0.8060;
1311.9000;0.4933;0.8035;
1312.2000;0.4941;0.8086;
1312.5000;0.4941;0.8111;
1312.8000;0.4925;0.8186;
1313.1000;0.4925;0.8211;
1313.4000;0.4941;0.8262;
1313.7000;0.4917;0.8287;
1314.0000;0.4925;0.8312;
1314.3000;0.4949;0.8337;
1314.6000;0.4933;0.8312;
1314.9000;0.4949;0.8262;
1315.2000;0.4925;0.8161;
1315.5000;0.4933;0.8136;
1315.8000;0.4892;0.8060;
1316.1000;0.4941;0.8161;
1316.4000;0.4917;0.8136;
1316.7000;0.4900;0.8060;
1317.0000;0.5022;0.8388;
1317.3000;0.4925;0.8111;
1317.6000;0.4941;0.8111;
1317.9000;0.4933;0.8060;
1318.2000;0.4941;0.8111;
1318.5000;0.4949;0.8186;
1318.8000;0.4933;0.8111;
1319.1000;0.4941;0.8136;
1319.4000;0.4925;0.8060;
1319.7000;0.4949;0.8111;
1320.0000;0.4925;0.8010;
1320.3000;0.4925;0.7960;
1320.6000;0.4925;0.7960;
1320.9000;0.4925;0.7985;
1321.2000;0.4908;0.7934;
1321.5000;0.4917;0.8035;
1321.8000;0.4917;0.8161;
1322.1000;0.4917;0.8136;
1322.4000;0.4933;0.8136;
1322.7000;0.4925;0.8186;
1323.0000;0.4908;0.8237;
1323.3000;0.4917;0.8262;
1323.6000;0.4957;0.8312;
1323.9000;0.4925;0.8161;
1324.2000;0.5031;0.8413;
1324.5000;0.4949;0.8211;
1324.8000;0.4941;0.8211;
1325.1000;0.5006;0.8438;
1325.4000;0.4925;0.8186;
1325.7000;0.4933;0.8211;
1326.0000;0.4933;0.8136;
1326.3000;0.4917;0.8035;
1326.6000;0.4884;0.7909;
1326.9000;0.4941;0.7985;
1327.2000;0.4957;0.8035;
1327.5000;0.4957;0.8035;
1327.8000;0.4957;0.8010;
1328.1000;0.4917;0.7808;
1328.4000;0.4957;0.7859;
1328.7000;0.4949;0.7884;
1329.0000;0.4900;0.7758;
1329.3000;0.4957;0.7834;
1329.6000;0.4941;0.7859;
1329.9000;0.4941;0.7834;
1330.2000;0.4933;0.7758;
1330.5000;0.4925;0.7808;
1330.8000;0.4925;0.7808;
1331.1000;0.4957;0.7884;
1331.4000;0.4974;0.8010;
1331.7000;0.4925;0.7859;
1332.0000;0.4884;0.7758;
1332.3000;0.4851;0.7582;
1332.6000;0.4933;0.7733;
1332.9000;0.4941;0.7808;
1333.2000;0.4957;0.7884;
1333.5000;0.4965;0.7808;
1333.8000;0.4917;0.7733;
1334.1000;0.4957;0.7884;
1334.4000;0.4917;0.7859;
1334.7000;0.4941;0.7934;
1335.0000;0.4957;0.8010;
1335.3000;0.4925;0.7934;
1335.6000;0.4941;0.7960;
1335.9000;0.4933;0.7934;
1336.2000;0.4965;0.7985;
1336.5000;0.4990;0.8136;
1336.8000;0.4925;0.7960;
1337.1000;0.4908;0.7834;
1337.4000;0.4941;0.7960;
1337.7000;0.4925;0.8035;
1338.0000;0.4925;0.7960;
1338.3000;0.4933;0.7960;
1338.6000;0.4908;0.7960;
1338.9000;0.4949;0.8186;
1339.2000;0.4933;0.8237;
1339.5000;0.4933;0.8161;
1339.8000;0.4990;0.8312;
1340.1000;0.4941;0.8111;
1340.4000;0.4941;0.8161;
1340.7000;0.4925;0.8010;
1341.0000;0.4949;0.8060;
1341.3000;0.4957;0.8060;
1341.6000;0.4933;0.8035;
1341.9000;0.4917;0.7985;
1342.2000;0.4917;0.8035;
1342.5000;0.4860;0.7708;
1342.8000;0.4933;0.7884;
1343.1000;0.4941;0.7884;
1343.4000;0.4925;0.7859;
1343.7000;0.4933;0.7758;
1344.0000;0.4917;0.7834;
1344.3000;0.4892;0.7783;
1344.6000;0.4933;0.7859;
1344.9000;0.4925;0.7859;
1345.2000;0.4925;0.7783;
1345.5000;0.4933;0.7733;
1345.8000;0.4892;0.7657;
1346.1000;0.4941;0.7758;
1346.4000;0.4933;0.7808;
1346.7000;0.4908;0.7808;
1347.0000;0.4908;0.7733;
1347.3000;0.4933;0.7733;
1347.6000;0.4941;0.7783;
1347.9000;0.4949;0.7834;
1348.2000;0.4990;0.7985;
1348.5000;0.4933;0.7859;
1348.8000;0.4941;0.7909;
1349.1000;0.4908;0.7808;
1349.4000;0.4933;0.7834;
1349.7000;0.4949;0.7834;
1350.0000;0.4974;0.7834;
1350.3000;0.5014;0.7960;
1350.6000;0.4949;0.7808;
1350.9000;0.4941;0.7859;
1351.2000;0.4957;0.7909;
1351.5000;0.4933;0.7884;
1351.8000;0.4933;0.7934;
1352.1000;0.4900;0.7859;
1352.4000;0.4933;0.7859;
1352.7000;0.4941;0.7808;
1353.0000;0.4949;0.7909;
1353.3000;0.4925;0.7934;
1353.6000;0.4933;0.7934;
1353.9000;0.4949;0.7960;
1354.2000;0.4933;0.7909;
1354.5000;0.4908;0.7758;
1354.8000;0.4925;0.7733;
1355.1000;0.4908;0.7708;
1355.4000;0.4925;0.7859;
1355.7000;0.4941;0.7960;
1356.0000;0.4925;0.7985;
1356.3000;0.4933;0.8035;
1356.6000;0.4925;0.7909;
1356.9000;0.4925;0.7960;
1357.2000;0.4917;0.7985;
1357.5000;0.4933;0.7960;
1357.8000;0.4925;0.8010;
1358.1000;0.4933;0.8035;
1358.4000;0.4900;0.8035;
1358.7000;0.4949;0.8262;
1359.0000;0.4941;0.8186;
1359.3000;0.4941;0.8060;
1359.6000;0.4965;0.8136;
1359.9000;0.4925;0.8035;
1360.2000;0.4917;0.7909;
1360.5000;0.4851;0.7859;
1360.8000;0.4925;0.7960;
1361.1000;0.4917;0.7960;
1361.4000;0.4925;0.8086;
1361.7000;0.4933;0.8111;
1362.0000;0.4917;0.8035;
1362.3000;0.4925;0.8111;
1362.6000;0.4925;0.8161;
1362.9000;0.4892;0.8060;
1363.2000;0.4957;0.8237;
1363.5000;0.4933;0.8136;
1363.8000;0.4925;0.8086;
1364.1000;0.4941;0.8086;
1364.4000;0.4941;0.8136;
1364.7000;0.4949;0.8111;
1365.0000;0.4949;0.8010;
1365.3000;0.4965;0.7985;
1365.6000;0.4933;0.7909;
1365.9000;0.4917;0.7859;
1366.2000;0.4908;0.7884;
1366.5000;0.4941;0.7934;
1366.8000;0.4933;0.7834;
1367.1000;0.4892;0.7733;
1367.4000;0.4900;0.7808;
1367.7000;0.4917;0.7960;
1368.0000;0.4941;0.7934;
1368.3000;0.5006;0.8186;
1368.6000;0.4933;0.7985;
1368.9000;0.4933;0.7934;
1369.2000;0.4917;0.7834;
1369.5000;0.4965;0.7960;
1369.8000;0.4917;0.8060;
1370.1000;0.4917;0.8035;
1370.4000;0.4933;0.8010;
1370.7000;0.4925;0.7859;
1371.0000;0.4900;0.7834;
1371.3000;0.4949;0.7960;
1371.6000;0.4974;0.8086;
1371.9000;0.4957;0.8086;
1372.2000;0.4925;0.8010;
1372.5000;0.4925;0.7934;
1372.8000;0.4949;0.8060;
1373.1000;0.4933;0.8060;
1373.4000;0.4957;0.8111;
1373.7000;0.4925;0.8111;
1374.0000;0.4933;0.8136;
1374.3000;0.4957;0.8186;
1374.6000;0.4965;0.8111;
1374.9000;0.4957;0.8136;
1375.2000;0.4941;0.8086;
1375.5000;0.4925;0.8060;
1375.8000;0.4933;0.8111;
1376.1000;0.4900;0.8060;
1376.4000;0.4933;0.8035;
1376.7000;0.4892;0.8060;
1377.0000;0.4933;0.8136;
1377.3000;0.4965;0.8312;
1377.6000;0.4925;0.8211;
1377.9000;0.4941;0.8237;
1378.2000;0.4925;0.8136;
1378.5000;0.4925;0.8086;
1378.8000;0.4949;0.8111;
1379.1000;0.4908;0.8010;
1379.4000;0.4917;0.7934;
1379.7000;0.4851;0.7733;
1380.0000;0.4941;0.8111;
1380.3000;0.4933;0.8086;
1380.6000;0.4933;0.8161;
1380.9000;0.4933;0.8186;
1381.2000;0.4925;0.8161;
1381.5000;0.4925;0.8161;
1381.8000;0.4851;0.7985;
1382.1000;0.4925;0.8035;
1382.4000;0.4949;0.8136;
1382.7000;0.4908;0.8035;
1383.0000;0.4941;0.8086;
1383.3000;0.4933;0.8060;
1383.6000;0.4933;0.7985;
1383.9000;0.4957;0.7985;
1384.2000;0.4925;0.7960;
1384.5000;0.4925;0.7960;
1384.8000;0.4925;0.8060;
1385.1000;0.4925;0.8161;
1385.4000;0.4917;0.8237;
1385.7000;0.4933;0.8237;
1386.0000;0.4917;0.8111;
1386.3000;0.4933;0.8111;
1386.6000;0.4908;0.8035;
1386.9000;0.4949;0.8161;
1387.2000;0.4908;0.8111;
1387.5000;0.4917;0.8161;
1387.8000;0.4941;0.8262;
1388.1000;0.4900;0.8186;
1388.4000;0.4933;0.8211;
1388.7000;0.4900;0.8262;
1389.0000;0.4933;0.8312;
1389.3000;0.4917;0.8237;
1389.6000;0.4908;0.8186;
1389.9000;0.4860;0.8111;
1390.2000;0.4908;0.8312;
1390.5000;0.4933;0.8287;
1390.8000;0.4949;0.8237;
1391.1000;0.4860;0.7985;
1391.4000;0.4917;0.8111;
1391.7000;0.4917;0.8035;
1392.0000;0.4974;0.8186;
1392.3000;0.4933;0.8035;
1392.6000;0.4908;0.8086;
1392.9000;0.4941;0.8136;
1393.2000;0.4900;0.8035;
1393.5000;0.4925;0.8086;
1393.8000;0.4941;0.8237;
1394.1000;0.4949;0.8337;
1394.4000;0.4949;0.8337;
1394.7000;0.4933;0.8312;
1395.0000;0.4908;0.8287;
1395.3000;0.4933;0.8237;
1395.6000;0.4933;0.8262;
1395.9000;0.4949;0.8287;
1396.2000;0.4957;0.8312;
1396.5000;0.4949;0.8312;
1396.8000;0.4925;0.8111;
1397.1000;0.4917;0.8161;
1397.4000;0.4908;0.8035;
1397.7000;0.4933;0.8060;
1398.0000;0.4917;0.8111;
1398.3000;0.4908;0.8136;
1398.6000;0.4917;0.8086;
1398.9000;0.4917;0.8086;
1399.2000;0.4908;0.8060;
1399.5000;0.4917;0.8161;
1399.8000;0.4998;0.8312;
