time/ms;Fluo/V;P700 deltaI/I x10³;
-199.8000;0.7171;1.0227;
-199.5000;0.7163;1.0227;
-199.2000;0.7179;1.0302;
-198.9000;0.7179;1.0227;
-198.6000;0.7131;1.0126;
-198.3000;0.7163;1.0252;
-198.0000;0.7188;1.0227;
-197.7000;0.7179;1.0176;
-197.4000;0.7171;1.0101;
-197.1000;0.7220;1.0201;
-196.8000;0.7188;1.0101;
-196.5000;0.7163;1.0050;
-196.2000;0.7212;1.0151;
-195.9000;0.7188;1.0075;
-195.6000;0.7196;1.0075;
-195.3000;0.7245;1.0302;
-195.0000;0.7163;1.0151;
-194.7000;0.7179;1.0176;
-194.4000;0.7147;1.0151;
-194.1000;0.7188;1.0277;
-193.8000;0.7171;1.0201;
-193.5000;0.7179;1.0252;
-193.2000;0.7188;1.0201;
-192.9000;0.7196;1.0227;
-192.6000;0.7179;1.0227;
-192.3000;0.7155;1.0176;
-192.0000;0.7171;1.0302;
-191.7000;0.7179;1.0302;
-191.4000;0.7196;1.0403;
-191.1000;0.7147;1.0201;
-190.8000;0.7188;1.0227;
-190.5000;0.7196;1.0201;
-190.2000;0.7196;1.0252;
-189.9000;0.7171;1.0252;
-189.6000;0.7188;1.0277;
-189.3000;0.7163;1.0252;
-189.0000;0.7179;1.0227;
-188.7000;0.7171;1.0252;
-188.4000;0.7163;1.0227;
-188.1000;0.7106;1.0101;
-187.8000;0.7188;1.0277;
-187.5000;0.7188;1.0277;
-187.2000;0.7179;1.0176;
-186.9000;0.7188;1.0201;
-186.6000;0.7163;1.0252;
-186.3000;0.7212;1.0352;
-186.0000;0.7220;1.0428;
-185.7000;0.7179;1.0176;
-185.4000;0.7179;1.0176;
-185.1000;0.7179;1.0151;
-184.8000;0.7171;1.0075;
-184.5000;0.7179;1.0075;
-184.2000;0.7171;1.0050;
-183.9000;0.7188;1.0075;
-183.6000;0.7171;0.9975;
-183.3000;0.7171;1.0025;
-183.0000;0.7163;1.0075;
-182.7000;0.7171;1.0176;
-182.4000;0.7171;1.0151;
-182.1000;0.7188;1.0252;
-181.8000;0.7204;1.0252;
-181.5000;0.7196;1.0227;
-181.2000;0.7188;1.0227;
-180.9000;0.7171;1.0075;
-180.6000;0.7188;1.0101;
-180.3000;0.7188;1.0151;
-180.0000;0.7196;1.0151;
-179.7000;0.7188;1.0151;
-179.4000;0.7171;1.0201;
-179.1000;0.7196;1.0277;
-178.8000;0.7228;1.0327;
-178.5000;0.7188;1.0176;
-178.2000;0.7155;1.0050;
-177.9000;0.7171;1.0025;
-177.6000;0.7188;1.0075;
-177.3000;0.7212;1.0075;
-177.0000;0.7179;0.9975;
-176.7000;0.7196;1.0025;
-176.4000;0.7171;1.0050;
-176.1000;0.7188;1.0227;
-175.8000;0.7179;1.0327;
-175.5000;0.7196;1.0327;
-175.2000;0.7171;1.0277;
-174.9000;0.7196;1.0277;
-174.6000;0.7188;1.0327;
-174.3000;0.7147;1.0327;
-174.0000;0.7179;1.0403;
-173.7000;0.7179;1.0327;
-173.4000;0.7106;1.0075;
-173.1000;0.7179;1.0227;
-172.8000;0.7179;1.0227;
-172.5000;0.7179;1.0252;
-172.2000;0.7171;1.0277;
-171.9000;0.7179;1.0252;
-171.6000;0.7163;1.0201;
-171.3000;0.7212;1.0302;
-171.0000;0.7196;1.0227;
-170.7000;0.7155;1.0176;
-170.4000;0.7147;1.0101;
-170.1000;0.7196;1.0277;
-169.8000;0.7228;1.0403;
-169.5000;0.7171;1.0327;
-169.2000;0.7179;1.0378;
-168.9000;0.7179;1.0327;
-168.6000;0.7196;1.0403;
-168.3000;0.7188;1.0403;
-168.0000;0.7204;1.0428;
-167.7000;0.7212;1.0403;
-167.4000;0.7179;1.0352;
-167.1000;0.7147;1.0327;
-166.8000;0.7196;1.0504;
-166.5000;0.7188;1.0478;
-166.2000;0.7204;1.0478;
-165.9000;0.7188;1.0403;
-165.6000;0.7171;1.0352;
-165.3000;0.7171;1.0352;
-165.0000;0.7171;1.0327;
-164.7000;0.7188;1.0403;
-164.4000;0.7253;1.0630;
-164.1000;0.7155;1.0403;
-163.8000;0.7171;1.0529;
-163.5000;0.7285;1.0781;
-163.2000;0.7179;1.0352;
-162.9000;0.7236;1.0428;
-162.6000;0.7179;1.0252;
-162.3000;0.7179;1.0352;
-162.0000;0.7171;1.0428;
-161.7000;0.7188;1.0403;
-161.4000;0.7179;1.0327;
-161.1000;0.7171;1.0277;
-160.8000;0.7179;1.0277;
-160.5000;0.7179;1.0327;
-160.2000;0.7163;1.0277;
-159.9000;0.7171;1.0327;
-159.6000;0.7179;1.0378;
-159.3000;0.7179;1.0428;
-159.0000;0.7171;1.0403;
-158.7000;0.7179;1.0453;
-158.4000;0.7171;1.0378;
-158.1000;0.7179;1.0403;
-157.8000;0.7163;1.0378;
-157.5000;0.7179;1.0453;
-157.2000;0.7188;1.0352;
-156.9000;0.7171;1.0227;
-156.6000;0.7179;1.0327;
-156.3000;0.7171;1.0302;
-156.0000;0.7204;1.0277;
-155.7000;0.7179;1.0252;
-155.4000;0.7196;1.0302;
-155.1000;0.7163;1.0227;
-154.8000;0.7188;1.0327;
-154.5000;0.7188;1.0302;
-154.2000;0.7196;1.0378;
-153.9000;0.7179;1.0403;
-153.6000;0.7188;1.0352;
-153.3000;0.7196;1.0277;
-153.0000;0.7171;1.0302;
-152.7000;0.7188;1.0352;
-152.4000;0.7163;1.0277;
-152.1000;0.7188;1.0378;
-151.8000;0.7171;1.0428;
-151.5000;0.7179;1.0504;
-151.2000;0.7139;1.0403;
-150.9000;0.7171;1.0478;
-150.6000;0.7196;1.0579;
-150.3000;0.7245;1.0730;
-150.0000;0.7196;1.0655;
-149.7000;0.7196;1.0630;
-149.4000;0.7139;1.0478;
-149.1000;0.7147;1.0378;
-148.8000;0.7179;1.0403;
-148.5000;0.7171;1.0403;
-148.2000;0.7131;1.0277;
-147.9000;0.7163;1.0428;
-147.6000;0.7171;1.0378;
-147.3000;0.7171;1.0302;
-147.0000;0.7220;1.0352;
-146.7000;0.7179;1.0252;
-146.4000;0.7139;1.0126;
-146.1000;0.7188;1.0302;
-145.8000;0.7179;1.0302;
-145.5000;0.7196;1.0327;
-145.2000;0.7188;1.0327;
-144.9000;0.7188;1.0378;
-144.6000;0.7196;1.0327;
-144.3000;0.7147;1.0252;
-144.0000;0.7179;1.0352;
-143.7000;0.7179;1.0302;
-143.4000;0.7179;1.0352;
-143.1000;0.7171;1.0403;
-142.8000;0.7188;1.0378;
-142.5000;0.7196;1.0529;
-142.2000;0.7179;1.0504;
-141.9000;0.7188;1.0529;
-141.6000;0.7188;1.0504;
-141.3000;0.7179;1.0428;
-141.0000;0.7171;1.0428;
-140.7000;0.7212;1.0428;
-140.4000;0.7204;1.0453;
-140.1000;0.7179;1.0453;
-139.8000;0.7188;1.0453;
-139.5000;0.7212;1.0604;
-139.2000;0.7171;1.0529;
-138.9000;0.7179;1.0529;
-138.6000;0.7188;1.0478;
-138.3000;0.7171;1.0428;
-138.0000;0.7188;1.0453;
-137.7000;0.7188;1.0403;
-137.4000;0.7171;1.0327;
-137.1000;0.7155;1.0277;
-136.8000;0.7163;1.0252;
-136.5000;0.7179;1.0277;
-136.2000;0.7163;1.0302;
-135.9000;0.7163;1.0302;
-135.6000;0.7179;1.0327;
-135.3000;0.7163;1.0327;
-135.0000;0.7179;1.0378;
-134.7000;0.7147;1.0327;
-134.4000;0.7179;1.0352;
-134.1000;0.7171;1.0352;
-133.8000;0.7179;1.0277;
-133.5000;0.7179;1.0378;
-133.2000;0.7171;1.0428;
-132.9000;0.7179;1.0352;
-132.6000;0.7171;1.0352;
-132.3000;0.7171;1.0352;
-132.0000;0.7188;1.0428;
-131.7000;0.7188;1.0453;
-131.4000;0.7163;1.0352;
-131.1000;0.7171;1.0403;
-130.8000;0.7188;1.0428;
-130.5000;0.7163;1.0428;
-130.2000;0.7196;1.0478;
-129.9000;0.7188;1.0403;
-129.6000;0.7179;1.0352;
-129.3000;0.7188;1.0352;
-129.0000;0.7188;1.0352;
-128.7000;0.7179;1.0352;
-128.4000;0.7163;1.0352;
-128.1000;0.7220;1.0453;
-127.8000;0.7188;1.0327;
-127.5000;0.7163;1.0327;
-127.2000;0.7139;1.0277;
-126.9000;0.7196;1.0453;
-126.6000;0.7188;1.0428;
-126.3000;0.7179;1.0403;
-126.0000;0.7179;1.0504;
-125.7000;0.7188;1.0529;
-125.4000;0.7171;1.0529;
-125.1000;0.7163;1.0453;
-124.8000;0.7179;1.0428;
-124.5000;0.7163;1.0403;
-124.2000;0.7179;1.0428;
-123.9000;0.7179;1.0227;
-123.6000;0.7179;1.0302;
-123.3000;0.7179;1.0327;
-123.0000;0.7179;1.0302;
-122.7000;0.7179;1.0302;
-122.4000;0.7171;1.0327;
-122.1000;0.7179;1.0378;
-121.8000;0.7171;1.0277;
-121.5000;0.7179;1.0352;
-121.2000;0.7188;1.0352;
-120.9000;0.7147;1.0201;
-120.6000;0.7163;1.0252;
-120.3000;0.7220;1.0403;
-120.0000;0.7220;1.0529;
-119.7000;0.7163;1.0378;
-119.4000;0.7188;1.0378;
-119.1000;0.7188;1.0302;
-118.8000;0.7179;1.0302;
-118.5000;0.7188;1.0453;
-118.2000;0.7188;1.0403;
-117.9000;0.7171;1.0352;
-117.6000;0.7155;1.0302;
-117.3000;0.7147;1.0302;
-117.0000;0.7171;1.0327;
-116.7000;0.7188;1.0378;
-116.4000;0.7179;1.0428;
-116.1000;0.7179;1.0378;
-115.8000;0.7106;1.0101;
-115.5000;0.7179;1.0252;
-115.2000;0.7196;1.0302;
-114.9000;0.7163;1.0327;
-114.6000;0.7139;1.0277;
-114.3000;0.7171;1.0327;
-114.0000;0.7188;1.0302;
-113.7000;0.7212;1.0277;
-113.4000;0.7171;1.0252;
-113.1000;0.7171;1.0227;
-112.8000;0.7220;1.0378;
-112.5000;0.7188;1.0352;
-112.2000;0.7188;1.0378;
-111.9000;0.7236;1.0554;
-111.6000;0.7179;1.0478;
-111.3000;0.7114;1.0227;
-111.0000;0.7171;1.0352;
-110.7000;0.7188;1.0277;
-110.4000;0.7139;1.0075;
-110.1000;0.7179;1.0126;
-109.8000;0.7179;1.0126;
-109.5000;0.7163;1.0075;
-109.2000;0.7204;1.0126;
-108.9000;0.7220;1.0151;
-108.6000;0.7196;1.0151;
-108.3000;0.7171;1.0101;
-108.0000;0.7188;1.0201;
-107.7000;0.7212;1.0227;
-107.4000;0.7196;1.0252;
-107.1000;0.7171;1.0176;
-106.8000;0.7188;1.0277;
-106.5000;0.7188;1.0151;
-106.2000;0.7196;1.0025;
-105.9000;0.7212;1.0000;
-105.6000;0.7171;1.0025;
-105.3000;0.7179;1.0050;
-105.0000;0.7196;1.0075;
-104.7000;0.7196;1.0151;
-104.4000;0.7228;1.0201;
-104.1000;0.7204;1.0151;
-103.8000;0.7171;1.0176;
-103.5000;0.7188;1.0227;
-103.2000;0.7131;1.0050;
-102.9000;0.7188;1.0151;
-102.6000;0.7179;1.0151;
-102.3000;0.7155;1.0050;
-102.0000;0.7147;0.9975;
-101.7000;0.7179;0.9924;
-101.4000;0.7171;0.9924;
-101.1000;0.7171;0.9949;
-100.8000;0.7155;1.0050;
-100.5000;0.7196;1.0126;
-100.2000;0.7179;1.0126;
-99.9000;0.7082;0.9874;
-99.6000;0.7188;1.0151;
-99.3000;0.7171;1.0101;
-99.0000;0.7188;1.0151;
-98.7000;0.7196;1.0227;
-98.4000;0.7188;1.0252;
-98.1000;0.7179;1.0227;
-97.8000;0.7188;1.0101;
-97.5000;0.7155;1.0000;
-97.2000;0.7212;1.0050;
-96.9000;0.7179;1.0025;
-96.6000;0.7188;1.0050;
-96.3000;0.7269;1.0302;
-96.0000;0.7196;1.0101;
-95.7000;0.7171;1.0126;
-95.4000;0.7179;1.0101;
-95.1000;0.7204;1.0277;
-94.8000;0.7204;1.0227;
-94.5000;0.7171;1.0151;
-94.2000;0.7163;1.0101;
-93.9000;0.7179;1.0151;
-93.6000;0.7155;1.0050;
-93.3000;0.7098;0.9874;
-93.0000;0.7196;1.0176;
-92.7000;0.7188;1.0227;
-92.4000;0.7179;1.0327;
-92.1000;0.7204;1.0378;
-91.8000;0.7220;1.0378;
-91.5000;0.7098;1.0101;
-91.2000;0.7171;1.0352;
-90.9000;0.7163;1.0277;
-90.6000;0.7163;1.0302;
-90.3000;0.7196;1.0428;
-90.0000;0.7179;1.0352;
-89.7000;0.7171;1.0277;
-89.4000;0.7196;1.0277;
-89.1000;0.7179;1.0176;
-88.8000;0.7155;1.0000;
-88.5000;0.7188;1.0176;
-88.2000;0.7163;1.0025;
-87.9000;0.7139;0.9899;
-87.6000;0.7179;0.9975;
-87.3000;0.7171;0.9874;
-87.0000;0.7155;0.9899;
-86.7000;0.7171;1.0000;
-86.4000;0.7171;1.0050;
-86.1000;0.7155;1.0075;
-85.8000;0.7188;1.0101;
-85.5000;0.7171;1.0101;
-85.2000;0.7179;1.0101;
-84.9000;0.7179;1.0101;
-84.6000;0.7196;1.0101;
-84.3000;0.7196;1.0126;
-84.0000;0.7163;1.0126;
-83.7000;0.7171;1.0126;
-83.4000;0.7204;1.0101;
-83.1000;0.7188;1.0075;
-82.8000;0.7204;1.0126;
-82.5000;0.7171;1.0025;
-82.2000;0.7212;1.0126;
-81.9000;0.7196;1.0126;
-81.6000;0.7188;1.0101;
-81.3000;0.7171;1.0075;
-81.0000;0.7204;1.0126;
-80.7000;0.7179;1.0050;
-80.4000;0.7163;1.0000;
-80.1000;0.7212;1.0151;
-79.8000;0.7171;1.0126;
-79.5000;0.7196;1.0201;
-79.2000;0.7147;1.0201;
-78.9000;0.7188;1.0378;
-78.6000;0.7106;1.0025;
-78.3000;0.7188;1.0201;
-78.0000;0.7171;1.0101;
-77.7000;0.7179;1.0075;
-77.4000;0.7171;1.0025;
-77.1000;0.7196;1.0151;
-76.8000;0.7204;1.0050;
-76.5000;0.7179;0.9975;
-76.2000;0.7171;1.0025;
-75.9000;0.7212;1.0050;
-75.6000;0.7188;0.9975;
-75.3000;0.7163;0.9975;
-75.0000;0.7179;1.0050;
-74.7000;0.7171;1.0075;
-74.4000;0.7114;1.0025;
-74.1000;0.7236;1.0176;
-73.8000;0.7179;1.0025;
-73.5000;0.7188;1.0101;
-73.2000;0.7188;1.0227;
-72.9000;0.7204;1.0352;
-72.6000;0.7188;1.0302;
-72.3000;0.7155;1.0201;
-72.0000;0.7212;1.0327;
-71.7000;0.7196;1.0327;
-71.4000;0.7163;1.0252;
-71.1000;0.7179;1.0352;
-70.8000;0.7196;1.0453;
-70.5000;0.7196;1.0529;
-70.2000;0.7171;1.0403;
-69.9000;0.7179;1.0478;
-69.6000;0.7179;1.0403;
-69.3000;0.7188;1.0352;
-69.0000;0.7163;1.0277;
-68.7000;0.7171;1.0302;
-68.4000;0.7179;1.0252;
-68.1000;0.7171;1.0151;
-67.8000;0.7196;1.0201;
-67.5000;0.7171;1.0176;
-67.2000;0.7155;1.0201;
-66.9000;0.7171;1.0252;
-66.6000;0.7179;1.0277;
-66.3000;0.7163;1.0302;
-66.0000;0.7171;1.0352;
-65.7000;0.7171;1.0378;
-65.4000;0.7179;1.0403;
-65.1000;0.7171;1.0403;
-64.8000;0.7171;1.0378;
-64.5000;0.7171;1.0378;
-64.2000;0.7163;1.0327;
-63.9000;0.7179;1.0327;
-63.6000;0.7179;1.0302;
-63.3000;0.7171;1.0227;
-63.0000;0.7163;1.0201;
-62.7000;0.7155;1.0151;
-62.4000;0.7196;1.0201;
-62.1000;0.7155;1.0151;
-61.8000;0.7171;1.0151;
-61.5000;0.7179;1.0201;
-61.2000;0.7171;1.0227;
-60.9000;0.7155;1.0227;
-60.6000;0.7196;1.0378;
-60.3000;0.7204;1.0453;
-60.0000;0.7163;1.0327;
-59.7000;0.7179;1.0302;
-59.4000;0.7196;1.0327;
-59.1000;0.7188;1.0327;
-58.8000;0.7204;1.0352;
-58.5000;0.7261;1.0453;
-58.2000;0.7196;1.0227;
-57.9000;0.7212;1.0327;
-57.6000;0.7220;1.0352;
-57.3000;0.7196;1.0327;
-57.0000;0.7171;1.0252;
-56.7000;0.7171;1.0327;
-56.4000;0.7139;1.0227;
-56.1000;0.7171;1.0378;
-55.8000;0.7179;1.0403;
-55.5000;0.7171;1.0352;
-55.2000;0.7131;1.0227;
-54.9000;0.7228;1.0453;
-54.6000;0.7147;1.0302;
-54.3000;0.7131;1.0227;
-54.0000;0.7188;1.0378;
-53.7000;0.7171;1.0201;
-53.4000;0.7188;1.0252;
-53.1000;0.7196;1.0126;
-52.8000;0.7204;1.0126;
-52.5000;0.7179;1.0101;
-52.2000;0.7188;1.0176;
-51.9000;0.7179;1.0151;
-51.6000;0.7196;1.0227;
-51.3000;0.7171;1.0201;
-51.0000;0.7188;1.0227;
-50.7000;0.7179;1.0302;
-50.4000;0.7245;1.0504;
-50.1000;0.7188;1.0327;
-49.8000;0.7228;1.0428;
-49.5000;0.7179;1.0302;
-49.2000;0.7171;1.0302;
-48.9000;0.7147;1.0176;
-48.6000;0.7236;1.0378;
-48.3000;0.7188;1.0378;
-48.0000;0.7188;1.0327;
-47.7000;0.7196;1.0378;
-47.4000;0.7196;1.0352;
-47.1000;0.7155;1.0201;
-46.8000;0.7179;1.0176;
-46.5000;0.7179;1.0176;
-46.2000;0.7171;1.0176;
-45.9000;0.7163;1.0101;
-45.6000;0.7155;1.0101;
-45.3000;0.7171;1.0201;
-45.0000;0.7179;1.0227;
-44.7000;0.7163;1.0201;
-44.4000;0.7179;1.0176;
-44.1000;0.7171;1.0201;
-43.8000;0.7163;1.0227;
-43.5000;0.7179;1.0201;
-43.2000;0.7163;1.0126;
-42.9000;0.7155;1.0101;
-42.6000;0.7179;1.0176;
-42.3000;0.7179;1.0227;
-42.0000;0.7171;1.0327;
-41.7000;0.7147;1.0277;
-41.4000;0.7171;1.0352;
-41.1000;0.7163;1.0327;
-40.8000;0.7155;1.0277;
-40.5000;0.7155;1.0302;
-40.2000;0.7179;1.0252;
-39.9000;0.7179;1.0151;
-39.6000;0.7188;1.0227;
-39.3000;0.7196;1.0227;
-39.0000;0.7196;1.0277;
-38.7000;0.7220;1.0327;
-38.4000;0.7179;1.0252;
-38.1000;0.7179;1.0302;
-37.8000;0.7179;1.0277;
-37.5000;0.7204;1.0252;
-37.2000;0.7179;1.0277;
-36.9000;0.7179;1.0277;
-36.6000;0.7179;1.0302;
-36.3000;0.7188;1.0327;
-36.0000;0.7188;1.0252;
-35.7000;0.7171;1.0201;
-35.4000;0.7220;1.0252;
-35.1000;0.7179;1.0277;
-34.8000;0.7179;1.0277;
-34.5000;0.7188;1.0327;
-34.2000;0.7155;1.0277;
-33.9000;0.7114;1.0151;
-33.6000;0.7196;1.0302;
-33.3000;0.7236;1.0428;
-33.0000;0.7188;1.0378;
-32.7000;0.7188;1.0403;
-32.4000;0.7131;1.0227;
-32.1000;0.7147;1.0302;
-31.8000;0.7188;1.0352;
-31.5000;0.7171;1.0227;
-31.2000;0.7171;1.0176;
-30.9000;0.7171;1.0101;
-30.6000;0.7171;1.0126;
-30.3000;0.7155;1.0075;
-30.0000;0.7098;0.9924;
-29.7000;0.7179;1.0201;
-29.4000;0.7147;1.0151;
-29.1000;0.7179;1.0277;
-28.8000;0.7163;1.0302;
-28.5000;0.7171;1.0352;
-28.2000;0.7163;1.0352;
-27.9000;0.7179;1.0327;
-27.6000;0.7171;1.0302;
-27.3000;0.7204;1.0352;
-27.0000;0.7179;1.0327;
-26.7000;0.7188;1.0327;
-26.4000;0.7171;1.0227;
-26.1000;0.7179;1.0352;
-25.8000;0.7204;1.0453;
-25.5000;0.7171;1.0378;
-25.2000;0.7179;1.0352;
-24.9000;0.7171;1.0302;
-24.6000;0.7188;1.0252;
-24.3000;0.7179;1.0151;
-24.0000;0.7253;1.0403;
-23.7000;0.7171;1.0352;
-23.4000;0.7171;1.0378;
-23.1000;0.7131;1.0277;
-22.8000;0.7171;1.0428;
-22.5000;0.7196;1.0504;
-22.2000;0.7179;1.0403;
-21.9000;0.7163;1.0378;
-21.6000;0.7179;1.0403;
-21.3000;0.7179;1.0352;
-21.0000;0.7171;1.0277;
-20.7000;0.7171;1.0302;
-20.4000;0.7163;1.0378;
-20.1000;0.7147;1.0352;
-19.8000;0.7179;1.0453;
-19.5000;0.7155;1.0378;
-19.2000;0.7163;1.0327;
-18.9000;0.7163;1.0352;
-18.6000;0.7147;1.0277;
-18.3000;0.7204;1.0227;
-18.0000;0.7171;1.0101;
-17.7000;0.7163;1.0050;
-17.4000;0.7171;1.0101;
-17.1000;0.7204;1.0277;
-16.8000;0.7196;1.0227;
-16.5000;0.7179;1.0151;
-16.2000;0.7179;1.0176;
-15.9000;0.7188;1.0277;
-15.6000;0.7163;1.0201;
-15.3000;0.7212;1.0227;
-15.0000;0.7179;1.0126;
-14.7000;0.7212;1.0176;
-14.4000;0.7245;1.0327;
-14.1000;0.7179;1.0227;
-13.8000;0.7171;1.0277;
-13.5000;0.7228;1.0453;
-13.2000;0.7171;1.0227;
-12.9000;0.7179;1.0101;
-12.6000;0.7188;1.0126;
-12.3000;0.7261;1.0327;
-12.0000;0.7163;1.0050;
-11.7000;0.7123;0.9924;
-11.4000;0.7188;1.0151;
-11.1000;0.7155;1.0075;
-10.8000;0.7188;1.0151;
-10.5000;0.7163;1.0101;
-10.2000;0.7179;1.0000;
-9.9000;0.7179;1.0025;
-9.6000;0.7188;1.0101;
-9.3000;0.7204;1.0201;
-9.0000;0.7188;1.0227;
-8.7000;0.7188;1.0302;
-8.4000;0.7188;1.0352;
-8.1000;0.7245;1.0579;
-7.8000;0.7163;1.0302;
-7.5000;0.7171;1.0252;
-7.2000;0.7188;1.0277;
-6.9000;0.7204;1.0277;
-6.6000;0.7188;1.0302;
-6.3000;0.7171;1.0277;
-6.0000;0.7147;1.0176;
-5.7000;0.7188;1.0252;
-5.4000;0.7179;1.0201;
-5.1000;0.7196;1.0126;
-4.8000;0.7179;1.0126;
-4.5000;0.7188;1.0126;
-4.2000;0.7196;1.0000;
-3.9000;0.7155;0.9975;
-3.6000;0.7188;1.0075;
-3.3000;0.7188;1.0025;
-3.0000;0.7188;1.0101;
-2.7000;0.7171;1.0075;
-2.4000;0.7171;1.0075;
-2.1000;0.7171;1.0126;
-1.8000;0.7220;1.0302;
-1.5000;0.7163;1.0101;
-1.2000;0.7171;1.0075;
-0.9000;0.7147;1.0000;
-0.6000;0.7147;1.0000;
-0.3000;0.7106;0.9899;
0.0000;0.7106;0.9899;
0.3000;0.7245;0.9773;
0.6000;0.7269;1.0000;
0.9000;0.7302;1.0252;
1.2000;0.7350;1.0478;
1.5000;0.7350;1.0680;
1.8000;0.7326;1.0705;
2.1000;0.7448;1.1159;
2.4000;0.7407;1.1259;
2.7000;0.7448;1.1410;
3.0000;0.7448;1.1511;
3.3000;0.7432;1.1587;
3.6000;0.7464;1.1687;
3.9000;0.7464;1.1763;
4.2000;0.7473;1.1889;
4.5000;0.7497;1.1965;
4.8000;0.7481;1.1965;
5.1000;0.7505;1.2116;
5.4000;0.7497;1.2141;
5.7000;0.7513;1.2166;
6.0000;0.7570;1.2267;
6.3000;0.7530;1.2242;
6.6000;0.7521;1.2292;
6.9000;0.7530;1.2267;
7.2000;0.7546;1.2368;
7.5000;0.7546;1.2393;
7.8000;0.7530;1.2393;
8.1000;0.7562;1.2519;
8.4000;0.7570;1.2494;
8.7000;0.7595;1.2519;
9.0000;0.7554;1.2368;
9.3000;0.7570;1.2368;
9.6000;0.7578;1.2418;
9.9000;0.7546;1.2317;
10.2000;0.7586;1.2418;
10.5000;0.7578;1.2393;
10.8000;0.7595;1.2443;
11.1000;0.7603;1.2393;
11.4000;0.7603;1.2443;
11.7000;0.7603;1.2494;
12.0000;0.7611;1.2468;
12.3000;0.7627;1.2443;
12.6000;0.7603;1.2292;
12.9000;0.7586;1.2267;
13.2000;0.7619;1.2368;
13.5000;0.7635;1.2418;
13.8000;0.7619;1.2368;
14.1000;0.7627;1.2393;
14.4000;0.7619;1.2468;
14.7000;0.7611;1.2519;
15.0000;0.7562;1.2292;
15.3000;0.7643;1.2468;
15.6000;0.7635;1.2468;
15.9000;0.7660;1.2443;
16.2000;0.7652;1.2393;
16.5000;0.7652;1.2443;
16.8000;0.7652;1.2418;
17.1000;0.7643;1.2494;
17.4000;0.7660;1.2443;
17.7000;0.7668;1.2468;
18.0000;0.7652;1.2418;
18.3000;0.7643;1.2418;
18.6000;0.7660;1.2544;
18.9000;0.7652;1.2494;
19.2000;0.7692;1.2544;
19.5000;0.7684;1.2494;
19.8000;0.7692;1.2544;
20.1000;0.7692;1.2544;
20.4000;0.7668;1.2418;
20.7000;0.7757;1.2594;
21.0000;0.7709;1.2494;
21.3000;0.7684;1.2368;
21.6000;0.7668;1.2368;
21.9000;0.7660;1.2292;
22.2000;0.7700;1.2317;
22.5000;0.7635;1.2216;
22.8000;0.7749;1.2569;
23.1000;0.7692;1.2418;
23.4000;0.7709;1.2443;
23.7000;0.7684;1.2393;
24.0000;0.7684;1.2418;
24.3000;0.7652;1.2368;
24.6000;0.7692;1.2519;
24.9000;0.7692;1.2393;
25.2000;0.7692;1.2468;
25.5000;0.7709;1.2494;
25.8000;0.7668;1.2418;
26.1000;0.7717;1.2519;
26.4000;0.7700;1.2393;
26.7000;0.7700;1.2393;
27.0000;0.7692;1.2342;
27.3000;0.7660;1.2292;
27.6000;0.7700;1.2443;
27.9000;0.7692;1.2393;
28.2000;0.7684;1.2342;
28.5000;0.7692;1.2342;
28.8000;0.7709;1.2242;
29.1000;0.7709;1.2216;
29.4000;0.7692;1.2141;
29.7000;0.7692;1.2166;
30.0000;0.7684;1.2242;
30.3000;0.7749;1.2393;
30.6000;0.7709;1.2216;
30.9000;0.7709;1.2267;
31.2000;0.7709;1.2317;
31.5000;0.7725;1.2468;
31.8000;0.7709;1.2418;
32.1000;0.7717;1.2468;
32.4000;0.7733;1.2519;
32.7000;0.7709;1.2468;
33.0000;0.7709;1.2468;
33.3000;0.7725;1.2494;
33.6000;0.7733;1.2519;
33.9000;0.7725;1.2519;
34.2000;0.7692;1.2468;
34.5000;0.7700;1.2519;
34.8000;0.7676;1.2368;
35.1000;0.7725;1.2519;
35.4000;0.7717;1.2619;
35.7000;0.7717;1.2670;
36.0000;0.7709;1.2569;
36.3000;0.7700;1.2494;
36.6000;0.7700;1.2468;
36.9000;0.7692;1.2393;
37.2000;0.7709;1.2342;
37.5000;0.7717;1.2342;
37.8000;0.7757;1.2342;
38.1000;0.7725;1.2141;
38.4000;0.7700;1.2090;
38.7000;0.7749;1.2267;
39.0000;0.7709;1.2292;
39.3000;0.7717;1.2393;
39.6000;0.7733;1.2393;
39.9000;0.7700;1.2317;
40.2000;0.7709;1.2342;
40.5000;0.7725;1.2342;
40.8000;0.7717;1.2317;
41.1000;0.7700;1.2342;
41.4000;0.7709;1.2368;
41.7000;0.7709;1.2468;
42.0000;0.7717;1.2569;
42.3000;0.7700;1.2544;
42.6000;0.7733;1.2594;
42.9000;0.7700;1.2594;
43.2000;0.7725;1.2594;
43.5000;0.7725;1.2468;
43.8000;0.7766;1.2544;
44.1000;0.7733;1.2519;
44.4000;0.7766;1.2569;
44.7000;0.7684;1.2393;
45.0000;0.7709;1.2519;
45.3000;0.7733;1.2645;
45.6000;0.7733;1.2569;
45.9000;0.7709;1.2519;
46.2000;0.7725;1.2468;
46.5000;0.7700;1.2393;
46.8000;0.7725;1.2418;
47.1000;0.7717;1.2443;
47.4000;0.7725;1.2393;
47.7000;0.7709;1.2468;
48.0000;0.7635;1.2242;
48.3000;0.7725;1.2418;
48.6000;0.7733;1.2468;
48.9000;0.7717;1.2468;
49.2000;0.7717;1.2544;
49.5000;0.7692;1.2418;
49.8000;0.7692;1.2342;
50.1000;0.7700;1.2368;
50.4000;0.7717;1.2393;
50.7000;0.7709;1.2443;
51.0000;0.7692;1.2519;
51.3000;0.7700;1.2443;
51.6000;0.7700;1.2494;
51.9000;0.7725;1.2594;
52.2000;0.7717;1.2544;
52.5000;0.7717;1.2544;
52.8000;0.7733;1.2594;
53.1000;0.7733;1.2670;
53.4000;0.7741;1.2695;
53.7000;0.7709;1.2670;
54.0000;0.7725;1.2645;
54.3000;0.7733;1.2619;
54.6000;0.7725;1.2569;
54.9000;0.7717;1.2569;
55.2000;0.7725;1.2619;
55.5000;0.7717;1.2569;
55.8000;0.7717;1.2494;
56.1000;0.7725;1.2519;
56.4000;0.7725;1.2594;
56.7000;0.7733;1.2695;
57.0000;0.7733;1.2695;
57.3000;0.7717;1.2670;
57.6000;0.7717;1.2544;
57.9000;0.7741;1.2443;
58.2000;0.7741;1.2443;
58.5000;0.7749;1.2342;
58.8000;0.7774;1.2468;
59.1000;0.7725;1.2393;
59.4000;0.7741;1.2443;
59.7000;0.7847;1.2720;
60.0000;0.7676;1.2292;
60.3000;0.7725;1.2468;
60.6000;0.7725;1.2519;
60.9000;0.7725;1.2519;
61.2000;0.7725;1.2594;
61.5000;0.7717;1.2569;
61.8000;0.7774;1.2745;
62.1000;0.7725;1.2670;
62.4000;0.7717;1.2619;
62.7000;0.7717;1.2645;
63.0000;0.7725;1.2594;
63.3000;0.7733;1.2594;
63.6000;0.7725;1.2494;
63.9000;0.7717;1.2342;
64.2000;0.7741;1.2368;
64.5000;0.7725;1.2342;
64.8000;0.7717;1.2342;
65.1000;0.7717;1.2342;
65.4000;0.7709;1.2368;
65.7000;0.7717;1.2393;
66.0000;0.7700;1.2342;
66.3000;0.7717;1.2342;
66.6000;0.7717;1.2317;
66.9000;0.7741;1.2342;
67.2000;0.7700;1.2267;
67.5000;0.7717;1.2267;
67.8000;0.7709;1.2242;
68.1000;0.7684;1.2292;
68.4000;0.7741;1.2317;
68.7000;0.7709;1.2191;
69.0000;0.7741;1.2242;
69.3000;0.7725;1.2216;
69.6000;0.7725;1.2216;
69.9000;0.7733;1.2242;
70.2000;0.7709;1.2242;
70.5000;0.7717;1.2267;
70.8000;0.7733;1.2393;
71.1000;0.7709;1.2242;
71.4000;0.7709;1.2242;
71.7000;0.7709;1.2191;
72.0000;0.7717;1.2166;
72.3000;0.7733;1.2191;
72.6000;0.7725;1.2267;
72.9000;0.7725;1.2292;
73.2000;0.7725;1.2292;
73.5000;0.7725;1.2393;
73.8000;0.7749;1.2443;
74.1000;0.7700;1.2317;
74.4000;0.7717;1.2368;
74.7000;0.7717;1.2418;
75.0000;0.7725;1.2468;
75.3000;0.7717;1.2468;
75.6000;0.7700;1.2468;
75.9000;0.7725;1.2544;
76.2000;0.7709;1.2519;
76.5000;0.7700;1.2519;
76.8000;0.7709;1.2519;
77.1000;0.7725;1.2519;
77.4000;0.7725;1.2468;
77.7000;0.7725;1.2468;
78.0000;0.7725;1.2443;
78.3000;0.7733;1.2544;
78.6000;0.7749;1.2519;
78.9000;0.7741;1.2519;
79.2000;0.7725;1.2494;
79.5000;0.7676;1.2368;
79.8000;0.7741;1.2544;
80.1000;0.7741;1.2519;
80.4000;0.7733;1.2494;
80.7000;0.7733;1.2519;
81.0000;0.7684;1.2393;
81.3000;0.7749;1.2544;
81.6000;0.7749;1.2544;
81.9000;0.7725;1.2619;
82.2000;0.7717;1.2519;
82.5000;0.7717;1.2443;
82.8000;0.7733;1.2393;
83.1000;0.7733;1.2418;
83.4000;0.7741;1.2368;
83.7000;0.7749;1.2418;
84.0000;0.7725;1.2242;
84.3000;0.7733;1.2242;
84.6000;0.7717;1.2317;
84.9000;0.7725;1.2418;
85.2000;0.7717;1.2494;
85.5000;0.7717;1.2418;
85.8000;0.7774;1.2619;
86.1000;0.7725;1.2519;
86.4000;0.7741;1.2569;
86.7000;0.7709;1.2418;
87.0000;0.7733;1.2468;
87.3000;0.7717;1.2443;
87.6000;0.7741;1.2468;
87.9000;0.7717;1.2443;
88.2000;0.7717;1.2443;
88.5000;0.7717;1.2443;
88.8000;0.7741;1.2544;
89.1000;0.7749;1.2569;
89.4000;0.7741;1.2619;
89.7000;0.7733;1.2594;
90.0000;0.7741;1.2594;
90.3000;0.7717;1.2519;
90.6000;0.7741;1.2468;
90.9000;0.7741;1.2544;
91.2000;0.7733;1.2544;
91.5000;0.7709;1.2544;
91.8000;0.7717;1.2519;
92.1000;0.7725;1.2494;
92.4000;0.7725;1.2468;
92.7000;0.7725;1.2519;
93.0000;0.7709;1.2544;
93.3000;0.7725;1.2594;
93.6000;0.7741;1.2745;
93.9000;0.7741;1.2771;
94.2000;0.7733;1.2670;
94.5000;0.7692;1.2519;
94.8000;0.7725;1.2695;
95.1000;0.7725;1.2645;
95.4000;0.7725;1.2645;
95.7000;0.7717;1.2594;
96.0000;0.7700;1.2494;
96.3000;0.7700;1.2544;
96.6000;0.7725;1.2544;
96.9000;0.7709;1.2569;
97.2000;0.7709;1.2494;
97.5000;0.7774;1.2645;
97.8000;0.7717;1.2494;
98.1000;0.7725;1.2544;
98.4000;0.7725;1.2619;
98.7000;0.7717;1.2645;
99.0000;0.7717;1.2670;
99.3000;0.7717;1.2645;
99.6000;0.7725;1.2695;
99.9000;0.7717;1.2745;
100.2000;0.7725;1.2720;
100.5000;0.7725;1.2720;
100.8000;0.7709;1.2695;
101.1000;0.7709;1.2695;
101.4000;0.7717;1.2720;
101.7000;0.7717;1.2645;
102.0000;0.7717;1.2670;
102.3000;0.7733;1.2619;
102.6000;0.7766;1.2670;
102.9000;0.7725;1.2544;
103.2000;0.7733;1.2519;
103.5000;0.7757;1.2645;
103.8000;0.7717;1.2494;
104.1000;0.7733;1.2494;
104.4000;0.7733;1.2494;
104.7000;0.7725;1.2494;
105.0000;0.7733;1.2468;
105.3000;0.7741;1.2418;
105.6000;0.7741;1.2368;
105.9000;0.7733;1.2267;
106.2000;0.7725;1.2242;
106.5000;0.7725;1.2216;
106.8000;0.7733;1.2242;
107.1000;0.7709;1.2292;
107.4000;0.7709;1.2292;
107.7000;0.7733;1.2393;
108.0000;0.7709;1.2368;
108.3000;0.7717;1.2368;
108.6000;0.7660;1.2342;
108.9000;0.7709;1.2443;
109.2000;0.7749;1.2594;
109.5000;0.7717;1.2544;
109.8000;0.7709;1.2468;
110.1000;0.7709;1.2494;
110.4000;0.7709;1.2418;
110.7000;0.7725;1.2443;
111.0000;0.7725;1.2368;
111.3000;0.7709;1.2393;
111.6000;0.7741;1.2519;
111.9000;0.7717;1.2393;
112.2000;0.7766;1.2494;
112.5000;0.7717;1.2368;
112.8000;0.7717;1.2393;
113.1000;0.7709;1.2342;
113.4000;0.7717;1.2393;
113.7000;0.7700;1.2317;
114.0000;0.7692;1.2393;
114.3000;0.7709;1.2393;
114.6000;0.7709;1.2443;
114.9000;0.7709;1.2418;
115.2000;0.7774;1.2619;
115.5000;0.7733;1.2519;
115.8000;0.7717;1.2544;
116.1000;0.7692;1.2443;
116.4000;0.7782;1.2720;
116.7000;0.7733;1.2569;
117.0000;0.7717;1.2494;
117.3000;0.7717;1.2418;
117.6000;0.7725;1.2443;
117.9000;0.7709;1.2468;
118.2000;0.7733;1.2645;
118.5000;0.7692;1.2569;
118.8000;0.7700;1.2544;
119.1000;0.7806;1.2821;
119.4000;0.7725;1.2569;
119.7000;0.7717;1.2544;
120.0000;0.7709;1.2594;
120.3000;0.7717;1.2594;
120.6000;0.7709;1.2519;
120.9000;0.7725;1.2468;
121.2000;0.7741;1.2494;
121.5000;0.7725;1.2544;
121.8000;0.7717;1.2594;
122.1000;0.7733;1.2619;
122.4000;0.7700;1.2519;
122.7000;0.7692;1.2494;
123.0000;0.7733;1.2619;
123.3000;0.7700;1.2468;
123.6000;0.7725;1.2519;
123.9000;0.7700;1.2468;
124.2000;0.7774;1.2594;
124.5000;0.7749;1.2468;
124.8000;0.7652;1.2267;
125.1000;0.7725;1.2468;
125.4000;0.7725;1.2544;
125.7000;0.7725;1.2645;
126.0000;0.7717;1.2544;
126.3000;0.7709;1.2544;
126.6000;0.7717;1.2619;
126.9000;0.7741;1.2720;
127.2000;0.7725;1.2670;
127.5000;0.7684;1.2619;
127.8000;0.7692;1.2594;
128.1000;0.7700;1.2569;
128.4000;0.7725;1.2619;
128.7000;0.7774;1.2771;
129.0000;0.7717;1.2645;
129.3000;0.7709;1.2594;
129.6000;0.7733;1.2695;
129.9000;0.7725;1.2670;
130.2000;0.7700;1.2619;
130.5000;0.7717;1.2645;
130.8000;0.7717;1.2695;
131.1000;0.7700;1.2670;
131.4000;0.7717;1.2670;
131.7000;0.7717;1.2695;
132.0000;0.7709;1.2645;
132.3000;0.7717;1.2645;
132.6000;0.7692;1.2645;
132.9000;0.7709;1.2670;
133.2000;0.7668;1.2544;
133.5000;0.7692;1.2619;
133.8000;0.7749;1.2720;
134.1000;0.7660;1.2544;
134.4000;0.7717;1.2720;
134.7000;0.7700;1.2720;
135.0000;0.7676;1.2645;
135.3000;0.7725;1.2670;
135.6000;0.7725;1.2619;
135.9000;0.7660;1.2494;
136.2000;0.7725;1.2619;
136.5000;0.7717;1.2670;
136.8000;0.7717;1.2645;
137.1000;0.7741;1.2670;
137.4000;0.7700;1.2569;
137.7000;0.7717;1.2645;
138.0000;0.7709;1.2594;
138.3000;0.7717;1.2594;
138.6000;0.7709;1.2494;
138.9000;0.7611;1.2317;
139.2000;0.7709;1.2594;
139.5000;0.7684;1.2645;
139.8000;0.7717;1.2695;
140.1000;0.7603;1.2443;
140.4000;0.7709;1.2695;
140.7000;0.7709;1.2720;
141.0000;0.7709;1.2695;
141.3000;0.7692;1.2645;
141.6000;0.7684;1.2544;
141.9000;0.7700;1.2619;
142.2000;0.7749;1.2771;
142.5000;0.7717;1.2720;
142.8000;0.7700;1.2670;
143.1000;0.7709;1.2695;
143.4000;0.7717;1.2670;
143.7000;0.7709;1.2544;
144.0000;0.7709;1.2619;
144.3000;0.7717;1.2645;
144.6000;0.7709;1.2645;
144.9000;0.7709;1.2619;
145.2000;0.7725;1.2594;
145.5000;0.7692;1.2544;
145.8000;0.7717;1.2544;
146.1000;0.7725;1.2594;
146.4000;0.7717;1.2594;
146.7000;0.7684;1.2569;
147.0000;0.7700;1.2569;
147.3000;0.7741;1.2569;
147.6000;0.7717;1.2544;
147.9000;0.7692;1.2645;
148.2000;0.7676;1.2594;
148.5000;0.7692;1.2645;
148.8000;0.7700;1.2619;
149.1000;0.7717;1.2594;
149.4000;0.7717;1.2494;
149.7000;0.7717;1.2468;
150.0000;0.7709;1.2443;
150.3000;0.7709;1.2468;
150.6000;0.7700;1.2468;
150.9000;0.7717;1.2569;
151.2000;0.7684;1.2418;
151.5000;0.7709;1.2418;
151.8000;0.7684;1.2368;
152.1000;0.7709;1.2519;
152.4000;0.7733;1.2569;
152.7000;0.7782;1.2645;
153.0000;0.7709;1.2544;
153.3000;0.7733;1.2645;
153.6000;0.7717;1.2569;
153.9000;0.7717;1.2569;
154.2000;0.7709;1.2594;
154.5000;0.7725;1.2619;
154.8000;0.7643;1.2418;
155.1000;0.7717;1.2771;
155.4000;0.7709;1.2745;
155.7000;0.7643;1.2569;
156.0000;0.7717;1.2670;
156.3000;0.7709;1.2745;
156.6000;0.7774;1.2846;
156.9000;0.7725;1.2720;
157.2000;0.7709;1.2670;
157.5000;0.7733;1.2720;
157.8000;0.7709;1.2619;
158.1000;0.7709;1.2619;
158.4000;0.7692;1.2619;
158.7000;0.7709;1.2670;
159.0000;0.7725;1.2619;
159.3000;0.7717;1.2569;
159.6000;0.7700;1.2544;
159.9000;0.7700;1.2544;
160.2000;0.7741;1.2670;
160.5000;0.7717;1.2720;
160.8000;0.7709;1.2645;
161.1000;0.7717;1.2619;
161.4000;0.7709;1.2720;
161.7000;0.7709;1.2720;
162.0000;0.7717;1.2720;
162.3000;0.7692;1.2695;
162.6000;0.7700;1.2695;
162.9000;0.7676;1.2695;
163.2000;0.7709;1.2720;
163.5000;0.7692;1.2645;
163.8000;0.7709;1.2670;
164.1000;0.7668;1.2594;
164.4000;0.7684;1.2619;
164.7000;0.7700;1.2645;
165.0000;0.7700;1.2645;
165.3000;0.7717;1.2695;
165.6000;0.7668;1.2594;
165.9000;0.7717;1.2594;
166.2000;0.7709;1.2544;
166.5000;0.7684;1.2544;
166.8000;0.7717;1.2569;
167.1000;0.7700;1.2494;
167.4000;0.7709;1.2494;
167.7000;0.7725;1.2594;
168.0000;0.7660;1.2393;
168.3000;0.7709;1.2619;
168.6000;0.7700;1.2494;
168.9000;0.7700;1.2494;
169.2000;0.7684;1.2519;
169.5000;0.7684;1.2494;
169.8000;0.7709;1.2468;
170.1000;0.7709;1.2494;
170.4000;0.7717;1.2443;
170.7000;0.7749;1.2569;
171.0000;0.7717;1.2468;
171.3000;0.7717;1.2494;
171.6000;0.7749;1.2594;
171.9000;0.7725;1.2468;
172.2000;0.7717;1.2393;
172.5000;0.7733;1.2519;
172.8000;0.7700;1.2418;
173.1000;0.7709;1.2468;
173.4000;0.7717;1.2544;
173.7000;0.7668;1.2393;
174.0000;0.7700;1.2519;
174.3000;0.7700;1.2569;
174.6000;0.7717;1.2619;
174.9000;0.7684;1.2569;
175.2000;0.7700;1.2645;
175.5000;0.7733;1.2720;
175.8000;0.7692;1.2544;
176.1000;0.7709;1.2594;
176.4000;0.7709;1.2670;
176.7000;0.7709;1.2645;
177.0000;0.7692;1.2569;
177.3000;0.7709;1.2594;
177.6000;0.7700;1.2544;
177.9000;0.7709;1.2569;
178.2000;0.7725;1.2619;
178.5000;0.7709;1.2645;
178.8000;0.7700;1.2670;
179.1000;0.7717;1.2645;
179.4000;0.7709;1.2619;
179.7000;0.7741;1.2645;
180.0000;0.7692;1.2443;
180.3000;0.7700;1.2468;
180.6000;0.7717;1.2468;
180.9000;0.7700;1.2393;
181.2000;0.7709;1.2443;
181.5000;0.7709;1.2519;
181.8000;0.7700;1.2519;
182.1000;0.7725;1.2544;
182.4000;0.7700;1.2443;
182.7000;0.7717;1.2418;
183.0000;0.7709;1.2342;
183.3000;0.7692;1.2342;
183.6000;0.7700;1.2368;
183.9000;0.7700;1.2468;
184.2000;0.7700;1.2443;
184.5000;0.7692;1.2443;
184.8000;0.7700;1.2418;
185.1000;0.7700;1.2368;
185.4000;0.7692;1.2342;
185.7000;0.7700;1.2368;
186.0000;0.7684;1.2267;
186.3000;0.7684;1.2342;
186.6000;0.7709;1.2443;
186.9000;0.7700;1.2468;
187.2000;0.7684;1.2468;
187.5000;0.7692;1.2494;
187.8000;0.7692;1.2519;
188.1000;0.7700;1.2594;
188.4000;0.7700;1.2494;
188.7000;0.7725;1.2544;
189.0000;0.7700;1.2569;
189.3000;0.7692;1.2569;
189.6000;0.7709;1.2544;
189.9000;0.7709;1.2468;
190.2000;0.7709;1.2468;
190.5000;0.7725;1.2544;
190.8000;0.7700;1.2468;
191.1000;0.7684;1.2468;
191.4000;0.7717;1.2443;
191.7000;0.7709;1.2443;
192.0000;0.7741;1.2519;
192.3000;0.7709;1.2468;
192.6000;0.7709;1.2494;
192.9000;0.7709;1.2569;
193.2000;0.7700;1.2494;
193.5000;0.7717;1.2594;
193.8000;0.7700;1.2569;
194.1000;0.7700;1.2519;
194.4000;0.7709;1.2519;
194.7000;0.7733;1.2519;
195.0000;0.7709;1.2468;
195.3000;0.7709;1.2443;
195.6000;0.7660;1.2393;
195.9000;0.7692;1.2544;
196.2000;0.7692;1.2468;
196.5000;0.7717;1.2519;
196.8000;0.7725;1.2494;
197.1000;0.7709;1.2443;
197.4000;0.7709;1.2468;
197.7000;0.7798;1.2720;
198.0000;0.7692;1.2494;
198.3000;0.7692;1.2569;
198.6000;0.7717;1.2569;
198.9000;0.7717;1.2519;
199.2000;0.7717;1.2494;
199.5000;0.7700;1.2443;
199.8000;0.7700;1.2418;
200.1000;0.7709;1.2342;
200.4000;0.7717;1.2393;
200.7000;0.7709;1.2443;
201.0000;0.7717;1.2443;
201.3000;0.7700;1.2393;
201.6000;0.7700;1.2443;
201.9000;0.7692;1.2368;
202.2000;0.7700;1.2342;
202.5000;0.7709;1.2393;
202.8000;0.7749;1.2443;
203.1000;0.7692;1.2242;
203.4000;0.7709;1.2292;
203.7000;0.7692;1.2342;
204.0000;0.7692;1.2393;
204.3000;0.7700;1.2368;
204.6000;0.7692;1.2418;
204.9000;0.7684;1.2443;
205.2000;0.7700;1.2393;
205.5000;0.7684;1.2267;
205.8000;0.7757;1.2393;
206.1000;0.7700;1.2242;
206.4000;0.7717;1.2267;
206.7000;0.7595;1.1965;
207.0000;0.7725;1.2242;
207.3000;0.7709;1.2242;
207.6000;0.7700;1.2292;
207.9000;0.7709;1.2342;
208.2000;0.7684;1.2393;
208.5000;0.7660;1.2368;
208.8000;0.7700;1.2494;
209.1000;0.7709;1.2443;
209.4000;0.7709;1.2519;
209.7000;0.7717;1.2569;
210.0000;0.7692;1.2569;
210.3000;0.7684;1.2519;
210.6000;0.7692;1.2519;
210.9000;0.7643;1.2393;
211.2000;0.7684;1.2443;
211.5000;0.7700;1.2544;
211.8000;0.7700;1.2569;
212.1000;0.7684;1.2619;
212.4000;0.7709;1.2619;
212.7000;0.7709;1.2645;
213.0000;0.7717;1.2594;
213.3000;0.7717;1.2544;
213.6000;0.7717;1.2645;
213.9000;0.7709;1.2569;
214.2000;0.7700;1.2519;
214.5000;0.7692;1.2393;
214.8000;0.7692;1.2418;
215.1000;0.7709;1.2418;
215.4000;0.7676;1.2393;
215.7000;0.7676;1.2418;
216.0000;0.7700;1.2494;
216.3000;0.7700;1.2494;
216.6000;0.7700;1.2544;
216.9000;0.7700;1.2468;
217.2000;0.7692;1.2393;
217.5000;0.7709;1.2443;
217.8000;0.7700;1.2468;
218.1000;0.7692;1.2443;
218.4000;0.7692;1.2393;
218.7000;0.7766;1.2569;
219.0000;0.7692;1.2443;
219.3000;0.7692;1.2443;
219.6000;0.7709;1.2393;
219.9000;0.7700;1.2368;
220.2000;0.7709;1.2317;
220.5000;0.7700;1.2368;
220.8000;0.7692;1.2443;
221.1000;0.7700;1.2468;
221.4000;0.7709;1.2544;
221.7000;0.7692;1.2519;
222.0000;0.7692;1.2544;
222.3000;0.7692;1.2619;
222.6000;0.7676;1.2645;
222.9000;0.7692;1.2695;
223.2000;0.7725;1.2745;
223.5000;0.7700;1.2645;
223.8000;0.7709;1.2695;
224.1000;0.7700;1.2670;
224.4000;0.7692;1.2670;
224.7000;0.7684;1.2619;
225.0000;0.7700;1.2670;
225.3000;0.7692;1.2670;
225.6000;0.7700;1.2594;
225.9000;0.7692;1.2619;
226.2000;0.7774;1.2871;
226.5000;0.7717;1.2871;
226.8000;0.7684;1.2846;
227.1000;0.7684;1.2821;
227.4000;0.7692;1.2871;
227.7000;0.7692;1.2796;
228.0000;0.7700;1.2645;
228.3000;0.7700;1.2569;
228.6000;0.7692;1.2544;
228.9000;0.7692;1.2594;
229.2000;0.7733;1.2771;
229.5000;0.7676;1.2670;
229.8000;0.7717;1.2821;
230.1000;0.7692;1.2745;
230.4000;0.7700;1.2619;
230.7000;0.7692;1.2619;
231.0000;0.7717;1.2695;
231.3000;0.7733;1.2720;
231.6000;0.7717;1.2645;
231.9000;0.7725;1.2720;
232.2000;0.7692;1.2645;
232.5000;0.7717;1.2720;
232.8000;0.7709;1.2771;
233.1000;0.7725;1.2846;
233.4000;0.7692;1.2771;
233.7000;0.7709;1.2771;
234.0000;0.7700;1.2796;
234.3000;0.7684;1.2771;
234.6000;0.7692;1.2771;
234.9000;0.7700;1.2720;
235.2000;0.7700;1.2670;
235.5000;0.7700;1.2619;
235.8000;0.7684;1.2519;
236.1000;0.7643;1.2468;
236.4000;0.7692;1.2569;
236.7000;0.7700;1.2645;
237.0000;0.7700;1.2619;
237.3000;0.7676;1.2619;
237.6000;0.7692;1.2619;
237.9000;0.7717;1.2619;
238.2000;0.7692;1.2494;
238.5000;0.7700;1.2569;
238.8000;0.7725;1.2594;
239.1000;0.7652;1.2368;
239.4000;0.7709;1.2594;
239.7000;0.7709;1.2619;
240.0000;0.7692;1.2519;
240.3000;0.7635;1.2418;
240.6000;0.7692;1.2594;
240.9000;0.7684;1.2468;
241.2000;0.7692;1.2494;
241.5000;0.7692;1.2494;
241.8000;0.7709;1.2494;
242.1000;0.7782;1.2645;
242.4000;0.7676;1.2393;
242.7000;0.7692;1.2342;
243.0000;0.7700;1.2368;
243.3000;0.7717;1.2443;
243.6000;0.7692;1.2443;
243.9000;0.7692;1.2468;
244.2000;0.7700;1.2393;
244.5000;0.7709;1.2292;
244.8000;0.7692;1.2267;
245.1000;0.7692;1.2342;
245.4000;0.7709;1.2368;
245.7000;0.7709;1.2443;
246.0000;0.7692;1.2443;
246.3000;0.7668;1.2443;
246.6000;0.7692;1.2569;
246.9000;0.7700;1.2594;
247.2000;0.7619;1.2368;
247.5000;0.7692;1.2594;
247.8000;0.7652;1.2393;
248.1000;0.7692;1.2494;
248.4000;0.7790;1.2720;
248.7000;0.7741;1.2619;
249.0000;0.7790;1.2645;
249.3000;0.7700;1.2393;
249.6000;0.7725;1.2594;
249.9000;0.7717;1.2519;
250.2000;0.7717;1.2544;
250.5000;0.7692;1.2569;
250.8000;0.7717;1.2720;
251.1000;0.7692;1.2745;
251.4000;0.7700;1.2720;
251.7000;0.7692;1.2645;
252.0000;0.7709;1.2619;
252.3000;0.7692;1.2569;
252.6000;0.7692;1.2544;
252.9000;0.7684;1.2569;
253.2000;0.7684;1.2594;
253.5000;0.7676;1.2619;
253.8000;0.7684;1.2720;
254.1000;0.7684;1.2645;
254.4000;0.7725;1.2771;
254.7000;0.7692;1.2619;
255.0000;0.7717;1.2645;
255.3000;0.7676;1.2594;
255.6000;0.7692;1.2569;
255.9000;0.7700;1.2619;
256.2000;0.7733;1.2771;
256.5000;0.7692;1.2594;
256.8000;0.7717;1.2544;
257.1000;0.7692;1.2468;
257.4000;0.7684;1.2443;
257.7000;0.7709;1.2519;
258.0000;0.7660;1.2494;
258.3000;0.7676;1.2519;
258.6000;0.7700;1.2519;
258.9000;0.7692;1.2494;
259.2000;0.7643;1.2468;
259.5000;0.7692;1.2619;
259.8000;0.7692;1.2594;
260.1000;0.7709;1.2569;
260.4000;0.7692;1.2443;
260.7000;0.7692;1.2443;
261.0000;0.7684;1.2418;
261.3000;0.7709;1.2443;
261.6000;0.7700;1.2418;
261.9000;0.7700;1.2418;
262.2000;0.7700;1.2418;
262.5000;0.7700;1.2544;
262.8000;0.7700;1.2569;
263.1000;0.7741;1.2619;
263.4000;0.7717;1.2544;
263.7000;0.7684;1.2468;
264.0000;0.7741;1.2670;
264.3000;0.7684;1.2443;
264.6000;0.7700;1.2468;
264.9000;0.7692;1.2519;
265.2000;0.7709;1.2519;
265.5000;0.7709;1.2468;
265.8000;0.7692;1.2418;
266.1000;0.7684;1.2443;
266.4000;0.7684;1.2317;
266.7000;0.7635;1.2090;
267.0000;0.7709;1.2267;
267.3000;0.7700;1.2317;
267.6000;0.7676;1.2267;
267.9000;0.7700;1.2418;
268.2000;0.7700;1.2443;
268.5000;0.7700;1.2443;
268.8000;0.7709;1.2443;
269.1000;0.7692;1.2519;
269.4000;0.7684;1.2468;
269.7000;0.7700;1.2494;
270.0000;0.7725;1.2544;
270.3000;0.7749;1.2720;
270.6000;0.7652;1.2494;
270.9000;0.7717;1.2594;
271.2000;0.7692;1.2418;
271.5000;0.7668;1.2468;
271.8000;0.7798;1.2796;
272.1000;0.7643;1.2418;
272.4000;0.7709;1.2544;
272.7000;0.7668;1.2418;
273.0000;0.7668;1.2443;
273.3000;0.7684;1.2292;
273.6000;0.7700;1.2393;
273.9000;0.7725;1.2468;
274.2000;0.7692;1.2317;
274.5000;0.7709;1.2393;
274.8000;0.7684;1.2368;
275.1000;0.7692;1.2393;
275.4000;0.7676;1.2368;
275.7000;0.7709;1.2342;
276.0000;0.7684;1.2342;
276.3000;0.7676;1.2443;
276.6000;0.7660;1.2368;
276.9000;0.7668;1.2368;
277.2000;0.7676;1.2393;
277.5000;0.7692;1.2468;
277.8000;0.7692;1.2342;
278.1000;0.7692;1.2317;
278.4000;0.7660;1.2267;
278.7000;0.7684;1.2368;
279.0000;0.7684;1.2443;
279.3000;0.7668;1.2468;
279.6000;0.7766;1.2720;
279.9000;0.7692;1.2443;
280.2000;0.7684;1.2393;
280.5000;0.7668;1.2292;
280.8000;0.7684;1.2393;
281.1000;0.7684;1.2342;
281.4000;0.7643;1.2317;
281.7000;0.7684;1.2468;
282.0000;0.7676;1.2468;
282.3000;0.7660;1.2393;
282.6000;0.7692;1.2519;
282.9000;0.7692;1.2393;
283.2000;0.7725;1.2519;
283.5000;0.7684;1.2468;
283.8000;0.7676;1.2418;
284.1000;0.7684;1.2393;
284.4000;0.7692;1.2519;
284.7000;0.7709;1.2519;
285.0000;0.7692;1.2544;
285.3000;0.7676;1.2494;
285.6000;0.7668;1.2393;
285.9000;0.7684;1.2317;
286.2000;0.7692;1.2368;
286.5000;0.7700;1.2418;
286.8000;0.7709;1.2494;
287.1000;0.7652;1.2443;
287.4000;0.7692;1.2544;
287.7000;0.7684;1.2569;
288.0000;0.7700;1.2544;
288.3000;0.7660;1.2368;
288.6000;0.7668;1.2443;
288.9000;0.7717;1.2494;
289.2000;0.7692;1.2342;
289.5000;0.7700;1.2443;
289.8000;0.7684;1.2443;
290.1000;0.7684;1.2494;
290.4000;0.7684;1.2544;
290.7000;0.7749;1.2720;
291.0000;0.7692;1.2519;
291.3000;0.7725;1.2569;
291.6000;0.7700;1.2494;
291.9000;0.7692;1.2418;
292.2000;0.7692;1.2468;
292.5000;0.7684;1.2468;
292.8000;0.7700;1.2594;
293.1000;0.7684;1.2519;
293.4000;0.7676;1.2468;
293.7000;0.7700;1.2468;
294.0000;0.7692;1.2494;
294.3000;0.7717;1.2594;
294.6000;0.7692;1.2594;
294.9000;0.7692;1.2594;
295.2000;0.7676;1.2594;
295.5000;0.7684;1.2645;
295.8000;0.7684;1.2569;
296.1000;0.7692;1.2670;
296.4000;0.7692;1.2670;
296.7000;0.7684;1.2494;
297.0000;0.7692;1.2443;
297.3000;0.7684;1.2443;
297.6000;0.7700;1.2418;
297.9000;0.7660;1.2393;
298.2000;0.7684;1.2468;
298.5000;0.7700;1.2468;
298.8000;0.7692;1.2393;
299.1000;0.7709;1.2494;
299.4000;0.7692;1.2569;
299.7000;0.7684;1.2544;
300.0000;0.7676;1.2418;
300.3000;0.7668;1.2443;
300.6000;0.7709;1.2418;
300.9000;0.7692;1.2342;
301.2000;0.7700;1.2468;
301.5000;0.7700;1.2418;
301.8000;0.7692;1.2418;
302.1000;0.7692;1.2393;
302.4000;0.7684;1.2418;
302.7000;0.7692;1.2443;
303.0000;0.7684;1.2443;
303.3000;0.7709;1.2443;
303.6000;0.7700;1.2494;
303.9000;0.7684;1.2468;
304.2000;0.7684;1.2468;
304.5000;0.7684;1.2519;
304.8000;0.7668;1.2468;
305.1000;0.7684;1.2418;
305.4000;0.7700;1.2393;
305.7000;0.7692;1.2468;
306.0000;0.7692;1.2468;
306.3000;0.7668;1.2393;
306.6000;0.7668;1.2393;
306.9000;0.7676;1.2368;
307.2000;0.7692;1.2418;
307.5000;0.7668;1.2368;
307.8000;0.7627;1.2267;
308.1000;0.7692;1.2519;
308.4000;0.7692;1.2519;
308.7000;0.7749;1.2569;
309.0000;0.7676;1.2443;
309.3000;0.7692;1.2468;
309.6000;0.7684;1.2443;
309.9000;0.7684;1.2443;
310.2000;0.7660;1.2393;
310.5000;0.7700;1.2569;
310.8000;0.7635;1.2393;
311.1000;0.7676;1.2494;
311.4000;0.7676;1.2443;
311.7000;0.7692;1.2468;
312.0000;0.7668;1.2342;
312.3000;0.7692;1.2342;
312.6000;0.7692;1.2368;
312.9000;0.7692;1.2494;
313.2000;0.7684;1.2544;
313.5000;0.7652;1.2393;
313.8000;0.7676;1.2519;
314.1000;0.7692;1.2569;
314.4000;0.7684;1.2569;
314.7000;0.7692;1.2519;
315.0000;0.7676;1.2519;
315.3000;0.7684;1.2494;
315.6000;0.7676;1.2468;
315.9000;0.7676;1.2494;
316.2000;0.7652;1.2468;
316.5000;0.7684;1.2569;
316.8000;0.7684;1.2494;
317.1000;0.7676;1.2494;
317.4000;0.7700;1.2544;
317.7000;0.7676;1.2494;
318.0000;0.7692;1.2519;
318.3000;0.7692;1.2393;
318.6000;0.7676;1.2317;
318.9000;0.7725;1.2443;
319.2000;0.7676;1.2292;
319.5000;0.7700;1.2292;
319.8000;0.7684;1.2393;
320.1000;0.7741;1.2619;
320.4000;0.7684;1.2418;
320.7000;0.7684;1.2368;
321.0000;0.7692;1.2393;
321.3000;0.7692;1.2393;
321.6000;0.7684;1.2393;
321.9000;0.7700;1.2443;
322.2000;0.7700;1.2368;
322.5000;0.7684;1.2393;
322.8000;0.7684;1.2443;
323.1000;0.7766;1.2695;
323.4000;0.7684;1.2494;
323.7000;0.7692;1.2569;
324.0000;0.7652;1.2468;
324.3000;0.7676;1.2494;
324.6000;0.7676;1.2443;
324.9000;0.7684;1.2342;
325.2000;0.7684;1.2342;
325.5000;0.7684;1.2393;
325.8000;0.7692;1.2418;
326.1000;0.7676;1.2544;
326.4000;0.7643;1.2544;
326.7000;0.7668;1.2468;
327.0000;0.7684;1.2519;
327.3000;0.7684;1.2468;
327.6000;0.7692;1.2443;
327.9000;0.7692;1.2443;
328.2000;0.7692;1.2468;
328.5000;0.7692;1.2418;
328.8000;0.7684;1.2393;
329.1000;0.7652;1.2292;
329.4000;0.7700;1.2468;
329.7000;0.7692;1.2393;
330.0000;0.7676;1.2393;
330.3000;0.7676;1.2368;
330.6000;0.7684;1.2443;
330.9000;0.7684;1.2393;
331.2000;0.7692;1.2368;
331.5000;0.7692;1.2292;
331.8000;0.7700;1.2317;
332.1000;0.7684;1.2267;
332.4000;0.7692;1.2267;
332.7000;0.7692;1.2393;
333.0000;0.7749;1.2594;
333.3000;0.7692;1.2342;
333.6000;0.7700;1.2368;
333.9000;0.7709;1.2342;
334.2000;0.7725;1.2317;
334.5000;0.7692;1.2267;
334.8000;0.7692;1.2342;
335.1000;0.7668;1.2292;
335.4000;0.7676;1.2418;
335.7000;0.7676;1.2468;
336.0000;0.7700;1.2418;
336.3000;0.7676;1.2317;
336.6000;0.7676;1.2267;
336.9000;0.7668;1.2292;
337.2000;0.7692;1.2418;
337.5000;0.7676;1.2317;
337.8000;0.7619;1.2090;
338.1000;0.7660;1.2191;
338.4000;0.7684;1.2393;
338.7000;0.7684;1.2494;
339.0000;0.7684;1.2494;
339.3000;0.7668;1.2393;
339.6000;0.7684;1.2443;
339.9000;0.7757;1.2569;
340.2000;0.7684;1.2393;
340.5000;0.7668;1.2393;
340.8000;0.7692;1.2519;
341.1000;0.7684;1.2468;
341.4000;0.7676;1.2393;
341.7000;0.7692;1.2368;
342.0000;0.7757;1.2619;
342.3000;0.7700;1.2519;
342.6000;0.7684;1.2443;
342.9000;0.7676;1.2267;
343.2000;0.7684;1.2242;
343.5000;0.7684;1.2368;
343.8000;0.7700;1.2418;
344.1000;0.7676;1.2393;
344.4000;0.7676;1.2468;
344.7000;0.7684;1.2519;
345.0000;0.7652;1.2544;
345.3000;0.7660;1.2645;
345.6000;0.7676;1.2519;
345.9000;0.7652;1.2418;
346.2000;0.7700;1.2544;
346.5000;0.7652;1.2418;
346.8000;0.7684;1.2393;
347.1000;0.7725;1.2393;
347.4000;0.7676;1.2242;
347.7000;0.7676;1.2216;
348.0000;0.7652;1.2191;
348.3000;0.7676;1.2242;
348.6000;0.7766;1.2468;
348.9000;0.7635;1.2191;
349.2000;0.7725;1.2393;
349.5000;0.7684;1.2242;
349.8000;0.7700;1.2418;
350.1000;0.7692;1.2418;
350.4000;0.7668;1.2393;
350.7000;0.7660;1.2368;
351.0000;0.7668;1.2342;
351.3000;0.7684;1.2242;
351.6000;0.7741;1.2342;
351.9000;0.7668;1.2216;
352.2000;0.7660;1.2191;
352.5000;0.7692;1.2267;
352.8000;0.7652;1.2191;
353.1000;0.7700;1.2418;
353.4000;0.7692;1.2443;
353.7000;0.7668;1.2342;
354.0000;0.7709;1.2393;
354.3000;0.7668;1.2368;
354.6000;0.7676;1.2342;
354.9000;0.7652;1.2267;
355.2000;0.7676;1.2368;
355.5000;0.7652;1.2368;
355.8000;0.7668;1.2368;
356.1000;0.7660;1.2317;
356.4000;0.7660;1.2292;
356.7000;0.7652;1.2242;
357.0000;0.7652;1.2242;
357.3000;0.7676;1.2342;
357.6000;0.7692;1.2393;
357.9000;0.7717;1.2519;
358.2000;0.7676;1.2418;
358.5000;0.7668;1.2368;
358.8000;0.7668;1.2443;
359.1000;0.7684;1.2494;
359.4000;0.7692;1.2544;
359.7000;0.7692;1.2569;
360.0000;0.7684;1.2594;
360.3000;0.7684;1.2670;
360.6000;0.7684;1.2619;
360.9000;0.7676;1.2519;
361.2000;0.7660;1.2443;
361.5000;0.7684;1.2494;
361.8000;0.7660;1.2418;
362.1000;0.7668;1.2443;
362.4000;0.7660;1.2443;
362.7000;0.7586;1.2242;
363.0000;0.7684;1.2519;
363.3000;0.7717;1.2670;
363.6000;0.7749;1.2745;
363.9000;0.7652;1.2544;
364.2000;0.7692;1.2720;
364.5000;0.7684;1.2670;
364.8000;0.7700;1.2645;
365.1000;0.7684;1.2544;
365.4000;0.7684;1.2519;
365.7000;0.7692;1.2569;
366.0000;0.7660;1.2494;
366.3000;0.7660;1.2393;
366.6000;0.7660;1.2292;
366.9000;0.7676;1.2418;
367.2000;0.7684;1.2519;
367.5000;0.7652;1.2443;
367.8000;0.7684;1.2619;
368.1000;0.7692;1.2695;
368.4000;0.7692;1.2645;
368.7000;0.7684;1.2619;
369.0000;0.7684;1.2569;
369.3000;0.7668;1.2594;
369.6000;0.7660;1.2569;
369.9000;0.7684;1.2544;
370.2000;0.7684;1.2594;
370.5000;0.7684;1.2645;
370.8000;0.7692;1.2645;
371.1000;0.7709;1.2670;
371.4000;0.7668;1.2619;
371.7000;0.7692;1.2670;
372.0000;0.7660;1.2645;
372.3000;0.7660;1.2670;
372.6000;0.7676;1.2670;
372.9000;0.7684;1.2695;
373.2000;0.7660;1.2619;
373.5000;0.7611;1.2594;
373.8000;0.7668;1.2796;
374.1000;0.7684;1.2645;
374.4000;0.7684;1.2569;
374.7000;0.7660;1.2544;
375.0000;0.7692;1.2594;
375.3000;0.7676;1.2619;
375.6000;0.7676;1.2519;
375.9000;0.7660;1.2519;
376.2000;0.7627;1.2494;
376.5000;0.7660;1.2619;
376.8000;0.7692;1.2670;
377.1000;0.7668;1.2594;
377.4000;0.7676;1.2544;
377.7000;0.7635;1.2468;
378.0000;0.7668;1.2519;
378.3000;0.7700;1.2519;
378.6000;0.7684;1.2519;
378.9000;0.7652;1.2468;
379.2000;0.7676;1.2594;
379.5000;0.7684;1.2569;
379.8000;0.7668;1.2494;
380.1000;0.7676;1.2443;
380.4000;0.7725;1.2695;
380.7000;0.7611;1.2368;
381.0000;0.7684;1.2569;
381.3000;0.7684;1.2670;
381.6000;0.7684;1.2670;
381.9000;0.7700;1.2695;
382.2000;0.7668;1.2594;
382.5000;0.7676;1.2695;
382.8000;0.7660;1.2695;
383.1000;0.7676;1.2695;
383.4000;0.7660;1.2670;
383.7000;0.7627;1.2670;
384.0000;0.7676;1.2771;
384.3000;0.7676;1.2796;
384.6000;0.7627;1.2645;
384.9000;0.7717;1.2897;
385.2000;0.7643;1.2695;
385.5000;0.7676;1.2695;
385.8000;0.7652;1.2619;
386.1000;0.7684;1.2670;
386.4000;0.7643;1.2594;
386.7000;0.7700;1.2695;
387.0000;0.7700;1.2594;
387.3000;0.7603;1.2342;
387.6000;0.7700;1.2569;
387.9000;0.7700;1.2645;
388.2000;0.7676;1.2594;
388.5000;0.7692;1.2594;
388.8000;0.7603;1.2393;
389.1000;0.7635;1.2519;
389.4000;0.7668;1.2569;
389.7000;0.7668;1.2569;
390.0000;0.7660;1.2544;
390.3000;0.7676;1.2569;
390.6000;0.7668;1.2519;
390.9000;0.7668;1.2569;
391.2000;0.7684;1.2594;
391.5000;0.7668;1.2569;
391.8000;0.7652;1.2544;
392.1000;0.7660;1.2594;
392.4000;0.7676;1.2645;
392.7000;0.7660;1.2645;
393.0000;0.7643;1.2645;
393.3000;0.7668;1.2720;
393.6000;0.7643;1.2695;
393.9000;0.7660;1.2796;
394.2000;0.7660;1.2695;
394.5000;0.7668;1.2771;
394.8000;0.7652;1.2720;
395.1000;0.7668;1.2695;
395.4000;0.7660;1.2594;
395.7000;0.7684;1.2569;
396.0000;0.7660;1.2494;
396.3000;0.7660;1.2443;
396.6000;0.7643;1.2519;
396.9000;0.7668;1.2569;
397.2000;0.7676;1.2594;
397.5000;0.7660;1.2619;
397.8000;0.7676;1.2619;
398.1000;0.7619;1.2443;
398.4000;0.7652;1.2443;
398.7000;0.7676;1.2494;
399.0000;0.7692;1.2494;
399.3000;0.7668;1.2519;
399.6000;0.7692;1.2594;
399.9000;0.7668;1.2519;
400.2000;0.7660;1.2418;
400.5000;0.7684;1.2468;
400.8000;0.7668;1.2494;
401.1000;0.7684;1.2468;
401.4000;0.7643;1.2368;
401.7000;0.7692;1.2494;
402.0000;0.7676;1.2368;
402.3000;0.7660;1.2292;
402.6000;0.7692;1.2418;
402.9000;0.7668;1.2393;
403.2000;0.7603;1.2191;
403.5000;0.7692;1.2468;
403.8000;0.7652;1.2443;
404.1000;0.7660;1.2418;
404.4000;0.7611;1.2242;
404.7000;0.7652;1.2267;
405.0000;0.7668;1.2393;
405.3000;0.7676;1.2368;
405.6000;0.7676;1.2342;
405.9000;0.7668;1.2418;
406.2000;0.7684;1.2443;
406.5000;0.7676;1.2443;
406.8000;0.7676;1.2544;
407.1000;0.7660;1.2544;
407.4000;0.7652;1.2468;
407.7000;0.7676;1.2443;
408.0000;0.7660;1.2342;
408.3000;0.7660;1.2393;
408.6000;0.7709;1.2544;
408.9000;0.7725;1.2619;
409.2000;0.7684;1.2569;
409.5000;0.7676;1.2468;
409.8000;0.7660;1.2342;
410.1000;0.7692;1.2393;
410.4000;0.7668;1.2317;
410.7000;0.7660;1.2191;
411.0000;0.7668;1.2166;
411.3000;0.7676;1.2216;
411.6000;0.7684;1.2267;
411.9000;0.7676;1.2141;
412.2000;0.7660;1.2191;
412.5000;0.7668;1.2267;
412.8000;0.7668;1.2292;
413.1000;0.7668;1.2267;
413.4000;0.7652;1.2342;
413.7000;0.7652;1.2267;
414.0000;0.7676;1.2368;
414.3000;0.7668;1.2468;
414.6000;0.7668;1.2443;
414.9000;0.7668;1.2368;
415.2000;0.7660;1.2393;
415.5000;0.7668;1.2393;
415.8000;0.7676;1.2292;
416.1000;0.7668;1.2292;
416.4000;0.7668;1.2267;
416.7000;0.7668;1.2317;
417.0000;0.7676;1.2317;
417.3000;0.7643;1.2317;
417.6000;0.7676;1.2393;
417.9000;0.7668;1.2317;
418.2000;0.7652;1.2166;
418.5000;0.7660;1.2216;
418.8000;0.7643;1.2267;
419.1000;0.7676;1.2393;
419.4000;0.7709;1.2544;
419.7000;0.7652;1.2393;
420.0000;0.7676;1.2443;
420.3000;0.7660;1.2443;
420.6000;0.7660;1.2418;
420.9000;0.7652;1.2443;
421.2000;0.7676;1.2645;
421.5000;0.7676;1.2594;
421.8000;0.7668;1.2519;
422.1000;0.7652;1.2494;
422.4000;0.7635;1.2418;
422.7000;0.7676;1.2519;
423.0000;0.7660;1.2519;
423.3000;0.7635;1.2393;
423.6000;0.7652;1.2317;
423.9000;0.7652;1.2292;
424.2000;0.7668;1.2342;
424.5000;0.7660;1.2317;
424.8000;0.7668;1.2443;
425.1000;0.7676;1.2544;
425.4000;0.7676;1.2418;
425.7000;0.7684;1.2494;
426.0000;0.7668;1.2544;
426.3000;0.7676;1.2468;
426.6000;0.7676;1.2494;
426.9000;0.7676;1.2494;
427.2000;0.7635;1.2393;
427.5000;0.7652;1.2267;
427.8000;0.7635;1.2166;
428.1000;0.7668;1.2242;
428.4000;0.7660;1.2242;
428.7000;0.7725;1.2393;
429.0000;0.7660;1.2242;
429.3000;0.7643;1.2267;
429.6000;0.7660;1.2267;
429.9000;0.7643;1.2292;
430.2000;0.7668;1.2468;
430.5000;0.7668;1.2368;
430.8000;0.7668;1.2191;
431.1000;0.7676;1.2116;
431.4000;0.7684;1.2191;
431.7000;0.7684;1.2191;
432.0000;0.7676;1.2216;
432.3000;0.7660;1.2216;
432.6000;0.7668;1.2191;
432.9000;0.7676;1.2116;
433.2000;0.7652;1.2191;
433.5000;0.7643;1.2216;
433.8000;0.7660;1.2317;
434.1000;0.7660;1.2368;
434.4000;0.7676;1.2443;
434.7000;0.7652;1.2368;
435.0000;0.7660;1.2418;
435.3000;0.7676;1.2393;
435.6000;0.7668;1.2317;
435.9000;0.7733;1.2443;
436.2000;0.7684;1.2242;
436.5000;0.7684;1.2242;
436.8000;0.7676;1.2267;
437.1000;0.7660;1.2267;
437.4000;0.7635;1.2342;
437.7000;0.7652;1.2342;
438.0000;0.7676;1.2368;
438.3000;0.7668;1.2368;
438.6000;0.7643;1.2342;
438.9000;0.7676;1.2368;
439.2000;0.7676;1.2393;
439.5000;0.7684;1.2393;
439.8000;0.7660;1.2342;
440.1000;0.7660;1.2368;
440.4000;0.7652;1.2468;
440.7000;0.7676;1.2393;
441.0000;0.7684;1.2393;
441.3000;0.7676;1.2418;
441.6000;0.7700;1.2519;
441.9000;0.7668;1.2342;
442.2000;0.7668;1.2292;
442.5000;0.7692;1.2393;
442.8000;0.7660;1.2393;
443.1000;0.7660;1.2418;
443.4000;0.7660;1.2393;
443.7000;0.7660;1.2418;
444.0000;0.7652;1.2393;
444.3000;0.7676;1.2342;
444.6000;0.7668;1.2368;
444.9000;0.7643;1.2393;
445.2000;0.7652;1.2519;
445.5000;0.7660;1.2645;
445.8000;0.7668;1.2594;
446.1000;0.7660;1.2569;
446.4000;0.7643;1.2494;
446.7000;0.7676;1.2544;
447.0000;0.7643;1.2519;
447.3000;0.7676;1.2619;
447.6000;0.7652;1.2544;
447.9000;0.7660;1.2569;
448.2000;0.7660;1.2544;
448.5000;0.7668;1.2494;
448.8000;0.7668;1.2468;
449.1000;0.7676;1.2494;
449.4000;0.7668;1.2468;
449.7000;0.7684;1.2468;
450.0000;0.7676;1.2368;
450.3000;0.7668;1.2418;
450.6000;0.7660;1.2443;
450.9000;0.7660;1.2468;
451.2000;0.7668;1.2519;
451.5000;0.7660;1.2494;
451.8000;0.7668;1.2468;
452.1000;0.7660;1.2418;
452.4000;0.7652;1.2368;
452.7000;0.7643;1.2368;
453.0000;0.7643;1.2368;
453.3000;0.7660;1.2494;
453.6000;0.7700;1.2569;
453.9000;0.7717;1.2619;
454.2000;0.7668;1.2468;
454.5000;0.7652;1.2494;
454.8000;0.7660;1.2494;
455.1000;0.7700;1.2544;
455.4000;0.7660;1.2468;
455.7000;0.7603;1.2267;
456.0000;0.7684;1.2443;
456.3000;0.7660;1.2418;
456.6000;0.7627;1.2393;
456.9000;0.7635;1.2468;
457.2000;0.7684;1.2544;
457.5000;0.7652;1.2443;
457.8000;0.7652;1.2494;
458.1000;0.7635;1.2494;
458.4000;0.7676;1.2569;
458.7000;0.7660;1.2594;
459.0000;0.7643;1.2544;
459.3000;0.7660;1.2569;
459.6000;0.7668;1.2619;
459.9000;0.7676;1.2670;
460.2000;0.7660;1.2670;
460.5000;0.7668;1.2720;
460.8000;0.7554;1.2443;
461.1000;0.7660;1.2619;
461.4000;0.7652;1.2670;
461.7000;0.7668;1.2645;
462.0000;0.7700;1.2619;
462.3000;0.7668;1.2494;
462.6000;0.7652;1.2468;
462.9000;0.7652;1.2519;
463.2000;0.7668;1.2619;
463.5000;0.7684;1.2720;
463.8000;0.7660;1.2720;
464.1000;0.7643;1.2619;
464.4000;0.7660;1.2619;
464.7000;0.7668;1.2544;
465.0000;0.7684;1.2670;
465.3000;0.7676;1.2619;
465.6000;0.7627;1.2569;
465.9000;0.7643;1.2619;
466.2000;0.7595;1.2468;
466.5000;0.7611;1.2494;
466.8000;0.7660;1.2569;
467.1000;0.7660;1.2544;
467.4000;0.7652;1.2569;
467.7000;0.7660;1.2619;
468.0000;0.7676;1.2670;
468.3000;0.7627;1.2670;
468.6000;0.7676;1.2720;
468.9000;0.7668;1.2745;
469.2000;0.7668;1.2670;
469.5000;0.7660;1.2594;
469.8000;0.7611;1.2519;
470.1000;0.7668;1.2670;
470.4000;0.7676;1.2745;
470.7000;0.7619;1.2645;
471.0000;0.7660;1.2670;
471.3000;0.7652;1.2619;
471.6000;0.7660;1.2619;
471.9000;0.7668;1.2670;
472.2000;0.7668;1.2720;
472.5000;0.7652;1.2695;
472.8000;0.7660;1.2720;
473.1000;0.7652;1.2670;
473.4000;0.7741;1.2846;
473.7000;0.7635;1.2569;
474.0000;0.7627;1.2645;
474.3000;0.7652;1.2720;
474.6000;0.7660;1.2619;
474.9000;0.7717;1.2796;
475.2000;0.7660;1.2619;
475.5000;0.7635;1.2494;
475.8000;0.7635;1.2468;
476.1000;0.7652;1.2519;
476.4000;0.7660;1.2519;
476.7000;0.7635;1.2418;
477.0000;0.7652;1.2443;
477.3000;0.7643;1.2544;
477.6000;0.7627;1.2494;
477.9000;0.7652;1.2468;
478.2000;0.7619;1.2494;
478.5000;0.7652;1.2569;
478.8000;0.7660;1.2468;
479.1000;0.7660;1.2544;
479.4000;0.7635;1.2494;
479.7000;0.7757;1.2846;
480.0000;0.7660;1.2544;
480.3000;0.7635;1.2418;
480.6000;0.7660;1.2342;
480.9000;0.7660;1.2292;
481.2000;0.7652;1.2393;
481.5000;0.7668;1.2393;
481.8000;0.7668;1.2418;
482.1000;0.7660;1.2368;
482.4000;0.7668;1.2393;
482.7000;0.7652;1.2418;
483.0000;0.7676;1.2468;
483.3000;0.7660;1.2418;
483.6000;0.7643;1.2443;
483.9000;0.7676;1.2418;
484.2000;0.7627;1.2368;
484.5000;0.7643;1.2443;
484.8000;0.7635;1.2393;
485.1000;0.7652;1.2292;
485.4000;0.7652;1.2317;
485.7000;0.7652;1.2267;
486.0000;0.7635;1.2292;
486.3000;0.7725;1.2544;
486.6000;0.7660;1.2267;
486.9000;0.7709;1.2342;
487.2000;0.7684;1.2368;
487.5000;0.7652;1.2292;
487.8000;0.7652;1.2342;
488.1000;0.7619;1.2242;
488.4000;0.7635;1.2317;
488.7000;0.7627;1.2267;
489.0000;0.7635;1.2267;
489.3000;0.7652;1.2242;
489.6000;0.7643;1.2216;
489.9000;0.7643;1.2242;
490.2000;0.7627;1.2191;
490.5000;0.7668;1.2242;
490.8000;0.7660;1.2191;
491.1000;0.7668;1.2216;
491.4000;0.7660;1.2116;
491.7000;0.7652;1.2166;
492.0000;0.7660;1.2242;
492.3000;0.7643;1.2242;
492.6000;0.7619;1.2166;
492.9000;0.7676;1.2292;
493.2000;0.7684;1.2292;
493.5000;0.7652;1.2242;
493.8000;0.7652;1.2242;
494.1000;0.7660;1.2292;
494.4000;0.7627;1.2292;
494.7000;0.7668;1.2443;
495.0000;0.7627;1.2418;
495.3000;0.7643;1.2443;
495.6000;0.7652;1.2494;
495.9000;0.7643;1.2443;
496.2000;0.7652;1.2468;
496.5000;0.7668;1.2443;
496.8000;0.7652;1.2418;
497.1000;0.7668;1.2393;
497.4000;0.7643;1.2393;
497.7000;0.7676;1.2569;
498.0000;0.7741;1.2745;
498.3000;0.7684;1.2544;
498.6000;0.7668;1.2468;
498.9000;0.7660;1.2418;
499.2000;0.7717;1.2468;
499.5000;0.7668;1.2393;
499.8000;0.7652;1.2267;
500.1000;0.7652;1.2292;
500.4000;0.7652;1.2342;
500.7000;0.7700;1.2594;
501.0000;0.7660;1.2519;
501.3000;0.7652;1.2468;
501.6000;0.7660;1.2494;
501.9000;0.7660;1.2468;
502.2000;0.7627;1.2342;
502.5000;0.7635;1.2342;
502.8000;0.7652;1.2494;
503.1000;0.7668;1.2519;
503.4000;0.7643;1.2443;
503.7000;0.7643;1.2468;
504.0000;0.7652;1.2468;
504.3000;0.7635;1.2468;
504.6000;0.7692;1.2594;
504.9000;0.7668;1.2418;
505.2000;0.7643;1.2393;
505.5000;0.7652;1.2443;
505.8000;0.7635;1.2519;
506.1000;0.7643;1.2519;
506.4000;0.7643;1.2443;
506.7000;0.7643;1.2418;
507.0000;0.7660;1.2619;
507.3000;0.7635;1.2569;
507.6000;0.7652;1.2544;
507.9000;0.7668;1.2544;
508.2000;0.7668;1.2594;
508.5000;0.7660;1.2594;
508.8000;0.7668;1.2544;
509.1000;0.7652;1.2443;
509.4000;0.7668;1.2468;
509.7000;0.7676;1.2468;
510.0000;0.7652;1.2468;
510.3000;0.7668;1.2619;
510.6000;0.7668;1.2645;
510.9000;0.7652;1.2670;
511.2000;0.7668;1.2745;
511.5000;0.7627;1.2594;
511.8000;0.7643;1.2569;
512.1000;0.7660;1.2569;
512.4000;0.7603;1.2393;
512.7000;0.7652;1.2645;
513.0000;0.7660;1.2670;
513.3000;0.7660;1.2645;
513.6000;0.7668;1.2670;
513.9000;0.7627;1.2594;
514.2000;0.7652;1.2594;
514.5000;0.7660;1.2645;
514.8000;0.7603;1.2494;
515.1000;0.7627;1.2645;
515.4000;0.7643;1.2619;
515.7000;0.7741;1.2821;
516.0000;0.7652;1.2645;
516.3000;0.7635;1.2594;
516.6000;0.7635;1.2619;
516.9000;0.7660;1.2645;
517.2000;0.7652;1.2594;
517.5000;0.7643;1.2468;
517.8000;0.7635;1.2443;
518.1000;0.7652;1.2544;
518.4000;0.7635;1.2544;
518.7000;0.7668;1.2619;
519.0000;0.7643;1.2569;
519.3000;0.7635;1.2569;
519.6000;0.7652;1.2594;
519.9000;0.7676;1.2645;
520.2000;0.7627;1.2544;
520.5000;0.7660;1.2569;
520.8000;0.7603;1.2519;
521.1000;0.7635;1.2544;
521.4000;0.7652;1.2519;
521.7000;0.7619;1.2468;
522.0000;0.7660;1.2594;
522.3000;0.7595;1.2418;
522.6000;0.7619;1.2519;
522.9000;0.7668;1.2594;
523.2000;0.7635;1.2594;
523.5000;0.7660;1.2594;
523.8000;0.7643;1.2619;
524.1000;0.7635;1.2494;
524.4000;0.7643;1.2418;
524.7000;0.7652;1.2443;
525.0000;0.7619;1.2342;
525.3000;0.7635;1.2368;
525.6000;0.7643;1.2342;
525.9000;0.7643;1.2292;
526.2000;0.7635;1.2292;
526.5000;0.7652;1.2368;
526.8000;0.7643;1.2368;
527.1000;0.7635;1.2368;
527.4000;0.7643;1.2317;
527.7000;0.7627;1.2317;
528.0000;0.7635;1.2342;
528.3000;0.7643;1.2292;
528.6000;0.7643;1.2267;
528.9000;0.7652;1.2242;
529.2000;0.7643;1.2292;
529.5000;0.7627;1.2267;
529.8000;0.7627;1.2267;
530.1000;0.7643;1.2292;
530.4000;0.7643;1.2317;
530.7000;0.7627;1.2342;
531.0000;0.7635;1.2418;
531.3000;0.7635;1.2418;
531.6000;0.7643;1.2443;
531.9000;0.7619;1.2368;
532.2000;0.7643;1.2393;
532.5000;0.7652;1.2418;
532.8000;0.7643;1.2468;
533.1000;0.7627;1.2494;
533.4000;0.7643;1.2594;
533.7000;0.7627;1.2544;
534.0000;0.7652;1.2494;
534.3000;0.7643;1.2468;
534.6000;0.7611;1.2468;
534.9000;0.7652;1.2569;
535.2000;0.7635;1.2443;
535.5000;0.7603;1.2317;
535.8000;0.7652;1.2544;
536.1000;0.7643;1.2494;
536.4000;0.7652;1.2519;
536.7000;0.7627;1.2494;
537.0000;0.7652;1.2519;
537.3000;0.7643;1.2494;
537.6000;0.7660;1.2569;
537.9000;0.7635;1.2619;
538.2000;0.7652;1.2594;
538.5000;0.7603;1.2519;
538.8000;0.7652;1.2645;
539.1000;0.7652;1.2645;
539.4000;0.7627;1.2619;
539.7000;0.7652;1.2645;
540.0000;0.7643;1.2695;
540.3000;0.7652;1.2670;
540.6000;0.7643;1.2544;
540.9000;0.7595;1.2342;
541.2000;0.7652;1.2519;
541.5000;0.7643;1.2569;
541.8000;0.7619;1.2594;
542.1000;0.7635;1.2519;
542.4000;0.7635;1.2619;
542.7000;0.7660;1.2695;
543.0000;0.7619;1.2619;
543.3000;0.7595;1.2544;
543.6000;0.7643;1.2645;
543.9000;0.7684;1.2771;
544.2000;0.7619;1.2519;
544.5000;0.7619;1.2393;
544.8000;0.7643;1.2443;
545.1000;0.7635;1.2418;
545.4000;0.7652;1.2393;
545.7000;0.7586;1.2292;
546.0000;0.7635;1.2368;
546.3000;0.7627;1.2418;
546.6000;0.7627;1.2443;
546.9000;0.7652;1.2468;
547.2000;0.7635;1.2494;
547.5000;0.7643;1.2468;
547.8000;0.7660;1.2494;
548.1000;0.7635;1.2418;
548.4000;0.7652;1.2393;
548.7000;0.7660;1.2292;
549.0000;0.7652;1.2267;
549.3000;0.7660;1.2317;
549.6000;0.7643;1.2317;
549.9000;0.7652;1.2418;
550.2000;0.7643;1.2544;
550.5000;0.7643;1.2594;
550.8000;0.7635;1.2569;
551.1000;0.7635;1.2494;
551.4000;0.7635;1.2468;
551.7000;0.7643;1.2519;
552.0000;0.7635;1.2569;
552.3000;0.7619;1.2443;
552.6000;0.7635;1.2443;
552.9000;0.7627;1.2468;
553.2000;0.7668;1.2569;
553.5000;0.7627;1.2368;
553.8000;0.7660;1.2342;
554.1000;0.7643;1.2292;
554.4000;0.7627;1.2292;
554.7000;0.7660;1.2368;
555.0000;0.7652;1.2342;
555.3000;0.7668;1.2317;
555.6000;0.7643;1.2317;
555.9000;0.7643;1.2317;
556.2000;0.7635;1.2242;
556.5000;0.7643;1.2292;
556.8000;0.7660;1.2393;
557.1000;0.7660;1.2393;
557.4000;0.7652;1.2393;
557.7000;0.7635;1.2393;
558.0000;0.7652;1.2418;
558.3000;0.7635;1.2418;
558.6000;0.7627;1.2418;
558.9000;0.7635;1.2418;
559.2000;0.7652;1.2393;
559.5000;0.7668;1.2393;
559.8000;0.7635;1.2368;
560.1000;0.7700;1.2468;
560.4000;0.7627;1.2317;
560.7000;0.7668;1.2292;
561.0000;0.7611;1.2191;
561.3000;0.7627;1.2166;
561.6000;0.7603;1.2065;
561.9000;0.7652;1.2141;
562.2000;0.7643;1.2191;
562.5000;0.7660;1.2216;
562.8000;0.7660;1.2216;
563.1000;0.7643;1.2191;
563.4000;0.7635;1.2216;
563.7000;0.7652;1.2216;
564.0000;0.7635;1.2292;
564.3000;0.7603;1.2216;
564.6000;0.7627;1.2368;
564.9000;0.7619;1.2368;
565.2000;0.7635;1.2468;
565.5000;0.7643;1.2468;
565.8000;0.7635;1.2494;
566.1000;0.7635;1.2468;
566.4000;0.7578;1.2292;
566.7000;0.7643;1.2368;
567.0000;0.7652;1.2342;
567.3000;0.7603;1.2292;
567.6000;0.7652;1.2418;
567.9000;0.7668;1.2468;
568.2000;0.7660;1.2418;
568.5000;0.7643;1.2418;
568.8000;0.7635;1.2468;
569.1000;0.7660;1.2468;
569.4000;0.7700;1.2443;
569.7000;0.7692;1.2544;
570.0000;0.7619;1.2317;
570.3000;0.7635;1.2393;
570.6000;0.7643;1.2418;
570.9000;0.7643;1.2443;
571.2000;0.7619;1.2292;
571.5000;0.7603;1.2317;
571.8000;0.7684;1.2569;
572.1000;0.7643;1.2443;
572.4000;0.7635;1.2443;
572.7000;0.7619;1.2342;
573.0000;0.7643;1.2368;
573.3000;0.7619;1.2317;
573.6000;0.7619;1.2342;
573.9000;0.7676;1.2494;
574.2000;0.7627;1.2393;
574.5000;0.7643;1.2393;
574.8000;0.7635;1.2418;
575.1000;0.7538;1.2141;
575.4000;0.7635;1.2468;
575.7000;0.7643;1.2418;
576.0000;0.7635;1.2393;
576.3000;0.7635;1.2368;
576.6000;0.7627;1.2443;
576.9000;0.7676;1.2619;
577.2000;0.7627;1.2443;
577.5000;0.7635;1.2519;
577.8000;0.7643;1.2418;
578.1000;0.7603;1.2342;
578.4000;0.7643;1.2418;
578.7000;0.7652;1.2519;
579.0000;0.7627;1.2418;
579.3000;0.7660;1.2544;
579.6000;0.7643;1.2494;
579.9000;0.7619;1.2443;
580.2000;0.7692;1.2468;
580.5000;0.7635;1.2393;
580.8000;0.7652;1.2443;
581.1000;0.7595;1.2317;
581.4000;0.7627;1.2418;
581.7000;0.7635;1.2393;
582.0000;0.7619;1.2393;
582.3000;0.7619;1.2494;
582.6000;0.7619;1.2468;
582.9000;0.7619;1.2468;
583.2000;0.7635;1.2443;
583.5000;0.7643;1.2368;
583.8000;0.7643;1.2418;
584.1000;0.7635;1.2393;
584.4000;0.7635;1.2468;
584.7000;0.7652;1.2544;
585.0000;0.7660;1.2594;
585.3000;0.7627;1.2494;
585.6000;0.7643;1.2519;
585.9000;0.7643;1.2418;
586.2000;0.7635;1.2443;
586.5000;0.7635;1.2368;
586.8000;0.7627;1.2418;
587.1000;0.7635;1.2368;
587.4000;0.7643;1.2342;
587.7000;0.7627;1.2342;
588.0000;0.7643;1.2393;
588.3000;0.7619;1.2468;
588.6000;0.7635;1.2594;
588.9000;0.7627;1.2544;
589.2000;0.7643;1.2594;
589.5000;0.7652;1.2594;
589.8000;0.7700;1.2670;
590.1000;0.7643;1.2468;
590.4000;0.7668;1.2418;
590.7000;0.7643;1.2342;
591.0000;0.7692;1.2544;
591.3000;0.7635;1.2494;
591.6000;0.7643;1.2494;
591.9000;0.7635;1.2393;
592.2000;0.7692;1.2594;
592.5000;0.7676;1.2494;
592.8000;0.7643;1.2544;
593.1000;0.7611;1.2519;
593.4000;0.7652;1.2745;
593.7000;0.7652;1.2670;
594.0000;0.7676;1.2745;
594.3000;0.7611;1.2645;
594.6000;0.7660;1.2745;
594.9000;0.7652;1.2771;
595.2000;0.7619;1.2670;
595.5000;0.7538;1.2393;
595.8000;0.7619;1.2544;
596.1000;0.7627;1.2468;
596.4000;0.7635;1.2418;
596.7000;0.7611;1.2393;
597.0000;0.7619;1.2418;
597.3000;0.7627;1.2393;
597.6000;0.7635;1.2443;
597.9000;0.7643;1.2317;
598.2000;0.7619;1.2292;
598.5000;0.7643;1.2267;
598.8000;0.7652;1.2342;
599.1000;0.7627;1.2317;
599.4000;0.7643;1.2443;
599.7000;0.7635;1.2569;
600.0000;0.7643;1.2569;
600.3000;0.7643;1.2393;
600.6000;0.7635;1.2292;
600.9000;0.7627;1.2242;
601.2000;0.7570;1.1965;
601.5000;0.7513;1.1763;
601.8000;0.7448;1.1536;
602.1000;0.7407;1.1385;
602.4000;0.7367;1.1133;
602.7000;0.7326;1.1007;
603.0000;0.7261;1.0806;
603.3000;0.7188;1.0680;
603.6000;0.7147;1.0554;
603.9000;0.7090;1.0352;
604.2000;0.7049;1.0201;
604.5000;0.7041;1.0252;
604.8000;0.7000;1.0227;
605.1000;0.6952;1.0201;
605.4000;0.6919;1.0025;
605.7000;0.6805;0.9798;
606.0000;0.6821;0.9824;
606.3000;0.6764;0.9647;
606.6000;0.6772;0.9622;
606.9000;0.6724;0.9546;
607.2000;0.6707;0.9496;
607.5000;0.6675;0.9471;
607.8000;0.6683;0.9496;
608.1000;0.6626;0.9421;
608.4000;0.6602;0.9320;
608.7000;0.6626;0.9421;
609.0000;0.6553;0.9320;
609.3000;0.6528;0.9320;
609.6000;0.6488;0.9269;
609.9000;0.6471;0.9244;
610.2000;0.6455;0.9295;
610.5000;0.6431;0.9345;
610.8000;0.6374;0.9219;
611.1000;0.6365;0.9269;
611.4000;0.6349;0.9244;
611.7000;0.6406;0.9395;
612.0000;0.6333;0.9169;
612.3000;0.6268;0.8967;
612.6000;0.6357;0.9194;
612.9000;0.6317;0.8992;
613.2000;0.6235;0.8841;
613.5000;0.6227;0.8942;
613.8000;0.6227;0.8967;
614.1000;0.6219;0.8917;
614.4000;0.6219;0.8892;
614.7000;0.6178;0.8866;
615.0000;0.6097;0.8740;
615.3000;0.6186;0.9043;
615.6000;0.6129;0.8892;
615.9000;0.6113;0.8841;
616.2000;0.6081;0.8690;
616.5000;0.6081;0.8640;
616.8000;0.6064;0.8640;
617.1000;0.6048;0.8564;
617.4000;0.6032;0.8438;
617.7000;0.6015;0.8413;
618.0000;0.5991;0.8438;
618.3000;0.5991;0.8539;
618.6000;0.5991;0.8640;
618.9000;0.5975;0.8589;
619.2000;0.5958;0.8690;
619.5000;0.5877;0.8589;
619.8000;0.5910;0.8665;
620.1000;0.5918;0.8766;
620.4000;0.5902;0.8766;
620.7000;0.5885;0.8791;
621.0000;0.5869;0.8690;
621.3000;0.5869;0.8614;
621.6000;0.5853;0.8489;
621.9000;0.5836;0.8489;
622.2000;0.5836;0.8463;
622.5000;0.5820;0.8489;
622.8000;0.5804;0.8489;
623.1000;0.5820;0.8514;
623.4000;0.5779;0.8413;
623.7000;0.5779;0.8388;
624.0000;0.5763;0.8363;
624.3000;0.5779;0.8463;
624.6000;0.5755;0.8413;
624.9000;0.5771;0.8463;
625.2000;0.5722;0.8438;
625.5000;0.5747;0.8463;
625.8000;0.5771;0.8589;
626.1000;0.5706;0.8514;
626.4000;0.5731;0.8463;
626.7000;0.5706;0.8463;
627.0000;0.5698;0.8539;
627.3000;0.5657;0.8413;
627.6000;0.5674;0.8363;
627.9000;0.5698;0.8514;
628.2000;0.5633;0.8514;
628.5000;0.5641;0.8564;
628.8000;0.5625;0.8640;
629.1000;0.5649;0.8665;
629.4000;0.5633;0.8564;
629.7000;0.5641;0.8614;
630.0000;0.5641;0.8690;
630.3000;0.5608;0.8715;
630.6000;0.5592;0.8614;
630.9000;0.5592;0.8740;
631.2000;0.5576;0.8690;
631.5000;0.5568;0.8539;
631.8000;0.5576;0.8589;
632.1000;0.5576;0.8614;
632.4000;0.5560;0.8514;
632.7000;0.5576;0.8514;
633.0000;0.5568;0.8489;
633.3000;0.5568;0.8539;
633.6000;0.5560;0.8489;
633.9000;0.5560;0.8539;
634.2000;0.5535;0.8514;
634.5000;0.5543;0.8489;
634.8000;0.5503;0.8287;
635.1000;0.5511;0.8287;
635.4000;0.5519;0.8388;
635.7000;0.5535;0.8363;
636.0000;0.5495;0.8287;
636.3000;0.5495;0.8312;
636.6000;0.5470;0.8337;
636.9000;0.5454;0.8237;
637.2000;0.5413;0.8211;
637.5000;0.5462;0.8438;
637.8000;0.5372;0.8186;
638.1000;0.5462;0.8363;
638.4000;0.5438;0.8413;
638.7000;0.5446;0.8363;
639.0000;0.5413;0.8262;
639.3000;0.5438;0.8363;
639.6000;0.5454;0.8388;
639.9000;0.5446;0.8337;
640.2000;0.5429;0.8388;
640.5000;0.5421;0.8463;
640.8000;0.5405;0.8463;
641.1000;0.5413;0.8438;
641.4000;0.5389;0.8463;
641.7000;0.5389;0.8463;
642.0000;0.5405;0.8514;
642.3000;0.5372;0.8463;
642.6000;0.5372;0.8438;
642.9000;0.5381;0.8388;
643.2000;0.5381;0.8388;
643.5000;0.5364;0.8363;
643.8000;0.5356;0.8363;
644.1000;0.5356;0.8388;
644.4000;0.5372;0.8438;
644.7000;0.5340;0.8363;
645.0000;0.5364;0.8438;
645.3000;0.5348;0.8262;
645.6000;0.5356;0.8312;
645.9000;0.5348;0.8337;
646.2000;0.5348;0.8363;
646.5000;0.5324;0.8287;
646.8000;0.5307;0.8262;
647.1000;0.5348;0.8312;
647.4000;0.5315;0.8161;
647.7000;0.5315;0.8211;
648.0000;0.5315;0.8211;
648.3000;0.5315;0.8186;
648.6000;0.5315;0.8211;
648.9000;0.5307;0.8262;
649.2000;0.5299;0.8262;
649.5000;0.5299;0.8337;
649.8000;0.5299;0.8337;
650.1000;0.5291;0.8337;
650.4000;0.5291;0.8312;
650.7000;0.5283;0.8312;
651.0000;0.5267;0.8312;
651.3000;0.5267;0.8312;
651.6000;0.5267;0.8413;
651.9000;0.5250;0.8413;
652.2000;0.5258;0.8363;
652.5000;0.5299;0.8413;
652.8000;0.5275;0.8388;
653.1000;0.5258;0.8337;
653.4000;0.5258;0.8312;
653.7000;0.5250;0.8262;
654.0000;0.5226;0.8287;
654.3000;0.5201;0.8237;
654.6000;0.5250;0.8363;
654.9000;0.5242;0.8237;
655.2000;0.5234;0.8211;
655.5000;0.5250;0.8287;
655.8000;0.5250;0.8337;
656.1000;0.5250;0.8363;
656.4000;0.5210;0.8262;
656.7000;0.5218;0.8312;
657.0000;0.5218;0.8312;
657.3000;0.5226;0.8262;
657.6000;0.5226;0.8337;
657.9000;0.5210;0.8312;
658.2000;0.5218;0.8312;
658.5000;0.5218;0.8287;
658.8000;0.5218;0.8337;
659.1000;0.5218;0.8312;
659.4000;0.5201;0.8287;
659.7000;0.5185;0.8262;
660.0000;0.5153;0.8186;
660.3000;0.5218;0.8388;
660.6000;0.5201;0.8337;
660.9000;0.5193;0.8337;
661.2000;0.5193;0.8413;
661.5000;0.5153;0.8262;
661.8000;0.5242;0.8539;
662.1000;0.5169;0.8363;
662.4000;0.5177;0.8388;
662.7000;0.5177;0.8413;
663.0000;0.5177;0.8388;
663.3000;0.5161;0.8337;
663.6000;0.5201;0.8438;
663.9000;0.5120;0.8211;
664.2000;0.5169;0.8312;
664.5000;0.5161;0.8312;
664.8000;0.5185;0.8337;
665.1000;0.5185;0.8237;
665.4000;0.5153;0.8211;
665.7000;0.5169;0.8287;
666.0000;0.5161;0.8262;
666.3000;0.5144;0.8312;
666.6000;0.5144;0.8388;
666.9000;0.5144;0.8363;
667.2000;0.5128;0.8237;
667.5000;0.5128;0.8312;
667.8000;0.5136;0.8337;
668.1000;0.5120;0.8287;
668.4000;0.5104;0.8211;
668.7000;0.5136;0.8312;
669.0000;0.5128;0.8287;
669.3000;0.5112;0.8262;
669.6000;0.5128;0.8237;
669.9000;0.5177;0.8388;
670.2000;0.5120;0.8312;
670.5000;0.5112;0.8363;
670.8000;0.5096;0.8388;
671.1000;0.5120;0.8388;
671.4000;0.5104;0.8388;
671.7000;0.5112;0.8363;
672.0000;0.5112;0.8337;
672.3000;0.5112;0.8413;
672.6000;0.5128;0.8388;
672.9000;0.5063;0.8237;
673.2000;0.5096;0.8287;
673.5000;0.5104;0.8262;
673.8000;0.5104;0.8337;
674.1000;0.5104;0.8312;
674.4000;0.5104;0.8312;
674.7000;0.5088;0.8287;
675.0000;0.5112;0.8337;
675.3000;0.5096;0.8287;
675.6000;0.5104;0.8312;
675.9000;0.5112;0.8463;
676.2000;0.5071;0.8438;
676.5000;0.5088;0.8564;
676.8000;0.5088;0.8489;
677.1000;0.5112;0.8438;
677.4000;0.5047;0.8363;
677.7000;0.5096;0.8438;
678.0000;0.5063;0.8438;
678.3000;0.5071;0.8514;
678.6000;0.5096;0.8564;
678.9000;0.5047;0.8539;
679.2000;0.5063;0.8539;
679.5000;0.5088;0.8614;
679.8000;0.5120;0.8690;
680.1000;0.5079;0.8640;
680.4000;0.5047;0.8564;
680.7000;0.5088;0.8589;
681.0000;0.5031;0.8489;
681.3000;0.5096;0.8539;
681.6000;0.5063;0.8463;
681.9000;0.5055;0.8388;
682.2000;0.5031;0.8337;
682.5000;0.5039;0.8363;
682.8000;0.5055;0.8413;
683.1000;0.5047;0.8413;
683.4000;0.5039;0.8514;
683.7000;0.5047;0.8564;
684.0000;0.5039;0.8438;
684.3000;0.5063;0.8489;
684.6000;0.5039;0.8489;
684.9000;0.5047;0.8514;
685.2000;0.5055;0.8539;
685.5000;0.5006;0.8388;
685.8000;0.5039;0.8337;
686.1000;0.4982;0.8186;
686.4000;0.4990;0.8237;
686.7000;0.5031;0.8312;
687.0000;0.5047;0.8363;
687.3000;0.5047;0.8388;
687.6000;0.5096;0.8564;
687.9000;0.5014;0.8413;
688.2000;0.5039;0.8388;
688.5000;0.5039;0.8337;
688.8000;0.5022;0.8312;
689.1000;0.5022;0.8363;
689.4000;0.5031;0.8413;
689.7000;0.5014;0.8413;
690.0000;0.5047;0.8564;
690.3000;0.5022;0.8438;
690.6000;0.5014;0.8438;
690.9000;0.5055;0.8514;
691.2000;0.4998;0.8438;
691.5000;0.5022;0.8489;
691.8000;0.4998;0.8463;
692.1000;0.4998;0.8438;
692.4000;0.5006;0.8514;
692.7000;0.4990;0.8413;
693.0000;0.4990;0.8363;
693.3000;0.4998;0.8463;
693.6000;0.5014;0.8539;
693.9000;0.4957;0.8438;
694.2000;0.5022;0.8539;
694.5000;0.5014;0.8514;
694.8000;0.4998;0.8463;
695.1000;0.5022;0.8564;
695.4000;0.4998;0.8539;
695.7000;0.4990;0.8489;
696.0000;0.5006;0.8539;
696.3000;0.4990;0.8539;
696.6000;0.4990;0.8514;
696.9000;0.5014;0.8589;
697.2000;0.4990;0.8564;
697.5000;0.4982;0.8564;
697.8000;0.4982;0.8564;
698.1000;0.4974;0.8514;
698.4000;0.4941;0.8438;
698.7000;0.4982;0.8564;
699.0000;0.4965;0.8489;
699.3000;0.4965;0.8589;
699.6000;0.4974;0.8665;
699.9000;0.4965;0.8690;
700.2000;0.4965;0.8690;
700.5000;0.4982;0.8791;
700.8000;0.4965;0.8866;
701.1000;0.4957;0.8917;
701.4000;0.4941;0.8816;
701.7000;0.4990;0.8992;
702.0000;0.4990;0.8992;
702.3000;0.5063;0.9143;
702.6000;0.4941;0.8766;
702.9000;0.4884;0.8665;
703.2000;0.4965;0.8665;
703.5000;0.4990;0.8715;
703.8000;0.4908;0.8564;
704.1000;0.4941;0.8614;
704.4000;0.4957;0.8640;
704.7000;0.4900;0.8489;
705.0000;0.4982;0.8614;
705.3000;0.4957;0.8640;
705.6000;0.4974;0.8766;
705.9000;0.4957;0.8766;
706.2000;0.4933;0.8640;
706.5000;0.4949;0.8816;
706.8000;0.4974;0.8791;
707.1000;0.5031;0.9043;
707.4000;0.4957;0.8866;
707.7000;0.4941;0.8816;
708.0000;0.4998;0.8892;
708.3000;0.4917;0.8589;
708.6000;0.4965;0.8740;
708.9000;0.4949;0.8690;
709.2000;0.4917;0.8640;
709.5000;0.4965;0.8665;
709.8000;0.4949;0.8665;
710.1000;0.4941;0.8690;
710.4000;0.4941;0.8766;
710.7000;0.4982;0.8841;
711.0000;0.4982;0.8791;
711.3000;0.4949;0.8740;
711.6000;0.4949;0.8791;
711.9000;0.4957;0.8766;
712.2000;0.4949;0.8690;
712.5000;0.4908;0.8690;
712.8000;0.4908;0.8665;
713.1000;0.4925;0.8715;
713.4000;0.4941;0.8740;
713.7000;0.4949;0.8715;
714.0000;0.4974;0.8766;
714.3000;0.4925;0.8665;
714.6000;0.4974;0.8816;
714.9000;0.4908;0.8665;
715.2000;0.4925;0.8766;
715.5000;0.4917;0.8816;
715.8000;0.4933;0.8866;
716.1000;0.4925;0.8866;
716.4000;0.4917;0.8791;
716.7000;0.4941;0.8766;
717.0000;0.4917;0.8715;
717.3000;0.4908;0.8614;
717.6000;0.4908;0.8614;
717.9000;0.4900;0.8564;
718.2000;0.4917;0.8640;
718.5000;0.4917;0.8614;
718.8000;0.4884;0.8489;
719.1000;0.4941;0.8539;
719.4000;0.4925;0.8489;
719.7000;0.4917;0.8463;
720.0000;0.4925;0.8514;
720.3000;0.4917;0.8489;
720.6000;0.4892;0.8489;
720.9000;0.4892;0.8564;
721.2000;0.4900;0.8614;
721.5000;0.4908;0.8614;
721.8000;0.4900;0.8564;
722.1000;0.4900;0.8690;
722.4000;0.4941;0.8690;
722.7000;0.4900;0.8640;
723.0000;0.4900;0.8640;
723.3000;0.4892;0.8665;
723.6000;0.4860;0.8514;
723.9000;0.4884;0.8514;
724.2000;0.4908;0.8539;
724.5000;0.4917;0.8564;
724.8000;0.4925;0.8564;
725.1000;0.4917;0.8564;
725.4000;0.4908;0.8614;
725.7000;0.4900;0.8589;
726.0000;0.4925;0.8640;
726.3000;0.4982;0.8766;
726.6000;0.4941;0.8665;
726.9000;0.4908;0.8589;
727.2000;0.4900;0.8539;
727.5000;0.4876;0.8564;
727.8000;0.4876;0.8463;
728.1000;0.4892;0.8388;
728.4000;0.4835;0.8136;
728.7000;0.4843;0.8161;
729.0000;0.4892;0.8312;
729.3000;0.4884;0.8287;
729.6000;0.4892;0.8363;
729.9000;0.4900;0.8413;
730.2000;0.4900;0.8463;
730.5000;0.4900;0.8438;
730.8000;0.4900;0.8539;
731.1000;0.4900;0.8514;
731.4000;0.4868;0.8363;
731.7000;0.4884;0.8438;
732.0000;0.4851;0.8363;
732.3000;0.4900;0.8539;
732.6000;0.4876;0.8539;
732.9000;0.4884;0.8514;
733.2000;0.4868;0.8564;
733.5000;0.4884;0.8614;
733.8000;0.4884;0.8539;
734.1000;0.4876;0.8539;
734.4000;0.4876;0.8514;
734.7000;0.4884;0.8539;
735.0000;0.4892;0.8640;
735.3000;0.4892;0.8640;
735.6000;0.4892;0.8640;
735.9000;0.4876;0.8640;
736.2000;0.4851;0.8589;
736.5000;0.4868;0.8564;
736.8000;0.4860;0.8665;
737.1000;0.4884;0.8690;
737.4000;0.4892;0.8690;
737.7000;0.4892;0.8690;
738.0000;0.4892;0.8665;
738.3000;0.4860;0.8514;
738.6000;0.4892;0.8564;
738.9000;0.4868;0.8514;
739.2000;0.4892;0.8514;
739.5000;0.4843;0.8413;
739.8000;0.4851;0.8539;
740.1000;0.4843;0.8438;
740.4000;0.4860;0.8514;
740.7000;0.4811;0.8438;
741.0000;0.4868;0.8589;
741.3000;0.4868;0.8614;
741.6000;0.4868;0.8589;
741.9000;0.4868;0.8564;
742.2000;0.4835;0.8539;
742.5000;0.4851;0.8640;
742.8000;0.4868;0.8766;
743.1000;0.4819;0.8665;
743.4000;0.4876;0.8715;
743.7000;0.4868;0.8740;
744.0000;0.4917;0.8791;
744.3000;0.4868;0.8766;
744.6000;0.4843;0.8640;
744.9000;0.4851;0.8766;
745.2000;0.4876;0.8841;
745.5000;0.4876;0.8766;
745.8000;0.4868;0.8766;
746.1000;0.4860;0.8715;
746.4000;0.4868;0.8715;
746.7000;0.4851;0.8665;
747.0000;0.4843;0.8640;
747.3000;0.4835;0.8564;
747.6000;0.4933;0.8917;
747.9000;0.4868;0.8715;
748.2000;0.4860;0.8665;
748.5000;0.4786;0.8463;
748.8000;0.4868;0.8589;
749.1000;0.4892;0.8690;
749.4000;0.4868;0.8539;
749.7000;0.4819;0.8413;
750.0000;0.4811;0.8463;
750.3000;0.4778;0.8413;
750.6000;0.4860;0.8690;
750.9000;0.4851;0.8640;
751.2000;0.4835;0.8589;
751.5000;0.4851;0.8640;
751.8000;0.4941;0.8992;
752.1000;0.4860;0.8791;
752.4000;0.4860;0.8866;
752.7000;0.4851;0.8866;
753.0000;0.4851;0.8866;
753.3000;0.4827;0.8866;
753.6000;0.4835;0.8766;
753.9000;0.4835;0.8690;
754.2000;0.4843;0.8665;
754.5000;0.4835;0.8614;
754.8000;0.4803;0.8589;
755.1000;0.4843;0.8715;
755.4000;0.4860;0.8740;
755.7000;0.4843;0.8740;
756.0000;0.4851;0.8740;
756.3000;0.4851;0.8766;
756.6000;0.4851;0.8766;
756.9000;0.4851;0.8715;
757.2000;0.4860;0.8766;
757.5000;0.4835;0.8766;
757.8000;0.4843;0.8841;
758.1000;0.4851;0.8892;
758.4000;0.4843;0.8942;
758.7000;0.4835;0.8992;
759.0000;0.4851;0.8992;
759.3000;0.4835;0.8866;
759.6000;0.4843;0.8866;
759.9000;0.4843;0.8816;
760.2000;0.4843;0.8816;
760.5000;0.4835;0.8740;
760.8000;0.4835;0.8791;
761.1000;0.4843;0.8766;
761.4000;0.4851;0.8766;
761.7000;0.4827;0.8740;
762.0000;0.4868;0.8816;
762.3000;0.4835;0.8766;
762.6000;0.4803;0.8715;
762.9000;0.4843;0.8740;
763.2000;0.4835;0.8690;
763.5000;0.4819;0.8665;
763.8000;0.4811;0.8640;
764.1000;0.4843;0.8665;
764.4000;0.4835;0.8640;
764.7000;0.4835;0.8665;
765.0000;0.4819;0.8614;
765.3000;0.4843;0.8715;
765.6000;0.4868;0.8816;
765.9000;0.4811;0.8665;
766.2000;0.4851;0.8740;
766.5000;0.4843;0.8690;
766.8000;0.4851;0.8690;
767.1000;0.4851;0.8690;
767.4000;0.4851;0.8640;
767.7000;0.4876;0.8690;
768.0000;0.4835;0.8665;
768.3000;0.4754;0.8489;
768.6000;0.4811;0.8690;
768.9000;0.4811;0.8665;
769.2000;0.4827;0.8740;
769.5000;0.4860;0.8816;
769.8000;0.4819;0.8766;
770.1000;0.4819;0.8740;
770.4000;0.4835;0.8766;
770.7000;0.4803;0.8766;
771.0000;0.4827;0.8841;
771.3000;0.4794;0.8816;
771.6000;0.4835;0.8841;
771.9000;0.4811;0.8740;
772.2000;0.4827;0.8791;
772.5000;0.4819;0.8715;
772.8000;0.4786;0.8690;
773.1000;0.4827;0.8690;
773.4000;0.4819;0.8740;
773.7000;0.4778;0.8715;
774.0000;0.4803;0.8766;
774.3000;0.4884;0.8892;
774.6000;0.4770;0.8514;
774.9000;0.4827;0.8614;
775.2000;0.4819;0.8614;
775.5000;0.4819;0.8715;
775.8000;0.4811;0.8690;
776.1000;0.4819;0.8690;
776.4000;0.4803;0.8690;
776.7000;0.4835;0.8791;
777.0000;0.4819;0.8766;
777.3000;0.4819;0.8791;
777.6000;0.4803;0.8690;
777.9000;0.4835;0.8740;
778.2000;0.4811;0.8690;
778.5000;0.4819;0.8690;
778.8000;0.4819;0.8715;
779.1000;0.4811;0.8791;
779.4000;0.4843;0.8841;
779.7000;0.4819;0.8715;
780.0000;0.4811;0.8740;
780.3000;0.4794;0.8614;
780.6000;0.4811;0.8640;
780.9000;0.4811;0.8665;
781.2000;0.4803;0.8640;
781.5000;0.4811;0.8690;
781.8000;0.4803;0.8766;
782.1000;0.4811;0.8740;
782.4000;0.4819;0.8690;
782.7000;0.4819;0.8640;
783.0000;0.4803;0.8589;
783.3000;0.4811;0.8589;
783.6000;0.4794;0.8539;
783.9000;0.4803;0.8715;
784.2000;0.4794;0.8640;
784.5000;0.4819;0.8614;
784.8000;0.4868;0.8715;
785.1000;0.4803;0.8539;
785.4000;0.4811;0.8640;
785.7000;0.4803;0.8640;
786.0000;0.4794;0.8640;
786.3000;0.4811;0.8640;
786.6000;0.4803;0.8614;
786.9000;0.4794;0.8564;
787.2000;0.4811;0.8539;
787.5000;0.4786;0.8514;
787.8000;0.4803;0.8564;
788.1000;0.4786;0.8665;
788.4000;0.4794;0.8715;
788.7000;0.4803;0.8715;
789.0000;0.4803;0.8740;
789.3000;0.4803;0.8715;
789.6000;0.4803;0.8640;
789.9000;0.4827;0.8766;
790.2000;0.4786;0.8690;
790.5000;0.4778;0.8589;
790.8000;0.4794;0.8614;
791.1000;0.4794;0.8589;
791.4000;0.4811;0.8614;
791.7000;0.4811;0.8614;
792.0000;0.4794;0.8614;
792.3000;0.4819;0.8690;
792.6000;0.4803;0.8589;
792.9000;0.4803;0.8463;
793.2000;0.4786;0.8489;
793.5000;0.4819;0.8564;
793.8000;0.4794;0.8413;
794.1000;0.4770;0.8337;
794.4000;0.4811;0.8438;
794.7000;0.4835;0.8514;
795.0000;0.4803;0.8514;
795.3000;0.4794;0.8489;
795.6000;0.4754;0.8363;
795.9000;0.4803;0.8413;
796.2000;0.4786;0.8463;
796.5000;0.4803;0.8489;
796.8000;0.4794;0.8514;
797.1000;0.4794;0.8489;
797.4000;0.4754;0.8438;
797.7000;0.4786;0.8514;
798.0000;0.4770;0.8539;
798.3000;0.4786;0.8564;
798.6000;0.4803;0.8564;
798.9000;0.4803;0.8463;
799.2000;0.4819;0.8589;
799.5000;0.4786;0.8413;
799.8000;0.4786;0.8363;
800.1000;0.4803;0.8337;
800.4000;0.4737;0.8186;
800.7000;0.4770;0.8363;
801.0000;0.4794;0.8413;
801.3000;0.4827;0.8463;
801.6000;0.4778;0.8514;
801.9000;0.4786;0.8589;
802.2000;0.4794;0.8564;
802.5000;0.4794;0.8589;
802.8000;0.4794;0.8564;
803.1000;0.4794;0.8463;
803.4000;0.4778;0.8388;
803.7000;0.4786;0.8363;
804.0000;0.4811;0.8489;
804.3000;0.4803;0.8514;
804.6000;0.4778;0.8438;
804.9000;0.4754;0.8413;
805.2000;0.4786;0.8438;
805.5000;0.4770;0.8388;
805.8000;0.4770;0.8312;
806.1000;0.4786;0.8363;
806.4000;0.4794;0.8388;
806.7000;0.4778;0.8388;
807.0000;0.4819;0.8463;
807.3000;0.4811;0.8539;
807.6000;0.4794;0.8514;
807.9000;0.4778;0.8514;
808.2000;0.4770;0.8438;
808.5000;0.4737;0.8337;
808.8000;0.4794;0.8514;
809.1000;0.4770;0.8539;
809.4000;0.4786;0.8614;
809.7000;0.4762;0.8539;
810.0000;0.4876;0.8715;
810.3000;0.4770;0.8413;
810.6000;0.4794;0.8489;
810.9000;0.4770;0.8489;
811.2000;0.4770;0.8489;
811.5000;0.4770;0.8463;
811.8000;0.4778;0.8489;
812.1000;0.4762;0.8438;
812.4000;0.4786;0.8463;
812.7000;0.4778;0.8388;
813.0000;0.4803;0.8489;
813.3000;0.4778;0.8589;
813.6000;0.4786;0.8614;
813.9000;0.4794;0.8715;
814.2000;0.4794;0.8740;
814.5000;0.4786;0.8665;
814.8000;0.4754;0.8614;
815.1000;0.4770;0.8665;
815.4000;0.4762;0.8665;
815.7000;0.4778;0.8715;
816.0000;0.4746;0.8640;
816.3000;0.4778;0.8791;
816.6000;0.4778;0.8766;
816.9000;0.4778;0.8690;
817.2000;0.4827;0.8866;
817.5000;0.4778;0.8816;
817.8000;0.4803;0.8791;
818.1000;0.4794;0.8715;
818.4000;0.4786;0.8690;
818.7000;0.4770;0.8690;
819.0000;0.4762;0.8614;
819.3000;0.4803;0.8715;
819.6000;0.4803;0.8816;
819.9000;0.4794;0.8841;
820.2000;0.4762;0.8690;
820.5000;0.4770;0.8690;
820.8000;0.4754;0.8715;
821.1000;0.4754;0.8665;
821.4000;0.4762;0.8640;
821.7000;0.4786;0.8690;
822.0000;0.4770;0.8614;
822.3000;0.4762;0.8589;
822.6000;0.4762;0.8514;
822.9000;0.4770;0.8463;
823.2000;0.4794;0.8438;
823.5000;0.4770;0.8388;
823.8000;0.4770;0.8438;
824.1000;0.4762;0.8337;
824.4000;0.4754;0.8337;
824.7000;0.4737;0.8388;
825.0000;0.4737;0.8438;
825.3000;0.4770;0.8514;
825.6000;0.4746;0.8463;
825.9000;0.4762;0.8539;
826.2000;0.4746;0.8413;
826.5000;0.4762;0.8413;
826.8000;0.4778;0.8489;
827.1000;0.4762;0.8463;
827.4000;0.4762;0.8514;
827.7000;0.4778;0.8489;
828.0000;0.4786;0.8640;
828.3000;0.4770;0.8589;
828.6000;0.4754;0.8690;
828.9000;0.4794;0.8791;
829.2000;0.4819;0.8892;
829.5000;0.4770;0.8715;
829.8000;0.4794;0.8766;
830.1000;0.4729;0.8614;
830.4000;0.4778;0.8715;
830.7000;0.4770;0.8690;
831.0000;0.4737;0.8489;
831.3000;0.4778;0.8614;
831.6000;0.4770;0.8564;
831.9000;0.4811;0.8740;
832.2000;0.4770;0.8589;
832.5000;0.4770;0.8614;
832.8000;0.4754;0.8665;
833.1000;0.4737;0.8539;
833.4000;0.4762;0.8514;
833.7000;0.4713;0.8337;
834.0000;0.4819;0.8640;
834.3000;0.4754;0.8539;
834.6000;0.4754;0.8489;
834.9000;0.4754;0.8489;
835.2000;0.4754;0.8539;
835.5000;0.4754;0.8564;
835.8000;0.4754;0.8589;
836.1000;0.4778;0.8614;
836.4000;0.4754;0.8614;
836.7000;0.4754;0.8614;
837.0000;0.4746;0.8614;
837.3000;0.4754;0.8614;
837.6000;0.4786;0.8690;
837.9000;0.4762;0.8589;
838.2000;0.4770;0.8766;
838.5000;0.4786;0.8740;
838.8000;0.4762;0.8791;
839.1000;0.4721;0.8665;
839.4000;0.4819;0.8942;
839.7000;0.4746;0.8640;
840.0000;0.4754;0.8640;
840.3000;0.4786;0.8816;
840.6000;0.4762;0.8816;
840.9000;0.4770;0.8866;
841.2000;0.4754;0.8942;
841.5000;0.4762;0.8866;
841.8000;0.4819;0.9017;
842.1000;0.4794;0.8917;
842.4000;0.4851;0.8967;
842.7000;0.4803;0.8791;
843.0000;0.4770;0.8740;
843.3000;0.4762;0.8816;
843.6000;0.4762;0.8892;
843.9000;0.4746;0.8917;
844.2000;0.4737;0.8942;
844.5000;0.4843;0.9269;
844.8000;0.4729;0.8917;
845.1000;0.4770;0.8967;
845.4000;0.4729;0.8917;
845.7000;0.4754;0.8942;
846.0000;0.4762;0.8866;
846.3000;0.4754;0.8942;
846.6000;0.4746;0.8942;
846.9000;0.4754;0.8942;
847.2000;0.4656;0.8564;
847.5000;0.4754;0.8740;
847.8000;0.4754;0.8690;
848.1000;0.4762;0.8665;
848.4000;0.4713;0.8614;
848.7000;0.4746;0.8665;
849.0000;0.4737;0.8564;
849.3000;0.4811;0.8665;
849.6000;0.4762;0.8564;
849.9000;0.4737;0.8564;
850.2000;0.4746;0.8665;
850.5000;0.4762;0.8766;
850.8000;0.4721;0.8766;
851.1000;0.4754;0.8841;
851.4000;0.4737;0.8715;
851.7000;0.4737;0.8766;
852.0000;0.4754;0.8766;
852.3000;0.4770;0.8740;
852.6000;0.4762;0.8791;
852.9000;0.4762;0.8791;
853.2000;0.4754;0.8690;
853.5000;0.4754;0.8665;
853.8000;0.4778;0.8740;
854.1000;0.4762;0.8740;
854.4000;0.4754;0.8766;
854.7000;0.4737;0.8740;
855.0000;0.4803;0.8816;
855.3000;0.4762;0.8715;
855.6000;0.4778;0.8791;
855.9000;0.4770;0.8791;
856.2000;0.4737;0.8740;
856.5000;0.4721;0.8766;
856.8000;0.4721;0.8690;
857.1000;0.4737;0.8690;
857.4000;0.4746;0.8640;
857.7000;0.4697;0.8640;
858.0000;0.4762;0.8841;
858.3000;0.4729;0.8791;
858.6000;0.4746;0.8942;
858.9000;0.4737;0.9017;
859.2000;0.4729;0.9043;
859.5000;0.4729;0.9017;
859.8000;0.4754;0.9093;
860.1000;0.4794;0.9169;
860.4000;0.4721;0.8967;
860.7000;0.4737;0.8917;
861.0000;0.4713;0.8866;
861.3000;0.4762;0.8967;
861.6000;0.4754;0.8866;
861.9000;0.4762;0.8841;
862.2000;0.4729;0.8816;
862.5000;0.4770;0.8917;
862.8000;0.4746;0.8917;
863.1000;0.4697;0.8715;
863.4000;0.4794;0.8992;
863.7000;0.4754;0.8841;
864.0000;0.4754;0.8866;
864.3000;0.4754;0.8892;
864.6000;0.4721;0.8841;
864.9000;0.4811;0.9068;
865.2000;0.4754;0.8917;
865.5000;0.4762;0.8892;
865.8000;0.4746;0.8917;
866.1000;0.4729;0.8892;
866.4000;0.4746;0.8892;
866.7000;0.4721;0.8791;
867.0000;0.4746;0.8866;
867.3000;0.4770;0.8866;
867.6000;0.4754;0.8892;
867.9000;0.4729;0.8841;
868.2000;0.4721;0.8791;
868.5000;0.4746;0.8892;
868.8000;0.4794;0.8917;
869.1000;0.4713;0.8715;
869.4000;0.4778;0.8791;
869.7000;0.4754;0.8740;
870.0000;0.4746;0.8766;
870.3000;0.4737;0.8740;
870.6000;0.4754;0.8816;
870.9000;0.4729;0.8766;
871.2000;0.4737;0.8816;
871.5000;0.4729;0.8816;
871.8000;0.4737;0.8841;
872.1000;0.4746;0.8892;
872.4000;0.4729;0.8892;
872.7000;0.4754;0.8866;
873.0000;0.4754;0.8841;
873.3000;0.4729;0.8740;
873.6000;0.4729;0.8740;
873.9000;0.4754;0.8917;
874.2000;0.4721;0.8917;
874.5000;0.4737;0.9043;
874.8000;0.4746;0.9017;
875.1000;0.4754;0.9017;
875.4000;0.4729;0.8917;
875.7000;0.4729;0.8866;
876.0000;0.4729;0.8866;
876.3000;0.4721;0.8841;
876.6000;0.4737;0.8791;
876.9000;0.4729;0.8740;
877.2000;0.4713;0.8640;
877.5000;0.4746;0.8715;
877.8000;0.4729;0.8816;
878.1000;0.4713;0.8766;
878.4000;0.4721;0.8791;
878.7000;0.4762;0.8841;
879.0000;0.4737;0.8715;
879.3000;0.4729;0.8715;
879.6000;0.4729;0.8715;
879.9000;0.4746;0.8690;
880.2000;0.4746;0.8766;
880.5000;0.4721;0.8640;
880.8000;0.4729;0.8665;
881.1000;0.4746;0.8740;
881.4000;0.4762;0.8841;
881.7000;0.4754;0.8841;
882.0000;0.4721;0.8816;
882.3000;0.4729;0.8740;
882.6000;0.4729;0.8740;
882.9000;0.4729;0.8766;
883.2000;0.4754;0.8791;
883.5000;0.4721;0.8690;
883.8000;0.4746;0.8665;
884.1000;0.4770;0.8740;
884.4000;0.4762;0.8740;
884.7000;0.4770;0.8791;
885.0000;0.4729;0.8740;
885.3000;0.4762;0.8766;
885.6000;0.4746;0.8766;
885.9000;0.4721;0.8665;
886.2000;0.4746;0.8715;
886.5000;0.4737;0.8690;
886.8000;0.4746;0.8766;
887.1000;0.4754;0.8816;
887.4000;0.4746;0.8866;
887.7000;0.4746;0.8917;
888.0000;0.4746;0.8866;
888.3000;0.4786;0.8917;
888.6000;0.4746;0.8816;
888.9000;0.4746;0.8791;
889.2000;0.4729;0.8841;
889.5000;0.4762;0.8942;
889.8000;0.4705;0.8740;
890.1000;0.4729;0.8791;
890.4000;0.4746;0.8866;
890.7000;0.4746;0.8841;
891.0000;0.4737;0.8816;
891.3000;0.4729;0.8866;
891.6000;0.4746;0.8942;
891.9000;0.4737;0.8942;
892.2000;0.4721;0.8866;
892.5000;0.4713;0.8841;
892.8000;0.4786;0.9017;
893.1000;0.4729;0.8841;
893.4000;0.4754;0.8892;
893.7000;0.4737;0.8816;
894.0000;0.4729;0.8766;
894.3000;0.4746;0.8892;
894.6000;0.4737;0.8942;
894.9000;0.4729;0.8841;
895.2000;0.4705;0.8665;
895.5000;0.4737;0.8640;
895.8000;0.4746;0.8589;
896.1000;0.4705;0.8489;
896.4000;0.4705;0.8514;
896.7000;0.4721;0.8715;
897.0000;0.4737;0.8866;
897.3000;0.4713;0.8841;
897.6000;0.4737;0.8967;
897.9000;0.4721;0.8892;
898.2000;0.4729;0.8942;
898.5000;0.4705;0.8866;
898.8000;0.4754;0.8992;
899.1000;0.4713;0.8942;
899.4000;0.4746;0.8967;
899.7000;0.4705;0.8791;
900.0000;0.4721;0.8942;
900.3000;0.4729;0.8942;
900.6000;0.4697;0.8892;
900.9000;0.4746;0.8992;
901.2000;0.4721;0.8917;
901.5000;0.4746;0.9043;
901.8000;0.4721;0.8942;
902.1000;0.4737;0.8917;
902.4000;0.4713;0.8791;
902.7000;0.4713;0.8816;
903.0000;0.4746;0.8892;
903.3000;0.4689;0.8614;
903.6000;0.4729;0.8640;
903.9000;0.4737;0.8690;
904.2000;0.4721;0.8690;
904.5000;0.4746;0.8791;
904.8000;0.4713;0.8766;
905.1000;0.4729;0.8917;
905.4000;0.4729;0.8917;
905.7000;0.4770;0.8917;
906.0000;0.4705;0.8841;
906.3000;0.4729;0.8841;
906.6000;0.4713;0.8816;
906.9000;0.4729;0.8841;
907.2000;0.4721;0.8917;
907.5000;0.4721;0.8967;
907.8000;0.4778;0.9068;
908.1000;0.4754;0.9017;
908.4000;0.4721;0.8967;
908.7000;0.4721;0.8866;
909.0000;0.4697;0.8866;
909.3000;0.4713;0.8816;
909.6000;0.4729;0.8816;
909.9000;0.4705;0.8740;
910.2000;0.4697;0.8640;
910.5000;0.4697;0.8589;
910.8000;0.4746;0.8640;
911.1000;0.4770;0.8791;
911.4000;0.4697;0.8665;
911.7000;0.4705;0.8640;
912.0000;0.4754;0.8816;
912.3000;0.4721;0.8740;
912.6000;0.4705;0.8690;
912.9000;0.4770;0.8816;
913.2000;0.4729;0.8791;
913.5000;0.4721;0.8766;
913.8000;0.4729;0.8715;
914.1000;0.4697;0.8614;
914.4000;0.4721;0.8665;
914.7000;0.4737;0.8715;
915.0000;0.4737;0.8640;
915.3000;0.4697;0.8438;
915.6000;0.4746;0.8564;
915.9000;0.4705;0.8539;
916.2000;0.4713;0.8514;
916.5000;0.4729;0.8589;
916.8000;0.4746;0.8640;
917.1000;0.4737;0.8539;
917.4000;0.4705;0.8539;
917.7000;0.4721;0.8589;
918.0000;0.4705;0.8564;
918.3000;0.4697;0.8514;
918.6000;0.4713;0.8514;
918.9000;0.4713;0.8564;
919.2000;0.4794;0.8715;
919.5000;0.4729;0.8614;
919.8000;0.4721;0.8640;
920.1000;0.4721;0.8690;
920.4000;0.4729;0.8715;
920.7000;0.4737;0.8766;
921.0000;0.4754;0.8715;
921.3000;0.4746;0.8665;
921.6000;0.4729;0.8564;
921.9000;0.4721;0.8463;
922.2000;0.4721;0.8514;
922.5000;0.4697;0.8463;
922.8000;0.4713;0.8489;
923.1000;0.4705;0.8363;
923.4000;0.4713;0.8564;
923.7000;0.4729;0.8665;
924.0000;0.4778;0.8866;
924.3000;0.4737;0.8740;
924.6000;0.4746;0.8791;
924.9000;0.4721;0.8791;
925.2000;0.4721;0.8816;
925.5000;0.4729;0.8766;
925.8000;0.4713;0.8740;
926.1000;0.4746;0.8816;
926.4000;0.4697;0.8766;
926.7000;0.4754;0.8841;
927.0000;0.4721;0.8740;
927.3000;0.4729;0.8791;
927.6000;0.4721;0.8740;
927.9000;0.4721;0.8690;
928.2000;0.4721;0.8715;
928.5000;0.4721;0.8715;
928.8000;0.4721;0.8614;
929.1000;0.4737;0.8715;
929.4000;0.4713;0.8614;
929.7000;0.4754;0.8665;
930.0000;0.4794;0.8640;
930.3000;0.4721;0.8363;
930.6000;0.4713;0.8413;
930.9000;0.4729;0.8514;
931.2000;0.4721;0.8614;
931.5000;0.4721;0.8539;
931.8000;0.4721;0.8514;
932.1000;0.4770;0.8690;
932.4000;0.4729;0.8640;
932.7000;0.4705;0.8489;
933.0000;0.4705;0.8489;
933.3000;0.4721;0.8539;
933.6000;0.4746;0.8614;
933.9000;0.4705;0.8489;
934.2000;0.4721;0.8589;
934.5000;0.4705;0.8564;
934.8000;0.4721;0.8640;
935.1000;0.4762;0.8766;
935.4000;0.4705;0.8715;
935.7000;0.4729;0.8791;
936.0000;0.4721;0.8715;
936.3000;0.4656;0.8589;
936.6000;0.4689;0.8766;
936.9000;0.4754;0.8866;
937.2000;0.4697;0.8740;
937.5000;0.4721;0.8766;
937.8000;0.4656;0.8514;
938.1000;0.4689;0.8539;
938.4000;0.4689;0.8589;
938.7000;0.4721;0.8589;
939.0000;0.4713;0.8564;
939.3000;0.4762;0.8690;
939.6000;0.4762;0.8640;
939.9000;0.4721;0.8589;
940.2000;0.4713;0.8665;
940.5000;0.4689;0.8564;
940.8000;0.4705;0.8589;
941.1000;0.4713;0.8614;
941.4000;0.4705;0.8589;
941.7000;0.4713;0.8614;
942.0000;0.4721;0.8690;
942.3000;0.4689;0.8539;
942.6000;0.4713;0.8589;
942.9000;0.4697;0.8640;
943.2000;0.4705;0.8614;
943.5000;0.4713;0.8715;
943.8000;0.4697;0.8665;
944.1000;0.4737;0.8791;
944.4000;0.4697;0.8640;
944.7000;0.4689;0.8589;
945.0000;0.4721;0.8640;
945.3000;0.4705;0.8640;
945.6000;0.4705;0.8665;
945.9000;0.4689;0.8740;
946.2000;0.4713;0.8715;
946.5000;0.4689;0.8589;
946.8000;0.4705;0.8614;
947.1000;0.4697;0.8690;
947.4000;0.4672;0.8640;
947.7000;0.4672;0.8665;
948.0000;0.4713;0.8740;
948.3000;0.4705;0.8665;
948.6000;0.4705;0.8690;
948.9000;0.4697;0.8715;
949.2000;0.4746;0.8841;
949.5000;0.4705;0.8791;
949.8000;0.4681;0.8740;
950.1000;0.4754;0.8841;
950.4000;0.4729;0.8841;
950.7000;0.4754;0.8866;
951.0000;0.4705;0.8665;
951.3000;0.4737;0.8740;
951.6000;0.4729;0.8715;
951.9000;0.4713;0.8665;
952.2000;0.4697;0.8715;
952.5000;0.4697;0.8791;
952.8000;0.4697;0.8791;
953.1000;0.4729;0.8892;
953.4000;0.4721;0.8866;
953.7000;0.4729;0.8917;
954.0000;0.4713;0.8791;
954.3000;0.4705;0.8766;
954.6000;0.4713;0.8791;
954.9000;0.4713;0.8866;
955.2000;0.4713;0.8917;
955.5000;0.4656;0.8614;
955.8000;0.4705;0.8665;
956.1000;0.4681;0.8564;
956.4000;0.4746;0.8640;
956.7000;0.4729;0.8564;
957.0000;0.4689;0.8489;
957.3000;0.4705;0.8665;
957.6000;0.4689;0.8614;
957.9000;0.4672;0.8589;
958.2000;0.4713;0.8665;
958.5000;0.4746;0.8665;
958.8000;0.4713;0.8614;
959.1000;0.4729;0.8690;
959.4000;0.4729;0.8665;
959.7000;0.4729;0.8665;
960.0000;0.4705;0.8841;
960.3000;0.4705;0.8917;
960.6000;0.4729;0.8841;
960.9000;0.4713;0.8866;
961.2000;0.4697;0.8791;
961.5000;0.4713;0.8892;
961.8000;0.4713;0.8917;
962.1000;0.4721;0.8892;
962.4000;0.4721;0.8942;
962.7000;0.4705;0.8866;
963.0000;0.4705;0.8866;
963.3000;0.4713;0.8841;
963.6000;0.4689;0.8715;
963.9000;0.4713;0.8690;
964.2000;0.4697;0.8715;
964.5000;0.4697;0.8640;
964.8000;0.4697;0.8564;
965.1000;0.4681;0.8463;
965.4000;0.4713;0.8665;
965.7000;0.4705;0.8766;
966.0000;0.4713;0.8766;
966.3000;0.4705;0.8740;
966.6000;0.4705;0.8740;
966.9000;0.4697;0.8715;
967.2000;0.4705;0.8766;
967.5000;0.4713;0.8816;
967.8000;0.4689;0.8791;
968.1000;0.4681;0.8715;
968.4000;0.4697;0.8791;
968.7000;0.4689;0.8766;
969.0000;0.4697;0.8816;
969.3000;0.4729;0.8841;
969.6000;0.4705;0.8791;
969.9000;0.4705;0.8766;
970.2000;0.4705;0.8740;
970.5000;0.4705;0.8816;
970.8000;0.4729;0.8740;
971.1000;0.4729;0.8766;
971.4000;0.4689;0.8740;
971.7000;0.4672;0.8816;
972.0000;0.4705;0.8892;
972.3000;0.4672;0.8841;
972.6000;0.4672;0.8841;
972.9000;0.4713;0.8942;
973.2000;0.4705;0.9068;
973.5000;0.4705;0.8967;
973.8000;0.4705;0.8942;
974.1000;0.4705;0.8967;
974.4000;0.4713;0.8967;
974.7000;0.4697;0.8942;
975.0000;0.4672;0.8816;
975.3000;0.4713;0.9118;
975.6000;0.4697;0.9017;
975.9000;0.4737;0.9043;
976.2000;0.4697;0.8791;
976.5000;0.4697;0.8740;
976.8000;0.4705;0.8665;
977.1000;0.4697;0.8589;
977.4000;0.4681;0.8589;
977.7000;0.4697;0.8766;
978.0000;0.4705;0.8690;
978.3000;0.4672;0.8489;
978.6000;0.4721;0.8665;
978.9000;0.4713;0.8690;
979.2000;0.4705;0.8766;
979.5000;0.4705;0.8740;
979.8000;0.4705;0.8766;
980.1000;0.4705;0.8816;
980.4000;0.4737;0.9068;
980.7000;0.4681;0.8917;
981.0000;0.4672;0.8841;
981.3000;0.4705;0.8942;
981.6000;0.4689;0.8791;
981.9000;0.4705;0.8816;
982.2000;0.4705;0.8715;
982.5000;0.4729;0.8816;
982.8000;0.4713;0.8791;
983.1000;0.4697;0.8690;
983.4000;0.4648;0.8539;
983.7000;0.4705;0.8715;
984.0000;0.4729;0.8791;
984.3000;0.4697;0.8690;
984.6000;0.4713;0.8715;
984.9000;0.4705;0.8715;
985.2000;0.4689;0.8690;
985.5000;0.4697;0.8690;
985.8000;0.4705;0.8791;
986.1000;0.4705;0.8866;
986.4000;0.4705;0.8892;
986.7000;0.4713;0.8967;
987.0000;0.4705;0.9043;
987.3000;0.4705;0.8992;
987.6000;0.4697;0.8967;
987.9000;0.4672;0.8841;
988.2000;0.4705;0.8892;
988.5000;0.4697;0.8866;
988.8000;0.4705;0.8866;
989.1000;0.4697;0.8866;
989.4000;0.4713;0.8917;
989.7000;0.4697;0.8967;
990.0000;0.4713;0.9017;
990.3000;0.4705;0.9118;
990.6000;0.4721;0.9143;
990.9000;0.4705;0.9143;
991.2000;0.4705;0.9143;
991.5000;0.4705;0.9169;
991.8000;0.4705;0.9118;
992.1000;0.4713;0.9143;
992.4000;0.4713;0.9093;
992.7000;0.4713;0.9068;
993.0000;0.4689;0.9068;
993.3000;0.4681;0.9043;
993.6000;0.4681;0.8992;
993.9000;0.4697;0.8967;
994.2000;0.4697;0.8917;
994.5000;0.4656;0.8816;
994.8000;0.4697;0.9017;
995.1000;0.4607;0.8816;
995.4000;0.4689;0.9093;
995.7000;0.4729;0.9143;
996.0000;0.4689;0.9043;
996.3000;0.4705;0.9043;
996.6000;0.4705;0.9017;
996.9000;0.4672;0.8917;
997.2000;0.4713;0.8992;
997.5000;0.4705;0.9043;
997.8000;0.4689;0.8866;
998.1000;0.4705;0.8967;
998.4000;0.4689;0.8942;
998.7000;0.4770;0.9295;
999.0000;0.4705;0.9093;
999.3000;0.4681;0.9043;
999.6000;0.4697;0.8992;
999.9000;0.4754;0.9118;
1000.2000;0.4705;0.8992;
1000.5000;0.4697;0.8967;
1000.8000;0.4729;0.9068;
1001.1000;0.4705;0.9043;
1001.4000;0.4705;0.9043;
1001.7000;0.4705;0.8967;
1002.0000;0.4713;0.9017;
1002.3000;0.4689;0.8942;
1002.6000;0.4721;0.9017;
1002.9000;0.4705;0.8917;
1003.2000;0.4697;0.8892;
1003.5000;0.4697;0.8917;
1003.8000;0.4705;0.8967;
1004.1000;0.4729;0.9017;
1004.4000;0.4705;0.8967;
1004.7000;0.4705;0.8967;
1005.0000;0.4729;0.9043;
1005.3000;0.4794;0.9194;
1005.6000;0.4713;0.8992;
1005.9000;0.4697;0.8917;
1006.2000;0.4721;0.9068;
1006.5000;0.4697;0.9093;
1006.8000;0.4624;0.8816;
1007.1000;0.4689;0.8942;
1007.4000;0.4729;0.8942;
1007.7000;0.4705;0.8942;
1008.0000;0.4697;0.8992;
1008.3000;0.4681;0.8992;
1008.6000;0.4697;0.9017;
1008.9000;0.4689;0.8942;
1009.2000;0.4664;0.8816;
1009.5000;0.4697;0.8917;
1009.8000;0.4737;0.9043;
1010.1000;0.4689;0.8917;
1010.4000;0.4697;0.8992;
1010.7000;0.4705;0.8942;
1011.0000;0.4705;0.8917;
1011.3000;0.4697;0.8892;
1011.6000;0.4713;0.8967;
1011.9000;0.4689;0.8942;
1012.2000;0.4689;0.9017;
1012.5000;0.4705;0.9068;
1012.8000;0.4827;0.9446;
1013.1000;0.4681;0.9143;
1013.4000;0.4713;0.9143;
1013.7000;0.4681;0.9017;
1014.0000;0.4697;0.9017;
1014.3000;0.4705;0.9043;
1014.6000;0.4697;0.9043;
1014.9000;0.4721;0.9068;
1015.2000;0.4689;0.8942;
1015.5000;0.4721;0.8992;
1015.8000;0.4640;0.8791;
1016.1000;0.4697;0.8967;
1016.4000;0.4689;0.8992;
1016.7000;0.4705;0.9017;
1017.0000;0.4705;0.9017;
1017.3000;0.4689;0.8917;
1017.6000;0.4705;0.8967;
1017.9000;0.4713;0.9068;
1018.2000;0.4705;0.9043;
1018.5000;0.4697;0.9017;
1018.8000;0.4705;0.8992;
1019.1000;0.4713;0.8992;
1019.4000;0.4689;0.8942;
1019.7000;0.4664;0.8942;
1020.0000;0.4705;0.9017;
1020.3000;0.4713;0.9093;
1020.6000;0.4713;0.9017;
1020.9000;0.4697;0.8992;
1021.2000;0.4713;0.9017;
1021.5000;0.4705;0.8992;
1021.8000;0.4689;0.8917;
1022.1000;0.4697;0.8892;
1022.4000;0.4689;0.8841;
1022.7000;0.4681;0.8892;
1023.0000;0.4713;0.8942;
1023.3000;0.4697;0.8917;
1023.6000;0.4689;0.8866;
1023.9000;0.4746;0.9043;
1024.2000;0.4705;0.8942;
1024.5000;0.4697;0.8892;
1024.8000;0.4697;0.8866;
1025.1000;0.4697;0.8841;
1025.4000;0.4705;0.8866;
1025.7000;0.4713;0.8917;
1026.0000;0.4705;0.8992;
1026.3000;0.4729;0.9118;
1026.6000;0.4672;0.8942;
1026.9000;0.4713;0.9093;
1027.2000;0.4697;0.9043;
1027.5000;0.4689;0.9093;
1027.8000;0.4721;0.9118;
1028.1000;0.4681;0.8942;
1028.4000;0.4697;0.8917;
1028.7000;0.4697;0.8917;
1029.0000;0.4689;0.8917;
1029.3000;0.4689;0.8866;
1029.6000;0.4697;0.8992;
1029.9000;0.4689;0.8917;
1030.2000;0.4681;0.8917;
1030.5000;0.4689;0.8967;
1030.8000;0.4689;0.9068;
1031.1000;0.4681;0.8892;
1031.4000;0.4689;0.8942;
1031.7000;0.4672;0.8917;
1032.0000;0.4681;0.9043;
1032.3000;0.4681;0.9068;
1032.6000;0.4681;0.9118;
1032.9000;0.4754;0.9244;
1033.2000;0.4713;0.9143;
1033.5000;0.4689;0.9093;
1033.8000;0.4721;0.9194;
1034.1000;0.4713;0.9194;
1034.4000;0.4705;0.9043;
1034.7000;0.4729;0.9068;
1035.0000;0.4689;0.8967;
1035.3000;0.4689;0.8892;
1035.6000;0.4689;0.8866;
1035.9000;0.4681;0.8892;
1036.2000;0.4697;0.8892;
1036.5000;0.4697;0.8892;
1036.8000;0.4729;0.8942;
1037.1000;0.4697;0.8942;
1037.4000;0.4689;0.8942;
1037.7000;0.4713;0.9043;
1038.0000;0.4681;0.8967;
1038.3000;0.4705;0.8992;
1038.6000;0.4681;0.8967;
1038.9000;0.4697;0.8917;
1039.2000;0.4705;0.8992;
1039.5000;0.4705;0.8942;
1039.8000;0.4689;0.8967;
1040.1000;0.4681;0.8917;
1040.4000;0.4697;0.8967;
1040.7000;0.4681;0.8917;
1041.0000;0.4681;0.8740;
1041.3000;0.4697;0.8816;
1041.6000;0.4729;0.8866;
1041.9000;0.4689;0.8715;
1042.2000;0.4705;0.8589;
1042.5000;0.4672;0.8589;
1042.8000;0.4697;0.8791;
1043.1000;0.4705;0.8866;
1043.4000;0.4689;0.8816;
1043.7000;0.4640;0.8766;
1044.0000;0.4624;0.8715;
1044.3000;0.4664;0.8892;
1044.6000;0.4737;0.9143;
1044.9000;0.4672;0.8967;
1045.2000;0.4672;0.8917;
1045.5000;0.4681;0.8892;
1045.8000;0.4697;0.8967;
1046.1000;0.4672;0.8917;
1046.4000;0.4689;0.8942;
1046.7000;0.4681;0.8942;
1047.0000;0.4705;0.8942;
1047.3000;0.4681;0.8816;
1047.6000;0.4672;0.8715;
1047.9000;0.4681;0.8816;
1048.2000;0.4689;0.8942;
1048.5000;0.4697;0.8942;
1048.8000;0.4705;0.8892;
1049.1000;0.4778;0.9068;
1049.4000;0.4672;0.8816;
1049.7000;0.4705;0.8866;
1050.0000;0.4664;0.8892;
1050.3000;0.4689;0.8892;
1050.6000;0.4705;0.8917;
1050.9000;0.4615;0.8740;
1051.2000;0.4689;0.8917;
1051.5000;0.4697;0.8942;
1051.8000;0.4681;0.8766;
1052.1000;0.4713;0.8866;
1052.4000;0.4681;0.8740;
1052.7000;0.4705;0.8841;
1053.0000;0.4681;0.8892;
1053.3000;0.4689;0.8892;
1053.6000;0.4689;0.8967;
1053.9000;0.4697;0.9017;
1054.2000;0.4689;0.8942;
1054.5000;0.4681;0.8892;
1054.8000;0.4681;0.8841;
1055.1000;0.4689;0.8791;
1055.4000;0.4697;0.8816;
1055.7000;0.4697;0.8967;
1056.0000;0.4721;0.8967;
1056.3000;0.4705;0.8917;
1056.6000;0.4697;0.8942;
1056.9000;0.4721;0.9017;
1057.2000;0.4672;0.8942;
1057.5000;0.4713;0.9017;
1057.8000;0.4697;0.8917;
1058.1000;0.4672;0.8841;
1058.4000;0.4672;0.8791;
1058.7000;0.4713;0.8917;
1059.0000;0.4697;0.8841;
1059.3000;0.4721;0.8892;
1059.6000;0.4689;0.8892;
1059.9000;0.4664;0.8816;
1060.2000;0.4689;0.8740;
1060.5000;0.4681;0.8690;
1060.8000;0.4697;0.8690;
1061.1000;0.4681;0.8766;
1061.4000;0.4697;0.8841;
1061.7000;0.4697;0.8841;
1062.0000;0.4681;0.8791;
1062.3000;0.4689;0.8791;
1062.6000;0.4697;0.8766;
1062.9000;0.4681;0.8766;
1063.2000;0.4681;0.8766;
1063.5000;0.4681;0.8816;
1063.8000;0.4681;0.8766;
1064.1000;0.4640;0.8640;
1064.4000;0.4672;0.8740;
1064.7000;0.4689;0.8766;
1065.0000;0.4737;0.8892;
1065.3000;0.4705;0.8816;
1065.6000;0.4689;0.8866;
1065.9000;0.4689;0.8816;
1066.2000;0.4664;0.8791;
1066.5000;0.4689;0.8841;
1066.8000;0.4697;0.8917;
1067.1000;0.4697;0.8866;
1067.4000;0.4705;0.8816;
1067.7000;0.4770;0.8917;
1068.0000;0.4681;0.8589;
1068.3000;0.4697;0.8690;
1068.6000;0.4689;0.8715;
1068.9000;0.4705;0.8816;
1069.2000;0.4689;0.8816;
1069.5000;0.4672;0.8791;
1069.8000;0.4705;0.8841;
1070.1000;0.4746;0.9068;
1070.4000;0.4689;0.9017;
1070.7000;0.4681;0.8866;
1071.0000;0.4640;0.8816;
1071.3000;0.4697;0.8816;
1071.6000;0.4681;0.8791;
1071.9000;0.4754;0.8942;
1072.2000;0.4689;0.8766;
1072.5000;0.4705;0.8816;
1072.8000;0.4713;0.8942;
1073.1000;0.4729;0.9017;
1073.4000;0.4713;0.9017;
1073.7000;0.4697;0.8892;
1074.0000;0.4705;0.8967;
1074.3000;0.4705;0.8942;
1074.6000;0.4689;0.8942;
1074.9000;0.4729;0.8992;
1075.2000;0.4697;0.8967;
1075.5000;0.4689;0.8841;
1075.8000;0.4705;0.8766;
1076.1000;0.4689;0.8740;
1076.4000;0.4681;0.8766;
1076.7000;0.4689;0.8841;
1077.0000;0.4705;0.8866;
1077.3000;0.4697;0.8766;
1077.6000;0.4705;0.8791;
1077.9000;0.4689;0.8740;
1078.2000;0.4656;0.8665;
1078.5000;0.4713;0.8766;
1078.8000;0.4689;0.8665;
1079.1000;0.4705;0.8589;
1079.4000;0.4672;0.8539;
1079.7000;0.4664;0.8589;
1080.0000;0.4689;0.8791;
1080.3000;0.4697;0.8791;
1080.6000;0.4713;0.8866;
1080.9000;0.4664;0.8791;
1081.2000;0.4664;0.8816;
1081.5000;0.4697;0.8816;
1081.8000;0.4697;0.8816;
1082.1000;0.4672;0.8841;
1082.4000;0.4615;0.8614;
1082.7000;0.4681;0.8740;
1083.0000;0.4689;0.8740;
1083.3000;0.4681;0.8766;
1083.6000;0.4681;0.8791;
1083.9000;0.4689;0.8740;
1084.2000;0.4681;0.8740;
1084.5000;0.4681;0.8791;
1084.8000;0.4697;0.8841;
1085.1000;0.4681;0.8766;
1085.4000;0.4721;0.8791;
1085.7000;0.4697;0.8740;
1086.0000;0.4697;0.8791;
1086.3000;0.4689;0.8791;
1086.6000;0.4656;0.8715;
1086.9000;0.4697;0.8640;
1087.2000;0.4713;0.8715;
1087.5000;0.4672;0.8589;
1087.8000;0.4705;0.8690;
1088.1000;0.4697;0.8766;
1088.4000;0.4689;0.8715;
1088.7000;0.4672;0.8589;
1089.0000;0.4681;0.8740;
1089.3000;0.4713;0.8841;
1089.6000;0.4681;0.8816;
1089.9000;0.4689;0.8816;
1090.2000;0.4672;0.8816;
1090.5000;0.4697;0.8942;
1090.8000;0.4672;0.8892;
1091.1000;0.4681;0.8892;
1091.4000;0.4697;0.8816;
1091.7000;0.4697;0.8791;
1092.0000;0.4681;0.8690;
1092.3000;0.4689;0.8690;
1092.6000;0.4689;0.8690;
1092.9000;0.4705;0.8892;
1093.2000;0.4689;0.8967;
1093.5000;0.4689;0.8992;
1093.8000;0.4656;0.8917;
1094.1000;0.4697;0.9068;
1094.4000;0.4705;0.9043;
1094.7000;0.4672;0.8942;
1095.0000;0.4672;0.8892;
1095.3000;0.4689;0.8942;
1095.6000;0.4705;0.8942;
1095.9000;0.4681;0.8942;
1096.2000;0.4664;0.8766;
1096.5000;0.4689;0.8740;
1096.8000;0.4681;0.8791;
1097.1000;0.4705;0.8715;
1097.4000;0.4705;0.8791;
1097.7000;0.4689;0.8841;
1098.0000;0.4697;0.8791;
1098.3000;0.4737;0.8841;
1098.6000;0.4697;0.8791;
1098.9000;0.4689;0.8740;
1099.2000;0.4705;0.8740;
1099.5000;0.4697;0.8715;
1099.8000;0.4672;0.8715;
1100.1000;0.4681;0.8715;
1100.4000;0.4689;0.8715;
1100.7000;0.4697;0.8816;
1101.0000;0.4713;0.8791;
1101.3000;0.4681;0.8740;
1101.6000;0.4689;0.8791;
1101.9000;0.4697;0.8866;
1102.2000;0.4697;0.8841;
1102.5000;0.4689;0.8841;
1102.8000;0.4689;0.8917;
1103.1000;0.4672;0.8866;
1103.4000;0.4729;0.9093;
1103.7000;0.4689;0.9093;
1104.0000;0.4664;0.9017;
1104.3000;0.4632;0.8841;
1104.6000;0.4648;0.8942;
1104.9000;0.4672;0.8992;
1105.2000;0.4689;0.9043;
1105.5000;0.4681;0.9068;
1105.8000;0.4664;0.8942;
1106.1000;0.4681;0.9017;
1106.4000;0.4681;0.8967;
1106.7000;0.4689;0.8992;
1107.0000;0.4697;0.8992;
1107.3000;0.4689;0.9043;
1107.6000;0.4681;0.8967;
1107.9000;0.4689;0.8967;
1108.2000;0.4697;0.9017;
1108.5000;0.4689;0.8992;
1108.8000;0.4713;0.9017;
1109.1000;0.4681;0.8967;
1109.4000;0.4656;0.9017;
1109.7000;0.4689;0.9068;
1110.0000;0.4681;0.9068;
1110.3000;0.4681;0.9043;
1110.6000;0.4697;0.9219;
1110.9000;0.4697;0.9194;
1111.2000;0.4705;0.9169;
1111.5000;0.4705;0.9295;
1111.8000;0.4705;0.9295;
1112.1000;0.4681;0.9269;
1112.4000;0.4681;0.9169;
1112.7000;0.4672;0.9068;
1113.0000;0.4648;0.8967;
1113.3000;0.4721;0.9093;
1113.6000;0.4672;0.8992;
1113.9000;0.4778;0.9295;
1114.2000;0.4681;0.9118;
1114.5000;0.4762;0.9345;
1114.8000;0.4689;0.9219;
1115.1000;0.4681;0.9194;
1115.4000;0.4681;0.9169;
1115.7000;0.4689;0.9169;
1116.0000;0.4697;0.9068;
1116.3000;0.4664;0.8967;
1116.6000;0.4681;0.9017;
1116.9000;0.4697;0.9017;
1117.2000;0.4689;0.9068;
1117.5000;0.4721;0.9143;
1117.8000;0.4681;0.9068;
1118.1000;0.4664;0.9093;
1118.4000;0.4689;0.9118;
1118.7000;0.4697;0.9143;
1119.0000;0.4689;0.9169;
1119.3000;0.4697;0.9194;
1119.6000;0.4713;0.9320;
1119.9000;0.4713;0.9244;
1120.2000;0.4664;0.9043;
1120.5000;0.4681;0.9093;
1120.8000;0.4664;0.9017;
1121.1000;0.4689;0.9017;
1121.4000;0.4689;0.9169;
1121.7000;0.4689;0.9219;
1122.0000;0.4713;0.9244;
1122.3000;0.4664;0.9143;
1122.6000;0.4705;0.9269;
1122.9000;0.4681;0.9169;
1123.2000;0.4705;0.9169;
1123.5000;0.4689;0.9093;
1123.8000;0.4681;0.9093;
1124.1000;0.4705;0.9143;
1124.4000;0.4656;0.8942;
1124.7000;0.4689;0.9017;
1125.0000;0.4705;0.9068;
1125.3000;0.4672;0.9043;
1125.6000;0.4697;0.9093;
1125.9000;0.4681;0.9093;
1126.2000;0.4705;0.9118;
1126.5000;0.4697;0.9118;
1126.8000;0.4705;0.9169;
1127.1000;0.4697;0.9143;
1127.4000;0.4721;0.9068;
1127.7000;0.4689;0.9093;
1128.0000;0.4681;0.8992;
1128.3000;0.4672;0.9017;
1128.6000;0.4689;0.9118;
1128.9000;0.4705;0.9169;
1129.2000;0.4656;0.9118;
1129.5000;0.4672;0.9194;
1129.8000;0.4697;0.9169;
1130.1000;0.4681;0.9068;
1130.4000;0.4672;0.9068;
1130.7000;0.4672;0.9017;
1131.0000;0.4689;0.9043;
1131.3000;0.4656;0.8892;
1131.6000;0.4689;0.9017;
1131.9000;0.4681;0.8967;
1132.2000;0.4689;0.8866;
1132.5000;0.4689;0.8892;
1132.8000;0.4705;0.8892;
1133.1000;0.4689;0.8892;
1133.4000;0.4607;0.8740;
1133.7000;0.4656;0.8942;
1134.0000;0.4689;0.9068;
1134.3000;0.4672;0.9093;
1134.6000;0.4681;0.9043;
1134.9000;0.4689;0.9093;
1135.2000;0.4697;0.9017;
1135.5000;0.4689;0.8967;
1135.8000;0.4681;0.8892;
1136.1000;0.4697;0.8892;
1136.4000;0.4672;0.8866;
1136.7000;0.4681;0.8967;
1137.0000;0.4672;0.8992;
1137.3000;0.4672;0.9017;
1137.6000;0.4689;0.8992;
1137.9000;0.4778;0.9269;
1138.2000;0.4689;0.8967;
1138.5000;0.4697;0.9017;
1138.8000;0.4672;0.8917;
1139.1000;0.4672;0.8892;
1139.4000;0.4672;0.8866;
1139.7000;0.4681;0.8841;
1140.0000;0.4672;0.8866;
1140.3000;0.4672;0.8892;
1140.6000;0.4689;0.8917;
1140.9000;0.4664;0.8766;
1141.2000;0.4689;0.8816;
1141.5000;0.4681;0.8791;
1141.8000;0.4681;0.8816;
1142.1000;0.4672;0.8766;
1142.4000;0.4681;0.8841;
1142.7000;0.4697;0.8841;
1143.0000;0.4713;0.8942;
1143.3000;0.4681;0.8917;
1143.6000;0.4672;0.8917;
1143.9000;0.4705;0.8967;
1144.2000;0.4689;0.8942;
1144.5000;0.4689;0.9043;
1144.8000;0.4681;0.9219;
1145.1000;0.4729;0.9295;
1145.4000;0.4664;0.9043;
1145.7000;0.4672;0.9093;
1146.0000;0.4656;0.8942;
1146.3000;0.4615;0.8841;
1146.6000;0.4681;0.9017;
1146.9000;0.4672;0.8841;
1147.2000;0.4689;0.8866;
1147.5000;0.4697;0.8841;
1147.8000;0.4689;0.8866;
1148.1000;0.4681;0.8866;
1148.4000;0.4672;0.8866;
1148.7000;0.4656;0.8791;
1149.0000;0.4689;0.8892;
1149.3000;0.4697;0.8841;
1149.6000;0.4681;0.8866;
1149.9000;0.4664;0.8866;
1150.2000;0.4672;0.8917;
1150.5000;0.4705;0.9017;
1150.8000;0.4681;0.8942;
1151.1000;0.4681;0.8917;
1151.4000;0.4656;0.8942;
1151.7000;0.4697;0.9093;
1152.0000;0.4705;0.9118;
1152.3000;0.4632;0.8967;
1152.6000;0.4697;0.9093;
1152.9000;0.4672;0.9017;
1153.2000;0.4681;0.8992;
1153.5000;0.4697;0.9017;
1153.8000;0.4672;0.8992;
1154.1000;0.4664;0.9017;
1154.4000;0.4689;0.8992;
1154.7000;0.4705;0.9043;
1155.0000;0.4672;0.9017;
1155.3000;0.4697;0.9017;
1155.6000;0.4697;0.8816;
1155.9000;0.4681;0.8892;
1156.2000;0.4672;0.8866;
1156.5000;0.4672;0.8866;
1156.8000;0.4697;0.8992;
1157.1000;0.4672;0.8967;
1157.4000;0.4689;0.8967;
1157.7000;0.4705;0.9043;
1158.0000;0.4697;0.8967;
1158.3000;0.4689;0.8841;
1158.6000;0.4664;0.8816;
1158.9000;0.4729;0.9017;
1159.2000;0.4705;0.9017;
1159.5000;0.4681;0.8917;
1159.8000;0.4648;0.8791;
1160.1000;0.4656;0.8715;
1160.4000;0.4664;0.8816;
1160.7000;0.4697;0.8917;
1161.0000;0.4681;0.8866;
1161.3000;0.4672;0.8892;
1161.6000;0.4689;0.8892;
1161.9000;0.4705;0.8942;
1162.2000;0.4640;0.8791;
1162.5000;0.4681;0.8841;
1162.8000;0.4681;0.8917;
1163.1000;0.4689;0.8917;
1163.4000;0.4664;0.8892;
1163.7000;0.4656;0.8766;
1164.0000;0.4656;0.8640;
1164.3000;0.4689;0.8766;
1164.6000;0.4681;0.8715;
1164.9000;0.4672;0.8665;
1165.2000;0.4672;0.8614;
1165.5000;0.4689;0.8640;
1165.8000;0.4672;0.8665;
1166.1000;0.4672;0.8665;
1166.4000;0.4681;0.8715;
1166.7000;0.4681;0.8791;
1167.0000;0.4697;0.8816;
1167.3000;0.4640;0.8614;
1167.6000;0.4664;0.8690;
1167.9000;0.4729;0.8816;
1168.2000;0.4689;0.8766;
1168.5000;0.4672;0.8766;
1168.8000;0.4672;0.8740;
1169.1000;0.4672;0.8816;
1169.4000;0.4689;0.8942;
1169.7000;0.4672;0.8816;
1170.0000;0.4672;0.8866;
1170.3000;0.4632;0.8740;
1170.6000;0.4746;0.9093;
1170.9000;0.4697;0.8866;
1171.2000;0.4729;0.8917;
1171.5000;0.4681;0.8791;
1171.8000;0.4648;0.8665;
1172.1000;0.4664;0.8766;
1172.4000;0.4681;0.8841;
1172.7000;0.4664;0.8816;
1173.0000;0.4664;0.8766;
1173.3000;0.4672;0.8841;
1173.6000;0.4689;0.8942;
1173.9000;0.4689;0.8942;
1174.2000;0.4615;0.8690;
1174.5000;0.4681;0.8942;
1174.8000;0.4689;0.9017;
1175.1000;0.4681;0.8942;
1175.4000;0.4664;0.8917;
1175.7000;0.4672;0.8967;
1176.0000;0.4697;0.8942;
1176.3000;0.4672;0.8917;
1176.6000;0.4689;0.8892;
1176.9000;0.4689;0.8917;
1177.2000;0.4664;0.8816;
1177.5000;0.4729;0.9093;
1177.8000;0.4672;0.8917;
1178.1000;0.4672;0.8917;
1178.4000;0.4681;0.9017;
1178.7000;0.4689;0.8917;
1179.0000;0.4689;0.8992;
1179.3000;0.4681;0.8917;
1179.6000;0.4681;0.8967;
1179.9000;0.4681;0.9068;
1180.2000;0.4640;0.8917;
1180.5000;0.4664;0.8967;
1180.8000;0.4705;0.9017;
1181.1000;0.4705;0.8967;
1181.4000;0.4681;0.8942;
1181.7000;0.4689;0.8841;
1182.0000;0.4697;0.8892;
1182.3000;0.4689;0.8942;
1182.6000;0.4681;0.8866;
1182.9000;0.4746;0.9143;
1183.2000;0.4632;0.8841;
1183.5000;0.4697;0.9017;
1183.8000;0.4681;0.9068;
1184.1000;0.4721;0.9143;
1184.4000;0.4689;0.8942;
1184.7000;0.4681;0.8942;
1185.0000;0.4681;0.8992;
1185.3000;0.4681;0.9017;
1185.6000;0.4664;0.9017;
1185.9000;0.4672;0.9017;
1186.2000;0.4615;0.8866;
1186.5000;0.4664;0.8992;
1186.8000;0.4672;0.9043;
1187.1000;0.4664;0.8992;
1187.4000;0.4681;0.9068;
1187.7000;0.4672;0.8992;
1188.0000;0.4672;0.8967;
1188.3000;0.4672;0.8942;
1188.6000;0.4689;0.9043;
1188.9000;0.4689;0.8942;
1189.2000;0.4681;0.8917;
1189.5000;0.4656;0.8841;
1189.8000;0.4689;0.9043;
1190.1000;0.4689;0.9017;
1190.4000;0.4640;0.8816;
1190.7000;0.4681;0.8992;
1191.0000;0.4656;0.8841;
1191.3000;0.4697;0.8917;
1191.6000;0.4689;0.8967;
1191.9000;0.4689;0.9068;
1192.2000;0.4656;0.8992;
1192.5000;0.4672;0.9043;
1192.8000;0.4705;0.9068;
1193.1000;0.4681;0.8967;
1193.4000;0.4681;0.8992;
1193.7000;0.4681;0.8892;
1194.0000;0.4681;0.8866;
1194.3000;0.4664;0.8841;
1194.6000;0.4689;0.8892;
1194.9000;0.4721;0.8892;
1195.2000;0.4713;0.8866;
1195.5000;0.4689;0.8816;
1195.8000;0.4648;0.8816;
1196.1000;0.4681;0.8967;
1196.4000;0.4681;0.8892;
1196.7000;0.4664;0.8992;
1197.0000;0.4656;0.8992;
1197.3000;0.4672;0.9068;
1197.6000;0.4681;0.9093;
1197.9000;0.4681;0.9068;
1198.2000;0.4681;0.9068;
1198.5000;0.4681;0.9093;
1198.8000;0.4648;0.8992;
1199.1000;0.4681;0.9017;
1199.4000;0.4681;0.8992;
1199.7000;0.4689;0.9017;
1200.0000;0.4689;0.9017;
1200.3000;0.4754;0.9269;
1200.6000;0.4681;0.9093;
1200.9000;0.4697;0.9068;
1201.2000;0.4681;0.9093;
1201.5000;0.4681;0.9043;
1201.8000;0.4689;0.9017;
1202.1000;0.4681;0.8942;
1202.4000;0.4664;0.9017;
1202.7000;0.4689;0.9068;
1203.0000;0.4689;0.9093;
1203.3000;0.4672;0.9017;
1203.6000;0.4697;0.8992;
1203.9000;0.4624;0.8866;
1204.2000;0.4656;0.8967;
1204.5000;0.4681;0.8917;
1204.8000;0.4746;0.9017;
1205.1000;0.4672;0.8866;
1205.4000;0.4689;0.8841;
1205.7000;0.4664;0.8791;
1206.0000;0.4681;0.8866;
1206.3000;0.4672;0.8892;
1206.6000;0.4689;0.8967;
1206.9000;0.4664;0.8892;
1207.2000;0.4672;0.8892;
1207.5000;0.4681;0.8816;
1207.8000;0.4754;0.9043;
1208.1000;0.4689;0.8892;
1208.4000;0.4672;0.8791;
1208.7000;0.4672;0.8816;
1209.0000;0.4681;0.8816;
1209.3000;0.4689;0.8866;
1209.6000;0.4681;0.8816;
1209.9000;0.4697;0.8892;
1210.2000;0.4681;0.8816;
1210.5000;0.4672;0.8816;
1210.8000;0.4681;0.8841;
1211.1000;0.4664;0.8866;
1211.4000;0.4713;0.8967;
1211.7000;0.4681;0.8892;
1212.0000;0.4689;0.8942;
1212.3000;0.4721;0.9118;
1212.6000;0.4681;0.9043;
1212.9000;0.4697;0.9017;
1213.2000;0.4689;0.8967;
1213.5000;0.4681;0.9017;
1213.8000;0.4697;0.8992;
1214.1000;0.4705;0.8967;
1214.4000;0.4672;0.8942;
1214.7000;0.4697;0.8992;
1215.0000;0.4672;0.8917;
1215.3000;0.4819;0.9219;
1215.6000;0.4681;0.8766;
1215.9000;0.4664;0.8766;
1216.2000;0.4664;0.8841;
1216.5000;0.4648;0.8917;
1216.8000;0.4697;0.9017;
1217.1000;0.4681;0.8917;
1217.4000;0.4689;0.8917;
1217.7000;0.4656;0.8866;
1218.0000;0.4689;0.8892;
1218.3000;0.4689;0.8892;
1218.6000;0.4672;0.8766;
1218.9000;0.4705;0.8866;
1219.2000;0.4624;0.8690;
1219.5000;0.4689;0.8841;
1219.8000;0.4689;0.8892;
1220.1000;0.4681;0.8866;
1220.4000;0.4681;0.8917;
1220.7000;0.4681;0.8866;
1221.0000;0.4664;0.8740;
1221.3000;0.4664;0.8740;
1221.6000;0.4681;0.8791;
1221.9000;0.4640;0.8715;
1222.2000;0.4672;0.8740;
1222.5000;0.4672;0.8791;
1222.8000;0.4672;0.8766;
1223.1000;0.4737;0.8866;
1223.4000;0.4746;0.8917;
1223.7000;0.4681;0.8640;
1224.0000;0.4681;0.8740;
1224.3000;0.4689;0.8740;
1224.6000;0.4689;0.8791;
1224.9000;0.4656;0.8791;
1225.2000;0.4681;0.8866;
1225.5000;0.4672;0.8841;
1225.8000;0.4689;0.8917;
1226.1000;0.4664;0.8841;
1226.4000;0.4664;0.8816;
1226.7000;0.4705;0.8917;
1227.0000;0.4681;0.8866;
1227.3000;0.4705;0.8942;
1227.6000;0.4705;0.8917;
1227.9000;0.4705;0.8866;
1228.2000;0.4729;0.8942;
1228.5000;0.4689;0.8892;
1228.8000;0.4689;0.8942;
1229.1000;0.4697;0.8967;
1229.4000;0.4697;0.8917;
1229.7000;0.4705;0.8917;
1230.0000;0.4697;0.8917;
1230.3000;0.4697;0.8917;
1230.6000;0.4705;0.9017;
1230.9000;0.4705;0.9043;
1231.2000;0.4664;0.8892;
1231.5000;0.4681;0.8917;
1231.8000;0.4746;0.9043;
1232.1000;0.4672;0.8791;
1232.4000;0.4664;0.8740;
1232.7000;0.4697;0.8841;
1233.0000;0.4689;0.8841;
1233.3000;0.4689;0.8791;
1233.6000;0.4681;0.8791;
1233.9000;0.4681;0.8816;
1234.2000;0.4681;0.8766;
1234.5000;0.4689;0.8690;
1234.8000;0.4681;0.8665;
1235.1000;0.4737;0.8917;
1235.4000;0.4681;0.8816;
1235.7000;0.4664;0.8866;
1236.0000;0.4689;0.8892;
1236.3000;0.4672;0.8740;
1236.6000;0.4746;0.8942;
1236.9000;0.4664;0.8816;
1237.2000;0.4689;0.8766;
1237.5000;0.4648;0.8665;
1237.8000;0.4689;0.8766;
1238.1000;0.4721;0.8892;
1238.4000;0.4697;0.8892;
1238.7000;0.4689;0.8816;
1239.0000;0.4689;0.8816;
1239.3000;0.4689;0.8917;
1239.6000;0.4689;0.8967;
1239.9000;0.4689;0.8892;
1240.2000;0.4713;0.8967;
1240.5000;0.4681;0.8967;
1240.8000;0.4681;0.8992;
1241.1000;0.4681;0.9017;
1241.4000;0.4705;0.8967;
1241.7000;0.4689;0.8967;
1242.0000;0.4681;0.8942;
1242.3000;0.4640;0.8715;
1242.6000;0.4656;0.8766;
1242.9000;0.4672;0.8917;
1243.2000;0.4689;0.9043;
1243.5000;0.4697;0.9093;
1243.8000;0.4681;0.8992;
1244.1000;0.4681;0.9068;
1244.4000;0.4729;0.9143;
1244.7000;0.4697;0.9093;
1245.0000;0.4737;0.9118;
1245.3000;0.4599;0.8715;
1245.6000;0.4664;0.8942;
1245.9000;0.4672;0.9017;
1246.2000;0.4615;0.8892;
1246.5000;0.4664;0.8992;
1246.8000;0.4664;0.8967;
1247.1000;0.4681;0.8967;
1247.4000;0.4672;0.8942;
1247.7000;0.4672;0.9043;
1248.0000;0.4664;0.8992;
1248.3000;0.4681;0.9068;
1248.6000;0.4689;0.9068;
1248.9000;0.4689;0.9068;
1249.2000;0.4681;0.9093;
1249.5000;0.4689;0.9043;
1249.8000;0.4705;0.9093;
1250.1000;0.4697;0.9169;
1250.4000;0.4689;0.9143;
1250.7000;0.4705;0.9219;
1251.0000;0.4705;0.9320;
1251.3000;0.4681;0.9118;
1251.6000;0.4672;0.9043;
1251.9000;0.4664;0.8967;
1252.2000;0.4615;0.8816;
1252.5000;0.4681;0.9068;
1252.8000;0.4681;0.9017;
1253.1000;0.4656;0.8992;
1253.4000;0.4681;0.9169;
1253.7000;0.4672;0.9194;
1254.0000;0.4681;0.9194;
1254.3000;0.4681;0.9194;
1254.6000;0.4672;0.9143;
1254.9000;0.4705;0.9194;
1255.2000;0.4664;0.8992;
1255.5000;0.4672;0.9017;
1255.8000;0.4681;0.9017;
1256.1000;0.4681;0.9068;
1256.4000;0.4672;0.9017;
1256.7000;0.4656;0.9017;
1257.0000;0.4664;0.8942;
1257.3000;0.4664;0.8917;
1257.6000;0.4689;0.9017;
1257.9000;0.4664;0.8967;
1258.2000;0.4640;0.8892;
1258.5000;0.4664;0.8992;
1258.8000;0.4689;0.8992;
1259.1000;0.4705;0.9017;
1259.4000;0.4672;0.8992;
1259.7000;0.4697;0.9017;
1260.0000;0.4689;0.9043;
1260.3000;0.4689;0.8992;
1260.6000;0.4672;0.8967;
1260.9000;0.4754;0.9219;
1261.2000;0.4746;0.9219;
1261.5000;0.4664;0.8992;
1261.8000;0.4681;0.8967;
1262.1000;0.4713;0.9068;
1262.4000;0.4689;0.9017;
1262.7000;0.4689;0.9043;
1263.0000;0.4681;0.9043;
1263.3000;0.4689;0.8917;
1263.6000;0.4672;0.8967;
1263.9000;0.4681;0.9118;
1264.2000;0.4664;0.9068;
1264.5000;0.4681;0.9043;
1264.8000;0.4672;0.9068;
1265.1000;0.4689;0.9093;
1265.4000;0.4672;0.9118;
1265.7000;0.4672;0.9169;
1266.0000;0.4689;0.9143;
1266.3000;0.4672;0.9043;
1266.6000;0.4681;0.8892;
1266.9000;0.4664;0.8892;
1267.2000;0.4672;0.8917;
1267.5000;0.4697;0.8992;
1267.8000;0.4681;0.8992;
1268.1000;0.4681;0.9068;
1268.4000;0.4664;0.8992;
1268.7000;0.4689;0.9017;
1269.0000;0.4697;0.9068;
1269.3000;0.4754;0.9194;
1269.6000;0.4681;0.8967;
1269.9000;0.4672;0.8917;
1270.2000;0.4681;0.8942;
1270.5000;0.4672;0.8866;
1270.8000;0.4664;0.8892;
1271.1000;0.4656;0.8740;
1271.4000;0.4664;0.8866;
1271.7000;0.4681;0.8967;
1272.0000;0.4713;0.9017;
1272.3000;0.4672;0.8892;
1272.6000;0.4689;0.8942;
1272.9000;0.4664;0.8892;
1273.2000;0.4672;0.8917;
1273.5000;0.4689;0.8942;
1273.8000;0.4689;0.8992;
1274.1000;0.4656;0.8967;
1274.4000;0.4681;0.9068;
1274.7000;0.4681;0.9118;
1275.0000;0.4648;0.8917;
1275.3000;0.4672;0.9118;
1275.6000;0.4681;0.9068;
1275.9000;0.4672;0.9068;
1276.2000;0.4664;0.8942;
1276.5000;0.4689;0.9017;
1276.8000;0.4672;0.8967;
1277.1000;0.4648;0.8816;
1277.4000;0.4672;0.8892;
1277.7000;0.4672;0.8942;
1278.0000;0.4697;0.8992;
1278.3000;0.4681;0.8967;
1278.6000;0.4632;0.8816;
1278.9000;0.4681;0.8967;
1279.2000;0.4681;0.8967;
1279.5000;0.4681;0.8992;
1279.8000;0.4672;0.8967;
1280.1000;0.4648;0.8892;
1280.4000;0.4672;0.8917;
1280.7000;0.4664;0.8866;
1281.0000;0.4681;0.8992;
1281.3000;0.4672;0.8942;
1281.6000;0.4689;0.8967;
1281.9000;0.4697;0.8917;
1282.2000;0.4721;0.8992;
1282.5000;0.4689;0.8942;
1282.8000;0.4689;0.8992;
1283.1000;0.4689;0.9017;
1283.4000;0.4664;0.8992;
1283.7000;0.4664;0.9017;
1284.0000;0.4672;0.8992;
1284.3000;0.4664;0.8967;
1284.6000;0.4705;0.8942;
1284.9000;0.4689;0.8866;
1285.2000;0.4697;0.8841;
1285.5000;0.4689;0.8917;
1285.8000;0.4672;0.8917;
1286.1000;0.4697;0.9068;
1286.4000;0.4689;0.9017;
1286.7000;0.4664;0.8992;
1287.0000;0.4689;0.8942;
1287.3000;0.4632;0.8866;
1287.6000;0.4681;0.9017;
1287.9000;0.4656;0.8942;
1288.2000;0.4681;0.9017;
1288.5000;0.4737;0.9194;
1288.8000;0.4681;0.8967;
1289.1000;0.4664;0.8942;
1289.4000;0.4664;0.8892;
1289.7000;0.4689;0.9017;
1290.0000;0.4689;0.9118;
1290.3000;0.4664;0.9118;
1290.6000;0.4672;0.9169;
1290.9000;0.4632;0.8992;
1291.2000;0.4713;0.9068;
1291.5000;0.4681;0.8967;
1291.8000;0.4697;0.8892;
1292.1000;0.4689;0.8766;
1292.4000;0.4672;0.8841;
1292.7000;0.4681;0.8841;
1293.0000;0.4689;0.8892;
1293.3000;0.4672;0.8892;
1293.6000;0.4672;0.8967;
1293.9000;0.4672;0.8992;
1294.2000;0.4729;0.9194;
1294.5000;0.4681;0.9068;
1294.8000;0.4689;0.8992;
1295.1000;0.4656;0.8866;
1295.4000;0.4689;0.8917;
1295.7000;0.4697;0.8892;
1296.0000;0.4648;0.8715;
1296.3000;0.4672;0.8791;
1296.6000;0.4689;0.8841;
1296.9000;0.4713;0.8992;
1297.2000;0.4689;0.8992;
1297.5000;0.4681;0.9017;
1297.8000;0.4681;0.9093;
1298.1000;0.4672;0.9118;
1298.4000;0.4697;0.9068;
1298.7000;0.4672;0.8942;
1299.0000;0.4672;0.8942;
1299.3000;0.4689;0.9068;
1299.6000;0.4713;0.9118;
1299.9000;0.4664;0.8967;
1300.2000;0.4672;0.8967;
1300.5000;0.4705;0.9017;
1300.8000;0.4697;0.9043;
1301.1000;0.4689;0.8917;
1301.4000;0.4681;0.8791;
1301.7000;0.4640;0.8640;
1302.0000;0.4640;0.8564;
1302.3000;0.4681;0.8766;
1302.6000;0.4648;0.8740;
1302.9000;0.4664;0.8766;
1303.2000;0.4681;0.8816;
1303.5000;0.4681;0.8791;
1303.8000;0.4689;0.8892;
1304.1000;0.4672;0.8917;
1304.4000;0.4681;0.8917;
1304.7000;0.4705;0.8992;
1305.0000;0.4681;0.8866;
1305.3000;0.4681;0.8892;
1305.6000;0.4681;0.8892;
1305.9000;0.4705;0.8917;
1306.2000;0.4705;0.8967;
1306.5000;0.4672;0.8942;
1306.8000;0.4689;0.9043;
1307.1000;0.4689;0.9118;
1307.4000;0.4664;0.8967;
1307.7000;0.4689;0.9017;
1308.0000;0.4689;0.9068;
1308.3000;0.4681;0.9043;
1308.6000;0.4681;0.9017;
1308.9000;0.4697;0.9118;
1309.2000;0.4713;0.9169;
1309.5000;0.4672;0.8967;
1309.8000;0.4697;0.8967;
1310.1000;0.4713;0.9068;
1310.4000;0.4689;0.9017;
1310.7000;0.4705;0.8992;
1311.0000;0.4689;0.8967;
1311.3000;0.4656;0.8967;
1311.6000;0.4689;0.9017;
1311.9000;0.4672;0.9017;
1312.2000;0.4689;0.9118;
1312.5000;0.4672;0.8967;
1312.8000;0.4664;0.8992;
1313.1000;0.4681;0.9194;
1313.4000;0.4664;0.9068;
1313.7000;0.4672;0.9093;
1314.0000;0.4656;0.9093;
1314.3000;0.4656;0.9068;
1314.6000;0.4672;0.9118;
1314.9000;0.4689;0.9169;
1315.2000;0.4664;0.9068;
1315.5000;0.4672;0.9093;
1315.8000;0.4656;0.8942;
1316.1000;0.4689;0.9017;
1316.4000;0.4681;0.9017;
1316.7000;0.4689;0.9068;
1317.0000;0.4672;0.9017;
1317.3000;0.4640;0.8917;
1317.6000;0.4689;0.9093;
1317.9000;0.4672;0.9068;
1318.2000;0.4672;0.9017;
1318.5000;0.4689;0.9143;
1318.8000;0.4721;0.9143;
1319.1000;0.4697;0.9043;
1319.4000;0.4689;0.9017;
1319.7000;0.4656;0.8942;
1320.0000;0.4681;0.9118;
1320.3000;0.4689;0.8992;
1320.6000;0.4697;0.9093;
1320.9000;0.4689;0.9118;
1321.2000;0.4697;0.9143;
1321.5000;0.4672;0.9017;
1321.8000;0.4672;0.8992;
1322.1000;0.4672;0.8992;
1322.4000;0.4697;0.8992;
1322.7000;0.4689;0.8942;
1323.0000;0.4664;0.8917;
1323.3000;0.4672;0.8992;
1323.6000;0.4664;0.9068;
1323.9000;0.4672;0.9043;
1324.2000;0.4681;0.9017;
1324.5000;0.4664;0.8892;
1324.8000;0.4737;0.9169;
1325.1000;0.4672;0.8967;
1325.4000;0.4681;0.8992;
1325.7000;0.4656;0.8917;
1326.0000;0.4672;0.8917;
1326.3000;0.4681;0.8892;
1326.6000;0.4664;0.8841;
1326.9000;0.4681;0.8841;
1327.2000;0.4664;0.8866;
1327.5000;0.4681;0.8992;
1327.8000;0.4681;0.8942;
1328.1000;0.4664;0.8892;
1328.4000;0.4648;0.8942;
1328.7000;0.4664;0.8992;
1329.0000;0.4681;0.9093;
1329.3000;0.4656;0.8992;
1329.6000;0.4656;0.8992;
1329.9000;0.4681;0.9017;
1330.2000;0.4664;0.8942;
1330.5000;0.4672;0.9017;
1330.8000;0.4672;0.9017;
1331.1000;0.4672;0.8967;
1331.4000;0.4689;0.9017;
1331.7000;0.4689;0.9017;
1332.0000;0.4689;0.9043;
1332.3000;0.4664;0.9093;
1332.6000;0.4689;0.9068;
1332.9000;0.4672;0.9194;
1333.2000;0.4681;0.9143;
1333.5000;0.4664;0.9143;
1333.8000;0.4672;0.9219;
1334.1000;0.4681;0.9169;
1334.4000;0.4681;0.9093;
1334.7000;0.4664;0.9093;
1335.0000;0.4689;0.9118;
1335.3000;0.4705;0.9118;
1335.6000;0.4672;0.9068;
1335.9000;0.4681;0.9068;
1336.2000;0.4672;0.9093;
1336.5000;0.4672;0.9143;
1336.8000;0.4689;0.9118;
1337.1000;0.4664;0.8967;
1337.4000;0.4632;0.8866;
1337.7000;0.4681;0.9068;
1338.0000;0.4689;0.9093;
1338.3000;0.4648;0.9043;
1338.6000;0.4648;0.9118;
1338.9000;0.4656;0.9118;
1339.2000;0.4689;0.9194;
1339.5000;0.4681;0.9118;
1339.8000;0.4672;0.9169;
1340.1000;0.4656;0.9043;
1340.4000;0.4689;0.9017;
1340.7000;0.4640;0.8917;
1341.0000;0.4664;0.8967;
1341.3000;0.4672;0.8917;
1341.6000;0.4689;0.8942;
1341.9000;0.4697;0.8892;
1342.2000;0.4664;0.8791;
1342.5000;0.4672;0.8791;
1342.8000;0.4681;0.8866;
1343.1000;0.4656;0.8841;
1343.4000;0.4664;0.8892;
1343.7000;0.4689;0.8917;
1344.0000;0.4681;0.8917;
1344.3000;0.4664;0.8841;
1344.6000;0.4664;0.8917;
1344.9000;0.4681;0.8942;
1345.2000;0.4681;0.8917;
1345.5000;0.4681;0.8816;
1345.8000;0.4672;0.8866;
1346.1000;0.4672;0.8942;
1346.4000;0.4681;0.8992;
1346.7000;0.4656;0.8942;
1347.0000;0.4697;0.8992;
1347.3000;0.4656;0.8967;
1347.6000;0.4664;0.9043;
1347.9000;0.4705;0.9219;
1348.2000;0.4681;0.9118;
1348.5000;0.4664;0.9219;
1348.8000;0.4672;0.9194;
1349.1000;0.4681;0.9143;
1349.4000;0.4664;0.9043;
1349.7000;0.4672;0.9043;
1350.0000;0.4664;0.9043;
1350.3000;0.4681;0.9043;
1350.6000;0.4664;0.9017;
1350.9000;0.4689;0.9093;
1351.2000;0.4681;0.9068;
1351.5000;0.4689;0.9143;
1351.8000;0.4689;0.9068;
1352.1000;0.4705;0.9244;
1352.4000;0.4689;0.9093;
1352.7000;0.4672;0.9093;
1353.0000;0.4672;0.9118;
1353.3000;0.4664;0.9017;
1353.6000;0.4664;0.8917;
1353.9000;0.4664;0.8967;
1354.2000;0.4681;0.8942;
1354.5000;0.4681;0.8992;
1354.8000;0.4672;0.8992;
1355.1000;0.4672;0.8967;
1355.4000;0.4689;0.9118;
1355.7000;0.4672;0.9093;
1356.0000;0.4672;0.9143;
1356.3000;0.4672;0.9194;
1356.6000;0.4672;0.9143;
1356.9000;0.4713;0.9269;
1357.2000;0.4672;0.9194;
1357.5000;0.4672;0.9169;
1357.8000;0.4656;0.9143;
1358.1000;0.4672;0.9194;
1358.4000;0.4672;0.9143;
1358.7000;0.4640;0.9017;
1359.0000;0.4656;0.9068;
1359.3000;0.4664;0.9118;
1359.6000;0.4664;0.9093;
1359.9000;0.4664;0.9143;
1360.2000;0.4681;0.9169;
1360.5000;0.4648;0.9093;
1360.8000;0.4664;0.9043;
1361.1000;0.4664;0.9068;
1361.4000;0.4656;0.9017;
1361.7000;0.4664;0.9093;
1362.0000;0.4713;0.9345;
1362.3000;0.4672;0.9244;
1362.6000;0.4681;0.9269;
1362.9000;0.4672;0.9194;
1363.2000;0.4681;0.9194;
1363.5000;0.4672;0.9043;
1363.8000;0.4656;0.8992;
1364.1000;0.4648;0.8917;
1364.4000;0.4681;0.9068;
1364.7000;0.4672;0.9043;
1365.0000;0.4656;0.9068;
1365.3000;0.4672;0.9068;
1365.6000;0.4681;0.9118;
1365.9000;0.4697;0.9143;
1366.2000;0.4681;0.9043;
1366.5000;0.4681;0.9068;
1366.8000;0.4689;0.9143;
1367.1000;0.4705;0.9244;
1367.4000;0.4672;0.9244;
1367.7000;0.4681;0.9169;
1368.0000;0.4672;0.9093;
1368.3000;0.4672;0.9068;
1368.6000;0.4664;0.9043;
1368.9000;0.4648;0.8967;
1369.2000;0.4656;0.8992;
1369.5000;0.4672;0.9043;
1369.8000;0.4664;0.9118;
1370.1000;0.4624;0.8917;
1370.4000;0.4672;0.9043;
1370.7000;0.4664;0.9043;
1371.0000;0.4672;0.9017;
1371.3000;0.4672;0.9093;
1371.6000;0.4681;0.9043;
1371.9000;0.4689;0.9093;
1372.2000;0.4672;0.9169;
1372.5000;0.4664;0.9118;
1372.8000;0.4672;0.9118;
1373.1000;0.4705;0.9169;
1373.4000;0.4689;0.9068;
1373.7000;0.4689;0.9043;
1374.0000;0.4705;0.9068;
1374.3000;0.4689;0.9118;
1374.6000;0.4664;0.9118;
1374.9000;0.4681;0.9143;
1375.2000;0.4656;0.9118;
1375.5000;0.4672;0.9068;
1375.8000;0.4689;0.9169;
1376.1000;0.4624;0.8892;
1376.4000;0.4648;0.9093;
1376.7000;0.4664;0.9169;
1377.0000;0.4664;0.9093;
1377.3000;0.4681;0.9017;
1377.6000;0.4672;0.9043;
1377.9000;0.4664;0.9043;
1378.2000;0.4737;0.9244;
1378.5000;0.4762;0.9295;
1378.8000;0.4681;0.8967;
1379.1000;0.4713;0.9017;
1379.4000;0.4640;0.8917;
1379.7000;0.4648;0.9068;
1380.0000;0.4689;0.9118;
1380.3000;0.4721;0.9244;
1380.6000;0.4672;0.9194;
1380.9000;0.4672;0.9244;
1381.2000;0.4689;0.9244;
1381.5000;0.4672;0.9118;
1381.8000;0.4672;0.9043;
1382.1000;0.4681;0.9093;
1382.4000;0.4697;0.9169;
1382.7000;0.4681;0.9068;
1383.0000;0.4648;0.8917;
1383.3000;0.4721;0.9017;
1383.6000;0.4681;0.8942;
1383.9000;0.4664;0.8892;
1384.2000;0.4689;0.8917;
1384.5000;0.4681;0.8992;
1384.8000;0.4624;0.8816;
1385.1000;0.4689;0.9043;
1385.4000;0.4672;0.9068;
1385.7000;0.4672;0.8967;
1386.0000;0.4689;0.8967;
1386.3000;0.4672;0.8892;
1386.6000;0.4689;0.8967;
1386.9000;0.4648;0.8841;
1387.2000;0.4664;0.8992;
1387.5000;0.4672;0.8992;
1387.8000;0.4615;0.8841;
1388.1000;0.4664;0.9068;
1388.4000;0.4689;0.9068;
1388.7000;0.4689;0.9017;
1389.0000;0.4697;0.8992;
1389.3000;0.4681;0.8967;
1389.6000;0.4672;0.8942;
1389.9000;0.4681;0.8967;
1390.2000;0.4672;0.8967;
1390.5000;0.4648;0.8942;
1390.8000;0.4664;0.9068;
1391.1000;0.4672;0.9093;
1391.4000;0.4648;0.9043;
1391.7000;0.4664;0.9118;
1392.0000;0.4664;0.9043;
1392.3000;0.4672;0.9017;
1392.6000;0.4681;0.9017;
1392.9000;0.4705;0.8967;
1393.2000;0.4681;0.8892;
1393.5000;0.4664;0.8841;
1393.8000;0.4721;0.8992;
1394.1000;0.4689;0.8942;
1394.4000;0.4648;0.8791;
1394.7000;0.4697;0.8917;
1395.0000;0.4672;0.8917;
1395.3000;0.4737;0.9017;
1395.6000;0.4648;0.8816;
1395.9000;0.4737;0.9093;
1396.2000;0.4705;0.9068;
1396.5000;0.4705;0.8967;
1396.8000;0.4721;0.9043;
1397.1000;0.4681;0.8942;
1397.4000;0.4689;0.9068;
1397.7000;0.4689;0.9068;
1398.0000;0.4648;0.8992;
1398.3000;0.4656;0.8942;
1398.6000;0.4681;0.8917;
1398.9000;0.4689;0.8967;
1399.2000;0.4664;0.8892;
1399.5000;0.4737;0.9118;
1399.8000;0.4689;0.9043;
