time/ms;Fluo/V;P700 deltaI/I x10³;
-199.8000;0.7147;1.0630;
-199.5000;0.7155;1.0604;
-199.2000;0.7139;1.0554;
-198.9000;0.7098;1.0453;
-198.6000;0.7155;1.0554;
-198.3000;0.7155;1.0579;
-198.0000;0.7155;1.0504;
-197.7000;0.7188;1.0630;
-197.4000;0.7163;1.0579;
-197.1000;0.7212;1.0705;
-196.8000;0.7155;1.0453;
-196.5000;0.7147;1.0504;
-196.2000;0.7155;1.0529;
-195.9000;0.7139;1.0504;
-195.6000;0.7123;1.0554;
-195.3000;0.7139;1.0554;
-195.0000;0.7139;1.0579;
-194.7000;0.7123;1.0579;
-194.4000;0.7139;1.0604;
-194.1000;0.7155;1.0554;
-193.8000;0.7131;1.0478;
-193.5000;0.7123;1.0453;
-193.2000;0.7131;1.0504;
-192.9000;0.7147;1.0554;
-192.6000;0.7147;1.0554;
-192.3000;0.7147;1.0579;
-192.0000;0.7196;1.0755;
-191.7000;0.7106;1.0655;
-191.4000;0.7155;1.0957;
-191.1000;0.7155;1.0881;
-190.8000;0.7139;1.0881;
-190.5000;0.7131;1.0831;
-190.2000;0.7139;1.0755;
-189.9000;0.7155;1.0705;
-189.6000;0.7123;1.0655;
-189.3000;0.7123;1.0630;
-189.0000;0.7147;1.0630;
-188.7000;0.7147;1.0655;
-188.4000;0.7131;1.0604;
-188.1000;0.7090;1.0478;
-187.8000;0.7139;1.0529;
-187.5000;0.7131;1.0453;
-187.2000;0.7147;1.0504;
-186.9000;0.7147;1.0579;
-186.6000;0.7139;1.0604;
-186.3000;0.7204;1.0705;
-186.0000;0.7155;1.0529;
-185.7000;0.7155;1.0529;
-185.4000;0.7139;1.0453;
-185.1000;0.7139;1.0453;
-184.8000;0.7155;1.0478;
-184.5000;0.7155;1.0504;
-184.2000;0.7220;1.0630;
-183.9000;0.7131;1.0428;
-183.6000;0.7147;1.0478;
-183.3000;0.7139;1.0428;
-183.0000;0.7049;1.0277;
-182.7000;0.7155;1.0554;
-182.4000;0.7123;1.0478;
-182.1000;0.7131;1.0554;
-181.8000;0.7147;1.0630;
-181.5000;0.7082;1.0504;
-181.2000;0.7114;1.0529;
-180.9000;0.7179;1.0680;
-180.6000;0.7139;1.0630;
-180.3000;0.7139;1.0554;
-180.0000;0.7098;1.0428;
-179.7000;0.7139;1.0604;
-179.4000;0.7082;1.0504;
-179.1000;0.7082;1.0453;
-178.8000;0.7147;1.0604;
-178.5000;0.7131;1.0529;
-178.2000;0.7049;1.0352;
-177.9000;0.7163;1.0604;
-177.6000;0.7147;1.0554;
-177.3000;0.7147;1.0554;
-177.0000;0.7147;1.0579;
-176.7000;0.7147;1.0579;
-176.4000;0.7155;1.0554;
-176.1000;0.7163;1.0529;
-175.8000;0.7155;1.0529;
-175.5000;0.7171;1.0554;
-175.2000;0.7163;1.0504;
-174.9000;0.7188;1.0579;
-174.6000;0.7131;1.0428;
-174.3000;0.7163;1.0504;
-174.0000;0.7139;1.0378;
-173.7000;0.7171;1.0478;
-173.4000;0.7171;1.0529;
-173.1000;0.7196;1.0630;
-172.8000;0.7131;1.0403;
-172.5000;0.7123;1.0403;
-172.2000;0.7131;1.0478;
-171.9000;0.7155;1.0554;
-171.6000;0.7139;1.0529;
-171.3000;0.7171;1.0554;
-171.0000;0.7147;1.0504;
-170.7000;0.7147;1.0478;
-170.4000;0.7155;1.0504;
-170.1000;0.7123;1.0504;
-169.8000;0.7114;1.0579;
-169.5000;0.7147;1.0604;
-169.2000;0.7131;1.0604;
-168.9000;0.7236;1.0881;
-168.6000;0.7139;1.0579;
-168.3000;0.7155;1.0705;
-168.0000;0.7131;1.0630;
-167.7000;0.7147;1.0755;
-167.4000;0.7147;1.0680;
-167.1000;0.7147;1.0680;
-166.8000;0.7179;1.0730;
-166.5000;0.7139;1.0579;
-166.2000;0.7147;1.0604;
-165.9000;0.7131;1.0604;
-165.6000;0.7155;1.0705;
-165.3000;0.7139;1.0705;
-165.0000;0.7147;1.0730;
-164.7000;0.7139;1.0781;
-164.4000;0.7147;1.0705;
-164.1000;0.7204;1.0806;
-163.8000;0.7155;1.0630;
-163.5000;0.7139;1.0579;
-163.2000;0.7155;1.0604;
-162.9000;0.7139;1.0478;
-162.6000;0.7163;1.0604;
-162.3000;0.7147;1.0579;
-162.0000;0.7123;1.0529;
-161.7000;0.7123;1.0478;
-161.4000;0.7179;1.0579;
-161.1000;0.7155;1.0504;
-160.8000;0.7114;1.0352;
-160.5000;0.7155;1.0504;
-160.2000;0.7131;1.0504;
-159.9000;0.7147;1.0579;
-159.6000;0.7139;1.0604;
-159.3000;0.7155;1.0529;
-159.0000;0.7147;1.0579;
-158.7000;0.7082;1.0403;
-158.4000;0.7123;1.0554;
-158.1000;0.7131;1.0604;
-157.8000;0.7147;1.0655;
-157.5000;0.7139;1.0680;
-157.2000;0.7139;1.0680;
-156.9000;0.7131;1.0630;
-156.6000;0.7139;1.0604;
-156.3000;0.7123;1.0529;
-156.0000;0.7139;1.0529;
-155.7000;0.7123;1.0529;
-155.4000;0.7188;1.0604;
-155.1000;0.7147;1.0403;
-154.8000;0.7155;1.0478;
-154.5000;0.7041;1.0277;
-154.2000;0.7155;1.0554;
-153.9000;0.7139;1.0604;
-153.6000;0.7131;1.0630;
-153.3000;0.7123;1.0579;
-153.0000;0.7147;1.0604;
-152.7000;0.7139;1.0554;
-152.4000;0.7147;1.0579;
-152.1000;0.7139;1.0579;
-151.8000;0.7171;1.0630;
-151.5000;0.7147;1.0579;
-151.2000;0.7171;1.0680;
-150.9000;0.7155;1.0604;
-150.6000;0.7131;1.0504;
-150.3000;0.7098;1.0378;
-150.0000;0.7155;1.0604;
-149.7000;0.7139;1.0529;
-149.4000;0.7131;1.0428;
-149.1000;0.7163;1.0478;
-148.8000;0.7139;1.0403;
-148.5000;0.7155;1.0403;
-148.2000;0.7139;1.0428;
-147.9000;0.7123;1.0403;
-147.6000;0.7139;1.0478;
-147.3000;0.7098;1.0403;
-147.0000;0.7139;1.0403;
-146.7000;0.7147;1.0403;
-146.4000;0.7155;1.0453;
-146.1000;0.7155;1.0504;
-145.8000;0.7147;1.0428;
-145.5000;0.7139;1.0378;
-145.2000;0.7147;1.0378;
-144.9000;0.7147;1.0302;
-144.6000;0.7131;1.0277;
-144.3000;0.7139;1.0352;
-144.0000;0.7131;1.0277;
-143.7000;0.7139;1.0277;
-143.4000;0.7139;1.0252;
-143.1000;0.7131;1.0277;
-142.8000;0.7131;1.0378;
-142.5000;0.7131;1.0378;
-142.2000;0.7139;1.0352;
-141.9000;0.7139;1.0378;
-141.6000;0.7155;1.0403;
-141.3000;0.7163;1.0453;
-141.0000;0.7155;1.0453;
-140.7000;0.7123;1.0453;
-140.4000;0.7155;1.0504;
-140.1000;0.7123;1.0504;
-139.8000;0.7163;1.0504;
-139.5000;0.7131;1.0453;
-139.2000;0.7131;1.0428;
-138.9000;0.7139;1.0579;
-138.6000;0.7123;1.0453;
-138.3000;0.7123;1.0554;
-138.0000;0.7131;1.0529;
-137.7000;0.7123;1.0478;
-137.4000;0.7106;1.0428;
-137.1000;0.7147;1.0453;
-136.8000;0.7131;1.0352;
-136.5000;0.7123;1.0403;
-136.2000;0.7131;1.0478;
-135.9000;0.7147;1.0554;
-135.6000;0.7147;1.0630;
-135.3000;0.7155;1.0604;
-135.0000;0.7163;1.0680;
-134.7000;0.7147;1.0755;
-134.4000;0.7131;1.0781;
-134.1000;0.7123;1.0705;
-133.8000;0.7147;1.0755;
-133.5000;0.7139;1.0680;
-133.2000;0.7147;1.0630;
-132.9000;0.7163;1.0705;
-132.6000;0.7147;1.0604;
-132.3000;0.7147;1.0604;
-132.0000;0.7147;1.0579;
-131.7000;0.7131;1.0604;
-131.4000;0.7131;1.0579;
-131.1000;0.7155;1.0655;
-130.8000;0.7147;1.0579;
-130.5000;0.7131;1.0554;
-130.2000;0.7123;1.0554;
-129.9000;0.7139;1.0604;
-129.6000;0.7163;1.0655;
-129.3000;0.7171;1.0630;
-129.0000;0.7147;1.0554;
-128.7000;0.7139;1.0579;
-128.4000;0.7163;1.0604;
-128.1000;0.7171;1.0604;
-127.8000;0.7147;1.0529;
-127.5000;0.7163;1.0604;
-127.2000;0.7261;1.0856;
-126.9000;0.7131;1.0529;
-126.6000;0.7147;1.0478;
-126.3000;0.7098;1.0504;
-126.0000;0.7049;1.0352;
-125.7000;0.7147;1.0630;
-125.4000;0.7131;1.0604;
-125.1000;0.7114;1.0403;
-124.8000;0.7147;1.0453;
-124.5000;0.7147;1.0428;
-124.2000;0.7082;1.0252;
-123.9000;0.7155;1.0453;
-123.6000;0.7131;1.0529;
-123.3000;0.7139;1.0579;
-123.0000;0.7123;1.0529;
-122.7000;0.7131;1.0554;
-122.4000;0.7163;1.0604;
-122.1000;0.7155;1.0579;
-121.8000;0.7139;1.0554;
-121.5000;0.7131;1.0554;
-121.2000;0.7147;1.0630;
-120.9000;0.7163;1.0680;
-120.6000;0.7139;1.0630;
-120.3000;0.7147;1.0705;
-120.0000;0.7131;1.0630;
-119.7000;0.7147;1.0680;
-119.4000;0.7139;1.0705;
-119.1000;0.7147;1.0705;
-118.8000;0.7139;1.0655;
-118.5000;0.7147;1.0529;
-118.2000;0.7139;1.0529;
-117.9000;0.7171;1.0579;
-117.6000;0.7123;1.0529;
-117.3000;0.7123;1.0554;
-117.0000;0.7090;1.0453;
-116.7000;0.7114;1.0554;
-116.4000;0.7123;1.0529;
-116.1000;0.7139;1.0504;
-115.8000;0.7147;1.0453;
-115.5000;0.7139;1.0529;
-115.2000;0.7131;1.0529;
-114.9000;0.7204;1.0655;
-114.6000;0.7090;1.0327;
-114.3000;0.7147;1.0529;
-114.0000;0.7147;1.0504;
-113.7000;0.7131;1.0554;
-113.4000;0.7123;1.0478;
-113.1000;0.7139;1.0428;
-112.8000;0.7139;1.0428;
-112.5000;0.7139;1.0428;
-112.2000;0.7131;1.0428;
-111.9000;0.7106;1.0378;
-111.6000;0.7131;1.0378;
-111.3000;0.7139;1.0403;
-111.0000;0.7147;1.0554;
-110.7000;0.7139;1.0579;
-110.4000;0.7155;1.0579;
-110.1000;0.7131;1.0554;
-109.8000;0.7147;1.0705;
-109.5000;0.7139;1.0730;
-109.2000;0.7147;1.0705;
-108.9000;0.7131;1.0630;
-108.6000;0.7131;1.0705;
-108.3000;0.7147;1.0755;
-108.0000;0.7074;1.0579;
-107.7000;0.7139;1.0604;
-107.4000;0.7114;1.0554;
-107.1000;0.7139;1.0630;
-106.8000;0.7171;1.0755;
-106.5000;0.7139;1.0655;
-106.2000;0.7090;1.0554;
-105.9000;0.7163;1.0655;
-105.6000;0.7139;1.0604;
-105.3000;0.7139;1.0705;
-105.0000;0.7139;1.0755;
-104.7000;0.7139;1.0630;
-104.4000;0.7155;1.0730;
-104.1000;0.7147;1.0655;
-103.8000;0.7163;1.0655;
-103.5000;0.7131;1.0630;
-103.2000;0.7139;1.0680;
-102.9000;0.7139;1.0630;
-102.6000;0.7106;1.0478;
-102.3000;0.7057;1.0302;
-102.0000;0.7082;1.0327;
-101.7000;0.7123;1.0428;
-101.4000;0.7155;1.0504;
-101.1000;0.7106;1.0453;
-100.8000;0.7155;1.0554;
-100.5000;0.7139;1.0529;
-100.2000;0.7147;1.0504;
-99.9000;0.7147;1.0554;
-99.6000;0.7139;1.0630;
-99.3000;0.7139;1.0579;
-99.0000;0.7155;1.0529;
-98.7000;0.7147;1.0504;
-98.4000;0.7131;1.0554;
-98.1000;0.7147;1.0655;
-97.8000;0.7139;1.0705;
-97.5000;0.7131;1.0680;
-97.2000;0.7139;1.0604;
-96.9000;0.7123;1.0680;
-96.6000;0.7131;1.0630;
-96.3000;0.7123;1.0579;
-96.0000;0.7147;1.0655;
-95.7000;0.7131;1.0630;
-95.4000;0.7155;1.0655;
-95.1000;0.7155;1.0655;
-94.8000;0.7147;1.0705;
-94.5000;0.7123;1.0655;
-94.2000;0.7147;1.0705;
-93.9000;0.7147;1.0781;
-93.6000;0.7147;1.0755;
-93.3000;0.7139;1.0655;
-93.0000;0.7131;1.0604;
-92.7000;0.7131;1.0655;
-92.4000;0.7049;1.0478;
-92.1000;0.7131;1.0680;
-91.8000;0.7123;1.0655;
-91.5000;0.7139;1.0680;
-91.2000;0.7131;1.0655;
-90.9000;0.7123;1.0630;
-90.6000;0.7098;1.0655;
-90.3000;0.7155;1.0755;
-90.0000;0.7139;1.0730;
-89.7000;0.7139;1.0730;
-89.4000;0.7131;1.0755;
-89.1000;0.7131;1.0781;
-88.8000;0.7066;1.0554;
-88.5000;0.7147;1.0781;
-88.2000;0.7139;1.0730;
-87.9000;0.7155;1.0705;
-87.6000;0.7139;1.0579;
-87.3000;0.7131;1.0529;
-87.0000;0.7147;1.0579;
-86.7000;0.7123;1.0579;
-86.4000;0.7090;1.0478;
-86.1000;0.7139;1.0554;
-85.8000;0.7131;1.0504;
-85.5000;0.7131;1.0554;
-85.2000;0.7139;1.0655;
-84.9000;0.7147;1.0705;
-84.6000;0.7155;1.0705;
-84.3000;0.7131;1.0529;
-84.0000;0.7114;1.0504;
-83.7000;0.7147;1.0554;
-83.4000;0.7131;1.0655;
-83.1000;0.7147;1.0730;
-82.8000;0.7147;1.0705;
-82.5000;0.7139;1.0755;
-82.2000;0.7147;1.0705;
-81.9000;0.7098;1.0504;
-81.6000;0.7147;1.0554;
-81.3000;0.7131;1.0504;
-81.0000;0.7163;1.0529;
-80.7000;0.7106;1.0403;
-80.4000;0.7139;1.0453;
-80.1000;0.7139;1.0478;
-79.8000;0.7139;1.0630;
-79.5000;0.7057;1.0378;
-79.2000;0.7131;1.0428;
-78.9000;0.7123;1.0428;
-78.6000;0.7090;1.0378;
-78.3000;0.7147;1.0579;
-78.0000;0.7106;1.0504;
-77.7000;0.7131;1.0529;
-77.4000;0.7131;1.0504;
-77.1000;0.7123;1.0478;
-76.8000;0.7114;1.0529;
-76.5000;0.7114;1.0453;
-76.2000;0.7131;1.0378;
-75.9000;0.7147;1.0403;
-75.6000;0.7139;1.0403;
-75.3000;0.7131;1.0453;
-75.0000;0.7147;1.0453;
-74.7000;0.7139;1.0378;
-74.4000;0.7139;1.0403;
-74.1000;0.7155;1.0478;
-73.8000;0.7139;1.0453;
-73.5000;0.7139;1.0478;
-73.2000;0.7147;1.0504;
-72.9000;0.7090;1.0378;
-72.6000;0.7131;1.0478;
-72.3000;0.7139;1.0504;
-72.0000;0.7123;1.0504;
-71.7000;0.7139;1.0478;
-71.4000;0.7139;1.0478;
-71.1000;0.7147;1.0478;
-70.8000;0.7147;1.0428;
-70.5000;0.7123;1.0453;
-70.2000;0.7155;1.0655;
-69.9000;0.7179;1.0680;
-69.6000;0.7131;1.0705;
-69.3000;0.7123;1.0604;
-69.0000;0.7179;1.0680;
-68.7000;0.7131;1.0554;
-68.4000;0.7139;1.0579;
-68.1000;0.7131;1.0428;
-67.8000;0.7131;1.0504;
-67.5000;0.7114;1.0554;
-67.2000;0.7123;1.0630;
-66.9000;0.7123;1.0579;
-66.6000;0.7106;1.0554;
-66.3000;0.7147;1.0630;
-66.0000;0.7131;1.0630;
-65.7000;0.7139;1.0579;
-65.4000;0.7179;1.0730;
-65.1000;0.7139;1.0630;
-64.8000;0.7147;1.0604;
-64.5000;0.7123;1.0504;
-64.2000;0.7131;1.0554;
-63.9000;0.7139;1.0554;
-63.6000;0.7147;1.0579;
-63.3000;0.7082;1.0453;
-63.0000;0.7131;1.0529;
-62.7000;0.7147;1.0504;
-62.4000;0.7147;1.0504;
-62.1000;0.7106;1.0504;
-61.8000;0.7082;1.0428;
-61.5000;0.7114;1.0579;
-61.2000;0.7139;1.0579;
-60.9000;0.7139;1.0554;
-60.6000;0.7139;1.0579;
-60.3000;0.7041;1.0277;
-60.0000;0.7139;1.0554;
-59.7000;0.7074;1.0327;
-59.4000;0.7114;1.0504;
-59.1000;0.7155;1.0655;
-58.8000;0.7139;1.0705;
-58.5000;0.7147;1.0705;
-58.2000;0.7131;1.0579;
-57.9000;0.7147;1.0504;
-57.6000;0.7131;1.0403;
-57.3000;0.7155;1.0504;
-57.0000;0.7196;1.0680;
-56.7000;0.7139;1.0604;
-56.4000;0.7163;1.0630;
-56.1000;0.7139;1.0680;
-55.8000;0.7139;1.0680;
-55.5000;0.7106;1.0554;
-55.2000;0.7171;1.0630;
-54.9000;0.7139;1.0478;
-54.6000;0.7147;1.0529;
-54.3000;0.7131;1.0428;
-54.0000;0.7155;1.0478;
-53.7000;0.7163;1.0378;
-53.4000;0.7163;1.0428;
-53.1000;0.7147;1.0428;
-52.8000;0.7123;1.0252;
-52.5000;0.7188;1.0428;
-52.2000;0.7171;1.0504;
-51.9000;0.7123;1.0378;
-51.6000;0.7139;1.0428;
-51.3000;0.7131;1.0352;
-51.0000;0.7131;1.0352;
-50.7000;0.7139;1.0327;
-50.4000;0.7139;1.0352;
-50.1000;0.7123;1.0352;
-49.8000;0.7147;1.0428;
-49.5000;0.7155;1.0428;
-49.2000;0.7139;1.0428;
-48.9000;0.7123;1.0403;
-48.6000;0.7098;1.0201;
-48.3000;0.7171;1.0378;
-48.0000;0.7155;1.0327;
-47.7000;0.7139;1.0227;
-47.4000;0.7155;1.0378;
-47.1000;0.7114;1.0302;
-46.8000;0.7066;1.0075;
-46.5000;0.7131;1.0277;
-46.2000;0.7139;1.0352;
-45.9000;0.7139;1.0403;
-45.6000;0.7147;1.0378;
-45.3000;0.7123;1.0277;
-45.0000;0.7139;1.0227;
-44.7000;0.7147;1.0302;
-44.4000;0.7155;1.0352;
-44.1000;0.7163;1.0403;
-43.8000;0.7147;1.0352;
-43.5000;0.7155;1.0327;
-43.2000;0.7163;1.0428;
-42.9000;0.7155;1.0428;
-42.6000;0.7139;1.0403;
-42.3000;0.7090;1.0252;
-42.0000;0.7139;1.0352;
-41.7000;0.7131;1.0327;
-41.4000;0.7139;1.0327;
-41.1000;0.7123;1.0227;
-40.8000;0.7066;1.0101;
-40.5000;0.7131;1.0302;
-40.2000;0.7114;1.0151;
-39.9000;0.7106;1.0176;
-39.6000;0.7139;1.0252;
-39.3000;0.7163;1.0302;
-39.0000;0.7139;1.0252;
-38.7000;0.7147;1.0277;
-38.4000;0.7139;1.0277;
-38.1000;0.7131;1.0126;
-37.8000;0.7155;1.0201;
-37.5000;0.7131;1.0252;
-37.2000;0.7147;1.0227;
-36.9000;0.7163;1.0252;
-36.6000;0.7123;1.0176;
-36.3000;0.7123;1.0101;
-36.0000;0.7131;1.0151;
-35.7000;0.7147;1.0126;
-35.4000;0.7163;1.0252;
-35.1000;0.7131;1.0227;
-34.8000;0.7131;1.0327;
-34.5000;0.7139;1.0327;
-34.2000;0.7179;1.0504;
-33.9000;0.7147;1.0403;
-33.6000;0.7082;1.0201;
-33.3000;0.7171;1.0378;
-33.0000;0.7253;1.0554;
-32.7000;0.7147;1.0277;
-32.4000;0.7147;1.0327;
-32.1000;0.7171;1.0428;
-31.8000;0.7163;1.0352;
-31.5000;0.7106;1.0201;
-31.2000;0.7139;1.0227;
-30.9000;0.7139;1.0227;
-30.6000;0.7114;1.0176;
-30.3000;0.7163;1.0277;
-30.0000;0.7147;1.0352;
-29.7000;0.7139;1.0352;
-29.4000;0.7155;1.0378;
-29.1000;0.7212;1.0529;
-28.8000;0.7131;1.0252;
-28.5000;0.7131;1.0252;
-28.2000;0.7179;1.0453;
-27.9000;0.7155;1.0227;
-27.6000;0.7139;1.0201;
-27.3000;0.7147;1.0201;
-27.0000;0.7131;1.0151;
-26.7000;0.7139;1.0201;
-26.4000;0.7147;1.0352;
-26.1000;0.7147;1.0277;
-25.8000;0.7147;1.0302;
-25.5000;0.7147;1.0378;
-25.2000;0.7163;1.0453;
-24.9000;0.7131;1.0428;
-24.6000;0.7131;1.0428;
-24.3000;0.7139;1.0352;
-24.0000;0.7155;1.0352;
-23.7000;0.7188;1.0478;
-23.4000;0.7131;1.0378;
-23.1000;0.7131;1.0403;
-22.8000;0.7131;1.0352;
-22.5000;0.7147;1.0378;
-22.2000;0.7131;1.0403;
-21.9000;0.7139;1.0302;
-21.6000;0.7147;1.0302;
-21.3000;0.7139;1.0302;
-21.0000;0.7139;1.0352;
-20.7000;0.7106;1.0302;
-20.4000;0.7155;1.0378;
-20.1000;0.7163;1.0428;
-19.8000;0.7139;1.0277;
-19.5000;0.7188;1.0478;
-19.2000;0.7131;1.0403;
-18.9000;0.7155;1.0428;
-18.6000;0.7131;1.0252;
-18.3000;0.7139;1.0277;
-18.0000;0.7139;1.0277;
-17.7000;0.7147;1.0201;
-17.4000;0.7131;1.0227;
-17.1000;0.7155;1.0277;
-16.8000;0.7131;1.0252;
-16.5000;0.7131;1.0277;
-16.2000;0.7131;1.0302;
-15.9000;0.7139;1.0327;
-15.6000;0.7123;1.0327;
-15.3000;0.7139;1.0378;
-15.0000;0.7131;1.0428;
-14.7000;0.7123;1.0428;
-14.4000;0.7123;1.0453;
-14.1000;0.7147;1.0453;
-13.8000;0.7147;1.0428;
-13.5000;0.7139;1.0428;
-13.2000;0.7131;1.0378;
-12.9000;0.7049;1.0101;
-12.6000;0.7147;1.0327;
-12.3000;0.7147;1.0327;
-12.0000;0.7147;1.0352;
-11.7000;0.7131;1.0277;
-11.4000;0.7155;1.0478;
-11.1000;0.7123;1.0478;
-10.8000;0.7123;1.0378;
-10.5000;0.7131;1.0428;
-10.2000;0.7139;1.0378;
-9.9000;0.7139;1.0327;
-9.6000;0.7098;1.0277;
-9.3000;0.7098;1.0302;
-9.0000;0.7106;1.0327;
-8.7000;0.7179;1.0428;
-8.4000;0.7155;1.0403;
-8.1000;0.7131;1.0227;
-7.8000;0.7147;1.0252;
-7.5000;0.7123;1.0176;
-7.2000;0.7139;1.0227;
-6.9000;0.7147;1.0201;
-6.6000;0.7139;1.0176;
-6.3000;0.7139;1.0201;
-6.0000;0.7147;1.0252;
-5.7000;0.7131;1.0227;
-5.4000;0.7123;1.0302;
-5.1000;0.7123;1.0327;
-4.8000;0.7123;1.0277;
-4.5000;0.7131;1.0277;
-4.2000;0.7131;1.0252;
-3.9000;0.7131;1.0176;
-3.6000;0.7131;1.0176;
-3.3000;0.7139;1.0227;
-3.0000;0.7139;1.0277;
-2.7000;0.7139;1.0227;
-2.4000;0.7131;1.0201;
-2.1000;0.7147;1.0176;
-1.8000;0.7131;1.0252;
-1.5000;0.7131;1.0277;
-1.2000;0.7139;1.0352;
-0.9000;0.7114;1.0403;
-0.6000;0.7139;1.0453;
-0.3000;0.7131;1.0504;
0.0000;0.7131;1.0504;
0.3000;0.7155;1.0504;
0.6000;0.7171;1.0755;
0.9000;0.7220;1.0982;
1.2000;0.7179;1.1184;
1.5000;0.7179;1.1310;
1.8000;0.7131;1.1284;
2.1000;0.7196;1.1612;
2.4000;0.7212;1.1662;
2.7000;0.7220;1.1839;
3.0000;0.7220;1.1738;
3.3000;0.7204;1.1813;
3.6000;0.7228;1.1788;
3.9000;0.7228;1.1788;
4.2000;0.7220;1.1813;
4.5000;0.7188;1.1839;
4.8000;0.7212;1.1939;
5.1000;0.7245;1.2090;
5.4000;0.7236;1.2116;
5.7000;0.7253;1.2116;
6.0000;0.7236;1.2166;
6.3000;0.7245;1.2191;
6.6000;0.7261;1.2216;
6.9000;0.7277;1.2242;
7.2000;0.7277;1.2216;
7.5000;0.7302;1.2242;
7.8000;0.7285;1.2166;
8.1000;0.7285;1.2116;
8.4000;0.7261;1.2141;
8.7000;0.7285;1.2166;
9.0000;0.7269;1.2191;
9.3000;0.7269;1.2191;
9.6000;0.7261;1.2090;
9.9000;0.7277;1.2166;
10.2000;0.7285;1.2216;
10.5000;0.7310;1.2317;
10.8000;0.7302;1.2317;
11.1000;0.7285;1.2242;
11.4000;0.7293;1.2267;
11.7000;0.7293;1.2267;
12.0000;0.7261;1.2090;
12.3000;0.7285;1.2166;
12.6000;0.7293;1.2267;
12.9000;0.7277;1.2216;
13.2000;0.7293;1.2141;
13.5000;0.7253;1.2040;
13.8000;0.7245;1.2015;
14.1000;0.7285;1.2191;
14.4000;0.7196;1.1990;
14.7000;0.7293;1.2368;
15.0000;0.7277;1.2317;
15.3000;0.7285;1.2267;
15.6000;0.7318;1.2342;
15.9000;0.7302;1.2342;
16.2000;0.7302;1.2393;
16.5000;0.7318;1.2494;
16.8000;0.7326;1.2519;
17.1000;0.7318;1.2494;
17.4000;0.7318;1.2494;
17.7000;0.7318;1.2468;
18.0000;0.7383;1.2594;
18.3000;0.7310;1.2317;
18.6000;0.7326;1.2292;
18.9000;0.7310;1.2317;
19.2000;0.7253;1.2267;
19.5000;0.7310;1.2418;
19.8000;0.7326;1.2443;
20.1000;0.7318;1.2468;
20.4000;0.7334;1.2494;
20.7000;0.7326;1.2468;
21.0000;0.7302;1.2519;
21.3000;0.7318;1.2468;
21.6000;0.7318;1.2468;
21.9000;0.7334;1.2544;
22.2000;0.7350;1.2594;
22.5000;0.7302;1.2544;
22.8000;0.7334;1.2645;
23.1000;0.7342;1.2645;
23.4000;0.7334;1.2619;
23.7000;0.7326;1.2594;
24.0000;0.7334;1.2619;
24.3000;0.7326;1.2619;
24.6000;0.7359;1.2695;
24.9000;0.7326;1.2619;
25.2000;0.7334;1.2619;
25.5000;0.7334;1.2670;
25.8000;0.7334;1.2619;
26.1000;0.7318;1.2619;
26.4000;0.7310;1.2594;
26.7000;0.7302;1.2695;
27.0000;0.7334;1.2670;
27.3000;0.7310;1.2594;
27.6000;0.7326;1.2569;
27.9000;0.7342;1.2619;
28.2000;0.7342;1.2594;
28.5000;0.7318;1.2519;
28.8000;0.7342;1.2569;
29.1000;0.7342;1.2594;
29.4000;0.7342;1.2544;
29.7000;0.7245;1.2267;
30.0000;0.7326;1.2494;
30.3000;0.7334;1.2468;
30.6000;0.7342;1.2544;
30.9000;0.7293;1.2519;
31.2000;0.7318;1.2494;
31.5000;0.7359;1.2569;
31.8000;0.7350;1.2569;
32.1000;0.7359;1.2519;
32.4000;0.7342;1.2619;
32.7000;0.7334;1.2494;
33.0000;0.7326;1.2418;
33.3000;0.7350;1.2494;
33.6000;0.7334;1.2468;
33.9000;0.7342;1.2418;
34.2000;0.7342;1.2443;
34.5000;0.7342;1.2418;
34.8000;0.7326;1.2393;
35.1000;0.7334;1.2468;
35.4000;0.7326;1.2519;
35.7000;0.7334;1.2494;
36.0000;0.7285;1.2292;
36.3000;0.7334;1.2393;
36.6000;0.7359;1.2494;
36.9000;0.7334;1.2569;
37.2000;0.7342;1.2544;
37.5000;0.7302;1.2418;
37.8000;0.7334;1.2468;
38.1000;0.7334;1.2368;
38.4000;0.7350;1.2468;
38.7000;0.7350;1.2494;
39.0000;0.7334;1.2569;
39.3000;0.7350;1.2619;
39.6000;0.7350;1.2670;
39.9000;0.7342;1.2745;
40.2000;0.7342;1.2670;
40.5000;0.7375;1.2745;
40.8000;0.7359;1.2619;
41.1000;0.7342;1.2519;
41.4000;0.7342;1.2544;
41.7000;0.7359;1.2569;
42.0000;0.7359;1.2569;
42.3000;0.7342;1.2594;
42.6000;0.7334;1.2569;
42.9000;0.7359;1.2594;
43.2000;0.7342;1.2594;
43.5000;0.7334;1.2645;
43.8000;0.7334;1.2619;
44.1000;0.7326;1.2519;
44.4000;0.7310;1.2468;
44.7000;0.7350;1.2519;
45.0000;0.7359;1.2468;
45.3000;0.7318;1.2342;
45.6000;0.7342;1.2468;
45.9000;0.7318;1.2494;
46.2000;0.7359;1.2645;
46.5000;0.7334;1.2569;
46.8000;0.7350;1.2594;
47.1000;0.7293;1.2418;
47.4000;0.7350;1.2494;
47.7000;0.7326;1.2443;
48.0000;0.7326;1.2393;
48.3000;0.7342;1.2443;
48.6000;0.7367;1.2494;
48.9000;0.7359;1.2494;
49.2000;0.7350;1.2468;
49.5000;0.7342;1.2519;
49.8000;0.7342;1.2468;
50.1000;0.7245;1.2141;
50.4000;0.7228;1.2040;
50.7000;0.7326;1.2317;
51.0000;0.7367;1.2418;
51.3000;0.7342;1.2418;
51.6000;0.7334;1.2317;
51.9000;0.7302;1.2242;
52.2000;0.7342;1.2342;
52.5000;0.7342;1.2317;
52.8000;0.7342;1.2342;
53.1000;0.7342;1.2393;
53.4000;0.7334;1.2443;
53.7000;0.7326;1.2418;
54.0000;0.7334;1.2443;
54.3000;0.7334;1.2393;
54.6000;0.7342;1.2418;
54.9000;0.7318;1.2368;
55.2000;0.7334;1.2393;
55.5000;0.7326;1.2342;
55.8000;0.7326;1.2418;
56.1000;0.7318;1.2443;
56.4000;0.7350;1.2519;
56.7000;0.7342;1.2494;
57.0000;0.7326;1.2544;
57.3000;0.7342;1.2645;
57.6000;0.7350;1.2670;
57.9000;0.7342;1.2720;
58.2000;0.7342;1.2645;
58.5000;0.7334;1.2519;
58.8000;0.7350;1.2544;
59.1000;0.7350;1.2468;
59.4000;0.7326;1.2468;
59.7000;0.7334;1.2368;
60.0000;0.7334;1.2216;
60.3000;0.7293;1.2065;
60.6000;0.7293;1.2166;
60.9000;0.7342;1.2216;
61.2000;0.7334;1.2141;
61.5000;0.7326;1.2191;
61.8000;0.7334;1.2317;
62.1000;0.7334;1.2292;
62.4000;0.7350;1.2368;
62.7000;0.7350;1.2443;
63.0000;0.7350;1.2393;
63.3000;0.7359;1.2393;
63.6000;0.7367;1.2393;
63.9000;0.7326;1.2393;
64.2000;0.7342;1.2468;
64.5000;0.7342;1.2418;
64.8000;0.7350;1.2544;
65.1000;0.7318;1.2544;
65.4000;0.7342;1.2619;
65.7000;0.7350;1.2569;
66.0000;0.7334;1.2494;
66.3000;0.7359;1.2494;
66.6000;0.7342;1.2418;
66.9000;0.7342;1.2393;
67.2000;0.7359;1.2418;
67.5000;0.7326;1.2292;
67.8000;0.7359;1.2393;
68.1000;0.7350;1.2418;
68.4000;0.7334;1.2368;
68.7000;0.7326;1.2267;
69.0000;0.7342;1.2393;
69.3000;0.7310;1.2443;
69.6000;0.7342;1.2443;
69.9000;0.7367;1.2494;
70.2000;0.7407;1.2544;
70.5000;0.7342;1.2418;
70.8000;0.7326;1.2443;
71.1000;0.7318;1.2443;
71.4000;0.7334;1.2443;
71.7000;0.7334;1.2393;
72.0000;0.7342;1.2368;
72.3000;0.7293;1.2292;
72.6000;0.7326;1.2418;
72.9000;0.7334;1.2468;
73.2000;0.7318;1.2418;
73.5000;0.7302;1.2418;
73.8000;0.7342;1.2443;
74.1000;0.7350;1.2443;
74.4000;0.7334;1.2368;
74.7000;0.7407;1.2594;
75.0000;0.7334;1.2468;
75.3000;0.7342;1.2443;
75.6000;0.7334;1.2368;
75.9000;0.7375;1.2544;
76.2000;0.7342;1.2468;
76.5000;0.7350;1.2494;
76.8000;0.7350;1.2468;
77.1000;0.7350;1.2468;
77.4000;0.7350;1.2468;
77.7000;0.7253;1.2216;
78.0000;0.7342;1.2393;
78.3000;0.7350;1.2368;
78.6000;0.7326;1.2317;
78.9000;0.7342;1.2317;
79.2000;0.7375;1.2443;
79.5000;0.7326;1.2317;
79.8000;0.7334;1.2393;
80.1000;0.7285;1.2292;
80.4000;0.7326;1.2443;
80.7000;0.7334;1.2393;
81.0000;0.7334;1.2418;
81.3000;0.7326;1.2468;
81.6000;0.7375;1.2519;
81.9000;0.7342;1.2468;
82.2000;0.7342;1.2393;
82.5000;0.7342;1.2317;
82.8000;0.7359;1.2443;
83.1000;0.7359;1.2418;
83.4000;0.7326;1.2393;
83.7000;0.7342;1.2494;
84.0000;0.7334;1.2519;
84.3000;0.7310;1.2443;
84.6000;0.7310;1.2443;
84.9000;0.7350;1.2443;
85.2000;0.7334;1.2342;
85.5000;0.7334;1.2342;
85.8000;0.7334;1.2342;
86.1000;0.7326;1.2418;
86.4000;0.7334;1.2393;
86.7000;0.7350;1.2418;
87.0000;0.7342;1.2544;
87.3000;0.7285;1.2443;
87.6000;0.7318;1.2494;
87.9000;0.7326;1.2468;
88.2000;0.7350;1.2544;
88.5000;0.7342;1.2494;
88.8000;0.7310;1.2494;
89.1000;0.7310;1.2544;
89.4000;0.7350;1.2569;
89.7000;0.7350;1.2494;
90.0000;0.7334;1.2494;
90.3000;0.7334;1.2544;
90.6000;0.7342;1.2494;
90.9000;0.7334;1.2418;
91.2000;0.7326;1.2368;
91.5000;0.7334;1.2443;
91.8000;0.7375;1.2544;
92.1000;0.7334;1.2443;
92.4000;0.7342;1.2418;
92.7000;0.7318;1.2368;
93.0000;0.7334;1.2393;
93.3000;0.7399;1.2569;
93.6000;0.7326;1.2468;
93.9000;0.7326;1.2468;
94.2000;0.7293;1.2393;
94.5000;0.7342;1.2544;
94.8000;0.7326;1.2494;
95.1000;0.7318;1.2494;
95.4000;0.7399;1.2670;
95.7000;0.7342;1.2569;
96.0000;0.7326;1.2443;
96.3000;0.7326;1.2569;
96.6000;0.7302;1.2569;
96.9000;0.7326;1.2695;
97.2000;0.7334;1.2745;
97.5000;0.7326;1.2745;
97.8000;0.7334;1.2695;
98.1000;0.7342;1.2645;
98.4000;0.7326;1.2569;
98.7000;0.7342;1.2569;
99.0000;0.7334;1.2519;
99.3000;0.7310;1.2393;
99.6000;0.7350;1.2544;
99.9000;0.7310;1.2468;
100.2000;0.7326;1.2494;
100.5000;0.7334;1.2468;
100.8000;0.7334;1.2443;
101.1000;0.7334;1.2342;
101.4000;0.7342;1.2317;
101.7000;0.7326;1.2267;
102.0000;0.7350;1.2317;
102.3000;0.7350;1.2267;
102.6000;0.7359;1.2267;
102.9000;0.7342;1.2292;
103.2000;0.7407;1.2368;
103.5000;0.7350;1.2267;
103.8000;0.7334;1.2267;
104.1000;0.7350;1.2267;
104.4000;0.7342;1.2292;
104.7000;0.7342;1.2292;
105.0000;0.7326;1.2292;
105.3000;0.7277;1.2090;
105.6000;0.7391;1.2368;
105.9000;0.7326;1.2292;
106.2000;0.7326;1.2267;
106.5000;0.7326;1.2216;
106.8000;0.7310;1.2242;
107.1000;0.7318;1.2267;
107.4000;0.7334;1.2342;
107.7000;0.7318;1.2216;
108.0000;0.7302;1.2191;
108.3000;0.7334;1.2267;
108.6000;0.7350;1.2317;
108.9000;0.7334;1.2292;
109.2000;0.7326;1.2267;
109.5000;0.7318;1.2342;
109.8000;0.7302;1.2292;
110.1000;0.7334;1.2342;
110.4000;0.7342;1.2317;
110.7000;0.7326;1.2242;
111.0000;0.7334;1.2292;
111.3000;0.7310;1.2342;
111.6000;0.7334;1.2443;
111.9000;0.7277;1.2317;
112.2000;0.7342;1.2519;
112.5000;0.7334;1.2569;
112.8000;0.7334;1.2544;
113.1000;0.7326;1.2544;
113.4000;0.7326;1.2619;
113.7000;0.7342;1.2645;
114.0000;0.7342;1.2670;
114.3000;0.7318;1.2619;
114.6000;0.7334;1.2645;
114.9000;0.7350;1.2720;
115.2000;0.7350;1.2695;
115.5000;0.7334;1.2670;
115.8000;0.7350;1.2619;
116.1000;0.7342;1.2569;
116.4000;0.7342;1.2594;
116.7000;0.7334;1.2619;
117.0000;0.7326;1.2619;
117.3000;0.7334;1.2594;
117.6000;0.7334;1.2594;
117.9000;0.7310;1.2619;
118.2000;0.7318;1.2670;
118.5000;0.7326;1.2670;
118.8000;0.7342;1.2670;
119.1000;0.7326;1.2720;
119.4000;0.7318;1.2670;
119.7000;0.7318;1.2619;
120.0000;0.7350;1.2720;
120.3000;0.7342;1.2720;
120.6000;0.7359;1.2745;
120.9000;0.7350;1.2619;
121.2000;0.7334;1.2619;
121.5000;0.7375;1.2695;
121.8000;0.7261;1.2418;
122.1000;0.7326;1.2645;
122.4000;0.7342;1.2695;
122.7000;0.7367;1.2771;
123.0000;0.7318;1.2569;
123.3000;0.7326;1.2594;
123.6000;0.7293;1.2594;
123.9000;0.7342;1.2796;
124.2000;0.7334;1.2695;
124.5000;0.7342;1.2645;
124.8000;0.7342;1.2695;
125.1000;0.7350;1.2670;
125.4000;0.7342;1.2645;
125.7000;0.7350;1.2569;
126.0000;0.7334;1.2619;
126.3000;0.7326;1.2645;
126.6000;0.7318;1.2569;
126.9000;0.7334;1.2670;
127.2000;0.7326;1.2670;
127.5000;0.7350;1.2720;
127.8000;0.7326;1.2645;
128.1000;0.7318;1.2645;
128.4000;0.7302;1.2695;
128.7000;0.7326;1.2720;
129.0000;0.7334;1.2745;
129.3000;0.7334;1.2745;
129.6000;0.7318;1.2619;
129.9000;0.7334;1.2619;
130.2000;0.7334;1.2544;
130.5000;0.7318;1.2494;
130.8000;0.7326;1.2443;
131.1000;0.7310;1.2443;
131.4000;0.7342;1.2594;
131.7000;0.7318;1.2494;
132.0000;0.7318;1.2468;
132.3000;0.7293;1.2418;
132.6000;0.7326;1.2544;
132.9000;0.7334;1.2544;
133.2000;0.7318;1.2544;
133.5000;0.7326;1.2544;
133.8000;0.7326;1.2544;
134.1000;0.7326;1.2670;
134.4000;0.7334;1.2695;
134.7000;0.7342;1.2695;
135.0000;0.7326;1.2670;
135.3000;0.7334;1.2720;
135.6000;0.7318;1.2695;
135.9000;0.7359;1.2745;
136.2000;0.7326;1.2720;
136.5000;0.7342;1.2720;
136.8000;0.7326;1.2745;
137.1000;0.7367;1.2771;
137.4000;0.7326;1.2695;
137.7000;0.7334;1.2695;
138.0000;0.7318;1.2670;
138.3000;0.7342;1.2720;
138.6000;0.7326;1.2645;
138.9000;0.7350;1.2745;
139.2000;0.7342;1.2645;
139.5000;0.7334;1.2695;
139.8000;0.7310;1.2695;
140.1000;0.7326;1.2695;
140.4000;0.7277;1.2670;
140.7000;0.7326;1.2720;
141.0000;0.7310;1.2670;
141.3000;0.7318;1.2745;
141.6000;0.7350;1.2796;
141.9000;0.7326;1.2720;
142.2000;0.7310;1.2670;
142.5000;0.7350;1.2745;
142.8000;0.7318;1.2619;
143.1000;0.7342;1.2645;
143.4000;0.7326;1.2645;
143.7000;0.7310;1.2670;
144.0000;0.7334;1.2745;
144.3000;0.7326;1.2645;
144.6000;0.7342;1.2720;
144.9000;0.7310;1.2619;
145.2000;0.7326;1.2695;
145.5000;0.7350;1.2745;
145.8000;0.7342;1.2720;
146.1000;0.7326;1.2619;
146.4000;0.7318;1.2645;
146.7000;0.7326;1.2720;
147.0000;0.7350;1.2720;
147.3000;0.7326;1.2645;
147.6000;0.7310;1.2619;
147.9000;0.7310;1.2544;
148.2000;0.7302;1.2569;
148.5000;0.7318;1.2594;
148.8000;0.7326;1.2569;
149.1000;0.7367;1.2670;
149.4000;0.7334;1.2519;
149.7000;0.7334;1.2544;
150.0000;0.7334;1.2519;
150.3000;0.7318;1.2494;
150.6000;0.7318;1.2645;
150.9000;0.7342;1.2569;
151.2000;0.7334;1.2468;
151.5000;0.7318;1.2468;
151.8000;0.7310;1.2594;
152.1000;0.7228;1.2267;
152.4000;0.7318;1.2468;
152.7000;0.7302;1.2468;
153.0000;0.7318;1.2494;
153.3000;0.7310;1.2418;
153.6000;0.7293;1.2418;
153.9000;0.7302;1.2468;
154.2000;0.7310;1.2494;
154.5000;0.7310;1.2519;
154.8000;0.7334;1.2519;
155.1000;0.7318;1.2468;
155.4000;0.7310;1.2494;
155.7000;0.7269;1.2342;
156.0000;0.7326;1.2569;
156.3000;0.7310;1.2569;
156.6000;0.7326;1.2494;
156.9000;0.7334;1.2544;
157.2000;0.7432;1.2821;
157.5000;0.7342;1.2594;
157.8000;0.7342;1.2645;
158.1000;0.7261;1.2494;
158.4000;0.7350;1.2645;
158.7000;0.7277;1.2418;
159.0000;0.7318;1.2544;
159.3000;0.7318;1.2619;
159.6000;0.7350;1.2720;
159.9000;0.7326;1.2619;
160.2000;0.7326;1.2569;
160.5000;0.7359;1.2494;
160.8000;0.7334;1.2494;
161.1000;0.7285;1.2393;
161.4000;0.7334;1.2569;
161.7000;0.7342;1.2594;
162.0000;0.7342;1.2670;
162.3000;0.7350;1.2720;
162.6000;0.7318;1.2670;
162.9000;0.7367;1.2745;
163.2000;0.7334;1.2619;
163.5000;0.7326;1.2619;
163.8000;0.7350;1.2645;
164.1000;0.7261;1.2368;
164.4000;0.7334;1.2494;
164.7000;0.7334;1.2544;
165.0000;0.7318;1.2594;
165.3000;0.7220;1.2267;
165.6000;0.7310;1.2544;
165.9000;0.7326;1.2619;
166.2000;0.7391;1.2846;
166.5000;0.7293;1.2468;
166.8000;0.7310;1.2544;
167.1000;0.7326;1.2519;
167.4000;0.7318;1.2443;
167.7000;0.7318;1.2418;
168.0000;0.7318;1.2418;
168.3000;0.7318;1.2292;
168.6000;0.7367;1.2342;
168.9000;0.7334;1.2267;
169.2000;0.7326;1.2292;
169.5000;0.7326;1.2242;
169.8000;0.7334;1.2267;
170.1000;0.7302;1.2292;
170.4000;0.7310;1.2292;
170.7000;0.7326;1.2342;
171.0000;0.7334;1.2443;
171.3000;0.7326;1.2418;
171.6000;0.7334;1.2544;
171.9000;0.7318;1.2519;
172.2000;0.7326;1.2468;
172.5000;0.7334;1.2418;
172.8000;0.7310;1.2393;
173.1000;0.7350;1.2494;
173.4000;0.7318;1.2468;
173.7000;0.7318;1.2468;
174.0000;0.7326;1.2468;
174.3000;0.7326;1.2468;
174.6000;0.7326;1.2494;
174.9000;0.7334;1.2544;
175.2000;0.7326;1.2519;
175.5000;0.7334;1.2544;
175.8000;0.7318;1.2494;
176.1000;0.7318;1.2494;
176.4000;0.7310;1.2494;
176.7000;0.7269;1.2368;
177.0000;0.7318;1.2519;
177.3000;0.7318;1.2569;
177.6000;0.7293;1.2594;
177.9000;0.7261;1.2569;
178.2000;0.7302;1.2594;
178.5000;0.7293;1.2670;
178.8000;0.7293;1.2569;
179.1000;0.7326;1.2569;
179.4000;0.7310;1.2544;
179.7000;0.7334;1.2519;
180.0000;0.7334;1.2443;
180.3000;0.7318;1.2368;
180.6000;0.7326;1.2443;
180.9000;0.7293;1.2418;
181.2000;0.7342;1.2544;
181.5000;0.7334;1.2544;
181.8000;0.7326;1.2594;
182.1000;0.7342;1.2720;
182.4000;0.7342;1.2720;
182.7000;0.7318;1.2645;
183.0000;0.7359;1.2695;
183.3000;0.7326;1.2619;
183.6000;0.7310;1.2569;
183.9000;0.7310;1.2594;
184.2000;0.7334;1.2519;
184.5000;0.7326;1.2569;
184.8000;0.7318;1.2619;
185.1000;0.7302;1.2519;
185.4000;0.7326;1.2695;
185.7000;0.7318;1.2645;
186.0000;0.7326;1.2645;
186.3000;0.7334;1.2645;
186.6000;0.7326;1.2569;
186.9000;0.7318;1.2619;
187.2000;0.7326;1.2569;
187.5000;0.7334;1.2619;
187.8000;0.7334;1.2594;
188.1000;0.7310;1.2569;
188.4000;0.7318;1.2619;
188.7000;0.7334;1.2645;
189.0000;0.7342;1.2695;
189.3000;0.7302;1.2594;
189.6000;0.7261;1.2519;
189.9000;0.7342;1.2796;
190.2000;0.7367;1.2897;
190.5000;0.7334;1.2871;
190.8000;0.7310;1.2821;
191.1000;0.7326;1.2871;
191.4000;0.7318;1.2922;
191.7000;0.7302;1.2871;
192.0000;0.7302;1.2871;
192.3000;0.7318;1.2771;
192.6000;0.7367;1.2897;
192.9000;0.7245;1.2645;
193.2000;0.7302;1.2745;
193.5000;0.7277;1.2619;
193.8000;0.7293;1.2645;
194.1000;0.7326;1.2645;
194.4000;0.7318;1.2544;
194.7000;0.7318;1.2494;
195.0000;0.7310;1.2519;
195.3000;0.7326;1.2519;
195.6000;0.7318;1.2569;
195.9000;0.7318;1.2544;
196.2000;0.7318;1.2569;
196.5000;0.7310;1.2594;
196.8000;0.7342;1.2619;
197.1000;0.7318;1.2619;
197.4000;0.7326;1.2594;
197.7000;0.7302;1.2494;
198.0000;0.7310;1.2443;
198.3000;0.7293;1.2368;
198.6000;0.7310;1.2519;
198.9000;0.7318;1.2443;
199.2000;0.7318;1.2393;
199.5000;0.7318;1.2393;
199.8000;0.7277;1.2317;
200.1000;0.7310;1.2443;
200.4000;0.7334;1.2494;
200.7000;0.7302;1.2468;
201.0000;0.7310;1.2494;
201.3000;0.7302;1.2544;
201.6000;0.7302;1.2645;
201.9000;0.7310;1.2645;
202.2000;0.7293;1.2519;
202.5000;0.7277;1.2494;
202.8000;0.7293;1.2619;
203.1000;0.7302;1.2544;
203.4000;0.7318;1.2519;
203.7000;0.7326;1.2494;
204.0000;0.7375;1.2670;
204.3000;0.7334;1.2393;
204.6000;0.7318;1.2317;
204.9000;0.7310;1.2292;
205.2000;0.7326;1.2418;
205.5000;0.7342;1.2443;
205.8000;0.7326;1.2342;
206.1000;0.7310;1.2342;
206.4000;0.7326;1.2418;
206.7000;0.7334;1.2494;
207.0000;0.7318;1.2468;
207.3000;0.7326;1.2519;
207.6000;0.7318;1.2569;
207.9000;0.7334;1.2569;
208.2000;0.7310;1.2569;
208.5000;0.7318;1.2544;
208.8000;0.7302;1.2544;
209.1000;0.7326;1.2594;
209.4000;0.7310;1.2594;
209.7000;0.7326;1.2645;
210.0000;0.7310;1.2594;
210.3000;0.7326;1.2519;
210.6000;0.7293;1.2443;
210.9000;0.7302;1.2418;
211.2000;0.7310;1.2443;
211.5000;0.7342;1.2494;
211.8000;0.7326;1.2468;
212.1000;0.7318;1.2494;
212.4000;0.7253;1.2216;
212.7000;0.7293;1.2368;
213.0000;0.7302;1.2368;
213.3000;0.7293;1.2342;
213.6000;0.7318;1.2569;
213.9000;0.7318;1.2594;
214.2000;0.7326;1.2519;
214.5000;0.7391;1.2771;
214.8000;0.7318;1.2494;
215.1000;0.7318;1.2519;
215.4000;0.7310;1.2544;
215.7000;0.7326;1.2569;
216.0000;0.7310;1.2619;
216.3000;0.7310;1.2645;
216.6000;0.7302;1.2695;
216.9000;0.7326;1.2645;
217.2000;0.7318;1.2619;
217.5000;0.7293;1.2670;
217.8000;0.7342;1.2745;
218.1000;0.7318;1.2720;
218.4000;0.7326;1.2720;
218.7000;0.7326;1.2619;
219.0000;0.7334;1.2619;
219.3000;0.7318;1.2619;
219.6000;0.7285;1.2544;
219.9000;0.7293;1.2594;
220.2000;0.7318;1.2645;
220.5000;0.7310;1.2619;
220.8000;0.7326;1.2670;
221.1000;0.7334;1.2544;
221.4000;0.7310;1.2544;
221.7000;0.7318;1.2519;
222.0000;0.7310;1.2544;
222.3000;0.7326;1.2569;
222.6000;0.7302;1.2569;
222.9000;0.7293;1.2544;
223.2000;0.7318;1.2645;
223.5000;0.7293;1.2594;
223.8000;0.7310;1.2569;
224.1000;0.7302;1.2594;
224.4000;0.7302;1.2594;
224.7000;0.7310;1.2569;
225.0000;0.7302;1.2519;
225.3000;0.7285;1.2418;
225.6000;0.7293;1.2468;
225.9000;0.7310;1.2468;
226.2000;0.7318;1.2494;
226.5000;0.7310;1.2494;
226.8000;0.7293;1.2519;
227.1000;0.7326;1.2519;
227.4000;0.7302;1.2468;
227.7000;0.7302;1.2468;
228.0000;0.7310;1.2494;
228.3000;0.7318;1.2569;
228.6000;0.7326;1.2544;
228.9000;0.7318;1.2494;
229.2000;0.7310;1.2519;
229.5000;0.7318;1.2519;
229.8000;0.7318;1.2468;
230.1000;0.7318;1.2494;
230.4000;0.7318;1.2544;
230.7000;0.7334;1.2519;
231.0000;0.7310;1.2494;
231.3000;0.7293;1.2468;
231.6000;0.7302;1.2569;
231.9000;0.7326;1.2645;
232.2000;0.7318;1.2645;
232.5000;0.7318;1.2720;
232.8000;0.7310;1.2745;
233.1000;0.7302;1.2695;
233.4000;0.7326;1.2796;
233.7000;0.7318;1.2771;
234.0000;0.7277;1.2670;
234.3000;0.7293;1.2771;
234.6000;0.7310;1.2796;
234.9000;0.7285;1.2695;
235.2000;0.7293;1.2695;
235.5000;0.7302;1.2670;
235.8000;0.7310;1.2695;
236.1000;0.7326;1.2594;
236.4000;0.7302;1.2594;
236.7000;0.7310;1.2619;
237.0000;0.7302;1.2569;
237.3000;0.7326;1.2619;
237.6000;0.7310;1.2569;
237.9000;0.7391;1.2871;
238.2000;0.7310;1.2645;
238.5000;0.7350;1.2720;
238.8000;0.7326;1.2670;
239.1000;0.7310;1.2594;
239.4000;0.7310;1.2494;
239.7000;0.7293;1.2494;
240.0000;0.7302;1.2468;
240.3000;0.7285;1.2494;
240.6000;0.7302;1.2519;
240.9000;0.7302;1.2569;
241.2000;0.7310;1.2544;
241.5000;0.7310;1.2594;
241.8000;0.7310;1.2544;
242.1000;0.7310;1.2519;
242.4000;0.7318;1.2519;
242.7000;0.7293;1.2443;
243.0000;0.7302;1.2418;
243.3000;0.7302;1.2443;
243.6000;0.7293;1.2468;
243.9000;0.7318;1.2468;
244.2000;0.7302;1.2418;
244.5000;0.7310;1.2342;
244.8000;0.7310;1.2317;
245.1000;0.7359;1.2569;
245.4000;0.7302;1.2494;
245.7000;0.7293;1.2468;
246.0000;0.7293;1.2468;
246.3000;0.7310;1.2494;
246.6000;0.7302;1.2468;
246.9000;0.7293;1.2443;
247.2000;0.7302;1.2418;
247.5000;0.7310;1.2468;
247.8000;0.7367;1.2544;
248.1000;0.7293;1.2393;
248.4000;0.7318;1.2494;
248.7000;0.7302;1.2494;
249.0000;0.7310;1.2494;
249.3000;0.7302;1.2443;
249.6000;0.7310;1.2494;
249.9000;0.7261;1.2342;
250.2000;0.7302;1.2443;
250.5000;0.7310;1.2443;
250.8000;0.7310;1.2368;
251.1000;0.7310;1.2393;
251.4000;0.7326;1.2418;
251.7000;0.7318;1.2468;
252.0000;0.7261;1.2292;
252.3000;0.7310;1.2468;
252.6000;0.7318;1.2468;
252.9000;0.7302;1.2443;
253.2000;0.7302;1.2519;
253.5000;0.7310;1.2519;
253.8000;0.7318;1.2494;
254.1000;0.7310;1.2468;
254.4000;0.7293;1.2418;
254.7000;0.7310;1.2443;
255.0000;0.7310;1.2468;
255.3000;0.7293;1.2418;
255.6000;0.7302;1.2494;
255.9000;0.7302;1.2519;
256.2000;0.7318;1.2594;
256.5000;0.7310;1.2594;
256.8000;0.7302;1.2670;
257.1000;0.7302;1.2670;
257.4000;0.7285;1.2594;
257.7000;0.7310;1.2645;
258.0000;0.7302;1.2645;
258.3000;0.7302;1.2619;
258.6000;0.7391;1.2846;
258.9000;0.7302;1.2468;
259.2000;0.7302;1.2519;
259.5000;0.7285;1.2494;
259.8000;0.7310;1.2468;
260.1000;0.7293;1.2544;
260.4000;0.7302;1.2519;
260.7000;0.7302;1.2544;
261.0000;0.7285;1.2569;
261.3000;0.7285;1.2594;
261.6000;0.7334;1.2670;
261.9000;0.7293;1.2594;
262.2000;0.7293;1.2569;
262.5000;0.7302;1.2619;
262.8000;0.7302;1.2544;
263.1000;0.7302;1.2519;
263.4000;0.7293;1.2468;
263.7000;0.7302;1.2494;
264.0000;0.7302;1.2443;
264.3000;0.7318;1.2494;
264.6000;0.7293;1.2519;
264.9000;0.7318;1.2619;
265.2000;0.7302;1.2494;
265.5000;0.7302;1.2519;
265.8000;0.7310;1.2569;
266.1000;0.7302;1.2645;
266.4000;0.7318;1.2695;
266.7000;0.7310;1.2645;
267.0000;0.7318;1.2619;
267.3000;0.7310;1.2594;
267.6000;0.7269;1.2393;
267.9000;0.7310;1.2494;
268.2000;0.7334;1.2569;
268.5000;0.7302;1.2594;
268.8000;0.7293;1.2619;
269.1000;0.7326;1.2619;
269.4000;0.7318;1.2494;
269.7000;0.7318;1.2468;
270.0000;0.7302;1.2468;
270.3000;0.7302;1.2468;
270.6000;0.7302;1.2494;
270.9000;0.7293;1.2468;
271.2000;0.7285;1.2368;
271.5000;0.7293;1.2368;
271.8000;0.7245;1.2317;
272.1000;0.7285;1.2468;
272.4000;0.7293;1.2519;
272.7000;0.7293;1.2594;
273.0000;0.7318;1.2519;
273.3000;0.7220;1.2267;
273.6000;0.7285;1.2317;
273.9000;0.7293;1.2292;
274.2000;0.7285;1.2317;
274.5000;0.7277;1.2292;
274.8000;0.7310;1.2418;
275.1000;0.7285;1.2368;
275.4000;0.7310;1.2368;
275.7000;0.7302;1.2368;
276.0000;0.7318;1.2468;
276.3000;0.7310;1.2443;
276.6000;0.7310;1.2468;
276.9000;0.7310;1.2494;
277.2000;0.7293;1.2494;
277.5000;0.7277;1.2468;
277.8000;0.7302;1.2519;
278.1000;0.7302;1.2494;
278.4000;0.7302;1.2468;
278.7000;0.7293;1.2393;
279.0000;0.7302;1.2393;
279.3000;0.7302;1.2393;
279.6000;0.7302;1.2418;
279.9000;0.7310;1.2494;
280.2000;0.7293;1.2494;
280.5000;0.7302;1.2494;
280.8000;0.7310;1.2468;
281.1000;0.7342;1.2494;
281.4000;0.7302;1.2393;
281.7000;0.7277;1.2342;
282.0000;0.7310;1.2468;
282.3000;0.7269;1.2393;
282.6000;0.7285;1.2418;
282.9000;0.7277;1.2393;
283.2000;0.7302;1.2368;
283.5000;0.7277;1.2216;
283.8000;0.7302;1.2317;
284.1000;0.7277;1.2267;
284.4000;0.7302;1.2368;
284.7000;0.7261;1.2292;
285.0000;0.7293;1.2443;
285.3000;0.7310;1.2443;
285.6000;0.7277;1.2393;
285.9000;0.7350;1.2645;
286.2000;0.7310;1.2619;
286.5000;0.7326;1.2695;
286.8000;0.7261;1.2494;
287.1000;0.7318;1.2645;
287.4000;0.7310;1.2594;
287.7000;0.7318;1.2594;
288.0000;0.7350;1.2619;
288.3000;0.7318;1.2569;
288.6000;0.7302;1.2494;
288.9000;0.7302;1.2468;
289.2000;0.7302;1.2342;
289.5000;0.7318;1.2393;
289.8000;0.7318;1.2443;
290.1000;0.7302;1.2468;
290.4000;0.7310;1.2569;
290.7000;0.7318;1.2494;
291.0000;0.7326;1.2569;
291.3000;0.7302;1.2569;
291.6000;0.7293;1.2519;
291.9000;0.7310;1.2468;
292.2000;0.7302;1.2468;
292.5000;0.7277;1.2418;
292.8000;0.7277;1.2494;
293.1000;0.7302;1.2569;
293.4000;0.7310;1.2619;
293.7000;0.7285;1.2569;
294.0000;0.7302;1.2645;
294.3000;0.7302;1.2720;
294.6000;0.7310;1.2670;
294.9000;0.7293;1.2619;
295.2000;0.7293;1.2594;
295.5000;0.7318;1.2569;
295.8000;0.7277;1.2468;
296.1000;0.7318;1.2645;
296.4000;0.7293;1.2594;
296.7000;0.7293;1.2569;
297.0000;0.7302;1.2619;
297.3000;0.7302;1.2594;
297.6000;0.7302;1.2670;
297.9000;0.7293;1.2645;
298.2000;0.7293;1.2594;
298.5000;0.7310;1.2569;
298.8000;0.7293;1.2519;
299.1000;0.7310;1.2569;
299.4000;0.7253;1.2418;
299.7000;0.7277;1.2619;
300.0000;0.7302;1.2670;
300.3000;0.7293;1.2670;
300.6000;0.7293;1.2720;
300.9000;0.7293;1.2720;
301.2000;0.7302;1.2670;
301.5000;0.7310;1.2745;
301.8000;0.7318;1.2645;
302.1000;0.7302;1.2544;
302.4000;0.7318;1.2544;
302.7000;0.7302;1.2468;
303.0000;0.7302;1.2393;
303.3000;0.7310;1.2418;
303.6000;0.7399;1.2619;
303.9000;0.7285;1.2292;
304.2000;0.7277;1.2368;
304.5000;0.7302;1.2443;
304.8000;0.7302;1.2368;
305.1000;0.7277;1.2292;
305.4000;0.7334;1.2368;
305.7000;0.7285;1.2267;
306.0000;0.7277;1.2292;
306.3000;0.7277;1.2342;
306.6000;0.7285;1.2393;
306.9000;0.7269;1.2242;
307.2000;0.7269;1.2166;
307.5000;0.7302;1.2292;
307.8000;0.7245;1.2166;
308.1000;0.7302;1.2267;
308.4000;0.7310;1.2342;
308.7000;0.7293;1.2216;
309.0000;0.7245;1.2141;
309.3000;0.7302;1.2292;
309.6000;0.7293;1.2317;
309.9000;0.7293;1.2267;
310.2000;0.7318;1.2317;
310.5000;0.7261;1.2166;
310.8000;0.7302;1.2292;
311.1000;0.7253;1.2216;
311.4000;0.7302;1.2342;
311.7000;0.7342;1.2418;
312.0000;0.7261;1.2242;
312.3000;0.7318;1.2317;
312.6000;0.7293;1.2342;
312.9000;0.7310;1.2368;
313.2000;0.7302;1.2342;
313.5000;0.7302;1.2292;
313.8000;0.7318;1.2292;
314.1000;0.7342;1.2368;
314.4000;0.7293;1.2191;
314.7000;0.7310;1.2242;
315.0000;0.7293;1.2342;
315.3000;0.7293;1.2368;
315.6000;0.7269;1.2342;
315.9000;0.7293;1.2544;
316.2000;0.7302;1.2594;
316.5000;0.7302;1.2519;
316.8000;0.7277;1.2619;
317.1000;0.7269;1.2619;
317.4000;0.7293;1.2594;
317.7000;0.7302;1.2519;
318.0000;0.7285;1.2443;
318.3000;0.7302;1.2418;
318.6000;0.7302;1.2443;
318.9000;0.7302;1.2418;
319.2000;0.7302;1.2393;
319.5000;0.7285;1.2342;
319.8000;0.7293;1.2342;
320.1000;0.7318;1.2368;
320.4000;0.7302;1.2267;
320.7000;0.7285;1.2368;
321.0000;0.7277;1.2342;
321.3000;0.7285;1.2242;
321.6000;0.7302;1.2292;
321.9000;0.7293;1.2418;
322.2000;0.7310;1.2468;
322.5000;0.7310;1.2418;
322.8000;0.7285;1.2418;
323.1000;0.7318;1.2468;
323.4000;0.7318;1.2393;
323.7000;0.7302;1.2292;
324.0000;0.7310;1.2368;
324.3000;0.7302;1.2418;
324.6000;0.7293;1.2368;
324.9000;0.7293;1.2443;
325.2000;0.7326;1.2544;
325.5000;0.7285;1.2393;
325.8000;0.7293;1.2418;
326.1000;0.7302;1.2393;
326.4000;0.7277;1.2342;
326.7000;0.7375;1.2569;
327.0000;0.7285;1.2368;
327.3000;0.7285;1.2368;
327.6000;0.7269;1.2342;
327.9000;0.7310;1.2418;
328.2000;0.7318;1.2418;
328.5000;0.7261;1.2317;
328.8000;0.7302;1.2418;
329.1000;0.7326;1.2494;
329.4000;0.7293;1.2443;
329.7000;0.7285;1.2368;
330.0000;0.7269;1.2393;
330.3000;0.7310;1.2368;
330.6000;0.7318;1.2393;
330.9000;0.7285;1.2317;
331.2000;0.7277;1.2267;
331.5000;0.7310;1.2393;
331.8000;0.7302;1.2368;
332.1000;0.7302;1.2393;
332.4000;0.7367;1.2594;
332.7000;0.7302;1.2443;
333.0000;0.7310;1.2393;
333.3000;0.7302;1.2368;
333.6000;0.7277;1.2216;
333.9000;0.7293;1.2267;
334.2000;0.7318;1.2292;
334.5000;0.7285;1.2267;
334.8000;0.7293;1.2292;
335.1000;0.7326;1.2443;
335.4000;0.7269;1.2443;
335.7000;0.7293;1.2468;
336.0000;0.7269;1.2368;
336.3000;0.7285;1.2368;
336.6000;0.7293;1.2368;
336.9000;0.7285;1.2267;
337.2000;0.7302;1.2292;
337.5000;0.7293;1.2292;
337.8000;0.7310;1.2317;
338.1000;0.7310;1.2216;
338.4000;0.7302;1.2216;
338.7000;0.7302;1.2216;
339.0000;0.7302;1.2216;
339.3000;0.7302;1.2216;
339.6000;0.7285;1.2166;
339.9000;0.7261;1.2065;
340.2000;0.7293;1.2116;
340.5000;0.7285;1.2166;
340.8000;0.7285;1.2116;
341.1000;0.7285;1.2116;
341.4000;0.7285;1.2191;
341.7000;0.7293;1.2267;
342.0000;0.7293;1.2317;
342.3000;0.7277;1.2368;
342.6000;0.7269;1.2368;
342.9000;0.7293;1.2443;
343.2000;0.7310;1.2418;
343.5000;0.7302;1.2393;
343.8000;0.7302;1.2393;
344.1000;0.7277;1.2393;
344.4000;0.7285;1.2393;
344.7000;0.7293;1.2368;
345.0000;0.7277;1.2342;
345.3000;0.7277;1.2418;
345.6000;0.7277;1.2494;
345.9000;0.7269;1.2494;
346.2000;0.7261;1.2544;
346.5000;0.7310;1.2544;
346.8000;0.7293;1.2468;
347.1000;0.7310;1.2519;
347.4000;0.7285;1.2317;
347.7000;0.7293;1.2216;
348.0000;0.7293;1.2166;
348.3000;0.7302;1.2166;
348.6000;0.7310;1.2191;
348.9000;0.7302;1.2191;
349.2000;0.7220;1.2015;
349.5000;0.7302;1.2242;
349.8000;0.7334;1.2393;
350.1000;0.7253;1.2267;
350.4000;0.7293;1.2393;
350.7000;0.7302;1.2468;
351.0000;0.7293;1.2519;
351.3000;0.7285;1.2544;
351.6000;0.7318;1.2594;
351.9000;0.7285;1.2468;
352.2000;0.7277;1.2519;
352.5000;0.7285;1.2544;
352.8000;0.7269;1.2494;
353.1000;0.7293;1.2494;
353.4000;0.7261;1.2494;
353.7000;0.7285;1.2594;
354.0000;0.7277;1.2569;
354.3000;0.7302;1.2645;
354.6000;0.7302;1.2645;
354.9000;0.7269;1.2594;
355.2000;0.7277;1.2619;
355.5000;0.7293;1.2594;
355.8000;0.7261;1.2519;
356.1000;0.7302;1.2519;
356.4000;0.7285;1.2569;
356.7000;0.7261;1.2418;
357.0000;0.7293;1.2519;
357.3000;0.7293;1.2468;
357.6000;0.7253;1.2393;
357.9000;0.7293;1.2494;
358.2000;0.7326;1.2619;
358.5000;0.7359;1.2745;
358.8000;0.7285;1.2619;
359.1000;0.7285;1.2544;
359.4000;0.7293;1.2544;
359.7000;0.7302;1.2569;
360.0000;0.7261;1.2494;
360.3000;0.7293;1.2494;
360.6000;0.7293;1.2468;
360.9000;0.7253;1.2544;
361.2000;0.7269;1.2619;
361.5000;0.7277;1.2645;
361.8000;0.7269;1.2670;
362.1000;0.7342;1.2871;
362.4000;0.7293;1.2771;
362.7000;0.7261;1.2695;
363.0000;0.7220;1.2594;
363.3000;0.7285;1.2821;
363.6000;0.7326;1.2897;
363.9000;0.7318;1.2796;
364.2000;0.7285;1.2670;
364.5000;0.7334;1.2771;
364.8000;0.7277;1.2594;
365.1000;0.7302;1.2594;
365.4000;0.7277;1.2468;
365.7000;0.7277;1.2494;
366.0000;0.7261;1.2544;
366.3000;0.7277;1.2569;
366.6000;0.7293;1.2619;
366.9000;0.7269;1.2594;
367.2000;0.7285;1.2594;
367.5000;0.7293;1.2494;
367.8000;0.7293;1.2519;
368.1000;0.7302;1.2544;
368.4000;0.7318;1.2519;
368.7000;0.7285;1.2418;
369.0000;0.7293;1.2494;
369.3000;0.7293;1.2594;
369.6000;0.7326;1.2670;
369.9000;0.7293;1.2569;
370.2000;0.7293;1.2519;
370.5000;0.7269;1.2468;
370.8000;0.7261;1.2494;
371.1000;0.7269;1.2393;
371.4000;0.7285;1.2368;
371.7000;0.7277;1.2317;
372.0000;0.7293;1.2267;
372.3000;0.7293;1.2267;
372.6000;0.7253;1.2141;
372.9000;0.7293;1.2242;
373.2000;0.7302;1.2191;
373.5000;0.7293;1.2242;
373.8000;0.7302;1.2317;
374.1000;0.7269;1.2216;
374.4000;0.7285;1.2216;
374.7000;0.7285;1.2317;
375.0000;0.7293;1.2368;
375.3000;0.7285;1.2368;
375.6000;0.7277;1.2342;
375.9000;0.7285;1.2418;
376.2000;0.7261;1.2443;
376.5000;0.7261;1.2443;
376.8000;0.7285;1.2494;
377.1000;0.7269;1.2544;
377.4000;0.7269;1.2443;
377.7000;0.7285;1.2468;
378.0000;0.7310;1.2494;
378.3000;0.7293;1.2494;
378.6000;0.7277;1.2569;
378.9000;0.7318;1.2645;
379.2000;0.7293;1.2569;
379.5000;0.7285;1.2569;
379.8000;0.7277;1.2544;
380.1000;0.7277;1.2494;
380.4000;0.7285;1.2443;
380.7000;0.7277;1.2468;
381.0000;0.7285;1.2443;
381.3000;0.7269;1.2494;
381.6000;0.7293;1.2443;
381.9000;0.7293;1.2594;
382.2000;0.7269;1.2594;
382.5000;0.7293;1.2594;
382.8000;0.7285;1.2569;
383.1000;0.7285;1.2569;
383.4000;0.7269;1.2519;
383.7000;0.7269;1.2468;
384.0000;0.7302;1.2494;
384.3000;0.7253;1.2393;
384.6000;0.7253;1.2418;
384.9000;0.7261;1.2342;
385.2000;0.7293;1.2418;
385.5000;0.7269;1.2368;
385.8000;0.7236;1.2342;
386.1000;0.7277;1.2468;
386.4000;0.7285;1.2418;
386.7000;0.7285;1.2443;
387.0000;0.7375;1.2569;
387.3000;0.7285;1.2468;
387.6000;0.7293;1.2569;
387.9000;0.7302;1.2569;
388.2000;0.7277;1.2494;
388.5000;0.7302;1.2544;
388.8000;0.7293;1.2494;
389.1000;0.7261;1.2468;
389.4000;0.7196;1.2342;
389.7000;0.7269;1.2443;
390.0000;0.7277;1.2443;
390.3000;0.7293;1.2519;
390.6000;0.7285;1.2443;
390.9000;0.7253;1.2443;
391.2000;0.7285;1.2544;
391.5000;0.7302;1.2619;
391.8000;0.7342;1.2745;
392.1000;0.7261;1.2519;
392.4000;0.7285;1.2569;
392.7000;0.7269;1.2468;
393.0000;0.7326;1.2619;
393.3000;0.7277;1.2494;
393.6000;0.7310;1.2594;
393.9000;0.7285;1.2569;
394.2000;0.7204;1.2342;
394.5000;0.7285;1.2594;
394.8000;0.7245;1.2544;
395.1000;0.7228;1.2519;
395.4000;0.7269;1.2695;
395.7000;0.7220;1.2544;
396.0000;0.7269;1.2670;
396.3000;0.7277;1.2670;
396.6000;0.7228;1.2519;
396.9000;0.7277;1.2645;
397.2000;0.7293;1.2695;
397.5000;0.7285;1.2619;
397.8000;0.7277;1.2619;
398.1000;0.7277;1.2645;
398.4000;0.7285;1.2619;
398.7000;0.7269;1.2519;
399.0000;0.7326;1.2569;
399.3000;0.7285;1.2468;
399.6000;0.7293;1.2494;
399.9000;0.7261;1.2443;
400.2000;0.7310;1.2569;
400.5000;0.7302;1.2594;
400.8000;0.7277;1.2544;
401.1000;0.7277;1.2619;
401.4000;0.7269;1.2670;
401.7000;0.7302;1.2720;
402.0000;0.7334;1.2771;
402.3000;0.7269;1.2619;
402.6000;0.7269;1.2645;
402.9000;0.7277;1.2619;
403.2000;0.7269;1.2645;
403.5000;0.7359;1.2897;
403.8000;0.7269;1.2619;
404.1000;0.7261;1.2645;
404.4000;0.7285;1.2619;
404.7000;0.7269;1.2619;
405.0000;0.7269;1.2594;
405.3000;0.7293;1.2569;
405.6000;0.7277;1.2594;
405.9000;0.7285;1.2619;
406.2000;0.7277;1.2544;
406.5000;0.7285;1.2670;
406.8000;0.7293;1.2695;
407.1000;0.7293;1.2695;
407.4000;0.7285;1.2645;
407.7000;0.7277;1.2695;
408.0000;0.7269;1.2720;
408.3000;0.7269;1.2695;
408.6000;0.7277;1.2645;
408.9000;0.7269;1.2720;
409.2000;0.7269;1.2645;
409.5000;0.7285;1.2745;
409.8000;0.7277;1.2745;
410.1000;0.7261;1.2645;
410.4000;0.7310;1.2619;
410.7000;0.7277;1.2519;
411.0000;0.7293;1.2594;
411.3000;0.7277;1.2519;
411.6000;0.7277;1.2443;
411.9000;0.7285;1.2368;
412.2000;0.7269;1.2368;
412.5000;0.7179;1.2065;
412.8000;0.7269;1.2267;
413.1000;0.7277;1.2267;
413.4000;0.7302;1.2342;
413.7000;0.7310;1.2468;
414.0000;0.7293;1.2342;
414.3000;0.7293;1.2418;
414.6000;0.7277;1.2393;
414.9000;0.7285;1.2368;
415.2000;0.7277;1.2443;
415.5000;0.7261;1.2368;
415.8000;0.7269;1.2342;
416.1000;0.7277;1.2368;
416.4000;0.7261;1.2342;
416.7000;0.7277;1.2418;
417.0000;0.7253;1.2443;
417.3000;0.7269;1.2494;
417.6000;0.7334;1.2619;
417.9000;0.7277;1.2468;
418.2000;0.7228;1.2393;
418.5000;0.7277;1.2494;
418.8000;0.7302;1.2594;
419.1000;0.7277;1.2519;
419.4000;0.7293;1.2494;
419.7000;0.7277;1.2418;
420.0000;0.7277;1.2393;
420.3000;0.7277;1.2393;
420.6000;0.7269;1.2418;
420.9000;0.7269;1.2418;
421.2000;0.7277;1.2368;
421.5000;0.7302;1.2468;
421.8000;0.7212;1.2242;
422.1000;0.7277;1.2292;
422.4000;0.7277;1.2342;
422.7000;0.7277;1.2443;
423.0000;0.7236;1.2342;
423.3000;0.7261;1.2317;
423.6000;0.7163;1.2116;
423.9000;0.7253;1.2418;
424.2000;0.7236;1.2418;
424.5000;0.7236;1.2342;
424.8000;0.7285;1.2393;
425.1000;0.7285;1.2393;
425.4000;0.7293;1.2368;
425.7000;0.7269;1.2292;
426.0000;0.7359;1.2494;
426.3000;0.7285;1.2342;
426.6000;0.7269;1.2242;
426.9000;0.7277;1.2191;
427.2000;0.7245;1.2166;
427.5000;0.7261;1.2342;
427.8000;0.7277;1.2368;
428.1000;0.7253;1.2267;
428.4000;0.7302;1.2368;
428.7000;0.7269;1.2317;
429.0000;0.7318;1.2443;
429.3000;0.7269;1.2393;
429.6000;0.7285;1.2443;
429.9000;0.7277;1.2418;
430.2000;0.7277;1.2317;
430.5000;0.7277;1.2267;
430.8000;0.7277;1.2242;
431.1000;0.7277;1.2216;
431.4000;0.7285;1.2191;
431.7000;0.7269;1.2141;
432.0000;0.7261;1.2141;
432.3000;0.7269;1.2015;
432.6000;0.7269;1.2090;
432.9000;0.7269;1.2141;
433.2000;0.7261;1.2116;
433.5000;0.7285;1.2191;
433.8000;0.7261;1.2242;
434.1000;0.7269;1.2292;
434.4000;0.7261;1.2342;
434.7000;0.7269;1.2317;
435.0000;0.7269;1.2292;
435.3000;0.7261;1.2292;
435.6000;0.7261;1.2267;
435.9000;0.7375;1.2544;
436.2000;0.7269;1.2242;
436.5000;0.7269;1.2292;
436.8000;0.7269;1.2267;
437.1000;0.7253;1.2242;
437.4000;0.7261;1.2292;
437.7000;0.7261;1.2368;
438.0000;0.7269;1.2393;
438.3000;0.7261;1.2393;
438.6000;0.7318;1.2393;
438.9000;0.7285;1.2342;
439.2000;0.7261;1.2292;
439.5000;0.7253;1.2267;
439.8000;0.7293;1.2242;
440.1000;0.7293;1.2191;
440.4000;0.7269;1.2090;
440.7000;0.7253;1.2141;
441.0000;0.7269;1.2191;
441.3000;0.7277;1.2242;
441.6000;0.7277;1.2317;
441.9000;0.7261;1.2292;
442.2000;0.7269;1.2267;
442.5000;0.7269;1.2368;
442.8000;0.7326;1.2494;
443.1000;0.7285;1.2342;
443.4000;0.7277;1.2267;
443.7000;0.7236;1.2166;
444.0000;0.7277;1.2216;
444.3000;0.7285;1.2267;
444.6000;0.7277;1.2267;
444.9000;0.7302;1.2267;
445.2000;0.7277;1.2267;
445.5000;0.7285;1.2216;
445.8000;0.7261;1.2141;
446.1000;0.7261;1.2090;
446.4000;0.7285;1.2242;
446.7000;0.7269;1.2166;
447.0000;0.7269;1.2141;
447.3000;0.7277;1.2191;
447.6000;0.7293;1.2216;
447.9000;0.7277;1.2216;
448.2000;0.7269;1.2191;
448.5000;0.7269;1.2191;
448.8000;0.7293;1.2267;
449.1000;0.7375;1.2468;
449.4000;0.7269;1.2191;
449.7000;0.7269;1.2267;
450.0000;0.7269;1.2242;
450.3000;0.7269;1.2191;
450.6000;0.7269;1.2216;
450.9000;0.7277;1.2242;
451.2000;0.7277;1.2292;
451.5000;0.7277;1.2267;
451.8000;0.7269;1.2292;
452.1000;0.7245;1.2317;
452.4000;0.7253;1.2242;
452.7000;0.7269;1.2292;
453.0000;0.7253;1.2292;
453.3000;0.7253;1.2267;
453.6000;0.7261;1.2267;
453.9000;0.7269;1.2242;
454.2000;0.7261;1.2242;
454.5000;0.7269;1.2267;
454.8000;0.7245;1.2216;
455.1000;0.7277;1.2292;
455.4000;0.7269;1.2317;
455.7000;0.7253;1.2418;
456.0000;0.7261;1.2468;
456.3000;0.7285;1.2594;
456.6000;0.7269;1.2619;
456.9000;0.7261;1.2494;
457.2000;0.7261;1.2519;
457.5000;0.7245;1.2544;
457.8000;0.7236;1.2418;
458.1000;0.7236;1.2393;
458.4000;0.7293;1.2494;
458.7000;0.7245;1.2292;
459.0000;0.7277;1.2368;
459.3000;0.7261;1.2317;
459.6000;0.7261;1.2242;
459.9000;0.7269;1.2292;
460.2000;0.7253;1.2342;
460.5000;0.7261;1.2267;
460.8000;0.7261;1.2191;
461.1000;0.7269;1.2166;
461.4000;0.7253;1.2116;
461.7000;0.7261;1.2242;
462.0000;0.7204;1.2116;
462.3000;0.7253;1.2216;
462.6000;0.7277;1.2292;
462.9000;0.7269;1.2267;
463.2000;0.7261;1.2242;
463.5000;0.7277;1.2342;
463.8000;0.7220;1.2267;
464.1000;0.7261;1.2342;
464.4000;0.7285;1.2393;
464.7000;0.7261;1.2342;
465.0000;0.7269;1.2368;
465.3000;0.7285;1.2418;
465.6000;0.7277;1.2494;
465.9000;0.7334;1.2670;
466.2000;0.7204;1.2393;
466.5000;0.7293;1.2619;
466.8000;0.7285;1.2569;
467.1000;0.7277;1.2569;
467.4000;0.7261;1.2544;
467.7000;0.7269;1.2443;
468.0000;0.7253;1.2368;
468.3000;0.7269;1.2393;
468.6000;0.7261;1.2393;
468.9000;0.7253;1.2443;
469.2000;0.7269;1.2443;
469.5000;0.7318;1.2519;
469.8000;0.7277;1.2468;
470.1000;0.7269;1.2468;
470.4000;0.7277;1.2544;
470.7000;0.7261;1.2594;
471.0000;0.7277;1.2645;
471.3000;0.7261;1.2619;
471.6000;0.7253;1.2594;
471.9000;0.7269;1.2645;
472.2000;0.7261;1.2619;
472.5000;0.7253;1.2569;
472.8000;0.7261;1.2519;
473.1000;0.7245;1.2443;
473.4000;0.7253;1.2368;
473.7000;0.7253;1.2393;
474.0000;0.7261;1.2342;
474.3000;0.7269;1.2468;
474.6000;0.7269;1.2468;
474.9000;0.7269;1.2569;
475.2000;0.7245;1.2569;
475.5000;0.7261;1.2544;
475.8000;0.7269;1.2544;
476.1000;0.7253;1.2468;
476.4000;0.7253;1.2468;
476.7000;0.7261;1.2519;
477.0000;0.7261;1.2619;
477.3000;0.7236;1.2544;
477.6000;0.7253;1.2544;
477.9000;0.7236;1.2619;
478.2000;0.7261;1.2695;
478.5000;0.7236;1.2670;
478.8000;0.7220;1.2594;
479.1000;0.7245;1.2569;
479.4000;0.7245;1.2443;
479.7000;0.7220;1.2418;
480.0000;0.7253;1.2544;
480.3000;0.7277;1.2519;
480.6000;0.7269;1.2569;
480.9000;0.7277;1.2619;
481.2000;0.7277;1.2619;
481.5000;0.7269;1.2695;
481.8000;0.7310;1.2796;
482.1000;0.7261;1.2569;
482.4000;0.7204;1.2443;
482.7000;0.7261;1.2670;
483.0000;0.7277;1.2695;
483.3000;0.7277;1.2645;
483.6000;0.7204;1.2418;
483.9000;0.7261;1.2544;
484.2000;0.7269;1.2544;
484.5000;0.7269;1.2544;
484.8000;0.7236;1.2393;
485.1000;0.7253;1.2494;
485.4000;0.7236;1.2418;
485.7000;0.7285;1.2494;
486.0000;0.7277;1.2494;
486.3000;0.7261;1.2544;
486.6000;0.7269;1.2569;
486.9000;0.7310;1.2645;
487.2000;0.7277;1.2494;
487.5000;0.7269;1.2443;
487.8000;0.7253;1.2393;
488.1000;0.7253;1.2393;
488.4000;0.7253;1.2368;
488.7000;0.7269;1.2317;
489.0000;0.7228;1.2216;
489.3000;0.7261;1.2267;
489.6000;0.7253;1.2267;
489.9000;0.7277;1.2393;
490.2000;0.7269;1.2368;
490.5000;0.7261;1.2418;
490.8000;0.7253;1.2443;
491.1000;0.7261;1.2494;
491.4000;0.7253;1.2519;
491.7000;0.7277;1.2569;
492.0000;0.7261;1.2670;
492.3000;0.7261;1.2670;
492.6000;0.7253;1.2619;
492.9000;0.7228;1.2468;
493.2000;0.7253;1.2418;
493.5000;0.7245;1.2393;
493.8000;0.7228;1.2317;
494.1000;0.7245;1.2418;
494.4000;0.7253;1.2393;
494.7000;0.7269;1.2368;
495.0000;0.7188;1.2191;
495.3000;0.7245;1.2418;
495.6000;0.7245;1.2368;
495.9000;0.7277;1.2494;
496.2000;0.7212;1.2342;
496.5000;0.7277;1.2519;
496.8000;0.7253;1.2393;
497.1000;0.7261;1.2317;
497.4000;0.7285;1.2317;
497.7000;0.7261;1.2242;
498.0000;0.7269;1.2216;
498.3000;0.7261;1.2216;
498.6000;0.7236;1.2216;
498.9000;0.7253;1.2242;
499.2000;0.7253;1.2166;
499.5000;0.7253;1.2141;
499.8000;0.7269;1.2216;
500.1000;0.7277;1.2166;
500.4000;0.7261;1.2216;
500.7000;0.7261;1.2242;
501.0000;0.7261;1.2342;
501.3000;0.7253;1.2267;
501.6000;0.7253;1.2242;
501.9000;0.7253;1.2317;
502.2000;0.7269;1.2292;
502.5000;0.7245;1.2317;
502.8000;0.7318;1.2468;
503.1000;0.7302;1.2494;
503.4000;0.7253;1.2393;
503.7000;0.7277;1.2519;
504.0000;0.7220;1.2317;
504.3000;0.7277;1.2443;
504.6000;0.7269;1.2443;
504.9000;0.7253;1.2494;
505.2000;0.7253;1.2443;
505.5000;0.7236;1.2443;
505.8000;0.7253;1.2393;
506.1000;0.7253;1.2368;
506.4000;0.7171;1.2090;
506.7000;0.7253;1.2342;
507.0000;0.7334;1.2619;
507.3000;0.7245;1.2443;
507.6000;0.7245;1.2468;
507.9000;0.7245;1.2418;
508.2000;0.7261;1.2468;
508.5000;0.7245;1.2418;
508.8000;0.7253;1.2468;
509.1000;0.7253;1.2443;
509.4000;0.7253;1.2468;
509.7000;0.7253;1.2418;
510.0000;0.7269;1.2519;
510.3000;0.7277;1.2519;
510.6000;0.7188;1.2267;
510.9000;0.7253;1.2443;
511.2000;0.7277;1.2468;
511.5000;0.7261;1.2393;
511.8000;0.7204;1.2191;
512.1000;0.7285;1.2317;
512.4000;0.7261;1.2368;
512.7000;0.7269;1.2342;
513.0000;0.7245;1.2342;
513.3000;0.7293;1.2494;
513.6000;0.7253;1.2443;
513.9000;0.7277;1.2468;
514.2000;0.7163;1.2191;
514.5000;0.7245;1.2368;
514.8000;0.7269;1.2368;
515.1000;0.7253;1.2292;
515.4000;0.7212;1.2090;
515.7000;0.7277;1.2292;
516.0000;0.7245;1.2242;
516.3000;0.7253;1.2292;
516.6000;0.7245;1.2191;
516.9000;0.7261;1.2292;
517.2000;0.7220;1.2267;
517.5000;0.7220;1.2267;
517.8000;0.7261;1.2393;
518.1000;0.7302;1.2393;
518.4000;0.7253;1.2216;
518.7000;0.7245;1.2317;
519.0000;0.7302;1.2569;
519.3000;0.7253;1.2368;
519.6000;0.7269;1.2393;
519.9000;0.7245;1.2342;
520.2000;0.7245;1.2418;
520.5000;0.7302;1.2544;
520.8000;0.7245;1.2342;
521.1000;0.7277;1.2519;
521.4000;0.7261;1.2418;
521.7000;0.7236;1.2342;
522.0000;0.7253;1.2393;
522.3000;0.7245;1.2418;
522.6000;0.7253;1.2494;
522.9000;0.7253;1.2494;
523.2000;0.7261;1.2494;
523.5000;0.7277;1.2594;
523.8000;0.7253;1.2544;
524.1000;0.7236;1.2519;
524.4000;0.7253;1.2468;
524.7000;0.7261;1.2468;
525.0000;0.7253;1.2342;
525.3000;0.7277;1.2317;
525.6000;0.7277;1.2368;
525.9000;0.7245;1.2292;
526.2000;0.7253;1.2267;
526.5000;0.7318;1.2418;
526.8000;0.7269;1.2267;
527.1000;0.7261;1.2317;
527.4000;0.7261;1.2342;
527.7000;0.7253;1.2393;
528.0000;0.7236;1.2368;
528.3000;0.7253;1.2368;
528.6000;0.7261;1.2342;
528.9000;0.7245;1.2317;
529.2000;0.7253;1.2443;
529.5000;0.7253;1.2468;
529.8000;0.7253;1.2418;
530.1000;0.7261;1.2443;
530.4000;0.7253;1.2443;
530.7000;0.7253;1.2418;
531.0000;0.7261;1.2393;
531.3000;0.7188;1.2191;
531.6000;0.7261;1.2418;
531.9000;0.7310;1.2544;
532.2000;0.7236;1.2317;
532.5000;0.7236;1.2317;
532.8000;0.7261;1.2418;
533.1000;0.7220;1.2342;
533.4000;0.7253;1.2443;
533.7000;0.7253;1.2468;
534.0000;0.7236;1.2342;
534.3000;0.7245;1.2368;
534.6000;0.7253;1.2267;
534.9000;0.7277;1.2267;
535.2000;0.7245;1.2242;
535.5000;0.7245;1.2267;
535.8000;0.7310;1.2418;
536.1000;0.7293;1.2317;
536.4000;0.7261;1.2342;
536.7000;0.7277;1.2494;
537.0000;0.7204;1.2317;
537.3000;0.7269;1.2443;
537.6000;0.7302;1.2569;
537.9000;0.7245;1.2393;
538.2000;0.7261;1.2368;
538.5000;0.7269;1.2317;
538.8000;0.7245;1.2216;
539.1000;0.7253;1.2116;
539.4000;0.7277;1.2191;
539.7000;0.7228;1.2116;
540.0000;0.7318;1.2342;
540.3000;0.7253;1.2317;
540.6000;0.7204;1.2216;
540.9000;0.7253;1.2418;
541.2000;0.7253;1.2368;
541.5000;0.7285;1.2619;
541.8000;0.7269;1.2619;
542.1000;0.7261;1.2594;
542.4000;0.7285;1.2569;
542.7000;0.7318;1.2569;
543.0000;0.7293;1.2494;
543.3000;0.7269;1.2443;
543.6000;0.7269;1.2368;
543.9000;0.7245;1.2368;
544.2000;0.7245;1.2393;
544.5000;0.7228;1.2368;
544.8000;0.7236;1.2342;
545.1000;0.7253;1.2418;
545.4000;0.7253;1.2393;
545.7000;0.7236;1.2393;
546.0000;0.7220;1.2393;
546.3000;0.7236;1.2342;
546.6000;0.7245;1.2443;
546.9000;0.7269;1.2519;
547.2000;0.7253;1.2594;
547.5000;0.7269;1.2594;
547.8000;0.7228;1.2519;
548.1000;0.7236;1.2569;
548.4000;0.7245;1.2594;
548.7000;0.7245;1.2594;
549.0000;0.7245;1.2594;
549.3000;0.7253;1.2594;
549.6000;0.7261;1.2619;
549.9000;0.7253;1.2519;
550.2000;0.7245;1.2494;
550.5000;0.7245;1.2468;
550.8000;0.7236;1.2418;
551.1000;0.7253;1.2368;
551.4000;0.7196;1.2242;
551.7000;0.7245;1.2443;
552.0000;0.7269;1.2569;
552.3000;0.7261;1.2670;
552.6000;0.7261;1.2569;
552.9000;0.7261;1.2443;
553.2000;0.7253;1.2418;
553.5000;0.7261;1.2443;
553.8000;0.7236;1.2418;
554.1000;0.7220;1.2418;
554.4000;0.7253;1.2468;
554.7000;0.7228;1.2443;
555.0000;0.7261;1.2494;
555.3000;0.7212;1.2468;
555.6000;0.7228;1.2519;
555.9000;0.7236;1.2544;
556.2000;0.7245;1.2544;
556.5000;0.7245;1.2494;
556.8000;0.7228;1.2519;
557.1000;0.7261;1.2569;
557.4000;0.7261;1.2594;
557.7000;0.7253;1.2569;
558.0000;0.7285;1.2796;
558.3000;0.7245;1.2544;
558.6000;0.7253;1.2494;
558.9000;0.7212;1.2418;
559.2000;0.7318;1.2619;
559.5000;0.7261;1.2519;
559.8000;0.7245;1.2519;
560.1000;0.7245;1.2569;
560.4000;0.7228;1.2544;
560.7000;0.7277;1.2594;
561.0000;0.7253;1.2569;
561.3000;0.7245;1.2670;
561.6000;0.7245;1.2720;
561.9000;0.7236;1.2670;
562.2000;0.7253;1.2771;
562.5000;0.7269;1.2670;
562.8000;0.7253;1.2695;
563.1000;0.7228;1.2645;
563.4000;0.7245;1.2670;
563.7000;0.7261;1.2695;
564.0000;0.7261;1.2695;
564.3000;0.7220;1.2519;
564.6000;0.7228;1.2544;
564.9000;0.7245;1.2544;
565.2000;0.7253;1.2519;
565.5000;0.7253;1.2468;
565.8000;0.7236;1.2519;
566.1000;0.7261;1.2670;
566.4000;0.7253;1.2594;
566.7000;0.7253;1.2720;
567.0000;0.7245;1.2695;
567.3000;0.7253;1.2645;
567.6000;0.7261;1.2594;
567.9000;0.7236;1.2569;
568.2000;0.7236;1.2569;
568.5000;0.7236;1.2569;
568.8000;0.7269;1.2695;
569.1000;0.7228;1.2494;
569.4000;0.7228;1.2494;
569.7000;0.7228;1.2468;
570.0000;0.7245;1.2569;
570.3000;0.7228;1.2569;
570.6000;0.7253;1.2544;
570.9000;0.7236;1.2418;
571.2000;0.7245;1.2418;
571.5000;0.7253;1.2468;
571.8000;0.7236;1.2393;
572.1000;0.7269;1.2494;
572.4000;0.7245;1.2443;
572.7000;0.7245;1.2468;
573.0000;0.7236;1.2468;
573.3000;0.7236;1.2468;
573.6000;0.7269;1.2619;
573.9000;0.7236;1.2544;
574.2000;0.7253;1.2544;
574.5000;0.7342;1.2796;
574.8000;0.7236;1.2619;
575.1000;0.7261;1.2695;
575.4000;0.7245;1.2745;
575.7000;0.7236;1.2745;
576.0000;0.7236;1.2619;
576.3000;0.7245;1.2619;
576.6000;0.7253;1.2670;
576.9000;0.7245;1.2670;
577.2000;0.7261;1.2695;
577.5000;0.7326;1.2897;
577.8000;0.7269;1.2645;
578.1000;0.7236;1.2594;
578.4000;0.7228;1.2670;
578.7000;0.7220;1.2645;
579.0000;0.7253;1.2695;
579.3000;0.7269;1.2720;
579.6000;0.7245;1.2695;
579.9000;0.7228;1.2619;
580.2000;0.7236;1.2645;
580.5000;0.7236;1.2619;
580.8000;0.7236;1.2645;
581.1000;0.7228;1.2645;
581.4000;0.7253;1.2695;
581.7000;0.7269;1.2720;
582.0000;0.7245;1.2745;
582.3000;0.7245;1.2670;
582.6000;0.7253;1.2670;
582.9000;0.7253;1.2619;
583.2000;0.7188;1.2519;
583.5000;0.7245;1.2569;
583.8000;0.7253;1.2569;
584.1000;0.7261;1.2619;
584.4000;0.7253;1.2594;
584.7000;0.7236;1.2619;
585.0000;0.7236;1.2670;
585.3000;0.7245;1.2720;
585.6000;0.7196;1.2619;
585.9000;0.7236;1.2670;
586.2000;0.7253;1.2670;
586.5000;0.7253;1.2619;
586.8000;0.7245;1.2695;
587.1000;0.7245;1.2771;
587.4000;0.7220;1.2745;
587.7000;0.7245;1.2695;
588.0000;0.7261;1.2695;
588.3000;0.7261;1.2670;
588.6000;0.7236;1.2468;
588.9000;0.7334;1.2771;
589.2000;0.7245;1.2670;
589.5000;0.7293;1.2771;
589.8000;0.7236;1.2594;
590.1000;0.7220;1.2494;
590.4000;0.7236;1.2519;
590.7000;0.7228;1.2494;
591.0000;0.7245;1.2519;
591.3000;0.7228;1.2494;
591.6000;0.7245;1.2594;
591.9000;0.7236;1.2569;
592.2000;0.7236;1.2695;
592.5000;0.7236;1.2645;
592.8000;0.7253;1.2619;
593.1000;0.7236;1.2594;
593.4000;0.7236;1.2544;
593.7000;0.7253;1.2569;
594.0000;0.7253;1.2645;
594.3000;0.7245;1.2645;
594.6000;0.7253;1.2695;
594.9000;0.7236;1.2670;
595.2000;0.7236;1.2670;
595.5000;0.7253;1.2594;
595.8000;0.7228;1.2569;
596.1000;0.7245;1.2569;
596.4000;0.7277;1.2670;
596.7000;0.7261;1.2645;
597.0000;0.7245;1.2594;
597.3000;0.7228;1.2619;
597.6000;0.7236;1.2619;
597.9000;0.7326;1.2670;
598.2000;0.7253;1.2418;
598.5000;0.7253;1.2368;
598.8000;0.7228;1.2368;
599.1000;0.7236;1.2393;
599.4000;0.7253;1.2342;
599.7000;0.7220;1.2216;
600.0000;0.7236;1.2292;
600.3000;0.7179;1.2090;
600.6000;0.7236;1.2191;
600.9000;0.7204;1.2065;
601.2000;0.7179;1.2015;
601.5000;0.7147;1.1914;
601.8000;0.7074;1.1662;
602.1000;0.7033;1.1486;
602.4000;0.6952;1.1259;
602.7000;0.6943;1.1108;
603.0000;0.6903;1.0932;
603.3000;0.6838;1.0806;
603.6000;0.6772;1.0453;
603.9000;0.6756;1.0378;
604.2000;0.6699;1.0227;
604.5000;0.6691;1.0201;
604.8000;0.6642;0.9975;
605.1000;0.6642;1.0025;
605.4000;0.6561;0.9899;
605.7000;0.6545;0.9899;
606.0000;0.6512;0.9824;
606.3000;0.6520;0.9824;
606.6000;0.6439;0.9672;
606.9000;0.6528;0.9874;
607.2000;0.6398;0.9546;
607.5000;0.6382;0.9370;
607.8000;0.6300;0.9118;
608.1000;0.6325;0.9194;
608.4000;0.6300;0.9169;
608.7000;0.6309;0.9269;
609.0000;0.6252;0.9118;
609.3000;0.6227;0.9068;
609.6000;0.6121;0.8942;
609.9000;0.6162;0.9043;
610.2000;0.6162;0.8992;
610.5000;0.6138;0.8992;
610.8000;0.6146;0.8967;
611.1000;0.6113;0.8892;
611.4000;0.6097;0.8892;
611.7000;0.6064;0.8866;
612.0000;0.6056;0.8917;
612.3000;0.6040;0.8866;
612.6000;0.6015;0.8791;
612.9000;0.6015;0.8917;
613.2000;0.5983;0.8791;
613.5000;0.5975;0.8791;
613.8000;0.5983;0.8942;
614.1000;0.5926;0.8816;
614.4000;0.5926;0.8841;
614.7000;0.5910;0.8816;
615.0000;0.5893;0.8841;
615.3000;0.5877;0.8892;
615.6000;0.5869;0.8866;
615.9000;0.5836;0.8791;
616.2000;0.5820;0.8816;
616.5000;0.5812;0.8766;
616.8000;0.5812;0.8690;
617.1000;0.5820;0.8766;
617.4000;0.5804;0.8715;
617.7000;0.5779;0.8614;
618.0000;0.5755;0.8564;
618.3000;0.5755;0.8614;
618.6000;0.5755;0.8640;
618.9000;0.5706;0.8489;
619.2000;0.5706;0.8489;
619.5000;0.5714;0.8589;
619.8000;0.5682;0.8640;
620.1000;0.5682;0.8564;
620.4000;0.5690;0.8539;
620.7000;0.5665;0.8463;
621.0000;0.5657;0.8514;
621.3000;0.5690;0.8690;
621.6000;0.5633;0.8463;
621.9000;0.5633;0.8514;
622.2000;0.5714;0.8791;
622.5000;0.5625;0.8489;
622.8000;0.5592;0.8514;
623.1000;0.5592;0.8514;
623.4000;0.5592;0.8514;
623.7000;0.5592;0.8589;
624.0000;0.5568;0.8564;
624.3000;0.5576;0.8614;
624.6000;0.5568;0.8564;
624.9000;0.5527;0.8514;
625.2000;0.5527;0.8489;
625.5000;0.5519;0.8463;
625.8000;0.5511;0.8463;
626.1000;0.5511;0.8438;
626.4000;0.5503;0.8438;
626.7000;0.5429;0.8312;
627.0000;0.5486;0.8413;
627.3000;0.5511;0.8388;
627.6000;0.5503;0.8363;
627.9000;0.5470;0.8363;
628.2000;0.5511;0.8589;
628.5000;0.5470;0.8489;
628.8000;0.5478;0.8413;
629.1000;0.5454;0.8363;
629.4000;0.5438;0.8413;
629.7000;0.5438;0.8413;
630.0000;0.5446;0.8363;
630.3000;0.5421;0.8312;
630.6000;0.5389;0.8211;
630.9000;0.5413;0.8262;
631.2000;0.5405;0.8237;
631.5000;0.5413;0.8186;
631.8000;0.5413;0.8312;
632.1000;0.5389;0.8337;
632.4000;0.5332;0.8136;
632.7000;0.5364;0.8312;
633.0000;0.5381;0.8363;
633.3000;0.5364;0.8413;
633.6000;0.5348;0.8489;
633.9000;0.5397;0.8539;
634.2000;0.5356;0.8312;
634.5000;0.5267;0.8136;
634.8000;0.5275;0.8086;
635.1000;0.5348;0.8363;
635.4000;0.5315;0.8312;
635.7000;0.5324;0.8262;
636.0000;0.5299;0.8186;
636.3000;0.5324;0.8136;
636.6000;0.5324;0.8161;
636.9000;0.5405;0.8388;
637.2000;0.5315;0.8211;
637.5000;0.5299;0.8211;
637.8000;0.5315;0.8287;
638.1000;0.5307;0.8262;
638.4000;0.5283;0.8312;
638.7000;0.5275;0.8287;
639.0000;0.5283;0.8287;
639.3000;0.5291;0.8312;
639.6000;0.5267;0.8388;
639.9000;0.5372;0.8640;
640.2000;0.5283;0.8337;
640.5000;0.5283;0.8312;
640.8000;0.5250;0.8262;
641.1000;0.5242;0.8211;
641.4000;0.5267;0.8312;
641.7000;0.5242;0.8237;
642.0000;0.5226;0.8262;
642.3000;0.5242;0.8337;
642.6000;0.5258;0.8463;
642.9000;0.5226;0.8337;
643.2000;0.5218;0.8262;
643.5000;0.5226;0.8287;
643.8000;0.5234;0.8262;
644.1000;0.5218;0.8211;
644.4000;0.5185;0.8136;
644.7000;0.5210;0.8262;
645.0000;0.5201;0.8363;
645.3000;0.5193;0.8489;
645.6000;0.5177;0.8463;
645.9000;0.5185;0.8489;
646.2000;0.5193;0.8489;
646.5000;0.5193;0.8413;
646.8000;0.5234;0.8614;
647.1000;0.5267;0.8640;
647.4000;0.5185;0.8337;
647.7000;0.5193;0.8363;
648.0000;0.5185;0.8337;
648.3000;0.5144;0.8312;
648.6000;0.5144;0.8337;
648.9000;0.5177;0.8337;
649.2000;0.5185;0.8388;
649.5000;0.5153;0.8337;
649.8000;0.5153;0.8388;
650.1000;0.5161;0.8413;
650.4000;0.5161;0.8438;
650.7000;0.5120;0.8337;
651.0000;0.5136;0.8438;
651.3000;0.5136;0.8539;
651.6000;0.5128;0.8564;
651.9000;0.5055;0.8438;
652.2000;0.5112;0.8539;
652.5000;0.5144;0.8564;
652.8000;0.5210;0.8740;
653.1000;0.5112;0.8413;
653.4000;0.5128;0.8438;
653.7000;0.5169;0.8438;
654.0000;0.5128;0.8312;
654.3000;0.5144;0.8312;
654.6000;0.5161;0.8337;
654.9000;0.5128;0.8262;
655.2000;0.5120;0.8237;
655.5000;0.5112;0.8337;
655.8000;0.5112;0.8287;
656.1000;0.5088;0.8211;
656.4000;0.5128;0.8312;
656.7000;0.5104;0.8312;
657.0000;0.5079;0.8312;
657.3000;0.5063;0.8312;
657.6000;0.5055;0.8211;
657.9000;0.5088;0.8363;
658.2000;0.5096;0.8363;
658.5000;0.5022;0.8237;
658.8000;0.5071;0.8388;
659.1000;0.5079;0.8463;
659.4000;0.5063;0.8413;
659.7000;0.5055;0.8388;
660.0000;0.5071;0.8413;
660.3000;0.5079;0.8413;
660.6000;0.5039;0.8363;
660.9000;0.5063;0.8438;
661.2000;0.5063;0.8514;
661.5000;0.5071;0.8564;
661.8000;0.5063;0.8514;
662.1000;0.5071;0.8463;
662.4000;0.5047;0.8413;
662.7000;0.5055;0.8413;
663.0000;0.5071;0.8413;
663.3000;0.5063;0.8388;
663.6000;0.5055;0.8489;
663.9000;0.5047;0.8489;
664.2000;0.5055;0.8614;
664.5000;0.5055;0.8614;
664.8000;0.5031;0.8489;
665.1000;0.5055;0.8463;
665.4000;0.5047;0.8363;
665.7000;0.5039;0.8388;
666.0000;0.5031;0.8337;
666.3000;0.5047;0.8388;
666.6000;0.5039;0.8539;
666.9000;0.5031;0.8539;
667.2000;0.5022;0.8463;
667.5000;0.4990;0.8413;
667.8000;0.5006;0.8413;
668.1000;0.5031;0.8539;
668.4000;0.5022;0.8514;
668.7000;0.4990;0.8489;
669.0000;0.4933;0.8237;
669.3000;0.5014;0.8413;
669.6000;0.5006;0.8413;
669.9000;0.5006;0.8489;
670.2000;0.5063;0.8589;
670.5000;0.5079;0.8740;
670.8000;0.4990;0.8489;
671.1000;0.4965;0.8463;
671.4000;0.4990;0.8438;
671.7000;0.4965;0.8413;
672.0000;0.4982;0.8564;
672.3000;0.4990;0.8589;
672.6000;0.4990;0.8665;
672.9000;0.5047;0.8866;
673.2000;0.4998;0.8740;
673.5000;0.4990;0.8715;
673.8000;0.4982;0.8740;
674.1000;0.4982;0.8816;
674.4000;0.4990;0.8841;
674.7000;0.4990;0.8791;
675.0000;0.4957;0.8791;
675.3000;0.4957;0.8640;
675.6000;0.4990;0.8589;
675.9000;0.4982;0.8589;
676.2000;0.4933;0.8413;
676.5000;0.4982;0.8614;
676.8000;0.4965;0.8614;
677.1000;0.4941;0.8489;
677.4000;0.4974;0.8564;
677.7000;0.4974;0.8438;
678.0000;0.4974;0.8438;
678.3000;0.4949;0.8312;
678.6000;0.4933;0.8337;
678.9000;0.4957;0.8438;
679.2000;0.4957;0.8388;
679.5000;0.4957;0.8363;
679.8000;0.4965;0.8413;
680.1000;0.4949;0.8363;
680.4000;0.4949;0.8438;
680.7000;0.4925;0.8363;
681.0000;0.4949;0.8388;
681.3000;0.4925;0.8388;
681.6000;0.4868;0.8262;
681.9000;0.4941;0.8388;
682.2000;0.4957;0.8413;
682.5000;0.4941;0.8388;
682.8000;0.4917;0.8312;
683.1000;0.4957;0.8312;
683.4000;0.4949;0.8237;
683.7000;0.4949;0.8388;
684.0000;0.4925;0.8388;
684.3000;0.4941;0.8413;
684.6000;0.4933;0.8337;
684.9000;0.4925;0.8312;
685.2000;0.4933;0.8388;
685.5000;0.4941;0.8514;
685.8000;0.4933;0.8514;
686.1000;0.4933;0.8539;
686.4000;0.4917;0.8539;
686.7000;0.4917;0.8438;
687.0000;0.4933;0.8438;
687.3000;0.4933;0.8463;
687.6000;0.4917;0.8413;
687.9000;0.4900;0.8413;
688.2000;0.4892;0.8463;
688.5000;0.4900;0.8564;
688.8000;0.4941;0.8640;
689.1000;0.4900;0.8463;
689.4000;0.4900;0.8463;
689.7000;0.4884;0.8337;
690.0000;0.4925;0.8337;
690.3000;0.4917;0.8262;
690.6000;0.4900;0.8237;
690.9000;0.4908;0.8237;
691.2000;0.4835;0.8035;
691.5000;0.4884;0.8237;
691.8000;0.4892;0.8287;
692.1000;0.4917;0.8388;
692.4000;0.4900;0.8363;
692.7000;0.4876;0.8237;
693.0000;0.4892;0.8262;
693.3000;0.4933;0.8463;
693.6000;0.4884;0.8312;
693.9000;0.4917;0.8337;
694.2000;0.4892;0.8363;
694.5000;0.4941;0.8489;
694.8000;0.4900;0.8388;
695.1000;0.4900;0.8388;
695.4000;0.4860;0.8312;
695.7000;0.4908;0.8489;
696.0000;0.4876;0.8463;
696.3000;0.4876;0.8539;
696.6000;0.4892;0.8715;
696.9000;0.4876;0.8640;
697.2000;0.4933;0.8766;
697.5000;0.4884;0.8715;
697.8000;0.4900;0.8740;
698.1000;0.4794;0.8514;
698.4000;0.4876;0.8640;
698.7000;0.4892;0.8589;
699.0000;0.4884;0.8564;
699.3000;0.4892;0.8514;
699.6000;0.4884;0.8589;
699.9000;0.4876;0.8614;
700.2000;0.4843;0.8489;
700.5000;0.4868;0.8539;
700.8000;0.4868;0.8463;
701.1000;0.4925;0.8589;
701.4000;0.4884;0.8388;
701.7000;0.4876;0.8438;
702.0000;0.4794;0.8262;
702.3000;0.4876;0.8514;
702.6000;0.4851;0.8438;
702.9000;0.4835;0.8337;
703.2000;0.4860;0.8489;
703.5000;0.4860;0.8589;
703.8000;0.4851;0.8564;
704.1000;0.4851;0.8640;
704.4000;0.4860;0.8614;
704.7000;0.4860;0.8614;
705.0000;0.4851;0.8715;
705.3000;0.4843;0.8665;
705.6000;0.4843;0.8640;
705.9000;0.4843;0.8665;
706.2000;0.4860;0.8640;
706.5000;0.4860;0.8665;
706.8000;0.4843;0.8640;
707.1000;0.4835;0.8589;
707.4000;0.4835;0.8614;
707.7000;0.4851;0.8665;
708.0000;0.4835;0.8640;
708.3000;0.4843;0.8614;
708.6000;0.4843;0.8614;
708.9000;0.4754;0.8363;
709.2000;0.4851;0.8614;
709.5000;0.4827;0.8589;
709.8000;0.4851;0.8690;
710.1000;0.4835;0.8614;
710.4000;0.4851;0.8665;
710.7000;0.4835;0.8489;
711.0000;0.4851;0.8564;
711.3000;0.4827;0.8489;
711.6000;0.4860;0.8589;
711.9000;0.4819;0.8539;
712.2000;0.4811;0.8489;
712.5000;0.4835;0.8539;
712.8000;0.4835;0.8539;
713.1000;0.4835;0.8539;
713.4000;0.4843;0.8564;
713.7000;0.4819;0.8539;
714.0000;0.4827;0.8564;
714.3000;0.4876;0.8690;
714.6000;0.4827;0.8589;
714.9000;0.4835;0.8539;
715.2000;0.4860;0.8665;
715.5000;0.4860;0.8564;
715.8000;0.4843;0.8388;
716.1000;0.4827;0.8363;
716.4000;0.4843;0.8539;
716.7000;0.4827;0.8564;
717.0000;0.4827;0.8539;
717.3000;0.4803;0.8463;
717.6000;0.4803;0.8564;
717.9000;0.4803;0.8690;
718.2000;0.4811;0.8640;
718.5000;0.4754;0.8489;
718.8000;0.4811;0.8514;
719.1000;0.4827;0.8539;
719.4000;0.4819;0.8640;
719.7000;0.4786;0.8514;
720.0000;0.4819;0.8589;
720.3000;0.4827;0.8614;
720.6000;0.4721;0.8262;
720.9000;0.4811;0.8413;
721.2000;0.4786;0.8388;
721.5000;0.4811;0.8463;
721.8000;0.4794;0.8514;
722.1000;0.4811;0.8564;
722.4000;0.4794;0.8564;
722.7000;0.4794;0.8564;
723.0000;0.4778;0.8539;
723.3000;0.4794;0.8640;
723.6000;0.4819;0.8640;
723.9000;0.4811;0.8690;
724.2000;0.4811;0.8614;
724.5000;0.4803;0.8514;
724.8000;0.4819;0.8514;
725.1000;0.4819;0.8514;
725.4000;0.4835;0.8489;
725.7000;0.4803;0.8463;
726.0000;0.4811;0.8489;
726.3000;0.4811;0.8463;
726.6000;0.4762;0.8489;
726.9000;0.4811;0.8614;
727.2000;0.4794;0.8489;
727.5000;0.4803;0.8539;
727.8000;0.4811;0.8564;
728.1000;0.4803;0.8589;
728.4000;0.4794;0.8589;
728.7000;0.4794;0.8614;
729.0000;0.4860;0.8766;
729.3000;0.4794;0.8514;
729.6000;0.4811;0.8463;
729.9000;0.4778;0.8489;
730.2000;0.4803;0.8539;
730.5000;0.4811;0.8614;
730.8000;0.4754;0.8564;
731.1000;0.4786;0.8614;
731.4000;0.4786;0.8614;
731.7000;0.4786;0.8564;
732.0000;0.4819;0.8514;
732.3000;0.4786;0.8489;
732.6000;0.4778;0.8640;
732.9000;0.4754;0.8589;
733.2000;0.4778;0.8614;
733.5000;0.4811;0.8614;
733.8000;0.4794;0.8514;
734.1000;0.4811;0.8614;
734.4000;0.4794;0.8640;
734.7000;0.4762;0.8614;
735.0000;0.4794;0.8690;
735.3000;0.4827;0.8665;
735.6000;0.4786;0.8514;
735.9000;0.4794;0.8413;
736.2000;0.4811;0.8413;
736.5000;0.4786;0.8539;
736.8000;0.4778;0.8614;
737.1000;0.4786;0.8614;
737.4000;0.4778;0.8589;
737.7000;0.4803;0.8665;
738.0000;0.4794;0.8665;
738.3000;0.4786;0.8589;
738.6000;0.4721;0.8489;
738.9000;0.4770;0.8640;
739.2000;0.4778;0.8589;
739.5000;0.4786;0.8589;
739.8000;0.4778;0.8690;
740.1000;0.4762;0.8740;
740.4000;0.4778;0.8690;
740.7000;0.4754;0.8614;
741.0000;0.4786;0.8640;
741.3000;0.4770;0.8564;
741.6000;0.4762;0.8489;
741.9000;0.4737;0.8438;
742.2000;0.4786;0.8489;
742.5000;0.4762;0.8438;
742.8000;0.4770;0.8413;
743.1000;0.4746;0.8489;
743.4000;0.4778;0.8539;
743.7000;0.4778;0.8539;
744.0000;0.4754;0.8539;
744.3000;0.4746;0.8388;
744.6000;0.4786;0.8514;
744.9000;0.4786;0.8489;
745.2000;0.4746;0.8413;
745.5000;0.4786;0.8489;
745.8000;0.4778;0.8564;
746.1000;0.4803;0.8740;
746.4000;0.4770;0.8690;
746.7000;0.4754;0.8690;
747.0000;0.4689;0.8438;
747.3000;0.4786;0.8715;
747.6000;0.4754;0.8614;
747.9000;0.4770;0.8614;
748.2000;0.4762;0.8539;
748.5000;0.4729;0.8463;
748.8000;0.4803;0.8665;
749.1000;0.4754;0.8514;
749.4000;0.4786;0.8564;
749.7000;0.4778;0.8539;
750.0000;0.4770;0.8564;
750.3000;0.4762;0.8438;
750.6000;0.4697;0.8262;
750.9000;0.4770;0.8438;
751.2000;0.4770;0.8438;
751.5000;0.4762;0.8463;
751.8000;0.4770;0.8489;
752.1000;0.4778;0.8438;
752.4000;0.4746;0.8413;
752.7000;0.4778;0.8514;
753.0000;0.4770;0.8463;
753.3000;0.4762;0.8539;
753.6000;0.4770;0.8413;
753.9000;0.4737;0.8413;
754.2000;0.4656;0.8237;
754.5000;0.4754;0.8489;
754.8000;0.4778;0.8514;
755.1000;0.4754;0.8438;
755.4000;0.4705;0.8363;
755.7000;0.4746;0.8564;
756.0000;0.4762;0.8614;
756.3000;0.4737;0.8589;
756.6000;0.4737;0.8564;
756.9000;0.4713;0.8438;
757.2000;0.4762;0.8564;
757.5000;0.4754;0.8715;
757.8000;0.4737;0.8665;
758.1000;0.4746;0.8665;
758.4000;0.4754;0.8690;
758.7000;0.4729;0.8640;
759.0000;0.4754;0.8614;
759.3000;0.4737;0.8564;
759.6000;0.4770;0.8614;
759.9000;0.4786;0.8665;
760.2000;0.4737;0.8564;
760.5000;0.4746;0.8640;
760.8000;0.4737;0.8640;
761.1000;0.4737;0.8665;
761.4000;0.4737;0.8690;
761.7000;0.4746;0.8766;
762.0000;0.4721;0.8715;
762.3000;0.4746;0.8715;
762.6000;0.4754;0.8640;
762.9000;0.4746;0.8665;
763.2000;0.4737;0.8640;
763.5000;0.4737;0.8715;
763.8000;0.4729;0.8690;
764.1000;0.4729;0.8665;
764.4000;0.4737;0.8640;
764.7000;0.4754;0.8715;
765.0000;0.4721;0.8640;
765.3000;0.4754;0.8766;
765.6000;0.4786;0.8816;
765.9000;0.4746;0.8614;
766.2000;0.4737;0.8640;
766.5000;0.4729;0.8690;
766.8000;0.4754;0.8665;
767.1000;0.4770;0.8715;
767.4000;0.4746;0.8665;
767.7000;0.4762;0.8564;
768.0000;0.4754;0.8614;
768.3000;0.4737;0.8589;
768.6000;0.4737;0.8564;
768.9000;0.4705;0.8539;
769.2000;0.4729;0.8690;
769.5000;0.4721;0.8614;
769.8000;0.4746;0.8665;
770.1000;0.4664;0.8388;
770.4000;0.4721;0.8665;
770.7000;0.4664;0.8589;
771.0000;0.4803;0.9043;
771.3000;0.4762;0.8841;
771.6000;0.4778;0.8816;
771.9000;0.4762;0.8766;
772.2000;0.4737;0.8690;
772.5000;0.4786;0.8791;
772.8000;0.4721;0.8690;
773.1000;0.4713;0.8640;
773.4000;0.4729;0.8715;
773.7000;0.4729;0.8740;
774.0000;0.4721;0.8791;
774.3000;0.4721;0.8665;
774.6000;0.4746;0.8715;
774.9000;0.4705;0.8665;
775.2000;0.4746;0.8740;
775.5000;0.4721;0.8665;
775.8000;0.4713;0.8740;
776.1000;0.4737;0.8816;
776.4000;0.4729;0.8866;
776.7000;0.4713;0.8841;
777.0000;0.4737;0.8841;
777.3000;0.4713;0.8791;
777.6000;0.4705;0.8816;
777.9000;0.4721;0.8791;
778.2000;0.4697;0.8740;
778.5000;0.4737;0.8841;
778.8000;0.4705;0.8816;
779.1000;0.4697;0.8841;
779.4000;0.4713;0.8841;
779.7000;0.4729;0.8841;
780.0000;0.4721;0.8816;
780.3000;0.4713;0.8791;
780.6000;0.4697;0.8690;
780.9000;0.4681;0.8690;
781.2000;0.4729;0.8866;
781.5000;0.4737;0.8841;
781.8000;0.4746;0.8841;
782.1000;0.4729;0.8816;
782.4000;0.4721;0.8816;
782.7000;0.4729;0.8841;
783.0000;0.4705;0.8816;
783.3000;0.4729;0.8841;
783.6000;0.4705;0.8766;
783.9000;0.4721;0.8816;
784.2000;0.4713;0.8866;
784.5000;0.4656;0.8665;
784.8000;0.4697;0.8791;
785.1000;0.4697;0.8816;
785.4000;0.4721;0.8866;
785.7000;0.4721;0.8791;
786.0000;0.4640;0.8539;
786.3000;0.4721;0.8766;
786.6000;0.4721;0.8791;
786.9000;0.4721;0.8841;
787.2000;0.4705;0.8766;
787.5000;0.4729;0.8816;
787.8000;0.4681;0.8690;
788.1000;0.4713;0.8816;
788.4000;0.4721;0.8766;
788.7000;0.4705;0.8715;
789.0000;0.4737;0.8740;
789.3000;0.4713;0.8665;
789.6000;0.4705;0.8614;
789.9000;0.4721;0.8690;
790.2000;0.4713;0.8766;
790.5000;0.4721;0.8766;
790.8000;0.4705;0.8640;
791.1000;0.4689;0.8614;
791.4000;0.4705;0.8665;
791.7000;0.4721;0.8690;
792.0000;0.4721;0.8614;
792.3000;0.4705;0.8614;
792.6000;0.4705;0.8690;
792.9000;0.4697;0.8791;
793.2000;0.4746;0.8992;
793.5000;0.4705;0.8841;
793.8000;0.4689;0.8766;
794.1000;0.4689;0.8791;
794.4000;0.4697;0.8791;
794.7000;0.4689;0.8791;
795.0000;0.4770;0.8992;
795.3000;0.4697;0.8740;
795.6000;0.4729;0.8816;
795.9000;0.4697;0.8715;
796.2000;0.4689;0.8690;
796.5000;0.4713;0.8766;
796.8000;0.4697;0.8665;
797.1000;0.4705;0.8589;
797.4000;0.4713;0.8564;
797.7000;0.4681;0.8438;
798.0000;0.4713;0.8489;
798.3000;0.4705;0.8514;
798.6000;0.4697;0.8564;
798.9000;0.4697;0.8589;
799.2000;0.4705;0.8614;
799.5000;0.4697;0.8640;
799.8000;0.4689;0.8614;
800.1000;0.4697;0.8589;
800.4000;0.4713;0.8640;
800.7000;0.4721;0.8665;
801.0000;0.4713;0.8614;
801.3000;0.4705;0.8640;
801.6000;0.4705;0.8640;
801.9000;0.4713;0.8690;
802.2000;0.4713;0.8740;
802.5000;0.4721;0.8715;
802.8000;0.4713;0.8791;
803.1000;0.4713;0.8690;
803.4000;0.4697;0.8665;
803.7000;0.4681;0.8690;
804.0000;0.4705;0.8740;
804.3000;0.4681;0.8715;
804.6000;0.4705;0.8816;
804.9000;0.4681;0.8715;
805.2000;0.4705;0.8841;
805.5000;0.4713;0.8766;
805.8000;0.4681;0.8640;
806.1000;0.4624;0.8413;
806.4000;0.4681;0.8614;
806.7000;0.4689;0.8614;
807.0000;0.4681;0.8539;
807.3000;0.4697;0.8614;
807.6000;0.4672;0.8564;
807.9000;0.4681;0.8438;
808.2000;0.4689;0.8463;
808.5000;0.4632;0.8211;
808.8000;0.4640;0.8312;
809.1000;0.4672;0.8489;
809.4000;0.4705;0.8690;
809.7000;0.4681;0.8564;
810.0000;0.4640;0.8438;
810.3000;0.4640;0.8413;
810.6000;0.4689;0.8564;
810.9000;0.4697;0.8690;
811.2000;0.4705;0.8766;
811.5000;0.4624;0.8489;
811.8000;0.4713;0.8665;
812.1000;0.4705;0.8640;
812.4000;0.4835;0.9043;
812.7000;0.4729;0.8766;
813.0000;0.4697;0.8766;
813.3000;0.4697;0.8690;
813.6000;0.4640;0.8614;
813.9000;0.4689;0.8766;
814.2000;0.4672;0.8791;
814.5000;0.4689;0.8841;
814.8000;0.4705;0.8841;
815.1000;0.4672;0.8766;
815.4000;0.4672;0.8715;
815.7000;0.4681;0.8766;
816.0000;0.4705;0.8791;
816.3000;0.4689;0.8690;
816.6000;0.4713;0.8740;
816.9000;0.4681;0.8665;
817.2000;0.4681;0.8740;
817.5000;0.4697;0.8816;
817.8000;0.4681;0.8917;
818.1000;0.4672;0.8866;
818.4000;0.4672;0.8841;
818.7000;0.4632;0.8715;
819.0000;0.4672;0.8841;
819.3000;0.4672;0.8841;
819.6000;0.4615;0.8589;
819.9000;0.4689;0.8766;
820.2000;0.4681;0.8791;
820.5000;0.4664;0.8791;
820.8000;0.4697;0.8791;
821.1000;0.4689;0.8690;
821.4000;0.4681;0.8640;
821.7000;0.4681;0.8614;
822.0000;0.4672;0.8564;
822.3000;0.4681;0.8589;
822.6000;0.4689;0.8564;
822.9000;0.4697;0.8589;
823.2000;0.4689;0.8514;
823.5000;0.4672;0.8388;
823.8000;0.4672;0.8413;
824.1000;0.4664;0.8413;
824.4000;0.4672;0.8539;
824.7000;0.4681;0.8514;
825.0000;0.4656;0.8463;
825.3000;0.4664;0.8539;
825.6000;0.4664;0.8514;
825.9000;0.4689;0.8539;
826.2000;0.4664;0.8463;
826.5000;0.4672;0.8539;
826.8000;0.4648;0.8514;
827.1000;0.4672;0.8614;
827.4000;0.4672;0.8589;
827.7000;0.4681;0.8690;
828.0000;0.4664;0.8640;
828.3000;0.4664;0.8614;
828.6000;0.4672;0.8589;
828.9000;0.4656;0.8589;
829.2000;0.4697;0.8690;
829.5000;0.4681;0.8614;
829.8000;0.4681;0.8740;
830.1000;0.4746;0.8791;
830.4000;0.4672;0.8614;
830.7000;0.4681;0.8614;
831.0000;0.4713;0.8665;
831.3000;0.4713;0.8690;
831.6000;0.4664;0.8564;
831.9000;0.4672;0.8589;
832.2000;0.4697;0.8640;
832.5000;0.4697;0.8614;
832.8000;0.4664;0.8514;
833.1000;0.4729;0.8715;
833.4000;0.4607;0.8287;
833.7000;0.4672;0.8514;
834.0000;0.4681;0.8564;
834.3000;0.4664;0.8463;
834.6000;0.4713;0.8564;
834.9000;0.4664;0.8489;
835.2000;0.4615;0.8287;
835.5000;0.4672;0.8539;
835.8000;0.4681;0.8589;
836.1000;0.4681;0.8514;
836.4000;0.4681;0.8589;
836.7000;0.4681;0.8640;
837.0000;0.4681;0.8715;
837.3000;0.4705;0.8715;
837.6000;0.4664;0.8665;
837.9000;0.4689;0.8766;
838.2000;0.4672;0.8715;
838.5000;0.4632;0.8463;
838.8000;0.4681;0.8614;
839.1000;0.4681;0.8614;
839.4000;0.4664;0.8489;
839.7000;0.4689;0.8539;
840.0000;0.4656;0.8413;
840.3000;0.4672;0.8463;
840.6000;0.4664;0.8388;
840.9000;0.4656;0.8388;
841.2000;0.4681;0.8514;
841.5000;0.4640;0.8363;
841.8000;0.4656;0.8489;
842.1000;0.4656;0.8413;
842.4000;0.4632;0.8312;
842.7000;0.4672;0.8489;
843.0000;0.4656;0.8463;
843.3000;0.4664;0.8564;
843.6000;0.4615;0.8388;
843.9000;0.4664;0.8539;
844.2000;0.4656;0.8413;
844.5000;0.4599;0.8211;
844.8000;0.4656;0.8337;
845.1000;0.4672;0.8438;
845.4000;0.4672;0.8514;
845.7000;0.4664;0.8514;
846.0000;0.4681;0.8463;
846.3000;0.4664;0.8489;
846.6000;0.4689;0.8564;
846.9000;0.4689;0.8489;
847.2000;0.4672;0.8564;
847.5000;0.4681;0.8514;
847.8000;0.4672;0.8539;
848.1000;0.4664;0.8413;
848.4000;0.4681;0.8514;
848.7000;0.4697;0.8589;
849.0000;0.4681;0.8564;
849.3000;0.4664;0.8589;
849.6000;0.4656;0.8640;
849.9000;0.4672;0.8690;
850.2000;0.4664;0.8715;
850.5000;0.4681;0.8791;
850.8000;0.4664;0.8614;
851.1000;0.4672;0.8589;
851.4000;0.4672;0.8614;
851.7000;0.4689;0.8690;
852.0000;0.4672;0.8766;
852.3000;0.4656;0.8791;
852.6000;0.4656;0.8791;
852.9000;0.4648;0.8740;
853.2000;0.4664;0.8740;
853.5000;0.4672;0.8690;
853.8000;0.4624;0.8589;
854.1000;0.4648;0.8690;
854.4000;0.4648;0.8690;
854.7000;0.4640;0.8690;
855.0000;0.4656;0.8766;
855.3000;0.4672;0.8816;
855.6000;0.4697;0.8740;
855.9000;0.4664;0.8589;
856.2000;0.4689;0.8640;
856.5000;0.4689;0.8740;
856.8000;0.4689;0.8766;
857.1000;0.4672;0.8690;
857.4000;0.4672;0.8589;
857.7000;0.4664;0.8564;
858.0000;0.4672;0.8640;
858.3000;0.4664;0.8614;
858.6000;0.4672;0.8640;
858.9000;0.4689;0.8690;
859.2000;0.4664;0.8715;
859.5000;0.4672;0.8816;
859.8000;0.4656;0.8791;
860.1000;0.4664;0.8866;
860.4000;0.4681;0.8942;
860.7000;0.4664;0.8917;
861.0000;0.4615;0.8766;
861.3000;0.4648;0.8816;
861.6000;0.4672;0.8791;
861.9000;0.4697;0.8766;
862.2000;0.4656;0.8740;
862.5000;0.4640;0.8665;
862.8000;0.4681;0.8715;
863.1000;0.4648;0.8740;
863.4000;0.4656;0.8791;
863.7000;0.4656;0.8791;
864.0000;0.4640;0.8665;
864.3000;0.4648;0.8690;
864.6000;0.4648;0.8564;
864.9000;0.4640;0.8640;
865.2000;0.4640;0.8640;
865.5000;0.4664;0.8690;
865.8000;0.4648;0.8665;
866.1000;0.4648;0.8690;
866.4000;0.4689;0.8766;
866.7000;0.4648;0.8640;
867.0000;0.4656;0.8766;
867.3000;0.4648;0.8766;
867.6000;0.4656;0.8740;
867.9000;0.4672;0.8816;
868.2000;0.4648;0.8740;
868.5000;0.4624;0.8564;
868.8000;0.4648;0.8539;
869.1000;0.4656;0.8640;
869.4000;0.4697;0.8740;
869.7000;0.4624;0.8514;
870.0000;0.4640;0.8489;
870.3000;0.4648;0.8539;
870.6000;0.4656;0.8539;
870.9000;0.4656;0.8589;
871.2000;0.4664;0.8514;
871.5000;0.4656;0.8564;
871.8000;0.4664;0.8539;
872.1000;0.4656;0.8564;
872.4000;0.4681;0.8564;
872.7000;0.4664;0.8489;
873.0000;0.4681;0.8539;
873.3000;0.4656;0.8388;
873.6000;0.4648;0.8388;
873.9000;0.4656;0.8463;
874.2000;0.4656;0.8388;
874.5000;0.4672;0.8514;
874.8000;0.4656;0.8539;
875.1000;0.4672;0.8614;
875.4000;0.4656;0.8564;
875.7000;0.4664;0.8589;
876.0000;0.4648;0.8564;
876.3000;0.4664;0.8640;
876.6000;0.4648;0.8640;
876.9000;0.4656;0.8766;
877.2000;0.4648;0.8740;
877.5000;0.4656;0.8791;
877.8000;0.4648;0.8715;
878.1000;0.4575;0.8463;
878.4000;0.4607;0.8489;
878.7000;0.4656;0.8640;
879.0000;0.4729;0.8892;
879.3000;0.4664;0.8740;
879.6000;0.4656;0.8715;
879.9000;0.4615;0.8589;
880.2000;0.4640;0.8690;
880.5000;0.4583;0.8614;
880.8000;0.4697;0.8917;
881.1000;0.4656;0.8841;
881.4000;0.4648;0.8892;
881.7000;0.4632;0.8816;
882.0000;0.4656;0.8866;
882.3000;0.4656;0.8841;
882.6000;0.4656;0.8816;
882.9000;0.4664;0.8866;
883.2000;0.4648;0.8766;
883.5000;0.4656;0.8715;
883.8000;0.4624;0.8690;
884.1000;0.4624;0.8715;
884.4000;0.4640;0.8690;
884.7000;0.4754;0.9118;
885.0000;0.4689;0.8816;
885.3000;0.4648;0.8740;
885.6000;0.4640;0.8766;
885.9000;0.4648;0.8766;
886.2000;0.4632;0.8665;
886.5000;0.4640;0.8740;
886.8000;0.4648;0.8791;
887.1000;0.4615;0.8715;
887.4000;0.4656;0.8715;
887.7000;0.4648;0.8640;
888.0000;0.4640;0.8589;
888.3000;0.4648;0.8614;
888.6000;0.4615;0.8539;
888.9000;0.4648;0.8791;
889.2000;0.4632;0.8740;
889.5000;0.4632;0.8715;
889.8000;0.4664;0.8892;
890.1000;0.4656;0.8866;
890.4000;0.4648;0.8791;
890.7000;0.4632;0.8841;
891.0000;0.4656;0.8892;
891.3000;0.4656;0.8816;
891.6000;0.4656;0.8816;
891.9000;0.4648;0.8740;
892.2000;0.4664;0.8766;
892.5000;0.4640;0.8690;
892.8000;0.4664;0.8665;
893.1000;0.4656;0.8564;
893.4000;0.4656;0.8564;
893.7000;0.4664;0.8640;
894.0000;0.4656;0.8640;
894.3000;0.4640;0.8640;
894.6000;0.4656;0.8766;
894.9000;0.4656;0.8715;
895.2000;0.4640;0.8690;
895.5000;0.4640;0.8690;
895.8000;0.4632;0.8589;
896.1000;0.4640;0.8665;
896.4000;0.4648;0.8766;
896.7000;0.4632;0.8715;
897.0000;0.4648;0.8665;
897.3000;0.4632;0.8665;
897.6000;0.4656;0.8766;
897.9000;0.4648;0.8740;
898.2000;0.4648;0.8866;
898.5000;0.4664;0.8892;
898.8000;0.4664;0.8942;
899.1000;0.4640;0.8892;
899.4000;0.4640;0.8992;
899.7000;0.4640;0.9068;
900.0000;0.4624;0.8992;
900.3000;0.4624;0.8967;
900.6000;0.4648;0.8967;
900.9000;0.4640;0.8917;
901.2000;0.4624;0.8917;
901.5000;0.4656;0.8866;
901.8000;0.4664;0.8866;
902.1000;0.4640;0.8665;
902.4000;0.4672;0.8766;
902.7000;0.4632;0.8715;
903.0000;0.4632;0.8766;
903.3000;0.4640;0.8816;
903.6000;0.4648;0.8892;
903.9000;0.4640;0.8841;
904.2000;0.4591;0.8614;
904.5000;0.4648;0.8791;
904.8000;0.4648;0.8816;
905.1000;0.4656;0.8841;
905.4000;0.4648;0.8841;
905.7000;0.4632;0.8892;
906.0000;0.4640;0.8917;
906.3000;0.4615;0.8816;
906.6000;0.4640;0.8841;
906.9000;0.4648;0.8740;
907.2000;0.4640;0.8740;
907.5000;0.4648;0.8791;
907.8000;0.4648;0.8766;
908.1000;0.4624;0.8640;
908.4000;0.4648;0.8690;
908.7000;0.4656;0.8690;
909.0000;0.4648;0.8690;
909.3000;0.4640;0.8715;
909.6000;0.4640;0.8715;
909.9000;0.4640;0.8715;
910.2000;0.4640;0.8766;
910.5000;0.4648;0.8791;
910.8000;0.4648;0.8791;
911.1000;0.4656;0.8816;
911.4000;0.4640;0.8816;
911.7000;0.4624;0.8866;
912.0000;0.4632;0.8866;
912.3000;0.4705;0.8992;
912.6000;0.4624;0.8766;
912.9000;0.4615;0.8715;
913.2000;0.4664;0.8816;
913.5000;0.4615;0.8614;
913.8000;0.4640;0.8614;
914.1000;0.4640;0.8715;
914.4000;0.4656;0.8816;
914.7000;0.4640;0.8715;
915.0000;0.4632;0.8715;
915.3000;0.4648;0.8740;
915.6000;0.4640;0.8740;
915.9000;0.4640;0.8690;
916.2000;0.4632;0.8740;
916.5000;0.4640;0.8766;
916.8000;0.4558;0.8614;
917.1000;0.4656;0.8866;
917.4000;0.4632;0.8791;
917.7000;0.4648;0.8816;
918.0000;0.4648;0.8791;
918.3000;0.4648;0.8766;
918.6000;0.4648;0.8740;
918.9000;0.4648;0.8816;
919.2000;0.4672;0.8942;
919.5000;0.4664;0.8866;
919.8000;0.4640;0.8740;
920.1000;0.4656;0.8740;
920.4000;0.4640;0.8665;
920.7000;0.4599;0.8589;
921.0000;0.4648;0.8766;
921.3000;0.4632;0.8715;
921.6000;0.4640;0.8816;
921.9000;0.4648;0.8866;
922.2000;0.4640;0.8690;
922.5000;0.4640;0.8715;
922.8000;0.4632;0.8665;
923.1000;0.4681;0.8866;
923.4000;0.4697;0.8992;
923.7000;0.4640;0.8892;
924.0000;0.4648;0.8942;
924.3000;0.4648;0.8917;
924.6000;0.4624;0.8816;
924.9000;0.4624;0.8942;
925.2000;0.4624;0.8892;
925.5000;0.4656;0.8917;
925.8000;0.4607;0.8740;
926.1000;0.4632;0.8740;
926.4000;0.4624;0.8841;
926.7000;0.4640;0.8942;
927.0000;0.4632;0.8967;
927.3000;0.4672;0.9068;
927.6000;0.4632;0.8917;
927.9000;0.4640;0.8967;
928.2000;0.4599;0.8866;
928.5000;0.4648;0.8841;
928.8000;0.4648;0.8841;
929.1000;0.4648;0.8766;
929.4000;0.4640;0.8715;
929.7000;0.4648;0.8816;
930.0000;0.4648;0.8816;
930.3000;0.4624;0.8740;
930.6000;0.4640;0.8816;
930.9000;0.4632;0.8816;
931.2000;0.4599;0.8715;
931.5000;0.4640;0.8766;
931.8000;0.4624;0.8690;
932.1000;0.4624;0.8589;
932.4000;0.4632;0.8690;
932.7000;0.4615;0.8715;
933.0000;0.4624;0.8715;
933.3000;0.4640;0.8665;
933.6000;0.4624;0.8589;
933.9000;0.4648;0.8640;
934.2000;0.4640;0.8690;
934.5000;0.4640;0.8665;
934.8000;0.4632;0.8614;
935.1000;0.4624;0.8614;
935.4000;0.4632;0.8665;
935.7000;0.4632;0.8665;
936.0000;0.4632;0.8640;
936.3000;0.4624;0.8614;
936.6000;0.4615;0.8665;
936.9000;0.4624;0.8665;
937.2000;0.4632;0.8690;
937.5000;0.4632;0.8715;
937.8000;0.4615;0.8791;
938.1000;0.4615;0.8740;
938.4000;0.4640;0.8640;
938.7000;0.4615;0.8589;
939.0000;0.4632;0.8665;
939.3000;0.4640;0.8766;
939.6000;0.4615;0.8766;
939.9000;0.4648;0.8740;
940.2000;0.4632;0.8665;
940.5000;0.4648;0.8740;
940.8000;0.4640;0.8640;
941.1000;0.4648;0.8715;
941.4000;0.4640;0.8665;
941.7000;0.4640;0.8715;
942.0000;0.4656;0.8715;
942.3000;0.4640;0.8589;
942.6000;0.4648;0.8690;
942.9000;0.4624;0.8640;
943.2000;0.4648;0.8665;
943.5000;0.4648;0.8690;
943.8000;0.4632;0.8514;
944.1000;0.4624;0.8539;
944.4000;0.4640;0.8564;
944.7000;0.4640;0.8514;
945.0000;0.4672;0.8690;
945.3000;0.4607;0.8564;
945.6000;0.4640;0.8766;
945.9000;0.4640;0.8816;
946.2000;0.4640;0.8816;
946.5000;0.4632;0.8816;
946.8000;0.4607;0.8766;
947.1000;0.4681;0.8917;
947.4000;0.4632;0.8740;
947.7000;0.4624;0.8766;
948.0000;0.4624;0.8766;
948.3000;0.4624;0.8665;
948.6000;0.4648;0.8690;
948.9000;0.4624;0.8690;
949.2000;0.4591;0.8564;
949.5000;0.4599;0.8589;
949.8000;0.4640;0.8589;
950.1000;0.4656;0.8564;
950.4000;0.4640;0.8539;
950.7000;0.4648;0.8640;
951.0000;0.4640;0.8514;
951.3000;0.4624;0.8413;
951.6000;0.4632;0.8388;
951.9000;0.4632;0.8388;
952.2000;0.4624;0.8312;
952.5000;0.4640;0.8363;
952.8000;0.4615;0.8363;
953.1000;0.4632;0.8363;
953.4000;0.4681;0.8489;
953.7000;0.4648;0.8463;
954.0000;0.4648;0.8463;
954.3000;0.4583;0.8211;
954.6000;0.4656;0.8438;
954.9000;0.4640;0.8564;
955.2000;0.4648;0.8514;
955.5000;0.4640;0.8564;
955.8000;0.4648;0.8589;
956.1000;0.4583;0.8413;
956.4000;0.4648;0.8463;
956.7000;0.4632;0.8388;
957.0000;0.4624;0.8539;
957.3000;0.4550;0.8413;
957.6000;0.4607;0.8614;
957.9000;0.4550;0.8514;
958.2000;0.4713;0.9043;
958.5000;0.4648;0.8841;
958.8000;0.4648;0.8816;
959.1000;0.4624;0.8791;
959.4000;0.4632;0.8766;
959.7000;0.4640;0.8791;
960.0000;0.4632;0.8866;
960.3000;0.4640;0.8892;
960.6000;0.4624;0.8866;
960.9000;0.4615;0.8866;
961.2000;0.4632;0.8791;
961.5000;0.4632;0.8791;
961.8000;0.4632;0.8766;
962.1000;0.4624;0.8715;
962.4000;0.4632;0.8740;
962.7000;0.4615;0.8665;
963.0000;0.4624;0.8740;
963.3000;0.4624;0.8640;
963.6000;0.4640;0.8740;
963.9000;0.4648;0.8740;
964.2000;0.4624;0.8740;
964.5000;0.4656;0.8841;
964.8000;0.4624;0.8690;
965.1000;0.4640;0.8740;
965.4000;0.4615;0.8740;
965.7000;0.4624;0.8715;
966.0000;0.4632;0.8690;
966.3000;0.4640;0.8740;
966.6000;0.4550;0.8463;
966.9000;0.4632;0.8589;
967.2000;0.4632;0.8766;
967.5000;0.4624;0.8841;
967.8000;0.4624;0.8766;
968.1000;0.4615;0.8740;
968.4000;0.4632;0.8690;
968.7000;0.4648;0.8640;
969.0000;0.4640;0.8589;
969.3000;0.4632;0.8564;
969.6000;0.4632;0.8564;
969.9000;0.4681;0.8690;
970.2000;0.4640;0.8564;
970.5000;0.4632;0.8614;
970.8000;0.4648;0.8564;
971.1000;0.4640;0.8564;
971.4000;0.4640;0.8665;
971.7000;0.4624;0.8715;
972.0000;0.4656;0.8715;
972.3000;0.4640;0.8715;
972.6000;0.4615;0.8665;
972.9000;0.4640;0.8690;
973.2000;0.4648;0.8766;
973.5000;0.4632;0.8740;
973.8000;0.4664;0.8816;
974.1000;0.4624;0.8690;
974.4000;0.4624;0.8640;
974.7000;0.4640;0.8589;
975.0000;0.4648;0.8665;
975.3000;0.4607;0.8614;
975.6000;0.4640;0.8589;
975.9000;0.4624;0.8715;
976.2000;0.4689;0.8892;
976.5000;0.4624;0.8766;
976.8000;0.4640;0.8791;
977.1000;0.4615;0.8791;
977.4000;0.4640;0.8791;
977.7000;0.4640;0.8690;
978.0000;0.4632;0.8690;
978.3000;0.4640;0.8690;
978.6000;0.4632;0.8614;
978.9000;0.4656;0.8690;
979.2000;0.4558;0.8463;
979.5000;0.4624;0.8614;
979.8000;0.4632;0.8614;
980.1000;0.4656;0.8665;
980.4000;0.4640;0.8564;
980.7000;0.4615;0.8514;
981.0000;0.4640;0.8614;
981.3000;0.4656;0.8665;
981.6000;0.4624;0.8614;
981.9000;0.4575;0.8463;
982.2000;0.4615;0.8589;
982.5000;0.4624;0.8715;
982.8000;0.4640;0.8866;
983.1000;0.4640;0.8866;
983.4000;0.4615;0.8892;
983.7000;0.4624;0.8917;
984.0000;0.4607;0.8816;
984.3000;0.4624;0.8791;
984.6000;0.4615;0.8791;
984.9000;0.4624;0.8740;
985.2000;0.4615;0.8715;
985.5000;0.4575;0.8690;
985.8000;0.4632;0.8917;
986.1000;0.4624;0.8866;
986.4000;0.4632;0.8841;
986.7000;0.4632;0.8841;
987.0000;0.4607;0.8766;
987.3000;0.4640;0.8740;
987.6000;0.4632;0.8715;
987.9000;0.4640;0.8766;
988.2000;0.4632;0.8715;
988.5000;0.4632;0.8690;
988.8000;0.4632;0.8614;
989.1000;0.4632;0.8589;
989.4000;0.4624;0.8614;
989.7000;0.4607;0.8564;
990.0000;0.4632;0.8640;
990.3000;0.4615;0.8640;
990.6000;0.4615;0.8614;
990.9000;0.4615;0.8665;
991.2000;0.4632;0.8740;
991.5000;0.4624;0.8640;
991.8000;0.4640;0.8766;
992.1000;0.4632;0.8740;
992.4000;0.4632;0.8715;
992.7000;0.4632;0.8614;
993.0000;0.4640;0.8640;
993.3000;0.4624;0.8614;
993.6000;0.4656;0.8665;
993.9000;0.4591;0.8514;
994.2000;0.4615;0.8640;
994.5000;0.4583;0.8539;
994.8000;0.4591;0.8614;
995.1000;0.4615;0.8665;
995.4000;0.4632;0.8614;
995.7000;0.4583;0.8564;
996.0000;0.4656;0.8791;
996.3000;0.4656;0.8791;
996.6000;0.4599;0.8564;
996.9000;0.4615;0.8564;
997.2000;0.4632;0.8539;
997.5000;0.4640;0.8489;
997.8000;0.4640;0.8463;
998.1000;0.4640;0.8564;
998.4000;0.4632;0.8665;
998.7000;0.4632;0.8690;
999.0000;0.4640;0.8740;
999.3000;0.4632;0.8715;
999.6000;0.4624;0.8614;
999.9000;0.4624;0.8740;
1000.2000;0.4615;0.8766;
1000.5000;0.4624;0.8740;
1000.8000;0.4624;0.8766;
1001.1000;0.4624;0.8740;
1001.4000;0.4624;0.8791;
1001.7000;0.4615;0.8791;
1002.0000;0.4615;0.8791;
1002.3000;0.4648;0.8892;
1002.6000;0.4632;0.8740;
1002.9000;0.4624;0.8690;
1003.2000;0.4648;0.8715;
1003.5000;0.4632;0.8690;
1003.8000;0.4615;0.8614;
1004.1000;0.4624;0.8640;
1004.4000;0.4615;0.8665;
1004.7000;0.4640;0.8740;
1005.0000;0.4624;0.8665;
1005.3000;0.4624;0.8665;
1005.6000;0.4632;0.8791;
1005.9000;0.4624;0.8766;
1006.2000;0.4615;0.8766;
1006.5000;0.4615;0.8816;
1006.8000;0.4607;0.8740;
1007.1000;0.4615;0.8740;
1007.4000;0.4615;0.8690;
1007.7000;0.4607;0.8791;
1008.0000;0.4615;0.8892;
1008.3000;0.4615;0.8917;
1008.6000;0.4615;0.8791;
1008.9000;0.4542;0.8640;
1009.2000;0.4607;0.8766;
1009.5000;0.4624;0.8690;
1009.8000;0.4624;0.8640;
1010.1000;0.4607;0.8614;
1010.4000;0.4624;0.8665;
1010.7000;0.4607;0.8589;
1011.0000;0.4632;0.8690;
1011.3000;0.4624;0.8690;
1011.6000;0.4632;0.8614;
1011.9000;0.4624;0.8640;
1012.2000;0.4624;0.8489;
1012.5000;0.4632;0.8514;
1012.8000;0.4615;0.8463;
1013.1000;0.4624;0.8539;
1013.4000;0.4640;0.8564;
1013.7000;0.4624;0.8514;
1014.0000;0.4624;0.8614;
1014.3000;0.4632;0.8589;
1014.6000;0.4599;0.8463;
1014.9000;0.4599;0.8438;
1015.2000;0.4583;0.8337;
1015.5000;0.4640;0.8413;
1015.8000;0.4624;0.8413;
1016.1000;0.4615;0.8363;
1016.4000;0.4624;0.8413;
1016.7000;0.4624;0.8413;
1017.0000;0.4705;0.8715;
1017.3000;0.4632;0.8539;
1017.6000;0.4624;0.8539;
1017.9000;0.4567;0.8489;
1018.2000;0.4575;0.8564;
1018.5000;0.4656;0.8690;
1018.8000;0.4607;0.8589;
1019.1000;0.4689;0.8791;
1019.4000;0.4632;0.8690;
1019.7000;0.4640;0.8791;
1020.0000;0.4672;0.8892;
1020.3000;0.4599;0.8715;
1020.6000;0.4648;0.8841;
1020.9000;0.4640;0.8766;
1021.2000;0.4558;0.8564;
1021.5000;0.4583;0.8539;
1021.8000;0.4640;0.8690;
1022.1000;0.4656;0.8791;
1022.4000;0.4672;0.8841;
1022.7000;0.4640;0.8766;
1023.0000;0.4607;0.8740;
1023.3000;0.4615;0.8640;
1023.6000;0.4615;0.8740;
1023.9000;0.4640;0.8740;
1024.2000;0.4615;0.8690;
1024.5000;0.4624;0.8690;
1024.8000;0.4632;0.8740;
1025.1000;0.4624;0.8665;
1025.4000;0.4624;0.8690;
1025.7000;0.4632;0.8715;
1026.0000;0.4632;0.8816;
1026.3000;0.4656;0.8942;
1026.6000;0.4632;0.8791;
1026.9000;0.4615;0.8740;
1027.2000;0.4632;0.8766;
1027.5000;0.4615;0.8640;
1027.8000;0.4607;0.8640;
1028.1000;0.4599;0.8640;
1028.4000;0.4632;0.8740;
1028.7000;0.4624;0.8690;
1029.0000;0.4624;0.8816;
1029.3000;0.4607;0.8816;
1029.6000;0.4624;0.8791;
1029.9000;0.4640;0.8917;
1030.2000;0.4624;0.8816;
1030.5000;0.4624;0.8841;
1030.8000;0.4591;0.8791;
1031.1000;0.4648;0.8892;
1031.4000;0.4615;0.8841;
1031.7000;0.4607;0.8690;
1032.0000;0.4632;0.8766;
1032.3000;0.4599;0.8715;
1032.6000;0.4615;0.8791;
1032.9000;0.4575;0.8614;
1033.2000;0.4624;0.8791;
1033.5000;0.4615;0.8766;
1033.8000;0.4656;0.8791;
1034.1000;0.4624;0.8715;
1034.4000;0.4615;0.8589;
1034.7000;0.4615;0.8539;
1035.0000;0.4632;0.8564;
1035.3000;0.4607;0.8589;
1035.6000;0.4632;0.8614;
1035.9000;0.4624;0.8614;
1036.2000;0.4615;0.8665;
1036.5000;0.4624;0.8690;
1036.8000;0.4615;0.8690;
1037.1000;0.4632;0.8766;
1037.4000;0.4615;0.8791;
1037.7000;0.4615;0.8841;
1038.0000;0.4624;0.8791;
1038.3000;0.4607;0.8816;
1038.6000;0.4624;0.8740;
1038.9000;0.4599;0.8690;
1039.2000;0.4599;0.8766;
1039.5000;0.4624;0.8841;
1039.8000;0.4615;0.8892;
1040.1000;0.4632;0.8942;
1040.4000;0.4648;0.8992;
1040.7000;0.4632;0.8892;
1041.0000;0.4624;0.8866;
1041.3000;0.4615;0.8791;
1041.6000;0.4640;0.8841;
1041.9000;0.4624;0.8740;
1042.2000;0.4575;0.8715;
1042.5000;0.4624;0.8791;
1042.8000;0.4632;0.8816;
1043.1000;0.4632;0.8841;
1043.4000;0.4624;0.8841;
1043.7000;0.4615;0.8791;
1044.0000;0.4632;0.8791;
1044.3000;0.4640;0.8791;
1044.6000;0.4607;0.8665;
1044.9000;0.4599;0.8665;
1045.2000;0.4632;0.8715;
1045.5000;0.4648;0.8740;
1045.8000;0.4607;0.8715;
1046.1000;0.4624;0.8816;
1046.4000;0.4615;0.8791;
1046.7000;0.4624;0.8841;
1047.0000;0.4615;0.8766;
1047.3000;0.4648;0.8766;
1047.6000;0.4632;0.8766;
1047.9000;0.4615;0.8690;
1048.2000;0.4615;0.8791;
1048.5000;0.4607;0.8766;
1048.8000;0.4632;0.8841;
1049.1000;0.4615;0.8816;
1049.4000;0.4632;0.8917;
1049.7000;0.4632;0.8841;
1050.0000;0.4624;0.8715;
1050.3000;0.4648;0.8841;
1050.6000;0.4624;0.8740;
1050.9000;0.4624;0.8791;
1051.2000;0.4624;0.8816;
1051.5000;0.4624;0.8791;
1051.8000;0.4567;0.8640;
1052.1000;0.4624;0.8766;
1052.4000;0.4624;0.8715;
1052.7000;0.4705;0.8866;
1053.0000;0.4624;0.8589;
1053.3000;0.4599;0.8589;
1053.6000;0.4632;0.8640;
1053.9000;0.4599;0.8564;
1054.2000;0.4640;0.8715;
1054.5000;0.4624;0.8665;
1054.8000;0.4615;0.8766;
1055.1000;0.4599;0.8740;
1055.4000;0.4721;0.9068;
1055.7000;0.4632;0.8740;
1056.0000;0.4624;0.8640;
1056.3000;0.4624;0.8740;
1056.6000;0.4624;0.8816;
1056.9000;0.4615;0.8816;
1057.2000;0.4624;0.8866;
1057.5000;0.4624;0.8942;
1057.8000;0.4615;0.8917;
1058.1000;0.4632;0.8892;
1058.4000;0.4624;0.8791;
1058.7000;0.4607;0.8791;
1059.0000;0.4624;0.8791;
1059.3000;0.4615;0.8816;
1059.6000;0.4624;0.8766;
1059.9000;0.4672;0.8917;
1060.2000;0.4607;0.8690;
1060.5000;0.4624;0.8791;
1060.8000;0.4624;0.8892;
1061.1000;0.4640;0.8740;
1061.4000;0.4615;0.8766;
1061.7000;0.4607;0.8740;
1062.0000;0.4624;0.8816;
1062.3000;0.4624;0.8791;
1062.6000;0.4615;0.8766;
1062.9000;0.4615;0.8766;
1063.2000;0.4607;0.8740;
1063.5000;0.4624;0.8791;
1063.8000;0.4632;0.8791;
1064.1000;0.4624;0.8816;
1064.4000;0.4607;0.8816;
1064.7000;0.4624;0.8917;
1065.0000;0.4632;0.8942;
1065.3000;0.4607;0.8841;
1065.6000;0.4624;0.8816;
1065.9000;0.4615;0.8766;
1066.2000;0.4664;0.8967;
1066.5000;0.4624;0.8791;
1066.8000;0.4632;0.8766;
1067.1000;0.4640;0.8766;
1067.4000;0.4599;0.8640;
1067.7000;0.4607;0.8690;
1068.0000;0.4583;0.8690;
1068.3000;0.4615;0.8816;
1068.6000;0.4607;0.8766;
1068.9000;0.4615;0.8816;
1069.2000;0.4607;0.8766;
1069.5000;0.4632;0.8791;
1069.8000;0.4632;0.8766;
1070.1000;0.4624;0.8640;
1070.4000;0.4624;0.8690;
1070.7000;0.4640;0.8791;
1071.0000;0.4624;0.8665;
1071.3000;0.4648;0.8715;
1071.6000;0.4615;0.8665;
1071.9000;0.4607;0.8766;
1072.2000;0.4550;0.8640;
1072.5000;0.4607;0.8766;
1072.8000;0.4599;0.8766;
1073.1000;0.4599;0.8791;
1073.4000;0.4624;0.8841;
1073.7000;0.4607;0.8841;
1074.0000;0.4615;0.8866;
1074.3000;0.4632;0.8942;
1074.6000;0.4632;0.8866;
1074.9000;0.4615;0.8791;
1075.2000;0.4697;0.8917;
1075.5000;0.4591;0.8690;
1075.8000;0.4607;0.8892;
1076.1000;0.4607;0.8967;
1076.4000;0.4624;0.8967;
1076.7000;0.4624;0.8942;
1077.0000;0.4583;0.8816;
1077.3000;0.4624;0.8841;
1077.6000;0.4575;0.8766;
1077.9000;0.4607;0.8892;
1078.2000;0.4615;0.8791;
1078.5000;0.4615;0.8841;
1078.8000;0.4591;0.8766;
1079.1000;0.4599;0.8816;
1079.4000;0.4615;0.8816;
1079.7000;0.4607;0.8866;
1080.0000;0.4624;0.8841;
1080.3000;0.4624;0.8917;
1080.6000;0.4607;0.8816;
1080.9000;0.4615;0.8917;
1081.2000;0.4615;0.8942;
1081.5000;0.4615;0.8766;
1081.8000;0.4664;0.8942;
1082.1000;0.4624;0.8892;
1082.4000;0.4624;0.8917;
1082.7000;0.4624;0.8942;
1083.0000;0.4599;0.8917;
1083.3000;0.4615;0.8942;
1083.6000;0.4550;0.8766;
1083.9000;0.4599;0.9017;
1084.2000;0.4632;0.9043;
1084.5000;0.4615;0.8967;
1084.8000;0.4624;0.8892;
1085.1000;0.4624;0.8866;
1085.4000;0.4615;0.8892;
1085.7000;0.4624;0.8892;
1086.0000;0.4607;0.8892;
1086.3000;0.4615;0.8942;
1086.6000;0.4607;0.8967;
1086.9000;0.4624;0.8967;
1087.2000;0.4640;0.9017;
1087.5000;0.4632;0.8917;
1087.8000;0.4607;0.8942;
1088.1000;0.4615;0.8917;
1088.4000;0.4607;0.8942;
1088.7000;0.4615;0.8917;
1089.0000;0.4624;0.9017;
1089.3000;0.4607;0.8866;
1089.6000;0.4534;0.8614;
1089.9000;0.4689;0.9068;
1090.2000;0.4615;0.8942;
1090.5000;0.4640;0.8967;
1090.8000;0.4615;0.8992;
1091.1000;0.4624;0.9043;
1091.4000;0.4632;0.9068;
1091.7000;0.4607;0.8992;
1092.0000;0.4607;0.8866;
1092.3000;0.4632;0.8866;
1092.6000;0.4632;0.8791;
1092.9000;0.4607;0.8715;
1093.2000;0.4624;0.8816;
1093.5000;0.4615;0.8791;
1093.8000;0.4624;0.8766;
1094.1000;0.4615;0.8665;
1094.4000;0.4615;0.8715;
1094.7000;0.4624;0.8816;
1095.0000;0.4607;0.8766;
1095.3000;0.4607;0.8715;
1095.6000;0.4607;0.8740;
1095.9000;0.4615;0.8841;
1096.2000;0.4615;0.8866;
1096.5000;0.4624;0.8791;
1096.8000;0.4607;0.8740;
1097.1000;0.4591;0.8740;
1097.4000;0.4632;0.8816;
1097.7000;0.4624;0.8866;
1098.0000;0.4607;0.8816;
1098.3000;0.4607;0.8766;
1098.6000;0.4615;0.8740;
1098.9000;0.4599;0.8690;
1099.2000;0.4607;0.8715;
1099.5000;0.4607;0.8866;
1099.8000;0.4599;0.8791;
1100.1000;0.4615;0.8715;
1100.4000;0.4624;0.8740;
1100.7000;0.4615;0.8791;
1101.0000;0.4607;0.8816;
1101.3000;0.4624;0.8866;
1101.6000;0.4624;0.8841;
1101.9000;0.4615;0.8841;
1102.2000;0.4615;0.8841;
1102.5000;0.4624;0.8917;
1102.8000;0.4624;0.8942;
1103.1000;0.4624;0.8917;
1103.4000;0.4607;0.8892;
1103.7000;0.4615;0.9093;
1104.0000;0.4656;0.9169;
1104.3000;0.4615;0.9068;
1104.6000;0.4705;0.9194;
1104.9000;0.4640;0.9017;
1105.2000;0.4664;0.9194;
1105.5000;0.4624;0.9118;
1105.8000;0.4648;0.9169;
1106.1000;0.4615;0.9093;
1106.4000;0.4632;0.9017;
1106.7000;0.4624;0.9017;
1107.0000;0.4681;0.9093;
1107.3000;0.4599;0.8942;
1107.6000;0.4607;0.8992;
1107.9000;0.4664;0.9219;
1108.2000;0.4607;0.8992;
1108.5000;0.4648;0.9093;
1108.8000;0.4599;0.8967;
1109.1000;0.4615;0.8917;
1109.4000;0.4640;0.8892;
1109.7000;0.4591;0.8841;
1110.0000;0.4689;0.9093;
1110.3000;0.4656;0.9118;
1110.6000;0.4624;0.8992;
1110.9000;0.4632;0.9093;
1111.2000;0.4591;0.8942;
1111.5000;0.4624;0.9068;
1111.8000;0.4615;0.9118;
1112.1000;0.4599;0.9194;
1112.4000;0.4624;0.9118;
1112.7000;0.4648;0.9219;
1113.0000;0.4599;0.9043;
1113.3000;0.4567;0.8816;
1113.6000;0.4615;0.8967;
1113.9000;0.4599;0.8866;
1114.2000;0.4607;0.8841;
1114.5000;0.4632;0.8892;
1114.8000;0.4607;0.8866;
1115.1000;0.4591;0.8892;
1115.4000;0.4615;0.9017;
1115.7000;0.4632;0.9043;
1116.0000;0.4567;0.8766;
1116.3000;0.4501;0.8614;
1116.6000;0.4607;0.8841;
1116.9000;0.4624;0.8866;
1117.2000;0.4632;0.8866;
1117.5000;0.4632;0.8816;
1117.8000;0.4624;0.8841;
1118.1000;0.4615;0.8892;
1118.4000;0.4615;0.8917;
1118.7000;0.4599;0.8766;
1119.0000;0.4624;0.8791;
1119.3000;0.4567;0.8665;
1119.6000;0.4591;0.8715;
1119.9000;0.4615;0.8640;
1120.2000;0.4591;0.8589;
1120.5000;0.4624;0.8715;
1120.8000;0.4624;0.8791;
1121.1000;0.4575;0.8740;
1121.4000;0.4607;0.8791;
1121.7000;0.4624;0.8841;
1122.0000;0.4615;0.8866;
1122.3000;0.4607;0.8967;
1122.6000;0.4607;0.9017;
1122.9000;0.4607;0.9017;
1123.2000;0.4607;0.8942;
1123.5000;0.4607;0.8866;
1123.8000;0.4615;0.8917;
1124.1000;0.4624;0.9017;
1124.4000;0.4591;0.9017;
1124.7000;0.4624;0.9043;
1125.0000;0.4599;0.9068;
1125.3000;0.4607;0.8967;
1125.6000;0.4624;0.8917;
1125.9000;0.4534;0.8690;
1126.2000;0.4615;0.8866;
1126.5000;0.4599;0.8866;
1126.8000;0.4575;0.8841;
1127.1000;0.4599;0.8917;
1127.4000;0.4607;0.8892;
1127.7000;0.4615;0.8992;
1128.0000;0.4575;0.8892;
1128.3000;0.4632;0.8967;
1128.6000;0.4607;0.8967;
1128.9000;0.4558;0.8841;
1129.2000;0.4615;0.8967;
1129.5000;0.4632;0.9118;
1129.8000;0.4624;0.9118;
1130.1000;0.4615;0.9118;
1130.4000;0.4640;0.9143;
1130.7000;0.4632;0.9068;
1131.0000;0.4632;0.8992;
1131.3000;0.4624;0.8816;
1131.6000;0.4624;0.8892;
1131.9000;0.4632;0.8791;
1132.2000;0.4599;0.8715;
1132.5000;0.4591;0.8715;
1132.8000;0.4632;0.8816;
1133.1000;0.4607;0.8841;
1133.4000;0.4640;0.8917;
1133.7000;0.4607;0.8816;
1134.0000;0.4648;0.8791;
1134.3000;0.4607;0.8665;
1134.6000;0.4624;0.8766;
1134.9000;0.4591;0.8690;
1135.2000;0.4583;0.8665;
1135.5000;0.4615;0.8740;
1135.8000;0.4624;0.8816;
1136.1000;0.4615;0.8766;
1136.4000;0.4648;0.8917;
1136.7000;0.4656;0.8892;
1137.0000;0.4615;0.8816;
1137.3000;0.4615;0.8766;
1137.6000;0.4607;0.8766;
1137.9000;0.4607;0.8766;
1138.2000;0.4615;0.8841;
1138.5000;0.4607;0.8942;
1138.8000;0.4607;0.8942;
1139.1000;0.4607;0.9017;
1139.4000;0.4607;0.8942;
1139.7000;0.4615;0.9068;
1140.0000;0.4615;0.9043;
1140.3000;0.4599;0.8917;
1140.6000;0.4624;0.8942;
1140.9000;0.4615;0.8892;
1141.2000;0.4599;0.8866;
1141.5000;0.4615;0.8841;
1141.8000;0.4607;0.8841;
1142.1000;0.4624;0.8841;
1142.4000;0.4624;0.8892;
1142.7000;0.4607;0.8892;
1143.0000;0.4615;0.8917;
1143.3000;0.4615;0.8942;
1143.6000;0.4632;0.8917;
1143.9000;0.4624;0.8841;
1144.2000;0.4624;0.8841;
1144.5000;0.4607;0.8791;
1144.8000;0.4632;0.8816;
1145.1000;0.4615;0.8690;
1145.4000;0.4615;0.8715;
1145.7000;0.4583;0.8715;
1146.0000;0.4615;0.8816;
1146.3000;0.4632;0.8917;
1146.6000;0.4599;0.8892;
1146.9000;0.4615;0.8841;
1147.2000;0.4607;0.8892;
1147.5000;0.4607;0.8866;
1147.8000;0.4632;0.8917;
1148.1000;0.4624;0.8866;
1148.4000;0.4599;0.8892;
1148.7000;0.4648;0.8967;
1149.0000;0.4567;0.8665;
1149.3000;0.4607;0.8791;
1149.6000;0.4591;0.8766;
1149.9000;0.4624;0.8942;
1150.2000;0.4599;0.8841;
1150.5000;0.4607;0.8791;
1150.8000;0.4558;0.8640;
1151.1000;0.4542;0.8614;
1151.4000;0.4624;0.8766;
1151.7000;0.4632;0.8816;
1152.0000;0.4599;0.8665;
1152.3000;0.4624;0.8690;
1152.6000;0.4607;0.8715;
1152.9000;0.4705;0.8967;
1153.2000;0.4575;0.8614;
1153.5000;0.4575;0.8640;
1153.8000;0.4607;0.8766;
1154.1000;0.4583;0.8766;
1154.4000;0.4591;0.8791;
1154.7000;0.4607;0.8816;
1155.0000;0.4615;0.8715;
1155.3000;0.4624;0.8715;
1155.6000;0.4591;0.8766;
1155.9000;0.4591;0.8740;
1156.2000;0.4624;0.8892;
1156.5000;0.4615;0.8866;
1156.8000;0.4591;0.8841;
1157.1000;0.4607;0.8866;
1157.4000;0.4624;0.8816;
1157.7000;0.4607;0.8715;
1158.0000;0.4607;0.8690;
1158.3000;0.4615;0.8640;
1158.6000;0.4624;0.8665;
1158.9000;0.4624;0.8690;
1159.2000;0.4542;0.8539;
1159.5000;0.4583;0.8665;
1159.8000;0.4607;0.8740;
1160.1000;0.4607;0.8766;
1160.4000;0.4648;0.8791;
1160.7000;0.4624;0.8614;
1161.0000;0.4615;0.8539;
1161.3000;0.4664;0.8766;
1161.6000;0.4591;0.8665;
1161.9000;0.4607;0.8740;
1162.2000;0.4583;0.8690;
1162.5000;0.4607;0.8665;
1162.8000;0.4615;0.8665;
1163.1000;0.4632;0.8816;
1163.4000;0.4615;0.8690;
1163.7000;0.4615;0.8791;
1164.0000;0.4607;0.8791;
1164.3000;0.4615;0.8841;
1164.6000;0.4599;0.8766;
1164.9000;0.4599;0.8791;
1165.2000;0.4664;0.9017;
1165.5000;0.4607;0.8866;
1165.8000;0.4607;0.8816;
1166.1000;0.4591;0.8690;
1166.4000;0.4599;0.8690;
1166.7000;0.4607;0.8640;
1167.0000;0.4615;0.8564;
1167.3000;0.4615;0.8640;
1167.6000;0.4632;0.8766;
1167.9000;0.4632;0.8791;
1168.2000;0.4624;0.8766;
1168.5000;0.4599;0.8766;
1168.8000;0.4615;0.8892;
1169.1000;0.4607;0.8866;
1169.4000;0.4615;0.8841;
1169.7000;0.4615;0.8841;
1170.0000;0.4607;0.8766;
1170.3000;0.4599;0.8816;
1170.6000;0.4599;0.8791;
1170.9000;0.4583;0.8740;
1171.2000;0.4607;0.8816;
1171.5000;0.4615;0.8866;
1171.8000;0.4640;0.8917;
1172.1000;0.4599;0.8816;
1172.4000;0.4599;0.8816;
1172.7000;0.4615;0.8816;
1173.0000;0.4615;0.8791;
1173.3000;0.4624;0.8917;
1173.6000;0.4632;0.8992;
1173.9000;0.4615;0.8992;
1174.2000;0.4583;0.8892;
1174.5000;0.4640;0.8967;
1174.8000;0.4607;0.8917;
1175.1000;0.4615;0.8967;
1175.4000;0.4624;0.8992;
1175.7000;0.4583;0.8866;
1176.0000;0.4599;0.8942;
1176.3000;0.4615;0.8866;
1176.6000;0.4607;0.8791;
1176.9000;0.4656;0.8942;
1177.2000;0.4607;0.8791;
1177.5000;0.4591;0.8816;
1177.8000;0.4615;0.8892;
1178.1000;0.4624;0.8866;
1178.4000;0.4607;0.8841;
1178.7000;0.4607;0.8841;
1179.0000;0.4624;0.9043;
1179.3000;0.4615;0.9118;
1179.6000;0.4599;0.9068;
1179.9000;0.4624;0.9093;
1180.2000;0.4632;0.9169;
1180.5000;0.4615;0.9143;
1180.8000;0.4599;0.9043;
1181.1000;0.4599;0.9017;
1181.4000;0.4607;0.9043;
1181.7000;0.4477;0.8589;
1182.0000;0.4599;0.8892;
1182.3000;0.4607;0.8892;
1182.6000;0.4607;0.8866;
1182.9000;0.4599;0.8841;
1183.2000;0.4607;0.8892;
1183.5000;0.4640;0.8917;
1183.8000;0.4697;0.9068;
1184.1000;0.4615;0.8942;
1184.4000;0.4599;0.8967;
1184.7000;0.4615;0.8942;
1185.0000;0.4607;0.8942;
1185.3000;0.4583;0.8917;
1185.6000;0.4599;0.8892;
1185.9000;0.4607;0.8841;
1186.2000;0.4607;0.8866;
1186.5000;0.4607;0.8841;
1186.8000;0.4607;0.8841;
1187.1000;0.4558;0.8715;
1187.4000;0.4615;0.8791;
1187.7000;0.4607;0.8766;
1188.0000;0.4632;0.8892;
1188.3000;0.4615;0.8892;
1188.6000;0.4624;0.8967;
1188.9000;0.4607;0.8992;
1189.2000;0.4664;0.9068;
1189.5000;0.4607;0.8866;
1189.8000;0.4615;0.8892;
1190.1000;0.4599;0.8866;
1190.4000;0.4607;0.8791;
1190.7000;0.4615;0.8589;
1191.0000;0.4599;0.8489;
1191.3000;0.4575;0.8388;
1191.6000;0.4640;0.8539;
1191.9000;0.4591;0.8564;
1192.2000;0.4624;0.8589;
1192.5000;0.4624;0.8489;
1192.8000;0.4599;0.8489;
1193.1000;0.4607;0.8589;
1193.4000;0.4615;0.8589;
1193.7000;0.4607;0.8665;
1194.0000;0.4656;0.8766;
1194.3000;0.4607;0.8640;
1194.6000;0.4599;0.8589;
1194.9000;0.4615;0.8614;
1195.2000;0.4615;0.8614;
1195.5000;0.4599;0.8665;
1195.8000;0.4599;0.8740;
1196.1000;0.4591;0.8816;
1196.4000;0.4624;0.8942;
1196.7000;0.4599;0.8942;
1197.0000;0.4599;0.8841;
1197.3000;0.4591;0.8766;
1197.6000;0.4591;0.8766;
1197.9000;0.4550;0.8589;
1198.2000;0.4607;0.8690;
1198.5000;0.4648;0.8816;
1198.8000;0.4624;0.8866;
1199.1000;0.4615;0.8942;
1199.4000;0.4624;0.8992;
1199.7000;0.4664;0.9169;
1200.0000;0.4615;0.8992;
1200.3000;0.4607;0.8791;
1200.6000;0.4615;0.8791;
1200.9000;0.4615;0.8715;
1201.2000;0.4624;0.8640;
1201.5000;0.4591;0.8539;
1201.8000;0.4510;0.8388;
1202.1000;0.4632;0.8791;
1202.4000;0.4591;0.8640;
1202.7000;0.4615;0.8690;
1203.0000;0.4591;0.8539;
1203.3000;0.4607;0.8564;
1203.6000;0.4624;0.8589;
1203.9000;0.4624;0.8640;
1204.2000;0.4607;0.8665;
1204.5000;0.4648;0.8866;
1204.8000;0.4534;0.8640;
1205.1000;0.4640;0.8942;
1205.4000;0.4453;0.8489;
1205.7000;0.4591;0.8892;
1206.0000;0.4558;0.8866;
1206.3000;0.4607;0.8967;
1206.6000;0.4615;0.8967;
1206.9000;0.4681;0.9169;
1207.2000;0.4615;0.8892;
1207.5000;0.4632;0.8866;
1207.8000;0.4640;0.8841;
1208.1000;0.4591;0.8715;
1208.4000;0.4583;0.8665;
1208.7000;0.4615;0.8740;
1209.0000;0.4607;0.8791;
1209.3000;0.4697;0.9093;
1209.6000;0.4607;0.8866;
1209.9000;0.4607;0.8917;
1210.2000;0.4607;0.8816;
1210.5000;0.4599;0.8740;
1210.8000;0.4615;0.8766;
1211.1000;0.4591;0.8665;
1211.4000;0.4624;0.8766;
1211.7000;0.4599;0.8640;
1212.0000;0.4599;0.8665;
1212.3000;0.4607;0.8690;
1212.6000;0.4624;0.8791;
1212.9000;0.4615;0.8892;
1213.2000;0.4599;0.8791;
1213.5000;0.4624;0.8866;
1213.8000;0.4607;0.8791;
1214.1000;0.4607;0.8766;
1214.4000;0.4599;0.8766;
1214.7000;0.4607;0.8791;
1215.0000;0.4632;0.8866;
1215.3000;0.4599;0.8892;
1215.6000;0.4575;0.8766;
1215.9000;0.4607;0.8816;
1216.2000;0.4624;0.8816;
1216.5000;0.4607;0.8816;
1216.8000;0.4615;0.8791;
1217.1000;0.4591;0.8665;
1217.4000;0.4615;0.8740;
1217.7000;0.4607;0.8665;
1218.0000;0.4599;0.8690;
1218.3000;0.4615;0.8665;
1218.6000;0.4607;0.8589;
1218.9000;0.4607;0.8564;
1219.2000;0.4599;0.8614;
1219.5000;0.4599;0.8690;
1219.8000;0.4599;0.8740;
1220.1000;0.4583;0.8816;
1220.4000;0.4599;0.8766;
1220.7000;0.4583;0.8614;
1221.0000;0.4607;0.8614;
1221.3000;0.4599;0.8539;
1221.6000;0.4607;0.8564;
1221.9000;0.4615;0.8640;
1222.2000;0.4624;0.8690;
1222.5000;0.4599;0.8589;
1222.8000;0.4648;0.8589;
1223.1000;0.4599;0.8489;
1223.4000;0.4607;0.8413;
1223.7000;0.4615;0.8463;
1224.0000;0.4624;0.8564;
1224.3000;0.4599;0.8514;
1224.6000;0.4615;0.8564;
1224.9000;0.4632;0.8640;
1225.2000;0.4591;0.8564;
1225.5000;0.4615;0.8640;
1225.8000;0.4591;0.8589;
1226.1000;0.4575;0.8539;
1226.4000;0.4599;0.8539;
1226.7000;0.4583;0.8665;
1227.0000;0.4591;0.8791;
1227.3000;0.4599;0.8715;
1227.6000;0.4599;0.8816;
1227.9000;0.4583;0.8766;
1228.2000;0.4591;0.8766;
1228.5000;0.4599;0.8766;
1228.8000;0.4575;0.8690;
1229.1000;0.4583;0.8665;
1229.4000;0.4607;0.8715;
1229.7000;0.4599;0.8740;
1230.0000;0.4583;0.8740;
1230.3000;0.4599;0.8841;
1230.6000;0.4599;0.8816;
1230.9000;0.4632;0.8841;
1231.2000;0.4558;0.8690;
1231.5000;0.4607;0.8866;
1231.8000;0.4591;0.8766;
1232.1000;0.4583;0.8690;
1232.4000;0.4599;0.8740;
1232.7000;0.4615;0.8791;
1233.0000;0.4624;0.8841;
1233.3000;0.4583;0.8740;
1233.6000;0.4591;0.8866;
1233.9000;0.4607;0.8942;
1234.2000;0.4615;0.8740;
1234.5000;0.4632;0.8892;
1234.8000;0.4607;0.8740;
1235.1000;0.4624;0.8766;
1235.4000;0.4615;0.8766;
1235.7000;0.4591;0.8791;
1236.0000;0.4615;0.8816;
1236.3000;0.4615;0.8816;
1236.6000;0.4591;0.8740;
1236.9000;0.4607;0.8791;
1237.2000;0.4599;0.8791;
1237.5000;0.4624;0.8866;
1237.8000;0.4615;0.8917;
1238.1000;0.4607;0.9017;
1238.4000;0.4599;0.8967;
1238.7000;0.4599;0.8942;
1239.0000;0.4607;0.8992;
1239.3000;0.4599;0.8942;
1239.6000;0.4648;0.9043;
1239.9000;0.4599;0.8967;
1240.2000;0.4632;0.8967;
1240.5000;0.4615;0.8892;
1240.8000;0.4615;0.8967;
1241.1000;0.4615;0.8841;
1241.4000;0.4599;0.8841;
1241.7000;0.4607;0.8942;
1242.0000;0.4615;0.8992;
1242.3000;0.4591;0.8892;
1242.6000;0.4607;0.8942;
1242.9000;0.4567;0.8866;
1243.2000;0.4599;0.8942;
1243.5000;0.4599;0.8866;
1243.8000;0.4599;0.8967;
1244.1000;0.4615;0.9043;
1244.4000;0.4591;0.9043;
1244.7000;0.4575;0.8992;
1245.0000;0.4591;0.8967;
1245.3000;0.4607;0.8917;
1245.6000;0.4640;0.9017;
1245.9000;0.4607;0.8917;
1246.2000;0.4591;0.8892;
1246.5000;0.4583;0.8917;
1246.8000;0.4615;0.9043;
1247.1000;0.4615;0.9068;
1247.4000;0.4599;0.8992;
1247.7000;0.4624;0.9068;
1248.0000;0.4607;0.8942;
1248.3000;0.4607;0.8942;
1248.6000;0.4599;0.8866;
1248.9000;0.4607;0.8740;
1249.2000;0.4615;0.8841;
1249.5000;0.4615;0.8841;
1249.8000;0.4624;0.8766;
1250.1000;0.4615;0.8715;
1250.4000;0.4607;0.8816;
1250.7000;0.4607;0.8917;
1251.0000;0.4607;0.8892;
1251.3000;0.4591;0.8892;
1251.6000;0.4607;0.8892;
1251.9000;0.4640;0.8992;
1252.2000;0.4615;0.8917;
1252.5000;0.4615;0.9043;
1252.8000;0.4607;0.9043;
1253.1000;0.4632;0.9068;
1253.4000;0.4607;0.9017;
1253.7000;0.4607;0.9068;
1254.0000;0.4599;0.9043;
1254.3000;0.4591;0.8967;
1254.6000;0.4599;0.8942;
1254.9000;0.4607;0.8841;
1255.2000;0.4558;0.8640;
1255.5000;0.4591;0.8665;
1255.8000;0.4607;0.8640;
1256.1000;0.4591;0.8740;
1256.4000;0.4591;0.8740;
1256.7000;0.4607;0.8665;
1257.0000;0.4607;0.8740;
1257.3000;0.4607;0.8564;
1257.6000;0.4607;0.8640;
1257.9000;0.4591;0.8589;
1258.2000;0.4607;0.8715;
1258.5000;0.4615;0.8766;
1258.8000;0.4607;0.8816;
1259.1000;0.4607;0.8766;
1259.4000;0.4607;0.8841;
1259.7000;0.4615;0.8942;
1260.0000;0.4599;0.8866;
1260.3000;0.4591;0.8816;
1260.6000;0.4615;0.8791;
1260.9000;0.4607;0.8766;
1261.2000;0.4591;0.8690;
1261.5000;0.4607;0.8690;
1261.8000;0.4615;0.8841;
1262.1000;0.4632;0.8866;
1262.4000;0.4583;0.8715;
1262.7000;0.4591;0.8715;
1263.0000;0.4624;0.8791;
1263.3000;0.4615;0.8766;
1263.6000;0.4599;0.8740;
1263.9000;0.4583;0.8740;
1264.2000;0.4607;0.8766;
1264.5000;0.4591;0.8665;
1264.8000;0.4607;0.8690;
1265.1000;0.4648;0.8816;
1265.4000;0.4640;0.8917;
1265.7000;0.4615;0.8967;
1266.0000;0.4607;0.8841;
1266.3000;0.4591;0.8740;
1266.6000;0.4542;0.8640;
1266.9000;0.4632;0.8866;
1267.2000;0.4624;0.8740;
1267.5000;0.4567;0.8589;
1267.8000;0.4615;0.8766;
1268.1000;0.4607;0.8740;
1268.4000;0.4607;0.8665;
1268.7000;0.4607;0.8740;
1269.0000;0.4607;0.8791;
1269.3000;0.4583;0.8841;
1269.6000;0.4615;0.8866;
1269.9000;0.4640;0.8892;
1270.2000;0.4615;0.8841;
1270.5000;0.4607;0.8866;
1270.8000;0.4615;0.8791;
1271.1000;0.4632;0.8866;
1271.4000;0.4607;0.8841;
1271.7000;0.4607;0.8841;
1272.0000;0.4607;0.8942;
1272.3000;0.4615;0.9017;
1272.6000;0.4599;0.8917;
1272.9000;0.4599;0.8816;
1273.2000;0.4575;0.8766;
1273.5000;0.4599;0.8816;
1273.8000;0.4599;0.8791;
1274.1000;0.4591;0.8766;
1274.4000;0.4599;0.8791;
1274.7000;0.4615;0.8791;
1275.0000;0.4624;0.8816;
1275.3000;0.4591;0.8841;
1275.6000;0.4607;0.8892;
1275.9000;0.4607;0.8866;
1276.2000;0.4615;0.8841;
1276.5000;0.4615;0.8791;
1276.8000;0.4624;0.8766;
1277.1000;0.4713;0.9068;
1277.4000;0.4615;0.8740;
1277.7000;0.4607;0.8715;
1278.0000;0.4607;0.8640;
1278.3000;0.4615;0.8740;
1278.6000;0.4607;0.8841;
1278.9000;0.4591;0.8791;
1279.2000;0.4607;0.8791;
1279.5000;0.4558;0.8740;
1279.8000;0.4615;0.8791;
1280.1000;0.4607;0.8766;
1280.4000;0.4599;0.8766;
1280.7000;0.4615;0.8816;
1281.0000;0.4599;0.8816;
1281.3000;0.4615;0.8791;
1281.6000;0.4599;0.8766;
1281.9000;0.4599;0.8640;
1282.2000;0.4550;0.8463;
1282.5000;0.4615;0.8640;
1282.8000;0.4607;0.8614;
1283.1000;0.4632;0.8715;
1283.4000;0.4615;0.8791;
1283.7000;0.4599;0.8766;
1284.0000;0.4615;0.8766;
1284.3000;0.4599;0.8766;
1284.6000;0.4615;0.8841;
1284.9000;0.4599;0.8866;
1285.2000;0.4624;0.8866;
1285.5000;0.4599;0.8766;
1285.8000;0.4599;0.8715;
1286.1000;0.4599;0.8690;
1286.4000;0.4599;0.8816;
1286.7000;0.4599;0.8791;
1287.0000;0.4607;0.8816;
1287.3000;0.4591;0.8766;
1287.6000;0.4591;0.8917;
1287.9000;0.4599;0.8866;
1288.2000;0.4599;0.8917;
1288.5000;0.4607;0.8917;
1288.8000;0.4615;0.8866;
1289.1000;0.4615;0.8866;
1289.4000;0.4599;0.8841;
1289.7000;0.4599;0.8816;
1290.0000;0.4689;0.9093;
1290.3000;0.4607;0.8866;
1290.6000;0.4615;0.8967;
1290.9000;0.4624;0.9068;
1291.2000;0.4615;0.8917;
1291.5000;0.4607;0.8892;
1291.8000;0.4599;0.8942;
1292.1000;0.4583;0.8892;
1292.4000;0.4583;0.8816;
1292.7000;0.4607;0.8892;
1293.0000;0.4607;0.8967;
1293.3000;0.4607;0.8942;
1293.6000;0.4615;0.8892;
1293.9000;0.4624;0.8841;
1294.2000;0.4510;0.8438;
1294.5000;0.4632;0.8791;
1294.8000;0.4534;0.8589;
1295.1000;0.4640;0.8967;
1295.4000;0.4599;0.8917;
1295.7000;0.4599;0.8866;
1296.0000;0.4656;0.9093;
1296.3000;0.4615;0.8917;
1296.6000;0.4599;0.8892;
1296.9000;0.4615;0.8816;
1297.2000;0.4640;0.8967;
1297.5000;0.4591;0.8841;
1297.8000;0.4656;0.9043;
1298.1000;0.4567;0.8791;
1298.4000;0.4575;0.8740;
1298.7000;0.4599;0.8791;
1299.0000;0.4583;0.8740;
1299.3000;0.4591;0.8740;
1299.6000;0.4607;0.8791;
1299.9000;0.4599;0.8766;
1300.2000;0.4583;0.8715;
1300.5000;0.4575;0.8690;
1300.8000;0.4591;0.8766;
1301.1000;0.4599;0.8816;
1301.4000;0.4607;0.8866;
1301.7000;0.4607;0.8816;
1302.0000;0.4591;0.8791;
1302.3000;0.4607;0.8841;
1302.6000;0.4599;0.8816;
1302.9000;0.4599;0.8791;
1303.2000;0.4607;0.8715;
1303.5000;0.4599;0.8690;
1303.8000;0.4615;0.8715;
1304.1000;0.4615;0.8715;
1304.4000;0.4599;0.8614;
1304.7000;0.4599;0.8690;
1305.0000;0.4607;0.8766;
1305.3000;0.4607;0.8816;
1305.6000;0.4624;0.8866;
1305.9000;0.4607;0.8841;
1306.2000;0.4607;0.8715;
1306.5000;0.4599;0.8614;
1306.8000;0.4615;0.8640;
1307.1000;0.4615;0.8589;
1307.4000;0.4599;0.8564;
1307.7000;0.4656;0.8791;
1308.0000;0.4599;0.8665;
1308.3000;0.4607;0.8589;
1308.6000;0.4599;0.8489;
1308.9000;0.4599;0.8539;
1309.2000;0.4599;0.8463;
1309.5000;0.4607;0.8463;
1309.8000;0.4599;0.8489;
1310.1000;0.4583;0.8564;
1310.4000;0.4599;0.8589;
1310.7000;0.4599;0.8564;
1311.0000;0.4591;0.8489;
1311.3000;0.4615;0.8564;
1311.6000;0.4607;0.8665;
1311.9000;0.4599;0.8715;
1312.2000;0.4607;0.8740;
1312.5000;0.4591;0.8690;
1312.8000;0.4664;0.8816;
1313.1000;0.4607;0.8766;
1313.4000;0.4599;0.8715;
1313.7000;0.4607;0.8740;
1314.0000;0.4607;0.8816;
1314.3000;0.4607;0.8766;
1314.6000;0.4607;0.8715;
1314.9000;0.4591;0.8640;
1315.2000;0.4615;0.8715;
1315.5000;0.4615;0.8791;
1315.8000;0.4591;0.8715;
1316.1000;0.4615;0.8665;
1316.4000;0.4607;0.8589;
1316.7000;0.4672;0.8740;
1317.0000;0.4599;0.8640;
1317.3000;0.4599;0.8665;
1317.6000;0.4615;0.8715;
1317.9000;0.4599;0.8766;
1318.2000;0.4607;0.8766;
1318.5000;0.4607;0.8791;
1318.8000;0.4607;0.8841;
1319.1000;0.4624;0.8791;
1319.4000;0.4607;0.8766;
1319.7000;0.4607;0.8740;
1320.0000;0.4624;0.8740;
1320.3000;0.4599;0.8715;
1320.6000;0.4624;0.8816;
1320.9000;0.4615;0.8791;
1321.2000;0.4615;0.8841;
1321.5000;0.4558;0.8766;
1321.8000;0.4567;0.8690;
1322.1000;0.4591;0.8816;
1322.4000;0.4583;0.8892;
1322.7000;0.4591;0.8841;
1323.0000;0.4510;0.8564;
1323.3000;0.4656;0.8942;
1323.6000;0.4591;0.8841;
1323.9000;0.4599;0.8740;
1324.2000;0.4640;0.8866;
1324.5000;0.4591;0.8740;
1324.8000;0.4599;0.8740;
1325.1000;0.4607;0.8766;
1325.4000;0.4599;0.8791;
1325.7000;0.4607;0.8816;
1326.0000;0.4607;0.8766;
1326.3000;0.4607;0.8690;
1326.6000;0.4591;0.8614;
1326.9000;0.4615;0.8640;
1327.2000;0.4632;0.8589;
1327.5000;0.4607;0.8514;
1327.8000;0.4607;0.8514;
1328.1000;0.4599;0.8539;
1328.4000;0.4615;0.8640;
1328.7000;0.4599;0.8589;
1329.0000;0.4599;0.8665;
1329.3000;0.4599;0.8690;
1329.6000;0.4591;0.8690;
1329.9000;0.4591;0.8766;
1330.2000;0.4599;0.8766;
1330.5000;0.4599;0.8690;
1330.8000;0.4591;0.8614;
1331.1000;0.4607;0.8665;
1331.4000;0.4607;0.8665;
1331.7000;0.4599;0.8665;
1332.0000;0.4599;0.8690;
1332.3000;0.4607;0.8614;
1332.6000;0.4599;0.8589;
1332.9000;0.4599;0.8514;
1333.2000;0.4583;0.8539;
1333.5000;0.4615;0.8564;
1333.8000;0.4591;0.8614;
1334.1000;0.4607;0.8766;
1334.4000;0.4599;0.8766;
1334.7000;0.4640;0.8892;
1335.0000;0.4583;0.8766;
1335.3000;0.4599;0.8917;
1335.6000;0.4624;0.8942;
1335.9000;0.4615;0.8917;
1336.2000;0.4607;0.8841;
1336.5000;0.4591;0.8766;
1336.8000;0.4599;0.8740;
1337.1000;0.4591;0.8740;
1337.4000;0.4591;0.8715;
1337.7000;0.4599;0.8589;
1338.0000;0.4607;0.8564;
1338.3000;0.4599;0.8564;
1338.6000;0.4624;0.8640;
1338.9000;0.4518;0.8463;
1339.2000;0.4599;0.8715;
1339.5000;0.4526;0.8438;
1339.8000;0.4607;0.8640;
1340.1000;0.4624;0.8665;
1340.4000;0.4591;0.8589;
1340.7000;0.4607;0.8614;
1341.0000;0.4632;0.8816;
1341.3000;0.4624;0.8841;
1341.6000;0.4607;0.8791;
1341.9000;0.4624;0.8791;
1342.2000;0.4615;0.8841;
1342.5000;0.4607;0.8816;
1342.8000;0.4615;0.8816;
1343.1000;0.4567;0.8665;
1343.4000;0.4607;0.8791;
1343.7000;0.4607;0.8791;
1344.0000;0.4607;0.8740;
1344.3000;0.4599;0.8690;
1344.6000;0.4607;0.8740;
1344.9000;0.4607;0.8866;
1345.2000;0.4583;0.8816;
1345.5000;0.4615;0.8967;
1345.8000;0.4599;0.9043;
1346.1000;0.4575;0.8917;
1346.4000;0.4599;0.8892;
1346.7000;0.4599;0.8791;
1347.0000;0.4599;0.8841;
1347.3000;0.4599;0.8816;
1347.6000;0.4583;0.8766;
1347.9000;0.4607;0.8841;
1348.2000;0.4591;0.8816;
1348.5000;0.4599;0.8816;
1348.8000;0.4591;0.8816;
1349.1000;0.4607;0.8766;
1349.4000;0.4591;0.8665;
1349.7000;0.4599;0.8640;
1350.0000;0.4615;0.8614;
1350.3000;0.4591;0.8463;
1350.6000;0.4591;0.8489;
1350.9000;0.4615;0.8589;
1351.2000;0.4583;0.8564;
1351.5000;0.4583;0.8564;
1351.8000;0.4599;0.8564;
1352.1000;0.4558;0.8539;
1352.4000;0.4624;0.8690;
1352.7000;0.4591;0.8614;
1353.0000;0.4599;0.8589;
1353.3000;0.4607;0.8614;
1353.6000;0.4624;0.8740;
1353.9000;0.4672;0.8917;
1354.2000;0.4599;0.8715;
1354.5000;0.4607;0.8690;
1354.8000;0.4607;0.8766;
1355.1000;0.4624;0.8690;
1355.4000;0.4591;0.8640;
1355.7000;0.4558;0.8564;
1356.0000;0.4632;0.8640;
1356.3000;0.4599;0.8514;
1356.6000;0.4615;0.8614;
1356.9000;0.4583;0.8514;
1357.2000;0.4599;0.8690;
1357.5000;0.4607;0.8766;
1357.8000;0.4624;0.8841;
1358.1000;0.4599;0.8766;
1358.4000;0.4607;0.8816;
1358.7000;0.4599;0.8841;
1359.0000;0.4664;0.8967;
1359.3000;0.4591;0.8766;
1359.6000;0.4550;0.8665;
1359.9000;0.4591;0.8816;
1360.2000;0.4615;0.8841;
1360.5000;0.4591;0.8816;
1360.8000;0.4599;0.8841;
1361.1000;0.4583;0.8715;
1361.4000;0.4615;0.8740;
1361.7000;0.4550;0.8589;
1362.0000;0.4640;0.8892;
1362.3000;0.4599;0.8766;
1362.6000;0.4591;0.8766;
1362.9000;0.4672;0.8967;
1363.2000;0.4607;0.8766;
1363.5000;0.4591;0.8715;
1363.8000;0.4607;0.8740;
1364.1000;0.4615;0.8715;
1364.4000;0.4615;0.8715;
1364.7000;0.4599;0.8640;
1365.0000;0.4607;0.8766;
1365.3000;0.4607;0.8766;
1365.6000;0.4607;0.8766;
1365.9000;0.4599;0.8715;
1366.2000;0.4607;0.8766;
1366.5000;0.4624;0.8866;
1366.8000;0.4624;0.8892;
1367.1000;0.4607;0.8917;
1367.4000;0.4591;0.8816;
1367.7000;0.4607;0.8917;
1368.0000;0.4607;0.8892;
1368.3000;0.4583;0.8791;
1368.6000;0.4591;0.8715;
1368.9000;0.4583;0.8791;
1369.2000;0.4607;0.8866;
1369.5000;0.4591;0.8917;
1369.8000;0.4599;0.9068;
1370.1000;0.4591;0.9043;
1370.4000;0.4599;0.8967;
1370.7000;0.4607;0.9068;
1371.0000;0.4599;0.8992;
1371.3000;0.4624;0.9043;
1371.6000;0.4607;0.9093;
1371.9000;0.4624;0.9118;
1372.2000;0.4624;0.9093;
1372.5000;0.4697;0.9244;
1372.8000;0.4615;0.9043;
1373.1000;0.4599;0.8942;
1373.4000;0.4607;0.8866;
1373.7000;0.4607;0.8917;
1374.0000;0.4607;0.8866;
1374.3000;0.4607;0.8892;
1374.6000;0.4599;0.8841;
1374.9000;0.4599;0.8816;
1375.2000;0.4599;0.8866;
1375.5000;0.4607;0.8791;
1375.8000;0.4615;0.8841;
1376.1000;0.4607;0.8841;
1376.4000;0.4591;0.8791;
1376.7000;0.4615;0.8841;
1377.0000;0.4518;0.8589;
1377.3000;0.4640;0.8917;
1377.6000;0.4599;0.8816;
1377.9000;0.4583;0.8791;
1378.2000;0.4599;0.8766;
1378.5000;0.4583;0.8766;
1378.8000;0.4583;0.8841;
1379.1000;0.4599;0.8866;
1379.4000;0.4599;0.8942;
1379.7000;0.4550;0.8766;
1380.0000;0.4575;0.8841;
1380.3000;0.4591;0.8892;
1380.6000;0.4567;0.8892;
1380.9000;0.4615;0.9043;
1381.2000;0.4599;0.9017;
1381.5000;0.4624;0.9068;
1381.8000;0.4575;0.8866;
1382.1000;0.4599;0.8967;
1382.4000;0.4599;0.8942;
1382.7000;0.4591;0.8917;
1383.0000;0.4583;0.8892;
1383.3000;0.4575;0.8892;
1383.6000;0.4567;0.8841;
1383.9000;0.4575;0.8816;
1384.2000;0.4583;0.8816;
1384.5000;0.4599;0.8866;
1384.8000;0.4607;0.8866;
1385.1000;0.4591;0.8841;
1385.4000;0.4591;0.8841;
1385.7000;0.4607;0.8917;
1386.0000;0.4583;0.8866;
1386.3000;0.4607;0.8841;
1386.6000;0.4550;0.8690;
1386.9000;0.4607;0.8866;
1387.2000;0.4599;0.8841;
1387.5000;0.4583;0.8766;
1387.8000;0.4591;0.8740;
1388.1000;0.4607;0.8715;
1388.4000;0.4607;0.8715;
1388.7000;0.4599;0.8766;
1389.0000;0.4591;0.8766;
1389.3000;0.4607;0.8816;
1389.6000;0.4591;0.8715;
1389.9000;0.4591;0.8766;
1390.2000;0.4575;0.8766;
1390.5000;0.4567;0.8740;
1390.8000;0.4599;0.8841;
1391.1000;0.4599;0.8816;
1391.4000;0.4599;0.8766;
1391.7000;0.4607;0.8766;
1392.0000;0.4599;0.8715;
1392.3000;0.4615;0.8690;
1392.6000;0.4607;0.8715;
1392.9000;0.4599;0.8690;
1393.2000;0.4624;0.8766;
1393.5000;0.4599;0.8690;
1393.8000;0.4607;0.8614;
1394.1000;0.4599;0.8640;
1394.4000;0.4607;0.8690;
1394.7000;0.4615;0.8766;
1395.0000;0.4534;0.8589;
1395.3000;0.4591;0.8766;
1395.6000;0.4624;0.8791;
1395.9000;0.4607;0.8841;
1396.2000;0.4648;0.8942;
1396.5000;0.4599;0.8791;
1396.8000;0.4607;0.8816;
1397.1000;0.4624;0.8892;
1397.4000;0.4599;0.8892;
1397.7000;0.4607;0.8866;
1398.0000;0.4624;0.8866;
1398.3000;0.4607;0.8740;
1398.6000;0.4615;0.8816;
1398.9000;0.4615;0.8841;
1399.2000;0.4599;0.8791;
1399.5000;0.4607;0.8942;
1399.8000;0.4607;0.8866;
