time/ms;Fluo/V;P700 deltaI/I x10³;
-199.8000;0.6593;0.9118;
-199.5000;0.6593;0.9169;
-199.2000;0.6610;0.9269;
-198.9000;0.6585;0.9345;
-198.6000;0.6602;0.9345;
-198.3000;0.6593;0.9446;
-198.0000;0.6569;0.9421;
-197.7000;0.6536;0.9295;
-197.4000;0.6610;0.9471;
-197.1000;0.6593;0.9521;
-196.8000;0.6569;0.9421;
-196.5000;0.6561;0.9395;
-196.2000;0.6602;0.9496;
-195.9000;0.6561;0.9370;
-195.6000;0.6593;0.9521;
-195.3000;0.6602;0.9496;
-195.0000;0.6585;0.9496;
-194.7000;0.6569;0.9370;
-194.4000;0.6610;0.9496;
-194.1000;0.6602;0.9421;
-193.8000;0.6626;0.9446;
-193.5000;0.6618;0.9421;
-193.2000;0.6593;0.9370;
-192.9000;0.6602;0.9395;
-192.6000;0.6610;0.9395;
-192.3000;0.6593;0.9421;
-192.0000;0.6610;0.9446;
-191.7000;0.6602;0.9395;
-191.4000;0.6569;0.9269;
-191.1000;0.6602;0.9395;
-190.8000;0.6610;0.9421;
-190.5000;0.6659;0.9546;
-190.2000;0.6593;0.9370;
-189.9000;0.6577;0.9345;
-189.6000;0.6585;0.9345;
-189.3000;0.6626;0.9370;
-189.0000;0.6593;0.9345;
-188.7000;0.6593;0.9345;
-188.4000;0.6585;0.9295;
-188.1000;0.6593;0.9320;
-187.8000;0.6610;0.9395;
-187.5000;0.6610;0.9370;
-187.2000;0.6610;0.9446;
-186.9000;0.6561;0.9370;
-186.6000;0.6593;0.9446;
-186.3000;0.6593;0.9395;
-186.0000;0.6545;0.9194;
-185.7000;0.6602;0.9370;
-185.4000;0.6585;0.9395;
-185.1000;0.6577;0.9370;
-184.8000;0.6593;0.9446;
-184.5000;0.6602;0.9395;
-184.2000;0.6585;0.9295;
-183.9000;0.6602;0.9345;
-183.6000;0.6585;0.9370;
-183.3000;0.6585;0.9421;
-183.0000;0.6585;0.9320;
-182.7000;0.6602;0.9295;
-182.4000;0.6585;0.9320;
-182.1000;0.6618;0.9370;
-181.8000;0.6545;0.9219;
-181.5000;0.6610;0.9295;
-181.2000;0.6618;0.9143;
-180.9000;0.6618;0.9143;
-180.6000;0.6610;0.9169;
-180.3000;0.6610;0.9269;
-180.0000;0.6593;0.9295;
-179.7000;0.6610;0.9295;
-179.4000;0.6593;0.9345;
-179.1000;0.6585;0.9320;
-178.8000;0.6593;0.9446;
-178.5000;0.6602;0.9446;
-178.2000;0.6585;0.9421;
-177.9000;0.6602;0.9446;
-177.6000;0.6569;0.9421;
-177.3000;0.6602;0.9471;
-177.0000;0.6593;0.9421;
-176.7000;0.6602;0.9421;
-176.4000;0.6569;0.9521;
-176.1000;0.6593;0.9546;
-175.8000;0.6593;0.9521;
-175.5000;0.6602;0.9521;
-175.2000;0.6602;0.9471;
-174.9000;0.6593;0.9471;
-174.6000;0.6593;0.9446;
-174.3000;0.6553;0.9244;
-174.0000;0.6593;0.9295;
-173.7000;0.6593;0.9244;
-173.4000;0.6585;0.9244;
-173.1000;0.6602;0.9320;
-172.8000;0.6569;0.9269;
-172.5000;0.6585;0.9295;
-172.2000;0.6602;0.9370;
-171.9000;0.6602;0.9345;
-171.6000;0.6610;0.9269;
-171.3000;0.6585;0.9219;
-171.0000;0.6593;0.9219;
-170.7000;0.6585;0.9194;
-170.4000;0.6659;0.9320;
-170.1000;0.6602;0.9169;
-169.8000;0.6610;0.9169;
-169.5000;0.6618;0.9269;
-169.2000;0.6642;0.9370;
-168.9000;0.6585;0.9244;
-168.6000;0.6602;0.9244;
-168.3000;0.6545;0.8992;
-168.0000;0.6593;0.9118;
-167.7000;0.6585;0.9143;
-167.4000;0.6667;0.9320;
-167.1000;0.6585;0.9169;
-166.8000;0.6602;0.9269;
-166.5000;0.6553;0.9143;
-166.2000;0.6545;0.9093;
-165.9000;0.6602;0.9244;
-165.6000;0.6602;0.9320;
-165.3000;0.6626;0.9345;
-165.0000;0.6585;0.9269;
-164.7000;0.6602;0.9320;
-164.4000;0.6593;0.9345;
-164.1000;0.6626;0.9546;
-163.8000;0.6593;0.9471;
-163.5000;0.6610;0.9421;
-163.2000;0.6618;0.9471;
-162.9000;0.6610;0.9446;
-162.6000;0.6610;0.9471;
-162.3000;0.6593;0.9395;
-162.0000;0.6593;0.9395;
-161.7000;0.6585;0.9421;
-161.4000;0.6577;0.9269;
-161.1000;0.6585;0.9295;
-160.8000;0.6610;0.9320;
-160.5000;0.6602;0.9269;
-160.2000;0.6593;0.9194;
-159.9000;0.6593;0.9244;
-159.6000;0.6602;0.9320;
-159.3000;0.6585;0.9219;
-159.0000;0.6602;0.9269;
-158.7000;0.6577;0.9244;
-158.4000;0.6553;0.9244;
-158.1000;0.6602;0.9370;
-157.8000;0.6610;0.9370;
-157.5000;0.6699;0.9597;
-157.2000;0.6618;0.9395;
-156.9000;0.6618;0.9471;
-156.6000;0.6626;0.9521;
-156.3000;0.6618;0.9395;
-156.0000;0.6610;0.9320;
-155.7000;0.6618;0.9320;
-155.4000;0.6659;0.9395;
-155.1000;0.6610;0.9345;
-154.8000;0.6602;0.9395;
-154.5000;0.6602;0.9345;
-154.2000;0.6618;0.9194;
-153.9000;0.6593;0.9169;
-153.6000;0.6634;0.9269;
-153.3000;0.6528;0.9017;
-153.0000;0.6610;0.9169;
-152.7000;0.6577;0.9017;
-152.4000;0.6610;0.9244;
-152.1000;0.6593;0.9320;
-151.8000;0.6569;0.9295;
-151.5000;0.6618;0.9421;
-151.2000;0.6602;0.9395;
-150.9000;0.6618;0.9471;
-150.6000;0.6610;0.9421;
-150.3000;0.6699;0.9773;
-150.0000;0.6618;0.9446;
-149.7000;0.6593;0.9370;
-149.4000;0.6585;0.9471;
-149.1000;0.6593;0.9421;
-148.8000;0.6585;0.9320;
-148.5000;0.6602;0.9320;
-148.2000;0.6626;0.9370;
-147.9000;0.6602;0.9194;
-147.6000;0.6593;0.9169;
-147.3000;0.6577;0.9118;
-147.0000;0.6593;0.9219;
-146.7000;0.6626;0.9219;
-146.4000;0.6618;0.9169;
-146.1000;0.6593;0.9269;
-145.8000;0.6593;0.9320;
-145.5000;0.6602;0.9471;
-145.2000;0.6618;0.9572;
-144.9000;0.6593;0.9546;
-144.6000;0.6626;0.9672;
-144.3000;0.6504;0.9295;
-144.0000;0.6593;0.9521;
-143.7000;0.6593;0.9471;
-143.4000;0.6577;0.9446;
-143.1000;0.6593;0.9546;
-142.8000;0.6610;0.9622;
-142.5000;0.6585;0.9572;
-142.2000;0.6634;0.9597;
-141.9000;0.6593;0.9471;
-141.6000;0.6602;0.9496;
-141.3000;0.6618;0.9446;
-141.0000;0.6602;0.9370;
-140.7000;0.6593;0.9320;
-140.4000;0.6602;0.9320;
-140.1000;0.6585;0.9143;
-139.8000;0.6593;0.9269;
-139.5000;0.6593;0.9269;
-139.2000;0.6585;0.9244;
-138.9000;0.6610;0.9295;
-138.6000;0.6618;0.9345;
-138.3000;0.6593;0.9345;
-138.0000;0.6593;0.9295;
-137.7000;0.6618;0.9320;
-137.4000;0.6602;0.9244;
-137.1000;0.6593;0.9370;
-136.8000;0.6593;0.9370;
-136.5000;0.6602;0.9421;
-136.2000;0.6593;0.9395;
-135.9000;0.6634;0.9370;
-135.6000;0.6634;0.9395;
-135.3000;0.6626;0.9320;
-135.0000;0.6650;0.9446;
-134.7000;0.6602;0.9295;
-134.4000;0.6618;0.9295;
-134.1000;0.6593;0.9320;
-133.8000;0.6602;0.9370;
-133.5000;0.6593;0.9345;
-133.2000;0.6585;0.9269;
-132.9000;0.6593;0.9320;
-132.6000;0.6626;0.9370;
-132.3000;0.6610;0.9421;
-132.0000;0.6618;0.9421;
-131.7000;0.6659;0.9521;
-131.4000;0.6610;0.9395;
-131.1000;0.6610;0.9345;
-130.8000;0.6610;0.9370;
-130.5000;0.6593;0.9446;
-130.2000;0.6602;0.9446;
-129.9000;0.6585;0.9496;
-129.6000;0.6593;0.9496;
-129.3000;0.6618;0.9521;
-129.0000;0.6593;0.9471;
-128.7000;0.6577;0.9370;
-128.4000;0.6602;0.9395;
-128.1000;0.6593;0.9345;
-127.8000;0.6585;0.9370;
-127.5000;0.6504;0.9219;
-127.2000;0.6602;0.9421;
-126.9000;0.6536;0.9269;
-126.6000;0.6593;0.9370;
-126.3000;0.6602;0.9345;
-126.0000;0.6610;0.9370;
-125.7000;0.6650;0.9471;
-125.4000;0.6593;0.9370;
-125.1000;0.6602;0.9446;
-124.8000;0.6610;0.9572;
-124.5000;0.6610;0.9597;
-124.2000;0.6602;0.9546;
-123.9000;0.6618;0.9521;
-123.6000;0.6602;0.9546;
-123.3000;0.6626;0.9622;
-123.0000;0.6602;0.9597;
-122.7000;0.6626;0.9572;
-122.4000;0.6610;0.9572;
-122.1000;0.6610;0.9597;
-121.8000;0.6642;0.9647;
-121.5000;0.6618;0.9597;
-121.2000;0.6610;0.9597;
-120.9000;0.6626;0.9597;
-120.6000;0.6626;0.9647;
-120.3000;0.6585;0.9572;
-120.0000;0.6610;0.9622;
-119.7000;0.6602;0.9622;
-119.4000;0.6618;0.9723;
-119.1000;0.6602;0.9748;
-118.8000;0.6626;0.9824;
-118.5000;0.6618;0.9849;
-118.2000;0.6626;0.9899;
-117.9000;0.6610;0.9798;
-117.6000;0.6610;0.9849;
-117.3000;0.6593;0.9899;
-117.0000;0.6593;0.9824;
-116.7000;0.6593;0.9748;
-116.4000;0.6626;0.9798;
-116.1000;0.6634;0.9773;
-115.8000;0.6610;0.9698;
-115.5000;0.6569;0.9521;
-115.2000;0.6618;0.9622;
-114.9000;0.6602;0.9698;
-114.6000;0.6602;0.9723;
-114.3000;0.6577;0.9572;
-114.0000;0.6602;0.9672;
-113.7000;0.6610;0.9597;
-113.4000;0.6634;0.9672;
-113.1000;0.6593;0.9546;
-112.8000;0.6593;0.9496;
-112.5000;0.6569;0.9471;
-112.2000;0.6569;0.9446;
-111.9000;0.6593;0.9546;
-111.6000;0.6602;0.9496;
-111.3000;0.6585;0.9421;
-111.0000;0.6610;0.9446;
-110.7000;0.6618;0.9496;
-110.4000;0.6675;0.9622;
-110.1000;0.6618;0.9496;
-109.8000;0.6593;0.9496;
-109.5000;0.6593;0.9471;
-109.2000;0.6585;0.9496;
-108.9000;0.6593;0.9496;
-108.6000;0.6610;0.9471;
-108.3000;0.6626;0.9597;
-108.0000;0.6610;0.9521;
-107.7000;0.6593;0.9395;
-107.4000;0.6593;0.9345;
-107.1000;0.6610;0.9421;
-106.8000;0.6602;0.9395;
-106.5000;0.6593;0.9395;
-106.2000;0.6610;0.9320;
-105.9000;0.6610;0.9295;
-105.6000;0.6618;0.9370;
-105.3000;0.6699;0.9597;
-105.0000;0.6618;0.9446;
-104.7000;0.6618;0.9521;
-104.4000;0.6610;0.9471;
-104.1000;0.6593;0.9471;
-103.8000;0.6602;0.9521;
-103.5000;0.6545;0.9471;
-103.2000;0.6593;0.9622;
-102.9000;0.6626;0.9597;
-102.6000;0.6593;0.9471;
-102.3000;0.6602;0.9471;
-102.0000;0.6602;0.9471;
-101.7000;0.6602;0.9421;
-101.4000;0.6585;0.9295;
-101.1000;0.6577;0.9345;
-100.8000;0.6561;0.9295;
-100.5000;0.6618;0.9496;
-100.2000;0.6602;0.9446;
-99.9000;0.6618;0.9521;
-99.6000;0.6602;0.9446;
-99.3000;0.6618;0.9496;
-99.0000;0.6610;0.9446;
-98.7000;0.6602;0.9345;
-98.4000;0.6610;0.9446;
-98.1000;0.6585;0.9370;
-97.8000;0.6585;0.9320;
-97.5000;0.6593;0.9345;
-97.2000;0.6626;0.9421;
-96.9000;0.6602;0.9295;
-96.6000;0.6585;0.9219;
-96.3000;0.6520;0.9068;
-96.0000;0.6593;0.9219;
-95.7000;0.6610;0.9345;
-95.4000;0.6618;0.9395;
-95.1000;0.6618;0.9395;
-94.8000;0.6642;0.9421;
-94.5000;0.6626;0.9546;
-94.2000;0.6618;0.9597;
-93.9000;0.6610;0.9546;
-93.6000;0.6593;0.9546;
-93.3000;0.6585;0.9597;
-93.0000;0.6602;0.9572;
-92.7000;0.6610;0.9471;
-92.4000;0.6610;0.9496;
-92.1000;0.6577;0.9471;
-91.8000;0.6602;0.9446;
-91.5000;0.6602;0.9471;
-91.2000;0.6585;0.9496;
-90.9000;0.6585;0.9496;
-90.6000;0.6610;0.9496;
-90.3000;0.6585;0.9421;
-90.0000;0.6602;0.9471;
-89.7000;0.6610;0.9446;
-89.4000;0.6553;0.9446;
-89.1000;0.6602;0.9546;
-88.8000;0.6602;0.9521;
-88.5000;0.6602;0.9370;
-88.2000;0.6553;0.9244;
-87.9000;0.6610;0.9370;
-87.6000;0.6602;0.9395;
-87.3000;0.6585;0.9395;
-87.0000;0.6585;0.9421;
-86.7000;0.6585;0.9320;
-86.4000;0.6593;0.9244;
-86.1000;0.6593;0.9370;
-85.8000;0.6577;0.9421;
-85.5000;0.6602;0.9370;
-85.2000;0.6626;0.9320;
-84.9000;0.6585;0.9320;
-84.6000;0.6610;0.9345;
-84.3000;0.6593;0.9345;
-84.0000;0.6593;0.9395;
-83.7000;0.6585;0.9295;
-83.4000;0.6618;0.9370;
-83.1000;0.6593;0.9219;
-82.8000;0.6602;0.9194;
-82.5000;0.6602;0.9295;
-82.2000;0.6585;0.9269;
-81.9000;0.6585;0.9295;
-81.6000;0.6593;0.9320;
-81.3000;0.6593;0.9345;
-81.0000;0.6602;0.9370;
-80.7000;0.6602;0.9370;
-80.4000;0.6610;0.9395;
-80.1000;0.6618;0.9395;
-79.8000;0.6602;0.9395;
-79.5000;0.6593;0.9496;
-79.2000;0.6602;0.9546;
-78.9000;0.6626;0.9546;
-78.6000;0.6593;0.9521;
-78.3000;0.6585;0.9572;
-78.0000;0.6593;0.9647;
-77.7000;0.6602;0.9748;
-77.4000;0.6634;0.9748;
-77.1000;0.6602;0.9572;
-76.8000;0.6610;0.9496;
-76.5000;0.6585;0.9471;
-76.2000;0.6569;0.9370;
-75.9000;0.6642;0.9546;
-75.6000;0.6585;0.9370;
-75.3000;0.6593;0.9446;
-75.0000;0.6610;0.9546;
-74.7000;0.6585;0.9496;
-74.4000;0.6585;0.9471;
-74.1000;0.6593;0.9496;
-73.8000;0.6577;0.9421;
-73.5000;0.6618;0.9446;
-73.2000;0.6569;0.9446;
-72.9000;0.6585;0.9446;
-72.6000;0.6593;0.9471;
-72.3000;0.6618;0.9496;
-72.0000;0.6593;0.9446;
-71.7000;0.6593;0.9446;
-71.4000;0.6642;0.9647;
-71.1000;0.6593;0.9572;
-70.8000;0.6577;0.9597;
-70.5000;0.6602;0.9572;
-70.2000;0.6610;0.9546;
-69.9000;0.6626;0.9597;
-69.6000;0.6602;0.9572;
-69.3000;0.6602;0.9572;
-69.0000;0.6602;0.9572;
-68.7000;0.6642;0.9622;
-68.4000;0.6593;0.9546;
-68.1000;0.6602;0.9572;
-67.8000;0.6602;0.9546;
-67.5000;0.6585;0.9546;
-67.2000;0.6626;0.9597;
-66.9000;0.6610;0.9521;
-66.6000;0.6602;0.9496;
-66.3000;0.6602;0.9421;
-66.0000;0.6602;0.9395;
-65.7000;0.6618;0.9395;
-65.4000;0.6602;0.9446;
-65.1000;0.6602;0.9471;
-64.8000;0.6626;0.9496;
-64.5000;0.6602;0.9471;
-64.2000;0.6626;0.9421;
-63.9000;0.6602;0.9320;
-63.6000;0.6618;0.9295;
-63.3000;0.6602;0.9320;
-63.0000;0.6602;0.9320;
-62.7000;0.6626;0.9421;
-62.4000;0.6585;0.9345;
-62.1000;0.6585;0.9345;
-61.8000;0.6667;0.9572;
-61.5000;0.6577;0.9320;
-61.2000;0.6610;0.9521;
-60.9000;0.6593;0.9546;
-60.6000;0.6577;0.9572;
-60.3000;0.6569;0.9597;
-60.0000;0.6602;0.9622;
-59.7000;0.6610;0.9672;
-59.4000;0.6561;0.9471;
-59.1000;0.6610;0.9572;
-58.8000;0.6602;0.9521;
-58.5000;0.6634;0.9572;
-58.2000;0.6618;0.9597;
-57.9000;0.6593;0.9572;
-57.6000;0.6593;0.9546;
-57.3000;0.6610;0.9471;
-57.0000;0.6593;0.9471;
-56.7000;0.6602;0.9395;
-56.4000;0.6585;0.9421;
-56.1000;0.6602;0.9446;
-55.8000;0.6593;0.9446;
-55.5000;0.6602;0.9471;
-55.2000;0.6593;0.9471;
-54.9000;0.6610;0.9546;
-54.6000;0.6618;0.9572;
-54.3000;0.6602;0.9521;
-54.0000;0.6610;0.9546;
-53.7000;0.6626;0.9622;
-53.4000;0.6602;0.9572;
-53.1000;0.6618;0.9622;
-52.8000;0.6577;0.9471;
-52.5000;0.6610;0.9446;
-52.2000;0.6593;0.9395;
-51.9000;0.6626;0.9421;
-51.6000;0.6585;0.9194;
-51.3000;0.6626;0.9269;
-51.0000;0.6610;0.9320;
-50.7000;0.6618;0.9345;
-50.4000;0.6585;0.9370;
-50.1000;0.6593;0.9471;
-49.8000;0.6618;0.9521;
-49.5000;0.6602;0.9546;
-49.2000;0.6602;0.9521;
-48.9000;0.6610;0.9546;
-48.6000;0.6618;0.9546;
-48.3000;0.6610;0.9572;
-48.0000;0.6610;0.9572;
-47.7000;0.6618;0.9597;
-47.4000;0.6618;0.9647;
-47.1000;0.6593;0.9672;
-46.8000;0.6585;0.9572;
-46.5000;0.6602;0.9471;
-46.2000;0.6577;0.9320;
-45.9000;0.6602;0.9446;
-45.6000;0.6610;0.9521;
-45.3000;0.6593;0.9446;
-45.0000;0.6553;0.9295;
-44.7000;0.6610;0.9496;
-44.4000;0.6602;0.9496;
-44.1000;0.6602;0.9496;
-43.8000;0.6610;0.9421;
-43.5000;0.6618;0.9496;
-43.2000;0.6610;0.9546;
-42.9000;0.6602;0.9496;
-42.6000;0.6610;0.9496;
-42.3000;0.6618;0.9521;
-42.0000;0.6610;0.9572;
-41.7000;0.6618;0.9647;
-41.4000;0.6626;0.9647;
-41.1000;0.6602;0.9546;
-40.8000;0.6618;0.9597;
-40.5000;0.6610;0.9546;
-40.2000;0.6618;0.9622;
-39.9000;0.6593;0.9647;
-39.6000;0.6602;0.9748;
-39.3000;0.6618;0.9773;
-39.0000;0.6602;0.9723;
-38.7000;0.6610;0.9698;
-38.4000;0.6545;0.9521;
-38.1000;0.6593;0.9647;
-37.8000;0.6602;0.9622;
-37.5000;0.6610;0.9647;
-37.2000;0.6593;0.9546;
-36.9000;0.6610;0.9597;
-36.6000;0.6610;0.9572;
-36.3000;0.6585;0.9496;
-36.0000;0.6577;0.9395;
-35.7000;0.6602;0.9471;
-35.4000;0.6593;0.9496;
-35.1000;0.6602;0.9471;
-34.8000;0.6659;0.9672;
-34.5000;0.6593;0.9471;
-34.2000;0.6593;0.9521;
-33.9000;0.6634;0.9647;
-33.6000;0.6626;0.9622;
-33.3000;0.6626;0.9698;
-33.0000;0.6585;0.9647;
-32.7000;0.6610;0.9698;
-32.4000;0.6593;0.9521;
-32.1000;0.6610;0.9471;
-31.8000;0.6602;0.9496;
-31.5000;0.6618;0.9521;
-31.2000;0.6610;0.9496;
-30.9000;0.6610;0.9521;
-30.6000;0.6602;0.9546;
-30.3000;0.6528;0.9370;
-30.0000;0.6618;0.9597;
-29.7000;0.6602;0.9672;
-29.4000;0.6610;0.9622;
-29.1000;0.6626;0.9647;
-28.8000;0.6626;0.9521;
-28.5000;0.6553;0.9370;
-28.2000;0.6593;0.9446;
-27.9000;0.6610;0.9395;
-27.6000;0.6602;0.9370;
-27.3000;0.6602;0.9345;
-27.0000;0.6602;0.9269;
-26.7000;0.6618;0.9295;
-26.4000;0.6610;0.9320;
-26.1000;0.6593;0.9295;
-25.8000;0.6602;0.9295;
-25.5000;0.6593;0.9244;
-25.2000;0.6610;0.9295;
-24.9000;0.6602;0.9244;
-24.6000;0.6610;0.9370;
-24.3000;0.6610;0.9446;
-24.0000;0.6626;0.9421;
-23.7000;0.6602;0.9395;
-23.4000;0.6610;0.9471;
-23.1000;0.6593;0.9446;
-22.8000;0.6618;0.9496;
-22.5000;0.6610;0.9496;
-22.2000;0.6593;0.9446;
-21.9000;0.6642;0.9421;
-21.6000;0.6626;0.9320;
-21.3000;0.6650;0.9345;
-21.0000;0.6602;0.9295;
-20.7000;0.6569;0.9194;
-20.4000;0.6602;0.9395;
-20.1000;0.6618;0.9421;
-19.8000;0.6610;0.9421;
-19.5000;0.6602;0.9395;
-19.2000;0.6593;0.9395;
-18.9000;0.6659;0.9446;
-18.6000;0.6602;0.9421;
-18.3000;0.6602;0.9471;
-18.0000;0.6569;0.9370;
-17.7000;0.6610;0.9395;
-17.4000;0.6618;0.9471;
-17.1000;0.6650;0.9496;
-16.8000;0.6626;0.9421;
-16.5000;0.6610;0.9320;
-16.2000;0.6602;0.9269;
-15.9000;0.6585;0.9269;
-15.6000;0.6577;0.9345;
-15.3000;0.6626;0.9446;
-15.0000;0.6610;0.9320;
-14.7000;0.6585;0.9269;
-14.4000;0.6593;0.9421;
-14.1000;0.6610;0.9496;
-13.8000;0.6593;0.9471;
-13.5000;0.6593;0.9471;
-13.2000;0.6602;0.9421;
-12.9000;0.6610;0.9471;
-12.6000;0.6602;0.9446;
-12.3000;0.6569;0.9395;
-12.0000;0.6618;0.9546;
-11.7000;0.6593;0.9496;
-11.4000;0.6602;0.9572;
-11.1000;0.6610;0.9521;
-10.8000;0.6593;0.9471;
-10.5000;0.6610;0.9471;
-10.2000;0.6610;0.9521;
-9.9000;0.6602;0.9421;
-9.6000;0.6602;0.9345;
-9.3000;0.6585;0.9370;
-9.0000;0.6610;0.9345;
-8.7000;0.6610;0.9446;
-8.4000;0.6618;0.9496;
-8.1000;0.6585;0.9345;
-7.8000;0.6618;0.9421;
-7.5000;0.6626;0.9446;
-7.2000;0.6602;0.9421;
-6.9000;0.6528;0.9194;
-6.6000;0.6618;0.9446;
-6.3000;0.6602;0.9421;
-6.0000;0.6593;0.9471;
-5.7000;0.6512;0.9194;
-5.4000;0.6585;0.9446;
-5.1000;0.6577;0.9395;
-4.8000;0.6610;0.9496;
-4.5000;0.6585;0.9421;
-4.2000;0.6593;0.9572;
-3.9000;0.6634;0.9572;
-3.6000;0.6626;0.9597;
-3.3000;0.6602;0.9521;
-3.0000;0.6553;0.9395;
-2.7000;0.6602;0.9572;
-2.4000;0.6610;0.9622;
-2.1000;0.6699;0.9849;
-1.8000;0.6602;0.9521;
-1.5000;0.6610;0.9471;
-1.2000;0.6610;0.9395;
-0.9000;0.6602;0.9370;
-0.6000;0.6585;0.9320;
-0.3000;0.6593;0.9370;
0.0000;0.6593;0.9370;
0.3000;0.6691;0.9446;
0.6000;0.6862;0.9748;
0.9000;0.6984;1.0101;
1.2000;0.7114;1.0478;
1.5000;0.7204;1.0831;
1.8000;0.7261;1.0957;
2.1000;0.7302;1.1133;
2.4000;0.7456;1.1562;
2.7000;0.7326;1.1209;
3.0000;0.7416;1.1461;
3.3000;0.7432;1.1612;
3.6000;0.7448;1.1662;
3.9000;0.7464;1.1763;
4.2000;0.7464;1.1839;
4.5000;0.7489;1.1813;
4.8000;0.7530;1.1939;
5.1000;0.7554;1.2040;
5.4000;0.7595;1.2191;
5.7000;0.7578;1.2191;
6.0000;0.7603;1.2216;
6.3000;0.7611;1.2141;
6.6000;0.7635;1.2116;
6.9000;0.7643;1.2015;
7.2000;0.7692;1.2166;
7.5000;0.7627;1.2015;
7.8000;0.7684;1.2090;
8.1000;0.7709;1.2065;
8.4000;0.7700;1.2015;
8.7000;0.7717;1.2065;
9.0000;0.7733;1.2040;
9.3000;0.7709;1.2040;
9.6000;0.7741;1.2040;
9.9000;0.7741;1.2065;
10.2000;0.7757;1.2015;
10.5000;0.7782;1.1965;
10.8000;0.7790;1.2015;
11.1000;0.7774;1.1914;
11.4000;0.7782;1.1889;
11.7000;0.7814;1.1914;
12.0000;0.7814;1.1914;
12.3000;0.7831;1.1914;
12.6000;0.7823;1.1813;
12.9000;0.7839;1.1864;
13.2000;0.7839;1.1788;
13.5000;0.7847;1.1839;
13.8000;0.7855;1.1864;
14.1000;0.7871;1.1965;
14.4000;0.7880;1.1939;
14.7000;0.7888;1.1965;
15.0000;0.7896;1.1965;
15.3000;0.7896;1.1990;
15.6000;0.7896;1.2015;
15.9000;0.7888;1.2015;
16.2000;0.7904;1.2116;
16.5000;0.7912;1.2166;
16.8000;0.7888;1.2090;
17.1000;0.7937;1.2166;
17.4000;0.7904;1.2141;
17.7000;0.7920;1.2216;
18.0000;0.7945;1.2216;
18.3000;0.7953;1.2292;
18.6000;0.7928;1.2116;
18.9000;0.7961;1.2191;
19.2000;0.7945;1.2191;
19.5000;0.7928;1.2090;
19.8000;0.7896;1.1965;
20.1000;0.7969;1.2141;
20.4000;0.7977;1.2166;
20.7000;0.7977;1.2191;
21.0000;0.7969;1.2191;
21.3000;0.7977;1.2090;
21.6000;0.7969;1.1990;
21.9000;0.7977;1.1990;
22.2000;0.7969;1.1990;
22.5000;0.8018;1.2090;
22.8000;0.8002;1.2065;
23.1000;0.8010;1.2065;
23.4000;0.7993;1.2015;
23.7000;0.7993;1.1939;
24.0000;0.7993;1.1939;
24.3000;0.7985;1.1864;
24.6000;0.8018;1.1889;
24.9000;0.8002;1.1839;
25.2000;0.8010;1.1889;
25.5000;0.8010;1.1864;
25.8000;0.8026;1.1990;
26.1000;0.8010;1.1965;
26.4000;0.8059;1.2166;
26.7000;0.8034;1.2090;
27.0000;0.8034;1.2116;
27.3000;0.8026;1.2090;
27.6000;0.8026;1.1990;
27.9000;0.8042;1.2065;
28.2000;0.8034;1.2090;
28.5000;0.8034;1.2166;
28.8000;0.8034;1.2116;
29.1000;0.8034;1.2090;
29.4000;0.8067;1.2166;
29.7000;0.8059;1.2166;
30.0000;0.8050;1.2166;
30.3000;0.8050;1.2216;
30.6000;0.8050;1.2216;
30.9000;0.8059;1.2216;
31.2000;0.8018;1.2015;
31.5000;0.8075;1.2090;
31.8000;0.8083;1.2166;
32.1000;0.8075;1.2191;
32.4000;0.8067;1.2166;
32.7000;0.8059;1.2191;
33.0000;0.8067;1.2141;
33.3000;0.8050;1.2090;
33.6000;0.8026;1.1990;
33.9000;0.8075;1.2015;
34.2000;0.8050;1.2090;
34.5000;0.8059;1.2166;
34.8000;0.8050;1.2090;
35.1000;0.8050;1.2040;
35.4000;0.8083;1.2116;
35.7000;0.8083;1.2191;
36.0000;0.8059;1.2141;
36.3000;0.8083;1.2191;
36.6000;0.8075;1.2216;
36.9000;0.8075;1.2191;
37.2000;0.8075;1.2191;
37.5000;0.8034;1.2040;
37.8000;0.8083;1.2166;
38.1000;0.8107;1.2242;
38.4000;0.8091;1.2216;
38.7000;0.8091;1.2141;
39.0000;0.8099;1.2090;
39.3000;0.8034;1.1965;
39.6000;0.8116;1.2065;
39.9000;0.8124;1.2116;
40.2000;0.8083;1.2040;
40.5000;0.8075;1.2090;
40.8000;0.8124;1.2267;
41.1000;0.8083;1.2216;
41.4000;0.8083;1.2242;
41.7000;0.8083;1.2191;
42.0000;0.8083;1.2116;
42.3000;0.8050;1.2090;
42.6000;0.8107;1.2141;
42.9000;0.8083;1.2090;
43.2000;0.8091;1.2090;
43.5000;0.8010;1.1864;
43.8000;0.8083;1.2116;
44.1000;0.8091;1.2116;
44.4000;0.8091;1.2141;
44.7000;0.8083;1.2090;
45.0000;0.8107;1.2141;
45.3000;0.8083;1.1965;
45.6000;0.8124;1.2116;
45.9000;0.8116;1.2065;
46.2000;0.8042;1.1889;
46.5000;0.8091;1.2040;
46.8000;0.8099;1.2015;
47.1000;0.8124;1.2116;
47.4000;0.8099;1.1990;
47.7000;0.8091;1.1990;
48.0000;0.8099;1.2015;
48.3000;0.8116;1.2015;
48.6000;0.8164;1.2116;
48.9000;0.8116;1.1990;
49.2000;0.8099;1.2090;
49.5000;0.8116;1.2090;
49.8000;0.8116;1.2116;
50.1000;0.8107;1.2141;
50.4000;0.8107;1.2090;
50.7000;0.8116;1.2040;
51.0000;0.8116;1.2040;
51.3000;0.8116;1.1965;
51.6000;0.8107;1.2090;
51.9000;0.8107;1.2090;
52.2000;0.8124;1.2141;
52.5000;0.8099;1.2166;
52.8000;0.8132;1.2141;
53.1000;0.8091;1.2065;
53.4000;0.8107;1.2040;
53.7000;0.8124;1.2116;
54.0000;0.8075;1.2116;
54.3000;0.8107;1.2242;
54.6000;0.8116;1.2292;
54.9000;0.8107;1.2216;
55.2000;0.8099;1.2141;
55.5000;0.8132;1.2216;
55.8000;0.8099;1.1990;
56.1000;0.8107;1.1889;
56.4000;0.8099;1.1914;
56.7000;0.8164;1.2141;
57.0000;0.8107;1.1990;
57.3000;0.8124;1.1990;
57.6000;0.8107;1.1990;
57.9000;0.8116;1.2015;
58.2000;0.8116;1.2040;
58.5000;0.8107;1.2116;
58.8000;0.8116;1.2141;
59.1000;0.8124;1.2116;
59.4000;0.8124;1.2090;
59.7000;0.8099;1.2015;
60.0000;0.8116;1.2065;
60.3000;0.8107;1.1990;
60.6000;0.8099;1.1939;
60.9000;0.8156;1.2141;
61.2000;0.8124;1.2166;
61.5000;0.8132;1.2242;
61.8000;0.8124;1.2141;
62.1000;0.8116;1.2015;
62.4000;0.8124;1.2090;
62.7000;0.8140;1.2065;
63.0000;0.8124;1.1990;
63.3000;0.8116;1.1990;
63.6000;0.8116;1.1965;
63.9000;0.8156;1.2040;
64.2000;0.8107;1.1990;
64.5000;0.8124;1.2065;
64.8000;0.8140;1.2191;
65.1000;0.8116;1.2090;
65.4000;0.8132;1.2116;
65.7000;0.8116;1.1990;
66.0000;0.8116;1.2040;
66.3000;0.8140;1.2090;
66.6000;0.8075;1.2090;
66.9000;0.8107;1.2166;
67.2000;0.8116;1.2191;
67.5000;0.8140;1.2242;
67.8000;0.8132;1.2242;
68.1000;0.8099;1.2191;
68.4000;0.8124;1.2216;
68.7000;0.8148;1.2267;
69.0000;0.8140;1.2317;
69.3000;0.8107;1.2191;
69.6000;0.8107;1.2292;
69.9000;0.8116;1.2216;
70.2000;0.8140;1.2216;
70.5000;0.8107;1.2090;
70.8000;0.8107;1.2065;
71.1000;0.8132;1.2141;
71.4000;0.8148;1.2242;
71.7000;0.8132;1.2141;
72.0000;0.8124;1.2141;
72.3000;0.8132;1.2141;
72.6000;0.8083;1.1889;
72.9000;0.8140;1.2141;
73.2000;0.8124;1.2141;
73.5000;0.8107;1.2090;
73.8000;0.8148;1.2292;
74.1000;0.8132;1.2242;
74.4000;0.8148;1.2242;
74.7000;0.8116;1.2116;
75.0000;0.8132;1.2090;
75.3000;0.8132;1.2090;
75.6000;0.8156;1.2116;
75.9000;0.8213;1.2292;
76.2000;0.8132;1.1965;
76.5000;0.8140;1.2116;
76.8000;0.8132;1.2141;
77.1000;0.8050;1.1939;
77.4000;0.8148;1.2191;
77.7000;0.8132;1.2116;
78.0000;0.8132;1.2116;
78.3000;0.8132;1.2166;
78.6000;0.8107;1.2065;
78.9000;0.8116;1.2015;
79.2000;0.8140;1.2065;
79.5000;0.8132;1.2141;
79.8000;0.8132;1.2015;
80.1000;0.8067;1.1914;
80.4000;0.8140;1.2141;
80.7000;0.8140;1.2191;
81.0000;0.8140;1.2116;
81.3000;0.8140;1.2015;
81.6000;0.8091;1.1965;
81.9000;0.8124;1.2040;
82.2000;0.8124;1.2040;
82.5000;0.8124;1.2090;
82.8000;0.8132;1.2090;
83.1000;0.8148;1.2116;
83.4000;0.8148;1.2090;
83.7000;0.8107;1.1965;
84.0000;0.8148;1.2015;
84.3000;0.8140;1.2116;
84.6000;0.8124;1.2141;
84.9000;0.8107;1.2116;
85.2000;0.8124;1.2116;
85.5000;0.8091;1.2065;
85.8000;0.8140;1.2166;
86.1000;0.8140;1.2191;
86.4000;0.8116;1.2242;
86.7000;0.8132;1.2216;
87.0000;0.8140;1.2242;
87.3000;0.8132;1.2191;
87.6000;0.8132;1.2166;
87.9000;0.8132;1.2116;
88.2000;0.8140;1.2216;
88.5000;0.8116;1.2065;
88.8000;0.8034;1.1788;
89.1000;0.8140;1.2141;
89.4000;0.8156;1.2090;
89.7000;0.8164;1.2116;
90.0000;0.8156;1.2090;
90.3000;0.8091;1.1914;
90.6000;0.8124;1.1965;
90.9000;0.8148;1.1939;
91.2000;0.8140;1.1914;
91.5000;0.8173;1.2141;
91.8000;0.8124;1.2116;
92.1000;0.8148;1.2141;
92.4000;0.8173;1.2191;
92.7000;0.8140;1.2015;
93.0000;0.8132;1.1990;
93.3000;0.8156;1.2116;
93.6000;0.8140;1.2090;
93.9000;0.8132;1.1990;
94.2000;0.8075;1.1864;
94.5000;0.8124;1.2090;
94.8000;0.8107;1.1965;
95.1000;0.8132;1.1965;
95.4000;0.8116;1.1914;
95.7000;0.8140;1.1965;
96.0000;0.8140;1.1965;
96.3000;0.8132;1.2015;
96.6000;0.8140;1.2015;
96.9000;0.8181;1.2065;
97.2000;0.8132;1.1939;
97.5000;0.8124;1.1864;
97.8000;0.8116;1.1864;
98.1000;0.8148;1.2090;
98.4000;0.8197;1.2267;
98.7000;0.8181;1.2292;
99.0000;0.8124;1.2065;
99.3000;0.8091;1.1939;
99.6000;0.8132;1.1939;
99.9000;0.8148;1.1914;
100.2000;0.8148;1.2015;
100.5000;0.8140;1.1965;
100.8000;0.8148;1.1990;
101.1000;0.8148;1.2090;
101.4000;0.8124;1.2090;
101.7000;0.8124;1.2090;
102.0000;0.8124;1.2040;
102.3000;0.8140;1.2166;
102.6000;0.8132;1.2191;
102.9000;0.8132;1.2191;
103.2000;0.8132;1.2090;
103.5000;0.8156;1.2191;
103.8000;0.8132;1.2166;
104.1000;0.8116;1.2292;
104.4000;0.8124;1.2368;
104.7000;0.8091;1.2166;
105.0000;0.8156;1.2242;
105.3000;0.8132;1.2141;
105.6000;0.8124;1.2116;
105.9000;0.8116;1.2090;
106.2000;0.8132;1.1990;
106.5000;0.8132;1.2090;
106.8000;0.8140;1.2166;
107.1000;0.8140;1.2015;
107.4000;0.8124;1.2040;
107.7000;0.8124;1.2040;
108.0000;0.8124;1.2040;
108.3000;0.8107;1.2015;
108.6000;0.8140;1.2191;
108.9000;0.8116;1.2116;
109.2000;0.8124;1.2141;
109.5000;0.8140;1.2166;
109.8000;0.8132;1.2166;
110.1000;0.8140;1.2141;
110.4000;0.8099;1.2015;
110.7000;0.8140;1.2090;
111.0000;0.8132;1.2015;
111.3000;0.8116;1.2015;
111.6000;0.8116;1.1990;
111.9000;0.8173;1.2065;
112.2000;0.8124;1.1939;
112.5000;0.8124;1.2040;
112.8000;0.8173;1.2065;
113.1000;0.8124;1.2090;
113.4000;0.8124;1.2090;
113.7000;0.8124;1.2166;
114.0000;0.8124;1.2191;
114.3000;0.8107;1.2065;
114.6000;0.8059;1.1939;
114.9000;0.8140;1.2191;
115.2000;0.8116;1.2116;
115.5000;0.8140;1.2191;
115.8000;0.8107;1.2166;
116.1000;0.8189;1.2368;
116.4000;0.8132;1.2191;
116.7000;0.8148;1.2242;
117.0000;0.8132;1.2166;
117.3000;0.8132;1.2116;
117.6000;0.8213;1.2342;
117.9000;0.8107;1.2141;
118.2000;0.8116;1.2116;
118.5000;0.8132;1.2090;
118.8000;0.8140;1.2040;
119.1000;0.8116;1.1990;
119.4000;0.8107;1.2040;
119.7000;0.8156;1.2267;
120.0000;0.8083;1.2040;
120.3000;0.8124;1.2191;
120.6000;0.8132;1.2191;
120.9000;0.8124;1.2216;
121.2000;0.8132;1.2166;
121.5000;0.8140;1.2141;
121.8000;0.8124;1.2065;
122.1000;0.8140;1.2166;
122.4000;0.8107;1.2090;
122.7000;0.8148;1.2141;
123.0000;0.8116;1.2015;
123.3000;0.8124;1.1990;
123.6000;0.8156;1.1939;
123.9000;0.8148;1.1889;
124.2000;0.8140;1.1813;
124.5000;0.8132;1.1813;
124.8000;0.8148;1.1889;
125.1000;0.8148;1.1965;
125.4000;0.8140;1.2040;
125.7000;0.8116;1.2090;
126.0000;0.8124;1.2141;
126.3000;0.8124;1.2116;
126.6000;0.8156;1.2216;
126.9000;0.8132;1.2166;
127.2000;0.8140;1.2216;
127.5000;0.8140;1.2242;
127.8000;0.8124;1.2267;
128.1000;0.8124;1.2242;
128.4000;0.8124;1.2141;
128.7000;0.8140;1.2191;
129.0000;0.8140;1.2242;
129.3000;0.8140;1.2242;
129.6000;0.8124;1.2116;
129.9000;0.8132;1.2141;
130.2000;0.8164;1.2216;
130.5000;0.8140;1.2191;
130.8000;0.8099;1.2090;
131.1000;0.8107;1.2141;
131.4000;0.8116;1.2090;
131.7000;0.8132;1.2116;
132.0000;0.8116;1.2216;
132.3000;0.8124;1.2242;
132.6000;0.8140;1.2267;
132.9000;0.8116;1.2216;
133.2000;0.8140;1.2242;
133.5000;0.8132;1.2267;
133.8000;0.8164;1.2317;
134.1000;0.8140;1.2191;
134.4000;0.8124;1.2166;
134.7000;0.8189;1.2368;
135.0000;0.8140;1.2292;
135.3000;0.8132;1.2166;
135.6000;0.8099;1.2015;
135.9000;0.8140;1.2065;
136.2000;0.8132;1.2040;
136.5000;0.8140;1.2065;
136.8000;0.8059;1.1990;
137.1000;0.8124;1.2166;
137.4000;0.8099;1.2141;
137.7000;0.8132;1.2216;
138.0000;0.8132;1.2216;
138.3000;0.8132;1.2191;
138.6000;0.8132;1.2267;
138.9000;0.8140;1.2242;
139.2000;0.8132;1.2090;
139.5000;0.8140;1.2040;
139.8000;0.8148;1.1990;
140.1000;0.8156;1.2065;
140.4000;0.8124;1.2040;
140.7000;0.8116;1.1990;
141.0000;0.8132;1.2116;
141.3000;0.8067;1.1939;
141.6000;0.8116;1.2040;
141.9000;0.8124;1.2040;
142.2000;0.8124;1.2015;
142.5000;0.8164;1.2166;
142.8000;0.8140;1.2040;
143.1000;0.8140;1.2040;
143.4000;0.8132;1.2040;
143.7000;0.8132;1.2090;
144.0000;0.8148;1.2116;
144.3000;0.8148;1.2116;
144.6000;0.8124;1.2090;
144.9000;0.8132;1.2090;
145.2000;0.8140;1.2166;
145.5000;0.8140;1.2191;
145.8000;0.8132;1.2166;
146.1000;0.8132;1.2216;
146.4000;0.8132;1.2216;
146.7000;0.8116;1.2216;
147.0000;0.8124;1.2166;
147.3000;0.8091;1.2040;
147.6000;0.8116;1.2166;
147.9000;0.8132;1.2090;
148.2000;0.8107;1.2040;
148.5000;0.8116;1.2015;
148.8000;0.8124;1.2090;
149.1000;0.8140;1.2166;
149.4000;0.8140;1.2267;
149.7000;0.8140;1.2342;
150.0000;0.8132;1.2443;
150.3000;0.8148;1.2443;
150.6000;0.8124;1.2368;
150.9000;0.8132;1.2292;
151.2000;0.8132;1.2166;
151.5000;0.8116;1.2166;
151.8000;0.8132;1.2166;
152.1000;0.8124;1.2090;
152.4000;0.8124;1.2015;
152.7000;0.8026;1.1788;
153.0000;0.8124;1.2015;
153.3000;0.8116;1.2040;
153.6000;0.8156;1.2166;
153.9000;0.8132;1.2065;
154.2000;0.8148;1.2141;
154.5000;0.8132;1.2116;
154.8000;0.8132;1.2040;
155.1000;0.8132;1.2116;
155.4000;0.8140;1.2242;
155.7000;0.8124;1.2216;
156.0000;0.8124;1.2141;
156.3000;0.8124;1.2216;
156.6000;0.8124;1.2267;
156.9000;0.8124;1.2292;
157.2000;0.8132;1.2292;
157.5000;0.8116;1.2317;
157.8000;0.8132;1.2267;
158.1000;0.8116;1.2292;
158.4000;0.8132;1.2393;
158.7000;0.8124;1.2393;
159.0000;0.8164;1.2494;
159.3000;0.8156;1.2368;
159.6000;0.8116;1.2317;
159.9000;0.8124;1.2292;
160.2000;0.8107;1.2267;
160.5000;0.8083;1.2216;
160.8000;0.8124;1.2292;
161.1000;0.8124;1.2292;
161.4000;0.8156;1.2317;
161.7000;0.8099;1.2216;
162.0000;0.8116;1.2216;
162.3000;0.8132;1.2116;
162.6000;0.8091;1.2015;
162.9000;0.8107;1.2065;
163.2000;0.8132;1.2166;
163.5000;0.8140;1.2166;
163.8000;0.8124;1.2040;
164.1000;0.8148;1.2141;
164.4000;0.8132;1.2166;
164.7000;0.8140;1.2242;
165.0000;0.8156;1.2216;
165.3000;0.8181;1.2267;
165.6000;0.8140;1.2166;
165.9000;0.8132;1.2216;
166.2000;0.8132;1.2292;
166.5000;0.8116;1.2292;
166.8000;0.8091;1.2267;
167.1000;0.8132;1.2292;
167.4000;0.8107;1.2292;
167.7000;0.8099;1.2242;
168.0000;0.8099;1.2216;
168.3000;0.8132;1.2216;
168.6000;0.8116;1.2242;
168.9000;0.8132;1.2116;
169.2000;0.8059;1.1864;
169.5000;0.8132;1.2015;
169.8000;0.8042;1.1738;
170.1000;0.8197;1.2191;
170.4000;0.8124;1.2040;
170.7000;0.8140;1.2141;
171.0000;0.8148;1.2116;
171.3000;0.8116;1.2116;
171.6000;0.8148;1.2216;
171.9000;0.8116;1.2216;
172.2000;0.8124;1.2216;
172.5000;0.8132;1.2015;
172.8000;0.8124;1.1965;
173.1000;0.8124;1.2040;
173.4000;0.8132;1.2065;
173.7000;0.8124;1.2090;
174.0000;0.8140;1.2065;
174.3000;0.8124;1.2040;
174.6000;0.8132;1.2116;
174.9000;0.8140;1.2116;
175.2000;0.8099;1.2116;
175.5000;0.8107;1.2116;
175.8000;0.8132;1.2166;
176.1000;0.8132;1.2116;
176.4000;0.8140;1.2141;
176.7000;0.8140;1.2116;
177.0000;0.8116;1.2090;
177.3000;0.8116;1.2141;
177.6000;0.8050;1.1864;
177.9000;0.8107;1.2015;
178.2000;0.8124;1.2065;
178.5000;0.8116;1.1965;
178.8000;0.8140;1.1939;
179.1000;0.8116;1.1939;
179.4000;0.8107;1.1839;
179.7000;0.8140;1.1864;
180.0000;0.8132;1.1889;
180.3000;0.8107;1.1889;
180.6000;0.8107;1.1914;
180.9000;0.8124;1.1839;
181.2000;0.8124;1.1889;
181.5000;0.8116;1.1965;
181.8000;0.8132;1.2090;
182.1000;0.8107;1.2065;
182.4000;0.8124;1.2090;
182.7000;0.8099;1.1965;
183.0000;0.8116;1.1889;
183.3000;0.8116;1.1990;
183.6000;0.8132;1.2015;
183.9000;0.8132;1.2090;
184.2000;0.8140;1.2116;
184.5000;0.8107;1.2065;
184.8000;0.8132;1.2216;
185.1000;0.8173;1.2292;
185.4000;0.8132;1.2015;
185.7000;0.8132;1.2015;
186.0000;0.8156;1.2065;
186.3000;0.8140;1.2065;
186.6000;0.8132;1.2065;
186.9000;0.8107;1.2040;
187.2000;0.8132;1.2090;
187.5000;0.8116;1.2116;
187.8000;0.8124;1.2090;
188.1000;0.8140;1.2141;
188.4000;0.8099;1.2040;
188.7000;0.8132;1.2090;
189.0000;0.8124;1.2015;
189.3000;0.8083;1.1914;
189.6000;0.8116;1.2065;
189.9000;0.8091;1.1939;
190.2000;0.8099;1.2040;
190.5000;0.8124;1.2116;
190.8000;0.8091;1.2141;
191.1000;0.8116;1.2216;
191.4000;0.8107;1.2191;
191.7000;0.8132;1.2292;
192.0000;0.8083;1.2191;
192.3000;0.8124;1.2267;
192.6000;0.8124;1.2216;
192.9000;0.8148;1.2292;
193.2000;0.8148;1.2242;
193.5000;0.8156;1.2216;
193.8000;0.8132;1.2216;
194.1000;0.8116;1.2141;
194.4000;0.8116;1.2342;
194.7000;0.8107;1.2317;
195.0000;0.8124;1.2317;
195.3000;0.8124;1.2242;
195.6000;0.8140;1.2292;
195.9000;0.8124;1.2216;
196.2000;0.8132;1.2242;
196.5000;0.8067;1.2040;
196.8000;0.8124;1.2242;
197.1000;0.8107;1.2216;
197.4000;0.8116;1.2242;
197.7000;0.8107;1.2267;
198.0000;0.8107;1.2242;
198.3000;0.8091;1.2216;
198.6000;0.8107;1.2267;
198.9000;0.8116;1.2317;
199.2000;0.8107;1.2267;
199.5000;0.8116;1.2317;
199.8000;0.8107;1.2317;
200.1000;0.8124;1.2368;
200.4000;0.8107;1.2393;
200.7000;0.8107;1.2368;
201.0000;0.8116;1.2443;
201.3000;0.8148;1.2519;
201.6000;0.8140;1.2468;
201.9000;0.8140;1.2443;
202.2000;0.8116;1.2368;
202.5000;0.8116;1.2418;
202.8000;0.8148;1.2468;
203.1000;0.8124;1.2368;
203.4000;0.8116;1.2317;
203.7000;0.8091;1.2317;
204.0000;0.8124;1.2393;
204.3000;0.8124;1.2393;
204.6000;0.8107;1.2368;
204.9000;0.8099;1.2418;
205.2000;0.8140;1.2519;
205.5000;0.8099;1.2418;
205.8000;0.8091;1.2368;
206.1000;0.8099;1.2368;
206.4000;0.8132;1.2393;
206.7000;0.8156;1.2519;
207.0000;0.8091;1.2216;
207.3000;0.8140;1.2393;
207.6000;0.8148;1.2368;
207.9000;0.8148;1.2368;
208.2000;0.8107;1.2342;
208.5000;0.8124;1.2418;
208.8000;0.8116;1.2468;
209.1000;0.8124;1.2468;
209.4000;0.8164;1.2468;
209.7000;0.8124;1.2418;
210.0000;0.8116;1.2342;
210.3000;0.8205;1.2443;
210.6000;0.8132;1.2166;
210.9000;0.8156;1.2242;
211.2000;0.8075;1.2015;
211.5000;0.8083;1.2065;
211.8000;0.8099;1.2116;
212.1000;0.8107;1.2065;
212.4000;0.8099;1.2040;
212.7000;0.8124;1.2116;
213.0000;0.8116;1.2065;
213.3000;0.8107;1.2065;
213.6000;0.8099;1.2040;
213.9000;0.8124;1.2090;
214.2000;0.8107;1.2191;
214.5000;0.8099;1.2141;
214.8000;0.8083;1.2141;
215.1000;0.8099;1.2216;
215.4000;0.8164;1.2368;
215.7000;0.8075;1.2166;
216.0000;0.8107;1.2216;
216.3000;0.8132;1.2191;
216.6000;0.8116;1.2242;
216.9000;0.8124;1.2216;
217.2000;0.8107;1.2166;
217.5000;0.8107;1.2090;
217.8000;0.8132;1.2166;
218.1000;0.8124;1.2216;
218.4000;0.8099;1.2116;
218.7000;0.8116;1.2242;
219.0000;0.8140;1.2317;
219.3000;0.8116;1.2368;
219.6000;0.8124;1.2368;
219.9000;0.8107;1.2242;
220.2000;0.8116;1.2166;
220.5000;0.8140;1.2267;
220.8000;0.8132;1.2242;
221.1000;0.8132;1.2166;
221.4000;0.8124;1.2216;
221.7000;0.8107;1.2216;
222.0000;0.8124;1.2242;
222.3000;0.8107;1.2166;
222.6000;0.8116;1.2191;
222.9000;0.8116;1.2216;
223.2000;0.8132;1.2216;
223.5000;0.8124;1.2065;
223.8000;0.8116;1.2040;
224.1000;0.8116;1.2090;
224.4000;0.8116;1.2090;
224.7000;0.8116;1.2141;
225.0000;0.8099;1.2191;
225.3000;0.8140;1.2267;
225.6000;0.8116;1.2216;
225.9000;0.8156;1.2292;
226.2000;0.8099;1.2116;
226.5000;0.8116;1.2141;
226.8000;0.8107;1.2090;
227.1000;0.8124;1.1990;
227.4000;0.8124;1.2015;
227.7000;0.8116;1.2040;
228.0000;0.8099;1.2065;
228.3000;0.8148;1.2216;
228.6000;0.8140;1.2141;
228.9000;0.8116;1.2065;
229.2000;0.8083;1.2040;
229.5000;0.8132;1.2166;
229.8000;0.8132;1.2166;
230.1000;0.8124;1.2116;
230.4000;0.8018;1.1914;
230.7000;0.8107;1.2116;
231.0000;0.8132;1.2141;
231.3000;0.8116;1.2040;
231.6000;0.8124;1.2116;
231.9000;0.8132;1.2166;
232.2000;0.8116;1.2116;
232.5000;0.8132;1.2216;
232.8000;0.8099;1.2090;
233.1000;0.8124;1.2116;
233.4000;0.8132;1.2216;
233.7000;0.8124;1.2141;
234.0000;0.8116;1.2141;
234.3000;0.8116;1.2166;
234.6000;0.8124;1.2216;
234.9000;0.8132;1.2166;
235.2000;0.8083;1.1990;
235.5000;0.8099;1.2015;
235.8000;0.8116;1.2065;
236.1000;0.8124;1.2141;
236.4000;0.8107;1.2191;
236.7000;0.8107;1.2141;
237.0000;0.8132;1.2191;
237.3000;0.8132;1.2090;
237.6000;0.8132;1.2116;
237.9000;0.8107;1.1990;
238.2000;0.8107;1.2015;
238.5000;0.8132;1.2065;
238.8000;0.8124;1.2116;
239.1000;0.8107;1.2166;
239.4000;0.8132;1.2191;
239.7000;0.8099;1.2090;
240.0000;0.8107;1.2141;
240.3000;0.8156;1.2267;
240.6000;0.8116;1.2116;
240.9000;0.8107;1.2015;
241.2000;0.8116;1.2141;
241.5000;0.8107;1.2065;
241.8000;0.8116;1.2116;
242.1000;0.8132;1.2191;
242.4000;0.8107;1.2242;
242.7000;0.8099;1.2317;
243.0000;0.8116;1.2368;
243.3000;0.8116;1.2368;
243.6000;0.8124;1.2418;
243.9000;0.8116;1.2342;
244.2000;0.8107;1.2342;
244.5000;0.8156;1.2418;
244.8000;0.8124;1.2342;
245.1000;0.8124;1.2342;
245.4000;0.8116;1.2292;
245.7000;0.8116;1.2292;
246.0000;0.8140;1.2393;
246.3000;0.8116;1.2317;
246.6000;0.8124;1.2267;
246.9000;0.8116;1.2242;
247.2000;0.8107;1.2242;
247.5000;0.8156;1.2418;
247.8000;0.8124;1.2393;
248.1000;0.8099;1.2368;
248.4000;0.8116;1.2393;
248.7000;0.8132;1.2418;
249.0000;0.8124;1.2317;
249.3000;0.8107;1.2292;
249.6000;0.8107;1.2267;
249.9000;0.8099;1.2216;
250.2000;0.8107;1.2242;
250.5000;0.8156;1.2317;
250.8000;0.8099;1.2090;
251.1000;0.8116;1.2166;
251.4000;0.8132;1.2292;
251.7000;0.8107;1.2267;
252.0000;0.8107;1.2342;
252.3000;0.8091;1.2292;
252.6000;0.8156;1.2494;
252.9000;0.8083;1.2393;
253.2000;0.8091;1.2443;
253.5000;0.8083;1.2393;
253.8000;0.8107;1.2468;
254.1000;0.8140;1.2494;
254.4000;0.8091;1.2393;
254.7000;0.8107;1.2393;
255.0000;0.8116;1.2317;
255.3000;0.8107;1.2317;
255.6000;0.8099;1.2166;
255.9000;0.8099;1.2166;
256.2000;0.8132;1.2141;
256.5000;0.8140;1.2116;
256.8000;0.8116;1.2065;
257.1000;0.8116;1.2166;
257.4000;0.8140;1.2141;
257.7000;0.8140;1.2216;
258.0000;0.8124;1.2116;
258.3000;0.8091;1.1965;
258.6000;0.8116;1.2090;
258.9000;0.8124;1.2141;
259.2000;0.8116;1.2116;
259.5000;0.8107;1.1990;
259.8000;0.8107;1.2015;
260.1000;0.8099;1.1990;
260.4000;0.8132;1.2116;
260.7000;0.8116;1.2040;
261.0000;0.8156;1.2116;
261.3000;0.8107;1.1990;
261.6000;0.8116;1.2090;
261.9000;0.8124;1.2166;
262.2000;0.8099;1.2116;
262.5000;0.8050;1.1965;
262.8000;0.8124;1.2166;
263.1000;0.8099;1.2090;
263.4000;0.8099;1.2141;
263.7000;0.8099;1.2116;
264.0000;0.8173;1.2242;
264.3000;0.8107;1.2065;
264.6000;0.8124;1.2065;
264.9000;0.8099;1.2065;
265.2000;0.8107;1.2141;
265.5000;0.8107;1.2166;
265.8000;0.8107;1.2116;
266.1000;0.8116;1.2040;
266.4000;0.8124;1.1965;
266.7000;0.8083;1.1889;
267.0000;0.8099;1.1939;
267.3000;0.8107;1.1914;
267.6000;0.8148;1.2090;
267.9000;0.8124;1.2040;
268.2000;0.8124;1.2090;
268.5000;0.8140;1.2116;
268.8000;0.8107;1.2040;
269.1000;0.8140;1.2090;
269.4000;0.8099;1.1990;
269.7000;0.8091;1.1939;
270.0000;0.8132;1.2065;
270.3000;0.8116;1.2141;
270.6000;0.8099;1.2141;
270.9000;0.8091;1.2166;
271.2000;0.8107;1.2166;
271.5000;0.8107;1.2242;
271.8000;0.8132;1.2368;
272.1000;0.8099;1.2317;
272.4000;0.8116;1.2242;
272.7000;0.8107;1.2242;
273.0000;0.8099;1.2216;
273.3000;0.8099;1.2191;
273.6000;0.8091;1.2116;
273.9000;0.8091;1.2166;
274.2000;0.8124;1.2191;
274.5000;0.8099;1.2166;
274.8000;0.8116;1.2292;
275.1000;0.8099;1.2292;
275.4000;0.8116;1.2393;
275.7000;0.8099;1.2317;
276.0000;0.8107;1.2216;
276.3000;0.8099;1.2116;
276.6000;0.8116;1.2015;
276.9000;0.8124;1.2015;
277.2000;0.8107;1.2065;
277.5000;0.8124;1.2040;
277.8000;0.8116;1.2015;
278.1000;0.8132;1.2090;
278.4000;0.8124;1.2116;
278.7000;0.8116;1.2116;
279.0000;0.8124;1.2090;
279.3000;0.8099;1.2040;
279.6000;0.8116;1.2090;
279.9000;0.8099;1.2040;
280.2000;0.8132;1.2040;
280.5000;0.8140;1.2040;
280.8000;0.8107;1.2065;
281.1000;0.8116;1.2166;
281.4000;0.8116;1.2242;
281.7000;0.8116;1.2267;
282.0000;0.8132;1.2242;
282.3000;0.8124;1.2216;
282.6000;0.8075;1.2116;
282.9000;0.8107;1.2141;
283.2000;0.8116;1.2166;
283.5000;0.8107;1.2166;
283.8000;0.8107;1.2141;
284.1000;0.8116;1.2116;
284.4000;0.8107;1.2065;
284.7000;0.8099;1.2065;
285.0000;0.8116;1.2166;
285.3000;0.8107;1.2166;
285.6000;0.8116;1.2191;
285.9000;0.8116;1.2166;
286.2000;0.8107;1.2191;
286.5000;0.8148;1.2242;
286.8000;0.8116;1.2141;
287.1000;0.8099;1.2141;
287.4000;0.8107;1.2090;
287.7000;0.8107;1.2065;
288.0000;0.8107;1.2065;
288.3000;0.8107;1.2141;
288.6000;0.8132;1.2141;
288.9000;0.8140;1.2065;
289.2000;0.8116;1.1990;
289.5000;0.8124;1.2015;
289.8000;0.8107;1.2090;
290.1000;0.8107;1.2090;
290.4000;0.8091;1.2090;
290.7000;0.8156;1.2216;
291.0000;0.8107;1.2141;
291.3000;0.8107;1.2116;
291.6000;0.8124;1.2090;
291.9000;0.8173;1.2242;
292.2000;0.8107;1.2116;
292.5000;0.8116;1.2065;
292.8000;0.8116;1.2141;
293.1000;0.8116;1.2116;
293.4000;0.8164;1.2267;
293.7000;0.8091;1.2141;
294.0000;0.8107;1.2191;
294.3000;0.8099;1.2216;
294.6000;0.8116;1.2166;
294.9000;0.8107;1.2166;
295.2000;0.8116;1.2166;
295.5000;0.8124;1.2191;
295.8000;0.8132;1.2116;
296.1000;0.8124;1.2040;
296.4000;0.8099;1.1889;
296.7000;0.8132;1.2015;
297.0000;0.8124;1.2015;
297.3000;0.8132;1.1990;
297.6000;0.8116;1.1939;
297.9000;0.8116;1.1990;
298.2000;0.8173;1.2065;
298.5000;0.8140;1.2040;
298.8000;0.8107;1.1990;
299.1000;0.8116;1.1914;
299.4000;0.8091;1.1914;
299.7000;0.8116;1.2040;
300.0000;0.8124;1.2065;
300.3000;0.8083;1.1939;
300.6000;0.8107;1.1990;
300.9000;0.8132;1.2015;
301.2000;0.8042;1.1788;
301.5000;0.8140;1.2040;
301.8000;0.8116;1.1939;
302.1000;0.8116;1.1990;
302.4000;0.8107;1.1965;
302.7000;0.8132;1.2015;
303.0000;0.8116;1.2040;
303.3000;0.8124;1.2116;
303.6000;0.8116;1.2090;
303.9000;0.8124;1.2090;
304.2000;0.8124;1.2141;
304.5000;0.8124;1.2040;
304.8000;0.8116;1.2141;
305.1000;0.8116;1.2191;
305.4000;0.8107;1.2116;
305.7000;0.8197;1.2216;
306.0000;0.8099;1.2015;
306.3000;0.8091;1.2116;
306.6000;0.8099;1.2191;
306.9000;0.8107;1.2216;
307.2000;0.8173;1.2393;
307.5000;0.8107;1.2242;
307.8000;0.8124;1.2216;
308.1000;0.8124;1.2267;
308.4000;0.8067;1.2141;
308.7000;0.8099;1.2216;
309.0000;0.8091;1.2065;
309.3000;0.8099;1.2015;
309.6000;0.8132;1.2065;
309.9000;0.8107;1.1914;
310.2000;0.8107;1.1939;
310.5000;0.8099;1.2015;
310.8000;0.8107;1.1990;
311.1000;0.8124;1.2015;
311.4000;0.8132;1.1990;
311.7000;0.8116;1.1990;
312.0000;0.8116;1.1990;
312.3000;0.8124;1.2116;
312.6000;0.8099;1.1990;
312.9000;0.8132;1.2040;
313.2000;0.8099;1.1990;
313.5000;0.8116;1.2015;
313.8000;0.8124;1.2040;
314.1000;0.8173;1.2065;
314.4000;0.8099;1.1864;
314.7000;0.8124;1.1965;
315.0000;0.8116;1.2015;
315.3000;0.8116;1.2040;
315.6000;0.8124;1.2040;
315.9000;0.8083;1.1965;
316.2000;0.8099;1.1965;
316.5000;0.8099;1.2015;
316.8000;0.8173;1.2191;
317.1000;0.8107;1.2040;
317.4000;0.8132;1.2040;
317.7000;0.8116;1.2090;
318.0000;0.8107;1.2040;
318.3000;0.8107;1.2040;
318.6000;0.8132;1.2090;
318.9000;0.8181;1.2166;
319.2000;0.8189;1.2216;
319.5000;0.8116;1.2065;
319.8000;0.8099;1.1990;
320.1000;0.8067;1.1939;
320.4000;0.8059;1.1839;
320.7000;0.8083;1.1864;
321.0000;0.8099;1.1889;
321.3000;0.8091;1.1889;
321.6000;0.8116;1.1914;
321.9000;0.8107;1.1939;
322.2000;0.8091;1.1939;
322.5000;0.8140;1.2040;
322.8000;0.8050;1.1763;
323.1000;0.8107;1.1914;
323.4000;0.8124;1.1990;
323.7000;0.8116;1.2040;
324.0000;0.8116;1.1990;
324.3000;0.8189;1.2116;
324.6000;0.7993;1.1587;
324.9000;0.8107;1.1813;
325.2000;0.8124;1.1889;
325.5000;0.8107;1.1939;
325.8000;0.8059;1.1813;
326.1000;0.8107;1.1939;
326.4000;0.8091;1.1839;
326.7000;0.8124;1.1990;
327.0000;0.8083;1.1813;
327.3000;0.8042;1.1713;
327.6000;0.8132;1.1990;
327.9000;0.8107;1.1914;
328.2000;0.8026;1.1788;
328.5000;0.8099;1.1939;
328.8000;0.8091;1.1990;
329.1000;0.8116;1.2040;
329.4000;0.8107;1.2040;
329.7000;0.8107;1.1939;
330.0000;0.8107;1.1990;
330.3000;0.8132;1.2065;
330.6000;0.8140;1.2116;
330.9000;0.8091;1.2015;
331.2000;0.8107;1.1990;
331.5000;0.8059;1.1864;
331.8000;0.8116;1.1965;
332.1000;0.8091;1.1939;
332.4000;0.8091;1.1939;
332.7000;0.8107;1.2015;
333.0000;0.8099;1.1965;
333.3000;0.8099;1.1914;
333.6000;0.8148;1.1990;
333.9000;0.8107;1.1914;
334.2000;0.8116;1.1965;
334.5000;0.8107;1.1914;
334.8000;0.8116;1.1839;
335.1000;0.8116;1.1687;
335.4000;0.8107;1.1637;
335.7000;0.8124;1.1562;
336.0000;0.8107;1.1687;
336.3000;0.8116;1.1788;
336.6000;0.8132;1.1864;
336.9000;0.8124;1.1788;
337.2000;0.8107;1.1813;
337.5000;0.8124;1.1788;
337.8000;0.8124;1.1813;
338.1000;0.8107;1.1864;
338.4000;0.8107;1.1939;
338.7000;0.8156;1.2090;
339.0000;0.8116;1.1889;
339.3000;0.8091;1.1864;
339.6000;0.8132;1.1864;
339.9000;0.8091;1.1687;
340.2000;0.8107;1.1687;
340.5000;0.8050;1.1511;
340.8000;0.8189;1.1813;
341.1000;0.8116;1.1662;
341.4000;0.8124;1.1738;
341.7000;0.8107;1.1713;
342.0000;0.8107;1.1713;
342.3000;0.8050;1.1662;
342.6000;0.8099;1.1864;
342.9000;0.8124;1.1864;
343.2000;0.8075;1.1763;
343.5000;0.8132;1.1839;
343.8000;0.8116;1.1864;
344.1000;0.8107;1.1864;
344.4000;0.8067;1.1763;
344.7000;0.8091;1.1889;
345.0000;0.8107;1.1864;
345.3000;0.8132;1.1839;
345.6000;0.8140;1.1914;
345.9000;0.8124;1.1914;
346.2000;0.8107;1.1864;
346.5000;0.8132;1.1864;
346.8000;0.8091;1.1763;
347.1000;0.8099;1.1788;
347.4000;0.8091;1.1813;
347.7000;0.8083;1.1839;
348.0000;0.8116;1.1813;
348.3000;0.8091;1.1839;
348.6000;0.8107;1.1788;
348.9000;0.8099;1.1788;
349.2000;0.8099;1.1763;
349.5000;0.8116;1.1788;
349.8000;0.8099;1.1813;
350.1000;0.8140;1.1939;
350.4000;0.8091;1.1864;
350.7000;0.8099;1.1864;
351.0000;0.8091;1.1813;
351.3000;0.8099;1.1839;
351.6000;0.8091;1.1788;
351.9000;0.8091;1.1839;
352.2000;0.8099;1.1914;
352.5000;0.8099;1.1914;
352.8000;0.8099;1.1889;
353.1000;0.8107;1.1839;
353.4000;0.8107;1.1839;
353.7000;0.8107;1.1813;
354.0000;0.8107;1.1788;
354.3000;0.8116;1.1889;
354.6000;0.8091;1.1990;
354.9000;0.8107;1.1990;
355.2000;0.8091;1.1990;
355.5000;0.8075;1.2015;
355.8000;0.8099;1.1990;
356.1000;0.8107;1.1939;
356.4000;0.8116;1.1914;
356.7000;0.8099;1.1864;
357.0000;0.8099;1.1839;
357.3000;0.8107;1.1864;
357.6000;0.8132;1.1914;
357.9000;0.8099;1.1889;
358.2000;0.8116;1.1889;
358.5000;0.8107;1.1939;
358.8000;0.8116;1.1914;
359.1000;0.8116;1.1889;
359.4000;0.8107;1.1914;
359.7000;0.8124;1.1889;
360.0000;0.8107;1.1839;
360.3000;0.8107;1.1839;
360.6000;0.8107;1.1864;
360.9000;0.8116;1.1939;
361.2000;0.8116;1.1914;
361.5000;0.8116;1.1914;
361.8000;0.8083;1.1788;
362.1000;0.8075;1.1713;
362.4000;0.8091;1.1713;
362.7000;0.8148;1.1914;
363.0000;0.8107;1.1839;
363.3000;0.8116;1.1813;
363.6000;0.8116;1.1864;
363.9000;0.8116;1.1914;
364.2000;0.8107;1.1939;
364.5000;0.8099;1.2065;
364.8000;0.8083;1.1990;
365.1000;0.8116;1.1965;
365.4000;0.8099;1.1939;
365.7000;0.8140;1.1990;
366.0000;0.8067;1.1738;
366.3000;0.8059;1.1738;
366.6000;0.8099;1.1813;
366.9000;0.8099;1.1788;
367.2000;0.8059;1.1687;
367.5000;0.8091;1.1788;
367.8000;0.8091;1.1839;
368.1000;0.8099;1.1813;
368.4000;0.8116;1.1864;
368.7000;0.8107;1.1839;
369.0000;0.8099;1.1738;
369.3000;0.8099;1.1738;
369.6000;0.8099;1.1713;
369.9000;0.8091;1.1662;
370.2000;0.8107;1.1662;
370.5000;0.8091;1.1662;
370.8000;0.8067;1.1662;
371.1000;0.8124;1.1813;
371.4000;0.8099;1.1864;
371.7000;0.8083;1.1889;
372.0000;0.8099;1.1990;
372.3000;0.8083;1.1939;
372.6000;0.8067;1.2040;
372.9000;0.8091;1.2116;
373.2000;0.8091;1.2191;
373.5000;0.8091;1.2116;
373.8000;0.8107;1.2216;
374.1000;0.8107;1.2090;
374.4000;0.8107;1.2015;
374.7000;0.8116;1.1939;
375.0000;0.8067;1.1813;
375.3000;0.8010;1.1713;
375.6000;0.8124;1.1965;
375.9000;0.8099;1.1889;
376.2000;0.8099;1.1914;
376.5000;0.8107;1.1939;
376.8000;0.8099;1.2065;
377.1000;0.8107;1.2015;
377.4000;0.8099;1.2015;
377.7000;0.8107;1.2015;
378.0000;0.8099;1.1914;
378.3000;0.8099;1.1914;
378.6000;0.8107;1.1939;
378.9000;0.8116;1.1965;
379.2000;0.8091;1.1889;
379.5000;0.8099;1.2015;
379.8000;0.8124;1.1990;
380.1000;0.8099;1.1939;
380.4000;0.8091;1.1939;
380.7000;0.8083;1.1889;
381.0000;0.8107;1.1939;
381.3000;0.8107;1.1864;
381.6000;0.8107;1.1864;
381.9000;0.8099;1.1864;
382.2000;0.8099;1.1965;
382.5000;0.8075;1.1990;
382.8000;0.8091;1.2015;
383.1000;0.8091;1.2141;
383.4000;0.8107;1.2191;
383.7000;0.8107;1.2090;
384.0000;0.8107;1.2040;
384.3000;0.8091;1.1965;
384.6000;0.8124;1.1914;
384.9000;0.8148;1.2116;
385.2000;0.8107;1.2090;
385.5000;0.8124;1.2166;
385.8000;0.8091;1.2040;
386.1000;0.8124;1.2116;
386.4000;0.8107;1.2090;
386.7000;0.8099;1.2040;
387.0000;0.8099;1.2116;
387.3000;0.8107;1.2116;
387.6000;0.8132;1.2116;
387.9000;0.8173;1.2216;
388.2000;0.8107;1.2040;
388.5000;0.8116;1.2015;
388.8000;0.8099;1.2015;
389.1000;0.8083;1.1965;
389.4000;0.8083;1.1939;
389.7000;0.8067;1.1889;
390.0000;0.8091;1.1965;
390.3000;0.8116;1.1965;
390.6000;0.8107;1.2015;
390.9000;0.8099;1.1990;
391.2000;0.8148;1.2116;
391.5000;0.8107;1.1939;
391.8000;0.8116;1.2015;
392.1000;0.8091;1.1965;
392.4000;0.8164;1.2242;
392.7000;0.8091;1.1990;
393.0000;0.8083;1.1939;
393.3000;0.8091;1.1813;
393.6000;0.8107;1.1939;
393.9000;0.8091;1.1965;
394.2000;0.8107;1.2090;
394.5000;0.8083;1.2015;
394.8000;0.8099;1.1965;
395.1000;0.8099;1.2040;
395.4000;0.8091;1.1914;
395.7000;0.8116;1.2065;
396.0000;0.8099;1.2040;
396.3000;0.8083;1.1990;
396.6000;0.8107;1.1965;
396.9000;0.8091;1.1939;
397.2000;0.8107;1.2065;
397.5000;0.8148;1.2216;
397.8000;0.8091;1.2141;
398.1000;0.8107;1.2191;
398.4000;0.8116;1.2191;
398.7000;0.8099;1.2141;
399.0000;0.8107;1.2292;
399.3000;0.8107;1.2317;
399.6000;0.8091;1.2292;
399.9000;0.8099;1.2368;
400.2000;0.8099;1.2393;
400.5000;0.8116;1.2368;
400.8000;0.8099;1.2242;
401.1000;0.8083;1.2216;
401.4000;0.8067;1.2191;
401.7000;0.8091;1.2216;
402.0000;0.8083;1.2216;
402.3000;0.8107;1.2317;
402.6000;0.8026;1.2166;
402.9000;0.8099;1.2242;
403.2000;0.8091;1.2141;
403.5000;0.8107;1.2116;
403.8000;0.8099;1.2015;
404.1000;0.8075;1.1914;
404.4000;0.8124;1.2040;
404.7000;0.8116;1.2090;
405.0000;0.8107;1.2090;
405.3000;0.8124;1.2191;
405.6000;0.8059;1.2166;
405.9000;0.8099;1.2267;
406.2000;0.8083;1.2216;
406.5000;0.8091;1.2141;
406.8000;0.8099;1.2141;
407.1000;0.8107;1.2267;
407.4000;0.8075;1.2242;
407.7000;0.8140;1.2292;
408.0000;0.8107;1.2292;
408.3000;0.8116;1.2368;
408.6000;0.8099;1.2368;
408.9000;0.8107;1.2292;
409.2000;0.8091;1.2267;
409.5000;0.8091;1.2317;
409.8000;0.8132;1.2292;
410.1000;0.8099;1.2191;
410.4000;0.8107;1.2267;
410.7000;0.8148;1.2317;
411.0000;0.8091;1.2267;
411.3000;0.8107;1.2267;
411.6000;0.8099;1.2292;
411.9000;0.8107;1.2267;
412.2000;0.8099;1.2216;
412.5000;0.8107;1.2216;
412.8000;0.8091;1.2090;
413.1000;0.8124;1.2216;
413.4000;0.8099;1.2141;
413.7000;0.8091;1.2116;
414.0000;0.8091;1.2116;
414.3000;0.8075;1.1990;
414.6000;0.8067;1.2040;
414.9000;0.8067;1.2090;
415.2000;0.8083;1.2141;
415.5000;0.8107;1.2166;
415.8000;0.8050;1.1939;
416.1000;0.8091;1.2015;
416.4000;0.8091;1.1990;
416.7000;0.8099;1.1990;
417.0000;0.8083;1.2040;
417.3000;0.8116;1.2141;
417.6000;0.8099;1.2040;
417.9000;0.8107;1.2141;
418.2000;0.8099;1.2242;
418.5000;0.8124;1.2191;
418.8000;0.8099;1.2141;
419.1000;0.8099;1.2065;
419.4000;0.8124;1.2216;
419.7000;0.8107;1.2166;
420.0000;0.8099;1.2065;
420.3000;0.8148;1.2191;
420.6000;0.8107;1.2090;
420.9000;0.8099;1.2015;
421.2000;0.8091;1.1990;
421.5000;0.8091;1.1965;
421.8000;0.8075;1.1889;
422.1000;0.8099;1.1990;
422.4000;0.8132;1.2166;
422.7000;0.8099;1.1914;
423.0000;0.8107;1.1939;
423.3000;0.8083;1.1939;
423.6000;0.8124;1.2015;
423.9000;0.8099;1.1914;
424.2000;0.8124;1.2040;
424.5000;0.8075;1.1864;
424.8000;0.8091;1.1889;
425.1000;0.8091;1.1864;
425.4000;0.8107;1.1914;
425.7000;0.8099;1.1939;
426.0000;0.8099;1.1889;
426.3000;0.8091;1.1864;
426.6000;0.8083;1.1939;
426.9000;0.8075;1.1965;
427.2000;0.8091;1.2116;
427.5000;0.8091;1.2090;
427.8000;0.8091;1.2141;
428.1000;0.8075;1.2116;
428.4000;0.8107;1.2090;
428.7000;0.8132;1.2090;
429.0000;0.8091;1.1990;
429.3000;0.8107;1.2015;
429.6000;0.8124;1.2040;
429.9000;0.8116;1.2065;
430.2000;0.8107;1.1990;
430.5000;0.8140;1.2040;
430.8000;0.8156;1.2116;
431.1000;0.8116;1.2015;
431.4000;0.8099;1.1990;
431.7000;0.8116;1.2065;
432.0000;0.8099;1.2065;
432.3000;0.8091;1.2015;
432.6000;0.8107;1.1914;
432.9000;0.8083;1.1939;
433.2000;0.8075;1.1864;
433.5000;0.8148;1.2065;
433.8000;0.8091;1.1965;
434.1000;0.8091;1.2015;
434.4000;0.8124;1.1939;
434.7000;0.8197;1.2141;
435.0000;0.8099;1.1914;
435.3000;0.8099;1.1914;
435.6000;0.8116;1.2065;
435.9000;0.8083;1.1965;
436.2000;0.8083;1.1864;
436.5000;0.8116;1.1965;
436.8000;0.8059;1.1813;
437.1000;0.8091;1.1965;
437.4000;0.8107;1.2040;
437.7000;0.8116;1.2065;
438.0000;0.8091;1.2015;
438.3000;0.8050;1.1813;
438.6000;0.8059;1.1914;
438.9000;0.8091;1.1990;
439.2000;0.8083;1.1990;
439.5000;0.8091;1.2065;
439.8000;0.8099;1.2141;
440.1000;0.8099;1.2116;
440.4000;0.8075;1.1990;
440.7000;0.8067;1.2040;
441.0000;0.8107;1.2191;
441.3000;0.8010;1.1889;
441.6000;0.8099;1.2090;
441.9000;0.8083;1.2141;
442.2000;0.8059;1.2141;
442.5000;0.8091;1.2242;
442.8000;0.8059;1.2191;
443.1000;0.8107;1.2242;
443.4000;0.8083;1.2191;
443.7000;0.8091;1.2141;
444.0000;0.8083;1.2141;
444.3000;0.8091;1.2090;
444.6000;0.8116;1.2216;
444.9000;0.8116;1.2216;
445.2000;0.8091;1.2191;
445.5000;0.8083;1.2141;
445.8000;0.8091;1.2267;
446.1000;0.8042;1.2116;
446.4000;0.8091;1.2166;
446.7000;0.8107;1.2166;
447.0000;0.8075;1.2090;
447.3000;0.8091;1.2116;
447.6000;0.8107;1.2090;
447.9000;0.8107;1.2166;
448.2000;0.8091;1.2116;
448.5000;0.8034;1.2015;
448.8000;0.8099;1.2090;
449.1000;0.8107;1.2090;
449.4000;0.8148;1.2141;
449.7000;0.8099;1.2065;
450.0000;0.8091;1.1990;
450.3000;0.8107;1.2015;
450.6000;0.8083;1.1990;
450.9000;0.8091;1.1939;
451.2000;0.8116;1.1914;
451.5000;0.8099;1.1889;
451.8000;0.8099;1.1914;
452.1000;0.8091;1.1990;
452.4000;0.8116;1.2015;
452.7000;0.8124;1.2090;
453.0000;0.8107;1.2065;
453.3000;0.8116;1.2141;
453.6000;0.8107;1.2191;
453.9000;0.8067;1.2141;
454.2000;0.8083;1.2191;
454.5000;0.8099;1.2166;
454.8000;0.8075;1.2116;
455.1000;0.8091;1.2090;
455.4000;0.8107;1.2065;
455.7000;0.8099;1.2065;
456.0000;0.8083;1.2040;
456.3000;0.8099;1.2015;
456.6000;0.8099;1.1939;
456.9000;0.8091;1.1864;
457.2000;0.8067;1.1813;
457.5000;0.8091;1.1864;
457.8000;0.8018;1.1788;
458.1000;0.8083;1.1939;
458.4000;0.8075;1.1990;
458.7000;0.8099;1.1990;
459.0000;0.8099;1.1939;
459.3000;0.8091;1.1965;
459.6000;0.8107;1.2141;
459.9000;0.8099;1.2141;
460.2000;0.8107;1.2216;
460.5000;0.8107;1.2216;
460.8000;0.8099;1.2116;
461.1000;0.8083;1.2141;
461.4000;0.8107;1.2166;
461.7000;0.8075;1.2090;
462.0000;0.8091;1.2090;
462.3000;0.8083;1.2040;
462.6000;0.8132;1.2116;
462.9000;0.8107;1.2090;
463.2000;0.8107;1.2090;
463.5000;0.8091;1.2090;
463.8000;0.8091;1.1939;
464.1000;0.8083;1.1939;
464.4000;0.8116;1.2040;
464.7000;0.8091;1.2040;
465.0000;0.8083;1.2065;
465.3000;0.8140;1.2191;
465.6000;0.8091;1.2090;
465.9000;0.8091;1.2141;
466.2000;0.8099;1.2090;
466.5000;0.8099;1.2090;
466.8000;0.8050;1.2015;
467.1000;0.8099;1.2090;
467.4000;0.8083;1.2040;
467.7000;0.8091;1.1990;
468.0000;0.8107;1.2116;
468.3000;0.8091;1.2191;
468.6000;0.8091;1.2065;
468.9000;0.8099;1.2065;
469.2000;0.8099;1.2090;
469.5000;0.8083;1.2141;
469.8000;0.8083;1.2116;
470.1000;0.8083;1.2166;
470.4000;0.8091;1.2166;
470.7000;0.8091;1.2040;
471.0000;0.8083;1.2015;
471.3000;0.8083;1.1990;
471.6000;0.8075;1.1990;
471.9000;0.8107;1.2090;
472.2000;0.8091;1.2065;
472.5000;0.8034;1.1864;
472.8000;0.8116;1.2065;
473.1000;0.8099;1.2116;
473.4000;0.8107;1.2141;
473.7000;0.8083;1.2040;
474.0000;0.8083;1.2090;
474.3000;0.8091;1.2191;
474.6000;0.8091;1.2242;
474.9000;0.8099;1.2242;
475.2000;0.8107;1.2216;
475.5000;0.8099;1.2040;
475.8000;0.8107;1.2116;
476.1000;0.8099;1.2116;
476.4000;0.8107;1.2116;
476.7000;0.8116;1.2116;
477.0000;0.8083;1.1990;
477.3000;0.8083;1.1965;
477.6000;0.8083;1.2015;
477.9000;0.8075;1.2015;
478.2000;0.8099;1.2090;
478.5000;0.8067;1.1990;
478.8000;0.8067;1.2040;
479.1000;0.8083;1.2015;
479.4000;0.8083;1.2065;
479.7000;0.8050;1.1965;
480.0000;0.8099;1.2065;
480.3000;0.8099;1.2040;
480.6000;0.8099;1.1965;
480.9000;0.8075;1.1965;
481.2000;0.8164;1.2242;
481.5000;0.8083;1.2040;
481.8000;0.8059;1.1990;
482.1000;0.8083;1.1990;
482.4000;0.8083;1.1965;
482.7000;0.8091;1.1914;
483.0000;0.8091;1.1864;
483.3000;0.8026;1.1763;
483.6000;0.8075;1.1914;
483.9000;0.8083;1.1939;
484.2000;0.8083;1.1939;
484.5000;0.8083;1.1990;
484.8000;0.8026;1.1738;
485.1000;0.8107;1.1939;
485.4000;0.8075;1.1965;
485.7000;0.8091;1.2040;
486.0000;0.8075;1.2015;
486.3000;0.8091;1.2116;
486.6000;0.8083;1.2090;
486.9000;0.8173;1.2292;
487.2000;0.8091;1.2116;
487.5000;0.8059;1.2015;
487.8000;0.8075;1.1990;
488.1000;0.8091;1.1990;
488.4000;0.8124;1.2040;
488.7000;0.8091;1.1889;
489.0000;0.8083;1.1990;
489.3000;0.8050;1.1914;
489.6000;0.8091;1.2090;
489.9000;0.8099;1.2090;
490.2000;0.8083;1.2166;
490.5000;0.8099;1.2065;
490.8000;0.8091;1.2065;
491.1000;0.8083;1.2065;
491.4000;0.8091;1.2040;
491.7000;0.8099;1.2040;
492.0000;0.8107;1.2090;
492.3000;0.8091;1.2015;
492.6000;0.8083;1.1889;
492.9000;0.8075;1.1839;
493.2000;0.8083;1.1864;
493.5000;0.8091;1.1889;
493.8000;0.8083;1.1914;
494.1000;0.8083;1.1889;
494.4000;0.8083;1.1965;
494.7000;0.8075;1.1965;
495.0000;0.8140;1.2090;
495.3000;0.8075;1.1990;
495.6000;0.8075;1.1990;
495.9000;0.8099;1.2065;
496.2000;0.8091;1.2040;
496.5000;0.8091;1.2040;
496.8000;0.8075;1.2040;
497.1000;0.8083;1.2015;
497.4000;0.8091;1.2015;
497.7000;0.8083;1.1889;
498.0000;0.8083;1.1914;
498.3000;0.8091;1.1965;
498.6000;0.8107;1.1990;
498.9000;0.8091;1.1939;
499.2000;0.8099;1.1889;
499.5000;0.8091;1.1914;
499.8000;0.8099;1.1965;
500.1000;0.8083;1.1889;
500.4000;0.8083;1.1990;
500.7000;0.8091;1.1990;
501.0000;0.8083;1.1914;
501.3000;0.8075;1.1889;
501.6000;0.8059;1.1889;
501.9000;0.8083;1.1939;
502.2000;0.8083;1.2040;
502.5000;0.8083;1.1965;
502.8000;0.8181;1.2191;
503.1000;0.8083;1.1839;
503.4000;0.8050;1.1813;
503.7000;0.8042;1.1788;
504.0000;0.8075;1.1864;
504.3000;0.8067;1.1889;
504.6000;0.8075;1.1965;
504.9000;0.8075;1.1939;
505.2000;0.8067;1.1889;
505.5000;0.8083;1.1889;
505.8000;0.8099;1.1990;
506.1000;0.8107;1.2040;
506.4000;0.8083;1.1990;
506.7000;0.8075;1.1914;
507.0000;0.8099;1.1889;
507.3000;0.8083;1.1839;
507.6000;0.8091;1.1914;
507.9000;0.8091;1.1990;
508.2000;0.8083;1.1990;
508.5000;0.8091;1.1990;
508.8000;0.8091;1.1939;
509.1000;0.8099;1.1965;
509.4000;0.8107;1.1990;
509.7000;0.8083;1.1990;
510.0000;0.8067;1.1914;
510.3000;0.8026;1.1763;
510.6000;0.8067;1.1813;
510.9000;0.8050;1.1763;
511.2000;0.8091;1.1864;
511.5000;0.8091;1.1813;
511.8000;0.8042;1.1713;
512.1000;0.8075;1.1788;
512.4000;0.8075;1.1939;
512.7000;0.8083;1.1965;
513.0000;0.8083;1.1889;
513.3000;0.8091;1.1990;
513.6000;0.8050;1.2040;
513.9000;0.8075;1.2065;
514.2000;0.8124;1.2116;
514.5000;0.8083;1.1914;
514.8000;0.8083;1.1889;
515.1000;0.8075;1.1813;
515.4000;0.8067;1.1788;
515.7000;0.8091;1.1839;
516.0000;0.8075;1.1889;
516.3000;0.8075;1.1939;
516.6000;0.8042;1.1839;
516.9000;0.8042;1.1763;
517.2000;0.8099;1.1813;
517.5000;0.8083;1.1813;
517.8000;0.8099;1.1839;
518.1000;0.8050;1.1738;
518.4000;0.8091;1.1788;
518.7000;0.8083;1.1788;
519.0000;0.8091;1.1839;
519.3000;0.8083;1.1813;
519.6000;0.8083;1.1839;
519.9000;0.8091;1.1864;
520.2000;0.8075;1.1864;
520.5000;0.8075;1.1864;
520.8000;0.8075;1.1839;
521.1000;0.8075;1.1813;
521.4000;0.8099;1.1788;
521.7000;0.8075;1.1738;
522.0000;0.8083;1.1738;
522.3000;0.8099;1.1713;
522.6000;0.8116;1.1713;
522.9000;0.8050;1.1637;
523.2000;0.8091;1.1662;
523.5000;0.8083;1.1813;
523.8000;0.8075;1.1914;
524.1000;0.8075;1.1914;
524.4000;0.8083;1.1939;
524.7000;0.8124;1.1939;
525.0000;0.8075;1.1813;
525.3000;0.8099;1.1914;
525.6000;0.8107;1.1889;
525.9000;0.8091;1.1839;
526.2000;0.8083;1.1889;
526.5000;0.8083;1.1965;
526.8000;0.8067;1.1939;
527.1000;0.8067;1.1965;
527.4000;0.8075;1.1990;
527.7000;0.8075;1.1939;
528.0000;0.8083;1.1864;
528.3000;0.8075;1.1788;
528.6000;0.8067;1.1813;
528.9000;0.8083;1.1914;
529.2000;0.8050;1.1839;
529.5000;0.8075;1.1864;
529.8000;0.8083;1.1889;
530.1000;0.8067;1.1839;
530.4000;0.8140;1.1939;
530.7000;0.8050;1.1813;
531.0000;0.8059;1.1788;
531.3000;0.8067;1.1813;
531.6000;0.8099;1.1864;
531.9000;0.8083;1.1864;
532.2000;0.8091;1.1864;
532.5000;0.8067;1.1813;
532.8000;0.8124;1.1939;
533.1000;0.8091;1.1839;
533.4000;0.8067;1.1914;
533.7000;0.8059;1.1939;
534.0000;0.8083;1.1965;
534.3000;0.8091;1.1914;
534.6000;0.8107;1.1965;
534.9000;0.8067;1.1839;
535.2000;0.8075;1.1839;
535.5000;0.8067;1.1763;
535.8000;0.8099;1.1839;
536.1000;0.8059;1.1738;
536.4000;0.8083;1.1889;
536.7000;0.8099;1.1889;
537.0000;0.8075;1.1864;
537.3000;0.8042;1.1738;
537.6000;0.8107;1.1788;
537.9000;0.8083;1.1738;
538.2000;0.8099;1.1687;
538.5000;0.8075;1.1612;
538.8000;0.8042;1.1662;
539.1000;0.8034;1.1738;
539.4000;0.8075;1.1889;
539.7000;0.8075;1.1914;
540.0000;0.8148;1.2116;
540.3000;0.8067;1.2040;
540.6000;0.8026;1.1813;
540.9000;0.8075;1.1864;
541.2000;0.8059;1.1889;
541.5000;0.8050;1.1864;
541.8000;0.8075;1.1965;
542.1000;0.8075;1.1990;
542.4000;0.8026;1.1864;
542.7000;0.8075;1.1990;
543.0000;0.8083;1.2015;
543.3000;0.8075;1.2090;
543.6000;0.8075;1.2040;
543.9000;0.8075;1.2065;
544.2000;0.8075;1.2015;
544.5000;0.8083;1.1889;
544.8000;0.8091;1.1939;
545.1000;0.8083;1.1889;
545.4000;0.8083;1.1889;
545.7000;0.8083;1.1889;
546.0000;0.8050;1.1788;
546.3000;0.8091;1.1914;
546.6000;0.8107;1.2116;
546.9000;0.8050;1.2015;
547.2000;0.8075;1.2015;
547.5000;0.8050;1.1939;
547.8000;0.8067;1.1965;
548.1000;0.8091;1.2040;
548.4000;0.8075;1.2040;
548.7000;0.8091;1.2116;
549.0000;0.8059;1.1990;
549.3000;0.8067;1.1990;
549.6000;0.8116;1.2015;
549.9000;0.8067;1.1990;
550.2000;0.8050;1.1939;
550.5000;0.8067;1.2065;
550.8000;0.8107;1.2166;
551.1000;0.8083;1.2216;
551.4000;0.8042;1.2090;
551.7000;0.8075;1.2090;
552.0000;0.8099;1.2116;
552.3000;0.8091;1.1990;
552.6000;0.8091;1.2065;
552.9000;0.8091;1.2015;
553.2000;0.8059;1.1965;
553.5000;0.8075;1.1990;
553.8000;0.8067;1.1889;
554.1000;0.8083;1.1914;
554.4000;0.8116;1.2040;
554.7000;0.8059;1.1965;
555.0000;0.8050;1.1939;
555.3000;0.8091;1.2040;
555.6000;0.8091;1.2065;
555.9000;0.8099;1.2090;
556.2000;0.8075;1.2015;
556.5000;0.8091;1.2090;
556.8000;0.8116;1.2191;
557.1000;0.8091;1.2090;
557.4000;0.8107;1.2065;
557.7000;0.8075;1.1889;
558.0000;0.8091;1.1839;
558.3000;0.8156;1.1939;
558.6000;0.8083;1.1788;
558.9000;0.8083;1.1813;
559.2000;0.8083;1.1939;
559.5000;0.8067;1.1914;
559.8000;0.8099;1.1914;
560.1000;0.8075;1.1914;
560.4000;0.8083;1.1990;
560.7000;0.8075;1.1990;
561.0000;0.8075;1.1965;
561.3000;0.8075;1.1990;
561.6000;0.8059;1.1965;
561.9000;0.8091;1.1990;
562.2000;0.8099;1.1990;
562.5000;0.8075;1.1939;
562.8000;0.8075;1.1965;
563.1000;0.8067;1.1914;
563.4000;0.8067;1.1990;
563.7000;0.8075;1.2065;
564.0000;0.8059;1.2141;
564.3000;0.8042;1.2141;
564.6000;0.8059;1.2191;
564.9000;0.8059;1.2191;
565.2000;0.8075;1.2166;
565.5000;0.8083;1.2166;
565.8000;0.8059;1.2141;
566.1000;0.8067;1.2116;
566.4000;0.8148;1.2292;
566.7000;0.8083;1.2065;
567.0000;0.8132;1.2242;
567.3000;0.8083;1.2116;
567.6000;0.8083;1.2141;
567.9000;0.8075;1.2090;
568.2000;0.8075;1.2116;
568.5000;0.8083;1.2141;
568.8000;0.8091;1.2191;
569.1000;0.8067;1.2141;
569.4000;0.8018;1.2065;
569.7000;0.8059;1.2166;
570.0000;0.8067;1.2191;
570.3000;0.8067;1.2015;
570.6000;0.8083;1.2040;
570.9000;0.8067;1.1990;
571.2000;0.8059;1.1990;
571.5000;0.8075;1.1990;
571.8000;0.8083;1.2015;
572.1000;0.8034;1.1864;
572.4000;0.8091;1.1990;
572.7000;0.8083;1.2065;
573.0000;0.8067;1.2116;
573.3000;0.8050;1.2116;
573.6000;0.8067;1.2141;
573.9000;0.8067;1.2141;
574.2000;0.8059;1.2116;
574.5000;0.8083;1.2216;
574.8000;0.8059;1.2141;
575.1000;0.8042;1.2090;
575.4000;0.8010;1.2116;
575.7000;0.8075;1.2191;
576.0000;0.8124;1.2368;
576.3000;0.8075;1.2267;
576.6000;0.8059;1.2216;
576.9000;0.8042;1.2191;
577.2000;0.8067;1.2267;
577.5000;0.8083;1.2242;
577.8000;0.8050;1.2166;
578.1000;0.8059;1.2166;
578.4000;0.8026;1.2166;
578.7000;0.8099;1.2267;
579.0000;0.8067;1.2166;
579.3000;0.8091;1.2191;
579.6000;0.8059;1.2116;
579.9000;0.8050;1.2191;
580.2000;0.8067;1.2242;
580.5000;0.8050;1.2191;
580.8000;0.8018;1.2015;
581.1000;0.8050;1.2015;
581.4000;0.8067;1.2015;
581.7000;0.8026;1.1939;
582.0000;0.8083;1.2166;
582.3000;0.8091;1.2216;
582.6000;0.8091;1.2242;
582.9000;0.8075;1.2166;
583.2000;0.8050;1.2141;
583.5000;0.8083;1.2191;
583.8000;0.8059;1.2191;
584.1000;0.8075;1.2216;
584.4000;0.8067;1.2141;
584.7000;0.8067;1.2065;
585.0000;0.8083;1.2065;
585.3000;0.8083;1.2040;
585.6000;0.8083;1.2040;
585.9000;0.8075;1.2015;
586.2000;0.8083;1.2065;
586.5000;0.8067;1.2065;
586.8000;0.8067;1.2015;
587.1000;0.8083;1.2166;
587.4000;0.8091;1.2191;
587.7000;0.8091;1.2317;
588.0000;0.8075;1.2317;
588.3000;0.8067;1.2292;
588.6000;0.8075;1.2342;
588.9000;0.8083;1.2317;
589.2000;0.8083;1.2267;
589.5000;0.8083;1.2166;
589.8000;0.8075;1.2141;
590.1000;0.8083;1.2065;
590.4000;0.8099;1.2090;
590.7000;0.8075;1.2141;
591.0000;0.8083;1.2116;
591.3000;0.8083;1.2166;
591.6000;0.8083;1.2317;
591.9000;0.8091;1.2468;
592.2000;0.8083;1.2368;
592.5000;0.8075;1.2267;
592.8000;0.8091;1.2267;
593.1000;0.8083;1.2216;
593.4000;0.8099;1.2191;
593.7000;0.8067;1.2090;
594.0000;0.8059;1.2116;
594.3000;0.8075;1.2090;
594.6000;0.8099;1.2116;
594.9000;0.8075;1.1990;
595.2000;0.8059;1.2065;
595.5000;0.8083;1.2065;
595.8000;0.8067;1.1965;
596.1000;0.8059;1.1990;
596.4000;0.8075;1.2015;
596.7000;0.8075;1.2040;
597.0000;0.8075;1.2090;
597.3000;0.8067;1.2191;
597.6000;0.8067;1.2242;
597.9000;0.8067;1.2267;
598.2000;0.8034;1.2292;
598.5000;0.8075;1.2368;
598.8000;0.8050;1.2317;
599.1000;0.8050;1.2242;
599.4000;0.8002;1.2166;
599.7000;0.8050;1.2267;
600.0000;0.8042;1.2141;
600.3000;0.8083;1.2141;
600.6000;0.8091;1.2040;
600.9000;0.8059;1.1864;
601.2000;0.7985;1.1587;
601.5000;0.7937;1.1436;
601.8000;0.7904;1.1310;
602.1000;0.7831;1.1108;
602.4000;0.7798;1.0982;
602.7000;0.7733;1.0881;
603.0000;0.7684;1.0781;
603.3000;0.7676;1.0881;
603.6000;0.7562;1.0529;
603.9000;0.7530;1.0403;
604.2000;0.7473;1.0327;
604.5000;0.7432;1.0176;
604.8000;0.7359;1.0025;
605.1000;0.7326;0.9949;
605.4000;0.7310;1.0000;
605.7000;0.7228;0.9899;
606.0000;0.7204;0.9899;
606.3000;0.7090;0.9647;
606.6000;0.7155;0.9723;
606.9000;0.7131;0.9672;
607.2000;0.7074;0.9521;
607.5000;0.7049;0.9421;
607.8000;0.7033;0.9446;
608.1000;0.7009;0.9546;
608.4000;0.6960;0.9496;
608.7000;0.6943;0.9471;
609.0000;0.6903;0.9320;
609.3000;0.6878;0.9320;
609.6000;0.6838;0.9295;
609.9000;0.6813;0.9219;
610.2000;0.6789;0.9118;
610.5000;0.6805;0.9169;
610.8000;0.6756;0.9118;
611.1000;0.6707;0.8942;
611.4000;0.6724;0.9017;
611.7000;0.6683;0.8967;
612.0000;0.6667;0.8942;
612.3000;0.6642;0.8841;
612.6000;0.6602;0.8715;
612.9000;0.6585;0.8740;
613.2000;0.6569;0.8816;
613.5000;0.6545;0.8766;
613.8000;0.6512;0.8690;
614.1000;0.6504;0.8715;
614.4000;0.6553;0.8866;
614.7000;0.6488;0.8740;
615.0000;0.6447;0.8715;
615.3000;0.6439;0.8690;
615.6000;0.6431;0.8766;
615.9000;0.6414;0.8791;
616.2000;0.6382;0.8740;
616.5000;0.6382;0.8766;
616.8000;0.6341;0.8715;
617.1000;0.6398;0.8816;
617.4000;0.6317;0.8665;
617.7000;0.6309;0.8640;
618.0000;0.6284;0.8665;
618.3000;0.6292;0.8791;
618.6000;0.6243;0.8715;
618.9000;0.6235;0.8740;
619.2000;0.6203;0.8715;
619.5000;0.6186;0.8589;
619.8000;0.6211;0.8614;
620.1000;0.6195;0.8614;
620.4000;0.6162;0.8614;
620.7000;0.6146;0.8589;
621.0000;0.6195;0.8665;
621.3000;0.6129;0.8438;
621.6000;0.6129;0.8463;
621.9000;0.6105;0.8388;
622.2000;0.6072;0.8312;
622.5000;0.6056;0.8337;
622.8000;0.6081;0.8438;
623.1000;0.6064;0.8413;
623.4000;0.6097;0.8489;
623.7000;0.6040;0.8312;
624.0000;0.6032;0.8262;
624.3000;0.6024;0.8312;
624.6000;0.5991;0.8337;
624.9000;0.5991;0.8287;
625.2000;0.5942;0.8161;
625.5000;0.5958;0.8237;
625.8000;0.5950;0.8262;
626.1000;0.5950;0.8312;
626.4000;0.5934;0.8287;
626.7000;0.5926;0.8287;
627.0000;0.5934;0.8312;
627.3000;0.5934;0.8312;
627.6000;0.5918;0.8337;
627.9000;0.5893;0.8337;
628.2000;0.5877;0.8363;
628.5000;0.5918;0.8337;
628.8000;0.5885;0.8237;
629.1000;0.5853;0.8111;
629.4000;0.5845;0.8211;
629.7000;0.5845;0.8287;
630.0000;0.5820;0.8211;
630.3000;0.5828;0.8211;
630.6000;0.5804;0.8186;
630.9000;0.5820;0.8287;
631.2000;0.5796;0.8312;
631.5000;0.5763;0.8211;
631.8000;0.5739;0.8161;
632.1000;0.5804;0.8363;
632.4000;0.5779;0.8287;
632.7000;0.5763;0.8312;
633.0000;0.5771;0.8363;
633.3000;0.5763;0.8388;
633.6000;0.5771;0.8388;
633.9000;0.5739;0.8438;
634.2000;0.5722;0.8388;
634.5000;0.5722;0.8363;
634.8000;0.5714;0.8337;
635.1000;0.5714;0.8312;
635.4000;0.5739;0.8262;
635.7000;0.5690;0.8262;
636.0000;0.5665;0.8161;
636.3000;0.5739;0.8363;
636.6000;0.5674;0.8136;
636.9000;0.5649;0.8186;
637.2000;0.5665;0.8262;
637.5000;0.5657;0.8237;
637.8000;0.5657;0.8312;
638.1000;0.5633;0.8363;
638.4000;0.5625;0.8388;
638.7000;0.5625;0.8312;
639.0000;0.5682;0.8463;
639.3000;0.5633;0.8388;
639.6000;0.5608;0.8438;
639.9000;0.5682;0.8665;
640.2000;0.5600;0.8438;
640.5000;0.5592;0.8438;
640.8000;0.5641;0.8589;
641.1000;0.5584;0.8312;
641.4000;0.5584;0.8312;
641.7000;0.5600;0.8312;
642.0000;0.5576;0.8312;
642.3000;0.5584;0.8337;
642.6000;0.5576;0.8312;
642.9000;0.5551;0.8312;
643.2000;0.5560;0.8413;
643.5000;0.5551;0.8363;
643.8000;0.5576;0.8413;
644.1000;0.5535;0.8287;
644.4000;0.5519;0.8211;
644.7000;0.5543;0.8312;
645.0000;0.5527;0.8186;
645.3000;0.5535;0.8161;
645.6000;0.5535;0.8186;
645.9000;0.5519;0.8136;
646.2000;0.5543;0.8262;
646.5000;0.5495;0.8186;
646.8000;0.5486;0.8211;
647.1000;0.5495;0.8262;
647.4000;0.5511;0.8287;
647.7000;0.5495;0.8237;
648.0000;0.5478;0.8211;
648.3000;0.5446;0.8262;
648.6000;0.5454;0.8287;
648.9000;0.5478;0.8262;
649.2000;0.5478;0.8287;
649.5000;0.5421;0.8186;
649.8000;0.5462;0.8287;
650.1000;0.5462;0.8262;
650.4000;0.5446;0.8186;
650.7000;0.5446;0.8111;
651.0000;0.5429;0.8211;
651.3000;0.5429;0.8136;
651.6000;0.5429;0.8186;
651.9000;0.5438;0.8186;
652.2000;0.5413;0.8262;
652.5000;0.5397;0.8287;
652.8000;0.5421;0.8337;
653.1000;0.5405;0.8312;
653.4000;0.5397;0.8262;
653.7000;0.5405;0.8211;
654.0000;0.5405;0.8262;
654.3000;0.5372;0.8237;
654.6000;0.5405;0.8312;
654.9000;0.5389;0.8211;
655.2000;0.5389;0.8211;
655.5000;0.5372;0.8161;
655.8000;0.5381;0.8136;
656.1000;0.5372;0.8111;
656.4000;0.5421;0.8211;
656.7000;0.5372;0.8136;
657.0000;0.5364;0.8136;
657.3000;0.5381;0.8136;
657.6000;0.5372;0.8111;
657.9000;0.5356;0.8086;
658.2000;0.5348;0.8111;
658.5000;0.5356;0.8136;
658.8000;0.5340;0.8161;
659.1000;0.5364;0.8287;
659.4000;0.5364;0.8363;
659.7000;0.5340;0.8337;
660.0000;0.5340;0.8312;
660.3000;0.5348;0.8337;
660.6000;0.5332;0.8337;
660.9000;0.5340;0.8388;
661.2000;0.5348;0.8438;
661.5000;0.5332;0.8438;
661.8000;0.5283;0.8312;
662.1000;0.5324;0.8413;
662.4000;0.5324;0.8388;
662.7000;0.5307;0.8262;
663.0000;0.5315;0.8287;
663.3000;0.5324;0.8312;
663.6000;0.5307;0.8237;
663.9000;0.5275;0.8161;
664.2000;0.5315;0.8363;
664.5000;0.5307;0.8337;
664.8000;0.5307;0.8388;
665.1000;0.5267;0.8312;
665.4000;0.5299;0.8363;
665.7000;0.5291;0.8413;
666.0000;0.5372;0.8614;
666.3000;0.5267;0.8312;
666.6000;0.5250;0.8262;
666.9000;0.5275;0.8211;
667.2000;0.5307;0.8337;
667.5000;0.5283;0.8211;
667.8000;0.5291;0.8211;
668.1000;0.5348;0.8388;
668.4000;0.5267;0.8186;
668.7000;0.5275;0.8186;
669.0000;0.5250;0.8161;
669.3000;0.5242;0.8161;
669.6000;0.5242;0.8161;
669.9000;0.5234;0.8237;
670.2000;0.5242;0.8211;
670.5000;0.5234;0.8237;
670.8000;0.5242;0.8312;
671.1000;0.5242;0.8363;
671.4000;0.5234;0.8337;
671.7000;0.5250;0.8413;
672.0000;0.5275;0.8413;
672.3000;0.5234;0.8262;
672.6000;0.5242;0.8337;
672.9000;0.5250;0.8388;
673.2000;0.5242;0.8438;
673.5000;0.5242;0.8438;
673.8000;0.5250;0.8514;
674.1000;0.5226;0.8539;
674.4000;0.5218;0.8589;
674.7000;0.5226;0.8514;
675.0000;0.5210;0.8363;
675.3000;0.5218;0.8413;
675.6000;0.5234;0.8463;
675.9000;0.5201;0.8287;
676.2000;0.5185;0.8287;
676.5000;0.5218;0.8287;
676.8000;0.5201;0.8312;
677.1000;0.5201;0.8363;
677.4000;0.5185;0.8337;
677.7000;0.5210;0.8489;
678.0000;0.5201;0.8463;
678.3000;0.5218;0.8438;
678.6000;0.5210;0.8489;
678.9000;0.5210;0.8463;
679.2000;0.5177;0.8363;
679.5000;0.5201;0.8438;
679.8000;0.5201;0.8388;
680.1000;0.5201;0.8413;
680.4000;0.5201;0.8287;
680.7000;0.5315;0.8564;
681.0000;0.5185;0.8262;
681.3000;0.5185;0.8262;
681.6000;0.5193;0.8262;
681.9000;0.5169;0.8262;
682.2000;0.5185;0.8312;
682.5000;0.5088;0.8111;
682.8000;0.5169;0.8337;
683.1000;0.5120;0.8211;
683.4000;0.5169;0.8337;
683.7000;0.5185;0.8237;
684.0000;0.5177;0.8287;
684.3000;0.5242;0.8539;
684.6000;0.5193;0.8438;
684.9000;0.5193;0.8413;
685.2000;0.5177;0.8363;
685.5000;0.5153;0.8237;
685.8000;0.5071;0.7960;
686.1000;0.5169;0.8186;
686.4000;0.5161;0.8136;
686.7000;0.5193;0.8161;
687.0000;0.5169;0.8237;
687.3000;0.5136;0.8237;
687.6000;0.5136;0.8211;
687.9000;0.5128;0.8237;
688.2000;0.5112;0.8211;
688.5000;0.5169;0.8363;
688.8000;0.5153;0.8287;
689.1000;0.5153;0.8337;
689.4000;0.5144;0.8312;
689.7000;0.5144;0.8312;
690.0000;0.5185;0.8312;
690.3000;0.5144;0.8312;
690.6000;0.5169;0.8463;
690.9000;0.5136;0.8363;
691.2000;0.5128;0.8337;
691.5000;0.5112;0.8237;
691.8000;0.5128;0.8287;
692.1000;0.5112;0.8262;
692.4000;0.5128;0.8262;
692.7000;0.5104;0.8211;
693.0000;0.5104;0.8237;
693.3000;0.5112;0.8337;
693.6000;0.5096;0.8363;
693.9000;0.5096;0.8388;
694.2000;0.5104;0.8337;
694.5000;0.5112;0.8262;
694.8000;0.5112;0.8161;
695.1000;0.5120;0.8186;
695.4000;0.5120;0.8262;
695.7000;0.5079;0.8186;
696.0000;0.5128;0.8337;
696.3000;0.5104;0.8337;
696.6000;0.5088;0.8262;
696.9000;0.5104;0.8337;
697.2000;0.5096;0.8388;
697.5000;0.5120;0.8413;
697.8000;0.5088;0.8363;
698.1000;0.5071;0.8312;
698.4000;0.5055;0.8463;
698.7000;0.5104;0.8539;
699.0000;0.5096;0.8463;
699.3000;0.5104;0.8489;
699.6000;0.5096;0.8514;
699.9000;0.5136;0.8665;
700.2000;0.5096;0.8564;
700.5000;0.5079;0.8489;
700.8000;0.5088;0.8388;
701.1000;0.5088;0.8312;
701.4000;0.5063;0.8186;
701.7000;0.5088;0.8388;
702.0000;0.5071;0.8337;
702.3000;0.5055;0.8262;
702.6000;0.5039;0.8186;
702.9000;0.5014;0.8186;
703.2000;0.5047;0.8262;
703.5000;0.5014;0.8086;
703.8000;0.5120;0.8363;
704.1000;0.5022;0.8136;
704.4000;0.5112;0.8337;
704.7000;0.5088;0.8363;
705.0000;0.5128;0.8489;
705.3000;0.5071;0.8287;
705.6000;0.5079;0.8363;
705.9000;0.5079;0.8388;
706.2000;0.5079;0.8388;
706.5000;0.5079;0.8438;
706.8000;0.5063;0.8413;
707.1000;0.5096;0.8489;
707.4000;0.5047;0.8262;
707.7000;0.5063;0.8287;
708.0000;0.5055;0.8186;
708.3000;0.5079;0.8262;
708.6000;0.5071;0.8262;
708.9000;0.5039;0.8237;
709.2000;0.5055;0.8287;
709.5000;0.5022;0.8211;
709.8000;0.5055;0.8312;
710.1000;0.5047;0.8337;
710.4000;0.5039;0.8337;
710.7000;0.5039;0.8287;
711.0000;0.5031;0.8388;
711.3000;0.5022;0.8363;
711.6000;0.5079;0.8413;
711.9000;0.5039;0.8312;
712.2000;0.5039;0.8262;
712.5000;0.5047;0.8237;
712.8000;0.5039;0.8237;
713.1000;0.5047;0.8262;
713.4000;0.5071;0.8388;
713.7000;0.5047;0.8237;
714.0000;0.5047;0.8237;
714.3000;0.5031;0.8161;
714.6000;0.5063;0.8287;
714.9000;0.5039;0.8262;
715.2000;0.5055;0.8363;
715.5000;0.5022;0.8312;
715.8000;0.5031;0.8363;
716.1000;0.5031;0.8262;
716.4000;0.5014;0.8262;
716.7000;0.5031;0.8388;
717.0000;0.5022;0.8363;
717.3000;0.5031;0.8438;
717.6000;0.5014;0.8438;
717.9000;0.5014;0.8438;
718.2000;0.5014;0.8388;
718.5000;0.5022;0.8388;
718.8000;0.5039;0.8413;
719.1000;0.5014;0.8363;
719.4000;0.5071;0.8564;
719.7000;0.5014;0.8413;
720.0000;0.5014;0.8363;
720.3000;0.5014;0.8337;
720.6000;0.5006;0.8312;
720.9000;0.5014;0.8363;
721.2000;0.5006;0.8413;
721.5000;0.4990;0.8337;
721.8000;0.5022;0.8413;
722.1000;0.5014;0.8363;
722.4000;0.4990;0.8312;
722.7000;0.5022;0.8438;
723.0000;0.5014;0.8388;
723.3000;0.4998;0.8388;
723.6000;0.4982;0.8388;
723.9000;0.4974;0.8388;
724.2000;0.4998;0.8438;
724.5000;0.5006;0.8413;
724.8000;0.4990;0.8438;
725.1000;0.4982;0.8413;
725.4000;0.4998;0.8388;
725.7000;0.5014;0.8337;
726.0000;0.5006;0.8211;
726.3000;0.5014;0.8211;
726.6000;0.4965;0.8060;
726.9000;0.5014;0.8186;
727.2000;0.4982;0.8237;
727.5000;0.5006;0.8337;
727.8000;0.4990;0.8287;
728.1000;0.4998;0.8287;
728.4000;0.4982;0.8287;
728.7000;0.4982;0.8337;
729.0000;0.5031;0.8413;
729.3000;0.4982;0.8363;
729.6000;0.4990;0.8388;
729.9000;0.4949;0.8262;
730.2000;0.4908;0.8186;
730.5000;0.4990;0.8388;
730.8000;0.4998;0.8363;
731.1000;0.5039;0.8463;
731.4000;0.4990;0.8489;
731.7000;0.4957;0.8438;
732.0000;0.4990;0.8564;
732.3000;0.4998;0.8539;
732.6000;0.4982;0.8438;
732.9000;0.5014;0.8589;
733.2000;0.4974;0.8388;
733.5000;0.4974;0.8363;
733.8000;0.4957;0.8312;
734.1000;0.4990;0.8438;
734.4000;0.4982;0.8363;
734.7000;0.4982;0.8287;
735.0000;0.4925;0.8186;
735.3000;0.4982;0.8388;
735.6000;0.4990;0.8388;
735.9000;0.5006;0.8413;
736.2000;0.4965;0.8262;
736.5000;0.4965;0.8287;
736.8000;0.4965;0.8211;
737.1000;0.4957;0.8186;
737.4000;0.5022;0.8337;
737.7000;0.4974;0.8287;
738.0000;0.4974;0.8363;
738.3000;0.4957;0.8312;
738.6000;0.4982;0.8337;
738.9000;0.4990;0.8287;
739.2000;0.4941;0.8237;
739.5000;0.4949;0.8287;
739.8000;0.4965;0.8337;
740.1000;0.4957;0.8262;
740.4000;0.4974;0.8312;
740.7000;0.4965;0.8262;
741.0000;0.4949;0.8312;
741.3000;0.4949;0.8388;
741.6000;0.4965;0.8413;
741.9000;0.4941;0.8363;
742.2000;0.4965;0.8413;
742.5000;0.4949;0.8388;
742.8000;0.4941;0.8388;
743.1000;0.4965;0.8539;
743.4000;0.4933;0.8489;
743.7000;0.4974;0.8539;
744.0000;0.4900;0.8287;
744.3000;0.4982;0.8514;
744.6000;0.4957;0.8514;
744.9000;0.4957;0.8463;
745.2000;0.4957;0.8489;
745.5000;0.4974;0.8564;
745.8000;0.4925;0.8438;
746.1000;0.4925;0.8388;
746.4000;0.4949;0.8438;
746.7000;0.4949;0.8489;
747.0000;0.4974;0.8438;
747.3000;0.4949;0.8337;
747.6000;0.4941;0.8388;
747.9000;0.4949;0.8388;
748.2000;0.4941;0.8438;
748.5000;0.4941;0.8514;
748.8000;0.4941;0.8463;
749.1000;0.4941;0.8514;
749.4000;0.4957;0.8539;
749.7000;0.4949;0.8489;
750.0000;0.4941;0.8489;
750.3000;0.4990;0.8564;
750.6000;0.4949;0.8463;
750.9000;0.4941;0.8438;
751.2000;0.4941;0.8388;
751.5000;0.4974;0.8438;
751.8000;0.4941;0.8287;
752.1000;0.4925;0.8237;
752.4000;0.4949;0.8312;
752.7000;0.4925;0.8287;
753.0000;0.4933;0.8287;
753.3000;0.4933;0.8312;
753.6000;0.4982;0.8489;
753.9000;0.4933;0.8363;
754.2000;0.4941;0.8413;
754.5000;0.4925;0.8388;
754.8000;0.4925;0.8388;
755.1000;0.4949;0.8388;
755.4000;0.4925;0.8312;
755.7000;0.4933;0.8363;
756.0000;0.4884;0.8211;
756.3000;0.4925;0.8363;
756.6000;0.4925;0.8388;
756.9000;0.4957;0.8463;
757.2000;0.4925;0.8388;
757.5000;0.4908;0.8363;
757.8000;0.4900;0.8312;
758.1000;0.4917;0.8237;
758.4000;0.4933;0.8312;
758.7000;0.4982;0.8388;
759.0000;0.4860;0.8111;
759.3000;0.4900;0.8262;
759.6000;0.4941;0.8363;
759.9000;0.4974;0.8337;
760.2000;0.4933;0.8363;
760.5000;0.4949;0.8413;
760.8000;0.4917;0.8262;
761.1000;0.4925;0.8237;
761.4000;0.4900;0.8211;
761.7000;0.4900;0.8337;
762.0000;0.4933;0.8413;
762.3000;0.4925;0.8514;
762.6000;0.4908;0.8463;
762.9000;0.4908;0.8413;
763.2000;0.5014;0.8665;
763.5000;0.4941;0.8312;
763.8000;0.4925;0.8237;
764.1000;0.4908;0.8262;
764.4000;0.4884;0.8136;
764.7000;0.4925;0.8211;
765.0000;0.4925;0.8211;
765.3000;0.4925;0.8211;
765.6000;0.4917;0.8111;
765.9000;0.4933;0.8211;
766.2000;0.4933;0.8237;
766.5000;0.4917;0.8161;
766.8000;0.4917;0.8161;
767.1000;0.4908;0.8161;
767.4000;0.4908;0.8136;
767.7000;0.4908;0.8161;
768.0000;0.4892;0.8211;
768.3000;0.4908;0.8312;
768.6000;0.4900;0.8438;
768.9000;0.4925;0.8489;
769.2000;0.4908;0.8438;
769.5000;0.4949;0.8463;
769.8000;0.4925;0.8337;
770.1000;0.4941;0.8363;
770.4000;0.4933;0.8337;
770.7000;0.4917;0.8287;
771.0000;0.4925;0.8363;
771.3000;0.4925;0.8312;
771.6000;0.4925;0.8312;
771.9000;0.4908;0.8312;
772.2000;0.4900;0.8363;
772.5000;0.4925;0.8539;
772.8000;0.4908;0.8514;
773.1000;0.4900;0.8489;
773.4000;0.4892;0.8363;
773.7000;0.4917;0.8463;
774.0000;0.4908;0.8539;
774.3000;0.4941;0.8614;
774.6000;0.4908;0.8438;
774.9000;0.4900;0.8312;
775.2000;0.4925;0.8363;
775.5000;0.4908;0.8237;
775.8000;0.4843;0.8136;
776.1000;0.4900;0.8262;
776.4000;0.4917;0.8388;
776.7000;0.4941;0.8413;
777.0000;0.4908;0.8438;
777.3000;0.4900;0.8438;
777.6000;0.4925;0.8463;
777.9000;0.4900;0.8388;
778.2000;0.4884;0.8337;
778.5000;0.4876;0.8337;
778.8000;0.4876;0.8287;
779.1000;0.4925;0.8337;
779.4000;0.4892;0.8287;
779.7000;0.4900;0.8363;
780.0000;0.4892;0.8312;
780.3000;0.4884;0.8186;
780.6000;0.4892;0.8161;
780.9000;0.4892;0.8211;
781.2000;0.4835;0.8161;
781.5000;0.4892;0.8337;
781.8000;0.4900;0.8337;
782.1000;0.4933;0.8388;
782.4000;0.4900;0.8312;
782.7000;0.4892;0.8388;
783.0000;0.4974;0.8564;
783.3000;0.4884;0.8363;
783.6000;0.4868;0.8388;
783.9000;0.4892;0.8363;
784.2000;0.4933;0.8388;
784.5000;0.4884;0.8287;
784.8000;0.4900;0.8363;
785.1000;0.4892;0.8363;
785.4000;0.4892;0.8262;
785.7000;0.4900;0.8262;
786.0000;0.4892;0.8262;
786.3000;0.4851;0.8262;
786.6000;0.4908;0.8438;
786.9000;0.4876;0.8463;
787.2000;0.4892;0.8489;
787.5000;0.4876;0.8514;
787.8000;0.4900;0.8614;
788.1000;0.4900;0.8665;
788.4000;0.4819;0.8388;
788.7000;0.4868;0.8463;
789.0000;0.4884;0.8489;
789.3000;0.4884;0.8489;
789.6000;0.4876;0.8438;
789.9000;0.4908;0.8489;
790.2000;0.4892;0.8413;
790.5000;0.4900;0.8489;
790.8000;0.4892;0.8539;
791.1000;0.4884;0.8489;
791.4000;0.4868;0.8413;
791.7000;0.4892;0.8363;
792.0000;0.4884;0.8312;
792.3000;0.4900;0.8312;
792.6000;0.4884;0.8337;
792.9000;0.4884;0.8337;
793.2000;0.4892;0.8363;
793.5000;0.4876;0.8388;
793.8000;0.4892;0.8489;
794.1000;0.4868;0.8514;
794.4000;0.4917;0.8715;
794.7000;0.4868;0.8514;
795.0000;0.4876;0.8564;
795.3000;0.4892;0.8589;
795.6000;0.4892;0.8514;
795.9000;0.4876;0.8589;
796.2000;0.4900;0.8665;
796.5000;0.4876;0.8564;
796.8000;0.4884;0.8589;
797.1000;0.4876;0.8489;
797.4000;0.4868;0.8388;
797.7000;0.4884;0.8363;
798.0000;0.4876;0.8413;
798.3000;0.4900;0.8463;
798.6000;0.4917;0.8690;
798.9000;0.4868;0.8614;
799.2000;0.4876;0.8766;
799.5000;0.4811;0.8463;
799.8000;0.4851;0.8514;
800.1000;0.4868;0.8614;
800.4000;0.4884;0.8665;
800.7000;0.4868;0.8589;
801.0000;0.4876;0.8589;
801.3000;0.4892;0.8614;
801.6000;0.4900;0.8614;
801.9000;0.4941;0.8614;
802.2000;0.4876;0.8539;
802.5000;0.4908;0.8564;
802.8000;0.4892;0.8463;
803.1000;0.4843;0.8337;
803.4000;0.4868;0.8489;
803.7000;0.4868;0.8438;
804.0000;0.4851;0.8489;
804.3000;0.4868;0.8564;
804.6000;0.4900;0.8564;
804.9000;0.4868;0.8564;
805.2000;0.4876;0.8614;
805.5000;0.4868;0.8539;
805.8000;0.4884;0.8589;
806.1000;0.4851;0.8438;
806.4000;0.4876;0.8463;
806.7000;0.4884;0.8438;
807.0000;0.4917;0.8564;
807.3000;0.4868;0.8463;
807.6000;0.4860;0.8564;
807.9000;0.4868;0.8539;
808.2000;0.4860;0.8514;
808.5000;0.4925;0.8640;
808.8000;0.4860;0.8514;
809.1000;0.4860;0.8614;
809.4000;0.4876;0.8589;
809.7000;0.4860;0.8690;
810.0000;0.4843;0.8640;
810.3000;0.4860;0.8514;
810.6000;0.4876;0.8539;
810.9000;0.4900;0.8690;
811.2000;0.4860;0.8614;
811.5000;0.4851;0.8564;
811.8000;0.4868;0.8539;
812.1000;0.4884;0.8514;
812.4000;0.4770;0.8237;
812.7000;0.4884;0.8489;
813.0000;0.4868;0.8438;
813.3000;0.4868;0.8438;
813.6000;0.4860;0.8489;
813.9000;0.4868;0.8514;
814.2000;0.4843;0.8438;
814.5000;0.4868;0.8589;
814.8000;0.4876;0.8614;
815.1000;0.4860;0.8614;
815.4000;0.4884;0.8690;
815.7000;0.4884;0.8665;
816.0000;0.4868;0.8690;
816.3000;0.4876;0.8715;
816.6000;0.4860;0.8564;
816.9000;0.4835;0.8564;
817.2000;0.4876;0.8715;
817.5000;0.4876;0.8766;
817.8000;0.4868;0.8690;
818.1000;0.4892;0.8740;
818.4000;0.4860;0.8640;
818.7000;0.4892;0.8614;
819.0000;0.4884;0.8564;
819.3000;0.4851;0.8564;
819.6000;0.4860;0.8614;
819.9000;0.4851;0.8539;
820.2000;0.4868;0.8614;
820.5000;0.4860;0.8463;
820.8000;0.4803;0.8388;
821.1000;0.4949;0.8791;
821.4000;0.4860;0.8564;
821.7000;0.4851;0.8539;
822.0000;0.4868;0.8514;
822.3000;0.4884;0.8514;
822.6000;0.4851;0.8413;
822.9000;0.4876;0.8463;
823.2000;0.4843;0.8438;
823.5000;0.4794;0.8363;
823.8000;0.4811;0.8438;
824.1000;0.4851;0.8564;
824.4000;0.4811;0.8489;
824.7000;0.4827;0.8665;
825.0000;0.4851;0.8766;
825.3000;0.4868;0.8791;
825.6000;0.4811;0.8614;
825.9000;0.4917;0.8892;
826.2000;0.4843;0.8690;
826.5000;0.4843;0.8740;
826.8000;0.4884;0.8866;
827.1000;0.4835;0.8690;
827.4000;0.4868;0.8690;
827.7000;0.4860;0.8640;
828.0000;0.4860;0.8614;
828.3000;0.4868;0.8614;
828.6000;0.4851;0.8564;
828.9000;0.4868;0.8514;
829.2000;0.4851;0.8413;
829.5000;0.4851;0.8388;
829.8000;0.4868;0.8388;
830.1000;0.4860;0.8388;
830.4000;0.4819;0.8287;
830.7000;0.4843;0.8287;
831.0000;0.4851;0.8413;
831.3000;0.4860;0.8514;
831.6000;0.4868;0.8463;
831.9000;0.4925;0.8614;
832.2000;0.4868;0.8514;
832.5000;0.4868;0.8564;
832.8000;0.4860;0.8539;
833.1000;0.4851;0.8614;
833.4000;0.4843;0.8589;
833.7000;0.4884;0.8614;
834.0000;0.4811;0.8438;
834.3000;0.4843;0.8564;
834.6000;0.4843;0.8564;
834.9000;0.4868;0.8690;
835.2000;0.4794;0.8514;
835.5000;0.4835;0.8614;
835.8000;0.4794;0.8589;
836.1000;0.4843;0.8640;
836.4000;0.4843;0.8640;
836.7000;0.4843;0.8665;
837.0000;0.4843;0.8690;
837.3000;0.4827;0.8614;
837.6000;0.4835;0.8614;
837.9000;0.4843;0.8665;
838.2000;0.4860;0.8665;
838.5000;0.4843;0.8665;
838.8000;0.4876;0.8866;
839.1000;0.4843;0.8791;
839.4000;0.4835;0.8740;
839.7000;0.4843;0.8640;
840.0000;0.4843;0.8665;
840.3000;0.4835;0.8715;
840.6000;0.4860;0.8766;
840.9000;0.4778;0.8539;
841.2000;0.4835;0.8640;
841.5000;0.4786;0.8539;
841.8000;0.4851;0.8690;
842.1000;0.4835;0.8589;
842.4000;0.4827;0.8539;
842.7000;0.4851;0.8564;
843.0000;0.4860;0.8589;
843.3000;0.4843;0.8589;
843.6000;0.4835;0.8715;
843.9000;0.4835;0.8740;
844.2000;0.4835;0.8740;
844.5000;0.4835;0.8766;
844.8000;0.4851;0.8665;
845.1000;0.4876;0.8740;
845.4000;0.4860;0.8715;
845.7000;0.4851;0.8740;
846.0000;0.4851;0.8816;
846.3000;0.4843;0.8866;
846.6000;0.4851;0.8917;
846.9000;0.4843;0.8866;
847.2000;0.4835;0.8866;
847.5000;0.4851;0.8942;
847.8000;0.4868;0.9043;
848.1000;0.4835;0.8917;
848.4000;0.4811;0.8892;
848.7000;0.4843;0.8917;
849.0000;0.4851;0.8992;
849.3000;0.4851;0.9017;
849.6000;0.4860;0.8917;
849.9000;0.4851;0.8791;
850.2000;0.4843;0.8715;
850.5000;0.4851;0.8740;
850.8000;0.4843;0.8740;
851.1000;0.4835;0.8690;
851.4000;0.4835;0.8564;
851.7000;0.4860;0.8665;
852.0000;0.4835;0.8539;
852.3000;0.4819;0.8463;
852.6000;0.4851;0.8589;
852.9000;0.4843;0.8640;
853.2000;0.4843;0.8589;
853.5000;0.4860;0.8514;
853.8000;0.4786;0.8363;
854.1000;0.4827;0.8489;
854.4000;0.4835;0.8489;
854.7000;0.4819;0.8489;
855.0000;0.4827;0.8463;
855.3000;0.4851;0.8539;
855.6000;0.4835;0.8489;
855.9000;0.4827;0.8539;
856.2000;0.4835;0.8539;
856.5000;0.4843;0.8589;
856.8000;0.4835;0.8564;
857.1000;0.4827;0.8489;
857.4000;0.4827;0.8463;
857.7000;0.4754;0.8237;
858.0000;0.4843;0.8539;
858.3000;0.4835;0.8715;
858.6000;0.4819;0.8665;
858.9000;0.4827;0.8665;
859.2000;0.4770;0.8539;
859.5000;0.4876;0.8766;
859.8000;0.4811;0.8564;
860.1000;0.4827;0.8614;
860.4000;0.4941;0.8942;
860.7000;0.4827;0.8589;
861.0000;0.4819;0.8665;
861.3000;0.4843;0.8791;
861.6000;0.4835;0.8740;
861.9000;0.4827;0.8690;
862.2000;0.4827;0.8740;
862.5000;0.4827;0.8841;
862.8000;0.4843;0.8866;
863.1000;0.4843;0.8791;
863.4000;0.4876;0.8866;
863.7000;0.4803;0.8640;
864.0000;0.4835;0.8791;
864.3000;0.4819;0.8791;
864.6000;0.4827;0.8715;
864.9000;0.4794;0.8690;
865.2000;0.4794;0.8640;
865.5000;0.4811;0.8589;
865.8000;0.4811;0.8489;
866.1000;0.4827;0.8564;
866.4000;0.4811;0.8614;
866.7000;0.4835;0.8614;
867.0000;0.4827;0.8589;
867.3000;0.4827;0.8539;
867.6000;0.4835;0.8564;
867.9000;0.4860;0.8614;
868.2000;0.4827;0.8564;
868.5000;0.4811;0.8539;
868.8000;0.4811;0.8589;
869.1000;0.4835;0.8690;
869.4000;0.4811;0.8665;
869.7000;0.4835;0.8690;
870.0000;0.4811;0.8640;
870.3000;0.4811;0.8665;
870.6000;0.4827;0.8715;
870.9000;0.4811;0.8715;
871.2000;0.4827;0.8665;
871.5000;0.4827;0.8690;
871.8000;0.4851;0.8816;
872.1000;0.4827;0.8766;
872.4000;0.4811;0.8690;
872.7000;0.4811;0.8640;
873.0000;0.4819;0.8589;
873.3000;0.4868;0.8640;
873.6000;0.4843;0.8463;
873.9000;0.4835;0.8413;
874.2000;0.4803;0.8262;
874.5000;0.4827;0.8262;
874.8000;0.4811;0.8211;
875.1000;0.4819;0.8186;
875.4000;0.4803;0.8186;
875.7000;0.4835;0.8363;
876.0000;0.4794;0.8287;
876.3000;0.4827;0.8413;
876.6000;0.4794;0.8413;
876.9000;0.4794;0.8539;
877.2000;0.4794;0.8539;
877.5000;0.4770;0.8489;
877.8000;0.4819;0.8640;
878.1000;0.4811;0.8715;
878.4000;0.4786;0.8690;
878.7000;0.4819;0.8715;
879.0000;0.4737;0.8514;
879.3000;0.4827;0.8614;
879.6000;0.4827;0.8640;
879.9000;0.4819;0.8640;
880.2000;0.4843;0.8690;
880.5000;0.4786;0.8489;
880.8000;0.4835;0.8589;
881.1000;0.4843;0.8564;
881.4000;0.4819;0.8489;
881.7000;0.4803;0.8489;
882.0000;0.4794;0.8564;
882.3000;0.4819;0.8539;
882.6000;0.4835;0.8665;
882.9000;0.4827;0.8614;
883.2000;0.4835;0.8589;
883.5000;0.4827;0.8539;
883.8000;0.4811;0.8463;
884.1000;0.4827;0.8489;
884.4000;0.4827;0.8514;
884.7000;0.4827;0.8514;
885.0000;0.4843;0.8489;
885.3000;0.4827;0.8438;
885.6000;0.4803;0.8363;
885.9000;0.4827;0.8438;
886.2000;0.4835;0.8463;
886.5000;0.4827;0.8640;
886.8000;0.4819;0.8564;
887.1000;0.4811;0.8564;
887.4000;0.4827;0.8564;
887.7000;0.4811;0.8539;
888.0000;0.4819;0.8514;
888.3000;0.4803;0.8539;
888.6000;0.4851;0.8640;
888.9000;0.4811;0.8614;
889.2000;0.4794;0.8564;
889.5000;0.4811;0.8640;
889.8000;0.4843;0.8640;
890.1000;0.4827;0.8489;
890.4000;0.4811;0.8463;
890.7000;0.4803;0.8463;
891.0000;0.4803;0.8438;
891.3000;0.4811;0.8438;
891.6000;0.4811;0.8489;
891.9000;0.4860;0.8640;
892.2000;0.4827;0.8514;
892.5000;0.4811;0.8463;
892.8000;0.4827;0.8438;
893.1000;0.4819;0.8564;
893.4000;0.4827;0.8589;
893.7000;0.4803;0.8564;
894.0000;0.4811;0.8589;
894.3000;0.4786;0.8564;
894.6000;0.4811;0.8665;
894.9000;0.4811;0.8715;
895.2000;0.4827;0.8665;
895.5000;0.4794;0.8514;
895.8000;0.4803;0.8539;
896.1000;0.4827;0.8589;
896.4000;0.4827;0.8665;
896.7000;0.4851;0.8740;
897.0000;0.4827;0.8614;
897.3000;0.4786;0.8514;
897.6000;0.4819;0.8489;
897.9000;0.4786;0.8463;
898.2000;0.4803;0.8489;
898.5000;0.4835;0.8514;
898.8000;0.4835;0.8589;
899.1000;0.4851;0.8614;
899.4000;0.4819;0.8564;
899.7000;0.4827;0.8614;
900.0000;0.4819;0.8539;
900.3000;0.4835;0.8489;
900.6000;0.4827;0.8463;
900.9000;0.4778;0.8413;
901.2000;0.4851;0.8640;
901.5000;0.4811;0.8539;
901.8000;0.4794;0.8564;
902.1000;0.4819;0.8589;
902.4000;0.4794;0.8514;
902.7000;0.4786;0.8413;
903.0000;0.4835;0.8614;
903.3000;0.4819;0.8489;
903.6000;0.4819;0.8463;
903.9000;0.4917;0.8690;
904.2000;0.4811;0.8363;
904.5000;0.4811;0.8388;
904.8000;0.4794;0.8363;
905.1000;0.4843;0.8539;
905.4000;0.4827;0.8388;
905.7000;0.4819;0.8388;
906.0000;0.4811;0.8363;
906.3000;0.4860;0.8514;
906.6000;0.4827;0.8539;
906.9000;0.4811;0.8413;
907.2000;0.4803;0.8363;
907.5000;0.4827;0.8363;
907.8000;0.4827;0.8312;
908.1000;0.4827;0.8211;
908.4000;0.4762;0.8086;
908.7000;0.4819;0.8262;
909.0000;0.4835;0.8337;
909.3000;0.4884;0.8489;
909.6000;0.4786;0.8312;
909.9000;0.4819;0.8489;
910.2000;0.4827;0.8564;
910.5000;0.4835;0.8539;
910.8000;0.4827;0.8388;
911.1000;0.4803;0.8388;
911.4000;0.4843;0.8564;
911.7000;0.4827;0.8489;
912.0000;0.4803;0.8463;
912.3000;0.4819;0.8413;
912.6000;0.4819;0.8388;
912.9000;0.4819;0.8438;
913.2000;0.4819;0.8489;
913.5000;0.4778;0.8312;
913.8000;0.4827;0.8413;
914.1000;0.4770;0.8312;
914.4000;0.4737;0.8161;
914.7000;0.4786;0.8413;
915.0000;0.4786;0.8388;
915.3000;0.4827;0.8589;
915.6000;0.4794;0.8514;
915.9000;0.4843;0.8715;
916.2000;0.4803;0.8564;
916.5000;0.4762;0.8564;
916.8000;0.4803;0.8640;
917.1000;0.4786;0.8564;
917.4000;0.4811;0.8640;
917.7000;0.4819;0.8690;
918.0000;0.4811;0.8514;
918.3000;0.4827;0.8514;
918.6000;0.4819;0.8463;
918.9000;0.4827;0.8564;
919.2000;0.4835;0.8665;
919.5000;0.4803;0.8665;
919.8000;0.4819;0.8640;
920.1000;0.4803;0.8514;
920.4000;0.4819;0.8564;
920.7000;0.4811;0.8589;
921.0000;0.4819;0.8614;
921.3000;0.4794;0.8614;
921.6000;0.4819;0.8614;
921.9000;0.4811;0.8564;
922.2000;0.4794;0.8514;
922.5000;0.4794;0.8539;
922.8000;0.4803;0.8514;
923.1000;0.4794;0.8463;
923.4000;0.4786;0.8438;
923.7000;0.4811;0.8489;
924.0000;0.4746;0.8363;
924.3000;0.4803;0.8564;
924.6000;0.4794;0.8539;
924.9000;0.4811;0.8514;
925.2000;0.4803;0.8589;
925.5000;0.4811;0.8640;
925.8000;0.4819;0.8564;
926.1000;0.4803;0.8589;
926.4000;0.4786;0.8564;
926.7000;0.4803;0.8564;
927.0000;0.4811;0.8589;
927.3000;0.4843;0.8665;
927.6000;0.4819;0.8614;
927.9000;0.4819;0.8589;
928.2000;0.4827;0.8589;
928.5000;0.4811;0.8614;
928.8000;0.4803;0.8564;
929.1000;0.4794;0.8514;
929.4000;0.4811;0.8514;
929.7000;0.4794;0.8463;
930.0000;0.4794;0.8388;
930.3000;0.4835;0.8539;
930.6000;0.4811;0.8489;
930.9000;0.4803;0.8438;
931.2000;0.4746;0.8287;
931.5000;0.4794;0.8363;
931.8000;0.4803;0.8438;
932.1000;0.4803;0.8438;
932.4000;0.4811;0.8388;
932.7000;0.4794;0.8312;
933.0000;0.4811;0.8363;
933.3000;0.4819;0.8388;
933.6000;0.4803;0.8489;
933.9000;0.4811;0.8489;
934.2000;0.4811;0.8489;
934.5000;0.4827;0.8564;
934.8000;0.4746;0.8337;
935.1000;0.4794;0.8438;
935.4000;0.4786;0.8438;
935.7000;0.4803;0.8438;
936.0000;0.4786;0.8413;
936.3000;0.4778;0.8438;
936.6000;0.4794;0.8438;
936.9000;0.4721;0.8211;
937.2000;0.4827;0.8539;
937.5000;0.4794;0.8388;
937.8000;0.4803;0.8438;
938.1000;0.4835;0.8539;
938.4000;0.4754;0.8363;
938.7000;0.4811;0.8539;
939.0000;0.4794;0.8564;
939.3000;0.4803;0.8539;
939.6000;0.4762;0.8489;
939.9000;0.4811;0.8640;
940.2000;0.4689;0.8463;
940.5000;0.4811;0.8841;
940.8000;0.4851;0.8992;
941.1000;0.4860;0.8992;
941.4000;0.4803;0.8816;
941.7000;0.4794;0.8690;
942.0000;0.4803;0.8589;
942.3000;0.4794;0.8614;
942.6000;0.4770;0.8463;
942.9000;0.4786;0.8463;
943.2000;0.4794;0.8463;
943.5000;0.4794;0.8514;
943.8000;0.4778;0.8489;
944.1000;0.4811;0.8564;
944.4000;0.4803;0.8589;
944.7000;0.4860;0.8791;
945.0000;0.4794;0.8614;
945.3000;0.4786;0.8589;
945.6000;0.4737;0.8438;
945.9000;0.4794;0.8589;
946.2000;0.4794;0.8690;
946.5000;0.4786;0.8665;
946.8000;0.4778;0.8665;
947.1000;0.4811;0.8791;
947.4000;0.4803;0.8791;
947.7000;0.4794;0.8816;
948.0000;0.4794;0.8740;
948.3000;0.4827;0.8715;
948.6000;0.4819;0.8690;
948.9000;0.4819;0.8614;
949.2000;0.4803;0.8614;
949.5000;0.4827;0.8640;
949.8000;0.4811;0.8640;
950.1000;0.4794;0.8539;
950.4000;0.4778;0.8514;
950.7000;0.4794;0.8463;
951.0000;0.4803;0.8438;
951.3000;0.4851;0.8614;
951.6000;0.4778;0.8463;
951.9000;0.4811;0.8589;
952.2000;0.4786;0.8564;
952.5000;0.4803;0.8539;
952.8000;0.4762;0.8388;
953.1000;0.4770;0.8413;
953.4000;0.4811;0.8463;
953.7000;0.4794;0.8337;
954.0000;0.4811;0.8287;
954.3000;0.4794;0.8337;
954.6000;0.4794;0.8413;
954.9000;0.4794;0.8413;
955.2000;0.4819;0.8489;
955.5000;0.4794;0.8489;
955.8000;0.4786;0.8489;
956.1000;0.4786;0.8539;
956.4000;0.4843;0.8715;
956.7000;0.4827;0.8690;
957.0000;0.4803;0.8640;
957.3000;0.4811;0.8640;
957.6000;0.4794;0.8614;
957.9000;0.4811;0.8640;
958.2000;0.4794;0.8539;
958.5000;0.4803;0.8514;
958.8000;0.4794;0.8564;
959.1000;0.4811;0.8614;
959.4000;0.4794;0.8514;
959.7000;0.4786;0.8514;
960.0000;0.4786;0.8489;
960.3000;0.4803;0.8489;
960.6000;0.4794;0.8589;
960.9000;0.4876;0.8740;
961.2000;0.4811;0.8539;
961.5000;0.4794;0.8514;
961.8000;0.4640;0.8035;
962.1000;0.4762;0.8388;
962.4000;0.4778;0.8514;
962.7000;0.4737;0.8388;
963.0000;0.4697;0.8287;
963.3000;0.4762;0.8539;
963.6000;0.4786;0.8564;
963.9000;0.4778;0.8640;
964.2000;0.4811;0.8740;
964.5000;0.4803;0.8715;
964.8000;0.4827;0.8690;
965.1000;0.4794;0.8564;
965.4000;0.4794;0.8564;
965.7000;0.4794;0.8564;
966.0000;0.4786;0.8564;
966.3000;0.4786;0.8564;
966.6000;0.4794;0.8564;
966.9000;0.4811;0.8564;
967.2000;0.4794;0.8514;
967.5000;0.4803;0.8539;
967.8000;0.4794;0.8589;
968.1000;0.4786;0.8564;
968.4000;0.4827;0.8564;
968.7000;0.4803;0.8564;
969.0000;0.4811;0.8514;
969.3000;0.4778;0.8539;
969.6000;0.4819;0.8690;
969.9000;0.4819;0.8715;
970.2000;0.4803;0.8766;
970.5000;0.4803;0.8715;
970.8000;0.4803;0.8740;
971.1000;0.4803;0.8715;
971.4000;0.4819;0.8690;
971.7000;0.4786;0.8665;
972.0000;0.4803;0.8740;
972.3000;0.4803;0.8690;
972.6000;0.4803;0.8690;
972.9000;0.4786;0.8640;
973.2000;0.4786;0.8539;
973.5000;0.4770;0.8514;
973.8000;0.4786;0.8539;
974.1000;0.4737;0.8363;
974.4000;0.4803;0.8564;
974.7000;0.4794;0.8564;
975.0000;0.4778;0.8614;
975.3000;0.4860;0.8841;
975.6000;0.4794;0.8715;
975.9000;0.4803;0.8665;
976.2000;0.4827;0.8690;
976.5000;0.4827;0.8614;
976.8000;0.4811;0.8589;
977.1000;0.4819;0.8614;
977.4000;0.4803;0.8690;
977.7000;0.4737;0.8564;
978.0000;0.4803;0.8690;
978.3000;0.4786;0.8589;
978.6000;0.4721;0.8413;
978.9000;0.4794;0.8589;
979.2000;0.4819;0.8640;
979.5000;0.4811;0.8640;
979.8000;0.4786;0.8539;
980.1000;0.4819;0.8564;
980.4000;0.4843;0.8665;
980.7000;0.4794;0.8614;
981.0000;0.4794;0.8640;
981.3000;0.4729;0.8539;
981.6000;0.4786;0.8665;
981.9000;0.4794;0.8690;
982.2000;0.4786;0.8640;
982.5000;0.4811;0.8640;
982.8000;0.4786;0.8514;
983.1000;0.4827;0.8589;
983.4000;0.4786;0.8514;
983.7000;0.4794;0.8564;
984.0000;0.4786;0.8564;
984.3000;0.4794;0.8589;
984.6000;0.4786;0.8564;
984.9000;0.4786;0.8514;
985.2000;0.4794;0.8589;
985.5000;0.4811;0.8640;
985.8000;0.4754;0.8514;
986.1000;0.4794;0.8539;
986.4000;0.4851;0.8690;
986.7000;0.4811;0.8564;
987.0000;0.4803;0.8514;
987.3000;0.4803;0.8564;
987.6000;0.4778;0.8514;
987.9000;0.4794;0.8589;
988.2000;0.4778;0.8564;
988.5000;0.4770;0.8564;
988.8000;0.4819;0.8640;
989.1000;0.4786;0.8564;
989.4000;0.4762;0.8489;
989.7000;0.4713;0.8312;
990.0000;0.4778;0.8564;
990.3000;0.4794;0.8614;
990.6000;0.4786;0.8614;
990.9000;0.4786;0.8614;
991.2000;0.4794;0.8614;
991.5000;0.4794;0.8640;
991.8000;0.4762;0.8665;
992.1000;0.4786;0.8791;
992.4000;0.4794;0.8766;
992.7000;0.4770;0.8614;
993.0000;0.4778;0.8589;
993.3000;0.4803;0.8665;
993.6000;0.4794;0.8690;
993.9000;0.4827;0.8866;
994.2000;0.4770;0.8791;
994.5000;0.4786;0.8841;
994.8000;0.4778;0.8866;
995.1000;0.4778;0.8816;
995.4000;0.4770;0.8816;
995.7000;0.4794;0.8766;
996.0000;0.4770;0.8740;
996.3000;0.4762;0.8766;
996.6000;0.4778;0.8866;
996.9000;0.4762;0.8791;
997.2000;0.4803;0.8816;
997.5000;0.4770;0.8690;
997.8000;0.4778;0.8715;
998.1000;0.4770;0.8715;
998.4000;0.4762;0.8715;
998.7000;0.4762;0.8816;
999.0000;0.4770;0.8791;
999.3000;0.4770;0.8816;
999.6000;0.4778;0.8766;
999.9000;0.4786;0.8816;
1000.2000;0.4786;0.8766;
1000.5000;0.4786;0.8766;
1000.8000;0.4803;0.8791;
1001.1000;0.4794;0.8841;
1001.4000;0.4786;0.8766;
1001.7000;0.4778;0.8791;
1002.0000;0.4803;0.8791;
1002.3000;0.4803;0.8816;
1002.6000;0.4786;0.8766;
1002.9000;0.4786;0.8791;
1003.2000;0.4794;0.8841;
1003.5000;0.4770;0.8766;
1003.8000;0.4811;0.8841;
1004.1000;0.4762;0.8715;
1004.4000;0.4803;0.8866;
1004.7000;0.4786;0.8715;
1005.0000;0.4786;0.8690;
1005.3000;0.4778;0.8690;
1005.6000;0.4835;0.8866;
1005.9000;0.4827;0.8967;
1006.2000;0.4811;0.8892;
1006.5000;0.4770;0.8816;
1006.8000;0.4794;0.8866;
1007.1000;0.4770;0.8791;
1007.4000;0.4746;0.8665;
1007.7000;0.4786;0.8740;
1008.0000;0.4786;0.8715;
1008.3000;0.4819;0.8766;
1008.6000;0.4778;0.8665;
1008.9000;0.4778;0.8614;
1009.2000;0.4762;0.8564;
1009.5000;0.4746;0.8438;
1009.8000;0.4794;0.8589;
1010.1000;0.4794;0.8539;
1010.4000;0.4811;0.8564;
1010.7000;0.4794;0.8564;
1011.0000;0.4746;0.8514;
1011.3000;0.4835;0.8740;
1011.6000;0.4770;0.8589;
1011.9000;0.4786;0.8690;
1012.2000;0.4794;0.8715;
1012.5000;0.4794;0.8715;
1012.8000;0.4778;0.8614;
1013.1000;0.4770;0.8690;
1013.4000;0.4737;0.8564;
1013.7000;0.4835;0.8791;
1014.0000;0.4778;0.8614;
1014.3000;0.4778;0.8640;
1014.6000;0.4786;0.8665;
1014.9000;0.4770;0.8640;
1015.2000;0.4770;0.8690;
1015.5000;0.4770;0.8665;
1015.8000;0.4803;0.8665;
1016.1000;0.4794;0.8715;
1016.4000;0.4803;0.8791;
1016.7000;0.4778;0.8791;
1017.0000;0.4794;0.8816;
1017.3000;0.4819;0.8917;
1017.6000;0.4786;0.8866;
1017.9000;0.4729;0.8690;
1018.2000;0.4778;0.8791;
1018.5000;0.4794;0.8816;
1018.8000;0.4786;0.8866;
1019.1000;0.4754;0.8791;
1019.4000;0.4811;0.8942;
1019.7000;0.4778;0.8715;
1020.0000;0.4770;0.8589;
1020.3000;0.4786;0.8690;
1020.6000;0.4786;0.8740;
1020.9000;0.4803;0.8766;
1021.2000;0.4803;0.8816;
1021.5000;0.4803;0.8766;
1021.8000;0.4778;0.8690;
1022.1000;0.4786;0.8740;
1022.4000;0.4762;0.8665;
1022.7000;0.4827;0.8791;
1023.0000;0.4786;0.8690;
1023.3000;0.4843;0.8866;
1023.6000;0.4803;0.8614;
1023.9000;0.4778;0.8539;
1024.2000;0.4778;0.8539;
1024.5000;0.4778;0.8438;
1024.8000;0.4794;0.8388;
1025.1000;0.4794;0.8363;
1025.4000;0.4778;0.8287;
1025.7000;0.4794;0.8337;
1026.0000;0.4786;0.8337;
1026.3000;0.4811;0.8337;
1026.6000;0.4778;0.8287;
1026.9000;0.4778;0.8337;
1027.2000;0.4778;0.8388;
1027.5000;0.4794;0.8413;
1027.8000;0.4794;0.8388;
1028.1000;0.4754;0.8312;
1028.4000;0.4778;0.8413;
1028.7000;0.4786;0.8438;
1029.0000;0.4803;0.8489;
1029.3000;0.4689;0.8111;
1029.6000;0.4794;0.8463;
1029.9000;0.4786;0.8388;
1030.2000;0.4770;0.8337;
1030.5000;0.4819;0.8489;
1030.8000;0.4778;0.8413;
1031.1000;0.4803;0.8514;
1031.4000;0.4737;0.8237;
1031.7000;0.4786;0.8413;
1032.0000;0.4778;0.8438;
1032.3000;0.4770;0.8413;
1032.6000;0.4778;0.8514;
1032.9000;0.4770;0.8640;
1033.2000;0.4770;0.8640;
1033.5000;0.4754;0.8614;
1033.8000;0.4778;0.8690;
1034.1000;0.4770;0.8690;
1034.4000;0.4843;0.8866;
1034.7000;0.4770;0.8640;
1035.0000;0.4778;0.8665;
1035.3000;0.4778;0.8715;
1035.6000;0.4786;0.8665;
1035.9000;0.4770;0.8690;
1036.2000;0.4778;0.8614;
1036.5000;0.4770;0.8690;
1036.8000;0.4778;0.8690;
1037.1000;0.4778;0.8640;
1037.4000;0.4794;0.8665;
1037.7000;0.4770;0.8640;
1038.0000;0.4786;0.8715;
1038.3000;0.4786;0.8690;
1038.6000;0.4786;0.8665;
1038.9000;0.4770;0.8589;
1039.2000;0.4778;0.8514;
1039.5000;0.4770;0.8463;
1039.8000;0.4770;0.8514;
1040.1000;0.4794;0.8614;
1040.4000;0.4778;0.8514;
1040.7000;0.4778;0.8463;
1041.0000;0.4778;0.8514;
1041.3000;0.4770;0.8514;
1041.6000;0.4794;0.8640;
1041.9000;0.4811;0.8614;
1042.2000;0.4754;0.8614;
1042.5000;0.4786;0.8690;
1042.8000;0.4770;0.8564;
1043.1000;0.4778;0.8438;
1043.4000;0.4778;0.8413;
1043.7000;0.4786;0.8388;
1044.0000;0.4770;0.8438;
1044.3000;0.4786;0.8463;
1044.6000;0.4794;0.8388;
1044.9000;0.4778;0.8363;
1045.2000;0.4803;0.8438;
1045.5000;0.4794;0.8413;
1045.8000;0.4778;0.8388;
1046.1000;0.4770;0.8413;
1046.4000;0.4819;0.8489;
1046.7000;0.4803;0.8413;
1047.0000;0.4778;0.8388;
1047.3000;0.4770;0.8363;
1047.6000;0.4786;0.8388;
1047.9000;0.4803;0.8489;
1048.2000;0.4778;0.8337;
1048.5000;0.4803;0.8438;
1048.8000;0.4794;0.8514;
1049.1000;0.4811;0.8640;
1049.4000;0.4794;0.8665;
1049.7000;0.4786;0.8640;
1050.0000;0.4754;0.8489;
1050.3000;0.4843;0.8766;
1050.6000;0.4778;0.8564;
1050.9000;0.4786;0.8589;
1051.2000;0.4770;0.8539;
1051.5000;0.4786;0.8564;
1051.8000;0.4786;0.8614;
1052.1000;0.4794;0.8690;
1052.4000;0.4786;0.8564;
1052.7000;0.4770;0.8514;
1053.0000;0.4794;0.8539;
1053.3000;0.4770;0.8463;
1053.6000;0.4803;0.8539;
1053.9000;0.4754;0.8438;
1054.2000;0.4786;0.8489;
1054.5000;0.4786;0.8463;
1054.8000;0.4786;0.8413;
1055.1000;0.4786;0.8463;
1055.4000;0.4786;0.8463;
1055.7000;0.4754;0.8489;
1056.0000;0.4778;0.8463;
1056.3000;0.4770;0.8489;
1056.6000;0.4754;0.8438;
1056.9000;0.4778;0.8539;
1057.2000;0.4803;0.8640;
1057.5000;0.4746;0.8463;
1057.8000;0.4770;0.8614;
1058.1000;0.4819;0.8690;
1058.4000;0.4762;0.8614;
1058.7000;0.4713;0.8388;
1059.0000;0.4746;0.8539;
1059.3000;0.4770;0.8614;
1059.6000;0.4754;0.8489;
1059.9000;0.4762;0.8438;
1060.2000;0.4786;0.8514;
1060.5000;0.4786;0.8438;
1060.8000;0.4762;0.8312;
1061.1000;0.4835;0.8438;
1061.4000;0.4770;0.8287;
1061.7000;0.4762;0.8287;
1062.0000;0.4794;0.8337;
1062.3000;0.4778;0.8262;
1062.6000;0.4778;0.8312;
1062.9000;0.4770;0.8363;
1063.2000;0.4786;0.8438;
1063.5000;0.4754;0.8262;
1063.8000;0.4794;0.8388;
1064.1000;0.4770;0.8287;
1064.4000;0.4786;0.8363;
1064.7000;0.4778;0.8363;
1065.0000;0.4786;0.8463;
1065.3000;0.4778;0.8363;
1065.6000;0.4794;0.8287;
1065.9000;0.4778;0.8287;
1066.2000;0.4786;0.8312;
1066.5000;0.4770;0.8211;
1066.8000;0.4778;0.8237;
1067.1000;0.4778;0.8312;
1067.4000;0.4762;0.8337;
1067.7000;0.4778;0.8337;
1068.0000;0.4794;0.8413;
1068.3000;0.4705;0.8211;
1068.6000;0.4803;0.8363;
1068.9000;0.4737;0.8237;
1069.2000;0.4754;0.8312;
1069.5000;0.4786;0.8388;
1069.8000;0.4778;0.8388;
1070.1000;0.4762;0.8413;
1070.4000;0.4770;0.8489;
1070.7000;0.4770;0.8388;
1071.0000;0.4778;0.8363;
1071.3000;0.4778;0.8489;
1071.6000;0.4754;0.8489;
1071.9000;0.4811;0.8614;
1072.2000;0.4770;0.8514;
1072.5000;0.4794;0.8564;
1072.8000;0.4681;0.8237;
1073.1000;0.4786;0.8489;
1073.4000;0.4770;0.8438;
1073.7000;0.4746;0.8438;
1074.0000;0.4770;0.8489;
1074.3000;0.4786;0.8489;
1074.6000;0.4778;0.8564;
1074.9000;0.4794;0.8539;
1075.2000;0.4786;0.8489;
1075.5000;0.4786;0.8564;
1075.8000;0.4746;0.8614;
1076.1000;0.4778;0.8640;
1076.4000;0.4786;0.8665;
1076.7000;0.4794;0.8589;
1077.0000;0.4778;0.8564;
1077.3000;0.4786;0.8564;
1077.6000;0.4770;0.8489;
1077.9000;0.4778;0.8438;
1078.2000;0.4786;0.8413;
1078.5000;0.4778;0.8413;
1078.8000;0.4786;0.8388;
1079.1000;0.4786;0.8312;
1079.4000;0.4786;0.8337;
1079.7000;0.4770;0.8337;
1080.0000;0.4786;0.8388;
1080.3000;0.4770;0.8337;
1080.6000;0.4737;0.8312;
1080.9000;0.4778;0.8363;
1081.2000;0.4778;0.8337;
1081.5000;0.4778;0.8312;
1081.8000;0.4770;0.8337;
1082.1000;0.4778;0.8388;
1082.4000;0.4786;0.8489;
1082.7000;0.4778;0.8463;
1083.0000;0.4754;0.8489;
1083.3000;0.4778;0.8514;
1083.6000;0.4770;0.8413;
1083.9000;0.4786;0.8438;
1084.2000;0.4762;0.8489;
1084.5000;0.4770;0.8539;
1084.8000;0.4778;0.8564;
1085.1000;0.4770;0.8489;
1085.4000;0.4819;0.8640;
1085.7000;0.4778;0.8463;
1086.0000;0.4770;0.8539;
1086.3000;0.4786;0.8640;
1086.6000;0.4754;0.8539;
1086.9000;0.4746;0.8438;
1087.2000;0.4770;0.8564;
1087.5000;0.4786;0.8589;
1087.8000;0.4705;0.8388;
1088.1000;0.4794;0.8589;
1088.4000;0.4803;0.8665;
1088.7000;0.4762;0.8539;
1089.0000;0.4778;0.8564;
1089.3000;0.4770;0.8589;
1089.6000;0.4762;0.8514;
1089.9000;0.4835;0.8665;
1090.2000;0.4786;0.8489;
1090.5000;0.4754;0.8438;
1090.8000;0.4770;0.8489;
1091.1000;0.4851;0.8740;
1091.4000;0.4794;0.8564;
1091.7000;0.4786;0.8539;
1092.0000;0.4770;0.8614;
1092.3000;0.4843;0.8791;
1092.6000;0.4770;0.8514;
1092.9000;0.4778;0.8489;
1093.2000;0.4762;0.8438;
1093.5000;0.4762;0.8388;
1093.8000;0.4762;0.8413;
1094.1000;0.4770;0.8413;
1094.4000;0.4770;0.8438;
1094.7000;0.4770;0.8438;
1095.0000;0.4770;0.8388;
1095.3000;0.4754;0.8363;
1095.6000;0.4778;0.8489;
1095.9000;0.4794;0.8489;
1096.2000;0.4794;0.8564;
1096.5000;0.4778;0.8514;
1096.8000;0.4778;0.8489;
1097.1000;0.4754;0.8413;
1097.4000;0.4786;0.8463;
1097.7000;0.4860;0.8640;
1098.0000;0.4762;0.8312;
1098.3000;0.4770;0.8337;
1098.6000;0.4762;0.8312;
1098.9000;0.4778;0.8312;
1099.2000;0.4746;0.8312;
1099.5000;0.4762;0.8463;
1099.8000;0.4681;0.8337;
1100.1000;0.4778;0.8589;
1100.4000;0.4770;0.8539;
1100.7000;0.4786;0.8589;
1101.0000;0.4770;0.8489;
1101.3000;0.4762;0.8489;
1101.6000;0.4819;0.8564;
1101.9000;0.4794;0.8463;
1102.2000;0.4778;0.8463;
1102.5000;0.4778;0.8589;
1102.8000;0.4794;0.8539;
1103.1000;0.4778;0.8438;
1103.4000;0.4786;0.8388;
1103.7000;0.4778;0.8388;
1104.0000;0.4786;0.8388;
1104.3000;0.4746;0.8312;
1104.6000;0.4778;0.8413;
1104.9000;0.4762;0.8413;
1105.2000;0.4778;0.8438;
1105.5000;0.4803;0.8589;
1105.8000;0.4754;0.8438;
1106.1000;0.4762;0.8337;
1106.4000;0.4786;0.8337;
1106.7000;0.4770;0.8287;
1107.0000;0.4770;0.8287;
1107.3000;0.4762;0.8337;
1107.6000;0.4778;0.8413;
1107.9000;0.4794;0.8514;
1108.2000;0.4794;0.8489;
1108.5000;0.4794;0.8388;
1108.8000;0.4778;0.8438;
1109.1000;0.4778;0.8514;
1109.4000;0.4770;0.8564;
1109.7000;0.4770;0.8614;
1110.0000;0.4786;0.8740;
1110.3000;0.4762;0.8640;
1110.6000;0.4786;0.8665;
1110.9000;0.4786;0.8640;
1111.2000;0.4786;0.8539;
1111.5000;0.4811;0.8589;
1111.8000;0.4778;0.8463;
1112.1000;0.4746;0.8312;
1112.4000;0.4737;0.8363;
1112.7000;0.4770;0.8438;
1113.0000;0.4819;0.8589;
1113.3000;0.4770;0.8363;
1113.6000;0.4754;0.8413;
1113.9000;0.4721;0.8312;
1114.2000;0.4762;0.8337;
1114.5000;0.4778;0.8463;
1114.8000;0.4762;0.8438;
1115.1000;0.4778;0.8463;
1115.4000;0.4762;0.8438;
1115.7000;0.4770;0.8514;
1116.0000;0.4811;0.8539;
1116.3000;0.4762;0.8463;
1116.6000;0.4835;0.8614;
1116.9000;0.4843;0.8690;
1117.2000;0.4770;0.8489;
1117.5000;0.4786;0.8514;
1117.8000;0.4786;0.8564;
1118.1000;0.4786;0.8564;
1118.4000;0.4762;0.8438;
1118.7000;0.4778;0.8438;
1119.0000;0.4786;0.8463;
1119.3000;0.4778;0.8413;
1119.6000;0.4770;0.8413;
1119.9000;0.4770;0.8539;
1120.2000;0.4786;0.8539;
1120.5000;0.4770;0.8514;
1120.8000;0.4770;0.8489;
1121.1000;0.4737;0.8312;
1121.4000;0.4762;0.8413;
1121.7000;0.4794;0.8514;
1122.0000;0.4786;0.8489;
1122.3000;0.4811;0.8589;
1122.6000;0.4737;0.8388;
1122.9000;0.4794;0.8438;
1123.2000;0.4811;0.8413;
1123.5000;0.4762;0.8237;
1123.8000;0.4770;0.8262;
1124.1000;0.4786;0.8287;
1124.4000;0.4835;0.8489;
1124.7000;0.4754;0.8363;
1125.0000;0.4754;0.8287;
1125.3000;0.4778;0.8237;
1125.6000;0.4794;0.8186;
1125.9000;0.4762;0.8060;
1126.2000;0.4721;0.8086;
1126.5000;0.4746;0.8211;
1126.8000;0.4786;0.8287;
1127.1000;0.4762;0.8211;
1127.4000;0.4827;0.8438;
1127.7000;0.4762;0.8312;
1128.0000;0.4754;0.8211;
1128.3000;0.4762;0.8186;
1128.6000;0.4778;0.8161;
1128.9000;0.4737;0.8186;
1129.2000;0.4770;0.8312;
1129.5000;0.4876;0.8614;
1129.8000;0.4786;0.8337;
1130.1000;0.4762;0.8337;
1130.4000;0.4778;0.8388;
1130.7000;0.4770;0.8438;
1131.0000;0.4762;0.8438;
1131.3000;0.4762;0.8514;
1131.6000;0.4770;0.8438;
1131.9000;0.4770;0.8438;
1132.2000;0.4754;0.8363;
1132.5000;0.4770;0.8489;
1132.8000;0.4770;0.8489;
1133.1000;0.4778;0.8564;
1133.4000;0.4803;0.8640;
1133.7000;0.4721;0.8413;
1134.0000;0.4770;0.8514;
1134.3000;0.4778;0.8564;
1134.6000;0.4778;0.8438;
1134.9000;0.4778;0.8489;
1135.2000;0.4786;0.8514;
1135.5000;0.4786;0.8539;
1135.8000;0.4705;0.8312;
1136.1000;0.4778;0.8564;
1136.4000;0.4737;0.8514;
1136.7000;0.4762;0.8564;
1137.0000;0.4754;0.8413;
1137.3000;0.4713;0.8363;
1137.6000;0.4762;0.8589;
1137.9000;0.4737;0.8514;
1138.2000;0.4770;0.8489;
1138.5000;0.4770;0.8489;
1138.8000;0.4762;0.8514;
1139.1000;0.4762;0.8514;
1139.4000;0.4746;0.8438;
1139.7000;0.4770;0.8463;
1140.0000;0.4746;0.8438;
1140.3000;0.4811;0.8640;
1140.6000;0.4811;0.8564;
1140.9000;0.4746;0.8413;
1141.2000;0.4762;0.8388;
1141.5000;0.4746;0.8337;
1141.8000;0.4746;0.8388;
1142.1000;0.4770;0.8413;
1142.4000;0.4803;0.8463;
1142.7000;0.4778;0.8312;
1143.0000;0.4778;0.8363;
1143.3000;0.4770;0.8287;
1143.6000;0.4762;0.8237;
1143.9000;0.4778;0.8262;
1144.2000;0.4770;0.8312;
1144.5000;0.4778;0.8489;
1144.8000;0.4754;0.8438;
1145.1000;0.4729;0.8489;
1145.4000;0.4770;0.8564;
1145.7000;0.4770;0.8413;
1146.0000;0.4786;0.8539;
1146.3000;0.4803;0.8564;
1146.6000;0.4778;0.8489;
1146.9000;0.4762;0.8514;
1147.2000;0.4778;0.8589;
1147.5000;0.4746;0.8489;
1147.8000;0.4778;0.8514;
1148.1000;0.4794;0.8589;
1148.4000;0.4778;0.8438;
1148.7000;0.4770;0.8489;
1149.0000;0.4770;0.8413;
1149.3000;0.4860;0.8614;
1149.6000;0.4819;0.8539;
1149.9000;0.4754;0.8312;
1150.2000;0.4746;0.8413;
1150.5000;0.4754;0.8388;
1150.8000;0.4770;0.8489;
1151.1000;0.4778;0.8589;
1151.4000;0.4762;0.8463;
1151.7000;0.4729;0.8463;
1152.0000;0.4762;0.8514;
1152.3000;0.4778;0.8564;
1152.6000;0.4786;0.8514;
1152.9000;0.4770;0.8514;
1153.2000;0.4746;0.8413;
1153.5000;0.4778;0.8514;
1153.8000;0.4778;0.8463;
1154.1000;0.4770;0.8413;
1154.4000;0.4770;0.8312;
1154.7000;0.4778;0.8388;
1155.0000;0.4770;0.8413;
1155.3000;0.4770;0.8438;
1155.6000;0.4746;0.8388;
1155.9000;0.4762;0.8312;
1156.2000;0.4737;0.8262;
1156.5000;0.4754;0.8388;
1156.8000;0.4746;0.8438;
1157.1000;0.4762;0.8438;
1157.4000;0.4794;0.8489;
1157.7000;0.4811;0.8539;
1158.0000;0.4770;0.8388;
1158.3000;0.4786;0.8438;
1158.6000;0.4786;0.8463;
1158.9000;0.4811;0.8564;
1159.2000;0.4762;0.8363;
1159.5000;0.4778;0.8388;
1159.8000;0.4778;0.8438;
1160.1000;0.4786;0.8438;
1160.4000;0.4770;0.8388;
1160.7000;0.4794;0.8413;
1161.0000;0.4754;0.8363;
1161.3000;0.4754;0.8413;
1161.6000;0.4762;0.8413;
1161.9000;0.4786;0.8438;
1162.2000;0.4672;0.8211;
1162.5000;0.4778;0.8514;
1162.8000;0.4746;0.8539;
1163.1000;0.4778;0.8564;
1163.4000;0.4754;0.8564;
1163.7000;0.4705;0.8388;
1164.0000;0.4729;0.8489;
1164.3000;0.4762;0.8489;
1164.6000;0.4770;0.8489;
1164.9000;0.4770;0.8489;
1165.2000;0.4762;0.8463;
1165.5000;0.4754;0.8388;
1165.8000;0.4746;0.8388;
1166.1000;0.4770;0.8363;
1166.4000;0.4754;0.8262;
1166.7000;0.4721;0.8186;
1167.0000;0.4778;0.8337;
1167.3000;0.4762;0.8262;
1167.6000;0.4770;0.8363;
1167.9000;0.4778;0.8363;
1168.2000;0.4770;0.8337;
1168.5000;0.4770;0.8363;
1168.8000;0.4770;0.8363;
1169.1000;0.4770;0.8438;
1169.4000;0.4762;0.8363;
1169.7000;0.4754;0.8413;
1170.0000;0.4770;0.8539;
1170.3000;0.4770;0.8564;
1170.6000;0.4770;0.8489;
1170.9000;0.4770;0.8463;
1171.2000;0.4770;0.8413;
1171.5000;0.4778;0.8413;
1171.8000;0.4778;0.8337;
1172.1000;0.4762;0.8363;
1172.4000;0.4770;0.8287;
1172.7000;0.4770;0.8388;
1173.0000;0.4770;0.8363;
1173.3000;0.4786;0.8438;
1173.6000;0.4778;0.8438;
1173.9000;0.4770;0.8363;
1174.2000;0.4770;0.8312;
1174.5000;0.4778;0.8363;
1174.8000;0.4762;0.8363;
1175.1000;0.4770;0.8337;
1175.4000;0.4762;0.8312;
1175.7000;0.4770;0.8312;
1176.0000;0.4762;0.8312;
1176.3000;0.4778;0.8363;
1176.6000;0.4754;0.8262;
1176.9000;0.4762;0.8237;
1177.2000;0.4746;0.8161;
1177.5000;0.4770;0.8262;
1177.8000;0.4786;0.8438;
1178.1000;0.4794;0.8438;
1178.4000;0.4778;0.8388;
1178.7000;0.4794;0.8363;
1179.0000;0.4794;0.8388;
1179.3000;0.4786;0.8463;
1179.6000;0.4778;0.8438;
1179.9000;0.4770;0.8514;
1180.2000;0.4794;0.8489;
1180.5000;0.4786;0.8489;
1180.8000;0.4770;0.8438;
1181.1000;0.4762;0.8438;
1181.4000;0.4770;0.8463;
1181.7000;0.4770;0.8489;
1182.0000;0.4762;0.8514;
1182.3000;0.4770;0.8463;
1182.6000;0.4762;0.8489;
1182.9000;0.4786;0.8589;
1183.2000;0.4754;0.8413;
1183.5000;0.4762;0.8363;
1183.8000;0.4754;0.8388;
1184.1000;0.4778;0.8363;
1184.4000;0.4819;0.8514;
1184.7000;0.4762;0.8413;
1185.0000;0.4754;0.8514;
1185.3000;0.4778;0.8514;
1185.6000;0.4770;0.8413;
1185.9000;0.4770;0.8413;
1186.2000;0.4713;0.8388;
1186.5000;0.4762;0.8514;
1186.8000;0.4770;0.8589;
1187.1000;0.4778;0.8539;
1187.4000;0.4770;0.8514;
1187.7000;0.4770;0.8514;
1188.0000;0.4770;0.8539;
1188.3000;0.4770;0.8514;
1188.6000;0.4762;0.8489;
1188.9000;0.4770;0.8564;
1189.2000;0.4770;0.8589;
1189.5000;0.4794;0.8715;
1189.8000;0.4762;0.8640;
1190.1000;0.4778;0.8614;
1190.4000;0.4794;0.8690;
1190.7000;0.4794;0.8740;
1191.0000;0.4754;0.8614;
1191.3000;0.4778;0.8640;
1191.6000;0.4778;0.8665;
1191.9000;0.4778;0.8665;
1192.2000;0.4778;0.8715;
1192.5000;0.4770;0.8740;
1192.8000;0.4794;0.8791;
1193.1000;0.4786;0.8715;
1193.4000;0.4737;0.8489;
1193.7000;0.4729;0.8438;
1194.0000;0.4770;0.8589;
1194.3000;0.4762;0.8539;
1194.6000;0.4746;0.8564;
1194.9000;0.4762;0.8564;
1195.2000;0.4794;0.8640;
1195.5000;0.4729;0.8564;
1195.8000;0.4770;0.8614;
1196.1000;0.4786;0.8564;
1196.4000;0.4729;0.8489;
1196.7000;0.4778;0.8564;
1197.0000;0.4794;0.8564;
1197.3000;0.4770;0.8489;
1197.6000;0.4762;0.8489;
1197.9000;0.4778;0.8564;
1198.2000;0.4778;0.8539;
1198.5000;0.4754;0.8438;
1198.8000;0.4746;0.8438;
1199.1000;0.4754;0.8514;
1199.4000;0.4794;0.8614;
1199.7000;0.4778;0.8614;
1200.0000;0.4762;0.8614;
1200.3000;0.4737;0.8564;
1200.6000;0.4770;0.8564;
1200.9000;0.4762;0.8514;
1201.2000;0.4770;0.8438;
1201.5000;0.4754;0.8388;
1201.8000;0.4746;0.8388;
1202.1000;0.4754;0.8413;
1202.4000;0.4762;0.8438;
1202.7000;0.4754;0.8463;
1203.0000;0.4746;0.8413;
1203.3000;0.4770;0.8413;
1203.6000;0.4778;0.8388;
1203.9000;0.4803;0.8463;
1204.2000;0.4786;0.8463;
1204.5000;0.4827;0.8589;
1204.8000;0.4778;0.8463;
1205.1000;0.4778;0.8438;
1205.4000;0.4746;0.8312;
1205.7000;0.4778;0.8312;
1206.0000;0.4770;0.8287;
1206.3000;0.4811;0.8388;
1206.6000;0.4713;0.8060;
1206.9000;0.4721;0.8161;
1207.2000;0.4778;0.8363;
1207.5000;0.4778;0.8438;
1207.8000;0.4794;0.8514;
1208.1000;0.4860;0.8614;
1208.4000;0.4770;0.8287;
1208.7000;0.4754;0.8312;
1209.0000;0.4746;0.8312;
1209.3000;0.4713;0.8262;
1209.6000;0.4754;0.8363;
1209.9000;0.4770;0.8388;
1210.2000;0.4689;0.8211;
1210.5000;0.4762;0.8463;
1210.8000;0.4762;0.8564;
1211.1000;0.4778;0.8640;
1211.4000;0.4754;0.8539;
1211.7000;0.4762;0.8539;
1212.0000;0.4697;0.8262;
1212.3000;0.4754;0.8463;
1212.6000;0.4778;0.8463;
1212.9000;0.4762;0.8388;
1213.2000;0.4770;0.8463;
1213.5000;0.4778;0.8539;
1213.8000;0.4778;0.8589;
1214.1000;0.4778;0.8614;
1214.4000;0.4770;0.8614;
1214.7000;0.4770;0.8640;
1215.0000;0.4770;0.8715;
1215.3000;0.4786;0.8690;
1215.6000;0.4762;0.8589;
1215.9000;0.4778;0.8589;
1216.2000;0.4762;0.8438;
1216.5000;0.4762;0.8312;
1216.8000;0.4721;0.8287;
1217.1000;0.4770;0.8514;
1217.4000;0.4762;0.8589;
1217.7000;0.4778;0.8614;
1218.0000;0.4762;0.8539;
1218.3000;0.4729;0.8413;
1218.6000;0.4778;0.8564;
1218.9000;0.4778;0.8589;
1219.2000;0.4778;0.8640;
1219.5000;0.4794;0.8766;
1219.8000;0.4737;0.8564;
1220.1000;0.4762;0.8589;
1220.4000;0.4681;0.8237;
1220.7000;0.4737;0.8438;
1221.0000;0.4762;0.8539;
1221.3000;0.4762;0.8539;
1221.6000;0.4689;0.8337;
1221.9000;0.4737;0.8640;
1222.2000;0.4770;0.8640;
1222.5000;0.4770;0.8640;
1222.8000;0.4786;0.8665;
1223.1000;0.4794;0.8766;
1223.4000;0.4770;0.8690;
1223.7000;0.4778;0.8715;
1224.0000;0.4786;0.8766;
1224.3000;0.4811;0.8740;
1224.6000;0.4786;0.8715;
1224.9000;0.4770;0.8740;
1225.2000;0.4778;0.8690;
1225.5000;0.4786;0.8690;
1225.8000;0.4770;0.8665;
1226.1000;0.4778;0.8766;
1226.4000;0.4786;0.8614;
1226.7000;0.4770;0.8589;
1227.0000;0.4770;0.8589;
1227.3000;0.4770;0.8589;
1227.6000;0.4786;0.8539;
1227.9000;0.4778;0.8514;
1228.2000;0.4762;0.8438;
1228.5000;0.4778;0.8463;
1228.8000;0.4778;0.8514;
1229.1000;0.4770;0.8489;
1229.4000;0.4778;0.8438;
1229.7000;0.4770;0.8312;
1230.0000;0.4770;0.8237;
1230.3000;0.4762;0.8262;
1230.6000;0.4746;0.8262;
1230.9000;0.4697;0.8111;
1231.2000;0.4754;0.8237;
1231.5000;0.4778;0.8312;
1231.8000;0.4778;0.8363;
1232.1000;0.4803;0.8489;
1232.4000;0.4729;0.8337;
1232.7000;0.4754;0.8463;
1233.0000;0.4762;0.8539;
1233.3000;0.4754;0.8514;
1233.6000;0.4778;0.8564;
1233.9000;0.4770;0.8715;
1234.2000;0.4770;0.8740;
1234.5000;0.4737;0.8715;
1234.8000;0.4803;0.8866;
1235.1000;0.4762;0.8740;
1235.4000;0.4762;0.8740;
1235.7000;0.4754;0.8740;
1236.0000;0.4762;0.8791;
1236.3000;0.4786;0.8766;
1236.6000;0.4786;0.8766;
1236.9000;0.4770;0.8816;
1237.2000;0.4770;0.8766;
1237.5000;0.4770;0.8614;
1237.8000;0.4819;0.8740;
1238.1000;0.4746;0.8514;
1238.4000;0.4786;0.8589;
1238.7000;0.4811;0.8564;
1239.0000;0.4778;0.8438;
1239.3000;0.4794;0.8539;
1239.6000;0.4803;0.8539;
1239.9000;0.4762;0.8388;
1240.2000;0.4770;0.8489;
1240.5000;0.4778;0.8589;
1240.8000;0.4762;0.8539;
1241.1000;0.4729;0.8413;
1241.4000;0.4762;0.8539;
1241.7000;0.4770;0.8539;
1242.0000;0.4762;0.8539;
1242.3000;0.4762;0.8463;
1242.6000;0.4754;0.8489;
1242.9000;0.4770;0.8564;
1243.2000;0.4737;0.8539;
1243.5000;0.4721;0.8514;
1243.8000;0.4754;0.8640;
1244.1000;0.4770;0.8715;
1244.4000;0.4754;0.8740;
1244.7000;0.4770;0.8740;
1245.0000;0.4762;0.8715;
1245.3000;0.4770;0.8614;
1245.6000;0.4819;0.8690;
1245.9000;0.4762;0.8514;
1246.2000;0.4746;0.8463;
1246.5000;0.4786;0.8514;
1246.8000;0.4754;0.8413;
1247.1000;0.4770;0.8514;
1247.4000;0.4737;0.8438;
1247.7000;0.4762;0.8489;
1248.0000;0.4754;0.8489;
1248.3000;0.4762;0.8514;
1248.6000;0.4746;0.8489;
1248.9000;0.4770;0.8589;
1249.2000;0.4762;0.8564;
1249.5000;0.4770;0.8614;
1249.8000;0.4737;0.8489;
1250.1000;0.4770;0.8489;
1250.4000;0.4770;0.8514;
1250.7000;0.4770;0.8489;
1251.0000;0.4770;0.8489;
1251.3000;0.4762;0.8489;
1251.6000;0.4803;0.8614;
1251.9000;0.4762;0.8539;
1252.2000;0.4786;0.8514;
1252.5000;0.4762;0.8413;
1252.8000;0.4754;0.8413;
1253.1000;0.4754;0.8413;
1253.4000;0.4778;0.8388;
1253.7000;0.4794;0.8564;
1254.0000;0.4754;0.8463;
1254.3000;0.4762;0.8413;
1254.6000;0.4754;0.8413;
1254.9000;0.4762;0.8388;
1255.2000;0.4721;0.8262;
1255.5000;0.4721;0.8262;
1255.8000;0.4737;0.8337;
1256.1000;0.4762;0.8337;
1256.4000;0.4697;0.8186;
1256.7000;0.4770;0.8388;
1257.0000;0.4770;0.8388;
1257.3000;0.4762;0.8363;
1257.6000;0.4754;0.8388;
1257.9000;0.4746;0.8413;
1258.2000;0.4762;0.8363;
1258.5000;0.4713;0.8337;
1258.8000;0.4713;0.8262;
1259.1000;0.4737;0.8337;
1259.4000;0.4803;0.8539;
1259.7000;0.4786;0.8539;
1260.0000;0.4770;0.8589;
1260.3000;0.4762;0.8589;
1260.6000;0.4794;0.8690;
1260.9000;0.4770;0.8665;
1261.2000;0.4754;0.8640;
1261.5000;0.4754;0.8589;
1261.8000;0.4762;0.8640;
1262.1000;0.4770;0.8665;
1262.4000;0.4762;0.8489;
1262.7000;0.4770;0.8539;
1263.0000;0.4778;0.8614;
1263.3000;0.4794;0.8614;
1263.6000;0.4778;0.8438;
1263.9000;0.4770;0.8438;
1264.2000;0.4778;0.8438;
1264.5000;0.4770;0.8438;
1264.8000;0.4770;0.8413;
1265.1000;0.4786;0.8489;
1265.4000;0.4746;0.8413;
1265.7000;0.4786;0.8514;
1266.0000;0.4794;0.8489;
1266.3000;0.4721;0.8186;
1266.6000;0.4762;0.8337;
1266.9000;0.4762;0.8388;
1267.2000;0.4754;0.8388;
1267.5000;0.4770;0.8337;
1267.8000;0.4762;0.8312;
1268.1000;0.4713;0.8186;
1268.4000;0.4754;0.8312;
1268.7000;0.4746;0.8211;
1269.0000;0.4737;0.8211;
1269.3000;0.4811;0.8489;
1269.6000;0.4786;0.8413;
1269.9000;0.4770;0.8363;
1270.2000;0.4746;0.8413;
1270.5000;0.4746;0.8438;
1270.8000;0.4778;0.8589;
1271.1000;0.4778;0.8640;
1271.4000;0.4746;0.8539;
1271.7000;0.4786;0.8614;
1272.0000;0.4754;0.8589;
1272.3000;0.4770;0.8514;
1272.6000;0.4770;0.8438;
1272.9000;0.4778;0.8337;
1273.2000;0.4762;0.8312;
1273.5000;0.4786;0.8363;
1273.8000;0.4778;0.8388;
1274.1000;0.4770;0.8413;
1274.4000;0.4778;0.8463;
1274.7000;0.4794;0.8489;
1275.0000;0.4794;0.8489;
1275.3000;0.4754;0.8388;
1275.6000;0.4762;0.8438;
1275.9000;0.4778;0.8489;
1276.2000;0.4786;0.8614;
1276.5000;0.4778;0.8489;
1276.8000;0.4770;0.8388;
1277.1000;0.4778;0.8463;
1277.4000;0.4689;0.8111;
1277.7000;0.4778;0.8287;
1278.0000;0.4762;0.8312;
1278.3000;0.4746;0.8337;
1278.6000;0.4754;0.8337;
1278.9000;0.4762;0.8438;
1279.2000;0.4762;0.8489;
1279.5000;0.4794;0.8640;
1279.8000;0.4754;0.8463;
1280.1000;0.4770;0.8463;
1280.4000;0.4835;0.8640;
1280.7000;0.4746;0.8363;
1281.0000;0.4786;0.8388;
1281.3000;0.4746;0.8363;
1281.6000;0.4770;0.8438;
1281.9000;0.4737;0.8413;
1282.2000;0.4770;0.8489;
1282.5000;0.4721;0.8438;
1282.8000;0.4762;0.8463;
1283.1000;0.4754;0.8413;
1283.4000;0.4754;0.8438;
1283.7000;0.4778;0.8539;
1284.0000;0.4786;0.8463;
1284.3000;0.4746;0.8237;
1284.6000;0.4746;0.8337;
1284.9000;0.4778;0.8413;
1285.2000;0.4770;0.8413;
1285.5000;0.4803;0.8463;
1285.8000;0.4762;0.8337;
1286.1000;0.4778;0.8413;
1286.4000;0.4778;0.8312;
1286.7000;0.4770;0.8312;
1287.0000;0.4762;0.8337;
1287.3000;0.4778;0.8363;
1287.6000;0.4778;0.8237;
1287.9000;0.4770;0.8186;
1288.2000;0.4762;0.8237;
1288.5000;0.4770;0.8237;
1288.8000;0.4770;0.8237;
1289.1000;0.4770;0.8136;
1289.4000;0.4762;0.8211;
1289.7000;0.4721;0.8161;
1290.0000;0.4770;0.8211;
1290.3000;0.4778;0.8262;
1290.6000;0.4721;0.8060;
1290.9000;0.4770;0.8262;
1291.2000;0.4681;0.8060;
1291.5000;0.4746;0.8287;
1291.8000;0.4754;0.8211;
1292.1000;0.4811;0.8287;
1292.4000;0.4778;0.8211;
1292.7000;0.4762;0.8237;
1293.0000;0.4762;0.8337;
1293.3000;0.4762;0.8287;
1293.6000;0.4811;0.8337;
1293.9000;0.4762;0.8237;
1294.2000;0.4762;0.8312;
1294.5000;0.4762;0.8237;
1294.8000;0.4770;0.8312;
1295.1000;0.4786;0.8312;
1295.4000;0.4762;0.8287;
1295.7000;0.4843;0.8589;
1296.0000;0.4754;0.8312;
1296.3000;0.4778;0.8287;
1296.6000;0.4786;0.8438;
1296.9000;0.4681;0.8211;
1297.2000;0.4778;0.8514;
1297.5000;0.4705;0.8337;
1297.8000;0.4737;0.8337;
1298.1000;0.4754;0.8363;
1298.4000;0.4794;0.8413;
1298.7000;0.4794;0.8413;
1299.0000;0.4762;0.8337;
1299.3000;0.4770;0.8312;
1299.6000;0.4754;0.8186;
1299.9000;0.4770;0.8237;
1300.2000;0.4762;0.8237;
1300.5000;0.4770;0.8186;
1300.8000;0.4762;0.8237;
1301.1000;0.4754;0.8287;
1301.4000;0.4762;0.8388;
1301.7000;0.4778;0.8463;
1302.0000;0.4762;0.8463;
1302.3000;0.4697;0.8312;
1302.6000;0.4729;0.8438;
1302.9000;0.4746;0.8614;
1303.2000;0.4811;0.8766;
1303.5000;0.4754;0.8589;
1303.8000;0.4754;0.8564;
1304.1000;0.4762;0.8589;
1304.4000;0.4770;0.8589;
1304.7000;0.4754;0.8564;
1305.0000;0.4770;0.8640;
1305.3000;0.4786;0.8740;
1305.6000;0.4762;0.8740;
1305.9000;0.4729;0.8614;
1306.2000;0.4778;0.8715;
1306.5000;0.4794;0.8715;
1306.8000;0.4770;0.8614;
1307.1000;0.4770;0.8514;
1307.4000;0.4754;0.8489;
1307.7000;0.4778;0.8413;
1308.0000;0.4770;0.8489;
1308.3000;0.4778;0.8438;
1308.6000;0.4778;0.8463;
1308.9000;0.4778;0.8463;
1309.2000;0.4778;0.8438;
1309.5000;0.4762;0.8312;
1309.8000;0.4770;0.8262;
1310.1000;0.4762;0.8211;
1310.4000;0.4778;0.8312;
1310.7000;0.4794;0.8337;
1311.0000;0.4762;0.8287;
1311.3000;0.4762;0.8262;
1311.6000;0.4794;0.8363;
1311.9000;0.4778;0.8312;
1312.2000;0.4762;0.8337;
1312.5000;0.4770;0.8388;
1312.8000;0.4754;0.8237;
1313.1000;0.4770;0.8136;
1313.4000;0.4770;0.8060;
1313.7000;0.4737;0.7960;
1314.0000;0.4762;0.8035;
1314.3000;0.4770;0.8161;
1314.6000;0.4786;0.8186;
1314.9000;0.4754;0.8161;
1315.2000;0.4754;0.8161;
1315.5000;0.4729;0.8136;
1315.8000;0.4770;0.8312;
1316.1000;0.4778;0.8312;
1316.4000;0.4770;0.8287;
1316.7000;0.4754;0.8337;
1317.0000;0.4762;0.8312;
1317.3000;0.4729;0.8262;
1317.6000;0.4762;0.8312;
1317.9000;0.4762;0.8337;
1318.2000;0.4762;0.8363;
1318.5000;0.4762;0.8388;
1318.8000;0.4786;0.8514;
1319.1000;0.4762;0.8463;
1319.4000;0.4770;0.8388;
1319.7000;0.4770;0.8337;
1320.0000;0.4770;0.8262;
1320.3000;0.4778;0.8262;
1320.6000;0.4770;0.8312;
1320.9000;0.4778;0.8363;
1321.2000;0.4754;0.8312;
1321.5000;0.4754;0.8388;
1321.8000;0.4778;0.8463;
1322.1000;0.4786;0.8438;
1322.4000;0.4754;0.8514;
1322.7000;0.4754;0.8438;
1323.0000;0.4770;0.8438;
1323.3000;0.4762;0.8312;
1323.6000;0.4754;0.8186;
1323.9000;0.4746;0.8136;
1324.2000;0.4803;0.8262;
1324.5000;0.4778;0.8262;
1324.8000;0.4729;0.8211;
1325.1000;0.4770;0.8337;
1325.4000;0.4794;0.8413;
1325.7000;0.4737;0.8337;
1326.0000;0.4786;0.8539;
1326.3000;0.4762;0.8463;
1326.6000;0.4754;0.8413;
1326.9000;0.4729;0.8287;
1327.2000;0.4770;0.8413;
1327.5000;0.4754;0.8388;
1327.8000;0.4778;0.8363;
1328.1000;0.4770;0.8337;
1328.4000;0.4778;0.8312;
1328.7000;0.4786;0.8237;
1329.0000;0.4762;0.8161;
1329.3000;0.4770;0.8136;
1329.6000;0.4762;0.8262;
1329.9000;0.4770;0.8413;
1330.2000;0.4762;0.8514;
1330.5000;0.4762;0.8413;
1330.8000;0.4778;0.8589;
1331.1000;0.4778;0.8614;
1331.4000;0.4770;0.8589;
1331.7000;0.4762;0.8514;
1332.0000;0.4786;0.8564;
1332.3000;0.4778;0.8665;
1332.6000;0.4770;0.8589;
1332.9000;0.4762;0.8413;
1333.2000;0.4770;0.8413;
1333.5000;0.4770;0.8363;
1333.8000;0.4754;0.8312;
1334.1000;0.4770;0.8438;
1334.4000;0.4762;0.8463;
1334.7000;0.4762;0.8514;
1335.0000;0.4770;0.8564;
1335.3000;0.4737;0.8363;
1335.6000;0.4778;0.8413;
1335.9000;0.4770;0.8388;
1336.2000;0.4786;0.8463;
1336.5000;0.4786;0.8388;
1336.8000;0.4762;0.8312;
1337.1000;0.4762;0.8337;
1337.4000;0.4746;0.8312;
1337.7000;0.4770;0.8287;
1338.0000;0.4770;0.8287;
1338.3000;0.4762;0.8287;
1338.6000;0.4762;0.8363;
1338.9000;0.4754;0.8388;
1339.2000;0.4754;0.8363;
1339.5000;0.4803;0.8438;
1339.8000;0.4770;0.8312;
1340.1000;0.4762;0.8438;
1340.4000;0.4754;0.8363;
1340.7000;0.4786;0.8463;
1341.0000;0.4754;0.8363;
1341.3000;0.4762;0.8337;
1341.6000;0.4721;0.8262;
1341.9000;0.4778;0.8413;
1342.2000;0.4770;0.8463;
1342.5000;0.4754;0.8413;
1342.8000;0.4770;0.8388;
1343.1000;0.4762;0.8413;
1343.4000;0.4778;0.8438;
1343.7000;0.4778;0.8463;
1344.0000;0.4762;0.8337;
1344.3000;0.4770;0.8287;
1344.6000;0.4770;0.8237;
1344.9000;0.4762;0.8237;
1345.2000;0.4746;0.8111;
1345.5000;0.4762;0.8111;
1345.8000;0.4762;0.8136;
1346.1000;0.4778;0.8211;
1346.4000;0.4770;0.8262;
1346.7000;0.4770;0.8262;
1347.0000;0.4762;0.8237;
1347.3000;0.4786;0.8363;
1347.6000;0.4778;0.8262;
1347.9000;0.4770;0.8186;
1348.2000;0.4729;0.8086;
1348.5000;0.4803;0.8287;
1348.8000;0.4770;0.8237;
1349.1000;0.4770;0.8237;
1349.4000;0.4754;0.8262;
1349.7000;0.4770;0.8287;
1350.0000;0.4762;0.8287;
1350.3000;0.4729;0.8161;
1350.6000;0.4794;0.8363;
1350.9000;0.4762;0.8363;
1351.2000;0.4770;0.8438;
1351.5000;0.4770;0.8489;
1351.8000;0.4778;0.8564;
1352.1000;0.4754;0.8589;
1352.4000;0.4754;0.8438;
1352.7000;0.4762;0.8413;
1353.0000;0.4705;0.8337;
1353.3000;0.4737;0.8438;
1353.6000;0.4746;0.8514;
1353.9000;0.4689;0.8287;
1354.2000;0.4737;0.8438;
1354.5000;0.4746;0.8438;
1354.8000;0.4762;0.8489;
1355.1000;0.4778;0.8514;
1355.4000;0.4770;0.8489;
1355.7000;0.4778;0.8514;
1356.0000;0.4770;0.8489;
1356.3000;0.4778;0.8539;
1356.6000;0.4754;0.8489;
1356.9000;0.4778;0.8589;
1357.2000;0.4754;0.8589;
1357.5000;0.4770;0.8614;
1357.8000;0.4770;0.8614;
1358.1000;0.4762;0.8589;
1358.4000;0.4778;0.8564;
1358.7000;0.4778;0.8589;
1359.0000;0.4762;0.8438;
1359.3000;0.4803;0.8463;
1359.6000;0.4778;0.8388;
1359.9000;0.4770;0.8363;
1360.2000;0.4721;0.8262;
1360.5000;0.4794;0.8413;
1360.8000;0.4778;0.8312;
1361.1000;0.4868;0.8539;
1361.4000;0.4778;0.8337;
1361.7000;0.4770;0.8262;
1362.0000;0.4762;0.8262;
1362.3000;0.4754;0.8186;
1362.6000;0.4778;0.8186;
1362.9000;0.4770;0.8262;
1363.2000;0.4762;0.8287;
1363.5000;0.4770;0.8337;
1363.8000;0.4754;0.8262;
1364.1000;0.4762;0.8262;
1364.4000;0.4754;0.8136;
1364.7000;0.4762;0.8237;
1365.0000;0.4754;0.8262;
1365.3000;0.4770;0.8337;
1365.6000;0.4729;0.8086;
1365.9000;0.4737;0.8111;
1366.2000;0.4762;0.8136;
1366.5000;0.4762;0.8136;
1366.8000;0.4721;0.7985;
1367.1000;0.4770;0.8111;
1367.4000;0.4778;0.8111;
1367.7000;0.4754;0.8035;
1368.0000;0.4746;0.8060;
1368.3000;0.4778;0.8111;
1368.6000;0.4762;0.8086;
1368.9000;0.4770;0.8086;
1369.2000;0.4762;0.8136;
1369.5000;0.4770;0.8111;
1369.8000;0.4794;0.8287;
1370.1000;0.4754;0.8111;
1370.4000;0.4786;0.8186;
1370.7000;0.4778;0.8211;
1371.0000;0.4778;0.8211;
1371.3000;0.4754;0.8211;
1371.6000;0.4778;0.8237;
1371.9000;0.4754;0.8161;
1372.2000;0.4713;0.8010;
1372.5000;0.4770;0.8111;
1372.8000;0.4746;0.8111;
1373.1000;0.4770;0.8211;
1373.4000;0.4737;0.8186;
1373.7000;0.4754;0.8237;
1374.0000;0.4770;0.8337;
1374.3000;0.4778;0.8287;
1374.6000;0.4770;0.8337;
1374.9000;0.4770;0.8438;
1375.2000;0.4786;0.8539;
1375.5000;0.4770;0.8489;
1375.8000;0.4705;0.8237;
1376.1000;0.4754;0.8363;
1376.4000;0.4656;0.7985;
1376.7000;0.4770;0.8161;
1377.0000;0.4762;0.8136;
1377.3000;0.4811;0.8237;
1377.6000;0.4762;0.8161;
1377.9000;0.4754;0.8237;
1378.2000;0.4770;0.8312;
1378.5000;0.4843;0.8564;
1378.8000;0.4770;0.8413;
1379.1000;0.4786;0.8489;
1379.4000;0.4778;0.8413;
1379.7000;0.4770;0.8438;
1380.0000;0.4786;0.8514;
1380.3000;0.4778;0.8463;
1380.6000;0.4794;0.8388;
1380.9000;0.4778;0.8337;
1381.2000;0.4762;0.8363;
1381.5000;0.4770;0.8413;
1381.8000;0.4770;0.8438;
1382.1000;0.4762;0.8438;
1382.4000;0.4770;0.8413;
1382.7000;0.4778;0.8514;
1383.0000;0.4762;0.8463;
1383.3000;0.4746;0.8489;
1383.6000;0.4689;0.8363;
1383.9000;0.4754;0.8539;
1384.2000;0.4770;0.8640;
1384.5000;0.4778;0.8740;
1384.8000;0.4762;0.8640;
1385.1000;0.4762;0.8564;
1385.4000;0.4762;0.8564;
1385.7000;0.4770;0.8489;
1386.0000;0.4770;0.8514;
1386.3000;0.4762;0.8564;
1386.6000;0.4770;0.8514;
1386.9000;0.4770;0.8514;
1387.2000;0.4786;0.8514;
1387.5000;0.4762;0.8514;
1387.8000;0.4770;0.8413;
1388.1000;0.4770;0.8388;
1388.4000;0.4770;0.8388;
1388.7000;0.4770;0.8413;
1389.0000;0.4778;0.8438;
1389.3000;0.4778;0.8514;
1389.6000;0.4778;0.8489;
1389.9000;0.4672;0.8237;
1390.2000;0.4754;0.8564;
1390.5000;0.4762;0.8614;
1390.8000;0.4770;0.8614;
1391.1000;0.4737;0.8640;
1391.4000;0.4762;0.8614;
1391.7000;0.4770;0.8614;
1392.0000;0.4770;0.8514;
1392.3000;0.4778;0.8489;
1392.6000;0.4770;0.8413;
1392.9000;0.4778;0.8363;
1393.2000;0.4762;0.8337;
1393.5000;0.4762;0.8287;
1393.8000;0.4762;0.8337;
1394.1000;0.4754;0.8312;
1394.4000;0.4762;0.8337;
1394.7000;0.4762;0.8337;
1395.0000;0.4819;0.8514;
1395.3000;0.4762;0.8438;
1395.6000;0.4770;0.8438;
1395.9000;0.4762;0.8463;
1396.2000;0.4770;0.8539;
1396.5000;0.4754;0.8514;
1396.8000;0.4762;0.8489;
1397.1000;0.4705;0.8388;
1397.4000;0.4770;0.8514;
1397.7000;0.4754;0.8539;
1398.0000;0.4762;0.8564;
1398.3000;0.4770;0.8514;
1398.6000;0.4868;0.8766;
1398.9000;0.4762;0.8388;
1399.2000;0.4737;0.8388;
1399.5000;0.4770;0.8388;
1399.8000;0.4754;0.8337;
