time/ms;Fluo/V;P700 deltaI/I x10³;
-199.8000;0.7025;1.0000;
-199.5000;0.7057;1.0050;
-199.2000;0.6935;0.9773;
-198.9000;0.7025;1.0050;
-198.6000;0.7017;1.0075;
-198.3000;0.7025;1.0101;
-198.0000;0.7049;1.0126;
-197.7000;0.7041;1.0050;
-197.4000;0.7017;1.0025;
-197.1000;0.7033;1.0050;
-196.8000;0.7017;1.0050;
-196.5000;0.7033;1.0252;
-196.2000;0.7017;1.0252;
-195.9000;0.7041;1.0252;
-195.6000;0.7082;1.0428;
-195.3000;0.7041;1.0327;
-195.0000;0.7049;1.0252;
-194.7000;0.7025;1.0176;
-194.4000;0.7009;1.0126;
-194.1000;0.6968;1.0101;
-193.8000;0.7025;1.0201;
-193.5000;0.7009;1.0151;
-193.2000;0.7009;1.0101;
-192.9000;0.7025;1.0126;
-192.6000;0.7025;1.0252;
-192.3000;0.7025;1.0201;
-192.0000;0.7025;1.0201;
-191.7000;0.7041;1.0227;
-191.4000;0.7033;1.0252;
-191.1000;0.7025;1.0201;
-190.8000;0.7033;1.0302;
-190.5000;0.7025;1.0252;
-190.2000;0.7025;1.0227;
-189.9000;0.7017;1.0227;
-189.6000;0.7033;1.0201;
-189.3000;0.7033;1.0252;
-189.0000;0.7033;1.0201;
-188.7000;0.6992;1.0101;
-188.4000;0.7009;1.0252;
-188.1000;0.7033;1.0252;
-187.8000;0.7017;1.0227;
-187.5000;0.6952;1.0025;
-187.2000;0.7017;1.0201;
-186.9000;0.7017;1.0227;
-186.6000;0.7041;1.0176;
-186.3000;0.7025;1.0151;
-186.0000;0.7033;1.0201;
-185.7000;0.7017;1.0151;
-185.4000;0.7057;1.0201;
-185.1000;0.6968;0.9975;
-184.8000;0.7017;1.0075;
-184.5000;0.7025;0.9975;
-184.2000;0.7017;0.9899;
-183.9000;0.7025;0.9924;
-183.6000;0.7025;1.0000;
-183.3000;0.7017;1.0000;
-183.0000;0.7033;0.9949;
-182.7000;0.6960;0.9773;
-182.4000;0.7025;1.0025;
-182.1000;0.7090;1.0227;
-181.8000;0.7041;1.0126;
-181.5000;0.7017;1.0101;
-181.2000;0.7049;1.0126;
-180.9000;0.7017;1.0101;
-180.6000;0.7041;1.0176;
-180.3000;0.7025;1.0126;
-180.0000;0.6943;0.9849;
-179.7000;0.7033;1.0101;
-179.4000;0.7000;1.0025;
-179.1000;0.7000;1.0025;
-178.8000;0.7017;1.0075;
-178.5000;0.7033;1.0151;
-178.2000;0.7066;1.0176;
-177.9000;0.6968;0.9899;
-177.6000;0.7041;1.0025;
-177.3000;0.7033;1.0075;
-177.0000;0.7041;1.0126;
-176.7000;0.7090;1.0277;
-176.4000;0.7074;1.0327;
-176.1000;0.7041;1.0302;
-175.8000;0.7017;1.0252;
-175.5000;0.7017;1.0252;
-175.2000;0.7017;1.0252;
-174.9000;0.7017;1.0277;
-174.6000;0.7017;1.0327;
-174.3000;0.6984;1.0201;
-174.0000;0.7009;1.0277;
-173.7000;0.7041;1.0277;
-173.4000;0.7049;1.0327;
-173.1000;0.7033;1.0327;
-172.8000;0.7025;1.0277;
-172.5000;0.7025;1.0227;
-172.2000;0.7017;1.0201;
-171.9000;0.7025;1.0227;
-171.6000;0.7009;1.0327;
-171.3000;0.7033;1.0302;
-171.0000;0.6968;1.0201;
-170.7000;0.7017;1.0428;
-170.4000;0.7009;1.0403;
-170.1000;0.7009;1.0352;
-169.8000;0.7017;1.0378;
-169.5000;0.7041;1.0453;
-169.2000;0.7017;1.0277;
-168.9000;0.7041;1.0227;
-168.6000;0.7033;1.0126;
-168.3000;0.7025;1.0126;
-168.0000;0.7025;1.0252;
-167.7000;0.7017;1.0327;
-167.4000;0.7041;1.0352;
-167.1000;0.7074;1.0403;
-166.8000;0.7041;1.0201;
-166.5000;0.7041;1.0252;
-166.2000;0.7017;1.0126;
-165.9000;0.7025;1.0126;
-165.6000;0.7009;1.0151;
-165.3000;0.7025;1.0252;
-165.0000;0.7017;1.0176;
-164.7000;0.7041;1.0327;
-164.4000;0.7025;1.0302;
-164.1000;0.7098;1.0403;
-163.8000;0.7033;1.0201;
-163.5000;0.7074;1.0352;
-163.2000;0.7025;1.0201;
-162.9000;0.7049;1.0277;
-162.6000;0.7017;1.0101;
-162.3000;0.7017;1.0050;
-162.0000;0.7057;1.0025;
-161.7000;0.7057;1.0050;
-161.4000;0.7009;0.9949;
-161.1000;0.7025;1.0000;
-160.8000;0.7009;1.0025;
-160.5000;0.7009;1.0025;
-160.2000;0.7033;1.0101;
-159.9000;0.7025;1.0151;
-159.6000;0.7033;1.0201;
-159.3000;0.7033;1.0176;
-159.0000;0.7033;1.0176;
-158.7000;0.7025;1.0050;
-158.4000;0.7041;1.0101;
-158.1000;0.7041;1.0227;
-157.8000;0.7025;1.0201;
-157.5000;0.7066;1.0302;
-157.2000;0.6976;1.0101;
-156.9000;0.6960;1.0050;
-156.6000;0.7017;1.0151;
-156.3000;0.7009;1.0075;
-156.0000;0.7025;1.0075;
-155.7000;0.7025;1.0075;
-155.4000;0.7033;1.0101;
-155.1000;0.7025;1.0025;
-154.8000;0.7017;1.0101;
-154.5000;0.7000;1.0075;
-154.2000;0.7025;1.0176;
-153.9000;0.7025;1.0176;
-153.6000;0.7033;1.0227;
-153.3000;0.7017;1.0252;
-153.0000;0.7025;1.0277;
-152.7000;0.7017;1.0151;
-152.4000;0.7041;1.0176;
-152.1000;0.6992;0.9975;
-151.8000;0.7033;1.0126;
-151.5000;0.7041;1.0151;
-151.2000;0.7009;1.0075;
-150.9000;0.7033;1.0176;
-150.6000;0.7000;1.0176;
-150.3000;0.7017;1.0176;
-150.0000;0.7041;1.0327;
-149.7000;0.7009;1.0277;
-149.4000;0.7017;1.0201;
-149.1000;0.7017;1.0201;
-148.8000;0.7033;1.0201;
-148.5000;0.7017;1.0201;
-148.2000;0.6992;1.0151;
-147.9000;0.7033;1.0252;
-147.6000;0.7033;1.0252;
-147.3000;0.7041;1.0277;
-147.0000;0.7025;1.0302;
-146.7000;0.7033;1.0277;
-146.4000;0.7033;1.0227;
-146.1000;0.7025;1.0227;
-145.8000;0.7025;1.0252;
-145.5000;0.7033;1.0327;
-145.2000;0.7033;1.0252;
-144.9000;0.7033;1.0227;
-144.6000;0.7033;1.0252;
-144.3000;0.7025;1.0201;
-144.0000;0.7041;1.0151;
-143.7000;0.7041;1.0201;
-143.4000;0.7049;1.0176;
-143.1000;0.7033;1.0176;
-142.8000;0.7033;1.0201;
-142.5000;0.7049;1.0277;
-142.2000;0.7025;1.0227;
-141.9000;0.7025;1.0252;
-141.6000;0.7033;1.0403;
-141.3000;0.7090;1.0504;
-141.0000;0.7017;1.0176;
-140.7000;0.7041;1.0252;
-140.4000;0.7017;1.0227;
-140.1000;0.7009;1.0151;
-139.8000;0.7025;1.0227;
-139.5000;0.7033;1.0227;
-139.2000;0.7025;1.0201;
-138.9000;0.7041;1.0201;
-138.6000;0.7033;1.0151;
-138.3000;0.7025;1.0050;
-138.0000;0.7025;1.0101;
-137.7000;0.7033;1.0151;
-137.4000;0.7009;1.0151;
-137.1000;0.7025;1.0227;
-136.8000;0.7049;1.0227;
-136.5000;0.7041;1.0201;
-136.2000;0.7074;1.0176;
-135.9000;0.7017;1.0075;
-135.6000;0.7009;1.0025;
-135.3000;0.7033;1.0075;
-135.0000;0.7033;1.0075;
-134.7000;0.7017;1.0101;
-134.4000;0.6935;0.9849;
-134.1000;0.7066;1.0101;
-133.8000;0.7017;0.9975;
-133.5000;0.6943;0.9874;
-133.2000;0.7025;1.0101;
-132.9000;0.7017;1.0075;
-132.6000;0.6968;0.9899;
-132.3000;0.7041;1.0075;
-132.0000;0.7057;1.0101;
-131.7000;0.7057;1.0101;
-131.4000;0.7041;1.0050;
-131.1000;0.7025;0.9924;
-130.8000;0.7000;0.9874;
-130.5000;0.7000;0.9899;
-130.2000;0.7033;0.9975;
-129.9000;0.7033;1.0050;
-129.6000;0.6984;0.9975;
-129.3000;0.7017;1.0000;
-129.0000;0.7025;1.0000;
-128.7000;0.7041;1.0000;
-128.4000;0.7000;0.9899;
-128.1000;0.7074;1.0075;
-127.8000;0.7025;1.0075;
-127.5000;0.7009;1.0050;
-127.2000;0.7009;1.0075;
-126.9000;0.7033;1.0201;
-126.6000;0.6992;1.0000;
-126.3000;0.7033;1.0151;
-126.0000;0.7041;1.0176;
-125.7000;0.7057;1.0252;
-125.4000;0.7025;1.0126;
-125.1000;0.7033;1.0050;
-124.8000;0.7041;1.0101;
-124.5000;0.7090;1.0176;
-124.2000;0.7025;1.0050;
-123.9000;0.7033;1.0050;
-123.6000;0.7017;1.0151;
-123.3000;0.7033;1.0201;
-123.0000;0.7041;1.0277;
-122.7000;0.7025;1.0227;
-122.4000;0.7025;1.0227;
-122.1000;0.7009;1.0151;
-121.8000;0.7025;1.0176;
-121.5000;0.7033;1.0252;
-121.2000;0.7057;1.0277;
-120.9000;0.7033;1.0201;
-120.6000;0.7009;1.0151;
-120.3000;0.7025;1.0201;
-120.0000;0.7033;1.0075;
-119.7000;0.7017;1.0025;
-119.4000;0.7025;1.0025;
-119.1000;0.7017;0.9975;
-118.8000;0.7025;1.0000;
-118.5000;0.7000;0.9949;
-118.2000;0.7033;1.0000;
-117.9000;0.7025;0.9949;
-117.6000;0.7009;0.9924;
-117.3000;0.7017;0.9975;
-117.0000;0.7025;1.0000;
-116.7000;0.7025;1.0025;
-116.4000;0.7025;1.0101;
-116.1000;0.7049;1.0176;
-115.8000;0.7033;1.0176;
-115.5000;0.7033;1.0151;
-115.2000;0.7017;1.0075;
-114.9000;0.7017;1.0075;
-114.6000;0.7017;1.0025;
-114.3000;0.7000;1.0025;
-114.0000;0.7017;0.9899;
-113.7000;0.7009;0.9924;
-113.4000;0.6992;0.9824;
-113.1000;0.7025;0.9874;
-112.8000;0.7017;0.9849;
-112.5000;0.7025;0.9798;
-112.2000;0.7033;0.9949;
-111.9000;0.7017;1.0050;
-111.6000;0.7009;1.0050;
-111.3000;0.7049;1.0101;
-111.0000;0.7017;1.0025;
-110.7000;0.7025;0.9975;
-110.4000;0.7009;0.9874;
-110.1000;0.7041;0.9975;
-109.8000;0.7017;0.9849;
-109.5000;0.7025;0.9899;
-109.2000;0.7066;1.0126;
-108.9000;0.7041;1.0025;
-108.6000;0.7114;1.0352;
-108.3000;0.7057;1.0126;
-108.0000;0.7033;1.0000;
-107.7000;0.7000;1.0000;
-107.4000;0.7025;0.9975;
-107.1000;0.6952;0.9773;
-106.8000;0.6976;0.9798;
-106.5000;0.7025;0.9949;
-106.2000;0.6976;0.9874;
-105.9000;0.7033;0.9975;
-105.6000;0.7033;1.0000;
-105.3000;0.7025;0.9975;
-105.0000;0.7041;0.9975;
-104.7000;0.7033;1.0000;
-104.4000;0.7033;0.9924;
-104.1000;0.7009;0.9849;
-103.8000;0.7033;0.9924;
-103.5000;0.7041;0.9899;
-103.2000;0.7009;0.9748;
-102.9000;0.7025;0.9723;
-102.6000;0.7025;0.9773;
-102.3000;0.7106;1.0050;
-102.0000;0.7017;0.9849;
-101.7000;0.7025;1.0025;
-101.4000;0.7098;1.0252;
-101.1000;0.7066;1.0075;
-100.8000;0.7025;1.0000;
-100.5000;0.7033;1.0050;
-100.2000;0.7017;0.9975;
-99.9000;0.7017;0.9924;
-99.6000;0.7025;1.0000;
-99.3000;0.7025;1.0000;
-99.0000;0.7033;1.0000;
-98.7000;0.7009;0.9949;
-98.4000;0.7033;0.9924;
-98.1000;0.7017;0.9899;
-97.8000;0.7025;0.9975;
-97.5000;0.7000;0.9874;
-97.2000;0.6992;0.9849;
-96.9000;0.7017;0.9899;
-96.6000;0.7041;0.9949;
-96.3000;0.7017;0.9924;
-96.0000;0.7017;0.9899;
-95.7000;0.7025;0.9924;
-95.4000;0.7025;0.9949;
-95.1000;0.6984;0.9723;
-94.8000;0.7041;0.9899;
-94.5000;0.7033;0.9899;
-94.2000;0.7066;0.9874;
-93.9000;0.7000;0.9773;
-93.6000;0.7025;0.9924;
-93.3000;0.7017;0.9975;
-93.0000;0.7017;0.9949;
-92.7000;0.7025;0.9924;
-92.4000;0.7017;0.9899;
-92.1000;0.7000;0.9899;
-91.8000;0.7041;1.0025;
-91.5000;0.7009;1.0025;
-91.2000;0.7025;1.0000;
-90.9000;0.7041;1.0050;
-90.6000;0.7033;1.0025;
-90.3000;0.7049;1.0050;
-90.0000;0.7025;1.0050;
-89.7000;0.7025;1.0075;
-89.4000;0.7057;1.0126;
-89.1000;0.7025;0.9975;
-88.8000;0.7017;0.9949;
-88.5000;0.6976;0.9824;
-88.2000;0.6976;0.9924;
-87.9000;0.7074;1.0176;
-87.6000;0.6943;0.9849;
-87.3000;0.7009;0.9924;
-87.0000;0.7025;1.0025;
-86.7000;0.7009;0.9975;
-86.4000;0.6984;1.0050;
-86.1000;0.7090;1.0302;
-85.8000;0.7017;1.0151;
-85.5000;0.7017;1.0075;
-85.2000;0.7033;0.9899;
-84.9000;0.6968;0.9698;
-84.6000;0.7025;0.9824;
-84.3000;0.7041;0.9924;
-84.0000;0.7025;0.9949;
-83.7000;0.7017;0.9975;
-83.4000;0.7009;0.9924;
-83.1000;0.7066;1.0050;
-82.8000;0.7025;0.9874;
-82.5000;0.7017;0.9899;
-82.2000;0.7009;0.9924;
-81.9000;0.7009;0.9899;
-81.6000;0.7049;0.9949;
-81.3000;0.7033;0.9924;
-81.0000;0.7017;0.9924;
-80.7000;0.7025;1.0025;
-80.4000;0.7017;1.0025;
-80.1000;0.7057;1.0126;
-79.8000;0.7033;1.0050;
-79.5000;0.7041;1.0025;
-79.2000;0.7033;1.0126;
-78.9000;0.7017;1.0126;
-78.6000;0.7025;1.0126;
-78.3000;0.7082;1.0252;
-78.0000;0.7041;0.9975;
-77.7000;0.7009;1.0050;
-77.4000;0.7033;1.0075;
-77.1000;0.7009;0.9975;
-76.8000;0.7033;1.0101;
-76.5000;0.7025;1.0126;
-76.2000;0.7041;1.0176;
-75.9000;0.7033;1.0075;
-75.6000;0.7106;1.0277;
-75.3000;0.7041;1.0151;
-75.0000;0.7033;1.0176;
-74.7000;0.7049;1.0252;
-74.4000;0.7114;1.0453;
-74.1000;0.7041;1.0101;
-73.8000;0.7041;1.0126;
-73.5000;0.7025;1.0126;
-73.2000;0.7009;1.0101;
-72.9000;0.7074;1.0252;
-72.6000;0.7025;1.0176;
-72.3000;0.7098;1.0378;
-72.0000;0.7025;1.0075;
-71.7000;0.7017;1.0075;
-71.4000;0.7033;1.0151;
-71.1000;0.7025;1.0075;
-70.8000;0.6992;0.9949;
-70.5000;0.7009;1.0101;
-70.2000;0.7025;1.0126;
-69.9000;0.7082;1.0227;
-69.6000;0.7009;1.0075;
-69.3000;0.7017;1.0126;
-69.0000;0.7033;1.0176;
-68.7000;0.7025;1.0227;
-68.4000;0.7049;1.0302;
-68.1000;0.7033;1.0227;
-67.8000;0.7033;1.0151;
-67.5000;0.7025;1.0227;
-67.2000;0.7009;1.0101;
-66.9000;0.7009;1.0126;
-66.6000;0.7033;1.0176;
-66.3000;0.6960;0.9975;
-66.0000;0.7009;1.0151;
-65.7000;0.7009;1.0101;
-65.4000;0.7066;1.0201;
-65.1000;0.7017;1.0075;
-64.8000;0.7041;1.0201;
-64.5000;0.7033;1.0126;
-64.2000;0.7017;1.0000;
-63.9000;0.7033;1.0126;
-63.6000;0.7009;1.0075;
-63.3000;0.7017;1.0050;
-63.0000;0.7025;1.0025;
-62.7000;0.7017;0.9975;
-62.4000;0.7017;1.0075;
-62.1000;0.7033;1.0126;
-61.8000;0.7033;1.0075;
-61.5000;0.7041;1.0050;
-61.2000;0.7017;0.9949;
-60.9000;0.7025;1.0000;
-60.6000;0.7009;1.0050;
-60.3000;0.7025;1.0101;
-60.0000;0.7033;1.0227;
-59.7000;0.7033;1.0277;
-59.4000;0.7049;1.0327;
-59.1000;0.7025;1.0277;
-58.8000;0.7025;1.0227;
-58.5000;0.7106;1.0504;
-58.2000;0.7009;1.0201;
-57.9000;0.7033;1.0227;
-57.6000;0.7025;1.0227;
-57.3000;0.7025;1.0201;
-57.0000;0.6984;1.0101;
-56.7000;0.7090;1.0327;
-56.4000;0.7057;1.0227;
-56.1000;0.7017;1.0101;
-55.8000;0.7033;1.0075;
-55.5000;0.6992;0.9949;
-55.2000;0.7000;1.0025;
-54.9000;0.7033;1.0101;
-54.6000;0.7049;1.0050;
-54.3000;0.7041;0.9975;
-54.0000;0.6976;0.9874;
-53.7000;0.7025;1.0000;
-53.4000;0.7041;1.0025;
-53.1000;0.7049;1.0075;
-52.8000;0.7017;1.0025;
-52.5000;0.7049;1.0050;
-52.2000;0.7041;1.0101;
-51.9000;0.7033;1.0126;
-51.6000;0.7009;1.0025;
-51.3000;0.7041;1.0075;
-51.0000;0.7041;1.0075;
-50.7000;0.7049;1.0050;
-50.4000;0.7033;1.0075;
-50.1000;0.7033;1.0000;
-49.8000;0.7090;1.0075;
-49.5000;0.7049;1.0000;
-49.2000;0.7033;0.9975;
-48.9000;0.7033;1.0000;
-48.6000;0.7041;1.0000;
-48.3000;0.7017;1.0000;
-48.0000;0.7025;1.0126;
-47.7000;0.7033;1.0227;
-47.4000;0.7033;1.0227;
-47.1000;0.7106;1.0378;
-46.8000;0.7082;1.0176;
-46.5000;0.7009;1.0075;
-46.2000;0.7049;1.0176;
-45.9000;0.7033;1.0176;
-45.6000;0.7017;1.0252;
-45.3000;0.7033;1.0252;
-45.0000;0.7025;1.0201;
-44.7000;0.7033;1.0227;
-44.4000;0.7041;1.0352;
-44.1000;0.7033;1.0252;
-43.8000;0.7033;1.0327;
-43.5000;0.7017;1.0302;
-43.2000;0.7017;1.0302;
-42.9000;0.7017;1.0277;
-42.6000;0.7041;1.0327;
-42.3000;0.7033;1.0327;
-42.0000;0.7025;1.0327;
-41.7000;0.7033;1.0252;
-41.4000;0.7025;1.0227;
-41.1000;0.7041;1.0176;
-40.8000;0.7057;1.0176;
-40.5000;0.7082;1.0277;
-40.2000;0.7025;1.0126;
-39.9000;0.7041;1.0151;
-39.6000;0.7033;1.0075;
-39.3000;0.7066;1.0101;
-39.0000;0.7049;0.9949;
-38.7000;0.7017;0.9975;
-38.4000;0.7033;1.0025;
-38.1000;0.7025;1.0000;
-37.8000;0.6992;0.9949;
-37.5000;0.7009;0.9949;
-37.2000;0.7009;0.9949;
-36.9000;0.7033;1.0000;
-36.6000;0.6952;0.9824;
-36.3000;0.7025;0.9924;
-36.0000;0.7009;0.9975;
-35.7000;0.7033;1.0101;
-35.4000;0.7041;1.0075;
-35.1000;0.7009;1.0000;
-34.8000;0.7090;1.0176;
-34.5000;0.7074;1.0075;
-34.2000;0.7057;1.0000;
-33.9000;0.7033;0.9975;
-33.6000;0.6984;0.9899;
-33.3000;0.6968;0.9824;
-33.0000;0.7025;0.9949;
-32.7000;0.6976;0.9899;
-32.4000;0.7017;0.9949;
-32.1000;0.7009;0.9924;
-31.8000;0.7033;0.9924;
-31.5000;0.7025;0.9849;
-31.2000;0.7009;0.9723;
-30.9000;0.7041;0.9824;
-30.6000;0.7025;0.9798;
-30.3000;0.7033;0.9698;
-30.0000;0.7025;0.9723;
-29.7000;0.7057;0.9698;
-29.4000;0.7041;0.9647;
-29.1000;0.7057;0.9622;
-28.8000;0.7025;0.9496;
-28.5000;0.7049;0.9572;
-28.2000;0.7041;0.9622;
-27.9000;0.7033;0.9748;
-27.6000;0.7017;0.9798;
-27.3000;0.7009;0.9824;
-27.0000;0.7033;0.9798;
-26.7000;0.7033;0.9849;
-26.4000;0.7009;0.9698;
-26.1000;0.7041;0.9748;
-25.8000;0.7041;0.9798;
-25.5000;0.7049;0.9849;
-25.2000;0.7049;0.9824;
-24.9000;0.7025;0.9723;
-24.6000;0.7033;0.9698;
-24.3000;0.7017;0.9672;
-24.0000;0.7041;0.9723;
-23.7000;0.6984;0.9672;
-23.4000;0.7057;0.9824;
-23.1000;0.7000;0.9773;
-22.8000;0.7017;0.9849;
-22.5000;0.6992;0.9798;
-22.2000;0.7009;0.9773;
-21.9000;0.7017;0.9899;
-21.6000;0.7025;0.9899;
-21.3000;0.7049;0.9874;
-21.0000;0.7017;0.9849;
-20.7000;0.7017;0.9798;
-20.4000;0.7000;0.9798;
-20.1000;0.7000;0.9798;
-19.8000;0.7033;0.9798;
-19.5000;0.7009;0.9773;
-19.2000;0.7033;0.9899;
-18.9000;0.7041;0.9949;
-18.6000;0.7000;0.9798;
-18.3000;0.7009;0.9874;
-18.0000;0.6992;0.9824;
-17.7000;0.7000;0.9824;
-17.4000;0.7017;0.9899;
-17.1000;0.7017;0.9849;
-16.8000;0.7009;0.9798;
-16.5000;0.7025;0.9773;
-16.2000;0.7017;0.9672;
-15.9000;0.7025;0.9698;
-15.6000;0.7057;0.9899;
-15.3000;0.7049;0.9798;
-15.0000;0.7033;0.9748;
-14.7000;0.7066;0.9824;
-14.4000;0.7033;0.9698;
-14.1000;0.7025;0.9672;
-13.8000;0.7041;0.9748;
-13.5000;0.7033;0.9698;
-13.2000;0.7025;0.9723;
-12.9000;0.7033;0.9723;
-12.6000;0.7033;0.9773;
-12.3000;0.7009;0.9824;
-12.0000;0.7082;1.0025;
-11.7000;0.7017;0.9824;
-11.4000;0.7033;0.9899;
-11.1000;0.7017;0.9824;
-10.8000;0.7009;0.9824;
-10.5000;0.7041;0.9874;
-10.2000;0.7017;0.9874;
-9.9000;0.7041;0.9874;
-9.6000;0.7025;0.9849;
-9.3000;0.7009;0.9874;
-9.0000;0.7025;0.9949;
-8.7000;0.7033;0.9899;
-8.4000;0.7025;0.9874;
-8.1000;0.7017;0.9924;
-7.8000;0.7017;1.0025;
-7.5000;0.7009;1.0025;
-7.2000;0.7000;0.9949;
-6.9000;0.7033;1.0025;
-6.6000;0.7009;1.0000;
-6.3000;0.7033;1.0075;
-6.0000;0.7017;1.0176;
-5.7000;0.7009;1.0101;
-5.4000;0.7025;1.0075;
-5.1000;0.7017;1.0000;
-4.8000;0.7017;1.0050;
-4.5000;0.7033;1.0050;
-4.2000;0.7033;1.0050;
-3.9000;0.7025;1.0025;
-3.6000;0.7066;1.0151;
-3.3000;0.7049;1.0075;
-3.0000;0.7017;1.0126;
-2.7000;0.7009;1.0201;
-2.4000;0.7017;1.0075;
-2.1000;0.7049;1.0126;
-1.8000;0.6992;1.0025;
-1.5000;0.7025;1.0151;
-1.2000;0.7025;1.0176;
-0.9000;0.6952;1.0025;
-0.6000;0.7017;1.0151;
-0.3000;0.6984;1.0050;
0.0000;0.6984;1.0050;
0.3000;0.7090;1.0025;
0.6000;0.7171;1.0352;
0.9000;0.7245;1.0655;
1.2000;0.7310;1.0831;
1.5000;0.7391;1.1058;
1.8000;0.7350;1.1159;
2.1000;0.7407;1.1410;
2.4000;0.7432;1.1562;
2.7000;0.7440;1.1562;
3.0000;0.7424;1.1536;
3.3000;0.7473;1.1713;
3.6000;0.7497;1.1864;
3.9000;0.7554;1.2116;
4.2000;0.7521;1.2090;
4.5000;0.7505;1.2090;
4.8000;0.7521;1.2166;
5.1000;0.7530;1.2216;
5.4000;0.7554;1.2242;
5.7000;0.7578;1.2267;
6.0000;0.7562;1.2166;
6.3000;0.7538;1.2216;
6.6000;0.7603;1.2342;
6.9000;0.7627;1.2494;
7.2000;0.7619;1.2418;
7.5000;0.7603;1.2468;
7.8000;0.7643;1.2468;
8.1000;0.7627;1.2519;
8.4000;0.7619;1.2544;
8.7000;0.7627;1.2544;
9.0000;0.7635;1.2494;
9.3000;0.7635;1.2418;
9.6000;0.7619;1.2342;
9.9000;0.7709;1.2594;
10.2000;0.7635;1.2418;
10.5000;0.7660;1.2468;
10.8000;0.7676;1.2468;
11.1000;0.7676;1.2494;
11.4000;0.7709;1.2494;
11.7000;0.7700;1.2468;
12.0000;0.7692;1.2468;
12.3000;0.7692;1.2443;
12.6000;0.7709;1.2368;
12.9000;0.7660;1.2191;
13.2000;0.7709;1.2292;
13.5000;0.7717;1.2393;
13.8000;0.7717;1.2418;
14.1000;0.7757;1.2468;
14.4000;0.7725;1.2393;
14.7000;0.7709;1.2418;
15.0000;0.7733;1.2393;
15.3000;0.7741;1.2368;
15.6000;0.7766;1.2418;
15.9000;0.7749;1.2342;
16.2000;0.7749;1.2393;
16.5000;0.7823;1.2569;
16.8000;0.7757;1.2468;
17.1000;0.7749;1.2418;
17.4000;0.7766;1.2494;
17.7000;0.7757;1.2418;
18.0000;0.7774;1.2393;
18.3000;0.7749;1.2468;
18.6000;0.7782;1.2494;
18.9000;0.7782;1.2594;
19.2000;0.7806;1.2645;
19.5000;0.7774;1.2519;
19.8000;0.7717;1.2342;
20.1000;0.7782;1.2544;
20.4000;0.7774;1.2645;
20.7000;0.7782;1.2645;
21.0000;0.7798;1.2594;
21.3000;0.7709;1.2342;
21.6000;0.7847;1.2695;
21.9000;0.7790;1.2569;
22.2000;0.7717;1.2443;
22.5000;0.7798;1.2745;
22.8000;0.7831;1.2745;
23.1000;0.7814;1.2720;
23.4000;0.7798;1.2594;
23.7000;0.7806;1.2569;
24.0000;0.7806;1.2569;
24.3000;0.7814;1.2594;
24.6000;0.7814;1.2494;
24.9000;0.7823;1.2443;
25.2000;0.7814;1.2443;
25.5000;0.7806;1.2494;
25.8000;0.7839;1.2544;
26.1000;0.7814;1.2418;
26.4000;0.7790;1.2443;
26.7000;0.7855;1.2594;
27.0000;0.7823;1.2544;
27.3000;0.7831;1.2544;
27.6000;0.7823;1.2468;
27.9000;0.7839;1.2569;
28.2000;0.7863;1.2594;
28.5000;0.7782;1.2443;
28.8000;0.7814;1.2569;
29.1000;0.7782;1.2468;
29.4000;0.7790;1.2443;
29.7000;0.7823;1.2544;
30.0000;0.7814;1.2519;
30.3000;0.7831;1.2544;
30.6000;0.7847;1.2594;
30.9000;0.7823;1.2519;
31.2000;0.7839;1.2544;
31.5000;0.7831;1.2594;
31.8000;0.7847;1.2619;
32.1000;0.7904;1.2745;
32.4000;0.7904;1.2720;
32.7000;0.7896;1.2695;
33.0000;0.7847;1.2569;
33.3000;0.7855;1.2619;
33.6000;0.7823;1.2670;
33.9000;0.7814;1.2594;
34.2000;0.7871;1.2670;
34.5000;0.7847;1.2569;
34.8000;0.7839;1.2569;
35.1000;0.7839;1.2569;
35.4000;0.7847;1.2619;
35.7000;0.7839;1.2619;
36.0000;0.7847;1.2594;
36.3000;0.7831;1.2569;
36.6000;0.7814;1.2544;
36.9000;0.7847;1.2594;
37.2000;0.7839;1.2594;
37.5000;0.7847;1.2494;
37.8000;0.7896;1.2594;
38.1000;0.7831;1.2594;
38.4000;0.7847;1.2544;
38.7000;0.7814;1.2569;
39.0000;0.7863;1.2670;
39.3000;0.7847;1.2619;
39.6000;0.7871;1.2695;
39.9000;0.7823;1.2619;
40.2000;0.7855;1.2645;
40.5000;0.7839;1.2619;
40.8000;0.7855;1.2645;
41.1000;0.7855;1.2594;
41.4000;0.7871;1.2544;
41.7000;0.7863;1.2519;
42.0000;0.7871;1.2519;
42.3000;0.7855;1.2443;
42.6000;0.7920;1.2594;
42.9000;0.7855;1.2468;
43.2000;0.7896;1.2519;
43.5000;0.7863;1.2544;
43.8000;0.7855;1.2519;
44.1000;0.7847;1.2569;
44.4000;0.7855;1.2494;
44.7000;0.7871;1.2494;
45.0000;0.7814;1.2393;
45.3000;0.7757;1.2242;
45.6000;0.7871;1.2594;
45.9000;0.7888;1.2594;
46.2000;0.7888;1.2569;
46.5000;0.7871;1.2494;
46.8000;0.7871;1.2494;
47.1000;0.7871;1.2519;
47.4000;0.7880;1.2519;
47.7000;0.7880;1.2418;
48.0000;0.7855;1.2317;
48.3000;0.7896;1.2468;
48.6000;0.7937;1.2645;
48.9000;0.7880;1.2519;
49.2000;0.7863;1.2468;
49.5000;0.7855;1.2393;
49.8000;0.7855;1.2443;
50.1000;0.7863;1.2494;
50.4000;0.7847;1.2443;
50.7000;0.7871;1.2494;
51.0000;0.7880;1.2494;
51.3000;0.7871;1.2519;
51.6000;0.7863;1.2443;
51.9000;0.7863;1.2468;
52.2000;0.7839;1.2443;
52.5000;0.7855;1.2418;
52.8000;0.7871;1.2393;
53.1000;0.7847;1.2342;
53.4000;0.7847;1.2216;
53.7000;0.7880;1.2317;
54.0000;0.7863;1.2267;
54.3000;0.7880;1.2418;
54.6000;0.7863;1.2443;
54.9000;0.7912;1.2569;
55.2000;0.7871;1.2569;
55.5000;0.7863;1.2544;
55.8000;0.7880;1.2594;
56.1000;0.7863;1.2594;
56.4000;0.7912;1.2594;
56.7000;0.7839;1.2468;
57.0000;0.7871;1.2594;
57.3000;0.7880;1.2695;
57.6000;0.7961;1.2922;
57.9000;0.7953;1.2897;
58.2000;0.7855;1.2645;
58.5000;0.7880;1.2796;
58.8000;0.7888;1.2821;
59.1000;0.7880;1.2745;
59.4000;0.7863;1.2670;
59.7000;0.7831;1.2569;
60.0000;0.7888;1.2695;
60.3000;0.7863;1.2594;
60.6000;0.7888;1.2670;
60.9000;0.7880;1.2645;
61.2000;0.7888;1.2695;
61.5000;0.7871;1.2670;
61.8000;0.7855;1.2695;
62.1000;0.7863;1.2670;
62.4000;0.7871;1.2569;
62.7000;0.7896;1.2619;
63.0000;0.7863;1.2594;
63.3000;0.7871;1.2670;
63.6000;0.7880;1.2695;
63.9000;0.7888;1.2619;
64.2000;0.7888;1.2519;
64.5000;0.7928;1.2670;
64.8000;0.7896;1.2594;
65.1000;0.7896;1.2619;
65.4000;0.7863;1.2494;
65.7000;0.7871;1.2443;
66.0000;0.7888;1.2443;
66.3000;0.7871;1.2468;
66.6000;0.7880;1.2418;
66.9000;0.7880;1.2443;
67.2000;0.7847;1.2342;
67.5000;0.7863;1.2342;
67.8000;0.7912;1.2418;
68.1000;0.7847;1.2191;
68.4000;0.7863;1.2216;
68.7000;0.7904;1.2368;
69.0000;0.7871;1.2242;
69.3000;0.7888;1.2317;
69.6000;0.7863;1.2368;
69.9000;0.7863;1.2393;
70.2000;0.7871;1.2418;
70.5000;0.7863;1.2368;
70.8000;0.7863;1.2267;
71.1000;0.7888;1.2368;
71.4000;0.7880;1.2342;
71.7000;0.7839;1.2267;
72.0000;0.7871;1.2267;
72.3000;0.7880;1.2267;
72.6000;0.7871;1.2267;
72.9000;0.7871;1.2418;
73.2000;0.7888;1.2443;
73.5000;0.7790;1.2166;
73.8000;0.7855;1.2393;
74.1000;0.7880;1.2393;
74.4000;0.7896;1.2418;
74.7000;0.7912;1.2468;
75.0000;0.7888;1.2342;
75.3000;0.7871;1.2292;
75.6000;0.7839;1.2166;
75.9000;0.7920;1.2418;
76.2000;0.7896;1.2342;
76.5000;0.7904;1.2368;
76.8000;0.7888;1.2418;
77.1000;0.7896;1.2494;
77.4000;0.7863;1.2494;
77.7000;0.7871;1.2393;
78.0000;0.7871;1.2393;
78.3000;0.7880;1.2342;
78.6000;0.7871;1.2317;
78.9000;0.7880;1.2418;
79.2000;0.7863;1.2443;
79.5000;0.7863;1.2418;
79.8000;0.7871;1.2443;
80.1000;0.7871;1.2468;
80.4000;0.7880;1.2494;
80.7000;0.7871;1.2494;
81.0000;0.7871;1.2418;
81.3000;0.7863;1.2342;
81.6000;0.7880;1.2368;
81.9000;0.7871;1.2317;
82.2000;0.7871;1.2292;
82.5000;0.7912;1.2494;
82.8000;0.7855;1.2342;
83.1000;0.7888;1.2418;
83.4000;0.7871;1.2418;
83.7000;0.7969;1.2594;
84.0000;0.7871;1.2418;
84.3000;0.7888;1.2468;
84.6000;0.7928;1.2468;
84.9000;0.7937;1.2368;
85.2000;0.7855;1.2116;
85.5000;0.7888;1.2292;
85.8000;0.7855;1.2267;
86.1000;0.7871;1.2267;
86.4000;0.7888;1.2368;
86.7000;0.7888;1.2342;
87.0000;0.7888;1.2342;
87.3000;0.7871;1.2317;
87.6000;0.7855;1.2443;
87.9000;0.7871;1.2569;
88.2000;0.7871;1.2619;
88.5000;0.7871;1.2670;
88.8000;0.7888;1.2619;
89.1000;0.7880;1.2594;
89.4000;0.7871;1.2594;
89.7000;0.7871;1.2594;
90.0000;0.7855;1.2569;
90.3000;0.7871;1.2544;
90.6000;0.7880;1.2544;
90.9000;0.7888;1.2569;
91.2000;0.7880;1.2519;
91.5000;0.7888;1.2468;
91.8000;0.7896;1.2544;
92.1000;0.7896;1.2569;
92.4000;0.7855;1.2544;
92.7000;0.7937;1.2771;
93.0000;0.7888;1.2619;
93.3000;0.7888;1.2594;
93.6000;0.7953;1.2720;
93.9000;0.7880;1.2594;
94.2000;0.7896;1.2594;
94.5000;0.7839;1.2569;
94.8000;0.7855;1.2619;
95.1000;0.7855;1.2544;
95.4000;0.7839;1.2569;
95.7000;0.7863;1.2519;
96.0000;0.7863;1.2368;
96.3000;0.7847;1.2342;
96.6000;0.7831;1.2292;
96.9000;0.7888;1.2418;
97.2000;0.7871;1.2368;
97.5000;0.7912;1.2494;
97.8000;0.7912;1.2544;
98.1000;0.7880;1.2494;
98.4000;0.7880;1.2569;
98.7000;0.7880;1.2544;
99.0000;0.7880;1.2594;
99.3000;0.7896;1.2645;
99.6000;0.7871;1.2619;
99.9000;0.7839;1.2544;
100.2000;0.7880;1.2519;
100.5000;0.7896;1.2619;
100.8000;0.7863;1.2544;
101.1000;0.7863;1.2544;
101.4000;0.7880;1.2619;
101.7000;0.7880;1.2645;
102.0000;0.7880;1.2594;
102.3000;0.7928;1.2720;
102.6000;0.7855;1.2544;
102.9000;0.7888;1.2594;
103.2000;0.7855;1.2443;
103.5000;0.7880;1.2468;
103.8000;0.7863;1.2468;
104.1000;0.7855;1.2494;
104.4000;0.7863;1.2594;
104.7000;0.7863;1.2594;
105.0000;0.7847;1.2418;
105.3000;0.7847;1.2519;
105.6000;0.7823;1.2342;
105.9000;0.7880;1.2468;
106.2000;0.7855;1.2544;
106.5000;0.7847;1.2468;
106.8000;0.7871;1.2544;
107.1000;0.7871;1.2569;
107.4000;0.7888;1.2519;
107.7000;0.7888;1.2544;
108.0000;0.7880;1.2519;
108.3000;0.7880;1.2544;
108.6000;0.7880;1.2494;
108.9000;0.7880;1.2519;
109.2000;0.7880;1.2468;
109.5000;0.7880;1.2494;
109.8000;0.7880;1.2519;
110.1000;0.7855;1.2468;
110.4000;0.7871;1.2342;
110.7000;0.7847;1.2317;
111.0000;0.7888;1.2393;
111.3000;0.7896;1.2368;
111.6000;0.7855;1.2317;
111.9000;0.7871;1.2418;
112.2000;0.7896;1.2519;
112.5000;0.7888;1.2494;
112.8000;0.7928;1.2594;
113.1000;0.7920;1.2594;
113.4000;0.7871;1.2544;
113.7000;0.7871;1.2569;
114.0000;0.7871;1.2544;
114.3000;0.7904;1.2619;
114.6000;0.7863;1.2494;
114.9000;0.7880;1.2544;
115.2000;0.7888;1.2619;
115.5000;0.7847;1.2494;
115.8000;0.7855;1.2494;
116.1000;0.7863;1.2519;
116.4000;0.7847;1.2494;
116.7000;0.7863;1.2594;
117.0000;0.7863;1.2619;
117.3000;0.7888;1.2670;
117.6000;0.7888;1.2594;
117.9000;0.7896;1.2569;
118.2000;0.7896;1.2594;
118.5000;0.7888;1.2645;
118.8000;0.7880;1.2670;
119.1000;0.7847;1.2619;
119.4000;0.7790;1.2393;
119.7000;0.7871;1.2619;
120.0000;0.7896;1.2670;
120.3000;0.7880;1.2569;
120.6000;0.7880;1.2569;
120.9000;0.7880;1.2594;
121.2000;0.7888;1.2619;
121.5000;0.7863;1.2619;
121.8000;0.7896;1.2695;
122.1000;0.7880;1.2720;
122.4000;0.7880;1.2670;
122.7000;0.7855;1.2494;
123.0000;0.7888;1.2544;
123.3000;0.7896;1.2569;
123.6000;0.7839;1.2368;
123.9000;0.7896;1.2468;
124.2000;0.7871;1.2468;
124.5000;0.7880;1.2569;
124.8000;0.7871;1.2594;
125.1000;0.7871;1.2619;
125.4000;0.7871;1.2569;
125.7000;0.7880;1.2594;
126.0000;0.7855;1.2645;
126.3000;0.7880;1.2645;
126.6000;0.7863;1.2670;
126.9000;0.7896;1.2695;
127.2000;0.7871;1.2645;
127.5000;0.7912;1.2745;
127.8000;0.7880;1.2670;
128.1000;0.7871;1.2645;
128.4000;0.7880;1.2720;
128.7000;0.7871;1.2695;
129.0000;0.7888;1.2745;
129.3000;0.7871;1.2745;
129.6000;0.7863;1.2745;
129.9000;0.7896;1.2796;
130.2000;0.7847;1.2720;
130.5000;0.7871;1.2821;
130.8000;0.7871;1.2745;
131.1000;0.7855;1.2695;
131.4000;0.7863;1.2745;
131.7000;0.7855;1.2771;
132.0000;0.7855;1.2846;
132.3000;0.7880;1.2796;
132.6000;0.7896;1.2745;
132.9000;0.7904;1.2745;
133.2000;0.7880;1.2745;
133.5000;0.7871;1.2771;
133.8000;0.7985;1.3123;
134.1000;0.7896;1.2922;
134.4000;0.7880;1.2871;
134.7000;0.7855;1.2796;
135.0000;0.7896;1.2897;
135.3000;0.7847;1.2846;
135.6000;0.7928;1.3022;
135.9000;0.7855;1.2745;
136.2000;0.7871;1.2821;
136.5000;0.7904;1.2897;
136.8000;0.7871;1.2796;
137.1000;0.7920;1.2821;
137.4000;0.7863;1.2569;
137.7000;0.7766;1.2393;
138.0000;0.7888;1.2745;
138.3000;0.7823;1.2720;
138.6000;0.7863;1.2846;
138.9000;0.7880;1.2846;
139.2000;0.7831;1.2745;
139.5000;0.7904;1.2871;
139.8000;0.7847;1.2821;
140.1000;0.7993;1.3148;
140.4000;0.7855;1.2821;
140.7000;0.7847;1.2771;
141.0000;0.7855;1.2821;
141.3000;0.7871;1.2796;
141.6000;0.7871;1.2796;
141.9000;0.7798;1.2695;
142.2000;0.7855;1.2695;
142.5000;0.7823;1.2619;
142.8000;0.7855;1.2720;
143.1000;0.7847;1.2745;
143.4000;0.7871;1.2871;
143.7000;0.7855;1.2897;
144.0000;0.7871;1.2846;
144.3000;0.7880;1.2897;
144.6000;0.7855;1.2720;
144.9000;0.7855;1.2796;
145.2000;0.7863;1.2771;
145.5000;0.7871;1.2670;
145.8000;0.7904;1.2619;
146.1000;0.7871;1.2443;
146.4000;0.7871;1.2544;
146.7000;0.7904;1.2619;
147.0000;0.7880;1.2594;
147.3000;0.7863;1.2619;
147.6000;0.7847;1.2544;
147.9000;0.7880;1.2645;
148.2000;0.7880;1.2594;
148.5000;0.7839;1.2594;
148.8000;0.7855;1.2720;
149.1000;0.7880;1.2720;
149.4000;0.7871;1.2771;
149.7000;0.7904;1.2871;
150.0000;0.7855;1.2871;
150.3000;0.7871;1.2997;
150.6000;0.7814;1.2846;
150.9000;0.7847;1.2846;
151.2000;0.7839;1.2771;
151.5000;0.7863;1.2871;
151.8000;0.7871;1.2897;
152.1000;0.7847;1.2846;
152.4000;0.7839;1.2796;
152.7000;0.7863;1.2796;
153.0000;0.7863;1.2821;
153.3000;0.7863;1.2796;
153.6000;0.7855;1.2745;
153.9000;0.7863;1.2796;
154.2000;0.7855;1.2897;
154.5000;0.7871;1.2821;
154.8000;0.7863;1.2846;
155.1000;0.7871;1.2871;
155.4000;0.7863;1.2796;
155.7000;0.7839;1.2720;
156.0000;0.7847;1.2720;
156.3000;0.7855;1.2720;
156.6000;0.7863;1.2695;
156.9000;0.7888;1.2796;
157.2000;0.7863;1.2645;
157.5000;0.7880;1.2645;
157.8000;0.7871;1.2745;
158.1000;0.7855;1.2745;
158.4000;0.7839;1.2670;
158.7000;0.7847;1.2695;
159.0000;0.7904;1.2897;
159.3000;0.7888;1.2796;
159.6000;0.7871;1.2745;
159.9000;0.7855;1.2645;
160.2000;0.7855;1.2670;
160.5000;0.7863;1.2720;
160.8000;0.7888;1.2745;
161.1000;0.7863;1.2695;
161.4000;0.7831;1.2619;
161.7000;0.7855;1.2670;
162.0000;0.7871;1.2645;
162.3000;0.7863;1.2619;
162.6000;0.7806;1.2418;
162.9000;0.7896;1.2619;
163.2000;0.7831;1.2494;
163.5000;0.7904;1.2670;
163.8000;0.7888;1.2594;
164.1000;0.7880;1.2569;
164.4000;0.7888;1.2695;
164.7000;0.7839;1.2544;
165.0000;0.7871;1.2594;
165.3000;0.7847;1.2569;
165.6000;0.7888;1.2670;
165.9000;0.7847;1.2619;
166.2000;0.7847;1.2569;
166.5000;0.7912;1.2670;
166.8000;0.7863;1.2468;
167.1000;0.7863;1.2494;
167.4000;0.7904;1.2519;
167.7000;0.7847;1.2342;
168.0000;0.7863;1.2418;
168.3000;0.7888;1.2418;
168.6000;0.7863;1.2292;
168.9000;0.7863;1.2418;
169.2000;0.7863;1.2569;
169.5000;0.7904;1.2645;
169.8000;0.7871;1.2519;
170.1000;0.7871;1.2468;
170.4000;0.7823;1.2342;
170.7000;0.7855;1.2393;
171.0000;0.7855;1.2443;
171.3000;0.7920;1.2695;
171.6000;0.7863;1.2519;
171.9000;0.7888;1.2594;
172.2000;0.7880;1.2594;
172.5000;0.7823;1.2418;
172.8000;0.7855;1.2544;
173.1000;0.7855;1.2544;
173.4000;0.7896;1.2695;
173.7000;0.7880;1.2594;
174.0000;0.7847;1.2544;
174.3000;0.7847;1.2594;
174.6000;0.7871;1.2670;
174.9000;0.7871;1.2619;
175.2000;0.7863;1.2670;
175.5000;0.7831;1.2544;
175.8000;0.7888;1.2645;
176.1000;0.7855;1.2619;
176.4000;0.7847;1.2619;
176.7000;0.7831;1.2619;
177.0000;0.7847;1.2670;
177.3000;0.7871;1.2645;
177.6000;0.7863;1.2569;
177.9000;0.7855;1.2544;
178.2000;0.7855;1.2544;
178.5000;0.7831;1.2594;
178.8000;0.7839;1.2619;
179.1000;0.7863;1.2720;
179.4000;0.7847;1.2720;
179.7000;0.7863;1.2695;
180.0000;0.7855;1.2645;
180.3000;0.7839;1.2569;
180.6000;0.7863;1.2645;
180.9000;0.7839;1.2544;
181.2000;0.7855;1.2619;
181.5000;0.7855;1.2569;
181.8000;0.7839;1.2645;
182.1000;0.7871;1.2745;
182.4000;0.7855;1.2720;
182.7000;0.7871;1.2745;
183.0000;0.7855;1.2720;
183.3000;0.7863;1.2771;
183.6000;0.7847;1.2796;
183.9000;0.7863;1.2720;
184.2000;0.7863;1.2619;
184.5000;0.7863;1.2645;
184.8000;0.7880;1.2720;
185.1000;0.7863;1.2569;
185.4000;0.7847;1.2544;
185.7000;0.7928;1.2745;
186.0000;0.7847;1.2468;
186.3000;0.7880;1.2468;
186.6000;0.7847;1.2368;
186.9000;0.7847;1.2393;
187.2000;0.7847;1.2494;
187.5000;0.7871;1.2544;
187.8000;0.7855;1.2619;
188.1000;0.7831;1.2594;
188.4000;0.7847;1.2645;
188.7000;0.7855;1.2720;
189.0000;0.7863;1.2745;
189.3000;0.7863;1.2720;
189.6000;0.7839;1.2695;
189.9000;0.7863;1.2720;
190.2000;0.7863;1.2695;
190.5000;0.7831;1.2619;
190.8000;0.7839;1.2796;
191.1000;0.7847;1.2745;
191.4000;0.7904;1.2846;
191.7000;0.7880;1.2821;
192.0000;0.7855;1.2720;
192.3000;0.7855;1.2771;
192.6000;0.7863;1.2745;
192.9000;0.7774;1.2569;
193.2000;0.7847;1.2695;
193.5000;0.7831;1.2569;
193.8000;0.7855;1.2569;
194.1000;0.7863;1.2619;
194.4000;0.7839;1.2695;
194.7000;0.7839;1.2619;
195.0000;0.7863;1.2720;
195.3000;0.7847;1.2745;
195.6000;0.7871;1.2796;
195.9000;0.7855;1.2720;
196.2000;0.7855;1.2720;
196.5000;0.7814;1.2695;
196.8000;0.7790;1.2670;
197.1000;0.7839;1.2745;
197.4000;0.7831;1.2796;
197.7000;0.7847;1.2796;
198.0000;0.7823;1.2720;
198.3000;0.7855;1.2821;
198.6000;0.7839;1.2771;
198.9000;0.7790;1.2544;
199.2000;0.7863;1.2771;
199.5000;0.7855;1.2720;
199.8000;0.7831;1.2720;
200.1000;0.7888;1.2745;
200.4000;0.7855;1.2670;
200.7000;0.7749;1.2443;
201.0000;0.7839;1.2670;
201.3000;0.7863;1.2745;
201.6000;0.7863;1.2796;
201.9000;0.7847;1.2695;
202.2000;0.7855;1.2594;
202.5000;0.7855;1.2569;
202.8000;0.7855;1.2544;
203.1000;0.7880;1.2619;
203.4000;0.7855;1.2594;
203.7000;0.7863;1.2594;
204.0000;0.7896;1.2670;
204.3000;0.7888;1.2695;
204.6000;0.7871;1.2796;
204.9000;0.7871;1.2745;
205.2000;0.7888;1.2796;
205.5000;0.7871;1.2771;
205.8000;0.7806;1.2670;
206.1000;0.7863;1.2796;
206.4000;0.7847;1.2670;
206.7000;0.7863;1.2720;
207.0000;0.7863;1.2846;
207.3000;0.7855;1.2871;
207.6000;0.7847;1.2796;
207.9000;0.7863;1.2796;
208.2000;0.7863;1.2796;
208.5000;0.7839;1.2771;
208.8000;0.7831;1.2771;
209.1000;0.7782;1.2670;
209.4000;0.7847;1.2821;
209.7000;0.7847;1.2846;
210.0000;0.7855;1.2821;
210.3000;0.7871;1.2846;
210.6000;0.7855;1.2871;
210.9000;0.7855;1.2821;
211.2000;0.7928;1.2922;
211.5000;0.7847;1.2645;
211.8000;0.7863;1.2594;
212.1000;0.7863;1.2645;
212.4000;0.7855;1.2695;
212.7000;0.7920;1.2947;
213.0000;0.7863;1.2821;
213.3000;0.7928;1.2997;
213.6000;0.7814;1.2720;
213.9000;0.7847;1.2771;
214.2000;0.7847;1.2796;
214.5000;0.7880;1.2897;
214.8000;0.7847;1.2897;
215.1000;0.7863;1.2897;
215.4000;0.7823;1.2796;
215.7000;0.7839;1.2846;
216.0000;0.7839;1.2871;
216.3000;0.7831;1.2897;
216.6000;0.7814;1.2771;
216.9000;0.7855;1.2846;
217.2000;0.7855;1.2846;
217.5000;0.7823;1.2871;
217.8000;0.7847;1.2922;
218.1000;0.7863;1.2897;
218.4000;0.7855;1.2897;
218.7000;0.7847;1.2871;
219.0000;0.7798;1.2670;
219.3000;0.7847;1.2796;
219.6000;0.7839;1.2821;
219.9000;0.7839;1.2846;
220.2000;0.7855;1.2745;
220.5000;0.7896;1.2897;
220.8000;0.7863;1.2897;
221.1000;0.7863;1.2871;
221.4000;0.7831;1.2821;
221.7000;0.7855;1.2871;
222.0000;0.7847;1.2821;
222.3000;0.7831;1.2771;
222.6000;0.7790;1.2695;
222.9000;0.7863;1.2871;
223.2000;0.7855;1.2846;
223.5000;0.7871;1.2771;
223.8000;0.7847;1.2745;
224.1000;0.7871;1.2670;
224.4000;0.7863;1.2720;
224.7000;0.7823;1.2594;
225.0000;0.7847;1.2745;
225.3000;0.7880;1.2745;
225.6000;0.7871;1.2695;
225.9000;0.7880;1.2846;
226.2000;0.7847;1.2695;
226.5000;0.7839;1.2745;
226.8000;0.7871;1.2821;
227.1000;0.7880;1.2771;
227.4000;0.7863;1.2796;
227.7000;0.7855;1.2821;
228.0000;0.7839;1.2695;
228.3000;0.7847;1.2771;
228.6000;0.7839;1.2821;
228.9000;0.7839;1.2771;
229.2000;0.7847;1.2846;
229.5000;0.7871;1.2947;
229.8000;0.7806;1.2821;
230.1000;0.7855;1.2972;
230.4000;0.7855;1.2897;
230.7000;0.7814;1.2796;
231.0000;0.7863;1.2846;
231.3000;0.7896;1.2871;
231.6000;0.7839;1.2771;
231.9000;0.7839;1.2720;
232.2000;0.7863;1.2771;
232.5000;0.7912;1.2846;
232.8000;0.7928;1.2947;
233.1000;0.7814;1.2645;
233.4000;0.7863;1.2771;
233.7000;0.7847;1.2670;
234.0000;0.7806;1.2594;
234.3000;0.7863;1.2821;
234.6000;0.7855;1.2771;
234.9000;0.7855;1.2720;
235.2000;0.7855;1.2695;
235.5000;0.7880;1.2771;
235.8000;0.7847;1.2695;
236.1000;0.7928;1.2922;
236.4000;0.7863;1.2720;
236.7000;0.7839;1.2645;
237.0000;0.7855;1.2745;
237.3000;0.7831;1.2745;
237.6000;0.7871;1.2821;
237.9000;0.7831;1.2670;
238.2000;0.7863;1.2720;
238.5000;0.7831;1.2619;
238.8000;0.7839;1.2619;
239.1000;0.7863;1.2594;
239.4000;0.7855;1.2594;
239.7000;0.7847;1.2544;
240.0000;0.7880;1.2519;
240.3000;0.7847;1.2519;
240.6000;0.7863;1.2519;
240.9000;0.7863;1.2569;
241.2000;0.7847;1.2619;
241.5000;0.7839;1.2695;
241.8000;0.7855;1.2720;
242.1000;0.7839;1.2670;
242.4000;0.7839;1.2619;
242.7000;0.7863;1.2619;
243.0000;0.7831;1.2494;
243.3000;0.7847;1.2519;
243.6000;0.7863;1.2468;
243.9000;0.7855;1.2494;
244.2000;0.7855;1.2468;
244.5000;0.7863;1.2468;
244.8000;0.7863;1.2494;
245.1000;0.7863;1.2519;
245.4000;0.7871;1.2619;
245.7000;0.7871;1.2619;
246.0000;0.7888;1.2695;
246.3000;0.7888;1.2771;
246.6000;0.7831;1.2695;
246.9000;0.7839;1.2796;
247.2000;0.7855;1.2821;
247.5000;0.7880;1.2897;
247.8000;0.7904;1.2897;
248.1000;0.7847;1.2771;
248.4000;0.7863;1.2871;
248.7000;0.7855;1.2922;
249.0000;0.7782;1.2695;
249.3000;0.7839;1.2871;
249.6000;0.7855;1.2997;
249.9000;0.7920;1.3123;
250.2000;0.7855;1.2871;
250.5000;0.7855;1.2871;
250.8000;0.7863;1.2846;
251.1000;0.7863;1.2846;
251.4000;0.7855;1.2821;
251.7000;0.7871;1.2821;
252.0000;0.7855;1.2720;
252.3000;0.7847;1.2670;
252.6000;0.7847;1.2594;
252.9000;0.7814;1.2468;
253.2000;0.7847;1.2519;
253.5000;0.7847;1.2619;
253.8000;0.7847;1.2670;
254.1000;0.7839;1.2745;
254.4000;0.7831;1.2695;
254.7000;0.7847;1.2720;
255.0000;0.7855;1.2796;
255.3000;0.7823;1.2695;
255.6000;0.7847;1.2745;
255.9000;0.7790;1.2645;
256.2000;0.7847;1.2720;
256.5000;0.7839;1.2745;
256.8000;0.7839;1.2771;
257.1000;0.7928;1.3098;
257.4000;0.7831;1.2821;
257.7000;0.7855;1.2846;
258.0000;0.7823;1.2771;
258.3000;0.7831;1.2745;
258.6000;0.7806;1.2846;
258.9000;0.7871;1.3048;
259.2000;0.7847;1.2997;
259.5000;0.7831;1.2897;
259.8000;0.7814;1.2745;
260.1000;0.7806;1.2720;
260.4000;0.7847;1.2796;
260.7000;0.7847;1.2821;
261.0000;0.7880;1.2897;
261.3000;0.7847;1.2821;
261.6000;0.7798;1.2720;
261.9000;0.7847;1.2897;
262.2000;0.7871;1.2922;
262.5000;0.7782;1.2695;
262.8000;0.7880;1.2997;
263.1000;0.7847;1.2947;
263.4000;0.7847;1.2871;
263.7000;0.7888;1.2997;
264.0000;0.7806;1.2821;
264.3000;0.7871;1.2897;
264.6000;0.7806;1.2619;
264.9000;0.7839;1.2619;
265.2000;0.7798;1.2544;
265.5000;0.7855;1.2796;
265.8000;0.7831;1.2670;
266.1000;0.7855;1.2619;
266.4000;0.7855;1.2645;
266.7000;0.7847;1.2645;
267.0000;0.7831;1.2569;
267.3000;0.7863;1.2670;
267.6000;0.7831;1.2594;
267.9000;0.7839;1.2594;
268.2000;0.7814;1.2544;
268.5000;0.7798;1.2418;
268.8000;0.7847;1.2569;
269.1000;0.7847;1.2569;
269.4000;0.7847;1.2544;
269.7000;0.7847;1.2594;
270.0000;0.7847;1.2695;
270.3000;0.7863;1.2695;
270.6000;0.7839;1.2771;
270.9000;0.7831;1.2796;
271.2000;0.7863;1.2821;
271.5000;0.7823;1.2771;
271.8000;0.7855;1.2821;
272.1000;0.7839;1.2720;
272.4000;0.7839;1.2745;
272.7000;0.7855;1.2745;
273.0000;0.7839;1.2771;
273.3000;0.7847;1.2771;
273.6000;0.7839;1.2796;
273.9000;0.7863;1.2846;
274.2000;0.7847;1.2771;
274.5000;0.7863;1.2871;
274.8000;0.7912;1.3098;
275.1000;0.7855;1.2922;
275.4000;0.7863;1.2821;
275.7000;0.7839;1.2695;
276.0000;0.7855;1.2695;
276.3000;0.7839;1.2670;
276.6000;0.7847;1.2670;
276.9000;0.7863;1.2645;
277.2000;0.7871;1.2645;
277.5000;0.7863;1.2670;
277.8000;0.7863;1.2720;
278.1000;0.7847;1.2695;
278.4000;0.7847;1.2720;
278.7000;0.7831;1.2695;
279.0000;0.7855;1.2771;
279.3000;0.7847;1.2720;
279.6000;0.7855;1.2745;
279.9000;0.7831;1.2796;
280.2000;0.7847;1.2796;
280.5000;0.7814;1.2771;
280.8000;0.7896;1.2997;
281.1000;0.7839;1.2922;
281.4000;0.7839;1.2871;
281.7000;0.7863;1.2922;
282.0000;0.7896;1.3073;
282.3000;0.7814;1.2796;
282.6000;0.7847;1.2871;
282.9000;0.7839;1.2871;
283.2000;0.7847;1.2922;
283.5000;0.7806;1.2771;
283.8000;0.7798;1.2720;
284.1000;0.7839;1.2745;
284.4000;0.7823;1.2670;
284.7000;0.7904;1.2897;
285.0000;0.7831;1.2695;
285.3000;0.7831;1.2670;
285.6000;0.7839;1.2645;
285.9000;0.7847;1.2569;
286.2000;0.7863;1.2720;
286.5000;0.7814;1.2594;
286.8000;0.7855;1.2695;
287.1000;0.7847;1.2720;
287.4000;0.7823;1.2594;
287.7000;0.7847;1.2645;
288.0000;0.7839;1.2695;
288.3000;0.7847;1.2745;
288.6000;0.7863;1.2846;
288.9000;0.7814;1.2745;
289.2000;0.7863;1.2796;
289.5000;0.7855;1.2745;
289.8000;0.7831;1.2594;
290.1000;0.7855;1.2544;
290.4000;0.7806;1.2418;
290.7000;0.7855;1.2569;
291.0000;0.7831;1.2494;
291.3000;0.7847;1.2544;
291.6000;0.7847;1.2594;
291.9000;0.7831;1.2569;
292.2000;0.7953;1.2821;
292.5000;0.7814;1.2544;
292.8000;0.7839;1.2519;
293.1000;0.7855;1.2569;
293.4000;0.7847;1.2594;
293.7000;0.7814;1.2569;
294.0000;0.7839;1.2544;
294.3000;0.7839;1.2443;
294.6000;0.7855;1.2418;
294.9000;0.7831;1.2342;
295.2000;0.7831;1.2292;
295.5000;0.7863;1.2393;
295.8000;0.7855;1.2443;
296.1000;0.7831;1.2393;
296.4000;0.7831;1.2418;
296.7000;0.7839;1.2418;
297.0000;0.7847;1.2443;
297.3000;0.7847;1.2418;
297.6000;0.7839;1.2418;
297.9000;0.7831;1.2519;
298.2000;0.7847;1.2468;
298.5000;0.7847;1.2418;
298.8000;0.7880;1.2368;
299.1000;0.7855;1.2292;
299.4000;0.7855;1.2418;
299.7000;0.7863;1.2368;
300.0000;0.7863;1.2494;
300.3000;0.7831;1.2418;
300.6000;0.7855;1.2468;
300.9000;0.7863;1.2519;
301.2000;0.7863;1.2544;
301.5000;0.7831;1.2418;
301.8000;0.7912;1.2569;
302.1000;0.7953;1.2619;
302.4000;0.7831;1.2342;
302.7000;0.7741;1.2040;
303.0000;0.7831;1.2242;
303.3000;0.7863;1.2267;
303.6000;0.7839;1.2317;
303.9000;0.7855;1.2368;
304.2000;0.7839;1.2393;
304.5000;0.7945;1.2670;
304.8000;0.7790;1.2418;
305.1000;0.7806;1.2544;
305.4000;0.7847;1.2645;
305.7000;0.7831;1.2569;
306.0000;0.7831;1.2670;
306.3000;0.7823;1.2594;
306.6000;0.7831;1.2670;
306.9000;0.7871;1.2695;
307.2000;0.7863;1.2594;
307.5000;0.7880;1.2594;
307.8000;0.7823;1.2519;
308.1000;0.7831;1.2468;
308.4000;0.7839;1.2418;
308.7000;0.7831;1.2393;
309.0000;0.7839;1.2368;
309.3000;0.7831;1.2267;
309.6000;0.7806;1.2267;
309.9000;0.7831;1.2443;
310.2000;0.7839;1.2418;
310.5000;0.7814;1.2418;
310.8000;0.7814;1.2418;
311.1000;0.7839;1.2468;
311.4000;0.7855;1.2544;
311.7000;0.7863;1.2594;
312.0000;0.7814;1.2519;
312.3000;0.7871;1.2594;
312.6000;0.7831;1.2519;
312.9000;0.7823;1.2569;
313.2000;0.7831;1.2619;
313.5000;0.7839;1.2670;
313.8000;0.7814;1.2569;
314.1000;0.7839;1.2645;
314.4000;0.7839;1.2619;
314.7000;0.7839;1.2695;
315.0000;0.7839;1.2771;
315.3000;0.7814;1.2720;
315.6000;0.7831;1.2745;
315.9000;0.7839;1.2695;
316.2000;0.7847;1.2771;
316.5000;0.7823;1.2720;
316.8000;0.7839;1.2720;
317.1000;0.7839;1.2695;
317.4000;0.7847;1.2695;
317.7000;0.7823;1.2720;
318.0000;0.7741;1.2418;
318.3000;0.7831;1.2645;
318.6000;0.7831;1.2670;
318.9000;0.7839;1.2645;
319.2000;0.7831;1.2670;
319.5000;0.7831;1.2645;
319.8000;0.7839;1.2619;
320.1000;0.7847;1.2619;
320.4000;0.7839;1.2519;
320.7000;0.7855;1.2544;
321.0000;0.7823;1.2443;
321.3000;0.7855;1.2494;
321.6000;0.7839;1.2368;
321.9000;0.7839;1.2368;
322.2000;0.7831;1.2368;
322.5000;0.7847;1.2468;
322.8000;0.7814;1.2494;
323.1000;0.7798;1.2418;
323.4000;0.7855;1.2494;
323.7000;0.7855;1.2393;
324.0000;0.7839;1.2418;
324.3000;0.7823;1.2393;
324.6000;0.7823;1.2393;
324.9000;0.7831;1.2393;
325.2000;0.7871;1.2519;
325.5000;0.7831;1.2393;
325.8000;0.7814;1.2342;
326.1000;0.7855;1.2468;
326.4000;0.7831;1.2393;
326.7000;0.7823;1.2393;
327.0000;0.7912;1.2720;
327.3000;0.7863;1.2695;
327.6000;0.7847;1.2569;
327.9000;0.7839;1.2645;
328.2000;0.7863;1.2645;
328.5000;0.7847;1.2619;
328.8000;0.7814;1.2544;
329.1000;0.7814;1.2670;
329.4000;0.7839;1.2745;
329.7000;0.7814;1.2796;
330.0000;0.7823;1.2745;
330.3000;0.7823;1.2670;
330.6000;0.7839;1.2594;
330.9000;0.7790;1.2368;
331.2000;0.7839;1.2519;
331.5000;0.7847;1.2443;
331.8000;0.7798;1.2317;
332.1000;0.7831;1.2267;
332.4000;0.7839;1.2216;
332.7000;0.7831;1.2267;
333.0000;0.7855;1.2393;
333.3000;0.7847;1.2292;
333.6000;0.7847;1.2242;
333.9000;0.7806;1.2216;
334.2000;0.7847;1.2292;
334.5000;0.7847;1.2368;
334.8000;0.7904;1.2569;
335.1000;0.7847;1.2544;
335.4000;0.7839;1.2569;
335.7000;0.7847;1.2519;
336.0000;0.7977;1.2745;
336.3000;0.7839;1.2393;
336.6000;0.7871;1.2544;
336.9000;0.7831;1.2368;
337.2000;0.7847;1.2342;
337.5000;0.7855;1.2468;
337.8000;0.7863;1.2569;
338.1000;0.7847;1.2619;
338.4000;0.7814;1.2569;
338.7000;0.7847;1.2594;
339.0000;0.7847;1.2569;
339.3000;0.7839;1.2468;
339.6000;0.7790;1.2418;
339.9000;0.7790;1.2443;
340.2000;0.7831;1.2519;
340.5000;0.7863;1.2569;
340.8000;0.7823;1.2494;
341.1000;0.7806;1.2468;
341.4000;0.7839;1.2544;
341.7000;0.7888;1.2645;
342.0000;0.7839;1.2468;
342.3000;0.7847;1.2468;
342.6000;0.7855;1.2519;
342.9000;0.7863;1.2519;
343.2000;0.7806;1.2443;
343.5000;0.7839;1.2544;
343.8000;0.7855;1.2619;
344.1000;0.7814;1.2393;
344.4000;0.7831;1.2418;
344.7000;0.7823;1.2443;
345.0000;0.7814;1.2317;
345.3000;0.7806;1.2267;
345.6000;0.7831;1.2292;
345.9000;0.7831;1.2342;
346.2000;0.7823;1.2342;
346.5000;0.7855;1.2418;
346.8000;0.7806;1.2393;
347.1000;0.7863;1.2544;
347.4000;0.7831;1.2544;
347.7000;0.7823;1.2443;
348.0000;0.7831;1.2368;
348.3000;0.7847;1.2519;
348.6000;0.7831;1.2468;
348.9000;0.7814;1.2393;
349.2000;0.7806;1.2342;
349.5000;0.7831;1.2468;
349.8000;0.7823;1.2468;
350.1000;0.7749;1.2242;
350.4000;0.7798;1.2468;
350.7000;0.7823;1.2594;
351.0000;0.7831;1.2645;
351.3000;0.7831;1.2619;
351.6000;0.7831;1.2519;
351.9000;0.7847;1.2569;
352.2000;0.7839;1.2569;
352.5000;0.7831;1.2569;
352.8000;0.7823;1.2594;
353.1000;0.7847;1.2619;
353.4000;0.7839;1.2619;
353.7000;0.7823;1.2594;
354.0000;0.7831;1.2619;
354.3000;0.7839;1.2619;
354.6000;0.7831;1.2544;
354.9000;0.7823;1.2519;
355.2000;0.7823;1.2494;
355.5000;0.7855;1.2519;
355.8000;0.7847;1.2494;
356.1000;0.7847;1.2569;
356.4000;0.7814;1.2494;
356.7000;0.7839;1.2569;
357.0000;0.7847;1.2569;
357.3000;0.7831;1.2494;
357.6000;0.7831;1.2468;
357.9000;0.7823;1.2418;
358.2000;0.7847;1.2468;
358.5000;0.7847;1.2443;
358.8000;0.7839;1.2443;
359.1000;0.7823;1.2418;
359.4000;0.7831;1.2544;
359.7000;0.7823;1.2594;
360.0000;0.7871;1.2670;
360.3000;0.7823;1.2494;
360.6000;0.7920;1.2720;
360.9000;0.7880;1.2670;
361.2000;0.7823;1.2519;
361.5000;0.7831;1.2494;
361.8000;0.7831;1.2468;
362.1000;0.7823;1.2418;
362.4000;0.7831;1.2544;
362.7000;0.7839;1.2645;
363.0000;0.7749;1.2443;
363.3000;0.7839;1.2569;
363.6000;0.7823;1.2569;
363.9000;0.7806;1.2443;
364.2000;0.7823;1.2519;
364.5000;0.7847;1.2519;
364.8000;0.7831;1.2494;
365.1000;0.7823;1.2594;
365.4000;0.7823;1.2645;
365.7000;0.7847;1.2720;
366.0000;0.7831;1.2569;
366.3000;0.7831;1.2494;
366.6000;0.7823;1.2544;
366.9000;0.7831;1.2519;
367.2000;0.7839;1.2494;
367.5000;0.7839;1.2418;
367.8000;0.7831;1.2393;
368.1000;0.7798;1.2317;
368.4000;0.7855;1.2393;
368.7000;0.7749;1.2216;
369.0000;0.7839;1.2443;
369.3000;0.7823;1.2418;
369.6000;0.7831;1.2468;
369.9000;0.7831;1.2494;
370.2000;0.7839;1.2468;
370.5000;0.7839;1.2418;
370.8000;0.7823;1.2468;
371.1000;0.7847;1.2494;
371.4000;0.7839;1.2494;
371.7000;0.7831;1.2418;
372.0000;0.7855;1.2468;
372.3000;0.7847;1.2544;
372.6000;0.7831;1.2393;
372.9000;0.7831;1.2418;
373.2000;0.7806;1.2393;
373.5000;0.7839;1.2494;
373.8000;0.7831;1.2519;
374.1000;0.7823;1.2393;
374.4000;0.7831;1.2519;
374.7000;0.7814;1.2519;
375.0000;0.7806;1.2544;
375.3000;0.7823;1.2670;
375.6000;0.7806;1.2594;
375.9000;0.7871;1.2796;
376.2000;0.7831;1.2745;
376.5000;0.7823;1.2720;
376.8000;0.7823;1.2670;
377.1000;0.7831;1.2645;
377.4000;0.7839;1.2670;
377.7000;0.7855;1.2645;
378.0000;0.7847;1.2544;
378.3000;0.7831;1.2468;
378.6000;0.7839;1.2418;
378.9000;0.7847;1.2468;
379.2000;0.7839;1.2443;
379.5000;0.7871;1.2443;
379.8000;0.7823;1.2368;
380.1000;0.7839;1.2443;
380.4000;0.7839;1.2418;
380.7000;0.7823;1.2393;
381.0000;0.7814;1.2418;
381.3000;0.7855;1.2544;
381.6000;0.7839;1.2519;
381.9000;0.7839;1.2544;
382.2000;0.7847;1.2544;
382.5000;0.7831;1.2519;
382.8000;0.7847;1.2494;
383.1000;0.7839;1.2544;
383.4000;0.7847;1.2519;
383.7000;0.7839;1.2468;
384.0000;0.7904;1.2619;
384.3000;0.7839;1.2519;
384.6000;0.7847;1.2594;
384.9000;0.7823;1.2619;
385.2000;0.7814;1.2619;
385.5000;0.7831;1.2645;
385.8000;0.7831;1.2619;
386.1000;0.7831;1.2670;
386.4000;0.7839;1.2670;
386.7000;0.7782;1.2494;
387.0000;0.7814;1.2594;
387.3000;0.7839;1.2645;
387.6000;0.7839;1.2594;
387.9000;0.7863;1.2695;
388.2000;0.7831;1.2670;
388.5000;0.7896;1.2846;
388.8000;0.7847;1.2720;
389.1000;0.7839;1.2745;
389.4000;0.7823;1.2670;
389.7000;0.7823;1.2645;
390.0000;0.7839;1.2695;
390.3000;0.7814;1.2594;
390.6000;0.7823;1.2468;
390.9000;0.7823;1.2443;
391.2000;0.7814;1.2443;
391.5000;0.7831;1.2494;
391.8000;0.7806;1.2418;
392.1000;0.7814;1.2468;
392.4000;0.7831;1.2494;
392.7000;0.7839;1.2519;
393.0000;0.7823;1.2569;
393.3000;0.7839;1.2594;
393.6000;0.7831;1.2519;
393.9000;0.7839;1.2569;
394.2000;0.7839;1.2569;
394.5000;0.7806;1.2494;
394.8000;0.7839;1.2494;
395.1000;0.7888;1.2619;
395.4000;0.7823;1.2494;
395.7000;0.7823;1.2443;
396.0000;0.7839;1.2519;
396.3000;0.7928;1.2771;
396.6000;0.7831;1.2494;
396.9000;0.7855;1.2569;
397.2000;0.7831;1.2544;
397.5000;0.7839;1.2594;
397.8000;0.7823;1.2594;
398.1000;0.7823;1.2645;
398.4000;0.7839;1.2645;
398.7000;0.7782;1.2468;
399.0000;0.7831;1.2569;
399.3000;0.7831;1.2569;
399.6000;0.7847;1.2519;
399.9000;0.7806;1.2544;
400.2000;0.7839;1.2569;
400.5000;0.7831;1.2494;
400.8000;0.7847;1.2544;
401.1000;0.7823;1.2544;
401.4000;0.7831;1.2544;
401.7000;0.7831;1.2594;
402.0000;0.7757;1.2443;
402.3000;0.7839;1.2594;
402.6000;0.7871;1.2771;
402.9000;0.7912;1.2821;
403.2000;0.7831;1.2645;
403.5000;0.7896;1.2745;
403.8000;0.7928;1.2821;
404.1000;0.7823;1.2519;
404.4000;0.7839;1.2494;
404.7000;0.7782;1.2393;
405.0000;0.7839;1.2569;
405.3000;0.7831;1.2619;
405.6000;0.7814;1.2468;
405.9000;0.7831;1.2443;
406.2000;0.7839;1.2443;
406.5000;0.7831;1.2393;
406.8000;0.7823;1.2342;
407.1000;0.7831;1.2342;
407.4000;0.7798;1.2267;
407.7000;0.7839;1.2393;
408.0000;0.7831;1.2393;
408.3000;0.7863;1.2494;
408.6000;0.7839;1.2317;
408.9000;0.7831;1.2242;
409.2000;0.7831;1.2242;
409.5000;0.7839;1.2216;
409.8000;0.7831;1.2141;
410.1000;0.7831;1.2065;
410.4000;0.7823;1.2040;
410.7000;0.7839;1.2065;
411.0000;0.7839;1.2216;
411.3000;0.7831;1.2216;
411.6000;0.7831;1.2242;
411.9000;0.7839;1.2292;
412.2000;0.7823;1.2342;
412.5000;0.7831;1.2443;
412.8000;0.7823;1.2443;
413.1000;0.7839;1.2468;
413.4000;0.7831;1.2468;
413.7000;0.7831;1.2544;
414.0000;0.7831;1.2594;
414.3000;0.7920;1.2846;
414.6000;0.7839;1.2670;
414.9000;0.7831;1.2544;
415.2000;0.7823;1.2544;
415.5000;0.7823;1.2569;
415.8000;0.7823;1.2544;
416.1000;0.7823;1.2695;
416.4000;0.7823;1.2594;
416.7000;0.7831;1.2619;
417.0000;0.7831;1.2619;
417.3000;0.7896;1.2771;
417.6000;0.7823;1.2594;
417.9000;0.7831;1.2594;
418.2000;0.7806;1.2494;
418.5000;0.7847;1.2619;
418.8000;0.7814;1.2418;
419.1000;0.7871;1.2519;
419.4000;0.7855;1.2544;
419.7000;0.7831;1.2519;
420.0000;0.7823;1.2443;
420.3000;0.7831;1.2494;
420.6000;0.7814;1.2468;
420.9000;0.7823;1.2468;
421.2000;0.7823;1.2468;
421.5000;0.7806;1.2393;
421.8000;0.7814;1.2468;
422.1000;0.7814;1.2544;
422.4000;0.7782;1.2494;
422.7000;0.7831;1.2619;
423.0000;0.7823;1.2645;
423.3000;0.7741;1.2418;
423.6000;0.7814;1.2645;
423.9000;0.7814;1.2670;
424.2000;0.7814;1.2619;
424.5000;0.7871;1.2745;
424.8000;0.7823;1.2645;
425.1000;0.7806;1.2670;
425.4000;0.7839;1.2796;
425.7000;0.7806;1.2821;
426.0000;0.7814;1.2771;
426.3000;0.7831;1.2796;
426.6000;0.7741;1.2645;
426.9000;0.7831;1.2871;
427.2000;0.7847;1.2846;
427.5000;0.7814;1.2796;
427.8000;0.7782;1.2695;
428.1000;0.7831;1.2695;
428.4000;0.7831;1.2645;
428.7000;0.7831;1.2695;
429.0000;0.7888;1.2871;
429.3000;0.7798;1.2695;
429.6000;0.7831;1.2695;
429.9000;0.7839;1.2720;
430.2000;0.7839;1.2745;
430.5000;0.7831;1.2695;
430.8000;0.7814;1.2670;
431.1000;0.7831;1.2771;
431.4000;0.7823;1.2695;
431.7000;0.7831;1.2720;
432.0000;0.7814;1.2670;
432.3000;0.7823;1.2594;
432.6000;0.7823;1.2544;
432.9000;0.7855;1.2645;
433.2000;0.7831;1.2619;
433.5000;0.7798;1.2544;
433.8000;0.7839;1.2619;
434.1000;0.7831;1.2594;
434.4000;0.7823;1.2619;
434.7000;0.7839;1.2695;
435.0000;0.7839;1.2670;
435.3000;0.7774;1.2443;
435.6000;0.7863;1.2594;
435.9000;0.7823;1.2519;
436.2000;0.7823;1.2519;
436.5000;0.7823;1.2494;
436.8000;0.7790;1.2317;
437.1000;0.7814;1.2292;
437.4000;0.7814;1.2292;
437.7000;0.7823;1.2267;
438.0000;0.7839;1.2342;
438.3000;0.7863;1.2443;
438.6000;0.7839;1.2418;
438.9000;0.7831;1.2494;
439.2000;0.7774;1.2342;
439.5000;0.7823;1.2418;
439.8000;0.7823;1.2393;
440.1000;0.7831;1.2418;
440.4000;0.7806;1.2443;
440.7000;0.7798;1.2494;
441.0000;0.7839;1.2569;
441.3000;0.7863;1.2670;
441.6000;0.7831;1.2645;
441.9000;0.7823;1.2645;
442.2000;0.7831;1.2645;
442.5000;0.7823;1.2645;
442.8000;0.7831;1.2569;
443.1000;0.7749;1.2368;
443.4000;0.7798;1.2519;
443.7000;0.7831;1.2544;
444.0000;0.7814;1.2494;
444.3000;0.7823;1.2519;
444.6000;0.7823;1.2494;
444.9000;0.7823;1.2645;
445.2000;0.7896;1.2821;
445.5000;0.7766;1.2443;
445.8000;0.7823;1.2594;
446.1000;0.7823;1.2569;
446.4000;0.7823;1.2619;
446.7000;0.7823;1.2619;
447.0000;0.7814;1.2544;
447.3000;0.7806;1.2544;
447.6000;0.7814;1.2569;
447.9000;0.7798;1.2519;
448.2000;0.7790;1.2544;
448.5000;0.7782;1.2544;
448.8000;0.7823;1.2619;
449.1000;0.7823;1.2670;
449.4000;0.7823;1.2695;
449.7000;0.7814;1.2594;
450.0000;0.7814;1.2569;
450.3000;0.7823;1.2594;
450.6000;0.7823;1.2645;
450.9000;0.7806;1.2494;
451.2000;0.7806;1.2443;
451.5000;0.7814;1.2342;
451.8000;0.7806;1.2418;
452.1000;0.7814;1.2443;
452.4000;0.7823;1.2418;
452.7000;0.7814;1.2544;
453.0000;0.7847;1.2569;
453.3000;0.7831;1.2443;
453.6000;0.7790;1.2342;
453.9000;0.7814;1.2418;
454.2000;0.7806;1.2443;
454.5000;0.7790;1.2292;
454.8000;0.7814;1.2418;
455.1000;0.7831;1.2494;
455.4000;0.7831;1.2418;
455.7000;0.7831;1.2292;
456.0000;0.7823;1.2267;
456.3000;0.7823;1.2267;
456.6000;0.7814;1.2191;
456.9000;0.7839;1.2242;
457.2000;0.7823;1.2292;
457.5000;0.7806;1.2317;
457.8000;0.7863;1.2494;
458.1000;0.7814;1.2368;
458.4000;0.7823;1.2418;
458.7000;0.7814;1.2468;
459.0000;0.7806;1.2494;
459.3000;0.7790;1.2418;
459.6000;0.7831;1.2519;
459.9000;0.7814;1.2519;
460.2000;0.7823;1.2670;
460.5000;0.7814;1.2695;
460.8000;0.7790;1.2569;
461.1000;0.7806;1.2695;
461.4000;0.7814;1.2619;
461.7000;0.7831;1.2670;
462.0000;0.7814;1.2619;
462.3000;0.7831;1.2670;
462.6000;0.7831;1.2645;
462.9000;0.7896;1.2821;
463.2000;0.7823;1.2569;
463.5000;0.7847;1.2645;
463.8000;0.7806;1.2544;
464.1000;0.7823;1.2594;
464.4000;0.7831;1.2544;
464.7000;0.7823;1.2393;
465.0000;0.7880;1.2494;
465.3000;0.7831;1.2418;
465.6000;0.7839;1.2418;
465.9000;0.7814;1.2393;
466.2000;0.7831;1.2342;
466.5000;0.7823;1.2317;
466.8000;0.7855;1.2342;
467.1000;0.7790;1.2065;
467.4000;0.7806;1.2116;
467.7000;0.7814;1.2116;
468.0000;0.7847;1.2116;
468.3000;0.7855;1.2216;
468.6000;0.7831;1.2141;
468.9000;0.7814;1.2116;
469.2000;0.7839;1.2166;
469.5000;0.7798;1.2116;
469.8000;0.7806;1.2141;
470.1000;0.7814;1.2267;
470.4000;0.7831;1.2267;
470.7000;0.7814;1.2166;
471.0000;0.7855;1.2267;
471.3000;0.7806;1.2191;
471.6000;0.7847;1.2393;
471.9000;0.7790;1.2342;
472.2000;0.7823;1.2418;
472.5000;0.7839;1.2342;
472.8000;0.7806;1.2292;
473.1000;0.7782;1.2242;
473.4000;0.7782;1.2292;
473.7000;0.7806;1.2292;
474.0000;0.7806;1.2393;
474.3000;0.7806;1.2494;
474.6000;0.7847;1.2569;
474.9000;0.7798;1.2418;
475.2000;0.7806;1.2443;
475.5000;0.7806;1.2494;
475.8000;0.7806;1.2544;
476.1000;0.7790;1.2519;
476.4000;0.7806;1.2619;
476.7000;0.7823;1.2670;
477.0000;0.7814;1.2594;
477.3000;0.7774;1.2468;
477.6000;0.7798;1.2544;
477.9000;0.7823;1.2619;
478.2000;0.7790;1.2393;
478.5000;0.7814;1.2393;
478.8000;0.7823;1.2393;
479.1000;0.7831;1.2418;
479.4000;0.7774;1.2216;
479.7000;0.7839;1.2443;
480.0000;0.7806;1.2292;
480.3000;0.7806;1.2267;
480.6000;0.7847;1.2317;
480.9000;0.7814;1.2317;
481.2000;0.7814;1.2342;
481.5000;0.7847;1.2418;
481.8000;0.7782;1.2342;
482.1000;0.7814;1.2468;
482.4000;0.7806;1.2443;
482.7000;0.7774;1.2368;
483.0000;0.7806;1.2468;
483.3000;0.7806;1.2393;
483.6000;0.7823;1.2368;
483.9000;0.7814;1.2267;
484.2000;0.7814;1.2292;
484.5000;0.7823;1.2342;
484.8000;0.7806;1.2292;
485.1000;0.7814;1.2342;
485.4000;0.7814;1.2368;
485.7000;0.7806;1.2292;
486.0000;0.7831;1.2418;
486.3000;0.7806;1.2368;
486.6000;0.7831;1.2443;
486.9000;0.7806;1.2443;
487.2000;0.7806;1.2443;
487.5000;0.7806;1.2468;
487.8000;0.7839;1.2519;
488.1000;0.7814;1.2393;
488.4000;0.7823;1.2443;
488.7000;0.7806;1.2393;
489.0000;0.7782;1.2317;
489.3000;0.7823;1.2418;
489.6000;0.7831;1.2519;
489.9000;0.7798;1.2494;
490.2000;0.7782;1.2519;
490.5000;0.7839;1.2619;
490.8000;0.7831;1.2544;
491.1000;0.7839;1.2519;
491.4000;0.7823;1.2443;
491.7000;0.7831;1.2443;
492.0000;0.7733;1.2166;
492.3000;0.7855;1.2468;
492.6000;0.7814;1.2267;
492.9000;0.7806;1.2292;
493.2000;0.7806;1.2317;
493.5000;0.7806;1.2342;
493.8000;0.7782;1.2292;
494.1000;0.7839;1.2368;
494.4000;0.7847;1.2393;
494.7000;0.7806;1.2368;
495.0000;0.7814;1.2393;
495.3000;0.7823;1.2418;
495.6000;0.7798;1.2418;
495.9000;0.7806;1.2342;
496.2000;0.7806;1.2342;
496.5000;0.7806;1.2317;
496.8000;0.7814;1.2368;
497.1000;0.7806;1.2292;
497.4000;0.7790;1.2242;
497.7000;0.7757;1.2166;
498.0000;0.7790;1.2216;
498.3000;0.7798;1.2216;
498.6000;0.7823;1.2267;
498.9000;0.7823;1.2292;
499.2000;0.7814;1.2342;
499.5000;0.7806;1.2368;
499.8000;0.7733;1.2166;
500.1000;0.7814;1.2342;
500.4000;0.7814;1.2216;
500.7000;0.7806;1.2166;
501.0000;0.7814;1.2191;
501.3000;0.7782;1.2191;
501.6000;0.7814;1.2242;
501.9000;0.7806;1.2216;
502.2000;0.7863;1.2292;
502.5000;0.7863;1.2242;
502.8000;0.7823;1.2166;
503.1000;0.7823;1.2191;
503.4000;0.7790;1.2166;
503.7000;0.7847;1.2317;
504.0000;0.7798;1.2216;
504.3000;0.7814;1.2267;
504.6000;0.7798;1.2216;
504.9000;0.7814;1.2342;
505.2000;0.7814;1.2342;
505.5000;0.7823;1.2317;
505.8000;0.7814;1.2242;
506.1000;0.7806;1.2292;
506.4000;0.7766;1.2090;
506.7000;0.7790;1.2141;
507.0000;0.7806;1.2292;
507.3000;0.7790;1.2317;
507.6000;0.7766;1.2292;
507.9000;0.7798;1.2317;
508.2000;0.7790;1.2368;
508.5000;0.7774;1.2418;
508.8000;0.7766;1.2317;
509.1000;0.7798;1.2368;
509.4000;0.7774;1.2342;
509.7000;0.7806;1.2443;
510.0000;0.7798;1.2468;
510.3000;0.7790;1.2519;
510.6000;0.7806;1.2519;
510.9000;0.7806;1.2468;
511.2000;0.7847;1.2569;
511.5000;0.7798;1.2443;
511.8000;0.7782;1.2292;
512.1000;0.7806;1.2317;
512.4000;0.7814;1.2317;
512.7000;0.7806;1.2342;
513.0000;0.7806;1.2317;
513.3000;0.7798;1.2342;
513.6000;0.7806;1.2443;
513.9000;0.7814;1.2342;
514.2000;0.7798;1.2393;
514.5000;0.7798;1.2317;
514.8000;0.7814;1.2393;
515.1000;0.7847;1.2494;
515.4000;0.7733;1.2116;
515.7000;0.7798;1.2342;
516.0000;0.7814;1.2267;
516.3000;0.7814;1.2267;
516.6000;0.7814;1.2267;
516.9000;0.7782;1.2317;
517.2000;0.7806;1.2267;
517.5000;0.7782;1.2141;
517.8000;0.7806;1.2216;
518.1000;0.7855;1.2317;
518.4000;0.7766;1.2141;
518.7000;0.7806;1.2242;
519.0000;0.7831;1.2292;
519.3000;0.7814;1.2216;
519.6000;0.7814;1.2317;
519.9000;0.7863;1.2418;
520.2000;0.7823;1.2267;
520.5000;0.7806;1.2242;
520.8000;0.7823;1.2342;
521.1000;0.7806;1.2191;
521.4000;0.7814;1.2216;
521.7000;0.7823;1.2216;
522.0000;0.7823;1.2216;
522.3000;0.7774;1.2090;
522.6000;0.7806;1.2292;
522.9000;0.7790;1.2317;
523.2000;0.7798;1.2368;
523.5000;0.7782;1.2342;
523.8000;0.7790;1.2317;
524.1000;0.7814;1.2368;
524.4000;0.7741;1.2242;
524.7000;0.7814;1.2368;
525.0000;0.7823;1.2393;
525.3000;0.7814;1.2418;
525.6000;0.7847;1.2519;
525.9000;0.7798;1.2443;
526.2000;0.7806;1.2468;
526.5000;0.7749;1.2292;
526.8000;0.7823;1.2418;
527.1000;0.7806;1.2342;
527.4000;0.7823;1.2418;
527.7000;0.7757;1.2216;
528.0000;0.7806;1.2342;
528.3000;0.7823;1.2342;
528.6000;0.7790;1.2342;
528.9000;0.7806;1.2368;
529.2000;0.7855;1.2468;
529.5000;0.7790;1.2242;
529.8000;0.7823;1.2317;
530.1000;0.7814;1.2267;
530.4000;0.7782;1.2292;
530.7000;0.7798;1.2368;
531.0000;0.7798;1.2368;
531.3000;0.7863;1.2519;
531.6000;0.7823;1.2443;
531.9000;0.7823;1.2368;
532.2000;0.7806;1.2368;
532.5000;0.7806;1.2317;
532.8000;0.7814;1.2242;
533.1000;0.7831;1.2267;
533.4000;0.7814;1.2166;
533.7000;0.7814;1.2191;
534.0000;0.7814;1.2166;
534.3000;0.7774;1.1965;
534.6000;0.7814;1.1990;
534.9000;0.7823;1.2040;
535.2000;0.7847;1.2216;
535.5000;0.7847;1.2317;
535.8000;0.7823;1.2342;
536.1000;0.7814;1.2393;
536.4000;0.7806;1.2342;
536.7000;0.7798;1.2267;
537.0000;0.7790;1.2191;
537.3000;0.7814;1.2191;
537.6000;0.7782;1.2141;
537.9000;0.7798;1.2116;
538.2000;0.7814;1.2242;
538.5000;0.7814;1.2317;
538.8000;0.7798;1.2242;
539.1000;0.7709;1.1990;
539.4000;0.7814;1.2317;
539.7000;0.7798;1.2292;
540.0000;0.7790;1.2242;
540.3000;0.7823;1.2242;
540.6000;0.7806;1.2292;
540.9000;0.7814;1.2317;
541.2000;0.7806;1.2267;
541.5000;0.7806;1.2267;
541.8000;0.7871;1.2393;
542.1000;0.7790;1.2116;
542.4000;0.7855;1.2267;
542.7000;0.7798;1.2116;
543.0000;0.7782;1.2015;
543.3000;0.7806;1.2116;
543.6000;0.7782;1.1990;
543.9000;0.7806;1.2090;
544.2000;0.7814;1.2090;
544.5000;0.7806;1.2191;
544.8000;0.7806;1.2191;
545.1000;0.7766;1.2116;
545.4000;0.7814;1.2292;
545.7000;0.7855;1.2342;
546.0000;0.7806;1.2216;
546.3000;0.7798;1.2216;
546.6000;0.7790;1.2141;
546.9000;0.7814;1.2191;
547.2000;0.7798;1.2141;
547.5000;0.7782;1.2116;
547.8000;0.7798;1.2166;
548.1000;0.7798;1.2191;
548.4000;0.7806;1.2216;
548.7000;0.7806;1.2216;
549.0000;0.7798;1.2191;
549.3000;0.7823;1.2242;
549.6000;0.7790;1.2242;
549.9000;0.7798;1.2292;
550.2000;0.7774;1.2368;
550.5000;0.7766;1.2317;
550.8000;0.7700;1.2116;
551.1000;0.7823;1.2393;
551.4000;0.7757;1.2166;
551.7000;0.7798;1.2342;
552.0000;0.7814;1.2393;
552.3000;0.7790;1.2317;
552.6000;0.7757;1.2242;
552.9000;0.7814;1.2317;
553.2000;0.7798;1.2267;
553.5000;0.7798;1.2368;
553.8000;0.7782;1.2342;
554.1000;0.7774;1.2216;
554.4000;0.7790;1.2342;
554.7000;0.7798;1.2393;
555.0000;0.7782;1.2393;
555.3000;0.7855;1.2569;
555.6000;0.7806;1.2544;
555.9000;0.7814;1.2519;
556.2000;0.7766;1.2418;
556.5000;0.7766;1.2443;
556.8000;0.7823;1.2619;
557.1000;0.7782;1.2544;
557.4000;0.7806;1.2519;
557.7000;0.7806;1.2544;
558.0000;0.7798;1.2569;
558.3000;0.7798;1.2544;
558.6000;0.7806;1.2468;
558.9000;0.7798;1.2368;
559.2000;0.7798;1.2418;
559.5000;0.7790;1.2393;
559.8000;0.7798;1.2418;
560.1000;0.7814;1.2443;
560.4000;0.7798;1.2368;
560.7000;0.7798;1.2393;
561.0000;0.7839;1.2569;
561.3000;0.7823;1.2494;
561.6000;0.7790;1.2342;
561.9000;0.7798;1.2317;
562.2000;0.7806;1.2393;
562.5000;0.7709;1.2191;
562.8000;0.7806;1.2468;
563.1000;0.7806;1.2544;
563.4000;0.7790;1.2544;
563.7000;0.7823;1.2519;
564.0000;0.7790;1.2544;
564.3000;0.7798;1.2569;
564.6000;0.7806;1.2468;
564.9000;0.7806;1.2519;
565.2000;0.7782;1.2494;
565.5000;0.7790;1.2494;
565.8000;0.7790;1.2494;
566.1000;0.7782;1.2317;
566.4000;0.7798;1.2368;
566.7000;0.7790;1.2368;
567.0000;0.7798;1.2468;
567.3000;0.7798;1.2418;
567.6000;0.7814;1.2368;
567.9000;0.7790;1.2166;
568.2000;0.7814;1.2317;
568.5000;0.7774;1.2216;
568.8000;0.7790;1.2393;
569.1000;0.7782;1.2368;
569.4000;0.7774;1.2418;
569.7000;0.7814;1.2544;
570.0000;0.7831;1.2619;
570.3000;0.7798;1.2443;
570.6000;0.7790;1.2393;
570.9000;0.7790;1.2342;
571.2000;0.7798;1.2342;
571.5000;0.7814;1.2393;
571.8000;0.7814;1.2368;
572.1000;0.7790;1.2292;
572.4000;0.7806;1.2393;
572.7000;0.7798;1.2418;
573.0000;0.7814;1.2393;
573.3000;0.7741;1.2368;
573.6000;0.7790;1.2645;
573.9000;0.7782;1.2645;
574.2000;0.7774;1.2645;
574.5000;0.7790;1.2695;
574.8000;0.7709;1.2544;
575.1000;0.7782;1.2670;
575.4000;0.7741;1.2468;
575.7000;0.7766;1.2544;
576.0000;0.7766;1.2468;
576.3000;0.7725;1.2317;
576.6000;0.7766;1.2393;
576.9000;0.7790;1.2418;
577.2000;0.7790;1.2418;
577.5000;0.7798;1.2418;
577.8000;0.7798;1.2494;
578.1000;0.7790;1.2494;
578.4000;0.7806;1.2443;
578.7000;0.7798;1.2368;
579.0000;0.7790;1.2317;
579.3000;0.7823;1.2443;
579.6000;0.7782;1.2443;
579.9000;0.7798;1.2519;
580.2000;0.7790;1.2494;
580.5000;0.7766;1.2494;
580.8000;0.7782;1.2519;
581.1000;0.7790;1.2594;
581.4000;0.7798;1.2619;
581.7000;0.7831;1.2670;
582.0000;0.7766;1.2569;
582.3000;0.7790;1.2645;
582.6000;0.7806;1.2720;
582.9000;0.7806;1.2771;
583.2000;0.7798;1.2846;
583.5000;0.7798;1.2846;
583.8000;0.7782;1.2771;
584.1000;0.7798;1.2796;
584.4000;0.7814;1.2619;
584.7000;0.7782;1.2569;
585.0000;0.7814;1.2569;
585.3000;0.7806;1.2519;
585.6000;0.7806;1.2494;
585.9000;0.7790;1.2468;
586.2000;0.7790;1.2468;
586.5000;0.7774;1.2468;
586.8000;0.7806;1.2594;
587.1000;0.7782;1.2519;
587.4000;0.7782;1.2519;
587.7000;0.7790;1.2569;
588.0000;0.7790;1.2443;
588.3000;0.7790;1.2468;
588.6000;0.7798;1.2468;
588.9000;0.7839;1.2544;
589.2000;0.7790;1.2443;
589.5000;0.7814;1.2544;
589.8000;0.7790;1.2468;
590.1000;0.7814;1.2544;
590.4000;0.7839;1.2594;
590.7000;0.7782;1.2468;
591.0000;0.7766;1.2494;
591.3000;0.7774;1.2519;
591.6000;0.7782;1.2519;
591.9000;0.7855;1.2695;
592.2000;0.7839;1.2619;
592.5000;0.7839;1.2569;
592.8000;0.7798;1.2468;
593.1000;0.7774;1.2443;
593.4000;0.7782;1.2468;
593.7000;0.7782;1.2468;
594.0000;0.7806;1.2519;
594.3000;0.7798;1.2619;
594.6000;0.7798;1.2619;
594.9000;0.7798;1.2569;
595.2000;0.7831;1.2645;
595.5000;0.7806;1.2544;
595.8000;0.7798;1.2494;
596.1000;0.7782;1.2468;
596.4000;0.7798;1.2569;
596.7000;0.7806;1.2745;
597.0000;0.7798;1.2771;
597.3000;0.7725;1.2443;
597.6000;0.7757;1.2519;
597.9000;0.7782;1.2569;
598.2000;0.7790;1.2494;
598.5000;0.7798;1.2519;
598.8000;0.7806;1.2544;
599.1000;0.7790;1.2544;
599.4000;0.7871;1.2771;
599.7000;0.7790;1.2569;
600.0000;0.7782;1.2468;
600.3000;0.7806;1.2342;
600.6000;0.7806;1.2267;
600.9000;0.7790;1.2116;
601.2000;0.7717;1.1990;
601.5000;0.7709;1.1864;
601.8000;0.7684;1.1813;
602.1000;0.7570;1.1562;
602.4000;0.7497;1.1385;
602.7000;0.7473;1.1310;
603.0000;0.7416;1.1133;
603.3000;0.7359;1.0881;
603.6000;0.7293;1.0680;
603.9000;0.7253;1.0630;
604.2000;0.7212;1.0529;
604.5000;0.7188;1.0302;
604.8000;0.7114;1.0176;
605.1000;0.7090;1.0126;
605.4000;0.7066;1.0151;
605.7000;0.7025;1.0000;
606.0000;0.6992;0.9899;
606.3000;0.6968;0.9849;
606.6000;0.6903;0.9798;
606.9000;0.6886;0.9849;
607.2000;0.6870;0.9798;
607.5000;0.6854;0.9824;
607.8000;0.6772;0.9647;
608.1000;0.6797;0.9773;
608.4000;0.6756;0.9647;
608.7000;0.6642;0.9446;
609.0000;0.6675;0.9471;
609.3000;0.6667;0.9370;
609.6000;0.6707;0.9521;
609.9000;0.6602;0.9320;
610.2000;0.6569;0.9370;
610.5000;0.6463;0.9068;
610.8000;0.6561;0.9370;
611.1000;0.6496;0.9269;
611.4000;0.6585;0.9521;
611.7000;0.6463;0.9295;
612.0000;0.6479;0.9370;
612.3000;0.6431;0.9295;
612.6000;0.6398;0.9143;
612.9000;0.6309;0.8942;
613.2000;0.6374;0.9194;
613.5000;0.6325;0.9143;
613.8000;0.6317;0.9244;
614.1000;0.6325;0.9219;
614.4000;0.6309;0.9093;
614.7000;0.6284;0.9118;
615.0000;0.6276;0.9017;
615.3000;0.6235;0.8942;
615.6000;0.6227;0.8967;
615.9000;0.6260;0.9093;
616.2000;0.6195;0.8967;
616.5000;0.6138;0.8892;
616.8000;0.6146;0.9017;
617.1000;0.6162;0.9118;
617.4000;0.6154;0.9143;
617.7000;0.6138;0.9043;
618.0000;0.6105;0.9043;
618.3000;0.6089;0.8992;
618.6000;0.6064;0.8942;
618.9000;0.6007;0.8791;
619.2000;0.6040;0.8892;
619.5000;0.6056;0.8841;
619.8000;0.6015;0.8791;
620.1000;0.6007;0.8816;
620.4000;0.5999;0.8791;
620.7000;0.5983;0.8841;
621.0000;0.5967;0.8816;
621.3000;0.5950;0.8816;
621.6000;0.5910;0.8715;
621.9000;0.5950;0.8866;
622.2000;0.5926;0.8740;
622.5000;0.5942;0.8816;
622.8000;0.5902;0.8766;
623.1000;0.5902;0.8690;
623.4000;0.5788;0.8363;
623.7000;0.5885;0.8690;
624.0000;0.5869;0.8640;
624.3000;0.5869;0.8740;
624.6000;0.5853;0.8766;
624.9000;0.5845;0.8766;
625.2000;0.5820;0.8816;
625.5000;0.5796;0.8715;
625.8000;0.5804;0.8791;
626.1000;0.5779;0.8715;
626.4000;0.5788;0.8766;
626.7000;0.5755;0.8766;
627.0000;0.5763;0.8766;
627.3000;0.5804;0.8841;
627.6000;0.5755;0.8791;
627.9000;0.5747;0.8766;
628.2000;0.5731;0.8715;
628.5000;0.5755;0.8715;
628.8000;0.5706;0.8589;
629.1000;0.5706;0.8640;
629.4000;0.5706;0.8589;
629.7000;0.5698;0.8589;
630.0000;0.5763;0.8740;
630.3000;0.5714;0.8564;
630.6000;0.5706;0.8640;
630.9000;0.5641;0.8463;
631.2000;0.5657;0.8614;
631.5000;0.5649;0.8640;
631.8000;0.5649;0.8564;
632.1000;0.5682;0.8740;
632.4000;0.5625;0.8665;
632.7000;0.5576;0.8589;
633.0000;0.5600;0.8614;
633.3000;0.5641;0.8766;
633.6000;0.5674;0.8942;
633.9000;0.5608;0.8740;
634.2000;0.5617;0.8766;
634.5000;0.5674;0.8841;
634.8000;0.5608;0.8640;
635.1000;0.5600;0.8539;
635.4000;0.5576;0.8489;
635.7000;0.5576;0.8489;
636.0000;0.5560;0.8539;
636.3000;0.5568;0.8539;
636.6000;0.5560;0.8514;
636.9000;0.5535;0.8438;
637.2000;0.5535;0.8463;
637.5000;0.5519;0.8463;
637.8000;0.5543;0.8489;
638.1000;0.5535;0.8614;
638.4000;0.5543;0.8589;
638.7000;0.5527;0.8589;
639.0000;0.5535;0.8690;
639.3000;0.5495;0.8514;
639.6000;0.5486;0.8514;
639.9000;0.5519;0.8514;
640.2000;0.5486;0.8438;
640.5000;0.5495;0.8388;
640.8000;0.5495;0.8438;
641.1000;0.5503;0.8539;
641.4000;0.5462;0.8489;
641.7000;0.5478;0.8514;
642.0000;0.5454;0.8388;
642.3000;0.5470;0.8413;
642.6000;0.5478;0.8489;
642.9000;0.5454;0.8413;
643.2000;0.5462;0.8413;
643.5000;0.5446;0.8388;
643.8000;0.5462;0.8539;
644.1000;0.5438;0.8438;
644.4000;0.5413;0.8413;
644.7000;0.5421;0.8489;
645.0000;0.5421;0.8564;
645.3000;0.5413;0.8489;
645.6000;0.5405;0.8614;
645.9000;0.5389;0.8589;
646.2000;0.5429;0.8665;
646.5000;0.5405;0.8614;
646.8000;0.5364;0.8463;
647.1000;0.5381;0.8514;
647.4000;0.5397;0.8514;
647.7000;0.5381;0.8413;
648.0000;0.5372;0.8463;
648.3000;0.5356;0.8514;
648.6000;0.5372;0.8463;
648.9000;0.5381;0.8388;
649.2000;0.5381;0.8388;
649.5000;0.5372;0.8337;
649.8000;0.5405;0.8489;
650.1000;0.5348;0.8413;
650.4000;0.5348;0.8514;
650.7000;0.5405;0.8690;
651.0000;0.5340;0.8388;
651.3000;0.5340;0.8489;
651.6000;0.5340;0.8564;
651.9000;0.5348;0.8614;
652.2000;0.5356;0.8614;
652.5000;0.5340;0.8539;
652.8000;0.5348;0.8589;
653.1000;0.5307;0.8564;
653.4000;0.5324;0.8614;
653.7000;0.5307;0.8640;
654.0000;0.5324;0.8614;
654.3000;0.5324;0.8564;
654.6000;0.5283;0.8539;
654.9000;0.5299;0.8690;
655.2000;0.5315;0.8715;
655.5000;0.5332;0.8766;
655.8000;0.5291;0.8690;
656.1000;0.5299;0.8766;
656.4000;0.5299;0.8791;
656.7000;0.5291;0.8640;
657.0000;0.5283;0.8614;
657.3000;0.5340;0.8766;
657.6000;0.5283;0.8614;
657.9000;0.5283;0.8715;
658.2000;0.5250;0.8690;
658.5000;0.5275;0.8665;
658.8000;0.5258;0.8614;
659.1000;0.5250;0.8614;
659.4000;0.5258;0.8640;
659.7000;0.5234;0.8614;
660.0000;0.5324;0.8690;
660.3000;0.5250;0.8514;
660.6000;0.5153;0.8363;
660.9000;0.5234;0.8665;
661.2000;0.5234;0.8564;
661.5000;0.5250;0.8514;
661.8000;0.5258;0.8614;
662.1000;0.5226;0.8514;
662.4000;0.5234;0.8539;
662.7000;0.5234;0.8564;
663.0000;0.5226;0.8640;
663.3000;0.5250;0.8740;
663.6000;0.5234;0.8690;
663.9000;0.5226;0.8640;
664.2000;0.5201;0.8589;
664.5000;0.5234;0.8690;
664.8000;0.5226;0.8640;
665.1000;0.5193;0.8589;
665.4000;0.5210;0.8715;
665.7000;0.5218;0.8665;
666.0000;0.5226;0.8715;
666.3000;0.5193;0.8715;
666.6000;0.5234;0.8816;
666.9000;0.5210;0.8766;
667.2000;0.5193;0.8766;
667.5000;0.5201;0.8690;
667.8000;0.5185;0.8640;
668.1000;0.5185;0.8640;
668.4000;0.5193;0.8690;
668.7000;0.5177;0.8640;
669.0000;0.5169;0.8564;
669.3000;0.5169;0.8589;
669.6000;0.5169;0.8665;
669.9000;0.5185;0.8816;
670.2000;0.5144;0.8715;
670.5000;0.5177;0.8740;
670.8000;0.5153;0.8766;
671.1000;0.5169;0.8740;
671.4000;0.5161;0.8640;
671.7000;0.5185;0.8766;
672.0000;0.5161;0.8766;
672.3000;0.5161;0.8690;
672.6000;0.5161;0.8690;
672.9000;0.5161;0.8715;
673.2000;0.5144;0.8665;
673.5000;0.5153;0.8640;
673.8000;0.5193;0.8816;
674.1000;0.5161;0.8766;
674.4000;0.5144;0.8740;
674.7000;0.5161;0.8766;
675.0000;0.5144;0.8841;
675.3000;0.5128;0.8816;
675.6000;0.5128;0.8740;
675.9000;0.5153;0.8740;
676.2000;0.5185;0.8917;
676.5000;0.5169;0.8866;
676.8000;0.5153;0.8816;
677.1000;0.5169;0.8892;
677.4000;0.5088;0.8715;
677.7000;0.5120;0.8740;
678.0000;0.5177;0.8841;
678.3000;0.5218;0.8992;
678.6000;0.5136;0.8715;
678.9000;0.5120;0.8715;
679.2000;0.5120;0.8816;
679.5000;0.5128;0.8766;
679.8000;0.5112;0.8740;
680.1000;0.5096;0.8715;
680.4000;0.5104;0.8715;
680.7000;0.5112;0.8816;
681.0000;0.5104;0.8816;
681.3000;0.5096;0.8740;
681.6000;0.5096;0.8690;
681.9000;0.5039;0.8665;
682.2000;0.5104;0.8892;
682.5000;0.5104;0.8917;
682.8000;0.5071;0.8866;
683.1000;0.5104;0.8917;
683.4000;0.5136;0.9093;
683.7000;0.5088;0.8866;
684.0000;0.5039;0.8791;
684.3000;0.5096;0.8992;
684.6000;0.5144;0.9017;
684.9000;0.5063;0.8665;
685.2000;0.5071;0.8665;
685.5000;0.5096;0.8665;
685.8000;0.5088;0.8766;
686.1000;0.5088;0.8766;
686.4000;0.5112;0.8866;
686.7000;0.5079;0.8841;
687.0000;0.5096;0.8866;
687.3000;0.5120;0.8892;
687.6000;0.5079;0.8791;
687.9000;0.5055;0.8715;
688.2000;0.5079;0.8766;
688.5000;0.5096;0.8841;
688.8000;0.5079;0.8766;
689.1000;0.5088;0.8740;
689.4000;0.5071;0.8715;
689.7000;0.5055;0.8589;
690.0000;0.5088;0.8690;
690.3000;0.5128;0.8791;
690.6000;0.5079;0.8564;
690.9000;0.5071;0.8564;
691.2000;0.4974;0.8312;
691.5000;0.5063;0.8489;
691.8000;0.5055;0.8438;
692.1000;0.5063;0.8489;
692.4000;0.4965;0.8287;
692.7000;0.4990;0.8413;
693.0000;0.5022;0.8463;
693.3000;0.5047;0.8514;
693.6000;0.5079;0.8665;
693.9000;0.5047;0.8614;
694.2000;0.5039;0.8690;
694.5000;0.5039;0.8665;
694.8000;0.5071;0.8791;
695.1000;0.5014;0.8715;
695.4000;0.5022;0.8640;
695.7000;0.5047;0.8665;
696.0000;0.5014;0.8614;
696.3000;0.5031;0.8614;
696.6000;0.5031;0.8614;
696.9000;0.5039;0.8640;
697.2000;0.5031;0.8539;
697.5000;0.5055;0.8614;
697.8000;0.4982;0.8363;
698.1000;0.4982;0.8312;
698.4000;0.5039;0.8388;
698.7000;0.5055;0.8388;
699.0000;0.5031;0.8262;
699.3000;0.5047;0.8363;
699.6000;0.5047;0.8337;
699.9000;0.5022;0.8337;
700.2000;0.5022;0.8363;
700.5000;0.5031;0.8413;
700.8000;0.5031;0.8438;
701.1000;0.4990;0.8388;
701.4000;0.5031;0.8489;
701.7000;0.5014;0.8438;
702.0000;0.5014;0.8413;
702.3000;0.4998;0.8388;
702.6000;0.5006;0.8388;
702.9000;0.4982;0.8363;
703.2000;0.5006;0.8438;
703.5000;0.4998;0.8489;
703.8000;0.5006;0.8413;
704.1000;0.5104;0.8715;
704.4000;0.5031;0.8539;
704.7000;0.4990;0.8388;
705.0000;0.4998;0.8388;
705.3000;0.4998;0.8413;
705.6000;0.4982;0.8388;
705.9000;0.5031;0.8489;
706.2000;0.4974;0.8413;
706.5000;0.4998;0.8514;
706.8000;0.4998;0.8514;
707.1000;0.4982;0.8539;
707.4000;0.5022;0.8514;
707.7000;0.4982;0.8463;
708.0000;0.4990;0.8589;
708.3000;0.4974;0.8589;
708.6000;0.5079;0.8766;
708.9000;0.5022;0.8614;
709.2000;0.4982;0.8564;
709.5000;0.4982;0.8539;
709.8000;0.4965;0.8539;
710.1000;0.5006;0.8665;
710.4000;0.4974;0.8614;
710.7000;0.4974;0.8690;
711.0000;0.4974;0.8690;
711.3000;0.4990;0.8665;
711.6000;0.4965;0.8614;
711.9000;0.4982;0.8690;
712.2000;0.4982;0.8690;
712.5000;0.4957;0.8614;
712.8000;0.4974;0.8740;
713.1000;0.4982;0.8766;
713.4000;0.4884;0.8463;
713.7000;0.4990;0.8740;
714.0000;0.5006;0.8715;
714.3000;0.4965;0.8740;
714.6000;0.4965;0.8640;
714.9000;0.4974;0.8715;
715.2000;0.4974;0.8766;
715.5000;0.4974;0.8766;
715.8000;0.4974;0.8690;
716.1000;0.4974;0.8640;
716.4000;0.4965;0.8640;
716.7000;0.4965;0.8715;
717.0000;0.4949;0.8614;
717.3000;0.4949;0.8539;
717.6000;0.4941;0.8589;
717.9000;0.4974;0.8614;
718.2000;0.4957;0.8539;
718.5000;0.4965;0.8589;
718.8000;0.4965;0.8690;
719.1000;0.4957;0.8690;
719.4000;0.4949;0.8640;
719.7000;0.4982;0.8614;
720.0000;0.4949;0.8614;
720.3000;0.4965;0.8715;
720.6000;0.4949;0.8766;
720.9000;0.4949;0.8740;
721.2000;0.4933;0.8740;
721.5000;0.4933;0.8766;
721.8000;0.4982;0.8917;
722.1000;0.4933;0.8740;
722.4000;0.4941;0.8715;
722.7000;0.4949;0.8690;
723.0000;0.4974;0.8766;
723.3000;0.4957;0.8766;
723.6000;0.4941;0.8715;
723.9000;0.4965;0.8816;
724.2000;0.4957;0.8816;
724.5000;0.4917;0.8690;
724.8000;0.4892;0.8614;
725.1000;0.4925;0.8715;
725.4000;0.4900;0.8614;
725.7000;0.4933;0.8690;
726.0000;0.4917;0.8665;
726.3000;0.4949;0.8690;
726.6000;0.4933;0.8791;
726.9000;0.4933;0.8816;
727.2000;0.4900;0.8690;
727.5000;0.4933;0.8841;
727.8000;0.4925;0.8866;
728.1000;0.4933;0.8766;
728.4000;0.4876;0.8665;
728.7000;0.4933;0.8816;
729.0000;0.4917;0.8791;
729.3000;0.4933;0.8766;
729.6000;0.4925;0.8715;
729.9000;0.4957;0.8791;
730.2000;0.4941;0.8766;
730.5000;0.4941;0.8740;
730.8000;0.4917;0.8766;
731.1000;0.4933;0.8766;
731.4000;0.4941;0.8740;
731.7000;0.4925;0.8614;
732.0000;0.4933;0.8640;
732.3000;0.4933;0.8589;
732.6000;0.4925;0.8640;
732.9000;0.4949;0.8715;
733.2000;0.4949;0.8690;
733.5000;0.4941;0.8690;
733.8000;0.4982;0.8715;
734.1000;0.4965;0.8715;
734.4000;0.4933;0.8690;
734.7000;0.4925;0.8665;
735.0000;0.4917;0.8690;
735.3000;0.4925;0.8740;
735.6000;0.4900;0.8766;
735.9000;0.4908;0.8766;
736.2000;0.4941;0.8791;
736.5000;0.4892;0.8614;
736.8000;0.4900;0.8614;
737.1000;0.4900;0.8690;
737.4000;0.4965;0.8967;
737.7000;0.4876;0.8715;
738.0000;0.4917;0.8740;
738.3000;0.4917;0.8665;
738.6000;0.4892;0.8564;
738.9000;0.4917;0.8640;
739.2000;0.4917;0.8640;
739.5000;0.4925;0.8589;
739.8000;0.4917;0.8665;
740.1000;0.4900;0.8589;
740.4000;0.4917;0.8690;
740.7000;0.4908;0.8715;
741.0000;0.4900;0.8715;
741.3000;0.4892;0.8640;
741.6000;0.4908;0.8614;
741.9000;0.4908;0.8715;
742.2000;0.4892;0.8766;
742.5000;0.4900;0.8841;
742.8000;0.4965;0.8992;
743.1000;0.4917;0.8892;
743.4000;0.4925;0.8892;
743.7000;0.4892;0.8841;
744.0000;0.4892;0.8892;
744.3000;0.4892;0.8841;
744.6000;0.4876;0.8766;
744.9000;0.4900;0.8766;
745.2000;0.4900;0.8766;
745.5000;0.4908;0.8766;
745.8000;0.4917;0.8766;
746.1000;0.4892;0.8766;
746.4000;0.4900;0.8791;
746.7000;0.4908;0.8766;
747.0000;0.4892;0.8690;
747.3000;0.4900;0.8614;
747.6000;0.4884;0.8614;
747.9000;0.4900;0.8665;
748.2000;0.4892;0.8766;
748.5000;0.4884;0.8816;
748.8000;0.4892;0.8841;
749.1000;0.4794;0.8589;
749.4000;0.4900;0.8791;
749.7000;0.4892;0.8816;
750.0000;0.4892;0.8841;
750.3000;0.4843;0.8766;
750.6000;0.4884;0.8942;
750.9000;0.4884;0.8967;
751.2000;0.4884;0.8942;
751.5000;0.4868;0.8892;
751.8000;0.4892;0.8942;
752.1000;0.4892;0.8866;
752.4000;0.4884;0.8866;
752.7000;0.4892;0.8992;
753.0000;0.4876;0.8892;
753.3000;0.4900;0.8942;
753.6000;0.4892;0.9017;
753.9000;0.4868;0.8917;
754.2000;0.4868;0.8892;
754.5000;0.4884;0.8791;
754.8000;0.4860;0.8766;
755.1000;0.4892;0.8816;
755.4000;0.4868;0.8841;
755.7000;0.4876;0.8942;
756.0000;0.4892;0.8992;
756.3000;0.4876;0.8942;
756.6000;0.4876;0.8967;
756.9000;0.4876;0.8967;
757.2000;0.4892;0.8992;
757.5000;0.4892;0.9017;
757.8000;0.4884;0.8967;
758.1000;0.4876;0.8917;
758.4000;0.4860;0.8892;
758.7000;0.4876;0.9043;
759.0000;0.4868;0.8992;
759.3000;0.4908;0.9043;
759.6000;0.4876;0.8917;
759.9000;0.4884;0.8866;
760.2000;0.4884;0.8766;
760.5000;0.4892;0.8816;
760.8000;0.4884;0.8791;
761.1000;0.4868;0.8816;
761.4000;0.4884;0.8841;
761.7000;0.4868;0.8892;
762.0000;0.4900;0.8892;
762.3000;0.4819;0.8690;
762.6000;0.4868;0.8766;
762.9000;0.4868;0.8816;
763.2000;0.4851;0.8841;
763.5000;0.4860;0.8892;
763.8000;0.4876;0.8967;
764.1000;0.4860;0.8967;
764.4000;0.4868;0.9017;
764.7000;0.4908;0.9093;
765.0000;0.4876;0.8892;
765.3000;0.4860;0.8841;
765.6000;0.4860;0.8791;
765.9000;0.4835;0.8640;
766.2000;0.4851;0.8740;
766.5000;0.4876;0.8791;
766.8000;0.4843;0.8841;
767.1000;0.4843;0.8791;
767.4000;0.4860;0.8791;
767.7000;0.4851;0.8665;
768.0000;0.4876;0.8740;
768.3000;0.4843;0.8791;
768.6000;0.4868;0.8816;
768.9000;0.4860;0.8866;
769.2000;0.4868;0.8967;
769.5000;0.4900;0.9068;
769.8000;0.4868;0.9017;
770.1000;0.4900;0.9143;
770.4000;0.4868;0.9093;
770.7000;0.4860;0.9093;
771.0000;0.4778;0.8866;
771.3000;0.4851;0.9017;
771.6000;0.4811;0.9068;
771.9000;0.4843;0.9043;
772.2000;0.4868;0.8992;
772.5000;0.4884;0.9017;
772.8000;0.4868;0.9068;
773.1000;0.4843;0.9017;
773.4000;0.4843;0.8992;
773.7000;0.4851;0.9068;
774.0000;0.4835;0.9017;
774.3000;0.4835;0.8917;
774.6000;0.4827;0.8942;
774.9000;0.4860;0.9017;
775.2000;0.4851;0.9068;
775.5000;0.4843;0.9017;
775.8000;0.4851;0.8992;
776.1000;0.4868;0.9118;
776.4000;0.4803;0.8967;
776.7000;0.4843;0.9118;
777.0000;0.4835;0.9118;
777.3000;0.4819;0.9043;
777.6000;0.4746;0.8766;
777.9000;0.4819;0.8992;
778.2000;0.4819;0.8992;
778.5000;0.4851;0.8992;
778.8000;0.4851;0.9068;
779.1000;0.4843;0.9043;
779.4000;0.4860;0.9043;
779.7000;0.4835;0.8992;
780.0000;0.4868;0.9043;
780.3000;0.4835;0.8917;
780.6000;0.4843;0.8967;
780.9000;0.4851;0.8942;
781.2000;0.4835;0.8942;
781.5000;0.4851;0.8992;
781.8000;0.4827;0.8967;
782.1000;0.4827;0.8992;
782.4000;0.4835;0.8942;
782.7000;0.4851;0.8866;
783.0000;0.4827;0.8892;
783.3000;0.4819;0.8866;
783.6000;0.4843;0.8841;
783.9000;0.4835;0.8841;
784.2000;0.4843;0.8917;
784.5000;0.4819;0.8841;
784.8000;0.4860;0.8942;
785.1000;0.4851;0.8892;
785.4000;0.4835;0.8841;
785.7000;0.4827;0.8841;
786.0000;0.4827;0.8816;
786.3000;0.4868;0.8866;
786.6000;0.4835;0.8841;
786.9000;0.4835;0.8841;
787.2000;0.4835;0.8892;
787.5000;0.4843;0.8917;
787.8000;0.4786;0.8816;
788.1000;0.4835;0.8866;
788.4000;0.4827;0.8841;
788.7000;0.4827;0.8841;
789.0000;0.4835;0.8892;
789.3000;0.4843;0.8841;
789.6000;0.4835;0.8816;
789.9000;0.4843;0.8766;
790.2000;0.4851;0.8816;
790.5000;0.4851;0.8841;
790.8000;0.4819;0.8866;
791.1000;0.4843;0.8942;
791.4000;0.4843;0.8942;
791.7000;0.4843;0.8942;
792.0000;0.4843;0.8917;
792.3000;0.4827;0.9017;
792.6000;0.4827;0.9043;
792.9000;0.4884;0.9143;
793.2000;0.4835;0.8967;
793.5000;0.4835;0.9017;
793.8000;0.4811;0.8942;
794.1000;0.4819;0.8892;
794.4000;0.4843;0.8917;
794.7000;0.4835;0.8816;
795.0000;0.4835;0.8892;
795.3000;0.4925;0.9169;
795.6000;0.4835;0.9043;
795.9000;0.4843;0.9043;
796.2000;0.4762;0.8892;
796.5000;0.4835;0.9093;
796.8000;0.4819;0.8967;
797.1000;0.4811;0.8892;
797.4000;0.4843;0.8942;
797.7000;0.4811;0.8866;
798.0000;0.4794;0.8866;
798.3000;0.4762;0.8766;
798.6000;0.4803;0.8791;
798.9000;0.4827;0.8841;
799.2000;0.4827;0.8766;
799.5000;0.4827;0.8740;
799.8000;0.4737;0.8514;
800.1000;0.4754;0.8539;
800.4000;0.4803;0.8690;
800.7000;0.4811;0.8816;
801.0000;0.4803;0.8866;
801.3000;0.4819;0.8892;
801.6000;0.4827;0.8892;
801.9000;0.4827;0.8917;
802.2000;0.4827;0.8892;
802.5000;0.4819;0.8816;
802.8000;0.4835;0.8967;
803.1000;0.4827;0.8942;
803.4000;0.4811;0.8917;
803.7000;0.4860;0.8967;
804.0000;0.4803;0.8841;
804.3000;0.4860;0.8892;
804.6000;0.4827;0.8841;
804.9000;0.4835;0.8892;
805.2000;0.4811;0.8816;
805.5000;0.4819;0.8791;
805.8000;0.4811;0.8841;
806.1000;0.4819;0.8816;
806.4000;0.4794;0.8766;
806.7000;0.4835;0.8841;
807.0000;0.4819;0.8866;
807.3000;0.4803;0.8791;
807.6000;0.4819;0.8791;
807.9000;0.4819;0.8841;
808.2000;0.4811;0.8866;
808.5000;0.4803;0.8892;
808.8000;0.4794;0.8841;
809.1000;0.4811;0.8866;
809.4000;0.4794;0.8917;
809.7000;0.4803;0.8967;
810.0000;0.4819;0.9093;
810.3000;0.4811;0.9017;
810.6000;0.4925;0.9219;
810.9000;0.4827;0.8816;
811.2000;0.4819;0.8766;
811.5000;0.4819;0.8816;
811.8000;0.4811;0.8816;
812.1000;0.4827;0.8791;
812.4000;0.4843;0.8841;
812.7000;0.4794;0.8690;
813.0000;0.4827;0.8816;
813.3000;0.4811;0.8766;
813.6000;0.4827;0.8740;
813.9000;0.4843;0.8892;
814.2000;0.4803;0.8917;
814.5000;0.4827;0.8942;
814.8000;0.4835;0.8917;
815.1000;0.4827;0.8841;
815.4000;0.4811;0.8791;
815.7000;0.4811;0.8816;
816.0000;0.4819;0.8917;
816.3000;0.4851;0.8967;
816.6000;0.4811;0.8816;
816.9000;0.4819;0.8841;
817.2000;0.4811;0.8841;
817.5000;0.4786;0.8766;
817.8000;0.4819;0.8866;
818.1000;0.4811;0.8766;
818.4000;0.4835;0.8816;
818.7000;0.4794;0.8640;
819.0000;0.4786;0.8740;
819.3000;0.4835;0.8816;
819.6000;0.4794;0.8766;
819.9000;0.4803;0.8841;
820.2000;0.4811;0.8841;
820.5000;0.4811;0.8917;
820.8000;0.4803;0.8942;
821.1000;0.4794;0.8892;
821.4000;0.4803;0.8841;
821.7000;0.4770;0.8791;
822.0000;0.4827;0.8917;
822.3000;0.4794;0.8816;
822.6000;0.4786;0.8841;
822.9000;0.4811;0.8892;
823.2000;0.4786;0.8917;
823.5000;0.4819;0.8942;
823.8000;0.4811;0.8892;
824.1000;0.4794;0.8866;
824.4000;0.4811;0.8892;
824.7000;0.4762;0.8766;
825.0000;0.4762;0.8791;
825.3000;0.4803;0.8866;
825.6000;0.4843;0.8841;
825.9000;0.4827;0.8715;
826.2000;0.4819;0.8715;
826.5000;0.4827;0.8766;
826.8000;0.4811;0.8791;
827.1000;0.4811;0.8866;
827.4000;0.4835;0.8992;
827.7000;0.4803;0.8892;
828.0000;0.4827;0.8942;
828.3000;0.4811;0.8967;
828.6000;0.4811;0.8992;
828.9000;0.4803;0.8992;
829.2000;0.4811;0.8841;
829.5000;0.4819;0.8866;
829.8000;0.4811;0.8841;
830.1000;0.4819;0.8816;
830.4000;0.4786;0.8816;
830.7000;0.4811;0.8841;
831.0000;0.4819;0.8841;
831.3000;0.4811;0.8816;
831.6000;0.4786;0.8740;
831.9000;0.4794;0.8740;
832.2000;0.4835;0.8816;
832.5000;0.4811;0.8766;
832.8000;0.4811;0.8766;
833.1000;0.4794;0.8841;
833.4000;0.4770;0.8841;
833.7000;0.4746;0.8841;
834.0000;0.4778;0.8866;
834.3000;0.4786;0.8892;
834.6000;0.4786;0.8917;
834.9000;0.4811;0.8841;
835.2000;0.4786;0.8740;
835.5000;0.4803;0.8740;
835.8000;0.4811;0.8766;
836.1000;0.4786;0.8841;
836.4000;0.4786;0.8841;
836.7000;0.4803;0.8816;
837.0000;0.4786;0.8866;
837.3000;0.4803;0.8892;
837.6000;0.4811;0.8942;
837.9000;0.4713;0.8690;
838.2000;0.4794;0.8917;
838.5000;0.4737;0.8690;
838.8000;0.4786;0.8942;
839.1000;0.4803;0.8942;
839.4000;0.4770;0.8791;
839.7000;0.4754;0.8740;
840.0000;0.4794;0.8866;
840.3000;0.4778;0.8816;
840.6000;0.4786;0.8816;
840.9000;0.4786;0.8892;
841.2000;0.4778;0.8841;
841.5000;0.4746;0.8766;
841.8000;0.4803;0.8917;
842.1000;0.4786;0.8917;
842.4000;0.4835;0.9017;
842.7000;0.4794;0.8942;
843.0000;0.4778;0.8866;
843.3000;0.4819;0.8942;
843.6000;0.4786;0.8816;
843.9000;0.4786;0.8866;
844.2000;0.4794;0.8942;
844.5000;0.4786;0.8841;
844.8000;0.4794;0.8791;
845.1000;0.4786;0.8791;
845.4000;0.4803;0.8715;
845.7000;0.4754;0.8614;
846.0000;0.4803;0.8841;
846.3000;0.4794;0.8841;
846.6000;0.4803;0.8841;
846.9000;0.4803;0.8791;
847.2000;0.4786;0.8740;
847.5000;0.4786;0.8740;
847.8000;0.4803;0.8665;
848.1000;0.4786;0.8589;
848.4000;0.4803;0.8766;
848.7000;0.4794;0.8715;
849.0000;0.4794;0.8690;
849.3000;0.4778;0.8740;
849.6000;0.4754;0.8665;
849.9000;0.4786;0.8841;
850.2000;0.4778;0.8917;
850.5000;0.4778;0.8942;
850.8000;0.4786;0.8942;
851.1000;0.4770;0.8967;
851.4000;0.4786;0.8992;
851.7000;0.4778;0.8967;
852.0000;0.4786;0.9068;
852.3000;0.4778;0.9068;
852.6000;0.4803;0.9169;
852.9000;0.4794;0.9118;
853.2000;0.4778;0.9093;
853.5000;0.4770;0.9043;
853.8000;0.4794;0.9043;
854.1000;0.4778;0.9017;
854.4000;0.4778;0.9068;
854.7000;0.4811;0.9118;
855.0000;0.4794;0.9118;
855.3000;0.4786;0.9093;
855.6000;0.4778;0.9043;
855.9000;0.4778;0.8992;
856.2000;0.4794;0.9017;
856.5000;0.4770;0.9017;
856.8000;0.4794;0.9043;
857.1000;0.4770;0.8942;
857.4000;0.4794;0.8942;
857.7000;0.4803;0.9017;
858.0000;0.4794;0.9068;
858.3000;0.4786;0.9043;
858.6000;0.4803;0.9068;
858.9000;0.4762;0.9043;
859.2000;0.4770;0.9068;
859.5000;0.4770;0.9068;
859.8000;0.4778;0.9017;
860.1000;0.4778;0.9043;
860.4000;0.4786;0.9093;
860.7000;0.4794;0.9194;
861.0000;0.4794;0.9093;
861.3000;0.4786;0.9068;
861.6000;0.4794;0.9118;
861.9000;0.4786;0.9093;
862.2000;0.4762;0.9017;
862.5000;0.4811;0.9093;
862.8000;0.4835;0.9118;
863.1000;0.4794;0.9043;
863.4000;0.4746;0.8892;
863.7000;0.4786;0.8942;
864.0000;0.4794;0.8942;
864.3000;0.4778;0.8942;
864.6000;0.4778;0.8942;
864.9000;0.4770;0.8942;
865.2000;0.4754;0.8841;
865.5000;0.4778;0.8841;
865.8000;0.4778;0.8816;
866.1000;0.4803;0.8967;
866.4000;0.4786;0.8841;
866.7000;0.4786;0.8841;
867.0000;0.4770;0.8791;
867.3000;0.4770;0.8766;
867.6000;0.4778;0.8715;
867.9000;0.4786;0.8690;
868.2000;0.4778;0.8715;
868.5000;0.4778;0.8690;
868.8000;0.4746;0.8614;
869.1000;0.4770;0.8740;
869.4000;0.4778;0.8690;
869.7000;0.4770;0.8766;
870.0000;0.4729;0.8690;
870.3000;0.4786;0.8841;
870.6000;0.4770;0.8841;
870.9000;0.4754;0.8766;
871.2000;0.4770;0.8917;
871.5000;0.4778;0.8967;
871.8000;0.4778;0.8917;
872.1000;0.4770;0.8917;
872.4000;0.4794;0.8866;
872.7000;0.4794;0.8841;
873.0000;0.4794;0.8791;
873.3000;0.4778;0.8791;
873.6000;0.4770;0.8766;
873.9000;0.4778;0.8791;
874.2000;0.4770;0.8816;
874.5000;0.4778;0.8866;
874.8000;0.4778;0.8791;
875.1000;0.4794;0.8816;
875.4000;0.4803;0.8866;
875.7000;0.4819;0.8917;
876.0000;0.4794;0.8917;
876.3000;0.4746;0.8917;
876.6000;0.4786;0.8967;
876.9000;0.4794;0.8992;
877.2000;0.4778;0.8917;
877.5000;0.4770;0.8942;
877.8000;0.4762;0.8942;
878.1000;0.4770;0.8992;
878.4000;0.4754;0.8917;
878.7000;0.4770;0.8942;
879.0000;0.4754;0.8942;
879.3000;0.4876;0.9219;
879.6000;0.4778;0.8992;
879.9000;0.4770;0.8942;
880.2000;0.4778;0.8967;
880.5000;0.4770;0.8917;
880.8000;0.4770;0.8866;
881.1000;0.4778;0.8866;
881.4000;0.4778;0.9017;
881.7000;0.4770;0.8992;
882.0000;0.4770;0.8841;
882.3000;0.4770;0.8816;
882.6000;0.4778;0.8841;
882.9000;0.4762;0.8942;
883.2000;0.4762;0.8967;
883.5000;0.4762;0.9043;
883.8000;0.4762;0.9017;
884.1000;0.4737;0.9017;
884.4000;0.4770;0.9093;
884.7000;0.4786;0.9169;
885.0000;0.4778;0.9118;
885.3000;0.4778;0.8992;
885.6000;0.4762;0.8967;
885.9000;0.4786;0.8942;
886.2000;0.4794;0.8992;
886.5000;0.4770;0.8917;
886.8000;0.4786;0.8967;
887.1000;0.4803;0.9043;
887.4000;0.4754;0.8992;
887.7000;0.4762;0.8967;
888.0000;0.4786;0.9017;
888.3000;0.4770;0.8917;
888.6000;0.4762;0.8892;
888.9000;0.4754;0.8866;
889.2000;0.4705;0.8640;
889.5000;0.4754;0.8640;
889.8000;0.4786;0.8766;
890.1000;0.4762;0.8766;
890.4000;0.4762;0.8715;
890.7000;0.4746;0.8665;
891.0000;0.4762;0.8690;
891.3000;0.4754;0.8665;
891.6000;0.4754;0.8766;
891.9000;0.4786;0.8816;
892.2000;0.4786;0.8816;
892.5000;0.4770;0.8816;
892.8000;0.4713;0.8614;
893.1000;0.4778;0.8740;
893.4000;0.4754;0.8690;
893.7000;0.4770;0.8791;
894.0000;0.4770;0.8791;
894.3000;0.4754;0.8816;
894.6000;0.4705;0.8690;
894.9000;0.4778;0.8866;
895.2000;0.4754;0.8866;
895.5000;0.4754;0.8892;
895.8000;0.4770;0.8892;
896.1000;0.4770;0.8892;
896.4000;0.4705;0.8640;
896.7000;0.4705;0.8614;
897.0000;0.4770;0.8892;
897.3000;0.4778;0.8866;
897.6000;0.4762;0.8866;
897.9000;0.4754;0.8866;
898.2000;0.4762;0.8791;
898.5000;0.4778;0.8791;
898.8000;0.4762;0.8715;
899.1000;0.4754;0.8715;
899.4000;0.4762;0.8690;
899.7000;0.4762;0.8614;
900.0000;0.4770;0.8740;
900.3000;0.4762;0.8740;
900.6000;0.4762;0.8766;
900.9000;0.4770;0.8740;
901.2000;0.4762;0.8866;
901.5000;0.4762;0.8866;
901.8000;0.4729;0.8740;
902.1000;0.4746;0.8791;
902.4000;0.4770;0.8816;
902.7000;0.4794;0.8841;
903.0000;0.4762;0.8690;
903.3000;0.4754;0.8816;
903.6000;0.4762;0.8892;
903.9000;0.4762;0.8917;
904.2000;0.4746;0.8917;
904.5000;0.4746;0.8866;
904.8000;0.4762;0.8917;
905.1000;0.4754;0.8866;
905.4000;0.4754;0.8892;
905.7000;0.4762;0.8992;
906.0000;0.4770;0.9017;
906.3000;0.4786;0.9043;
906.6000;0.4754;0.8992;
906.9000;0.4762;0.8992;
907.2000;0.4778;0.9093;
907.5000;0.4746;0.8967;
907.8000;0.4770;0.9143;
908.1000;0.4746;0.9143;
908.4000;0.4770;0.9143;
908.7000;0.4892;0.9395;
909.0000;0.4762;0.8992;
909.3000;0.4729;0.8866;
909.6000;0.4754;0.8866;
909.9000;0.4762;0.8816;
910.2000;0.4762;0.8791;
910.5000;0.4737;0.8715;
910.8000;0.4770;0.8740;
911.1000;0.4762;0.8791;
911.4000;0.4778;0.8791;
911.7000;0.4762;0.8740;
912.0000;0.4762;0.8791;
912.3000;0.4713;0.8640;
912.6000;0.4754;0.8766;
912.9000;0.4794;0.8917;
913.2000;0.4770;0.8766;
913.5000;0.4746;0.8766;
913.8000;0.4819;0.8992;
914.1000;0.4721;0.8715;
914.4000;0.4664;0.8564;
914.7000;0.4746;0.8791;
915.0000;0.4729;0.8816;
915.3000;0.4746;0.8841;
915.6000;0.4746;0.8917;
915.9000;0.4729;0.8791;
916.2000;0.4754;0.8816;
916.5000;0.4778;0.8917;
916.8000;0.4746;0.8917;
917.1000;0.4754;0.8967;
917.4000;0.4770;0.8967;
917.7000;0.4770;0.8917;
918.0000;0.4729;0.8715;
918.3000;0.4762;0.8766;
918.6000;0.4746;0.8766;
918.9000;0.4762;0.8740;
919.2000;0.4778;0.8791;
919.5000;0.4754;0.8715;
919.8000;0.4762;0.8715;
920.1000;0.4737;0.8614;
920.4000;0.4762;0.8766;
920.7000;0.4770;0.8766;
921.0000;0.4746;0.8715;
921.3000;0.4746;0.8715;
921.6000;0.4754;0.8816;
921.9000;0.4770;0.8866;
922.2000;0.4762;0.8892;
922.5000;0.4778;0.8942;
922.8000;0.4786;0.8967;
923.1000;0.4746;0.8967;
923.4000;0.4762;0.9043;
923.7000;0.4762;0.8992;
924.0000;0.4778;0.9068;
924.3000;0.4754;0.8992;
924.6000;0.4770;0.8942;
924.9000;0.4762;0.8892;
925.2000;0.4754;0.8816;
925.5000;0.4762;0.8841;
925.8000;0.4762;0.8816;
926.1000;0.4754;0.8791;
926.4000;0.4754;0.8740;
926.7000;0.4762;0.8791;
927.0000;0.4754;0.8841;
927.3000;0.4746;0.8766;
927.6000;0.4762;0.8816;
927.9000;0.4762;0.8841;
928.2000;0.4770;0.8866;
928.5000;0.4762;0.8816;
928.8000;0.4746;0.8816;
929.1000;0.4762;0.8892;
929.4000;0.4786;0.8841;
929.7000;0.4746;0.8791;
930.0000;0.4697;0.8614;
930.3000;0.4746;0.8791;
930.6000;0.4778;0.8917;
930.9000;0.4754;0.8892;
931.2000;0.4737;0.8816;
931.5000;0.4754;0.8866;
931.8000;0.4754;0.8892;
932.1000;0.4746;0.8917;
932.4000;0.4762;0.8917;
932.7000;0.4746;0.8841;
933.0000;0.4754;0.8866;
933.3000;0.4762;0.8992;
933.6000;0.4746;0.8917;
933.9000;0.4762;0.8942;
934.2000;0.4754;0.8892;
934.5000;0.4746;0.8866;
934.8000;0.4762;0.8942;
935.1000;0.4746;0.8967;
935.4000;0.4697;0.8841;
935.7000;0.4729;0.8917;
936.0000;0.4746;0.8967;
936.3000;0.4737;0.8892;
936.6000;0.4754;0.8841;
936.9000;0.4713;0.8766;
937.2000;0.4746;0.8866;
937.5000;0.4737;0.8942;
937.8000;0.4737;0.8992;
938.1000;0.4754;0.8942;
938.4000;0.4754;0.8892;
938.7000;0.4713;0.8866;
939.0000;0.4754;0.8866;
939.3000;0.4737;0.8841;
939.6000;0.4762;0.8816;
939.9000;0.4770;0.8992;
940.2000;0.4754;0.8942;
940.5000;0.4746;0.8967;
940.8000;0.4754;0.8942;
941.1000;0.4721;0.8841;
941.4000;0.4762;0.8967;
941.7000;0.4754;0.8992;
942.0000;0.4721;0.8892;
942.3000;0.4762;0.8967;
942.6000;0.4794;0.9093;
942.9000;0.4754;0.8967;
943.2000;0.4754;0.9068;
943.5000;0.4762;0.9118;
943.8000;0.4770;0.9068;
944.1000;0.4762;0.9093;
944.4000;0.4762;0.9118;
944.7000;0.4746;0.9068;
945.0000;0.4754;0.9017;
945.3000;0.4762;0.8892;
945.6000;0.4754;0.8841;
945.9000;0.4746;0.8816;
946.2000;0.4737;0.8690;
946.5000;0.4803;0.8816;
946.8000;0.4794;0.8766;
947.1000;0.4762;0.8665;
947.4000;0.4681;0.8463;
947.7000;0.4754;0.8640;
948.0000;0.4762;0.8690;
948.3000;0.4754;0.8715;
948.6000;0.4754;0.8766;
948.9000;0.4827;0.8967;
949.2000;0.4794;0.8892;
949.5000;0.4746;0.8740;
949.8000;0.4713;0.8665;
950.1000;0.4746;0.8665;
950.4000;0.4689;0.8539;
950.7000;0.4737;0.8690;
951.0000;0.4746;0.8740;
951.3000;0.4746;0.8715;
951.6000;0.4762;0.8740;
951.9000;0.4729;0.8665;
952.2000;0.4778;0.8740;
952.5000;0.4672;0.8438;
952.8000;0.4705;0.8564;
953.1000;0.4762;0.8690;
953.4000;0.4754;0.8665;
953.7000;0.4770;0.8665;
954.0000;0.4803;0.8791;
954.3000;0.4729;0.8640;
954.6000;0.4770;0.8791;
954.9000;0.4803;0.8816;
955.2000;0.4721;0.8791;
955.5000;0.4762;0.8967;
955.8000;0.4713;0.8791;
956.1000;0.4737;0.8866;
956.4000;0.4754;0.8917;
956.7000;0.4705;0.8942;
957.0000;0.4835;0.9320;
957.3000;0.4754;0.9093;
957.6000;0.4770;0.9043;
957.9000;0.4737;0.8942;
958.2000;0.4794;0.9143;
958.5000;0.4754;0.8992;
958.8000;0.4729;0.8942;
959.1000;0.4827;0.9118;
959.4000;0.4729;0.8942;
959.7000;0.4746;0.8917;
960.0000;0.4737;0.8992;
960.3000;0.4729;0.9043;
960.6000;0.4721;0.8942;
960.9000;0.4794;0.9143;
961.2000;0.4754;0.8992;
961.5000;0.4681;0.8866;
961.8000;0.4746;0.8917;
962.1000;0.4729;0.8917;
962.4000;0.4746;0.8992;
962.7000;0.4713;0.8866;
963.0000;0.4754;0.9093;
963.3000;0.4737;0.9017;
963.6000;0.4681;0.8841;
963.9000;0.4737;0.8917;
964.2000;0.4737;0.8866;
964.5000;0.4746;0.8892;
964.8000;0.4737;0.8791;
965.1000;0.4754;0.8816;
965.4000;0.4729;0.8816;
965.7000;0.4770;0.8917;
966.0000;0.4746;0.8866;
966.3000;0.4762;0.8866;
966.6000;0.4721;0.8740;
966.9000;0.4762;0.8766;
967.2000;0.4737;0.8740;
967.5000;0.4762;0.8841;
967.8000;0.4778;0.8841;
968.1000;0.4746;0.8816;
968.4000;0.4737;0.8766;
968.7000;0.4746;0.8816;
969.0000;0.4737;0.8791;
969.3000;0.4746;0.8740;
969.6000;0.4762;0.8816;
969.9000;0.4737;0.8841;
970.2000;0.4762;0.8816;
970.5000;0.4794;0.8917;
970.8000;0.4737;0.8917;
971.1000;0.4737;0.8967;
971.4000;0.4746;0.8942;
971.7000;0.4770;0.9043;
972.0000;0.4737;0.8942;
972.3000;0.4746;0.9017;
972.6000;0.4721;0.8917;
972.9000;0.4729;0.8967;
973.2000;0.4746;0.8942;
973.5000;0.4737;0.8892;
973.8000;0.4746;0.8942;
974.1000;0.4729;0.8917;
974.4000;0.4754;0.8942;
974.7000;0.4729;0.8892;
975.0000;0.4786;0.9093;
975.3000;0.4729;0.8992;
975.6000;0.4729;0.8917;
975.9000;0.4705;0.8791;
976.2000;0.4754;0.8841;
976.5000;0.4729;0.8816;
976.8000;0.4737;0.8766;
977.1000;0.4721;0.8816;
977.4000;0.4737;0.8866;
977.7000;0.4737;0.8942;
978.0000;0.4721;0.8841;
978.3000;0.4737;0.8892;
978.6000;0.4786;0.9017;
978.9000;0.4746;0.8967;
979.2000;0.4713;0.8917;
979.5000;0.4762;0.9093;
979.8000;0.4737;0.8992;
980.1000;0.4746;0.9169;
980.4000;0.4746;0.9194;
980.7000;0.4689;0.9043;
981.0000;0.4737;0.9219;
981.3000;0.4786;0.9269;
981.6000;0.4729;0.9068;
981.9000;0.4746;0.9043;
982.2000;0.4705;0.8967;
982.5000;0.4754;0.9143;
982.8000;0.4754;0.9068;
983.1000;0.4729;0.8967;
983.4000;0.4746;0.8967;
983.7000;0.4729;0.9017;
984.0000;0.4754;0.8992;
984.3000;0.4754;0.9043;
984.6000;0.4713;0.8917;
984.9000;0.4737;0.8992;
985.2000;0.4754;0.9169;
985.5000;0.4737;0.9043;
985.8000;0.4737;0.9017;
986.1000;0.4737;0.9043;
986.4000;0.4746;0.9143;
986.7000;0.4737;0.9068;
987.0000;0.4713;0.9068;
987.3000;0.4746;0.9118;
987.6000;0.4762;0.9194;
987.9000;0.4689;0.8942;
988.2000;0.4737;0.9043;
988.5000;0.4746;0.9093;
988.8000;0.4754;0.9093;
989.1000;0.4746;0.9043;
989.4000;0.4729;0.9043;
989.7000;0.4786;0.9143;
990.0000;0.4737;0.8992;
990.3000;0.4762;0.8992;
990.6000;0.4794;0.9068;
990.9000;0.4770;0.8942;
991.2000;0.4746;0.8967;
991.5000;0.4697;0.8841;
991.8000;0.4746;0.8992;
992.1000;0.4737;0.8967;
992.4000;0.4721;0.8967;
992.7000;0.4737;0.9043;
993.0000;0.4770;0.9043;
993.3000;0.4754;0.8967;
993.6000;0.4681;0.8791;
993.9000;0.4737;0.8992;
994.2000;0.4705;0.8841;
994.5000;0.4729;0.9017;
994.8000;0.4737;0.9068;
995.1000;0.4729;0.9143;
995.4000;0.4729;0.9118;
995.7000;0.4754;0.9169;
996.0000;0.4729;0.9143;
996.3000;0.4681;0.9017;
996.6000;0.4746;0.9169;
996.9000;0.4713;0.9194;
997.2000;0.4746;0.9194;
997.5000;0.4737;0.9169;
997.8000;0.4729;0.9169;
998.1000;0.4729;0.9143;
998.4000;0.4762;0.9093;
998.7000;0.4746;0.9068;
999.0000;0.4737;0.9068;
999.3000;0.4754;0.9093;
999.6000;0.4721;0.9068;
999.9000;0.4729;0.9043;
1000.2000;0.4746;0.9068;
1000.5000;0.4762;0.9118;
1000.8000;0.4754;0.8967;
1001.1000;0.4729;0.8942;
1001.4000;0.4737;0.8992;
1001.7000;0.4737;0.8942;
1002.0000;0.4746;0.8967;
1002.3000;0.4746;0.8967;
1002.6000;0.4762;0.9043;
1002.9000;0.4737;0.9017;
1003.2000;0.4754;0.9017;
1003.5000;0.4737;0.8917;
1003.8000;0.4746;0.8892;
1004.1000;0.4737;0.8942;
1004.4000;0.4689;0.8816;
1004.7000;0.4746;0.8967;
1005.0000;0.4786;0.9118;
1005.3000;0.4786;0.9093;
1005.6000;0.4746;0.8866;
1005.9000;0.4737;0.8791;
1006.2000;0.4713;0.8766;
1006.5000;0.4778;0.8942;
1006.8000;0.4729;0.8816;
1007.1000;0.4754;0.8892;
1007.4000;0.4729;0.8841;
1007.7000;0.4713;0.8892;
1008.0000;0.4729;0.8967;
1008.3000;0.4737;0.8992;
1008.6000;0.4737;0.9043;
1008.9000;0.4721;0.9017;
1009.2000;0.4746;0.9169;
1009.5000;0.4786;0.9244;
1009.8000;0.4754;0.9244;
1010.1000;0.4778;0.9370;
1010.4000;0.4737;0.9295;
1010.7000;0.4721;0.9320;
1011.0000;0.4803;0.9395;
1011.3000;0.4729;0.9219;
1011.6000;0.4737;0.9194;
1011.9000;0.4746;0.9143;
1012.2000;0.4737;0.9118;
1012.5000;0.4754;0.9143;
1012.8000;0.4729;0.9068;
1013.1000;0.4770;0.9143;
1013.4000;0.4754;0.9169;
1013.7000;0.4729;0.9093;
1014.0000;0.4770;0.9219;
1014.3000;0.4737;0.9219;
1014.6000;0.4754;0.9269;
1014.9000;0.4746;0.9269;
1015.2000;0.4737;0.9169;
1015.5000;0.4746;0.9118;
1015.8000;0.4746;0.9068;
1016.1000;0.4737;0.8992;
1016.4000;0.4737;0.8992;
1016.7000;0.4721;0.8917;
1017.0000;0.4754;0.8967;
1017.3000;0.4770;0.8967;
1017.6000;0.4778;0.9068;
1017.9000;0.4721;0.8866;
1018.2000;0.4689;0.8791;
1018.5000;0.4729;0.8892;
1018.8000;0.4729;0.8917;
1019.1000;0.4762;0.9017;
1019.4000;0.4746;0.9017;
1019.7000;0.4729;0.8942;
1020.0000;0.4729;0.8967;
1020.3000;0.4721;0.8967;
1020.6000;0.4746;0.8892;
1020.9000;0.4721;0.8791;
1021.2000;0.4713;0.8715;
1021.5000;0.4729;0.8690;
1021.8000;0.4729;0.8665;
1022.1000;0.4746;0.8740;
1022.4000;0.4737;0.8766;
1022.7000;0.4721;0.8715;
1023.0000;0.4705;0.8640;
1023.3000;0.4737;0.8665;
1023.6000;0.4754;0.8715;
1023.9000;0.4729;0.8690;
1024.2000;0.4721;0.8715;
1024.5000;0.4713;0.8740;
1024.8000;0.4737;0.8766;
1025.1000;0.4746;0.8740;
1025.4000;0.4737;0.8740;
1025.7000;0.4721;0.8690;
1026.0000;0.4754;0.8715;
1026.3000;0.4737;0.8816;
1026.6000;0.4721;0.8791;
1026.9000;0.4754;0.8791;
1027.2000;0.4746;0.8866;
1027.5000;0.4746;0.8690;
1027.8000;0.4729;0.8589;
1028.1000;0.4746;0.8715;
1028.4000;0.4689;0.8614;
1028.7000;0.4746;0.8740;
1029.0000;0.4729;0.8766;
1029.3000;0.4778;0.8992;
1029.6000;0.4746;0.8967;
1029.9000;0.4746;0.8892;
1030.2000;0.4746;0.8917;
1030.5000;0.4770;0.8992;
1030.8000;0.4737;0.8942;
1031.1000;0.4746;0.8917;
1031.4000;0.4721;0.8841;
1031.7000;0.4721;0.8841;
1032.0000;0.4746;0.8791;
1032.3000;0.4737;0.8740;
1032.6000;0.4762;0.8816;
1032.9000;0.4729;0.8690;
1033.2000;0.4729;0.8715;
1033.5000;0.4721;0.8816;
1033.8000;0.4729;0.8841;
1034.1000;0.4672;0.8614;
1034.4000;0.4713;0.8841;
1034.7000;0.4729;0.8892;
1035.0000;0.4737;0.8892;
1035.3000;0.4721;0.8866;
1035.6000;0.4729;0.8917;
1035.9000;0.4721;0.8892;
1036.2000;0.4754;0.9017;
1036.5000;0.4721;0.9017;
1036.8000;0.4737;0.9169;
1037.1000;0.4729;0.9194;
1037.4000;0.4729;0.9295;
1037.7000;0.4737;0.9269;
1038.0000;0.4729;0.9194;
1038.3000;0.4721;0.9043;
1038.6000;0.4729;0.8942;
1038.9000;0.4770;0.8992;
1039.2000;0.4729;0.8917;
1039.5000;0.4737;0.8841;
1039.8000;0.4729;0.8816;
1040.1000;0.4721;0.8791;
1040.4000;0.4746;0.8892;
1040.7000;0.4737;0.8917;
1041.0000;0.4721;0.8942;
1041.3000;0.4721;0.8942;
1041.6000;0.4664;0.8816;
1041.9000;0.4697;0.8866;
1042.2000;0.4754;0.8992;
1042.5000;0.4721;0.8917;
1042.8000;0.4737;0.8967;
1043.1000;0.4737;0.8892;
1043.4000;0.4721;0.8892;
1043.7000;0.4713;0.8841;
1044.0000;0.4737;0.8917;
1044.3000;0.4729;0.8866;
1044.6000;0.4713;0.8841;
1044.9000;0.4721;0.8892;
1045.2000;0.4737;0.8942;
1045.5000;0.4737;0.8942;
1045.8000;0.4721;0.8942;
1046.1000;0.4737;0.9017;
1046.4000;0.4754;0.9017;
1046.7000;0.4737;0.9043;
1047.0000;0.4713;0.8917;
1047.3000;0.4729;0.8892;
1047.6000;0.4729;0.8866;
1047.9000;0.4737;0.8866;
1048.2000;0.4721;0.8917;
1048.5000;0.4721;0.9017;
1048.8000;0.4729;0.9118;
1049.1000;0.4729;0.9093;
1049.4000;0.4729;0.9143;
1049.7000;0.4697;0.9068;
1050.0000;0.4721;0.9194;
1050.3000;0.4729;0.9219;
1050.6000;0.4729;0.9295;
1050.9000;0.4721;0.9194;
1051.2000;0.4729;0.9169;
1051.5000;0.4737;0.9169;
1051.8000;0.4729;0.9219;
1052.1000;0.4713;0.9143;
1052.4000;0.4737;0.9194;
1052.7000;0.4737;0.9143;
1053.0000;0.4729;0.9093;
1053.3000;0.4746;0.9118;
1053.6000;0.4770;0.9269;
1053.9000;0.4737;0.9169;
1054.2000;0.4729;0.9143;
1054.5000;0.4729;0.9169;
1054.8000;0.4737;0.9093;
1055.1000;0.4737;0.9068;
1055.4000;0.4721;0.8967;
1055.7000;0.4689;0.8942;
1056.0000;0.4705;0.8917;
1056.3000;0.4729;0.8942;
1056.6000;0.4737;0.8992;
1056.9000;0.4729;0.8917;
1057.2000;0.4721;0.8841;
1057.5000;0.4762;0.8917;
1057.8000;0.4729;0.8967;
1058.1000;0.4746;0.9118;
1058.4000;0.4746;0.9169;
1058.7000;0.4729;0.9068;
1059.0000;0.4746;0.9093;
1059.3000;0.4746;0.9118;
1059.6000;0.4729;0.9043;
1059.9000;0.4729;0.8992;
1060.2000;0.4754;0.9043;
1060.5000;0.4786;0.9068;
1060.8000;0.4713;0.9017;
1061.1000;0.4737;0.9043;
1061.4000;0.4713;0.8967;
1061.7000;0.4689;0.8866;
1062.0000;0.4729;0.8866;
1062.3000;0.4778;0.8892;
1062.6000;0.4729;0.8967;
1062.9000;0.4778;0.9068;
1063.2000;0.4721;0.8967;
1063.5000;0.4721;0.9017;
1063.8000;0.4737;0.9043;
1064.1000;0.4746;0.8892;
1064.4000;0.4729;0.8866;
1064.7000;0.4737;0.8917;
1065.0000;0.4737;0.8942;
1065.3000;0.4737;0.8942;
1065.6000;0.4746;0.8967;
1065.9000;0.4737;0.8892;
1066.2000;0.4827;0.9143;
1066.5000;0.4746;0.8892;
1066.8000;0.4737;0.9017;
1067.1000;0.4721;0.8942;
1067.4000;0.4729;0.8917;
1067.7000;0.4713;0.8942;
1068.0000;0.4713;0.8917;
1068.3000;0.4672;0.8715;
1068.6000;0.4713;0.8917;
1068.9000;0.4729;0.8942;
1069.2000;0.4729;0.8942;
1069.5000;0.4786;0.8992;
1069.8000;0.4705;0.8841;
1070.1000;0.4721;0.8892;
1070.4000;0.4754;0.9017;
1070.7000;0.4737;0.9068;
1071.0000;0.4754;0.9093;
1071.3000;0.4721;0.8967;
1071.6000;0.4754;0.9017;
1071.9000;0.4729;0.9068;
1072.2000;0.4737;0.9169;
1072.5000;0.4721;0.9143;
1072.8000;0.4697;0.9068;
1073.1000;0.4737;0.9143;
1073.4000;0.4746;0.9143;
1073.7000;0.4737;0.9219;
1074.0000;0.4721;0.9219;
1074.3000;0.4737;0.9194;
1074.6000;0.4721;0.9194;
1074.9000;0.4713;0.9169;
1075.2000;0.4729;0.9118;
1075.5000;0.4770;0.9219;
1075.8000;0.4689;0.9093;
1076.1000;0.4729;0.9118;
1076.4000;0.4746;0.9143;
1076.7000;0.4721;0.9093;
1077.0000;0.4721;0.9093;
1077.3000;0.4721;0.9093;
1077.6000;0.4737;0.9118;
1077.9000;0.4729;0.9043;
1078.2000;0.4737;0.9093;
1078.5000;0.4737;0.9118;
1078.8000;0.4713;0.9118;
1079.1000;0.4729;0.9169;
1079.4000;0.4729;0.9219;
1079.7000;0.4705;0.9194;
1080.0000;0.4721;0.9194;
1080.3000;0.4713;0.9093;
1080.6000;0.4737;0.9169;
1080.9000;0.4713;0.9043;
1081.2000;0.4721;0.9068;
1081.5000;0.4737;0.9143;
1081.8000;0.4721;0.9118;
1082.1000;0.4729;0.9017;
1082.4000;0.4737;0.8992;
1082.7000;0.4729;0.8917;
1083.0000;0.4713;0.8942;
1083.3000;0.4713;0.8967;
1083.6000;0.4713;0.9017;
1083.9000;0.4713;0.8992;
1084.2000;0.4721;0.9043;
1084.5000;0.4632;0.8816;
1084.8000;0.4729;0.9068;
1085.1000;0.4721;0.9068;
1085.4000;0.4729;0.8992;
1085.7000;0.4737;0.9017;
1086.0000;0.4721;0.8967;
1086.3000;0.4746;0.8892;
1086.6000;0.4737;0.8841;
1086.9000;0.4721;0.8791;
1087.2000;0.4754;0.8917;
1087.5000;0.4721;0.8791;
1087.8000;0.4713;0.8740;
1088.1000;0.4697;0.8715;
1088.4000;0.4746;0.8816;
1088.7000;0.4713;0.8766;
1089.0000;0.4697;0.8740;
1089.3000;0.4729;0.8791;
1089.6000;0.4721;0.8766;
1089.9000;0.4713;0.8917;
1090.2000;0.4746;0.9017;
1090.5000;0.4697;0.8967;
1090.8000;0.4713;0.8967;
1091.1000;0.4721;0.8967;
1091.4000;0.4713;0.8917;
1091.7000;0.4705;0.8816;
1092.0000;0.4713;0.8816;
1092.3000;0.4729;0.8841;
1092.6000;0.4737;0.8866;
1092.9000;0.4721;0.8816;
1093.2000;0.4713;0.8841;
1093.5000;0.4713;0.8892;
1093.8000;0.4729;0.8917;
1094.1000;0.4713;0.8841;
1094.4000;0.4737;0.8942;
1094.7000;0.4713;0.8816;
1095.0000;0.4689;0.8740;
1095.3000;0.4721;0.8715;
1095.6000;0.4729;0.8791;
1095.9000;0.4705;0.8766;
1096.2000;0.4705;0.8715;
1096.5000;0.4729;0.8816;
1096.8000;0.4705;0.8917;
1097.1000;0.4713;0.8892;
1097.4000;0.4721;0.8942;
1097.7000;0.4705;0.8917;
1098.0000;0.4705;0.8992;
1098.3000;0.4713;0.9043;
1098.6000;0.4648;0.8816;
1098.9000;0.4713;0.8766;
1099.2000;0.4721;0.8766;
1099.5000;0.4713;0.8791;
1099.8000;0.4737;0.8967;
1100.1000;0.4705;0.8942;
1100.4000;0.4729;0.8967;
1100.7000;0.4721;0.8967;
1101.0000;0.4762;0.9093;
1101.3000;0.4729;0.8917;
1101.6000;0.4729;0.8841;
1101.9000;0.4689;0.8740;
1102.2000;0.4746;0.8892;
1102.5000;0.4721;0.8942;
1102.8000;0.4721;0.8841;
1103.1000;0.4713;0.8917;
1103.4000;0.4778;0.9043;
1103.7000;0.4713;0.8892;
1104.0000;0.4754;0.8967;
1104.3000;0.4713;0.8841;
1104.6000;0.4721;0.8866;
1104.9000;0.4729;0.8942;
1105.2000;0.4729;0.8917;
1105.5000;0.4746;0.8942;
1105.8000;0.4721;0.8992;
1106.1000;0.4737;0.9017;
1106.4000;0.4705;0.9068;
1106.7000;0.4713;0.9017;
1107.0000;0.4729;0.8967;
1107.3000;0.4721;0.8942;
1107.6000;0.4713;0.8841;
1107.9000;0.4721;0.8816;
1108.2000;0.4713;0.8816;
1108.5000;0.4721;0.8967;
1108.8000;0.4729;0.9017;
1109.1000;0.4729;0.8942;
1109.4000;0.4705;0.8892;
1109.7000;0.4721;0.8967;
1110.0000;0.4713;0.8992;
1110.3000;0.4770;0.9068;
1110.6000;0.4705;0.9017;
1110.9000;0.4721;0.9017;
1111.2000;0.4729;0.9043;
1111.5000;0.4729;0.9068;
1111.8000;0.4729;0.8942;
1112.1000;0.4713;0.9017;
1112.4000;0.4705;0.8967;
1112.7000;0.4721;0.8942;
1113.0000;0.4721;0.8866;
1113.3000;0.4705;0.8892;
1113.6000;0.4713;0.8967;
1113.9000;0.4713;0.9043;
1114.2000;0.4721;0.9017;
1114.5000;0.4713;0.8917;
1114.8000;0.4697;0.8841;
1115.1000;0.4794;0.9068;
1115.4000;0.4713;0.8841;
1115.7000;0.4713;0.8791;
1116.0000;0.4705;0.8841;
1116.3000;0.4729;0.8917;
1116.6000;0.4721;0.8942;
1116.9000;0.4721;0.8917;
1117.2000;0.4729;0.8892;
1117.5000;0.4737;0.8942;
1117.8000;0.4762;0.9017;
1118.1000;0.4762;0.9017;
1118.4000;0.4721;0.8892;
1118.7000;0.4737;0.9068;
1119.0000;0.4729;0.8967;
1119.3000;0.4713;0.8892;
1119.6000;0.4770;0.9118;
1119.9000;0.4729;0.8942;
1120.2000;0.4681;0.8917;
1120.5000;0.4778;0.9143;
1120.8000;0.4705;0.8992;
1121.1000;0.4737;0.9017;
1121.4000;0.4721;0.9043;
1121.7000;0.4754;0.9068;
1122.0000;0.4713;0.8967;
1122.3000;0.4689;0.8917;
1122.6000;0.4770;0.9093;
1122.9000;0.4721;0.8967;
1123.2000;0.4705;0.9093;
1123.5000;0.4713;0.9169;
1123.8000;0.4713;0.9118;
1124.1000;0.4697;0.9093;
1124.4000;0.4689;0.9017;
1124.7000;0.4713;0.9043;
1125.0000;0.4721;0.8992;
1125.3000;0.4721;0.9017;
1125.6000;0.4746;0.8967;
1125.9000;0.4697;0.8892;
1126.2000;0.4705;0.8841;
1126.5000;0.4721;0.8791;
1126.8000;0.4721;0.8715;
1127.1000;0.4705;0.8740;
1127.4000;0.4737;0.8841;
1127.7000;0.4697;0.8766;
1128.0000;0.4697;0.8892;
1128.3000;0.4721;0.8942;
1128.6000;0.4737;0.8967;
1128.9000;0.4705;0.8917;
1129.2000;0.4713;0.8866;
1129.5000;0.4713;0.8866;
1129.8000;0.4705;0.8841;
1130.1000;0.4705;0.8791;
1130.4000;0.4729;0.8841;
1130.7000;0.4697;0.8715;
1131.0000;0.4697;0.8841;
1131.3000;0.4729;0.8992;
1131.6000;0.4681;0.8791;
1131.9000;0.4713;0.8816;
1132.2000;0.4713;0.8766;
1132.5000;0.4713;0.8715;
1132.8000;0.4721;0.8740;
1133.1000;0.4729;0.8841;
1133.4000;0.4721;0.8841;
1133.7000;0.4737;0.8892;
1134.0000;0.4697;0.8766;
1134.3000;0.4737;0.8866;
1134.6000;0.4754;0.8992;
1134.9000;0.4721;0.8917;
1135.2000;0.4737;0.8942;
1135.5000;0.4721;0.8967;
1135.8000;0.4729;0.8942;
1136.1000;0.4713;0.8892;
1136.4000;0.4713;0.8992;
1136.7000;0.4664;0.8892;
1137.0000;0.4721;0.9043;
1137.3000;0.4713;0.8917;
1137.6000;0.4697;0.8841;
1137.9000;0.4705;0.8917;
1138.2000;0.4721;0.8917;
1138.5000;0.4705;0.8892;
1138.8000;0.4689;0.8816;
1139.1000;0.4705;0.8892;
1139.4000;0.4713;0.8892;
1139.7000;0.4713;0.8816;
1140.0000;0.4705;0.8841;
1140.3000;0.4721;0.8816;
1140.6000;0.4713;0.8740;
1140.9000;0.4721;0.8791;
1141.2000;0.4713;0.8841;
1141.5000;0.4705;0.8892;
1141.8000;0.4754;0.9043;
1142.1000;0.4705;0.8866;
1142.4000;0.4648;0.8816;
1142.7000;0.4705;0.9017;
1143.0000;0.4689;0.8942;
1143.3000;0.4721;0.9043;
1143.6000;0.4697;0.8992;
1143.9000;0.4746;0.9093;
1144.2000;0.4721;0.9043;
1144.5000;0.4697;0.8967;
1144.8000;0.4689;0.8866;
1145.1000;0.4713;0.8992;
1145.4000;0.4713;0.8942;
1145.7000;0.4721;0.8942;
1146.0000;0.4713;0.8917;
1146.3000;0.4697;0.8866;
1146.6000;0.4705;0.8866;
1146.9000;0.4721;0.8892;
1147.2000;0.4705;0.8816;
1147.5000;0.4705;0.8866;
1147.8000;0.4729;0.9017;
1148.1000;0.4729;0.8992;
1148.4000;0.4729;0.8967;
1148.7000;0.4746;0.8942;
1149.0000;0.4737;0.8917;
1149.3000;0.4754;0.8992;
1149.6000;0.4713;0.8917;
1149.9000;0.4713;0.8917;
1150.2000;0.4713;0.8942;
1150.5000;0.4697;0.8917;
1150.8000;0.4721;0.8942;
1151.1000;0.4737;0.8942;
1151.4000;0.4721;0.8992;
1151.7000;0.4713;0.8967;
1152.0000;0.4705;0.8892;
1152.3000;0.4713;0.8967;
1152.6000;0.4721;0.9043;
1152.9000;0.4729;0.9043;
1153.2000;0.4713;0.9017;
1153.5000;0.4705;0.8942;
1153.8000;0.4721;0.8942;
1154.1000;0.4713;0.8917;
1154.4000;0.4697;0.8866;
1154.7000;0.4713;0.8917;
1155.0000;0.4705;0.8841;
1155.3000;0.4721;0.8917;
1155.6000;0.4729;0.8917;
1155.9000;0.4713;0.8992;
1156.2000;0.4689;0.8866;
1156.5000;0.4713;0.8992;
1156.8000;0.4713;0.8866;
1157.1000;0.4713;0.8816;
1157.4000;0.4721;0.8841;
1157.7000;0.4697;0.8766;
1158.0000;0.4737;0.8816;
1158.3000;0.4697;0.8640;
1158.6000;0.4705;0.8740;
1158.9000;0.4705;0.8690;
1159.2000;0.4697;0.8665;
1159.5000;0.4713;0.8740;
1159.8000;0.4770;0.8866;
1160.1000;0.4697;0.8841;
1160.4000;0.4705;0.8816;
1160.7000;0.4713;0.8866;
1161.0000;0.4721;0.8841;
1161.3000;0.4729;0.8892;
1161.6000;0.4713;0.8892;
1161.9000;0.4770;0.9017;
1162.2000;0.4697;0.8917;
1162.5000;0.4729;0.9017;
1162.8000;0.4705;0.8967;
1163.1000;0.4721;0.8942;
1163.4000;0.4721;0.8942;
1163.7000;0.4754;0.8992;
1164.0000;0.4803;0.9043;
1164.3000;0.4713;0.8791;
1164.6000;0.4713;0.8816;
1164.9000;0.4713;0.8816;
1165.2000;0.4713;0.8791;
1165.5000;0.4721;0.8766;
1165.8000;0.4721;0.8766;
1166.1000;0.4729;0.8791;
1166.4000;0.4721;0.8841;
1166.7000;0.4729;0.8917;
1167.0000;0.4721;0.8892;
1167.3000;0.4729;0.8866;
1167.6000;0.4721;0.8816;
1167.9000;0.4705;0.8740;
1168.2000;0.4705;0.8665;
1168.5000;0.4721;0.8589;
1168.8000;0.4762;0.8766;
1169.1000;0.4713;0.8715;
1169.4000;0.4697;0.8866;
1169.7000;0.4721;0.8917;
1170.0000;0.4721;0.8816;
1170.3000;0.4713;0.8766;
1170.6000;0.4754;0.8892;
1170.9000;0.4697;0.8766;
1171.2000;0.4721;0.8841;
1171.5000;0.4729;0.8992;
1171.8000;0.4721;0.9017;
1172.1000;0.4713;0.8967;
1172.4000;0.4721;0.8992;
1172.7000;0.4737;0.8967;
1173.0000;0.4681;0.8740;
1173.3000;0.4713;0.8917;
1173.6000;0.4754;0.8992;
1173.9000;0.4721;0.8791;
1174.2000;0.4713;0.8841;
1174.5000;0.4729;0.8841;
1174.8000;0.4729;0.8841;
1175.1000;0.4713;0.8841;
1175.4000;0.4713;0.8791;
1175.7000;0.4713;0.8816;
1176.0000;0.4721;0.8766;
1176.3000;0.4713;0.8665;
1176.6000;0.4705;0.8690;
1176.9000;0.4721;0.8841;
1177.2000;0.4697;0.8740;
1177.5000;0.4721;0.8791;
1177.8000;0.4713;0.8791;
1178.1000;0.4705;0.8715;
1178.4000;0.4721;0.8866;
1178.7000;0.4811;0.9194;
1179.0000;0.4705;0.8917;
1179.3000;0.4697;0.8942;
1179.6000;0.4713;0.8917;
1179.9000;0.4729;0.8967;
1180.2000;0.4705;0.8866;
1180.5000;0.4672;0.8816;
1180.8000;0.4697;0.8841;
1181.1000;0.4689;0.8866;
1181.4000;0.4721;0.9017;
1181.7000;0.4697;0.8992;
1182.0000;0.4697;0.8942;
1182.3000;0.4721;0.9017;
1182.6000;0.4729;0.9043;
1182.9000;0.4770;0.9093;
1183.2000;0.4624;0.8740;
1183.5000;0.4681;0.8967;
1183.8000;0.4721;0.9118;
1184.1000;0.4705;0.8992;
1184.4000;0.4721;0.8992;
1184.7000;0.4689;0.8917;
1185.0000;0.4697;0.8942;
1185.3000;0.4729;0.9043;
1185.6000;0.4721;0.9017;
1185.9000;0.4721;0.8992;
1186.2000;0.4681;0.8892;
1186.5000;0.4689;0.8967;
1186.8000;0.4721;0.9017;
1187.1000;0.4681;0.8917;
1187.4000;0.4713;0.9017;
1187.7000;0.4729;0.8992;
1188.0000;0.4721;0.9017;
1188.3000;0.4737;0.9017;
1188.6000;0.4713;0.8942;
1188.9000;0.4713;0.9017;
1189.2000;0.4721;0.9068;
1189.5000;0.4705;0.8992;
1189.8000;0.4705;0.8992;
1190.1000;0.4689;0.8866;
1190.4000;0.4705;0.8892;
1190.7000;0.4705;0.8866;
1191.0000;0.4713;0.8866;
1191.3000;0.4705;0.8992;
1191.6000;0.4705;0.8967;
1191.9000;0.4729;0.8967;
1192.2000;0.4721;0.8942;
1192.5000;0.4689;0.8917;
1192.8000;0.4705;0.8866;
1193.1000;0.4721;0.8992;
1193.4000;0.4705;0.9043;
1193.7000;0.4713;0.9017;
1194.0000;0.4713;0.8992;
1194.3000;0.4713;0.8992;
1194.6000;0.4713;0.8992;
1194.9000;0.4754;0.9068;
1195.2000;0.4713;0.8967;
1195.5000;0.4729;0.9068;
1195.8000;0.4737;0.9068;
1196.1000;0.4721;0.9068;
1196.4000;0.4689;0.9043;
1196.7000;0.4729;0.9194;
1197.0000;0.4705;0.9143;
1197.3000;0.4713;0.9093;
1197.6000;0.4713;0.9068;
1197.9000;0.4737;0.9219;
1198.2000;0.4721;0.9143;
1198.5000;0.4729;0.9068;
1198.8000;0.4721;0.9017;
1199.1000;0.4705;0.8967;
1199.4000;0.4721;0.8992;
1199.7000;0.4729;0.9068;
1200.0000;0.4713;0.9093;
1200.3000;0.4721;0.9093;
1200.6000;0.4737;0.9043;
1200.9000;0.4713;0.8866;
1201.2000;0.4729;0.8942;
1201.5000;0.4729;0.8892;
1201.8000;0.4705;0.8816;
1202.1000;0.4729;0.8992;
1202.4000;0.4713;0.9068;
1202.7000;0.4754;0.9118;
1203.0000;0.4746;0.8892;
1203.3000;0.4778;0.8967;
1203.6000;0.4737;0.8816;
1203.9000;0.4762;0.8917;
1204.2000;0.4746;0.8892;
1204.5000;0.4713;0.8816;
1204.8000;0.4697;0.8791;
1205.1000;0.4713;0.8766;
1205.4000;0.4689;0.8715;
1205.7000;0.4713;0.8816;
1206.0000;0.4705;0.8841;
1206.3000;0.4713;0.8866;
1206.6000;0.4713;0.8866;
1206.9000;0.4689;0.8866;
1207.2000;0.4737;0.8992;
1207.5000;0.4729;0.8942;
1207.8000;0.4713;0.8866;
1208.1000;0.4721;0.8967;
1208.4000;0.4713;0.8942;
1208.7000;0.4721;0.8892;
1209.0000;0.4713;0.8917;
1209.3000;0.4705;0.8917;
1209.6000;0.4737;0.9017;
1209.9000;0.4689;0.8942;
1210.2000;0.4681;0.8841;
1210.5000;0.4664;0.8841;
1210.8000;0.4705;0.8892;
1211.1000;0.4786;0.9143;
1211.4000;0.4697;0.8841;
1211.7000;0.4721;0.8942;
1212.0000;0.4713;0.9017;
1212.3000;0.4721;0.8917;
1212.6000;0.4705;0.8816;
1212.9000;0.4713;0.8766;
1213.2000;0.4754;0.8917;
1213.5000;0.4681;0.8791;
1213.8000;0.4689;0.8866;
1214.1000;0.4713;0.8917;
1214.4000;0.4746;0.8967;
1214.7000;0.4705;0.8942;
1215.0000;0.4681;0.8942;
1215.3000;0.4721;0.8917;
1215.6000;0.4705;0.8942;
1215.9000;0.4729;0.9017;
1216.2000;0.4713;0.8942;
1216.5000;0.4697;0.8866;
1216.8000;0.4713;0.8892;
1217.1000;0.4721;0.8942;
1217.4000;0.4729;0.8992;
1217.7000;0.4705;0.8992;
1218.0000;0.4762;0.9118;
1218.3000;0.4721;0.8967;
1218.6000;0.4721;0.8942;
1218.9000;0.4713;0.8892;
1219.2000;0.4705;0.8942;
1219.5000;0.4713;0.8866;
1219.8000;0.4729;0.8892;
1220.1000;0.4681;0.8665;
1220.4000;0.4705;0.8791;
1220.7000;0.4689;0.8766;
1221.0000;0.4754;0.8816;
1221.3000;0.4713;0.8740;
1221.6000;0.4713;0.8740;
1221.9000;0.4697;0.8690;
1222.2000;0.4705;0.8866;
1222.5000;0.4746;0.8967;
1222.8000;0.4729;0.8791;
1223.1000;0.4729;0.8866;
1223.4000;0.4729;0.8791;
1223.7000;0.4713;0.8715;
1224.0000;0.4721;0.8690;
1224.3000;0.4705;0.8564;
1224.6000;0.4713;0.8690;
1224.9000;0.4721;0.8766;
1225.2000;0.4713;0.8816;
1225.5000;0.4697;0.8816;
1225.8000;0.4713;0.8992;
1226.1000;0.4697;0.9017;
1226.4000;0.4713;0.8992;
1226.7000;0.4811;0.9295;
1227.0000;0.4705;0.9017;
1227.3000;0.4729;0.8992;
1227.6000;0.4713;0.8917;
1227.9000;0.4705;0.8942;
1228.2000;0.4689;0.8892;
1228.5000;0.4746;0.8992;
1228.8000;0.4713;0.8942;
1229.1000;0.4705;0.8892;
1229.4000;0.4705;0.8866;
1229.7000;0.4705;0.8841;
1230.0000;0.4713;0.8892;
1230.3000;0.4721;0.8892;
1230.6000;0.4705;0.8841;
1230.9000;0.4713;0.8866;
1231.2000;0.4721;0.8866;
1231.5000;0.4648;0.8740;
1231.8000;0.4721;0.8917;
1232.1000;0.4721;0.8967;
1232.4000;0.4819;0.9244;
1232.7000;0.4721;0.9017;
1233.0000;0.4705;0.8967;
1233.3000;0.4721;0.9043;
1233.6000;0.4721;0.9068;
1233.9000;0.4705;0.9068;
1234.2000;0.4705;0.8942;
1234.5000;0.4713;0.8967;
1234.8000;0.4803;0.9219;
1235.1000;0.4713;0.8992;
1235.4000;0.4721;0.8992;
1235.7000;0.4721;0.8917;
1236.0000;0.4721;0.9043;
1236.3000;0.4705;0.8892;
1236.6000;0.4721;0.8816;
1236.9000;0.4656;0.8589;
1237.2000;0.4689;0.8715;
1237.5000;0.4705;0.8766;
1237.8000;0.4754;0.8866;
1238.1000;0.4689;0.8690;
1238.4000;0.4721;0.8791;
1238.7000;0.4713;0.8690;
1239.0000;0.4754;0.8816;
1239.3000;0.4705;0.8690;
1239.6000;0.4697;0.8640;
1239.9000;0.4729;0.8766;
1240.2000;0.4713;0.8715;
1240.5000;0.4713;0.8766;
1240.8000;0.4721;0.8791;
1241.1000;0.4705;0.8791;
1241.4000;0.4721;0.8841;
1241.7000;0.4729;0.8791;
1242.0000;0.4737;0.8892;
1242.3000;0.4721;0.8967;
1242.6000;0.4737;0.9043;
1242.9000;0.4705;0.8892;
1243.2000;0.4721;0.8892;
1243.5000;0.4737;0.8892;
1243.8000;0.4664;0.8715;
1244.1000;0.4713;0.8917;
1244.4000;0.4705;0.8967;
1244.7000;0.4721;0.8942;
1245.0000;0.4737;0.8866;
1245.3000;0.4713;0.8766;
1245.6000;0.4721;0.8841;
1245.9000;0.4705;0.8816;
1246.2000;0.4705;0.8791;
1246.5000;0.4713;0.8740;
1246.8000;0.4713;0.8715;
1247.1000;0.4721;0.8740;
1247.4000;0.4697;0.8665;
1247.7000;0.4681;0.8640;
1248.0000;0.4729;0.8892;
1248.3000;0.4713;0.8892;
1248.6000;0.4713;0.8917;
1248.9000;0.4729;0.8992;
1249.2000;0.4713;0.8917;
1249.5000;0.4762;0.9093;
1249.8000;0.4737;0.9043;
1250.1000;0.4705;0.9017;
1250.4000;0.4729;0.8992;
1250.7000;0.4721;0.8841;
1251.0000;0.4729;0.8892;
1251.3000;0.4713;0.8942;
1251.6000;0.4713;0.8841;
1251.9000;0.4681;0.8816;
1252.2000;0.4664;0.8690;
1252.5000;0.4729;0.8740;
1252.8000;0.4811;0.9043;
1253.1000;0.4721;0.8791;
1253.4000;0.4729;0.8740;
1253.7000;0.4713;0.8740;
1254.0000;0.4697;0.8791;
1254.3000;0.4737;0.8892;
1254.6000;0.4721;0.8892;
1254.9000;0.4689;0.8841;
1255.2000;0.4705;0.8841;
1255.5000;0.4721;0.8917;
1255.8000;0.4721;0.8866;
1256.1000;0.4705;0.8892;
1256.4000;0.4713;0.8892;
1256.7000;0.4713;0.8841;
1257.0000;0.4705;0.8740;
1257.3000;0.4705;0.8690;
1257.6000;0.4713;0.8690;
1257.9000;0.4737;0.8841;
1258.2000;0.4713;0.8841;
1258.5000;0.4721;0.8791;
1258.8000;0.4754;0.8816;
1259.1000;0.4729;0.8866;
1259.4000;0.4697;0.8866;
1259.7000;0.4721;0.8917;
1260.0000;0.4713;0.8892;
1260.3000;0.4705;0.8942;
1260.6000;0.4689;0.8917;
1260.9000;0.4705;0.8892;
1261.2000;0.4705;0.8892;
1261.5000;0.4713;0.8866;
1261.8000;0.4697;0.8866;
1262.1000;0.4713;0.8942;
1262.4000;0.4705;0.8942;
1262.7000;0.4721;0.8992;
1263.0000;0.4721;0.9068;
1263.3000;0.4729;0.9017;
1263.6000;0.4689;0.8967;
1263.9000;0.4705;0.9093;
1264.2000;0.4713;0.9043;
1264.5000;0.4705;0.9017;
1264.8000;0.4705;0.9068;
1265.1000;0.4713;0.9043;
1265.4000;0.4689;0.8942;
1265.7000;0.4762;0.9093;
1266.0000;0.4697;0.8917;
1266.3000;0.4705;0.8892;
1266.6000;0.4713;0.8917;
1266.9000;0.4705;0.8892;
1267.2000;0.4705;0.8917;
1267.5000;0.4721;0.8942;
1267.8000;0.4705;0.8791;
1268.1000;0.4705;0.8791;
1268.4000;0.4713;0.8816;
1268.7000;0.4721;0.8791;
1269.0000;0.4721;0.8816;
1269.3000;0.4721;0.8866;
1269.6000;0.4721;0.9017;
1269.9000;0.4721;0.9017;
1270.2000;0.4705;0.8816;
1270.5000;0.4705;0.8866;
1270.8000;0.4697;0.8866;
1271.1000;0.4697;0.8841;
1271.4000;0.4713;0.8791;
1271.7000;0.4697;0.8690;
1272.0000;0.4705;0.8665;
1272.3000;0.4705;0.8614;
1272.6000;0.4713;0.8740;
1272.9000;0.4713;0.8766;
1273.2000;0.4713;0.8791;
1273.5000;0.4705;0.8791;
1273.8000;0.4713;0.8841;
1274.1000;0.4713;0.8841;
1274.4000;0.4721;0.8841;
1274.7000;0.4624;0.8614;
1275.0000;0.4697;0.8841;
1275.3000;0.4803;0.9093;
1275.6000;0.4697;0.8892;
1275.9000;0.4729;0.8992;
1276.2000;0.4713;0.8917;
1276.5000;0.4713;0.8917;
1276.8000;0.4737;0.8992;
1277.1000;0.4713;0.8917;
1277.4000;0.4729;0.8992;
1277.7000;0.4737;0.9043;
1278.0000;0.4729;0.8992;
1278.3000;0.4729;0.9017;
1278.6000;0.4640;0.8766;
1278.9000;0.4729;0.9017;
1279.2000;0.4713;0.8992;
1279.5000;0.4705;0.9017;
1279.8000;0.4721;0.9118;
1280.1000;0.4705;0.9093;
1280.4000;0.4697;0.9093;
1280.7000;0.4713;0.9043;
1281.0000;0.4729;0.9043;
1281.3000;0.4689;0.8967;
1281.6000;0.4697;0.8967;
1281.9000;0.4681;0.8967;
1282.2000;0.4754;0.9143;
1282.5000;0.4729;0.9068;
1282.8000;0.4705;0.9017;
1283.1000;0.4770;0.9118;
1283.4000;0.4713;0.8992;
1283.7000;0.4705;0.9143;
1284.0000;0.4697;0.9143;
1284.3000;0.4713;0.9169;
1284.6000;0.4721;0.9143;
1284.9000;0.4737;0.9169;
1285.2000;0.4721;0.9093;
1285.5000;0.4713;0.9068;
1285.8000;0.4729;0.9093;
1286.1000;0.4721;0.8967;
1286.4000;0.4721;0.8917;
1286.7000;0.4705;0.8841;
1287.0000;0.4721;0.8866;
1287.3000;0.4713;0.8841;
1287.6000;0.4762;0.8866;
1287.9000;0.4705;0.8740;
1288.2000;0.4713;0.8740;
1288.5000;0.4729;0.8690;
1288.8000;0.4737;0.8665;
1289.1000;0.4721;0.8640;
1289.4000;0.4737;0.8715;
1289.7000;0.4705;0.8715;
1290.0000;0.4721;0.8841;
1290.3000;0.4705;0.8841;
1290.6000;0.4640;0.8740;
1290.9000;0.4713;0.8942;
1291.2000;0.4713;0.8967;
1291.5000;0.4721;0.9043;
1291.8000;0.4689;0.8992;
1292.1000;0.4697;0.9043;
1292.4000;0.4705;0.9219;
1292.7000;0.4729;0.9295;
1293.0000;0.4721;0.9269;
1293.3000;0.4705;0.9118;
1293.6000;0.4640;0.8892;
1293.9000;0.4729;0.9043;
1294.2000;0.4705;0.9068;
1294.5000;0.4721;0.9017;
1294.8000;0.4689;0.8892;
1295.1000;0.4713;0.8892;
1295.4000;0.4705;0.8892;
1295.7000;0.4721;0.8841;
1296.0000;0.4721;0.8766;
1296.3000;0.4713;0.8740;
1296.6000;0.4705;0.8816;
1296.9000;0.4681;0.8816;
1297.2000;0.4689;0.8892;
1297.5000;0.4689;0.8892;
1297.8000;0.4729;0.8866;
1298.1000;0.4713;0.8791;
1298.4000;0.4697;0.8766;
1298.7000;0.4721;0.8816;
1299.0000;0.4721;0.8816;
1299.3000;0.4713;0.8841;
1299.6000;0.4721;0.8866;
1299.9000;0.4721;0.8816;
1300.2000;0.4729;0.8892;
1300.5000;0.4697;0.8766;
1300.8000;0.4729;0.8791;
1301.1000;0.4746;0.8816;
1301.4000;0.4705;0.8766;
1301.7000;0.4689;0.8740;
1302.0000;0.4705;0.8791;
1302.3000;0.4713;0.8892;
1302.6000;0.4721;0.8892;
1302.9000;0.4705;0.8816;
1303.2000;0.4689;0.8766;
1303.5000;0.4713;0.8791;
1303.8000;0.4737;0.8816;
1304.1000;0.4713;0.8841;
1304.4000;0.4713;0.8866;
1304.7000;0.4705;0.8942;
1305.0000;0.4737;0.8967;
1305.3000;0.4713;0.8967;
1305.6000;0.4713;0.8942;
1305.9000;0.4721;0.8917;
1306.2000;0.4705;0.8892;
1306.5000;0.4754;0.9017;
1306.8000;0.4705;0.8866;
1307.1000;0.4689;0.8917;
1307.4000;0.4713;0.8917;
1307.7000;0.4705;0.8866;
1308.0000;0.4697;0.8866;
1308.3000;0.4713;0.8866;
1308.6000;0.4689;0.8816;
1308.9000;0.4786;0.8992;
1309.2000;0.4721;0.8841;
1309.5000;0.4746;0.8866;
1309.8000;0.4737;0.8892;
1310.1000;0.4721;0.8892;
1310.4000;0.4721;0.8967;
1310.7000;0.4697;0.8967;
1311.0000;0.4705;0.9043;
1311.3000;0.4705;0.8942;
1311.6000;0.4721;0.9017;
1311.9000;0.4672;0.9043;
1312.2000;0.4697;0.9093;
1312.5000;0.4721;0.9118;
1312.8000;0.4705;0.9093;
1313.1000;0.4746;0.9118;
1313.4000;0.4729;0.9068;
1313.7000;0.4778;0.9194;
1314.0000;0.4705;0.9017;
1314.3000;0.4721;0.9043;
1314.6000;0.4697;0.9093;
1314.9000;0.4762;0.9269;
1315.2000;0.4705;0.9093;
1315.5000;0.4689;0.9118;
1315.8000;0.4681;0.9017;
1316.1000;0.4705;0.9169;
1316.4000;0.4689;0.9143;
1316.7000;0.4672;0.9043;
1317.0000;0.4697;0.9244;
1317.3000;0.4697;0.9295;
1317.6000;0.4786;0.9421;
1317.9000;0.4721;0.9194;
1318.2000;0.4705;0.9118;
1318.5000;0.4705;0.9068;
1318.8000;0.4705;0.9043;
1319.1000;0.4705;0.9068;
1319.4000;0.4737;0.9043;
1319.7000;0.4811;0.9194;
1320.0000;0.4713;0.8967;
1320.3000;0.4721;0.9043;
1320.6000;0.4729;0.8942;
1320.9000;0.4729;0.9043;
1321.2000;0.4705;0.9043;
1321.5000;0.4713;0.9194;
1321.8000;0.4632;0.9017;
1322.1000;0.4713;0.9219;
1322.4000;0.4705;0.9269;
1322.7000;0.4729;0.9295;
1323.0000;0.4729;0.9345;
1323.3000;0.4713;0.9269;
1323.6000;0.4729;0.9219;
1323.9000;0.4697;0.9093;
1324.2000;0.4737;0.9118;
1324.5000;0.4746;0.9143;
1324.8000;0.4705;0.9017;
1325.1000;0.4705;0.8967;
1325.4000;0.4705;0.8992;
1325.7000;0.4713;0.9043;
1326.0000;0.4721;0.9219;
1326.3000;0.4705;0.9118;
1326.6000;0.4721;0.9169;
1326.9000;0.4705;0.9143;
1327.2000;0.4689;0.9093;
1327.5000;0.4729;0.9093;
1327.8000;0.4713;0.9194;
1328.1000;0.4721;0.9295;
1328.4000;0.4689;0.9269;
1328.7000;0.4713;0.9169;
1329.0000;0.4705;0.9143;
1329.3000;0.4705;0.9017;
1329.6000;0.4778;0.9169;
1329.9000;0.4721;0.9068;
1330.2000;0.4713;0.9068;
1330.5000;0.4762;0.9194;
1330.8000;0.4705;0.8992;
1331.1000;0.4713;0.8967;
1331.4000;0.4689;0.8917;
1331.7000;0.4713;0.8967;
1332.0000;0.4697;0.8942;
1332.3000;0.4713;0.9017;
1332.6000;0.4689;0.8892;
1332.9000;0.4705;0.8992;
1333.2000;0.4713;0.8992;
1333.5000;0.4721;0.8967;
1333.8000;0.4697;0.8992;
1334.1000;0.4705;0.9118;
1334.4000;0.4737;0.9219;
1334.7000;0.4705;0.9169;
1335.0000;0.4729;0.9219;
1335.3000;0.4721;0.9219;
1335.6000;0.4705;0.9244;
1335.9000;0.4737;0.9320;
1336.2000;0.4721;0.9320;
1336.5000;0.4689;0.9219;
1336.8000;0.4697;0.9345;
1337.1000;0.4713;0.9194;
1337.4000;0.4705;0.9118;
1337.7000;0.4705;0.9143;
1338.0000;0.4664;0.9068;
1338.3000;0.4705;0.9068;
1338.6000;0.4713;0.9043;
1338.9000;0.4786;0.9244;
1339.2000;0.4721;0.9093;
1339.5000;0.4721;0.9043;
1339.8000;0.4721;0.9118;
1340.1000;0.4721;0.9093;
1340.4000;0.4721;0.9093;
1340.7000;0.4729;0.9017;
1341.0000;0.4713;0.9017;
1341.3000;0.4697;0.8992;
1341.6000;0.4697;0.8942;
1341.9000;0.4705;0.8967;
1342.2000;0.4713;0.9068;
1342.5000;0.4697;0.9169;
1342.8000;0.4697;0.9194;
1343.1000;0.4713;0.9194;
1343.4000;0.4729;0.9244;
1343.7000;0.4697;0.9143;
1344.0000;0.4689;0.9068;
1344.3000;0.4697;0.9068;
1344.6000;0.4721;0.9143;
1344.9000;0.4721;0.9068;
1345.2000;0.4729;0.9043;
1345.5000;0.4721;0.8967;
1345.8000;0.4721;0.8967;
1346.1000;0.4746;0.8917;
1346.4000;0.4713;0.8766;
1346.7000;0.4721;0.8766;
1347.0000;0.4713;0.8740;
1347.3000;0.4729;0.8690;
1347.6000;0.4705;0.8614;
1347.9000;0.4697;0.8614;
1348.2000;0.4721;0.8640;
1348.5000;0.4729;0.8589;
1348.8000;0.4705;0.8539;
1349.1000;0.4713;0.8665;
1349.4000;0.4721;0.8690;
1349.7000;0.4689;0.8665;
1350.0000;0.4803;0.8967;
1350.3000;0.4713;0.8640;
1350.6000;0.4729;0.8715;
1350.9000;0.4713;0.8791;
1351.2000;0.4754;0.8791;
1351.5000;0.4721;0.8690;
1351.8000;0.4705;0.8715;
1352.1000;0.4754;0.8816;
1352.4000;0.4770;0.8892;
1352.7000;0.4705;0.8740;
1353.0000;0.4697;0.8715;
1353.3000;0.4729;0.8791;
1353.6000;0.4705;0.8766;
1353.9000;0.4713;0.8791;
1354.2000;0.4721;0.8816;
1354.5000;0.4721;0.8791;
1354.8000;0.4721;0.8791;
1355.1000;0.4746;0.8866;
1355.4000;0.4697;0.8766;
1355.7000;0.4681;0.8841;
1356.0000;0.4705;0.8866;
1356.3000;0.4721;0.8841;
1356.6000;0.4705;0.8892;
1356.9000;0.4689;0.8866;
1357.2000;0.4713;0.8866;
1357.5000;0.4713;0.8816;
1357.8000;0.4721;0.8816;
1358.1000;0.4721;0.8740;
1358.4000;0.4737;0.8841;
1358.7000;0.4713;0.8866;
1359.0000;0.4721;0.8917;
1359.3000;0.4705;0.9017;
1359.6000;0.4705;0.8992;
1359.9000;0.4721;0.9093;
1360.2000;0.4713;0.9118;
1360.5000;0.4697;0.9143;
1360.8000;0.4705;0.9118;
1361.1000;0.4721;0.9143;
1361.4000;0.4721;0.9169;
1361.7000;0.4778;0.9345;
1362.0000;0.4713;0.9143;
1362.3000;0.4664;0.9017;
1362.6000;0.4697;0.8992;
1362.9000;0.4721;0.9043;
1363.2000;0.4697;0.9017;
1363.5000;0.4697;0.8967;
1363.8000;0.4713;0.8967;
1364.1000;0.4721;0.8917;
1364.4000;0.4713;0.8892;
1364.7000;0.4705;0.8967;
1365.0000;0.4705;0.8967;
1365.3000;0.4729;0.8942;
1365.6000;0.4697;0.8892;
1365.9000;0.4713;0.8942;
1366.2000;0.4713;0.8992;
1366.5000;0.4697;0.8992;
1366.8000;0.4721;0.9118;
1367.1000;0.4689;0.9043;
1367.4000;0.4681;0.8967;
1367.7000;0.4746;0.9017;
1368.0000;0.4697;0.8892;
1368.3000;0.4729;0.8992;
1368.6000;0.4697;0.8942;
1368.9000;0.4697;0.8942;
1369.2000;0.4697;0.8866;
1369.5000;0.4697;0.8892;
1369.8000;0.4697;0.8917;
1370.1000;0.4713;0.8917;
1370.4000;0.4713;0.8917;
1370.7000;0.4713;0.8942;
1371.0000;0.4705;0.8866;
1371.3000;0.4713;0.8841;
1371.6000;0.4713;0.8816;
1371.9000;0.4713;0.8841;
1372.2000;0.4737;0.8917;
1372.5000;0.4729;0.8942;
1372.8000;0.4721;0.8917;
1373.1000;0.4697;0.8892;
1373.4000;0.4697;0.8967;
1373.7000;0.4705;0.8992;
1374.0000;0.4689;0.8841;
1374.3000;0.4705;0.8992;
1374.6000;0.4697;0.8967;
1374.9000;0.4689;0.8992;
1375.2000;0.4721;0.9017;
1375.5000;0.4713;0.8892;
1375.8000;0.4713;0.8866;
1376.1000;0.4697;0.8917;
1376.4000;0.4721;0.8992;
1376.7000;0.4697;0.9043;
1377.0000;0.4697;0.9118;
1377.3000;0.4689;0.9068;
1377.6000;0.4713;0.9017;
1377.9000;0.4721;0.8967;
1378.2000;0.4721;0.8967;
1378.5000;0.4705;0.8992;
1378.8000;0.4713;0.9118;
1379.1000;0.4713;0.9118;
1379.4000;0.4729;0.9118;
1379.7000;0.4697;0.9068;
1380.0000;0.4713;0.9143;
1380.3000;0.4713;0.9068;
1380.6000;0.4697;0.9017;
1380.9000;0.4705;0.8967;
1381.2000;0.4681;0.8942;
1381.5000;0.4697;0.8967;
1381.8000;0.4713;0.8992;
1382.1000;0.4681;0.8892;
1382.4000;0.4705;0.8791;
1382.7000;0.4705;0.8740;
1383.0000;0.4705;0.8740;
1383.3000;0.4705;0.8715;
1383.6000;0.4681;0.8640;
1383.9000;0.4705;0.8690;
1384.2000;0.4697;0.8740;
1384.5000;0.4681;0.8715;
1384.8000;0.4754;0.8942;
1385.1000;0.4705;0.8690;
1385.4000;0.4713;0.8766;
1385.7000;0.4689;0.8665;
1386.0000;0.4713;0.8816;
1386.3000;0.4705;0.8892;
1386.6000;0.4713;0.8816;
1386.9000;0.4713;0.8967;
1387.2000;0.4754;0.9169;
1387.5000;0.4664;0.8967;
1387.8000;0.4697;0.9068;
1388.1000;0.4754;0.9068;
1388.4000;0.4697;0.8892;
1388.7000;0.4721;0.8892;
1389.0000;0.4762;0.8967;
1389.3000;0.4778;0.9093;
1389.6000;0.4681;0.8740;
1389.9000;0.4705;0.8841;
1390.2000;0.4729;0.8892;
1390.5000;0.4697;0.8766;
1390.8000;0.4640;0.8640;
1391.1000;0.4689;0.8816;
1391.4000;0.4689;0.8866;
1391.7000;0.4705;0.8992;
1392.0000;0.4689;0.8866;
1392.3000;0.4681;0.8892;
1392.6000;0.4697;0.8942;
1392.9000;0.4713;0.8866;
1393.2000;0.4729;0.8816;
1393.5000;0.4713;0.8816;
1393.8000;0.4737;0.9017;
1394.1000;0.4697;0.9017;
1394.4000;0.4729;0.9093;
1394.7000;0.4689;0.8967;
1395.0000;0.4713;0.8992;
1395.3000;0.4697;0.8917;
1395.6000;0.4713;0.8942;
1395.9000;0.4746;0.9118;
1396.2000;0.4721;0.9093;
1396.5000;0.4721;0.9043;
1396.8000;0.4705;0.8967;
1397.1000;0.4762;0.9143;
1397.4000;0.4681;0.8967;
1397.7000;0.4689;0.9017;
1398.0000;0.4705;0.9118;
1398.3000;0.4721;0.9118;
1398.6000;0.4599;0.8816;
1398.9000;0.4754;0.9194;
1399.2000;0.4713;0.9143;
1399.5000;0.4713;0.9068;
1399.8000;0.4697;0.9017;
