time/ms;Fluo/V;P700 deltaI/I x10³;
-199.8000;0.6138;0.8514;
-199.5000;0.6072;0.8237;
-199.2000;0.6113;0.8413;
-198.9000;0.6121;0.8489;
-198.6000;0.6129;0.8564;
-198.3000;0.6089;0.8413;
-198.0000;0.6146;0.8539;
-197.7000;0.6154;0.8589;
-197.4000;0.6129;0.8614;
-197.1000;0.6146;0.8589;
-196.8000;0.6129;0.8564;
-196.5000;0.6121;0.8564;
-196.2000;0.6105;0.8463;
-195.9000;0.6113;0.8564;
-195.6000;0.6113;0.8514;
-195.3000;0.6121;0.8489;
-195.0000;0.6113;0.8413;
-194.7000;0.6113;0.8337;
-194.4000;0.6121;0.8337;
-194.1000;0.6113;0.8237;
-193.8000;0.6113;0.8186;
-193.5000;0.6121;0.8237;
-193.2000;0.6121;0.8237;
-192.9000;0.6121;0.8237;
-192.6000;0.6129;0.8287;
-192.3000;0.6113;0.8287;
-192.0000;0.6146;0.8388;
-191.7000;0.6138;0.8413;
-191.4000;0.6129;0.8413;
-191.1000;0.6129;0.8337;
-190.8000;0.6138;0.8413;
-190.5000;0.6146;0.8489;
-190.2000;0.6105;0.8413;
-189.9000;0.6138;0.8539;
-189.6000;0.6113;0.8489;
-189.3000;0.6097;0.8514;
-189.0000;0.6138;0.8589;
-188.7000;0.6105;0.8564;
-188.4000;0.6121;0.8589;
-188.1000;0.6121;0.8614;
-187.8000;0.6154;0.8614;
-187.5000;0.6113;0.8539;
-187.2000;0.6138;0.8539;
-186.9000;0.6113;0.8564;
-186.6000;0.6138;0.8564;
-186.3000;0.6113;0.8489;
-186.0000;0.6129;0.8539;
-185.7000;0.6113;0.8438;
-185.4000;0.6146;0.8489;
-185.1000;0.6138;0.8514;
-184.8000;0.6129;0.8489;
-184.5000;0.6113;0.8514;
-184.2000;0.6121;0.8514;
-183.9000;0.6129;0.8514;
-183.6000;0.6121;0.8463;
-183.3000;0.6146;0.8438;
-183.0000;0.6121;0.8363;
-182.7000;0.6113;0.8363;
-182.4000;0.6121;0.8463;
-182.1000;0.6113;0.8337;
-181.8000;0.6121;0.8363;
-181.5000;0.6138;0.8388;
-181.2000;0.6113;0.8363;
-180.9000;0.6129;0.8463;
-180.6000;0.6129;0.8489;
-180.3000;0.6121;0.8413;
-180.0000;0.6113;0.8363;
-179.7000;0.6113;0.8388;
-179.4000;0.6105;0.8388;
-179.1000;0.6105;0.8438;
-178.8000;0.6121;0.8564;
-178.5000;0.6081;0.8438;
-178.2000;0.6113;0.8388;
-177.9000;0.6113;0.8413;
-177.6000;0.6121;0.8413;
-177.3000;0.6121;0.8413;
-177.0000;0.6146;0.8463;
-176.7000;0.6121;0.8438;
-176.4000;0.6138;0.8438;
-176.1000;0.6113;0.8463;
-175.8000;0.6097;0.8438;
-175.5000;0.6121;0.8463;
-175.2000;0.6138;0.8539;
-174.9000;0.6113;0.8489;
-174.6000;0.6146;0.8489;
-174.3000;0.6146;0.8640;
-174.0000;0.6121;0.8539;
-173.7000;0.6138;0.8614;
-173.4000;0.6129;0.8614;
-173.1000;0.6097;0.8564;
-172.8000;0.6121;0.8614;
-172.5000;0.6138;0.8514;
-172.2000;0.6154;0.8514;
-171.9000;0.6146;0.8514;
-171.6000;0.6138;0.8614;
-171.3000;0.6138;0.8614;
-171.0000;0.6129;0.8589;
-170.7000;0.6113;0.8614;
-170.4000;0.6138;0.8614;
-170.1000;0.6121;0.8640;
-169.8000;0.6129;0.8539;
-169.5000;0.6129;0.8514;
-169.2000;0.6097;0.8438;
-168.9000;0.6129;0.8489;
-168.6000;0.6129;0.8539;
-168.3000;0.6138;0.8539;
-168.0000;0.6129;0.8539;
-167.7000;0.6129;0.8463;
-167.4000;0.6129;0.8489;
-167.1000;0.6138;0.8438;
-166.8000;0.6129;0.8413;
-166.5000;0.6129;0.8363;
-166.2000;0.6121;0.8413;
-165.9000;0.6032;0.8161;
-165.6000;0.6113;0.8489;
-165.3000;0.6121;0.8539;
-165.0000;0.6113;0.8564;
-164.7000;0.6121;0.8589;
-164.4000;0.6121;0.8514;
-164.1000;0.6121;0.8589;
-163.8000;0.6129;0.8690;
-163.5000;0.6138;0.8614;
-163.2000;0.6121;0.8514;
-162.9000;0.6129;0.8564;
-162.6000;0.6113;0.8539;
-162.3000;0.6129;0.8690;
-162.0000;0.6121;0.8614;
-161.7000;0.6121;0.8614;
-161.4000;0.6113;0.8539;
-161.1000;0.6129;0.8564;
-160.8000;0.6121;0.8539;
-160.5000;0.6129;0.8564;
-160.2000;0.6146;0.8614;
-159.9000;0.6138;0.8715;
-159.6000;0.6113;0.8665;
-159.3000;0.6129;0.8690;
-159.0000;0.6129;0.8640;
-158.7000;0.6113;0.8690;
-158.4000;0.6113;0.8715;
-158.1000;0.6089;0.8589;
-157.8000;0.6113;0.8614;
-157.5000;0.6121;0.8614;
-157.2000;0.6121;0.8589;
-156.9000;0.6105;0.8489;
-156.6000;0.6113;0.8539;
-156.3000;0.6129;0.8640;
-156.0000;0.6121;0.8589;
-155.7000;0.6113;0.8539;
-155.4000;0.6113;0.8614;
-155.1000;0.6129;0.8589;
-154.8000;0.6121;0.8614;
-154.5000;0.6129;0.8665;
-154.2000;0.6089;0.8539;
-153.9000;0.6121;0.8589;
-153.6000;0.6138;0.8640;
-153.3000;0.6138;0.8740;
-153.0000;0.6121;0.8640;
-152.7000;0.6154;0.8740;
-152.4000;0.6121;0.8640;
-152.1000;0.6146;0.8690;
-151.8000;0.6138;0.8564;
-151.5000;0.6138;0.8564;
-151.2000;0.6081;0.8489;
-150.9000;0.6138;0.8665;
-150.6000;0.6146;0.8614;
-150.3000;0.6113;0.8589;
-150.0000;0.6195;0.8766;
-149.7000;0.6146;0.8665;
-149.4000;0.6129;0.8614;
-149.1000;0.6178;0.8791;
-148.8000;0.6113;0.8640;
-148.5000;0.6113;0.8614;
-148.2000;0.6129;0.8614;
-147.9000;0.6121;0.8463;
-147.6000;0.6113;0.8388;
-147.3000;0.6121;0.8463;
-147.0000;0.6121;0.8463;
-146.7000;0.6121;0.8413;
-146.4000;0.6129;0.8489;
-146.1000;0.6121;0.8463;
-145.8000;0.6129;0.8514;
-145.5000;0.6113;0.8514;
-145.2000;0.6105;0.8614;
-144.9000;0.6121;0.8640;
-144.6000;0.6113;0.8564;
-144.3000;0.6121;0.8514;
-144.0000;0.6105;0.8539;
-143.7000;0.6105;0.8463;
-143.4000;0.6121;0.8564;
-143.1000;0.6129;0.8690;
-142.8000;0.6170;0.8740;
-142.5000;0.6097;0.8614;
-142.2000;0.6138;0.8791;
-141.9000;0.6105;0.8690;
-141.6000;0.6138;0.8665;
-141.3000;0.6138;0.8665;
-141.0000;0.6113;0.8614;
-140.7000;0.6146;0.8589;
-140.4000;0.6121;0.8564;
-140.1000;0.6121;0.8690;
-139.8000;0.6129;0.8614;
-139.5000;0.6138;0.8665;
-139.2000;0.6121;0.8665;
-138.9000;0.6129;0.8690;
-138.6000;0.6121;0.8640;
-138.3000;0.6113;0.8715;
-138.0000;0.6129;0.8816;
-137.7000;0.6105;0.8740;
-137.4000;0.6146;0.8816;
-137.1000;0.6121;0.8791;
-136.8000;0.6138;0.8841;
-136.5000;0.6129;0.8791;
-136.2000;0.6113;0.8766;
-135.9000;0.6284;0.9244;
-135.6000;0.6129;0.8841;
-135.3000;0.6121;0.8841;
-135.0000;0.6138;0.8816;
-134.7000;0.6129;0.8841;
-134.4000;0.6129;0.8791;
-134.1000;0.6146;0.8816;
-133.8000;0.6121;0.8740;
-133.5000;0.6089;0.8715;
-133.2000;0.6113;0.8740;
-132.9000;0.6138;0.8766;
-132.6000;0.6113;0.8715;
-132.3000;0.6121;0.8816;
-132.0000;0.6129;0.8866;
-131.7000;0.6129;0.8816;
-131.4000;0.6154;0.8892;
-131.1000;0.6129;0.8816;
-130.8000;0.6121;0.8665;
-130.5000;0.6129;0.8740;
-130.2000;0.6146;0.8614;
-129.9000;0.6113;0.8539;
-129.6000;0.6138;0.8665;
-129.3000;0.6121;0.8589;
-129.0000;0.6170;0.8665;
-128.7000;0.6113;0.8564;
-128.4000;0.6121;0.8564;
-128.1000;0.6121;0.8489;
-127.8000;0.6121;0.8489;
-127.5000;0.6129;0.8463;
-127.2000;0.6146;0.8463;
-126.9000;0.6138;0.8539;
-126.6000;0.6121;0.8489;
-126.3000;0.6121;0.8589;
-126.0000;0.6203;0.8816;
-125.7000;0.6146;0.8640;
-125.4000;0.6154;0.8740;
-125.1000;0.6138;0.8640;
-124.8000;0.6056;0.8438;
-124.5000;0.6129;0.8665;
-124.2000;0.6113;0.8640;
-123.9000;0.6121;0.8614;
-123.6000;0.6121;0.8564;
-123.3000;0.6178;0.8665;
-123.0000;0.6040;0.8312;
-122.7000;0.6129;0.8438;
-122.4000;0.6129;0.8489;
-122.1000;0.6138;0.8539;
-121.8000;0.6162;0.8640;
-121.5000;0.6105;0.8564;
-121.2000;0.6121;0.8564;
-120.9000;0.6162;0.8740;
-120.6000;0.6121;0.8589;
-120.3000;0.6146;0.8740;
-120.0000;0.6129;0.8740;
-119.7000;0.6121;0.8640;
-119.4000;0.6121;0.8614;
-119.1000;0.6113;0.8589;
-118.8000;0.6129;0.8640;
-118.5000;0.6113;0.8589;
-118.2000;0.6121;0.8564;
-117.9000;0.6113;0.8539;
-117.6000;0.6121;0.8640;
-117.3000;0.6105;0.8539;
-117.0000;0.6138;0.8539;
-116.7000;0.6154;0.8539;
-116.4000;0.6129;0.8463;
-116.1000;0.6138;0.8438;
-115.8000;0.6138;0.8438;
-115.5000;0.6129;0.8388;
-115.2000;0.6146;0.8489;
-114.9000;0.6105;0.8388;
-114.6000;0.6121;0.8489;
-114.3000;0.6121;0.8489;
-114.0000;0.6162;0.8640;
-113.7000;0.6113;0.8514;
-113.4000;0.6081;0.8438;
-113.1000;0.6105;0.8489;
-112.8000;0.6186;0.8715;
-112.5000;0.6129;0.8539;
-112.2000;0.6105;0.8514;
-111.9000;0.6064;0.8363;
-111.6000;0.6121;0.8438;
-111.3000;0.6121;0.8463;
-111.0000;0.6121;0.8438;
-110.7000;0.6121;0.8463;
-110.4000;0.6121;0.8463;
-110.1000;0.6129;0.8489;
-109.8000;0.6089;0.8489;
-109.5000;0.6105;0.8438;
-109.2000;0.6121;0.8514;
-108.9000;0.6089;0.8463;
-108.6000;0.6105;0.8514;
-108.3000;0.6113;0.8463;
-108.0000;0.6170;0.8715;
-107.7000;0.6081;0.8489;
-107.4000;0.6121;0.8690;
-107.1000;0.6121;0.8766;
-106.8000;0.6129;0.8816;
-106.5000;0.6129;0.8841;
-106.2000;0.6146;0.8892;
-105.9000;0.6138;0.8791;
-105.6000;0.6113;0.8740;
-105.3000;0.6129;0.8791;
-105.0000;0.6146;0.8841;
-104.7000;0.6129;0.8816;
-104.4000;0.6105;0.8766;
-104.1000;0.6121;0.8740;
-103.8000;0.6105;0.8892;
-103.5000;0.6138;0.8942;
-103.2000;0.6138;0.8942;
-102.9000;0.6121;0.8866;
-102.6000;0.6195;0.9017;
-102.3000;0.6129;0.8866;
-102.0000;0.6105;0.8715;
-101.7000;0.6121;0.8766;
-101.4000;0.6121;0.8816;
-101.1000;0.6113;0.8816;
-100.8000;0.6121;0.8791;
-100.5000;0.6113;0.8791;
-100.2000;0.6081;0.8690;
-99.9000;0.6089;0.8740;
-99.6000;0.6129;0.8816;
-99.3000;0.6113;0.8791;
-99.0000;0.6129;0.8892;
-98.7000;0.6154;0.8942;
-98.4000;0.6138;0.8917;
-98.1000;0.6138;0.8866;
-97.8000;0.6129;0.8841;
-97.5000;0.6129;0.8892;
-97.2000;0.6146;0.8892;
-96.9000;0.6129;0.8942;
-96.6000;0.6186;0.9093;
-96.3000;0.6129;0.8992;
-96.0000;0.6146;0.8967;
-95.7000;0.6138;0.8992;
-95.4000;0.6121;0.8866;
-95.1000;0.6089;0.8766;
-94.8000;0.6146;0.8841;
-94.5000;0.6113;0.8715;
-94.2000;0.6129;0.8841;
-93.9000;0.6105;0.8740;
-93.6000;0.6146;0.8816;
-93.3000;0.6138;0.8816;
-93.0000;0.6121;0.8816;
-92.7000;0.6162;0.8866;
-92.4000;0.6129;0.8816;
-92.1000;0.6105;0.8740;
-91.8000;0.6121;0.8740;
-91.5000;0.6121;0.8791;
-91.2000;0.6129;0.8917;
-90.9000;0.6138;0.8992;
-90.6000;0.6129;0.8917;
-90.3000;0.6113;0.8892;
-90.0000;0.6138;0.8841;
-89.7000;0.6105;0.8866;
-89.4000;0.6154;0.8967;
-89.1000;0.6089;0.8866;
-88.8000;0.6113;0.8841;
-88.5000;0.6113;0.8866;
-88.2000;0.6121;0.8917;
-87.9000;0.6146;0.8967;
-87.6000;0.6138;0.9043;
-87.3000;0.6186;0.9118;
-87.0000;0.6121;0.8917;
-86.7000;0.6170;0.9017;
-86.4000;0.6105;0.8841;
-86.1000;0.6129;0.8917;
-85.8000;0.6121;0.8942;
-85.5000;0.6121;0.8892;
-85.2000;0.6138;0.8841;
-84.9000;0.6146;0.8892;
-84.6000;0.6121;0.8866;
-84.3000;0.6097;0.8866;
-84.0000;0.6113;0.8841;
-83.7000;0.6129;0.8892;
-83.4000;0.6129;0.8917;
-83.1000;0.6129;0.8967;
-82.8000;0.6121;0.8942;
-82.5000;0.6129;0.8967;
-82.2000;0.6113;0.8841;
-81.9000;0.6089;0.8690;
-81.6000;0.6162;0.8841;
-81.3000;0.6129;0.8740;
-81.0000;0.6121;0.8816;
-80.7000;0.6089;0.8791;
-80.4000;0.6113;0.8791;
-80.1000;0.6113;0.8740;
-79.8000;0.6121;0.8917;
-79.5000;0.6138;0.8816;
-79.2000;0.6154;0.8866;
-78.9000;0.6097;0.8816;
-78.6000;0.6129;0.8917;
-78.3000;0.6138;0.9043;
-78.0000;0.6138;0.8992;
-77.7000;0.6138;0.9017;
-77.4000;0.6162;0.9068;
-77.1000;0.6113;0.8866;
-76.8000;0.6097;0.8841;
-76.5000;0.6113;0.8766;
-76.2000;0.6105;0.8690;
-75.9000;0.6138;0.8766;
-75.6000;0.6113;0.8766;
-75.3000;0.6129;0.8740;
-75.0000;0.6105;0.8766;
-74.7000;0.6105;0.8892;
-74.4000;0.6129;0.8841;
-74.1000;0.6097;0.8816;
-73.8000;0.6129;0.8841;
-73.5000;0.6113;0.8766;
-73.2000;0.6105;0.8690;
-72.9000;0.6121;0.8740;
-72.6000;0.6121;0.8766;
-72.3000;0.6129;0.8766;
-72.0000;0.6146;0.8841;
-71.7000;0.6113;0.8841;
-71.4000;0.6113;0.8866;
-71.1000;0.6138;0.9017;
-70.8000;0.6146;0.9043;
-70.5000;0.6138;0.8942;
-70.2000;0.6129;0.8892;
-69.9000;0.6146;0.8841;
-69.6000;0.6113;0.8766;
-69.3000;0.6146;0.8917;
-69.0000;0.6113;0.8866;
-68.7000;0.6178;0.9169;
-68.4000;0.6121;0.8967;
-68.1000;0.6072;0.8841;
-67.8000;0.6081;0.8841;
-67.5000;0.6146;0.8992;
-67.2000;0.6121;0.8942;
-66.9000;0.6146;0.8892;
-66.6000;0.6129;0.8917;
-66.3000;0.6129;0.8917;
-66.0000;0.6138;0.8791;
-65.7000;0.6138;0.8866;
-65.4000;0.6129;0.8866;
-65.1000;0.6121;0.8892;
-64.8000;0.6113;0.8892;
-64.5000;0.6048;0.8866;
-64.2000;0.6121;0.9093;
-63.9000;0.6129;0.8967;
-63.6000;0.6129;0.8942;
-63.3000;0.6121;0.8992;
-63.0000;0.6105;0.8942;
-62.7000;0.6121;0.9043;
-62.4000;0.6105;0.8992;
-62.1000;0.6113;0.9043;
-61.8000;0.6121;0.8967;
-61.5000;0.6154;0.9043;
-61.2000;0.6113;0.8942;
-60.9000;0.6129;0.8967;
-60.6000;0.6154;0.8892;
-60.3000;0.6129;0.8841;
-60.0000;0.6186;0.9043;
-59.7000;0.6129;0.8992;
-59.4000;0.6138;0.9043;
-59.1000;0.6129;0.9017;
-58.8000;0.6121;0.8942;
-58.5000;0.6121;0.8866;
-58.2000;0.6040;0.8740;
-57.9000;0.6105;0.8992;
-57.6000;0.6121;0.8967;
-57.3000;0.6121;0.8942;
-57.0000;0.6121;0.8967;
-56.7000;0.6040;0.8740;
-56.4000;0.6129;0.8942;
-56.1000;0.6138;0.8967;
-55.8000;0.6138;0.8967;
-55.5000;0.6113;0.8967;
-55.2000;0.6138;0.8917;
-54.9000;0.6138;0.8841;
-54.6000;0.6129;0.8816;
-54.3000;0.6121;0.8816;
-54.0000;0.6129;0.8866;
-53.7000;0.6129;0.8841;
-53.4000;0.6138;0.8841;
-53.1000;0.6129;0.8866;
-52.8000;0.6138;0.8816;
-52.5000;0.6129;0.8841;
-52.2000;0.6064;0.8614;
-51.9000;0.6105;0.8816;
-51.6000;0.6129;0.8892;
-51.3000;0.6121;0.8866;
-51.0000;0.6089;0.8841;
-50.7000;0.6129;0.8917;
-50.4000;0.6113;0.8942;
-50.1000;0.6129;0.9017;
-49.8000;0.6105;0.8967;
-49.5000;0.6129;0.9017;
-49.2000;0.6129;0.8917;
-48.9000;0.6146;0.8942;
-48.6000;0.6121;0.8841;
-48.3000;0.6129;0.8816;
-48.0000;0.6138;0.8942;
-47.7000;0.6121;0.8866;
-47.4000;0.6129;0.8917;
-47.1000;0.6105;0.8841;
-46.8000;0.6105;0.8942;
-46.5000;0.6138;0.9043;
-46.2000;0.6129;0.9043;
-45.9000;0.6105;0.8967;
-45.6000;0.6105;0.9017;
-45.3000;0.6129;0.9017;
-45.0000;0.6129;0.9043;
-44.7000;0.6129;0.8992;
-44.4000;0.6121;0.8967;
-44.1000;0.6121;0.8866;
-43.8000;0.6129;0.8967;
-43.5000;0.6129;0.8892;
-43.2000;0.6129;0.8866;
-42.9000;0.6138;0.8892;
-42.6000;0.6138;0.8992;
-42.3000;0.6105;0.8942;
-42.0000;0.6146;0.9017;
-41.7000;0.6121;0.8992;
-41.4000;0.6089;0.8942;
-41.1000;0.6105;0.8942;
-40.8000;0.6129;0.9017;
-40.5000;0.6195;0.9143;
-40.2000;0.6138;0.9017;
-39.9000;0.6138;0.9043;
-39.6000;0.6121;0.9043;
-39.3000;0.6081;0.8816;
-39.0000;0.6121;0.8942;
-38.7000;0.6129;0.8992;
-38.4000;0.6129;0.8992;
-38.1000;0.6105;0.8942;
-37.8000;0.6113;0.9043;
-37.5000;0.6121;0.9017;
-37.2000;0.6113;0.8967;
-36.9000;0.6113;0.9017;
-36.6000;0.6129;0.9093;
-36.3000;0.6129;0.9093;
-36.0000;0.6170;0.9194;
-35.7000;0.6162;0.9068;
-35.4000;0.6113;0.8942;
-35.1000;0.6121;0.8992;
-34.8000;0.6129;0.9017;
-34.5000;0.6129;0.8942;
-34.2000;0.6105;0.8866;
-33.9000;0.6121;0.8766;
-33.6000;0.6146;0.8942;
-33.3000;0.6105;0.8942;
-33.0000;0.6121;0.9043;
-32.7000;0.6121;0.9068;
-32.4000;0.6129;0.9169;
-32.1000;0.6129;0.9219;
-31.8000;0.6105;0.9143;
-31.5000;0.6129;0.9194;
-31.2000;0.6219;0.9446;
-30.9000;0.6129;0.9219;
-30.6000;0.6138;0.9143;
-30.3000;0.6105;0.9093;
-30.0000;0.6072;0.9093;
-29.7000;0.6129;0.9169;
-29.4000;0.6121;0.9169;
-29.1000;0.6113;0.9118;
-28.8000;0.6113;0.9068;
-28.5000;0.6105;0.9118;
-28.2000;0.6113;0.9118;
-27.9000;0.6072;0.9068;
-27.6000;0.6097;0.8992;
-27.3000;0.6121;0.9017;
-27.0000;0.6105;0.8942;
-26.7000;0.6089;0.8942;
-26.4000;0.6105;0.8967;
-26.1000;0.6121;0.8967;
-25.8000;0.6121;0.8967;
-25.5000;0.6121;0.8942;
-25.2000;0.6129;0.8942;
-24.9000;0.6129;0.8892;
-24.6000;0.6129;0.8992;
-24.3000;0.6138;0.8942;
-24.0000;0.6121;0.8942;
-23.7000;0.6138;0.8967;
-23.4000;0.6138;0.8917;
-23.1000;0.6121;0.8841;
-22.8000;0.6138;0.8967;
-22.5000;0.6113;0.8992;
-22.2000;0.6121;0.9017;
-21.9000;0.6121;0.8967;
-21.6000;0.6113;0.8816;
-21.3000;0.6097;0.8766;
-21.0000;0.6113;0.8740;
-20.7000;0.6121;0.8715;
-20.4000;0.6089;0.8665;
-20.1000;0.6105;0.8740;
-19.8000;0.6121;0.8766;
-19.5000;0.6113;0.8715;
-19.2000;0.6121;0.8690;
-18.9000;0.6113;0.8740;
-18.6000;0.6113;0.8690;
-18.3000;0.6113;0.8766;
-18.0000;0.6121;0.8740;
-17.7000;0.6146;0.8816;
-17.4000;0.6105;0.8690;
-17.1000;0.6129;0.8816;
-16.8000;0.6113;0.8766;
-16.5000;0.6072;0.8690;
-16.2000;0.6121;0.8791;
-15.9000;0.6121;0.8816;
-15.6000;0.6105;0.8766;
-15.3000;0.6113;0.8892;
-15.0000;0.6121;0.8866;
-14.7000;0.6113;0.8892;
-14.4000;0.6121;0.8942;
-14.1000;0.6089;0.8816;
-13.8000;0.6227;0.9143;
-13.5000;0.6138;0.8841;
-13.2000;0.6154;0.8841;
-12.9000;0.6113;0.8740;
-12.6000;0.6129;0.8917;
-12.3000;0.6113;0.8917;
-12.0000;0.6129;0.8942;
-11.7000;0.6113;0.8841;
-11.4000;0.6089;0.8766;
-11.1000;0.6089;0.8740;
-10.8000;0.6121;0.8791;
-10.5000;0.6113;0.8740;
-10.2000;0.6048;0.8539;
-9.9000;0.6121;0.8766;
-9.6000;0.6129;0.8841;
-9.3000;0.6129;0.8942;
-9.0000;0.6113;0.8917;
-8.7000;0.6129;0.8942;
-8.4000;0.6162;0.9043;
-8.1000;0.6113;0.8942;
-7.8000;0.6162;0.9017;
-7.5000;0.6105;0.8892;
-7.2000;0.6186;0.9093;
-6.9000;0.6121;0.8917;
-6.6000;0.6121;0.8892;
-6.3000;0.6138;0.8967;
-6.0000;0.6113;0.8816;
-5.7000;0.6121;0.8791;
-5.4000;0.6195;0.8967;
-5.1000;0.6129;0.8740;
-4.8000;0.6121;0.8740;
-4.5000;0.6129;0.8892;
-4.2000;0.6129;0.8942;
-3.9000;0.6113;0.8917;
-3.6000;0.6121;0.8992;
-3.3000;0.6121;0.8992;
-3.0000;0.6138;0.8942;
-2.7000;0.6089;0.8791;
-2.4000;0.6129;0.8841;
-2.1000;0.6129;0.8892;
-1.8000;0.6154;0.8917;
-1.5000;0.6129;0.8917;
-1.2000;0.6105;0.8892;
-0.9000;0.6129;0.8917;
-0.6000;0.6113;0.8892;
-0.3000;0.6129;0.8917;
0.0000;0.6129;0.8917;
0.3000;0.6284;0.8967;
0.6000;0.6504;0.9395;
0.9000;0.6667;0.9748;
1.2000;0.6813;1.0050;
1.5000;0.6927;1.0352;
1.8000;0.7017;1.0529;
2.1000;0.7057;1.0579;
2.4000;0.7131;1.0856;
2.7000;0.7163;1.0932;
3.0000;0.7212;1.1058;
3.3000;0.7261;1.1133;
3.6000;0.7285;1.1133;
3.9000;0.7310;1.1234;
4.2000;0.7359;1.1360;
4.5000;0.7383;1.1436;
4.8000;0.7399;1.1461;
5.1000;0.7448;1.1612;
5.4000;0.7473;1.1687;
5.7000;0.7497;1.1687;
6.0000;0.7505;1.1788;
6.3000;0.7473;1.1662;
6.6000;0.7546;1.1864;
6.9000;0.7546;1.1763;
7.2000;0.7570;1.1738;
7.5000;0.7595;1.1687;
7.8000;0.7562;1.1637;
8.1000;0.7709;1.2065;
8.4000;0.7643;1.1914;
8.7000;0.7652;1.1839;
9.0000;0.7643;1.1788;
9.3000;0.7684;1.1788;
9.6000;0.7692;1.1763;
9.9000;0.7717;1.1813;
10.2000;0.7717;1.1889;
10.5000;0.7733;1.1839;
10.8000;0.7749;1.1788;
11.1000;0.7741;1.1763;
11.4000;0.7709;1.1612;
11.7000;0.7766;1.1788;
12.0000;0.7831;1.1839;
12.3000;0.7782;1.1738;
12.6000;0.7757;1.1612;
12.9000;0.7798;1.1713;
13.2000;0.7823;1.1713;
13.5000;0.7806;1.1612;
13.8000;0.7863;1.1738;
14.1000;0.7863;1.1637;
14.4000;0.7847;1.1637;
14.7000;0.7863;1.1612;
15.0000;0.7896;1.1612;
15.3000;0.7880;1.1612;
15.6000;0.7969;1.1713;
15.9000;0.7904;1.1511;
16.2000;0.7920;1.1562;
16.5000;0.7912;1.1562;
16.8000;0.7896;1.1562;
17.1000;0.7937;1.1612;
17.4000;0.7985;1.1713;
17.7000;0.8002;1.1713;
18.0000;0.7904;1.1536;
18.3000;0.7937;1.1562;
18.6000;0.7969;1.1637;
18.9000;0.8091;1.1839;
19.2000;0.8034;1.1687;
19.5000;0.7977;1.1536;
19.8000;0.7993;1.1587;
20.1000;0.8002;1.1637;
20.4000;0.7977;1.1612;
20.7000;0.7993;1.1612;
21.0000;0.8018;1.1612;
21.3000;0.8026;1.1587;
21.6000;0.8002;1.1536;
21.9000;0.8034;1.1637;
22.2000;0.8091;1.1738;
22.5000;0.8059;1.1687;
22.8000;0.8018;1.1587;
23.1000;0.8034;1.1738;
23.4000;0.8034;1.1839;
23.7000;0.8042;1.1813;
24.0000;0.8067;1.1864;
24.3000;0.8091;1.1914;
24.6000;0.8067;1.1813;
24.9000;0.8075;1.1763;
25.2000;0.8091;1.1813;
25.5000;0.8075;1.1788;
25.8000;0.8075;1.1813;
26.1000;0.8099;1.1889;
26.4000;0.8099;1.1839;
26.7000;0.8083;1.1864;
27.0000;0.8091;1.1788;
27.3000;0.8132;1.1839;
27.6000;0.8116;1.1813;
27.9000;0.8067;1.1587;
28.2000;0.8091;1.1637;
28.5000;0.8099;1.1687;
28.8000;0.8124;1.1687;
29.1000;0.8116;1.1662;
29.4000;0.8124;1.1713;
29.7000;0.8059;1.1562;
30.0000;0.8140;1.1813;
30.3000;0.8107;1.1687;
30.6000;0.8140;1.1713;
30.9000;0.8148;1.1813;
31.2000;0.8107;1.1687;
31.5000;0.8148;1.1889;
31.8000;0.8140;1.1839;
32.1000;0.8132;1.1813;
32.4000;0.8132;1.1763;
32.7000;0.8140;1.1713;
33.0000;0.8124;1.1662;
33.3000;0.8116;1.1587;
33.6000;0.8140;1.1637;
33.9000;0.8164;1.1637;
34.2000;0.8140;1.1637;
34.5000;0.8132;1.1536;
34.8000;0.8148;1.1587;
35.1000;0.8197;1.1687;
35.4000;0.8140;1.1511;
35.7000;0.8164;1.1511;
36.0000;0.8173;1.1536;
36.3000;0.8091;1.1385;
36.6000;0.8173;1.1612;
36.9000;0.8173;1.1687;
37.2000;0.8189;1.1662;
37.5000;0.8156;1.1587;
37.8000;0.8140;1.1511;
38.1000;0.8156;1.1486;
38.4000;0.8181;1.1461;
38.7000;0.8173;1.1511;
39.0000;0.8205;1.1562;
39.3000;0.8181;1.1486;
39.6000;0.8197;1.1536;
39.9000;0.8164;1.1562;
40.2000;0.8148;1.1511;
40.5000;0.8181;1.1562;
40.8000;0.8181;1.1536;
41.1000;0.8156;1.1562;
41.4000;0.8197;1.1662;
41.7000;0.8181;1.1612;
42.0000;0.8189;1.1562;
42.3000;0.8189;1.1562;
42.6000;0.8213;1.1637;
42.9000;0.8189;1.1562;
43.2000;0.8181;1.1511;
43.5000;0.8181;1.1536;
43.8000;0.8197;1.1637;
44.1000;0.8197;1.1587;
44.4000;0.8197;1.1612;
44.7000;0.8181;1.1562;
45.0000;0.8197;1.1713;
45.3000;0.8197;1.1713;
45.6000;0.8181;1.1738;
45.9000;0.8189;1.1763;
46.2000;0.8181;1.1687;
46.5000;0.8205;1.1687;
46.8000;0.8205;1.1763;
47.1000;0.8189;1.1763;
47.4000;0.8213;1.1763;
47.7000;0.8213;1.1813;
48.0000;0.8197;1.1839;
48.3000;0.8197;1.1788;
48.6000;0.8205;1.1738;
48.9000;0.8205;1.1738;
49.2000;0.8197;1.1713;
49.5000;0.8213;1.1763;
49.8000;0.8205;1.1687;
50.1000;0.8221;1.1687;
50.4000;0.8213;1.1612;
50.7000;0.8230;1.1763;
51.0000;0.8213;1.1662;
51.3000;0.8197;1.1637;
51.6000;0.8221;1.1562;
51.9000;0.8221;1.1511;
52.2000;0.8213;1.1461;
52.5000;0.8205;1.1461;
52.8000;0.8124;1.1360;
53.1000;0.8205;1.1587;
53.4000;0.8213;1.1587;
53.7000;0.8197;1.1536;
54.0000;0.8213;1.1562;
54.3000;0.8213;1.1637;
54.6000;0.8213;1.1637;
54.9000;0.8221;1.1662;
55.2000;0.8205;1.1562;
55.5000;0.8213;1.1687;
55.8000;0.8213;1.1612;
56.1000;0.8197;1.1587;
56.4000;0.8246;1.1612;
56.7000;0.8205;1.1486;
57.0000;0.8213;1.1536;
57.3000;0.8213;1.1562;
57.6000;0.8221;1.1713;
57.9000;0.8238;1.1713;
58.2000;0.8230;1.1612;
58.5000;0.8221;1.1562;
58.8000;0.8270;1.1687;
59.1000;0.8238;1.1612;
59.4000;0.8205;1.1587;
59.7000;0.8205;1.1562;
60.0000;0.8213;1.1612;
60.3000;0.8238;1.1662;
60.6000;0.8221;1.1587;
60.9000;0.8230;1.1637;
61.2000;0.8230;1.1536;
61.5000;0.8230;1.1511;
61.8000;0.8221;1.1562;
62.1000;0.8205;1.1486;
62.4000;0.8213;1.1511;
62.7000;0.8221;1.1587;
63.0000;0.8230;1.1637;
63.3000;0.8213;1.1713;
63.6000;0.8213;1.1763;
63.9000;0.8213;1.1839;
64.2000;0.8221;1.1813;
64.5000;0.8230;1.1839;
64.8000;0.8221;1.1763;
65.1000;0.8221;1.1738;
65.4000;0.8221;1.1788;
65.7000;0.8238;1.1889;
66.0000;0.8238;1.1788;
66.3000;0.8230;1.1788;
66.6000;0.8221;1.1813;
66.9000;0.8230;1.1813;
67.2000;0.8230;1.1864;
67.5000;0.8238;1.1889;
67.8000;0.8230;1.1889;
68.1000;0.8238;1.1889;
68.4000;0.8230;1.1763;
68.7000;0.8221;1.1738;
69.0000;0.8221;1.1662;
69.3000;0.8238;1.1713;
69.6000;0.8230;1.1713;
69.9000;0.8238;1.1687;
70.2000;0.8230;1.1813;
70.5000;0.8221;1.1738;
70.8000;0.8246;1.1788;
71.1000;0.8230;1.1713;
71.4000;0.8238;1.1763;
71.7000;0.8221;1.1662;
72.0000;0.8238;1.1637;
72.3000;0.8197;1.1536;
72.6000;0.8221;1.1511;
72.9000;0.8238;1.1612;
73.2000;0.8246;1.1738;
73.5000;0.8213;1.1612;
73.8000;0.8262;1.1687;
74.1000;0.8238;1.1587;
74.4000;0.8246;1.1562;
74.7000;0.8213;1.1486;
75.0000;0.8246;1.1637;
75.3000;0.8164;1.1536;
75.6000;0.8189;1.1662;
75.9000;0.8221;1.1788;
76.2000;0.8238;1.1738;
76.5000;0.8230;1.1662;
76.8000;0.8221;1.1587;
77.1000;0.8238;1.1536;
77.4000;0.8189;1.1284;
77.7000;0.8295;1.1562;
78.0000;0.8238;1.1511;
78.3000;0.8238;1.1536;
78.6000;0.8254;1.1511;
78.9000;0.8230;1.1486;
79.2000;0.8230;1.1486;
79.5000;0.8221;1.1461;
79.8000;0.8246;1.1486;
80.1000;0.8230;1.1410;
80.4000;0.8230;1.1436;
80.7000;0.8221;1.1360;
81.0000;0.8246;1.1461;
81.3000;0.8238;1.1536;
81.6000;0.8238;1.1637;
81.9000;0.8238;1.1687;
82.2000;0.8254;1.1637;
82.5000;0.8254;1.1687;
82.8000;0.8246;1.1713;
83.1000;0.8246;1.1738;
83.4000;0.8173;1.1461;
83.7000;0.8254;1.1612;
84.0000;0.8238;1.1637;
84.3000;0.8254;1.1637;
84.6000;0.8246;1.1687;
84.9000;0.8246;1.1687;
85.2000;0.8246;1.1612;
85.5000;0.8238;1.1637;
85.8000;0.8246;1.1662;
86.1000;0.8254;1.1662;
86.4000;0.8262;1.1713;
86.7000;0.8254;1.1637;
87.0000;0.8230;1.1562;
87.3000;0.8246;1.1637;
87.6000;0.8270;1.1662;
87.9000;0.8254;1.1662;
88.2000;0.8238;1.1562;
88.5000;0.8173;1.1310;
88.8000;0.8262;1.1486;
89.1000;0.8238;1.1486;
89.4000;0.8238;1.1461;
89.7000;0.8254;1.1562;
90.0000;0.8254;1.1637;
90.3000;0.8254;1.1738;
90.6000;0.8254;1.1738;
90.9000;0.8238;1.1713;
91.2000;0.8246;1.1813;
91.5000;0.8254;1.1763;
91.8000;0.8254;1.1713;
92.1000;0.8246;1.1738;
92.4000;0.8238;1.1687;
92.7000;0.8254;1.1687;
93.0000;0.8246;1.1662;
93.3000;0.8230;1.1562;
93.6000;0.8238;1.1536;
93.9000;0.8270;1.1511;
94.2000;0.8246;1.1461;
94.5000;0.8246;1.1612;
94.8000;0.8254;1.1713;
95.1000;0.8246;1.1788;
95.4000;0.8246;1.1763;
95.7000;0.8254;1.1662;
96.0000;0.8238;1.1687;
96.3000;0.8327;1.1939;
96.6000;0.8238;1.1687;
96.9000;0.8246;1.1612;
97.2000;0.8246;1.1587;
97.5000;0.8230;1.1486;
97.8000;0.8262;1.1486;
98.1000;0.8238;1.1511;
98.4000;0.8238;1.1511;
98.7000;0.8278;1.1612;
99.0000;0.8254;1.1587;
99.3000;0.8254;1.1637;
99.6000;0.8213;1.1486;
99.9000;0.8254;1.1562;
100.2000;0.8262;1.1536;
100.5000;0.8238;1.1410;
100.8000;0.8230;1.1461;
101.1000;0.8254;1.1511;
101.4000;0.8213;1.1436;
101.7000;0.8246;1.1486;
102.0000;0.8254;1.1587;
102.3000;0.8254;1.1662;
102.6000;0.8270;1.1687;
102.9000;0.8254;1.1738;
103.2000;0.8246;1.1687;
103.5000;0.8230;1.1662;
103.8000;0.8140;1.1410;
104.1000;0.8230;1.1713;
104.4000;0.8238;1.1562;
104.7000;0.8221;1.1536;
105.0000;0.8254;1.1763;
105.3000;0.8246;1.1713;
105.6000;0.8238;1.1788;
105.9000;0.8246;1.1687;
106.2000;0.8238;1.1687;
106.5000;0.8295;1.1889;
106.8000;0.8262;1.1788;
107.1000;0.8238;1.1687;
107.4000;0.8213;1.1637;
107.7000;0.8246;1.1687;
108.0000;0.8254;1.1687;
108.3000;0.8254;1.1662;
108.6000;0.8238;1.1738;
108.9000;0.8246;1.1813;
109.2000;0.8230;1.1612;
109.5000;0.8246;1.1662;
109.8000;0.8205;1.1587;
110.1000;0.8246;1.1788;
110.4000;0.8246;1.1788;
110.7000;0.8246;1.1839;
111.0000;0.8344;1.2090;
111.3000;0.8230;1.1713;
111.6000;0.8213;1.1662;
111.9000;0.8262;1.1864;
112.2000;0.8254;1.1763;
112.5000;0.8270;1.1738;
112.8000;0.8270;1.1738;
113.1000;0.8205;1.1486;
113.4000;0.8262;1.1612;
113.7000;0.8254;1.1511;
114.0000;0.8270;1.1486;
114.3000;0.8254;1.1436;
114.6000;0.8246;1.1360;
114.9000;0.8238;1.1486;
115.2000;0.8270;1.1436;
115.5000;0.8262;1.1436;
115.8000;0.8270;1.1536;
116.1000;0.8213;1.1511;
116.4000;0.8230;1.1587;
116.7000;0.8254;1.1637;
117.0000;0.8238;1.1612;
117.3000;0.8254;1.1536;
117.6000;0.8254;1.1486;
117.9000;0.8238;1.1461;
118.2000;0.8246;1.1511;
118.5000;0.8246;1.1436;
118.8000;0.8246;1.1461;
119.1000;0.8262;1.1562;
119.4000;0.8254;1.1612;
119.7000;0.8230;1.1612;
120.0000;0.8238;1.1637;
120.3000;0.8205;1.1587;
120.6000;0.8246;1.1713;
120.9000;0.8230;1.1738;
121.2000;0.8254;1.1839;
121.5000;0.8254;1.1763;
121.8000;0.8238;1.1713;
122.1000;0.8254;1.1662;
122.4000;0.8164;1.1385;
122.7000;0.8254;1.1536;
123.0000;0.8254;1.1587;
123.3000;0.8221;1.1562;
123.6000;0.8254;1.1587;
123.9000;0.8254;1.1662;
124.2000;0.8270;1.1763;
124.5000;0.8303;1.1763;
124.8000;0.8246;1.1562;
125.1000;0.8254;1.1562;
125.4000;0.8230;1.1511;
125.7000;0.8262;1.1536;
126.0000;0.8254;1.1536;
126.3000;0.8246;1.1511;
126.6000;0.8246;1.1436;
126.9000;0.8181;1.1133;
127.2000;0.8262;1.1410;
127.5000;0.8246;1.1436;
127.8000;0.8262;1.1436;
128.1000;0.8344;1.1738;
128.4000;0.8254;1.1511;
128.7000;0.8246;1.1436;
129.0000;0.8246;1.1410;
129.3000;0.8254;1.1461;
129.6000;0.8254;1.1562;
129.9000;0.8230;1.1436;
130.2000;0.8230;1.1461;
130.5000;0.8278;1.1536;
130.8000;0.8287;1.1662;
131.1000;0.8335;1.1813;
131.4000;0.8221;1.1461;
131.7000;0.8230;1.1486;
132.0000;0.8254;1.1562;
132.3000;0.8238;1.1587;
132.6000;0.8246;1.1637;
132.9000;0.8295;1.1738;
133.2000;0.8270;1.1486;
133.5000;0.8254;1.1461;
133.8000;0.8335;1.1763;
134.1000;0.8246;1.1587;
134.4000;0.8270;1.1662;
134.7000;0.8230;1.1536;
135.0000;0.8213;1.1536;
135.3000;0.8230;1.1536;
135.6000;0.8238;1.1536;
135.9000;0.8254;1.1612;
136.2000;0.8270;1.1687;
136.5000;0.8254;1.1687;
136.8000;0.8238;1.1713;
137.1000;0.8262;1.1738;
137.4000;0.8246;1.1687;
137.7000;0.8246;1.1738;
138.0000;0.8246;1.1637;
138.3000;0.8254;1.1687;
138.6000;0.8238;1.1713;
138.9000;0.8254;1.1612;
139.2000;0.8295;1.1788;
139.5000;0.8238;1.1587;
139.8000;0.8238;1.1511;
140.1000;0.8213;1.1486;
140.4000;0.8230;1.1461;
140.7000;0.8238;1.1385;
141.0000;0.8254;1.1511;
141.3000;0.8238;1.1562;
141.6000;0.8246;1.1562;
141.9000;0.8246;1.1536;
142.2000;0.8270;1.1536;
142.5000;0.8262;1.1511;
142.8000;0.8238;1.1511;
143.1000;0.8254;1.1511;
143.4000;0.8238;1.1436;
143.7000;0.8254;1.1461;
144.0000;0.8254;1.1486;
144.3000;0.8238;1.1536;
144.6000;0.8262;1.1662;
144.9000;0.8238;1.1587;
145.2000;0.8230;1.1562;
145.5000;0.8189;1.1461;
145.8000;0.8213;1.1662;
146.1000;0.8246;1.1813;
146.4000;0.8230;1.1738;
146.7000;0.8352;1.2015;
147.0000;0.8238;1.1662;
147.3000;0.8254;1.1788;
147.6000;0.8197;1.1637;
147.9000;0.8246;1.1713;
148.2000;0.8270;1.1813;
148.5000;0.8262;1.1763;
148.8000;0.8238;1.1713;
149.1000;0.8246;1.1738;
149.4000;0.8254;1.1839;
149.7000;0.8262;1.1914;
150.0000;0.8246;1.1813;
150.3000;0.8221;1.1713;
150.6000;0.8221;1.1687;
150.9000;0.8213;1.1662;
151.2000;0.8295;1.1813;
151.5000;0.8205;1.1461;
151.8000;0.8262;1.1612;
152.1000;0.8246;1.1637;
152.4000;0.8262;1.1713;
152.7000;0.8262;1.1612;
153.0000;0.8238;1.1612;
153.3000;0.8213;1.1436;
153.6000;0.8246;1.1486;
153.9000;0.8246;1.1562;
154.2000;0.8278;1.1562;
154.5000;0.8246;1.1511;
154.8000;0.8246;1.1536;
155.1000;0.8230;1.1486;
155.4000;0.8238;1.1562;
155.7000;0.8246;1.1486;
156.0000;0.8254;1.1461;
156.3000;0.8270;1.1562;
156.6000;0.8254;1.1511;
156.9000;0.8254;1.1587;
157.2000;0.8246;1.1562;
157.5000;0.8238;1.1562;
157.8000;0.8262;1.1637;
158.1000;0.8246;1.1637;
158.4000;0.8246;1.1662;
158.7000;0.8238;1.1587;
159.0000;0.8262;1.1687;
159.3000;0.8246;1.1738;
159.6000;0.8246;1.1763;
159.9000;0.8254;1.1763;
160.2000;0.8254;1.1612;
160.5000;0.8246;1.1536;
160.8000;0.8278;1.1713;
161.1000;0.8254;1.1637;
161.4000;0.8238;1.1637;
161.7000;0.8213;1.1562;
162.0000;0.8262;1.1687;
162.3000;0.8238;1.1612;
162.6000;0.8311;1.1662;
162.9000;0.8246;1.1536;
163.2000;0.8254;1.1511;
163.5000;0.8270;1.1562;
163.8000;0.8173;1.1310;
164.1000;0.8238;1.1511;
164.4000;0.8230;1.1536;
164.7000;0.8238;1.1562;
165.0000;0.8254;1.1662;
165.3000;0.8262;1.1713;
165.6000;0.8254;1.1637;
165.9000;0.8287;1.1713;
166.2000;0.8254;1.1662;
166.5000;0.8221;1.1637;
166.8000;0.8254;1.1713;
167.1000;0.8254;1.1687;
167.4000;0.8254;1.1738;
167.7000;0.8270;1.1763;
168.0000;0.8246;1.1738;
168.3000;0.8246;1.1713;
168.6000;0.8221;1.1738;
168.9000;0.8246;1.1763;
169.2000;0.8238;1.1562;
169.5000;0.8213;1.1486;
169.8000;0.8213;1.1536;
170.1000;0.8246;1.1687;
170.4000;0.8230;1.1662;
170.7000;0.8295;1.1687;
171.0000;0.8254;1.1562;
171.3000;0.8238;1.1562;
171.6000;0.8197;1.1335;
171.9000;0.8278;1.1562;
172.2000;0.8246;1.1461;
172.5000;0.8197;1.1284;
172.8000;0.8246;1.1461;
173.1000;0.8238;1.1486;
173.4000;0.8246;1.1511;
173.7000;0.8197;1.1436;
174.0000;0.8246;1.1486;
174.3000;0.8230;1.1486;
174.6000;0.8246;1.1612;
174.9000;0.8221;1.1662;
175.2000;0.8246;1.1738;
175.5000;0.8254;1.1587;
175.8000;0.8238;1.1486;
176.1000;0.8230;1.1562;
176.4000;0.8238;1.1662;
176.7000;0.8230;1.1662;
177.0000;0.8246;1.1738;
177.3000;0.8221;1.1738;
177.6000;0.8230;1.1763;
177.9000;0.8221;1.1813;
178.2000;0.8287;1.1939;
178.5000;0.8238;1.1788;
178.8000;0.8262;1.1788;
179.1000;0.8262;1.1813;
179.4000;0.8246;1.1788;
179.7000;0.8238;1.1738;
180.0000;0.8254;1.1687;
180.3000;0.8262;1.1637;
180.6000;0.8262;1.1637;
180.9000;0.8254;1.1536;
181.2000;0.8246;1.1562;
181.5000;0.8246;1.1562;
181.8000;0.8254;1.1536;
182.1000;0.8246;1.1461;
182.4000;0.8238;1.1486;
182.7000;0.8246;1.1587;
183.0000;0.8278;1.1713;
183.3000;0.8254;1.1687;
183.6000;0.8262;1.1788;
183.9000;0.8295;1.1813;
184.2000;0.8254;1.1687;
184.5000;0.8278;1.1763;
184.8000;0.8254;1.1713;
185.1000;0.8238;1.1687;
185.4000;0.8246;1.1662;
185.7000;0.8254;1.1687;
186.0000;0.8246;1.1662;
186.3000;0.8246;1.1612;
186.6000;0.8230;1.1536;
186.9000;0.8254;1.1562;
187.2000;0.8246;1.1562;
187.5000;0.8262;1.1587;
187.8000;0.8181;1.1335;
188.1000;0.8246;1.1486;
188.4000;0.8230;1.1486;
188.7000;0.8246;1.1511;
189.0000;0.8238;1.1461;
189.3000;0.8246;1.1612;
189.6000;0.8246;1.1562;
189.9000;0.8238;1.1486;
190.2000;0.8278;1.1536;
190.5000;0.8246;1.1436;
190.8000;0.8262;1.1511;
191.1000;0.8238;1.1385;
191.4000;0.8238;1.1360;
191.7000;0.8278;1.1536;
192.0000;0.8230;1.1536;
192.3000;0.8335;1.1738;
192.6000;0.8254;1.1536;
192.9000;0.8213;1.1486;
193.2000;0.8246;1.1536;
193.5000;0.8213;1.1511;
193.8000;0.8230;1.1536;
194.1000;0.8238;1.1587;
194.4000;0.8230;1.1612;
194.7000;0.8238;1.1662;
195.0000;0.8230;1.1687;
195.3000;0.8238;1.1637;
195.6000;0.8213;1.1511;
195.9000;0.8246;1.1662;
196.2000;0.8246;1.1562;
196.5000;0.8246;1.1637;
196.8000;0.8238;1.1587;
197.1000;0.8238;1.1562;
197.4000;0.8262;1.1562;
197.7000;0.8230;1.1562;
198.0000;0.8246;1.1637;
198.3000;0.8246;1.1687;
198.6000;0.8238;1.1662;
198.9000;0.8238;1.1612;
199.2000;0.8230;1.1612;
199.5000;0.8238;1.1562;
199.8000;0.8238;1.1410;
200.1000;0.8238;1.1410;
200.4000;0.8230;1.1310;
200.7000;0.8254;1.1360;
201.0000;0.8262;1.1360;
201.3000;0.8238;1.1310;
201.6000;0.8238;1.1234;
201.9000;0.8262;1.1284;
202.2000;0.8246;1.1335;
202.5000;0.8230;1.1385;
202.8000;0.8238;1.1360;
203.1000;0.8278;1.1461;
203.4000;0.8254;1.1335;
203.7000;0.8246;1.1335;
204.0000;0.8238;1.1310;
204.3000;0.8238;1.1234;
204.6000;0.8156;1.1083;
204.9000;0.8246;1.1284;
205.2000;0.8230;1.1310;
205.5000;0.8221;1.1284;
205.8000;0.8246;1.1385;
206.1000;0.8295;1.1511;
206.4000;0.8246;1.1486;
206.7000;0.8254;1.1536;
207.0000;0.8270;1.1562;
207.3000;0.8262;1.1587;
207.6000;0.8246;1.1511;
207.9000;0.8254;1.1612;
208.2000;0.8262;1.1637;
208.5000;0.8262;1.1637;
208.8000;0.8254;1.1587;
209.1000;0.8246;1.1612;
209.4000;0.8230;1.1612;
209.7000;0.8246;1.1612;
210.0000;0.8238;1.1587;
210.3000;0.8254;1.1587;
210.6000;0.8246;1.1562;
210.9000;0.8238;1.1461;
211.2000;0.8262;1.1536;
211.5000;0.8238;1.1461;
211.8000;0.8238;1.1410;
212.1000;0.8238;1.1486;
212.4000;0.8246;1.1562;
212.7000;0.8221;1.1536;
213.0000;0.8213;1.1486;
213.3000;0.8230;1.1511;
213.6000;0.8278;1.1612;
213.9000;0.8254;1.1562;
214.2000;0.8246;1.1511;
214.5000;0.8238;1.1486;
214.8000;0.8238;1.1511;
215.1000;0.8238;1.1461;
215.4000;0.8238;1.1562;
215.7000;0.8262;1.1587;
216.0000;0.8246;1.1562;
216.3000;0.8278;1.1637;
216.6000;0.8246;1.1486;
216.9000;0.8230;1.1410;
217.2000;0.8238;1.1511;
217.5000;0.8205;1.1486;
217.8000;0.8238;1.1511;
218.1000;0.8230;1.1461;
218.4000;0.8254;1.1562;
218.7000;0.8246;1.1587;
219.0000;0.8254;1.1612;
219.3000;0.8238;1.1536;
219.6000;0.8262;1.1536;
219.9000;0.8254;1.1511;
220.2000;0.8213;1.1335;
220.5000;0.8238;1.1410;
220.8000;0.8278;1.1486;
221.1000;0.8221;1.1436;
221.4000;0.8238;1.1511;
221.7000;0.8230;1.1410;
222.0000;0.8230;1.1511;
222.3000;0.8189;1.1360;
222.6000;0.8238;1.1486;
222.9000;0.8246;1.1486;
223.2000;0.8221;1.1385;
223.5000;0.8278;1.1486;
223.8000;0.8238;1.1410;
224.1000;0.8213;1.1360;
224.4000;0.8148;1.1184;
224.7000;0.8246;1.1486;
225.0000;0.8254;1.1461;
225.3000;0.8262;1.1486;
225.6000;0.8262;1.1511;
225.9000;0.8254;1.1461;
226.2000;0.8254;1.1360;
226.5000;0.8254;1.1385;
226.8000;0.8254;1.1335;
227.1000;0.8148;1.1133;
227.4000;0.8230;1.1410;
227.7000;0.8254;1.1436;
228.0000;0.8246;1.1436;
228.3000;0.8254;1.1436;
228.6000;0.8238;1.1410;
228.9000;0.8270;1.1461;
229.2000;0.8238;1.1461;
229.5000;0.8270;1.1486;
229.8000;0.8262;1.1486;
230.1000;0.8270;1.1310;
230.4000;0.8230;1.1234;
230.7000;0.8246;1.1209;
231.0000;0.8287;1.1310;
231.3000;0.8270;1.1335;
231.6000;0.8254;1.1335;
231.9000;0.8230;1.1284;
232.2000;0.8327;1.1536;
232.5000;0.8270;1.1536;
232.8000;0.8246;1.1511;
233.1000;0.8205;1.1461;
233.4000;0.8254;1.1587;
233.7000;0.8327;1.1788;
234.0000;0.8270;1.1612;
234.3000;0.8278;1.1713;
234.6000;0.8254;1.1637;
234.9000;0.8246;1.1587;
235.2000;0.8246;1.1587;
235.5000;0.8254;1.1662;
235.8000;0.8246;1.1587;
236.1000;0.8238;1.1486;
236.4000;0.8254;1.1486;
236.7000;0.8246;1.1612;
237.0000;0.8254;1.1713;
237.3000;0.8230;1.1637;
237.6000;0.8230;1.1612;
237.9000;0.8221;1.1612;
238.2000;0.8270;1.1637;
238.5000;0.8230;1.1562;
238.8000;0.8230;1.1536;
239.1000;0.8254;1.1536;
239.4000;0.8221;1.1461;
239.7000;0.8246;1.1486;
240.0000;0.8230;1.1486;
240.3000;0.8246;1.1410;
240.6000;0.8246;1.1511;
240.9000;0.8230;1.1536;
241.2000;0.8205;1.1511;
241.5000;0.8238;1.1587;
241.8000;0.8246;1.1587;
242.1000;0.8230;1.1536;
242.4000;0.8221;1.1562;
242.7000;0.8254;1.1612;
243.0000;0.8270;1.1562;
243.3000;0.8221;1.1436;
243.6000;0.8230;1.1587;
243.9000;0.8205;1.1562;
244.2000;0.8230;1.1587;
244.5000;0.8238;1.1612;
244.8000;0.8238;1.1637;
245.1000;0.8238;1.1612;
245.4000;0.8344;1.1864;
245.7000;0.8246;1.1637;
246.0000;0.8221;1.1536;
246.3000;0.8262;1.1536;
246.6000;0.8254;1.1562;
246.9000;0.8270;1.1587;
247.2000;0.8238;1.1562;
247.5000;0.8197;1.1486;
247.8000;0.8246;1.1562;
248.1000;0.8246;1.1536;
248.4000;0.8287;1.1637;
248.7000;0.8238;1.1637;
249.0000;0.8238;1.1612;
249.3000;0.8246;1.1738;
249.6000;0.8246;1.1687;
249.9000;0.8238;1.1763;
250.2000;0.8270;1.1889;
250.5000;0.8262;1.1965;
250.8000;0.8262;1.1889;
251.1000;0.8254;1.1864;
251.4000;0.8230;1.1813;
251.7000;0.8230;1.1763;
252.0000;0.8238;1.1813;
252.3000;0.8238;1.1738;
252.6000;0.8213;1.1713;
252.9000;0.8238;1.1713;
253.2000;0.8221;1.1687;
253.5000;0.8238;1.1763;
253.8000;0.8270;1.1763;
254.1000;0.8278;1.1763;
254.4000;0.8238;1.1637;
254.7000;0.8238;1.1687;
255.0000;0.8327;1.1889;
255.3000;0.8246;1.1713;
255.6000;0.8278;1.1713;
255.9000;0.8246;1.1687;
256.2000;0.8230;1.1662;
256.5000;0.8230;1.1662;
256.8000;0.8230;1.1687;
257.1000;0.8303;1.1713;
257.4000;0.8238;1.1612;
257.7000;0.8221;1.1637;
258.0000;0.8230;1.1687;
258.3000;0.8238;1.1562;
258.6000;0.8221;1.1436;
258.9000;0.8238;1.1360;
259.2000;0.8246;1.1385;
259.5000;0.8221;1.1385;
259.8000;0.8221;1.1385;
260.1000;0.8221;1.1284;
260.4000;0.8230;1.1284;
260.7000;0.8230;1.1360;
261.0000;0.8311;1.1511;
261.3000;0.8230;1.1360;
261.6000;0.8205;1.1360;
261.9000;0.8262;1.1461;
262.2000;0.8262;1.1410;
262.5000;0.8181;1.1259;
262.8000;0.8254;1.1461;
263.1000;0.8230;1.1486;
263.4000;0.8254;1.1536;
263.7000;0.8295;1.1637;
264.0000;0.8238;1.1436;
264.3000;0.8238;1.1410;
264.6000;0.8230;1.1385;
264.9000;0.8230;1.1335;
265.2000;0.8189;1.1259;
265.5000;0.8197;1.1284;
265.8000;0.8254;1.1385;
266.1000;0.8246;1.1436;
266.4000;0.8230;1.1461;
266.7000;0.8238;1.1562;
267.0000;0.8262;1.1612;
267.3000;0.8246;1.1662;
267.6000;0.8246;1.1738;
267.9000;0.8230;1.1713;
268.2000;0.8254;1.1662;
268.5000;0.8246;1.1662;
268.8000;0.8238;1.1612;
269.1000;0.8246;1.1587;
269.4000;0.8230;1.1562;
269.7000;0.8246;1.1637;
270.0000;0.8246;1.1637;
270.3000;0.8246;1.1662;
270.6000;0.8246;1.1511;
270.9000;0.8246;1.1562;
271.2000;0.8230;1.1612;
271.5000;0.8238;1.1587;
271.8000;0.8246;1.1713;
272.1000;0.8238;1.1763;
272.4000;0.8238;1.1662;
272.7000;0.8230;1.1562;
273.0000;0.8221;1.1612;
273.3000;0.8246;1.1612;
273.6000;0.8230;1.1562;
273.9000;0.8230;1.1612;
274.2000;0.8221;1.1562;
274.5000;0.8262;1.1662;
274.8000;0.8246;1.1587;
275.1000;0.8246;1.1612;
275.4000;0.8238;1.1587;
275.7000;0.8238;1.1637;
276.0000;0.8238;1.1662;
276.3000;0.8246;1.1687;
276.6000;0.8197;1.1662;
276.9000;0.8254;1.1662;
277.2000;0.8270;1.1687;
277.5000;0.8246;1.1637;
277.8000;0.8254;1.1662;
278.1000;0.8230;1.1612;
278.4000;0.8238;1.1687;
278.7000;0.8246;1.1687;
279.0000;0.8238;1.1687;
279.3000;0.8254;1.1687;
279.6000;0.8205;1.1612;
279.9000;0.8238;1.1738;
280.2000;0.8221;1.1738;
280.5000;0.8230;1.1713;
280.8000;0.8238;1.1763;
281.1000;0.8254;1.1864;
281.4000;0.8238;1.1763;
281.7000;0.8230;1.1738;
282.0000;0.8221;1.1662;
282.3000;0.8221;1.1687;
282.6000;0.8205;1.1562;
282.9000;0.8230;1.1662;
283.2000;0.8156;1.1536;
283.5000;0.8230;1.1637;
283.8000;0.8238;1.1637;
284.1000;0.8246;1.1662;
284.4000;0.8246;1.1713;
284.7000;0.8213;1.1587;
285.0000;0.8270;1.1788;
285.3000;0.8230;1.1763;
285.6000;0.8287;1.1813;
285.9000;0.8230;1.1687;
286.2000;0.8148;1.1511;
286.5000;0.8189;1.1637;
286.8000;0.8230;1.1738;
287.1000;0.8221;1.1763;
287.4000;0.8213;1.1662;
287.7000;0.8213;1.1662;
288.0000;0.8230;1.1738;
288.3000;0.8221;1.1839;
288.6000;0.8189;1.1763;
288.9000;0.8173;1.1662;
289.2000;0.8205;1.1738;
289.5000;0.8303;1.1939;
289.8000;0.8221;1.1763;
290.1000;0.8246;1.1788;
290.4000;0.8246;1.1763;
290.7000;0.8238;1.1687;
291.0000;0.8238;1.1662;
291.3000;0.8254;1.1738;
291.6000;0.8254;1.1713;
291.9000;0.8238;1.1713;
292.2000;0.8230;1.1687;
292.5000;0.8254;1.1713;
292.8000;0.8254;1.1687;
293.1000;0.8246;1.1637;
293.4000;0.8246;1.1536;
293.7000;0.8230;1.1511;
294.0000;0.8238;1.1562;
294.3000;0.8148;1.1436;
294.6000;0.8221;1.1587;
294.9000;0.8230;1.1612;
295.2000;0.8238;1.1687;
295.5000;0.8230;1.1738;
295.8000;0.8221;1.1788;
296.1000;0.8221;1.1839;
296.4000;0.8221;1.1864;
296.7000;0.8221;1.1914;
297.0000;0.8238;1.1965;
297.3000;0.8238;1.2040;
297.6000;0.8246;1.2040;
297.9000;0.8246;1.1889;
298.2000;0.8238;1.1889;
298.5000;0.8238;1.1839;
298.8000;0.8238;1.1839;
299.1000;0.8238;1.1813;
299.4000;0.8230;1.1713;
299.7000;0.8303;1.1889;
300.0000;0.8238;1.1687;
300.3000;0.8246;1.1662;
300.6000;0.8254;1.1637;
300.9000;0.8230;1.1511;
301.2000;0.8213;1.1486;
301.5000;0.8254;1.1587;
301.8000;0.8238;1.1536;
302.1000;0.8230;1.1486;
302.4000;0.8246;1.1587;
302.7000;0.8238;1.1587;
303.0000;0.8230;1.1562;
303.3000;0.8246;1.1562;
303.6000;0.8230;1.1486;
303.9000;0.8230;1.1587;
304.2000;0.8221;1.1562;
304.5000;0.8254;1.1662;
304.8000;0.8197;1.1536;
305.1000;0.8238;1.1662;
305.4000;0.8230;1.1637;
305.7000;0.8230;1.1662;
306.0000;0.8221;1.1713;
306.3000;0.8181;1.1662;
306.6000;0.8246;1.1889;
306.9000;0.8246;1.1914;
307.2000;0.8213;1.1839;
307.5000;0.8221;1.1813;
307.8000;0.8238;1.1864;
308.1000;0.8246;1.1914;
308.4000;0.8246;1.1939;
308.7000;0.8238;1.1965;
309.0000;0.8238;1.1965;
309.3000;0.8254;1.1864;
309.6000;0.8238;1.1788;
309.9000;0.8230;1.1738;
310.2000;0.8254;1.1788;
310.5000;0.8230;1.1788;
310.8000;0.8254;1.1713;
311.1000;0.8246;1.1687;
311.4000;0.8238;1.1687;
311.7000;0.8254;1.1738;
312.0000;0.8238;1.1637;
312.3000;0.8230;1.1562;
312.6000;0.8238;1.1587;
312.9000;0.8254;1.1637;
313.2000;0.8246;1.1587;
313.5000;0.8213;1.1511;
313.8000;0.8230;1.1511;
314.1000;0.8238;1.1637;
314.4000;0.8238;1.1662;
314.7000;0.8238;1.1637;
315.0000;0.8221;1.1536;
315.3000;0.8238;1.1612;
315.6000;0.8238;1.1637;
315.9000;0.8246;1.1662;
316.2000;0.8213;1.1612;
316.5000;0.8213;1.1662;
316.8000;0.8230;1.1687;
317.1000;0.8246;1.1713;
317.4000;0.8262;1.1813;
317.7000;0.8221;1.1662;
318.0000;0.8230;1.1713;
318.3000;0.8254;1.1738;
318.6000;0.8230;1.1687;
318.9000;0.8230;1.1637;
319.2000;0.8230;1.1713;
319.5000;0.8238;1.1763;
319.8000;0.8270;1.1813;
320.1000;0.8246;1.1839;
320.4000;0.8156;1.1662;
320.7000;0.8238;1.1839;
321.0000;0.8213;1.1788;
321.3000;0.8238;1.1788;
321.6000;0.8230;1.1788;
321.9000;0.8246;1.1788;
322.2000;0.8230;1.1788;
322.5000;0.8221;1.1738;
322.8000;0.8181;1.1436;
323.1000;0.8246;1.1637;
323.4000;0.8254;1.1612;
323.7000;0.8238;1.1637;
324.0000;0.8238;1.1637;
324.3000;0.8230;1.1687;
324.6000;0.8246;1.1738;
324.9000;0.8238;1.1738;
325.2000;0.8221;1.1738;
325.5000;0.8230;1.1864;
325.8000;0.8287;1.2040;
326.1000;0.8221;1.1864;
326.4000;0.8230;1.1839;
326.7000;0.8221;1.1788;
327.0000;0.8230;1.1738;
327.3000;0.8246;1.1763;
327.6000;0.8213;1.1687;
327.9000;0.8205;1.1637;
328.2000;0.8230;1.1662;
328.5000;0.8221;1.1637;
328.8000;0.8238;1.1662;
329.1000;0.8221;1.1687;
329.4000;0.8230;1.1637;
329.7000;0.8230;1.1687;
330.0000;0.8156;1.1461;
330.3000;0.8213;1.1612;
330.6000;0.8205;1.1612;
330.9000;0.8213;1.1763;
331.2000;0.8230;1.1763;
331.5000;0.8230;1.1864;
331.8000;0.8221;1.1864;
332.1000;0.8238;1.1864;
332.4000;0.8221;1.1788;
332.7000;0.8238;1.1637;
333.0000;0.8230;1.1637;
333.3000;0.8173;1.1511;
333.6000;0.8238;1.1738;
333.9000;0.8197;1.1662;
334.2000;0.8221;1.1713;
334.5000;0.8213;1.1763;
334.8000;0.8238;1.1914;
335.1000;0.8230;1.1889;
335.4000;0.8254;1.1914;
335.7000;0.8230;1.1788;
336.0000;0.8181;1.1662;
336.3000;0.8238;1.1788;
336.6000;0.8254;1.1813;
336.9000;0.8230;1.1738;
337.2000;0.8230;1.1738;
337.5000;0.8205;1.1763;
337.8000;0.8238;1.1763;
338.1000;0.8221;1.1662;
338.4000;0.8303;1.1889;
338.7000;0.8230;1.1713;
339.0000;0.8295;1.1864;
339.3000;0.8197;1.1637;
339.6000;0.8230;1.1687;
339.9000;0.8230;1.1763;
340.2000;0.8246;1.1889;
340.5000;0.8221;1.1864;
340.8000;0.8262;1.1914;
341.1000;0.8230;1.1788;
341.4000;0.8238;1.1738;
341.7000;0.8221;1.1763;
342.0000;0.8221;1.1788;
342.3000;0.8213;1.1889;
342.6000;0.8230;1.1864;
342.9000;0.8230;1.1889;
343.2000;0.8246;1.1914;
343.5000;0.8230;1.1839;
343.8000;0.8270;1.1889;
344.1000;0.8230;1.1839;
344.4000;0.8238;1.1788;
344.7000;0.8238;1.1813;
345.0000;0.8254;1.1839;
345.3000;0.8254;1.1763;
345.6000;0.8221;1.1763;
345.9000;0.8221;1.1813;
346.2000;0.8238;1.1813;
346.5000;0.8230;1.1788;
346.8000;0.8221;1.1763;
347.1000;0.8246;1.1788;
347.4000;0.8238;1.1839;
347.7000;0.8230;1.1788;
348.0000;0.8238;1.1839;
348.3000;0.8246;1.1813;
348.6000;0.8221;1.1788;
348.9000;0.8246;1.1839;
349.2000;0.8238;1.1864;
349.5000;0.8221;1.1864;
349.8000;0.8230;1.1914;
350.1000;0.8230;1.1914;
350.4000;0.8254;1.1990;
350.7000;0.8230;1.1914;
351.0000;0.8221;1.1839;
351.3000;0.8246;1.1864;
351.6000;0.8221;1.1763;
351.9000;0.8213;1.1788;
352.2000;0.8238;1.1939;
352.5000;0.8238;1.1939;
352.8000;0.8230;1.1939;
353.1000;0.8213;1.1889;
353.4000;0.8213;1.1839;
353.7000;0.8230;1.1889;
354.0000;0.8221;1.1839;
354.3000;0.8205;1.1813;
354.6000;0.8213;1.1788;
354.9000;0.8189;1.1738;
355.2000;0.8205;1.1637;
355.5000;0.8221;1.1587;
355.8000;0.8205;1.1461;
356.1000;0.8156;1.1410;
356.4000;0.8116;1.1360;
356.7000;0.8221;1.1587;
357.0000;0.8287;1.1788;
357.3000;0.8238;1.1662;
357.6000;0.8246;1.1662;
357.9000;0.8262;1.1687;
358.2000;0.8246;1.1687;
358.5000;0.8213;1.1612;
358.8000;0.8254;1.1637;
359.1000;0.8238;1.1612;
359.4000;0.8230;1.1562;
359.7000;0.8221;1.1662;
360.0000;0.8189;1.1562;
360.3000;0.8230;1.1763;
360.6000;0.8270;1.1889;
360.9000;0.8221;1.1713;
361.2000;0.8205;1.1662;
361.5000;0.8221;1.1587;
361.8000;0.8230;1.1612;
362.1000;0.8238;1.1562;
362.4000;0.8197;1.1562;
362.7000;0.8238;1.1763;
363.0000;0.8262;1.1738;
363.3000;0.8295;1.1864;
363.6000;0.8221;1.1763;
363.9000;0.8230;1.1813;
364.2000;0.8262;1.1965;
364.5000;0.8221;1.1813;
364.8000;0.8213;1.1788;
365.1000;0.8238;1.1889;
365.4000;0.8230;1.1864;
365.7000;0.8173;1.1788;
366.0000;0.8221;1.1889;
366.3000;0.8230;1.1813;
366.6000;0.8238;1.1939;
366.9000;0.8230;1.1939;
367.2000;0.8238;1.1864;
367.5000;0.8238;1.1839;
367.8000;0.8230;1.1839;
368.1000;0.8230;1.1788;
368.4000;0.8230;1.1788;
368.7000;0.8221;1.1839;
369.0000;0.8205;1.1813;
369.3000;0.8230;1.1939;
369.6000;0.8189;1.1864;
369.9000;0.8197;1.1889;
370.2000;0.8140;1.1637;
370.5000;0.8221;1.1839;
370.8000;0.8197;1.1788;
371.1000;0.8221;1.1889;
371.4000;0.8230;1.1864;
371.7000;0.8213;1.1813;
372.0000;0.8238;1.1864;
372.3000;0.8221;1.1813;
372.6000;0.8246;1.1839;
372.9000;0.8287;1.1839;
373.2000;0.8213;1.1687;
373.5000;0.8221;1.1813;
373.8000;0.8238;1.1864;
374.1000;0.8246;1.1965;
374.4000;0.8230;1.1965;
374.7000;0.8230;1.1889;
375.0000;0.8230;1.1864;
375.3000;0.8230;1.1788;
375.6000;0.8213;1.1687;
375.9000;0.8270;1.1738;
376.2000;0.8246;1.1562;
376.5000;0.8230;1.1410;
376.8000;0.8246;1.1486;
377.1000;0.8213;1.1511;
377.4000;0.8221;1.1461;
377.7000;0.8173;1.1360;
378.0000;0.8254;1.1536;
378.3000;0.8221;1.1536;
378.6000;0.8295;1.1713;
378.9000;0.8213;1.1562;
379.2000;0.8221;1.1587;
379.5000;0.8230;1.1637;
379.8000;0.8173;1.1486;
380.1000;0.8230;1.1587;
380.4000;0.8197;1.1587;
380.7000;0.8230;1.1738;
381.0000;0.8262;1.1889;
381.3000;0.8213;1.1738;
381.6000;0.8230;1.1788;
381.9000;0.8213;1.1738;
382.2000;0.8213;1.1687;
382.5000;0.8270;1.1839;
382.8000;0.8213;1.1713;
383.1000;0.8221;1.1788;
383.4000;0.8181;1.1738;
383.7000;0.8205;1.1788;
384.0000;0.8213;1.1763;
384.3000;0.8270;1.1939;
384.6000;0.8221;1.1738;
384.9000;0.8213;1.1763;
385.2000;0.8230;1.1763;
385.5000;0.8238;1.1813;
385.8000;0.8221;1.1813;
386.1000;0.8221;1.1839;
386.4000;0.8213;1.1813;
386.7000;0.8230;1.1839;
387.0000;0.8230;1.1839;
387.3000;0.8221;1.1839;
387.6000;0.8205;1.1713;
387.9000;0.8230;1.1637;
388.2000;0.8230;1.1587;
388.5000;0.8311;1.1839;
388.8000;0.8230;1.1662;
389.1000;0.8221;1.1612;
389.4000;0.8221;1.1662;
389.7000;0.8221;1.1662;
390.0000;0.8213;1.1612;
390.3000;0.8213;1.1612;
390.6000;0.8213;1.1612;
390.9000;0.8278;1.1738;
391.2000;0.8238;1.1713;
391.5000;0.8230;1.1713;
391.8000;0.8213;1.1637;
392.1000;0.8230;1.1738;
392.4000;0.8230;1.1738;
392.7000;0.8221;1.1637;
393.0000;0.8221;1.1662;
393.3000;0.8230;1.1738;
393.6000;0.8246;1.1914;
393.9000;0.8230;1.1864;
394.2000;0.8164;1.1713;
394.5000;0.8230;1.1839;
394.8000;0.8221;1.1813;
395.1000;0.8230;1.1839;
395.4000;0.8205;1.1713;
395.7000;0.8140;1.1536;
396.0000;0.8230;1.1637;
396.3000;0.8230;1.1662;
396.6000;0.8278;1.1889;
396.9000;0.8221;1.1713;
397.2000;0.8238;1.1713;
397.5000;0.8230;1.1713;
397.8000;0.8221;1.1637;
398.1000;0.8213;1.1562;
398.4000;0.8238;1.1687;
398.7000;0.8181;1.1536;
399.0000;0.8213;1.1738;
399.3000;0.8213;1.1763;
399.6000;0.8230;1.1738;
399.9000;0.8221;1.1813;
400.2000;0.8205;1.1763;
400.5000;0.8238;1.1813;
400.8000;0.8221;1.1662;
401.1000;0.8221;1.1738;
401.4000;0.8213;1.1738;
401.7000;0.8173;1.1662;
402.0000;0.8189;1.1687;
402.3000;0.8278;1.1914;
402.6000;0.8238;1.1788;
402.9000;0.8213;1.1738;
403.2000;0.8213;1.1687;
403.5000;0.8173;1.1662;
403.8000;0.8221;1.1788;
404.1000;0.8230;1.1788;
404.4000;0.8254;1.1839;
404.7000;0.8238;1.1813;
405.0000;0.8230;1.1788;
405.3000;0.8213;1.1788;
405.6000;0.8262;1.1965;
405.9000;0.8221;1.1788;
406.2000;0.8205;1.1738;
406.5000;0.8295;1.1965;
406.8000;0.8230;1.1738;
407.1000;0.8213;1.1813;
407.4000;0.8221;1.1939;
407.7000;0.8221;1.1889;
408.0000;0.8205;1.1813;
408.3000;0.8230;1.1864;
408.6000;0.8230;1.1914;
408.9000;0.8221;1.1839;
409.2000;0.8221;1.1939;
409.5000;0.8221;1.1864;
409.8000;0.8221;1.1788;
410.1000;0.8238;1.1738;
410.4000;0.8262;1.1738;
410.7000;0.8213;1.1612;
411.0000;0.8230;1.1738;
411.3000;0.8140;1.1511;
411.6000;0.8205;1.1662;
411.9000;0.8213;1.1713;
412.2000;0.8205;1.1637;
412.5000;0.8221;1.1612;
412.8000;0.8230;1.1587;
413.1000;0.8238;1.1562;
413.4000;0.8221;1.1486;
413.7000;0.8221;1.1536;
414.0000;0.8246;1.1587;
414.3000;0.8238;1.1612;
414.6000;0.8238;1.1587;
414.9000;0.8254;1.1612;
415.2000;0.8221;1.1637;
415.5000;0.8246;1.1687;
415.8000;0.8246;1.1813;
416.1000;0.8230;1.1813;
416.4000;0.8230;1.1839;
416.7000;0.8238;1.1813;
417.0000;0.8205;1.1662;
417.3000;0.8213;1.1662;
417.6000;0.8181;1.1536;
417.9000;0.8213;1.1763;
418.2000;0.8181;1.1763;
418.5000;0.8213;1.1813;
418.8000;0.8181;1.1687;
419.1000;0.8221;1.1738;
419.4000;0.8221;1.1687;
419.7000;0.8205;1.1687;
420.0000;0.8221;1.1738;
420.3000;0.8230;1.1738;
420.6000;0.8254;1.1763;
420.9000;0.8189;1.1662;
421.2000;0.8221;1.1637;
421.5000;0.8213;1.1637;
421.8000;0.8213;1.1612;
422.1000;0.8213;1.1536;
422.4000;0.8213;1.1612;
422.7000;0.8213;1.1687;
423.0000;0.8197;1.1662;
423.3000;0.8213;1.1662;
423.6000;0.8230;1.1713;
423.9000;0.8205;1.1662;
424.2000;0.8221;1.1662;
424.5000;0.8213;1.1612;
424.8000;0.8205;1.1662;
425.1000;0.8221;1.1713;
425.4000;0.8230;1.1763;
425.7000;0.8213;1.1687;
426.0000;0.8189;1.1486;
426.3000;0.8213;1.1410;
426.6000;0.8270;1.1461;
426.9000;0.8221;1.1310;
427.2000;0.8221;1.1360;
427.5000;0.8181;1.1335;
427.8000;0.8230;1.1536;
428.1000;0.8221;1.1587;
428.4000;0.8238;1.1536;
428.7000;0.8197;1.1461;
429.0000;0.8230;1.1612;
429.3000;0.8230;1.1637;
429.6000;0.8221;1.1612;
429.9000;0.8173;1.1536;
430.2000;0.8230;1.1612;
430.5000;0.8221;1.1511;
430.8000;0.8205;1.1461;
431.1000;0.8213;1.1486;
431.4000;0.8221;1.1536;
431.7000;0.8262;1.1536;
432.0000;0.8221;1.1436;
432.3000;0.8205;1.1436;
432.6000;0.8230;1.1486;
432.9000;0.8230;1.1536;
433.2000;0.8230;1.1436;
433.5000;0.8221;1.1461;
433.8000;0.8213;1.1436;
434.1000;0.8230;1.1486;
434.4000;0.8213;1.1562;
434.7000;0.8213;1.1410;
435.0000;0.8213;1.1436;
435.3000;0.8197;1.1335;
435.6000;0.8197;1.1385;
435.9000;0.8221;1.1385;
436.2000;0.8221;1.1335;
436.5000;0.8230;1.1385;
436.8000;0.8230;1.1410;
437.1000;0.8221;1.1385;
437.4000;0.8287;1.1461;
437.7000;0.8221;1.1335;
438.0000;0.8238;1.1410;
438.3000;0.8230;1.1410;
438.6000;0.8230;1.1436;
438.9000;0.8221;1.1410;
439.2000;0.8246;1.1587;
439.5000;0.8221;1.1436;
439.8000;0.8262;1.1536;
440.1000;0.8230;1.1511;
440.4000;0.8230;1.1486;
440.7000;0.8230;1.1511;
441.0000;0.8246;1.1587;
441.3000;0.8221;1.1536;
441.6000;0.8230;1.1562;
441.9000;0.8221;1.1637;
442.2000;0.8319;1.1990;
442.5000;0.8221;1.1788;
442.8000;0.8107;1.1536;
443.1000;0.8221;1.1763;
443.4000;0.8221;1.1763;
443.7000;0.8230;1.1738;
444.0000;0.8213;1.1813;
444.3000;0.8221;1.1864;
444.6000;0.8213;1.1864;
444.9000;0.8221;1.1889;
445.2000;0.8238;1.1914;
445.5000;0.8238;1.1839;
445.8000;0.8213;1.1839;
446.1000;0.8213;1.1813;
446.4000;0.8230;1.1889;
446.7000;0.8205;1.1889;
447.0000;0.8156;1.1864;
447.3000;0.8189;1.1990;
447.6000;0.8197;1.1990;
447.9000;0.8221;1.2040;
448.2000;0.8213;1.1939;
448.5000;0.8230;1.1939;
448.8000;0.8213;1.1889;
449.1000;0.8205;1.1914;
449.4000;0.8197;1.1813;
449.7000;0.8148;1.1763;
450.0000;0.8205;1.1914;
450.3000;0.8197;1.1914;
450.6000;0.8221;1.1939;
450.9000;0.8213;1.1914;
451.2000;0.8197;1.1889;
451.5000;0.8246;1.2065;
451.8000;0.8205;1.1939;
452.1000;0.8205;1.1965;
452.4000;0.8213;1.1939;
452.7000;0.8181;1.1889;
453.0000;0.8132;1.1637;
453.3000;0.8213;1.1813;
453.6000;0.8213;1.1788;
453.9000;0.8197;1.1687;
454.2000;0.8221;1.1763;
454.5000;0.8221;1.1738;
454.8000;0.8189;1.1662;
455.1000;0.8205;1.1662;
455.4000;0.8230;1.1637;
455.7000;0.8221;1.1637;
456.0000;0.8221;1.1536;
456.3000;0.8254;1.1562;
456.6000;0.8221;1.1461;
456.9000;0.8213;1.1486;
457.2000;0.8230;1.1536;
457.5000;0.8221;1.1536;
457.8000;0.8205;1.1436;
458.1000;0.8205;1.1436;
458.4000;0.8230;1.1436;
458.7000;0.8205;1.1511;
459.0000;0.8181;1.1436;
459.3000;0.8230;1.1587;
459.6000;0.8238;1.1562;
459.9000;0.8205;1.1536;
460.2000;0.8197;1.1436;
460.5000;0.8221;1.1562;
460.8000;0.8213;1.1562;
461.1000;0.8197;1.1562;
461.4000;0.8197;1.1536;
461.7000;0.8197;1.1562;
462.0000;0.8173;1.1587;
462.3000;0.8197;1.1687;
462.6000;0.8270;1.1914;
462.9000;0.8230;1.1889;
463.2000;0.8205;1.1713;
463.5000;0.8205;1.1662;
463.8000;0.8197;1.1612;
464.1000;0.8262;1.1839;
464.4000;0.8221;1.1738;
464.7000;0.8230;1.1788;
465.0000;0.8230;1.1713;
465.3000;0.8205;1.1713;
465.6000;0.8221;1.1662;
465.9000;0.8221;1.1511;
466.2000;0.8213;1.1461;
466.5000;0.8205;1.1436;
466.8000;0.8230;1.1511;
467.1000;0.8230;1.1511;
467.4000;0.8230;1.1511;
467.7000;0.8213;1.1511;
468.0000;0.8205;1.1511;
468.3000;0.8246;1.1637;
468.6000;0.8221;1.1587;
468.9000;0.8083;1.1259;
469.2000;0.8221;1.1511;
469.5000;0.8213;1.1587;
469.8000;0.8205;1.1562;
470.1000;0.8230;1.1587;
470.4000;0.8221;1.1587;
470.7000;0.8238;1.1562;
471.0000;0.8197;1.1461;
471.3000;0.8238;1.1536;
471.6000;0.8181;1.1410;
471.9000;0.8181;1.1410;
472.2000;0.8181;1.1360;
472.5000;0.8221;1.1436;
472.8000;0.8197;1.1335;
473.1000;0.8156;1.1360;
473.4000;0.8205;1.1436;
473.7000;0.8270;1.1587;
474.0000;0.8213;1.1511;
474.3000;0.8270;1.1637;
474.6000;0.8164;1.1360;
474.9000;0.8213;1.1486;
475.2000;0.8205;1.1461;
475.5000;0.8246;1.1536;
475.8000;0.8213;1.1461;
476.1000;0.8230;1.1511;
476.4000;0.8213;1.1511;
476.7000;0.8205;1.1486;
477.0000;0.8230;1.1486;
477.3000;0.8213;1.1486;
477.6000;0.8213;1.1511;
477.9000;0.8197;1.1486;
478.2000;0.8205;1.1486;
478.5000;0.8213;1.1511;
478.8000;0.8197;1.1486;
479.1000;0.8230;1.1536;
479.4000;0.8221;1.1410;
479.7000;0.8221;1.1461;
480.0000;0.8213;1.1385;
480.3000;0.8140;1.1209;
480.6000;0.8205;1.1335;
480.9000;0.8205;1.1385;
481.2000;0.8221;1.1410;
481.5000;0.8213;1.1511;
481.8000;0.8221;1.1562;
482.1000;0.8197;1.1461;
482.4000;0.8205;1.1511;
482.7000;0.8205;1.1486;
483.0000;0.8181;1.1436;
483.3000;0.8189;1.1536;
483.6000;0.8197;1.1486;
483.9000;0.8189;1.1461;
484.2000;0.8205;1.1436;
484.5000;0.8189;1.1436;
484.8000;0.8205;1.1536;
485.1000;0.8213;1.1562;
485.4000;0.8221;1.1562;
485.7000;0.8213;1.1536;
486.0000;0.8197;1.1410;
486.3000;0.8213;1.1410;
486.6000;0.8230;1.1461;
486.9000;0.8205;1.1335;
487.2000;0.8197;1.1410;
487.5000;0.8213;1.1486;
487.8000;0.8205;1.1562;
488.1000;0.8197;1.1486;
488.4000;0.8213;1.1511;
488.7000;0.8181;1.1436;
489.0000;0.8205;1.1536;
489.3000;0.8173;1.1461;
489.6000;0.8197;1.1511;
489.9000;0.8230;1.1587;
490.2000;0.8221;1.1511;
490.5000;0.8221;1.1612;
490.8000;0.8205;1.1486;
491.1000;0.8205;1.1536;
491.4000;0.8205;1.1536;
491.7000;0.8205;1.1486;
492.0000;0.8213;1.1410;
492.3000;0.8189;1.1385;
492.6000;0.8189;1.1385;
492.9000;0.8181;1.1385;
493.2000;0.8205;1.1360;
493.5000;0.8197;1.1385;
493.8000;0.8205;1.1461;
494.1000;0.8197;1.1461;
494.4000;0.8189;1.1385;
494.7000;0.8205;1.1461;
495.0000;0.8221;1.1536;
495.3000;0.8205;1.1461;
495.6000;0.8205;1.1461;
495.9000;0.8189;1.1360;
496.2000;0.8181;1.1284;
496.5000;0.8221;1.1410;
496.8000;0.8205;1.1486;
497.1000;0.8189;1.1410;
497.4000;0.8213;1.1436;
497.7000;0.8221;1.1536;
498.0000;0.8189;1.1536;
498.3000;0.8189;1.1436;
498.6000;0.8181;1.1335;
498.9000;0.8221;1.1360;
499.2000;0.8205;1.1335;
499.5000;0.8221;1.1360;
499.8000;0.8230;1.1335;
500.1000;0.8238;1.1284;
500.4000;0.8197;1.1335;
500.7000;0.8221;1.1436;
501.0000;0.8311;1.1612;
501.3000;0.8205;1.1410;
501.6000;0.8213;1.1410;
501.9000;0.8221;1.1385;
502.2000;0.8197;1.1259;
502.5000;0.8189;1.1184;
502.8000;0.8230;1.1284;
503.1000;0.8205;1.1234;
503.4000;0.8189;1.1184;
503.7000;0.8230;1.1184;
504.0000;0.8205;1.1209;
504.3000;0.8205;1.1234;
504.6000;0.8230;1.1310;
504.9000;0.8221;1.1284;
505.2000;0.8213;1.1335;
505.5000;0.8221;1.1360;
505.8000;0.8213;1.1335;
506.1000;0.8230;1.1410;
506.4000;0.8221;1.1436;
506.7000;0.8221;1.1436;
507.0000;0.8221;1.1436;
507.3000;0.8197;1.1360;
507.6000;0.8197;1.1410;
507.9000;0.8164;1.1385;
508.2000;0.8205;1.1562;
508.5000;0.8205;1.1486;
508.8000;0.8197;1.1436;
509.1000;0.8205;1.1461;
509.4000;0.8221;1.1486;
509.7000;0.8148;1.1310;
510.0000;0.8197;1.1486;
510.3000;0.8205;1.1511;
510.6000;0.8213;1.1587;
510.9000;0.8197;1.1562;
511.2000;0.8213;1.1587;
511.5000;0.8189;1.1486;
511.8000;0.8238;1.1612;
512.1000;0.8205;1.1486;
512.4000;0.8197;1.1536;
512.7000;0.8197;1.1511;
513.0000;0.8197;1.1486;
513.3000;0.8173;1.1385;
513.6000;0.8189;1.1486;
513.9000;0.8197;1.1536;
514.2000;0.8221;1.1587;
514.5000;0.8189;1.1536;
514.8000;0.8221;1.1536;
515.1000;0.8213;1.1385;
515.4000;0.8221;1.1436;
515.7000;0.8213;1.1511;
516.0000;0.8213;1.1486;
516.3000;0.8205;1.1486;
516.6000;0.8205;1.1562;
516.9000;0.8205;1.1738;
517.2000;0.8205;1.1788;
517.5000;0.8221;1.1763;
517.8000;0.8189;1.1687;
518.1000;0.8197;1.1662;
518.4000;0.8197;1.1662;
518.7000;0.8197;1.1536;
519.0000;0.8197;1.1385;
519.3000;0.8197;1.1461;
519.6000;0.8238;1.1486;
519.9000;0.8205;1.1461;
520.2000;0.8189;1.1385;
520.5000;0.8213;1.1486;
520.8000;0.8221;1.1486;
521.1000;0.8213;1.1536;
521.4000;0.8181;1.1436;
521.7000;0.8213;1.1587;
522.0000;0.8213;1.1612;
522.3000;0.8205;1.1662;
522.6000;0.8156;1.1511;
522.9000;0.8205;1.1511;
523.2000;0.8205;1.1486;
523.5000;0.8164;1.1461;
523.8000;0.8197;1.1511;
524.1000;0.8197;1.1562;
524.4000;0.8205;1.1511;
524.7000;0.8213;1.1536;
525.0000;0.8197;1.1612;
525.3000;0.8181;1.1662;
525.6000;0.8213;1.1637;
525.9000;0.8213;1.1637;
526.2000;0.8221;1.1637;
526.5000;0.8173;1.1511;
526.8000;0.8189;1.1662;
527.1000;0.8205;1.1713;
527.4000;0.8140;1.1536;
527.7000;0.8205;1.1662;
528.0000;0.8189;1.1612;
528.3000;0.8189;1.1536;
528.6000;0.8197;1.1436;
528.9000;0.8213;1.1511;
529.2000;0.8213;1.1562;
529.5000;0.8156;1.1360;
529.8000;0.8205;1.1536;
530.1000;0.8189;1.1536;
530.4000;0.8205;1.1536;
530.7000;0.8213;1.1562;
531.0000;0.8221;1.1486;
531.3000;0.8205;1.1436;
531.6000;0.8173;1.1410;
531.9000;0.8181;1.1385;
532.2000;0.8189;1.1335;
532.5000;0.8230;1.1461;
532.8000;0.8205;1.1360;
533.1000;0.8181;1.1310;
533.4000;0.8221;1.1410;
533.7000;0.8213;1.1486;
534.0000;0.8181;1.1410;
534.3000;0.8197;1.1436;
534.6000;0.8181;1.1511;
534.9000;0.8164;1.1461;
535.2000;0.8197;1.1562;
535.5000;0.8148;1.1410;
535.8000;0.8173;1.1461;
536.1000;0.8164;1.1461;
536.4000;0.8197;1.1536;
536.7000;0.8238;1.1562;
537.0000;0.8221;1.1436;
537.3000;0.8230;1.1486;
537.6000;0.8213;1.1461;
537.9000;0.8205;1.1486;
538.2000;0.8197;1.1511;
538.5000;0.8221;1.1562;
538.8000;0.8173;1.1536;
539.1000;0.8197;1.1536;
539.4000;0.8197;1.1612;
539.7000;0.8189;1.1612;
540.0000;0.8197;1.1637;
540.3000;0.8205;1.1687;
540.6000;0.8197;1.1637;
540.9000;0.8197;1.1637;
541.2000;0.8197;1.1637;
541.5000;0.8213;1.1612;
541.8000;0.8205;1.1662;
542.1000;0.8221;1.1687;
542.4000;0.8221;1.1637;
542.7000;0.8205;1.1587;
543.0000;0.8197;1.1612;
543.3000;0.8213;1.1637;
543.6000;0.8197;1.1587;
543.9000;0.8213;1.1612;
544.2000;0.8205;1.1637;
544.5000;0.8189;1.1612;
544.8000;0.8230;1.1637;
545.1000;0.8213;1.1637;
545.4000;0.8164;1.1612;
545.7000;0.8099;1.1410;
546.0000;0.8205;1.1637;
546.3000;0.8213;1.1738;
546.6000;0.8213;1.1839;
546.9000;0.8197;1.1813;
547.2000;0.8197;1.1763;
547.5000;0.8221;1.1864;
547.8000;0.8230;1.1813;
548.1000;0.8205;1.1813;
548.4000;0.8197;1.1763;
548.7000;0.8221;1.1839;
549.0000;0.8197;1.1713;
549.3000;0.8205;1.1662;
549.6000;0.8197;1.1738;
549.9000;0.8164;1.1612;
550.2000;0.8205;1.1713;
550.5000;0.8213;1.1713;
550.8000;0.8189;1.1637;
551.1000;0.8205;1.1662;
551.4000;0.8213;1.1738;
551.7000;0.8213;1.1687;
552.0000;0.8221;1.1637;
552.3000;0.8205;1.1612;
552.6000;0.8213;1.1587;
552.9000;0.8197;1.1536;
553.2000;0.8189;1.1536;
553.5000;0.8189;1.1587;
553.8000;0.8181;1.1461;
554.1000;0.8205;1.1461;
554.4000;0.8213;1.1461;
554.7000;0.8205;1.1436;
555.0000;0.8238;1.1486;
555.3000;0.8213;1.1486;
555.6000;0.8205;1.1436;
555.9000;0.8205;1.1436;
556.2000;0.8221;1.1461;
556.5000;0.8197;1.1360;
556.8000;0.8221;1.1461;
557.1000;0.8197;1.1385;
557.4000;0.8213;1.1385;
557.7000;0.8156;1.1259;
558.0000;0.8221;1.1536;
558.3000;0.8197;1.1562;
558.6000;0.8181;1.1511;
558.9000;0.8148;1.1536;
559.2000;0.8197;1.1612;
559.5000;0.8213;1.1612;
559.8000;0.8197;1.1562;
560.1000;0.8197;1.1536;
560.4000;0.8205;1.1511;
560.7000;0.8197;1.1612;
561.0000;0.8189;1.1662;
561.3000;0.8189;1.1637;
561.6000;0.8213;1.1612;
561.9000;0.8197;1.1486;
562.2000;0.8205;1.1486;
562.5000;0.8197;1.1637;
562.8000;0.8213;1.1637;
563.1000;0.8205;1.1687;
563.4000;0.8221;1.1713;
563.7000;0.8197;1.1687;
564.0000;0.8116;1.1536;
564.3000;0.8189;1.1612;
564.6000;0.8221;1.1662;
564.9000;0.8197;1.1612;
565.2000;0.8205;1.1536;
565.5000;0.8205;1.1486;
565.8000;0.8303;1.1713;
566.1000;0.8181;1.1511;
566.4000;0.8213;1.1637;
566.7000;0.8205;1.1536;
567.0000;0.8197;1.1486;
567.3000;0.8287;1.1687;
567.6000;0.8156;1.1360;
567.9000;0.8213;1.1511;
568.2000;0.8205;1.1536;
568.5000;0.8205;1.1461;
568.8000;0.8148;1.1335;
569.1000;0.8205;1.1587;
569.4000;0.8230;1.1637;
569.7000;0.8181;1.1536;
570.0000;0.8189;1.1587;
570.3000;0.8189;1.1612;
570.6000;0.8083;1.1335;
570.9000;0.8181;1.1562;
571.2000;0.8197;1.1612;
571.5000;0.8205;1.1612;
571.8000;0.8132;1.1486;
572.1000;0.8295;1.1965;
572.4000;0.8197;1.1713;
572.7000;0.8197;1.1637;
573.0000;0.8197;1.1637;
573.3000;0.8205;1.1637;
573.6000;0.8197;1.1612;
573.9000;0.8173;1.1536;
574.2000;0.8205;1.1536;
574.5000;0.8164;1.1486;
574.8000;0.8197;1.1562;
575.1000;0.8181;1.1536;
575.4000;0.8181;1.1511;
575.7000;0.8205;1.1536;
576.0000;0.8197;1.1461;
576.3000;0.8197;1.1410;
576.6000;0.8181;1.1486;
576.9000;0.8189;1.1587;
577.2000;0.8164;1.1587;
577.5000;0.8197;1.1637;
577.8000;0.8205;1.1687;
578.1000;0.8189;1.1788;
578.4000;0.8213;1.1788;
578.7000;0.8181;1.1713;
579.0000;0.8181;1.1738;
579.3000;0.8189;1.1763;
579.6000;0.8205;1.1738;
579.9000;0.8148;1.1461;
580.2000;0.8221;1.1662;
580.5000;0.8181;1.1587;
580.8000;0.8164;1.1637;
581.1000;0.8181;1.1637;
581.4000;0.8173;1.1687;
581.7000;0.8221;1.1738;
582.0000;0.8173;1.1637;
582.3000;0.8205;1.1637;
582.6000;0.8148;1.1562;
582.9000;0.8189;1.1662;
583.2000;0.8213;1.1763;
583.5000;0.8221;1.1788;
583.8000;0.8181;1.1713;
584.1000;0.8173;1.1612;
584.4000;0.8221;1.1713;
584.7000;0.8205;1.1713;
585.0000;0.8181;1.1662;
585.3000;0.8173;1.1612;
585.6000;0.8189;1.1662;
585.9000;0.8197;1.1662;
586.2000;0.8197;1.1713;
586.5000;0.8197;1.1662;
586.8000;0.8124;1.1486;
587.1000;0.8213;1.1813;
587.4000;0.8205;1.1788;
587.7000;0.8189;1.1662;
588.0000;0.8189;1.1562;
588.3000;0.8221;1.1713;
588.6000;0.8189;1.1662;
588.9000;0.8189;1.1637;
589.2000;0.8181;1.1637;
589.5000;0.8181;1.1637;
589.8000;0.8181;1.1562;
590.1000;0.8164;1.1486;
590.4000;0.8205;1.1713;
590.7000;0.8164;1.1562;
591.0000;0.8181;1.1511;
591.3000;0.8189;1.1461;
591.6000;0.8213;1.1562;
591.9000;0.8148;1.1461;
592.2000;0.8189;1.1461;
592.5000;0.8197;1.1436;
592.8000;0.8197;1.1436;
593.1000;0.8181;1.1385;
593.4000;0.8091;1.1284;
593.7000;0.8189;1.1536;
594.0000;0.8189;1.1612;
594.3000;0.8164;1.1587;
594.6000;0.8230;1.1738;
594.9000;0.8173;1.1662;
595.2000;0.8181;1.1713;
595.5000;0.8181;1.1763;
595.8000;0.8197;1.1687;
596.1000;0.8181;1.1738;
596.4000;0.8205;1.1662;
596.7000;0.8189;1.1612;
597.0000;0.8230;1.1738;
597.3000;0.8205;1.1763;
597.6000;0.8173;1.1788;
597.9000;0.8189;1.1813;
598.2000;0.8181;1.1763;
598.5000;0.8189;1.1738;
598.8000;0.8197;1.1687;
599.1000;0.8189;1.1687;
599.4000;0.8181;1.1687;
599.7000;0.8181;1.1662;
600.0000;0.8164;1.1587;
600.3000;0.8181;1.1461;
600.6000;0.8181;1.1436;
600.9000;0.8132;1.1209;
601.2000;0.8148;1.1209;
601.5000;0.8075;1.0907;
601.8000;0.8002;1.0655;
602.1000;0.7961;1.0554;
602.4000;0.7912;1.0302;
602.7000;0.7839;1.0101;
603.0000;0.7766;0.9849;
603.3000;0.7774;0.9824;
603.6000;0.7684;0.9622;
603.9000;0.7578;0.9421;
604.2000;0.7595;0.9546;
604.5000;0.7513;0.9471;
604.8000;0.7505;0.9345;
605.1000;0.7432;0.9143;
605.4000;0.7424;0.9118;
605.7000;0.7277;0.8690;
606.0000;0.7310;0.8766;
606.3000;0.7293;0.8766;
606.6000;0.7269;0.8740;
606.9000;0.7188;0.8665;
607.2000;0.7171;0.8665;
607.5000;0.7131;0.8665;
607.8000;0.7163;0.8816;
608.1000;0.7082;0.8589;
608.4000;0.7090;0.8589;
608.7000;0.7090;0.8640;
609.0000;0.6992;0.8337;
609.3000;0.6952;0.8337;
609.6000;0.6943;0.8337;
609.9000;0.6935;0.8363;
610.2000;0.6895;0.8388;
610.5000;0.6862;0.8438;
610.8000;0.6829;0.8388;
611.1000;0.6813;0.8463;
611.4000;0.6821;0.8463;
611.7000;0.6699;0.8312;
612.0000;0.6732;0.8438;
612.3000;0.6707;0.8413;
612.6000;0.6691;0.8413;
612.9000;0.6683;0.8489;
613.2000;0.6659;0.8413;
613.5000;0.6659;0.8539;
613.8000;0.6634;0.8489;
614.1000;0.6585;0.8413;
614.4000;0.6585;0.8337;
614.7000;0.6553;0.8287;
615.0000;0.6545;0.8262;
615.3000;0.6504;0.8136;
615.6000;0.6504;0.8186;
615.9000;0.6471;0.8060;
616.2000;0.6471;0.8010;
616.5000;0.6447;0.8010;
616.8000;0.6431;0.8035;
617.1000;0.6398;0.7985;
617.4000;0.6398;0.7960;
617.7000;0.6398;0.7934;
618.0000;0.6374;0.7985;
618.3000;0.6365;0.7985;
618.6000;0.6317;0.7834;
618.9000;0.6333;0.7909;
619.2000;0.6349;0.7960;
619.5000;0.6292;0.7834;
619.8000;0.6268;0.7884;
620.1000;0.6243;0.7985;
620.4000;0.6243;0.8035;
620.7000;0.6227;0.8060;
621.0000;0.6195;0.7985;
621.3000;0.6252;0.8111;
621.6000;0.6195;0.8010;
621.9000;0.6178;0.8060;
622.2000;0.6203;0.8211;
622.5000;0.6113;0.8010;
622.8000;0.6081;0.7985;
623.1000;0.6146;0.8136;
623.4000;0.6097;0.7960;
623.7000;0.6097;0.7934;
624.0000;0.6129;0.8060;
624.3000;0.6097;0.8010;
624.6000;0.6064;0.7960;
624.9000;0.6040;0.7909;
625.2000;0.6048;0.7909;
625.5000;0.6015;0.7783;
625.8000;0.6015;0.7783;
626.1000;0.5975;0.7733;
626.4000;0.5991;0.7758;
626.7000;0.5958;0.7682;
627.0000;0.5942;0.7607;
627.3000;0.5869;0.7456;
627.6000;0.5950;0.7682;
627.9000;0.5967;0.7834;
628.2000;0.5942;0.7909;
628.5000;0.5918;0.7884;
628.8000;0.5910;0.7934;
629.1000;0.5967;0.8086;
629.4000;0.5926;0.7934;
629.7000;0.5885;0.7859;
630.0000;0.5958;0.7934;
630.3000;0.5877;0.7733;
630.6000;0.5853;0.7657;
630.9000;0.5869;0.7682;
631.2000;0.5845;0.7582;
631.5000;0.5853;0.7582;
631.8000;0.5861;0.7557;
632.1000;0.5820;0.7456;
632.4000;0.5820;0.7456;
632.7000;0.5812;0.7607;
633.0000;0.5812;0.7708;
633.3000;0.5893;0.7934;
633.6000;0.5796;0.7682;
633.9000;0.5788;0.7632;
634.2000;0.5796;0.7632;
634.5000;0.5804;0.7607;
634.8000;0.5763;0.7506;
635.1000;0.5747;0.7557;
635.4000;0.5755;0.7657;
635.7000;0.5739;0.7657;
636.0000;0.5739;0.7708;
636.3000;0.5665;0.7431;
636.6000;0.5714;0.7632;
636.9000;0.5706;0.7632;
637.2000;0.5690;0.7531;
637.5000;0.5682;0.7481;
637.8000;0.5690;0.7557;
638.1000;0.5674;0.7506;
638.4000;0.5665;0.7431;
638.7000;0.5682;0.7481;
639.0000;0.5649;0.7431;
639.3000;0.5682;0.7506;
639.6000;0.5617;0.7405;
639.9000;0.5649;0.7481;
640.2000;0.5657;0.7506;
640.5000;0.5633;0.7481;
640.8000;0.5633;0.7481;
641.1000;0.5617;0.7531;
641.4000;0.5625;0.7607;
641.7000;0.5625;0.7607;
642.0000;0.5641;0.7783;
642.3000;0.5633;0.7808;
642.6000;0.5617;0.7708;
642.9000;0.5641;0.7758;
643.2000;0.5641;0.7758;
643.5000;0.5592;0.7682;
643.8000;0.5617;0.7657;
644.1000;0.5576;0.7557;
644.4000;0.5503;0.7355;
644.7000;0.5576;0.7506;
645.0000;0.5568;0.7456;
645.3000;0.5576;0.7557;
645.6000;0.5584;0.7582;
645.9000;0.5568;0.7531;
646.2000;0.5551;0.7506;
646.5000;0.5551;0.7582;
646.8000;0.5568;0.7657;
647.1000;0.5551;0.7557;
647.4000;0.5535;0.7607;
647.7000;0.5519;0.7557;
648.0000;0.5519;0.7506;
648.3000;0.5511;0.7557;
648.6000;0.5519;0.7632;
648.9000;0.5470;0.7431;
649.2000;0.5486;0.7481;
649.5000;0.5503;0.7657;
649.8000;0.5503;0.7783;
650.1000;0.5486;0.7733;
650.4000;0.5495;0.7582;
650.7000;0.5503;0.7531;
651.0000;0.5478;0.7456;
651.3000;0.5486;0.7456;
651.6000;0.5519;0.7557;
651.9000;0.5478;0.7481;
652.2000;0.5446;0.7456;
652.5000;0.5462;0.7557;
652.8000;0.5438;0.7481;
653.1000;0.5446;0.7607;
653.4000;0.5446;0.7557;
653.7000;0.5454;0.7557;
654.0000;0.5438;0.7582;
654.3000;0.5446;0.7607;
654.6000;0.5446;0.7657;
654.9000;0.5421;0.7632;
655.2000;0.5429;0.7708;
655.5000;0.5421;0.7682;
655.8000;0.5405;0.7632;
656.1000;0.5405;0.7657;
656.4000;0.5381;0.7632;
656.7000;0.5413;0.7682;
657.0000;0.5429;0.7808;
657.3000;0.5389;0.7657;
657.6000;0.5405;0.7582;
657.9000;0.5405;0.7657;
658.2000;0.5372;0.7607;
658.5000;0.5405;0.7682;
658.8000;0.5405;0.7632;
659.1000;0.5405;0.7632;
659.4000;0.5372;0.7582;
659.7000;0.5364;0.7708;
660.0000;0.5372;0.7708;
660.3000;0.5389;0.7783;
660.6000;0.5364;0.7733;
660.9000;0.5389;0.7783;
661.2000;0.5315;0.7657;
661.5000;0.5348;0.7708;
661.8000;0.5340;0.7708;
662.1000;0.5348;0.7607;
662.4000;0.5348;0.7632;
662.7000;0.5348;0.7632;
663.0000;0.5348;0.7682;
663.3000;0.5372;0.7708;
663.6000;0.5348;0.7657;
663.9000;0.5348;0.7657;
664.2000;0.5324;0.7456;
664.5000;0.5324;0.7405;
664.8000;0.5348;0.7481;
665.1000;0.5315;0.7431;
665.4000;0.5315;0.7355;
665.7000;0.5291;0.7330;
666.0000;0.5324;0.7456;
666.3000;0.5267;0.7279;
666.6000;0.5315;0.7355;
666.9000;0.5315;0.7405;
667.2000;0.5234;0.7254;
667.5000;0.5315;0.7607;
667.8000;0.5307;0.7632;
668.1000;0.5283;0.7632;
668.4000;0.5324;0.7682;
668.7000;0.5307;0.7682;
669.0000;0.5250;0.7582;
669.3000;0.5299;0.7733;
669.6000;0.5291;0.7733;
669.9000;0.5299;0.7783;
670.2000;0.5307;0.7834;
670.5000;0.5283;0.7859;
670.8000;0.5291;0.7834;
671.1000;0.5275;0.7758;
671.4000;0.5283;0.7682;
671.7000;0.5267;0.7708;
672.0000;0.5250;0.7657;
672.3000;0.5267;0.7632;
672.6000;0.5242;0.7607;
672.9000;0.5258;0.7708;
673.2000;0.5324;0.7909;
673.5000;0.5267;0.7733;
673.8000;0.5242;0.7708;
674.1000;0.5258;0.7808;
674.4000;0.5242;0.7758;
674.7000;0.5242;0.7733;
675.0000;0.5283;0.7859;
675.3000;0.5234;0.7632;
675.6000;0.5242;0.7632;
675.9000;0.5242;0.7733;
676.2000;0.5250;0.7783;
676.5000;0.5242;0.7859;
676.8000;0.5242;0.7884;
677.1000;0.5226;0.7934;
677.4000;0.5258;0.7960;
677.7000;0.5283;0.8060;
678.0000;0.5250;0.7985;
678.3000;0.5250;0.7934;
678.6000;0.5250;0.7985;
678.9000;0.5242;0.7960;
679.2000;0.5242;0.7960;
679.5000;0.5226;0.7834;
679.8000;0.5218;0.7859;
680.1000;0.5226;0.7909;
680.4000;0.5185;0.7733;
680.7000;0.5226;0.7884;
681.0000;0.5218;0.7808;
681.3000;0.5226;0.7859;
681.6000;0.5185;0.7733;
681.9000;0.5210;0.7909;
682.2000;0.5193;0.7859;
682.5000;0.5201;0.7808;
682.8000;0.5193;0.7783;
683.1000;0.5193;0.7834;
683.4000;0.5210;0.7884;
683.7000;0.5193;0.7884;
684.0000;0.5201;0.7808;
684.3000;0.5210;0.7783;
684.6000;0.5193;0.7783;
684.9000;0.5177;0.7708;
685.2000;0.5193;0.7758;
685.5000;0.5169;0.7733;
685.8000;0.5193;0.7733;
686.1000;0.5169;0.7783;
686.4000;0.5185;0.7808;
686.7000;0.5104;0.7557;
687.0000;0.5096;0.7557;
687.3000;0.5169;0.7708;
687.6000;0.5177;0.7783;
687.9000;0.5169;0.7834;
688.2000;0.5177;0.7859;
688.5000;0.5177;0.7859;
688.8000;0.5169;0.7859;
689.1000;0.5169;0.7783;
689.4000;0.5177;0.7808;
689.7000;0.5169;0.7859;
690.0000;0.5136;0.7834;
690.3000;0.5153;0.7834;
690.6000;0.5177;0.7783;
690.9000;0.5153;0.7632;
691.2000;0.5161;0.7657;
691.5000;0.5161;0.7632;
691.8000;0.5161;0.7607;
692.1000;0.5136;0.7582;
692.4000;0.5128;0.7632;
692.7000;0.5153;0.7708;
693.0000;0.5096;0.7632;
693.3000;0.5136;0.7758;
693.6000;0.5153;0.7859;
693.9000;0.5169;0.7909;
694.2000;0.5153;0.7834;
694.5000;0.5153;0.7808;
694.8000;0.5153;0.7834;
695.1000;0.5128;0.7859;
695.4000;0.5104;0.7884;
695.7000;0.5136;0.7960;
696.0000;0.5128;0.7909;
696.3000;0.5128;0.7884;
696.6000;0.5096;0.7808;
696.9000;0.5234;0.8111;
697.2000;0.5136;0.7783;
697.5000;0.5136;0.7834;
697.8000;0.5128;0.7758;
698.1000;0.5120;0.7733;
698.4000;0.5128;0.7708;
698.7000;0.5177;0.7909;
699.0000;0.4974;0.7380;
699.3000;0.5112;0.7733;
699.6000;0.5144;0.7834;
699.9000;0.5112;0.7783;
700.2000;0.5120;0.7834;
700.5000;0.5120;0.7834;
700.8000;0.5104;0.7758;
701.1000;0.5112;0.7834;
701.4000;0.5104;0.7783;
701.7000;0.5104;0.7758;
702.0000;0.5096;0.7758;
702.3000;0.5104;0.7758;
702.6000;0.5088;0.7783;
702.9000;0.5096;0.7733;
703.2000;0.5063;0.7632;
703.5000;0.5079;0.7682;
703.8000;0.5096;0.7708;
704.1000;0.5096;0.7708;
704.4000;0.5144;0.7859;
704.7000;0.5104;0.7708;
705.0000;0.5104;0.7733;
705.3000;0.5079;0.7733;
705.6000;0.5088;0.7783;
705.9000;0.5088;0.7783;
706.2000;0.5071;0.7657;
706.5000;0.5022;0.7557;
706.8000;0.5063;0.7708;
707.1000;0.5079;0.7733;
707.4000;0.5120;0.7960;
707.7000;0.5063;0.7834;
708.0000;0.5088;0.7859;
708.3000;0.5071;0.7733;
708.6000;0.5079;0.7708;
708.9000;0.5071;0.7607;
709.2000;0.5055;0.7632;
709.5000;0.4990;0.7355;
709.8000;0.5063;0.7607;
710.1000;0.5071;0.7657;
710.4000;0.5047;0.7632;
710.7000;0.5079;0.7632;
711.0000;0.5088;0.7708;
711.3000;0.5063;0.7682;
711.6000;0.5079;0.7733;
711.9000;0.5071;0.7733;
712.2000;0.5112;0.7808;
712.5000;0.5063;0.7682;
712.8000;0.5055;0.7708;
713.1000;0.5079;0.7783;
713.4000;0.5079;0.7733;
713.7000;0.5055;0.7682;
714.0000;0.5055;0.7733;
714.3000;0.5088;0.7682;
714.6000;0.5055;0.7657;
714.9000;0.5112;0.7733;
715.2000;0.5079;0.7708;
715.5000;0.4982;0.7506;
715.8000;0.5055;0.7733;
716.1000;0.5047;0.7808;
716.4000;0.5055;0.7859;
716.7000;0.5039;0.7859;
717.0000;0.4990;0.7758;
717.3000;0.5055;0.7808;
717.6000;0.5047;0.7834;
717.9000;0.5063;0.7934;
718.2000;0.5039;0.7808;
718.5000;0.5063;0.7884;
718.8000;0.5055;0.7884;
719.1000;0.4998;0.7708;
719.4000;0.5031;0.7682;
719.7000;0.5039;0.7657;
720.0000;0.4998;0.7607;
720.3000;0.5063;0.7909;
720.6000;0.5031;0.7758;
720.9000;0.5055;0.7808;
721.2000;0.5047;0.7808;
721.5000;0.5031;0.7733;
721.8000;0.5031;0.7733;
722.1000;0.5006;0.7783;
722.4000;0.5039;0.7859;
722.7000;0.5031;0.7859;
723.0000;0.5128;0.8186;
723.3000;0.5014;0.7859;
723.6000;0.5055;0.7859;
723.9000;0.5039;0.7859;
724.2000;0.5039;0.7733;
724.5000;0.5047;0.7758;
724.8000;0.5096;0.7934;
725.1000;0.4917;0.7506;
725.4000;0.5047;0.7909;
725.7000;0.5031;0.7859;
726.0000;0.5022;0.7834;
726.3000;0.5022;0.7758;
726.6000;0.5006;0.7708;
726.9000;0.4990;0.7557;
727.2000;0.5031;0.7657;
727.5000;0.5006;0.7682;
727.8000;0.5014;0.7632;
728.1000;0.4998;0.7531;
728.4000;0.4990;0.7557;
728.7000;0.5014;0.7607;
729.0000;0.5014;0.7682;
729.3000;0.5022;0.7682;
729.6000;0.5047;0.7783;
729.9000;0.5039;0.7783;
730.2000;0.5047;0.7808;
730.5000;0.5006;0.7783;
730.8000;0.4990;0.7733;
731.1000;0.5031;0.7758;
731.4000;0.4998;0.7783;
731.7000;0.4998;0.7733;
732.0000;0.4998;0.7657;
732.3000;0.5006;0.7682;
732.6000;0.4998;0.7657;
732.9000;0.5014;0.7733;
733.2000;0.4998;0.7758;
733.5000;0.5104;0.8111;
733.8000;0.5006;0.7884;
734.1000;0.5006;0.7934;
734.4000;0.4982;0.7758;
734.7000;0.5031;0.7808;
735.0000;0.4998;0.7733;
735.3000;0.5055;0.7934;
735.6000;0.5014;0.7783;
735.9000;0.5014;0.7682;
736.2000;0.4998;0.7783;
736.5000;0.5006;0.7834;
736.8000;0.5014;0.7859;
737.1000;0.5006;0.7834;
737.4000;0.4998;0.7808;
737.7000;0.4982;0.7859;
738.0000;0.4998;0.7859;
738.3000;0.4892;0.7657;
738.6000;0.4998;0.7808;
738.9000;0.5006;0.7783;
739.2000;0.4998;0.7834;
739.5000;0.5006;0.7758;
739.8000;0.5006;0.7783;
740.1000;0.5006;0.7758;
740.4000;0.4990;0.7708;
740.7000;0.4974;0.7682;
741.0000;0.4982;0.7632;
741.3000;0.4982;0.7758;
741.6000;0.4998;0.7808;
741.9000;0.4957;0.7758;
742.2000;0.4990;0.7783;
742.5000;0.4974;0.7682;
742.8000;0.4974;0.7632;
743.1000;0.4990;0.7708;
743.4000;0.4982;0.7708;
743.7000;0.4990;0.7733;
744.0000;0.4982;0.7733;
744.3000;0.4998;0.7808;
744.6000;0.4974;0.7758;
744.9000;0.4974;0.7808;
745.2000;0.4982;0.7859;
745.5000;0.4957;0.7884;
745.8000;0.4982;0.7909;
746.1000;0.4925;0.7733;
746.4000;0.4965;0.7808;
746.7000;0.4974;0.7834;
747.0000;0.4965;0.7834;
747.3000;0.4965;0.7758;
747.6000;0.4974;0.7758;
747.9000;0.4957;0.7758;
748.2000;0.4982;0.7808;
748.5000;0.4974;0.7733;
748.8000;0.4925;0.7607;
749.1000;0.4998;0.7733;
749.4000;0.4974;0.7733;
749.7000;0.4982;0.7808;
750.0000;0.4974;0.7884;
750.3000;0.5014;0.8035;
750.6000;0.4982;0.7960;
750.9000;0.4974;0.7909;
751.2000;0.4974;0.7808;
751.5000;0.4990;0.7859;
751.8000;0.4982;0.7884;
752.1000;0.4974;0.7859;
752.4000;0.4957;0.7783;
752.7000;0.4974;0.7834;
753.0000;0.4965;0.7884;
753.3000;0.4957;0.7960;
753.6000;0.4957;0.7960;
753.9000;0.4974;0.7934;
754.2000;0.4965;0.7960;
754.5000;0.4957;0.8010;
754.8000;0.4949;0.7985;
755.1000;0.4949;0.7985;
755.4000;0.4957;0.8035;
755.7000;0.4974;0.8060;
756.0000;0.4941;0.8060;
756.3000;0.4974;0.8035;
756.6000;0.4965;0.8060;
756.9000;0.4949;0.7985;
757.2000;0.4925;0.7909;
757.5000;0.4949;0.7985;
757.8000;0.4957;0.7985;
758.1000;0.4974;0.7985;
758.4000;0.4933;0.7909;
758.7000;0.4925;0.7884;
759.0000;0.4957;0.7985;
759.3000;0.5014;0.8186;
759.6000;0.4957;0.8086;
759.9000;0.4949;0.8035;
760.2000;0.5014;0.8136;
760.5000;0.4908;0.7783;
760.8000;0.4957;0.7884;
761.1000;0.4974;0.7985;
761.4000;0.4933;0.7834;
761.7000;0.4949;0.7934;
762.0000;0.4949;0.7985;
762.3000;0.4941;0.7960;
762.6000;0.4949;0.7909;
762.9000;0.4957;0.7960;
763.2000;0.4957;0.8010;
763.5000;0.4949;0.7934;
763.8000;0.4925;0.8010;
764.1000;0.4949;0.8010;
764.4000;0.4957;0.8035;
764.7000;0.4941;0.7985;
765.0000;0.4949;0.7960;
765.3000;0.4957;0.7909;
765.6000;0.4949;0.7909;
765.9000;0.4957;0.7960;
766.2000;0.4908;0.7884;
766.5000;0.4933;0.7934;
766.8000;0.4949;0.8035;
767.1000;0.4941;0.8111;
767.4000;0.4941;0.8060;
767.7000;0.4933;0.8010;
768.0000;0.4933;0.8035;
768.3000;0.4957;0.8086;
768.6000;0.4941;0.7985;
768.9000;0.4933;0.8060;
769.2000;0.4925;0.7960;
769.5000;0.4925;0.7960;
769.8000;0.4925;0.8086;
770.1000;0.4908;0.8035;
770.4000;0.4925;0.8060;
770.7000;0.4917;0.8010;
771.0000;0.4933;0.8111;
771.3000;0.4925;0.8086;
771.6000;0.4925;0.7985;
771.9000;0.4933;0.7960;
772.2000;0.4925;0.7960;
772.5000;0.4908;0.8010;
772.8000;0.4908;0.8010;
773.1000;0.4925;0.7934;
773.4000;0.4917;0.7934;
773.7000;0.4933;0.7934;
774.0000;0.4917;0.7808;
774.3000;0.4965;0.7834;
774.6000;0.4933;0.7783;
774.9000;0.4925;0.7808;
775.2000;0.4917;0.7758;
775.5000;0.4933;0.7783;
775.8000;0.4917;0.7834;
776.1000;0.4925;0.7909;
776.4000;0.4851;0.7632;
776.7000;0.4925;0.7783;
777.0000;0.4933;0.7808;
777.3000;0.4908;0.7808;
777.6000;0.4925;0.7783;
777.9000;0.4917;0.7758;
778.2000;0.4917;0.7758;
778.5000;0.4917;0.7783;
778.8000;0.4933;0.7859;
779.1000;0.4908;0.7758;
779.4000;0.4925;0.7783;
779.7000;0.4957;0.7808;
780.0000;0.4884;0.7657;
780.3000;0.4908;0.7682;
780.6000;0.4925;0.7682;
780.9000;0.4917;0.7708;
781.2000;0.4941;0.7783;
781.5000;0.4917;0.7808;
781.8000;0.4900;0.7859;
782.1000;0.4917;0.7834;
782.4000;0.4925;0.7859;
782.7000;0.4917;0.7909;
783.0000;0.4925;0.7909;
783.3000;0.4925;0.7934;
783.6000;0.4917;0.7960;
783.9000;0.4908;0.7960;
784.2000;0.4908;0.7909;
784.5000;0.4892;0.7859;
784.8000;0.4925;0.7884;
785.1000;0.4917;0.7934;
785.4000;0.4925;0.7909;
785.7000;0.4925;0.7909;
786.0000;0.4925;0.7909;
786.3000;0.4925;0.7909;
786.6000;0.4917;0.7934;
786.9000;0.4884;0.7884;
787.2000;0.4908;0.7834;
787.5000;0.4917;0.7859;
787.8000;0.4868;0.7758;
788.1000;0.4884;0.7783;
788.4000;0.4908;0.7808;
788.7000;0.4908;0.7758;
789.0000;0.4892;0.7783;
789.3000;0.4925;0.7859;
789.6000;0.4908;0.7783;
789.9000;0.4908;0.7834;
790.2000;0.4900;0.7859;
790.5000;0.4900;0.7834;
790.8000;0.4933;0.7909;
791.1000;0.4900;0.7834;
791.4000;0.4892;0.7808;
791.7000;0.4908;0.7909;
792.0000;0.4908;0.7985;
792.3000;0.4949;0.8010;
792.6000;0.4908;0.7783;
792.9000;0.4933;0.7909;
793.2000;0.4941;0.7985;
793.5000;0.4908;0.7934;
793.8000;0.4917;0.7934;
794.1000;0.4925;0.7985;
794.4000;0.4892;0.7859;
794.7000;0.4908;0.7934;
795.0000;0.4941;0.8060;
795.3000;0.4892;0.7960;
795.6000;0.4908;0.8010;
795.9000;0.4965;0.8186;
796.2000;0.4908;0.8060;
796.5000;0.4900;0.7960;
796.8000;0.4908;0.8010;
797.1000;0.4900;0.8086;
797.4000;0.4900;0.8060;
797.7000;0.4884;0.8035;
798.0000;0.4892;0.7934;
798.3000;0.4884;0.7960;
798.6000;0.4884;0.7934;
798.9000;0.4900;0.7909;
799.2000;0.4892;0.7934;
799.5000;0.4876;0.7934;
799.8000;0.4827;0.7884;
800.1000;0.4908;0.8086;
800.4000;0.4900;0.8111;
800.7000;0.4892;0.8010;
801.0000;0.4917;0.8161;
801.3000;0.4908;0.8111;
801.6000;0.4892;0.8111;
801.9000;0.4884;0.8060;
802.2000;0.4900;0.8211;
802.5000;0.4900;0.8136;
802.8000;0.4876;0.8111;
803.1000;0.4908;0.8111;
803.4000;0.4933;0.8136;
803.7000;0.4892;0.8010;
804.0000;0.4892;0.7960;
804.3000;0.4892;0.8010;
804.6000;0.4884;0.8035;
804.9000;0.4884;0.8010;
805.2000;0.4884;0.8060;
805.5000;0.4868;0.8010;
805.8000;0.4908;0.8060;
806.1000;0.4908;0.8111;
806.4000;0.4917;0.8136;
806.7000;0.4900;0.8136;
807.0000;0.4982;0.8337;
807.3000;0.4892;0.8111;
807.6000;0.4933;0.8211;
807.9000;0.4900;0.8186;
808.2000;0.4843;0.8035;
808.5000;0.4917;0.8262;
808.8000;0.4900;0.8161;
809.1000;0.4900;0.8262;
809.4000;0.4900;0.8287;
809.7000;0.4884;0.8287;
810.0000;0.4876;0.8211;
810.3000;0.4868;0.8211;
810.6000;0.4851;0.8111;
810.9000;0.4884;0.8111;
811.2000;0.4876;0.8086;
811.5000;0.4900;0.8086;
811.8000;0.4892;0.8060;
812.1000;0.4868;0.7985;
812.4000;0.4884;0.8010;
812.7000;0.4884;0.8060;
813.0000;0.4892;0.8010;
813.3000;0.4868;0.7934;
813.6000;0.4884;0.7960;
813.9000;0.4860;0.7960;
814.2000;0.4892;0.7985;
814.5000;0.4884;0.7909;
814.8000;0.4843;0.7859;
815.1000;0.4917;0.8086;
815.4000;0.4851;0.8010;
815.7000;0.4794;0.7859;
816.0000;0.4827;0.7985;
816.3000;0.4925;0.8211;
816.6000;0.4900;0.8060;
816.9000;0.4917;0.8086;
817.2000;0.4900;0.8136;
817.5000;0.4868;0.8136;
817.8000;0.4892;0.8211;
818.1000;0.4892;0.8237;
818.4000;0.4892;0.8237;
818.7000;0.4884;0.8161;
819.0000;0.4900;0.8161;
819.3000;0.4868;0.8186;
819.6000;0.4884;0.8287;
819.9000;0.4917;0.8337;
820.2000;0.4892;0.8262;
820.5000;0.4892;0.8161;
820.8000;0.4868;0.8136;
821.1000;0.4868;0.8086;
821.4000;0.4884;0.8136;
821.7000;0.4892;0.8136;
822.0000;0.4868;0.7934;
822.3000;0.4876;0.8035;
822.6000;0.4860;0.8086;
822.9000;0.4884;0.8111;
823.2000;0.4876;0.8136;
823.5000;0.4851;0.8086;
823.8000;0.4860;0.8161;
824.1000;0.4884;0.8161;
824.4000;0.4876;0.8086;
824.7000;0.4876;0.8060;
825.0000;0.4884;0.7985;
825.3000;0.4860;0.7884;
825.6000;0.4868;0.7808;
825.9000;0.4876;0.7834;
826.2000;0.4868;0.7859;
826.5000;0.4843;0.7859;
826.8000;0.4892;0.8035;
827.1000;0.4868;0.7985;
827.4000;0.4925;0.8186;
827.7000;0.4917;0.8262;
828.0000;0.4908;0.8237;
828.3000;0.4868;0.8136;
828.6000;0.4860;0.8161;
828.9000;0.4835;0.8111;
829.2000;0.4876;0.8186;
829.5000;0.4851;0.8211;
829.8000;0.4868;0.8186;
830.1000;0.4868;0.8211;
830.4000;0.4851;0.8186;
830.7000;0.4868;0.8186;
831.0000;0.4868;0.8161;
831.3000;0.4876;0.8086;
831.6000;0.4876;0.8136;
831.9000;0.4860;0.8161;
832.2000;0.4843;0.8211;
832.5000;0.4876;0.8237;
832.8000;0.4868;0.8186;
833.1000;0.4876;0.8211;
833.4000;0.4868;0.8262;
833.7000;0.4860;0.8186;
834.0000;0.4868;0.8186;
834.3000;0.4876;0.8186;
834.6000;0.4868;0.8186;
834.9000;0.4900;0.8211;
835.2000;0.4868;0.8111;
835.5000;0.4868;0.8161;
835.8000;0.4851;0.8136;
836.1000;0.4868;0.8186;
836.4000;0.4868;0.8060;
836.7000;0.4860;0.7985;
837.0000;0.4876;0.8010;
837.3000;0.4868;0.8010;
837.6000;0.4860;0.7985;
837.9000;0.4860;0.8111;
838.2000;0.4876;0.8237;
838.5000;0.4876;0.8287;
838.8000;0.4851;0.8262;
839.1000;0.4860;0.8312;
839.4000;0.4851;0.8237;
839.7000;0.4908;0.8388;
840.0000;0.4860;0.8312;
840.3000;0.4860;0.8136;
840.6000;0.4876;0.8211;
840.9000;0.4900;0.8211;
841.2000;0.4868;0.8161;
841.5000;0.4868;0.8086;
841.8000;0.4876;0.8111;
842.1000;0.4851;0.8086;
842.4000;0.4868;0.8161;
842.7000;0.4811;0.8086;
843.0000;0.4884;0.8287;
843.3000;0.4892;0.8312;
843.6000;0.4876;0.8211;
843.9000;0.4860;0.8111;
844.2000;0.4900;0.8035;
844.5000;0.4860;0.7960;
844.8000;0.4835;0.7934;
845.1000;0.4860;0.7960;
845.4000;0.4860;0.8010;
845.7000;0.4860;0.7985;
846.0000;0.4868;0.7934;
846.3000;0.4851;0.7960;
846.6000;0.4860;0.8060;
846.9000;0.4860;0.8086;
847.2000;0.4868;0.8161;
847.5000;0.4851;0.8111;
847.8000;0.4868;0.8186;
848.1000;0.4860;0.8237;
848.4000;0.4868;0.8211;
848.7000;0.4868;0.8186;
849.0000;0.4851;0.8111;
849.3000;0.4884;0.8211;
849.6000;0.4892;0.8312;
849.9000;0.4835;0.8186;
850.2000;0.4868;0.8211;
850.5000;0.4876;0.8186;
850.8000;0.4860;0.8186;
851.1000;0.4900;0.8337;
851.4000;0.4917;0.8388;
851.7000;0.4876;0.8186;
852.0000;0.4900;0.8237;
852.3000;0.4941;0.8287;
852.6000;0.4884;0.8060;
852.9000;0.4884;0.8161;
853.2000;0.4884;0.8186;
853.5000;0.4876;0.8186;
853.8000;0.4843;0.8060;
854.1000;0.4843;0.7985;
854.4000;0.4860;0.8060;
854.7000;0.4851;0.8161;
855.0000;0.4900;0.8237;
855.3000;0.4851;0.8060;
855.6000;0.4843;0.7985;
855.9000;0.4868;0.7985;
856.2000;0.4868;0.8035;
856.5000;0.4851;0.7960;
856.8000;0.4851;0.7909;
857.1000;0.4819;0.7884;
857.4000;0.4868;0.8060;
857.7000;0.4851;0.8086;
858.0000;0.4868;0.8010;
858.3000;0.4851;0.8136;
858.6000;0.4876;0.8186;
858.9000;0.4860;0.8035;
859.2000;0.4843;0.7960;
859.5000;0.4843;0.8010;
859.8000;0.4827;0.8010;
860.1000;0.4811;0.7909;
860.4000;0.4868;0.8086;
860.7000;0.4860;0.7985;
861.0000;0.4835;0.7934;
861.3000;0.4835;0.7909;
861.6000;0.4843;0.7934;
861.9000;0.4860;0.7859;
862.2000;0.4851;0.7884;
862.5000;0.4860;0.7834;
862.8000;0.4868;0.7960;
863.1000;0.4843;0.7960;
863.4000;0.4851;0.8035;
863.7000;0.4851;0.8086;
864.0000;0.4851;0.8237;
864.3000;0.4860;0.8262;
864.6000;0.4868;0.8262;
864.9000;0.4835;0.8136;
865.2000;0.4843;0.8186;
865.5000;0.4835;0.8136;
865.8000;0.4835;0.8010;
866.1000;0.4835;0.8060;
866.4000;0.4843;0.8010;
866.7000;0.4851;0.8035;
867.0000;0.4868;0.8060;
867.3000;0.4868;0.8136;
867.6000;0.4851;0.8161;
867.9000;0.4851;0.8060;
868.2000;0.4868;0.8035;
868.5000;0.4868;0.8035;
868.8000;0.4868;0.8035;
869.1000;0.4860;0.8035;
869.4000;0.4843;0.7985;
869.7000;0.4843;0.7934;
870.0000;0.4843;0.7934;
870.3000;0.4851;0.7960;
870.6000;0.4835;0.7859;
870.9000;0.4835;0.7834;
871.2000;0.4843;0.8010;
871.5000;0.4835;0.7985;
871.8000;0.4843;0.8035;
872.1000;0.4860;0.8111;
872.4000;0.4860;0.8086;
872.7000;0.4851;0.8136;
873.0000;0.4860;0.8161;
873.3000;0.4843;0.8136;
873.6000;0.4843;0.8111;
873.9000;0.4851;0.8035;
874.2000;0.4843;0.7934;
874.5000;0.4794;0.7708;
874.8000;0.4827;0.7808;
875.1000;0.4811;0.7859;
875.4000;0.4843;0.8010;
875.7000;0.4835;0.7960;
876.0000;0.4827;0.7985;
876.3000;0.4860;0.8136;
876.6000;0.4860;0.8161;
876.9000;0.4843;0.8060;
877.2000;0.4827;0.8010;
877.5000;0.4851;0.8060;
877.8000;0.4843;0.8060;
878.1000;0.4900;0.8136;
878.4000;0.4851;0.8136;
878.7000;0.4827;0.8111;
879.0000;0.4843;0.8035;
879.3000;0.4843;0.8111;
879.6000;0.4835;0.8010;
879.9000;0.4835;0.7934;
880.2000;0.4917;0.8086;
880.5000;0.4851;0.7985;
880.8000;0.4851;0.8010;
881.1000;0.4868;0.8035;
881.4000;0.4851;0.7960;
881.7000;0.4868;0.7934;
882.0000;0.4835;0.7859;
882.3000;0.4835;0.7884;
882.6000;0.4843;0.7909;
882.9000;0.4835;0.7808;
883.2000;0.4884;0.7909;
883.5000;0.4851;0.7758;
883.8000;0.4835;0.7708;
884.1000;0.4786;0.7481;
884.4000;0.4843;0.7557;
884.7000;0.4827;0.7582;
885.0000;0.4835;0.7582;
885.3000;0.4843;0.7582;
885.6000;0.4835;0.7506;
885.9000;0.4835;0.7405;
886.2000;0.4811;0.7405;
886.5000;0.4827;0.7405;
886.8000;0.4827;0.7405;
887.1000;0.4811;0.7431;
887.4000;0.4835;0.7531;
887.7000;0.4843;0.7582;
888.0000;0.4860;0.7607;
888.3000;0.4860;0.7708;
888.6000;0.4843;0.7607;
888.9000;0.4819;0.7531;
889.2000;0.4860;0.7708;
889.5000;0.4851;0.7708;
889.8000;0.4835;0.7808;
890.1000;0.4819;0.7808;
890.4000;0.4835;0.7808;
890.7000;0.4835;0.7859;
891.0000;0.4843;0.7909;
891.3000;0.4892;0.8010;
891.6000;0.4843;0.7909;
891.9000;0.4851;0.7985;
892.2000;0.4868;0.8010;
892.5000;0.4835;0.7934;
892.8000;0.4843;0.8010;
893.1000;0.4851;0.8060;
893.4000;0.4851;0.8086;
893.7000;0.4835;0.8060;
894.0000;0.4835;0.8111;
894.3000;0.4819;0.8060;
894.6000;0.4835;0.8161;
894.9000;0.4754;0.8035;
895.2000;0.4803;0.8186;
895.5000;0.4835;0.8161;
895.8000;0.4851;0.8136;
896.1000;0.4827;0.8010;
896.4000;0.4843;0.8010;
896.7000;0.4835;0.7985;
897.0000;0.4835;0.7960;
897.3000;0.4835;0.7859;
897.6000;0.4835;0.7859;
897.9000;0.4851;0.7909;
898.2000;0.4843;0.7884;
898.5000;0.4835;0.7859;
898.8000;0.4819;0.7859;
899.1000;0.4811;0.7783;
899.4000;0.4827;0.7783;
899.7000;0.4827;0.7758;
900.0000;0.4876;0.7859;
900.3000;0.4803;0.7733;
900.6000;0.4843;0.7834;
900.9000;0.4827;0.7859;
901.2000;0.4827;0.7859;
901.5000;0.4835;0.7909;
901.8000;0.4819;0.7884;
902.1000;0.4843;0.7884;
902.4000;0.4843;0.7783;
902.7000;0.4827;0.7783;
903.0000;0.4835;0.7884;
903.3000;0.4843;0.7985;
903.6000;0.4835;0.7934;
903.9000;0.4827;0.7934;
904.2000;0.4827;0.7934;
904.5000;0.4843;0.7884;
904.8000;0.4835;0.7783;
905.1000;0.4819;0.7783;
905.4000;0.4835;0.7859;
905.7000;0.4819;0.7834;
906.0000;0.4851;0.7985;
906.3000;0.4819;0.7859;
906.6000;0.4835;0.7859;
906.9000;0.4835;0.7960;
907.2000;0.4892;0.8060;
907.5000;0.4827;0.7884;
907.8000;0.4827;0.7859;
908.1000;0.4843;0.7960;
908.4000;0.4860;0.7934;
908.7000;0.4851;0.7884;
909.0000;0.4835;0.7909;
909.3000;0.4851;0.8010;
909.6000;0.4851;0.7960;
909.9000;0.4827;0.7884;
910.2000;0.4860;0.7960;
910.5000;0.4851;0.7909;
910.8000;0.4835;0.7859;
911.1000;0.4835;0.7859;
911.4000;0.4843;0.7884;
911.7000;0.4811;0.7783;
912.0000;0.4835;0.7808;
912.3000;0.4868;0.7934;
912.6000;0.4835;0.7909;
912.9000;0.4835;0.7934;
913.2000;0.4851;0.7985;
913.5000;0.4843;0.7960;
913.8000;0.4851;0.7985;
914.1000;0.4819;0.7859;
914.4000;0.4860;0.7909;
914.7000;0.4851;0.7884;
915.0000;0.4827;0.7834;
915.3000;0.4868;0.7909;
915.6000;0.4819;0.7808;
915.9000;0.4786;0.7859;
916.2000;0.4811;0.7934;
916.5000;0.4803;0.7960;
916.8000;0.4803;0.7859;
917.1000;0.4819;0.7884;
917.4000;0.4827;0.7934;
917.7000;0.4827;0.7783;
918.0000;0.4827;0.7859;
918.3000;0.4819;0.7808;
918.6000;0.4925;0.8086;
918.9000;0.4794;0.7758;
919.2000;0.4811;0.7859;
919.5000;0.4819;0.7808;
919.8000;0.4827;0.7834;
920.1000;0.4819;0.7808;
920.4000;0.4803;0.7934;
920.7000;0.4794;0.7960;
921.0000;0.4827;0.8060;
921.3000;0.4819;0.7985;
921.6000;0.4819;0.7934;
921.9000;0.4811;0.7884;
922.2000;0.4835;0.7985;
922.5000;0.4811;0.7960;
922.8000;0.4843;0.7985;
923.1000;0.4811;0.7960;
923.4000;0.4819;0.7960;
923.7000;0.4827;0.7985;
924.0000;0.4794;0.7859;
924.3000;0.4819;0.7909;
924.6000;0.4819;0.7909;
924.9000;0.4819;0.7934;
925.2000;0.4827;0.8010;
925.5000;0.4860;0.8237;
925.8000;0.4884;0.8262;
926.1000;0.4835;0.8060;
926.4000;0.4827;0.7985;
926.7000;0.4835;0.7960;
927.0000;0.4803;0.7934;
927.3000;0.4819;0.7909;
927.6000;0.4827;0.7960;
927.9000;0.4835;0.8010;
928.2000;0.4827;0.8010;
928.5000;0.4835;0.7985;
928.8000;0.4835;0.7934;
929.1000;0.4843;0.7934;
929.4000;0.4819;0.7960;
929.7000;0.4851;0.8111;
930.0000;0.4835;0.8186;
930.3000;0.4827;0.8161;
930.6000;0.4819;0.8086;
930.9000;0.4819;0.8035;
931.2000;0.4835;0.8035;
931.5000;0.4835;0.7934;
931.8000;0.4835;0.7859;
932.1000;0.4803;0.7834;
932.4000;0.4827;0.7909;
932.7000;0.4835;0.8010;
933.0000;0.4835;0.7960;
933.3000;0.4827;0.7934;
933.6000;0.4746;0.7783;
933.9000;0.4819;0.7934;
934.2000;0.4811;0.7884;
934.5000;0.4811;0.7859;
934.8000;0.4794;0.7884;
935.1000;0.4819;0.7960;
935.4000;0.4827;0.8035;
935.7000;0.4827;0.8010;
936.0000;0.4803;0.7934;
936.3000;0.4827;0.8010;
936.6000;0.4835;0.7985;
936.9000;0.4819;0.7985;
937.2000;0.4827;0.7960;
937.5000;0.4819;0.7884;
937.8000;0.4803;0.7859;
938.1000;0.4803;0.7834;
938.4000;0.4819;0.7808;
938.7000;0.4827;0.7834;
939.0000;0.4835;0.7859;
939.3000;0.4811;0.7783;
939.6000;0.4843;0.7884;
939.9000;0.4811;0.7884;
940.2000;0.4835;0.7960;
940.5000;0.4819;0.7859;
940.8000;0.4811;0.7808;
941.1000;0.4819;0.7909;
941.4000;0.4827;0.7909;
941.7000;0.4819;0.7909;
942.0000;0.4819;0.7859;
942.3000;0.4811;0.7934;
942.6000;0.4819;0.7834;
942.9000;0.4811;0.7909;
943.2000;0.4803;0.7859;
943.5000;0.4811;0.7884;
943.8000;0.4843;0.7859;
944.1000;0.4827;0.7808;
944.4000;0.4819;0.7834;
944.7000;0.4811;0.7909;
945.0000;0.4803;0.7834;
945.3000;0.4811;0.7859;
945.6000;0.4811;0.7758;
945.9000;0.4811;0.7783;
946.2000;0.4860;0.7884;
946.5000;0.4851;0.7960;
946.8000;0.4786;0.7834;
947.1000;0.4851;0.8010;
947.4000;0.4843;0.8086;
947.7000;0.4827;0.8060;
948.0000;0.4900;0.8211;
948.3000;0.4835;0.7909;
948.6000;0.4827;0.7934;
948.9000;0.4827;0.8035;
949.2000;0.4876;0.8211;
949.5000;0.4746;0.7758;
949.8000;0.4811;0.7934;
950.1000;0.4811;0.7834;
950.4000;0.4819;0.7859;
950.7000;0.4827;0.7859;
951.0000;0.4803;0.7834;
951.3000;0.4811;0.7834;
951.6000;0.4819;0.7783;
951.9000;0.4819;0.7808;
952.2000;0.4851;0.7884;
952.5000;0.4811;0.7808;
952.8000;0.4827;0.7884;
953.1000;0.4827;0.7834;
953.4000;0.4827;0.7758;
953.7000;0.4827;0.7834;
954.0000;0.4827;0.7808;
954.3000;0.4778;0.7632;
954.6000;0.4827;0.7733;
954.9000;0.4811;0.7682;
955.2000;0.4827;0.7834;
955.5000;0.4843;0.7909;
955.8000;0.4851;0.7909;
956.1000;0.4835;0.8010;
956.4000;0.4819;0.8010;
956.7000;0.4819;0.8086;
957.0000;0.4819;0.8111;
957.3000;0.4811;0.8086;
957.6000;0.4794;0.8010;
957.9000;0.4786;0.8060;
958.2000;0.4827;0.8186;
958.5000;0.4835;0.8111;
958.8000;0.4827;0.8086;
959.1000;0.4819;0.8060;
959.4000;0.4811;0.8035;
959.7000;0.4835;0.8086;
960.0000;0.4811;0.8136;
960.3000;0.4819;0.8211;
960.6000;0.4819;0.8186;
960.9000;0.4811;0.8161;
961.2000;0.4811;0.8111;
961.5000;0.4803;0.7960;
961.8000;0.4827;0.8111;
962.1000;0.4819;0.8161;
962.4000;0.4811;0.8060;
962.7000;0.4811;0.8060;
963.0000;0.4811;0.8136;
963.3000;0.4827;0.8186;
963.6000;0.4835;0.8161;
963.9000;0.4819;0.8161;
964.2000;0.4811;0.8237;
964.5000;0.4819;0.8211;
964.8000;0.4819;0.8161;
965.1000;0.4762;0.8035;
965.4000;0.4827;0.8111;
965.7000;0.4819;0.8161;
966.0000;0.4819;0.8136;
966.3000;0.4803;0.8111;
966.6000;0.4811;0.8111;
966.9000;0.4754;0.7960;
967.2000;0.4811;0.8086;
967.5000;0.4811;0.8111;
967.8000;0.4803;0.8086;
968.1000;0.4811;0.8136;
968.4000;0.4778;0.8086;
968.7000;0.4819;0.8136;
969.0000;0.4835;0.8186;
969.3000;0.4803;0.8086;
969.6000;0.4819;0.8237;
969.9000;0.4803;0.8186;
970.2000;0.4819;0.8186;
970.5000;0.4746;0.7884;
970.8000;0.4876;0.8337;
971.1000;0.4819;0.8237;
971.4000;0.4803;0.8161;
971.7000;0.4811;0.8211;
972.0000;0.4794;0.8161;
972.3000;0.4794;0.8186;
972.6000;0.4860;0.8413;
972.9000;0.4819;0.8262;
973.2000;0.4746;0.8136;
973.5000;0.4819;0.8287;
973.8000;0.4803;0.8237;
974.1000;0.4803;0.8262;
974.4000;0.4835;0.8312;
974.7000;0.4819;0.8287;
975.0000;0.4803;0.8287;
975.3000;0.4811;0.8312;
975.6000;0.4811;0.8287;
975.9000;0.4811;0.8287;
976.2000;0.4827;0.8287;
976.5000;0.4794;0.8211;
976.8000;0.4827;0.8312;
977.1000;0.4803;0.8312;
977.4000;0.4754;0.8060;
977.7000;0.4794;0.8010;
978.0000;0.4811;0.7985;
978.3000;0.4811;0.8010;
978.6000;0.4811;0.8035;
978.9000;0.4827;0.8161;
979.2000;0.4811;0.8186;
979.5000;0.4827;0.8211;
979.8000;0.4811;0.8161;
980.1000;0.4803;0.8136;
980.4000;0.4819;0.8186;
980.7000;0.4835;0.8161;
981.0000;0.4819;0.8161;
981.3000;0.4860;0.8287;
981.6000;0.4737;0.8010;
981.9000;0.4819;0.8237;
982.2000;0.4835;0.8262;
982.5000;0.4811;0.8161;
982.8000;0.4819;0.8262;
983.1000;0.4786;0.8186;
983.4000;0.4827;0.8262;
983.7000;0.4827;0.8287;
984.0000;0.4811;0.8136;
984.3000;0.4819;0.8086;
984.6000;0.4778;0.7985;
984.9000;0.4819;0.8010;
985.2000;0.4819;0.8111;
985.5000;0.4778;0.8035;
985.8000;0.4803;0.7985;
986.1000;0.4770;0.7884;
986.4000;0.4843;0.8010;
986.7000;0.4803;0.8010;
987.0000;0.4827;0.8060;
987.3000;0.4835;0.8010;
987.6000;0.4811;0.7985;
987.9000;0.4794;0.8035;
988.2000;0.4794;0.8136;
988.5000;0.4811;0.8161;
988.8000;0.4811;0.8161;
989.1000;0.4803;0.8186;
989.4000;0.4851;0.8388;
989.7000;0.4811;0.8186;
990.0000;0.4786;0.8161;
990.3000;0.4786;0.8086;
990.6000;0.4794;0.8111;
990.9000;0.4794;0.8186;
991.2000;0.4827;0.8262;
991.5000;0.4803;0.8136;
991.8000;0.4786;0.8035;
992.1000;0.4835;0.8136;
992.4000;0.4794;0.8060;
992.7000;0.4819;0.8136;
993.0000;0.4786;0.8086;
993.3000;0.4803;0.8060;
993.6000;0.4819;0.8060;
993.9000;0.4819;0.8161;
994.2000;0.4721;0.7884;
994.5000;0.4803;0.8136;
994.8000;0.4827;0.8060;
995.1000;0.4827;0.8060;
995.4000;0.4803;0.7985;
995.7000;0.4803;0.7985;
996.0000;0.4786;0.7909;
996.3000;0.4827;0.8186;
996.6000;0.4827;0.8136;
996.9000;0.4803;0.8086;
997.2000;0.4794;0.8035;
997.5000;0.4811;0.8111;
997.8000;0.4803;0.8086;
998.1000;0.4803;0.8086;
998.4000;0.4827;0.8161;
998.7000;0.4803;0.8136;
999.0000;0.4827;0.8211;
999.3000;0.4811;0.8136;
999.6000;0.4811;0.8161;
999.9000;0.4819;0.8211;
1000.2000;0.4803;0.8211;
1000.5000;0.4811;0.8161;
1000.8000;0.4803;0.8161;
1001.1000;0.4811;0.8086;
1001.4000;0.4811;0.8186;
1001.7000;0.4811;0.8161;
1002.0000;0.4811;0.8237;
1002.3000;0.4794;0.8111;
1002.6000;0.4811;0.8186;
1002.9000;0.4803;0.8186;
1003.2000;0.4786;0.8035;
1003.5000;0.4794;0.8086;
1003.8000;0.4811;0.8211;
1004.1000;0.4811;0.8287;
1004.4000;0.4811;0.8287;
1004.7000;0.4794;0.8363;
1005.0000;0.4803;0.8262;
1005.3000;0.4794;0.8211;
1005.6000;0.4811;0.8211;
1005.9000;0.4835;0.8237;
1006.2000;0.4770;0.8086;
1006.5000;0.4811;0.8186;
1006.8000;0.4819;0.8186;
1007.1000;0.4786;0.8060;
1007.4000;0.4851;0.8161;
1007.7000;0.4811;0.8086;
1008.0000;0.4794;0.8111;
1008.3000;0.4811;0.8111;
1008.6000;0.4827;0.8186;
1008.9000;0.4770;0.8111;
1009.2000;0.4827;0.8237;
1009.5000;0.4835;0.8287;
1009.8000;0.4811;0.8237;
1010.1000;0.4778;0.8211;
1010.4000;0.4851;0.8413;
1010.7000;0.4803;0.8287;
1011.0000;0.4794;0.8186;
1011.3000;0.4794;0.8211;
1011.6000;0.4811;0.8186;
1011.9000;0.4811;0.8186;
1012.2000;0.4786;0.8136;
1012.5000;0.4803;0.8086;
1012.8000;0.4835;0.8111;
1013.1000;0.4811;0.8211;
1013.4000;0.4811;0.8211;
1013.7000;0.4819;0.8186;
1014.0000;0.4794;0.8186;
1014.3000;0.4803;0.8186;
1014.6000;0.4803;0.8186;
1014.9000;0.4811;0.8161;
1015.2000;0.4819;0.8136;
1015.5000;0.4803;0.8111;
1015.8000;0.4811;0.7960;
1016.1000;0.4803;0.7909;
1016.4000;0.4827;0.8010;
1016.7000;0.4835;0.8060;
1017.0000;0.4819;0.7960;
1017.3000;0.4819;0.7985;
1017.6000;0.4794;0.7960;
1017.9000;0.4819;0.8060;
1018.2000;0.4835;0.8060;
1018.5000;0.4803;0.8060;
1018.8000;0.4794;0.8136;
1019.1000;0.4811;0.8186;
1019.4000;0.4794;0.8186;
1019.7000;0.4778;0.8161;
1020.0000;0.4786;0.8237;
1020.3000;0.4778;0.8211;
1020.6000;0.4803;0.8287;
1020.9000;0.4746;0.8111;
1021.2000;0.4843;0.8287;
1021.5000;0.4794;0.8186;
1021.8000;0.4843;0.8287;
1022.1000;0.4819;0.8312;
1022.4000;0.4786;0.8186;
1022.7000;0.4786;0.8186;
1023.0000;0.4794;0.8186;
1023.3000;0.4786;0.8211;
1023.6000;0.4803;0.8237;
1023.9000;0.4803;0.8237;
1024.2000;0.4803;0.8186;
1024.5000;0.4811;0.8186;
1024.8000;0.4794;0.8161;
1025.1000;0.4786;0.8111;
1025.4000;0.4794;0.8136;
1025.7000;0.4794;0.8211;
1026.0000;0.4786;0.8237;
1026.3000;0.4860;0.8438;
1026.6000;0.4811;0.8438;
1026.9000;0.4819;0.8539;
1027.2000;0.4803;0.8438;
1027.5000;0.4794;0.8312;
1027.8000;0.4803;0.8287;
1028.1000;0.4803;0.8312;
1028.4000;0.4843;0.8388;
1028.7000;0.4811;0.8312;
1029.0000;0.4811;0.8312;
1029.3000;0.4811;0.8363;
1029.6000;0.4811;0.8388;
1029.9000;0.4786;0.8237;
1030.2000;0.4794;0.8287;
1030.5000;0.4803;0.8287;
1030.8000;0.4843;0.8489;
1031.1000;0.4843;0.8438;
1031.4000;0.4770;0.8287;
1031.7000;0.4729;0.8111;
1032.0000;0.4827;0.8337;
1032.3000;0.4819;0.8337;
1032.6000;0.4754;0.8161;
1032.9000;0.4819;0.8312;
1033.2000;0.4786;0.8211;
1033.5000;0.4819;0.8287;
1033.8000;0.4811;0.8337;
1034.1000;0.4803;0.8287;
1034.4000;0.4786;0.8262;
1034.7000;0.4803;0.8388;
1035.0000;0.4794;0.8388;
1035.3000;0.4803;0.8363;
1035.6000;0.4786;0.8287;
1035.9000;0.4811;0.8312;
1036.2000;0.4794;0.8312;
1036.5000;0.4794;0.8237;
1036.8000;0.4786;0.8287;
1037.1000;0.4803;0.8363;
1037.4000;0.4827;0.8388;
1037.7000;0.4794;0.8287;
1038.0000;0.4803;0.8363;
1038.3000;0.4794;0.8337;
1038.6000;0.4786;0.8312;
1038.9000;0.4778;0.8287;
1039.2000;0.4827;0.8413;
1039.5000;0.4794;0.8337;
1039.8000;0.4778;0.8237;
1040.1000;0.4811;0.8337;
1040.4000;0.4778;0.8312;
1040.7000;0.4794;0.8363;
1041.0000;0.4746;0.8287;
1041.3000;0.4778;0.8363;
1041.6000;0.4786;0.8363;
1041.9000;0.4803;0.8287;
1042.2000;0.4794;0.8186;
1042.5000;0.4794;0.8086;
1042.8000;0.4778;0.8086;
1043.1000;0.4786;0.8060;
1043.4000;0.4811;0.8186;
1043.7000;0.4803;0.8161;
1044.0000;0.4803;0.8161;
1044.3000;0.4794;0.8186;
1044.6000;0.4794;0.8262;
1044.9000;0.4892;0.8514;
1045.2000;0.4794;0.8161;
1045.5000;0.4803;0.8237;
1045.8000;0.4794;0.8262;
1046.1000;0.4762;0.8237;
1046.4000;0.4811;0.8388;
1046.7000;0.4794;0.8413;
1047.0000;0.4794;0.8363;
1047.3000;0.4811;0.8413;
1047.6000;0.4811;0.8337;
1047.9000;0.4803;0.8237;
1048.2000;0.4794;0.8237;
1048.5000;0.4803;0.8186;
1048.8000;0.4803;0.8186;
1049.1000;0.4803;0.8211;
1049.4000;0.4794;0.8262;
1049.7000;0.4827;0.8337;
1050.0000;0.4803;0.8337;
1050.3000;0.4803;0.8262;
1050.6000;0.4811;0.8186;
1050.9000;0.4803;0.8136;
1051.2000;0.4803;0.8186;
1051.5000;0.4794;0.8136;
1051.8000;0.4786;0.8060;
1052.1000;0.4819;0.8161;
1052.4000;0.4811;0.8136;
1052.7000;0.4811;0.8262;
1053.0000;0.4811;0.8337;
1053.3000;0.4778;0.8312;
1053.6000;0.4786;0.8237;
1053.9000;0.4794;0.8111;
1054.2000;0.4794;0.8086;
1054.5000;0.4794;0.8035;
1054.8000;0.4762;0.8035;
1055.1000;0.4786;0.8136;
1055.4000;0.4778;0.8111;
1055.7000;0.4794;0.8186;
1056.0000;0.4778;0.8086;
1056.3000;0.4819;0.8161;
1056.6000;0.4819;0.8186;
1056.9000;0.4803;0.8237;
1057.2000;0.4803;0.8312;
1057.5000;0.4811;0.8363;
1057.8000;0.4803;0.8337;
1058.1000;0.4794;0.8337;
1058.4000;0.4803;0.8312;
1058.7000;0.4786;0.8237;
1059.0000;0.4819;0.8388;
1059.3000;0.4786;0.8363;
1059.6000;0.4786;0.8388;
1059.9000;0.4811;0.8388;
1060.2000;0.4794;0.8337;
1060.5000;0.4819;0.8463;
1060.8000;0.4803;0.8363;
1061.1000;0.4811;0.8388;
1061.4000;0.4876;0.8539;
1061.7000;0.4794;0.8363;
1062.0000;0.4827;0.8337;
1062.3000;0.4835;0.8312;
1062.6000;0.4794;0.8287;
1062.9000;0.4827;0.8287;
1063.2000;0.4770;0.8136;
1063.5000;0.4786;0.8262;
1063.8000;0.4819;0.8237;
1064.1000;0.4794;0.8136;
1064.4000;0.4762;0.7985;
1064.7000;0.4794;0.8111;
1065.0000;0.4794;0.8111;
1065.3000;0.4762;0.7985;
1065.6000;0.4786;0.8111;
1065.9000;0.4794;0.8186;
1066.2000;0.4819;0.8287;
1066.5000;0.4803;0.8211;
1066.8000;0.4803;0.8237;
1067.1000;0.4786;0.8262;
1067.4000;0.4794;0.8287;
1067.7000;0.4811;0.8237;
1068.0000;0.4794;0.8262;
1068.3000;0.4786;0.8211;
1068.6000;0.4786;0.8262;
1068.9000;0.4770;0.8211;
1069.2000;0.4819;0.8262;
1069.5000;0.4794;0.8136;
1069.8000;0.4803;0.8086;
1070.1000;0.4827;0.8211;
1070.4000;0.4786;0.8086;
1070.7000;0.4786;0.8237;
1071.0000;0.4803;0.8211;
1071.3000;0.4811;0.8287;
1071.6000;0.4803;0.8262;
1071.9000;0.4786;0.8237;
1072.2000;0.4786;0.8186;
1072.5000;0.4803;0.8186;
1072.8000;0.4811;0.8287;
1073.1000;0.4794;0.8262;
1073.4000;0.4770;0.8186;
1073.7000;0.4786;0.8237;
1074.0000;0.4835;0.8363;
1074.3000;0.4794;0.8237;
1074.6000;0.4803;0.8237;
1074.9000;0.4786;0.8186;
1075.2000;0.4819;0.8287;
1075.5000;0.4803;0.8262;
1075.8000;0.4786;0.8111;
1076.1000;0.4786;0.8186;
1076.4000;0.4827;0.8337;
1076.7000;0.4811;0.8312;
1077.0000;0.4819;0.8237;
1077.3000;0.4803;0.8186;
1077.6000;0.4786;0.8161;
1077.9000;0.4851;0.8363;
1078.2000;0.4811;0.8186;
1078.5000;0.4786;0.8161;
1078.8000;0.4843;0.8287;
1079.1000;0.4713;0.7985;
1079.4000;0.4803;0.8186;
1079.7000;0.4794;0.8161;
1080.0000;0.4786;0.8161;
1080.3000;0.4794;0.8186;
1080.6000;0.4811;0.8186;
1080.9000;0.4786;0.8060;
1081.2000;0.4778;0.8035;
1081.5000;0.4786;0.7960;
1081.8000;0.4819;0.8035;
1082.1000;0.4786;0.7909;
1082.4000;0.4786;0.7934;
1082.7000;0.4843;0.8086;
1083.0000;0.4794;0.8060;
1083.3000;0.4819;0.8060;
1083.6000;0.4778;0.8010;
1083.9000;0.4746;0.7909;
1084.2000;0.4754;0.7909;
1084.5000;0.4794;0.7960;
1084.8000;0.4803;0.7934;
1085.1000;0.4794;0.7909;
1085.4000;0.4811;0.7960;
1085.7000;0.4770;0.7934;
1086.0000;0.4778;0.7884;
1086.3000;0.4786;0.7909;
1086.6000;0.4746;0.7758;
1086.9000;0.4827;0.7909;
1087.2000;0.4794;0.7884;
1087.5000;0.4786;0.7783;
1087.8000;0.4803;0.7834;
1088.1000;0.4827;0.7834;
1088.4000;0.4819;0.7884;
1088.7000;0.4819;0.7960;
1089.0000;0.4819;0.8010;
1089.3000;0.4811;0.8035;
1089.6000;0.4811;0.7985;
1089.9000;0.4860;0.8136;
1090.2000;0.4811;0.7934;
1090.5000;0.4819;0.8035;
1090.8000;0.4819;0.7934;
1091.1000;0.4811;0.7859;
1091.4000;0.4819;0.7834;
1091.7000;0.4811;0.7758;
1092.0000;0.4819;0.7783;
1092.3000;0.4794;0.7783;
1092.6000;0.4811;0.7783;
1092.9000;0.4803;0.7758;
1093.2000;0.4868;0.7884;
1093.5000;0.4794;0.7758;
1093.8000;0.4803;0.7808;
1094.1000;0.4794;0.7783;
1094.4000;0.4803;0.7834;
1094.7000;0.4786;0.7808;
1095.0000;0.4778;0.7884;
1095.3000;0.4794;0.7834;
1095.6000;0.4786;0.7808;
1095.9000;0.4811;0.7934;
1096.2000;0.4868;0.8136;
1096.5000;0.4786;0.8010;
1096.8000;0.4819;0.8060;
1097.1000;0.4803;0.8035;
1097.4000;0.4811;0.8010;
1097.7000;0.4778;0.8035;
1098.0000;0.4811;0.8086;
1098.3000;0.4811;0.8111;
1098.6000;0.4803;0.8136;
1098.9000;0.4770;0.8136;
1099.2000;0.4794;0.8136;
1099.5000;0.4794;0.8186;
1099.8000;0.4811;0.8211;
1100.1000;0.4803;0.8211;
1100.4000;0.4819;0.8136;
1100.7000;0.4794;0.8035;
1101.0000;0.4827;0.8060;
1101.3000;0.4803;0.8035;
1101.6000;0.4794;0.8035;
1101.9000;0.4794;0.8010;
1102.2000;0.4770;0.7884;
1102.5000;0.4819;0.7934;
1102.8000;0.4794;0.7834;
1103.1000;0.4827;0.7783;
1103.4000;0.4803;0.7783;
1103.7000;0.4786;0.7834;
1104.0000;0.4786;0.7909;
1104.3000;0.4811;0.8010;
1104.6000;0.4778;0.7934;
1104.9000;0.4794;0.7985;
1105.2000;0.4794;0.7934;
1105.5000;0.4794;0.7934;
1105.8000;0.4778;0.7884;
1106.1000;0.4794;0.7783;
1106.4000;0.4778;0.7808;
1106.7000;0.4803;0.7884;
1107.0000;0.4811;0.8035;
1107.3000;0.4803;0.7985;
1107.6000;0.4794;0.7934;
1107.9000;0.4794;0.8010;
1108.2000;0.4786;0.8035;
1108.5000;0.4778;0.7909;
1108.8000;0.4786;0.7985;
1109.1000;0.4754;0.7909;
1109.4000;0.4786;0.8035;
1109.7000;0.4803;0.8035;
1110.0000;0.4786;0.7960;
1110.3000;0.4794;0.7934;
1110.6000;0.4835;0.8010;
1110.9000;0.4778;0.7859;
1111.2000;0.4778;0.7859;
1111.5000;0.4794;0.7859;
1111.8000;0.4811;0.7960;
1112.1000;0.4835;0.8010;
1112.4000;0.4819;0.7859;
1112.7000;0.4803;0.7783;
1113.0000;0.4786;0.7834;
1113.3000;0.4778;0.7783;
1113.6000;0.4778;0.7758;
1113.9000;0.4786;0.7884;
1114.2000;0.4778;0.7808;
1114.5000;0.4794;0.7859;
1114.8000;0.4803;0.7884;
1115.1000;0.4803;0.7985;
1115.4000;0.4778;0.7985;
1115.7000;0.4786;0.7985;
1116.0000;0.4794;0.8035;
1116.3000;0.4770;0.8010;
1116.6000;0.4786;0.8035;
1116.9000;0.4794;0.8111;
1117.2000;0.4811;0.8111;
1117.5000;0.4794;0.8035;
1117.8000;0.4794;0.7960;
1118.1000;0.4778;0.7960;
1118.4000;0.4794;0.8111;
1118.7000;0.4778;0.8060;
1119.0000;0.4794;0.8035;
1119.3000;0.4794;0.8035;
1119.6000;0.4794;0.8035;
1119.9000;0.4811;0.8010;
1120.2000;0.4803;0.8136;
1120.5000;0.4803;0.8086;
1120.8000;0.4811;0.8086;
1121.1000;0.4803;0.8136;
1121.4000;0.4803;0.8060;
1121.7000;0.4786;0.8010;
1122.0000;0.4794;0.7934;
1122.3000;0.4794;0.8086;
1122.6000;0.4803;0.8111;
1122.9000;0.4794;0.8136;
1123.2000;0.4778;0.8136;
1123.5000;0.4786;0.8136;
1123.8000;0.4803;0.8111;
1124.1000;0.4803;0.8136;
1124.4000;0.4868;0.8388;
1124.7000;0.4794;0.8035;
1125.0000;0.4786;0.7934;
1125.3000;0.4786;0.7960;
1125.6000;0.4811;0.7884;
1125.9000;0.4811;0.7884;
1126.2000;0.4811;0.7909;
1126.5000;0.4819;0.8035;
1126.8000;0.4811;0.8086;
1127.1000;0.4794;0.8111;
1127.4000;0.4754;0.7960;
1127.7000;0.4819;0.8060;
1128.0000;0.4803;0.7985;
1128.3000;0.4778;0.7934;
1128.6000;0.4786;0.7960;
1128.9000;0.4868;0.8111;
1129.2000;0.4737;0.7783;
1129.5000;0.4786;0.7859;
1129.8000;0.4786;0.7859;
1130.1000;0.4811;0.7884;
1130.4000;0.4794;0.7783;
1130.7000;0.4811;0.7909;
1131.0000;0.4794;0.7834;
1131.3000;0.4819;0.7834;
1131.6000;0.4851;0.7934;
1131.9000;0.4794;0.7783;
1132.2000;0.4737;0.7582;
1132.5000;0.4803;0.7859;
1132.8000;0.4884;0.8086;
1133.1000;0.4811;0.7783;
1133.4000;0.4843;0.7884;
1133.7000;0.4786;0.7758;
1134.0000;0.4803;0.7708;
1134.3000;0.4794;0.7758;
1134.6000;0.4729;0.7582;
1134.9000;0.4786;0.7783;
1135.2000;0.4770;0.7859;
1135.5000;0.4778;0.7859;
1135.8000;0.4794;0.7859;
1136.1000;0.4803;0.7859;
1136.4000;0.4827;0.7859;
1136.7000;0.4794;0.7758;
1137.0000;0.4778;0.7758;
1137.3000;0.4786;0.7758;
1137.6000;0.4819;0.7783;
1137.9000;0.4811;0.7783;
1138.2000;0.4803;0.7808;
1138.5000;0.4803;0.7808;
1138.8000;0.4819;0.7834;
1139.1000;0.4811;0.7909;
1139.4000;0.4778;0.7884;
1139.7000;0.4786;0.7859;
1140.0000;0.4794;0.7783;
1140.3000;0.4827;0.7909;
1140.6000;0.4794;0.7708;
1140.9000;0.4794;0.7632;
1141.2000;0.4786;0.7632;
1141.5000;0.4794;0.7682;
1141.8000;0.4786;0.7682;
1142.1000;0.4827;0.7783;
1142.4000;0.4770;0.7733;
1142.7000;0.4803;0.7783;
1143.0000;0.4811;0.7783;
1143.3000;0.4786;0.7708;
1143.6000;0.4794;0.7783;
1143.9000;0.4786;0.7758;
1144.2000;0.4794;0.7733;
1144.5000;0.4794;0.7758;
1144.8000;0.4794;0.7783;
1145.1000;0.4762;0.7682;
1145.4000;0.4819;0.7909;
1145.7000;0.4794;0.7934;
1146.0000;0.4778;0.7859;
1146.3000;0.4778;0.7909;
1146.6000;0.4811;0.7934;
1146.9000;0.4786;0.7960;
1147.2000;0.4778;0.7960;
1147.5000;0.4778;0.8010;
1147.8000;0.4803;0.8010;
1148.1000;0.4811;0.8010;
1148.4000;0.4786;0.7884;
1148.7000;0.4786;0.7985;
1149.0000;0.4762;0.7985;
1149.3000;0.4811;0.8086;
1149.6000;0.4794;0.8035;
1149.9000;0.4811;0.8136;
1150.2000;0.4786;0.8060;
1150.5000;0.4778;0.7985;
1150.8000;0.4778;0.8086;
1151.1000;0.4762;0.7960;
1151.4000;0.4737;0.7859;
1151.7000;0.4786;0.8010;
1152.0000;0.4729;0.7859;
1152.3000;0.4794;0.8086;
1152.6000;0.4794;0.8035;
1152.9000;0.4819;0.8211;
1153.2000;0.4778;0.8086;
1153.5000;0.4786;0.8111;
1153.8000;0.4770;0.8060;
1154.1000;0.4778;0.7985;
1154.4000;0.4778;0.7859;
1154.7000;0.4778;0.7859;
1155.0000;0.4770;0.7884;
1155.3000;0.4794;0.7934;
1155.6000;0.4778;0.7859;
1155.9000;0.4737;0.7708;
1156.2000;0.4803;0.7985;
1156.5000;0.4737;0.7909;
1156.8000;0.4811;0.8060;
1157.1000;0.4827;0.8111;
1157.4000;0.4827;0.8186;
1157.7000;0.4811;0.8060;
1158.0000;0.4648;0.7733;
1158.3000;0.4827;0.8262;
1158.6000;0.4803;0.8186;
1158.9000;0.4811;0.8136;
1159.2000;0.4794;0.8136;
1159.5000;0.4811;0.8186;
1159.8000;0.4746;0.7884;
1160.1000;0.4811;0.7909;
1160.4000;0.4786;0.7934;
1160.7000;0.4794;0.7934;
1161.0000;0.4770;0.7985;
1161.3000;0.4794;0.8060;
1161.6000;0.4770;0.8111;
1161.9000;0.4794;0.8111;
1162.2000;0.4770;0.8161;
1162.5000;0.4794;0.8186;
1162.8000;0.4803;0.8211;
1163.1000;0.4803;0.8211;
1163.4000;0.4811;0.8237;
1163.7000;0.4794;0.8312;
1164.0000;0.4794;0.8312;
1164.3000;0.4811;0.8363;
1164.6000;0.4778;0.8287;
1164.9000;0.4794;0.8262;
1165.2000;0.4778;0.8186;
1165.5000;0.4786;0.8186;
1165.8000;0.4778;0.8111;
1166.1000;0.4778;0.8136;
1166.4000;0.4786;0.8237;
1166.7000;0.4778;0.8262;
1167.0000;0.4803;0.8388;
1167.3000;0.4803;0.8463;
1167.6000;0.4786;0.8489;
1167.9000;0.4762;0.8438;
1168.2000;0.4762;0.8514;
1168.5000;0.4770;0.8463;
1168.8000;0.4786;0.8514;
1169.1000;0.4754;0.8438;
1169.4000;0.4746;0.8413;
1169.7000;0.4794;0.8564;
1170.0000;0.4794;0.8514;
1170.3000;0.4762;0.8363;
1170.6000;0.4794;0.8413;
1170.9000;0.4827;0.8463;
1171.2000;0.4794;0.8413;
1171.5000;0.4811;0.8413;
1171.8000;0.4794;0.8312;
1172.1000;0.4770;0.8211;
1172.4000;0.4794;0.8287;
1172.7000;0.4778;0.8136;
1173.0000;0.4786;0.8211;
1173.3000;0.4819;0.8287;
1173.6000;0.4778;0.8262;
1173.9000;0.4811;0.8337;
1174.2000;0.4746;0.8161;
1174.5000;0.4819;0.8337;
1174.8000;0.4794;0.8287;
1175.1000;0.4794;0.8237;
1175.4000;0.4803;0.8363;
1175.7000;0.4746;0.8136;
1176.0000;0.4770;0.8186;
1176.3000;0.4770;0.8161;
1176.6000;0.4786;0.8237;
1176.9000;0.4681;0.7960;
1177.2000;0.4786;0.8287;
1177.5000;0.4794;0.8337;
1177.8000;0.4811;0.8388;
1178.1000;0.4770;0.8262;
1178.4000;0.4762;0.8237;
1178.7000;0.4778;0.8337;
1179.0000;0.4786;0.8287;
1179.3000;0.4827;0.8312;
1179.6000;0.4794;0.8211;
1179.9000;0.4876;0.8413;
1180.2000;0.4827;0.8337;
1180.5000;0.4754;0.8237;
1180.8000;0.4803;0.8337;
1181.1000;0.4770;0.8363;
1181.4000;0.4786;0.8363;
1181.7000;0.4754;0.8312;
1182.0000;0.4737;0.8211;
1182.3000;0.4803;0.8363;
1182.6000;0.4794;0.8337;
1182.9000;0.4811;0.8489;
1183.2000;0.4778;0.8337;
1183.5000;0.4860;0.8539;
1183.8000;0.4786;0.8413;
1184.1000;0.4786;0.8337;
1184.4000;0.4778;0.8312;
1184.7000;0.4803;0.8312;
1185.0000;0.4811;0.8413;
1185.3000;0.4794;0.8413;
1185.6000;0.4778;0.8363;
1185.9000;0.4794;0.8413;
1186.2000;0.4794;0.8438;
1186.5000;0.4778;0.8337;
1186.8000;0.4803;0.8337;
1187.1000;0.4786;0.8262;
1187.4000;0.4803;0.8312;
1187.7000;0.4803;0.8312;
1188.0000;0.4778;0.8237;
1188.3000;0.4794;0.8287;
1188.6000;0.4803;0.8287;
1188.9000;0.4786;0.8337;
1189.2000;0.4803;0.8337;
1189.5000;0.4794;0.8388;
1189.8000;0.4803;0.8413;
1190.1000;0.4794;0.8438;
1190.4000;0.4803;0.8539;
1190.7000;0.4770;0.8514;
1191.0000;0.4794;0.8614;
1191.3000;0.4794;0.8614;
1191.6000;0.4786;0.8589;
1191.9000;0.4794;0.8514;
1192.2000;0.4778;0.8463;
1192.5000;0.4803;0.8539;
1192.8000;0.4754;0.8489;
1193.1000;0.4778;0.8463;
1193.4000;0.4778;0.8438;
1193.7000;0.4811;0.8463;
1194.0000;0.4827;0.8514;
1194.3000;0.4843;0.8614;
1194.6000;0.4811;0.8463;
1194.9000;0.4762;0.8337;
1195.2000;0.4794;0.8539;
1195.5000;0.4794;0.8413;
1195.8000;0.4794;0.8388;
1196.1000;0.4786;0.8262;
1196.4000;0.4843;0.8337;
1196.7000;0.4786;0.8312;
1197.0000;0.4794;0.8337;
1197.3000;0.4794;0.8287;
1197.6000;0.4803;0.8312;
1197.9000;0.4786;0.8287;
1198.2000;0.4803;0.8262;
1198.5000;0.4794;0.8186;
1198.8000;0.4819;0.8186;
1199.1000;0.4803;0.8161;
1199.4000;0.4803;0.8211;
1199.7000;0.4803;0.8237;
1200.0000;0.4786;0.8237;
1200.3000;0.4811;0.8287;
1200.6000;0.4786;0.8111;
1200.9000;0.4786;0.8010;
1201.2000;0.4770;0.8035;
1201.5000;0.4786;0.8086;
1201.8000;0.4786;0.8060;
1202.1000;0.4770;0.8136;
1202.4000;0.4786;0.8111;
1202.7000;0.4778;0.8086;
1203.0000;0.4835;0.8136;
1203.3000;0.4786;0.8111;
1203.6000;0.4786;0.8035;
1203.9000;0.4786;0.8010;
1204.2000;0.4794;0.8010;
1204.5000;0.4811;0.8060;
1204.8000;0.4794;0.8136;
1205.1000;0.4794;0.8136;
1205.4000;0.4794;0.8111;
1205.7000;0.4762;0.8060;
1206.0000;0.4811;0.8262;
1206.3000;0.4786;0.8161;
1206.6000;0.4794;0.8186;
1206.9000;0.4786;0.8111;
1207.2000;0.4770;0.8060;
1207.5000;0.4786;0.8060;
1207.8000;0.4786;0.8161;
1208.1000;0.4803;0.8161;
1208.4000;0.4794;0.8211;
1208.7000;0.4803;0.8262;
1209.0000;0.4803;0.8312;
1209.3000;0.4803;0.8312;
1209.6000;0.4827;0.8438;
1209.9000;0.4762;0.8413;
1210.2000;0.4811;0.8564;
1210.5000;0.4778;0.8463;
1210.8000;0.4803;0.8489;
1211.1000;0.4754;0.8262;
1211.4000;0.4794;0.8539;
1211.7000;0.4786;0.8463;
1212.0000;0.4770;0.8388;
1212.3000;0.4794;0.8388;
1212.6000;0.4770;0.8363;
1212.9000;0.4811;0.8463;
1213.2000;0.4811;0.8514;
1213.5000;0.4794;0.8438;
1213.8000;0.4803;0.8514;
1214.1000;0.4803;0.8413;
1214.4000;0.4819;0.8413;
1214.7000;0.4819;0.8438;
1215.0000;0.4794;0.8388;
1215.3000;0.4827;0.8463;
1215.6000;0.4860;0.8614;
1215.9000;0.4819;0.8388;
1216.2000;0.4794;0.8413;
1216.5000;0.4794;0.8413;
1216.8000;0.4786;0.8438;
1217.1000;0.4786;0.8413;
1217.4000;0.4786;0.8388;
1217.7000;0.4770;0.8337;
1218.0000;0.4794;0.8438;
1218.3000;0.4843;0.8413;
1218.6000;0.4794;0.8337;
1218.9000;0.4786;0.8237;
1219.2000;0.4860;0.8438;
1219.5000;0.4794;0.8237;
1219.8000;0.4794;0.8186;
1220.1000;0.4827;0.8363;
1220.4000;0.4794;0.8413;
1220.7000;0.4803;0.8463;
1221.0000;0.4803;0.8438;
1221.3000;0.4786;0.8337;
1221.6000;0.4794;0.8388;
1221.9000;0.4794;0.8438;
1222.2000;0.4770;0.8413;
1222.5000;0.4778;0.8363;
1222.8000;0.4835;0.8564;
1223.1000;0.4794;0.8262;
1223.4000;0.4794;0.8237;
1223.7000;0.4835;0.8287;
1224.0000;0.4786;0.8262;
1224.3000;0.4803;0.8287;
1224.6000;0.4811;0.8237;
1224.9000;0.4786;0.8237;
1225.2000;0.4786;0.8136;
1225.5000;0.4786;0.8161;
1225.8000;0.4794;0.8186;
1226.1000;0.4778;0.8262;
1226.4000;0.4778;0.8337;
1226.7000;0.4794;0.8337;
1227.0000;0.4819;0.8413;
1227.3000;0.4778;0.8363;
1227.6000;0.4794;0.8438;
1227.9000;0.4778;0.8438;
1228.2000;0.4786;0.8438;
1228.5000;0.4778;0.8463;
1228.8000;0.4786;0.8539;
1229.1000;0.4778;0.8514;
1229.4000;0.4794;0.8539;
1229.7000;0.4794;0.8539;
1230.0000;0.4786;0.8589;
1230.3000;0.4786;0.8514;
1230.6000;0.4786;0.8463;
1230.9000;0.4794;0.8463;
1231.2000;0.4770;0.8463;
1231.5000;0.4786;0.8539;
1231.8000;0.4803;0.8614;
1232.1000;0.4786;0.8539;
1232.4000;0.4786;0.8564;
1232.7000;0.4778;0.8640;
1233.0000;0.4786;0.8640;
1233.3000;0.4794;0.8640;
1233.6000;0.4794;0.8715;
1233.9000;0.4803;0.8690;
1234.2000;0.4819;0.8690;
1234.5000;0.4803;0.8665;
1234.8000;0.4827;0.8690;
1235.1000;0.4778;0.8514;
1235.4000;0.4803;0.8463;
1235.7000;0.4786;0.8438;
1236.0000;0.4794;0.8413;
1236.3000;0.4819;0.8413;
1236.6000;0.4778;0.8438;
1236.9000;0.4794;0.8438;
1237.2000;0.4811;0.8438;
1237.5000;0.4786;0.8337;
1237.8000;0.4786;0.8388;
1238.1000;0.4827;0.8514;
1238.4000;0.4803;0.8413;
1238.7000;0.4754;0.8312;
1239.0000;0.4778;0.8337;
1239.3000;0.4754;0.8388;
1239.6000;0.4794;0.8539;
1239.9000;0.4803;0.8614;
1240.2000;0.4794;0.8564;
1240.5000;0.4778;0.8463;
1240.8000;0.4778;0.8363;
1241.1000;0.4794;0.8413;
1241.4000;0.4778;0.8463;
1241.7000;0.4778;0.8388;
1242.0000;0.4770;0.8388;
1242.3000;0.4786;0.8287;
1242.6000;0.4778;0.8337;
1242.9000;0.4713;0.8161;
1243.2000;0.4770;0.8237;
1243.5000;0.4819;0.8312;
1243.8000;0.4803;0.8312;
1244.1000;0.4811;0.8337;
1244.4000;0.4786;0.8312;
1244.7000;0.4900;0.8614;
1245.0000;0.4786;0.8413;
1245.3000;0.4794;0.8438;
1245.6000;0.4803;0.8489;
1245.9000;0.4786;0.8539;
1246.2000;0.4803;0.8539;
1246.5000;0.4794;0.8514;
1246.8000;0.4746;0.8287;
1247.1000;0.4786;0.8463;
1247.4000;0.4786;0.8337;
1247.7000;0.4794;0.8262;
1248.0000;0.4770;0.8237;
1248.3000;0.4786;0.8262;
1248.6000;0.4786;0.8363;
1248.9000;0.4786;0.8388;
1249.2000;0.4778;0.8388;
1249.5000;0.4770;0.8413;
1249.8000;0.4786;0.8564;
1250.1000;0.4786;0.8640;
1250.4000;0.4778;0.8564;
1250.7000;0.4778;0.8539;
1251.0000;0.4786;0.8463;
1251.3000;0.4786;0.8489;
1251.6000;0.4778;0.8514;
1251.9000;0.4786;0.8514;
1252.2000;0.4803;0.8589;
1252.5000;0.4786;0.8489;
1252.8000;0.4794;0.8388;
1253.1000;0.4770;0.8388;
1253.4000;0.4786;0.8388;
1253.7000;0.4786;0.8312;
1254.0000;0.4786;0.8337;
1254.3000;0.4803;0.8337;
1254.6000;0.4786;0.8363;
1254.9000;0.4786;0.8413;
1255.2000;0.4770;0.8363;
1255.5000;0.4786;0.8337;
1255.8000;0.4778;0.8337;
1256.1000;0.4778;0.8237;
1256.4000;0.4794;0.8287;
1256.7000;0.4786;0.8388;
1257.0000;0.4794;0.8388;
1257.3000;0.4786;0.8363;
1257.6000;0.4794;0.8388;
1257.9000;0.4786;0.8438;
1258.2000;0.4786;0.8388;
1258.5000;0.4770;0.8413;
1258.8000;0.4794;0.8489;
1259.1000;0.4794;0.8388;
1259.4000;0.4786;0.8413;
1259.7000;0.4786;0.8388;
1260.0000;0.4794;0.8438;
1260.3000;0.4851;0.8489;
1260.6000;0.4778;0.8363;
1260.9000;0.4794;0.8312;
1261.2000;0.4794;0.8211;
1261.5000;0.4786;0.8186;
1261.8000;0.4803;0.8161;
1262.1000;0.4778;0.8086;
1262.4000;0.4786;0.8136;
1262.7000;0.4794;0.8237;
1263.0000;0.4786;0.8237;
1263.3000;0.4794;0.8312;
1263.6000;0.4811;0.8337;
1263.9000;0.4794;0.8262;
1264.2000;0.4786;0.8186;
1264.5000;0.4794;0.8161;
1264.8000;0.4819;0.8161;
1265.1000;0.4786;0.8161;
1265.4000;0.4811;0.8211;
1265.7000;0.4786;0.8211;
1266.0000;0.4803;0.8211;
1266.3000;0.4786;0.8136;
1266.6000;0.4803;0.8161;
1266.9000;0.4786;0.8161;
1267.2000;0.4819;0.8312;
1267.5000;0.4811;0.8337;
1267.8000;0.4803;0.8337;
1268.1000;0.4811;0.8363;
1268.4000;0.4811;0.8262;
1268.7000;0.4803;0.8312;
1269.0000;0.4803;0.8337;
1269.3000;0.4811;0.8363;
1269.6000;0.4786;0.8237;
1269.9000;0.4811;0.8287;
1270.2000;0.4762;0.8161;
1270.5000;0.4794;0.8211;
1270.8000;0.4794;0.8262;
1271.1000;0.4794;0.8237;
1271.4000;0.4786;0.8211;
1271.7000;0.4770;0.8161;
1272.0000;0.4778;0.8136;
1272.3000;0.4770;0.8086;
1272.6000;0.4794;0.8136;
1272.9000;0.4762;0.8211;
1273.2000;0.4778;0.8287;
1273.5000;0.4778;0.8363;
1273.8000;0.4786;0.8388;
1274.1000;0.4770;0.8337;
1274.4000;0.4786;0.8388;
1274.7000;0.4778;0.8312;
1275.0000;0.4786;0.8312;
1275.3000;0.4803;0.8388;
1275.6000;0.4786;0.8363;
1275.9000;0.4811;0.8388;
1276.2000;0.4794;0.8413;
1276.5000;0.4697;0.8186;
1276.8000;0.4770;0.8438;
1277.1000;0.4811;0.8564;
1277.4000;0.4778;0.8438;
1277.7000;0.4786;0.8413;
1278.0000;0.4803;0.8463;
1278.3000;0.4794;0.8489;
1278.6000;0.4794;0.8413;
1278.9000;0.4778;0.8413;
1279.2000;0.4762;0.8312;
1279.5000;0.4827;0.8463;
1279.8000;0.4811;0.8388;
1280.1000;0.4811;0.8363;
1280.4000;0.4803;0.8363;
1280.7000;0.4811;0.8388;
1281.0000;0.4819;0.8413;
1281.3000;0.4811;0.8388;
1281.6000;0.4778;0.8312;
1281.9000;0.4786;0.8337;
1282.2000;0.4778;0.8312;
1282.5000;0.4713;0.8086;
1282.8000;0.4794;0.8363;
1283.1000;0.4786;0.8363;
1283.4000;0.4786;0.8413;
1283.7000;0.4754;0.8287;
1284.0000;0.4737;0.8161;
1284.3000;0.4803;0.8337;
1284.6000;0.4803;0.8262;
1284.9000;0.4786;0.8186;
1285.2000;0.4794;0.8211;
1285.5000;0.4803;0.8211;
1285.8000;0.4786;0.8287;
1286.1000;0.4811;0.8337;
1286.4000;0.4794;0.8237;
1286.7000;0.4794;0.8211;
1287.0000;0.4754;0.8060;
1287.3000;0.4762;0.8060;
1287.6000;0.4721;0.7985;
1287.9000;0.4778;0.8136;
1288.2000;0.4794;0.8186;
1288.5000;0.4778;0.8136;
1288.8000;0.4786;0.8211;
1289.1000;0.4811;0.8237;
1289.4000;0.4778;0.8186;
1289.7000;0.4770;0.8111;
1290.0000;0.4803;0.8312;
1290.3000;0.4794;0.8237;
1290.6000;0.4794;0.8161;
1290.9000;0.4794;0.8136;
1291.2000;0.4884;0.8388;
1291.5000;0.4786;0.8161;
1291.8000;0.4737;0.7985;
1292.1000;0.4778;0.8136;
1292.4000;0.4778;0.8086;
1292.7000;0.4705;0.7909;
1293.0000;0.4843;0.8312;
1293.3000;0.4737;0.8060;
1293.6000;0.4786;0.8161;
1293.9000;0.4778;0.8287;
1294.2000;0.4786;0.8363;
1294.5000;0.4786;0.8363;
1294.8000;0.4803;0.8388;
1295.1000;0.4770;0.8287;
1295.4000;0.4770;0.8287;
1295.7000;0.4770;0.8312;
1296.0000;0.4803;0.8262;
1296.3000;0.4803;0.8312;
1296.6000;0.4778;0.8287;
1296.9000;0.4770;0.8337;
1297.2000;0.4794;0.8388;
1297.5000;0.4778;0.8363;
1297.8000;0.4803;0.8337;
1298.1000;0.4746;0.8237;
1298.4000;0.4786;0.8388;
1298.7000;0.4794;0.8312;
1299.0000;0.4786;0.8287;
1299.3000;0.4778;0.8287;
1299.6000;0.4794;0.8312;
1299.9000;0.4786;0.8262;
1300.2000;0.4770;0.8136;
1300.5000;0.4786;0.8186;
1300.8000;0.4778;0.8136;
1301.1000;0.4811;0.8161;
1301.4000;0.4778;0.8111;
1301.7000;0.4794;0.8186;
1302.0000;0.4778;0.8161;
1302.3000;0.4762;0.8010;
1302.6000;0.4770;0.8060;
1302.9000;0.4786;0.8111;
1303.2000;0.4786;0.8161;
1303.5000;0.4794;0.8111;
1303.8000;0.4778;0.8035;
1304.1000;0.4794;0.8086;
1304.4000;0.4786;0.8086;
1304.7000;0.4794;0.8186;
1305.0000;0.4811;0.8211;
1305.3000;0.4786;0.8086;
1305.6000;0.4778;0.8111;
1305.9000;0.4803;0.8161;
1306.2000;0.4819;0.8186;
1306.5000;0.4794;0.8237;
1306.8000;0.4786;0.8262;
1307.1000;0.4721;0.8010;
1307.4000;0.4794;0.8287;
1307.7000;0.4786;0.8312;
1308.0000;0.4794;0.8287;
1308.3000;0.4794;0.8262;
1308.6000;0.4794;0.8237;
1308.9000;0.4786;0.8186;
1309.2000;0.4762;0.8111;
1309.5000;0.4803;0.8237;
1309.8000;0.4786;0.8262;
1310.1000;0.4811;0.8413;
1310.4000;0.4778;0.8413;
1310.7000;0.4794;0.8438;
1311.0000;0.4778;0.8312;
1311.3000;0.4835;0.8413;
1311.6000;0.4778;0.8337;
1311.9000;0.4803;0.8337;
1312.2000;0.4786;0.8489;
1312.5000;0.4811;0.8463;
1312.8000;0.4819;0.8539;
1313.1000;0.4778;0.8337;
1313.4000;0.4827;0.8312;
1313.7000;0.4803;0.8136;
1314.0000;0.4786;0.8111;
1314.3000;0.4746;0.7985;
1314.6000;0.4778;0.8136;
1314.9000;0.4835;0.8211;
1315.2000;0.4803;0.8111;
1315.5000;0.4803;0.8035;
1315.8000;0.4819;0.8211;
1316.1000;0.4786;0.8111;
1316.4000;0.4786;0.8186;
1316.7000;0.4786;0.8211;
1317.0000;0.4778;0.8136;
1317.3000;0.4819;0.8287;
1317.6000;0.4811;0.8211;
1317.9000;0.4762;0.8111;
1318.2000;0.4754;0.8035;
1318.5000;0.4770;0.8086;
1318.8000;0.4770;0.8060;
1319.1000;0.4778;0.8111;
1319.4000;0.4794;0.8161;
1319.7000;0.4770;0.8136;
1320.0000;0.4794;0.8312;
1320.3000;0.4778;0.8161;
1320.6000;0.4786;0.8136;
1320.9000;0.4786;0.8211;
1321.2000;0.4754;0.8161;
1321.5000;0.4786;0.8287;
1321.8000;0.4778;0.8287;
1322.1000;0.4770;0.8262;
1322.4000;0.4778;0.8287;
1322.7000;0.4803;0.8312;
1323.0000;0.4786;0.8337;
1323.3000;0.4786;0.8211;
1323.6000;0.4803;0.8237;
1323.9000;0.4803;0.8287;
1324.2000;0.4827;0.8287;
1324.5000;0.4786;0.8237;
1324.8000;0.4778;0.8287;
1325.1000;0.4770;0.8211;
1325.4000;0.4803;0.8287;
1325.7000;0.4778;0.8211;
1326.0000;0.4778;0.8161;
1326.3000;0.4770;0.8287;
1326.6000;0.4794;0.8363;
1326.9000;0.4786;0.8388;
1327.2000;0.4811;0.8438;
1327.5000;0.4876;0.8715;
1327.8000;0.4786;0.8489;
1328.1000;0.4851;0.8690;
1328.4000;0.4778;0.8438;
1328.7000;0.4778;0.8388;
1329.0000;0.4786;0.8262;
1329.3000;0.4803;0.8262;
1329.6000;0.4770;0.8136;
1329.9000;0.4794;0.8136;
1330.2000;0.4811;0.8237;
1330.5000;0.4786;0.8136;
1330.8000;0.4786;0.8161;
1331.1000;0.4778;0.8237;
1331.4000;0.4811;0.8337;
1331.7000;0.4778;0.8312;
1332.0000;0.4794;0.8363;
1332.3000;0.4811;0.8438;
1332.6000;0.4811;0.8463;
1332.9000;0.4794;0.8337;
1333.2000;0.4770;0.8237;
1333.5000;0.4811;0.8237;
1333.8000;0.4884;0.8438;
1334.1000;0.4786;0.8161;
1334.4000;0.4803;0.8262;
1334.7000;0.4786;0.8237;
1335.0000;0.4786;0.8211;
1335.3000;0.4794;0.8237;
1335.6000;0.4803;0.8186;
1335.9000;0.4737;0.8086;
1336.2000;0.4786;0.8211;
1336.5000;0.4794;0.8086;
1336.8000;0.4794;0.8035;
1337.1000;0.4794;0.8161;
1337.4000;0.4794;0.8060;
1337.7000;0.4778;0.8111;
1338.0000;0.4786;0.8262;
1338.3000;0.4778;0.8312;
1338.6000;0.4778;0.8211;
1338.9000;0.4786;0.8211;
1339.2000;0.4794;0.8161;
1339.5000;0.4794;0.8136;
1339.8000;0.4794;0.8262;
1340.1000;0.4786;0.8287;
1340.4000;0.4778;0.8337;
1340.7000;0.4819;0.8388;
1341.0000;0.4729;0.8111;
1341.3000;0.4778;0.8312;
1341.6000;0.4803;0.8287;
1341.9000;0.4786;0.8337;
1342.2000;0.4803;0.8413;
1342.5000;0.4786;0.8337;
1342.8000;0.4786;0.8312;
1343.1000;0.4803;0.8413;
1343.4000;0.4770;0.8312;
1343.7000;0.4786;0.8312;
1344.0000;0.4803;0.8312;
1344.3000;0.4803;0.8312;
1344.6000;0.4786;0.8237;
1344.9000;0.4811;0.8211;
1345.2000;0.4762;0.8086;
1345.5000;0.4786;0.8211;
1345.8000;0.4786;0.8337;
1346.1000;0.4860;0.8514;
1346.4000;0.4762;0.8287;
1346.7000;0.4794;0.8388;
1347.0000;0.4786;0.8337;
1347.3000;0.4794;0.8413;
1347.6000;0.4794;0.8363;
1347.9000;0.4786;0.8287;
1348.2000;0.4794;0.8363;
1348.5000;0.4819;0.8438;
1348.8000;0.4811;0.8388;
1349.1000;0.4786;0.8186;
1349.4000;0.4803;0.8161;
1349.7000;0.4786;0.8136;
1350.0000;0.4803;0.8136;
1350.3000;0.4843;0.8237;
1350.6000;0.4794;0.8237;
1350.9000;0.4794;0.8262;
1351.2000;0.4819;0.8413;
1351.5000;0.4770;0.8262;
1351.8000;0.4786;0.8363;
1352.1000;0.4786;0.8337;
1352.4000;0.4778;0.8363;
1352.7000;0.4786;0.8312;
1353.0000;0.4778;0.8287;
1353.3000;0.4754;0.8262;
1353.6000;0.4778;0.8262;
1353.9000;0.4778;0.8211;
1354.2000;0.4794;0.8161;
1354.5000;0.4778;0.8111;
1354.8000;0.4786;0.8186;
1355.1000;0.4770;0.8262;
1355.4000;0.4778;0.8337;
1355.7000;0.4794;0.8363;
1356.0000;0.4794;0.8337;
1356.3000;0.4803;0.8312;
1356.6000;0.4811;0.8337;
1356.9000;0.4786;0.8388;
1357.2000;0.4794;0.8463;
1357.5000;0.4794;0.8413;
1357.8000;0.4778;0.8388;
1358.1000;0.4786;0.8413;
1358.4000;0.4794;0.8438;
1358.7000;0.4835;0.8564;
1359.0000;0.4786;0.8363;
1359.3000;0.4794;0.8312;
1359.6000;0.4803;0.8237;
1359.9000;0.4786;0.8237;
1360.2000;0.4803;0.8287;
1360.5000;0.4803;0.8262;
1360.8000;0.4762;0.8136;
1361.1000;0.4794;0.8211;
1361.4000;0.4786;0.8237;
1361.7000;0.4803;0.8287;
1362.0000;0.4770;0.8211;
1362.3000;0.4794;0.8237;
1362.6000;0.4778;0.8161;
1362.9000;0.4803;0.8237;
1363.2000;0.4778;0.8186;
1363.5000;0.4786;0.8312;
1363.8000;0.4794;0.8363;
1364.1000;0.4746;0.8287;
1364.4000;0.4770;0.8287;
1364.7000;0.4786;0.8363;
1365.0000;0.4794;0.8363;
1365.3000;0.4786;0.8287;
1365.6000;0.4778;0.8388;
1365.9000;0.4892;0.8665;
1366.2000;0.4786;0.8413;
1366.5000;0.4778;0.8337;
1366.8000;0.4786;0.8312;
1367.1000;0.4778;0.8186;
1367.4000;0.4794;0.8136;
1367.7000;0.4778;0.8060;
1368.0000;0.4770;0.8010;
1368.3000;0.4819;0.8161;
1368.6000;0.4794;0.8111;
1368.9000;0.4794;0.8086;
1369.2000;0.4803;0.8035;
1369.5000;0.4794;0.7960;
1369.8000;0.4794;0.8035;
1370.1000;0.4794;0.8035;
1370.4000;0.4794;0.8161;
1370.7000;0.4786;0.8161;
1371.0000;0.4794;0.8312;
1371.3000;0.4819;0.8413;
1371.6000;0.4754;0.8287;
1371.9000;0.4778;0.8363;
1372.2000;0.4794;0.8413;
1372.5000;0.4778;0.8363;
1372.8000;0.4786;0.8237;
1373.1000;0.4778;0.8161;
1373.4000;0.4786;0.8161;
1373.7000;0.4786;0.8161;
1374.0000;0.4778;0.8111;
1374.3000;0.4786;0.8161;
1374.6000;0.4770;0.8136;
1374.9000;0.4778;0.8186;
1375.2000;0.4794;0.8086;
1375.5000;0.4786;0.8136;
1375.8000;0.4762;0.8035;
1376.1000;0.4794;0.8237;
1376.4000;0.4762;0.8186;
1376.7000;0.4778;0.8237;
1377.0000;0.4794;0.8237;
1377.3000;0.4803;0.8312;
1377.6000;0.4762;0.8337;
1377.9000;0.4794;0.8463;
1378.2000;0.4778;0.8413;
1378.5000;0.4770;0.8363;
1378.8000;0.4803;0.8564;
1379.1000;0.4803;0.8564;
1379.4000;0.4786;0.8539;
1379.7000;0.4786;0.8489;
1380.0000;0.4770;0.8287;
1380.3000;0.4786;0.8237;
1380.6000;0.4803;0.8262;
1380.9000;0.4786;0.8237;
1381.2000;0.4794;0.8312;
1381.5000;0.4827;0.8413;
1381.8000;0.4803;0.8438;
1382.1000;0.4794;0.8489;
1382.4000;0.4819;0.8489;
1382.7000;0.4803;0.8363;
1383.0000;0.4803;0.8287;
1383.3000;0.4794;0.8287;
1383.6000;0.4811;0.8388;
1383.9000;0.4746;0.8161;
1384.2000;0.4786;0.8363;
1384.5000;0.4786;0.8312;
1384.8000;0.4786;0.8388;
1385.1000;0.4803;0.8388;
1385.4000;0.4803;0.8489;
1385.7000;0.4786;0.8438;
1386.0000;0.4819;0.8463;
1386.3000;0.4819;0.8438;
1386.6000;0.4786;0.8413;
1386.9000;0.4803;0.8463;
1387.2000;0.4786;0.8363;
1387.5000;0.4778;0.8363;
1387.8000;0.4819;0.8388;
1388.1000;0.4721;0.8161;
1388.4000;0.4778;0.8312;
1388.7000;0.4770;0.8363;
1389.0000;0.4794;0.8363;
1389.3000;0.4762;0.8237;
1389.6000;0.4811;0.8388;
1389.9000;0.4778;0.8363;
1390.2000;0.4754;0.8287;
1390.5000;0.4778;0.8388;
1390.8000;0.4786;0.8463;
1391.1000;0.4737;0.8287;
1391.4000;0.4754;0.8363;
1391.7000;0.4737;0.8363;
1392.0000;0.4778;0.8463;
1392.3000;0.4770;0.8463;
1392.6000;0.4786;0.8463;
1392.9000;0.4778;0.8413;
1393.2000;0.4827;0.8539;
1393.5000;0.4778;0.8413;
1393.8000;0.4803;0.8463;
1394.1000;0.4786;0.8388;
1394.4000;0.4762;0.8388;
1394.7000;0.4778;0.8438;
1395.0000;0.4778;0.8337;
1395.3000;0.4770;0.8388;
1395.6000;0.4746;0.8363;
1395.9000;0.4778;0.8413;
1396.2000;0.4737;0.8262;
1396.5000;0.4778;0.8287;
1396.8000;0.4794;0.8337;
1397.1000;0.4770;0.8438;
1397.4000;0.4786;0.8438;
1397.7000;0.4794;0.8463;
1398.0000;0.4803;0.8413;
1398.3000;0.4794;0.8463;
1398.6000;0.4778;0.8438;
1398.9000;0.4786;0.8363;
1399.2000;0.4835;0.8463;
1399.5000;0.4786;0.8312;
1399.8000;0.4778;0.8262;
