time/ms;Fluo/V;P700 deltaI/I x10³;
-199.8000;0.4860;0.5718;
-199.5000;0.4811;0.5617;
-199.2000;0.4860;0.5743;
-198.9000;0.4868;0.5743;
-198.6000;0.4843;0.5768;
-198.3000;0.4860;0.5844;
-198.0000;0.4819;0.5693;
-197.7000;0.4868;0.5819;
-197.4000;0.4925;0.6020;
-197.1000;0.4884;0.5894;
-196.8000;0.4876;0.5894;
-196.5000;0.4868;0.5919;
-196.2000;0.4868;0.5995;
-195.9000;0.4851;0.5919;
-195.6000;0.4876;0.5970;
-195.3000;0.4876;0.5995;
-195.0000;0.4876;0.6020;
-194.7000;0.4868;0.5995;
-194.4000;0.4868;0.6045;
-194.1000;0.4876;0.6020;
-193.8000;0.4884;0.6020;
-193.5000;0.4860;0.5995;
-193.2000;0.4884;0.5995;
-192.9000;0.4868;0.5944;
-192.6000;0.4900;0.6096;
-192.3000;0.4884;0.5995;
-192.0000;0.4876;0.5944;
-191.7000;0.4876;0.5995;
-191.4000;0.4868;0.5944;
-191.1000;0.4892;0.5944;
-190.8000;0.4884;0.5844;
-190.5000;0.4851;0.5844;
-190.2000;0.4876;0.5944;
-189.9000;0.4941;0.6146;
-189.6000;0.4827;0.5819;
-189.3000;0.4884;0.6020;
-189.0000;0.4892;0.6070;
-188.7000;0.4917;0.6096;
-188.4000;0.4917;0.6146;
-188.1000;0.4900;0.6045;
-187.8000;0.4990;0.6272;
-187.5000;0.4900;0.5995;
-187.2000;0.4917;0.6121;
-186.9000;0.4917;0.6020;
-186.6000;0.4900;0.5970;
-186.3000;0.4925;0.5919;
-186.0000;0.4925;0.5995;
-185.7000;0.4908;0.5995;
-185.4000;0.4884;0.5919;
-185.1000;0.4908;0.5995;
-184.8000;0.4900;0.6020;
-184.5000;0.4908;0.5944;
-184.2000;0.4908;0.5970;
-183.9000;0.4908;0.5894;
-183.6000;0.4917;0.5819;
-183.3000;0.4933;0.5819;
-183.0000;0.4982;0.5919;
-182.7000;0.4900;0.5693;
-182.4000;0.4933;0.5869;
-182.1000;0.4908;0.5819;
-181.8000;0.4908;0.5768;
-181.5000;0.4917;0.5768;
-181.2000;0.4908;0.5844;
-180.9000;0.4851;0.5743;
-180.6000;0.4917;0.5944;
-180.3000;0.4917;0.5944;
-180.0000;0.4900;0.5944;
-179.7000;0.4908;0.5844;
-179.4000;0.5006;0.6171;
-179.1000;0.4933;0.6070;
-178.8000;0.4941;0.5995;
-178.5000;0.4941;0.5970;
-178.2000;0.4949;0.5944;
-177.9000;0.4941;0.5944;
-177.6000;0.4990;0.6096;
-177.3000;0.4851;0.5693;
-177.0000;0.4957;0.5995;
-176.7000;0.4965;0.6020;
-176.4000;0.4933;0.5919;
-176.1000;0.4933;0.5919;
-175.8000;0.4941;0.5970;
-175.5000;0.4941;0.5944;
-175.2000;0.4990;0.6020;
-174.9000;0.4884;0.5869;
-174.6000;0.4925;0.5970;
-174.3000;0.4974;0.6096;
-174.0000;0.4965;0.5970;
-173.7000;0.4974;0.5995;
-173.4000;0.4974;0.6020;
-173.1000;0.4949;0.5894;
-172.8000;0.4917;0.5793;
-172.5000;0.4982;0.5970;
-172.2000;0.4974;0.5970;
-171.9000;0.4982;0.6070;
-171.6000;0.4925;0.5970;
-171.3000;0.4965;0.6121;
-171.0000;0.4990;0.6121;
-170.7000;0.4925;0.5970;
-170.4000;0.4990;0.6146;
-170.1000;0.4957;0.5970;
-169.8000;0.4998;0.6020;
-169.5000;0.4965;0.6070;
-169.2000;0.4998;0.6171;
-168.9000;0.4990;0.6070;
-168.6000;0.4982;0.6121;
-168.3000;0.4990;0.6096;
-168.0000;0.5022;0.6070;
-167.7000;0.4965;0.5970;
-167.4000;0.4974;0.6070;
-167.1000;0.4990;0.6070;
-166.8000;0.4990;0.6121;
-166.5000;0.4990;0.6146;
-166.2000;0.4998;0.6146;
-165.9000;0.4990;0.6171;
-165.6000;0.4957;0.6121;
-165.3000;0.4974;0.6247;
-165.0000;0.4917;0.6146;
-164.7000;0.4957;0.6348;
-164.4000;0.4998;0.6398;
-164.1000;0.5014;0.6297;
-163.8000;0.5006;0.6272;
-163.5000;0.5022;0.6373;
-163.2000;0.4949;0.6096;
-162.9000;0.5006;0.6146;
-162.6000;0.5006;0.6121;
-162.3000;0.5096;0.6322;
-162.0000;0.5022;0.5995;
-161.7000;0.5039;0.5995;
-161.4000;0.5022;0.5919;
-161.1000;0.4982;0.5768;
-160.8000;0.5031;0.5944;
-160.5000;0.4990;0.5844;
-160.2000;0.5014;0.5819;
-159.9000;0.5006;0.5793;
-159.6000;0.5014;0.5894;
-159.3000;0.5031;0.5869;
-159.0000;0.5031;0.5844;
-158.7000;0.5047;0.5793;
-158.4000;0.5031;0.5743;
-158.1000;0.5031;0.5793;
-157.8000;0.5014;0.5869;
-157.5000;0.5031;0.5995;
-157.2000;0.5039;0.5919;
-156.9000;0.5055;0.5869;
-156.6000;0.5039;0.5869;
-156.3000;0.5031;0.5894;
-156.0000;0.5047;0.5919;
-155.7000;0.5039;0.6020;
-155.4000;0.5006;0.6020;
-155.1000;0.5039;0.6171;
-154.8000;0.5039;0.6196;
-154.5000;0.5047;0.6171;
-154.2000;0.5047;0.6045;
-153.9000;0.5055;0.6020;
-153.6000;0.5039;0.5894;
-153.3000;0.5055;0.5919;
-153.0000;0.5039;0.5970;
-152.7000;0.5063;0.5919;
-152.4000;0.5047;0.5894;
-152.1000;0.5153;0.6171;
-151.8000;0.5047;0.5844;
-151.5000;0.5014;0.5819;
-151.2000;0.5014;0.5793;
-150.9000;0.5055;0.5919;
-150.6000;0.5071;0.5869;
-150.3000;0.5071;0.5819;
-150.0000;0.5071;0.5894;
-149.7000;0.5055;0.5819;
-149.4000;0.5079;0.5819;
-149.1000;0.5096;0.5944;
-148.8000;0.5071;0.5894;
-148.5000;0.5055;0.5894;
-148.2000;0.5079;0.5995;
-147.9000;0.5088;0.6045;
-147.6000;0.5112;0.6171;
-147.3000;0.5088;0.6045;
-147.0000;0.5128;0.6146;
-146.7000;0.5088;0.6020;
-146.4000;0.5096;0.5944;
-146.1000;0.5047;0.5844;
-145.8000;0.5096;0.5995;
-145.5000;0.5104;0.6045;
-145.2000;0.5088;0.5919;
-144.9000;0.5096;0.6045;
-144.6000;0.5104;0.5995;
-144.3000;0.5096;0.5894;
-144.0000;0.5112;0.5919;
-143.7000;0.5079;0.5743;
-143.4000;0.5104;0.5919;
-143.1000;0.5120;0.5970;
-142.8000;0.5120;0.5944;
-142.5000;0.5144;0.5995;
-142.2000;0.5136;0.5944;
-141.9000;0.5096;0.5970;
-141.6000;0.5096;0.6045;
-141.3000;0.5096;0.6020;
-141.0000;0.5079;0.5944;
-140.7000;0.5047;0.5844;
-140.4000;0.5104;0.5919;
-140.1000;0.5071;0.5743;
-139.8000;0.5120;0.5768;
-139.5000;0.5120;0.5844;
-139.2000;0.5120;0.5970;
-138.9000;0.5128;0.5944;
-138.6000;0.5112;0.5944;
-138.3000;0.5120;0.5919;
-138.0000;0.5120;0.5919;
-137.7000;0.5120;0.5970;
-137.4000;0.5096;0.5869;
-137.1000;0.5096;0.5944;
-136.8000;0.5136;0.6096;
-136.5000;0.5153;0.6146;
-136.2000;0.5153;0.6121;
-135.9000;0.5144;0.6096;
-135.6000;0.5144;0.6096;
-135.3000;0.5169;0.6171;
-135.0000;0.5153;0.6096;
-134.7000;0.5144;0.6070;
-134.4000;0.5144;0.6070;
-134.1000;0.5144;0.6020;
-133.8000;0.5153;0.6146;
-133.5000;0.5153;0.6096;
-133.2000;0.5161;0.6020;
-132.9000;0.5136;0.5970;
-132.6000;0.5161;0.6020;
-132.3000;0.5169;0.6045;
-132.0000;0.5096;0.5869;
-131.7000;0.5161;0.5995;
-131.4000;0.5153;0.5995;
-131.1000;0.5112;0.5819;
-130.8000;0.5161;0.5919;
-130.5000;0.5177;0.6070;
-130.2000;0.5169;0.6020;
-129.9000;0.5169;0.5995;
-129.6000;0.5185;0.6020;
-129.3000;0.5169;0.5970;
-129.0000;0.5177;0.5944;
-128.7000;0.5185;0.5944;
-128.4000;0.5161;0.5869;
-128.1000;0.5144;0.5793;
-127.8000;0.5275;0.6121;
-127.5000;0.5177;0.5869;
-127.2000;0.5210;0.5970;
-126.9000;0.5193;0.5919;
-126.6000;0.5193;0.5844;
-126.3000;0.5193;0.5844;
-126.0000;0.5234;0.5970;
-125.7000;0.5201;0.5919;
-125.4000;0.5201;0.5819;
-125.1000;0.5201;0.5869;
-124.8000;0.5185;0.5944;
-124.5000;0.5258;0.6096;
-124.2000;0.5201;0.5869;
-123.9000;0.5144;0.5642;
-123.6000;0.5201;0.5743;
-123.3000;0.5226;0.5819;
-123.0000;0.5291;0.6020;
-122.7000;0.5226;0.5869;
-122.4000;0.5226;0.5970;
-122.1000;0.5193;0.5919;
-121.8000;0.5201;0.5995;
-121.5000;0.5218;0.5995;
-121.2000;0.5234;0.5944;
-120.9000;0.5267;0.6020;
-120.6000;0.5218;0.5894;
-120.3000;0.5201;0.5819;
-120.0000;0.5226;0.5819;
-119.7000;0.5226;0.5768;
-119.4000;0.5218;0.5743;
-119.1000;0.5210;0.5718;
-118.8000;0.5218;0.5667;
-118.5000;0.5234;0.5718;
-118.2000;0.5218;0.5667;
-117.9000;0.5226;0.5642;
-117.6000;0.5242;0.5718;
-117.3000;0.5250;0.5793;
-117.0000;0.5234;0.5819;
-116.7000;0.5242;0.5919;
-116.4000;0.5226;0.5894;
-116.1000;0.5234;0.5844;
-115.8000;0.5250;0.5844;
-115.5000;0.5234;0.5869;
-115.2000;0.5234;0.5894;
-114.9000;0.5242;0.5894;
-114.6000;0.5234;0.5944;
-114.3000;0.5242;0.5970;
-114.0000;0.5242;0.5894;
-113.7000;0.5185;0.5819;
-113.4000;0.5250;0.5944;
-113.1000;0.5250;0.5869;
-112.8000;0.5242;0.5844;
-112.5000;0.5258;0.5944;
-112.2000;0.5258;0.5944;
-111.9000;0.5250;0.5844;
-111.6000;0.5275;0.5793;
-111.3000;0.5283;0.5793;
-111.0000;0.5283;0.5869;
-110.7000;0.5258;0.5819;
-110.4000;0.5275;0.5819;
-110.1000;0.5283;0.5869;
-109.8000;0.5283;0.5894;
-109.5000;0.5275;0.5869;
-109.2000;0.5275;0.5894;
-108.9000;0.5275;0.5894;
-108.6000;0.5275;0.5919;
-108.3000;0.5291;0.5919;
-108.0000;0.5234;0.5869;
-107.7000;0.5315;0.6070;
-107.4000;0.5283;0.6020;
-107.1000;0.5291;0.5970;
-106.8000;0.5332;0.5970;
-106.5000;0.5315;0.5869;
-106.2000;0.5307;0.5944;
-105.9000;0.5226;0.5844;
-105.6000;0.5291;0.6045;
-105.3000;0.5283;0.6020;
-105.0000;0.5275;0.5995;
-104.7000;0.5234;0.5819;
-104.4000;0.5299;0.5970;
-104.1000;0.5275;0.5869;
-103.8000;0.5291;0.5793;
-103.5000;0.5340;0.5844;
-103.2000;0.5315;0.5718;
-102.9000;0.5348;0.5793;
-102.6000;0.5307;0.5617;
-102.3000;0.5324;0.5718;
-102.0000;0.5324;0.5768;
-101.7000;0.5218;0.5491;
-101.4000;0.5324;0.5743;
-101.1000;0.5340;0.5819;
-100.8000;0.5332;0.5819;
-100.5000;0.5340;0.5793;
-100.2000;0.5332;0.5718;
-99.9000;0.5258;0.5516;
-99.6000;0.5315;0.5592;
-99.3000;0.5332;0.5617;
-99.0000;0.5324;0.5693;
-98.7000;0.5340;0.5667;
-98.4000;0.5332;0.5718;
-98.1000;0.5348;0.5718;
-97.8000;0.5340;0.5768;
-97.5000;0.5348;0.5743;
-97.2000;0.5340;0.5693;
-96.9000;0.5340;0.5667;
-96.6000;0.5348;0.5718;
-96.3000;0.5348;0.5768;
-96.0000;0.5356;0.5743;
-95.7000;0.5364;0.5718;
-95.4000;0.5372;0.5768;
-95.1000;0.5364;0.5768;
-94.8000;0.5356;0.5768;
-94.5000;0.5356;0.5743;
-94.2000;0.5364;0.5718;
-93.9000;0.5356;0.5718;
-93.6000;0.5348;0.5743;
-93.3000;0.5364;0.5768;
-93.0000;0.5348;0.5844;
-92.7000;0.5348;0.5793;
-92.4000;0.5340;0.5844;
-92.1000;0.5389;0.5894;
-91.8000;0.5381;0.5819;
-91.5000;0.5340;0.5718;
-91.2000;0.5381;0.5819;
-90.9000;0.5364;0.5819;
-90.6000;0.5397;0.5894;
-90.3000;0.5405;0.5894;
-90.0000;0.5381;0.5793;
-89.7000;0.5372;0.5819;
-89.4000;0.5364;0.5768;
-89.1000;0.5389;0.5819;
-88.8000;0.5389;0.5743;
-88.5000;0.5381;0.5793;
-88.2000;0.5381;0.5718;
-87.9000;0.5405;0.5869;
-87.6000;0.5389;0.5869;
-87.3000;0.5389;0.5869;
-87.0000;0.5413;0.5970;
-86.7000;0.5405;0.5970;
-86.4000;0.5397;0.5894;
-86.1000;0.5372;0.5869;
-85.8000;0.5421;0.5844;
-85.5000;0.5421;0.5869;
-85.2000;0.5421;0.5768;
-84.9000;0.5389;0.5768;
-84.6000;0.5389;0.5819;
-84.3000;0.5413;0.5894;
-84.0000;0.5397;0.5869;
-83.7000;0.5413;0.5768;
-83.4000;0.5413;0.5768;
-83.1000;0.5299;0.5441;
-82.8000;0.5405;0.5743;
-82.5000;0.5446;0.5944;
-82.2000;0.5405;0.5819;
-81.9000;0.5405;0.5718;
-81.6000;0.5242;0.5290;
-81.3000;0.5421;0.5718;
-81.0000;0.5429;0.5819;
-80.7000;0.5429;0.5844;
-80.4000;0.5438;0.5869;
-80.1000;0.5429;0.5844;
-79.8000;0.5486;0.5944;
-79.5000;0.5429;0.5743;
-79.2000;0.5438;0.5743;
-78.9000;0.5454;0.5718;
-78.6000;0.5438;0.5592;
-78.3000;0.5421;0.5693;
-78.0000;0.5438;0.5793;
-77.7000;0.5438;0.5793;
-77.4000;0.5438;0.5793;
-77.1000;0.5438;0.5844;
-76.8000;0.5438;0.5944;
-76.5000;0.5454;0.5995;
-76.2000;0.5454;0.6020;
-75.9000;0.5462;0.6096;
-75.6000;0.5454;0.6070;
-75.3000;0.5462;0.5944;
-75.0000;0.5446;0.5869;
-74.7000;0.5462;0.5844;
-74.4000;0.5421;0.5718;
-74.1000;0.5470;0.5793;
-73.8000;0.5446;0.5743;
-73.5000;0.5454;0.5768;
-73.2000;0.5446;0.5768;
-72.9000;0.5454;0.5819;
-72.6000;0.5462;0.5894;
-72.3000;0.5462;0.5894;
-72.0000;0.5470;0.5894;
-71.7000;0.5478;0.5844;
-71.4000;0.5478;0.5869;
-71.1000;0.5478;0.5894;
-70.8000;0.5462;0.5819;
-70.5000;0.5462;0.5869;
-70.2000;0.5478;0.5919;
-69.9000;0.5478;0.5894;
-69.6000;0.5470;0.5768;
-69.3000;0.5478;0.5793;
-69.0000;0.5478;0.5819;
-68.7000;0.5462;0.5819;
-68.4000;0.5511;0.5869;
-68.1000;0.5470;0.5743;
-67.8000;0.5495;0.5819;
-67.5000;0.5511;0.5793;
-67.2000;0.5486;0.5693;
-66.9000;0.5495;0.5743;
-66.6000;0.5495;0.5819;
-66.3000;0.5495;0.5793;
-66.0000;0.5495;0.5844;
-65.7000;0.5495;0.5768;
-65.4000;0.5495;0.5743;
-65.1000;0.5511;0.5768;
-64.8000;0.5519;0.5768;
-64.5000;0.5495;0.5743;
-64.2000;0.5519;0.5743;
-63.9000;0.5519;0.5743;
-63.6000;0.5527;0.5743;
-63.3000;0.5470;0.5516;
-63.0000;0.5519;0.5642;
-62.7000;0.5511;0.5567;
-62.4000;0.5519;0.5567;
-62.1000;0.5600;0.5768;
-61.8000;0.5519;0.5541;
-61.5000;0.5543;0.5667;
-61.2000;0.5527;0.5617;
-60.9000;0.5535;0.5617;
-60.6000;0.5527;0.5693;
-60.3000;0.5527;0.5642;
-60.0000;0.5551;0.5592;
-59.7000;0.5527;0.5516;
-59.4000;0.5535;0.5516;
-59.1000;0.5535;0.5541;
-58.8000;0.5535;0.5541;
-58.5000;0.5551;0.5516;
-58.2000;0.5527;0.5541;
-57.9000;0.5568;0.5592;
-57.6000;0.5478;0.5390;
-57.3000;0.5551;0.5541;
-57.0000;0.5543;0.5491;
-56.7000;0.5584;0.5567;
-56.4000;0.5625;0.5617;
-56.1000;0.5551;0.5441;
-55.8000;0.5543;0.5416;
-55.5000;0.5543;0.5390;
-55.2000;0.5576;0.5441;
-54.9000;0.5560;0.5516;
-54.6000;0.5551;0.5516;
-54.3000;0.5560;0.5441;
-54.0000;0.5551;0.5390;
-53.7000;0.5568;0.5516;
-53.4000;0.5592;0.5567;
-53.1000;0.5551;0.5516;
-52.8000;0.5568;0.5491;
-52.5000;0.5543;0.5491;
-52.2000;0.5576;0.5693;
-51.9000;0.5568;0.5617;
-51.6000;0.5543;0.5516;
-51.3000;0.5560;0.5516;
-51.0000;0.5568;0.5541;
-50.7000;0.5576;0.5491;
-50.4000;0.5568;0.5416;
-50.1000;0.5576;0.5390;
-49.8000;0.5584;0.5441;
-49.5000;0.5560;0.5516;
-49.2000;0.5608;0.5541;
-48.9000;0.5568;0.5516;
-48.6000;0.5551;0.5390;
-48.3000;0.5560;0.5441;
-48.0000;0.5560;0.5491;
-47.7000;0.5568;0.5592;
-47.4000;0.5551;0.5567;
-47.1000;0.5568;0.5567;
-46.8000;0.5560;0.5516;
-46.5000;0.5568;0.5516;
-46.2000;0.5584;0.5592;
-45.9000;0.5568;0.5567;
-45.6000;0.5584;0.5466;
-45.3000;0.5600;0.5441;
-45.0000;0.5592;0.5441;
-44.7000;0.5608;0.5466;
-44.4000;0.5551;0.5365;
-44.1000;0.5584;0.5416;
-43.8000;0.5584;0.5441;
-43.5000;0.5592;0.5491;
-43.2000;0.5600;0.5567;
-42.9000;0.5600;0.5491;
-42.6000;0.5592;0.5466;
-42.3000;0.5584;0.5491;
-42.0000;0.5584;0.5416;
-41.7000;0.5592;0.5365;
-41.4000;0.5608;0.5441;
-41.1000;0.5519;0.5189;
-40.8000;0.5617;0.5416;
-40.5000;0.5617;0.5390;
-40.2000;0.5625;0.5466;
-39.9000;0.5617;0.5466;
-39.6000;0.5625;0.5441;
-39.3000;0.5641;0.5567;
-39.0000;0.5617;0.5592;
-38.7000;0.5600;0.5592;
-38.4000;0.5617;0.5617;
-38.1000;0.5600;0.5541;
-37.8000;0.5625;0.5567;
-37.5000;0.5592;0.5592;
-37.2000;0.5600;0.5642;
-36.9000;0.5641;0.5718;
-36.6000;0.5608;0.5642;
-36.3000;0.5527;0.5416;
-36.0000;0.5625;0.5642;
-35.7000;0.5625;0.5541;
-35.4000;0.5560;0.5264;
-35.1000;0.5608;0.5441;
-34.8000;0.5617;0.5390;
-34.5000;0.5633;0.5466;
-34.2000;0.5617;0.5441;
-33.9000;0.5600;0.5340;
-33.6000;0.5633;0.5416;
-33.3000;0.5617;0.5441;
-33.0000;0.5665;0.5592;
-32.7000;0.5592;0.5441;
-32.4000;0.5633;0.5617;
-32.1000;0.5625;0.5567;
-31.8000;0.5633;0.5567;
-31.5000;0.5617;0.5541;
-31.2000;0.5625;0.5541;
-30.9000;0.5649;0.5667;
-30.6000;0.5665;0.5642;
-30.3000;0.5657;0.5592;
-30.0000;0.5641;0.5541;
-29.7000;0.5657;0.5541;
-29.4000;0.5641;0.5541;
-29.1000;0.5657;0.5516;
-28.8000;0.5698;0.5667;
-28.5000;0.5706;0.5743;
-28.2000;0.5625;0.5567;
-27.9000;0.5665;0.5642;
-27.6000;0.5649;0.5693;
-27.3000;0.5665;0.5693;
-27.0000;0.5641;0.5592;
-26.7000;0.5641;0.5567;
-26.4000;0.5657;0.5567;
-26.1000;0.5641;0.5541;
-25.8000;0.5657;0.5592;
-25.5000;0.5633;0.5516;
-25.2000;0.5649;0.5516;
-24.9000;0.5649;0.5416;
-24.6000;0.5657;0.5441;
-24.3000;0.5665;0.5466;
-24.0000;0.5633;0.5416;
-23.7000;0.5641;0.5516;
-23.4000;0.5714;0.5718;
-23.1000;0.5633;0.5340;
-22.8000;0.5657;0.5390;
-22.5000;0.5641;0.5340;
-22.2000;0.5641;0.5315;
-21.9000;0.5657;0.5340;
-21.6000;0.5649;0.5264;
-21.3000;0.5657;0.5264;
-21.0000;0.5665;0.5340;
-20.7000;0.5674;0.5390;
-20.4000;0.5690;0.5441;
-20.1000;0.5674;0.5441;
-19.8000;0.5674;0.5416;
-19.5000;0.5674;0.5441;
-19.2000;0.5690;0.5441;
-18.9000;0.5682;0.5466;
-18.6000;0.5674;0.5541;
-18.3000;0.5682;0.5567;
-18.0000;0.5698;0.5541;
-17.7000;0.5674;0.5441;
-17.4000;0.5674;0.5441;
-17.1000;0.5714;0.5592;
-16.8000;0.5706;0.5567;
-16.5000;0.5690;0.5617;
-16.2000;0.5706;0.5693;
-15.9000;0.5690;0.5693;
-15.6000;0.5690;0.5768;
-15.3000;0.5698;0.5768;
-15.0000;0.5698;0.5667;
-14.7000;0.5722;0.5743;
-14.4000;0.5682;0.5617;
-14.1000;0.5682;0.5642;
-13.8000;0.5674;0.5693;
-13.5000;0.5682;0.5743;
-13.2000;0.5649;0.5567;
-12.9000;0.5722;0.5718;
-12.6000;0.5706;0.5743;
-12.3000;0.5722;0.5693;
-12.0000;0.5682;0.5592;
-11.7000;0.5706;0.5592;
-11.4000;0.5698;0.5541;
-11.1000;0.5714;0.5592;
-10.8000;0.5706;0.5491;
-10.5000;0.5779;0.5718;
-10.2000;0.5714;0.5567;
-9.9000;0.5698;0.5567;
-9.6000;0.5722;0.5567;
-9.3000;0.5682;0.5441;
-9.0000;0.5755;0.5617;
-8.7000;0.5698;0.5416;
-8.4000;0.5706;0.5466;
-8.1000;0.5690;0.5416;
-7.8000;0.5714;0.5516;
-7.5000;0.5698;0.5642;
-7.2000;0.5722;0.5667;
-6.9000;0.5739;0.5592;
-6.6000;0.5690;0.5466;
-6.3000;0.5706;0.5491;
-6.0000;0.5722;0.5416;
-5.7000;0.5722;0.5390;
-5.4000;0.5812;0.5567;
-5.1000;0.5739;0.5264;
-4.8000;0.5690;0.5239;
-4.5000;0.5731;0.5264;
-4.2000;0.5714;0.5290;
-3.9000;0.5731;0.5315;
-3.6000;0.5714;0.5138;
-3.3000;0.5690;0.5164;
-3.0000;0.5714;0.5264;
-2.7000;0.5714;0.5290;
-2.4000;0.5714;0.5239;
-2.1000;0.5706;0.5315;
-1.8000;0.5722;0.5290;
-1.5000;0.5714;0.5315;
-1.2000;0.5698;0.5290;
-0.9000;0.5706;0.5239;
-0.6000;0.5714;0.5214;
-0.3000;0.5739;0.5214;
0.0000;0.5739;0.5214;
0.3000;0.5910;0.5088;
0.6000;0.6260;0.5567;
0.9000;0.6512;0.5869;
1.2000;0.6813;0.6473;
1.5000;0.6976;0.6826;
1.8000;0.7106;0.7028;
2.1000;0.7196;0.7204;
2.4000;0.7318;0.7481;
2.7000;0.7375;0.7657;
3.0000;0.7456;0.7808;
3.3000;0.7481;0.7808;
3.6000;0.7586;0.8035;
3.9000;0.7643;0.8186;
4.2000;0.7668;0.8211;
4.5000;0.7709;0.8287;
4.8000;0.7749;0.8312;
5.1000;0.7733;0.8363;
5.4000;0.7782;0.8337;
5.7000;0.7814;0.8388;
6.0000;0.7847;0.8463;
6.3000;0.7855;0.8463;
6.6000;0.7896;0.8514;
6.9000;0.7912;0.8514;
7.2000;0.7953;0.8589;
7.5000;0.7953;0.8489;
7.8000;0.7953;0.8438;
8.1000;0.8018;0.8514;
8.4000;0.7945;0.8337;
8.7000;0.8010;0.8413;
9.0000;0.7985;0.8287;
9.3000;0.8107;0.8614;
9.6000;0.8148;0.8690;
9.9000;0.8091;0.8489;
10.2000;0.8132;0.8539;
10.5000;0.8132;0.8640;
10.8000;0.8164;0.8665;
11.1000;0.8173;0.8740;
11.4000;0.8173;0.8614;
11.7000;0.8189;0.8589;
12.0000;0.8197;0.8589;
12.3000;0.8230;0.8564;
12.6000;0.8230;0.8665;
12.9000;0.8262;0.8715;
13.2000;0.8303;0.8740;
13.5000;0.8287;0.8514;
13.8000;0.8287;0.8514;
14.1000;0.8205;0.8413;
14.4000;0.8303;0.8564;
14.7000;0.8335;0.8690;
15.0000;0.8360;0.8665;
15.3000;0.8335;0.8614;
15.6000;0.8368;0.8690;
15.9000;0.8360;0.8640;
16.2000;0.8376;0.8640;
16.5000;0.8384;0.8665;
16.8000;0.8417;0.8640;
17.1000;0.8400;0.8589;
17.4000;0.8417;0.8589;
17.7000;0.8425;0.8640;
18.0000;0.8433;0.8690;
18.3000;0.8425;0.8665;
18.6000;0.8441;0.8614;
18.9000;0.8457;0.8438;
19.2000;0.8482;0.8438;
19.5000;0.8490;0.8262;
19.8000;0.8482;0.8287;
20.1000;0.8482;0.8262;
20.4000;0.8523;0.8388;
20.7000;0.8400;0.8111;
21.0000;0.8490;0.8287;
21.3000;0.8490;0.8262;
21.6000;0.8555;0.8438;
21.9000;0.8539;0.8312;
22.2000;0.8547;0.8388;
22.5000;0.8547;0.8438;
22.8000;0.8539;0.8413;
23.1000;0.8563;0.8438;
23.4000;0.8555;0.8413;
23.7000;0.8563;0.8463;
24.0000;0.8637;0.8614;
24.3000;0.8612;0.8489;
24.6000;0.8588;0.8363;
24.9000;0.8539;0.8211;
25.2000;0.8604;0.8388;
25.5000;0.8637;0.8489;
25.8000;0.8531;0.8237;
26.1000;0.8620;0.8363;
26.4000;0.8612;0.8363;
26.7000;0.8637;0.8312;
27.0000;0.8620;0.8312;
27.3000;0.8620;0.8337;
27.6000;0.8620;0.8312;
27.9000;0.8628;0.8388;
28.2000;0.8628;0.8337;
28.5000;0.8637;0.8363;
28.8000;0.8645;0.8388;
29.1000;0.8669;0.8388;
29.4000;0.8661;0.8337;
29.7000;0.8645;0.8237;
30.0000;0.8661;0.8262;
30.3000;0.8677;0.8363;
30.6000;0.8669;0.8388;
30.9000;0.8677;0.8287;
31.2000;0.8685;0.8211;
31.5000;0.8685;0.8237;
31.8000;0.8694;0.8211;
32.1000;0.8710;0.8186;
32.4000;0.8685;0.8111;
32.7000;0.8702;0.8237;
33.0000;0.8702;0.8312;
33.3000;0.8718;0.8337;
33.6000;0.8653;0.8211;
33.9000;0.8653;0.8287;
34.2000;0.8710;0.8363;
34.5000;0.8694;0.8312;
34.8000;0.8710;0.8262;
35.1000;0.8702;0.8211;
35.4000;0.8734;0.8262;
35.7000;0.8726;0.8287;
36.0000;0.8726;0.8186;
36.3000;0.8718;0.8211;
36.6000;0.8726;0.8186;
36.9000;0.8726;0.8136;
37.2000;0.8759;0.8237;
37.5000;0.8718;0.8136;
37.8000;0.8734;0.8186;
38.1000;0.8824;0.8413;
38.4000;0.8751;0.8312;
38.7000;0.8742;0.8262;
39.0000;0.8702;0.8060;
39.3000;0.8767;0.8086;
39.6000;0.8685;0.7859;
39.9000;0.8734;0.8010;
40.2000;0.8832;0.8312;
40.5000;0.8759;0.8136;
40.8000;0.8759;0.8136;
41.1000;0.8767;0.8060;
41.4000;0.8775;0.8136;
41.7000;0.8661;0.7834;
42.0000;0.8791;0.8161;
42.3000;0.8791;0.8237;
42.6000;0.8791;0.8287;
42.9000;0.8791;0.8337;
43.2000;0.8799;0.8413;
43.5000;0.8767;0.8363;
43.8000;0.8824;0.8388;
44.1000;0.8783;0.8337;
44.4000;0.8783;0.8287;
44.7000;0.8799;0.8287;
45.0000;0.8783;0.8211;
45.3000;0.8767;0.8186;
45.6000;0.8775;0.8136;
45.9000;0.8816;0.8262;
46.2000;0.8840;0.8312;
46.5000;0.8824;0.8413;
46.8000;0.8791;0.8211;
47.1000;0.8816;0.8312;
47.4000;0.8807;0.8262;
47.7000;0.8816;0.8312;
48.0000;0.8816;0.8287;
48.3000;0.8799;0.8237;
48.6000;0.8807;0.8287;
48.9000;0.8799;0.8262;
49.2000;0.8807;0.8262;
49.5000;0.8807;0.8186;
49.8000;0.8807;0.8262;
50.1000;0.8832;0.8312;
50.4000;0.8807;0.8237;
50.7000;0.8840;0.8237;
51.0000;0.8807;0.8186;
51.3000;0.8816;0.8186;
51.6000;0.8840;0.8287;
51.9000;0.8816;0.8388;
52.2000;0.8840;0.8438;
52.5000;0.8824;0.8438;
52.8000;0.8816;0.8489;
53.1000;0.8816;0.8463;
53.4000;0.8816;0.8363;
53.7000;0.8856;0.8337;
54.0000;0.8848;0.8287;
54.3000;0.8832;0.8211;
54.6000;0.8840;0.8211;
54.9000;0.8840;0.8237;
55.2000;0.8840;0.8312;
55.5000;0.8873;0.8388;
55.8000;0.8881;0.8388;
56.1000;0.8864;0.8237;
56.4000;0.8848;0.8186;
56.7000;0.8848;0.8186;
57.0000;0.8840;0.8186;
57.3000;0.8864;0.8237;
57.6000;0.8840;0.8136;
57.9000;0.8864;0.8136;
58.2000;0.8824;0.8035;
58.5000;0.8930;0.8262;
58.8000;0.8881;0.8262;
59.1000;0.8873;0.8161;
59.4000;0.8848;0.8035;
59.7000;0.8889;0.8237;
60.0000;0.8889;0.8237;
60.3000;0.8848;0.8060;
60.6000;0.8881;0.8086;
60.9000;0.8881;0.8111;
61.2000;0.8913;0.8136;
61.5000;0.8848;0.8060;
61.8000;0.8824;0.8086;
62.1000;0.8881;0.8211;
62.4000;0.8946;0.8413;
62.7000;0.8905;0.8237;
63.0000;0.8873;0.8186;
63.3000;0.8897;0.8237;
63.6000;0.8889;0.8262;
63.9000;0.8864;0.8312;
64.2000;0.8856;0.8363;
64.5000;0.8832;0.8237;
64.8000;0.8881;0.8287;
65.1000;0.8889;0.8262;
65.4000;0.8881;0.8186;
65.7000;0.8978;0.8337;
66.0000;0.8881;0.8161;
66.3000;0.8889;0.8211;
66.6000;0.8881;0.8186;
66.9000;0.8881;0.8186;
67.2000;0.8889;0.8161;
67.5000;0.8921;0.8211;
67.8000;0.8905;0.8186;
68.1000;0.8889;0.8161;
68.4000;0.8897;0.8211;
68.7000;0.8881;0.8136;
69.0000;0.8873;0.8010;
69.3000;0.8881;0.8136;
69.6000;0.8873;0.8161;
69.9000;0.8889;0.8161;
70.2000;0.8881;0.8161;
70.5000;0.8881;0.8211;
70.8000;0.8889;0.8262;
71.1000;0.8897;0.8337;
71.4000;0.8905;0.8363;
71.7000;0.8897;0.8262;
72.0000;0.8897;0.8237;
72.3000;0.8897;0.8211;
72.6000;0.8905;0.8237;
72.9000;0.8930;0.8287;
73.2000;0.8913;0.8312;
73.5000;0.8921;0.8463;
73.8000;0.8913;0.8413;
74.1000;0.8905;0.8388;
74.4000;0.8938;0.8514;
74.7000;0.8921;0.8463;
75.0000;0.8840;0.8211;
75.3000;0.8921;0.8388;
75.6000;0.8905;0.8337;
75.9000;0.8913;0.8413;
76.2000;0.8913;0.8363;
76.5000;0.8913;0.8438;
76.8000;0.8897;0.8388;
77.1000;0.8913;0.8312;
77.4000;0.8913;0.8262;
77.7000;0.8970;0.8463;
78.0000;0.8913;0.8287;
78.3000;0.8921;0.8211;
78.6000;0.8905;0.8211;
78.9000;0.8913;0.8262;
79.2000;0.8905;0.8161;
79.5000;0.8864;0.8086;
79.8000;0.8962;0.8337;
80.1000;0.8921;0.8161;
80.4000;0.8905;0.8161;
80.7000;0.8897;0.8111;
81.0000;0.8905;0.8060;
81.3000;0.8913;0.8186;
81.6000;0.8913;0.8111;
81.9000;0.8905;0.8111;
82.2000;0.8905;0.8161;
82.5000;0.8913;0.8161;
82.8000;0.8946;0.8262;
83.1000;0.8921;0.8186;
83.4000;0.8921;0.8186;
83.7000;0.8913;0.8161;
84.0000;0.8954;0.8211;
84.3000;0.8873;0.8060;
84.6000;0.8930;0.8186;
84.9000;0.8930;0.8161;
85.2000;0.8930;0.8136;
85.5000;0.8921;0.8060;
85.8000;0.8938;0.8086;
86.1000;0.8938;0.8111;
86.4000;0.8848;0.7909;
86.7000;0.8954;0.8111;
87.0000;0.8938;0.8010;
87.3000;0.8930;0.8010;
87.6000;0.8921;0.8111;
87.9000;0.8938;0.8136;
88.2000;0.8938;0.8161;
88.5000;0.8930;0.8161;
88.8000;0.8938;0.8186;
89.1000;0.8970;0.8262;
89.4000;0.8930;0.8211;
89.7000;0.8938;0.8237;
90.0000;0.8930;0.8262;
90.3000;0.8930;0.8237;
90.6000;0.8889;0.8086;
90.9000;0.8913;0.8186;
91.2000;0.8913;0.8111;
91.5000;0.8938;0.8161;
91.8000;0.8938;0.8186;
92.1000;0.8921;0.8186;
92.4000;0.8946;0.8237;
92.7000;0.8938;0.8136;
93.0000;0.8921;0.8060;
93.3000;0.8946;0.8136;
93.6000;0.8938;0.8211;
93.9000;0.8962;0.8337;
94.2000;0.8938;0.8211;
94.5000;0.8978;0.8337;
94.8000;0.8913;0.8237;
95.1000;0.8938;0.8312;
95.4000;0.8873;0.8086;
95.7000;0.8921;0.8312;
96.0000;0.8970;0.8388;
96.3000;0.8921;0.8237;
96.6000;0.8946;0.8262;
96.9000;0.8962;0.8312;
97.2000;0.8946;0.8287;
97.5000;0.8946;0.8312;
97.8000;0.8938;0.8262;
98.1000;0.8954;0.8287;
98.4000;0.8930;0.8136;
98.7000;0.8921;0.8111;
99.0000;0.8930;0.8060;
99.3000;0.8946;0.8136;
99.6000;0.8930;0.8111;
99.9000;0.8962;0.8211;
100.2000;0.9035;0.8413;
100.5000;0.8954;0.8237;
100.8000;0.8946;0.8237;
101.1000;0.8905;0.8161;
101.4000;0.8930;0.8211;
101.7000;0.8930;0.8111;
102.0000;0.8946;0.8136;
102.3000;0.8938;0.8060;
102.6000;0.8954;0.8060;
102.9000;0.8921;0.8010;
103.2000;0.8954;0.8035;
103.5000;0.8946;0.8111;
103.8000;0.8938;0.8186;
104.1000;0.8995;0.8363;
104.4000;0.8921;0.8086;
104.7000;0.9011;0.8312;
105.0000;0.8938;0.8161;
105.3000;0.8995;0.8287;
105.6000;0.8938;0.8111;
105.9000;0.8889;0.7985;
106.2000;0.8962;0.8186;
106.5000;0.8987;0.8211;
106.8000;0.8921;0.8035;
107.1000;0.8938;0.8136;
107.4000;0.8938;0.8161;
107.7000;0.8930;0.8186;
108.0000;0.8938;0.8136;
108.3000;0.8962;0.8211;
108.6000;0.8954;0.8186;
108.9000;0.8946;0.8262;
109.2000;0.8938;0.8186;
109.5000;0.8978;0.8211;
109.8000;0.8954;0.8161;
110.1000;0.8962;0.8111;
110.4000;0.8938;0.8086;
110.7000;0.8881;0.7985;
111.0000;0.8978;0.8287;
111.3000;0.8946;0.8287;
111.6000;0.8946;0.8262;
111.9000;0.8946;0.8262;
112.2000;0.8962;0.8287;
112.5000;0.8946;0.8161;
112.8000;0.8970;0.8237;
113.1000;0.8962;0.8211;
113.4000;0.8970;0.8262;
113.7000;0.8962;0.8111;
114.0000;0.8954;0.8086;
114.3000;0.8962;0.8060;
114.6000;0.8978;0.8111;
114.9000;0.8946;0.8086;
115.2000;0.8938;0.8086;
115.5000;0.8938;0.8136;
115.8000;0.8930;0.8186;
116.1000;0.8946;0.8161;
116.4000;0.8995;0.8186;
116.7000;0.8930;0.7985;
117.0000;0.8970;0.8086;
117.3000;0.8954;0.8086;
117.6000;0.8954;0.8086;
117.9000;0.8962;0.8086;
118.2000;0.8897;0.7859;
118.5000;0.8954;0.7909;
118.8000;0.8954;0.7985;
119.1000;0.8954;0.8010;
119.4000;0.8970;0.8035;
119.7000;0.8954;0.8035;
120.0000;0.8962;0.8086;
120.3000;0.8962;0.8161;
120.6000;0.8954;0.8237;
120.9000;0.8970;0.8287;
121.2000;0.8962;0.8262;
121.5000;0.8954;0.8111;
121.8000;0.8987;0.8086;
122.1000;0.8970;0.8010;
122.4000;0.8970;0.8060;
122.7000;0.8962;0.8060;
123.0000;0.8987;0.8010;
123.3000;0.8913;0.7834;
123.6000;0.8970;0.8010;
123.9000;0.8938;0.8060;
124.2000;0.8962;0.8136;
124.5000;0.8962;0.8136;
124.8000;0.8954;0.8010;
125.1000;0.8938;0.7960;
125.4000;0.8954;0.7960;
125.7000;0.8987;0.8060;
126.0000;0.9003;0.8161;
126.3000;0.8954;0.7960;
126.6000;0.8962;0.7884;
126.9000;0.8962;0.7934;
127.2000;0.8954;0.7934;
127.5000;0.8987;0.8136;
127.8000;0.8962;0.8060;
128.1000;0.8962;0.8186;
128.4000;0.8946;0.8086;
128.7000;0.9027;0.8312;
129.0000;0.8954;0.8186;
129.3000;0.8938;0.8186;
129.6000;0.8962;0.8237;
129.9000;0.8962;0.8237;
130.2000;0.9003;0.8388;
130.5000;0.8946;0.8237;
130.8000;0.8962;0.8287;
131.1000;0.9035;0.8388;
131.4000;0.8978;0.8237;
131.7000;0.8962;0.8136;
132.0000;0.8954;0.8186;
132.3000;0.8970;0.8287;
132.6000;0.8930;0.8211;
132.9000;0.8978;0.8312;
133.2000;0.8970;0.8262;
133.5000;0.8978;0.8211;
133.8000;0.8987;0.8211;
134.1000;0.8905;0.8060;
134.4000;0.8954;0.8161;
134.7000;0.8970;0.8186;
135.0000;0.8921;0.8086;
135.3000;0.8954;0.8111;
135.6000;0.8954;0.8161;
135.9000;0.8978;0.8287;
136.2000;0.8954;0.8211;
136.5000;0.8970;0.8111;
136.8000;0.8970;0.7960;
137.1000;0.8946;0.8010;
137.4000;0.9011;0.8161;
137.7000;0.8978;0.8060;
138.0000;0.8978;0.8111;
138.3000;0.8962;0.8086;
138.6000;0.8970;0.8136;
138.9000;0.8978;0.8136;
139.2000;0.8954;0.8060;
139.5000;0.8938;0.8035;
139.8000;0.8946;0.7960;
140.1000;0.8962;0.8010;
140.4000;0.8881;0.7758;
140.7000;0.8970;0.7960;
141.0000;0.8946;0.7884;
141.3000;0.8970;0.7960;
141.6000;0.9019;0.8136;
141.9000;0.8970;0.7985;
142.2000;0.8954;0.7985;
142.5000;0.8954;0.8035;
142.8000;0.8913;0.7934;
143.1000;0.8954;0.7985;
143.4000;0.8970;0.8035;
143.7000;0.8962;0.8111;
144.0000;0.8995;0.8086;
144.3000;0.8978;0.8010;
144.6000;0.9060;0.8262;
144.9000;0.8962;0.8035;
145.2000;0.8970;0.8086;
145.5000;0.8938;0.8060;
145.8000;0.8970;0.8186;
146.1000;0.8978;0.8211;
146.4000;0.8970;0.8161;
146.7000;0.8995;0.8287;
147.0000;0.8970;0.8312;
147.3000;0.8970;0.8237;
147.6000;0.8978;0.8287;
147.9000;0.8978;0.8337;
148.2000;0.8962;0.8337;
148.5000;0.8954;0.8312;
148.8000;0.8962;0.8312;
149.1000;0.8987;0.8262;
149.4000;0.8978;0.8262;
149.7000;0.8970;0.8186;
150.0000;0.8995;0.8136;
150.3000;0.8954;0.8086;
150.6000;0.8987;0.8186;
150.9000;0.8978;0.8237;
151.2000;0.9011;0.8337;
151.5000;0.8995;0.8312;
151.8000;0.8987;0.8211;
152.1000;0.8954;0.8136;
152.4000;0.8987;0.8237;
152.7000;0.8987;0.8237;
153.0000;0.8987;0.8136;
153.3000;0.8970;0.8186;
153.6000;0.8978;0.8211;
153.9000;0.8954;0.8161;
154.2000;0.8954;0.8161;
154.5000;0.8987;0.8237;
154.8000;0.8962;0.8237;
155.1000;0.8938;0.8161;
155.4000;0.8962;0.8287;
155.7000;0.8970;0.8211;
156.0000;0.9011;0.8237;
156.3000;0.8970;0.8136;
156.6000;0.8978;0.8161;
156.9000;0.8962;0.8161;
157.2000;0.8978;0.8186;
157.5000;0.8962;0.8186;
157.8000;0.8978;0.8136;
158.1000;0.8987;0.8161;
158.4000;0.8978;0.8086;
158.7000;0.8970;0.8136;
159.0000;0.9011;0.8312;
159.3000;0.8987;0.8287;
159.6000;0.8978;0.8262;
159.9000;0.8946;0.8186;
160.2000;0.8995;0.8262;
160.5000;0.8962;0.8211;
160.8000;0.8970;0.8237;
161.1000;0.8946;0.8136;
161.4000;0.8978;0.8186;
161.7000;0.8970;0.8211;
162.0000;0.8987;0.8262;
162.3000;0.8962;0.8237;
162.6000;0.8921;0.8211;
162.9000;0.9044;0.8413;
163.2000;0.8987;0.8262;
163.5000;0.8962;0.8211;
163.8000;0.9011;0.8312;
164.1000;0.9019;0.8489;
164.4000;0.8987;0.8363;
164.7000;0.8995;0.8312;
165.0000;0.8970;0.8262;
165.3000;0.9027;0.8363;
165.6000;0.9052;0.8388;
165.9000;0.8970;0.8211;
166.2000;0.8970;0.8211;
166.5000;0.8970;0.8262;
166.8000;0.8987;0.8262;
167.1000;0.8978;0.8136;
167.4000;0.8962;0.8136;
167.7000;0.8970;0.8161;
168.0000;0.8978;0.8237;
168.3000;0.9003;0.8337;
168.6000;0.8987;0.8237;
168.9000;0.8978;0.8186;
169.2000;0.8995;0.8161;
169.5000;0.8978;0.8186;
169.8000;0.8978;0.8262;
170.1000;0.8978;0.8262;
170.4000;0.8970;0.8237;
170.7000;0.9027;0.8337;
171.0000;0.8978;0.8186;
171.3000;0.8970;0.8211;
171.6000;0.8970;0.8136;
171.9000;0.8970;0.8161;
172.2000;0.9003;0.8211;
172.5000;0.8970;0.8186;
172.8000;0.8962;0.8136;
173.1000;0.8987;0.8211;
173.4000;0.8987;0.8161;
173.7000;0.8970;0.8161;
174.0000;0.8913;0.7960;
174.3000;0.8978;0.8161;
174.6000;0.9011;0.8312;
174.9000;0.8946;0.8186;
175.2000;0.8962;0.8211;
175.5000;0.8962;0.8186;
175.8000;0.8978;0.8312;
176.1000;0.8970;0.8413;
176.4000;0.8970;0.8363;
176.7000;0.8978;0.8337;
177.0000;0.8962;0.8186;
177.3000;0.8987;0.8262;
177.6000;0.8962;0.8337;
177.9000;0.8987;0.8363;
178.2000;0.8978;0.8363;
178.5000;0.9003;0.8363;
178.8000;0.8987;0.8312;
179.1000;0.8962;0.8186;
179.4000;0.8987;0.8186;
179.7000;0.8995;0.8287;
180.0000;0.9003;0.8337;
180.3000;0.8978;0.8211;
180.6000;0.8995;0.8186;
180.9000;0.8970;0.8161;
181.2000;0.9027;0.8237;
181.5000;0.8987;0.8161;
181.8000;0.8978;0.8035;
182.1000;0.8962;0.8111;
182.4000;0.8970;0.8186;
182.7000;0.8987;0.8211;
183.0000;0.8913;0.8060;
183.3000;0.8970;0.8262;
183.6000;0.8970;0.8287;
183.9000;0.8962;0.8413;
184.2000;0.8978;0.8438;
184.5000;0.8970;0.8413;
184.8000;0.8995;0.8514;
185.1000;0.8995;0.8438;
185.4000;0.8970;0.8438;
185.7000;0.9060;0.8690;
186.0000;0.8978;0.8413;
186.3000;0.8970;0.8463;
186.6000;0.8978;0.8489;
186.9000;0.8970;0.8463;
187.2000;0.8987;0.8514;
187.5000;0.8987;0.8589;
187.8000;0.8995;0.8489;
188.1000;0.8970;0.8388;
188.4000;0.9003;0.8438;
188.7000;0.8978;0.8413;
189.0000;0.8938;0.8287;
189.3000;0.8978;0.8388;
189.6000;0.8987;0.8413;
189.9000;0.8978;0.8363;
190.2000;0.8987;0.8287;
190.5000;0.9003;0.8312;
190.8000;0.9003;0.8211;
191.1000;0.8970;0.8161;
191.4000;0.8962;0.8136;
191.7000;0.8978;0.8161;
192.0000;0.8970;0.8186;
192.3000;0.8995;0.8211;
192.6000;0.8978;0.8237;
192.9000;0.8962;0.8111;
193.2000;0.8987;0.8211;
193.5000;0.8995;0.8312;
193.8000;0.8962;0.8262;
194.1000;0.9011;0.8363;
194.4000;0.8987;0.8388;
194.7000;0.8987;0.8337;
195.0000;0.9011;0.8438;
195.3000;0.8987;0.8413;
195.6000;0.8987;0.8489;
195.9000;0.8913;0.8363;
196.2000;0.8954;0.8514;
196.5000;0.8978;0.8539;
196.8000;0.8905;0.8363;
197.1000;0.8930;0.8438;
197.4000;0.9011;0.8564;
197.7000;0.8873;0.8161;
198.0000;0.8921;0.8287;
198.3000;0.8995;0.8564;
198.6000;0.8930;0.8438;
198.9000;0.9027;0.8640;
199.2000;0.8962;0.8489;
199.5000;0.8978;0.8337;
199.8000;0.8962;0.8312;
200.1000;0.9035;0.8463;
200.4000;0.8921;0.8211;
200.7000;0.8970;0.8388;
201.0000;0.8954;0.8337;
201.3000;0.9133;0.8740;
201.6000;0.8987;0.8312;
201.9000;0.8987;0.8237;
202.2000;0.8978;0.8211;
202.5000;0.9011;0.8312;
202.8000;0.8987;0.8237;
203.1000;0.8987;0.8262;
203.4000;0.8954;0.8186;
203.7000;0.8921;0.8186;
204.0000;0.8905;0.8161;
204.3000;0.8954;0.8312;
204.6000;0.8962;0.8388;
204.9000;0.8978;0.8463;
205.2000;0.8978;0.8463;
205.5000;0.8954;0.8413;
205.8000;0.8995;0.8489;
206.1000;0.8970;0.8514;
206.4000;0.8978;0.8514;
206.7000;0.8970;0.8489;
207.0000;0.8962;0.8388;
207.3000;0.8978;0.8413;
207.6000;0.8987;0.8489;
207.9000;0.8987;0.8363;
208.2000;0.8987;0.8287;
208.5000;0.9011;0.8262;
208.8000;0.8962;0.8111;
209.1000;0.8987;0.8211;
209.4000;0.8970;0.8262;
209.7000;0.9011;0.8363;
210.0000;0.8970;0.8287;
210.3000;0.8962;0.8363;
210.6000;0.8938;0.8287;
210.9000;0.8970;0.8337;
211.2000;0.8970;0.8388;
211.5000;0.8987;0.8489;
211.8000;0.8930;0.8312;
212.1000;0.8978;0.8463;
212.4000;0.8970;0.8363;
212.7000;0.8946;0.8237;
213.0000;0.8995;0.8237;
213.3000;0.8970;0.8161;
213.6000;0.9003;0.8211;
213.9000;0.8987;0.8287;
214.2000;0.8987;0.8337;
214.5000;0.8978;0.8438;
214.8000;0.8946;0.8337;
215.1000;0.8978;0.8388;
215.4000;0.8962;0.8363;
215.7000;0.8978;0.8463;
216.0000;0.8978;0.8363;
216.3000;0.8970;0.8312;
216.6000;0.9076;0.8589;
216.9000;0.8995;0.8337;
217.2000;0.8930;0.8211;
217.5000;0.8889;0.8111;
217.8000;0.8938;0.8287;
218.1000;0.8962;0.8388;
218.4000;0.8946;0.8337;
218.7000;0.8962;0.8413;
219.0000;0.8970;0.8438;
219.3000;0.8987;0.8514;
219.6000;0.8962;0.8388;
219.9000;0.9003;0.8564;
220.2000;0.8970;0.8438;
220.5000;0.8938;0.8337;
220.8000;0.8954;0.8388;
221.1000;0.8930;0.8337;
221.4000;0.8954;0.8363;
221.7000;0.8978;0.8363;
222.0000;0.8962;0.8337;
222.3000;0.8962;0.8287;
222.6000;0.8954;0.8237;
222.9000;0.8987;0.8337;
223.2000;0.8930;0.8262;
223.5000;0.8970;0.8438;
223.8000;0.8978;0.8514;
224.1000;0.8946;0.8438;
224.4000;0.8978;0.8564;
224.7000;0.8938;0.8438;
225.0000;0.8962;0.8514;
225.3000;0.8970;0.8589;
225.6000;0.8978;0.8589;
225.9000;0.8970;0.8539;
226.2000;0.8970;0.8539;
226.5000;0.8987;0.8589;
226.8000;0.8970;0.8564;
227.1000;0.8954;0.8564;
227.4000;0.8962;0.8564;
227.7000;0.8970;0.8640;
228.0000;0.8962;0.8690;
228.3000;0.8987;0.8816;
228.6000;0.8970;0.8766;
228.9000;0.8962;0.8640;
229.2000;0.8978;0.8640;
229.5000;0.8970;0.8614;
229.8000;0.8962;0.8690;
230.1000;0.8978;0.8715;
230.4000;0.8970;0.8690;
230.7000;0.8978;0.8715;
231.0000;0.8978;0.8564;
231.3000;0.8954;0.8564;
231.6000;0.9019;0.8539;
231.9000;0.8978;0.8463;
232.2000;0.8978;0.8463;
232.5000;0.8954;0.8388;
232.8000;0.8954;0.8413;
233.1000;0.8970;0.8564;
233.4000;0.8978;0.8640;
233.7000;0.8954;0.8640;
234.0000;0.8962;0.8539;
234.3000;0.8987;0.8539;
234.6000;0.8987;0.8489;
234.9000;0.8954;0.8413;
235.2000;0.8970;0.8589;
235.5000;0.8962;0.8489;
235.8000;0.8962;0.8388;
236.1000;0.8954;0.8312;
236.4000;0.8978;0.8363;
236.7000;0.8995;0.8514;
237.0000;0.8970;0.8438;
237.3000;0.8962;0.8463;
237.6000;0.8978;0.8438;
237.9000;0.8962;0.8388;
238.2000;0.8978;0.8438;
238.5000;0.8987;0.8463;
238.8000;0.8905;0.8287;
239.1000;0.8987;0.8589;
239.4000;0.8978;0.8665;
239.7000;0.8970;0.8690;
240.0000;0.8962;0.8640;
240.3000;0.8970;0.8640;
240.6000;0.8987;0.8589;
240.9000;0.8978;0.8514;
241.2000;0.8978;0.8589;
241.5000;0.8978;0.8589;
241.8000;0.8978;0.8539;
242.1000;0.9011;0.8740;
242.4000;0.8962;0.8690;
242.7000;0.8978;0.8766;
243.0000;0.8978;0.8715;
243.3000;0.8930;0.8589;
243.6000;0.8978;0.8539;
243.9000;0.8962;0.8463;
244.2000;0.8962;0.8489;
244.5000;0.8970;0.8564;
244.8000;0.8962;0.8564;
245.1000;0.8987;0.8614;
245.4000;0.8962;0.8640;
245.7000;0.8962;0.8640;
246.0000;0.8954;0.8564;
246.3000;0.8970;0.8564;
246.6000;0.8970;0.8614;
246.9000;0.8962;0.8614;
247.2000;0.9019;0.8816;
247.5000;0.8954;0.8715;
247.8000;0.8970;0.8740;
248.1000;0.8946;0.8665;
248.4000;0.8921;0.8589;
248.7000;0.8995;0.8791;
249.0000;0.9003;0.8791;
249.3000;0.8970;0.8715;
249.6000;0.9003;0.8715;
249.9000;0.8978;0.8614;
250.2000;0.8970;0.8640;
250.5000;0.8962;0.8514;
250.8000;0.8970;0.8539;
251.1000;0.9003;0.8614;
251.4000;0.8978;0.8489;
251.7000;0.8978;0.8514;
252.0000;0.8978;0.8514;
252.3000;0.8970;0.8489;
252.6000;0.8978;0.8640;
252.9000;0.8970;0.8564;
253.2000;0.8962;0.8564;
253.5000;0.8978;0.8614;
253.8000;0.8970;0.8564;
254.1000;0.8962;0.8489;
254.4000;0.8962;0.8514;
254.7000;0.8970;0.8589;
255.0000;0.8978;0.8589;
255.3000;0.8978;0.8564;
255.6000;0.8978;0.8514;
255.9000;0.8954;0.8438;
256.2000;0.8970;0.8438;
256.5000;0.8978;0.8463;
256.8000;0.8954;0.8337;
257.1000;0.8970;0.8363;
257.4000;0.8930;0.8237;
257.7000;0.9084;0.8740;
258.0000;0.8962;0.8589;
258.3000;0.8970;0.8514;
258.6000;0.8938;0.8463;
258.9000;0.8954;0.8388;
259.2000;0.8954;0.8438;
259.5000;0.8954;0.8489;
259.8000;0.8970;0.8514;
260.1000;0.8995;0.8589;
260.4000;0.8946;0.8489;
260.7000;0.8970;0.8640;
261.0000;0.8970;0.8791;
261.3000;0.9019;0.8917;
261.6000;0.8954;0.8841;
261.9000;0.8970;0.8841;
262.2000;0.8978;0.8740;
262.5000;0.8978;0.8740;
262.8000;0.8954;0.8740;
263.1000;0.8962;0.8791;
263.4000;0.8962;0.8841;
263.7000;0.8978;0.8816;
264.0000;0.8995;0.8866;
264.3000;0.8978;0.8766;
264.6000;0.8970;0.8640;
264.9000;0.8970;0.8614;
265.2000;0.8995;0.8665;
265.5000;0.8995;0.8766;
265.8000;0.8987;0.8791;
266.1000;0.8987;0.8816;
266.4000;0.8978;0.8816;
266.7000;0.8978;0.8841;
267.0000;0.8978;0.8841;
267.3000;0.8987;0.8892;
267.6000;0.8946;0.8766;
267.9000;0.8970;0.8841;
268.2000;0.8962;0.8665;
268.5000;0.8970;0.8690;
268.8000;0.8970;0.8690;
269.1000;0.8954;0.8665;
269.4000;0.8978;0.8690;
269.7000;0.8962;0.8614;
270.0000;0.8978;0.8665;
270.3000;0.8978;0.8715;
270.6000;0.9011;0.8791;
270.9000;0.8970;0.8740;
271.2000;0.8978;0.8766;
271.5000;0.8978;0.8690;
271.8000;0.8970;0.8614;
272.1000;0.8962;0.8539;
272.4000;0.8962;0.8564;
272.7000;0.8978;0.8589;
273.0000;0.8970;0.8514;
273.3000;0.8987;0.8564;
273.6000;0.8962;0.8614;
273.9000;0.8970;0.8614;
274.2000;0.8978;0.8766;
274.5000;0.8995;0.8715;
274.8000;0.8946;0.8690;
275.1000;0.9011;0.8766;
275.4000;0.8987;0.8715;
275.7000;0.8995;0.8690;
276.0000;0.8987;0.8640;
276.3000;0.8978;0.8589;
276.6000;0.8970;0.8614;
276.9000;0.8962;0.8589;
277.2000;0.8962;0.8463;
277.5000;0.8946;0.8388;
277.8000;0.8954;0.8413;
278.1000;0.8970;0.8438;
278.4000;0.8962;0.8438;
278.7000;0.8978;0.8438;
279.0000;0.8978;0.8514;
279.3000;0.8987;0.8564;
279.6000;0.8954;0.8463;
279.9000;0.8970;0.8463;
280.2000;0.8978;0.8489;
280.5000;0.9003;0.8614;
280.8000;0.8938;0.8463;
281.1000;0.8978;0.8514;
281.4000;0.8970;0.8539;
281.7000;0.8995;0.8640;
282.0000;0.8978;0.8564;
282.3000;0.8978;0.8539;
282.6000;0.8970;0.8564;
282.9000;0.8978;0.8614;
283.2000;0.8962;0.8614;
283.5000;0.8970;0.8614;
283.8000;0.9035;0.8690;
284.1000;0.8962;0.8640;
284.4000;0.8987;0.8665;
284.7000;0.8946;0.8640;
285.0000;0.8954;0.8640;
285.3000;0.8954;0.8564;
285.6000;0.8970;0.8690;
285.9000;0.8930;0.8690;
286.2000;0.8954;0.8766;
286.5000;0.8962;0.8791;
286.8000;0.8946;0.8690;
287.1000;0.8978;0.8715;
287.4000;0.8970;0.8640;
287.7000;0.8987;0.8766;
288.0000;0.8970;0.8766;
288.3000;0.9035;0.8892;
288.6000;0.8970;0.8640;
288.9000;0.8978;0.8690;
289.2000;0.8987;0.8690;
289.5000;0.8987;0.8665;
289.8000;0.8970;0.8614;
290.1000;0.8962;0.8715;
290.4000;0.8995;0.8766;
290.7000;0.8987;0.8740;
291.0000;0.8938;0.8614;
291.3000;0.8978;0.8766;
291.6000;0.8978;0.8791;
291.9000;0.8987;0.8816;
292.2000;0.8970;0.8841;
292.5000;0.8962;0.8942;
292.8000;0.8954;0.8892;
293.1000;0.8930;0.8816;
293.4000;0.8946;0.8791;
293.7000;0.8970;0.8791;
294.0000;0.8946;0.8715;
294.3000;0.8987;0.8841;
294.6000;0.8978;0.8841;
294.9000;0.8987;0.8816;
295.2000;0.8970;0.8791;
295.5000;0.8962;0.8816;
295.8000;0.8970;0.8841;
296.1000;0.9003;0.8942;
296.4000;0.8962;0.8791;
296.7000;0.8987;0.8841;
297.0000;0.8978;0.8892;
297.3000;0.8978;0.8816;
297.6000;0.8978;0.8816;
297.9000;0.8978;0.8791;
298.2000;0.8987;0.8740;
298.5000;0.8987;0.8766;
298.8000;0.8970;0.8766;
299.1000;0.8970;0.8816;
299.4000;0.8978;0.8841;
299.7000;0.9035;0.9017;
300.0000;0.9003;0.8967;
300.3000;0.8970;0.8791;
300.6000;0.8962;0.8740;
300.9000;0.8970;0.8766;
301.2000;0.8970;0.8640;
301.5000;0.9003;0.8665;
301.8000;0.8962;0.8740;
302.1000;0.9084;0.9043;
302.4000;0.8978;0.8740;
302.7000;0.8962;0.8690;
303.0000;0.8970;0.8715;
303.3000;0.8970;0.8640;
303.6000;0.8962;0.8715;
303.9000;0.8962;0.8791;
304.2000;0.8962;0.8766;
304.5000;0.8962;0.8816;
304.8000;0.9060;0.9068;
305.1000;0.8962;0.8816;
305.4000;0.8954;0.8766;
305.7000;0.8970;0.8816;
306.0000;0.8978;0.8816;
306.3000;0.8970;0.8766;
306.6000;0.8921;0.8665;
306.9000;0.8962;0.8766;
307.2000;0.8970;0.8791;
307.5000;0.8930;0.8766;
307.8000;0.8995;0.9017;
308.1000;0.8978;0.8992;
308.4000;0.8987;0.9093;
308.7000;0.8995;0.9169;
309.0000;0.8970;0.9068;
309.3000;0.8962;0.9068;
309.6000;0.8978;0.9093;
309.9000;0.8987;0.9068;
310.2000;0.8978;0.8992;
310.5000;0.8995;0.8967;
310.8000;0.8987;0.8967;
311.1000;0.8962;0.8917;
311.4000;0.8970;0.8967;
311.7000;0.8962;0.9017;
312.0000;0.8962;0.9118;
312.3000;0.8978;0.9017;
312.6000;0.8970;0.9017;
312.9000;0.8962;0.8942;
313.2000;0.8978;0.8967;
313.5000;0.8978;0.8942;
313.8000;0.8946;0.8892;
314.1000;0.8921;0.8917;
314.4000;0.8962;0.8866;
314.7000;0.8946;0.8841;
315.0000;0.8962;0.8816;
315.3000;0.8978;0.8816;
315.6000;0.8938;0.8841;
315.9000;0.8978;0.8816;
316.2000;0.8954;0.8715;
316.5000;0.8873;0.8489;
316.8000;0.8954;0.8690;
317.1000;0.8913;0.8539;
317.4000;0.8954;0.8740;
317.7000;0.8970;0.8715;
318.0000;0.8978;0.8740;
318.3000;0.8970;0.8690;
318.6000;0.8970;0.8715;
318.9000;0.8978;0.8816;
319.2000;0.8946;0.8816;
319.5000;0.8946;0.8866;
319.8000;0.8970;0.8892;
320.1000;0.8962;0.8917;
320.4000;0.8962;0.8816;
320.7000;0.8954;0.8766;
321.0000;0.8978;0.8816;
321.3000;0.8978;0.8841;
321.6000;0.9011;0.9017;
321.9000;0.8946;0.8866;
322.2000;0.8962;0.8816;
322.5000;0.8962;0.8917;
322.8000;0.8962;0.9017;
323.1000;0.8962;0.9017;
323.4000;0.8946;0.8942;
323.7000;0.8987;0.8967;
324.0000;0.8954;0.8917;
324.3000;0.8938;0.8866;
324.6000;0.8913;0.8791;
324.9000;0.8962;0.8766;
325.2000;0.8970;0.8690;
325.5000;0.8970;0.8715;
325.8000;0.8946;0.8589;
326.1000;0.8970;0.8614;
326.4000;0.8962;0.8690;
326.7000;0.8962;0.8740;
327.0000;0.8970;0.8816;
327.3000;0.8970;0.8816;
327.6000;0.8995;0.8967;
327.9000;0.8938;0.8841;
328.2000;0.8962;0.8816;
328.5000;0.8962;0.8892;
328.8000;0.8995;0.8942;
329.1000;0.8978;0.8967;
329.4000;0.8978;0.9017;
329.7000;0.8995;0.9043;
330.0000;0.8962;0.8892;
330.3000;0.8978;0.8942;
330.6000;0.8978;0.8942;
330.9000;0.8970;0.8917;
331.2000;0.8954;0.8892;
331.5000;0.8962;0.8967;
331.8000;0.8978;0.8967;
332.1000;0.8978;0.8942;
332.4000;0.8970;0.8866;
332.7000;0.8970;0.8866;
333.0000;0.8970;0.8892;
333.3000;0.8970;0.8917;
333.6000;0.8970;0.8917;
333.9000;0.8978;0.8942;
334.2000;0.8970;0.8917;
334.5000;0.8987;0.8967;
334.8000;0.8970;0.8917;
335.1000;0.8978;0.9017;
335.4000;0.8978;0.9017;
335.7000;0.8970;0.8992;
336.0000;0.8970;0.8992;
336.3000;0.8954;0.8967;
336.6000;0.8970;0.9043;
336.9000;0.8970;0.9043;
337.2000;0.8987;0.9118;
337.5000;0.8962;0.9017;
337.8000;0.8970;0.9043;
338.1000;0.8962;0.9017;
338.4000;0.8962;0.9017;
338.7000;0.8962;0.8967;
339.0000;0.8970;0.8967;
339.3000;0.9019;0.9068;
339.6000;0.8962;0.8942;
339.9000;0.8978;0.9068;
340.2000;0.8962;0.9017;
340.5000;0.8970;0.9143;
340.8000;0.8970;0.9219;
341.1000;0.8970;0.9244;
341.4000;0.8978;0.9244;
341.7000;0.8978;0.9194;
342.0000;0.8978;0.9169;
342.3000;0.8970;0.9169;
342.6000;0.8970;0.9043;
342.9000;0.8987;0.8992;
343.2000;0.8962;0.8892;
343.5000;0.8970;0.8942;
343.8000;0.8946;0.8992;
344.1000;0.9068;0.9320;
344.4000;0.8978;0.9043;
344.7000;0.8954;0.9093;
345.0000;0.8970;0.9244;
345.3000;0.8962;0.9269;
345.6000;0.8995;0.9345;
345.9000;0.8978;0.9219;
346.2000;0.8938;0.9093;
346.5000;0.8962;0.9169;
346.8000;0.8946;0.9118;
347.1000;0.8946;0.9118;
347.4000;0.8954;0.9017;
347.7000;0.8946;0.8942;
348.0000;0.8962;0.8992;
348.3000;0.8970;0.9068;
348.6000;0.8946;0.9093;
348.9000;0.8962;0.9143;
349.2000;0.8954;0.9068;
349.5000;0.8938;0.9093;
349.8000;0.8962;0.9244;
350.1000;0.8954;0.9143;
350.4000;0.8946;0.9169;
350.7000;0.8970;0.9219;
351.0000;0.8946;0.9169;
351.3000;0.8962;0.9269;
351.6000;0.8978;0.9320;
351.9000;0.8962;0.9269;
352.2000;0.8978;0.9244;
352.5000;0.8946;0.9068;
352.8000;0.8938;0.9043;
353.1000;0.8962;0.9194;
353.4000;0.8987;0.9320;
353.7000;0.8962;0.9244;
354.0000;0.8962;0.9194;
354.3000;0.8962;0.9219;
354.6000;0.8946;0.9169;
354.9000;0.9003;0.9320;
355.2000;0.8970;0.9169;
355.5000;0.8938;0.9143;
355.8000;0.8962;0.9219;
356.1000;0.8970;0.9269;
356.4000;0.8962;0.9219;
356.7000;0.8954;0.9194;
357.0000;0.8970;0.9269;
357.3000;0.8970;0.9219;
357.6000;0.8970;0.9194;
357.9000;0.8970;0.9269;
358.2000;0.8962;0.9219;
358.5000;0.8978;0.9219;
358.8000;0.8970;0.9118;
359.1000;0.8970;0.9169;
359.4000;0.8962;0.9143;
359.7000;0.8978;0.9244;
360.0000;0.8962;0.9244;
360.3000;0.8913;0.9068;
360.6000;0.8962;0.9118;
360.9000;0.9027;0.9244;
361.2000;0.8946;0.9043;
361.5000;0.8970;0.9093;
361.8000;0.8962;0.9068;
362.1000;0.8978;0.9068;
362.4000;0.8954;0.9017;
362.7000;0.8954;0.9068;
363.0000;0.8938;0.9017;
363.3000;0.8978;0.9068;
363.6000;0.8954;0.8992;
363.9000;0.8987;0.9043;
364.2000;0.8987;0.9118;
364.5000;0.8962;0.9093;
364.8000;0.8954;0.9093;
365.1000;0.9003;0.9244;
365.4000;0.8946;0.9143;
365.7000;0.8954;0.9169;
366.0000;0.8938;0.9068;
366.3000;0.8954;0.9143;
366.6000;0.8987;0.9269;
366.9000;0.8954;0.9244;
367.2000;0.8970;0.9345;
367.5000;0.8954;0.9320;
367.8000;0.8970;0.9345;
368.1000;0.8954;0.9345;
368.4000;0.8978;0.9395;
368.7000;0.8954;0.9320;
369.0000;0.8954;0.9320;
369.3000;0.8962;0.9320;
369.6000;0.8954;0.9244;
369.9000;0.8930;0.9143;
370.2000;0.8970;0.9269;
370.5000;0.8962;0.9269;
370.8000;0.8962;0.9244;
371.1000;0.8962;0.9219;
371.4000;0.8954;0.9244;
371.7000;0.8962;0.9118;
372.0000;0.8970;0.9194;
372.3000;0.8978;0.9169;
372.6000;0.8962;0.9194;
372.9000;0.8905;0.9017;
373.2000;0.8970;0.9219;
373.5000;0.8970;0.9169;
373.8000;0.8978;0.9194;
374.1000;0.8946;0.9143;
374.4000;0.8962;0.9244;
374.7000;0.8954;0.9219;
375.0000;0.8954;0.9244;
375.3000;0.8970;0.9295;
375.6000;0.8897;0.9093;
375.9000;0.8962;0.9244;
376.2000;0.8970;0.9370;
376.5000;0.9019;0.9395;
376.8000;0.8954;0.9169;
377.1000;0.8962;0.9194;
377.4000;0.8946;0.9118;
377.7000;0.9003;0.9169;
378.0000;0.8946;0.9093;
378.3000;0.8954;0.9194;
378.6000;0.8970;0.9269;
378.9000;0.8987;0.9370;
379.2000;0.8946;0.9345;
379.5000;0.8946;0.9370;
379.8000;0.8954;0.9421;
380.1000;0.8954;0.9421;
380.4000;0.8946;0.9421;
380.7000;0.8938;0.9395;
381.0000;0.8946;0.9345;
381.3000;0.8962;0.9370;
381.6000;0.8954;0.9370;
381.9000;0.8946;0.9345;
382.2000;0.8962;0.9345;
382.5000;0.8970;0.9395;
382.8000;0.8962;0.9421;
383.1000;0.8954;0.9345;
383.4000;0.8954;0.9269;
383.7000;0.8962;0.9244;
384.0000;0.8921;0.9068;
384.3000;0.8954;0.9169;
384.6000;0.8962;0.9169;
384.9000;0.8938;0.9169;
385.2000;0.8938;0.9169;
385.5000;0.8954;0.9244;
385.8000;0.8954;0.9295;
386.1000;0.8938;0.9269;
386.4000;0.8962;0.9370;
386.7000;0.8962;0.9370;
387.0000;0.8987;0.9395;
387.3000;0.8962;0.9370;
387.6000;0.8954;0.9395;
387.9000;0.8987;0.9521;
388.2000;0.8946;0.9421;
388.5000;0.8946;0.9395;
388.8000;0.8978;0.9471;
389.1000;0.8987;0.9421;
389.4000;0.8970;0.9395;
389.7000;0.8962;0.9370;
390.0000;0.8954;0.9421;
390.3000;0.8954;0.9496;
390.6000;0.8946;0.9446;
390.9000;0.8954;0.9421;
391.2000;0.8978;0.9421;
391.5000;0.9011;0.9521;
391.8000;0.8987;0.9421;
392.1000;0.8905;0.9169;
392.4000;0.8962;0.9295;
392.7000;0.8946;0.9269;
393.0000;0.8970;0.9219;
393.3000;0.8962;0.9194;
393.6000;0.8962;0.9244;
393.9000;0.8970;0.9345;
394.2000;0.8946;0.9244;
394.5000;0.8954;0.9219;
394.8000;0.9019;0.9370;
395.1000;0.8962;0.9295;
395.4000;0.8962;0.9395;
395.7000;0.8962;0.9370;
396.0000;0.8930;0.9320;
396.3000;0.8970;0.9395;
396.6000;0.8954;0.9295;
396.9000;0.8946;0.9269;
397.2000;0.8946;0.9345;
397.5000;0.8954;0.9370;
397.8000;0.8946;0.9471;
398.1000;0.8962;0.9345;
398.4000;0.8954;0.9320;
398.7000;0.8946;0.9345;
399.0000;0.8946;0.9345;
399.3000;0.8954;0.9370;
399.6000;0.8946;0.9395;
399.9000;0.8864;0.9169;
400.2000;0.8954;0.9370;
400.5000;0.8913;0.9320;
400.8000;0.8946;0.9345;
401.1000;0.8938;0.9295;
401.4000;0.8962;0.9269;
401.7000;0.8921;0.9295;
402.0000;0.8954;0.9345;
402.3000;0.8913;0.9093;
402.6000;0.8962;0.9169;
402.9000;0.8897;0.8992;
403.2000;0.8946;0.9093;
403.5000;0.8946;0.9143;
403.8000;0.8954;0.9194;
404.1000;0.8954;0.9269;
404.4000;0.8962;0.9345;
404.7000;0.8954;0.9370;
405.0000;0.8946;0.9345;
405.3000;0.8995;0.9345;
405.6000;0.8954;0.9345;
405.9000;0.8946;0.9320;
406.2000;0.8938;0.9295;
406.5000;0.8954;0.9370;
406.8000;0.8930;0.9421;
407.1000;0.8954;0.9521;
407.4000;0.8938;0.9471;
407.7000;0.8946;0.9496;
408.0000;0.8889;0.9446;
408.3000;0.9044;0.9773;
408.6000;0.8962;0.9521;
408.9000;0.8946;0.9471;
409.2000;0.8930;0.9320;
409.5000;0.8970;0.9295;
409.8000;0.8921;0.9295;
410.1000;0.8897;0.9143;
410.4000;0.8946;0.9295;
410.7000;0.8938;0.9295;
411.0000;0.8978;0.9320;
411.3000;0.9044;0.9521;
411.6000;0.8946;0.9169;
411.9000;0.8954;0.9118;
412.2000;0.8954;0.9219;
412.5000;0.8954;0.9244;
412.8000;0.8970;0.9295;
413.1000;0.8970;0.9244;
413.4000;0.8946;0.9194;
413.7000;0.8962;0.9295;
414.0000;0.8905;0.9118;
414.3000;0.8930;0.9194;
414.6000;0.8938;0.9219;
414.9000;0.8962;0.9295;
415.2000;0.8962;0.9295;
415.5000;0.8946;0.9219;
415.8000;0.8954;0.9269;
416.1000;0.8946;0.9295;
416.4000;0.8938;0.9244;
416.7000;0.8938;0.9219;
417.0000;0.8962;0.9244;
417.3000;0.8930;0.9219;
417.6000;0.8962;0.9194;
417.9000;0.8930;0.9169;
418.2000;0.8946;0.9269;
418.5000;0.8954;0.9244;
418.8000;0.8921;0.9194;
419.1000;0.8946;0.9244;
419.4000;0.8954;0.9320;
419.7000;0.8946;0.9345;
420.0000;0.8913;0.9370;
420.3000;0.8962;0.9446;
420.6000;0.8954;0.9345;
420.9000;0.8930;0.9194;
421.2000;0.8938;0.9295;
421.5000;0.8995;0.9446;
421.8000;0.8978;0.9446;
422.1000;0.8962;0.9370;
422.4000;0.8962;0.9345;
422.7000;0.8962;0.9370;
423.0000;0.8970;0.9395;
423.3000;0.8946;0.9395;
423.6000;0.8978;0.9471;
423.9000;0.8954;0.9496;
424.2000;0.8962;0.9521;
424.5000;0.8962;0.9521;
424.8000;0.8954;0.9521;
425.1000;0.8946;0.9395;
425.4000;0.8913;0.9269;
425.7000;0.8954;0.9345;
426.0000;0.8946;0.9370;
426.3000;0.8954;0.9446;
426.6000;0.8938;0.9370;
426.9000;0.8954;0.9421;
427.2000;0.8962;0.9370;
427.5000;0.8930;0.9295;
427.8000;0.8938;0.9219;
428.1000;0.8978;0.9395;
428.4000;0.8987;0.9446;
428.7000;0.8962;0.9471;
429.0000;0.8962;0.9546;
429.3000;0.8987;0.9597;
429.6000;0.8962;0.9546;
429.9000;0.8930;0.9446;
430.2000;0.8946;0.9546;
430.5000;0.8962;0.9496;
430.8000;0.8954;0.9471;
431.1000;0.8987;0.9496;
431.4000;0.8954;0.9370;
431.7000;0.8946;0.9370;
432.0000;0.8970;0.9496;
432.3000;0.8913;0.9320;
432.6000;0.8962;0.9395;
432.9000;0.8946;0.9269;
433.2000;0.8946;0.9269;
433.5000;0.8962;0.9320;
433.8000;0.8954;0.9295;
434.1000;0.8970;0.9421;
434.4000;0.8954;0.9370;
434.7000;0.8970;0.9370;
435.0000;0.8954;0.9320;
435.3000;0.8954;0.9320;
435.6000;0.8954;0.9370;
435.9000;0.8938;0.9320;
436.2000;0.8962;0.9446;
436.5000;0.8954;0.9496;
436.8000;0.8962;0.9471;
437.1000;0.8954;0.9496;
437.4000;0.8995;0.9446;
437.7000;0.8954;0.9219;
438.0000;0.8946;0.9194;
438.3000;0.8962;0.9169;
438.6000;0.8970;0.9244;
438.9000;0.8946;0.9244;
439.2000;0.8889;0.9043;
439.5000;0.8938;0.9169;
439.8000;0.8962;0.9194;
440.1000;0.8954;0.9244;
440.4000;0.8946;0.9244;
440.7000;0.8954;0.9320;
441.0000;0.8930;0.9269;
441.3000;0.8954;0.9269;
441.6000;0.8946;0.9219;
441.9000;0.8938;0.9118;
442.2000;0.8962;0.9118;
442.5000;0.8978;0.9169;
442.8000;0.8978;0.9194;
443.1000;0.8970;0.9219;
443.4000;0.8946;0.9169;
443.7000;0.8921;0.9219;
444.0000;0.8930;0.9295;
444.3000;0.8970;0.9345;
444.6000;0.9003;0.9546;
444.9000;0.8987;0.9521;
445.2000;0.8970;0.9521;
445.5000;0.8938;0.9496;
445.8000;0.8978;0.9597;
446.1000;0.8946;0.9496;
446.4000;0.8897;0.9370;
446.7000;0.8921;0.9345;
447.0000;0.9003;0.9446;
447.3000;0.8954;0.9370;
447.6000;0.9068;0.9546;
447.9000;0.8946;0.9269;
448.2000;0.8946;0.9446;
448.5000;0.8946;0.9395;
448.8000;0.8921;0.9395;
449.1000;0.8954;0.9446;
449.4000;0.8962;0.9370;
449.7000;0.8954;0.9320;
450.0000;0.8995;0.9370;
450.3000;0.8930;0.9295;
450.6000;0.8938;0.9345;
450.9000;0.8962;0.9421;
451.2000;0.8954;0.9370;
451.5000;0.8938;0.9370;
451.8000;0.8938;0.9295;
452.1000;0.8954;0.9370;
452.4000;0.8938;0.9446;
452.7000;0.8962;0.9471;
453.0000;0.8930;0.9421;
453.3000;0.8938;0.9370;
453.6000;0.8954;0.9471;
453.9000;0.8921;0.9345;
454.2000;0.8946;0.9295;
454.5000;0.8938;0.9194;
454.8000;0.8930;0.9169;
455.1000;0.9003;0.9395;
455.4000;0.8962;0.9345;
455.7000;0.8946;0.9320;
456.0000;0.8946;0.9370;
456.3000;0.8938;0.9269;
456.6000;0.8946;0.9295;
456.9000;0.8946;0.9295;
457.2000;0.8889;0.9043;
457.5000;0.8938;0.9143;
457.8000;0.8938;0.9169;
458.1000;0.8930;0.9169;
458.4000;0.8938;0.9219;
458.7000;0.8954;0.9244;
459.0000;0.8962;0.9320;
459.3000;0.8946;0.9320;
459.6000;0.8946;0.9320;
459.9000;0.8938;0.9320;
460.2000;0.8954;0.9345;
460.5000;0.8946;0.9395;
460.8000;0.8962;0.9521;
461.1000;0.8995;0.9471;
461.4000;0.8946;0.9370;
461.7000;0.8962;0.9496;
462.0000;0.8962;0.9521;
462.3000;0.8954;0.9446;
462.6000;0.8946;0.9521;
462.9000;0.8987;0.9622;
463.2000;0.8946;0.9546;
463.5000;0.8954;0.9471;
463.8000;0.8954;0.9421;
464.1000;0.8946;0.9395;
464.4000;0.8946;0.9370;
464.7000;0.8946;0.9421;
465.0000;0.8970;0.9295;
465.3000;0.8938;0.9194;
465.6000;0.8978;0.9244;
465.9000;0.8962;0.9219;
466.2000;0.8987;0.9269;
466.5000;0.8954;0.9269;
466.8000;0.8962;0.9320;
467.1000;0.8954;0.9244;
467.4000;0.8954;0.9295;
467.7000;0.9003;0.9421;
468.0000;0.8962;0.9320;
468.3000;0.8962;0.9320;
468.6000;0.8987;0.9471;
468.9000;0.8946;0.9572;
469.2000;0.8954;0.9572;
469.5000;0.8921;0.9370;
469.8000;0.8954;0.9395;
470.1000;0.8946;0.9471;
470.4000;0.9019;0.9622;
470.7000;0.8946;0.9471;
471.0000;0.8938;0.9546;
471.3000;0.8938;0.9546;
471.6000;0.8946;0.9521;
471.9000;0.8930;0.9496;
472.2000;0.8930;0.9471;
472.5000;0.8938;0.9421;
472.8000;0.8930;0.9421;
473.1000;0.8938;0.9446;
473.4000;0.8946;0.9421;
473.7000;0.8913;0.9496;
474.0000;0.8938;0.9521;
474.3000;0.8946;0.9521;
474.6000;0.8938;0.9521;
474.9000;0.8946;0.9572;
475.2000;0.8938;0.9546;
475.5000;0.8954;0.9395;
475.8000;0.8946;0.9320;
476.1000;0.8946;0.9320;
476.4000;0.8954;0.9395;
476.7000;0.8946;0.9345;
477.0000;0.8921;0.9244;
477.3000;0.8946;0.9421;
477.6000;0.8946;0.9395;
477.9000;0.8913;0.9370;
478.2000;0.8946;0.9395;
478.5000;0.8938;0.9421;
478.8000;0.8938;0.9395;
479.1000;0.8938;0.9421;
479.4000;0.8938;0.9446;
479.7000;0.8930;0.9521;
480.0000;0.8930;0.9597;
480.3000;0.8938;0.9597;
480.6000;0.8938;0.9597;
480.9000;0.8954;0.9521;
481.2000;0.8921;0.9496;
481.5000;0.8938;0.9572;
481.8000;0.8970;0.9698;
482.1000;0.8954;0.9622;
482.4000;0.8930;0.9521;
482.7000;0.8946;0.9546;
483.0000;0.8921;0.9521;
483.3000;0.8954;0.9597;
483.6000;0.8954;0.9597;
483.9000;0.8938;0.9496;
484.2000;0.8987;0.9597;
484.5000;0.8954;0.9572;
484.8000;0.9027;0.9824;
485.1000;0.8921;0.9622;
485.4000;0.8921;0.9647;
485.7000;0.8970;0.9748;
486.0000;0.8946;0.9647;
486.3000;0.8938;0.9647;
486.6000;0.8930;0.9647;
486.9000;0.8970;0.9723;
487.2000;0.8930;0.9572;
487.5000;0.8930;0.9546;
487.8000;0.8946;0.9546;
488.1000;0.8946;0.9597;
488.4000;0.8905;0.9421;
488.7000;0.8946;0.9521;
489.0000;0.8938;0.9496;
489.3000;0.8881;0.9269;
489.6000;0.8946;0.9446;
489.9000;0.8938;0.9446;
490.2000;0.8938;0.9370;
490.5000;0.8946;0.9446;
490.8000;0.8954;0.9446;
491.1000;0.8938;0.9446;
491.4000;0.8946;0.9446;
491.7000;0.8954;0.9421;
492.0000;0.8954;0.9370;
492.3000;0.8946;0.9320;
492.6000;0.8889;0.9194;
492.9000;0.8946;0.9219;
493.2000;0.8946;0.9219;
493.5000;0.8962;0.9320;
493.8000;0.8954;0.9395;
494.1000;0.8930;0.9320;
494.4000;0.8946;0.9295;
494.7000;0.8962;0.9395;
495.0000;0.8946;0.9345;
495.3000;0.8938;0.9320;
495.6000;0.8946;0.9471;
495.9000;0.8954;0.9572;
496.2000;0.8938;0.9496;
496.5000;0.8938;0.9471;
496.8000;0.8946;0.9471;
497.1000;0.8938;0.9521;
497.4000;0.8954;0.9647;
497.7000;0.8954;0.9672;
498.0000;0.8938;0.9597;
498.3000;0.8946;0.9597;
498.6000;0.8946;0.9597;
498.9000;0.8946;0.9647;
499.2000;0.8954;0.9622;
499.5000;0.8962;0.9647;
499.8000;0.8954;0.9698;
500.1000;0.8962;0.9698;
500.4000;0.8954;0.9723;
500.7000;0.8930;0.9647;
501.0000;0.8970;0.9672;
501.3000;0.8946;0.9647;
501.6000;0.8938;0.9622;
501.9000;0.8938;0.9597;
502.2000;0.8954;0.9622;
502.5000;0.8954;0.9723;
502.8000;0.8946;0.9698;
503.1000;0.8995;0.9647;
503.4000;0.8938;0.9496;
503.7000;0.8946;0.9546;
504.0000;0.8954;0.9572;
504.3000;0.8946;0.9672;
504.6000;0.8978;0.9723;
504.9000;0.8946;0.9698;
505.2000;0.8946;0.9597;
505.5000;0.8905;0.9471;
505.8000;0.8938;0.9622;
506.1000;0.8954;0.9723;
506.4000;0.8946;0.9723;
506.7000;0.8938;0.9672;
507.0000;0.8946;0.9647;
507.3000;0.8938;0.9597;
507.6000;0.8938;0.9597;
507.9000;0.8954;0.9496;
508.2000;0.8938;0.9421;
508.5000;0.8938;0.9421;
508.8000;0.9011;0.9672;
509.1000;0.8930;0.9395;
509.4000;0.8938;0.9471;
509.7000;0.8946;0.9521;
510.0000;0.8930;0.9521;
510.3000;0.8954;0.9521;
510.6000;0.8946;0.9496;
510.9000;0.8954;0.9446;
511.2000;0.8954;0.9421;
511.5000;0.8946;0.9471;
511.8000;0.8946;0.9471;
512.1000;0.8954;0.9471;
512.4000;0.8946;0.9597;
512.7000;0.8946;0.9647;
513.0000;0.8938;0.9572;
513.3000;0.8938;0.9546;
513.6000;0.8938;0.9597;
513.9000;0.8913;0.9572;
514.2000;0.8930;0.9647;
514.5000;0.8921;0.9622;
514.8000;0.8938;0.9672;
515.1000;0.8938;0.9647;
515.4000;0.8954;0.9622;
515.7000;0.8946;0.9597;
516.0000;0.8938;0.9622;
516.3000;0.8954;0.9723;
516.6000;0.8946;0.9647;
516.9000;0.8938;0.9622;
517.2000;0.8946;0.9622;
517.5000;0.8938;0.9622;
517.8000;0.8938;0.9597;
518.1000;0.8946;0.9597;
518.4000;0.8930;0.9496;
518.7000;0.8873;0.9320;
519.0000;0.8954;0.9521;
519.3000;0.8921;0.9421;
519.6000;0.8881;0.9295;
519.9000;0.8938;0.9446;
520.2000;0.8954;0.9421;
520.5000;0.8938;0.9320;
520.8000;0.8913;0.9244;
521.1000;0.8905;0.9118;
521.4000;0.8962;0.9244;
521.7000;0.8938;0.9295;
522.0000;0.8938;0.9370;
522.3000;0.8938;0.9370;
522.6000;0.8921;0.9345;
522.9000;0.8913;0.9370;
523.2000;0.8897;0.9370;
523.5000;0.8921;0.9446;
523.8000;0.8946;0.9471;
524.1000;0.8930;0.9471;
524.4000;0.8954;0.9446;
524.7000;0.8938;0.9546;
525.0000;0.8905;0.9521;
525.3000;0.9035;0.9924;
525.6000;0.8954;0.9773;
525.9000;0.8921;0.9647;
526.2000;0.8946;0.9698;
526.5000;0.8954;0.9698;
526.8000;0.8954;0.9698;
527.1000;0.8995;0.9849;
527.4000;0.8938;0.9723;
527.7000;0.8938;0.9647;
528.0000;0.8962;0.9647;
528.3000;0.9035;0.9899;
528.6000;0.8930;0.9622;
528.9000;0.8946;0.9698;
529.2000;0.8954;0.9748;
529.5000;0.8970;0.9748;
529.8000;0.8938;0.9672;
530.1000;0.8954;0.9647;
530.4000;0.8954;0.9723;
530.7000;0.8946;0.9748;
531.0000;0.8946;0.9798;
531.3000;0.8938;0.9798;
531.6000;0.8938;0.9798;
531.9000;0.8905;0.9622;
532.2000;0.8938;0.9773;
532.5000;0.8954;0.9798;
532.8000;0.8946;0.9748;
533.1000;0.8954;0.9723;
533.4000;0.8946;0.9698;
533.7000;0.8946;0.9672;
534.0000;0.8962;0.9622;
534.3000;0.8954;0.9572;
534.6000;0.8946;0.9698;
534.9000;0.8946;0.9672;
535.2000;0.8946;0.9647;
535.5000;0.8954;0.9647;
535.8000;0.8962;0.9672;
536.1000;0.8954;0.9622;
536.4000;0.8921;0.9622;
536.7000;0.8978;0.9698;
537.0000;0.8954;0.9572;
537.3000;0.8930;0.9496;
537.6000;0.8864;0.9370;
537.9000;0.8938;0.9597;
538.2000;0.8930;0.9672;
538.5000;0.8881;0.9572;
538.8000;0.8905;0.9597;
539.1000;0.8930;0.9672;
539.4000;0.8930;0.9672;
539.7000;0.8856;0.9496;
540.0000;0.8840;0.9546;
540.3000;0.8921;0.9849;
540.6000;0.8840;0.9597;
540.9000;0.8930;0.9824;
541.2000;0.8946;0.9849;
541.5000;0.8930;0.9698;
541.8000;0.8938;0.9647;
542.1000;0.8938;0.9672;
542.4000;0.8938;0.9748;
542.7000;0.8987;0.9824;
543.0000;0.8921;0.9572;
543.3000;0.8962;0.9597;
543.6000;0.8921;0.9471;
543.9000;0.8897;0.9471;
544.2000;0.8930;0.9496;
544.5000;0.8873;0.9370;
544.8000;0.8930;0.9572;
545.1000;0.8930;0.9572;
545.4000;0.8889;0.9496;
545.7000;0.8938;0.9647;
546.0000;0.8987;0.9723;
546.3000;0.8946;0.9647;
546.6000;0.8954;0.9723;
546.9000;0.8962;0.9748;
547.2000;0.8946;0.9647;
547.5000;0.8946;0.9672;
547.8000;0.8962;0.9773;
548.1000;0.8970;0.9798;
548.4000;0.8938;0.9748;
548.7000;0.8930;0.9773;
549.0000;0.8946;0.9798;
549.3000;0.8987;0.9899;
549.6000;0.8938;0.9824;
549.9000;0.8938;0.9798;
550.2000;0.8930;0.9672;
550.5000;0.8938;0.9672;
550.8000;0.8946;0.9597;
551.1000;0.8938;0.9546;
551.4000;0.8921;0.9546;
551.7000;0.8938;0.9597;
552.0000;0.8913;0.9647;
552.3000;0.9003;0.9874;
552.6000;0.8930;0.9798;
552.9000;0.8938;0.9874;
553.2000;0.8946;0.9924;
553.5000;0.8889;0.9798;
553.8000;0.8873;0.9824;
554.1000;0.8921;0.9899;
554.4000;0.8938;0.9924;
554.7000;0.8930;0.9874;
555.0000;0.8913;0.9849;
555.3000;0.8913;0.9798;
555.6000;0.8938;0.9773;
555.9000;0.8921;0.9723;
556.2000;0.9003;0.9773;
556.5000;0.8905;0.9572;
556.8000;0.8938;0.9622;
557.1000;0.8954;0.9622;
557.4000;0.8962;0.9597;
557.7000;0.8921;0.9546;
558.0000;0.8930;0.9521;
558.3000;0.8930;0.9546;
558.6000;0.8848;0.9320;
558.9000;0.8913;0.9572;
559.2000;0.8938;0.9597;
559.5000;0.8889;0.9421;
559.8000;0.8954;0.9622;
560.1000;0.8921;0.9597;
560.4000;0.8930;0.9698;
560.7000;0.8921;0.9773;
561.0000;0.8962;0.9824;
561.3000;0.8930;0.9748;
561.6000;0.8970;0.9924;
561.9000;0.8978;0.9949;
562.2000;0.8938;0.9849;
562.5000;0.8970;0.9874;
562.8000;0.8930;0.9824;
563.1000;0.8954;0.9773;
563.4000;0.8930;0.9698;
563.7000;0.8921;0.9748;
564.0000;0.8962;0.9849;
564.3000;0.8921;0.9672;
564.6000;0.8987;0.9798;
564.9000;0.8938;0.9698;
565.2000;0.8921;0.9773;
565.5000;0.8938;0.9849;
565.8000;0.8930;0.9773;
566.1000;0.8946;0.9773;
566.4000;0.9011;1.0025;
566.7000;0.8921;0.9798;
567.0000;0.8921;0.9824;
567.3000;0.8954;0.9949;
567.6000;0.8946;0.9874;
567.9000;0.8921;0.9899;
568.2000;0.8930;0.9874;
568.5000;0.8978;0.9975;
568.8000;0.8938;0.9975;
569.1000;0.8946;0.9949;
569.4000;0.8938;0.9949;
569.7000;0.8938;1.0000;
570.0000;0.8938;0.9975;
570.3000;0.8938;1.0000;
570.6000;0.8954;1.0075;
570.9000;0.8938;0.9975;
571.2000;0.8930;0.9949;
571.5000;0.8946;0.9949;
571.8000;0.8938;0.9899;
572.1000;0.8930;0.9849;
572.4000;0.8962;0.9849;
572.7000;0.8938;0.9798;
573.0000;0.8913;0.9698;
573.3000;0.8938;0.9798;
573.6000;0.8921;0.9723;
573.9000;0.8938;0.9748;
574.2000;0.8954;0.9773;
574.5000;0.8938;0.9698;
574.8000;0.8921;0.9672;
575.1000;0.8970;0.9798;
575.4000;0.8921;0.9647;
575.7000;0.8930;0.9672;
576.0000;0.8987;0.9824;
576.3000;0.8946;0.9698;
576.6000;0.8946;0.9798;
576.9000;0.8938;0.9798;
577.2000;0.8881;0.9597;
577.5000;0.8995;0.9824;
577.8000;0.8987;0.9874;
578.1000;0.8962;0.9798;
578.4000;0.8930;0.9647;
578.7000;0.8970;0.9798;
579.0000;0.8938;0.9698;
579.3000;0.8938;0.9597;
579.6000;0.8856;0.9395;
579.9000;0.8930;0.9647;
580.2000;0.9027;0.9899;
580.5000;0.8962;0.9723;
580.8000;0.8954;0.9622;
581.1000;0.8962;0.9647;
581.4000;0.8962;0.9723;
581.7000;0.8962;0.9723;
582.0000;0.8913;0.9622;
582.3000;0.8930;0.9748;
582.6000;0.8946;0.9874;
582.9000;0.8938;0.9975;
583.2000;0.8930;0.9874;
583.5000;0.8921;0.9773;
583.8000;0.8930;0.9723;
584.1000;0.8913;0.9647;
584.4000;0.8921;0.9748;
584.7000;0.8921;0.9647;
585.0000;0.8930;0.9622;
585.3000;0.8930;0.9647;
585.6000;0.8921;0.9672;
585.9000;0.8978;0.9899;
586.2000;0.8921;0.9723;
586.5000;0.8938;0.9824;
586.8000;0.8954;0.9849;
587.1000;0.8921;0.9824;
587.4000;0.8938;0.9899;
587.7000;0.8938;0.9874;
588.0000;0.8930;0.9824;
588.3000;0.8938;0.9824;
588.6000;0.8930;0.9849;
588.9000;0.8954;0.9975;
589.2000;0.8921;0.9949;
589.5000;0.8930;1.0025;
589.8000;0.8921;1.0050;
590.1000;0.8938;1.0050;
590.4000;0.8930;1.0126;
590.7000;0.8921;1.0101;
591.0000;0.8864;0.9975;
591.3000;0.8921;1.0126;
591.6000;0.8930;1.0050;
591.9000;0.8913;0.9949;
592.2000;0.8913;1.0000;
592.5000;0.8921;0.9949;
592.8000;0.8930;0.9949;
593.1000;0.8921;0.9975;
593.4000;0.8930;1.0025;
593.7000;0.8913;0.9975;
594.0000;0.8954;1.0126;
594.3000;0.8921;0.9949;
594.6000;0.8921;0.9849;
594.9000;0.8930;0.9798;
595.2000;0.8930;0.9798;
595.5000;0.8921;0.9773;
595.8000;0.8905;0.9824;
596.1000;0.8978;0.9924;
596.4000;0.8938;0.9824;
596.7000;0.8946;0.9924;
597.0000;0.8938;0.9824;
597.3000;0.8930;0.9773;
597.6000;0.8938;0.9798;
597.9000;0.8938;0.9824;
598.2000;0.8930;0.9798;
598.5000;0.8930;0.9824;
598.8000;0.8930;0.9924;
599.1000;0.8938;0.9824;
599.4000;0.8938;0.9773;
599.7000;0.8978;1.0000;
600.0000;0.8921;0.9924;
600.3000;0.8938;0.9798;
600.6000;0.8913;0.9672;
600.9000;0.8873;0.9521;
601.2000;0.8856;0.9421;
601.5000;0.8791;0.9295;
601.8000;0.8661;0.8866;
602.1000;0.8628;0.8841;
602.4000;0.8596;0.8791;
602.7000;0.8555;0.8614;
603.0000;0.8490;0.8438;
603.3000;0.8441;0.8363;
603.6000;0.8368;0.8237;
603.9000;0.8327;0.8211;
604.2000;0.8287;0.8086;
604.5000;0.8246;0.7985;
604.8000;0.8197;0.7960;
605.1000;0.8132;0.7808;
605.4000;0.8116;0.7708;
605.7000;0.8059;0.7632;
606.0000;0.7993;0.7431;
606.3000;0.7993;0.7456;
606.6000;0.7945;0.7557;
606.9000;0.7945;0.7682;
607.2000;0.7888;0.7531;
607.5000;0.7847;0.7405;
607.8000;0.7855;0.7456;
608.1000;0.7782;0.7330;
608.4000;0.7757;0.7330;
608.7000;0.7717;0.7305;
609.0000;0.7660;0.7154;
609.3000;0.7652;0.7204;
609.6000;0.7619;0.7254;
609.9000;0.7578;0.7229;
610.2000;0.7570;0.7179;
610.5000;0.7546;0.7254;
610.8000;0.7489;0.7229;
611.1000;0.7505;0.7279;
611.4000;0.7464;0.7154;
611.7000;0.7456;0.7179;
612.0000;0.7424;0.7078;
612.3000;0.7407;0.7028;
612.6000;0.7383;0.7078;
612.9000;0.7334;0.7002;
613.2000;0.7334;0.7053;
613.5000;0.7318;0.7002;
613.8000;0.7285;0.7028;
614.1000;0.7245;0.6952;
614.4000;0.7245;0.6902;
614.7000;0.7196;0.6776;
615.0000;0.7171;0.6650;
615.3000;0.7163;0.6599;
615.6000;0.7147;0.6549;
615.9000;0.7098;0.6499;
616.2000;0.7114;0.6675;
616.5000;0.7090;0.6751;
616.8000;0.7074;0.6675;
617.1000;0.7098;0.6776;
617.4000;0.6984;0.6524;
617.7000;0.7017;0.6625;
618.0000;0.7025;0.6650;
618.3000;0.7009;0.6675;
618.6000;0.6984;0.6650;
618.9000;0.6968;0.6725;
619.2000;0.6943;0.6700;
619.5000;0.6903;0.6700;
619.8000;0.6919;0.6751;
620.1000;0.6895;0.6700;
620.4000;0.6886;0.6725;
620.7000;0.6862;0.6725;
621.0000;0.6838;0.6599;
621.3000;0.6838;0.6650;
621.6000;0.6821;0.6675;
621.9000;0.6821;0.6751;
622.2000;0.6821;0.6725;
622.5000;0.6789;0.6675;
622.8000;0.6764;0.6625;
623.1000;0.6764;0.6625;
623.4000;0.6756;0.6700;
623.7000;0.6740;0.6751;
624.0000;0.6724;0.6675;
624.3000;0.6707;0.6826;
624.6000;0.6716;0.6927;
624.9000;0.6667;0.6801;
625.2000;0.6667;0.6876;
625.5000;0.6610;0.6599;
625.8000;0.6659;0.6801;
626.1000;0.6626;0.6751;
626.4000;0.6634;0.6801;
626.7000;0.6675;0.6927;
627.0000;0.6577;0.6650;
627.3000;0.6585;0.6599;
627.6000;0.6593;0.6650;
627.9000;0.6553;0.6675;
628.2000;0.6561;0.6725;
628.5000;0.6561;0.6675;
628.8000;0.6545;0.6725;
629.1000;0.6520;0.6625;
629.4000;0.6504;0.6650;
629.7000;0.6496;0.6700;
630.0000;0.6512;0.6801;
630.3000;0.6496;0.6776;
630.6000;0.6471;0.6751;
630.9000;0.6455;0.6700;
631.2000;0.6455;0.6650;
631.5000;0.6447;0.6650;
631.8000;0.6447;0.6650;
632.1000;0.6439;0.6625;
632.4000;0.6431;0.6549;
632.7000;0.6414;0.6599;
633.0000;0.6390;0.6549;
633.3000;0.6382;0.6549;
633.6000;0.6390;0.6549;
633.9000;0.6431;0.6675;
634.2000;0.6349;0.6448;
634.5000;0.6357;0.6473;
634.8000;0.6317;0.6398;
635.1000;0.6317;0.6448;
635.4000;0.6325;0.6499;
635.7000;0.6300;0.6448;
636.0000;0.6349;0.6574;
636.3000;0.6317;0.6499;
636.6000;0.6300;0.6549;
636.9000;0.6252;0.6473;
637.2000;0.6260;0.6473;
637.5000;0.6268;0.6473;
637.8000;0.6268;0.6499;
638.1000;0.6211;0.6272;
638.4000;0.6260;0.6398;
638.7000;0.6276;0.6373;
639.0000;0.6235;0.6398;
639.3000;0.6211;0.6448;
639.6000;0.6211;0.6473;
639.9000;0.6211;0.6473;
640.2000;0.6203;0.6524;
640.5000;0.6195;0.6448;
640.8000;0.6276;0.6776;
641.1000;0.6178;0.6549;
641.4000;0.6178;0.6625;
641.7000;0.6162;0.6650;
642.0000;0.6162;0.6675;
642.3000;0.6162;0.6599;
642.6000;0.6170;0.6574;
642.9000;0.6138;0.6549;
643.2000;0.6138;0.6473;
643.5000;0.6154;0.6524;
643.8000;0.6162;0.6549;
644.1000;0.6138;0.6398;
644.4000;0.6121;0.6348;
644.7000;0.6105;0.6322;
645.0000;0.6113;0.6373;
645.3000;0.6089;0.6473;
645.6000;0.6097;0.6499;
645.9000;0.6064;0.6473;
646.2000;0.6089;0.6549;
646.5000;0.6089;0.6524;
646.8000;0.6081;0.6499;
647.1000;0.6056;0.6448;
647.4000;0.6072;0.6574;
647.7000;0.6072;0.6675;
648.0000;0.6048;0.6549;
648.3000;0.6056;0.6549;
648.6000;0.6097;0.6650;
648.9000;0.6056;0.6524;
649.2000;0.5983;0.6322;
649.5000;0.5999;0.6373;
649.8000;0.6007;0.6297;
650.1000;0.6105;0.6524;
650.4000;0.6048;0.6373;
650.7000;0.6048;0.6398;
651.0000;0.5999;0.6247;
651.3000;0.5983;0.6171;
651.6000;0.5991;0.6222;
651.9000;0.6007;0.6348;
652.2000;0.5975;0.6272;
652.5000;0.5991;0.6373;
652.8000;0.5983;0.6499;
653.1000;0.5975;0.6473;
653.4000;0.5967;0.6499;
653.7000;0.5958;0.6499;
654.0000;0.5934;0.6549;
654.3000;0.5975;0.6675;
654.6000;0.5967;0.6650;
654.9000;0.5958;0.6549;
655.2000;0.5958;0.6625;
655.5000;0.5942;0.6599;
655.8000;0.5942;0.6549;
656.1000;0.5934;0.6499;
656.4000;0.5926;0.6524;
656.7000;0.5902;0.6499;
657.0000;0.5853;0.6322;
657.3000;0.5877;0.6348;
657.6000;0.5910;0.6423;
657.9000;0.5902;0.6398;
658.2000;0.5885;0.6423;
658.5000;0.5877;0.6373;
658.8000;0.5893;0.6398;
659.1000;0.5893;0.6398;
659.4000;0.5853;0.6348;
659.7000;0.5845;0.6373;
660.0000;0.5853;0.6448;
660.3000;0.5845;0.6398;
660.6000;0.5853;0.6423;
660.9000;0.5877;0.6448;
661.2000;0.5869;0.6423;
661.5000;0.5877;0.6398;
661.8000;0.5845;0.6423;
662.1000;0.5853;0.6423;
662.4000;0.5853;0.6373;
662.7000;0.5869;0.6448;
663.0000;0.5836;0.6373;
663.3000;0.5820;0.6423;
663.6000;0.5755;0.6322;
663.9000;0.5820;0.6549;
664.2000;0.5836;0.6599;
664.5000;0.5779;0.6473;
664.8000;0.5820;0.6549;
665.1000;0.5828;0.6524;
665.4000;0.5820;0.6524;
665.7000;0.5820;0.6499;
666.0000;0.5804;0.6348;
666.3000;0.5771;0.6196;
666.6000;0.5739;0.6070;
666.9000;0.5788;0.6070;
667.2000;0.5779;0.6146;
667.5000;0.5836;0.6322;
667.8000;0.5779;0.6348;
668.1000;0.5779;0.6373;
668.4000;0.5755;0.6348;
668.7000;0.5755;0.6348;
669.0000;0.5763;0.6373;
669.3000;0.5796;0.6348;
669.6000;0.5722;0.6196;
669.9000;0.5755;0.6348;
670.2000;0.5763;0.6348;
670.5000;0.5763;0.6348;
670.8000;0.5739;0.6373;
671.1000;0.5796;0.6499;
671.4000;0.5755;0.6423;
671.7000;0.5690;0.6272;
672.0000;0.5714;0.6322;
672.3000;0.5739;0.6448;
672.6000;0.5698;0.6348;
672.9000;0.5739;0.6448;
673.2000;0.5763;0.6473;
673.5000;0.5747;0.6423;
673.8000;0.5739;0.6473;
674.1000;0.5755;0.6448;
674.4000;0.5698;0.6423;
674.7000;0.5722;0.6524;
675.0000;0.5698;0.6524;
675.3000;0.5657;0.6448;
675.6000;0.5682;0.6423;
675.9000;0.5722;0.6499;
676.2000;0.5698;0.6549;
676.5000;0.5731;0.6650;
676.8000;0.5714;0.6574;
677.1000;0.5698;0.6473;
677.4000;0.5682;0.6423;
677.7000;0.5674;0.6373;
678.0000;0.5698;0.6423;
678.3000;0.5690;0.6373;
678.6000;0.5698;0.6398;
678.9000;0.5665;0.6373;
679.2000;0.5682;0.6448;
679.5000;0.5682;0.6448;
679.8000;0.5592;0.6297;
680.1000;0.5665;0.6473;
680.4000;0.5690;0.6448;
680.7000;0.5649;0.6348;
681.0000;0.5674;0.6448;
681.3000;0.5584;0.6272;
681.6000;0.5657;0.6373;
681.9000;0.5641;0.6272;
682.2000;0.5633;0.6247;
682.5000;0.5641;0.6297;
682.8000;0.5633;0.6297;
683.1000;0.5641;0.6247;
683.4000;0.5657;0.6247;
683.7000;0.5641;0.6171;
684.0000;0.5657;0.6247;
684.3000;0.5657;0.6297;
684.6000;0.5584;0.6171;
684.9000;0.5633;0.6222;
685.2000;0.5617;0.6322;
685.5000;0.5625;0.6348;
685.8000;0.5633;0.6322;
686.1000;0.5617;0.6322;
686.4000;0.5625;0.6297;
686.7000;0.5657;0.6322;
687.0000;0.5617;0.6322;
687.3000;0.5608;0.6322;
687.6000;0.5617;0.6348;
687.9000;0.5608;0.6348;
688.2000;0.5617;0.6398;
688.5000;0.5584;0.6423;
688.8000;0.5617;0.6524;
689.1000;0.5592;0.6348;
689.4000;0.5592;0.6423;
689.7000;0.5608;0.6423;
690.0000;0.5608;0.6524;
690.3000;0.5592;0.6473;
690.6000;0.5592;0.6499;
690.9000;0.5584;0.6549;
691.2000;0.5600;0.6625;
691.5000;0.5617;0.6625;
691.8000;0.5592;0.6574;
692.1000;0.5584;0.6574;
692.4000;0.5478;0.6373;
692.7000;0.5617;0.6725;
693.0000;0.5576;0.6574;
693.3000;0.5584;0.6524;
693.6000;0.5584;0.6524;
693.9000;0.5527;0.6398;
694.2000;0.5584;0.6574;
694.5000;0.5568;0.6599;
694.8000;0.5600;0.6625;
695.1000;0.5568;0.6599;
695.4000;0.5551;0.6574;
695.7000;0.5608;0.6751;
696.0000;0.5551;0.6574;
696.3000;0.5568;0.6599;
696.6000;0.5535;0.6574;
696.9000;0.5519;0.6574;
697.2000;0.5592;0.6650;
697.5000;0.5527;0.6549;
697.8000;0.5568;0.6725;
698.1000;0.5543;0.6599;
698.4000;0.5600;0.6700;
698.7000;0.5560;0.6650;
699.0000;0.5551;0.6599;
699.3000;0.5560;0.6499;
699.6000;0.5551;0.6524;
699.9000;0.5551;0.6599;
700.2000;0.5535;0.6524;
700.5000;0.5527;0.6574;
700.8000;0.5535;0.6625;
701.1000;0.5535;0.6751;
701.4000;0.5527;0.6650;
701.7000;0.5527;0.6599;
702.0000;0.5519;0.6524;
702.3000;0.5519;0.6499;
702.6000;0.5551;0.6549;
702.9000;0.5527;0.6473;
703.2000;0.5527;0.6423;
703.5000;0.5511;0.6398;
703.8000;0.5519;0.6348;
704.1000;0.5543;0.6398;
704.4000;0.5511;0.6297;
704.7000;0.5511;0.6423;
705.0000;0.5503;0.6373;
705.3000;0.5527;0.6373;
705.6000;0.5503;0.6348;
705.9000;0.5503;0.6448;
706.2000;0.5503;0.6499;
706.5000;0.5543;0.6599;
706.8000;0.5527;0.6448;
707.1000;0.5486;0.6373;
707.4000;0.5486;0.6322;
707.7000;0.5495;0.6348;
708.0000;0.5478;0.6348;
708.3000;0.5478;0.6322;
708.6000;0.5503;0.6398;
708.9000;0.5478;0.6448;
709.2000;0.5495;0.6625;
709.5000;0.5495;0.6675;
709.8000;0.5551;0.6776;
710.1000;0.5535;0.6801;
710.4000;0.5486;0.6700;
710.7000;0.5503;0.6625;
711.0000;0.5503;0.6549;
711.3000;0.5429;0.6423;
711.6000;0.5495;0.6549;
711.9000;0.5527;0.6524;
712.2000;0.5446;0.6272;
712.5000;0.5470;0.6373;
712.8000;0.5462;0.6348;
713.1000;0.5454;0.6448;
713.4000;0.5446;0.6524;
713.7000;0.5495;0.6625;
714.0000;0.5478;0.6574;
714.3000;0.5462;0.6549;
714.6000;0.5470;0.6574;
714.9000;0.5470;0.6549;
715.2000;0.5478;0.6574;
715.5000;0.5511;0.6599;
715.8000;0.5429;0.6373;
716.1000;0.5503;0.6625;
716.4000;0.5519;0.6725;
716.7000;0.5364;0.6247;
717.0000;0.5446;0.6448;
717.3000;0.5454;0.6499;
717.6000;0.5454;0.6423;
717.9000;0.5454;0.6524;
718.2000;0.5421;0.6423;
718.5000;0.5429;0.6398;
718.8000;0.5454;0.6398;
719.1000;0.5454;0.6448;
719.4000;0.5438;0.6448;
719.7000;0.5543;0.6725;
720.0000;0.5446;0.6473;
720.3000;0.5462;0.6373;
720.6000;0.5495;0.6473;
720.9000;0.5446;0.6348;
721.2000;0.5462;0.6398;
721.5000;0.5454;0.6348;
721.8000;0.5429;0.6297;
722.1000;0.5438;0.6322;
722.4000;0.5421;0.6222;
722.7000;0.5413;0.6171;
723.0000;0.5429;0.6272;
723.3000;0.5421;0.6272;
723.6000;0.5421;0.6423;
723.9000;0.5397;0.6373;
724.2000;0.5421;0.6549;
724.5000;0.5438;0.6625;
724.8000;0.5405;0.6499;
725.1000;0.5421;0.6499;
725.4000;0.5438;0.6599;
725.7000;0.5421;0.6549;
726.0000;0.5381;0.6448;
726.3000;0.5429;0.6599;
726.6000;0.5429;0.6599;
726.9000;0.5413;0.6549;
727.2000;0.5413;0.6473;
727.5000;0.5413;0.6499;
727.8000;0.5462;0.6625;
728.1000;0.5405;0.6499;
728.4000;0.5397;0.6398;
728.7000;0.5397;0.6473;
729.0000;0.5389;0.6574;
729.3000;0.5405;0.6599;
729.6000;0.5397;0.6675;
729.9000;0.5397;0.6826;
730.2000;0.5389;0.6725;
730.5000;0.5397;0.6650;
730.8000;0.5405;0.6625;
731.1000;0.5381;0.6599;
731.4000;0.5389;0.6499;
731.7000;0.5381;0.6499;
732.0000;0.5348;0.6398;
732.3000;0.5389;0.6524;
732.6000;0.5381;0.6423;
732.9000;0.5381;0.6348;
733.2000;0.5397;0.6423;
733.5000;0.5397;0.6473;
733.8000;0.5389;0.6524;
734.1000;0.5397;0.6574;
734.4000;0.5397;0.6499;
734.7000;0.5389;0.6448;
735.0000;0.5397;0.6423;
735.3000;0.5381;0.6398;
735.6000;0.5413;0.6423;
735.9000;0.5389;0.6448;
736.2000;0.5332;0.6322;
736.5000;0.5397;0.6423;
736.8000;0.5356;0.6297;
737.1000;0.5454;0.6473;
737.4000;0.5429;0.6574;
737.7000;0.5372;0.6524;
738.0000;0.5381;0.6625;
738.3000;0.5429;0.6776;
738.6000;0.5348;0.6549;
738.9000;0.5405;0.6650;
739.2000;0.5389;0.6574;
739.5000;0.5381;0.6524;
739.8000;0.5429;0.6650;
740.1000;0.5381;0.6549;
740.4000;0.5381;0.6524;
740.7000;0.5364;0.6499;
741.0000;0.5372;0.6448;
741.3000;0.5348;0.6348;
741.6000;0.5364;0.6373;
741.9000;0.5364;0.6348;
742.2000;0.5364;0.6322;
742.5000;0.5372;0.6348;
742.8000;0.5356;0.6373;
743.1000;0.5283;0.6096;
743.4000;0.5348;0.6322;
743.7000;0.5332;0.6297;
744.0000;0.5356;0.6348;
744.3000;0.5372;0.6398;
744.6000;0.5356;0.6373;
744.9000;0.5364;0.6423;
745.2000;0.5348;0.6423;
745.5000;0.5348;0.6448;
745.8000;0.5364;0.6574;
746.1000;0.5364;0.6574;
746.4000;0.5364;0.6574;
746.7000;0.5332;0.6448;
747.0000;0.5348;0.6499;
747.3000;0.5348;0.6448;
747.6000;0.5372;0.6473;
747.9000;0.5315;0.6348;
748.2000;0.5356;0.6524;
748.5000;0.5364;0.6499;
748.8000;0.5307;0.6322;
749.1000;0.5340;0.6448;
749.4000;0.5356;0.6524;
749.7000;0.5332;0.6473;
750.0000;0.5348;0.6524;
750.3000;0.5315;0.6448;
750.6000;0.5340;0.6499;
750.9000;0.5356;0.6599;
751.2000;0.5348;0.6650;
751.5000;0.5348;0.6700;
751.8000;0.5332;0.6599;
752.1000;0.5340;0.6574;
752.4000;0.5340;0.6625;
752.7000;0.5332;0.6650;
753.0000;0.5340;0.6700;
753.3000;0.5332;0.6675;
753.6000;0.5332;0.6650;
753.9000;0.5340;0.6700;
754.2000;0.5315;0.6700;
754.5000;0.5332;0.6776;
754.8000;0.5340;0.6826;
755.1000;0.5324;0.6826;
755.4000;0.5332;0.6801;
755.7000;0.5324;0.6851;
756.0000;0.5324;0.6776;
756.3000;0.5307;0.6725;
756.6000;0.5324;0.6675;
756.9000;0.5307;0.6574;
757.2000;0.5324;0.6574;
757.5000;0.5324;0.6549;
757.8000;0.5324;0.6549;
758.1000;0.5315;0.6549;
758.4000;0.5324;0.6599;
758.7000;0.5291;0.6524;
759.0000;0.5315;0.6625;
759.3000;0.5307;0.6675;
759.6000;0.5340;0.6725;
759.9000;0.5356;0.6725;
760.2000;0.5340;0.6625;
760.5000;0.5340;0.6650;
760.8000;0.5340;0.6549;
761.1000;0.5340;0.6549;
761.4000;0.5291;0.6373;
761.7000;0.5332;0.6499;
762.0000;0.5299;0.6398;
762.3000;0.5332;0.6448;
762.6000;0.5315;0.6524;
762.9000;0.5348;0.6650;
763.2000;0.5299;0.6549;
763.5000;0.5324;0.6675;
763.8000;0.5389;0.6826;
764.1000;0.5299;0.6675;
764.4000;0.5307;0.6700;
764.7000;0.5315;0.6650;
765.0000;0.5275;0.6499;
765.3000;0.5299;0.6524;
765.6000;0.5242;0.6297;
765.9000;0.5299;0.6574;
766.2000;0.5315;0.6625;
766.5000;0.5299;0.6599;
766.8000;0.5340;0.6625;
767.1000;0.5258;0.6398;
767.4000;0.5299;0.6499;
767.7000;0.5283;0.6499;
768.0000;0.5307;0.6574;
768.3000;0.5315;0.6650;
768.6000;0.5307;0.6625;
768.9000;0.5315;0.6650;
769.2000;0.5283;0.6524;
769.5000;0.5291;0.6473;
769.8000;0.5275;0.6524;
770.1000;0.5299;0.6574;
770.4000;0.5283;0.6448;
770.7000;0.5299;0.6448;
771.0000;0.5291;0.6499;
771.3000;0.5299;0.6499;
771.6000;0.5315;0.6448;
771.9000;0.5307;0.6398;
772.2000;0.5307;0.6398;
772.5000;0.5299;0.6348;
772.8000;0.5307;0.6247;
773.1000;0.5291;0.6222;
773.4000;0.5299;0.6272;
773.7000;0.5291;0.6348;
774.0000;0.5291;0.6222;
774.3000;0.5218;0.6020;
774.6000;0.5291;0.6297;
774.9000;0.5299;0.6297;
775.2000;0.5291;0.6373;
775.5000;0.5250;0.6297;
775.8000;0.5299;0.6348;
776.1000;0.5258;0.6222;
776.4000;0.5299;0.6297;
776.7000;0.5267;0.6247;
777.0000;0.5267;0.6222;
777.3000;0.5291;0.6196;
777.6000;0.5291;0.6196;
777.9000;0.5267;0.6196;
778.2000;0.5267;0.6348;
778.5000;0.5267;0.6423;
778.8000;0.5299;0.6448;
779.1000;0.5258;0.6373;
779.4000;0.5258;0.6448;
779.7000;0.5291;0.6473;
780.0000;0.5307;0.6524;
780.3000;0.5258;0.6524;
780.6000;0.5250;0.6524;
780.9000;0.5267;0.6499;
781.2000;0.5275;0.6448;
781.5000;0.5307;0.6499;
781.8000;0.5299;0.6373;
782.1000;0.5291;0.6499;
782.4000;0.5291;0.6448;
782.7000;0.5299;0.6524;
783.0000;0.5275;0.6524;
783.3000;0.5275;0.6599;
783.6000;0.5267;0.6599;
783.9000;0.5275;0.6625;
784.2000;0.5283;0.6599;
784.5000;0.5283;0.6650;
784.8000;0.5258;0.6625;
785.1000;0.5283;0.6675;
785.4000;0.5193;0.6373;
785.7000;0.5218;0.6473;
786.0000;0.5324;0.6599;
786.3000;0.5275;0.6423;
786.6000;0.5291;0.6524;
786.9000;0.5283;0.6524;
787.2000;0.5226;0.6373;
787.5000;0.5250;0.6423;
787.8000;0.5226;0.6272;
788.1000;0.5218;0.6373;
788.4000;0.5258;0.6574;
788.7000;0.5291;0.6599;
789.0000;0.5226;0.6448;
789.3000;0.5258;0.6448;
789.6000;0.5250;0.6423;
789.9000;0.5242;0.6499;
790.2000;0.5324;0.6599;
790.5000;0.5315;0.6574;
790.8000;0.5258;0.6473;
791.1000;0.5242;0.6322;
791.4000;0.5250;0.6348;
791.7000;0.5250;0.6373;
792.0000;0.5267;0.6297;
792.3000;0.5250;0.6322;
792.6000;0.5234;0.6222;
792.9000;0.5258;0.6272;
793.2000;0.5275;0.6322;
793.5000;0.5250;0.6373;
793.8000;0.5242;0.6448;
794.1000;0.5258;0.6499;
794.4000;0.5258;0.6499;
794.7000;0.5226;0.6297;
795.0000;0.5250;0.6398;
795.3000;0.5267;0.6373;
795.6000;0.5258;0.6373;
795.9000;0.5267;0.6373;
796.2000;0.5258;0.6272;
796.5000;0.5258;0.6272;
796.8000;0.5283;0.6348;
797.1000;0.5299;0.6423;
797.4000;0.5242;0.6297;
797.7000;0.5250;0.6423;
798.0000;0.5242;0.6423;
798.3000;0.5234;0.6423;
798.6000;0.5234;0.6272;
798.9000;0.5250;0.6196;
799.2000;0.5267;0.6222;
799.5000;0.5258;0.6222;
799.8000;0.5267;0.6348;
800.1000;0.5283;0.6448;
800.4000;0.5258;0.6348;
800.7000;0.5258;0.6423;
801.0000;0.5242;0.6373;
801.3000;0.5226;0.6448;
801.6000;0.5250;0.6473;
801.9000;0.5307;0.6599;
802.2000;0.5234;0.6348;
802.5000;0.5234;0.6322;
802.8000;0.5234;0.6196;
803.1000;0.5242;0.6222;
803.4000;0.5258;0.6373;
803.7000;0.5234;0.6348;
804.0000;0.5242;0.6398;
804.3000;0.5258;0.6448;
804.6000;0.5267;0.6499;
804.9000;0.5275;0.6499;
805.2000;0.5250;0.6549;
805.5000;0.5242;0.6574;
805.8000;0.5258;0.6524;
806.1000;0.5275;0.6599;
806.4000;0.5275;0.6398;
806.7000;0.5250;0.6348;
807.0000;0.5250;0.6398;
807.3000;0.5242;0.6423;
807.6000;0.5258;0.6448;
807.9000;0.5234;0.6373;
808.2000;0.5291;0.6473;
808.5000;0.5218;0.6297;
808.8000;0.5234;0.6373;
809.1000;0.5234;0.6373;
809.4000;0.5283;0.6448;
809.7000;0.5242;0.6322;
810.0000;0.5267;0.6373;
810.3000;0.5234;0.6247;
810.6000;0.5226;0.6272;
810.9000;0.5242;0.6272;
811.2000;0.5234;0.6297;
811.5000;0.5218;0.6196;
811.8000;0.5234;0.6196;
812.1000;0.5234;0.6196;
812.4000;0.5218;0.6121;
812.7000;0.5218;0.6171;
813.0000;0.5242;0.6322;
813.3000;0.5234;0.6297;
813.6000;0.5234;0.6272;
813.9000;0.5210;0.6322;
814.2000;0.5226;0.6398;
814.5000;0.5210;0.6398;
814.8000;0.5234;0.6423;
815.1000;0.5218;0.6322;
815.4000;0.5242;0.6272;
815.7000;0.5242;0.6272;
816.0000;0.5234;0.6247;
816.3000;0.5242;0.6297;
816.6000;0.5226;0.6373;
816.9000;0.5242;0.6373;
817.2000;0.5250;0.6322;
817.5000;0.5218;0.6322;
817.8000;0.5210;0.6322;
818.1000;0.5242;0.6398;
818.4000;0.5267;0.6524;
818.7000;0.5234;0.6473;
819.0000;0.5226;0.6348;
819.3000;0.5218;0.6297;
819.6000;0.5226;0.6373;
819.9000;0.5226;0.6499;
820.2000;0.5234;0.6499;
820.5000;0.5226;0.6574;
820.8000;0.5226;0.6499;
821.1000;0.5234;0.6499;
821.4000;0.5226;0.6499;
821.7000;0.5226;0.6549;
822.0000;0.5210;0.6549;
822.3000;0.5218;0.6499;
822.6000;0.5218;0.6599;
822.9000;0.5193;0.6524;
823.2000;0.5201;0.6599;
823.5000;0.5218;0.6599;
823.8000;0.5218;0.6650;
824.1000;0.5218;0.6700;
824.4000;0.5201;0.6599;
824.7000;0.5218;0.6625;
825.0000;0.5201;0.6599;
825.3000;0.5226;0.6625;
825.6000;0.5242;0.6549;
825.9000;0.5315;0.6776;
826.2000;0.5226;0.6524;
826.5000;0.5210;0.6448;
826.8000;0.5201;0.6524;
827.1000;0.5226;0.6524;
827.4000;0.5226;0.6473;
827.7000;0.5218;0.6448;
828.0000;0.5258;0.6625;
828.3000;0.5218;0.6549;
828.6000;0.5210;0.6524;
828.9000;0.5226;0.6574;
829.2000;0.5218;0.6675;
829.5000;0.5201;0.6725;
829.8000;0.5226;0.6801;
830.1000;0.5226;0.6851;
830.4000;0.5201;0.6751;
830.7000;0.5193;0.6725;
831.0000;0.5210;0.6725;
831.3000;0.5234;0.6725;
831.6000;0.5250;0.6675;
831.9000;0.5218;0.6524;
832.2000;0.5201;0.6524;
832.5000;0.5226;0.6625;
832.8000;0.5185;0.6499;
833.1000;0.5185;0.6499;
833.4000;0.5177;0.6448;
833.7000;0.5210;0.6549;
834.0000;0.5226;0.6599;
834.3000;0.5201;0.6549;
834.6000;0.5193;0.6499;
834.9000;0.5193;0.6524;
835.2000;0.5218;0.6675;
835.5000;0.5185;0.6650;
835.8000;0.5185;0.6675;
836.1000;0.5201;0.6625;
836.4000;0.5210;0.6650;
836.7000;0.5226;0.6599;
837.0000;0.5210;0.6473;
837.3000;0.5210;0.6524;
837.6000;0.5218;0.6549;
837.9000;0.5210;0.6448;
838.2000;0.5201;0.6322;
838.5000;0.5218;0.6322;
838.8000;0.5161;0.6297;
839.1000;0.5210;0.6448;
839.4000;0.5185;0.6473;
839.7000;0.5201;0.6448;
840.0000;0.5234;0.6549;
840.3000;0.5210;0.6499;
840.6000;0.5201;0.6423;
840.9000;0.5250;0.6499;
841.2000;0.5218;0.6373;
841.5000;0.5242;0.6448;
841.8000;0.5210;0.6373;
842.1000;0.5201;0.6373;
842.4000;0.5210;0.6398;
842.7000;0.5201;0.6448;
843.0000;0.5218;0.6473;
843.3000;0.5210;0.6398;
843.6000;0.5218;0.6423;
843.9000;0.5144;0.6196;
844.2000;0.5193;0.6297;
844.5000;0.5177;0.6272;
844.8000;0.5177;0.6272;
845.1000;0.5177;0.6398;
845.4000;0.5193;0.6423;
845.7000;0.5177;0.6398;
846.0000;0.5201;0.6448;
846.3000;0.5185;0.6423;
846.6000;0.5210;0.6524;
846.9000;0.5201;0.6574;
847.2000;0.5201;0.6524;
847.5000;0.5169;0.6373;
847.8000;0.5185;0.6373;
848.1000;0.5185;0.6373;
848.4000;0.5185;0.6348;
848.7000;0.5201;0.6373;
849.0000;0.5226;0.6373;
849.3000;0.5177;0.6297;
849.6000;0.5169;0.6398;
849.9000;0.5185;0.6473;
850.2000;0.5185;0.6448;
850.5000;0.5193;0.6499;
850.8000;0.5185;0.6473;
851.1000;0.5193;0.6549;
851.4000;0.5210;0.6675;
851.7000;0.5210;0.6625;
852.0000;0.5201;0.6675;
852.3000;0.5185;0.6625;
852.6000;0.5193;0.6725;
852.9000;0.5218;0.6751;
853.2000;0.5193;0.6625;
853.5000;0.5210;0.6700;
853.8000;0.5185;0.6574;
854.1000;0.5201;0.6625;
854.4000;0.5201;0.6625;
854.7000;0.5185;0.6599;
855.0000;0.5128;0.6473;
855.3000;0.5185;0.6675;
855.6000;0.5153;0.6499;
855.9000;0.5193;0.6473;
856.2000;0.5185;0.6398;
856.5000;0.5161;0.6448;
856.8000;0.5201;0.6574;
857.1000;0.5193;0.6650;
857.4000;0.5193;0.6650;
857.7000;0.5210;0.6826;
858.0000;0.5210;0.6851;
858.3000;0.5193;0.6801;
858.6000;0.5169;0.6776;
858.9000;0.5185;0.6725;
859.2000;0.5201;0.6776;
859.5000;0.5185;0.6650;
859.8000;0.5169;0.6650;
860.1000;0.5177;0.6599;
860.4000;0.5193;0.6725;
860.7000;0.5201;0.6826;
861.0000;0.5177;0.6725;
861.3000;0.5153;0.6549;
861.6000;0.5177;0.6725;
861.9000;0.5193;0.6826;
862.2000;0.5169;0.6700;
862.5000;0.5169;0.6725;
862.8000;0.5242;0.6876;
863.1000;0.5169;0.6650;
863.4000;0.5210;0.6700;
863.7000;0.5185;0.6625;
864.0000;0.5193;0.6700;
864.3000;0.5193;0.6776;
864.6000;0.5193;0.6751;
864.9000;0.5218;0.6801;
865.2000;0.5193;0.6725;
865.5000;0.5201;0.6776;
865.8000;0.5210;0.6851;
866.1000;0.5185;0.6826;
866.4000;0.5185;0.6776;
866.7000;0.5193;0.6927;
867.0000;0.5193;0.6927;
867.3000;0.5185;0.6876;
867.6000;0.5185;0.6952;
867.9000;0.5177;0.6851;
868.2000;0.5177;0.6801;
868.5000;0.5169;0.6700;
868.8000;0.5185;0.6675;
869.1000;0.5177;0.6725;
869.4000;0.5169;0.6776;
869.7000;0.5193;0.6751;
870.0000;0.5185;0.6700;
870.3000;0.5185;0.6625;
870.6000;0.5161;0.6574;
870.9000;0.5193;0.6625;
871.2000;0.5161;0.6625;
871.5000;0.5242;0.6851;
871.8000;0.5177;0.6776;
872.1000;0.5210;0.6902;
872.4000;0.5177;0.6876;
872.7000;0.5161;0.6751;
873.0000;0.5177;0.6725;
873.3000;0.5193;0.6826;
873.6000;0.5177;0.6725;
873.9000;0.5169;0.6675;
874.2000;0.5177;0.6700;
874.5000;0.5136;0.6675;
874.8000;0.5161;0.6751;
875.1000;0.5169;0.6725;
875.4000;0.5071;0.6549;
875.7000;0.5161;0.6826;
876.0000;0.5161;0.6826;
876.3000;0.5177;0.6826;
876.6000;0.5161;0.6776;
876.9000;0.5177;0.6801;
877.2000;0.5185;0.6902;
877.5000;0.5218;0.6977;
877.8000;0.5177;0.6826;
878.1000;0.5153;0.6751;
878.4000;0.5177;0.6675;
878.7000;0.5185;0.6776;
879.0000;0.5201;0.6851;
879.3000;0.5177;0.6801;
879.6000;0.5210;0.6902;
879.9000;0.5161;0.6826;
880.2000;0.5193;0.6902;
880.5000;0.5201;0.6927;
880.8000;0.5177;0.6902;
881.1000;0.5104;0.6675;
881.4000;0.5169;0.6927;
881.7000;0.5177;0.6952;
882.0000;0.5104;0.6751;
882.3000;0.5210;0.7028;
882.6000;0.5144;0.6851;
882.9000;0.5185;0.6952;
883.2000;0.5136;0.6851;
883.5000;0.5120;0.6751;
883.8000;0.5169;0.6876;
884.1000;0.5161;0.6902;
884.4000;0.5161;0.6902;
884.7000;0.5169;0.6927;
885.0000;0.5169;0.6977;
885.3000;0.5161;0.6876;
885.6000;0.5169;0.6977;
885.9000;0.5096;0.6725;
886.2000;0.5161;0.6876;
886.5000;0.5185;0.6927;
886.8000;0.5153;0.6751;
887.1000;0.5169;0.6700;
887.4000;0.5169;0.6725;
887.7000;0.5193;0.6700;
888.0000;0.5153;0.6675;
888.3000;0.5169;0.6776;
888.6000;0.5177;0.6876;
888.9000;0.5128;0.6751;
889.2000;0.5169;0.6927;
889.5000;0.5161;0.6952;
889.8000;0.5161;0.6977;
890.1000;0.5161;0.6927;
890.4000;0.5161;0.6902;
890.7000;0.5153;0.6826;
891.0000;0.5169;0.6801;
891.3000;0.5169;0.6826;
891.6000;0.5161;0.6801;
891.9000;0.5144;0.6776;
892.2000;0.5169;0.6826;
892.5000;0.5193;0.6801;
892.8000;0.5153;0.6751;
893.1000;0.5169;0.6801;
893.4000;0.5112;0.6599;
893.7000;0.5169;0.6776;
894.0000;0.5169;0.6801;
894.3000;0.5234;0.7053;
894.6000;0.5161;0.6826;
894.9000;0.5169;0.6776;
895.2000;0.5169;0.6776;
895.5000;0.5169;0.6801;
895.8000;0.5096;0.6700;
896.1000;0.5169;0.6851;
896.4000;0.5169;0.6876;
896.7000;0.5161;0.6876;
897.0000;0.5144;0.6776;
897.3000;0.5177;0.6902;
897.6000;0.5136;0.6851;
897.9000;0.5185;0.6927;
898.2000;0.5169;0.6876;
898.5000;0.5161;0.6851;
898.8000;0.5161;0.6876;
899.1000;0.5128;0.6725;
899.4000;0.5153;0.6700;
899.7000;0.5153;0.6675;
900.0000;0.5169;0.6776;
900.3000;0.5169;0.6826;
900.6000;0.5153;0.6725;
900.9000;0.5161;0.6776;
901.2000;0.5177;0.6952;
901.5000;0.5177;0.6977;
901.8000;0.5169;0.6876;
902.1000;0.5136;0.6751;
902.4000;0.5177;0.6801;
902.7000;0.5144;0.6725;
903.0000;0.5161;0.6700;
903.3000;0.5161;0.6675;
903.6000;0.5161;0.6675;
903.9000;0.5112;0.6599;
904.2000;0.5193;0.6776;
904.5000;0.5161;0.6675;
904.8000;0.5128;0.6549;
905.1000;0.5120;0.6599;
905.4000;0.5169;0.6776;
905.7000;0.5136;0.6801;
906.0000;0.5136;0.6776;
906.3000;0.5169;0.6851;
906.6000;0.5153;0.6751;
906.9000;0.5153;0.6776;
907.2000;0.5136;0.6876;
907.5000;0.5128;0.6826;
907.8000;0.5153;0.6902;
908.1000;0.5153;0.6801;
908.4000;0.5144;0.6751;
908.7000;0.5153;0.6776;
909.0000;0.5153;0.6826;
909.3000;0.5161;0.6700;
909.6000;0.5169;0.6700;
909.9000;0.5161;0.6675;
910.2000;0.5153;0.6776;
910.5000;0.5144;0.6801;
910.8000;0.5112;0.6751;
911.1000;0.5112;0.6675;
911.4000;0.5136;0.6776;
911.7000;0.5169;0.6801;
912.0000;0.5153;0.6776;
912.3000;0.5153;0.6826;
912.6000;0.5153;0.6776;
912.9000;0.5128;0.6700;
913.2000;0.5120;0.6725;
913.5000;0.5153;0.6776;
913.8000;0.5218;0.7002;
914.1000;0.5161;0.6851;
914.4000;0.5144;0.6776;
914.7000;0.5161;0.6700;
915.0000;0.5218;0.6826;
915.3000;0.5144;0.6675;
915.6000;0.5136;0.6599;
915.9000;0.5161;0.6751;
916.2000;0.5136;0.6725;
916.5000;0.5136;0.6801;
916.8000;0.5136;0.6876;
917.1000;0.5128;0.6801;
917.4000;0.5153;0.6902;
917.7000;0.5153;0.6876;
918.0000;0.5161;0.6902;
918.3000;0.5153;0.6851;
918.6000;0.5153;0.6826;
918.9000;0.5128;0.6751;
919.2000;0.5177;0.6826;
919.5000;0.5136;0.6751;
919.8000;0.5161;0.6826;
920.1000;0.5144;0.6675;
920.4000;0.5144;0.6725;
920.7000;0.5153;0.6801;
921.0000;0.5161;0.6876;
921.3000;0.5161;0.6902;
921.6000;0.5153;0.6851;
921.9000;0.5226;0.7128;
922.2000;0.5161;0.6927;
922.5000;0.5201;0.6902;
922.8000;0.5161;0.6826;
923.1000;0.5177;0.6876;
923.4000;0.5136;0.6751;
923.7000;0.5144;0.6801;
924.0000;0.5153;0.6826;
924.3000;0.5153;0.6902;
924.6000;0.5177;0.6952;
924.9000;0.5153;0.6927;
925.2000;0.5153;0.6952;
925.5000;0.5144;0.6876;
925.8000;0.5144;0.6876;
926.1000;0.5136;0.6902;
926.4000;0.5144;0.6977;
926.7000;0.5144;0.7028;
927.0000;0.5144;0.6977;
927.3000;0.5136;0.7002;
927.6000;0.5153;0.7103;
927.9000;0.5177;0.7103;
928.2000;0.5161;0.7053;
928.5000;0.5218;0.7154;
928.8000;0.5136;0.6876;
929.1000;0.5153;0.6927;
929.4000;0.5136;0.6927;
929.7000;0.5120;0.6876;
930.0000;0.5161;0.6977;
930.3000;0.5120;0.6876;
930.6000;0.5161;0.7053;
930.9000;0.5185;0.7154;
931.2000;0.5136;0.6977;
931.5000;0.5144;0.7028;
931.8000;0.5128;0.7053;
932.1000;0.5153;0.7103;
932.4000;0.5144;0.7179;
932.7000;0.5153;0.7103;
933.0000;0.5161;0.7128;
933.3000;0.5144;0.7002;
933.6000;0.5144;0.6977;
933.9000;0.5128;0.6952;
934.2000;0.5120;0.6902;
934.5000;0.5136;0.6927;
934.8000;0.5136;0.6902;
935.1000;0.5136;0.6927;
935.4000;0.5136;0.7002;
935.7000;0.5136;0.7053;
936.0000;0.5144;0.6927;
936.3000;0.5120;0.6876;
936.6000;0.5128;0.6876;
936.9000;0.5120;0.6776;
937.2000;0.5128;0.6725;
937.5000;0.5128;0.6751;
937.8000;0.5112;0.6801;
938.1000;0.5144;0.6851;
938.4000;0.5136;0.6826;
938.7000;0.5144;0.6851;
939.0000;0.5096;0.6751;
939.3000;0.5128;0.6776;
939.6000;0.5136;0.6876;
939.9000;0.5128;0.6902;
940.2000;0.5136;0.6927;
940.5000;0.5136;0.6902;
940.8000;0.5112;0.6851;
941.1000;0.5161;0.6902;
941.4000;0.5136;0.6927;
941.7000;0.5112;0.6977;
942.0000;0.5144;0.6977;
942.3000;0.5144;0.6902;
942.6000;0.5128;0.6876;
942.9000;0.5112;0.6851;
943.2000;0.5136;0.6927;
943.5000;0.5136;0.6826;
943.8000;0.5201;0.7053;
944.1000;0.5136;0.6851;
944.4000;0.5144;0.6902;
944.7000;0.5144;0.6876;
945.0000;0.5185;0.6977;
945.3000;0.5128;0.6851;
945.6000;0.5096;0.6826;
945.9000;0.5144;0.6902;
946.2000;0.5153;0.6902;
946.5000;0.5144;0.6902;
946.8000;0.5144;0.6927;
947.1000;0.5185;0.6977;
947.4000;0.5169;0.6977;
947.7000;0.5128;0.6851;
948.0000;0.5153;0.6952;
948.3000;0.5112;0.6876;
948.6000;0.5153;0.7053;
948.9000;0.5144;0.7053;
949.2000;0.5218;0.7279;
949.5000;0.5112;0.7002;
949.8000;0.5136;0.7154;
950.1000;0.5136;0.7078;
950.4000;0.5128;0.6977;
950.7000;0.5136;0.6952;
951.0000;0.5153;0.6927;
951.3000;0.5112;0.6902;
951.6000;0.5144;0.6876;
951.9000;0.5136;0.6927;
952.2000;0.5136;0.6927;
952.5000;0.5136;0.6927;
952.8000;0.5144;0.6952;
953.1000;0.5144;0.6952;
953.4000;0.5144;0.6977;
953.7000;0.5136;0.6927;
954.0000;0.5136;0.6927;
954.3000;0.5128;0.6902;
954.6000;0.5128;0.6751;
954.9000;0.5136;0.6776;
955.2000;0.5144;0.6776;
955.5000;0.5136;0.6801;
955.8000;0.5136;0.6776;
956.1000;0.5144;0.6826;
956.4000;0.5144;0.6851;
956.7000;0.5153;0.6902;
957.0000;0.5144;0.6776;
957.3000;0.5144;0.6851;
957.6000;0.5153;0.6851;
957.9000;0.5153;0.6851;
958.2000;0.5104;0.6751;
958.5000;0.5144;0.6902;
958.8000;0.5136;0.6927;
959.1000;0.5120;0.6826;
959.4000;0.5144;0.6876;
959.7000;0.5144;0.6851;
960.0000;0.5144;0.6876;
960.3000;0.5136;0.6851;
960.6000;0.5128;0.6826;
960.9000;0.5071;0.6801;
961.2000;0.5136;0.7002;
961.5000;0.5104;0.6902;
961.8000;0.5120;0.6826;
962.1000;0.5120;0.6776;
962.4000;0.5120;0.6751;
962.7000;0.5128;0.6801;
963.0000;0.5128;0.6801;
963.3000;0.5112;0.6700;
963.6000;0.5136;0.6801;
963.9000;0.5136;0.6751;
964.2000;0.5153;0.6826;
964.5000;0.5104;0.6751;
964.8000;0.5088;0.6700;
965.1000;0.5136;0.6801;
965.4000;0.5120;0.6776;
965.7000;0.5120;0.6776;
966.0000;0.5136;0.6851;
966.3000;0.5144;0.7002;
966.6000;0.5120;0.6851;
966.9000;0.5120;0.6801;
967.2000;0.5128;0.6801;
967.5000;0.5120;0.6851;
967.8000;0.5120;0.6927;
968.1000;0.5136;0.6851;
968.4000;0.5185;0.7028;
968.7000;0.5136;0.6876;
969.0000;0.5144;0.6876;
969.3000;0.5136;0.6952;
969.6000;0.5144;0.6952;
969.9000;0.5169;0.6851;
970.2000;0.5136;0.6700;
970.5000;0.5079;0.6549;
970.8000;0.5169;0.6826;
971.1000;0.5128;0.6700;
971.4000;0.5144;0.6725;
971.7000;0.5136;0.6675;
972.0000;0.5144;0.6700;
972.3000;0.5136;0.6700;
972.6000;0.5120;0.6725;
972.9000;0.5161;0.6851;
973.2000;0.5104;0.6851;
973.5000;0.5104;0.6902;
973.8000;0.5079;0.6826;
974.1000;0.5128;0.6927;
974.4000;0.5088;0.6776;
974.7000;0.5112;0.6927;
975.0000;0.5128;0.6952;
975.3000;0.5193;0.7154;
975.6000;0.5128;0.6952;
975.9000;0.5136;0.6927;
976.2000;0.5120;0.6902;
976.5000;0.5128;0.6902;
976.8000;0.5201;0.7128;
977.1000;0.5136;0.6876;
977.4000;0.5120;0.6776;
977.7000;0.5136;0.6801;
978.0000;0.5128;0.6826;
978.3000;0.5128;0.6851;
978.6000;0.5128;0.6776;
978.9000;0.5128;0.6776;
979.2000;0.5144;0.6826;
979.5000;0.5120;0.6801;
979.8000;0.5128;0.6826;
980.1000;0.5120;0.6826;
980.4000;0.5136;0.6876;
980.7000;0.5136;0.6776;
981.0000;0.5096;0.6650;
981.3000;0.5128;0.6725;
981.6000;0.5136;0.6751;
981.9000;0.5136;0.6776;
982.2000;0.5136;0.6776;
982.5000;0.5112;0.6751;
982.8000;0.5112;0.6675;
983.1000;0.5161;0.6876;
983.4000;0.5128;0.6675;
983.7000;0.5128;0.6675;
984.0000;0.5136;0.6700;
984.3000;0.5136;0.6675;
984.6000;0.5128;0.6700;
984.9000;0.5120;0.6675;
985.2000;0.5136;0.6801;
985.5000;0.5112;0.6801;
985.8000;0.5128;0.6826;
986.1000;0.5120;0.6876;
986.4000;0.5112;0.6851;
986.7000;0.5104;0.6801;
987.0000;0.5096;0.6851;
987.3000;0.5112;0.6851;
987.6000;0.5112;0.6876;
987.9000;0.5120;0.6927;
988.2000;0.5136;0.7002;
988.5000;0.5120;0.6927;
988.8000;0.5112;0.6876;
989.1000;0.5136;0.6952;
989.4000;0.5136;0.6977;
989.7000;0.5153;0.6927;
990.0000;0.5112;0.6851;
990.3000;0.5112;0.6776;
990.6000;0.5088;0.6675;
990.9000;0.5120;0.6675;
991.2000;0.5120;0.6675;
991.5000;0.5096;0.6549;
991.8000;0.5112;0.6549;
992.1000;0.5120;0.6499;
992.4000;0.5169;0.6599;
992.7000;0.5112;0.6373;
993.0000;0.5128;0.6423;
993.3000;0.5120;0.6398;
993.6000;0.5112;0.6348;
993.9000;0.5120;0.6423;
994.2000;0.5128;0.6524;
994.5000;0.5144;0.6625;
994.8000;0.5128;0.6499;
995.1000;0.5096;0.6448;
995.4000;0.5144;0.6599;
995.7000;0.5144;0.6599;
996.0000;0.5136;0.6675;
996.3000;0.5112;0.6625;
996.6000;0.5096;0.6675;
996.9000;0.5112;0.6751;
997.2000;0.5104;0.6725;
997.5000;0.5088;0.6776;
997.8000;0.5120;0.6776;
998.1000;0.5088;0.6725;
998.4000;0.5128;0.6801;
998.7000;0.5112;0.6751;
999.0000;0.5022;0.6549;
999.3000;0.5063;0.6599;
999.6000;0.5104;0.6826;
999.9000;0.5144;0.6927;
1000.2000;0.5104;0.6902;
1000.5000;0.5128;0.6902;
1000.8000;0.5120;0.6801;
1001.1000;0.5136;0.6851;
1001.4000;0.5112;0.6725;
1001.7000;0.5128;0.6725;
1002.0000;0.5128;0.6826;
1002.3000;0.5104;0.6776;
1002.6000;0.5112;0.6801;
1002.9000;0.5128;0.6876;
1003.2000;0.5112;0.6851;
1003.5000;0.5128;0.6927;
1003.8000;0.5144;0.6952;
1004.1000;0.5128;0.6776;
1004.4000;0.5153;0.6801;
1004.7000;0.5120;0.6700;
1005.0000;0.5128;0.6725;
1005.3000;0.5144;0.6776;
1005.6000;0.5112;0.6801;
1005.9000;0.5153;0.6851;
1006.2000;0.5136;0.6851;
1006.5000;0.5079;0.6675;
1006.8000;0.5128;0.6801;
1007.1000;0.5136;0.6851;
1007.4000;0.5128;0.6876;
1007.7000;0.5136;0.6927;
1008.0000;0.5161;0.7002;
1008.3000;0.5128;0.6952;
1008.6000;0.5104;0.7002;
1008.9000;0.5120;0.7002;
1009.2000;0.5104;0.6927;
1009.5000;0.5120;0.7002;
1009.8000;0.5128;0.7028;
1010.1000;0.5120;0.7028;
1010.4000;0.5136;0.7053;
1010.7000;0.5120;0.7053;
1011.0000;0.5128;0.7002;
1011.3000;0.5112;0.6977;
1011.6000;0.5039;0.6700;
1011.9000;0.5136;0.6776;
1012.2000;0.5120;0.6675;
1012.5000;0.5128;0.6776;
1012.8000;0.5055;0.6625;
1013.1000;0.5144;0.6826;
1013.4000;0.5088;0.6675;
1013.7000;0.5112;0.6725;
1014.0000;0.5104;0.6725;
1014.3000;0.5112;0.6700;
1014.6000;0.5120;0.6675;
1014.9000;0.5120;0.6751;
1015.2000;0.5104;0.6826;
1015.5000;0.5079;0.6801;
1015.8000;0.5112;0.6826;
1016.1000;0.5112;0.6927;
1016.4000;0.5136;0.7002;
1016.7000;0.5104;0.6902;
1017.0000;0.5112;0.6952;
1017.3000;0.5128;0.6952;
1017.6000;0.5161;0.6927;
1017.9000;0.5112;0.6826;
1018.2000;0.5104;0.6826;
1018.5000;0.5128;0.6977;
1018.8000;0.5128;0.6927;
1019.1000;0.5112;0.6851;
1019.4000;0.5104;0.6776;
1019.7000;0.5096;0.6751;
1020.0000;0.5120;0.6801;
1020.3000;0.5104;0.6751;
1020.6000;0.5120;0.6700;
1020.9000;0.5112;0.6700;
1021.2000;0.5128;0.6700;
1021.5000;0.5112;0.6801;
1021.8000;0.5071;0.6776;
1022.1000;0.5088;0.6927;
1022.4000;0.5128;0.6927;
1022.7000;0.5112;0.6927;
1023.0000;0.5120;0.6851;
1023.3000;0.5112;0.6826;
1023.6000;0.5104;0.6801;
1023.9000;0.5112;0.6826;
1024.2000;0.5096;0.6826;
1024.5000;0.5104;0.6902;
1024.8000;0.5112;0.6927;
1025.1000;0.5096;0.6902;
1025.4000;0.5096;0.6826;
1025.7000;0.5112;0.6751;
1026.0000;0.5112;0.6700;
1026.3000;0.5120;0.6801;
1026.6000;0.5112;0.6650;
1026.9000;0.5088;0.6599;
1027.2000;0.5104;0.6650;
1027.5000;0.5120;0.6776;
1027.8000;0.5112;0.6751;
1028.1000;0.5201;0.7078;
1028.4000;0.5088;0.6751;
1028.7000;0.5112;0.6776;
1029.0000;0.5112;0.6876;
1029.3000;0.5112;0.6776;
1029.6000;0.5112;0.6927;
1029.9000;0.5063;0.6876;
1030.2000;0.5128;0.7002;
1030.5000;0.5128;0.7028;
1030.8000;0.5112;0.6977;
1031.1000;0.5096;0.6902;
1031.4000;0.5136;0.6977;
1031.7000;0.5128;0.6851;
1032.0000;0.5120;0.6826;
1032.3000;0.5104;0.6776;
1032.6000;0.5120;0.6927;
1032.9000;0.5136;0.7002;
1033.2000;0.5096;0.6977;
1033.5000;0.5071;0.6927;
1033.8000;0.5079;0.6952;
1034.1000;0.5104;0.7002;
1034.4000;0.5079;0.6927;
1034.7000;0.5104;0.6952;
1035.0000;0.5112;0.6977;
1035.3000;0.5120;0.7002;
1035.6000;0.5112;0.6952;
1035.9000;0.5136;0.7053;
1036.2000;0.5112;0.6902;
1036.5000;0.5120;0.6952;
1036.8000;0.5104;0.6927;
1037.1000;0.5144;0.6977;
1037.4000;0.5096;0.6902;
1037.7000;0.5177;0.7154;
1038.0000;0.5055;0.6826;
1038.3000;0.5104;0.6851;
1038.6000;0.5128;0.6977;
1038.9000;0.5104;0.6927;
1039.2000;0.5112;0.6876;
1039.5000;0.5104;0.6851;
1039.8000;0.5104;0.6826;
1040.1000;0.5169;0.7053;
1040.4000;0.5153;0.6977;
1040.7000;0.5104;0.6826;
1041.0000;0.5112;0.6876;
1041.3000;0.5104;0.6751;
1041.6000;0.5112;0.6826;
1041.9000;0.5104;0.6801;
1042.2000;0.5104;0.6902;
1042.5000;0.5112;0.6851;
1042.8000;0.5096;0.6801;
1043.1000;0.4998;0.6549;
1043.4000;0.5128;0.6851;
1043.7000;0.5128;0.6801;
1044.0000;0.5112;0.6700;
1044.3000;0.5120;0.6625;
1044.6000;0.5120;0.6599;
1044.9000;0.5120;0.6574;
1045.2000;0.5120;0.6549;
1045.5000;0.5128;0.6625;
1045.8000;0.5128;0.6650;
1046.1000;0.5096;0.6574;
1046.4000;0.5120;0.6650;
1046.7000;0.5112;0.6675;
1047.0000;0.5120;0.6801;
1047.3000;0.5104;0.6776;
1047.6000;0.5120;0.6725;
1047.9000;0.5112;0.6751;
1048.2000;0.5104;0.6650;
1048.5000;0.5128;0.6650;
1048.8000;0.5112;0.6650;
1049.1000;0.5104;0.6599;
1049.4000;0.5120;0.6599;
1049.7000;0.5096;0.6549;
1050.0000;0.5153;0.6650;
1050.3000;0.5104;0.6650;
1050.6000;0.5112;0.6625;
1050.9000;0.5136;0.6599;
1051.2000;0.5112;0.6524;
1051.5000;0.5128;0.6549;
1051.8000;0.5063;0.6423;
1052.1000;0.5144;0.6700;
1052.4000;0.5112;0.6650;
1052.7000;0.5088;0.6650;
1053.0000;0.5022;0.6448;
1053.3000;0.5112;0.6675;
1053.6000;0.5096;0.6599;
1053.9000;0.5014;0.6322;
1054.2000;0.5096;0.6524;
1054.5000;0.5088;0.6574;
1054.8000;0.5112;0.6549;
1055.1000;0.5104;0.6524;
1055.4000;0.5104;0.6549;
1055.7000;0.5128;0.6751;
1056.0000;0.5153;0.6826;
1056.3000;0.5120;0.6675;
1056.6000;0.5055;0.6549;
1056.9000;0.5112;0.6725;
1057.2000;0.5104;0.6826;
1057.5000;0.5112;0.6826;
1057.8000;0.5047;0.6776;
1058.1000;0.5104;0.6927;
1058.4000;0.5096;0.6851;
1058.7000;0.5104;0.6801;
1059.0000;0.5112;0.6751;
1059.3000;0.5104;0.6801;
1059.6000;0.5128;0.6801;
1059.9000;0.5104;0.6650;
1060.2000;0.5112;0.6650;
1060.5000;0.5120;0.6650;
1060.8000;0.5120;0.6700;
1061.1000;0.5136;0.6776;
1061.4000;0.5104;0.6725;
1061.7000;0.5169;0.6977;
1062.0000;0.5120;0.6776;
1062.3000;0.5112;0.6751;
1062.6000;0.5112;0.6826;
1062.9000;0.5112;0.6876;
1063.2000;0.5112;0.6851;
1063.5000;0.5104;0.6876;
1063.8000;0.5088;0.6826;
1064.1000;0.5112;0.6927;
1064.4000;0.5104;0.6826;
1064.7000;0.5104;0.6751;
1065.0000;0.5120;0.6725;
1065.3000;0.5096;0.6650;
1065.6000;0.5104;0.6700;
1065.9000;0.5079;0.6700;
1066.2000;0.5112;0.6851;
1066.5000;0.5104;0.6776;
1066.8000;0.5120;0.6851;
1067.1000;0.5120;0.6876;
1067.4000;0.5014;0.6574;
1067.7000;0.5104;0.6801;
1068.0000;0.5088;0.6826;
1068.3000;0.5104;0.6801;
1068.6000;0.5104;0.6876;
1068.9000;0.5079;0.6776;
1069.2000;0.5104;0.6851;
1069.5000;0.5112;0.6876;
1069.8000;0.5104;0.6801;
1070.1000;0.5096;0.6801;
1070.4000;0.5104;0.6876;
1070.7000;0.5169;0.7128;
1071.0000;0.5120;0.7053;
1071.3000;0.5104;0.7078;
1071.6000;0.5120;0.7103;
1071.9000;0.5112;0.7053;
1072.2000;0.5120;0.7103;
1072.5000;0.5088;0.7053;
1072.8000;0.5079;0.6977;
1073.1000;0.5096;0.7002;
1073.4000;0.5096;0.7002;
1073.7000;0.5104;0.7053;
1074.0000;0.5234;0.7431;
1074.3000;0.5071;0.6876;
1074.6000;0.5104;0.6977;
1074.9000;0.5088;0.7053;
1075.2000;0.5088;0.7053;
1075.5000;0.5088;0.7053;
1075.8000;0.5104;0.7078;
1076.1000;0.5047;0.6851;
1076.4000;0.5120;0.6977;
1076.7000;0.5096;0.6952;
1077.0000;0.5161;0.7103;
1077.3000;0.5104;0.6851;
1077.6000;0.5096;0.6826;
1077.9000;0.5096;0.6826;
1078.2000;0.5088;0.6725;
1078.5000;0.5063;0.6650;
1078.8000;0.5128;0.6826;
1079.1000;0.5104;0.6725;
1079.4000;0.5096;0.6675;
1079.7000;0.5096;0.6751;
1080.0000;0.5112;0.6851;
1080.3000;0.5104;0.6952;
1080.6000;0.5104;0.6902;
1080.9000;0.5104;0.6801;
1081.2000;0.5104;0.6876;
1081.5000;0.5096;0.6876;
1081.8000;0.5096;0.6851;
1082.1000;0.5104;0.6876;
1082.4000;0.5096;0.6876;
1082.7000;0.5112;0.6952;
1083.0000;0.5096;0.6851;
1083.3000;0.5104;0.6902;
1083.6000;0.5022;0.6700;
1083.9000;0.5112;0.6952;
1084.2000;0.5096;0.6876;
1084.5000;0.5088;0.6826;
1084.8000;0.5128;0.7028;
1085.1000;0.5096;0.6927;
1085.4000;0.5104;0.6902;
1085.7000;0.5096;0.6826;
1086.0000;0.5120;0.6952;
1086.3000;0.5112;0.6927;
1086.6000;0.5104;0.6826;
1086.9000;0.5088;0.6776;
1087.2000;0.5128;0.6876;
1087.5000;0.5128;0.6902;
1087.8000;0.5104;0.6902;
1088.1000;0.5112;0.6902;
1088.4000;0.5096;0.6952;
1088.7000;0.5128;0.6927;
1089.0000;0.5079;0.6876;
1089.3000;0.5088;0.6826;
1089.6000;0.5112;0.6851;
1089.9000;0.5088;0.6776;
1090.2000;0.5104;0.6876;
1090.5000;0.5071;0.6902;
1090.8000;0.5079;0.6952;
1091.1000;0.5079;0.6977;
1091.4000;0.5104;0.7078;
1091.7000;0.5096;0.7028;
1092.0000;0.5096;0.7078;
1092.3000;0.5096;0.7028;
1092.6000;0.5096;0.7053;
1092.9000;0.5112;0.7078;
1093.2000;0.5079;0.7103;
1093.5000;0.5088;0.7154;
1093.8000;0.5136;0.7204;
1094.1000;0.5104;0.6977;
1094.4000;0.5088;0.6826;
1094.7000;0.5128;0.6952;
1095.0000;0.5096;0.6851;
1095.3000;0.5112;0.6902;
1095.6000;0.5096;0.6851;
1095.9000;0.5104;0.6977;
1096.2000;0.5071;0.6952;
1096.5000;0.5144;0.7128;
1096.8000;0.5112;0.7028;
1097.1000;0.5088;0.6851;
1097.4000;0.5104;0.6801;
1097.7000;0.5104;0.6851;
1098.0000;0.5096;0.6876;
1098.3000;0.5096;0.6876;
1098.6000;0.5096;0.6927;
1098.9000;0.5120;0.6952;
1099.2000;0.5112;0.6927;
1099.5000;0.5104;0.7028;
1099.8000;0.5112;0.7154;
1100.1000;0.5112;0.7154;
1100.4000;0.5112;0.7204;
1100.7000;0.5071;0.7028;
1101.0000;0.5096;0.7002;
1101.3000;0.5112;0.7028;
1101.6000;0.5104;0.6952;
1101.9000;0.5120;0.7078;
1102.2000;0.5112;0.7028;
1102.5000;0.5104;0.7128;
1102.8000;0.5120;0.7229;
1103.1000;0.5112;0.7154;
1103.4000;0.5096;0.7078;
1103.7000;0.5063;0.7028;
1104.0000;0.5104;0.7053;
1104.3000;0.5112;0.7053;
1104.6000;0.5079;0.6851;
1104.9000;0.5079;0.6826;
1105.2000;0.5088;0.6826;
1105.5000;0.5096;0.6826;
1105.8000;0.5128;0.6876;
1106.1000;0.5144;0.6851;
1106.4000;0.5104;0.6776;
1106.7000;0.5128;0.6851;
1107.0000;0.5112;0.6952;
1107.3000;0.5096;0.6952;
1107.6000;0.5055;0.6977;
1107.9000;0.5088;0.7028;
1108.2000;0.5096;0.7053;
1108.5000;0.5071;0.6977;
1108.8000;0.5128;0.6977;
1109.1000;0.5185;0.7103;
1109.4000;0.5079;0.6902;
1109.7000;0.5096;0.6851;
1110.0000;0.5104;0.6801;
1110.3000;0.5104;0.6876;
1110.6000;0.5047;0.6826;
1110.9000;0.5079;0.6927;
1111.2000;0.5096;0.7002;
1111.5000;0.5096;0.7028;
1111.8000;0.5104;0.7053;
1112.1000;0.5136;0.7204;
1112.4000;0.5071;0.7053;
1112.7000;0.5104;0.7204;
1113.0000;0.5120;0.7204;
1113.3000;0.5104;0.7128;
1113.6000;0.5031;0.6927;
1113.9000;0.5112;0.7154;
1114.2000;0.5112;0.7154;
1114.5000;0.5112;0.7254;
1114.8000;0.5112;0.7305;
1115.1000;0.5104;0.7229;
1115.4000;0.5104;0.7128;
1115.7000;0.5096;0.7078;
1116.0000;0.5096;0.7028;
1116.3000;0.5104;0.7053;
1116.6000;0.5104;0.7078;
1116.9000;0.5096;0.7028;
1117.2000;0.5104;0.7078;
1117.5000;0.5079;0.6977;
1117.8000;0.5088;0.6851;
1118.1000;0.5104;0.6876;
1118.4000;0.5104;0.6952;
1118.7000;0.5079;0.6927;
1119.0000;0.5079;0.6977;
1119.3000;0.5112;0.6977;
1119.6000;0.5104;0.6927;
1119.9000;0.5104;0.6952;
1120.2000;0.5096;0.6902;
1120.5000;0.5104;0.6952;
1120.8000;0.5096;0.6977;
1121.1000;0.5120;0.7028;
1121.4000;0.5104;0.7028;
1121.7000;0.5096;0.7078;
1122.0000;0.5112;0.7179;
1122.3000;0.5104;0.7229;
1122.6000;0.5128;0.7204;
1122.9000;0.5096;0.7053;
1123.2000;0.5128;0.7053;
1123.5000;0.5055;0.7028;
1123.8000;0.5088;0.7053;
1124.1000;0.5096;0.7002;
1124.4000;0.5104;0.7028;
1124.7000;0.5120;0.7078;
1125.0000;0.5112;0.7078;
1125.3000;0.5096;0.6952;
1125.6000;0.5055;0.6826;
1125.9000;0.5104;0.6952;
1126.2000;0.5088;0.6927;
1126.5000;0.5096;0.6876;
1126.8000;0.5022;0.6776;
1127.1000;0.5104;0.6977;
1127.4000;0.5096;0.7002;
1127.7000;0.5104;0.6927;
1128.0000;0.5071;0.6801;
1128.3000;0.5096;0.6876;
1128.6000;0.5055;0.6776;
1128.9000;0.5104;0.6876;
1129.2000;0.5104;0.6902;
1129.5000;0.5088;0.6776;
1129.8000;0.5096;0.6826;
1130.1000;0.5079;0.6876;
1130.4000;0.5096;0.6952;
1130.7000;0.5104;0.7028;
1131.0000;0.5104;0.7128;
1131.3000;0.5088;0.7078;
1131.6000;0.5047;0.6927;
1131.9000;0.5079;0.6952;
1132.2000;0.5104;0.6952;
1132.5000;0.5071;0.6851;
1132.8000;0.5104;0.6851;
1133.1000;0.5120;0.6876;
1133.4000;0.5088;0.6776;
1133.7000;0.5088;0.6751;
1134.0000;0.5071;0.6725;
1134.3000;0.5096;0.6902;
1134.6000;0.5177;0.7103;
1134.9000;0.5096;0.6977;
1135.2000;0.5112;0.7053;
1135.5000;0.5071;0.6977;
1135.8000;0.5096;0.6902;
1136.1000;0.5096;0.6851;
1136.4000;0.5096;0.6851;
1136.7000;0.5104;0.6851;
1137.0000;0.5096;0.6826;
1137.3000;0.5128;0.6902;
1137.6000;0.5096;0.6927;
1137.9000;0.5063;0.6902;
1138.2000;0.5096;0.7002;
1138.5000;0.5112;0.7078;
1138.8000;0.5112;0.6952;
1139.1000;0.5079;0.6851;
1139.4000;0.5096;0.6826;
1139.7000;0.5096;0.6851;
1140.0000;0.5104;0.6826;
1140.3000;0.5112;0.6851;
1140.6000;0.5096;0.6751;
1140.9000;0.5096;0.6700;
1141.2000;0.5096;0.6725;
1141.5000;0.5079;0.6725;
1141.8000;0.5120;0.6801;
1142.1000;0.5088;0.6801;
1142.4000;0.5104;0.6776;
1142.7000;0.5096;0.6851;
1143.0000;0.5096;0.6952;
1143.3000;0.5104;0.6876;
1143.6000;0.5112;0.6851;
1143.9000;0.5104;0.6851;
1144.2000;0.5112;0.6952;
1144.5000;0.5112;0.6902;
1144.8000;0.5112;0.6952;
1145.1000;0.5079;0.6801;
1145.4000;0.5071;0.6851;
1145.7000;0.5112;0.6952;
1146.0000;0.5104;0.6977;
1146.3000;0.5104;0.6952;
1146.6000;0.5088;0.6927;
1146.9000;0.5096;0.6876;
1147.2000;0.5088;0.6876;
1147.5000;0.5047;0.6876;
1147.8000;0.5193;0.7204;
1148.1000;0.5088;0.6902;
1148.4000;0.5096;0.6902;
1148.7000;0.5128;0.7028;
1149.0000;0.5063;0.6876;
1149.3000;0.5096;0.6952;
1149.6000;0.5055;0.6876;
1149.9000;0.5071;0.6826;
1150.2000;0.5096;0.6902;
1150.5000;0.5088;0.6826;
1150.8000;0.5104;0.6801;
1151.1000;0.5071;0.6776;
1151.4000;0.5088;0.6851;
1151.7000;0.5047;0.6725;
1152.0000;0.5088;0.6851;
1152.3000;0.5112;0.6927;
1152.6000;0.5112;0.6902;
1152.9000;0.5144;0.6927;
1153.2000;0.5193;0.7204;
1153.5000;0.5071;0.6851;
1153.8000;0.5112;0.7078;
1154.1000;0.5063;0.6952;
1154.4000;0.5096;0.7053;
1154.7000;0.5096;0.7103;
1155.0000;0.5088;0.7128;
1155.3000;0.5096;0.7103;
1155.6000;0.5088;0.7154;
1155.9000;0.5088;0.7154;
1156.2000;0.5096;0.7078;
1156.5000;0.5079;0.6902;
1156.8000;0.5112;0.6902;
1157.1000;0.5104;0.6977;
1157.4000;0.5104;0.6952;
1157.7000;0.5096;0.6902;
1158.0000;0.5104;0.6927;
1158.3000;0.5079;0.6902;
1158.6000;0.5104;0.6977;
1158.9000;0.5096;0.6952;
1159.2000;0.5071;0.6876;
1159.5000;0.5071;0.6902;
1159.8000;0.5063;0.6826;
1160.1000;0.5096;0.6876;
1160.4000;0.5088;0.6776;
1160.7000;0.5096;0.6851;
1161.0000;0.5096;0.6927;
1161.3000;0.5088;0.7028;
1161.6000;0.5112;0.7053;
1161.9000;0.5014;0.6751;
1162.2000;0.5079;0.7002;
1162.5000;0.5039;0.6851;
1162.8000;0.5096;0.7028;
1163.1000;0.5088;0.7053;
1163.4000;0.5096;0.7002;
1163.7000;0.5055;0.6876;
1164.0000;0.5112;0.6927;
1164.3000;0.5096;0.6851;
1164.6000;0.5112;0.6851;
1164.9000;0.5079;0.6927;
1165.2000;0.5104;0.6977;
1165.5000;0.5104;0.7002;
1165.8000;0.5120;0.7053;
1166.1000;0.5096;0.6977;
1166.4000;0.5096;0.6977;
1166.7000;0.4990;0.6725;
1167.0000;0.5088;0.6952;
1167.3000;0.5104;0.7002;
1167.6000;0.5104;0.7002;
1167.9000;0.5031;0.6751;
1168.2000;0.5088;0.6876;
1168.5000;0.5088;0.6876;
1168.8000;0.5136;0.7028;
1169.1000;0.5161;0.7103;
1169.4000;0.5128;0.7028;
1169.7000;0.5112;0.7053;
1170.0000;0.5014;0.6902;
1170.3000;0.5112;0.7128;
1170.6000;0.5096;0.7128;
1170.9000;0.5161;0.7305;
1171.2000;0.5071;0.6902;
1171.5000;0.5039;0.6851;
1171.8000;0.5104;0.6977;
1172.1000;0.5136;0.7028;
1172.4000;0.5088;0.6927;
1172.7000;0.5055;0.6902;
1173.0000;0.5096;0.7028;
1173.3000;0.5071;0.6977;
1173.6000;0.5104;0.7078;
1173.9000;0.5088;0.7128;
1174.2000;0.5088;0.7154;
1174.5000;0.5079;0.7103;
1174.8000;0.5079;0.6952;
1175.1000;0.5104;0.6977;
1175.4000;0.5096;0.6927;
1175.7000;0.5079;0.6902;
1176.0000;0.5096;0.6876;
1176.3000;0.4998;0.6700;
1176.6000;0.5031;0.6700;
1176.9000;0.5104;0.6801;
1177.2000;0.5079;0.6725;
1177.5000;0.5096;0.6675;
1177.8000;0.5096;0.6625;
1178.1000;0.5088;0.6650;
1178.4000;0.5153;0.6826;
1178.7000;0.5104;0.6751;
1179.0000;0.5096;0.6700;
1179.3000;0.5104;0.6826;
1179.6000;0.5096;0.6952;
1179.9000;0.5088;0.6902;
1180.2000;0.5096;0.6902;
1180.5000;0.5088;0.6826;
1180.8000;0.5079;0.6876;
1181.1000;0.5088;0.6876;
1181.4000;0.5071;0.6751;
1181.7000;0.5096;0.6751;
1182.0000;0.5088;0.6725;
1182.3000;0.5112;0.6700;
1182.6000;0.5112;0.6625;
1182.9000;0.5112;0.6725;
1183.2000;0.5096;0.6700;
1183.5000;0.5088;0.6725;
1183.8000;0.5088;0.6751;
1184.1000;0.5096;0.6751;
1184.4000;0.5096;0.6801;
1184.7000;0.5104;0.6801;
1185.0000;0.5096;0.6675;
1185.3000;0.5079;0.6650;
1185.6000;0.5112;0.6725;
1185.9000;0.5104;0.6776;
1186.2000;0.5088;0.6675;
1186.5000;0.5088;0.6650;
1186.8000;0.5112;0.6625;
1187.1000;0.5104;0.6675;
1187.4000;0.5088;0.6599;
1187.7000;0.5104;0.6700;
1188.0000;0.5104;0.6675;
1188.3000;0.5104;0.6751;
1188.6000;0.5128;0.6776;
1188.9000;0.5096;0.6751;
1189.2000;0.5088;0.6801;
1189.5000;0.5096;0.6952;
1189.8000;0.5096;0.7002;
1190.1000;0.5088;0.7053;
1190.4000;0.5096;0.7002;
1190.7000;0.5104;0.7053;
1191.0000;0.5104;0.7078;
1191.3000;0.5022;0.6952;
1191.6000;0.5112;0.7154;
1191.9000;0.5096;0.7103;
1192.2000;0.5104;0.7128;
1192.5000;0.5063;0.7053;
1192.8000;0.5096;0.7078;
1193.1000;0.5104;0.7078;
1193.4000;0.5112;0.7154;
1193.7000;0.5088;0.7128;
1194.0000;0.5112;0.7154;
1194.3000;0.5104;0.7078;
1194.6000;0.5104;0.7229;
1194.9000;0.5104;0.7179;
1195.2000;0.5079;0.7103;
1195.5000;0.5144;0.7128;
1195.8000;0.5071;0.6826;
1196.1000;0.5120;0.6927;
1196.4000;0.5096;0.6927;
1196.7000;0.5088;0.6952;
1197.0000;0.5079;0.6876;
1197.3000;0.5088;0.6876;
1197.6000;0.4998;0.6599;
1197.9000;0.5096;0.6902;
1198.2000;0.5104;0.6952;
1198.5000;0.5136;0.7053;
1198.8000;0.5104;0.7002;
1199.1000;0.5088;0.6876;
1199.4000;0.5104;0.6902;
1199.7000;0.5128;0.6927;
1200.0000;0.5104;0.6952;
1200.3000;0.5071;0.6902;
1200.6000;0.5104;0.6902;
1200.9000;0.5096;0.6826;
1201.2000;0.5136;0.6851;
1201.5000;0.5104;0.6776;
1201.8000;0.5079;0.6876;
1202.1000;0.5088;0.6876;
1202.4000;0.5071;0.6902;
1202.7000;0.5096;0.6927;
1203.0000;0.5144;0.7053;
1203.3000;0.5088;0.6952;
1203.6000;0.5104;0.6952;
1203.9000;0.5096;0.6927;
1204.2000;0.5079;0.6876;
1204.5000;0.5096;0.6851;
1204.8000;0.5120;0.6801;
1205.1000;0.5071;0.6801;
1205.4000;0.5079;0.6801;
1205.7000;0.5055;0.6751;
1206.0000;0.5079;0.6851;
1206.3000;0.5079;0.6876;
1206.6000;0.5104;0.6851;
1206.9000;0.5096;0.6851;
1207.2000;0.5071;0.6851;
1207.5000;0.5193;0.7179;
1207.8000;0.5088;0.6826;
1208.1000;0.5104;0.6927;
1208.4000;0.5104;0.7002;
1208.7000;0.5104;0.7028;
1209.0000;0.5104;0.7028;
1209.3000;0.5088;0.6977;
1209.6000;0.5112;0.7028;
1209.9000;0.5120;0.7028;
1210.2000;0.5088;0.6977;
1210.5000;0.5104;0.7002;
1210.8000;0.5096;0.7078;
1211.1000;0.5136;0.7154;
1211.4000;0.5104;0.6952;
1211.7000;0.5112;0.6902;
1212.0000;0.5112;0.6851;
1212.3000;0.5112;0.6801;
1212.6000;0.5112;0.6826;
1212.9000;0.5096;0.6751;
1213.2000;0.5144;0.6851;
1213.5000;0.5088;0.6700;
1213.8000;0.5112;0.6725;
1214.1000;0.5096;0.6650;
1214.4000;0.5088;0.6675;
1214.7000;0.5088;0.6650;
1215.0000;0.5088;0.6625;
1215.3000;0.5096;0.6599;
1215.6000;0.5088;0.6599;
1215.9000;0.5071;0.6473;
1216.2000;0.5088;0.6448;
1216.5000;0.5096;0.6448;
1216.8000;0.5079;0.6473;
1217.1000;0.5079;0.6499;
1217.4000;0.5088;0.6574;
1217.7000;0.5088;0.6574;
1218.0000;0.5096;0.6650;
1218.3000;0.5088;0.6625;
1218.6000;0.5096;0.6675;
1218.9000;0.5104;0.6751;
1219.2000;0.5079;0.6700;
1219.5000;0.5128;0.6826;
1219.8000;0.5088;0.6675;
1220.1000;0.5096;0.6675;
1220.4000;0.5096;0.6801;
1220.7000;0.5031;0.6625;
1221.0000;0.5063;0.6725;
1221.3000;0.5088;0.6776;
1221.6000;0.5071;0.6751;
1221.9000;0.5071;0.6725;
1222.2000;0.5088;0.6700;
1222.5000;0.5088;0.6700;
1222.8000;0.5079;0.6776;
1223.1000;0.5071;0.6927;
1223.4000;0.5071;0.7028;
1223.7000;0.5112;0.7103;
1224.0000;0.5112;0.7154;
1224.3000;0.5088;0.7002;
1224.6000;0.5022;0.6801;
1224.9000;0.5161;0.7179;
1225.2000;0.5096;0.7078;
1225.5000;0.5079;0.7078;
1225.8000;0.5088;0.7028;
1226.1000;0.5104;0.7002;
1226.4000;0.5088;0.6977;
1226.7000;0.5112;0.7078;
1227.0000;0.5006;0.6751;
1227.3000;0.5063;0.6902;
1227.6000;0.5136;0.7103;
1227.9000;0.5088;0.7028;
1228.2000;0.5079;0.7028;
1228.5000;0.5104;0.7078;
1228.8000;0.5088;0.7028;
1229.1000;0.5079;0.7002;
1229.4000;0.5079;0.6977;
1229.7000;0.5104;0.6977;
1230.0000;0.5071;0.6876;
1230.3000;0.5079;0.6801;
1230.6000;0.5071;0.6776;
1230.9000;0.5063;0.6776;
1231.2000;0.5039;0.6700;
1231.5000;0.5063;0.6876;
1231.8000;0.5104;0.6977;
1232.1000;0.5079;0.6927;
1232.4000;0.5079;0.6952;
1232.7000;0.5031;0.6851;
1233.0000;0.5071;0.6902;
1233.3000;0.5096;0.6927;
1233.6000;0.5096;0.6851;
1233.9000;0.5104;0.6876;
1234.2000;0.5128;0.7078;
1234.5000;0.5104;0.7103;
1234.8000;0.5161;0.7279;
1235.1000;0.5136;0.7128;
1235.4000;0.5079;0.7078;
1235.7000;0.5088;0.7002;
1236.0000;0.5096;0.7002;
1236.3000;0.5128;0.7053;
1236.6000;0.5096;0.6927;
1236.9000;0.5088;0.6876;
1237.2000;0.5031;0.6650;
1237.5000;0.5096;0.6876;
1237.8000;0.5079;0.6851;
1238.1000;0.5055;0.6876;
1238.4000;0.5079;0.6977;
1238.7000;0.5104;0.6927;
1239.0000;0.5104;0.7002;
1239.3000;0.5088;0.6977;
1239.6000;0.5079;0.6952;
1239.9000;0.5063;0.6876;
1240.2000;0.5120;0.7103;
1240.5000;0.5088;0.6977;
1240.8000;0.5031;0.6876;
1241.1000;0.5088;0.6977;
1241.4000;0.5112;0.6977;
1241.7000;0.5096;0.6952;
1242.0000;0.5063;0.6902;
1242.3000;0.5177;0.7254;
1242.6000;0.5104;0.7028;
1242.9000;0.5104;0.7028;
1243.2000;0.5104;0.7002;
1243.5000;0.5096;0.6952;
1243.8000;0.5104;0.7002;
1244.1000;0.5112;0.7028;
1244.4000;0.5104;0.7002;
1244.7000;0.5079;0.7053;
1245.0000;0.5063;0.6952;
1245.3000;0.5104;0.7103;
1245.6000;0.5185;0.7380;
1245.9000;0.5112;0.7103;
1246.2000;0.5071;0.6977;
1246.5000;0.5096;0.6977;
1246.8000;0.5096;0.7002;
1247.1000;0.5096;0.6977;
1247.4000;0.5104;0.6952;
1247.7000;0.5161;0.7103;
1248.0000;0.5063;0.6801;
1248.3000;0.5055;0.6700;
1248.6000;0.5063;0.6751;
1248.9000;0.5047;0.6650;
1249.2000;0.5112;0.6876;
1249.5000;0.5096;0.6826;
1249.8000;0.5063;0.6826;
1250.1000;0.5088;0.6876;
1250.4000;0.5079;0.6725;
1250.7000;0.5088;0.6675;
1251.0000;0.5104;0.6675;
1251.3000;0.5063;0.6574;
1251.6000;0.5079;0.6599;
1251.9000;0.5104;0.6574;
1252.2000;0.5079;0.6524;
1252.5000;0.5079;0.6599;
1252.8000;0.5088;0.6625;
1253.1000;0.5120;0.6776;
1253.4000;0.5079;0.6700;
1253.7000;0.5088;0.6801;
1254.0000;0.5071;0.6700;
1254.3000;0.5120;0.6801;
1254.6000;0.5096;0.6826;
1254.9000;0.5088;0.6700;
1255.2000;0.5096;0.6675;
1255.5000;0.5079;0.6599;
1255.8000;0.5071;0.6599;
1256.1000;0.5071;0.6499;
1256.4000;0.5079;0.6574;
1256.7000;0.5096;0.6599;
1257.0000;0.5063;0.6524;
1257.3000;0.5104;0.6675;
1257.6000;0.5112;0.6650;
1257.9000;0.5079;0.6574;
1258.2000;0.5071;0.6549;
1258.5000;0.5079;0.6599;
1258.8000;0.5088;0.6650;
1259.1000;0.5055;0.6599;
1259.4000;0.5088;0.6599;
1259.7000;0.5088;0.6524;
1260.0000;0.5063;0.6448;
1260.3000;0.5096;0.6574;
1260.6000;0.5112;0.6599;
1260.9000;0.5104;0.6625;
1261.2000;0.5079;0.6650;
1261.5000;0.5088;0.6574;
1261.8000;0.5088;0.6700;
1262.1000;0.5079;0.6751;
1262.4000;0.5088;0.6776;
1262.7000;0.5088;0.6801;
1263.0000;0.5104;0.6952;
1263.3000;0.5112;0.6977;
1263.6000;0.5088;0.6876;
1263.9000;0.5022;0.6700;
1264.2000;0.5079;0.6751;
1264.5000;0.5047;0.6700;
1264.8000;0.5079;0.6776;
1265.1000;0.5071;0.6801;
1265.4000;0.5104;0.6876;
1265.7000;0.5088;0.6851;
1266.0000;0.5144;0.7002;
1266.3000;0.4998;0.6650;
1266.6000;0.5014;0.6700;
1266.9000;0.5079;0.6876;
1267.2000;0.4990;0.6625;
1267.5000;0.5071;0.6776;
1267.8000;0.5079;0.6725;
1268.1000;0.5079;0.6751;
1268.4000;0.5088;0.6700;
1268.7000;0.5079;0.6700;
1269.0000;0.5071;0.6650;
1269.3000;0.5063;0.6650;
1269.6000;0.5079;0.6725;
1269.9000;0.5104;0.6725;
1270.2000;0.5096;0.6700;
1270.5000;0.5079;0.6675;
1270.8000;0.5079;0.6700;
1271.1000;0.5071;0.6801;
1271.4000;0.5112;0.7002;
1271.7000;0.5071;0.6927;
1272.0000;0.5071;0.6902;
1272.3000;0.5088;0.6927;
1272.6000;0.5071;0.6927;
1272.9000;0.5079;0.6902;
1273.2000;0.5079;0.6851;
1273.5000;0.5096;0.6725;
1273.8000;0.5079;0.6700;
1274.1000;0.5063;0.6625;
1274.4000;0.5079;0.6751;
1274.7000;0.5079;0.6801;
1275.0000;0.5063;0.6751;
1275.3000;0.5104;0.6725;
1275.6000;0.5088;0.6675;
1275.9000;0.5088;0.6751;
1276.2000;0.5088;0.6851;
1276.5000;0.5104;0.6851;
1276.8000;0.5104;0.6826;
1277.1000;0.5071;0.6675;
1277.4000;0.5088;0.6700;
1277.7000;0.5120;0.6801;
1278.0000;0.5071;0.6776;
1278.3000;0.5071;0.6776;
1278.6000;0.5063;0.6851;
1278.9000;0.5079;0.6801;
1279.2000;0.5104;0.6851;
1279.5000;0.5063;0.6776;
1279.8000;0.5079;0.6776;
1280.1000;0.5104;0.6776;
1280.4000;0.5104;0.6776;
1280.7000;0.5096;0.6801;
1281.0000;0.5088;0.6801;
1281.3000;0.5071;0.6902;
1281.6000;0.5079;0.6952;
1281.9000;0.5047;0.6801;
1282.2000;0.5055;0.6725;
1282.5000;0.5104;0.6801;
1282.8000;0.5071;0.6725;
1283.1000;0.5104;0.6801;
1283.4000;0.5039;0.6650;
1283.7000;0.5071;0.6725;
1284.0000;0.5055;0.6725;
1284.3000;0.5071;0.6725;
1284.6000;0.5088;0.6751;
1284.9000;0.5144;0.6876;
1285.2000;0.5071;0.6700;
1285.5000;0.5096;0.6675;
1285.8000;0.5096;0.6599;
1286.1000;0.5088;0.6625;
1286.4000;0.5104;0.6675;
1286.7000;0.5079;0.6650;
1287.0000;0.5079;0.6700;
1287.3000;0.5096;0.6725;
1287.6000;0.5096;0.6801;
1287.9000;0.5079;0.6801;
1288.2000;0.5096;0.6902;
1288.5000;0.5063;0.6801;
1288.8000;0.5079;0.6902;
1289.1000;0.5096;0.6952;
1289.4000;0.5096;0.6977;
1289.7000;0.5079;0.6826;
1290.0000;0.5096;0.6826;
1290.3000;0.5096;0.6776;
1290.6000;0.5096;0.6851;
1290.9000;0.5079;0.6826;
1291.2000;0.5104;0.6902;
1291.5000;0.5104;0.6952;
1291.8000;0.5088;0.6876;
1292.1000;0.5096;0.6977;
1292.4000;0.5079;0.6952;
1292.7000;0.5079;0.7028;
1293.0000;0.5088;0.7028;
1293.3000;0.5079;0.7002;
1293.6000;0.5063;0.6902;
1293.9000;0.5079;0.6952;
1294.2000;0.5079;0.6952;
1294.5000;0.5079;0.6977;
1294.8000;0.5055;0.6927;
1295.1000;0.5079;0.6977;
1295.4000;0.5079;0.6952;
1295.7000;0.5055;0.6826;
1296.0000;0.5096;0.6902;
1296.3000;0.5104;0.6902;
1296.6000;0.5096;0.6876;
1296.9000;0.5063;0.6826;
1297.2000;0.5088;0.6876;
1297.5000;0.5088;0.6902;
1297.8000;0.5063;0.6826;
1298.1000;0.5079;0.6801;
1298.4000;0.5063;0.6826;
1298.7000;0.5063;0.6876;
1299.0000;0.5088;0.6952;
1299.3000;0.5071;0.6851;
1299.6000;0.5071;0.6801;
1299.9000;0.5063;0.6751;
1300.2000;0.5063;0.6675;
1300.5000;0.5079;0.6725;
1300.8000;0.5071;0.6650;
1301.1000;0.5079;0.6574;
1301.4000;0.5079;0.6599;
1301.7000;0.5088;0.6725;
1302.0000;0.5096;0.6725;
1302.3000;0.5112;0.6826;
1302.6000;0.5079;0.6826;
1302.9000;0.5063;0.6801;
1303.2000;0.5079;0.6776;
1303.5000;0.5079;0.6751;
1303.8000;0.5079;0.6801;
1304.1000;0.5088;0.6826;
1304.4000;0.5031;0.6725;
1304.7000;0.5063;0.6801;
1305.0000;0.5079;0.6902;
1305.3000;0.5104;0.6927;
1305.6000;0.5104;0.6927;
1305.9000;0.5088;0.6876;
1306.2000;0.5104;0.6977;
1306.5000;0.5071;0.6952;
1306.8000;0.5120;0.7028;
1307.1000;0.5079;0.7028;
1307.4000;0.5088;0.6977;
1307.7000;0.5088;0.6927;
1308.0000;0.5088;0.6876;
1308.3000;0.5088;0.6902;
1308.6000;0.5120;0.7002;
1308.9000;0.5079;0.6952;
1309.2000;0.5088;0.6977;
1309.5000;0.5120;0.7002;
1309.8000;0.5071;0.6952;
1310.1000;0.5055;0.6977;
1310.4000;0.5104;0.6977;
1310.7000;0.5096;0.7002;
1311.0000;0.5071;0.7028;
1311.3000;0.5079;0.7053;
1311.6000;0.5088;0.7053;
1311.9000;0.5096;0.7002;
1312.2000;0.5088;0.6927;
1312.5000;0.5071;0.6927;
1312.8000;0.5088;0.6851;
1313.1000;0.5071;0.6801;
1313.4000;0.5055;0.6801;
1313.7000;0.5088;0.6725;
1314.0000;0.5088;0.6625;
1314.3000;0.5096;0.6776;
1314.6000;0.5088;0.6826;
1314.9000;0.5088;0.6776;
1315.2000;0.5088;0.6751;
1315.5000;0.5128;0.7002;
1315.8000;0.5088;0.6851;
1316.1000;0.5096;0.6700;
1316.4000;0.5071;0.6650;
1316.7000;0.5079;0.6700;
1317.0000;0.5104;0.6826;
1317.3000;0.5096;0.6801;
1317.6000;0.5079;0.6700;
1317.9000;0.5079;0.6599;
1318.2000;0.5079;0.6524;
1318.5000;0.5071;0.6499;
1318.8000;0.5088;0.6625;
1319.1000;0.5071;0.6700;
1319.4000;0.5088;0.6751;
1319.7000;0.5071;0.6826;
1320.0000;0.5071;0.6876;
1320.3000;0.5136;0.7002;
1320.6000;0.5071;0.6902;
1320.9000;0.5088;0.6851;
1321.2000;0.5079;0.6801;
1321.5000;0.5088;0.6801;
1321.8000;0.5112;0.6902;
1322.1000;0.5039;0.6700;
1322.4000;0.5071;0.6776;
1322.7000;0.5120;0.6952;
1323.0000;0.5079;0.6851;
1323.3000;0.5079;0.6876;
1323.6000;0.5079;0.6876;
1323.9000;0.5014;0.6725;
1324.2000;0.5079;0.6776;
1324.5000;0.5071;0.6725;
1324.8000;0.5079;0.6675;
1325.1000;0.5071;0.6625;
1325.4000;0.5039;0.6448;
1325.7000;0.5079;0.6675;
1326.0000;0.5063;0.6675;
1326.3000;0.5144;0.6876;
1326.6000;0.5079;0.6700;
1326.9000;0.5104;0.6801;
1327.2000;0.5088;0.6826;
1327.5000;0.5088;0.6801;
1327.8000;0.5071;0.6801;
1328.1000;0.5088;0.6826;
1328.4000;0.5112;0.6902;
1328.7000;0.5104;0.6876;
1329.0000;0.5071;0.6927;
1329.3000;0.5096;0.7028;
1329.6000;0.5088;0.6952;
1329.9000;0.5071;0.6801;
1330.2000;0.5071;0.6700;
1330.5000;0.5096;0.6725;
1330.8000;0.5063;0.6751;
1331.1000;0.5079;0.6876;
1331.4000;0.5079;0.6902;
1331.7000;0.5079;0.6927;
1332.0000;0.5071;0.6876;
1332.3000;0.5104;0.6977;
1332.6000;0.5063;0.6977;
1332.9000;0.5031;0.6851;
1333.2000;0.5071;0.7002;
1333.5000;0.5088;0.7002;
1333.8000;0.5079;0.7002;
1334.1000;0.5079;0.6952;
1334.4000;0.5014;0.6751;
1334.7000;0.5112;0.7028;
1335.0000;0.5071;0.7028;
1335.3000;0.5071;0.7028;
1335.6000;0.5055;0.6977;
1335.9000;0.5079;0.7002;
1336.2000;0.5112;0.6977;
1336.5000;0.5088;0.6851;
1336.8000;0.5112;0.6826;
1337.1000;0.5088;0.6801;
1337.4000;0.5071;0.6902;
1337.7000;0.5104;0.6876;
1338.0000;0.5120;0.6851;
1338.3000;0.5079;0.6725;
1338.6000;0.5096;0.6776;
1338.9000;0.5096;0.6826;
1339.2000;0.5088;0.6902;
1339.5000;0.5104;0.6902;
1339.8000;0.5088;0.6902;
1340.1000;0.5104;0.6952;
1340.4000;0.5071;0.6977;
1340.7000;0.5071;0.6977;
1341.0000;0.5104;0.7002;
1341.3000;0.5088;0.6952;
1341.6000;0.5031;0.6851;
1341.9000;0.5088;0.6952;
1342.2000;0.5071;0.6851;
1342.5000;0.5071;0.6851;
1342.8000;0.5079;0.6826;
1343.1000;0.5063;0.6826;
1343.4000;0.5096;0.6952;
1343.7000;0.5088;0.7078;
1344.0000;0.5063;0.7028;
1344.3000;0.5063;0.7078;
1344.6000;0.5063;0.6952;
1344.9000;0.5096;0.6977;
1345.2000;0.5079;0.6902;
1345.5000;0.5071;0.6927;
1345.8000;0.5063;0.6927;
1346.1000;0.5071;0.6952;
1346.4000;0.5096;0.6952;
1346.7000;0.5071;0.6876;
1347.0000;0.5136;0.6927;
1347.3000;0.5071;0.6751;
1347.6000;0.5144;0.6801;
1347.9000;0.5104;0.6599;
1348.2000;0.5071;0.6574;
1348.5000;0.5079;0.6700;
1348.8000;0.5022;0.6650;
1349.1000;0.5079;0.6776;
1349.4000;0.5071;0.6675;
1349.7000;0.5079;0.6725;
1350.0000;0.5079;0.6751;
1350.3000;0.5079;0.6801;
1350.6000;0.5031;0.6675;
1350.9000;0.5071;0.6801;
1351.2000;0.5079;0.6927;
1351.5000;0.5088;0.6952;
1351.8000;0.5071;0.6751;
1352.1000;0.5088;0.6801;
1352.4000;0.5120;0.6927;
1352.7000;0.5079;0.6826;
1353.0000;0.5071;0.6776;
1353.3000;0.5055;0.6700;
1353.6000;0.5079;0.6700;
1353.9000;0.5096;0.6751;
1354.2000;0.5047;0.6675;
1354.5000;0.5055;0.6625;
1354.8000;0.5071;0.6599;
1355.1000;0.5096;0.6549;
1355.4000;0.5071;0.6549;
1355.7000;0.5071;0.6599;
1356.0000;0.5039;0.6499;
1356.3000;0.5031;0.6549;
1356.6000;0.5055;0.6700;
1356.9000;0.5088;0.6751;
1357.2000;0.5120;0.6776;
1357.5000;0.5112;0.6700;
1357.8000;0.5079;0.6599;
1358.1000;0.5079;0.6549;
1358.4000;0.5071;0.6574;
1358.7000;0.5079;0.6675;
1359.0000;0.5079;0.6650;
1359.3000;0.5088;0.6549;
1359.6000;0.5071;0.6448;
1359.9000;0.5055;0.6448;
1360.2000;0.5071;0.6650;
1360.5000;0.5096;0.6751;
1360.8000;0.5079;0.6751;
1361.1000;0.5071;0.6801;
1361.4000;0.5071;0.6826;
1361.7000;0.5063;0.6801;
1362.0000;0.5063;0.6700;
1362.3000;0.5079;0.6700;
1362.6000;0.5088;0.6725;
1362.9000;0.5088;0.6625;
1363.2000;0.5079;0.6599;
1363.5000;0.5079;0.6549;
1363.8000;0.5088;0.6524;
1364.1000;0.5088;0.6448;
1364.4000;0.5096;0.6499;
1364.7000;0.5079;0.6499;
1365.0000;0.5088;0.6423;
1365.3000;0.5104;0.6448;
1365.6000;0.5096;0.6499;
1365.9000;0.5079;0.6549;
1366.2000;0.5071;0.6473;
1366.5000;0.5104;0.6549;
1366.8000;0.5128;0.6801;
1367.1000;0.5112;0.6826;
1367.4000;0.5079;0.6650;
1367.7000;0.5096;0.6675;
1368.0000;0.5088;0.6675;
1368.3000;0.5071;0.6650;
1368.6000;0.5071;0.6675;
1368.9000;0.5079;0.6700;
1369.2000;0.5088;0.6650;
1369.5000;0.5096;0.6650;
1369.8000;0.5071;0.6574;
1370.1000;0.5079;0.6549;
1370.4000;0.5079;0.6599;
1370.7000;0.5079;0.6574;
1371.0000;0.5079;0.6599;
1371.3000;0.5088;0.6599;
1371.6000;0.5153;0.6776;
1371.9000;0.5055;0.6423;
1372.2000;0.5071;0.6423;
1372.5000;0.5031;0.6322;
1372.8000;0.5096;0.6473;
1373.1000;0.5088;0.6499;
1373.4000;0.5096;0.6448;
1373.7000;0.5071;0.6373;
1374.0000;0.5169;0.6700;
1374.3000;0.5079;0.6473;
1374.6000;0.5079;0.6524;
1374.9000;0.5096;0.6574;
1375.2000;0.5112;0.6574;
1375.5000;0.5079;0.6473;
1375.8000;0.5079;0.6625;
1376.1000;0.5071;0.6725;
1376.4000;0.5088;0.6801;
1376.7000;0.5071;0.6700;
1377.0000;0.5063;0.6625;
1377.3000;0.5055;0.6549;
1377.6000;0.5063;0.6574;
1377.9000;0.5063;0.6549;
1378.2000;0.5088;0.6524;
1378.5000;0.5112;0.6549;
1378.8000;0.5071;0.6448;
1379.1000;0.5088;0.6524;
1379.4000;0.5112;0.6574;
1379.7000;0.5039;0.6423;
1380.0000;0.5088;0.6473;
1380.3000;0.5112;0.6473;
1380.6000;0.5071;0.6373;
1380.9000;0.5096;0.6322;
1381.2000;0.5079;0.6373;
1381.5000;0.5031;0.6373;
1381.8000;0.5071;0.6473;
1382.1000;0.5079;0.6448;
1382.4000;0.5104;0.6499;
1382.7000;0.5071;0.6448;
1383.0000;0.5063;0.6524;
1383.3000;0.5088;0.6625;
1383.6000;0.5088;0.6599;
1383.9000;0.5079;0.6574;
1384.2000;0.5088;0.6599;
1384.5000;0.5079;0.6524;
1384.8000;0.5088;0.6549;
1385.1000;0.5063;0.6574;
1385.4000;0.5079;0.6675;
1385.7000;0.5079;0.6675;
1386.0000;0.5079;0.6751;
1386.3000;0.5079;0.6725;
1386.6000;0.5088;0.6751;
1386.9000;0.5047;0.6675;
1387.2000;0.5079;0.6725;
1387.5000;0.5088;0.6700;
1387.8000;0.5096;0.6700;
1388.1000;0.5079;0.6675;
1388.4000;0.5104;0.6725;
1388.7000;0.5071;0.6776;
1389.0000;0.5063;0.6725;
1389.3000;0.5104;0.6826;
1389.6000;0.5088;0.6876;
1389.9000;0.5063;0.6700;
1390.2000;0.5063;0.6776;
1390.5000;0.5071;0.6725;
1390.8000;0.5079;0.6725;
1391.1000;0.5104;0.6700;
1391.4000;0.5079;0.6574;
1391.7000;0.5079;0.6599;
1392.0000;0.5088;0.6801;
1392.3000;0.5079;0.6776;
1392.6000;0.5088;0.6801;
1392.9000;0.5071;0.6801;
1393.2000;0.5071;0.6725;
1393.5000;0.5096;0.6801;
1393.8000;0.5071;0.6725;
1394.1000;0.5079;0.6625;
1394.4000;0.5144;0.6801;
1394.7000;0.5071;0.6700;
1395.0000;0.5063;0.6700;
1395.3000;0.5071;0.6599;
1395.6000;0.5063;0.6625;
1395.9000;0.5071;0.6599;
1396.2000;0.5088;0.6725;
1396.5000;0.5088;0.6725;
1396.8000;0.5104;0.6751;
1397.1000;0.5079;0.6700;
1397.4000;0.5079;0.6725;
1397.7000;0.5088;0.6801;
1398.0000;0.5079;0.6801;
1398.3000;0.5136;0.7002;
1398.6000;0.5088;0.6851;
1398.9000;0.5079;0.6801;
1399.2000;0.5088;0.6826;
1399.5000;0.5079;0.6801;
1399.8000;0.5088;0.6776;
