time/ms;Fluo/V;P700 deltaI/I x10³;
-199.8000;0.6805;0.9723;
-199.5000;0.6748;0.9597;
-199.2000;0.6772;0.9622;
-198.9000;0.6740;0.9647;
-198.6000;0.6748;0.9647;
-198.3000;0.6740;0.9698;
-198.0000;0.6740;0.9723;
-197.7000;0.6716;0.9622;
-197.4000;0.6748;0.9647;
-197.1000;0.6748;0.9546;
-196.8000;0.6756;0.9622;
-196.5000;0.6756;0.9723;
-196.2000;0.6716;0.9597;
-195.9000;0.6829;0.9899;
-195.6000;0.6748;0.9647;
-195.3000;0.6691;0.9496;
-195.0000;0.6748;0.9698;
-194.7000;0.6781;0.9798;
-194.4000;0.6756;0.9723;
-194.1000;0.6805;0.9899;
-193.8000;0.6748;0.9698;
-193.5000;0.6756;0.9647;
-193.2000;0.6813;0.9748;
-192.9000;0.6756;0.9698;
-192.6000;0.6740;0.9672;
-192.3000;0.6691;0.9597;
-192.0000;0.6740;0.9672;
-191.7000;0.6764;0.9698;
-191.4000;0.6732;0.9622;
-191.1000;0.6748;0.9647;
-190.8000;0.6740;0.9672;
-190.5000;0.6772;0.9672;
-190.2000;0.6748;0.9647;
-189.9000;0.6740;0.9622;
-189.6000;0.6699;0.9446;
-189.3000;0.6740;0.9546;
-189.0000;0.6756;0.9572;
-188.7000;0.6748;0.9647;
-188.4000;0.6772;0.9622;
-188.1000;0.6748;0.9622;
-187.8000;0.6756;0.9597;
-187.5000;0.6797;0.9723;
-187.2000;0.6740;0.9672;
-186.9000;0.6732;0.9773;
-186.6000;0.6756;0.9824;
-186.3000;0.6748;0.9748;
-186.0000;0.6772;0.9824;
-185.7000;0.6732;0.9748;
-185.4000;0.6724;0.9647;
-185.1000;0.6772;0.9773;
-184.8000;0.6748;0.9723;
-184.5000;0.6740;0.9622;
-184.2000;0.6748;0.9622;
-183.9000;0.6732;0.9597;
-183.6000;0.6740;0.9647;
-183.3000;0.6756;0.9647;
-183.0000;0.6748;0.9597;
-182.7000;0.6748;0.9546;
-182.4000;0.6748;0.9546;
-182.1000;0.6764;0.9597;
-181.8000;0.6748;0.9597;
-181.5000;0.6756;0.9597;
-181.2000;0.6813;0.9622;
-180.9000;0.6764;0.9521;
-180.6000;0.6724;0.9521;
-180.3000;0.6740;0.9647;
-180.0000;0.6732;0.9672;
-179.7000;0.6756;0.9748;
-179.4000;0.6740;0.9622;
-179.1000;0.6781;0.9672;
-178.8000;0.6748;0.9597;
-178.5000;0.6732;0.9546;
-178.2000;0.6748;0.9672;
-177.9000;0.6740;0.9672;
-177.6000;0.6740;0.9672;
-177.3000;0.6756;0.9798;
-177.0000;0.6829;0.9924;
-176.7000;0.6724;0.9698;
-176.4000;0.6707;0.9672;
-176.1000;0.6691;0.9723;
-175.8000;0.6740;0.9849;
-175.5000;0.6732;0.9874;
-175.2000;0.6756;0.9949;
-174.9000;0.6764;0.9949;
-174.6000;0.6724;0.9773;
-174.3000;0.6748;0.9723;
-174.0000;0.6756;0.9748;
-173.7000;0.6724;0.9698;
-173.4000;0.6781;0.9773;
-173.1000;0.6748;0.9622;
-172.8000;0.6724;0.9597;
-172.5000;0.6781;0.9874;
-172.2000;0.6764;0.9723;
-171.9000;0.6740;0.9647;
-171.6000;0.6732;0.9622;
-171.3000;0.6716;0.9622;
-171.0000;0.6748;0.9773;
-170.7000;0.6732;0.9698;
-170.4000;0.6724;0.9672;
-170.1000;0.6772;0.9798;
-169.8000;0.6732;0.9647;
-169.5000;0.6740;0.9672;
-169.2000;0.6724;0.9546;
-168.9000;0.6748;0.9572;
-168.6000;0.6740;0.9546;
-168.3000;0.6756;0.9572;
-168.0000;0.6748;0.9597;
-167.7000;0.6740;0.9647;
-167.4000;0.6659;0.9446;
-167.1000;0.6716;0.9597;
-166.8000;0.6724;0.9647;
-166.5000;0.6732;0.9723;
-166.2000;0.6748;0.9723;
-165.9000;0.6740;0.9698;
-165.6000;0.6732;0.9672;
-165.3000;0.6691;0.9622;
-165.0000;0.6764;0.9798;
-164.7000;0.6740;0.9698;
-164.4000;0.6740;0.9672;
-164.1000;0.6781;0.9773;
-163.8000;0.6740;0.9672;
-163.5000;0.6756;0.9622;
-163.2000;0.6805;0.9798;
-162.9000;0.6740;0.9672;
-162.6000;0.6732;0.9773;
-162.3000;0.6748;0.9773;
-162.0000;0.6748;0.9798;
-161.7000;0.6748;0.9798;
-161.4000;0.6740;0.9748;
-161.1000;0.6740;0.9748;
-160.8000;0.6789;0.9874;
-160.5000;0.6732;0.9798;
-160.2000;0.6740;0.9824;
-159.9000;0.6748;0.9824;
-159.6000;0.6797;0.9899;
-159.3000;0.6740;0.9748;
-159.0000;0.6740;0.9698;
-158.7000;0.6748;0.9748;
-158.4000;0.6781;0.9874;
-158.1000;0.6740;0.9748;
-157.8000;0.6732;0.9723;
-157.5000;0.6748;0.9748;
-157.2000;0.6740;0.9748;
-156.9000;0.6748;0.9748;
-156.6000;0.6732;0.9748;
-156.3000;0.6691;0.9572;
-156.0000;0.6740;0.9647;
-155.7000;0.6756;0.9647;
-155.4000;0.6716;0.9572;
-155.1000;0.6732;0.9622;
-154.8000;0.6740;0.9672;
-154.5000;0.6764;0.9773;
-154.2000;0.6748;0.9773;
-153.9000;0.6748;0.9798;
-153.6000;0.6748;0.9748;
-153.3000;0.6813;0.9849;
-153.0000;0.6756;0.9698;
-152.7000;0.6740;0.9572;
-152.4000;0.6740;0.9572;
-152.1000;0.6740;0.9572;
-151.8000;0.6740;0.9546;
-151.5000;0.6764;0.9723;
-151.2000;0.6764;0.9698;
-150.9000;0.6781;0.9698;
-150.6000;0.6740;0.9647;
-150.3000;0.6675;0.9395;
-150.0000;0.6732;0.9647;
-149.7000;0.6724;0.9647;
-149.4000;0.6748;0.9622;
-149.1000;0.6732;0.9471;
-148.8000;0.6740;0.9546;
-148.5000;0.6740;0.9572;
-148.2000;0.6756;0.9521;
-147.9000;0.6756;0.9521;
-147.6000;0.6740;0.9572;
-147.3000;0.6748;0.9723;
-147.0000;0.6748;0.9723;
-146.7000;0.6740;0.9723;
-146.4000;0.6732;0.9622;
-146.1000;0.6764;0.9698;
-145.8000;0.6740;0.9647;
-145.5000;0.6756;0.9672;
-145.2000;0.6748;0.9672;
-144.9000;0.6740;0.9496;
-144.6000;0.6740;0.9521;
-144.3000;0.6756;0.9546;
-144.0000;0.6772;0.9672;
-143.7000;0.6740;0.9446;
-143.4000;0.6764;0.9496;
-143.1000;0.6748;0.9471;
-142.8000;0.6772;0.9471;
-142.5000;0.6740;0.9521;
-142.2000;0.6740;0.9597;
-141.9000;0.6740;0.9622;
-141.6000;0.6740;0.9597;
-141.3000;0.6724;0.9546;
-141.0000;0.6756;0.9572;
-140.7000;0.6740;0.9521;
-140.4000;0.6748;0.9521;
-140.1000;0.6740;0.9521;
-139.8000;0.6748;0.9471;
-139.5000;0.6748;0.9521;
-139.2000;0.6764;0.9546;
-138.9000;0.6772;0.9471;
-138.6000;0.6740;0.9496;
-138.3000;0.6764;0.9546;
-138.0000;0.6772;0.9597;
-137.7000;0.6764;0.9698;
-137.4000;0.6740;0.9597;
-137.1000;0.6764;0.9672;
-136.8000;0.6740;0.9597;
-136.5000;0.6683;0.9446;
-136.2000;0.6716;0.9496;
-135.9000;0.6764;0.9572;
-135.6000;0.6772;0.9622;
-135.3000;0.6724;0.9496;
-135.0000;0.6732;0.9395;
-134.7000;0.6756;0.9496;
-134.4000;0.6772;0.9622;
-134.1000;0.6789;0.9723;
-133.8000;0.6748;0.9672;
-133.5000;0.6764;0.9647;
-133.2000;0.6764;0.9672;
-132.9000;0.6789;0.9698;
-132.6000;0.6821;0.9723;
-132.3000;0.6716;0.9496;
-132.0000;0.6724;0.9421;
-131.7000;0.6748;0.9471;
-131.4000;0.6740;0.9471;
-131.1000;0.6650;0.9244;
-130.8000;0.6740;0.9572;
-130.5000;0.6748;0.9597;
-130.2000;0.6732;0.9546;
-129.9000;0.6748;0.9471;
-129.6000;0.6740;0.9421;
-129.3000;0.6781;0.9546;
-129.0000;0.6748;0.9496;
-128.7000;0.6748;0.9546;
-128.4000;0.6740;0.9546;
-128.1000;0.6756;0.9546;
-127.8000;0.6756;0.9546;
-127.5000;0.6756;0.9496;
-127.2000;0.6740;0.9395;
-126.9000;0.6748;0.9446;
-126.6000;0.6732;0.9395;
-126.3000;0.6732;0.9320;
-126.0000;0.6732;0.9395;
-125.7000;0.6756;0.9546;
-125.4000;0.6732;0.9572;
-125.1000;0.6740;0.9672;
-124.8000;0.6772;0.9748;
-124.5000;0.6781;0.9698;
-124.2000;0.6707;0.9521;
-123.9000;0.6732;0.9546;
-123.6000;0.6683;0.9370;
-123.3000;0.6740;0.9597;
-123.0000;0.6748;0.9597;
-122.7000;0.6740;0.9496;
-122.4000;0.6756;0.9521;
-122.1000;0.6667;0.9295;
-121.8000;0.6740;0.9521;
-121.5000;0.6748;0.9546;
-121.2000;0.6732;0.9572;
-120.9000;0.6732;0.9597;
-120.6000;0.6740;0.9698;
-120.3000;0.6740;0.9723;
-120.0000;0.6724;0.9597;
-119.7000;0.6740;0.9647;
-119.4000;0.6764;0.9723;
-119.1000;0.6740;0.9698;
-118.8000;0.6740;0.9622;
-118.5000;0.6740;0.9597;
-118.2000;0.6732;0.9672;
-117.9000;0.6756;0.9723;
-117.6000;0.6764;0.9748;
-117.3000;0.6748;0.9723;
-117.0000;0.6748;0.9773;
-116.7000;0.6748;0.9672;
-116.4000;0.6748;0.9572;
-116.1000;0.6740;0.9572;
-115.8000;0.6740;0.9597;
-115.5000;0.6748;0.9672;
-115.2000;0.6756;0.9748;
-114.9000;0.6756;0.9723;
-114.6000;0.6740;0.9698;
-114.3000;0.6740;0.9723;
-114.0000;0.6797;0.9773;
-113.7000;0.6732;0.9546;
-113.4000;0.6764;0.9647;
-113.1000;0.6740;0.9622;
-112.8000;0.6740;0.9546;
-112.5000;0.6772;0.9698;
-112.2000;0.6740;0.9723;
-111.9000;0.6740;0.9723;
-111.6000;0.6724;0.9748;
-111.3000;0.6699;0.9773;
-111.0000;0.6732;0.9798;
-110.7000;0.6732;0.9748;
-110.4000;0.6732;0.9723;
-110.1000;0.6740;0.9773;
-109.8000;0.6740;0.9723;
-109.5000;0.6732;0.9647;
-109.2000;0.6748;0.9647;
-108.9000;0.6764;0.9698;
-108.6000;0.6748;0.9748;
-108.3000;0.6699;0.9572;
-108.0000;0.6724;0.9647;
-107.7000;0.6732;0.9546;
-107.4000;0.6740;0.9572;
-107.1000;0.6781;0.9647;
-106.8000;0.6748;0.9597;
-106.5000;0.6748;0.9622;
-106.2000;0.6732;0.9572;
-105.9000;0.6740;0.9597;
-105.6000;0.6748;0.9622;
-105.3000;0.6756;0.9723;
-105.0000;0.6756;0.9622;
-104.7000;0.6740;0.9496;
-104.4000;0.6748;0.9546;
-104.1000;0.6748;0.9546;
-103.8000;0.6740;0.9546;
-103.5000;0.6756;0.9546;
-103.2000;0.6740;0.9471;
-102.9000;0.6732;0.9421;
-102.6000;0.6748;0.9471;
-102.3000;0.6748;0.9471;
-102.0000;0.6748;0.9471;
-101.7000;0.6724;0.9446;
-101.4000;0.6748;0.9496;
-101.1000;0.6829;0.9672;
-100.8000;0.6732;0.9421;
-100.5000;0.6748;0.9446;
-100.2000;0.6740;0.9521;
-99.9000;0.6740;0.9647;
-99.6000;0.6756;0.9723;
-99.3000;0.6748;0.9723;
-99.0000;0.6716;0.9496;
-98.7000;0.6756;0.9572;
-98.4000;0.6756;0.9521;
-98.1000;0.6772;0.9597;
-97.8000;0.6764;0.9622;
-97.5000;0.6756;0.9597;
-97.2000;0.6756;0.9572;
-96.9000;0.6756;0.9546;
-96.6000;0.6748;0.9496;
-96.3000;0.6748;0.9421;
-96.0000;0.6740;0.9496;
-95.7000;0.6740;0.9446;
-95.4000;0.6740;0.9446;
-95.1000;0.6740;0.9446;
-94.8000;0.6748;0.9421;
-94.5000;0.6748;0.9395;
-94.2000;0.6764;0.9446;
-93.9000;0.6748;0.9446;
-93.6000;0.6748;0.9421;
-93.3000;0.6748;0.9521;
-93.0000;0.6756;0.9546;
-92.7000;0.6740;0.9597;
-92.4000;0.6732;0.9572;
-92.1000;0.6740;0.9546;
-91.8000;0.6732;0.9446;
-91.5000;0.6732;0.9345;
-91.2000;0.6732;0.9421;
-90.9000;0.6732;0.9446;
-90.6000;0.6764;0.9471;
-90.3000;0.6748;0.9446;
-90.0000;0.6740;0.9446;
-89.7000;0.6756;0.9521;
-89.4000;0.6740;0.9546;
-89.1000;0.6724;0.9546;
-88.8000;0.6732;0.9597;
-88.5000;0.6732;0.9672;
-88.2000;0.6756;0.9647;
-87.9000;0.6756;0.9597;
-87.6000;0.6732;0.9572;
-87.3000;0.6740;0.9647;
-87.0000;0.6740;0.9748;
-86.7000;0.6748;0.9723;
-86.4000;0.6716;0.9723;
-86.1000;0.6724;0.9698;
-85.8000;0.6748;0.9748;
-85.5000;0.6748;0.9798;
-85.2000;0.6707;0.9672;
-84.9000;0.6732;0.9748;
-84.6000;0.6732;0.9723;
-84.3000;0.6748;0.9773;
-84.0000;0.6732;0.9723;
-83.7000;0.6740;0.9748;
-83.4000;0.6732;0.9672;
-83.1000;0.6756;0.9748;
-82.8000;0.6740;0.9748;
-82.5000;0.6748;0.9748;
-82.2000;0.6756;0.9748;
-81.9000;0.6764;0.9824;
-81.6000;0.6716;0.9672;
-81.3000;0.6740;0.9698;
-81.0000;0.6732;0.9748;
-80.7000;0.6756;0.9849;
-80.4000;0.6724;0.9798;
-80.1000;0.6724;0.9773;
-79.8000;0.6813;1.0025;
-79.5000;0.6748;0.9798;
-79.2000;0.6724;0.9748;
-78.9000;0.6732;0.9698;
-78.6000;0.6772;0.9672;
-78.3000;0.6756;0.9647;
-78.0000;0.6732;0.9546;
-77.7000;0.6756;0.9572;
-77.4000;0.6748;0.9546;
-77.1000;0.6756;0.9572;
-76.8000;0.6748;0.9521;
-76.5000;0.6683;0.9395;
-76.2000;0.6813;0.9798;
-75.9000;0.6748;0.9672;
-75.6000;0.6683;0.9496;
-75.3000;0.6724;0.9698;
-75.0000;0.6732;0.9698;
-74.7000;0.6740;0.9798;
-74.4000;0.6732;0.9824;
-74.1000;0.6691;0.9723;
-73.8000;0.6732;0.9899;
-73.5000;0.6732;0.9899;
-73.2000;0.6740;0.9849;
-72.9000;0.6740;0.9748;
-72.6000;0.6732;0.9647;
-72.3000;0.6740;0.9672;
-72.0000;0.6756;0.9572;
-71.7000;0.6699;0.9471;
-71.4000;0.6740;0.9546;
-71.1000;0.6732;0.9672;
-70.8000;0.6748;0.9723;
-70.5000;0.6756;0.9723;
-70.2000;0.6740;0.9698;
-69.9000;0.6748;0.9723;
-69.6000;0.6748;0.9748;
-69.3000;0.6707;0.9572;
-69.0000;0.6756;0.9672;
-68.7000;0.6797;0.9798;
-68.4000;0.6764;0.9723;
-68.1000;0.6764;0.9748;
-67.8000;0.6740;0.9647;
-67.5000;0.6748;0.9723;
-67.2000;0.6756;0.9773;
-66.9000;0.6756;0.9798;
-66.6000;0.6813;0.9924;
-66.3000;0.6756;0.9698;
-66.0000;0.6764;0.9798;
-65.7000;0.6740;0.9698;
-65.4000;0.6732;0.9672;
-65.1000;0.6724;0.9597;
-64.8000;0.6732;0.9597;
-64.5000;0.6740;0.9597;
-64.2000;0.6732;0.9597;
-63.9000;0.6756;0.9698;
-63.6000;0.6732;0.9622;
-63.3000;0.6732;0.9597;
-63.0000;0.6724;0.9748;
-62.7000;0.6748;0.9849;
-62.4000;0.6732;0.9748;
-62.1000;0.6748;0.9748;
-61.8000;0.6756;0.9672;
-61.5000;0.6748;0.9622;
-61.2000;0.6789;0.9748;
-60.9000;0.6756;0.9698;
-60.6000;0.6748;0.9647;
-60.3000;0.6756;0.9597;
-60.0000;0.6748;0.9496;
-59.7000;0.6740;0.9395;
-59.4000;0.6756;0.9345;
-59.1000;0.6748;0.9395;
-58.8000;0.6740;0.9370;
-58.5000;0.6740;0.9421;
-58.2000;0.6707;0.9295;
-57.9000;0.6740;0.9345;
-57.6000;0.6756;0.9370;
-57.3000;0.6756;0.9421;
-57.0000;0.6732;0.9395;
-56.7000;0.6813;0.9622;
-56.4000;0.6732;0.9446;
-56.1000;0.6732;0.9496;
-55.8000;0.6740;0.9572;
-55.5000;0.6740;0.9572;
-55.2000;0.6764;0.9647;
-54.9000;0.6748;0.9496;
-54.6000;0.6756;0.9496;
-54.3000;0.6764;0.9521;
-54.0000;0.6764;0.9647;
-53.7000;0.6772;0.9647;
-53.4000;0.6748;0.9622;
-53.1000;0.6667;0.9546;
-52.8000;0.6748;0.9698;
-52.5000;0.6748;0.9622;
-52.2000;0.6716;0.9597;
-51.9000;0.6724;0.9597;
-51.6000;0.6740;0.9597;
-51.3000;0.6764;0.9773;
-51.0000;0.6756;0.9672;
-50.7000;0.6683;0.9421;
-50.4000;0.6732;0.9572;
-50.1000;0.6748;0.9622;
-49.8000;0.6740;0.9572;
-49.5000;0.6724;0.9572;
-49.2000;0.6732;0.9698;
-48.9000;0.6732;0.9723;
-48.6000;0.6732;0.9698;
-48.3000;0.6772;0.9773;
-48.0000;0.6740;0.9672;
-47.7000;0.6764;0.9798;
-47.4000;0.6748;0.9723;
-47.1000;0.6813;0.9874;
-46.8000;0.6740;0.9622;
-46.5000;0.6764;0.9798;
-46.2000;0.6756;0.9798;
-45.9000;0.6716;0.9622;
-45.6000;0.6732;0.9647;
-45.3000;0.6740;0.9622;
-45.0000;0.6756;0.9521;
-44.7000;0.6748;0.9572;
-44.4000;0.6675;0.9395;
-44.1000;0.6748;0.9546;
-43.8000;0.6740;0.9597;
-43.5000;0.6740;0.9597;
-43.2000;0.6732;0.9521;
-42.9000;0.6740;0.9622;
-42.6000;0.6740;0.9597;
-42.3000;0.6756;0.9622;
-42.0000;0.6748;0.9647;
-41.7000;0.6740;0.9622;
-41.4000;0.6740;0.9622;
-41.1000;0.6724;0.9546;
-40.8000;0.6740;0.9672;
-40.5000;0.6805;0.9874;
-40.2000;0.6707;0.9647;
-39.9000;0.6756;0.9748;
-39.6000;0.6740;0.9723;
-39.3000;0.6740;0.9672;
-39.0000;0.6724;0.9622;
-38.7000;0.6691;0.9521;
-38.4000;0.6748;0.9622;
-38.1000;0.6748;0.9622;
-37.8000;0.6667;0.9446;
-37.5000;0.6756;0.9672;
-37.2000;0.6756;0.9698;
-36.9000;0.6740;0.9698;
-36.6000;0.6732;0.9622;
-36.3000;0.6748;0.9597;
-36.0000;0.6740;0.9521;
-35.7000;0.6732;0.9496;
-35.4000;0.6740;0.9572;
-35.1000;0.6748;0.9647;
-34.8000;0.6748;0.9723;
-34.5000;0.6732;0.9723;
-34.2000;0.6724;0.9622;
-33.9000;0.6732;0.9622;
-33.6000;0.6740;0.9572;
-33.3000;0.6716;0.9521;
-33.0000;0.6740;0.9546;
-32.7000;0.6732;0.9572;
-32.4000;0.6748;0.9546;
-32.1000;0.6732;0.9521;
-31.8000;0.6732;0.9521;
-31.5000;0.6732;0.9471;
-31.2000;0.6748;0.9496;
-30.9000;0.6732;0.9446;
-30.6000;0.6740;0.9421;
-30.3000;0.6740;0.9370;
-30.0000;0.6846;0.9698;
-29.7000;0.6748;0.9395;
-29.4000;0.6781;0.9471;
-29.1000;0.6740;0.9295;
-28.8000;0.6756;0.9370;
-28.5000;0.6740;0.9320;
-28.2000;0.6740;0.9269;
-27.9000;0.6748;0.9269;
-27.6000;0.6748;0.9370;
-27.3000;0.6748;0.9370;
-27.0000;0.6740;0.9345;
-26.7000;0.6740;0.9345;
-26.4000;0.6740;0.9295;
-26.1000;0.6829;0.9496;
-25.8000;0.6748;0.9219;
-25.5000;0.6732;0.9219;
-25.2000;0.6732;0.9194;
-24.9000;0.6756;0.9370;
-24.6000;0.6748;0.9370;
-24.3000;0.6732;0.9320;
-24.0000;0.6732;0.9370;
-23.7000;0.6740;0.9345;
-23.4000;0.6748;0.9421;
-23.1000;0.6740;0.9421;
-22.8000;0.6748;0.9370;
-22.5000;0.6756;0.9471;
-22.2000;0.6756;0.9496;
-21.9000;0.6740;0.9572;
-21.6000;0.6740;0.9496;
-21.3000;0.6846;0.9773;
-21.0000;0.6748;0.9647;
-20.7000;0.6813;0.9773;
-20.4000;0.6764;0.9647;
-20.1000;0.6732;0.9647;
-19.8000;0.6748;0.9572;
-19.5000;0.6691;0.9345;
-19.2000;0.6732;0.9521;
-18.9000;0.6772;0.9672;
-18.6000;0.6724;0.9496;
-18.3000;0.6756;0.9572;
-18.0000;0.6748;0.9572;
-17.7000;0.6716;0.9496;
-17.4000;0.6756;0.9622;
-17.1000;0.6732;0.9572;
-16.8000;0.6756;0.9521;
-16.5000;0.6813;0.9672;
-16.2000;0.6789;0.9597;
-15.9000;0.6740;0.9496;
-15.6000;0.6748;0.9471;
-15.3000;0.6748;0.9421;
-15.0000;0.6732;0.9546;
-14.7000;0.6740;0.9546;
-14.4000;0.6756;0.9622;
-14.1000;0.6748;0.9597;
-13.8000;0.6732;0.9521;
-13.5000;0.6740;0.9647;
-13.2000;0.6748;0.9647;
-12.9000;0.6748;0.9572;
-12.6000;0.6724;0.9496;
-12.3000;0.6748;0.9471;
-12.0000;0.6756;0.9521;
-11.7000;0.6748;0.9572;
-11.4000;0.6740;0.9672;
-11.1000;0.6756;0.9723;
-10.8000;0.6748;0.9748;
-10.5000;0.6756;0.9647;
-10.2000;0.6740;0.9597;
-9.9000;0.6716;0.9546;
-9.6000;0.6724;0.9622;
-9.3000;0.6740;0.9572;
-9.0000;0.6732;0.9521;
-8.7000;0.6732;0.9496;
-8.4000;0.6740;0.9546;
-8.1000;0.6732;0.9597;
-7.8000;0.6732;0.9572;
-7.5000;0.6764;0.9723;
-7.2000;0.6797;0.9899;
-6.9000;0.6748;0.9798;
-6.6000;0.6756;0.9824;
-6.3000;0.6740;0.9748;
-6.0000;0.6789;0.9824;
-5.7000;0.6716;0.9597;
-5.4000;0.6740;0.9647;
-5.1000;0.6740;0.9647;
-4.8000;0.6732;0.9622;
-4.5000;0.6707;0.9572;
-4.2000;0.6740;0.9698;
-3.9000;0.6724;0.9723;
-3.6000;0.6748;0.9798;
-3.3000;0.6675;0.9622;
-3.0000;0.6740;0.9773;
-2.7000;0.6740;0.9748;
-2.4000;0.6748;0.9723;
-2.1000;0.6740;0.9672;
-1.8000;0.6732;0.9773;
-1.5000;0.6740;0.9798;
-1.2000;0.6805;0.9949;
-0.9000;0.6748;0.9798;
-0.6000;0.6756;0.9773;
-0.3000;0.6764;0.9824;
0.0000;0.6764;0.9824;
0.3000;0.6797;0.9597;
0.6000;0.6952;0.9949;
0.9000;0.7066;1.0151;
1.2000;0.7139;1.0428;
1.5000;0.7220;1.0730;
1.8000;0.7269;1.0982;
2.1000;0.7253;1.1007;
2.4000;0.7326;1.1234;
2.7000;0.7359;1.1410;
3.0000;0.7391;1.1562;
3.3000;0.7432;1.1687;
3.6000;0.7432;1.1788;
3.9000;0.7464;1.1864;
4.2000;0.7505;1.1939;
4.5000;0.7473;1.1914;
4.8000;0.7513;1.2065;
5.1000;0.7530;1.2166;
5.4000;0.7530;1.2065;
5.7000;0.7513;1.1990;
6.0000;0.7578;1.2090;
6.3000;0.7570;1.2090;
6.6000;0.7586;1.2141;
6.9000;0.7635;1.2166;
7.2000;0.7562;1.1990;
7.5000;0.7627;1.2040;
7.8000;0.7627;1.1939;
8.1000;0.7652;1.1965;
8.4000;0.7660;1.1990;
8.7000;0.7660;1.2065;
9.0000;0.7668;1.2090;
9.3000;0.7676;1.2141;
9.6000;0.7684;1.2216;
9.9000;0.7692;1.2166;
10.2000;0.7611;1.1889;
10.5000;0.7717;1.2040;
10.8000;0.7725;1.1965;
11.1000;0.7733;1.1939;
11.4000;0.7725;1.1939;
11.7000;0.7733;1.1990;
12.0000;0.7741;1.1990;
12.3000;0.7741;1.1965;
12.6000;0.7757;1.1990;
12.9000;0.7757;1.1864;
13.2000;0.7717;1.1738;
13.5000;0.7782;1.1839;
13.8000;0.7774;1.1914;
14.1000;0.7749;1.1914;
14.4000;0.7782;1.2040;
14.7000;0.7798;1.2040;
15.0000;0.7806;1.2116;
15.3000;0.7839;1.2141;
15.6000;0.7806;1.2090;
15.9000;0.7798;1.2065;
16.2000;0.7814;1.2116;
16.5000;0.7871;1.2242;
16.8000;0.7814;1.2065;
17.1000;0.7814;1.2090;
17.4000;0.7839;1.2090;
17.7000;0.7823;1.2116;
18.0000;0.7823;1.2090;
18.3000;0.7839;1.2040;
18.6000;0.7863;1.2040;
18.9000;0.7855;1.1939;
19.2000;0.7880;1.1939;
19.5000;0.7871;1.1990;
19.8000;0.7855;1.2040;
20.1000;0.7847;1.2141;
20.4000;0.7880;1.2166;
20.7000;0.7863;1.2141;
21.0000;0.7871;1.2242;
21.3000;0.7880;1.2141;
21.6000;0.7880;1.2141;
21.9000;0.7855;1.2015;
22.2000;0.7880;1.2116;
22.5000;0.7880;1.2216;
22.8000;0.7863;1.2166;
23.1000;0.7888;1.2242;
23.4000;0.7896;1.2242;
23.7000;0.7896;1.2317;
24.0000;0.7904;1.2317;
24.3000;0.7904;1.2393;
24.6000;0.7888;1.2267;
24.9000;0.7920;1.2342;
25.2000;0.7912;1.2342;
25.5000;0.7896;1.2191;
25.8000;0.7831;1.1965;
26.1000;0.7969;1.2342;
26.4000;0.7912;1.2166;
26.7000;0.7920;1.2166;
27.0000;0.8010;1.2468;
27.3000;0.7920;1.2242;
27.6000;0.7912;1.2216;
27.9000;0.7912;1.2191;
28.2000;0.7928;1.2141;
28.5000;0.7920;1.1990;
28.8000;0.7961;1.2015;
29.1000;0.7937;1.2090;
29.4000;0.7937;1.2116;
29.7000;0.7937;1.2141;
30.0000;0.7953;1.2191;
30.3000;0.7953;1.2267;
30.6000;0.7953;1.2267;
30.9000;0.7912;1.2166;
31.2000;0.7977;1.2393;
31.5000;0.7961;1.2342;
31.8000;0.7937;1.2317;
32.1000;0.7928;1.2242;
32.4000;0.7937;1.2191;
32.7000;0.7953;1.2242;
33.0000;0.7896;1.2015;
33.3000;0.7937;1.2141;
33.6000;0.7945;1.2166;
33.9000;0.7912;1.2116;
34.2000;0.7969;1.2267;
34.5000;0.7977;1.2267;
34.8000;0.8010;1.2317;
35.1000;0.7961;1.2141;
35.4000;0.7977;1.2191;
35.7000;0.7969;1.2116;
36.0000;0.7961;1.2141;
36.3000;0.7985;1.2116;
36.6000;0.7977;1.2141;
36.9000;0.7904;1.1889;
37.2000;0.8002;1.2216;
37.5000;0.7969;1.2065;
37.8000;0.7977;1.2166;
38.1000;0.7977;1.2141;
38.4000;0.7961;1.2065;
38.7000;0.7977;1.2166;
39.0000;0.7977;1.2166;
39.3000;0.8002;1.2267;
39.6000;0.7969;1.2191;
39.9000;0.7961;1.2116;
40.2000;0.7969;1.2065;
40.5000;0.7969;1.2065;
40.8000;0.7977;1.2090;
41.1000;0.7961;1.1990;
41.4000;0.7993;1.2090;
41.7000;0.7961;1.2040;
42.0000;0.7953;1.2040;
42.3000;0.7961;1.2065;
42.6000;0.7969;1.2040;
42.9000;0.7977;1.2015;
43.2000;0.7977;1.2065;
43.5000;0.7985;1.2141;
43.8000;0.7977;1.2191;
44.1000;0.7985;1.2216;
44.4000;0.7993;1.2166;
44.7000;0.7993;1.2141;
45.0000;0.7985;1.2065;
45.3000;0.8067;1.2242;
45.6000;0.7985;1.2090;
45.9000;0.7969;1.2015;
46.2000;0.7977;1.1990;
46.5000;0.7985;1.2015;
46.8000;0.7977;1.1939;
47.1000;0.7977;1.1839;
47.4000;0.7969;1.1864;
47.7000;0.7985;1.1939;
48.0000;0.7985;1.1965;
48.3000;0.7969;1.1965;
48.6000;0.7961;1.1965;
48.9000;0.7977;1.1990;
49.2000;0.7993;1.2015;
49.5000;0.7953;1.1965;
49.8000;0.7985;1.2090;
50.1000;0.7993;1.2166;
50.4000;0.7993;1.2166;
50.7000;0.7993;1.2267;
51.0000;0.7969;1.2242;
51.3000;0.7961;1.2216;
51.6000;0.7977;1.2191;
51.9000;0.8010;1.2292;
52.2000;0.7977;1.2216;
52.5000;0.7993;1.2166;
52.8000;0.7993;1.2141;
53.1000;0.7928;1.1965;
53.4000;0.7993;1.2166;
53.7000;0.7985;1.2065;
54.0000;0.7993;1.2040;
54.3000;0.8002;1.2065;
54.6000;0.7985;1.2090;
54.9000;0.7969;1.2040;
55.2000;0.7993;1.2166;
55.5000;0.7985;1.2216;
55.8000;0.8010;1.2191;
56.1000;0.7985;1.2116;
56.4000;0.7969;1.2040;
56.7000;0.7985;1.2116;
57.0000;0.7977;1.2141;
57.3000;0.7985;1.2141;
57.6000;0.7977;1.2216;
57.9000;0.7977;1.2242;
58.2000;0.8002;1.2317;
58.5000;0.7985;1.2216;
58.8000;0.7977;1.2116;
59.1000;0.7993;1.2216;
59.4000;0.7985;1.2216;
59.7000;0.7985;1.2116;
60.0000;0.7961;1.2090;
60.3000;0.7969;1.2191;
60.6000;0.7977;1.2166;
60.9000;0.8010;1.2267;
61.2000;0.7993;1.2216;
61.5000;0.8002;1.2141;
61.8000;0.7977;1.1990;
62.1000;0.7977;1.2015;
62.4000;0.7977;1.2065;
62.7000;0.7985;1.2116;
63.0000;0.8018;1.2141;
63.3000;0.7993;1.2040;
63.6000;0.7985;1.2090;
63.9000;0.8002;1.2166;
64.2000;0.7953;1.2015;
64.5000;0.7961;1.2040;
64.8000;0.8002;1.2116;
65.1000;0.7993;1.2090;
65.4000;0.7993;1.2116;
65.7000;0.7985;1.2116;
66.0000;0.7985;1.2090;
66.3000;0.7993;1.2141;
66.6000;0.7985;1.2166;
66.9000;0.7904;1.1990;
67.2000;0.8010;1.2267;
67.5000;0.7985;1.2242;
67.8000;0.8002;1.2166;
68.1000;0.7993;1.2141;
68.4000;0.8010;1.2116;
68.7000;0.8002;1.2065;
69.0000;0.8018;1.2065;
69.3000;0.7961;1.2015;
69.6000;0.8034;1.2216;
69.9000;0.8010;1.2116;
70.2000;0.7945;1.2090;
70.5000;0.7993;1.2166;
70.8000;0.7928;1.1939;
71.1000;0.8059;1.2191;
71.4000;0.8010;1.1990;
71.7000;0.7993;1.1889;
72.0000;0.7993;1.1839;
72.3000;0.8002;1.1864;
72.6000;0.8002;1.1813;
72.9000;0.7969;1.1687;
73.2000;0.7993;1.1637;
73.5000;0.8034;1.1763;
73.8000;0.8083;1.2040;
74.1000;0.7977;1.1763;
74.4000;0.7993;1.1864;
74.7000;0.8010;1.1939;
75.0000;0.8010;1.1965;
75.3000;0.7985;1.1889;
75.6000;0.8018;1.1965;
75.9000;0.7920;1.1713;
76.2000;0.8002;1.1965;
76.5000;0.7993;1.1990;
76.8000;0.8002;1.1939;
77.1000;0.8034;1.2015;
77.4000;0.8010;1.2015;
77.7000;0.7977;1.1889;
78.0000;0.8010;1.1965;
78.3000;0.8018;1.1990;
78.6000;0.8026;1.2040;
78.9000;0.8099;1.2242;
79.2000;0.8010;1.2065;
79.5000;0.8010;1.2116;
79.8000;0.8099;1.2267;
80.1000;0.8010;1.2090;
80.4000;0.7993;1.1914;
80.7000;0.8075;1.1965;
81.0000;0.8010;1.1889;
81.3000;0.7961;1.1839;
81.6000;0.7985;1.1939;
81.9000;0.7993;1.1939;
82.2000;0.8010;1.1965;
82.5000;0.8010;1.2065;
82.8000;0.8018;1.2090;
83.1000;0.8034;1.2090;
83.4000;0.7993;1.1864;
83.7000;0.8018;1.1864;
84.0000;0.7993;1.1788;
84.3000;0.8002;1.1738;
84.6000;0.8018;1.1637;
84.9000;0.8010;1.1687;
85.2000;0.8018;1.1788;
85.5000;0.8018;1.1839;
85.8000;0.8010;1.1864;
86.1000;0.7985;1.1864;
86.4000;0.8002;1.1990;
86.7000;0.7977;1.2065;
87.0000;0.7993;1.2216;
87.3000;0.8002;1.2191;
87.6000;0.8002;1.2216;
87.9000;0.7993;1.2090;
88.2000;0.7985;1.2015;
88.5000;0.8010;1.1965;
88.8000;0.7969;1.1914;
89.1000;0.7961;1.1763;
89.4000;0.8002;1.1914;
89.7000;0.7993;1.1914;
90.0000;0.8026;1.2090;
90.3000;0.8034;1.2015;
90.6000;0.8010;1.1939;
90.9000;0.8010;1.1939;
91.2000;0.8034;1.1965;
91.5000;0.7977;1.1965;
91.8000;0.7993;1.2015;
92.1000;0.8010;1.2116;
92.4000;0.7993;1.2116;
92.7000;0.8002;1.2191;
93.0000;0.7985;1.2065;
93.3000;0.8002;1.2166;
93.6000;0.8002;1.2191;
93.9000;0.8018;1.2242;
94.2000;0.7993;1.2216;
94.5000;0.7985;1.2242;
94.8000;0.7953;1.2116;
95.1000;0.8002;1.2141;
95.4000;0.8010;1.2141;
95.7000;0.8002;1.2090;
96.0000;0.8002;1.2040;
96.3000;0.7993;1.2040;
96.6000;0.8018;1.2166;
96.9000;0.8002;1.2065;
97.2000;0.7985;1.2015;
97.5000;0.7993;1.1965;
97.8000;0.7993;1.1864;
98.1000;0.7937;1.1788;
98.4000;0.7993;1.1990;
98.7000;0.8010;1.2015;
99.0000;0.8018;1.2040;
99.3000;0.8002;1.1990;
99.6000;0.7993;1.1990;
99.9000;0.8002;1.2015;
100.2000;0.8010;1.2015;
100.5000;0.8002;1.1990;
100.8000;0.7961;1.1939;
101.1000;0.8010;1.2040;
101.4000;0.7985;1.2090;
101.7000;0.7945;1.1990;
102.0000;0.7969;1.2040;
102.3000;0.7993;1.2040;
102.6000;0.8002;1.2090;
102.9000;0.8002;1.2065;
103.2000;0.7993;1.2040;
103.5000;0.7993;1.2065;
103.8000;0.8026;1.2191;
104.1000;0.8002;1.2166;
104.4000;0.8002;1.2141;
104.7000;0.7993;1.2116;
105.0000;0.7993;1.2116;
105.3000;0.8018;1.2141;
105.6000;0.8002;1.2065;
105.9000;0.8002;1.2040;
106.2000;0.8002;1.2090;
106.5000;0.8010;1.2116;
106.8000;0.7993;1.2141;
107.1000;0.7985;1.2216;
107.4000;0.7993;1.2368;
107.7000;0.7985;1.2393;
108.0000;0.7985;1.2393;
108.3000;0.7977;1.2292;
108.6000;0.7961;1.2216;
108.9000;0.7993;1.2191;
109.2000;0.8002;1.2166;
109.5000;0.7928;1.1939;
109.8000;0.7985;1.2065;
110.1000;0.8010;1.2116;
110.4000;0.8018;1.2141;
110.7000;0.8010;1.2065;
111.0000;0.8010;1.2040;
111.3000;0.8010;1.1990;
111.6000;0.8002;1.1939;
111.9000;0.8002;1.1939;
112.2000;0.8010;1.1965;
112.5000;0.7928;1.1813;
112.8000;0.8010;1.2141;
113.1000;0.8010;1.2191;
113.4000;0.8002;1.2116;
113.7000;0.8018;1.2116;
114.0000;0.8010;1.2090;
114.3000;0.8018;1.2166;
114.6000;0.7993;1.2090;
114.9000;0.8026;1.2191;
115.2000;0.8010;1.2292;
115.5000;0.7985;1.2242;
115.8000;0.8034;1.2267;
116.1000;0.8034;1.2292;
116.4000;0.8010;1.2191;
116.7000;0.8034;1.2166;
117.0000;0.8010;1.2090;
117.3000;0.7993;1.2141;
117.6000;0.7985;1.2090;
117.9000;0.8002;1.2040;
118.2000;0.7985;1.2090;
118.5000;0.7993;1.2065;
118.8000;0.8002;1.2065;
119.1000;0.7993;1.2090;
119.4000;0.7993;1.2141;
119.7000;0.7993;1.2216;
120.0000;0.7985;1.2191;
120.3000;0.8010;1.2292;
120.6000;0.8010;1.2317;
120.9000;0.7993;1.2242;
121.2000;0.7993;1.2216;
121.5000;0.7993;1.2317;
121.8000;0.7977;1.2393;
122.1000;0.7993;1.2317;
122.4000;0.7985;1.2292;
122.7000;0.7985;1.2292;
123.0000;0.7985;1.2267;
123.3000;0.8002;1.2267;
123.6000;0.7985;1.2242;
123.9000;0.8026;1.2242;
124.2000;0.8002;1.2216;
124.5000;0.8018;1.2342;
124.8000;0.8002;1.2317;
125.1000;0.8010;1.2368;
125.4000;0.8002;1.2292;
125.7000;0.8002;1.2342;
126.0000;0.8002;1.2242;
126.3000;0.8010;1.2242;
126.6000;0.7985;1.2342;
126.9000;0.8018;1.2393;
127.2000;0.7993;1.2267;
127.5000;0.7977;1.2216;
127.8000;0.8010;1.2317;
128.1000;0.7985;1.2267;
128.4000;0.8002;1.2368;
128.7000;0.7993;1.2317;
129.0000;0.7977;1.2267;
129.3000;0.7985;1.2242;
129.6000;0.8002;1.2292;
129.9000;0.7985;1.2317;
130.2000;0.7993;1.2317;
130.5000;0.8010;1.2317;
130.8000;0.7993;1.2292;
131.1000;0.8002;1.2292;
131.4000;0.8018;1.2317;
131.7000;0.8002;1.2216;
132.0000;0.7969;1.2191;
132.3000;0.7969;1.2216;
132.6000;0.8018;1.2418;
132.9000;0.7993;1.2317;
133.2000;0.7985;1.2292;
133.5000;0.7993;1.2267;
133.8000;0.7993;1.2292;
134.1000;0.8002;1.2267;
134.4000;0.8002;1.2242;
134.7000;0.7985;1.2191;
135.0000;0.8010;1.2166;
135.3000;0.8075;1.2393;
135.6000;0.8010;1.2191;
135.9000;0.8010;1.2191;
136.2000;0.7985;1.2090;
136.5000;0.8002;1.2065;
136.8000;0.7977;1.1990;
137.1000;0.8018;1.1990;
137.4000;0.8002;1.1965;
137.7000;0.8002;1.1939;
138.0000;0.7985;1.1839;
138.3000;0.8018;1.1864;
138.6000;0.7993;1.1864;
138.9000;0.8002;1.1839;
139.2000;0.7953;1.1763;
139.5000;0.7993;1.1839;
139.8000;0.8018;1.1914;
140.1000;0.7993;1.1839;
140.4000;0.7993;1.1839;
140.7000;0.8050;1.2040;
141.0000;0.8010;1.1939;
141.3000;0.7993;1.1914;
141.6000;0.7993;1.1965;
141.9000;0.8010;1.2015;
142.2000;0.8018;1.2015;
142.5000;0.7993;1.1965;
142.8000;0.8002;1.1965;
143.1000;0.7985;1.1965;
143.4000;0.8010;1.1990;
143.7000;0.8002;1.2015;
144.0000;0.8010;1.1990;
144.3000;0.8010;1.1914;
144.6000;0.7985;1.1864;
144.9000;0.7985;1.1914;
145.2000;0.7985;1.1889;
145.5000;0.7985;1.1889;
145.8000;0.7969;1.1914;
146.1000;0.8002;1.1889;
146.4000;0.8010;1.1939;
146.7000;0.7993;1.1965;
147.0000;0.8002;1.1965;
147.3000;0.8002;1.1965;
147.6000;0.8018;1.1914;
147.9000;0.8010;1.1889;
148.2000;0.7953;1.1763;
148.5000;0.8010;1.1839;
148.8000;0.7993;1.1788;
149.1000;0.8002;1.1839;
149.4000;0.7985;1.1839;
149.7000;0.7945;1.1788;
150.0000;0.8010;1.2015;
150.3000;0.8002;1.2015;
150.6000;0.8002;1.2015;
150.9000;0.8010;1.1939;
151.2000;0.8002;1.1889;
151.5000;0.7993;1.1864;
151.8000;0.7993;1.2015;
152.1000;0.8002;1.2015;
152.4000;0.8010;1.1939;
152.7000;0.8018;1.1939;
153.0000;0.8010;1.1864;
153.3000;0.8002;1.1813;
153.6000;0.8002;1.1839;
153.9000;0.7977;1.1839;
154.2000;0.7993;1.1839;
154.5000;0.7993;1.1788;
154.8000;0.7993;1.1788;
155.1000;0.7985;1.1839;
155.4000;0.7993;1.1788;
155.7000;0.8002;1.1788;
156.0000;0.8002;1.1839;
156.3000;0.8010;1.1864;
156.6000;0.8002;1.1864;
156.9000;0.8002;1.1813;
157.2000;0.7985;1.1713;
157.5000;0.7993;1.1738;
157.8000;0.8002;1.1687;
158.1000;0.7977;1.1713;
158.4000;0.8002;1.1889;
158.7000;0.7993;1.1965;
159.0000;0.8026;1.2141;
159.3000;0.7920;1.1864;
159.6000;0.8050;1.2116;
159.9000;0.8002;1.1965;
160.2000;0.7977;1.1889;
160.5000;0.8010;1.1939;
160.8000;0.7985;1.1939;
161.1000;0.7993;1.1864;
161.4000;0.7969;1.1763;
161.7000;0.8010;1.1864;
162.0000;0.7993;1.1788;
162.3000;0.8010;1.1788;
162.6000;0.8010;1.1713;
162.9000;0.8002;1.1662;
163.2000;0.7985;1.1662;
163.5000;0.7977;1.1687;
163.8000;0.8002;1.1738;
164.1000;0.8002;1.1839;
164.4000;0.8002;1.1864;
164.7000;0.7904;1.1562;
165.0000;0.8010;1.1763;
165.3000;0.7969;1.1763;
165.6000;0.7977;1.1813;
165.9000;0.8010;1.1889;
166.2000;0.7896;1.1637;
166.5000;0.8010;1.1889;
166.8000;0.8002;1.1965;
167.1000;0.8002;1.1864;
167.4000;0.8026;1.1889;
167.7000;0.8010;1.1889;
168.0000;0.8002;1.1864;
168.3000;0.8002;1.1914;
168.6000;0.8002;1.1839;
168.9000;0.8010;1.1914;
169.2000;0.8010;1.1990;
169.5000;0.8018;1.1965;
169.8000;0.7977;1.1939;
170.1000;0.7985;1.2065;
170.4000;0.7937;1.1864;
170.7000;0.7969;1.1965;
171.0000;0.8010;1.2015;
171.3000;0.7993;1.1914;
171.6000;0.8010;1.1864;
171.9000;0.7985;1.1889;
172.2000;0.8002;1.1839;
172.5000;0.8002;1.1839;
172.8000;0.7953;1.1713;
173.1000;0.8002;1.1763;
173.4000;0.8018;1.1713;
173.7000;0.7888;1.1461;
174.0000;0.7993;1.1763;
174.3000;0.7993;1.1788;
174.6000;0.7969;1.1738;
174.9000;0.7993;1.1763;
175.2000;0.7977;1.1738;
175.5000;0.8002;1.1738;
175.8000;0.7993;1.1662;
176.1000;0.7985;1.1763;
176.4000;0.8010;1.1889;
176.7000;0.8002;1.1839;
177.0000;0.8002;1.1839;
177.3000;0.7993;1.1839;
177.6000;0.7993;1.1813;
177.9000;0.7993;1.1839;
178.2000;0.7993;1.1713;
178.5000;0.7993;1.1813;
178.8000;0.7977;1.1788;
179.1000;0.7985;1.1788;
179.4000;0.7993;1.1738;
179.7000;0.7985;1.1662;
180.0000;0.8034;1.1763;
180.3000;0.8010;1.1788;
180.6000;0.7985;1.1813;
180.9000;0.8075;1.2116;
181.2000;0.8010;1.1965;
181.5000;0.7985;1.1965;
181.8000;0.7953;1.1813;
182.1000;0.7912;1.1713;
182.4000;0.7993;1.1939;
182.7000;0.7977;1.1889;
183.0000;0.7920;1.1763;
183.3000;0.8002;1.1965;
183.6000;0.8042;1.2040;
183.9000;0.7993;1.1939;
184.2000;0.8002;1.1939;
184.5000;0.7961;1.1813;
184.8000;0.8010;1.1914;
185.1000;0.7993;1.1864;
185.4000;0.8026;1.1813;
185.7000;0.8002;1.1864;
186.0000;0.7993;1.1813;
186.3000;0.7985;1.1763;
186.6000;0.8002;1.1738;
186.9000;0.8059;1.1939;
187.2000;0.7969;1.1713;
187.5000;0.7961;1.1788;
187.8000;0.7993;1.1889;
188.1000;0.8018;1.1864;
188.4000;0.8002;1.1839;
188.7000;0.7985;1.1813;
189.0000;0.7993;1.1813;
189.3000;0.7961;1.1738;
189.6000;0.8010;1.1864;
189.9000;0.7993;1.1864;
190.2000;0.7945;1.1788;
190.5000;0.7985;1.1864;
190.8000;0.7928;1.1738;
191.1000;0.7993;1.1990;
191.4000;0.8042;1.2090;
191.7000;0.8010;1.1939;
192.0000;0.7993;1.1889;
192.3000;0.8010;1.1889;
192.6000;0.7953;1.1713;
192.9000;0.8026;1.1914;
193.2000;0.8002;1.1738;
193.5000;0.8002;1.1687;
193.8000;0.7969;1.1687;
194.1000;0.7977;1.1788;
194.4000;0.8018;1.1864;
194.7000;0.8002;1.1813;
195.0000;0.7985;1.1738;
195.3000;0.8002;1.1713;
195.6000;0.7993;1.1713;
195.9000;0.7961;1.1662;
196.2000;0.7993;1.1738;
196.5000;0.7993;1.1788;
196.8000;0.8002;1.1839;
197.1000;0.7993;1.1914;
197.4000;0.7969;1.1914;
197.7000;0.7977;1.1965;
198.0000;0.7945;1.1813;
198.3000;0.7993;1.1914;
198.6000;0.7985;1.1889;
198.9000;0.7969;1.1813;
199.2000;0.7977;1.1889;
199.5000;0.7985;1.1914;
199.8000;0.7993;1.1839;
200.1000;0.7993;1.1788;
200.4000;0.7977;1.1763;
200.7000;0.7993;1.1839;
201.0000;0.8018;1.1939;
201.3000;0.7993;1.1839;
201.6000;0.7977;1.1763;
201.9000;0.7961;1.1687;
202.2000;0.7985;1.1713;
202.5000;0.7985;1.1713;
202.8000;0.7969;1.1713;
203.1000;0.7977;1.1839;
203.4000;0.7985;1.1788;
203.7000;0.7977;1.1788;
204.0000;0.7985;1.1889;
204.3000;0.7945;1.1763;
204.6000;0.7985;1.1839;
204.9000;0.7985;1.1864;
205.2000;0.7969;1.1914;
205.5000;0.8010;1.2015;
205.8000;0.8010;1.2015;
206.1000;0.8002;1.1990;
206.4000;0.7985;1.1939;
206.7000;0.7993;1.1990;
207.0000;0.8010;1.2015;
207.3000;0.8002;1.2116;
207.6000;0.8042;1.2292;
207.9000;0.8026;1.2191;
208.2000;0.7993;1.2040;
208.5000;0.7977;1.2116;
208.8000;0.7945;1.1990;
209.1000;0.8018;1.2040;
209.4000;0.7985;1.1914;
209.7000;0.7969;1.1889;
210.0000;0.7985;1.1864;
210.3000;0.8002;1.1839;
210.6000;0.7985;1.1738;
210.9000;0.8010;1.1763;
211.2000;0.7977;1.1662;
211.5000;0.7985;1.1763;
211.8000;0.7985;1.1914;
212.1000;0.8018;1.2040;
212.4000;0.7993;1.2065;
212.7000;0.7977;1.2065;
213.0000;0.7969;1.2040;
213.3000;0.7993;1.2040;
213.6000;0.7993;1.1965;
213.9000;0.8010;1.2065;
214.2000;0.7985;1.2015;
214.5000;0.8002;1.2015;
214.8000;0.8002;1.2015;
215.1000;0.8002;1.2065;
215.4000;0.8002;1.2065;
215.7000;0.7985;1.2040;
216.0000;0.7985;1.2116;
216.3000;0.7985;1.2141;
216.6000;0.7977;1.2090;
216.9000;0.7977;1.2166;
217.2000;0.7985;1.2191;
217.5000;0.8002;1.2242;
217.8000;0.7896;1.1939;
218.1000;0.8002;1.2166;
218.4000;0.7985;1.2116;
218.7000;0.7993;1.2141;
219.0000;0.7993;1.2090;
219.3000;0.7977;1.2141;
219.6000;0.7993;1.2166;
219.9000;0.8018;1.2267;
220.2000;0.8010;1.2216;
220.5000;0.8002;1.2191;
220.8000;0.7977;1.2116;
221.1000;0.7985;1.2090;
221.4000;0.8002;1.2090;
221.7000;0.7977;1.2166;
222.0000;0.7969;1.2216;
222.3000;0.7953;1.2242;
222.6000;0.8002;1.2342;
222.9000;0.7993;1.2242;
223.2000;0.8002;1.2216;
223.5000;0.7985;1.2267;
223.8000;0.7969;1.2216;
224.1000;0.8002;1.2292;
224.4000;0.7977;1.2116;
224.7000;0.7961;1.2191;
225.0000;0.7993;1.2166;
225.3000;0.8018;1.2191;
225.6000;0.8026;1.2216;
225.9000;0.7985;1.2116;
226.2000;0.7977;1.2090;
226.5000;0.7985;1.2141;
226.8000;0.7969;1.2090;
227.1000;0.7985;1.2141;
227.4000;0.8018;1.2216;
227.7000;0.7969;1.2216;
228.0000;0.7993;1.2267;
228.3000;0.7928;1.2090;
228.6000;0.7969;1.2242;
228.9000;0.7985;1.2216;
229.2000;0.7985;1.2191;
229.5000;0.8010;1.2216;
229.8000;0.7961;1.2116;
230.1000;0.7985;1.2116;
230.4000;0.8067;1.2368;
230.7000;0.7993;1.2065;
231.0000;0.7985;1.2015;
231.3000;0.7993;1.2065;
231.6000;0.7953;1.2040;
231.9000;0.7993;1.2141;
232.2000;0.7969;1.2116;
232.5000;0.8010;1.2116;
232.8000;0.7977;1.2015;
233.1000;0.7953;1.1914;
233.4000;0.7985;1.1965;
233.7000;0.7993;1.1990;
234.0000;0.8002;1.2116;
234.3000;0.7920;1.1990;
234.6000;0.7985;1.2116;
234.9000;0.7977;1.2065;
235.2000;0.8034;1.2242;
235.5000;0.7993;1.2191;
235.8000;0.7969;1.2116;
236.1000;0.7993;1.2191;
236.4000;0.8002;1.2317;
236.7000;0.7993;1.2342;
237.0000;0.7993;1.2317;
237.3000;0.7993;1.2242;
237.6000;0.7993;1.2216;
237.9000;0.7985;1.2216;
238.2000;0.8002;1.2292;
238.5000;0.7993;1.2317;
238.8000;0.7993;1.2342;
239.1000;0.7977;1.2267;
239.4000;0.8002;1.2216;
239.7000;0.7977;1.2116;
240.0000;0.7937;1.1990;
240.3000;0.7985;1.2090;
240.6000;0.7993;1.2141;
240.9000;0.7985;1.2141;
241.2000;0.7993;1.2116;
241.5000;0.7985;1.2141;
241.8000;0.7985;1.2141;
242.1000;0.7953;1.2065;
242.4000;0.7969;1.2116;
242.7000;0.7993;1.2166;
243.0000;0.8010;1.2191;
243.3000;0.7993;1.2065;
243.6000;0.7977;1.2040;
243.9000;0.7969;1.2015;
244.2000;0.7993;1.2015;
244.5000;0.7985;1.1914;
244.8000;0.7904;1.1788;
245.1000;0.7977;1.2040;
245.4000;0.7977;1.2065;
245.7000;0.7928;1.1990;
246.0000;0.7977;1.2040;
246.3000;0.7969;1.2090;
246.6000;0.7977;1.2141;
246.9000;0.7985;1.2166;
247.2000;0.7945;1.2090;
247.5000;0.7977;1.2116;
247.8000;0.7969;1.2166;
248.1000;0.7993;1.2141;
248.4000;0.7985;1.2116;
248.7000;0.7977;1.2065;
249.0000;0.7969;1.1990;
249.3000;0.8002;1.2015;
249.6000;0.8018;1.2015;
249.9000;0.7977;1.1889;
250.2000;0.7985;1.1965;
250.5000;0.8002;1.2065;
250.8000;0.7977;1.2090;
251.1000;0.7993;1.2090;
251.4000;0.8067;1.2317;
251.7000;0.7985;1.2065;
252.0000;0.7985;1.2116;
252.3000;0.7993;1.2116;
252.6000;0.7993;1.2090;
252.9000;0.8002;1.2141;
253.2000;0.8050;1.2267;
253.5000;0.7920;1.1914;
253.8000;0.8002;1.2015;
254.1000;0.7993;1.1990;
254.4000;0.8010;1.1965;
254.7000;0.8002;1.1990;
255.0000;0.7985;1.2040;
255.3000;0.7977;1.2065;
255.6000;0.7985;1.1990;
255.9000;0.7985;1.2090;
256.2000;0.7953;1.2065;
256.5000;0.7985;1.2141;
256.8000;0.7985;1.2040;
257.1000;0.7993;1.2065;
257.4000;0.7993;1.2040;
257.7000;0.7969;1.1889;
258.0000;0.7985;1.1914;
258.3000;0.8010;1.2015;
258.6000;0.7985;1.2065;
258.9000;0.7993;1.2141;
259.2000;0.7993;1.2116;
259.5000;0.7985;1.2141;
259.8000;0.8083;1.2393;
260.1000;0.7969;1.2090;
260.4000;0.7977;1.2065;
260.7000;0.7977;1.2065;
261.0000;0.7961;1.2090;
261.3000;0.7953;1.1965;
261.6000;0.7977;1.2141;
261.9000;0.7961;1.2242;
262.2000;0.8002;1.2242;
262.5000;0.7985;1.2267;
262.8000;0.7977;1.2191;
263.1000;0.7977;1.2216;
263.4000;0.7993;1.2166;
263.7000;0.8002;1.2216;
264.0000;0.7985;1.2065;
264.3000;0.7993;1.2090;
264.6000;0.8010;1.2216;
264.9000;0.7993;1.2216;
265.2000;0.7993;1.2242;
265.5000;0.7985;1.2166;
265.8000;0.7985;1.2216;
266.1000;0.7977;1.2166;
266.4000;0.7977;1.2141;
266.7000;0.7969;1.2015;
267.0000;0.7977;1.2090;
267.3000;0.8002;1.2090;
267.6000;0.7977;1.2040;
267.9000;0.7969;1.1965;
268.2000;0.8002;1.2015;
268.5000;0.7985;1.1914;
268.8000;0.7993;1.2040;
269.1000;0.7993;1.2166;
269.4000;0.7969;1.2141;
269.7000;0.7977;1.2065;
270.0000;0.7985;1.2191;
270.3000;0.7969;1.2116;
270.6000;0.7985;1.2166;
270.9000;0.8002;1.2216;
271.2000;0.7977;1.2141;
271.5000;0.7977;1.2216;
271.8000;0.7961;1.2090;
272.1000;0.7977;1.2090;
272.4000;0.7977;1.2116;
272.7000;0.7985;1.2216;
273.0000;0.7969;1.2166;
273.3000;0.7977;1.2166;
273.6000;0.8002;1.2191;
273.9000;0.7993;1.2166;
274.2000;0.7937;1.2040;
274.5000;0.7993;1.2216;
274.8000;0.7993;1.2216;
275.1000;0.7985;1.2216;
275.4000;0.7977;1.2141;
275.7000;0.7961;1.2191;
276.0000;0.8042;1.2468;
276.3000;0.7969;1.2267;
276.6000;0.7977;1.2342;
276.9000;0.7977;1.2292;
277.2000;0.7969;1.2166;
277.5000;0.7985;1.2292;
277.8000;0.8002;1.2317;
278.1000;0.7969;1.2216;
278.4000;0.7985;1.2292;
278.7000;0.7977;1.2242;
279.0000;0.7993;1.2292;
279.3000;0.7985;1.2216;
279.6000;0.7993;1.2166;
279.9000;0.8010;1.2166;
280.2000;0.8010;1.2166;
280.5000;0.7993;1.2141;
280.8000;0.7945;1.2015;
281.1000;0.7977;1.2141;
281.4000;0.7985;1.2090;
281.7000;0.7928;1.1839;
282.0000;0.7969;1.2015;
282.3000;0.7977;1.1990;
282.6000;0.7945;1.1965;
282.9000;0.7969;1.2015;
283.2000;0.7977;1.2040;
283.5000;0.7985;1.2065;
283.8000;0.7977;1.1990;
284.1000;0.7985;1.1990;
284.4000;0.7977;1.2015;
284.7000;0.7985;1.2065;
285.0000;0.8002;1.2040;
285.3000;0.7969;1.1939;
285.6000;0.7977;1.1939;
285.9000;0.7977;1.1990;
286.2000;0.7977;1.1990;
286.5000;0.7977;1.1990;
286.8000;0.7977;1.2015;
287.1000;0.7977;1.1990;
287.4000;0.7977;1.2090;
287.7000;0.7985;1.2116;
288.0000;0.7961;1.2065;
288.3000;0.7969;1.2116;
288.6000;0.7985;1.2090;
288.9000;0.8050;1.2216;
289.2000;0.7977;1.2040;
289.5000;0.7977;1.2090;
289.8000;0.8042;1.2267;
290.1000;0.7985;1.2191;
290.4000;0.7977;1.2116;
290.7000;0.8083;1.2368;
291.0000;0.7977;1.2141;
291.3000;0.7961;1.2065;
291.6000;0.7969;1.2065;
291.9000;0.7953;1.1990;
292.2000;0.7969;1.1965;
292.5000;0.7969;1.1965;
292.8000;0.7985;1.1965;
293.1000;0.7928;1.1914;
293.4000;0.7969;1.2065;
293.7000;0.7977;1.2015;
294.0000;0.8002;1.1965;
294.3000;0.8002;1.1914;
294.6000;0.7961;1.1889;
294.9000;0.7977;1.1864;
295.2000;0.7993;1.1965;
295.5000;0.7985;1.1889;
295.8000;0.7985;1.1813;
296.1000;0.7985;1.1864;
296.4000;0.7977;1.1839;
296.7000;0.7969;1.1839;
297.0000;0.7969;1.1839;
297.3000;0.7969;1.1939;
297.6000;0.7977;1.1990;
297.9000;0.7993;1.2065;
298.2000;0.7977;1.2040;
298.5000;0.7993;1.2090;
298.8000;0.7993;1.2141;
299.1000;0.7993;1.2166;
299.4000;0.7985;1.2216;
299.7000;0.7977;1.2141;
300.0000;0.7969;1.2166;
300.3000;0.7985;1.2267;
300.6000;0.7985;1.2216;
300.9000;0.8042;1.2443;
301.2000;0.8067;1.2544;
301.5000;0.7993;1.2317;
301.8000;0.7985;1.2216;
302.1000;0.7985;1.2116;
302.4000;0.7977;1.2141;
302.7000;0.7904;1.2015;
303.0000;0.8018;1.2242;
303.3000;0.8075;1.2393;
303.6000;0.7977;1.2191;
303.9000;0.7977;1.2242;
304.2000;0.7985;1.2267;
304.5000;0.7985;1.2242;
304.8000;0.8026;1.2342;
305.1000;0.7961;1.2242;
305.4000;0.7985;1.2242;
305.7000;0.7937;1.2090;
306.0000;0.7977;1.2191;
306.3000;0.7928;1.2116;
306.6000;0.7969;1.2166;
306.9000;0.7969;1.2116;
307.2000;0.7961;1.2141;
307.5000;0.7969;1.2116;
307.8000;0.7977;1.2191;
308.1000;0.7985;1.2242;
308.4000;0.7977;1.2216;
308.7000;0.7969;1.2166;
309.0000;0.7961;1.2116;
309.3000;0.7977;1.2216;
309.6000;0.7969;1.2242;
309.9000;0.8002;1.2368;
310.2000;0.7977;1.2267;
310.5000;0.7977;1.2242;
310.8000;0.7985;1.2267;
311.1000;0.7977;1.2216;
311.4000;0.8010;1.2317;
311.7000;0.7977;1.2191;
312.0000;0.7977;1.2166;
312.3000;0.7985;1.2065;
312.6000;0.7977;1.2065;
312.9000;0.7985;1.2015;
313.2000;0.7977;1.2065;
313.5000;0.7993;1.2090;
313.8000;0.7977;1.2116;
314.1000;0.7969;1.2166;
314.4000;0.7993;1.2166;
314.7000;0.7993;1.2191;
315.0000;0.8010;1.2166;
315.3000;0.7985;1.2191;
315.6000;0.7985;1.2191;
315.9000;0.7993;1.2116;
316.2000;0.7977;1.2040;
316.5000;0.7961;1.2015;
316.8000;0.7985;1.1990;
317.1000;0.7977;1.1965;
317.4000;0.7969;1.1939;
317.7000;0.7969;1.1939;
318.0000;0.7985;1.1965;
318.3000;0.8002;1.1965;
318.6000;0.7985;1.1889;
318.9000;0.7977;1.1965;
319.2000;0.7969;1.1939;
319.5000;0.7969;1.2015;
319.8000;0.7961;1.2040;
320.1000;0.7969;1.2116;
320.4000;0.7945;1.2065;
320.7000;0.7977;1.2090;
321.0000;0.7961;1.2065;
321.3000;0.7977;1.1965;
321.6000;0.7961;1.1889;
321.9000;0.7969;1.1839;
322.2000;0.7928;1.1788;
322.5000;0.7977;1.1889;
322.8000;0.7961;1.1839;
323.1000;0.7985;1.1965;
323.4000;0.7993;1.2015;
323.7000;0.7937;1.1864;
324.0000;0.7985;1.1990;
324.3000;0.7985;1.1914;
324.6000;0.7961;1.1889;
324.9000;0.8034;1.2040;
325.2000;0.7969;1.1914;
325.5000;0.7969;1.2015;
325.8000;0.7961;1.2015;
326.1000;0.7977;1.2090;
326.4000;0.7961;1.2090;
326.7000;0.7985;1.2191;
327.0000;0.7969;1.2015;
327.3000;0.7977;1.1990;
327.6000;0.7969;1.1914;
327.9000;0.7993;1.1990;
328.2000;0.7977;1.2015;
328.5000;0.7977;1.1990;
328.8000;0.8042;1.2141;
329.1000;0.7977;1.1965;
329.4000;0.7993;1.2015;
329.7000;0.7969;1.1939;
330.0000;0.7977;1.1965;
330.3000;0.7969;1.2015;
330.6000;0.7969;1.2015;
330.9000;0.7969;1.2015;
331.2000;0.7977;1.2040;
331.5000;0.7969;1.2015;
331.8000;0.7953;1.2015;
332.1000;0.7969;1.2141;
332.4000;0.7961;1.2166;
332.7000;0.7961;1.2040;
333.0000;0.7969;1.2065;
333.3000;0.7961;1.2116;
333.6000;0.7977;1.2141;
333.9000;0.7977;1.2141;
334.2000;0.7953;1.2015;
334.5000;0.7961;1.2040;
334.8000;0.7953;1.1990;
335.1000;0.7969;1.2065;
335.4000;0.7953;1.2141;
335.7000;0.7937;1.1889;
336.0000;0.7977;1.1939;
336.3000;0.7969;1.1864;
336.6000;0.7977;1.1965;
336.9000;0.7969;1.1965;
337.2000;0.8002;1.1990;
337.5000;0.8002;1.2040;
337.8000;0.7969;1.1939;
338.1000;0.7969;1.1889;
338.4000;0.7977;1.1839;
338.7000;0.7985;1.1864;
339.0000;0.7977;1.1889;
339.3000;0.7961;1.1990;
339.6000;0.7985;1.1939;
339.9000;0.7993;1.1965;
340.2000;0.7977;1.2015;
340.5000;0.8010;1.1990;
340.8000;0.7945;1.1788;
341.1000;0.7977;1.1813;
341.4000;0.7985;1.1839;
341.7000;0.7977;1.1939;
342.0000;0.8059;1.2191;
342.3000;0.7993;1.1965;
342.6000;0.7969;1.1788;
342.9000;0.7969;1.1763;
343.2000;0.7969;1.1889;
343.5000;0.7985;1.2141;
343.8000;0.7993;1.2141;
344.1000;0.7985;1.2040;
344.4000;0.7953;1.1990;
344.7000;0.7969;1.1990;
345.0000;0.7985;1.2015;
345.3000;0.7985;1.1914;
345.6000;0.7985;1.1864;
345.9000;0.7977;1.1864;
346.2000;0.7993;1.1990;
346.5000;0.8099;1.2267;
346.8000;0.7969;1.1889;
347.1000;0.8002;1.1965;
347.4000;0.7985;1.1839;
347.7000;0.7985;1.1889;
348.0000;0.7985;1.1839;
348.3000;0.7985;1.1889;
348.6000;0.7945;1.1687;
348.9000;0.7977;1.1713;
349.2000;0.7977;1.1763;
349.5000;0.7977;1.1738;
349.8000;0.8018;1.1788;
350.1000;0.7969;1.1763;
350.4000;0.7985;1.1763;
350.7000;0.7977;1.1763;
351.0000;0.7977;1.1662;
351.3000;0.7993;1.1813;
351.6000;0.7920;1.1738;
351.9000;0.7953;1.1813;
352.2000;0.7969;1.1889;
352.5000;0.7969;1.1939;
352.8000;0.8002;1.2015;
353.1000;0.7977;1.1965;
353.4000;0.7977;1.1914;
353.7000;0.7969;1.1914;
354.0000;0.7977;1.2040;
354.3000;0.7969;1.2015;
354.6000;0.7969;1.2015;
354.9000;0.7977;1.2116;
355.2000;0.7985;1.2166;
355.5000;0.7961;1.2090;
355.8000;0.7961;1.2141;
356.1000;0.7961;1.1990;
356.4000;0.7945;1.1939;
356.7000;0.7993;1.2090;
357.0000;0.7961;1.2065;
357.3000;0.7969;1.2065;
357.6000;0.7961;1.2116;
357.9000;0.7969;1.2065;
358.2000;0.7969;1.2065;
358.5000;0.7896;1.1914;
358.8000;0.7961;1.2166;
359.1000;0.7961;1.2216;
359.4000;0.7985;1.2216;
359.7000;0.7961;1.2116;
360.0000;0.7969;1.2141;
360.3000;0.7985;1.2090;
360.6000;0.7969;1.2015;
360.9000;0.7985;1.2040;
361.2000;0.7969;1.1965;
361.5000;0.7993;1.2015;
361.8000;0.7985;1.2015;
362.1000;0.7961;1.1939;
362.4000;0.7969;1.1990;
362.7000;0.7985;1.2040;
363.0000;0.7953;1.2065;
363.3000;0.7945;1.2090;
363.6000;0.7969;1.2166;
363.9000;0.7945;1.2166;
364.2000;0.7993;1.2267;
364.5000;0.7969;1.2191;
364.8000;0.7961;1.2090;
365.1000;0.7977;1.2166;
365.4000;0.7969;1.2166;
365.7000;0.7977;1.2141;
366.0000;0.7977;1.2040;
366.3000;0.7969;1.1965;
366.6000;0.7977;1.1939;
366.9000;0.7977;1.1864;
367.2000;0.7945;1.1788;
367.5000;0.7977;1.1864;
367.8000;0.7977;1.1990;
368.1000;0.7920;1.1990;
368.4000;0.8050;1.2317;
368.7000;0.7912;1.1965;
369.0000;0.7985;1.2116;
369.3000;0.8042;1.2267;
369.6000;0.7985;1.2166;
369.9000;0.7977;1.2166;
370.2000;0.7969;1.2090;
370.5000;0.7993;1.2090;
370.8000;0.7985;1.2141;
371.1000;0.7993;1.2116;
371.4000;0.7953;1.2116;
371.7000;0.7937;1.2090;
372.0000;0.7969;1.2141;
372.3000;0.7969;1.2090;
372.6000;0.8075;1.2368;
372.9000;0.7985;1.2166;
373.2000;0.8018;1.2242;
373.5000;0.7977;1.2166;
373.8000;0.7969;1.2116;
374.1000;0.7953;1.2040;
374.4000;0.7969;1.1965;
374.7000;0.7977;1.2040;
375.0000;0.7969;1.2040;
375.3000;0.7985;1.2015;
375.6000;0.7961;1.1939;
375.9000;0.7945;1.2015;
376.2000;0.7928;1.1939;
376.5000;0.7969;1.2065;
376.8000;0.7969;1.2090;
377.1000;0.7945;1.2141;
377.4000;0.7969;1.2116;
377.7000;0.7953;1.1939;
378.0000;0.7953;1.1889;
378.3000;0.7969;1.1914;
378.6000;0.7953;1.1788;
378.9000;0.7953;1.1889;
379.2000;0.7985;1.1965;
379.5000;0.7977;1.2040;
379.8000;0.7969;1.2090;
380.1000;0.7961;1.2116;
380.4000;0.7961;1.2141;
380.7000;0.7961;1.2116;
381.0000;0.7985;1.2191;
381.3000;0.7928;1.2090;
381.6000;0.7953;1.2090;
381.9000;0.7961;1.2090;
382.2000;0.7969;1.2166;
382.5000;0.7920;1.2040;
382.8000;0.7961;1.2141;
383.1000;0.7977;1.2141;
383.4000;0.7961;1.2141;
383.7000;0.7961;1.2090;
384.0000;0.7961;1.2015;
384.3000;0.7953;1.2015;
384.6000;0.7969;1.2090;
384.9000;0.8002;1.2191;
385.2000;0.7953;1.2166;
385.5000;0.7969;1.2166;
385.8000;0.7969;1.2141;
386.1000;0.7945;1.2116;
386.4000;0.7953;1.2141;
386.7000;0.7953;1.2116;
387.0000;0.7969;1.2090;
387.3000;0.7937;1.1965;
387.6000;0.7961;1.2015;
387.9000;0.7961;1.1990;
388.2000;0.7953;1.2015;
388.5000;0.7953;1.1990;
388.8000;0.7977;1.2015;
389.1000;0.7961;1.1914;
389.4000;0.7969;1.1839;
389.7000;0.7969;1.1788;
390.0000;0.7961;1.1813;
390.3000;0.7945;1.1738;
390.6000;0.7993;1.1965;
390.9000;0.8042;1.1990;
391.2000;0.7937;1.1763;
391.5000;0.7977;1.1965;
391.8000;0.7912;1.1839;
392.1000;0.7969;1.1965;
392.4000;0.7977;1.1990;
392.7000;0.7928;1.1839;
393.0000;0.7961;1.1939;
393.3000;0.7993;1.1965;
393.6000;0.7953;1.1914;
393.9000;0.7961;1.1965;
394.2000;0.7961;1.1939;
394.5000;0.7912;1.1788;
394.8000;0.7977;1.1939;
395.1000;0.7977;1.2015;
395.4000;0.7977;1.2040;
395.7000;0.8026;1.2242;
396.0000;0.7961;1.2090;
396.3000;0.7993;1.2166;
396.6000;0.7969;1.2141;
396.9000;0.7937;1.2116;
397.2000;0.7969;1.2267;
397.5000;0.7953;1.2090;
397.8000;0.7969;1.2116;
398.1000;0.7977;1.2141;
398.4000;0.7985;1.2090;
398.7000;0.8002;1.2242;
399.0000;0.7961;1.2191;
399.3000;0.7969;1.2166;
399.6000;0.7953;1.2040;
399.9000;0.7985;1.2040;
400.2000;0.7961;1.1965;
400.5000;0.7961;1.1990;
400.8000;0.7961;1.1965;
401.1000;0.7985;1.1990;
401.4000;0.7977;1.1965;
401.7000;0.7985;1.2015;
402.0000;0.7985;1.1939;
402.3000;0.7977;1.1965;
402.6000;0.7977;1.1965;
402.9000;0.7928;1.1813;
403.2000;0.7961;1.1914;
403.5000;0.7969;1.1990;
403.8000;0.8018;1.2015;
404.1000;0.7969;1.1939;
404.4000;0.7961;1.1864;
404.7000;0.7953;1.1889;
405.0000;0.7969;1.1889;
405.3000;0.7961;1.1965;
405.6000;0.8018;1.2065;
405.9000;0.7953;1.1839;
406.2000;0.7961;1.1889;
406.5000;0.8010;1.2065;
406.8000;0.7912;1.1813;
407.1000;0.7969;1.1939;
407.4000;0.7969;1.1990;
407.7000;0.7993;1.1990;
408.0000;0.7945;1.1813;
408.3000;0.7961;1.1738;
408.6000;0.7969;1.1738;
408.9000;0.7953;1.1813;
409.2000;0.7953;1.1939;
409.5000;0.7993;1.2015;
409.8000;0.7961;1.1864;
410.1000;0.8042;1.2090;
410.4000;0.7961;1.1864;
410.7000;0.7937;1.1788;
411.0000;0.7969;1.1763;
411.3000;0.7969;1.1738;
411.6000;0.7969;1.1713;
411.9000;0.7961;1.1738;
412.2000;0.7961;1.1713;
412.5000;0.7985;1.1813;
412.8000;0.7953;1.1813;
413.1000;0.7961;1.1839;
413.4000;0.7969;1.1914;
413.7000;0.7969;1.1839;
414.0000;0.7977;1.1914;
414.3000;0.7969;1.1839;
414.6000;0.7961;1.1864;
414.9000;0.7993;1.1990;
415.2000;0.7953;1.1889;
415.5000;0.7969;1.1990;
415.8000;0.7937;1.1864;
416.1000;0.7985;1.1965;
416.4000;0.7969;1.1914;
416.7000;0.7977;1.1889;
417.0000;0.7961;1.1864;
417.3000;0.7969;1.1839;
417.6000;0.7969;1.1889;
417.9000;0.8010;1.2015;
418.2000;0.7985;1.2040;
418.5000;0.7969;1.1990;
418.8000;0.7953;1.1889;
419.1000;0.7961;1.1889;
419.4000;0.7977;1.1889;
419.7000;0.7969;1.1939;
420.0000;0.7977;1.1965;
420.3000;0.8018;1.2090;
420.6000;0.7993;1.2015;
420.9000;0.7961;1.1939;
421.2000;0.7928;1.1864;
421.5000;0.7969;1.1939;
421.8000;0.7912;1.1839;
422.1000;0.7961;1.1990;
422.4000;0.7977;1.2065;
422.7000;0.7961;1.2065;
423.0000;0.7977;1.2141;
423.3000;0.7953;1.2090;
423.6000;0.7961;1.2065;
423.9000;0.7961;1.2141;
424.2000;0.7953;1.2191;
424.5000;0.7961;1.2116;
424.8000;0.7937;1.2040;
425.1000;0.7920;1.1889;
425.4000;0.7953;1.2065;
425.7000;0.7953;1.2065;
426.0000;0.7937;1.2090;
426.3000;0.7961;1.2090;
426.6000;0.7953;1.1939;
426.9000;0.8002;1.2040;
427.2000;0.7961;1.1990;
427.5000;0.7920;1.1939;
427.8000;0.7928;1.2040;
428.1000;0.7969;1.2065;
428.4000;0.7961;1.1990;
428.7000;0.7961;1.2015;
429.0000;0.8018;1.2166;
429.3000;0.7953;1.1990;
429.6000;0.7896;1.1738;
429.9000;0.7961;1.1889;
430.2000;0.7945;1.1813;
430.5000;0.7977;1.1939;
430.8000;0.7969;1.1990;
431.1000;0.7977;1.1990;
431.4000;0.7969;1.1939;
431.7000;0.7985;1.1990;
432.0000;0.7969;1.1839;
432.3000;0.7945;1.1738;
432.6000;0.7985;1.1864;
432.9000;0.7969;1.1939;
433.2000;0.7969;1.2015;
433.5000;0.7961;1.1939;
433.8000;0.7985;1.1965;
434.1000;0.7961;1.1889;
434.4000;0.7953;1.1914;
434.7000;0.7937;1.1864;
435.0000;0.7937;1.1864;
435.3000;0.8002;1.2065;
435.6000;0.7969;1.1914;
435.9000;0.7961;1.1864;
436.2000;0.7928;1.1788;
436.5000;0.7912;1.1738;
436.8000;0.7985;1.1965;
437.1000;0.8018;1.2116;
437.4000;0.7969;1.1965;
437.7000;0.7953;1.1939;
438.0000;0.7945;1.2015;
438.3000;0.7953;1.1990;
438.6000;0.7953;1.1939;
438.9000;0.7945;1.1939;
439.2000;0.7945;1.1939;
439.5000;0.7945;1.1889;
439.8000;0.7937;1.1889;
440.1000;0.7961;1.1864;
440.4000;0.7961;1.1864;
440.7000;0.7937;1.1839;
441.0000;0.7953;1.1914;
441.3000;0.7945;1.1939;
441.6000;0.7920;1.1889;
441.9000;0.7961;1.2015;
442.2000;0.7928;1.1914;
442.5000;0.7953;1.2015;
442.8000;0.7953;1.2015;
443.1000;0.7953;1.1990;
443.4000;0.7953;1.1990;
443.7000;0.7920;1.1839;
444.0000;0.7985;1.1914;
444.3000;0.7945;1.1839;
444.6000;0.7953;1.1889;
444.9000;0.7961;1.1914;
445.2000;0.7945;1.1813;
445.5000;0.7945;1.1839;
445.8000;0.7937;1.1864;
446.1000;0.7945;1.1889;
446.4000;0.7953;1.1965;
446.7000;0.7969;1.1990;
447.0000;0.7969;1.1990;
447.3000;0.7945;1.1914;
447.6000;0.7969;1.1990;
447.9000;0.7953;1.1914;
448.2000;0.7969;1.1990;
448.5000;0.7961;1.1990;
448.8000;0.7953;1.2015;
449.1000;0.7928;1.1965;
449.4000;0.7904;1.1939;
449.7000;0.7855;1.1763;
450.0000;0.7977;1.2040;
450.3000;0.7961;1.1914;
450.6000;0.7953;1.1889;
450.9000;0.7969;1.1939;
451.2000;0.7953;1.1889;
451.5000;0.7961;1.1813;
451.8000;0.7969;1.1839;
452.1000;0.7969;1.1839;
452.4000;0.7953;1.1738;
452.7000;0.7953;1.1788;
453.0000;0.7937;1.1763;
453.3000;0.7945;1.1763;
453.6000;0.7945;1.1687;
453.9000;0.7937;1.1713;
454.2000;0.7912;1.1713;
454.5000;0.7953;1.1763;
454.8000;0.7953;1.1738;
455.1000;0.7961;1.1788;
455.4000;0.7969;1.1813;
455.7000;0.7937;1.1687;
456.0000;0.7969;1.1738;
456.3000;0.7945;1.1738;
456.6000;0.7961;1.1788;
456.9000;0.7961;1.1839;
457.2000;0.7953;1.1839;
457.5000;0.7961;1.1990;
457.8000;0.7928;1.2015;
458.1000;0.7945;1.2090;
458.4000;0.7985;1.2141;
458.7000;0.7953;1.2065;
459.0000;0.7961;1.2065;
459.3000;0.7953;1.1939;
459.6000;0.7953;1.1914;
459.9000;0.7953;1.1864;
460.2000;0.7953;1.1914;
460.5000;0.7945;1.1864;
460.8000;0.7961;1.1839;
461.1000;0.7985;1.1839;
461.4000;0.7977;1.1864;
461.7000;0.7977;1.1864;
462.0000;0.7977;1.1839;
462.3000;0.7977;1.1889;
462.6000;0.7961;1.1788;
462.9000;0.7969;1.1864;
463.2000;0.7961;1.1889;
463.5000;0.7969;1.1939;
463.8000;0.7969;1.1914;
464.1000;0.7961;1.1939;
464.4000;0.7928;1.1889;
464.7000;0.7937;1.1914;
465.0000;0.7896;1.1864;
465.3000;0.7945;1.2040;
465.6000;0.7961;1.2090;
465.9000;0.7904;1.1990;
466.2000;0.7961;1.2166;
466.5000;0.7961;1.2090;
466.8000;0.7945;1.2040;
467.1000;0.8026;1.2191;
467.4000;0.7945;1.1965;
467.7000;0.7961;1.1990;
468.0000;0.7961;1.2040;
468.3000;0.7969;1.2015;
468.6000;0.7961;1.1965;
468.9000;0.7977;1.2040;
469.2000;0.7945;1.1939;
469.5000;0.7937;1.1939;
469.8000;0.7937;1.1990;
470.1000;0.7969;1.2015;
470.4000;0.7928;1.1990;
470.7000;0.7945;1.1965;
471.0000;0.7961;1.1914;
471.3000;0.7937;1.1889;
471.6000;0.7953;1.1914;
471.9000;0.7953;1.1939;
472.2000;0.7961;1.1889;
472.5000;0.7945;1.1889;
472.8000;0.7961;1.1965;
473.1000;0.7945;1.1939;
473.4000;0.7961;1.1965;
473.7000;0.7953;1.2015;
474.0000;0.7945;1.2015;
474.3000;0.7937;1.2015;
474.6000;0.7937;1.1990;
474.9000;0.7953;1.2015;
475.2000;0.7945;1.2015;
475.5000;0.7945;1.2040;
475.8000;0.7945;1.1990;
476.1000;0.7953;1.2065;
476.4000;0.7961;1.2141;
476.7000;0.7953;1.2090;
477.0000;0.7937;1.2065;
477.3000;0.7969;1.2166;
477.6000;0.7961;1.2141;
477.9000;0.7969;1.2191;
478.2000;0.7969;1.2267;
478.5000;0.7945;1.2166;
478.8000;0.7961;1.2141;
479.1000;0.7977;1.2141;
479.4000;0.7945;1.2090;
479.7000;0.7953;1.2090;
480.0000;0.7961;1.2116;
480.3000;0.7953;1.2090;
480.6000;0.7953;1.2065;
480.9000;0.7961;1.2090;
481.2000;0.7953;1.2116;
481.5000;0.8050;1.2368;
481.8000;0.7969;1.2090;
482.1000;0.7961;1.2040;
482.4000;0.7961;1.2065;
482.7000;0.7945;1.2065;
483.0000;0.8018;1.2267;
483.3000;0.7945;1.2065;
483.6000;0.7953;1.2015;
483.9000;0.7953;1.2065;
484.2000;0.7937;1.2040;
484.5000;0.7937;1.1889;
484.8000;0.7953;1.1914;
485.1000;0.7953;1.1939;
485.4000;0.7953;1.1990;
485.7000;0.7953;1.2015;
486.0000;0.7920;1.1939;
486.3000;0.7969;1.2065;
486.6000;0.7953;1.2065;
486.9000;0.7953;1.2166;
487.2000;0.7937;1.1990;
487.5000;0.7953;1.2015;
487.8000;0.7961;1.2015;
488.1000;0.7945;1.1889;
488.4000;0.7969;1.1965;
488.7000;0.7928;1.1965;
489.0000;0.7961;1.2015;
489.3000;0.7904;1.1914;
489.6000;0.7953;1.2040;
489.9000;0.7937;1.1990;
490.2000;0.7928;1.2065;
490.5000;0.7945;1.2116;
490.8000;0.7953;1.1990;
491.1000;0.7945;1.1990;
491.4000;0.7961;1.2015;
491.7000;0.7937;1.2040;
492.0000;0.7969;1.2141;
492.3000;0.8010;1.2191;
492.6000;0.7904;1.1914;
492.9000;0.7985;1.1990;
493.2000;0.7937;1.1914;
493.5000;0.7977;1.2065;
493.8000;0.7961;1.1965;
494.1000;0.7969;1.2090;
494.4000;0.7961;1.2166;
494.7000;0.7937;1.2040;
495.0000;0.7953;1.1965;
495.3000;0.7937;1.1864;
495.6000;0.7969;1.2015;
495.9000;0.7953;1.2040;
496.2000;0.7961;1.2116;
496.5000;0.7937;1.2116;
496.8000;0.7953;1.2116;
497.1000;0.7953;1.2040;
497.4000;0.7945;1.2040;
497.7000;0.7912;1.1839;
498.0000;0.7945;1.1914;
498.3000;0.7953;1.2015;
498.6000;0.7945;1.2065;
498.9000;0.7945;1.2040;
499.2000;0.7969;1.1965;
499.5000;0.7969;1.2040;
499.8000;0.7937;1.2015;
500.1000;0.7937;1.2065;
500.4000;0.7945;1.2065;
500.7000;0.7937;1.1990;
501.0000;0.7937;1.1965;
501.3000;0.7928;1.2065;
501.6000;0.7945;1.2116;
501.9000;0.7953;1.2040;
502.2000;0.7928;1.1990;
502.5000;0.7937;1.2015;
502.8000;0.7945;1.1939;
503.1000;0.7969;1.1990;
503.4000;0.7945;1.1939;
503.7000;0.8018;1.2141;
504.0000;0.7945;1.1939;
504.3000;0.7961;1.2116;
504.6000;0.7945;1.2141;
504.9000;0.7945;1.2065;
505.2000;0.7920;1.1965;
505.5000;0.7969;1.2065;
505.8000;0.7945;1.2015;
506.1000;0.7961;1.2090;
506.4000;0.7945;1.2040;
506.7000;0.7953;1.2040;
507.0000;0.7912;1.2015;
507.3000;0.7953;1.2090;
507.6000;0.7953;1.2065;
507.9000;0.7912;1.2015;
508.2000;0.8010;1.2216;
508.5000;0.7945;1.2015;
508.8000;0.7945;1.2065;
509.1000;0.7937;1.2015;
509.4000;0.7969;1.2116;
509.7000;0.7953;1.1990;
510.0000;0.7920;1.1939;
510.3000;0.7945;1.2090;
510.6000;0.7953;1.2191;
510.9000;0.7953;1.2141;
511.2000;0.7871;1.1889;
511.5000;0.7937;1.2065;
511.8000;0.7953;1.2090;
512.1000;0.7961;1.2090;
512.4000;0.7945;1.2090;
512.7000;0.7993;1.2191;
513.0000;0.7985;1.2116;
513.3000;0.7920;1.1939;
513.6000;0.7961;1.1990;
513.9000;0.7945;1.1990;
514.2000;0.7953;1.2015;
514.5000;0.7945;1.1965;
514.8000;0.7945;1.1939;
515.1000;0.8034;1.2090;
515.4000;0.7961;1.1914;
515.7000;0.7961;1.1990;
516.0000;0.7969;1.2090;
516.3000;0.7945;1.2015;
516.6000;0.7928;1.1939;
516.9000;0.7920;1.1990;
517.2000;0.7969;1.2116;
517.5000;0.7953;1.2040;
517.8000;0.7945;1.2090;
518.1000;0.7945;1.2116;
518.4000;0.7961;1.2141;
518.7000;0.7945;1.2090;
519.0000;0.7928;1.1990;
519.3000;0.7945;1.1990;
519.6000;0.7945;1.1990;
519.9000;0.7961;1.2040;
520.2000;0.7945;1.1990;
520.5000;0.7928;1.2015;
520.8000;0.7937;1.2040;
521.1000;0.7953;1.2090;
521.4000;0.7953;1.2065;
521.7000;0.7953;1.2090;
522.0000;0.7937;1.1990;
522.3000;0.7969;1.2040;
522.6000;0.7969;1.1990;
522.9000;0.7977;1.1965;
523.2000;0.7953;1.1889;
523.5000;0.7977;1.1914;
523.8000;0.8002;1.1939;
524.1000;0.7937;1.1788;
524.4000;0.7945;1.1813;
524.7000;0.7961;1.1788;
525.0000;0.7977;1.1788;
525.3000;0.7953;1.1687;
525.6000;0.7961;1.1788;
525.9000;0.7937;1.1763;
526.2000;0.7937;1.1738;
526.5000;0.7937;1.1813;
526.8000;0.7937;1.1788;
527.1000;0.7969;1.1813;
527.4000;0.7961;1.1839;
527.7000;0.7945;1.1889;
528.0000;0.7953;1.1839;
528.3000;0.7953;1.1839;
528.6000;0.7969;1.1839;
528.9000;0.7953;1.1914;
529.2000;0.7961;1.1965;
529.5000;0.7953;1.1965;
529.8000;0.7961;1.1939;
530.1000;0.7993;1.1965;
530.4000;0.7937;1.1864;
530.7000;0.7953;1.1965;
531.0000;0.7937;1.1965;
531.3000;0.7961;1.1939;
531.6000;0.7961;1.1939;
531.9000;0.7961;1.1965;
532.2000;0.7945;1.1965;
532.5000;0.7928;1.1939;
532.8000;0.7937;1.1788;
533.1000;0.7945;1.1813;
533.4000;0.7945;1.1788;
533.7000;0.7953;1.1813;
534.0000;0.7953;1.1788;
534.3000;0.7912;1.1612;
534.6000;0.7953;1.1788;
534.9000;0.7937;1.1788;
535.2000;0.7928;1.1864;
535.5000;0.8075;1.2317;
535.8000;0.7937;1.1889;
536.1000;0.7953;1.1939;
536.4000;0.7961;1.2116;
536.7000;0.7953;1.2040;
537.0000;0.7953;1.2015;
537.3000;0.7993;1.2065;
537.6000;0.7953;1.1889;
537.9000;0.8002;1.2065;
538.2000;0.7945;1.1889;
538.5000;0.7961;1.1864;
538.8000;0.7920;1.1813;
539.1000;0.7945;1.1839;
539.4000;0.7961;1.1864;
539.7000;0.7961;1.1864;
540.0000;0.7945;1.1839;
540.3000;0.7961;1.1939;
540.6000;0.7920;1.1839;
540.9000;0.7937;1.1813;
541.2000;0.7961;1.1939;
541.5000;0.7945;1.1889;
541.8000;0.7953;1.1914;
542.1000;0.7945;1.1965;
542.4000;0.7961;1.1990;
542.7000;0.7937;1.1990;
543.0000;0.7920;1.1889;
543.3000;0.7945;1.2015;
543.6000;0.7953;1.1965;
543.9000;0.7937;1.1939;
544.2000;0.7953;1.1990;
544.5000;0.7953;1.2065;
544.8000;0.7839;1.1738;
545.1000;0.7945;1.2141;
545.4000;0.7937;1.2141;
545.7000;0.7953;1.2116;
546.0000;0.7920;1.1939;
546.3000;0.7920;1.1965;
546.6000;0.7945;1.1965;
546.9000;0.7993;1.1990;
547.2000;0.7937;1.1864;
547.5000;0.7953;1.1939;
547.8000;0.7937;1.2015;
548.1000;0.7937;1.2015;
548.4000;0.7937;1.1990;
548.7000;0.7969;1.2040;
549.0000;0.7937;1.1914;
549.3000;0.7945;1.1914;
549.6000;0.7945;1.1839;
549.9000;0.7945;1.1864;
550.2000;0.7945;1.1864;
550.5000;0.7945;1.1864;
550.8000;0.7928;1.1864;
551.1000;0.7920;1.1839;
551.4000;0.7953;1.1864;
551.7000;0.7928;1.1788;
552.0000;0.7920;1.1939;
552.3000;0.7937;1.1990;
552.6000;0.7953;1.1990;
552.9000;0.7961;1.1990;
553.2000;0.7953;1.1990;
553.5000;0.7961;1.1939;
553.8000;0.7961;1.1990;
554.1000;0.7961;1.2015;
554.4000;0.7953;1.2116;
554.7000;0.7953;1.2141;
555.0000;0.7945;1.2191;
555.3000;0.7945;1.2141;
555.6000;0.7961;1.2242;
555.9000;0.7945;1.2191;
556.2000;0.7977;1.2267;
556.5000;0.7945;1.2065;
556.8000;0.7937;1.2040;
557.1000;0.7928;1.2015;
557.4000;0.7888;1.1914;
557.7000;0.7904;1.1965;
558.0000;0.7928;1.2015;
558.3000;0.7953;1.2116;
558.6000;0.7945;1.2090;
558.9000;0.7945;1.2065;
559.2000;0.7928;1.1914;
559.5000;0.7896;1.1813;
559.8000;0.7937;1.1939;
560.1000;0.7993;1.2090;
560.4000;0.7945;1.1990;
560.7000;0.7945;1.2040;
561.0000;0.7945;1.2065;
561.3000;0.7928;1.1939;
561.6000;0.7937;1.1965;
561.9000;0.7920;1.1889;
562.2000;0.7945;1.1889;
562.5000;0.7928;1.1939;
562.8000;0.7937;1.1914;
563.1000;0.7945;1.2015;
563.4000;0.7953;1.2166;
563.7000;0.7953;1.2166;
564.0000;0.7912;1.1990;
564.3000;0.7945;1.2090;
564.6000;0.7969;1.2191;
564.9000;0.7928;1.2015;
565.2000;0.7977;1.2242;
565.5000;0.7945;1.2267;
565.8000;0.7928;1.2216;
566.1000;0.7953;1.2090;
566.4000;0.7953;1.2090;
566.7000;0.7945;1.1965;
567.0000;0.7945;1.1990;
567.3000;0.7928;1.2015;
567.6000;0.7953;1.2040;
567.9000;0.7928;1.1965;
568.2000;0.7953;1.2090;
568.5000;0.7945;1.2116;
568.8000;0.7928;1.2166;
569.1000;0.7945;1.2242;
569.4000;0.7953;1.2267;
569.7000;0.7920;1.2216;
570.0000;0.7953;1.2267;
570.3000;0.7920;1.2242;
570.6000;0.7937;1.2216;
570.9000;0.7953;1.2191;
571.2000;0.7961;1.2166;
571.5000;0.7937;1.2216;
571.8000;0.7945;1.2166;
572.1000;0.7928;1.2116;
572.4000;0.7928;1.2065;
572.7000;0.7961;1.2216;
573.0000;0.7937;1.2242;
573.3000;0.7937;1.2342;
573.6000;0.7945;1.2342;
573.9000;0.7953;1.2342;
574.2000;0.7945;1.2292;
574.5000;0.7953;1.2368;
574.8000;0.7977;1.2443;
575.1000;0.7945;1.2368;
575.4000;0.7953;1.2368;
575.7000;0.7969;1.2418;
576.0000;0.7904;1.2166;
576.3000;0.7969;1.2216;
576.6000;0.7945;1.2040;
576.9000;0.7937;1.2065;
577.2000;0.7969;1.2116;
577.5000;0.7937;1.2065;
577.8000;0.7953;1.2141;
578.1000;0.7928;1.2166;
578.4000;0.8002;1.2368;
578.7000;0.7928;1.2292;
579.0000;0.7904;1.2292;
579.3000;0.7937;1.2216;
579.6000;0.7953;1.2242;
579.9000;0.7928;1.2191;
580.2000;0.8018;1.2418;
580.5000;0.8018;1.2342;
580.8000;0.7937;1.2166;
581.1000;0.7953;1.2242;
581.4000;0.7888;1.2116;
581.7000;0.7920;1.2216;
582.0000;0.7823;1.1813;
582.3000;0.7912;1.2040;
582.6000;0.7961;1.2116;
582.9000;0.7920;1.1990;
583.2000;0.7977;1.2166;
583.5000;0.7937;1.2090;
583.8000;0.7945;1.2116;
584.1000;0.7969;1.2116;
584.4000;0.7920;1.2065;
584.7000;0.7928;1.2141;
585.0000;0.7937;1.2116;
585.3000;0.7855;1.1813;
585.6000;0.7937;1.2040;
585.9000;0.7961;1.2015;
586.2000;0.7977;1.2090;
586.5000;0.7937;1.1939;
586.8000;0.7888;1.1914;
587.1000;0.7993;1.2242;
587.4000;0.7920;1.2116;
587.7000;0.7945;1.2166;
588.0000;0.7953;1.2116;
588.3000;0.7945;1.2015;
588.6000;0.7945;1.2015;
588.9000;0.7928;1.1914;
589.2000;0.7937;1.1839;
589.5000;0.7961;1.1939;
589.8000;0.7953;1.1965;
590.1000;0.7961;1.2065;
590.4000;0.7912;1.1914;
590.7000;0.7920;1.1914;
591.0000;0.7953;1.2015;
591.3000;0.7928;1.2015;
591.6000;0.7920;1.1939;
591.9000;0.7937;1.1889;
592.2000;0.7928;1.1965;
592.5000;0.7969;1.2040;
592.8000;0.7912;1.1914;
593.1000;0.7928;1.2040;
593.4000;0.7904;1.2015;
593.7000;0.7937;1.2040;
594.0000;0.7928;1.1990;
594.3000;0.7920;1.1990;
594.6000;0.7945;1.2065;
594.9000;0.7953;1.2166;
595.2000;0.7937;1.2090;
595.5000;0.7993;1.2191;
595.8000;0.7928;1.2090;
596.1000;0.7928;1.2040;
596.4000;0.7945;1.2090;
596.7000;0.7928;1.2090;
597.0000;0.7953;1.2166;
597.3000;0.7945;1.2166;
597.6000;0.7937;1.2065;
597.9000;0.8018;1.2292;
598.2000;0.7937;1.2216;
598.5000;0.7937;1.2166;
598.8000;0.7945;1.2166;
599.1000;0.7961;1.2141;
599.4000;0.7945;1.2141;
599.7000;0.7937;1.2090;
600.0000;0.7937;1.2065;
600.3000;0.7953;1.1839;
600.6000;0.7953;1.1713;
600.9000;0.7928;1.1511;
601.2000;0.7888;1.1335;
601.5000;0.7839;1.1184;
601.8000;0.7774;1.0982;
602.1000;0.7692;1.0755;
602.4000;0.7692;1.0755;
602.7000;0.7578;1.0529;
603.0000;0.7546;1.0378;
603.3000;0.7473;1.0227;
603.6000;0.7399;0.9975;
603.9000;0.7399;1.0126;
604.2000;0.7359;1.0025;
604.5000;0.7310;0.9924;
604.8000;0.7269;0.9874;
605.1000;0.7228;0.9773;
605.4000;0.7196;0.9748;
605.7000;0.7139;0.9698;
606.0000;0.7123;0.9672;
606.3000;0.7066;0.9647;
606.6000;0.7041;0.9647;
606.9000;0.6992;0.9496;
607.2000;0.6960;0.9446;
607.5000;0.6927;0.9395;
607.8000;0.6854;0.9143;
608.1000;0.6878;0.9244;
608.4000;0.6862;0.9219;
608.7000;0.6821;0.9219;
609.0000;0.6821;0.9169;
609.3000;0.6772;0.8992;
609.6000;0.6756;0.8866;
609.9000;0.6724;0.8967;
610.2000;0.6707;0.8967;
610.5000;0.6683;0.9017;
610.8000;0.6659;0.8967;
611.1000;0.6610;0.8766;
611.4000;0.6610;0.8740;
611.7000;0.6512;0.8539;
612.0000;0.6577;0.8816;
612.3000;0.6536;0.8816;
612.6000;0.6553;0.8942;
612.9000;0.6455;0.8766;
613.2000;0.6463;0.8816;
613.5000;0.6455;0.8690;
613.8000;0.6431;0.8690;
614.1000;0.6422;0.8690;
614.4000;0.6390;0.8690;
614.7000;0.6365;0.8665;
615.0000;0.6357;0.8640;
615.3000;0.6341;0.8766;
615.6000;0.6333;0.8791;
615.9000;0.6317;0.8665;
616.2000;0.6292;0.8564;
616.5000;0.6292;0.8564;
616.8000;0.6252;0.8514;
617.1000;0.6227;0.8463;
617.4000;0.6227;0.8463;
617.7000;0.6211;0.8438;
618.0000;0.6260;0.8564;
618.3000;0.6170;0.8337;
618.6000;0.6178;0.8312;
618.9000;0.6162;0.8262;
619.2000;0.6146;0.8388;
619.5000;0.6154;0.8388;
619.8000;0.6105;0.8312;
620.1000;0.6089;0.8262;
620.4000;0.6081;0.8262;
620.7000;0.6081;0.8337;
621.0000;0.6072;0.8337;
621.3000;0.6064;0.8262;
621.6000;0.6032;0.8161;
621.9000;0.6089;0.8287;
622.2000;0.5942;0.7985;
622.5000;0.5991;0.8161;
622.8000;0.5999;0.8237;
623.1000;0.6007;0.8211;
623.4000;0.5950;0.8086;
623.7000;0.5934;0.7985;
624.0000;0.5942;0.8010;
624.3000;0.5926;0.8035;
624.6000;0.5942;0.8060;
624.9000;0.5902;0.8010;
625.2000;0.5877;0.8136;
625.5000;0.5918;0.8237;
625.8000;0.5877;0.8111;
626.1000;0.5853;0.8111;
626.4000;0.5861;0.8186;
626.7000;0.5796;0.8111;
627.0000;0.5828;0.8237;
627.3000;0.5828;0.8312;
627.6000;0.5861;0.8363;
627.9000;0.5820;0.8211;
628.2000;0.5804;0.8237;
628.5000;0.5788;0.8237;
628.8000;0.5788;0.8237;
629.1000;0.5763;0.8262;
629.4000;0.5771;0.8312;
629.7000;0.5788;0.8363;
630.0000;0.5771;0.8312;
630.3000;0.5763;0.8312;
630.6000;0.5763;0.8262;
630.9000;0.5739;0.8211;
631.2000;0.5722;0.8136;
631.5000;0.5722;0.8161;
631.8000;0.5722;0.8060;
632.1000;0.5714;0.8035;
632.4000;0.5698;0.8010;
632.7000;0.5755;0.8136;
633.0000;0.5690;0.8060;
633.3000;0.5682;0.8010;
633.6000;0.5682;0.8035;
633.9000;0.5657;0.7960;
634.2000;0.5674;0.7909;
634.5000;0.5657;0.7909;
634.8000;0.5641;0.7884;
635.1000;0.5649;0.7909;
635.4000;0.5641;0.7859;
635.7000;0.5617;0.7909;
636.0000;0.5674;0.8035;
636.3000;0.5617;0.7909;
636.6000;0.5600;0.7808;
636.9000;0.5576;0.7859;
637.2000;0.5617;0.7934;
637.5000;0.5592;0.7934;
637.8000;0.5600;0.8086;
638.1000;0.5551;0.8010;
638.4000;0.5576;0.8010;
638.7000;0.5584;0.8035;
639.0000;0.5560;0.8086;
639.3000;0.5560;0.8136;
639.6000;0.5543;0.8111;
639.9000;0.5535;0.8111;
640.2000;0.5535;0.8111;
640.5000;0.5543;0.8161;
640.8000;0.5535;0.8161;
641.1000;0.5535;0.8136;
641.4000;0.5495;0.7985;
641.7000;0.5486;0.8086;
642.0000;0.5527;0.8136;
642.3000;0.5519;0.8035;
642.6000;0.5495;0.7960;
642.9000;0.5486;0.7884;
643.2000;0.5503;0.7985;
643.5000;0.5495;0.7985;
643.8000;0.5495;0.7985;
644.1000;0.5478;0.7985;
644.4000;0.5462;0.7934;
644.7000;0.5495;0.7985;
645.0000;0.5478;0.8035;
645.3000;0.5446;0.8060;
645.6000;0.5429;0.8010;
645.9000;0.5454;0.8111;
646.2000;0.5446;0.8086;
646.5000;0.5470;0.8136;
646.8000;0.5429;0.7985;
647.1000;0.5446;0.8060;
647.4000;0.5429;0.8010;
647.7000;0.5438;0.8035;
648.0000;0.5421;0.7985;
648.3000;0.5421;0.7985;
648.6000;0.5454;0.8161;
648.9000;0.5470;0.8186;
649.2000;0.5397;0.7909;
649.5000;0.5413;0.8010;
649.8000;0.5478;0.8186;
650.1000;0.5405;0.8035;
650.4000;0.5372;0.7960;
650.7000;0.5372;0.7985;
651.0000;0.5389;0.8035;
651.3000;0.5397;0.8111;
651.6000;0.5397;0.8111;
651.9000;0.5413;0.8161;
652.2000;0.5356;0.8086;
652.5000;0.5429;0.8287;
652.8000;0.5372;0.8161;
653.1000;0.5364;0.8136;
653.4000;0.5348;0.8060;
653.7000;0.5381;0.8186;
654.0000;0.5340;0.8111;
654.3000;0.5348;0.8035;
654.6000;0.5340;0.7960;
654.9000;0.5389;0.8010;
655.2000;0.5356;0.7884;
655.5000;0.5340;0.7808;
655.8000;0.5348;0.7783;
656.1000;0.5364;0.7834;
656.4000;0.5348;0.7834;
656.7000;0.5356;0.7834;
657.0000;0.5348;0.7783;
657.3000;0.5324;0.7758;
657.6000;0.5315;0.7808;
657.9000;0.5307;0.7758;
658.2000;0.5234;0.7582;
658.5000;0.5315;0.7859;
658.8000;0.5299;0.7834;
659.1000;0.5315;0.7884;
659.4000;0.5275;0.7834;
659.7000;0.5275;0.7884;
660.0000;0.5324;0.8010;
660.3000;0.5299;0.7985;
660.6000;0.5275;0.7909;
660.9000;0.5283;0.7859;
661.2000;0.5275;0.7884;
661.5000;0.5275;0.8035;
661.8000;0.5291;0.8060;
662.1000;0.5275;0.7985;
662.4000;0.5242;0.7909;
662.7000;0.5291;0.7985;
663.0000;0.5299;0.7909;
663.3000;0.5258;0.7834;
663.6000;0.5258;0.7859;
663.9000;0.5267;0.7960;
664.2000;0.5258;0.7884;
664.5000;0.5250;0.7960;
664.8000;0.5250;0.7934;
665.1000;0.5242;0.7909;
665.4000;0.5258;0.7960;
665.7000;0.5258;0.7884;
666.0000;0.5242;0.7960;
666.3000;0.5234;0.7960;
666.6000;0.5234;0.7960;
666.9000;0.5234;0.7934;
667.2000;0.5258;0.8010;
667.5000;0.5226;0.7884;
667.8000;0.5258;0.7960;
668.1000;0.5315;0.8161;
668.4000;0.5250;0.8035;
668.7000;0.5250;0.8010;
669.0000;0.5218;0.8010;
669.3000;0.5226;0.8035;
669.6000;0.5218;0.8035;
669.9000;0.5218;0.8111;
670.2000;0.5234;0.8186;
670.5000;0.5218;0.8111;
670.8000;0.5177;0.7985;
671.1000;0.5136;0.7834;
671.4000;0.5169;0.7985;
671.7000;0.5218;0.8010;
672.0000;0.5210;0.7960;
672.3000;0.5275;0.8161;
672.6000;0.5210;0.7960;
672.9000;0.5201;0.7934;
673.2000;0.5193;0.7934;
673.5000;0.5161;0.7859;
673.8000;0.5185;0.7960;
674.1000;0.5201;0.8035;
674.4000;0.5161;0.8035;
674.7000;0.5169;0.8136;
675.0000;0.5234;0.8262;
675.3000;0.5210;0.8211;
675.6000;0.5161;0.8111;
675.9000;0.5177;0.8060;
676.2000;0.5169;0.8035;
676.5000;0.5169;0.8086;
676.8000;0.5153;0.8060;
677.1000;0.5177;0.8161;
677.4000;0.5153;0.8086;
677.7000;0.5161;0.8086;
678.0000;0.5161;0.8086;
678.3000;0.5177;0.8086;
678.6000;0.5169;0.8060;
678.9000;0.5177;0.8060;
679.2000;0.5161;0.7985;
679.5000;0.5161;0.8060;
679.8000;0.5136;0.7985;
680.1000;0.5177;0.8111;
680.4000;0.5161;0.8035;
680.7000;0.5161;0.7985;
681.0000;0.5128;0.7960;
681.3000;0.5136;0.7985;
681.6000;0.5161;0.8035;
681.9000;0.5120;0.7909;
682.2000;0.5161;0.7985;
682.5000;0.5153;0.7985;
682.8000;0.5128;0.7985;
683.1000;0.5120;0.7909;
683.4000;0.5128;0.7909;
683.7000;0.5071;0.7733;
684.0000;0.5128;0.7884;
684.3000;0.5120;0.7733;
684.6000;0.5120;0.7834;
684.9000;0.5079;0.7909;
685.2000;0.5120;0.8035;
685.5000;0.5128;0.8237;
685.8000;0.5112;0.8262;
686.1000;0.5112;0.8312;
686.4000;0.5144;0.8337;
686.7000;0.5104;0.8337;
687.0000;0.5096;0.8363;
687.3000;0.5079;0.8312;
687.6000;0.5104;0.8388;
687.9000;0.5128;0.8438;
688.2000;0.5104;0.8312;
688.5000;0.5096;0.8312;
688.8000;0.5112;0.8337;
689.1000;0.5169;0.8438;
689.4000;0.5079;0.8161;
689.7000;0.5088;0.8237;
690.0000;0.5063;0.8186;
690.3000;0.5096;0.8287;
690.6000;0.5096;0.8287;
690.9000;0.5096;0.8287;
691.2000;0.5079;0.8287;
691.5000;0.5096;0.8312;
691.8000;0.5104;0.8287;
692.1000;0.5079;0.8136;
692.4000;0.5088;0.8186;
692.7000;0.5088;0.8086;
693.0000;0.5079;0.8010;
693.3000;0.5047;0.7909;
693.6000;0.5071;0.8010;
693.9000;0.5063;0.7985;
694.2000;0.5022;0.7985;
694.5000;0.5079;0.8136;
694.8000;0.5071;0.8136;
695.1000;0.5039;0.8111;
695.4000;0.5079;0.8186;
695.7000;0.5063;0.8186;
696.0000;0.5071;0.8161;
696.3000;0.5071;0.8136;
696.6000;0.5055;0.8086;
696.9000;0.5063;0.8111;
697.2000;0.5055;0.7985;
697.5000;0.4998;0.7808;
697.8000;0.5055;0.7909;
698.1000;0.5055;0.7834;
698.4000;0.5161;0.8161;
698.7000;0.5039;0.7834;
699.0000;0.5055;0.7909;
699.3000;0.5039;0.7834;
699.6000;0.5055;0.7909;
699.9000;0.5063;0.7884;
700.2000;0.5031;0.7834;
700.5000;0.5047;0.7985;
700.8000;0.5047;0.8010;
701.1000;0.5079;0.8111;
701.4000;0.5055;0.8035;
701.7000;0.5079;0.8060;
702.0000;0.5047;0.8035;
702.3000;0.5031;0.8136;
702.6000;0.5022;0.8010;
702.9000;0.5039;0.8060;
703.2000;0.4990;0.8035;
703.5000;0.5047;0.8211;
703.8000;0.5022;0.8186;
704.1000;0.5022;0.8161;
704.4000;0.5031;0.8111;
704.7000;0.5039;0.8111;
705.0000;0.5055;0.8186;
705.3000;0.5031;0.8186;
705.6000;0.5096;0.8262;
705.9000;0.5047;0.8060;
706.2000;0.5031;0.8136;
706.5000;0.5022;0.8161;
706.8000;0.5022;0.8136;
707.1000;0.5014;0.8010;
707.4000;0.5031;0.7960;
707.7000;0.5006;0.7960;
708.0000;0.5014;0.7960;
708.3000;0.5022;0.8086;
708.6000;0.5071;0.8161;
708.9000;0.4933;0.7834;
709.2000;0.5022;0.8035;
709.5000;0.5031;0.8287;
709.8000;0.5031;0.8287;
710.1000;0.5006;0.8237;
710.4000;0.5039;0.8337;
710.7000;0.5014;0.8262;
711.0000;0.5022;0.8262;
711.3000;0.5031;0.8237;
711.6000;0.5006;0.8186;
711.9000;0.5006;0.8086;
712.2000;0.5014;0.8211;
712.5000;0.5014;0.8211;
712.8000;0.4998;0.8186;
713.1000;0.5006;0.8287;
713.4000;0.4998;0.8287;
713.7000;0.5014;0.8211;
714.0000;0.5022;0.8161;
714.3000;0.4998;0.8111;
714.6000;0.4990;0.8060;
714.9000;0.5014;0.8161;
715.2000;0.5039;0.8237;
715.5000;0.5006;0.8161;
715.8000;0.5022;0.8111;
716.1000;0.5014;0.8086;
716.4000;0.4998;0.8136;
716.7000;0.4990;0.8161;
717.0000;0.4990;0.8136;
717.3000;0.4974;0.8161;
717.6000;0.4990;0.8136;
717.9000;0.4982;0.8136;
718.2000;0.4990;0.8010;
718.5000;0.4982;0.7985;
718.8000;0.4990;0.7960;
719.1000;0.4974;0.7884;
719.4000;0.4974;0.7934;
719.7000;0.4982;0.8010;
720.0000;0.4949;0.7859;
720.3000;0.4998;0.7960;
720.6000;0.4974;0.7909;
720.9000;0.4974;0.7960;
721.2000;0.5006;0.8060;
721.5000;0.4974;0.8010;
721.8000;0.4990;0.8035;
722.1000;0.4998;0.8035;
722.4000;0.4998;0.8010;
722.7000;0.4965;0.7934;
723.0000;0.4974;0.8086;
723.3000;0.4965;0.8111;
723.6000;0.4965;0.8035;
723.9000;0.4957;0.7960;
724.2000;0.4965;0.7834;
724.5000;0.4965;0.7934;
724.8000;0.4949;0.7960;
725.1000;0.4974;0.8136;
725.4000;0.4974;0.8186;
725.7000;0.4957;0.8111;
726.0000;0.4965;0.8186;
726.3000;0.4949;0.8136;
726.6000;0.4974;0.8111;
726.9000;0.4974;0.8186;
727.2000;0.4965;0.8161;
727.5000;0.4974;0.8161;
727.8000;0.4965;0.8136;
728.1000;0.4965;0.8161;
728.4000;0.4957;0.8086;
728.7000;0.4965;0.8136;
729.0000;0.4965;0.8111;
729.3000;0.4949;0.8086;
729.6000;0.4908;0.7985;
729.9000;0.5006;0.8287;
730.2000;0.4941;0.8262;
730.5000;0.4965;0.8363;
730.8000;0.4965;0.8363;
731.1000;0.4949;0.8237;
731.4000;0.4949;0.8211;
731.7000;0.4949;0.8211;
732.0000;0.4933;0.8136;
732.3000;0.4965;0.8060;
732.6000;0.4974;0.8111;
732.9000;0.4941;0.8111;
733.2000;0.4965;0.8186;
733.5000;0.4982;0.8363;
733.8000;0.4957;0.8363;
734.1000;0.4957;0.8337;
734.4000;0.4917;0.8161;
734.7000;0.4917;0.8237;
735.0000;0.5006;0.8438;
735.3000;0.4933;0.8237;
735.6000;0.4949;0.8287;
735.9000;0.4957;0.8388;
736.2000;0.4933;0.8312;
736.5000;0.4925;0.8211;
736.8000;0.4876;0.8086;
737.1000;0.4949;0.8337;
737.4000;0.4917;0.8262;
737.7000;0.4941;0.8413;
738.0000;0.4998;0.8539;
738.3000;0.4949;0.8388;
738.6000;0.4917;0.8262;
738.9000;0.4957;0.8337;
739.2000;0.4957;0.8363;
739.5000;0.4925;0.8312;
739.8000;0.4941;0.8312;
740.1000;0.5006;0.8489;
740.4000;0.4957;0.8262;
740.7000;0.4908;0.8262;
741.0000;0.4900;0.8237;
741.3000;0.4925;0.8363;
741.6000;0.4941;0.8413;
741.9000;0.4990;0.8489;
742.2000;0.4957;0.8337;
742.5000;0.4941;0.8211;
742.8000;0.4957;0.8262;
743.1000;0.4933;0.8237;
743.4000;0.4949;0.8186;
743.7000;0.4941;0.8211;
744.0000;0.4941;0.8186;
744.3000;0.4941;0.8136;
744.6000;0.4941;0.8237;
744.9000;0.4933;0.8237;
745.2000;0.4957;0.8337;
745.5000;0.4917;0.8287;
745.8000;0.4925;0.8337;
746.1000;0.4925;0.8438;
746.4000;0.4933;0.8514;
746.7000;0.4925;0.8489;
747.0000;0.4917;0.8489;
747.3000;0.4925;0.8539;
747.6000;0.4941;0.8514;
747.9000;0.4965;0.8589;
748.2000;0.4917;0.8413;
748.5000;0.4908;0.8438;
748.8000;0.4884;0.8413;
749.1000;0.4933;0.8539;
749.4000;0.4908;0.8463;
749.7000;0.4917;0.8312;
750.0000;0.4908;0.8337;
750.3000;0.4925;0.8363;
750.6000;0.4900;0.8312;
750.9000;0.4900;0.8363;
751.2000;0.4917;0.8463;
751.5000;0.4925;0.8413;
751.8000;0.4925;0.8388;
752.1000;0.4900;0.8287;
752.4000;0.4917;0.8287;
752.7000;0.4908;0.8363;
753.0000;0.4925;0.8413;
753.3000;0.4900;0.8388;
753.6000;0.4892;0.8337;
753.9000;0.4925;0.8388;
754.2000;0.4917;0.8312;
754.5000;0.4941;0.8363;
754.8000;0.4900;0.8262;
755.1000;0.4892;0.8312;
755.4000;0.4843;0.8237;
755.7000;0.4884;0.8337;
756.0000;0.4949;0.8564;
756.3000;0.4900;0.8489;
756.6000;0.4892;0.8514;
756.9000;0.4908;0.8489;
757.2000;0.4925;0.8438;
757.5000;0.4917;0.8388;
757.8000;0.4900;0.8337;
758.1000;0.4892;0.8312;
758.4000;0.4917;0.8337;
758.7000;0.4933;0.8463;
759.0000;0.4900;0.8463;
759.3000;0.4884;0.8413;
759.6000;0.4876;0.8337;
759.9000;0.4884;0.8388;
760.2000;0.4892;0.8438;
760.5000;0.4908;0.8413;
760.8000;0.4908;0.8489;
761.1000;0.4884;0.8463;
761.4000;0.4908;0.8539;
761.7000;0.4884;0.8463;
762.0000;0.4900;0.8489;
762.3000;0.4884;0.8463;
762.6000;0.4900;0.8564;
762.9000;0.4900;0.8640;
763.2000;0.4900;0.8564;
763.5000;0.4884;0.8463;
763.8000;0.4892;0.8388;
764.1000;0.4892;0.8413;
764.4000;0.4917;0.8413;
764.7000;0.4892;0.8312;
765.0000;0.4819;0.8136;
765.3000;0.4876;0.8312;
765.6000;0.4876;0.8388;
765.9000;0.4827;0.8287;
766.2000;0.4917;0.8463;
766.5000;0.4876;0.8388;
766.8000;0.4892;0.8413;
767.1000;0.4892;0.8489;
767.4000;0.4925;0.8614;
767.7000;0.4827;0.8337;
768.0000;0.4884;0.8514;
768.3000;0.4868;0.8463;
768.6000;0.4908;0.8539;
768.9000;0.4892;0.8463;
769.2000;0.4827;0.8388;
769.5000;0.4884;0.8489;
769.8000;0.4884;0.8489;
770.1000;0.4868;0.8463;
770.4000;0.4868;0.8463;
770.7000;0.4900;0.8514;
771.0000;0.4860;0.8438;
771.3000;0.4876;0.8438;
771.6000;0.4892;0.8413;
771.9000;0.4892;0.8463;
772.2000;0.4917;0.8489;
772.5000;0.4884;0.8413;
772.8000;0.4851;0.8262;
773.1000;0.4884;0.8489;
773.4000;0.4884;0.8514;
773.7000;0.4884;0.8489;
774.0000;0.4884;0.8539;
774.3000;0.4794;0.8186;
774.6000;0.4884;0.8388;
774.9000;0.4892;0.8539;
775.2000;0.4868;0.8438;
775.5000;0.4843;0.8413;
775.8000;0.4876;0.8489;
776.1000;0.4884;0.8413;
776.4000;0.4900;0.8438;
776.7000;0.4884;0.8363;
777.0000;0.4876;0.8438;
777.3000;0.4884;0.8363;
777.6000;0.4876;0.8388;
777.9000;0.4876;0.8463;
778.2000;0.4884;0.8489;
778.5000;0.4884;0.8463;
778.8000;0.4851;0.8337;
779.1000;0.4933;0.8614;
779.4000;0.4917;0.8539;
779.7000;0.4860;0.8363;
780.0000;0.4860;0.8388;
780.3000;0.4835;0.8287;
780.6000;0.4860;0.8413;
780.9000;0.4794;0.8186;
781.2000;0.4876;0.8438;
781.5000;0.4860;0.8413;
781.8000;0.4835;0.8312;
782.1000;0.4868;0.8438;
782.4000;0.4868;0.8514;
782.7000;0.4868;0.8514;
783.0000;0.4843;0.8438;
783.3000;0.4860;0.8438;
783.6000;0.4876;0.8413;
783.9000;0.4843;0.8337;
784.2000;0.4876;0.8388;
784.5000;0.4860;0.8363;
784.8000;0.4876;0.8413;
785.1000;0.4868;0.8337;
785.4000;0.4860;0.8388;
785.7000;0.4868;0.8438;
786.0000;0.4851;0.8413;
786.3000;0.4876;0.8413;
786.6000;0.4860;0.8388;
786.9000;0.4860;0.8388;
787.2000;0.4851;0.8388;
787.5000;0.4851;0.8363;
787.8000;0.4851;0.8413;
788.1000;0.4851;0.8489;
788.4000;0.4860;0.8463;
788.7000;0.4851;0.8388;
789.0000;0.4851;0.8388;
789.3000;0.4868;0.8589;
789.6000;0.4851;0.8589;
789.9000;0.4957;0.8892;
790.2000;0.4868;0.8564;
790.5000;0.4851;0.8489;
790.8000;0.4835;0.8388;
791.1000;0.4868;0.8463;
791.4000;0.4843;0.8363;
791.7000;0.4868;0.8337;
792.0000;0.4860;0.8363;
792.3000;0.4884;0.8413;
792.6000;0.4868;0.8388;
792.9000;0.4843;0.8312;
793.2000;0.4884;0.8438;
793.5000;0.4851;0.8489;
793.8000;0.4851;0.8514;
794.1000;0.4827;0.8514;
794.4000;0.4843;0.8564;
794.7000;0.4860;0.8640;
795.0000;0.4860;0.8640;
795.3000;0.4876;0.8690;
795.6000;0.4843;0.8614;
795.9000;0.4819;0.8539;
796.2000;0.4843;0.8438;
796.5000;0.4851;0.8489;
796.8000;0.4851;0.8564;
797.1000;0.4851;0.8640;
797.4000;0.4860;0.8489;
797.7000;0.4827;0.8388;
798.0000;0.4860;0.8413;
798.3000;0.4843;0.8463;
798.6000;0.4860;0.8489;
798.9000;0.4860;0.8514;
799.2000;0.4860;0.8539;
799.5000;0.4851;0.8489;
799.8000;0.4851;0.8438;
800.1000;0.4843;0.8438;
800.4000;0.4876;0.8489;
800.7000;0.4843;0.8463;
801.0000;0.4843;0.8463;
801.3000;0.4843;0.8514;
801.6000;0.4851;0.8564;
801.9000;0.4860;0.8564;
802.2000;0.4843;0.8539;
802.5000;0.4876;0.8640;
802.8000;0.4860;0.8614;
803.1000;0.4843;0.8564;
803.4000;0.4860;0.8614;
803.7000;0.4843;0.8640;
804.0000;0.4876;0.8715;
804.3000;0.4819;0.8539;
804.6000;0.4819;0.8564;
804.9000;0.4827;0.8564;
805.2000;0.4843;0.8614;
805.5000;0.4884;0.8640;
805.8000;0.4843;0.8589;
806.1000;0.4876;0.8690;
806.4000;0.4835;0.8640;
806.7000;0.4851;0.8564;
807.0000;0.4851;0.8539;
807.3000;0.4835;0.8564;
807.6000;0.4843;0.8489;
807.9000;0.4851;0.8539;
808.2000;0.4851;0.8514;
808.5000;0.4835;0.8438;
808.8000;0.4868;0.8463;
809.1000;0.4884;0.8539;
809.4000;0.4860;0.8438;
809.7000;0.4860;0.8489;
810.0000;0.4851;0.8438;
810.3000;0.4843;0.8463;
810.6000;0.4851;0.8463;
810.9000;0.4835;0.8388;
811.2000;0.4827;0.8413;
811.5000;0.4843;0.8463;
811.8000;0.4835;0.8463;
812.1000;0.4786;0.8287;
812.4000;0.4835;0.8337;
812.7000;0.4843;0.8413;
813.0000;0.4835;0.8463;
813.3000;0.4827;0.8514;
813.6000;0.4803;0.8539;
813.9000;0.4819;0.8589;
814.2000;0.4819;0.8614;
814.5000;0.4835;0.8665;
814.8000;0.4835;0.8614;
815.1000;0.4827;0.8589;
815.4000;0.4827;0.8614;
815.7000;0.4835;0.8514;
816.0000;0.4819;0.8438;
816.3000;0.4819;0.8388;
816.6000;0.4819;0.8388;
816.9000;0.4819;0.8514;
817.2000;0.4868;0.8690;
817.5000;0.4827;0.8614;
817.8000;0.4811;0.8489;
818.1000;0.4851;0.8640;
818.4000;0.4827;0.8564;
818.7000;0.4811;0.8539;
819.0000;0.4835;0.8640;
819.3000;0.4835;0.8640;
819.6000;0.4835;0.8589;
819.9000;0.4819;0.8489;
820.2000;0.4803;0.8463;
820.5000;0.4843;0.8589;
820.8000;0.4827;0.8539;
821.1000;0.4819;0.8489;
821.4000;0.4819;0.8564;
821.7000;0.4843;0.8564;
822.0000;0.4827;0.8463;
822.3000;0.4827;0.8489;
822.6000;0.4827;0.8463;
822.9000;0.4835;0.8589;
823.2000;0.4843;0.8564;
823.5000;0.4819;0.8514;
823.8000;0.4819;0.8589;
824.1000;0.4819;0.8514;
824.4000;0.4827;0.8463;
824.7000;0.4819;0.8489;
825.0000;0.4884;0.8614;
825.3000;0.4835;0.8463;
825.6000;0.4843;0.8589;
825.9000;0.4835;0.8539;
826.2000;0.4811;0.8514;
826.5000;0.4794;0.8564;
826.8000;0.4803;0.8614;
827.1000;0.4811;0.8564;
827.4000;0.4811;0.8514;
827.7000;0.4819;0.8539;
828.0000;0.4835;0.8564;
828.3000;0.4843;0.8589;
828.6000;0.4827;0.8514;
828.9000;0.4835;0.8463;
829.2000;0.4835;0.8640;
829.5000;0.4843;0.8690;
829.8000;0.4827;0.8640;
830.1000;0.4835;0.8640;
830.4000;0.4827;0.8589;
830.7000;0.4835;0.8539;
831.0000;0.4835;0.8489;
831.3000;0.4835;0.8463;
831.6000;0.4835;0.8438;
831.9000;0.4811;0.8413;
832.2000;0.4786;0.8262;
832.5000;0.4835;0.8337;
832.8000;0.4794;0.8237;
833.1000;0.4843;0.8438;
833.4000;0.4835;0.8388;
833.7000;0.4811;0.8363;
834.0000;0.4803;0.8388;
834.3000;0.4827;0.8463;
834.6000;0.4835;0.8489;
834.9000;0.4819;0.8413;
835.2000;0.4811;0.8363;
835.5000;0.4811;0.8363;
835.8000;0.4827;0.8514;
836.1000;0.4827;0.8539;
836.4000;0.4811;0.8539;
836.7000;0.4811;0.8514;
837.0000;0.4819;0.8489;
837.3000;0.4827;0.8438;
837.6000;0.4819;0.8413;
837.9000;0.4803;0.8337;
838.2000;0.4778;0.8312;
838.5000;0.4819;0.8438;
838.8000;0.4811;0.8438;
839.1000;0.4794;0.8413;
839.4000;0.4827;0.8489;
839.7000;0.4827;0.8438;
840.0000;0.4827;0.8564;
840.3000;0.4811;0.8514;
840.6000;0.4876;0.8640;
840.9000;0.4819;0.8514;
841.2000;0.4819;0.8463;
841.5000;0.4803;0.8438;
841.8000;0.4827;0.8589;
842.1000;0.4819;0.8514;
842.4000;0.4803;0.8388;
842.7000;0.4811;0.8463;
843.0000;0.4811;0.8413;
843.3000;0.4819;0.8514;
843.6000;0.4819;0.8489;
843.9000;0.4819;0.8388;
844.2000;0.4819;0.8489;
844.5000;0.4794;0.8514;
844.8000;0.4835;0.8614;
845.1000;0.4827;0.8514;
845.4000;0.4811;0.8463;
845.7000;0.4803;0.8564;
846.0000;0.4770;0.8489;
846.3000;0.4803;0.8640;
846.6000;0.4778;0.8539;
846.9000;0.4811;0.8589;
847.2000;0.4811;0.8589;
847.5000;0.4803;0.8640;
847.8000;0.4811;0.8614;
848.1000;0.4794;0.8614;
848.4000;0.4811;0.8665;
848.7000;0.4811;0.8589;
849.0000;0.4754;0.8463;
849.3000;0.4803;0.8614;
849.6000;0.4794;0.8614;
849.9000;0.4794;0.8640;
850.2000;0.4819;0.8690;
850.5000;0.4803;0.8514;
850.8000;0.4819;0.8438;
851.1000;0.4819;0.8463;
851.4000;0.4786;0.8363;
851.7000;0.4917;0.8740;
852.0000;0.4803;0.8438;
852.3000;0.4803;0.8489;
852.6000;0.4762;0.8363;
852.9000;0.4811;0.8489;
853.2000;0.4786;0.8363;
853.5000;0.4827;0.8463;
853.8000;0.4803;0.8463;
854.1000;0.4811;0.8413;
854.4000;0.4811;0.8489;
854.7000;0.4819;0.8539;
855.0000;0.4860;0.8614;
855.3000;0.4811;0.8489;
855.6000;0.4794;0.8463;
855.9000;0.4819;0.8514;
856.2000;0.4811;0.8514;
856.5000;0.4811;0.8514;
856.8000;0.4803;0.8438;
857.1000;0.4851;0.8514;
857.4000;0.4819;0.8463;
857.7000;0.4770;0.8438;
858.0000;0.4803;0.8539;
858.3000;0.4794;0.8489;
858.6000;0.4819;0.8564;
858.9000;0.4819;0.8564;
859.2000;0.4770;0.8463;
859.5000;0.4803;0.8539;
859.8000;0.4843;0.8640;
860.1000;0.4803;0.8640;
860.4000;0.4851;0.8766;
860.7000;0.4803;0.8740;
861.0000;0.4827;0.8740;
861.3000;0.4786;0.8640;
861.6000;0.4803;0.8665;
861.9000;0.4811;0.8740;
862.2000;0.4794;0.8665;
862.5000;0.4803;0.8665;
862.8000;0.4811;0.8715;
863.1000;0.4803;0.8715;
863.4000;0.4819;0.8740;
863.7000;0.4819;0.8715;
864.0000;0.4827;0.8740;
864.3000;0.4778;0.8690;
864.6000;0.4803;0.8740;
864.9000;0.4778;0.8715;
865.2000;0.4803;0.8715;
865.5000;0.4803;0.8690;
865.8000;0.4762;0.8589;
866.1000;0.4737;0.8514;
866.4000;0.4811;0.8740;
866.7000;0.4819;0.8740;
867.0000;0.4786;0.8665;
867.3000;0.4803;0.8640;
867.6000;0.4811;0.8715;
867.9000;0.4803;0.8539;
868.2000;0.4794;0.8614;
868.5000;0.4794;0.8614;
868.8000;0.4794;0.8564;
869.1000;0.4803;0.8514;
869.4000;0.4803;0.8413;
869.7000;0.4835;0.8539;
870.0000;0.4819;0.8614;
870.3000;0.4811;0.8614;
870.6000;0.4803;0.8614;
870.9000;0.4803;0.8640;
871.2000;0.4770;0.8589;
871.5000;0.4786;0.8589;
871.8000;0.4811;0.8589;
872.1000;0.4803;0.8564;
872.4000;0.4794;0.8665;
872.7000;0.4721;0.8463;
873.0000;0.4794;0.8589;
873.3000;0.4786;0.8564;
873.6000;0.4794;0.8564;
873.9000;0.4835;0.8640;
874.2000;0.4827;0.8539;
874.5000;0.4770;0.8514;
874.8000;0.4737;0.8438;
875.1000;0.4811;0.8665;
875.4000;0.4794;0.8740;
875.7000;0.4827;0.8791;
876.0000;0.4794;0.8715;
876.3000;0.4794;0.8640;
876.6000;0.4811;0.8614;
876.9000;0.4811;0.8640;
877.2000;0.4786;0.8614;
877.5000;0.4794;0.8640;
877.8000;0.4794;0.8690;
878.1000;0.4876;0.8816;
878.4000;0.4778;0.8614;
878.7000;0.4811;0.8690;
879.0000;0.4811;0.8715;
879.3000;0.4811;0.8766;
879.6000;0.4827;0.8791;
879.9000;0.4794;0.8715;
880.2000;0.4835;0.8816;
880.5000;0.4794;0.8816;
880.8000;0.4794;0.8766;
881.1000;0.4794;0.8766;
881.4000;0.4794;0.8740;
881.7000;0.4794;0.8816;
882.0000;0.4778;0.8816;
882.3000;0.4827;0.8892;
882.6000;0.4843;0.8866;
882.9000;0.4794;0.8766;
883.2000;0.4811;0.8766;
883.5000;0.4770;0.8740;
883.8000;0.4778;0.8589;
884.1000;0.4803;0.8640;
884.4000;0.4754;0.8438;
884.7000;0.4794;0.8463;
885.0000;0.4786;0.8564;
885.3000;0.4786;0.8640;
885.6000;0.4794;0.8589;
885.9000;0.4786;0.8589;
886.2000;0.4851;0.8791;
886.5000;0.4778;0.8791;
886.8000;0.4770;0.8816;
887.1000;0.4851;0.8942;
887.4000;0.4786;0.8791;
887.7000;0.4786;0.8740;
888.0000;0.4803;0.8740;
888.3000;0.4794;0.8791;
888.6000;0.4819;0.8766;
888.9000;0.4778;0.8614;
889.2000;0.4811;0.8589;
889.5000;0.4794;0.8564;
889.8000;0.4811;0.8640;
890.1000;0.4721;0.8489;
890.4000;0.4786;0.8690;
890.7000;0.4803;0.8715;
891.0000;0.4786;0.8766;
891.3000;0.4786;0.8766;
891.6000;0.4794;0.8690;
891.9000;0.4794;0.8690;
892.2000;0.4803;0.8690;
892.5000;0.4803;0.8690;
892.8000;0.4811;0.8690;
893.1000;0.4794;0.8791;
893.4000;0.4803;0.8766;
893.7000;0.4794;0.8791;
894.0000;0.4811;0.8791;
894.3000;0.4794;0.8791;
894.6000;0.4803;0.8816;
894.9000;0.4786;0.8816;
895.2000;0.4770;0.8665;
895.5000;0.4737;0.8564;
895.8000;0.4827;0.8766;
896.1000;0.4794;0.8665;
896.4000;0.4819;0.8690;
896.7000;0.4770;0.8715;
897.0000;0.4778;0.8740;
897.3000;0.4778;0.8690;
897.6000;0.4794;0.8715;
897.9000;0.4843;0.8715;
898.2000;0.4786;0.8564;
898.5000;0.4762;0.8463;
898.8000;0.4835;0.8740;
899.1000;0.4786;0.8665;
899.4000;0.4794;0.8866;
899.7000;0.4786;0.8866;
900.0000;0.4778;0.8841;
900.3000;0.4803;0.8917;
900.6000;0.4843;0.9043;
900.9000;0.4794;0.8841;
901.2000;0.4811;0.8816;
901.5000;0.4794;0.8740;
901.8000;0.4778;0.8690;
902.1000;0.4794;0.8791;
902.4000;0.4794;0.8841;
902.7000;0.4778;0.8665;
903.0000;0.4803;0.8740;
903.3000;0.4794;0.8665;
903.6000;0.4794;0.8589;
903.9000;0.4786;0.8640;
904.2000;0.4811;0.8640;
904.5000;0.4778;0.8614;
904.8000;0.4778;0.8614;
905.1000;0.4794;0.8640;
905.4000;0.4794;0.8614;
905.7000;0.4811;0.8589;
906.0000;0.4803;0.8589;
906.3000;0.4778;0.8564;
906.6000;0.4786;0.8539;
906.9000;0.4794;0.8614;
907.2000;0.4843;0.8816;
907.5000;0.4778;0.8589;
907.8000;0.4811;0.8640;
908.1000;0.4778;0.8514;
908.4000;0.4770;0.8489;
908.7000;0.4794;0.8539;
909.0000;0.4794;0.8589;
909.3000;0.4770;0.8539;
909.6000;0.4803;0.8614;
909.9000;0.4786;0.8589;
910.2000;0.4770;0.8489;
910.5000;0.4762;0.8388;
910.8000;0.4794;0.8514;
911.1000;0.4851;0.8715;
911.4000;0.4770;0.8564;
911.7000;0.4811;0.8564;
912.0000;0.4754;0.8413;
912.3000;0.4843;0.8589;
912.6000;0.4770;0.8463;
912.9000;0.4754;0.8463;
913.2000;0.4697;0.8262;
913.5000;0.4770;0.8514;
913.8000;0.4827;0.8564;
914.1000;0.4762;0.8363;
914.4000;0.4778;0.8438;
914.7000;0.4794;0.8438;
915.0000;0.4794;0.8438;
915.3000;0.4762;0.8438;
915.6000;0.4754;0.8312;
915.9000;0.4778;0.8363;
916.2000;0.4794;0.8388;
916.5000;0.4746;0.8337;
916.8000;0.4786;0.8413;
917.1000;0.4794;0.8514;
917.4000;0.4786;0.8539;
917.7000;0.4762;0.8413;
918.0000;0.4770;0.8388;
918.3000;0.4762;0.8388;
918.6000;0.4770;0.8388;
918.9000;0.4770;0.8363;
919.2000;0.4770;0.8363;
919.5000;0.4762;0.8438;
919.8000;0.4770;0.8489;
920.1000;0.4786;0.8438;
920.4000;0.4762;0.8539;
920.7000;0.4778;0.8614;
921.0000;0.4754;0.8614;
921.3000;0.4786;0.8614;
921.6000;0.4705;0.8388;
921.9000;0.4835;0.8841;
922.2000;0.4770;0.8715;
922.5000;0.4786;0.8766;
922.8000;0.4770;0.8690;
923.1000;0.4754;0.8614;
923.4000;0.4770;0.8489;
923.7000;0.4762;0.8514;
924.0000;0.4778;0.8539;
924.3000;0.4778;0.8539;
924.6000;0.4737;0.8438;
924.9000;0.4778;0.8514;
925.2000;0.4762;0.8489;
925.5000;0.4762;0.8514;
925.8000;0.4778;0.8463;
926.1000;0.4737;0.8413;
926.4000;0.4778;0.8489;
926.7000;0.4770;0.8514;
927.0000;0.4770;0.8514;
927.3000;0.4778;0.8539;
927.6000;0.4778;0.8614;
927.9000;0.4729;0.8489;
928.2000;0.4778;0.8640;
928.5000;0.4762;0.8665;
928.8000;0.4770;0.8690;
929.1000;0.4778;0.8614;
929.4000;0.4778;0.8589;
929.7000;0.4770;0.8514;
930.0000;0.4786;0.8564;
930.3000;0.4778;0.8614;
930.6000;0.4770;0.8539;
930.9000;0.4762;0.8539;
931.2000;0.4786;0.8614;
931.5000;0.4770;0.8514;
931.8000;0.4794;0.8539;
932.1000;0.4762;0.8438;
932.4000;0.4754;0.8413;
932.7000;0.4762;0.8438;
933.0000;0.4770;0.8489;
933.3000;0.4762;0.8539;
933.6000;0.4778;0.8589;
933.9000;0.4786;0.8665;
934.2000;0.4786;0.8640;
934.5000;0.4754;0.8463;
934.8000;0.4762;0.8589;
935.1000;0.4770;0.8489;
935.4000;0.4770;0.8438;
935.7000;0.4754;0.8287;
936.0000;0.4762;0.8463;
936.3000;0.4746;0.8438;
936.6000;0.4786;0.8589;
936.9000;0.4851;0.8640;
937.2000;0.4721;0.8237;
937.5000;0.4778;0.8388;
937.8000;0.4778;0.8388;
938.1000;0.4778;0.8363;
938.4000;0.4778;0.8312;
938.7000;0.4770;0.8287;
939.0000;0.4786;0.8262;
939.3000;0.4770;0.8312;
939.6000;0.4770;0.8262;
939.9000;0.4770;0.8312;
940.2000;0.4786;0.8363;
940.5000;0.4770;0.8312;
940.8000;0.4778;0.8237;
941.1000;0.4762;0.8211;
941.4000;0.4786;0.8363;
941.7000;0.4762;0.8363;
942.0000;0.4762;0.8388;
942.3000;0.4762;0.8413;
942.6000;0.4786;0.8413;
942.9000;0.4737;0.8312;
943.2000;0.4786;0.8438;
943.5000;0.4746;0.8337;
943.8000;0.4762;0.8363;
944.1000;0.4762;0.8363;
944.4000;0.4770;0.8438;
944.7000;0.4762;0.8388;
945.0000;0.4681;0.8186;
945.3000;0.4778;0.8539;
945.6000;0.4754;0.8539;
945.9000;0.4762;0.8514;
946.2000;0.4754;0.8514;
946.5000;0.4762;0.8463;
946.8000;0.4778;0.8539;
947.1000;0.4778;0.8489;
947.4000;0.4770;0.8413;
947.7000;0.4770;0.8413;
948.0000;0.4770;0.8438;
948.3000;0.4762;0.8388;
948.6000;0.4754;0.8388;
948.9000;0.4770;0.8337;
949.2000;0.4762;0.8211;
949.5000;0.4778;0.8262;
949.8000;0.4770;0.8388;
950.1000;0.4729;0.8312;
950.4000;0.4770;0.8337;
950.7000;0.4770;0.8262;
951.0000;0.4762;0.8237;
951.3000;0.4762;0.8262;
951.6000;0.4778;0.8363;
951.9000;0.4803;0.8463;
952.2000;0.4770;0.8388;
952.5000;0.4778;0.8463;
952.8000;0.4786;0.8514;
953.1000;0.4746;0.8438;
953.4000;0.4811;0.8564;
953.7000;0.4778;0.8463;
954.0000;0.4778;0.8438;
954.3000;0.4778;0.8413;
954.6000;0.4778;0.8463;
954.9000;0.4778;0.8413;
955.2000;0.4770;0.8413;
955.5000;0.4786;0.8514;
955.8000;0.4770;0.8539;
956.1000;0.4786;0.8589;
956.4000;0.4770;0.8489;
956.7000;0.4786;0.8463;
957.0000;0.4746;0.8337;
957.3000;0.4770;0.8463;
957.6000;0.4770;0.8363;
957.9000;0.4778;0.8312;
958.2000;0.4778;0.8186;
958.5000;0.4762;0.8136;
958.8000;0.4770;0.8136;
959.1000;0.4770;0.8161;
959.4000;0.4778;0.8237;
959.7000;0.4762;0.8237;
960.0000;0.4786;0.8287;
960.3000;0.4762;0.8262;
960.6000;0.4746;0.8211;
960.9000;0.4778;0.8287;
961.2000;0.4786;0.8337;
961.5000;0.4778;0.8388;
961.8000;0.4819;0.8564;
962.1000;0.4746;0.8438;
962.4000;0.4778;0.8438;
962.7000;0.4754;0.8388;
963.0000;0.4778;0.8438;
963.3000;0.4770;0.8388;
963.6000;0.4762;0.8388;
963.9000;0.4762;0.8413;
964.2000;0.4762;0.8388;
964.5000;0.4770;0.8388;
964.8000;0.4811;0.8489;
965.1000;0.4754;0.8463;
965.4000;0.4762;0.8463;
965.7000;0.4754;0.8463;
966.0000;0.4746;0.8489;
966.3000;0.4746;0.8489;
966.6000;0.4729;0.8438;
966.9000;0.4697;0.8337;
967.2000;0.4770;0.8539;
967.5000;0.4778;0.8589;
967.8000;0.4754;0.8589;
968.1000;0.4770;0.8564;
968.4000;0.4746;0.8614;
968.7000;0.4762;0.8589;
969.0000;0.4770;0.8539;
969.3000;0.4770;0.8589;
969.6000;0.4778;0.8640;
969.9000;0.4697;0.8438;
970.2000;0.4762;0.8640;
970.5000;0.4762;0.8715;
970.8000;0.4770;0.8766;
971.1000;0.4754;0.8740;
971.4000;0.4713;0.8539;
971.7000;0.4746;0.8640;
972.0000;0.4770;0.8614;
972.3000;0.4762;0.8438;
972.6000;0.4754;0.8388;
972.9000;0.4778;0.8438;
973.2000;0.4778;0.8489;
973.5000;0.4770;0.8438;
973.8000;0.4754;0.8413;
974.1000;0.4762;0.8463;
974.4000;0.4746;0.8388;
974.7000;0.4778;0.8413;
975.0000;0.4721;0.8337;
975.3000;0.4746;0.8438;
975.6000;0.4737;0.8363;
975.9000;0.4762;0.8388;
976.2000;0.4762;0.8438;
976.5000;0.4746;0.8463;
976.8000;0.4713;0.8388;
977.1000;0.4746;0.8489;
977.4000;0.4746;0.8564;
977.7000;0.4794;0.8564;
978.0000;0.4746;0.8463;
978.3000;0.4762;0.8438;
978.6000;0.4770;0.8438;
978.9000;0.4746;0.8337;
979.2000;0.4754;0.8237;
979.5000;0.4770;0.8287;
979.8000;0.4721;0.8262;
980.1000;0.4746;0.8363;
980.4000;0.4770;0.8388;
980.7000;0.4762;0.8438;
981.0000;0.4770;0.8665;
981.3000;0.4786;0.8614;
981.6000;0.4754;0.8564;
981.9000;0.4762;0.8489;
982.2000;0.4786;0.8564;
982.5000;0.4794;0.8564;
982.8000;0.4835;0.8690;
983.1000;0.4681;0.8262;
983.4000;0.4778;0.8589;
983.7000;0.4778;0.8665;
984.0000;0.4762;0.8715;
984.3000;0.4754;0.8690;
984.6000;0.4762;0.8614;
984.9000;0.4762;0.8614;
985.2000;0.4746;0.8589;
985.5000;0.4762;0.8614;
985.8000;0.4681;0.8438;
986.1000;0.4770;0.8665;
986.4000;0.4762;0.8614;
986.7000;0.4721;0.8514;
987.0000;0.4778;0.8690;
987.3000;0.4762;0.8690;
987.6000;0.4770;0.8640;
987.9000;0.4811;0.8589;
988.2000;0.4762;0.8489;
988.5000;0.4762;0.8514;
988.8000;0.4803;0.8614;
989.1000;0.4851;0.8892;
989.4000;0.4778;0.8640;
989.7000;0.4803;0.8766;
990.0000;0.4762;0.8766;
990.3000;0.4762;0.8766;
990.6000;0.4762;0.8715;
990.9000;0.4770;0.8791;
991.2000;0.4754;0.8841;
991.5000;0.4762;0.8866;
991.8000;0.4754;0.8715;
992.1000;0.4803;0.8841;
992.4000;0.4762;0.8740;
992.7000;0.4746;0.8715;
993.0000;0.4794;0.8791;
993.3000;0.4754;0.8690;
993.6000;0.4762;0.8690;
993.9000;0.4770;0.8640;
994.2000;0.4746;0.8564;
994.5000;0.4762;0.8413;
994.8000;0.4778;0.8463;
995.1000;0.4770;0.8489;
995.4000;0.4762;0.8539;
995.7000;0.4762;0.8489;
996.0000;0.4754;0.8463;
996.3000;0.4746;0.8438;
996.6000;0.4770;0.8564;
996.9000;0.4770;0.8614;
997.2000;0.4770;0.8564;
997.5000;0.4762;0.8489;
997.8000;0.4762;0.8640;
998.1000;0.4778;0.8665;
998.4000;0.4770;0.8614;
998.7000;0.4721;0.8438;
999.0000;0.4770;0.8514;
999.3000;0.4762;0.8463;
999.6000;0.4721;0.8287;
999.9000;0.4770;0.8363;
1000.2000;0.4746;0.8337;
1000.5000;0.4762;0.8388;
1000.8000;0.4803;0.8564;
1001.1000;0.4737;0.8337;
1001.4000;0.4770;0.8413;
1001.7000;0.4778;0.8388;
1002.0000;0.4721;0.8312;
1002.3000;0.4754;0.8438;
1002.6000;0.4770;0.8438;
1002.9000;0.4762;0.8438;
1003.2000;0.4778;0.8514;
1003.5000;0.4754;0.8564;
1003.8000;0.4762;0.8740;
1004.1000;0.4770;0.8690;
1004.4000;0.4754;0.8614;
1004.7000;0.4762;0.8614;
1005.0000;0.4778;0.8589;
1005.3000;0.4778;0.8614;
1005.6000;0.4786;0.8514;
1005.9000;0.4746;0.8438;
1006.2000;0.4803;0.8514;
1006.5000;0.4762;0.8463;
1006.8000;0.4770;0.8614;
1007.1000;0.4811;0.8614;
1007.4000;0.4762;0.8564;
1007.7000;0.4811;0.8766;
1008.0000;0.4778;0.8715;
1008.3000;0.4786;0.8715;
1008.6000;0.4754;0.8690;
1008.9000;0.4713;0.8539;
1009.2000;0.4737;0.8640;
1009.5000;0.4737;0.8665;
1009.8000;0.4754;0.8690;
1010.1000;0.4746;0.8640;
1010.4000;0.4762;0.8665;
1010.7000;0.4778;0.8614;
1011.0000;0.4778;0.8564;
1011.3000;0.4754;0.8589;
1011.6000;0.4762;0.8614;
1011.9000;0.4770;0.8614;
1012.2000;0.4762;0.8514;
1012.5000;0.4762;0.8463;
1012.8000;0.4754;0.8413;
1013.1000;0.4697;0.8363;
1013.4000;0.4754;0.8489;
1013.7000;0.4721;0.8463;
1014.0000;0.4803;0.8564;
1014.3000;0.4746;0.8438;
1014.6000;0.4762;0.8463;
1014.9000;0.4729;0.8463;
1015.2000;0.4762;0.8539;
1015.5000;0.4729;0.8463;
1015.8000;0.4729;0.8463;
1016.1000;0.4746;0.8539;
1016.4000;0.4770;0.8589;
1016.7000;0.4746;0.8489;
1017.0000;0.4754;0.8489;
1017.3000;0.4770;0.8438;
1017.6000;0.4778;0.8489;
1017.9000;0.4811;0.8514;
1018.2000;0.4770;0.8489;
1018.5000;0.4762;0.8413;
1018.8000;0.4762;0.8438;
1019.1000;0.4770;0.8514;
1019.4000;0.4778;0.8413;
1019.7000;0.4754;0.8413;
1020.0000;0.4721;0.8413;
1020.3000;0.4778;0.8589;
1020.6000;0.4778;0.8640;
1020.9000;0.4770;0.8614;
1021.2000;0.4746;0.8539;
1021.5000;0.4754;0.8539;
1021.8000;0.4746;0.8564;
1022.1000;0.4770;0.8614;
1022.4000;0.4762;0.8640;
1022.7000;0.4762;0.8614;
1023.0000;0.4770;0.8665;
1023.3000;0.4762;0.8640;
1023.6000;0.4762;0.8715;
1023.9000;0.4746;0.8766;
1024.2000;0.4746;0.8816;
1024.5000;0.4746;0.8866;
1024.8000;0.4778;0.8816;
1025.1000;0.4754;0.8740;
1025.4000;0.4754;0.8715;
1025.7000;0.4762;0.8740;
1026.0000;0.4721;0.8690;
1026.3000;0.4737;0.8841;
1026.6000;0.4754;0.8816;
1026.9000;0.4762;0.8740;
1027.2000;0.4746;0.8564;
1027.5000;0.4746;0.8589;
1027.8000;0.4762;0.8614;
1028.1000;0.4754;0.8640;
1028.4000;0.4754;0.8589;
1028.7000;0.4737;0.8564;
1029.0000;0.4819;0.8841;
1029.3000;0.4746;0.8640;
1029.6000;0.4754;0.8791;
1029.9000;0.4737;0.8740;
1030.2000;0.4729;0.8766;
1030.5000;0.4754;0.8766;
1030.8000;0.4746;0.8665;
1031.1000;0.4754;0.8589;
1031.4000;0.4762;0.8564;
1031.7000;0.4803;0.8766;
1032.0000;0.4746;0.8564;
1032.3000;0.4754;0.8514;
1032.6000;0.4778;0.8589;
1032.9000;0.4778;0.8614;
1033.2000;0.4754;0.8640;
1033.5000;0.4778;0.8690;
1033.8000;0.4737;0.8564;
1034.1000;0.4737;0.8614;
1034.4000;0.4754;0.8589;
1034.7000;0.4762;0.8690;
1035.0000;0.4737;0.8640;
1035.3000;0.4746;0.8640;
1035.6000;0.4762;0.8690;
1035.9000;0.4754;0.8640;
1036.2000;0.4770;0.8640;
1036.5000;0.4729;0.8665;
1036.8000;0.4754;0.8715;
1037.1000;0.4754;0.8589;
1037.4000;0.4762;0.8489;
1037.7000;0.4754;0.8463;
1038.0000;0.4746;0.8438;
1038.3000;0.4754;0.8489;
1038.6000;0.4746;0.8388;
1038.9000;0.4754;0.8363;
1039.2000;0.4737;0.8262;
1039.5000;0.4746;0.8312;
1039.8000;0.4754;0.8413;
1040.1000;0.4648;0.8161;
1040.4000;0.4762;0.8438;
1040.7000;0.4737;0.8363;
1041.0000;0.4746;0.8438;
1041.3000;0.4754;0.8438;
1041.6000;0.4794;0.8614;
1041.9000;0.4746;0.8564;
1042.2000;0.4786;0.8690;
1042.5000;0.4754;0.8640;
1042.8000;0.4746;0.8614;
1043.1000;0.4794;0.8715;
1043.4000;0.4762;0.8640;
1043.7000;0.4737;0.8589;
1044.0000;0.4794;0.8766;
1044.3000;0.4721;0.8564;
1044.6000;0.4746;0.8514;
1044.9000;0.4746;0.8463;
1045.2000;0.4737;0.8514;
1045.5000;0.4770;0.8640;
1045.8000;0.4746;0.8614;
1046.1000;0.4786;0.8665;
1046.4000;0.4746;0.8589;
1046.7000;0.4754;0.8514;
1047.0000;0.4778;0.8564;
1047.3000;0.4737;0.8438;
1047.6000;0.4754;0.8388;
1047.9000;0.4786;0.8589;
1048.2000;0.4729;0.8438;
1048.5000;0.4746;0.8463;
1048.8000;0.4754;0.8539;
1049.1000;0.4746;0.8463;
1049.4000;0.4737;0.8413;
1049.7000;0.4729;0.8514;
1050.0000;0.4811;0.8665;
1050.3000;0.4746;0.8489;
1050.6000;0.4737;0.8463;
1050.9000;0.4754;0.8463;
1051.2000;0.4794;0.8564;
1051.5000;0.4754;0.8539;
1051.8000;0.4754;0.8564;
1052.1000;0.4737;0.8564;
1052.4000;0.4762;0.8640;
1052.7000;0.4762;0.8640;
1053.0000;0.4762;0.8589;
1053.3000;0.4778;0.8589;
1053.6000;0.4770;0.8539;
1053.9000;0.4762;0.8463;
1054.2000;0.4778;0.8438;
1054.5000;0.4754;0.8413;
1054.8000;0.4762;0.8514;
1055.1000;0.4762;0.8589;
1055.4000;0.4689;0.8438;
1055.7000;0.4640;0.8287;
1056.0000;0.4737;0.8514;
1056.3000;0.4737;0.8539;
1056.6000;0.4754;0.8463;
1056.9000;0.4737;0.8388;
1057.2000;0.4746;0.8413;
1057.5000;0.4770;0.8438;
1057.8000;0.4737;0.8413;
1058.1000;0.4754;0.8539;
1058.4000;0.4746;0.8539;
1058.7000;0.4794;0.8715;
1059.0000;0.4746;0.8614;
1059.3000;0.4746;0.8690;
1059.6000;0.4729;0.8690;
1059.9000;0.4746;0.8766;
1060.2000;0.4754;0.8791;
1060.5000;0.4737;0.8665;
1060.8000;0.4721;0.8640;
1061.1000;0.4794;0.8791;
1061.4000;0.4794;0.8791;
1061.7000;0.4721;0.8614;
1062.0000;0.4794;0.8715;
1062.3000;0.4729;0.8640;
1062.6000;0.4762;0.8589;
1062.9000;0.4762;0.8614;
1063.2000;0.4729;0.8539;
1063.5000;0.4762;0.8589;
1063.8000;0.4770;0.8564;
1064.1000;0.4770;0.8640;
1064.4000;0.4794;0.8766;
1064.7000;0.4762;0.8766;
1065.0000;0.4754;0.8665;
1065.3000;0.4794;0.8715;
1065.6000;0.4737;0.8539;
1065.9000;0.4737;0.8514;
1066.2000;0.4762;0.8463;
1066.5000;0.4713;0.8287;
1066.8000;0.4770;0.8539;
1067.1000;0.4697;0.8388;
1067.4000;0.4672;0.8388;
1067.7000;0.4737;0.8614;
1068.0000;0.4689;0.8438;
1068.3000;0.4737;0.8539;
1068.6000;0.4762;0.8514;
1068.9000;0.4762;0.8564;
1069.2000;0.4697;0.8312;
1069.5000;0.4737;0.8489;
1069.8000;0.4754;0.8539;
1070.1000;0.4746;0.8539;
1070.4000;0.4762;0.8589;
1070.7000;0.4746;0.8514;
1071.0000;0.4729;0.8438;
1071.3000;0.4737;0.8413;
1071.6000;0.4746;0.8489;
1071.9000;0.4754;0.8463;
1072.2000;0.4754;0.8539;
1072.5000;0.4762;0.8514;
1072.8000;0.4737;0.8539;
1073.1000;0.4754;0.8539;
1073.4000;0.4737;0.8463;
1073.7000;0.4729;0.8489;
1074.0000;0.4721;0.8388;
1074.3000;0.4762;0.8388;
1074.6000;0.4754;0.8413;
1074.9000;0.4721;0.8463;
1075.2000;0.4737;0.8539;
1075.5000;0.4746;0.8514;
1075.8000;0.4729;0.8463;
1076.1000;0.4746;0.8514;
1076.4000;0.4762;0.8489;
1076.7000;0.4762;0.8514;
1077.0000;0.4827;0.8665;
1077.3000;0.4762;0.8438;
1077.6000;0.4754;0.8363;
1077.9000;0.4737;0.8337;
1078.2000;0.4827;0.8665;
1078.5000;0.4737;0.8463;
1078.8000;0.4729;0.8514;
1079.1000;0.4762;0.8564;
1079.4000;0.4754;0.8589;
1079.7000;0.4762;0.8564;
1080.0000;0.4737;0.8514;
1080.3000;0.4746;0.8614;
1080.6000;0.4737;0.8589;
1080.9000;0.4737;0.8614;
1081.2000;0.4754;0.8589;
1081.5000;0.4746;0.8665;
1081.8000;0.4746;0.8589;
1082.1000;0.4770;0.8665;
1082.4000;0.4754;0.8715;
1082.7000;0.4770;0.8740;
1083.0000;0.4778;0.8614;
1083.3000;0.4770;0.8564;
1083.6000;0.4762;0.8489;
1083.9000;0.4729;0.8312;
1084.2000;0.4770;0.8413;
1084.5000;0.4762;0.8438;
1084.8000;0.4746;0.8489;
1085.1000;0.4811;0.8715;
1085.4000;0.4770;0.8740;
1085.7000;0.4721;0.8690;
1086.0000;0.4770;0.8740;
1086.3000;0.4746;0.8715;
1086.6000;0.4754;0.8589;
1086.9000;0.4713;0.8438;
1087.2000;0.4737;0.8388;
1087.5000;0.4754;0.8312;
1087.8000;0.4746;0.8363;
1088.1000;0.4746;0.8388;
1088.4000;0.4737;0.8363;
1088.7000;0.4746;0.8463;
1089.0000;0.4754;0.8589;
1089.3000;0.4762;0.8640;
1089.6000;0.4762;0.8690;
1089.9000;0.4721;0.8564;
1090.2000;0.4737;0.8614;
1090.5000;0.4721;0.8564;
1090.8000;0.4754;0.8514;
1091.1000;0.4754;0.8514;
1091.4000;0.4737;0.8438;
1091.7000;0.4746;0.8463;
1092.0000;0.4737;0.8413;
1092.3000;0.4794;0.8614;
1092.6000;0.4729;0.8539;
1092.9000;0.4746;0.8640;
1093.2000;0.4746;0.8640;
1093.5000;0.4762;0.8715;
1093.8000;0.4737;0.8690;
1094.1000;0.4737;0.8614;
1094.4000;0.4762;0.8665;
1094.7000;0.4754;0.8766;
1095.0000;0.4746;0.8816;
1095.3000;0.4778;0.8917;
1095.6000;0.4746;0.8866;
1095.9000;0.4746;0.8892;
1096.2000;0.4737;0.8791;
1096.5000;0.4754;0.8766;
1096.8000;0.4770;0.8791;
1097.1000;0.4737;0.8690;
1097.4000;0.4746;0.8665;
1097.7000;0.4721;0.8640;
1098.0000;0.4746;0.8740;
1098.3000;0.4770;0.8715;
1098.6000;0.4754;0.8614;
1098.9000;0.4713;0.8413;
1099.2000;0.4754;0.8564;
1099.5000;0.4754;0.8589;
1099.8000;0.4770;0.8463;
1100.1000;0.4746;0.8312;
1100.4000;0.4746;0.8337;
1100.7000;0.4737;0.8413;
1101.0000;0.4754;0.8539;
1101.3000;0.4778;0.8614;
1101.6000;0.4737;0.8564;
1101.9000;0.4737;0.8690;
1102.2000;0.4737;0.8690;
1102.5000;0.4729;0.8564;
1102.8000;0.4754;0.8564;
1103.1000;0.4762;0.8614;
1103.4000;0.4746;0.8589;
1103.7000;0.4737;0.8564;
1104.0000;0.4729;0.8463;
1104.3000;0.4737;0.8438;
1104.6000;0.4754;0.8438;
1104.9000;0.4843;0.8665;
1105.2000;0.4721;0.8388;
1105.5000;0.4746;0.8413;
1105.8000;0.4786;0.8463;
1106.1000;0.4762;0.8388;
1106.4000;0.4770;0.8438;
1106.7000;0.4737;0.8363;
1107.0000;0.4737;0.8463;
1107.3000;0.4737;0.8388;
1107.6000;0.4713;0.8413;
1107.9000;0.4827;0.8740;
1108.2000;0.4746;0.8539;
1108.5000;0.4754;0.8514;
1108.8000;0.4729;0.8539;
1109.1000;0.4754;0.8514;
1109.4000;0.4754;0.8489;
1109.7000;0.4746;0.8413;
1110.0000;0.4737;0.8312;
1110.3000;0.4746;0.8337;
1110.6000;0.4737;0.8337;
1110.9000;0.4754;0.8388;
1111.2000;0.4737;0.8363;
1111.5000;0.4746;0.8438;
1111.8000;0.4746;0.8438;
1112.1000;0.4746;0.8438;
1112.4000;0.4746;0.8489;
1112.7000;0.4721;0.8388;
1113.0000;0.4729;0.8438;
1113.3000;0.4746;0.8413;
1113.6000;0.4762;0.8413;
1113.9000;0.4721;0.8287;
1114.2000;0.4729;0.8312;
1114.5000;0.4737;0.8312;
1114.8000;0.4754;0.8287;
1115.1000;0.4762;0.8237;
1115.4000;0.4746;0.8186;
1115.7000;0.4705;0.8186;
1116.0000;0.4770;0.8337;
1116.3000;0.4746;0.8413;
1116.6000;0.4737;0.8539;
1116.9000;0.4729;0.8614;
1117.2000;0.4729;0.8614;
1117.5000;0.4737;0.8640;
1117.8000;0.4721;0.8514;
1118.1000;0.4729;0.8589;
1118.4000;0.4746;0.8640;
1118.7000;0.4737;0.8539;
1119.0000;0.4737;0.8489;
1119.3000;0.4778;0.8564;
1119.6000;0.4762;0.8589;
1119.9000;0.4713;0.8514;
1120.2000;0.4737;0.8539;
1120.5000;0.4770;0.8614;
1120.8000;0.4754;0.8589;
1121.1000;0.4835;0.8967;
1121.4000;0.4713;0.8665;
1121.7000;0.4770;0.8740;
1122.0000;0.4737;0.8715;
1122.3000;0.4754;0.8766;
1122.6000;0.4746;0.8766;
1122.9000;0.4729;0.8766;
1123.2000;0.4737;0.8740;
1123.5000;0.4737;0.8715;
1123.8000;0.4729;0.8740;
1124.1000;0.4754;0.8841;
1124.4000;0.4746;0.8841;
1124.7000;0.4737;0.8816;
1125.0000;0.4737;0.8791;
1125.3000;0.4762;0.8892;
1125.6000;0.4754;0.8866;
1125.9000;0.4729;0.8791;
1126.2000;0.4754;0.8841;
1126.5000;0.4754;0.8816;
1126.8000;0.4754;0.8766;
1127.1000;0.4721;0.8715;
1127.4000;0.4754;0.8690;
1127.7000;0.4746;0.8589;
1128.0000;0.4737;0.8665;
1128.3000;0.4746;0.8740;
1128.6000;0.4721;0.8740;
1128.9000;0.4746;0.8766;
1129.2000;0.4737;0.8766;
1129.5000;0.4729;0.8791;
1129.8000;0.4737;0.8715;
1130.1000;0.4762;0.8766;
1130.4000;0.4754;0.8791;
1130.7000;0.4713;0.8791;
1131.0000;0.4737;0.8866;
1131.3000;0.4737;0.8766;
1131.6000;0.4737;0.8640;
1131.9000;0.4754;0.8589;
1132.2000;0.4754;0.8665;
1132.5000;0.4737;0.8589;
1132.8000;0.4729;0.8690;
1133.1000;0.4729;0.8614;
1133.4000;0.4721;0.8564;
1133.7000;0.4721;0.8564;
1134.0000;0.4746;0.8539;
1134.3000;0.4770;0.8514;
1134.6000;0.4746;0.8539;
1134.9000;0.4762;0.8614;
1135.2000;0.4778;0.8690;
1135.5000;0.4754;0.8489;
1135.8000;0.4754;0.8438;
1136.1000;0.4689;0.8262;
1136.4000;0.4754;0.8363;
1136.7000;0.4672;0.8161;
1137.0000;0.4737;0.8363;
1137.3000;0.4746;0.8413;
1137.6000;0.4754;0.8413;
1137.9000;0.4737;0.8413;
1138.2000;0.4778;0.8463;
1138.5000;0.4729;0.8413;
1138.8000;0.4713;0.8363;
1139.1000;0.4778;0.8438;
1139.4000;0.4746;0.8413;
1139.7000;0.4746;0.8438;
1140.0000;0.4770;0.8564;
1140.3000;0.4754;0.8463;
1140.6000;0.4770;0.8413;
1140.9000;0.4737;0.8337;
1141.2000;0.4737;0.8363;
1141.5000;0.4778;0.8463;
1141.8000;0.4737;0.8514;
1142.1000;0.4794;0.8690;
1142.4000;0.4819;0.8740;
1142.7000;0.4713;0.8614;
1143.0000;0.4713;0.8614;
1143.3000;0.4697;0.8589;
1143.6000;0.4721;0.8640;
1143.9000;0.4851;0.8967;
1144.2000;0.4737;0.8640;
1144.5000;0.4762;0.8715;
1144.8000;0.4786;0.8766;
1145.1000;0.4746;0.8715;
1145.4000;0.4746;0.8665;
1145.7000;0.4754;0.8665;
1146.0000;0.4762;0.8614;
1146.3000;0.4729;0.8640;
1146.6000;0.4746;0.8589;
1146.9000;0.4729;0.8564;
1147.2000;0.4737;0.8539;
1147.5000;0.4746;0.8514;
1147.8000;0.4737;0.8564;
1148.1000;0.4770;0.8690;
1148.4000;0.4729;0.8589;
1148.7000;0.4746;0.8640;
1149.0000;0.4746;0.8614;
1149.3000;0.4737;0.8715;
1149.6000;0.4770;0.8791;
1149.9000;0.4721;0.8665;
1150.2000;0.4713;0.8589;
1150.5000;0.4721;0.8539;
1150.8000;0.4737;0.8564;
1151.1000;0.4713;0.8589;
1151.4000;0.4721;0.8614;
1151.7000;0.4729;0.8614;
1152.0000;0.4746;0.8589;
1152.3000;0.4737;0.8489;
1152.6000;0.4737;0.8564;
1152.9000;0.4770;0.8665;
1153.2000;0.4754;0.8589;
1153.5000;0.4803;0.8589;
1153.8000;0.4754;0.8463;
1154.1000;0.4721;0.8363;
1154.4000;0.4705;0.8363;
1154.7000;0.4737;0.8438;
1155.0000;0.4737;0.8564;
1155.3000;0.4737;0.8539;
1155.6000;0.4754;0.8589;
1155.9000;0.4729;0.8564;
1156.2000;0.4746;0.8690;
1156.5000;0.4705;0.8614;
1156.8000;0.4737;0.8715;
1157.1000;0.4778;0.8816;
1157.4000;0.4737;0.8740;
1157.7000;0.4689;0.8564;
1158.0000;0.4729;0.8614;
1158.3000;0.4737;0.8665;
1158.6000;0.4746;0.8640;
1158.9000;0.4721;0.8640;
1159.2000;0.4778;0.8740;
1159.5000;0.4770;0.8715;
1159.8000;0.4754;0.8715;
1160.1000;0.4737;0.8740;
1160.4000;0.4729;0.8740;
1160.7000;0.4721;0.8715;
1161.0000;0.4737;0.8715;
1161.3000;0.4762;0.8740;
1161.6000;0.4754;0.8791;
1161.9000;0.4754;0.8766;
1162.2000;0.4729;0.8791;
1162.5000;0.4737;0.8791;
1162.8000;0.4737;0.8740;
1163.1000;0.4729;0.8715;
1163.4000;0.4737;0.8640;
1163.7000;0.4746;0.8665;
1164.0000;0.4746;0.8690;
1164.3000;0.4746;0.8614;
1164.6000;0.4762;0.8690;
1164.9000;0.4786;0.8766;
1165.2000;0.4746;0.8715;
1165.5000;0.4737;0.8766;
1165.8000;0.4754;0.8715;
1166.1000;0.4754;0.8715;
1166.4000;0.4746;0.8640;
1166.7000;0.4737;0.8614;
1167.0000;0.4811;0.8866;
1167.3000;0.4729;0.8665;
1167.6000;0.4778;0.8791;
1167.9000;0.4729;0.8715;
1168.2000;0.4737;0.8740;
1168.5000;0.4721;0.8740;
1168.8000;0.4721;0.8816;
1169.1000;0.4778;0.8917;
1169.4000;0.4713;0.8715;
1169.7000;0.4721;0.8690;
1170.0000;0.4721;0.8665;
1170.3000;0.4729;0.8640;
1170.6000;0.4656;0.8337;
1170.9000;0.4713;0.8514;
1171.2000;0.4746;0.8589;
1171.5000;0.4746;0.8589;
1171.8000;0.4729;0.8614;
1172.1000;0.4746;0.8665;
1172.4000;0.4737;0.8564;
1172.7000;0.4729;0.8514;
1173.0000;0.4721;0.8463;
1173.3000;0.4729;0.8514;
1173.6000;0.4737;0.8489;
1173.9000;0.4737;0.8463;
1174.2000;0.4729;0.8489;
1174.5000;0.4746;0.8539;
1174.8000;0.4729;0.8564;
1175.1000;0.4754;0.8614;
1175.4000;0.4754;0.8589;
1175.7000;0.4721;0.8640;
1176.0000;0.4827;0.8917;
1176.3000;0.4721;0.8539;
1176.6000;0.4729;0.8589;
1176.9000;0.4786;0.8791;
1177.2000;0.4737;0.8766;
1177.5000;0.4737;0.8640;
1177.8000;0.4746;0.8740;
1178.1000;0.4721;0.8640;
1178.4000;0.4713;0.8614;
1178.7000;0.4721;0.8489;
1179.0000;0.4705;0.8489;
1179.3000;0.4729;0.8564;
1179.6000;0.4729;0.8665;
1179.9000;0.4721;0.8589;
1180.2000;0.4746;0.8665;
1180.5000;0.4737;0.8564;
1180.8000;0.4729;0.8514;
1181.1000;0.4746;0.8514;
1181.4000;0.4737;0.8589;
1181.7000;0.4729;0.8589;
1182.0000;0.4721;0.8564;
1182.3000;0.4729;0.8564;
1182.6000;0.4746;0.8816;
1182.9000;0.4713;0.8614;
1183.2000;0.4770;0.8740;
1183.5000;0.4721;0.8514;
1183.8000;0.4737;0.8463;
1184.1000;0.4721;0.8413;
1184.4000;0.4705;0.8388;
1184.7000;0.4681;0.8337;
1185.0000;0.4705;0.8489;
1185.3000;0.4746;0.8539;
1185.6000;0.4729;0.8564;
1185.9000;0.4737;0.8589;
1186.2000;0.4746;0.8614;
1186.5000;0.4713;0.8589;
1186.8000;0.4729;0.8413;
1187.1000;0.4737;0.8413;
1187.4000;0.4729;0.8388;
1187.7000;0.4713;0.8388;
1188.0000;0.4737;0.8388;
1188.3000;0.4729;0.8463;
1188.6000;0.4729;0.8438;
1188.9000;0.4729;0.8514;
1189.2000;0.4729;0.8514;
1189.5000;0.4737;0.8489;
1189.8000;0.4754;0.8589;
1190.1000;0.4648;0.8237;
1190.4000;0.4754;0.8539;
1190.7000;0.4737;0.8489;
1191.0000;0.4721;0.8539;
1191.3000;0.4754;0.8614;
1191.6000;0.4737;0.8564;
1191.9000;0.4713;0.8539;
1192.2000;0.4705;0.8539;
1192.5000;0.4721;0.8690;
1192.8000;0.4746;0.8816;
1193.1000;0.4721;0.8766;
1193.4000;0.4811;0.8967;
1193.7000;0.4754;0.8791;
1194.0000;0.4737;0.8766;
1194.3000;0.4721;0.8690;
1194.6000;0.4746;0.8766;
1194.9000;0.4737;0.8791;
1195.2000;0.4754;0.8791;
1195.5000;0.4754;0.8816;
1195.8000;0.4729;0.8690;
1196.1000;0.4729;0.8791;
1196.4000;0.4746;0.8866;
1196.7000;0.4762;0.8866;
1197.0000;0.4737;0.8791;
1197.3000;0.4729;0.8665;
1197.6000;0.4729;0.8665;
1197.9000;0.4729;0.8715;
1198.2000;0.4737;0.8690;
1198.5000;0.4729;0.8715;
1198.8000;0.4762;0.8715;
1199.1000;0.4713;0.8640;
1199.4000;0.4737;0.8766;
1199.7000;0.4713;0.8766;
1200.0000;0.4737;0.8766;
1200.3000;0.4754;0.8841;
1200.6000;0.4754;0.8816;
1200.9000;0.4729;0.8866;
1201.2000;0.4754;0.8892;
1201.5000;0.4754;0.8892;
1201.8000;0.4737;0.8816;
1202.1000;0.4713;0.8766;
1202.4000;0.4746;0.8816;
1202.7000;0.4746;0.8841;
1203.0000;0.4729;0.8816;
1203.3000;0.4721;0.8866;
1203.6000;0.4721;0.8841;
1203.9000;0.4729;0.8791;
1204.2000;0.4746;0.8791;
1204.5000;0.4737;0.8690;
1204.8000;0.4746;0.8715;
1205.1000;0.4746;0.8766;
1205.4000;0.4754;0.8715;
1205.7000;0.4737;0.8640;
1206.0000;0.4737;0.8564;
1206.3000;0.4737;0.8640;
1206.6000;0.4770;0.8665;
1206.9000;0.4746;0.8614;
1207.2000;0.4713;0.8539;
1207.5000;0.4746;0.8614;
1207.8000;0.4770;0.8589;
1208.1000;0.4721;0.8413;
1208.4000;0.4729;0.8388;
1208.7000;0.4762;0.8514;
1209.0000;0.4754;0.8463;
1209.3000;0.4754;0.8539;
1209.6000;0.4762;0.8489;
1209.9000;0.4754;0.8489;
1210.2000;0.4737;0.8514;
1210.5000;0.4746;0.8514;
1210.8000;0.4746;0.8589;
1211.1000;0.4746;0.8564;
1211.4000;0.4737;0.8614;
1211.7000;0.4754;0.8665;
1212.0000;0.4746;0.8715;
1212.3000;0.4746;0.8766;
1212.6000;0.4721;0.8640;
1212.9000;0.4713;0.8665;
1213.2000;0.4762;0.8715;
1213.5000;0.4721;0.8640;
1213.8000;0.4729;0.8640;
1214.1000;0.4721;0.8640;
1214.4000;0.4746;0.8589;
1214.7000;0.4794;0.8791;
1215.0000;0.4737;0.8640;
1215.3000;0.4705;0.8589;
1215.6000;0.4746;0.8690;
1215.9000;0.4713;0.8614;
1216.2000;0.4697;0.8539;
1216.5000;0.4737;0.8589;
1216.8000;0.4786;0.8690;
1217.1000;0.4762;0.8665;
1217.4000;0.4737;0.8539;
1217.7000;0.4778;0.8640;
1218.0000;0.4737;0.8690;
1218.3000;0.4705;0.8614;
1218.6000;0.4811;0.8841;
1218.9000;0.4754;0.8690;
1219.2000;0.4746;0.8665;
1219.5000;0.4754;0.8665;
1219.8000;0.4737;0.8665;
1220.1000;0.4737;0.8766;
1220.4000;0.4713;0.8766;
1220.7000;0.4737;0.8740;
1221.0000;0.4721;0.8740;
1221.3000;0.4737;0.8715;
1221.6000;0.4737;0.8665;
1221.9000;0.4754;0.8665;
1222.2000;0.4737;0.8640;
1222.5000;0.4819;0.8866;
1222.8000;0.4729;0.8514;
1223.1000;0.4778;0.8614;
1223.4000;0.4737;0.8589;
1223.7000;0.4729;0.8614;
1224.0000;0.4705;0.8766;
1224.3000;0.4729;0.8816;
1224.6000;0.4721;0.8791;
1224.9000;0.4729;0.8816;
1225.2000;0.4729;0.8866;
1225.5000;0.4737;0.8816;
1225.8000;0.4729;0.8740;
1226.1000;0.4746;0.8640;
1226.4000;0.4746;0.8690;
1226.7000;0.4737;0.8640;
1227.0000;0.4721;0.8614;
1227.3000;0.4713;0.8564;
1227.6000;0.4754;0.8665;
1227.9000;0.4746;0.8665;
1228.2000;0.4754;0.8690;
1228.5000;0.4746;0.8690;
1228.8000;0.4770;0.8740;
1229.1000;0.4729;0.8614;
1229.4000;0.4713;0.8539;
1229.7000;0.4746;0.8589;
1230.0000;0.4713;0.8514;
1230.3000;0.4713;0.8614;
1230.6000;0.4737;0.8665;
1230.9000;0.4746;0.8690;
1231.2000;0.4705;0.8514;
1231.5000;0.4754;0.8564;
1231.8000;0.4721;0.8564;
1232.1000;0.4737;0.8589;
1232.4000;0.4713;0.8514;
1232.7000;0.4819;0.8740;
1233.0000;0.4754;0.8589;
1233.3000;0.4737;0.8564;
1233.6000;0.4811;0.8715;
1233.9000;0.4729;0.8564;
1234.2000;0.4729;0.8564;
1234.5000;0.4754;0.8665;
1234.8000;0.4737;0.8640;
1235.1000;0.4754;0.8589;
1235.4000;0.4737;0.8640;
1235.7000;0.4778;0.8740;
1236.0000;0.4746;0.8640;
1236.3000;0.4721;0.8640;
1236.6000;0.4835;0.8992;
1236.9000;0.4746;0.8791;
1237.2000;0.4713;0.8766;
1237.5000;0.4737;0.8841;
1237.8000;0.4835;0.9043;
1238.1000;0.4737;0.8791;
1238.4000;0.4746;0.8766;
1238.7000;0.4770;0.8892;
1239.0000;0.4754;0.8892;
1239.3000;0.4705;0.8791;
1239.6000;0.4705;0.8841;
1239.9000;0.4697;0.8690;
1240.2000;0.4681;0.8690;
1240.5000;0.4721;0.8766;
1240.8000;0.4721;0.8690;
1241.1000;0.4729;0.8640;
1241.4000;0.4721;0.8589;
1241.7000;0.4721;0.8614;
1242.0000;0.4746;0.8690;
1242.3000;0.4721;0.8665;
1242.6000;0.4721;0.8564;
1242.9000;0.4729;0.8640;
1243.2000;0.4746;0.8690;
1243.5000;0.4713;0.8589;
1243.8000;0.4729;0.8640;
1244.1000;0.4729;0.8640;
1244.4000;0.4737;0.8614;
1244.7000;0.4721;0.8514;
1245.0000;0.4754;0.8539;
1245.3000;0.4754;0.8589;
1245.6000;0.4737;0.8564;
1245.9000;0.4737;0.8614;
1246.2000;0.4746;0.8715;
1246.5000;0.4746;0.8690;
1246.8000;0.4762;0.8740;
1247.1000;0.4746;0.8866;
1247.4000;0.4770;0.8917;
1247.7000;0.4729;0.8967;
1248.0000;0.4746;0.9017;
1248.3000;0.4746;0.9068;
1248.6000;0.4729;0.9017;
1248.9000;0.4729;0.8942;
1249.2000;0.4721;0.8841;
1249.5000;0.4705;0.8917;
1249.8000;0.4754;0.8967;
1250.1000;0.4729;0.8866;
1250.4000;0.4721;0.8841;
1250.7000;0.4729;0.8816;
1251.0000;0.4746;0.8892;
1251.3000;0.4754;0.8866;
1251.6000;0.4721;0.8690;
1251.9000;0.4721;0.8715;
1252.2000;0.4697;0.8640;
1252.5000;0.4737;0.8841;
1252.8000;0.4729;0.8690;
1253.1000;0.4721;0.8564;
1253.4000;0.4729;0.8665;
1253.7000;0.4729;0.8640;
1254.0000;0.4729;0.8589;
1254.3000;0.4729;0.8740;
1254.6000;0.4729;0.8791;
1254.9000;0.4697;0.8816;
1255.2000;0.4803;0.9068;
1255.5000;0.4794;0.9118;
1255.8000;0.4811;0.9169;
1256.1000;0.4664;0.8841;
1256.4000;0.4746;0.9093;
1256.7000;0.4746;0.9043;
1257.0000;0.4762;0.8967;
1257.3000;0.4737;0.8791;
1257.6000;0.4729;0.8690;
1257.9000;0.4737;0.8614;
1258.2000;0.4737;0.8665;
1258.5000;0.4721;0.8614;
1258.8000;0.4689;0.8539;
1259.1000;0.4746;0.8690;
1259.4000;0.4721;0.8791;
1259.7000;0.4729;0.8791;
1260.0000;0.4721;0.8816;
1260.3000;0.4729;0.8791;
1260.6000;0.4689;0.8690;
1260.9000;0.4737;0.8816;
1261.2000;0.4729;0.8715;
1261.5000;0.4737;0.8791;
1261.8000;0.4729;0.8841;
1262.1000;0.4737;0.8917;
1262.4000;0.4713;0.8967;
1262.7000;0.4721;0.8917;
1263.0000;0.4729;0.8791;
1263.3000;0.4713;0.8665;
1263.6000;0.4737;0.8715;
1263.9000;0.4786;0.8892;
1264.2000;0.4729;0.8665;
1264.5000;0.4721;0.8766;
1264.8000;0.4737;0.8766;
1265.1000;0.4729;0.8690;
1265.4000;0.4713;0.8665;
1265.7000;0.4721;0.8715;
1266.0000;0.4737;0.8892;
1266.3000;0.4746;0.8892;
1266.6000;0.4737;0.8841;
1266.9000;0.4762;0.8841;
1267.2000;0.4737;0.8715;
1267.5000;0.4729;0.8715;
1267.8000;0.4754;0.8791;
1268.1000;0.4737;0.8715;
1268.4000;0.4737;0.8791;
1268.7000;0.4746;0.8816;
1269.0000;0.4754;0.8766;
1269.3000;0.4721;0.8690;
1269.6000;0.4737;0.8614;
1269.9000;0.4729;0.8665;
1270.2000;0.4754;0.8640;
1270.5000;0.4762;0.8715;
1270.8000;0.4729;0.8665;
1271.1000;0.4729;0.8589;
1271.4000;0.4737;0.8665;
1271.7000;0.4737;0.8690;
1272.0000;0.4729;0.8740;
1272.3000;0.4713;0.8766;
1272.6000;0.4737;0.8791;
1272.9000;0.4746;0.8791;
1273.2000;0.4754;0.8816;
1273.5000;0.4705;0.8766;
1273.8000;0.4721;0.8766;
1274.1000;0.4721;0.8766;
1274.4000;0.4721;0.8740;
1274.7000;0.4713;0.8816;
1275.0000;0.4697;0.8791;
1275.3000;0.4721;0.8816;
1275.6000;0.4754;0.8841;
1275.9000;0.4713;0.8665;
1276.2000;0.4737;0.8589;
1276.5000;0.4737;0.8640;
1276.8000;0.4737;0.8614;
1277.1000;0.4754;0.8614;
1277.4000;0.4713;0.8614;
1277.7000;0.4721;0.8640;
1278.0000;0.4729;0.8766;
1278.3000;0.4762;0.8841;
1278.6000;0.4729;0.8841;
1278.9000;0.4664;0.8665;
1279.2000;0.4737;0.8866;
1279.5000;0.4729;0.8866;
1279.8000;0.4729;0.8866;
1280.1000;0.4737;0.8892;
1280.4000;0.4778;0.9017;
1280.7000;0.4746;0.9043;
1281.0000;0.4754;0.8892;
1281.3000;0.4729;0.8715;
1281.6000;0.4746;0.8766;
1281.9000;0.4746;0.8740;
1282.2000;0.4721;0.8740;
1282.5000;0.4729;0.8740;
1282.8000;0.4721;0.8690;
1283.1000;0.4729;0.8665;
1283.4000;0.4729;0.8715;
1283.7000;0.4729;0.8690;
1284.0000;0.4713;0.8690;
1284.3000;0.4713;0.8640;
1284.6000;0.4729;0.8665;
1284.9000;0.4697;0.8665;
1285.2000;0.4729;0.8715;
1285.5000;0.4721;0.8715;
1285.8000;0.4721;0.8614;
1286.1000;0.4746;0.8690;
1286.4000;0.4697;0.8564;
1286.7000;0.4721;0.8665;
1287.0000;0.4689;0.8539;
1287.3000;0.4746;0.8715;
1287.6000;0.4746;0.8766;
1287.9000;0.4729;0.8715;
1288.2000;0.4729;0.8690;
1288.5000;0.4729;0.8665;
1288.8000;0.4721;0.8740;
1289.1000;0.4729;0.8740;
1289.4000;0.4729;0.8766;
1289.7000;0.4754;0.8892;
1290.0000;0.4664;0.8614;
1290.3000;0.4737;0.8791;
1290.6000;0.4737;0.8766;
1290.9000;0.4762;0.8766;
1291.2000;0.4737;0.8715;
1291.5000;0.4737;0.8791;
1291.8000;0.4729;0.8766;
1292.1000;0.4762;0.8791;
1292.4000;0.4737;0.8740;
1292.7000;0.4746;0.8740;
1293.0000;0.4746;0.8715;
1293.3000;0.4737;0.8640;
1293.6000;0.4737;0.8715;
1293.9000;0.4697;0.8690;
1294.2000;0.4721;0.8766;
1294.5000;0.4721;0.8715;
1294.8000;0.4754;0.8791;
1295.1000;0.4713;0.8715;
1295.4000;0.4729;0.8740;
1295.7000;0.4746;0.8791;
1296.0000;0.4721;0.8690;
1296.3000;0.4754;0.8740;
1296.6000;0.4746;0.8740;
1296.9000;0.4746;0.8740;
1297.2000;0.4754;0.8690;
1297.5000;0.4721;0.8665;
1297.8000;0.4713;0.8640;
1298.1000;0.4754;0.8766;
1298.4000;0.4737;0.8816;
1298.7000;0.4713;0.8791;
1299.0000;0.4721;0.8917;
1299.3000;0.4754;0.8967;
1299.6000;0.4835;0.9194;
1299.9000;0.4754;0.9043;
1300.2000;0.4721;0.8967;
1300.5000;0.4754;0.8967;
1300.8000;0.4746;0.8917;
1301.1000;0.4737;0.8866;
1301.4000;0.4746;0.8892;
1301.7000;0.4721;0.8740;
1302.0000;0.4746;0.8766;
1302.3000;0.4762;0.8841;
1302.6000;0.4746;0.8766;
1302.9000;0.4737;0.8715;
1303.2000;0.4729;0.8665;
1303.5000;0.4737;0.8640;
1303.8000;0.4754;0.8766;
1304.1000;0.4746;0.8791;
1304.4000;0.4737;0.8766;
1304.7000;0.4746;0.8690;
1305.0000;0.4754;0.8690;
1305.3000;0.4721;0.8665;
1305.6000;0.4746;0.8740;
1305.9000;0.4770;0.8816;
1306.2000;0.4754;0.8766;
1306.5000;0.4746;0.8690;
1306.8000;0.4697;0.8589;
1307.1000;0.4729;0.8665;
1307.4000;0.4762;0.8715;
1307.7000;0.4721;0.8640;
1308.0000;0.4754;0.8740;
1308.3000;0.4737;0.8740;
1308.6000;0.4786;0.8816;
1308.9000;0.4737;0.8766;
1309.2000;0.4737;0.8866;
1309.5000;0.4729;0.8766;
1309.8000;0.4770;0.8892;
1310.1000;0.4746;0.8816;
1310.4000;0.4721;0.8866;
1310.7000;0.4713;0.8841;
1311.0000;0.4729;0.8892;
1311.3000;0.4746;0.8866;
1311.6000;0.4721;0.8866;
1311.9000;0.4721;0.8841;
1312.2000;0.4729;0.8892;
1312.5000;0.4746;0.8917;
1312.8000;0.4746;0.8917;
1313.1000;0.4746;0.8892;
1313.4000;0.4729;0.8841;
1313.7000;0.4737;0.8917;
1314.0000;0.4737;0.8942;
1314.3000;0.4737;0.8992;
1314.6000;0.4737;0.8917;
1314.9000;0.4737;0.8967;
1315.2000;0.4721;0.8892;
1315.5000;0.4721;0.8841;
1315.8000;0.4794;0.9068;
1316.1000;0.4778;0.8917;
1316.4000;0.4737;0.8866;
1316.7000;0.4729;0.8740;
1317.0000;0.4737;0.8690;
1317.3000;0.4746;0.8690;
1317.6000;0.4746;0.8715;
1317.9000;0.4721;0.8665;
1318.2000;0.4721;0.8564;
1318.5000;0.4754;0.8640;
1318.8000;0.4721;0.8539;
1319.1000;0.4778;0.8740;
1319.4000;0.4705;0.8589;
1319.7000;0.4713;0.8564;
1320.0000;0.4729;0.8589;
1320.3000;0.4721;0.8539;
1320.6000;0.4713;0.8514;
1320.9000;0.4729;0.8640;
1321.2000;0.4721;0.8665;
1321.5000;0.4737;0.8766;
1321.8000;0.4721;0.8665;
1322.1000;0.4721;0.8715;
1322.4000;0.4786;0.8942;
1322.7000;0.4746;0.8967;
1323.0000;0.4737;0.8892;
1323.3000;0.4705;0.8690;
1323.6000;0.4721;0.8740;
1323.9000;0.4737;0.8614;
1324.2000;0.4697;0.8539;
1324.5000;0.4786;0.8715;
1324.8000;0.4737;0.8614;
1325.1000;0.4737;0.8715;
1325.4000;0.4729;0.8740;
1325.7000;0.4713;0.8866;
1326.0000;0.4721;0.8917;
1326.3000;0.4721;0.8892;
1326.6000;0.4729;0.8917;
1326.9000;0.4729;0.8942;
1327.2000;0.4729;0.8841;
1327.5000;0.4737;0.8917;
1327.8000;0.4746;0.8892;
1328.1000;0.4746;0.8917;
1328.4000;0.4737;0.8892;
1328.7000;0.4729;0.8866;
1329.0000;0.4721;0.8917;
1329.3000;0.4737;0.8917;
1329.6000;0.4746;0.8866;
1329.9000;0.4746;0.8866;
1330.2000;0.4794;0.8992;
1330.5000;0.4729;0.8866;
1330.8000;0.4737;0.8791;
1331.1000;0.4729;0.8766;
1331.4000;0.4737;0.8841;
1331.7000;0.4746;0.8816;
1332.0000;0.4697;0.8640;
1332.3000;0.4729;0.8715;
1332.6000;0.4729;0.8740;
1332.9000;0.4648;0.8564;
1333.2000;0.4746;0.8766;
1333.5000;0.4737;0.8791;
1333.8000;0.4786;0.8866;
1334.1000;0.4746;0.8640;
1334.4000;0.4786;0.8665;
1334.7000;0.4721;0.8539;
1335.0000;0.4729;0.8564;
1335.3000;0.4746;0.8690;
1335.6000;0.4713;0.8690;
1335.9000;0.4721;0.8715;
1336.2000;0.4729;0.8665;
1336.5000;0.4778;0.8766;
1336.8000;0.4729;0.8614;
1337.1000;0.4737;0.8614;
1337.4000;0.4746;0.8715;
1337.7000;0.4762;0.8816;
1338.0000;0.4770;0.8866;
1338.3000;0.4713;0.8766;
1338.6000;0.4737;0.8766;
1338.9000;0.4746;0.8766;
1339.2000;0.4656;0.8514;
1339.5000;0.4737;0.8740;
1339.8000;0.4721;0.8715;
1340.1000;0.4746;0.8715;
1340.4000;0.4737;0.8665;
1340.7000;0.4648;0.8438;
1341.0000;0.4746;0.8665;
1341.3000;0.4803;0.8791;
1341.6000;0.4737;0.8640;
1341.9000;0.4737;0.8715;
1342.2000;0.4705;0.8665;
1342.5000;0.4746;0.8715;
1342.8000;0.4729;0.8665;
1343.1000;0.4737;0.8740;
1343.4000;0.4746;0.8740;
1343.7000;0.4729;0.8614;
1344.0000;0.4737;0.8614;
1344.3000;0.4737;0.8740;
1344.6000;0.4689;0.8665;
1344.9000;0.4737;0.8740;
1345.2000;0.4754;0.8740;
1345.5000;0.4729;0.8640;
1345.8000;0.4697;0.8589;
1346.1000;0.4729;0.8690;
1346.4000;0.4713;0.8740;
1346.7000;0.4729;0.8690;
1347.0000;0.4778;0.8740;
1347.3000;0.4737;0.8640;
1347.6000;0.4713;0.8640;
1347.9000;0.4721;0.8715;
1348.2000;0.4835;0.9043;
1348.5000;0.4721;0.8715;
1348.8000;0.4746;0.8715;
1349.1000;0.4737;0.8740;
1349.4000;0.4713;0.8690;
1349.7000;0.4819;0.8992;
1350.0000;0.4721;0.8766;
1350.3000;0.4729;0.8715;
1350.6000;0.4689;0.8564;
1350.9000;0.4754;0.8715;
1351.2000;0.4737;0.8614;
1351.5000;0.4729;0.8640;
1351.8000;0.4729;0.8614;
1352.1000;0.4729;0.8564;
1352.4000;0.4705;0.8514;
1352.7000;0.4729;0.8489;
1353.0000;0.4737;0.8489;
1353.3000;0.4737;0.8514;
1353.6000;0.4746;0.8463;
1353.9000;0.4737;0.8413;
1354.2000;0.4819;0.8564;
1354.5000;0.4762;0.8438;
1354.8000;0.4762;0.8539;
1355.1000;0.4729;0.8489;
1355.4000;0.4713;0.8287;
1355.7000;0.4762;0.8413;
1356.0000;0.4811;0.8539;
1356.3000;0.4721;0.8337;
1356.6000;0.4737;0.8413;
1356.9000;0.4737;0.8514;
1357.2000;0.4721;0.8438;
1357.5000;0.4729;0.8438;
1357.8000;0.4746;0.8438;
1358.1000;0.4721;0.8363;
1358.4000;0.4737;0.8463;
1358.7000;0.4729;0.8489;
1359.0000;0.4713;0.8489;
1359.3000;0.4721;0.8539;
1359.6000;0.4737;0.8690;
1359.9000;0.4746;0.8640;
1360.2000;0.4729;0.8564;
1360.5000;0.4746;0.8489;
1360.8000;0.4713;0.8413;
1361.1000;0.4737;0.8463;
1361.4000;0.4737;0.8438;
1361.7000;0.4729;0.8438;
1362.0000;0.4705;0.8413;
1362.3000;0.4737;0.8489;
1362.6000;0.4762;0.8463;
1362.9000;0.4681;0.8287;
1363.2000;0.4672;0.8287;
1363.5000;0.4737;0.8564;
1363.8000;0.4754;0.8614;
1364.1000;0.4697;0.8463;
1364.4000;0.4737;0.8665;
1364.7000;0.4729;0.8715;
1365.0000;0.4729;0.8614;
1365.3000;0.4737;0.8539;
1365.6000;0.4721;0.8514;
1365.9000;0.4697;0.8413;
1366.2000;0.4721;0.8489;
1366.5000;0.4721;0.8489;
1366.8000;0.4729;0.8539;
1367.1000;0.4729;0.8564;
1367.4000;0.4737;0.8614;
1367.7000;0.4729;0.8614;
1368.0000;0.4721;0.8489;
1368.3000;0.4721;0.8564;
1368.6000;0.4737;0.8614;
1368.9000;0.4729;0.8589;
1369.2000;0.4689;0.8514;
1369.5000;0.4737;0.8589;
1369.8000;0.4681;0.8388;
1370.1000;0.4737;0.8614;
1370.4000;0.4705;0.8489;
1370.7000;0.4729;0.8539;
1371.0000;0.4770;0.8564;
1371.3000;0.4737;0.8413;
1371.6000;0.4697;0.8337;
1371.9000;0.4681;0.8363;
1372.2000;0.4713;0.8438;
1372.5000;0.4721;0.8539;
1372.8000;0.4713;0.8463;
1373.1000;0.4713;0.8463;
1373.4000;0.4664;0.8262;
1373.7000;0.4729;0.8438;
1374.0000;0.4737;0.8413;
1374.3000;0.4737;0.8388;
1374.6000;0.4721;0.8438;
1374.9000;0.4746;0.8463;
1375.2000;0.4737;0.8463;
1375.5000;0.4737;0.8489;
1375.8000;0.4754;0.8564;
1376.1000;0.4737;0.8564;
1376.4000;0.4729;0.8514;
1376.7000;0.4713;0.8438;
1377.0000;0.4713;0.8413;
1377.3000;0.4737;0.8489;
1377.6000;0.4729;0.8388;
1377.9000;0.4729;0.8413;
1378.2000;0.4737;0.8489;
1378.5000;0.4737;0.8438;
1378.8000;0.4729;0.8514;
1379.1000;0.4729;0.8539;
1379.4000;0.4721;0.8463;
1379.7000;0.4737;0.8463;
1380.0000;0.4729;0.8438;
1380.3000;0.4746;0.8564;
1380.6000;0.4713;0.8514;
1380.9000;0.4729;0.8564;
1381.2000;0.4737;0.8564;
1381.5000;0.4737;0.8589;
1381.8000;0.4721;0.8463;
1382.1000;0.4632;0.8211;
1382.4000;0.4729;0.8539;
1382.7000;0.4729;0.8564;
1383.0000;0.4737;0.8463;
1383.3000;0.4746;0.8489;
1383.6000;0.4729;0.8388;
1383.9000;0.4746;0.8438;
1384.2000;0.4729;0.8463;
1384.5000;0.4737;0.8539;
1384.8000;0.4737;0.8589;
1385.1000;0.4737;0.8665;
1385.4000;0.4737;0.8640;
1385.7000;0.4770;0.8715;
1386.0000;0.4737;0.8614;
1386.3000;0.4746;0.8614;
1386.6000;0.4721;0.8514;
1386.9000;0.4713;0.8514;
1387.2000;0.4681;0.8489;
1387.5000;0.4729;0.8640;
1387.8000;0.4737;0.8715;
1388.1000;0.4721;0.8614;
1388.4000;0.4721;0.8539;
1388.7000;0.4729;0.8463;
1389.0000;0.4721;0.8489;
1389.3000;0.4754;0.8589;
1389.6000;0.4632;0.8262;
1389.9000;0.4713;0.8438;
1390.2000;0.4697;0.8489;
1390.5000;0.4729;0.8564;
1390.8000;0.4713;0.8514;
1391.1000;0.4713;0.8489;
1391.4000;0.4697;0.8489;
1391.7000;0.4689;0.8438;
1392.0000;0.4713;0.8438;
1392.3000;0.4705;0.8413;
1392.6000;0.4729;0.8463;
1392.9000;0.4721;0.8413;
1393.2000;0.4672;0.8388;
1393.5000;0.4746;0.8489;
1393.8000;0.4778;0.8640;
1394.1000;0.4713;0.8514;
1394.4000;0.4729;0.8463;
1394.7000;0.4713;0.8388;
1395.0000;0.4721;0.8413;
1395.3000;0.4705;0.8413;
1395.6000;0.4697;0.8388;
1395.9000;0.4721;0.8413;
1396.2000;0.4754;0.8539;
1396.5000;0.4713;0.8438;
1396.8000;0.4721;0.8413;
1397.1000;0.4705;0.8363;
1397.4000;0.4713;0.8438;
1397.7000;0.4762;0.8589;
1398.0000;0.4737;0.8489;
1398.3000;0.4746;0.8463;
1398.6000;0.4721;0.8489;
1398.9000;0.4746;0.8564;
1399.2000;0.4729;0.8539;
1399.5000;0.4737;0.8489;
1399.8000;0.4713;0.8413;
