time/ms;Fluo/V;P700 deltaI/I x10³;
-199.8000;0.3769;1.8375;
-199.5000;0.3720;1.8252;
-199.2000;0.3753;1.8326;
-198.9000;0.3736;1.8252;
-198.6000;0.3761;1.8375;
-198.3000;0.3777;1.8375;
-198.0000;0.3736;1.8277;
-197.7000;0.3736;1.8351;
-197.4000;0.3785;1.8474;
-197.1000;0.3769;1.8425;
-196.8000;0.3753;1.8326;
-196.5000;0.3728;1.8326;
-196.2000;0.3753;1.8326;
-195.9000;0.3761;1.8252;
-195.6000;0.3736;1.8203;
-195.3000;0.3777;1.8252;
-195.0000;0.3753;1.8228;
-194.7000;0.3761;1.8203;
-194.4000;0.3810;1.8351;
-194.1000;0.3720;1.8179;
-193.8000;0.3761;1.8302;
-193.5000;0.3753;1.8326;
-193.2000;0.3736;1.8326;
-192.9000;0.3753;1.8302;
-192.6000;0.3761;1.8302;
-192.3000;0.3769;1.8326;
-192.0000;0.3744;1.8203;
-191.7000;0.3744;1.8179;
-191.4000;0.3720;1.8105;
-191.1000;0.3761;1.8154;
-190.8000;0.3753;1.8154;
-190.5000;0.3761;1.8252;
-190.2000;0.3704;1.8154;
-189.9000;0.3769;1.8203;
-189.6000;0.3753;1.8179;
-189.3000;0.3761;1.8129;
-189.0000;0.3753;1.8129;
-188.7000;0.3744;1.8154;
-188.4000;0.3744;1.8252;
-188.1000;0.3753;1.8326;
-187.8000;0.3744;1.8302;
-187.5000;0.3761;1.8375;
-187.2000;0.3728;1.8302;
-186.9000;0.3728;1.8326;
-186.6000;0.3761;1.8326;
-186.3000;0.3769;1.8326;
-186.0000;0.3761;1.8351;
-185.7000;0.3769;1.8351;
-185.4000;0.3744;1.8351;
-185.1000;0.3761;1.8449;
-184.8000;0.3753;1.8449;
-184.5000;0.3753;1.8474;
-184.2000;0.3761;1.8425;
-183.9000;0.3728;1.8302;
-183.6000;0.3753;1.8326;
-183.3000;0.3744;1.8375;
-183.0000;0.3761;1.8375;
-182.7000;0.3720;1.8302;
-182.4000;0.3761;1.8400;
-182.1000;0.3753;1.8449;
-181.8000;0.3736;1.8474;
-181.5000;0.3744;1.8572;
-181.2000;0.3761;1.8548;
-180.9000;0.3744;1.8523;
-180.6000;0.3753;1.8572;
-180.3000;0.3761;1.8498;
-180.0000;0.3761;1.8425;
-179.7000;0.3744;1.8277;
-179.4000;0.3753;1.8277;
-179.1000;0.3736;1.8252;
-178.8000;0.3753;1.8277;
-178.5000;0.3818;1.8449;
-178.2000;0.3753;1.8302;
-177.9000;0.3769;1.8326;
-177.6000;0.3761;1.8326;
-177.3000;0.3769;1.8277;
-177.0000;0.3744;1.8203;
-176.7000;0.3793;1.8351;
-176.4000;0.3728;1.8228;
-176.1000;0.3753;1.8302;
-175.8000;0.3744;1.8277;
-175.5000;0.3753;1.8252;
-175.2000;0.3671;1.8056;
-174.9000;0.3744;1.8252;
-174.6000;0.3777;1.8302;
-174.3000;0.3728;1.8252;
-174.0000;0.3753;1.8277;
-173.7000;0.3744;1.8228;
-173.4000;0.3761;1.8203;
-173.1000;0.3736;1.8203;
-172.8000;0.3761;1.8302;
-172.5000;0.3753;1.8252;
-172.2000;0.3769;1.8326;
-171.9000;0.3753;1.8302;
-171.6000;0.3761;1.8375;
-171.3000;0.3744;1.8375;
-171.0000;0.3769;1.8523;
-170.7000;0.3744;1.8474;
-170.4000;0.3744;1.8425;
-170.1000;0.3785;1.8400;
-169.8000;0.3761;1.8326;
-169.5000;0.3769;1.8326;
-169.2000;0.3777;1.8326;
-168.9000;0.3753;1.8252;
-168.6000;0.3712;1.8154;
-168.3000;0.3736;1.8203;
-168.0000;0.3744;1.8228;
-167.7000;0.3761;1.8326;
-167.4000;0.3736;1.8302;
-167.1000;0.3785;1.8425;
-166.8000;0.3769;1.8400;
-166.5000;0.3761;1.8400;
-166.2000;0.3704;1.8252;
-165.9000;0.3728;1.8252;
-165.6000;0.3728;1.8203;
-165.3000;0.3744;1.8252;
-165.0000;0.3744;1.8326;
-164.7000;0.3728;1.8277;
-164.4000;0.3736;1.8228;
-164.1000;0.3712;1.8203;
-163.8000;0.3744;1.8302;
-163.5000;0.3753;1.8326;
-163.2000;0.3753;1.8252;
-162.9000;0.3736;1.8252;
-162.6000;0.3810;1.8548;
-162.3000;0.3736;1.8474;
-162.0000;0.3753;1.8498;
-161.7000;0.3761;1.8449;
-161.4000;0.3793;1.8425;
-161.1000;0.3761;1.8400;
-160.8000;0.3777;1.8400;
-160.5000;0.3769;1.8326;
-160.2000;0.3753;1.8326;
-159.9000;0.3687;1.8179;
-159.6000;0.3753;1.8400;
-159.3000;0.3761;1.8425;
-159.0000;0.3793;1.8400;
-158.7000;0.3753;1.8228;
-158.4000;0.3712;1.8277;
-158.1000;0.3777;1.8400;
-157.8000;0.3744;1.8302;
-157.5000;0.3753;1.8375;
-157.2000;0.3753;1.8425;
-156.9000;0.3679;1.8154;
-156.6000;0.3777;1.8400;
-156.3000;0.3834;1.8572;
-156.0000;0.3753;1.8326;
-155.7000;0.3761;1.8375;
-155.4000;0.3761;1.8351;
-155.1000;0.3753;1.8277;
-154.8000;0.3744;1.8302;
-154.5000;0.3744;1.8326;
-154.2000;0.3777;1.8351;
-153.9000;0.3769;1.8302;
-153.6000;0.3744;1.8252;
-153.3000;0.3736;1.8252;
-153.0000;0.3728;1.8326;
-152.7000;0.3704;1.8277;
-152.4000;0.3753;1.8498;
-152.1000;0.3753;1.8498;
-151.8000;0.3736;1.8474;
-151.5000;0.3777;1.8474;
-151.2000;0.3753;1.8474;
-150.9000;0.3736;1.8449;
-150.6000;0.3761;1.8498;
-150.3000;0.3761;1.8474;
-150.0000;0.3785;1.8548;
-149.7000;0.3744;1.8449;
-149.4000;0.3744;1.8523;
-149.1000;0.3744;1.8523;
-148.8000;0.3736;1.8425;
-148.5000;0.3769;1.8498;
-148.2000;0.3736;1.8351;
-147.9000;0.3736;1.8400;
-147.6000;0.3826;1.8671;
-147.3000;0.3761;1.8474;
-147.0000;0.3769;1.8449;
-146.7000;0.3753;1.8375;
-146.4000;0.3769;1.8425;
-146.1000;0.3761;1.8326;
-145.8000;0.3753;1.8326;
-145.5000;0.3720;1.8277;
-145.2000;0.3761;1.8375;
-144.9000;0.3777;1.8375;
-144.6000;0.3761;1.8228;
-144.3000;0.3736;1.8203;
-144.0000;0.3728;1.8154;
-143.7000;0.3753;1.8252;
-143.4000;0.3744;1.8326;
-143.1000;0.3744;1.8375;
-142.8000;0.3736;1.8351;
-142.5000;0.3761;1.8351;
-142.2000;0.3793;1.8498;
-141.9000;0.3761;1.8498;
-141.6000;0.3761;1.8474;
-141.3000;0.3769;1.8400;
-141.0000;0.3744;1.8351;
-140.7000;0.3793;1.8400;
-140.4000;0.3744;1.8302;
-140.1000;0.3736;1.8302;
-139.8000;0.3761;1.8326;
-139.5000;0.3744;1.8252;
-139.2000;0.3720;1.8277;
-138.9000;0.3777;1.8498;
-138.6000;0.3736;1.8375;
-138.3000;0.3753;1.8375;
-138.0000;0.3736;1.8375;
-137.7000;0.3736;1.8498;
-137.4000;0.3753;1.8498;
-137.1000;0.3744;1.8548;
-136.8000;0.3753;1.8671;
-136.5000;0.3728;1.8572;
-136.2000;0.3736;1.8572;
-135.9000;0.3736;1.8523;
-135.6000;0.3753;1.8523;
-135.3000;0.3736;1.8449;
-135.0000;0.3736;1.8400;
-134.7000;0.3761;1.8425;
-134.4000;0.3769;1.8498;
-134.1000;0.3761;1.8474;
-133.8000;0.3753;1.8474;
-133.5000;0.3744;1.8548;
-133.2000;0.3728;1.8425;
-132.9000;0.3761;1.8548;
-132.6000;0.3769;1.8523;
-132.3000;0.3769;1.8498;
-132.0000;0.3793;1.8548;
-131.7000;0.3769;1.8498;
-131.4000;0.3753;1.8375;
-131.1000;0.3761;1.8400;
-130.8000;0.3769;1.8449;
-130.5000;0.3761;1.8425;
-130.2000;0.3761;1.8400;
-129.9000;0.3753;1.8252;
-129.6000;0.3777;1.8326;
-129.3000;0.3761;1.8326;
-129.0000;0.3753;1.8302;
-128.7000;0.3744;1.8375;
-128.4000;0.3736;1.8351;
-128.1000;0.3769;1.8523;
-127.8000;0.3728;1.8425;
-127.5000;0.3744;1.8474;
-127.2000;0.3753;1.8474;
-126.9000;0.3744;1.8474;
-126.6000;0.3753;1.8523;
-126.3000;0.3736;1.8523;
-126.0000;0.3753;1.8523;
-125.7000;0.3793;1.8597;
-125.4000;0.3736;1.8425;
-125.1000;0.3785;1.8449;
-124.8000;0.3761;1.8425;
-124.5000;0.3753;1.8425;
-124.2000;0.3810;1.8572;
-123.9000;0.3736;1.8351;
-123.6000;0.3753;1.8351;
-123.3000;0.3753;1.8400;
-123.0000;0.3753;1.8474;
-122.7000;0.3679;1.8228;
-122.4000;0.3761;1.8425;
-122.1000;0.3761;1.8400;
-121.8000;0.3761;1.8449;
-121.5000;0.3761;1.8449;
-121.2000;0.3744;1.8400;
-120.9000;0.3753;1.8351;
-120.6000;0.3753;1.8326;
-120.3000;0.3744;1.8179;
-120.0000;0.3761;1.8228;
-119.7000;0.3753;1.8252;
-119.4000;0.3761;1.8277;
-119.1000;0.3769;1.8252;
-118.8000;0.3704;1.8154;
-118.5000;0.3761;1.8228;
-118.2000;0.3744;1.8302;
-117.9000;0.3753;1.8400;
-117.6000;0.3818;1.8572;
-117.3000;0.3728;1.8351;
-117.0000;0.3753;1.8474;
-116.7000;0.3753;1.8400;
-116.4000;0.3712;1.8302;
-116.1000;0.3736;1.8277;
-115.8000;0.3753;1.8351;
-115.5000;0.3744;1.8302;
-115.2000;0.3744;1.8351;
-114.9000;0.3744;1.8302;
-114.6000;0.3736;1.8228;
-114.3000;0.3744;1.8228;
-114.0000;0.3736;1.8228;
-113.7000;0.3720;1.8277;
-113.4000;0.3801;1.8425;
-113.1000;0.3753;1.8302;
-112.8000;0.3704;1.8154;
-112.5000;0.3736;1.8400;
-112.2000;0.3736;1.8425;
-111.9000;0.3696;1.8252;
-111.6000;0.3753;1.8400;
-111.3000;0.3753;1.8277;
-111.0000;0.3753;1.8277;
-110.7000;0.3769;1.8326;
-110.4000;0.3753;1.8302;
-110.1000;0.3753;1.8302;
-109.8000;0.3753;1.8277;
-109.5000;0.3753;1.8351;
-109.2000;0.3753;1.8375;
-108.9000;0.3761;1.8400;
-108.6000;0.3769;1.8425;
-108.3000;0.3744;1.8375;
-108.0000;0.3761;1.8400;
-107.7000;0.3777;1.8400;
-107.4000;0.3736;1.8302;
-107.1000;0.3744;1.8351;
-106.8000;0.3785;1.8425;
-106.5000;0.3753;1.8375;
-106.2000;0.3761;1.8375;
-105.9000;0.3761;1.8400;
-105.6000;0.3736;1.8425;
-105.3000;0.3761;1.8523;
-105.0000;0.3753;1.8449;
-104.7000;0.3753;1.8449;
-104.4000;0.3736;1.8400;
-104.1000;0.3744;1.8375;
-103.8000;0.3744;1.8277;
-103.5000;0.3744;1.8326;
-103.2000;0.3736;1.8351;
-102.9000;0.3728;1.8302;
-102.6000;0.3753;1.8351;
-102.3000;0.3687;1.8326;
-102.0000;0.3728;1.8474;
-101.7000;0.3728;1.8326;
-101.4000;0.3753;1.8375;
-101.1000;0.3753;1.8425;
-100.8000;0.3769;1.8474;
-100.5000;0.3744;1.8351;
-100.2000;0.3769;1.8400;
-99.9000;0.3777;1.8302;
-99.6000;0.3736;1.8179;
-99.3000;0.3744;1.8203;
-99.0000;0.3761;1.8302;
-98.7000;0.3769;1.8302;
-98.4000;0.3744;1.8179;
-98.1000;0.3744;1.8228;
-97.8000;0.3785;1.8351;
-97.5000;0.3761;1.8351;
-97.2000;0.3753;1.8351;
-96.9000;0.3753;1.8400;
-96.6000;0.3728;1.8375;
-96.3000;0.3769;1.8449;
-96.0000;0.3761;1.8449;
-95.7000;0.3712;1.8400;
-95.4000;0.3753;1.8498;
-95.1000;0.3761;1.8621;
-94.8000;0.3785;1.8621;
-94.5000;0.3769;1.8548;
-94.2000;0.3761;1.8474;
-93.9000;0.3761;1.8498;
-93.6000;0.3761;1.8449;
-93.3000;0.3744;1.8449;
-93.0000;0.3744;1.8425;
-92.7000;0.3744;1.8400;
-92.4000;0.3769;1.8351;
-92.1000;0.3744;1.8252;
-91.8000;0.3744;1.8326;
-91.5000;0.3761;1.8375;
-91.2000;0.3744;1.8252;
-90.9000;0.3744;1.8228;
-90.6000;0.3744;1.8203;
-90.3000;0.3753;1.8302;
-90.0000;0.3761;1.8302;
-89.7000;0.3761;1.8326;
-89.4000;0.3736;1.8277;
-89.1000;0.3753;1.8302;
-88.8000;0.3777;1.8400;
-88.5000;0.3761;1.8375;
-88.2000;0.3744;1.8351;
-87.9000;0.3736;1.8400;
-87.6000;0.3785;1.8449;
-87.3000;0.3769;1.8351;
-87.0000;0.3753;1.8351;
-86.7000;0.3671;1.8179;
-86.4000;0.3744;1.8326;
-86.1000;0.3720;1.8277;
-85.8000;0.3720;1.8252;
-85.5000;0.3826;1.8425;
-85.2000;0.3696;1.8105;
-84.9000;0.3777;1.8228;
-84.6000;0.3769;1.8179;
-84.3000;0.3753;1.8179;
-84.0000;0.3736;1.8179;
-83.7000;0.3761;1.8228;
-83.4000;0.3753;1.8179;
-83.1000;0.3736;1.8203;
-82.8000;0.3736;1.8302;
-82.5000;0.3744;1.8302;
-82.2000;0.3753;1.8277;
-81.9000;0.3744;1.8277;
-81.6000;0.3744;1.8351;
-81.3000;0.3785;1.8474;
-81.0000;0.3753;1.8351;
-80.7000;0.3761;1.8326;
-80.4000;0.3785;1.8375;
-80.1000;0.3753;1.8252;
-79.8000;0.3761;1.8252;
-79.5000;0.3761;1.8351;
-79.2000;0.3728;1.8326;
-78.9000;0.3744;1.8302;
-78.6000;0.3761;1.8302;
-78.3000;0.3744;1.8252;
-78.0000;0.3753;1.8228;
-77.7000;0.3728;1.8179;
-77.4000;0.3744;1.8154;
-77.1000;0.3744;1.8252;
-76.8000;0.3712;1.8228;
-76.5000;0.3744;1.8302;
-76.2000;0.3761;1.8302;
-75.9000;0.3769;1.8228;
-75.6000;0.3761;1.8277;
-75.3000;0.3728;1.8252;
-75.0000;0.3769;1.8375;
-74.7000;0.3834;1.8646;
-74.4000;0.3769;1.8474;
-74.1000;0.3744;1.8400;
-73.8000;0.3769;1.8425;
-73.5000;0.3753;1.8474;
-73.2000;0.3761;1.8474;
-72.9000;0.3744;1.8498;
-72.6000;0.3761;1.8523;
-72.3000;0.3761;1.8523;
-72.0000;0.3753;1.8523;
-71.7000;0.3704;1.8326;
-71.4000;0.3744;1.8302;
-71.1000;0.3736;1.8277;
-70.8000;0.3736;1.8302;
-70.5000;0.3761;1.8351;
-70.2000;0.3761;1.8425;
-69.9000;0.3761;1.8425;
-69.6000;0.3818;1.8572;
-69.3000;0.3696;1.8252;
-69.0000;0.3736;1.8326;
-68.7000;0.3761;1.8400;
-68.4000;0.3761;1.8277;
-68.1000;0.3761;1.8351;
-67.8000;0.3736;1.8277;
-67.5000;0.3728;1.8203;
-67.2000;0.3728;1.8277;
-66.9000;0.3744;1.8351;
-66.6000;0.3744;1.8375;
-66.3000;0.3744;1.8351;
-66.0000;0.3744;1.8400;
-65.7000;0.3753;1.8498;
-65.4000;0.3744;1.8449;
-65.1000;0.3736;1.8400;
-64.8000;0.3753;1.8400;
-64.5000;0.3728;1.8375;
-64.2000;0.3753;1.8400;
-63.9000;0.3736;1.8326;
-63.6000;0.3826;1.8621;
-63.3000;0.3777;1.8572;
-63.0000;0.3761;1.8597;
-62.7000;0.3761;1.8597;
-62.4000;0.3744;1.8548;
-62.1000;0.3736;1.8523;
-61.8000;0.3753;1.8523;
-61.5000;0.3761;1.8548;
-61.2000;0.3769;1.8548;
-60.9000;0.3769;1.8498;
-60.6000;0.3744;1.8351;
-60.3000;0.3753;1.8351;
-60.0000;0.3769;1.8375;
-59.7000;0.3769;1.8375;
-59.4000;0.3753;1.8351;
-59.1000;0.3761;1.8375;
-58.8000;0.3720;1.8326;
-58.5000;0.3744;1.8400;
-58.2000;0.3753;1.8375;
-57.9000;0.3744;1.8351;
-57.6000;0.3736;1.8252;
-57.3000;0.3769;1.8326;
-57.0000;0.3744;1.8400;
-56.7000;0.3728;1.8351;
-56.4000;0.3728;1.8400;
-56.1000;0.3728;1.8425;
-55.8000;0.3744;1.8474;
-55.5000;0.3753;1.8474;
-55.2000;0.3785;1.8572;
-54.9000;0.3753;1.8498;
-54.6000;0.3744;1.8523;
-54.3000;0.3761;1.8548;
-54.0000;0.3761;1.8548;
-53.7000;0.3744;1.8449;
-53.4000;0.3753;1.8498;
-53.1000;0.3761;1.8597;
-52.8000;0.3736;1.8572;
-52.5000;0.3753;1.8572;
-52.2000;0.3736;1.8597;
-51.9000;0.3769;1.8621;
-51.6000;0.3744;1.8597;
-51.3000;0.3753;1.8548;
-51.0000;0.3753;1.8449;
-50.7000;0.3744;1.8425;
-50.4000;0.3744;1.8523;
-50.1000;0.3753;1.8597;
-49.8000;0.3769;1.8597;
-49.5000;0.3744;1.8523;
-49.2000;0.3761;1.8597;
-48.9000;0.3761;1.8572;
-48.6000;0.3728;1.8400;
-48.3000;0.3753;1.8474;
-48.0000;0.3753;1.8548;
-47.7000;0.3744;1.8597;
-47.4000;0.3736;1.8621;
-47.1000;0.3728;1.8498;
-46.8000;0.3753;1.8548;
-46.5000;0.3753;1.8597;
-46.2000;0.3744;1.8597;
-45.9000;0.3744;1.8621;
-45.6000;0.3744;1.8621;
-45.3000;0.3736;1.8720;
-45.0000;0.3736;1.8671;
-44.7000;0.3744;1.8646;
-44.4000;0.3753;1.8671;
-44.1000;0.3761;1.8720;
-43.8000;0.3744;1.8744;
-43.5000;0.3761;1.8671;
-43.2000;0.3744;1.8621;
-42.9000;0.3753;1.8572;
-42.6000;0.3753;1.8425;
-42.3000;0.3801;1.8621;
-42.0000;0.3744;1.8474;
-41.7000;0.3728;1.8425;
-41.4000;0.3769;1.8498;
-41.1000;0.3761;1.8498;
-40.8000;0.3753;1.8548;
-40.5000;0.3744;1.8597;
-40.2000;0.3761;1.8572;
-39.9000;0.3777;1.8572;
-39.6000;0.3761;1.8597;
-39.3000;0.3736;1.8498;
-39.0000;0.3777;1.8572;
-38.7000;0.3720;1.8400;
-38.4000;0.3744;1.8498;
-38.1000;0.3753;1.8498;
-37.8000;0.3769;1.8548;
-37.5000;0.3761;1.8548;
-37.2000;0.3753;1.8400;
-36.9000;0.3744;1.8375;
-36.6000;0.3753;1.8474;
-36.3000;0.3761;1.8474;
-36.0000;0.3777;1.8498;
-35.7000;0.3736;1.8375;
-35.4000;0.3761;1.8375;
-35.1000;0.3744;1.8326;
-34.8000;0.3761;1.8351;
-34.5000;0.3753;1.8375;
-34.2000;0.3728;1.8425;
-33.9000;0.3753;1.8449;
-33.6000;0.3736;1.8449;
-33.3000;0.3736;1.8302;
-33.0000;0.3744;1.8277;
-32.7000;0.3744;1.8252;
-32.4000;0.3736;1.8252;
-32.1000;0.3744;1.8302;
-31.8000;0.3744;1.8277;
-31.5000;0.3744;1.8302;
-31.2000;0.3753;1.8277;
-30.9000;0.3744;1.8302;
-30.6000;0.3736;1.8326;
-30.3000;0.3761;1.8375;
-30.0000;0.3753;1.8351;
-29.7000;0.3793;1.8425;
-29.4000;0.3761;1.8252;
-29.1000;0.3761;1.8351;
-28.8000;0.3769;1.8449;
-28.5000;0.3777;1.8425;
-28.2000;0.3753;1.8400;
-27.9000;0.3761;1.8449;
-27.6000;0.3761;1.8474;
-27.3000;0.3761;1.8449;
-27.0000;0.3744;1.8425;
-26.7000;0.3736;1.8474;
-26.4000;0.3744;1.8523;
-26.1000;0.3777;1.8597;
-25.8000;0.3712;1.8400;
-25.5000;0.3736;1.8474;
-25.2000;0.3761;1.8474;
-24.9000;0.3736;1.8474;
-24.6000;0.3793;1.8621;
-24.3000;0.3736;1.8498;
-24.0000;0.3753;1.8523;
-23.7000;0.3736;1.8449;
-23.4000;0.3761;1.8523;
-23.1000;0.3761;1.8523;
-22.8000;0.3769;1.8597;
-22.5000;0.3720;1.8548;
-22.2000;0.3810;1.8695;
-21.9000;0.3728;1.8400;
-21.6000;0.3712;1.8400;
-21.3000;0.3736;1.8498;
-21.0000;0.3744;1.8474;
-20.7000;0.3744;1.8523;
-20.4000;0.3736;1.8498;
-20.1000;0.3744;1.8646;
-19.8000;0.3753;1.8646;
-19.5000;0.3753;1.8646;
-19.2000;0.3753;1.8572;
-18.9000;0.3744;1.8548;
-18.6000;0.3769;1.8597;
-18.3000;0.3753;1.8548;
-18.0000;0.3728;1.8400;
-17.7000;0.3753;1.8375;
-17.4000;0.3753;1.8400;
-17.1000;0.3769;1.8449;
-16.8000;0.3777;1.8425;
-16.5000;0.3744;1.8425;
-16.2000;0.3736;1.8375;
-15.9000;0.3761;1.8400;
-15.6000;0.3744;1.8449;
-15.3000;0.3769;1.8548;
-15.0000;0.3801;1.8597;
-14.7000;0.3834;1.8572;
-14.4000;0.3761;1.8400;
-14.1000;0.3761;1.8326;
-13.8000;0.3769;1.8425;
-13.5000;0.3785;1.8449;
-13.2000;0.3777;1.8449;
-12.9000;0.3671;1.8203;
-12.6000;0.3744;1.8375;
-12.3000;0.3769;1.8375;
-12.0000;0.3753;1.8375;
-11.7000;0.3736;1.8228;
-11.4000;0.3761;1.8252;
-11.1000;0.3753;1.8179;
-10.8000;0.3761;1.8277;
-10.5000;0.3744;1.8252;
-10.2000;0.3679;1.8203;
-9.9000;0.3712;1.8326;
-9.6000;0.3753;1.8425;
-9.3000;0.3785;1.8572;
-9.0000;0.3744;1.8523;
-8.7000;0.3744;1.8523;
-8.4000;0.3753;1.8597;
-8.1000;0.3793;1.8744;
-7.8000;0.3744;1.8695;
-7.5000;0.3753;1.8597;
-7.2000;0.3761;1.8572;
-6.9000;0.3769;1.8572;
-6.6000;0.3753;1.8523;
-6.3000;0.3744;1.8498;
-6.0000;0.3769;1.8523;
-5.7000;0.3753;1.8498;
-5.4000;0.3753;1.8498;
-5.1000;0.3761;1.8449;
-4.8000;0.3769;1.8425;
-4.5000;0.3753;1.8474;
-4.2000;0.3761;1.8523;
-3.9000;0.3761;1.8597;
-3.6000;0.3761;1.8597;
-3.3000;0.3736;1.8572;
-3.0000;0.3736;1.8548;
-2.7000;0.3761;1.8621;
-2.4000;0.3769;1.8720;
-2.1000;0.3753;1.8572;
-1.8000;0.3671;1.8302;
-1.5000;0.3753;1.8523;
-1.2000;0.3736;1.8548;
-0.9000;0.3753;1.8621;
-0.6000;0.3769;1.8744;
-0.3000;0.3810;1.8818;
0.0000;0.3810;1.8818;
0.3000;0.3948;1.8375;
0.6000;0.4274;1.8867;
0.9000;0.4485;1.9261;
1.2000;0.4624;1.9532;
1.5000;0.4705;1.9728;
1.8000;0.4884;2.0171;
2.1000;0.4965;2.0392;
2.4000;0.5039;2.0540;
2.7000;0.5071;2.0688;
3.0000;0.5112;2.0835;
3.3000;0.5169;2.1007;
3.6000;0.5177;2.1106;
3.9000;0.5226;2.1204;
4.2000;0.5226;2.1204;
4.5000;0.5332;2.1524;
4.8000;0.5267;2.1401;
5.1000;0.5283;2.1426;
5.4000;0.5307;2.1549;
5.7000;0.5324;2.1524;
6.0000;0.5340;2.1524;
6.3000;0.5324;2.1475;
6.6000;0.5372;2.1573;
6.9000;0.5397;2.1549;
7.2000;0.5397;2.1549;
7.5000;0.5495;2.1647;
7.8000;0.5429;2.1401;
8.1000;0.5429;2.1327;
8.4000;0.5446;2.1327;
8.7000;0.5462;2.1376;
9.0000;0.5495;2.1376;
9.3000;0.5429;2.1253;
9.6000;0.5486;2.1303;
9.9000;0.5511;2.1303;
10.2000;0.5486;2.1204;
10.5000;0.5519;2.1204;
10.8000;0.5519;2.1130;
11.1000;0.5527;2.1180;
11.4000;0.5560;2.1180;
11.7000;0.5551;2.1155;
12.0000;0.5576;2.1204;
12.3000;0.5576;2.1229;
12.6000;0.5584;2.1303;
12.9000;0.5592;2.1303;
13.2000;0.5617;2.1376;
13.5000;0.5617;2.1327;
13.8000;0.5608;2.1278;
14.1000;0.5641;2.1327;
14.4000;0.5633;2.1352;
14.7000;0.5617;2.1303;
15.0000;0.5657;2.1352;
15.3000;0.5657;2.1278;
15.6000;0.5682;2.1278;
15.9000;0.5682;2.1253;
16.2000;0.5698;2.1229;
16.5000;0.5698;2.1106;
16.8000;0.5755;2.1229;
17.1000;0.5722;2.1081;
17.4000;0.5739;2.1180;
17.7000;0.5739;2.1155;
18.0000;0.5763;2.1155;
18.3000;0.5771;2.1204;
18.6000;0.5779;2.1204;
18.9000;0.5779;2.1106;
19.2000;0.5779;2.1057;
19.5000;0.5788;2.1032;
19.8000;0.5804;2.1007;
20.1000;0.5812;2.1081;
20.4000;0.5771;2.1081;
20.7000;0.5804;2.1180;
21.0000;0.5820;2.1180;
21.3000;0.5828;2.1229;
21.6000;0.5828;2.1229;
21.9000;0.5853;2.1180;
22.2000;0.5853;2.1130;
22.5000;0.5861;2.1229;
22.8000;0.5853;2.1155;
23.1000;0.5869;2.1229;
23.4000;0.5902;2.1278;
23.7000;0.5893;2.1180;
24.0000;0.5893;2.1278;
24.3000;0.5877;2.1229;
24.6000;0.5902;2.1278;
24.9000;0.5910;2.1229;
25.2000;0.5902;2.1155;
25.5000;0.5918;2.1130;
25.8000;0.5885;2.1180;
26.1000;0.5926;2.1327;
26.4000;0.5934;2.1352;
26.7000;0.5893;2.1278;
27.0000;0.5934;2.1376;
27.3000;0.5942;2.1352;
27.6000;0.5958;2.1303;
27.9000;0.5958;2.1376;
28.2000;0.5967;2.1376;
28.5000;0.5975;2.1253;
28.8000;0.5975;2.1253;
29.1000;0.5983;2.1278;
29.4000;0.5967;2.1229;
29.7000;0.5991;2.1303;
30.0000;0.5991;2.1253;
30.3000;0.5999;2.1180;
30.6000;0.5999;2.1130;
30.9000;0.6007;2.1106;
31.2000;0.5991;2.1081;
31.5000;0.6015;2.1130;
31.8000;0.6007;2.1130;
32.1000;0.5999;2.1081;
32.4000;0.6007;2.1106;
32.7000;0.6015;2.1106;
33.0000;0.6015;2.1130;
33.3000;0.6015;2.1180;
33.6000;0.6024;2.1180;
33.9000;0.6048;2.1130;
34.2000;0.6048;2.1155;
34.5000;0.6040;2.1106;
34.8000;0.6015;2.1106;
35.1000;0.6097;2.1180;
35.4000;0.6064;2.1032;
35.7000;0.6048;2.1057;
36.0000;0.6048;2.1032;
36.3000;0.6056;2.1032;
36.6000;0.6048;2.1081;
36.9000;0.6064;2.1032;
37.2000;0.6072;2.0983;
37.5000;0.6081;2.1057;
37.8000;0.6097;2.1081;
38.1000;0.6097;2.1130;
38.4000;0.6072;2.1081;
38.7000;0.6089;2.1130;
39.0000;0.6105;2.1130;
39.3000;0.6105;2.1106;
39.6000;0.6105;2.1057;
39.9000;0.6097;2.1106;
40.2000;0.6121;2.1229;
40.5000;0.6121;2.1204;
40.8000;0.6089;2.1155;
41.1000;0.6089;2.1155;
41.4000;0.6121;2.1155;
41.7000;0.6129;2.1155;
42.0000;0.6129;2.1057;
42.3000;0.6121;2.1007;
42.6000;0.6121;2.1130;
42.9000;0.6154;2.1278;
43.2000;0.6211;2.1401;
43.5000;0.6146;2.1229;
43.8000;0.6146;2.1155;
44.1000;0.6146;2.1155;
44.4000;0.6154;2.1106;
44.7000;0.6129;2.1032;
45.0000;0.6146;2.1032;
45.3000;0.6162;2.1032;
45.6000;0.6162;2.1007;
45.9000;0.6154;2.1032;
46.2000;0.6203;2.1130;
46.5000;0.6186;2.1057;
46.8000;0.6129;2.1007;
47.1000;0.6195;2.1155;
47.4000;0.6162;2.1032;
47.7000;0.6162;2.1032;
48.0000;0.6170;2.0983;
48.3000;0.6178;2.0983;
48.6000;0.6178;2.0934;
48.9000;0.6186;2.0958;
49.2000;0.6178;2.0983;
49.5000;0.6203;2.0983;
49.8000;0.6203;2.0958;
50.1000;0.6203;2.0983;
50.4000;0.6170;2.0835;
50.7000;0.6170;2.0884;
51.0000;0.6211;2.0958;
51.3000;0.6203;2.0909;
51.6000;0.6211;2.0958;
51.9000;0.6211;2.0860;
52.2000;0.6203;2.0860;
52.5000;0.6211;2.0884;
52.8000;0.6219;2.0835;
53.1000;0.6227;2.0934;
53.4000;0.6243;2.0983;
53.7000;0.6219;2.1032;
54.0000;0.6227;2.1007;
54.3000;0.6252;2.0983;
54.6000;0.6243;2.0958;
54.9000;0.6252;2.0860;
55.2000;0.6260;2.0934;
55.5000;0.6252;2.0934;
55.8000;0.6243;2.0909;
56.1000;0.6243;2.0761;
56.4000;0.6235;2.0860;
56.7000;0.6260;2.0909;
57.0000;0.6260;2.0835;
57.3000;0.6268;2.0884;
57.6000;0.6252;2.0860;
57.9000;0.6268;2.0835;
58.2000;0.6309;2.0884;
58.5000;0.6268;2.0761;
58.8000;0.6260;2.0712;
59.1000;0.6260;2.0663;
59.4000;0.6268;2.0811;
59.7000;0.6260;2.0786;
60.0000;0.6276;2.0786;
60.3000;0.6203;2.0712;
60.6000;0.6268;2.0934;
60.9000;0.6252;2.0934;
61.2000;0.6276;2.0884;
61.5000;0.6276;2.0860;
61.8000;0.6292;2.0860;
62.1000;0.6292;2.0884;
62.4000;0.6268;2.0786;
62.7000;0.6292;2.0811;
63.0000;0.6300;2.0860;
63.3000;0.6300;2.0786;
63.6000;0.6325;2.0737;
63.9000;0.6309;2.0737;
64.2000;0.6309;2.0761;
64.5000;0.6325;2.0688;
64.8000;0.6325;2.0663;
65.1000;0.6309;2.0638;
65.4000;0.6317;2.0614;
65.7000;0.6309;2.0540;
66.0000;0.6333;2.0565;
66.3000;0.6390;2.0663;
66.6000;0.6333;2.0442;
66.9000;0.6325;2.0466;
67.2000;0.6374;2.0663;
67.5000;0.6341;2.0540;
67.8000;0.6341;2.0442;
68.1000;0.6341;2.0417;
68.4000;0.6349;2.0392;
68.7000;0.6349;2.0442;
69.0000;0.6300;2.0343;
69.3000;0.6398;2.0565;
69.6000;0.6333;2.0392;
69.9000;0.6357;2.0565;
70.2000;0.6357;2.0442;
70.5000;0.6300;2.0294;
70.8000;0.6341;2.0392;
71.1000;0.6365;2.0491;
71.4000;0.6325;2.0392;
71.7000;0.6365;2.0491;
72.0000;0.6357;2.0466;
72.3000;0.6365;2.0565;
72.6000;0.6357;2.0540;
72.9000;0.6349;2.0515;
73.2000;0.6357;2.0491;
73.5000;0.6365;2.0491;
73.8000;0.6349;2.0491;
74.1000;0.6382;2.0515;
74.4000;0.6374;2.0540;
74.7000;0.6398;2.0614;
75.0000;0.6398;2.0761;
75.3000;0.6382;2.0614;
75.6000;0.6374;2.0589;
75.9000;0.6447;2.0761;
76.2000;0.6390;2.0540;
76.5000;0.6390;2.0515;
76.8000;0.6390;2.0540;
77.1000;0.6390;2.0565;
77.4000;0.6398;2.0565;
77.7000;0.6398;2.0589;
78.0000;0.6414;2.0663;
78.3000;0.6414;2.0688;
78.6000;0.6422;2.0638;
78.9000;0.6349;2.0442;
79.2000;0.6439;2.0638;
79.5000;0.6422;2.0565;
79.8000;0.6447;2.0565;
80.1000;0.6431;2.0466;
80.4000;0.6414;2.0417;
80.7000;0.6406;2.0466;
81.0000;0.6431;2.0515;
81.3000;0.6422;2.0540;
81.6000;0.6422;2.0540;
81.9000;0.6414;2.0515;
82.2000;0.6398;2.0491;
82.5000;0.6439;2.0614;
82.8000;0.6406;2.0589;
83.1000;0.6374;2.0491;
83.4000;0.6439;2.0688;
83.7000;0.6422;2.0589;
84.0000;0.6447;2.0663;
84.3000;0.6431;2.0663;
84.6000;0.6422;2.0688;
84.9000;0.6447;2.0688;
85.2000;0.6471;2.0638;
85.5000;0.6447;2.0663;
85.8000;0.6406;2.0565;
86.1000;0.6479;2.0737;
86.4000;0.6422;2.0638;
86.7000;0.6447;2.0614;
87.0000;0.6496;2.0638;
87.3000;0.6447;2.0442;
87.6000;0.6455;2.0442;
87.9000;0.6439;2.0319;
88.2000;0.6455;2.0392;
88.5000;0.6463;2.0442;
88.8000;0.6471;2.0392;
89.1000;0.6422;2.0220;
89.4000;0.6455;2.0319;
89.7000;0.6463;2.0343;
90.0000;0.6463;2.0319;
90.3000;0.6463;2.0368;
90.6000;0.6479;2.0540;
90.9000;0.6471;2.0540;
91.2000;0.6463;2.0491;
91.5000;0.6431;2.0392;
91.8000;0.6479;2.0417;
92.1000;0.6455;2.0368;
92.4000;0.6471;2.0294;
92.7000;0.6496;2.0392;
93.0000;0.6422;2.0245;
93.3000;0.6504;2.0491;
93.6000;0.6504;2.0466;
93.9000;0.6463;2.0392;
94.2000;0.6496;2.0368;
94.5000;0.6463;2.0245;
94.8000;0.6479;2.0319;
95.1000;0.6471;2.0319;
95.4000;0.6463;2.0269;
95.7000;0.6471;2.0294;
96.0000;0.6455;2.0245;
96.3000;0.6479;2.0294;
96.6000;0.6488;2.0220;
96.9000;0.6479;2.0146;
97.2000;0.6479;2.0220;
97.5000;0.6479;2.0220;
97.8000;0.6479;2.0294;
98.1000;0.6463;2.0319;
98.4000;0.6504;2.0466;
98.7000;0.6488;2.0442;
99.0000;0.6479;2.0466;
99.3000;0.6455;2.0294;
99.6000;0.6504;2.0466;
99.9000;0.6471;2.0392;
100.2000;0.6504;2.0466;
100.5000;0.6504;2.0491;
100.8000;0.6528;2.0515;
101.1000;0.6520;2.0442;
101.4000;0.6512;2.0368;
101.7000;0.6520;2.0417;
102.0000;0.6479;2.0368;
102.3000;0.6496;2.0392;
102.6000;0.6504;2.0368;
102.9000;0.6512;2.0392;
103.2000;0.6520;2.0466;
103.5000;0.6512;2.0417;
103.8000;0.6512;2.0417;
104.1000;0.6479;2.0294;
104.4000;0.6512;2.0442;
104.7000;0.6512;2.0466;
105.0000;0.6528;2.0491;
105.3000;0.6528;2.0540;
105.6000;0.6553;2.0565;
105.9000;0.6520;2.0442;
106.2000;0.6528;2.0491;
106.5000;0.6528;2.0442;
106.8000;0.6528;2.0417;
107.1000;0.6553;2.0294;
107.4000;0.6520;2.0245;
107.7000;0.6545;2.0245;
108.0000;0.6496;2.0146;
108.3000;0.6520;2.0245;
108.6000;0.6561;2.0392;
108.9000;0.6536;2.0343;
109.2000;0.6520;2.0343;
109.5000;0.6553;2.0368;
109.8000;0.6520;2.0368;
110.1000;0.6545;2.0417;
110.4000;0.6528;2.0368;
110.7000;0.6553;2.0319;
111.0000;0.6585;2.0392;
111.3000;0.6520;2.0220;
111.6000;0.6536;2.0245;
111.9000;0.6536;2.0171;
112.2000;0.6520;2.0171;
112.5000;0.6536;2.0220;
112.8000;0.6528;2.0245;
113.1000;0.6561;2.0220;
113.4000;0.6561;2.0146;
113.7000;0.6536;2.0122;
114.0000;0.6545;2.0122;
114.3000;0.6536;2.0171;
114.6000;0.6536;2.0171;
114.9000;0.6512;2.0097;
115.2000;0.6545;2.0196;
115.5000;0.6545;2.0269;
115.8000;0.6545;2.0269;
116.1000;0.6561;2.0294;
116.4000;0.6536;2.0294;
116.7000;0.6577;2.0466;
117.0000;0.6520;2.0368;
117.3000;0.6536;2.0368;
117.6000;0.6528;2.0343;
117.9000;0.6512;2.0294;
118.2000;0.6520;2.0319;
118.5000;0.6545;2.0343;
118.8000;0.6545;2.0269;
119.1000;0.6536;2.0343;
119.4000;0.6553;2.0392;
119.7000;0.6553;2.0417;
120.0000;0.6545;2.0442;
120.3000;0.6488;2.0245;
120.6000;0.6561;2.0368;
120.9000;0.6569;2.0319;
121.2000;0.6561;2.0319;
121.5000;0.6545;2.0319;
121.8000;0.6545;2.0319;
122.1000;0.6569;2.0392;
122.4000;0.6496;2.0171;
122.7000;0.6561;2.0294;
123.0000;0.6561;2.0269;
123.3000;0.6577;2.0343;
123.6000;0.6561;2.0269;
123.9000;0.6536;2.0319;
124.2000;0.6545;2.0294;
124.5000;0.6577;2.0343;
124.8000;0.6561;2.0294;
125.1000;0.6561;2.0294;
125.4000;0.6569;2.0319;
125.7000;0.6561;2.0319;
126.0000;0.6569;2.0368;
126.3000;0.6569;2.0319;
126.6000;0.6553;2.0245;
126.9000;0.6545;2.0319;
127.2000;0.6569;2.0417;
127.5000;0.6561;2.0491;
127.8000;0.6545;2.0540;
128.1000;0.6553;2.0540;
128.4000;0.6561;2.0540;
128.7000;0.6553;2.0491;
129.0000;0.6545;2.0540;
129.3000;0.6561;2.0540;
129.6000;0.6577;2.0540;
129.9000;0.6561;2.0466;
130.2000;0.6545;2.0392;
130.5000;0.6561;2.0343;
130.8000;0.6561;2.0417;
131.1000;0.6536;2.0294;
131.4000;0.6553;2.0319;
131.7000;0.6553;2.0343;
132.0000;0.6569;2.0515;
132.3000;0.6561;2.0540;
132.6000;0.6569;2.0515;
132.9000;0.6561;2.0442;
133.2000;0.6569;2.0392;
133.5000;0.6553;2.0442;
133.8000;0.6569;2.0491;
134.1000;0.6569;2.0466;
134.4000;0.6569;2.0491;
134.7000;0.6577;2.0417;
135.0000;0.6585;2.0368;
135.3000;0.6545;2.0245;
135.6000;0.6577;2.0245;
135.9000;0.6585;2.0294;
136.2000;0.6561;2.0294;
136.5000;0.6569;2.0343;
136.8000;0.6561;2.0269;
137.1000;0.6553;2.0245;
137.4000;0.6569;2.0294;
137.7000;0.6545;2.0220;
138.0000;0.6545;2.0368;
138.3000;0.6569;2.0466;
138.6000;0.6561;2.0368;
138.9000;0.6585;2.0392;
139.2000;0.6545;2.0294;
139.5000;0.6569;2.0368;
139.8000;0.6569;2.0368;
140.1000;0.6569;2.0392;
140.4000;0.6553;2.0294;
140.7000;0.6553;2.0319;
141.0000;0.6569;2.0392;
141.3000;0.6545;2.0319;
141.6000;0.6577;2.0392;
141.9000;0.6577;2.0442;
142.2000;0.6577;2.0466;
142.5000;0.6561;2.0368;
142.8000;0.6561;2.0343;
143.1000;0.6569;2.0392;
143.4000;0.6569;2.0294;
143.7000;0.6577;2.0343;
144.0000;0.6569;2.0294;
144.3000;0.6569;2.0343;
144.6000;0.6569;2.0368;
144.9000;0.6577;2.0392;
145.2000;0.6585;2.0466;
145.5000;0.6577;2.0466;
145.8000;0.6585;2.0442;
146.1000;0.6593;2.0368;
146.4000;0.6577;2.0343;
146.7000;0.6569;2.0368;
147.0000;0.6577;2.0343;
147.3000;0.6553;2.0392;
147.6000;0.6593;2.0442;
147.9000;0.6577;2.0343;
148.2000;0.6561;2.0269;
148.5000;0.6569;2.0269;
148.8000;0.6561;2.0220;
149.1000;0.6585;2.0319;
149.4000;0.6577;2.0269;
149.7000;0.6585;2.0368;
150.0000;0.6561;2.0269;
150.3000;0.6577;2.0122;
150.6000;0.6577;2.0073;
150.9000;0.6569;2.0048;
151.2000;0.6585;2.0171;
151.5000;0.6577;2.0171;
151.8000;0.6569;2.0220;
152.1000;0.6569;2.0269;
152.4000;0.6577;2.0392;
152.7000;0.6585;2.0417;
153.0000;0.6553;2.0368;
153.3000;0.6561;2.0343;
153.6000;0.6610;2.0368;
153.9000;0.6569;2.0294;
154.2000;0.6602;2.0319;
154.5000;0.6561;2.0269;
154.8000;0.6593;2.0319;
155.1000;0.6569;2.0294;
155.4000;0.6577;2.0220;
155.7000;0.6602;2.0269;
156.0000;0.6569;2.0171;
156.3000;0.6569;2.0269;
156.6000;0.6561;2.0294;
156.9000;0.6569;2.0196;
157.2000;0.6569;2.0171;
157.5000;0.6553;2.0171;
157.8000;0.6569;2.0220;
158.1000;0.6561;2.0196;
158.4000;0.6536;2.0097;
158.7000;0.6569;2.0097;
159.0000;0.6585;2.0171;
159.3000;0.6585;2.0245;
159.6000;0.6569;2.0269;
159.9000;0.6577;2.0294;
160.2000;0.6520;2.0122;
160.5000;0.6593;2.0343;
160.8000;0.6577;2.0269;
161.1000;0.6569;2.0269;
161.4000;0.6577;2.0220;
161.7000;0.6593;2.0196;
162.0000;0.6602;2.0196;
162.3000;0.6577;2.0171;
162.6000;0.6577;2.0269;
162.9000;0.6593;2.0343;
163.2000;0.6561;2.0343;
163.5000;0.6585;2.0343;
163.8000;0.6593;2.0442;
164.1000;0.6577;2.0417;
164.4000;0.6569;2.0368;
164.7000;0.6593;2.0368;
165.0000;0.6561;2.0319;
165.3000;0.6553;2.0319;
165.6000;0.6577;2.0392;
165.9000;0.6577;2.0392;
166.2000;0.6569;2.0343;
166.5000;0.6545;2.0294;
166.8000;0.6577;2.0442;
167.1000;0.6577;2.0491;
167.4000;0.6569;2.0442;
167.7000;0.6577;2.0466;
168.0000;0.6569;2.0392;
168.3000;0.6585;2.0392;
168.6000;0.6577;2.0343;
168.9000;0.6569;2.0368;
169.2000;0.6553;2.0269;
169.5000;0.6569;2.0196;
169.8000;0.6577;2.0196;
170.1000;0.6553;2.0073;
170.4000;0.6577;2.0294;
170.7000;0.6545;2.0146;
171.0000;0.6569;2.0269;
171.3000;0.6577;2.0220;
171.6000;0.6585;2.0220;
171.9000;0.6585;2.0245;
172.2000;0.6610;2.0343;
172.5000;0.6577;2.0122;
172.8000;0.6561;2.0171;
173.1000;0.6577;2.0269;
173.4000;0.6561;2.0269;
173.7000;0.6536;2.0220;
174.0000;0.6569;2.0319;
174.3000;0.6561;2.0392;
174.6000;0.6561;2.0343;
174.9000;0.6577;2.0442;
175.2000;0.6561;2.0343;
175.5000;0.6577;2.0343;
175.8000;0.6610;2.0392;
176.1000;0.6585;2.0269;
176.4000;0.6577;2.0220;
176.7000;0.6577;2.0196;
177.0000;0.6585;2.0196;
177.3000;0.6602;2.0220;
177.6000;0.6569;2.0097;
177.9000;0.6577;2.0146;
178.2000;0.6536;2.0097;
178.5000;0.6585;2.0196;
178.8000;0.6561;2.0196;
179.1000;0.6569;2.0146;
179.4000;0.6569;2.0220;
179.7000;0.6577;2.0196;
180.0000;0.6577;2.0122;
180.3000;0.6577;2.0073;
180.6000;0.6569;2.0097;
180.9000;0.6602;2.0171;
181.2000;0.6569;2.0196;
181.5000;0.6561;2.0196;
181.8000;0.6569;2.0269;
182.1000;0.6569;2.0319;
182.4000;0.6602;2.0368;
182.7000;0.6569;2.0319;
183.0000;0.6577;2.0269;
183.3000;0.6569;2.0294;
183.6000;0.6561;2.0196;
183.9000;0.6577;2.0245;
184.2000;0.6536;2.0196;
184.5000;0.6626;2.0417;
184.8000;0.6569;2.0319;
185.1000;0.6577;2.0294;
185.4000;0.6569;2.0294;
185.7000;0.6585;2.0368;
186.0000;0.6610;2.0491;
186.3000;0.6577;2.0343;
186.6000;0.6561;2.0245;
186.9000;0.6561;2.0343;
187.2000;0.6569;2.0392;
187.5000;0.6553;2.0319;
187.8000;0.6569;2.0319;
188.1000;0.6561;2.0294;
188.4000;0.6577;2.0220;
188.7000;0.6577;2.0220;
189.0000;0.6561;2.0146;
189.3000;0.6561;2.0097;
189.6000;0.6561;2.0122;
189.9000;0.6561;2.0146;
190.2000;0.6561;2.0073;
190.5000;0.6553;2.0048;
190.8000;0.6561;2.0122;
191.1000;0.6569;2.0146;
191.4000;0.6577;2.0171;
191.7000;0.6545;2.0122;
192.0000;0.6577;2.0245;
192.3000;0.6577;2.0245;
192.6000;0.6577;2.0245;
192.9000;0.6536;2.0245;
193.2000;0.6553;2.0343;
193.5000;0.6569;2.0319;
193.8000;0.6553;2.0319;
194.1000;0.6545;2.0294;
194.4000;0.6504;2.0220;
194.7000;0.6577;2.0343;
195.0000;0.6569;2.0343;
195.3000;0.6561;2.0392;
195.6000;0.6536;2.0392;
195.9000;0.6602;2.0417;
196.2000;0.6585;2.0417;
196.5000;0.6569;2.0368;
196.8000;0.6569;2.0343;
197.1000;0.6545;2.0343;
197.4000;0.6577;2.0343;
197.7000;0.6545;2.0319;
198.0000;0.6577;2.0319;
198.3000;0.6569;2.0392;
198.6000;0.6602;2.0466;
198.9000;0.6553;2.0392;
199.2000;0.6545;2.0417;
199.5000;0.6561;2.0392;
199.8000;0.6545;2.0392;
200.1000;0.6561;2.0392;
200.4000;0.6545;2.0417;
200.7000;0.6545;2.0417;
201.0000;0.6577;2.0515;
201.3000;0.6569;2.0417;
201.6000;0.6602;2.0589;
201.9000;0.6561;2.0442;
202.2000;0.6585;2.0515;
202.5000;0.6585;2.0540;
202.8000;0.6626;2.0638;
203.1000;0.6569;2.0540;
203.4000;0.6577;2.0614;
203.7000;0.6577;2.0540;
204.0000;0.6569;2.0515;
204.3000;0.6545;2.0392;
204.6000;0.6545;2.0343;
204.9000;0.6553;2.0491;
205.2000;0.6545;2.0442;
205.5000;0.6536;2.0368;
205.8000;0.6545;2.0368;
206.1000;0.6569;2.0417;
206.4000;0.6553;2.0417;
206.7000;0.6561;2.0491;
207.0000;0.6545;2.0515;
207.3000;0.6561;2.0540;
207.6000;0.6569;2.0540;
207.9000;0.6585;2.0638;
208.2000;0.6553;2.0515;
208.5000;0.6528;2.0466;
208.8000;0.6553;2.0515;
209.1000;0.6536;2.0392;
209.4000;0.6512;2.0319;
209.7000;0.6561;2.0392;
210.0000;0.6577;2.0466;
210.3000;0.6561;2.0417;
210.6000;0.6561;2.0368;
210.9000;0.6504;2.0245;
211.2000;0.6561;2.0368;
211.5000;0.6569;2.0417;
211.8000;0.6545;2.0368;
212.1000;0.6536;2.0269;
212.4000;0.6561;2.0319;
212.7000;0.6569;2.0220;
213.0000;0.6569;2.0294;
213.3000;0.6536;2.0245;
213.6000;0.6569;2.0220;
213.9000;0.6561;2.0245;
214.2000;0.6553;2.0294;
214.5000;0.6593;2.0368;
214.8000;0.6553;2.0368;
215.1000;0.6553;2.0466;
215.4000;0.6553;2.0515;
215.7000;0.6553;2.0466;
216.0000;0.6553;2.0442;
216.3000;0.6471;2.0319;
216.6000;0.6545;2.0614;
216.9000;0.6553;2.0589;
217.2000;0.6545;2.0614;
217.5000;0.6569;2.0614;
217.8000;0.6569;2.0663;
218.1000;0.6528;2.0540;
218.4000;0.6553;2.0565;
218.7000;0.6528;2.0565;
219.0000;0.6577;2.0614;
219.3000;0.6561;2.0565;
219.6000;0.6545;2.0565;
219.9000;0.6553;2.0589;
220.2000;0.6545;2.0589;
220.5000;0.6536;2.0589;
220.8000;0.6561;2.0638;
221.1000;0.6536;2.0589;
221.4000;0.6545;2.0688;
221.7000;0.6545;2.0688;
222.0000;0.6545;2.0638;
222.3000;0.6585;2.0688;
222.6000;0.6488;2.0466;
222.9000;0.6536;2.0638;
223.2000;0.6545;2.0638;
223.5000;0.6553;2.0663;
223.8000;0.6553;2.0589;
224.1000;0.6545;2.0515;
224.4000;0.6553;2.0466;
224.7000;0.6536;2.0417;
225.0000;0.6585;2.0442;
225.3000;0.6536;2.0368;
225.6000;0.6545;2.0343;
225.9000;0.6545;2.0319;
226.2000;0.6536;2.0269;
226.5000;0.6553;2.0319;
226.8000;0.6528;2.0245;
227.1000;0.6553;2.0466;
227.4000;0.6545;2.0417;
227.7000;0.6561;2.0565;
228.0000;0.6569;2.0466;
228.3000;0.6545;2.0466;
228.6000;0.6553;2.0466;
228.9000;0.6536;2.0442;
229.2000;0.6553;2.0515;
229.5000;0.6528;2.0540;
229.8000;0.6553;2.0565;
230.1000;0.6520;2.0466;
230.4000;0.6618;2.0589;
230.7000;0.6536;2.0442;
231.0000;0.6536;2.0491;
231.3000;0.6479;2.0343;
231.6000;0.6553;2.0614;
231.9000;0.6545;2.0663;
232.2000;0.6545;2.0663;
232.5000;0.6561;2.0614;
232.8000;0.6561;2.0589;
233.1000;0.6504;2.0491;
233.4000;0.6520;2.0540;
233.7000;0.6553;2.0614;
234.0000;0.6545;2.0614;
234.3000;0.6553;2.0565;
234.6000;0.6512;2.0343;
234.9000;0.6536;2.0368;
235.2000;0.6528;2.0368;
235.5000;0.6545;2.0417;
235.8000;0.6536;2.0417;
236.1000;0.6545;2.0368;
236.4000;0.6536;2.0442;
236.7000;0.6553;2.0466;
237.0000;0.6561;2.0466;
237.3000;0.6545;2.0442;
237.6000;0.6545;2.0392;
237.9000;0.6561;2.0442;
238.2000;0.6553;2.0515;
238.5000;0.6520;2.0515;
238.8000;0.6545;2.0663;
239.1000;0.6593;2.0786;
239.4000;0.6569;2.0835;
239.7000;0.6569;2.0835;
240.0000;0.6561;2.0737;
240.3000;0.6545;2.0688;
240.6000;0.6553;2.0663;
240.9000;0.6545;2.0712;
241.2000;0.6545;2.0589;
241.5000;0.6545;2.0540;
241.8000;0.6545;2.0565;
242.1000;0.6545;2.0565;
242.4000;0.6536;2.0638;
242.7000;0.6553;2.0663;
243.0000;0.6536;2.0638;
243.3000;0.6569;2.0565;
243.6000;0.6561;2.0491;
243.9000;0.6545;2.0589;
244.2000;0.6577;2.0614;
244.5000;0.6545;2.0515;
244.8000;0.6496;2.0417;
245.1000;0.6528;2.0491;
245.4000;0.6545;2.0515;
245.7000;0.6545;2.0491;
246.0000;0.6545;2.0589;
246.3000;0.6545;2.0540;
246.6000;0.6504;2.0392;
246.9000;0.6553;2.0565;
247.2000;0.6561;2.0688;
247.5000;0.6553;2.0663;
247.8000;0.6536;2.0688;
248.1000;0.6545;2.0688;
248.4000;0.6569;2.0712;
248.7000;0.6536;2.0540;
249.0000;0.6536;2.0565;
249.3000;0.6536;2.0565;
249.6000;0.6553;2.0589;
249.9000;0.6528;2.0515;
250.2000;0.6528;2.0515;
250.5000;0.6528;2.0515;
250.8000;0.6634;2.0737;
251.1000;0.6545;2.0515;
251.4000;0.6528;2.0515;
251.7000;0.6536;2.0515;
252.0000;0.6536;2.0565;
252.3000;0.6536;2.0614;
252.6000;0.6536;2.0515;
252.9000;0.6528;2.0442;
253.2000;0.6545;2.0466;
253.5000;0.6504;2.0392;
253.8000;0.6553;2.0565;
254.1000;0.6536;2.0417;
254.4000;0.6553;2.0442;
254.7000;0.6553;2.0368;
255.0000;0.6569;2.0392;
255.3000;0.6520;2.0343;
255.6000;0.6545;2.0368;
255.9000;0.6545;2.0343;
256.2000;0.6593;2.0540;
256.5000;0.6528;2.0466;
256.8000;0.6528;2.0466;
257.1000;0.6553;2.0540;
257.4000;0.6553;2.0466;
257.7000;0.6545;2.0442;
258.0000;0.6520;2.0466;
258.3000;0.6528;2.0565;
258.6000;0.6545;2.0515;
258.9000;0.6536;2.0565;
259.2000;0.6545;2.0638;
259.5000;0.6553;2.0589;
259.8000;0.6577;2.0761;
260.1000;0.6512;2.0466;
260.4000;0.6528;2.0491;
260.7000;0.6528;2.0442;
261.0000;0.6528;2.0417;
261.3000;0.6528;2.0319;
261.6000;0.6536;2.0319;
261.9000;0.6536;2.0245;
262.2000;0.6536;2.0171;
262.5000;0.6545;2.0122;
262.8000;0.6536;2.0073;
263.1000;0.6585;2.0122;
263.4000;0.6528;2.0073;
263.7000;0.6561;2.0196;
264.0000;0.6536;2.0171;
264.3000;0.6536;2.0171;
264.6000;0.6545;2.0171;
264.9000;0.6536;2.0269;
265.2000;0.6536;2.0343;
265.5000;0.6520;2.0294;
265.8000;0.6553;2.0269;
266.1000;0.6528;2.0220;
266.4000;0.6528;2.0220;
266.7000;0.6512;2.0245;
267.0000;0.6528;2.0196;
267.3000;0.6496;2.0073;
267.6000;0.6536;2.0122;
267.9000;0.6520;2.0048;
268.2000;0.6512;2.0048;
268.5000;0.6536;2.0122;
268.8000;0.6528;2.0122;
269.1000;0.6536;2.0048;
269.4000;0.6536;2.0171;
269.7000;0.6504;2.0146;
270.0000;0.6512;2.0220;
270.3000;0.6528;2.0245;
270.6000;0.6520;2.0319;
270.9000;0.6520;2.0368;
271.2000;0.6528;2.0392;
271.5000;0.6520;2.0368;
271.8000;0.6528;2.0319;
272.1000;0.6528;2.0343;
272.4000;0.6528;2.0319;
272.7000;0.6504;2.0294;
273.0000;0.6528;2.0392;
273.3000;0.6528;2.0392;
273.6000;0.6536;2.0442;
273.9000;0.6561;2.0491;
274.2000;0.6528;2.0466;
274.5000;0.6528;2.0515;
274.8000;0.6496;2.0491;
275.1000;0.6545;2.0589;
275.4000;0.6553;2.0540;
275.7000;0.6512;2.0368;
276.0000;0.6536;2.0466;
276.3000;0.6536;2.0392;
276.6000;0.6520;2.0245;
276.9000;0.6520;2.0269;
277.2000;0.6512;2.0269;
277.5000;0.6520;2.0294;
277.8000;0.6536;2.0392;
278.1000;0.6528;2.0368;
278.4000;0.6610;2.0589;
278.7000;0.6520;2.0343;
279.0000;0.6545;2.0368;
279.3000;0.6553;2.0294;
279.6000;0.6520;2.0343;
279.9000;0.6528;2.0319;
280.2000;0.6536;2.0245;
280.5000;0.6610;2.0392;
280.8000;0.6528;2.0220;
281.1000;0.6528;2.0196;
281.4000;0.6520;2.0294;
281.7000;0.6520;2.0269;
282.0000;0.6504;2.0269;
282.3000;0.6520;2.0245;
282.6000;0.6520;2.0269;
282.9000;0.6536;2.0319;
283.2000;0.6528;2.0294;
283.5000;0.6520;2.0269;
283.8000;0.6528;2.0294;
284.1000;0.6528;2.0269;
284.4000;0.6520;2.0319;
284.7000;0.6536;2.0319;
285.0000;0.6528;2.0319;
285.3000;0.6528;2.0319;
285.6000;0.6520;2.0368;
285.9000;0.6528;2.0319;
286.2000;0.6520;2.0368;
286.5000;0.6520;2.0368;
286.8000;0.6520;2.0343;
287.1000;0.6520;2.0294;
287.4000;0.6520;2.0245;
287.7000;0.6536;2.0220;
288.0000;0.6471;2.0097;
288.3000;0.6512;2.0294;
288.6000;0.6512;2.0269;
288.9000;0.6504;2.0269;
289.2000;0.6528;2.0343;
289.5000;0.6520;2.0269;
289.8000;0.6528;2.0294;
290.1000;0.6520;2.0220;
290.4000;0.6528;2.0319;
290.7000;0.6528;2.0319;
291.0000;0.6545;2.0294;
291.3000;0.6520;2.0245;
291.6000;0.6528;2.0319;
291.9000;0.6520;2.0294;
292.2000;0.6520;2.0319;
292.5000;0.6528;2.0343;
292.8000;0.6520;2.0368;
293.1000;0.6504;2.0343;
293.4000;0.6528;2.0466;
293.7000;0.6504;2.0392;
294.0000;0.6561;2.0565;
294.3000;0.6520;2.0368;
294.6000;0.6536;2.0368;
294.9000;0.6504;2.0319;
295.2000;0.6520;2.0392;
295.5000;0.6512;2.0294;
295.8000;0.6512;2.0319;
296.1000;0.6520;2.0368;
296.4000;0.6528;2.0392;
296.7000;0.6512;2.0491;
297.0000;0.6512;2.0515;
297.3000;0.6520;2.0614;
297.6000;0.6488;2.0515;
297.9000;0.6512;2.0565;
298.2000;0.6479;2.0392;
298.5000;0.6512;2.0417;
298.8000;0.6520;2.0392;
299.1000;0.6512;2.0319;
299.4000;0.6528;2.0294;
299.7000;0.6504;2.0319;
300.0000;0.6545;2.0392;
300.3000;0.6536;2.0491;
300.6000;0.6536;2.0515;
300.9000;0.6528;2.0491;
301.2000;0.6520;2.0417;
301.5000;0.6512;2.0417;
301.8000;0.6520;2.0368;
302.1000;0.6569;2.0442;
302.4000;0.6569;2.0515;
302.7000;0.6520;2.0442;
303.0000;0.6520;2.0442;
303.3000;0.6520;2.0466;
303.6000;0.6520;2.0442;
303.9000;0.6569;2.0638;
304.2000;0.6520;2.0515;
304.5000;0.6528;2.0589;
304.8000;0.6504;2.0491;
305.1000;0.6520;2.0565;
305.4000;0.6512;2.0565;
305.7000;0.6520;2.0540;
306.0000;0.6520;2.0466;
306.3000;0.6512;2.0368;
306.6000;0.6520;2.0392;
306.9000;0.6512;2.0442;
307.2000;0.6520;2.0466;
307.5000;0.6512;2.0491;
307.8000;0.6520;2.0540;
308.1000;0.6553;2.0737;
308.4000;0.6512;2.0491;
308.7000;0.6504;2.0442;
309.0000;0.6471;2.0368;
309.3000;0.6512;2.0442;
309.6000;0.6504;2.0392;
309.9000;0.6496;2.0442;
310.2000;0.6512;2.0491;
310.5000;0.6504;2.0466;
310.8000;0.6512;2.0515;
311.1000;0.6496;2.0565;
311.4000;0.6447;2.0466;
311.7000;0.6536;2.0614;
312.0000;0.6504;2.0638;
312.3000;0.6520;2.0638;
312.6000;0.6504;2.0515;
312.9000;0.6569;2.0540;
313.2000;0.6471;2.0368;
313.5000;0.6512;2.0417;
313.8000;0.6561;2.0614;
314.1000;0.6488;2.0466;
314.4000;0.6512;2.0540;
314.7000;0.6520;2.0515;
315.0000;0.6504;2.0442;
315.3000;0.6536;2.0515;
315.6000;0.6512;2.0466;
315.9000;0.6512;2.0540;
316.2000;0.6463;2.0442;
316.5000;0.6504;2.0614;
316.8000;0.6504;2.0589;
317.1000;0.6479;2.0515;
317.4000;0.6504;2.0565;
317.7000;0.6496;2.0540;
318.0000;0.6504;2.0540;
318.3000;0.6561;2.0663;
318.6000;0.6512;2.0540;
318.9000;0.6528;2.0565;
319.2000;0.6512;2.0565;
319.5000;0.6504;2.0589;
319.8000;0.6528;2.0589;
320.1000;0.6496;2.0589;
320.4000;0.6512;2.0540;
320.7000;0.6512;2.0540;
321.0000;0.6512;2.0491;
321.3000;0.6512;2.0466;
321.6000;0.6496;2.0319;
321.9000;0.6504;2.0196;
322.2000;0.6520;2.0245;
322.5000;0.6545;2.0368;
322.8000;0.6504;2.0319;
323.1000;0.6496;2.0294;
323.4000;0.6488;2.0368;
323.7000;0.6504;2.0343;
324.0000;0.6512;2.0319;
324.3000;0.6512;2.0294;
324.6000;0.6545;2.0515;
324.9000;0.6520;2.0515;
325.2000;0.6504;2.0515;
325.5000;0.6504;2.0589;
325.8000;0.6512;2.0540;
326.1000;0.6504;2.0540;
326.4000;0.6504;2.0491;
326.7000;0.6488;2.0417;
327.0000;0.6512;2.0515;
327.3000;0.6504;2.0392;
327.6000;0.6536;2.0491;
327.9000;0.6504;2.0442;
328.2000;0.6496;2.0442;
328.5000;0.6496;2.0392;
328.8000;0.6504;2.0392;
329.1000;0.6496;2.0368;
329.4000;0.6504;2.0417;
329.7000;0.6504;2.0442;
330.0000;0.6496;2.0442;
330.3000;0.6488;2.0417;
330.6000;0.6496;2.0442;
330.9000;0.6488;2.0294;
331.2000;0.6504;2.0319;
331.5000;0.6455;2.0269;
331.8000;0.6447;2.0245;
332.1000;0.6504;2.0442;
332.4000;0.6439;2.0368;
332.7000;0.6488;2.0540;
333.0000;0.6488;2.0589;
333.3000;0.6488;2.0565;
333.6000;0.6479;2.0565;
333.9000;0.6504;2.0638;
334.2000;0.6512;2.0638;
334.5000;0.6463;2.0540;
334.8000;0.6512;2.0712;
335.1000;0.6520;2.0712;
335.4000;0.6561;2.0835;
335.7000;0.6569;2.0958;
336.0000;0.6520;2.0811;
336.3000;0.6512;2.0860;
336.6000;0.6496;2.0860;
336.9000;0.6504;2.0811;
337.2000;0.6488;2.0761;
337.5000;0.6496;2.0835;
337.8000;0.6512;2.0884;
338.1000;0.6520;2.0860;
338.4000;0.6479;2.0737;
338.7000;0.6496;2.0712;
339.0000;0.6504;2.0737;
339.3000;0.6504;2.0737;
339.6000;0.6488;2.0786;
339.9000;0.6488;2.0786;
340.2000;0.6479;2.0712;
340.5000;0.6520;2.0811;
340.8000;0.6512;2.0712;
341.1000;0.6471;2.0638;
341.4000;0.6496;2.0638;
341.7000;0.6512;2.0712;
342.0000;0.6504;2.0638;
342.3000;0.6496;2.0589;
342.6000;0.6520;2.0737;
342.9000;0.6496;2.0737;
343.2000;0.6463;2.0614;
343.5000;0.6488;2.0663;
343.8000;0.6504;2.0663;
344.1000;0.6512;2.0737;
344.4000;0.6520;2.0712;
344.7000;0.6455;2.0565;
345.0000;0.6512;2.0786;
345.3000;0.6496;2.0835;
345.6000;0.6504;2.0786;
345.9000;0.6545;2.0761;
346.2000;0.6512;2.0688;
346.5000;0.6488;2.0589;
346.8000;0.6504;2.0638;
347.1000;0.6488;2.0589;
347.4000;0.6545;2.0786;
347.7000;0.6545;2.0811;
348.0000;0.6504;2.0688;
348.3000;0.6496;2.0614;
348.6000;0.6496;2.0565;
348.9000;0.6488;2.0515;
349.2000;0.6463;2.0491;
349.5000;0.6545;2.0712;
349.8000;0.6479;2.0491;
350.1000;0.6496;2.0540;
350.4000;0.6496;2.0466;
350.7000;0.6496;2.0515;
351.0000;0.6496;2.0614;
351.3000;0.6488;2.0565;
351.6000;0.6504;2.0614;
351.9000;0.6488;2.0638;
352.2000;0.6512;2.0688;
352.5000;0.6488;2.0663;
352.8000;0.6504;2.0761;
353.1000;0.6488;2.0712;
353.4000;0.6504;2.0786;
353.7000;0.6488;2.0712;
354.0000;0.6479;2.0811;
354.3000;0.6488;2.0811;
354.6000;0.6488;2.0761;
354.9000;0.6455;2.0786;
355.2000;0.6488;2.0884;
355.5000;0.6479;2.0761;
355.8000;0.6479;2.0737;
356.1000;0.6488;2.0638;
356.4000;0.6496;2.0712;
356.7000;0.6496;2.0811;
357.0000;0.6496;2.0786;
357.3000;0.6496;2.0761;
357.6000;0.6488;2.0761;
357.9000;0.6488;2.0786;
358.2000;0.6496;2.0835;
358.5000;0.6545;2.0909;
358.8000;0.6488;2.0761;
359.1000;0.6471;2.0786;
359.4000;0.6479;2.0811;
359.7000;0.6471;2.0884;
360.0000;0.6463;2.0811;
360.3000;0.6512;2.0786;
360.6000;0.6496;2.0761;
360.9000;0.6488;2.0860;
361.2000;0.6561;2.1032;
361.5000;0.6471;2.0835;
361.8000;0.6504;2.0884;
362.1000;0.6479;2.0835;
362.4000;0.6488;2.0737;
362.7000;0.6488;2.0811;
363.0000;0.6488;2.0884;
363.3000;0.6455;2.0835;
363.6000;0.6488;2.0884;
363.9000;0.6545;2.1032;
364.2000;0.6471;2.0884;
364.5000;0.6504;2.0860;
364.8000;0.6512;2.0761;
365.1000;0.6520;2.0934;
365.4000;0.6488;2.0860;
365.7000;0.6431;2.0688;
366.0000;0.6488;2.0761;
366.3000;0.6479;2.0737;
366.6000;0.6520;2.0688;
366.9000;0.6496;2.0737;
367.2000;0.6504;2.0761;
367.5000;0.6479;2.0737;
367.8000;0.6479;2.0663;
368.1000;0.6496;2.0638;
368.4000;0.6488;2.0712;
368.7000;0.6496;2.0688;
369.0000;0.6479;2.0688;
369.3000;0.6512;2.0712;
369.6000;0.6496;2.0737;
369.9000;0.6512;2.0712;
370.2000;0.6479;2.0589;
370.5000;0.6536;2.0737;
370.8000;0.6496;2.0638;
371.1000;0.6471;2.0688;
371.4000;0.6488;2.0786;
371.7000;0.6479;2.0688;
372.0000;0.6479;2.0688;
372.3000;0.6488;2.0614;
372.6000;0.6398;2.0442;
372.9000;0.6463;2.0688;
373.2000;0.6463;2.0712;
373.5000;0.6463;2.0663;
373.8000;0.6479;2.0638;
374.1000;0.6463;2.0589;
374.4000;0.6463;2.0565;
374.7000;0.6479;2.0565;
375.0000;0.6488;2.0565;
375.3000;0.6463;2.0491;
375.6000;0.6479;2.0491;
375.9000;0.6471;2.0442;
376.2000;0.6496;2.0515;
376.5000;0.6479;2.0589;
376.8000;0.6479;2.0515;
377.1000;0.6479;2.0589;
377.4000;0.6520;2.0663;
377.7000;0.6488;2.0565;
378.0000;0.6479;2.0565;
378.3000;0.6471;2.0614;
378.6000;0.6488;2.0589;
378.9000;0.6479;2.0638;
379.2000;0.6471;2.0663;
379.5000;0.6471;2.0663;
379.8000;0.6488;2.0589;
380.1000;0.6479;2.0540;
380.4000;0.6463;2.0540;
380.7000;0.6488;2.0638;
381.0000;0.6479;2.0540;
381.3000;0.6488;2.0614;
381.6000;0.6471;2.0540;
381.9000;0.6471;2.0589;
382.2000;0.6488;2.0663;
382.5000;0.6488;2.0614;
382.8000;0.6488;2.0589;
383.1000;0.6496;2.0565;
383.4000;0.6479;2.0540;
383.7000;0.6471;2.0737;
384.0000;0.6471;2.0761;
384.3000;0.6471;2.0761;
384.6000;0.6471;2.0786;
384.9000;0.6520;2.0860;
385.2000;0.6447;2.0688;
385.5000;0.6463;2.0761;
385.8000;0.6463;2.0811;
386.1000;0.6496;2.0884;
386.4000;0.6488;2.0786;
386.7000;0.6471;2.0786;
387.0000;0.6471;2.0712;
387.3000;0.6471;2.0712;
387.6000;0.6431;2.0565;
387.9000;0.6488;2.0638;
388.2000;0.6463;2.0589;
388.5000;0.6479;2.0614;
388.8000;0.6471;2.0663;
389.1000;0.6496;2.0663;
389.4000;0.6496;2.0712;
389.7000;0.6471;2.0614;
390.0000;0.6488;2.0663;
390.3000;0.6439;2.0540;
390.6000;0.6479;2.0614;
390.9000;0.6479;2.0638;
391.2000;0.6488;2.0663;
391.5000;0.6479;2.0663;
391.8000;0.6471;2.0638;
392.1000;0.6471;2.0540;
392.4000;0.6439;2.0491;
392.7000;0.6471;2.0540;
393.0000;0.6471;2.0491;
393.3000;0.6496;2.0417;
393.6000;0.6488;2.0392;
393.9000;0.6488;2.0491;
394.2000;0.6504;2.0515;
394.5000;0.6431;2.0319;
394.8000;0.6479;2.0368;
395.1000;0.6488;2.0417;
395.4000;0.6463;2.0368;
395.7000;0.6471;2.0442;
396.0000;0.6479;2.0515;
396.3000;0.6488;2.0589;
396.6000;0.6479;2.0614;
396.9000;0.6479;2.0638;
397.2000;0.6463;2.0614;
397.5000;0.6471;2.0811;
397.8000;0.6479;2.0811;
398.1000;0.6471;2.0884;
398.4000;0.6471;2.0860;
398.7000;0.6479;2.0811;
399.0000;0.6471;2.0761;
399.3000;0.6471;2.0712;
399.6000;0.6471;2.0712;
399.9000;0.6471;2.0688;
400.2000;0.6504;2.0663;
400.5000;0.6471;2.0589;
400.8000;0.6463;2.0638;
401.1000;0.6471;2.0663;
401.4000;0.6479;2.0712;
401.7000;0.6488;2.0688;
402.0000;0.6471;2.0712;
402.3000;0.6471;2.0712;
402.6000;0.6479;2.0663;
402.9000;0.6479;2.0663;
403.2000;0.6479;2.0663;
403.5000;0.6471;2.0712;
403.8000;0.6479;2.0761;
404.1000;0.6471;2.0663;
404.4000;0.6479;2.0638;
404.7000;0.6479;2.0688;
405.0000;0.6455;2.0712;
405.3000;0.6398;2.0540;
405.6000;0.6471;2.0835;
405.9000;0.6471;2.0884;
406.2000;0.6455;2.0811;
406.5000;0.6463;2.0811;
406.8000;0.6463;2.0737;
407.1000;0.6488;2.0737;
407.4000;0.6479;2.0688;
407.7000;0.6463;2.0663;
408.0000;0.6463;2.0786;
408.3000;0.6463;2.0761;
408.6000;0.6479;2.0811;
408.9000;0.6455;2.0761;
409.2000;0.6471;2.0884;
409.5000;0.6471;2.0884;
409.8000;0.6488;2.0835;
410.1000;0.6431;2.0638;
410.4000;0.6471;2.0688;
410.7000;0.6455;2.0663;
411.0000;0.6463;2.0737;
411.3000;0.6414;2.0614;
411.6000;0.6414;2.0565;
411.9000;0.6471;2.0663;
412.2000;0.6439;2.0638;
412.5000;0.6463;2.0712;
412.8000;0.6455;2.0761;
413.1000;0.6463;2.0761;
413.4000;0.6463;2.0761;
413.7000;0.6455;2.0737;
414.0000;0.6455;2.0737;
414.3000;0.6455;2.0737;
414.6000;0.6455;2.0737;
414.9000;0.6463;2.0737;
415.2000;0.6463;2.0712;
415.5000;0.6471;2.0712;
415.8000;0.6504;2.0811;
416.1000;0.6447;2.0688;
416.4000;0.6455;2.0688;
416.7000;0.6471;2.0712;
417.0000;0.6471;2.0688;
417.3000;0.6488;2.0737;
417.6000;0.6463;2.0663;
417.9000;0.6479;2.0712;
418.2000;0.6479;2.0712;
418.5000;0.6455;2.0589;
418.8000;0.6496;2.0688;
419.1000;0.6463;2.0565;
419.4000;0.6463;2.0614;
419.7000;0.6455;2.0565;
420.0000;0.6463;2.0491;
420.3000;0.6455;2.0417;
420.6000;0.6471;2.0466;
420.9000;0.6463;2.0442;
421.2000;0.6455;2.0491;
421.5000;0.6455;2.0442;
421.8000;0.6536;2.0688;
422.1000;0.6471;2.0491;
422.4000;0.6463;2.0392;
422.7000;0.6479;2.0442;
423.0000;0.6479;2.0466;
423.3000;0.6479;2.0442;
423.6000;0.6479;2.0417;
423.9000;0.6479;2.0515;
424.2000;0.6479;2.0466;
424.5000;0.6471;2.0442;
424.8000;0.6463;2.0442;
425.1000;0.6463;2.0417;
425.4000;0.6455;2.0368;
425.7000;0.6455;2.0417;
426.0000;0.6471;2.0466;
426.3000;0.6422;2.0368;
426.6000;0.6439;2.0442;
426.9000;0.6479;2.0515;
427.2000;0.6447;2.0417;
427.5000;0.6374;2.0196;
427.8000;0.6447;2.0466;
428.1000;0.6512;2.0638;
428.4000;0.6488;2.0466;
428.7000;0.6520;2.0491;
429.0000;0.6439;2.0392;
429.3000;0.6455;2.0589;
429.6000;0.6463;2.0565;
429.9000;0.6471;2.0589;
430.2000;0.6496;2.0663;
430.5000;0.6455;2.0565;
430.8000;0.6463;2.0614;
431.1000;0.6455;2.0737;
431.4000;0.6455;2.0688;
431.7000;0.6471;2.0712;
432.0000;0.6471;2.0663;
432.3000;0.6455;2.0565;
432.6000;0.6463;2.0663;
432.9000;0.6479;2.0737;
433.2000;0.6455;2.0688;
433.5000;0.6479;2.0688;
433.8000;0.6488;2.0761;
434.1000;0.6496;2.0712;
434.4000;0.6455;2.0614;
434.7000;0.6471;2.0589;
435.0000;0.6479;2.0589;
435.3000;0.6447;2.0589;
435.6000;0.6439;2.0515;
435.9000;0.6455;2.0663;
436.2000;0.6455;2.0663;
436.5000;0.6463;2.0515;
436.8000;0.6553;2.0614;
437.1000;0.6463;2.0417;
437.4000;0.6471;2.0392;
437.7000;0.6463;2.0515;
438.0000;0.6439;2.0565;
438.3000;0.6455;2.0540;
438.6000;0.6471;2.0638;
438.9000;0.6455;2.0688;
439.2000;0.6439;2.0638;
439.5000;0.6455;2.0589;
439.8000;0.6455;2.0589;
440.1000;0.6455;2.0540;
440.4000;0.6471;2.0565;
440.7000;0.6463;2.0540;
441.0000;0.6447;2.0491;
441.3000;0.6463;2.0589;
441.6000;0.6455;2.0663;
441.9000;0.6488;2.0761;
442.2000;0.6455;2.0688;
442.5000;0.6463;2.0712;
442.8000;0.6488;2.0811;
443.1000;0.6463;2.0761;
443.4000;0.6479;2.0811;
443.7000;0.6479;2.0884;
444.0000;0.6471;2.0835;
444.3000;0.6349;2.0491;
444.6000;0.6479;2.0737;
444.9000;0.6471;2.0737;
445.2000;0.6479;2.0737;
445.5000;0.6463;2.0737;
445.8000;0.6471;2.0761;
446.1000;0.6455;2.0688;
446.4000;0.6488;2.0737;
446.7000;0.6463;2.0614;
447.0000;0.6431;2.0515;
447.3000;0.6431;2.0614;
447.6000;0.6439;2.0688;
447.9000;0.6463;2.0663;
448.2000;0.6455;2.0688;
448.5000;0.6447;2.0638;
448.8000;0.6536;2.0860;
449.1000;0.6439;2.0589;
449.4000;0.6463;2.0688;
449.7000;0.6439;2.0688;
450.0000;0.6439;2.0663;
450.3000;0.6414;2.0688;
450.6000;0.6431;2.0761;
450.9000;0.6422;2.0786;
451.2000;0.6439;2.0835;
451.5000;0.6463;2.0811;
451.8000;0.6431;2.0811;
452.1000;0.6447;2.0786;
452.4000;0.6439;2.0761;
452.7000;0.6455;2.0811;
453.0000;0.6431;2.0688;
453.3000;0.6431;2.0638;
453.6000;0.6455;2.0737;
453.9000;0.6455;2.0761;
454.2000;0.6471;2.0786;
454.5000;0.6463;2.0712;
454.8000;0.6455;2.0663;
455.1000;0.6455;2.0737;
455.4000;0.6455;2.0663;
455.7000;0.6439;2.0663;
456.0000;0.6439;2.0565;
456.3000;0.6463;2.0540;
456.6000;0.6471;2.0589;
456.9000;0.6439;2.0540;
457.2000;0.6447;2.0638;
457.5000;0.6471;2.0737;
457.8000;0.6447;2.0761;
458.1000;0.6455;2.0786;
458.4000;0.6463;2.0909;
458.7000;0.6455;2.0884;
459.0000;0.6455;2.0909;
459.3000;0.6455;2.0835;
459.6000;0.6455;2.0835;
459.9000;0.6455;2.0835;
460.2000;0.6471;2.0884;
460.5000;0.6455;2.0835;
460.8000;0.6447;2.0761;
461.1000;0.6528;2.0884;
461.4000;0.6463;2.0712;
461.7000;0.6447;2.0761;
462.0000;0.6455;2.0712;
462.3000;0.6479;2.0786;
462.6000;0.6447;2.0761;
462.9000;0.6455;2.0737;
463.2000;0.6463;2.0761;
463.5000;0.6447;2.0663;
463.8000;0.6463;2.0712;
464.1000;0.6455;2.0712;
464.4000;0.6528;2.0884;
464.7000;0.6431;2.0638;
465.0000;0.6422;2.0737;
465.3000;0.6439;2.0811;
465.6000;0.6463;2.0712;
465.9000;0.6455;2.0761;
466.2000;0.6455;2.0761;
466.5000;0.6447;2.0860;
466.8000;0.6447;2.0909;
467.1000;0.6447;2.0761;
467.4000;0.6488;2.0835;
467.7000;0.6463;2.0688;
468.0000;0.6463;2.0811;
468.3000;0.6447;2.0835;
468.6000;0.6471;2.0761;
468.9000;0.6463;2.0663;
469.2000;0.6447;2.0663;
469.5000;0.6455;2.0737;
469.8000;0.6455;2.0761;
470.1000;0.6463;2.0786;
470.4000;0.6463;2.0761;
470.7000;0.6422;2.0712;
471.0000;0.6431;2.0761;
471.3000;0.6447;2.0860;
471.6000;0.6463;2.0934;
471.9000;0.6455;2.0983;
472.2000;0.6455;2.0934;
472.5000;0.6447;2.0884;
472.8000;0.6447;2.0835;
473.1000;0.6439;2.0811;
473.4000;0.6447;2.0737;
473.7000;0.6447;2.0786;
474.0000;0.6471;2.0786;
474.3000;0.6447;2.0786;
474.6000;0.6455;2.0884;
474.9000;0.6455;2.0958;
475.2000;0.6439;2.0884;
475.5000;0.6447;2.0958;
475.8000;0.6455;2.0934;
476.1000;0.6455;2.0909;
476.4000;0.6463;2.0958;
476.7000;0.6439;2.0958;
477.0000;0.6447;2.0934;
477.3000;0.6455;2.0860;
477.6000;0.6455;2.0884;
477.9000;0.6431;2.0786;
478.2000;0.6439;2.0835;
478.5000;0.6439;2.0811;
478.8000;0.6447;2.0786;
479.1000;0.6463;2.0737;
479.4000;0.6463;2.0786;
479.7000;0.6463;2.0761;
480.0000;0.6455;2.0835;
480.3000;0.6488;2.0860;
480.6000;0.6455;2.0712;
480.9000;0.6447;2.0737;
481.2000;0.6463;2.0688;
481.5000;0.6455;2.0638;
481.8000;0.6447;2.0638;
482.1000;0.6488;2.0688;
482.4000;0.6455;2.0614;
482.7000;0.6447;2.0663;
483.0000;0.6455;2.0688;
483.3000;0.6422;2.0614;
483.6000;0.6439;2.0688;
483.9000;0.6414;2.0614;
484.2000;0.6455;2.0835;
484.5000;0.6463;2.0835;
484.8000;0.6455;2.0860;
485.1000;0.6447;2.0860;
485.4000;0.6455;2.0835;
485.7000;0.6447;2.0811;
486.0000;0.6455;2.0737;
486.3000;0.6431;2.0737;
486.6000;0.6455;2.0761;
486.9000;0.6455;2.0737;
487.2000;0.6488;2.0761;
487.5000;0.6504;2.0934;
487.8000;0.6447;2.0835;
488.1000;0.6431;2.0786;
488.4000;0.6439;2.0712;
488.7000;0.6439;2.0688;
489.0000;0.6439;2.0688;
489.3000;0.6431;2.0688;
489.6000;0.6455;2.0712;
489.9000;0.6455;2.0737;
490.2000;0.6447;2.0737;
490.5000;0.6455;2.0688;
490.8000;0.6463;2.0712;
491.1000;0.6455;2.0737;
491.4000;0.6455;2.0786;
491.7000;0.6455;2.0737;
492.0000;0.6439;2.0688;
492.3000;0.6447;2.0712;
492.6000;0.6455;2.0712;
492.9000;0.6439;2.0614;
493.2000;0.6455;2.0786;
493.5000;0.6447;2.0761;
493.8000;0.6439;2.0663;
494.1000;0.6406;2.0663;
494.4000;0.6431;2.0688;
494.7000;0.6406;2.0688;
495.0000;0.6455;2.0811;
495.3000;0.6431;2.0786;
495.6000;0.6504;2.1057;
495.9000;0.6439;2.0761;
496.2000;0.6447;2.0786;
496.5000;0.6447;2.0811;
496.8000;0.6447;2.0761;
497.1000;0.6431;2.0737;
497.4000;0.6447;2.0712;
497.7000;0.6455;2.0737;
498.0000;0.6398;2.0663;
498.3000;0.6431;2.0737;
498.6000;0.6447;2.0737;
498.9000;0.6455;2.0688;
499.2000;0.6431;2.0688;
499.5000;0.6431;2.0638;
499.8000;0.6431;2.0565;
500.1000;0.6455;2.0540;
500.4000;0.6463;2.0491;
500.7000;0.6431;2.0466;
501.0000;0.6439;2.0515;
501.3000;0.6471;2.0565;
501.6000;0.6439;2.0442;
501.9000;0.6447;2.0466;
502.2000;0.6422;2.0442;
502.5000;0.6455;2.0515;
502.8000;0.6439;2.0491;
503.1000;0.6431;2.0540;
503.4000;0.6431;2.0565;
503.7000;0.6447;2.0614;
504.0000;0.6471;2.0663;
504.3000;0.6431;2.0565;
504.6000;0.6422;2.0466;
504.9000;0.6439;2.0491;
505.2000;0.6414;2.0491;
505.5000;0.6431;2.0565;
505.8000;0.6447;2.0565;
506.1000;0.6455;2.0614;
506.4000;0.6431;2.0589;
506.7000;0.6398;2.0540;
507.0000;0.6390;2.0565;
507.3000;0.6463;2.0737;
507.6000;0.6374;2.0565;
507.9000;0.6431;2.0786;
508.2000;0.6422;2.0737;
508.5000;0.6431;2.0761;
508.8000;0.6422;2.0786;
509.1000;0.6414;2.0688;
509.4000;0.6463;2.0811;
509.7000;0.6439;2.0688;
510.0000;0.6406;2.0688;
510.3000;0.6439;2.0761;
510.6000;0.6455;2.0688;
510.9000;0.6479;2.0737;
511.2000;0.6447;2.0663;
511.5000;0.6471;2.0638;
511.8000;0.6455;2.0614;
512.1000;0.6447;2.0638;
512.4000;0.6422;2.0614;
512.7000;0.6447;2.0638;
513.0000;0.6447;2.0589;
513.3000;0.6431;2.0515;
513.6000;0.6414;2.0515;
513.9000;0.6390;2.0515;
514.2000;0.6439;2.0737;
514.5000;0.6439;2.0712;
514.8000;0.6431;2.0638;
515.1000;0.6422;2.0614;
515.4000;0.6455;2.0663;
515.7000;0.6447;2.0688;
516.0000;0.6447;2.0638;
516.3000;0.6447;2.0688;
516.6000;0.6455;2.0786;
516.9000;0.6439;2.0712;
517.2000;0.6439;2.0712;
517.5000;0.6439;2.0663;
517.8000;0.6447;2.0712;
518.1000;0.6439;2.0712;
518.4000;0.6431;2.0712;
518.7000;0.6431;2.0712;
519.0000;0.6471;2.0811;
519.3000;0.6422;2.0811;
519.6000;0.6422;2.0712;
519.9000;0.6414;2.0663;
520.2000;0.6439;2.0737;
520.5000;0.6439;2.0835;
520.8000;0.6422;2.0835;
521.1000;0.6431;2.0786;
521.4000;0.6431;2.0737;
521.7000;0.6488;2.0860;
522.0000;0.6496;2.0835;
522.3000;0.6431;2.0663;
522.6000;0.6431;2.0638;
522.9000;0.6439;2.0663;
523.2000;0.6439;2.0663;
523.5000;0.6414;2.0638;
523.8000;0.6431;2.0540;
524.1000;0.6431;2.0515;
524.4000;0.6422;2.0515;
524.7000;0.6431;2.0515;
525.0000;0.6422;2.0466;
525.3000;0.6422;2.0515;
525.6000;0.6431;2.0466;
525.9000;0.6496;2.0565;
526.2000;0.6447;2.0466;
526.5000;0.6398;2.0343;
526.8000;0.6447;2.0491;
527.1000;0.6414;2.0392;
527.4000;0.6422;2.0466;
527.7000;0.6431;2.0540;
528.0000;0.6406;2.0442;
528.3000;0.6374;2.0294;
528.6000;0.6422;2.0565;
528.9000;0.6414;2.0515;
529.2000;0.6447;2.0663;
529.5000;0.6406;2.0589;
529.8000;0.6406;2.0515;
530.1000;0.6431;2.0614;
530.4000;0.6431;2.0712;
530.7000;0.6439;2.0688;
531.0000;0.6455;2.0737;
531.3000;0.6431;2.0638;
531.6000;0.6431;2.0565;
531.9000;0.6439;2.0589;
532.2000;0.6447;2.0614;
532.5000;0.6422;2.0565;
532.8000;0.6374;2.0417;
533.1000;0.6447;2.0638;
533.4000;0.6439;2.0540;
533.7000;0.6374;2.0417;
534.0000;0.6422;2.0491;
534.3000;0.6447;2.0589;
534.6000;0.6463;2.0761;
534.9000;0.6447;2.0712;
535.2000;0.6422;2.0614;
535.5000;0.6439;2.0540;
535.8000;0.6447;2.0589;
536.1000;0.6431;2.0638;
536.4000;0.6406;2.0589;
536.7000;0.6447;2.0712;
537.0000;0.6422;2.0688;
537.3000;0.6447;2.0786;
537.6000;0.6431;2.0712;
537.9000;0.6414;2.0614;
538.2000;0.6431;2.0663;
538.5000;0.6422;2.0737;
538.8000;0.6414;2.0712;
539.1000;0.6431;2.0786;
539.4000;0.6422;2.0860;
539.7000;0.6439;2.0835;
540.0000;0.6414;2.0786;
540.3000;0.6406;2.0835;
540.6000;0.6422;2.0761;
540.9000;0.6455;2.0737;
541.2000;0.6422;2.0712;
541.5000;0.6431;2.0737;
541.8000;0.6447;2.0761;
542.1000;0.6406;2.0737;
542.4000;0.6431;2.0811;
542.7000;0.6422;2.0737;
543.0000;0.6447;2.0860;
543.3000;0.6422;2.0860;
543.6000;0.6439;2.0884;
543.9000;0.6414;2.0811;
544.2000;0.6422;2.0884;
544.5000;0.6439;2.0909;
544.8000;0.6447;2.0934;
545.1000;0.6431;2.0835;
545.4000;0.6431;2.0761;
545.7000;0.6365;2.0565;
546.0000;0.6422;2.0737;
546.3000;0.6406;2.0663;
546.6000;0.6431;2.0663;
546.9000;0.6382;2.0589;
547.2000;0.6431;2.0737;
547.5000;0.6422;2.0712;
547.8000;0.6414;2.0663;
548.1000;0.6422;2.0638;
548.4000;0.6431;2.0663;
548.7000;0.6414;2.0663;
549.0000;0.6390;2.0540;
549.3000;0.6414;2.0540;
549.6000;0.6422;2.0589;
549.9000;0.6414;2.0589;
550.2000;0.6414;2.0589;
550.5000;0.6463;2.0860;
550.8000;0.6488;2.0909;
551.1000;0.6431;2.0811;
551.4000;0.6431;2.0761;
551.7000;0.6439;2.0737;
552.0000;0.6439;2.0712;
552.3000;0.6439;2.0638;
552.6000;0.6439;2.0688;
552.9000;0.6365;2.0565;
553.2000;0.6431;2.0811;
553.5000;0.6439;2.0811;
553.8000;0.6414;2.0712;
554.1000;0.6398;2.0737;
554.4000;0.6398;2.0688;
554.7000;0.6431;2.0737;
555.0000;0.6439;2.0688;
555.3000;0.6422;2.0565;
555.6000;0.6422;2.0589;
555.9000;0.6431;2.0663;
556.2000;0.6447;2.0663;
556.5000;0.6463;2.0737;
556.8000;0.6422;2.0663;
557.1000;0.6422;2.0614;
557.4000;0.6406;2.0540;
557.7000;0.6414;2.0565;
558.0000;0.6390;2.0515;
558.3000;0.6422;2.0688;
558.6000;0.6439;2.0712;
558.9000;0.6422;2.0712;
559.2000;0.6406;2.0663;
559.5000;0.6390;2.0589;
559.8000;0.6431;2.0712;
560.1000;0.6439;2.0663;
560.4000;0.6447;2.0614;
560.7000;0.6431;2.0589;
561.0000;0.6422;2.0663;
561.3000;0.6431;2.0737;
561.6000;0.6439;2.0688;
561.9000;0.6431;2.0638;
562.2000;0.6422;2.0663;
562.5000;0.6431;2.0663;
562.8000;0.6439;2.0688;
563.1000;0.6455;2.0786;
563.4000;0.6422;2.0688;
563.7000;0.6439;2.0737;
564.0000;0.6463;2.0860;
564.3000;0.6431;2.0835;
564.6000;0.6422;2.0811;
564.9000;0.6439;2.0811;
565.2000;0.6447;2.0761;
565.5000;0.6406;2.0712;
565.8000;0.6414;2.0786;
566.1000;0.6414;2.0835;
566.4000;0.6447;2.0860;
566.7000;0.6447;2.0786;
567.0000;0.6390;2.0688;
567.3000;0.6439;2.0835;
567.6000;0.6431;2.0786;
567.9000;0.6414;2.0712;
568.2000;0.6431;2.0761;
568.5000;0.6439;2.0688;
568.8000;0.6447;2.0688;
569.1000;0.6463;2.0737;
569.4000;0.6431;2.0614;
569.7000;0.6422;2.0712;
570.0000;0.6398;2.0663;
570.3000;0.6414;2.0712;
570.6000;0.6447;2.0737;
570.9000;0.6357;2.0565;
571.2000;0.6414;2.0638;
571.5000;0.6447;2.0761;
571.8000;0.6414;2.0737;
572.1000;0.6431;2.0786;
572.4000;0.6414;2.0761;
572.7000;0.6398;2.0663;
573.0000;0.6422;2.0712;
573.3000;0.6439;2.0663;
573.6000;0.6422;2.0614;
573.9000;0.6422;2.0663;
574.2000;0.6431;2.0761;
574.5000;0.6406;2.0737;
574.8000;0.6406;2.0737;
575.1000;0.6455;2.0811;
575.4000;0.6431;2.0712;
575.7000;0.6431;2.0663;
576.0000;0.6414;2.0638;
576.3000;0.6455;2.0688;
576.6000;0.6414;2.0638;
576.9000;0.6398;2.0589;
577.2000;0.6422;2.0565;
577.5000;0.6447;2.0712;
577.8000;0.6414;2.0663;
578.1000;0.6431;2.0737;
578.4000;0.6414;2.0688;
578.7000;0.6414;2.0688;
579.0000;0.6422;2.0663;
579.3000;0.6406;2.0638;
579.6000;0.6414;2.0614;
579.9000;0.6406;2.0614;
580.2000;0.6414;2.0589;
580.5000;0.6431;2.0663;
580.8000;0.6414;2.0663;
581.1000;0.6406;2.0589;
581.4000;0.6414;2.0614;
581.7000;0.6447;2.0786;
582.0000;0.6447;2.0811;
582.3000;0.6398;2.0688;
582.6000;0.6447;2.0786;
582.9000;0.6414;2.0663;
583.2000;0.6349;2.0540;
583.5000;0.6414;2.0688;
583.8000;0.6422;2.0737;
584.1000;0.6414;2.0712;
584.4000;0.6431;2.0688;
584.7000;0.6422;2.0712;
585.0000;0.6414;2.0811;
585.3000;0.6422;2.0835;
585.6000;0.6439;2.0835;
585.9000;0.6414;2.0860;
586.2000;0.6390;2.0786;
586.5000;0.6422;2.0884;
586.8000;0.6447;2.0909;
587.1000;0.6382;2.0786;
587.4000;0.6431;2.0860;
587.7000;0.6431;2.0909;
588.0000;0.6414;2.0909;
588.3000;0.6422;2.0934;
588.6000;0.6439;2.0958;
588.9000;0.6406;2.0909;
589.2000;0.6439;2.0934;
589.5000;0.6422;2.0909;
589.8000;0.6414;2.0884;
590.1000;0.6382;2.0835;
590.4000;0.6406;2.0811;
590.7000;0.6414;2.0786;
591.0000;0.6422;2.0761;
591.3000;0.6406;2.0761;
591.6000;0.6431;2.0712;
591.9000;0.6414;2.0663;
592.2000;0.6414;2.0638;
592.5000;0.6398;2.0638;
592.8000;0.6398;2.0663;
593.1000;0.6398;2.0688;
593.4000;0.6439;2.0761;
593.7000;0.6406;2.0761;
594.0000;0.6414;2.0737;
594.3000;0.6431;2.0688;
594.6000;0.6406;2.0565;
594.9000;0.6431;2.0638;
595.2000;0.6414;2.0638;
595.5000;0.6439;2.0712;
595.8000;0.6414;2.0663;
596.1000;0.6422;2.0712;
596.4000;0.6431;2.0712;
596.7000;0.6422;2.0712;
597.0000;0.6422;2.0761;
597.3000;0.6431;2.0737;
597.6000;0.6406;2.0712;
597.9000;0.6382;2.0614;
598.2000;0.6382;2.0614;
598.5000;0.6422;2.0688;
598.8000;0.6439;2.0712;
599.1000;0.6463;2.0663;
599.4000;0.6447;2.0565;
599.7000;0.6431;2.0466;
600.0000;0.6406;2.0343;
600.3000;0.6414;2.0368;
600.6000;0.6390;2.0368;
600.9000;0.6309;2.0294;
601.2000;0.6203;2.0073;
601.5000;0.6089;1.9851;
601.8000;0.6024;1.9802;
602.1000;0.5958;1.9655;
602.4000;0.5845;1.9359;
602.7000;0.5763;1.9286;
603.0000;0.5698;1.9163;
603.3000;0.5608;1.9015;
603.6000;0.5511;1.8794;
603.9000;0.5503;1.8794;
604.2000;0.5438;1.8646;
604.5000;0.5397;1.8621;
604.8000;0.5356;1.8646;
605.1000;0.5299;1.8498;
605.4000;0.5267;1.8449;
605.7000;0.5234;1.8302;
606.0000;0.5193;1.8277;
606.3000;0.5161;1.8252;
606.6000;0.5112;1.8252;
606.9000;0.5128;1.8400;
607.2000;0.5088;1.8351;
607.5000;0.5055;1.8277;
607.8000;0.5014;1.8129;
608.1000;0.5006;1.8105;
608.4000;0.4990;1.8154;
608.7000;0.4974;1.8129;
609.0000;0.4941;1.8080;
609.3000;0.4917;1.7957;
609.6000;0.4917;1.7957;
609.9000;0.4900;1.8105;
610.2000;0.4843;1.8080;
610.5000;0.4827;1.8031;
610.8000;0.4819;1.8080;
611.1000;0.4835;1.8080;
611.4000;0.4786;1.7883;
611.7000;0.4778;1.7908;
612.0000;0.4794;1.8080;
612.3000;0.4762;1.8031;
612.6000;0.4746;1.7957;
612.9000;0.4721;1.7957;
613.2000;0.4729;1.7982;
613.5000;0.4705;1.7957;
613.8000;0.4705;1.8080;
614.1000;0.4705;1.8006;
614.4000;0.4672;1.7957;
614.7000;0.4664;1.7933;
615.0000;0.4656;1.7933;
615.3000;0.4640;1.7883;
615.6000;0.4640;1.7982;
615.9000;0.4607;1.7933;
616.2000;0.4624;1.7957;
616.5000;0.4583;1.7834;
616.8000;0.4607;1.7810;
617.1000;0.4550;1.7711;
617.4000;0.4591;1.7760;
617.7000;0.4575;1.7834;
618.0000;0.4558;1.7883;
618.3000;0.4599;1.8006;
618.6000;0.4567;1.7883;
618.9000;0.4542;1.7736;
619.2000;0.4510;1.7736;
619.5000;0.4534;1.7859;
619.8000;0.4534;1.7785;
620.1000;0.4542;1.7810;
620.4000;0.4453;1.7613;
620.7000;0.4501;1.7760;
621.0000;0.4510;1.7834;
621.3000;0.4493;1.7883;
621.6000;0.4477;1.7834;
621.9000;0.4485;1.7785;
622.2000;0.4485;1.7736;
622.5000;0.4461;1.7785;
622.8000;0.4461;1.7810;
623.1000;0.4453;1.7662;
623.4000;0.4469;1.7736;
623.7000;0.4469;1.7760;
624.0000;0.4469;1.7810;
624.3000;0.4428;1.7662;
624.6000;0.4436;1.7613;
624.9000;0.4444;1.7588;
625.2000;0.4420;1.7613;
625.5000;0.4387;1.7490;
625.8000;0.4412;1.7564;
626.1000;0.4420;1.7613;
626.4000;0.4412;1.7564;
626.7000;0.4412;1.7588;
627.0000;0.4396;1.7539;
627.3000;0.4371;1.7637;
627.6000;0.4396;1.7736;
627.9000;0.4379;1.7711;
628.2000;0.4387;1.7662;
628.5000;0.4379;1.7662;
628.8000;0.4387;1.7687;
629.1000;0.4355;1.7637;
629.4000;0.4355;1.7613;
629.7000;0.4363;1.7687;
630.0000;0.4363;1.7736;
630.3000;0.4387;1.7785;
630.6000;0.4347;1.7687;
630.9000;0.4347;1.7564;
631.2000;0.4355;1.7613;
631.5000;0.4339;1.7514;
631.8000;0.4330;1.7564;
632.1000;0.4314;1.7637;
632.4000;0.4314;1.7687;
632.7000;0.4314;1.7687;
633.0000;0.4314;1.7736;
633.3000;0.4306;1.7785;
633.6000;0.4322;1.7785;
633.9000;0.4330;1.7760;
634.2000;0.4322;1.7711;
634.5000;0.4314;1.7613;
634.8000;0.4322;1.7613;
635.1000;0.4363;1.7834;
635.4000;0.4322;1.7760;
635.7000;0.4282;1.7736;
636.0000;0.4274;1.7687;
636.3000;0.4298;1.7760;
636.6000;0.4274;1.7760;
636.9000;0.4290;1.7834;
637.2000;0.4290;1.7810;
637.5000;0.4290;1.7883;
637.8000;0.4282;1.7859;
638.1000;0.4249;1.7859;
638.4000;0.4290;1.7908;
638.7000;0.4274;1.7883;
639.0000;0.4265;1.7834;
639.3000;0.4265;1.7810;
639.6000;0.4257;1.7834;
639.9000;0.4265;1.7834;
640.2000;0.4265;1.7760;
640.5000;0.4265;1.7687;
640.8000;0.4241;1.7662;
641.1000;0.4306;1.7834;
641.4000;0.4241;1.7662;
641.7000;0.4241;1.7662;
642.0000;0.4217;1.7637;
642.3000;0.4233;1.7637;
642.6000;0.4233;1.7613;
642.9000;0.4217;1.7662;
643.2000;0.4225;1.7785;
643.5000;0.4225;1.7711;
643.8000;0.4241;1.7785;
644.1000;0.4208;1.7785;
644.4000;0.4241;1.7810;
644.7000;0.4233;1.7834;
645.0000;0.4225;1.7859;
645.3000;0.4233;1.7933;
645.6000;0.4225;1.7982;
645.9000;0.4274;1.8006;
646.2000;0.4217;1.7834;
646.5000;0.4225;1.7834;
646.8000;0.4208;1.7859;
647.1000;0.4249;1.7933;
647.4000;0.4192;1.7662;
647.7000;0.4200;1.7613;
648.0000;0.4184;1.7539;
648.3000;0.4192;1.7539;
648.6000;0.4184;1.7613;
648.9000;0.4176;1.7539;
649.2000;0.4208;1.7588;
649.5000;0.4233;1.7662;
649.8000;0.4176;1.7539;
650.1000;0.4184;1.7514;
650.4000;0.4200;1.7613;
650.7000;0.4176;1.7613;
651.0000;0.4168;1.7662;
651.3000;0.4168;1.7736;
651.6000;0.4233;1.8006;
651.9000;0.4184;1.7834;
652.2000;0.4143;1.7711;
652.5000;0.4143;1.7736;
652.8000;0.4151;1.7760;
653.1000;0.4143;1.7859;
653.4000;0.4135;1.7834;
653.7000;0.4160;1.7834;
654.0000;0.4143;1.7859;
654.3000;0.4160;1.7883;
654.6000;0.4151;1.7859;
654.9000;0.4151;1.7883;
655.2000;0.4135;1.7810;
655.5000;0.4143;1.7785;
655.8000;0.4143;1.7662;
656.1000;0.4168;1.7662;
656.4000;0.4135;1.7564;
656.7000;0.4127;1.7564;
657.0000;0.4143;1.7539;
657.3000;0.4127;1.7490;
657.6000;0.4119;1.7465;
657.9000;0.4119;1.7490;
658.2000;0.4094;1.7342;
658.5000;0.4127;1.7441;
658.8000;0.4127;1.7490;
659.1000;0.4111;1.7490;
659.4000;0.4127;1.7514;
659.7000;0.4135;1.7564;
660.0000;0.4111;1.7490;
660.3000;0.4103;1.7490;
660.6000;0.4119;1.7564;
660.9000;0.4127;1.7637;
661.2000;0.4086;1.7662;
661.5000;0.4078;1.7613;
661.8000;0.4086;1.7588;
662.1000;0.4094;1.7564;
662.4000;0.4094;1.7588;
662.7000;0.4103;1.7613;
663.0000;0.4094;1.7539;
663.3000;0.4094;1.7588;
663.6000;0.4111;1.7564;
663.9000;0.4086;1.7490;
664.2000;0.4094;1.7490;
664.5000;0.4103;1.7490;
664.8000;0.4086;1.7490;
665.1000;0.4094;1.7564;
665.4000;0.4078;1.7564;
665.7000;0.4094;1.7539;
666.0000;0.4086;1.7564;
666.3000;0.4103;1.7564;
666.6000;0.4062;1.7564;
666.9000;0.4062;1.7564;
667.2000;0.4078;1.7539;
667.5000;0.4070;1.7564;
667.8000;0.4054;1.7588;
668.1000;0.4086;1.7662;
668.4000;0.4070;1.7711;
668.7000;0.4078;1.7711;
669.0000;0.4062;1.7687;
669.3000;0.4046;1.7637;
669.6000;0.4062;1.7711;
669.9000;0.4103;1.7834;
670.2000;0.4046;1.7662;
670.5000;0.4062;1.7637;
670.8000;0.4086;1.7662;
671.1000;0.4078;1.7637;
671.4000;0.4070;1.7637;
671.7000;0.4054;1.7613;
672.0000;0.4046;1.7711;
672.3000;0.4054;1.7760;
672.6000;0.4062;1.7785;
672.9000;0.4078;1.7810;
673.2000;0.4037;1.7637;
673.5000;0.4021;1.7539;
673.8000;0.4054;1.7588;
674.1000;0.4037;1.7564;
674.4000;0.4127;1.7810;
674.7000;0.4054;1.7662;
675.0000;0.4046;1.7711;
675.3000;0.4037;1.7736;
675.6000;0.4013;1.7637;
675.9000;0.4029;1.7736;
676.2000;0.4054;1.7785;
676.5000;0.4029;1.7711;
676.8000;0.4054;1.7736;
677.1000;0.4046;1.7687;
677.4000;0.4037;1.7760;
677.7000;0.4054;1.7810;
678.0000;0.3972;1.7687;
678.3000;0.4037;1.7785;
678.6000;0.4029;1.7760;
678.9000;0.4029;1.7760;
679.2000;0.4005;1.7736;
679.5000;0.4029;1.7760;
679.8000;0.4029;1.7810;
680.1000;0.4013;1.7834;
680.4000;0.4013;1.7908;
680.7000;0.4021;1.7982;
681.0000;0.4021;1.7982;
681.3000;0.4029;1.7982;
681.6000;0.4021;1.7883;
681.9000;0.4021;1.7883;
682.2000;0.4005;1.7859;
682.5000;0.4013;1.7834;
682.8000;0.4029;1.7957;
683.1000;0.3980;1.7834;
683.4000;0.3997;1.7933;
683.7000;0.4013;1.7957;
684.0000;0.4005;1.7957;
684.3000;0.4005;1.7908;
684.6000;0.3997;1.7982;
684.9000;0.4021;1.8031;
685.2000;0.3997;1.7982;
685.5000;0.3997;1.7933;
685.8000;0.4005;1.7933;
686.1000;0.3980;1.7933;
686.4000;0.4013;1.7933;
686.7000;0.4013;1.7883;
687.0000;0.3997;1.7859;
687.3000;0.3997;1.7883;
687.6000;0.3980;1.7883;
687.9000;0.3980;1.7908;
688.2000;0.3989;1.7908;
688.5000;0.3989;1.7908;
688.8000;0.3956;1.7859;
689.1000;0.3989;1.7883;
689.4000;0.3997;1.7883;
689.7000;0.4005;1.7883;
690.0000;0.3989;1.7834;
690.3000;0.3948;1.7736;
690.6000;0.3972;1.7785;
690.9000;0.3989;1.7933;
691.2000;0.3989;1.8031;
691.5000;0.4005;1.8080;
691.8000;0.4013;1.7982;
692.1000;0.3948;1.7736;
692.4000;0.3997;1.7834;
692.7000;0.3980;1.7810;
693.0000;0.3972;1.7810;
693.3000;0.3964;1.7760;
693.6000;0.3956;1.7834;
693.9000;0.3948;1.7933;
694.2000;0.3964;1.7982;
694.5000;0.3972;1.7957;
694.8000;0.3980;1.7957;
695.1000;0.3964;1.7859;
695.4000;0.3997;1.7883;
695.7000;0.3964;1.7785;
696.0000;0.3972;1.7760;
696.3000;0.3948;1.7736;
696.6000;0.3972;1.7810;
696.9000;0.3964;1.7760;
697.2000;0.3964;1.7687;
697.5000;0.3972;1.7613;
697.8000;0.3980;1.7613;
698.1000;0.3956;1.7490;
698.4000;0.3923;1.7490;
698.7000;0.3989;1.7760;
699.0000;0.3940;1.7711;
699.3000;0.3964;1.7810;
699.6000;0.3940;1.7785;
699.9000;0.3940;1.7883;
700.2000;0.3948;1.7810;
700.5000;0.3972;1.7883;
700.8000;0.3964;1.7834;
701.1000;0.3948;1.7834;
701.4000;0.3964;1.7859;
701.7000;0.3964;1.7933;
702.0000;0.3940;1.7933;
702.3000;0.3932;1.7859;
702.6000;0.3948;1.7883;
702.9000;0.3956;1.7957;
703.2000;0.3956;1.7982;
703.5000;0.3948;1.7908;
703.8000;0.3972;1.7933;
704.1000;0.3956;1.7933;
704.4000;0.3940;1.7785;
704.7000;0.3940;1.7810;
705.0000;0.3948;1.7908;
705.3000;0.3940;1.7933;
705.6000;0.3940;1.7982;
705.9000;0.3940;1.7933;
706.2000;0.3923;1.7957;
706.5000;0.3915;1.8031;
706.8000;0.3956;1.7982;
707.1000;0.3915;1.8006;
707.4000;0.3915;1.7933;
707.7000;0.3940;1.7982;
708.0000;0.3940;1.8031;
708.3000;0.3948;1.8080;
708.6000;0.3932;1.8056;
708.9000;0.3842;1.7883;
709.2000;0.3940;1.8080;
709.5000;0.3940;1.8006;
709.8000;0.3940;1.7982;
710.1000;0.3899;1.7908;
710.4000;0.3923;1.7957;
710.7000;0.3915;1.7883;
711.0000;0.3956;1.8105;
711.3000;0.3907;1.7982;
711.6000;0.3923;1.8056;
711.9000;0.3923;1.8179;
712.2000;0.3940;1.8179;
712.5000;0.3915;1.8056;
712.8000;0.3907;1.8031;
713.1000;0.3923;1.8129;
713.4000;0.3915;1.8105;
713.7000;0.3915;1.8056;
714.0000;0.3923;1.8031;
714.3000;0.3948;1.8129;
714.6000;0.3923;1.8080;
714.9000;0.3923;1.8129;
715.2000;0.3883;1.8006;
715.5000;0.3932;1.8056;
715.8000;0.3915;1.8080;
716.1000;0.4005;1.8277;
716.4000;0.3891;1.7933;
716.7000;0.3867;1.7859;
717.0000;0.3915;1.8006;
717.3000;0.3883;1.7933;
717.6000;0.3915;1.8031;
717.9000;0.3915;1.8006;
718.2000;0.3899;1.7957;
718.5000;0.3923;1.7933;
718.8000;0.3899;1.7908;
719.1000;0.3891;1.7982;
719.4000;0.3899;1.7957;
719.7000;0.3923;1.8105;
720.0000;0.3915;1.8080;
720.3000;0.3891;1.8031;
720.6000;0.3899;1.8006;
720.9000;0.3907;1.8056;
721.2000;0.3915;1.8006;
721.5000;0.3948;1.8006;
721.8000;0.3883;1.7810;
722.1000;0.3907;1.7883;
722.4000;0.3907;1.7859;
722.7000;0.3883;1.7810;
723.0000;0.3891;1.7883;
723.3000;0.3891;1.7982;
723.6000;0.3875;1.7957;
723.9000;0.3883;1.7908;
724.2000;0.3875;1.7908;
724.5000;0.3883;1.7957;
724.8000;0.3899;1.7957;
725.1000;0.3883;1.7957;
725.4000;0.3891;1.7982;
725.7000;0.3891;1.8006;
726.0000;0.3891;1.8154;
726.3000;0.3899;1.8154;
726.6000;0.3875;1.8105;
726.9000;0.3899;1.8129;
727.2000;0.3883;1.8154;
727.5000;0.3883;1.8105;
727.8000;0.3883;1.8080;
728.1000;0.3883;1.8129;
728.4000;0.3883;1.8080;
728.7000;0.3883;1.8105;
729.0000;0.3834;1.8031;
729.3000;0.3883;1.8179;
729.6000;0.3891;1.8129;
729.9000;0.3875;1.8006;
730.2000;0.3867;1.8031;
730.5000;0.3867;1.8105;
730.8000;0.3883;1.8105;
731.1000;0.3883;1.8154;
731.4000;0.3867;1.8056;
731.7000;0.3867;1.8006;
732.0000;0.3875;1.8006;
732.3000;0.3875;1.7982;
732.6000;0.3875;1.7908;
732.9000;0.3842;1.7908;
733.2000;0.3867;1.7908;
733.5000;0.3858;1.7834;
733.8000;0.3858;1.7834;
734.1000;0.3867;1.7810;
734.4000;0.3850;1.7810;
734.7000;0.3867;1.7834;
735.0000;0.3907;1.7957;
735.3000;0.3867;1.7883;
735.6000;0.3867;1.7908;
735.9000;0.3883;1.8056;
736.2000;0.3867;1.8006;
736.5000;0.3850;1.7982;
736.8000;0.3858;1.7957;
737.1000;0.3850;1.8006;
737.4000;0.3883;1.7957;
737.7000;0.3850;1.7982;
738.0000;0.3867;1.7933;
738.3000;0.3883;1.7957;
738.6000;0.3850;1.7834;
738.9000;0.3875;1.7908;
739.2000;0.3875;1.7883;
739.5000;0.3818;1.7810;
739.8000;0.3899;1.8031;
740.1000;0.3850;1.7933;
740.4000;0.3842;1.7908;
740.7000;0.3842;1.7810;
741.0000;0.3842;1.7859;
741.3000;0.3858;1.7883;
741.6000;0.3858;1.7933;
741.9000;0.3867;1.7933;
742.2000;0.3867;1.7933;
742.5000;0.3850;1.7908;
742.8000;0.3867;1.7883;
743.1000;0.3842;1.7785;
743.4000;0.3850;1.7785;
743.7000;0.3867;1.7883;
744.0000;0.3826;1.7859;
744.3000;0.3850;1.7908;
744.6000;0.3842;1.7908;
744.9000;0.3834;1.7908;
745.2000;0.3850;1.8006;
745.5000;0.3858;1.8080;
745.8000;0.3826;1.7883;
746.1000;0.3842;1.7933;
746.4000;0.3785;1.7859;
746.7000;0.3850;1.8031;
747.0000;0.3867;1.8129;
747.3000;0.3850;1.8129;
747.6000;0.3842;1.8129;
747.9000;0.3850;1.8154;
748.2000;0.3842;1.8228;
748.5000;0.3834;1.8129;
748.8000;0.3834;1.8080;
749.1000;0.3842;1.8129;
749.4000;0.3858;1.8203;
749.7000;0.3842;1.8179;
750.0000;0.3850;1.8302;
750.3000;0.3834;1.8302;
750.6000;0.3834;1.8277;
750.9000;0.3858;1.8302;
751.2000;0.3842;1.8252;
751.5000;0.3850;1.8351;
751.8000;0.3867;1.8351;
752.1000;0.3858;1.8252;
752.4000;0.3858;1.8326;
752.7000;0.3850;1.8326;
753.0000;0.3850;1.8351;
753.3000;0.3842;1.8326;
753.6000;0.3842;1.8277;
753.9000;0.3834;1.8228;
754.2000;0.3899;1.8326;
754.5000;0.3826;1.8179;
754.8000;0.3826;1.8203;
755.1000;0.3915;1.8449;
755.4000;0.3842;1.8252;
755.7000;0.3850;1.8252;
756.0000;0.3834;1.8179;
756.3000;0.3867;1.8277;
756.6000;0.3810;1.8203;
756.9000;0.3826;1.8203;
757.2000;0.3842;1.8277;
757.5000;0.3810;1.8228;
757.8000;0.3826;1.8326;
758.1000;0.3826;1.8302;
758.4000;0.3834;1.8179;
758.7000;0.3834;1.8228;
759.0000;0.3826;1.8105;
759.3000;0.3842;1.8105;
759.6000;0.3834;1.8056;
759.9000;0.3810;1.8056;
760.2000;0.3834;1.7982;
760.5000;0.3826;1.8105;
760.8000;0.3818;1.8080;
761.1000;0.3818;1.8105;
761.4000;0.3826;1.8203;
761.7000;0.3801;1.8154;
762.0000;0.3818;1.8179;
762.3000;0.3826;1.8179;
762.6000;0.3826;1.8154;
762.9000;0.3810;1.8080;
763.2000;0.3834;1.8129;
763.5000;0.3834;1.8105;
763.8000;0.3834;1.8154;
764.1000;0.3818;1.8154;
764.4000;0.3818;1.8203;
764.7000;0.3801;1.8105;
765.0000;0.3801;1.8154;
765.3000;0.3842;1.8302;
765.6000;0.3826;1.8326;
765.9000;0.3810;1.8179;
766.2000;0.3818;1.8203;
766.5000;0.3818;1.8203;
766.8000;0.3818;1.8203;
767.1000;0.3777;1.8080;
767.4000;0.3801;1.8105;
767.7000;0.3785;1.8080;
768.0000;0.3842;1.8277;
768.3000;0.3777;1.8031;
768.6000;0.3850;1.8302;
768.9000;0.3777;1.8006;
769.2000;0.3793;1.7982;
769.5000;0.3818;1.8006;
769.8000;0.3793;1.7957;
770.1000;0.3858;1.8179;
770.4000;0.3826;1.8105;
770.7000;0.3801;1.7933;
771.0000;0.3793;1.7957;
771.3000;0.3777;1.7859;
771.6000;0.3826;1.8006;
771.9000;0.3826;1.8056;
772.2000;0.3834;1.8105;
772.5000;0.3834;1.8080;
772.8000;0.3826;1.8080;
773.1000;0.3818;1.8031;
773.4000;0.3793;1.7883;
773.7000;0.3810;1.7957;
774.0000;0.3818;1.8006;
774.3000;0.3818;1.7982;
774.6000;0.3801;1.8080;
774.9000;0.3818;1.8105;
775.2000;0.3793;1.8105;
775.5000;0.3810;1.8252;
775.8000;0.3810;1.8252;
776.1000;0.3801;1.8154;
776.4000;0.3801;1.8105;
776.7000;0.3801;1.8056;
777.0000;0.3818;1.8129;
777.3000;0.3810;1.8179;
777.6000;0.3810;1.8105;
777.9000;0.3801;1.8080;
778.2000;0.3818;1.8154;
778.5000;0.3785;1.8105;
778.8000;0.3801;1.8203;
779.1000;0.3801;1.8252;
779.4000;0.3810;1.8302;
779.7000;0.3785;1.8277;
780.0000;0.3793;1.8203;
780.3000;0.3801;1.8179;
780.6000;0.3801;1.8326;
780.9000;0.3785;1.8351;
781.2000;0.3793;1.8302;
781.5000;0.3801;1.8252;
781.8000;0.3793;1.8228;
782.1000;0.3810;1.8302;
782.4000;0.3801;1.8375;
782.7000;0.3769;1.8179;
783.0000;0.3801;1.8203;
783.3000;0.3801;1.8228;
783.6000;0.3801;1.8228;
783.9000;0.3801;1.8154;
784.2000;0.3785;1.8105;
784.5000;0.3810;1.8154;
784.8000;0.3777;1.8080;
785.1000;0.3818;1.8154;
785.4000;0.3777;1.8006;
785.7000;0.3769;1.7982;
786.0000;0.3785;1.8154;
786.3000;0.3793;1.8154;
786.6000;0.3769;1.8056;
786.9000;0.3801;1.8129;
787.2000;0.3777;1.8006;
787.5000;0.3818;1.8006;
787.8000;0.3769;1.7957;
788.1000;0.3801;1.8056;
788.4000;0.3810;1.8080;
788.7000;0.3785;1.8105;
789.0000;0.3793;1.8203;
789.3000;0.3793;1.8203;
789.6000;0.3801;1.8252;
789.9000;0.3826;1.8326;
790.2000;0.3801;1.8326;
790.5000;0.3777;1.8228;
790.8000;0.3777;1.8228;
791.1000;0.3785;1.8179;
791.4000;0.3818;1.8351;
791.7000;0.3769;1.8351;
792.0000;0.3769;1.8400;
792.3000;0.3769;1.8375;
792.6000;0.3801;1.8523;
792.9000;0.3736;1.8277;
793.2000;0.3777;1.8302;
793.5000;0.3793;1.8326;
793.8000;0.3785;1.8302;
794.1000;0.3761;1.8154;
794.4000;0.3753;1.8080;
794.7000;0.3769;1.8129;
795.0000;0.3793;1.8129;
795.3000;0.3793;1.8056;
795.6000;0.3793;1.8105;
795.9000;0.3777;1.8105;
796.2000;0.3777;1.8154;
796.5000;0.3777;1.8179;
796.8000;0.3777;1.8252;
797.1000;0.3785;1.8252;
797.4000;0.3793;1.8228;
797.7000;0.3744;1.8031;
798.0000;0.3785;1.8154;
798.3000;0.3769;1.8105;
798.6000;0.3785;1.8179;
798.9000;0.3801;1.8203;
799.2000;0.3785;1.8129;
799.5000;0.3769;1.8129;
799.8000;0.3785;1.8277;
800.1000;0.3793;1.8326;
800.4000;0.3777;1.8302;
800.7000;0.3777;1.8277;
801.0000;0.3777;1.8351;
801.3000;0.3777;1.8302;
801.6000;0.3769;1.8302;
801.9000;0.3785;1.8302;
802.2000;0.3793;1.8375;
802.5000;0.3753;1.8351;
802.8000;0.3753;1.8252;
803.1000;0.3769;1.8228;
803.4000;0.3761;1.8154;
803.7000;0.3769;1.8252;
804.0000;0.3777;1.8302;
804.3000;0.3785;1.8252;
804.6000;0.3761;1.8203;
804.9000;0.3785;1.8351;
805.2000;0.3761;1.8326;
805.5000;0.3761;1.8203;
805.8000;0.3801;1.8277;
806.1000;0.3753;1.8203;
806.4000;0.3769;1.8302;
806.7000;0.3761;1.8105;
807.0000;0.3769;1.8080;
807.3000;0.3696;1.7933;
807.6000;0.3728;1.8129;
807.9000;0.3769;1.8252;
808.2000;0.3777;1.8228;
808.5000;0.3744;1.8203;
808.8000;0.3753;1.8228;
809.1000;0.3769;1.8302;
809.4000;0.3769;1.8351;
809.7000;0.3744;1.8277;
810.0000;0.3769;1.8326;
810.3000;0.3785;1.8277;
810.6000;0.3761;1.8252;
810.9000;0.3793;1.8351;
811.2000;0.3761;1.8302;
811.5000;0.3761;1.8228;
811.8000;0.3761;1.8203;
812.1000;0.3769;1.8179;
812.4000;0.3761;1.8277;
812.7000;0.3753;1.8228;
813.0000;0.3769;1.8252;
813.3000;0.3777;1.8179;
813.6000;0.3687;1.7957;
813.9000;0.3801;1.8252;
814.2000;0.3769;1.8203;
814.5000;0.3785;1.8179;
814.8000;0.3777;1.8179;
815.1000;0.3769;1.8228;
815.4000;0.3744;1.8252;
815.7000;0.3753;1.8252;
816.0000;0.3753;1.8179;
816.3000;0.3744;1.8179;
816.6000;0.3753;1.8203;
816.9000;0.3712;1.8154;
817.2000;0.3736;1.8228;
817.5000;0.3704;1.8203;
817.8000;0.3728;1.8228;
818.1000;0.3744;1.8277;
818.4000;0.3744;1.8302;
818.7000;0.3744;1.8277;
819.0000;0.3769;1.8228;
819.3000;0.3761;1.8129;
819.6000;0.3753;1.8056;
819.9000;0.3753;1.8080;
820.2000;0.3761;1.8203;
820.5000;0.3777;1.8228;
820.8000;0.3777;1.8375;
821.1000;0.3785;1.8449;
821.4000;0.3744;1.8375;
821.7000;0.3753;1.8351;
822.0000;0.3753;1.8474;
822.3000;0.3769;1.8375;
822.6000;0.3761;1.8302;
822.9000;0.3761;1.8302;
823.2000;0.3777;1.8400;
823.5000;0.3769;1.8375;
823.8000;0.3736;1.8326;
824.1000;0.3753;1.8326;
824.4000;0.3753;1.8252;
824.7000;0.3753;1.8203;
825.0000;0.3785;1.8277;
825.3000;0.3769;1.8277;
825.6000;0.3777;1.8375;
825.9000;0.3769;1.8375;
826.2000;0.3744;1.8351;
826.5000;0.3687;1.8228;
826.8000;0.3753;1.8400;
827.1000;0.3761;1.8375;
827.4000;0.3744;1.8351;
827.7000;0.3761;1.8351;
828.0000;0.3736;1.8302;
828.3000;0.3736;1.8326;
828.6000;0.3753;1.8326;
828.9000;0.3744;1.8351;
829.2000;0.3753;1.8351;
829.5000;0.3753;1.8400;
829.8000;0.3753;1.8375;
830.1000;0.3761;1.8375;
830.4000;0.3761;1.8425;
830.7000;0.3753;1.8449;
831.0000;0.3761;1.8400;
831.3000;0.3704;1.8302;
831.6000;0.3728;1.8302;
831.9000;0.3753;1.8351;
832.2000;0.3777;1.8277;
832.5000;0.3818;1.8302;
832.8000;0.3728;1.7982;
833.1000;0.3769;1.7957;
833.4000;0.3744;1.7883;
833.7000;0.3753;1.7908;
834.0000;0.3761;1.7982;
834.3000;0.3744;1.7933;
834.6000;0.3761;1.7908;
834.9000;0.3728;1.7883;
835.2000;0.3753;1.8006;
835.5000;0.3769;1.8154;
835.8000;0.3744;1.8203;
836.1000;0.3728;1.8277;
836.4000;0.3777;1.8375;
836.7000;0.3793;1.8277;
837.0000;0.3736;1.8154;
837.3000;0.3728;1.8154;
837.6000;0.3753;1.8154;
837.9000;0.3736;1.8105;
838.2000;0.3753;1.8154;
838.5000;0.3728;1.8228;
838.8000;0.3728;1.8203;
839.1000;0.3728;1.8179;
839.4000;0.3744;1.8228;
839.7000;0.3736;1.8203;
840.0000;0.3712;1.8203;
840.3000;0.3761;1.8375;
840.6000;0.3736;1.8449;
840.9000;0.3736;1.8425;
841.2000;0.3728;1.8425;
841.5000;0.3728;1.8351;
841.8000;0.3720;1.8449;
842.1000;0.3744;1.8425;
842.4000;0.3736;1.8351;
842.7000;0.3728;1.8351;
843.0000;0.3736;1.8351;
843.3000;0.3736;1.8228;
843.6000;0.3736;1.8228;
843.9000;0.3736;1.8302;
844.2000;0.3744;1.8302;
844.5000;0.3744;1.8228;
844.8000;0.3744;1.8326;
845.1000;0.3736;1.8302;
845.4000;0.3728;1.8228;
845.7000;0.3720;1.8252;
846.0000;0.3728;1.8277;
846.3000;0.3720;1.8228;
846.6000;0.3728;1.8228;
846.9000;0.3720;1.8252;
847.2000;0.3753;1.8302;
847.5000;0.3736;1.8302;
847.8000;0.3728;1.8302;
848.1000;0.3720;1.8277;
848.4000;0.3728;1.8302;
848.7000;0.3728;1.8375;
849.0000;0.3736;1.8375;
849.3000;0.3744;1.8302;
849.6000;0.3744;1.8277;
849.9000;0.3761;1.8400;
850.2000;0.3728;1.8351;
850.5000;0.3687;1.8252;
850.8000;0.3736;1.8351;
851.1000;0.3736;1.8302;
851.4000;0.3712;1.8228;
851.7000;0.3720;1.8302;
852.0000;0.3712;1.8326;
852.3000;0.3736;1.8326;
852.6000;0.3720;1.8375;
852.9000;0.3720;1.8425;
853.2000;0.3720;1.8351;
853.5000;0.3712;1.8302;
853.8000;0.3736;1.8449;
854.1000;0.3736;1.8474;
854.4000;0.3728;1.8449;
854.7000;0.3728;1.8548;
855.0000;0.3736;1.8548;
855.3000;0.3744;1.8597;
855.6000;0.3728;1.8548;
855.9000;0.3744;1.8474;
856.2000;0.3728;1.8425;
856.5000;0.3728;1.8449;
856.8000;0.3712;1.8326;
857.1000;0.3728;1.8326;
857.4000;0.3728;1.8326;
857.7000;0.3728;1.8326;
858.0000;0.3704;1.8302;
858.3000;0.3712;1.8351;
858.6000;0.3720;1.8302;
858.9000;0.3720;1.8326;
859.2000;0.3712;1.8326;
859.5000;0.3736;1.8449;
859.8000;0.3728;1.8425;
860.1000;0.3761;1.8400;
860.4000;0.3753;1.8425;
860.7000;0.3736;1.8400;
861.0000;0.3712;1.8375;
861.3000;0.3744;1.8425;
861.6000;0.3712;1.8302;
861.9000;0.3761;1.8302;
862.2000;0.3736;1.8228;
862.5000;0.3704;1.8203;
862.8000;0.3720;1.8277;
863.1000;0.3712;1.8302;
863.4000;0.3728;1.8302;
863.7000;0.3720;1.8302;
864.0000;0.3655;1.8129;
864.3000;0.3728;1.8302;
864.6000;0.3720;1.8351;
864.9000;0.3728;1.8326;
865.2000;0.3728;1.8425;
865.5000;0.3793;1.8449;
865.8000;0.3712;1.8326;
866.1000;0.3736;1.8302;
866.4000;0.3720;1.8326;
866.7000;0.3736;1.8400;
867.0000;0.3704;1.8425;
867.3000;0.3704;1.8449;
867.6000;0.3728;1.8449;
867.9000;0.3744;1.8425;
868.2000;0.3704;1.8252;
868.5000;0.3728;1.8351;
868.8000;0.3736;1.8351;
869.1000;0.3720;1.8351;
869.4000;0.3696;1.8228;
869.7000;0.3720;1.8228;
870.0000;0.3744;1.8228;
870.3000;0.3655;1.7957;
870.6000;0.3728;1.8080;
870.9000;0.3728;1.8105;
871.2000;0.3720;1.8179;
871.5000;0.3785;1.8400;
871.8000;0.3704;1.8252;
872.1000;0.3728;1.8252;
872.4000;0.3712;1.8302;
872.7000;0.3720;1.8277;
873.0000;0.3704;1.8252;
873.3000;0.3704;1.8228;
873.6000;0.3704;1.8228;
873.9000;0.3761;1.8326;
874.2000;0.3728;1.8179;
874.5000;0.3712;1.8203;
874.8000;0.3712;1.8105;
875.1000;0.3728;1.8179;
875.4000;0.3720;1.8203;
875.7000;0.3712;1.8179;
876.0000;0.3712;1.8105;
876.3000;0.3728;1.8105;
876.6000;0.3736;1.8203;
876.9000;0.3728;1.8154;
877.2000;0.3720;1.8179;
877.5000;0.3671;1.8080;
877.8000;0.3720;1.8203;
878.1000;0.3720;1.8228;
878.4000;0.3712;1.8154;
878.7000;0.3704;1.8129;
879.0000;0.3728;1.8203;
879.3000;0.3753;1.8351;
879.6000;0.3720;1.8203;
879.9000;0.3720;1.8179;
880.2000;0.3720;1.8179;
880.5000;0.3712;1.8056;
880.8000;0.3712;1.8031;
881.1000;0.3720;1.8105;
881.4000;0.3720;1.8179;
881.7000;0.3736;1.8179;
882.0000;0.3728;1.8154;
882.3000;0.3720;1.8179;
882.6000;0.3696;1.8203;
882.9000;0.3720;1.8302;
883.2000;0.3704;1.8179;
883.5000;0.3712;1.8154;
883.8000;0.3720;1.8129;
884.1000;0.3761;1.8228;
884.4000;0.3696;1.8105;
884.7000;0.3712;1.8179;
885.0000;0.3704;1.8154;
885.3000;0.3720;1.8129;
885.6000;0.3736;1.8203;
885.9000;0.3728;1.8179;
886.2000;0.3696;1.8105;
886.5000;0.3753;1.8179;
886.8000;0.3728;1.8252;
887.1000;0.3647;1.8154;
887.4000;0.3761;1.8375;
887.7000;0.3712;1.8203;
888.0000;0.3712;1.8252;
888.3000;0.3704;1.8252;
888.6000;0.3728;1.8277;
888.9000;0.3720;1.8252;
889.2000;0.3728;1.8277;
889.5000;0.3712;1.8277;
889.8000;0.3712;1.8203;
890.1000;0.3720;1.8203;
890.4000;0.3712;1.8228;
890.7000;0.3720;1.8252;
891.0000;0.3744;1.8302;
891.3000;0.3687;1.8129;
891.6000;0.3712;1.8203;
891.9000;0.3712;1.8302;
892.2000;0.3712;1.8203;
892.5000;0.3712;1.8129;
892.8000;0.3744;1.8326;
893.1000;0.3712;1.8228;
893.4000;0.3720;1.8252;
893.7000;0.3704;1.8179;
894.0000;0.3696;1.8129;
894.3000;0.3712;1.8154;
894.6000;0.3712;1.8203;
894.9000;0.3712;1.8179;
895.2000;0.3704;1.8203;
895.5000;0.3687;1.8179;
895.8000;0.3744;1.8228;
896.1000;0.3712;1.8154;
896.4000;0.3687;1.8228;
896.7000;0.3687;1.8252;
897.0000;0.3639;1.8179;
897.3000;0.3712;1.8351;
897.6000;0.3696;1.8351;
897.9000;0.3720;1.8351;
898.2000;0.3704;1.8228;
898.5000;0.3704;1.8277;
898.8000;0.3736;1.8425;
899.1000;0.3671;1.8277;
899.4000;0.3696;1.8375;
899.7000;0.3704;1.8351;
900.0000;0.3696;1.8302;
900.3000;0.3696;1.8228;
900.6000;0.3720;1.8326;
900.9000;0.3671;1.8277;
901.2000;0.3704;1.8326;
901.5000;0.3728;1.8375;
901.8000;0.3696;1.8351;
902.1000;0.3679;1.8277;
902.4000;0.3761;1.8474;
902.7000;0.3696;1.8326;
903.0000;0.3696;1.8351;
903.3000;0.3671;1.8326;
903.6000;0.3712;1.8449;
903.9000;0.3704;1.8498;
904.2000;0.3679;1.8498;
904.5000;0.3712;1.8523;
904.8000;0.3720;1.8498;
905.1000;0.3728;1.8449;
905.4000;0.3696;1.8375;
905.7000;0.3712;1.8474;
906.0000;0.3671;1.8449;
906.3000;0.3704;1.8572;
906.6000;0.3728;1.8523;
906.9000;0.3720;1.8498;
907.2000;0.3704;1.8474;
907.5000;0.3712;1.8498;
907.8000;0.3696;1.8375;
908.1000;0.3704;1.8326;
908.4000;0.3720;1.8351;
908.7000;0.3704;1.8326;
909.0000;0.3687;1.8154;
909.3000;0.3696;1.8129;
909.6000;0.3704;1.8105;
909.9000;0.3704;1.8129;
910.2000;0.3704;1.8179;
910.5000;0.3704;1.8252;
910.8000;0.3696;1.8277;
911.1000;0.3704;1.8400;
911.4000;0.3704;1.8375;
911.7000;0.3687;1.8252;
912.0000;0.3679;1.8252;
912.3000;0.3712;1.8252;
912.6000;0.3720;1.8252;
912.9000;0.3687;1.8252;
913.2000;0.3720;1.8277;
913.5000;0.3720;1.8302;
913.8000;0.3712;1.8326;
914.1000;0.3679;1.8351;
914.4000;0.3687;1.8326;
914.7000;0.3712;1.8375;
915.0000;0.3744;1.8523;
915.3000;0.3728;1.8449;
915.6000;0.3696;1.8449;
915.9000;0.3704;1.8498;
916.2000;0.3687;1.8400;
916.5000;0.3704;1.8449;
916.8000;0.3728;1.8498;
917.1000;0.3655;1.8351;
917.4000;0.3712;1.8449;
917.7000;0.3679;1.8351;
918.0000;0.3687;1.8277;
918.3000;0.3687;1.8277;
918.6000;0.3687;1.8326;
918.9000;0.3712;1.8375;
919.2000;0.3679;1.8252;
919.5000;0.3687;1.8252;
919.8000;0.3696;1.8277;
920.1000;0.3704;1.8400;
920.4000;0.3679;1.8351;
920.7000;0.3679;1.8326;
921.0000;0.3696;1.8302;
921.3000;0.3679;1.8302;
921.6000;0.3687;1.8277;
921.9000;0.3704;1.8277;
922.2000;0.3720;1.8302;
922.5000;0.3696;1.8375;
922.8000;0.3728;1.8375;
923.1000;0.3736;1.8375;
923.4000;0.3696;1.8252;
923.7000;0.3696;1.8252;
924.0000;0.3704;1.8179;
924.3000;0.3704;1.8129;
924.6000;0.3679;1.8031;
924.9000;0.3704;1.8105;
925.2000;0.3655;1.8080;
925.5000;0.3696;1.8056;
925.8000;0.3671;1.8080;
926.1000;0.3704;1.8228;
926.4000;0.3704;1.8252;
926.7000;0.3663;1.8277;
927.0000;0.3671;1.8277;
927.3000;0.3687;1.8302;
927.6000;0.3720;1.8326;
927.9000;0.3696;1.8252;
928.2000;0.3679;1.8203;
928.5000;0.3687;1.8252;
928.8000;0.3696;1.8326;
929.1000;0.3712;1.8375;
929.4000;0.3655;1.8252;
929.7000;0.3679;1.8351;
930.0000;0.3753;1.8498;
930.3000;0.3671;1.8302;
930.6000;0.3663;1.8252;
930.9000;0.3679;1.8277;
931.2000;0.3679;1.8252;
931.5000;0.3687;1.8302;
931.8000;0.3679;1.8252;
932.1000;0.3647;1.8179;
932.4000;0.3647;1.8080;
932.7000;0.3687;1.8056;
933.0000;0.3663;1.8056;
933.3000;0.3696;1.8203;
933.6000;0.3663;1.8203;
933.9000;0.3582;1.8056;
934.2000;0.3687;1.8351;
934.5000;0.3655;1.8277;
934.8000;0.3696;1.8375;
935.1000;0.3679;1.8351;
935.4000;0.3663;1.8326;
935.7000;0.3696;1.8375;
936.0000;0.3696;1.8277;
936.3000;0.3704;1.8277;
936.6000;0.3704;1.8154;
936.9000;0.3704;1.8252;
937.2000;0.3712;1.8302;
937.5000;0.3704;1.8326;
937.8000;0.3704;1.8302;
938.1000;0.3712;1.8277;
938.4000;0.3744;1.8449;
938.7000;0.3704;1.8179;
939.0000;0.3696;1.8179;
939.3000;0.3687;1.8129;
939.6000;0.3679;1.8056;
939.9000;0.3663;1.8006;
940.2000;0.3639;1.7957;
940.5000;0.3671;1.7982;
940.8000;0.3630;1.7834;
941.1000;0.3663;1.7957;
941.4000;0.3687;1.8080;
941.7000;0.3704;1.8203;
942.0000;0.3679;1.8203;
942.3000;0.3679;1.8129;
942.6000;0.3687;1.8179;
942.9000;0.3704;1.8179;
943.2000;0.3696;1.8277;
943.5000;0.3687;1.8277;
943.8000;0.3671;1.8277;
944.1000;0.3687;1.8277;
944.4000;0.3671;1.8228;
944.7000;0.3696;1.8277;
945.0000;0.3679;1.8203;
945.3000;0.3704;1.8277;
945.6000;0.3687;1.8302;
945.9000;0.3696;1.8302;
946.2000;0.3687;1.8351;
946.5000;0.3696;1.8375;
946.8000;0.3704;1.8425;
947.1000;0.3687;1.8252;
947.4000;0.3687;1.8228;
947.7000;0.3671;1.8203;
948.0000;0.3671;1.8277;
948.3000;0.3687;1.8351;
948.6000;0.3687;1.8351;
948.9000;0.3663;1.8277;
949.2000;0.3687;1.8302;
949.5000;0.3712;1.8375;
949.8000;0.3696;1.8400;
950.1000;0.3679;1.8400;
950.4000;0.3687;1.8351;
950.7000;0.3696;1.8375;
951.0000;0.3679;1.8302;
951.3000;0.3679;1.8302;
951.6000;0.3687;1.8252;
951.9000;0.3696;1.8302;
952.2000;0.3696;1.8203;
952.5000;0.3704;1.8105;
952.8000;0.3663;1.8056;
953.1000;0.3671;1.8031;
953.4000;0.3704;1.8228;
953.7000;0.3704;1.8277;
954.0000;0.3736;1.8425;
954.3000;0.3696;1.8351;
954.6000;0.3687;1.8351;
954.9000;0.3663;1.8302;
955.2000;0.3663;1.8302;
955.5000;0.3687;1.8351;
955.8000;0.3687;1.8425;
956.1000;0.3671;1.8425;
956.4000;0.3663;1.8351;
956.7000;0.3679;1.8400;
957.0000;0.3696;1.8548;
957.3000;0.3696;1.8621;
957.6000;0.3671;1.8597;
957.9000;0.3679;1.8621;
958.2000;0.3655;1.8474;
958.5000;0.3671;1.8449;
958.8000;0.3671;1.8425;
959.1000;0.3663;1.8375;
959.4000;0.3671;1.8326;
959.7000;0.3687;1.8400;
960.0000;0.3679;1.8351;
960.3000;0.3679;1.8375;
960.6000;0.3671;1.8375;
960.9000;0.3679;1.8326;
961.2000;0.3663;1.8154;
961.5000;0.3687;1.8326;
961.8000;0.3671;1.8351;
962.1000;0.3687;1.8400;
962.4000;0.3671;1.8425;
962.7000;0.3671;1.8425;
963.0000;0.3679;1.8400;
963.3000;0.3696;1.8498;
963.6000;0.3671;1.8449;
963.9000;0.3687;1.8548;
964.2000;0.3606;1.8326;
964.5000;0.3663;1.8572;
964.8000;0.3647;1.8572;
965.1000;0.3679;1.8597;
965.4000;0.3679;1.8572;
965.7000;0.3679;1.8523;
966.0000;0.3671;1.8474;
966.3000;0.3671;1.8425;
966.6000;0.3679;1.8425;
966.9000;0.3679;1.8474;
967.2000;0.3679;1.8400;
967.5000;0.3671;1.8375;
967.8000;0.3679;1.8375;
968.1000;0.3696;1.8375;
968.4000;0.3679;1.8425;
968.7000;0.3696;1.8425;
969.0000;0.3712;1.8351;
969.3000;0.3696;1.8252;
969.6000;0.3679;1.8326;
969.9000;0.3687;1.8351;
970.2000;0.3687;1.8400;
970.5000;0.3679;1.8375;
970.8000;0.3687;1.8375;
971.1000;0.3687;1.8449;
971.4000;0.3679;1.8449;
971.7000;0.3687;1.8523;
972.0000;0.3671;1.8400;
972.3000;0.3736;1.8375;
972.6000;0.3704;1.8326;
972.9000;0.3663;1.8302;
973.2000;0.3687;1.8375;
973.5000;0.3712;1.8400;
973.8000;0.3687;1.8351;
974.1000;0.3671;1.8351;
974.4000;0.3671;1.8375;
974.7000;0.3696;1.8351;
975.0000;0.3663;1.8302;
975.3000;0.3696;1.8326;
975.6000;0.3639;1.8129;
975.9000;0.3712;1.8277;
976.2000;0.3671;1.8179;
976.5000;0.3696;1.8203;
976.8000;0.3663;1.8252;
977.1000;0.3671;1.8400;
977.4000;0.3671;1.8400;
977.7000;0.3663;1.8375;
978.0000;0.3647;1.8326;
978.3000;0.3679;1.8498;
978.6000;0.3663;1.8498;
978.9000;0.3671;1.8498;
979.2000;0.3679;1.8498;
979.5000;0.3687;1.8572;
979.8000;0.3679;1.8646;
980.1000;0.3663;1.8597;
980.4000;0.3679;1.8621;
980.7000;0.3655;1.8597;
981.0000;0.3655;1.8498;
981.3000;0.3679;1.8572;
981.6000;0.3647;1.8474;
981.9000;0.3671;1.8498;
982.2000;0.3671;1.8425;
982.5000;0.3687;1.8498;
982.8000;0.3687;1.8474;
983.1000;0.3671;1.8425;
983.4000;0.3679;1.8474;
983.7000;0.3687;1.8523;
984.0000;0.3696;1.8474;
984.3000;0.3679;1.8351;
984.6000;0.3704;1.8498;
984.9000;0.3663;1.8449;
985.2000;0.3663;1.8425;
985.5000;0.3655;1.8425;
985.8000;0.3655;1.8375;
986.1000;0.3679;1.8449;
986.4000;0.3655;1.8548;
986.7000;0.3671;1.8572;
987.0000;0.3663;1.8548;
987.3000;0.3663;1.8498;
987.6000;0.3671;1.8523;
987.9000;0.3671;1.8474;
988.2000;0.3696;1.8548;
988.5000;0.3663;1.8474;
988.8000;0.3679;1.8474;
989.1000;0.3671;1.8425;
989.4000;0.3663;1.8425;
989.7000;0.3655;1.8400;
990.0000;0.3663;1.8375;
990.3000;0.3679;1.8474;
990.6000;0.3671;1.8523;
990.9000;0.3655;1.8597;
991.2000;0.3663;1.8597;
991.5000;0.3687;1.8572;
991.8000;0.3663;1.8400;
992.1000;0.3663;1.8449;
992.4000;0.3663;1.8498;
992.7000;0.3679;1.8548;
993.0000;0.3679;1.8597;
993.3000;0.3671;1.8646;
993.6000;0.3671;1.8621;
993.9000;0.3671;1.8720;
994.2000;0.3671;1.8695;
994.5000;0.3679;1.8646;
994.8000;0.3647;1.8621;
995.1000;0.3598;1.8400;
995.4000;0.3696;1.8523;
995.7000;0.3663;1.8548;
996.0000;0.3647;1.8523;
996.3000;0.3736;1.8769;
996.6000;0.3663;1.8572;
996.9000;0.3663;1.8621;
997.2000;0.3712;1.8695;
997.5000;0.3671;1.8646;
997.8000;0.3606;1.8498;
998.1000;0.3679;1.8646;
998.4000;0.3663;1.8572;
998.7000;0.3663;1.8548;
999.0000;0.3687;1.8548;
999.3000;0.3663;1.8449;
999.6000;0.3663;1.8449;
999.9000;0.3647;1.8400;
1000.2000;0.3663;1.8474;
1000.5000;0.3679;1.8474;
1000.8000;0.3663;1.8351;
1001.1000;0.3687;1.8474;
1001.4000;0.3663;1.8449;
1001.7000;0.3671;1.8474;
1002.0000;0.3687;1.8498;
1002.3000;0.3671;1.8449;
1002.6000;0.3687;1.8375;
1002.9000;0.3630;1.8252;
1003.2000;0.3679;1.8375;
1003.5000;0.3663;1.8498;
1003.8000;0.3704;1.8597;
1004.1000;0.3679;1.8523;
1004.4000;0.3679;1.8597;
1004.7000;0.3671;1.8498;
1005.0000;0.3655;1.8498;
1005.3000;0.3679;1.8548;
1005.6000;0.3655;1.8474;
1005.9000;0.3663;1.8523;
1006.2000;0.3687;1.8548;
1006.5000;0.3655;1.8572;
1006.8000;0.3663;1.8572;
1007.1000;0.3671;1.8523;
1007.4000;0.3679;1.8523;
1007.7000;0.3655;1.8400;
1008.0000;0.3663;1.8474;
1008.3000;0.3671;1.8474;
1008.6000;0.3655;1.8449;
1008.9000;0.3671;1.8400;
1009.2000;0.3679;1.8351;
1009.5000;0.3679;1.8351;
1009.8000;0.3655;1.8277;
1010.1000;0.3663;1.8326;
1010.4000;0.3679;1.8326;
1010.7000;0.3671;1.8375;
1011.0000;0.3655;1.8326;
1011.3000;0.3663;1.8400;
1011.6000;0.3622;1.8228;
1011.9000;0.3679;1.8400;
1012.2000;0.3679;1.8425;
1012.5000;0.3671;1.8375;
1012.8000;0.3663;1.8351;
1013.1000;0.3655;1.8277;
1013.4000;0.3655;1.8252;
1013.7000;0.3687;1.8400;
1014.0000;0.3663;1.8375;
1014.3000;0.3671;1.8425;
1014.6000;0.3663;1.8400;
1014.9000;0.3671;1.8425;
1015.2000;0.3663;1.8425;
1015.5000;0.3687;1.8548;
1015.8000;0.3647;1.8425;
1016.1000;0.3663;1.8425;
1016.4000;0.3671;1.8474;
1016.7000;0.3663;1.8425;
1017.0000;0.3696;1.8449;
1017.3000;0.3679;1.8351;
1017.6000;0.3704;1.8400;
1017.9000;0.3647;1.8252;
1018.2000;0.3614;1.8203;
1018.5000;0.3663;1.8252;
1018.8000;0.3728;1.8425;
1019.1000;0.3696;1.8425;
1019.4000;0.3614;1.8228;
1019.7000;0.3647;1.8326;
1020.0000;0.3655;1.8326;
1020.3000;0.3655;1.8302;
1020.6000;0.3663;1.8351;
1020.9000;0.3720;1.8449;
1021.2000;0.3630;1.8351;
1021.5000;0.3663;1.8523;
1021.8000;0.3655;1.8572;
1022.1000;0.3647;1.8498;
1022.4000;0.3647;1.8474;
1022.7000;0.3655;1.8474;
1023.0000;0.3663;1.8449;
1023.3000;0.3663;1.8400;
1023.6000;0.3655;1.8400;
1023.9000;0.3663;1.8449;
1024.2000;0.3630;1.8400;
1024.5000;0.3663;1.8498;
1024.8000;0.3663;1.8474;
1025.1000;0.3671;1.8572;
1025.4000;0.3639;1.8523;
1025.7000;0.3671;1.8621;
1026.0000;0.3671;1.8597;
1026.3000;0.3663;1.8548;
1026.6000;0.3663;1.8523;
1026.9000;0.3663;1.8548;
1027.2000;0.3663;1.8597;
1027.5000;0.3728;1.8695;
1027.8000;0.3647;1.8548;
1028.1000;0.3663;1.8523;
1028.4000;0.3655;1.8498;
1028.7000;0.3663;1.8523;
1029.0000;0.3655;1.8425;
1029.3000;0.3647;1.8375;
1029.6000;0.3663;1.8425;
1029.9000;0.3671;1.8400;
1030.2000;0.3655;1.8302;
1030.5000;0.3679;1.8449;
1030.8000;0.3679;1.8474;
1031.1000;0.3663;1.8572;
1031.4000;0.3663;1.8621;
1031.7000;0.3671;1.8671;
1032.0000;0.3630;1.8671;
1032.3000;0.3671;1.8794;
1032.6000;0.3663;1.8695;
1032.9000;0.3639;1.8498;
1033.2000;0.3639;1.8498;
1033.5000;0.3663;1.8474;
1033.8000;0.3647;1.8326;
1034.1000;0.3671;1.8449;
1034.4000;0.3582;1.8154;
1034.7000;0.3639;1.8326;
1035.0000;0.3582;1.8203;
1035.3000;0.3663;1.8375;
1035.6000;0.3687;1.8400;
1035.9000;0.3647;1.8302;
1036.2000;0.3655;1.8375;
1036.5000;0.3639;1.8400;
1036.8000;0.3647;1.8474;
1037.1000;0.3655;1.8597;
1037.4000;0.3655;1.8572;
1037.7000;0.3614;1.8449;
1038.0000;0.3663;1.8572;
1038.3000;0.3687;1.8597;
1038.6000;0.3663;1.8474;
1038.9000;0.3671;1.8449;
1039.2000;0.3671;1.8351;
1039.5000;0.3679;1.8326;
1039.8000;0.3671;1.8302;
1040.1000;0.3679;1.8351;
1040.4000;0.3679;1.8351;
1040.7000;0.3671;1.8326;
1041.0000;0.3663;1.8277;
1041.3000;0.3655;1.8228;
1041.6000;0.3655;1.8228;
1041.9000;0.3663;1.8326;
1042.2000;0.3655;1.8252;
1042.5000;0.3671;1.8375;
1042.8000;0.3720;1.8523;
1043.1000;0.3647;1.8425;
1043.4000;0.3655;1.8498;
1043.7000;0.3655;1.8425;
1044.0000;0.3655;1.8400;
1044.3000;0.3655;1.8302;
1044.6000;0.3663;1.8277;
1044.9000;0.3582;1.8056;
1045.2000;0.3663;1.8228;
1045.5000;0.3663;1.8326;
1045.8000;0.3655;1.8400;
1046.1000;0.3679;1.8449;
1046.4000;0.3630;1.8326;
1046.7000;0.3671;1.8326;
1047.0000;0.3598;1.8056;
1047.3000;0.3647;1.8129;
1047.6000;0.3639;1.8080;
1047.9000;0.3663;1.8105;
1048.2000;0.3655;1.8129;
1048.5000;0.3647;1.8203;
1048.8000;0.3663;1.8351;
1049.1000;0.3663;1.8351;
1049.4000;0.3671;1.8326;
1049.7000;0.3671;1.8302;
1050.0000;0.3671;1.8302;
1050.3000;0.3679;1.8252;
1050.6000;0.3696;1.8375;
1050.9000;0.3663;1.8302;
1051.2000;0.3687;1.8449;
1051.5000;0.3671;1.8449;
1051.8000;0.3655;1.8400;
1052.1000;0.3663;1.8425;
1052.4000;0.3671;1.8375;
1052.7000;0.3655;1.8425;
1053.0000;0.3671;1.8474;
1053.3000;0.3663;1.8498;
1053.6000;0.3671;1.8498;
1053.9000;0.3663;1.8449;
1054.2000;0.3671;1.8523;
1054.5000;0.3647;1.8425;
1054.8000;0.3671;1.8572;
1055.1000;0.3639;1.8548;
1055.4000;0.3639;1.8621;
1055.7000;0.3655;1.8646;
1056.0000;0.3704;1.8744;
1056.3000;0.3679;1.8597;
1056.6000;0.3671;1.8597;
1056.9000;0.3655;1.8572;
1057.2000;0.3671;1.8449;
1057.5000;0.3655;1.8375;
1057.8000;0.3647;1.8375;
1058.1000;0.3639;1.8277;
1058.4000;0.3655;1.8252;
1058.7000;0.3679;1.8277;
1059.0000;0.3671;1.8277;
1059.3000;0.3671;1.8302;
1059.6000;0.3671;1.8302;
1059.9000;0.3655;1.8203;
1060.2000;0.3671;1.8326;
1060.5000;0.3679;1.8425;
1060.8000;0.3671;1.8425;
1061.1000;0.3655;1.8302;
1061.4000;0.3663;1.8302;
1061.7000;0.3671;1.8375;
1062.0000;0.3671;1.8375;
1062.3000;0.3647;1.8277;
1062.6000;0.3655;1.8228;
1062.9000;0.3647;1.8252;
1063.2000;0.3639;1.8351;
1063.5000;0.3671;1.8474;
1063.8000;0.3606;1.8228;
1064.1000;0.3671;1.8400;
1064.4000;0.3663;1.8351;
1064.7000;0.3655;1.8375;
1065.0000;0.3614;1.8400;
1065.3000;0.3671;1.8572;
1065.6000;0.3655;1.8498;
1065.9000;0.3663;1.8548;
1066.2000;0.3655;1.8498;
1066.5000;0.3655;1.8548;
1066.8000;0.3655;1.8597;
1067.1000;0.3647;1.8548;
1067.4000;0.3647;1.8548;
1067.7000;0.3655;1.8621;
1068.0000;0.3671;1.8671;
1068.3000;0.3663;1.8621;
1068.6000;0.3639;1.8646;
1068.9000;0.3647;1.8597;
1069.2000;0.3639;1.8597;
1069.5000;0.3720;1.8720;
1069.8000;0.3671;1.8597;
1070.1000;0.3655;1.8572;
1070.4000;0.3663;1.8548;
1070.7000;0.3679;1.8646;
1071.0000;0.3606;1.8449;
1071.3000;0.3647;1.8597;
1071.6000;0.3728;1.8892;
1071.9000;0.3639;1.8744;
1072.2000;0.3679;1.8794;
1072.5000;0.3655;1.8720;
1072.8000;0.3655;1.8744;
1073.1000;0.3663;1.8744;
1073.4000;0.3663;1.8720;
1073.7000;0.3647;1.8621;
1074.0000;0.3663;1.8646;
1074.3000;0.3655;1.8695;
1074.6000;0.3663;1.8720;
1074.9000;0.3655;1.8646;
1075.2000;0.3679;1.8818;
1075.5000;0.3671;1.8867;
1075.8000;0.3671;1.8843;
1076.1000;0.3663;1.8744;
1076.4000;0.3639;1.8621;
1076.7000;0.3671;1.8695;
1077.0000;0.3671;1.8720;
1077.3000;0.3671;1.8744;
1077.6000;0.3663;1.8671;
1077.9000;0.3663;1.8646;
1078.2000;0.3663;1.8671;
1078.5000;0.3712;1.8794;
1078.8000;0.3663;1.8720;
1079.1000;0.3663;1.8621;
1079.4000;0.3655;1.8646;
1079.7000;0.3663;1.8695;
1080.0000;0.3647;1.8621;
1080.3000;0.3655;1.8695;
1080.6000;0.3663;1.8720;
1080.9000;0.3663;1.8695;
1081.2000;0.3614;1.8621;
1081.5000;0.3655;1.8744;
1081.8000;0.3663;1.8744;
1082.1000;0.3671;1.8794;
1082.4000;0.3744;1.9015;
1082.7000;0.3647;1.8720;
1083.0000;0.3671;1.8769;
1083.3000;0.3671;1.8720;
1083.6000;0.3671;1.8671;
1083.9000;0.3630;1.8548;
1084.2000;0.3663;1.8621;
1084.5000;0.3712;1.8769;
1084.8000;0.3679;1.8671;
1085.1000;0.3671;1.8695;
1085.4000;0.3671;1.8720;
1085.7000;0.3663;1.8720;
1086.0000;0.3655;1.8621;
1086.3000;0.3671;1.8671;
1086.6000;0.3671;1.8671;
1086.9000;0.3671;1.8671;
1087.2000;0.3663;1.8572;
1087.5000;0.3590;1.8277;
1087.8000;0.3630;1.8425;
1088.1000;0.3647;1.8474;
1088.4000;0.3630;1.8449;
1088.7000;0.3647;1.8400;
1089.0000;0.3647;1.8375;
1089.3000;0.3647;1.8400;
1089.6000;0.3663;1.8474;
1089.9000;0.3679;1.8523;
1090.2000;0.3671;1.8498;
1090.5000;0.3647;1.8351;
1090.8000;0.3639;1.8351;
1091.1000;0.3663;1.8326;
1091.4000;0.3663;1.8277;
1091.7000;0.3655;1.8277;
1092.0000;0.3647;1.8302;
1092.3000;0.3655;1.8375;
1092.6000;0.3663;1.8375;
1092.9000;0.3663;1.8425;
1093.2000;0.3639;1.8375;
1093.5000;0.3728;1.8720;
1093.8000;0.3606;1.8400;
1094.1000;0.3663;1.8474;
1094.4000;0.3590;1.8228;
1094.7000;0.3630;1.8400;
1095.0000;0.3639;1.8400;
1095.3000;0.3630;1.8400;
1095.6000;0.3614;1.8351;
1095.9000;0.3582;1.8302;
1096.2000;0.3647;1.8498;
1096.5000;0.3663;1.8523;
1096.8000;0.3655;1.8523;
1097.1000;0.3647;1.8498;
1097.4000;0.3728;1.8671;
1097.7000;0.3679;1.8572;
1098.0000;0.3671;1.8597;
1098.3000;0.3647;1.8621;
1098.6000;0.3671;1.8646;
1098.9000;0.3647;1.8597;
1099.2000;0.3663;1.8597;
1099.5000;0.3647;1.8646;
1099.8000;0.3655;1.8572;
1100.1000;0.3630;1.8474;
1100.4000;0.3647;1.8498;
1100.7000;0.3663;1.8597;
1101.0000;0.3663;1.8621;
1101.3000;0.3614;1.8548;
1101.6000;0.3647;1.8695;
1101.9000;0.3647;1.8572;
1102.2000;0.3712;1.8695;
1102.5000;0.3647;1.8572;
1102.8000;0.3639;1.8498;
1103.1000;0.3630;1.8425;
1103.4000;0.3655;1.8498;
1103.7000;0.3639;1.8474;
1104.0000;0.3655;1.8523;
1104.3000;0.3647;1.8523;
1104.6000;0.3630;1.8474;
1104.9000;0.3630;1.8474;
1105.2000;0.3728;1.8769;
1105.5000;0.3647;1.8597;
1105.8000;0.3655;1.8523;
1106.1000;0.3655;1.8523;
1106.4000;0.3655;1.8597;
1106.7000;0.3663;1.8621;
1107.0000;0.3647;1.8597;
1107.3000;0.3655;1.8474;
1107.6000;0.3663;1.8326;
1107.9000;0.3671;1.8351;
1108.2000;0.3647;1.8326;
1108.5000;0.3614;1.8326;
1108.8000;0.3647;1.8302;
1109.1000;0.3655;1.8326;
1109.4000;0.3639;1.8203;
1109.7000;0.3679;1.8302;
1110.0000;0.3655;1.8351;
1110.3000;0.3793;1.8794;
1110.6000;0.3655;1.8351;
1110.9000;0.3639;1.8302;
1111.2000;0.3671;1.8302;
1111.5000;0.3655;1.8252;
1111.8000;0.3639;1.8252;
1112.1000;0.3704;1.8498;
1112.4000;0.3606;1.8228;
1112.7000;0.3663;1.8375;
1113.0000;0.3614;1.8203;
1113.3000;0.3655;1.8302;
1113.6000;0.3630;1.8203;
1113.9000;0.3630;1.8228;
1114.2000;0.3663;1.8302;
1114.5000;0.3647;1.8375;
1114.8000;0.3655;1.8302;
1115.1000;0.3639;1.8228;
1115.4000;0.3687;1.8375;
1115.7000;0.3639;1.8228;
1116.0000;0.3639;1.8228;
1116.3000;0.3622;1.8154;
1116.6000;0.3655;1.8277;
1116.9000;0.3647;1.8326;
1117.2000;0.3647;1.8228;
1117.5000;0.3614;1.8154;
1117.8000;0.3622;1.8154;
1118.1000;0.3687;1.8326;
1118.4000;0.3614;1.8203;
1118.7000;0.3639;1.8203;
1119.0000;0.3655;1.8203;
1119.3000;0.3647;1.8203;
1119.6000;0.3663;1.8252;
1119.9000;0.3630;1.8277;
1120.2000;0.3655;1.8326;
1120.5000;0.3630;1.8252;
1120.8000;0.3647;1.8351;
1121.1000;0.3630;1.8326;
1121.4000;0.3647;1.8400;
1121.7000;0.3663;1.8400;
1122.0000;0.3663;1.8474;
1122.3000;0.3639;1.8400;
1122.6000;0.3630;1.8449;
1122.9000;0.3663;1.8498;
1123.2000;0.3647;1.8375;
1123.5000;0.3647;1.8375;
1123.8000;0.3647;1.8449;
1124.1000;0.3639;1.8449;
1124.4000;0.3647;1.8449;
1124.7000;0.3655;1.8474;
1125.0000;0.3639;1.8474;
1125.3000;0.3614;1.8474;
1125.6000;0.3663;1.8621;
1125.9000;0.3663;1.8597;
1126.2000;0.3630;1.8523;
1126.5000;0.3663;1.8597;
1126.8000;0.3655;1.8646;
1127.1000;0.3639;1.8597;
1127.4000;0.3663;1.8523;
1127.7000;0.3687;1.8597;
1128.0000;0.3663;1.8425;
1128.3000;0.3655;1.8425;
1128.6000;0.3655;1.8375;
1128.9000;0.3647;1.8351;
1129.2000;0.3647;1.8326;
1129.5000;0.3663;1.8277;
1129.8000;0.3696;1.8351;
1130.1000;0.3639;1.8228;
1130.4000;0.3671;1.8375;
1130.7000;0.3573;1.8129;
1131.0000;0.3647;1.8375;
1131.3000;0.3647;1.8375;
1131.6000;0.3639;1.8326;
1131.9000;0.3655;1.8425;
1132.2000;0.3630;1.8400;
1132.5000;0.3647;1.8375;
1132.8000;0.3655;1.8400;
1133.1000;0.3647;1.8326;
1133.4000;0.3630;1.8326;
1133.7000;0.3655;1.8351;
1134.0000;0.3639;1.8351;
1134.3000;0.3655;1.8326;
1134.6000;0.3639;1.8400;
1134.9000;0.3663;1.8523;
1135.2000;0.3639;1.8474;
1135.5000;0.3639;1.8523;
1135.8000;0.3639;1.8498;
1136.1000;0.3647;1.8523;
1136.4000;0.3696;1.8646;
1136.7000;0.3614;1.8425;
1137.0000;0.3663;1.8597;
1137.3000;0.3696;1.8572;
1137.6000;0.3647;1.8375;
1137.9000;0.3663;1.8474;
1138.2000;0.3647;1.8498;
1138.5000;0.3639;1.8548;
1138.8000;0.3598;1.8400;
1139.1000;0.3639;1.8548;
1139.4000;0.3639;1.8572;
1139.7000;0.3639;1.8474;
1140.0000;0.3655;1.8523;
1140.3000;0.3630;1.8572;
1140.6000;0.3647;1.8548;
1140.9000;0.3647;1.8548;
1141.2000;0.3663;1.8621;
1141.5000;0.3647;1.8523;
1141.8000;0.3704;1.8695;
1142.1000;0.3639;1.8523;
1142.4000;0.3647;1.8498;
1142.7000;0.3663;1.8474;
1143.0000;0.3647;1.8449;
1143.3000;0.3630;1.8326;
1143.6000;0.3647;1.8326;
1143.9000;0.3647;1.8375;
1144.2000;0.3639;1.8449;
1144.5000;0.3622;1.8449;
1144.8000;0.3663;1.8621;
1145.1000;0.3614;1.8474;
1145.4000;0.3663;1.8646;
1145.7000;0.3639;1.8597;
1146.0000;0.3663;1.8621;
1146.3000;0.3663;1.8523;
1146.6000;0.3647;1.8474;
1146.9000;0.3647;1.8425;
1147.2000;0.3647;1.8425;
1147.5000;0.3639;1.8400;
1147.8000;0.3712;1.8548;
1148.1000;0.3671;1.8425;
1148.4000;0.3655;1.8375;
1148.7000;0.3647;1.8375;
1149.0000;0.3647;1.8351;
1149.3000;0.3655;1.8449;
1149.6000;0.3647;1.8400;
1149.9000;0.3663;1.8474;
1150.2000;0.3557;1.8302;
1150.5000;0.3639;1.8597;
1150.8000;0.3647;1.8548;
1151.1000;0.3590;1.8326;
1151.4000;0.3647;1.8548;
1151.7000;0.3630;1.8498;
1152.0000;0.3663;1.8646;
1152.3000;0.3647;1.8572;
1152.6000;0.3647;1.8572;
1152.9000;0.3647;1.8572;
1153.2000;0.3647;1.8572;
1153.5000;0.3647;1.8498;
1153.8000;0.3647;1.8375;
1154.1000;0.3647;1.8351;
1154.4000;0.3671;1.8351;
1154.7000;0.3647;1.8326;
1155.0000;0.3663;1.8400;
1155.3000;0.3655;1.8351;
1155.6000;0.3647;1.8375;
1155.9000;0.3647;1.8351;
1156.2000;0.3647;1.8351;
1156.5000;0.3655;1.8400;
1156.8000;0.3655;1.8425;
1157.1000;0.3663;1.8498;
1157.4000;0.3655;1.8425;
1157.7000;0.3655;1.8375;
1158.0000;0.3663;1.8375;
1158.3000;0.3647;1.8326;
1158.6000;0.3655;1.8449;
1158.9000;0.3655;1.8375;
1159.2000;0.3663;1.8400;
1159.5000;0.3647;1.8326;
1159.8000;0.3622;1.8302;
1160.1000;0.3663;1.8449;
1160.4000;0.3647;1.8449;
1160.7000;0.3630;1.8400;
1161.0000;0.3647;1.8474;
1161.3000;0.3606;1.8449;
1161.6000;0.3647;1.8597;
1161.9000;0.3622;1.8498;
1162.2000;0.3639;1.8548;
1162.5000;0.3655;1.8572;
1162.8000;0.3614;1.8498;
1163.1000;0.3663;1.8597;
1163.4000;0.3647;1.8523;
1163.7000;0.3663;1.8572;
1164.0000;0.3622;1.8523;
1164.3000;0.3630;1.8498;
1164.6000;0.3704;1.8744;
1164.9000;0.3655;1.8498;
1165.2000;0.3663;1.8548;
1165.5000;0.3679;1.8572;
1165.8000;0.3622;1.8449;
1166.1000;0.3622;1.8400;
1166.4000;0.3630;1.8425;
1166.7000;0.3647;1.8548;
1167.0000;0.3647;1.8621;
1167.3000;0.3663;1.8671;
1167.6000;0.3655;1.8572;
1167.9000;0.3639;1.8498;
1168.2000;0.3639;1.8449;
1168.5000;0.3639;1.8400;
1168.8000;0.3639;1.8425;
1169.1000;0.3663;1.8498;
1169.4000;0.3663;1.8548;
1169.7000;0.3671;1.8474;
1170.0000;0.3655;1.8351;
1170.3000;0.3655;1.8351;
1170.6000;0.3639;1.8277;
1170.9000;0.3630;1.8302;
1171.2000;0.3573;1.8129;
1171.5000;0.3663;1.8302;
1171.8000;0.3655;1.8351;
1172.1000;0.3582;1.8277;
1172.4000;0.3655;1.8548;
1172.7000;0.3679;1.8671;
1173.0000;0.3663;1.8646;
1173.3000;0.3647;1.8548;
1173.6000;0.3606;1.8400;
1173.9000;0.3614;1.8425;
1174.2000;0.3614;1.8474;
1174.5000;0.3630;1.8474;
1174.8000;0.3639;1.8474;
1175.1000;0.3720;1.8646;
1175.4000;0.3639;1.8375;
1175.7000;0.3655;1.8474;
1176.0000;0.3630;1.8375;
1176.3000;0.3639;1.8351;
1176.6000;0.3647;1.8351;
1176.9000;0.3639;1.8375;
1177.2000;0.3639;1.8400;
1177.5000;0.3639;1.8523;
1177.8000;0.3655;1.8548;
1178.1000;0.3655;1.8572;
1178.4000;0.3647;1.8523;
1178.7000;0.3655;1.8474;
1179.0000;0.3639;1.8425;
1179.3000;0.3639;1.8498;
1179.6000;0.3614;1.8474;
1179.9000;0.3639;1.8498;
1180.2000;0.3647;1.8572;
1180.5000;0.3630;1.8425;
1180.8000;0.3639;1.8498;
1181.1000;0.3639;1.8400;
1181.4000;0.3639;1.8400;
1181.7000;0.3655;1.8523;
1182.0000;0.3647;1.8425;
1182.3000;0.3639;1.8351;
1182.6000;0.3647;1.8375;
1182.9000;0.3647;1.8252;
1183.2000;0.3655;1.8326;
1183.5000;0.3655;1.8400;
1183.8000;0.3647;1.8425;
1184.1000;0.3647;1.8523;
1184.4000;0.3663;1.8498;
1184.7000;0.3655;1.8351;
1185.0000;0.3639;1.8326;
1185.3000;0.3655;1.8400;
1185.6000;0.3639;1.8326;
1185.9000;0.3614;1.8228;
1186.2000;0.3647;1.8375;
1186.5000;0.3655;1.8400;
1186.8000;0.3671;1.8474;
1187.1000;0.3663;1.8425;
1187.4000;0.3687;1.8425;
1187.7000;0.3647;1.8326;
1188.0000;0.3663;1.8351;
1188.3000;0.3655;1.8375;
1188.6000;0.3736;1.8597;
1188.9000;0.3639;1.8302;
1189.2000;0.3630;1.8351;
1189.5000;0.3655;1.8425;
1189.8000;0.3630;1.8326;
1190.1000;0.3614;1.8252;
1190.4000;0.3647;1.8351;
1190.7000;0.3647;1.8326;
1191.0000;0.3639;1.8277;
1191.3000;0.3663;1.8252;
1191.6000;0.3720;1.8351;
1191.9000;0.3679;1.8351;
1192.2000;0.3655;1.8351;
1192.5000;0.3639;1.8326;
1192.8000;0.3655;1.8375;
1193.1000;0.3655;1.8400;
1193.4000;0.3655;1.8474;
1193.7000;0.3663;1.8425;
1194.0000;0.3663;1.8425;
1194.3000;0.3655;1.8523;
1194.6000;0.3663;1.8498;
1194.9000;0.3655;1.8498;
1195.2000;0.3663;1.8572;
1195.5000;0.3639;1.8548;
1195.8000;0.3639;1.8572;
1196.1000;0.3663;1.8523;
1196.4000;0.3647;1.8425;
1196.7000;0.3655;1.8449;
1197.0000;0.3655;1.8449;
1197.3000;0.3655;1.8449;
1197.6000;0.3647;1.8425;
1197.9000;0.3655;1.8498;
1198.2000;0.3647;1.8523;
1198.5000;0.3655;1.8572;
1198.8000;0.3614;1.8474;
1199.1000;0.3679;1.8671;
1199.4000;0.3639;1.8695;
1199.7000;0.3655;1.8720;
1200.0000;0.3622;1.8597;
1200.3000;0.3639;1.8597;
1200.6000;0.3630;1.8498;
1200.9000;0.3647;1.8523;
1201.2000;0.3647;1.8523;
1201.5000;0.3696;1.8671;
1201.8000;0.3639;1.8498;
1202.1000;0.3647;1.8572;
1202.4000;0.3655;1.8646;
1202.7000;0.3671;1.8695;
1203.0000;0.3647;1.8597;
1203.3000;0.3630;1.8572;
1203.6000;0.3639;1.8548;
1203.9000;0.3622;1.8523;
1204.2000;0.3639;1.8597;
1204.5000;0.3671;1.8671;
1204.8000;0.3687;1.8744;
1205.1000;0.3630;1.8548;
1205.4000;0.3630;1.8498;
1205.7000;0.3622;1.8474;
1206.0000;0.3630;1.8572;
1206.3000;0.3606;1.8498;
1206.6000;0.3655;1.8548;
1206.9000;0.3622;1.8425;
1207.2000;0.3655;1.8425;
1207.5000;0.3647;1.8326;
1207.8000;0.3712;1.8523;
1208.1000;0.3639;1.8277;
1208.4000;0.3647;1.8302;
1208.7000;0.3655;1.8277;
1209.0000;0.3696;1.8375;
1209.3000;0.3639;1.8203;
1209.6000;0.3647;1.8326;
1209.9000;0.3704;1.8523;
1210.2000;0.3647;1.8400;
1210.5000;0.3639;1.8498;
1210.8000;0.3728;1.8597;
1211.1000;0.3622;1.8179;
1211.4000;0.3687;1.8375;
1211.7000;0.3630;1.8154;
1212.0000;0.3655;1.8179;
1212.3000;0.3647;1.8105;
1212.6000;0.3647;1.8080;
1212.9000;0.3647;1.8179;
1213.2000;0.3647;1.8154;
1213.5000;0.3655;1.8228;
1213.8000;0.3630;1.8179;
1214.1000;0.3655;1.8203;
1214.4000;0.3639;1.8179;
1214.7000;0.3655;1.8252;
1215.0000;0.3655;1.8302;
1215.3000;0.3655;1.8203;
1215.6000;0.3647;1.8154;
1215.9000;0.3679;1.8277;
1216.2000;0.3647;1.8277;
1216.5000;0.3639;1.8277;
1216.8000;0.3663;1.8302;
1217.1000;0.3655;1.8375;
1217.4000;0.3671;1.8400;
1217.7000;0.3647;1.8375;
1218.0000;0.3639;1.8375;
1218.3000;0.3639;1.8375;
1218.6000;0.3647;1.8449;
1218.9000;0.3647;1.8449;
1219.2000;0.3647;1.8400;
1219.5000;0.3630;1.8375;
1219.8000;0.3663;1.8375;
1220.1000;0.3655;1.8375;
1220.4000;0.3630;1.8252;
1220.7000;0.3671;1.8351;
1221.0000;0.3647;1.8400;
1221.3000;0.3647;1.8400;
1221.6000;0.3639;1.8351;
1221.9000;0.3647;1.8400;
1222.2000;0.3630;1.8375;
1222.5000;0.3655;1.8449;
1222.8000;0.3647;1.8351;
1223.1000;0.3647;1.8302;
1223.4000;0.3630;1.8277;
1223.7000;0.3630;1.8326;
1224.0000;0.3630;1.8277;
1224.3000;0.3647;1.8326;
1224.6000;0.3639;1.8474;
1224.9000;0.3655;1.8498;
1225.2000;0.3655;1.8523;
1225.5000;0.3663;1.8597;
1225.8000;0.3655;1.8646;
1226.1000;0.3655;1.8695;
1226.4000;0.3582;1.8523;
1226.7000;0.3663;1.8695;
1227.0000;0.3630;1.8646;
1227.3000;0.3647;1.8671;
1227.6000;0.3639;1.8621;
1227.9000;0.3647;1.8523;
1228.2000;0.3655;1.8425;
1228.5000;0.3639;1.8375;
1228.8000;0.3671;1.8498;
1229.1000;0.3639;1.8449;
1229.4000;0.3598;1.8351;
1229.7000;0.3663;1.8474;
1230.0000;0.3639;1.8425;
1230.3000;0.3639;1.8375;
1230.6000;0.3663;1.8375;
1230.9000;0.3687;1.8523;
1231.2000;0.3622;1.8425;
1231.5000;0.3655;1.8572;
1231.8000;0.3639;1.8548;
1232.1000;0.3639;1.8597;
1232.4000;0.3622;1.8621;
1232.7000;0.3639;1.8621;
1233.0000;0.3655;1.8621;
1233.3000;0.3647;1.8523;
1233.6000;0.3647;1.8498;
1233.9000;0.3639;1.8449;
1234.2000;0.3639;1.8548;
1234.5000;0.3647;1.8597;
1234.8000;0.3639;1.8597;
1235.1000;0.3630;1.8449;
1235.4000;0.3647;1.8498;
1235.7000;0.3639;1.8449;
1236.0000;0.3639;1.8523;
1236.3000;0.3639;1.8498;
1236.6000;0.3655;1.8646;
1236.9000;0.3647;1.8621;
1237.2000;0.3630;1.8523;
1237.5000;0.3622;1.8498;
1237.8000;0.3663;1.8548;
1238.1000;0.3630;1.8449;
1238.4000;0.3630;1.8400;
1238.7000;0.3639;1.8425;
1239.0000;0.3639;1.8449;
1239.3000;0.3655;1.8498;
1239.6000;0.3630;1.8498;
1239.9000;0.3647;1.8548;
1240.2000;0.3647;1.8523;
1240.5000;0.3655;1.8498;
1240.8000;0.3647;1.8498;
1241.1000;0.3630;1.8474;
1241.4000;0.3655;1.8498;
1241.7000;0.3647;1.8621;
1242.0000;0.3582;1.8474;
1242.3000;0.3630;1.8621;
1242.6000;0.3630;1.8572;
1242.9000;0.3663;1.8646;
1243.2000;0.3639;1.8671;
1243.5000;0.3639;1.8646;
1243.8000;0.3630;1.8695;
1244.1000;0.3655;1.8744;
1244.4000;0.3614;1.8597;
1244.7000;0.3647;1.8695;
1245.0000;0.3647;1.8646;
1245.3000;0.3679;1.8671;
1245.6000;0.3663;1.8646;
1245.9000;0.3663;1.8597;
1246.2000;0.3647;1.8498;
1246.5000;0.3663;1.8474;
1246.8000;0.3647;1.8449;
1247.1000;0.3630;1.8400;
1247.4000;0.3655;1.8400;
1247.7000;0.3630;1.8351;
1248.0000;0.3639;1.8351;
1248.3000;0.3655;1.8302;
1248.6000;0.3647;1.8228;
1248.9000;0.3655;1.8228;
1249.2000;0.3630;1.8129;
1249.5000;0.3671;1.8302;
1249.8000;0.3655;1.8326;
1250.1000;0.3663;1.8351;
1250.4000;0.3622;1.8302;
1250.7000;0.3663;1.8277;
1251.0000;0.3663;1.8252;
1251.3000;0.3655;1.8154;
1251.6000;0.3655;1.8154;
1251.9000;0.3647;1.8277;
1252.2000;0.3655;1.8326;
1252.5000;0.3639;1.8351;
1252.8000;0.3671;1.8449;
1253.1000;0.3655;1.8449;
1253.4000;0.3663;1.8474;
1253.7000;0.3647;1.8375;
1254.0000;0.3630;1.8326;
1254.3000;0.3639;1.8400;
1254.6000;0.3647;1.8375;
1254.9000;0.3655;1.8425;
1255.2000;0.3639;1.8400;
1255.5000;0.3647;1.8474;
1255.8000;0.3647;1.8449;
1256.1000;0.3647;1.8548;
1256.4000;0.3647;1.8597;
1256.7000;0.3687;1.8671;
1257.0000;0.3704;1.8794;
1257.3000;0.3639;1.8621;
1257.6000;0.3671;1.8621;
1257.9000;0.3655;1.8572;
1258.2000;0.3655;1.8498;
1258.5000;0.3647;1.8474;
1258.8000;0.3655;1.8425;
1259.1000;0.3606;1.8351;
1259.4000;0.3647;1.8425;
1259.7000;0.3647;1.8425;
1260.0000;0.3582;1.8302;
1260.3000;0.3647;1.8548;
1260.6000;0.3655;1.8646;
1260.9000;0.3663;1.8621;
1261.2000;0.3647;1.8597;
1261.5000;0.3655;1.8646;
1261.8000;0.3622;1.8572;
1262.1000;0.3671;1.8695;
1262.4000;0.3655;1.8671;
1262.7000;0.3639;1.8597;
1263.0000;0.3647;1.8597;
1263.3000;0.3647;1.8572;
1263.6000;0.3630;1.8498;
1263.9000;0.3639;1.8449;
1264.2000;0.3671;1.8474;
1264.5000;0.3639;1.8425;
1264.8000;0.3655;1.8498;
1265.1000;0.3647;1.8523;
1265.4000;0.3647;1.8548;
1265.7000;0.3647;1.8572;
1266.0000;0.3687;1.8720;
1266.3000;0.3655;1.8572;
1266.6000;0.3655;1.8572;
1266.9000;0.3647;1.8572;
1267.2000;0.3639;1.8498;
1267.5000;0.3647;1.8597;
1267.8000;0.3647;1.8449;
1268.1000;0.3590;1.8302;
1268.4000;0.3647;1.8498;
1268.7000;0.3647;1.8523;
1269.0000;0.3630;1.8449;
1269.3000;0.3647;1.8449;
1269.6000;0.3655;1.8449;
1269.9000;0.3671;1.8474;
1270.2000;0.3655;1.8400;
1270.5000;0.3655;1.8302;
1270.8000;0.3647;1.8351;
1271.1000;0.3671;1.8326;
1271.4000;0.3639;1.8351;
1271.7000;0.3655;1.8449;
1272.0000;0.3647;1.8498;
1272.3000;0.3647;1.8646;
1272.6000;0.3655;1.8621;
1272.9000;0.3647;1.8597;
1273.2000;0.3622;1.8597;
1273.5000;0.3639;1.8597;
1273.8000;0.3639;1.8597;
1274.1000;0.3647;1.8548;
1274.4000;0.3663;1.8597;
1274.7000;0.3655;1.8597;
1275.0000;0.3647;1.8597;
1275.3000;0.3639;1.8523;
1275.6000;0.3647;1.8474;
1275.9000;0.3655;1.8498;
1276.2000;0.3663;1.8474;
1276.5000;0.3671;1.8572;
1276.8000;0.3630;1.8597;
1277.1000;0.3655;1.8671;
1277.4000;0.3639;1.8621;
1277.7000;0.3614;1.8548;
1278.0000;0.3590;1.8375;
1278.3000;0.3622;1.8498;
1278.6000;0.3622;1.8548;
1278.9000;0.3590;1.8449;
1279.2000;0.3639;1.8597;
1279.5000;0.3614;1.8548;
1279.8000;0.3639;1.8498;
1280.1000;0.3679;1.8572;
1280.4000;0.3671;1.8548;
1280.7000;0.3647;1.8474;
1281.0000;0.3639;1.8425;
1281.3000;0.3671;1.8498;
1281.6000;0.3655;1.8498;
1281.9000;0.3663;1.8474;
1282.2000;0.3655;1.8498;
1282.5000;0.3614;1.8302;
1282.8000;0.3655;1.8375;
1283.1000;0.3655;1.8425;
1283.4000;0.3630;1.8548;
1283.7000;0.3647;1.8597;
1284.0000;0.3671;1.8597;
1284.3000;0.3622;1.8351;
1284.6000;0.3655;1.8400;
1284.9000;0.3639;1.8449;
1285.2000;0.3639;1.8498;
1285.5000;0.3647;1.8498;
1285.8000;0.3639;1.8498;
1286.1000;0.3630;1.8449;
1286.4000;0.3663;1.8498;
1286.7000;0.3663;1.8523;
1287.0000;0.3655;1.8474;
1287.3000;0.3606;1.8425;
1287.6000;0.3647;1.8498;
1287.9000;0.3647;1.8375;
1288.2000;0.3671;1.8425;
1288.5000;0.3639;1.8400;
1288.8000;0.3647;1.8425;
1289.1000;0.3655;1.8425;
1289.4000;0.3663;1.8326;
1289.7000;0.3639;1.8326;
1290.0000;0.3614;1.8277;
1290.3000;0.3663;1.8449;
1290.6000;0.3655;1.8425;
1290.9000;0.3647;1.8425;
1291.2000;0.3614;1.8375;
1291.5000;0.3655;1.8621;
1291.8000;0.3647;1.8671;
1292.1000;0.3655;1.8671;
1292.4000;0.3647;1.8671;
1292.7000;0.3655;1.8597;
1293.0000;0.3647;1.8548;
1293.3000;0.3639;1.8498;
1293.6000;0.3671;1.8572;
1293.9000;0.3647;1.8474;
1294.2000;0.3647;1.8375;
1294.5000;0.3655;1.8302;
1294.8000;0.3639;1.8375;
1295.1000;0.3647;1.8425;
1295.4000;0.3647;1.8400;
1295.7000;0.3647;1.8375;
1296.0000;0.3647;1.8400;
1296.3000;0.3647;1.8351;
1296.6000;0.3647;1.8400;
1296.9000;0.3647;1.8351;
1297.2000;0.3614;1.8375;
1297.5000;0.3622;1.8400;
1297.8000;0.3647;1.8474;
1298.1000;0.3655;1.8474;
1298.4000;0.3590;1.8326;
1298.7000;0.3647;1.8449;
1299.0000;0.3655;1.8425;
1299.3000;0.3647;1.8400;
1299.6000;0.3647;1.8400;
1299.9000;0.3630;1.8302;
1300.2000;0.3655;1.8351;
1300.5000;0.3647;1.8228;
1300.8000;0.3622;1.8252;
1301.1000;0.3630;1.8302;
1301.4000;0.3639;1.8326;
1301.7000;0.3663;1.8400;
1302.0000;0.3687;1.8597;
1302.3000;0.3639;1.8425;
1302.6000;0.3639;1.8400;
1302.9000;0.3655;1.8375;
1303.2000;0.3647;1.8351;
1303.5000;0.3614;1.8228;
1303.8000;0.3557;1.7982;
1304.1000;0.3606;1.8129;
1304.4000;0.3630;1.8179;
1304.7000;0.3647;1.8228;
1305.0000;0.3622;1.8203;
1305.3000;0.3647;1.8252;
1305.6000;0.3647;1.8179;
1305.9000;0.3655;1.8302;
1306.2000;0.3655;1.8228;
1306.5000;0.3655;1.8277;
1306.8000;0.3647;1.8252;
1307.1000;0.3582;1.8105;
1307.4000;0.3696;1.8351;
1307.7000;0.3647;1.8179;
1308.0000;0.3696;1.8252;
1308.3000;0.3655;1.8179;
1308.6000;0.3614;1.8154;
1308.9000;0.3622;1.8154;
1309.2000;0.3639;1.8154;
1309.5000;0.3639;1.8154;
1309.8000;0.3647;1.8252;
1310.1000;0.3639;1.8203;
1310.4000;0.3639;1.8203;
1310.7000;0.3663;1.8203;
1311.0000;0.3655;1.8252;
1311.3000;0.3655;1.8228;
1311.6000;0.3639;1.8179;
1311.9000;0.3671;1.8154;
1312.2000;0.3679;1.8179;
1312.5000;0.3663;1.8105;
1312.8000;0.3663;1.8203;
1313.1000;0.3671;1.8277;
1313.4000;0.3647;1.8203;
1313.7000;0.3639;1.8203;
1314.0000;0.3639;1.8228;
1314.3000;0.3655;1.8252;
1314.6000;0.3639;1.8228;
1314.9000;0.3671;1.8252;
1315.2000;0.3590;1.8105;
1315.5000;0.3630;1.8351;
1315.8000;0.3647;1.8449;
1316.1000;0.3655;1.8351;
1316.4000;0.3655;1.8326;
1316.7000;0.3639;1.8228;
1317.0000;0.3663;1.8302;
1317.3000;0.3655;1.8277;
1317.6000;0.3639;1.8252;
1317.9000;0.3639;1.8302;
1318.2000;0.3655;1.8425;
1318.5000;0.3663;1.8425;
1318.8000;0.3630;1.8351;
1319.1000;0.3647;1.8326;
1319.4000;0.3606;1.8252;
1319.7000;0.3647;1.8375;
1320.0000;0.3630;1.8474;
1320.3000;0.3639;1.8400;
1320.6000;0.3647;1.8498;
1320.9000;0.3663;1.8498;
1321.2000;0.3630;1.8375;
1321.5000;0.3671;1.8449;
1321.8000;0.3639;1.8400;
1322.1000;0.3639;1.8375;
1322.4000;0.3606;1.8277;
1322.7000;0.3647;1.8375;
1323.0000;0.3655;1.8351;
1323.3000;0.3655;1.8326;
1323.6000;0.3655;1.8400;
1323.9000;0.3630;1.8326;
1324.2000;0.3630;1.8400;
1324.5000;0.3647;1.8548;
1324.8000;0.3655;1.8621;
1325.1000;0.3655;1.8646;
1325.4000;0.3639;1.8523;
1325.7000;0.3655;1.8597;
1326.0000;0.3663;1.8572;
1326.3000;0.3606;1.8375;
1326.6000;0.3655;1.8548;
1326.9000;0.3647;1.8498;
1327.2000;0.3639;1.8523;
1327.5000;0.3647;1.8523;
1327.8000;0.3647;1.8375;
1328.1000;0.3639;1.8326;
1328.4000;0.3639;1.8277;
1328.7000;0.3663;1.8302;
1329.0000;0.3647;1.8277;
1329.3000;0.3647;1.8326;
1329.6000;0.3606;1.8252;
1329.9000;0.3590;1.8326;
1330.2000;0.3639;1.8400;
1330.5000;0.3639;1.8375;
1330.8000;0.3647;1.8375;
1331.1000;0.3647;1.8400;
1331.4000;0.3647;1.8425;
1331.7000;0.3647;1.8474;
1332.0000;0.3704;1.8646;
1332.3000;0.3663;1.8523;
1332.6000;0.3655;1.8548;
1332.9000;0.3687;1.8548;
1333.2000;0.3639;1.8425;
1333.5000;0.3663;1.8474;
1333.8000;0.3630;1.8523;
1334.1000;0.3647;1.8498;
1334.4000;0.3671;1.8572;
1334.7000;0.3630;1.8597;
1335.0000;0.3647;1.8621;
1335.3000;0.3630;1.8621;
1335.6000;0.3671;1.8621;
1335.9000;0.3630;1.8597;
1336.2000;0.3639;1.8597;
1336.5000;0.3614;1.8646;
1336.8000;0.3622;1.8646;
1337.1000;0.3647;1.8671;
1337.4000;0.3647;1.8621;
1337.7000;0.3639;1.8671;
1338.0000;0.3639;1.8646;
1338.3000;0.3630;1.8449;
1338.6000;0.3647;1.8498;
1338.9000;0.3671;1.8572;
1339.2000;0.3655;1.8572;
1339.5000;0.3582;1.8400;
1339.8000;0.3639;1.8621;
1340.1000;0.3639;1.8695;
1340.4000;0.3655;1.8671;
1340.7000;0.3639;1.8695;
1341.0000;0.3614;1.8621;
1341.3000;0.3671;1.8720;
1341.6000;0.3639;1.8597;
1341.9000;0.3655;1.8621;
1342.2000;0.3647;1.8621;
1342.5000;0.3671;1.8621;
1342.8000;0.3647;1.8597;
1343.1000;0.3639;1.8621;
1343.4000;0.3647;1.8646;
1343.7000;0.3655;1.8695;
1344.0000;0.3647;1.8646;
1344.3000;0.3655;1.8720;
1344.6000;0.3647;1.8794;
1344.9000;0.3606;1.8720;
1345.2000;0.3647;1.8794;
1345.5000;0.3655;1.8720;
1345.8000;0.3630;1.8671;
1346.1000;0.3655;1.8671;
1346.4000;0.3622;1.8621;
1346.7000;0.3598;1.8498;
1347.0000;0.3647;1.8597;
1347.3000;0.3622;1.8523;
1347.6000;0.3639;1.8523;
1347.9000;0.3647;1.8572;
1348.2000;0.3622;1.8597;
1348.5000;0.3630;1.8572;
1348.8000;0.3655;1.8597;
1349.1000;0.3647;1.8646;
1349.4000;0.3630;1.8572;
1349.7000;0.3655;1.8621;
1350.0000;0.3630;1.8548;
1350.3000;0.3647;1.8597;
1350.6000;0.3639;1.8597;
1350.9000;0.3639;1.8548;
1351.2000;0.3663;1.8523;
1351.5000;0.3639;1.8498;
1351.8000;0.3647;1.8523;
1352.1000;0.3671;1.8548;
1352.4000;0.3639;1.8375;
1352.7000;0.3655;1.8400;
1353.0000;0.3639;1.8375;
1353.3000;0.3598;1.8179;
1353.6000;0.3639;1.8375;
1353.9000;0.3622;1.8425;
1354.2000;0.3655;1.8498;
1354.5000;0.3630;1.8548;
1354.8000;0.3639;1.8646;
1355.1000;0.3630;1.8572;
1355.4000;0.3647;1.8621;
1355.7000;0.3630;1.8572;
1356.0000;0.3647;1.8498;
1356.3000;0.3679;1.8572;
1356.6000;0.3639;1.8400;
1356.9000;0.3647;1.8425;
1357.2000;0.3639;1.8375;
1357.5000;0.3639;1.8375;
1357.8000;0.3655;1.8474;
1358.1000;0.3630;1.8375;
1358.4000;0.3655;1.8400;
1358.7000;0.3639;1.8425;
1359.0000;0.3671;1.8646;
1359.3000;0.3655;1.8646;
1359.6000;0.3663;1.8769;
1359.9000;0.3663;1.8794;
1360.2000;0.3533;1.8498;
1360.5000;0.3630;1.8695;
1360.8000;0.3647;1.8572;
1361.1000;0.3647;1.8474;
1361.4000;0.3647;1.8400;
1361.7000;0.3671;1.8449;
1362.0000;0.3736;1.8671;
1362.3000;0.3655;1.8523;
1362.6000;0.3647;1.8498;
1362.9000;0.3630;1.8474;
1363.2000;0.3671;1.8548;
1363.5000;0.3647;1.8474;
1363.8000;0.3614;1.8425;
1364.1000;0.3630;1.8474;
1364.4000;0.3639;1.8449;
1364.7000;0.3639;1.8425;
1365.0000;0.3647;1.8474;
1365.3000;0.3639;1.8523;
1365.6000;0.3606;1.8498;
1365.9000;0.3647;1.8498;
1366.2000;0.3639;1.8425;
1366.5000;0.3630;1.8425;
1366.8000;0.3639;1.8400;
1367.1000;0.3647;1.8474;
1367.4000;0.3630;1.8474;
1367.7000;0.3647;1.8498;
1368.0000;0.3663;1.8474;
1368.3000;0.3614;1.8425;
1368.6000;0.3639;1.8498;
1368.9000;0.3639;1.8474;
1369.2000;0.3639;1.8425;
1369.5000;0.3655;1.8498;
1369.8000;0.3622;1.8400;
1370.1000;0.3647;1.8449;
1370.4000;0.3655;1.8498;
1370.7000;0.3647;1.8597;
1371.0000;0.3647;1.8597;
1371.3000;0.3639;1.8548;
1371.6000;0.3622;1.8548;
1371.9000;0.3630;1.8621;
1372.2000;0.3663;1.8695;
1372.5000;0.3655;1.8671;
1372.8000;0.3639;1.8695;
1373.1000;0.3655;1.8769;
1373.4000;0.3728;1.8990;
1373.7000;0.3639;1.8695;
1374.0000;0.3647;1.8769;
1374.3000;0.3655;1.8794;
1374.6000;0.3639;1.8769;
1374.9000;0.3622;1.8744;
1375.2000;0.3647;1.8867;
1375.5000;0.3671;1.8990;
1375.8000;0.3704;1.9064;
1376.1000;0.3647;1.8818;
1376.4000;0.3630;1.8744;
1376.7000;0.3639;1.8794;
1377.0000;0.3720;1.9064;
1377.3000;0.3647;1.8867;
1377.6000;0.3663;1.8892;
1377.9000;0.3696;1.8941;
1378.2000;0.3663;1.8720;
1378.5000;0.3663;1.8671;
1378.8000;0.3655;1.8597;
1379.1000;0.3647;1.8474;
1379.4000;0.3753;1.8720;
1379.7000;0.3655;1.8425;
1380.0000;0.3655;1.8474;
1380.3000;0.3630;1.8449;
1380.6000;0.3655;1.8548;
1380.9000;0.3647;1.8523;
1381.2000;0.3663;1.8621;
1381.5000;0.3647;1.8572;
1381.8000;0.3647;1.8597;
1382.1000;0.3655;1.8572;
1382.4000;0.3647;1.8572;
1382.7000;0.3655;1.8498;
1383.0000;0.3655;1.8523;
1383.3000;0.3663;1.8548;
1383.6000;0.3663;1.8572;
1383.9000;0.3655;1.8621;
1384.2000;0.3720;1.8843;
1384.5000;0.3647;1.8671;
1384.8000;0.3639;1.8744;
1385.1000;0.3639;1.8720;
1385.4000;0.3655;1.8769;
1385.7000;0.3622;1.8720;
1386.0000;0.3639;1.8720;
1386.3000;0.3655;1.8695;
1386.6000;0.3630;1.8597;
1386.9000;0.3639;1.8671;
1387.2000;0.3639;1.8621;
1387.5000;0.3647;1.8597;
1387.8000;0.3647;1.8597;
1388.1000;0.3639;1.8498;
1388.4000;0.3639;1.8425;
1388.7000;0.3663;1.8548;
1389.0000;0.3671;1.8523;
1389.3000;0.3639;1.8474;
1389.6000;0.3655;1.8621;
1389.9000;0.3655;1.8572;
1390.2000;0.3663;1.8572;
1390.5000;0.3655;1.8621;
1390.8000;0.3655;1.8597;
1391.1000;0.3655;1.8548;
1391.4000;0.3663;1.8572;
1391.7000;0.3622;1.8523;
1392.0000;0.3639;1.8548;
1392.3000;0.3647;1.8646;
1392.6000;0.3622;1.8597;
1392.9000;0.3647;1.8794;
1393.2000;0.3639;1.8794;
1393.5000;0.3647;1.8769;
1393.8000;0.3647;1.8818;
1394.1000;0.3639;1.8720;
1394.4000;0.3655;1.8695;
1394.7000;0.3655;1.8794;
1395.0000;0.3639;1.8769;
1395.3000;0.3655;1.8695;
1395.6000;0.3630;1.8572;
1395.9000;0.3647;1.8597;
1396.2000;0.3655;1.8523;
1396.5000;0.3639;1.8621;
1396.8000;0.3639;1.8621;
1397.1000;0.3655;1.8671;
1397.4000;0.3647;1.8744;
1397.7000;0.3655;1.8720;
1398.0000;0.3647;1.8720;
1398.3000;0.3655;1.8720;
1398.6000;0.3655;1.8744;
1398.9000;0.3655;1.8744;
1399.2000;0.3728;1.8966;
1399.5000;0.3655;1.8720;
1399.8000;0.3655;1.8671;
