time/ms;Fluo/V;P700 deltaI/I x10³;
-199.8000;0.3883;1.9163;
-199.5000;0.3736;1.8646;
-199.2000;0.3883;1.9015;
-198.9000;0.3875;1.8990;
-198.6000;0.3875;1.9015;
-198.3000;0.3883;1.8966;
-198.0000;0.3891;1.8941;
-197.7000;0.3883;1.8818;
-197.4000;0.3932;1.8990;
-197.1000;0.3891;1.8843;
-196.8000;0.3891;1.8794;
-196.5000;0.3867;1.8769;
-196.2000;0.3883;1.8794;
-195.9000;0.3891;1.8843;
-195.6000;0.3891;1.8892;
-195.3000;0.3891;1.8892;
-195.0000;0.3875;1.8892;
-194.7000;0.3867;1.8941;
-194.4000;0.3875;1.8966;
-194.1000;0.3883;1.8941;
-193.8000;0.3883;1.8941;
-193.5000;0.3875;1.8966;
-193.2000;0.3899;1.9040;
-192.9000;0.3891;1.8966;
-192.6000;0.3842;1.8843;
-192.3000;0.3932;1.9040;
-192.0000;0.3891;1.8867;
-191.7000;0.3875;1.8794;
-191.4000;0.3834;1.8597;
-191.1000;0.3867;1.8744;
-190.8000;0.3891;1.8695;
-190.5000;0.3891;1.8695;
-190.2000;0.3883;1.8646;
-189.9000;0.3875;1.8548;
-189.6000;0.3875;1.8572;
-189.3000;0.3883;1.8646;
-189.0000;0.3883;1.8744;
-188.7000;0.3883;1.8818;
-188.4000;0.3883;1.8843;
-188.1000;0.3891;1.8769;
-187.8000;0.3899;1.8769;
-187.5000;0.3867;1.8646;
-187.2000;0.3891;1.8744;
-186.9000;0.3883;1.8744;
-186.6000;0.3883;1.8695;
-186.3000;0.3883;1.8867;
-186.0000;0.3899;1.8917;
-185.7000;0.3867;1.8917;
-185.4000;0.3810;1.8744;
-185.1000;0.3883;1.8941;
-184.8000;0.3858;1.8917;
-184.5000;0.3891;1.9064;
-184.2000;0.3867;1.9138;
-183.9000;0.3842;1.9040;
-183.6000;0.3915;1.9138;
-183.3000;0.3883;1.9040;
-183.0000;0.3883;1.9113;
-182.7000;0.3891;1.9089;
-182.4000;0.3899;1.9089;
-182.1000;0.3867;1.9138;
-181.8000;0.3883;1.9212;
-181.5000;0.3899;1.9310;
-181.2000;0.3899;1.9286;
-180.9000;0.3891;1.9212;
-180.6000;0.3875;1.9163;
-180.3000;0.3891;1.9261;
-180.0000;0.3875;1.9163;
-179.7000;0.3850;1.9015;
-179.4000;0.3875;1.9113;
-179.1000;0.3883;1.9138;
-178.8000;0.3867;1.9163;
-178.5000;0.3899;1.9187;
-178.2000;0.3883;1.9163;
-177.9000;0.3883;1.9212;
-177.6000;0.3883;1.9261;
-177.3000;0.3858;1.9187;
-177.0000;0.3875;1.9187;
-176.7000;0.3858;1.9163;
-176.4000;0.3891;1.9187;
-176.1000;0.3826;1.8941;
-175.8000;0.3883;1.9015;
-175.5000;0.3867;1.8990;
-175.2000;0.3867;1.9040;
-174.9000;0.3875;1.9064;
-174.6000;0.3891;1.9040;
-174.3000;0.3899;1.9064;
-174.0000;0.3883;1.9089;
-173.7000;0.3875;1.9113;
-173.4000;0.3858;1.9113;
-173.1000;0.3850;1.9064;
-172.8000;0.3883;1.9113;
-172.5000;0.3883;1.9113;
-172.2000;0.3867;1.9089;
-171.9000;0.3891;1.9015;
-171.6000;0.3891;1.9040;
-171.3000;0.3891;1.9040;
-171.0000;0.3891;1.8941;
-170.7000;0.3867;1.8892;
-170.4000;0.3899;1.9040;
-170.1000;0.3883;1.8990;
-169.8000;0.3891;1.9015;
-169.5000;0.3875;1.9064;
-169.2000;0.3875;1.9089;
-168.9000;0.3899;1.9113;
-168.6000;0.3867;1.9040;
-168.3000;0.3891;1.9015;
-168.0000;0.3883;1.8966;
-167.7000;0.3891;1.8990;
-167.4000;0.3891;1.8966;
-167.1000;0.3875;1.8941;
-166.8000;0.3891;1.8941;
-166.5000;0.3867;1.8966;
-166.2000;0.3883;1.9015;
-165.9000;0.3867;1.8966;
-165.6000;0.3875;1.9089;
-165.3000;0.3842;1.8990;
-165.0000;0.3875;1.9064;
-164.7000;0.3867;1.9040;
-164.4000;0.3883;1.9040;
-164.1000;0.3883;1.9064;
-163.8000;0.3891;1.9163;
-163.5000;0.3875;1.9138;
-163.2000;0.3891;1.9015;
-162.9000;0.3883;1.9015;
-162.6000;0.3875;1.8990;
-162.3000;0.3907;1.9040;
-162.0000;0.3891;1.8990;
-161.7000;0.3883;1.8917;
-161.4000;0.3891;1.9015;
-161.1000;0.3891;1.8966;
-160.8000;0.3899;1.8990;
-160.5000;0.3883;1.8867;
-160.2000;0.3883;1.8769;
-159.9000;0.3850;1.8769;
-159.6000;0.3875;1.8867;
-159.3000;0.3915;1.9064;
-159.0000;0.3858;1.8917;
-158.7000;0.3907;1.8892;
-158.4000;0.3915;1.8990;
-158.1000;0.3891;1.9015;
-157.8000;0.3867;1.8917;
-157.5000;0.3891;1.8966;
-157.2000;0.3891;1.8990;
-156.9000;0.3867;1.8941;
-156.6000;0.3899;1.8892;
-156.3000;0.3883;1.8917;
-156.0000;0.3883;1.8941;
-155.7000;0.3899;1.8892;
-155.4000;0.3883;1.8867;
-155.1000;0.3883;1.8892;
-154.8000;0.3883;1.8843;
-154.5000;0.3907;1.8941;
-154.2000;0.3875;1.8917;
-153.9000;0.3867;1.8867;
-153.6000;0.3867;1.8917;
-153.3000;0.3883;1.8892;
-153.0000;0.3899;1.8990;
-152.7000;0.3875;1.8990;
-152.4000;0.3883;1.9064;
-152.1000;0.3875;1.9040;
-151.8000;0.3875;1.8966;
-151.5000;0.3867;1.8917;
-151.2000;0.3875;1.8990;
-150.9000;0.3891;1.9015;
-150.6000;0.3891;1.9040;
-150.3000;0.3867;1.8966;
-150.0000;0.3875;1.8966;
-149.7000;0.3883;1.8941;
-149.4000;0.3883;1.8941;
-149.1000;0.3875;1.8818;
-148.8000;0.3858;1.8892;
-148.5000;0.3875;1.8892;
-148.2000;0.3883;1.8892;
-147.9000;0.3883;1.8966;
-147.6000;0.3867;1.8917;
-147.3000;0.3883;1.8917;
-147.0000;0.3891;1.8892;
-146.7000;0.3891;1.8917;
-146.4000;0.3883;1.8892;
-146.1000;0.3875;1.8892;
-145.8000;0.3875;1.8892;
-145.5000;0.3883;1.8892;
-145.2000;0.3883;1.8892;
-144.9000;0.3858;1.8744;
-144.6000;0.3891;1.8769;
-144.3000;0.3875;1.8720;
-144.0000;0.3883;1.8744;
-143.7000;0.3891;1.8769;
-143.4000;0.3883;1.8744;
-143.1000;0.3875;1.8720;
-142.8000;0.3891;1.8892;
-142.5000;0.3883;1.8966;
-142.2000;0.3867;1.8990;
-141.9000;0.3891;1.9138;
-141.6000;0.3883;1.9113;
-141.3000;0.3891;1.9064;
-141.0000;0.3883;1.9015;
-140.7000;0.3891;1.9064;
-140.4000;0.3883;1.9015;
-140.1000;0.3883;1.9064;
-139.8000;0.3875;1.8892;
-139.5000;0.3907;1.8917;
-139.2000;0.3883;1.8917;
-138.9000;0.3883;1.8966;
-138.6000;0.3883;1.8990;
-138.3000;0.3883;1.8966;
-138.0000;0.3875;1.8990;
-137.7000;0.3883;1.8990;
-137.4000;0.3899;1.9064;
-137.1000;0.3883;1.9040;
-136.8000;0.3842;1.8941;
-136.5000;0.3899;1.9064;
-136.2000;0.3875;1.8966;
-135.9000;0.3875;1.8990;
-135.6000;0.3899;1.9015;
-135.3000;0.3850;1.8941;
-135.0000;0.3867;1.9040;
-134.7000;0.3883;1.9015;
-134.4000;0.3899;1.8990;
-134.1000;0.3875;1.9015;
-133.8000;0.3883;1.9064;
-133.5000;0.3891;1.9113;
-133.2000;0.3883;1.9113;
-132.9000;0.3923;1.9113;
-132.6000;0.3883;1.9040;
-132.3000;0.3883;1.9015;
-132.0000;0.3899;1.9015;
-131.7000;0.3867;1.8867;
-131.4000;0.3899;1.9040;
-131.1000;0.3867;1.8990;
-130.8000;0.3891;1.8990;
-130.5000;0.3891;1.8966;
-130.2000;0.3883;1.8966;
-129.9000;0.3858;1.8941;
-129.6000;0.3899;1.8966;
-129.3000;0.3883;1.8966;
-129.0000;0.3842;1.8843;
-128.7000;0.3891;1.8990;
-128.4000;0.3850;1.8941;
-128.1000;0.3875;1.8990;
-127.8000;0.3891;1.9015;
-127.5000;0.3850;1.8843;
-127.2000;0.3858;1.8843;
-126.9000;0.3891;1.8966;
-126.6000;0.3907;1.8990;
-126.3000;0.3899;1.8941;
-126.0000;0.3891;1.8867;
-125.7000;0.3891;1.8966;
-125.4000;0.3899;1.8966;
-125.1000;0.3907;1.8966;
-124.8000;0.3891;1.8867;
-124.5000;0.3883;1.8892;
-124.2000;0.3883;1.9015;
-123.9000;0.3891;1.9113;
-123.6000;0.3891;1.9089;
-123.3000;0.3883;1.9015;
-123.0000;0.3858;1.8892;
-122.7000;0.3883;1.9015;
-122.4000;0.3899;1.9113;
-122.1000;0.3907;1.9163;
-121.8000;0.3915;1.9187;
-121.5000;0.3899;1.9138;
-121.2000;0.3891;1.9163;
-120.9000;0.3891;1.9163;
-120.6000;0.3899;1.9212;
-120.3000;0.3907;1.9236;
-120.0000;0.3891;1.9138;
-119.7000;0.3891;1.9089;
-119.4000;0.3875;1.9064;
-119.1000;0.3915;1.9163;
-118.8000;0.3883;1.9015;
-118.5000;0.3899;1.9064;
-118.2000;0.3875;1.9040;
-117.9000;0.3883;1.9113;
-117.6000;0.3940;1.9310;
-117.3000;0.3850;1.9064;
-117.0000;0.3891;1.9113;
-116.7000;0.3883;1.9089;
-116.4000;0.3867;1.9089;
-116.1000;0.3875;1.9089;
-115.8000;0.3867;1.9089;
-115.5000;0.3883;1.9113;
-115.2000;0.3891;1.9113;
-114.9000;0.3891;1.9064;
-114.6000;0.3875;1.8990;
-114.3000;0.3891;1.9040;
-114.0000;0.3891;1.8990;
-113.7000;0.3891;1.9089;
-113.4000;0.3858;1.8941;
-113.1000;0.3915;1.9064;
-112.8000;0.3875;1.8990;
-112.5000;0.3907;1.9113;
-112.2000;0.3883;1.9064;
-111.9000;0.3883;1.9089;
-111.6000;0.3891;1.9113;
-111.3000;0.3810;1.8917;
-111.0000;0.3883;1.9113;
-110.7000;0.3875;1.9089;
-110.4000;0.3883;1.9064;
-110.1000;0.3883;1.9064;
-109.8000;0.3883;1.9040;
-109.5000;0.3915;1.9089;
-109.2000;0.3867;1.9064;
-108.9000;0.3875;1.9138;
-108.6000;0.3883;1.9163;
-108.3000;0.3883;1.9113;
-108.0000;0.3883;1.9113;
-107.7000;0.3899;1.9138;
-107.4000;0.3883;1.9163;
-107.1000;0.3867;1.9064;
-106.8000;0.3858;1.8990;
-106.5000;0.3891;1.8990;
-106.2000;0.3875;1.8966;
-105.9000;0.3891;1.8917;
-105.6000;0.3891;1.8818;
-105.3000;0.3883;1.8794;
-105.0000;0.3867;1.8867;
-104.7000;0.3891;1.9015;
-104.4000;0.3883;1.9040;
-104.1000;0.3891;1.8966;
-103.8000;0.3834;1.8843;
-103.5000;0.3883;1.8917;
-103.2000;0.3907;1.9015;
-102.9000;0.3907;1.9040;
-102.6000;0.3875;1.9015;
-102.3000;0.3891;1.9138;
-102.0000;0.3883;1.9138;
-101.7000;0.3858;1.9089;
-101.4000;0.3875;1.9089;
-101.1000;0.3907;1.9187;
-100.8000;0.3899;1.9286;
-100.5000;0.3875;1.9286;
-100.2000;0.3883;1.9236;
-99.9000;0.3891;1.9138;
-99.6000;0.3883;1.9113;
-99.3000;0.3899;1.9113;
-99.0000;0.3875;1.9089;
-98.7000;0.3883;1.9113;
-98.4000;0.3891;1.9138;
-98.1000;0.3875;1.9138;
-97.8000;0.3867;1.9187;
-97.5000;0.3891;1.9236;
-97.2000;0.3875;1.9089;
-96.9000;0.3867;1.9064;
-96.6000;0.3826;1.9015;
-96.3000;0.3867;1.9187;
-96.0000;0.3875;1.9187;
-95.7000;0.3899;1.9138;
-95.4000;0.3907;1.9113;
-95.1000;0.3867;1.8990;
-94.8000;0.3899;1.9015;
-94.5000;0.3915;1.9040;
-94.2000;0.3875;1.8892;
-93.9000;0.3850;1.8892;
-93.6000;0.3867;1.8966;
-93.3000;0.3891;1.9040;
-93.0000;0.3883;1.9040;
-92.7000;0.3883;1.9113;
-92.4000;0.3891;1.9212;
-92.1000;0.3875;1.9236;
-91.8000;0.3867;1.9212;
-91.5000;0.3899;1.9261;
-91.2000;0.3883;1.9261;
-90.9000;0.3883;1.9212;
-90.6000;0.3972;1.9384;
-90.3000;0.3891;1.9113;
-90.0000;0.3891;1.9138;
-89.7000;0.3899;1.9187;
-89.4000;0.3891;1.9113;
-89.1000;0.3899;1.9089;
-88.8000;0.3932;1.9138;
-88.5000;0.3915;1.9113;
-88.2000;0.3907;1.9040;
-87.9000;0.3875;1.8966;
-87.6000;0.3899;1.9040;
-87.3000;0.3875;1.9015;
-87.0000;0.3891;1.8990;
-86.7000;0.3891;1.8917;
-86.4000;0.3883;1.8892;
-86.1000;0.3972;1.9064;
-85.8000;0.3883;1.8818;
-85.5000;0.3932;1.8941;
-85.2000;0.3891;1.8867;
-84.9000;0.3875;1.8867;
-84.6000;0.3907;1.8941;
-84.3000;0.3883;1.8990;
-84.0000;0.3891;1.9113;
-83.7000;0.3891;1.9064;
-83.4000;0.3899;1.9113;
-83.1000;0.3899;1.8966;
-82.8000;0.3867;1.8917;
-82.5000;0.3907;1.9015;
-82.2000;0.3875;1.8892;
-81.9000;0.3875;1.8867;
-81.6000;0.3883;1.8966;
-81.3000;0.3875;1.9064;
-81.0000;0.3875;1.9089;
-80.7000;0.3842;1.8990;
-80.4000;0.3875;1.8990;
-80.1000;0.3867;1.8966;
-79.8000;0.3883;1.8990;
-79.5000;0.3891;1.8794;
-79.2000;0.3875;1.8843;
-78.9000;0.3875;1.8867;
-78.6000;0.3907;1.9015;
-78.3000;0.3883;1.8966;
-78.0000;0.3875;1.8966;
-77.7000;0.3875;1.8917;
-77.4000;0.3875;1.8966;
-77.1000;0.3883;1.8966;
-76.8000;0.3891;1.8941;
-76.5000;0.3891;1.8941;
-76.2000;0.3875;1.8941;
-75.9000;0.3875;1.8990;
-75.6000;0.3899;1.8990;
-75.3000;0.3899;1.9064;
-75.0000;0.3883;1.9138;
-74.7000;0.3891;1.9163;
-74.4000;0.3850;1.9064;
-74.1000;0.3875;1.9163;
-73.8000;0.3842;1.9040;
-73.5000;0.3899;1.9138;
-73.2000;0.3891;1.9187;
-72.9000;0.3915;1.9236;
-72.6000;0.3867;1.9138;
-72.3000;0.3867;1.9089;
-72.0000;0.3875;1.9187;
-71.7000;0.3875;1.9163;
-71.4000;0.3801;1.8990;
-71.1000;0.3899;1.9236;
-70.8000;0.3875;1.9040;
-70.5000;0.3948;1.9212;
-70.2000;0.3891;1.9138;
-69.9000;0.3891;1.9163;
-69.6000;0.3907;1.9163;
-69.3000;0.3899;1.9113;
-69.0000;0.3923;1.9113;
-68.7000;0.3891;1.9089;
-68.4000;0.3883;1.9089;
-68.1000;0.3875;1.9064;
-67.8000;0.3883;1.9064;
-67.5000;0.3875;1.9015;
-67.2000;0.3867;1.8917;
-66.9000;0.3883;1.8917;
-66.6000;0.3875;1.8843;
-66.3000;0.3907;1.8941;
-66.0000;0.3891;1.8917;
-65.7000;0.3907;1.8941;
-65.4000;0.3915;1.9064;
-65.1000;0.3923;1.9064;
-64.8000;0.3858;1.8990;
-64.5000;0.3875;1.8966;
-64.2000;0.3899;1.9040;
-63.9000;0.3850;1.8941;
-63.6000;0.3883;1.9064;
-63.3000;0.3915;1.9236;
-63.0000;0.3883;1.9113;
-62.7000;0.3907;1.9138;
-62.4000;0.3883;1.9089;
-62.1000;0.3875;1.9138;
-61.8000;0.3891;1.9113;
-61.5000;0.3883;1.9138;
-61.2000;0.3875;1.9089;
-60.9000;0.3891;1.8990;
-60.6000;0.3883;1.8917;
-60.3000;0.3883;1.8917;
-60.0000;0.3899;1.8892;
-59.7000;0.3891;1.8917;
-59.4000;0.3875;1.8794;
-59.1000;0.3899;1.8892;
-58.8000;0.3907;1.8917;
-58.5000;0.3842;1.8867;
-58.2000;0.3891;1.8966;
-57.9000;0.3891;1.8990;
-57.6000;0.3875;1.8990;
-57.3000;0.3899;1.8917;
-57.0000;0.3875;1.8990;
-56.7000;0.3883;1.8990;
-56.4000;0.3883;1.9040;
-56.1000;0.3883;1.9163;
-55.8000;0.3875;1.9163;
-55.5000;0.3875;1.9163;
-55.2000;0.3964;1.9359;
-54.9000;0.3891;1.9138;
-54.6000;0.3867;1.9113;
-54.3000;0.3801;1.8917;
-54.0000;0.3875;1.9113;
-53.7000;0.3850;1.9040;
-53.4000;0.3875;1.9040;
-53.1000;0.3883;1.9015;
-52.8000;0.3875;1.9040;
-52.5000;0.3891;1.8966;
-52.2000;0.3875;1.8941;
-51.9000;0.3875;1.8843;
-51.6000;0.3932;1.8941;
-51.3000;0.3899;1.8867;
-51.0000;0.3875;1.8867;
-50.7000;0.3891;1.8794;
-50.4000;0.3826;1.8548;
-50.1000;0.3891;1.8744;
-49.8000;0.3875;1.8695;
-49.5000;0.3883;1.8843;
-49.2000;0.3891;1.8794;
-48.9000;0.3907;1.8843;
-48.6000;0.3891;1.8794;
-48.3000;0.3899;1.8917;
-48.0000;0.3899;1.9064;
-47.7000;0.3899;1.9040;
-47.4000;0.3842;1.8917;
-47.1000;0.3891;1.9064;
-46.8000;0.3875;1.9064;
-46.5000;0.3858;1.8941;
-46.2000;0.3850;1.9040;
-45.9000;0.3891;1.9236;
-45.6000;0.3875;1.9212;
-45.3000;0.3891;1.9212;
-45.0000;0.3883;1.9138;
-44.7000;0.3850;1.9015;
-44.4000;0.3899;1.9113;
-44.1000;0.3891;1.9089;
-43.8000;0.3948;1.9138;
-43.5000;0.3915;1.8990;
-43.2000;0.3875;1.8917;
-42.9000;0.3867;1.8917;
-42.6000;0.3891;1.8990;
-42.3000;0.3915;1.8941;
-42.0000;0.3883;1.8769;
-41.7000;0.3858;1.8794;
-41.4000;0.3891;1.8867;
-41.1000;0.3907;1.8867;
-40.8000;0.3915;1.8941;
-40.5000;0.3899;1.8941;
-40.2000;0.3810;1.8671;
-39.9000;0.3907;1.8941;
-39.6000;0.3891;1.9015;
-39.3000;0.3899;1.9015;
-39.0000;0.3883;1.8941;
-38.7000;0.3891;1.8917;
-38.4000;0.3899;1.8941;
-38.1000;0.3883;1.8941;
-37.8000;0.3867;1.8892;
-37.5000;0.3899;1.8917;
-37.2000;0.3899;1.8941;
-36.9000;0.3875;1.8917;
-36.6000;0.3899;1.9040;
-36.3000;0.3915;1.9064;
-36.0000;0.3891;1.9089;
-35.7000;0.3858;1.8966;
-35.4000;0.3875;1.9187;
-35.1000;0.3867;1.9064;
-34.8000;0.3891;1.9064;
-34.5000;0.3891;1.9064;
-34.2000;0.3907;1.9113;
-33.9000;0.3891;1.9113;
-33.6000;0.3883;1.9089;
-33.3000;0.3899;1.9113;
-33.0000;0.3883;1.9113;
-32.7000;0.3761;1.8794;
-32.4000;0.3826;1.8990;
-32.1000;0.3891;1.9163;
-31.8000;0.3834;1.9040;
-31.5000;0.3899;1.9138;
-31.2000;0.3883;1.9113;
-30.9000;0.3899;1.9212;
-30.6000;0.3899;1.9236;
-30.3000;0.3867;1.9138;
-30.0000;0.3875;1.9187;
-29.7000;0.3883;1.9187;
-29.4000;0.3883;1.9163;
-29.1000;0.3875;1.9212;
-28.8000;0.3883;1.9236;
-28.5000;0.3875;1.9187;
-28.2000;0.3875;1.9163;
-27.9000;0.3891;1.9236;
-27.6000;0.3858;1.9138;
-27.3000;0.3875;1.9138;
-27.0000;0.3899;1.9236;
-26.7000;0.3883;1.9286;
-26.4000;0.3883;1.9335;
-26.1000;0.3875;1.9286;
-25.8000;0.3899;1.9359;
-25.5000;0.3907;1.9335;
-25.2000;0.3891;1.9163;
-24.9000;0.3850;1.9089;
-24.6000;0.3883;1.9113;
-24.3000;0.3899;1.9163;
-24.0000;0.3883;1.9261;
-23.7000;0.3875;1.9286;
-23.4000;0.3907;1.9261;
-23.1000;0.3883;1.9187;
-22.8000;0.3883;1.9212;
-22.5000;0.3891;1.9261;
-22.2000;0.3883;1.9286;
-21.9000;0.3891;1.9261;
-21.6000;0.3883;1.9310;
-21.3000;0.3867;1.9212;
-21.0000;0.3875;1.9187;
-20.7000;0.3891;1.9286;
-20.4000;0.3883;1.9236;
-20.1000;0.3867;1.9163;
-19.8000;0.3875;1.9286;
-19.5000;0.3883;1.9261;
-19.2000;0.3858;1.9064;
-18.9000;0.3891;1.9113;
-18.6000;0.3891;1.9138;
-18.3000;0.3858;1.9064;
-18.0000;0.3899;1.9187;
-17.7000;0.3891;1.9163;
-17.4000;0.3875;1.9113;
-17.1000;0.3858;1.8990;
-16.8000;0.3891;1.9089;
-16.5000;0.3883;1.9113;
-16.2000;0.3883;1.9064;
-15.9000;0.3883;1.9040;
-15.6000;0.3907;1.9089;
-15.3000;0.3891;1.9015;
-15.0000;0.3875;1.8966;
-14.7000;0.3883;1.8917;
-14.4000;0.3891;1.8990;
-14.1000;0.3883;1.8941;
-13.8000;0.3883;1.8917;
-13.5000;0.3915;1.9040;
-13.2000;0.3875;1.8892;
-12.9000;0.3867;1.8917;
-12.6000;0.3883;1.8941;
-12.3000;0.3891;1.8966;
-12.0000;0.3875;1.8966;
-11.7000;0.3915;1.8966;
-11.4000;0.3875;1.8917;
-11.1000;0.3899;1.8917;
-10.8000;0.3891;1.8892;
-10.5000;0.3891;1.8917;
-10.2000;0.3867;1.8843;
-9.9000;0.3907;1.8990;
-9.6000;0.3883;1.9064;
-9.3000;0.3891;1.9113;
-9.0000;0.3899;1.9064;
-8.7000;0.3915;1.9064;
-8.4000;0.3899;1.8917;
-8.1000;0.3891;1.8917;
-7.8000;0.3940;1.8990;
-7.5000;0.3899;1.8867;
-7.2000;0.3899;1.8892;
-6.9000;0.3883;1.8867;
-6.6000;0.3891;1.8818;
-6.3000;0.3875;1.8794;
-6.0000;0.3891;1.8794;
-5.7000;0.3899;1.8917;
-5.4000;0.3883;1.9015;
-5.1000;0.3899;1.9064;
-4.8000;0.3883;1.8966;
-4.5000;0.3915;1.9040;
-4.2000;0.3899;1.9064;
-3.9000;0.3891;1.9015;
-3.6000;0.3883;1.9040;
-3.3000;0.3875;1.9015;
-3.0000;0.3883;1.9040;
-2.7000;0.3891;1.9064;
-2.4000;0.3777;1.8794;
-2.1000;0.3842;1.9015;
-1.8000;0.3858;1.9015;
-1.5000;0.3891;1.9064;
-1.2000;0.3891;1.8990;
-0.9000;0.3875;1.9015;
-0.6000;0.3867;1.9064;
-0.3000;0.3858;1.9040;
0.0000;0.3858;1.9040;
0.3000;0.4021;1.8917;
0.6000;0.4282;1.9310;
0.9000;0.4534;1.9851;
1.2000;0.4689;2.0196;
1.5000;0.4827;2.0417;
1.8000;0.4925;2.0712;
2.1000;0.4990;2.0884;
2.4000;0.5079;2.1106;
2.7000;0.5104;2.1204;
3.0000;0.5128;2.1327;
3.3000;0.5169;2.1426;
3.6000;0.5210;2.1549;
3.9000;0.5250;2.1672;
4.2000;0.5250;2.1672;
4.5000;0.5275;2.1696;
4.8000;0.5332;2.1696;
5.1000;0.5299;2.1549;
5.4000;0.5291;2.1499;
5.7000;0.5332;2.1499;
6.0000;0.5348;2.1499;
6.3000;0.5364;2.1475;
6.6000;0.5372;2.1450;
6.9000;0.5324;2.1229;
7.2000;0.5397;2.1573;
7.5000;0.5413;2.1696;
7.8000;0.5421;2.1696;
8.1000;0.5421;2.1672;
8.4000;0.5454;2.1696;
8.7000;0.5454;2.1672;
9.0000;0.5462;2.1696;
9.3000;0.5454;2.1721;
9.6000;0.5454;2.1672;
9.9000;0.5478;2.1696;
10.2000;0.5503;2.1696;
10.5000;0.5495;2.1647;
10.8000;0.5511;2.1647;
11.1000;0.5527;2.1696;
11.4000;0.5551;2.1696;
11.7000;0.5543;2.1622;
12.0000;0.5560;2.1696;
12.3000;0.5568;2.1696;
12.6000;0.5592;2.1696;
12.9000;0.5592;2.1672;
13.2000;0.5584;2.1524;
13.5000;0.5584;2.1450;
13.8000;0.5633;2.1524;
14.1000;0.5617;2.1475;
14.4000;0.5633;2.1524;
14.7000;0.5617;2.1598;
15.0000;0.5641;2.1524;
15.3000;0.5657;2.1524;
15.6000;0.5674;2.1524;
15.9000;0.5657;2.1549;
16.2000;0.5714;2.1721;
16.5000;0.5690;2.1622;
16.8000;0.5690;2.1598;
17.1000;0.5706;2.1622;
17.4000;0.5731;2.1647;
17.7000;0.5731;2.1622;
18.0000;0.5722;2.1647;
18.3000;0.5739;2.1672;
18.6000;0.5739;2.1598;
18.9000;0.5763;2.1622;
19.2000;0.5763;2.1573;
19.5000;0.5763;2.1524;
19.8000;0.5763;2.1549;
20.1000;0.5796;2.1672;
20.4000;0.5828;2.1770;
20.7000;0.5788;2.1745;
21.0000;0.5788;2.1721;
21.3000;0.5804;2.1696;
21.6000;0.5804;2.1598;
21.9000;0.5812;2.1598;
22.2000;0.5820;2.1672;
22.5000;0.5820;2.1721;
22.8000;0.5828;2.1745;
23.1000;0.5845;2.1745;
23.4000;0.5853;2.1770;
23.7000;0.5853;2.1721;
24.0000;0.5869;2.1696;
24.3000;0.5861;2.1672;
24.6000;0.5861;2.1622;
24.9000;0.5893;2.1696;
25.2000;0.5877;2.1622;
25.5000;0.5885;2.1598;
25.8000;0.5861;2.1524;
26.1000;0.5910;2.1622;
26.4000;0.5877;2.1549;
26.7000;0.5902;2.1672;
27.0000;0.5910;2.1672;
27.3000;0.5918;2.1647;
27.6000;0.5926;2.1573;
27.9000;0.5926;2.1598;
28.2000;0.5934;2.1524;
28.5000;0.5934;2.1524;
28.8000;0.5918;2.1598;
29.1000;0.5934;2.1622;
29.4000;0.5926;2.1672;
29.7000;0.5926;2.1598;
30.0000;0.5958;2.1622;
30.3000;0.5950;2.1598;
30.6000;0.5950;2.1622;
30.9000;0.5967;2.1622;
31.2000;0.5958;2.1549;
31.5000;0.5958;2.1524;
31.8000;0.5958;2.1598;
32.1000;0.6056;2.1745;
32.4000;0.5967;2.1622;
32.7000;0.5991;2.1647;
33.0000;0.5999;2.1622;
33.3000;0.6007;2.1647;
33.6000;0.6007;2.1672;
33.9000;0.6024;2.1696;
34.2000;0.5999;2.1598;
34.5000;0.5999;2.1598;
34.8000;0.5991;2.1549;
35.1000;0.6015;2.1573;
35.4000;0.6024;2.1647;
35.7000;0.6032;2.1696;
36.0000;0.6007;2.1696;
36.3000;0.6007;2.1672;
36.6000;0.6007;2.1598;
36.9000;0.6032;2.1573;
37.2000;0.6032;2.1475;
37.5000;0.6040;2.1499;
37.8000;0.6048;2.1450;
38.1000;0.6040;2.1475;
38.4000;0.6040;2.1426;
38.7000;0.5967;2.1204;
39.0000;0.6040;2.1450;
39.3000;0.6048;2.1401;
39.6000;0.6056;2.1401;
39.9000;0.6064;2.1426;
40.2000;0.6056;2.1499;
40.5000;0.6048;2.1450;
40.8000;0.6056;2.1475;
41.1000;0.6064;2.1426;
41.4000;0.6056;2.1376;
41.7000;0.6056;2.1426;
42.0000;0.6072;2.1450;
42.3000;0.6056;2.1426;
42.6000;0.6064;2.1426;
42.9000;0.6105;2.1549;
43.2000;0.6072;2.1524;
43.5000;0.6089;2.1524;
43.8000;0.6081;2.1499;
44.1000;0.6089;2.1573;
44.4000;0.6072;2.1499;
44.7000;0.6097;2.1598;
45.0000;0.6105;2.1549;
45.3000;0.6170;2.1721;
45.6000;0.6105;2.1524;
45.9000;0.6097;2.1549;
46.2000;0.6097;2.1499;
46.5000;0.6081;2.1475;
46.8000;0.6121;2.1450;
47.1000;0.6138;2.1475;
47.4000;0.6129;2.1450;
47.7000;0.6121;2.1327;
48.0000;0.6113;2.1155;
48.3000;0.6129;2.1180;
48.6000;0.6121;2.1180;
48.9000;0.6121;2.1180;
49.2000;0.6097;2.1130;
49.5000;0.6129;2.1253;
49.8000;0.6146;2.1352;
50.1000;0.6138;2.1253;
50.4000;0.6146;2.1229;
50.7000;0.6146;2.1278;
51.0000;0.6154;2.1303;
51.3000;0.6129;2.1204;
51.6000;0.6121;2.1204;
51.9000;0.6154;2.1180;
52.2000;0.6154;2.1229;
52.5000;0.6154;2.1253;
52.8000;0.6219;2.1401;
53.1000;0.6211;2.1376;
53.4000;0.6178;2.1278;
53.7000;0.6146;2.1180;
54.0000;0.6162;2.1081;
54.3000;0.6186;2.1155;
54.6000;0.6186;2.1155;
54.9000;0.6186;2.1180;
55.2000;0.6227;2.1253;
55.5000;0.6195;2.1229;
55.8000;0.6178;2.1229;
56.1000;0.6170;2.1204;
56.4000;0.6170;2.1204;
56.7000;0.6178;2.1229;
57.0000;0.6195;2.1229;
57.3000;0.6195;2.1229;
57.6000;0.6211;2.1204;
57.9000;0.6203;2.1229;
58.2000;0.6203;2.1155;
58.5000;0.6203;2.1303;
58.8000;0.6186;2.1278;
59.1000;0.6227;2.1376;
59.4000;0.6211;2.1303;
59.7000;0.6235;2.1352;
60.0000;0.6211;2.1352;
60.3000;0.6195;2.1376;
60.6000;0.6186;2.1278;
60.9000;0.6219;2.1278;
61.2000;0.6211;2.1180;
61.5000;0.6203;2.1106;
61.8000;0.6227;2.1180;
62.1000;0.6235;2.1155;
62.4000;0.6243;2.1180;
62.7000;0.6252;2.1204;
63.0000;0.6227;2.1081;
63.3000;0.6235;2.1130;
63.6000;0.6243;2.1278;
63.9000;0.6243;2.1278;
64.2000;0.6276;2.1352;
64.5000;0.6243;2.1180;
64.8000;0.6235;2.1057;
65.1000;0.6235;2.1155;
65.4000;0.6300;2.1352;
65.7000;0.6260;2.1229;
66.0000;0.6260;2.1303;
66.3000;0.6235;2.1327;
66.6000;0.6235;2.1253;
66.9000;0.6260;2.1180;
67.2000;0.6268;2.1180;
67.5000;0.6252;2.1081;
67.8000;0.6252;2.1057;
68.1000;0.6268;2.1032;
68.4000;0.6349;2.1253;
68.7000;0.6276;2.1007;
69.0000;0.6276;2.1081;
69.3000;0.6276;2.1155;
69.6000;0.6260;2.1155;
69.9000;0.6268;2.1032;
70.2000;0.6268;2.1081;
70.5000;0.6325;2.1204;
70.8000;0.6260;2.1007;
71.1000;0.6276;2.1057;
71.4000;0.6268;2.1032;
71.7000;0.6243;2.0983;
72.0000;0.6260;2.0983;
72.3000;0.6260;2.0958;
72.6000;0.6276;2.1007;
72.9000;0.6260;2.1032;
73.2000;0.6292;2.1081;
73.5000;0.6284;2.1007;
73.8000;0.6292;2.1081;
74.1000;0.6276;2.1032;
74.4000;0.6276;2.0958;
74.7000;0.6325;2.1032;
75.0000;0.6284;2.0983;
75.3000;0.6284;2.0909;
75.6000;0.6300;2.1057;
75.9000;0.6300;2.1057;
76.2000;0.6309;2.1106;
76.5000;0.6252;2.0909;
76.8000;0.6292;2.1007;
77.1000;0.6268;2.0934;
77.4000;0.6325;2.1081;
77.7000;0.6398;2.1327;
78.0000;0.6325;2.1081;
78.3000;0.6309;2.1032;
78.6000;0.6276;2.0958;
78.9000;0.6325;2.1057;
79.2000;0.6341;2.1081;
79.5000;0.6317;2.0934;
79.8000;0.6325;2.1007;
80.1000;0.6341;2.0983;
80.4000;0.6341;2.0934;
80.7000;0.6300;2.0860;
81.0000;0.6317;2.0884;
81.3000;0.6333;2.0983;
81.6000;0.6341;2.1057;
81.9000;0.6333;2.0958;
82.2000;0.6309;2.0958;
82.5000;0.6333;2.1032;
82.8000;0.6325;2.0958;
83.1000;0.6341;2.0983;
83.4000;0.6357;2.1007;
83.7000;0.6300;2.1007;
84.0000;0.6341;2.1106;
84.3000;0.6300;2.1007;
84.6000;0.6284;2.0909;
84.9000;0.6341;2.1057;
85.2000;0.6276;2.0860;
85.5000;0.6341;2.0958;
85.8000;0.6341;2.0884;
86.1000;0.6333;2.0860;
86.4000;0.6349;2.0761;
86.7000;0.6357;2.0761;
87.0000;0.6349;2.0811;
87.3000;0.6349;2.0737;
87.6000;0.6365;2.0786;
87.9000;0.6365;2.0835;
88.2000;0.6309;2.0860;
88.5000;0.6357;2.0909;
88.8000;0.6365;2.0958;
89.1000;0.6398;2.1081;
89.4000;0.6357;2.1032;
89.7000;0.6365;2.0958;
90.0000;0.6357;2.0983;
90.3000;0.6374;2.0958;
90.6000;0.6390;2.0983;
90.9000;0.6365;2.0934;
91.2000;0.6365;2.0835;
91.5000;0.6365;2.0884;
91.8000;0.6357;2.0909;
92.1000;0.6382;2.0934;
92.4000;0.6374;2.0860;
92.7000;0.6382;2.0860;
93.0000;0.6365;2.0884;
93.3000;0.6341;2.0884;
93.6000;0.6357;2.0958;
93.9000;0.6357;2.0860;
94.2000;0.6357;2.0934;
94.5000;0.6374;2.0958;
94.8000;0.6382;2.1007;
95.1000;0.6447;2.1180;
95.4000;0.6382;2.0958;
95.7000;0.6382;2.0983;
96.0000;0.6390;2.0958;
96.3000;0.6398;2.0934;
96.6000;0.6431;2.1057;
96.9000;0.6406;2.1057;
97.2000;0.6390;2.0909;
97.5000;0.6406;2.0983;
97.8000;0.6422;2.1007;
98.1000;0.6414;2.0934;
98.4000;0.6390;2.0860;
98.7000;0.6390;2.0884;
99.0000;0.6398;2.0909;
99.3000;0.6398;2.0835;
99.6000;0.6357;2.0761;
99.9000;0.6398;2.0884;
100.2000;0.6398;2.0909;
100.5000;0.6398;2.0860;
100.8000;0.6414;2.0811;
101.1000;0.6398;2.0811;
101.4000;0.6374;2.0761;
101.7000;0.6398;2.0835;
102.0000;0.6406;2.1007;
102.3000;0.6406;2.0983;
102.6000;0.6406;2.0958;
102.9000;0.6406;2.0934;
103.2000;0.6390;2.1007;
103.5000;0.6422;2.1130;
103.8000;0.6398;2.1155;
104.1000;0.6398;2.1106;
104.4000;0.6414;2.1106;
104.7000;0.6406;2.1081;
105.0000;0.6398;2.1032;
105.3000;0.6439;2.1007;
105.6000;0.6439;2.1007;
105.9000;0.6414;2.0958;
106.2000;0.6422;2.0884;
106.5000;0.6414;2.0860;
106.8000;0.6422;2.0934;
107.1000;0.6422;2.0909;
107.4000;0.6414;2.0811;
107.7000;0.6398;2.0786;
108.0000;0.6414;2.0811;
108.3000;0.6422;2.0811;
108.6000;0.6431;2.0786;
108.9000;0.6422;2.0835;
109.2000;0.6422;2.0909;
109.5000;0.6447;2.0909;
109.8000;0.6414;2.0835;
110.1000;0.6414;2.0835;
110.4000;0.6422;2.0860;
110.7000;0.6431;2.0909;
111.0000;0.6414;2.0786;
111.3000;0.6431;2.0835;
111.6000;0.6431;2.0860;
111.9000;0.6439;2.0835;
112.2000;0.6496;2.1032;
112.5000;0.6431;2.0884;
112.8000;0.6439;2.0860;
113.1000;0.6439;2.0884;
113.4000;0.6431;2.0884;
113.7000;0.6439;2.0860;
114.0000;0.6431;2.0811;
114.3000;0.6447;2.0934;
114.6000;0.6447;2.0958;
114.9000;0.6447;2.1032;
115.2000;0.6447;2.0958;
115.5000;0.6439;2.0934;
115.8000;0.6439;2.0909;
116.1000;0.6455;2.0884;
116.4000;0.6422;2.0835;
116.7000;0.6439;2.0909;
117.0000;0.6455;2.0958;
117.3000;0.6382;2.0811;
117.6000;0.6431;2.0860;
117.9000;0.6422;2.0909;
118.2000;0.6431;2.0934;
118.5000;0.6422;2.0884;
118.8000;0.6431;2.0958;
119.1000;0.6422;2.0958;
119.4000;0.6422;2.0934;
119.7000;0.6439;2.0909;
120.0000;0.6431;2.0909;
120.3000;0.6439;2.0934;
120.6000;0.6422;2.0934;
120.9000;0.6447;2.0934;
121.2000;0.6447;2.0934;
121.5000;0.6447;2.0983;
121.8000;0.6431;2.0958;
122.1000;0.6439;2.0934;
122.4000;0.6455;2.0934;
122.7000;0.6406;2.0909;
123.0000;0.6439;2.1057;
123.3000;0.6447;2.1081;
123.6000;0.6455;2.1032;
123.9000;0.6463;2.1007;
124.2000;0.6439;2.0909;
124.5000;0.6455;2.0983;
124.8000;0.6471;2.0934;
125.1000;0.6447;2.0860;
125.4000;0.6447;2.0884;
125.7000;0.6455;2.0934;
126.0000;0.6455;2.0983;
126.3000;0.6455;2.0934;
126.6000;0.6455;2.0958;
126.9000;0.6455;2.0934;
127.2000;0.6463;2.1032;
127.5000;0.6439;2.0983;
127.8000;0.6447;2.0884;
128.1000;0.6439;2.0909;
128.4000;0.6471;2.0958;
128.7000;0.6463;2.1007;
129.0000;0.6406;2.0860;
129.3000;0.6439;2.0835;
129.6000;0.6455;2.0811;
129.9000;0.6455;2.0786;
130.2000;0.6471;2.0811;
130.5000;0.6447;2.0737;
130.8000;0.6447;2.0835;
131.1000;0.6455;2.0860;
131.4000;0.6471;2.0909;
131.7000;0.6455;2.0934;
132.0000;0.6463;2.0983;
132.3000;0.6463;2.0983;
132.6000;0.6471;2.0909;
132.9000;0.6463;2.0860;
133.2000;0.6447;2.0786;
133.5000;0.6471;2.0737;
133.8000;0.6463;2.0786;
134.1000;0.6471;2.0860;
134.4000;0.6414;2.0688;
134.7000;0.6463;2.0835;
135.0000;0.6447;2.0737;
135.3000;0.6479;2.0811;
135.6000;0.6471;2.0761;
135.9000;0.6471;2.0860;
136.2000;0.6471;2.0884;
136.5000;0.6488;2.0811;
136.8000;0.6463;2.0712;
137.1000;0.6463;2.0811;
137.4000;0.6447;2.0786;
137.7000;0.6463;2.0884;
138.0000;0.6479;2.0884;
138.3000;0.6463;2.0884;
138.6000;0.6455;2.0860;
138.9000;0.6463;2.0860;
139.2000;0.6455;2.0934;
139.5000;0.6479;2.1057;
139.8000;0.6471;2.0958;
140.1000;0.6479;2.1007;
140.4000;0.6463;2.0909;
140.7000;0.6463;2.0835;
141.0000;0.6471;2.0860;
141.3000;0.6479;2.0835;
141.6000;0.6471;2.0811;
141.9000;0.6471;2.0835;
142.2000;0.6463;2.0712;
142.5000;0.6479;2.0786;
142.8000;0.6471;2.0786;
143.1000;0.6479;2.0786;
143.4000;0.6455;2.0761;
143.7000;0.6447;2.0688;
144.0000;0.6463;2.0811;
144.3000;0.6471;2.0786;
144.6000;0.6455;2.0737;
144.9000;0.6422;2.0712;
145.2000;0.6447;2.0786;
145.5000;0.6471;2.0712;
145.8000;0.6471;2.0761;
146.1000;0.6471;2.0761;
146.4000;0.6488;2.0860;
146.7000;0.6447;2.0786;
147.0000;0.6447;2.0786;
147.3000;0.6471;2.0811;
147.6000;0.6463;2.0934;
147.9000;0.6398;2.0761;
148.2000;0.6414;2.0811;
148.5000;0.6447;2.0811;
148.8000;0.6463;2.0786;
149.1000;0.6463;2.0835;
149.4000;0.6488;2.0811;
149.7000;0.6463;2.0638;
150.0000;0.6455;2.0712;
150.3000;0.6479;2.0737;
150.6000;0.6471;2.0737;
150.9000;0.6463;2.0786;
151.2000;0.6463;2.0811;
151.5000;0.6479;2.0761;
151.8000;0.6471;2.0663;
152.1000;0.6463;2.0737;
152.4000;0.6479;2.0786;
152.7000;0.6471;2.0884;
153.0000;0.6545;2.0983;
153.3000;0.6471;2.0884;
153.6000;0.6471;2.0860;
153.9000;0.6463;2.0884;
154.2000;0.6439;2.0835;
154.5000;0.6504;2.1081;
154.8000;0.6463;2.1007;
155.1000;0.6471;2.1032;
155.4000;0.6471;2.1007;
155.7000;0.6471;2.0958;
156.0000;0.6463;2.0909;
156.3000;0.6463;2.0983;
156.6000;0.6463;2.0934;
156.9000;0.6471;2.1032;
157.2000;0.6496;2.1057;
157.5000;0.6455;2.0860;
157.8000;0.6463;2.0983;
158.1000;0.6455;2.0983;
158.4000;0.6471;2.1007;
158.7000;0.6455;2.1057;
159.0000;0.6463;2.1081;
159.3000;0.6455;2.1032;
159.6000;0.6496;2.1130;
159.9000;0.6479;2.1032;
160.2000;0.6471;2.0983;
160.5000;0.6504;2.1032;
160.8000;0.6471;2.0958;
161.1000;0.6479;2.0860;
161.4000;0.6463;2.0811;
161.7000;0.6471;2.0934;
162.0000;0.6479;2.0983;
162.3000;0.6471;2.1007;
162.6000;0.6471;2.1057;
162.9000;0.6455;2.1032;
163.2000;0.6431;2.0983;
163.5000;0.6463;2.1106;
163.8000;0.6471;2.1007;
164.1000;0.6479;2.0909;
164.4000;0.6414;2.0860;
164.7000;0.6471;2.0909;
165.0000;0.6463;2.0934;
165.3000;0.6463;2.0909;
165.6000;0.6471;2.0909;
165.9000;0.6471;2.1032;
166.2000;0.6471;2.1057;
166.5000;0.6479;2.1081;
166.8000;0.6479;2.1057;
167.1000;0.6479;2.1007;
167.4000;0.6463;2.1007;
167.7000;0.6455;2.0983;
168.0000;0.6455;2.0909;
168.3000;0.6463;2.0983;
168.6000;0.6536;2.1180;
168.9000;0.6463;2.0983;
169.2000;0.6447;2.0934;
169.5000;0.6447;2.0958;
169.8000;0.6463;2.0934;
170.1000;0.6431;2.0909;
170.4000;0.6455;2.0958;
170.7000;0.6512;2.1106;
171.0000;0.6463;2.1032;
171.3000;0.6463;2.1007;
171.6000;0.6455;2.1007;
171.9000;0.6479;2.1081;
172.2000;0.6463;2.1106;
172.5000;0.6479;2.1081;
172.8000;0.6463;2.0958;
173.1000;0.6455;2.0983;
173.4000;0.6455;2.1007;
173.7000;0.6455;2.1007;
174.0000;0.6414;2.0860;
174.3000;0.6455;2.0958;
174.6000;0.6471;2.0934;
174.9000;0.6463;2.1007;
175.2000;0.6479;2.1081;
175.5000;0.6463;2.1057;
175.8000;0.6471;2.1106;
176.1000;0.6455;2.1130;
176.4000;0.6471;2.1081;
176.7000;0.6463;2.0958;
177.0000;0.6479;2.0983;
177.3000;0.6447;2.0811;
177.6000;0.6463;2.0884;
177.9000;0.6447;2.0860;
178.2000;0.6463;2.0860;
178.5000;0.6471;2.0835;
178.8000;0.6471;2.0761;
179.1000;0.6463;2.0835;
179.4000;0.6496;2.0909;
179.7000;0.6471;2.0786;
180.0000;0.6496;2.0860;
180.3000;0.6471;2.0884;
180.6000;0.6463;2.0934;
180.9000;0.6520;2.1032;
181.2000;0.6488;2.1057;
181.5000;0.6471;2.1130;
181.8000;0.6479;2.1155;
182.1000;0.6447;2.1130;
182.4000;0.6471;2.1081;
182.7000;0.6471;2.1032;
183.0000;0.6463;2.1057;
183.3000;0.6463;2.1081;
183.6000;0.6479;2.1032;
183.9000;0.6471;2.1057;
184.2000;0.6447;2.0983;
184.5000;0.6447;2.0860;
184.8000;0.6455;2.0884;
185.1000;0.6455;2.0909;
185.4000;0.6455;2.0958;
185.7000;0.6463;2.0983;
186.0000;0.6471;2.1032;
186.3000;0.6471;2.1081;
186.6000;0.6471;2.1130;
186.9000;0.6479;2.1155;
187.2000;0.6463;2.1106;
187.5000;0.6455;2.1081;
187.8000;0.6431;2.1032;
188.1000;0.6455;2.1007;
188.4000;0.6463;2.0983;
188.7000;0.6471;2.0983;
189.0000;0.6479;2.0958;
189.3000;0.6471;2.0835;
189.6000;0.6463;2.0811;
189.9000;0.6463;2.0860;
190.2000;0.6455;2.0860;
190.5000;0.6463;2.0958;
190.8000;0.6471;2.0958;
191.1000;0.6455;2.0909;
191.4000;0.6455;2.0884;
191.7000;0.6528;2.1106;
192.0000;0.6439;2.0958;
192.3000;0.6382;2.0786;
192.6000;0.6471;2.0958;
192.9000;0.6439;2.0983;
193.2000;0.6398;2.0909;
193.5000;0.6431;2.0934;
193.8000;0.6479;2.1032;
194.1000;0.6463;2.0958;
194.4000;0.6455;2.1007;
194.7000;0.6504;2.1081;
195.0000;0.6455;2.0983;
195.3000;0.6455;2.1081;
195.6000;0.6439;2.1032;
195.9000;0.6447;2.1081;
196.2000;0.6431;2.1007;
196.5000;0.6479;2.1057;
196.8000;0.6447;2.0909;
197.1000;0.6447;2.0958;
197.4000;0.6447;2.0909;
197.7000;0.6455;2.0934;
198.0000;0.6455;2.0909;
198.3000;0.6431;2.0835;
198.6000;0.6455;2.0958;
198.9000;0.6471;2.0958;
199.2000;0.6463;2.0884;
199.5000;0.6447;2.0835;
199.8000;0.6455;2.0860;
200.1000;0.6455;2.0835;
200.4000;0.6455;2.0811;
200.7000;0.6447;2.0761;
201.0000;0.6447;2.0811;
201.3000;0.6471;2.0860;
201.6000;0.6471;2.0835;
201.9000;0.6455;2.0835;
202.2000;0.6447;2.0860;
202.5000;0.6463;2.0786;
202.8000;0.6471;2.0835;
203.1000;0.6463;2.0884;
203.4000;0.6447;2.0835;
203.7000;0.6471;2.0884;
204.0000;0.6463;2.0884;
204.3000;0.6455;2.0909;
204.6000;0.6455;2.0860;
204.9000;0.6447;2.0811;
205.2000;0.6455;2.0835;
205.5000;0.6463;2.0786;
205.8000;0.6471;2.0811;
206.1000;0.6374;2.0589;
206.4000;0.6455;2.0761;
206.7000;0.6455;2.0761;
207.0000;0.6455;2.0761;
207.3000;0.6471;2.0909;
207.6000;0.6414;2.0761;
207.9000;0.6447;2.0786;
208.2000;0.6463;2.0712;
208.5000;0.6455;2.0761;
208.8000;0.6463;2.0761;
209.1000;0.6447;2.0761;
209.4000;0.6455;2.0786;
209.7000;0.6455;2.0835;
210.0000;0.6439;2.0835;
210.3000;0.6455;2.0761;
210.6000;0.6455;2.0761;
210.9000;0.6422;2.0712;
211.2000;0.6455;2.0835;
211.5000;0.6447;2.0811;
211.8000;0.6488;2.0909;
212.1000;0.6455;2.0884;
212.4000;0.6431;2.0761;
212.7000;0.6471;2.0860;
213.0000;0.6447;2.0786;
213.3000;0.6479;2.0835;
213.6000;0.6455;2.0737;
213.9000;0.6479;2.0737;
214.2000;0.6398;2.0589;
214.5000;0.6447;2.0737;
214.8000;0.6447;2.0786;
215.1000;0.6447;2.0884;
215.4000;0.6455;2.1007;
215.7000;0.6471;2.0958;
216.0000;0.6455;2.0909;
216.3000;0.6406;2.0737;
216.6000;0.6463;2.0884;
216.9000;0.6471;2.0835;
217.2000;0.6455;2.0786;
217.5000;0.6414;2.0737;
217.8000;0.6455;2.0835;
218.1000;0.6463;2.0811;
218.4000;0.6471;2.0835;
218.7000;0.6463;2.0860;
219.0000;0.6447;2.0860;
219.3000;0.6447;2.0934;
219.6000;0.6455;2.0958;
219.9000;0.6439;2.0958;
220.2000;0.6431;2.0958;
220.5000;0.6455;2.1130;
220.8000;0.6439;2.1057;
221.1000;0.6447;2.0958;
221.4000;0.6447;2.0934;
221.7000;0.6463;2.0983;
222.0000;0.6471;2.1032;
222.3000;0.6455;2.0958;
222.6000;0.6439;2.0909;
222.9000;0.6455;2.0835;
223.2000;0.6471;2.0835;
223.5000;0.6422;2.0786;
223.8000;0.6455;2.0860;
224.1000;0.6447;2.0811;
224.4000;0.6463;2.0884;
224.7000;0.6463;2.0934;
225.0000;0.6463;2.0934;
225.3000;0.6439;2.0909;
225.6000;0.6439;2.0934;
225.9000;0.6439;2.0958;
226.2000;0.6431;2.0958;
226.5000;0.6431;2.0884;
226.8000;0.6439;2.0884;
227.1000;0.6455;2.0909;
227.4000;0.6455;2.0811;
227.7000;0.6439;2.0811;
228.0000;0.6439;2.0811;
228.3000;0.6463;2.0835;
228.6000;0.6471;2.0761;
228.9000;0.6439;2.0761;
229.2000;0.6455;2.0761;
229.5000;0.6463;2.0811;
229.8000;0.6463;2.0909;
230.1000;0.6463;2.1007;
230.4000;0.6439;2.0958;
230.7000;0.6455;2.0934;
231.0000;0.6455;2.0884;
231.3000;0.6439;2.0835;
231.6000;0.6406;2.0786;
231.9000;0.6455;2.0884;
232.2000;0.6512;2.1081;
232.5000;0.6463;2.0958;
232.8000;0.6455;2.0909;
233.1000;0.6439;2.0909;
233.4000;0.6463;2.0958;
233.7000;0.6463;2.1007;
234.0000;0.6447;2.1057;
234.3000;0.6431;2.1057;
234.6000;0.6447;2.1155;
234.9000;0.6447;2.1057;
235.2000;0.6488;2.1106;
235.5000;0.6439;2.0934;
235.8000;0.6455;2.1007;
236.1000;0.6488;2.1081;
236.4000;0.6398;2.0934;
236.7000;0.6398;2.0909;
237.0000;0.6439;2.1032;
237.3000;0.6463;2.1130;
237.6000;0.6447;2.1106;
237.9000;0.6390;2.0983;
238.2000;0.6439;2.1130;
238.5000;0.6455;2.1155;
238.8000;0.6447;2.1081;
239.1000;0.6447;2.1032;
239.4000;0.6439;2.1057;
239.7000;0.6398;2.0835;
240.0000;0.6455;2.1007;
240.3000;0.6406;2.0983;
240.6000;0.6439;2.0983;
240.9000;0.6455;2.0934;
241.2000;0.6455;2.0983;
241.5000;0.6447;2.0934;
241.8000;0.6447;2.0958;
242.1000;0.6439;2.0934;
242.4000;0.6471;2.1057;
242.7000;0.6439;2.0909;
243.0000;0.6447;2.0958;
243.3000;0.6447;2.1007;
243.6000;0.6447;2.0983;
243.9000;0.6422;2.0884;
244.2000;0.6431;2.0909;
244.5000;0.6447;2.0811;
244.8000;0.6447;2.0835;
245.1000;0.6431;2.0835;
245.4000;0.6431;2.0934;
245.7000;0.6422;2.0909;
246.0000;0.6422;2.0860;
246.3000;0.6431;2.0909;
246.6000;0.6431;2.0909;
246.9000;0.6431;2.0909;
247.2000;0.6447;2.0958;
247.5000;0.6422;2.1007;
247.8000;0.6439;2.1057;
248.1000;0.6447;2.1007;
248.4000;0.6463;2.1204;
248.7000;0.6447;2.1130;
249.0000;0.6447;2.1081;
249.3000;0.6422;2.1032;
249.6000;0.6439;2.0983;
249.9000;0.6447;2.1032;
250.2000;0.6447;2.1007;
250.5000;0.6414;2.0835;
250.8000;0.6422;2.0884;
251.1000;0.6439;2.0934;
251.4000;0.6422;2.0835;
251.7000;0.6447;2.0811;
252.0000;0.6431;2.0712;
252.3000;0.6439;2.0688;
252.6000;0.6447;2.0614;
252.9000;0.6431;2.0638;
253.2000;0.6439;2.0811;
253.5000;0.6471;2.0835;
253.8000;0.6422;2.0663;
254.1000;0.6447;2.0835;
254.4000;0.6431;2.0860;
254.7000;0.6455;2.0909;
255.0000;0.6447;2.0909;
255.3000;0.6463;2.0860;
255.6000;0.6431;2.0786;
255.9000;0.6431;2.0786;
256.2000;0.6431;2.0835;
256.5000;0.6439;2.0811;
256.8000;0.6431;2.0737;
257.1000;0.6431;2.0811;
257.4000;0.6422;2.0835;
257.7000;0.6431;2.0835;
258.0000;0.6422;2.0860;
258.3000;0.6414;2.0860;
258.6000;0.6349;2.0811;
258.9000;0.6431;2.0983;
259.2000;0.6496;2.1081;
259.5000;0.6439;2.0884;
259.8000;0.6431;2.0835;
260.1000;0.6447;2.0835;
260.4000;0.6447;2.0909;
260.7000;0.6431;2.0884;
261.0000;0.6422;2.0835;
261.3000;0.6447;2.0958;
261.6000;0.6439;2.0909;
261.9000;0.6422;2.0811;
262.2000;0.6431;2.0860;
262.5000;0.6431;2.0884;
262.8000;0.6447;2.0811;
263.1000;0.6455;2.0934;
263.4000;0.6422;2.0860;
263.7000;0.6439;2.0909;
264.0000;0.6431;2.0737;
264.3000;0.6422;2.0688;
264.6000;0.6431;2.0737;
264.9000;0.6406;2.0614;
265.2000;0.6447;2.0589;
265.5000;0.6431;2.0466;
265.8000;0.6439;2.0491;
266.1000;0.6414;2.0466;
266.4000;0.6431;2.0392;
266.7000;0.6422;2.0417;
267.0000;0.6439;2.0565;
267.3000;0.6422;2.0565;
267.6000;0.6439;2.0614;
267.9000;0.6447;2.0614;
268.2000;0.6431;2.0638;
268.5000;0.6414;2.0589;
268.8000;0.6455;2.0688;
269.1000;0.6431;2.0761;
269.4000;0.6447;2.0860;
269.7000;0.6422;2.0737;
270.0000;0.6422;2.0761;
270.3000;0.6447;2.0786;
270.6000;0.6431;2.0786;
270.9000;0.6422;2.0835;
271.2000;0.6422;2.0934;
271.5000;0.6414;2.0860;
271.8000;0.6422;2.0811;
272.1000;0.6431;2.0786;
272.4000;0.6406;2.0737;
272.7000;0.6455;2.0860;
273.0000;0.6431;2.0860;
273.3000;0.6406;2.0811;
273.6000;0.6431;2.0761;
273.9000;0.6414;2.0761;
274.2000;0.6512;2.0983;
274.5000;0.6431;2.0835;
274.8000;0.6431;2.0860;
275.1000;0.6431;2.0884;
275.4000;0.6431;2.0860;
275.7000;0.6414;2.0737;
276.0000;0.6414;2.0688;
276.3000;0.6422;2.0688;
276.6000;0.6455;2.0786;
276.9000;0.6439;2.0811;
277.2000;0.6406;2.0712;
277.5000;0.6422;2.0737;
277.8000;0.6390;2.0712;
278.1000;0.6422;2.0761;
278.4000;0.6422;2.0737;
278.7000;0.6414;2.0761;
279.0000;0.6406;2.0737;
279.3000;0.6422;2.0712;
279.6000;0.6414;2.0589;
279.9000;0.6422;2.0663;
280.2000;0.6431;2.0663;
280.5000;0.6414;2.0614;
280.8000;0.6431;2.0638;
281.1000;0.6422;2.0589;
281.4000;0.6431;2.0589;
281.7000;0.6439;2.0614;
282.0000;0.6431;2.0614;
282.3000;0.6455;2.0761;
282.6000;0.6398;2.0688;
282.9000;0.6414;2.0737;
283.2000;0.6406;2.0712;
283.5000;0.6422;2.0786;
283.8000;0.6439;2.0688;
284.1000;0.6422;2.0761;
284.4000;0.6439;2.0811;
284.7000;0.6463;2.0909;
285.0000;0.6414;2.0761;
285.3000;0.6422;2.0835;
285.6000;0.6431;2.0835;
285.9000;0.6422;2.0786;
286.2000;0.6422;2.0811;
286.5000;0.6382;2.0688;
286.8000;0.6479;2.0934;
287.1000;0.6414;2.0811;
287.4000;0.6374;2.0761;
287.7000;0.6414;2.0786;
288.0000;0.6414;2.0811;
288.3000;0.6374;2.0712;
288.6000;0.6414;2.0811;
288.9000;0.6406;2.0761;
289.2000;0.6414;2.0688;
289.5000;0.6431;2.0737;
289.8000;0.6439;2.0712;
290.1000;0.6390;2.0712;
290.4000;0.6422;2.0786;
290.7000;0.6398;2.0835;
291.0000;0.6414;2.0909;
291.3000;0.6422;2.0884;
291.6000;0.6422;2.0835;
291.9000;0.6349;2.0614;
292.2000;0.6422;2.0688;
292.5000;0.6422;2.0638;
292.8000;0.6414;2.0614;
293.1000;0.6414;2.0638;
293.4000;0.6439;2.0712;
293.7000;0.6422;2.0761;
294.0000;0.6414;2.0761;
294.3000;0.6463;2.0860;
294.6000;0.6414;2.0761;
294.9000;0.6406;2.0786;
295.2000;0.6431;2.0884;
295.5000;0.6398;2.0835;
295.8000;0.6422;2.0811;
296.1000;0.6422;2.0811;
296.4000;0.6406;2.0811;
296.7000;0.6414;2.0811;
297.0000;0.6406;2.0835;
297.3000;0.6414;2.0860;
297.6000;0.6406;2.0835;
297.9000;0.6398;2.0737;
298.2000;0.6422;2.0835;
298.5000;0.6414;2.0909;
298.8000;0.6406;2.0934;
299.1000;0.6422;2.0958;
299.4000;0.6414;2.0983;
299.7000;0.6422;2.0909;
300.0000;0.6431;2.1007;
300.3000;0.6447;2.0958;
300.6000;0.6406;2.0934;
300.9000;0.6504;2.1081;
301.2000;0.6439;2.1007;
301.5000;0.6414;2.0958;
301.8000;0.6431;2.0983;
302.1000;0.6414;2.0958;
302.4000;0.6422;2.0983;
302.7000;0.6406;2.0934;
303.0000;0.6406;2.0983;
303.3000;0.6414;2.1007;
303.6000;0.6414;2.1106;
303.9000;0.6382;2.1081;
304.2000;0.6406;2.1130;
304.5000;0.6414;2.1130;
304.8000;0.6422;2.1130;
305.1000;0.6431;2.1032;
305.4000;0.6406;2.1032;
305.7000;0.6406;2.0983;
306.0000;0.6406;2.1032;
306.3000;0.6390;2.1057;
306.6000;0.6398;2.1032;
306.9000;0.6382;2.0909;
307.2000;0.6325;2.0811;
307.5000;0.6382;2.0958;
307.8000;0.6398;2.0983;
308.1000;0.6374;2.0983;
308.4000;0.6406;2.1057;
308.7000;0.6349;2.0860;
309.0000;0.6390;2.0983;
309.3000;0.6357;2.0958;
309.6000;0.6390;2.1106;
309.9000;0.6390;2.0983;
310.2000;0.6406;2.1081;
310.5000;0.6414;2.1057;
310.8000;0.6398;2.0983;
311.1000;0.6406;2.1007;
311.4000;0.6414;2.1057;
311.7000;0.6374;2.0884;
312.0000;0.6439;2.1032;
312.3000;0.6414;2.1081;
312.6000;0.6422;2.1081;
312.9000;0.6357;2.0884;
313.2000;0.6406;2.1032;
313.5000;0.6414;2.1057;
313.8000;0.6406;2.1057;
314.1000;0.6406;2.0958;
314.4000;0.6431;2.1032;
314.7000;0.6406;2.0983;
315.0000;0.6414;2.1106;
315.3000;0.6488;2.1303;
315.6000;0.6406;2.1180;
315.9000;0.6398;2.1130;
316.2000;0.6406;2.1081;
316.5000;0.6406;2.1130;
316.8000;0.6414;2.1130;
317.1000;0.6398;2.1081;
317.4000;0.6390;2.1032;
317.7000;0.6390;2.1057;
318.0000;0.6406;2.1007;
318.3000;0.6398;2.0958;
318.6000;0.6406;2.1032;
318.9000;0.6406;2.1081;
319.2000;0.6414;2.1032;
319.5000;0.6398;2.1081;
319.8000;0.6398;2.1106;
320.1000;0.6414;2.1106;
320.4000;0.6414;2.1057;
320.7000;0.6414;2.0934;
321.0000;0.6390;2.0909;
321.3000;0.6414;2.1057;
321.6000;0.6414;2.0934;
321.9000;0.6406;2.0909;
322.2000;0.6406;2.0909;
322.5000;0.6414;2.0909;
322.8000;0.6374;2.0737;
323.1000;0.6422;2.0860;
323.4000;0.6414;2.0909;
323.7000;0.6479;2.1180;
324.0000;0.6406;2.1057;
324.3000;0.6398;2.1057;
324.6000;0.6365;2.1032;
324.9000;0.6374;2.0934;
325.2000;0.6414;2.0958;
325.5000;0.6398;2.0860;
325.8000;0.6398;2.0884;
326.1000;0.6414;2.0958;
326.4000;0.6447;2.1106;
326.7000;0.6422;2.1106;
327.0000;0.6406;2.1057;
327.3000;0.6422;2.1007;
327.6000;0.6406;2.0934;
327.9000;0.6414;2.0909;
328.2000;0.6422;2.0958;
328.5000;0.6398;2.0909;
328.8000;0.6414;2.0934;
329.1000;0.6414;2.0958;
329.4000;0.6398;2.0958;
329.7000;0.6406;2.0958;
330.0000;0.6398;2.1007;
330.3000;0.6406;2.1032;
330.6000;0.6406;2.1057;
330.9000;0.6374;2.0934;
331.2000;0.6398;2.1007;
331.5000;0.6398;2.0934;
331.8000;0.6447;2.0983;
332.1000;0.6406;2.0835;
332.4000;0.6439;2.0811;
332.7000;0.6357;2.0638;
333.0000;0.6398;2.0712;
333.3000;0.6365;2.0614;
333.6000;0.6333;2.0589;
333.9000;0.6382;2.0712;
334.2000;0.6414;2.0835;
334.5000;0.6398;2.0860;
334.8000;0.6439;2.0958;
335.1000;0.6398;2.0811;
335.4000;0.6398;2.0909;
335.7000;0.6414;2.0958;
336.0000;0.6406;2.0860;
336.3000;0.6471;2.1057;
336.6000;0.6422;2.0958;
336.9000;0.6422;2.0909;
337.2000;0.6398;2.0884;
337.5000;0.6406;2.0909;
337.8000;0.6398;2.0934;
338.1000;0.6406;2.0909;
338.4000;0.6431;2.0934;
338.7000;0.6398;2.0884;
339.0000;0.6390;2.0884;
339.3000;0.6398;2.0884;
339.6000;0.6406;2.0884;
339.9000;0.6406;2.0860;
340.2000;0.6406;2.0884;
340.5000;0.6422;2.0958;
340.8000;0.6414;2.0958;
341.1000;0.6414;2.1007;
341.4000;0.6390;2.1057;
341.7000;0.6406;2.1057;
342.0000;0.6414;2.1106;
342.3000;0.6414;2.1180;
342.6000;0.6390;2.1229;
342.9000;0.6406;2.1278;
343.2000;0.6374;2.1278;
343.5000;0.6398;2.1253;
343.8000;0.6398;2.1303;
344.1000;0.6382;2.1253;
344.4000;0.6390;2.1204;
344.7000;0.6406;2.1229;
345.0000;0.6382;2.1180;
345.3000;0.6390;2.1229;
345.6000;0.6390;2.1229;
345.9000;0.6398;2.1229;
346.2000;0.6390;2.1155;
346.5000;0.6390;2.1081;
346.8000;0.6406;2.1007;
347.1000;0.6398;2.1032;
347.4000;0.6398;2.0884;
347.7000;0.6382;2.0712;
348.0000;0.6390;2.0811;
348.3000;0.6398;2.0909;
348.6000;0.6398;2.0884;
348.9000;0.6398;2.0958;
349.2000;0.6406;2.1032;
349.5000;0.6463;2.1253;
349.8000;0.6406;2.1180;
350.1000;0.6398;2.1106;
350.4000;0.6357;2.0983;
350.7000;0.6406;2.1106;
351.0000;0.6398;2.1081;
351.3000;0.6390;2.1007;
351.6000;0.6382;2.0934;
351.9000;0.6382;2.0884;
352.2000;0.6398;2.0835;
352.5000;0.6398;2.0811;
352.8000;0.6422;2.0811;
353.1000;0.6390;2.0761;
353.4000;0.6398;2.0811;
353.7000;0.6406;2.0786;
354.0000;0.6357;2.0737;
354.3000;0.6390;2.0884;
354.6000;0.6398;2.0884;
354.9000;0.6406;2.1007;
355.2000;0.6325;2.0761;
355.5000;0.6382;2.0909;
355.8000;0.6317;2.0786;
356.1000;0.6390;2.0958;
356.4000;0.6374;2.0934;
356.7000;0.6398;2.0860;
357.0000;0.6390;2.0835;
357.3000;0.6398;2.0909;
357.6000;0.6382;2.0860;
357.9000;0.6463;2.1057;
358.2000;0.6382;2.0909;
358.5000;0.6398;2.0958;
358.8000;0.6382;2.0958;
359.1000;0.6390;2.0934;
359.4000;0.6374;2.0958;
359.7000;0.6374;2.0958;
360.0000;0.6390;2.1081;
360.3000;0.6390;2.1057;
360.6000;0.6398;2.1155;
360.9000;0.6398;2.1057;
361.2000;0.6406;2.1032;
361.5000;0.6406;2.1007;
361.8000;0.6398;2.1032;
362.1000;0.6406;2.1032;
362.4000;0.6390;2.1032;
362.7000;0.6382;2.0958;
363.0000;0.6406;2.0958;
363.3000;0.6374;2.0909;
363.6000;0.6406;2.0909;
363.9000;0.6390;2.0884;
364.2000;0.6398;2.0983;
364.5000;0.6447;2.1081;
364.8000;0.6390;2.1007;
365.1000;0.6406;2.1007;
365.4000;0.6463;2.1155;
365.7000;0.6382;2.0884;
366.0000;0.6382;2.0934;
366.3000;0.6398;2.0934;
366.6000;0.6398;2.0934;
366.9000;0.6390;2.0835;
367.2000;0.6398;2.0884;
367.5000;0.6398;2.0811;
367.8000;0.6398;2.0835;
368.1000;0.6382;2.0811;
368.4000;0.6382;2.0909;
368.7000;0.6357;2.0811;
369.0000;0.6382;2.1007;
369.3000;0.6382;2.0958;
369.6000;0.6390;2.1007;
369.9000;0.6382;2.1007;
370.2000;0.6390;2.1057;
370.5000;0.6365;2.1007;
370.8000;0.6382;2.1081;
371.1000;0.6390;2.1106;
371.4000;0.6398;2.1081;
371.7000;0.6390;2.1032;
372.0000;0.6390;2.1032;
372.3000;0.6406;2.1007;
372.6000;0.6398;2.1007;
372.9000;0.6398;2.0983;
373.2000;0.6382;2.0934;
373.5000;0.6439;2.1057;
373.8000;0.6382;2.0983;
374.1000;0.6374;2.1007;
374.4000;0.6349;2.0958;
374.7000;0.6374;2.1007;
375.0000;0.6365;2.1007;
375.3000;0.6317;2.0909;
375.6000;0.6365;2.1130;
375.9000;0.6374;2.1106;
376.2000;0.6365;2.1032;
376.5000;0.6374;2.1130;
376.8000;0.6390;2.1180;
377.1000;0.6349;2.1155;
377.4000;0.6382;2.1253;
377.7000;0.6390;2.1253;
378.0000;0.6398;2.1253;
378.3000;0.6406;2.1278;
378.6000;0.6382;2.1106;
378.9000;0.6325;2.0934;
379.2000;0.6406;2.1278;
379.5000;0.6374;2.1229;
379.8000;0.6325;2.1130;
380.1000;0.6382;2.1204;
380.4000;0.6365;2.1180;
380.7000;0.6365;2.1155;
381.0000;0.6365;2.1155;
381.3000;0.6382;2.1229;
381.6000;0.6390;2.1229;
381.9000;0.6406;2.1229;
382.2000;0.6398;2.1155;
382.5000;0.6390;2.1081;
382.8000;0.6365;2.1007;
383.1000;0.6390;2.1081;
383.4000;0.6398;2.1106;
383.7000;0.6374;2.1106;
384.0000;0.6382;2.1106;
384.3000;0.6398;2.1155;
384.6000;0.6374;2.1106;
384.9000;0.6374;2.1106;
385.2000;0.6382;2.1081;
385.5000;0.6325;2.0983;
385.8000;0.6382;2.1106;
386.1000;0.6398;2.1155;
386.4000;0.6390;2.1081;
386.7000;0.6382;2.1106;
387.0000;0.6398;2.1155;
387.3000;0.6325;2.0983;
387.6000;0.6365;2.1130;
387.9000;0.6382;2.1155;
388.2000;0.6374;2.1155;
388.5000;0.6374;2.1253;
388.8000;0.6382;2.1253;
389.1000;0.6390;2.1180;
389.4000;0.6398;2.1155;
389.7000;0.6365;2.1106;
390.0000;0.6374;2.1106;
390.3000;0.6382;2.1032;
390.6000;0.6406;2.1155;
390.9000;0.6390;2.1106;
391.2000;0.6357;2.1007;
391.5000;0.6374;2.1081;
391.8000;0.6374;2.1081;
392.1000;0.6374;2.1130;
392.4000;0.6374;2.1130;
392.7000;0.6374;2.1204;
393.0000;0.6365;2.1253;
393.3000;0.6365;2.1401;
393.6000;0.6382;2.1376;
393.9000;0.6365;2.1352;
394.2000;0.6382;2.1327;
394.5000;0.6390;2.1229;
394.8000;0.6357;2.1106;
395.1000;0.6374;2.1180;
395.4000;0.6382;2.1155;
395.7000;0.6455;2.1376;
396.0000;0.6390;2.1204;
396.3000;0.6398;2.1204;
396.6000;0.6398;2.1180;
396.9000;0.6390;2.1253;
397.2000;0.6382;2.1278;
397.5000;0.6390;2.1303;
397.8000;0.6374;2.1253;
398.1000;0.6374;2.1180;
398.4000;0.6414;2.1130;
398.7000;0.6390;2.1081;
399.0000;0.6374;2.1081;
399.3000;0.6398;2.1155;
399.6000;0.6382;2.1081;
399.9000;0.6357;2.0983;
400.2000;0.6406;2.1081;
400.5000;0.6398;2.1057;
400.8000;0.6374;2.1081;
401.1000;0.6390;2.1057;
401.4000;0.6390;2.1057;
401.7000;0.6422;2.1253;
402.0000;0.6390;2.1130;
402.3000;0.6374;2.1155;
402.6000;0.6357;2.1204;
402.9000;0.6382;2.1303;
403.2000;0.6406;2.1352;
403.5000;0.6325;2.1204;
403.8000;0.6374;2.1278;
404.1000;0.6333;2.1229;
404.4000;0.6447;2.1524;
404.7000;0.6414;2.1376;
405.0000;0.6374;2.1278;
405.3000;0.6382;2.1278;
405.6000;0.6382;2.1278;
405.9000;0.6341;2.1180;
406.2000;0.6309;2.1180;
406.5000;0.6309;2.1155;
406.8000;0.6398;2.1253;
407.1000;0.6390;2.1327;
407.4000;0.6374;2.1253;
407.7000;0.6365;2.1180;
408.0000;0.6349;2.1204;
408.3000;0.6390;2.1352;
408.6000;0.6406;2.1303;
408.9000;0.6390;2.1204;
409.2000;0.6349;2.1057;
409.5000;0.6406;2.1204;
409.8000;0.6398;2.1130;
410.1000;0.6382;2.1106;
410.4000;0.6382;2.1081;
410.7000;0.6382;2.1007;
411.0000;0.6357;2.1081;
411.3000;0.6398;2.1130;
411.6000;0.6382;2.1081;
411.9000;0.6365;2.1081;
412.2000;0.6398;2.1130;
412.5000;0.6398;2.1253;
412.8000;0.6374;2.1180;
413.1000;0.6374;2.1229;
413.4000;0.6365;2.1253;
413.7000;0.6357;2.1180;
414.0000;0.6431;2.1376;
414.3000;0.6357;2.1155;
414.6000;0.6374;2.1180;
414.9000;0.6406;2.1180;
415.2000;0.6374;2.1106;
415.5000;0.6349;2.1057;
415.8000;0.6374;2.1081;
416.1000;0.6365;2.1155;
416.4000;0.6365;2.1130;
416.7000;0.6357;2.1057;
417.0000;0.6357;2.1081;
417.3000;0.6374;2.1130;
417.6000;0.6374;2.1204;
417.9000;0.6382;2.1253;
418.2000;0.6333;2.1180;
418.5000;0.6365;2.1229;
418.8000;0.6357;2.1130;
419.1000;0.6341;2.1155;
419.4000;0.6414;2.1327;
419.7000;0.6382;2.1204;
420.0000;0.6325;2.1032;
420.3000;0.6382;2.1155;
420.6000;0.6365;2.1057;
420.9000;0.6357;2.1007;
421.2000;0.6365;2.1057;
421.5000;0.6365;2.1032;
421.8000;0.6357;2.0958;
422.1000;0.6374;2.0958;
422.4000;0.6357;2.0909;
422.7000;0.6374;2.0983;
423.0000;0.6374;2.0983;
423.3000;0.6333;2.0934;
423.6000;0.6365;2.0983;
423.9000;0.6439;2.1204;
424.2000;0.6365;2.1032;
424.5000;0.6374;2.1057;
424.8000;0.6422;2.1204;
425.1000;0.6374;2.1081;
425.4000;0.6382;2.1155;
425.7000;0.6374;2.1155;
426.0000;0.6374;2.1057;
426.3000;0.6382;2.1057;
426.6000;0.6374;2.0934;
426.9000;0.6365;2.0884;
427.2000;0.6374;2.1007;
427.5000;0.6341;2.0983;
427.8000;0.6357;2.1180;
428.1000;0.6374;2.1180;
428.4000;0.6349;2.1130;
428.7000;0.6422;2.1303;
429.0000;0.6357;2.1057;
429.3000;0.6382;2.1155;
429.6000;0.6365;2.1106;
429.9000;0.6365;2.1180;
430.2000;0.6382;2.1180;
430.5000;0.6365;2.1180;
430.8000;0.6365;2.1229;
431.1000;0.6447;2.1524;
431.4000;0.6365;2.1401;
431.7000;0.6349;2.1303;
432.0000;0.6365;2.1376;
432.3000;0.6357;2.1352;
432.6000;0.6357;2.1303;
432.9000;0.6357;2.1180;
433.2000;0.6349;2.1180;
433.5000;0.6374;2.1106;
433.8000;0.6374;2.1155;
434.1000;0.6374;2.1204;
434.4000;0.6422;2.1253;
434.7000;0.6374;2.1180;
435.0000;0.6374;2.1204;
435.3000;0.6374;2.1106;
435.6000;0.6398;2.1155;
435.9000;0.6365;2.1180;
436.2000;0.6374;2.1327;
436.5000;0.6374;2.1450;
436.8000;0.6357;2.1475;
437.1000;0.6365;2.1475;
437.4000;0.6398;2.1573;
437.7000;0.6382;2.1475;
438.0000;0.6365;2.1475;
438.3000;0.6357;2.1426;
438.6000;0.6349;2.1426;
438.9000;0.6341;2.1352;
439.2000;0.6357;2.1352;
439.5000;0.6357;2.1352;
439.8000;0.6357;2.1303;
440.1000;0.6365;2.1303;
440.4000;0.6455;2.1450;
440.7000;0.6357;2.1253;
441.0000;0.6349;2.1253;
441.3000;0.6357;2.1253;
441.6000;0.6292;2.1007;
441.9000;0.6365;2.1180;
442.2000;0.6382;2.1180;
442.5000;0.6365;2.1130;
442.8000;0.6365;2.1130;
443.1000;0.6398;2.1106;
443.4000;0.6341;2.1007;
443.7000;0.6374;2.1081;
444.0000;0.6317;2.1007;
444.3000;0.6357;2.1155;
444.6000;0.6365;2.1278;
444.9000;0.6365;2.1303;
445.2000;0.6365;2.1327;
445.5000;0.6374;2.1401;
445.8000;0.6365;2.1303;
446.1000;0.6292;2.1057;
446.4000;0.6341;2.1204;
446.7000;0.6365;2.1278;
447.0000;0.6309;2.1155;
447.3000;0.6374;2.1303;
447.6000;0.6365;2.1180;
447.9000;0.6374;2.1303;
448.2000;0.6357;2.1278;
448.5000;0.6349;2.1204;
448.8000;0.6357;2.1180;
449.1000;0.6365;2.1180;
449.4000;0.6374;2.1130;
449.7000;0.6357;2.1130;
450.0000;0.6357;2.1130;
450.3000;0.6357;2.1204;
450.6000;0.6365;2.1303;
450.9000;0.6317;2.1204;
451.2000;0.6365;2.1278;
451.5000;0.6349;2.1155;
451.8000;0.6357;2.1180;
452.1000;0.6365;2.1229;
452.4000;0.6349;2.1278;
452.7000;0.6349;2.1253;
453.0000;0.6357;2.1204;
453.3000;0.6357;2.1204;
453.6000;0.6357;2.1253;
453.9000;0.6349;2.1253;
454.2000;0.6365;2.1278;
454.5000;0.6365;2.1180;
454.8000;0.6357;2.1180;
455.1000;0.6365;2.1130;
455.4000;0.6374;2.1057;
455.7000;0.6374;2.1032;
456.0000;0.6349;2.0909;
456.3000;0.6357;2.0983;
456.6000;0.6374;2.1057;
456.9000;0.6374;2.1007;
457.2000;0.6357;2.1007;
457.5000;0.6357;2.1007;
457.8000;0.6357;2.1032;
458.1000;0.6357;2.1032;
458.4000;0.6374;2.1032;
458.7000;0.6357;2.1007;
459.0000;0.6414;2.1180;
459.3000;0.6357;2.1007;
459.6000;0.6333;2.0909;
459.9000;0.6357;2.1032;
460.2000;0.6357;2.1180;
460.5000;0.6374;2.1253;
460.8000;0.6349;2.1204;
461.1000;0.6349;2.1204;
461.4000;0.6349;2.1130;
461.7000;0.6365;2.1229;
462.0000;0.6341;2.1155;
462.3000;0.6357;2.1130;
462.6000;0.6317;2.1057;
462.9000;0.6341;2.1106;
463.2000;0.6349;2.1155;
463.5000;0.6325;2.1081;
463.8000;0.6357;2.1155;
464.1000;0.6349;2.1229;
464.4000;0.6333;2.1130;
464.7000;0.6374;2.1130;
465.0000;0.6349;2.1130;
465.3000;0.6341;2.1155;
465.6000;0.6365;2.1253;
465.9000;0.6357;2.1253;
466.2000;0.6349;2.1130;
466.5000;0.6398;2.1327;
466.8000;0.6357;2.1155;
467.1000;0.6365;2.1106;
467.4000;0.6365;2.1106;
467.7000;0.6349;2.1130;
468.0000;0.6365;2.1081;
468.3000;0.6365;2.1106;
468.6000;0.6357;2.1229;
468.9000;0.6357;2.1155;
469.2000;0.6374;2.1130;
469.5000;0.6365;2.1155;
469.8000;0.6374;2.1180;
470.1000;0.6357;2.1180;
470.4000;0.6374;2.1204;
470.7000;0.6374;2.1229;
471.0000;0.6374;2.1204;
471.3000;0.6341;2.1130;
471.6000;0.6349;2.1106;
471.9000;0.6292;2.0983;
472.2000;0.6365;2.1180;
472.5000;0.6365;2.1106;
472.8000;0.6341;2.1057;
473.1000;0.6357;2.1106;
473.4000;0.6357;2.1155;
473.7000;0.6349;2.1130;
474.0000;0.6365;2.1106;
474.3000;0.6374;2.1032;
474.6000;0.6357;2.1106;
474.9000;0.6406;2.1204;
475.2000;0.6357;2.1130;
475.5000;0.6341;2.1057;
475.8000;0.6349;2.0958;
476.1000;0.6365;2.0909;
476.4000;0.6365;2.0909;
476.7000;0.6357;2.0983;
477.0000;0.6365;2.1106;
477.3000;0.6357;2.1180;
477.6000;0.6349;2.1155;
477.9000;0.6382;2.1229;
478.2000;0.6333;2.1081;
478.5000;0.6357;2.1106;
478.8000;0.6365;2.1106;
479.1000;0.6341;2.1106;
479.4000;0.6333;2.1106;
479.7000;0.6374;2.1155;
480.0000;0.6365;2.1155;
480.3000;0.6300;2.1032;
480.6000;0.6349;2.1204;
480.9000;0.6349;2.1155;
481.2000;0.6365;2.1180;
481.5000;0.6349;2.1130;
481.8000;0.6357;2.1155;
482.1000;0.6349;2.1130;
482.4000;0.6341;2.1081;
482.7000;0.6341;2.1007;
483.0000;0.6333;2.1057;
483.3000;0.6357;2.1130;
483.6000;0.6357;2.1130;
483.9000;0.6357;2.1130;
484.2000;0.6365;2.1180;
484.5000;0.6341;2.1007;
484.8000;0.6333;2.0934;
485.1000;0.6374;2.1032;
485.4000;0.6365;2.1130;
485.7000;0.6333;2.1081;
486.0000;0.6357;2.1130;
486.3000;0.6357;2.1106;
486.6000;0.6341;2.1106;
486.9000;0.6341;2.1106;
487.2000;0.6349;2.1130;
487.5000;0.6349;2.1106;
487.8000;0.6357;2.1032;
488.1000;0.6357;2.0934;
488.4000;0.6349;2.0983;
488.7000;0.6349;2.1007;
489.0000;0.6365;2.1032;
489.3000;0.6357;2.0983;
489.6000;0.6333;2.0934;
489.9000;0.6382;2.1106;
490.2000;0.6439;2.1278;
490.5000;0.6357;2.1081;
490.8000;0.6357;2.1180;
491.1000;0.6374;2.1229;
491.4000;0.6374;2.1253;
491.7000;0.6349;2.1155;
492.0000;0.6349;2.1057;
492.3000;0.6349;2.1057;
492.6000;0.6333;2.0958;
492.9000;0.6357;2.0884;
493.2000;0.6292;2.0712;
493.5000;0.6341;2.0811;
493.8000;0.6349;2.0860;
494.1000;0.6349;2.0909;
494.4000;0.6333;2.0860;
494.7000;0.6349;2.0811;
495.0000;0.6341;2.0835;
495.3000;0.6300;2.0811;
495.6000;0.6357;2.1106;
495.9000;0.6349;2.1081;
496.2000;0.6357;2.1155;
496.5000;0.6325;2.1130;
496.8000;0.6284;2.0934;
497.1000;0.6341;2.1081;
497.4000;0.6309;2.0934;
497.7000;0.6341;2.1081;
498.0000;0.6374;2.1155;
498.3000;0.6414;2.1303;
498.6000;0.6341;2.1130;
498.9000;0.6341;2.1081;
499.2000;0.6333;2.1229;
499.5000;0.6325;2.1106;
499.8000;0.6341;2.1106;
500.1000;0.6357;2.1155;
500.4000;0.6382;2.1229;
500.7000;0.6349;2.1229;
501.0000;0.6349;2.1229;
501.3000;0.6349;2.1204;
501.6000;0.6341;2.1204;
501.9000;0.6357;2.1253;
502.2000;0.6341;2.1253;
502.5000;0.6349;2.1229;
502.8000;0.6357;2.1278;
503.1000;0.6357;2.1229;
503.4000;0.6300;2.1057;
503.7000;0.6357;2.1155;
504.0000;0.6357;2.1204;
504.3000;0.6349;2.1229;
504.6000;0.6349;2.1253;
504.9000;0.6309;2.1180;
505.2000;0.6365;2.1303;
505.5000;0.6422;2.1376;
505.8000;0.6382;2.1303;
506.1000;0.6357;2.1253;
506.4000;0.6349;2.1204;
506.7000;0.6357;2.1155;
507.0000;0.6349;2.1180;
507.3000;0.6349;2.1180;
507.6000;0.6341;2.1155;
507.9000;0.6349;2.1106;
508.2000;0.6349;2.1130;
508.5000;0.6341;2.1180;
508.8000;0.6349;2.1204;
509.1000;0.6365;2.1155;
509.4000;0.6341;2.1057;
509.7000;0.6357;2.1057;
510.0000;0.6374;2.1155;
510.3000;0.6349;2.1081;
510.6000;0.6349;2.1007;
510.9000;0.6333;2.1032;
511.2000;0.6333;2.1032;
511.5000;0.6333;2.1032;
511.8000;0.6349;2.1032;
512.1000;0.6341;2.1081;
512.4000;0.6349;2.1007;
512.7000;0.6341;2.1106;
513.0000;0.6341;2.1106;
513.3000;0.6341;2.1007;
513.6000;0.6325;2.1007;
513.9000;0.6365;2.1106;
514.2000;0.6284;2.0934;
514.5000;0.6382;2.1204;
514.8000;0.6357;2.1204;
515.1000;0.6333;2.1229;
515.4000;0.6357;2.1204;
515.7000;0.6292;2.1057;
516.0000;0.6333;2.1106;
516.3000;0.6309;2.1081;
516.6000;0.6341;2.1130;
516.9000;0.6309;2.1057;
517.2000;0.6357;2.1057;
517.5000;0.6333;2.0958;
517.8000;0.6357;2.1106;
518.1000;0.6333;2.1081;
518.4000;0.6349;2.1130;
518.7000;0.6333;2.1057;
519.0000;0.6341;2.1204;
519.3000;0.6341;2.1106;
519.6000;0.6349;2.1130;
519.9000;0.6333;2.1204;
520.2000;0.6333;2.1155;
520.5000;0.6357;2.1229;
520.8000;0.6374;2.1303;
521.1000;0.6325;2.1253;
521.4000;0.6349;2.1253;
521.7000;0.6349;2.1204;
522.0000;0.6341;2.1180;
522.3000;0.6349;2.1180;
522.6000;0.6341;2.1130;
522.9000;0.6357;2.1180;
523.2000;0.6406;2.1327;
523.5000;0.6349;2.1204;
523.8000;0.6333;2.1253;
524.1000;0.6341;2.1253;
524.4000;0.6365;2.1278;
524.7000;0.6333;2.1180;
525.0000;0.6333;2.1204;
525.3000;0.6349;2.1229;
525.6000;0.6349;2.1229;
525.9000;0.6341;2.1155;
526.2000;0.6333;2.1155;
526.5000;0.6325;2.1130;
526.8000;0.6341;2.1155;
527.1000;0.6341;2.1155;
527.4000;0.6365;2.1229;
527.7000;0.6341;2.1180;
528.0000;0.6349;2.1229;
528.3000;0.6349;2.1204;
528.6000;0.6341;2.1106;
528.9000;0.6284;2.0909;
529.2000;0.6341;2.1057;
529.5000;0.6333;2.1106;
529.8000;0.6341;2.1155;
530.1000;0.6333;2.1057;
530.4000;0.6349;2.1106;
530.7000;0.6309;2.0983;
531.0000;0.6341;2.1106;
531.3000;0.6341;2.1057;
531.6000;0.6341;2.0958;
531.9000;0.6333;2.0983;
532.2000;0.6341;2.1007;
532.5000;0.6333;2.1032;
532.8000;0.6292;2.0983;
533.1000;0.6341;2.1253;
533.4000;0.6365;2.1303;
533.7000;0.6357;2.1376;
534.0000;0.6349;2.1253;
534.3000;0.6341;2.1253;
534.6000;0.6341;2.1130;
534.9000;0.6349;2.1155;
535.2000;0.6333;2.1130;
535.5000;0.6268;2.1007;
535.8000;0.6341;2.1130;
536.1000;0.6349;2.1229;
536.4000;0.6325;2.1180;
536.7000;0.6341;2.1180;
537.0000;0.6349;2.1253;
537.3000;0.6341;2.1278;
537.6000;0.6333;2.1229;
537.9000;0.6349;2.1229;
538.2000;0.6365;2.1303;
538.5000;0.6341;2.1155;
538.8000;0.6284;2.0983;
539.1000;0.6284;2.0884;
539.4000;0.6341;2.1032;
539.7000;0.6309;2.0909;
540.0000;0.6414;2.1180;
540.3000;0.6309;2.0934;
540.6000;0.6333;2.0909;
540.9000;0.6309;2.0909;
541.2000;0.6341;2.0983;
541.5000;0.6349;2.1081;
541.8000;0.6333;2.0983;
542.1000;0.6333;2.1032;
542.4000;0.6333;2.1007;
542.7000;0.6333;2.1057;
543.0000;0.6317;2.1106;
543.3000;0.6325;2.1081;
543.6000;0.6341;2.1106;
543.9000;0.6349;2.1057;
544.2000;0.6341;2.1081;
544.5000;0.6325;2.1057;
544.8000;0.6341;2.1057;
545.1000;0.6341;2.1081;
545.4000;0.6317;2.1057;
545.7000;0.6325;2.1057;
546.0000;0.6406;2.1278;
546.3000;0.6317;2.1007;
546.6000;0.6317;2.1081;
546.9000;0.6333;2.1130;
547.2000;0.6333;2.1130;
547.5000;0.6333;2.1130;
547.8000;0.6333;2.1130;
548.1000;0.6317;2.1081;
548.4000;0.6325;2.1130;
548.7000;0.6341;2.1229;
549.0000;0.6349;2.1278;
549.3000;0.6341;2.1303;
549.6000;0.6349;2.1352;
549.9000;0.6341;2.1327;
550.2000;0.6398;2.1499;
550.5000;0.6349;2.1352;
550.8000;0.6357;2.1352;
551.1000;0.6357;2.1327;
551.4000;0.6390;2.1450;
551.7000;0.6357;2.1327;
552.0000;0.6382;2.1327;
552.3000;0.6333;2.1106;
552.6000;0.6374;2.1229;
552.9000;0.6333;2.1130;
553.2000;0.6325;2.1130;
553.5000;0.6325;2.1081;
553.8000;0.6325;2.1032;
554.1000;0.6333;2.1032;
554.4000;0.6374;2.1130;
554.7000;0.6349;2.1106;
555.0000;0.6325;2.1007;
555.3000;0.6333;2.1081;
555.6000;0.6317;2.1007;
555.9000;0.6325;2.1032;
556.2000;0.6341;2.0983;
556.5000;0.6317;2.0934;
556.8000;0.6341;2.0983;
557.1000;0.6341;2.0958;
557.4000;0.6374;2.1057;
557.7000;0.6284;2.0958;
558.0000;0.6333;2.1106;
558.3000;0.6349;2.1204;
558.6000;0.6325;2.1155;
558.9000;0.6341;2.1204;
559.2000;0.6349;2.1130;
559.5000;0.6300;2.1057;
559.8000;0.6317;2.1081;
560.1000;0.6349;2.1106;
560.4000;0.6357;2.1130;
560.7000;0.6317;2.0958;
561.0000;0.6325;2.1007;
561.3000;0.6365;2.1180;
561.6000;0.6325;2.1106;
561.9000;0.6333;2.1229;
562.2000;0.6341;2.1278;
562.5000;0.6357;2.1327;
562.8000;0.6349;2.1278;
563.1000;0.6341;2.1278;
563.4000;0.6341;2.1278;
563.7000;0.6325;2.1130;
564.0000;0.6333;2.1057;
564.3000;0.6341;2.1130;
564.6000;0.6317;2.1081;
564.9000;0.6333;2.1155;
565.2000;0.6333;2.1180;
565.5000;0.6341;2.1106;
565.8000;0.6333;2.1106;
566.1000;0.6333;2.1106;
566.4000;0.6365;2.1130;
566.7000;0.6390;2.1155;
567.0000;0.6341;2.1057;
567.3000;0.6333;2.1032;
567.6000;0.6333;2.1007;
567.9000;0.6390;2.1081;
568.2000;0.6333;2.1032;
568.5000;0.6317;2.1081;
568.8000;0.6292;2.1032;
569.1000;0.6325;2.1106;
569.4000;0.6374;2.1253;
569.7000;0.6300;2.1007;
570.0000;0.6260;2.0860;
570.3000;0.6349;2.1057;
570.6000;0.6349;2.1057;
570.9000;0.6317;2.1106;
571.2000;0.6317;2.1081;
571.5000;0.6309;2.1032;
571.8000;0.6341;2.1180;
572.1000;0.6341;2.1229;
572.4000;0.6349;2.1253;
572.7000;0.6333;2.1130;
573.0000;0.6333;2.1155;
573.3000;0.6317;2.1081;
573.6000;0.6325;2.1057;
573.9000;0.6349;2.1130;
574.2000;0.6325;2.1057;
574.5000;0.6317;2.1032;
574.8000;0.6325;2.0909;
575.1000;0.6325;2.0884;
575.4000;0.6317;2.0958;
575.7000;0.6333;2.1057;
576.0000;0.6317;2.0958;
576.3000;0.6309;2.0958;
576.6000;0.6333;2.1032;
576.9000;0.6325;2.1057;
577.2000;0.6349;2.1081;
577.5000;0.6325;2.1106;
577.8000;0.6325;2.1081;
578.1000;0.6333;2.1032;
578.4000;0.6325;2.0958;
578.7000;0.6422;2.1155;
579.0000;0.6341;2.1007;
579.3000;0.6300;2.1057;
579.6000;0.6317;2.1106;
579.9000;0.6325;2.1155;
580.2000;0.6300;2.1106;
580.5000;0.6349;2.1229;
580.8000;0.6325;2.1130;
581.1000;0.6317;2.1106;
581.4000;0.6292;2.1057;
581.7000;0.6325;2.1204;
582.0000;0.6300;2.1180;
582.3000;0.6325;2.1229;
582.6000;0.6309;2.1278;
582.9000;0.6325;2.1204;
583.2000;0.6333;2.1229;
583.5000;0.6349;2.1229;
583.8000;0.6325;2.1303;
584.1000;0.6333;2.1303;
584.4000;0.6325;2.1327;
584.7000;0.6333;2.1303;
585.0000;0.6333;2.1278;
585.3000;0.6317;2.1180;
585.6000;0.6365;2.1278;
585.9000;0.6325;2.1155;
586.2000;0.6325;2.1204;
586.5000;0.6325;2.1229;
586.8000;0.6268;2.1032;
587.1000;0.6317;2.1253;
587.4000;0.6317;2.1253;
587.7000;0.6268;2.1204;
588.0000;0.6317;2.1303;
588.3000;0.6325;2.1303;
588.6000;0.6333;2.1303;
588.9000;0.6317;2.1327;
589.2000;0.6300;2.1253;
589.5000;0.6317;2.1253;
589.8000;0.6309;2.1278;
590.1000;0.6268;2.1155;
590.4000;0.6317;2.1278;
590.7000;0.6309;2.1155;
591.0000;0.6317;2.1106;
591.3000;0.6300;2.1007;
591.6000;0.6300;2.1032;
591.9000;0.6325;2.1130;
592.2000;0.6325;2.1155;
592.5000;0.6317;2.1278;
592.8000;0.6341;2.1303;
593.1000;0.6300;2.1327;
593.4000;0.6333;2.1303;
593.7000;0.6349;2.1327;
594.0000;0.6325;2.1180;
594.3000;0.6325;2.1229;
594.6000;0.6341;2.1327;
594.9000;0.6333;2.1352;
595.2000;0.6325;2.1303;
595.5000;0.6325;2.1229;
595.8000;0.6317;2.1204;
596.1000;0.6325;2.1253;
596.4000;0.6333;2.1327;
596.7000;0.6317;2.1204;
597.0000;0.6309;2.1106;
597.3000;0.6349;2.1253;
597.6000;0.6317;2.1253;
597.9000;0.6349;2.1376;
598.2000;0.6333;2.1229;
598.5000;0.6292;2.1180;
598.8000;0.6341;2.1303;
599.1000;0.6357;2.1352;
599.4000;0.6309;2.1401;
599.7000;0.6325;2.1499;
600.0000;0.6325;2.1376;
600.3000;0.6317;2.1278;
600.6000;0.6260;2.1130;
600.9000;0.6211;2.1007;
601.2000;0.6113;2.0761;
601.5000;0.6024;2.0565;
601.8000;0.5934;2.0392;
602.1000;0.5845;2.0220;
602.4000;0.5763;2.0048;
602.7000;0.5682;1.9950;
603.0000;0.5592;1.9802;
603.3000;0.5543;1.9753;
603.6000;0.5527;1.9679;
603.9000;0.5421;1.9458;
604.2000;0.5364;1.9335;
604.5000;0.5315;1.9286;
604.8000;0.5267;1.9212;
605.1000;0.5226;1.9113;
605.4000;0.5169;1.9015;
605.7000;0.5136;1.8917;
606.0000;0.5120;1.8867;
606.3000;0.5088;1.8818;
606.6000;0.5031;1.8892;
606.9000;0.4990;1.8744;
607.2000;0.4965;1.8720;
607.5000;0.4965;1.8720;
607.8000;0.4900;1.8621;
608.1000;0.4908;1.8695;
608.4000;0.4892;1.8720;
608.7000;0.4892;1.8720;
609.0000;0.4860;1.8671;
609.3000;0.4884;1.8794;
609.6000;0.4811;1.8671;
609.9000;0.4803;1.8646;
610.2000;0.4819;1.8671;
610.5000;0.4770;1.8597;
610.8000;0.4737;1.8548;
611.1000;0.4689;1.8351;
611.4000;0.4713;1.8474;
611.7000;0.4705;1.8498;
612.0000;0.4664;1.8425;
612.3000;0.4754;1.8671;
612.6000;0.4664;1.8400;
612.9000;0.4664;1.8400;
613.2000;0.4640;1.8326;
613.5000;0.4615;1.8252;
613.8000;0.4624;1.8228;
614.1000;0.4615;1.8179;
614.4000;0.4615;1.8252;
614.7000;0.4526;1.8031;
615.0000;0.4599;1.8228;
615.3000;0.4591;1.8179;
615.6000;0.4567;1.8129;
615.9000;0.4550;1.8228;
616.2000;0.4567;1.8277;
616.5000;0.4550;1.8228;
616.8000;0.4542;1.8302;
617.1000;0.4518;1.8154;
617.4000;0.4518;1.8105;
617.7000;0.4493;1.8105;
618.0000;0.4501;1.8179;
618.3000;0.4493;1.8203;
618.6000;0.4469;1.8129;
618.9000;0.4493;1.8154;
619.2000;0.4469;1.8105;
619.5000;0.4485;1.8179;
619.8000;0.4461;1.8129;
620.1000;0.4469;1.8129;
620.4000;0.4461;1.8228;
620.7000;0.4428;1.8105;
621.0000;0.4477;1.8228;
621.3000;0.4420;1.8154;
621.6000;0.4436;1.8277;
621.9000;0.4412;1.8375;
622.2000;0.4436;1.8449;
622.5000;0.4404;1.8351;
622.8000;0.4396;1.8326;
623.1000;0.4396;1.8326;
623.4000;0.4404;1.8277;
623.7000;0.4379;1.8252;
624.0000;0.4371;1.8179;
624.3000;0.4371;1.8129;
624.6000;0.4347;1.8056;
624.9000;0.4371;1.8179;
625.2000;0.4371;1.8203;
625.5000;0.4355;1.8179;
625.8000;0.4339;1.8154;
626.1000;0.4363;1.8252;
626.4000;0.4339;1.8203;
626.7000;0.4339;1.8129;
627.0000;0.4330;1.8105;
627.3000;0.4330;1.8129;
627.6000;0.4306;1.8129;
627.9000;0.4322;1.8252;
628.2000;0.4330;1.8326;
628.5000;0.4298;1.8228;
628.8000;0.4322;1.8351;
629.1000;0.4306;1.8302;
629.4000;0.4330;1.8375;
629.7000;0.4314;1.8351;
630.0000;0.4306;1.8375;
630.3000;0.4298;1.8400;
630.6000;0.4282;1.8375;
630.9000;0.4274;1.8302;
631.2000;0.4339;1.8449;
631.5000;0.4265;1.8252;
631.8000;0.4274;1.8326;
632.1000;0.4290;1.8351;
632.4000;0.4265;1.8154;
632.7000;0.4265;1.8129;
633.0000;0.4282;1.8129;
633.3000;0.4265;1.8105;
633.6000;0.4249;1.8129;
633.9000;0.4257;1.8203;
634.2000;0.4249;1.8129;
634.5000;0.4249;1.8179;
634.8000;0.4233;1.8129;
635.1000;0.4241;1.8203;
635.4000;0.4241;1.8154;
635.7000;0.4265;1.8179;
636.0000;0.4225;1.8129;
636.3000;0.4225;1.8179;
636.6000;0.4241;1.8252;
636.9000;0.4168;1.8031;
637.2000;0.4225;1.8252;
637.5000;0.4217;1.8228;
637.8000;0.4265;1.8302;
638.1000;0.4225;1.8179;
638.4000;0.4225;1.8179;
638.7000;0.4217;1.8105;
639.0000;0.4192;1.8056;
639.3000;0.4217;1.8105;
639.6000;0.4208;1.8129;
639.9000;0.4208;1.8056;
640.2000;0.4200;1.8080;
640.5000;0.4225;1.8031;
640.8000;0.4200;1.8031;
641.1000;0.4200;1.8080;
641.4000;0.4200;1.8154;
641.7000;0.4208;1.8326;
642.0000;0.4192;1.8302;
642.3000;0.4192;1.8302;
642.6000;0.4192;1.8252;
642.9000;0.4168;1.8252;
643.2000;0.4200;1.8326;
643.5000;0.4200;1.8326;
643.8000;0.4184;1.8252;
644.1000;0.4176;1.8228;
644.4000;0.4176;1.8228;
644.7000;0.4168;1.8228;
645.0000;0.4160;1.8203;
645.3000;0.4143;1.8203;
645.6000;0.4176;1.8228;
645.9000;0.4160;1.8203;
646.2000;0.4160;1.8203;
646.5000;0.4143;1.8179;
646.8000;0.4119;1.8179;
647.1000;0.4160;1.8228;
647.4000;0.4143;1.8228;
647.7000;0.4168;1.8302;
648.0000;0.4192;1.8425;
648.3000;0.4127;1.8277;
648.6000;0.4143;1.8351;
648.9000;0.4078;1.8154;
649.2000;0.4094;1.8179;
649.5000;0.4151;1.8302;
649.8000;0.4151;1.8228;
650.1000;0.4127;1.8179;
650.4000;0.4119;1.8228;
650.7000;0.4135;1.8302;
651.0000;0.4054;1.8080;
651.3000;0.4094;1.8228;
651.6000;0.4103;1.8252;
651.9000;0.4078;1.8154;
652.2000;0.4119;1.8228;
652.5000;0.4078;1.8154;
652.8000;0.4111;1.8228;
653.1000;0.4103;1.8154;
653.4000;0.4103;1.8179;
653.7000;0.4160;1.8425;
654.0000;0.4094;1.8326;
654.3000;0.4111;1.8375;
654.6000;0.4103;1.8326;
654.9000;0.4094;1.8326;
655.2000;0.4111;1.8326;
655.5000;0.4078;1.8302;
655.8000;0.4086;1.8351;
656.1000;0.4119;1.8400;
656.4000;0.4086;1.8277;
656.7000;0.4111;1.8277;
657.0000;0.4086;1.8228;
657.3000;0.4103;1.8326;
657.6000;0.4070;1.8302;
657.9000;0.4094;1.8425;
658.2000;0.4078;1.8400;
658.5000;0.4086;1.8326;
658.8000;0.4111;1.8375;
659.1000;0.4054;1.8326;
659.4000;0.4062;1.8425;
659.7000;0.4086;1.8449;
660.0000;0.4086;1.8425;
660.3000;0.4078;1.8375;
660.6000;0.4037;1.8302;
660.9000;0.4094;1.8375;
661.2000;0.4070;1.8326;
661.5000;0.4070;1.8425;
661.8000;0.4054;1.8449;
662.1000;0.4046;1.8474;
662.4000;0.4070;1.8425;
662.7000;0.4062;1.8375;
663.0000;0.4037;1.8351;
663.3000;0.4037;1.8179;
663.6000;0.4054;1.8252;
663.9000;0.4086;1.8351;
664.2000;0.4062;1.8302;
664.5000;0.4021;1.8203;
664.8000;0.4046;1.8228;
665.1000;0.4046;1.8326;
665.4000;0.4037;1.8302;
665.7000;0.4037;1.8302;
666.0000;0.4037;1.8449;
666.3000;0.4054;1.8474;
666.6000;0.4037;1.8400;
666.9000;0.4005;1.8277;
667.2000;0.4029;1.8326;
667.5000;0.3989;1.8277;
667.8000;0.4046;1.8449;
668.1000;0.4037;1.8474;
668.4000;0.3989;1.8326;
668.7000;0.4021;1.8449;
669.0000;0.4013;1.8400;
669.3000;0.4078;1.8597;
669.6000;0.4013;1.8425;
669.9000;0.4062;1.8474;
670.2000;0.4046;1.8375;
670.5000;0.3997;1.8302;
670.8000;0.4013;1.8375;
671.1000;0.4021;1.8449;
671.4000;0.4046;1.8474;
671.7000;0.4029;1.8400;
672.0000;0.4013;1.8375;
672.3000;0.4021;1.8252;
672.6000;0.4029;1.8277;
672.9000;0.4054;1.8375;
673.2000;0.4021;1.8252;
673.5000;0.4021;1.8277;
673.8000;0.3972;1.8179;
674.1000;0.4013;1.8375;
674.4000;0.4013;1.8375;
674.7000;0.4005;1.8326;
675.0000;0.4013;1.8351;
675.3000;0.4037;1.8449;
675.6000;0.4005;1.8326;
675.9000;0.4021;1.8425;
676.2000;0.4013;1.8425;
676.5000;0.3989;1.8302;
676.8000;0.3980;1.8351;
677.1000;0.3997;1.8326;
677.4000;0.4037;1.8326;
677.7000;0.4013;1.8252;
678.0000;0.3989;1.8154;
678.3000;0.3989;1.8080;
678.6000;0.3997;1.8129;
678.9000;0.3997;1.8179;
679.2000;0.3997;1.8228;
679.5000;0.3980;1.8203;
679.8000;0.3989;1.8326;
680.1000;0.3972;1.8228;
680.4000;0.3997;1.8326;
680.7000;0.3964;1.8351;
681.0000;0.3980;1.8375;
681.3000;0.3972;1.8375;
681.6000;0.3972;1.8351;
681.9000;0.3980;1.8449;
682.2000;0.3980;1.8400;
682.5000;0.3980;1.8425;
682.8000;0.3964;1.8498;
683.1000;0.3980;1.8523;
683.4000;0.3948;1.8474;
683.7000;0.3989;1.8449;
684.0000;0.3980;1.8400;
684.3000;0.3972;1.8375;
684.6000;0.3972;1.8425;
684.9000;0.3964;1.8425;
685.2000;0.3972;1.8548;
685.5000;0.3989;1.8597;
685.8000;0.3972;1.8572;
686.1000;0.3964;1.8572;
686.4000;0.3972;1.8572;
686.7000;0.3964;1.8523;
687.0000;0.3972;1.8498;
687.3000;0.3948;1.8400;
687.6000;0.3948;1.8425;
687.9000;0.3964;1.8425;
688.2000;0.3956;1.8375;
688.5000;0.3923;1.8277;
688.8000;0.3940;1.8351;
689.1000;0.3948;1.8375;
689.4000;0.3997;1.8474;
689.7000;0.3907;1.8302;
690.0000;0.3940;1.8375;
690.3000;0.3932;1.8498;
690.6000;0.3940;1.8474;
690.9000;0.3964;1.8474;
691.2000;0.3940;1.8474;
691.5000;0.3948;1.8523;
691.8000;0.3915;1.8375;
692.1000;0.3964;1.8425;
692.4000;0.3972;1.8425;
692.7000;0.3932;1.8302;
693.0000;0.3932;1.8277;
693.3000;0.3940;1.8277;
693.6000;0.3932;1.8228;
693.9000;0.3923;1.8179;
694.2000;0.3948;1.8277;
694.5000;0.3972;1.8302;
694.8000;0.3940;1.8203;
695.1000;0.3907;1.8154;
695.4000;0.3948;1.8302;
695.7000;0.3932;1.8277;
696.0000;0.3932;1.8326;
696.3000;0.3923;1.8351;
696.6000;0.3915;1.8375;
696.9000;0.3940;1.8351;
697.2000;0.3915;1.8326;
697.5000;0.3923;1.8425;
697.8000;0.3932;1.8375;
698.1000;0.3915;1.8375;
698.4000;0.3923;1.8351;
698.7000;0.3923;1.8277;
699.0000;0.3907;1.8252;
699.3000;0.3923;1.8277;
699.6000;0.3899;1.8351;
699.9000;0.3932;1.8400;
700.2000;0.3899;1.8351;
700.5000;0.3907;1.8400;
700.8000;0.3915;1.8400;
701.1000;0.3915;1.8400;
701.4000;0.3899;1.8326;
701.7000;0.3891;1.8351;
702.0000;0.3907;1.8277;
702.3000;0.3915;1.8228;
702.6000;0.3907;1.8252;
702.9000;0.3899;1.8302;
703.2000;0.3907;1.8326;
703.5000;0.3915;1.8302;
703.8000;0.3907;1.8277;
704.1000;0.3899;1.8228;
704.4000;0.3907;1.8302;
704.7000;0.3915;1.8425;
705.0000;0.3907;1.8425;
705.3000;0.3940;1.8474;
705.6000;0.3923;1.8425;
705.9000;0.3907;1.8400;
706.2000;0.3899;1.8400;
706.5000;0.3899;1.8425;
706.8000;0.3907;1.8449;
707.1000;0.3891;1.8400;
707.4000;0.3891;1.8375;
707.7000;0.3915;1.8572;
708.0000;0.3899;1.8474;
708.3000;0.3972;1.8548;
708.6000;0.3907;1.8375;
708.9000;0.3883;1.8277;
709.2000;0.3899;1.8252;
709.5000;0.3883;1.8179;
709.8000;0.3883;1.8203;
710.1000;0.3923;1.8277;
710.4000;0.3850;1.8228;
710.7000;0.3899;1.8326;
711.0000;0.3875;1.8252;
711.3000;0.3891;1.8302;
711.6000;0.3875;1.8228;
711.9000;0.3891;1.8277;
712.2000;0.3891;1.8375;
712.5000;0.3883;1.8326;
712.8000;0.3907;1.8375;
713.1000;0.3867;1.8326;
713.4000;0.3907;1.8474;
713.7000;0.3899;1.8375;
714.0000;0.3834;1.8228;
714.3000;0.3867;1.8277;
714.6000;0.3850;1.8203;
714.9000;0.3875;1.8105;
715.2000;0.3875;1.8129;
715.5000;0.3899;1.8203;
715.8000;0.3891;1.8129;
716.1000;0.3858;1.8080;
716.4000;0.3883;1.8105;
716.7000;0.3858;1.8056;
717.0000;0.3875;1.8006;
717.3000;0.3883;1.8031;
717.6000;0.3875;1.8006;
717.9000;0.3867;1.7982;
718.2000;0.3883;1.8179;
718.5000;0.3875;1.8252;
718.8000;0.3883;1.8277;
719.1000;0.3867;1.8302;
719.4000;0.3850;1.8252;
719.7000;0.3891;1.8375;
720.0000;0.3867;1.8351;
720.3000;0.3875;1.8302;
720.6000;0.3867;1.8302;
720.9000;0.3858;1.8351;
721.2000;0.3867;1.8449;
721.5000;0.3867;1.8375;
721.8000;0.3858;1.8449;
722.1000;0.3858;1.8449;
722.4000;0.3858;1.8449;
722.7000;0.3875;1.8523;
723.0000;0.3858;1.8498;
723.3000;0.3858;1.8498;
723.6000;0.3858;1.8474;
723.9000;0.3867;1.8498;
724.2000;0.3867;1.8498;
724.5000;0.3867;1.8449;
724.8000;0.3850;1.8449;
725.1000;0.3883;1.8523;
725.4000;0.3850;1.8449;
725.7000;0.3842;1.8425;
726.0000;0.3834;1.8400;
726.3000;0.3850;1.8375;
726.6000;0.3997;1.8720;
726.9000;0.3850;1.8326;
727.2000;0.3850;1.8302;
727.5000;0.3875;1.8400;
727.8000;0.3858;1.8400;
728.1000;0.3850;1.8474;
728.4000;0.3883;1.8572;
728.7000;0.3858;1.8572;
729.0000;0.3850;1.8498;
729.3000;0.3867;1.8548;
729.6000;0.3858;1.8449;
729.9000;0.3842;1.8425;
730.2000;0.3858;1.8425;
730.5000;0.3867;1.8400;
730.8000;0.3842;1.8375;
731.1000;0.3850;1.8351;
731.4000;0.3842;1.8375;
731.7000;0.3850;1.8375;
732.0000;0.3818;1.8302;
732.3000;0.3858;1.8400;
732.6000;0.3850;1.8425;
732.9000;0.3858;1.8523;
733.2000;0.3810;1.8351;
733.5000;0.3834;1.8449;
733.8000;0.3850;1.8548;
734.1000;0.3850;1.8498;
734.4000;0.3858;1.8449;
734.7000;0.3842;1.8326;
735.0000;0.3875;1.8425;
735.3000;0.3834;1.8326;
735.6000;0.3826;1.8277;
735.9000;0.3834;1.8302;
736.2000;0.3842;1.8375;
736.5000;0.3826;1.8252;
736.8000;0.3842;1.8302;
737.1000;0.3826;1.8252;
737.4000;0.3801;1.8203;
737.7000;0.3818;1.8326;
738.0000;0.3793;1.8179;
738.3000;0.3842;1.8326;
738.6000;0.3793;1.8228;
738.9000;0.3858;1.8351;
739.2000;0.3842;1.8302;
739.5000;0.3744;1.7982;
739.8000;0.3834;1.8179;
740.1000;0.3826;1.8277;
740.4000;0.3834;1.8277;
740.7000;0.3801;1.8203;
741.0000;0.3842;1.8375;
741.3000;0.3842;1.8425;
741.6000;0.3834;1.8400;
741.9000;0.3842;1.8425;
742.2000;0.3818;1.8375;
742.5000;0.3793;1.8351;
742.8000;0.3834;1.8498;
743.1000;0.3818;1.8498;
743.4000;0.3810;1.8523;
743.7000;0.3818;1.8548;
744.0000;0.3842;1.8695;
744.3000;0.3826;1.8695;
744.6000;0.3883;1.8917;
744.9000;0.3777;1.8720;
745.2000;0.3826;1.8794;
745.5000;0.3810;1.8720;
745.8000;0.3801;1.8720;
746.1000;0.3810;1.8720;
746.4000;0.3801;1.8671;
746.7000;0.3818;1.8671;
747.0000;0.3875;1.8720;
747.3000;0.3810;1.8498;
747.6000;0.3810;1.8548;
747.9000;0.3818;1.8572;
748.2000;0.3826;1.8621;
748.5000;0.3810;1.8621;
748.8000;0.3818;1.8597;
749.1000;0.3834;1.8621;
749.4000;0.3842;1.8572;
749.7000;0.3834;1.8474;
750.0000;0.3793;1.8425;
750.3000;0.3850;1.8523;
750.6000;0.3858;1.8621;
750.9000;0.3834;1.8572;
751.2000;0.3785;1.8449;
751.5000;0.3810;1.8548;
751.8000;0.3810;1.8523;
752.1000;0.3810;1.8572;
752.4000;0.3801;1.8572;
752.7000;0.3826;1.8597;
753.0000;0.3818;1.8597;
753.3000;0.3785;1.8523;
753.6000;0.3793;1.8523;
753.9000;0.3818;1.8597;
754.2000;0.3753;1.8474;
754.5000;0.3818;1.8597;
754.8000;0.3793;1.8523;
755.1000;0.3769;1.8523;
755.4000;0.3818;1.8523;
755.7000;0.3801;1.8400;
756.0000;0.3793;1.8400;
756.3000;0.3801;1.8425;
756.6000;0.3793;1.8375;
756.9000;0.3801;1.8375;
757.2000;0.3818;1.8400;
757.5000;0.3793;1.8375;
757.8000;0.3777;1.8326;
758.1000;0.3785;1.8351;
758.4000;0.3793;1.8228;
758.7000;0.3793;1.8179;
759.0000;0.3810;1.8228;
759.3000;0.3761;1.8228;
759.6000;0.3810;1.8375;
759.9000;0.3785;1.8302;
760.2000;0.3793;1.8449;
760.5000;0.3777;1.8474;
760.8000;0.3810;1.8523;
761.1000;0.3793;1.8474;
761.4000;0.3744;1.8400;
761.7000;0.3736;1.8400;
762.0000;0.3801;1.8572;
762.3000;0.3801;1.8523;
762.6000;0.3793;1.8498;
762.9000;0.3769;1.8548;
763.2000;0.3793;1.8548;
763.5000;0.3858;1.8695;
763.8000;0.3793;1.8474;
764.1000;0.3785;1.8425;
764.4000;0.3834;1.8523;
764.7000;0.3801;1.8498;
765.0000;0.3777;1.8523;
765.3000;0.3761;1.8498;
765.6000;0.3777;1.8646;
765.9000;0.3785;1.8621;
766.2000;0.3777;1.8572;
766.5000;0.3793;1.8597;
766.8000;0.3785;1.8572;
767.1000;0.3793;1.8548;
767.4000;0.3777;1.8548;
767.7000;0.3777;1.8449;
768.0000;0.3777;1.8449;
768.3000;0.3785;1.8572;
768.6000;0.3842;1.8671;
768.9000;0.3793;1.8548;
769.2000;0.3769;1.8474;
769.5000;0.3753;1.8449;
769.8000;0.3785;1.8474;
770.1000;0.3785;1.8449;
770.4000;0.3785;1.8449;
770.7000;0.3769;1.8449;
771.0000;0.3769;1.8474;
771.3000;0.3736;1.8375;
771.6000;0.3834;1.8548;
771.9000;0.3777;1.8351;
772.2000;0.3761;1.8326;
772.5000;0.3777;1.8375;
772.8000;0.3777;1.8351;
773.1000;0.3777;1.8425;
773.4000;0.3785;1.8498;
773.7000;0.3793;1.8474;
774.0000;0.3777;1.8302;
774.3000;0.3785;1.8326;
774.6000;0.3785;1.8375;
774.9000;0.3777;1.8425;
775.2000;0.3777;1.8474;
775.5000;0.3753;1.8498;
775.8000;0.3761;1.8498;
776.1000;0.3761;1.8498;
776.4000;0.3720;1.8400;
776.7000;0.3785;1.8498;
777.0000;0.3753;1.8498;
777.3000;0.3777;1.8572;
777.6000;0.3785;1.8548;
777.9000;0.3769;1.8572;
778.2000;0.3785;1.8597;
778.5000;0.3785;1.8597;
778.8000;0.3777;1.8548;
779.1000;0.3785;1.8548;
779.4000;0.3761;1.8449;
779.7000;0.3801;1.8572;
780.0000;0.3769;1.8449;
780.3000;0.3753;1.8449;
780.6000;0.3769;1.8400;
780.9000;0.3761;1.8400;
781.2000;0.3753;1.8425;
781.5000;0.3777;1.8498;
781.8000;0.3744;1.8474;
782.1000;0.3761;1.8572;
782.4000;0.3744;1.8572;
782.7000;0.3769;1.8646;
783.0000;0.3753;1.8548;
783.3000;0.3793;1.8671;
783.6000;0.3744;1.8597;
783.9000;0.3777;1.8621;
784.2000;0.3753;1.8523;
784.5000;0.3801;1.8597;
784.8000;0.3753;1.8548;
785.1000;0.3785;1.8572;
785.4000;0.3818;1.8695;
785.7000;0.3753;1.8498;
786.0000;0.3761;1.8498;
786.3000;0.3818;1.8621;
786.6000;0.3728;1.8400;
786.9000;0.3785;1.8572;
787.2000;0.3769;1.8523;
787.5000;0.3769;1.8572;
787.8000;0.3769;1.8548;
788.1000;0.3761;1.8548;
788.4000;0.3753;1.8548;
788.7000;0.3769;1.8548;
789.0000;0.3785;1.8548;
789.3000;0.3744;1.8523;
789.6000;0.3744;1.8498;
789.9000;0.3761;1.8548;
790.2000;0.3744;1.8474;
790.5000;0.3769;1.8548;
790.8000;0.3761;1.8474;
791.1000;0.3761;1.8572;
791.4000;0.3769;1.8548;
791.7000;0.3761;1.8548;
792.0000;0.3761;1.8523;
792.3000;0.3761;1.8498;
792.6000;0.3761;1.8548;
792.9000;0.3761;1.8498;
793.2000;0.3736;1.8400;
793.5000;0.3761;1.8449;
793.8000;0.3753;1.8400;
794.1000;0.3761;1.8375;
794.4000;0.3736;1.8375;
794.7000;0.3753;1.8351;
795.0000;0.3736;1.8351;
795.3000;0.3769;1.8474;
795.6000;0.3736;1.8375;
795.9000;0.3744;1.8351;
796.2000;0.3810;1.8548;
796.5000;0.3744;1.8375;
796.8000;0.3744;1.8375;
797.1000;0.3736;1.8474;
797.4000;0.3736;1.8474;
797.7000;0.3753;1.8548;
798.0000;0.3744;1.8572;
798.3000;0.3761;1.8572;
798.6000;0.3744;1.8572;
798.9000;0.3744;1.8548;
799.2000;0.3753;1.8572;
799.5000;0.3753;1.8572;
799.8000;0.3744;1.8597;
800.1000;0.3744;1.8572;
800.4000;0.3736;1.8621;
800.7000;0.3720;1.8548;
801.0000;0.3712;1.8572;
801.3000;0.3687;1.8474;
801.6000;0.3744;1.8621;
801.9000;0.3736;1.8548;
802.2000;0.3712;1.8523;
802.5000;0.3736;1.8646;
802.8000;0.3712;1.8498;
803.1000;0.3744;1.8572;
803.4000;0.3744;1.8597;
803.7000;0.3769;1.8597;
804.0000;0.3744;1.8646;
804.3000;0.3720;1.8498;
804.6000;0.3736;1.8572;
804.9000;0.3720;1.8572;
805.2000;0.3744;1.8548;
805.5000;0.3712;1.8498;
805.8000;0.3736;1.8621;
806.1000;0.3761;1.8621;
806.4000;0.3736;1.8572;
806.7000;0.3769;1.8671;
807.0000;0.3769;1.8621;
807.3000;0.3744;1.8523;
807.6000;0.3712;1.8449;
807.9000;0.3712;1.8400;
808.2000;0.3769;1.8548;
808.5000;0.3671;1.8326;
808.8000;0.3744;1.8523;
809.1000;0.3696;1.8375;
809.4000;0.3736;1.8498;
809.7000;0.3744;1.8498;
810.0000;0.3785;1.8523;
810.3000;0.3761;1.8498;
810.6000;0.3736;1.8474;
810.9000;0.3728;1.8425;
811.2000;0.3736;1.8449;
811.5000;0.3736;1.8548;
811.8000;0.3753;1.8597;
812.1000;0.3728;1.8597;
812.4000;0.3736;1.8597;
812.7000;0.3728;1.8671;
813.0000;0.3744;1.8744;
813.3000;0.3753;1.8695;
813.6000;0.3736;1.8621;
813.9000;0.3736;1.8621;
814.2000;0.3736;1.8646;
814.5000;0.3736;1.8621;
814.8000;0.3728;1.8695;
815.1000;0.3728;1.8621;
815.4000;0.3728;1.8646;
815.7000;0.3736;1.8671;
816.0000;0.3753;1.8671;
816.3000;0.3728;1.8621;
816.6000;0.3728;1.8621;
816.9000;0.3736;1.8572;
817.2000;0.3728;1.8597;
817.5000;0.3720;1.8523;
817.8000;0.3761;1.8621;
818.1000;0.3736;1.8548;
818.4000;0.3728;1.8498;
818.7000;0.3720;1.8400;
819.0000;0.3736;1.8523;
819.3000;0.3761;1.8646;
819.6000;0.3728;1.8597;
819.9000;0.3728;1.8548;
820.2000;0.3736;1.8572;
820.5000;0.3744;1.8523;
820.8000;0.3720;1.8498;
821.1000;0.3720;1.8572;
821.4000;0.3704;1.8523;
821.7000;0.3736;1.8498;
822.0000;0.3744;1.8474;
822.3000;0.3736;1.8474;
822.6000;0.3736;1.8572;
822.9000;0.3728;1.8671;
823.2000;0.3687;1.8621;
823.5000;0.3736;1.8695;
823.8000;0.3728;1.8646;
824.1000;0.3720;1.8621;
824.4000;0.3696;1.8572;
824.7000;0.3736;1.8744;
825.0000;0.3736;1.8744;
825.3000;0.3720;1.8671;
825.6000;0.3736;1.8671;
825.9000;0.3736;1.8671;
826.2000;0.3712;1.8572;
826.5000;0.3736;1.8671;
826.8000;0.3728;1.8621;
827.1000;0.3720;1.8646;
827.4000;0.3728;1.8621;
827.7000;0.3720;1.8671;
828.0000;0.3712;1.8720;
828.3000;0.3728;1.8769;
828.6000;0.3720;1.8695;
828.9000;0.3728;1.8818;
829.2000;0.3696;1.8744;
829.5000;0.3736;1.8744;
829.8000;0.3704;1.8744;
830.1000;0.3696;1.8671;
830.4000;0.3720;1.8646;
830.7000;0.3720;1.8695;
831.0000;0.3696;1.8646;
831.3000;0.3720;1.8671;
831.6000;0.3736;1.8744;
831.9000;0.3687;1.8671;
832.2000;0.3720;1.8720;
832.5000;0.3712;1.8695;
832.8000;0.3744;1.8892;
833.1000;0.3736;1.8892;
833.4000;0.3712;1.8769;
833.7000;0.3720;1.8744;
834.0000;0.3728;1.8769;
834.3000;0.3728;1.8720;
834.6000;0.3728;1.8695;
834.9000;0.3720;1.8523;
835.2000;0.3736;1.8498;
835.5000;0.3712;1.8425;
835.8000;0.3728;1.8548;
836.1000;0.3736;1.8597;
836.4000;0.3696;1.8548;
836.7000;0.3704;1.8498;
837.0000;0.3704;1.8449;
837.3000;0.3712;1.8523;
837.6000;0.3736;1.8646;
837.9000;0.3704;1.8597;
838.2000;0.3687;1.8498;
838.5000;0.3712;1.8597;
838.8000;0.3720;1.8646;
839.1000;0.3704;1.8646;
839.4000;0.3712;1.8671;
839.7000;0.3720;1.8671;
840.0000;0.3712;1.8597;
840.3000;0.3712;1.8572;
840.6000;0.3639;1.8351;
840.9000;0.3736;1.8597;
841.2000;0.3712;1.8498;
841.5000;0.3704;1.8498;
841.8000;0.3696;1.8523;
842.1000;0.3712;1.8474;
842.4000;0.3704;1.8425;
842.7000;0.3720;1.8498;
843.0000;0.3687;1.8523;
843.3000;0.3720;1.8621;
843.6000;0.3696;1.8572;
843.9000;0.3704;1.8597;
844.2000;0.3712;1.8597;
844.5000;0.3712;1.8597;
844.8000;0.3704;1.8572;
845.1000;0.3728;1.8646;
845.4000;0.3728;1.8744;
845.7000;0.3712;1.8621;
846.0000;0.3704;1.8572;
846.3000;0.3712;1.8572;
846.6000;0.3720;1.8572;
846.9000;0.3704;1.8597;
847.2000;0.3720;1.8671;
847.5000;0.3704;1.8597;
847.8000;0.3696;1.8621;
848.1000;0.3704;1.8646;
848.4000;0.3712;1.8621;
848.7000;0.3639;1.8449;
849.0000;0.3728;1.8769;
849.3000;0.3712;1.8744;
849.6000;0.3728;1.8695;
849.9000;0.3720;1.8695;
850.2000;0.3704;1.8671;
850.5000;0.3696;1.8720;
850.8000;0.3696;1.8621;
851.1000;0.3704;1.8621;
851.4000;0.3720;1.8695;
851.7000;0.3712;1.8744;
852.0000;0.3712;1.8769;
852.3000;0.3712;1.8769;
852.6000;0.3736;1.8867;
852.9000;0.3712;1.8794;
853.2000;0.3696;1.8843;
853.5000;0.3712;1.8843;
853.8000;0.3696;1.8843;
854.1000;0.3712;1.8818;
854.4000;0.3720;1.8794;
854.7000;0.3630;1.8548;
855.0000;0.3712;1.8818;
855.3000;0.3671;1.8720;
855.6000;0.3663;1.8646;
855.9000;0.3696;1.8769;
856.2000;0.3671;1.8744;
856.5000;0.3696;1.8794;
856.8000;0.3696;1.8818;
857.1000;0.3696;1.8794;
857.4000;0.3712;1.8720;
857.7000;0.3696;1.8695;
858.0000;0.3687;1.8695;
858.3000;0.3712;1.8646;
858.6000;0.3720;1.8671;
858.9000;0.3720;1.8646;
859.2000;0.3712;1.8597;
859.5000;0.3720;1.8572;
859.8000;0.3696;1.8597;
860.1000;0.3704;1.8720;
860.4000;0.3720;1.8818;
860.7000;0.3704;1.8794;
861.0000;0.3696;1.8843;
861.3000;0.3704;1.8867;
861.6000;0.3728;1.8990;
861.9000;0.3696;1.8843;
862.2000;0.3696;1.8794;
862.5000;0.3704;1.8769;
862.8000;0.3704;1.8769;
863.1000;0.3728;1.8818;
863.4000;0.3696;1.8720;
863.7000;0.3679;1.8671;
864.0000;0.3712;1.8769;
864.3000;0.3696;1.8769;
864.6000;0.3704;1.8720;
864.9000;0.3639;1.8523;
865.2000;0.3720;1.8843;
865.5000;0.3696;1.8769;
865.8000;0.3696;1.8794;
866.1000;0.3696;1.8769;
866.4000;0.3704;1.8843;
866.7000;0.3696;1.8843;
867.0000;0.3704;1.8794;
867.3000;0.3687;1.8794;
867.6000;0.3679;1.8744;
867.9000;0.3687;1.8794;
868.2000;0.3679;1.8744;
868.5000;0.3687;1.8843;
868.8000;0.3687;1.8818;
869.1000;0.3704;1.8892;
869.4000;0.3712;1.8867;
869.7000;0.3704;1.8818;
870.0000;0.3696;1.8818;
870.3000;0.3687;1.8769;
870.6000;0.3728;1.8818;
870.9000;0.3712;1.8720;
871.2000;0.3704;1.8744;
871.5000;0.3704;1.8744;
871.8000;0.3687;1.8621;
872.1000;0.3655;1.8572;
872.4000;0.3769;1.8794;
872.7000;0.3704;1.8572;
873.0000;0.3712;1.8548;
873.3000;0.3687;1.8621;
873.6000;0.3696;1.8646;
873.9000;0.3687;1.8572;
874.2000;0.3687;1.8621;
874.5000;0.3696;1.8671;
874.8000;0.3671;1.8695;
875.1000;0.3704;1.8769;
875.4000;0.3687;1.8744;
875.7000;0.3704;1.8744;
876.0000;0.3720;1.8818;
876.3000;0.3663;1.8646;
876.6000;0.3687;1.8720;
876.9000;0.3647;1.8646;
877.2000;0.3671;1.8646;
877.5000;0.3582;1.8375;
877.8000;0.3712;1.8695;
878.1000;0.3671;1.8597;
878.4000;0.3679;1.8671;
878.7000;0.3679;1.8720;
879.0000;0.3671;1.8720;
879.3000;0.3679;1.8818;
879.6000;0.3769;1.9040;
879.9000;0.3696;1.8769;
880.2000;0.3663;1.8671;
880.5000;0.3687;1.8720;
880.8000;0.3671;1.8744;
881.1000;0.3696;1.8744;
881.4000;0.3696;1.8695;
881.7000;0.3671;1.8646;
882.0000;0.3704;1.8671;
882.3000;0.3704;1.8769;
882.6000;0.3696;1.8769;
882.9000;0.3647;1.8671;
883.2000;0.3679;1.8744;
883.5000;0.3696;1.8769;
883.8000;0.3712;1.8744;
884.1000;0.3679;1.8572;
884.4000;0.3696;1.8572;
884.7000;0.3704;1.8572;
885.0000;0.3687;1.8523;
885.3000;0.3687;1.8523;
885.6000;0.3696;1.8621;
885.9000;0.3687;1.8597;
886.2000;0.3679;1.8621;
886.5000;0.3671;1.8621;
886.8000;0.3679;1.8671;
887.1000;0.3679;1.8695;
887.4000;0.3687;1.8769;
887.7000;0.3704;1.8818;
888.0000;0.3679;1.8744;
888.3000;0.3704;1.8892;
888.6000;0.3671;1.8892;
888.9000;0.3687;1.8867;
889.2000;0.3671;1.8769;
889.5000;0.3671;1.8720;
889.8000;0.3704;1.8720;
890.1000;0.3687;1.8744;
890.4000;0.3679;1.8695;
890.7000;0.3687;1.8744;
891.0000;0.3687;1.8769;
891.3000;0.3679;1.8843;
891.6000;0.3630;1.8671;
891.9000;0.3679;1.8769;
892.2000;0.3704;1.8917;
892.5000;0.3679;1.8794;
892.8000;0.3679;1.8843;
893.1000;0.3687;1.8769;
893.4000;0.3622;1.8597;
893.7000;0.3679;1.8818;
894.0000;0.3671;1.8769;
894.3000;0.3663;1.8695;
894.6000;0.3696;1.8843;
894.9000;0.3687;1.8744;
895.2000;0.3679;1.8769;
895.5000;0.3696;1.8794;
895.8000;0.3687;1.8769;
896.1000;0.3679;1.8769;
896.4000;0.3679;1.8720;
896.7000;0.3663;1.8695;
897.0000;0.3679;1.8744;
897.3000;0.3663;1.8769;
897.6000;0.3671;1.8843;
897.9000;0.3655;1.8744;
898.2000;0.3728;1.8966;
898.5000;0.3679;1.8917;
898.8000;0.3696;1.8941;
899.1000;0.3679;1.8843;
899.4000;0.3687;1.8867;
899.7000;0.3687;1.8818;
900.0000;0.3671;1.8843;
900.3000;0.3663;1.8794;
900.6000;0.3696;1.8867;
900.9000;0.3671;1.8794;
901.2000;0.3679;1.8818;
901.5000;0.3614;1.8695;
901.8000;0.3671;1.8769;
902.1000;0.3671;1.8794;
902.4000;0.3671;1.8867;
902.7000;0.3671;1.8843;
903.0000;0.3639;1.8671;
903.3000;0.3712;1.8867;
903.6000;0.3679;1.8769;
903.9000;0.3696;1.8917;
904.2000;0.3679;1.8867;
904.5000;0.3671;1.8867;
904.8000;0.3687;1.8867;
905.1000;0.3696;1.8917;
905.4000;0.3696;1.8867;
905.7000;0.3679;1.8867;
906.0000;0.3679;1.8867;
906.3000;0.3696;1.8941;
906.6000;0.3696;1.8892;
906.9000;0.3663;1.8744;
907.2000;0.3663;1.8769;
907.5000;0.3671;1.8744;
907.8000;0.3655;1.8744;
908.1000;0.3679;1.8769;
908.4000;0.3696;1.8720;
908.7000;0.3687;1.8744;
909.0000;0.3655;1.8671;
909.3000;0.3655;1.8695;
909.6000;0.3679;1.8646;
909.9000;0.3663;1.8572;
910.2000;0.3679;1.8646;
910.5000;0.3671;1.8572;
910.8000;0.3736;1.8818;
911.1000;0.3663;1.8695;
911.4000;0.3663;1.8597;
911.7000;0.3671;1.8621;
912.0000;0.3655;1.8474;
912.3000;0.3663;1.8548;
912.6000;0.3663;1.8646;
912.9000;0.3671;1.8621;
913.2000;0.3655;1.8597;
913.5000;0.3679;1.8695;
913.8000;0.3671;1.8646;
914.1000;0.3647;1.8695;
914.4000;0.3671;1.8794;
914.7000;0.3728;1.8917;
915.0000;0.3671;1.8720;
915.3000;0.3687;1.8744;
915.6000;0.3704;1.8769;
915.9000;0.3671;1.8720;
916.2000;0.3736;1.8892;
916.5000;0.3696;1.8794;
916.8000;0.3679;1.8769;
917.1000;0.3671;1.8794;
917.4000;0.3647;1.8695;
917.7000;0.3671;1.8892;
918.0000;0.3671;1.8941;
918.3000;0.3687;1.8917;
918.6000;0.3704;1.8917;
918.9000;0.3679;1.8843;
919.2000;0.3696;1.8867;
919.5000;0.3671;1.8744;
919.8000;0.3687;1.8744;
920.1000;0.3663;1.8744;
920.4000;0.3671;1.8818;
920.7000;0.3687;1.8818;
921.0000;0.3671;1.8769;
921.3000;0.3663;1.8744;
921.6000;0.3671;1.8769;
921.9000;0.3671;1.8744;
922.2000;0.3630;1.8695;
922.5000;0.3655;1.8695;
922.8000;0.3663;1.8769;
923.1000;0.3663;1.8794;
923.4000;0.3696;1.8867;
923.7000;0.3655;1.8695;
924.0000;0.3655;1.8646;
924.3000;0.3647;1.8621;
924.6000;0.3712;1.8744;
924.9000;0.3663;1.8621;
925.2000;0.3663;1.8621;
925.5000;0.3655;1.8621;
925.8000;0.3655;1.8621;
926.1000;0.3671;1.8597;
926.4000;0.3671;1.8621;
926.7000;0.3679;1.8671;
927.0000;0.3679;1.8621;
927.3000;0.3663;1.8597;
927.6000;0.3663;1.8597;
927.9000;0.3712;1.8671;
928.2000;0.3671;1.8597;
928.5000;0.3679;1.8523;
928.8000;0.3663;1.8474;
929.1000;0.3663;1.8474;
929.4000;0.3671;1.8449;
929.7000;0.3655;1.8326;
930.0000;0.3647;1.8302;
930.3000;0.3663;1.8302;
930.6000;0.3663;1.8375;
930.9000;0.3663;1.8449;
931.2000;0.3679;1.8572;
931.5000;0.3671;1.8474;
931.8000;0.3622;1.8425;
932.1000;0.3663;1.8474;
932.4000;0.3671;1.8449;
932.7000;0.3598;1.8252;
933.0000;0.3671;1.8498;
933.3000;0.3696;1.8548;
933.6000;0.3655;1.8523;
933.9000;0.3663;1.8498;
934.2000;0.3679;1.8498;
934.5000;0.3647;1.8400;
934.8000;0.3671;1.8449;
935.1000;0.3647;1.8449;
935.4000;0.3630;1.8498;
935.7000;0.3655;1.8572;
936.0000;0.3647;1.8572;
936.3000;0.3647;1.8671;
936.6000;0.3663;1.8695;
936.9000;0.3647;1.8646;
937.2000;0.3598;1.8498;
937.5000;0.3647;1.8572;
937.8000;0.3647;1.8572;
938.1000;0.3655;1.8548;
938.4000;0.3671;1.8597;
938.7000;0.3647;1.8597;
939.0000;0.3655;1.8621;
939.3000;0.3728;1.8818;
939.6000;0.3606;1.8548;
939.9000;0.3655;1.8720;
940.2000;0.3655;1.8769;
940.5000;0.3639;1.8720;
940.8000;0.3647;1.8794;
941.1000;0.3671;1.8695;
941.4000;0.3663;1.8695;
941.7000;0.3696;1.8744;
942.0000;0.3655;1.8621;
942.3000;0.3679;1.8646;
942.6000;0.3647;1.8597;
942.9000;0.3671;1.8646;
943.2000;0.3679;1.8695;
943.5000;0.3679;1.8671;
943.8000;0.3639;1.8548;
944.1000;0.3671;1.8621;
944.4000;0.3671;1.8671;
944.7000;0.3647;1.8572;
945.0000;0.3671;1.8548;
945.3000;0.3647;1.8498;
945.6000;0.3655;1.8523;
945.9000;0.3663;1.8474;
946.2000;0.3671;1.8474;
946.5000;0.3663;1.8375;
946.8000;0.3663;1.8277;
947.1000;0.3663;1.8277;
947.4000;0.3663;1.8277;
947.7000;0.3655;1.8326;
948.0000;0.3647;1.8449;
948.3000;0.3655;1.8375;
948.6000;0.3679;1.8375;
948.9000;0.3663;1.8351;
949.2000;0.3655;1.8302;
949.5000;0.3663;1.8326;
949.8000;0.3639;1.8375;
950.1000;0.3655;1.8400;
950.4000;0.3663;1.8425;
950.7000;0.3679;1.8572;
951.0000;0.3655;1.8498;
951.3000;0.3647;1.8498;
951.6000;0.3647;1.8351;
951.9000;0.3614;1.8203;
952.2000;0.3671;1.8425;
952.5000;0.3671;1.8449;
952.8000;0.3679;1.8449;
953.1000;0.3663;1.8375;
953.4000;0.3679;1.8425;
953.7000;0.3655;1.8425;
954.0000;0.3647;1.8523;
954.3000;0.3630;1.8400;
954.6000;0.3639;1.8498;
954.9000;0.3663;1.8474;
955.2000;0.3663;1.8474;
955.5000;0.3655;1.8375;
955.8000;0.3655;1.8400;
956.1000;0.3671;1.8523;
956.4000;0.3655;1.8597;
956.7000;0.3663;1.8695;
957.0000;0.3671;1.8769;
957.3000;0.3663;1.8769;
957.6000;0.3671;1.8695;
957.9000;0.3647;1.8597;
958.2000;0.3671;1.8695;
958.5000;0.3655;1.8695;
958.8000;0.3704;1.8843;
959.1000;0.3671;1.8720;
959.4000;0.3671;1.8720;
959.7000;0.3639;1.8597;
960.0000;0.3647;1.8671;
960.3000;0.3671;1.8572;
960.6000;0.3639;1.8474;
960.9000;0.3647;1.8498;
961.2000;0.3614;1.8449;
961.5000;0.3655;1.8597;
961.8000;0.3655;1.8621;
962.1000;0.3687;1.8720;
962.4000;0.3655;1.8597;
962.7000;0.3655;1.8523;
963.0000;0.3655;1.8474;
963.3000;0.3663;1.8498;
963.6000;0.3655;1.8523;
963.9000;0.3687;1.8597;
964.2000;0.3647;1.8548;
964.5000;0.3687;1.8621;
964.8000;0.3663;1.8523;
965.1000;0.3655;1.8548;
965.4000;0.3655;1.8572;
965.7000;0.3663;1.8597;
966.0000;0.3687;1.8621;
966.3000;0.3630;1.8621;
966.6000;0.3655;1.8695;
966.9000;0.3671;1.8744;
967.2000;0.3655;1.8646;
967.5000;0.3655;1.8646;
967.8000;0.3663;1.8621;
968.1000;0.3655;1.8548;
968.4000;0.3655;1.8474;
968.7000;0.3622;1.8425;
969.0000;0.3671;1.8548;
969.3000;0.3655;1.8646;
969.6000;0.3655;1.8621;
969.9000;0.3679;1.8621;
970.2000;0.3639;1.8572;
970.5000;0.3647;1.8572;
970.8000;0.3647;1.8498;
971.1000;0.3639;1.8523;
971.4000;0.3655;1.8474;
971.7000;0.3679;1.8695;
972.0000;0.3630;1.8621;
972.3000;0.3655;1.8572;
972.6000;0.3606;1.8375;
972.9000;0.3687;1.8548;
973.2000;0.3655;1.8375;
973.5000;0.3655;1.8375;
973.8000;0.3663;1.8375;
974.1000;0.3647;1.8400;
974.4000;0.3655;1.8498;
974.7000;0.3639;1.8449;
975.0000;0.3647;1.8474;
975.3000;0.3671;1.8523;
975.6000;0.3647;1.8498;
975.9000;0.3647;1.8498;
976.2000;0.3647;1.8449;
976.5000;0.3655;1.8548;
976.8000;0.3679;1.8671;
977.1000;0.3647;1.8548;
977.4000;0.3671;1.8597;
977.7000;0.3663;1.8548;
978.0000;0.3647;1.8548;
978.3000;0.3622;1.8498;
978.6000;0.3655;1.8597;
978.9000;0.3663;1.8646;
979.2000;0.3671;1.8646;
979.5000;0.3655;1.8646;
979.8000;0.3655;1.8720;
980.1000;0.3663;1.8671;
980.4000;0.3671;1.8646;
980.7000;0.3647;1.8523;
981.0000;0.3655;1.8498;
981.3000;0.3655;1.8498;
981.6000;0.3687;1.8572;
981.9000;0.3663;1.8498;
982.2000;0.3663;1.8425;
982.5000;0.3639;1.8351;
982.8000;0.3663;1.8425;
983.1000;0.3663;1.8498;
983.4000;0.3663;1.8523;
983.7000;0.3655;1.8621;
984.0000;0.3671;1.8597;
984.3000;0.3712;1.8621;
984.6000;0.3630;1.8474;
984.9000;0.3647;1.8621;
985.2000;0.3671;1.8720;
985.5000;0.3647;1.8671;
985.8000;0.3655;1.8646;
986.1000;0.3647;1.8621;
986.4000;0.3647;1.8572;
986.7000;0.3663;1.8597;
987.0000;0.3639;1.8621;
987.3000;0.3663;1.8572;
987.6000;0.3696;1.8695;
987.9000;0.3663;1.8621;
988.2000;0.3671;1.8597;
988.5000;0.3671;1.8572;
988.8000;0.3663;1.8621;
989.1000;0.3647;1.8548;
989.4000;0.3647;1.8523;
989.7000;0.3639;1.8597;
990.0000;0.3647;1.8548;
990.3000;0.3647;1.8621;
990.6000;0.3655;1.8572;
990.9000;0.3647;1.8523;
991.2000;0.3671;1.8597;
991.5000;0.3671;1.8695;
991.8000;0.3639;1.8671;
992.1000;0.3663;1.8744;
992.4000;0.3655;1.8769;
992.7000;0.3679;1.8769;
993.0000;0.3671;1.8794;
993.3000;0.3671;1.8794;
993.6000;0.3671;1.8744;
993.9000;0.3614;1.8572;
994.2000;0.3647;1.8621;
994.5000;0.3663;1.8671;
994.8000;0.3647;1.8646;
995.1000;0.3573;1.8375;
995.4000;0.3614;1.8548;
995.7000;0.3671;1.8720;
996.0000;0.3655;1.8744;
996.3000;0.3671;1.8818;
996.6000;0.3606;1.8744;
996.9000;0.3647;1.8818;
997.2000;0.3647;1.8769;
997.5000;0.3639;1.8769;
997.8000;0.3679;1.8818;
998.1000;0.3655;1.8769;
998.4000;0.3606;1.8671;
998.7000;0.3655;1.8769;
999.0000;0.3655;1.8720;
999.3000;0.3663;1.8744;
999.6000;0.3663;1.8720;
999.9000;0.3647;1.8720;
1000.2000;0.3647;1.8720;
1000.5000;0.3630;1.8695;
1000.8000;0.3639;1.8695;
1001.1000;0.3639;1.8671;
1001.4000;0.3647;1.8646;
1001.7000;0.3647;1.8695;
1002.0000;0.3647;1.8695;
1002.3000;0.3639;1.8769;
1002.6000;0.3630;1.8744;
1002.9000;0.3639;1.8769;
1003.2000;0.3655;1.8769;
1003.5000;0.3671;1.8794;
1003.8000;0.3671;1.8794;
1004.1000;0.3679;1.8744;
1004.4000;0.3663;1.8744;
1004.7000;0.3663;1.8843;
1005.0000;0.3647;1.8843;
1005.3000;0.3647;1.8892;
1005.6000;0.3655;1.8843;
1005.9000;0.3671;1.8843;
1006.2000;0.3704;1.8917;
1006.5000;0.3630;1.8769;
1006.8000;0.3647;1.8720;
1007.1000;0.3647;1.8621;
1007.4000;0.3647;1.8597;
1007.7000;0.3622;1.8572;
1008.0000;0.3639;1.8548;
1008.3000;0.3663;1.8597;
1008.6000;0.3679;1.8720;
1008.9000;0.3639;1.8597;
1009.2000;0.3647;1.8621;
1009.5000;0.3639;1.8597;
1009.8000;0.3647;1.8597;
1010.1000;0.3647;1.8621;
1010.4000;0.3630;1.8621;
1010.7000;0.3663;1.8695;
1011.0000;0.3647;1.8548;
1011.3000;0.3639;1.8498;
1011.6000;0.3598;1.8449;
1011.9000;0.3647;1.8498;
1012.2000;0.3687;1.8621;
1012.5000;0.3639;1.8474;
1012.8000;0.3647;1.8548;
1013.1000;0.3639;1.8572;
1013.4000;0.3647;1.8548;
1013.7000;0.3663;1.8548;
1014.0000;0.3663;1.8597;
1014.3000;0.3630;1.8523;
1014.6000;0.3590;1.8498;
1014.9000;0.3655;1.8671;
1015.2000;0.3647;1.8720;
1015.5000;0.3614;1.8621;
1015.8000;0.3655;1.8769;
1016.1000;0.3647;1.8695;
1016.4000;0.3647;1.8695;
1016.7000;0.3630;1.8695;
1017.0000;0.3622;1.8572;
1017.3000;0.3679;1.8695;
1017.6000;0.3622;1.8523;
1017.9000;0.3630;1.8548;
1018.2000;0.3639;1.8646;
1018.5000;0.3647;1.8720;
1018.8000;0.3639;1.8695;
1019.1000;0.3639;1.8671;
1019.4000;0.3655;1.8646;
1019.7000;0.3679;1.8646;
1020.0000;0.3655;1.8646;
1020.3000;0.3655;1.8572;
1020.6000;0.3614;1.8400;
1020.9000;0.3647;1.8425;
1021.2000;0.3639;1.8351;
1021.5000;0.3639;1.8351;
1021.8000;0.3655;1.8425;
1022.1000;0.3663;1.8449;
1022.4000;0.3655;1.8425;
1022.7000;0.3663;1.8474;
1023.0000;0.3639;1.8474;
1023.3000;0.3639;1.8498;
1023.6000;0.3614;1.8474;
1023.9000;0.3639;1.8572;
1024.2000;0.3630;1.8720;
1024.5000;0.3622;1.8646;
1024.8000;0.3630;1.8548;
1025.1000;0.3622;1.8425;
1025.4000;0.3647;1.8474;
1025.7000;0.3647;1.8498;
1026.0000;0.3639;1.8425;
1026.3000;0.3630;1.8351;
1026.6000;0.3639;1.8351;
1026.9000;0.3639;1.8375;
1027.2000;0.3639;1.8351;
1027.5000;0.3663;1.8375;
1027.8000;0.3720;1.8597;
1028.1000;0.3630;1.8351;
1028.4000;0.3639;1.8400;
1028.7000;0.3647;1.8400;
1029.0000;0.3630;1.8449;
1029.3000;0.3655;1.8548;
1029.6000;0.3639;1.8523;
1029.9000;0.3671;1.8646;
1030.2000;0.3590;1.8425;
1030.5000;0.3647;1.8548;
1030.8000;0.3630;1.8498;
1031.1000;0.3549;1.8252;
1031.4000;0.3622;1.8351;
1031.7000;0.3639;1.8351;
1032.0000;0.3639;1.8351;
1032.3000;0.3639;1.8302;
1032.6000;0.3639;1.8228;
1032.9000;0.3639;1.8375;
1033.2000;0.3614;1.8326;
1033.5000;0.3639;1.8375;
1033.8000;0.3647;1.8425;
1034.1000;0.3630;1.8523;
1034.4000;0.3639;1.8498;
1034.7000;0.3647;1.8572;
1035.0000;0.3655;1.8474;
1035.3000;0.3655;1.8400;
1035.6000;0.3647;1.8400;
1035.9000;0.3639;1.8400;
1036.2000;0.3647;1.8400;
1036.5000;0.3630;1.8400;
1036.8000;0.3639;1.8400;
1037.1000;0.3630;1.8375;
1037.4000;0.3630;1.8375;
1037.7000;0.3655;1.8375;
1038.0000;0.3630;1.8351;
1038.3000;0.3622;1.8326;
1038.6000;0.3639;1.8351;
1038.9000;0.3655;1.8425;
1039.2000;0.3639;1.8326;
1039.5000;0.3647;1.8425;
1039.8000;0.3639;1.8474;
1040.1000;0.3647;1.8621;
1040.4000;0.3639;1.8621;
1040.7000;0.3630;1.8646;
1041.0000;0.3687;1.8818;
1041.3000;0.3630;1.8646;
1041.6000;0.3639;1.8744;
1041.9000;0.3614;1.8621;
1042.2000;0.3630;1.8597;
1042.5000;0.3630;1.8646;
1042.8000;0.3614;1.8621;
1043.1000;0.3639;1.8572;
1043.4000;0.3639;1.8572;
1043.7000;0.3639;1.8597;
1044.0000;0.3639;1.8449;
1044.3000;0.3647;1.8400;
1044.6000;0.3630;1.8351;
1044.9000;0.3647;1.8351;
1045.2000;0.3647;1.8375;
1045.5000;0.3655;1.8400;
1045.8000;0.3655;1.8449;
1046.1000;0.3630;1.8425;
1046.4000;0.3647;1.8425;
1046.7000;0.3639;1.8302;
1047.0000;0.3630;1.8302;
1047.3000;0.3630;1.8277;
1047.6000;0.3639;1.8252;
1047.9000;0.3647;1.8375;
1048.2000;0.3647;1.8351;
1048.5000;0.3663;1.8400;
1048.8000;0.3630;1.8425;
1049.1000;0.3647;1.8498;
1049.4000;0.3639;1.8498;
1049.7000;0.3639;1.8523;
1050.0000;0.3639;1.8548;
1050.3000;0.3655;1.8597;
1050.6000;0.3712;1.8769;
1050.9000;0.3647;1.8621;
1051.2000;0.3639;1.8523;
1051.5000;0.3630;1.8498;
1051.8000;0.3630;1.8597;
1052.1000;0.3639;1.8548;
1052.4000;0.3655;1.8498;
1052.7000;0.3639;1.8498;
1053.0000;0.3630;1.8523;
1053.3000;0.3622;1.8597;
1053.6000;0.3622;1.8548;
1053.9000;0.3622;1.8572;
1054.2000;0.3639;1.8572;
1054.5000;0.3630;1.8523;
1054.8000;0.3647;1.8523;
1055.1000;0.3639;1.8498;
1055.4000;0.3655;1.8548;
1055.7000;0.3630;1.8498;
1056.0000;0.3622;1.8449;
1056.3000;0.3639;1.8523;
1056.6000;0.3663;1.8621;
1056.9000;0.3630;1.8523;
1057.2000;0.3639;1.8425;
1057.5000;0.3630;1.8351;
1057.8000;0.3639;1.8277;
1058.1000;0.3639;1.8302;
1058.4000;0.3647;1.8375;
1058.7000;0.3639;1.8277;
1059.0000;0.3622;1.8326;
1059.3000;0.3630;1.8277;
1059.6000;0.3655;1.8351;
1059.9000;0.3655;1.8375;
1060.2000;0.3639;1.8351;
1060.5000;0.3663;1.8351;
1060.8000;0.3663;1.8375;
1061.1000;0.3647;1.8375;
1061.4000;0.3630;1.8375;
1061.7000;0.3614;1.8425;
1062.0000;0.3639;1.8498;
1062.3000;0.3630;1.8474;
1062.6000;0.3639;1.8572;
1062.9000;0.3614;1.8621;
1063.2000;0.3598;1.8474;
1063.5000;0.3622;1.8523;
1063.8000;0.3622;1.8548;
1064.1000;0.3630;1.8572;
1064.4000;0.3622;1.8621;
1064.7000;0.3655;1.8695;
1065.0000;0.3614;1.8621;
1065.3000;0.3630;1.8621;
1065.6000;0.3622;1.8621;
1065.9000;0.3639;1.8671;
1066.2000;0.3647;1.8646;
1066.5000;0.3590;1.8449;
1066.8000;0.3663;1.8671;
1067.1000;0.3630;1.8572;
1067.4000;0.3630;1.8597;
1067.7000;0.3639;1.8621;
1068.0000;0.3614;1.8498;
1068.3000;0.3622;1.8548;
1068.6000;0.3630;1.8523;
1068.9000;0.3606;1.8498;
1069.2000;0.3630;1.8597;
1069.5000;0.3647;1.8523;
1069.8000;0.3655;1.8572;
1070.1000;0.3647;1.8572;
1070.4000;0.3639;1.8498;
1070.7000;0.3614;1.8474;
1071.0000;0.3639;1.8474;
1071.3000;0.3639;1.8474;
1071.6000;0.3622;1.8449;
1071.9000;0.3614;1.8498;
1072.2000;0.3647;1.8548;
1072.5000;0.3639;1.8548;
1072.8000;0.3736;1.8843;
1073.1000;0.3622;1.8425;
1073.4000;0.3647;1.8400;
1073.7000;0.3639;1.8326;
1074.0000;0.3639;1.8302;
1074.3000;0.3639;1.8302;
1074.6000;0.3639;1.8302;
1074.9000;0.3647;1.8375;
1075.2000;0.3639;1.8277;
1075.5000;0.3647;1.8351;
1075.8000;0.3639;1.8375;
1076.1000;0.3655;1.8474;
1076.4000;0.3622;1.8375;
1076.7000;0.3630;1.8449;
1077.0000;0.3639;1.8498;
1077.3000;0.3630;1.8621;
1077.6000;0.3622;1.8646;
1077.9000;0.3622;1.8548;
1078.2000;0.3622;1.8597;
1078.5000;0.3622;1.8646;
1078.8000;0.3630;1.8597;
1079.1000;0.3614;1.8572;
1079.4000;0.3622;1.8597;
1079.7000;0.3630;1.8572;
1080.0000;0.3639;1.8597;
1080.3000;0.3622;1.8597;
1080.6000;0.3598;1.8548;
1080.9000;0.3622;1.8548;
1081.2000;0.3590;1.8474;
1081.5000;0.3630;1.8597;
1081.8000;0.3622;1.8548;
1082.1000;0.3630;1.8572;
1082.4000;0.3639;1.8695;
1082.7000;0.3614;1.8646;
1083.0000;0.3614;1.8646;
1083.3000;0.3647;1.8818;
1083.6000;0.3630;1.8818;
1083.9000;0.3630;1.8794;
1084.2000;0.3614;1.8769;
1084.5000;0.3606;1.8695;
1084.8000;0.3614;1.8695;
1085.1000;0.3606;1.8720;
1085.4000;0.3655;1.8695;
1085.7000;0.3647;1.8695;
1086.0000;0.3622;1.8646;
1086.3000;0.3639;1.8597;
1086.6000;0.3630;1.8523;
1086.9000;0.3606;1.8548;
1087.2000;0.3630;1.8621;
1087.5000;0.3573;1.8498;
1087.8000;0.3622;1.8720;
1088.1000;0.3622;1.8744;
1088.4000;0.3541;1.8572;
1088.7000;0.3614;1.8720;
1089.0000;0.3582;1.8572;
1089.3000;0.3639;1.8794;
1089.6000;0.3704;1.8941;
1089.9000;0.3630;1.8794;
1090.2000;0.3630;1.8720;
1090.5000;0.3647;1.8695;
1090.8000;0.3622;1.8597;
1091.1000;0.3606;1.8572;
1091.4000;0.3639;1.8646;
1091.7000;0.3630;1.8548;
1092.0000;0.3639;1.8548;
1092.3000;0.3647;1.8695;
1092.6000;0.3647;1.8695;
1092.9000;0.3606;1.8621;
1093.2000;0.3614;1.8621;
1093.5000;0.3630;1.8720;
1093.8000;0.3630;1.8695;
1094.1000;0.3630;1.8621;
1094.4000;0.3622;1.8597;
1094.7000;0.3647;1.8572;
1095.0000;0.3630;1.8523;
1095.3000;0.3622;1.8474;
1095.6000;0.3639;1.8498;
1095.9000;0.3614;1.8449;
1096.2000;0.3622;1.8597;
1096.5000;0.3622;1.8621;
1096.8000;0.3639;1.8744;
1097.1000;0.3614;1.8720;
1097.4000;0.3647;1.8720;
1097.7000;0.3639;1.8769;
1098.0000;0.3622;1.8671;
1098.3000;0.3606;1.8498;
1098.6000;0.3622;1.8498;
1098.9000;0.3639;1.8548;
1099.2000;0.3663;1.8646;
1099.5000;0.3622;1.8572;
1099.8000;0.3630;1.8548;
1100.1000;0.3630;1.8621;
1100.4000;0.3639;1.8695;
1100.7000;0.3639;1.8720;
1101.0000;0.3639;1.8720;
1101.3000;0.3622;1.8671;
1101.6000;0.3647;1.8794;
1101.9000;0.3630;1.8744;
1102.2000;0.3622;1.8794;
1102.5000;0.3606;1.8744;
1102.8000;0.3606;1.8695;
1103.1000;0.3614;1.8695;
1103.4000;0.3647;1.8769;
1103.7000;0.3606;1.8597;
1104.0000;0.3606;1.8597;
1104.3000;0.3565;1.8523;
1104.6000;0.3696;1.8818;
1104.9000;0.3622;1.8671;
1105.2000;0.3696;1.8892;
1105.5000;0.3622;1.8769;
1105.8000;0.3655;1.8794;
1106.1000;0.3630;1.8843;
1106.4000;0.3655;1.8867;
1106.7000;0.3639;1.8818;
1107.0000;0.3614;1.8720;
1107.3000;0.3639;1.8720;
1107.6000;0.3630;1.8744;
1107.9000;0.3639;1.8720;
1108.2000;0.3614;1.8621;
1108.5000;0.3614;1.8671;
1108.8000;0.3630;1.8646;
1109.1000;0.3639;1.8671;
1109.4000;0.3606;1.8572;
1109.7000;0.3622;1.8523;
1110.0000;0.3630;1.8597;
1110.3000;0.3655;1.8621;
1110.6000;0.3622;1.8548;
1110.9000;0.3598;1.8523;
1111.2000;0.3639;1.8720;
1111.5000;0.3582;1.8671;
1111.8000;0.3622;1.8794;
1112.1000;0.3606;1.8720;
1112.4000;0.3590;1.8671;
1112.7000;0.3557;1.8572;
1113.0000;0.3614;1.8695;
1113.3000;0.3606;1.8671;
1113.6000;0.3606;1.8720;
1113.9000;0.3647;1.8794;
1114.2000;0.3614;1.8720;
1114.5000;0.3639;1.8794;
1114.8000;0.3614;1.8769;
1115.1000;0.3606;1.8720;
1115.4000;0.3622;1.8695;
1115.7000;0.3630;1.8794;
1116.0000;0.3622;1.8818;
1116.3000;0.3639;1.8892;
1116.6000;0.3639;1.8892;
1116.9000;0.3639;1.8917;
1117.2000;0.3639;1.8818;
1117.5000;0.3614;1.8769;
1117.8000;0.3630;1.8794;
1118.1000;0.3663;1.8867;
1118.4000;0.3630;1.8892;
1118.7000;0.3622;1.8867;
1119.0000;0.3630;1.8818;
1119.3000;0.3622;1.8744;
1119.6000;0.3630;1.8695;
1119.9000;0.3622;1.8621;
1120.2000;0.3647;1.8671;
1120.5000;0.3630;1.8744;
1120.8000;0.3647;1.8794;
1121.1000;0.3622;1.8720;
1121.4000;0.3606;1.8671;
1121.7000;0.3630;1.8818;
1122.0000;0.3639;1.8769;
1122.3000;0.3573;1.8695;
1122.6000;0.3647;1.8843;
1122.9000;0.3622;1.8794;
1123.2000;0.3582;1.8720;
1123.5000;0.3606;1.8744;
1123.8000;0.3606;1.8744;
1124.1000;0.3630;1.8744;
1124.4000;0.3630;1.8867;
1124.7000;0.3614;1.8818;
1125.0000;0.3606;1.8818;
1125.3000;0.3565;1.8769;
1125.6000;0.3606;1.8843;
1125.9000;0.3630;1.8917;
1126.2000;0.3630;1.8867;
1126.5000;0.3606;1.8744;
1126.8000;0.3606;1.8695;
1127.1000;0.3622;1.8744;
1127.4000;0.3622;1.8794;
1127.7000;0.3630;1.8818;
1128.0000;0.3622;1.8818;
1128.3000;0.3630;1.8892;
1128.6000;0.3622;1.8892;
1128.9000;0.3630;1.8867;
1129.2000;0.3622;1.8867;
1129.5000;0.3639;1.8867;
1129.8000;0.3647;1.8867;
1130.1000;0.3622;1.8744;
1130.4000;0.3639;1.8769;
1130.7000;0.3622;1.8794;
1131.0000;0.3630;1.8818;
1131.3000;0.3639;1.8892;
1131.6000;0.3639;1.8917;
1131.9000;0.3630;1.8917;
1132.2000;0.3614;1.8867;
1132.5000;0.3630;1.8966;
1132.8000;0.3614;1.8917;
1133.1000;0.3622;1.8867;
1133.4000;0.3622;1.8892;
1133.7000;0.3622;1.8843;
1134.0000;0.3614;1.8818;
1134.3000;0.3614;1.8720;
1134.6000;0.3614;1.8671;
1134.9000;0.3630;1.8744;
1135.2000;0.3606;1.8769;
1135.5000;0.3622;1.8794;
1135.8000;0.3622;1.8794;
1136.1000;0.3622;1.8794;
1136.4000;0.3606;1.8744;
1136.7000;0.3630;1.8769;
1137.0000;0.3622;1.8769;
1137.3000;0.3614;1.8720;
1137.6000;0.3630;1.8720;
1137.9000;0.3614;1.8621;
1138.2000;0.3639;1.8744;
1138.5000;0.3630;1.8843;
1138.8000;0.3639;1.8843;
1139.1000;0.3614;1.8843;
1139.4000;0.3622;1.8769;
1139.7000;0.3614;1.8695;
1140.0000;0.3639;1.8744;
1140.3000;0.3622;1.8621;
1140.6000;0.3614;1.8671;
1140.9000;0.3639;1.8671;
1141.2000;0.3639;1.8671;
1141.5000;0.3630;1.8695;
1141.8000;0.3622;1.8597;
1142.1000;0.3622;1.8646;
1142.4000;0.3614;1.8671;
1142.7000;0.3655;1.8843;
1143.0000;0.3622;1.8818;
1143.3000;0.3614;1.8744;
1143.6000;0.3639;1.8867;
1143.9000;0.3622;1.8867;
1144.2000;0.3639;1.8917;
1144.5000;0.3630;1.8843;
1144.8000;0.3630;1.8867;
1145.1000;0.3647;1.8794;
1145.4000;0.3622;1.8794;
1145.7000;0.3606;1.8695;
1146.0000;0.3614;1.8646;
1146.3000;0.3582;1.8572;
1146.6000;0.3639;1.8671;
1146.9000;0.3614;1.8744;
1147.2000;0.3639;1.8794;
1147.5000;0.3630;1.8794;
1147.8000;0.3630;1.8769;
1148.1000;0.3687;1.8917;
1148.4000;0.3614;1.8769;
1148.7000;0.3614;1.8843;
1149.0000;0.3639;1.8794;
1149.3000;0.3606;1.8695;
1149.6000;0.3671;1.8769;
1149.9000;0.3639;1.8769;
1150.2000;0.3614;1.8695;
1150.5000;0.3647;1.8769;
1150.8000;0.3614;1.8671;
1151.1000;0.3647;1.8695;
1151.4000;0.3557;1.8474;
1151.7000;0.3647;1.8720;
1152.0000;0.3622;1.8769;
1152.3000;0.3655;1.8843;
1152.6000;0.3712;1.8990;
1152.9000;0.3630;1.8720;
1153.2000;0.3614;1.8646;
1153.5000;0.3622;1.8572;
1153.8000;0.3639;1.8597;
1154.1000;0.3622;1.8572;
1154.4000;0.3639;1.8720;
1154.7000;0.3630;1.8695;
1155.0000;0.3639;1.8671;
1155.3000;0.3622;1.8695;
1155.6000;0.3614;1.8597;
1155.9000;0.3622;1.8597;
1156.2000;0.3622;1.8671;
1156.5000;0.3614;1.8621;
1156.8000;0.3614;1.8621;
1157.1000;0.3622;1.8720;
1157.4000;0.3639;1.8695;
1157.7000;0.3614;1.8720;
1158.0000;0.3614;1.8769;
1158.3000;0.3614;1.8818;
1158.6000;0.3630;1.8867;
1158.9000;0.3614;1.8892;
1159.2000;0.3622;1.8818;
1159.5000;0.3614;1.8818;
1159.8000;0.3622;1.8720;
1160.1000;0.3720;1.8867;
1160.4000;0.3655;1.8769;
1160.7000;0.3606;1.8671;
1161.0000;0.3598;1.8621;
1161.3000;0.3622;1.8621;
1161.6000;0.3630;1.8597;
1161.9000;0.3639;1.8597;
1162.2000;0.3630;1.8597;
1162.5000;0.3630;1.8474;
1162.8000;0.3671;1.8474;
1163.1000;0.3639;1.8375;
1163.4000;0.3622;1.8375;
1163.7000;0.3630;1.8474;
1164.0000;0.3614;1.8523;
1164.3000;0.3639;1.8523;
1164.6000;0.3614;1.8523;
1164.9000;0.3630;1.8646;
1165.2000;0.3630;1.8695;
1165.5000;0.3622;1.8720;
1165.8000;0.3622;1.8695;
1166.1000;0.3622;1.8769;
1166.4000;0.3630;1.8818;
1166.7000;0.3622;1.8867;
1167.0000;0.3630;1.8917;
1167.3000;0.3630;1.8818;
1167.6000;0.3622;1.8769;
1167.9000;0.3630;1.8892;
1168.2000;0.3598;1.8794;
1168.5000;0.3622;1.8818;
1168.8000;0.3630;1.8794;
1169.1000;0.3630;1.8818;
1169.4000;0.3614;1.8769;
1169.7000;0.3622;1.8818;
1170.0000;0.3606;1.8720;
1170.3000;0.3614;1.8646;
1170.6000;0.3622;1.8621;
1170.9000;0.3614;1.8523;
1171.2000;0.3598;1.8474;
1171.5000;0.3630;1.8548;
1171.8000;0.3606;1.8597;
1172.1000;0.3614;1.8597;
1172.4000;0.3606;1.8498;
1172.7000;0.3622;1.8548;
1173.0000;0.3630;1.8695;
1173.3000;0.3647;1.8695;
1173.6000;0.3606;1.8597;
1173.9000;0.3622;1.8695;
1174.2000;0.3647;1.8744;
1174.5000;0.3639;1.8695;
1174.8000;0.3614;1.8646;
1175.1000;0.3622;1.8671;
1175.4000;0.3639;1.8671;
1175.7000;0.3622;1.8621;
1176.0000;0.3630;1.8572;
1176.3000;0.3614;1.8548;
1176.6000;0.3606;1.8498;
1176.9000;0.3630;1.8572;
1177.2000;0.3614;1.8671;
1177.5000;0.3630;1.8695;
1177.8000;0.3622;1.8695;
1178.1000;0.3647;1.8843;
1178.4000;0.3614;1.8769;
1178.7000;0.3622;1.8794;
1179.0000;0.3630;1.8744;
1179.3000;0.3630;1.8695;
1179.6000;0.3614;1.8621;
1179.9000;0.3630;1.8646;
1180.2000;0.3614;1.8548;
1180.5000;0.3614;1.8597;
1180.8000;0.3614;1.8621;
1181.1000;0.3663;1.8744;
1181.4000;0.3614;1.8597;
1181.7000;0.3582;1.8474;
1182.0000;0.3639;1.8572;
1182.3000;0.3622;1.8597;
1182.6000;0.3630;1.8646;
1182.9000;0.3590;1.8597;
1183.2000;0.3590;1.8597;
1183.5000;0.3639;1.8621;
1183.8000;0.3679;1.8646;
1184.1000;0.3606;1.8449;
1184.4000;0.3622;1.8351;
1184.7000;0.3614;1.8449;
1185.0000;0.3606;1.8523;
1185.3000;0.3614;1.8498;
1185.6000;0.3606;1.8498;
1185.9000;0.3630;1.8597;
1186.2000;0.3606;1.8597;
1186.5000;0.3590;1.8498;
1186.8000;0.3614;1.8548;
1187.1000;0.3639;1.8548;
1187.4000;0.3630;1.8572;
1187.7000;0.3622;1.8597;
1188.0000;0.3630;1.8572;
1188.3000;0.3647;1.8671;
1188.6000;0.3647;1.8671;
1188.9000;0.3647;1.8646;
1189.2000;0.3614;1.8769;
1189.5000;0.3630;1.8744;
1189.8000;0.3622;1.8818;
1190.1000;0.3622;1.8843;
1190.4000;0.3606;1.8794;
1190.7000;0.3622;1.8744;
1191.0000;0.3630;1.8867;
1191.3000;0.3663;1.8867;
1191.6000;0.3622;1.8769;
1191.9000;0.3639;1.8769;
1192.2000;0.3639;1.8867;
1192.5000;0.3639;1.8867;
1192.8000;0.3639;1.8794;
1193.1000;0.3606;1.8769;
1193.4000;0.3630;1.8818;
1193.7000;0.3614;1.8744;
1194.0000;0.3622;1.8769;
1194.3000;0.3696;1.8966;
1194.6000;0.3622;1.8843;
1194.9000;0.3630;1.8769;
1195.2000;0.3622;1.8720;
1195.5000;0.3606;1.8720;
1195.8000;0.3630;1.8818;
1196.1000;0.3622;1.8769;
1196.4000;0.3606;1.8695;
1196.7000;0.3614;1.8621;
1197.0000;0.3614;1.8671;
1197.3000;0.3614;1.8695;
1197.6000;0.3582;1.8597;
1197.9000;0.3630;1.8744;
1198.2000;0.3614;1.8720;
1198.5000;0.3630;1.8744;
1198.8000;0.3663;1.8818;
1199.1000;0.3622;1.8695;
1199.4000;0.3630;1.8769;
1199.7000;0.3630;1.8818;
1200.0000;0.3614;1.8769;
1200.3000;0.3622;1.8867;
1200.6000;0.3622;1.8867;
1200.9000;0.3614;1.8867;
1201.2000;0.3614;1.8843;
1201.5000;0.3622;1.8892;
1201.8000;0.3606;1.8843;
1202.1000;0.3630;1.8867;
1202.4000;0.3630;1.8843;
1202.7000;0.3622;1.8744;
1203.0000;0.3606;1.8744;
1203.3000;0.3630;1.8843;
1203.6000;0.3630;1.8892;
1203.9000;0.3630;1.8867;
1204.2000;0.3630;1.8843;
1204.5000;0.3573;1.8720;
1204.8000;0.3614;1.8794;
1205.1000;0.3622;1.8769;
1205.4000;0.3606;1.8769;
1205.7000;0.3598;1.8671;
1206.0000;0.3614;1.8720;
1206.3000;0.3630;1.8744;
1206.6000;0.3606;1.8720;
1206.9000;0.3614;1.8720;
1207.2000;0.3639;1.8843;
1207.5000;0.3679;1.8966;
1207.8000;0.3590;1.8769;
1208.1000;0.3614;1.8867;
1208.4000;0.3614;1.8941;
1208.7000;0.3630;1.8941;
1209.0000;0.3622;1.8966;
1209.3000;0.3622;1.8892;
1209.6000;0.3606;1.8794;
1209.9000;0.3639;1.8744;
1210.2000;0.3598;1.8646;
1210.5000;0.3622;1.8695;
1210.8000;0.3622;1.8621;
1211.1000;0.3622;1.8671;
1211.4000;0.3630;1.8671;
1211.7000;0.3630;1.8597;
1212.0000;0.3614;1.8671;
1212.3000;0.3639;1.8744;
1212.6000;0.3647;1.8818;
1212.9000;0.3622;1.8843;
1213.2000;0.3630;1.8769;
1213.5000;0.3639;1.8720;
1213.8000;0.3614;1.8671;
1214.1000;0.3655;1.8769;
1214.4000;0.3614;1.8695;
1214.7000;0.3622;1.8744;
1215.0000;0.3614;1.8720;
1215.3000;0.3622;1.8818;
1215.6000;0.3614;1.8843;
1215.9000;0.3598;1.8794;
1216.2000;0.3622;1.8794;
1216.5000;0.3614;1.8794;
1216.8000;0.3606;1.8695;
1217.1000;0.3598;1.8646;
1217.4000;0.3630;1.8744;
1217.7000;0.3622;1.8671;
1218.0000;0.3614;1.8695;
1218.3000;0.3630;1.8744;
1218.6000;0.3614;1.8794;
1218.9000;0.3614;1.8744;
1219.2000;0.3614;1.8769;
1219.5000;0.3622;1.8818;
1219.8000;0.3598;1.8695;
1220.1000;0.3630;1.8818;
1220.4000;0.3622;1.8818;
1220.7000;0.3606;1.8744;
1221.0000;0.3614;1.8769;
1221.3000;0.3557;1.8548;
1221.6000;0.3614;1.8744;
1221.9000;0.3622;1.8744;
1222.2000;0.3622;1.8744;
1222.5000;0.3614;1.8646;
1222.8000;0.3630;1.8597;
1223.1000;0.3622;1.8548;
1223.4000;0.3622;1.8548;
1223.7000;0.3630;1.8548;
1224.0000;0.3606;1.8597;
1224.3000;0.3639;1.8621;
1224.6000;0.3639;1.8597;
1224.9000;0.3639;1.8523;
1225.2000;0.3622;1.8498;
1225.5000;0.3639;1.8523;
1225.8000;0.3622;1.8498;
1226.1000;0.3622;1.8548;
1226.4000;0.3639;1.8621;
1226.7000;0.3639;1.8621;
1227.0000;0.3630;1.8671;
1227.3000;0.3622;1.8720;
1227.6000;0.3614;1.8867;
1227.9000;0.3598;1.8843;
1228.2000;0.3606;1.8867;
1228.5000;0.3622;1.8966;
1228.8000;0.3549;1.8769;
1229.1000;0.3663;1.8966;
1229.4000;0.3630;1.8867;
1229.7000;0.3614;1.8843;
1230.0000;0.3606;1.8843;
1230.3000;0.3639;1.8941;
1230.6000;0.3622;1.8892;
1230.9000;0.3630;1.8892;
1231.2000;0.3663;1.8990;
1231.5000;0.3630;1.8818;
1231.8000;0.3630;1.8744;
1232.1000;0.3614;1.8695;
1232.4000;0.3630;1.8720;
1232.7000;0.3622;1.8720;
1233.0000;0.3622;1.8794;
1233.3000;0.3630;1.8769;
1233.6000;0.3647;1.8818;
1233.9000;0.3622;1.8843;
1234.2000;0.3696;1.8990;
1234.5000;0.3622;1.8843;
1234.8000;0.3630;1.8744;
1235.1000;0.3614;1.8695;
1235.4000;0.3639;1.8744;
1235.7000;0.3622;1.8695;
1236.0000;0.3622;1.8744;
1236.3000;0.3639;1.8744;
1236.6000;0.3647;1.8867;
1236.9000;0.3639;1.8843;
1237.2000;0.3655;1.8769;
1237.5000;0.3630;1.8744;
1237.8000;0.3622;1.8646;
1238.1000;0.3614;1.8621;
1238.4000;0.3614;1.8621;
1238.7000;0.3598;1.8720;
1239.0000;0.3614;1.8646;
1239.3000;0.3606;1.8621;
1239.6000;0.3614;1.8646;
1239.9000;0.3614;1.8621;
1240.2000;0.3598;1.8597;
1240.5000;0.3614;1.8695;
1240.8000;0.3614;1.8695;
1241.1000;0.3639;1.8695;
1241.4000;0.3639;1.8671;
1241.7000;0.3606;1.8548;
1242.0000;0.3622;1.8548;
1242.3000;0.3614;1.8597;
1242.6000;0.3622;1.8597;
1242.9000;0.3598;1.8646;
1243.2000;0.3639;1.8671;
1243.5000;0.3630;1.8695;
1243.8000;0.3630;1.8720;
1244.1000;0.3630;1.8744;
1244.4000;0.3696;1.8966;
1244.7000;0.3630;1.8818;
1245.0000;0.3614;1.8794;
1245.3000;0.3590;1.8769;
1245.6000;0.3622;1.8867;
1245.9000;0.3647;1.8867;
1246.2000;0.3630;1.8867;
1246.5000;0.3565;1.8646;
1246.8000;0.3606;1.8818;
1247.1000;0.3630;1.8843;
1247.4000;0.3630;1.8794;
1247.7000;0.3606;1.8671;
1248.0000;0.3630;1.8720;
1248.3000;0.3630;1.8769;
1248.6000;0.3630;1.8720;
1248.9000;0.3687;1.8769;
1249.2000;0.3598;1.8474;
1249.5000;0.3614;1.8425;
1249.8000;0.3614;1.8449;
1250.1000;0.3614;1.8400;
1250.4000;0.3606;1.8425;
1250.7000;0.3614;1.8597;
1251.0000;0.3639;1.8695;
1251.3000;0.3606;1.8671;
1251.6000;0.3606;1.8720;
1251.9000;0.3614;1.8695;
1252.2000;0.3614;1.8695;
1252.5000;0.3573;1.8671;
1252.8000;0.3614;1.8720;
1253.1000;0.3606;1.8572;
1253.4000;0.3639;1.8572;
1253.7000;0.3590;1.8474;
1254.0000;0.3606;1.8597;
1254.3000;0.3590;1.8548;
1254.6000;0.3630;1.8621;
1254.9000;0.3622;1.8646;
1255.2000;0.3606;1.8621;
1255.5000;0.3630;1.8695;
1255.8000;0.3687;1.8720;
1256.1000;0.3630;1.8597;
1256.4000;0.3639;1.8646;
1256.7000;0.3614;1.8597;
1257.0000;0.3614;1.8621;
1257.3000;0.3679;1.8769;
1257.6000;0.3647;1.8720;
1257.9000;0.3622;1.8720;
1258.2000;0.3606;1.8695;
1258.5000;0.3639;1.8794;
1258.8000;0.3622;1.8769;
1259.1000;0.3606;1.8695;
1259.4000;0.3614;1.8720;
1259.7000;0.3622;1.8671;
1260.0000;0.3622;1.8671;
1260.3000;0.3614;1.8572;
1260.6000;0.3614;1.8597;
1260.9000;0.3614;1.8695;
1261.2000;0.3606;1.8597;
1261.5000;0.3622;1.8646;
1261.8000;0.3614;1.8671;
1262.1000;0.3614;1.8695;
1262.4000;0.3622;1.8646;
1262.7000;0.3622;1.8621;
1263.0000;0.3598;1.8474;
1263.3000;0.3630;1.8523;
1263.6000;0.3614;1.8449;
1263.9000;0.3639;1.8498;
1264.2000;0.3590;1.8400;
1264.5000;0.3582;1.8400;
1264.8000;0.3606;1.8523;
1265.1000;0.3622;1.8523;
1265.4000;0.3614;1.8523;
1265.7000;0.3606;1.8474;
1266.0000;0.3614;1.8523;
1266.3000;0.3671;1.8671;
1266.6000;0.3622;1.8621;
1266.9000;0.3606;1.8671;
1267.2000;0.3598;1.8671;
1267.5000;0.3590;1.8695;
1267.8000;0.3614;1.8720;
1268.1000;0.3606;1.8720;
1268.4000;0.3590;1.8769;
1268.7000;0.3614;1.8843;
1269.0000;0.3696;1.9089;
1269.3000;0.3614;1.8843;
1269.6000;0.3630;1.8843;
1269.9000;0.3622;1.8769;
1270.2000;0.3606;1.8646;
1270.5000;0.3639;1.8548;
1270.8000;0.3630;1.8572;
1271.1000;0.3614;1.8548;
1271.4000;0.3630;1.8695;
1271.7000;0.3598;1.8621;
1272.0000;0.3614;1.8646;
1272.3000;0.3630;1.8621;
1272.6000;0.3582;1.8572;
1272.9000;0.3614;1.8671;
1273.2000;0.3606;1.8720;
1273.5000;0.3606;1.8695;
1273.8000;0.3614;1.8695;
1274.1000;0.3630;1.8744;
1274.4000;0.3590;1.8695;
1274.7000;0.3598;1.8695;
1275.0000;0.3606;1.8720;
1275.3000;0.3622;1.8818;
1275.6000;0.3630;1.8794;
1275.9000;0.3557;1.8597;
1276.2000;0.3630;1.8818;
1276.5000;0.3696;1.9040;
1276.8000;0.3606;1.8769;
1277.1000;0.3622;1.8867;
1277.4000;0.3598;1.8892;
1277.7000;0.3598;1.8867;
1278.0000;0.3614;1.8843;
1278.3000;0.3598;1.8671;
1278.6000;0.3590;1.8646;
1278.9000;0.3606;1.8671;
1279.2000;0.3622;1.8744;
1279.5000;0.3582;1.8646;
1279.8000;0.3639;1.8794;
1280.1000;0.3630;1.8794;
1280.4000;0.3630;1.8695;
1280.7000;0.3630;1.8646;
1281.0000;0.3671;1.8695;
1281.3000;0.3622;1.8720;
1281.6000;0.3639;1.8695;
1281.9000;0.3622;1.8621;
1282.2000;0.3614;1.8671;
1282.5000;0.3606;1.8646;
1282.8000;0.3647;1.8671;
1283.1000;0.3614;1.8671;
1283.4000;0.3614;1.8671;
1283.7000;0.3598;1.8744;
1284.0000;0.3622;1.8794;
1284.3000;0.3630;1.8769;
1284.6000;0.3622;1.8720;
1284.9000;0.3606;1.8720;
1285.2000;0.3606;1.8769;
1285.5000;0.3614;1.8818;
1285.8000;0.3606;1.8867;
1286.1000;0.3622;1.8892;
1286.4000;0.3696;1.9040;
1286.7000;0.3663;1.8892;
1287.0000;0.3622;1.8744;
1287.3000;0.3630;1.8720;
1287.6000;0.3622;1.8794;
1287.9000;0.3573;1.8671;
1288.2000;0.3614;1.8720;
1288.5000;0.3606;1.8794;
1288.8000;0.3614;1.8818;
1289.1000;0.3614;1.8892;
1289.4000;0.3622;1.8892;
1289.7000;0.3614;1.8867;
1290.0000;0.3622;1.8892;
1290.3000;0.3639;1.8892;
1290.6000;0.3630;1.8843;
1290.9000;0.3639;1.8794;
1291.2000;0.3622;1.8769;
1291.5000;0.3582;1.8523;
1291.8000;0.3639;1.8769;
1292.1000;0.3639;1.8794;
1292.4000;0.3671;1.8867;
1292.7000;0.3606;1.8769;
1293.0000;0.3622;1.8843;
1293.3000;0.3639;1.8892;
1293.6000;0.3622;1.8769;
1293.9000;0.3622;1.8769;
1294.2000;0.3639;1.8769;
1294.5000;0.3630;1.8769;
1294.8000;0.3639;1.8695;
1295.1000;0.3630;1.8646;
1295.4000;0.3630;1.8671;
1295.7000;0.3630;1.8720;
1296.0000;0.3614;1.8695;
1296.3000;0.3614;1.8769;
1296.6000;0.3622;1.8843;
1296.9000;0.3630;1.8843;
1297.2000;0.3622;1.8867;
1297.5000;0.3614;1.8917;
1297.8000;0.3606;1.8892;
1298.1000;0.3606;1.8892;
1298.4000;0.3614;1.8818;
1298.7000;0.3655;1.9040;
1299.0000;0.3557;1.8867;
1299.3000;0.3614;1.8966;
1299.6000;0.3639;1.8917;
1299.9000;0.3614;1.8867;
1300.2000;0.3614;1.8941;
1300.5000;0.3590;1.8892;
1300.8000;0.3614;1.8818;
1301.1000;0.3614;1.8794;
1301.4000;0.3590;1.8769;
1301.7000;0.3614;1.8843;
1302.0000;0.3630;1.8892;
1302.3000;0.3622;1.8818;
1302.6000;0.3614;1.8917;
1302.9000;0.3614;1.8941;
1303.2000;0.3614;1.8892;
1303.5000;0.3630;1.8892;
1303.8000;0.3630;1.8941;
1304.1000;0.3622;1.8892;
1304.4000;0.3630;1.8990;
1304.7000;0.3614;1.8941;
1305.0000;0.3614;1.8917;
1305.3000;0.3598;1.8720;
1305.6000;0.3614;1.8769;
1305.9000;0.3647;1.8843;
1306.2000;0.3630;1.8794;
1306.5000;0.3606;1.8769;
1306.8000;0.3606;1.8695;
1307.1000;0.3622;1.8818;
1307.4000;0.3639;1.8867;
1307.7000;0.3573;1.8744;
1308.0000;0.3614;1.8769;
1308.3000;0.3590;1.8769;
1308.6000;0.3606;1.8720;
1308.9000;0.3614;1.8769;
1309.2000;0.3598;1.8744;
1309.5000;0.3622;1.8867;
1309.8000;0.3606;1.8917;
1310.1000;0.3525;1.8744;
1310.4000;0.3606;1.8917;
1310.7000;0.3606;1.8990;
1311.0000;0.3622;1.8966;
1311.3000;0.3606;1.8892;
1311.6000;0.3630;1.8966;
1311.9000;0.3614;1.8917;
1312.2000;0.3533;1.8671;
1312.5000;0.3606;1.8867;
1312.8000;0.3606;1.8917;
1313.1000;0.3614;1.8917;
1313.4000;0.3606;1.8892;
1313.7000;0.3614;1.8843;
1314.0000;0.3606;1.8843;
1314.3000;0.3598;1.8843;
1314.6000;0.3614;1.8867;
1314.9000;0.3590;1.8818;
1315.2000;0.3549;1.8695;
1315.5000;0.3614;1.8917;
1315.8000;0.3541;1.8621;
1316.1000;0.3639;1.8892;
1316.4000;0.3622;1.8843;
1316.7000;0.3614;1.8769;
1317.0000;0.3622;1.8892;
1317.3000;0.3639;1.8867;
1317.6000;0.3639;1.8843;
1317.9000;0.3630;1.8843;
1318.2000;0.3671;1.8990;
1318.5000;0.3630;1.8917;
1318.8000;0.3614;1.8892;
1319.1000;0.3630;1.8867;
1319.4000;0.3614;1.8892;
1319.7000;0.3630;1.8966;
1320.0000;0.3630;1.9040;
1320.3000;0.3622;1.8990;
1320.6000;0.3614;1.8892;
1320.9000;0.3622;1.8917;
1321.2000;0.3639;1.8966;
1321.5000;0.3630;1.8966;
1321.8000;0.3614;1.8917;
1322.1000;0.3614;1.8941;
1322.4000;0.3614;1.8917;
1322.7000;0.3647;1.8941;
1323.0000;0.3614;1.8966;
1323.3000;0.3630;1.8990;
1323.6000;0.3614;1.8917;
1323.9000;0.3614;1.8892;
1324.2000;0.3647;1.8990;
1324.5000;0.3630;1.8941;
1324.8000;0.3598;1.9040;
1325.1000;0.3639;1.9040;
1325.4000;0.3630;1.9089;
1325.7000;0.3614;1.9015;
1326.0000;0.3622;1.8966;
1326.3000;0.3622;1.9040;
1326.6000;0.3606;1.8966;
1326.9000;0.3614;1.8941;
1327.2000;0.3622;1.8867;
1327.5000;0.3663;1.8917;
1327.8000;0.3630;1.8867;
1328.1000;0.3614;1.8917;
1328.4000;0.3622;1.8867;
1328.7000;0.3622;1.8941;
1329.0000;0.3630;1.9040;
1329.3000;0.3590;1.8892;
1329.6000;0.3614;1.8990;
1329.9000;0.3606;1.8941;
1330.2000;0.3582;1.8867;
1330.5000;0.3696;1.9138;
1330.8000;0.3614;1.8966;
1331.1000;0.3655;1.8917;
1331.4000;0.3614;1.8794;
1331.7000;0.3622;1.8769;
1332.0000;0.3622;1.8818;
1332.3000;0.3590;1.8769;
1332.6000;0.3606;1.8744;
1332.9000;0.3614;1.8769;
1333.2000;0.3614;1.8794;
1333.5000;0.3622;1.8843;
1333.8000;0.3630;1.8843;
1334.1000;0.3606;1.8867;
1334.4000;0.3639;1.8867;
1334.7000;0.3614;1.8769;
1335.0000;0.3630;1.8867;
1335.3000;0.3630;1.8818;
1335.6000;0.3687;1.8966;
1335.9000;0.3557;1.8597;
1336.2000;0.3696;1.8867;
1336.5000;0.3622;1.8695;
1336.8000;0.3614;1.8744;
1337.1000;0.3590;1.8695;
1337.4000;0.3606;1.8769;
1337.7000;0.3614;1.8769;
1338.0000;0.3606;1.8720;
1338.3000;0.3622;1.8794;
1338.6000;0.3590;1.8744;
1338.9000;0.3630;1.8769;
1339.2000;0.3614;1.8769;
1339.5000;0.3614;1.8769;
1339.8000;0.3590;1.8720;
1340.1000;0.3614;1.8769;
1340.4000;0.3614;1.8818;
1340.7000;0.3598;1.8769;
1341.0000;0.3622;1.8769;
1341.3000;0.3622;1.8818;
1341.6000;0.3630;1.8843;
1341.9000;0.3630;1.8818;
1342.2000;0.3614;1.8744;
1342.5000;0.3622;1.8695;
1342.8000;0.3614;1.8621;
1343.1000;0.3606;1.8621;
1343.4000;0.3614;1.8671;
1343.7000;0.3614;1.8720;
1344.0000;0.3622;1.8695;
1344.3000;0.3622;1.8720;
1344.6000;0.3582;1.8720;
1344.9000;0.3598;1.8843;
1345.2000;0.3614;1.8966;
1345.5000;0.3606;1.9089;
1345.8000;0.3606;1.9089;
1346.1000;0.3630;1.9187;
1346.4000;0.3630;1.9040;
1346.7000;0.3614;1.8892;
1347.0000;0.3622;1.8941;
1347.3000;0.3630;1.8941;
1347.6000;0.3622;1.8843;
1347.9000;0.3630;1.8843;
1348.2000;0.3622;1.8892;
1348.5000;0.3622;1.8917;
1348.8000;0.3614;1.8843;
1349.1000;0.3622;1.8892;
1349.4000;0.3630;1.8867;
1349.7000;0.3606;1.8818;
1350.0000;0.3622;1.8794;
1350.3000;0.3622;1.8818;
1350.6000;0.3622;1.8744;
1350.9000;0.3622;1.8720;
1351.2000;0.3614;1.8744;
1351.5000;0.3606;1.8720;
1351.8000;0.3630;1.8769;
1352.1000;0.3630;1.8720;
1352.4000;0.3663;1.8794;
1352.7000;0.3639;1.8818;
1353.0000;0.3647;1.8867;
1353.3000;0.3630;1.8867;
1353.6000;0.3639;1.8818;
1353.9000;0.3573;1.8572;
1354.2000;0.3630;1.8769;
1354.5000;0.3630;1.8769;
1354.8000;0.3639;1.8794;
1355.1000;0.3622;1.8744;
1355.4000;0.3590;1.8671;
1355.7000;0.3639;1.8695;
1356.0000;0.3622;1.8720;
1356.3000;0.3606;1.8695;
1356.6000;0.3614;1.8769;
1356.9000;0.3630;1.8769;
1357.2000;0.3622;1.8720;
1357.5000;0.3598;1.8671;
1357.8000;0.3630;1.8794;
1358.1000;0.3630;1.8744;
1358.4000;0.3590;1.8621;
1358.7000;0.3622;1.8646;
1359.0000;0.3598;1.8646;
1359.3000;0.3622;1.8695;
1359.6000;0.3614;1.8769;
1359.9000;0.3614;1.8818;
1360.2000;0.3606;1.8794;
1360.5000;0.3614;1.8843;
1360.8000;0.3622;1.8867;
1361.1000;0.3639;1.8843;
1361.4000;0.3582;1.8867;
1361.7000;0.3614;1.8990;
1362.0000;0.3614;1.9015;
1362.3000;0.3622;1.8892;
1362.6000;0.3598;1.8818;
1362.9000;0.3606;1.8917;
1363.2000;0.3630;1.9089;
1363.5000;0.3630;1.8966;
1363.8000;0.3622;1.8966;
1364.1000;0.3622;1.9064;
1364.4000;0.3614;1.8917;
1364.7000;0.3614;1.8794;
1365.0000;0.3598;1.8720;
1365.3000;0.3639;1.8794;
1365.6000;0.3614;1.8744;
1365.9000;0.3614;1.8769;
1366.2000;0.3606;1.8794;
1366.5000;0.3630;1.8818;
1366.8000;0.3614;1.8769;
1367.1000;0.3622;1.8843;
1367.4000;0.3630;1.8892;
1367.7000;0.3639;1.8867;
1368.0000;0.3582;1.8794;
1368.3000;0.3622;1.8892;
1368.6000;0.3622;1.8843;
1368.9000;0.3614;1.8794;
1369.2000;0.3606;1.8843;
1369.5000;0.3671;1.9015;
1369.8000;0.3614;1.8818;
1370.1000;0.3639;1.8794;
1370.4000;0.3630;1.8769;
1370.7000;0.3679;1.8917;
1371.0000;0.3630;1.8867;
1371.3000;0.3614;1.8843;
1371.6000;0.3598;1.8794;
1371.9000;0.3647;1.8818;
1372.2000;0.3630;1.8720;
1372.5000;0.3598;1.8548;
1372.8000;0.3639;1.8646;
1373.1000;0.3614;1.8597;
1373.4000;0.3630;1.8597;
1373.7000;0.3639;1.8597;
1374.0000;0.3622;1.8572;
1374.3000;0.3622;1.8646;
1374.6000;0.3614;1.8597;
1374.9000;0.3630;1.8597;
1375.2000;0.3622;1.8523;
1375.5000;0.3614;1.8498;
1375.8000;0.3606;1.8474;
1376.1000;0.3614;1.8449;
1376.4000;0.3606;1.8474;
1376.7000;0.3614;1.8449;
1377.0000;0.3614;1.8548;
1377.3000;0.3590;1.8523;
1377.6000;0.3622;1.8621;
1377.9000;0.3622;1.8695;
1378.2000;0.3639;1.8695;
1378.5000;0.3598;1.8671;
1378.8000;0.3622;1.8695;
1379.1000;0.3639;1.8794;
1379.4000;0.3614;1.8818;
1379.7000;0.3639;1.8867;
1380.0000;0.3622;1.8744;
1380.3000;0.3655;1.8843;
1380.6000;0.3622;1.8695;
1380.9000;0.3606;1.8646;
1381.2000;0.3590;1.8621;
1381.5000;0.3606;1.8671;
1381.8000;0.3630;1.8671;
1382.1000;0.3614;1.8646;
1382.4000;0.3598;1.8597;
1382.7000;0.3639;1.8572;
1383.0000;0.3630;1.8572;
1383.3000;0.3622;1.8548;
1383.6000;0.3598;1.8572;
1383.9000;0.3614;1.8720;
1384.2000;0.3622;1.8646;
1384.5000;0.3557;1.8375;
1384.8000;0.3622;1.8425;
1385.1000;0.3614;1.8425;
1385.4000;0.3630;1.8498;
1385.7000;0.3614;1.8548;
1386.0000;0.3622;1.8695;
1386.3000;0.3614;1.8744;
1386.6000;0.3573;1.8523;
1386.9000;0.3606;1.8548;
1387.2000;0.3598;1.8548;
1387.5000;0.3639;1.8621;
1387.8000;0.3614;1.8523;
1388.1000;0.3622;1.8523;
1388.4000;0.3639;1.8671;
1388.7000;0.3622;1.8671;
1389.0000;0.3614;1.8597;
1389.3000;0.3614;1.8597;
1389.6000;0.3606;1.8646;
1389.9000;0.3606;1.8671;
1390.2000;0.3622;1.8646;
1390.5000;0.3614;1.8621;
1390.8000;0.3590;1.8671;
1391.1000;0.3630;1.8843;
1391.4000;0.3622;1.8695;
1391.7000;0.3606;1.8572;
1392.0000;0.3565;1.8474;
1392.3000;0.3614;1.8597;
1392.6000;0.3622;1.8671;
1392.9000;0.3606;1.8597;
1393.2000;0.3639;1.8597;
1393.5000;0.3622;1.8548;
1393.8000;0.3630;1.8498;
1394.1000;0.3614;1.8425;
1394.4000;0.3614;1.8425;
1394.7000;0.3630;1.8498;
1395.0000;0.3622;1.8523;
1395.3000;0.3630;1.8597;
1395.6000;0.3622;1.8572;
1395.9000;0.3606;1.8548;
1396.2000;0.3614;1.8621;
1396.5000;0.3622;1.8671;
1396.8000;0.3606;1.8548;
1397.1000;0.3606;1.8572;
1397.4000;0.3614;1.8621;
1397.7000;0.3630;1.8646;
1398.0000;0.3606;1.8671;
1398.3000;0.3606;1.8671;
1398.6000;0.3614;1.8621;
1398.9000;0.3630;1.8621;
1399.2000;0.3639;1.8597;
1399.5000;0.3630;1.8720;
1399.8000;0.3622;1.8695;
