time/ms;Fluo/V;P700 deltaI/I x10³;
-199.8000;0.5625;-0.4954;
-199.5000;0.5625;-0.4929;
-199.2000;0.5665;-0.4831;
-198.9000;0.5625;-0.4831;
-198.6000;0.5617;-0.4855;
-198.3000;0.5633;-0.4880;
-198.0000;0.5714;-0.4609;
-197.7000;0.5625;-0.4806;
-197.4000;0.5641;-0.4732;
-197.1000;0.5633;-0.4806;
-196.8000;0.5633;-0.4855;
-196.5000;0.5625;-0.4855;
-196.2000;0.5649;-0.4806;
-195.9000;0.5657;-0.4831;
-195.6000;0.5633;-0.4855;
-195.3000;0.5625;-0.4905;
-195.0000;0.5625;-0.4905;
-194.7000;0.5633;-0.4831;
-194.4000;0.5633;-0.4831;
-194.1000;0.5649;-0.4880;
-193.8000;0.5641;-0.4855;
-193.5000;0.5633;-0.4905;
-193.2000;0.5649;-0.4905;
-192.9000;0.5625;-0.4979;
-192.6000;0.5625;-0.5003;
-192.3000;0.5633;-0.4929;
-192.0000;0.5608;-0.5003;
-191.7000;0.5633;-0.5028;
-191.4000;0.5665;-0.4905;
-191.1000;0.5625;-0.4954;
-190.8000;0.5617;-0.4979;
-190.5000;0.5608;-0.4954;
-190.2000;0.5617;-0.4831;
-189.9000;0.5641;-0.4757;
-189.6000;0.5625;-0.4831;
-189.3000;0.5625;-0.4880;
-189.0000;0.5641;-0.4831;
-188.7000;0.5625;-0.4905;
-188.4000;0.5633;-0.4905;
-188.1000;0.5649;-0.4855;
-187.8000;0.5617;-0.4880;
-187.5000;0.5649;-0.4806;
-187.2000;0.5649;-0.4781;
-186.9000;0.5665;-0.4781;
-186.6000;0.5641;-0.4905;
-186.3000;0.5641;-0.4831;
-186.0000;0.5665;-0.4781;
-185.7000;0.5641;-0.4781;
-185.4000;0.5617;-0.4732;
-185.1000;0.5617;-0.4732;
-184.8000;0.5625;-0.4757;
-184.5000;0.5633;-0.4757;
-184.2000;0.5617;-0.4757;
-183.9000;0.5600;-0.4831;
-183.6000;0.5633;-0.4806;
-183.3000;0.5633;-0.4732;
-183.0000;0.5641;-0.4732;
-182.7000;0.5608;-0.4757;
-182.4000;0.5584;-0.4880;
-182.1000;0.5617;-0.4806;
-181.8000;0.5674;-0.4732;
-181.5000;0.5625;-0.4831;
-181.2000;0.5649;-0.4757;
-180.9000;0.5600;-0.4806;
-180.6000;0.5625;-0.4781;
-180.3000;0.5641;-0.4732;
-180.0000;0.5665;-0.4683;
-179.7000;0.5625;-0.4831;
-179.4000;0.5641;-0.4757;
-179.1000;0.5592;-0.4929;
-178.8000;0.5633;-0.4806;
-178.5000;0.5633;-0.4880;
-178.2000;0.5649;-0.4880;
-177.9000;0.5633;-0.4929;
-177.6000;0.5633;-0.4929;
-177.3000;0.5641;-0.4880;
-177.0000;0.5674;-0.4732;
-176.7000;0.5527;-0.5077;
-176.4000;0.5633;-0.4880;
-176.1000;0.5633;-0.4979;
-175.8000;0.5633;-0.5028;
-175.5000;0.5592;-0.5053;
-175.2000;0.5625;-0.4954;
-174.9000;0.5633;-0.4905;
-174.6000;0.5649;-0.4880;
-174.3000;0.5674;-0.4831;
-174.0000;0.5617;-0.5028;
-173.7000;0.5633;-0.4905;
-173.4000;0.5649;-0.4855;
-173.1000;0.5665;-0.4831;
-172.8000;0.5625;-0.4929;
-172.5000;0.5584;-0.5126;
-172.2000;0.5617;-0.4979;
-171.9000;0.5617;-0.4979;
-171.6000;0.5641;-0.4880;
-171.3000;0.5633;-0.4880;
-171.0000;0.5625;-0.4905;
-170.7000;0.5641;-0.4855;
-170.4000;0.5665;-0.4732;
-170.1000;0.5665;-0.4831;
-169.8000;0.5641;-0.4905;
-169.5000;0.5649;-0.4880;
-169.2000;0.5633;-0.4855;
-168.9000;0.5568;-0.4954;
-168.6000;0.5608;-0.4880;
-168.3000;0.5633;-0.4855;
-168.0000;0.5600;-0.4929;
-167.7000;0.5633;-0.4905;
-167.4000;0.5633;-0.4929;
-167.1000;0.5633;-0.4732;
-166.8000;0.5633;-0.4707;
-166.5000;0.5608;-0.4707;
-166.2000;0.5617;-0.4634;
-165.9000;0.5633;-0.4634;
-165.6000;0.5657;-0.4634;
-165.3000;0.5625;-0.4658;
-165.0000;0.5617;-0.4732;
-164.7000;0.5649;-0.4732;
-164.4000;0.5584;-0.4905;
-164.1000;0.5625;-0.4732;
-163.8000;0.5625;-0.4732;
-163.5000;0.5617;-0.4732;
-163.2000;0.5706;-0.4486;
-162.9000;0.5625;-0.4732;
-162.6000;0.5600;-0.4781;
-162.3000;0.5625;-0.4781;
-162.0000;0.5665;-0.4707;
-161.7000;0.5633;-0.4831;
-161.4000;0.5625;-0.4806;
-161.1000;0.5625;-0.4806;
-160.8000;0.5641;-0.4781;
-160.5000;0.5665;-0.4707;
-160.2000;0.5625;-0.4658;
-159.9000;0.5641;-0.4683;
-159.6000;0.5600;-0.4781;
-159.3000;0.5633;-0.4683;
-159.0000;0.5625;-0.4732;
-158.7000;0.5576;-0.4806;
-158.4000;0.5690;-0.4584;
-158.1000;0.5584;-0.4683;
-157.8000;0.5592;-0.4683;
-157.5000;0.5633;-0.4658;
-157.2000;0.5641;-0.4584;
-156.9000;0.5665;-0.4584;
-156.6000;0.5625;-0.4757;
-156.3000;0.5674;-0.4584;
-156.0000;0.5633;-0.4757;
-155.7000;0.5682;-0.4560;
-155.4000;0.5625;-0.4757;
-155.1000;0.5617;-0.4757;
-154.8000;0.5657;-0.4781;
-154.5000;0.5682;-0.4658;
-154.2000;0.5633;-0.4831;
-153.9000;0.5625;-0.4707;
-153.6000;0.5649;-0.4634;
-153.3000;0.5625;-0.4658;
-153.0000;0.5600;-0.4757;
-152.7000;0.5625;-0.4634;
-152.4000;0.5625;-0.4658;
-152.1000;0.5625;-0.4757;
-151.8000;0.5551;-0.4979;
-151.5000;0.5657;-0.4757;
-151.2000;0.5633;-0.4781;
-150.9000;0.5641;-0.4781;
-150.6000;0.5633;-0.4732;
-150.3000;0.5641;-0.4658;
-150.0000;0.5633;-0.4634;
-149.7000;0.5641;-0.4658;
-149.4000;0.5633;-0.4781;
-149.1000;0.5641;-0.4831;
-148.8000;0.5698;-0.4634;
-148.5000;0.5592;-0.4929;
-148.2000;0.5625;-0.4855;
-147.9000;0.5560;-0.5126;
-147.6000;0.5608;-0.5028;
-147.3000;0.5633;-0.5003;
-147.0000;0.5617;-0.5028;
-146.7000;0.5641;-0.4929;
-146.4000;0.5633;-0.5028;
-146.1000;0.5665;-0.4880;
-145.8000;0.5690;-0.4732;
-145.5000;0.5625;-0.4954;
-145.2000;0.5633;-0.4880;
-144.9000;0.5633;-0.4781;
-144.6000;0.5625;-0.4806;
-144.3000;0.5633;-0.4855;
-144.0000;0.5625;-0.4905;
-143.7000;0.5649;-0.4880;
-143.4000;0.5592;-0.5053;
-143.1000;0.5698;-0.4806;
-142.8000;0.5625;-0.4954;
-142.5000;0.5649;-0.4880;
-142.2000;0.5617;-0.4831;
-141.9000;0.5608;-0.4880;
-141.6000;0.5633;-0.4880;
-141.3000;0.5657;-0.4806;
-141.0000;0.5568;-0.4929;
-140.7000;0.5608;-0.4831;
-140.4000;0.5641;-0.4831;
-140.1000;0.5649;-0.4806;
-139.8000;0.5608;-0.4880;
-139.5000;0.5551;-0.5003;
-139.2000;0.5625;-0.4855;
-138.9000;0.5633;-0.4929;
-138.6000;0.5641;-0.4954;
-138.3000;0.5617;-0.5003;
-138.0000;0.5617;-0.5053;
-137.7000;0.5625;-0.5028;
-137.4000;0.5617;-0.4979;
-137.1000;0.5551;-0.5077;
-136.8000;0.5657;-0.4806;
-136.5000;0.5625;-0.4757;
-136.2000;0.5641;-0.4683;
-135.9000;0.5617;-0.4732;
-135.6000;0.5633;-0.4658;
-135.3000;0.5633;-0.4707;
-135.0000;0.5633;-0.4732;
-134.7000;0.5633;-0.4757;
-134.4000;0.5625;-0.4683;
-134.1000;0.5600;-0.4707;
-133.8000;0.5584;-0.4757;
-133.5000;0.5617;-0.4781;
-133.2000;0.5633;-0.4757;
-132.9000;0.5690;-0.4707;
-132.6000;0.5625;-0.4806;
-132.3000;0.5641;-0.4658;
-132.0000;0.5649;-0.4584;
-131.7000;0.5633;-0.4707;
-131.4000;0.5641;-0.4658;
-131.1000;0.5511;-0.5003;
-130.8000;0.5617;-0.4707;
-130.5000;0.5641;-0.4683;
-130.2000;0.5625;-0.4781;
-129.9000;0.5617;-0.4831;
-129.6000;0.5698;-0.4634;
-129.3000;0.5617;-0.4831;
-129.0000;0.5649;-0.4757;
-128.7000;0.5625;-0.4732;
-128.4000;0.5617;-0.4806;
-128.1000;0.5625;-0.4905;
-127.8000;0.5608;-0.4954;
-127.5000;0.5641;-0.4855;
-127.2000;0.5657;-0.4831;
-126.9000;0.5674;-0.4831;
-126.6000;0.5641;-0.4880;
-126.3000;0.5617;-0.4855;
-126.0000;0.5641;-0.4683;
-125.7000;0.5657;-0.4609;
-125.4000;0.5633;-0.4634;
-125.1000;0.5665;-0.4584;
-124.8000;0.5682;-0.4560;
-124.5000;0.5633;-0.4683;
-124.2000;0.5625;-0.4707;
-123.9000;0.5511;-0.4979;
-123.6000;0.5633;-0.4707;
-123.3000;0.5633;-0.4707;
-123.0000;0.5576;-0.4880;
-122.7000;0.5633;-0.4732;
-122.4000;0.5625;-0.4732;
-122.1000;0.5649;-0.4634;
-121.8000;0.5633;-0.4609;
-121.5000;0.5633;-0.4609;
-121.2000;0.5641;-0.4560;
-120.9000;0.5633;-0.4535;
-120.6000;0.5649;-0.4609;
-120.3000;0.5617;-0.4732;
-120.0000;0.5641;-0.4806;
-119.7000;0.5641;-0.4757;
-119.4000;0.5641;-0.4781;
-119.1000;0.5592;-0.4929;
-118.8000;0.5584;-0.4905;
-118.5000;0.5649;-0.4757;
-118.2000;0.5625;-0.4831;
-117.9000;0.5633;-0.4757;
-117.6000;0.5682;-0.4806;
-117.3000;0.5600;-0.5003;
-117.0000;0.5617;-0.4954;
-116.7000;0.5576;-0.4979;
-116.4000;0.5584;-0.4929;
-116.1000;0.5625;-0.4880;
-115.8000;0.5633;-0.4855;
-115.5000;0.5625;-0.4880;
-115.2000;0.5625;-0.4880;
-114.9000;0.5608;-0.4880;
-114.6000;0.5633;-0.4757;
-114.3000;0.5592;-0.4905;
-114.0000;0.5698;-0.4510;
-113.7000;0.5641;-0.4683;
-113.4000;0.5641;-0.4609;
-113.1000;0.5633;-0.4584;
-112.8000;0.5633;-0.4609;
-112.5000;0.5690;-0.4387;
-112.2000;0.5617;-0.4584;
-111.9000;0.5641;-0.4535;
-111.6000;0.5633;-0.4609;
-111.3000;0.5674;-0.4535;
-111.0000;0.5633;-0.4683;
-110.7000;0.5649;-0.4732;
-110.4000;0.5617;-0.4707;
-110.1000;0.5617;-0.4658;
-109.8000;0.5706;-0.4486;
-109.5000;0.5690;-0.4535;
-109.2000;0.5641;-0.4732;
-108.9000;0.5633;-0.4757;
-108.6000;0.5600;-0.4831;
-108.3000;0.5625;-0.4831;
-108.0000;0.5657;-0.4831;
-107.7000;0.5633;-0.4905;
-107.4000;0.5633;-0.4855;
-107.1000;0.5657;-0.4732;
-106.8000;0.5608;-0.4806;
-106.5000;0.5617;-0.4831;
-106.2000;0.5649;-0.4855;
-105.9000;0.5551;-0.5102;
-105.6000;0.5633;-0.4831;
-105.3000;0.5633;-0.4905;
-105.0000;0.5649;-0.4757;
-104.7000;0.5641;-0.4757;
-104.4000;0.5633;-0.4806;
-104.1000;0.5641;-0.4658;
-103.8000;0.5641;-0.4634;
-103.5000;0.5633;-0.4707;
-103.2000;0.5641;-0.4757;
-102.9000;0.5641;-0.4732;
-102.6000;0.5625;-0.4781;
-102.3000;0.5649;-0.4781;
-102.0000;0.5633;-0.4732;
-101.7000;0.5641;-0.4609;
-101.4000;0.5657;-0.4609;
-101.1000;0.5690;-0.4560;
-100.8000;0.5633;-0.4683;
-100.5000;0.5617;-0.4732;
-100.2000;0.5617;-0.4732;
-99.9000;0.5625;-0.4707;
-99.6000;0.5633;-0.4683;
-99.3000;0.5641;-0.4732;
-99.0000;0.5633;-0.4707;
-98.7000;0.5617;-0.4732;
-98.4000;0.5633;-0.4806;
-98.1000;0.5600;-0.4929;
-97.8000;0.5625;-0.4880;
-97.5000;0.5617;-0.4880;
-97.2000;0.5617;-0.4831;
-96.9000;0.5617;-0.4781;
-96.6000;0.5633;-0.4757;
-96.3000;0.5641;-0.4732;
-96.0000;0.5608;-0.4831;
-95.7000;0.5608;-0.4831;
-95.4000;0.5633;-0.4831;
-95.1000;0.5625;-0.4855;
-94.8000;0.5641;-0.4855;
-94.5000;0.5617;-0.4954;
-94.2000;0.5608;-0.4979;
-93.9000;0.5649;-0.4855;
-93.6000;0.5576;-0.4929;
-93.3000;0.5665;-0.4855;
-93.0000;0.5617;-0.4954;
-92.7000;0.5657;-0.4929;
-92.4000;0.5633;-0.5003;
-92.1000;0.5625;-0.4929;
-91.8000;0.5625;-0.4880;
-91.5000;0.5625;-0.4954;
-91.2000;0.5714;-0.4658;
-90.9000;0.5633;-0.4880;
-90.6000;0.5633;-0.4905;
-90.3000;0.5739;-0.4560;
-90.0000;0.5649;-0.4732;
-89.7000;0.5551;-0.4905;
-89.4000;0.5633;-0.4757;
-89.1000;0.5649;-0.4831;
-88.8000;0.5641;-0.4954;
-88.5000;0.5641;-0.4905;
-88.2000;0.5617;-0.4929;
-87.9000;0.5625;-0.4880;
-87.6000;0.5641;-0.4757;
-87.3000;0.5649;-0.4757;
-87.0000;0.5617;-0.4831;
-86.7000;0.5641;-0.4831;
-86.4000;0.5608;-0.4806;
-86.1000;0.5608;-0.4880;
-85.8000;0.5592;-0.4806;
-85.5000;0.5633;-0.4658;
-85.2000;0.5617;-0.4707;
-84.9000;0.5641;-0.4634;
-84.6000;0.5617;-0.4707;
-84.3000;0.5633;-0.4658;
-84.0000;0.5633;-0.4584;
-83.7000;0.5649;-0.4510;
-83.4000;0.5543;-0.4954;
-83.1000;0.5641;-0.4732;
-82.8000;0.5625;-0.4658;
-82.5000;0.5625;-0.4707;
-82.2000;0.5633;-0.4855;
-81.9000;0.5608;-0.4905;
-81.6000;0.5625;-0.4855;
-81.3000;0.5649;-0.4831;
-81.0000;0.5608;-0.4880;
-80.7000;0.5633;-0.4855;
-80.4000;0.5641;-0.4979;
-80.1000;0.5633;-0.4929;
-79.8000;0.5641;-0.4929;
-79.5000;0.5633;-0.4880;
-79.2000;0.5682;-0.4781;
-78.9000;0.5633;-0.4806;
-78.6000;0.5649;-0.4732;
-78.3000;0.5633;-0.4855;
-78.0000;0.5617;-0.4905;
-77.7000;0.5535;-0.5077;
-77.4000;0.5600;-0.4855;
-77.1000;0.5641;-0.4831;
-76.8000;0.5617;-0.4929;
-76.5000;0.5633;-0.4855;
-76.2000;0.5641;-0.4855;
-75.9000;0.5633;-0.4929;
-75.6000;0.5665;-0.4880;
-75.3000;0.5739;-0.4658;
-75.0000;0.5665;-0.4880;
-74.7000;0.5682;-0.4831;
-74.4000;0.5665;-0.4905;
-74.1000;0.5641;-0.5003;
-73.8000;0.5641;-0.4979;
-73.5000;0.5649;-0.5003;
-73.2000;0.5617;-0.5102;
-72.9000;0.5625;-0.5028;
-72.6000;0.5649;-0.4929;
-72.3000;0.5617;-0.5003;
-72.0000;0.5641;-0.4880;
-71.7000;0.5641;-0.4905;
-71.4000;0.5633;-0.4880;
-71.1000;0.5633;-0.4855;
-70.8000;0.5617;-0.4831;
-70.5000;0.5633;-0.4806;
-70.2000;0.5649;-0.4757;
-69.9000;0.5641;-0.4707;
-69.6000;0.5641;-0.4707;
-69.3000;0.5641;-0.4707;
-69.0000;0.5633;-0.4707;
-68.7000;0.5649;-0.4707;
-68.4000;0.5625;-0.4707;
-68.1000;0.5649;-0.4683;
-67.8000;0.5633;-0.4732;
-67.5000;0.5625;-0.4683;
-67.2000;0.5649;-0.4658;
-66.9000;0.5649;-0.4683;
-66.6000;0.5633;-0.4707;
-66.3000;0.5641;-0.4707;
-66.0000;0.5633;-0.4781;
-65.7000;0.5625;-0.4831;
-65.4000;0.5739;-0.4584;
-65.1000;0.5641;-0.4831;
-64.8000;0.5633;-0.4781;
-64.5000;0.5625;-0.4781;
-64.2000;0.5625;-0.4634;
-63.9000;0.5617;-0.4757;
-63.6000;0.5568;-0.4880;
-63.3000;0.5633;-0.4757;
-63.0000;0.5600;-0.4831;
-62.7000;0.5641;-0.4757;
-62.4000;0.5690;-0.4584;
-62.1000;0.5641;-0.4707;
-61.8000;0.5592;-0.4855;
-61.5000;0.5625;-0.4781;
-61.2000;0.5641;-0.4806;
-60.9000;0.5633;-0.4781;
-60.6000;0.5698;-0.4510;
-60.3000;0.5617;-0.4781;
-60.0000;0.5633;-0.4855;
-59.7000;0.5600;-0.4954;
-59.4000;0.5682;-0.4757;
-59.1000;0.5625;-0.4855;
-58.8000;0.5625;-0.4855;
-58.5000;0.5625;-0.4806;
-58.2000;0.5617;-0.4855;
-57.9000;0.5592;-0.4929;
-57.6000;0.5617;-0.4880;
-57.3000;0.5608;-0.4929;
-57.0000;0.5657;-0.4831;
-56.7000;0.5633;-0.4929;
-56.4000;0.5608;-0.5053;
-56.1000;0.5633;-0.4954;
-55.8000;0.5617;-0.4954;
-55.5000;0.5633;-0.4979;
-55.2000;0.5617;-0.4905;
-54.9000;0.5633;-0.4806;
-54.6000;0.5633;-0.4757;
-54.3000;0.5641;-0.4732;
-54.0000;0.5641;-0.4732;
-53.7000;0.5625;-0.4707;
-53.4000;0.5641;-0.4658;
-53.1000;0.5535;-0.4905;
-52.8000;0.5617;-0.4683;
-52.5000;0.5625;-0.4732;
-52.2000;0.5625;-0.4683;
-51.9000;0.5625;-0.4781;
-51.6000;0.5608;-0.4831;
-51.3000;0.5641;-0.4855;
-51.0000;0.5608;-0.4905;
-50.7000;0.5625;-0.4855;
-50.4000;0.5633;-0.4855;
-50.1000;0.5633;-0.4831;
-49.8000;0.5633;-0.4855;
-49.5000;0.5674;-0.4806;
-49.2000;0.5617;-0.4880;
-48.9000;0.5690;-0.4732;
-48.6000;0.5633;-0.4880;
-48.3000;0.5633;-0.4880;
-48.0000;0.5625;-0.4905;
-47.7000;0.5633;-0.4905;
-47.4000;0.5625;-0.5003;
-47.1000;0.5633;-0.4979;
-46.8000;0.5600;-0.5102;
-46.5000;0.5625;-0.5077;
-46.2000;0.5617;-0.5053;
-45.9000;0.5649;-0.5053;
-45.6000;0.5600;-0.5126;
-45.3000;0.5625;-0.5053;
-45.0000;0.5633;-0.5053;
-44.7000;0.5625;-0.5077;
-44.4000;0.5633;-0.5053;
-44.1000;0.5625;-0.5126;
-43.8000;0.5649;-0.4979;
-43.5000;0.5608;-0.5053;
-43.2000;0.5674;-0.4979;
-42.9000;0.5633;-0.5028;
-42.6000;0.5633;-0.4929;
-42.3000;0.5633;-0.4905;
-42.0000;0.5535;-0.5102;
-41.7000;0.5617;-0.5003;
-41.4000;0.5617;-0.5053;
-41.1000;0.5527;-0.5200;
-40.8000;0.5633;-0.4855;
-40.5000;0.5625;-0.4831;
-40.2000;0.5641;-0.4855;
-39.9000;0.5625;-0.4954;
-39.6000;0.5608;-0.5028;
-39.3000;0.5625;-0.4929;
-39.0000;0.5617;-0.5028;
-38.7000;0.5600;-0.5028;
-38.4000;0.5584;-0.5102;
-38.1000;0.5641;-0.4905;
-37.8000;0.5641;-0.4979;
-37.5000;0.5690;-0.4929;
-37.2000;0.5641;-0.5028;
-36.9000;0.5641;-0.4954;
-36.6000;0.5625;-0.5028;
-36.3000;0.5641;-0.4954;
-36.0000;0.5649;-0.4905;
-35.7000;0.5625;-0.4855;
-35.4000;0.5641;-0.4855;
-35.1000;0.5641;-0.4905;
-34.8000;0.5633;-0.5003;
-34.5000;0.5592;-0.5102;
-34.2000;0.5641;-0.4929;
-33.9000;0.5649;-0.4905;
-33.6000;0.5633;-0.4954;
-33.3000;0.5592;-0.5028;
-33.0000;0.5608;-0.5077;
-32.7000;0.5633;-0.5102;
-32.4000;0.5641;-0.5077;
-32.1000;0.5641;-0.5053;
-31.8000;0.5584;-0.5151;
-31.5000;0.5633;-0.4905;
-31.2000;0.5649;-0.4831;
-30.9000;0.5698;-0.4683;
-30.6000;0.5633;-0.4831;
-30.3000;0.5690;-0.4658;
-30.0000;0.5649;-0.4806;
-29.7000;0.5560;-0.5053;
-29.4000;0.5641;-0.4806;
-29.1000;0.5641;-0.4732;
-28.8000;0.5649;-0.4634;
-28.5000;0.5649;-0.4781;
-28.2000;0.5674;-0.4634;
-27.9000;0.5682;-0.4584;
-27.6000;0.5608;-0.4757;
-27.3000;0.5625;-0.4757;
-27.0000;0.5600;-0.4855;
-26.7000;0.5633;-0.4658;
-26.4000;0.5641;-0.4683;
-26.1000;0.5600;-0.4732;
-25.8000;0.5633;-0.4683;
-25.5000;0.5600;-0.4781;
-25.2000;0.5633;-0.4757;
-24.9000;0.5625;-0.4757;
-24.6000;0.5568;-0.4880;
-24.3000;0.5625;-0.4683;
-24.0000;0.5617;-0.4806;
-23.7000;0.5633;-0.4781;
-23.4000;0.5641;-0.4658;
-23.1000;0.5625;-0.4634;
-22.8000;0.5608;-0.4732;
-22.5000;0.5568;-0.4880;
-22.2000;0.5608;-0.4781;
-21.9000;0.5608;-0.4707;
-21.6000;0.5633;-0.4707;
-21.3000;0.5625;-0.4757;
-21.0000;0.5633;-0.4732;
-20.7000;0.5617;-0.4781;
-20.4000;0.5617;-0.4757;
-20.1000;0.5714;-0.4535;
-19.8000;0.5617;-0.4757;
-19.5000;0.5617;-0.4781;
-19.2000;0.5641;-0.4707;
-18.9000;0.5641;-0.4658;
-18.6000;0.5641;-0.4609;
-18.3000;0.5641;-0.4658;
-18.0000;0.5649;-0.4658;
-17.7000;0.5657;-0.4707;
-17.4000;0.5641;-0.4732;
-17.1000;0.5649;-0.4880;
-16.8000;0.5600;-0.4929;
-16.5000;0.5665;-0.4781;
-16.2000;0.5625;-0.4905;
-15.9000;0.5625;-0.4929;
-15.6000;0.5617;-0.4979;
-15.3000;0.5608;-0.5003;
-15.0000;0.5617;-0.4979;
-14.7000;0.5641;-0.4880;
-14.4000;0.5625;-0.4880;
-14.1000;0.5608;-0.4880;
-13.8000;0.5633;-0.4855;
-13.5000;0.5665;-0.4757;
-13.2000;0.5625;-0.4806;
-12.9000;0.5641;-0.4781;
-12.6000;0.5617;-0.4954;
-12.3000;0.5641;-0.4880;
-12.0000;0.5641;-0.4880;
-11.7000;0.5600;-0.5028;
-11.4000;0.5641;-0.4905;
-11.1000;0.5592;-0.5053;
-10.8000;0.5641;-0.4880;
-10.5000;0.5617;-0.4880;
-10.2000;0.5625;-0.4855;
-9.9000;0.5608;-0.4905;
-9.6000;0.5617;-0.4880;
-9.3000;0.5633;-0.4855;
-9.0000;0.5641;-0.4806;
-8.7000;0.5682;-0.4757;
-8.4000;0.5649;-0.4781;
-8.1000;0.5641;-0.4757;
-7.8000;0.5674;-0.4658;
-7.5000;0.5641;-0.4781;
-7.2000;0.5649;-0.4707;
-6.9000;0.5633;-0.4757;
-6.6000;0.5625;-0.4658;
-6.3000;0.5641;-0.4658;
-6.0000;0.5649;-0.4634;
-5.7000;0.5617;-0.4732;
-5.4000;0.5625;-0.4707;
-5.1000;0.5706;-0.4560;
-4.8000;0.5649;-0.4757;
-4.5000;0.5625;-0.4855;
-4.2000;0.5617;-0.4905;
-3.9000;0.5608;-0.4905;
-3.6000;0.5649;-0.4831;
-3.3000;0.5633;-0.4683;
-3.0000;0.5641;-0.4609;
-2.7000;0.5617;-0.4683;
-2.4000;0.5592;-0.4855;
-2.1000;0.5633;-0.4781;
-1.8000;0.5625;-0.4880;
-1.5000;0.5600;-0.5003;
-1.2000;0.5625;-0.5003;
-0.9000;0.5641;-0.4880;
-0.6000;0.5535;-0.5151;
-0.3000;0.5641;-0.4880;
0.0000;0.5641;-0.4880;
0.3000;0.5706;-0.4658;
0.6000;0.5804;-0.4412;
0.9000;0.5926;-0.4141;
1.2000;0.6089;-0.3697;
1.5000;0.6097;-0.3623;
1.8000;0.6154;-0.3401;
2.1000;0.6243;-0.3130;
2.4000;0.6292;-0.2859;
2.7000;0.6276;-0.2785;
3.0000;0.6341;-0.2539;
3.3000;0.6333;-0.2514;
3.6000;0.6333;-0.2514;
3.9000;0.6300;-0.2637;
4.2000;0.6382;-0.2514;
4.5000;0.6390;-0.2539;
4.8000;0.6406;-0.2465;
5.1000;0.6422;-0.2391;
5.4000;0.6406;-0.2415;
5.7000;0.6447;-0.2366;
6.0000;0.6439;-0.2341;
6.3000;0.6455;-0.2391;
6.6000;0.6479;-0.2292;
6.9000;0.6488;-0.2194;
7.2000;0.6488;-0.2169;
7.5000;0.6488;-0.2169;
7.8000;0.6496;-0.2144;
8.1000;0.6512;-0.2144;
8.4000;0.6479;-0.2218;
8.7000;0.6536;-0.2095;
9.0000;0.6536;-0.2070;
9.3000;0.6520;-0.2095;
9.6000;0.6545;-0.2218;
9.9000;0.6545;-0.2169;
10.2000;0.6545;-0.2267;
10.5000;0.6561;-0.2317;
10.8000;0.6569;-0.2243;
11.1000;0.6569;-0.2267;
11.4000;0.6577;-0.2267;
11.7000;0.6569;-0.2267;
12.0000;0.6577;-0.2169;
12.3000;0.6593;-0.2169;
12.6000;0.6577;-0.2144;
12.9000;0.6585;-0.2218;
13.2000;0.6618;-0.2267;
13.5000;0.6602;-0.2267;
13.8000;0.6610;-0.2144;
14.1000;0.6626;-0.2095;
14.4000;0.6610;-0.2144;
14.7000;0.6634;-0.2120;
15.0000;0.6634;-0.2095;
15.3000;0.6626;-0.2070;
15.6000;0.6626;-0.2194;
15.9000;0.6610;-0.2218;
16.2000;0.6683;-0.2070;
16.5000;0.6642;-0.2194;
16.8000;0.6650;-0.2194;
17.1000;0.6667;-0.2070;
17.4000;0.6659;-0.2144;
17.7000;0.6659;-0.2144;
18.0000;0.6659;-0.2194;
18.3000;0.6683;-0.2144;
18.6000;0.6659;-0.2341;
18.9000;0.6683;-0.2317;
19.2000;0.6675;-0.2243;
19.5000;0.6691;-0.2243;
19.8000;0.6634;-0.2292;
20.1000;0.6659;-0.2292;
20.4000;0.6683;-0.2292;
20.7000;0.6691;-0.2341;
21.0000;0.6667;-0.2292;
21.3000;0.6691;-0.2292;
21.6000;0.6716;-0.2194;
21.9000;0.6699;-0.2194;
22.2000;0.6707;-0.2120;
22.5000;0.6691;-0.2218;
22.8000;0.6732;-0.2120;
23.1000;0.6683;-0.2267;
23.4000;0.6618;-0.2514;
23.7000;0.6634;-0.2465;
24.0000;0.6699;-0.2341;
24.3000;0.6659;-0.2391;
24.6000;0.6707;-0.2267;
24.9000;0.6716;-0.2267;
25.2000;0.6650;-0.2366;
25.5000;0.6707;-0.2218;
25.8000;0.6748;-0.2120;
26.1000;0.6748;-0.2243;
26.4000;0.6732;-0.2317;
26.7000;0.6699;-0.2341;
27.0000;0.6781;-0.2095;
27.3000;0.6764;-0.2169;
27.6000;0.6748;-0.2267;
27.9000;0.6732;-0.2366;
28.2000;0.6732;-0.2391;
28.5000;0.6740;-0.2391;
28.8000;0.6716;-0.2489;
29.1000;0.6772;-0.2317;
29.4000;0.6724;-0.2489;
29.7000;0.6764;-0.2341;
30.0000;0.6732;-0.2341;
30.3000;0.6732;-0.2267;
30.6000;0.6732;-0.2341;
30.9000;0.6740;-0.2391;
31.2000;0.6732;-0.2465;
31.5000;0.6732;-0.2637;
31.8000;0.6740;-0.2613;
32.1000;0.6740;-0.2613;
32.4000;0.6813;-0.2440;
32.7000;0.6732;-0.2637;
33.0000;0.6789;-0.2465;
33.3000;0.6748;-0.2539;
33.6000;0.6764;-0.2415;
33.9000;0.6756;-0.2440;
34.2000;0.6772;-0.2415;
34.5000;0.6764;-0.2415;
34.8000;0.6781;-0.2391;
35.1000;0.6781;-0.2366;
35.4000;0.6764;-0.2391;
35.7000;0.6772;-0.2292;
36.0000;0.6764;-0.2415;
36.3000;0.6756;-0.2415;
36.6000;0.6789;-0.2366;
36.9000;0.6789;-0.2415;
37.2000;0.6756;-0.2514;
37.5000;0.6781;-0.2465;
37.8000;0.6707;-0.2736;
38.1000;0.6764;-0.2613;
38.4000;0.6781;-0.2563;
38.7000;0.6772;-0.2489;
39.0000;0.6772;-0.2539;
39.3000;0.6789;-0.2489;
39.6000;0.6772;-0.2514;
39.9000;0.6813;-0.2465;
40.2000;0.6781;-0.2514;
40.5000;0.6781;-0.2563;
40.8000;0.6781;-0.2489;
41.1000;0.6789;-0.2563;
41.4000;0.6789;-0.2662;
41.7000;0.6764;-0.2736;
42.0000;0.6797;-0.2662;
42.3000;0.6789;-0.2662;
42.6000;0.6805;-0.2736;
42.9000;0.6789;-0.2686;
43.2000;0.6781;-0.2588;
43.5000;0.6797;-0.2489;
43.8000;0.6821;-0.2391;
44.1000;0.6813;-0.2415;
44.4000;0.6838;-0.2489;
44.7000;0.6789;-0.2588;
45.0000;0.6805;-0.2514;
45.3000;0.6789;-0.2563;
45.6000;0.6789;-0.2539;
45.9000;0.6797;-0.2613;
46.2000;0.6789;-0.2760;
46.5000;0.6764;-0.2859;
46.8000;0.6821;-0.2686;
47.1000;0.6805;-0.2686;
47.4000;0.6813;-0.2637;
47.7000;0.6838;-0.2588;
48.0000;0.6781;-0.2637;
48.3000;0.6821;-0.2637;
48.6000;0.6870;-0.2465;
48.9000;0.6838;-0.2563;
49.2000;0.6805;-0.2637;
49.5000;0.6838;-0.2489;
49.8000;0.6813;-0.2563;
50.1000;0.6813;-0.2539;
50.4000;0.6838;-0.2465;
50.7000;0.6797;-0.2686;
51.0000;0.6813;-0.2539;
51.3000;0.6878;-0.2292;
51.6000;0.6829;-0.2563;
51.9000;0.6862;-0.2489;
52.2000;0.6797;-0.2686;
52.5000;0.6854;-0.2563;
52.8000;0.6748;-0.2834;
53.1000;0.6821;-0.2514;
53.4000;0.6797;-0.2514;
53.7000;0.6821;-0.2440;
54.0000;0.6821;-0.2440;
54.3000;0.6789;-0.2440;
54.6000;0.6797;-0.2391;
54.9000;0.6829;-0.2317;
55.2000;0.6862;-0.2243;
55.5000;0.6748;-0.2514;
55.8000;0.6797;-0.2465;
56.1000;0.6813;-0.2366;
56.4000;0.6805;-0.2465;
56.7000;0.6870;-0.2391;
57.0000;0.6821;-0.2563;
57.3000;0.6805;-0.2637;
57.6000;0.6821;-0.2637;
57.9000;0.6838;-0.2539;
58.2000;0.6805;-0.2588;
58.5000;0.6846;-0.2514;
58.8000;0.6805;-0.2613;
59.1000;0.6854;-0.2465;
59.4000;0.6829;-0.2465;
59.7000;0.6854;-0.2440;
60.0000;0.6846;-0.2514;
60.3000;0.6838;-0.2588;
60.6000;0.6838;-0.2637;
60.9000;0.6821;-0.2686;
61.2000;0.6829;-0.2613;
61.5000;0.6846;-0.2514;
61.8000;0.6846;-0.2465;
62.1000;0.6838;-0.2489;
62.4000;0.6838;-0.2489;
62.7000;0.6829;-0.2465;
63.0000;0.6846;-0.2489;
63.3000;0.6838;-0.2539;
63.6000;0.6838;-0.2563;
63.9000;0.6797;-0.2588;
64.2000;0.6829;-0.2588;
64.5000;0.6846;-0.2662;
64.8000;0.6789;-0.2859;
65.1000;0.6838;-0.2711;
65.4000;0.6829;-0.2785;
65.7000;0.6846;-0.2736;
66.0000;0.6846;-0.2785;
66.3000;0.6813;-0.2760;
66.6000;0.6846;-0.2662;
66.9000;0.6846;-0.2686;
67.2000;0.6821;-0.2637;
67.5000;0.6797;-0.2785;
67.8000;0.6878;-0.2613;
68.1000;0.6854;-0.2662;
68.4000;0.6927;-0.2366;
68.7000;0.6846;-0.2563;
69.0000;0.6846;-0.2539;
69.3000;0.6886;-0.2465;
69.6000;0.6838;-0.2637;
69.9000;0.6846;-0.2613;
70.2000;0.6829;-0.2613;
70.5000;0.6878;-0.2489;
70.8000;0.6838;-0.2662;
71.1000;0.6846;-0.2637;
71.4000;0.6854;-0.2662;
71.7000;0.6854;-0.2810;
72.0000;0.6846;-0.2810;
72.3000;0.6846;-0.2884;
72.6000;0.6838;-0.2884;
72.9000;0.6821;-0.2908;
73.2000;0.6903;-0.2736;
73.5000;0.6862;-0.2785;
73.8000;0.6846;-0.2810;
74.1000;0.6862;-0.2785;
74.4000;0.6829;-0.2810;
74.7000;0.6854;-0.2760;
75.0000;0.6878;-0.2711;
75.3000;0.6854;-0.2662;
75.6000;0.6813;-0.2884;
75.9000;0.6829;-0.2810;
76.2000;0.6789;-0.2982;
76.5000;0.6838;-0.2884;
76.8000;0.6838;-0.2884;
77.1000;0.6846;-0.2760;
77.4000;0.6838;-0.2736;
77.7000;0.6838;-0.2736;
78.0000;0.6838;-0.2711;
78.3000;0.6846;-0.2637;
78.6000;0.6821;-0.2686;
78.9000;0.6838;-0.2662;
79.2000;0.6854;-0.2637;
79.5000;0.6846;-0.2686;
79.8000;0.6854;-0.2736;
80.1000;0.6911;-0.2613;
80.4000;0.6854;-0.2686;
80.7000;0.6870;-0.2637;
81.0000;0.6854;-0.2686;
81.3000;0.6854;-0.2613;
81.6000;0.6862;-0.2563;
81.9000;0.6870;-0.2563;
82.2000;0.6862;-0.2588;
82.5000;0.6870;-0.2613;
82.8000;0.6829;-0.2686;
83.1000;0.6862;-0.2637;
83.4000;0.6862;-0.2613;
83.7000;0.6862;-0.2514;
84.0000;0.6870;-0.2489;
84.3000;0.6862;-0.2588;
84.6000;0.6870;-0.2563;
84.9000;0.6878;-0.2489;
85.2000;0.6846;-0.2711;
85.5000;0.6878;-0.2662;
85.8000;0.6878;-0.2686;
86.1000;0.6870;-0.2711;
86.4000;0.6854;-0.2760;
86.7000;0.6854;-0.2810;
87.0000;0.6870;-0.2736;
87.3000;0.6935;-0.2637;
87.6000;0.6846;-0.2933;
87.9000;0.6862;-0.2958;
88.2000;0.6862;-0.3007;
88.5000;0.6878;-0.3007;
88.8000;0.6772;-0.3303;
89.1000;0.6862;-0.3081;
89.4000;0.6862;-0.3130;
89.7000;0.6870;-0.3155;
90.0000;0.6846;-0.3155;
90.3000;0.6838;-0.3179;
90.6000;0.6846;-0.3130;
90.9000;0.6854;-0.3130;
91.2000;0.6870;-0.3130;
91.5000;0.6886;-0.3081;
91.8000;0.6886;-0.3081;
92.1000;0.6821;-0.3204;
92.4000;0.6878;-0.3056;
92.7000;0.6854;-0.3105;
93.0000;0.6829;-0.3081;
93.3000;0.6878;-0.2933;
93.6000;0.6870;-0.2884;
93.9000;0.6878;-0.2834;
94.2000;0.6886;-0.2834;
94.5000;0.6886;-0.2884;
94.8000;0.6903;-0.2859;
95.1000;0.6968;-0.2637;
95.4000;0.6886;-0.2884;
95.7000;0.6854;-0.2908;
96.0000;0.6829;-0.3007;
96.3000;0.6895;-0.2810;
96.6000;0.6886;-0.2785;
96.9000;0.6886;-0.2859;
97.2000;0.6870;-0.2785;
97.5000;0.6862;-0.2736;
97.8000;0.6886;-0.2810;
98.1000;0.6870;-0.2908;
98.4000;0.6878;-0.2760;
98.7000;0.6870;-0.2785;
99.0000;0.6862;-0.2760;
99.3000;0.6862;-0.2859;
99.6000;0.6886;-0.2736;
99.9000;0.6838;-0.2810;
100.2000;0.6854;-0.2686;
100.5000;0.6838;-0.2711;
100.8000;0.6886;-0.2613;
101.1000;0.6878;-0.2736;
101.4000;0.6878;-0.2785;
101.7000;0.6870;-0.2859;
102.0000;0.6870;-0.2785;
102.3000;0.6862;-0.2662;
102.6000;0.6797;-0.2859;
102.9000;0.6870;-0.2637;
103.2000;0.6878;-0.2613;
103.5000;0.6878;-0.2613;
103.8000;0.6895;-0.2563;
104.1000;0.6886;-0.2613;
104.4000;0.6895;-0.2662;
104.7000;0.6878;-0.2588;
105.0000;0.6878;-0.2613;
105.3000;0.6895;-0.2539;
105.6000;0.6854;-0.2563;
105.9000;0.6870;-0.2514;
106.2000;0.6878;-0.2514;
106.5000;0.6870;-0.2588;
106.8000;0.6846;-0.2810;
107.1000;0.6878;-0.2711;
107.4000;0.6903;-0.2662;
107.7000;0.6870;-0.2785;
108.0000;0.6886;-0.2834;
108.3000;0.6886;-0.2785;
108.6000;0.6903;-0.2785;
108.9000;0.6895;-0.2908;
109.2000;0.6846;-0.3105;
109.5000;0.6886;-0.3032;
109.8000;0.6878;-0.3032;
110.1000;0.6927;-0.2884;
110.4000;0.6878;-0.2884;
110.7000;0.6886;-0.2859;
111.0000;0.6886;-0.2884;
111.3000;0.6870;-0.2908;
111.6000;0.6895;-0.2908;
111.9000;0.6870;-0.2958;
112.2000;0.6870;-0.2958;
112.5000;0.6878;-0.2933;
112.8000;0.6870;-0.2884;
113.1000;0.6854;-0.2834;
113.4000;0.6976;-0.2588;
113.7000;0.6895;-0.2810;
114.0000;0.6886;-0.2859;
114.3000;0.6846;-0.2908;
114.6000;0.6862;-0.2933;
114.9000;0.6854;-0.2884;
115.2000;0.6878;-0.2884;
115.5000;0.6886;-0.2859;
115.8000;0.6870;-0.2933;
116.1000;0.6927;-0.2834;
116.4000;0.6838;-0.2958;
116.7000;0.6878;-0.2933;
117.0000;0.6886;-0.2933;
117.3000;0.6895;-0.2933;
117.6000;0.6903;-0.2810;
117.9000;0.6886;-0.2834;
118.2000;0.6838;-0.2884;
118.5000;0.6927;-0.2736;
118.8000;0.6886;-0.2760;
119.1000;0.6960;-0.2686;
119.4000;0.6878;-0.2908;
119.7000;0.6878;-0.2958;
120.0000;0.6895;-0.2810;
120.3000;0.6895;-0.2810;
120.6000;0.6870;-0.2810;
120.9000;0.6886;-0.2736;
121.2000;0.6895;-0.2785;
121.5000;0.6886;-0.2834;
121.8000;0.6960;-0.2736;
122.1000;0.6878;-0.2982;
122.4000;0.6878;-0.2933;
122.7000;0.6895;-0.2884;
123.0000;0.6878;-0.2884;
123.3000;0.6878;-0.2810;
123.6000;0.6813;-0.2982;
123.9000;0.6895;-0.2810;
124.2000;0.6895;-0.2884;
124.5000;0.6886;-0.2908;
124.8000;0.6886;-0.2933;
125.1000;0.6854;-0.3007;
125.4000;0.6878;-0.2908;
125.7000;0.6903;-0.2834;
126.0000;0.6895;-0.2884;
126.3000;0.6886;-0.2810;
126.6000;0.6886;-0.2859;
126.9000;0.6903;-0.2834;
127.2000;0.6886;-0.2859;
127.5000;0.6878;-0.2933;
127.8000;0.6878;-0.2958;
128.1000;0.6870;-0.2958;
128.4000;0.6911;-0.2760;
128.7000;0.6903;-0.2810;
129.0000;0.6919;-0.2859;
129.3000;0.6870;-0.3032;
129.6000;0.6878;-0.2958;
129.9000;0.6878;-0.2859;
130.2000;0.6935;-0.2711;
130.5000;0.6911;-0.2908;
130.8000;0.6870;-0.3056;
131.1000;0.6886;-0.3105;
131.4000;0.6903;-0.3056;
131.7000;0.6927;-0.2933;
132.0000;0.6886;-0.2982;
132.3000;0.6886;-0.2958;
132.6000;0.6878;-0.2908;
132.9000;0.6878;-0.2982;
133.2000;0.6829;-0.3229;
133.5000;0.6878;-0.3105;
133.8000;0.6838;-0.3253;
134.1000;0.6895;-0.3130;
134.4000;0.6878;-0.3155;
134.7000;0.6870;-0.3056;
135.0000;0.6886;-0.3007;
135.3000;0.6895;-0.2908;
135.6000;0.6911;-0.2884;
135.9000;0.6878;-0.2859;
136.2000;0.6870;-0.2859;
136.5000;0.6854;-0.2933;
136.8000;0.6886;-0.2958;
137.1000;0.6886;-0.2958;
137.4000;0.6846;-0.3007;
137.7000;0.6886;-0.2908;
138.0000;0.6911;-0.2908;
138.3000;0.6878;-0.3007;
138.6000;0.6886;-0.2982;
138.9000;0.6878;-0.2884;
139.2000;0.6895;-0.2884;
139.5000;0.6854;-0.2859;
139.8000;0.6886;-0.2884;
140.1000;0.6886;-0.2958;
140.4000;0.6862;-0.2958;
140.7000;0.6911;-0.2884;
141.0000;0.6911;-0.2884;
141.3000;0.6895;-0.2884;
141.6000;0.6968;-0.2760;
141.9000;0.6943;-0.2810;
142.2000;0.6903;-0.2908;
142.5000;0.6919;-0.2884;
142.8000;0.6886;-0.2933;
143.1000;0.6903;-0.2810;
143.4000;0.6911;-0.2711;
143.7000;0.6862;-0.2834;
144.0000;0.6911;-0.2810;
144.3000;0.6895;-0.2859;
144.6000;0.6821;-0.3032;
144.9000;0.6878;-0.2884;
145.2000;0.6886;-0.2933;
145.5000;0.6960;-0.2810;
145.8000;0.6911;-0.2884;
146.1000;0.6886;-0.2982;
146.4000;0.6878;-0.2958;
146.7000;0.6886;-0.2982;
147.0000;0.6895;-0.2958;
147.3000;0.6862;-0.3007;
147.6000;0.6846;-0.2958;
147.9000;0.6878;-0.2810;
148.2000;0.6886;-0.2884;
148.5000;0.6886;-0.2810;
148.8000;0.6886;-0.2736;
149.1000;0.6878;-0.2810;
149.4000;0.6870;-0.2810;
149.7000;0.6870;-0.2686;
150.0000;0.6886;-0.2613;
150.3000;0.6886;-0.2613;
150.6000;0.6886;-0.2736;
150.9000;0.6911;-0.2637;
151.2000;0.6870;-0.2686;
151.5000;0.6895;-0.2563;
151.8000;0.6919;-0.2563;
152.1000;0.6903;-0.2588;
152.4000;0.6870;-0.2785;
152.7000;0.6886;-0.2736;
153.0000;0.6878;-0.2686;
153.3000;0.6886;-0.2711;
153.6000;0.6903;-0.2736;
153.9000;0.6878;-0.2736;
154.2000;0.6878;-0.2686;
154.5000;0.6886;-0.2711;
154.8000;0.6911;-0.2810;
155.1000;0.6903;-0.2908;
155.4000;0.6854;-0.3056;
155.7000;0.6895;-0.3007;
156.0000;0.6903;-0.2958;
156.3000;0.6829;-0.3204;
156.6000;0.6829;-0.3105;
156.9000;0.6943;-0.2785;
157.2000;0.6919;-0.2736;
157.5000;0.6886;-0.2785;
157.8000;0.6952;-0.2588;
158.1000;0.6878;-0.2760;
158.4000;0.6870;-0.2810;
158.7000;0.6895;-0.2785;
159.0000;0.6886;-0.2834;
159.3000;0.6886;-0.2834;
159.6000;0.6903;-0.2810;
159.9000;0.6895;-0.2859;
160.2000;0.6903;-0.2810;
160.5000;0.6870;-0.2933;
160.8000;0.6878;-0.2859;
161.1000;0.6903;-0.2760;
161.4000;0.6903;-0.2785;
161.7000;0.6886;-0.2859;
162.0000;0.6886;-0.2810;
162.3000;0.6854;-0.2884;
162.6000;0.6878;-0.2686;
162.9000;0.6886;-0.2711;
163.2000;0.6886;-0.2686;
163.5000;0.6886;-0.2711;
163.8000;0.6878;-0.2662;
164.1000;0.6878;-0.2736;
164.4000;0.6895;-0.2711;
164.7000;0.6895;-0.2711;
165.0000;0.6911;-0.2711;
165.3000;0.6895;-0.2834;
165.6000;0.6870;-0.2908;
165.9000;0.6886;-0.2810;
166.2000;0.6886;-0.2810;
166.5000;0.6886;-0.2785;
166.8000;0.6886;-0.2810;
167.1000;0.6886;-0.2736;
167.4000;0.6895;-0.2760;
167.7000;0.6895;-0.2834;
168.0000;0.6895;-0.2933;
168.3000;0.6886;-0.2785;
168.6000;0.6895;-0.2810;
168.9000;0.6903;-0.2859;
169.2000;0.6886;-0.2958;
169.5000;0.6903;-0.2958;
169.8000;0.6886;-0.2810;
170.1000;0.6886;-0.2834;
170.4000;0.6895;-0.2908;
170.7000;0.6886;-0.2958;
171.0000;0.6935;-0.2785;
171.3000;0.6895;-0.2884;
171.6000;0.6911;-0.2810;
171.9000;0.6862;-0.2908;
172.2000;0.6903;-0.2785;
172.5000;0.6846;-0.2859;
172.8000;0.6878;-0.2834;
173.1000;0.6886;-0.2859;
173.4000;0.6878;-0.2884;
173.7000;0.6878;-0.2933;
174.0000;0.6886;-0.2908;
174.3000;0.6895;-0.2785;
174.6000;0.6878;-0.2859;
174.9000;0.6886;-0.2884;
175.2000;0.6886;-0.2884;
175.5000;0.6886;-0.2908;
175.8000;0.6886;-0.2884;
176.1000;0.6886;-0.2834;
176.4000;0.6919;-0.2711;
176.7000;0.6903;-0.2760;
177.0000;0.6878;-0.2884;
177.3000;0.6919;-0.2810;
177.6000;0.6903;-0.2884;
177.9000;0.6895;-0.2859;
178.2000;0.6976;-0.2686;
178.5000;0.6886;-0.2908;
178.8000;0.6895;-0.2884;
179.1000;0.6886;-0.2982;
179.4000;0.6870;-0.3056;
179.7000;0.6862;-0.3105;
180.0000;0.6886;-0.3105;
180.3000;0.6878;-0.3007;
180.6000;0.6886;-0.2958;
180.9000;0.6870;-0.3056;
181.2000;0.6829;-0.3229;
181.5000;0.6895;-0.3007;
181.8000;0.6903;-0.3007;
182.1000;0.6895;-0.3081;
182.4000;0.6927;-0.2982;
182.7000;0.6886;-0.3056;
183.0000;0.6870;-0.3081;
183.3000;0.6886;-0.3056;
183.6000;0.6878;-0.3032;
183.9000;0.6935;-0.2958;
184.2000;0.6960;-0.2933;
184.5000;0.6903;-0.3056;
184.8000;0.6870;-0.3032;
185.1000;0.6878;-0.3007;
185.4000;0.6886;-0.3032;
185.7000;0.6878;-0.3056;
186.0000;0.6886;-0.3081;
186.3000;0.6870;-0.3130;
186.6000;0.6878;-0.3081;
186.9000;0.6878;-0.2982;
187.2000;0.6878;-0.2933;
187.5000;0.6878;-0.2982;
187.8000;0.6878;-0.3032;
188.1000;0.6952;-0.2958;
188.4000;0.6903;-0.3056;
188.7000;0.6895;-0.3130;
189.0000;0.6886;-0.3032;
189.3000;0.6870;-0.3081;
189.6000;0.6862;-0.3081;
189.9000;0.6886;-0.3056;
190.2000;0.6886;-0.3007;
190.5000;0.6886;-0.3032;
190.8000;0.6903;-0.3081;
191.1000;0.6870;-0.3130;
191.4000;0.6903;-0.3081;
191.7000;0.6911;-0.3007;
192.0000;0.6919;-0.3056;
192.3000;0.6846;-0.3253;
192.6000;0.6895;-0.3007;
192.9000;0.6886;-0.3032;
193.2000;0.6903;-0.2958;
193.5000;0.6927;-0.2908;
193.8000;0.6886;-0.3007;
194.1000;0.6895;-0.2908;
194.4000;0.6911;-0.2933;
194.7000;0.6878;-0.3032;
195.0000;0.6935;-0.2884;
195.3000;0.6862;-0.3032;
195.6000;0.6846;-0.3105;
195.9000;0.6878;-0.3032;
196.2000;0.6846;-0.3105;
196.5000;0.6895;-0.2958;
196.8000;0.6895;-0.2908;
197.1000;0.6903;-0.2958;
197.4000;0.6895;-0.2958;
197.7000;0.6878;-0.3056;
198.0000;0.6878;-0.3056;
198.3000;0.6878;-0.3081;
198.6000;0.6870;-0.3032;
198.9000;0.6854;-0.3032;
199.2000;0.6886;-0.2958;
199.5000;0.6878;-0.3056;
199.8000;0.6878;-0.3007;
200.1000;0.6903;-0.2933;
200.4000;0.6895;-0.2908;
200.7000;0.6886;-0.2884;
201.0000;0.6862;-0.2933;
201.3000;0.6895;-0.2933;
201.6000;0.6870;-0.2908;
201.9000;0.6903;-0.2760;
202.2000;0.6895;-0.2785;
202.5000;0.6886;-0.2859;
202.8000;0.6838;-0.3032;
203.1000;0.6862;-0.3007;
203.4000;0.6886;-0.2884;
203.7000;0.6878;-0.2834;
204.0000;0.6886;-0.2859;
204.3000;0.6878;-0.2884;
204.6000;0.6886;-0.2884;
204.9000;0.6919;-0.2785;
205.2000;0.6886;-0.2933;
205.5000;0.6886;-0.2908;
205.8000;0.6854;-0.2958;
206.1000;0.6895;-0.2834;
206.4000;0.6886;-0.2884;
206.7000;0.6886;-0.2908;
207.0000;0.6895;-0.2884;
207.3000;0.6805;-0.3179;
207.6000;0.6870;-0.3056;
207.9000;0.6878;-0.2958;
208.2000;0.6878;-0.2908;
208.5000;0.6895;-0.2884;
208.8000;0.6878;-0.2982;
209.1000;0.6878;-0.2933;
209.4000;0.6878;-0.2908;
209.7000;0.6878;-0.2884;
210.0000;0.6960;-0.2637;
210.3000;0.6886;-0.2760;
210.6000;0.6886;-0.2834;
210.9000;0.6903;-0.2785;
211.2000;0.6903;-0.2760;
211.5000;0.6911;-0.2637;
211.8000;0.6886;-0.2760;
212.1000;0.6895;-0.2785;
212.4000;0.6886;-0.2711;
212.7000;0.6886;-0.2810;
213.0000;0.6886;-0.2908;
213.3000;0.6886;-0.2859;
213.6000;0.6895;-0.2859;
213.9000;0.6911;-0.2711;
214.2000;0.6911;-0.2785;
214.5000;0.6911;-0.2785;
214.8000;0.6895;-0.2785;
215.1000;0.6903;-0.2785;
215.4000;0.6886;-0.2834;
215.7000;0.6886;-0.2810;
216.0000;0.6919;-0.2711;
216.3000;0.6919;-0.2662;
216.6000;0.6886;-0.2736;
216.9000;0.6895;-0.2760;
217.2000;0.6895;-0.2736;
217.5000;0.6862;-0.2884;
217.8000;0.6870;-0.3007;
218.1000;0.6862;-0.2982;
218.4000;0.6886;-0.2982;
218.7000;0.6870;-0.3081;
219.0000;0.6878;-0.2908;
219.3000;0.6870;-0.2859;
219.6000;0.6943;-0.2736;
219.9000;0.6886;-0.2810;
220.2000;0.6854;-0.2834;
220.5000;0.6862;-0.2884;
220.8000;0.6870;-0.2736;
221.1000;0.6862;-0.2736;
221.4000;0.6862;-0.2810;
221.7000;0.6886;-0.2736;
222.0000;0.6886;-0.2736;
222.3000;0.6886;-0.2760;
222.6000;0.6886;-0.2736;
222.9000;0.6829;-0.2884;
223.2000;0.6854;-0.2810;
223.5000;0.6870;-0.2711;
223.8000;0.6878;-0.2834;
224.1000;0.6895;-0.2859;
224.4000;0.6878;-0.2908;
224.7000;0.6886;-0.2810;
225.0000;0.6895;-0.2711;
225.3000;0.6870;-0.2810;
225.6000;0.6870;-0.2859;
225.9000;0.6829;-0.3007;
226.2000;0.6935;-0.2760;
226.5000;0.6870;-0.2958;
226.8000;0.6829;-0.3007;
227.1000;0.6870;-0.2884;
227.4000;0.6895;-0.2834;
227.7000;0.6862;-0.2908;
228.0000;0.6878;-0.2834;
228.3000;0.6886;-0.2760;
228.6000;0.6895;-0.2760;
228.9000;0.6821;-0.2958;
229.2000;0.6878;-0.2884;
229.5000;0.6870;-0.2859;
229.8000;0.6878;-0.2834;
230.1000;0.6895;-0.2859;
230.4000;0.6870;-0.2859;
230.7000;0.6862;-0.2810;
231.0000;0.6895;-0.2736;
231.3000;0.6895;-0.2760;
231.6000;0.6903;-0.2711;
231.9000;0.6870;-0.2760;
232.2000;0.6870;-0.2686;
232.5000;0.6895;-0.2662;
232.8000;0.6878;-0.2760;
233.1000;0.6870;-0.2760;
233.4000;0.6854;-0.2711;
233.7000;0.6854;-0.2662;
234.0000;0.6984;-0.2292;
234.3000;0.6886;-0.2637;
234.6000;0.6919;-0.2440;
234.9000;0.6862;-0.2539;
235.2000;0.6846;-0.2514;
235.5000;0.6854;-0.2489;
235.8000;0.6878;-0.2539;
236.1000;0.6846;-0.2785;
236.4000;0.6854;-0.2736;
236.7000;0.6870;-0.2637;
237.0000;0.6862;-0.2613;
237.3000;0.6895;-0.2637;
237.6000;0.6838;-0.2736;
237.9000;0.6878;-0.2563;
238.2000;0.6870;-0.2686;
238.5000;0.6878;-0.2662;
238.8000;0.6878;-0.2662;
239.1000;0.6886;-0.2588;
239.4000;0.6870;-0.2563;
239.7000;0.6862;-0.2662;
240.0000;0.6870;-0.2662;
240.3000;0.6895;-0.2613;
240.6000;0.6878;-0.2736;
240.9000;0.6895;-0.2637;
241.2000;0.6870;-0.2637;
241.5000;0.6903;-0.2489;
241.8000;0.6878;-0.2588;
242.1000;0.6895;-0.2563;
242.4000;0.6854;-0.2686;
242.7000;0.6870;-0.2637;
243.0000;0.6829;-0.2736;
243.3000;0.6878;-0.2539;
243.6000;0.6878;-0.2465;
243.9000;0.6886;-0.2514;
244.2000;0.6878;-0.2489;
244.5000;0.6886;-0.2415;
244.8000;0.6862;-0.2539;
245.1000;0.6854;-0.2539;
245.4000;0.6878;-0.2514;
245.7000;0.6911;-0.2539;
246.0000;0.6846;-0.2686;
246.3000;0.6821;-0.2760;
246.6000;0.6878;-0.2662;
246.9000;0.6862;-0.2637;
247.2000;0.6862;-0.2711;
247.5000;0.6870;-0.2662;
247.8000;0.6878;-0.2588;
248.1000;0.6854;-0.2588;
248.4000;0.6862;-0.2613;
248.7000;0.6862;-0.2662;
249.0000;0.6895;-0.2613;
249.3000;0.6862;-0.2810;
249.6000;0.6862;-0.2686;
249.9000;0.6862;-0.2736;
250.2000;0.6870;-0.2736;
250.5000;0.6878;-0.2686;
250.8000;0.6862;-0.2686;
251.1000;0.6862;-0.2736;
251.4000;0.6854;-0.2686;
251.7000;0.6878;-0.2637;
252.0000;0.6854;-0.2711;
252.3000;0.6862;-0.2785;
252.6000;0.6854;-0.2810;
252.9000;0.6862;-0.2834;
253.2000;0.6789;-0.3032;
253.5000;0.6862;-0.2760;
253.8000;0.6886;-0.2662;
254.1000;0.6870;-0.2760;
254.4000;0.6878;-0.2686;
254.7000;0.6870;-0.2613;
255.0000;0.6862;-0.2662;
255.3000;0.6886;-0.2588;
255.6000;0.6903;-0.2563;
255.9000;0.6878;-0.2613;
256.2000;0.6862;-0.2686;
256.5000;0.6854;-0.2686;
256.8000;0.6870;-0.2637;
257.1000;0.6870;-0.2686;
257.4000;0.6838;-0.2760;
257.7000;0.6870;-0.2686;
258.0000;0.6870;-0.2711;
258.3000;0.6862;-0.2711;
258.6000;0.6862;-0.2686;
258.9000;0.6870;-0.2662;
259.2000;0.6878;-0.2686;
259.5000;0.6895;-0.2465;
259.8000;0.6886;-0.2514;
260.1000;0.6854;-0.2588;
260.4000;0.6870;-0.2563;
260.7000;0.6878;-0.2539;
261.0000;0.6854;-0.2686;
261.3000;0.6886;-0.2539;
261.6000;0.6862;-0.2613;
261.9000;0.6895;-0.2637;
262.2000;0.6878;-0.2588;
262.5000;0.6878;-0.2539;
262.8000;0.6862;-0.2637;
263.1000;0.6886;-0.2563;
263.4000;0.6968;-0.2341;
263.7000;0.6870;-0.2539;
264.0000;0.6862;-0.2588;
264.3000;0.6862;-0.2637;
264.6000;0.6854;-0.2760;
264.9000;0.6862;-0.2810;
265.2000;0.6870;-0.2686;
265.5000;0.6813;-0.2810;
265.8000;0.6846;-0.2662;
266.1000;0.6870;-0.2686;
266.4000;0.6846;-0.2785;
266.7000;0.6870;-0.2785;
267.0000;0.6862;-0.2711;
267.3000;0.6862;-0.2686;
267.6000;0.6862;-0.2686;
267.9000;0.6854;-0.2736;
268.2000;0.6854;-0.2711;
268.5000;0.6862;-0.2613;
268.8000;0.6870;-0.2613;
269.1000;0.6862;-0.2613;
269.4000;0.6854;-0.2514;
269.7000;0.6870;-0.2514;
270.0000;0.6878;-0.2514;
270.3000;0.6911;-0.2514;
270.6000;0.6878;-0.2539;
270.9000;0.6813;-0.2760;
271.2000;0.6805;-0.2736;
271.5000;0.6870;-0.2613;
271.8000;0.6862;-0.2637;
272.1000;0.6854;-0.2637;
272.4000;0.6854;-0.2563;
272.7000;0.6886;-0.2539;
273.0000;0.6870;-0.2563;
273.3000;0.6854;-0.2637;
273.6000;0.6886;-0.2588;
273.9000;0.6960;-0.2465;
274.2000;0.6862;-0.2686;
274.5000;0.6878;-0.2686;
274.8000;0.6903;-0.2662;
275.1000;0.6854;-0.2760;
275.4000;0.6846;-0.2810;
275.7000;0.6870;-0.2736;
276.0000;0.6870;-0.2785;
276.3000;0.6862;-0.2908;
276.6000;0.6846;-0.2908;
276.9000;0.6821;-0.2908;
277.2000;0.6854;-0.2884;
277.5000;0.6870;-0.2760;
277.8000;0.6870;-0.2711;
278.1000;0.6862;-0.2711;
278.4000;0.6862;-0.2686;
278.7000;0.6870;-0.2736;
279.0000;0.6886;-0.2711;
279.3000;0.6846;-0.2859;
279.6000;0.6878;-0.2785;
279.9000;0.6886;-0.2711;
280.2000;0.6895;-0.2662;
280.5000;0.6862;-0.2760;
280.8000;0.6878;-0.2834;
281.1000;0.6895;-0.2760;
281.4000;0.6878;-0.2834;
281.7000;0.6870;-0.2834;
282.0000;0.6862;-0.2834;
282.3000;0.6886;-0.2736;
282.6000;0.6846;-0.2884;
282.9000;0.6862;-0.2884;
283.2000;0.6838;-0.2908;
283.5000;0.6870;-0.2834;
283.8000;0.6870;-0.2834;
284.1000;0.6854;-0.2859;
284.4000;0.6870;-0.2810;
284.7000;0.6862;-0.2859;
285.0000;0.6862;-0.2834;
285.3000;0.6886;-0.2736;
285.6000;0.6870;-0.2711;
285.9000;0.6870;-0.2613;
286.2000;0.6854;-0.2637;
286.5000;0.6846;-0.2588;
286.8000;0.6838;-0.2637;
287.1000;0.6935;-0.2366;
287.4000;0.6846;-0.2711;
287.7000;0.6878;-0.2662;
288.0000;0.6862;-0.2686;
288.3000;0.6854;-0.2736;
288.6000;0.6846;-0.2736;
288.9000;0.6862;-0.2736;
289.2000;0.6870;-0.2686;
289.5000;0.6870;-0.2662;
289.8000;0.6862;-0.2662;
290.1000;0.6870;-0.2662;
290.4000;0.6878;-0.2711;
290.7000;0.6862;-0.2662;
291.0000;0.6862;-0.2637;
291.3000;0.6886;-0.2588;
291.6000;0.6854;-0.2785;
291.9000;0.6854;-0.2884;
292.2000;0.6846;-0.2760;
292.5000;0.6870;-0.2785;
292.8000;0.6854;-0.2760;
293.1000;0.6838;-0.2884;
293.4000;0.6878;-0.2760;
293.7000;0.6870;-0.2711;
294.0000;0.6878;-0.2662;
294.3000;0.6838;-0.2760;
294.6000;0.6870;-0.2736;
294.9000;0.6854;-0.2760;
295.2000;0.6854;-0.2810;
295.5000;0.6854;-0.2785;
295.8000;0.6854;-0.2760;
296.1000;0.6862;-0.2711;
296.4000;0.6878;-0.2637;
296.7000;0.6829;-0.2736;
297.0000;0.6846;-0.2736;
297.3000;0.6854;-0.2736;
297.6000;0.6870;-0.2711;
297.9000;0.6927;-0.2489;
298.2000;0.6878;-0.2588;
298.5000;0.6846;-0.2588;
298.8000;0.6846;-0.2539;
299.1000;0.6862;-0.2415;
299.4000;0.6854;-0.2440;
299.7000;0.6854;-0.2489;
300.0000;0.6846;-0.2514;
300.3000;0.6870;-0.2465;
300.6000;0.6854;-0.2563;
300.9000;0.6862;-0.2637;
301.2000;0.6813;-0.2711;
301.5000;0.6862;-0.2563;
301.8000;0.6854;-0.2588;
302.1000;0.6838;-0.2563;
302.4000;0.6895;-0.2391;
302.7000;0.6838;-0.2514;
303.0000;0.6870;-0.2489;
303.3000;0.6886;-0.2489;
303.6000;0.6854;-0.2662;
303.9000;0.6854;-0.2662;
304.2000;0.6870;-0.2637;
304.5000;0.6886;-0.2514;
304.8000;0.6862;-0.2563;
305.1000;0.6838;-0.2613;
305.4000;0.6862;-0.2539;
305.7000;0.6854;-0.2637;
306.0000;0.6854;-0.2662;
306.3000;0.6976;-0.2391;
306.6000;0.6862;-0.2760;
306.9000;0.6919;-0.2588;
307.2000;0.6943;-0.2539;
307.5000;0.6927;-0.2588;
307.8000;0.6870;-0.2686;
308.1000;0.6846;-0.2736;
308.4000;0.6846;-0.2736;
308.7000;0.6846;-0.2736;
309.0000;0.6854;-0.2711;
309.3000;0.6854;-0.2686;
309.6000;0.6838;-0.2711;
309.9000;0.6862;-0.2686;
310.2000;0.6846;-0.2662;
310.5000;0.6862;-0.2662;
310.8000;0.6846;-0.2711;
311.1000;0.6846;-0.2785;
311.4000;0.6862;-0.2736;
311.7000;0.6878;-0.2686;
312.0000;0.6854;-0.2736;
312.3000;0.6854;-0.2760;
312.6000;0.6862;-0.2834;
312.9000;0.6927;-0.2613;
313.2000;0.6862;-0.2686;
313.5000;0.6854;-0.2736;
313.8000;0.6911;-0.2662;
314.1000;0.6789;-0.2933;
314.4000;0.6854;-0.2834;
314.7000;0.6862;-0.2884;
315.0000;0.6895;-0.2810;
315.3000;0.6903;-0.2686;
315.6000;0.6870;-0.2785;
315.9000;0.6895;-0.2736;
316.2000;0.6838;-0.2834;
316.5000;0.6862;-0.2736;
316.8000;0.6838;-0.2760;
317.1000;0.6846;-0.2760;
317.4000;0.6846;-0.2785;
317.7000;0.6854;-0.2760;
318.0000;0.6854;-0.2785;
318.3000;0.6854;-0.2711;
318.6000;0.6854;-0.2711;
318.9000;0.6846;-0.2736;
319.2000;0.6829;-0.2760;
319.5000;0.6838;-0.2760;
319.8000;0.6878;-0.2662;
320.1000;0.6846;-0.2686;
320.4000;0.6878;-0.2662;
320.7000;0.6919;-0.2637;
321.0000;0.6862;-0.2785;
321.3000;0.6854;-0.2736;
321.6000;0.6846;-0.2736;
321.9000;0.6862;-0.2736;
322.2000;0.6854;-0.2686;
322.5000;0.6862;-0.2662;
322.8000;0.6854;-0.2686;
323.1000;0.6846;-0.2613;
323.4000;0.6829;-0.2637;
323.7000;0.6846;-0.2637;
324.0000;0.6854;-0.2662;
324.3000;0.6870;-0.2613;
324.6000;0.6854;-0.2736;
324.9000;0.6886;-0.2662;
325.2000;0.6854;-0.2785;
325.5000;0.6886;-0.2637;
325.8000;0.6870;-0.2662;
326.1000;0.6870;-0.2539;
326.4000;0.6854;-0.2613;
326.7000;0.6854;-0.2686;
327.0000;0.6870;-0.2711;
327.3000;0.6911;-0.2613;
327.6000;0.6854;-0.2760;
327.9000;0.6878;-0.2736;
328.2000;0.6878;-0.2686;
328.5000;0.6870;-0.2736;
328.8000;0.6878;-0.2736;
329.1000;0.6854;-0.2785;
329.4000;0.6862;-0.2810;
329.7000;0.6846;-0.2859;
330.0000;0.6862;-0.2785;
330.3000;0.6919;-0.2686;
330.6000;0.6805;-0.2958;
330.9000;0.6846;-0.2834;
331.2000;0.6854;-0.2884;
331.5000;0.6854;-0.2908;
331.8000;0.6829;-0.2834;
332.1000;0.6854;-0.2785;
332.4000;0.6846;-0.2785;
332.7000;0.6846;-0.2859;
333.0000;0.6854;-0.2760;
333.3000;0.6862;-0.2637;
333.6000;0.6846;-0.2711;
333.9000;0.6854;-0.2810;
334.2000;0.6878;-0.2736;
334.5000;0.6854;-0.2736;
334.8000;0.6854;-0.2760;
335.1000;0.6781;-0.2884;
335.4000;0.6846;-0.2711;
335.7000;0.6838;-0.2785;
336.0000;0.6805;-0.2834;
336.3000;0.6870;-0.2711;
336.6000;0.6829;-0.2834;
336.9000;0.6846;-0.2859;
337.2000;0.6862;-0.2662;
337.5000;0.6854;-0.2588;
337.8000;0.6838;-0.2637;
338.1000;0.6838;-0.2662;
338.4000;0.6854;-0.2637;
338.7000;0.6846;-0.2686;
339.0000;0.6829;-0.2686;
339.3000;0.6854;-0.2637;
339.6000;0.6870;-0.2662;
339.9000;0.6862;-0.2613;
340.2000;0.6854;-0.2637;
340.5000;0.6870;-0.2539;
340.8000;0.6846;-0.2563;
341.1000;0.6862;-0.2588;
341.4000;0.6854;-0.2613;
341.7000;0.6862;-0.2613;
342.0000;0.6862;-0.2637;
342.3000;0.6862;-0.2514;
342.6000;0.6862;-0.2563;
342.9000;0.6854;-0.2563;
343.2000;0.6854;-0.2588;
343.5000;0.6838;-0.2711;
343.8000;0.6813;-0.2785;
344.1000;0.6862;-0.2736;
344.4000;0.6911;-0.2662;
344.7000;0.6829;-0.2933;
345.0000;0.6854;-0.2736;
345.3000;0.6838;-0.2785;
345.6000;0.6862;-0.2686;
345.9000;0.6846;-0.2736;
346.2000;0.6846;-0.2686;
346.5000;0.6862;-0.2613;
346.8000;0.6846;-0.2760;
347.1000;0.6846;-0.2785;
347.4000;0.6838;-0.2637;
347.7000;0.6813;-0.2588;
348.0000;0.6829;-0.2613;
348.3000;0.6838;-0.2514;
348.6000;0.6813;-0.2563;
348.9000;0.6846;-0.2514;
349.2000;0.6846;-0.2489;
349.5000;0.6854;-0.2489;
349.8000;0.6846;-0.2514;
350.1000;0.6829;-0.2637;
350.4000;0.6846;-0.2588;
350.7000;0.6854;-0.2563;
351.0000;0.6870;-0.2613;
351.3000;0.6854;-0.2613;
351.6000;0.6927;-0.2440;
351.9000;0.6862;-0.2637;
352.2000;0.6870;-0.2613;
352.5000;0.6903;-0.2489;
352.8000;0.6854;-0.2514;
353.1000;0.6854;-0.2539;
353.4000;0.6846;-0.2514;
353.7000;0.6821;-0.2489;
354.0000;0.6846;-0.2489;
354.3000;0.6854;-0.2588;
354.6000;0.6846;-0.2613;
354.9000;0.6870;-0.2539;
355.2000;0.6846;-0.2514;
355.5000;0.6854;-0.2489;
355.8000;0.6854;-0.2563;
356.1000;0.6854;-0.2662;
356.4000;0.6813;-0.2736;
356.7000;0.6870;-0.2711;
357.0000;0.6854;-0.2686;
357.3000;0.6846;-0.2736;
357.6000;0.6919;-0.2514;
357.9000;0.6854;-0.2588;
358.2000;0.6846;-0.2588;
358.5000;0.6846;-0.2637;
358.8000;0.6838;-0.2662;
359.1000;0.6838;-0.2662;
359.4000;0.6870;-0.2563;
359.7000;0.6862;-0.2588;
360.0000;0.6829;-0.2711;
360.3000;0.6829;-0.2810;
360.6000;0.6862;-0.2662;
360.9000;0.6846;-0.2637;
361.2000;0.6870;-0.2465;
361.5000;0.6854;-0.2489;
361.8000;0.6895;-0.2317;
362.1000;0.6846;-0.2366;
362.4000;0.6854;-0.2465;
362.7000;0.6862;-0.2489;
363.0000;0.6838;-0.2514;
363.3000;0.6846;-0.2514;
363.6000;0.6846;-0.2514;
363.9000;0.6838;-0.2539;
364.2000;0.6829;-0.2563;
364.5000;0.6846;-0.2539;
364.8000;0.6838;-0.2563;
365.1000;0.6838;-0.2415;
365.4000;0.6838;-0.2440;
365.7000;0.6846;-0.2465;
366.0000;0.6854;-0.2440;
366.3000;0.6813;-0.2514;
366.6000;0.6829;-0.2489;
366.9000;0.6789;-0.2539;
367.2000;0.6813;-0.2489;
367.5000;0.6846;-0.2514;
367.8000;0.6829;-0.2588;
368.1000;0.6829;-0.2563;
368.4000;0.6821;-0.2563;
368.7000;0.6813;-0.2539;
369.0000;0.6854;-0.2465;
369.3000;0.6846;-0.2489;
369.6000;0.6854;-0.2440;
369.9000;0.6838;-0.2489;
370.2000;0.6846;-0.2514;
370.5000;0.6838;-0.2465;
370.8000;0.6829;-0.2563;
371.1000;0.6821;-0.2588;
371.4000;0.6854;-0.2539;
371.7000;0.6862;-0.2563;
372.0000;0.6838;-0.2514;
372.3000;0.6870;-0.2391;
372.6000;0.6854;-0.2341;
372.9000;0.6854;-0.2341;
373.2000;0.6854;-0.2391;
373.5000;0.6870;-0.2366;
373.8000;0.6846;-0.2489;
374.1000;0.6838;-0.2637;
374.4000;0.6870;-0.2613;
374.7000;0.6829;-0.2760;
375.0000;0.6838;-0.2711;
375.3000;0.6829;-0.2588;
375.6000;0.6846;-0.2489;
375.9000;0.6846;-0.2514;
376.2000;0.6821;-0.2465;
376.5000;0.6854;-0.2341;
376.8000;0.6838;-0.2366;
377.1000;0.6854;-0.2391;
377.4000;0.6911;-0.2267;
377.7000;0.6846;-0.2440;
378.0000;0.6854;-0.2415;
378.3000;0.6854;-0.2489;
378.6000;0.6854;-0.2514;
378.9000;0.6838;-0.2588;
379.2000;0.6911;-0.2465;
379.5000;0.6821;-0.2686;
379.8000;0.6846;-0.2662;
380.1000;0.6838;-0.2686;
380.4000;0.6838;-0.2662;
380.7000;0.6854;-0.2539;
381.0000;0.6838;-0.2613;
381.3000;0.6870;-0.2489;
381.6000;0.6846;-0.2539;
381.9000;0.6870;-0.2563;
382.2000;0.6838;-0.2637;
382.5000;0.6838;-0.2662;
382.8000;0.6854;-0.2588;
383.1000;0.6862;-0.2588;
383.4000;0.6846;-0.2514;
383.7000;0.6854;-0.2588;
384.0000;0.6838;-0.2637;
384.3000;0.6854;-0.2613;
384.6000;0.6854;-0.2613;
384.9000;0.6846;-0.2514;
385.2000;0.6740;-0.2711;
385.5000;0.6854;-0.2514;
385.8000;0.6854;-0.2588;
386.1000;0.6870;-0.2514;
386.4000;0.6846;-0.2465;
386.7000;0.6846;-0.2563;
387.0000;0.6846;-0.2613;
387.3000;0.6870;-0.2588;
387.6000;0.6846;-0.2662;
387.9000;0.6838;-0.2588;
388.2000;0.6838;-0.2662;
388.5000;0.6862;-0.2588;
388.8000;0.6854;-0.2613;
389.1000;0.6854;-0.2613;
389.4000;0.6870;-0.2489;
389.7000;0.6854;-0.2440;
390.0000;0.6846;-0.2391;
390.3000;0.6838;-0.2440;
390.6000;0.6862;-0.2440;
390.9000;0.6846;-0.2539;
391.2000;0.6846;-0.2588;
391.5000;0.6838;-0.2637;
391.8000;0.6886;-0.2563;
392.1000;0.6838;-0.2711;
392.4000;0.6854;-0.2686;
392.7000;0.6838;-0.2760;
393.0000;0.6838;-0.2711;
393.3000;0.6821;-0.2637;
393.6000;0.6846;-0.2613;
393.9000;0.6838;-0.2613;
394.2000;0.6838;-0.2588;
394.5000;0.6805;-0.2662;
394.8000;0.6838;-0.2613;
395.1000;0.6838;-0.2613;
395.4000;0.6813;-0.2662;
395.7000;0.6846;-0.2539;
396.0000;0.6870;-0.2588;
396.3000;0.6838;-0.2711;
396.6000;0.6846;-0.2711;
396.9000;0.6854;-0.2662;
397.2000;0.6854;-0.2563;
397.5000;0.6862;-0.2489;
397.8000;0.6846;-0.2440;
398.1000;0.6829;-0.2415;
398.4000;0.6911;-0.2292;
398.7000;0.6854;-0.2539;
399.0000;0.6838;-0.2514;
399.3000;0.6846;-0.2539;
399.6000;0.6854;-0.2514;
399.9000;0.6846;-0.2588;
400.2000;0.6846;-0.2563;
400.5000;0.6862;-0.2391;
400.8000;0.6846;-0.2366;
401.1000;0.6838;-0.2366;
401.4000;0.6846;-0.2415;
401.7000;0.6829;-0.2440;
402.0000;0.6829;-0.2563;
402.3000;0.6829;-0.2563;
402.6000;0.6821;-0.2539;
402.9000;0.6821;-0.2588;
403.2000;0.6789;-0.2588;
403.5000;0.6829;-0.2415;
403.8000;0.6846;-0.2391;
404.1000;0.6789;-0.2514;
404.4000;0.6813;-0.2489;
404.7000;0.6821;-0.2489;
405.0000;0.6829;-0.2465;
405.3000;0.6813;-0.2539;
405.6000;0.6772;-0.2613;
405.9000;0.6821;-0.2563;
406.2000;0.6846;-0.2563;
406.5000;0.6829;-0.2514;
406.8000;0.6838;-0.2514;
407.1000;0.6854;-0.2440;
407.4000;0.6838;-0.2465;
407.7000;0.6838;-0.2489;
408.0000;0.6838;-0.2489;
408.3000;0.6854;-0.2489;
408.6000;0.6829;-0.2539;
408.9000;0.6846;-0.2539;
409.2000;0.6838;-0.2563;
409.5000;0.6846;-0.2440;
409.8000;0.6821;-0.2514;
410.1000;0.6829;-0.2489;
410.4000;0.6821;-0.2563;
410.7000;0.6862;-0.2514;
411.0000;0.6846;-0.2489;
411.3000;0.6846;-0.2514;
411.6000;0.6829;-0.2440;
411.9000;0.6854;-0.2415;
412.2000;0.6854;-0.2440;
412.5000;0.6829;-0.2415;
412.8000;0.6846;-0.2465;
413.1000;0.6813;-0.2662;
413.4000;0.6813;-0.2760;
413.7000;0.6854;-0.2588;
414.0000;0.6838;-0.2662;
414.3000;0.6854;-0.2588;
414.6000;0.6838;-0.2686;
414.9000;0.6756;-0.2908;
415.2000;0.6829;-0.2686;
415.5000;0.6813;-0.2637;
415.8000;0.6895;-0.2366;
416.1000;0.6805;-0.2563;
416.4000;0.6838;-0.2465;
416.7000;0.6829;-0.2489;
417.0000;0.6772;-0.2686;
417.3000;0.6813;-0.2613;
417.6000;0.6829;-0.2563;
417.9000;0.6846;-0.2588;
418.2000;0.6838;-0.2637;
418.5000;0.6829;-0.2637;
418.8000;0.6829;-0.2637;
419.1000;0.6935;-0.2341;
419.4000;0.6829;-0.2637;
419.7000;0.6821;-0.2613;
420.0000;0.6838;-0.2539;
420.3000;0.6813;-0.2563;
420.6000;0.6838;-0.2489;
420.9000;0.6821;-0.2563;
421.2000;0.6838;-0.2588;
421.5000;0.6903;-0.2465;
421.8000;0.6829;-0.2637;
422.1000;0.6821;-0.2637;
422.4000;0.6846;-0.2588;
422.7000;0.6813;-0.2637;
423.0000;0.6846;-0.2539;
423.3000;0.6813;-0.2711;
423.6000;0.6878;-0.2563;
423.9000;0.6838;-0.2686;
424.2000;0.6838;-0.2637;
424.5000;0.6829;-0.2662;
424.8000;0.6829;-0.2686;
425.1000;0.6838;-0.2637;
425.4000;0.6829;-0.2662;
425.7000;0.6821;-0.2613;
426.0000;0.6829;-0.2637;
426.3000;0.6829;-0.2686;
426.6000;0.6846;-0.2613;
426.9000;0.6821;-0.2785;
427.2000;0.6821;-0.2760;
427.5000;0.6797;-0.2785;
427.8000;0.6854;-0.2588;
428.1000;0.6838;-0.2637;
428.4000;0.6829;-0.2588;
428.7000;0.6829;-0.2588;
429.0000;0.6821;-0.2588;
429.3000;0.6878;-0.2465;
429.6000;0.6756;-0.2958;
429.9000;0.6797;-0.2908;
430.2000;0.6821;-0.2686;
430.5000;0.6846;-0.2613;
430.8000;0.6878;-0.2489;
431.1000;0.6829;-0.2613;
431.4000;0.6838;-0.2613;
431.7000;0.6838;-0.2588;
432.0000;0.6829;-0.2588;
432.3000;0.6813;-0.2539;
432.6000;0.6854;-0.2563;
432.9000;0.6838;-0.2539;
433.2000;0.6895;-0.2267;
433.5000;0.6838;-0.2440;
433.8000;0.6838;-0.2514;
434.1000;0.6829;-0.2539;
434.4000;0.6838;-0.2588;
434.7000;0.6838;-0.2686;
435.0000;0.6789;-0.2834;
435.3000;0.6829;-0.2810;
435.6000;0.6813;-0.2908;
435.9000;0.6813;-0.2908;
436.2000;0.6805;-0.3007;
436.5000;0.6838;-0.2884;
436.8000;0.6838;-0.2810;
437.1000;0.6838;-0.2760;
437.4000;0.6927;-0.2465;
437.7000;0.6846;-0.2686;
438.0000;0.6952;-0.2440;
438.3000;0.6813;-0.2785;
438.6000;0.6821;-0.2834;
438.9000;0.6927;-0.2637;
439.2000;0.6846;-0.2810;
439.5000;0.6862;-0.2686;
439.8000;0.6838;-0.2810;
440.1000;0.6829;-0.2810;
440.4000;0.6838;-0.2686;
440.7000;0.6829;-0.2686;
441.0000;0.6862;-0.2637;
441.3000;0.6854;-0.2686;
441.6000;0.6829;-0.2760;
441.9000;0.6911;-0.2588;
442.2000;0.6829;-0.2785;
442.5000;0.6846;-0.2711;
442.8000;0.6829;-0.2760;
443.1000;0.6813;-0.2810;
443.4000;0.6829;-0.2859;
443.7000;0.6813;-0.2884;
444.0000;0.6813;-0.2859;
444.3000;0.6838;-0.2810;
444.6000;0.6846;-0.2785;
444.9000;0.6829;-0.2686;
445.2000;0.6813;-0.2736;
445.5000;0.6862;-0.2613;
445.8000;0.6829;-0.2588;
446.1000;0.6854;-0.2563;
446.4000;0.6829;-0.2613;
446.7000;0.6797;-0.2736;
447.0000;0.6829;-0.2613;
447.3000;0.6829;-0.2563;
447.6000;0.6781;-0.2810;
447.9000;0.6846;-0.2686;
448.2000;0.6829;-0.2711;
448.5000;0.6870;-0.2563;
448.8000;0.6821;-0.2637;
449.1000;0.6821;-0.2736;
449.4000;0.6821;-0.2637;
449.7000;0.6838;-0.2563;
450.0000;0.6829;-0.2489;
450.3000;0.6829;-0.2440;
450.6000;0.6846;-0.2366;
450.9000;0.6846;-0.2366;
451.2000;0.6829;-0.2440;
451.5000;0.6821;-0.2489;
451.8000;0.6846;-0.2514;
452.1000;0.6838;-0.2588;
452.4000;0.6821;-0.2613;
452.7000;0.6846;-0.2613;
453.0000;0.6854;-0.2539;
453.3000;0.6846;-0.2662;
453.6000;0.6846;-0.2637;
453.9000;0.6813;-0.2711;
454.2000;0.6838;-0.2613;
454.5000;0.6829;-0.2736;
454.8000;0.6838;-0.2736;
455.1000;0.6862;-0.2686;
455.4000;0.6821;-0.2760;
455.7000;0.6846;-0.2711;
456.0000;0.6805;-0.2711;
456.3000;0.6805;-0.2760;
456.6000;0.6838;-0.2686;
456.9000;0.6813;-0.2711;
457.2000;0.6829;-0.2613;
457.5000;0.6813;-0.2613;
457.8000;0.6829;-0.2613;
458.1000;0.6829;-0.2662;
458.4000;0.6829;-0.2662;
458.7000;0.6829;-0.2489;
459.0000;0.6829;-0.2514;
459.3000;0.6838;-0.2588;
459.6000;0.6838;-0.2588;
459.9000;0.6829;-0.2563;
460.2000;0.6797;-0.2588;
460.5000;0.6829;-0.2465;
460.8000;0.6829;-0.2465;
461.1000;0.6838;-0.2465;
461.4000;0.6838;-0.2514;
461.7000;0.6846;-0.2489;
462.0000;0.6870;-0.2415;
462.3000;0.6846;-0.2465;
462.6000;0.6838;-0.2465;
462.9000;0.6724;-0.2810;
463.2000;0.6854;-0.2440;
463.5000;0.6846;-0.2514;
463.8000;0.6838;-0.2539;
464.1000;0.6846;-0.2539;
464.4000;0.6829;-0.2514;
464.7000;0.6854;-0.2440;
465.0000;0.6878;-0.2391;
465.3000;0.6911;-0.2341;
465.6000;0.6821;-0.2588;
465.9000;0.6935;-0.2317;
466.2000;0.6829;-0.2588;
466.5000;0.6846;-0.2539;
466.8000;0.6829;-0.2539;
467.1000;0.6805;-0.2539;
467.4000;0.6805;-0.2514;
467.7000;0.6838;-0.2415;
468.0000;0.6838;-0.2415;
468.3000;0.6854;-0.2317;
468.6000;0.6829;-0.2366;
468.9000;0.6838;-0.2317;
469.2000;0.6821;-0.2391;
469.5000;0.6821;-0.2366;
469.8000;0.6846;-0.2415;
470.1000;0.6838;-0.2440;
470.4000;0.6821;-0.2440;
470.7000;0.6797;-0.2440;
471.0000;0.6821;-0.2415;
471.3000;0.6829;-0.2391;
471.6000;0.6838;-0.2317;
471.9000;0.6813;-0.2341;
472.2000;0.6805;-0.2218;
472.5000;0.6829;-0.2267;
472.8000;0.6821;-0.2366;
473.1000;0.6813;-0.2563;
473.4000;0.6862;-0.2465;
473.7000;0.6829;-0.2514;
474.0000;0.6829;-0.2489;
474.3000;0.6821;-0.2440;
474.6000;0.6838;-0.2317;
474.9000;0.6829;-0.2341;
475.2000;0.6846;-0.2440;
475.5000;0.6813;-0.2686;
475.8000;0.6829;-0.2613;
476.1000;0.6829;-0.2662;
476.4000;0.6821;-0.2711;
476.7000;0.6846;-0.2711;
477.0000;0.6829;-0.2637;
477.3000;0.6838;-0.2563;
477.6000;0.6829;-0.2514;
477.9000;0.6821;-0.2489;
478.2000;0.6846;-0.2440;
478.5000;0.6829;-0.2415;
478.8000;0.6829;-0.2366;
479.1000;0.6846;-0.2341;
479.4000;0.6846;-0.2317;
479.7000;0.6813;-0.2465;
480.0000;0.6862;-0.2317;
480.3000;0.6838;-0.2317;
480.6000;0.6813;-0.2292;
480.9000;0.6821;-0.2341;
481.2000;0.6821;-0.2440;
481.5000;0.6829;-0.2514;
481.8000;0.6813;-0.2588;
482.1000;0.6813;-0.2514;
482.4000;0.6821;-0.2489;
482.7000;0.6821;-0.2465;
483.0000;0.6813;-0.2440;
483.3000;0.6764;-0.2539;
483.6000;0.6805;-0.2465;
483.9000;0.6797;-0.2440;
484.2000;0.6797;-0.2366;
484.5000;0.6821;-0.2317;
484.8000;0.6862;-0.2120;
485.1000;0.6813;-0.2267;
485.4000;0.6846;-0.2243;
485.7000;0.6821;-0.2366;
486.0000;0.6805;-0.2465;
486.3000;0.6838;-0.2341;
486.6000;0.6829;-0.2341;
486.9000;0.6813;-0.2366;
487.2000;0.6821;-0.2366;
487.5000;0.6821;-0.2514;
487.8000;0.6805;-0.2613;
488.1000;0.6838;-0.2539;
488.4000;0.6821;-0.2686;
488.7000;0.6821;-0.2662;
489.0000;0.6838;-0.2662;
489.3000;0.6838;-0.2662;
489.6000;0.6838;-0.2686;
489.9000;0.6846;-0.2662;
490.2000;0.6854;-0.2662;
490.5000;0.6829;-0.2637;
490.8000;0.6829;-0.2637;
491.1000;0.6862;-0.2514;
491.4000;0.6789;-0.2686;
491.7000;0.6838;-0.2588;
492.0000;0.6829;-0.2662;
492.3000;0.6829;-0.2662;
492.6000;0.6789;-0.2785;
492.9000;0.6829;-0.2736;
493.2000;0.6821;-0.2736;
493.5000;0.6813;-0.2711;
493.8000;0.6838;-0.2760;
494.1000;0.6838;-0.2785;
494.4000;0.6838;-0.2760;
494.7000;0.6821;-0.2785;
495.0000;0.6813;-0.2834;
495.3000;0.6797;-0.2834;
495.6000;0.6772;-0.2908;
495.9000;0.6821;-0.2859;
496.2000;0.6813;-0.2884;
496.5000;0.6821;-0.2810;
496.8000;0.6829;-0.2785;
497.1000;0.6821;-0.2760;
497.4000;0.6821;-0.2884;
497.7000;0.6821;-0.2810;
498.0000;0.6813;-0.2760;
498.3000;0.6813;-0.2810;
498.6000;0.6821;-0.2834;
498.9000;0.6821;-0.2711;
499.2000;0.6821;-0.2662;
499.5000;0.6813;-0.2662;
499.8000;0.6829;-0.2539;
500.1000;0.6813;-0.2563;
500.4000;0.6838;-0.2539;
500.7000;0.6846;-0.2465;
501.0000;0.6821;-0.2440;
501.3000;0.6772;-0.2588;
501.6000;0.6829;-0.2539;
501.9000;0.6813;-0.2563;
502.2000;0.6821;-0.2662;
502.5000;0.6838;-0.2613;
502.8000;0.6821;-0.2686;
503.1000;0.6813;-0.2563;
503.4000;0.6821;-0.2637;
503.7000;0.6813;-0.2588;
504.0000;0.6829;-0.2539;
504.3000;0.6838;-0.2662;
504.6000;0.6821;-0.2711;
504.9000;0.6821;-0.2736;
505.2000;0.6805;-0.2810;
505.5000;0.6838;-0.2736;
505.8000;0.6829;-0.2686;
506.1000;0.6862;-0.2563;
506.4000;0.6829;-0.2637;
506.7000;0.6821;-0.2539;
507.0000;0.6846;-0.2514;
507.3000;0.6862;-0.2539;
507.6000;0.6838;-0.2613;
507.9000;0.6821;-0.2514;
508.2000;0.6846;-0.2465;
508.5000;0.6821;-0.2588;
508.8000;0.6829;-0.2563;
509.1000;0.6829;-0.2489;
509.4000;0.6797;-0.2588;
509.7000;0.6821;-0.2539;
510.0000;0.6829;-0.2637;
510.3000;0.6813;-0.2785;
510.6000;0.6846;-0.2760;
510.9000;0.6829;-0.2736;
511.2000;0.6821;-0.2785;
511.5000;0.6805;-0.2958;
511.8000;0.6829;-0.2908;
512.1000;0.6829;-0.2908;
512.4000;0.6805;-0.2859;
512.7000;0.6821;-0.2760;
513.0000;0.6829;-0.2686;
513.3000;0.6829;-0.2563;
513.6000;0.6821;-0.2588;
513.9000;0.6813;-0.2686;
514.2000;0.6821;-0.2662;
514.5000;0.6829;-0.2686;
514.8000;0.6854;-0.2613;
515.1000;0.6821;-0.2637;
515.4000;0.6838;-0.2563;
515.7000;0.6829;-0.2514;
516.0000;0.6829;-0.2514;
516.3000;0.6854;-0.2465;
516.6000;0.6813;-0.2514;
516.9000;0.6797;-0.2465;
517.2000;0.6821;-0.2465;
517.5000;0.6829;-0.2489;
517.8000;0.6797;-0.2514;
518.1000;0.6797;-0.2539;
518.4000;0.6821;-0.2440;
518.7000;0.6838;-0.2366;
519.0000;0.6797;-0.2514;
519.3000;0.6813;-0.2514;
519.6000;0.6838;-0.2415;
519.9000;0.6821;-0.2440;
520.2000;0.6789;-0.2465;
520.5000;0.6813;-0.2465;
520.8000;0.6829;-0.2613;
521.1000;0.6846;-0.2489;
521.4000;0.6813;-0.2563;
521.7000;0.6862;-0.2440;
522.0000;0.6821;-0.2489;
522.3000;0.6732;-0.2810;
522.6000;0.6805;-0.2588;
522.9000;0.6813;-0.2489;
523.2000;0.6813;-0.2539;
523.5000;0.6813;-0.2514;
523.8000;0.6797;-0.2539;
524.1000;0.6805;-0.2514;
524.4000;0.6829;-0.2514;
524.7000;0.6797;-0.2588;
525.0000;0.6870;-0.2317;
525.3000;0.6781;-0.2514;
525.6000;0.6821;-0.2514;
525.9000;0.6813;-0.2637;
526.2000;0.6829;-0.2539;
526.5000;0.6805;-0.2613;
526.8000;0.6789;-0.2810;
527.1000;0.6813;-0.2810;
527.4000;0.6813;-0.2785;
527.7000;0.6813;-0.2859;
528.0000;0.6813;-0.2908;
528.3000;0.6789;-0.3032;
528.6000;0.6813;-0.3032;
528.9000;0.6805;-0.3081;
529.2000;0.6805;-0.3007;
529.5000;0.6821;-0.2908;
529.8000;0.6813;-0.2933;
530.1000;0.6813;-0.2884;
530.4000;0.6813;-0.3056;
530.7000;0.6821;-0.3032;
531.0000;0.6838;-0.3007;
531.3000;0.6886;-0.2834;
531.6000;0.6829;-0.2884;
531.9000;0.6813;-0.2884;
532.2000;0.6813;-0.2785;
532.5000;0.6813;-0.2736;
532.8000;0.6805;-0.2736;
533.1000;0.6821;-0.2810;
533.4000;0.6740;-0.3007;
533.7000;0.6821;-0.2884;
534.0000;0.6838;-0.2884;
534.3000;0.6789;-0.2958;
534.6000;0.6878;-0.2613;
534.9000;0.6886;-0.2588;
535.2000;0.6838;-0.2662;
535.5000;0.6862;-0.2563;
535.8000;0.6829;-0.2711;
536.1000;0.6870;-0.2539;
536.4000;0.6748;-0.2933;
536.7000;0.6716;-0.3007;
537.0000;0.6797;-0.2810;
537.3000;0.6829;-0.2662;
537.6000;0.6829;-0.2736;
537.9000;0.6911;-0.2415;
538.2000;0.6838;-0.2637;
538.5000;0.6789;-0.2736;
538.8000;0.6797;-0.2662;
539.1000;0.6813;-0.2711;
539.4000;0.6821;-0.2711;
539.7000;0.6821;-0.2711;
540.0000;0.6805;-0.2686;
540.3000;0.6821;-0.2637;
540.6000;0.6821;-0.2711;
540.9000;0.6829;-0.2613;
541.2000;0.6821;-0.2686;
541.5000;0.6805;-0.2736;
541.8000;0.6821;-0.2785;
542.1000;0.6797;-0.2908;
542.4000;0.6813;-0.2785;
542.7000;0.6838;-0.2711;
543.0000;0.6838;-0.2736;
543.3000;0.6813;-0.2711;
543.6000;0.6829;-0.2637;
543.9000;0.6813;-0.2637;
544.2000;0.6821;-0.2637;
544.5000;0.6821;-0.2588;
544.8000;0.6821;-0.2686;
545.1000;0.6854;-0.2613;
545.4000;0.6862;-0.2637;
545.7000;0.6821;-0.2760;
546.0000;0.6789;-0.2760;
546.3000;0.6870;-0.2514;
546.6000;0.6870;-0.2489;
546.9000;0.6805;-0.2563;
547.2000;0.6829;-0.2465;
547.5000;0.6797;-0.2489;
547.8000;0.6813;-0.2489;
548.1000;0.6813;-0.2440;
548.4000;0.6813;-0.2489;
548.7000;0.6797;-0.2613;
549.0000;0.6797;-0.2613;
549.3000;0.6805;-0.2637;
549.6000;0.6797;-0.2613;
549.9000;0.6805;-0.2563;
550.2000;0.6813;-0.2588;
550.5000;0.6821;-0.2588;
550.8000;0.6813;-0.2489;
551.1000;0.6838;-0.2440;
551.4000;0.6829;-0.2514;
551.7000;0.6789;-0.2489;
552.0000;0.6764;-0.2539;
552.3000;0.6797;-0.2489;
552.6000;0.6813;-0.2440;
552.9000;0.6805;-0.2415;
553.2000;0.6772;-0.2539;
553.5000;0.6789;-0.2563;
553.8000;0.6789;-0.2563;
554.1000;0.6805;-0.2514;
554.4000;0.6813;-0.2514;
554.7000;0.6821;-0.2465;
555.0000;0.6919;-0.2194;
555.3000;0.6797;-0.2539;
555.6000;0.6854;-0.2317;
555.9000;0.6846;-0.2341;
556.2000;0.6903;-0.2292;
556.5000;0.6838;-0.2391;
556.8000;0.6846;-0.2489;
557.1000;0.6821;-0.2489;
557.4000;0.6821;-0.2440;
557.7000;0.6838;-0.2440;
558.0000;0.6846;-0.2366;
558.3000;0.6886;-0.2366;
558.6000;0.6878;-0.2539;
558.9000;0.6805;-0.2736;
559.2000;0.6829;-0.2711;
559.5000;0.6829;-0.2736;
559.8000;0.6838;-0.2736;
560.1000;0.6821;-0.2686;
560.4000;0.6813;-0.2662;
560.7000;0.6854;-0.2613;
561.0000;0.6829;-0.2637;
561.3000;0.6821;-0.2637;
561.6000;0.6821;-0.2637;
561.9000;0.6821;-0.2613;
562.2000;0.6813;-0.2514;
562.5000;0.6838;-0.2563;
562.8000;0.6813;-0.2613;
563.1000;0.6821;-0.2662;
563.4000;0.6821;-0.2686;
563.7000;0.6813;-0.2810;
564.0000;0.6813;-0.2834;
564.3000;0.6854;-0.2810;
564.6000;0.6829;-0.2834;
564.9000;0.6821;-0.2760;
565.2000;0.6789;-0.2785;
565.5000;0.6870;-0.2588;
565.8000;0.6829;-0.2613;
566.1000;0.6805;-0.2662;
566.4000;0.6838;-0.2563;
566.7000;0.6813;-0.2613;
567.0000;0.6903;-0.2489;
567.3000;0.6862;-0.2637;
567.6000;0.6740;-0.2859;
567.9000;0.6813;-0.2613;
568.2000;0.6846;-0.2440;
568.5000;0.6772;-0.2711;
568.8000;0.6813;-0.2736;
569.1000;0.6821;-0.2686;
569.4000;0.6797;-0.2760;
569.7000;0.6829;-0.2686;
570.0000;0.6829;-0.2711;
570.3000;0.6797;-0.2711;
570.6000;0.6813;-0.2711;
570.9000;0.6813;-0.2686;
571.2000;0.6805;-0.2785;
571.5000;0.6797;-0.2760;
571.8000;0.6813;-0.2711;
572.1000;0.6813;-0.2736;
572.4000;0.6789;-0.2711;
572.7000;0.6813;-0.2711;
573.0000;0.6805;-0.2785;
573.3000;0.6821;-0.2810;
573.6000;0.6821;-0.2785;
573.9000;0.6821;-0.2834;
574.2000;0.6813;-0.2760;
574.5000;0.6797;-0.2760;
574.8000;0.6805;-0.2760;
575.1000;0.6772;-0.2785;
575.4000;0.6797;-0.2613;
575.7000;0.6805;-0.2563;
576.0000;0.6813;-0.2539;
576.3000;0.6805;-0.2588;
576.6000;0.6813;-0.2563;
576.9000;0.6805;-0.2588;
577.2000;0.6829;-0.2440;
577.5000;0.6805;-0.2514;
577.8000;0.6821;-0.2465;
578.1000;0.6707;-0.2810;
578.4000;0.6821;-0.2489;
578.7000;0.6805;-0.2563;
579.0000;0.6813;-0.2662;
579.3000;0.6805;-0.2686;
579.6000;0.6821;-0.2539;
579.9000;0.6805;-0.2613;
580.2000;0.6813;-0.2736;
580.5000;0.6813;-0.2760;
580.8000;0.6789;-0.2810;
581.1000;0.6797;-0.2760;
581.4000;0.6821;-0.2686;
581.7000;0.6813;-0.2711;
582.0000;0.6821;-0.2662;
582.3000;0.6805;-0.2662;
582.6000;0.6813;-0.2662;
582.9000;0.6805;-0.2637;
583.2000;0.6805;-0.2637;
583.5000;0.6813;-0.2637;
583.8000;0.6772;-0.2834;
584.1000;0.6805;-0.2760;
584.4000;0.6797;-0.2785;
584.7000;0.6805;-0.2760;
585.0000;0.6813;-0.2760;
585.3000;0.6797;-0.2760;
585.6000;0.6781;-0.2933;
585.9000;0.6805;-0.2884;
586.2000;0.6813;-0.2785;
586.5000;0.6829;-0.2736;
586.8000;0.6813;-0.2810;
587.1000;0.6821;-0.2785;
587.4000;0.6821;-0.2736;
587.7000;0.6813;-0.2637;
588.0000;0.6797;-0.2637;
588.3000;0.6805;-0.2613;
588.6000;0.6805;-0.2662;
588.9000;0.6813;-0.2637;
589.2000;0.6805;-0.2662;
589.5000;0.6789;-0.2662;
589.8000;0.6838;-0.2563;
590.1000;0.6813;-0.2637;
590.4000;0.6886;-0.2465;
590.7000;0.6838;-0.2588;
591.0000;0.6813;-0.2514;
591.3000;0.6789;-0.2539;
591.6000;0.6805;-0.2539;
591.9000;0.6805;-0.2539;
592.2000;0.6724;-0.2834;
592.5000;0.6732;-0.2810;
592.8000;0.6813;-0.2662;
593.1000;0.6797;-0.2711;
593.4000;0.6805;-0.2662;
593.7000;0.6813;-0.2686;
594.0000;0.6813;-0.2662;
594.3000;0.6813;-0.2686;
594.6000;0.6805;-0.2588;
594.9000;0.6797;-0.2613;
595.2000;0.6829;-0.2588;
595.5000;0.6805;-0.2637;
595.8000;0.6781;-0.2613;
596.1000;0.6821;-0.2539;
596.4000;0.6813;-0.2588;
596.7000;0.6789;-0.2588;
597.0000;0.6789;-0.2686;
597.3000;0.6789;-0.2711;
597.6000;0.6813;-0.2662;
597.9000;0.6813;-0.2686;
598.2000;0.6813;-0.2686;
598.5000;0.6813;-0.2736;
598.8000;0.6829;-0.2613;
599.1000;0.6821;-0.2613;
599.4000;0.6813;-0.2637;
599.7000;0.6813;-0.2686;
600.0000;0.6805;-0.2736;
600.3000;0.6805;-0.2760;
600.6000;0.6724;-0.2982;
600.9000;0.6683;-0.3056;
601.2000;0.6447;-0.3475;
601.5000;0.6341;-0.3648;
601.8000;0.6186;-0.3968;
602.1000;0.6056;-0.4239;
602.4000;0.5942;-0.4461;
602.7000;0.5828;-0.4732;
603.0000;0.5739;-0.4929;
603.3000;0.5649;-0.5151;
603.6000;0.5568;-0.5299;
603.9000;0.5470;-0.5595;
604.2000;0.5405;-0.5619;
604.5000;0.5389;-0.5693;
604.8000;0.5250;-0.6014;
605.1000;0.5242;-0.6038;
605.4000;0.5201;-0.5964;
605.7000;0.5136;-0.6038;
606.0000;0.5079;-0.6162;
606.3000;0.5063;-0.6162;
606.6000;0.5031;-0.6186;
606.9000;0.5014;-0.6260;
607.2000;0.4965;-0.6285;
607.5000;0.4925;-0.6383;
607.8000;0.4892;-0.6556;
608.1000;0.4876;-0.6630;
608.4000;0.4843;-0.6630;
608.7000;0.4827;-0.6605;
609.0000;0.4786;-0.6704;
609.3000;0.4786;-0.6827;
609.6000;0.4754;-0.6827;
609.9000;0.4729;-0.6975;
610.2000;0.4713;-0.7000;
610.5000;0.4689;-0.7024;
610.8000;0.4640;-0.7172;
611.1000;0.4689;-0.7074;
611.4000;0.4648;-0.7098;
611.7000;0.4648;-0.6926;
612.0000;0.4632;-0.6926;
612.3000;0.4624;-0.6950;
612.6000;0.4607;-0.6950;
612.9000;0.4607;-0.6901;
613.2000;0.4599;-0.6950;
613.5000;0.4591;-0.7024;
613.8000;0.4575;-0.7098;
614.1000;0.4583;-0.7147;
614.4000;0.4526;-0.7320;
614.7000;0.4534;-0.7320;
615.0000;0.4526;-0.7443;
615.3000;0.4501;-0.7468;
615.6000;0.4501;-0.7517;
615.9000;0.4518;-0.7493;
616.2000;0.4501;-0.7542;
616.5000;0.4501;-0.7443;
616.8000;0.4493;-0.7493;
617.1000;0.4493;-0.7542;
617.4000;0.4453;-0.7542;
617.7000;0.4469;-0.7468;
618.0000;0.4453;-0.7419;
618.3000;0.4436;-0.7443;
618.6000;0.4444;-0.7443;
618.9000;0.4428;-0.7468;
619.2000;0.4420;-0.7493;
619.5000;0.4428;-0.7394;
619.8000;0.4412;-0.7419;
620.1000;0.4387;-0.7345;
620.4000;0.4428;-0.7246;
620.7000;0.4412;-0.7320;
621.0000;0.4387;-0.7419;
621.3000;0.4379;-0.7345;
621.6000;0.4379;-0.7369;
621.9000;0.4371;-0.7345;
622.2000;0.4363;-0.7345;
622.5000;0.4355;-0.7369;
622.8000;0.4363;-0.7320;
623.1000;0.4444;-0.7098;
623.4000;0.4347;-0.7369;
623.7000;0.4339;-0.7369;
624.0000;0.4355;-0.7271;
624.3000;0.4347;-0.7369;
624.6000;0.4355;-0.7419;
624.9000;0.4347;-0.7419;
625.2000;0.4322;-0.7443;
625.5000;0.4306;-0.7665;
625.8000;0.4330;-0.7566;
626.1000;0.4347;-0.7517;
626.4000;0.4330;-0.7493;
626.7000;0.4298;-0.7493;
627.0000;0.4314;-0.7394;
627.3000;0.4330;-0.7345;
627.6000;0.4298;-0.7419;
627.9000;0.4257;-0.7517;
628.2000;0.4306;-0.7419;
628.5000;0.4306;-0.7443;
628.8000;0.4306;-0.7394;
629.1000;0.4290;-0.7369;
629.4000;0.4306;-0.7295;
629.7000;0.4290;-0.7221;
630.0000;0.4282;-0.7295;
630.3000;0.4192;-0.7443;
630.6000;0.4184;-0.7468;
630.9000;0.4274;-0.7172;
631.2000;0.4265;-0.7172;
631.5000;0.4282;-0.7074;
631.8000;0.4249;-0.7221;
632.1000;0.4265;-0.7197;
632.4000;0.4257;-0.7271;
632.7000;0.4249;-0.7295;
633.0000;0.4257;-0.7345;
633.3000;0.4257;-0.7345;
633.6000;0.4265;-0.7345;
633.9000;0.4249;-0.7493;
634.2000;0.4217;-0.7542;
634.5000;0.4249;-0.7468;
634.8000;0.4249;-0.7468;
635.1000;0.4233;-0.7493;
635.4000;0.4233;-0.7493;
635.7000;0.4225;-0.7443;
636.0000;0.4257;-0.7419;
636.3000;0.4225;-0.7542;
636.6000;0.4217;-0.7468;
636.9000;0.4233;-0.7468;
637.2000;0.4282;-0.7369;
637.5000;0.4257;-0.7345;
637.8000;0.4208;-0.7443;
638.1000;0.4233;-0.7320;
638.4000;0.4225;-0.7394;
638.7000;0.4217;-0.7394;
639.0000;0.4217;-0.7443;
639.3000;0.4249;-0.7320;
639.6000;0.4225;-0.7419;
639.9000;0.4225;-0.7517;
640.2000;0.4200;-0.7640;
640.5000;0.4200;-0.7616;
640.8000;0.4176;-0.7714;
641.1000;0.4200;-0.7640;
641.4000;0.4160;-0.7714;
641.7000;0.4168;-0.7690;
642.0000;0.4192;-0.7542;
642.3000;0.4200;-0.7566;
642.6000;0.4176;-0.7468;
642.9000;0.4176;-0.7369;
643.2000;0.4184;-0.7320;
643.5000;0.4176;-0.7394;
643.8000;0.4200;-0.7295;
644.1000;0.4151;-0.7419;
644.4000;0.4192;-0.7369;
644.7000;0.4184;-0.7345;
645.0000;0.4119;-0.7616;
645.3000;0.4176;-0.7419;
645.6000;0.4151;-0.7517;
645.9000;0.4151;-0.7566;
646.2000;0.4151;-0.7566;
646.5000;0.4184;-0.7419;
646.8000;0.4168;-0.7419;
647.1000;0.4176;-0.7369;
647.4000;0.4192;-0.7443;
647.7000;0.4168;-0.7419;
648.0000;0.4127;-0.7419;
648.3000;0.4168;-0.7345;
648.6000;0.4184;-0.7246;
648.9000;0.4168;-0.7246;
649.2000;0.4160;-0.7246;
649.5000;0.4151;-0.7295;
649.8000;0.4160;-0.7197;
650.1000;0.4184;-0.7147;
650.4000;0.4160;-0.7172;
650.7000;0.4127;-0.7295;
651.0000;0.4111;-0.7419;
651.3000;0.4176;-0.7369;
651.6000;0.4176;-0.7369;
651.9000;0.4184;-0.7320;
652.2000;0.4119;-0.7517;
652.5000;0.4176;-0.7345;
652.8000;0.4135;-0.7419;
653.1000;0.4151;-0.7369;
653.4000;0.4103;-0.7468;
653.7000;0.4135;-0.7394;
654.0000;0.4168;-0.7443;
654.3000;0.4070;-0.7591;
654.6000;0.4111;-0.7517;
654.9000;0.4119;-0.7493;
655.2000;0.4127;-0.7468;
655.5000;0.4151;-0.7419;
655.8000;0.4119;-0.7591;
656.1000;0.4184;-0.7419;
656.4000;0.4127;-0.7517;
656.7000;0.4119;-0.7517;
657.0000;0.4176;-0.7197;
657.3000;0.4119;-0.7369;
657.6000;0.4151;-0.7320;
657.9000;0.4127;-0.7271;
658.2000;0.4119;-0.7295;
658.5000;0.4094;-0.7443;
658.8000;0.4119;-0.7493;
659.1000;0.4127;-0.7468;
659.4000;0.4094;-0.7493;
659.7000;0.4111;-0.7443;
660.0000;0.4151;-0.7345;
660.3000;0.4168;-0.7197;
660.6000;0.4160;-0.7221;
660.9000;0.4070;-0.7468;
661.2000;0.4135;-0.7443;
661.5000;0.4037;-0.7640;
661.8000;0.4111;-0.7493;
662.1000;0.4094;-0.7493;
662.4000;0.4070;-0.7566;
662.7000;0.4094;-0.7591;
663.0000;0.4103;-0.7542;
663.3000;0.4037;-0.7517;
663.6000;0.4094;-0.7345;
663.9000;0.4103;-0.7345;
664.2000;0.4094;-0.7369;
664.5000;0.4103;-0.7369;
664.8000;0.4094;-0.7394;
665.1000;0.4078;-0.7468;
665.4000;0.4094;-0.7468;
665.7000;0.3989;-0.7813;
666.0000;0.4078;-0.7591;
666.3000;0.4078;-0.7665;
666.6000;0.4086;-0.7640;
666.9000;0.4078;-0.7591;
667.2000;0.4062;-0.7616;
667.5000;0.4078;-0.7616;
667.8000;0.4070;-0.7665;
668.1000;0.4094;-0.7493;
668.4000;0.4103;-0.7394;
668.7000;0.4062;-0.7493;
669.0000;0.4062;-0.7517;
669.3000;0.4086;-0.7542;
669.6000;0.4054;-0.7542;
669.9000;0.4062;-0.7566;
670.2000;0.4111;-0.7443;
670.5000;0.4054;-0.7542;
670.8000;0.4062;-0.7493;
671.1000;0.4119;-0.7345;
671.4000;0.4094;-0.7419;
671.7000;0.4086;-0.7493;
672.0000;0.4029;-0.7640;
672.3000;0.4054;-0.7542;
672.6000;0.4070;-0.7468;
672.9000;0.4070;-0.7394;
673.2000;0.4078;-0.7369;
673.5000;0.4029;-0.7443;
673.8000;0.4103;-0.7221;
674.1000;0.4054;-0.7394;
674.4000;0.4062;-0.7320;
674.7000;0.4070;-0.7271;
675.0000;0.4029;-0.7320;
675.3000;0.4062;-0.7320;
675.6000;0.4062;-0.7468;
675.9000;0.4029;-0.7542;
676.2000;0.4062;-0.7493;
676.5000;0.4021;-0.7591;
676.8000;0.4054;-0.7566;
677.1000;0.4021;-0.7566;
677.4000;0.4021;-0.7542;
677.7000;0.4054;-0.7468;
678.0000;0.4029;-0.7493;
678.3000;0.4037;-0.7468;
678.6000;0.4037;-0.7517;
678.9000;0.4021;-0.7591;
679.2000;0.4013;-0.7591;
679.5000;0.4037;-0.7443;
679.8000;0.4029;-0.7394;
680.1000;0.4037;-0.7394;
680.4000;0.4029;-0.7419;
680.7000;0.4021;-0.7468;
681.0000;0.4046;-0.7493;
681.3000;0.3923;-0.7739;
681.6000;0.4037;-0.7419;
681.9000;0.4037;-0.7468;
682.2000;0.4005;-0.7542;
682.5000;0.3972;-0.7640;
682.8000;0.3997;-0.7665;
683.1000;0.4037;-0.7566;
683.4000;0.4037;-0.7517;
683.7000;0.4029;-0.7566;
684.0000;0.4029;-0.7566;
684.3000;0.4021;-0.7591;
684.6000;0.4021;-0.7566;
684.9000;0.3980;-0.7591;
685.2000;0.3997;-0.7591;
685.5000;0.4029;-0.7542;
685.8000;0.4029;-0.7542;
686.1000;0.4005;-0.7566;
686.4000;0.4013;-0.7493;
686.7000;0.3997;-0.7591;
687.0000;0.4021;-0.7493;
687.3000;0.3997;-0.7665;
687.6000;0.4029;-0.7542;
687.9000;0.4037;-0.7542;
688.2000;0.4013;-0.7616;
688.5000;0.3989;-0.7764;
688.8000;0.4013;-0.7714;
689.1000;0.3997;-0.7739;
689.4000;0.4021;-0.7739;
689.7000;0.4021;-0.7862;
690.0000;0.4029;-0.7813;
690.3000;0.3997;-0.7788;
690.6000;0.4005;-0.7714;
690.9000;0.4037;-0.7616;
691.2000;0.3997;-0.7566;
691.5000;0.3997;-0.7419;
691.8000;0.3997;-0.7566;
692.1000;0.4005;-0.7566;
692.4000;0.4005;-0.7542;
692.7000;0.4029;-0.7468;
693.0000;0.4005;-0.7517;
693.3000;0.3997;-0.7542;
693.6000;0.4013;-0.7542;
693.9000;0.4013;-0.7468;
694.2000;0.3997;-0.7566;
694.5000;0.4005;-0.7517;
694.8000;0.4013;-0.7493;
695.1000;0.3989;-0.7517;
695.4000;0.3980;-0.7542;
695.7000;0.4013;-0.7419;
696.0000;0.4070;-0.7197;
696.3000;0.3997;-0.7419;
696.6000;0.3997;-0.7419;
696.9000;0.3972;-0.7542;
697.2000;0.3997;-0.7419;
697.5000;0.4013;-0.7345;
697.8000;0.3980;-0.7468;
698.1000;0.3989;-0.7542;
698.4000;0.4021;-0.7394;
698.7000;0.3989;-0.7517;
699.0000;0.3972;-0.7591;
699.3000;0.4054;-0.7320;
699.6000;0.3989;-0.7468;
699.9000;0.3972;-0.7493;
700.2000;0.3980;-0.7443;
700.5000;0.3964;-0.7566;
700.8000;0.4037;-0.7295;
701.1000;0.3989;-0.7468;
701.4000;0.3964;-0.7591;
701.7000;0.3980;-0.7591;
702.0000;0.3956;-0.7616;
702.3000;0.3972;-0.7616;
702.6000;0.3980;-0.7542;
702.9000;0.3980;-0.7493;
703.2000;0.3964;-0.7493;
703.5000;0.3989;-0.7493;
703.8000;0.3997;-0.7468;
704.1000;0.4013;-0.7394;
704.4000;0.3964;-0.7517;
704.7000;0.3964;-0.7468;
705.0000;0.3989;-0.7493;
705.3000;0.3964;-0.7566;
705.6000;0.3972;-0.7493;
705.9000;0.3989;-0.7419;
706.2000;0.3964;-0.7493;
706.5000;0.3964;-0.7665;
706.8000;0.3980;-0.7690;
707.1000;0.3956;-0.7690;
707.4000;0.3964;-0.7690;
707.7000;0.3964;-0.7813;
708.0000;0.3964;-0.7813;
708.3000;0.3980;-0.7813;
708.6000;0.3964;-0.7813;
708.9000;0.3989;-0.7714;
709.2000;0.3972;-0.7714;
709.5000;0.3964;-0.7690;
709.8000;0.3972;-0.7640;
710.1000;0.3964;-0.7739;
710.4000;0.3940;-0.7838;
710.7000;0.3948;-0.7838;
711.0000;0.3956;-0.7912;
711.3000;0.3956;-0.7838;
711.6000;0.3948;-0.7887;
711.9000;0.3932;-0.7936;
712.2000;0.3948;-0.7912;
712.5000;0.3964;-0.7813;
712.8000;0.3956;-0.7813;
713.1000;0.3948;-0.7813;
713.4000;0.3948;-0.7739;
713.7000;0.3956;-0.7690;
714.0000;0.3948;-0.7665;
714.3000;0.3948;-0.7591;
714.6000;0.3932;-0.7640;
714.9000;0.3964;-0.7640;
715.2000;0.3923;-0.7788;
715.5000;0.3948;-0.7714;
715.8000;0.3940;-0.7690;
716.1000;0.3964;-0.7640;
716.4000;0.3956;-0.7714;
716.7000;0.3964;-0.7764;
717.0000;0.3956;-0.7640;
717.3000;0.3940;-0.7739;
717.6000;0.3964;-0.7739;
717.9000;0.3964;-0.7739;
718.2000;0.3932;-0.7739;
718.5000;0.3948;-0.7690;
718.8000;0.3932;-0.7690;
719.1000;0.3923;-0.7714;
719.4000;0.3932;-0.7616;
719.7000;0.3932;-0.7616;
720.0000;0.3948;-0.7616;
720.3000;0.3932;-0.7640;
720.6000;0.4005;-0.7493;
720.9000;0.3940;-0.7591;
721.2000;0.3923;-0.7690;
721.5000;0.3940;-0.7714;
721.8000;0.3932;-0.7616;
722.1000;0.3948;-0.7468;
722.4000;0.3932;-0.7493;
722.7000;0.3883;-0.7690;
723.0000;0.3923;-0.7616;
723.3000;0.3923;-0.7591;
723.6000;0.3932;-0.7591;
723.9000;0.3923;-0.7591;
724.2000;0.3915;-0.7690;
724.5000;0.3899;-0.7714;
724.8000;0.3915;-0.7640;
725.1000;0.3932;-0.7542;
725.4000;0.3940;-0.7493;
725.7000;0.3923;-0.7517;
726.0000;0.3940;-0.7517;
726.3000;0.3956;-0.7443;
726.6000;0.4013;-0.7345;
726.9000;0.3940;-0.7468;
727.2000;0.3923;-0.7566;
727.5000;0.3915;-0.7640;
727.8000;0.3997;-0.7295;
728.1000;0.3915;-0.7591;
728.4000;0.3932;-0.7566;
728.7000;0.3932;-0.7542;
729.0000;0.3907;-0.7542;
729.3000;0.3989;-0.7271;
729.6000;0.3932;-0.7468;
729.9000;0.3980;-0.7394;
730.2000;0.3915;-0.7542;
730.5000;0.3932;-0.7443;
730.8000;0.3923;-0.7468;
731.1000;0.3923;-0.7493;
731.4000;0.3932;-0.7443;
731.7000;0.3923;-0.7591;
732.0000;0.3915;-0.7591;
732.3000;0.3907;-0.7690;
732.6000;0.3907;-0.7714;
732.9000;0.3907;-0.7665;
733.2000;0.3891;-0.7764;
733.5000;0.3907;-0.7788;
733.8000;0.3907;-0.7690;
734.1000;0.3915;-0.7690;
734.4000;0.3915;-0.7690;
734.7000;0.3907;-0.7665;
735.0000;0.3907;-0.7591;
735.3000;0.3940;-0.7566;
735.6000;0.3907;-0.7665;
735.9000;0.3907;-0.7665;
736.2000;0.3940;-0.7542;
736.5000;0.3923;-0.7566;
736.8000;0.3899;-0.7591;
737.1000;0.3907;-0.7591;
737.4000;0.3899;-0.7517;
737.7000;0.3915;-0.7443;
738.0000;0.3899;-0.7394;
738.3000;0.3907;-0.7369;
738.6000;0.3915;-0.7443;
738.9000;0.3907;-0.7468;
739.2000;0.3907;-0.7493;
739.5000;0.3907;-0.7493;
739.8000;0.3923;-0.7369;
740.1000;0.3907;-0.7369;
740.4000;0.3883;-0.7394;
740.7000;0.3907;-0.7295;
741.0000;0.3883;-0.7394;
741.3000;0.3907;-0.7369;
741.6000;0.3915;-0.7369;
741.9000;0.3907;-0.7394;
742.2000;0.3915;-0.7345;
742.5000;0.3907;-0.7394;
742.8000;0.3907;-0.7493;
743.1000;0.3899;-0.7493;
743.4000;0.3891;-0.7443;
743.7000;0.3923;-0.7394;
744.0000;0.3907;-0.7493;
744.3000;0.3932;-0.7320;
744.6000;0.3867;-0.7542;
744.9000;0.3899;-0.7517;
745.2000;0.3899;-0.7566;
745.5000;0.3940;-0.7493;
745.8000;0.3907;-0.7616;
746.1000;0.3915;-0.7517;
746.4000;0.3907;-0.7542;
746.7000;0.3899;-0.7468;
747.0000;0.3915;-0.7468;
747.3000;0.3907;-0.7493;
747.6000;0.3899;-0.7616;
747.9000;0.3891;-0.7714;
748.2000;0.3907;-0.7665;
748.5000;0.3907;-0.7665;
748.8000;0.3891;-0.7690;
749.1000;0.3899;-0.7739;
749.4000;0.3891;-0.7714;
749.7000;0.3891;-0.7690;
750.0000;0.3891;-0.7665;
750.3000;0.3915;-0.7616;
750.6000;0.3907;-0.7591;
750.9000;0.3907;-0.7640;
751.2000;0.3899;-0.7690;
751.5000;0.3907;-0.7788;
751.8000;0.3883;-0.7912;
752.1000;0.3891;-0.7887;
752.4000;0.3899;-0.7813;
752.7000;0.3867;-0.7862;
753.0000;0.3883;-0.7788;
753.3000;0.3899;-0.7739;
753.6000;0.3883;-0.7862;
753.9000;0.3883;-0.7912;
754.2000;0.3899;-0.7813;
754.5000;0.3883;-0.7838;
754.8000;0.3891;-0.7788;
755.1000;0.3891;-0.7764;
755.4000;0.3875;-0.7714;
755.7000;0.3907;-0.7616;
756.0000;0.3899;-0.7591;
756.3000;0.3915;-0.7443;
756.6000;0.3891;-0.7542;
756.9000;0.3915;-0.7517;
757.2000;0.3883;-0.7566;
757.5000;0.3907;-0.7493;
757.8000;0.3891;-0.7616;
758.1000;0.3858;-0.7764;
758.4000;0.3899;-0.7665;
758.7000;0.3907;-0.7665;
759.0000;0.3875;-0.7739;
759.3000;0.3883;-0.7714;
759.6000;0.3875;-0.7714;
759.9000;0.3875;-0.7690;
760.2000;0.3883;-0.7640;
760.5000;0.3850;-0.7665;
760.8000;0.3883;-0.7690;
761.1000;0.3858;-0.7690;
761.4000;0.3915;-0.7468;
761.7000;0.3891;-0.7468;
762.0000;0.3891;-0.7517;
762.3000;0.3891;-0.7591;
762.6000;0.3899;-0.7591;
762.9000;0.3867;-0.7542;
763.2000;0.3842;-0.7542;
763.5000;0.3883;-0.7394;
763.8000;0.3858;-0.7468;
764.1000;0.3867;-0.7468;
764.4000;0.3858;-0.7468;
764.7000;0.3875;-0.7443;
765.0000;0.3842;-0.7566;
765.3000;0.3883;-0.7517;
765.6000;0.3875;-0.7517;
765.9000;0.3883;-0.7493;
766.2000;0.3883;-0.7517;
766.5000;0.3858;-0.7542;
766.8000;0.3875;-0.7468;
767.1000;0.3858;-0.7542;
767.4000;0.3883;-0.7517;
767.7000;0.3875;-0.7493;
768.0000;0.3907;-0.7369;
768.3000;0.3867;-0.7394;
768.6000;0.3858;-0.7517;
768.9000;0.3858;-0.7517;
769.2000;0.3875;-0.7419;
769.5000;0.3777;-0.7665;
769.8000;0.3858;-0.7468;
770.1000;0.3858;-0.7468;
770.4000;0.3867;-0.7419;
770.7000;0.3875;-0.7394;
771.0000;0.3980;-0.7123;
771.3000;0.3867;-0.7369;
771.6000;0.3850;-0.7443;
771.9000;0.3858;-0.7468;
772.2000;0.3858;-0.7369;
772.5000;0.3858;-0.7419;
772.8000;0.3867;-0.7369;
773.1000;0.3842;-0.7345;
773.4000;0.3867;-0.7369;
773.7000;0.3899;-0.7246;
774.0000;0.3980;-0.7123;
774.3000;0.3850;-0.7443;
774.6000;0.3842;-0.7493;
774.9000;0.3858;-0.7369;
775.2000;0.3858;-0.7394;
775.5000;0.3858;-0.7394;
775.8000;0.3858;-0.7443;
776.1000;0.3842;-0.7493;
776.4000;0.3858;-0.7419;
776.7000;0.3867;-0.7517;
777.0000;0.3842;-0.7493;
777.3000;0.3883;-0.7419;
777.6000;0.3875;-0.7468;
777.9000;0.3858;-0.7591;
778.2000;0.3842;-0.7542;
778.5000;0.3810;-0.7640;
778.8000;0.3858;-0.7517;
779.1000;0.3761;-0.7690;
779.4000;0.3785;-0.7640;
779.7000;0.3858;-0.7394;
780.0000;0.3858;-0.7320;
780.3000;0.3850;-0.7271;
780.6000;0.3842;-0.7271;
780.9000;0.3818;-0.7246;
781.2000;0.3842;-0.7221;
781.5000;0.3932;-0.7049;
781.8000;0.3858;-0.7320;
782.1000;0.3883;-0.7221;
782.4000;0.3858;-0.7295;
782.7000;0.3858;-0.7172;
783.0000;0.3850;-0.7221;
783.3000;0.3842;-0.7246;
783.6000;0.3850;-0.7098;
783.9000;0.3826;-0.7123;
784.2000;0.3826;-0.7098;
784.5000;0.3842;-0.7049;
784.8000;0.3842;-0.7098;
785.1000;0.3850;-0.7123;
785.4000;0.3867;-0.7098;
785.7000;0.3867;-0.7098;
786.0000;0.3867;-0.7172;
786.3000;0.3858;-0.7123;
786.6000;0.3867;-0.7172;
786.9000;0.3834;-0.7295;
787.2000;0.3850;-0.7320;
787.5000;0.3867;-0.7295;
787.8000;0.3834;-0.7369;
788.1000;0.3850;-0.7271;
788.4000;0.3842;-0.7295;
788.7000;0.3842;-0.7271;
789.0000;0.3842;-0.7246;
789.3000;0.3842;-0.7246;
789.6000;0.3867;-0.7197;
789.9000;0.3801;-0.7394;
790.2000;0.3867;-0.7246;
790.5000;0.3883;-0.7295;
790.8000;0.3850;-0.7345;
791.1000;0.3810;-0.7468;
791.4000;0.3826;-0.7394;
791.7000;0.3867;-0.7221;
792.0000;0.3858;-0.7197;
792.3000;0.3842;-0.7221;
792.6000;0.3867;-0.7246;
792.9000;0.3785;-0.7493;
793.2000;0.3867;-0.7345;
793.5000;0.3883;-0.7271;
793.8000;0.3818;-0.7419;
794.1000;0.3810;-0.7517;
794.4000;0.3899;-0.7320;
794.7000;0.3858;-0.7517;
795.0000;0.3883;-0.7493;
795.3000;0.3858;-0.7591;
795.6000;0.3842;-0.7640;
795.9000;0.3834;-0.7690;
796.2000;0.3842;-0.7566;
796.5000;0.3834;-0.7591;
796.8000;0.3850;-0.7591;
797.1000;0.3850;-0.7493;
797.4000;0.3834;-0.7468;
797.7000;0.3842;-0.7468;
798.0000;0.3834;-0.7443;
798.3000;0.3834;-0.7320;
798.6000;0.3850;-0.7320;
798.9000;0.3842;-0.7345;
799.2000;0.3834;-0.7345;
799.5000;0.3826;-0.7394;
799.8000;0.3834;-0.7394;
800.1000;0.3867;-0.7320;
800.4000;0.3891;-0.7221;
800.7000;0.3842;-0.7295;
801.0000;0.3842;-0.7345;
801.3000;0.3850;-0.7271;
801.6000;0.3834;-0.7246;
801.9000;0.3826;-0.7246;
802.2000;0.3842;-0.7197;
802.5000;0.3810;-0.7369;
802.8000;0.3850;-0.7394;
803.1000;0.3826;-0.7517;
803.4000;0.3867;-0.7443;
803.7000;0.3834;-0.7566;
804.0000;0.3793;-0.7591;
804.3000;0.3850;-0.7542;
804.6000;0.3834;-0.7591;
804.9000;0.3826;-0.7591;
805.2000;0.3753;-0.7764;
805.5000;0.3834;-0.7419;
805.8000;0.3842;-0.7394;
806.1000;0.3842;-0.7369;
806.4000;0.3834;-0.7394;
806.7000;0.3826;-0.7443;
807.0000;0.3858;-0.7419;
807.3000;0.3867;-0.7345;
807.6000;0.3834;-0.7369;
807.9000;0.3826;-0.7345;
808.2000;0.3826;-0.7394;
808.5000;0.3834;-0.7369;
808.8000;0.3834;-0.7369;
809.1000;0.3834;-0.7419;
809.4000;0.3850;-0.7320;
809.7000;0.3826;-0.7443;
810.0000;0.3785;-0.7566;
810.3000;0.3842;-0.7419;
810.6000;0.3818;-0.7517;
810.9000;0.3801;-0.7566;
811.2000;0.3842;-0.7443;
811.5000;0.3834;-0.7493;
811.8000;0.3834;-0.7468;
812.1000;0.3842;-0.7419;
812.4000;0.3810;-0.7566;
812.7000;0.3826;-0.7493;
813.0000;0.3826;-0.7369;
813.3000;0.3842;-0.7394;
813.6000;0.3834;-0.7394;
813.9000;0.3867;-0.7295;
814.2000;0.3826;-0.7419;
814.5000;0.3826;-0.7443;
814.8000;0.3867;-0.7394;
815.1000;0.3826;-0.7493;
815.4000;0.3899;-0.7197;
815.7000;0.3834;-0.7394;
816.0000;0.3834;-0.7394;
816.3000;0.3818;-0.7419;
816.6000;0.3850;-0.7295;
816.9000;0.3810;-0.7394;
817.2000;0.3826;-0.7320;
817.5000;0.3801;-0.7394;
817.8000;0.3810;-0.7468;
818.1000;0.3899;-0.7271;
818.4000;0.3826;-0.7517;
818.7000;0.3785;-0.7542;
819.0000;0.3834;-0.7468;
819.3000;0.3834;-0.7443;
819.6000;0.3834;-0.7394;
819.9000;0.3818;-0.7443;
820.2000;0.3793;-0.7468;
820.5000;0.3810;-0.7419;
820.8000;0.3801;-0.7443;
821.1000;0.3818;-0.7345;
821.4000;0.3801;-0.7369;
821.7000;0.3826;-0.7295;
822.0000;0.3826;-0.7394;
822.3000;0.3810;-0.7369;
822.6000;0.3818;-0.7345;
822.9000;0.3826;-0.7295;
823.2000;0.3810;-0.7221;
823.5000;0.3810;-0.7147;
823.8000;0.3826;-0.7074;
824.1000;0.3826;-0.7098;
824.4000;0.3818;-0.7172;
824.7000;0.3826;-0.7172;
825.0000;0.3810;-0.7246;
825.3000;0.3834;-0.7246;
825.6000;0.3891;-0.7024;
825.9000;0.3810;-0.7221;
826.2000;0.3842;-0.7197;
826.5000;0.3793;-0.7345;
826.8000;0.3818;-0.7246;
827.1000;0.3793;-0.7271;
827.4000;0.3801;-0.7221;
827.7000;0.3793;-0.7271;
828.0000;0.3810;-0.7320;
828.3000;0.3801;-0.7320;
828.6000;0.3818;-0.7221;
828.9000;0.3810;-0.7221;
829.2000;0.3826;-0.7172;
829.5000;0.3801;-0.7345;
829.8000;0.3818;-0.7271;
830.1000;0.3826;-0.7320;
830.4000;0.3785;-0.7394;
830.7000;0.3801;-0.7345;
831.0000;0.3801;-0.7246;
831.3000;0.3826;-0.7147;
831.6000;0.3793;-0.7246;
831.9000;0.3801;-0.7197;
832.2000;0.3810;-0.7221;
832.5000;0.3818;-0.7172;
832.8000;0.3810;-0.7147;
833.1000;0.3810;-0.7098;
833.4000;0.3801;-0.7246;
833.7000;0.3834;-0.7221;
834.0000;0.3818;-0.7345;
834.3000;0.3858;-0.7123;
834.6000;0.3826;-0.7246;
834.9000;0.3801;-0.7369;
835.2000;0.3801;-0.7320;
835.5000;0.3785;-0.7295;
835.8000;0.3793;-0.7295;
836.1000;0.3801;-0.7295;
836.4000;0.3777;-0.7221;
836.7000;0.3785;-0.7221;
837.0000;0.3728;-0.7394;
837.3000;0.3793;-0.7197;
837.6000;0.3801;-0.7221;
837.9000;0.3793;-0.7197;
838.2000;0.3744;-0.7345;
838.5000;0.3826;-0.7098;
838.8000;0.3801;-0.7197;
839.1000;0.3858;-0.7123;
839.4000;0.3801;-0.7320;
839.7000;0.3801;-0.7320;
840.0000;0.3883;-0.7123;
840.3000;0.3777;-0.7419;
840.6000;0.3793;-0.7345;
840.9000;0.3777;-0.7345;
841.2000;0.3785;-0.7221;
841.5000;0.3793;-0.7147;
841.8000;0.3801;-0.7074;
842.1000;0.3810;-0.7098;
842.4000;0.3801;-0.7197;
842.7000;0.3818;-0.7147;
843.0000;0.3810;-0.7172;
843.3000;0.3810;-0.7147;
843.6000;0.3810;-0.7271;
843.9000;0.3801;-0.7345;
844.2000;0.3801;-0.7271;
844.5000;0.3785;-0.7369;
844.8000;0.3793;-0.7320;
845.1000;0.3801;-0.7246;
845.4000;0.3761;-0.7271;
845.7000;0.3785;-0.7172;
846.0000;0.3769;-0.7172;
846.3000;0.3777;-0.7172;
846.6000;0.3793;-0.7098;
846.9000;0.3793;-0.7098;
847.2000;0.3785;-0.7147;
847.5000;0.3801;-0.7024;
847.8000;0.3801;-0.6926;
848.1000;0.3810;-0.7049;
848.4000;0.3801;-0.7049;
848.7000;0.3793;-0.7049;
849.0000;0.3801;-0.6950;
849.3000;0.3810;-0.7024;
849.6000;0.3801;-0.7049;
849.9000;0.3777;-0.7123;
850.2000;0.3785;-0.7197;
850.5000;0.3777;-0.7295;
850.8000;0.3777;-0.7271;
851.1000;0.3785;-0.7295;
851.4000;0.3810;-0.7271;
851.7000;0.3793;-0.7271;
852.0000;0.3801;-0.7295;
852.3000;0.3842;-0.7221;
852.6000;0.3810;-0.7369;
852.9000;0.3801;-0.7394;
853.2000;0.3785;-0.7419;
853.5000;0.3810;-0.7221;
853.8000;0.3810;-0.7246;
854.1000;0.3818;-0.7345;
854.4000;0.3818;-0.7320;
854.7000;0.3810;-0.7271;
855.0000;0.3810;-0.7320;
855.3000;0.3834;-0.7123;
855.6000;0.3801;-0.7221;
855.9000;0.3801;-0.7271;
856.2000;0.3801;-0.7246;
856.5000;0.3810;-0.7221;
856.8000;0.3793;-0.7197;
857.1000;0.3769;-0.7197;
857.4000;0.3883;-0.6950;
857.7000;0.3793;-0.7221;
858.0000;0.3834;-0.7172;
858.3000;0.3785;-0.7295;
858.6000;0.3793;-0.7320;
858.9000;0.3801;-0.7295;
859.2000;0.3793;-0.7271;
859.5000;0.3793;-0.7271;
859.8000;0.3834;-0.7098;
860.1000;0.3785;-0.7246;
860.4000;0.3801;-0.7024;
860.7000;0.3793;-0.7049;
861.0000;0.3818;-0.7000;
861.3000;0.3777;-0.7074;
861.6000;0.3793;-0.7049;
861.9000;0.3753;-0.7172;
862.2000;0.3818;-0.7049;
862.5000;0.3834;-0.7049;
862.8000;0.3785;-0.7246;
863.1000;0.3793;-0.7271;
863.4000;0.3793;-0.7271;
863.7000;0.3761;-0.7369;
864.0000;0.3801;-0.7221;
864.3000;0.3801;-0.7295;
864.6000;0.3818;-0.7246;
864.9000;0.3801;-0.7320;
865.2000;0.3818;-0.7197;
865.5000;0.3785;-0.7246;
865.8000;0.3810;-0.7271;
866.1000;0.3793;-0.7246;
866.4000;0.3793;-0.7320;
866.7000;0.3785;-0.7197;
867.0000;0.3793;-0.7271;
867.3000;0.3826;-0.7147;
867.6000;0.3769;-0.7271;
867.9000;0.3785;-0.7295;
868.2000;0.3842;-0.7197;
868.5000;0.3793;-0.7271;
868.8000;0.3793;-0.7320;
869.1000;0.3801;-0.7369;
869.4000;0.3785;-0.7295;
869.7000;0.3777;-0.7320;
870.0000;0.3769;-0.7320;
870.3000;0.3793;-0.7246;
870.6000;0.3785;-0.7295;
870.9000;0.3793;-0.7369;
871.2000;0.3769;-0.7320;
871.5000;0.3761;-0.7369;
871.8000;0.3769;-0.7345;
872.1000;0.3720;-0.7493;
872.4000;0.3785;-0.7345;
872.7000;0.3777;-0.7369;
873.0000;0.3761;-0.7443;
873.3000;0.3801;-0.7419;
873.6000;0.3777;-0.7394;
873.9000;0.3777;-0.7345;
874.2000;0.3793;-0.7320;
874.5000;0.3777;-0.7345;
874.8000;0.3810;-0.7369;
875.1000;0.3777;-0.7394;
875.4000;0.3777;-0.7345;
875.7000;0.3777;-0.7320;
876.0000;0.3712;-0.7493;
876.3000;0.3761;-0.7295;
876.6000;0.3793;-0.7172;
876.9000;0.3777;-0.7197;
877.2000;0.3785;-0.7246;
877.5000;0.3793;-0.7147;
877.8000;0.3801;-0.7123;
878.1000;0.3769;-0.7172;
878.4000;0.3834;-0.7098;
878.7000;0.3777;-0.7221;
879.0000;0.3785;-0.7246;
879.3000;0.3728;-0.7271;
879.6000;0.3777;-0.7147;
879.9000;0.3785;-0.7221;
880.2000;0.3769;-0.7345;
880.5000;0.3777;-0.7271;
880.8000;0.3785;-0.7394;
881.1000;0.3801;-0.7419;
881.4000;0.3704;-0.7665;
881.7000;0.3769;-0.7419;
882.0000;0.3793;-0.7345;
882.3000;0.3810;-0.7320;
882.6000;0.3777;-0.7345;
882.9000;0.3785;-0.7345;
883.2000;0.3801;-0.7320;
883.5000;0.3801;-0.7295;
883.8000;0.3801;-0.7246;
884.1000;0.3793;-0.7369;
884.4000;0.3777;-0.7345;
884.7000;0.3793;-0.7295;
885.0000;0.3793;-0.7369;
885.3000;0.3761;-0.7345;
885.6000;0.3777;-0.7394;
885.9000;0.3785;-0.7345;
886.2000;0.3793;-0.7271;
886.5000;0.3769;-0.7271;
886.8000;0.3769;-0.7221;
887.1000;0.3777;-0.7221;
887.4000;0.3793;-0.7172;
887.7000;0.3777;-0.7221;
888.0000;0.3785;-0.7221;
888.3000;0.3850;-0.7147;
888.6000;0.3793;-0.7394;
888.9000;0.3753;-0.7468;
889.2000;0.3785;-0.7320;
889.5000;0.3801;-0.7320;
889.8000;0.3785;-0.7320;
890.1000;0.3777;-0.7320;
890.4000;0.3769;-0.7295;
890.7000;0.3769;-0.7271;
891.0000;0.3769;-0.7345;
891.3000;0.3785;-0.7246;
891.6000;0.3761;-0.7394;
891.9000;0.3744;-0.7468;
892.2000;0.3769;-0.7419;
892.5000;0.3753;-0.7493;
892.8000;0.3753;-0.7419;
893.1000;0.3834;-0.7074;
893.4000;0.3793;-0.7197;
893.7000;0.3769;-0.7197;
894.0000;0.3761;-0.7172;
894.3000;0.3761;-0.7246;
894.6000;0.3785;-0.7221;
894.9000;0.3785;-0.7295;
895.2000;0.3687;-0.7640;
895.5000;0.3777;-0.7345;
895.8000;0.3769;-0.7369;
896.1000;0.3769;-0.7369;
896.4000;0.3785;-0.7295;
896.7000;0.3769;-0.7295;
897.0000;0.3761;-0.7320;
897.3000;0.3793;-0.7295;
897.6000;0.3777;-0.7295;
897.9000;0.3834;-0.7246;
898.2000;0.3785;-0.7295;
898.5000;0.3810;-0.7271;
898.8000;0.3793;-0.7345;
899.1000;0.3777;-0.7369;
899.4000;0.3769;-0.7295;
899.7000;0.3785;-0.7295;
900.0000;0.3761;-0.7271;
900.3000;0.3777;-0.7172;
900.6000;0.3777;-0.7221;
900.9000;0.3785;-0.7197;
901.2000;0.3785;-0.7221;
901.5000;0.3801;-0.7197;
901.8000;0.3761;-0.7221;
902.1000;0.3761;-0.7172;
902.4000;0.3712;-0.7271;
902.7000;0.3769;-0.7074;
903.0000;0.3753;-0.7123;
903.3000;0.3761;-0.7123;
903.6000;0.3761;-0.7123;
903.9000;0.3744;-0.7123;
904.2000;0.3793;-0.7098;
904.5000;0.3769;-0.7246;
904.8000;0.3769;-0.7271;
905.1000;0.3777;-0.7345;
905.4000;0.3777;-0.7320;
905.7000;0.3753;-0.7369;
906.0000;0.3769;-0.7369;
906.3000;0.3753;-0.7468;
906.6000;0.3785;-0.7443;
906.9000;0.3793;-0.7493;
907.2000;0.3761;-0.7566;
907.5000;0.3769;-0.7443;
907.8000;0.3769;-0.7345;
908.1000;0.3875;-0.7098;
908.4000;0.3736;-0.7345;
908.7000;0.3744;-0.7443;
909.0000;0.3785;-0.7271;
909.3000;0.3785;-0.7221;
909.6000;0.3761;-0.7246;
909.9000;0.3785;-0.7221;
910.2000;0.3826;-0.7172;
910.5000;0.3769;-0.7345;
910.8000;0.3826;-0.7123;
911.1000;0.3769;-0.7295;
911.4000;0.3777;-0.7271;
911.7000;0.3777;-0.7419;
912.0000;0.3736;-0.7566;
912.3000;0.3753;-0.7542;
912.6000;0.3769;-0.7443;
912.9000;0.3769;-0.7468;
913.2000;0.3679;-0.7690;
913.5000;0.3761;-0.7542;
913.8000;0.3728;-0.7616;
914.1000;0.3793;-0.7443;
914.4000;0.3777;-0.7443;
914.7000;0.3769;-0.7345;
915.0000;0.3744;-0.7419;
915.3000;0.3753;-0.7320;
915.6000;0.3753;-0.7295;
915.9000;0.3785;-0.7271;
916.2000;0.3753;-0.7295;
916.5000;0.3769;-0.7345;
916.8000;0.3777;-0.7271;
917.1000;0.3753;-0.7394;
917.4000;0.3761;-0.7320;
917.7000;0.3728;-0.7419;
918.0000;0.3769;-0.7345;
918.3000;0.3761;-0.7295;
918.6000;0.3769;-0.7271;
918.9000;0.3818;-0.7172;
919.2000;0.3793;-0.7246;
919.5000;0.3769;-0.7320;
919.8000;0.3769;-0.7271;
920.1000;0.3769;-0.7197;
920.4000;0.3769;-0.7098;
920.7000;0.3769;-0.7147;
921.0000;0.3785;-0.7172;
921.3000;0.3769;-0.7147;
921.6000;0.3753;-0.7221;
921.9000;0.3753;-0.7172;
922.2000;0.3753;-0.7246;
922.5000;0.3761;-0.7295;
922.8000;0.3761;-0.7295;
923.1000;0.3769;-0.7271;
923.4000;0.3736;-0.7320;
923.7000;0.3769;-0.7295;
924.0000;0.3744;-0.7295;
924.3000;0.3712;-0.7443;
924.6000;0.3712;-0.7419;
924.9000;0.3753;-0.7271;
925.2000;0.3761;-0.7246;
925.5000;0.3753;-0.7320;
925.8000;0.3761;-0.7221;
926.1000;0.3777;-0.7271;
926.4000;0.3834;-0.7147;
926.7000;0.3769;-0.7246;
927.0000;0.3777;-0.7172;
927.3000;0.3761;-0.7172;
927.6000;0.3761;-0.7123;
927.9000;0.3753;-0.7271;
928.2000;0.3753;-0.7295;
928.5000;0.3761;-0.7246;
928.8000;0.3761;-0.7295;
929.1000;0.3769;-0.7271;
929.4000;0.3769;-0.7147;
929.7000;0.3753;-0.7098;
930.0000;0.3736;-0.7197;
930.3000;0.3744;-0.7271;
930.6000;0.3777;-0.7172;
930.9000;0.3728;-0.7221;
931.2000;0.3761;-0.7172;
931.5000;0.3712;-0.7345;
931.8000;0.3761;-0.7271;
932.1000;0.3777;-0.7246;
932.4000;0.3744;-0.7345;
932.7000;0.3810;-0.7147;
933.0000;0.3753;-0.7246;
933.3000;0.3753;-0.7345;
933.6000;0.3761;-0.7369;
933.9000;0.3753;-0.7419;
934.2000;0.3753;-0.7443;
934.5000;0.3687;-0.7542;
934.8000;0.3810;-0.7271;
935.1000;0.3744;-0.7345;
935.4000;0.3785;-0.7295;
935.7000;0.3753;-0.7369;
936.0000;0.3777;-0.7271;
936.3000;0.3761;-0.7295;
936.6000;0.3744;-0.7320;
936.9000;0.3744;-0.7369;
937.2000;0.3712;-0.7345;
937.5000;0.3704;-0.7419;
937.8000;0.3720;-0.7443;
938.1000;0.3696;-0.7443;
938.4000;0.3753;-0.7345;
938.7000;0.3744;-0.7369;
939.0000;0.3736;-0.7197;
939.3000;0.3736;-0.7147;
939.6000;0.3753;-0.7221;
939.9000;0.3761;-0.7271;
940.2000;0.3753;-0.7369;
940.5000;0.3753;-0.7295;
940.8000;0.3761;-0.7271;
941.1000;0.3753;-0.7246;
941.4000;0.3753;-0.7295;
941.7000;0.3744;-0.7369;
942.0000;0.3785;-0.7197;
942.3000;0.3720;-0.7369;
942.6000;0.3753;-0.7320;
942.9000;0.3761;-0.7320;
943.2000;0.3753;-0.7345;
943.5000;0.3769;-0.7369;
943.8000;0.3736;-0.7419;
944.1000;0.3761;-0.7394;
944.4000;0.3753;-0.7394;
944.7000;0.3761;-0.7394;
945.0000;0.3761;-0.7394;
945.3000;0.3753;-0.7394;
945.6000;0.3769;-0.7443;
945.9000;0.3769;-0.7345;
946.2000;0.3761;-0.7320;
946.5000;0.3777;-0.7197;
946.8000;0.3761;-0.7221;
947.1000;0.3777;-0.7172;
947.4000;0.3777;-0.7147;
947.7000;0.3753;-0.7221;
948.0000;0.3777;-0.7147;
948.3000;0.3728;-0.7172;
948.6000;0.3793;-0.7123;
948.9000;0.3744;-0.7295;
949.2000;0.3753;-0.7320;
949.5000;0.3761;-0.7246;
949.8000;0.3728;-0.7295;
950.1000;0.3753;-0.7221;
950.4000;0.3720;-0.7345;
950.7000;0.3736;-0.7295;
951.0000;0.3753;-0.7221;
951.3000;0.3753;-0.7295;
951.6000;0.3736;-0.7345;
951.9000;0.3744;-0.7320;
952.2000;0.3785;-0.7246;
952.5000;0.3761;-0.7271;
952.8000;0.3744;-0.7271;
953.1000;0.3728;-0.7345;
953.4000;0.3736;-0.7369;
953.7000;0.3744;-0.7320;
954.0000;0.3753;-0.7246;
954.3000;0.3704;-0.7369;
954.6000;0.3753;-0.7271;
954.9000;0.3769;-0.7221;
955.2000;0.3753;-0.7172;
955.5000;0.3753;-0.7221;
955.8000;0.3769;-0.7221;
956.1000;0.3834;-0.7074;
956.4000;0.3769;-0.7246;
956.7000;0.3753;-0.7197;
957.0000;0.3769;-0.7098;
957.3000;0.3769;-0.7147;
957.6000;0.3769;-0.7172;
957.9000;0.3761;-0.7221;
958.2000;0.3753;-0.7172;
958.5000;0.3753;-0.7147;
958.8000;0.3761;-0.7074;
959.1000;0.3753;-0.7172;
959.4000;0.3736;-0.7221;
959.7000;0.3736;-0.7221;
960.0000;0.3744;-0.7295;
960.3000;0.3761;-0.7295;
960.6000;0.3736;-0.7419;
960.9000;0.3671;-0.7591;
961.2000;0.3753;-0.7320;
961.5000;0.3769;-0.7197;
961.8000;0.3753;-0.7221;
962.1000;0.3744;-0.7197;
962.4000;0.3744;-0.7172;
962.7000;0.3769;-0.7147;
963.0000;0.3753;-0.7172;
963.3000;0.3753;-0.7147;
963.6000;0.3744;-0.7172;
963.9000;0.3769;-0.7049;
964.2000;0.3728;-0.7197;
964.5000;0.3753;-0.7172;
964.8000;0.3712;-0.7345;
965.1000;0.3761;-0.7197;
965.4000;0.3761;-0.7123;
965.7000;0.3744;-0.7246;
966.0000;0.3753;-0.7320;
966.3000;0.3761;-0.7221;
966.6000;0.3769;-0.7246;
966.9000;0.3736;-0.7295;
967.2000;0.3753;-0.7246;
967.5000;0.3761;-0.7246;
967.8000;0.3761;-0.7271;
968.1000;0.3744;-0.7369;
968.4000;0.3728;-0.7369;
968.7000;0.3744;-0.7295;
969.0000;0.3777;-0.7246;
969.3000;0.3736;-0.7320;
969.6000;0.3761;-0.7246;
969.9000;0.3736;-0.7197;
970.2000;0.3744;-0.7172;
970.5000;0.3769;-0.7197;
970.8000;0.3769;-0.7172;
971.1000;0.3753;-0.7197;
971.4000;0.3834;-0.7000;
971.7000;0.3769;-0.7197;
972.0000;0.3753;-0.7320;
972.3000;0.3744;-0.7295;
972.6000;0.3753;-0.7246;
972.9000;0.3744;-0.7320;
973.2000;0.3728;-0.7369;
973.5000;0.3744;-0.7221;
973.8000;0.3728;-0.7271;
974.1000;0.3704;-0.7246;
974.4000;0.3736;-0.7197;
974.7000;0.3728;-0.7172;
975.0000;0.3728;-0.7221;
975.3000;0.3744;-0.7221;
975.6000;0.3761;-0.7172;
975.9000;0.3753;-0.7246;
976.2000;0.3744;-0.7320;
976.5000;0.3753;-0.7320;
976.8000;0.3744;-0.7394;
977.1000;0.3728;-0.7369;
977.4000;0.3736;-0.7295;
977.7000;0.3744;-0.7320;
978.0000;0.3801;-0.7147;
978.3000;0.3720;-0.7320;
978.6000;0.3793;-0.7147;
978.9000;0.3785;-0.7172;
979.2000;0.3753;-0.7147;
979.5000;0.3744;-0.7295;
979.8000;0.3736;-0.7320;
980.1000;0.3744;-0.7320;
980.4000;0.3744;-0.7295;
980.7000;0.3753;-0.7271;
981.0000;0.3720;-0.7419;
981.3000;0.3720;-0.7419;
981.6000;0.3744;-0.7295;
981.9000;0.3728;-0.7295;
982.2000;0.3801;-0.7172;
982.5000;0.3744;-0.7271;
982.8000;0.3810;-0.7123;
983.1000;0.3761;-0.7197;
983.4000;0.3761;-0.7172;
983.7000;0.3728;-0.7295;
984.0000;0.3744;-0.7246;
984.3000;0.3753;-0.7197;
984.6000;0.3753;-0.7197;
984.9000;0.3728;-0.7320;
985.2000;0.3744;-0.7369;
985.5000;0.3761;-0.7295;
985.8000;0.3639;-0.7517;
986.1000;0.3753;-0.7295;
986.4000;0.3744;-0.7345;
986.7000;0.3744;-0.7345;
987.0000;0.3736;-0.7419;
987.3000;0.3801;-0.7221;
987.6000;0.3744;-0.7271;
987.9000;0.3744;-0.7320;
988.2000;0.3801;-0.7147;
988.5000;0.3736;-0.7320;
988.8000;0.3753;-0.7295;
989.1000;0.3736;-0.7295;
989.4000;0.3728;-0.7271;
989.7000;0.3736;-0.7221;
990.0000;0.3720;-0.7172;
990.3000;0.3728;-0.7172;
990.6000;0.3761;-0.7098;
990.9000;0.3753;-0.7147;
991.2000;0.3736;-0.7197;
991.5000;0.3777;-0.7098;
991.8000;0.3777;-0.7147;
992.1000;0.3753;-0.7221;
992.4000;0.3810;-0.7123;
992.7000;0.3761;-0.7271;
993.0000;0.3769;-0.7246;
993.3000;0.3744;-0.7295;
993.6000;0.3753;-0.7295;
993.9000;0.3736;-0.7345;
994.2000;0.3777;-0.7221;
994.5000;0.3736;-0.7320;
994.8000;0.3728;-0.7369;
995.1000;0.3728;-0.7345;
995.4000;0.3753;-0.7295;
995.7000;0.3744;-0.7295;
996.0000;0.3744;-0.7246;
996.3000;0.3736;-0.7271;
996.6000;0.3744;-0.7295;
996.9000;0.3810;-0.7147;
997.2000;0.3728;-0.7271;
997.5000;0.3736;-0.7246;
997.8000;0.3728;-0.7295;
998.1000;0.3736;-0.7271;
998.4000;0.3753;-0.7098;
998.7000;0.3720;-0.7074;
999.0000;0.3712;-0.7221;
999.3000;0.3728;-0.7320;
999.6000;0.3753;-0.7295;
999.9000;0.3753;-0.7172;
1000.2000;0.3736;-0.7172;
1000.5000;0.3720;-0.7197;
1000.8000;0.3712;-0.7295;
1001.1000;0.3761;-0.7271;
1001.4000;0.3793;-0.7197;
1001.7000;0.3744;-0.7394;
1002.0000;0.3753;-0.7295;
1002.3000;0.3769;-0.7394;
1002.6000;0.3761;-0.7320;
1002.9000;0.3736;-0.7246;
1003.2000;0.3753;-0.7246;
1003.5000;0.3736;-0.7345;
1003.8000;0.3753;-0.7320;
1004.1000;0.3744;-0.7394;
1004.4000;0.3736;-0.7394;
1004.7000;0.3736;-0.7394;
1005.0000;0.3728;-0.7394;
1005.3000;0.3761;-0.7345;
1005.6000;0.3736;-0.7394;
1005.9000;0.3720;-0.7394;
1006.2000;0.3704;-0.7468;
1006.5000;0.3736;-0.7443;
1006.8000;0.3704;-0.7542;
1007.1000;0.3736;-0.7468;
1007.4000;0.3761;-0.7468;
1007.7000;0.3736;-0.7517;
1008.0000;0.3696;-0.7616;
1008.3000;0.3736;-0.7493;
1008.6000;0.3744;-0.7566;
1008.9000;0.3736;-0.7591;
1009.2000;0.3728;-0.7616;
1009.5000;0.3736;-0.7591;
1009.8000;0.3679;-0.7764;
1010.1000;0.3744;-0.7591;
1010.4000;0.3753;-0.7542;
1010.7000;0.3720;-0.7566;
1011.0000;0.3769;-0.7369;
1011.3000;0.3753;-0.7369;
1011.6000;0.3728;-0.7394;
1011.9000;0.3736;-0.7320;
1012.2000;0.3736;-0.7320;
1012.5000;0.3753;-0.7172;
1012.8000;0.3753;-0.7197;
1013.1000;0.3696;-0.7394;
1013.4000;0.3728;-0.7246;
1013.7000;0.3761;-0.7172;
1014.0000;0.3736;-0.7246;
1014.3000;0.3753;-0.7271;
1014.6000;0.3736;-0.7320;
1014.9000;0.3736;-0.7246;
1015.2000;0.3753;-0.7271;
1015.5000;0.3753;-0.7345;
1015.8000;0.3744;-0.7271;
1016.1000;0.3753;-0.7221;
1016.4000;0.3728;-0.7221;
1016.7000;0.3744;-0.7221;
1017.0000;0.3736;-0.7197;
1017.3000;0.3785;-0.7123;
1017.6000;0.3744;-0.7345;
1017.9000;0.3744;-0.7246;
1018.2000;0.3744;-0.7271;
1018.5000;0.3744;-0.7271;
1018.8000;0.3744;-0.7295;
1019.1000;0.3736;-0.7295;
1019.4000;0.3736;-0.7345;
1019.7000;0.3744;-0.7320;
1020.0000;0.3736;-0.7271;
1020.3000;0.3753;-0.7271;
1020.6000;0.3704;-0.7271;
1020.9000;0.3753;-0.7147;
1021.2000;0.3736;-0.7197;
1021.5000;0.3736;-0.7295;
1021.8000;0.3712;-0.7394;
1022.1000;0.3712;-0.7345;
1022.4000;0.3720;-0.7320;
1022.7000;0.3728;-0.7345;
1023.0000;0.3736;-0.7320;
1023.3000;0.3744;-0.7295;
1023.6000;0.3744;-0.7271;
1023.9000;0.3744;-0.7221;
1024.2000;0.3753;-0.7172;
1024.5000;0.3712;-0.7221;
1024.8000;0.3728;-0.7098;
1025.1000;0.3761;-0.7098;
1025.4000;0.3761;-0.7197;
1025.7000;0.3704;-0.7320;
1026.0000;0.3736;-0.7345;
1026.3000;0.3728;-0.7320;
1026.6000;0.3761;-0.7295;
1026.9000;0.3720;-0.7419;
1027.2000;0.3810;-0.7221;
1027.5000;0.3834;-0.7049;
1027.8000;0.3769;-0.7246;
1028.1000;0.3720;-0.7345;
1028.4000;0.3704;-0.7345;
1028.7000;0.3744;-0.7295;
1029.0000;0.3761;-0.7295;
1029.3000;0.3753;-0.7295;
1029.6000;0.3777;-0.7221;
1029.9000;0.3753;-0.7246;
1030.2000;0.3744;-0.7147;
1030.5000;0.3736;-0.7147;
1030.8000;0.3736;-0.7246;
1031.1000;0.3744;-0.7295;
1031.4000;0.3728;-0.7271;
1031.7000;0.3744;-0.7147;
1032.0000;0.3736;-0.7221;
1032.3000;0.3728;-0.7221;
1032.6000;0.3728;-0.7172;
1032.9000;0.3728;-0.7197;
1033.2000;0.3704;-0.7320;
1033.5000;0.3761;-0.7197;
1033.8000;0.3736;-0.7271;
1034.1000;0.3728;-0.7197;
1034.4000;0.3736;-0.7123;
1034.7000;0.3728;-0.7295;
1035.0000;0.3687;-0.7394;
1035.3000;0.3810;-0.7147;
1035.6000;0.3720;-0.7419;
1035.9000;0.3720;-0.7419;
1036.2000;0.3728;-0.7443;
1036.5000;0.3712;-0.7443;
1036.8000;0.3744;-0.7394;
1037.1000;0.3744;-0.7493;
1037.4000;0.3728;-0.7419;
1037.7000;0.3744;-0.7443;
1038.0000;0.3728;-0.7443;
1038.3000;0.3769;-0.7468;
1038.6000;0.3736;-0.7517;
1038.9000;0.3753;-0.7394;
1039.2000;0.3728;-0.7369;
1039.5000;0.3736;-0.7345;
1039.8000;0.3728;-0.7271;
1040.1000;0.3744;-0.7320;
1040.4000;0.3761;-0.7172;
1040.7000;0.3736;-0.7246;
1041.0000;0.3744;-0.7172;
1041.3000;0.3761;-0.7147;
1041.6000;0.3744;-0.7197;
1041.9000;0.3761;-0.7123;
1042.2000;0.3687;-0.7320;
1042.5000;0.3728;-0.7295;
1042.8000;0.3728;-0.7345;
1043.1000;0.3736;-0.7394;
1043.4000;0.3696;-0.7493;
1043.7000;0.3728;-0.7419;
1044.0000;0.3744;-0.7295;
1044.3000;0.3728;-0.7295;
1044.6000;0.3720;-0.7221;
1044.9000;0.3736;-0.7197;
1045.2000;0.3704;-0.7271;
1045.5000;0.3736;-0.7172;
1045.8000;0.3720;-0.7123;
1046.1000;0.3720;-0.7246;
1046.4000;0.3736;-0.7197;
1046.7000;0.3753;-0.7197;
1047.0000;0.3712;-0.7246;
1047.3000;0.3728;-0.7221;
1047.6000;0.3728;-0.7172;
1047.9000;0.3736;-0.7197;
1048.2000;0.3679;-0.7345;
1048.5000;0.3728;-0.7246;
1048.8000;0.3744;-0.7172;
1049.1000;0.3704;-0.7197;
1049.4000;0.3728;-0.7246;
1049.7000;0.3728;-0.7246;
1050.0000;0.3687;-0.7320;
1050.3000;0.3720;-0.7295;
1050.6000;0.3663;-0.7419;
1050.9000;0.3712;-0.7320;
1051.2000;0.3761;-0.7246;
1051.5000;0.3728;-0.7271;
1051.8000;0.3712;-0.7295;
1052.1000;0.3736;-0.7320;
1052.4000;0.3728;-0.7320;
1052.7000;0.3720;-0.7295;
1053.0000;0.3712;-0.7369;
1053.3000;0.3736;-0.7295;
1053.6000;0.3720;-0.7295;
1053.9000;0.3736;-0.7221;
1054.2000;0.3720;-0.7295;
1054.5000;0.3720;-0.7295;
1054.8000;0.3728;-0.7345;
1055.1000;0.3736;-0.7320;
1055.4000;0.3736;-0.7271;
1055.7000;0.3736;-0.7345;
1056.0000;0.3712;-0.7443;
1056.3000;0.3728;-0.7394;
1056.6000;0.3712;-0.7419;
1056.9000;0.3704;-0.7419;
1057.2000;0.3736;-0.7345;
1057.5000;0.3704;-0.7493;
1057.8000;0.3720;-0.7394;
1058.1000;0.3728;-0.7369;
1058.4000;0.3753;-0.7295;
1058.7000;0.3736;-0.7320;
1059.0000;0.3777;-0.7394;
1059.3000;0.3736;-0.7468;
1059.6000;0.3736;-0.7369;
1059.9000;0.3744;-0.7271;
1060.2000;0.3753;-0.7320;
1060.5000;0.3744;-0.7394;
1060.8000;0.3728;-0.7369;
1061.1000;0.3777;-0.7320;
1061.4000;0.3736;-0.7443;
1061.7000;0.3720;-0.7419;
1062.0000;0.3712;-0.7517;
1062.3000;0.3753;-0.7419;
1062.6000;0.3720;-0.7566;
1062.9000;0.3728;-0.7542;
1063.2000;0.3728;-0.7566;
1063.5000;0.3761;-0.7566;
1063.8000;0.3744;-0.7566;
1064.1000;0.3744;-0.7517;
1064.4000;0.3744;-0.7493;
1064.7000;0.3736;-0.7468;
1065.0000;0.3720;-0.7443;
1065.3000;0.3736;-0.7468;
1065.6000;0.3744;-0.7493;
1065.9000;0.3736;-0.7542;
1066.2000;0.3720;-0.7468;
1066.5000;0.3712;-0.7345;
1066.8000;0.3704;-0.7345;
1067.1000;0.3720;-0.7345;
1067.4000;0.3696;-0.7394;
1067.7000;0.3720;-0.7468;
1068.0000;0.3663;-0.7616;
1068.3000;0.3720;-0.7493;
1068.6000;0.3712;-0.7394;
1068.9000;0.3728;-0.7369;
1069.2000;0.3704;-0.7394;
1069.5000;0.3655;-0.7394;
1069.8000;0.3736;-0.7147;
1070.1000;0.3769;-0.7123;
1070.4000;0.3728;-0.7295;
1070.7000;0.3720;-0.7369;
1071.0000;0.3712;-0.7394;
1071.3000;0.3720;-0.7419;
1071.6000;0.3720;-0.7394;
1071.9000;0.3728;-0.7295;
1072.2000;0.3728;-0.7295;
1072.5000;0.3728;-0.7271;
1072.8000;0.3712;-0.7320;
1073.1000;0.3728;-0.7123;
1073.4000;0.3720;-0.7024;
1073.7000;0.3728;-0.7074;
1074.0000;0.3728;-0.7098;
1074.3000;0.3736;-0.7123;
1074.6000;0.3728;-0.7147;
1074.9000;0.3744;-0.7271;
1075.2000;0.3728;-0.7394;
1075.5000;0.3736;-0.7369;
1075.8000;0.3720;-0.7443;
1076.1000;0.3720;-0.7369;
1076.4000;0.3736;-0.7320;
1076.7000;0.3720;-0.7271;
1077.0000;0.3687;-0.7320;
1077.3000;0.3728;-0.7246;
1077.6000;0.3736;-0.7271;
1077.9000;0.3720;-0.7369;
1078.2000;0.3712;-0.7419;
1078.5000;0.3720;-0.7419;
1078.8000;0.3744;-0.7468;
1079.1000;0.3744;-0.7468;
1079.4000;0.3687;-0.7591;
1079.7000;0.3720;-0.7493;
1080.0000;0.3728;-0.7419;
1080.3000;0.3728;-0.7443;
1080.6000;0.3720;-0.7468;
1080.9000;0.3712;-0.7468;
1081.2000;0.3720;-0.7345;
1081.5000;0.3720;-0.7295;
1081.8000;0.3704;-0.7271;
1082.1000;0.3736;-0.7147;
1082.4000;0.3736;-0.7172;
1082.7000;0.3720;-0.7123;
1083.0000;0.3704;-0.7197;
1083.3000;0.3769;-0.7049;
1083.6000;0.3736;-0.7098;
1083.9000;0.3736;-0.7098;
1084.2000;0.3761;-0.7049;
1084.5000;0.3744;-0.7049;
1084.8000;0.3777;-0.7098;
1085.1000;0.3736;-0.7147;
1085.4000;0.3744;-0.7098;
1085.7000;0.3720;-0.7320;
1086.0000;0.3728;-0.7221;
1086.3000;0.3704;-0.7271;
1086.6000;0.3728;-0.7221;
1086.9000;0.3720;-0.7172;
1087.2000;0.3728;-0.7172;
1087.5000;0.3720;-0.7221;
1087.8000;0.3704;-0.7394;
1088.1000;0.3744;-0.7221;
1088.4000;0.3720;-0.7295;
1088.7000;0.3744;-0.7295;
1089.0000;0.3712;-0.7320;
1089.3000;0.3696;-0.7345;
1089.6000;0.3728;-0.7345;
1089.9000;0.3720;-0.7345;
1090.2000;0.3712;-0.7419;
1090.5000;0.3753;-0.7295;
1090.8000;0.3736;-0.7271;
1091.1000;0.3769;-0.7147;
1091.4000;0.3720;-0.7271;
1091.7000;0.3736;-0.7221;
1092.0000;0.3761;-0.7197;
1092.3000;0.3728;-0.7320;
1092.6000;0.3728;-0.7320;
1092.9000;0.3720;-0.7320;
1093.2000;0.3744;-0.7172;
1093.5000;0.3728;-0.7172;
1093.8000;0.3720;-0.7246;
1094.1000;0.3736;-0.7197;
1094.4000;0.3728;-0.7221;
1094.7000;0.3712;-0.7271;
1095.0000;0.3736;-0.7271;
1095.3000;0.3736;-0.7147;
1095.6000;0.3736;-0.7221;
1095.9000;0.3712;-0.7172;
1096.2000;0.3736;-0.7123;
1096.5000;0.3736;-0.7172;
1096.8000;0.3696;-0.7271;
1097.1000;0.3704;-0.7320;
1097.4000;0.3712;-0.7394;
1097.7000;0.3728;-0.7419;
1098.0000;0.3826;-0.7172;
1098.3000;0.3720;-0.7542;
1098.6000;0.3728;-0.7493;
1098.9000;0.3712;-0.7591;
1099.2000;0.3761;-0.7468;
1099.5000;0.3712;-0.7468;
1099.8000;0.3769;-0.7369;
1100.1000;0.3712;-0.7493;
1100.4000;0.3736;-0.7419;
1100.7000;0.3712;-0.7369;
1101.0000;0.3663;-0.7419;
1101.3000;0.3753;-0.7197;
1101.6000;0.3712;-0.7271;
1101.9000;0.3704;-0.7345;
1102.2000;0.3696;-0.7419;
1102.5000;0.3704;-0.7345;
1102.8000;0.3630;-0.7542;
1103.1000;0.3728;-0.7295;
1103.4000;0.3712;-0.7369;
1103.7000;0.3720;-0.7369;
1104.0000;0.3728;-0.7468;
1104.3000;0.3753;-0.7369;
1104.6000;0.3720;-0.7345;
1104.9000;0.3720;-0.7320;
1105.2000;0.3720;-0.7320;
1105.5000;0.3728;-0.7246;
1105.8000;0.3720;-0.7221;
1106.1000;0.3736;-0.7271;
1106.4000;0.3728;-0.7320;
1106.7000;0.3720;-0.7394;
1107.0000;0.3728;-0.7468;
1107.3000;0.3728;-0.7443;
1107.6000;0.3704;-0.7419;
1107.9000;0.3720;-0.7271;
1108.2000;0.3720;-0.7246;
1108.5000;0.3736;-0.7172;
1108.8000;0.3720;-0.7345;
1109.1000;0.3744;-0.7246;
1109.4000;0.3761;-0.7123;
1109.7000;0.3728;-0.7320;
1110.0000;0.3704;-0.7345;
1110.3000;0.3720;-0.7271;
1110.6000;0.3728;-0.7271;
1110.9000;0.3744;-0.7345;
1111.2000;0.3753;-0.7394;
1111.5000;0.3712;-0.7468;
1111.8000;0.3720;-0.7443;
1112.1000;0.3736;-0.7394;
1112.4000;0.3720;-0.7345;
1112.7000;0.3728;-0.7345;
1113.0000;0.3777;-0.7197;
1113.3000;0.3720;-0.7295;
1113.6000;0.3687;-0.7394;
1113.9000;0.3728;-0.7295;
1114.2000;0.3712;-0.7295;
1114.5000;0.3720;-0.7271;
1114.8000;0.3720;-0.7295;
1115.1000;0.3728;-0.7295;
1115.4000;0.3728;-0.7295;
1115.7000;0.3712;-0.7246;
1116.0000;0.3696;-0.7271;
1116.3000;0.3712;-0.7320;
1116.6000;0.3753;-0.7221;
1116.9000;0.3793;-0.7147;
1117.2000;0.3720;-0.7369;
1117.5000;0.3720;-0.7468;
1117.8000;0.3704;-0.7419;
1118.1000;0.3761;-0.7197;
1118.4000;0.3769;-0.7147;
1118.7000;0.3671;-0.7369;
1119.0000;0.3818;-0.7049;
1119.3000;0.3753;-0.7197;
1119.6000;0.3769;-0.7147;
1119.9000;0.3720;-0.7221;
1120.2000;0.3687;-0.7246;
1120.5000;0.3704;-0.7221;
1120.8000;0.3728;-0.7147;
1121.1000;0.3736;-0.7147;
1121.4000;0.3720;-0.7271;
1121.7000;0.3696;-0.7394;
1122.0000;0.3696;-0.7419;
1122.3000;0.3720;-0.7369;
1122.6000;0.3736;-0.7345;
1122.9000;0.3728;-0.7295;
1123.2000;0.3720;-0.7295;
1123.5000;0.3720;-0.7221;
1123.8000;0.3793;-0.7074;
1124.1000;0.3712;-0.7221;
1124.4000;0.3696;-0.7271;
1124.7000;0.3728;-0.7246;
1125.0000;0.3720;-0.7246;
1125.3000;0.3728;-0.7246;
1125.6000;0.3744;-0.7172;
1125.9000;0.3712;-0.7246;
1126.2000;0.3736;-0.7172;
1126.5000;0.3720;-0.7172;
1126.8000;0.3720;-0.7147;
1127.1000;0.3704;-0.7271;
1127.4000;0.3736;-0.7172;
1127.7000;0.3744;-0.7123;
1128.0000;0.3720;-0.7271;
1128.3000;0.3687;-0.7394;
1128.6000;0.3720;-0.7320;
1128.9000;0.3712;-0.7320;
1129.2000;0.3712;-0.7246;
1129.5000;0.3720;-0.7246;
1129.8000;0.3704;-0.7295;
1130.1000;0.3712;-0.7271;
1130.4000;0.3696;-0.7345;
1130.7000;0.3720;-0.7295;
1131.0000;0.3712;-0.7295;
1131.3000;0.3720;-0.7221;
1131.6000;0.3728;-0.7246;
1131.9000;0.3793;-0.7024;
1132.2000;0.3728;-0.7147;
1132.5000;0.3753;-0.7123;
1132.8000;0.3736;-0.7074;
1133.1000;0.3704;-0.7172;
1133.4000;0.3728;-0.7172;
1133.7000;0.3753;-0.7098;
1134.0000;0.3704;-0.7123;
1134.3000;0.3728;-0.7221;
1134.6000;0.3712;-0.7246;
1134.9000;0.3712;-0.7295;
1135.2000;0.3655;-0.7443;
1135.5000;0.3728;-0.7271;
1135.8000;0.3712;-0.7345;
1136.1000;0.3728;-0.7320;
1136.4000;0.3736;-0.7271;
1136.7000;0.3720;-0.7295;
1137.0000;0.3712;-0.7172;
1137.3000;0.3728;-0.7049;
1137.6000;0.3720;-0.7172;
1137.9000;0.3728;-0.7123;
1138.2000;0.3704;-0.7098;
1138.5000;0.3679;-0.7123;
1138.8000;0.3704;-0.7147;
1139.1000;0.3720;-0.7172;
1139.4000;0.3720;-0.7221;
1139.7000;0.3712;-0.7197;
1140.0000;0.3687;-0.7221;
1140.3000;0.3744;-0.7172;
1140.6000;0.3712;-0.7271;
1140.9000;0.3728;-0.7197;
1141.2000;0.3744;-0.7123;
1141.5000;0.3736;-0.7049;
1141.8000;0.3744;-0.7000;
1142.1000;0.3769;-0.6852;
1142.4000;0.3753;-0.6926;
1142.7000;0.3736;-0.7024;
1143.0000;0.3720;-0.7049;
1143.3000;0.3696;-0.7098;
1143.6000;0.3720;-0.7049;
1143.9000;0.3720;-0.7024;
1144.2000;0.3639;-0.7197;
1144.5000;0.3679;-0.7098;
1144.8000;0.3728;-0.7024;
1145.1000;0.3704;-0.7123;
1145.4000;0.3736;-0.7049;
1145.7000;0.3696;-0.7147;
1146.0000;0.3720;-0.7172;
1146.3000;0.3712;-0.7221;
1146.6000;0.3728;-0.7221;
1146.9000;0.3704;-0.7295;
1147.2000;0.3712;-0.7123;
1147.5000;0.3736;-0.6950;
1147.8000;0.3728;-0.6901;
1148.1000;0.3696;-0.6950;
1148.4000;0.3728;-0.6975;
1148.7000;0.3696;-0.7049;
1149.0000;0.3720;-0.7024;
1149.3000;0.3712;-0.7123;
1149.6000;0.3704;-0.7172;
1149.9000;0.3704;-0.7197;
1150.2000;0.3720;-0.7246;
1150.5000;0.3769;-0.7123;
1150.8000;0.3728;-0.7197;
1151.1000;0.3753;-0.7172;
1151.4000;0.3728;-0.7172;
1151.7000;0.3720;-0.7098;
1152.0000;0.3720;-0.7074;
1152.3000;0.3720;-0.7197;
1152.6000;0.3728;-0.7098;
1152.9000;0.3712;-0.7197;
1153.2000;0.3671;-0.7394;
1153.5000;0.3704;-0.7271;
1153.8000;0.3736;-0.7246;
1154.1000;0.3712;-0.7246;
1154.4000;0.3712;-0.7246;
1154.7000;0.3655;-0.7369;
1155.0000;0.3704;-0.7320;
1155.3000;0.3720;-0.7320;
1155.6000;0.3704;-0.7345;
1155.9000;0.3744;-0.7221;
1156.2000;0.3704;-0.7271;
1156.5000;0.3720;-0.7172;
1156.8000;0.3728;-0.7123;
1157.1000;0.3736;-0.7098;
1157.4000;0.3679;-0.7197;
1157.7000;0.3736;-0.7024;
1158.0000;0.3744;-0.6950;
1158.3000;0.3744;-0.6975;
1158.6000;0.3704;-0.7049;
1158.9000;0.3696;-0.7049;
1159.2000;0.3728;-0.6901;
1159.5000;0.3696;-0.6975;
1159.8000;0.3712;-0.6975;
1160.1000;0.3720;-0.6975;
1160.4000;0.3647;-0.7197;
1160.7000;0.3736;-0.6975;
1161.0000;0.3712;-0.7074;
1161.3000;0.3728;-0.7024;
1161.6000;0.3712;-0.7074;
1161.9000;0.3696;-0.6975;
1162.2000;0.3704;-0.6926;
1162.5000;0.3704;-0.6876;
1162.8000;0.3728;-0.6827;
1163.1000;0.3720;-0.7000;
1163.4000;0.3720;-0.7098;
1163.7000;0.3655;-0.7295;
1164.0000;0.3704;-0.7221;
1164.3000;0.3736;-0.7147;
1164.6000;0.3712;-0.7147;
1164.9000;0.3720;-0.7098;
1165.2000;0.3712;-0.7172;
1165.5000;0.3712;-0.7098;
1165.8000;0.3712;-0.7074;
1166.1000;0.3704;-0.7246;
1166.4000;0.3720;-0.7197;
1166.7000;0.3671;-0.7320;
1167.0000;0.3704;-0.7221;
1167.3000;0.3696;-0.7221;
1167.6000;0.3687;-0.7197;
1167.9000;0.3696;-0.7172;
1168.2000;0.3687;-0.7147;
1168.5000;0.3704;-0.7049;
1168.8000;0.3712;-0.7024;
1169.1000;0.3712;-0.7074;
1169.4000;0.3728;-0.7049;
1169.7000;0.3720;-0.7049;
1170.0000;0.3687;-0.7074;
1170.3000;0.3696;-0.7123;
1170.6000;0.3712;-0.7172;
1170.9000;0.3704;-0.7123;
1171.2000;0.3728;-0.7098;
1171.5000;0.3728;-0.7098;
1171.8000;0.3712;-0.7123;
1172.1000;0.3728;-0.7123;
1172.4000;0.3712;-0.7172;
1172.7000;0.3712;-0.7147;
1173.0000;0.3728;-0.7123;
1173.3000;0.3696;-0.7271;
1173.6000;0.3728;-0.7172;
1173.9000;0.3704;-0.7147;
1174.2000;0.3696;-0.7147;
1174.5000;0.3720;-0.7197;
1174.8000;0.3728;-0.7123;
1175.1000;0.3687;-0.7246;
1175.4000;0.3704;-0.7197;
1175.7000;0.3720;-0.7147;
1176.0000;0.3704;-0.7074;
1176.3000;0.3753;-0.7024;
1176.6000;0.3712;-0.7074;
1176.9000;0.3720;-0.7024;
1177.2000;0.3720;-0.6975;
1177.5000;0.3720;-0.7000;
1177.8000;0.3704;-0.7024;
1178.1000;0.3712;-0.7024;
1178.4000;0.3712;-0.7024;
1178.7000;0.3712;-0.7098;
1179.0000;0.3712;-0.7172;
1179.3000;0.3712;-0.7147;
1179.6000;0.3736;-0.7049;
1179.9000;0.3712;-0.7098;
1180.2000;0.3720;-0.7123;
1180.5000;0.3655;-0.7197;
1180.8000;0.3696;-0.7172;
1181.1000;0.3712;-0.7147;
1181.4000;0.3712;-0.7197;
1181.7000;0.3712;-0.7221;
1182.0000;0.3720;-0.7172;
1182.3000;0.3736;-0.7246;
1182.6000;0.3687;-0.7320;
1182.9000;0.3728;-0.7295;
1183.2000;0.3728;-0.7320;
1183.5000;0.3720;-0.7295;
1183.8000;0.3720;-0.7345;
1184.1000;0.3728;-0.7246;
1184.4000;0.3736;-0.7197;
1184.7000;0.3720;-0.7271;
1185.0000;0.3720;-0.7320;
1185.3000;0.3712;-0.7369;
1185.6000;0.3663;-0.7468;
1185.9000;0.3687;-0.7419;
1186.2000;0.3720;-0.7369;
1186.5000;0.3720;-0.7221;
1186.8000;0.3720;-0.7246;
1187.1000;0.3720;-0.7295;
1187.4000;0.3728;-0.7246;
1187.7000;0.3720;-0.7271;
1188.0000;0.3720;-0.7246;
1188.3000;0.3712;-0.7295;
1188.6000;0.3712;-0.7345;
1188.9000;0.3712;-0.7320;
1189.2000;0.3720;-0.7345;
1189.5000;0.3679;-0.7493;
1189.8000;0.3736;-0.7369;
1190.1000;0.3712;-0.7443;
1190.4000;0.3712;-0.7443;
1190.7000;0.3720;-0.7369;
1191.0000;0.3777;-0.7123;
1191.3000;0.3728;-0.7271;
1191.6000;0.3728;-0.7320;
1191.9000;0.3728;-0.7394;
1192.2000;0.3728;-0.7394;
1192.5000;0.3720;-0.7493;
1192.8000;0.3720;-0.7443;
1193.1000;0.3704;-0.7345;
1193.4000;0.3696;-0.7246;
1193.7000;0.3712;-0.7246;
1194.0000;0.3720;-0.7221;
1194.3000;0.3704;-0.7197;
1194.6000;0.3712;-0.7197;
1194.9000;0.3720;-0.7123;
1195.2000;0.3704;-0.7074;
1195.5000;0.3720;-0.7123;
1195.8000;0.3696;-0.7147;
1196.1000;0.3712;-0.7147;
1196.4000;0.3720;-0.7123;
1196.7000;0.3704;-0.7271;
1197.0000;0.3712;-0.7320;
1197.3000;0.3704;-0.7221;
1197.6000;0.3712;-0.7172;
1197.9000;0.3720;-0.7172;
1198.2000;0.3720;-0.7197;
1198.5000;0.3720;-0.7098;
1198.8000;0.3753;-0.7049;
1199.1000;0.3696;-0.7197;
1199.4000;0.3687;-0.7221;
1199.7000;0.3696;-0.7147;
1200.0000;0.3712;-0.7098;
1200.3000;0.3704;-0.7123;
1200.6000;0.3704;-0.7197;
1200.9000;0.3696;-0.7172;
1201.2000;0.3736;-0.7049;
1201.5000;0.3728;-0.7123;
1201.8000;0.3712;-0.7172;
1202.1000;0.3712;-0.7221;
1202.4000;0.3696;-0.7221;
1202.7000;0.3712;-0.7246;
1203.0000;0.3704;-0.7320;
1203.3000;0.3712;-0.7320;
1203.6000;0.3769;-0.7221;
1203.9000;0.3728;-0.7271;
1204.2000;0.3736;-0.7295;
1204.5000;0.3736;-0.7246;
1204.8000;0.3712;-0.7271;
1205.1000;0.3728;-0.7197;
1205.4000;0.3704;-0.7221;
1205.7000;0.3712;-0.7246;
1206.0000;0.3696;-0.7320;
1206.3000;0.3712;-0.7271;
1206.6000;0.3728;-0.7197;
1206.9000;0.3704;-0.7345;
1207.2000;0.3712;-0.7369;
1207.5000;0.3712;-0.7345;
1207.8000;0.3720;-0.7320;
1208.1000;0.3712;-0.7345;
1208.4000;0.3704;-0.7369;
1208.7000;0.3720;-0.7246;
1209.0000;0.3720;-0.7172;
1209.3000;0.3696;-0.7221;
1209.6000;0.3712;-0.7197;
1209.9000;0.3704;-0.7295;
1210.2000;0.3712;-0.7369;
1210.5000;0.3720;-0.7394;
1210.8000;0.3712;-0.7419;
1211.1000;0.3687;-0.7493;
1211.4000;0.3720;-0.7394;
1211.7000;0.3720;-0.7369;
1212.0000;0.3720;-0.7320;
1212.3000;0.3720;-0.7246;
1212.6000;0.3712;-0.7221;
1212.9000;0.3720;-0.7147;
1213.2000;0.3712;-0.7172;
1213.5000;0.3696;-0.7246;
1213.8000;0.3712;-0.7295;
1214.1000;0.3671;-0.7394;
1214.4000;0.3720;-0.7345;
1214.7000;0.3720;-0.7468;
1215.0000;0.3655;-0.7616;
1215.3000;0.3712;-0.7443;
1215.6000;0.3728;-0.7369;
1215.9000;0.3720;-0.7345;
1216.2000;0.3687;-0.7443;
1216.5000;0.3704;-0.7295;
1216.8000;0.3744;-0.7295;
1217.1000;0.3712;-0.7320;
1217.4000;0.3704;-0.7369;
1217.7000;0.3728;-0.7320;
1218.0000;0.3720;-0.7295;
1218.3000;0.3704;-0.7345;
1218.6000;0.3712;-0.7345;
1218.9000;0.3720;-0.7271;
1219.2000;0.3736;-0.7172;
1219.5000;0.3720;-0.7345;
1219.8000;0.3712;-0.7320;
1220.1000;0.3712;-0.7394;
1220.4000;0.3712;-0.7394;
1220.7000;0.3712;-0.7419;
1221.0000;0.3704;-0.7320;
1221.3000;0.3712;-0.7197;
1221.6000;0.3704;-0.7197;
1221.9000;0.3696;-0.7246;
1222.2000;0.3810;-0.7000;
1222.5000;0.3704;-0.7246;
1222.8000;0.3720;-0.7221;
1223.1000;0.3712;-0.7197;
1223.4000;0.3720;-0.7147;
1223.7000;0.3712;-0.7197;
1224.0000;0.3704;-0.7246;
1224.3000;0.3728;-0.7221;
1224.6000;0.3720;-0.7295;
1224.9000;0.3728;-0.7197;
1225.2000;0.3712;-0.7221;
1225.5000;0.3696;-0.7172;
1225.8000;0.3655;-0.7345;
1226.1000;0.3704;-0.7172;
1226.4000;0.3704;-0.7172;
1226.7000;0.3704;-0.7246;
1227.0000;0.3696;-0.7221;
1227.3000;0.3712;-0.7172;
1227.6000;0.3704;-0.7172;
1227.9000;0.3671;-0.7394;
1228.2000;0.3679;-0.7320;
1228.5000;0.3712;-0.7246;
1228.8000;0.3696;-0.7147;
1229.1000;0.3712;-0.7024;
1229.4000;0.3687;-0.7123;
1229.7000;0.3712;-0.7049;
1230.0000;0.3696;-0.7147;
1230.3000;0.3712;-0.7098;
1230.6000;0.3728;-0.7024;
1230.9000;0.3728;-0.7024;
1231.2000;0.3696;-0.7147;
1231.5000;0.3696;-0.7147;
1231.8000;0.3712;-0.7074;
1232.1000;0.3704;-0.7123;
1232.4000;0.3704;-0.7098;
1232.7000;0.3712;-0.7074;
1233.0000;0.3647;-0.7271;
1233.3000;0.3647;-0.7246;
1233.6000;0.3712;-0.7123;
1233.9000;0.3761;-0.7024;
1234.2000;0.3720;-0.7098;
1234.5000;0.3720;-0.7221;
1234.8000;0.3728;-0.7172;
1235.1000;0.3736;-0.7123;
1235.4000;0.3696;-0.7246;
1235.7000;0.3720;-0.7123;
1236.0000;0.3785;-0.6901;
1236.3000;0.3704;-0.7098;
1236.6000;0.3720;-0.7098;
1236.9000;0.3704;-0.7074;
1237.2000;0.3696;-0.7172;
1237.5000;0.3704;-0.7221;
1237.8000;0.3712;-0.7147;
1238.1000;0.3696;-0.7123;
1238.4000;0.3704;-0.7074;
1238.7000;0.3728;-0.7049;
1239.0000;0.3671;-0.7271;
1239.3000;0.3736;-0.7197;
1239.6000;0.3655;-0.7320;
1239.9000;0.3712;-0.7172;
1240.2000;0.3687;-0.7147;
1240.5000;0.3679;-0.7246;
1240.8000;0.3704;-0.7172;
1241.1000;0.3712;-0.7221;
1241.4000;0.3736;-0.7172;
1241.7000;0.3712;-0.7221;
1242.0000;0.3712;-0.7197;
1242.3000;0.3712;-0.7172;
1242.6000;0.3720;-0.7172;
1242.9000;0.3704;-0.7221;
1243.2000;0.3761;-0.7123;
1243.5000;0.3728;-0.7221;
1243.8000;0.3720;-0.7271;
1244.1000;0.3736;-0.7246;
1244.4000;0.3679;-0.7295;
1244.7000;0.3704;-0.7320;
1245.0000;0.3704;-0.7345;
1245.3000;0.3761;-0.7271;
1245.6000;0.3687;-0.7468;
1245.9000;0.3720;-0.7394;
1246.2000;0.3728;-0.7295;
1246.5000;0.3793;-0.7172;
1246.8000;0.3696;-0.7468;
1247.1000;0.3704;-0.7517;
1247.4000;0.3720;-0.7468;
1247.7000;0.3679;-0.7468;
1248.0000;0.3728;-0.7246;
1248.3000;0.3720;-0.7369;
1248.6000;0.3720;-0.7345;
1248.9000;0.3704;-0.7394;
1249.2000;0.3728;-0.7468;
1249.5000;0.3712;-0.7566;
1249.8000;0.3785;-0.7394;
1250.1000;0.3704;-0.7591;
1250.4000;0.3679;-0.7640;
1250.7000;0.3736;-0.7468;
1251.0000;0.3696;-0.7517;
1251.3000;0.3712;-0.7443;
1251.6000;0.3753;-0.7394;
1251.9000;0.3704;-0.7419;
1252.2000;0.3753;-0.7419;
1252.5000;0.3622;-0.7690;
1252.8000;0.3712;-0.7493;
1253.1000;0.3712;-0.7616;
1253.4000;0.3736;-0.7616;
1253.7000;0.3720;-0.7616;
1254.0000;0.3736;-0.7542;
1254.3000;0.3696;-0.7542;
1254.6000;0.3736;-0.7468;
1254.9000;0.3736;-0.7320;
1255.2000;0.3704;-0.7468;
1255.5000;0.3712;-0.7517;
1255.8000;0.3687;-0.7566;
1256.1000;0.3720;-0.7542;
1256.4000;0.3704;-0.7517;
1256.7000;0.3696;-0.7493;
1257.0000;0.3712;-0.7468;
1257.3000;0.3818;-0.7197;
1257.6000;0.3728;-0.7419;
1257.9000;0.3728;-0.7468;
1258.2000;0.3687;-0.7591;
1258.5000;0.3712;-0.7493;
1258.8000;0.3728;-0.7419;
1259.1000;0.3810;-0.7246;
1259.4000;0.3712;-0.7369;
1259.7000;0.3720;-0.7394;
1260.0000;0.3704;-0.7369;
1260.3000;0.3728;-0.7320;
1260.6000;0.3728;-0.7320;
1260.9000;0.3712;-0.7320;
1261.2000;0.3704;-0.7295;
1261.5000;0.3704;-0.7172;
1261.8000;0.3712;-0.7147;
1262.1000;0.3696;-0.7246;
1262.4000;0.3720;-0.7221;
1262.7000;0.3712;-0.7271;
1263.0000;0.3720;-0.7295;
1263.3000;0.3712;-0.7246;
1263.6000;0.3728;-0.7394;
1263.9000;0.3720;-0.7468;
1264.2000;0.3720;-0.7517;
1264.5000;0.3728;-0.7345;
1264.8000;0.3720;-0.7221;
1265.1000;0.3728;-0.7123;
1265.4000;0.3720;-0.7221;
1265.7000;0.3728;-0.7221;
1266.0000;0.3704;-0.7271;
1266.3000;0.3679;-0.7419;
1266.6000;0.3704;-0.7394;
1266.9000;0.3704;-0.7369;
1267.2000;0.3736;-0.7369;
1267.5000;0.3728;-0.7345;
1267.8000;0.3712;-0.7295;
1268.1000;0.3704;-0.7369;
1268.4000;0.3696;-0.7345;
1268.7000;0.3696;-0.7295;
1269.0000;0.3696;-0.7320;
1269.3000;0.3639;-0.7517;
1269.6000;0.3720;-0.7345;
1269.9000;0.3728;-0.7345;
1270.2000;0.3728;-0.7320;
1270.5000;0.3728;-0.7271;
1270.8000;0.3704;-0.7295;
1271.1000;0.3696;-0.7320;
1271.4000;0.3712;-0.7345;
1271.7000;0.3720;-0.7295;
1272.0000;0.3704;-0.7394;
1272.3000;0.3704;-0.7419;
1272.6000;0.3720;-0.7394;
1272.9000;0.3736;-0.7394;
1273.2000;0.3696;-0.7419;
1273.5000;0.3679;-0.7394;
1273.8000;0.3663;-0.7394;
1274.1000;0.3720;-0.7320;
1274.4000;0.3785;-0.7123;
1274.7000;0.3744;-0.7271;
1275.0000;0.3704;-0.7320;
1275.3000;0.3663;-0.7493;
1275.6000;0.3704;-0.7320;
1275.9000;0.3679;-0.7295;
1276.2000;0.3639;-0.7320;
1276.5000;0.3712;-0.7147;
1276.8000;0.3712;-0.7049;
1277.1000;0.3712;-0.7049;
1277.4000;0.3728;-0.7074;
1277.7000;0.3744;-0.7123;
1278.0000;0.3736;-0.7221;
1278.3000;0.3704;-0.7246;
1278.6000;0.3712;-0.7271;
1278.9000;0.3753;-0.7246;
1279.2000;0.3696;-0.7369;
1279.5000;0.3720;-0.7345;
1279.8000;0.3728;-0.7369;
1280.1000;0.3744;-0.7394;
1280.4000;0.3728;-0.7517;
1280.7000;0.3720;-0.7443;
1281.0000;0.3704;-0.7443;
1281.3000;0.3720;-0.7468;
1281.6000;0.3720;-0.7542;
1281.9000;0.3777;-0.7443;
1282.2000;0.3720;-0.7542;
1282.5000;0.3687;-0.7616;
1282.8000;0.3712;-0.7493;
1283.1000;0.3696;-0.7419;
1283.4000;0.3712;-0.7271;
1283.7000;0.3712;-0.7246;
1284.0000;0.3712;-0.7221;
1284.3000;0.3712;-0.7221;
1284.6000;0.3712;-0.7221;
1284.9000;0.3712;-0.7295;
1285.2000;0.3736;-0.7246;
1285.5000;0.3728;-0.7394;
1285.8000;0.3720;-0.7443;
1286.1000;0.3704;-0.7493;
1286.4000;0.3696;-0.7542;
1286.7000;0.3696;-0.7517;
1287.0000;0.3728;-0.7468;
1287.3000;0.3704;-0.7591;
1287.6000;0.3655;-0.7665;
1287.9000;0.3720;-0.7493;
1288.2000;0.3712;-0.7468;
1288.5000;0.3679;-0.7616;
1288.8000;0.3720;-0.7419;
1289.1000;0.3696;-0.7517;
1289.4000;0.3728;-0.7320;
1289.7000;0.3712;-0.7394;
1290.0000;0.3712;-0.7345;
1290.3000;0.3793;-0.7221;
1290.6000;0.3704;-0.7345;
1290.9000;0.3704;-0.7320;
1291.2000;0.3687;-0.7419;
1291.5000;0.3687;-0.7419;
1291.8000;0.3712;-0.7320;
1292.1000;0.3753;-0.7271;
1292.4000;0.3712;-0.7369;
1292.7000;0.3622;-0.7566;
1293.0000;0.3704;-0.7419;
1293.3000;0.3769;-0.7246;
1293.6000;0.3687;-0.7369;
1293.9000;0.3728;-0.7394;
1294.2000;0.3704;-0.7320;
1294.5000;0.3720;-0.7295;
1294.8000;0.3712;-0.7345;
1295.1000;0.3712;-0.7394;
1295.4000;0.3728;-0.7369;
1295.7000;0.3720;-0.7369;
1296.0000;0.3704;-0.7345;
1296.3000;0.3720;-0.7320;
1296.6000;0.3704;-0.7369;
1296.9000;0.3687;-0.7295;
1297.2000;0.3728;-0.7172;
1297.5000;0.3704;-0.7172;
1297.8000;0.3704;-0.7369;
1298.1000;0.3712;-0.7320;
1298.4000;0.3671;-0.7443;
1298.7000;0.3696;-0.7295;
1299.0000;0.3720;-0.7221;
1299.3000;0.3712;-0.7221;
1299.6000;0.3720;-0.7221;
1299.9000;0.3728;-0.7246;
1300.2000;0.3720;-0.7246;
1300.5000;0.3720;-0.7172;
1300.8000;0.3687;-0.7295;
1301.1000;0.3712;-0.7345;
1301.4000;0.3712;-0.7394;
1301.7000;0.3696;-0.7517;
1302.0000;0.3687;-0.7566;
1302.3000;0.3728;-0.7419;
1302.6000;0.3696;-0.7517;
1302.9000;0.3728;-0.7369;
1303.2000;0.3696;-0.7493;
1303.5000;0.3712;-0.7369;
1303.8000;0.3720;-0.7394;
1304.1000;0.3712;-0.7542;
1304.4000;0.3704;-0.7616;
1304.7000;0.3663;-0.7788;
1305.0000;0.3704;-0.7616;
1305.3000;0.3696;-0.7665;
1305.6000;0.3696;-0.7714;
1305.9000;0.3704;-0.7714;
1306.2000;0.3728;-0.7616;
1306.5000;0.3753;-0.7566;
1306.8000;0.3704;-0.7591;
1307.1000;0.3712;-0.7369;
1307.4000;0.3728;-0.7443;
1307.7000;0.3687;-0.7517;
1308.0000;0.3785;-0.7369;
1308.3000;0.3712;-0.7665;
1308.6000;0.3720;-0.7640;
1308.9000;0.3687;-0.7739;
1309.2000;0.3712;-0.7764;
1309.5000;0.3712;-0.7788;
1309.8000;0.3720;-0.7739;
1310.1000;0.3720;-0.7591;
1310.4000;0.3720;-0.7517;
1310.7000;0.3639;-0.7665;
1311.0000;0.3720;-0.7493;
1311.3000;0.3720;-0.7419;
1311.6000;0.3696;-0.7542;
1311.9000;0.3696;-0.7542;
1312.2000;0.3663;-0.7640;
1312.5000;0.3728;-0.7566;
1312.8000;0.3712;-0.7616;
1313.1000;0.3712;-0.7616;
1313.4000;0.3712;-0.7616;
1313.7000;0.3712;-0.7591;
1314.0000;0.3712;-0.7616;
1314.3000;0.3720;-0.7542;
1314.6000;0.3696;-0.7542;
1314.9000;0.3728;-0.7468;
1315.2000;0.3712;-0.7517;
1315.5000;0.3655;-0.7640;
1315.8000;0.3753;-0.7320;
1316.1000;0.3712;-0.7419;
1316.4000;0.3728;-0.7394;
1316.7000;0.3679;-0.7591;
1317.0000;0.3712;-0.7591;
1317.3000;0.3728;-0.7591;
1317.6000;0.3704;-0.7591;
1317.9000;0.3744;-0.7468;
1318.2000;0.3696;-0.7591;
1318.5000;0.3712;-0.7517;
1318.8000;0.3696;-0.7493;
1319.1000;0.3720;-0.7419;
1319.4000;0.3712;-0.7419;
1319.7000;0.3728;-0.7419;
1320.0000;0.3720;-0.7443;
1320.3000;0.3712;-0.7443;
1320.6000;0.3704;-0.7369;
1320.9000;0.3712;-0.7394;
1321.2000;0.3720;-0.7345;
1321.5000;0.3720;-0.7369;
1321.8000;0.3720;-0.7369;
1322.1000;0.3712;-0.7345;
1322.4000;0.3720;-0.7419;
1322.7000;0.3736;-0.7345;
1323.0000;0.3728;-0.7369;
1323.3000;0.3704;-0.7419;
1323.6000;0.3712;-0.7369;
1323.9000;0.3744;-0.7345;
1324.2000;0.3744;-0.7345;
1324.5000;0.3704;-0.7542;
1324.8000;0.3712;-0.7566;
1325.1000;0.3761;-0.7468;
1325.4000;0.3712;-0.7640;
1325.7000;0.3704;-0.7640;
1326.0000;0.3687;-0.7640;
1326.3000;0.3728;-0.7517;
1326.6000;0.3687;-0.7591;
1326.9000;0.3728;-0.7419;
1327.2000;0.3712;-0.7468;
1327.5000;0.3704;-0.7517;
1327.8000;0.3704;-0.7517;
1328.1000;0.3704;-0.7493;
1328.4000;0.3704;-0.7493;
1328.7000;0.3720;-0.7468;
1329.0000;0.3744;-0.7468;
1329.3000;0.3712;-0.7517;
1329.6000;0.3720;-0.7542;
1329.9000;0.3704;-0.7616;
1330.2000;0.3696;-0.7640;
1330.5000;0.3704;-0.7591;
1330.8000;0.3679;-0.7591;
1331.1000;0.3655;-0.7665;
1331.4000;0.3712;-0.7591;
1331.7000;0.3712;-0.7542;
1332.0000;0.3744;-0.7493;
1332.3000;0.3696;-0.7542;
1332.6000;0.3736;-0.7517;
1332.9000;0.3720;-0.7542;
1333.2000;0.3720;-0.7591;
1333.5000;0.3712;-0.7566;
1333.8000;0.3704;-0.7591;
1334.1000;0.3712;-0.7517;
1334.4000;0.3728;-0.7443;
1334.7000;0.3696;-0.7419;
1335.0000;0.3696;-0.7419;
1335.3000;0.3712;-0.7419;
1335.6000;0.3704;-0.7493;
1335.9000;0.3704;-0.7394;
1336.2000;0.3704;-0.7320;
1336.5000;0.3704;-0.7295;
1336.8000;0.3720;-0.7345;
1337.1000;0.3728;-0.7345;
1337.4000;0.3720;-0.7419;
1337.7000;0.3712;-0.7394;
1338.0000;0.3704;-0.7345;
1338.3000;0.3663;-0.7419;
1338.6000;0.3712;-0.7345;
1338.9000;0.3704;-0.7369;
1339.2000;0.3720;-0.7369;
1339.5000;0.3712;-0.7271;
1339.8000;0.3720;-0.7197;
1340.1000;0.3753;-0.7147;
1340.4000;0.3720;-0.7221;
1340.7000;0.3704;-0.7320;
1341.0000;0.3728;-0.7295;
1341.3000;0.3671;-0.7419;
1341.6000;0.3720;-0.7221;
1341.9000;0.3712;-0.7295;
1342.2000;0.3720;-0.7320;
1342.5000;0.3696;-0.7394;
1342.8000;0.3696;-0.7345;
1343.1000;0.3728;-0.7320;
1343.4000;0.3696;-0.7345;
1343.7000;0.3704;-0.7246;
1344.0000;0.3728;-0.7246;
1344.3000;0.3720;-0.7246;
1344.6000;0.3712;-0.7345;
1344.9000;0.3704;-0.7394;
1345.2000;0.3720;-0.7320;
1345.5000;0.3728;-0.7295;
1345.8000;0.3720;-0.7419;
1346.1000;0.3704;-0.7345;
1346.4000;0.3622;-0.7566;
1346.7000;0.3720;-0.7419;
1347.0000;0.3720;-0.7369;
1347.3000;0.3655;-0.7468;
1347.6000;0.3720;-0.7345;
1347.9000;0.3679;-0.7468;
1348.2000;0.3728;-0.7419;
1348.5000;0.3704;-0.7443;
1348.8000;0.3655;-0.7493;
1349.1000;0.3712;-0.7345;
1349.4000;0.3696;-0.7345;
1349.7000;0.3720;-0.7271;
1350.0000;0.3696;-0.7221;
1350.3000;0.3704;-0.7246;
1350.6000;0.3728;-0.7221;
1350.9000;0.3720;-0.7295;
1351.2000;0.3704;-0.7419;
1351.5000;0.3704;-0.7419;
1351.8000;0.3712;-0.7369;
1352.1000;0.3777;-0.7197;
1352.4000;0.3696;-0.7419;
1352.7000;0.3704;-0.7320;
1353.0000;0.3696;-0.7345;
1353.3000;0.3712;-0.7246;
1353.6000;0.3712;-0.7369;
1353.9000;0.3712;-0.7369;
1354.2000;0.3663;-0.7493;
1354.5000;0.3704;-0.7443;
1354.8000;0.3687;-0.7493;
1355.1000;0.3704;-0.7320;
1355.4000;0.3712;-0.7320;
1355.7000;0.3728;-0.7320;
1356.0000;0.3704;-0.7345;
1356.3000;0.3736;-0.7246;
1356.6000;0.3696;-0.7369;
1356.9000;0.3728;-0.7271;
1357.2000;0.3696;-0.7369;
1357.5000;0.3728;-0.7295;
1357.8000;0.3696;-0.7443;
1358.1000;0.3728;-0.7468;
1358.4000;0.3744;-0.7443;
1358.7000;0.3728;-0.7566;
1359.0000;0.3736;-0.7566;
1359.3000;0.3696;-0.7566;
1359.6000;0.3720;-0.7369;
1359.9000;0.3720;-0.7394;
1360.2000;0.3744;-0.7394;
1360.5000;0.3720;-0.7493;
1360.8000;0.3728;-0.7517;
1361.1000;0.3720;-0.7591;
1361.4000;0.3728;-0.7517;
1361.7000;0.3720;-0.7542;
1362.0000;0.3720;-0.7591;
1362.3000;0.3728;-0.7640;
1362.6000;0.3736;-0.7517;
1362.9000;0.3712;-0.7591;
1363.2000;0.3687;-0.7566;
1363.5000;0.3704;-0.7468;
1363.8000;0.3720;-0.7517;
1364.1000;0.3704;-0.7591;
1364.4000;0.3704;-0.7542;
1364.7000;0.3704;-0.7468;
1365.0000;0.3704;-0.7493;
1365.3000;0.3712;-0.7493;
1365.6000;0.3679;-0.7517;
1365.9000;0.3777;-0.7345;
1366.2000;0.3696;-0.7640;
1366.5000;0.3696;-0.7739;
1366.8000;0.3687;-0.7714;
1367.1000;0.3712;-0.7591;
1367.4000;0.3736;-0.7517;
1367.7000;0.3622;-0.7788;
1368.0000;0.3712;-0.7566;
1368.3000;0.3769;-0.7443;
1368.6000;0.3712;-0.7493;
1368.9000;0.3671;-0.7591;
1369.2000;0.3687;-0.7517;
1369.5000;0.3712;-0.7493;
1369.8000;0.3704;-0.7468;
1370.1000;0.3712;-0.7419;
1370.4000;0.3639;-0.7591;
1370.7000;0.3736;-0.7394;
1371.0000;0.3720;-0.7443;
1371.3000;0.3736;-0.7419;
1371.6000;0.3687;-0.7493;
1371.9000;0.3712;-0.7419;
1372.2000;0.3704;-0.7419;
1372.5000;0.3704;-0.7566;
1372.8000;0.3679;-0.7616;
1373.1000;0.3712;-0.7591;
1373.4000;0.3704;-0.7542;
1373.7000;0.3712;-0.7566;
1374.0000;0.3712;-0.7542;
1374.3000;0.3696;-0.7493;
1374.6000;0.3720;-0.7419;
1374.9000;0.3728;-0.7443;
1375.2000;0.3696;-0.7517;
1375.5000;0.3704;-0.7443;
1375.8000;0.3793;-0.7271;
1376.1000;0.3720;-0.7468;
1376.4000;0.3712;-0.7443;
1376.7000;0.3753;-0.7468;
1377.0000;0.3712;-0.7419;
1377.3000;0.3712;-0.7320;
1377.6000;0.3704;-0.7271;
1377.9000;0.3720;-0.7320;
1378.2000;0.3720;-0.7320;
1378.5000;0.3728;-0.7369;
1378.8000;0.3663;-0.7566;
1379.1000;0.3704;-0.7345;
1379.4000;0.3696;-0.7295;
1379.7000;0.3704;-0.7221;
1380.0000;0.3712;-0.7123;
1380.3000;0.3704;-0.7123;
1380.6000;0.3712;-0.7049;
1380.9000;0.3712;-0.7024;
1381.2000;0.3630;-0.7271;
1381.5000;0.3704;-0.7049;
1381.8000;0.3744;-0.6975;
1382.1000;0.3728;-0.7024;
1382.4000;0.3679;-0.7098;
1382.7000;0.3696;-0.7074;
1383.0000;0.3712;-0.7000;
1383.3000;0.3712;-0.7074;
1383.6000;0.3704;-0.7074;
1383.9000;0.3720;-0.7147;
1384.2000;0.3696;-0.7172;
1384.5000;0.3753;-0.7098;
1384.8000;0.3696;-0.7246;
1385.1000;0.3687;-0.7394;
1385.4000;0.3720;-0.7345;
1385.7000;0.3679;-0.7394;
1386.0000;0.3687;-0.7320;
1386.3000;0.3801;-0.7024;
1386.6000;0.3704;-0.7369;
1386.9000;0.3712;-0.7369;
1387.2000;0.3704;-0.7443;
1387.5000;0.3712;-0.7443;
1387.8000;0.3753;-0.7419;
1388.1000;0.3704;-0.7542;
1388.4000;0.3687;-0.7566;
1388.7000;0.3728;-0.7493;
1389.0000;0.3720;-0.7443;
1389.3000;0.3744;-0.7394;
1389.6000;0.3712;-0.7369;
1389.9000;0.3728;-0.7419;
1390.2000;0.3712;-0.7419;
1390.5000;0.3728;-0.7345;
1390.8000;0.3753;-0.7394;
1391.1000;0.3720;-0.7419;
1391.4000;0.3736;-0.7271;
1391.7000;0.3777;-0.7221;
1392.0000;0.3712;-0.7369;
1392.3000;0.3687;-0.7419;
1392.6000;0.3736;-0.7295;
1392.9000;0.3712;-0.7295;
1393.2000;0.3712;-0.7295;
1393.5000;0.3777;-0.7221;
1393.8000;0.3696;-0.7468;
1394.1000;0.3720;-0.7419;
1394.4000;0.3687;-0.7468;
1394.7000;0.3622;-0.7640;
1395.0000;0.3712;-0.7394;
1395.3000;0.3720;-0.7271;
1395.6000;0.3728;-0.7320;
1395.9000;0.3712;-0.7246;
1396.2000;0.3712;-0.7246;
1396.5000;0.3712;-0.7221;
1396.8000;0.3728;-0.7246;
1397.1000;0.3704;-0.7345;
1397.4000;0.3704;-0.7271;
1397.7000;0.3704;-0.7271;
1398.0000;0.3777;-0.7098;
1398.3000;0.3720;-0.7320;
1398.6000;0.3704;-0.7320;
1398.9000;0.3704;-0.7246;
1399.2000;0.3712;-0.7147;
1399.5000;0.3696;-0.7320;
1399.8000;0.3696;-0.7369;
