time/ms;Fluo/V;P700 deltaI/I x10³;
-199.8000;0.5071;-0.6581;
-199.5000;0.5088;-0.6556;
-199.2000;0.5096;-0.6408;
-198.9000;0.5079;-0.6408;
-198.6000;0.5079;-0.6334;
-198.3000;0.5071;-0.6285;
-198.0000;0.5088;-0.6162;
-197.7000;0.5088;-0.6137;
-197.4000;0.5055;-0.6211;
-197.1000;0.5071;-0.6088;
-196.8000;0.5079;-0.6137;
-196.5000;0.5088;-0.6211;
-196.2000;0.5112;-0.6236;
-195.9000;0.5096;-0.6309;
-195.6000;0.5096;-0.6309;
-195.3000;0.5088;-0.6137;
-195.0000;0.5096;-0.6112;
-194.7000;0.5063;-0.6211;
-194.4000;0.5079;-0.6236;
-194.1000;0.5096;-0.6137;
-193.8000;0.5096;-0.6211;
-193.5000;0.5120;-0.6211;
-193.2000;0.5088;-0.6309;
-192.9000;0.5079;-0.6334;
-192.6000;0.5144;-0.6112;
-192.3000;0.5071;-0.6285;
-192.0000;0.5136;-0.6285;
-191.7000;0.5088;-0.6457;
-191.4000;0.5063;-0.6433;
-191.1000;0.5096;-0.6260;
-190.8000;0.5096;-0.6260;
-190.5000;0.5096;-0.6186;
-190.2000;0.5096;-0.6112;
-189.9000;0.5071;-0.6186;
-189.6000;0.5071;-0.6236;
-189.3000;0.5144;-0.6137;
-189.0000;0.5104;-0.6260;
-188.7000;0.5096;-0.6285;
-188.4000;0.5096;-0.6260;
-188.1000;0.5071;-0.6334;
-187.8000;0.5096;-0.6334;
-187.5000;0.5079;-0.6383;
-187.2000;0.5079;-0.6309;
-186.9000;0.5071;-0.6408;
-186.6000;0.5079;-0.6482;
-186.3000;0.5088;-0.6482;
-186.0000;0.5063;-0.6482;
-185.7000;0.5014;-0.6605;
-185.4000;0.5071;-0.6507;
-185.1000;0.5088;-0.6482;
-184.8000;0.5079;-0.6507;
-184.5000;0.5128;-0.6285;
-184.2000;0.5063;-0.6334;
-183.9000;0.5088;-0.6260;
-183.6000;0.5071;-0.6309;
-183.3000;0.5055;-0.6457;
-183.0000;0.5153;-0.6162;
-182.7000;0.5096;-0.6260;
-182.4000;0.5088;-0.6260;
-182.1000;0.5047;-0.6359;
-181.8000;0.5185;-0.6038;
-181.5000;0.5104;-0.6334;
-181.2000;0.5047;-0.6531;
-180.9000;0.5079;-0.6482;
-180.6000;0.5079;-0.6457;
-180.3000;0.5079;-0.6408;
-180.0000;0.5104;-0.6309;
-179.7000;0.5096;-0.6285;
-179.4000;0.5079;-0.6309;
-179.1000;0.5096;-0.6186;
-178.8000;0.5071;-0.6162;
-178.5000;0.5088;-0.6236;
-178.2000;0.5031;-0.6383;
-177.9000;0.5088;-0.6211;
-177.6000;0.5096;-0.6088;
-177.3000;0.5063;-0.6162;
-177.0000;0.5104;-0.6112;
-176.7000;0.5071;-0.6088;
-176.4000;0.5071;-0.6112;
-176.1000;0.5079;-0.6137;
-175.8000;0.5071;-0.6260;
-175.5000;0.5071;-0.6285;
-175.2000;0.5096;-0.6285;
-174.9000;0.5071;-0.6383;
-174.6000;0.5071;-0.6334;
-174.3000;0.5063;-0.6359;
-174.0000;0.5120;-0.6260;
-173.7000;0.5079;-0.6408;
-173.4000;0.5096;-0.6457;
-173.1000;0.5104;-0.6482;
-172.8000;0.5088;-0.6408;
-172.5000;0.5071;-0.6482;
-172.2000;0.5047;-0.6457;
-171.9000;0.5071;-0.6285;
-171.6000;0.5079;-0.6236;
-171.3000;0.5096;-0.6236;
-171.0000;0.5071;-0.6309;
-170.7000;0.5079;-0.6309;
-170.4000;0.5079;-0.6383;
-170.1000;0.5079;-0.6285;
-169.8000;0.5079;-0.6309;
-169.5000;0.5071;-0.6383;
-169.2000;0.5079;-0.6408;
-168.9000;0.5096;-0.6334;
-168.6000;0.5071;-0.6457;
-168.3000;0.5079;-0.6309;
-168.0000;0.5088;-0.6236;
-167.7000;0.5079;-0.6236;
-167.4000;0.5079;-0.6260;
-167.1000;0.5079;-0.6285;
-166.8000;0.5071;-0.6334;
-166.5000;0.5055;-0.6334;
-166.2000;0.5079;-0.6359;
-165.9000;0.5071;-0.6285;
-165.6000;0.5055;-0.6236;
-165.3000;0.5063;-0.6211;
-165.0000;0.5079;-0.6260;
-164.7000;0.5079;-0.6359;
-164.4000;0.5079;-0.6408;
-164.1000;0.5071;-0.6408;
-163.8000;0.5071;-0.6408;
-163.5000;0.5047;-0.6359;
-163.2000;0.5063;-0.6285;
-162.9000;0.5063;-0.6334;
-162.6000;0.5104;-0.6186;
-162.3000;0.5079;-0.6186;
-162.0000;0.5071;-0.6211;
-161.7000;0.5071;-0.6285;
-161.4000;0.5088;-0.6260;
-161.1000;0.5128;-0.6038;
-160.8000;0.5088;-0.6112;
-160.5000;0.5096;-0.6014;
-160.2000;0.5047;-0.6063;
-159.9000;0.4974;-0.6260;
-159.6000;0.5039;-0.6162;
-159.3000;0.5096;-0.6112;
-159.0000;0.5014;-0.6211;
-158.7000;0.5144;-0.5890;
-158.4000;0.5104;-0.5989;
-158.1000;0.5079;-0.6088;
-157.8000;0.5079;-0.6112;
-157.5000;0.5193;-0.5890;
-157.2000;0.5096;-0.6162;
-156.9000;0.5055;-0.6285;
-156.6000;0.5039;-0.6359;
-156.3000;0.5079;-0.6260;
-156.0000;0.5071;-0.6211;
-155.7000;0.5088;-0.6162;
-155.4000;0.5063;-0.6162;
-155.1000;0.5079;-0.6186;
-154.8000;0.5096;-0.6260;
-154.5000;0.5128;-0.6211;
-154.2000;0.5079;-0.6359;
-153.9000;0.5088;-0.6433;
-153.6000;0.5088;-0.6433;
-153.3000;0.5104;-0.6383;
-153.0000;0.5071;-0.6457;
-152.7000;0.5088;-0.6383;
-152.4000;0.5055;-0.6334;
-152.1000;0.5079;-0.6162;
-151.8000;0.5071;-0.6112;
-151.5000;0.5055;-0.6211;
-151.2000;0.5112;-0.6112;
-150.9000;0.5088;-0.6162;
-150.6000;0.5055;-0.6260;
-150.3000;0.5071;-0.6309;
-150.0000;0.5079;-0.6186;
-149.7000;0.5088;-0.6162;
-149.4000;0.5079;-0.6186;
-149.1000;0.5063;-0.6236;
-148.8000;0.5096;-0.6260;
-148.5000;0.5088;-0.6236;
-148.2000;0.5096;-0.6211;
-147.9000;0.5088;-0.6260;
-147.6000;0.5079;-0.6309;
-147.3000;0.5096;-0.6211;
-147.0000;0.5071;-0.6309;
-146.7000;0.5096;-0.6309;
-146.4000;0.5063;-0.6433;
-146.1000;0.5071;-0.6309;
-145.8000;0.5071;-0.6186;
-145.5000;0.5071;-0.6137;
-145.2000;0.5063;-0.6112;
-144.9000;0.5063;-0.6014;
-144.6000;0.5063;-0.6014;
-144.3000;0.5079;-0.5964;
-144.0000;0.5088;-0.5940;
-143.7000;0.5063;-0.5940;
-143.4000;0.5063;-0.5940;
-143.1000;0.5079;-0.5890;
-142.8000;0.5079;-0.5940;
-142.5000;0.5071;-0.5964;
-142.2000;0.5079;-0.5915;
-141.9000;0.5088;-0.6014;
-141.6000;0.5088;-0.6236;
-141.3000;0.5079;-0.6309;
-141.0000;0.5063;-0.6285;
-140.7000;0.5088;-0.6260;
-140.4000;0.5144;-0.6063;
-140.1000;0.5063;-0.6211;
-139.8000;0.5063;-0.6186;
-139.5000;0.5071;-0.6137;
-139.2000;0.5063;-0.6211;
-138.9000;0.5071;-0.6211;
-138.6000;0.5088;-0.6236;
-138.3000;0.5079;-0.6285;
-138.0000;0.5055;-0.6309;
-137.7000;0.5063;-0.6334;
-137.4000;0.5079;-0.6359;
-137.1000;0.4917;-0.6679;
-136.8000;0.5096;-0.6137;
-136.5000;0.5104;-0.6063;
-136.2000;0.5193;-0.5743;
-135.9000;0.5055;-0.6063;
-135.6000;0.5088;-0.5964;
-135.3000;0.5088;-0.6014;
-135.0000;0.5079;-0.6063;
-134.7000;0.5079;-0.6063;
-134.4000;0.5088;-0.6063;
-134.1000;0.5088;-0.6112;
-133.8000;0.5088;-0.6063;
-133.5000;0.5112;-0.6038;
-133.2000;0.5104;-0.6137;
-132.9000;0.5112;-0.6137;
-132.6000;0.5088;-0.6260;
-132.3000;0.5079;-0.6162;
-132.0000;0.5079;-0.6088;
-131.7000;0.5079;-0.6112;
-131.4000;0.5071;-0.6112;
-131.1000;0.5071;-0.6088;
-130.8000;0.5071;-0.6038;
-130.5000;0.5079;-0.6063;
-130.2000;0.5104;-0.5989;
-129.9000;0.5063;-0.6162;
-129.6000;0.5104;-0.6088;
-129.3000;0.5055;-0.6112;
-129.0000;0.5071;-0.6162;
-128.7000;0.5088;-0.6137;
-128.4000;0.5063;-0.6137;
-128.1000;0.5079;-0.6088;
-127.8000;0.5096;-0.6014;
-127.5000;0.5063;-0.6112;
-127.2000;0.5088;-0.6038;
-126.9000;0.5096;-0.6038;
-126.6000;0.5096;-0.6162;
-126.3000;0.5079;-0.6137;
-126.0000;0.5079;-0.6088;
-125.7000;0.5088;-0.6063;
-125.4000;0.5079;-0.6088;
-125.1000;0.5088;-0.6137;
-124.8000;0.5096;-0.6186;
-124.5000;0.5079;-0.6211;
-124.2000;0.5088;-0.6186;
-123.9000;0.5088;-0.6236;
-123.6000;0.5071;-0.6211;
-123.3000;0.5079;-0.6162;
-123.0000;0.5071;-0.6137;
-122.7000;0.5096;-0.6038;
-122.4000;0.5063;-0.6063;
-122.1000;0.5088;-0.6063;
-121.8000;0.5088;-0.6112;
-121.5000;0.5079;-0.6162;
-121.2000;0.5039;-0.6236;
-120.9000;0.5071;-0.6211;
-120.6000;0.5112;-0.6137;
-120.3000;0.5088;-0.6186;
-120.0000;0.5079;-0.6186;
-119.7000;0.5088;-0.6211;
-119.4000;0.5039;-0.6211;
-119.1000;0.5079;-0.6186;
-118.8000;0.5120;-0.6112;
-118.5000;0.5071;-0.6334;
-118.2000;0.5088;-0.6285;
-117.9000;0.5079;-0.6162;
-117.6000;0.5079;-0.6063;
-117.3000;0.5104;-0.6014;
-117.0000;0.5071;-0.6038;
-116.7000;0.5096;-0.6014;
-116.4000;0.5071;-0.6088;
-116.1000;0.5071;-0.6137;
-115.8000;0.5079;-0.6137;
-115.5000;0.5096;-0.6137;
-115.2000;0.5088;-0.6162;
-114.9000;0.5088;-0.6186;
-114.6000;0.5079;-0.6211;
-114.3000;0.5079;-0.6186;
-114.0000;0.5055;-0.6162;
-113.7000;0.5079;-0.6137;
-113.4000;0.5022;-0.6359;
-113.1000;0.5088;-0.6137;
-112.8000;0.5079;-0.6137;
-112.5000;0.5096;-0.6186;
-112.2000;0.5088;-0.6186;
-111.9000;0.5071;-0.6285;
-111.6000;0.5039;-0.6359;
-111.3000;0.5071;-0.6309;
-111.0000;0.5088;-0.6285;
-110.7000;0.5088;-0.6285;
-110.4000;0.5079;-0.6236;
-110.1000;0.5071;-0.6334;
-109.8000;0.5096;-0.6309;
-109.5000;0.5047;-0.6334;
-109.2000;0.5079;-0.6236;
-108.9000;0.5120;-0.6186;
-108.6000;0.5063;-0.6309;
-108.3000;0.5063;-0.6285;
-108.0000;0.5071;-0.6260;
-107.7000;0.5063;-0.6211;
-107.4000;0.5104;-0.6162;
-107.1000;0.5079;-0.6236;
-106.8000;0.5071;-0.6408;
-106.5000;0.5088;-0.6309;
-106.2000;0.5047;-0.6408;
-105.9000;0.5063;-0.6433;
-105.6000;0.5047;-0.6408;
-105.3000;0.5047;-0.6359;
-105.0000;0.5063;-0.6260;
-104.7000;0.5063;-0.6236;
-104.4000;0.5047;-0.6359;
-104.1000;0.5055;-0.6383;
-103.8000;0.5112;-0.6137;
-103.5000;0.5063;-0.6260;
-103.2000;0.5063;-0.6211;
-102.9000;0.5071;-0.6137;
-102.6000;0.5088;-0.6137;
-102.3000;0.5088;-0.6038;
-102.0000;0.5079;-0.6088;
-101.7000;0.5071;-0.6186;
-101.4000;0.5088;-0.6186;
-101.1000;0.5063;-0.6260;
-100.8000;0.5096;-0.6309;
-100.5000;0.5079;-0.6309;
-100.2000;0.5088;-0.6285;
-99.9000;0.5031;-0.6433;
-99.6000;0.5079;-0.6260;
-99.3000;0.5071;-0.6211;
-99.0000;0.5071;-0.6162;
-98.7000;0.5112;-0.6162;
-98.4000;0.5088;-0.6162;
-98.1000;0.5063;-0.6112;
-97.8000;0.5071;-0.6137;
-97.5000;0.5079;-0.6014;
-97.2000;0.5104;-0.5940;
-96.9000;0.5088;-0.6038;
-96.6000;0.5088;-0.6088;
-96.3000;0.5096;-0.6162;
-96.0000;0.5096;-0.6211;
-95.7000;0.5063;-0.6309;
-95.4000;0.5079;-0.6260;
-95.1000;0.5071;-0.6334;
-94.8000;0.5071;-0.6433;
-94.5000;0.5071;-0.6408;
-94.2000;0.5071;-0.6457;
-93.9000;0.5088;-0.6433;
-93.6000;0.5088;-0.6408;
-93.3000;0.5088;-0.6433;
-93.0000;0.5063;-0.6482;
-92.7000;0.5088;-0.6433;
-92.4000;0.5063;-0.6383;
-92.1000;0.5079;-0.6236;
-91.8000;0.5088;-0.6260;
-91.5000;0.5063;-0.6236;
-91.2000;0.5079;-0.6137;
-90.9000;0.5096;-0.6137;
-90.6000;0.5079;-0.6186;
-90.3000;0.5071;-0.6236;
-90.0000;0.5071;-0.6211;
-89.7000;0.5079;-0.6236;
-89.4000;0.5071;-0.6162;
-89.1000;0.5079;-0.6063;
-88.8000;0.5071;-0.6088;
-88.5000;0.5112;-0.6088;
-88.2000;0.5079;-0.6186;
-87.9000;0.5063;-0.6137;
-87.6000;0.5088;-0.6112;
-87.3000;0.5120;-0.6038;
-87.0000;0.5088;-0.6186;
-86.7000;0.5022;-0.6408;
-86.4000;0.5055;-0.6309;
-86.1000;0.5112;-0.6236;
-85.8000;0.5079;-0.6236;
-85.5000;0.5079;-0.6309;
-85.2000;0.5079;-0.6383;
-84.9000;0.5055;-0.6383;
-84.6000;0.5088;-0.6408;
-84.3000;0.5104;-0.6334;
-84.0000;0.5047;-0.6383;
-83.7000;0.5071;-0.6260;
-83.4000;0.5063;-0.6285;
-83.1000;0.5088;-0.6236;
-82.8000;0.5071;-0.6309;
-82.5000;0.5063;-0.6309;
-82.2000;0.5079;-0.6309;
-81.9000;0.5096;-0.6285;
-81.6000;0.5071;-0.6334;
-81.3000;0.5047;-0.6359;
-81.0000;0.5055;-0.6334;
-80.7000;0.5071;-0.6285;
-80.4000;0.5039;-0.6383;
-80.1000;0.5071;-0.6260;
-79.8000;0.5079;-0.6309;
-79.5000;0.5063;-0.6285;
-79.2000;0.5047;-0.6236;
-78.9000;0.5096;-0.6038;
-78.6000;0.5104;-0.6014;
-78.3000;0.5079;-0.5964;
-78.0000;0.5128;-0.5890;
-77.7000;0.5079;-0.6063;
-77.4000;0.5088;-0.6137;
-77.1000;0.5079;-0.6211;
-76.8000;0.5104;-0.6211;
-76.5000;0.5088;-0.6186;
-76.2000;0.5063;-0.6112;
-75.9000;0.5096;-0.6088;
-75.6000;0.5088;-0.6162;
-75.3000;0.5071;-0.6186;
-75.0000;0.5071;-0.6137;
-74.7000;0.5055;-0.6162;
-74.4000;0.5063;-0.6137;
-74.1000;0.5063;-0.6186;
-73.8000;0.5055;-0.6137;
-73.5000;0.5071;-0.6038;
-73.2000;0.5079;-0.6063;
-72.9000;0.5071;-0.6063;
-72.6000;0.5079;-0.6038;
-72.3000;0.5071;-0.6063;
-72.0000;0.5079;-0.5989;
-71.7000;0.5096;-0.5964;
-71.4000;0.5088;-0.5989;
-71.1000;0.5063;-0.6038;
-70.8000;0.5088;-0.5890;
-70.5000;0.5071;-0.5915;
-70.2000;0.5055;-0.6038;
-69.9000;0.5071;-0.6038;
-69.6000;0.5063;-0.6112;
-69.3000;0.5088;-0.6063;
-69.0000;0.5079;-0.6088;
-68.7000;0.5071;-0.6063;
-68.4000;0.5014;-0.6211;
-68.1000;0.5071;-0.6038;
-67.8000;0.5096;-0.6014;
-67.5000;0.5063;-0.6137;
-67.2000;0.5047;-0.6334;
-66.9000;0.5088;-0.6285;
-66.6000;0.5079;-0.6285;
-66.3000;0.5088;-0.6285;
-66.0000;0.5071;-0.6285;
-65.7000;0.5055;-0.6285;
-65.4000;0.5055;-0.6236;
-65.1000;0.5071;-0.6260;
-64.8000;0.5088;-0.6186;
-64.5000;0.5071;-0.6137;
-64.2000;0.5088;-0.6063;
-63.9000;0.5104;-0.5915;
-63.6000;0.5071;-0.5964;
-63.3000;0.5055;-0.6112;
-63.0000;0.5063;-0.6063;
-62.7000;0.5014;-0.6162;
-62.4000;0.5071;-0.6063;
-62.1000;0.5071;-0.6137;
-61.8000;0.5071;-0.6112;
-61.5000;0.5088;-0.6088;
-61.2000;0.5079;-0.6162;
-60.9000;0.5063;-0.6285;
-60.6000;0.5055;-0.6334;
-60.3000;0.5088;-0.6334;
-60.0000;0.5006;-0.6556;
-59.7000;0.5096;-0.6309;
-59.4000;0.5071;-0.6383;
-59.1000;0.5071;-0.6309;
-58.8000;0.5096;-0.6334;
-58.5000;0.5096;-0.6260;
-58.2000;0.5071;-0.6137;
-57.9000;0.4998;-0.6260;
-57.6000;0.5088;-0.6038;
-57.3000;0.5047;-0.6063;
-57.0000;0.5071;-0.6014;
-56.7000;0.5063;-0.6063;
-56.4000;0.5088;-0.6014;
-56.1000;0.5088;-0.6014;
-55.8000;0.5079;-0.6088;
-55.5000;0.5088;-0.6088;
-55.2000;0.5079;-0.6112;
-54.9000;0.5031;-0.6309;
-54.6000;0.5079;-0.6137;
-54.3000;0.5079;-0.6063;
-54.0000;0.5071;-0.6038;
-53.7000;0.5104;-0.5989;
-53.4000;0.5079;-0.6038;
-53.1000;0.5022;-0.6236;
-52.8000;0.5079;-0.6137;
-52.5000;0.5096;-0.6112;
-52.2000;0.5071;-0.6137;
-51.9000;0.5055;-0.6137;
-51.6000;0.5088;-0.6186;
-51.3000;0.5088;-0.6162;
-51.0000;0.5079;-0.6162;
-50.7000;0.5079;-0.6088;
-50.4000;0.5071;-0.6063;
-50.1000;0.5088;-0.6063;
-49.8000;0.5071;-0.6112;
-49.5000;0.5088;-0.6112;
-49.2000;0.5096;-0.6162;
-48.9000;0.5055;-0.6260;
-48.6000;0.5161;-0.5989;
-48.3000;0.5071;-0.6112;
-48.0000;0.5104;-0.6014;
-47.7000;0.5088;-0.6014;
-47.4000;0.5071;-0.6014;
-47.1000;0.5144;-0.5866;
-46.8000;0.5071;-0.6014;
-46.5000;0.4998;-0.6137;
-46.2000;0.5055;-0.6112;
-45.9000;0.5153;-0.5841;
-45.6000;0.5022;-0.6211;
-45.3000;0.5096;-0.6236;
-45.0000;0.5120;-0.6137;
-44.7000;0.5104;-0.6211;
-44.4000;0.5088;-0.6260;
-44.1000;0.5120;-0.6112;
-43.8000;0.5079;-0.6211;
-43.5000;0.5071;-0.6211;
-43.2000;0.5088;-0.6260;
-42.9000;0.5088;-0.6285;
-42.6000;0.5096;-0.6137;
-42.3000;0.5079;-0.6162;
-42.0000;0.5055;-0.6137;
-41.7000;0.5079;-0.6063;
-41.4000;0.5079;-0.6137;
-41.1000;0.5071;-0.6162;
-40.8000;0.5079;-0.6162;
-40.5000;0.5096;-0.6186;
-40.2000;0.5071;-0.6211;
-39.9000;0.5079;-0.6186;
-39.6000;0.5079;-0.6186;
-39.3000;0.5088;-0.6186;
-39.0000;0.5104;-0.6088;
-38.7000;0.5079;-0.6186;
-38.4000;0.5096;-0.6112;
-38.1000;0.5063;-0.6088;
-37.8000;0.5079;-0.6088;
-37.5000;0.5088;-0.6088;
-37.2000;0.5071;-0.6038;
-36.9000;0.5088;-0.6038;
-36.6000;0.5088;-0.6112;
-36.3000;0.5096;-0.6137;
-36.0000;0.5096;-0.6088;
-35.7000;0.5088;-0.6112;
-35.4000;0.5071;-0.6186;
-35.1000;0.5096;-0.6186;
-34.8000;0.5047;-0.6186;
-34.5000;0.5104;-0.6112;
-34.2000;0.5063;-0.6285;
-33.9000;0.5063;-0.6309;
-33.6000;0.5079;-0.6359;
-33.3000;0.5096;-0.6334;
-33.0000;0.5071;-0.6433;
-32.7000;0.5088;-0.6433;
-32.4000;0.5088;-0.6408;
-32.1000;0.5039;-0.6482;
-31.8000;0.5079;-0.6309;
-31.5000;0.5088;-0.6285;
-31.2000;0.5104;-0.6137;
-30.9000;0.5096;-0.6137;
-30.6000;0.5079;-0.6285;
-30.3000;0.5144;-0.6309;
-30.0000;0.5096;-0.6408;
-29.7000;0.5088;-0.6408;
-29.4000;0.5079;-0.6457;
-29.1000;0.5031;-0.6605;
-28.8000;0.5104;-0.6359;
-28.5000;0.5055;-0.6383;
-28.2000;0.4998;-0.6457;
-27.9000;0.5071;-0.6408;
-27.6000;0.5063;-0.6482;
-27.3000;0.5177;-0.6260;
-27.0000;0.5063;-0.6457;
-26.7000;0.5071;-0.6408;
-26.4000;0.5120;-0.6285;
-26.1000;0.5063;-0.6309;
-25.8000;0.5104;-0.6186;
-25.5000;0.5079;-0.6260;
-25.2000;0.5079;-0.6285;
-24.9000;0.5096;-0.6334;
-24.6000;0.5096;-0.6260;
-24.3000;0.5063;-0.6334;
-24.0000;0.5112;-0.6211;
-23.7000;0.5063;-0.6260;
-23.4000;0.5063;-0.6236;
-23.1000;0.5079;-0.6186;
-22.8000;0.5079;-0.6236;
-22.5000;0.5096;-0.6211;
-22.2000;0.5104;-0.6236;
-21.9000;0.5079;-0.6309;
-21.6000;0.5079;-0.6285;
-21.3000;0.5096;-0.6186;
-21.0000;0.5088;-0.6186;
-20.7000;0.5096;-0.6112;
-20.4000;0.5096;-0.6137;
-20.1000;0.5079;-0.6236;
-19.8000;0.5079;-0.6236;
-19.5000;0.5079;-0.6162;
-19.2000;0.5079;-0.6112;
-18.9000;0.5071;-0.6137;
-18.6000;0.5079;-0.6137;
-18.3000;0.5120;-0.6088;
-18.0000;0.5079;-0.6162;
-17.7000;0.5079;-0.6186;
-17.4000;0.5088;-0.6186;
-17.1000;0.5096;-0.6014;
-16.8000;0.5047;-0.6186;
-16.5000;0.5071;-0.6137;
-16.2000;0.5088;-0.6112;
-15.9000;0.5096;-0.6137;
-15.6000;0.5096;-0.6112;
-15.3000;0.5039;-0.6211;
-15.0000;0.5047;-0.6186;
-14.7000;0.5063;-0.6014;
-14.4000;0.5079;-0.6014;
-14.1000;0.5063;-0.6088;
-13.8000;0.5071;-0.6162;
-13.5000;0.5071;-0.6137;
-13.2000;0.5071;-0.6137;
-12.9000;0.5088;-0.6014;
-12.6000;0.5079;-0.6014;
-12.3000;0.5071;-0.6137;
-12.0000;0.5079;-0.6162;
-11.7000;0.5071;-0.6162;
-11.4000;0.5031;-0.6211;
-11.1000;0.5079;-0.6162;
-10.8000;0.5079;-0.6186;
-10.5000;0.5128;-0.5989;
-10.2000;0.5063;-0.6088;
-9.9000;0.5096;-0.6014;
-9.6000;0.5063;-0.6088;
-9.3000;0.5112;-0.5964;
-9.0000;0.5071;-0.6063;
-8.7000;0.5063;-0.6112;
-8.4000;0.5079;-0.6112;
-8.1000;0.5071;-0.6063;
-7.8000;0.5071;-0.6063;
-7.5000;0.5055;-0.6137;
-7.2000;0.5079;-0.6088;
-6.9000;0.5071;-0.6236;
-6.6000;0.5096;-0.6285;
-6.3000;0.5120;-0.6211;
-6.0000;0.5096;-0.6112;
-5.7000;0.5096;-0.6038;
-5.4000;0.5096;-0.5964;
-5.1000;0.5079;-0.6014;
-4.8000;0.5096;-0.5940;
-4.5000;0.5079;-0.6038;
-4.2000;0.5039;-0.6162;
-3.9000;0.5088;-0.6063;
-3.6000;0.5088;-0.6186;
-3.3000;0.5079;-0.6359;
-3.0000;0.5104;-0.6334;
-2.7000;0.5153;-0.6211;
-2.4000;0.5112;-0.6408;
-2.1000;0.5088;-0.6581;
-1.8000;0.5079;-0.6556;
-1.5000;0.5079;-0.6581;
-1.2000;0.5088;-0.6581;
-0.9000;0.5031;-0.6753;
-0.6000;0.5088;-0.6433;
-0.3000;0.5079;-0.6433;
0.0000;0.5079;-0.6433;
0.3000;0.5201;-0.6285;
0.6000;0.5413;-0.6014;
0.9000;0.5600;-0.5619;
1.2000;0.5755;-0.5274;
1.5000;0.5877;-0.5102;
1.8000;0.5967;-0.4831;
2.1000;0.6064;-0.4510;
2.4000;0.6113;-0.4362;
2.7000;0.6146;-0.4215;
3.0000;0.6203;-0.4091;
3.3000;0.6227;-0.3968;
3.6000;0.6243;-0.3894;
3.9000;0.6300;-0.3697;
4.2000;0.6317;-0.3574;
4.5000;0.6300;-0.3549;
4.8000;0.6365;-0.3352;
5.1000;0.6414;-0.3204;
5.4000;0.6422;-0.3179;
5.7000;0.6422;-0.3179;
6.0000;0.6447;-0.3105;
6.3000;0.6447;-0.3155;
6.6000;0.6463;-0.3105;
6.9000;0.6488;-0.3081;
7.2000;0.6496;-0.3007;
7.5000;0.6504;-0.3105;
7.8000;0.6455;-0.3155;
8.1000;0.6520;-0.3007;
8.4000;0.6545;-0.3007;
8.7000;0.6528;-0.3032;
9.0000;0.6561;-0.2933;
9.3000;0.6553;-0.2933;
9.6000;0.6553;-0.3007;
9.9000;0.6602;-0.2958;
10.2000;0.6610;-0.3056;
10.5000;0.6610;-0.3155;
10.8000;0.6650;-0.3056;
11.1000;0.6634;-0.3056;
11.4000;0.6634;-0.3105;
11.7000;0.6716;-0.3032;
12.0000;0.6642;-0.3253;
12.3000;0.6650;-0.3204;
12.6000;0.6659;-0.3130;
12.9000;0.6667;-0.3229;
13.2000;0.6650;-0.3401;
13.5000;0.6707;-0.3204;
13.8000;0.6716;-0.3105;
14.1000;0.6691;-0.3253;
14.4000;0.6732;-0.3105;
14.7000;0.6764;-0.3032;
15.0000;0.6740;-0.3130;
15.3000;0.6772;-0.3081;
15.6000;0.6756;-0.3179;
15.9000;0.6789;-0.3081;
16.2000;0.6789;-0.3056;
16.5000;0.6797;-0.3155;
16.8000;0.6764;-0.3278;
17.1000;0.6772;-0.3278;
17.4000;0.6838;-0.3229;
17.7000;0.6797;-0.3352;
18.0000;0.6781;-0.3401;
18.3000;0.6756;-0.3426;
18.6000;0.6805;-0.3278;
18.9000;0.6805;-0.3327;
19.2000;0.6797;-0.3377;
19.5000;0.6821;-0.3303;
19.8000;0.6886;-0.3130;
20.1000;0.6781;-0.3327;
20.4000;0.6797;-0.3229;
20.7000;0.6805;-0.3253;
21.0000;0.6829;-0.3204;
21.3000;0.6821;-0.3253;
21.6000;0.6821;-0.3179;
21.9000;0.6846;-0.3105;
22.2000;0.6829;-0.3130;
22.5000;0.6854;-0.3056;
22.8000;0.6862;-0.3007;
23.1000;0.6821;-0.3179;
23.4000;0.6854;-0.3081;
23.7000;0.6870;-0.3105;
24.0000;0.6886;-0.3130;
24.3000;0.6911;-0.3081;
24.6000;0.6870;-0.3130;
24.9000;0.6919;-0.2982;
25.2000;0.6895;-0.3007;
25.5000;0.6935;-0.2982;
25.8000;0.6903;-0.3056;
26.1000;0.6903;-0.3081;
26.4000;0.6927;-0.3056;
26.7000;0.6903;-0.3105;
27.0000;0.6911;-0.3081;
27.3000;0.6903;-0.3105;
27.6000;0.6911;-0.3081;
27.9000;0.6919;-0.2958;
28.2000;0.6895;-0.2958;
28.5000;0.6886;-0.3105;
28.8000;0.6903;-0.3081;
29.1000;0.6919;-0.3105;
29.4000;0.6952;-0.3081;
29.7000;0.6911;-0.3155;
30.0000;0.6919;-0.3130;
30.3000;0.6943;-0.3032;
30.6000;0.6895;-0.3105;
30.9000;0.6952;-0.3056;
31.2000;0.6943;-0.3179;
31.5000;0.6992;-0.3105;
31.8000;0.6992;-0.3105;
32.1000;0.6927;-0.3204;
32.4000;0.6943;-0.3179;
32.7000;0.6935;-0.3204;
33.0000;0.6952;-0.3253;
33.3000;0.6935;-0.3303;
33.6000;0.6903;-0.3426;
33.9000;0.6960;-0.3278;
34.2000;0.6960;-0.3229;
34.5000;0.6960;-0.3155;
34.8000;0.6952;-0.3130;
35.1000;0.7009;-0.3032;
35.4000;0.6952;-0.3179;
35.7000;0.6968;-0.3179;
36.0000;0.6976;-0.3253;
36.3000;0.6984;-0.3204;
36.6000;0.6968;-0.3253;
36.9000;0.6992;-0.3204;
37.2000;0.7009;-0.3179;
37.5000;0.6992;-0.3229;
37.8000;0.6992;-0.3204;
38.1000;0.6984;-0.3253;
38.4000;0.6984;-0.3303;
38.7000;0.6984;-0.3278;
39.0000;0.6984;-0.3229;
39.3000;0.7017;-0.3179;
39.6000;0.6992;-0.3229;
39.9000;0.6992;-0.3253;
40.2000;0.7009;-0.3229;
40.5000;0.7009;-0.3229;
40.8000;0.7017;-0.3229;
41.1000;0.7000;-0.3303;
41.4000;0.7025;-0.3229;
41.7000;0.7017;-0.3229;
42.0000;0.6911;-0.3524;
42.3000;0.7025;-0.3229;
42.6000;0.7009;-0.3377;
42.9000;0.7000;-0.3401;
43.2000;0.7025;-0.3278;
43.5000;0.7017;-0.3303;
43.8000;0.7017;-0.3475;
44.1000;0.7025;-0.3475;
44.4000;0.7009;-0.3451;
44.7000;0.7041;-0.3426;
45.0000;0.7009;-0.3500;
45.3000;0.7025;-0.3524;
45.6000;0.6968;-0.3648;
45.9000;0.7017;-0.3648;
46.2000;0.7033;-0.3672;
46.5000;0.7009;-0.3820;
46.8000;0.7017;-0.3771;
47.1000;0.7041;-0.3746;
47.4000;0.7033;-0.3722;
47.7000;0.6968;-0.3845;
48.0000;0.7106;-0.3426;
48.3000;0.7033;-0.3598;
48.6000;0.7041;-0.3598;
48.9000;0.7057;-0.3598;
49.2000;0.7057;-0.3574;
49.5000;0.7082;-0.3549;
49.8000;0.6960;-0.3796;
50.1000;0.7066;-0.3549;
50.4000;0.7074;-0.3574;
50.7000;0.7017;-0.3648;
51.0000;0.7147;-0.3352;
51.3000;0.7066;-0.3623;
51.6000;0.7025;-0.3771;
51.9000;0.7066;-0.3672;
52.2000;0.7057;-0.3697;
52.5000;0.7033;-0.3722;
52.8000;0.7057;-0.3623;
53.1000;0.7057;-0.3598;
53.4000;0.7082;-0.3475;
53.7000;0.7057;-0.3623;
54.0000;0.7057;-0.3697;
54.3000;0.7033;-0.3796;
54.6000;0.7057;-0.3820;
54.9000;0.7057;-0.3869;
55.2000;0.7090;-0.3771;
55.5000;0.7066;-0.3746;
55.8000;0.7057;-0.3771;
56.1000;0.7098;-0.3697;
56.4000;0.7074;-0.3746;
56.7000;0.7082;-0.3796;
57.0000;0.7066;-0.3845;
57.3000;0.7147;-0.3623;
57.6000;0.7082;-0.3722;
57.9000;0.7074;-0.3722;
58.2000;0.7098;-0.3549;
58.5000;0.7098;-0.3574;
58.8000;0.7074;-0.3574;
59.1000;0.7090;-0.3598;
59.4000;0.7090;-0.3574;
59.7000;0.7106;-0.3598;
60.0000;0.7090;-0.3598;
60.3000;0.7090;-0.3623;
60.6000;0.7098;-0.3524;
60.9000;0.7098;-0.3598;
61.2000;0.7114;-0.3623;
61.5000;0.7114;-0.3475;
61.8000;0.7090;-0.3574;
62.1000;0.7123;-0.3574;
62.4000;0.7106;-0.3672;
62.7000;0.7098;-0.3672;
63.0000;0.7106;-0.3672;
63.3000;0.7123;-0.3574;
63.6000;0.7082;-0.3771;
63.9000;0.7098;-0.3820;
64.2000;0.7098;-0.3845;
64.5000;0.7098;-0.3894;
64.8000;0.7106;-0.3820;
65.1000;0.7114;-0.3697;
65.4000;0.7098;-0.3623;
65.7000;0.7074;-0.3697;
66.0000;0.7139;-0.3549;
66.3000;0.7106;-0.3623;
66.6000;0.7090;-0.3722;
66.9000;0.7041;-0.3894;
67.2000;0.7147;-0.3574;
67.5000;0.7114;-0.3697;
67.8000;0.7106;-0.3623;
68.1000;0.7106;-0.3672;
68.4000;0.7131;-0.3524;
68.7000;0.7106;-0.3549;
69.0000;0.7106;-0.3549;
69.3000;0.7114;-0.3549;
69.6000;0.7123;-0.3524;
69.9000;0.7082;-0.3746;
70.2000;0.7106;-0.3771;
70.5000;0.7179;-0.3623;
70.8000;0.7147;-0.3771;
71.1000;0.7131;-0.3894;
71.4000;0.7131;-0.3919;
71.7000;0.7123;-0.3993;
72.0000;0.7171;-0.3796;
72.3000;0.7139;-0.3796;
72.6000;0.7131;-0.3771;
72.9000;0.7131;-0.3697;
73.2000;0.7114;-0.3796;
73.5000;0.7139;-0.3697;
73.8000;0.7131;-0.3697;
74.1000;0.7123;-0.3796;
74.4000;0.7131;-0.3771;
74.7000;0.7171;-0.3672;
75.0000;0.7139;-0.3796;
75.3000;0.7123;-0.3869;
75.6000;0.7131;-0.3796;
75.9000;0.7114;-0.3746;
76.2000;0.7163;-0.3574;
76.5000;0.7228;-0.3426;
76.8000;0.7139;-0.3549;
77.1000;0.7131;-0.3524;
77.4000;0.7155;-0.3451;
77.7000;0.7179;-0.3426;
78.0000;0.7155;-0.3475;
78.3000;0.7131;-0.3648;
78.6000;0.7155;-0.3648;
78.9000;0.7155;-0.3598;
79.2000;0.7147;-0.3623;
79.5000;0.7155;-0.3524;
79.8000;0.7155;-0.3598;
80.1000;0.7147;-0.3722;
80.4000;0.7155;-0.3697;
80.7000;0.7147;-0.3722;
81.0000;0.7139;-0.3697;
81.3000;0.7147;-0.3672;
81.6000;0.7155;-0.3648;
81.9000;0.7163;-0.3672;
82.2000;0.7155;-0.3722;
82.5000;0.7179;-0.3672;
82.8000;0.7171;-0.3722;
83.1000;0.7155;-0.3796;
83.4000;0.7155;-0.3771;
83.7000;0.7155;-0.3771;
84.0000;0.7163;-0.3746;
84.3000;0.7163;-0.3771;
84.6000;0.7171;-0.3820;
84.9000;0.7155;-0.3796;
85.2000;0.7179;-0.3672;
85.5000;0.7155;-0.3623;
85.8000;0.7131;-0.3648;
86.1000;0.7163;-0.3574;
86.4000;0.7163;-0.3598;
86.7000;0.7171;-0.3574;
87.0000;0.7188;-0.3500;
87.3000;0.7212;-0.3401;
87.6000;0.7179;-0.3475;
87.9000;0.7147;-0.3549;
88.2000;0.7171;-0.3598;
88.5000;0.7171;-0.3672;
88.8000;0.7188;-0.3672;
89.1000;0.7171;-0.3697;
89.4000;0.7155;-0.3746;
89.7000;0.7269;-0.3549;
90.0000;0.7179;-0.3722;
90.3000;0.7188;-0.3771;
90.6000;0.7155;-0.3820;
90.9000;0.7179;-0.3820;
91.2000;0.7163;-0.3894;
91.5000;0.7179;-0.3820;
91.8000;0.7171;-0.3746;
92.1000;0.7188;-0.3722;
92.4000;0.7179;-0.3722;
92.7000;0.7155;-0.3796;
93.0000;0.7220;-0.3672;
93.3000;0.7179;-0.3672;
93.6000;0.7163;-0.3722;
93.9000;0.7179;-0.3697;
94.2000;0.7179;-0.3722;
94.5000;0.7245;-0.3574;
94.8000;0.7204;-0.3672;
95.1000;0.7171;-0.3672;
95.4000;0.7171;-0.3697;
95.7000;0.7204;-0.3623;
96.0000;0.7179;-0.3722;
96.3000;0.7179;-0.3746;
96.6000;0.7171;-0.3820;
96.9000;0.7212;-0.3894;
97.2000;0.7188;-0.4017;
97.5000;0.7179;-0.4067;
97.8000;0.7179;-0.3968;
98.1000;0.7196;-0.3894;
98.4000;0.7179;-0.3845;
98.7000;0.7171;-0.3796;
99.0000;0.7196;-0.3746;
99.3000;0.7204;-0.3672;
99.6000;0.7171;-0.3722;
99.9000;0.7204;-0.3672;
100.2000;0.7204;-0.3697;
100.5000;0.7212;-0.3796;
100.8000;0.7212;-0.3771;
101.1000;0.7204;-0.3771;
101.4000;0.7212;-0.3796;
101.7000;0.7212;-0.3771;
102.0000;0.7220;-0.3820;
102.3000;0.7179;-0.3869;
102.6000;0.7196;-0.3869;
102.9000;0.7196;-0.3968;
103.2000;0.7188;-0.3993;
103.5000;0.7196;-0.3919;
103.8000;0.7179;-0.3943;
104.1000;0.7204;-0.3894;
104.4000;0.7196;-0.3845;
104.7000;0.7171;-0.3820;
105.0000;0.7188;-0.3796;
105.3000;0.7196;-0.3869;
105.6000;0.7204;-0.3845;
105.9000;0.7204;-0.3820;
106.2000;0.7188;-0.3894;
106.5000;0.7188;-0.3869;
106.8000;0.7204;-0.3894;
107.1000;0.7196;-0.3845;
107.4000;0.7188;-0.3919;
107.7000;0.7204;-0.3869;
108.0000;0.7204;-0.3796;
108.3000;0.7163;-0.3968;
108.6000;0.7196;-0.3845;
108.9000;0.7204;-0.3869;
109.2000;0.7196;-0.3796;
109.5000;0.7212;-0.3672;
109.8000;0.7188;-0.3722;
110.1000;0.7179;-0.3697;
110.4000;0.7204;-0.3697;
110.7000;0.7204;-0.3672;
111.0000;0.7236;-0.3451;
111.3000;0.7204;-0.3623;
111.6000;0.7196;-0.3574;
111.9000;0.7212;-0.3549;
112.2000;0.7188;-0.3672;
112.5000;0.7228;-0.3574;
112.8000;0.7261;-0.3549;
113.1000;0.7220;-0.3672;
113.4000;0.7188;-0.3722;
113.7000;0.7204;-0.3672;
114.0000;0.7212;-0.3574;
114.3000;0.7228;-0.3598;
114.6000;0.7196;-0.3722;
114.9000;0.7212;-0.3746;
115.2000;0.7220;-0.3746;
115.5000;0.7220;-0.3845;
115.8000;0.7204;-0.3894;
116.1000;0.7188;-0.4017;
116.4000;0.7220;-0.3943;
116.7000;0.7220;-0.3869;
117.0000;0.7228;-0.3771;
117.3000;0.7285;-0.3672;
117.6000;0.7220;-0.3820;
117.9000;0.7220;-0.3894;
118.2000;0.7236;-0.3894;
118.5000;0.7228;-0.3869;
118.8000;0.7220;-0.3894;
119.1000;0.7236;-0.3796;
119.4000;0.7220;-0.3697;
119.7000;0.7253;-0.3598;
120.0000;0.7220;-0.3697;
120.3000;0.7212;-0.3746;
120.6000;0.7212;-0.3771;
120.9000;0.7228;-0.3722;
121.2000;0.7220;-0.3746;
121.5000;0.7212;-0.3746;
121.8000;0.7228;-0.3722;
122.1000;0.7228;-0.3771;
122.4000;0.7236;-0.3746;
122.7000;0.7253;-0.3771;
123.0000;0.7188;-0.3919;
123.3000;0.7196;-0.3845;
123.6000;0.7228;-0.3796;
123.9000;0.7220;-0.3869;
124.2000;0.7212;-0.3869;
124.5000;0.7220;-0.3820;
124.8000;0.7220;-0.3796;
125.1000;0.7236;-0.3722;
125.4000;0.7228;-0.3771;
125.7000;0.7220;-0.3771;
126.0000;0.7220;-0.3746;
126.3000;0.7212;-0.3746;
126.6000;0.7204;-0.3820;
126.9000;0.7220;-0.3746;
127.2000;0.7236;-0.3648;
127.5000;0.7228;-0.3697;
127.8000;0.7302;-0.3475;
128.1000;0.7204;-0.3722;
128.4000;0.7220;-0.3697;
128.7000;0.7220;-0.3697;
129.0000;0.7212;-0.3623;
129.3000;0.7220;-0.3623;
129.6000;0.7220;-0.3746;
129.9000;0.7212;-0.3722;
130.2000;0.7212;-0.3771;
130.5000;0.7204;-0.3697;
130.8000;0.7204;-0.3722;
131.1000;0.7212;-0.3648;
131.4000;0.7204;-0.3722;
131.7000;0.7196;-0.3722;
132.0000;0.7179;-0.3722;
132.3000;0.7261;-0.3524;
132.6000;0.7236;-0.3648;
132.9000;0.7220;-0.3672;
133.2000;0.7220;-0.3697;
133.5000;0.7196;-0.3771;
133.8000;0.7212;-0.3746;
134.1000;0.7220;-0.3697;
134.4000;0.7220;-0.3746;
134.7000;0.7179;-0.3722;
135.0000;0.7196;-0.3722;
135.3000;0.7204;-0.3722;
135.6000;0.7204;-0.3672;
135.9000;0.7212;-0.3697;
136.2000;0.7212;-0.3796;
136.5000;0.7212;-0.3869;
136.8000;0.7212;-0.3771;
137.1000;0.7188;-0.3845;
137.4000;0.7212;-0.3722;
137.7000;0.7220;-0.3771;
138.0000;0.7212;-0.3820;
138.3000;0.7228;-0.3869;
138.6000;0.7179;-0.3943;
138.9000;0.7228;-0.3771;
139.2000;0.7220;-0.3796;
139.5000;0.7228;-0.3796;
139.8000;0.7228;-0.3771;
140.1000;0.7220;-0.3796;
140.4000;0.7220;-0.3771;
140.7000;0.7204;-0.3771;
141.0000;0.7220;-0.3697;
141.3000;0.7212;-0.3820;
141.6000;0.7196;-0.3820;
141.9000;0.7220;-0.3820;
142.2000;0.7212;-0.3869;
142.5000;0.7220;-0.3820;
142.8000;0.7220;-0.3869;
143.1000;0.7212;-0.3869;
143.4000;0.7212;-0.3894;
143.7000;0.7285;-0.3746;
144.0000;0.7220;-0.3894;
144.3000;0.7212;-0.3919;
144.6000;0.7236;-0.3820;
144.9000;0.7204;-0.3943;
145.2000;0.7253;-0.3869;
145.5000;0.7245;-0.3968;
145.8000;0.7261;-0.3869;
146.1000;0.7220;-0.3943;
146.4000;0.7236;-0.3894;
146.7000;0.7261;-0.3796;
147.0000;0.7228;-0.3845;
147.3000;0.7131;-0.3993;
147.6000;0.7188;-0.3919;
147.9000;0.7228;-0.3919;
148.2000;0.7220;-0.3919;
148.5000;0.7228;-0.3894;
148.8000;0.7236;-0.3869;
149.1000;0.7236;-0.3869;
149.4000;0.7236;-0.3869;
149.7000;0.7220;-0.3845;
150.0000;0.7236;-0.3869;
150.3000;0.7228;-0.3993;
150.6000;0.7220;-0.3993;
150.9000;0.7228;-0.3894;
151.2000;0.7285;-0.3722;
151.5000;0.7147;-0.3943;
151.8000;0.7188;-0.3894;
152.1000;0.7204;-0.3820;
152.4000;0.7196;-0.3894;
152.7000;0.7228;-0.3869;
153.0000;0.7228;-0.3869;
153.3000;0.7220;-0.3943;
153.6000;0.7204;-0.3968;
153.9000;0.7220;-0.4017;
154.2000;0.7228;-0.4042;
154.5000;0.7228;-0.3943;
154.8000;0.7285;-0.3820;
155.1000;0.7245;-0.3845;
155.4000;0.7236;-0.3845;
155.7000;0.7212;-0.3919;
156.0000;0.7204;-0.3869;
156.3000;0.7236;-0.3894;
156.6000;0.7236;-0.3943;
156.9000;0.7212;-0.4116;
157.2000;0.7220;-0.4091;
157.5000;0.7220;-0.4042;
157.8000;0.7220;-0.3993;
158.1000;0.7228;-0.3968;
158.4000;0.7220;-0.3968;
158.7000;0.7147;-0.4091;
159.0000;0.7228;-0.3845;
159.3000;0.7220;-0.3845;
159.6000;0.7261;-0.3845;
159.9000;0.7212;-0.3968;
160.2000;0.7220;-0.3943;
160.5000;0.7228;-0.3869;
160.8000;0.7196;-0.3968;
161.1000;0.7204;-0.3894;
161.4000;0.7212;-0.3894;
161.7000;0.7220;-0.3919;
162.0000;0.7212;-0.3919;
162.3000;0.7220;-0.3943;
162.6000;0.7212;-0.3943;
162.9000;0.7220;-0.3845;
163.2000;0.7228;-0.3796;
163.5000;0.7318;-0.3500;
163.8000;0.7212;-0.3746;
164.1000;0.7220;-0.3722;
164.4000;0.7228;-0.3771;
164.7000;0.7236;-0.3722;
165.0000;0.7236;-0.3746;
165.3000;0.7228;-0.3746;
165.6000;0.7342;-0.3401;
165.9000;0.7220;-0.3722;
166.2000;0.7220;-0.3722;
166.5000;0.7220;-0.3672;
166.8000;0.7228;-0.3672;
167.1000;0.7188;-0.3796;
167.4000;0.7212;-0.3746;
167.7000;0.7212;-0.3820;
168.0000;0.7220;-0.3796;
168.3000;0.7220;-0.3845;
168.6000;0.7114;-0.4165;
168.9000;0.7302;-0.3524;
169.2000;0.7196;-0.3796;
169.5000;0.7228;-0.3623;
169.8000;0.7220;-0.3672;
170.1000;0.7253;-0.3623;
170.4000;0.7228;-0.3672;
170.7000;0.7220;-0.3648;
171.0000;0.7236;-0.3648;
171.3000;0.7163;-0.3894;
171.6000;0.7228;-0.3697;
171.9000;0.7196;-0.3771;
172.2000;0.7212;-0.3746;
172.5000;0.7212;-0.3746;
172.8000;0.7204;-0.3869;
173.1000;0.7188;-0.3993;
173.4000;0.7220;-0.3894;
173.7000;0.7220;-0.4042;
174.0000;0.7220;-0.4042;
174.3000;0.7220;-0.4042;
174.6000;0.7236;-0.4042;
174.9000;0.7228;-0.3993;
175.2000;0.7228;-0.4017;
175.5000;0.7204;-0.4141;
175.8000;0.7228;-0.4091;
176.1000;0.7220;-0.4091;
176.4000;0.7253;-0.4042;
176.7000;0.7212;-0.4091;
177.0000;0.7269;-0.4017;
177.3000;0.7228;-0.4141;
177.6000;0.7220;-0.4239;
177.9000;0.7228;-0.4190;
178.2000;0.7228;-0.4116;
178.5000;0.7236;-0.4091;
178.8000;0.7220;-0.4165;
179.1000;0.7261;-0.4067;
179.4000;0.7228;-0.4215;
179.7000;0.7253;-0.4165;
180.0000;0.7228;-0.4190;
180.3000;0.7212;-0.4215;
180.6000;0.7220;-0.4141;
180.9000;0.7220;-0.4017;
181.2000;0.7228;-0.3894;
181.5000;0.7220;-0.3993;
181.8000;0.7139;-0.4215;
182.1000;0.7204;-0.4017;
182.4000;0.7220;-0.3820;
182.7000;0.7269;-0.3697;
183.0000;0.7196;-0.3845;
183.3000;0.7147;-0.4017;
183.6000;0.7245;-0.3845;
183.9000;0.7228;-0.3845;
184.2000;0.7253;-0.3771;
184.5000;0.7236;-0.3869;
184.8000;0.7179;-0.3919;
185.1000;0.7228;-0.3722;
185.4000;0.7220;-0.3771;
185.7000;0.7204;-0.3820;
186.0000;0.7212;-0.3746;
186.3000;0.7228;-0.3796;
186.6000;0.7196;-0.3919;
186.9000;0.7220;-0.3796;
187.2000;0.7236;-0.3771;
187.5000;0.7228;-0.3820;
187.8000;0.7220;-0.3919;
188.1000;0.7204;-0.3869;
188.4000;0.7220;-0.3845;
188.7000;0.7212;-0.3968;
189.0000;0.7204;-0.3919;
189.3000;0.7196;-0.3943;
189.6000;0.7212;-0.3845;
189.9000;0.7212;-0.3845;
190.2000;0.7220;-0.3919;
190.5000;0.7220;-0.3869;
190.8000;0.7212;-0.3845;
191.1000;0.7220;-0.3796;
191.4000;0.7220;-0.3771;
191.7000;0.7212;-0.3722;
192.0000;0.7204;-0.3672;
192.3000;0.7228;-0.3623;
192.6000;0.7204;-0.3697;
192.9000;0.7204;-0.3722;
193.2000;0.7212;-0.3746;
193.5000;0.7212;-0.3746;
193.8000;0.7220;-0.3697;
194.1000;0.7204;-0.3746;
194.4000;0.7228;-0.3722;
194.7000;0.7212;-0.3672;
195.0000;0.7220;-0.3672;
195.3000;0.7196;-0.3796;
195.6000;0.7228;-0.3746;
195.9000;0.7220;-0.3845;
196.2000;0.7212;-0.3894;
196.5000;0.7204;-0.3943;
196.8000;0.7204;-0.3894;
197.1000;0.7293;-0.3598;
197.4000;0.7204;-0.3796;
197.7000;0.7204;-0.3845;
198.0000;0.7155;-0.3943;
198.3000;0.7220;-0.3820;
198.6000;0.7212;-0.3869;
198.9000;0.7204;-0.3845;
199.2000;0.7212;-0.3919;
199.5000;0.7212;-0.3943;
199.8000;0.7220;-0.3771;
200.1000;0.7204;-0.3796;
200.4000;0.7269;-0.3672;
200.7000;0.7188;-0.3919;
201.0000;0.7188;-0.3869;
201.3000;0.7188;-0.3845;
201.6000;0.7212;-0.3746;
201.9000;0.7188;-0.3771;
202.2000;0.7204;-0.3746;
202.5000;0.7196;-0.3796;
202.8000;0.7220;-0.3796;
203.1000;0.7236;-0.3697;
203.4000;0.7179;-0.3845;
203.7000;0.7253;-0.3598;
204.0000;0.7236;-0.3697;
204.3000;0.7196;-0.3746;
204.6000;0.7179;-0.3796;
204.9000;0.7228;-0.3771;
205.2000;0.7179;-0.3894;
205.5000;0.7196;-0.3796;
205.8000;0.7188;-0.3796;
206.1000;0.7212;-0.3796;
206.4000;0.7188;-0.3845;
206.7000;0.7196;-0.3869;
207.0000;0.7196;-0.3845;
207.3000;0.7179;-0.3820;
207.6000;0.7196;-0.3771;
207.9000;0.7277;-0.3722;
208.2000;0.7171;-0.3919;
208.5000;0.7236;-0.3722;
208.8000;0.7220;-0.3820;
209.1000;0.7285;-0.3722;
209.4000;0.7196;-0.3943;
209.7000;0.7196;-0.3968;
210.0000;0.7220;-0.3919;
210.3000;0.7212;-0.3919;
210.6000;0.7236;-0.3820;
210.9000;0.7204;-0.3919;
211.2000;0.7188;-0.3943;
211.5000;0.7212;-0.3894;
211.8000;0.7196;-0.3894;
212.1000;0.7188;-0.3845;
212.4000;0.7196;-0.3771;
212.7000;0.7196;-0.3771;
213.0000;0.7220;-0.3796;
213.3000;0.7204;-0.3845;
213.6000;0.7196;-0.3771;
213.9000;0.7204;-0.3722;
214.2000;0.7204;-0.3771;
214.5000;0.7277;-0.3574;
214.8000;0.7204;-0.3796;
215.1000;0.7220;-0.3796;
215.4000;0.7212;-0.3820;
215.7000;0.7171;-0.3894;
216.0000;0.7179;-0.3869;
216.3000;0.7212;-0.3771;
216.6000;0.7204;-0.3672;
216.9000;0.7220;-0.3648;
217.2000;0.7196;-0.3648;
217.5000;0.7204;-0.3623;
217.8000;0.7196;-0.3746;
218.1000;0.7196;-0.3697;
218.4000;0.7212;-0.3771;
218.7000;0.7188;-0.3820;
219.0000;0.7220;-0.3845;
219.3000;0.7188;-0.3796;
219.6000;0.7196;-0.3771;
219.9000;0.7204;-0.3672;
220.2000;0.7163;-0.3746;
220.5000;0.7196;-0.3648;
220.8000;0.7196;-0.3648;
221.1000;0.7171;-0.3623;
221.4000;0.7179;-0.3771;
221.7000;0.7269;-0.3549;
222.0000;0.7204;-0.3697;
222.3000;0.7188;-0.3697;
222.6000;0.7261;-0.3598;
222.9000;0.7212;-0.3796;
223.2000;0.7196;-0.3820;
223.5000;0.7147;-0.4017;
223.8000;0.7220;-0.3820;
224.1000;0.7220;-0.3697;
224.4000;0.7220;-0.3697;
224.7000;0.7179;-0.3796;
225.0000;0.7228;-0.3648;
225.3000;0.7204;-0.3746;
225.6000;0.7212;-0.3672;
225.9000;0.7220;-0.3672;
226.2000;0.7212;-0.3697;
226.5000;0.7212;-0.3722;
226.8000;0.7277;-0.3598;
227.1000;0.7236;-0.3623;
227.4000;0.7212;-0.3697;
227.7000;0.7204;-0.3648;
228.0000;0.7171;-0.3771;
228.3000;0.7204;-0.3648;
228.6000;0.7228;-0.3598;
228.9000;0.7171;-0.3697;
229.2000;0.7204;-0.3598;
229.5000;0.7285;-0.3327;
229.8000;0.7179;-0.3648;
230.1000;0.7188;-0.3697;
230.4000;0.7212;-0.3648;
230.7000;0.7228;-0.3598;
231.0000;0.7188;-0.3722;
231.3000;0.7090;-0.3919;
231.6000;0.7188;-0.3746;
231.9000;0.7204;-0.3746;
232.2000;0.7212;-0.3746;
232.5000;0.7245;-0.3574;
232.8000;0.7188;-0.3722;
233.1000;0.7196;-0.3623;
233.4000;0.7204;-0.3820;
233.7000;0.7204;-0.3746;
234.0000;0.7066;-0.4091;
234.3000;0.7188;-0.3796;
234.6000;0.7196;-0.3746;
234.9000;0.7147;-0.3845;
235.2000;0.7188;-0.3820;
235.5000;0.7114;-0.3943;
235.8000;0.7188;-0.3771;
236.1000;0.7236;-0.3722;
236.4000;0.7188;-0.3845;
236.7000;0.7204;-0.3869;
237.0000;0.7204;-0.3894;
237.3000;0.7188;-0.4017;
237.6000;0.7188;-0.3894;
237.9000;0.7188;-0.3993;
238.2000;0.7196;-0.3968;
238.5000;0.7188;-0.3943;
238.8000;0.7188;-0.4017;
239.1000;0.7261;-0.3869;
239.4000;0.7212;-0.3943;
239.7000;0.7245;-0.3845;
240.0000;0.7163;-0.4067;
240.3000;0.7179;-0.4042;
240.6000;0.7204;-0.4042;
240.9000;0.7204;-0.3968;
241.2000;0.7204;-0.3820;
241.5000;0.7196;-0.3845;
241.8000;0.7204;-0.3820;
242.1000;0.7179;-0.3796;
242.4000;0.7188;-0.3796;
242.7000;0.7212;-0.3820;
243.0000;0.7196;-0.3869;
243.3000;0.7204;-0.3771;
243.6000;0.7123;-0.3968;
243.9000;0.7179;-0.3845;
244.2000;0.7188;-0.3845;
244.5000;0.7188;-0.3845;
244.8000;0.7204;-0.3796;
245.1000;0.7188;-0.3820;
245.4000;0.7179;-0.3869;
245.7000;0.7269;-0.3623;
246.0000;0.7196;-0.3771;
246.3000;0.7179;-0.3919;
246.6000;0.7188;-0.3968;
246.9000;0.7228;-0.3820;
247.2000;0.7204;-0.3919;
247.5000;0.7171;-0.3968;
247.8000;0.7171;-0.3943;
248.1000;0.7188;-0.3820;
248.4000;0.7212;-0.3796;
248.7000;0.7204;-0.3796;
249.0000;0.7196;-0.3722;
249.3000;0.7196;-0.3771;
249.6000;0.7196;-0.3672;
249.9000;0.7196;-0.3672;
250.2000;0.7204;-0.3598;
250.5000;0.7179;-0.3524;
250.8000;0.7196;-0.3648;
251.1000;0.7188;-0.3746;
251.4000;0.7196;-0.3598;
251.7000;0.7196;-0.3598;
252.0000;0.7147;-0.3672;
252.3000;0.7171;-0.3549;
252.6000;0.7245;-0.3451;
252.9000;0.7245;-0.3500;
253.2000;0.7212;-0.3623;
253.5000;0.7204;-0.3623;
253.8000;0.7179;-0.3672;
254.1000;0.7204;-0.3672;
254.4000;0.7163;-0.3697;
254.7000;0.7196;-0.3524;
255.0000;0.7188;-0.3549;
255.3000;0.7171;-0.3623;
255.6000;0.7212;-0.3549;
255.9000;0.7131;-0.3746;
256.2000;0.7188;-0.3549;
256.5000;0.7196;-0.3598;
256.8000;0.7261;-0.3549;
257.1000;0.7139;-0.3869;
257.4000;0.7171;-0.3796;
257.7000;0.7123;-0.4067;
258.0000;0.7147;-0.3943;
258.3000;0.7171;-0.3894;
258.6000;0.7179;-0.3919;
258.9000;0.7188;-0.3919;
259.2000;0.7179;-0.3894;
259.5000;0.7212;-0.3771;
259.8000;0.7163;-0.3919;
260.1000;0.7171;-0.3869;
260.4000;0.7188;-0.3820;
260.7000;0.7123;-0.4017;
261.0000;0.7179;-0.3845;
261.3000;0.7171;-0.3820;
261.6000;0.7188;-0.3746;
261.9000;0.7171;-0.3820;
262.2000;0.7179;-0.3771;
262.5000;0.7188;-0.3919;
262.8000;0.7212;-0.3845;
263.1000;0.7179;-0.3820;
263.4000;0.7179;-0.3869;
263.7000;0.7196;-0.3820;
264.0000;0.7179;-0.3820;
264.3000;0.7155;-0.3771;
264.6000;0.7179;-0.3722;
264.9000;0.7171;-0.3697;
265.2000;0.7204;-0.3672;
265.5000;0.7277;-0.3426;
265.8000;0.7179;-0.3746;
266.1000;0.7171;-0.3820;
266.4000;0.7147;-0.3919;
266.7000;0.7179;-0.3845;
267.0000;0.7188;-0.3771;
267.3000;0.7179;-0.3796;
267.6000;0.7188;-0.3771;
267.9000;0.7253;-0.3672;
268.2000;0.7188;-0.3820;
268.5000;0.7171;-0.3722;
268.8000;0.7171;-0.3598;
269.1000;0.7163;-0.3598;
269.4000;0.7179;-0.3574;
269.7000;0.7163;-0.3623;
270.0000;0.7188;-0.3598;
270.3000;0.7179;-0.3500;
270.6000;0.7179;-0.3500;
270.9000;0.7155;-0.3598;
271.2000;0.7163;-0.3574;
271.5000;0.7188;-0.3623;
271.8000;0.7171;-0.3722;
272.1000;0.7171;-0.3697;
272.4000;0.7196;-0.3623;
272.7000;0.7163;-0.3771;
273.0000;0.7163;-0.3820;
273.3000;0.7171;-0.3845;
273.6000;0.7179;-0.3796;
273.9000;0.7228;-0.3574;
274.2000;0.7179;-0.3697;
274.5000;0.7147;-0.3697;
274.8000;0.7163;-0.3697;
275.1000;0.7212;-0.3648;
275.4000;0.7171;-0.3672;
275.7000;0.7171;-0.3722;
276.0000;0.7179;-0.3672;
276.3000;0.7179;-0.3697;
276.6000;0.7188;-0.3648;
276.9000;0.7196;-0.3672;
277.2000;0.7188;-0.3722;
277.5000;0.7179;-0.3869;
277.8000;0.7188;-0.3869;
278.1000;0.7188;-0.3796;
278.4000;0.7228;-0.3697;
278.7000;0.7179;-0.3771;
279.0000;0.7179;-0.3845;
279.3000;0.7196;-0.3919;
279.6000;0.7155;-0.3943;
279.9000;0.7188;-0.3820;
280.2000;0.7179;-0.3820;
280.5000;0.7179;-0.3820;
280.8000;0.7131;-0.3993;
281.1000;0.7155;-0.3943;
281.4000;0.7155;-0.3869;
281.7000;0.7261;-0.3549;
282.0000;0.7188;-0.3771;
282.3000;0.7188;-0.3771;
282.6000;0.7163;-0.3869;
282.9000;0.7179;-0.3796;
283.2000;0.7179;-0.3771;
283.5000;0.7139;-0.3894;
283.8000;0.7188;-0.3796;
284.1000;0.7179;-0.3771;
284.4000;0.7196;-0.3771;
284.7000;0.7188;-0.3771;
285.0000;0.7228;-0.3549;
285.3000;0.7188;-0.3672;
285.6000;0.7171;-0.3524;
285.9000;0.7171;-0.3574;
286.2000;0.7163;-0.3623;
286.5000;0.7163;-0.3746;
286.8000;0.7171;-0.3746;
287.1000;0.7179;-0.3796;
287.4000;0.7179;-0.3845;
287.7000;0.7171;-0.3894;
288.0000;0.7188;-0.3943;
288.3000;0.7179;-0.3894;
288.6000;0.7179;-0.3993;
288.9000;0.7163;-0.4017;
289.2000;0.7123;-0.4067;
289.5000;0.7155;-0.3993;
289.8000;0.7147;-0.3943;
290.1000;0.7163;-0.3845;
290.4000;0.7171;-0.3796;
290.7000;0.7179;-0.3820;
291.0000;0.7188;-0.3894;
291.3000;0.7188;-0.3869;
291.6000;0.7188;-0.3919;
291.9000;0.7179;-0.3943;
292.2000;0.7188;-0.3894;
292.5000;0.7163;-0.3845;
292.8000;0.7179;-0.3746;
293.1000;0.7147;-0.3820;
293.4000;0.7147;-0.3796;
293.7000;0.7179;-0.3771;
294.0000;0.7171;-0.3919;
294.3000;0.7147;-0.3993;
294.6000;0.7163;-0.3894;
294.9000;0.7171;-0.3845;
295.2000;0.7245;-0.3697;
295.5000;0.7163;-0.3943;
295.8000;0.7188;-0.3919;
296.1000;0.7171;-0.3993;
296.4000;0.7163;-0.3919;
296.7000;0.7188;-0.3869;
297.0000;0.7196;-0.3869;
297.3000;0.7212;-0.3746;
297.6000;0.7196;-0.3771;
297.9000;0.7196;-0.3697;
298.2000;0.7236;-0.3623;
298.5000;0.7171;-0.3697;
298.8000;0.7147;-0.3697;
299.1000;0.7163;-0.3722;
299.4000;0.7147;-0.3672;
299.7000;0.7139;-0.3796;
300.0000;0.7171;-0.3771;
300.3000;0.7163;-0.3820;
300.6000;0.7147;-0.3845;
300.9000;0.7171;-0.3746;
301.2000;0.7106;-0.3820;
301.5000;0.7253;-0.3524;
301.8000;0.7179;-0.3796;
302.1000;0.7253;-0.3623;
302.4000;0.7139;-0.3845;
302.7000;0.7179;-0.3820;
303.0000;0.7147;-0.3796;
303.3000;0.7171;-0.3722;
303.6000;0.7163;-0.3697;
303.9000;0.7155;-0.3746;
304.2000;0.7163;-0.3722;
304.5000;0.7155;-0.3697;
304.8000;0.7171;-0.3672;
305.1000;0.7204;-0.3672;
305.4000;0.7155;-0.3746;
305.7000;0.7147;-0.3746;
306.0000;0.7163;-0.3598;
306.3000;0.7155;-0.3623;
306.6000;0.7131;-0.3672;
306.9000;0.7163;-0.3697;
307.2000;0.7163;-0.3648;
307.5000;0.7179;-0.3574;
307.8000;0.7155;-0.3746;
308.1000;0.7155;-0.3796;
308.4000;0.7155;-0.3796;
308.7000;0.7155;-0.3845;
309.0000;0.7155;-0.3820;
309.3000;0.7163;-0.3845;
309.6000;0.7155;-0.3796;
309.9000;0.7155;-0.3746;
310.2000;0.7155;-0.3697;
310.5000;0.7155;-0.3697;
310.8000;0.7188;-0.3623;
311.1000;0.7163;-0.3722;
311.4000;0.7171;-0.3722;
311.7000;0.7212;-0.3672;
312.0000;0.7147;-0.3943;
312.3000;0.7171;-0.3869;
312.6000;0.7155;-0.3796;
312.9000;0.7147;-0.3746;
313.2000;0.7188;-0.3722;
313.5000;0.7163;-0.3796;
313.8000;0.7171;-0.3722;
314.1000;0.7123;-0.3722;
314.4000;0.7171;-0.3697;
314.7000;0.7212;-0.3623;
315.0000;0.7147;-0.3771;
315.3000;0.7188;-0.3672;
315.6000;0.7212;-0.3574;
315.9000;0.7147;-0.3746;
316.2000;0.7163;-0.3771;
316.5000;0.7147;-0.3771;
316.8000;0.7106;-0.3894;
317.1000;0.7147;-0.3722;
317.4000;0.7179;-0.3623;
317.7000;0.7188;-0.3697;
318.0000;0.7163;-0.3746;
318.3000;0.7139;-0.3697;
318.6000;0.7179;-0.3648;
318.9000;0.7163;-0.3672;
319.2000;0.7155;-0.3771;
319.5000;0.7171;-0.3697;
319.8000;0.7163;-0.3722;
320.1000;0.7155;-0.3746;
320.4000;0.7106;-0.3845;
320.7000;0.7147;-0.3796;
321.0000;0.7171;-0.3796;
321.3000;0.7188;-0.3648;
321.6000;0.7163;-0.3746;
321.9000;0.7171;-0.3672;
322.2000;0.7236;-0.3426;
322.5000;0.7171;-0.3549;
322.8000;0.7179;-0.3426;
323.1000;0.7188;-0.3426;
323.4000;0.7179;-0.3500;
323.7000;0.7171;-0.3549;
324.0000;0.7171;-0.3623;
324.3000;0.7147;-0.3796;
324.6000;0.7155;-0.3796;
324.9000;0.7147;-0.3746;
325.2000;0.7163;-0.3697;
325.5000;0.7155;-0.3598;
325.8000;0.7114;-0.3746;
326.1000;0.7106;-0.3771;
326.4000;0.7171;-0.3598;
326.7000;0.7155;-0.3549;
327.0000;0.7163;-0.3574;
327.3000;0.7163;-0.3648;
327.6000;0.7155;-0.3722;
327.9000;0.7163;-0.3697;
328.2000;0.7163;-0.3697;
328.5000;0.7155;-0.3722;
328.8000;0.7171;-0.3697;
329.1000;0.7155;-0.3697;
329.4000;0.7147;-0.3697;
329.7000;0.7155;-0.3648;
330.0000;0.7147;-0.3672;
330.3000;0.7171;-0.3623;
330.6000;0.7171;-0.3648;
330.9000;0.7163;-0.3672;
331.2000;0.7155;-0.3771;
331.5000;0.7147;-0.3869;
331.8000;0.7155;-0.3894;
332.1000;0.7131;-0.4017;
332.4000;0.7155;-0.3993;
332.7000;0.7049;-0.4313;
333.0000;0.7155;-0.4017;
333.3000;0.7163;-0.3919;
333.6000;0.7171;-0.3943;
333.9000;0.7171;-0.3943;
334.2000;0.7171;-0.3894;
334.5000;0.7123;-0.3943;
334.8000;0.7131;-0.3968;
335.1000;0.7163;-0.3869;
335.4000;0.7155;-0.3796;
335.7000;0.7179;-0.3746;
336.0000;0.7147;-0.3820;
336.3000;0.7163;-0.3820;
336.6000;0.7179;-0.3746;
336.9000;0.7155;-0.3845;
337.2000;0.7163;-0.3845;
337.5000;0.7212;-0.3648;
337.8000;0.7139;-0.3771;
338.1000;0.7147;-0.3722;
338.4000;0.7066;-0.4042;
338.7000;0.7155;-0.3845;
339.0000;0.7163;-0.3820;
339.3000;0.7163;-0.3771;
339.6000;0.7155;-0.3771;
339.9000;0.7131;-0.3771;
340.2000;0.7139;-0.3722;
340.5000;0.7147;-0.3746;
340.8000;0.7147;-0.3845;
341.1000;0.7155;-0.3796;
341.4000;0.7147;-0.3820;
341.7000;0.7155;-0.3796;
342.0000;0.7147;-0.3869;
342.3000;0.7114;-0.3943;
342.6000;0.7163;-0.3845;
342.9000;0.7147;-0.3845;
343.2000;0.7155;-0.3894;
343.5000;0.7155;-0.3845;
343.8000;0.7139;-0.3746;
344.1000;0.7147;-0.3796;
344.4000;0.7163;-0.3746;
344.7000;0.7163;-0.3746;
345.0000;0.7147;-0.3746;
345.3000;0.7155;-0.3697;
345.6000;0.7139;-0.3820;
345.9000;0.7147;-0.3820;
346.2000;0.7155;-0.3771;
346.5000;0.7139;-0.3771;
346.8000;0.7163;-0.3623;
347.1000;0.7147;-0.3598;
347.4000;0.7147;-0.3623;
347.7000;0.7155;-0.3697;
348.0000;0.7163;-0.3598;
348.3000;0.7163;-0.3648;
348.6000;0.7098;-0.3796;
348.9000;0.7098;-0.3894;
349.2000;0.7155;-0.3672;
349.5000;0.7139;-0.3623;
349.8000;0.7147;-0.3549;
350.1000;0.7139;-0.3598;
350.4000;0.7147;-0.3623;
350.7000;0.7147;-0.3574;
351.0000;0.7139;-0.3524;
351.3000;0.7131;-0.3524;
351.6000;0.7236;-0.3327;
351.9000;0.7179;-0.3451;
352.2000;0.7131;-0.3598;
352.5000;0.7171;-0.3500;
352.8000;0.7131;-0.3598;
353.1000;0.7139;-0.3500;
353.4000;0.7131;-0.3451;
353.7000;0.7131;-0.3377;
354.0000;0.7147;-0.3401;
354.3000;0.7131;-0.3500;
354.6000;0.7139;-0.3549;
354.9000;0.7155;-0.3500;
355.2000;0.7163;-0.3524;
355.5000;0.7155;-0.3672;
355.8000;0.7147;-0.3771;
356.1000;0.7131;-0.3820;
356.4000;0.7123;-0.3746;
356.7000;0.7131;-0.3722;
357.0000;0.7155;-0.3598;
357.3000;0.7171;-0.3623;
357.6000;0.7171;-0.3672;
357.9000;0.7139;-0.3845;
358.2000;0.7171;-0.3722;
358.5000;0.7171;-0.3672;
358.8000;0.7163;-0.3746;
359.1000;0.7131;-0.3771;
359.4000;0.7155;-0.3820;
359.7000;0.7147;-0.3746;
360.0000;0.7123;-0.3771;
360.3000;0.7139;-0.3672;
360.6000;0.7147;-0.3524;
360.9000;0.7123;-0.3574;
361.2000;0.7131;-0.3500;
361.5000;0.7114;-0.3451;
361.8000;0.7074;-0.3623;
362.1000;0.7188;-0.3377;
362.4000;0.7147;-0.3549;
362.7000;0.7131;-0.3623;
363.0000;0.7131;-0.3648;
363.3000;0.7147;-0.3598;
363.6000;0.7155;-0.3500;
363.9000;0.7139;-0.3598;
364.2000;0.7155;-0.3524;
364.5000;0.7155;-0.3574;
364.8000;0.7147;-0.3623;
365.1000;0.7131;-0.3598;
365.4000;0.7139;-0.3574;
365.7000;0.7139;-0.3500;
366.0000;0.7147;-0.3549;
366.3000;0.7147;-0.3648;
366.6000;0.7139;-0.3648;
366.9000;0.7131;-0.3598;
367.2000;0.7155;-0.3648;
367.5000;0.7163;-0.3648;
367.8000;0.7147;-0.3672;
368.1000;0.7123;-0.3648;
368.4000;0.7139;-0.3697;
368.7000;0.7139;-0.3722;
369.0000;0.7147;-0.3746;
369.3000;0.7155;-0.3746;
369.6000;0.7155;-0.3746;
369.9000;0.7163;-0.3697;
370.2000;0.7139;-0.3771;
370.5000;0.7131;-0.3771;
370.8000;0.7139;-0.3796;
371.1000;0.7139;-0.3796;
371.4000;0.7163;-0.3746;
371.7000;0.7123;-0.3746;
372.0000;0.7139;-0.3771;
372.3000;0.7155;-0.3771;
372.6000;0.7147;-0.3796;
372.9000;0.7066;-0.3993;
373.2000;0.7163;-0.3820;
373.5000;0.7155;-0.3796;
373.8000;0.7163;-0.3722;
374.1000;0.7106;-0.3820;
374.4000;0.7196;-0.3574;
374.7000;0.7074;-0.3894;
375.0000;0.7163;-0.3672;
375.3000;0.7147;-0.3672;
375.6000;0.7155;-0.3672;
375.9000;0.7131;-0.3722;
376.2000;0.7139;-0.3722;
376.5000;0.7139;-0.3746;
376.8000;0.7147;-0.3697;
377.1000;0.7155;-0.3697;
377.4000;0.7147;-0.3672;
377.7000;0.7147;-0.3648;
378.0000;0.7139;-0.3623;
378.3000;0.7131;-0.3623;
378.6000;0.7147;-0.3648;
378.9000;0.7155;-0.3574;
379.2000;0.7163;-0.3451;
379.5000;0.7163;-0.3524;
379.8000;0.7147;-0.3500;
380.1000;0.7147;-0.3524;
380.4000;0.7155;-0.3524;
380.7000;0.7114;-0.3574;
381.0000;0.7139;-0.3549;
381.3000;0.7139;-0.3623;
381.6000;0.7147;-0.3648;
381.9000;0.7139;-0.3574;
382.2000;0.7163;-0.3549;
382.5000;0.7106;-0.3623;
382.8000;0.7155;-0.3598;
383.1000;0.7163;-0.3722;
383.4000;0.7228;-0.3475;
383.7000;0.7147;-0.3623;
384.0000;0.7163;-0.3524;
384.3000;0.7131;-0.3648;
384.6000;0.7114;-0.3672;
384.9000;0.7131;-0.3598;
385.2000;0.7139;-0.3549;
385.5000;0.7131;-0.3574;
385.8000;0.7155;-0.3549;
386.1000;0.7139;-0.3598;
386.4000;0.7114;-0.3623;
386.7000;0.7139;-0.3598;
387.0000;0.7155;-0.3500;
387.3000;0.7139;-0.3524;
387.6000;0.7147;-0.3549;
387.9000;0.7123;-0.3623;
388.2000;0.7114;-0.3697;
388.5000;0.7155;-0.3574;
388.8000;0.7204;-0.3451;
389.1000;0.7155;-0.3598;
389.4000;0.7155;-0.3524;
389.7000;0.7188;-0.3352;
390.0000;0.7139;-0.3500;
390.3000;0.7171;-0.3352;
390.6000;0.7106;-0.3524;
390.9000;0.7082;-0.3697;
391.2000;0.7171;-0.3475;
391.5000;0.7139;-0.3549;
391.8000;0.7106;-0.3648;
392.1000;0.7114;-0.3648;
392.4000;0.7179;-0.3549;
392.7000;0.7155;-0.3574;
393.0000;0.7131;-0.3697;
393.3000;0.7171;-0.3672;
393.6000;0.7131;-0.3672;
393.9000;0.7204;-0.3500;
394.2000;0.7057;-0.3746;
394.5000;0.7179;-0.3500;
394.8000;0.7139;-0.3648;
395.1000;0.7171;-0.3500;
395.4000;0.7179;-0.3451;
395.7000;0.7147;-0.3574;
396.0000;0.7139;-0.3574;
396.3000;0.7147;-0.3500;
396.6000;0.7123;-0.3500;
396.9000;0.7179;-0.3401;
397.2000;0.7139;-0.3475;
397.5000;0.7147;-0.3426;
397.8000;0.7139;-0.3451;
398.1000;0.7139;-0.3500;
398.4000;0.7171;-0.3401;
398.7000;0.7139;-0.3549;
399.0000;0.7147;-0.3623;
399.3000;0.7114;-0.3722;
399.6000;0.7139;-0.3549;
399.9000;0.7131;-0.3475;
400.2000;0.7163;-0.3401;
400.5000;0.7212;-0.3352;
400.8000;0.7139;-0.3524;
401.1000;0.7147;-0.3598;
401.4000;0.7131;-0.3672;
401.7000;0.7123;-0.3722;
402.0000;0.7147;-0.3672;
402.3000;0.7139;-0.3648;
402.6000;0.7155;-0.3623;
402.9000;0.7131;-0.3623;
403.2000;0.7147;-0.3598;
403.5000;0.7139;-0.3648;
403.8000;0.7155;-0.3672;
404.1000;0.7163;-0.3574;
404.4000;0.7147;-0.3672;
404.7000;0.7123;-0.3771;
405.0000;0.7163;-0.3722;
405.3000;0.7204;-0.3574;
405.6000;0.7147;-0.3623;
405.9000;0.7139;-0.3672;
406.2000;0.7139;-0.3648;
406.5000;0.7147;-0.3623;
406.8000;0.7147;-0.3771;
407.1000;0.7155;-0.3771;
407.4000;0.7131;-0.3820;
407.7000;0.7123;-0.3796;
408.0000;0.7139;-0.3672;
408.3000;0.7131;-0.3697;
408.6000;0.7114;-0.3697;
408.9000;0.7106;-0.3623;
409.2000;0.7139;-0.3623;
409.5000;0.7131;-0.3697;
409.8000;0.7098;-0.3746;
410.1000;0.7106;-0.3722;
410.4000;0.7106;-0.3820;
410.7000;0.7155;-0.3648;
411.0000;0.7131;-0.3672;
411.3000;0.7139;-0.3648;
411.6000;0.7131;-0.3697;
411.9000;0.7090;-0.3869;
412.2000;0.7114;-0.3943;
412.5000;0.7114;-0.3943;
412.8000;0.7114;-0.3943;
413.1000;0.7147;-0.3919;
413.4000;0.7131;-0.3869;
413.7000;0.7171;-0.3771;
414.0000;0.7139;-0.3869;
414.3000;0.7123;-0.3894;
414.6000;0.7147;-0.3869;
414.9000;0.7139;-0.3820;
415.2000;0.7131;-0.3771;
415.5000;0.7163;-0.3697;
415.8000;0.7131;-0.3746;
416.1000;0.7139;-0.3697;
416.4000;0.7123;-0.3722;
416.7000;0.7131;-0.3672;
417.0000;0.7147;-0.3574;
417.3000;0.7147;-0.3623;
417.6000;0.7147;-0.3697;
417.9000;0.7131;-0.3648;
418.2000;0.7131;-0.3598;
418.5000;0.7147;-0.3598;
418.8000;0.7106;-0.3672;
419.1000;0.7131;-0.3648;
419.4000;0.7155;-0.3549;
419.7000;0.7139;-0.3598;
420.0000;0.7131;-0.3524;
420.3000;0.7131;-0.3524;
420.6000;0.7114;-0.3500;
420.9000;0.7123;-0.3475;
421.2000;0.7098;-0.3500;
421.5000;0.7106;-0.3524;
421.8000;0.7123;-0.3451;
422.1000;0.7123;-0.3500;
422.4000;0.7131;-0.3500;
422.7000;0.7106;-0.3574;
423.0000;0.7114;-0.3648;
423.3000;0.7123;-0.3549;
423.6000;0.7139;-0.3500;
423.9000;0.7106;-0.3524;
424.2000;0.7114;-0.3524;
424.5000;0.7114;-0.3401;
424.8000;0.7131;-0.3303;
425.1000;0.7114;-0.3401;
425.4000;0.7131;-0.3426;
425.7000;0.7106;-0.3500;
426.0000;0.7139;-0.3426;
426.3000;0.7131;-0.3451;
426.6000;0.7131;-0.3426;
426.9000;0.7179;-0.3377;
427.2000;0.7114;-0.3524;
427.5000;0.7131;-0.3500;
427.8000;0.7155;-0.3500;
428.1000;0.7147;-0.3524;
428.4000;0.7139;-0.3623;
428.7000;0.7131;-0.3672;
429.0000;0.7139;-0.3623;
429.3000;0.7139;-0.3623;
429.6000;0.7139;-0.3697;
429.9000;0.7131;-0.3722;
430.2000;0.7114;-0.3746;
430.5000;0.7114;-0.3771;
430.8000;0.7131;-0.3648;
431.1000;0.7139;-0.3648;
431.4000;0.7212;-0.3475;
431.7000;0.7090;-0.3894;
432.0000;0.7139;-0.3771;
432.3000;0.7179;-0.3623;
432.6000;0.7114;-0.3722;
432.9000;0.7114;-0.3672;
433.2000;0.7123;-0.3648;
433.5000;0.7139;-0.3623;
433.8000;0.7114;-0.3672;
434.1000;0.7139;-0.3598;
434.4000;0.7114;-0.3623;
434.7000;0.7123;-0.3722;
435.0000;0.7131;-0.3672;
435.3000;0.7106;-0.3697;
435.6000;0.7098;-0.3648;
435.9000;0.7123;-0.3623;
436.2000;0.7123;-0.3623;
436.5000;0.7163;-0.3648;
436.8000;0.7123;-0.3796;
437.1000;0.7114;-0.3796;
437.4000;0.7139;-0.3746;
437.7000;0.7114;-0.3697;
438.0000;0.7114;-0.3697;
438.3000;0.7123;-0.3648;
438.6000;0.7114;-0.3574;
438.9000;0.7131;-0.3549;
439.2000;0.7106;-0.3648;
439.5000;0.7114;-0.3648;
439.8000;0.7123;-0.3623;
440.1000;0.7123;-0.3598;
440.4000;0.7171;-0.3451;
440.7000;0.7057;-0.3697;
441.0000;0.7114;-0.3451;
441.3000;0.7147;-0.3426;
441.6000;0.7123;-0.3574;
441.9000;0.7114;-0.3549;
442.2000;0.7139;-0.3598;
442.5000;0.7114;-0.3549;
442.8000;0.7131;-0.3549;
443.1000;0.7114;-0.3574;
443.4000;0.7114;-0.3672;
443.7000;0.7123;-0.3598;
444.0000;0.7123;-0.3549;
444.3000;0.7114;-0.3598;
444.6000;0.7098;-0.3672;
444.9000;0.7114;-0.3648;
445.2000;0.7131;-0.3623;
445.5000;0.7106;-0.3672;
445.8000;0.7131;-0.3623;
446.1000;0.7114;-0.3672;
446.4000;0.7139;-0.3648;
446.7000;0.7098;-0.3697;
447.0000;0.7106;-0.3623;
447.3000;0.7123;-0.3598;
447.6000;0.7106;-0.3672;
447.9000;0.7098;-0.3722;
448.2000;0.7074;-0.3697;
448.5000;0.7123;-0.3549;
448.8000;0.7106;-0.3598;
449.1000;0.7098;-0.3697;
449.4000;0.7163;-0.3623;
449.7000;0.7106;-0.3746;
450.0000;0.7114;-0.3697;
450.3000;0.7147;-0.3672;
450.6000;0.7098;-0.3697;
450.9000;0.7123;-0.3574;
451.2000;0.7066;-0.3722;
451.5000;0.7106;-0.3574;
451.8000;0.7114;-0.3524;
452.1000;0.7114;-0.3598;
452.4000;0.7147;-0.3524;
452.7000;0.7131;-0.3574;
453.0000;0.7114;-0.3697;
453.3000;0.7114;-0.3722;
453.6000;0.7090;-0.3820;
453.9000;0.7123;-0.3697;
454.2000;0.7082;-0.3771;
454.5000;0.7114;-0.3697;
454.8000;0.7114;-0.3672;
455.1000;0.7123;-0.3598;
455.4000;0.7106;-0.3623;
455.7000;0.7123;-0.3648;
456.0000;0.7098;-0.3672;
456.3000;0.7098;-0.3648;
456.6000;0.7147;-0.3524;
456.9000;0.7114;-0.3672;
457.2000;0.7098;-0.3722;
457.5000;0.7123;-0.3722;
457.8000;0.7114;-0.3796;
458.1000;0.7114;-0.3796;
458.4000;0.7106;-0.3845;
458.7000;0.7114;-0.3894;
459.0000;0.7106;-0.3796;
459.3000;0.7147;-0.3697;
459.6000;0.7123;-0.3697;
459.9000;0.7114;-0.3672;
460.2000;0.7147;-0.3598;
460.5000;0.7106;-0.3672;
460.8000;0.7114;-0.3648;
461.1000;0.7139;-0.3672;
461.4000;0.7123;-0.3598;
461.7000;0.7114;-0.3574;
462.0000;0.7098;-0.3648;
462.3000;0.7123;-0.3648;
462.6000;0.7106;-0.3648;
462.9000;0.7114;-0.3598;
463.2000;0.7171;-0.3426;
463.5000;0.7098;-0.3549;
463.8000;0.7106;-0.3524;
464.1000;0.7123;-0.3475;
464.4000;0.7114;-0.3327;
464.7000;0.7106;-0.3352;
465.0000;0.7123;-0.3278;
465.3000;0.7123;-0.3253;
465.6000;0.7236;-0.3007;
465.9000;0.7098;-0.3377;
466.2000;0.7106;-0.3475;
466.5000;0.7098;-0.3549;
466.8000;0.7082;-0.3648;
467.1000;0.7106;-0.3598;
467.4000;0.7131;-0.3549;
467.7000;0.7114;-0.3598;
468.0000;0.7074;-0.3648;
468.3000;0.7106;-0.3549;
468.6000;0.7098;-0.3549;
468.9000;0.7106;-0.3524;
469.2000;0.7106;-0.3451;
469.5000;0.7131;-0.3500;
469.8000;0.7171;-0.3451;
470.1000;0.7106;-0.3574;
470.4000;0.7114;-0.3451;
470.7000;0.7188;-0.3204;
471.0000;0.7123;-0.3377;
471.3000;0.7114;-0.3401;
471.6000;0.7090;-0.3426;
471.9000;0.7114;-0.3401;
472.2000;0.7196;-0.3179;
472.5000;0.7090;-0.3451;
472.8000;0.7123;-0.3401;
473.1000;0.7106;-0.3451;
473.4000;0.7147;-0.3401;
473.7000;0.7114;-0.3451;
474.0000;0.7098;-0.3524;
474.3000;0.7139;-0.3500;
474.6000;0.7123;-0.3574;
474.9000;0.7114;-0.3697;
475.2000;0.7123;-0.3672;
475.5000;0.7123;-0.3623;
475.8000;0.7123;-0.3524;
476.1000;0.7171;-0.3377;
476.4000;0.7123;-0.3524;
476.7000;0.7139;-0.3451;
477.0000;0.7139;-0.3278;
477.3000;0.7123;-0.3327;
477.6000;0.7066;-0.3426;
477.9000;0.7123;-0.3401;
478.2000;0.7114;-0.3451;
478.5000;0.7123;-0.3500;
478.8000;0.7147;-0.3549;
479.1000;0.7123;-0.3500;
479.4000;0.7123;-0.3549;
479.7000;0.7114;-0.3549;
480.0000;0.7074;-0.3746;
480.3000;0.7114;-0.3623;
480.6000;0.7123;-0.3574;
480.9000;0.7057;-0.3722;
481.2000;0.7123;-0.3574;
481.5000;0.7114;-0.3574;
481.8000;0.7106;-0.3598;
482.1000;0.7131;-0.3524;
482.4000;0.7123;-0.3500;
482.7000;0.7098;-0.3648;
483.0000;0.7123;-0.3623;
483.3000;0.7123;-0.3549;
483.6000;0.7114;-0.3475;
483.9000;0.7090;-0.3426;
484.2000;0.7114;-0.3278;
484.5000;0.7098;-0.3327;
484.8000;0.7123;-0.3352;
485.1000;0.7090;-0.3475;
485.4000;0.7106;-0.3426;
485.7000;0.7163;-0.3229;
486.0000;0.7123;-0.3377;
486.3000;0.7131;-0.3377;
486.6000;0.7171;-0.3278;
486.9000;0.7114;-0.3401;
487.2000;0.7131;-0.3303;
487.5000;0.7131;-0.3229;
487.8000;0.7106;-0.3278;
488.1000;0.7106;-0.3278;
488.4000;0.7139;-0.3204;
488.7000;0.7188;-0.3056;
489.0000;0.7114;-0.3303;
489.3000;0.7204;-0.3056;
489.6000;0.7114;-0.3278;
489.9000;0.7090;-0.3500;
490.2000;0.7106;-0.3500;
490.5000;0.7196;-0.3229;
490.8000;0.7098;-0.3500;
491.1000;0.7139;-0.3524;
491.4000;0.7147;-0.3500;
491.7000;0.7114;-0.3623;
492.0000;0.7131;-0.3500;
492.3000;0.7114;-0.3426;
492.6000;0.7114;-0.3327;
492.9000;0.7082;-0.3303;
493.2000;0.7163;-0.3179;
493.5000;0.7000;-0.3549;
493.8000;0.7098;-0.3352;
494.1000;0.7106;-0.3377;
494.4000;0.7082;-0.3451;
494.7000;0.7098;-0.3451;
495.0000;0.7114;-0.3475;
495.3000;0.7098;-0.3598;
495.6000;0.7082;-0.3722;
495.9000;0.7106;-0.3598;
496.2000;0.7114;-0.3623;
496.5000;0.7106;-0.3648;
496.8000;0.7106;-0.3722;
497.1000;0.7106;-0.3598;
497.4000;0.7139;-0.3524;
497.7000;0.7106;-0.3524;
498.0000;0.7114;-0.3475;
498.3000;0.7114;-0.3500;
498.6000;0.7131;-0.3426;
498.9000;0.7106;-0.3377;
499.2000;0.7098;-0.3401;
499.5000;0.7098;-0.3451;
499.8000;0.7147;-0.3253;
500.1000;0.7114;-0.3327;
500.4000;0.7114;-0.3278;
500.7000;0.7041;-0.3598;
501.0000;0.7106;-0.3377;
501.3000;0.7098;-0.3426;
501.6000;0.7114;-0.3451;
501.9000;0.7057;-0.3524;
502.2000;0.7106;-0.3278;
502.5000;0.7074;-0.3377;
502.8000;0.7123;-0.3253;
503.1000;0.7090;-0.3303;
503.4000;0.7106;-0.3278;
503.7000;0.7098;-0.3253;
504.0000;0.7098;-0.3401;
504.3000;0.7106;-0.3303;
504.6000;0.7106;-0.3278;
504.9000;0.7082;-0.3327;
505.2000;0.7098;-0.3426;
505.5000;0.7123;-0.3500;
505.8000;0.7098;-0.3549;
506.1000;0.7098;-0.3475;
506.4000;0.7123;-0.3500;
506.7000;0.7090;-0.3623;
507.0000;0.7139;-0.3598;
507.3000;0.7090;-0.3697;
507.6000;0.7098;-0.3648;
507.9000;0.7098;-0.3524;
508.2000;0.7074;-0.3524;
508.5000;0.7082;-0.3475;
508.8000;0.7114;-0.3426;
509.1000;0.7131;-0.3377;
509.4000;0.7090;-0.3352;
509.7000;0.7114;-0.3377;
510.0000;0.7131;-0.3451;
510.3000;0.7082;-0.3574;
510.6000;0.7106;-0.3451;
510.9000;0.7106;-0.3426;
511.2000;0.7131;-0.3303;
511.5000;0.7066;-0.3574;
511.8000;0.7155;-0.3352;
512.1000;0.7114;-0.3377;
512.4000;0.7098;-0.3426;
512.7000;0.7098;-0.3451;
513.0000;0.7123;-0.3500;
513.3000;0.7098;-0.3697;
513.6000;0.7082;-0.3722;
513.9000;0.7114;-0.3672;
514.2000;0.7114;-0.3598;
514.5000;0.7049;-0.3796;
514.8000;0.7106;-0.3697;
515.1000;0.7106;-0.3672;
515.4000;0.7106;-0.3524;
515.7000;0.7041;-0.3672;
516.0000;0.7066;-0.3549;
516.3000;0.7106;-0.3475;
516.6000;0.7147;-0.3327;
516.9000;0.7106;-0.3377;
517.2000;0.7049;-0.3574;
517.5000;0.7098;-0.3451;
517.8000;0.7106;-0.3377;
518.1000;0.7139;-0.3352;
518.4000;0.7098;-0.3475;
518.7000;0.7098;-0.3524;
519.0000;0.7147;-0.3426;
519.3000;0.7106;-0.3426;
519.6000;0.7106;-0.3451;
519.9000;0.7114;-0.3475;
520.2000;0.7106;-0.3475;
520.5000;0.7098;-0.3475;
520.8000;0.7131;-0.3426;
521.1000;0.7090;-0.3574;
521.4000;0.7106;-0.3475;
521.7000;0.7041;-0.3598;
522.0000;0.7139;-0.3401;
522.3000;0.7049;-0.3722;
522.6000;0.7106;-0.3524;
522.9000;0.7131;-0.3451;
523.2000;0.7114;-0.3451;
523.5000;0.7098;-0.3549;
523.8000;0.7131;-0.3475;
524.1000;0.7114;-0.3500;
524.4000;0.7106;-0.3426;
524.7000;0.7131;-0.3377;
525.0000;0.7106;-0.3451;
525.3000;0.7017;-0.3623;
525.6000;0.7123;-0.3377;
525.9000;0.7106;-0.3377;
526.2000;0.7098;-0.3352;
526.5000;0.7090;-0.3500;
526.8000;0.7098;-0.3475;
527.1000;0.7090;-0.3549;
527.4000;0.7123;-0.3451;
527.7000;0.7098;-0.3574;
528.0000;0.7114;-0.3549;
528.3000;0.7082;-0.3648;
528.6000;0.7098;-0.3648;
528.9000;0.7074;-0.3697;
529.2000;0.7106;-0.3598;
529.5000;0.7106;-0.3524;
529.8000;0.7098;-0.3574;
530.1000;0.7106;-0.3623;
530.4000;0.7098;-0.3598;
530.7000;0.7123;-0.3475;
531.0000;0.7106;-0.3524;
531.3000;0.7106;-0.3500;
531.6000;0.7123;-0.3598;
531.9000;0.7114;-0.3648;
532.2000;0.7090;-0.3722;
532.5000;0.7098;-0.3672;
532.8000;0.7106;-0.3574;
533.1000;0.7155;-0.3500;
533.4000;0.7106;-0.3598;
533.7000;0.7090;-0.3524;
534.0000;0.7098;-0.3451;
534.3000;0.7041;-0.3697;
534.6000;0.7074;-0.3623;
534.9000;0.7098;-0.3524;
535.2000;0.7066;-0.3500;
535.5000;0.7098;-0.3524;
535.8000;0.7114;-0.3574;
536.1000;0.7066;-0.3672;
536.4000;0.7106;-0.3598;
536.7000;0.7082;-0.3598;
537.0000;0.7123;-0.3500;
537.3000;0.7131;-0.3475;
537.6000;0.7114;-0.3352;
537.9000;0.7106;-0.3426;
538.2000;0.7106;-0.3451;
538.5000;0.7106;-0.3451;
538.8000;0.7098;-0.3451;
539.1000;0.7098;-0.3352;
539.4000;0.7106;-0.3253;
539.7000;0.7090;-0.3278;
540.0000;0.7098;-0.3327;
540.3000;0.7098;-0.3303;
540.6000;0.7106;-0.3327;
540.9000;0.7106;-0.3327;
541.2000;0.7074;-0.3401;
541.5000;0.7082;-0.3451;
541.8000;0.7074;-0.3426;
542.1000;0.7066;-0.3401;
542.4000;0.7098;-0.3327;
542.7000;0.7090;-0.3377;
543.0000;0.7098;-0.3327;
543.3000;0.7098;-0.3401;
543.6000;0.7114;-0.3327;
543.9000;0.7082;-0.3475;
544.2000;0.7090;-0.3451;
544.5000;0.7114;-0.3426;
544.8000;0.7082;-0.3451;
545.1000;0.7082;-0.3500;
545.4000;0.7082;-0.3475;
545.7000;0.7123;-0.3377;
546.0000;0.7098;-0.3352;
546.3000;0.7114;-0.3253;
546.6000;0.7098;-0.3327;
546.9000;0.7098;-0.3327;
547.2000;0.7098;-0.3278;
547.5000;0.7082;-0.3401;
547.8000;0.7106;-0.3352;
548.1000;0.7114;-0.3426;
548.4000;0.7098;-0.3352;
548.7000;0.7106;-0.3401;
549.0000;0.7090;-0.3426;
549.3000;0.7074;-0.3377;
549.6000;0.7106;-0.3327;
549.9000;0.7106;-0.3327;
550.2000;0.7123;-0.3253;
550.5000;0.7082;-0.3303;
550.8000;0.7090;-0.3253;
551.1000;0.7106;-0.3229;
551.4000;0.7082;-0.3229;
551.7000;0.7090;-0.3253;
552.0000;0.7082;-0.3204;
552.3000;0.7098;-0.3229;
552.6000;0.7090;-0.3229;
552.9000;0.7106;-0.3130;
553.2000;0.7082;-0.3155;
553.5000;0.7106;-0.3056;
553.8000;0.7098;-0.3130;
554.1000;0.7098;-0.3155;
554.4000;0.7106;-0.3204;
554.7000;0.7106;-0.3105;
555.0000;0.7106;-0.3105;
555.3000;0.7057;-0.3204;
555.6000;0.7106;-0.3105;
555.9000;0.7098;-0.3105;
556.2000;0.7114;-0.3179;
556.5000;0.7098;-0.3204;
556.8000;0.7106;-0.3253;
557.1000;0.7114;-0.3179;
557.4000;0.7171;-0.3032;
557.7000;0.7114;-0.3155;
558.0000;0.7123;-0.3229;
558.3000;0.7090;-0.3303;
558.6000;0.7196;-0.3130;
558.9000;0.7114;-0.3327;
559.2000;0.7098;-0.3377;
559.5000;0.7098;-0.3500;
559.8000;0.7123;-0.3451;
560.1000;0.7098;-0.3475;
560.4000;0.7106;-0.3352;
560.7000;0.7090;-0.3426;
561.0000;0.7163;-0.3303;
561.3000;0.7098;-0.3377;
561.6000;0.7179;-0.3130;
561.9000;0.7049;-0.3401;
562.2000;0.7147;-0.3229;
562.5000;0.7098;-0.3401;
562.8000;0.7082;-0.3377;
563.1000;0.7082;-0.3401;
563.4000;0.7074;-0.3401;
563.7000;0.7090;-0.3377;
564.0000;0.7090;-0.3377;
564.3000;0.7082;-0.3303;
564.6000;0.7090;-0.3229;
564.9000;0.7098;-0.3155;
565.2000;0.7098;-0.3130;
565.5000;0.7074;-0.3253;
565.8000;0.7090;-0.3253;
566.1000;0.7090;-0.3278;
566.4000;0.7082;-0.3278;
566.7000;0.7082;-0.3303;
567.0000;0.7106;-0.3204;
567.3000;0.7114;-0.3229;
567.6000;0.7123;-0.3155;
567.9000;0.7106;-0.3229;
568.2000;0.7114;-0.3204;
568.5000;0.7090;-0.3229;
568.8000;0.7106;-0.3204;
569.1000;0.7098;-0.3204;
569.4000;0.7098;-0.3303;
569.7000;0.7106;-0.3352;
570.0000;0.7074;-0.3352;
570.3000;0.7098;-0.3377;
570.6000;0.7098;-0.3327;
570.9000;0.7114;-0.3303;
571.2000;0.7098;-0.3327;
571.5000;0.7114;-0.3327;
571.8000;0.7090;-0.3451;
572.1000;0.7098;-0.3377;
572.4000;0.7049;-0.3426;
572.7000;0.6976;-0.3598;
573.0000;0.7098;-0.3303;
573.3000;0.7106;-0.3253;
573.6000;0.7098;-0.3278;
573.9000;0.7090;-0.3327;
574.2000;0.7082;-0.3278;
574.5000;0.7066;-0.3278;
574.8000;0.7057;-0.3377;
575.1000;0.7082;-0.3303;
575.4000;0.7090;-0.3327;
575.7000;0.7082;-0.3352;
576.0000;0.7074;-0.3451;
576.3000;0.7090;-0.3500;
576.6000;0.7114;-0.3352;
576.9000;0.7106;-0.3426;
577.2000;0.7082;-0.3500;
577.5000;0.7106;-0.3426;
577.8000;0.7090;-0.3401;
578.1000;0.7098;-0.3377;
578.4000;0.7090;-0.3327;
578.7000;0.7114;-0.3155;
579.0000;0.7098;-0.3179;
579.3000;0.7082;-0.3204;
579.6000;0.7098;-0.3229;
579.9000;0.7057;-0.3327;
580.2000;0.7082;-0.3377;
580.5000;0.7090;-0.3426;
580.8000;0.7114;-0.3327;
581.1000;0.7090;-0.3352;
581.4000;0.7090;-0.3377;
581.7000;0.7131;-0.3253;
582.0000;0.7131;-0.3303;
582.3000;0.7082;-0.3303;
582.6000;0.7147;-0.3105;
582.9000;0.7106;-0.3179;
583.2000;0.7098;-0.3155;
583.5000;0.7131;-0.3032;
583.8000;0.7033;-0.3352;
584.1000;0.7098;-0.3130;
584.4000;0.7090;-0.3204;
584.7000;0.7090;-0.3253;
585.0000;0.7057;-0.3327;
585.3000;0.7082;-0.3327;
585.6000;0.7114;-0.3278;
585.9000;0.7082;-0.3303;
586.2000;0.7041;-0.3327;
586.5000;0.7066;-0.3253;
586.8000;0.7106;-0.3130;
587.1000;0.7082;-0.3105;
587.4000;0.7090;-0.3105;
587.7000;0.7098;-0.3081;
588.0000;0.7139;-0.3056;
588.3000;0.7090;-0.3204;
588.6000;0.7082;-0.3278;
588.9000;0.7074;-0.3352;
589.2000;0.7098;-0.3278;
589.5000;0.7123;-0.3056;
589.8000;0.7114;-0.3056;
590.1000;0.7090;-0.3105;
590.4000;0.7082;-0.3155;
590.7000;0.7106;-0.3155;
591.0000;0.7106;-0.3278;
591.3000;0.7123;-0.3278;
591.6000;0.7090;-0.3327;
591.9000;0.7098;-0.3426;
592.2000;0.7106;-0.3426;
592.5000;0.7090;-0.3500;
592.8000;0.7098;-0.3500;
593.1000;0.7123;-0.3451;
593.4000;0.7123;-0.3475;
593.7000;0.7106;-0.3574;
594.0000;0.7123;-0.3549;
594.3000;0.7106;-0.3623;
594.6000;0.7106;-0.3524;
594.9000;0.7106;-0.3426;
595.2000;0.7082;-0.3451;
595.5000;0.7114;-0.3377;
595.8000;0.7131;-0.3253;
596.1000;0.7082;-0.3401;
596.4000;0.7106;-0.3377;
596.7000;0.7090;-0.3426;
597.0000;0.7163;-0.3253;
597.3000;0.7090;-0.3524;
597.6000;0.7090;-0.3549;
597.9000;0.7090;-0.3549;
598.2000;0.7106;-0.3524;
598.5000;0.7098;-0.3524;
598.8000;0.7090;-0.3549;
599.1000;0.7066;-0.3574;
599.4000;0.7082;-0.3598;
599.7000;0.7066;-0.3549;
600.0000;0.7074;-0.3500;
600.3000;0.7066;-0.3549;
600.6000;0.7000;-0.3722;
600.9000;0.6862;-0.3968;
601.2000;0.6724;-0.4141;
601.5000;0.6569;-0.4338;
601.8000;0.6422;-0.4584;
602.1000;0.6300;-0.4781;
602.4000;0.6138;-0.5077;
602.7000;0.6048;-0.5348;
603.0000;0.5934;-0.5669;
603.3000;0.5828;-0.5866;
603.6000;0.5788;-0.5915;
603.9000;0.5690;-0.6137;
604.2000;0.5584;-0.6433;
604.5000;0.5543;-0.6457;
604.8000;0.5462;-0.6556;
605.1000;0.5397;-0.6630;
605.4000;0.5348;-0.6581;
605.7000;0.5291;-0.6605;
606.0000;0.5242;-0.6753;
606.3000;0.5234;-0.6778;
606.6000;0.5136;-0.6901;
606.9000;0.5112;-0.6852;
607.2000;0.5088;-0.6901;
607.5000;0.5063;-0.7000;
607.8000;0.5022;-0.7049;
608.1000;0.5014;-0.7074;
608.4000;0.4965;-0.7172;
608.7000;0.4925;-0.7197;
609.0000;0.4949;-0.7098;
609.3000;0.4884;-0.7271;
609.6000;0.4851;-0.7345;
609.9000;0.4843;-0.7246;
610.2000;0.4835;-0.7369;
610.5000;0.4803;-0.7517;
610.8000;0.4811;-0.7419;
611.1000;0.4762;-0.7468;
611.4000;0.4754;-0.7493;
611.7000;0.4737;-0.7616;
612.0000;0.4729;-0.7640;
612.3000;0.4705;-0.7665;
612.6000;0.4681;-0.7714;
612.9000;0.4672;-0.7788;
613.2000;0.4681;-0.7813;
613.5000;0.4689;-0.7764;
613.8000;0.4664;-0.7764;
614.1000;0.4640;-0.7813;
614.4000;0.4656;-0.7887;
614.7000;0.4640;-0.7887;
615.0000;0.4624;-0.7813;
615.3000;0.4624;-0.7788;
615.6000;0.4558;-0.7912;
615.9000;0.4583;-0.7788;
616.2000;0.4575;-0.7887;
616.5000;0.4550;-0.8059;
616.8000;0.4510;-0.8257;
617.1000;0.4550;-0.8183;
617.4000;0.4534;-0.8133;
617.7000;0.4534;-0.8109;
618.0000;0.4518;-0.8059;
618.3000;0.4493;-0.8035;
618.6000;0.4444;-0.8207;
618.9000;0.4477;-0.8133;
619.2000;0.4485;-0.8109;
619.5000;0.4493;-0.8084;
619.8000;0.4510;-0.8059;
620.1000;0.4444;-0.8232;
620.4000;0.4412;-0.8281;
620.7000;0.4461;-0.8059;
621.0000;0.4477;-0.7961;
621.3000;0.4469;-0.7912;
621.6000;0.4461;-0.7887;
621.9000;0.4436;-0.7985;
622.2000;0.4444;-0.7985;
622.5000;0.4428;-0.8010;
622.8000;0.4428;-0.8035;
623.1000;0.4412;-0.8059;
623.4000;0.4420;-0.8084;
623.7000;0.4420;-0.8133;
624.0000;0.4420;-0.8084;
624.3000;0.4396;-0.8035;
624.6000;0.4412;-0.7912;
624.9000;0.4412;-0.7936;
625.2000;0.4363;-0.8035;
625.5000;0.4371;-0.7912;
625.8000;0.4379;-0.7961;
626.1000;0.4396;-0.7936;
626.4000;0.4371;-0.8035;
626.7000;0.4371;-0.8035;
627.0000;0.4363;-0.8183;
627.3000;0.4404;-0.8084;
627.6000;0.4371;-0.8133;
627.9000;0.4355;-0.8158;
628.2000;0.4290;-0.8306;
628.5000;0.4371;-0.8133;
628.8000;0.4330;-0.8158;
629.1000;0.4306;-0.8330;
629.4000;0.4322;-0.8330;
629.7000;0.4330;-0.8232;
630.0000;0.4314;-0.8306;
630.3000;0.4339;-0.8257;
630.6000;0.4298;-0.8355;
630.9000;0.4314;-0.8232;
631.2000;0.4290;-0.8183;
631.5000;0.4314;-0.8109;
631.8000;0.4298;-0.8109;
632.1000;0.4298;-0.8059;
632.4000;0.4298;-0.8010;
632.7000;0.4314;-0.7985;
633.0000;0.4274;-0.8010;
633.3000;0.4274;-0.8059;
633.6000;0.4298;-0.7985;
633.9000;0.4282;-0.8010;
634.2000;0.4298;-0.7985;
634.5000;0.4290;-0.8035;
634.8000;0.4298;-0.8010;
635.1000;0.4298;-0.8084;
635.4000;0.4298;-0.8035;
635.7000;0.4282;-0.8035;
636.0000;0.4265;-0.8084;
636.3000;0.4274;-0.8133;
636.6000;0.4290;-0.8109;
636.9000;0.4290;-0.8109;
637.2000;0.4265;-0.8232;
637.5000;0.4241;-0.8183;
637.8000;0.4274;-0.8109;
638.1000;0.4241;-0.8207;
638.4000;0.4257;-0.8281;
638.7000;0.4257;-0.8281;
639.0000;0.4265;-0.8281;
639.3000;0.4257;-0.8232;
639.6000;0.4306;-0.8133;
639.9000;0.4257;-0.8281;
640.2000;0.4265;-0.8207;
640.5000;0.4322;-0.8084;
640.8000;0.4257;-0.8207;
641.1000;0.4249;-0.8207;
641.4000;0.4249;-0.8207;
641.7000;0.4200;-0.8257;
642.0000;0.4233;-0.8257;
642.3000;0.4168;-0.8404;
642.6000;0.4208;-0.8380;
642.9000;0.4192;-0.8355;
643.2000;0.4208;-0.8306;
643.5000;0.4151;-0.8429;
643.8000;0.4233;-0.8306;
644.1000;0.4208;-0.8281;
644.4000;0.4208;-0.8232;
644.7000;0.4241;-0.8109;
645.0000;0.4184;-0.8330;
645.3000;0.4225;-0.8306;
645.6000;0.4225;-0.8158;
645.9000;0.4151;-0.8232;
646.2000;0.4168;-0.8109;
646.5000;0.4208;-0.8059;
646.8000;0.4192;-0.8158;
647.1000;0.4217;-0.8207;
647.4000;0.4200;-0.8306;
647.7000;0.4192;-0.8330;
648.0000;0.4192;-0.8306;
648.3000;0.4208;-0.8257;
648.6000;0.4168;-0.8355;
648.9000;0.4192;-0.8306;
649.2000;0.4208;-0.8232;
649.5000;0.4176;-0.8330;
649.8000;0.4192;-0.8404;
650.1000;0.4176;-0.8355;
650.4000;0.4192;-0.8355;
650.7000;0.4192;-0.8429;
651.0000;0.4168;-0.8404;
651.3000;0.4176;-0.8232;
651.6000;0.4176;-0.8257;
651.9000;0.4168;-0.8306;
652.2000;0.4184;-0.8257;
652.5000;0.4168;-0.8257;
652.8000;0.4168;-0.8306;
653.1000;0.4225;-0.8109;
653.4000;0.4168;-0.8183;
653.7000;0.4135;-0.8306;
654.0000;0.4176;-0.8232;
654.3000;0.4151;-0.8257;
654.6000;0.4160;-0.8183;
654.9000;0.4127;-0.8207;
655.2000;0.4151;-0.8183;
655.5000;0.4249;-0.7912;
655.8000;0.4151;-0.8257;
656.1000;0.4119;-0.8281;
656.4000;0.4135;-0.8232;
656.7000;0.4143;-0.8207;
657.0000;0.4119;-0.8355;
657.3000;0.4127;-0.8330;
657.6000;0.4054;-0.8503;
657.9000;0.4127;-0.8257;
658.2000;0.4143;-0.8207;
658.5000;0.4176;-0.8133;
658.8000;0.4135;-0.8281;
659.1000;0.4111;-0.8330;
659.4000;0.4119;-0.8380;
659.7000;0.4143;-0.8207;
660.0000;0.4208;-0.8010;
660.3000;0.4127;-0.8257;
660.6000;0.4143;-0.8232;
660.9000;0.4111;-0.8281;
661.2000;0.4127;-0.8257;
661.5000;0.4127;-0.8306;
661.8000;0.4127;-0.8257;
662.1000;0.4119;-0.8306;
662.4000;0.4111;-0.8281;
662.7000;0.4111;-0.8257;
663.0000;0.4111;-0.8232;
663.3000;0.4062;-0.8380;
663.6000;0.4111;-0.8232;
663.9000;0.4111;-0.8355;
664.2000;0.4127;-0.8330;
664.5000;0.4119;-0.8232;
664.8000;0.4119;-0.8207;
665.1000;0.4119;-0.8207;
665.4000;0.4111;-0.8355;
665.7000;0.4103;-0.8355;
666.0000;0.4119;-0.8281;
666.3000;0.4119;-0.8207;
666.6000;0.4119;-0.8207;
666.9000;0.4103;-0.8257;
667.2000;0.4111;-0.8257;
667.5000;0.4111;-0.8306;
667.8000;0.4037;-0.8503;
668.1000;0.4103;-0.8257;
668.4000;0.4062;-0.8306;
668.7000;0.4070;-0.8232;
669.0000;0.4094;-0.8183;
669.3000;0.4078;-0.8232;
669.6000;0.4078;-0.8183;
669.9000;0.4127;-0.8133;
670.2000;0.4086;-0.8232;
670.5000;0.4086;-0.8281;
670.8000;0.4094;-0.8306;
671.1000;0.4094;-0.8306;
671.4000;0.4094;-0.8207;
671.7000;0.4078;-0.8232;
672.0000;0.4070;-0.8207;
672.3000;0.4078;-0.8281;
672.6000;0.4200;-0.7912;
672.9000;0.4070;-0.8207;
673.2000;0.4094;-0.8232;
673.5000;0.4078;-0.8207;
673.8000;0.4086;-0.8084;
674.1000;0.4078;-0.8010;
674.4000;0.4168;-0.7813;
674.7000;0.4062;-0.8010;
675.0000;0.4070;-0.8084;
675.3000;0.4078;-0.8084;
675.6000;0.4135;-0.8035;
675.9000;0.4078;-0.8183;
676.2000;0.4062;-0.8183;
676.5000;0.4070;-0.8183;
676.8000;0.4078;-0.8133;
677.1000;0.4054;-0.8183;
677.4000;0.4070;-0.8183;
677.7000;0.4078;-0.8232;
678.0000;0.4111;-0.8084;
678.3000;0.4062;-0.8183;
678.6000;0.4005;-0.8281;
678.9000;0.4103;-0.8035;
679.2000;0.4078;-0.8207;
679.5000;0.4062;-0.8158;
679.8000;0.4062;-0.8133;
680.1000;0.4005;-0.8232;
680.4000;0.4062;-0.8109;
680.7000;0.4029;-0.8183;
681.0000;0.4168;-0.7862;
681.3000;0.4062;-0.8133;
681.6000;0.4046;-0.8207;
681.9000;0.4103;-0.8010;
682.2000;0.4054;-0.8109;
682.5000;0.4062;-0.8109;
682.8000;0.4037;-0.8084;
683.1000;0.4054;-0.8035;
683.4000;0.4054;-0.8109;
683.7000;0.4021;-0.8158;
684.0000;0.4046;-0.8084;
684.3000;0.4037;-0.8035;
684.6000;0.4037;-0.8010;
684.9000;0.4029;-0.8035;
685.2000;0.4037;-0.8059;
685.5000;0.4094;-0.7936;
685.8000;0.4037;-0.8133;
686.1000;0.4046;-0.8257;
686.4000;0.4037;-0.8207;
686.7000;0.4046;-0.8158;
687.0000;0.4046;-0.8035;
687.3000;0.4037;-0.8084;
687.6000;0.4029;-0.8059;
687.9000;0.4103;-0.7838;
688.2000;0.4005;-0.8207;
688.5000;0.4037;-0.8059;
688.8000;0.4037;-0.8035;
689.1000;0.4037;-0.7985;
689.4000;0.4021;-0.8059;
689.7000;0.4021;-0.8084;
690.0000;0.4046;-0.8183;
690.3000;0.4029;-0.8330;
690.6000;0.4029;-0.8207;
690.9000;0.4013;-0.8232;
691.2000;0.4005;-0.8232;
691.5000;0.4037;-0.8084;
691.8000;0.4005;-0.8183;
692.1000;0.4013;-0.8183;
692.4000;0.4054;-0.8035;
692.7000;0.4021;-0.8035;
693.0000;0.4013;-0.8035;
693.3000;0.4013;-0.8084;
693.6000;0.4005;-0.8109;
693.9000;0.4005;-0.8207;
694.2000;0.4013;-0.8084;
694.5000;0.4005;-0.8059;
694.8000;0.4005;-0.8109;
695.1000;0.3997;-0.8158;
695.4000;0.4021;-0.8133;
695.7000;0.3997;-0.8158;
696.0000;0.4037;-0.8010;
696.3000;0.4013;-0.7985;
696.6000;0.3989;-0.8035;
696.9000;0.3989;-0.7936;
697.2000;0.4021;-0.7838;
697.5000;0.4070;-0.7690;
697.8000;0.4013;-0.7813;
698.1000;0.4005;-0.7862;
698.4000;0.3989;-0.7985;
698.7000;0.3997;-0.7985;
699.0000;0.3989;-0.7936;
699.3000;0.4005;-0.7936;
699.6000;0.4005;-0.7912;
699.9000;0.3997;-0.7887;
700.2000;0.3964;-0.7912;
700.5000;0.3940;-0.7961;
700.8000;0.4005;-0.7813;
701.1000;0.3972;-0.7887;
701.4000;0.4005;-0.7862;
701.7000;0.4013;-0.7813;
702.0000;0.3989;-0.7838;
702.3000;0.3980;-0.7764;
702.6000;0.3997;-0.7764;
702.9000;0.3997;-0.7838;
703.2000;0.3964;-0.7887;
703.5000;0.3980;-0.7887;
703.8000;0.3956;-0.7961;
704.1000;0.3997;-0.7887;
704.4000;0.3997;-0.7912;
704.7000;0.3989;-0.7936;
705.0000;0.4005;-0.7887;
705.3000;0.3980;-0.7936;
705.6000;0.3980;-0.7961;
705.9000;0.3980;-0.7912;
706.2000;0.3980;-0.7838;
706.5000;0.3980;-0.7912;
706.8000;0.3989;-0.7912;
707.1000;0.3972;-0.7862;
707.4000;0.3972;-0.7887;
707.7000;0.3989;-0.7887;
708.0000;0.3980;-0.7838;
708.3000;0.3980;-0.7912;
708.6000;0.3972;-0.7887;
708.9000;0.3956;-0.7862;
709.2000;0.3972;-0.7838;
709.5000;0.3964;-0.7936;
709.8000;0.3964;-0.7936;
710.1000;0.3972;-0.7887;
710.4000;0.3964;-0.7887;
710.7000;0.3989;-0.7788;
711.0000;0.3956;-0.7887;
711.3000;0.3940;-0.7862;
711.6000;0.3972;-0.7862;
711.9000;0.3980;-0.7813;
712.2000;0.3964;-0.7862;
712.5000;0.3956;-0.7788;
712.8000;0.3972;-0.7813;
713.1000;0.3964;-0.7739;
713.4000;0.3964;-0.7714;
713.7000;0.3964;-0.7739;
714.0000;0.3956;-0.7813;
714.3000;0.3956;-0.7838;
714.6000;0.3940;-0.7862;
714.9000;0.3932;-0.7936;
715.2000;0.3948;-0.7936;
715.5000;0.3956;-0.7912;
715.8000;0.3940;-0.7985;
716.1000;0.3956;-0.7912;
716.4000;0.3948;-0.7838;
716.7000;0.3948;-0.8010;
717.0000;0.3948;-0.7936;
717.3000;0.3932;-0.7961;
717.6000;0.3956;-0.7961;
717.9000;0.3948;-0.8084;
718.2000;0.3932;-0.8059;
718.5000;0.3964;-0.7936;
718.8000;0.3964;-0.7912;
719.1000;0.3989;-0.7936;
719.4000;0.3940;-0.7961;
719.7000;0.3940;-0.7961;
720.0000;0.3948;-0.7961;
720.3000;0.3948;-0.8010;
720.6000;0.3923;-0.7985;
720.9000;0.3948;-0.7961;
721.2000;0.3972;-0.7936;
721.5000;0.3940;-0.8059;
721.8000;0.3940;-0.8035;
722.1000;0.3867;-0.8207;
722.4000;0.3956;-0.7936;
722.7000;0.3956;-0.7887;
723.0000;0.3956;-0.7862;
723.3000;0.3972;-0.7838;
723.6000;0.3923;-0.7936;
723.9000;0.3932;-0.7912;
724.2000;0.3923;-0.7961;
724.5000;0.3923;-0.8010;
724.8000;0.3923;-0.8010;
725.1000;0.3875;-0.8133;
725.4000;0.3940;-0.7912;
725.7000;0.3940;-0.7961;
726.0000;0.3923;-0.8109;
726.3000;0.3940;-0.8035;
726.6000;0.3907;-0.8084;
726.9000;0.3932;-0.8059;
727.2000;0.3891;-0.8183;
727.5000;0.3956;-0.8010;
727.8000;0.3915;-0.8109;
728.1000;0.3915;-0.8084;
728.4000;0.3915;-0.8059;
728.7000;0.3923;-0.8035;
729.0000;0.3923;-0.8035;
729.3000;0.3923;-0.8059;
729.6000;0.3932;-0.8035;
729.9000;0.3932;-0.8035;
730.2000;0.3948;-0.8010;
730.5000;0.3932;-0.8133;
730.8000;0.3923;-0.8158;
731.1000;0.3907;-0.8158;
731.4000;0.3923;-0.8281;
731.7000;0.3940;-0.8207;
732.0000;0.3915;-0.8232;
732.3000;0.3940;-0.8183;
732.6000;0.3923;-0.8207;
732.9000;0.3923;-0.8158;
733.2000;0.3940;-0.8133;
733.5000;0.3907;-0.8183;
733.8000;0.3932;-0.8158;
734.1000;0.3932;-0.8133;
734.4000;0.3907;-0.8084;
734.7000;0.3923;-0.8084;
735.0000;0.3915;-0.8109;
735.3000;0.3915;-0.8084;
735.6000;0.3907;-0.8158;
735.9000;0.3932;-0.8059;
736.2000;0.3923;-0.8059;
736.5000;0.3842;-0.8330;
736.8000;0.3923;-0.8010;
737.1000;0.3932;-0.8035;
737.4000;0.3923;-0.8059;
737.7000;0.3915;-0.8084;
738.0000;0.3932;-0.7961;
738.3000;0.3932;-0.7862;
738.6000;0.3923;-0.7862;
738.9000;0.3948;-0.7912;
739.2000;0.3899;-0.8109;
739.5000;0.3891;-0.8109;
739.8000;0.3972;-0.7961;
740.1000;0.3932;-0.8158;
740.4000;0.3923;-0.8133;
740.7000;0.3907;-0.8084;
741.0000;0.3907;-0.8035;
741.3000;0.3932;-0.7961;
741.6000;0.3923;-0.8035;
741.9000;0.3834;-0.8183;
742.2000;0.3875;-0.8059;
742.5000;0.3915;-0.7912;
742.8000;0.3907;-0.7912;
743.1000;0.3980;-0.7714;
743.4000;0.3915;-0.7813;
743.7000;0.3907;-0.7788;
744.0000;0.3923;-0.7813;
744.3000;0.3899;-0.7887;
744.6000;0.3923;-0.7838;
744.9000;0.3875;-0.8010;
745.2000;0.3867;-0.8035;
745.5000;0.3883;-0.8010;
745.8000;0.3899;-0.7862;
746.1000;0.3907;-0.7912;
746.4000;0.3899;-0.7985;
746.7000;0.3883;-0.7961;
747.0000;0.3899;-0.7985;
747.3000;0.3907;-0.7887;
747.6000;0.3915;-0.7912;
747.9000;0.3899;-0.8010;
748.2000;0.3867;-0.8059;
748.5000;0.3883;-0.7985;
748.8000;0.3932;-0.7912;
749.1000;0.3907;-0.8010;
749.4000;0.3907;-0.7961;
749.7000;0.3907;-0.7985;
750.0000;0.3907;-0.7887;
750.3000;0.3915;-0.7912;
750.6000;0.3875;-0.8059;
750.9000;0.3867;-0.8109;
751.2000;0.3907;-0.7985;
751.5000;0.3891;-0.7985;
751.8000;0.3915;-0.7936;
752.1000;0.3867;-0.7985;
752.4000;0.3891;-0.7961;
752.7000;0.3907;-0.7862;
753.0000;0.3899;-0.7887;
753.3000;0.3883;-0.7961;
753.6000;0.3915;-0.7862;
753.9000;0.3891;-0.7985;
754.2000;0.3883;-0.8010;
754.5000;0.3907;-0.7936;
754.8000;0.3907;-0.7887;
755.1000;0.3891;-0.7862;
755.4000;0.3875;-0.7887;
755.7000;0.3891;-0.7936;
756.0000;0.3899;-0.7936;
756.3000;0.3883;-0.7985;
756.6000;0.3907;-0.7985;
756.9000;0.3899;-0.8010;
757.2000;0.3867;-0.8084;
757.5000;0.3875;-0.8183;
757.8000;0.3842;-0.8183;
758.1000;0.3867;-0.8133;
758.4000;0.3883;-0.7985;
758.7000;0.3826;-0.8133;
759.0000;0.3899;-0.7887;
759.3000;0.3891;-0.7862;
759.6000;0.3883;-0.7936;
759.9000;0.3875;-0.7985;
760.2000;0.3907;-0.7887;
760.5000;0.3875;-0.7936;
760.8000;0.3875;-0.7912;
761.1000;0.3875;-0.7936;
761.4000;0.3883;-0.7912;
761.7000;0.3883;-0.7985;
762.0000;0.3883;-0.7985;
762.3000;0.3875;-0.8010;
762.6000;0.3883;-0.7936;
762.9000;0.3907;-0.7862;
763.2000;0.3883;-0.7985;
763.5000;0.3891;-0.7961;
763.8000;0.3891;-0.7936;
764.1000;0.3891;-0.7985;
764.4000;0.3891;-0.7985;
764.7000;0.3891;-0.7985;
765.0000;0.3850;-0.8035;
765.3000;0.3875;-0.7985;
765.6000;0.3850;-0.7985;
765.9000;0.3850;-0.7985;
766.2000;0.3875;-0.7985;
766.5000;0.3891;-0.7936;
766.8000;0.3858;-0.8035;
767.1000;0.3875;-0.8010;
767.4000;0.3923;-0.7912;
767.7000;0.3891;-0.8010;
768.0000;0.3883;-0.7961;
768.3000;0.3883;-0.7887;
768.6000;0.3858;-0.8035;
768.9000;0.3867;-0.8035;
769.2000;0.3867;-0.8109;
769.5000;0.3858;-0.8059;
769.8000;0.3875;-0.8010;
770.1000;0.3875;-0.8010;
770.4000;0.3867;-0.7961;
770.7000;0.3867;-0.7862;
771.0000;0.3834;-0.7887;
771.3000;0.3867;-0.7838;
771.6000;0.3875;-0.7813;
771.9000;0.3923;-0.7714;
772.2000;0.3858;-0.7912;
772.5000;0.3867;-0.7985;
772.8000;0.3867;-0.8035;
773.1000;0.3883;-0.8084;
773.4000;0.3858;-0.8010;
773.7000;0.3867;-0.8059;
774.0000;0.3948;-0.7862;
774.3000;0.3858;-0.8084;
774.6000;0.3883;-0.7936;
774.9000;0.3850;-0.7912;
775.2000;0.3940;-0.7788;
775.5000;0.3834;-0.8109;
775.8000;0.3907;-0.7961;
776.1000;0.3867;-0.8059;
776.4000;0.3842;-0.8059;
776.7000;0.3858;-0.8035;
777.0000;0.3867;-0.8010;
777.3000;0.3850;-0.8059;
777.6000;0.3867;-0.8010;
777.9000;0.3858;-0.7887;
778.2000;0.3867;-0.7739;
778.5000;0.3858;-0.7813;
778.8000;0.3842;-0.7936;
779.1000;0.3875;-0.7862;
779.4000;0.3842;-0.7912;
779.7000;0.3940;-0.7665;
780.0000;0.3858;-0.7912;
780.3000;0.3867;-0.7912;
780.6000;0.3867;-0.7838;
780.9000;0.3850;-0.7862;
781.2000;0.3867;-0.7887;
781.5000;0.3850;-0.7936;
781.8000;0.3810;-0.8010;
782.1000;0.3891;-0.7838;
782.4000;0.3883;-0.7936;
782.7000;0.3858;-0.7985;
783.0000;0.3858;-0.7961;
783.3000;0.3850;-0.7936;
783.6000;0.3842;-0.7985;
783.9000;0.3753;-0.8133;
784.2000;0.3858;-0.7764;
784.5000;0.3858;-0.7640;
784.8000;0.3858;-0.7640;
785.1000;0.3834;-0.7665;
785.4000;0.3850;-0.7714;
785.7000;0.3850;-0.7739;
786.0000;0.3850;-0.7813;
786.3000;0.3850;-0.7887;
786.6000;0.3858;-0.7961;
786.9000;0.3850;-0.8035;
787.2000;0.3867;-0.8035;
787.5000;0.3858;-0.7961;
787.8000;0.3826;-0.8035;
788.1000;0.3842;-0.7912;
788.4000;0.3850;-0.7936;
788.7000;0.3834;-0.7936;
789.0000;0.3826;-0.7985;
789.3000;0.3842;-0.7887;
789.6000;0.3858;-0.7813;
789.9000;0.3842;-0.7912;
790.2000;0.3842;-0.7838;
790.5000;0.3777;-0.8010;
790.8000;0.3867;-0.7813;
791.1000;0.3858;-0.7862;
791.4000;0.3850;-0.7961;
791.7000;0.3867;-0.7961;
792.0000;0.3842;-0.7961;
792.3000;0.3858;-0.7912;
792.6000;0.3858;-0.7936;
792.9000;0.3810;-0.8059;
793.2000;0.3834;-0.7985;
793.5000;0.3923;-0.7764;
793.8000;0.3883;-0.7838;
794.1000;0.3834;-0.7838;
794.4000;0.3834;-0.7862;
794.7000;0.3842;-0.7838;
795.0000;0.3891;-0.7813;
795.3000;0.3850;-0.7961;
795.6000;0.3850;-0.7961;
795.9000;0.3810;-0.8084;
796.2000;0.3850;-0.8207;
796.5000;0.3810;-0.8380;
796.8000;0.3834;-0.8232;
797.1000;0.3834;-0.8158;
797.4000;0.3842;-0.8133;
797.7000;0.3850;-0.8084;
798.0000;0.3891;-0.7961;
798.3000;0.3842;-0.8133;
798.6000;0.3834;-0.8207;
798.9000;0.3834;-0.8158;
799.2000;0.3842;-0.8133;
799.5000;0.3834;-0.8084;
799.8000;0.3867;-0.7912;
800.1000;0.3826;-0.7912;
800.4000;0.3810;-0.8010;
800.7000;0.3834;-0.7985;
801.0000;0.3842;-0.7961;
801.3000;0.3834;-0.8084;
801.6000;0.3810;-0.8158;
801.9000;0.3826;-0.8109;
802.2000;0.3826;-0.7985;
802.5000;0.3818;-0.8035;
802.8000;0.3834;-0.8010;
803.1000;0.3818;-0.8059;
803.4000;0.3842;-0.7985;
803.7000;0.3850;-0.7936;
804.0000;0.3842;-0.7912;
804.3000;0.3850;-0.7813;
804.6000;0.3842;-0.7862;
804.9000;0.3842;-0.7838;
805.2000;0.3842;-0.7813;
805.5000;0.3867;-0.7764;
805.8000;0.3842;-0.7838;
806.1000;0.3842;-0.7788;
806.4000;0.3834;-0.7788;
806.7000;0.3891;-0.7739;
807.0000;0.3818;-0.7838;
807.3000;0.3842;-0.7838;
807.6000;0.3850;-0.7788;
807.9000;0.3826;-0.7862;
808.2000;0.3826;-0.7838;
808.5000;0.3826;-0.7887;
808.8000;0.3842;-0.7887;
809.1000;0.3826;-0.7887;
809.4000;0.3826;-0.7936;
809.7000;0.3826;-0.7961;
810.0000;0.3826;-0.7961;
810.3000;0.3834;-0.7887;
810.6000;0.3834;-0.7838;
810.9000;0.3826;-0.7788;
811.2000;0.3826;-0.7714;
811.5000;0.3785;-0.7838;
811.8000;0.3818;-0.7813;
812.1000;0.3744;-0.7936;
812.4000;0.3810;-0.7739;
812.7000;0.3826;-0.7739;
813.0000;0.3810;-0.7788;
813.3000;0.3810;-0.7813;
813.6000;0.3801;-0.7862;
813.9000;0.3875;-0.7690;
814.2000;0.3826;-0.7862;
814.5000;0.3818;-0.7887;
814.8000;0.3842;-0.7813;
815.1000;0.3818;-0.7764;
815.4000;0.3858;-0.7714;
815.7000;0.3785;-0.7961;
816.0000;0.3818;-0.7838;
816.3000;0.3826;-0.7838;
816.6000;0.3883;-0.7616;
816.9000;0.3818;-0.7813;
817.2000;0.3826;-0.7912;
817.5000;0.3907;-0.7665;
817.8000;0.3826;-0.7838;
818.1000;0.3818;-0.7862;
818.4000;0.3834;-0.7788;
818.7000;0.3834;-0.7788;
819.0000;0.3810;-0.7788;
819.3000;0.3834;-0.7739;
819.6000;0.3818;-0.7764;
819.9000;0.3801;-0.7838;
820.2000;0.3826;-0.7912;
820.5000;0.3834;-0.7961;
820.8000;0.3720;-0.8207;
821.1000;0.3810;-0.8010;
821.4000;0.3842;-0.7985;
821.7000;0.3818;-0.7985;
822.0000;0.3826;-0.8010;
822.3000;0.3826;-0.8010;
822.6000;0.3826;-0.7936;
822.9000;0.3818;-0.7961;
823.2000;0.3818;-0.7936;
823.5000;0.3810;-0.7985;
823.8000;0.3801;-0.7887;
824.1000;0.3826;-0.7862;
824.4000;0.3818;-0.7936;
824.7000;0.3818;-0.8010;
825.0000;0.3834;-0.8010;
825.3000;0.3810;-0.7936;
825.6000;0.3810;-0.7912;
825.9000;0.3826;-0.7936;
826.2000;0.3785;-0.7862;
826.5000;0.3826;-0.7838;
826.8000;0.3793;-0.8010;
827.1000;0.3777;-0.8109;
827.4000;0.3801;-0.8084;
827.7000;0.3801;-0.8059;
828.0000;0.3826;-0.8010;
828.3000;0.3818;-0.7936;
828.6000;0.3810;-0.7887;
828.9000;0.3801;-0.7985;
829.2000;0.3826;-0.7961;
829.5000;0.3818;-0.7961;
829.8000;0.3818;-0.7936;
830.1000;0.3810;-0.7912;
830.4000;0.3801;-0.7887;
830.7000;0.3818;-0.7887;
831.0000;0.3801;-0.7739;
831.3000;0.3793;-0.7690;
831.6000;0.3810;-0.7714;
831.9000;0.3801;-0.7739;
832.2000;0.3785;-0.7764;
832.5000;0.3810;-0.7714;
832.8000;0.3810;-0.7714;
833.1000;0.3826;-0.7690;
833.4000;0.3810;-0.7813;
833.7000;0.3801;-0.7838;
834.0000;0.3793;-0.7912;
834.3000;0.3810;-0.7838;
834.6000;0.3801;-0.7887;
834.9000;0.3793;-0.7788;
835.2000;0.3810;-0.7813;
835.5000;0.3810;-0.7813;
835.8000;0.3810;-0.7788;
836.1000;0.3818;-0.7838;
836.4000;0.3769;-0.7912;
836.7000;0.3801;-0.7838;
837.0000;0.3769;-0.7961;
837.3000;0.3810;-0.7862;
837.6000;0.3785;-0.7838;
837.9000;0.3793;-0.7813;
838.2000;0.3801;-0.7838;
838.5000;0.3834;-0.7813;
838.8000;0.3793;-0.7936;
839.1000;0.3801;-0.7887;
839.4000;0.3801;-0.7862;
839.7000;0.3801;-0.7838;
840.0000;0.3810;-0.7985;
840.3000;0.3818;-0.7936;
840.6000;0.3801;-0.7936;
840.9000;0.3801;-0.8010;
841.2000;0.3777;-0.8035;
841.5000;0.3793;-0.7887;
841.8000;0.3801;-0.7862;
842.1000;0.3801;-0.7813;
842.4000;0.3810;-0.7788;
842.7000;0.3769;-0.7887;
843.0000;0.3801;-0.7838;
843.3000;0.3810;-0.7813;
843.6000;0.3801;-0.7813;
843.9000;0.3818;-0.7739;
844.2000;0.3793;-0.7764;
844.5000;0.3777;-0.7838;
844.8000;0.3826;-0.7813;
845.1000;0.3801;-0.7764;
845.4000;0.3810;-0.7764;
845.7000;0.3810;-0.7690;
846.0000;0.3793;-0.7714;
846.3000;0.3801;-0.7690;
846.6000;0.3785;-0.7764;
846.9000;0.3801;-0.7788;
847.2000;0.3801;-0.7912;
847.5000;0.3761;-0.8035;
847.8000;0.3793;-0.8035;
848.1000;0.3785;-0.7936;
848.4000;0.3785;-0.7862;
848.7000;0.3801;-0.7887;
849.0000;0.3793;-0.7838;
849.3000;0.3801;-0.7862;
849.6000;0.3793;-0.7887;
849.9000;0.3801;-0.7887;
850.2000;0.3793;-0.7961;
850.5000;0.3793;-0.8010;
850.8000;0.3793;-0.8010;
851.1000;0.3810;-0.7912;
851.4000;0.3793;-0.7961;
851.7000;0.3777;-0.7985;
852.0000;0.3793;-0.8010;
852.3000;0.3793;-0.8010;
852.6000;0.3785;-0.8035;
852.9000;0.3777;-0.8035;
853.2000;0.3793;-0.8059;
853.5000;0.3777;-0.8084;
853.8000;0.3793;-0.7985;
854.1000;0.3785;-0.7985;
854.4000;0.3793;-0.7985;
854.7000;0.3810;-0.8010;
855.0000;0.3785;-0.8109;
855.3000;0.3777;-0.8232;
855.6000;0.3785;-0.8232;
855.9000;0.3793;-0.8207;
856.2000;0.3842;-0.8059;
856.5000;0.3801;-0.8158;
856.8000;0.3801;-0.8183;
857.1000;0.3793;-0.8281;
857.4000;0.3801;-0.8183;
857.7000;0.3801;-0.8133;
858.0000;0.3793;-0.8035;
858.3000;0.3753;-0.8133;
858.6000;0.3785;-0.8035;
858.9000;0.3761;-0.8084;
859.2000;0.3769;-0.8109;
859.5000;0.3785;-0.8133;
859.8000;0.3801;-0.8084;
860.1000;0.3793;-0.8109;
860.4000;0.3785;-0.8084;
860.7000;0.3777;-0.8158;
861.0000;0.3785;-0.8133;
861.3000;0.3850;-0.8109;
861.6000;0.3801;-0.8183;
861.9000;0.3744;-0.8355;
862.2000;0.3785;-0.8281;
862.5000;0.3753;-0.8404;
862.8000;0.3753;-0.8404;
863.1000;0.3769;-0.8330;
863.4000;0.3801;-0.8158;
863.7000;0.3761;-0.8232;
864.0000;0.3777;-0.8183;
864.3000;0.3785;-0.8109;
864.6000;0.3736;-0.8133;
864.9000;0.3777;-0.8133;
865.2000;0.3801;-0.8059;
865.5000;0.3801;-0.8035;
865.8000;0.3769;-0.8109;
866.1000;0.3842;-0.7936;
866.4000;0.3785;-0.8010;
866.7000;0.3777;-0.8035;
867.0000;0.3736;-0.8084;
867.3000;0.3793;-0.7862;
867.6000;0.3744;-0.7887;
867.9000;0.3777;-0.7838;
868.2000;0.3769;-0.7862;
868.5000;0.3785;-0.7813;
868.8000;0.3769;-0.7862;
869.1000;0.3842;-0.7764;
869.4000;0.3777;-0.7936;
869.7000;0.3793;-0.7912;
870.0000;0.3793;-0.7887;
870.3000;0.3785;-0.7985;
870.6000;0.3769;-0.8059;
870.9000;0.3769;-0.8084;
871.2000;0.3785;-0.8059;
871.5000;0.3801;-0.7936;
871.8000;0.3785;-0.7887;
872.1000;0.3785;-0.7838;
872.4000;0.3785;-0.7764;
872.7000;0.3785;-0.7764;
873.0000;0.3777;-0.7838;
873.3000;0.3769;-0.7961;
873.6000;0.3777;-0.7936;
873.9000;0.3785;-0.7961;
874.2000;0.3785;-0.8035;
874.5000;0.3761;-0.8010;
874.8000;0.3777;-0.7961;
875.1000;0.3793;-0.7862;
875.4000;0.3687;-0.8183;
875.7000;0.3769;-0.8035;
876.0000;0.3769;-0.8109;
876.3000;0.3785;-0.8109;
876.6000;0.3769;-0.8133;
876.9000;0.3769;-0.8207;
877.2000;0.3769;-0.8207;
877.5000;0.3777;-0.8183;
877.8000;0.3761;-0.8207;
878.1000;0.3801;-0.8084;
878.4000;0.3769;-0.8207;
878.7000;0.3777;-0.8257;
879.0000;0.3785;-0.8232;
879.3000;0.3761;-0.8281;
879.6000;0.3793;-0.8207;
879.9000;0.3769;-0.8207;
880.2000;0.3720;-0.8281;
880.5000;0.3736;-0.8257;
880.8000;0.3744;-0.8330;
881.1000;0.3769;-0.8232;
881.4000;0.3761;-0.8183;
881.7000;0.3785;-0.8133;
882.0000;0.3687;-0.8404;
882.3000;0.3769;-0.8109;
882.6000;0.3801;-0.7985;
882.9000;0.3712;-0.8207;
883.2000;0.3785;-0.8059;
883.5000;0.3753;-0.8183;
883.8000;0.3777;-0.8183;
884.1000;0.3777;-0.8207;
884.4000;0.3785;-0.8232;
884.7000;0.3753;-0.8281;
885.0000;0.3793;-0.8183;
885.3000;0.3785;-0.8158;
885.6000;0.3793;-0.8084;
885.9000;0.3744;-0.8183;
886.2000;0.3785;-0.8084;
886.5000;0.3720;-0.8232;
886.8000;0.3785;-0.8084;
887.1000;0.3834;-0.7912;
887.4000;0.3753;-0.8158;
887.7000;0.3728;-0.8257;
888.0000;0.3785;-0.8084;
888.3000;0.3777;-0.7936;
888.6000;0.3883;-0.7566;
888.9000;0.3777;-0.7887;
889.2000;0.3769;-0.7912;
889.5000;0.3785;-0.7887;
889.8000;0.3720;-0.8084;
890.1000;0.3777;-0.8059;
890.4000;0.3769;-0.8035;
890.7000;0.3785;-0.7961;
891.0000;0.3753;-0.8035;
891.3000;0.3744;-0.8084;
891.6000;0.3842;-0.7862;
891.9000;0.3777;-0.8035;
892.2000;0.3761;-0.8133;
892.5000;0.3793;-0.7985;
892.8000;0.3761;-0.8035;
893.1000;0.3761;-0.8109;
893.4000;0.3753;-0.8035;
893.7000;0.3769;-0.8035;
894.0000;0.3777;-0.8010;
894.3000;0.3785;-0.8010;
894.6000;0.3777;-0.8010;
894.9000;0.3793;-0.7887;
895.2000;0.3769;-0.7912;
895.5000;0.3777;-0.7862;
895.8000;0.3793;-0.7887;
896.1000;0.3785;-0.7862;
896.4000;0.3753;-0.8035;
896.7000;0.3777;-0.7912;
897.0000;0.3777;-0.7936;
897.3000;0.3769;-0.7961;
897.6000;0.3761;-0.8035;
897.9000;0.3744;-0.7985;
898.2000;0.3785;-0.7985;
898.5000;0.3769;-0.8010;
898.8000;0.3712;-0.8084;
899.1000;0.3761;-0.7887;
899.4000;0.3769;-0.7838;
899.7000;0.3761;-0.7862;
900.0000;0.3744;-0.7961;
900.3000;0.3801;-0.7961;
900.6000;0.3769;-0.8109;
900.9000;0.3777;-0.8133;
901.2000;0.3769;-0.8133;
901.5000;0.3769;-0.8109;
901.8000;0.3793;-0.8059;
902.1000;0.3744;-0.8059;
902.4000;0.3769;-0.8010;
902.7000;0.3753;-0.7912;
903.0000;0.3826;-0.7739;
903.3000;0.3810;-0.7838;
903.6000;0.3793;-0.7961;
903.9000;0.3753;-0.8010;
904.2000;0.3777;-0.8010;
904.5000;0.3769;-0.8109;
904.8000;0.3769;-0.8109;
905.1000;0.3793;-0.8059;
905.4000;0.3753;-0.8158;
905.7000;0.3777;-0.8133;
906.0000;0.3696;-0.8232;
906.3000;0.3761;-0.7936;
906.6000;0.3761;-0.7961;
906.9000;0.3769;-0.7985;
907.2000;0.3777;-0.8035;
907.5000;0.3753;-0.8158;
907.8000;0.3753;-0.8084;
908.1000;0.3761;-0.8059;
908.4000;0.3769;-0.7985;
908.7000;0.3753;-0.8084;
909.0000;0.3720;-0.8232;
909.3000;0.3777;-0.8084;
909.6000;0.3818;-0.7912;
909.9000;0.3761;-0.8059;
910.2000;0.3777;-0.8084;
910.5000;0.3687;-0.8281;
910.8000;0.3777;-0.7912;
911.1000;0.3769;-0.7961;
911.4000;0.3801;-0.7788;
911.7000;0.3785;-0.7862;
912.0000;0.3777;-0.7936;
912.3000;0.3785;-0.7912;
912.6000;0.3769;-0.7912;
912.9000;0.3785;-0.7887;
913.2000;0.3769;-0.7788;
913.5000;0.3753;-0.7788;
913.8000;0.3769;-0.7788;
914.1000;0.3761;-0.7838;
914.4000;0.3736;-0.7936;
914.7000;0.3801;-0.7788;
915.0000;0.3769;-0.7838;
915.3000;0.3736;-0.7912;
915.6000;0.3753;-0.7912;
915.9000;0.3736;-0.7985;
916.2000;0.3761;-0.8059;
916.5000;0.3777;-0.8109;
916.8000;0.3761;-0.8109;
917.1000;0.3777;-0.8035;
917.4000;0.3761;-0.8109;
917.7000;0.3761;-0.8133;
918.0000;0.3761;-0.8059;
918.3000;0.3761;-0.7961;
918.6000;0.3769;-0.7912;
918.9000;0.3769;-0.7961;
919.2000;0.3761;-0.7961;
919.5000;0.3769;-0.7961;
919.8000;0.3785;-0.7862;
920.1000;0.3744;-0.8010;
920.4000;0.3761;-0.8035;
920.7000;0.3753;-0.8010;
921.0000;0.3761;-0.7961;
921.3000;0.3720;-0.7912;
921.6000;0.3753;-0.7862;
921.9000;0.3769;-0.7813;
922.2000;0.3761;-0.7788;
922.5000;0.3687;-0.8059;
922.8000;0.3769;-0.7862;
923.1000;0.3761;-0.7912;
923.4000;0.3753;-0.7788;
923.7000;0.3753;-0.7813;
924.0000;0.3761;-0.7739;
924.3000;0.3744;-0.7838;
924.6000;0.3753;-0.7813;
924.9000;0.3785;-0.7813;
925.2000;0.3777;-0.7838;
925.5000;0.3761;-0.8035;
925.8000;0.3785;-0.7936;
926.1000;0.3761;-0.8010;
926.4000;0.3753;-0.7936;
926.7000;0.3744;-0.7936;
927.0000;0.3761;-0.7838;
927.3000;0.3761;-0.7739;
927.6000;0.3744;-0.7690;
927.9000;0.3769;-0.7690;
928.2000;0.3720;-0.7838;
928.5000;0.3744;-0.7813;
928.8000;0.3761;-0.7838;
929.1000;0.3712;-0.7936;
929.4000;0.3728;-0.7862;
929.7000;0.3753;-0.7912;
930.0000;0.3744;-0.7961;
930.3000;0.3728;-0.8035;
930.6000;0.3720;-0.8010;
930.9000;0.3720;-0.8109;
931.2000;0.3753;-0.8035;
931.5000;0.3744;-0.8133;
931.8000;0.3761;-0.8109;
932.1000;0.3753;-0.8109;
932.4000;0.3769;-0.8109;
932.7000;0.3761;-0.8035;
933.0000;0.3777;-0.8035;
933.3000;0.3761;-0.8059;
933.6000;0.3761;-0.8059;
933.9000;0.3769;-0.8059;
934.2000;0.3761;-0.8035;
934.5000;0.3736;-0.8059;
934.8000;0.3785;-0.8059;
935.1000;0.3753;-0.8059;
935.4000;0.3753;-0.8035;
935.7000;0.3753;-0.8010;
936.0000;0.3728;-0.8010;
936.3000;0.3753;-0.7862;
936.6000;0.3761;-0.7912;
936.9000;0.3744;-0.7838;
937.2000;0.3777;-0.7862;
937.5000;0.3761;-0.7985;
937.8000;0.3761;-0.7912;
938.1000;0.3753;-0.7887;
938.4000;0.3753;-0.7862;
938.7000;0.3761;-0.7961;
939.0000;0.3777;-0.7887;
939.3000;0.3761;-0.7862;
939.6000;0.3744;-0.7838;
939.9000;0.3769;-0.7788;
940.2000;0.3769;-0.7764;
940.5000;0.3736;-0.7739;
940.8000;0.3736;-0.7813;
941.1000;0.3753;-0.7739;
941.4000;0.3728;-0.7838;
941.7000;0.3793;-0.7764;
942.0000;0.3736;-0.7912;
942.3000;0.3753;-0.7887;
942.6000;0.3761;-0.7764;
942.9000;0.3769;-0.7813;
943.2000;0.3736;-0.7961;
943.5000;0.3736;-0.7912;
943.8000;0.3785;-0.7764;
944.1000;0.3777;-0.7788;
944.4000;0.3769;-0.7838;
944.7000;0.3744;-0.7985;
945.0000;0.3753;-0.8010;
945.3000;0.3720;-0.8035;
945.6000;0.3761;-0.7961;
945.9000;0.3736;-0.7912;
946.2000;0.3736;-0.7936;
946.5000;0.3818;-0.7714;
946.8000;0.3761;-0.7838;
947.1000;0.3744;-0.7838;
947.4000;0.3761;-0.7862;
947.7000;0.3777;-0.7887;
948.0000;0.3769;-0.7862;
948.3000;0.3769;-0.7838;
948.6000;0.3753;-0.7813;
948.9000;0.3744;-0.7936;
949.2000;0.3744;-0.8010;
949.5000;0.3744;-0.7985;
949.8000;0.3736;-0.8109;
950.1000;0.3753;-0.8059;
950.4000;0.3753;-0.8035;
950.7000;0.3769;-0.7985;
951.0000;0.3785;-0.7961;
951.3000;0.3761;-0.8059;
951.6000;0.3744;-0.8109;
951.9000;0.3769;-0.8010;
952.2000;0.3720;-0.8183;
952.5000;0.3736;-0.8109;
952.8000;0.3736;-0.8183;
953.1000;0.3753;-0.8059;
953.4000;0.3744;-0.8010;
953.7000;0.3728;-0.8035;
954.0000;0.3728;-0.7985;
954.3000;0.3761;-0.7936;
954.6000;0.3712;-0.7985;
954.9000;0.3704;-0.7961;
955.2000;0.3753;-0.7838;
955.5000;0.3720;-0.7862;
955.8000;0.3736;-0.7838;
956.1000;0.3720;-0.7887;
956.4000;0.3736;-0.7887;
956.7000;0.3785;-0.7838;
957.0000;0.3785;-0.7813;
957.3000;0.3744;-0.8010;
957.6000;0.3655;-0.8232;
957.9000;0.3736;-0.8109;
958.2000;0.3736;-0.8084;
958.5000;0.3761;-0.7985;
958.8000;0.3761;-0.7985;
959.1000;0.3736;-0.8059;
959.4000;0.3761;-0.8059;
959.7000;0.3736;-0.8084;
960.0000;0.3736;-0.8059;
960.3000;0.3736;-0.8183;
960.6000;0.3679;-0.8306;
960.9000;0.3769;-0.8035;
961.2000;0.3744;-0.8059;
961.5000;0.3728;-0.8035;
961.8000;0.3753;-0.7961;
962.1000;0.3744;-0.7961;
962.4000;0.3736;-0.8059;
962.7000;0.3785;-0.7887;
963.0000;0.3736;-0.7936;
963.3000;0.3720;-0.7961;
963.6000;0.3744;-0.8010;
963.9000;0.3736;-0.8109;
964.2000;0.3712;-0.8257;
964.5000;0.3736;-0.8133;
964.8000;0.3728;-0.8183;
965.1000;0.3744;-0.8232;
965.4000;0.3744;-0.8133;
965.7000;0.3736;-0.8059;
966.0000;0.3687;-0.8183;
966.3000;0.3728;-0.8133;
966.6000;0.3761;-0.8084;
966.9000;0.3744;-0.8084;
967.2000;0.3753;-0.8010;
967.5000;0.3744;-0.8035;
967.8000;0.3793;-0.7862;
968.1000;0.3761;-0.7985;
968.4000;0.3720;-0.8133;
968.7000;0.3761;-0.8010;
969.0000;0.3777;-0.8035;
969.3000;0.3744;-0.8183;
969.6000;0.3744;-0.8207;
969.9000;0.3728;-0.8257;
970.2000;0.3728;-0.8158;
970.5000;0.3720;-0.8109;
970.8000;0.3720;-0.8059;
971.1000;0.3744;-0.8133;
971.4000;0.3736;-0.8158;
971.7000;0.3753;-0.8183;
972.0000;0.3720;-0.8207;
972.3000;0.3842;-0.7739;
972.6000;0.3728;-0.8010;
972.9000;0.3736;-0.8109;
973.2000;0.3744;-0.8084;
973.5000;0.3744;-0.8183;
973.8000;0.3736;-0.8330;
974.1000;0.3818;-0.8059;
974.4000;0.3736;-0.8306;
974.7000;0.3810;-0.8084;
975.0000;0.3736;-0.8232;
975.3000;0.3777;-0.8035;
975.6000;0.3728;-0.8084;
975.9000;0.3696;-0.8059;
976.2000;0.3704;-0.8035;
976.5000;0.3720;-0.8035;
976.8000;0.3769;-0.8010;
977.1000;0.3810;-0.7985;
977.4000;0.3753;-0.8207;
977.7000;0.3753;-0.8158;
978.0000;0.3728;-0.8158;
978.3000;0.3753;-0.8183;
978.6000;0.3704;-0.8380;
978.9000;0.3753;-0.8306;
979.2000;0.3761;-0.8330;
979.5000;0.3736;-0.8380;
979.8000;0.3826;-0.8035;
980.1000;0.3744;-0.8257;
980.4000;0.3736;-0.8257;
980.7000;0.3696;-0.8404;
981.0000;0.3696;-0.8380;
981.3000;0.3753;-0.8257;
981.6000;0.3696;-0.8257;
981.9000;0.3736;-0.8158;
982.2000;0.3753;-0.8183;
982.5000;0.3777;-0.8109;
982.8000;0.3728;-0.8183;
983.1000;0.3818;-0.7862;
983.4000;0.3736;-0.8133;
983.7000;0.3761;-0.8059;
984.0000;0.3712;-0.8183;
984.3000;0.3769;-0.8059;
984.6000;0.3712;-0.8133;
984.9000;0.3712;-0.8158;
985.2000;0.3761;-0.8084;
985.5000;0.3704;-0.8281;
985.8000;0.3753;-0.8158;
986.1000;0.3761;-0.8109;
986.4000;0.3761;-0.8035;
986.7000;0.3744;-0.8035;
987.0000;0.3736;-0.7985;
987.3000;0.3736;-0.8010;
987.6000;0.3728;-0.8035;
987.9000;0.3728;-0.8084;
988.2000;0.3728;-0.7985;
988.5000;0.3736;-0.7936;
988.8000;0.3777;-0.7788;
989.1000;0.3736;-0.7961;
989.4000;0.3736;-0.7985;
989.7000;0.3744;-0.8059;
990.0000;0.3736;-0.8084;
990.3000;0.3736;-0.8133;
990.6000;0.3736;-0.8158;
990.9000;0.3744;-0.8109;
991.2000;0.3744;-0.8035;
991.5000;0.3736;-0.8059;
991.8000;0.3736;-0.8183;
992.1000;0.3728;-0.8133;
992.4000;0.3761;-0.7961;
992.7000;0.3769;-0.8010;
993.0000;0.3744;-0.8059;
993.3000;0.3728;-0.8084;
993.6000;0.3736;-0.8084;
993.9000;0.3712;-0.8207;
994.2000;0.3753;-0.8133;
994.5000;0.3736;-0.8109;
994.8000;0.3793;-0.8010;
995.1000;0.3736;-0.8183;
995.4000;0.3736;-0.8183;
995.7000;0.3777;-0.8158;
996.0000;0.3785;-0.8158;
996.3000;0.3736;-0.8306;
996.6000;0.3736;-0.8330;
996.9000;0.3712;-0.8404;
997.2000;0.3736;-0.8380;
997.5000;0.3728;-0.8380;
997.8000;0.3753;-0.8355;
998.1000;0.3785;-0.8330;
998.4000;0.3720;-0.8528;
998.7000;0.3736;-0.8429;
999.0000;0.3720;-0.8454;
999.3000;0.3728;-0.8306;
999.6000;0.3728;-0.8330;
999.9000;0.3744;-0.8232;
1000.2000;0.3720;-0.8257;
1000.5000;0.3753;-0.8207;
1000.8000;0.3736;-0.8330;
1001.1000;0.3736;-0.8380;
1001.4000;0.3736;-0.8380;
1001.7000;0.3736;-0.8306;
1002.0000;0.3712;-0.8330;
1002.3000;0.3712;-0.8355;
1002.6000;0.3712;-0.8330;
1002.9000;0.3728;-0.8257;
1003.2000;0.3712;-0.8380;
1003.5000;0.3736;-0.8281;
1003.8000;0.3744;-0.8207;
1004.1000;0.3753;-0.8158;
1004.4000;0.3753;-0.8158;
1004.7000;0.3744;-0.8330;
1005.0000;0.3712;-0.8380;
1005.3000;0.3736;-0.8306;
1005.6000;0.3753;-0.8257;
1005.9000;0.3736;-0.8207;
1006.2000;0.3728;-0.8232;
1006.5000;0.3736;-0.8084;
1006.8000;0.3736;-0.8035;
1007.1000;0.3728;-0.8010;
1007.4000;0.3704;-0.8109;
1007.7000;0.3704;-0.8109;
1008.0000;0.3801;-0.7936;
1008.3000;0.3720;-0.8183;
1008.6000;0.3712;-0.8207;
1008.9000;0.3744;-0.8232;
1009.2000;0.3728;-0.8183;
1009.5000;0.3720;-0.8232;
1009.8000;0.3712;-0.8232;
1010.1000;0.3736;-0.8257;
1010.4000;0.3736;-0.8257;
1010.7000;0.3704;-0.8306;
1011.0000;0.3728;-0.8232;
1011.3000;0.3736;-0.8232;
1011.6000;0.3785;-0.8084;
1011.9000;0.3736;-0.8207;
1012.2000;0.3744;-0.8158;
1012.5000;0.3720;-0.8109;
1012.8000;0.3679;-0.8232;
1013.1000;0.3744;-0.8133;
1013.4000;0.3728;-0.8109;
1013.7000;0.3777;-0.8109;
1014.0000;0.3826;-0.7985;
1014.3000;0.3753;-0.8281;
1014.6000;0.3736;-0.8355;
1014.9000;0.3720;-0.8429;
1015.2000;0.3761;-0.8257;
1015.5000;0.3736;-0.8232;
1015.8000;0.3753;-0.8257;
1016.1000;0.3728;-0.8207;
1016.4000;0.3720;-0.8232;
1016.7000;0.3793;-0.8158;
1017.0000;0.3736;-0.8257;
1017.3000;0.3720;-0.8380;
1017.6000;0.3720;-0.8429;
1017.9000;0.3777;-0.8380;
1018.2000;0.3712;-0.8528;
1018.5000;0.3720;-0.8503;
1018.8000;0.3712;-0.8478;
1019.1000;0.3744;-0.8380;
1019.4000;0.3720;-0.8404;
1019.7000;0.3744;-0.8380;
1020.0000;0.3728;-0.8330;
1020.3000;0.3744;-0.8306;
1020.6000;0.3801;-0.8133;
1020.9000;0.3744;-0.8257;
1021.2000;0.3704;-0.8207;
1021.5000;0.3712;-0.8158;
1021.8000;0.3736;-0.8133;
1022.1000;0.3704;-0.8109;
1022.4000;0.3712;-0.8059;
1022.7000;0.3753;-0.8010;
1023.0000;0.3728;-0.8084;
1023.3000;0.3769;-0.7887;
1023.6000;0.3744;-0.8059;
1023.9000;0.3736;-0.8035;
1024.2000;0.3736;-0.8084;
1024.5000;0.3753;-0.8158;
1024.8000;0.3736;-0.8232;
1025.1000;0.3744;-0.8207;
1025.4000;0.3744;-0.8207;
1025.7000;0.3744;-0.8183;
1026.0000;0.3712;-0.8281;
1026.3000;0.3720;-0.8207;
1026.6000;0.3736;-0.8133;
1026.9000;0.3736;-0.8232;
1027.2000;0.3736;-0.8183;
1027.5000;0.3728;-0.8232;
1027.8000;0.3720;-0.8306;
1028.1000;0.3744;-0.8232;
1028.4000;0.3753;-0.8158;
1028.7000;0.3728;-0.8183;
1029.0000;0.3736;-0.8183;
1029.3000;0.3744;-0.8207;
1029.6000;0.3728;-0.8207;
1029.9000;0.3785;-0.7936;
1030.2000;0.3744;-0.8183;
1030.5000;0.3736;-0.8257;
1030.8000;0.3728;-0.8306;
1031.1000;0.3720;-0.8281;
1031.4000;0.3736;-0.8330;
1031.7000;0.3712;-0.8281;
1032.0000;0.3720;-0.8232;
1032.3000;0.3728;-0.8232;
1032.6000;0.3720;-0.8183;
1032.9000;0.3720;-0.8109;
1033.2000;0.3736;-0.8059;
1033.5000;0.3736;-0.8059;
1033.8000;0.3753;-0.8035;
1034.1000;0.3736;-0.8257;
1034.4000;0.3728;-0.8330;
1034.7000;0.3744;-0.8306;
1035.0000;0.3769;-0.8257;
1035.3000;0.3736;-0.8183;
1035.6000;0.3744;-0.8109;
1035.9000;0.3720;-0.8109;
1036.2000;0.3728;-0.8109;
1036.5000;0.3728;-0.8084;
1036.8000;0.3720;-0.8109;
1037.1000;0.3744;-0.8010;
1037.4000;0.3704;-0.8010;
1037.7000;0.3720;-0.8010;
1038.0000;0.3801;-0.7887;
1038.3000;0.3744;-0.7936;
1038.6000;0.3744;-0.8010;
1038.9000;0.3736;-0.8035;
1039.2000;0.3736;-0.8084;
1039.5000;0.3744;-0.8183;
1039.8000;0.3736;-0.8232;
1040.1000;0.3736;-0.8232;
1040.4000;0.3801;-0.8059;
1040.7000;0.3777;-0.8084;
1041.0000;0.3753;-0.8133;
1041.3000;0.3736;-0.8158;
1041.6000;0.3720;-0.8232;
1041.9000;0.3728;-0.8109;
1042.2000;0.3712;-0.8133;
1042.5000;0.3736;-0.8059;
1042.8000;0.3744;-0.8059;
1043.1000;0.3728;-0.8059;
1043.4000;0.3728;-0.8010;
1043.7000;0.3712;-0.8183;
1044.0000;0.3720;-0.8183;
1044.3000;0.3728;-0.8158;
1044.6000;0.3712;-0.8059;
1044.9000;0.3736;-0.8010;
1045.2000;0.3687;-0.8084;
1045.5000;0.3720;-0.8059;
1045.8000;0.3704;-0.8035;
1046.1000;0.3728;-0.7985;
1046.4000;0.3663;-0.8133;
1046.7000;0.3753;-0.7887;
1047.0000;0.3728;-0.7912;
1047.3000;0.3736;-0.7912;
1047.6000;0.3769;-0.7862;
1047.9000;0.3728;-0.7985;
1048.2000;0.3728;-0.7961;
1048.5000;0.3777;-0.7788;
1048.8000;0.3736;-0.7985;
1049.1000;0.3744;-0.8035;
1049.4000;0.3712;-0.8158;
1049.7000;0.3728;-0.8133;
1050.0000;0.3728;-0.8183;
1050.3000;0.3728;-0.8207;
1050.6000;0.3736;-0.8133;
1050.9000;0.3720;-0.8035;
1051.2000;0.3728;-0.7936;
1051.5000;0.3712;-0.7985;
1051.8000;0.3712;-0.7985;
1052.1000;0.3728;-0.7887;
1052.4000;0.3720;-0.7887;
1052.7000;0.3744;-0.7838;
1053.0000;0.3671;-0.8035;
1053.3000;0.3728;-0.7813;
1053.6000;0.3655;-0.7887;
1053.9000;0.3720;-0.7764;
1054.2000;0.3712;-0.7838;
1054.5000;0.3639;-0.8109;
1054.8000;0.3720;-0.7985;
1055.1000;0.3728;-0.7961;
1055.4000;0.3728;-0.7912;
1055.7000;0.3712;-0.8035;
1056.0000;0.3728;-0.8059;
1056.3000;0.3720;-0.7985;
1056.6000;0.3720;-0.7936;
1056.9000;0.3720;-0.7961;
1057.2000;0.3728;-0.7985;
1057.5000;0.3704;-0.8084;
1057.8000;0.3720;-0.8084;
1058.1000;0.3728;-0.8059;
1058.4000;0.3720;-0.8010;
1058.7000;0.3712;-0.8035;
1059.0000;0.3696;-0.8010;
1059.3000;0.3753;-0.7887;
1059.6000;0.3736;-0.7912;
1059.9000;0.3753;-0.7912;
1060.2000;0.3720;-0.7936;
1060.5000;0.3728;-0.7936;
1060.8000;0.3785;-0.7739;
1061.1000;0.3736;-0.7813;
1061.4000;0.3720;-0.7813;
1061.7000;0.3720;-0.7764;
1062.0000;0.3712;-0.7788;
1062.3000;0.3728;-0.7764;
1062.6000;0.3704;-0.7961;
1062.9000;0.3720;-0.7912;
1063.2000;0.3712;-0.7985;
1063.5000;0.3712;-0.7936;
1063.8000;0.3655;-0.8158;
1064.1000;0.3712;-0.7936;
1064.4000;0.3736;-0.7813;
1064.7000;0.3736;-0.7714;
1065.0000;0.3728;-0.7813;
1065.3000;0.3712;-0.7813;
1065.6000;0.3728;-0.7813;
1065.9000;0.3728;-0.7813;
1066.2000;0.3753;-0.7764;
1066.5000;0.3753;-0.7764;
1066.8000;0.3728;-0.7862;
1067.1000;0.3728;-0.7862;
1067.4000;0.3736;-0.7887;
1067.7000;0.3679;-0.8035;
1068.0000;0.3728;-0.7912;
1068.3000;0.3728;-0.7961;
1068.6000;0.3728;-0.7887;
1068.9000;0.3728;-0.7862;
1069.2000;0.3720;-0.7936;
1069.5000;0.3704;-0.7961;
1069.8000;0.3720;-0.7862;
1070.1000;0.3712;-0.7912;
1070.4000;0.3736;-0.7813;
1070.7000;0.3630;-0.8035;
1071.0000;0.3761;-0.7665;
1071.3000;0.3696;-0.7813;
1071.6000;0.3801;-0.7542;
1071.9000;0.3736;-0.7739;
1072.2000;0.3728;-0.7739;
1072.5000;0.3712;-0.7788;
1072.8000;0.3712;-0.7838;
1073.1000;0.3720;-0.7764;
1073.4000;0.3712;-0.7838;
1073.7000;0.3744;-0.7714;
1074.0000;0.3687;-0.7813;
1074.3000;0.3736;-0.7714;
1074.6000;0.3696;-0.7764;
1074.9000;0.3720;-0.7764;
1075.2000;0.3696;-0.7862;
1075.5000;0.3704;-0.7887;
1075.8000;0.3720;-0.7838;
1076.1000;0.3753;-0.7764;
1076.4000;0.3720;-0.7912;
1076.7000;0.3736;-0.7887;
1077.0000;0.3712;-0.7887;
1077.3000;0.3704;-0.7985;
1077.6000;0.3736;-0.7838;
1077.9000;0.3736;-0.7838;
1078.2000;0.3712;-0.7862;
1078.5000;0.3679;-0.7813;
1078.8000;0.3728;-0.7739;
1079.1000;0.3712;-0.7764;
1079.4000;0.3736;-0.7690;
1079.7000;0.3736;-0.7690;
1080.0000;0.3728;-0.7764;
1080.3000;0.3720;-0.7739;
1080.6000;0.3736;-0.7714;
1080.9000;0.3736;-0.7813;
1081.2000;0.3728;-0.7788;
1081.5000;0.3744;-0.7813;
1081.8000;0.3736;-0.7838;
1082.1000;0.3728;-0.7838;
1082.4000;0.3704;-0.7961;
1082.7000;0.3818;-0.7591;
1083.0000;0.3736;-0.7788;
1083.3000;0.3761;-0.7788;
1083.6000;0.3720;-0.7936;
1083.9000;0.3720;-0.7985;
1084.2000;0.3720;-0.7985;
1084.5000;0.3704;-0.7887;
1084.8000;0.3728;-0.7788;
1085.1000;0.3712;-0.7739;
1085.4000;0.3720;-0.7714;
1085.7000;0.3720;-0.7739;
1086.0000;0.3720;-0.7764;
1086.3000;0.3793;-0.7640;
1086.6000;0.3696;-0.7862;
1086.9000;0.3704;-0.7887;
1087.2000;0.3712;-0.8035;
1087.5000;0.3720;-0.8035;
1087.8000;0.3720;-0.7985;
1088.1000;0.3712;-0.8010;
1088.4000;0.3712;-0.8010;
1088.7000;0.3736;-0.8059;
1089.0000;0.3736;-0.8109;
1089.3000;0.3704;-0.8084;
1089.6000;0.3720;-0.8010;
1089.9000;0.3712;-0.8059;
1090.2000;0.3720;-0.8035;
1090.5000;0.3712;-0.8084;
1090.8000;0.3720;-0.8109;
1091.1000;0.3777;-0.7912;
1091.4000;0.3728;-0.8059;
1091.7000;0.3712;-0.8084;
1092.0000;0.3712;-0.8232;
1092.3000;0.3728;-0.8084;
1092.6000;0.3744;-0.7985;
1092.9000;0.3671;-0.8109;
1093.2000;0.3696;-0.8035;
1093.5000;0.3728;-0.7985;
1093.8000;0.3704;-0.8109;
1094.1000;0.3736;-0.8010;
1094.4000;0.3720;-0.7961;
1094.7000;0.3630;-0.8109;
1095.0000;0.3720;-0.7838;
1095.3000;0.3712;-0.7838;
1095.6000;0.3704;-0.7912;
1095.9000;0.3704;-0.8010;
1096.2000;0.3704;-0.8084;
1096.5000;0.3720;-0.7936;
1096.8000;0.3712;-0.8010;
1097.1000;0.3696;-0.8109;
1097.4000;0.3712;-0.8059;
1097.7000;0.3704;-0.7961;
1098.0000;0.3744;-0.7690;
1098.3000;0.3712;-0.7714;
1098.6000;0.3655;-0.7838;
1098.9000;0.3704;-0.7764;
1099.2000;0.3679;-0.7862;
1099.5000;0.3704;-0.7714;
1099.8000;0.3704;-0.7616;
1100.1000;0.3696;-0.7739;
1100.4000;0.3712;-0.7813;
1100.7000;0.3712;-0.7887;
1101.0000;0.3696;-0.7862;
1101.3000;0.3712;-0.7838;
1101.6000;0.3712;-0.7961;
1101.9000;0.3712;-0.7961;
1102.2000;0.3720;-0.8035;
1102.5000;0.3728;-0.7961;
1102.8000;0.3696;-0.8010;
1103.1000;0.3728;-0.7764;
1103.4000;0.3720;-0.7714;
1103.7000;0.3736;-0.7640;
1104.0000;0.3712;-0.7813;
1104.3000;0.3704;-0.7887;
1104.6000;0.3736;-0.7961;
1104.9000;0.3728;-0.8035;
1105.2000;0.3720;-0.7961;
1105.5000;0.3728;-0.7936;
1105.8000;0.3728;-0.7862;
1106.1000;0.3744;-0.7862;
1106.4000;0.3728;-0.7788;
1106.7000;0.3720;-0.7813;
1107.0000;0.3712;-0.7813;
1107.3000;0.3769;-0.7665;
1107.6000;0.3728;-0.7690;
1107.9000;0.3728;-0.7813;
1108.2000;0.3704;-0.7862;
1108.5000;0.3687;-0.7887;
1108.8000;0.3704;-0.7838;
1109.1000;0.3720;-0.7838;
1109.4000;0.3704;-0.7985;
1109.7000;0.3712;-0.7985;
1110.0000;0.3696;-0.8010;
1110.3000;0.3728;-0.7887;
1110.6000;0.3704;-0.7936;
1110.9000;0.3712;-0.7936;
1111.2000;0.3712;-0.7887;
1111.5000;0.3696;-0.7985;
1111.8000;0.3704;-0.7985;
1112.1000;0.3744;-0.7912;
1112.4000;0.3728;-0.7961;
1112.7000;0.3712;-0.8010;
1113.0000;0.3720;-0.7912;
1113.3000;0.3704;-0.7961;
1113.6000;0.3720;-0.7936;
1113.9000;0.3712;-0.7862;
1114.2000;0.3712;-0.7862;
1114.5000;0.3712;-0.7862;
1114.8000;0.3655;-0.8059;
1115.1000;0.3630;-0.8158;
1115.4000;0.3704;-0.7961;
1115.7000;0.3720;-0.7936;
1116.0000;0.3793;-0.7714;
1116.3000;0.3712;-0.7936;
1116.6000;0.3728;-0.7887;
1116.9000;0.3744;-0.7862;
1117.2000;0.3712;-0.7985;
1117.5000;0.3736;-0.7887;
1117.8000;0.3720;-0.7887;
1118.1000;0.3728;-0.7936;
1118.4000;0.3679;-0.8059;
1118.7000;0.3728;-0.7985;
1119.0000;0.3728;-0.7961;
1119.3000;0.3712;-0.7961;
1119.6000;0.3720;-0.7961;
1119.9000;0.3696;-0.8035;
1120.2000;0.3720;-0.7936;
1120.5000;0.3720;-0.7887;
1120.8000;0.3696;-0.7912;
1121.1000;0.3785;-0.7690;
1121.4000;0.3720;-0.7862;
1121.7000;0.3712;-0.8035;
1122.0000;0.3704;-0.8059;
1122.3000;0.3720;-0.7961;
1122.6000;0.3704;-0.7936;
1122.9000;0.3712;-0.7862;
1123.2000;0.3712;-0.7887;
1123.5000;0.3720;-0.7912;
1123.8000;0.3785;-0.7788;
1124.1000;0.3720;-0.7961;
1124.4000;0.3728;-0.8010;
1124.7000;0.3736;-0.8010;
1125.0000;0.3728;-0.8059;
1125.3000;0.3744;-0.8084;
1125.6000;0.3728;-0.8133;
1125.9000;0.3704;-0.8035;
1126.2000;0.3720;-0.8059;
1126.5000;0.3736;-0.8084;
1126.8000;0.3720;-0.8109;
1127.1000;0.3728;-0.8059;
1127.4000;0.3704;-0.8232;
1127.7000;0.3720;-0.8183;
1128.0000;0.3720;-0.8109;
1128.3000;0.3712;-0.8035;
1128.6000;0.3728;-0.8010;
1128.9000;0.3704;-0.8059;
1129.2000;0.3704;-0.8035;
1129.5000;0.3696;-0.8010;
1129.8000;0.3704;-0.7936;
1130.1000;0.3687;-0.7961;
1130.4000;0.3704;-0.7961;
1130.7000;0.3679;-0.8010;
1131.0000;0.3761;-0.7838;
1131.3000;0.3720;-0.7887;
1131.6000;0.3704;-0.7912;
1131.9000;0.3704;-0.7912;
1132.2000;0.3704;-0.7887;
1132.5000;0.3704;-0.7887;
1132.8000;0.3777;-0.7665;
1133.1000;0.3720;-0.7788;
1133.4000;0.3704;-0.7838;
1133.7000;0.3712;-0.7838;
1134.0000;0.3704;-0.7862;
1134.3000;0.3728;-0.7838;
1134.6000;0.3712;-0.7813;
1134.9000;0.3696;-0.7788;
1135.2000;0.3687;-0.7813;
1135.5000;0.3704;-0.7764;
1135.8000;0.3696;-0.7862;
1136.1000;0.3761;-0.7739;
1136.4000;0.3704;-0.7862;
1136.7000;0.3728;-0.7714;
1137.0000;0.3720;-0.7788;
1137.3000;0.3728;-0.7690;
1137.6000;0.3720;-0.7813;
1137.9000;0.3696;-0.7788;
1138.2000;0.3728;-0.7739;
1138.5000;0.3728;-0.7788;
1138.8000;0.3720;-0.7788;
1139.1000;0.3712;-0.7813;
1139.4000;0.3720;-0.7813;
1139.7000;0.3728;-0.7739;
1140.0000;0.3720;-0.7838;
1140.3000;0.3720;-0.7813;
1140.6000;0.3712;-0.7788;
1140.9000;0.3712;-0.7813;
1141.2000;0.3785;-0.7616;
1141.5000;0.3753;-0.7714;
1141.8000;0.3712;-0.7788;
1142.1000;0.3720;-0.7739;
1142.4000;0.3712;-0.7690;
1142.7000;0.3728;-0.7739;
1143.0000;0.3704;-0.7739;
1143.3000;0.3728;-0.7690;
1143.6000;0.3663;-0.7912;
1143.9000;0.3704;-0.7739;
1144.2000;0.3712;-0.7739;
1144.5000;0.3712;-0.7764;
1144.8000;0.3704;-0.7739;
1145.1000;0.3704;-0.7764;
1145.4000;0.3720;-0.7764;
1145.7000;0.3720;-0.7838;
1146.0000;0.3696;-0.7887;
1146.3000;0.3696;-0.7887;
1146.6000;0.3720;-0.7887;
1146.9000;0.3720;-0.7813;
1147.2000;0.3704;-0.7813;
1147.5000;0.3728;-0.7714;
1147.8000;0.3712;-0.7764;
1148.1000;0.3712;-0.7764;
1148.4000;0.3720;-0.7739;
1148.7000;0.3712;-0.7764;
1149.0000;0.3712;-0.7838;
1149.3000;0.3704;-0.7961;
1149.6000;0.3720;-0.7985;
1149.9000;0.3712;-0.8059;
1150.2000;0.3712;-0.8035;
1150.5000;0.3720;-0.7961;
1150.8000;0.3720;-0.7887;
1151.1000;0.3736;-0.7936;
1151.4000;0.3712;-0.7912;
1151.7000;0.3720;-0.7936;
1152.0000;0.3720;-0.7912;
1152.3000;0.3720;-0.7862;
1152.6000;0.3696;-0.7862;
1152.9000;0.3647;-0.8010;
1153.2000;0.3736;-0.7887;
1153.5000;0.3769;-0.7714;
1153.8000;0.3704;-0.7912;
1154.1000;0.3704;-0.7862;
1154.4000;0.3655;-0.7985;
1154.7000;0.3720;-0.7788;
1155.0000;0.3704;-0.7862;
1155.3000;0.3630;-0.8059;
1155.6000;0.3712;-0.7739;
1155.9000;0.3712;-0.7788;
1156.2000;0.3712;-0.7714;
1156.5000;0.3696;-0.7813;
1156.8000;0.3704;-0.7862;
1157.1000;0.3687;-0.7912;
1157.4000;0.3712;-0.7912;
1157.7000;0.3736;-0.7887;
1158.0000;0.3720;-0.7887;
1158.3000;0.3720;-0.7936;
1158.6000;0.3712;-0.8010;
1158.9000;0.3712;-0.8059;
1159.2000;0.3720;-0.8059;
1159.5000;0.3736;-0.8010;
1159.8000;0.3744;-0.8010;
1160.1000;0.3720;-0.8109;
1160.4000;0.3712;-0.8183;
1160.7000;0.3720;-0.8059;
1161.0000;0.3712;-0.8059;
1161.3000;0.3679;-0.8133;
1161.6000;0.3687;-0.8059;
1161.9000;0.3720;-0.7985;
1162.2000;0.3671;-0.8109;
1162.5000;0.3720;-0.8084;
1162.8000;0.3744;-0.7936;
1163.1000;0.3720;-0.7985;
1163.4000;0.3728;-0.7912;
1163.7000;0.3728;-0.7936;
1164.0000;0.3696;-0.8059;
1164.3000;0.3720;-0.7985;
1164.6000;0.3753;-0.7862;
1164.9000;0.3704;-0.8010;
1165.2000;0.3728;-0.8010;
1165.5000;0.3736;-0.7961;
1165.8000;0.3647;-0.8232;
1166.1000;0.3728;-0.8133;
1166.4000;0.3720;-0.8084;
1166.7000;0.3712;-0.8183;
1167.0000;0.3704;-0.8158;
1167.3000;0.3704;-0.8158;
1167.6000;0.3704;-0.8084;
1167.9000;0.3704;-0.7985;
1168.2000;0.3712;-0.7813;
1168.5000;0.3712;-0.7813;
1168.8000;0.3793;-0.7640;
1169.1000;0.3704;-0.7912;
1169.4000;0.3704;-0.7912;
1169.7000;0.3687;-0.7961;
1170.0000;0.3696;-0.7887;
1170.3000;0.3712;-0.7764;
1170.6000;0.3704;-0.7714;
1170.9000;0.3704;-0.7690;
1171.2000;0.3720;-0.7714;
1171.5000;0.3712;-0.7665;
1171.8000;0.3712;-0.7690;
1172.1000;0.3712;-0.7714;
1172.4000;0.3704;-0.7640;
1172.7000;0.3736;-0.7665;
1173.0000;0.3736;-0.7616;
1173.3000;0.3720;-0.7591;
1173.6000;0.3720;-0.7542;
1173.9000;0.3728;-0.7591;
1174.2000;0.3720;-0.7788;
1174.5000;0.3712;-0.7862;
1174.8000;0.3728;-0.7813;
1175.1000;0.3720;-0.7813;
1175.4000;0.3712;-0.7862;
1175.7000;0.3720;-0.7838;
1176.0000;0.3744;-0.7764;
1176.3000;0.3712;-0.7838;
1176.6000;0.3712;-0.7813;
1176.9000;0.3720;-0.7739;
1177.2000;0.3720;-0.7690;
1177.5000;0.3720;-0.7690;
1177.8000;0.3761;-0.7591;
1178.1000;0.3712;-0.7591;
1178.4000;0.3712;-0.7542;
1178.7000;0.3720;-0.7493;
1179.0000;0.3712;-0.7542;
1179.3000;0.3696;-0.7764;
1179.6000;0.3687;-0.7739;
1179.9000;0.3704;-0.7690;
1180.2000;0.3704;-0.7690;
1180.5000;0.3720;-0.7739;
1180.8000;0.3696;-0.7838;
1181.1000;0.3696;-0.7813;
1181.4000;0.3712;-0.7739;
1181.7000;0.3712;-0.7813;
1182.0000;0.3704;-0.7788;
1182.3000;0.3704;-0.7739;
1182.6000;0.3712;-0.7714;
1182.9000;0.3655;-0.7961;
1183.2000;0.3777;-0.7566;
1183.5000;0.3712;-0.7690;
1183.8000;0.3712;-0.7665;
1184.1000;0.3679;-0.7665;
1184.4000;0.3696;-0.7690;
1184.7000;0.3704;-0.7739;
1185.0000;0.3720;-0.7714;
1185.3000;0.3712;-0.7690;
1185.6000;0.3728;-0.7690;
1185.9000;0.3720;-0.7616;
1186.2000;0.3720;-0.7616;
1186.5000;0.3712;-0.7690;
1186.8000;0.3720;-0.7665;
1187.1000;0.3736;-0.7640;
1187.4000;0.3696;-0.7739;
1187.7000;0.3728;-0.7739;
1188.0000;0.3728;-0.7764;
1188.3000;0.3720;-0.7838;
1188.6000;0.3696;-0.7788;
1188.9000;0.3720;-0.7764;
1189.2000;0.3712;-0.7862;
1189.5000;0.3704;-0.7838;
1189.8000;0.3712;-0.7764;
1190.1000;0.3720;-0.7665;
1190.4000;0.3712;-0.7616;
1190.7000;0.3712;-0.7616;
1191.0000;0.3720;-0.7591;
1191.3000;0.3712;-0.7591;
1191.6000;0.3720;-0.7566;
1191.9000;0.3720;-0.7542;
1192.2000;0.3704;-0.7640;
1192.5000;0.3712;-0.7690;
1192.8000;0.3712;-0.7838;
1193.1000;0.3712;-0.7764;
1193.4000;0.3720;-0.7665;
1193.7000;0.3712;-0.7640;
1194.0000;0.3720;-0.7690;
1194.3000;0.3728;-0.7838;
1194.6000;0.3704;-0.7912;
1194.9000;0.3704;-0.7936;
1195.2000;0.3712;-0.7961;
1195.5000;0.3712;-0.7985;
1195.8000;0.3704;-0.7912;
1196.1000;0.3712;-0.7862;
1196.4000;0.3720;-0.7813;
1196.7000;0.3712;-0.7788;
1197.0000;0.3712;-0.7813;
1197.3000;0.3728;-0.7690;
1197.6000;0.3744;-0.7566;
1197.9000;0.3712;-0.7665;
1198.2000;0.3679;-0.7714;
1198.5000;0.3696;-0.7665;
1198.8000;0.3712;-0.7690;
1199.1000;0.3720;-0.7739;
1199.4000;0.3720;-0.7838;
1199.7000;0.3728;-0.7714;
1200.0000;0.3744;-0.7542;
1200.3000;0.3712;-0.7566;
1200.6000;0.3704;-0.7566;
1200.9000;0.3704;-0.7517;
1201.2000;0.3712;-0.7517;
1201.5000;0.3720;-0.7468;
1201.8000;0.3728;-0.7616;
1202.1000;0.3696;-0.7788;
1202.4000;0.3704;-0.7813;
1202.7000;0.3720;-0.7764;
1203.0000;0.3720;-0.7862;
1203.3000;0.3720;-0.7714;
1203.6000;0.3712;-0.7690;
1203.9000;0.3720;-0.7714;
1204.2000;0.3687;-0.7764;
1204.5000;0.3728;-0.7690;
1204.8000;0.3704;-0.7739;
1205.1000;0.3712;-0.7739;
1205.4000;0.3704;-0.7739;
1205.7000;0.3761;-0.7591;
1206.0000;0.3655;-0.7887;
1206.3000;0.3720;-0.7764;
1206.6000;0.3687;-0.7739;
1206.9000;0.3826;-0.7468;
1207.2000;0.3687;-0.7739;
1207.5000;0.3679;-0.7764;
1207.8000;0.3696;-0.7739;
1208.1000;0.3663;-0.7764;
1208.4000;0.3720;-0.7665;
1208.7000;0.3801;-0.7419;
1209.0000;0.3712;-0.7665;
1209.3000;0.3720;-0.7739;
1209.6000;0.3744;-0.7640;
1209.9000;0.3728;-0.7714;
1210.2000;0.3720;-0.7788;
1210.5000;0.3736;-0.7887;
1210.8000;0.3712;-0.8010;
1211.1000;0.3712;-0.7961;
1211.4000;0.3744;-0.7862;
1211.7000;0.3687;-0.7985;
1212.0000;0.3696;-0.7862;
1212.3000;0.3687;-0.7862;
1212.6000;0.3793;-0.7566;
1212.9000;0.3679;-0.7862;
1213.2000;0.3720;-0.7714;
1213.5000;0.3671;-0.7788;
1213.8000;0.3712;-0.7764;
1214.1000;0.3720;-0.7690;
1214.4000;0.3679;-0.7764;
1214.7000;0.3704;-0.7640;
1215.0000;0.3712;-0.7665;
1215.3000;0.3704;-0.7591;
1215.6000;0.3679;-0.7640;
1215.9000;0.3720;-0.7616;
1216.2000;0.3712;-0.7616;
1216.5000;0.3704;-0.7640;
1216.8000;0.3687;-0.7690;
1217.1000;0.3696;-0.7764;
1217.4000;0.3712;-0.7665;
1217.7000;0.3704;-0.7764;
1218.0000;0.3728;-0.7739;
1218.3000;0.3720;-0.7838;
1218.6000;0.3728;-0.7887;
1218.9000;0.3704;-0.7813;
1219.2000;0.3696;-0.7813;
1219.5000;0.3704;-0.7714;
1219.8000;0.3761;-0.7640;
1220.1000;0.3736;-0.7690;
1220.4000;0.3720;-0.7764;
1220.7000;0.3720;-0.7764;
1221.0000;0.3720;-0.7739;
1221.3000;0.3712;-0.7764;
1221.6000;0.3712;-0.7764;
1221.9000;0.3728;-0.7714;
1222.2000;0.3712;-0.7739;
1222.5000;0.3679;-0.7887;
1222.8000;0.3753;-0.7690;
1223.1000;0.3704;-0.7764;
1223.4000;0.3687;-0.7813;
1223.7000;0.3679;-0.7887;
1224.0000;0.3614;-0.8084;
1224.3000;0.3728;-0.7838;
1224.6000;0.3679;-0.7862;
1224.9000;0.3679;-0.7788;
1225.2000;0.3720;-0.7665;
1225.5000;0.3720;-0.7665;
1225.8000;0.3704;-0.7616;
1226.1000;0.3696;-0.7640;
1226.4000;0.3704;-0.7739;
1226.7000;0.3704;-0.7813;
1227.0000;0.3712;-0.7813;
1227.3000;0.3696;-0.7739;
1227.6000;0.3720;-0.7640;
1227.9000;0.3704;-0.7813;
1228.2000;0.3720;-0.7838;
1228.5000;0.3728;-0.7813;
1228.8000;0.3720;-0.7813;
1229.1000;0.3696;-0.7862;
1229.4000;0.3704;-0.7788;
1229.7000;0.3712;-0.7813;
1230.0000;0.3720;-0.7838;
1230.3000;0.3704;-0.7887;
1230.6000;0.3712;-0.7813;
1230.9000;0.3736;-0.7714;
1231.2000;0.3720;-0.7690;
1231.5000;0.3720;-0.7714;
1231.8000;0.3687;-0.7862;
1232.1000;0.3712;-0.7813;
1232.4000;0.3720;-0.7764;
1232.7000;0.3728;-0.7764;
1233.0000;0.3712;-0.7714;
1233.3000;0.3704;-0.7714;
1233.6000;0.3720;-0.7616;
1233.9000;0.3704;-0.7690;
1234.2000;0.3704;-0.7788;
1234.5000;0.3679;-0.7936;
1234.8000;0.3704;-0.7838;
1235.1000;0.3720;-0.7862;
1235.4000;0.3712;-0.7936;
1235.7000;0.3720;-0.7936;
1236.0000;0.3712;-0.7862;
1236.3000;0.3712;-0.7887;
1236.6000;0.3712;-0.7887;
1236.9000;0.3712;-0.7838;
1237.2000;0.3720;-0.7764;
1237.5000;0.3704;-0.7714;
1237.8000;0.3712;-0.7714;
1238.1000;0.3687;-0.7764;
1238.4000;0.3704;-0.7764;
1238.7000;0.3704;-0.7887;
1239.0000;0.3704;-0.7912;
1239.3000;0.3704;-0.7912;
1239.6000;0.3704;-0.7912;
1239.9000;0.3712;-0.7862;
1240.2000;0.3736;-0.7887;
1240.5000;0.3704;-0.7961;
1240.8000;0.3712;-0.8010;
1241.1000;0.3712;-0.7985;
1241.4000;0.3720;-0.8035;
1241.7000;0.3818;-0.7714;
1242.0000;0.3704;-0.7961;
1242.3000;0.3704;-0.8035;
1242.6000;0.3736;-0.7912;
1242.9000;0.3720;-0.7936;
1243.2000;0.3744;-0.7936;
1243.5000;0.3728;-0.7985;
1243.8000;0.3679;-0.8109;
1244.1000;0.3687;-0.8084;
1244.4000;0.3712;-0.8010;
1244.7000;0.3655;-0.8059;
1245.0000;0.3728;-0.7936;
1245.3000;0.3679;-0.8059;
1245.6000;0.3761;-0.7838;
1245.9000;0.3761;-0.7936;
1246.2000;0.3704;-0.7887;
1246.5000;0.3728;-0.7838;
1246.8000;0.3712;-0.7862;
1247.1000;0.3704;-0.7813;
1247.4000;0.3744;-0.7714;
1247.7000;0.3704;-0.7813;
1248.0000;0.3696;-0.7838;
1248.3000;0.3769;-0.7665;
1248.6000;0.3679;-0.7887;
1248.9000;0.3777;-0.7813;
1249.2000;0.3696;-0.7961;
1249.5000;0.3712;-0.7936;
1249.8000;0.3647;-0.8084;
1250.1000;0.3712;-0.7862;
1250.4000;0.3736;-0.7862;
1250.7000;0.3720;-0.7862;
1251.0000;0.3704;-0.7936;
1251.3000;0.3696;-0.8010;
1251.6000;0.3720;-0.7912;
1251.9000;0.3704;-0.7887;
1252.2000;0.3704;-0.7838;
1252.5000;0.3712;-0.7862;
1252.8000;0.3720;-0.7838;
1253.1000;0.3696;-0.7887;
1253.4000;0.3696;-0.7862;
1253.7000;0.3720;-0.7788;
1254.0000;0.3728;-0.7813;
1254.3000;0.3720;-0.7788;
1254.6000;0.3704;-0.7788;
1254.9000;0.3647;-0.7985;
1255.2000;0.3704;-0.7813;
1255.5000;0.3712;-0.7813;
1255.8000;0.3704;-0.7961;
1256.1000;0.3785;-0.7788;
1256.4000;0.3720;-0.7862;
1256.7000;0.3696;-0.7985;
1257.0000;0.3720;-0.7912;
1257.3000;0.3712;-0.7936;
1257.6000;0.3712;-0.7936;
1257.9000;0.3704;-0.7887;
1258.2000;0.3720;-0.7838;
1258.5000;0.3712;-0.7788;
1258.8000;0.3687;-0.7862;
1259.1000;0.3728;-0.7838;
1259.4000;0.3712;-0.7887;
1259.7000;0.3712;-0.7985;
1260.0000;0.3696;-0.8035;
1260.3000;0.3704;-0.7912;
1260.6000;0.3720;-0.7838;
1260.9000;0.3696;-0.7912;
1261.2000;0.3671;-0.8035;
1261.5000;0.3687;-0.8084;
1261.8000;0.3720;-0.7961;
1262.1000;0.3696;-0.7961;
1262.4000;0.3679;-0.7936;
1262.7000;0.3712;-0.7813;
1263.0000;0.3687;-0.7764;
1263.3000;0.3696;-0.7764;
1263.6000;0.3696;-0.7788;
1263.9000;0.3687;-0.7788;
1264.2000;0.3720;-0.7739;
1264.5000;0.3704;-0.7838;
1264.8000;0.3687;-0.7838;
1265.1000;0.3687;-0.7862;
1265.4000;0.3712;-0.7838;
1265.7000;0.3736;-0.7788;
1266.0000;0.3736;-0.7739;
1266.3000;0.3712;-0.7813;
1266.6000;0.3712;-0.7838;
1266.9000;0.3696;-0.7887;
1267.2000;0.3696;-0.7887;
1267.5000;0.3679;-0.7936;
1267.8000;0.3704;-0.7764;
1268.1000;0.3704;-0.7764;
1268.4000;0.3720;-0.7739;
1268.7000;0.3704;-0.7838;
1269.0000;0.3720;-0.7912;
1269.3000;0.3720;-0.7887;
1269.6000;0.3655;-0.7985;
1269.9000;0.3687;-0.7838;
1270.2000;0.3679;-0.7838;
1270.5000;0.3736;-0.7640;
1270.8000;0.3712;-0.7566;
1271.1000;0.3712;-0.7542;
1271.4000;0.3696;-0.7640;
1271.7000;0.3704;-0.7714;
1272.0000;0.3826;-0.7394;
1272.3000;0.3704;-0.7788;
1272.6000;0.3704;-0.7788;
1272.9000;0.3712;-0.7714;
1273.2000;0.3728;-0.7739;
1273.5000;0.3712;-0.7665;
1273.8000;0.3704;-0.7690;
1274.1000;0.3696;-0.7714;
1274.4000;0.3728;-0.7714;
1274.7000;0.3720;-0.7764;
1275.0000;0.3704;-0.7788;
1275.3000;0.3696;-0.7813;
1275.6000;0.3712;-0.7788;
1275.9000;0.3704;-0.7764;
1276.2000;0.3696;-0.7788;
1276.5000;0.3704;-0.7690;
1276.8000;0.3712;-0.7665;
1277.1000;0.3712;-0.7714;
1277.4000;0.3704;-0.7714;
1277.7000;0.3712;-0.7714;
1278.0000;0.3704;-0.7739;
1278.3000;0.3704;-0.7739;
1278.6000;0.3736;-0.7665;
1278.9000;0.3704;-0.7591;
1279.2000;0.3696;-0.7591;
1279.5000;0.3744;-0.7566;
1279.8000;0.3728;-0.7566;
1280.1000;0.3704;-0.7690;
1280.4000;0.3728;-0.7714;
1280.7000;0.3728;-0.7788;
1281.0000;0.3712;-0.7739;
1281.3000;0.3712;-0.7616;
1281.6000;0.3671;-0.7739;
1281.9000;0.3712;-0.7690;
1282.2000;0.3720;-0.7616;
1282.5000;0.3687;-0.7640;
1282.8000;0.3720;-0.7566;
1283.1000;0.3679;-0.7714;
1283.4000;0.3704;-0.7714;
1283.7000;0.3671;-0.7690;
1284.0000;0.3704;-0.7714;
1284.3000;0.3704;-0.7665;
1284.6000;0.3712;-0.7690;
1284.9000;0.3720;-0.7788;
1285.2000;0.3712;-0.7764;
1285.5000;0.3720;-0.7665;
1285.8000;0.3696;-0.7714;
1286.1000;0.3712;-0.7665;
1286.4000;0.3712;-0.7665;
1286.7000;0.3712;-0.7788;
1287.0000;0.3696;-0.7739;
1287.3000;0.3696;-0.7739;
1287.6000;0.3712;-0.7714;
1287.9000;0.3712;-0.7838;
1288.2000;0.3704;-0.7862;
1288.5000;0.3720;-0.7788;
1288.8000;0.3728;-0.7714;
1289.1000;0.3712;-0.7764;
1289.4000;0.3712;-0.7788;
1289.7000;0.3761;-0.7640;
1290.0000;0.3720;-0.7739;
1290.3000;0.3736;-0.7665;
1290.6000;0.3720;-0.7764;
1290.9000;0.3704;-0.7838;
1291.2000;0.3744;-0.7739;
1291.5000;0.3712;-0.7788;
1291.8000;0.3712;-0.7813;
1292.1000;0.3753;-0.7813;
1292.4000;0.3712;-0.7936;
1292.7000;0.3712;-0.7985;
1293.0000;0.3712;-0.8035;
1293.3000;0.3736;-0.7936;
1293.6000;0.3728;-0.7912;
1293.9000;0.3720;-0.7887;
1294.2000;0.3761;-0.7764;
1294.5000;0.3720;-0.7887;
1294.8000;0.3712;-0.7912;
1295.1000;0.3712;-0.7985;
1295.4000;0.3728;-0.7912;
1295.7000;0.3720;-0.7887;
1296.0000;0.3712;-0.7862;
1296.3000;0.3818;-0.7591;
1296.6000;0.3704;-0.7912;
1296.9000;0.3679;-0.7961;
1297.2000;0.3687;-0.7862;
1297.5000;0.3720;-0.7640;
1297.8000;0.3696;-0.7714;
1298.1000;0.3696;-0.7690;
1298.4000;0.3687;-0.7788;
1298.7000;0.3728;-0.7764;
1299.0000;0.3696;-0.7788;
1299.3000;0.3704;-0.7813;
1299.6000;0.3704;-0.7739;
1299.9000;0.3704;-0.7690;
1300.2000;0.3720;-0.7714;
1300.5000;0.3704;-0.7739;
1300.8000;0.3712;-0.7714;
1301.1000;0.3769;-0.7616;
1301.4000;0.3712;-0.7813;
1301.7000;0.3704;-0.7788;
1302.0000;0.3663;-0.7862;
1302.3000;0.3696;-0.7788;
1302.6000;0.3712;-0.7739;
1302.9000;0.3720;-0.7640;
1303.2000;0.3736;-0.7542;
1303.5000;0.3704;-0.7640;
1303.8000;0.3679;-0.7690;
1304.1000;0.3696;-0.7690;
1304.4000;0.3704;-0.7690;
1304.7000;0.3687;-0.7690;
1305.0000;0.3728;-0.7591;
1305.3000;0.3687;-0.7665;
1305.6000;0.3704;-0.7616;
1305.9000;0.3696;-0.7714;
1306.2000;0.3712;-0.7640;
1306.5000;0.3712;-0.7640;
1306.8000;0.3720;-0.7542;
1307.1000;0.3687;-0.7591;
1307.4000;0.3687;-0.7517;
1307.7000;0.3687;-0.7591;
1308.0000;0.3720;-0.7443;
1308.3000;0.3704;-0.7443;
1308.6000;0.3712;-0.7468;
1308.9000;0.3712;-0.7493;
1309.2000;0.3696;-0.7517;
1309.5000;0.3720;-0.7616;
1309.8000;0.3720;-0.7566;
1310.1000;0.3712;-0.7616;
1310.4000;0.3777;-0.7493;
1310.7000;0.3704;-0.7591;
1311.0000;0.3712;-0.7591;
1311.3000;0.3720;-0.7517;
1311.6000;0.3712;-0.7591;
1311.9000;0.3712;-0.7616;
1312.2000;0.3728;-0.7616;
1312.5000;0.3704;-0.7690;
1312.8000;0.3720;-0.7591;
1313.1000;0.3720;-0.7542;
1313.4000;0.3720;-0.7591;
1313.7000;0.3712;-0.7665;
1314.0000;0.3704;-0.7690;
1314.3000;0.3712;-0.7665;
1314.6000;0.3712;-0.7764;
1314.9000;0.3712;-0.7838;
1315.2000;0.3696;-0.7739;
1315.5000;0.3696;-0.7690;
1315.8000;0.3704;-0.7566;
1316.1000;0.3687;-0.7714;
1316.4000;0.3704;-0.7616;
1316.7000;0.3753;-0.7468;
1317.0000;0.3704;-0.7542;
1317.3000;0.3712;-0.7493;
1317.6000;0.3712;-0.7566;
1317.9000;0.3712;-0.7591;
1318.2000;0.3704;-0.7640;
1318.5000;0.3712;-0.7542;
1318.8000;0.3712;-0.7591;
1319.1000;0.3720;-0.7566;
1319.4000;0.3712;-0.7566;
1319.7000;0.3728;-0.7566;
1320.0000;0.3671;-0.7714;
1320.3000;0.3728;-0.7714;
1320.6000;0.3639;-0.7912;
1320.9000;0.3671;-0.7813;
1321.2000;0.3704;-0.7739;
1321.5000;0.3671;-0.7813;
1321.8000;0.3704;-0.7788;
1322.1000;0.3687;-0.7764;
1322.4000;0.3696;-0.7739;
1322.7000;0.3696;-0.7714;
1323.0000;0.3704;-0.7714;
1323.3000;0.3753;-0.7517;
1323.6000;0.3704;-0.7665;
1323.9000;0.3753;-0.7566;
1324.2000;0.3687;-0.7739;
1324.5000;0.3704;-0.7690;
1324.8000;0.3753;-0.7665;
1325.1000;0.3687;-0.7862;
1325.4000;0.3696;-0.7764;
1325.7000;0.3696;-0.7739;
1326.0000;0.3801;-0.7468;
1326.3000;0.3671;-0.7739;
1326.6000;0.3696;-0.7764;
1326.9000;0.3753;-0.7665;
1327.2000;0.3696;-0.7788;
1327.5000;0.3696;-0.7813;
1327.8000;0.3704;-0.7739;
1328.1000;0.3720;-0.7616;
1328.4000;0.3704;-0.7616;
1328.7000;0.3679;-0.7739;
1329.0000;0.3704;-0.7665;
1329.3000;0.3696;-0.7665;
1329.6000;0.3704;-0.7665;
1329.9000;0.3720;-0.7665;
1330.2000;0.3704;-0.7788;
1330.5000;0.3687;-0.7936;
1330.8000;0.3753;-0.7813;
1331.1000;0.3712;-0.8010;
1331.4000;0.3704;-0.8059;
1331.7000;0.3687;-0.7985;
1332.0000;0.3704;-0.7936;
1332.3000;0.3696;-0.7862;
1332.6000;0.3704;-0.7838;
1332.9000;0.3712;-0.7813;
1333.2000;0.3712;-0.7838;
1333.5000;0.3663;-0.7912;
1333.8000;0.3704;-0.7764;
1334.1000;0.3696;-0.7739;
1334.4000;0.3696;-0.7739;
1334.7000;0.3696;-0.7739;
1335.0000;0.3679;-0.7862;
1335.3000;0.3687;-0.7813;
1335.6000;0.3696;-0.7813;
1335.9000;0.3696;-0.7739;
1336.2000;0.3704;-0.7714;
1336.5000;0.3687;-0.7788;
1336.8000;0.3687;-0.7764;
1337.1000;0.3704;-0.7788;
1337.4000;0.3720;-0.7739;
1337.7000;0.3712;-0.7739;
1338.0000;0.3712;-0.7739;
1338.3000;0.3712;-0.7714;
1338.6000;0.3736;-0.7665;
1338.9000;0.3736;-0.7616;
1339.2000;0.3753;-0.7665;
1339.5000;0.3622;-0.8035;
1339.8000;0.3671;-0.7936;
1340.1000;0.3712;-0.7813;
1340.4000;0.3687;-0.7838;
1340.7000;0.3720;-0.7690;
1341.0000;0.3712;-0.7690;
1341.3000;0.3712;-0.7690;
1341.6000;0.3712;-0.7640;
1341.9000;0.3704;-0.7640;
1342.2000;0.3704;-0.7714;
1342.5000;0.3712;-0.7616;
1342.8000;0.3712;-0.7542;
1343.1000;0.3704;-0.7517;
1343.4000;0.3728;-0.7468;
1343.7000;0.3728;-0.7443;
1344.0000;0.3696;-0.7542;
1344.3000;0.3696;-0.7640;
1344.6000;0.3696;-0.7616;
1344.9000;0.3639;-0.7788;
1345.2000;0.3777;-0.7493;
1345.5000;0.3696;-0.7714;
1345.8000;0.3720;-0.7764;
1346.1000;0.3687;-0.7838;
1346.4000;0.3696;-0.7788;
1346.7000;0.3687;-0.7764;
1347.0000;0.3728;-0.7566;
1347.3000;0.3712;-0.7739;
1347.6000;0.3720;-0.7788;
1347.9000;0.3671;-0.7912;
1348.2000;0.3753;-0.7739;
1348.5000;0.3687;-0.7838;
1348.8000;0.3679;-0.7813;
1349.1000;0.3671;-0.7764;
1349.4000;0.3704;-0.7714;
1349.7000;0.3687;-0.7788;
1350.0000;0.3712;-0.7764;
1350.3000;0.3704;-0.7690;
1350.6000;0.3769;-0.7468;
1350.9000;0.3712;-0.7591;
1351.2000;0.3704;-0.7542;
1351.5000;0.3728;-0.7468;
1351.8000;0.3712;-0.7566;
1352.1000;0.3728;-0.7517;
1352.4000;0.3720;-0.7566;
1352.7000;0.3720;-0.7616;
1353.0000;0.3655;-0.7764;
1353.3000;0.3720;-0.7542;
1353.6000;0.3753;-0.7493;
1353.9000;0.3704;-0.7591;
1354.2000;0.3720;-0.7616;
1354.5000;0.3728;-0.7616;
1354.8000;0.3712;-0.7640;
1355.1000;0.3720;-0.7591;
1355.4000;0.3720;-0.7640;
1355.7000;0.3753;-0.7493;
1356.0000;0.3696;-0.7566;
1356.3000;0.3720;-0.7616;
1356.6000;0.3720;-0.7591;
1356.9000;0.3704;-0.7591;
1357.2000;0.3712;-0.7591;
1357.5000;0.3728;-0.7591;
1357.8000;0.3704;-0.7665;
1358.1000;0.3696;-0.7616;
1358.4000;0.3704;-0.7591;
1358.7000;0.3704;-0.7542;
1359.0000;0.3704;-0.7616;
1359.3000;0.3712;-0.7542;
1359.6000;0.3728;-0.7640;
1359.9000;0.3720;-0.7640;
1360.2000;0.3704;-0.7616;
1360.5000;0.3704;-0.7566;
1360.8000;0.3687;-0.7640;
1361.1000;0.3720;-0.7566;
1361.4000;0.3687;-0.7665;
1361.7000;0.3785;-0.7542;
1362.0000;0.3639;-0.7936;
1362.3000;0.3720;-0.7739;
1362.6000;0.3720;-0.7739;
1362.9000;0.3753;-0.7616;
1363.2000;0.3663;-0.7788;
1363.5000;0.3647;-0.7788;
1363.8000;0.3704;-0.7591;
1364.1000;0.3696;-0.7542;
1364.4000;0.3704;-0.7640;
1364.7000;0.3696;-0.7616;
1365.0000;0.3687;-0.7714;
1365.3000;0.3647;-0.7813;
1365.6000;0.3736;-0.7616;
1365.9000;0.3777;-0.7493;
1366.2000;0.3704;-0.7665;
1366.5000;0.3736;-0.7616;
1366.8000;0.3761;-0.7566;
1367.1000;0.3712;-0.7616;
1367.4000;0.3720;-0.7468;
1367.7000;0.3704;-0.7419;
1368.0000;0.3712;-0.7443;
1368.3000;0.3696;-0.7542;
1368.6000;0.3671;-0.7616;
1368.9000;0.3777;-0.7320;
1369.2000;0.3712;-0.7369;
1369.5000;0.3704;-0.7394;
1369.8000;0.3720;-0.7394;
1370.1000;0.3712;-0.7493;
1370.4000;0.3761;-0.7419;
1370.7000;0.3704;-0.7468;
1371.0000;0.3704;-0.7443;
1371.3000;0.3720;-0.7320;
1371.6000;0.3679;-0.7468;
1371.9000;0.3687;-0.7493;
1372.2000;0.3704;-0.7517;
1372.5000;0.3728;-0.7493;
1372.8000;0.3728;-0.7419;
1373.1000;0.3728;-0.7369;
1373.4000;0.3712;-0.7493;
1373.7000;0.3720;-0.7566;
1374.0000;0.3704;-0.7690;
1374.3000;0.3696;-0.7616;
1374.6000;0.3728;-0.7542;
1374.9000;0.3679;-0.7640;
1375.2000;0.3720;-0.7542;
1375.5000;0.3696;-0.7640;
1375.8000;0.3720;-0.7591;
1376.1000;0.3704;-0.7591;
1376.4000;0.3704;-0.7566;
1376.7000;0.3687;-0.7640;
1377.0000;0.3712;-0.7640;
1377.3000;0.3696;-0.7714;
1377.6000;0.3720;-0.7640;
1377.9000;0.3744;-0.7517;
1378.2000;0.3704;-0.7566;
1378.5000;0.3679;-0.7714;
1378.8000;0.3696;-0.7690;
1379.1000;0.3687;-0.7690;
1379.4000;0.3704;-0.7640;
1379.7000;0.3704;-0.7690;
1380.0000;0.3712;-0.7640;
1380.3000;0.3696;-0.7665;
1380.6000;0.3720;-0.7517;
1380.9000;0.3679;-0.7566;
1381.2000;0.3744;-0.7419;
1381.5000;0.3720;-0.7517;
1381.8000;0.3720;-0.7493;
1382.1000;0.3720;-0.7493;
1382.4000;0.3720;-0.7542;
1382.7000;0.3736;-0.7517;
1383.0000;0.3712;-0.7566;
1383.3000;0.3704;-0.7591;
1383.6000;0.3720;-0.7566;
1383.9000;0.3712;-0.7616;
1384.2000;0.3712;-0.7493;
1384.5000;0.3728;-0.7493;
1384.8000;0.3663;-0.7690;
1385.1000;0.3679;-0.7616;
1385.4000;0.3728;-0.7468;
1385.7000;0.3704;-0.7419;
1386.0000;0.3720;-0.7320;
1386.3000;0.3720;-0.7320;
1386.6000;0.3769;-0.7197;
1386.9000;0.3720;-0.7345;
1387.2000;0.3687;-0.7493;
1387.5000;0.3720;-0.7468;
1387.8000;0.3720;-0.7468;
1388.1000;0.3736;-0.7542;
1388.4000;0.3728;-0.7616;
1388.7000;0.3704;-0.7665;
1389.0000;0.3777;-0.7419;
1389.3000;0.3704;-0.7665;
1389.6000;0.3761;-0.7517;
1389.9000;0.3769;-0.7443;
1390.2000;0.3687;-0.7665;
1390.5000;0.3687;-0.7739;
1390.8000;0.3736;-0.7591;
1391.1000;0.3696;-0.7640;
1391.4000;0.3655;-0.7813;
1391.7000;0.3696;-0.7714;
1392.0000;0.3687;-0.7714;
1392.3000;0.3720;-0.7566;
1392.6000;0.3687;-0.7566;
1392.9000;0.3671;-0.7665;
1393.2000;0.3736;-0.7517;
1393.5000;0.3712;-0.7640;
1393.8000;0.3696;-0.7714;
1394.1000;0.3647;-0.7912;
1394.4000;0.3614;-0.8035;
1394.7000;0.3736;-0.7714;
1395.0000;0.3769;-0.7566;
1395.3000;0.3696;-0.7788;
1395.6000;0.3720;-0.7714;
1395.9000;0.3736;-0.7616;
1396.2000;0.3720;-0.7714;
1396.5000;0.3744;-0.7640;
1396.8000;0.3720;-0.7690;
1397.1000;0.3712;-0.7714;
1397.4000;0.3696;-0.7665;
1397.7000;0.3720;-0.7640;
1398.0000;0.3769;-0.7468;
1398.3000;0.3704;-0.7764;
1398.6000;0.3704;-0.7813;
1398.9000;0.3728;-0.7813;
1399.2000;0.3704;-0.7838;
1399.5000;0.3712;-0.7714;
1399.8000;0.3728;-0.7640;
