time/ms;Fluo/V;P700 deltaI/I x10³;
-199.8000;0.4021;-0.7862;
-199.5000;0.4013;-0.7838;
-199.2000;0.3980;-0.7985;
-198.9000;0.4021;-0.7813;
-198.6000;0.4029;-0.7838;
-198.3000;0.3956;-0.8010;
-198.0000;0.4021;-0.7887;
-197.7000;0.4029;-0.7838;
-197.4000;0.4029;-0.7862;
-197.1000;0.4013;-0.7862;
-196.8000;0.4013;-0.7788;
-196.5000;0.4021;-0.7788;
-196.2000;0.4021;-0.7764;
-195.9000;0.4021;-0.7813;
-195.6000;0.4037;-0.7739;
-195.3000;0.4005;-0.7739;
-195.0000;0.4029;-0.7739;
-194.7000;0.4021;-0.7887;
-194.4000;0.4021;-0.7887;
-194.1000;0.3923;-0.8084;
-193.8000;0.4029;-0.7862;
-193.5000;0.4037;-0.7813;
-193.2000;0.4046;-0.7665;
-192.9000;0.4021;-0.7690;
-192.6000;0.3997;-0.7862;
-192.3000;0.4021;-0.7862;
-192.0000;0.4013;-0.7862;
-191.7000;0.4013;-0.7862;
-191.4000;0.3989;-0.7936;
-191.1000;0.4029;-0.7912;
-190.8000;0.4046;-0.7764;
-190.5000;0.4013;-0.7862;
-190.2000;0.4021;-0.7764;
-189.9000;0.4029;-0.7838;
-189.6000;0.4037;-0.7887;
-189.3000;0.4029;-0.7862;
-189.0000;0.4013;-0.7838;
-188.7000;0.4029;-0.7887;
-188.4000;0.4029;-0.7862;
-188.1000;0.3907;-0.8059;
-187.8000;0.4029;-0.7788;
-187.5000;0.3948;-0.8059;
-187.2000;0.4086;-0.7690;
-186.9000;0.3989;-0.7936;
-186.6000;0.4021;-0.7912;
-186.3000;0.4013;-0.7912;
-186.0000;0.4029;-0.7985;
-185.7000;0.4029;-0.7985;
-185.4000;0.4013;-0.7936;
-185.1000;0.4013;-0.7936;
-184.8000;0.4029;-0.7912;
-184.5000;0.4005;-0.7912;
-184.2000;0.4021;-0.7936;
-183.9000;0.4013;-0.7887;
-183.6000;0.4013;-0.7936;
-183.3000;0.4037;-0.7862;
-183.0000;0.4021;-0.7887;
-182.7000;0.4021;-0.7961;
-182.4000;0.3997;-0.8109;
-182.1000;0.3940;-0.8281;
-181.8000;0.4029;-0.8035;
-181.5000;0.3997;-0.8010;
-181.2000;0.4046;-0.7838;
-180.9000;0.4005;-0.7985;
-180.6000;0.4021;-0.7961;
-180.3000;0.4013;-0.7936;
-180.0000;0.4005;-0.7936;
-179.7000;0.4013;-0.7862;
-179.4000;0.3964;-0.7936;
-179.1000;0.4029;-0.7838;
-178.8000;0.4029;-0.7912;
-178.5000;0.4021;-0.7912;
-178.2000;0.4062;-0.7862;
-177.9000;0.4029;-0.8035;
-177.6000;0.4021;-0.8084;
-177.3000;0.4029;-0.8084;
-177.0000;0.4062;-0.8010;
-176.7000;0.4094;-0.7936;
-176.4000;0.4013;-0.8109;
-176.1000;0.4029;-0.8133;
-175.8000;0.4021;-0.8109;
-175.5000;0.4046;-0.8010;
-175.2000;0.4029;-0.7985;
-174.9000;0.3989;-0.8084;
-174.6000;0.4029;-0.8010;
-174.3000;0.4021;-0.8035;
-174.0000;0.4005;-0.8084;
-173.7000;0.4021;-0.7961;
-173.4000;0.4086;-0.7813;
-173.1000;0.3964;-0.8133;
-172.8000;0.4029;-0.7985;
-172.5000;0.4046;-0.7961;
-172.2000;0.4029;-0.7961;
-171.9000;0.4013;-0.8059;
-171.6000;0.4005;-0.8109;
-171.3000;0.4029;-0.8059;
-171.0000;0.4029;-0.8084;
-170.7000;0.4037;-0.8010;
-170.4000;0.4021;-0.8035;
-170.1000;0.3989;-0.8035;
-169.8000;0.3980;-0.8084;
-169.5000;0.4029;-0.7985;
-169.2000;0.4029;-0.7936;
-168.9000;0.4005;-0.8133;
-168.6000;0.4005;-0.8059;
-168.3000;0.4037;-0.8059;
-168.0000;0.4021;-0.8109;
-167.7000;0.4037;-0.8084;
-167.4000;0.4005;-0.8109;
-167.1000;0.4021;-0.7936;
-166.8000;0.4021;-0.7862;
-166.5000;0.4029;-0.7813;
-166.2000;0.4013;-0.7838;
-165.9000;0.4046;-0.7764;
-165.6000;0.4029;-0.7764;
-165.3000;0.4029;-0.7665;
-165.0000;0.4078;-0.7517;
-164.7000;0.4005;-0.7714;
-164.4000;0.4029;-0.7665;
-164.1000;0.4005;-0.7616;
-163.8000;0.4029;-0.7640;
-163.5000;0.4029;-0.7690;
-163.2000;0.3997;-0.7764;
-162.9000;0.4046;-0.7640;
-162.6000;0.4046;-0.7640;
-162.3000;0.4029;-0.7591;
-162.0000;0.3948;-0.7714;
-161.7000;0.4029;-0.7542;
-161.4000;0.4021;-0.7566;
-161.1000;0.4021;-0.7616;
-160.8000;0.4021;-0.7640;
-160.5000;0.4046;-0.7566;
-160.2000;0.4005;-0.7665;
-159.9000;0.4021;-0.7764;
-159.6000;0.3997;-0.7838;
-159.3000;0.4013;-0.7714;
-159.0000;0.4037;-0.7862;
-158.7000;0.4021;-0.7936;
-158.4000;0.4013;-0.7838;
-158.1000;0.4005;-0.7764;
-157.8000;0.4021;-0.7665;
-157.5000;0.4029;-0.7616;
-157.2000;0.4013;-0.7665;
-156.9000;0.4021;-0.7690;
-156.6000;0.3956;-0.7813;
-156.3000;0.4021;-0.7788;
-156.0000;0.4021;-0.7739;
-155.7000;0.3997;-0.7813;
-155.4000;0.3923;-0.8084;
-155.1000;0.4021;-0.7739;
-154.8000;0.4013;-0.7739;
-154.5000;0.4086;-0.7542;
-154.2000;0.4054;-0.7665;
-153.9000;0.4029;-0.7690;
-153.6000;0.4037;-0.7690;
-153.3000;0.4037;-0.7739;
-153.0000;0.4054;-0.7788;
-152.7000;0.4021;-0.7862;
-152.4000;0.4021;-0.7764;
-152.1000;0.4013;-0.7788;
-151.8000;0.4037;-0.7616;
-151.5000;0.4029;-0.7665;
-151.2000;0.4005;-0.7690;
-150.9000;0.4029;-0.7616;
-150.6000;0.3980;-0.7665;
-150.3000;0.4029;-0.7616;
-150.0000;0.4029;-0.7690;
-149.7000;0.4029;-0.7640;
-149.4000;0.3972;-0.7714;
-149.1000;0.4029;-0.7542;
-148.8000;0.4029;-0.7566;
-148.5000;0.4021;-0.7517;
-148.2000;0.4054;-0.7517;
-147.9000;0.4029;-0.7566;
-147.6000;0.4037;-0.7591;
-147.3000;0.3989;-0.7690;
-147.0000;0.4029;-0.7493;
-146.7000;0.4029;-0.7468;
-146.4000;0.4029;-0.7468;
-146.1000;0.4021;-0.7517;
-145.8000;0.4021;-0.7542;
-145.5000;0.4037;-0.7493;
-145.2000;0.4021;-0.7443;
-144.9000;0.4046;-0.7443;
-144.6000;0.4062;-0.7369;
-144.3000;0.4029;-0.7542;
-144.0000;0.4029;-0.7517;
-143.7000;0.4021;-0.7640;
-143.4000;0.4037;-0.7690;
-143.1000;0.4013;-0.7813;
-142.8000;0.4013;-0.7764;
-142.5000;0.4029;-0.7714;
-142.2000;0.4021;-0.7665;
-141.9000;0.4029;-0.7665;
-141.6000;0.4037;-0.7616;
-141.3000;0.4029;-0.7566;
-141.0000;0.4046;-0.7493;
-140.7000;0.4021;-0.7665;
-140.4000;0.4005;-0.7739;
-140.1000;0.4029;-0.7640;
-139.8000;0.4013;-0.7714;
-139.5000;0.4013;-0.7714;
-139.2000;0.4046;-0.7566;
-138.9000;0.4046;-0.7616;
-138.6000;0.4029;-0.7616;
-138.3000;0.4013;-0.7665;
-138.0000;0.3997;-0.7665;
-137.7000;0.4013;-0.7468;
-137.4000;0.4062;-0.7394;
-137.1000;0.4029;-0.7517;
-136.8000;0.3989;-0.7665;
-136.5000;0.4046;-0.7542;
-136.2000;0.3989;-0.7714;
-135.9000;0.4037;-0.7616;
-135.6000;0.3964;-0.7764;
-135.3000;0.4021;-0.7739;
-135.0000;0.4062;-0.7591;
-134.7000;0.4037;-0.7665;
-134.4000;0.4037;-0.7665;
-134.1000;0.4013;-0.7764;
-133.8000;0.4013;-0.7788;
-133.5000;0.4029;-0.7788;
-133.2000;0.4037;-0.7862;
-132.9000;0.4021;-0.7912;
-132.6000;0.4021;-0.7813;
-132.3000;0.4013;-0.7665;
-132.0000;0.4013;-0.7739;
-131.7000;0.4037;-0.7788;
-131.4000;0.4029;-0.7788;
-131.1000;0.3899;-0.7985;
-130.8000;0.4037;-0.7714;
-130.5000;0.4037;-0.7788;
-130.2000;0.4046;-0.7690;
-129.9000;0.4037;-0.7788;
-129.6000;0.4078;-0.7714;
-129.3000;0.3980;-0.8010;
-129.0000;0.4037;-0.7838;
-128.7000;0.4029;-0.7838;
-128.4000;0.4078;-0.7739;
-128.1000;0.4037;-0.7862;
-127.8000;0.3989;-0.7936;
-127.5000;0.4037;-0.7887;
-127.2000;0.4021;-0.7838;
-126.9000;0.4021;-0.7788;
-126.6000;0.4029;-0.7690;
-126.3000;0.4021;-0.7788;
-126.0000;0.4054;-0.7616;
-125.7000;0.4054;-0.7542;
-125.4000;0.4029;-0.7493;
-125.1000;0.4013;-0.7591;
-124.8000;0.4021;-0.7493;
-124.5000;0.4021;-0.7419;
-124.2000;0.4037;-0.7394;
-123.9000;0.4037;-0.7468;
-123.6000;0.4013;-0.7517;
-123.3000;0.4037;-0.7517;
-123.0000;0.4029;-0.7542;
-122.7000;0.4021;-0.7542;
-122.4000;0.4037;-0.7493;
-122.1000;0.4013;-0.7566;
-121.8000;0.4029;-0.7616;
-121.5000;0.4021;-0.7714;
-121.2000;0.4037;-0.7640;
-120.9000;0.4029;-0.7665;
-120.6000;0.4005;-0.7764;
-120.3000;0.4029;-0.7690;
-120.0000;0.4029;-0.7714;
-119.7000;0.4013;-0.7739;
-119.4000;0.4029;-0.7665;
-119.1000;0.4029;-0.7665;
-118.8000;0.4021;-0.7739;
-118.5000;0.4029;-0.7788;
-118.2000;0.3956;-0.7936;
-117.9000;0.4021;-0.7690;
-117.6000;0.4013;-0.7739;
-117.3000;0.4086;-0.7591;
-117.0000;0.4046;-0.7714;
-116.7000;0.4021;-0.7788;
-116.4000;0.4029;-0.7714;
-116.1000;0.4029;-0.7739;
-115.8000;0.3997;-0.7714;
-115.5000;0.4037;-0.7640;
-115.2000;0.4005;-0.7788;
-114.9000;0.4013;-0.7764;
-114.6000;0.4021;-0.7714;
-114.3000;0.4013;-0.7813;
-114.0000;0.4013;-0.7813;
-113.7000;0.4021;-0.7764;
-113.4000;0.4029;-0.7714;
-113.1000;0.4029;-0.7665;
-112.8000;0.4029;-0.7739;
-112.5000;0.4013;-0.7813;
-112.2000;0.4037;-0.7764;
-111.9000;0.4037;-0.7788;
-111.6000;0.4021;-0.7862;
-111.3000;0.4021;-0.7887;
-111.0000;0.4013;-0.7862;
-110.7000;0.4029;-0.7862;
-110.4000;0.4037;-0.7887;
-110.1000;0.4029;-0.7887;
-109.8000;0.4029;-0.7887;
-109.5000;0.4013;-0.7936;
-109.2000;0.4021;-0.7985;
-108.9000;0.4021;-0.7887;
-108.6000;0.4013;-0.7887;
-108.3000;0.4037;-0.7838;
-108.0000;0.4021;-0.7887;
-107.7000;0.4005;-0.7912;
-107.4000;0.4013;-0.7862;
-107.1000;0.4086;-0.7665;
-106.8000;0.4037;-0.7788;
-106.5000;0.3997;-0.7862;
-106.2000;0.4037;-0.7714;
-105.9000;0.4029;-0.7739;
-105.6000;0.4013;-0.7788;
-105.3000;0.4037;-0.7838;
-105.0000;0.4037;-0.7887;
-104.7000;0.4021;-0.7912;
-104.4000;0.4021;-0.7936;
-104.1000;0.4029;-0.7912;
-103.8000;0.4062;-0.7813;
-103.5000;0.4046;-0.7912;
-103.2000;0.4029;-0.7887;
-102.9000;0.4029;-0.7862;
-102.6000;0.4029;-0.7912;
-102.3000;0.4054;-0.7887;
-102.0000;0.4046;-0.7936;
-101.7000;0.4013;-0.7862;
-101.4000;0.4013;-0.7887;
-101.1000;0.4078;-0.7813;
-100.8000;0.4021;-0.7887;
-100.5000;0.4013;-0.7887;
-100.2000;0.4029;-0.7838;
-99.9000;0.4021;-0.7764;
-99.6000;0.4070;-0.7714;
-99.3000;0.4029;-0.7788;
-99.0000;0.4029;-0.7838;
-98.7000;0.4021;-0.7887;
-98.4000;0.4021;-0.7961;
-98.1000;0.4005;-0.8084;
-97.8000;0.4037;-0.7961;
-97.5000;0.4029;-0.7912;
-97.2000;0.4037;-0.7813;
-96.9000;0.4037;-0.7813;
-96.6000;0.4062;-0.7665;
-96.3000;0.4037;-0.7665;
-96.0000;0.4029;-0.7714;
-95.7000;0.4029;-0.7690;
-95.4000;0.4021;-0.7764;
-95.1000;0.4037;-0.7739;
-94.8000;0.3997;-0.7887;
-94.5000;0.3989;-0.7862;
-94.2000;0.4094;-0.7542;
-93.9000;0.4029;-0.7739;
-93.6000;0.4021;-0.7739;
-93.3000;0.4029;-0.7714;
-93.0000;0.4021;-0.7764;
-92.7000;0.4054;-0.7690;
-92.4000;0.4029;-0.7788;
-92.1000;0.3997;-0.7788;
-91.8000;0.4029;-0.7764;
-91.5000;0.4037;-0.7739;
-91.2000;0.4021;-0.7838;
-90.9000;0.4029;-0.7764;
-90.6000;0.4037;-0.7714;
-90.3000;0.4037;-0.7714;
-90.0000;0.4062;-0.7739;
-89.7000;0.4021;-0.7813;
-89.4000;0.4029;-0.7838;
-89.1000;0.4013;-0.7936;
-88.8000;0.4021;-0.7961;
-88.5000;0.3989;-0.8084;
-88.2000;0.4021;-0.8109;
-87.9000;0.4046;-0.8035;
-87.6000;0.4062;-0.8059;
-87.3000;0.4086;-0.7912;
-87.0000;0.3980;-0.8133;
-86.7000;0.4021;-0.8133;
-86.4000;0.4046;-0.8059;
-86.1000;0.4029;-0.8109;
-85.8000;0.4029;-0.8010;
-85.5000;0.4054;-0.7912;
-85.2000;0.4029;-0.7961;
-84.9000;0.3989;-0.8183;
-84.6000;0.4054;-0.7961;
-84.3000;0.4054;-0.7961;
-84.0000;0.4029;-0.7912;
-83.7000;0.3948;-0.8059;
-83.4000;0.4046;-0.7764;
-83.1000;0.4029;-0.7690;
-82.8000;0.4029;-0.7788;
-82.5000;0.4021;-0.7764;
-82.2000;0.4037;-0.7690;
-81.9000;0.4046;-0.7591;
-81.6000;0.4103;-0.7493;
-81.3000;0.4037;-0.7665;
-81.0000;0.4037;-0.7714;
-80.7000;0.4021;-0.7862;
-80.4000;0.3956;-0.8010;
-80.1000;0.3989;-0.7985;
-79.8000;0.4029;-0.7862;
-79.5000;0.4094;-0.7690;
-79.2000;0.4037;-0.7714;
-78.9000;0.4029;-0.7665;
-78.6000;0.4054;-0.7739;
-78.3000;0.4013;-0.7838;
-78.0000;0.4013;-0.7887;
-77.7000;0.4021;-0.7862;
-77.4000;0.4037;-0.7961;
-77.1000;0.4021;-0.8010;
-76.8000;0.3997;-0.8059;
-76.5000;0.4021;-0.8035;
-76.2000;0.4037;-0.8010;
-75.9000;0.4029;-0.7936;
-75.6000;0.4013;-0.7985;
-75.3000;0.4029;-0.7936;
-75.0000;0.3997;-0.8035;
-74.7000;0.4046;-0.7838;
-74.4000;0.4029;-0.7838;
-74.1000;0.4029;-0.7912;
-73.8000;0.4029;-0.7838;
-73.5000;0.4037;-0.7739;
-73.2000;0.4037;-0.7690;
-72.9000;0.4029;-0.7665;
-72.6000;0.4005;-0.7788;
-72.3000;0.4021;-0.7788;
-72.0000;0.4037;-0.7739;
-71.7000;0.4021;-0.7739;
-71.4000;0.4021;-0.7764;
-71.1000;0.4078;-0.7517;
-70.8000;0.3989;-0.7714;
-70.5000;0.4005;-0.7813;
-70.2000;0.4029;-0.7887;
-69.9000;0.4046;-0.7936;
-69.6000;0.4046;-0.7936;
-69.3000;0.4021;-0.7912;
-69.0000;0.4021;-0.7936;
-68.7000;0.4029;-0.7887;
-68.4000;0.4046;-0.7862;
-68.1000;0.4070;-0.7838;
-67.8000;0.4005;-0.7936;
-67.5000;0.3997;-0.7961;
-67.2000;0.4029;-0.7838;
-66.9000;0.4005;-0.7862;
-66.6000;0.4013;-0.7887;
-66.3000;0.4013;-0.7764;
-66.0000;0.4078;-0.7690;
-65.7000;0.4021;-0.7813;
-65.4000;0.4021;-0.7764;
-65.1000;0.4013;-0.7640;
-64.8000;0.4029;-0.7591;
-64.5000;0.4029;-0.7616;
-64.2000;0.4029;-0.7739;
-63.9000;0.4021;-0.7813;
-63.6000;0.4086;-0.7665;
-63.3000;0.4029;-0.7714;
-63.0000;0.4021;-0.7616;
-62.7000;0.4021;-0.7640;
-62.4000;0.4013;-0.7813;
-62.1000;0.4021;-0.7912;
-61.8000;0.4037;-0.7887;
-61.5000;0.4021;-0.7936;
-61.2000;0.4046;-0.7764;
-60.9000;0.4037;-0.7764;
-60.6000;0.4005;-0.7788;
-60.3000;0.4021;-0.7714;
-60.0000;0.4021;-0.7739;
-59.7000;0.4029;-0.7813;
-59.4000;0.4037;-0.7887;
-59.1000;0.4029;-0.7912;
-58.8000;0.4005;-0.8010;
-58.5000;0.4062;-0.7887;
-58.2000;0.4005;-0.7961;
-57.9000;0.4029;-0.7912;
-57.6000;0.3980;-0.8059;
-57.3000;0.4062;-0.7862;
-57.0000;0.4029;-0.8035;
-56.7000;0.3997;-0.8059;
-56.4000;0.3980;-0.8010;
-56.1000;0.3997;-0.7838;
-55.8000;0.4013;-0.7739;
-55.5000;0.4013;-0.7690;
-55.2000;0.4037;-0.7591;
-54.9000;0.4029;-0.7690;
-54.6000;0.3997;-0.7739;
-54.3000;0.4037;-0.7690;
-54.0000;0.4005;-0.7838;
-53.7000;0.4029;-0.7813;
-53.4000;0.4029;-0.7813;
-53.1000;0.3989;-0.7788;
-52.8000;0.4046;-0.7714;
-52.5000;0.4021;-0.7788;
-52.2000;0.4029;-0.7862;
-51.9000;0.4029;-0.7813;
-51.6000;0.4013;-0.7838;
-51.3000;0.4013;-0.7813;
-51.0000;0.4013;-0.7764;
-50.7000;0.4029;-0.7739;
-50.4000;0.4037;-0.7739;
-50.1000;0.4094;-0.7591;
-49.8000;0.4029;-0.7640;
-49.5000;0.4029;-0.7616;
-49.2000;0.4037;-0.7690;
-48.9000;0.4062;-0.7665;
-48.6000;0.4029;-0.7690;
-48.3000;0.4103;-0.7517;
-48.0000;0.4054;-0.7640;
-47.7000;0.4037;-0.7640;
-47.4000;0.4029;-0.7665;
-47.1000;0.4037;-0.7616;
-46.8000;0.4029;-0.7714;
-46.5000;0.4029;-0.7739;
-46.2000;0.4021;-0.7690;
-45.9000;0.4021;-0.7764;
-45.6000;0.4029;-0.7862;
-45.3000;0.4054;-0.7813;
-45.0000;0.4005;-0.7985;
-44.7000;0.4029;-0.7961;
-44.4000;0.4013;-0.7961;
-44.1000;0.4021;-0.7936;
-43.8000;0.4029;-0.7887;
-43.5000;0.4029;-0.7887;
-43.2000;0.4029;-0.7961;
-42.9000;0.4037;-0.7961;
-42.6000;0.4005;-0.7887;
-42.3000;0.4013;-0.7936;
-42.0000;0.4013;-0.7887;
-41.7000;0.4013;-0.7887;
-41.4000;0.4037;-0.7764;
-41.1000;0.4054;-0.7690;
-40.8000;0.4005;-0.7887;
-40.5000;0.4029;-0.7813;
-40.2000;0.4078;-0.7640;
-39.9000;0.4029;-0.7887;
-39.6000;0.4054;-0.7862;
-39.3000;0.3997;-0.7961;
-39.0000;0.4070;-0.7764;
-38.7000;0.4021;-0.7912;
-38.4000;0.4005;-0.7862;
-38.1000;0.4029;-0.7739;
-37.8000;0.4013;-0.7739;
-37.5000;0.4021;-0.7714;
-37.2000;0.4029;-0.7739;
-36.9000;0.4021;-0.7764;
-36.6000;0.3972;-0.8010;
-36.3000;0.4013;-0.7961;
-36.0000;0.4029;-0.7862;
-35.7000;0.4037;-0.7838;
-35.4000;0.4062;-0.7813;
-35.1000;0.4046;-0.7912;
-34.8000;0.4021;-0.8010;
-34.5000;0.4029;-0.8059;
-34.2000;0.4037;-0.8010;
-33.9000;0.4029;-0.8010;
-33.6000;0.3948;-0.8207;
-33.3000;0.4021;-0.8035;
-33.0000;0.4013;-0.7985;
-32.7000;0.4029;-0.7912;
-32.4000;0.3997;-0.8059;
-32.1000;0.4013;-0.7961;
-31.8000;0.4029;-0.7912;
-31.5000;0.4046;-0.7936;
-31.2000;0.3964;-0.8109;
-30.9000;0.4037;-0.8010;
-30.6000;0.4046;-0.7936;
-30.3000;0.4062;-0.7838;
-30.0000;0.3948;-0.8109;
-29.7000;0.4037;-0.7936;
-29.4000;0.4021;-0.7961;
-29.1000;0.4013;-0.7936;
-28.8000;0.4070;-0.7764;
-28.5000;0.4021;-0.7838;
-28.2000;0.4029;-0.7912;
-27.9000;0.4054;-0.7813;
-27.6000;0.4029;-0.7788;
-27.3000;0.4013;-0.7838;
-27.0000;0.4037;-0.7887;
-26.7000;0.4021;-0.7813;
-26.4000;0.4013;-0.7862;
-26.1000;0.4046;-0.7788;
-25.8000;0.4054;-0.7813;
-25.5000;0.4037;-0.7912;
-25.2000;0.4029;-0.7985;
-24.9000;0.4029;-0.8010;
-24.6000;0.4013;-0.7936;
-24.3000;0.4005;-0.7912;
-24.0000;0.4029;-0.7862;
-23.7000;0.4029;-0.7912;
-23.4000;0.4037;-0.7912;
-23.1000;0.4029;-0.7985;
-22.8000;0.4029;-0.7936;
-22.5000;0.4029;-0.7912;
-22.2000;0.4037;-0.7961;
-21.9000;0.4021;-0.7936;
-21.6000;0.4013;-0.7936;
-21.3000;0.4005;-0.7961;
-21.0000;0.4046;-0.7887;
-20.7000;0.4037;-0.7887;
-20.4000;0.4054;-0.7862;
-20.1000;0.4005;-0.7936;
-19.8000;0.4037;-0.7961;
-19.5000;0.4046;-0.7936;
-19.2000;0.4046;-0.7936;
-18.9000;0.4037;-0.7985;
-18.6000;0.4037;-0.7862;
-18.3000;0.4021;-0.7862;
-18.0000;0.4029;-0.7862;
-17.7000;0.4046;-0.7764;
-17.4000;0.4013;-0.7813;
-17.1000;0.3964;-0.7862;
-16.8000;0.4037;-0.7714;
-16.5000;0.4070;-0.7690;
-16.2000;0.4070;-0.7813;
-15.9000;0.4029;-0.7862;
-15.6000;0.4005;-0.7985;
-15.3000;0.3980;-0.8059;
-15.0000;0.4062;-0.7788;
-14.7000;0.4029;-0.7887;
-14.4000;0.4029;-0.8035;
-14.1000;0.4005;-0.8059;
-13.8000;0.4029;-0.8059;
-13.5000;0.4029;-0.8084;
-13.2000;0.4013;-0.8084;
-12.9000;0.4037;-0.7936;
-12.6000;0.4037;-0.7985;
-12.3000;0.4021;-0.7985;
-12.0000;0.4094;-0.7739;
-11.7000;0.4037;-0.7985;
-11.4000;0.4013;-0.8059;
-11.1000;0.4037;-0.8059;
-10.8000;0.4029;-0.8059;
-10.5000;0.4021;-0.7985;
-10.2000;0.3964;-0.8084;
-9.9000;0.4029;-0.7887;
-9.6000;0.4029;-0.7961;
-9.3000;0.4029;-0.7961;
-9.0000;0.4021;-0.7961;
-8.7000;0.4037;-0.7961;
-8.4000;0.4029;-0.8010;
-8.1000;0.4029;-0.7961;
-7.8000;0.4029;-0.7985;
-7.5000;0.4013;-0.8059;
-7.2000;0.4037;-0.8035;
-6.9000;0.4029;-0.8084;
-6.6000;0.4037;-0.8059;
-6.3000;0.4029;-0.8059;
-6.0000;0.4062;-0.8059;
-5.7000;0.4013;-0.8158;
-5.4000;0.4037;-0.8059;
-5.1000;0.4013;-0.8084;
-4.8000;0.4005;-0.8035;
-4.5000;0.4021;-0.7912;
-4.2000;0.4021;-0.7936;
-3.9000;0.4005;-0.7912;
-3.6000;0.4029;-0.7887;
-3.3000;0.4037;-0.7887;
-3.0000;0.4013;-0.7961;
-2.7000;0.4037;-0.7887;
-2.4000;0.4029;-0.7912;
-2.1000;0.4037;-0.7887;
-1.8000;0.4029;-0.7838;
-1.5000;0.4013;-0.7838;
-1.2000;0.3989;-0.7862;
-0.9000;0.4029;-0.7788;
-0.6000;0.3940;-0.8010;
-0.3000;0.4005;-0.7764;
0.0000;0.4005;-0.7764;
0.3000;0.4200;-0.7419;
0.6000;0.4599;-0.6950;
0.9000;0.4900;-0.6383;
1.2000;0.5161;-0.5890;
1.5000;0.5372;-0.5521;
1.8000;0.5527;-0.5151;
2.1000;0.5649;-0.4757;
2.4000;0.5779;-0.4584;
2.7000;0.5845;-0.4461;
3.0000;0.5877;-0.4387;
3.3000;0.5958;-0.4190;
3.6000;0.6015;-0.4042;
3.9000;0.6048;-0.3919;
4.2000;0.6081;-0.3869;
4.5000;0.6121;-0.3845;
4.8000;0.6138;-0.3771;
5.1000;0.6129;-0.3796;
5.4000;0.6186;-0.3697;
5.7000;0.6211;-0.3697;
6.0000;0.6300;-0.3524;
6.3000;0.6268;-0.3648;
6.6000;0.6292;-0.3500;
6.9000;0.6317;-0.3524;
7.2000;0.6317;-0.3451;
7.5000;0.6325;-0.3451;
7.8000;0.6357;-0.3500;
8.1000;0.6374;-0.3549;
8.4000;0.6447;-0.3401;
8.7000;0.6365;-0.3672;
9.0000;0.6414;-0.3623;
9.3000;0.6431;-0.3697;
9.6000;0.6447;-0.3672;
9.9000;0.6479;-0.3623;
10.2000;0.6496;-0.3623;
10.5000;0.6512;-0.3648;
10.8000;0.6520;-0.3598;
11.1000;0.6504;-0.3697;
11.4000;0.6520;-0.3672;
11.7000;0.6569;-0.3648;
12.0000;0.6577;-0.3549;
12.3000;0.6577;-0.3500;
12.6000;0.6569;-0.3549;
12.9000;0.6593;-0.3524;
13.2000;0.6610;-0.3500;
13.5000;0.6618;-0.3451;
13.8000;0.6528;-0.3771;
14.1000;0.6585;-0.3648;
14.4000;0.6659;-0.3426;
14.7000;0.6659;-0.3451;
15.0000;0.6634;-0.3549;
15.3000;0.6683;-0.3451;
15.6000;0.6707;-0.3401;
15.9000;0.6716;-0.3377;
16.2000;0.6716;-0.3352;
16.5000;0.6781;-0.3278;
16.8000;0.6732;-0.3401;
17.1000;0.6772;-0.3401;
17.4000;0.6789;-0.3303;
17.7000;0.6756;-0.3377;
18.0000;0.6764;-0.3451;
18.3000;0.6740;-0.3549;
18.6000;0.6797;-0.3574;
18.9000;0.6732;-0.3845;
19.2000;0.6821;-0.3697;
19.5000;0.6838;-0.3623;
19.8000;0.6870;-0.3549;
20.1000;0.6838;-0.3574;
20.4000;0.6846;-0.3598;
20.7000;0.6878;-0.3574;
21.0000;0.6870;-0.3598;
21.3000;0.6886;-0.3524;
21.6000;0.6862;-0.3672;
21.9000;0.6952;-0.3500;
22.2000;0.7000;-0.3451;
22.5000;0.6903;-0.3722;
22.8000;0.6903;-0.3648;
23.1000;0.6911;-0.3697;
23.4000;0.6927;-0.3648;
23.7000;0.6919;-0.3598;
24.0000;0.6935;-0.3648;
24.3000;0.6927;-0.3771;
24.6000;0.6927;-0.3771;
24.9000;0.6927;-0.3771;
25.2000;0.6943;-0.3771;
25.5000;0.6968;-0.3697;
25.8000;0.6968;-0.3771;
26.1000;0.6960;-0.3722;
26.4000;0.6984;-0.3722;
26.7000;0.6976;-0.3746;
27.0000;0.7025;-0.3672;
27.3000;0.7025;-0.3746;
27.6000;0.6952;-0.3820;
27.9000;0.7009;-0.3771;
28.2000;0.6992;-0.3746;
28.5000;0.7000;-0.3820;
28.8000;0.7009;-0.3820;
29.1000;0.7025;-0.3894;
29.4000;0.7009;-0.3993;
29.7000;0.7049;-0.3919;
30.0000;0.7009;-0.4067;
30.3000;0.7033;-0.3968;
30.6000;0.7049;-0.3869;
30.9000;0.7066;-0.3820;
31.2000;0.7082;-0.3845;
31.5000;0.7106;-0.3771;
31.8000;0.7066;-0.3820;
32.1000;0.7082;-0.3820;
32.4000;0.7090;-0.3869;
32.7000;0.7074;-0.4017;
33.0000;0.7139;-0.3919;
33.3000;0.7090;-0.4042;
33.6000;0.7090;-0.4042;
33.9000;0.7147;-0.3943;
34.2000;0.7106;-0.4042;
34.5000;0.7074;-0.4116;
34.8000;0.7155;-0.3968;
35.1000;0.7106;-0.4116;
35.4000;0.7090;-0.4116;
35.7000;0.7041;-0.4264;
36.0000;0.7196;-0.3968;
36.3000;0.7147;-0.4116;
36.6000;0.7123;-0.4091;
36.9000;0.7139;-0.4116;
37.2000;0.7155;-0.4091;
37.5000;0.7261;-0.3894;
37.8000;0.7147;-0.4165;
38.1000;0.7114;-0.4338;
38.4000;0.7179;-0.4190;
38.7000;0.7163;-0.4239;
39.0000;0.7147;-0.4338;
39.3000;0.7171;-0.4264;
39.6000;0.7188;-0.4190;
39.9000;0.7212;-0.4141;
40.2000;0.7188;-0.4239;
40.5000;0.7163;-0.4338;
40.8000;0.7179;-0.4338;
41.1000;0.7196;-0.4288;
41.4000;0.7204;-0.4165;
41.7000;0.7188;-0.4215;
42.0000;0.7204;-0.4288;
42.3000;0.7204;-0.4288;
42.6000;0.7228;-0.4288;
42.9000;0.7220;-0.4387;
43.2000;0.7236;-0.4362;
43.5000;0.7228;-0.4313;
43.8000;0.7253;-0.4338;
44.1000;0.7245;-0.4288;
44.4000;0.7269;-0.4239;
44.7000;0.7245;-0.4239;
45.0000;0.7261;-0.4239;
45.3000;0.7261;-0.4313;
45.6000;0.7269;-0.4387;
45.9000;0.7228;-0.4313;
46.2000;0.7318;-0.4141;
46.5000;0.7269;-0.4362;
46.8000;0.7285;-0.4215;
47.1000;0.7277;-0.4215;
47.4000;0.7277;-0.4165;
47.7000;0.7285;-0.4264;
48.0000;0.7269;-0.4288;
48.3000;0.7391;-0.4067;
48.6000;0.7318;-0.4264;
48.9000;0.7318;-0.4264;
49.2000;0.7318;-0.4313;
49.5000;0.7302;-0.4412;
49.8000;0.7302;-0.4412;
50.1000;0.7318;-0.4486;
50.4000;0.7375;-0.4387;
50.7000;0.7399;-0.4387;
51.0000;0.7334;-0.4560;
51.3000;0.7350;-0.4436;
51.6000;0.7342;-0.4362;
51.9000;0.7342;-0.4412;
52.2000;0.7326;-0.4461;
52.5000;0.7359;-0.4412;
52.8000;0.7350;-0.4461;
53.1000;0.7334;-0.4486;
53.4000;0.7318;-0.4584;
53.7000;0.7375;-0.4486;
54.0000;0.7432;-0.4313;
54.3000;0.7383;-0.4436;
54.6000;0.7383;-0.4510;
54.9000;0.7383;-0.4510;
55.2000;0.7359;-0.4461;
55.5000;0.7399;-0.4387;
55.8000;0.7391;-0.4412;
56.1000;0.7375;-0.4412;
56.4000;0.7383;-0.4436;
56.7000;0.7367;-0.4486;
57.0000;0.7456;-0.4338;
57.3000;0.7399;-0.4510;
57.6000;0.7432;-0.4362;
57.9000;0.7416;-0.4338;
58.2000;0.7407;-0.4412;
58.5000;0.7456;-0.4362;
58.8000;0.7407;-0.4634;
59.1000;0.7440;-0.4486;
59.4000;0.7399;-0.4486;
59.7000;0.7416;-0.4560;
60.0000;0.7456;-0.4510;
60.3000;0.7440;-0.4609;
60.6000;0.7497;-0.4584;
60.9000;0.7440;-0.4781;
61.2000;0.7456;-0.4732;
61.5000;0.7481;-0.4707;
61.8000;0.7432;-0.4757;
62.1000;0.7464;-0.4781;
62.4000;0.7473;-0.4757;
62.7000;0.7473;-0.4707;
63.0000;0.7473;-0.4831;
63.3000;0.7473;-0.4855;
63.6000;0.7489;-0.4855;
63.9000;0.7489;-0.4905;
64.2000;0.7497;-0.4880;
64.5000;0.7464;-0.4929;
64.8000;0.7456;-0.4905;
65.1000;0.7473;-0.4880;
65.4000;0.7481;-0.4855;
65.7000;0.7497;-0.4831;
66.0000;0.7489;-0.4855;
66.3000;0.7489;-0.4880;
66.6000;0.7489;-0.4855;
66.9000;0.7513;-0.4831;
67.2000;0.7513;-0.4855;
67.5000;0.7513;-0.4855;
67.8000;0.7521;-0.4806;
68.1000;0.7530;-0.4855;
68.4000;0.7554;-0.4781;
68.7000;0.7530;-0.4831;
69.0000;0.7530;-0.4781;
69.3000;0.7554;-0.4634;
69.6000;0.7538;-0.4683;
69.9000;0.7546;-0.4584;
70.2000;0.7530;-0.4560;
70.5000;0.7570;-0.4584;
70.8000;0.7546;-0.4683;
71.1000;0.7530;-0.4831;
71.4000;0.7538;-0.4855;
71.7000;0.7546;-0.4880;
72.0000;0.7530;-0.4905;
72.3000;0.7538;-0.4954;
72.6000;0.7562;-0.4880;
72.9000;0.7538;-0.4905;
73.2000;0.7570;-0.4855;
73.5000;0.7603;-0.4609;
73.8000;0.7595;-0.4658;
74.1000;0.7570;-0.4707;
74.4000;0.7595;-0.4560;
74.7000;0.7562;-0.4658;
75.0000;0.7554;-0.4757;
75.3000;0.7570;-0.4732;
75.6000;0.7513;-0.4929;
75.9000;0.7603;-0.4707;
76.2000;0.7603;-0.4781;
76.5000;0.7619;-0.4806;
76.8000;0.7627;-0.4831;
77.1000;0.7619;-0.4855;
77.4000;0.7554;-0.5077;
77.7000;0.7595;-0.4979;
78.0000;0.7627;-0.4781;
78.3000;0.7619;-0.4880;
78.6000;0.7611;-0.4880;
78.9000;0.7635;-0.4855;
79.2000;0.7627;-0.4954;
79.5000;0.7603;-0.4979;
79.8000;0.7635;-0.4905;
80.1000;0.7611;-0.5028;
80.4000;0.7619;-0.4905;
80.7000;0.7635;-0.5028;
81.0000;0.7660;-0.4979;
81.3000;0.7627;-0.5053;
81.6000;0.7668;-0.4954;
81.9000;0.7652;-0.5003;
82.2000;0.7692;-0.4905;
82.5000;0.7643;-0.5028;
82.8000;0.7643;-0.5176;
83.1000;0.7643;-0.5077;
83.4000;0.7660;-0.5126;
83.7000;0.7725;-0.4954;
84.0000;0.7660;-0.5274;
84.3000;0.7652;-0.5225;
84.6000;0.7660;-0.5126;
84.9000;0.7660;-0.5077;
85.2000;0.7643;-0.5053;
85.5000;0.7668;-0.5077;
85.8000;0.7668;-0.5151;
86.1000;0.7668;-0.5200;
86.4000;0.7668;-0.5200;
86.7000;0.7668;-0.5225;
87.0000;0.7676;-0.5274;
87.3000;0.7676;-0.5274;
87.6000;0.7684;-0.5324;
87.9000;0.7668;-0.5324;
88.2000;0.7717;-0.5151;
88.5000;0.7684;-0.5225;
88.8000;0.7668;-0.5200;
89.1000;0.7782;-0.4929;
89.4000;0.7692;-0.5126;
89.7000;0.7700;-0.5077;
90.0000;0.7700;-0.5028;
90.3000;0.7652;-0.5176;
90.6000;0.7684;-0.5102;
90.9000;0.7660;-0.5225;
91.2000;0.7700;-0.5176;
91.5000;0.7684;-0.5200;
91.8000;0.7692;-0.5102;
92.1000;0.7717;-0.5003;
92.4000;0.7700;-0.5028;
92.7000;0.7684;-0.5028;
93.0000;0.7709;-0.4929;
93.3000;0.7774;-0.4683;
93.6000;0.7717;-0.4806;
93.9000;0.7709;-0.4880;
94.2000;0.7725;-0.4929;
94.5000;0.7709;-0.4979;
94.8000;0.7709;-0.5003;
95.1000;0.7700;-0.5028;
95.4000;0.7700;-0.5077;
95.7000;0.7709;-0.5077;
96.0000;0.7684;-0.5126;
96.3000;0.7709;-0.5126;
96.6000;0.7709;-0.5151;
96.9000;0.7700;-0.5176;
97.2000;0.7709;-0.5126;
97.5000;0.7725;-0.5151;
97.8000;0.7733;-0.5028;
98.1000;0.7733;-0.5102;
98.4000;0.7725;-0.5028;
98.7000;0.7643;-0.5274;
99.0000;0.7741;-0.5077;
99.3000;0.7749;-0.5077;
99.6000;0.7725;-0.5176;
99.9000;0.7717;-0.5151;
100.2000;0.7733;-0.5274;
100.5000;0.7733;-0.5225;
100.8000;0.7733;-0.5200;
101.1000;0.7725;-0.5200;
101.4000;0.7733;-0.5200;
101.7000;0.7733;-0.5299;
102.0000;0.7790;-0.5102;
102.3000;0.7733;-0.5250;
102.6000;0.7757;-0.5250;
102.9000;0.7717;-0.5299;
103.2000;0.7741;-0.5274;
103.5000;0.7757;-0.5225;
103.8000;0.7741;-0.5250;
104.1000;0.7774;-0.5225;
104.4000;0.7749;-0.5200;
104.7000;0.7741;-0.5274;
105.0000;0.7757;-0.5225;
105.3000;0.7725;-0.5274;
105.6000;0.7749;-0.5274;
105.9000;0.7749;-0.5225;
106.2000;0.7757;-0.5324;
106.5000;0.7749;-0.5373;
106.8000;0.7757;-0.5299;
107.1000;0.7782;-0.5200;
107.4000;0.7774;-0.5102;
107.7000;0.7749;-0.5151;
108.0000;0.7749;-0.5126;
108.3000;0.7749;-0.5200;
108.6000;0.7757;-0.5200;
108.9000;0.7790;-0.5176;
109.2000;0.7757;-0.5274;
109.5000;0.7757;-0.5274;
109.8000;0.7749;-0.5324;
110.1000;0.7749;-0.5373;
110.4000;0.7774;-0.5299;
110.7000;0.7790;-0.5200;
111.0000;0.7757;-0.5274;
111.3000;0.7749;-0.5274;
111.6000;0.7774;-0.5176;
111.9000;0.7774;-0.5176;
112.2000;0.7741;-0.5176;
112.5000;0.7774;-0.5176;
112.8000;0.7757;-0.5200;
113.1000;0.7766;-0.5176;
113.4000;0.7790;-0.5176;
113.7000;0.7766;-0.5250;
114.0000;0.7823;-0.5151;
114.3000;0.7831;-0.5053;
114.6000;0.7766;-0.5200;
114.9000;0.7766;-0.5250;
115.2000;0.7757;-0.5299;
115.5000;0.7774;-0.5324;
115.8000;0.7790;-0.5299;
116.1000;0.7774;-0.5299;
116.4000;0.7774;-0.5299;
116.7000;0.7766;-0.5299;
117.0000;0.7757;-0.5250;
117.3000;0.7774;-0.5176;
117.6000;0.7741;-0.5250;
117.9000;0.7774;-0.5299;
118.2000;0.7725;-0.5545;
118.5000;0.7766;-0.5422;
118.8000;0.7774;-0.5324;
119.1000;0.7823;-0.5151;
119.4000;0.7782;-0.5299;
119.7000;0.7766;-0.5250;
120.0000;0.7766;-0.5250;
120.3000;0.7774;-0.5324;
120.6000;0.7766;-0.5176;
120.9000;0.7749;-0.5053;
121.2000;0.7766;-0.5003;
121.5000;0.7717;-0.5077;
121.8000;0.7774;-0.5003;
122.1000;0.7766;-0.5102;
122.4000;0.7749;-0.5102;
122.7000;0.7717;-0.5225;
123.0000;0.7766;-0.5151;
123.3000;0.7757;-0.5348;
123.6000;0.7766;-0.5324;
123.9000;0.7782;-0.5398;
124.2000;0.7766;-0.5472;
124.5000;0.7749;-0.5472;
124.8000;0.7668;-0.5644;
125.1000;0.7782;-0.5398;
125.4000;0.7790;-0.5422;
125.7000;0.7766;-0.5422;
126.0000;0.7798;-0.5348;
126.3000;0.7782;-0.5398;
126.6000;0.7790;-0.5348;
126.9000;0.7782;-0.5324;
127.2000;0.7782;-0.5250;
127.5000;0.7766;-0.5373;
127.8000;0.7774;-0.5250;
128.1000;0.7766;-0.5324;
128.4000;0.7774;-0.5274;
128.7000;0.7790;-0.5077;
129.0000;0.7766;-0.5151;
129.3000;0.7806;-0.5053;
129.6000;0.7782;-0.5151;
129.9000;0.7774;-0.5250;
130.2000;0.7774;-0.5274;
130.5000;0.7782;-0.5250;
130.8000;0.7782;-0.5274;
131.1000;0.7847;-0.5028;
131.4000;0.7774;-0.5176;
131.7000;0.7798;-0.5176;
132.0000;0.7790;-0.5102;
132.3000;0.7774;-0.5028;
132.6000;0.7684;-0.5274;
132.9000;0.7782;-0.5077;
133.2000;0.7782;-0.5077;
133.5000;0.7790;-0.5053;
133.8000;0.7757;-0.5151;
134.1000;0.7774;-0.5077;
134.4000;0.7798;-0.4929;
134.7000;0.7782;-0.4905;
135.0000;0.7814;-0.4929;
135.3000;0.7757;-0.5102;
135.6000;0.7798;-0.5077;
135.9000;0.7823;-0.5028;
136.2000;0.7798;-0.5126;
136.5000;0.7782;-0.5200;
136.8000;0.7798;-0.5102;
137.1000;0.7806;-0.5126;
137.4000;0.7782;-0.5250;
137.7000;0.7790;-0.5151;
138.0000;0.7782;-0.5077;
138.3000;0.7782;-0.5028;
138.6000;0.7782;-0.5077;
138.9000;0.7839;-0.4929;
139.2000;0.7798;-0.5003;
139.5000;0.7774;-0.4979;
139.8000;0.7798;-0.5003;
140.1000;0.7790;-0.5028;
140.4000;0.7847;-0.4831;
140.7000;0.7782;-0.4979;
141.0000;0.7790;-0.5028;
141.3000;0.7782;-0.5077;
141.6000;0.7774;-0.5077;
141.9000;0.7757;-0.5102;
142.2000;0.7790;-0.5053;
142.5000;0.7782;-0.5077;
142.8000;0.7782;-0.5003;
143.1000;0.7782;-0.5028;
143.4000;0.7733;-0.5200;
143.7000;0.7782;-0.5126;
144.0000;0.7782;-0.5151;
144.3000;0.7790;-0.5151;
144.6000;0.7782;-0.5176;
144.9000;0.7774;-0.5077;
145.2000;0.7766;-0.5176;
145.5000;0.7741;-0.5250;
145.8000;0.7766;-0.5151;
146.1000;0.7774;-0.5102;
146.4000;0.7774;-0.5126;
146.7000;0.7766;-0.5176;
147.0000;0.7766;-0.5176;
147.3000;0.7782;-0.5151;
147.6000;0.7774;-0.5077;
147.9000;0.7782;-0.5003;
148.2000;0.7798;-0.5028;
148.5000;0.7782;-0.5102;
148.8000;0.7790;-0.5003;
149.1000;0.7774;-0.5102;
149.4000;0.7790;-0.5200;
149.7000;0.7757;-0.5274;
150.0000;0.7782;-0.5348;
150.3000;0.7741;-0.5373;
150.6000;0.7774;-0.5225;
150.9000;0.7790;-0.5200;
151.2000;0.7782;-0.5126;
151.5000;0.7774;-0.5151;
151.8000;0.7806;-0.5003;
152.1000;0.7766;-0.5077;
152.4000;0.7782;-0.5102;
152.7000;0.7766;-0.5102;
153.0000;0.7757;-0.5102;
153.3000;0.7766;-0.5151;
153.6000;0.7725;-0.5225;
153.9000;0.7782;-0.5176;
154.2000;0.7774;-0.5176;
154.5000;0.7766;-0.5274;
154.8000;0.7790;-0.5225;
155.1000;0.7790;-0.5299;
155.4000;0.7749;-0.5274;
155.7000;0.7790;-0.5176;
156.0000;0.7831;-0.5028;
156.3000;0.7757;-0.5250;
156.6000;0.7774;-0.5225;
156.9000;0.7766;-0.5151;
157.2000;0.7766;-0.5077;
157.5000;0.7774;-0.5053;
157.8000;0.7774;-0.4954;
158.1000;0.7774;-0.4905;
158.4000;0.7774;-0.4905;
158.7000;0.7774;-0.4855;
159.0000;0.7766;-0.4831;
159.3000;0.7790;-0.4929;
159.6000;0.7757;-0.5028;
159.9000;0.7774;-0.4929;
160.2000;0.7774;-0.4979;
160.5000;0.7806;-0.4880;
160.8000;0.7717;-0.5053;
161.1000;0.7741;-0.5028;
161.4000;0.7782;-0.5028;
161.7000;0.7855;-0.4855;
162.0000;0.7782;-0.5126;
162.3000;0.7782;-0.5225;
162.6000;0.7757;-0.5274;
162.9000;0.7749;-0.5274;
163.2000;0.7863;-0.5151;
163.5000;0.7766;-0.5373;
163.8000;0.7749;-0.5348;
164.1000;0.7766;-0.5324;
164.4000;0.7774;-0.5299;
164.7000;0.7798;-0.5348;
165.0000;0.7725;-0.5422;
165.3000;0.7774;-0.5274;
165.6000;0.7757;-0.5348;
165.9000;0.7774;-0.5274;
166.2000;0.7774;-0.5225;
166.5000;0.7676;-0.5398;
166.8000;0.7774;-0.5028;
167.1000;0.7757;-0.5053;
167.4000;0.7757;-0.5077;
167.7000;0.7757;-0.5151;
168.0000;0.7757;-0.5250;
168.3000;0.7749;-0.5324;
168.6000;0.7757;-0.5274;
168.9000;0.7774;-0.5151;
169.2000;0.7757;-0.5102;
169.5000;0.7757;-0.5053;
169.8000;0.7774;-0.5053;
170.1000;0.7766;-0.5077;
170.4000;0.7774;-0.5126;
170.7000;0.7774;-0.5102;
171.0000;0.7766;-0.5102;
171.3000;0.7798;-0.5003;
171.6000;0.7774;-0.5102;
171.9000;0.7766;-0.5102;
172.2000;0.7749;-0.5102;
172.5000;0.7725;-0.5077;
172.8000;0.7766;-0.4954;
173.1000;0.7741;-0.5053;
173.4000;0.7741;-0.5151;
173.7000;0.7733;-0.5028;
174.0000;0.7749;-0.4905;
174.3000;0.7749;-0.4929;
174.6000;0.7757;-0.4979;
174.9000;0.7749;-0.5003;
175.2000;0.7725;-0.5028;
175.5000;0.7757;-0.4954;
175.8000;0.7741;-0.4929;
176.1000;0.7741;-0.4905;
176.4000;0.7741;-0.4954;
176.7000;0.7741;-0.4929;
177.0000;0.7757;-0.4880;
177.3000;0.7757;-0.4954;
177.6000;0.7757;-0.4954;
177.9000;0.7757;-0.5053;
178.2000;0.7766;-0.5028;
178.5000;0.7749;-0.5102;
178.8000;0.7757;-0.5102;
179.1000;0.7757;-0.5003;
179.4000;0.7757;-0.4905;
179.7000;0.7749;-0.4954;
180.0000;0.7757;-0.4929;
180.3000;0.7766;-0.4979;
180.6000;0.7766;-0.5003;
180.9000;0.7757;-0.4979;
181.2000;0.7749;-0.4979;
181.5000;0.7766;-0.4855;
181.8000;0.7749;-0.4855;
182.1000;0.7741;-0.4905;
182.4000;0.7749;-0.4905;
182.7000;0.7700;-0.4905;
183.0000;0.7749;-0.4757;
183.3000;0.7741;-0.4757;
183.6000;0.7741;-0.4781;
183.9000;0.7749;-0.4831;
184.2000;0.7774;-0.4855;
184.5000;0.7757;-0.4855;
184.8000;0.7741;-0.4880;
185.1000;0.7741;-0.4806;
185.4000;0.7782;-0.4658;
185.7000;0.7774;-0.4732;
186.0000;0.7733;-0.4757;
186.3000;0.7839;-0.4510;
186.6000;0.7725;-0.4757;
186.9000;0.7741;-0.4683;
187.2000;0.7749;-0.4658;
187.5000;0.7733;-0.4732;
187.8000;0.7741;-0.4732;
188.1000;0.7749;-0.4683;
188.4000;0.7741;-0.4658;
188.7000;0.7741;-0.4707;
189.0000;0.7709;-0.4806;
189.3000;0.7733;-0.4732;
189.6000;0.7766;-0.4683;
189.9000;0.7749;-0.4707;
190.2000;0.7717;-0.4757;
190.5000;0.7733;-0.4757;
190.8000;0.7725;-0.4831;
191.1000;0.7676;-0.4905;
191.4000;0.7725;-0.4683;
191.7000;0.7700;-0.4683;
192.0000;0.7741;-0.4609;
192.3000;0.7733;-0.4584;
192.6000;0.7741;-0.4634;
192.9000;0.7733;-0.4609;
193.2000;0.7741;-0.4535;
193.5000;0.7733;-0.4634;
193.8000;0.7733;-0.4658;
194.1000;0.7741;-0.4732;
194.4000;0.7741;-0.4757;
194.7000;0.7725;-0.4855;
195.0000;0.7717;-0.4979;
195.3000;0.7741;-0.4954;
195.6000;0.7733;-0.5053;
195.9000;0.7757;-0.5028;
196.2000;0.7741;-0.5077;
196.5000;0.7725;-0.5077;
196.8000;0.7733;-0.5003;
197.1000;0.7741;-0.4954;
197.4000;0.7749;-0.4929;
197.7000;0.7798;-0.4806;
198.0000;0.7733;-0.5028;
198.3000;0.7749;-0.5003;
198.6000;0.7725;-0.5003;
198.9000;0.7717;-0.4979;
199.2000;0.7733;-0.4905;
199.5000;0.7741;-0.4954;
199.8000;0.7725;-0.5028;
200.1000;0.7733;-0.5028;
200.4000;0.7741;-0.5003;
200.7000;0.7741;-0.5102;
201.0000;0.7733;-0.5077;
201.3000;0.7700;-0.5274;
201.6000;0.7717;-0.5225;
201.9000;0.7757;-0.5176;
202.2000;0.7709;-0.5176;
202.5000;0.7717;-0.5151;
202.8000;0.7717;-0.5151;
203.1000;0.7717;-0.5126;
203.4000;0.7700;-0.5102;
203.7000;0.7709;-0.5102;
204.0000;0.7725;-0.5102;
204.3000;0.7709;-0.5028;
204.6000;0.7717;-0.5003;
204.9000;0.7725;-0.5028;
205.2000;0.7684;-0.5126;
205.5000;0.7733;-0.5003;
205.8000;0.7798;-0.4757;
206.1000;0.7733;-0.4880;
206.4000;0.7660;-0.5077;
206.7000;0.7717;-0.4954;
207.0000;0.7741;-0.4880;
207.3000;0.7766;-0.4831;
207.6000;0.7733;-0.4831;
207.9000;0.7709;-0.4954;
208.2000;0.7709;-0.4929;
208.5000;0.7798;-0.4831;
208.8000;0.7766;-0.4929;
209.1000;0.7725;-0.5077;
209.4000;0.7749;-0.4954;
209.7000;0.7733;-0.5053;
210.0000;0.7733;-0.5151;
210.3000;0.7806;-0.5003;
210.6000;0.7717;-0.5151;
210.9000;0.7749;-0.5003;
211.2000;0.7733;-0.5077;
211.5000;0.7741;-0.4929;
211.8000;0.7798;-0.4707;
212.1000;0.7725;-0.4880;
212.4000;0.7725;-0.4954;
212.7000;0.7725;-0.4905;
213.0000;0.7692;-0.5102;
213.3000;0.7725;-0.5077;
213.6000;0.7774;-0.4979;
213.9000;0.7692;-0.5126;
214.2000;0.7692;-0.5126;
214.5000;0.7700;-0.5102;
214.8000;0.7709;-0.5102;
215.1000;0.7692;-0.5053;
215.4000;0.7717;-0.4954;
215.7000;0.7823;-0.4683;
216.0000;0.7725;-0.4831;
216.3000;0.7709;-0.4880;
216.6000;0.7700;-0.4880;
216.9000;0.7668;-0.5028;
217.2000;0.7717;-0.4831;
217.5000;0.7709;-0.4855;
217.8000;0.7709;-0.4806;
218.1000;0.7717;-0.4757;
218.4000;0.7725;-0.4855;
218.7000;0.7700;-0.4905;
219.0000;0.7717;-0.4905;
219.3000;0.7709;-0.4954;
219.6000;0.7709;-0.4905;
219.9000;0.7757;-0.4781;
220.2000;0.7725;-0.4880;
220.5000;0.7700;-0.4855;
220.8000;0.7684;-0.4855;
221.1000;0.7684;-0.4880;
221.4000;0.7692;-0.4806;
221.7000;0.7725;-0.4806;
222.0000;0.7717;-0.4880;
222.3000;0.7692;-0.5053;
222.6000;0.7700;-0.5053;
222.9000;0.7692;-0.5151;
223.2000;0.7684;-0.5126;
223.5000;0.7660;-0.5053;
223.8000;0.7692;-0.5003;
224.1000;0.7709;-0.5053;
224.4000;0.7676;-0.5102;
224.7000;0.7700;-0.5053;
225.0000;0.7676;-0.5126;
225.3000;0.7692;-0.5126;
225.6000;0.7676;-0.5151;
225.9000;0.7676;-0.5102;
226.2000;0.7668;-0.5077;
226.5000;0.7700;-0.4954;
226.8000;0.7692;-0.5053;
227.1000;0.7652;-0.5126;
227.4000;0.7709;-0.4855;
227.7000;0.7660;-0.5028;
228.0000;0.7692;-0.4880;
228.3000;0.7692;-0.4905;
228.6000;0.7733;-0.4929;
228.9000;0.7709;-0.4954;
229.2000;0.7635;-0.5151;
229.5000;0.7668;-0.5126;
229.8000;0.7692;-0.5053;
230.1000;0.7709;-0.5053;
230.4000;0.7725;-0.5003;
230.7000;0.7700;-0.4929;
231.0000;0.7709;-0.5003;
231.3000;0.7725;-0.5028;
231.6000;0.7733;-0.5028;
231.9000;0.7757;-0.4905;
232.2000;0.7709;-0.4880;
232.5000;0.7725;-0.4831;
232.8000;0.7700;-0.4880;
233.1000;0.7684;-0.4880;
233.4000;0.7700;-0.4855;
233.7000;0.7700;-0.4905;
234.0000;0.7692;-0.4905;
234.3000;0.7700;-0.4880;
234.6000;0.7733;-0.4806;
234.9000;0.7692;-0.4979;
235.2000;0.7692;-0.4929;
235.5000;0.7692;-0.4954;
235.8000;0.7668;-0.4979;
236.1000;0.7692;-0.5028;
236.4000;0.7676;-0.4979;
236.7000;0.7725;-0.4855;
237.0000;0.7700;-0.4979;
237.3000;0.7676;-0.5003;
237.6000;0.7668;-0.5028;
237.9000;0.7643;-0.5028;
238.2000;0.7692;-0.4954;
238.5000;0.7692;-0.5003;
238.8000;0.7676;-0.5003;
239.1000;0.7692;-0.5028;
239.4000;0.7684;-0.5028;
239.7000;0.7668;-0.5077;
240.0000;0.7676;-0.4929;
240.3000;0.7717;-0.4880;
240.6000;0.7684;-0.4954;
240.9000;0.7676;-0.4929;
241.2000;0.7684;-0.4954;
241.5000;0.7733;-0.4855;
241.8000;0.7676;-0.4880;
242.1000;0.7627;-0.4954;
242.4000;0.7627;-0.5003;
242.7000;0.7676;-0.4806;
243.0000;0.7684;-0.4831;
243.3000;0.7741;-0.4658;
243.6000;0.7668;-0.4831;
243.9000;0.7668;-0.4831;
244.2000;0.7692;-0.4757;
244.5000;0.7692;-0.4831;
244.8000;0.7668;-0.4831;
245.1000;0.7676;-0.4806;
245.4000;0.7668;-0.4806;
245.7000;0.7709;-0.4683;
246.0000;0.7676;-0.4634;
246.3000;0.7684;-0.4535;
246.6000;0.7757;-0.4387;
246.9000;0.7684;-0.4609;
247.2000;0.7709;-0.4584;
247.5000;0.7668;-0.4732;
247.8000;0.7668;-0.4707;
248.1000;0.7684;-0.4732;
248.4000;0.7684;-0.4732;
248.7000;0.7668;-0.4757;
249.0000;0.7668;-0.4683;
249.3000;0.7668;-0.4683;
249.6000;0.7676;-0.4757;
249.9000;0.7684;-0.4781;
250.2000;0.7668;-0.4757;
250.5000;0.7652;-0.4781;
250.8000;0.7717;-0.4707;
251.1000;0.7643;-0.4929;
251.4000;0.7676;-0.4831;
251.7000;0.7668;-0.4880;
252.0000;0.7635;-0.4979;
252.3000;0.7660;-0.4929;
252.6000;0.7692;-0.4905;
252.9000;0.7660;-0.4954;
253.2000;0.7676;-0.4905;
253.5000;0.7676;-0.4905;
253.8000;0.7684;-0.4855;
254.1000;0.7684;-0.4905;
254.4000;0.7684;-0.4979;
254.7000;0.7692;-0.5053;
255.0000;0.7676;-0.5028;
255.3000;0.7668;-0.5077;
255.6000;0.7692;-0.4954;
255.9000;0.7643;-0.4979;
256.2000;0.7668;-0.4880;
256.5000;0.7684;-0.4880;
256.8000;0.7660;-0.4929;
257.1000;0.7668;-0.4880;
257.4000;0.7684;-0.4880;
257.7000;0.7668;-0.4905;
258.0000;0.7684;-0.4831;
258.3000;0.7676;-0.4880;
258.6000;0.7619;-0.5003;
258.9000;0.7668;-0.4905;
259.2000;0.7660;-0.4954;
259.5000;0.7652;-0.5077;
259.8000;0.7692;-0.4954;
260.1000;0.7660;-0.4979;
260.4000;0.7676;-0.4806;
260.7000;0.7660;-0.4855;
261.0000;0.7676;-0.4683;
261.3000;0.7668;-0.4707;
261.6000;0.7643;-0.4781;
261.9000;0.7660;-0.4732;
262.2000;0.7668;-0.4707;
262.5000;0.7676;-0.4683;
262.8000;0.7643;-0.4831;
263.1000;0.7660;-0.4707;
263.4000;0.7660;-0.4634;
263.7000;0.7733;-0.4362;
264.0000;0.7635;-0.4634;
264.3000;0.7700;-0.4560;
264.6000;0.7668;-0.4609;
264.9000;0.7676;-0.4609;
265.2000;0.7660;-0.4584;
265.5000;0.7586;-0.4707;
265.8000;0.7652;-0.4436;
266.1000;0.7668;-0.4510;
266.4000;0.7586;-0.4806;
266.7000;0.7643;-0.4658;
267.0000;0.7652;-0.4486;
267.3000;0.7611;-0.4535;
267.6000;0.7668;-0.4436;
267.9000;0.7643;-0.4486;
268.2000;0.7643;-0.4436;
268.5000;0.7652;-0.4535;
268.8000;0.7635;-0.4634;
269.1000;0.7643;-0.4609;
269.4000;0.7643;-0.4683;
269.7000;0.7652;-0.4634;
270.0000;0.7660;-0.4634;
270.3000;0.7619;-0.4707;
270.6000;0.7611;-0.4757;
270.9000;0.7643;-0.4683;
271.2000;0.7643;-0.4658;
271.5000;0.7660;-0.4683;
271.8000;0.7652;-0.4683;
272.1000;0.7660;-0.4732;
272.4000;0.7660;-0.4732;
272.7000;0.7635;-0.4806;
273.0000;0.7668;-0.4757;
273.3000;0.7635;-0.4757;
273.6000;0.7652;-0.4634;
273.9000;0.7652;-0.4658;
274.2000;0.7595;-0.4757;
274.5000;0.7635;-0.4560;
274.8000;0.7700;-0.4362;
275.1000;0.7643;-0.4535;
275.4000;0.7643;-0.4658;
275.7000;0.7627;-0.4683;
276.0000;0.7643;-0.4609;
276.3000;0.7652;-0.4609;
276.6000;0.7660;-0.4535;
276.9000;0.7652;-0.4560;
277.2000;0.7643;-0.4634;
277.5000;0.7692;-0.4609;
277.8000;0.7635;-0.4831;
278.1000;0.7652;-0.4707;
278.4000;0.7643;-0.4757;
278.7000;0.7562;-0.5003;
279.0000;0.7668;-0.4855;
279.3000;0.7668;-0.4855;
279.6000;0.7676;-0.4806;
279.9000;0.7643;-0.4855;
280.2000;0.7660;-0.4831;
280.5000;0.7643;-0.4905;
280.8000;0.7643;-0.4905;
281.1000;0.7676;-0.4806;
281.4000;0.7627;-0.4905;
281.7000;0.7635;-0.4855;
282.0000;0.7643;-0.4831;
282.3000;0.7660;-0.4806;
282.6000;0.7692;-0.4757;
282.9000;0.7660;-0.4855;
283.2000;0.7635;-0.4880;
283.5000;0.7635;-0.4880;
283.8000;0.7652;-0.5003;
284.1000;0.7635;-0.5003;
284.4000;0.7652;-0.4855;
284.7000;0.7627;-0.4905;
285.0000;0.7643;-0.4831;
285.3000;0.7643;-0.4781;
285.6000;0.7611;-0.4831;
285.9000;0.7619;-0.4806;
286.2000;0.7635;-0.4781;
286.5000;0.7586;-0.4905;
286.8000;0.7603;-0.4905;
287.1000;0.7603;-0.4831;
287.4000;0.7627;-0.4831;
287.7000;0.7652;-0.4732;
288.0000;0.7627;-0.4806;
288.3000;0.7611;-0.4880;
288.6000;0.7643;-0.4806;
288.9000;0.7643;-0.4831;
289.2000;0.7635;-0.4929;
289.5000;0.7627;-0.4905;
289.8000;0.7578;-0.4979;
290.1000;0.7627;-0.4929;
290.4000;0.7611;-0.5003;
290.7000;0.7603;-0.4905;
291.0000;0.7643;-0.4806;
291.3000;0.7611;-0.4954;
291.6000;0.7611;-0.5003;
291.9000;0.7619;-0.4929;
292.2000;0.7611;-0.4880;
292.5000;0.7619;-0.4757;
292.8000;0.7619;-0.4757;
293.1000;0.7611;-0.4757;
293.4000;0.7627;-0.4732;
293.7000;0.7635;-0.4757;
294.0000;0.7652;-0.4732;
294.3000;0.7619;-0.4707;
294.6000;0.7635;-0.4757;
294.9000;0.7619;-0.4831;
295.2000;0.7619;-0.4929;
295.5000;0.7611;-0.4905;
295.8000;0.7635;-0.4905;
296.1000;0.7619;-0.4929;
296.4000;0.7619;-0.4831;
296.7000;0.7603;-0.4855;
297.0000;0.7619;-0.4757;
297.3000;0.7611;-0.4683;
297.6000;0.7603;-0.4707;
297.9000;0.7643;-0.4634;
298.2000;0.7611;-0.4757;
298.5000;0.7643;-0.4634;
298.8000;0.7643;-0.4683;
299.1000;0.7635;-0.4707;
299.4000;0.7586;-0.4806;
299.7000;0.7643;-0.4658;
300.0000;0.7652;-0.4683;
300.3000;0.7603;-0.4757;
300.6000;0.7643;-0.4707;
300.9000;0.7603;-0.4806;
301.2000;0.7611;-0.4831;
301.5000;0.7619;-0.4855;
301.8000;0.7619;-0.4855;
302.1000;0.7619;-0.4880;
302.4000;0.7611;-0.4831;
302.7000;0.7611;-0.4757;
303.0000;0.7562;-0.4905;
303.3000;0.7619;-0.4757;
303.6000;0.7538;-0.4954;
303.9000;0.7692;-0.4658;
304.2000;0.7627;-0.4757;
304.5000;0.7619;-0.4707;
304.8000;0.7652;-0.4658;
305.1000;0.7635;-0.4683;
305.4000;0.7627;-0.4658;
305.7000;0.7595;-0.4781;
306.0000;0.7627;-0.4781;
306.3000;0.7603;-0.4831;
306.6000;0.7521;-0.5053;
306.9000;0.7595;-0.4831;
307.2000;0.7603;-0.4855;
307.5000;0.7627;-0.4831;
307.8000;0.7619;-0.4831;
308.1000;0.7619;-0.4683;
308.4000;0.7619;-0.4683;
308.7000;0.7627;-0.4634;
309.0000;0.7619;-0.4609;
309.3000;0.7619;-0.4658;
309.6000;0.7627;-0.4707;
309.9000;0.7619;-0.4831;
310.2000;0.7611;-0.4732;
310.5000;0.7611;-0.4707;
310.8000;0.7611;-0.4683;
311.1000;0.7635;-0.4707;
311.4000;0.7603;-0.4732;
311.7000;0.7643;-0.4634;
312.0000;0.7611;-0.4609;
312.3000;0.7611;-0.4609;
312.6000;0.7660;-0.4461;
312.9000;0.7578;-0.4658;
313.2000;0.7635;-0.4461;
313.5000;0.7595;-0.4510;
313.8000;0.7595;-0.4560;
314.1000;0.7586;-0.4535;
314.4000;0.7627;-0.4387;
314.7000;0.7635;-0.4387;
315.0000;0.7603;-0.4412;
315.3000;0.7611;-0.4436;
315.6000;0.7595;-0.4486;
315.9000;0.7611;-0.4436;
316.2000;0.7611;-0.4486;
316.5000;0.7586;-0.4510;
316.8000;0.7603;-0.4510;
317.1000;0.7611;-0.4584;
317.4000;0.7586;-0.4634;
317.7000;0.7521;-0.4757;
318.0000;0.7603;-0.4486;
318.3000;0.7619;-0.4412;
318.6000;0.7603;-0.4338;
318.9000;0.7603;-0.4288;
319.2000;0.7538;-0.4387;
319.5000;0.7611;-0.4190;
319.8000;0.7619;-0.4190;
320.1000;0.7586;-0.4362;
320.4000;0.7595;-0.4486;
320.7000;0.7619;-0.4486;
321.0000;0.7611;-0.4436;
321.3000;0.7627;-0.4486;
321.6000;0.7627;-0.4560;
321.9000;0.7635;-0.4584;
322.2000;0.7684;-0.4412;
322.5000;0.7595;-0.4683;
322.8000;0.7643;-0.4609;
323.1000;0.7586;-0.4757;
323.4000;0.7717;-0.4362;
323.7000;0.7586;-0.4707;
324.0000;0.7619;-0.4584;
324.3000;0.7611;-0.4560;
324.6000;0.7595;-0.4609;
324.9000;0.7586;-0.4634;
325.2000;0.7578;-0.4757;
325.5000;0.7627;-0.4584;
325.8000;0.7611;-0.4732;
326.1000;0.7570;-0.4781;
326.4000;0.7603;-0.4707;
326.7000;0.7611;-0.4707;
327.0000;0.7603;-0.4757;
327.3000;0.7595;-0.4831;
327.6000;0.7586;-0.4757;
327.9000;0.7611;-0.4609;
328.2000;0.7619;-0.4560;
328.5000;0.7660;-0.4510;
328.8000;0.7570;-0.4781;
329.1000;0.7595;-0.4707;
329.4000;0.7603;-0.4683;
329.7000;0.7595;-0.4683;
330.0000;0.7586;-0.4732;
330.3000;0.7595;-0.4658;
330.6000;0.7546;-0.4732;
330.9000;0.7603;-0.4732;
331.2000;0.7595;-0.4757;
331.5000;0.7578;-0.4806;
331.8000;0.7586;-0.4732;
332.1000;0.7578;-0.4707;
332.4000;0.7603;-0.4683;
332.7000;0.7595;-0.4609;
333.0000;0.7595;-0.4658;
333.3000;0.7603;-0.4634;
333.6000;0.7611;-0.4707;
333.9000;0.7611;-0.4707;
334.2000;0.7554;-0.4855;
334.5000;0.7603;-0.4658;
334.8000;0.7595;-0.4683;
335.1000;0.7611;-0.4609;
335.4000;0.7586;-0.4707;
335.7000;0.7586;-0.4683;
336.0000;0.7538;-0.4831;
336.3000;0.7684;-0.4338;
336.6000;0.7586;-0.4535;
336.9000;0.7578;-0.4584;
337.2000;0.7611;-0.4535;
337.5000;0.7603;-0.4658;
337.8000;0.7562;-0.4757;
338.1000;0.7595;-0.4683;
338.4000;0.7595;-0.4707;
338.7000;0.7603;-0.4658;
339.0000;0.7603;-0.4609;
339.3000;0.7562;-0.4707;
339.6000;0.7578;-0.4658;
339.9000;0.7611;-0.4560;
340.2000;0.7595;-0.4634;
340.5000;0.7595;-0.4658;
340.8000;0.7586;-0.4634;
341.1000;0.7595;-0.4584;
341.4000;0.7595;-0.4658;
341.7000;0.7603;-0.4560;
342.0000;0.7578;-0.4560;
342.3000;0.7586;-0.4510;
342.6000;0.7586;-0.4436;
342.9000;0.7595;-0.4313;
343.2000;0.7586;-0.4215;
343.5000;0.7595;-0.4239;
343.8000;0.7595;-0.4215;
344.1000;0.7570;-0.4313;
344.4000;0.7578;-0.4338;
344.7000;0.7586;-0.4338;
345.0000;0.7578;-0.4313;
345.3000;0.7603;-0.4190;
345.6000;0.7586;-0.4239;
345.9000;0.7570;-0.4288;
346.2000;0.7643;-0.4141;
346.5000;0.7603;-0.4215;
346.8000;0.7578;-0.4362;
347.1000;0.7554;-0.4461;
347.4000;0.7554;-0.4461;
347.7000;0.7570;-0.4362;
348.0000;0.7578;-0.4313;
348.3000;0.7595;-0.4436;
348.6000;0.7562;-0.4535;
348.9000;0.7586;-0.4412;
349.2000;0.7546;-0.4461;
349.5000;0.7578;-0.4338;
349.8000;0.7578;-0.4362;
350.1000;0.7635;-0.4141;
350.4000;0.7595;-0.4313;
350.7000;0.7586;-0.4461;
351.0000;0.7578;-0.4510;
351.3000;0.7578;-0.4486;
351.6000;0.7603;-0.4387;
351.9000;0.7570;-0.4486;
352.2000;0.7554;-0.4461;
352.5000;0.7538;-0.4412;
352.8000;0.7481;-0.4436;
353.1000;0.7586;-0.4264;
353.4000;0.7570;-0.4362;
353.7000;0.7562;-0.4436;
354.0000;0.7554;-0.4461;
354.3000;0.7570;-0.4387;
354.6000;0.7578;-0.4412;
354.9000;0.7603;-0.4362;
355.2000;0.7578;-0.4486;
355.5000;0.7586;-0.4461;
355.8000;0.7489;-0.4658;
356.1000;0.7586;-0.4486;
356.4000;0.7627;-0.4362;
356.7000;0.7586;-0.4412;
357.0000;0.7578;-0.4387;
357.3000;0.7570;-0.4461;
357.6000;0.7595;-0.4436;
357.9000;0.7643;-0.4264;
358.2000;0.7562;-0.4362;
358.5000;0.7554;-0.4436;
358.8000;0.7595;-0.4362;
359.1000;0.7538;-0.4510;
359.4000;0.7570;-0.4387;
359.7000;0.7546;-0.4461;
360.0000;0.7521;-0.4560;
360.3000;0.7635;-0.4215;
360.6000;0.7570;-0.4288;
360.9000;0.7538;-0.4412;
361.2000;0.7570;-0.4288;
361.5000;0.7660;-0.4141;
361.8000;0.7635;-0.4215;
362.1000;0.7603;-0.4288;
362.4000;0.7578;-0.4436;
362.7000;0.7554;-0.4412;
363.0000;0.7570;-0.4387;
363.3000;0.7570;-0.4338;
363.6000;0.7586;-0.4313;
363.9000;0.7570;-0.4338;
364.2000;0.7578;-0.4313;
364.5000;0.7578;-0.4338;
364.8000;0.7513;-0.4584;
365.1000;0.7570;-0.4461;
365.4000;0.7570;-0.4436;
365.7000;0.7570;-0.4510;
366.0000;0.7578;-0.4461;
366.3000;0.7578;-0.4436;
366.6000;0.7562;-0.4510;
366.9000;0.7578;-0.4510;
367.2000;0.7554;-0.4634;
367.5000;0.7570;-0.4535;
367.8000;0.7562;-0.4461;
368.1000;0.7546;-0.4486;
368.4000;0.7570;-0.4387;
368.7000;0.7554;-0.4436;
369.0000;0.7546;-0.4486;
369.3000;0.7562;-0.4412;
369.6000;0.7554;-0.4436;
369.9000;0.7546;-0.4486;
370.2000;0.7570;-0.4313;
370.5000;0.7546;-0.4362;
370.8000;0.7578;-0.4362;
371.1000;0.7554;-0.4288;
371.4000;0.7546;-0.4288;
371.7000;0.7570;-0.4288;
372.0000;0.7562;-0.4165;
372.3000;0.7554;-0.4215;
372.6000;0.7538;-0.4288;
372.9000;0.7530;-0.4141;
373.2000;0.7562;-0.4091;
373.5000;0.7546;-0.4215;
373.8000;0.7554;-0.4215;
374.1000;0.7554;-0.4141;
374.4000;0.7530;-0.4141;
374.7000;0.7562;-0.4190;
375.0000;0.7562;-0.4215;
375.3000;0.7554;-0.4215;
375.6000;0.7570;-0.4239;
375.9000;0.7578;-0.4239;
376.2000;0.7578;-0.4264;
376.5000;0.7586;-0.4190;
376.8000;0.7570;-0.4190;
377.1000;0.7562;-0.4215;
377.4000;0.7570;-0.4239;
377.7000;0.7538;-0.4313;
378.0000;0.7562;-0.4264;
378.3000;0.7578;-0.4239;
378.6000;0.7562;-0.4264;
378.9000;0.7530;-0.4338;
379.2000;0.7562;-0.4313;
379.5000;0.7570;-0.4239;
379.8000;0.7570;-0.4215;
380.1000;0.7538;-0.4215;
380.4000;0.7570;-0.4141;
380.7000;0.7603;-0.4042;
381.0000;0.7643;-0.3820;
381.3000;0.7570;-0.3968;
381.6000;0.7538;-0.4042;
381.9000;0.7521;-0.4116;
382.2000;0.7578;-0.3993;
382.5000;0.7586;-0.4091;
382.8000;0.7570;-0.4116;
383.1000;0.7538;-0.4190;
383.4000;0.7546;-0.4288;
383.7000;0.7546;-0.4338;
384.0000;0.7554;-0.4362;
384.3000;0.7538;-0.4338;
384.6000;0.7562;-0.4239;
384.9000;0.7546;-0.4288;
385.2000;0.7538;-0.4239;
385.5000;0.7586;-0.4116;
385.8000;0.7562;-0.4042;
386.1000;0.7570;-0.4116;
386.4000;0.7546;-0.4239;
386.7000;0.7513;-0.4338;
387.0000;0.7530;-0.4387;
387.3000;0.7562;-0.4313;
387.6000;0.7546;-0.4362;
387.9000;0.7546;-0.4387;
388.2000;0.7440;-0.4584;
388.5000;0.7546;-0.4264;
388.8000;0.7546;-0.4338;
389.1000;0.7538;-0.4313;
389.4000;0.7546;-0.4387;
389.7000;0.7554;-0.4338;
390.0000;0.7546;-0.4288;
390.3000;0.7554;-0.4091;
390.6000;0.7530;-0.4190;
390.9000;0.7546;-0.4091;
391.2000;0.7530;-0.4116;
391.5000;0.7562;-0.4116;
391.8000;0.7538;-0.4165;
392.1000;0.7546;-0.4116;
392.4000;0.7554;-0.4116;
392.7000;0.7546;-0.4165;
393.0000;0.7546;-0.4116;
393.3000;0.7554;-0.4091;
393.6000;0.7546;-0.4091;
393.9000;0.7546;-0.3968;
394.2000;0.7513;-0.4091;
394.5000;0.7530;-0.4042;
394.8000;0.7570;-0.4017;
395.1000;0.7562;-0.4017;
395.4000;0.7554;-0.4067;
395.7000;0.7538;-0.4165;
396.0000;0.7562;-0.4165;
396.3000;0.7554;-0.4165;
396.6000;0.7538;-0.4165;
396.9000;0.7497;-0.4288;
397.2000;0.7497;-0.4387;
397.5000;0.7546;-0.4313;
397.8000;0.7546;-0.4338;
398.1000;0.7562;-0.4264;
398.4000;0.7554;-0.4362;
398.7000;0.7521;-0.4387;
399.0000;0.7521;-0.4387;
399.3000;0.7530;-0.4362;
399.6000;0.7497;-0.4387;
399.9000;0.7530;-0.4338;
400.2000;0.7530;-0.4338;
400.5000;0.7530;-0.4387;
400.8000;0.7562;-0.4288;
401.1000;0.7513;-0.4313;
401.4000;0.7554;-0.4239;
401.7000;0.7513;-0.4239;
402.0000;0.7530;-0.4215;
402.3000;0.7530;-0.4190;
402.6000;0.7554;-0.4091;
402.9000;0.7586;-0.3968;
403.2000;0.7521;-0.4215;
403.5000;0.7538;-0.4190;
403.8000;0.7554;-0.4190;
404.1000;0.7546;-0.4190;
404.4000;0.7546;-0.4239;
404.7000;0.7448;-0.4634;
405.0000;0.7538;-0.4338;
405.3000;0.7546;-0.4288;
405.6000;0.7554;-0.4264;
405.9000;0.7521;-0.4313;
406.2000;0.7538;-0.4288;
406.5000;0.7554;-0.4362;
406.8000;0.7546;-0.4387;
407.1000;0.7554;-0.4288;
407.4000;0.7530;-0.4264;
407.7000;0.7546;-0.4215;
408.0000;0.7538;-0.4313;
408.3000;0.7546;-0.4387;
408.6000;0.7530;-0.4338;
408.9000;0.7530;-0.4313;
409.2000;0.7521;-0.4338;
409.5000;0.7513;-0.4362;
409.8000;0.7505;-0.4338;
410.1000;0.7505;-0.4288;
410.4000;0.7513;-0.4362;
410.7000;0.7521;-0.4362;
411.0000;0.7513;-0.4288;
411.3000;0.7538;-0.4239;
411.6000;0.7546;-0.4141;
411.9000;0.7546;-0.4141;
412.2000;0.7538;-0.4264;
412.5000;0.7538;-0.4215;
412.8000;0.7546;-0.4141;
413.1000;0.7505;-0.4215;
413.4000;0.7554;-0.4116;
413.7000;0.7554;-0.4116;
414.0000;0.7505;-0.4165;
414.3000;0.7546;-0.3993;
414.6000;0.7530;-0.4067;
414.9000;0.7530;-0.4067;
415.2000;0.7530;-0.4116;
415.5000;0.7538;-0.4091;
415.8000;0.7546;-0.4042;
416.1000;0.7521;-0.4091;
416.4000;0.7554;-0.4141;
416.7000;0.7530;-0.4190;
417.0000;0.7538;-0.4264;
417.3000;0.7586;-0.4190;
417.6000;0.7546;-0.4264;
417.9000;0.7546;-0.4190;
418.2000;0.7416;-0.4510;
418.5000;0.7521;-0.4215;
418.8000;0.7530;-0.4239;
419.1000;0.7513;-0.4264;
419.4000;0.7432;-0.4510;
419.7000;0.7497;-0.4264;
420.0000;0.7513;-0.4141;
420.3000;0.7538;-0.4116;
420.6000;0.7481;-0.4215;
420.9000;0.7538;-0.4190;
421.2000;0.7578;-0.4239;
421.5000;0.7521;-0.4313;
421.8000;0.7521;-0.4239;
422.1000;0.7554;-0.4264;
422.4000;0.7538;-0.4288;
422.7000;0.7546;-0.4215;
423.0000;0.7538;-0.4190;
423.3000;0.7513;-0.4264;
423.6000;0.7538;-0.4215;
423.9000;0.7586;-0.4067;
424.2000;0.7521;-0.4141;
424.5000;0.7538;-0.4141;
424.8000;0.7513;-0.4239;
425.1000;0.7513;-0.4190;
425.4000;0.7513;-0.4165;
425.7000;0.7538;-0.4141;
426.0000;0.7513;-0.4091;
426.3000;0.7513;-0.4165;
426.6000;0.7530;-0.4116;
426.9000;0.7521;-0.4091;
427.2000;0.7513;-0.4091;
427.5000;0.7513;-0.4067;
427.8000;0.7521;-0.3993;
428.1000;0.7578;-0.3845;
428.4000;0.7538;-0.4042;
428.7000;0.7570;-0.3993;
429.0000;0.7530;-0.4116;
429.3000;0.7538;-0.4091;
429.6000;0.7513;-0.4042;
429.9000;0.7464;-0.4190;
430.2000;0.7538;-0.4091;
430.5000;0.7530;-0.4091;
430.8000;0.7505;-0.4165;
431.1000;0.7497;-0.4239;
431.4000;0.7538;-0.4091;
431.7000;0.7497;-0.4116;
432.0000;0.7530;-0.3919;
432.3000;0.7595;-0.3820;
432.6000;0.7521;-0.3919;
432.9000;0.7521;-0.4017;
433.2000;0.7538;-0.4017;
433.5000;0.7513;-0.4141;
433.8000;0.7497;-0.4141;
434.1000;0.7521;-0.4067;
434.4000;0.7505;-0.4067;
434.7000;0.7513;-0.4116;
435.0000;0.7513;-0.4165;
435.3000;0.7497;-0.4190;
435.6000;0.7505;-0.4165;
435.9000;0.7521;-0.4116;
436.2000;0.7497;-0.4067;
436.5000;0.7513;-0.4091;
436.8000;0.7505;-0.4067;
437.1000;0.7538;-0.4042;
437.4000;0.7505;-0.4165;
437.7000;0.7489;-0.4239;
438.0000;0.7521;-0.4165;
438.3000;0.7505;-0.4141;
438.6000;0.7497;-0.4116;
438.9000;0.7489;-0.4091;
439.2000;0.7546;-0.3993;
439.5000;0.7521;-0.4116;
439.8000;0.7513;-0.4215;
440.1000;0.7505;-0.4141;
440.4000;0.7513;-0.4091;
440.7000;0.7521;-0.4067;
441.0000;0.7513;-0.4067;
441.3000;0.7530;-0.3968;
441.6000;0.7530;-0.3943;
441.9000;0.7521;-0.4017;
442.2000;0.7578;-0.3820;
442.5000;0.7521;-0.3943;
442.8000;0.7530;-0.3919;
443.1000;0.7513;-0.3894;
443.4000;0.7513;-0.3993;
443.7000;0.7521;-0.3968;
444.0000;0.7489;-0.4091;
444.3000;0.7505;-0.4017;
444.6000;0.7538;-0.3968;
444.9000;0.7505;-0.3968;
445.2000;0.7562;-0.3919;
445.5000;0.7513;-0.4116;
445.8000;0.7505;-0.4091;
446.1000;0.7505;-0.4141;
446.4000;0.7513;-0.4017;
446.7000;0.7538;-0.3869;
447.0000;0.7521;-0.3943;
447.3000;0.7513;-0.3968;
447.6000;0.7505;-0.4017;
447.9000;0.7513;-0.3968;
448.2000;0.7554;-0.3869;
448.5000;0.7505;-0.4017;
448.8000;0.7505;-0.4042;
449.1000;0.7481;-0.4067;
449.4000;0.7489;-0.3993;
449.7000;0.7603;-0.3722;
450.0000;0.7505;-0.4042;
450.3000;0.7489;-0.4042;
450.6000;0.7505;-0.4116;
450.9000;0.7473;-0.4215;
451.2000;0.7513;-0.4141;
451.5000;0.7489;-0.4141;
451.8000;0.7505;-0.4141;
452.1000;0.7505;-0.4042;
452.4000;0.7481;-0.4042;
452.7000;0.7497;-0.3968;
453.0000;0.7521;-0.3919;
453.3000;0.7497;-0.3968;
453.6000;0.7489;-0.3869;
453.9000;0.7521;-0.3771;
454.2000;0.7505;-0.3820;
454.5000;0.7505;-0.3820;
454.8000;0.7546;-0.3722;
455.1000;0.7497;-0.3746;
455.4000;0.7497;-0.3894;
455.7000;0.7521;-0.3820;
456.0000;0.7497;-0.3845;
456.3000;0.7505;-0.3894;
456.6000;0.7473;-0.3919;
456.9000;0.7489;-0.3943;
457.2000;0.7497;-0.3993;
457.5000;0.7497;-0.3968;
457.8000;0.7505;-0.3894;
458.1000;0.7489;-0.3968;
458.4000;0.7489;-0.4042;
458.7000;0.7505;-0.4067;
459.0000;0.7538;-0.3943;
459.3000;0.7521;-0.3943;
459.6000;0.7513;-0.3968;
459.9000;0.7513;-0.3968;
460.2000;0.7530;-0.3993;
460.5000;0.7489;-0.4116;
460.8000;0.7489;-0.4067;
461.1000;0.7586;-0.3869;
461.4000;0.7513;-0.4067;
461.7000;0.7505;-0.4042;
462.0000;0.7497;-0.4116;
462.3000;0.7505;-0.4165;
462.6000;0.7513;-0.4116;
462.9000;0.7497;-0.4239;
463.2000;0.7497;-0.4313;
463.5000;0.7554;-0.4190;
463.8000;0.7489;-0.4264;
464.1000;0.7497;-0.4239;
464.4000;0.7497;-0.4239;
464.7000;0.7562;-0.4165;
465.0000;0.7473;-0.4436;
465.3000;0.7521;-0.4288;
465.6000;0.7505;-0.4215;
465.9000;0.7513;-0.4165;
466.2000;0.7481;-0.4239;
466.5000;0.7489;-0.4239;
466.8000;0.7489;-0.4165;
467.1000;0.7497;-0.4116;
467.4000;0.7489;-0.4190;
467.7000;0.7489;-0.4165;
468.0000;0.7513;-0.4091;
468.3000;0.7562;-0.3943;
468.6000;0.7505;-0.4165;
468.9000;0.7521;-0.4165;
469.2000;0.7513;-0.4215;
469.5000;0.7497;-0.4190;
469.8000;0.7497;-0.4264;
470.1000;0.7489;-0.4215;
470.4000;0.7497;-0.4264;
470.7000;0.7497;-0.4313;
471.0000;0.7538;-0.4362;
471.3000;0.7497;-0.4387;
471.6000;0.7530;-0.4264;
471.9000;0.7497;-0.4215;
472.2000;0.7464;-0.4215;
472.5000;0.7481;-0.4288;
472.8000;0.7489;-0.4264;
473.1000;0.7416;-0.4436;
473.4000;0.7489;-0.4239;
473.7000;0.7448;-0.4338;
474.0000;0.7489;-0.4338;
474.3000;0.7513;-0.4288;
474.6000;0.7513;-0.4239;
474.9000;0.7489;-0.4313;
475.2000;0.7497;-0.4338;
475.5000;0.7489;-0.4313;
475.8000;0.7473;-0.4288;
476.1000;0.7521;-0.4239;
476.4000;0.7505;-0.4264;
476.7000;0.7481;-0.4436;
477.0000;0.7497;-0.4313;
477.3000;0.7505;-0.4338;
477.6000;0.7586;-0.4042;
477.9000;0.7530;-0.4091;
478.2000;0.7513;-0.4091;
478.5000;0.7513;-0.4141;
478.8000;0.7497;-0.4239;
479.1000;0.7530;-0.4141;
479.4000;0.7530;-0.4141;
479.7000;0.7497;-0.4091;
480.0000;0.7497;-0.4116;
480.3000;0.7513;-0.4091;
480.6000;0.7383;-0.4412;
480.9000;0.7481;-0.4116;
481.2000;0.7481;-0.4141;
481.5000;0.7464;-0.4067;
481.8000;0.7497;-0.4091;
482.1000;0.7481;-0.4067;
482.4000;0.7481;-0.4067;
482.7000;0.7489;-0.3993;
483.0000;0.7489;-0.3968;
483.3000;0.7481;-0.3968;
483.6000;0.7473;-0.4067;
483.9000;0.7481;-0.4042;
484.2000;0.7481;-0.4017;
484.5000;0.7473;-0.4091;
484.8000;0.7521;-0.4116;
485.1000;0.7481;-0.4215;
485.4000;0.7489;-0.4215;
485.7000;0.7497;-0.4141;
486.0000;0.7481;-0.4165;
486.3000;0.7464;-0.4141;
486.6000;0.7489;-0.4042;
486.9000;0.7481;-0.4042;
487.2000;0.7473;-0.4165;
487.5000;0.7505;-0.4067;
487.8000;0.7497;-0.4067;
488.1000;0.7456;-0.4141;
488.4000;0.7538;-0.4017;
488.7000;0.7530;-0.4141;
489.0000;0.7489;-0.4264;
489.3000;0.7497;-0.4239;
489.6000;0.7464;-0.4264;
489.9000;0.7464;-0.4239;
490.2000;0.7489;-0.4190;
490.5000;0.7489;-0.4091;
490.8000;0.7513;-0.4017;
491.1000;0.7481;-0.4042;
491.4000;0.7497;-0.3943;
491.7000;0.7489;-0.3869;
492.0000;0.7481;-0.3968;
492.3000;0.7489;-0.4017;
492.6000;0.7473;-0.4091;
492.9000;0.7497;-0.4239;
493.2000;0.7505;-0.4264;
493.5000;0.7497;-0.4264;
493.8000;0.7424;-0.4338;
494.1000;0.7416;-0.4338;
494.4000;0.7497;-0.4141;
494.7000;0.7391;-0.4338;
495.0000;0.7456;-0.4215;
495.3000;0.7481;-0.4190;
495.6000;0.7464;-0.4239;
495.9000;0.7497;-0.4141;
496.2000;0.7473;-0.4116;
496.5000;0.7464;-0.4116;
496.8000;0.7481;-0.4165;
497.1000;0.7489;-0.4067;
497.4000;0.7473;-0.4091;
497.7000;0.7489;-0.4091;
498.0000;0.7497;-0.4190;
498.3000;0.7497;-0.4190;
498.6000;0.7456;-0.4264;
498.9000;0.7481;-0.4165;
499.2000;0.7456;-0.4165;
499.5000;0.7448;-0.4215;
499.8000;0.7481;-0.4141;
500.1000;0.7489;-0.4067;
500.4000;0.7489;-0.4067;
500.7000;0.7497;-0.4042;
501.0000;0.7456;-0.4141;
501.3000;0.7448;-0.4239;
501.6000;0.7481;-0.4215;
501.9000;0.7513;-0.4141;
502.2000;0.7489;-0.4288;
502.5000;0.7481;-0.4288;
502.8000;0.7481;-0.4313;
503.1000;0.7489;-0.4288;
503.4000;0.7489;-0.4313;
503.7000;0.7489;-0.4239;
504.0000;0.7440;-0.4387;
504.3000;0.7489;-0.4338;
504.6000;0.7562;-0.4165;
504.9000;0.7481;-0.4288;
505.2000;0.7473;-0.4239;
505.5000;0.7481;-0.4141;
505.8000;0.7489;-0.4165;
506.1000;0.7473;-0.4264;
506.4000;0.7505;-0.4215;
506.7000;0.7481;-0.4264;
507.0000;0.7473;-0.4338;
507.3000;0.7505;-0.4239;
507.6000;0.7497;-0.4313;
507.9000;0.7546;-0.4141;
508.2000;0.7464;-0.4264;
508.5000;0.7497;-0.4141;
508.8000;0.7464;-0.4239;
509.1000;0.7505;-0.4141;
509.4000;0.7473;-0.4288;
509.7000;0.7497;-0.4313;
510.0000;0.7473;-0.4288;
510.3000;0.7416;-0.4387;
510.6000;0.7448;-0.4239;
510.9000;0.7489;-0.4091;
511.2000;0.7562;-0.3894;
511.5000;0.7464;-0.4264;
511.8000;0.7481;-0.4239;
512.1000;0.7489;-0.4141;
512.4000;0.7383;-0.4412;
512.7000;0.7473;-0.4264;
513.0000;0.7456;-0.4288;
513.3000;0.7440;-0.4288;
513.6000;0.7513;-0.4141;
513.9000;0.7497;-0.4165;
514.2000;0.7448;-0.4239;
514.5000;0.7505;-0.4116;
514.8000;0.7481;-0.4165;
515.1000;0.7562;-0.3993;
515.4000;0.7481;-0.4165;
515.7000;0.7481;-0.4190;
516.0000;0.7481;-0.4190;
516.3000;0.7464;-0.4239;
516.6000;0.7473;-0.4264;
516.9000;0.7464;-0.4264;
517.2000;0.7464;-0.4141;
517.5000;0.7489;-0.4091;
517.8000;0.7473;-0.4091;
518.1000;0.7407;-0.4288;
518.4000;0.7464;-0.4215;
518.7000;0.7416;-0.4288;
519.0000;0.7497;-0.4190;
519.3000;0.7464;-0.4387;
519.6000;0.7464;-0.4412;
519.9000;0.7481;-0.4313;
520.2000;0.7489;-0.4264;
520.5000;0.7473;-0.4362;
520.8000;0.7464;-0.4362;
521.1000;0.7497;-0.4288;
521.4000;0.7497;-0.4288;
521.7000;0.7464;-0.4288;
522.0000;0.7448;-0.4264;
522.3000;0.7481;-0.4165;
522.6000;0.7440;-0.4190;
522.9000;0.7473;-0.4091;
523.2000;0.7481;-0.4017;
523.5000;0.7448;-0.4116;
523.8000;0.7489;-0.4141;
524.1000;0.7481;-0.4190;
524.4000;0.7473;-0.4190;
524.7000;0.7432;-0.4387;
525.0000;0.7464;-0.4239;
525.3000;0.7481;-0.4141;
525.6000;0.7489;-0.4116;
525.9000;0.7489;-0.4091;
526.2000;0.7464;-0.4042;
526.5000;0.7473;-0.4042;
526.8000;0.7464;-0.4017;
527.1000;0.7473;-0.3993;
527.4000;0.7473;-0.4190;
527.7000;0.7473;-0.4313;
528.0000;0.7489;-0.4362;
528.3000;0.7473;-0.4313;
528.6000;0.7473;-0.4239;
528.9000;0.7464;-0.4215;
529.2000;0.7448;-0.4190;
529.5000;0.7464;-0.4017;
529.8000;0.7464;-0.4042;
530.1000;0.7464;-0.4067;
530.4000;0.7464;-0.4141;
530.7000;0.7464;-0.4141;
531.0000;0.7464;-0.4190;
531.3000;0.7464;-0.4091;
531.6000;0.7473;-0.4067;
531.9000;0.7464;-0.4165;
532.2000;0.7448;-0.4190;
532.5000;0.7538;-0.3919;
532.8000;0.7473;-0.4091;
533.1000;0.7473;-0.4091;
533.4000;0.7464;-0.4165;
533.7000;0.7481;-0.4141;
534.0000;0.7481;-0.4042;
534.3000;0.7489;-0.3943;
534.6000;0.7456;-0.3968;
534.9000;0.7424;-0.4042;
535.2000;0.7407;-0.4067;
535.5000;0.7464;-0.3919;
535.8000;0.7464;-0.3993;
536.1000;0.7521;-0.3993;
536.4000;0.7473;-0.4067;
536.7000;0.7456;-0.4042;
537.0000;0.7464;-0.4017;
537.3000;0.7440;-0.4116;
537.6000;0.7464;-0.3993;
537.9000;0.7481;-0.3943;
538.2000;0.7464;-0.4042;
538.5000;0.7448;-0.4165;
538.8000;0.7473;-0.4165;
539.1000;0.7456;-0.4239;
539.4000;0.7562;-0.3894;
539.7000;0.7481;-0.4091;
540.0000;0.7416;-0.4215;
540.3000;0.7473;-0.4042;
540.6000;0.7464;-0.4017;
540.9000;0.7456;-0.3943;
541.2000;0.7489;-0.3894;
541.5000;0.7473;-0.4017;
541.8000;0.7513;-0.3993;
542.1000;0.7383;-0.4264;
542.4000;0.7440;-0.4091;
542.7000;0.7456;-0.4116;
543.0000;0.7481;-0.4141;
543.3000;0.7464;-0.4190;
543.6000;0.7464;-0.4190;
543.9000;0.7464;-0.4215;
544.2000;0.7456;-0.4215;
544.5000;0.7464;-0.4165;
544.8000;0.7440;-0.4141;
545.1000;0.7456;-0.4116;
545.4000;0.7448;-0.4215;
545.7000;0.7456;-0.4165;
546.0000;0.7464;-0.4091;
546.3000;0.7456;-0.4141;
546.6000;0.7440;-0.4067;
546.9000;0.7464;-0.3919;
547.2000;0.7448;-0.4116;
547.5000;0.7407;-0.4190;
547.8000;0.7432;-0.4190;
548.1000;0.7432;-0.4165;
548.4000;0.7554;-0.3820;
548.7000;0.7456;-0.4141;
549.0000;0.7456;-0.4017;
549.3000;0.7473;-0.3943;
549.6000;0.7448;-0.4042;
549.9000;0.7464;-0.4067;
550.2000;0.7456;-0.4091;
550.5000;0.7456;-0.4116;
550.8000;0.7570;-0.3919;
551.1000;0.7464;-0.4215;
551.4000;0.7456;-0.4313;
551.7000;0.7473;-0.4313;
552.0000;0.7440;-0.4288;
552.3000;0.7456;-0.4239;
552.6000;0.7505;-0.4190;
552.9000;0.7497;-0.4190;
553.2000;0.7464;-0.4264;
553.5000;0.7448;-0.4264;
553.8000;0.7456;-0.4165;
554.1000;0.7456;-0.4215;
554.4000;0.7481;-0.4215;
554.7000;0.7448;-0.4338;
555.0000;0.7473;-0.4313;
555.3000;0.7448;-0.4387;
555.6000;0.7456;-0.4362;
555.9000;0.7481;-0.4215;
556.2000;0.7464;-0.4264;
556.5000;0.7464;-0.4165;
556.8000;0.7473;-0.4239;
557.1000;0.7473;-0.4288;
557.4000;0.7456;-0.4190;
557.7000;0.7456;-0.4165;
558.0000;0.7464;-0.4091;
558.3000;0.7481;-0.4017;
558.6000;0.7464;-0.4141;
558.9000;0.7464;-0.4116;
559.2000;0.7432;-0.4165;
559.5000;0.7448;-0.4165;
559.8000;0.7489;-0.4091;
560.1000;0.7432;-0.4264;
560.4000;0.7464;-0.4215;
560.7000;0.7481;-0.4239;
561.0000;0.7456;-0.4165;
561.3000;0.7489;-0.4042;
561.6000;0.7432;-0.4165;
561.9000;0.7456;-0.4215;
562.2000;0.7456;-0.4190;
562.5000;0.7448;-0.4190;
562.8000;0.7464;-0.4141;
563.1000;0.7383;-0.4412;
563.4000;0.7554;-0.3968;
563.7000;0.7497;-0.4165;
564.0000;0.7424;-0.4288;
564.3000;0.7464;-0.4165;
564.6000;0.7424;-0.4215;
564.9000;0.7497;-0.4042;
565.2000;0.7399;-0.4313;
565.5000;0.7456;-0.4141;
565.8000;0.7440;-0.4165;
566.1000;0.7473;-0.4190;
566.4000;0.7456;-0.4165;
566.7000;0.7448;-0.4190;
567.0000;0.7440;-0.4313;
567.3000;0.7464;-0.4239;
567.6000;0.7513;-0.4190;
567.9000;0.7481;-0.4215;
568.2000;0.7432;-0.4215;
568.5000;0.7456;-0.4165;
568.8000;0.7464;-0.4264;
569.1000;0.7448;-0.4288;
569.4000;0.7440;-0.4264;
569.7000;0.7448;-0.4190;
570.0000;0.7464;-0.4264;
570.3000;0.7464;-0.4165;
570.6000;0.7416;-0.4264;
570.9000;0.7464;-0.4116;
571.2000;0.7464;-0.4141;
571.5000;0.7456;-0.4190;
571.8000;0.7489;-0.4116;
572.1000;0.7448;-0.4165;
572.4000;0.7448;-0.4264;
572.7000;0.7464;-0.4141;
573.0000;0.7432;-0.4215;
573.3000;0.7432;-0.4362;
573.6000;0.7554;-0.4091;
573.9000;0.7464;-0.4264;
574.2000;0.7432;-0.4313;
574.5000;0.7448;-0.4190;
574.8000;0.7440;-0.4116;
575.1000;0.7456;-0.4165;
575.4000;0.7440;-0.4264;
575.7000;0.7448;-0.4215;
576.0000;0.7448;-0.4116;
576.3000;0.7424;-0.4165;
576.6000;0.7448;-0.3968;
576.9000;0.7456;-0.3919;
577.2000;0.7424;-0.3968;
577.5000;0.7432;-0.4017;
577.8000;0.7440;-0.3993;
578.1000;0.7456;-0.3968;
578.4000;0.7448;-0.3993;
578.7000;0.7448;-0.3968;
579.0000;0.7448;-0.4116;
579.3000;0.7416;-0.4239;
579.6000;0.7456;-0.4165;
579.9000;0.7448;-0.4190;
580.2000;0.7440;-0.4141;
580.5000;0.7407;-0.4141;
580.8000;0.7432;-0.4190;
581.1000;0.7448;-0.4165;
581.4000;0.7448;-0.4091;
581.7000;0.7432;-0.4091;
582.0000;0.7448;-0.4091;
582.3000;0.7473;-0.4091;
582.6000;0.7407;-0.4165;
582.9000;0.7416;-0.4141;
583.2000;0.7424;-0.4116;
583.5000;0.7391;-0.4288;
583.8000;0.7350;-0.4288;
584.1000;0.7440;-0.3993;
584.4000;0.7424;-0.4017;
584.7000;0.7505;-0.3820;
585.0000;0.7489;-0.3894;
585.3000;0.7448;-0.4091;
585.6000;0.7399;-0.4190;
585.9000;0.7448;-0.4042;
586.2000;0.7473;-0.3869;
586.5000;0.7448;-0.4067;
586.8000;0.7424;-0.4067;
587.1000;0.7432;-0.4091;
587.4000;0.7456;-0.4017;
587.7000;0.7481;-0.3993;
588.0000;0.7432;-0.4116;
588.3000;0.7424;-0.4165;
588.6000;0.7440;-0.4116;
588.9000;0.7440;-0.4067;
589.2000;0.7432;-0.4116;
589.5000;0.7432;-0.4067;
589.8000;0.7440;-0.4091;
590.1000;0.7489;-0.3993;
590.4000;0.7456;-0.4067;
590.7000;0.7432;-0.4165;
591.0000;0.7432;-0.4141;
591.3000;0.7456;-0.4042;
591.6000;0.7448;-0.4067;
591.9000;0.7407;-0.4141;
592.2000;0.7432;-0.3968;
592.5000;0.7383;-0.4141;
592.8000;0.7424;-0.4042;
593.1000;0.7448;-0.3968;
593.4000;0.7448;-0.3943;
593.7000;0.7464;-0.3968;
594.0000;0.7464;-0.3919;
594.3000;0.7391;-0.4165;
594.6000;0.7440;-0.4091;
594.9000;0.7448;-0.4091;
595.2000;0.7456;-0.4116;
595.5000;0.7440;-0.4116;
595.8000;0.7448;-0.4091;
596.1000;0.7456;-0.4091;
596.4000;0.7473;-0.4042;
596.7000;0.7464;-0.4165;
597.0000;0.7456;-0.4165;
597.3000;0.7464;-0.4017;
597.6000;0.7456;-0.4042;
597.9000;0.7440;-0.4141;
598.2000;0.7440;-0.4067;
598.5000;0.7440;-0.4067;
598.8000;0.7448;-0.4017;
599.1000;0.7416;-0.4067;
599.4000;0.7432;-0.4067;
599.7000;0.7424;-0.4042;
600.0000;0.7440;-0.4042;
600.3000;0.7326;-0.4461;
600.6000;0.7350;-0.4387;
600.9000;0.7212;-0.4609;
601.2000;0.7074;-0.4855;
601.5000;0.6919;-0.5151;
601.8000;0.6764;-0.5398;
602.1000;0.6610;-0.5669;
602.4000;0.6471;-0.5817;
602.7000;0.6341;-0.6063;
603.0000;0.6235;-0.6260;
603.3000;0.6105;-0.6359;
603.6000;0.6024;-0.6531;
603.9000;0.5950;-0.6655;
604.2000;0.5877;-0.6778;
604.5000;0.5788;-0.6926;
604.8000;0.5714;-0.7098;
605.1000;0.5649;-0.7197;
605.4000;0.5633;-0.7147;
605.7000;0.5568;-0.7172;
606.0000;0.5454;-0.7419;
606.3000;0.5446;-0.7517;
606.6000;0.5511;-0.7271;
606.9000;0.5348;-0.7591;
607.2000;0.5356;-0.7517;
607.5000;0.5324;-0.7443;
607.8000;0.5267;-0.7468;
608.1000;0.5218;-0.7566;
608.4000;0.5210;-0.7591;
608.7000;0.5161;-0.7714;
609.0000;0.5144;-0.7739;
609.3000;0.5128;-0.7788;
609.6000;0.5055;-0.7985;
609.9000;0.5063;-0.7887;
610.2000;0.5039;-0.7936;
610.5000;0.5006;-0.7912;
610.8000;0.4990;-0.7961;
611.1000;0.5006;-0.8010;
611.4000;0.4941;-0.8084;
611.7000;0.4949;-0.8010;
612.0000;0.4876;-0.8207;
612.3000;0.4892;-0.8035;
612.6000;0.4900;-0.7961;
612.9000;0.4884;-0.8035;
613.2000;0.4860;-0.8109;
613.5000;0.4851;-0.8035;
613.8000;0.4892;-0.7985;
614.1000;0.4811;-0.8133;
614.4000;0.4803;-0.8084;
614.7000;0.4827;-0.7961;
615.0000;0.4778;-0.8059;
615.3000;0.4762;-0.8133;
615.6000;0.4778;-0.8133;
615.9000;0.4737;-0.8281;
616.2000;0.4737;-0.8257;
616.5000;0.4746;-0.8207;
616.8000;0.4737;-0.8281;
617.1000;0.4705;-0.8306;
617.4000;0.4697;-0.8380;
617.7000;0.4672;-0.8429;
618.0000;0.4689;-0.8232;
618.3000;0.4672;-0.8207;
618.6000;0.4624;-0.8429;
618.9000;0.4672;-0.8429;
619.2000;0.4648;-0.8626;
619.5000;0.4656;-0.8478;
619.8000;0.4656;-0.8454;
620.1000;0.4632;-0.8454;
620.4000;0.4567;-0.8626;
620.7000;0.4624;-0.8404;
621.0000;0.4599;-0.8503;
621.3000;0.4575;-0.8602;
621.6000;0.4599;-0.8503;
621.9000;0.4599;-0.8454;
622.2000;0.4607;-0.8404;
622.5000;0.4624;-0.8404;
622.8000;0.4607;-0.8355;
623.1000;0.4591;-0.8380;
623.4000;0.4632;-0.8281;
623.7000;0.4583;-0.8380;
624.0000;0.4583;-0.8355;
624.3000;0.4534;-0.8478;
624.6000;0.4550;-0.8429;
624.9000;0.4558;-0.8429;
625.2000;0.4501;-0.8528;
625.5000;0.4542;-0.8429;
625.8000;0.4526;-0.8429;
626.1000;0.4534;-0.8478;
626.4000;0.4493;-0.8626;
626.7000;0.4501;-0.8577;
627.0000;0.4510;-0.8577;
627.3000;0.4453;-0.8725;
627.6000;0.4518;-0.8528;
627.9000;0.4493;-0.8552;
628.2000;0.4501;-0.8528;
628.5000;0.4485;-0.8503;
628.8000;0.4493;-0.8528;
629.1000;0.4444;-0.8626;
629.4000;0.4428;-0.8700;
629.7000;0.4567;-0.8429;
630.0000;0.4477;-0.8651;
630.3000;0.4477;-0.8626;
630.6000;0.4469;-0.8700;
630.9000;0.4485;-0.8651;
631.2000;0.4461;-0.8651;
631.5000;0.4469;-0.8552;
631.8000;0.4469;-0.8552;
632.1000;0.4469;-0.8528;
632.4000;0.4477;-0.8528;
632.7000;0.4469;-0.8503;
633.0000;0.4461;-0.8528;
633.3000;0.4461;-0.8503;
633.6000;0.4461;-0.8552;
633.9000;0.4428;-0.8626;
634.2000;0.4420;-0.8577;
634.5000;0.4444;-0.8528;
634.8000;0.4501;-0.8478;
635.1000;0.4436;-0.8676;
635.4000;0.4428;-0.8626;
635.7000;0.4404;-0.8651;
636.0000;0.4420;-0.8700;
636.3000;0.4404;-0.8651;
636.6000;0.4412;-0.8651;
636.9000;0.4412;-0.8651;
637.2000;0.4428;-0.8651;
637.5000;0.4412;-0.8577;
637.8000;0.4420;-0.8528;
638.1000;0.4387;-0.8626;
638.4000;0.4379;-0.8651;
638.7000;0.4387;-0.8651;
639.0000;0.4387;-0.8552;
639.3000;0.4387;-0.8577;
639.6000;0.4363;-0.8577;
639.9000;0.4387;-0.8528;
640.2000;0.4371;-0.8528;
640.5000;0.4371;-0.8478;
640.8000;0.4371;-0.8503;
641.1000;0.4347;-0.8528;
641.4000;0.4363;-0.8552;
641.7000;0.4363;-0.8552;
642.0000;0.4355;-0.8626;
642.3000;0.4363;-0.8602;
642.6000;0.4355;-0.8552;
642.9000;0.4290;-0.8700;
643.2000;0.4330;-0.8602;
643.5000;0.4347;-0.8676;
643.8000;0.4363;-0.8725;
644.1000;0.4355;-0.8700;
644.4000;0.4379;-0.8651;
644.7000;0.4306;-0.8873;
645.0000;0.4347;-0.8799;
645.3000;0.4306;-0.8897;
645.6000;0.4330;-0.8823;
645.9000;0.4330;-0.8823;
646.2000;0.4355;-0.8799;
646.5000;0.4314;-0.8848;
646.8000;0.4330;-0.8774;
647.1000;0.4322;-0.8799;
647.4000;0.4347;-0.8651;
647.7000;0.4298;-0.8626;
648.0000;0.4306;-0.8651;
648.3000;0.4306;-0.8602;
648.6000;0.4355;-0.8503;
648.9000;0.4314;-0.8602;
649.2000;0.4298;-0.8602;
649.5000;0.4330;-0.8528;
649.8000;0.4282;-0.8602;
650.1000;0.4298;-0.8651;
650.4000;0.4363;-0.8454;
650.7000;0.4298;-0.8749;
651.0000;0.4233;-0.8947;
651.3000;0.4298;-0.8725;
651.6000;0.4282;-0.8725;
651.9000;0.4265;-0.8848;
652.2000;0.4330;-0.8725;
652.5000;0.4265;-0.8848;
652.8000;0.4290;-0.8725;
653.1000;0.4314;-0.8725;
653.4000;0.4306;-0.8676;
653.7000;0.4298;-0.8626;
654.0000;0.4274;-0.8700;
654.3000;0.4217;-0.8848;
654.6000;0.4274;-0.8676;
654.9000;0.4330;-0.8528;
655.2000;0.4274;-0.8602;
655.5000;0.4249;-0.8602;
655.8000;0.4290;-0.8552;
656.1000;0.4257;-0.8602;
656.4000;0.4274;-0.8626;
656.7000;0.4257;-0.8626;
657.0000;0.4257;-0.8602;
657.3000;0.4265;-0.8577;
657.6000;0.4257;-0.8577;
657.9000;0.4233;-0.8602;
658.2000;0.4257;-0.8577;
658.5000;0.4208;-0.8626;
658.8000;0.4225;-0.8626;
659.1000;0.4225;-0.8552;
659.4000;0.4241;-0.8503;
659.7000;0.4274;-0.8380;
660.0000;0.4306;-0.8281;
660.3000;0.4225;-0.8577;
660.6000;0.4249;-0.8577;
660.9000;0.4217;-0.8700;
661.2000;0.4249;-0.8700;
661.5000;0.4257;-0.8651;
661.8000;0.4249;-0.8651;
662.1000;0.4282;-0.8577;
662.4000;0.4217;-0.8676;
662.7000;0.4241;-0.8602;
663.0000;0.4225;-0.8676;
663.3000;0.4265;-0.8651;
663.6000;0.4208;-0.8848;
663.9000;0.4208;-0.8823;
664.2000;0.4249;-0.8749;
664.5000;0.4225;-0.8897;
664.8000;0.4184;-0.8947;
665.1000;0.4192;-0.8897;
665.4000;0.4217;-0.8799;
665.7000;0.4249;-0.8700;
666.0000;0.4217;-0.8774;
666.3000;0.4225;-0.8749;
666.6000;0.4233;-0.8725;
666.9000;0.4200;-0.8651;
667.2000;0.4208;-0.8676;
667.5000;0.4225;-0.8602;
667.8000;0.4208;-0.8700;
668.1000;0.4225;-0.8626;
668.4000;0.4217;-0.8676;
668.7000;0.4192;-0.8749;
669.0000;0.4217;-0.8602;
669.3000;0.4217;-0.8602;
669.6000;0.4200;-0.8676;
669.9000;0.4168;-0.8799;
670.2000;0.4184;-0.8774;
670.5000;0.4184;-0.8676;
670.8000;0.4176;-0.8651;
671.1000;0.4168;-0.8626;
671.4000;0.4184;-0.8602;
671.7000;0.4168;-0.8577;
672.0000;0.4143;-0.8478;
672.3000;0.4168;-0.8454;
672.6000;0.4168;-0.8503;
672.9000;0.4160;-0.8478;
673.2000;0.4184;-0.8478;
673.5000;0.4168;-0.8503;
673.8000;0.4217;-0.8478;
674.1000;0.4176;-0.8552;
674.4000;0.4184;-0.8503;
674.7000;0.4160;-0.8552;
675.0000;0.4184;-0.8454;
675.3000;0.4103;-0.8602;
675.6000;0.4168;-0.8404;
675.9000;0.4176;-0.8404;
676.2000;0.4160;-0.8454;
676.5000;0.4094;-0.8577;
676.8000;0.4168;-0.8380;
677.1000;0.4160;-0.8528;
677.4000;0.4160;-0.8602;
677.7000;0.4143;-0.8602;
678.0000;0.4135;-0.8626;
678.3000;0.4160;-0.8676;
678.6000;0.4168;-0.8651;
678.9000;0.4151;-0.8676;
679.2000;0.4160;-0.8626;
679.5000;0.4151;-0.8602;
679.8000;0.4143;-0.8626;
680.1000;0.4208;-0.8429;
680.4000;0.4151;-0.8602;
680.7000;0.4135;-0.8602;
681.0000;0.4160;-0.8577;
681.3000;0.4135;-0.8577;
681.6000;0.4127;-0.8577;
681.9000;0.4127;-0.8577;
682.2000;0.4103;-0.8725;
682.5000;0.4233;-0.8404;
682.8000;0.4143;-0.8626;
683.1000;0.4127;-0.8725;
683.4000;0.4143;-0.8651;
683.7000;0.4119;-0.8676;
684.0000;0.4119;-0.8725;
684.3000;0.4111;-0.8725;
684.6000;0.4160;-0.8676;
684.9000;0.4192;-0.8528;
685.2000;0.4143;-0.8577;
685.5000;0.4135;-0.8577;
685.8000;0.4233;-0.8355;
686.1000;0.4160;-0.8626;
686.4000;0.4135;-0.8725;
686.7000;0.4143;-0.8651;
687.0000;0.4127;-0.8651;
687.3000;0.4143;-0.8651;
687.6000;0.4119;-0.8676;
687.9000;0.4143;-0.8676;
688.2000;0.4127;-0.8676;
688.5000;0.4151;-0.8577;
688.8000;0.4135;-0.8577;
689.1000;0.4143;-0.8626;
689.4000;0.4103;-0.8749;
689.7000;0.4119;-0.8749;
690.0000;0.4127;-0.8725;
690.3000;0.4119;-0.8725;
690.6000;0.4119;-0.8676;
690.9000;0.4111;-0.8700;
691.2000;0.4119;-0.8651;
691.5000;0.4103;-0.8700;
691.8000;0.4094;-0.8651;
692.1000;0.4119;-0.8552;
692.4000;0.4111;-0.8577;
692.7000;0.4086;-0.8577;
693.0000;0.4119;-0.8503;
693.3000;0.4111;-0.8429;
693.6000;0.4103;-0.8380;
693.9000;0.4094;-0.8404;
694.2000;0.4103;-0.8429;
694.5000;0.4103;-0.8355;
694.8000;0.4094;-0.8380;
695.1000;0.4119;-0.8380;
695.4000;0.4086;-0.8454;
695.7000;0.4094;-0.8454;
696.0000;0.4086;-0.8478;
696.3000;0.4094;-0.8454;
696.6000;0.4086;-0.8454;
696.9000;0.4062;-0.8454;
697.2000;0.4103;-0.8355;
697.5000;0.4094;-0.8404;
697.8000;0.4111;-0.8404;
698.1000;0.4151;-0.8355;
698.4000;0.4094;-0.8478;
698.7000;0.4143;-0.8380;
699.0000;0.4086;-0.8577;
699.3000;0.4078;-0.8626;
699.6000;0.4094;-0.8602;
699.9000;0.4037;-0.8749;
700.2000;0.4094;-0.8602;
700.5000;0.4062;-0.8676;
700.8000;0.4119;-0.8602;
701.1000;0.4062;-0.8725;
701.4000;0.4094;-0.8651;
701.7000;0.4070;-0.8676;
702.0000;0.4046;-0.8749;
702.3000;0.4062;-0.8799;
702.6000;0.4078;-0.8823;
702.9000;0.4078;-0.8799;
703.2000;0.4062;-0.8873;
703.5000;0.4070;-0.8774;
703.8000;0.4086;-0.8873;
704.1000;0.4135;-0.8700;
704.4000;0.4094;-0.8725;
704.7000;0.4086;-0.8749;
705.0000;0.4062;-0.8897;
705.3000;0.4062;-0.8749;
705.6000;0.3980;-0.8947;
705.9000;0.4086;-0.8577;
706.2000;0.4037;-0.8602;
706.5000;0.4062;-0.8528;
706.8000;0.4037;-0.8602;
707.1000;0.4127;-0.8404;
707.4000;0.4078;-0.8528;
707.7000;0.4062;-0.8602;
708.0000;0.4062;-0.8577;
708.3000;0.4062;-0.8552;
708.6000;0.4094;-0.8454;
708.9000;0.4070;-0.8503;
709.2000;0.4062;-0.8429;
709.5000;0.4062;-0.8528;
709.8000;0.4054;-0.8626;
710.1000;0.4037;-0.8626;
710.4000;0.4054;-0.8651;
710.7000;0.4062;-0.8676;
711.0000;0.4046;-0.8651;
711.3000;0.4062;-0.8626;
711.6000;0.4046;-0.8602;
711.9000;0.4037;-0.8676;
712.2000;0.4037;-0.8749;
712.5000;0.4054;-0.8774;
712.8000;0.4046;-0.8774;
713.1000;0.4046;-0.8749;
713.4000;0.4046;-0.8651;
713.7000;0.4046;-0.8749;
714.0000;0.4037;-0.8676;
714.3000;0.4054;-0.8602;
714.6000;0.4037;-0.8651;
714.9000;0.4046;-0.8602;
715.2000;0.4037;-0.8577;
715.5000;0.4054;-0.8528;
715.8000;0.4037;-0.8552;
716.1000;0.4037;-0.8552;
716.4000;0.4062;-0.8478;
716.7000;0.4062;-0.8454;
717.0000;0.4029;-0.8552;
717.3000;0.4013;-0.8602;
717.6000;0.4021;-0.8626;
717.9000;0.4029;-0.8602;
718.2000;0.4029;-0.8577;
718.5000;0.4021;-0.8626;
718.8000;0.4021;-0.8577;
719.1000;0.4046;-0.8528;
719.4000;0.4013;-0.8528;
719.7000;0.4054;-0.8478;
720.0000;0.4013;-0.8602;
720.3000;0.4046;-0.8503;
720.6000;0.4021;-0.8626;
720.9000;0.3997;-0.8700;
721.2000;0.4054;-0.8676;
721.5000;0.4029;-0.8725;
721.8000;0.4021;-0.8676;
722.1000;0.4029;-0.8774;
722.4000;0.4029;-0.8774;
722.7000;0.4046;-0.8774;
723.0000;0.4054;-0.8749;
723.3000;0.4013;-0.8823;
723.6000;0.4054;-0.8725;
723.9000;0.4029;-0.8749;
724.2000;0.3997;-0.8749;
724.5000;0.4029;-0.8676;
724.8000;0.4013;-0.8725;
725.1000;0.4037;-0.8651;
725.4000;0.4078;-0.8454;
725.7000;0.4054;-0.8577;
726.0000;0.3989;-0.8725;
726.3000;0.4005;-0.8651;
726.6000;0.4046;-0.8454;
726.9000;0.4029;-0.8429;
727.2000;0.4021;-0.8355;
727.5000;0.3997;-0.8380;
727.8000;0.4029;-0.8404;
728.1000;0.4029;-0.8404;
728.4000;0.4005;-0.8429;
728.7000;0.4005;-0.8429;
729.0000;0.4005;-0.8454;
729.3000;0.4005;-0.8577;
729.6000;0.4013;-0.8454;
729.9000;0.4005;-0.8478;
730.2000;0.3989;-0.8552;
730.5000;0.4021;-0.8577;
730.8000;0.4021;-0.8528;
731.1000;0.4013;-0.8503;
731.4000;0.3997;-0.8478;
731.7000;0.4021;-0.8454;
732.0000;0.4005;-0.8478;
732.3000;0.3980;-0.8503;
732.6000;0.3989;-0.8404;
732.9000;0.3997;-0.8429;
733.2000;0.3989;-0.8552;
733.5000;0.3980;-0.8700;
733.8000;0.4005;-0.8651;
734.1000;0.3980;-0.8651;
734.4000;0.4037;-0.8577;
734.7000;0.4005;-0.8626;
735.0000;0.4005;-0.8552;
735.3000;0.4029;-0.8503;
735.6000;0.4005;-0.8528;
735.9000;0.4013;-0.8528;
736.2000;0.4021;-0.8528;
736.5000;0.4013;-0.8552;
736.8000;0.3972;-0.8651;
737.1000;0.3980;-0.8577;
737.4000;0.3940;-0.8651;
737.7000;0.3964;-0.8676;
738.0000;0.3980;-0.8700;
738.3000;0.3997;-0.8651;
738.6000;0.3997;-0.8676;
738.9000;0.4046;-0.8528;
739.2000;0.3997;-0.8626;
739.5000;0.3989;-0.8577;
739.8000;0.3989;-0.8602;
740.1000;0.3989;-0.8528;
740.4000;0.3980;-0.8528;
740.7000;0.3980;-0.8528;
741.0000;0.4029;-0.8478;
741.3000;0.3964;-0.8602;
741.6000;0.3980;-0.8577;
741.9000;0.3997;-0.8478;
742.2000;0.3964;-0.8577;
742.5000;0.3980;-0.8602;
742.8000;0.3972;-0.8651;
743.1000;0.3997;-0.8503;
743.4000;0.4005;-0.8503;
743.7000;0.4029;-0.8454;
744.0000;0.3964;-0.8503;
744.3000;0.3972;-0.8528;
744.6000;0.4005;-0.8478;
744.9000;0.3972;-0.8454;
745.2000;0.3980;-0.8429;
745.5000;0.3989;-0.8478;
745.8000;0.3980;-0.8478;
746.1000;0.3956;-0.8626;
746.4000;0.3980;-0.8602;
746.7000;0.3948;-0.8626;
747.0000;0.3989;-0.8552;
747.3000;0.3972;-0.8626;
747.6000;0.3964;-0.8799;
747.9000;0.3972;-0.8725;
748.2000;0.3923;-0.8897;
748.5000;0.3972;-0.8749;
748.8000;0.3980;-0.8799;
749.1000;0.3989;-0.8774;
749.4000;0.3956;-0.8774;
749.7000;0.3972;-0.8700;
750.0000;0.3964;-0.8626;
750.3000;0.3972;-0.8651;
750.6000;0.3972;-0.8651;
750.9000;0.3972;-0.8626;
751.2000;0.3972;-0.8626;
751.5000;0.3932;-0.8676;
751.8000;0.3989;-0.8602;
752.1000;0.3972;-0.8725;
752.4000;0.3997;-0.8725;
752.7000;0.3980;-0.8651;
753.0000;0.3972;-0.8651;
753.3000;0.3997;-0.8626;
753.6000;0.3964;-0.8676;
753.9000;0.3956;-0.8651;
754.2000;0.3964;-0.8651;
754.5000;0.3972;-0.8651;
754.8000;0.4013;-0.8552;
755.1000;0.3980;-0.8577;
755.4000;0.3964;-0.8528;
755.7000;0.3956;-0.8503;
756.0000;0.3948;-0.8602;
756.3000;0.3964;-0.8577;
756.6000;0.3940;-0.8602;
756.9000;0.3956;-0.8503;
757.2000;0.3956;-0.8503;
757.5000;0.3956;-0.8503;
757.8000;0.3948;-0.8552;
758.1000;0.3923;-0.8602;
758.4000;0.4029;-0.8355;
758.7000;0.3956;-0.8478;
759.0000;0.3923;-0.8478;
759.3000;0.3956;-0.8404;
759.6000;0.3940;-0.8478;
759.9000;0.3940;-0.8503;
760.2000;0.3964;-0.8503;
760.5000;0.4005;-0.8380;
760.8000;0.3972;-0.8503;
761.1000;0.3956;-0.8503;
761.4000;0.3940;-0.8552;
761.7000;0.4013;-0.8330;
762.0000;0.3948;-0.8429;
762.3000;0.4037;-0.8207;
762.6000;0.3956;-0.8478;
762.9000;0.3956;-0.8528;
763.2000;0.3948;-0.8454;
763.5000;0.3948;-0.8429;
763.8000;0.3972;-0.8257;
764.1000;0.3972;-0.8257;
764.4000;0.3932;-0.8478;
764.7000;0.3923;-0.8404;
765.0000;0.3948;-0.8404;
765.3000;0.3923;-0.8478;
765.6000;0.3964;-0.8306;
765.9000;0.3907;-0.8330;
766.2000;0.3980;-0.8232;
766.5000;0.3940;-0.8355;
766.8000;0.3956;-0.8454;
767.1000;0.3875;-0.8577;
767.4000;0.3972;-0.8380;
767.7000;0.3948;-0.8429;
768.0000;0.3932;-0.8503;
768.3000;0.3948;-0.8478;
768.6000;0.3923;-0.8552;
768.9000;0.3940;-0.8454;
769.2000;0.3956;-0.8380;
769.5000;0.3932;-0.8380;
769.8000;0.3932;-0.8528;
770.1000;0.3858;-0.8676;
770.4000;0.3915;-0.8552;
770.7000;0.3923;-0.8552;
771.0000;0.3899;-0.8626;
771.3000;0.3940;-0.8478;
771.6000;0.3940;-0.8478;
771.9000;0.3923;-0.8503;
772.2000;0.3932;-0.8454;
772.5000;0.3964;-0.8429;
772.8000;0.3923;-0.8454;
773.1000;0.3940;-0.8454;
773.4000;0.3932;-0.8429;
773.7000;0.3948;-0.8429;
774.0000;0.3940;-0.8478;
774.3000;0.3940;-0.8503;
774.6000;0.3932;-0.8528;
774.9000;0.3923;-0.8577;
775.2000;0.3891;-0.8602;
775.5000;0.3923;-0.8577;
775.8000;0.3915;-0.8552;
776.1000;0.3940;-0.8503;
776.4000;0.3940;-0.8454;
776.7000;0.3932;-0.8404;
777.0000;0.3940;-0.8355;
777.3000;0.3907;-0.8454;
777.6000;0.3907;-0.8380;
777.9000;0.3899;-0.8478;
778.2000;0.3899;-0.8626;
778.5000;0.3940;-0.8577;
778.8000;0.3932;-0.8651;
779.1000;0.3923;-0.8602;
779.4000;0.3948;-0.8528;
779.7000;0.3932;-0.8478;
780.0000;0.3923;-0.8528;
780.3000;0.3915;-0.8429;
780.6000;0.3923;-0.8330;
780.9000;0.3932;-0.8404;
781.2000;0.3972;-0.8380;
781.5000;0.3923;-0.8528;
781.8000;0.3964;-0.8454;
782.1000;0.3932;-0.8552;
782.4000;0.3883;-0.8602;
782.7000;0.3923;-0.8454;
783.0000;0.3923;-0.8454;
783.3000;0.3883;-0.8552;
783.6000;0.3907;-0.8577;
783.9000;0.3915;-0.8577;
784.2000;0.3940;-0.8478;
784.5000;0.3915;-0.8528;
784.8000;0.3915;-0.8552;
785.1000;0.3923;-0.8602;
785.4000;0.3923;-0.8552;
785.7000;0.3923;-0.8651;
786.0000;0.3923;-0.8602;
786.3000;0.3907;-0.8602;
786.6000;0.3915;-0.8577;
786.9000;0.3915;-0.8478;
787.2000;0.3907;-0.8429;
787.5000;0.3915;-0.8478;
787.8000;0.3907;-0.8429;
788.1000;0.3956;-0.8380;
788.4000;0.3915;-0.8429;
788.7000;0.3907;-0.8429;
789.0000;0.3915;-0.8503;
789.3000;0.3915;-0.8528;
789.6000;0.3915;-0.8503;
789.9000;0.3940;-0.8503;
790.2000;0.3907;-0.8577;
790.5000;0.3915;-0.8577;
790.8000;0.3923;-0.8503;
791.1000;0.3915;-0.8404;
791.4000;0.3899;-0.8429;
791.7000;0.3915;-0.8330;
792.0000;0.3891;-0.8404;
792.3000;0.3899;-0.8380;
792.6000;0.3883;-0.8454;
792.9000;0.3850;-0.8503;
793.2000;0.3907;-0.8404;
793.5000;0.3964;-0.8232;
793.8000;0.3956;-0.8207;
794.1000;0.3907;-0.8330;
794.4000;0.3940;-0.8207;
794.7000;0.3883;-0.8355;
795.0000;0.3907;-0.8232;
795.3000;0.3915;-0.8158;
795.6000;0.3915;-0.8183;
795.9000;0.3907;-0.8232;
796.2000;0.3915;-0.8257;
796.5000;0.3899;-0.8380;
796.8000;0.3899;-0.8429;
797.1000;0.3850;-0.8478;
797.4000;0.3915;-0.8232;
797.7000;0.3891;-0.8330;
798.0000;0.3940;-0.8158;
798.3000;0.3907;-0.8306;
798.6000;0.3972;-0.8059;
798.9000;0.3883;-0.8355;
799.2000;0.3891;-0.8404;
799.5000;0.3915;-0.8380;
799.8000;0.3875;-0.8454;
800.1000;0.3907;-0.8380;
800.4000;0.3899;-0.8355;
800.7000;0.3907;-0.8330;
801.0000;0.3948;-0.8207;
801.3000;0.3899;-0.8380;
801.6000;0.3891;-0.8355;
801.9000;0.3899;-0.8355;
802.2000;0.3907;-0.8306;
802.5000;0.3915;-0.8281;
802.8000;0.3891;-0.8306;
803.1000;0.3875;-0.8355;
803.4000;0.3907;-0.8257;
803.7000;0.3940;-0.8133;
804.0000;0.3875;-0.8257;
804.3000;0.3899;-0.8232;
804.6000;0.3875;-0.8257;
804.9000;0.3891;-0.8183;
805.2000;0.3883;-0.8232;
805.5000;0.3899;-0.8306;
805.8000;0.3915;-0.8281;
806.1000;0.3907;-0.8306;
806.4000;0.3883;-0.8306;
806.7000;0.3923;-0.8232;
807.0000;0.3899;-0.8257;
807.3000;0.3915;-0.8183;
807.6000;0.3883;-0.8232;
807.9000;0.3980;-0.7985;
808.2000;0.3899;-0.8207;
808.5000;0.3932;-0.8109;
808.8000;0.3834;-0.8380;
809.1000;0.3899;-0.8257;
809.4000;0.3883;-0.8306;
809.7000;0.3899;-0.8380;
810.0000;0.3891;-0.8429;
810.3000;0.3891;-0.8454;
810.6000;0.3858;-0.8552;
810.9000;0.3899;-0.8404;
811.2000;0.3899;-0.8281;
811.5000;0.3891;-0.8257;
811.8000;0.3883;-0.8232;
812.1000;0.3891;-0.8183;
812.4000;0.3867;-0.8232;
812.7000;0.3899;-0.8084;
813.0000;0.3883;-0.8084;
813.3000;0.3891;-0.8133;
813.6000;0.3891;-0.8035;
813.9000;0.3801;-0.8330;
814.2000;0.3867;-0.8158;
814.5000;0.3899;-0.8109;
814.8000;0.3899;-0.8109;
815.1000;0.3891;-0.8133;
815.4000;0.3907;-0.8109;
815.7000;0.3891;-0.8133;
816.0000;0.3883;-0.8109;
816.3000;0.3883;-0.8133;
816.6000;0.3818;-0.8281;
816.9000;0.3858;-0.8183;
817.2000;0.3883;-0.8084;
817.5000;0.3891;-0.8109;
817.8000;0.3891;-0.8133;
818.1000;0.3867;-0.8257;
818.4000;0.3883;-0.8207;
818.7000;0.3867;-0.8207;
819.0000;0.3826;-0.8355;
819.3000;0.3915;-0.8207;
819.6000;0.3875;-0.8281;
819.9000;0.3883;-0.8257;
820.2000;0.3826;-0.8380;
820.5000;0.3858;-0.8232;
820.8000;0.3818;-0.8380;
821.1000;0.3899;-0.8257;
821.4000;0.3891;-0.8355;
821.7000;0.3875;-0.8281;
822.0000;0.3867;-0.8306;
822.3000;0.3875;-0.8257;
822.6000;0.3883;-0.8207;
822.9000;0.3883;-0.8133;
823.2000;0.3867;-0.8232;
823.5000;0.3940;-0.8133;
823.8000;0.3875;-0.8281;
824.1000;0.3875;-0.8380;
824.4000;0.3883;-0.8306;
824.7000;0.3867;-0.8306;
825.0000;0.3883;-0.8232;
825.3000;0.3875;-0.8257;
825.6000;0.3858;-0.8306;
825.9000;0.3867;-0.8330;
826.2000;0.3883;-0.8330;
826.5000;0.3867;-0.8429;
826.8000;0.3867;-0.8429;
827.1000;0.3875;-0.8355;
827.4000;0.3875;-0.8257;
827.7000;0.3883;-0.8281;
828.0000;0.3867;-0.8306;
828.3000;0.3875;-0.8330;
828.6000;0.3850;-0.8478;
828.9000;0.3891;-0.8404;
829.2000;0.3875;-0.8478;
829.5000;0.3891;-0.8478;
829.8000;0.3899;-0.8478;
830.1000;0.3883;-0.8454;
830.4000;0.3875;-0.8429;
830.7000;0.3883;-0.8404;
831.0000;0.3858;-0.8429;
831.3000;0.3777;-0.8602;
831.6000;0.3842;-0.8552;
831.9000;0.3867;-0.8577;
832.2000;0.3875;-0.8577;
832.5000;0.3875;-0.8552;
832.8000;0.3867;-0.8577;
833.1000;0.3891;-0.8528;
833.4000;0.3875;-0.8626;
833.7000;0.3891;-0.8626;
834.0000;0.3891;-0.8651;
834.3000;0.3875;-0.8651;
834.6000;0.3891;-0.8503;
834.9000;0.3923;-0.8454;
835.2000;0.3875;-0.8602;
835.5000;0.3858;-0.8651;
835.8000;0.3875;-0.8626;
836.1000;0.3907;-0.8552;
836.4000;0.3867;-0.8577;
836.7000;0.3891;-0.8528;
837.0000;0.3850;-0.8626;
837.3000;0.3834;-0.8552;
837.6000;0.3867;-0.8429;
837.9000;0.3875;-0.8380;
838.2000;0.3810;-0.8528;
838.5000;0.3867;-0.8404;
838.8000;0.3867;-0.8454;
839.1000;0.3875;-0.8404;
839.4000;0.3907;-0.8380;
839.7000;0.3891;-0.8429;
840.0000;0.3858;-0.8478;
840.3000;0.3850;-0.8478;
840.6000;0.3850;-0.8380;
840.9000;0.3712;-0.8626;
841.2000;0.3850;-0.8281;
841.5000;0.3875;-0.8281;
841.8000;0.3883;-0.8380;
842.1000;0.3858;-0.8429;
842.4000;0.3883;-0.8429;
842.7000;0.3826;-0.8528;
843.0000;0.3858;-0.8404;
843.3000;0.3867;-0.8404;
843.6000;0.3875;-0.8330;
843.9000;0.3858;-0.8355;
844.2000;0.3834;-0.8478;
844.5000;0.3867;-0.8404;
844.8000;0.3883;-0.8355;
845.1000;0.3826;-0.8454;
845.4000;0.3850;-0.8355;
845.7000;0.3801;-0.8454;
846.0000;0.3850;-0.8404;
846.3000;0.3850;-0.8380;
846.6000;0.3850;-0.8330;
846.9000;0.3842;-0.8380;
847.2000;0.3858;-0.8355;
847.5000;0.3850;-0.8380;
847.8000;0.3867;-0.8404;
848.1000;0.3867;-0.8429;
848.4000;0.3850;-0.8429;
848.7000;0.3850;-0.8429;
849.0000;0.3858;-0.8478;
849.3000;0.3842;-0.8330;
849.6000;0.3858;-0.8257;
849.9000;0.3850;-0.8257;
850.2000;0.3850;-0.8281;
850.5000;0.3834;-0.8355;
850.8000;0.3834;-0.8355;
851.1000;0.3842;-0.8281;
851.4000;0.3826;-0.8330;
851.7000;0.3907;-0.8133;
852.0000;0.3850;-0.8207;
852.3000;0.3842;-0.8257;
852.6000;0.3842;-0.8306;
852.9000;0.3867;-0.8281;
853.2000;0.3850;-0.8306;
853.5000;0.3899;-0.8158;
853.8000;0.3842;-0.8355;
854.1000;0.3850;-0.8306;
854.4000;0.3818;-0.8330;
854.7000;0.3842;-0.8232;
855.0000;0.3834;-0.8183;
855.3000;0.3818;-0.8380;
855.6000;0.3842;-0.8257;
855.9000;0.3858;-0.8183;
856.2000;0.3867;-0.8207;
856.5000;0.3842;-0.8232;
856.8000;0.3834;-0.8183;
857.1000;0.3842;-0.8257;
857.4000;0.3850;-0.8257;
857.7000;0.3842;-0.8281;
858.0000;0.3858;-0.8059;
858.3000;0.3842;-0.8084;
858.6000;0.3818;-0.8257;
858.9000;0.3858;-0.8257;
859.2000;0.3867;-0.8232;
859.5000;0.3867;-0.8183;
859.8000;0.3850;-0.8257;
860.1000;0.3810;-0.8330;
860.4000;0.3826;-0.8257;
860.7000;0.3858;-0.8133;
861.0000;0.3842;-0.8109;
861.3000;0.3834;-0.8084;
861.6000;0.3834;-0.8084;
861.9000;0.3850;-0.8084;
862.2000;0.3891;-0.8010;
862.5000;0.3858;-0.8207;
862.8000;0.3818;-0.8380;
863.1000;0.3842;-0.8380;
863.4000;0.3826;-0.8478;
863.7000;0.3858;-0.8404;
864.0000;0.3867;-0.8429;
864.3000;0.3850;-0.8355;
864.6000;0.3915;-0.7985;
864.9000;0.3850;-0.8084;
865.2000;0.3867;-0.8133;
865.5000;0.3850;-0.8207;
865.8000;0.3875;-0.8281;
866.1000;0.3850;-0.8429;
866.4000;0.3834;-0.8503;
866.7000;0.3915;-0.8355;
867.0000;0.3932;-0.8330;
867.3000;0.3842;-0.8577;
867.6000;0.3850;-0.8552;
867.9000;0.3858;-0.8577;
868.2000;0.3785;-0.8676;
868.5000;0.3891;-0.8528;
868.8000;0.3826;-0.8676;
869.1000;0.3858;-0.8577;
869.4000;0.3842;-0.8577;
869.7000;0.3875;-0.8429;
870.0000;0.3850;-0.8380;
870.3000;0.3850;-0.8306;
870.6000;0.3834;-0.8355;
870.9000;0.3842;-0.8306;
871.2000;0.3834;-0.8355;
871.5000;0.3810;-0.8429;
871.8000;0.3810;-0.8404;
872.1000;0.3826;-0.8330;
872.4000;0.3850;-0.8232;
872.7000;0.3826;-0.8281;
873.0000;0.3834;-0.8429;
873.3000;0.3842;-0.8454;
873.6000;0.3850;-0.8380;
873.9000;0.3842;-0.8429;
874.2000;0.3826;-0.8528;
874.5000;0.3842;-0.8552;
874.8000;0.3858;-0.8454;
875.1000;0.3834;-0.8429;
875.4000;0.3842;-0.8404;
875.7000;0.3810;-0.8429;
876.0000;0.3826;-0.8429;
876.3000;0.3834;-0.8478;
876.6000;0.3842;-0.8380;
876.9000;0.3818;-0.8429;
877.2000;0.3834;-0.8380;
877.5000;0.3834;-0.8355;
877.8000;0.3842;-0.8355;
878.1000;0.3801;-0.8503;
878.4000;0.3932;-0.8207;
878.7000;0.3842;-0.8429;
879.0000;0.3842;-0.8429;
879.3000;0.3834;-0.8454;
879.6000;0.3842;-0.8454;
879.9000;0.3850;-0.8404;
880.2000;0.3850;-0.8478;
880.5000;0.3753;-0.8676;
880.8000;0.3842;-0.8503;
881.1000;0.3842;-0.8528;
881.4000;0.3834;-0.8454;
881.7000;0.3818;-0.8454;
882.0000;0.3875;-0.8454;
882.3000;0.3826;-0.8577;
882.6000;0.3834;-0.8528;
882.9000;0.3875;-0.8404;
883.2000;0.3818;-0.8478;
883.5000;0.3834;-0.8429;
883.8000;0.3834;-0.8404;
884.1000;0.3850;-0.8281;
884.4000;0.3801;-0.8380;
884.7000;0.3842;-0.8330;
885.0000;0.3810;-0.8454;
885.3000;0.3842;-0.8404;
885.6000;0.3810;-0.8429;
885.9000;0.3891;-0.8257;
886.2000;0.3834;-0.8478;
886.5000;0.3834;-0.8429;
886.8000;0.3744;-0.8676;
887.1000;0.3818;-0.8478;
887.4000;0.3826;-0.8478;
887.7000;0.3875;-0.8380;
888.0000;0.3842;-0.8429;
888.3000;0.3826;-0.8429;
888.6000;0.3834;-0.8429;
888.9000;0.3948;-0.8084;
889.2000;0.3810;-0.8454;
889.5000;0.3834;-0.8429;
889.8000;0.3801;-0.8552;
890.1000;0.3915;-0.8257;
890.4000;0.3834;-0.8528;
890.7000;0.3915;-0.8355;
891.0000;0.3826;-0.8602;
891.3000;0.3834;-0.8552;
891.6000;0.3834;-0.8503;
891.9000;0.3810;-0.8503;
892.2000;0.3899;-0.8207;
892.5000;0.3810;-0.8404;
892.8000;0.3842;-0.8306;
893.1000;0.3810;-0.8429;
893.4000;0.3818;-0.8429;
893.7000;0.3810;-0.8478;
894.0000;0.3834;-0.8429;
894.3000;0.3834;-0.8429;
894.6000;0.3818;-0.8552;
894.9000;0.3834;-0.8454;
895.2000;0.3850;-0.8454;
895.5000;0.3810;-0.8552;
895.8000;0.3834;-0.8552;
896.1000;0.3834;-0.8528;
896.4000;0.3834;-0.8602;
896.7000;0.3818;-0.8577;
897.0000;0.3834;-0.8577;
897.3000;0.3834;-0.8454;
897.6000;0.3826;-0.8429;
897.9000;0.3858;-0.8404;
898.2000;0.3842;-0.8454;
898.5000;0.3826;-0.8478;
898.8000;0.3818;-0.8404;
899.1000;0.3810;-0.8454;
899.4000;0.3834;-0.8478;
899.7000;0.3834;-0.8454;
900.0000;0.3818;-0.8454;
900.3000;0.3834;-0.8503;
900.6000;0.3858;-0.8429;
900.9000;0.3801;-0.8602;
901.2000;0.3826;-0.8577;
901.5000;0.3818;-0.8552;
901.8000;0.3810;-0.8454;
902.1000;0.3801;-0.8528;
902.4000;0.3801;-0.8528;
902.7000;0.3834;-0.8528;
903.0000;0.3826;-0.8528;
903.3000;0.3818;-0.8552;
903.6000;0.3826;-0.8602;
903.9000;0.3818;-0.8626;
904.2000;0.3818;-0.8602;
904.5000;0.3810;-0.8577;
904.8000;0.3761;-0.8676;
905.1000;0.3793;-0.8651;
905.4000;0.3826;-0.8626;
905.7000;0.3826;-0.8676;
906.0000;0.3785;-0.8725;
906.3000;0.3818;-0.8651;
906.6000;0.3826;-0.8651;
906.9000;0.3810;-0.8651;
907.2000;0.3818;-0.8626;
907.5000;0.3818;-0.8602;
907.8000;0.3785;-0.8651;
908.1000;0.3818;-0.8528;
908.4000;0.3818;-0.8626;
908.7000;0.3826;-0.8552;
909.0000;0.3867;-0.8478;
909.3000;0.3826;-0.8503;
909.6000;0.3785;-0.8626;
909.9000;0.3834;-0.8577;
910.2000;0.3818;-0.8528;
910.5000;0.3834;-0.8552;
910.8000;0.3858;-0.8552;
911.1000;0.3834;-0.8651;
911.4000;0.3793;-0.8749;
911.7000;0.3801;-0.8774;
912.0000;0.3850;-0.8626;
912.3000;0.3818;-0.8676;
912.6000;0.3818;-0.8552;
912.9000;0.3810;-0.8626;
913.2000;0.3785;-0.8602;
913.5000;0.3801;-0.8651;
913.8000;0.3801;-0.8626;
914.1000;0.3850;-0.8454;
914.4000;0.3810;-0.8503;
914.7000;0.3810;-0.8429;
915.0000;0.3883;-0.8207;
915.3000;0.3801;-0.8330;
915.6000;0.3801;-0.8404;
915.9000;0.3818;-0.8404;
916.2000;0.3801;-0.8503;
916.5000;0.3777;-0.8577;
916.8000;0.3785;-0.8626;
917.1000;0.3761;-0.8651;
917.4000;0.3810;-0.8552;
917.7000;0.3818;-0.8478;
918.0000;0.3801;-0.8429;
918.3000;0.3810;-0.8503;
918.6000;0.3818;-0.8552;
918.9000;0.3810;-0.8651;
919.2000;0.3818;-0.8749;
919.5000;0.3826;-0.8626;
919.8000;0.3842;-0.8626;
920.1000;0.3826;-0.8676;
920.4000;0.3891;-0.8429;
920.7000;0.3818;-0.8528;
921.0000;0.3801;-0.8503;
921.3000;0.3834;-0.8503;
921.6000;0.3810;-0.8577;
921.9000;0.3793;-0.8577;
922.2000;0.3810;-0.8528;
922.5000;0.3736;-0.8700;
922.8000;0.3818;-0.8552;
923.1000;0.3818;-0.8577;
923.4000;0.3826;-0.8577;
923.7000;0.3801;-0.8602;
924.0000;0.3801;-0.8528;
924.3000;0.3801;-0.8626;
924.6000;0.3826;-0.8454;
924.9000;0.3810;-0.8478;
925.2000;0.3810;-0.8503;
925.5000;0.3818;-0.8602;
925.8000;0.3818;-0.8577;
926.1000;0.3826;-0.8602;
926.4000;0.3810;-0.8626;
926.7000;0.3785;-0.8676;
927.0000;0.3793;-0.8602;
927.3000;0.3810;-0.8528;
927.6000;0.3801;-0.8478;
927.9000;0.3810;-0.8454;
928.2000;0.3785;-0.8552;
928.5000;0.3801;-0.8478;
928.8000;0.3801;-0.8552;
929.1000;0.3801;-0.8602;
929.4000;0.3810;-0.8552;
929.7000;0.3801;-0.8528;
930.0000;0.3842;-0.8454;
930.3000;0.3801;-0.8528;
930.6000;0.3761;-0.8602;
930.9000;0.3810;-0.8552;
931.2000;0.3801;-0.8503;
931.5000;0.3793;-0.8503;
931.8000;0.3769;-0.8626;
932.1000;0.3777;-0.8626;
932.4000;0.3867;-0.8454;
932.7000;0.3826;-0.8528;
933.0000;0.3777;-0.8602;
933.3000;0.3753;-0.8602;
933.6000;0.3810;-0.8429;
933.9000;0.3818;-0.8281;
934.2000;0.3793;-0.8330;
934.5000;0.3801;-0.8306;
934.8000;0.3826;-0.8306;
935.1000;0.3769;-0.8429;
935.4000;0.3769;-0.8503;
935.7000;0.3801;-0.8503;
936.0000;0.3810;-0.8404;
936.3000;0.3810;-0.8454;
936.6000;0.3785;-0.8528;
936.9000;0.3769;-0.8602;
937.2000;0.3850;-0.8429;
937.5000;0.3810;-0.8503;
937.8000;0.3810;-0.8478;
938.1000;0.3801;-0.8454;
938.4000;0.3818;-0.8528;
938.7000;0.3818;-0.8429;
939.0000;0.3793;-0.8503;
939.3000;0.3801;-0.8528;
939.6000;0.3810;-0.8478;
939.9000;0.3761;-0.8528;
940.2000;0.3810;-0.8380;
940.5000;0.3793;-0.8404;
940.8000;0.3793;-0.8454;
941.1000;0.3867;-0.8232;
941.4000;0.3810;-0.8380;
941.7000;0.3793;-0.8380;
942.0000;0.3801;-0.8380;
942.3000;0.3801;-0.8404;
942.6000;0.3785;-0.8454;
942.9000;0.3793;-0.8380;
943.2000;0.3801;-0.8454;
943.5000;0.3834;-0.8404;
943.8000;0.3850;-0.8454;
944.1000;0.3810;-0.8602;
944.4000;0.3810;-0.8503;
944.7000;0.3810;-0.8503;
945.0000;0.3818;-0.8454;
945.3000;0.3834;-0.8355;
945.6000;0.3818;-0.8503;
945.9000;0.3801;-0.8577;
946.2000;0.3801;-0.8626;
946.5000;0.3907;-0.8380;
946.8000;0.3818;-0.8528;
947.1000;0.3801;-0.8577;
947.4000;0.3793;-0.8528;
947.7000;0.3801;-0.8552;
948.0000;0.3793;-0.8503;
948.3000;0.3793;-0.8454;
948.6000;0.3785;-0.8429;
948.9000;0.3810;-0.8404;
949.2000;0.3769;-0.8528;
949.5000;0.3777;-0.8528;
949.8000;0.3793;-0.8478;
950.1000;0.3810;-0.8503;
950.4000;0.3793;-0.8552;
950.7000;0.3810;-0.8503;
951.0000;0.3785;-0.8478;
951.3000;0.3810;-0.8380;
951.6000;0.3793;-0.8404;
951.9000;0.3785;-0.8528;
952.2000;0.3818;-0.8454;
952.5000;0.3891;-0.8257;
952.8000;0.3810;-0.8503;
953.1000;0.3818;-0.8528;
953.4000;0.3801;-0.8602;
953.7000;0.3801;-0.8503;
954.0000;0.3777;-0.8528;
954.3000;0.3810;-0.8429;
954.6000;0.3810;-0.8454;
954.9000;0.3801;-0.8503;
955.2000;0.3826;-0.8429;
955.5000;0.3793;-0.8577;
955.8000;0.3736;-0.8749;
956.1000;0.3761;-0.8700;
956.4000;0.3899;-0.8330;
956.7000;0.3818;-0.8528;
957.0000;0.3793;-0.8577;
957.3000;0.3801;-0.8577;
957.6000;0.3761;-0.8602;
957.9000;0.3801;-0.8552;
958.2000;0.3818;-0.8577;
958.5000;0.3793;-0.8626;
958.8000;0.3769;-0.8700;
959.1000;0.3785;-0.8552;
959.4000;0.3793;-0.8552;
959.7000;0.3801;-0.8626;
960.0000;0.3793;-0.8626;
960.3000;0.3801;-0.8552;
960.6000;0.3801;-0.8577;
960.9000;0.3793;-0.8552;
961.2000;0.3744;-0.8676;
961.5000;0.3810;-0.8478;
961.8000;0.3858;-0.8232;
962.1000;0.3793;-0.8454;
962.4000;0.3769;-0.8454;
962.7000;0.3785;-0.8429;
963.0000;0.3810;-0.8306;
963.3000;0.3785;-0.8380;
963.6000;0.3777;-0.8281;
963.9000;0.3793;-0.8207;
964.2000;0.3785;-0.8232;
964.5000;0.3801;-0.8330;
964.8000;0.3785;-0.8380;
965.1000;0.3801;-0.8380;
965.4000;0.3793;-0.8281;
965.7000;0.3801;-0.8281;
966.0000;0.3793;-0.8232;
966.3000;0.3793;-0.8281;
966.6000;0.3834;-0.8232;
966.9000;0.3793;-0.8429;
967.2000;0.3785;-0.8429;
967.5000;0.3793;-0.8404;
967.8000;0.3801;-0.8355;
968.1000;0.3793;-0.8330;
968.4000;0.3793;-0.8380;
968.7000;0.3785;-0.8306;
969.0000;0.3785;-0.8207;
969.3000;0.3793;-0.8183;
969.6000;0.3801;-0.8232;
969.9000;0.3834;-0.8109;
970.2000;0.3801;-0.8059;
970.5000;0.3818;-0.8010;
970.8000;0.3793;-0.8158;
971.1000;0.3777;-0.8158;
971.4000;0.3785;-0.8257;
971.7000;0.3769;-0.8232;
972.0000;0.3818;-0.8084;
972.3000;0.3850;-0.7936;
972.6000;0.3785;-0.8183;
972.9000;0.3793;-0.8059;
973.2000;0.3810;-0.8035;
973.5000;0.3801;-0.8133;
973.8000;0.3801;-0.8158;
974.1000;0.3810;-0.8183;
974.4000;0.3801;-0.8183;
974.7000;0.3793;-0.8281;
975.0000;0.3810;-0.8306;
975.3000;0.3834;-0.8257;
975.6000;0.3801;-0.8281;
975.9000;0.3801;-0.8330;
976.2000;0.3818;-0.8330;
976.5000;0.3793;-0.8281;
976.8000;0.3793;-0.8306;
977.1000;0.3793;-0.8257;
977.4000;0.3801;-0.8207;
977.7000;0.3793;-0.8232;
978.0000;0.3801;-0.8257;
978.3000;0.3818;-0.8306;
978.6000;0.3834;-0.8306;
978.9000;0.3720;-0.8528;
979.2000;0.3801;-0.8454;
979.5000;0.3785;-0.8503;
979.8000;0.3793;-0.8503;
980.1000;0.3793;-0.8503;
980.4000;0.3793;-0.8503;
980.7000;0.3696;-0.8749;
981.0000;0.3785;-0.8503;
981.3000;0.3793;-0.8478;
981.6000;0.3777;-0.8478;
981.9000;0.3777;-0.8503;
982.2000;0.3810;-0.8429;
982.5000;0.3801;-0.8454;
982.8000;0.3777;-0.8503;
983.1000;0.3785;-0.8429;
983.4000;0.3777;-0.8404;
983.7000;0.3793;-0.8380;
984.0000;0.3793;-0.8330;
984.3000;0.3785;-0.8355;
984.6000;0.3793;-0.8281;
984.9000;0.3793;-0.8281;
985.2000;0.3753;-0.8355;
985.5000;0.3793;-0.8257;
985.8000;0.3785;-0.8281;
986.1000;0.3875;-0.8133;
986.4000;0.3793;-0.8355;
986.7000;0.3777;-0.8330;
987.0000;0.3801;-0.8207;
987.3000;0.3818;-0.8207;
987.6000;0.3793;-0.8232;
987.9000;0.3687;-0.8503;
988.2000;0.3785;-0.8404;
988.5000;0.3793;-0.8355;
988.8000;0.3801;-0.8355;
989.1000;0.3777;-0.8380;
989.4000;0.3761;-0.8454;
989.7000;0.3810;-0.8306;
990.0000;0.3801;-0.8380;
990.3000;0.3744;-0.8602;
990.6000;0.3810;-0.8429;
990.9000;0.3810;-0.8478;
991.2000;0.3801;-0.8503;
991.5000;0.3818;-0.8454;
991.8000;0.3785;-0.8503;
992.1000;0.3793;-0.8429;
992.4000;0.3810;-0.8306;
992.7000;0.3793;-0.8281;
993.0000;0.3785;-0.8207;
993.3000;0.3769;-0.8232;
993.6000;0.3801;-0.8035;
993.9000;0.3793;-0.8232;
994.2000;0.3793;-0.8183;
994.5000;0.3777;-0.8281;
994.8000;0.3769;-0.8355;
995.1000;0.3801;-0.8330;
995.4000;0.3785;-0.8281;
995.7000;0.3728;-0.8355;
996.0000;0.3761;-0.8207;
996.3000;0.3777;-0.8183;
996.6000;0.3761;-0.8330;
996.9000;0.3761;-0.8281;
997.2000;0.3801;-0.8183;
997.5000;0.3777;-0.8281;
997.8000;0.3793;-0.8232;
998.1000;0.3761;-0.8355;
998.4000;0.3785;-0.8330;
998.7000;0.3785;-0.8380;
999.0000;0.3940;-0.7961;
999.3000;0.3769;-0.8429;
999.6000;0.3777;-0.8404;
999.9000;0.3753;-0.8306;
1000.2000;0.3761;-0.8257;
1000.5000;0.3793;-0.8183;
1000.8000;0.3785;-0.8207;
1001.1000;0.3761;-0.8207;
1001.4000;0.3761;-0.8232;
1001.7000;0.3785;-0.8281;
1002.0000;0.3826;-0.8158;
1002.3000;0.3793;-0.8158;
1002.6000;0.3826;-0.8109;
1002.9000;0.3785;-0.8183;
1003.2000;0.3801;-0.8183;
1003.5000;0.3785;-0.8232;
1003.8000;0.3785;-0.8281;
1004.1000;0.3761;-0.8330;
1004.4000;0.3769;-0.8330;
1004.7000;0.3883;-0.8084;
1005.0000;0.3818;-0.8257;
1005.3000;0.3777;-0.8404;
1005.6000;0.3793;-0.8306;
1005.9000;0.3777;-0.8404;
1006.2000;0.3834;-0.8133;
1006.5000;0.3785;-0.8257;
1006.8000;0.3777;-0.8330;
1007.1000;0.3761;-0.8380;
1007.4000;0.3785;-0.8306;
1007.7000;0.3801;-0.8257;
1008.0000;0.3777;-0.8207;
1008.3000;0.3785;-0.8257;
1008.6000;0.3793;-0.8183;
1008.9000;0.3777;-0.8281;
1009.2000;0.3793;-0.8232;
1009.5000;0.3785;-0.8207;
1009.8000;0.3785;-0.8183;
1010.1000;0.3810;-0.8158;
1010.4000;0.3801;-0.8232;
1010.7000;0.3793;-0.8158;
1011.0000;0.3858;-0.7862;
1011.3000;0.3801;-0.8133;
1011.6000;0.3785;-0.8158;
1011.9000;0.3785;-0.8207;
1012.2000;0.3785;-0.8232;
1012.5000;0.3785;-0.8232;
1012.8000;0.3785;-0.8232;
1013.1000;0.3769;-0.8306;
1013.4000;0.3777;-0.8281;
1013.7000;0.3744;-0.8404;
1014.0000;0.3793;-0.8404;
1014.3000;0.3810;-0.8404;
1014.6000;0.3801;-0.8404;
1014.9000;0.3834;-0.8232;
1015.2000;0.3801;-0.8281;
1015.5000;0.3850;-0.8207;
1015.8000;0.3793;-0.8355;
1016.1000;0.3769;-0.8355;
1016.4000;0.3777;-0.8306;
1016.7000;0.3761;-0.8330;
1017.0000;0.3777;-0.8330;
1017.3000;0.3785;-0.8257;
1017.6000;0.3785;-0.8207;
1017.9000;0.3785;-0.8207;
1018.2000;0.3793;-0.8207;
1018.5000;0.3793;-0.8232;
1018.8000;0.3793;-0.8330;
1019.1000;0.3777;-0.8429;
1019.4000;0.3769;-0.8429;
1019.7000;0.3769;-0.8330;
1020.0000;0.3793;-0.8380;
1020.3000;0.3801;-0.8355;
1020.6000;0.3785;-0.8404;
1020.9000;0.3769;-0.8429;
1021.2000;0.3777;-0.8306;
1021.5000;0.3728;-0.8404;
1021.8000;0.3785;-0.8084;
1022.1000;0.3785;-0.8183;
1022.4000;0.3785;-0.8207;
1022.7000;0.3785;-0.8207;
1023.0000;0.3736;-0.8404;
1023.3000;0.3785;-0.8281;
1023.6000;0.3793;-0.8355;
1023.9000;0.3793;-0.8281;
1024.2000;0.3810;-0.8281;
1024.5000;0.3753;-0.8454;
1024.8000;0.3785;-0.8404;
1025.1000;0.3777;-0.8380;
1025.4000;0.3801;-0.8257;
1025.7000;0.3793;-0.8257;
1026.0000;0.3761;-0.8207;
1026.3000;0.3785;-0.8183;
1026.6000;0.3785;-0.8207;
1026.9000;0.3753;-0.8281;
1027.2000;0.3785;-0.8207;
1027.5000;0.3801;-0.8109;
1027.8000;0.3785;-0.8158;
1028.1000;0.3793;-0.8183;
1028.4000;0.3777;-0.8158;
1028.7000;0.3777;-0.8183;
1029.0000;0.3777;-0.8158;
1029.3000;0.3769;-0.8158;
1029.6000;0.3704;-0.8306;
1029.9000;0.3785;-0.8059;
1030.2000;0.3801;-0.8059;
1030.5000;0.3769;-0.8306;
1030.8000;0.3761;-0.8232;
1031.1000;0.3777;-0.8133;
1031.4000;0.3761;-0.8207;
1031.7000;0.3753;-0.8207;
1032.0000;0.3761;-0.8257;
1032.3000;0.3769;-0.8183;
1032.6000;0.3777;-0.8207;
1032.9000;0.3785;-0.8133;
1033.2000;0.3785;-0.8059;
1033.5000;0.3761;-0.8158;
1033.8000;0.3761;-0.8183;
1034.1000;0.3785;-0.8207;
1034.4000;0.3793;-0.8232;
1034.7000;0.3785;-0.8257;
1035.0000;0.3769;-0.8281;
1035.3000;0.3785;-0.8232;
1035.6000;0.3793;-0.8232;
1035.9000;0.3785;-0.8257;
1036.2000;0.3769;-0.8232;
1036.5000;0.3793;-0.8232;
1036.8000;0.3793;-0.8183;
1037.1000;0.3785;-0.8306;
1037.4000;0.3810;-0.8330;
1037.7000;0.3761;-0.8380;
1038.0000;0.3769;-0.8232;
1038.3000;0.3785;-0.8158;
1038.6000;0.3777;-0.8281;
1038.9000;0.3810;-0.8183;
1039.2000;0.3777;-0.8306;
1039.5000;0.3810;-0.8257;
1039.8000;0.3785;-0.8404;
1040.1000;0.3793;-0.8355;
1040.4000;0.3785;-0.8355;
1040.7000;0.3687;-0.8503;
1041.0000;0.3769;-0.8257;
1041.3000;0.3785;-0.8232;
1041.6000;0.3777;-0.8183;
1041.9000;0.3785;-0.8133;
1042.2000;0.3793;-0.8158;
1042.5000;0.3785;-0.8207;
1042.8000;0.3793;-0.8257;
1043.1000;0.3793;-0.8232;
1043.4000;0.3785;-0.8109;
1043.7000;0.3777;-0.8109;
1044.0000;0.3744;-0.8207;
1044.3000;0.3785;-0.8133;
1044.6000;0.3793;-0.8183;
1044.9000;0.3777;-0.8183;
1045.2000;0.3769;-0.8330;
1045.5000;0.3785;-0.8281;
1045.8000;0.3769;-0.8232;
1046.1000;0.3810;-0.8207;
1046.4000;0.3777;-0.8281;
1046.7000;0.3777;-0.8380;
1047.0000;0.3777;-0.8528;
1047.3000;0.3785;-0.8454;
1047.6000;0.3777;-0.8454;
1047.9000;0.3769;-0.8478;
1048.2000;0.3785;-0.8454;
1048.5000;0.3785;-0.8454;
1048.8000;0.3842;-0.8355;
1049.1000;0.3744;-0.8528;
1049.4000;0.3777;-0.8478;
1049.7000;0.3777;-0.8528;
1050.0000;0.3785;-0.8429;
1050.3000;0.3793;-0.8404;
1050.6000;0.3785;-0.8404;
1050.9000;0.3785;-0.8306;
1051.2000;0.3793;-0.8404;
1051.5000;0.3679;-0.8749;
1051.8000;0.3769;-0.8528;
1052.1000;0.3777;-0.8503;
1052.4000;0.3793;-0.8503;
1052.7000;0.3777;-0.8454;
1053.0000;0.3777;-0.8528;
1053.3000;0.3761;-0.8552;
1053.6000;0.3761;-0.8454;
1053.9000;0.3777;-0.8404;
1054.2000;0.3785;-0.8429;
1054.5000;0.3761;-0.8404;
1054.8000;0.3785;-0.8355;
1055.1000;0.3769;-0.8454;
1055.4000;0.3777;-0.8355;
1055.7000;0.3720;-0.8478;
1056.0000;0.3777;-0.8306;
1056.3000;0.3769;-0.8281;
1056.6000;0.3753;-0.8355;
1056.9000;0.3761;-0.8380;
1057.2000;0.3769;-0.8257;
1057.5000;0.3769;-0.8232;
1057.8000;0.3777;-0.8207;
1058.1000;0.3753;-0.8183;
1058.4000;0.3761;-0.8207;
1058.7000;0.3785;-0.8158;
1059.0000;0.3769;-0.8257;
1059.3000;0.3793;-0.8158;
1059.6000;0.3777;-0.8281;
1059.9000;0.3793;-0.8158;
1060.2000;0.3769;-0.8232;
1060.5000;0.3769;-0.8232;
1060.8000;0.3793;-0.8257;
1061.1000;0.3753;-0.8330;
1061.4000;0.3793;-0.8207;
1061.7000;0.3785;-0.8183;
1062.0000;0.3777;-0.8281;
1062.3000;0.3704;-0.8380;
1062.6000;0.3753;-0.8281;
1062.9000;0.3744;-0.8404;
1063.2000;0.3777;-0.8133;
1063.5000;0.3834;-0.7912;
1063.8000;0.3785;-0.8010;
1064.1000;0.3777;-0.8059;
1064.4000;0.3777;-0.8158;
1064.7000;0.3777;-0.8158;
1065.0000;0.3785;-0.8183;
1065.3000;0.3769;-0.8183;
1065.6000;0.3696;-0.8380;
1065.9000;0.3753;-0.8207;
1066.2000;0.3777;-0.8109;
1066.5000;0.3769;-0.8183;
1066.8000;0.3761;-0.8183;
1067.1000;0.3728;-0.8306;
1067.4000;0.3785;-0.8158;
1067.7000;0.3810;-0.8109;
1068.0000;0.3818;-0.8133;
1068.3000;0.3777;-0.8133;
1068.6000;0.3769;-0.8109;
1068.9000;0.3785;-0.8158;
1069.2000;0.3769;-0.8158;
1069.5000;0.3785;-0.8207;
1069.8000;0.3761;-0.8306;
1070.1000;0.3761;-0.8281;
1070.4000;0.3769;-0.8306;
1070.7000;0.3793;-0.8133;
1071.0000;0.3818;-0.7985;
1071.3000;0.3785;-0.8133;
1071.6000;0.3810;-0.8084;
1071.9000;0.3785;-0.8158;
1072.2000;0.3777;-0.8109;
1072.5000;0.3785;-0.8133;
1072.8000;0.3793;-0.8133;
1073.1000;0.3744;-0.8232;
1073.4000;0.3810;-0.8010;
1073.7000;0.3793;-0.8059;
1074.0000;0.3793;-0.8035;
1074.3000;0.3777;-0.8010;
1074.6000;0.3818;-0.8010;
1074.9000;0.3769;-0.8183;
1075.2000;0.3801;-0.8035;
1075.5000;0.3720;-0.8183;
1075.8000;0.3801;-0.8109;
1076.1000;0.3769;-0.8257;
1076.4000;0.3769;-0.8207;
1076.7000;0.3761;-0.8207;
1077.0000;0.3761;-0.8306;
1077.3000;0.3785;-0.8257;
1077.6000;0.3801;-0.8232;
1077.9000;0.3769;-0.8281;
1078.2000;0.3777;-0.8257;
1078.5000;0.3785;-0.8183;
1078.8000;0.3793;-0.8207;
1079.1000;0.3785;-0.8232;
1079.4000;0.3793;-0.8257;
1079.7000;0.3785;-0.8281;
1080.0000;0.3777;-0.8257;
1080.3000;0.3785;-0.8158;
1080.6000;0.3777;-0.8281;
1080.9000;0.3769;-0.8232;
1081.2000;0.3769;-0.8232;
1081.5000;0.3769;-0.8232;
1081.8000;0.3777;-0.8232;
1082.1000;0.3777;-0.8281;
1082.4000;0.3753;-0.8281;
1082.7000;0.3777;-0.8232;
1083.0000;0.3769;-0.8257;
1083.3000;0.3777;-0.8232;
1083.6000;0.3761;-0.8183;
1083.9000;0.3826;-0.7985;
1084.2000;0.3793;-0.8035;
1084.5000;0.3753;-0.8059;
1084.8000;0.3769;-0.8084;
1085.1000;0.3769;-0.8010;
1085.4000;0.3785;-0.8035;
1085.7000;0.3785;-0.8059;
1086.0000;0.3785;-0.8010;
1086.3000;0.3769;-0.8059;
1086.6000;0.3785;-0.7985;
1086.9000;0.3769;-0.8059;
1087.2000;0.3785;-0.8035;
1087.5000;0.3704;-0.8281;
1087.8000;0.3785;-0.8084;
1088.1000;0.3785;-0.8109;
1088.4000;0.3769;-0.8207;
1088.7000;0.3785;-0.8133;
1089.0000;0.3785;-0.8306;
1089.3000;0.3785;-0.8158;
1089.6000;0.3769;-0.8158;
1089.9000;0.3712;-0.8257;
1090.2000;0.3777;-0.8133;
1090.5000;0.3785;-0.8059;
1090.8000;0.3761;-0.8133;
1091.1000;0.3744;-0.8232;
1091.4000;0.3761;-0.8207;
1091.7000;0.3769;-0.8207;
1092.0000;0.3785;-0.8207;
1092.3000;0.3761;-0.8257;
1092.6000;0.3769;-0.8158;
1092.9000;0.3801;-0.8109;
1093.2000;0.3785;-0.8183;
1093.5000;0.3785;-0.8232;
1093.8000;0.3712;-0.8306;
1094.1000;0.3777;-0.8084;
1094.4000;0.3769;-0.8133;
1094.7000;0.3818;-0.8109;
1095.0000;0.3761;-0.8207;
1095.3000;0.3777;-0.8109;
1095.6000;0.3793;-0.8232;
1095.9000;0.3769;-0.8207;
1096.2000;0.3761;-0.8306;
1096.5000;0.3671;-0.8503;
1096.8000;0.3777;-0.8281;
1097.1000;0.3785;-0.8306;
1097.4000;0.3801;-0.8330;
1097.7000;0.3769;-0.8380;
1098.0000;0.3769;-0.8330;
1098.3000;0.3785;-0.8330;
1098.6000;0.3777;-0.8355;
1098.9000;0.3777;-0.8478;
1099.2000;0.3761;-0.8478;
1099.5000;0.3801;-0.8429;
1099.8000;0.3801;-0.8281;
1100.1000;0.3850;-0.7961;
1100.4000;0.3785;-0.8133;
1100.7000;0.3761;-0.8257;
1101.0000;0.3753;-0.8306;
1101.3000;0.3753;-0.8404;
1101.6000;0.3712;-0.8503;
1101.9000;0.3761;-0.8330;
1102.2000;0.3826;-0.8158;
1102.5000;0.3769;-0.8355;
1102.8000;0.3777;-0.8429;
1103.1000;0.3785;-0.8429;
1103.4000;0.3777;-0.8503;
1103.7000;0.3777;-0.8577;
1104.0000;0.3777;-0.8577;
1104.3000;0.3769;-0.8602;
1104.6000;0.3777;-0.8429;
1104.9000;0.3769;-0.8330;
1105.2000;0.3761;-0.8281;
1105.5000;0.3753;-0.8330;
1105.8000;0.3785;-0.8207;
1106.1000;0.3761;-0.8207;
1106.4000;0.3720;-0.8306;
1106.7000;0.3744;-0.8158;
1107.0000;0.3777;-0.8084;
1107.3000;0.3777;-0.8133;
1107.6000;0.3769;-0.8109;
1107.9000;0.3810;-0.8084;
1108.2000;0.3769;-0.8109;
1108.5000;0.3769;-0.8084;
1108.8000;0.3834;-0.7961;
1109.1000;0.3769;-0.8109;
1109.4000;0.3761;-0.8109;
1109.7000;0.3785;-0.8059;
1110.0000;0.3793;-0.8133;
1110.3000;0.3769;-0.8207;
1110.6000;0.3777;-0.8257;
1110.9000;0.3777;-0.8183;
1111.2000;0.3785;-0.8158;
1111.5000;0.3761;-0.8158;
1111.8000;0.3744;-0.8158;
1112.1000;0.3769;-0.8207;
1112.4000;0.3761;-0.8232;
1112.7000;0.3761;-0.8133;
1113.0000;0.3753;-0.8084;
1113.3000;0.3769;-0.8010;
1113.6000;0.3769;-0.8010;
1113.9000;0.3769;-0.8059;
1114.2000;0.3769;-0.8084;
1114.5000;0.3769;-0.8133;
1114.8000;0.3736;-0.8183;
1115.1000;0.3753;-0.8084;
1115.4000;0.3753;-0.8158;
1115.7000;0.3761;-0.8183;
1116.0000;0.3793;-0.8183;
1116.3000;0.3769;-0.8133;
1116.6000;0.3753;-0.8232;
1116.9000;0.3744;-0.8109;
1117.2000;0.3769;-0.8084;
1117.5000;0.3785;-0.8084;
1117.8000;0.3777;-0.8084;
1118.1000;0.3801;-0.8133;
1118.4000;0.3793;-0.8059;
1118.7000;0.3777;-0.8059;
1119.0000;0.3785;-0.8084;
1119.3000;0.3785;-0.8059;
1119.6000;0.3785;-0.8133;
1119.9000;0.3761;-0.8281;
1120.2000;0.3769;-0.8207;
1120.5000;0.3753;-0.8257;
1120.8000;0.3785;-0.8207;
1121.1000;0.3769;-0.8133;
1121.4000;0.3753;-0.8158;
1121.7000;0.3769;-0.8183;
1122.0000;0.3728;-0.8281;
1122.3000;0.3785;-0.8183;
1122.6000;0.3875;-0.7961;
1122.9000;0.3793;-0.8183;
1123.2000;0.3769;-0.8232;
1123.5000;0.3785;-0.8158;
1123.8000;0.3769;-0.8084;
1124.1000;0.3761;-0.8059;
1124.4000;0.3769;-0.8059;
1124.7000;0.3753;-0.8207;
1125.0000;0.3777;-0.8207;
1125.3000;0.3785;-0.8158;
1125.6000;0.3761;-0.8281;
1125.9000;0.3761;-0.8207;
1126.2000;0.3769;-0.8158;
1126.5000;0.3761;-0.8158;
1126.8000;0.3769;-0.8257;
1127.1000;0.3777;-0.8281;
1127.4000;0.3769;-0.8330;
1127.7000;0.3769;-0.8330;
1128.0000;0.3753;-0.8133;
1128.3000;0.3753;-0.8158;
1128.6000;0.3834;-0.7985;
1128.9000;0.3777;-0.8109;
1129.2000;0.3769;-0.8158;
1129.5000;0.3753;-0.8306;
1129.8000;0.3777;-0.8281;
1130.1000;0.3769;-0.8257;
1130.4000;0.3769;-0.8207;
1130.7000;0.3785;-0.8257;
1131.0000;0.3801;-0.8281;
1131.3000;0.3769;-0.8355;
1131.6000;0.3785;-0.8330;
1131.9000;0.3753;-0.8380;
1132.2000;0.3761;-0.8281;
1132.5000;0.3744;-0.8281;
1132.8000;0.3769;-0.8257;
1133.1000;0.3761;-0.8330;
1133.4000;0.3826;-0.8207;
1133.7000;0.3761;-0.8232;
1134.0000;0.3769;-0.8158;
1134.3000;0.3769;-0.8207;
1134.6000;0.3753;-0.8232;
1134.9000;0.3704;-0.8330;
1135.2000;0.3777;-0.8158;
1135.5000;0.3777;-0.8133;
1135.8000;0.3761;-0.8158;
1136.1000;0.3793;-0.8084;
1136.4000;0.3793;-0.8010;
1136.7000;0.3744;-0.8084;
1137.0000;0.3875;-0.7838;
1137.3000;0.3769;-0.8158;
1137.6000;0.3785;-0.8084;
1137.9000;0.3785;-0.8084;
1138.2000;0.3753;-0.8133;
1138.5000;0.3753;-0.8133;
1138.8000;0.3769;-0.8059;
1139.1000;0.3753;-0.8158;
1139.4000;0.3753;-0.8084;
1139.7000;0.3769;-0.8059;
1140.0000;0.3753;-0.8109;
1140.3000;0.3777;-0.8084;
1140.6000;0.3769;-0.8109;
1140.9000;0.3753;-0.8133;
1141.2000;0.3761;-0.8084;
1141.5000;0.3744;-0.8084;
1141.8000;0.3801;-0.8059;
1142.1000;0.3769;-0.8084;
1142.4000;0.3785;-0.8010;
1142.7000;0.3769;-0.8010;
1143.0000;0.3777;-0.7985;
1143.3000;0.3753;-0.8133;
1143.6000;0.3753;-0.8158;
1143.9000;0.3793;-0.8059;
1144.2000;0.3777;-0.8133;
1144.5000;0.3842;-0.7985;
1144.8000;0.3744;-0.8158;
1145.1000;0.3769;-0.8035;
1145.4000;0.3753;-0.8010;
1145.7000;0.3793;-0.7912;
1146.0000;0.3753;-0.7985;
1146.3000;0.3777;-0.8010;
1146.6000;0.3663;-0.8232;
1146.9000;0.3761;-0.8035;
1147.2000;0.3785;-0.8059;
1147.5000;0.3769;-0.8109;
1147.8000;0.3761;-0.8133;
1148.1000;0.3769;-0.8133;
1148.4000;0.3761;-0.8207;
1148.7000;0.3744;-0.8232;
1149.0000;0.3769;-0.8109;
1149.3000;0.3777;-0.8133;
1149.6000;0.3785;-0.8084;
1149.9000;0.3769;-0.8059;
1150.2000;0.3753;-0.8084;
1150.5000;0.3761;-0.8158;
1150.8000;0.3761;-0.8207;
1151.1000;0.3769;-0.8207;
1151.4000;0.3769;-0.8207;
1151.7000;0.3858;-0.8010;
1152.0000;0.3769;-0.8232;
1152.3000;0.3753;-0.8207;
1152.6000;0.3753;-0.8084;
1152.9000;0.3777;-0.7961;
1153.2000;0.3761;-0.7985;
1153.5000;0.3785;-0.8059;
1153.8000;0.3736;-0.8158;
1154.1000;0.3777;-0.8035;
1154.4000;0.3769;-0.8059;
1154.7000;0.3777;-0.8109;
1155.0000;0.3769;-0.8232;
1155.3000;0.3761;-0.8380;
1155.6000;0.3769;-0.8306;
1155.9000;0.3785;-0.8281;
1156.2000;0.3761;-0.8281;
1156.5000;0.3736;-0.8404;
1156.8000;0.3810;-0.8183;
1157.1000;0.3785;-0.8183;
1157.4000;0.3769;-0.8355;
1157.7000;0.3761;-0.8355;
1158.0000;0.3769;-0.8355;
1158.3000;0.3753;-0.8454;
1158.6000;0.3753;-0.8503;
1158.9000;0.3801;-0.8232;
1159.2000;0.3769;-0.8306;
1159.5000;0.3753;-0.8404;
1159.8000;0.3761;-0.8257;
1160.1000;0.3728;-0.8281;
1160.4000;0.3753;-0.8158;
1160.7000;0.3769;-0.8059;
1161.0000;0.3785;-0.8158;
1161.3000;0.3761;-0.8133;
1161.6000;0.3761;-0.8158;
1161.9000;0.3769;-0.8158;
1162.2000;0.3761;-0.8109;
1162.5000;0.3753;-0.8059;
1162.8000;0.3785;-0.8010;
1163.1000;0.3777;-0.8133;
1163.4000;0.3785;-0.8084;
1163.7000;0.3777;-0.8183;
1164.0000;0.3769;-0.8306;
1164.3000;0.3761;-0.8330;
1164.6000;0.3769;-0.8306;
1164.9000;0.3769;-0.8330;
1165.2000;0.3777;-0.8232;
1165.5000;0.3769;-0.8281;
1165.8000;0.3761;-0.8232;
1166.1000;0.3761;-0.8158;
1166.4000;0.3801;-0.8059;
1166.7000;0.3818;-0.8035;
1167.0000;0.3761;-0.8232;
1167.3000;0.3761;-0.8232;
1167.6000;0.3769;-0.8207;
1167.9000;0.3744;-0.8257;
1168.2000;0.3744;-0.8207;
1168.5000;0.3761;-0.8207;
1168.8000;0.3761;-0.8232;
1169.1000;0.3761;-0.8257;
1169.4000;0.3761;-0.8281;
1169.7000;0.3801;-0.8158;
1170.0000;0.3777;-0.8232;
1170.3000;0.3777;-0.8257;
1170.6000;0.3785;-0.8232;
1170.9000;0.3769;-0.8158;
1171.2000;0.3785;-0.8084;
1171.5000;0.3793;-0.8059;
1171.8000;0.3744;-0.8183;
1172.1000;0.3785;-0.8133;
1172.4000;0.3785;-0.8133;
1172.7000;0.3769;-0.8232;
1173.0000;0.3736;-0.8306;
1173.3000;0.3761;-0.8232;
1173.6000;0.3761;-0.8158;
1173.9000;0.3744;-0.8257;
1174.2000;0.3753;-0.8232;
1174.5000;0.3810;-0.8084;
1174.8000;0.3785;-0.8035;
1175.1000;0.3777;-0.7985;
1175.4000;0.3793;-0.7961;
1175.7000;0.3801;-0.7936;
1176.0000;0.3753;-0.8109;
1176.3000;0.3785;-0.8084;
1176.6000;0.3769;-0.8158;
1176.9000;0.3753;-0.8158;
1177.2000;0.3769;-0.8183;
1177.5000;0.3761;-0.8133;
1177.8000;0.3793;-0.8010;
1178.1000;0.3761;-0.8035;
1178.4000;0.3736;-0.8158;
1178.7000;0.3769;-0.8035;
1179.0000;0.3728;-0.8109;
1179.3000;0.3744;-0.8010;
1179.6000;0.3769;-0.8035;
1179.9000;0.3850;-0.7813;
1180.2000;0.3753;-0.8059;
1180.5000;0.3761;-0.8133;
1180.8000;0.3769;-0.8158;
1181.1000;0.3793;-0.8035;
1181.4000;0.3834;-0.7862;
1181.7000;0.3761;-0.8109;
1182.0000;0.3753;-0.8084;
1182.3000;0.3753;-0.8084;
1182.6000;0.3753;-0.8059;
1182.9000;0.3785;-0.8109;
1183.2000;0.3720;-0.8207;
1183.5000;0.3761;-0.8133;
1183.8000;0.3761;-0.8059;
1184.1000;0.3769;-0.7961;
1184.4000;0.3744;-0.7985;
1184.7000;0.3744;-0.8109;
1185.0000;0.3777;-0.8059;
1185.3000;0.3769;-0.8084;
1185.6000;0.3753;-0.8158;
1185.9000;0.3769;-0.8207;
1186.2000;0.3777;-0.8109;
1186.5000;0.3777;-0.8084;
1186.8000;0.3769;-0.8109;
1187.1000;0.3785;-0.8010;
1187.4000;0.3761;-0.8059;
1187.7000;0.3777;-0.7985;
1188.0000;0.3777;-0.8010;
1188.3000;0.3761;-0.8010;
1188.6000;0.3769;-0.7985;
1188.9000;0.3736;-0.8059;
1189.2000;0.3777;-0.7961;
1189.5000;0.3769;-0.7961;
1189.8000;0.3777;-0.7961;
1190.1000;0.3793;-0.8010;
1190.4000;0.3761;-0.8084;
1190.7000;0.3761;-0.8109;
1191.0000;0.3761;-0.8158;
1191.3000;0.3769;-0.8133;
1191.6000;0.3769;-0.8109;
1191.9000;0.3761;-0.8158;
1192.2000;0.3744;-0.8084;
1192.5000;0.3801;-0.7912;
1192.8000;0.3785;-0.8010;
1193.1000;0.3785;-0.7936;
1193.4000;0.3753;-0.7985;
1193.7000;0.3769;-0.8059;
1194.0000;0.3769;-0.7985;
1194.3000;0.3777;-0.8010;
1194.6000;0.3761;-0.7961;
1194.9000;0.3785;-0.7912;
1195.2000;0.3753;-0.8109;
1195.5000;0.3785;-0.7985;
1195.8000;0.3761;-0.7961;
1196.1000;0.3777;-0.7961;
1196.4000;0.3777;-0.7788;
1196.7000;0.3720;-0.7887;
1197.0000;0.3769;-0.7788;
1197.3000;0.3769;-0.7838;
1197.6000;0.3761;-0.7813;
1197.9000;0.3769;-0.7690;
1198.2000;0.3761;-0.7714;
1198.5000;0.3761;-0.7665;
1198.8000;0.3744;-0.7714;
1199.1000;0.3761;-0.7714;
1199.4000;0.3769;-0.7739;
1199.7000;0.3761;-0.7813;
1200.0000;0.3769;-0.7788;
1200.3000;0.3761;-0.7838;
1200.6000;0.3761;-0.7838;
1200.9000;0.3769;-0.7912;
1201.2000;0.3785;-0.7887;
1201.5000;0.3777;-0.7936;
1201.8000;0.3744;-0.8010;
1202.1000;0.3744;-0.8109;
1202.4000;0.3769;-0.8109;
1202.7000;0.3753;-0.8059;
1203.0000;0.3753;-0.8109;
1203.3000;0.3744;-0.8084;
1203.6000;0.3744;-0.8109;
1203.9000;0.3793;-0.8010;
1204.2000;0.3769;-0.8158;
1204.5000;0.3842;-0.8010;
1204.8000;0.3720;-0.8306;
1205.1000;0.3793;-0.8158;
1205.4000;0.3769;-0.8232;
1205.7000;0.3777;-0.8183;
1206.0000;0.3761;-0.8207;
1206.3000;0.3761;-0.8207;
1206.6000;0.3785;-0.8084;
1206.9000;0.3769;-0.8059;
1207.2000;0.3736;-0.8133;
1207.5000;0.3785;-0.8059;
1207.8000;0.3777;-0.7912;
1208.1000;0.3858;-0.7739;
1208.4000;0.3761;-0.8010;
1208.7000;0.3736;-0.8010;
1209.0000;0.3736;-0.8010;
1209.3000;0.3769;-0.7936;
1209.6000;0.3769;-0.7838;
1209.9000;0.3728;-0.7887;
1210.2000;0.3744;-0.7961;
1210.5000;0.3769;-0.7936;
1210.8000;0.3753;-0.8059;
1211.1000;0.3761;-0.8035;
1211.4000;0.3769;-0.8035;
1211.7000;0.3744;-0.8183;
1212.0000;0.3769;-0.8158;
1212.3000;0.3777;-0.8035;
1212.6000;0.3769;-0.7985;
1212.9000;0.3769;-0.7961;
1213.2000;0.3761;-0.8059;
1213.5000;0.3736;-0.8133;
1213.8000;0.3769;-0.7961;
1214.1000;0.3810;-0.7838;
1214.4000;0.3777;-0.7985;
1214.7000;0.3761;-0.7985;
1215.0000;0.3736;-0.8059;
1215.3000;0.3753;-0.8059;
1215.6000;0.3850;-0.7788;
1215.9000;0.3810;-0.7936;
1216.2000;0.3753;-0.8158;
1216.5000;0.3777;-0.8109;
1216.8000;0.3785;-0.8109;
1217.1000;0.3753;-0.8035;
1217.4000;0.3761;-0.7985;
1217.7000;0.3761;-0.8059;
1218.0000;0.3736;-0.8084;
1218.3000;0.3761;-0.7961;
1218.6000;0.3769;-0.7862;
1218.9000;0.3761;-0.7788;
1219.2000;0.3842;-0.7690;
1219.5000;0.3777;-0.7985;
1219.8000;0.3769;-0.8035;
1220.1000;0.3744;-0.8158;
1220.4000;0.3769;-0.8084;
1220.7000;0.3785;-0.7985;
1221.0000;0.3753;-0.8035;
1221.3000;0.3777;-0.8059;
1221.6000;0.3785;-0.8059;
1221.9000;0.3769;-0.8084;
1222.2000;0.3753;-0.8158;
1222.5000;0.3769;-0.8084;
1222.8000;0.3810;-0.7936;
1223.1000;0.3761;-0.8059;
1223.4000;0.3769;-0.8133;
1223.7000;0.3777;-0.8109;
1224.0000;0.3777;-0.8109;
1224.3000;0.3785;-0.8059;
1224.6000;0.3753;-0.8133;
1224.9000;0.3818;-0.7985;
1225.2000;0.3736;-0.8133;
1225.5000;0.3769;-0.8010;
1225.8000;0.3744;-0.8059;
1226.1000;0.3736;-0.8084;
1226.4000;0.3777;-0.7985;
1226.7000;0.3793;-0.7961;
1227.0000;0.3777;-0.7936;
1227.3000;0.3769;-0.8084;
1227.6000;0.3769;-0.8133;
1227.9000;0.3769;-0.8059;
1228.2000;0.3761;-0.8010;
1228.5000;0.3793;-0.8010;
1228.8000;0.3769;-0.8059;
1229.1000;0.3785;-0.8158;
1229.4000;0.3753;-0.8035;
1229.7000;0.3777;-0.8010;
1230.0000;0.3753;-0.8109;
1230.3000;0.3753;-0.8084;
1230.6000;0.3769;-0.8010;
1230.9000;0.3769;-0.7985;
1231.2000;0.3744;-0.8035;
1231.5000;0.3744;-0.8010;
1231.8000;0.3761;-0.7961;
1232.1000;0.3785;-0.7887;
1232.4000;0.3793;-0.7862;
1232.7000;0.3704;-0.8232;
1233.0000;0.3793;-0.7985;
1233.3000;0.3793;-0.7961;
1233.6000;0.3704;-0.8207;
1233.9000;0.3761;-0.7985;
1234.2000;0.3761;-0.8035;
1234.5000;0.3753;-0.8084;
1234.8000;0.3696;-0.8133;
1235.1000;0.3777;-0.8010;
1235.4000;0.3761;-0.8010;
1235.7000;0.3785;-0.8010;
1236.0000;0.3761;-0.8035;
1236.3000;0.3769;-0.8010;
1236.6000;0.3777;-0.7985;
1236.9000;0.3753;-0.8133;
1237.2000;0.3777;-0.8084;
1237.5000;0.3777;-0.8109;
1237.8000;0.3785;-0.8084;
1238.1000;0.3777;-0.8059;
1238.4000;0.3785;-0.8035;
1238.7000;0.3761;-0.8158;
1239.0000;0.3753;-0.8232;
1239.3000;0.3769;-0.8158;
1239.6000;0.3793;-0.8133;
1239.9000;0.3777;-0.8306;
1240.2000;0.3761;-0.8355;
1240.5000;0.3769;-0.8281;
1240.8000;0.3761;-0.8232;
1241.1000;0.3777;-0.8183;
1241.4000;0.3769;-0.8207;
1241.7000;0.3753;-0.8281;
1242.0000;0.3744;-0.8306;
1242.3000;0.3769;-0.8109;
1242.6000;0.3769;-0.8207;
1242.9000;0.3744;-0.8183;
1243.2000;0.3753;-0.8059;
1243.5000;0.3769;-0.8084;
1243.8000;0.3753;-0.8109;
1244.1000;0.3769;-0.7985;
1244.4000;0.3761;-0.7961;
1244.7000;0.3753;-0.7936;
1245.0000;0.3793;-0.7887;
1245.3000;0.3769;-0.7912;
1245.6000;0.3761;-0.7936;
1245.9000;0.3761;-0.7936;
1246.2000;0.3769;-0.8059;
1246.5000;0.3761;-0.8133;
1246.8000;0.3704;-0.8281;
1247.1000;0.3777;-0.8109;
1247.4000;0.3704;-0.8257;
1247.7000;0.3777;-0.7985;
1248.0000;0.3777;-0.8059;
1248.3000;0.3761;-0.8059;
1248.6000;0.3769;-0.8158;
1248.9000;0.3753;-0.8133;
1249.2000;0.3761;-0.7985;
1249.5000;0.3753;-0.8010;
1249.8000;0.3728;-0.8059;
1250.1000;0.3793;-0.7912;
1250.4000;0.3834;-0.7838;
1250.7000;0.3761;-0.7961;
1251.0000;0.3801;-0.7936;
1251.3000;0.3769;-0.8059;
1251.6000;0.3761;-0.8010;
1251.9000;0.3769;-0.7985;
1252.2000;0.3761;-0.7912;
1252.5000;0.3785;-0.7985;
1252.8000;0.3769;-0.8109;
1253.1000;0.3728;-0.8207;
1253.4000;0.3761;-0.8084;
1253.7000;0.3793;-0.8109;
1254.0000;0.3753;-0.8232;
1254.3000;0.3712;-0.8330;
1254.6000;0.3793;-0.8133;
1254.9000;0.3761;-0.8133;
1255.2000;0.3793;-0.8158;
1255.5000;0.3761;-0.8257;
1255.8000;0.3753;-0.8306;
1256.1000;0.3801;-0.8158;
1256.4000;0.3769;-0.8306;
1256.7000;0.3753;-0.8330;
1257.0000;0.3753;-0.8306;
1257.3000;0.3826;-0.7961;
1257.6000;0.3728;-0.8109;
1257.9000;0.3753;-0.7961;
1258.2000;0.3761;-0.7936;
1258.5000;0.3777;-0.7912;
1258.8000;0.3761;-0.8010;
1259.1000;0.3753;-0.7961;
1259.4000;0.3761;-0.8084;
1259.7000;0.3753;-0.8133;
1260.0000;0.3761;-0.8158;
1260.3000;0.3736;-0.8281;
1260.6000;0.3761;-0.8257;
1260.9000;0.3728;-0.8306;
1261.2000;0.3753;-0.8257;
1261.5000;0.3810;-0.8207;
1261.8000;0.3761;-0.8355;
1262.1000;0.3761;-0.8330;
1262.4000;0.3761;-0.8330;
1262.7000;0.3769;-0.8380;
1263.0000;0.3753;-0.8330;
1263.3000;0.3753;-0.8330;
1263.6000;0.3785;-0.8281;
1263.9000;0.3744;-0.8281;
1264.2000;0.3769;-0.8207;
1264.5000;0.3744;-0.8232;
1264.8000;0.3761;-0.8207;
1265.1000;0.3744;-0.8232;
1265.4000;0.3696;-0.8380;
1265.7000;0.3753;-0.8207;
1266.0000;0.3761;-0.8207;
1266.3000;0.3777;-0.8232;
1266.6000;0.3769;-0.8281;
1266.9000;0.3744;-0.8330;
1267.2000;0.3744;-0.8257;
1267.5000;0.3785;-0.8207;
1267.8000;0.3753;-0.8207;
1268.1000;0.3769;-0.8183;
1268.4000;0.3728;-0.8232;
1268.7000;0.3753;-0.8232;
1269.0000;0.3744;-0.8207;
1269.3000;0.3801;-0.8059;
1269.6000;0.3785;-0.8035;
1269.9000;0.3761;-0.8109;
1270.2000;0.3761;-0.8084;
1270.5000;0.3769;-0.8133;
1270.8000;0.3744;-0.8109;
1271.1000;0.3761;-0.8183;
1271.4000;0.3728;-0.8257;
1271.7000;0.3793;-0.8158;
1272.0000;0.3793;-0.8133;
1272.3000;0.3761;-0.8232;
1272.6000;0.3753;-0.8306;
1272.9000;0.3769;-0.8404;
1273.2000;0.3761;-0.8380;
1273.5000;0.3753;-0.8478;
1273.8000;0.3769;-0.8528;
1274.1000;0.3777;-0.8454;
1274.4000;0.3777;-0.8404;
1274.7000;0.3777;-0.8330;
1275.0000;0.3769;-0.8429;
1275.3000;0.3744;-0.8478;
1275.6000;0.3810;-0.8257;
1275.9000;0.3761;-0.8330;
1276.2000;0.3777;-0.8355;
1276.5000;0.3744;-0.8429;
1276.8000;0.3736;-0.8380;
1277.1000;0.3761;-0.8257;
1277.4000;0.3769;-0.8257;
1277.7000;0.3736;-0.8380;
1278.0000;0.3777;-0.8306;
1278.3000;0.3728;-0.8404;
1278.6000;0.3761;-0.8404;
1278.9000;0.3761;-0.8380;
1279.2000;0.3761;-0.8404;
1279.5000;0.3785;-0.8330;
1279.8000;0.3761;-0.8306;
1280.1000;0.3728;-0.8355;
1280.4000;0.3753;-0.8330;
1280.7000;0.3785;-0.8306;
1281.0000;0.3761;-0.8330;
1281.3000;0.3761;-0.8330;
1281.6000;0.3736;-0.8306;
1281.9000;0.3777;-0.8183;
1282.2000;0.3744;-0.8207;
1282.5000;0.3744;-0.8281;
1282.8000;0.3744;-0.8306;
1283.1000;0.3769;-0.8257;
1283.4000;0.3769;-0.8183;
1283.7000;0.3769;-0.8232;
1284.0000;0.3753;-0.8281;
1284.3000;0.3769;-0.8281;
1284.6000;0.3777;-0.8257;
1284.9000;0.3826;-0.8109;
1285.2000;0.3753;-0.8281;
1285.5000;0.3785;-0.8207;
1285.8000;0.3785;-0.8232;
1286.1000;0.3785;-0.8306;
1286.4000;0.3753;-0.8429;
1286.7000;0.3753;-0.8429;
1287.0000;0.3744;-0.8429;
1287.3000;0.3761;-0.8306;
1287.6000;0.3769;-0.8257;
1287.9000;0.3753;-0.8355;
1288.2000;0.3777;-0.8306;
1288.5000;0.3753;-0.8404;
1288.8000;0.3769;-0.8404;
1289.1000;0.3679;-0.8577;
1289.4000;0.3777;-0.8355;
1289.7000;0.3769;-0.8380;
1290.0000;0.3761;-0.8355;
1290.3000;0.3744;-0.8355;
1290.6000;0.3753;-0.8330;
1290.9000;0.3769;-0.8232;
1291.2000;0.3769;-0.8232;
1291.5000;0.3753;-0.8257;
1291.8000;0.3744;-0.8306;
1292.1000;0.3761;-0.8355;
1292.4000;0.3753;-0.8429;
1292.7000;0.3744;-0.8454;
1293.0000;0.3761;-0.8330;
1293.3000;0.3785;-0.8330;
1293.6000;0.3785;-0.8380;
1293.9000;0.3785;-0.8429;
1294.2000;0.3753;-0.8478;
1294.5000;0.3777;-0.8404;
1294.8000;0.3785;-0.8330;
1295.1000;0.3785;-0.8281;
1295.4000;0.3753;-0.8404;
1295.7000;0.3761;-0.8454;
1296.0000;0.3728;-0.8404;
1296.3000;0.3761;-0.8257;
1296.6000;0.3761;-0.8232;
1296.9000;0.3753;-0.8158;
1297.2000;0.3761;-0.8109;
1297.5000;0.3753;-0.8183;
1297.8000;0.3753;-0.8084;
1298.1000;0.3777;-0.7912;
1298.4000;0.3777;-0.8109;
1298.7000;0.3761;-0.8158;
1299.0000;0.3744;-0.8207;
1299.3000;0.3769;-0.8059;
1299.6000;0.3769;-0.8109;
1299.9000;0.3761;-0.8109;
1300.2000;0.3753;-0.8207;
1300.5000;0.3753;-0.8330;
1300.8000;0.3761;-0.8281;
1301.1000;0.3769;-0.8232;
1301.4000;0.3753;-0.8232;
1301.7000;0.3736;-0.8330;
1302.0000;0.3769;-0.8232;
1302.3000;0.3704;-0.8355;
1302.6000;0.3810;-0.8158;
1302.9000;0.3777;-0.8306;
1303.2000;0.3761;-0.8232;
1303.5000;0.3777;-0.8281;
1303.8000;0.3761;-0.8330;
1304.1000;0.3736;-0.8429;
1304.4000;0.3761;-0.8380;
1304.7000;0.3769;-0.8306;
1305.0000;0.3785;-0.8232;
1305.3000;0.3761;-0.8257;
1305.6000;0.3761;-0.8306;
1305.9000;0.3777;-0.8232;
1306.2000;0.3785;-0.8306;
1306.5000;0.3801;-0.8281;
1306.8000;0.3769;-0.8404;
1307.1000;0.3777;-0.8429;
1307.4000;0.3769;-0.8355;
1307.7000;0.3785;-0.8281;
1308.0000;0.3761;-0.8355;
1308.3000;0.3761;-0.8355;
1308.6000;0.3777;-0.8330;
1308.9000;0.3801;-0.8330;
1309.2000;0.3777;-0.8306;
1309.5000;0.3761;-0.8380;
1309.8000;0.3720;-0.8528;
1310.1000;0.3810;-0.8355;
1310.4000;0.3785;-0.8404;
1310.7000;0.3753;-0.8454;
1311.0000;0.3679;-0.8651;
1311.3000;0.3785;-0.8454;
1311.6000;0.3777;-0.8528;
1311.9000;0.3736;-0.8626;
1312.2000;0.3679;-0.8774;
1312.5000;0.3753;-0.8626;
1312.8000;0.3696;-0.8725;
1313.1000;0.3761;-0.8577;
1313.4000;0.3720;-0.8676;
1313.7000;0.3769;-0.8602;
1314.0000;0.3842;-0.8355;
1314.3000;0.3761;-0.8454;
1314.6000;0.3704;-0.8528;
1314.9000;0.3761;-0.8454;
1315.2000;0.3769;-0.8429;
1315.5000;0.3753;-0.8528;
1315.8000;0.3769;-0.8429;
1316.1000;0.3785;-0.8478;
1316.4000;0.3777;-0.8454;
1316.7000;0.3753;-0.8602;
1317.0000;0.3761;-0.8626;
1317.3000;0.3744;-0.8676;
1317.6000;0.3744;-0.8676;
1317.9000;0.3744;-0.8651;
1318.2000;0.3744;-0.8577;
1318.5000;0.3744;-0.8503;
1318.8000;0.3826;-0.8404;
1319.1000;0.3761;-0.8626;
1319.4000;0.3801;-0.8552;
1319.7000;0.3769;-0.8577;
1320.0000;0.3777;-0.8528;
1320.3000;0.3777;-0.8429;
1320.6000;0.3801;-0.8355;
1320.9000;0.3712;-0.8528;
1321.2000;0.3761;-0.8380;
1321.5000;0.3777;-0.8281;
1321.8000;0.3777;-0.8232;
1322.1000;0.3761;-0.8429;
1322.4000;0.3728;-0.8528;
1322.7000;0.3785;-0.8404;
1323.0000;0.3744;-0.8478;
1323.3000;0.3761;-0.8454;
1323.6000;0.3761;-0.8454;
1323.9000;0.3769;-0.8478;
1324.2000;0.3785;-0.8478;
1324.5000;0.3769;-0.8478;
1324.8000;0.3777;-0.8404;
1325.1000;0.3761;-0.8429;
1325.4000;0.3753;-0.8380;
1325.7000;0.3761;-0.8330;
1326.0000;0.3744;-0.8330;
1326.3000;0.3769;-0.8207;
1326.6000;0.3761;-0.8207;
1326.9000;0.3736;-0.8232;
1327.2000;0.3761;-0.8183;
1327.5000;0.3753;-0.8183;
1327.8000;0.3728;-0.8281;
1328.1000;0.3777;-0.8306;
1328.4000;0.3728;-0.8454;
1328.7000;0.3769;-0.8330;
1329.0000;0.3761;-0.8306;
1329.3000;0.3769;-0.8330;
1329.6000;0.3736;-0.8478;
1329.9000;0.3761;-0.8454;
1330.2000;0.3777;-0.8380;
1330.5000;0.3769;-0.8404;
1330.8000;0.3777;-0.8330;
1331.1000;0.3744;-0.8429;
1331.4000;0.3777;-0.8281;
1331.7000;0.3761;-0.8232;
1332.0000;0.3785;-0.8306;
1332.3000;0.3769;-0.8404;
1332.6000;0.3777;-0.8330;
1332.9000;0.3777;-0.8281;
1333.2000;0.3761;-0.8355;
1333.5000;0.3753;-0.8355;
1333.8000;0.3753;-0.8306;
1334.1000;0.3736;-0.8257;
1334.4000;0.3777;-0.8232;
1334.7000;0.3753;-0.8281;
1335.0000;0.3777;-0.8306;
1335.3000;0.3777;-0.8330;
1335.6000;0.3769;-0.8281;
1335.9000;0.3769;-0.8281;
1336.2000;0.3777;-0.8257;
1336.5000;0.3777;-0.8281;
1336.8000;0.3761;-0.8207;
1337.1000;0.3744;-0.8281;
1337.4000;0.3753;-0.8281;
1337.7000;0.3736;-0.8330;
1338.0000;0.3761;-0.8281;
1338.3000;0.3761;-0.8355;
1338.6000;0.3785;-0.8306;
1338.9000;0.3793;-0.8257;
1339.2000;0.3777;-0.8281;
1339.5000;0.3785;-0.8429;
1339.8000;0.3785;-0.8528;
1340.1000;0.3761;-0.8552;
1340.4000;0.3793;-0.8528;
1340.7000;0.3753;-0.8528;
1341.0000;0.3777;-0.8478;
1341.3000;0.3785;-0.8454;
1341.6000;0.3744;-0.8528;
1341.9000;0.3769;-0.8528;
1342.2000;0.3769;-0.8577;
1342.5000;0.3736;-0.8528;
1342.8000;0.3712;-0.8626;
1343.1000;0.3793;-0.8404;
1343.4000;0.3769;-0.8454;
1343.7000;0.3753;-0.8503;
1344.0000;0.3761;-0.8454;
1344.3000;0.3761;-0.8355;
1344.6000;0.3761;-0.8306;
1344.9000;0.3777;-0.8281;
1345.2000;0.3761;-0.8330;
1345.5000;0.3826;-0.8257;
1345.8000;0.3785;-0.8330;
1346.1000;0.3753;-0.8454;
1346.4000;0.3769;-0.8404;
1346.7000;0.3753;-0.8454;
1347.0000;0.3761;-0.8404;
1347.3000;0.3736;-0.8478;
1347.6000;0.3753;-0.8478;
1347.9000;0.3858;-0.8183;
1348.2000;0.3801;-0.8306;
1348.5000;0.3769;-0.8404;
1348.8000;0.3785;-0.8429;
1349.1000;0.3769;-0.8454;
1349.4000;0.3777;-0.8478;
1349.7000;0.3761;-0.8454;
1350.0000;0.3728;-0.8429;
1350.3000;0.3728;-0.8380;
1350.6000;0.3753;-0.8330;
1350.9000;0.3769;-0.8355;
1351.2000;0.3761;-0.8330;
1351.5000;0.3761;-0.8306;
1351.8000;0.3744;-0.8306;
1352.1000;0.3744;-0.8330;
1352.4000;0.3761;-0.8404;
1352.7000;0.3753;-0.8429;
1353.0000;0.3736;-0.8404;
1353.3000;0.3744;-0.8380;
1353.6000;0.3753;-0.8306;
1353.9000;0.3761;-0.8355;
1354.2000;0.3761;-0.8306;
1354.5000;0.3744;-0.8257;
1354.8000;0.3769;-0.8232;
1355.1000;0.3769;-0.8355;
1355.4000;0.3753;-0.8404;
1355.7000;0.3769;-0.8306;
1356.0000;0.3785;-0.8257;
1356.3000;0.3769;-0.8355;
1356.6000;0.3769;-0.8330;
1356.9000;0.3761;-0.8306;
1357.2000;0.3785;-0.8281;
1357.5000;0.3761;-0.8257;
1357.8000;0.3777;-0.8232;
1358.1000;0.3761;-0.8183;
1358.4000;0.3761;-0.8109;
1358.7000;0.3769;-0.8183;
1359.0000;0.3777;-0.8133;
1359.3000;0.3736;-0.8207;
1359.6000;0.3761;-0.8158;
1359.9000;0.3826;-0.7985;
1360.2000;0.3736;-0.8133;
1360.5000;0.3744;-0.8109;
1360.8000;0.3842;-0.7862;
1361.1000;0.3785;-0.8035;
1361.4000;0.3687;-0.8257;
1361.7000;0.3712;-0.8281;
1362.0000;0.3761;-0.8257;
1362.3000;0.3793;-0.8183;
1362.6000;0.3753;-0.8257;
1362.9000;0.3777;-0.8281;
1363.2000;0.3761;-0.8281;
1363.5000;0.3793;-0.8207;
1363.8000;0.3761;-0.8306;
1364.1000;0.3761;-0.8281;
1364.4000;0.3777;-0.8257;
1364.7000;0.3777;-0.8232;
1365.0000;0.3785;-0.8158;
1365.3000;0.3785;-0.8158;
1365.6000;0.3753;-0.8306;
1365.9000;0.3810;-0.8207;
1366.2000;0.3769;-0.8306;
1366.5000;0.3769;-0.8281;
1366.8000;0.3736;-0.8330;
1367.1000;0.3753;-0.8257;
1367.4000;0.3777;-0.8133;
1367.7000;0.3761;-0.8109;
1368.0000;0.3801;-0.8059;
1368.3000;0.3777;-0.8158;
1368.6000;0.3761;-0.8158;
1368.9000;0.3761;-0.8207;
1369.2000;0.3769;-0.8257;
1369.5000;0.3761;-0.8232;
1369.8000;0.3753;-0.8257;
1370.1000;0.3769;-0.8257;
1370.4000;0.3736;-0.8355;
1370.7000;0.3761;-0.8281;
1371.0000;0.3785;-0.8306;
1371.3000;0.3785;-0.8281;
1371.6000;0.3793;-0.8158;
1371.9000;0.3785;-0.8133;
1372.2000;0.3769;-0.8257;
1372.5000;0.3777;-0.8232;
1372.8000;0.3785;-0.8207;
1373.1000;0.3769;-0.8232;
1373.4000;0.3769;-0.8306;
1373.7000;0.3769;-0.8257;
1374.0000;0.3777;-0.8330;
1374.3000;0.3769;-0.8380;
1374.6000;0.3761;-0.8429;
1374.9000;0.3785;-0.8306;
1375.2000;0.3769;-0.8281;
1375.5000;0.3753;-0.8306;
1375.8000;0.3769;-0.8281;
1376.1000;0.3785;-0.8207;
1376.4000;0.3785;-0.8133;
1376.7000;0.3761;-0.8207;
1377.0000;0.3777;-0.8207;
1377.3000;0.3744;-0.8183;
1377.6000;0.3761;-0.8183;
1377.9000;0.3753;-0.8133;
1378.2000;0.3761;-0.8109;
1378.5000;0.3753;-0.8281;
1378.8000;0.3761;-0.8281;
1379.1000;0.3753;-0.8232;
1379.4000;0.3753;-0.8257;
1379.7000;0.3744;-0.8330;
1380.0000;0.3761;-0.8306;
1380.3000;0.3753;-0.8281;
1380.6000;0.3834;-0.8059;
1380.9000;0.3793;-0.8257;
1381.2000;0.3712;-0.8380;
1381.5000;0.3793;-0.8109;
1381.8000;0.3777;-0.8207;
1382.1000;0.3769;-0.8133;
1382.4000;0.3777;-0.8084;
1382.7000;0.3801;-0.8035;
1383.0000;0.3753;-0.8281;
1383.3000;0.3753;-0.8404;
1383.6000;0.3761;-0.8503;
1383.9000;0.3736;-0.8577;
1384.2000;0.3736;-0.8602;
1384.5000;0.3769;-0.8528;
1384.8000;0.3769;-0.8454;
1385.1000;0.3777;-0.8454;
1385.4000;0.3801;-0.8478;
1385.7000;0.3769;-0.8552;
1386.0000;0.3777;-0.8503;
1386.3000;0.3769;-0.8503;
1386.6000;0.3761;-0.8552;
1386.9000;0.3744;-0.8626;
1387.2000;0.3736;-0.8700;
1387.5000;0.3753;-0.8676;
1387.8000;0.3793;-0.8577;
1388.1000;0.3769;-0.8676;
1388.4000;0.3769;-0.8577;
1388.7000;0.3818;-0.8380;
1389.0000;0.3744;-0.8528;
1389.3000;0.3761;-0.8528;
1389.6000;0.3761;-0.8478;
1389.9000;0.3777;-0.8380;
1390.2000;0.3753;-0.8454;
1390.5000;0.3761;-0.8380;
1390.8000;0.3761;-0.8306;
1391.1000;0.3744;-0.8306;
1391.4000;0.3720;-0.8355;
1391.7000;0.3736;-0.8380;
1392.0000;0.3761;-0.8330;
1392.3000;0.3769;-0.8281;
1392.6000;0.3777;-0.8380;
1392.9000;0.3769;-0.8380;
1393.2000;0.3769;-0.8232;
1393.5000;0.3777;-0.8281;
1393.8000;0.3777;-0.8257;
1394.1000;0.3777;-0.8330;
1394.4000;0.3801;-0.8183;
1394.7000;0.3769;-0.8232;
1395.0000;0.3793;-0.8207;
1395.3000;0.3777;-0.8281;
1395.6000;0.3761;-0.8306;
1395.9000;0.3744;-0.8330;
1396.2000;0.3826;-0.8158;
1396.5000;0.3793;-0.8281;
1396.8000;0.3793;-0.8306;
1397.1000;0.3720;-0.8503;
1397.4000;0.3769;-0.8330;
1397.7000;0.3834;-0.8084;
1398.0000;0.3818;-0.8084;
1398.3000;0.3769;-0.8232;
1398.6000;0.3801;-0.8207;
1398.9000;0.3769;-0.8380;
1399.2000;0.3826;-0.8183;
1399.5000;0.3858;-0.8183;
1399.8000;0.3785;-0.8330;
