time/ms;Fluo/V;P700 deltaI/I x10³;
-199.8000;0.5462;-0.5348;
-199.5000;0.5381;-0.5570;
-199.2000;0.5405;-0.5496;
-198.9000;0.5421;-0.5570;
-198.6000;0.5413;-0.5521;
-198.3000;0.5413;-0.5447;
-198.0000;0.5381;-0.5644;
-197.7000;0.5438;-0.5545;
-197.4000;0.5413;-0.5595;
-197.1000;0.5397;-0.5570;
-196.8000;0.5421;-0.5545;
-196.5000;0.5421;-0.5545;
-196.2000;0.5389;-0.5644;
-195.9000;0.5389;-0.5644;
-195.6000;0.5405;-0.5545;
-195.3000;0.5348;-0.5718;
-195.0000;0.5462;-0.5398;
-194.7000;0.5421;-0.5496;
-194.4000;0.5446;-0.5422;
-194.1000;0.5413;-0.5521;
-193.8000;0.5413;-0.5595;
-193.5000;0.5413;-0.5595;
-193.2000;0.5421;-0.5545;
-192.9000;0.5454;-0.5422;
-192.6000;0.5429;-0.5373;
-192.3000;0.5421;-0.5422;
-192.0000;0.5381;-0.5521;
-191.7000;0.5405;-0.5496;
-191.4000;0.5446;-0.5472;
-191.1000;0.5372;-0.5743;
-190.8000;0.5405;-0.5595;
-190.5000;0.5372;-0.5693;
-190.2000;0.5413;-0.5570;
-189.9000;0.5438;-0.5472;
-189.6000;0.5405;-0.5521;
-189.3000;0.5429;-0.5472;
-189.0000;0.5405;-0.5521;
-188.7000;0.5438;-0.5447;
-188.4000;0.5397;-0.5422;
-188.1000;0.5397;-0.5496;
-187.8000;0.5389;-0.5472;
-187.5000;0.5405;-0.5447;
-187.2000;0.5405;-0.5545;
-186.9000;0.5389;-0.5570;
-186.6000;0.5413;-0.5545;
-186.3000;0.5389;-0.5644;
-186.0000;0.5372;-0.5669;
-185.7000;0.5389;-0.5619;
-185.4000;0.5405;-0.5669;
-185.1000;0.5413;-0.5669;
-184.8000;0.5421;-0.5767;
-184.5000;0.5438;-0.5570;
-184.2000;0.5397;-0.5718;
-183.9000;0.5413;-0.5718;
-183.6000;0.5429;-0.5743;
-183.3000;0.5405;-0.5767;
-183.0000;0.5446;-0.5644;
-182.7000;0.5397;-0.5669;
-182.4000;0.5405;-0.5644;
-182.1000;0.5429;-0.5545;
-181.8000;0.5413;-0.5570;
-181.5000;0.5413;-0.5619;
-181.2000;0.5397;-0.5669;
-180.9000;0.5397;-0.5669;
-180.6000;0.5413;-0.5619;
-180.3000;0.5421;-0.5545;
-180.0000;0.5397;-0.5570;
-179.7000;0.5381;-0.5595;
-179.4000;0.5397;-0.5595;
-179.1000;0.5421;-0.5545;
-178.8000;0.5397;-0.5644;
-178.5000;0.5397;-0.5619;
-178.2000;0.5389;-0.5669;
-177.9000;0.5397;-0.5669;
-177.6000;0.5397;-0.5496;
-177.3000;0.5421;-0.5398;
-177.0000;0.5429;-0.5447;
-176.7000;0.5421;-0.5472;
-176.4000;0.5429;-0.5422;
-176.1000;0.5405;-0.5447;
-175.8000;0.5372;-0.5422;
-175.5000;0.5421;-0.5398;
-175.2000;0.5429;-0.5472;
-174.9000;0.5470;-0.5496;
-174.6000;0.5429;-0.5644;
-174.3000;0.5446;-0.5545;
-174.0000;0.5405;-0.5619;
-173.7000;0.5421;-0.5570;
-173.4000;0.5405;-0.5570;
-173.1000;0.5421;-0.5521;
-172.8000;0.5421;-0.5570;
-172.5000;0.5405;-0.5521;
-172.2000;0.5405;-0.5496;
-171.9000;0.5421;-0.5496;
-171.6000;0.5421;-0.5422;
-171.3000;0.5413;-0.5447;
-171.0000;0.5421;-0.5472;
-170.7000;0.5397;-0.5570;
-170.4000;0.5478;-0.5422;
-170.1000;0.5413;-0.5595;
-169.8000;0.5381;-0.5718;
-169.5000;0.5405;-0.5570;
-169.2000;0.5397;-0.5669;
-168.9000;0.5405;-0.5669;
-168.6000;0.5397;-0.5693;
-168.3000;0.5421;-0.5669;
-168.0000;0.5413;-0.5693;
-167.7000;0.5413;-0.5644;
-167.4000;0.5405;-0.5619;
-167.1000;0.5413;-0.5644;
-166.8000;0.5429;-0.5619;
-166.5000;0.5421;-0.5595;
-166.2000;0.5421;-0.5595;
-165.9000;0.5413;-0.5570;
-165.6000;0.5421;-0.5595;
-165.3000;0.5389;-0.5619;
-165.0000;0.5405;-0.5619;
-164.7000;0.5405;-0.5619;
-164.4000;0.5381;-0.5669;
-164.1000;0.5405;-0.5595;
-163.8000;0.5397;-0.5545;
-163.5000;0.5413;-0.5595;
-163.2000;0.5405;-0.5570;
-162.9000;0.5405;-0.5570;
-162.6000;0.5405;-0.5545;
-162.3000;0.5413;-0.5496;
-162.0000;0.5421;-0.5521;
-161.7000;0.5405;-0.5595;
-161.4000;0.5421;-0.5669;
-161.1000;0.5421;-0.5619;
-160.8000;0.5405;-0.5595;
-160.5000;0.5397;-0.5496;
-160.2000;0.5405;-0.5422;
-159.9000;0.5413;-0.5472;
-159.6000;0.5462;-0.5398;
-159.3000;0.5421;-0.5496;
-159.0000;0.5421;-0.5496;
-158.7000;0.5405;-0.5472;
-158.4000;0.5405;-0.5373;
-158.1000;0.5421;-0.5299;
-157.8000;0.5421;-0.5274;
-157.5000;0.5405;-0.5274;
-157.2000;0.5413;-0.5250;
-156.9000;0.5413;-0.5250;
-156.6000;0.5421;-0.5250;
-156.3000;0.5421;-0.5348;
-156.0000;0.5421;-0.5398;
-155.7000;0.5421;-0.5422;
-155.4000;0.5421;-0.5447;
-155.1000;0.5421;-0.5496;
-154.8000;0.5413;-0.5472;
-154.5000;0.5413;-0.5422;
-154.2000;0.5405;-0.5447;
-153.9000;0.5405;-0.5373;
-153.6000;0.5389;-0.5422;
-153.3000;0.5413;-0.5348;
-153.0000;0.5413;-0.5348;
-152.7000;0.5413;-0.5422;
-152.4000;0.5421;-0.5447;
-152.1000;0.5413;-0.5496;
-151.8000;0.5429;-0.5422;
-151.5000;0.5413;-0.5373;
-151.2000;0.5405;-0.5373;
-150.9000;0.5486;-0.5176;
-150.6000;0.5405;-0.5324;
-150.3000;0.5413;-0.5398;
-150.0000;0.5421;-0.5398;
-149.7000;0.5413;-0.5398;
-149.4000;0.5429;-0.5398;
-149.1000;0.5421;-0.5447;
-148.8000;0.5397;-0.5422;
-148.5000;0.5421;-0.5324;
-148.2000;0.5421;-0.5250;
-147.9000;0.5421;-0.5225;
-147.6000;0.5413;-0.5348;
-147.3000;0.5413;-0.5274;
-147.0000;0.5421;-0.5250;
-146.7000;0.5405;-0.5447;
-146.4000;0.5413;-0.5447;
-146.1000;0.5429;-0.5447;
-145.8000;0.5429;-0.5422;
-145.5000;0.5405;-0.5422;
-145.2000;0.5413;-0.5348;
-144.9000;0.5470;-0.5324;
-144.6000;0.5405;-0.5521;
-144.3000;0.5421;-0.5472;
-144.0000;0.5421;-0.5447;
-143.7000;0.5413;-0.5422;
-143.4000;0.5421;-0.5299;
-143.1000;0.5405;-0.5250;
-142.8000;0.5421;-0.5176;
-142.5000;0.5429;-0.5151;
-142.2000;0.5405;-0.5274;
-141.9000;0.5438;-0.5274;
-141.6000;0.5438;-0.5324;
-141.3000;0.5397;-0.5348;
-141.0000;0.5405;-0.5274;
-140.7000;0.5413;-0.5299;
-140.4000;0.5446;-0.5348;
-140.1000;0.5421;-0.5447;
-139.8000;0.5438;-0.5496;
-139.5000;0.5413;-0.5496;
-139.2000;0.5413;-0.5422;
-138.9000;0.5421;-0.5472;
-138.6000;0.5405;-0.5472;
-138.3000;0.5405;-0.5447;
-138.0000;0.5421;-0.5398;
-137.7000;0.5389;-0.5447;
-137.4000;0.5429;-0.5348;
-137.1000;0.5413;-0.5324;
-136.8000;0.5421;-0.5324;
-136.5000;0.5413;-0.5200;
-136.2000;0.5421;-0.5151;
-135.9000;0.5486;-0.5053;
-135.6000;0.5413;-0.5250;
-135.3000;0.5421;-0.5126;
-135.0000;0.5413;-0.5200;
-134.7000;0.5397;-0.5126;
-134.4000;0.5413;-0.5126;
-134.1000;0.5421;-0.5176;
-133.8000;0.5413;-0.5151;
-133.5000;0.5389;-0.5225;
-133.2000;0.5413;-0.5200;
-132.9000;0.5413;-0.5225;
-132.6000;0.5454;-0.5126;
-132.3000;0.5421;-0.5126;
-132.0000;0.5413;-0.5151;
-131.7000;0.5429;-0.5176;
-131.4000;0.5421;-0.5299;
-131.1000;0.5405;-0.5299;
-130.8000;0.5413;-0.5299;
-130.5000;0.5413;-0.5324;
-130.2000;0.5372;-0.5324;
-129.9000;0.5397;-0.5324;
-129.6000;0.5438;-0.5299;
-129.3000;0.5381;-0.5447;
-129.0000;0.5454;-0.5324;
-128.7000;0.5438;-0.5324;
-128.4000;0.5413;-0.5250;
-128.1000;0.5405;-0.5225;
-127.8000;0.5405;-0.5274;
-127.5000;0.5421;-0.5225;
-127.2000;0.5438;-0.5151;
-126.9000;0.5405;-0.5200;
-126.6000;0.5429;-0.5126;
-126.3000;0.5446;-0.5200;
-126.0000;0.5421;-0.5299;
-125.7000;0.5413;-0.5299;
-125.4000;0.5413;-0.5324;
-125.1000;0.5413;-0.5274;
-124.8000;0.5405;-0.5299;
-124.5000;0.5446;-0.5274;
-124.2000;0.5364;-0.5447;
-123.9000;0.5413;-0.5274;
-123.6000;0.5405;-0.5274;
-123.3000;0.5413;-0.5274;
-123.0000;0.5438;-0.5250;
-122.7000;0.5429;-0.5274;
-122.4000;0.5446;-0.5274;
-122.1000;0.5413;-0.5373;
-121.8000;0.5470;-0.5250;
-121.5000;0.5438;-0.5373;
-121.2000;0.5421;-0.5348;
-120.9000;0.5429;-0.5373;
-120.6000;0.5413;-0.5398;
-120.3000;0.5389;-0.5299;
-120.0000;0.5478;-0.5151;
-119.7000;0.5389;-0.5373;
-119.4000;0.5381;-0.5348;
-119.1000;0.5446;-0.5176;
-118.8000;0.5324;-0.5496;
-118.5000;0.5405;-0.5324;
-118.2000;0.5462;-0.5225;
-117.9000;0.5405;-0.5373;
-117.6000;0.5429;-0.5274;
-117.3000;0.5413;-0.5324;
-117.0000;0.5462;-0.5200;
-116.7000;0.5405;-0.5348;
-116.4000;0.5413;-0.5348;
-116.1000;0.5397;-0.5299;
-115.8000;0.5356;-0.5299;
-115.5000;0.5421;-0.5200;
-115.2000;0.5421;-0.5250;
-114.9000;0.5405;-0.5250;
-114.6000;0.5421;-0.5225;
-114.3000;0.5405;-0.5373;
-114.0000;0.5389;-0.5472;
-113.7000;0.5429;-0.5324;
-113.4000;0.5413;-0.5299;
-113.1000;0.5405;-0.5274;
-112.8000;0.5413;-0.5250;
-112.5000;0.5421;-0.5250;
-112.2000;0.5429;-0.5274;
-111.9000;0.5372;-0.5422;
-111.6000;0.5421;-0.5250;
-111.3000;0.5405;-0.5250;
-111.0000;0.5421;-0.5274;
-110.7000;0.5421;-0.5299;
-110.4000;0.5421;-0.5324;
-110.1000;0.5389;-0.5447;
-109.8000;0.5438;-0.5299;
-109.5000;0.5405;-0.5373;
-109.2000;0.5429;-0.5348;
-108.9000;0.5405;-0.5398;
-108.6000;0.5446;-0.5299;
-108.3000;0.5421;-0.5373;
-108.0000;0.5413;-0.5398;
-107.7000;0.5405;-0.5348;
-107.4000;0.5405;-0.5225;
-107.1000;0.5405;-0.5274;
-106.8000;0.5421;-0.5176;
-106.5000;0.5389;-0.5274;
-106.2000;0.5405;-0.5299;
-105.9000;0.5405;-0.5299;
-105.6000;0.5413;-0.5324;
-105.3000;0.5397;-0.5324;
-105.0000;0.5397;-0.5422;
-104.7000;0.5421;-0.5299;
-104.4000;0.5429;-0.5200;
-104.1000;0.5438;-0.5225;
-103.8000;0.5397;-0.5348;
-103.5000;0.5421;-0.5299;
-103.2000;0.5413;-0.5250;
-102.9000;0.5413;-0.5250;
-102.6000;0.5397;-0.5250;
-102.3000;0.5454;-0.5274;
-102.0000;0.5421;-0.5373;
-101.7000;0.5421;-0.5373;
-101.4000;0.5421;-0.5324;
-101.1000;0.5405;-0.5250;
-100.8000;0.5429;-0.5151;
-100.5000;0.5421;-0.5250;
-100.2000;0.5405;-0.5373;
-99.9000;0.5405;-0.5348;
-99.6000;0.5421;-0.5348;
-99.3000;0.5421;-0.5274;
-99.0000;0.5413;-0.5274;
-98.7000;0.5397;-0.5225;
-98.4000;0.5372;-0.5299;
-98.1000;0.5429;-0.5176;
-97.8000;0.5421;-0.5225;
-97.5000;0.5429;-0.5200;
-97.2000;0.5421;-0.5250;
-96.9000;0.5405;-0.5299;
-96.6000;0.5454;-0.5200;
-96.3000;0.5421;-0.5373;
-96.0000;0.5429;-0.5299;
-95.7000;0.5429;-0.5348;
-95.4000;0.5413;-0.5373;
-95.1000;0.5429;-0.5373;
-94.8000;0.5397;-0.5472;
-94.5000;0.5429;-0.5422;
-94.2000;0.5421;-0.5422;
-93.9000;0.5421;-0.5324;
-93.6000;0.5397;-0.5422;
-93.3000;0.5413;-0.5274;
-93.0000;0.5413;-0.5250;
-92.7000;0.5405;-0.5324;
-92.4000;0.5438;-0.5373;
-92.1000;0.5429;-0.5299;
-91.8000;0.5421;-0.5299;
-91.5000;0.5421;-0.5373;
-91.2000;0.5429;-0.5348;
-90.9000;0.5381;-0.5398;
-90.6000;0.5429;-0.5274;
-90.3000;0.5429;-0.5299;
-90.0000;0.5421;-0.5348;
-89.7000;0.5421;-0.5274;
-89.4000;0.5413;-0.5299;
-89.1000;0.5405;-0.5348;
-88.8000;0.5429;-0.5250;
-88.5000;0.5413;-0.5225;
-88.2000;0.5421;-0.5348;
-87.9000;0.5429;-0.5324;
-87.6000;0.5421;-0.5373;
-87.3000;0.5405;-0.5447;
-87.0000;0.5389;-0.5496;
-86.7000;0.5413;-0.5422;
-86.4000;0.5413;-0.5472;
-86.1000;0.5413;-0.5521;
-85.8000;0.5397;-0.5521;
-85.5000;0.5438;-0.5398;
-85.2000;0.5446;-0.5422;
-84.9000;0.5446;-0.5447;
-84.6000;0.5421;-0.5472;
-84.3000;0.5413;-0.5422;
-84.0000;0.5429;-0.5373;
-83.7000;0.5397;-0.5447;
-83.4000;0.5405;-0.5447;
-83.1000;0.5397;-0.5521;
-82.8000;0.5413;-0.5422;
-82.5000;0.5405;-0.5447;
-82.2000;0.5462;-0.5348;
-81.9000;0.5397;-0.5545;
-81.6000;0.5405;-0.5496;
-81.3000;0.5429;-0.5472;
-81.0000;0.5405;-0.5447;
-80.7000;0.5421;-0.5422;
-80.4000;0.5438;-0.5447;
-80.1000;0.5429;-0.5447;
-79.8000;0.5405;-0.5398;
-79.5000;0.5397;-0.5398;
-79.2000;0.5438;-0.5274;
-78.9000;0.5413;-0.5299;
-78.6000;0.5429;-0.5373;
-78.3000;0.5429;-0.5398;
-78.0000;0.5413;-0.5398;
-77.7000;0.5405;-0.5373;
-77.4000;0.5356;-0.5422;
-77.1000;0.5413;-0.5348;
-76.8000;0.5405;-0.5373;
-76.5000;0.5348;-0.5398;
-76.2000;0.5421;-0.5299;
-75.9000;0.5413;-0.5274;
-75.6000;0.5413;-0.5274;
-75.3000;0.5397;-0.5373;
-75.0000;0.5429;-0.5348;
-74.7000;0.5413;-0.5422;
-74.4000;0.5429;-0.5299;
-74.1000;0.5421;-0.5299;
-73.8000;0.5421;-0.5274;
-73.5000;0.5421;-0.5250;
-73.2000;0.5372;-0.5348;
-72.9000;0.5397;-0.5274;
-72.6000;0.5405;-0.5151;
-72.3000;0.5413;-0.5126;
-72.0000;0.5405;-0.5126;
-71.7000;0.5421;-0.5151;
-71.4000;0.5332;-0.5422;
-71.1000;0.5413;-0.5299;
-70.8000;0.5421;-0.5348;
-70.5000;0.5405;-0.5422;
-70.2000;0.5405;-0.5348;
-69.9000;0.5421;-0.5324;
-69.6000;0.5405;-0.5299;
-69.3000;0.5381;-0.5373;
-69.0000;0.5340;-0.5496;
-68.7000;0.5421;-0.5299;
-68.4000;0.5413;-0.5274;
-68.1000;0.5389;-0.5348;
-67.8000;0.5405;-0.5398;
-67.5000;0.5405;-0.5422;
-67.2000;0.5405;-0.5348;
-66.9000;0.5405;-0.5324;
-66.6000;0.5397;-0.5274;
-66.3000;0.5421;-0.5225;
-66.0000;0.5429;-0.5126;
-65.7000;0.5389;-0.5225;
-65.4000;0.5405;-0.5176;
-65.1000;0.5421;-0.5176;
-64.8000;0.5421;-0.5225;
-64.5000;0.5421;-0.5200;
-64.2000;0.5405;-0.5225;
-63.9000;0.5429;-0.5200;
-63.6000;0.5454;-0.5077;
-63.3000;0.5421;-0.5274;
-63.0000;0.5372;-0.5447;
-62.7000;0.5413;-0.5348;
-62.4000;0.5397;-0.5422;
-62.1000;0.5397;-0.5373;
-61.8000;0.5405;-0.5398;
-61.5000;0.5421;-0.5348;
-61.2000;0.5421;-0.5250;
-60.9000;0.5438;-0.5225;
-60.6000;0.5405;-0.5373;
-60.3000;0.5405;-0.5348;
-60.0000;0.5421;-0.5324;
-59.7000;0.5413;-0.5324;
-59.4000;0.5413;-0.5422;
-59.1000;0.5413;-0.5447;
-58.8000;0.5446;-0.5447;
-58.5000;0.5413;-0.5545;
-58.2000;0.5446;-0.5545;
-57.9000;0.5413;-0.5496;
-57.6000;0.5438;-0.5398;
-57.3000;0.5397;-0.5545;
-57.0000;0.5454;-0.5398;
-56.7000;0.5413;-0.5422;
-56.4000;0.5397;-0.5472;
-56.1000;0.5421;-0.5398;
-55.8000;0.5381;-0.5545;
-55.5000;0.5429;-0.5422;
-55.2000;0.5470;-0.5373;
-54.9000;0.5413;-0.5422;
-54.6000;0.5429;-0.5398;
-54.3000;0.5381;-0.5521;
-54.0000;0.5429;-0.5398;
-53.7000;0.5372;-0.5472;
-53.4000;0.5389;-0.5324;
-53.1000;0.5364;-0.5422;
-52.8000;0.5315;-0.5669;
-52.5000;0.5405;-0.5447;
-52.2000;0.5405;-0.5348;
-51.9000;0.5413;-0.5348;
-51.6000;0.5389;-0.5373;
-51.3000;0.5446;-0.5324;
-51.0000;0.5446;-0.5200;
-50.7000;0.5421;-0.5250;
-50.4000;0.5486;-0.5077;
-50.1000;0.5421;-0.5225;
-49.8000;0.5421;-0.5151;
-49.5000;0.5405;-0.5102;
-49.2000;0.5429;-0.5028;
-48.9000;0.5438;-0.5102;
-48.6000;0.5421;-0.5225;
-48.3000;0.5478;-0.5126;
-48.0000;0.5429;-0.5274;
-47.7000;0.5405;-0.5324;
-47.4000;0.5381;-0.5324;
-47.1000;0.5397;-0.5324;
-46.8000;0.5429;-0.5299;
-46.5000;0.5413;-0.5299;
-46.2000;0.5413;-0.5324;
-45.9000;0.5421;-0.5151;
-45.6000;0.5413;-0.5151;
-45.3000;0.5397;-0.5274;
-45.0000;0.5421;-0.5274;
-44.7000;0.5405;-0.5373;
-44.4000;0.5429;-0.5422;
-44.1000;0.5421;-0.5496;
-43.8000;0.5429;-0.5472;
-43.5000;0.5429;-0.5472;
-43.2000;0.5413;-0.5545;
-42.9000;0.5389;-0.5570;
-42.6000;0.5397;-0.5619;
-42.3000;0.5405;-0.5496;
-42.0000;0.5429;-0.5422;
-41.7000;0.5405;-0.5496;
-41.4000;0.5397;-0.5570;
-41.1000;0.5421;-0.5545;
-40.8000;0.5429;-0.5545;
-40.5000;0.5413;-0.5644;
-40.2000;0.5421;-0.5595;
-39.9000;0.5421;-0.5570;
-39.6000;0.5405;-0.5570;
-39.3000;0.5421;-0.5545;
-39.0000;0.5413;-0.5595;
-38.7000;0.5397;-0.5619;
-38.4000;0.5413;-0.5496;
-38.1000;0.5397;-0.5521;
-37.8000;0.5405;-0.5447;
-37.5000;0.5429;-0.5373;
-37.2000;0.5413;-0.5324;
-36.9000;0.5429;-0.5299;
-36.6000;0.5429;-0.5225;
-36.3000;0.5405;-0.5151;
-36.0000;0.5405;-0.5200;
-35.7000;0.5405;-0.5299;
-35.4000;0.5397;-0.5225;
-35.1000;0.5413;-0.5176;
-34.8000;0.5389;-0.5176;
-34.5000;0.5405;-0.5151;
-34.2000;0.5405;-0.5176;
-33.9000;0.5413;-0.5151;
-33.6000;0.5372;-0.5200;
-33.3000;0.5429;-0.5102;
-33.0000;0.5405;-0.5200;
-32.7000;0.5405;-0.5176;
-32.4000;0.5421;-0.5176;
-32.1000;0.5478;-0.5003;
-31.8000;0.5421;-0.5151;
-31.5000;0.5438;-0.5176;
-31.2000;0.5421;-0.5250;
-30.9000;0.5413;-0.5274;
-30.6000;0.5421;-0.5225;
-30.3000;0.5413;-0.5299;
-30.0000;0.5405;-0.5250;
-29.7000;0.5421;-0.5225;
-29.4000;0.5389;-0.5299;
-29.1000;0.5413;-0.5176;
-28.8000;0.5356;-0.5299;
-28.5000;0.5470;-0.5151;
-28.2000;0.5413;-0.5299;
-27.9000;0.5405;-0.5274;
-27.6000;0.5413;-0.5250;
-27.3000;0.5470;-0.5176;
-27.0000;0.5438;-0.5324;
-26.7000;0.5421;-0.5447;
-26.4000;0.5405;-0.5447;
-26.1000;0.5462;-0.5274;
-25.8000;0.5397;-0.5348;
-25.5000;0.5413;-0.5348;
-25.2000;0.5405;-0.5422;
-24.9000;0.5405;-0.5324;
-24.6000;0.5405;-0.5348;
-24.3000;0.5421;-0.5250;
-24.0000;0.5413;-0.5348;
-23.7000;0.5405;-0.5348;
-23.4000;0.5389;-0.5373;
-23.1000;0.5421;-0.5373;
-22.8000;0.5446;-0.5398;
-22.5000;0.5413;-0.5472;
-22.2000;0.5397;-0.5373;
-21.9000;0.5429;-0.5348;
-21.6000;0.5405;-0.5250;
-21.3000;0.5405;-0.5102;
-21.0000;0.5413;-0.5102;
-20.7000;0.5413;-0.5077;
-20.4000;0.5421;-0.5102;
-20.1000;0.5405;-0.5176;
-19.8000;0.5413;-0.5225;
-19.5000;0.5413;-0.5250;
-19.2000;0.5413;-0.5324;
-18.9000;0.5356;-0.5521;
-18.6000;0.5446;-0.5324;
-18.3000;0.5413;-0.5299;
-18.0000;0.5413;-0.5398;
-17.7000;0.5405;-0.5447;
-17.4000;0.5397;-0.5472;
-17.1000;0.5381;-0.5496;
-16.8000;0.5405;-0.5496;
-16.5000;0.5356;-0.5743;
-16.2000;0.5413;-0.5398;
-15.9000;0.5405;-0.5348;
-15.6000;0.5397;-0.5324;
-15.3000;0.5389;-0.5250;
-15.0000;0.5413;-0.5225;
-14.7000;0.5307;-0.5496;
-14.4000;0.5503;-0.4905;
-14.1000;0.5438;-0.5053;
-13.8000;0.5421;-0.5003;
-13.5000;0.5389;-0.5077;
-13.2000;0.5446;-0.4880;
-12.9000;0.5413;-0.4979;
-12.6000;0.5421;-0.5003;
-12.3000;0.5405;-0.5003;
-12.0000;0.5421;-0.5028;
-11.7000;0.5421;-0.5028;
-11.4000;0.5421;-0.5053;
-11.1000;0.5397;-0.5102;
-10.8000;0.5397;-0.5225;
-10.5000;0.5397;-0.5373;
-10.2000;0.5413;-0.5373;
-9.9000;0.5405;-0.5496;
-9.6000;0.5405;-0.5447;
-9.3000;0.5397;-0.5373;
-9.0000;0.5421;-0.5299;
-8.7000;0.5405;-0.5348;
-8.4000;0.5389;-0.5348;
-8.1000;0.5405;-0.5324;
-7.8000;0.5413;-0.5299;
-7.5000;0.5405;-0.5324;
-7.2000;0.5405;-0.5348;
-6.9000;0.5421;-0.5348;
-6.6000;0.5429;-0.5398;
-6.3000;0.5397;-0.5545;
-6.0000;0.5405;-0.5521;
-5.7000;0.5397;-0.5496;
-5.4000;0.5413;-0.5373;
-5.1000;0.5405;-0.5373;
-4.8000;0.5389;-0.5373;
-4.5000;0.5413;-0.5348;
-4.2000;0.5405;-0.5299;
-3.9000;0.5389;-0.5324;
-3.6000;0.5511;-0.5028;
-3.3000;0.5405;-0.5274;
-3.0000;0.5438;-0.5250;
-2.7000;0.5413;-0.5324;
-2.4000;0.5389;-0.5274;
-2.1000;0.5405;-0.5299;
-1.8000;0.5405;-0.5250;
-1.5000;0.5413;-0.5274;
-1.2000;0.5438;-0.5299;
-0.9000;0.5413;-0.5472;
-0.6000;0.5413;-0.5521;
-0.3000;0.5421;-0.5472;
0.0000;0.5421;-0.5472;
0.3000;0.5503;-0.5619;
0.6000;0.5665;-0.5250;
0.9000;0.5836;-0.4855;
1.2000;0.5967;-0.4436;
1.5000;0.6056;-0.4215;
1.8000;0.6113;-0.4017;
2.1000;0.6178;-0.3845;
2.4000;0.6235;-0.3648;
2.7000;0.6252;-0.3672;
3.0000;0.6325;-0.3475;
3.3000;0.6325;-0.3426;
3.6000;0.6341;-0.3278;
3.9000;0.6382;-0.3229;
4.2000;0.6382;-0.3179;
4.5000;0.6422;-0.3081;
4.8000;0.6414;-0.3130;
5.1000;0.6431;-0.3081;
5.4000;0.6496;-0.2958;
5.7000;0.6471;-0.3056;
6.0000;0.6479;-0.3056;
6.3000;0.6504;-0.2982;
6.6000;0.6520;-0.3007;
6.9000;0.6520;-0.2958;
7.2000;0.6520;-0.3032;
7.5000;0.6455;-0.3179;
7.8000;0.6593;-0.2908;
8.1000;0.6626;-0.2834;
8.4000;0.6561;-0.2958;
8.7000;0.6569;-0.2982;
9.0000;0.6569;-0.2933;
9.3000;0.6561;-0.2958;
9.6000;0.6593;-0.2834;
9.9000;0.6577;-0.2908;
10.2000;0.6593;-0.2859;
10.5000;0.6593;-0.2760;
10.8000;0.6610;-0.2760;
11.1000;0.6618;-0.2588;
11.4000;0.6634;-0.2637;
11.7000;0.6659;-0.2662;
12.0000;0.6659;-0.2736;
12.3000;0.6659;-0.2686;
12.6000;0.6675;-0.2711;
12.9000;0.6724;-0.2489;
13.2000;0.6675;-0.2711;
13.5000;0.6675;-0.2686;
13.8000;0.6691;-0.2686;
14.1000;0.6716;-0.2637;
14.4000;0.6683;-0.2760;
14.7000;0.6691;-0.2686;
15.0000;0.6716;-0.2736;
15.3000;0.6707;-0.2711;
15.6000;0.6716;-0.2662;
15.9000;0.6707;-0.2686;
16.2000;0.6699;-0.2760;
16.5000;0.6732;-0.2810;
16.8000;0.6732;-0.2785;
17.1000;0.6756;-0.2834;
17.4000;0.6732;-0.2908;
17.7000;0.6756;-0.2785;
18.0000;0.6764;-0.2834;
18.3000;0.6764;-0.2884;
18.6000;0.6764;-0.2785;
18.9000;0.6756;-0.2834;
19.2000;0.6764;-0.2908;
19.5000;0.6764;-0.2958;
19.8000;0.6772;-0.2958;
20.1000;0.6764;-0.2933;
20.4000;0.6805;-0.2810;
20.7000;0.6781;-0.2859;
21.0000;0.6789;-0.2834;
21.3000;0.6781;-0.2859;
21.6000;0.6805;-0.2760;
21.9000;0.6748;-0.2908;
22.2000;0.6797;-0.2859;
22.5000;0.6846;-0.2834;
22.8000;0.6756;-0.3081;
23.1000;0.6805;-0.2884;
23.4000;0.6821;-0.2834;
23.7000;0.6813;-0.2810;
24.0000;0.6829;-0.2834;
24.3000;0.6829;-0.2933;
24.6000;0.6846;-0.2760;
24.9000;0.6813;-0.2834;
25.2000;0.6838;-0.2785;
25.5000;0.6813;-0.2711;
25.8000;0.6838;-0.2736;
26.1000;0.6821;-0.2760;
26.4000;0.6838;-0.2785;
26.7000;0.6838;-0.2834;
27.0000;0.6862;-0.2884;
27.3000;0.6862;-0.2859;
27.6000;0.6846;-0.2810;
27.9000;0.6805;-0.2958;
28.2000;0.6870;-0.2834;
28.5000;0.6846;-0.2834;
28.8000;0.6854;-0.2859;
29.1000;0.6764;-0.3105;
29.4000;0.6927;-0.2785;
29.7000;0.6854;-0.2933;
30.0000;0.6862;-0.2908;
30.3000;0.6862;-0.2982;
30.6000;0.6878;-0.2958;
30.9000;0.6838;-0.3105;
31.2000;0.6878;-0.3081;
31.5000;0.6886;-0.3081;
31.8000;0.6903;-0.3032;
32.1000;0.6854;-0.3130;
32.4000;0.6878;-0.3007;
32.7000;0.6903;-0.2884;
33.0000;0.6895;-0.2908;
33.3000;0.6895;-0.2982;
33.6000;0.6878;-0.3007;
33.9000;0.6878;-0.3032;
34.2000;0.6886;-0.2982;
34.5000;0.6984;-0.2736;
34.8000;0.6870;-0.3032;
35.1000;0.6886;-0.3056;
35.4000;0.6886;-0.3105;
35.7000;0.6886;-0.3056;
36.0000;0.6846;-0.3105;
36.3000;0.6895;-0.2982;
36.6000;0.6886;-0.2908;
36.9000;0.6886;-0.2933;
37.2000;0.6805;-0.3278;
37.5000;0.6903;-0.3032;
37.8000;0.6895;-0.3007;
38.1000;0.6886;-0.3007;
38.4000;0.6919;-0.2859;
38.7000;0.6829;-0.3056;
39.0000;0.6903;-0.2834;
39.3000;0.6903;-0.2785;
39.6000;0.6903;-0.2834;
39.9000;0.6911;-0.2834;
40.2000;0.6927;-0.2760;
40.5000;0.6911;-0.2760;
40.8000;0.6895;-0.2859;
41.1000;0.6903;-0.2908;
41.4000;0.6919;-0.2884;
41.7000;0.6927;-0.2958;
42.0000;0.6919;-0.3056;
42.3000;0.6927;-0.2982;
42.6000;0.6903;-0.3056;
42.9000;0.6935;-0.3032;
43.2000;0.6935;-0.3056;
43.5000;0.6927;-0.3130;
43.8000;0.6919;-0.3105;
44.1000;0.6927;-0.3081;
44.4000;0.6919;-0.3155;
44.7000;0.6919;-0.3253;
45.0000;0.6943;-0.3155;
45.3000;0.6943;-0.3032;
45.6000;0.6927;-0.3056;
45.9000;0.6927;-0.3032;
46.2000;0.6960;-0.2859;
46.5000;0.6927;-0.2884;
46.8000;0.6952;-0.2859;
47.1000;0.6911;-0.2982;
47.4000;0.6935;-0.2884;
47.7000;0.6952;-0.2859;
48.0000;0.6919;-0.2859;
48.3000;0.6943;-0.2933;
48.6000;0.6976;-0.2908;
48.9000;0.6952;-0.2908;
49.2000;0.6952;-0.2908;
49.5000;0.6960;-0.2834;
49.8000;0.6952;-0.2785;
50.1000;0.6968;-0.2785;
50.4000;0.7009;-0.2785;
50.7000;0.6943;-0.2982;
51.0000;0.6968;-0.2933;
51.3000;0.6976;-0.2859;
51.6000;0.6960;-0.2785;
51.9000;0.6968;-0.2834;
52.2000;0.6960;-0.2884;
52.5000;0.6968;-0.2810;
52.8000;0.6952;-0.2834;
53.1000;0.6968;-0.2908;
53.4000;0.6976;-0.2982;
53.7000;0.6960;-0.3081;
54.0000;0.6976;-0.3007;
54.3000;0.6960;-0.3130;
54.6000;0.6960;-0.3105;
54.9000;0.6968;-0.3007;
55.2000;0.7017;-0.2933;
55.5000;0.6968;-0.2982;
55.8000;0.6935;-0.3081;
56.1000;0.6960;-0.3179;
56.4000;0.6968;-0.3105;
56.7000;0.6943;-0.3032;
57.0000;0.6919;-0.3155;
57.3000;0.6952;-0.3105;
57.6000;0.6992;-0.3081;
57.9000;0.6952;-0.3130;
58.2000;0.6960;-0.3032;
58.5000;0.6960;-0.3081;
58.8000;0.6976;-0.3056;
59.1000;0.6960;-0.3105;
59.4000;0.6968;-0.3007;
59.7000;0.6984;-0.2982;
60.0000;0.6976;-0.3032;
60.3000;0.6984;-0.3081;
60.6000;0.6992;-0.3056;
60.9000;0.6943;-0.3229;
61.2000;0.7009;-0.3081;
61.5000;0.6976;-0.3032;
61.8000;0.7000;-0.3056;
62.1000;0.6952;-0.3130;
62.4000;0.6968;-0.2982;
62.7000;0.7025;-0.2859;
63.0000;0.6992;-0.3007;
63.3000;0.6984;-0.3032;
63.6000;0.7033;-0.2859;
63.9000;0.7000;-0.3032;
64.2000;0.6992;-0.3081;
64.5000;0.6992;-0.3056;
64.8000;0.6976;-0.3081;
65.1000;0.6984;-0.3179;
65.4000;0.7000;-0.3056;
65.7000;0.7041;-0.2908;
66.0000;0.7057;-0.2958;
66.3000;0.7017;-0.3056;
66.6000;0.7025;-0.3032;
66.9000;0.7000;-0.3032;
67.2000;0.6976;-0.2958;
67.5000;0.7009;-0.2884;
67.8000;0.6968;-0.2982;
68.1000;0.6992;-0.2933;
68.4000;0.6984;-0.2982;
68.7000;0.6968;-0.3056;
69.0000;0.6960;-0.3007;
69.3000;0.6992;-0.2884;
69.6000;0.7106;-0.2662;
69.9000;0.6984;-0.2958;
70.2000;0.7000;-0.3081;
70.5000;0.7009;-0.3032;
70.8000;0.6976;-0.3105;
71.1000;0.7000;-0.3130;
71.4000;0.7009;-0.3007;
71.7000;0.6992;-0.2982;
72.0000;0.6992;-0.2933;
72.3000;0.6984;-0.3105;
72.6000;0.6992;-0.3105;
72.9000;0.6992;-0.3056;
73.2000;0.7049;-0.2908;
73.5000;0.6992;-0.3081;
73.8000;0.7000;-0.3105;
74.1000;0.7025;-0.3056;
74.4000;0.7017;-0.3056;
74.7000;0.7000;-0.3155;
75.0000;0.6992;-0.3032;
75.3000;0.7017;-0.2958;
75.6000;0.7000;-0.2933;
75.9000;0.7009;-0.2982;
76.2000;0.6992;-0.3105;
76.5000;0.7090;-0.2834;
76.8000;0.7017;-0.3032;
77.1000;0.7025;-0.3007;
77.4000;0.7000;-0.3081;
77.7000;0.7009;-0.3105;
78.0000;0.7017;-0.3105;
78.3000;0.7017;-0.3105;
78.6000;0.7025;-0.3081;
78.9000;0.7017;-0.3105;
79.2000;0.7017;-0.3032;
79.5000;0.7025;-0.2982;
79.8000;0.7009;-0.3032;
80.1000;0.7033;-0.2933;
80.4000;0.7025;-0.3007;
80.7000;0.7049;-0.3007;
81.0000;0.7000;-0.3081;
81.3000;0.7025;-0.3056;
81.6000;0.7017;-0.3081;
81.9000;0.7090;-0.2859;
82.2000;0.7009;-0.3032;
82.5000;0.6992;-0.3032;
82.8000;0.7057;-0.2908;
83.1000;0.7000;-0.3081;
83.4000;0.7049;-0.3056;
83.7000;0.7033;-0.3130;
84.0000;0.7049;-0.3056;
84.3000;0.7041;-0.3130;
84.6000;0.7057;-0.3081;
84.9000;0.7033;-0.3204;
85.2000;0.7025;-0.3204;
85.5000;0.7033;-0.3179;
85.8000;0.7041;-0.3204;
86.1000;0.7009;-0.3278;
86.4000;0.7017;-0.3327;
86.7000;0.7033;-0.3253;
87.0000;0.7033;-0.3253;
87.3000;0.7049;-0.3155;
87.6000;0.7041;-0.3204;
87.9000;0.7041;-0.3253;
88.2000;0.7057;-0.3253;
88.5000;0.7017;-0.3352;
88.8000;0.7025;-0.3377;
89.1000;0.7033;-0.3229;
89.4000;0.7033;-0.3179;
89.7000;0.7041;-0.3155;
90.0000;0.7025;-0.3204;
90.3000;0.7033;-0.3204;
90.6000;0.7033;-0.3179;
90.9000;0.7033;-0.3327;
91.2000;0.7000;-0.3352;
91.5000;0.7041;-0.3352;
91.8000;0.7025;-0.3303;
92.1000;0.7041;-0.3155;
92.4000;0.7033;-0.3253;
92.7000;0.7049;-0.3278;
93.0000;0.7041;-0.3303;
93.3000;0.7033;-0.3377;
93.6000;0.7033;-0.3401;
93.9000;0.7033;-0.3475;
94.2000;0.7025;-0.3500;
94.5000;0.7041;-0.3524;
94.8000;0.7066;-0.3500;
95.1000;0.7049;-0.3500;
95.4000;0.7057;-0.3451;
95.7000;0.7057;-0.3352;
96.0000;0.7049;-0.3401;
96.3000;0.7041;-0.3401;
96.6000;0.7033;-0.3352;
96.9000;0.7025;-0.3303;
97.2000;0.7098;-0.3105;
97.5000;0.7033;-0.3327;
97.8000;0.7041;-0.3327;
98.1000;0.7049;-0.3377;
98.4000;0.7090;-0.3377;
98.7000;0.7041;-0.3451;
99.0000;0.7041;-0.3377;
99.3000;0.7041;-0.3426;
99.6000;0.7074;-0.3253;
99.9000;0.7017;-0.3401;
100.2000;0.7041;-0.3303;
100.5000;0.7041;-0.3426;
100.8000;0.7049;-0.3327;
101.1000;0.7033;-0.3377;
101.4000;0.6927;-0.3722;
101.7000;0.7049;-0.3401;
102.0000;0.7009;-0.3500;
102.3000;0.7041;-0.3377;
102.6000;0.7041;-0.3278;
102.9000;0.7066;-0.3204;
103.2000;0.7049;-0.3303;
103.5000;0.7041;-0.3327;
103.8000;0.7049;-0.3278;
104.1000;0.7057;-0.3327;
104.4000;0.7057;-0.3229;
104.7000;0.7033;-0.3229;
105.0000;0.7041;-0.3179;
105.3000;0.7041;-0.3204;
105.6000;0.7049;-0.3229;
105.9000;0.7057;-0.3229;
106.2000;0.7025;-0.3303;
106.5000;0.7033;-0.3426;
106.8000;0.7049;-0.3451;
107.1000;0.7033;-0.3426;
107.4000;0.7033;-0.3451;
107.7000;0.7041;-0.3377;
108.0000;0.7074;-0.3253;
108.3000;0.7041;-0.3352;
108.6000;0.7057;-0.3401;
108.9000;0.7049;-0.3500;
109.2000;0.7049;-0.3475;
109.5000;0.7041;-0.3500;
109.8000;0.7033;-0.3549;
110.1000;0.7066;-0.3475;
110.4000;0.7057;-0.3524;
110.7000;0.7049;-0.3549;
111.0000;0.7025;-0.3598;
111.3000;0.7049;-0.3500;
111.6000;0.7049;-0.3500;
111.9000;0.7074;-0.3451;
112.2000;0.7049;-0.3426;
112.5000;0.7066;-0.3377;
112.8000;0.7057;-0.3278;
113.1000;0.7057;-0.3229;
113.4000;0.7049;-0.3179;
113.7000;0.7066;-0.3130;
114.0000;0.7066;-0.3155;
114.3000;0.7057;-0.3105;
114.6000;0.7049;-0.3105;
114.9000;0.7057;-0.3130;
115.2000;0.7049;-0.3056;
115.5000;0.7041;-0.3130;
115.8000;0.7041;-0.3155;
116.1000;0.7049;-0.3105;
116.4000;0.7098;-0.3056;
116.7000;0.7049;-0.3007;
117.0000;0.7041;-0.3130;
117.3000;0.7066;-0.3105;
117.6000;0.7049;-0.3105;
117.9000;0.7057;-0.3179;
118.2000;0.7041;-0.3303;
118.5000;0.7049;-0.3229;
118.8000;0.7041;-0.3204;
119.1000;0.7049;-0.3229;
119.4000;0.7074;-0.3229;
119.7000;0.7057;-0.3278;
120.0000;0.7057;-0.3155;
120.3000;0.7066;-0.3204;
120.6000;0.7066;-0.3253;
120.9000;0.7066;-0.3253;
121.2000;0.7066;-0.3229;
121.5000;0.7017;-0.3401;
121.8000;0.7082;-0.3229;
122.1000;0.7074;-0.3327;
122.4000;0.7082;-0.3229;
122.7000;0.7057;-0.3278;
123.0000;0.7049;-0.3401;
123.3000;0.7041;-0.3401;
123.6000;0.7033;-0.3352;
123.9000;0.7074;-0.3229;
124.2000;0.7074;-0.3179;
124.5000;0.6976;-0.3303;
124.8000;0.7074;-0.2982;
125.1000;0.7082;-0.2982;
125.4000;0.7171;-0.2884;
125.7000;0.7074;-0.3130;
126.0000;0.7066;-0.3032;
126.3000;0.7074;-0.2958;
126.6000;0.7082;-0.2958;
126.9000;0.7066;-0.2982;
127.2000;0.7123;-0.2810;
127.5000;0.7057;-0.3007;
127.8000;0.7033;-0.3032;
128.1000;0.7066;-0.2958;
128.4000;0.7049;-0.2982;
128.7000;0.7066;-0.3007;
129.0000;0.7057;-0.3007;
129.3000;0.7057;-0.2958;
129.6000;0.7049;-0.2958;
129.9000;0.7057;-0.2958;
130.2000;0.7049;-0.2982;
130.5000;0.7074;-0.2884;
130.8000;0.7057;-0.2884;
131.1000;0.7057;-0.2884;
131.4000;0.7098;-0.2785;
131.7000;0.7049;-0.2958;
132.0000;0.7074;-0.3032;
132.3000;0.7066;-0.2933;
132.6000;0.7066;-0.2933;
132.9000;0.7057;-0.2933;
133.2000;0.7074;-0.2908;
133.5000;0.7057;-0.2834;
133.8000;0.7066;-0.2908;
134.1000;0.7025;-0.2958;
134.4000;0.7049;-0.2884;
134.7000;0.7057;-0.2958;
135.0000;0.7057;-0.2933;
135.3000;0.7082;-0.2958;
135.6000;0.7057;-0.2982;
135.9000;0.7066;-0.2933;
136.2000;0.7082;-0.2982;
136.5000;0.7114;-0.2884;
136.8000;0.7098;-0.2908;
137.1000;0.7033;-0.3056;
137.4000;0.7049;-0.3032;
137.7000;0.7074;-0.3007;
138.0000;0.7066;-0.3007;
138.3000;0.7049;-0.3105;
138.6000;0.7057;-0.3032;
138.9000;0.7033;-0.3179;
139.2000;0.7074;-0.3155;
139.5000;0.7057;-0.3155;
139.8000;0.7114;-0.2958;
140.1000;0.7090;-0.2982;
140.4000;0.7066;-0.3056;
140.7000;0.7066;-0.3105;
141.0000;0.7033;-0.3204;
141.3000;0.7066;-0.3105;
141.6000;0.7074;-0.3204;
141.9000;0.7066;-0.3204;
142.2000;0.7057;-0.3179;
142.5000;0.7066;-0.3179;
142.8000;0.7082;-0.3081;
143.1000;0.7066;-0.3155;
143.4000;0.7066;-0.3179;
143.7000;0.7074;-0.3130;
144.0000;0.7066;-0.3056;
144.3000;0.7057;-0.3032;
144.6000;0.7066;-0.3007;
144.9000;0.7082;-0.2933;
145.2000;0.7057;-0.3007;
145.5000;0.7066;-0.2982;
145.8000;0.7066;-0.2834;
146.1000;0.7074;-0.2785;
146.4000;0.7090;-0.2810;
146.7000;0.7074;-0.2785;
147.0000;0.7066;-0.2834;
147.3000;0.7057;-0.2933;
147.6000;0.7049;-0.3032;
147.9000;0.7057;-0.2884;
148.2000;0.7033;-0.3056;
148.5000;0.7041;-0.3105;
148.8000;0.7066;-0.3081;
149.1000;0.7131;-0.2958;
149.4000;0.7090;-0.2958;
149.7000;0.7074;-0.2982;
150.0000;0.7049;-0.2958;
150.3000;0.7057;-0.2884;
150.6000;0.7057;-0.3007;
150.9000;0.7066;-0.3081;
151.2000;0.7074;-0.3155;
151.5000;0.7074;-0.3204;
151.8000;0.7057;-0.3303;
152.1000;0.7057;-0.3327;
152.4000;0.7057;-0.3303;
152.7000;0.7049;-0.3253;
153.0000;0.7025;-0.3278;
153.3000;0.7057;-0.3204;
153.6000;0.7082;-0.3130;
153.9000;0.7049;-0.3327;
154.2000;0.7066;-0.3303;
154.5000;0.7139;-0.3105;
154.8000;0.7066;-0.3229;
155.1000;0.7066;-0.3253;
155.4000;0.7082;-0.3155;
155.7000;0.7074;-0.3105;
156.0000;0.7090;-0.3007;
156.3000;0.7057;-0.3081;
156.6000;0.7041;-0.3155;
156.9000;0.7033;-0.3229;
157.2000;0.7082;-0.3179;
157.5000;0.7057;-0.3229;
157.8000;0.7074;-0.3253;
158.1000;0.7066;-0.3253;
158.4000;0.7066;-0.3229;
158.7000;0.7123;-0.3081;
159.0000;0.7049;-0.3130;
159.3000;0.7049;-0.3081;
159.6000;0.7074;-0.3056;
159.9000;0.7057;-0.3204;
160.2000;0.7057;-0.3253;
160.5000;0.7106;-0.3179;
160.8000;0.7033;-0.3278;
161.1000;0.7090;-0.3056;
161.4000;0.7082;-0.3032;
161.7000;0.7066;-0.3032;
162.0000;0.7082;-0.3081;
162.3000;0.7090;-0.3056;
162.6000;0.7057;-0.3081;
162.9000;0.7057;-0.3081;
163.2000;0.7066;-0.3007;
163.5000;0.7082;-0.3007;
163.8000;0.7066;-0.3081;
164.1000;0.7082;-0.3105;
164.4000;0.7033;-0.3179;
164.7000;0.7074;-0.3155;
165.0000;0.7082;-0.3130;
165.3000;0.7066;-0.3204;
165.6000;0.7098;-0.3056;
165.9000;0.7049;-0.3155;
166.2000;0.7049;-0.3204;
166.5000;0.7057;-0.3253;
166.8000;0.7082;-0.3179;
167.1000;0.7057;-0.3253;
167.4000;0.7057;-0.3229;
167.7000;0.7066;-0.3155;
168.0000;0.7057;-0.3253;
168.3000;0.7057;-0.3229;
168.6000;0.7106;-0.3179;
168.9000;0.7057;-0.3303;
169.2000;0.7041;-0.3303;
169.5000;0.7033;-0.3377;
169.8000;0.7074;-0.3278;
170.1000;0.7066;-0.3253;
170.4000;0.7066;-0.3179;
170.7000;0.7066;-0.3130;
171.0000;0.7057;-0.3179;
171.3000;0.7098;-0.3105;
171.6000;0.7066;-0.3204;
171.9000;0.7049;-0.3253;
172.2000;0.7066;-0.3204;
172.5000;0.7066;-0.3229;
172.8000;0.7033;-0.3303;
173.1000;0.7033;-0.3352;
173.4000;0.7066;-0.3278;
173.7000;0.7074;-0.3179;
174.0000;0.7057;-0.3179;
174.3000;0.7057;-0.3204;
174.6000;0.7049;-0.3253;
174.9000;0.7074;-0.3155;
175.2000;0.7066;-0.3056;
175.5000;0.7082;-0.2982;
175.8000;0.7025;-0.3056;
176.1000;0.7082;-0.2958;
176.4000;0.7098;-0.2908;
176.7000;0.7098;-0.2933;
177.0000;0.7074;-0.3081;
177.3000;0.7074;-0.3032;
177.6000;0.7066;-0.3130;
177.9000;0.7009;-0.3278;
178.2000;0.7082;-0.3204;
178.5000;0.7066;-0.3229;
178.8000;0.7074;-0.3253;
179.1000;0.7049;-0.3303;
179.4000;0.7041;-0.3377;
179.7000;0.7049;-0.3377;
180.0000;0.7066;-0.3229;
180.3000;0.7057;-0.3229;
180.6000;0.7041;-0.3179;
180.9000;0.7057;-0.3130;
181.2000;0.7057;-0.3204;
181.5000;0.7074;-0.3179;
181.8000;0.7049;-0.3303;
182.1000;0.7114;-0.3155;
182.4000;0.7074;-0.3278;
182.7000;0.7074;-0.3253;
183.0000;0.7049;-0.3253;
183.3000;0.7066;-0.3229;
183.6000;0.7082;-0.3105;
183.9000;0.7090;-0.3130;
184.2000;0.7074;-0.3204;
184.5000;0.7057;-0.3253;
184.8000;0.7041;-0.3303;
185.1000;0.7074;-0.3179;
185.4000;0.7066;-0.3155;
185.7000;0.7057;-0.3155;
186.0000;0.7009;-0.3303;
186.3000;0.7074;-0.3081;
186.6000;0.7082;-0.3081;
186.9000;0.7057;-0.3056;
187.2000;0.7041;-0.3130;
187.5000;0.7057;-0.3007;
187.8000;0.7066;-0.2908;
188.1000;0.7049;-0.2958;
188.4000;0.7066;-0.2958;
188.7000;0.7041;-0.3032;
189.0000;0.7066;-0.3056;
189.3000;0.7057;-0.3155;
189.6000;0.7057;-0.3229;
189.9000;0.7066;-0.3130;
190.2000;0.7074;-0.3105;
190.5000;0.7066;-0.3081;
190.8000;0.7082;-0.2982;
191.1000;0.7017;-0.3229;
191.4000;0.7074;-0.3155;
191.7000;0.7074;-0.3179;
192.0000;0.7074;-0.3056;
192.3000;0.7066;-0.2982;
192.6000;0.7066;-0.3105;
192.9000;0.7066;-0.3130;
193.2000;0.7090;-0.3130;
193.5000;0.7074;-0.3229;
193.8000;0.7066;-0.3155;
194.1000;0.7074;-0.3056;
194.4000;0.7033;-0.3179;
194.7000;0.7041;-0.3229;
195.0000;0.7057;-0.3105;
195.3000;0.7066;-0.3130;
195.6000;0.7139;-0.2884;
195.9000;0.7025;-0.3204;
196.2000;0.7139;-0.2859;
196.5000;0.7098;-0.3032;
196.8000;0.7049;-0.3155;
197.1000;0.7082;-0.3032;
197.4000;0.7049;-0.3032;
197.7000;0.7057;-0.2982;
198.0000;0.7074;-0.2982;
198.3000;0.7049;-0.3007;
198.6000;0.7066;-0.2982;
198.9000;0.7066;-0.3032;
199.2000;0.7049;-0.3056;
199.5000;0.7074;-0.2982;
199.8000;0.7074;-0.2908;
200.1000;0.7049;-0.2884;
200.4000;0.7049;-0.2884;
200.7000;0.7033;-0.3056;
201.0000;0.7049;-0.3056;
201.3000;0.7074;-0.2982;
201.6000;0.7057;-0.3032;
201.9000;0.7066;-0.2933;
202.2000;0.7066;-0.2958;
202.5000;0.7057;-0.3056;
202.8000;0.7057;-0.2982;
203.1000;0.7049;-0.2908;
203.4000;0.7057;-0.2982;
203.7000;0.7082;-0.2884;
204.0000;0.7074;-0.2933;
204.3000;0.7057;-0.2908;
204.6000;0.7049;-0.2859;
204.9000;0.7066;-0.2785;
205.2000;0.7049;-0.2834;
205.5000;0.7033;-0.2884;
205.8000;0.7009;-0.2884;
206.1000;0.7049;-0.2859;
206.4000;0.7057;-0.2859;
206.7000;0.7049;-0.2908;
207.0000;0.7074;-0.2908;
207.3000;0.7066;-0.2933;
207.6000;0.7057;-0.3007;
207.9000;0.7057;-0.3105;
208.2000;0.7049;-0.3081;
208.5000;0.7041;-0.3130;
208.8000;0.7090;-0.3032;
209.1000;0.7041;-0.3204;
209.4000;0.7049;-0.3130;
209.7000;0.7049;-0.3155;
210.0000;0.7033;-0.3204;
210.3000;0.7025;-0.3179;
210.6000;0.7041;-0.3130;
210.9000;0.7123;-0.2982;
211.2000;0.7041;-0.3179;
211.5000;0.7033;-0.3130;
211.8000;0.7066;-0.3056;
212.1000;0.7049;-0.3105;
212.4000;0.7057;-0.3056;
212.7000;0.7057;-0.2982;
213.0000;0.7049;-0.3056;
213.3000;0.7066;-0.2982;
213.6000;0.7098;-0.2933;
213.9000;0.7057;-0.3007;
214.2000;0.7066;-0.2982;
214.5000;0.7049;-0.3130;
214.8000;0.7049;-0.3179;
215.1000;0.7041;-0.3229;
215.4000;0.7082;-0.3081;
215.7000;0.7041;-0.3179;
216.0000;0.7049;-0.3155;
216.3000;0.7057;-0.3179;
216.6000;0.7082;-0.3105;
216.9000;0.7057;-0.3179;
217.2000;0.7066;-0.3179;
217.5000;0.7066;-0.3155;
217.8000;0.7033;-0.3303;
218.1000;0.7057;-0.3327;
218.4000;0.6960;-0.3500;
218.7000;0.7041;-0.3155;
219.0000;0.7057;-0.3155;
219.3000;0.7049;-0.3056;
219.6000;0.7057;-0.3032;
219.9000;0.7025;-0.3056;
220.2000;0.7049;-0.3032;
220.5000;0.7041;-0.3081;
220.8000;0.7033;-0.3032;
221.1000;0.7041;-0.3032;
221.4000;0.6984;-0.3056;
221.7000;0.7057;-0.2958;
222.0000;0.7049;-0.3081;
222.3000;0.7041;-0.3056;
222.6000;0.7041;-0.3032;
222.9000;0.7041;-0.2982;
223.2000;0.7066;-0.2958;
223.5000;0.7057;-0.3007;
223.8000;0.7017;-0.3130;
224.1000;0.7049;-0.3007;
224.4000;0.7041;-0.3032;
224.7000;0.7074;-0.2982;
225.0000;0.7049;-0.2982;
225.3000;0.7049;-0.3056;
225.6000;0.7049;-0.3056;
225.9000;0.7066;-0.3130;
226.2000;0.7049;-0.3081;
226.5000;0.7057;-0.3007;
226.8000;0.7057;-0.3056;
227.1000;0.7066;-0.3007;
227.4000;0.7057;-0.2884;
227.7000;0.7057;-0.2933;
228.0000;0.7033;-0.3056;
228.3000;0.7049;-0.3155;
228.6000;0.7049;-0.3204;
228.9000;0.7098;-0.3081;
229.2000;0.7066;-0.3179;
229.5000;0.7049;-0.3179;
229.8000;0.7049;-0.3081;
230.1000;0.7049;-0.3056;
230.4000;0.7049;-0.3007;
230.7000;0.7049;-0.2933;
231.0000;0.7009;-0.3081;
231.3000;0.7049;-0.2958;
231.6000;0.7041;-0.3056;
231.9000;0.7057;-0.3056;
232.2000;0.7066;-0.3056;
232.5000;0.7049;-0.3007;
232.8000;0.7025;-0.3032;
233.1000;0.7049;-0.2958;
233.4000;0.7057;-0.2884;
233.7000;0.7049;-0.2908;
234.0000;0.7049;-0.2982;
234.3000;0.7025;-0.3081;
234.6000;0.7049;-0.3130;
234.9000;0.7041;-0.3204;
235.2000;0.7049;-0.3081;
235.5000;0.7066;-0.3056;
235.8000;0.7049;-0.3081;
236.1000;0.7049;-0.3130;
236.4000;0.7025;-0.3179;
236.7000;0.7033;-0.3155;
237.0000;0.7049;-0.3155;
237.3000;0.7066;-0.3105;
237.6000;0.7033;-0.3105;
237.9000;0.7041;-0.3130;
238.2000;0.7033;-0.3155;
238.5000;0.7033;-0.3105;
238.8000;0.7025;-0.3105;
239.1000;0.7033;-0.3105;
239.4000;0.7074;-0.2982;
239.7000;0.7033;-0.3105;
240.0000;0.7025;-0.3056;
240.3000;0.7033;-0.2982;
240.6000;0.6943;-0.3179;
240.9000;0.7041;-0.2933;
241.2000;0.7033;-0.2933;
241.5000;0.7090;-0.2810;
241.8000;0.7033;-0.2958;
242.1000;0.7033;-0.2982;
242.4000;0.7033;-0.3032;
242.7000;0.7049;-0.2982;
243.0000;0.7049;-0.3032;
243.3000;0.7041;-0.3007;
243.6000;0.7000;-0.3105;
243.9000;0.7041;-0.3056;
244.2000;0.7033;-0.3105;
244.5000;0.7041;-0.3105;
244.8000;0.7025;-0.3179;
245.1000;0.7033;-0.3179;
245.4000;0.7049;-0.3179;
245.7000;0.7025;-0.3105;
246.0000;0.7025;-0.3155;
246.3000;0.6960;-0.3352;
246.6000;0.7049;-0.3056;
246.9000;0.7041;-0.3130;
247.2000;0.7082;-0.2982;
247.5000;0.7033;-0.3056;
247.8000;0.7090;-0.2958;
248.1000;0.7057;-0.3081;
248.4000;0.7017;-0.3155;
248.7000;0.7033;-0.3155;
249.0000;0.7017;-0.3130;
249.3000;0.7033;-0.3081;
249.6000;0.7025;-0.3105;
249.9000;0.7049;-0.3032;
250.2000;0.7066;-0.2982;
250.5000;0.7000;-0.3179;
250.8000;0.7033;-0.3007;
251.1000;0.7033;-0.3105;
251.4000;0.7049;-0.3081;
251.7000;0.7033;-0.3179;
252.0000;0.7057;-0.3229;
252.3000;0.7025;-0.3229;
252.6000;0.7057;-0.3155;
252.9000;0.7017;-0.3179;
253.2000;0.7041;-0.3130;
253.5000;0.7066;-0.3130;
253.8000;0.7057;-0.3155;
254.1000;0.7025;-0.3229;
254.4000;0.7025;-0.3105;
254.7000;0.7049;-0.3007;
255.0000;0.7049;-0.3007;
255.3000;0.7049;-0.3032;
255.6000;0.7066;-0.2933;
255.9000;0.7041;-0.3056;
256.2000;0.7041;-0.3105;
256.5000;0.7066;-0.3081;
256.8000;0.7074;-0.3179;
257.1000;0.7090;-0.3081;
257.4000;0.7025;-0.3229;
257.7000;0.7049;-0.3130;
258.0000;0.7066;-0.3056;
258.3000;0.7049;-0.2982;
258.6000;0.7033;-0.3081;
258.9000;0.7066;-0.3130;
259.2000;0.7041;-0.3155;
259.5000;0.7049;-0.3179;
259.8000;0.7041;-0.3253;
260.1000;0.7163;-0.2958;
260.4000;0.7041;-0.3204;
260.7000;0.7041;-0.3253;
261.0000;0.6968;-0.3426;
261.3000;0.7025;-0.3278;
261.6000;0.7033;-0.3229;
261.9000;0.7009;-0.3327;
262.2000;0.6984;-0.3327;
262.5000;0.7033;-0.3179;
262.8000;0.7066;-0.3032;
263.1000;0.7041;-0.3105;
263.4000;0.7049;-0.3081;
263.7000;0.7090;-0.3007;
264.0000;0.7098;-0.3007;
264.3000;0.7049;-0.3105;
264.6000;0.7098;-0.3081;
264.9000;0.7033;-0.3204;
265.2000;0.7057;-0.3081;
265.5000;0.7049;-0.3081;
265.8000;0.7025;-0.3105;
266.1000;0.7049;-0.3105;
266.4000;0.7017;-0.3179;
266.7000;0.7057;-0.3007;
267.0000;0.7066;-0.2908;
267.3000;0.7041;-0.3130;
267.6000;0.7033;-0.3130;
267.9000;0.7082;-0.3007;
268.2000;0.7009;-0.3229;
268.5000;0.7057;-0.3130;
268.8000;0.7009;-0.3303;
269.1000;0.7057;-0.3229;
269.4000;0.7057;-0.3204;
269.7000;0.7041;-0.3179;
270.0000;0.7041;-0.3179;
270.3000;0.7049;-0.3204;
270.6000;0.7025;-0.3229;
270.9000;0.7025;-0.3179;
271.2000;0.7009;-0.3155;
271.5000;0.7049;-0.3056;
271.8000;0.7049;-0.3056;
272.1000;0.7033;-0.3105;
272.4000;0.7025;-0.3130;
272.7000;0.7025;-0.3253;
273.0000;0.7033;-0.3278;
273.3000;0.7041;-0.3229;
273.6000;0.7074;-0.3204;
273.9000;0.7041;-0.3327;
274.2000;0.7025;-0.3401;
274.5000;0.7098;-0.3155;
274.8000;0.7025;-0.3352;
275.1000;0.7098;-0.3278;
275.4000;0.7041;-0.3327;
275.7000;0.7033;-0.3327;
276.0000;0.7049;-0.3229;
276.3000;0.7025;-0.3303;
276.6000;0.6976;-0.3377;
276.9000;0.7106;-0.3056;
277.2000;0.7033;-0.3253;
277.5000;0.7041;-0.3352;
277.8000;0.7017;-0.3327;
278.1000;0.7041;-0.3253;
278.4000;0.7033;-0.3303;
278.7000;0.7033;-0.3327;
279.0000;0.7066;-0.3278;
279.3000;0.7033;-0.3303;
279.6000;0.7033;-0.3278;
279.9000;0.7049;-0.3278;
280.2000;0.7025;-0.3278;
280.5000;0.7025;-0.3179;
280.8000;0.7033;-0.3155;
281.1000;0.7041;-0.3130;
281.4000;0.7033;-0.3081;
281.7000;0.7025;-0.3056;
282.0000;0.7033;-0.3056;
282.3000;0.7000;-0.3130;
282.6000;0.7025;-0.3105;
282.9000;0.7000;-0.3204;
283.2000;0.7082;-0.3032;
283.5000;0.7041;-0.3229;
283.8000;0.7033;-0.3229;
284.1000;0.7025;-0.3155;
284.4000;0.7033;-0.3155;
284.7000;0.7049;-0.3105;
285.0000;0.7025;-0.3056;
285.3000;0.7017;-0.3056;
285.6000;0.7033;-0.3081;
285.9000;0.7041;-0.3081;
286.2000;0.6992;-0.3179;
286.5000;0.7025;-0.3204;
286.8000;0.7017;-0.3179;
287.1000;0.7033;-0.3130;
287.4000;0.7025;-0.3204;
287.7000;0.7017;-0.3352;
288.0000;0.7041;-0.3303;
288.3000;0.7082;-0.3229;
288.6000;0.7009;-0.3303;
288.9000;0.7025;-0.3130;
289.2000;0.7098;-0.2982;
289.5000;0.7041;-0.3105;
289.8000;0.7000;-0.3204;
290.1000;0.7025;-0.3081;
290.4000;0.7000;-0.3105;
290.7000;0.7041;-0.3032;
291.0000;0.7025;-0.3105;
291.3000;0.7033;-0.3081;
291.6000;0.7025;-0.3105;
291.9000;0.7009;-0.3105;
292.2000;0.7049;-0.2933;
292.5000;0.7025;-0.2933;
292.8000;0.6968;-0.3204;
293.1000;0.7000;-0.3204;
293.4000;0.7025;-0.3155;
293.7000;0.7057;-0.3007;
294.0000;0.7025;-0.3155;
294.3000;0.7017;-0.3105;
294.6000;0.7025;-0.3130;
294.9000;0.7025;-0.3155;
295.2000;0.7025;-0.3105;
295.5000;0.7009;-0.3081;
295.8000;0.7033;-0.3081;
296.1000;0.7033;-0.3204;
296.4000;0.7017;-0.3155;
296.7000;0.7025;-0.3229;
297.0000;0.7049;-0.3130;
297.3000;0.7009;-0.3179;
297.6000;0.7041;-0.3179;
297.9000;0.7033;-0.3179;
298.2000;0.7025;-0.3155;
298.5000;0.7033;-0.3130;
298.8000;0.7025;-0.3155;
299.1000;0.7025;-0.3130;
299.4000;0.7017;-0.3081;
299.7000;0.7017;-0.3105;
300.0000;0.7025;-0.3105;
300.3000;0.7041;-0.3229;
300.6000;0.7049;-0.3253;
300.9000;0.6968;-0.3426;
301.2000;0.7033;-0.3278;
301.5000;0.7033;-0.3253;
301.8000;0.7049;-0.3179;
302.1000;0.7025;-0.3204;
302.4000;0.7033;-0.3155;
302.7000;0.7025;-0.3130;
303.0000;0.7025;-0.3229;
303.3000;0.7025;-0.3327;
303.6000;0.7057;-0.3229;
303.9000;0.7033;-0.3253;
304.2000;0.7025;-0.3253;
304.5000;0.7025;-0.3204;
304.8000;0.7033;-0.3179;
305.1000;0.7049;-0.3081;
305.4000;0.7033;-0.3056;
305.7000;0.7017;-0.3056;
306.0000;0.7025;-0.3155;
306.3000;0.7041;-0.3204;
306.6000;0.7009;-0.3253;
306.9000;0.7090;-0.2982;
307.2000;0.7009;-0.3105;
307.5000;0.7017;-0.3056;
307.8000;0.7041;-0.2958;
308.1000;0.7009;-0.2958;
308.4000;0.7025;-0.2933;
308.7000;0.7017;-0.2982;
309.0000;0.7033;-0.2982;
309.3000;0.7017;-0.3032;
309.6000;0.7033;-0.2908;
309.9000;0.7009;-0.2933;
310.2000;0.7025;-0.2908;
310.5000;0.7025;-0.2958;
310.8000;0.7033;-0.3007;
311.1000;0.7025;-0.3081;
311.4000;0.7098;-0.2884;
311.7000;0.7017;-0.3056;
312.0000;0.7009;-0.3130;
312.3000;0.7000;-0.3204;
312.6000;0.6968;-0.3278;
312.9000;0.7025;-0.3130;
313.2000;0.6984;-0.3327;
313.5000;0.7025;-0.3179;
313.8000;0.7049;-0.3081;
314.1000;0.7009;-0.3081;
314.4000;0.7074;-0.2958;
314.7000;0.7025;-0.3032;
315.0000;0.7017;-0.3081;
315.3000;0.7009;-0.3179;
315.6000;0.7009;-0.3130;
315.9000;0.7066;-0.2933;
316.2000;0.7049;-0.3007;
316.5000;0.7017;-0.3032;
316.8000;0.7009;-0.3007;
317.1000;0.7009;-0.2958;
317.4000;0.7090;-0.2760;
317.7000;0.7009;-0.3007;
318.0000;0.7017;-0.2908;
318.3000;0.7049;-0.2859;
318.6000;0.7017;-0.2884;
318.9000;0.7017;-0.2834;
319.2000;0.7082;-0.2662;
319.5000;0.7017;-0.2834;
319.8000;0.7049;-0.2810;
320.1000;0.7009;-0.2933;
320.4000;0.7025;-0.2933;
320.7000;0.7017;-0.2933;
321.0000;0.6992;-0.2982;
321.3000;0.7025;-0.3007;
321.6000;0.7000;-0.3081;
321.9000;0.6992;-0.3130;
322.2000;0.7017;-0.3007;
322.5000;0.7009;-0.2982;
322.8000;0.6960;-0.3155;
323.1000;0.7017;-0.2958;
323.4000;0.6992;-0.2982;
323.7000;0.7009;-0.2982;
324.0000;0.7009;-0.3130;
324.3000;0.7025;-0.3056;
324.6000;0.7017;-0.3007;
324.9000;0.6992;-0.3105;
325.2000;0.7033;-0.3032;
325.5000;0.7025;-0.2958;
325.8000;0.6976;-0.3130;
326.1000;0.7025;-0.2982;
326.4000;0.7025;-0.2933;
326.7000;0.6984;-0.3032;
327.0000;0.7017;-0.2884;
327.3000;0.7000;-0.2933;
327.6000;0.7009;-0.2933;
327.9000;0.7025;-0.2760;
328.2000;0.7000;-0.2859;
328.5000;0.6992;-0.2933;
328.8000;0.7009;-0.2884;
329.1000;0.7033;-0.2785;
329.4000;0.7049;-0.2760;
329.7000;0.7017;-0.2933;
330.0000;0.7009;-0.2884;
330.3000;0.7025;-0.2834;
330.6000;0.7033;-0.2884;
330.9000;0.7057;-0.2785;
331.2000;0.7017;-0.2859;
331.5000;0.7074;-0.2736;
331.8000;0.7017;-0.2810;
332.1000;0.7025;-0.2711;
332.4000;0.6984;-0.2908;
332.7000;0.7009;-0.2810;
333.0000;0.7017;-0.2760;
333.3000;0.7033;-0.2760;
333.6000;0.7009;-0.2736;
333.9000;0.7025;-0.2686;
334.2000;0.7025;-0.2711;
334.5000;0.7025;-0.2760;
334.8000;0.7041;-0.2859;
335.1000;0.7025;-0.2859;
335.4000;0.6984;-0.2908;
335.7000;0.7025;-0.2859;
336.0000;0.7025;-0.2859;
336.3000;0.7090;-0.2686;
336.6000;0.6968;-0.2982;
336.9000;0.7033;-0.2908;
337.2000;0.7009;-0.2834;
337.5000;0.7017;-0.2884;
337.8000;0.7009;-0.2859;
338.1000;0.7017;-0.2884;
338.4000;0.6952;-0.3007;
338.7000;0.7009;-0.2810;
339.0000;0.7049;-0.2785;
339.3000;0.7041;-0.2686;
339.6000;0.7017;-0.2760;
339.9000;0.7025;-0.2760;
340.2000;0.6960;-0.2908;
340.5000;0.7025;-0.2810;
340.8000;0.6992;-0.2908;
341.1000;0.7025;-0.2760;
341.4000;0.7009;-0.2760;
341.7000;0.7017;-0.2711;
342.0000;0.7017;-0.2613;
342.3000;0.7017;-0.2563;
342.6000;0.6968;-0.2662;
342.9000;0.7009;-0.2613;
343.2000;0.7033;-0.2662;
343.5000;0.7000;-0.2662;
343.8000;0.6992;-0.2637;
344.1000;0.6992;-0.2686;
344.4000;0.7017;-0.2736;
344.7000;0.7000;-0.2711;
345.0000;0.7000;-0.2736;
345.3000;0.7017;-0.2760;
345.6000;0.7025;-0.2785;
345.9000;0.7009;-0.2736;
346.2000;0.7000;-0.2760;
346.5000;0.6992;-0.2834;
346.8000;0.7000;-0.2785;
347.1000;0.7017;-0.2711;
347.4000;0.7017;-0.2711;
347.7000;0.7025;-0.2711;
348.0000;0.7009;-0.2736;
348.3000;0.7009;-0.2859;
348.6000;0.7000;-0.2933;
348.9000;0.6992;-0.2958;
349.2000;0.7009;-0.2958;
349.5000;0.7009;-0.2958;
349.8000;0.6984;-0.2933;
350.1000;0.7025;-0.2834;
350.4000;0.7000;-0.3007;
350.7000;0.7009;-0.2908;
351.0000;0.7017;-0.2810;
351.3000;0.7009;-0.2810;
351.6000;0.7000;-0.2785;
351.9000;0.7041;-0.2760;
352.2000;0.7009;-0.2884;
352.5000;0.7033;-0.2859;
352.8000;0.7025;-0.2760;
353.1000;0.7009;-0.2834;
353.4000;0.6968;-0.2908;
353.7000;0.7033;-0.2834;
354.0000;0.7009;-0.2834;
354.3000;0.7000;-0.2859;
354.6000;0.6992;-0.2884;
354.9000;0.7017;-0.2760;
355.2000;0.7009;-0.2834;
355.5000;0.7057;-0.2736;
355.8000;0.7033;-0.2711;
356.1000;0.7025;-0.2760;
356.4000;0.7041;-0.2760;
356.7000;0.6976;-0.2982;
357.0000;0.7017;-0.2982;
357.3000;0.6992;-0.3032;
357.6000;0.7009;-0.3032;
357.9000;0.7009;-0.2933;
358.2000;0.6992;-0.3056;
358.5000;0.6992;-0.3032;
358.8000;0.7074;-0.2760;
359.1000;0.6911;-0.3179;
359.4000;0.6968;-0.3007;
359.7000;0.6992;-0.2982;
360.0000;0.7025;-0.3007;
360.3000;0.6968;-0.3105;
360.6000;0.7025;-0.3032;
360.9000;0.7009;-0.2958;
361.2000;0.7041;-0.2810;
361.5000;0.7025;-0.2958;
361.8000;0.7017;-0.2982;
362.1000;0.7000;-0.2958;
362.4000;0.6992;-0.2908;
362.7000;0.7033;-0.2884;
363.0000;0.6984;-0.2982;
363.3000;0.6992;-0.2884;
363.6000;0.6984;-0.2933;
363.9000;0.7057;-0.2810;
364.2000;0.7033;-0.2908;
364.5000;0.7000;-0.3032;
364.8000;0.7017;-0.2958;
365.1000;0.7033;-0.2884;
365.4000;0.7000;-0.2982;
365.7000;0.7033;-0.2958;
366.0000;0.7009;-0.2933;
366.3000;0.7033;-0.2834;
366.6000;0.7017;-0.2884;
366.9000;0.7017;-0.2958;
367.2000;0.7009;-0.2982;
367.5000;0.6992;-0.2982;
367.8000;0.7017;-0.2958;
368.1000;0.7025;-0.2958;
368.4000;0.7017;-0.3032;
368.7000;0.6984;-0.3081;
369.0000;0.7009;-0.3032;
369.3000;0.7025;-0.2982;
369.6000;0.7000;-0.2982;
369.9000;0.7009;-0.2933;
370.2000;0.7009;-0.2958;
370.5000;0.6992;-0.3032;
370.8000;0.7000;-0.3105;
371.1000;0.6992;-0.3130;
371.4000;0.7009;-0.3179;
371.7000;0.7009;-0.3204;
372.0000;0.6992;-0.3179;
372.3000;0.7049;-0.3130;
372.6000;0.6992;-0.3204;
372.9000;0.7000;-0.3204;
373.2000;0.6992;-0.3278;
373.5000;0.7000;-0.3253;
373.8000;0.7000;-0.3303;
374.1000;0.6992;-0.3253;
374.4000;0.7000;-0.3155;
374.7000;0.6992;-0.3105;
375.0000;0.6984;-0.3056;
375.3000;0.7000;-0.3032;
375.6000;0.7000;-0.3032;
375.9000;0.7017;-0.3105;
376.2000;0.7000;-0.3081;
376.5000;0.7009;-0.3032;
376.8000;0.7009;-0.3032;
377.1000;0.6984;-0.3081;
377.4000;0.7025;-0.2958;
377.7000;0.7025;-0.2958;
378.0000;0.7025;-0.3007;
378.3000;0.6976;-0.3130;
378.6000;0.7009;-0.3081;
378.9000;0.7066;-0.2884;
379.2000;0.7066;-0.2908;
379.5000;0.6992;-0.3032;
379.8000;0.7000;-0.3081;
380.1000;0.6976;-0.3155;
380.4000;0.7033;-0.3081;
380.7000;0.7000;-0.3130;
381.0000;0.7000;-0.3130;
381.3000;0.6976;-0.3130;
381.6000;0.7000;-0.3007;
381.9000;0.6976;-0.3032;
382.2000;0.6976;-0.3056;
382.5000;0.6968;-0.3056;
382.8000;0.7017;-0.2933;
383.1000;0.7000;-0.3007;
383.4000;0.7025;-0.2958;
383.7000;0.6968;-0.3056;
384.0000;0.7066;-0.2785;
384.3000;0.7025;-0.2859;
384.6000;0.6935;-0.3179;
384.9000;0.6984;-0.3056;
385.2000;0.6943;-0.3253;
385.5000;0.7009;-0.3081;
385.8000;0.6976;-0.3130;
386.1000;0.7009;-0.3179;
386.4000;0.7025;-0.3229;
386.7000;0.7074;-0.3130;
387.0000;0.7017;-0.3204;
387.3000;0.7009;-0.3278;
387.6000;0.7025;-0.3179;
387.9000;0.6992;-0.3179;
388.2000;0.7057;-0.2982;
388.5000;0.7009;-0.3204;
388.8000;0.6984;-0.3179;
389.1000;0.7009;-0.3105;
389.4000;0.7000;-0.3081;
389.7000;0.7000;-0.3105;
390.0000;0.6992;-0.3081;
390.3000;0.6984;-0.3056;
390.6000;0.7017;-0.3007;
390.9000;0.6976;-0.3032;
391.2000;0.6968;-0.3032;
391.5000;0.6960;-0.3155;
391.8000;0.7009;-0.3007;
392.1000;0.6960;-0.3155;
392.4000;0.7009;-0.2933;
392.7000;0.6952;-0.3032;
393.0000;0.7025;-0.2908;
393.3000;0.7009;-0.2982;
393.6000;0.6952;-0.3056;
393.9000;0.7000;-0.3081;
394.2000;0.7009;-0.3056;
394.5000;0.7025;-0.2933;
394.8000;0.6992;-0.2958;
395.1000;0.6976;-0.3007;
395.4000;0.7009;-0.2958;
395.7000;0.7017;-0.2908;
396.0000;0.7017;-0.2884;
396.3000;0.7000;-0.2958;
396.6000;0.6984;-0.2933;
396.9000;0.7017;-0.2908;
397.2000;0.7009;-0.2908;
397.5000;0.7000;-0.2933;
397.8000;0.7000;-0.2933;
398.1000;0.6984;-0.2958;
398.4000;0.6984;-0.2884;
398.7000;0.6968;-0.2933;
399.0000;0.7000;-0.2884;
399.3000;0.7000;-0.2908;
399.6000;0.6992;-0.2982;
399.9000;0.7017;-0.2958;
400.2000;0.6984;-0.3032;
400.5000;0.6992;-0.2982;
400.8000;0.7000;-0.2908;
401.1000;0.6992;-0.2933;
401.4000;0.6935;-0.3081;
401.7000;0.7017;-0.2884;
402.0000;0.6968;-0.2982;
402.3000;0.7000;-0.2884;
402.6000;0.6984;-0.2982;
402.9000;0.6960;-0.3032;
403.2000;0.7049;-0.2711;
403.5000;0.6976;-0.2834;
403.8000;0.6976;-0.2884;
404.1000;0.6960;-0.2933;
404.4000;0.6895;-0.3155;
404.7000;0.7000;-0.2859;
405.0000;0.6976;-0.2884;
405.3000;0.6984;-0.2834;
405.6000;0.7000;-0.2859;
405.9000;0.7017;-0.2908;
406.2000;0.7009;-0.2908;
406.5000;0.7000;-0.2884;
406.8000;0.7000;-0.2859;
407.1000;0.7017;-0.2884;
407.4000;0.6992;-0.2958;
407.7000;0.6984;-0.2933;
408.0000;0.7000;-0.2859;
408.3000;0.6984;-0.2958;
408.6000;0.6992;-0.2958;
408.9000;0.7033;-0.2908;
409.2000;0.6960;-0.3105;
409.5000;0.7000;-0.2982;
409.8000;0.7000;-0.3007;
410.1000;0.6984;-0.3056;
410.4000;0.6960;-0.3130;
410.7000;0.7000;-0.2933;
411.0000;0.7033;-0.2834;
411.3000;0.6992;-0.2958;
411.6000;0.7009;-0.2884;
411.9000;0.6968;-0.2982;
412.2000;0.7049;-0.2834;
412.5000;0.7000;-0.2933;
412.8000;0.7000;-0.2834;
413.1000;0.7000;-0.2859;
413.4000;0.7000;-0.2810;
413.7000;0.7017;-0.2736;
414.0000;0.6992;-0.2785;
414.3000;0.6992;-0.2736;
414.6000;0.7017;-0.2810;
414.9000;0.6992;-0.2884;
415.2000;0.6992;-0.2933;
415.5000;0.7000;-0.2884;
415.8000;0.6992;-0.2884;
416.1000;0.7017;-0.2908;
416.4000;0.7000;-0.2810;
416.7000;0.7000;-0.2859;
417.0000;0.7000;-0.2958;
417.3000;0.7009;-0.2958;
417.6000;0.7009;-0.2859;
417.9000;0.6976;-0.2908;
418.2000;0.6968;-0.2958;
418.5000;0.6984;-0.2933;
418.8000;0.7009;-0.2933;
419.1000;0.6992;-0.2958;
419.4000;0.6984;-0.2908;
419.7000;0.6992;-0.2908;
420.0000;0.7000;-0.3032;
420.3000;0.7000;-0.3007;
420.6000;0.6992;-0.3007;
420.9000;0.7017;-0.2982;
421.2000;0.7000;-0.2958;
421.5000;0.6984;-0.3032;
421.8000;0.7000;-0.2958;
422.1000;0.7017;-0.2982;
422.4000;0.7000;-0.2982;
422.7000;0.7017;-0.2933;
423.0000;0.6984;-0.2982;
423.3000;0.7017;-0.2884;
423.6000;0.6992;-0.2884;
423.9000;0.7009;-0.2760;
424.2000;0.7017;-0.2686;
424.5000;0.7025;-0.2637;
424.8000;0.7000;-0.2810;
425.1000;0.7009;-0.2711;
425.4000;0.6984;-0.2785;
425.7000;0.6984;-0.2785;
426.0000;0.7000;-0.2859;
426.3000;0.7000;-0.2834;
426.6000;0.7009;-0.2834;
426.9000;0.7009;-0.2933;
427.2000;0.6984;-0.2933;
427.5000;0.6911;-0.3081;
427.8000;0.6960;-0.3081;
428.1000;0.7000;-0.3007;
428.4000;0.6984;-0.3105;
428.7000;0.6992;-0.3081;
429.0000;0.7009;-0.2933;
429.3000;0.6992;-0.2859;
429.6000;0.7049;-0.2711;
429.9000;0.6992;-0.2834;
430.2000;0.6984;-0.2859;
430.5000;0.7009;-0.2810;
430.8000;0.6984;-0.2834;
431.1000;0.7033;-0.2736;
431.4000;0.7000;-0.2785;
431.7000;0.7123;-0.2489;
432.0000;0.6984;-0.2884;
432.3000;0.6992;-0.2810;
432.6000;0.7000;-0.2736;
432.9000;0.7017;-0.2760;
433.2000;0.6984;-0.2810;
433.5000;0.7000;-0.2785;
433.8000;0.7090;-0.2563;
434.1000;0.6968;-0.2834;
434.4000;0.6984;-0.2760;
434.7000;0.6984;-0.2760;
435.0000;0.6992;-0.2736;
435.3000;0.6976;-0.2810;
435.6000;0.7009;-0.2810;
435.9000;0.6886;-0.3032;
436.2000;0.6992;-0.2736;
436.5000;0.7000;-0.2834;
436.8000;0.7000;-0.2810;
437.1000;0.7017;-0.2834;
437.4000;0.6992;-0.2859;
437.7000;0.7000;-0.2859;
438.0000;0.7009;-0.2760;
438.3000;0.6976;-0.2785;
438.6000;0.6992;-0.2711;
438.9000;0.7017;-0.2662;
439.2000;0.7000;-0.2760;
439.5000;0.7000;-0.2810;
439.8000;0.6992;-0.2884;
440.1000;0.6976;-0.2785;
440.4000;0.6992;-0.2810;
440.7000;0.6992;-0.2760;
441.0000;0.6992;-0.2834;
441.3000;0.6976;-0.2933;
441.6000;0.6976;-0.2908;
441.9000;0.6976;-0.2982;
442.2000;0.6992;-0.2958;
442.5000;0.6984;-0.2958;
442.8000;0.7000;-0.2810;
443.1000;0.6984;-0.2908;
443.4000;0.6984;-0.2908;
443.7000;0.6992;-0.2908;
444.0000;0.7000;-0.2908;
444.3000;0.7000;-0.3007;
444.6000;0.6952;-0.3130;
444.9000;0.6976;-0.3007;
445.2000;0.6992;-0.2908;
445.5000;0.6992;-0.3007;
445.8000;0.6984;-0.3032;
446.1000;0.6992;-0.3007;
446.4000;0.7017;-0.2908;
446.7000;0.6984;-0.3007;
447.0000;0.6984;-0.3032;
447.3000;0.7000;-0.3007;
447.6000;0.6992;-0.2884;
447.9000;0.6984;-0.2908;
448.2000;0.7009;-0.2859;
448.5000;0.6984;-0.2834;
448.8000;0.6968;-0.2859;
449.1000;0.6984;-0.2859;
449.4000;0.6903;-0.3032;
449.7000;0.6984;-0.2884;
450.0000;0.6935;-0.3081;
450.3000;0.6992;-0.2884;
450.6000;0.7041;-0.2760;
450.9000;0.6984;-0.2834;
451.2000;0.7000;-0.2810;
451.5000;0.7041;-0.2785;
451.8000;0.7000;-0.2834;
452.1000;0.6984;-0.2736;
452.4000;0.7009;-0.2736;
452.7000;0.7000;-0.2834;
453.0000;0.6984;-0.2785;
453.3000;0.7017;-0.2736;
453.6000;0.6984;-0.2810;
453.9000;0.6976;-0.2884;
454.2000;0.7000;-0.2859;
454.5000;0.7000;-0.2958;
454.8000;0.7009;-0.2933;
455.1000;0.6984;-0.3007;
455.4000;0.6960;-0.3007;
455.7000;0.6992;-0.2859;
456.0000;0.6984;-0.2884;
456.3000;0.6976;-0.2834;
456.6000;0.6984;-0.2834;
456.9000;0.7017;-0.2686;
457.2000;0.6952;-0.2859;
457.5000;0.7000;-0.2810;
457.8000;0.7017;-0.2785;
458.1000;0.7000;-0.2859;
458.4000;0.6992;-0.2884;
458.7000;0.6992;-0.2859;
459.0000;0.6984;-0.2859;
459.3000;0.6992;-0.2933;
459.6000;0.7009;-0.2982;
459.9000;0.6976;-0.3081;
460.2000;0.6992;-0.2982;
460.5000;0.7000;-0.2908;
460.8000;0.6992;-0.2982;
461.1000;0.6992;-0.2982;
461.4000;0.7000;-0.2884;
461.7000;0.6976;-0.2834;
462.0000;0.6976;-0.2810;
462.3000;0.7025;-0.2785;
462.6000;0.6984;-0.2884;
462.9000;0.6976;-0.2834;
463.2000;0.6960;-0.2834;
463.5000;0.6976;-0.2736;
463.8000;0.6984;-0.2760;
464.1000;0.6968;-0.2760;
464.4000;0.6984;-0.2810;
464.7000;0.6976;-0.2908;
465.0000;0.6976;-0.2908;
465.3000;0.6984;-0.2884;
465.6000;0.6968;-0.2908;
465.9000;0.6984;-0.2933;
466.2000;0.6952;-0.3032;
466.5000;0.6984;-0.2933;
466.8000;0.6960;-0.3007;
467.1000;0.6976;-0.3032;
467.4000;0.6992;-0.2982;
467.7000;0.6976;-0.3081;
468.0000;0.6984;-0.2982;
468.3000;0.6968;-0.2982;
468.6000;0.6992;-0.2908;
468.9000;0.6984;-0.2884;
469.2000;0.7000;-0.2834;
469.5000;0.6960;-0.2859;
469.8000;0.6976;-0.2760;
470.1000;0.7009;-0.2686;
470.4000;0.6968;-0.2785;
470.7000;0.6976;-0.2810;
471.0000;0.7009;-0.2736;
471.3000;0.6976;-0.2785;
471.6000;0.6992;-0.2785;
471.9000;0.6976;-0.2884;
472.2000;0.6992;-0.2834;
472.5000;0.6976;-0.2859;
472.8000;0.7000;-0.2785;
473.1000;0.6976;-0.2859;
473.4000;0.7033;-0.2686;
473.7000;0.6992;-0.2810;
474.0000;0.7000;-0.2859;
474.3000;0.6952;-0.2958;
474.6000;0.6854;-0.3179;
474.9000;0.6976;-0.2908;
475.2000;0.6960;-0.3007;
475.5000;0.6992;-0.2982;
475.8000;0.7057;-0.2859;
476.1000;0.6984;-0.3007;
476.4000;0.7009;-0.2933;
476.7000;0.6952;-0.3056;
477.0000;0.7090;-0.2760;
477.3000;0.7000;-0.3032;
477.6000;0.6984;-0.3007;
477.9000;0.6968;-0.3056;
478.2000;0.6992;-0.2933;
478.5000;0.6984;-0.2933;
478.8000;0.7049;-0.2859;
479.1000;0.7009;-0.3056;
479.4000;0.7009;-0.3007;
479.7000;0.6992;-0.3007;
480.0000;0.7082;-0.2785;
480.3000;0.6952;-0.3007;
480.6000;0.6976;-0.2884;
480.9000;0.7009;-0.2810;
481.2000;0.6992;-0.2933;
481.5000;0.7000;-0.2933;
481.8000;0.7017;-0.2859;
482.1000;0.7049;-0.2834;
482.4000;0.7009;-0.2884;
482.7000;0.7025;-0.2760;
483.0000;0.7000;-0.2859;
483.3000;0.6992;-0.2834;
483.6000;0.6992;-0.2736;
483.9000;0.6992;-0.2736;
484.2000;0.6976;-0.2760;
484.5000;0.7000;-0.2785;
484.8000;0.7000;-0.2760;
485.1000;0.7009;-0.2736;
485.4000;0.7009;-0.2760;
485.7000;0.6984;-0.2785;
486.0000;0.6976;-0.2810;
486.3000;0.7000;-0.2834;
486.6000;0.7017;-0.2884;
486.9000;0.6968;-0.3032;
487.2000;0.7000;-0.2982;
487.5000;0.6984;-0.2884;
487.8000;0.6992;-0.2859;
488.1000;0.6984;-0.2884;
488.4000;0.6984;-0.2933;
488.7000;0.7000;-0.2908;
489.0000;0.7009;-0.2810;
489.3000;0.6992;-0.2785;
489.6000;0.6952;-0.2834;
489.9000;0.6976;-0.2859;
490.2000;0.7000;-0.2711;
490.5000;0.6952;-0.2810;
490.8000;0.6976;-0.2736;
491.1000;0.6952;-0.2834;
491.4000;0.6960;-0.2711;
491.7000;0.6976;-0.2711;
492.0000;0.6992;-0.2686;
492.3000;0.6968;-0.2760;
492.6000;0.6976;-0.2760;
492.9000;0.6976;-0.2711;
493.2000;0.7000;-0.2662;
493.5000;0.6984;-0.2760;
493.8000;0.6992;-0.2711;
494.1000;0.6992;-0.2711;
494.4000;0.7000;-0.2711;
494.7000;0.7000;-0.2711;
495.0000;0.6968;-0.2760;
495.3000;0.6976;-0.2736;
495.6000;0.6976;-0.2736;
495.9000;0.6992;-0.2834;
496.2000;0.6968;-0.2834;
496.5000;0.6992;-0.2810;
496.8000;0.7025;-0.2785;
497.1000;0.7025;-0.2736;
497.4000;0.7025;-0.2736;
497.7000;0.7000;-0.2810;
498.0000;0.6992;-0.2785;
498.3000;0.6952;-0.2785;
498.6000;0.6968;-0.2785;
498.9000;0.6984;-0.2662;
499.2000;0.7074;-0.2489;
499.5000;0.7000;-0.2711;
499.8000;0.6992;-0.2785;
500.1000;0.6976;-0.2884;
500.4000;0.7017;-0.2785;
500.7000;0.6976;-0.2834;
501.0000;0.7000;-0.2736;
501.3000;0.6952;-0.2834;
501.6000;0.6927;-0.2859;
501.9000;0.6927;-0.2859;
502.2000;0.6919;-0.2933;
502.5000;0.6976;-0.2785;
502.8000;0.6935;-0.2884;
503.1000;0.6976;-0.2711;
503.4000;0.6984;-0.2637;
503.7000;0.6919;-0.2834;
504.0000;0.6976;-0.2613;
504.3000;0.6919;-0.2760;
504.6000;0.6976;-0.2588;
504.9000;0.6976;-0.2563;
505.2000;0.6992;-0.2539;
505.5000;0.6984;-0.2539;
505.8000;0.7009;-0.2465;
506.1000;0.6984;-0.2563;
506.4000;0.6960;-0.2613;
506.7000;0.6960;-0.2662;
507.0000;0.7017;-0.2563;
507.3000;0.6960;-0.2711;
507.6000;0.6952;-0.2785;
507.9000;0.6935;-0.2810;
508.2000;0.6984;-0.2613;
508.5000;0.7025;-0.2514;
508.8000;0.6984;-0.2711;
509.1000;0.6992;-0.2588;
509.4000;0.6992;-0.2539;
509.7000;0.6984;-0.2588;
510.0000;0.6976;-0.2613;
510.3000;0.6927;-0.2785;
510.6000;0.6984;-0.2686;
510.9000;0.6935;-0.2810;
511.2000;0.6976;-0.2760;
511.5000;0.6968;-0.2760;
511.8000;0.6992;-0.2686;
512.1000;0.6935;-0.2810;
512.4000;0.6968;-0.2933;
512.7000;0.6903;-0.3081;
513.0000;0.7000;-0.2736;
513.3000;0.6976;-0.2686;
513.6000;0.6976;-0.2686;
513.9000;0.6960;-0.2686;
514.2000;0.6984;-0.2613;
514.5000;0.6984;-0.2588;
514.8000;0.6960;-0.2637;
515.1000;0.6903;-0.2785;
515.4000;0.6992;-0.2736;
515.7000;0.7009;-0.2711;
516.0000;0.7033;-0.2711;
516.3000;0.6968;-0.2834;
516.6000;0.7000;-0.2785;
516.9000;0.6984;-0.2736;
517.2000;0.7082;-0.2588;
517.5000;0.6976;-0.2810;
517.8000;0.6984;-0.2760;
518.1000;0.6984;-0.2760;
518.4000;0.6992;-0.2760;
518.7000;0.6992;-0.2785;
519.0000;0.6952;-0.2933;
519.3000;0.6992;-0.2760;
519.6000;0.6935;-0.2958;
519.9000;0.6984;-0.2933;
520.2000;0.6984;-0.2908;
520.5000;0.6919;-0.3056;
520.8000;0.6968;-0.2933;
521.1000;0.6984;-0.2908;
521.4000;0.6960;-0.3056;
521.7000;0.6968;-0.3105;
522.0000;0.6984;-0.3007;
522.3000;0.6984;-0.3032;
522.6000;0.6960;-0.3081;
522.9000;0.6976;-0.3081;
523.2000;0.6984;-0.3081;
523.5000;0.6976;-0.2982;
523.8000;0.6984;-0.2933;
524.1000;0.6984;-0.2884;
524.4000;0.6968;-0.2982;
524.7000;0.7041;-0.2834;
525.0000;0.6992;-0.2958;
525.3000;0.6992;-0.2933;
525.6000;0.6943;-0.3105;
525.9000;0.6992;-0.3032;
526.2000;0.6984;-0.2982;
526.5000;0.6968;-0.3081;
526.8000;0.6976;-0.2982;
527.1000;0.6976;-0.3007;
527.4000;0.6976;-0.3007;
527.7000;0.6984;-0.3081;
528.0000;0.7000;-0.3130;
528.3000;0.6960;-0.3130;
528.6000;0.6984;-0.3056;
528.9000;0.6976;-0.3056;
529.2000;0.6968;-0.3007;
529.5000;0.7000;-0.2884;
529.8000;0.6968;-0.2958;
530.1000;0.6976;-0.3032;
530.4000;0.6968;-0.2982;
530.7000;0.6976;-0.3007;
531.0000;0.6992;-0.2958;
531.3000;0.6992;-0.2958;
531.6000;0.6976;-0.2859;
531.9000;0.6976;-0.2908;
532.2000;0.6992;-0.2908;
532.5000;0.6968;-0.3007;
532.8000;0.6976;-0.2958;
533.1000;0.6976;-0.3007;
533.4000;0.6968;-0.3081;
533.7000;0.6952;-0.3032;
534.0000;0.6984;-0.2834;
534.3000;0.6976;-0.2834;
534.6000;0.6976;-0.2834;
534.9000;0.6984;-0.2908;
535.2000;0.6968;-0.3007;
535.5000;0.6968;-0.2958;
535.8000;0.6992;-0.3032;
536.1000;0.6960;-0.3155;
536.4000;0.7017;-0.3007;
536.7000;0.6992;-0.3056;
537.0000;0.6968;-0.3032;
537.3000;0.6976;-0.3056;
537.6000;0.6968;-0.3007;
537.9000;0.6960;-0.3032;
538.2000;0.6976;-0.3056;
538.5000;0.6968;-0.3105;
538.8000;0.6984;-0.3056;
539.1000;0.6976;-0.3032;
539.4000;0.6976;-0.2958;
539.7000;0.6976;-0.2933;
540.0000;0.6984;-0.2933;
540.3000;0.6976;-0.2958;
540.6000;0.6952;-0.3081;
540.9000;0.6976;-0.3056;
541.2000;0.6984;-0.3007;
541.5000;0.6984;-0.3081;
541.8000;0.6943;-0.3155;
542.1000;0.6943;-0.3155;
542.4000;0.6960;-0.3056;
542.7000;0.6976;-0.3081;
543.0000;0.6935;-0.3229;
543.3000;0.6927;-0.3179;
543.6000;0.7000;-0.3007;
543.9000;0.6968;-0.2958;
544.2000;0.6976;-0.2933;
544.5000;0.6919;-0.2958;
544.8000;0.6968;-0.2810;
545.1000;0.6992;-0.2834;
545.4000;0.7049;-0.2686;
545.7000;0.6976;-0.2884;
546.0000;0.6984;-0.2834;
546.3000;0.6992;-0.2810;
546.6000;0.6984;-0.2810;
546.9000;0.6992;-0.2760;
547.2000;0.6968;-0.2810;
547.5000;0.6976;-0.2637;
547.8000;0.6968;-0.2613;
548.1000;0.6968;-0.2637;
548.4000;0.6968;-0.2662;
548.7000;0.6976;-0.2686;
549.0000;0.6976;-0.2711;
549.3000;0.6935;-0.2884;
549.6000;0.6976;-0.2760;
549.9000;0.6984;-0.2711;
550.2000;0.7000;-0.2662;
550.5000;0.6976;-0.2785;
550.8000;0.6968;-0.2908;
551.1000;0.6984;-0.2933;
551.4000;0.7017;-0.2760;
551.7000;0.6984;-0.2859;
552.0000;0.6984;-0.2933;
552.3000;0.6984;-0.2982;
552.6000;0.6992;-0.2982;
552.9000;0.6992;-0.2859;
553.2000;0.6968;-0.2908;
553.5000;0.6960;-0.2908;
553.8000;0.6968;-0.2884;
554.1000;0.6984;-0.2859;
554.4000;0.6976;-0.2810;
554.7000;0.6968;-0.2785;
555.0000;0.6968;-0.2760;
555.3000;0.6984;-0.2810;
555.6000;0.6976;-0.2785;
555.9000;0.6984;-0.2859;
556.2000;0.6968;-0.2884;
556.5000;0.6976;-0.2834;
556.8000;0.6976;-0.2760;
557.1000;0.6992;-0.2785;
557.4000;0.6976;-0.2760;
557.7000;0.6919;-0.2933;
558.0000;0.6968;-0.2810;
558.3000;0.6943;-0.2884;
558.6000;0.6976;-0.2908;
558.9000;0.6968;-0.3032;
559.2000;0.6976;-0.2958;
559.5000;0.6992;-0.2884;
559.8000;0.6952;-0.2958;
560.1000;0.6960;-0.2859;
560.4000;0.6968;-0.2834;
560.7000;0.6968;-0.2785;
561.0000;0.6976;-0.2785;
561.3000;0.7000;-0.2711;
561.6000;0.6984;-0.2760;
561.9000;0.6984;-0.2736;
562.2000;0.6952;-0.2884;
562.5000;0.6968;-0.2810;
562.8000;0.6976;-0.2859;
563.1000;0.6968;-0.2760;
563.4000;0.6984;-0.2637;
563.7000;0.6952;-0.2711;
564.0000;0.6968;-0.2736;
564.3000;0.6943;-0.2884;
564.6000;0.6976;-0.2686;
564.9000;0.6976;-0.2686;
565.2000;0.6984;-0.2637;
565.5000;0.6968;-0.2686;
565.8000;0.6984;-0.2613;
566.1000;0.6976;-0.2613;
566.4000;0.6984;-0.2637;
566.7000;0.6943;-0.2785;
567.0000;0.6976;-0.2662;
567.3000;0.6960;-0.2760;
567.6000;0.6943;-0.2736;
567.9000;0.6960;-0.2760;
568.2000;0.6992;-0.2736;
568.5000;0.6960;-0.2834;
568.8000;0.6960;-0.2859;
569.1000;0.6976;-0.2859;
569.4000;0.6984;-0.2884;
569.7000;0.6911;-0.2982;
570.0000;0.6960;-0.2834;
570.3000;0.6968;-0.2834;
570.6000;0.6968;-0.2810;
570.9000;0.7009;-0.2662;
571.2000;0.6976;-0.2785;
571.5000;0.6984;-0.2785;
571.8000;0.6968;-0.2785;
572.1000;0.7057;-0.2415;
572.4000;0.6968;-0.2588;
572.7000;0.6976;-0.2489;
573.0000;0.6943;-0.2539;
573.3000;0.6960;-0.2489;
573.6000;0.6976;-0.2539;
573.9000;0.6919;-0.2785;
574.2000;0.6968;-0.2760;
574.5000;0.6960;-0.2760;
574.8000;0.6886;-0.2982;
575.1000;0.6952;-0.2884;
575.4000;0.6919;-0.2958;
575.7000;0.6976;-0.2810;
576.0000;0.6960;-0.2933;
576.3000;0.6935;-0.2933;
576.6000;0.6935;-0.2908;
576.9000;0.6960;-0.2810;
577.2000;0.7009;-0.2711;
577.5000;0.6960;-0.2785;
577.8000;0.6968;-0.2760;
578.1000;0.6968;-0.2810;
578.4000;0.6984;-0.2736;
578.7000;0.6960;-0.2859;
579.0000;0.6968;-0.2884;
579.3000;0.6984;-0.2884;
579.6000;0.6960;-0.2982;
579.9000;0.6976;-0.2908;
580.2000;0.6935;-0.2982;
580.5000;0.6968;-0.2908;
580.8000;0.6968;-0.2884;
581.1000;0.6976;-0.2834;
581.4000;0.6984;-0.2785;
581.7000;0.6960;-0.2810;
582.0000;0.6960;-0.2884;
582.3000;0.6984;-0.2810;
582.6000;0.6968;-0.2859;
582.9000;0.6960;-0.2834;
583.2000;0.6960;-0.2933;
583.5000;0.6976;-0.2884;
583.8000;0.6968;-0.2834;
584.1000;0.6968;-0.2859;
584.4000;0.6960;-0.2859;
584.7000;0.6976;-0.2859;
585.0000;0.6968;-0.2884;
585.3000;0.6952;-0.2982;
585.6000;0.6976;-0.2908;
585.9000;0.6976;-0.2884;
586.2000;0.6960;-0.2884;
586.5000;0.6968;-0.2834;
586.8000;0.6960;-0.2760;
587.1000;0.6960;-0.2810;
587.4000;0.6952;-0.2834;
587.7000;0.6976;-0.2760;
588.0000;0.6960;-0.2785;
588.3000;0.6976;-0.2711;
588.6000;0.6976;-0.2711;
588.9000;0.6968;-0.2736;
589.2000;0.6968;-0.2834;
589.5000;0.6984;-0.2760;
589.8000;0.6952;-0.2810;
590.1000;0.6968;-0.2834;
590.4000;0.6960;-0.2810;
590.7000;0.6960;-0.2834;
591.0000;0.6976;-0.2760;
591.3000;0.6976;-0.2711;
591.6000;0.6984;-0.2711;
591.9000;0.6968;-0.2736;
592.2000;0.6968;-0.2736;
592.5000;0.6927;-0.2834;
592.8000;0.6992;-0.2760;
593.1000;0.6960;-0.2859;
593.4000;0.6968;-0.2760;
593.7000;0.6968;-0.2736;
594.0000;0.6952;-0.2884;
594.3000;0.6968;-0.2884;
594.6000;0.6968;-0.2958;
594.9000;0.6960;-0.2982;
595.2000;0.6976;-0.3007;
595.5000;0.6943;-0.3081;
595.8000;0.6960;-0.3105;
596.1000;0.6960;-0.3081;
596.4000;0.6960;-0.3105;
596.7000;0.6992;-0.3081;
597.0000;0.6976;-0.3155;
597.3000;0.6935;-0.3229;
597.6000;0.6984;-0.3007;
597.9000;0.6984;-0.2958;
598.2000;0.6952;-0.3032;
598.5000;0.6960;-0.3056;
598.8000;0.6960;-0.2982;
599.1000;0.6952;-0.3032;
599.4000;0.6952;-0.3056;
599.7000;0.6976;-0.2958;
600.0000;0.6976;-0.2958;
600.3000;0.6935;-0.3105;
600.6000;0.6870;-0.3229;
600.9000;0.6756;-0.3475;
601.2000;0.6642;-0.3648;
601.5000;0.6463;-0.3919;
601.8000;0.6276;-0.4338;
602.1000;0.6195;-0.4560;
602.4000;0.6089;-0.4781;
602.7000;0.5950;-0.5003;
603.0000;0.5902;-0.5126;
603.3000;0.5747;-0.5373;
603.6000;0.5682;-0.5472;
603.9000;0.5576;-0.5619;
604.2000;0.5511;-0.5718;
604.5000;0.5438;-0.5866;
604.8000;0.5372;-0.6038;
605.1000;0.5364;-0.6088;
605.4000;0.5267;-0.6285;
605.7000;0.5234;-0.6359;
606.0000;0.5063;-0.6778;
606.3000;0.5136;-0.6556;
606.6000;0.5079;-0.6655;
606.9000;0.5055;-0.6728;
607.2000;0.5039;-0.6704;
607.5000;0.4990;-0.6778;
607.8000;0.4990;-0.6852;
608.1000;0.4933;-0.7024;
608.4000;0.4892;-0.7098;
608.7000;0.4876;-0.7147;
609.0000;0.4851;-0.7098;
609.3000;0.4819;-0.7246;
609.6000;0.4819;-0.7246;
609.9000;0.4794;-0.7221;
610.2000;0.4721;-0.7369;
610.5000;0.4737;-0.7172;
610.8000;0.4754;-0.7098;
611.1000;0.4721;-0.7172;
611.4000;0.4705;-0.7271;
611.7000;0.4672;-0.7295;
612.0000;0.4607;-0.7419;
612.3000;0.4672;-0.7271;
612.6000;0.4672;-0.7197;
612.9000;0.4656;-0.7197;
613.2000;0.4640;-0.7246;
613.5000;0.4615;-0.7369;
613.8000;0.4624;-0.7369;
614.1000;0.4632;-0.7271;
614.4000;0.4575;-0.7369;
614.7000;0.4591;-0.7443;
615.0000;0.4583;-0.7394;
615.3000;0.4558;-0.7493;
615.6000;0.4567;-0.7443;
615.9000;0.4558;-0.7394;
616.2000;0.4542;-0.7443;
616.5000;0.4542;-0.7468;
616.8000;0.4526;-0.7394;
617.1000;0.4518;-0.7468;
617.4000;0.4493;-0.7493;
617.7000;0.4501;-0.7517;
618.0000;0.4510;-0.7616;
618.3000;0.4428;-0.7714;
618.6000;0.4501;-0.7542;
618.9000;0.4469;-0.7566;
619.2000;0.4510;-0.7419;
619.5000;0.4469;-0.7493;
619.8000;0.4469;-0.7468;
620.1000;0.4444;-0.7517;
620.4000;0.4485;-0.7369;
620.7000;0.4444;-0.7493;
621.0000;0.4436;-0.7468;
621.3000;0.4477;-0.7345;
621.6000;0.4412;-0.7468;
621.9000;0.4428;-0.7468;
622.2000;0.4436;-0.7468;
622.5000;0.4412;-0.7493;
622.8000;0.4404;-0.7517;
623.1000;0.4412;-0.7493;
623.4000;0.4387;-0.7566;
623.7000;0.4387;-0.7591;
624.0000;0.4387;-0.7566;
624.3000;0.4363;-0.7640;
624.6000;0.4363;-0.7739;
624.9000;0.4396;-0.7616;
625.2000;0.4363;-0.7764;
625.5000;0.4363;-0.7714;
625.8000;0.4363;-0.7714;
626.1000;0.4282;-0.7788;
626.4000;0.4347;-0.7690;
626.7000;0.4363;-0.7714;
627.0000;0.4339;-0.7739;
627.3000;0.4314;-0.7813;
627.6000;0.4347;-0.7665;
627.9000;0.4355;-0.7566;
628.2000;0.4330;-0.7665;
628.5000;0.4347;-0.7616;
628.8000;0.4363;-0.7591;
629.1000;0.4290;-0.7764;
629.4000;0.4347;-0.7542;
629.7000;0.4314;-0.7591;
630.0000;0.4322;-0.7517;
630.3000;0.4298;-0.7616;
630.6000;0.4314;-0.7566;
630.9000;0.4274;-0.7665;
631.2000;0.4290;-0.7517;
631.5000;0.4257;-0.7640;
631.8000;0.4290;-0.7616;
632.1000;0.4306;-0.7665;
632.4000;0.4217;-0.7838;
632.7000;0.4265;-0.7739;
633.0000;0.4290;-0.7739;
633.3000;0.4290;-0.7764;
633.6000;0.4249;-0.7788;
633.9000;0.4282;-0.7813;
634.2000;0.4322;-0.7640;
634.5000;0.4282;-0.7690;
634.8000;0.4282;-0.7665;
635.1000;0.4225;-0.7985;
635.4000;0.4282;-0.7813;
635.7000;0.4257;-0.7862;
636.0000;0.4249;-0.7862;
636.3000;0.4257;-0.7788;
636.6000;0.4135;-0.8010;
636.9000;0.4257;-0.7690;
637.2000;0.4233;-0.7591;
637.5000;0.4192;-0.7665;
637.8000;0.4298;-0.7320;
638.1000;0.4249;-0.7542;
638.4000;0.4249;-0.7640;
638.7000;0.4241;-0.7714;
639.0000;0.4387;-0.7320;
639.3000;0.4225;-0.7862;
639.6000;0.4225;-0.7764;
639.9000;0.4241;-0.7640;
640.2000;0.4225;-0.7591;
640.5000;0.4225;-0.7542;
640.8000;0.4233;-0.7566;
641.1000;0.4217;-0.7739;
641.4000;0.4233;-0.7739;
641.7000;0.4208;-0.7788;
642.0000;0.4225;-0.7690;
642.3000;0.4257;-0.7542;
642.6000;0.4225;-0.7616;
642.9000;0.4217;-0.7640;
643.2000;0.4192;-0.7739;
643.5000;0.4184;-0.7640;
643.8000;0.4192;-0.7640;
644.1000;0.4208;-0.7690;
644.4000;0.4168;-0.7764;
644.7000;0.4184;-0.7714;
645.0000;0.4192;-0.7665;
645.3000;0.4176;-0.7640;
645.6000;0.4192;-0.7566;
645.9000;0.4200;-0.7542;
646.2000;0.4184;-0.7591;
646.5000;0.4184;-0.7542;
646.8000;0.4168;-0.7665;
647.1000;0.4200;-0.7517;
647.4000;0.4176;-0.7517;
647.7000;0.4176;-0.7591;
648.0000;0.4217;-0.7517;
648.3000;0.4200;-0.7665;
648.6000;0.4200;-0.7640;
648.9000;0.4192;-0.7788;
649.2000;0.4168;-0.7714;
649.5000;0.4168;-0.7690;
649.8000;0.4168;-0.7665;
650.1000;0.4168;-0.7616;
650.4000;0.4143;-0.7616;
650.7000;0.4160;-0.7739;
651.0000;0.4176;-0.7739;
651.3000;0.4151;-0.7788;
651.6000;0.4086;-0.7887;
651.9000;0.4160;-0.7640;
652.2000;0.4176;-0.7591;
652.5000;0.4151;-0.7739;
652.8000;0.4135;-0.7764;
653.1000;0.4160;-0.7714;
653.4000;0.4135;-0.7714;
653.7000;0.4160;-0.7714;
654.0000;0.4160;-0.7665;
654.3000;0.4160;-0.7665;
654.6000;0.4119;-0.7739;
654.9000;0.4143;-0.7714;
655.2000;0.4135;-0.7739;
655.5000;0.4111;-0.7788;
655.8000;0.4135;-0.7640;
656.1000;0.4119;-0.7591;
656.4000;0.4168;-0.7591;
656.7000;0.4119;-0.7739;
657.0000;0.4135;-0.7788;
657.3000;0.4143;-0.7690;
657.6000;0.4184;-0.7542;
657.9000;0.4119;-0.7690;
658.2000;0.4127;-0.7714;
658.5000;0.4192;-0.7517;
658.8000;0.4151;-0.7690;
659.1000;0.4127;-0.7714;
659.4000;0.4111;-0.7739;
659.7000;0.4127;-0.7690;
660.0000;0.4127;-0.7690;
660.3000;0.4143;-0.7591;
660.6000;0.4111;-0.7739;
660.9000;0.4111;-0.7813;
661.2000;0.4119;-0.7862;
661.5000;0.4111;-0.7936;
661.8000;0.4094;-0.7887;
662.1000;0.4103;-0.7788;
662.4000;0.4160;-0.7616;
662.7000;0.4111;-0.7739;
663.0000;0.4103;-0.7640;
663.3000;0.4103;-0.7665;
663.6000;0.4111;-0.7566;
663.9000;0.4119;-0.7468;
664.2000;0.4094;-0.7419;
664.5000;0.4111;-0.7468;
664.8000;0.4151;-0.7345;
665.1000;0.4143;-0.7419;
665.4000;0.4103;-0.7493;
665.7000;0.4078;-0.7542;
666.0000;0.4111;-0.7468;
666.3000;0.4078;-0.7419;
666.6000;0.4078;-0.7493;
666.9000;0.4103;-0.7517;
667.2000;0.4143;-0.7468;
667.5000;0.4094;-0.7566;
667.8000;0.4111;-0.7517;
668.1000;0.4078;-0.7517;
668.4000;0.4094;-0.7468;
668.7000;0.4086;-0.7468;
669.0000;0.4094;-0.7517;
669.3000;0.4078;-0.7616;
669.6000;0.4078;-0.7714;
669.9000;0.4078;-0.7665;
670.2000;0.4070;-0.7616;
670.5000;0.4062;-0.7714;
670.8000;0.4062;-0.7739;
671.1000;0.4086;-0.7690;
671.4000;0.4078;-0.7690;
671.7000;0.4046;-0.7690;
672.0000;0.3997;-0.7813;
672.3000;0.4086;-0.7665;
672.6000;0.4054;-0.7690;
672.9000;0.4070;-0.7665;
673.2000;0.4054;-0.7690;
673.5000;0.4111;-0.7591;
673.8000;0.4078;-0.7690;
674.1000;0.4062;-0.7714;
674.4000;0.4070;-0.7665;
674.7000;0.4103;-0.7665;
675.0000;0.4062;-0.7665;
675.3000;0.4070;-0.7566;
675.6000;0.4046;-0.7616;
675.9000;0.4054;-0.7566;
676.2000;0.4070;-0.7566;
676.5000;0.4054;-0.7616;
676.8000;0.4013;-0.7714;
677.1000;0.4046;-0.7566;
677.4000;0.4046;-0.7690;
677.7000;0.4037;-0.7764;
678.0000;0.4046;-0.7764;
678.3000;0.4054;-0.7788;
678.6000;0.4086;-0.7665;
678.9000;0.4037;-0.7739;
679.2000;0.4037;-0.7714;
679.5000;0.4054;-0.7665;
679.8000;0.4037;-0.7616;
680.1000;0.4062;-0.7542;
680.4000;0.4046;-0.7665;
680.7000;0.4037;-0.7739;
681.0000;0.4029;-0.7764;
681.3000;0.4062;-0.7764;
681.6000;0.4037;-0.7887;
681.9000;0.4029;-0.7887;
682.2000;0.3940;-0.8232;
682.5000;0.4029;-0.8035;
682.8000;0.4021;-0.8059;
683.1000;0.4037;-0.7985;
683.4000;0.4037;-0.7936;
683.7000;0.4005;-0.8010;
684.0000;0.4046;-0.7936;
684.3000;0.4037;-0.7887;
684.6000;0.4037;-0.7936;
684.9000;0.4029;-0.7862;
685.2000;0.4029;-0.7838;
685.5000;0.3980;-0.7887;
685.8000;0.4037;-0.7813;
686.1000;0.4013;-0.7838;
686.4000;0.4086;-0.7665;
686.7000;0.4037;-0.7739;
687.0000;0.4054;-0.7788;
687.3000;0.4037;-0.7764;
687.6000;0.4086;-0.7616;
687.9000;0.4029;-0.7690;
688.2000;0.4021;-0.7690;
688.5000;0.4029;-0.7616;
688.8000;0.3980;-0.7616;
689.1000;0.3980;-0.7640;
689.4000;0.4013;-0.7517;
689.7000;0.4037;-0.7493;
690.0000;0.4029;-0.7493;
690.3000;0.4021;-0.7542;
690.6000;0.4029;-0.7493;
690.9000;0.4005;-0.7443;
691.2000;0.4013;-0.7394;
691.5000;0.4021;-0.7394;
691.8000;0.4021;-0.7419;
692.1000;0.4029;-0.7369;
692.4000;0.4029;-0.7345;
692.7000;0.4021;-0.7468;
693.0000;0.4021;-0.7443;
693.3000;0.4005;-0.7517;
693.6000;0.4005;-0.7517;
693.9000;0.4013;-0.7419;
694.2000;0.4021;-0.7345;
694.5000;0.4005;-0.7369;
694.8000;0.4005;-0.7271;
695.1000;0.4054;-0.7123;
695.4000;0.4021;-0.7295;
695.7000;0.3997;-0.7394;
696.0000;0.4005;-0.7443;
696.3000;0.4013;-0.7566;
696.6000;0.3997;-0.7640;
696.9000;0.3989;-0.7665;
697.2000;0.3997;-0.7640;
697.5000;0.3980;-0.7616;
697.8000;0.3980;-0.7739;
698.1000;0.3997;-0.7714;
698.4000;0.4005;-0.7616;
698.7000;0.4005;-0.7665;
699.0000;0.3989;-0.7690;
699.3000;0.4005;-0.7640;
699.6000;0.3997;-0.7591;
699.9000;0.4013;-0.7566;
700.2000;0.3972;-0.7665;
700.5000;0.4005;-0.7591;
700.8000;0.3972;-0.7616;
701.1000;0.3956;-0.7616;
701.4000;0.3989;-0.7566;
701.7000;0.3972;-0.7566;
702.0000;0.3972;-0.7493;
702.3000;0.3989;-0.7517;
702.6000;0.3980;-0.7517;
702.9000;0.3980;-0.7517;
703.2000;0.3980;-0.7566;
703.5000;0.3997;-0.7616;
703.8000;0.3964;-0.7665;
704.1000;0.3989;-0.7714;
704.4000;0.3989;-0.7690;
704.7000;0.3997;-0.7690;
705.0000;0.3997;-0.7616;
705.3000;0.3948;-0.7739;
705.6000;0.3980;-0.7591;
705.9000;0.3997;-0.7493;
706.2000;0.3964;-0.7591;
706.5000;0.3964;-0.7566;
706.8000;0.3972;-0.7542;
707.1000;0.3980;-0.7542;
707.4000;0.3980;-0.7493;
707.7000;0.3964;-0.7640;
708.0000;0.3997;-0.7517;
708.3000;0.3956;-0.7616;
708.6000;0.3972;-0.7566;
708.9000;0.3972;-0.7468;
709.2000;0.3948;-0.7493;
709.5000;0.3964;-0.7443;
709.8000;0.3932;-0.7542;
710.1000;0.3964;-0.7468;
710.4000;0.3964;-0.7493;
710.7000;0.3956;-0.7517;
711.0000;0.3972;-0.7542;
711.3000;0.4005;-0.7345;
711.6000;0.3956;-0.7369;
711.9000;0.3923;-0.7394;
712.2000;0.3972;-0.7246;
712.5000;0.3932;-0.7443;
712.8000;0.4029;-0.7221;
713.1000;0.3932;-0.7369;
713.4000;0.3948;-0.7369;
713.7000;0.3972;-0.7345;
714.0000;0.3948;-0.7517;
714.3000;0.3956;-0.7542;
714.6000;0.3932;-0.7640;
714.9000;0.3956;-0.7591;
715.2000;0.3940;-0.7640;
715.5000;0.3964;-0.7616;
715.8000;0.3956;-0.7714;
716.1000;0.3964;-0.7616;
716.4000;0.3956;-0.7616;
716.7000;0.3940;-0.7616;
717.0000;0.3964;-0.7616;
717.3000;0.3956;-0.7714;
717.6000;0.4005;-0.7517;
717.9000;0.3915;-0.7640;
718.2000;0.3972;-0.7517;
718.5000;0.3956;-0.7616;
718.8000;0.3956;-0.7665;
719.1000;0.3915;-0.7690;
719.4000;0.3972;-0.7591;
719.7000;0.3956;-0.7591;
720.0000;0.4005;-0.7493;
720.3000;0.3964;-0.7616;
720.6000;0.3964;-0.7591;
720.9000;0.3915;-0.7665;
721.2000;0.3964;-0.7468;
721.5000;0.3964;-0.7443;
721.8000;0.3956;-0.7566;
722.1000;0.3964;-0.7591;
722.4000;0.3932;-0.7566;
722.7000;0.3932;-0.7468;
723.0000;0.3932;-0.7394;
723.3000;0.3932;-0.7493;
723.6000;0.3923;-0.7517;
723.9000;0.3964;-0.7517;
724.2000;0.3915;-0.7566;
724.5000;0.3948;-0.7493;
724.8000;0.3940;-0.7419;
725.1000;0.3997;-0.7246;
725.4000;0.3940;-0.7443;
725.7000;0.3915;-0.7542;
726.0000;0.3940;-0.7517;
726.3000;0.3940;-0.7517;
726.6000;0.3940;-0.7517;
726.9000;0.3891;-0.7591;
727.2000;0.3940;-0.7468;
727.5000;0.3948;-0.7517;
727.8000;0.3940;-0.7443;
728.1000;0.3940;-0.7443;
728.4000;0.3899;-0.7517;
728.7000;0.3915;-0.7468;
729.0000;0.3940;-0.7369;
729.3000;0.3940;-0.7443;
729.6000;0.3972;-0.7493;
729.9000;0.3940;-0.7542;
730.2000;0.3932;-0.7517;
730.5000;0.3964;-0.7468;
730.8000;0.3923;-0.7517;
731.1000;0.3948;-0.7419;
731.4000;0.3891;-0.7468;
731.7000;0.3972;-0.7345;
732.0000;0.3915;-0.7493;
732.3000;0.3915;-0.7443;
732.6000;0.3867;-0.7493;
732.9000;0.3932;-0.7221;
733.2000;0.3923;-0.7221;
733.5000;0.3956;-0.7172;
733.8000;0.3907;-0.7345;
734.1000;0.3915;-0.7320;
734.4000;0.3907;-0.7320;
734.7000;0.3907;-0.7271;
735.0000;0.3899;-0.7246;
735.3000;0.3907;-0.7320;
735.6000;0.3915;-0.7320;
735.9000;0.3907;-0.7345;
736.2000;0.3956;-0.7197;
736.5000;0.3923;-0.7197;
736.8000;0.3907;-0.7197;
737.1000;0.3899;-0.7221;
737.4000;0.3850;-0.7271;
737.7000;0.3907;-0.7123;
738.0000;0.3907;-0.7098;
738.3000;0.3915;-0.7147;
738.6000;0.3891;-0.7246;
738.9000;0.3858;-0.7295;
739.2000;0.3907;-0.7147;
739.5000;0.3899;-0.7172;
739.8000;0.3923;-0.7147;
740.1000;0.3891;-0.7295;
740.4000;0.3940;-0.7246;
740.7000;0.3915;-0.7369;
741.0000;0.3907;-0.7468;
741.3000;0.3932;-0.7443;
741.6000;0.3923;-0.7419;
741.9000;0.3923;-0.7320;
742.2000;0.3891;-0.7369;
742.5000;0.3899;-0.7419;
742.8000;0.3907;-0.7419;
743.1000;0.3891;-0.7345;
743.4000;0.3899;-0.7271;
743.7000;0.3964;-0.7074;
744.0000;0.3875;-0.7271;
744.3000;0.3891;-0.7172;
744.6000;0.3907;-0.7147;
744.9000;0.3940;-0.7147;
745.2000;0.3899;-0.7221;
745.5000;0.3915;-0.7246;
745.8000;0.3899;-0.7197;
746.1000;0.3932;-0.7098;
746.4000;0.3907;-0.7172;
746.7000;0.3907;-0.7147;
747.0000;0.3891;-0.7221;
747.3000;0.3891;-0.7271;
747.6000;0.3891;-0.7468;
747.9000;0.3907;-0.7419;
748.2000;0.3948;-0.7221;
748.5000;0.3891;-0.7369;
748.8000;0.3858;-0.7345;
749.1000;0.3867;-0.7443;
749.4000;0.3899;-0.7345;
749.7000;0.3899;-0.7320;
750.0000;0.3858;-0.7320;
750.3000;0.3883;-0.7345;
750.6000;0.3875;-0.7369;
750.9000;0.3940;-0.7295;
751.2000;0.3907;-0.7369;
751.5000;0.3899;-0.7345;
751.8000;0.3907;-0.7320;
752.1000;0.3907;-0.7369;
752.4000;0.3883;-0.7443;
752.7000;0.3883;-0.7443;
753.0000;0.3899;-0.7468;
753.3000;0.3842;-0.7591;
753.6000;0.3867;-0.7468;
753.9000;0.3891;-0.7443;
754.2000;0.3891;-0.7295;
754.5000;0.3972;-0.7123;
754.8000;0.3899;-0.7295;
755.1000;0.3923;-0.7295;
755.4000;0.3801;-0.7616;
755.7000;0.3964;-0.7295;
756.0000;0.3891;-0.7419;
756.3000;0.3858;-0.7517;
756.6000;0.3826;-0.7566;
756.9000;0.3907;-0.7369;
757.2000;0.3883;-0.7419;
757.5000;0.3875;-0.7517;
757.8000;0.3891;-0.7468;
758.1000;0.3883;-0.7419;
758.4000;0.3883;-0.7443;
758.7000;0.3858;-0.7517;
759.0000;0.3875;-0.7640;
759.3000;0.3875;-0.7640;
759.6000;0.3883;-0.7665;
759.9000;0.3883;-0.7665;
760.2000;0.3867;-0.7566;
760.5000;0.3883;-0.7443;
760.8000;0.3875;-0.7517;
761.1000;0.3810;-0.7665;
761.4000;0.3867;-0.7493;
761.7000;0.3891;-0.7369;
762.0000;0.3883;-0.7295;
762.3000;0.3883;-0.7394;
762.6000;0.3867;-0.7369;
762.9000;0.3801;-0.7419;
763.2000;0.3956;-0.7197;
763.5000;0.3875;-0.7443;
763.8000;0.3883;-0.7468;
764.1000;0.3875;-0.7443;
764.4000;0.3891;-0.7295;
764.7000;0.3875;-0.7345;
765.0000;0.3883;-0.7369;
765.3000;0.3867;-0.7443;
765.6000;0.3842;-0.7443;
765.9000;0.3883;-0.7443;
766.2000;0.3883;-0.7493;
766.5000;0.3867;-0.7517;
766.8000;0.3891;-0.7493;
767.1000;0.3891;-0.7493;
767.4000;0.3883;-0.7542;
767.7000;0.3858;-0.7591;
768.0000;0.3875;-0.7591;
768.3000;0.3850;-0.7566;
768.6000;0.3875;-0.7517;
768.9000;0.3883;-0.7468;
769.2000;0.3867;-0.7443;
769.5000;0.3858;-0.7443;
769.8000;0.3867;-0.7419;
770.1000;0.3899;-0.7394;
770.4000;0.3867;-0.7566;
770.7000;0.3867;-0.7468;
771.0000;0.3883;-0.7443;
771.3000;0.3858;-0.7566;
771.6000;0.3858;-0.7493;
771.9000;0.3867;-0.7468;
772.2000;0.3875;-0.7443;
772.5000;0.3867;-0.7443;
772.8000;0.3850;-0.7468;
773.1000;0.3867;-0.7468;
773.4000;0.3867;-0.7443;
773.7000;0.3850;-0.7443;
774.0000;0.4013;-0.7147;
774.3000;0.3850;-0.7640;
774.6000;0.3858;-0.7665;
774.9000;0.3883;-0.7591;
775.2000;0.3858;-0.7616;
775.5000;0.3834;-0.7739;
775.8000;0.3883;-0.7690;
776.1000;0.3842;-0.7764;
776.4000;0.3858;-0.7714;
776.7000;0.3826;-0.7813;
777.0000;0.3867;-0.7788;
777.3000;0.3875;-0.7788;
777.6000;0.3867;-0.7690;
777.9000;0.3850;-0.7714;
778.2000;0.3867;-0.7714;
778.5000;0.3858;-0.7764;
778.8000;0.3858;-0.7714;
779.1000;0.3850;-0.7690;
779.4000;0.3810;-0.7764;
779.7000;0.3785;-0.7887;
780.0000;0.3875;-0.7690;
780.3000;0.3875;-0.7665;
780.6000;0.3850;-0.7640;
780.9000;0.3875;-0.7591;
781.2000;0.3818;-0.7739;
781.5000;0.3850;-0.7640;
781.8000;0.3850;-0.7640;
782.1000;0.3834;-0.7566;
782.4000;0.3875;-0.7443;
782.7000;0.3842;-0.7443;
783.0000;0.3810;-0.7616;
783.3000;0.3867;-0.7517;
783.6000;0.3850;-0.7665;
783.9000;0.3850;-0.7640;
784.2000;0.3923;-0.7468;
784.5000;0.3842;-0.7690;
784.8000;0.3850;-0.7616;
785.1000;0.3875;-0.7517;
785.4000;0.3923;-0.7419;
785.7000;0.3875;-0.7517;
786.0000;0.3883;-0.7566;
786.3000;0.3875;-0.7591;
786.6000;0.3858;-0.7690;
786.9000;0.3867;-0.7714;
787.2000;0.3907;-0.7566;
787.5000;0.3899;-0.7616;
787.8000;0.3850;-0.7788;
788.1000;0.3842;-0.7764;
788.4000;0.3818;-0.7788;
788.7000;0.3834;-0.7714;
789.0000;0.3842;-0.7616;
789.3000;0.3834;-0.7616;
789.6000;0.3842;-0.7665;
789.9000;0.3842;-0.7616;
790.2000;0.3858;-0.7566;
790.5000;0.3858;-0.7542;
790.8000;0.3842;-0.7616;
791.1000;0.3850;-0.7616;
791.4000;0.3850;-0.7714;
791.7000;0.3858;-0.7690;
792.0000;0.3850;-0.7690;
792.3000;0.3858;-0.7764;
792.6000;0.3850;-0.7862;
792.9000;0.3850;-0.7813;
793.2000;0.3842;-0.7813;
793.5000;0.3842;-0.7838;
793.8000;0.3850;-0.7788;
794.1000;0.3842;-0.7764;
794.4000;0.3850;-0.7788;
794.7000;0.3826;-0.7788;
795.0000;0.3850;-0.7665;
795.3000;0.3842;-0.7764;
795.6000;0.3850;-0.7788;
795.9000;0.3834;-0.7813;
796.2000;0.3850;-0.7665;
796.5000;0.3850;-0.7690;
796.8000;0.3842;-0.7640;
797.1000;0.3850;-0.7640;
797.4000;0.3842;-0.7690;
797.7000;0.3850;-0.7616;
798.0000;0.3850;-0.7665;
798.3000;0.3858;-0.7616;
798.6000;0.3850;-0.7591;
798.9000;0.3842;-0.7616;
799.2000;0.3883;-0.7566;
799.5000;0.3826;-0.7739;
799.8000;0.3850;-0.7764;
800.1000;0.3850;-0.7739;
800.4000;0.3842;-0.7665;
800.7000;0.3842;-0.7665;
801.0000;0.3834;-0.7690;
801.3000;0.3850;-0.7640;
801.6000;0.3867;-0.7616;
801.9000;0.3842;-0.7764;
802.2000;0.3826;-0.7714;
802.5000;0.3850;-0.7517;
802.8000;0.3850;-0.7542;
803.1000;0.3850;-0.7517;
803.4000;0.3818;-0.7591;
803.7000;0.3834;-0.7591;
804.0000;0.3834;-0.7616;
804.3000;0.3834;-0.7616;
804.6000;0.3826;-0.7640;
804.9000;0.3810;-0.7665;
805.2000;0.3810;-0.7690;
805.5000;0.3826;-0.7665;
805.8000;0.3826;-0.7739;
806.1000;0.3818;-0.7739;
806.4000;0.3834;-0.7665;
806.7000;0.3818;-0.7616;
807.0000;0.3826;-0.7591;
807.3000;0.3826;-0.7690;
807.6000;0.3826;-0.7665;
807.9000;0.3818;-0.7714;
808.2000;0.3915;-0.7443;
808.5000;0.3810;-0.7591;
808.8000;0.3818;-0.7591;
809.1000;0.3826;-0.7616;
809.4000;0.3842;-0.7591;
809.7000;0.3834;-0.7665;
810.0000;0.3834;-0.7640;
810.3000;0.3834;-0.7616;
810.6000;0.3818;-0.7640;
810.9000;0.3891;-0.7566;
811.2000;0.3826;-0.7665;
811.5000;0.3818;-0.7665;
811.8000;0.3826;-0.7616;
812.1000;0.3842;-0.7616;
812.4000;0.3810;-0.7714;
812.7000;0.3826;-0.7640;
813.0000;0.3850;-0.7517;
813.3000;0.3826;-0.7616;
813.6000;0.3834;-0.7616;
813.9000;0.3818;-0.7591;
814.2000;0.3777;-0.7640;
814.5000;0.3834;-0.7468;
814.8000;0.3850;-0.7468;
815.1000;0.3826;-0.7542;
815.4000;0.3810;-0.7542;
815.7000;0.3834;-0.7517;
816.0000;0.3834;-0.7468;
816.3000;0.3834;-0.7468;
816.6000;0.3907;-0.7394;
816.9000;0.3842;-0.7468;
817.2000;0.3834;-0.7517;
817.5000;0.3826;-0.7517;
817.8000;0.3842;-0.7542;
818.1000;0.3834;-0.7591;
818.4000;0.3818;-0.7616;
818.7000;0.3826;-0.7542;
819.0000;0.3761;-0.7665;
819.3000;0.3810;-0.7566;
819.6000;0.3834;-0.7419;
819.9000;0.3810;-0.7443;
820.2000;0.3769;-0.7566;
820.5000;0.3818;-0.7517;
820.8000;0.3818;-0.7394;
821.1000;0.3801;-0.7369;
821.4000;0.3801;-0.7345;
821.7000;0.3801;-0.7295;
822.0000;0.3777;-0.7320;
822.3000;0.3842;-0.7221;
822.6000;0.3826;-0.7295;
822.9000;0.3826;-0.7271;
823.2000;0.3810;-0.7320;
823.5000;0.3818;-0.7394;
823.8000;0.3793;-0.7468;
824.1000;0.3818;-0.7369;
824.4000;0.3826;-0.7468;
824.7000;0.3810;-0.7542;
825.0000;0.3818;-0.7493;
825.3000;0.3810;-0.7468;
825.6000;0.3801;-0.7493;
825.9000;0.3769;-0.7640;
826.2000;0.3850;-0.7394;
826.5000;0.3818;-0.7493;
826.8000;0.3834;-0.7493;
827.1000;0.3915;-0.7246;
827.4000;0.3793;-0.7542;
827.7000;0.3777;-0.7665;
828.0000;0.3883;-0.7394;
828.3000;0.3810;-0.7566;
828.6000;0.3834;-0.7566;
828.9000;0.3867;-0.7419;
829.2000;0.3810;-0.7493;
829.5000;0.3818;-0.7493;
829.8000;0.3923;-0.7246;
830.1000;0.3801;-0.7665;
830.4000;0.3810;-0.7640;
830.7000;0.3793;-0.7640;
831.0000;0.3810;-0.7566;
831.3000;0.3801;-0.7640;
831.6000;0.3793;-0.7690;
831.9000;0.3818;-0.7690;
832.2000;0.3826;-0.7690;
832.5000;0.3818;-0.7739;
832.8000;0.3842;-0.7640;
833.1000;0.3826;-0.7591;
833.4000;0.3826;-0.7591;
833.7000;0.3826;-0.7616;
834.0000;0.3826;-0.7591;
834.3000;0.3826;-0.7493;
834.6000;0.3826;-0.7542;
834.9000;0.3826;-0.7591;
835.2000;0.3826;-0.7665;
835.5000;0.3801;-0.7690;
835.8000;0.3810;-0.7640;
836.1000;0.3777;-0.7813;
836.4000;0.3793;-0.7665;
836.7000;0.3810;-0.7690;
837.0000;0.3834;-0.7690;
837.3000;0.3834;-0.7690;
837.6000;0.3818;-0.7739;
837.9000;0.3818;-0.7690;
838.2000;0.3712;-0.7961;
838.5000;0.3818;-0.7690;
838.8000;0.3801;-0.7690;
839.1000;0.3793;-0.7764;
839.4000;0.3785;-0.7788;
839.7000;0.3801;-0.7714;
840.0000;0.3810;-0.7714;
840.3000;0.3801;-0.7616;
840.6000;0.3777;-0.7714;
840.9000;0.3801;-0.7591;
841.2000;0.3785;-0.7591;
841.5000;0.3785;-0.7714;
841.8000;0.3801;-0.7690;
842.1000;0.3777;-0.7739;
842.4000;0.3793;-0.7640;
842.7000;0.3793;-0.7616;
843.0000;0.3769;-0.7640;
843.3000;0.3793;-0.7591;
843.6000;0.3810;-0.7591;
843.9000;0.3810;-0.7591;
844.2000;0.3744;-0.7764;
844.5000;0.3777;-0.7714;
844.8000;0.3777;-0.7690;
845.1000;0.3801;-0.7665;
845.4000;0.3785;-0.7764;
845.7000;0.3744;-0.7838;
846.0000;0.3818;-0.7739;
846.3000;0.3793;-0.7764;
846.6000;0.3801;-0.7739;
846.9000;0.3834;-0.7690;
847.2000;0.3801;-0.7764;
847.5000;0.3810;-0.7690;
847.8000;0.3793;-0.7690;
848.1000;0.3818;-0.7591;
848.4000;0.3801;-0.7591;
848.7000;0.3761;-0.7739;
849.0000;0.3785;-0.7690;
849.3000;0.3801;-0.7616;
849.6000;0.3810;-0.7591;
849.9000;0.3867;-0.7394;
850.2000;0.3777;-0.7665;
850.5000;0.3810;-0.7616;
850.8000;0.3818;-0.7566;
851.1000;0.3810;-0.7616;
851.4000;0.3826;-0.7542;
851.7000;0.3753;-0.7665;
852.0000;0.3777;-0.7566;
852.3000;0.3785;-0.7640;
852.6000;0.3818;-0.7616;
852.9000;0.3826;-0.7566;
853.2000;0.3810;-0.7665;
853.5000;0.3801;-0.7640;
853.8000;0.3761;-0.7690;
854.1000;0.3826;-0.7493;
854.4000;0.3793;-0.7542;
854.7000;0.3777;-0.7443;
855.0000;0.3785;-0.7443;
855.3000;0.3785;-0.7419;
855.6000;0.3785;-0.7517;
855.9000;0.3826;-0.7493;
856.2000;0.3810;-0.7493;
856.5000;0.3793;-0.7517;
856.8000;0.3793;-0.7468;
857.1000;0.3793;-0.7468;
857.4000;0.3777;-0.7468;
857.7000;0.3801;-0.7320;
858.0000;0.3826;-0.7320;
858.3000;0.3769;-0.7493;
858.6000;0.3785;-0.7542;
858.9000;0.3801;-0.7468;
859.2000;0.3801;-0.7443;
859.5000;0.3785;-0.7591;
859.8000;0.3810;-0.7419;
860.1000;0.3793;-0.7443;
860.4000;0.3810;-0.7394;
860.7000;0.3744;-0.7591;
861.0000;0.3826;-0.7443;
861.3000;0.3793;-0.7468;
861.6000;0.3810;-0.7419;
861.9000;0.3801;-0.7517;
862.2000;0.3785;-0.7468;
862.5000;0.3793;-0.7517;
862.8000;0.3793;-0.7468;
863.1000;0.3753;-0.7591;
863.4000;0.3801;-0.7493;
863.7000;0.3753;-0.7714;
864.0000;0.3793;-0.7616;
864.3000;0.3793;-0.7517;
864.6000;0.3769;-0.7493;
864.9000;0.3769;-0.7566;
865.2000;0.3761;-0.7542;
865.5000;0.3777;-0.7542;
865.8000;0.3785;-0.7566;
866.1000;0.3826;-0.7369;
866.4000;0.3777;-0.7468;
866.7000;0.3777;-0.7443;
867.0000;0.3769;-0.7542;
867.3000;0.3769;-0.7542;
867.6000;0.3785;-0.7493;
867.9000;0.3785;-0.7468;
868.2000;0.3818;-0.7394;
868.5000;0.3810;-0.7517;
868.8000;0.3769;-0.7591;
869.1000;0.3769;-0.7566;
869.4000;0.3810;-0.7468;
869.7000;0.3785;-0.7517;
870.0000;0.3801;-0.7468;
870.3000;0.3858;-0.7320;
870.6000;0.3818;-0.7468;
870.9000;0.3801;-0.7566;
871.2000;0.3785;-0.7640;
871.5000;0.3834;-0.7566;
871.8000;0.3801;-0.7640;
872.1000;0.3744;-0.7690;
872.4000;0.3834;-0.7320;
872.7000;0.3810;-0.7394;
873.0000;0.3785;-0.7419;
873.3000;0.3769;-0.7419;
873.6000;0.3826;-0.7246;
873.9000;0.3801;-0.7271;
874.2000;0.3785;-0.7271;
874.5000;0.3777;-0.7320;
874.8000;0.3785;-0.7295;
875.1000;0.3769;-0.7345;
875.4000;0.3761;-0.7419;
875.7000;0.3769;-0.7320;
876.0000;0.3793;-0.7221;
876.3000;0.3761;-0.7295;
876.6000;0.3769;-0.7221;
876.9000;0.3769;-0.7221;
877.2000;0.3785;-0.7246;
877.5000;0.3769;-0.7295;
877.8000;0.3785;-0.7295;
878.1000;0.3777;-0.7419;
878.4000;0.3785;-0.7443;
878.7000;0.3777;-0.7517;
879.0000;0.3785;-0.7517;
879.3000;0.3785;-0.7517;
879.6000;0.3777;-0.7542;
879.9000;0.3769;-0.7616;
880.2000;0.3777;-0.7566;
880.5000;0.3793;-0.7591;
880.8000;0.3777;-0.7493;
881.1000;0.3818;-0.7394;
881.4000;0.3785;-0.7468;
881.7000;0.3736;-0.7566;
882.0000;0.3769;-0.7443;
882.3000;0.3777;-0.7419;
882.6000;0.3777;-0.7493;
882.9000;0.3785;-0.7443;
883.2000;0.3785;-0.7468;
883.5000;0.3777;-0.7517;
883.8000;0.3785;-0.7468;
884.1000;0.3785;-0.7468;
884.4000;0.3810;-0.7394;
884.7000;0.3777;-0.7419;
885.0000;0.3785;-0.7394;
885.3000;0.3777;-0.7517;
885.6000;0.3858;-0.7320;
885.9000;0.3753;-0.7566;
886.2000;0.3777;-0.7517;
886.5000;0.3777;-0.7369;
886.8000;0.3761;-0.7443;
887.1000;0.3769;-0.7517;
887.4000;0.3753;-0.7591;
887.7000;0.3785;-0.7591;
888.0000;0.3777;-0.7542;
888.3000;0.3769;-0.7566;
888.6000;0.3793;-0.7493;
888.9000;0.3769;-0.7616;
889.2000;0.3761;-0.7640;
889.5000;0.3793;-0.7493;
889.8000;0.3777;-0.7517;
890.1000;0.3777;-0.7542;
890.4000;0.3777;-0.7542;
890.7000;0.3801;-0.7493;
891.0000;0.3769;-0.7542;
891.3000;0.3753;-0.7443;
891.6000;0.3769;-0.7345;
891.9000;0.3777;-0.7394;
892.2000;0.3728;-0.7542;
892.5000;0.3777;-0.7468;
892.8000;0.3810;-0.7345;
893.1000;0.3777;-0.7369;
893.4000;0.3834;-0.7221;
893.7000;0.3810;-0.7295;
894.0000;0.3777;-0.7320;
894.3000;0.3777;-0.7246;
894.6000;0.3785;-0.7197;
894.9000;0.3793;-0.7123;
895.2000;0.3761;-0.7221;
895.5000;0.3744;-0.7271;
895.8000;0.3769;-0.7295;
896.1000;0.3777;-0.7320;
896.4000;0.3777;-0.7369;
896.7000;0.3744;-0.7394;
897.0000;0.3769;-0.7369;
897.3000;0.3793;-0.7320;
897.6000;0.3761;-0.7345;
897.9000;0.3761;-0.7320;
898.2000;0.3801;-0.7098;
898.5000;0.3753;-0.7197;
898.8000;0.3777;-0.7197;
899.1000;0.3777;-0.7221;
899.4000;0.3761;-0.7369;
899.7000;0.3761;-0.7419;
900.0000;0.3769;-0.7443;
900.3000;0.3801;-0.7369;
900.6000;0.3753;-0.7443;
900.9000;0.3769;-0.7443;
901.2000;0.3744;-0.7517;
901.5000;0.3769;-0.7493;
901.8000;0.3785;-0.7566;
902.1000;0.3769;-0.7493;
902.4000;0.3785;-0.7468;
902.7000;0.3826;-0.7419;
903.0000;0.3761;-0.7542;
903.3000;0.3744;-0.7517;
903.6000;0.3720;-0.7542;
903.9000;0.3777;-0.7419;
904.2000;0.3728;-0.7517;
904.5000;0.3761;-0.7419;
904.8000;0.3793;-0.7369;
905.1000;0.3777;-0.7443;
905.4000;0.3785;-0.7419;
905.7000;0.3704;-0.7616;
906.0000;0.3850;-0.7271;
906.3000;0.3777;-0.7443;
906.6000;0.3777;-0.7419;
906.9000;0.3761;-0.7419;
907.2000;0.3769;-0.7419;
907.5000;0.3842;-0.7197;
907.8000;0.3785;-0.7394;
908.1000;0.3753;-0.7468;
908.4000;0.3769;-0.7394;
908.7000;0.3785;-0.7320;
909.0000;0.3818;-0.7172;
909.3000;0.3777;-0.7246;
909.6000;0.3769;-0.7394;
909.9000;0.3769;-0.7345;
910.2000;0.3801;-0.7345;
910.5000;0.3801;-0.7493;
910.8000;0.3777;-0.7690;
911.1000;0.3777;-0.7542;
911.4000;0.3777;-0.7443;
911.7000;0.3736;-0.7443;
912.0000;0.3728;-0.7566;
912.3000;0.3777;-0.7493;
912.6000;0.3769;-0.7517;
912.9000;0.3850;-0.7295;
913.2000;0.3761;-0.7542;
913.5000;0.3761;-0.7517;
913.8000;0.3785;-0.7443;
914.1000;0.3769;-0.7493;
914.4000;0.3761;-0.7616;
914.7000;0.3761;-0.7468;
915.0000;0.3777;-0.7369;
915.3000;0.3785;-0.7345;
915.6000;0.3744;-0.7443;
915.9000;0.3712;-0.7542;
916.2000;0.3663;-0.7566;
916.5000;0.3761;-0.7369;
916.8000;0.3761;-0.7419;
917.1000;0.3777;-0.7369;
917.4000;0.3761;-0.7345;
917.7000;0.3785;-0.7468;
918.0000;0.3818;-0.7345;
918.3000;0.3753;-0.7419;
918.6000;0.3769;-0.7394;
918.9000;0.3777;-0.7369;
919.2000;0.3801;-0.7221;
919.5000;0.3753;-0.7295;
919.8000;0.3720;-0.7443;
920.1000;0.3785;-0.7345;
920.4000;0.3777;-0.7345;
920.7000;0.3769;-0.7369;
921.0000;0.3761;-0.7345;
921.3000;0.3785;-0.7221;
921.6000;0.3769;-0.7246;
921.9000;0.3769;-0.7197;
922.2000;0.3777;-0.7197;
922.5000;0.3761;-0.7172;
922.8000;0.3753;-0.7271;
923.1000;0.3753;-0.7197;
923.4000;0.3785;-0.7123;
923.7000;0.3753;-0.7197;
924.0000;0.3769;-0.7147;
924.3000;0.3704;-0.7246;
924.6000;0.3761;-0.7074;
924.9000;0.3744;-0.7098;
925.2000;0.3753;-0.7147;
925.5000;0.3769;-0.7098;
925.8000;0.3761;-0.7098;
926.1000;0.3744;-0.7172;
926.4000;0.3785;-0.7197;
926.7000;0.3777;-0.7271;
927.0000;0.3769;-0.7271;
927.3000;0.3744;-0.7345;
927.6000;0.3761;-0.7295;
927.9000;0.3744;-0.7369;
928.2000;0.3769;-0.7443;
928.5000;0.3753;-0.7419;
928.8000;0.3777;-0.7345;
929.1000;0.3761;-0.7394;
929.4000;0.3769;-0.7394;
929.7000;0.3810;-0.7271;
930.0000;0.3793;-0.7246;
930.3000;0.3769;-0.7394;
930.6000;0.3761;-0.7394;
930.9000;0.3769;-0.7345;
931.2000;0.3761;-0.7394;
931.5000;0.3761;-0.7295;
931.8000;0.3753;-0.7320;
932.1000;0.3761;-0.7271;
932.4000;0.3769;-0.7295;
932.7000;0.3753;-0.7320;
933.0000;0.3753;-0.7345;
933.3000;0.3753;-0.7246;
933.6000;0.3736;-0.7295;
933.9000;0.3744;-0.7172;
934.2000;0.3753;-0.7147;
934.5000;0.3801;-0.7147;
934.8000;0.3753;-0.7295;
935.1000;0.3753;-0.7295;
935.4000;0.3761;-0.7271;
935.7000;0.3753;-0.7271;
936.0000;0.3761;-0.7246;
936.3000;0.3753;-0.7295;
936.6000;0.3769;-0.7295;
936.9000;0.3785;-0.7172;
937.2000;0.3744;-0.7295;
937.5000;0.3777;-0.7246;
937.8000;0.3761;-0.7246;
938.1000;0.3818;-0.7074;
938.4000;0.3761;-0.7197;
938.7000;0.3736;-0.7197;
939.0000;0.3769;-0.7098;
939.3000;0.3736;-0.7098;
939.6000;0.3728;-0.7147;
939.9000;0.3744;-0.7123;
940.2000;0.3785;-0.7172;
940.5000;0.3744;-0.7246;
940.8000;0.3777;-0.7271;
941.1000;0.3761;-0.7320;
941.4000;0.3753;-0.7394;
941.7000;0.3769;-0.7271;
942.0000;0.3818;-0.7197;
942.3000;0.3761;-0.7468;
942.6000;0.3753;-0.7517;
942.9000;0.3744;-0.7517;
943.2000;0.3736;-0.7493;
943.5000;0.3753;-0.7369;
943.8000;0.3761;-0.7221;
944.1000;0.3744;-0.7197;
944.4000;0.3769;-0.7172;
944.7000;0.3777;-0.7123;
945.0000;0.3753;-0.7221;
945.3000;0.3736;-0.7271;
945.6000;0.3753;-0.7221;
945.9000;0.3801;-0.7123;
946.2000;0.3753;-0.7295;
946.5000;0.3769;-0.7246;
946.8000;0.3753;-0.7221;
947.1000;0.3810;-0.7049;
947.4000;0.3736;-0.7172;
947.7000;0.3761;-0.7197;
948.0000;0.3736;-0.7197;
948.3000;0.3744;-0.7271;
948.6000;0.3753;-0.7246;
948.9000;0.3777;-0.7123;
949.2000;0.3753;-0.7271;
949.5000;0.3793;-0.7320;
949.8000;0.3777;-0.7221;
950.1000;0.3777;-0.7147;
950.4000;0.3769;-0.7271;
950.7000;0.3769;-0.7295;
951.0000;0.3777;-0.7221;
951.3000;0.3769;-0.7221;
951.6000;0.3761;-0.7345;
951.9000;0.3753;-0.7320;
952.2000;0.3761;-0.7394;
952.5000;0.3761;-0.7419;
952.8000;0.3744;-0.7493;
953.1000;0.3761;-0.7468;
953.4000;0.3769;-0.7468;
953.7000;0.3793;-0.7542;
954.0000;0.3753;-0.7640;
954.3000;0.3761;-0.7665;
954.6000;0.3761;-0.7591;
954.9000;0.3736;-0.7690;
955.2000;0.3736;-0.7690;
955.5000;0.3793;-0.7468;
955.8000;0.3777;-0.7443;
956.1000;0.3761;-0.7443;
956.4000;0.3744;-0.7468;
956.7000;0.3712;-0.7591;
957.0000;0.3753;-0.7517;
957.3000;0.3744;-0.7542;
957.6000;0.3736;-0.7640;
957.9000;0.3720;-0.7616;
958.2000;0.3720;-0.7616;
958.5000;0.3744;-0.7542;
958.8000;0.3761;-0.7468;
959.1000;0.3793;-0.7345;
959.4000;0.3744;-0.7493;
959.7000;0.3761;-0.7468;
960.0000;0.3753;-0.7394;
960.3000;0.3728;-0.7468;
960.6000;0.3744;-0.7295;
960.9000;0.3736;-0.7197;
961.2000;0.3769;-0.7098;
961.5000;0.3761;-0.7197;
961.8000;0.3704;-0.7345;
962.1000;0.3655;-0.7591;
962.4000;0.3728;-0.7443;
962.7000;0.3728;-0.7468;
963.0000;0.3712;-0.7517;
963.3000;0.3671;-0.7566;
963.6000;0.3736;-0.7345;
963.9000;0.3761;-0.7394;
964.2000;0.3720;-0.7517;
964.5000;0.3761;-0.7468;
964.8000;0.3761;-0.7517;
965.1000;0.3769;-0.7493;
965.4000;0.3663;-0.7665;
965.7000;0.3753;-0.7394;
966.0000;0.3744;-0.7394;
966.3000;0.3769;-0.7419;
966.6000;0.3744;-0.7517;
966.9000;0.3744;-0.7468;
967.2000;0.3761;-0.7419;
967.5000;0.3826;-0.7271;
967.8000;0.3793;-0.7369;
968.1000;0.3744;-0.7468;
968.4000;0.3736;-0.7419;
968.7000;0.3810;-0.7246;
969.0000;0.3736;-0.7443;
969.3000;0.3696;-0.7493;
969.6000;0.3744;-0.7345;
969.9000;0.3744;-0.7271;
970.2000;0.3753;-0.7271;
970.5000;0.3744;-0.7320;
970.8000;0.3728;-0.7369;
971.1000;0.3753;-0.7419;
971.4000;0.3753;-0.7443;
971.7000;0.3720;-0.7517;
972.0000;0.3704;-0.7566;
972.3000;0.3728;-0.7493;
972.6000;0.3753;-0.7394;
972.9000;0.3728;-0.7320;
973.2000;0.3736;-0.7295;
973.5000;0.3736;-0.7271;
973.8000;0.3704;-0.7320;
974.1000;0.3728;-0.7369;
974.4000;0.3736;-0.7320;
974.7000;0.3728;-0.7345;
975.0000;0.3744;-0.7271;
975.3000;0.3720;-0.7369;
975.6000;0.3777;-0.7271;
975.9000;0.3753;-0.7419;
976.2000;0.3736;-0.7419;
976.5000;0.3728;-0.7369;
976.8000;0.3753;-0.7394;
977.1000;0.3696;-0.7517;
977.4000;0.3753;-0.7271;
977.7000;0.3793;-0.7197;
978.0000;0.3761;-0.7271;
978.3000;0.3728;-0.7295;
978.6000;0.3736;-0.7246;
978.9000;0.3753;-0.7271;
979.2000;0.3736;-0.7320;
979.5000;0.3753;-0.7271;
979.8000;0.3744;-0.7271;
980.1000;0.3744;-0.7295;
980.4000;0.3753;-0.7320;
980.7000;0.3728;-0.7345;
981.0000;0.3728;-0.7320;
981.3000;0.3761;-0.7320;
981.6000;0.3744;-0.7295;
981.9000;0.3736;-0.7345;
982.2000;0.3712;-0.7369;
982.5000;0.3744;-0.7320;
982.8000;0.3761;-0.7271;
983.1000;0.3753;-0.7394;
983.4000;0.3744;-0.7468;
983.7000;0.3736;-0.7468;
984.0000;0.3753;-0.7468;
984.3000;0.3777;-0.7394;
984.6000;0.3736;-0.7493;
984.9000;0.3736;-0.7443;
985.2000;0.3655;-0.7640;
985.5000;0.3720;-0.7517;
985.8000;0.3753;-0.7517;
986.1000;0.3744;-0.7493;
986.4000;0.3744;-0.7419;
986.7000;0.3744;-0.7369;
987.0000;0.3728;-0.7419;
987.3000;0.3728;-0.7369;
987.6000;0.3736;-0.7345;
987.9000;0.3744;-0.7345;
988.2000;0.3728;-0.7468;
988.5000;0.3687;-0.7566;
988.8000;0.3736;-0.7419;
989.1000;0.3728;-0.7493;
989.4000;0.3696;-0.7591;
989.7000;0.3736;-0.7468;
990.0000;0.3744;-0.7493;
990.3000;0.3720;-0.7493;
990.6000;0.3753;-0.7394;
990.9000;0.3761;-0.7394;
991.2000;0.3736;-0.7468;
991.5000;0.3761;-0.7493;
991.8000;0.3744;-0.7419;
992.1000;0.3744;-0.7394;
992.4000;0.3696;-0.7566;
992.7000;0.3736;-0.7443;
993.0000;0.3744;-0.7443;
993.3000;0.3744;-0.7419;
993.6000;0.3736;-0.7394;
993.9000;0.3728;-0.7419;
994.2000;0.3744;-0.7320;
994.5000;0.3728;-0.7345;
994.8000;0.3744;-0.7295;
995.1000;0.3744;-0.7345;
995.4000;0.3753;-0.7345;
995.7000;0.3744;-0.7369;
996.0000;0.3736;-0.7369;
996.3000;0.3728;-0.7320;
996.6000;0.3761;-0.7271;
996.9000;0.3753;-0.7246;
997.2000;0.3728;-0.7271;
997.5000;0.3736;-0.7246;
997.8000;0.3744;-0.7172;
998.1000;0.3712;-0.7271;
998.4000;0.3753;-0.7172;
998.7000;0.3728;-0.7246;
999.0000;0.3712;-0.7271;
999.3000;0.3736;-0.7147;
999.6000;0.3696;-0.7271;
999.9000;0.3777;-0.7123;
1000.2000;0.3712;-0.7345;
1000.5000;0.3744;-0.7295;
1000.8000;0.3736;-0.7271;
1001.1000;0.3728;-0.7221;
1001.4000;0.3728;-0.7197;
1001.7000;0.3704;-0.7295;
1002.0000;0.3736;-0.7172;
1002.3000;0.3736;-0.7197;
1002.6000;0.3736;-0.7221;
1002.9000;0.3736;-0.7197;
1003.2000;0.3744;-0.7221;
1003.5000;0.3736;-0.7271;
1003.8000;0.3801;-0.7123;
1004.1000;0.3728;-0.7295;
1004.4000;0.3736;-0.7246;
1004.7000;0.3744;-0.7147;
1005.0000;0.3704;-0.7271;
1005.3000;0.3720;-0.7320;
1005.6000;0.3720;-0.7345;
1005.9000;0.3720;-0.7394;
1006.2000;0.3736;-0.7295;
1006.5000;0.3736;-0.7271;
1006.8000;0.3679;-0.7345;
1007.1000;0.3744;-0.7246;
1007.4000;0.3728;-0.7320;
1007.7000;0.3720;-0.7295;
1008.0000;0.3736;-0.7271;
1008.3000;0.3761;-0.7197;
1008.6000;0.3736;-0.7345;
1008.9000;0.3736;-0.7369;
1009.2000;0.3720;-0.7394;
1009.5000;0.3728;-0.7369;
1009.8000;0.3720;-0.7320;
1010.1000;0.3728;-0.7271;
1010.4000;0.3728;-0.7320;
1010.7000;0.3753;-0.7295;
1011.0000;0.3736;-0.7271;
1011.3000;0.3679;-0.7369;
1011.6000;0.3761;-0.7172;
1011.9000;0.3744;-0.7172;
1012.2000;0.3736;-0.7246;
1012.5000;0.3744;-0.7147;
1012.8000;0.3744;-0.7197;
1013.1000;0.3736;-0.7197;
1013.4000;0.3736;-0.7246;
1013.7000;0.3728;-0.7246;
1014.0000;0.3744;-0.7295;
1014.3000;0.3720;-0.7320;
1014.6000;0.3728;-0.7369;
1014.9000;0.3744;-0.7345;
1015.2000;0.3704;-0.7394;
1015.5000;0.3728;-0.7271;
1015.8000;0.3736;-0.7271;
1016.1000;0.3736;-0.7197;
1016.4000;0.3736;-0.7197;
1016.7000;0.3720;-0.7246;
1017.0000;0.3736;-0.7246;
1017.3000;0.3696;-0.7295;
1017.6000;0.3753;-0.7246;
1017.9000;0.3728;-0.7295;
1018.2000;0.3728;-0.7320;
1018.5000;0.3736;-0.7320;
1018.8000;0.3777;-0.7345;
1019.1000;0.3736;-0.7419;
1019.4000;0.3744;-0.7345;
1019.7000;0.3736;-0.7419;
1020.0000;0.3728;-0.7295;
1020.3000;0.3720;-0.7295;
1020.6000;0.3728;-0.7345;
1020.9000;0.3736;-0.7394;
1021.2000;0.3744;-0.7419;
1021.5000;0.3753;-0.7517;
1021.8000;0.3744;-0.7517;
1022.1000;0.3753;-0.7468;
1022.4000;0.3744;-0.7369;
1022.7000;0.3744;-0.7419;
1023.0000;0.3696;-0.7493;
1023.3000;0.3736;-0.7443;
1023.6000;0.3736;-0.7369;
1023.9000;0.3736;-0.7468;
1024.2000;0.3728;-0.7468;
1024.5000;0.3720;-0.7468;
1024.8000;0.3736;-0.7394;
1025.1000;0.3728;-0.7295;
1025.4000;0.3720;-0.7246;
1025.7000;0.3761;-0.7147;
1026.0000;0.3720;-0.7197;
1026.3000;0.3744;-0.7098;
1026.6000;0.3720;-0.7098;
1026.9000;0.3736;-0.7172;
1027.2000;0.3736;-0.7098;
1027.5000;0.3728;-0.7123;
1027.8000;0.3720;-0.7098;
1028.1000;0.3728;-0.7123;
1028.4000;0.3728;-0.7197;
1028.7000;0.3736;-0.7172;
1029.0000;0.3785;-0.7000;
1029.3000;0.3720;-0.7197;
1029.6000;0.3728;-0.7147;
1029.9000;0.3720;-0.7074;
1030.2000;0.3712;-0.7172;
1030.5000;0.3712;-0.7098;
1030.8000;0.3728;-0.7147;
1031.1000;0.3753;-0.7221;
1031.4000;0.3728;-0.7147;
1031.7000;0.3736;-0.7221;
1032.0000;0.3728;-0.7147;
1032.3000;0.3761;-0.7074;
1032.6000;0.3761;-0.7049;
1032.9000;0.3753;-0.7024;
1033.2000;0.3785;-0.7000;
1033.5000;0.3753;-0.7098;
1033.8000;0.3736;-0.7147;
1034.1000;0.3728;-0.7172;
1034.4000;0.3736;-0.7320;
1034.7000;0.3753;-0.7295;
1035.0000;0.3704;-0.7295;
1035.3000;0.3769;-0.7197;
1035.6000;0.3720;-0.7320;
1035.9000;0.3704;-0.7320;
1036.2000;0.3728;-0.7246;
1036.5000;0.3744;-0.7098;
1036.8000;0.3728;-0.7098;
1037.1000;0.3720;-0.7172;
1037.4000;0.3753;-0.7123;
1037.7000;0.3728;-0.7172;
1038.0000;0.3744;-0.7147;
1038.3000;0.3736;-0.7172;
1038.6000;0.3720;-0.7197;
1038.9000;0.3736;-0.7172;
1039.2000;0.3720;-0.7221;
1039.5000;0.3728;-0.7221;
1039.8000;0.3728;-0.7221;
1040.1000;0.3728;-0.7197;
1040.4000;0.3728;-0.7271;
1040.7000;0.3704;-0.7394;
1041.0000;0.3720;-0.7394;
1041.3000;0.3769;-0.7197;
1041.6000;0.3728;-0.7345;
1041.9000;0.3744;-0.7320;
1042.2000;0.3720;-0.7369;
1042.5000;0.3728;-0.7419;
1042.8000;0.3736;-0.7468;
1043.1000;0.3744;-0.7517;
1043.4000;0.3728;-0.7542;
1043.7000;0.3736;-0.7394;
1044.0000;0.3736;-0.7345;
1044.3000;0.3728;-0.7369;
1044.6000;0.3720;-0.7419;
1044.9000;0.3736;-0.7394;
1045.2000;0.3736;-0.7419;
1045.5000;0.3744;-0.7419;
1045.8000;0.3728;-0.7369;
1046.1000;0.3712;-0.7369;
1046.4000;0.3736;-0.7345;
1046.7000;0.3728;-0.7345;
1047.0000;0.3728;-0.7345;
1047.3000;0.3720;-0.7369;
1047.6000;0.3736;-0.7345;
1047.9000;0.3834;-0.7074;
1048.2000;0.3728;-0.7295;
1048.5000;0.3720;-0.7221;
1048.8000;0.3736;-0.7246;
1049.1000;0.3720;-0.7419;
1049.4000;0.3736;-0.7369;
1049.7000;0.3728;-0.7369;
1050.0000;0.3720;-0.7295;
1050.3000;0.3744;-0.7271;
1050.6000;0.3744;-0.7345;
1050.9000;0.3720;-0.7320;
1051.2000;0.3720;-0.7320;
1051.5000;0.3744;-0.7221;
1051.8000;0.3753;-0.7197;
1052.1000;0.3720;-0.7246;
1052.4000;0.3736;-0.7221;
1052.7000;0.3728;-0.7271;
1053.0000;0.3744;-0.7221;
1053.3000;0.3712;-0.7419;
1053.6000;0.3744;-0.7394;
1053.9000;0.3736;-0.7345;
1054.2000;0.3736;-0.7369;
1054.5000;0.3728;-0.7443;
1054.8000;0.3671;-0.7665;
1055.1000;0.3720;-0.7468;
1055.4000;0.3720;-0.7493;
1055.7000;0.3712;-0.7443;
1056.0000;0.3736;-0.7345;
1056.3000;0.3712;-0.7369;
1056.6000;0.3712;-0.7295;
1056.9000;0.3744;-0.7246;
1057.2000;0.3744;-0.7345;
1057.5000;0.3818;-0.7049;
1057.8000;0.3769;-0.7074;
1058.1000;0.3744;-0.7024;
1058.4000;0.3736;-0.7024;
1058.7000;0.3736;-0.7074;
1059.0000;0.3736;-0.7123;
1059.3000;0.3655;-0.7369;
1059.6000;0.3728;-0.7147;
1059.9000;0.3728;-0.6975;
1060.2000;0.3744;-0.6876;
1060.5000;0.3818;-0.6753;
1060.8000;0.3753;-0.7024;
1061.1000;0.3744;-0.7074;
1061.4000;0.3728;-0.7147;
1061.7000;0.3736;-0.7123;
1062.0000;0.3744;-0.7123;
1062.3000;0.3728;-0.7221;
1062.6000;0.3744;-0.7271;
1062.9000;0.3744;-0.7320;
1063.2000;0.3753;-0.7320;
1063.5000;0.3728;-0.7246;
1063.8000;0.3744;-0.7197;
1064.1000;0.3687;-0.7320;
1064.4000;0.3736;-0.7246;
1064.7000;0.3720;-0.7246;
1065.0000;0.3712;-0.7221;
1065.3000;0.3728;-0.7246;
1065.6000;0.3720;-0.7320;
1065.9000;0.3712;-0.7345;
1066.2000;0.3720;-0.7419;
1066.5000;0.3736;-0.7443;
1066.8000;0.3712;-0.7468;
1067.1000;0.3728;-0.7419;
1067.4000;0.3728;-0.7419;
1067.7000;0.3728;-0.7394;
1068.0000;0.3736;-0.7394;
1068.3000;0.3744;-0.7320;
1068.6000;0.3736;-0.7221;
1068.9000;0.3744;-0.7172;
1069.2000;0.3753;-0.7147;
1069.5000;0.3720;-0.7246;
1069.8000;0.3753;-0.7197;
1070.1000;0.3704;-0.7320;
1070.4000;0.3720;-0.7369;
1070.7000;0.3728;-0.7345;
1071.0000;0.3720;-0.7295;
1071.3000;0.3736;-0.7271;
1071.6000;0.3753;-0.7246;
1071.9000;0.3744;-0.7246;
1072.2000;0.3753;-0.7147;
1072.5000;0.3736;-0.7172;
1072.8000;0.3704;-0.7197;
1073.1000;0.3801;-0.7049;
1073.4000;0.3736;-0.7246;
1073.7000;0.3736;-0.7271;
1074.0000;0.3720;-0.7295;
1074.3000;0.3728;-0.7295;
1074.6000;0.3736;-0.7295;
1074.9000;0.3761;-0.7221;
1075.2000;0.3696;-0.7369;
1075.5000;0.3744;-0.7271;
1075.8000;0.3712;-0.7419;
1076.1000;0.3744;-0.7271;
1076.4000;0.3687;-0.7345;
1076.7000;0.3736;-0.7172;
1077.0000;0.3728;-0.7123;
1077.3000;0.3777;-0.7049;
1077.6000;0.3728;-0.7246;
1077.9000;0.3712;-0.7345;
1078.2000;0.3728;-0.7345;
1078.5000;0.3736;-0.7271;
1078.8000;0.3744;-0.7271;
1079.1000;0.3777;-0.7098;
1079.4000;0.3687;-0.7295;
1079.7000;0.3720;-0.7197;
1080.0000;0.3712;-0.7295;
1080.3000;0.3761;-0.7221;
1080.6000;0.3720;-0.7271;
1080.9000;0.3728;-0.7221;
1081.2000;0.3712;-0.7246;
1081.5000;0.3663;-0.7394;
1081.8000;0.3704;-0.7246;
1082.1000;0.3720;-0.7271;
1082.4000;0.3728;-0.7197;
1082.7000;0.3712;-0.7221;
1083.0000;0.3736;-0.7320;
1083.3000;0.3744;-0.7369;
1083.6000;0.3744;-0.7271;
1083.9000;0.3728;-0.7271;
1084.2000;0.3720;-0.7345;
1084.5000;0.3712;-0.7271;
1084.8000;0.3712;-0.7172;
1085.1000;0.3663;-0.7295;
1085.4000;0.3728;-0.7049;
1085.7000;0.3728;-0.7123;
1086.0000;0.3671;-0.7295;
1086.3000;0.3696;-0.7197;
1086.6000;0.3728;-0.7246;
1086.9000;0.3728;-0.7246;
1087.2000;0.3736;-0.7221;
1087.5000;0.3712;-0.7320;
1087.8000;0.3736;-0.7271;
1088.1000;0.3647;-0.7493;
1088.4000;0.3720;-0.7246;
1088.7000;0.3720;-0.7221;
1089.0000;0.3736;-0.7147;
1089.3000;0.3720;-0.7295;
1089.6000;0.3704;-0.7295;
1089.9000;0.3712;-0.7246;
1090.2000;0.3728;-0.7197;
1090.5000;0.3720;-0.7197;
1090.8000;0.3736;-0.7147;
1091.1000;0.3728;-0.7197;
1091.4000;0.3728;-0.7197;
1091.7000;0.3769;-0.7197;
1092.0000;0.3704;-0.7345;
1092.3000;0.3736;-0.7147;
1092.6000;0.3785;-0.7024;
1092.9000;0.3736;-0.7221;
1093.2000;0.3744;-0.7172;
1093.5000;0.3728;-0.7123;
1093.8000;0.3785;-0.7049;
1094.1000;0.3777;-0.7147;
1094.4000;0.3720;-0.7271;
1094.7000;0.3753;-0.7123;
1095.0000;0.3728;-0.7295;
1095.3000;0.3736;-0.7345;
1095.6000;0.3696;-0.7517;
1095.9000;0.3712;-0.7394;
1096.2000;0.3720;-0.7493;
1096.5000;0.3736;-0.7443;
1096.8000;0.3647;-0.7616;
1097.1000;0.3720;-0.7394;
1097.4000;0.3736;-0.7443;
1097.7000;0.3720;-0.7493;
1098.0000;0.3720;-0.7517;
1098.3000;0.3712;-0.7542;
1098.6000;0.3712;-0.7566;
1098.9000;0.3712;-0.7566;
1099.2000;0.3728;-0.7468;
1099.5000;0.3728;-0.7517;
1099.8000;0.3712;-0.7369;
1100.1000;0.3720;-0.7295;
1100.4000;0.3720;-0.7197;
1100.7000;0.3720;-0.7197;
1101.0000;0.3720;-0.7197;
1101.3000;0.3761;-0.7049;
1101.6000;0.3720;-0.7147;
1101.9000;0.3736;-0.7098;
1102.2000;0.3720;-0.7049;
1102.5000;0.3736;-0.6950;
1102.8000;0.3728;-0.7049;
1103.1000;0.3704;-0.7074;
1103.4000;0.3720;-0.7000;
1103.7000;0.3712;-0.7049;
1104.0000;0.3728;-0.7074;
1104.3000;0.3712;-0.7024;
1104.6000;0.3728;-0.7049;
1104.9000;0.3728;-0.7197;
1105.2000;0.3720;-0.7320;
1105.5000;0.3720;-0.7295;
1105.8000;0.3704;-0.7271;
1106.1000;0.3696;-0.7197;
1106.4000;0.3728;-0.7123;
1106.7000;0.3744;-0.7098;
1107.0000;0.3720;-0.7147;
1107.3000;0.3687;-0.7246;
1107.6000;0.3728;-0.7172;
1107.9000;0.3736;-0.7147;
1108.2000;0.3720;-0.7221;
1108.5000;0.3728;-0.7246;
1108.8000;0.3753;-0.7123;
1109.1000;0.3736;-0.7172;
1109.4000;0.3744;-0.7172;
1109.7000;0.3720;-0.7147;
1110.0000;0.3720;-0.7147;
1110.3000;0.3630;-0.7369;
1110.6000;0.3704;-0.7123;
1110.9000;0.3712;-0.7049;
1111.2000;0.3712;-0.7049;
1111.5000;0.3712;-0.6975;
1111.8000;0.3728;-0.6950;
1112.1000;0.3720;-0.6950;
1112.4000;0.3728;-0.6975;
1112.7000;0.3720;-0.6926;
1113.0000;0.3744;-0.6901;
1113.3000;0.3753;-0.6926;
1113.6000;0.3728;-0.7024;
1113.9000;0.3720;-0.6975;
1114.2000;0.3728;-0.6950;
1114.5000;0.3736;-0.6926;
1114.8000;0.3736;-0.7098;
1115.1000;0.3712;-0.7074;
1115.4000;0.3744;-0.7049;
1115.7000;0.3761;-0.7000;
1116.0000;0.3728;-0.7098;
1116.3000;0.3720;-0.7049;
1116.6000;0.3696;-0.7098;
1116.9000;0.3728;-0.7049;
1117.2000;0.3753;-0.7074;
1117.5000;0.3720;-0.7123;
1117.8000;0.3728;-0.7074;
1118.1000;0.3728;-0.7147;
1118.4000;0.3728;-0.7221;
1118.7000;0.3777;-0.7049;
1119.0000;0.3728;-0.7172;
1119.3000;0.3744;-0.7147;
1119.6000;0.3728;-0.7295;
1119.9000;0.3720;-0.7345;
1120.2000;0.3720;-0.7295;
1120.5000;0.3777;-0.7221;
1120.8000;0.3744;-0.7246;
1121.1000;0.3736;-0.7246;
1121.4000;0.3720;-0.7320;
1121.7000;0.3744;-0.7246;
1122.0000;0.3720;-0.7320;
1122.3000;0.3712;-0.7345;
1122.6000;0.3696;-0.7320;
1122.9000;0.3712;-0.7295;
1123.2000;0.3712;-0.7345;
1123.5000;0.3720;-0.7221;
1123.8000;0.3712;-0.7271;
1124.1000;0.3704;-0.7221;
1124.4000;0.3720;-0.7147;
1124.7000;0.3712;-0.7172;
1125.0000;0.3728;-0.7147;
1125.3000;0.3704;-0.7147;
1125.6000;0.3704;-0.7172;
1125.9000;0.3728;-0.7049;
1126.2000;0.3712;-0.7049;
1126.5000;0.3704;-0.7123;
1126.8000;0.3712;-0.7123;
1127.1000;0.3720;-0.7074;
1127.4000;0.3712;-0.6950;
1127.7000;0.3704;-0.7049;
1128.0000;0.3720;-0.7098;
1128.3000;0.3712;-0.7147;
1128.6000;0.3712;-0.7147;
1128.9000;0.3712;-0.7172;
1129.2000;0.3720;-0.7098;
1129.5000;0.3728;-0.7049;
1129.8000;0.3687;-0.7098;
1130.1000;0.3704;-0.7074;
1130.4000;0.3704;-0.7074;
1130.7000;0.3720;-0.7147;
1131.0000;0.3720;-0.7221;
1131.3000;0.3687;-0.7369;
1131.6000;0.3704;-0.7419;
1131.9000;0.3712;-0.7468;
1132.2000;0.3736;-0.7369;
1132.5000;0.3712;-0.7443;
1132.8000;0.3720;-0.7320;
1133.1000;0.3728;-0.7221;
1133.4000;0.3753;-0.7123;
1133.7000;0.3712;-0.7197;
1134.0000;0.3712;-0.7074;
1134.3000;0.3687;-0.7123;
1134.6000;0.3744;-0.6950;
1134.9000;0.3720;-0.6975;
1135.2000;0.3712;-0.7024;
1135.5000;0.3720;-0.7049;
1135.8000;0.3720;-0.7074;
1136.1000;0.3720;-0.7147;
1136.4000;0.3720;-0.7098;
1136.7000;0.3696;-0.7147;
1137.0000;0.3736;-0.7000;
1137.3000;0.3728;-0.7024;
1137.6000;0.3712;-0.7098;
1137.9000;0.3712;-0.7147;
1138.2000;0.3720;-0.7147;
1138.5000;0.3720;-0.7123;
1138.8000;0.3736;-0.7049;
1139.1000;0.3736;-0.7098;
1139.4000;0.3728;-0.7197;
1139.7000;0.3728;-0.7271;
1140.0000;0.3720;-0.7271;
1140.3000;0.3720;-0.7369;
1140.6000;0.3720;-0.7246;
1140.9000;0.3728;-0.7246;
1141.2000;0.3696;-0.7271;
1141.5000;0.3712;-0.7197;
1141.8000;0.3720;-0.7098;
1142.1000;0.3720;-0.7074;
1142.4000;0.3744;-0.7074;
1142.7000;0.3769;-0.7024;
1143.0000;0.3728;-0.7197;
1143.3000;0.3712;-0.7172;
1143.6000;0.3696;-0.7123;
1143.9000;0.3720;-0.7123;
1144.2000;0.3728;-0.7098;
1144.5000;0.3720;-0.7147;
1144.8000;0.3728;-0.7197;
1145.1000;0.3736;-0.7123;
1145.4000;0.3744;-0.7049;
1145.7000;0.3720;-0.7024;
1146.0000;0.3712;-0.7049;
1146.3000;0.3696;-0.7074;
1146.6000;0.3728;-0.7049;
1146.9000;0.3712;-0.7074;
1147.2000;0.3728;-0.7024;
1147.5000;0.3720;-0.7147;
1147.8000;0.3720;-0.7098;
1148.1000;0.3769;-0.6926;
1148.4000;0.3712;-0.7049;
1148.7000;0.3720;-0.7024;
1149.0000;0.3704;-0.7074;
1149.3000;0.3712;-0.7074;
1149.6000;0.3720;-0.7074;
1149.9000;0.3696;-0.7049;
1150.2000;0.3696;-0.7000;
1150.5000;0.3712;-0.6926;
1150.8000;0.3712;-0.6926;
1151.1000;0.3671;-0.7074;
1151.4000;0.3712;-0.7024;
1151.7000;0.3696;-0.7049;
1152.0000;0.3687;-0.7049;
1152.3000;0.3720;-0.6950;
1152.6000;0.3704;-0.6901;
1152.9000;0.3704;-0.6876;
1153.2000;0.3696;-0.7000;
1153.5000;0.3696;-0.7000;
1153.8000;0.3712;-0.7000;
1154.1000;0.3720;-0.7000;
1154.4000;0.3720;-0.7024;
1154.7000;0.3712;-0.6975;
1155.0000;0.3720;-0.7000;
1155.3000;0.3712;-0.7000;
1155.6000;0.3736;-0.6926;
1155.9000;0.3720;-0.6926;
1156.2000;0.3736;-0.6975;
1156.5000;0.3712;-0.7024;
1156.8000;0.3712;-0.7049;
1157.1000;0.3696;-0.7098;
1157.4000;0.3728;-0.7098;
1157.7000;0.3712;-0.7049;
1158.0000;0.3712;-0.6975;
1158.3000;0.3704;-0.7123;
1158.6000;0.3728;-0.7098;
1158.9000;0.3712;-0.7172;
1159.2000;0.3720;-0.7147;
1159.5000;0.3712;-0.7147;
1159.8000;0.3712;-0.7197;
1160.1000;0.3720;-0.7172;
1160.4000;0.3728;-0.7098;
1160.7000;0.3736;-0.7049;
1161.0000;0.3712;-0.7123;
1161.3000;0.3712;-0.7049;
1161.6000;0.3720;-0.7074;
1161.9000;0.3712;-0.7147;
1162.2000;0.3736;-0.7123;
1162.5000;0.3712;-0.7271;
1162.8000;0.3663;-0.7517;
1163.1000;0.3696;-0.7320;
1163.4000;0.3712;-0.7246;
1163.7000;0.3712;-0.7295;
1164.0000;0.3720;-0.7221;
1164.3000;0.3712;-0.7295;
1164.6000;0.3696;-0.7345;
1164.9000;0.3704;-0.7345;
1165.2000;0.3712;-0.7394;
1165.5000;0.3704;-0.7369;
1165.8000;0.3712;-0.7271;
1166.1000;0.3712;-0.7295;
1166.4000;0.3720;-0.7246;
1166.7000;0.3712;-0.7172;
1167.0000;0.3761;-0.7024;
1167.3000;0.3720;-0.7221;
1167.6000;0.3720;-0.7320;
1167.9000;0.3736;-0.7221;
1168.2000;0.3712;-0.7320;
1168.5000;0.3736;-0.7246;
1168.8000;0.3720;-0.7197;
1169.1000;0.3720;-0.7197;
1169.4000;0.3728;-0.7123;
1169.7000;0.3704;-0.7197;
1170.0000;0.3720;-0.7271;
1170.3000;0.3663;-0.7320;
1170.6000;0.3728;-0.7197;
1170.9000;0.3736;-0.7197;
1171.2000;0.3712;-0.7246;
1171.5000;0.3728;-0.7271;
1171.8000;0.3744;-0.7147;
1172.1000;0.3712;-0.7197;
1172.4000;0.3614;-0.7468;
1172.7000;0.3704;-0.7271;
1173.0000;0.3704;-0.7197;
1173.3000;0.3704;-0.7147;
1173.6000;0.3696;-0.7246;
1173.9000;0.3704;-0.7172;
1174.2000;0.3736;-0.7172;
1174.5000;0.3720;-0.7246;
1174.8000;0.3736;-0.7246;
1175.1000;0.3712;-0.7369;
1175.4000;0.3720;-0.7320;
1175.7000;0.3712;-0.7369;
1176.0000;0.3720;-0.7295;
1176.3000;0.3720;-0.7221;
1176.6000;0.3720;-0.7197;
1176.9000;0.3720;-0.7197;
1177.2000;0.3712;-0.7172;
1177.5000;0.3720;-0.7098;
1177.8000;0.3720;-0.7074;
1178.1000;0.3687;-0.7221;
1178.4000;0.3753;-0.7049;
1178.7000;0.3696;-0.7197;
1179.0000;0.3720;-0.7147;
1179.3000;0.3704;-0.7246;
1179.6000;0.3712;-0.7246;
1179.9000;0.3704;-0.7172;
1180.2000;0.3704;-0.7147;
1180.5000;0.3736;-0.7098;
1180.8000;0.3728;-0.7098;
1181.1000;0.3736;-0.7049;
1181.4000;0.3647;-0.7320;
1181.7000;0.3728;-0.7172;
1182.0000;0.3720;-0.7221;
1182.3000;0.3720;-0.7221;
1182.6000;0.3712;-0.7221;
1182.9000;0.3671;-0.7295;
1183.2000;0.3728;-0.7147;
1183.5000;0.3704;-0.7221;
1183.8000;0.3696;-0.7419;
1184.1000;0.3720;-0.7419;
1184.4000;0.3712;-0.7320;
1184.7000;0.3744;-0.7246;
1185.0000;0.3655;-0.7443;
1185.3000;0.3712;-0.7271;
1185.6000;0.3704;-0.7246;
1185.9000;0.3728;-0.7147;
1186.2000;0.3728;-0.7197;
1186.5000;0.3720;-0.7172;
1186.8000;0.3720;-0.7147;
1187.1000;0.3744;-0.7024;
1187.4000;0.3712;-0.7074;
1187.7000;0.3696;-0.7098;
1188.0000;0.3679;-0.7197;
1188.3000;0.3712;-0.7147;
1188.6000;0.3728;-0.7098;
1188.9000;0.3704;-0.7147;
1189.2000;0.3696;-0.7147;
1189.5000;0.3696;-0.7221;
1189.8000;0.3744;-0.7123;
1190.1000;0.3720;-0.7271;
1190.4000;0.3704;-0.7369;
1190.7000;0.3728;-0.7221;
1191.0000;0.3744;-0.7197;
1191.3000;0.3712;-0.7295;
1191.6000;0.3753;-0.7221;
1191.9000;0.3728;-0.7271;
1192.2000;0.3704;-0.7295;
1192.5000;0.3728;-0.7271;
1192.8000;0.3744;-0.7172;
1193.1000;0.3720;-0.7221;
1193.4000;0.3687;-0.7369;
1193.7000;0.3728;-0.7369;
1194.0000;0.3728;-0.7394;
1194.3000;0.3728;-0.7369;
1194.6000;0.3728;-0.7493;
1194.9000;0.3720;-0.7517;
1195.2000;0.3704;-0.7394;
1195.5000;0.3712;-0.7320;
1195.8000;0.3769;-0.7147;
1196.1000;0.3728;-0.7197;
1196.4000;0.3704;-0.7271;
1196.7000;0.3687;-0.7394;
1197.0000;0.3728;-0.7320;
1197.3000;0.3712;-0.7320;
1197.6000;0.3720;-0.7295;
1197.9000;0.3712;-0.7345;
1198.2000;0.3712;-0.7394;
1198.5000;0.3728;-0.7295;
1198.8000;0.3720;-0.7271;
1199.1000;0.3712;-0.7345;
1199.4000;0.3712;-0.7369;
1199.7000;0.3728;-0.7271;
1200.0000;0.3712;-0.7271;
1200.3000;0.3736;-0.7271;
1200.6000;0.3712;-0.7345;
1200.9000;0.3728;-0.7246;
1201.2000;0.3728;-0.7172;
1201.5000;0.3712;-0.7246;
1201.8000;0.3720;-0.7345;
1202.1000;0.3720;-0.7295;
1202.4000;0.3793;-0.7098;
1202.7000;0.3728;-0.7369;
1203.0000;0.3712;-0.7443;
1203.3000;0.3769;-0.7345;
1203.6000;0.3728;-0.7493;
1203.9000;0.3801;-0.7271;
1204.2000;0.3679;-0.7493;
1204.5000;0.3728;-0.7443;
1204.8000;0.3720;-0.7517;
1205.1000;0.3712;-0.7468;
1205.4000;0.3712;-0.7468;
1205.7000;0.3720;-0.7419;
1206.0000;0.3704;-0.7443;
1206.3000;0.3712;-0.7468;
1206.6000;0.3712;-0.7419;
1206.9000;0.3696;-0.7443;
1207.2000;0.3704;-0.7394;
1207.5000;0.3720;-0.7271;
1207.8000;0.3712;-0.7295;
1208.1000;0.3720;-0.7221;
1208.4000;0.3696;-0.7246;
1208.7000;0.3712;-0.7197;
1209.0000;0.3704;-0.7221;
1209.3000;0.3712;-0.7271;
1209.6000;0.3712;-0.7172;
1209.9000;0.3712;-0.7074;
1210.2000;0.3753;-0.7074;
1210.5000;0.3704;-0.7295;
1210.8000;0.3712;-0.7320;
1211.1000;0.3720;-0.7320;
1211.4000;0.3728;-0.7369;
1211.7000;0.3769;-0.7246;
1212.0000;0.3712;-0.7443;
1212.3000;0.3720;-0.7394;
1212.6000;0.3769;-0.7271;
1212.9000;0.3712;-0.7369;
1213.2000;0.3753;-0.7345;
1213.5000;0.3728;-0.7295;
1213.8000;0.3704;-0.7345;
1214.1000;0.3704;-0.7246;
1214.4000;0.3720;-0.7197;
1214.7000;0.3720;-0.7221;
1215.0000;0.3720;-0.7221;
1215.3000;0.3744;-0.7246;
1215.6000;0.3720;-0.7197;
1215.9000;0.3720;-0.7295;
1216.2000;0.3728;-0.7246;
1216.5000;0.3720;-0.7295;
1216.8000;0.3696;-0.7320;
1217.1000;0.3728;-0.7271;
1217.4000;0.3720;-0.7271;
1217.7000;0.3720;-0.7345;
1218.0000;0.3761;-0.7246;
1218.3000;0.3720;-0.7295;
1218.6000;0.3704;-0.7271;
1218.9000;0.3712;-0.7271;
1219.2000;0.3687;-0.7320;
1219.5000;0.3639;-0.7443;
1219.8000;0.3704;-0.7271;
1220.1000;0.3712;-0.7295;
1220.4000;0.3712;-0.7295;
1220.7000;0.3728;-0.7246;
1221.0000;0.3712;-0.7295;
1221.3000;0.3736;-0.7271;
1221.6000;0.3720;-0.7271;
1221.9000;0.3720;-0.7246;
1222.2000;0.3712;-0.7172;
1222.5000;0.3704;-0.7246;
1222.8000;0.3728;-0.7123;
1223.1000;0.3712;-0.7197;
1223.4000;0.3744;-0.7172;
1223.7000;0.3712;-0.7197;
1224.0000;0.3736;-0.7147;
1224.3000;0.3679;-0.7295;
1224.6000;0.3712;-0.7172;
1224.9000;0.3720;-0.7246;
1225.2000;0.3712;-0.7295;
1225.5000;0.3704;-0.7369;
1225.8000;0.3712;-0.7345;
1226.1000;0.3712;-0.7295;
1226.4000;0.3736;-0.7271;
1226.7000;0.3744;-0.7271;
1227.0000;0.3696;-0.7394;
1227.3000;0.3728;-0.7320;
1227.6000;0.3728;-0.7369;
1227.9000;0.3728;-0.7443;
1228.2000;0.3704;-0.7443;
1228.5000;0.3728;-0.7394;
1228.8000;0.3744;-0.7394;
1229.1000;0.3744;-0.7419;
1229.4000;0.3744;-0.7394;
1229.7000;0.3744;-0.7443;
1230.0000;0.3687;-0.7517;
1230.3000;0.3712;-0.7468;
1230.6000;0.3704;-0.7443;
1230.9000;0.3712;-0.7419;
1231.2000;0.3704;-0.7394;
1231.5000;0.3736;-0.7369;
1231.8000;0.3728;-0.7493;
1232.1000;0.3761;-0.7345;
1232.4000;0.3720;-0.7443;
1232.7000;0.3704;-0.7493;
1233.0000;0.3712;-0.7345;
1233.3000;0.3728;-0.7320;
1233.6000;0.3712;-0.7369;
1233.9000;0.3777;-0.7197;
1234.2000;0.3671;-0.7394;
1234.5000;0.3720;-0.7295;
1234.8000;0.3696;-0.7369;
1235.1000;0.3744;-0.7295;
1235.4000;0.3712;-0.7320;
1235.7000;0.3720;-0.7345;
1236.0000;0.3753;-0.7369;
1236.3000;0.3744;-0.7345;
1236.6000;0.3736;-0.7320;
1236.9000;0.3720;-0.7320;
1237.2000;0.3720;-0.7394;
1237.5000;0.3744;-0.7369;
1237.8000;0.3736;-0.7320;
1238.1000;0.3704;-0.7345;
1238.4000;0.3720;-0.7295;
1238.7000;0.3753;-0.7271;
1239.0000;0.3720;-0.7468;
1239.3000;0.3744;-0.7369;
1239.6000;0.3720;-0.7419;
1239.9000;0.3728;-0.7468;
1240.2000;0.3679;-0.7542;
1240.5000;0.3728;-0.7369;
1240.8000;0.3720;-0.7419;
1241.1000;0.3720;-0.7345;
1241.4000;0.3696;-0.7468;
1241.7000;0.3696;-0.7443;
1242.0000;0.3712;-0.7419;
1242.3000;0.3687;-0.7394;
1242.6000;0.3704;-0.7320;
1242.9000;0.3712;-0.7295;
1243.2000;0.3712;-0.7320;
1243.5000;0.3663;-0.7345;
1243.8000;0.3720;-0.7221;
1244.1000;0.3712;-0.7172;
1244.4000;0.3712;-0.7246;
1244.7000;0.3720;-0.7221;
1245.0000;0.3704;-0.7271;
1245.3000;0.3744;-0.7172;
1245.6000;0.3720;-0.7221;
1245.9000;0.3712;-0.7271;
1246.2000;0.3704;-0.7246;
1246.5000;0.3720;-0.7320;
1246.8000;0.3712;-0.7271;
1247.1000;0.3720;-0.7246;
1247.4000;0.3720;-0.7271;
1247.7000;0.3744;-0.7147;
1248.0000;0.3736;-0.7123;
1248.3000;0.3720;-0.7221;
1248.6000;0.3720;-0.7197;
1248.9000;0.3728;-0.7147;
1249.2000;0.3736;-0.7147;
1249.5000;0.3728;-0.7172;
1249.8000;0.3712;-0.7172;
1250.1000;0.3736;-0.7123;
1250.4000;0.3679;-0.7246;
1250.7000;0.3704;-0.7246;
1251.0000;0.3720;-0.7246;
1251.3000;0.3704;-0.7221;
1251.6000;0.3736;-0.7098;
1251.9000;0.3769;-0.7049;
1252.2000;0.3720;-0.7123;
1252.5000;0.3744;-0.7172;
1252.8000;0.3736;-0.7197;
1253.1000;0.3720;-0.7147;
1253.4000;0.3728;-0.7172;
1253.7000;0.3736;-0.7221;
1254.0000;0.3720;-0.7197;
1254.3000;0.3704;-0.7271;
1254.6000;0.3736;-0.7320;
1254.9000;0.3728;-0.7320;
1255.2000;0.3720;-0.7271;
1255.5000;0.3704;-0.7295;
1255.8000;0.3712;-0.7271;
1256.1000;0.3704;-0.7320;
1256.4000;0.3704;-0.7345;
1256.7000;0.3712;-0.7419;
1257.0000;0.3696;-0.7419;
1257.3000;0.3704;-0.7345;
1257.6000;0.3704;-0.7295;
1257.9000;0.3712;-0.7295;
1258.2000;0.3720;-0.7320;
1258.5000;0.3736;-0.7271;
1258.8000;0.3704;-0.7369;
1259.1000;0.3696;-0.7419;
1259.4000;0.3704;-0.7443;
1259.7000;0.3736;-0.7369;
1260.0000;0.3687;-0.7394;
1260.3000;0.3687;-0.7369;
1260.6000;0.3728;-0.7246;
1260.9000;0.3712;-0.7172;
1261.2000;0.3728;-0.7074;
1261.5000;0.3744;-0.6901;
1261.8000;0.3704;-0.7049;
1262.1000;0.3720;-0.7024;
1262.4000;0.3712;-0.7049;
1262.7000;0.3704;-0.7074;
1263.0000;0.3712;-0.7024;
1263.3000;0.3687;-0.7098;
1263.6000;0.3704;-0.7147;
1263.9000;0.3728;-0.7172;
1264.2000;0.3687;-0.7197;
1264.5000;0.3663;-0.7271;
1264.8000;0.3720;-0.7172;
1265.1000;0.3736;-0.7197;
1265.4000;0.3704;-0.7295;
1265.7000;0.3696;-0.7369;
1266.0000;0.3696;-0.7394;
1266.3000;0.3696;-0.7419;
1266.6000;0.3704;-0.7443;
1266.9000;0.3679;-0.7468;
1267.2000;0.3704;-0.7345;
1267.5000;0.3744;-0.7320;
1267.8000;0.3761;-0.7369;
1268.1000;0.3720;-0.7369;
1268.4000;0.3720;-0.7394;
1268.7000;0.3704;-0.7443;
1269.0000;0.3696;-0.7517;
1269.3000;0.3704;-0.7616;
1269.6000;0.3704;-0.7640;
1269.9000;0.3736;-0.7616;
1270.2000;0.3736;-0.7542;
1270.5000;0.3704;-0.7493;
1270.8000;0.3704;-0.7443;
1271.1000;0.3712;-0.7419;
1271.4000;0.3687;-0.7394;
1271.7000;0.3704;-0.7394;
1272.0000;0.3720;-0.7443;
1272.3000;0.3704;-0.7369;
1272.6000;0.3728;-0.7320;
1272.9000;0.3728;-0.7295;
1273.2000;0.3696;-0.7345;
1273.5000;0.3720;-0.7271;
1273.8000;0.3753;-0.7172;
1274.1000;0.3704;-0.7221;
1274.4000;0.3704;-0.7320;
1274.7000;0.3720;-0.7369;
1275.0000;0.3720;-0.7419;
1275.3000;0.3769;-0.7295;
1275.6000;0.3712;-0.7468;
1275.9000;0.3712;-0.7419;
1276.2000;0.3720;-0.7345;
1276.5000;0.3712;-0.7419;
1276.8000;0.3728;-0.7468;
1277.1000;0.3712;-0.7566;
1277.4000;0.3712;-0.7443;
1277.7000;0.3696;-0.7517;
1278.0000;0.3720;-0.7369;
1278.3000;0.3712;-0.7419;
1278.6000;0.3704;-0.7394;
1278.9000;0.3704;-0.7517;
1279.2000;0.3728;-0.7419;
1279.5000;0.3712;-0.7394;
1279.8000;0.3720;-0.7295;
1280.1000;0.3810;-0.7049;
1280.4000;0.3720;-0.7271;
1280.7000;0.3704;-0.7320;
1281.0000;0.3671;-0.7295;
1281.3000;0.3728;-0.7246;
1281.6000;0.3630;-0.7566;
1281.9000;0.3720;-0.7295;
1282.2000;0.3712;-0.7369;
1282.5000;0.3712;-0.7419;
1282.8000;0.3671;-0.7493;
1283.1000;0.3720;-0.7394;
1283.4000;0.3712;-0.7468;
1283.7000;0.3736;-0.7345;
1284.0000;0.3744;-0.7271;
1284.3000;0.3728;-0.7271;
1284.6000;0.3696;-0.7345;
1284.9000;0.3720;-0.7221;
1285.2000;0.3720;-0.7271;
1285.5000;0.3679;-0.7369;
1285.8000;0.3704;-0.7295;
1286.1000;0.3712;-0.7320;
1286.4000;0.3736;-0.7295;
1286.7000;0.3712;-0.7295;
1287.0000;0.3696;-0.7394;
1287.3000;0.3712;-0.7443;
1287.6000;0.3704;-0.7468;
1287.9000;0.3744;-0.7295;
1288.2000;0.3720;-0.7394;
1288.5000;0.3679;-0.7542;
1288.8000;0.3736;-0.7320;
1289.1000;0.3728;-0.7320;
1289.4000;0.3712;-0.7369;
1289.7000;0.3777;-0.7271;
1290.0000;0.3728;-0.7419;
1290.3000;0.3671;-0.7566;
1290.6000;0.3712;-0.7419;
1290.9000;0.3744;-0.7345;
1291.2000;0.3696;-0.7320;
1291.5000;0.3736;-0.7271;
1291.8000;0.3720;-0.7394;
1292.1000;0.3720;-0.7369;
1292.4000;0.3712;-0.7394;
1292.7000;0.3704;-0.7295;
1293.0000;0.3712;-0.7271;
1293.3000;0.3704;-0.7271;
1293.6000;0.3712;-0.7246;
1293.9000;0.3753;-0.7172;
1294.2000;0.3728;-0.7172;
1294.5000;0.3728;-0.7147;
1294.8000;0.3696;-0.7295;
1295.1000;0.3736;-0.7271;
1295.4000;0.3704;-0.7345;
1295.7000;0.3720;-0.7246;
1296.0000;0.3687;-0.7345;
1296.3000;0.3704;-0.7221;
1296.6000;0.3728;-0.7221;
1296.9000;0.3704;-0.7221;
1297.2000;0.3704;-0.7246;
1297.5000;0.3704;-0.7271;
1297.8000;0.3720;-0.7271;
1298.1000;0.3712;-0.7345;
1298.4000;0.3712;-0.7419;
1298.7000;0.3777;-0.7295;
1299.0000;0.3687;-0.7443;
1299.3000;0.3785;-0.7221;
1299.6000;0.3712;-0.7419;
1299.9000;0.3736;-0.7345;
1300.2000;0.3704;-0.7468;
1300.5000;0.3704;-0.7493;
1300.8000;0.3696;-0.7443;
1301.1000;0.3720;-0.7345;
1301.4000;0.3712;-0.7369;
1301.7000;0.3720;-0.7295;
1302.0000;0.3753;-0.7123;
1302.3000;0.3728;-0.7098;
1302.6000;0.3720;-0.7271;
1302.9000;0.3728;-0.7246;
1303.2000;0.3728;-0.7271;
1303.5000;0.3712;-0.7295;
1303.8000;0.3704;-0.7320;
1304.1000;0.3696;-0.7172;
1304.4000;0.3704;-0.7172;
1304.7000;0.3736;-0.7074;
1305.0000;0.3712;-0.7123;
1305.3000;0.3687;-0.7147;
1305.6000;0.3712;-0.7074;
1305.9000;0.3720;-0.7049;
1306.2000;0.3712;-0.7024;
1306.5000;0.3728;-0.7024;
1306.8000;0.3704;-0.7074;
1307.1000;0.3720;-0.7123;
1307.4000;0.3728;-0.7098;
1307.7000;0.3720;-0.7172;
1308.0000;0.3720;-0.7221;
1308.3000;0.3696;-0.7369;
1308.6000;0.3720;-0.7345;
1308.9000;0.3753;-0.7221;
1309.2000;0.3712;-0.7246;
1309.5000;0.3696;-0.7246;
1309.8000;0.3679;-0.7271;
1310.1000;0.3712;-0.7221;
1310.4000;0.3744;-0.7172;
1310.7000;0.3720;-0.7172;
1311.0000;0.3704;-0.7197;
1311.3000;0.3720;-0.7197;
1311.6000;0.3712;-0.7246;
1311.9000;0.3728;-0.7246;
1312.2000;0.3712;-0.7172;
1312.5000;0.3704;-0.7172;
1312.8000;0.3704;-0.7172;
1313.1000;0.3728;-0.7271;
1313.4000;0.3736;-0.7221;
1313.7000;0.3728;-0.7246;
1314.0000;0.3696;-0.7443;
1314.3000;0.3704;-0.7517;
1314.6000;0.3712;-0.7419;
1314.9000;0.3712;-0.7345;
1315.2000;0.3704;-0.7295;
1315.5000;0.3712;-0.7246;
1315.8000;0.3720;-0.7221;
1316.1000;0.3712;-0.7246;
1316.4000;0.3712;-0.7246;
1316.7000;0.3704;-0.7271;
1317.0000;0.3712;-0.7320;
1317.3000;0.3720;-0.7345;
1317.6000;0.3720;-0.7369;
1317.9000;0.3712;-0.7394;
1318.2000;0.3777;-0.7147;
1318.5000;0.3728;-0.7295;
1318.8000;0.3712;-0.7295;
1319.1000;0.3712;-0.7246;
1319.4000;0.3696;-0.7345;
1319.7000;0.3728;-0.7320;
1320.0000;0.3777;-0.7123;
1320.3000;0.3769;-0.7197;
1320.6000;0.3696;-0.7419;
1320.9000;0.3712;-0.7295;
1321.2000;0.3687;-0.7271;
1321.5000;0.3704;-0.7246;
1321.8000;0.3712;-0.7221;
1322.1000;0.3720;-0.7320;
1322.4000;0.3720;-0.7493;
1322.7000;0.3720;-0.7542;
1323.0000;0.3679;-0.7616;
1323.3000;0.3712;-0.7493;
1323.6000;0.3720;-0.7369;
1323.9000;0.3720;-0.7271;
1324.2000;0.3704;-0.7295;
1324.5000;0.3720;-0.7221;
1324.8000;0.3720;-0.7221;
1325.1000;0.3712;-0.7345;
1325.4000;0.3720;-0.7369;
1325.7000;0.3704;-0.7394;
1326.0000;0.3712;-0.7320;
1326.3000;0.3720;-0.7295;
1326.6000;0.3679;-0.7369;
1326.9000;0.3696;-0.7394;
1327.2000;0.3712;-0.7443;
1327.5000;0.3704;-0.7419;
1327.8000;0.3728;-0.7443;
1328.1000;0.3679;-0.7566;
1328.4000;0.3712;-0.7493;
1328.7000;0.3712;-0.7517;
1329.0000;0.3744;-0.7468;
1329.3000;0.3728;-0.7493;
1329.6000;0.3712;-0.7443;
1329.9000;0.3736;-0.7394;
1330.2000;0.3720;-0.7493;
1330.5000;0.3704;-0.7517;
1330.8000;0.3728;-0.7345;
1331.1000;0.3720;-0.7295;
1331.4000;0.3720;-0.7271;
1331.7000;0.3712;-0.7320;
1332.0000;0.3704;-0.7271;
1332.3000;0.3687;-0.7271;
1332.6000;0.3720;-0.7221;
1332.9000;0.3720;-0.7172;
1333.2000;0.3704;-0.7172;
1333.5000;0.3753;-0.7049;
1333.8000;0.3736;-0.7024;
1334.1000;0.3663;-0.7295;
1334.4000;0.3720;-0.7098;
1334.7000;0.3744;-0.7024;
1335.0000;0.3728;-0.7024;
1335.3000;0.3744;-0.6926;
1335.6000;0.3704;-0.7049;
1335.9000;0.3704;-0.7123;
1336.2000;0.3777;-0.6975;
1336.5000;0.3655;-0.7345;
1336.8000;0.3720;-0.7221;
1337.1000;0.3704;-0.7221;
1337.4000;0.3712;-0.7221;
1337.7000;0.3704;-0.7221;
1338.0000;0.3728;-0.7197;
1338.3000;0.3720;-0.7221;
1338.6000;0.3720;-0.7221;
1338.9000;0.3704;-0.7246;
1339.2000;0.3736;-0.7172;
1339.5000;0.3720;-0.7197;
1339.8000;0.3720;-0.7320;
1340.1000;0.3704;-0.7369;
1340.4000;0.3696;-0.7345;
1340.7000;0.3712;-0.7320;
1341.0000;0.3696;-0.7271;
1341.3000;0.3712;-0.7271;
1341.6000;0.3720;-0.7320;
1341.9000;0.3744;-0.7246;
1342.2000;0.3704;-0.7369;
1342.5000;0.3704;-0.7369;
1342.8000;0.3753;-0.7271;
1343.1000;0.3679;-0.7320;
1343.4000;0.3704;-0.7271;
1343.7000;0.3671;-0.7271;
1344.0000;0.3712;-0.7221;
1344.3000;0.3712;-0.7271;
1344.6000;0.3720;-0.7320;
1344.9000;0.3663;-0.7369;
1345.2000;0.3810;-0.6950;
1345.5000;0.3720;-0.7123;
1345.8000;0.3712;-0.7123;
1346.1000;0.3720;-0.7246;
1346.4000;0.3720;-0.7419;
1346.7000;0.3736;-0.7369;
1347.0000;0.3687;-0.7369;
1347.3000;0.3704;-0.7172;
1347.6000;0.3736;-0.7147;
1347.9000;0.3712;-0.7172;
1348.2000;0.3712;-0.7098;
1348.5000;0.3704;-0.7172;
1348.8000;0.3720;-0.7172;
1349.1000;0.3720;-0.7123;
1349.4000;0.3704;-0.7098;
1349.7000;0.3704;-0.7221;
1350.0000;0.3720;-0.7295;
1350.3000;0.3736;-0.7221;
1350.6000;0.3744;-0.7147;
1350.9000;0.3728;-0.7197;
1351.2000;0.3744;-0.7147;
1351.5000;0.3720;-0.7098;
1351.8000;0.3720;-0.7000;
1352.1000;0.3728;-0.7000;
1352.4000;0.3696;-0.7123;
1352.7000;0.3687;-0.7172;
1353.0000;0.3712;-0.7147;
1353.3000;0.3712;-0.7295;
1353.6000;0.3696;-0.7295;
1353.9000;0.3704;-0.7295;
1354.2000;0.3704;-0.7271;
1354.5000;0.3712;-0.7221;
1354.8000;0.3720;-0.7221;
1355.1000;0.3712;-0.7271;
1355.4000;0.3704;-0.7271;
1355.7000;0.3753;-0.7172;
1356.0000;0.3704;-0.7345;
1356.3000;0.3712;-0.7246;
1356.6000;0.3696;-0.7295;
1356.9000;0.3679;-0.7345;
1357.2000;0.3769;-0.7295;
1357.5000;0.3712;-0.7468;
1357.8000;0.3704;-0.7394;
1358.1000;0.3720;-0.7271;
1358.4000;0.3704;-0.7295;
1358.7000;0.3663;-0.7394;
1359.0000;0.3761;-0.7295;
1359.3000;0.3696;-0.7419;
1359.6000;0.3744;-0.7320;
1359.9000;0.3671;-0.7517;
1360.2000;0.3671;-0.7443;
1360.5000;0.3696;-0.7295;
1360.8000;0.3736;-0.7320;
1361.1000;0.3728;-0.7320;
1361.4000;0.3720;-0.7295;
1361.7000;0.3720;-0.7271;
1362.0000;0.3720;-0.7221;
1362.3000;0.3687;-0.7271;
1362.6000;0.3614;-0.7468;
1362.9000;0.3720;-0.7172;
1363.2000;0.3777;-0.7049;
1363.5000;0.3720;-0.7246;
1363.8000;0.3720;-0.7246;
1364.1000;0.3696;-0.7345;
1364.4000;0.3720;-0.7320;
1364.7000;0.3728;-0.7394;
1365.0000;0.3736;-0.7320;
1365.3000;0.3728;-0.7419;
1365.6000;0.3728;-0.7320;
1365.9000;0.3712;-0.7295;
1366.2000;0.3728;-0.7295;
1366.5000;0.3704;-0.7345;
1366.8000;0.3712;-0.7443;
1367.1000;0.3679;-0.7566;
1367.4000;0.3704;-0.7419;
1367.7000;0.3704;-0.7345;
1368.0000;0.3704;-0.7271;
1368.3000;0.3712;-0.7295;
1368.6000;0.3720;-0.7369;
1368.9000;0.3720;-0.7369;
1369.2000;0.3720;-0.7345;
1369.5000;0.3696;-0.7345;
1369.8000;0.3712;-0.7172;
1370.1000;0.3704;-0.7295;
1370.4000;0.3720;-0.7345;
1370.7000;0.3720;-0.7369;
1371.0000;0.3769;-0.7271;
1371.3000;0.3712;-0.7419;
1371.6000;0.3712;-0.7493;
1371.9000;0.3720;-0.7394;
1372.2000;0.3671;-0.7517;
1372.5000;0.3696;-0.7517;
1372.8000;0.3704;-0.7468;
1373.1000;0.3736;-0.7419;
1373.4000;0.3704;-0.7517;
1373.7000;0.3704;-0.7566;
1374.0000;0.3639;-0.7640;
1374.3000;0.3696;-0.7468;
1374.6000;0.3712;-0.7419;
1374.9000;0.3712;-0.7468;
1375.2000;0.3696;-0.7468;
1375.5000;0.3720;-0.7394;
1375.8000;0.3712;-0.7394;
1376.1000;0.3736;-0.7369;
1376.4000;0.3696;-0.7493;
1376.7000;0.3696;-0.7468;
1377.0000;0.3720;-0.7542;
1377.3000;0.3696;-0.7616;
1377.6000;0.3720;-0.7566;
1377.9000;0.3712;-0.7616;
1378.2000;0.3704;-0.7665;
1378.5000;0.3704;-0.7616;
1378.8000;0.3720;-0.7591;
1379.1000;0.3736;-0.7443;
1379.4000;0.3696;-0.7517;
1379.7000;0.3704;-0.7493;
1380.0000;0.3655;-0.7665;
1380.3000;0.3704;-0.7443;
1380.6000;0.3704;-0.7517;
1380.9000;0.3736;-0.7468;
1381.2000;0.3728;-0.7493;
1381.5000;0.3728;-0.7419;
1381.8000;0.3744;-0.7419;
1382.1000;0.3736;-0.7443;
1382.4000;0.3728;-0.7493;
1382.7000;0.3720;-0.7591;
1383.0000;0.3712;-0.7542;
1383.3000;0.3753;-0.7517;
1383.6000;0.3720;-0.7616;
1383.9000;0.3704;-0.7616;
1384.2000;0.3728;-0.7517;
1384.5000;0.3704;-0.7591;
1384.8000;0.3720;-0.7739;
1385.1000;0.3720;-0.7764;
1385.4000;0.3753;-0.7640;
1385.7000;0.3679;-0.7788;
1386.0000;0.3744;-0.7640;
1386.3000;0.3712;-0.7665;
1386.6000;0.3753;-0.7443;
1386.9000;0.3696;-0.7517;
1387.2000;0.3728;-0.7443;
1387.5000;0.3704;-0.7493;
1387.8000;0.3696;-0.7517;
1388.1000;0.3696;-0.7542;
1388.4000;0.3704;-0.7443;
1388.7000;0.3736;-0.7369;
1389.0000;0.3687;-0.7443;
1389.3000;0.3687;-0.7443;
1389.6000;0.3712;-0.7369;
1389.9000;0.3696;-0.7394;
1390.2000;0.3712;-0.7493;
1390.5000;0.3687;-0.7517;
1390.8000;0.3712;-0.7566;
1391.1000;0.3696;-0.7591;
1391.4000;0.3704;-0.7493;
1391.7000;0.3777;-0.7468;
1392.0000;0.3728;-0.7517;
1392.3000;0.3720;-0.7566;
1392.6000;0.3736;-0.7468;
1392.9000;0.3712;-0.7566;
1393.2000;0.3712;-0.7493;
1393.5000;0.3712;-0.7468;
1393.8000;0.3728;-0.7394;
1394.1000;0.3744;-0.7295;
1394.4000;0.3704;-0.7369;
1394.7000;0.3687;-0.7369;
1395.0000;0.3712;-0.7295;
1395.3000;0.3720;-0.7345;
1395.6000;0.3712;-0.7419;
1395.9000;0.3728;-0.7394;
1396.2000;0.3728;-0.7443;
1396.5000;0.3720;-0.7493;
1396.8000;0.3704;-0.7591;
1397.1000;0.3696;-0.7542;
1397.4000;0.3712;-0.7517;
1397.7000;0.3720;-0.7566;
1398.0000;0.3704;-0.7517;
1398.3000;0.3704;-0.7591;
1398.6000;0.3704;-0.7542;
1398.9000;0.3696;-0.7566;
1399.2000;0.3663;-0.7616;
1399.5000;0.3712;-0.7345;
1399.8000;0.3720;-0.7295;
