time/ms;Fluo/V;P700 deltaI/I x10³;
-199.8000;0.3932;-0.8035;
-199.5000;0.3923;-0.8059;
-199.2000;0.3948;-0.8084;
-198.9000;0.3948;-0.8109;
-198.6000;0.3899;-0.8232;
-198.3000;0.3948;-0.8109;
-198.0000;0.3932;-0.8109;
-197.7000;0.3940;-0.8084;
-197.4000;0.3932;-0.8207;
-197.1000;0.3923;-0.8232;
-196.8000;0.3907;-0.8281;
-196.5000;0.3940;-0.8183;
-196.2000;0.3964;-0.8158;
-195.9000;0.3948;-0.8232;
-195.6000;0.3923;-0.8281;
-195.3000;0.3956;-0.8183;
-195.0000;0.3932;-0.8158;
-194.7000;0.3932;-0.8257;
-194.4000;0.3940;-0.8281;
-194.1000;0.3932;-0.8207;
-193.8000;0.3932;-0.8232;
-193.5000;0.3932;-0.8183;
-193.2000;0.3940;-0.8207;
-192.9000;0.3932;-0.8158;
-192.6000;0.3932;-0.8133;
-192.3000;0.3940;-0.8084;
-192.0000;0.3923;-0.8084;
-191.7000;0.3948;-0.7985;
-191.4000;0.3940;-0.8084;
-191.1000;0.3932;-0.8059;
-190.8000;0.3932;-0.8035;
-190.5000;0.3948;-0.7936;
-190.2000;0.3956;-0.7961;
-189.9000;0.3956;-0.8109;
-189.6000;0.3948;-0.8059;
-189.3000;0.3948;-0.8035;
-189.0000;0.3948;-0.8158;
-188.7000;0.3891;-0.8133;
-188.4000;0.3932;-0.8010;
-188.1000;0.3964;-0.7985;
-187.8000;0.3948;-0.7936;
-187.5000;0.3940;-0.7912;
-187.2000;0.3923;-0.7961;
-186.9000;0.3932;-0.7985;
-186.6000;0.3956;-0.7912;
-186.3000;0.3948;-0.7838;
-186.0000;0.3842;-0.8109;
-185.7000;0.3923;-0.7912;
-185.4000;0.3940;-0.7838;
-185.1000;0.3932;-0.7838;
-184.8000;0.3932;-0.7912;
-184.5000;0.3932;-0.7961;
-184.2000;0.3923;-0.7985;
-183.9000;0.3940;-0.7912;
-183.6000;0.3940;-0.7961;
-183.3000;0.3923;-0.8059;
-183.0000;0.3932;-0.8059;
-182.7000;0.3948;-0.8059;
-182.4000;0.3923;-0.8059;
-182.1000;0.3923;-0.8183;
-181.8000;0.3915;-0.8232;
-181.5000;0.3940;-0.8232;
-181.2000;0.3948;-0.8183;
-180.9000;0.3932;-0.8306;
-180.6000;0.3956;-0.8183;
-180.3000;0.3964;-0.8306;
-180.0000;0.3940;-0.8355;
-179.7000;0.3940;-0.8404;
-179.4000;0.3964;-0.8330;
-179.1000;0.3940;-0.8330;
-178.8000;0.3956;-0.8380;
-178.5000;0.3956;-0.8380;
-178.2000;0.3940;-0.8281;
-177.9000;0.3940;-0.8232;
-177.6000;0.3932;-0.8281;
-177.3000;0.3899;-0.8257;
-177.0000;0.3932;-0.8035;
-176.7000;0.3940;-0.7887;
-176.4000;0.3948;-0.7887;
-176.1000;0.3964;-0.7862;
-175.8000;0.3940;-0.7936;
-175.5000;0.3940;-0.7961;
-175.2000;0.3948;-0.8133;
-174.9000;0.3948;-0.8109;
-174.6000;0.3923;-0.8059;
-174.3000;0.3932;-0.8109;
-174.0000;0.3932;-0.8133;
-173.7000;0.3956;-0.8207;
-173.4000;0.3923;-0.8232;
-173.1000;0.3940;-0.8306;
-172.8000;0.3932;-0.8404;
-172.5000;0.3940;-0.8355;
-172.2000;0.3940;-0.8281;
-171.9000;0.3948;-0.8207;
-171.6000;0.3940;-0.8257;
-171.3000;0.3948;-0.8281;
-171.0000;0.3948;-0.8207;
-170.7000;0.3932;-0.8257;
-170.4000;0.3940;-0.8232;
-170.1000;0.3948;-0.8207;
-169.8000;0.3932;-0.8281;
-169.5000;0.3948;-0.8380;
-169.2000;0.3932;-0.8380;
-168.9000;0.3932;-0.8429;
-168.6000;0.3956;-0.8330;
-168.3000;0.3948;-0.8281;
-168.0000;0.3940;-0.8306;
-167.7000;0.3948;-0.8281;
-167.4000;0.3940;-0.8207;
-167.1000;0.3940;-0.8109;
-166.8000;0.3940;-0.8084;
-166.5000;0.3940;-0.7985;
-166.2000;0.3964;-0.7961;
-165.9000;0.3956;-0.7936;
-165.6000;0.3948;-0.8035;
-165.3000;0.3948;-0.8109;
-165.0000;0.3907;-0.8059;
-164.7000;0.4046;-0.7788;
-164.4000;0.3948;-0.8059;
-164.1000;0.3956;-0.7936;
-163.8000;0.3899;-0.8035;
-163.5000;0.3932;-0.7912;
-163.2000;0.3923;-0.8059;
-162.9000;0.3940;-0.8059;
-162.6000;0.3940;-0.8010;
-162.3000;0.3940;-0.7985;
-162.0000;0.3956;-0.8059;
-161.7000;0.3932;-0.8183;
-161.4000;0.3891;-0.8355;
-161.1000;0.3980;-0.8109;
-160.8000;0.3956;-0.8109;
-160.5000;0.3948;-0.8035;
-160.2000;0.3948;-0.8109;
-159.9000;0.3940;-0.8183;
-159.6000;0.3915;-0.8207;
-159.3000;0.3932;-0.8257;
-159.0000;0.3915;-0.8355;
-158.7000;0.3956;-0.8133;
-158.4000;0.3899;-0.8207;
-158.1000;0.3964;-0.8059;
-157.8000;0.3940;-0.8109;
-157.5000;0.3932;-0.8183;
-157.2000;0.3948;-0.8158;
-156.9000;0.3923;-0.8183;
-156.6000;0.3972;-0.8010;
-156.3000;0.3923;-0.8059;
-156.0000;0.3899;-0.8059;
-155.7000;0.3940;-0.8010;
-155.4000;0.3932;-0.8059;
-155.1000;0.3883;-0.8158;
-154.8000;0.3948;-0.7985;
-154.5000;0.3940;-0.7961;
-154.2000;0.3948;-0.8035;
-153.9000;0.3956;-0.8059;
-153.6000;0.3948;-0.8084;
-153.3000;0.3956;-0.7985;
-153.0000;0.3948;-0.8059;
-152.7000;0.3940;-0.7985;
-152.4000;0.3972;-0.7838;
-152.1000;0.3948;-0.7912;
-151.8000;0.3964;-0.7985;
-151.5000;0.3956;-0.8010;
-151.2000;0.3948;-0.8010;
-150.9000;0.3948;-0.8035;
-150.6000;0.3956;-0.7912;
-150.3000;0.3948;-0.7936;
-150.0000;0.3940;-0.8059;
-149.7000;0.3964;-0.8035;
-149.4000;0.3964;-0.8158;
-149.1000;0.3948;-0.8158;
-148.8000;0.3948;-0.8183;
-148.5000;0.3964;-0.8158;
-148.2000;0.3940;-0.8257;
-147.9000;0.3932;-0.8380;
-147.6000;0.3940;-0.8306;
-147.3000;0.3964;-0.8158;
-147.0000;0.4013;-0.7985;
-146.7000;0.3940;-0.8183;
-146.4000;0.3940;-0.8183;
-146.1000;0.4005;-0.8059;
-145.8000;0.3923;-0.8380;
-145.5000;0.3964;-0.8380;
-145.2000;0.3948;-0.8330;
-144.9000;0.3948;-0.8281;
-144.6000;0.3989;-0.8158;
-144.3000;0.3850;-0.8454;
-144.0000;0.3948;-0.8207;
-143.7000;0.3940;-0.8183;
-143.4000;0.3940;-0.8207;
-143.1000;0.3932;-0.8084;
-142.8000;0.3980;-0.8035;
-142.5000;0.3932;-0.8183;
-142.2000;0.3940;-0.8158;
-141.9000;0.3940;-0.8183;
-141.6000;0.3940;-0.8232;
-141.3000;0.3923;-0.8183;
-141.0000;0.3923;-0.8109;
-140.7000;0.3948;-0.8133;
-140.4000;0.3923;-0.8158;
-140.1000;0.3923;-0.8109;
-139.8000;0.3956;-0.7985;
-139.5000;0.3956;-0.7985;
-139.2000;0.3980;-0.7985;
-138.9000;0.3907;-0.8133;
-138.6000;0.3940;-0.8059;
-138.3000;0.3940;-0.8010;
-138.0000;0.3932;-0.8035;
-137.7000;0.3923;-0.8084;
-137.4000;0.3964;-0.8109;
-137.1000;0.3989;-0.8010;
-136.8000;0.3956;-0.8059;
-136.5000;0.3948;-0.8183;
-136.2000;0.3948;-0.8133;
-135.9000;0.3932;-0.8158;
-135.6000;0.3932;-0.8232;
-135.3000;0.3940;-0.8232;
-135.0000;0.3899;-0.8330;
-134.7000;0.3948;-0.8207;
-134.4000;0.3964;-0.8084;
-134.1000;0.3956;-0.8059;
-133.8000;0.3956;-0.8158;
-133.5000;0.3964;-0.8183;
-133.2000;0.3972;-0.8109;
-132.9000;0.3948;-0.8133;
-132.6000;0.3940;-0.8133;
-132.3000;0.3940;-0.8183;
-132.0000;0.3948;-0.8207;
-131.7000;0.3956;-0.8257;
-131.4000;0.3948;-0.8281;
-131.1000;0.3923;-0.8306;
-130.8000;0.3940;-0.8281;
-130.5000;0.3940;-0.8232;
-130.2000;0.3932;-0.8207;
-129.9000;0.3940;-0.8257;
-129.6000;0.3948;-0.8183;
-129.3000;0.3956;-0.8281;
-129.0000;0.3972;-0.8232;
-128.7000;0.3956;-0.8281;
-128.4000;0.3923;-0.8503;
-128.1000;0.3907;-0.8602;
-127.8000;0.3948;-0.8404;
-127.5000;0.3964;-0.8232;
-127.2000;0.3915;-0.8330;
-126.9000;0.3948;-0.8257;
-126.6000;0.3964;-0.8306;
-126.3000;0.3915;-0.8355;
-126.0000;0.3875;-0.8380;
-125.7000;0.3940;-0.8133;
-125.4000;0.3915;-0.8281;
-125.1000;0.3858;-0.8454;
-124.8000;0.3915;-0.8257;
-124.5000;0.3940;-0.8158;
-124.2000;0.3964;-0.8183;
-123.9000;0.3956;-0.8183;
-123.6000;0.3948;-0.8306;
-123.3000;0.3923;-0.8404;
-123.0000;0.3948;-0.8380;
-122.7000;0.3980;-0.8281;
-122.4000;0.3932;-0.8355;
-122.1000;0.4037;-0.8158;
-121.8000;0.3964;-0.8281;
-121.5000;0.3956;-0.8232;
-121.2000;0.3899;-0.8355;
-120.9000;0.3948;-0.8306;
-120.6000;0.3842;-0.8454;
-120.3000;0.3842;-0.8454;
-120.0000;0.3948;-0.8207;
-119.7000;0.3948;-0.8158;
-119.4000;0.3940;-0.8183;
-119.1000;0.3932;-0.8133;
-118.8000;0.3964;-0.8035;
-118.5000;0.3940;-0.8084;
-118.2000;0.3948;-0.8183;
-117.9000;0.3956;-0.8257;
-117.6000;0.3964;-0.8232;
-117.3000;0.3948;-0.8257;
-117.0000;0.3923;-0.8281;
-116.7000;0.3932;-0.8232;
-116.4000;0.3964;-0.8183;
-116.1000;0.3932;-0.8306;
-115.8000;0.3940;-0.8232;
-115.5000;0.3940;-0.8281;
-115.2000;0.3940;-0.8306;
-114.9000;0.3932;-0.8207;
-114.6000;0.3940;-0.8207;
-114.3000;0.3932;-0.8306;
-114.0000;0.3940;-0.8330;
-113.7000;0.3956;-0.8207;
-113.4000;0.3907;-0.8281;
-113.1000;0.3940;-0.8158;
-112.8000;0.3956;-0.8084;
-112.5000;0.3964;-0.8109;
-112.2000;0.3915;-0.8183;
-111.9000;0.4037;-0.7961;
-111.6000;0.3899;-0.8257;
-111.3000;0.3932;-0.8232;
-111.0000;0.3964;-0.8133;
-110.7000;0.3948;-0.8158;
-110.4000;0.3956;-0.8158;
-110.1000;0.3948;-0.8010;
-109.8000;0.3948;-0.7961;
-109.5000;0.3948;-0.8059;
-109.2000;0.3964;-0.8035;
-108.9000;0.3940;-0.8059;
-108.6000;0.3948;-0.8010;
-108.3000;0.3940;-0.8035;
-108.0000;0.3948;-0.8010;
-107.7000;0.3948;-0.8084;
-107.4000;0.3932;-0.8059;
-107.1000;0.3923;-0.8035;
-106.8000;0.3997;-0.7887;
-106.5000;0.3964;-0.8084;
-106.2000;0.3932;-0.8232;
-105.9000;0.3940;-0.8158;
-105.6000;0.3940;-0.8232;
-105.3000;0.3850;-0.8404;
-105.0000;0.3948;-0.8133;
-104.7000;0.3932;-0.8158;
-104.4000;0.3948;-0.8158;
-104.1000;0.3980;-0.7985;
-103.8000;0.3940;-0.8207;
-103.5000;0.3997;-0.8084;
-103.2000;0.3915;-0.8207;
-102.9000;0.3940;-0.8183;
-102.6000;0.3956;-0.8183;
-102.3000;0.3956;-0.8257;
-102.0000;0.3923;-0.8306;
-101.7000;0.3956;-0.8207;
-101.4000;0.3948;-0.8257;
-101.1000;0.3932;-0.8281;
-100.8000;0.3923;-0.8257;
-100.5000;0.3923;-0.8207;
-100.2000;0.3940;-0.8133;
-99.9000;0.3956;-0.8109;
-99.6000;0.3956;-0.8109;
-99.3000;0.3940;-0.8183;
-99.0000;0.3956;-0.8059;
-98.7000;0.3964;-0.8035;
-98.4000;0.3956;-0.8109;
-98.1000;0.3923;-0.8207;
-97.8000;0.3997;-0.8035;
-97.5000;0.3940;-0.8084;
-97.2000;0.3948;-0.8059;
-96.9000;0.3956;-0.8109;
-96.6000;0.3923;-0.8158;
-96.3000;0.3964;-0.8109;
-96.0000;0.3948;-0.8084;
-95.7000;0.3923;-0.8183;
-95.4000;0.3964;-0.8207;
-95.1000;0.3948;-0.8257;
-94.8000;0.3940;-0.8306;
-94.5000;0.3948;-0.8232;
-94.2000;0.3923;-0.8380;
-93.9000;0.3964;-0.8232;
-93.6000;0.3940;-0.8257;
-93.3000;0.3956;-0.8232;
-93.0000;0.3883;-0.8330;
-92.7000;0.3940;-0.8232;
-92.4000;0.3899;-0.8355;
-92.1000;0.3940;-0.8257;
-91.8000;0.3948;-0.8257;
-91.5000;0.3940;-0.8257;
-91.2000;0.3948;-0.8281;
-90.9000;0.3932;-0.8306;
-90.6000;0.3964;-0.8306;
-90.3000;0.3948;-0.8281;
-90.0000;0.3948;-0.8306;
-89.7000;0.3948;-0.8330;
-89.4000;0.3932;-0.8330;
-89.1000;0.3932;-0.8355;
-88.8000;0.3932;-0.8306;
-88.5000;0.3964;-0.8183;
-88.2000;0.3940;-0.8257;
-87.9000;0.3964;-0.8281;
-87.6000;0.3972;-0.8281;
-87.3000;0.3915;-0.8330;
-87.0000;0.3948;-0.8232;
-86.7000;0.3891;-0.8281;
-86.4000;0.3940;-0.8158;
-86.1000;0.3932;-0.8257;
-85.8000;0.3948;-0.8232;
-85.5000;0.3915;-0.8330;
-85.2000;0.3932;-0.8257;
-84.9000;0.3923;-0.8355;
-84.6000;0.3948;-0.8281;
-84.3000;0.3948;-0.8232;
-84.0000;0.3932;-0.8158;
-83.7000;0.3964;-0.8109;
-83.4000;0.3964;-0.8183;
-83.1000;0.3964;-0.8232;
-82.8000;0.3964;-0.8109;
-82.5000;0.3980;-0.8059;
-82.2000;0.3980;-0.8133;
-81.9000;0.3964;-0.8183;
-81.6000;0.3907;-0.8232;
-81.3000;0.3923;-0.8133;
-81.0000;0.4005;-0.7912;
-80.7000;0.3948;-0.8158;
-80.4000;0.3932;-0.8183;
-80.1000;0.4029;-0.7887;
-79.8000;0.3932;-0.8035;
-79.5000;0.3948;-0.7936;
-79.2000;0.3948;-0.7912;
-78.9000;0.3956;-0.8059;
-78.6000;0.3948;-0.8084;
-78.3000;0.3956;-0.8084;
-78.0000;0.3899;-0.8183;
-77.7000;0.3940;-0.8010;
-77.4000;0.3964;-0.8010;
-77.1000;0.3940;-0.8133;
-76.8000;0.3932;-0.8133;
-76.5000;0.3940;-0.8109;
-76.2000;0.3964;-0.8035;
-75.9000;0.3948;-0.8109;
-75.6000;0.3948;-0.8183;
-75.3000;0.4029;-0.7862;
-75.0000;0.3956;-0.8010;
-74.7000;0.3948;-0.8059;
-74.4000;0.3940;-0.8035;
-74.1000;0.3964;-0.7985;
-73.8000;0.3948;-0.8010;
-73.5000;0.3948;-0.8010;
-73.2000;0.4013;-0.7838;
-72.9000;0.3948;-0.7985;
-72.6000;0.3932;-0.8084;
-72.3000;0.3940;-0.8059;
-72.0000;0.3948;-0.8059;
-71.7000;0.3940;-0.8035;
-71.4000;0.3948;-0.8010;
-71.1000;0.3948;-0.8084;
-70.8000;0.3940;-0.7985;
-70.5000;0.3932;-0.8059;
-70.2000;0.3932;-0.8109;
-69.9000;0.3940;-0.8133;
-69.6000;0.3940;-0.8158;
-69.3000;0.3940;-0.8158;
-69.0000;0.3940;-0.8084;
-68.7000;0.3940;-0.8109;
-68.4000;0.3948;-0.8084;
-68.1000;0.3923;-0.8109;
-67.8000;0.3940;-0.8059;
-67.5000;0.3956;-0.8035;
-67.2000;0.3907;-0.8133;
-66.9000;0.3948;-0.8059;
-66.6000;0.3972;-0.8010;
-66.3000;0.3948;-0.8133;
-66.0000;0.3956;-0.8059;
-65.7000;0.3940;-0.8084;
-65.4000;0.3940;-0.8183;
-65.1000;0.3948;-0.8183;
-64.8000;0.3964;-0.8133;
-64.5000;0.3932;-0.8084;
-64.2000;0.3980;-0.8158;
-63.9000;0.3956;-0.8158;
-63.6000;0.3964;-0.8158;
-63.3000;0.4037;-0.7936;
-63.0000;0.3940;-0.8232;
-62.7000;0.3932;-0.8281;
-62.4000;0.3948;-0.8232;
-62.1000;0.3932;-0.8257;
-61.8000;0.3932;-0.8281;
-61.5000;0.3915;-0.8257;
-61.2000;0.3907;-0.8306;
-60.9000;0.3899;-0.8503;
-60.6000;0.3940;-0.8330;
-60.3000;0.3956;-0.8306;
-60.0000;0.3940;-0.8281;
-59.7000;0.3932;-0.8183;
-59.4000;0.3948;-0.8183;
-59.1000;0.3940;-0.8207;
-58.8000;0.3932;-0.8306;
-58.5000;0.3932;-0.8306;
-58.2000;0.4021;-0.8183;
-57.9000;0.3932;-0.8281;
-57.6000;0.3948;-0.8109;
-57.3000;0.3948;-0.8010;
-57.0000;0.3940;-0.8084;
-56.7000;0.3932;-0.8158;
-56.4000;0.3956;-0.8133;
-56.1000;0.3923;-0.8257;
-55.8000;0.3948;-0.8257;
-55.5000;0.3948;-0.8183;
-55.2000;0.3940;-0.8232;
-54.9000;0.3940;-0.8232;
-54.6000;0.3956;-0.8158;
-54.3000;0.3932;-0.8257;
-54.0000;0.3940;-0.8183;
-53.7000;0.3964;-0.8207;
-53.4000;0.3972;-0.8133;
-53.1000;0.3956;-0.8059;
-52.8000;0.3964;-0.8035;
-52.5000;0.3940;-0.8109;
-52.2000;0.3956;-0.8207;
-51.9000;0.3964;-0.8257;
-51.6000;0.3940;-0.8281;
-51.3000;0.3956;-0.8109;
-51.0000;0.3972;-0.8183;
-50.7000;0.3915;-0.8183;
-50.4000;0.3956;-0.8183;
-50.1000;0.3940;-0.8158;
-49.8000;0.3989;-0.8035;
-49.5000;0.3948;-0.8084;
-49.2000;0.3923;-0.8207;
-48.9000;0.3940;-0.8059;
-48.6000;0.3940;-0.7985;
-48.3000;0.3964;-0.8035;
-48.0000;0.3932;-0.8059;
-47.7000;0.3940;-0.8084;
-47.4000;0.3940;-0.8207;
-47.1000;0.3948;-0.8257;
-46.8000;0.3948;-0.8207;
-46.5000;0.3923;-0.8207;
-46.2000;0.3940;-0.8133;
-45.9000;0.3948;-0.8059;
-45.6000;0.3932;-0.8158;
-45.3000;0.3940;-0.8183;
-45.0000;0.3948;-0.8207;
-44.7000;0.3940;-0.8257;
-44.4000;0.3948;-0.8232;
-44.1000;0.3932;-0.8306;
-43.8000;0.3940;-0.8306;
-43.5000;0.3940;-0.8257;
-43.2000;0.3940;-0.8207;
-42.9000;0.3940;-0.8109;
-42.6000;0.3948;-0.8133;
-42.3000;0.3940;-0.8109;
-42.0000;0.3948;-0.8158;
-41.7000;0.3932;-0.8207;
-41.4000;0.3956;-0.8158;
-41.1000;0.3956;-0.8158;
-40.8000;0.3972;-0.8183;
-40.5000;0.3948;-0.8207;
-40.2000;0.3948;-0.8133;
-39.9000;0.3948;-0.8133;
-39.6000;0.3940;-0.8158;
-39.3000;0.3948;-0.8207;
-39.0000;0.3948;-0.8232;
-38.7000;0.3948;-0.8232;
-38.4000;0.3972;-0.8109;
-38.1000;0.3964;-0.8133;
-37.8000;0.3948;-0.8109;
-37.5000;0.3948;-0.8059;
-37.2000;0.3972;-0.8010;
-36.9000;0.3956;-0.8010;
-36.6000;0.3948;-0.8035;
-36.3000;0.3932;-0.8109;
-36.0000;0.3964;-0.8084;
-35.7000;0.3956;-0.8158;
-35.4000;0.3964;-0.8158;
-35.1000;0.3989;-0.8035;
-34.8000;0.3940;-0.8207;
-34.5000;0.3940;-0.8257;
-34.2000;0.3948;-0.8257;
-33.9000;0.3932;-0.8355;
-33.6000;0.3972;-0.8158;
-33.3000;0.3940;-0.8207;
-33.0000;0.3956;-0.8207;
-32.7000;0.3948;-0.8257;
-32.4000;0.3956;-0.8306;
-32.1000;0.3964;-0.8281;
-31.8000;0.3964;-0.8183;
-31.5000;0.3964;-0.8109;
-31.2000;0.3956;-0.8133;
-30.9000;0.3956;-0.8183;
-30.6000;0.3948;-0.8207;
-30.3000;0.3940;-0.8306;
-30.0000;0.3956;-0.8355;
-29.7000;0.3956;-0.8380;
-29.4000;0.3956;-0.8306;
-29.1000;0.3956;-0.8207;
-28.8000;0.3899;-0.8183;
-28.5000;0.3940;-0.8133;
-28.2000;0.3989;-0.8084;
-27.9000;0.3940;-0.8257;
-27.6000;0.3948;-0.8207;
-27.3000;0.3940;-0.8207;
-27.0000;0.3964;-0.8183;
-26.7000;0.3875;-0.8306;
-26.4000;0.3932;-0.8281;
-26.1000;0.4013;-0.7985;
-25.8000;0.3948;-0.8133;
-25.5000;0.3940;-0.8084;
-25.2000;0.3940;-0.8133;
-24.9000;0.3948;-0.8158;
-24.6000;0.3915;-0.8281;
-24.3000;0.3932;-0.8232;
-24.0000;0.3940;-0.8109;
-23.7000;0.3989;-0.7961;
-23.4000;0.3932;-0.8158;
-23.1000;0.3923;-0.8306;
-22.8000;0.3948;-0.8306;
-22.5000;0.3940;-0.8207;
-22.2000;0.3932;-0.8133;
-21.9000;0.3964;-0.8035;
-21.6000;0.3956;-0.8035;
-21.3000;0.3940;-0.8059;
-21.0000;0.3940;-0.8158;
-20.7000;0.3948;-0.8158;
-20.4000;0.3948;-0.8158;
-20.1000;0.3940;-0.8158;
-19.8000;0.3932;-0.8158;
-19.5000;0.3948;-0.8207;
-19.2000;0.3997;-0.8109;
-18.9000;0.3940;-0.8257;
-18.6000;0.3940;-0.8183;
-18.3000;0.3932;-0.8207;
-18.0000;0.3940;-0.8232;
-17.7000;0.3915;-0.8257;
-17.4000;0.3932;-0.8232;
-17.1000;0.3932;-0.8306;
-16.8000;0.3948;-0.8232;
-16.5000;0.3956;-0.8232;
-16.2000;0.3907;-0.8355;
-15.9000;0.3948;-0.8281;
-15.6000;0.3964;-0.8183;
-15.3000;0.3915;-0.8207;
-15.0000;0.3907;-0.8232;
-14.7000;0.3940;-0.8183;
-14.4000;0.3932;-0.8158;
-14.1000;0.3923;-0.8059;
-13.8000;0.3940;-0.8183;
-13.5000;0.3940;-0.8183;
-13.2000;0.4013;-0.7887;
-12.9000;0.3940;-0.8133;
-12.6000;0.4037;-0.7887;
-12.3000;0.3940;-0.8084;
-12.0000;0.3907;-0.8133;
-11.7000;0.3948;-0.8035;
-11.4000;0.3948;-0.8035;
-11.1000;0.3932;-0.8158;
-10.8000;0.3956;-0.8059;
-10.5000;0.3964;-0.8084;
-10.2000;0.3940;-0.8207;
-9.9000;0.3940;-0.8207;
-9.6000;0.3948;-0.8232;
-9.3000;0.3932;-0.8281;
-9.0000;0.3997;-0.8084;
-8.7000;0.3956;-0.8158;
-8.4000;0.3932;-0.8183;
-8.1000;0.3940;-0.8158;
-7.8000;0.3956;-0.8084;
-7.5000;0.3932;-0.8207;
-7.2000;0.3923;-0.8158;
-6.9000;0.3956;-0.8059;
-6.6000;0.3923;-0.8084;
-6.3000;0.3956;-0.8010;
-6.0000;0.3940;-0.8109;
-5.7000;0.3956;-0.8084;
-5.4000;0.3956;-0.7985;
-5.1000;0.3932;-0.8059;
-4.8000;0.3932;-0.8059;
-4.5000;0.3932;-0.8010;
-4.2000;0.3940;-0.8010;
-3.9000;0.3907;-0.8084;
-3.6000;0.3923;-0.7985;
-3.3000;0.3948;-0.7936;
-3.0000;0.3923;-0.7912;
-2.7000;0.3948;-0.7912;
-2.4000;0.3956;-0.7912;
-2.1000;0.3948;-0.7887;
-1.8000;0.3972;-0.7813;
-1.5000;0.3932;-0.7838;
-1.2000;0.3940;-0.7788;
-0.9000;0.3940;-0.7788;
-0.6000;0.3956;-0.7813;
-0.3000;0.3932;-0.7912;
0.0000;0.3932;-0.7912;
0.3000;0.4143;-0.7961;
0.6000;0.4558;-0.7419;
0.9000;0.4900;-0.6802;
1.2000;0.5177;-0.6236;
1.5000;0.5389;-0.5693;
1.8000;0.5576;-0.5225;
2.1000;0.5698;-0.4831;
2.4000;0.5812;-0.4535;
2.7000;0.5877;-0.4338;
3.0000;0.5934;-0.4190;
3.3000;0.6040;-0.3968;
3.6000;0.6081;-0.3894;
3.9000;0.6097;-0.3820;
4.2000;0.6154;-0.3746;
4.5000;0.6309;-0.3401;
4.8000;0.6219;-0.3672;
5.1000;0.6260;-0.3697;
5.4000;0.6243;-0.3722;
5.7000;0.6300;-0.3574;
6.0000;0.6349;-0.3451;
6.3000;0.6341;-0.3475;
6.6000;0.6341;-0.3377;
6.9000;0.6357;-0.3401;
7.2000;0.6365;-0.3352;
7.5000;0.6390;-0.3426;
7.8000;0.6431;-0.3253;
8.1000;0.6422;-0.3253;
8.4000;0.6504;-0.3056;
8.7000;0.6536;-0.2982;
9.0000;0.6488;-0.3229;
9.3000;0.6488;-0.3278;
9.6000;0.6520;-0.3179;
9.9000;0.6512;-0.3204;
10.2000;0.6536;-0.3229;
10.5000;0.6569;-0.3179;
10.8000;0.6545;-0.3303;
11.1000;0.6577;-0.3253;
11.4000;0.6593;-0.3253;
11.7000;0.6577;-0.3229;
12.0000;0.6602;-0.3155;
12.3000;0.6626;-0.3204;
12.6000;0.6642;-0.3253;
12.9000;0.6667;-0.3303;
13.2000;0.6667;-0.3229;
13.5000;0.6683;-0.3155;
13.8000;0.6691;-0.3155;
14.1000;0.6707;-0.3155;
14.4000;0.6683;-0.3179;
14.7000;0.6707;-0.3155;
15.0000;0.6740;-0.3105;
15.3000;0.6748;-0.3179;
15.6000;0.6756;-0.3204;
15.9000;0.6756;-0.3303;
16.2000;0.6772;-0.3352;
16.5000;0.6781;-0.3377;
16.8000;0.6781;-0.3401;
17.1000;0.6821;-0.3451;
17.4000;0.6813;-0.3549;
17.7000;0.6838;-0.3500;
18.0000;0.6846;-0.3524;
18.3000;0.6927;-0.3377;
18.6000;0.6846;-0.3475;
18.9000;0.6797;-0.3648;
19.2000;0.6862;-0.3451;
19.5000;0.6878;-0.3475;
19.8000;0.6878;-0.3549;
20.1000;0.6903;-0.3426;
20.4000;0.6911;-0.3377;
20.7000;0.6854;-0.3524;
21.0000;0.6903;-0.3401;
21.3000;0.6927;-0.3377;
21.6000;0.6943;-0.3253;
21.9000;0.6927;-0.3352;
22.2000;0.6927;-0.3401;
22.5000;0.6952;-0.3377;
22.8000;0.6968;-0.3327;
23.1000;0.6960;-0.3377;
23.4000;0.6960;-0.3426;
23.7000;0.6976;-0.3500;
24.0000;0.6968;-0.3598;
24.3000;0.6992;-0.3524;
24.6000;0.7009;-0.3574;
24.9000;0.6992;-0.3574;
25.2000;0.7009;-0.3475;
25.5000;0.7000;-0.3524;
25.8000;0.7025;-0.3598;
26.1000;0.7017;-0.3648;
26.4000;0.7041;-0.3549;
26.7000;0.7057;-0.3475;
27.0000;0.7033;-0.3598;
27.3000;0.7041;-0.3648;
27.6000;0.7049;-0.3598;
27.9000;0.7057;-0.3648;
28.2000;0.7066;-0.3697;
28.5000;0.7090;-0.3722;
28.8000;0.7082;-0.3746;
29.1000;0.7098;-0.3820;
29.4000;0.7131;-0.3722;
29.7000;0.7082;-0.3796;
30.0000;0.7041;-0.3869;
30.3000;0.7114;-0.3771;
30.6000;0.7106;-0.3796;
30.9000;0.7106;-0.3869;
31.2000;0.7114;-0.3894;
31.5000;0.7114;-0.3919;
31.8000;0.7114;-0.3943;
32.1000;0.7123;-0.4017;
32.4000;0.7114;-0.4116;
32.7000;0.7139;-0.4141;
33.0000;0.7131;-0.4141;
33.3000;0.7131;-0.4116;
33.6000;0.7147;-0.4067;
33.9000;0.7155;-0.4141;
34.2000;0.7163;-0.4091;
34.5000;0.7171;-0.4067;
34.8000;0.7114;-0.4141;
35.1000;0.7179;-0.4116;
35.4000;0.7196;-0.4116;
35.7000;0.7196;-0.4239;
36.0000;0.7179;-0.4362;
36.3000;0.7188;-0.4313;
36.6000;0.7204;-0.4387;
36.9000;0.7204;-0.4338;
37.2000;0.7204;-0.4362;
37.5000;0.7220;-0.4288;
37.8000;0.7220;-0.4264;
38.1000;0.7261;-0.4091;
38.4000;0.7196;-0.4165;
38.7000;0.7228;-0.4042;
39.0000;0.7245;-0.3993;
39.3000;0.7236;-0.4042;
39.6000;0.7253;-0.4042;
39.9000;0.7245;-0.4116;
40.2000;0.7245;-0.4042;
40.5000;0.7261;-0.3968;
40.8000;0.7269;-0.3943;
41.1000;0.7188;-0.4165;
41.4000;0.7261;-0.4042;
41.7000;0.7277;-0.4017;
42.0000;0.7253;-0.4116;
42.3000;0.7293;-0.4190;
42.6000;0.7269;-0.4264;
42.9000;0.7350;-0.4017;
43.2000;0.7277;-0.4116;
43.5000;0.7302;-0.4141;
43.8000;0.7318;-0.4141;
44.1000;0.7310;-0.4165;
44.4000;0.7318;-0.4288;
44.7000;0.7261;-0.4412;
45.0000;0.7334;-0.4239;
45.3000;0.7310;-0.4264;
45.6000;0.7342;-0.4116;
45.9000;0.7334;-0.4215;
46.2000;0.7350;-0.4165;
46.5000;0.7359;-0.4116;
46.8000;0.7342;-0.4116;
47.1000;0.7350;-0.4215;
47.4000;0.7342;-0.4239;
47.7000;0.7334;-0.4239;
48.0000;0.7383;-0.4141;
48.3000;0.7359;-0.4264;
48.6000;0.7383;-0.4264;
48.9000;0.7359;-0.4313;
49.2000;0.7391;-0.4239;
49.5000;0.7399;-0.4190;
49.8000;0.7391;-0.4288;
50.1000;0.7391;-0.4264;
50.4000;0.7416;-0.4165;
50.7000;0.7350;-0.4313;
51.0000;0.7407;-0.4215;
51.3000;0.7399;-0.4288;
51.6000;0.7416;-0.4362;
51.9000;0.7424;-0.4436;
52.2000;0.7424;-0.4436;
52.5000;0.7416;-0.4461;
52.8000;0.7456;-0.4412;
53.1000;0.7424;-0.4510;
53.4000;0.7448;-0.4535;
53.7000;0.7424;-0.4658;
54.0000;0.7448;-0.4658;
54.3000;0.7464;-0.4609;
54.6000;0.7473;-0.4510;
54.9000;0.7464;-0.4560;
55.2000;0.7464;-0.4609;
55.5000;0.7407;-0.4757;
55.8000;0.7481;-0.4683;
56.1000;0.7473;-0.4707;
56.4000;0.7481;-0.4707;
56.7000;0.7497;-0.4732;
57.0000;0.7489;-0.4905;
57.3000;0.7521;-0.4781;
57.6000;0.7505;-0.4757;
57.9000;0.7489;-0.4732;
58.2000;0.7497;-0.4781;
58.5000;0.7513;-0.4806;
58.8000;0.7497;-0.4806;
59.1000;0.7521;-0.4732;
59.4000;0.7530;-0.4732;
59.7000;0.7538;-0.4806;
60.0000;0.7546;-0.4880;
60.3000;0.7546;-0.4880;
60.6000;0.7595;-0.4757;
60.9000;0.7538;-0.4880;
61.2000;0.7562;-0.4806;
61.5000;0.7546;-0.4757;
61.8000;0.7570;-0.4683;
62.1000;0.7546;-0.4732;
62.4000;0.7554;-0.4732;
62.7000;0.7578;-0.4732;
63.0000;0.7570;-0.4757;
63.3000;0.7562;-0.4707;
63.6000;0.7586;-0.4634;
63.9000;0.7562;-0.4707;
64.2000;0.7586;-0.4732;
64.5000;0.7603;-0.4732;
64.8000;0.7538;-0.4979;
65.1000;0.7603;-0.4905;
65.4000;0.7586;-0.4905;
65.7000;0.7595;-0.4929;
66.0000;0.7700;-0.4707;
66.3000;0.7578;-0.4954;
66.6000;0.7578;-0.4979;
66.9000;0.7570;-0.5077;
67.2000;0.7562;-0.5102;
67.5000;0.7635;-0.4929;
67.8000;0.7635;-0.5102;
68.1000;0.7627;-0.5176;
68.4000;0.7619;-0.5151;
68.7000;0.7627;-0.5077;
69.0000;0.7619;-0.5077;
69.3000;0.7627;-0.5028;
69.6000;0.7635;-0.5003;
69.9000;0.7668;-0.4880;
70.2000;0.7586;-0.5126;
70.5000;0.7635;-0.5028;
70.8000;0.7660;-0.5003;
71.1000;0.7668;-0.5003;
71.4000;0.7668;-0.5028;
71.7000;0.7709;-0.4979;
72.0000;0.7668;-0.5102;
72.3000;0.7676;-0.5102;
72.6000;0.7684;-0.5003;
72.9000;0.7643;-0.5003;
73.2000;0.7692;-0.4929;
73.5000;0.7684;-0.5053;
73.8000;0.7692;-0.4979;
74.1000;0.7676;-0.5077;
74.4000;0.7684;-0.5053;
74.7000;0.7700;-0.5102;
75.0000;0.7684;-0.5200;
75.3000;0.7692;-0.5200;
75.6000;0.7709;-0.5102;
75.9000;0.7709;-0.5053;
76.2000;0.7709;-0.5077;
76.5000;0.7676;-0.5176;
76.8000;0.7717;-0.5126;
77.1000;0.7709;-0.5274;
77.4000;0.7692;-0.5299;
77.7000;0.7725;-0.5398;
78.0000;0.7700;-0.5398;
78.3000;0.7709;-0.5398;
78.6000;0.7709;-0.5373;
78.9000;0.7717;-0.5324;
79.2000;0.7741;-0.5250;
79.5000;0.7725;-0.5250;
79.8000;0.7725;-0.5176;
80.1000;0.7741;-0.5053;
80.4000;0.7733;-0.5053;
80.7000;0.7790;-0.4905;
81.0000;0.7717;-0.5028;
81.3000;0.7749;-0.4929;
81.6000;0.7782;-0.4880;
81.9000;0.7757;-0.5053;
82.2000;0.7757;-0.5077;
82.5000;0.7782;-0.5028;
82.8000;0.7766;-0.5102;
83.1000;0.7757;-0.5053;
83.4000;0.7766;-0.5077;
83.7000;0.7774;-0.5053;
84.0000;0.7798;-0.4954;
84.3000;0.7782;-0.5028;
84.6000;0.7774;-0.5028;
84.9000;0.7782;-0.5003;
85.2000;0.7790;-0.4954;
85.5000;0.7798;-0.5028;
85.8000;0.7757;-0.5151;
86.1000;0.7790;-0.5200;
86.4000;0.7831;-0.5225;
86.7000;0.7782;-0.5373;
87.0000;0.7774;-0.5348;
87.3000;0.7814;-0.5250;
87.6000;0.7839;-0.5200;
87.9000;0.7774;-0.5422;
88.2000;0.7814;-0.5324;
88.5000;0.7814;-0.5299;
88.8000;0.7798;-0.5398;
89.1000;0.7839;-0.5373;
89.4000;0.7798;-0.5496;
89.7000;0.7790;-0.5545;
90.0000;0.7880;-0.5299;
90.3000;0.7814;-0.5447;
90.6000;0.7831;-0.5422;
90.9000;0.7798;-0.5545;
91.2000;0.7766;-0.5521;
91.5000;0.7863;-0.5348;
91.8000;0.7806;-0.5422;
92.1000;0.7806;-0.5398;
92.4000;0.7814;-0.5373;
92.7000;0.7814;-0.5398;
93.0000;0.7855;-0.5521;
93.3000;0.7831;-0.5595;
93.6000;0.7831;-0.5496;
93.9000;0.7831;-0.5496;
94.2000;0.7839;-0.5496;
94.5000;0.7863;-0.5422;
94.8000;0.7831;-0.5619;
95.1000;0.7855;-0.5545;
95.4000;0.7831;-0.5545;
95.7000;0.7888;-0.5398;
96.0000;0.7806;-0.5669;
96.3000;0.7863;-0.5570;
96.6000;0.7839;-0.5718;
96.9000;0.7855;-0.5644;
97.2000;0.7847;-0.5644;
97.5000;0.7831;-0.5669;
97.8000;0.7855;-0.5545;
98.1000;0.7847;-0.5545;
98.4000;0.7847;-0.5496;
98.7000;0.7847;-0.5422;
99.0000;0.7839;-0.5447;
99.3000;0.7880;-0.5398;
99.6000;0.7871;-0.5398;
99.9000;0.7839;-0.5422;
100.2000;0.7847;-0.5250;
100.5000;0.7790;-0.5447;
100.8000;0.7855;-0.5348;
101.1000;0.7871;-0.5324;
101.4000;0.7798;-0.5521;
101.7000;0.7871;-0.5422;
102.0000;0.7790;-0.5521;
102.3000;0.7766;-0.5595;
102.6000;0.7839;-0.5447;
102.9000;0.7847;-0.5398;
103.2000;0.7855;-0.5472;
103.5000;0.7896;-0.5373;
103.8000;0.7814;-0.5545;
104.1000;0.7855;-0.5447;
104.4000;0.7863;-0.5398;
104.7000;0.7863;-0.5373;
105.0000;0.7863;-0.5422;
105.3000;0.7863;-0.5348;
105.6000;0.7871;-0.5348;
105.9000;0.7928;-0.5274;
106.2000;0.7871;-0.5348;
106.5000;0.7863;-0.5373;
106.8000;0.7961;-0.5200;
107.1000;0.7888;-0.5324;
107.4000;0.7871;-0.5348;
107.7000;0.7896;-0.5373;
108.0000;0.7855;-0.5496;
108.3000;0.7880;-0.5422;
108.6000;0.7871;-0.5521;
108.9000;0.7896;-0.5472;
109.2000;0.7880;-0.5570;
109.5000;0.7888;-0.5472;
109.8000;0.7896;-0.5496;
110.1000;0.7871;-0.5545;
110.4000;0.7880;-0.5472;
110.7000;0.7896;-0.5373;
111.0000;0.7863;-0.5447;
111.3000;0.7888;-0.5274;
111.6000;0.7896;-0.5348;
111.9000;0.7888;-0.5348;
112.2000;0.7896;-0.5324;
112.5000;0.7928;-0.5373;
112.8000;0.7896;-0.5373;
113.1000;0.7888;-0.5447;
113.4000;0.7904;-0.5398;
113.7000;0.7953;-0.5324;
114.0000;0.7904;-0.5447;
114.3000;0.7888;-0.5521;
114.6000;0.7896;-0.5422;
114.9000;0.7888;-0.5348;
115.2000;0.7880;-0.5324;
115.5000;0.7863;-0.5274;
115.8000;0.7912;-0.5102;
116.1000;0.7912;-0.5200;
116.4000;0.7904;-0.5398;
116.7000;0.7920;-0.5422;
117.0000;0.7888;-0.5398;
117.3000;0.7904;-0.5324;
117.6000;0.7888;-0.5324;
117.9000;0.7904;-0.5225;
118.2000;0.7904;-0.5176;
118.5000;0.7937;-0.5102;
118.8000;0.7871;-0.5225;
119.1000;0.7896;-0.5225;
119.4000;0.7912;-0.5250;
119.7000;0.7896;-0.5299;
120.0000;0.7912;-0.5274;
120.3000;0.7839;-0.5422;
120.6000;0.7888;-0.5274;
120.9000;0.7920;-0.5274;
121.2000;0.7920;-0.5274;
121.5000;0.7953;-0.5200;
121.8000;0.7871;-0.5496;
122.1000;0.7912;-0.5545;
122.4000;0.7880;-0.5595;
122.7000;0.7912;-0.5472;
123.0000;0.7912;-0.5447;
123.3000;0.7896;-0.5496;
123.6000;0.7912;-0.5422;
123.9000;0.7912;-0.5398;
124.2000;0.7888;-0.5496;
124.5000;0.7847;-0.5570;
124.8000;0.7912;-0.5373;
125.1000;0.7912;-0.5324;
125.4000;0.7904;-0.5472;
125.7000;0.7904;-0.5398;
126.0000;0.7888;-0.5447;
126.3000;0.7953;-0.5274;
126.6000;0.7896;-0.5447;
126.9000;0.7888;-0.5422;
127.2000;0.7920;-0.5398;
127.5000;0.7945;-0.5348;
127.8000;0.7863;-0.5644;
128.1000;0.7961;-0.5521;
128.4000;0.7920;-0.5619;
128.7000;0.7904;-0.5644;
129.0000;0.7945;-0.5644;
129.3000;0.7912;-0.5718;
129.6000;0.7904;-0.5669;
129.9000;0.7912;-0.5619;
130.2000;0.7912;-0.5595;
130.5000;0.7888;-0.5644;
130.8000;0.7888;-0.5595;
131.1000;0.7928;-0.5472;
131.4000;0.7912;-0.5521;
131.7000;0.7904;-0.5521;
132.0000;0.7912;-0.5472;
132.3000;0.7928;-0.5422;
132.6000;0.7937;-0.5472;
132.9000;0.7912;-0.5496;
133.2000;0.7904;-0.5545;
133.5000;0.7912;-0.5447;
133.8000;0.7904;-0.5496;
134.1000;0.7904;-0.5447;
134.4000;0.7928;-0.5447;
134.7000;0.7904;-0.5545;
135.0000;0.7912;-0.5496;
135.3000;0.7912;-0.5472;
135.6000;0.7896;-0.5521;
135.9000;0.7904;-0.5545;
136.2000;0.7920;-0.5472;
136.5000;0.7953;-0.5398;
136.8000;0.7863;-0.5545;
137.1000;0.7888;-0.5595;
137.4000;0.7904;-0.5595;
137.7000;0.7912;-0.5496;
138.0000;0.7904;-0.5447;
138.3000;0.7847;-0.5570;
138.6000;0.7880;-0.5422;
138.9000;0.7904;-0.5324;
139.2000;0.7904;-0.5324;
139.5000;0.7896;-0.5398;
139.8000;0.7896;-0.5447;
140.1000;0.7896;-0.5447;
140.4000;0.7880;-0.5447;
140.7000;0.7928;-0.5324;
141.0000;0.7920;-0.5299;
141.3000;0.7945;-0.5151;
141.6000;0.7863;-0.5250;
141.9000;0.7920;-0.5151;
142.2000;0.7912;-0.5176;
142.5000;0.7937;-0.5102;
142.8000;0.7928;-0.5225;
143.1000;0.7985;-0.5225;
143.4000;0.7937;-0.5348;
143.7000;0.7871;-0.5472;
144.0000;0.7912;-0.5398;
144.3000;0.7912;-0.5422;
144.6000;0.7912;-0.5398;
144.9000;0.7912;-0.5472;
145.2000;0.7920;-0.5496;
145.5000;0.7896;-0.5496;
145.8000;0.7912;-0.5472;
146.1000;0.7904;-0.5472;
146.4000;0.7945;-0.5324;
146.7000;0.7888;-0.5472;
147.0000;0.7904;-0.5472;
147.3000;0.7888;-0.5422;
147.6000;0.7896;-0.5472;
147.9000;0.7912;-0.5422;
148.2000;0.7912;-0.5373;
148.5000;0.7904;-0.5324;
148.8000;0.7896;-0.5225;
149.1000;0.7904;-0.5250;
149.4000;0.7904;-0.5250;
149.7000;0.7904;-0.5348;
150.0000;0.7888;-0.5324;
150.3000;0.7904;-0.5324;
150.6000;0.7888;-0.5422;
150.9000;0.7896;-0.5447;
151.2000;0.7904;-0.5422;
151.5000;0.7904;-0.5422;
151.8000;0.7920;-0.5447;
152.1000;0.7928;-0.5472;
152.4000;0.7912;-0.5521;
152.7000;0.7888;-0.5496;
153.0000;0.7920;-0.5472;
153.3000;0.7920;-0.5447;
153.6000;0.7880;-0.5521;
153.9000;0.7904;-0.5373;
154.2000;0.7896;-0.5348;
154.5000;0.7904;-0.5398;
154.8000;0.7896;-0.5398;
155.1000;0.7896;-0.5472;
155.4000;0.7888;-0.5398;
155.7000;0.7888;-0.5472;
156.0000;0.7888;-0.5447;
156.3000;0.7896;-0.5521;
156.6000;0.7912;-0.5496;
156.9000;0.7896;-0.5570;
157.2000;0.7871;-0.5496;
157.5000;0.7912;-0.5398;
157.8000;0.7945;-0.5299;
158.1000;0.7920;-0.5348;
158.4000;0.7969;-0.5274;
158.7000;0.7945;-0.5250;
159.0000;0.7896;-0.5398;
159.3000;0.7855;-0.5521;
159.6000;0.7953;-0.5274;
159.9000;0.7888;-0.5521;
160.2000;0.7896;-0.5472;
160.5000;0.7937;-0.5398;
160.8000;0.7888;-0.5422;
161.1000;0.7904;-0.5472;
161.4000;0.7855;-0.5472;
161.7000;0.7896;-0.5274;
162.0000;0.7912;-0.5176;
162.3000;0.7904;-0.5102;
162.6000;0.7839;-0.5250;
162.9000;0.7871;-0.5225;
163.2000;0.7888;-0.5053;
163.5000;0.7904;-0.5053;
163.8000;0.7904;-0.5077;
164.1000;0.7888;-0.5077;
164.4000;0.7888;-0.5102;
164.7000;0.7871;-0.5225;
165.0000;0.7888;-0.5299;
165.3000;0.7888;-0.5225;
165.6000;0.7977;-0.5028;
165.9000;0.7912;-0.5151;
166.2000;0.7896;-0.5274;
166.5000;0.7904;-0.5299;
166.8000;0.7904;-0.5299;
167.1000;0.7896;-0.5373;
167.4000;0.7847;-0.5521;
167.7000;0.7880;-0.5472;
168.0000;0.7888;-0.5348;
168.3000;0.7904;-0.5348;
168.6000;0.7896;-0.5348;
168.9000;0.7880;-0.5422;
169.2000;0.7831;-0.5570;
169.5000;0.7888;-0.5521;
169.8000;0.7904;-0.5447;
170.1000;0.7912;-0.5398;
170.4000;0.7912;-0.5373;
170.7000;0.7920;-0.5274;
171.0000;0.7912;-0.5176;
171.3000;0.7904;-0.5225;
171.6000;0.7871;-0.5324;
171.9000;0.7928;-0.5250;
172.2000;0.7888;-0.5250;
172.5000;0.7896;-0.5225;
172.8000;0.7823;-0.5398;
173.1000;0.7904;-0.5225;
173.4000;0.7896;-0.5225;
173.7000;0.7888;-0.5225;
174.0000;0.7904;-0.5225;
174.3000;0.7880;-0.5274;
174.6000;0.7896;-0.5225;
174.9000;0.7888;-0.5250;
175.2000;0.7831;-0.5398;
175.5000;0.7880;-0.5250;
175.8000;0.7863;-0.5250;
176.1000;0.7880;-0.5151;
176.4000;0.7871;-0.5225;
176.7000;0.7863;-0.5274;
177.0000;0.7888;-0.5176;
177.3000;0.7880;-0.5077;
177.6000;0.7888;-0.5053;
177.9000;0.7888;-0.5102;
178.2000;0.7904;-0.5028;
178.5000;0.7904;-0.5077;
178.8000;0.7896;-0.5077;
179.1000;0.7888;-0.5126;
179.4000;0.7920;-0.5053;
179.7000;0.7888;-0.5151;
180.0000;0.7880;-0.5299;
180.3000;0.7888;-0.5274;
180.6000;0.7888;-0.5250;
180.9000;0.7904;-0.5126;
181.2000;0.7880;-0.5102;
181.5000;0.7871;-0.5274;
181.8000;0.7888;-0.5373;
182.1000;0.7904;-0.5398;
182.4000;0.7896;-0.5422;
182.7000;0.7896;-0.5373;
183.0000;0.7945;-0.5299;
183.3000;0.7871;-0.5472;
183.6000;0.7888;-0.5299;
183.9000;0.7880;-0.5348;
184.2000;0.7855;-0.5373;
184.5000;0.7863;-0.5348;
184.8000;0.7863;-0.5422;
185.1000;0.7847;-0.5422;
185.4000;0.7823;-0.5373;
185.7000;0.7871;-0.5274;
186.0000;0.7855;-0.5274;
186.3000;0.7871;-0.5225;
186.6000;0.7847;-0.5225;
186.9000;0.7823;-0.5324;
187.2000;0.7888;-0.5200;
187.5000;0.7880;-0.5126;
187.8000;0.7880;-0.5176;
188.1000;0.7863;-0.5151;
188.4000;0.7871;-0.5126;
188.7000;0.7880;-0.5151;
189.0000;0.7871;-0.5151;
189.3000;0.7888;-0.5126;
189.6000;0.7863;-0.5102;
189.9000;0.7863;-0.5102;
190.2000;0.7880;-0.5077;
190.5000;0.7823;-0.5274;
190.8000;0.7855;-0.5250;
191.1000;0.7863;-0.5299;
191.4000;0.7863;-0.5176;
191.7000;0.7920;-0.5077;
192.0000;0.7863;-0.5200;
192.3000;0.7855;-0.5126;
192.6000;0.7855;-0.5126;
192.9000;0.7863;-0.5077;
193.2000;0.7839;-0.5151;
193.5000;0.7839;-0.5151;
193.8000;0.7871;-0.5151;
194.1000;0.7855;-0.5176;
194.4000;0.7855;-0.5200;
194.7000;0.7839;-0.5299;
195.0000;0.7863;-0.5373;
195.3000;0.7855;-0.5398;
195.6000;0.7814;-0.5496;
195.9000;0.7823;-0.5570;
196.2000;0.7766;-0.5743;
196.5000;0.7871;-0.5472;
196.8000;0.7855;-0.5447;
197.1000;0.7880;-0.5348;
197.4000;0.7863;-0.5299;
197.7000;0.7855;-0.5200;
198.0000;0.7863;-0.5176;
198.3000;0.7855;-0.5126;
198.6000;0.7839;-0.5102;
198.9000;0.7847;-0.5077;
199.2000;0.7839;-0.5028;
199.5000;0.7855;-0.5126;
199.8000;0.7928;-0.4954;
200.1000;0.7766;-0.5348;
200.4000;0.7863;-0.5250;
200.7000;0.7847;-0.5324;
201.0000;0.7847;-0.5250;
201.3000;0.7855;-0.5348;
201.6000;0.7863;-0.5324;
201.9000;0.7847;-0.5348;
202.2000;0.7839;-0.5398;
202.5000;0.7847;-0.5324;
202.8000;0.7855;-0.5250;
203.1000;0.7863;-0.5250;
203.4000;0.7855;-0.5299;
203.7000;0.7847;-0.5225;
204.0000;0.7871;-0.5151;
204.3000;0.7863;-0.5176;
204.6000;0.7839;-0.5225;
204.9000;0.7839;-0.5250;
205.2000;0.7888;-0.5176;
205.5000;0.7831;-0.5299;
205.8000;0.7847;-0.5299;
206.1000;0.7814;-0.5348;
206.4000;0.7847;-0.5200;
206.7000;0.7847;-0.5102;
207.0000;0.7823;-0.5126;
207.3000;0.7831;-0.5126;
207.6000;0.7847;-0.5053;
207.9000;0.7839;-0.5077;
208.2000;0.7928;-0.4806;
208.5000;0.7798;-0.5102;
208.8000;0.7839;-0.5028;
209.1000;0.7831;-0.5126;
209.4000;0.7839;-0.5200;
209.7000;0.7847;-0.5176;
210.0000;0.7823;-0.5200;
210.3000;0.7798;-0.5151;
210.6000;0.7855;-0.5102;
210.9000;0.7831;-0.5151;
211.2000;0.7839;-0.5151;
211.5000;0.7757;-0.5299;
211.8000;0.7839;-0.5053;
212.1000;0.7847;-0.5053;
212.4000;0.7839;-0.5176;
212.7000;0.7839;-0.5348;
213.0000;0.7847;-0.5274;
213.3000;0.7839;-0.5151;
213.6000;0.7847;-0.5200;
213.9000;0.7831;-0.5200;
214.2000;0.7847;-0.5126;
214.5000;0.7814;-0.5225;
214.8000;0.7904;-0.5028;
215.1000;0.7863;-0.5176;
215.4000;0.7847;-0.5250;
215.7000;0.7855;-0.5299;
216.0000;0.7798;-0.5324;
216.3000;0.7806;-0.5250;
216.6000;0.7798;-0.5225;
216.9000;0.7847;-0.5126;
217.2000;0.7839;-0.5151;
217.5000;0.7790;-0.5250;
217.8000;0.7823;-0.5176;
218.1000;0.7814;-0.5250;
218.4000;0.7749;-0.5422;
218.7000;0.7782;-0.5299;
219.0000;0.7855;-0.5053;
219.3000;0.7798;-0.5176;
219.6000;0.7798;-0.5176;
219.9000;0.7823;-0.5126;
220.2000;0.7888;-0.4880;
220.5000;0.7823;-0.4979;
220.8000;0.7814;-0.5003;
221.1000;0.7839;-0.5003;
221.4000;0.7823;-0.5102;
221.7000;0.7814;-0.5077;
222.0000;0.7831;-0.5102;
222.3000;0.7823;-0.5225;
222.6000;0.7896;-0.5102;
222.9000;0.7823;-0.5250;
223.2000;0.7823;-0.5250;
223.5000;0.7839;-0.5176;
223.8000;0.7831;-0.5200;
224.1000;0.7831;-0.5102;
224.4000;0.7847;-0.5028;
224.7000;0.7839;-0.5028;
225.0000;0.7831;-0.5028;
225.3000;0.7855;-0.5003;
225.6000;0.7823;-0.5077;
225.9000;0.7814;-0.5102;
226.2000;0.7790;-0.5126;
226.5000;0.7814;-0.5102;
226.8000;0.7831;-0.5077;
227.1000;0.7847;-0.5077;
227.4000;0.7823;-0.5200;
227.7000;0.7814;-0.5225;
228.0000;0.7814;-0.5250;
228.3000;0.7823;-0.5102;
228.6000;0.7823;-0.5151;
228.9000;0.7814;-0.5053;
229.2000;0.7823;-0.5077;
229.5000;0.7871;-0.5003;
229.8000;0.7823;-0.5151;
230.1000;0.7823;-0.5151;
230.4000;0.7831;-0.5077;
230.7000;0.7823;-0.5126;
231.0000;0.7831;-0.5126;
231.3000;0.7757;-0.5200;
231.6000;0.7806;-0.5102;
231.9000;0.7798;-0.5102;
232.2000;0.7823;-0.5028;
232.5000;0.7806;-0.5126;
232.8000;0.7814;-0.5151;
233.1000;0.7806;-0.5176;
233.4000;0.7806;-0.5126;
233.7000;0.7782;-0.5274;
234.0000;0.7823;-0.5102;
234.3000;0.7831;-0.5053;
234.6000;0.7741;-0.5176;
234.9000;0.7798;-0.4979;
235.2000;0.7823;-0.4929;
235.5000;0.7782;-0.4954;
235.8000;0.7814;-0.4880;
236.1000;0.7855;-0.4905;
236.4000;0.7806;-0.5077;
236.7000;0.7814;-0.5102;
237.0000;0.7806;-0.5102;
237.3000;0.7839;-0.5053;
237.6000;0.7806;-0.5102;
237.9000;0.7782;-0.5176;
238.2000;0.7806;-0.5028;
238.5000;0.7790;-0.5077;
238.8000;0.7814;-0.5053;
239.1000;0.7806;-0.5126;
239.4000;0.7782;-0.5176;
239.7000;0.7839;-0.4905;
240.0000;0.7847;-0.4880;
240.3000;0.7888;-0.4806;
240.6000;0.7806;-0.5053;
240.9000;0.7823;-0.4979;
241.2000;0.7806;-0.4929;
241.5000;0.7831;-0.4905;
241.8000;0.7814;-0.4855;
242.1000;0.7806;-0.4905;
242.4000;0.7814;-0.4979;
242.7000;0.7814;-0.5003;
243.0000;0.7749;-0.5176;
243.3000;0.7798;-0.5102;
243.6000;0.7757;-0.5274;
243.9000;0.7814;-0.5126;
244.2000;0.7871;-0.4905;
244.5000;0.7806;-0.4979;
244.8000;0.7798;-0.4905;
245.1000;0.7806;-0.4831;
245.4000;0.7814;-0.4781;
245.7000;0.7806;-0.4732;
246.0000;0.7782;-0.4806;
246.3000;0.7798;-0.4757;
246.6000;0.7831;-0.4707;
246.9000;0.7774;-0.4831;
247.2000;0.7790;-0.4806;
247.5000;0.7782;-0.4831;
247.8000;0.7790;-0.4806;
248.1000;0.7806;-0.4806;
248.4000;0.7790;-0.4905;
248.7000;0.7790;-0.4979;
249.0000;0.7782;-0.5028;
249.3000;0.7806;-0.4880;
249.6000;0.7798;-0.4954;
249.9000;0.7814;-0.4929;
250.2000;0.7790;-0.5003;
250.5000;0.7814;-0.4880;
250.8000;0.7782;-0.4929;
251.1000;0.7806;-0.4806;
251.4000;0.7831;-0.4732;
251.7000;0.7814;-0.4732;
252.0000;0.7814;-0.4757;
252.3000;0.7806;-0.4806;
252.6000;0.7814;-0.4831;
252.9000;0.7806;-0.4880;
253.2000;0.7806;-0.4905;
253.5000;0.7798;-0.4929;
253.8000;0.7806;-0.4979;
254.1000;0.7798;-0.5077;
254.4000;0.7790;-0.5053;
254.7000;0.7766;-0.5126;
255.0000;0.7798;-0.5077;
255.3000;0.7806;-0.5053;
255.6000;0.7871;-0.4781;
255.9000;0.7798;-0.4905;
256.2000;0.7806;-0.4905;
256.5000;0.7806;-0.4979;
256.8000;0.7798;-0.5102;
257.1000;0.7798;-0.5077;
257.4000;0.7790;-0.5028;
257.7000;0.7798;-0.4929;
258.0000;0.7790;-0.4929;
258.3000;0.7782;-0.4905;
258.6000;0.7798;-0.4880;
258.9000;0.7798;-0.4880;
259.2000;0.7790;-0.4855;
259.5000;0.7806;-0.4855;
259.8000;0.7798;-0.4757;
260.1000;0.7798;-0.4683;
260.4000;0.7790;-0.4658;
260.7000;0.7782;-0.4634;
261.0000;0.7798;-0.4658;
261.3000;0.7782;-0.4831;
261.6000;0.7790;-0.4855;
261.9000;0.7790;-0.4831;
262.2000;0.7782;-0.4806;
262.5000;0.7766;-0.4831;
262.8000;0.7766;-0.4806;
263.1000;0.7790;-0.4831;
263.4000;0.7774;-0.4831;
263.7000;0.7798;-0.4855;
264.0000;0.7782;-0.4806;
264.3000;0.7790;-0.4880;
264.6000;0.7782;-0.4831;
264.9000;0.7757;-0.4831;
265.2000;0.7798;-0.4781;
265.5000;0.7798;-0.4732;
265.8000;0.7798;-0.4732;
266.1000;0.7782;-0.4806;
266.4000;0.7814;-0.4707;
266.7000;0.7790;-0.4683;
267.0000;0.7790;-0.4757;
267.3000;0.7774;-0.4683;
267.6000;0.7709;-0.4683;
267.9000;0.7766;-0.4436;
268.2000;0.7757;-0.4461;
268.5000;0.7790;-0.4535;
268.8000;0.7782;-0.4707;
269.1000;0.7790;-0.4683;
269.4000;0.7766;-0.4732;
269.7000;0.7798;-0.4560;
270.0000;0.7774;-0.4560;
270.3000;0.7798;-0.4486;
270.6000;0.7782;-0.4584;
270.9000;0.7766;-0.4584;
271.2000;0.7766;-0.4560;
271.5000;0.7782;-0.4535;
271.8000;0.7766;-0.4634;
272.1000;0.7774;-0.4683;
272.4000;0.7782;-0.4658;
272.7000;0.7790;-0.4683;
273.0000;0.7782;-0.4609;
273.3000;0.7741;-0.4609;
273.6000;0.7766;-0.4560;
273.9000;0.7806;-0.4461;
274.2000;0.7766;-0.4560;
274.5000;0.7790;-0.4461;
274.8000;0.7757;-0.4634;
275.1000;0.7782;-0.4634;
275.4000;0.7766;-0.4707;
275.7000;0.7741;-0.4757;
276.0000;0.7774;-0.4609;
276.3000;0.7741;-0.4757;
276.6000;0.7774;-0.4634;
276.9000;0.7798;-0.4584;
277.2000;0.7741;-0.4707;
277.5000;0.7757;-0.4658;
277.8000;0.7766;-0.4757;
278.1000;0.7782;-0.4732;
278.4000;0.7757;-0.4781;
278.7000;0.7782;-0.4683;
279.0000;0.7766;-0.4732;
279.3000;0.7798;-0.4683;
279.6000;0.7766;-0.4732;
279.9000;0.7782;-0.4683;
280.2000;0.7766;-0.4757;
280.5000;0.7774;-0.4584;
280.8000;0.7782;-0.4535;
281.1000;0.7700;-0.4707;
281.4000;0.7757;-0.4535;
281.7000;0.7774;-0.4486;
282.0000;0.7766;-0.4560;
282.3000;0.7774;-0.4609;
282.6000;0.7814;-0.4535;
282.9000;0.7668;-0.4979;
283.2000;0.7831;-0.4609;
283.5000;0.7709;-0.4855;
283.8000;0.7766;-0.4732;
284.1000;0.7774;-0.4707;
284.4000;0.7774;-0.4707;
284.7000;0.7774;-0.4683;
285.0000;0.7847;-0.4486;
285.3000;0.7782;-0.4634;
285.6000;0.7831;-0.4584;
285.9000;0.7766;-0.4781;
286.2000;0.7774;-0.4855;
286.5000;0.7766;-0.4855;
286.8000;0.7774;-0.4855;
287.1000;0.7766;-0.4880;
287.4000;0.7757;-0.4954;
287.7000;0.7741;-0.5053;
288.0000;0.7766;-0.5028;
288.3000;0.7766;-0.4954;
288.6000;0.7741;-0.4979;
288.9000;0.7749;-0.4979;
289.2000;0.7766;-0.4929;
289.5000;0.7774;-0.4855;
289.8000;0.7757;-0.4781;
290.1000;0.7741;-0.4634;
290.4000;0.7757;-0.4658;
290.7000;0.7749;-0.4683;
291.0000;0.7790;-0.4584;
291.3000;0.7749;-0.4609;
291.6000;0.7741;-0.4535;
291.9000;0.7725;-0.4609;
292.2000;0.7749;-0.4609;
292.5000;0.7749;-0.4707;
292.8000;0.7749;-0.4658;
293.1000;0.7749;-0.4560;
293.4000;0.7741;-0.4609;
293.7000;0.7749;-0.4609;
294.0000;0.7733;-0.4658;
294.3000;0.7749;-0.4634;
294.6000;0.7757;-0.4584;
294.9000;0.7757;-0.4584;
295.2000;0.7733;-0.4658;
295.5000;0.7749;-0.4584;
295.8000;0.7766;-0.4560;
296.1000;0.7749;-0.4560;
296.4000;0.7741;-0.4584;
296.7000;0.7757;-0.4584;
297.0000;0.7749;-0.4510;
297.3000;0.7733;-0.4560;
297.6000;0.7757;-0.4535;
297.9000;0.7741;-0.4535;
298.2000;0.7766;-0.4461;
298.5000;0.7741;-0.4584;
298.8000;0.7741;-0.4560;
299.1000;0.7806;-0.4338;
299.4000;0.7741;-0.4560;
299.7000;0.7741;-0.4658;
300.0000;0.7749;-0.4683;
300.3000;0.7766;-0.4732;
300.6000;0.7806;-0.4609;
300.9000;0.7749;-0.4831;
301.2000;0.7684;-0.4979;
301.5000;0.7741;-0.4806;
301.8000;0.7766;-0.4806;
302.1000;0.7733;-0.4855;
302.4000;0.7749;-0.4757;
302.7000;0.7741;-0.4831;
303.0000;0.7749;-0.4855;
303.3000;0.7741;-0.4855;
303.6000;0.7782;-0.4634;
303.9000;0.7741;-0.4707;
304.2000;0.7790;-0.4535;
304.5000;0.7741;-0.4658;
304.8000;0.7741;-0.4560;
305.1000;0.7766;-0.4510;
305.4000;0.7823;-0.4436;
305.7000;0.7717;-0.4584;
306.0000;0.7888;-0.4165;
306.3000;0.7757;-0.4535;
306.6000;0.7749;-0.4658;
306.9000;0.7741;-0.4732;
307.2000;0.7749;-0.4732;
307.5000;0.7741;-0.4806;
307.8000;0.7741;-0.4880;
308.1000;0.7741;-0.4880;
308.4000;0.7741;-0.4831;
308.7000;0.7660;-0.5003;
309.0000;0.7652;-0.4954;
309.3000;0.7733;-0.4658;
309.6000;0.7725;-0.4683;
309.9000;0.7741;-0.4707;
310.2000;0.7749;-0.4831;
310.5000;0.7741;-0.4781;
310.8000;0.7733;-0.4732;
311.1000;0.7733;-0.4683;
311.4000;0.7749;-0.4510;
311.7000;0.7709;-0.4683;
312.0000;0.7766;-0.4609;
312.3000;0.7749;-0.4535;
312.6000;0.7790;-0.4461;
312.9000;0.7749;-0.4658;
313.2000;0.7741;-0.4634;
313.5000;0.7733;-0.4683;
313.8000;0.7741;-0.4634;
314.1000;0.7709;-0.4683;
314.4000;0.7733;-0.4634;
314.7000;0.7725;-0.4683;
315.0000;0.7733;-0.4634;
315.3000;0.7749;-0.4560;
315.6000;0.7725;-0.4609;
315.9000;0.7725;-0.4560;
316.2000;0.7733;-0.4486;
316.5000;0.7766;-0.4387;
316.8000;0.7717;-0.4461;
317.1000;0.7692;-0.4535;
317.4000;0.7733;-0.4461;
317.7000;0.7733;-0.4412;
318.0000;0.7741;-0.4436;
318.3000;0.7733;-0.4486;
318.6000;0.7741;-0.4486;
318.9000;0.7733;-0.4461;
319.2000;0.7741;-0.4412;
319.5000;0.7700;-0.4510;
319.8000;0.7733;-0.4510;
320.1000;0.7741;-0.4461;
320.4000;0.7717;-0.4560;
320.7000;0.7725;-0.4658;
321.0000;0.7741;-0.4658;
321.3000;0.7717;-0.4732;
321.6000;0.7717;-0.4781;
321.9000;0.7757;-0.4683;
322.2000;0.7790;-0.4609;
322.5000;0.7717;-0.4781;
322.8000;0.7717;-0.4855;
323.1000;0.7709;-0.4806;
323.4000;0.7692;-0.4855;
323.7000;0.7725;-0.4781;
324.0000;0.7749;-0.4683;
324.3000;0.7676;-0.4855;
324.6000;0.7700;-0.4781;
324.9000;0.7725;-0.4732;
325.2000;0.7741;-0.4707;
325.5000;0.7733;-0.4707;
325.8000;0.7782;-0.4584;
326.1000;0.7717;-0.4732;
326.4000;0.7766;-0.4535;
326.7000;0.7733;-0.4634;
327.0000;0.7725;-0.4609;
327.3000;0.7733;-0.4609;
327.6000;0.7741;-0.4584;
327.9000;0.7717;-0.4683;
328.2000;0.7741;-0.4658;
328.5000;0.7725;-0.4707;
328.8000;0.7725;-0.4683;
329.1000;0.7733;-0.4707;
329.4000;0.7717;-0.4707;
329.7000;0.7692;-0.4707;
330.0000;0.7717;-0.4658;
330.3000;0.7725;-0.4560;
330.6000;0.7790;-0.4584;
330.9000;0.7717;-0.4806;
331.2000;0.7806;-0.4584;
331.5000;0.7725;-0.4683;
331.8000;0.7733;-0.4634;
332.1000;0.7725;-0.4658;
332.4000;0.7725;-0.4634;
332.7000;0.7806;-0.4461;
333.0000;0.7741;-0.4584;
333.3000;0.7725;-0.4634;
333.6000;0.7717;-0.4584;
333.9000;0.7766;-0.4486;
334.2000;0.7725;-0.4609;
334.5000;0.7700;-0.4683;
334.8000;0.7725;-0.4634;
335.1000;0.7725;-0.4658;
335.4000;0.7717;-0.4757;
335.7000;0.7700;-0.4757;
336.0000;0.7692;-0.4634;
336.3000;0.7700;-0.4584;
336.6000;0.7749;-0.4486;
336.9000;0.7635;-0.4732;
337.2000;0.7709;-0.4510;
337.5000;0.7725;-0.4436;
337.8000;0.7660;-0.4658;
338.1000;0.7725;-0.4510;
338.4000;0.7700;-0.4510;
338.7000;0.7668;-0.4560;
339.0000;0.7717;-0.4436;
339.3000;0.7709;-0.4412;
339.6000;0.7684;-0.4510;
339.9000;0.7684;-0.4486;
340.2000;0.7717;-0.4412;
340.5000;0.7741;-0.4338;
340.8000;0.7725;-0.4461;
341.1000;0.7700;-0.4535;
341.4000;0.7717;-0.4510;
341.7000;0.7709;-0.4461;
342.0000;0.7717;-0.4412;
342.3000;0.7676;-0.4560;
342.6000;0.7709;-0.4535;
342.9000;0.7709;-0.4461;
343.2000;0.7725;-0.4461;
343.5000;0.7741;-0.4486;
343.8000;0.7692;-0.4560;
344.1000;0.7709;-0.4535;
344.4000;0.7709;-0.4535;
344.7000;0.7692;-0.4535;
345.0000;0.7709;-0.4535;
345.3000;0.7725;-0.4609;
345.6000;0.7676;-0.4683;
345.9000;0.7709;-0.4634;
346.2000;0.7717;-0.4510;
346.5000;0.7684;-0.4486;
346.8000;0.7717;-0.4461;
347.1000;0.7643;-0.4510;
347.4000;0.7692;-0.4461;
347.7000;0.7684;-0.4436;
348.0000;0.7643;-0.4560;
348.3000;0.7749;-0.4387;
348.6000;0.7660;-0.4634;
348.9000;0.7700;-0.4584;
349.2000;0.7741;-0.4535;
349.5000;0.7684;-0.4757;
349.8000;0.7692;-0.4707;
350.1000;0.7668;-0.4757;
350.4000;0.7660;-0.4732;
350.7000;0.7700;-0.4560;
351.0000;0.7749;-0.4560;
351.3000;0.7700;-0.4560;
351.6000;0.7700;-0.4535;
351.9000;0.7741;-0.4436;
352.2000;0.7725;-0.4560;
352.5000;0.7717;-0.4535;
352.8000;0.7725;-0.4535;
353.1000;0.7725;-0.4535;
353.4000;0.7717;-0.4560;
353.7000;0.7700;-0.4732;
354.0000;0.7635;-0.4855;
354.3000;0.7692;-0.4634;
354.6000;0.7717;-0.4510;
354.9000;0.7668;-0.4609;
355.2000;0.7684;-0.4510;
355.5000;0.7692;-0.4584;
355.8000;0.7692;-0.4634;
356.1000;0.7684;-0.4683;
356.4000;0.7700;-0.4584;
356.7000;0.7717;-0.4510;
357.0000;0.7700;-0.4609;
357.3000;0.7676;-0.4560;
357.6000;0.7668;-0.4412;
357.9000;0.7684;-0.4461;
358.2000;0.7700;-0.4436;
358.5000;0.7676;-0.4486;
358.8000;0.7717;-0.4387;
359.1000;0.7684;-0.4486;
359.4000;0.7700;-0.4436;
359.7000;0.7700;-0.4486;
360.0000;0.7692;-0.4436;
360.3000;0.7725;-0.4338;
360.6000;0.7766;-0.4264;
360.9000;0.7692;-0.4486;
361.2000;0.7692;-0.4584;
361.5000;0.7684;-0.4510;
361.8000;0.7700;-0.4412;
362.1000;0.7700;-0.4362;
362.4000;0.7749;-0.4141;
362.7000;0.7684;-0.4412;
363.0000;0.7692;-0.4436;
363.3000;0.7700;-0.4436;
363.6000;0.7709;-0.4387;
363.9000;0.7700;-0.4412;
364.2000;0.7684;-0.4486;
364.5000;0.7725;-0.4436;
364.8000;0.7676;-0.4535;
365.1000;0.7692;-0.4461;
365.4000;0.7684;-0.4486;
365.7000;0.7684;-0.4609;
366.0000;0.7692;-0.4609;
366.3000;0.7676;-0.4535;
366.6000;0.7676;-0.4634;
366.9000;0.7684;-0.4486;
367.2000;0.7692;-0.4461;
367.5000;0.7684;-0.4535;
367.8000;0.7700;-0.4535;
368.1000;0.7676;-0.4634;
368.4000;0.7709;-0.4535;
368.7000;0.7692;-0.4584;
369.0000;0.7709;-0.4584;
369.3000;0.7652;-0.4658;
369.6000;0.7676;-0.4560;
369.9000;0.7692;-0.4510;
370.2000;0.7749;-0.4338;
370.5000;0.7668;-0.4560;
370.8000;0.7676;-0.4510;
371.1000;0.7635;-0.4560;
371.4000;0.7757;-0.4288;
371.7000;0.7692;-0.4436;
372.0000;0.7668;-0.4313;
372.3000;0.7676;-0.4264;
372.6000;0.7676;-0.4264;
372.9000;0.7676;-0.4239;
373.2000;0.7668;-0.4239;
373.5000;0.7660;-0.4338;
373.8000;0.7692;-0.4313;
374.1000;0.7676;-0.4461;
374.4000;0.7660;-0.4535;
374.7000;0.7676;-0.4461;
375.0000;0.7684;-0.4436;
375.3000;0.7700;-0.4486;
375.6000;0.7635;-0.4560;
375.9000;0.7700;-0.4461;
376.2000;0.7660;-0.4486;
376.5000;0.7684;-0.4412;
376.8000;0.7684;-0.4461;
377.1000;0.7676;-0.4510;
377.4000;0.7668;-0.4584;
377.7000;0.7684;-0.4510;
378.0000;0.7717;-0.4412;
378.3000;0.7684;-0.4387;
378.6000;0.7684;-0.4313;
378.9000;0.7709;-0.4215;
379.2000;0.7684;-0.4239;
379.5000;0.7676;-0.4264;
379.8000;0.7684;-0.4215;
380.1000;0.7692;-0.4215;
380.4000;0.7676;-0.4165;
380.7000;0.7668;-0.4264;
381.0000;0.7676;-0.4288;
381.3000;0.7660;-0.4387;
381.6000;0.7652;-0.4338;
381.9000;0.7668;-0.4239;
382.2000;0.7676;-0.4264;
382.5000;0.7668;-0.4313;
382.8000;0.7668;-0.4387;
383.1000;0.7717;-0.4264;
383.4000;0.7668;-0.4510;
383.7000;0.7692;-0.4436;
384.0000;0.7676;-0.4436;
384.3000;0.7676;-0.4412;
384.6000;0.7676;-0.4362;
384.9000;0.7643;-0.4510;
385.2000;0.7660;-0.4436;
385.5000;0.7717;-0.4362;
385.8000;0.7643;-0.4486;
386.1000;0.7660;-0.4510;
386.4000;0.7725;-0.4436;
386.7000;0.7676;-0.4560;
387.0000;0.7652;-0.4584;
387.3000;0.7652;-0.4584;
387.6000;0.7668;-0.4510;
387.9000;0.7684;-0.4387;
388.2000;0.7676;-0.4264;
388.5000;0.7692;-0.4338;
388.8000;0.7660;-0.4387;
389.1000;0.7684;-0.4362;
389.4000;0.7700;-0.4313;
389.7000;0.7652;-0.4486;
390.0000;0.7676;-0.4436;
390.3000;0.7660;-0.4486;
390.6000;0.7668;-0.4510;
390.9000;0.7668;-0.4510;
391.2000;0.7676;-0.4510;
391.5000;0.7676;-0.4510;
391.8000;0.7684;-0.4584;
392.1000;0.7700;-0.4486;
392.4000;0.7668;-0.4560;
392.7000;0.7660;-0.4560;
393.0000;0.7741;-0.4288;
393.3000;0.7652;-0.4560;
393.6000;0.7652;-0.4510;
393.9000;0.7660;-0.4535;
394.2000;0.7676;-0.4486;
394.5000;0.7660;-0.4510;
394.8000;0.7660;-0.4486;
395.1000;0.7676;-0.4461;
395.4000;0.7725;-0.4338;
395.7000;0.7660;-0.4436;
396.0000;0.7733;-0.4239;
396.3000;0.7611;-0.4535;
396.6000;0.7660;-0.4412;
396.9000;0.7652;-0.4264;
397.2000;0.7684;-0.4239;
397.5000;0.7668;-0.4313;
397.8000;0.7676;-0.4288;
398.1000;0.7660;-0.4338;
398.4000;0.7668;-0.4387;
398.7000;0.7611;-0.4584;
399.0000;0.7668;-0.4362;
399.3000;0.7668;-0.4461;
399.6000;0.7627;-0.4584;
399.9000;0.7652;-0.4535;
400.2000;0.7652;-0.4560;
400.5000;0.7660;-0.4560;
400.8000;0.7635;-0.4560;
401.1000;0.7741;-0.4239;
401.4000;0.7676;-0.4338;
401.7000;0.7741;-0.4116;
402.0000;0.7554;-0.4609;
402.3000;0.7652;-0.4461;
402.6000;0.7660;-0.4510;
402.9000;0.7676;-0.4486;
403.2000;0.7676;-0.4510;
403.5000;0.7660;-0.4510;
403.8000;0.7717;-0.4338;
404.1000;0.7676;-0.4436;
404.4000;0.7660;-0.4436;
404.7000;0.7652;-0.4338;
405.0000;0.7660;-0.4362;
405.3000;0.7684;-0.4264;
405.6000;0.7684;-0.4313;
405.9000;0.7652;-0.4387;
406.2000;0.7660;-0.4338;
406.5000;0.7660;-0.4362;
406.8000;0.7660;-0.4362;
407.1000;0.7643;-0.4510;
407.4000;0.7652;-0.4560;
407.7000;0.7692;-0.4535;
408.0000;0.7652;-0.4658;
408.3000;0.7684;-0.4560;
408.6000;0.7635;-0.4584;
408.9000;0.7643;-0.4510;
409.2000;0.7643;-0.4486;
409.5000;0.7643;-0.4461;
409.8000;0.7660;-0.4288;
410.1000;0.7635;-0.4362;
410.4000;0.7635;-0.4412;
410.7000;0.7660;-0.4412;
411.0000;0.7546;-0.4757;
411.3000;0.7668;-0.4486;
411.6000;0.7643;-0.4461;
411.9000;0.7684;-0.4338;
412.2000;0.7643;-0.4362;
412.5000;0.7586;-0.4412;
412.8000;0.7611;-0.4338;
413.1000;0.7652;-0.4239;
413.4000;0.7643;-0.4288;
413.7000;0.7643;-0.4338;
414.0000;0.7652;-0.4288;
414.3000;0.7643;-0.4264;
414.6000;0.7668;-0.4215;
414.9000;0.7652;-0.4264;
415.2000;0.7668;-0.4239;
415.5000;0.7668;-0.4288;
415.8000;0.7660;-0.4288;
416.1000;0.7635;-0.4387;
416.4000;0.7660;-0.4264;
416.7000;0.7635;-0.4313;
417.0000;0.7652;-0.4362;
417.3000;0.7611;-0.4535;
417.6000;0.7660;-0.4387;
417.9000;0.7635;-0.4436;
418.2000;0.7652;-0.4362;
418.5000;0.7643;-0.4412;
418.8000;0.7635;-0.4412;
419.1000;0.7635;-0.4412;
419.4000;0.7643;-0.4387;
419.7000;0.7676;-0.4338;
420.0000;0.7692;-0.4387;
420.3000;0.7652;-0.4461;
420.6000;0.7668;-0.4412;
420.9000;0.7627;-0.4510;
421.2000;0.7652;-0.4461;
421.5000;0.7586;-0.4609;
421.8000;0.7660;-0.4387;
422.1000;0.7652;-0.4362;
422.4000;0.7684;-0.4264;
422.7000;0.7635;-0.4313;
423.0000;0.7668;-0.4215;
423.3000;0.7635;-0.4239;
423.6000;0.7635;-0.4165;
423.9000;0.7635;-0.4190;
424.2000;0.7619;-0.4264;
424.5000;0.7635;-0.4215;
424.8000;0.7643;-0.4288;
425.1000;0.7538;-0.4535;
425.4000;0.7635;-0.4239;
425.7000;0.7635;-0.4190;
426.0000;0.7635;-0.4239;
426.3000;0.7635;-0.4215;
426.6000;0.7635;-0.4239;
426.9000;0.7627;-0.4239;
427.2000;0.7627;-0.4165;
427.5000;0.7643;-0.4067;
427.8000;0.7611;-0.4141;
428.1000;0.7619;-0.4190;
428.4000;0.7611;-0.4141;
428.7000;0.7611;-0.4141;
429.0000;0.7635;-0.4067;
429.3000;0.7603;-0.4141;
429.6000;0.7643;-0.4017;
429.9000;0.7652;-0.4042;
430.2000;0.7635;-0.4116;
430.5000;0.7643;-0.4067;
430.8000;0.7603;-0.4239;
431.1000;0.7643;-0.4165;
431.4000;0.7635;-0.4264;
431.7000;0.7627;-0.4239;
432.0000;0.7660;-0.4264;
432.3000;0.7635;-0.4190;
432.6000;0.7692;-0.4042;
432.9000;0.7635;-0.4091;
433.2000;0.7643;-0.3993;
433.5000;0.7635;-0.3943;
433.8000;0.7643;-0.4017;
434.1000;0.7643;-0.3993;
434.4000;0.7643;-0.4067;
434.7000;0.7643;-0.4067;
435.0000;0.7635;-0.4116;
435.3000;0.7627;-0.4091;
435.6000;0.7652;-0.4067;
435.9000;0.7619;-0.4215;
436.2000;0.7643;-0.4116;
436.5000;0.7652;-0.4190;
436.8000;0.7619;-0.4264;
437.1000;0.7668;-0.4116;
437.4000;0.7635;-0.4165;
437.7000;0.7627;-0.4116;
438.0000;0.7627;-0.4141;
438.3000;0.7578;-0.4264;
438.6000;0.7635;-0.4141;
438.9000;0.7635;-0.4239;
439.2000;0.7643;-0.4215;
439.5000;0.7635;-0.4288;
439.8000;0.7635;-0.4313;
440.1000;0.7660;-0.4264;
440.4000;0.7611;-0.4362;
440.7000;0.7619;-0.4387;
441.0000;0.7611;-0.4436;
441.3000;0.7652;-0.4362;
441.6000;0.7684;-0.4362;
441.9000;0.7692;-0.4387;
442.2000;0.7635;-0.4510;
442.5000;0.7627;-0.4510;
442.8000;0.7627;-0.4486;
443.1000;0.7619;-0.4510;
443.4000;0.7603;-0.4510;
443.7000;0.7627;-0.4412;
444.0000;0.7676;-0.4239;
444.3000;0.7643;-0.4338;
444.6000;0.7652;-0.4313;
444.9000;0.7635;-0.4313;
445.2000;0.7643;-0.4338;
445.5000;0.7652;-0.4313;
445.8000;0.7619;-0.4412;
446.1000;0.7635;-0.4387;
446.4000;0.7643;-0.4288;
446.7000;0.7635;-0.4338;
447.0000;0.7627;-0.4313;
447.3000;0.7619;-0.4313;
447.6000;0.7595;-0.4338;
447.9000;0.7627;-0.4264;
448.2000;0.7627;-0.4215;
448.5000;0.7627;-0.4288;
448.8000;0.7619;-0.4264;
449.1000;0.7635;-0.4165;
449.4000;0.7635;-0.4165;
449.7000;0.7635;-0.4190;
450.0000;0.7643;-0.4215;
450.3000;0.7635;-0.4215;
450.6000;0.7627;-0.4239;
450.9000;0.7578;-0.4288;
451.2000;0.7635;-0.4165;
451.5000;0.7611;-0.4239;
451.8000;0.7643;-0.4215;
452.1000;0.7627;-0.4190;
452.4000;0.7619;-0.4215;
452.7000;0.7562;-0.4288;
453.0000;0.7619;-0.4116;
453.3000;0.7619;-0.4141;
453.6000;0.7619;-0.4116;
453.9000;0.7668;-0.3968;
454.2000;0.7627;-0.4091;
454.5000;0.7627;-0.4239;
454.8000;0.7619;-0.4313;
455.1000;0.7676;-0.4116;
455.4000;0.7627;-0.4239;
455.7000;0.7643;-0.4141;
456.0000;0.7603;-0.4288;
456.3000;0.7627;-0.4264;
456.6000;0.7643;-0.4215;
456.9000;0.7611;-0.4190;
457.2000;0.7635;-0.4116;
457.5000;0.7627;-0.4215;
457.8000;0.7635;-0.4288;
458.1000;0.7627;-0.4239;
458.4000;0.7603;-0.4387;
458.7000;0.7586;-0.4535;
459.0000;0.7603;-0.4510;
459.3000;0.7635;-0.4510;
459.6000;0.7603;-0.4461;
459.9000;0.7595;-0.4510;
460.2000;0.7611;-0.4387;
460.5000;0.7586;-0.4412;
460.8000;0.7627;-0.4412;
461.1000;0.7643;-0.4362;
461.4000;0.7595;-0.4412;
461.7000;0.7635;-0.4313;
462.0000;0.7635;-0.4313;
462.3000;0.7595;-0.4461;
462.6000;0.7603;-0.4510;
462.9000;0.7619;-0.4486;
463.2000;0.7619;-0.4560;
463.5000;0.7627;-0.4584;
463.8000;0.7619;-0.4634;
464.1000;0.7611;-0.4560;
464.4000;0.7652;-0.4461;
464.7000;0.7595;-0.4584;
465.0000;0.7619;-0.4510;
465.3000;0.7603;-0.4609;
465.6000;0.7635;-0.4535;
465.9000;0.7619;-0.4535;
466.2000;0.7643;-0.4412;
466.5000;0.7595;-0.4461;
466.8000;0.7611;-0.4412;
467.1000;0.7627;-0.4436;
467.4000;0.7611;-0.4510;
467.7000;0.7562;-0.4609;
468.0000;0.7619;-0.4461;
468.3000;0.7619;-0.4535;
468.6000;0.7603;-0.4560;
468.9000;0.7603;-0.4634;
469.2000;0.7546;-0.4757;
469.5000;0.7603;-0.4683;
469.8000;0.7611;-0.4658;
470.1000;0.7595;-0.4658;
470.4000;0.7611;-0.4510;
470.7000;0.7660;-0.4338;
471.0000;0.7619;-0.4412;
471.3000;0.7611;-0.4412;
471.6000;0.7603;-0.4387;
471.9000;0.7627;-0.4313;
472.2000;0.7619;-0.4387;
472.5000;0.7521;-0.4634;
472.8000;0.7611;-0.4338;
473.1000;0.7603;-0.4387;
473.4000;0.7619;-0.4412;
473.7000;0.7619;-0.4461;
474.0000;0.7603;-0.4486;
474.3000;0.7603;-0.4634;
474.6000;0.7627;-0.4683;
474.9000;0.7595;-0.4634;
475.2000;0.7627;-0.4535;
475.5000;0.7619;-0.4486;
475.8000;0.7627;-0.4461;
476.1000;0.7611;-0.4461;
476.4000;0.7603;-0.4510;
476.7000;0.7595;-0.4461;
477.0000;0.7619;-0.4412;
477.3000;0.7619;-0.4362;
477.6000;0.7595;-0.4412;
477.9000;0.7619;-0.4362;
478.2000;0.7611;-0.4313;
478.5000;0.7619;-0.4288;
478.8000;0.7611;-0.4362;
479.1000;0.7611;-0.4362;
479.4000;0.7595;-0.4486;
479.7000;0.7611;-0.4461;
480.0000;0.7611;-0.4436;
480.3000;0.7619;-0.4486;
480.6000;0.7586;-0.4560;
480.9000;0.7652;-0.4338;
481.2000;0.7595;-0.4338;
481.5000;0.7586;-0.4362;
481.8000;0.7619;-0.4190;
482.1000;0.7643;-0.4165;
482.4000;0.7652;-0.4141;
482.7000;0.7586;-0.4288;
483.0000;0.7603;-0.4215;
483.3000;0.7570;-0.4313;
483.6000;0.7603;-0.4264;
483.9000;0.7586;-0.4338;
484.2000;0.7595;-0.4362;
484.5000;0.7595;-0.4313;
484.8000;0.7627;-0.4264;
485.1000;0.7627;-0.4387;
485.4000;0.7619;-0.4313;
485.7000;0.7570;-0.4461;
486.0000;0.7603;-0.4436;
486.3000;0.7627;-0.4338;
486.6000;0.7619;-0.4338;
486.9000;0.7595;-0.4436;
487.2000;0.7611;-0.4436;
487.5000;0.7538;-0.4634;
487.8000;0.7595;-0.4461;
488.1000;0.7660;-0.4190;
488.4000;0.7578;-0.4338;
488.7000;0.7586;-0.4288;
489.0000;0.7578;-0.4215;
489.3000;0.7595;-0.4190;
489.6000;0.7586;-0.4239;
489.9000;0.7603;-0.4264;
490.2000;0.7595;-0.4288;
490.5000;0.7611;-0.4239;
490.8000;0.7595;-0.4190;
491.1000;0.7643;-0.4017;
491.4000;0.7603;-0.4264;
491.7000;0.7643;-0.4264;
492.0000;0.7595;-0.4412;
492.3000;0.7586;-0.4510;
492.6000;0.7595;-0.4436;
492.9000;0.7586;-0.4412;
493.2000;0.7603;-0.4412;
493.5000;0.7595;-0.4387;
493.8000;0.7627;-0.4264;
494.1000;0.7627;-0.4264;
494.4000;0.7586;-0.4387;
494.7000;0.7586;-0.4486;
495.0000;0.7595;-0.4510;
495.3000;0.7611;-0.4436;
495.6000;0.7603;-0.4535;
495.9000;0.7603;-0.4436;
496.2000;0.7619;-0.4288;
496.5000;0.7603;-0.4264;
496.8000;0.7619;-0.4215;
497.1000;0.7603;-0.4288;
497.4000;0.7595;-0.4288;
497.7000;0.7603;-0.4264;
498.0000;0.7586;-0.4190;
498.3000;0.7611;-0.4116;
498.6000;0.7595;-0.4116;
498.9000;0.7578;-0.4091;
499.2000;0.7562;-0.4067;
499.5000;0.7635;-0.3894;
499.8000;0.7578;-0.4067;
500.1000;0.7595;-0.4017;
500.4000;0.7603;-0.4017;
500.7000;0.7635;-0.4017;
501.0000;0.7546;-0.4215;
501.3000;0.7586;-0.4116;
501.6000;0.7595;-0.4091;
501.9000;0.7627;-0.4042;
502.2000;0.7595;-0.4017;
502.5000;0.7595;-0.3993;
502.8000;0.7595;-0.4042;
503.1000;0.7578;-0.4141;
503.4000;0.7578;-0.4165;
503.7000;0.7595;-0.4141;
504.0000;0.7595;-0.4141;
504.3000;0.7643;-0.4042;
504.6000;0.7578;-0.4165;
504.9000;0.7570;-0.4239;
505.2000;0.7578;-0.4141;
505.5000;0.7595;-0.4067;
505.8000;0.7595;-0.3993;
506.1000;0.7578;-0.4116;
506.4000;0.7619;-0.4042;
506.7000;0.7586;-0.4141;
507.0000;0.7611;-0.4091;
507.3000;0.7554;-0.4215;
507.6000;0.7586;-0.4067;
507.9000;0.7603;-0.3943;
508.2000;0.7586;-0.4042;
508.5000;0.7578;-0.4091;
508.8000;0.7586;-0.4067;
509.1000;0.7578;-0.4067;
509.4000;0.7627;-0.4067;
509.7000;0.7595;-0.4091;
510.0000;0.7578;-0.4067;
510.3000;0.7570;-0.4141;
510.6000;0.7603;-0.4091;
510.9000;0.7603;-0.4067;
511.2000;0.7505;-0.4264;
511.5000;0.7586;-0.4091;
511.8000;0.7603;-0.4067;
512.1000;0.7546;-0.4239;
512.4000;0.7595;-0.4141;
512.7000;0.7603;-0.4091;
513.0000;0.7586;-0.4116;
513.3000;0.7570;-0.4165;
513.6000;0.7562;-0.4141;
513.9000;0.7595;-0.4017;
514.2000;0.7603;-0.3919;
514.5000;0.7595;-0.4042;
514.8000;0.7603;-0.4067;
515.1000;0.7595;-0.4116;
515.4000;0.7595;-0.4091;
515.7000;0.7595;-0.4141;
516.0000;0.7603;-0.4116;
516.3000;0.7586;-0.4141;
516.6000;0.7595;-0.4215;
516.9000;0.7578;-0.4313;
517.2000;0.7586;-0.4215;
517.5000;0.7562;-0.4165;
517.8000;0.7595;-0.4239;
518.1000;0.7595;-0.4165;
518.4000;0.7586;-0.4215;
518.7000;0.7538;-0.4288;
519.0000;0.7643;-0.3993;
519.3000;0.7530;-0.4215;
519.6000;0.7586;-0.4116;
519.9000;0.7570;-0.4215;
520.2000;0.7586;-0.4190;
520.5000;0.7595;-0.4239;
520.8000;0.7603;-0.4190;
521.1000;0.7595;-0.4313;
521.4000;0.7570;-0.4387;
521.7000;0.7586;-0.4362;
522.0000;0.7595;-0.4387;
522.3000;0.7546;-0.4560;
522.6000;0.7570;-0.4510;
522.9000;0.7595;-0.4461;
523.2000;0.7570;-0.4461;
523.5000;0.7570;-0.4412;
523.8000;0.7562;-0.4412;
524.1000;0.7570;-0.4362;
524.4000;0.7578;-0.4288;
524.7000;0.7562;-0.4288;
525.0000;0.7578;-0.4387;
525.3000;0.7570;-0.4387;
525.6000;0.7530;-0.4535;
525.9000;0.7578;-0.4412;
526.2000;0.7578;-0.4412;
526.5000;0.7595;-0.4387;
526.8000;0.7578;-0.4510;
527.1000;0.7595;-0.4486;
527.4000;0.7603;-0.4486;
527.7000;0.7578;-0.4461;
528.0000;0.7570;-0.4535;
528.3000;0.7603;-0.4412;
528.6000;0.7530;-0.4510;
528.9000;0.7611;-0.4362;
529.2000;0.7554;-0.4486;
529.5000;0.7570;-0.4362;
529.8000;0.7603;-0.4338;
530.1000;0.7562;-0.4436;
530.4000;0.7586;-0.4412;
530.7000;0.7586;-0.4436;
531.0000;0.7570;-0.4535;
531.3000;0.7570;-0.4486;
531.6000;0.7603;-0.4436;
531.9000;0.7595;-0.4412;
532.2000;0.7570;-0.4362;
532.5000;0.7595;-0.4338;
532.8000;0.7570;-0.4436;
533.1000;0.7595;-0.4412;
533.4000;0.7619;-0.4461;
533.7000;0.7595;-0.4461;
534.0000;0.7570;-0.4486;
534.3000;0.7603;-0.4387;
534.6000;0.7611;-0.4288;
534.9000;0.7595;-0.4387;
535.2000;0.7578;-0.4362;
535.5000;0.7546;-0.4412;
535.8000;0.7586;-0.4215;
536.1000;0.7562;-0.4264;
536.4000;0.7554;-0.4264;
536.7000;0.7578;-0.4288;
537.0000;0.7513;-0.4486;
537.3000;0.7586;-0.4338;
537.6000;0.7562;-0.4461;
537.9000;0.7546;-0.4387;
538.2000;0.7546;-0.4387;
538.5000;0.7595;-0.4190;
538.8000;0.7521;-0.4387;
539.1000;0.7586;-0.4362;
539.4000;0.7530;-0.4560;
539.7000;0.7578;-0.4510;
540.0000;0.7521;-0.4584;
540.3000;0.7570;-0.4313;
540.6000;0.7570;-0.4288;
540.9000;0.7611;-0.4165;
541.2000;0.7538;-0.4313;
541.5000;0.7570;-0.4288;
541.8000;0.7546;-0.4264;
542.1000;0.7684;-0.3894;
542.4000;0.7578;-0.4190;
542.7000;0.7570;-0.4239;
543.0000;0.7570;-0.4239;
543.3000;0.7554;-0.4313;
543.6000;0.7578;-0.4239;
543.9000;0.7570;-0.4190;
544.2000;0.7570;-0.4215;
544.5000;0.7570;-0.4165;
544.8000;0.7586;-0.4091;
545.1000;0.7627;-0.3968;
545.4000;0.7586;-0.4165;
545.7000;0.7570;-0.4264;
546.0000;0.7578;-0.4264;
546.3000;0.7586;-0.4190;
546.6000;0.7562;-0.4116;
546.9000;0.7570;-0.4067;
547.2000;0.7595;-0.4116;
547.5000;0.7586;-0.4141;
547.8000;0.7562;-0.4264;
548.1000;0.7595;-0.4288;
548.4000;0.7586;-0.4288;
548.7000;0.7570;-0.4239;
549.0000;0.7578;-0.4215;
549.3000;0.7562;-0.4313;
549.6000;0.7570;-0.4264;
549.9000;0.7578;-0.4288;
550.2000;0.7570;-0.4239;
550.5000;0.7554;-0.4239;
550.8000;0.7562;-0.4313;
551.1000;0.7586;-0.4165;
551.4000;0.7570;-0.4165;
551.7000;0.7554;-0.4165;
552.0000;0.7562;-0.4165;
552.3000;0.7562;-0.4190;
552.6000;0.7578;-0.4165;
552.9000;0.7595;-0.4116;
553.2000;0.7578;-0.4190;
553.5000;0.7570;-0.4141;
553.8000;0.7554;-0.4116;
554.1000;0.7562;-0.4215;
554.4000;0.7562;-0.4190;
554.7000;0.7578;-0.4116;
555.0000;0.7570;-0.4067;
555.3000;0.7562;-0.4067;
555.6000;0.7554;-0.4116;
555.9000;0.7570;-0.4017;
556.2000;0.7538;-0.4042;
556.5000;0.7668;-0.3796;
556.8000;0.7668;-0.3771;
557.1000;0.7521;-0.4239;
557.4000;0.7586;-0.4116;
557.7000;0.7497;-0.4387;
558.0000;0.7562;-0.4091;
558.3000;0.7578;-0.4067;
558.6000;0.7562;-0.3968;
558.9000;0.7562;-0.4042;
559.2000;0.7554;-0.4165;
559.5000;0.7562;-0.4141;
559.8000;0.7570;-0.4116;
560.1000;0.7570;-0.4116;
560.4000;0.7554;-0.4165;
560.7000;0.7570;-0.4141;
561.0000;0.7538;-0.4239;
561.3000;0.7570;-0.4141;
561.6000;0.7562;-0.4141;
561.9000;0.7538;-0.4165;
562.2000;0.7619;-0.4042;
562.5000;0.7619;-0.4091;
562.8000;0.7578;-0.4116;
563.1000;0.7546;-0.4190;
563.4000;0.7570;-0.4190;
563.7000;0.7456;-0.4486;
564.0000;0.7530;-0.4313;
564.3000;0.7562;-0.4264;
564.6000;0.7497;-0.4387;
564.9000;0.7562;-0.4190;
565.2000;0.7570;-0.4116;
565.5000;0.7554;-0.4091;
565.8000;0.7538;-0.4091;
566.1000;0.7562;-0.4042;
566.4000;0.7570;-0.4091;
566.7000;0.7554;-0.4165;
567.0000;0.7554;-0.4116;
567.3000;0.7554;-0.4116;
567.6000;0.7554;-0.4116;
567.9000;0.7611;-0.3968;
568.2000;0.7570;-0.4116;
568.5000;0.7554;-0.4190;
568.8000;0.7570;-0.4116;
569.1000;0.7570;-0.4165;
569.4000;0.7538;-0.4215;
569.7000;0.7562;-0.4165;
570.0000;0.7570;-0.4165;
570.3000;0.7586;-0.4042;
570.6000;0.7554;-0.4091;
570.9000;0.7562;-0.4067;
571.2000;0.7554;-0.3943;
571.5000;0.7562;-0.3894;
571.8000;0.7562;-0.3820;
572.1000;0.7546;-0.3943;
572.4000;0.7513;-0.4067;
572.7000;0.7578;-0.3968;
573.0000;0.7586;-0.3943;
573.3000;0.7554;-0.3894;
573.6000;0.7554;-0.3869;
573.9000;0.7611;-0.3648;
574.2000;0.7578;-0.3746;
574.5000;0.7562;-0.3869;
574.8000;0.7619;-0.3820;
575.1000;0.7554;-0.4017;
575.4000;0.7562;-0.4091;
575.7000;0.7562;-0.4141;
576.0000;0.7570;-0.4091;
576.3000;0.7570;-0.4165;
576.6000;0.7570;-0.4116;
576.9000;0.7586;-0.4042;
577.2000;0.7562;-0.4116;
577.5000;0.7562;-0.4042;
577.8000;0.7570;-0.4042;
578.1000;0.7570;-0.3968;
578.4000;0.7530;-0.3993;
578.7000;0.7546;-0.3993;
579.0000;0.7570;-0.4067;
579.3000;0.7603;-0.3993;
579.6000;0.7586;-0.4091;
579.9000;0.7562;-0.4091;
580.2000;0.7546;-0.4091;
580.5000;0.7554;-0.4165;
580.8000;0.7554;-0.4141;
581.1000;0.7562;-0.4141;
581.4000;0.7538;-0.4165;
581.7000;0.7521;-0.4215;
582.0000;0.7586;-0.3943;
582.3000;0.7489;-0.4141;
582.6000;0.7578;-0.4042;
582.9000;0.7570;-0.4067;
583.2000;0.7611;-0.3943;
583.5000;0.7521;-0.4141;
583.8000;0.7546;-0.4116;
584.1000;0.7562;-0.4141;
584.4000;0.7570;-0.4116;
584.7000;0.7554;-0.4116;
585.0000;0.7562;-0.4017;
585.3000;0.7546;-0.4067;
585.6000;0.7489;-0.4165;
585.9000;0.7546;-0.4042;
586.2000;0.7546;-0.4042;
586.5000;0.7513;-0.4116;
586.8000;0.7570;-0.3894;
587.1000;0.7554;-0.3993;
587.4000;0.7554;-0.4017;
587.7000;0.7497;-0.4042;
588.0000;0.7546;-0.3894;
588.3000;0.7546;-0.3993;
588.6000;0.7578;-0.4091;
588.9000;0.7546;-0.4190;
589.2000;0.7595;-0.4190;
589.5000;0.7578;-0.4165;
589.8000;0.7578;-0.4091;
590.1000;0.7554;-0.4116;
590.4000;0.7554;-0.4091;
590.7000;0.7538;-0.4116;
591.0000;0.7554;-0.4091;
591.3000;0.7586;-0.4091;
591.6000;0.7546;-0.4215;
591.9000;0.7562;-0.4190;
592.2000;0.7570;-0.4141;
592.5000;0.7562;-0.4165;
592.8000;0.7586;-0.4091;
593.1000;0.7578;-0.3993;
593.4000;0.7530;-0.4017;
593.7000;0.7497;-0.4116;
594.0000;0.7554;-0.3968;
594.3000;0.7554;-0.3993;
594.6000;0.7562;-0.3919;
594.9000;0.7627;-0.3820;
595.2000;0.7538;-0.4017;
595.5000;0.7538;-0.4042;
595.8000;0.7513;-0.4042;
596.1000;0.7554;-0.4091;
596.4000;0.7546;-0.4116;
596.7000;0.7538;-0.4190;
597.0000;0.7513;-0.4165;
597.3000;0.7521;-0.4141;
597.6000;0.7521;-0.4141;
597.9000;0.7611;-0.3869;
598.2000;0.7538;-0.4116;
598.5000;0.7570;-0.4017;
598.8000;0.7586;-0.3943;
599.1000;0.7554;-0.4067;
599.4000;0.7546;-0.3943;
599.7000;0.7578;-0.3845;
600.0000;0.7578;-0.3943;
600.3000;0.7530;-0.4215;
600.6000;0.7464;-0.4387;
600.9000;0.7253;-0.4880;
601.2000;0.7196;-0.4954;
601.5000;0.7025;-0.5200;
601.8000;0.6854;-0.5447;
602.1000;0.6740;-0.5644;
602.4000;0.6618;-0.5792;
602.7000;0.6455;-0.5964;
603.0000;0.6357;-0.5989;
603.3000;0.6235;-0.6162;
603.6000;0.6154;-0.6334;
603.9000;0.6081;-0.6482;
604.2000;0.5999;-0.6581;
604.5000;0.5902;-0.6802;
604.8000;0.5869;-0.6753;
605.1000;0.5779;-0.6950;
605.4000;0.5714;-0.7074;
605.7000;0.5674;-0.7246;
606.0000;0.5625;-0.7295;
606.3000;0.5535;-0.7566;
606.6000;0.5421;-0.7739;
606.9000;0.5454;-0.7493;
607.2000;0.5470;-0.7419;
607.5000;0.5405;-0.7468;
607.8000;0.5364;-0.7468;
608.1000;0.5340;-0.7591;
608.4000;0.5307;-0.7665;
608.7000;0.5291;-0.7739;
609.0000;0.5258;-0.7739;
609.3000;0.5234;-0.7739;
609.6000;0.5250;-0.7591;
609.9000;0.5185;-0.7714;
610.2000;0.5153;-0.7764;
610.5000;0.5120;-0.7788;
610.8000;0.5096;-0.7887;
611.1000;0.5063;-0.7936;
611.4000;0.5079;-0.7912;
611.7000;0.5055;-0.7961;
612.0000;0.5047;-0.7961;
612.3000;0.4998;-0.7961;
612.6000;0.5022;-0.7838;
612.9000;0.4974;-0.7985;
613.2000;0.4965;-0.7936;
613.5000;0.4965;-0.7862;
613.8000;0.4949;-0.7862;
614.1000;0.4933;-0.7912;
614.4000;0.4908;-0.7985;
614.7000;0.4917;-0.7961;
615.0000;0.4876;-0.8035;
615.3000;0.4860;-0.8084;
615.6000;0.4868;-0.8133;
615.9000;0.4835;-0.8232;
616.2000;0.4843;-0.8133;
616.5000;0.4843;-0.8035;
616.8000;0.4843;-0.7936;
617.1000;0.4819;-0.8035;
617.4000;0.4811;-0.8109;
617.7000;0.4811;-0.8059;
618.0000;0.4770;-0.8035;
618.3000;0.4672;-0.8232;
618.6000;0.4762;-0.8010;
618.9000;0.4754;-0.8084;
619.2000;0.4746;-0.8084;
619.5000;0.4762;-0.8133;
619.8000;0.4737;-0.8183;
620.1000;0.4721;-0.8207;
620.4000;0.4713;-0.8257;
620.7000;0.4681;-0.8281;
621.0000;0.4746;-0.8109;
621.3000;0.4689;-0.8281;
621.6000;0.4681;-0.8330;
621.9000;0.4697;-0.8330;
622.2000;0.4689;-0.8355;
622.5000;0.4664;-0.8257;
622.8000;0.4672;-0.8183;
623.1000;0.4656;-0.8281;
623.4000;0.4656;-0.8380;
623.7000;0.4689;-0.8281;
624.0000;0.4648;-0.8404;
624.3000;0.4656;-0.8404;
624.6000;0.4640;-0.8355;
624.9000;0.4664;-0.8207;
625.2000;0.4672;-0.8158;
625.5000;0.4640;-0.8330;
625.8000;0.4632;-0.8355;
626.1000;0.4615;-0.8232;
626.4000;0.4615;-0.8257;
626.7000;0.4567;-0.8429;
627.0000;0.4615;-0.8281;
627.3000;0.4550;-0.8429;
627.6000;0.4591;-0.8330;
627.9000;0.4607;-0.8380;
628.2000;0.4624;-0.8232;
628.5000;0.4558;-0.8355;
628.8000;0.4558;-0.8355;
629.1000;0.4599;-0.8257;
629.4000;0.4591;-0.8330;
629.7000;0.4567;-0.8429;
630.0000;0.4550;-0.8478;
630.3000;0.4575;-0.8330;
630.6000;0.4542;-0.8528;
630.9000;0.4526;-0.8528;
631.2000;0.4558;-0.8552;
631.5000;0.4575;-0.8478;
631.8000;0.4550;-0.8404;
632.1000;0.4518;-0.8429;
632.4000;0.4550;-0.8355;
632.7000;0.4526;-0.8380;
633.0000;0.4526;-0.8330;
633.3000;0.4518;-0.8380;
633.6000;0.4510;-0.8330;
633.9000;0.4518;-0.8330;
634.2000;0.4453;-0.8454;
634.5000;0.4477;-0.8429;
634.8000;0.4501;-0.8454;
635.1000;0.4510;-0.8429;
635.4000;0.4493;-0.8552;
635.7000;0.4501;-0.8528;
636.0000;0.4493;-0.8478;
636.3000;0.4493;-0.8380;
636.6000;0.4501;-0.8404;
636.9000;0.4477;-0.8306;
637.2000;0.4510;-0.8207;
637.5000;0.4477;-0.8281;
637.8000;0.4469;-0.8281;
638.1000;0.4477;-0.8281;
638.4000;0.4453;-0.8306;
638.7000;0.4461;-0.8355;
639.0000;0.4469;-0.8306;
639.3000;0.4477;-0.8404;
639.6000;0.4461;-0.8404;
639.9000;0.4461;-0.8429;
640.2000;0.4493;-0.8306;
640.5000;0.4453;-0.8355;
640.8000;0.4453;-0.8330;
641.1000;0.4436;-0.8429;
641.4000;0.4436;-0.8404;
641.7000;0.4428;-0.8404;
642.0000;0.4420;-0.8429;
642.3000;0.4412;-0.8528;
642.6000;0.4436;-0.8528;
642.9000;0.4436;-0.8503;
643.2000;0.4453;-0.8503;
643.5000;0.4420;-0.8429;
643.8000;0.4420;-0.8330;
644.1000;0.4412;-0.8330;
644.4000;0.4420;-0.8380;
644.7000;0.4428;-0.8380;
645.0000;0.4412;-0.8380;
645.3000;0.4404;-0.8429;
645.6000;0.4436;-0.8355;
645.9000;0.4412;-0.8355;
646.2000;0.4420;-0.8306;
646.5000;0.4420;-0.8330;
646.8000;0.4420;-0.8404;
647.1000;0.4396;-0.8404;
647.4000;0.4412;-0.8429;
647.7000;0.4387;-0.8454;
648.0000;0.4444;-0.8429;
648.3000;0.4404;-0.8404;
648.6000;0.4396;-0.8429;
648.9000;0.4379;-0.8503;
649.2000;0.4404;-0.8404;
649.5000;0.4387;-0.8454;
649.8000;0.4387;-0.8478;
650.1000;0.4379;-0.8355;
650.4000;0.4363;-0.8355;
650.7000;0.4371;-0.8404;
651.0000;0.4339;-0.8528;
651.3000;0.4363;-0.8454;
651.6000;0.4363;-0.8454;
651.9000;0.4371;-0.8478;
652.2000;0.4371;-0.8552;
652.5000;0.4363;-0.8552;
652.8000;0.4363;-0.8528;
653.1000;0.4404;-0.8404;
653.4000;0.4355;-0.8552;
653.7000;0.4355;-0.8626;
654.0000;0.4306;-0.8725;
654.3000;0.4347;-0.8602;
654.6000;0.4298;-0.8676;
654.9000;0.4347;-0.8552;
655.2000;0.4339;-0.8503;
655.5000;0.4314;-0.8503;
655.8000;0.4339;-0.8404;
656.1000;0.4322;-0.8478;
656.4000;0.4339;-0.8454;
656.7000;0.4379;-0.8429;
657.0000;0.4314;-0.8552;
657.3000;0.4330;-0.8503;
657.6000;0.4306;-0.8478;
657.9000;0.4314;-0.8478;
658.2000;0.4396;-0.8257;
658.5000;0.4404;-0.8158;
658.8000;0.4339;-0.8380;
659.1000;0.4355;-0.8380;
659.4000;0.4314;-0.8454;
659.7000;0.4330;-0.8355;
660.0000;0.4225;-0.8478;
660.3000;0.4298;-0.8306;
660.6000;0.4314;-0.8281;
660.9000;0.4298;-0.8380;
661.2000;0.4298;-0.8404;
661.5000;0.4306;-0.8478;
661.8000;0.4290;-0.8429;
662.1000;0.4298;-0.8355;
662.4000;0.4274;-0.8330;
662.7000;0.4282;-0.8306;
663.0000;0.4274;-0.8478;
663.3000;0.4282;-0.8429;
663.6000;0.4314;-0.8355;
663.9000;0.4282;-0.8330;
664.2000;0.4274;-0.8281;
664.5000;0.4298;-0.8207;
664.8000;0.4290;-0.8281;
665.1000;0.4274;-0.8281;
665.4000;0.4233;-0.8404;
665.7000;0.4274;-0.8355;
666.0000;0.4282;-0.8380;
666.3000;0.4241;-0.8429;
666.6000;0.4265;-0.8404;
666.9000;0.4274;-0.8306;
667.2000;0.4233;-0.8306;
667.5000;0.4265;-0.8257;
667.8000;0.4314;-0.8109;
668.1000;0.4233;-0.8306;
668.4000;0.4257;-0.8257;
668.7000;0.4274;-0.8232;
669.0000;0.4265;-0.8330;
669.3000;0.4257;-0.8355;
669.6000;0.4314;-0.8207;
669.9000;0.4322;-0.8207;
670.2000;0.4249;-0.8281;
670.5000;0.4265;-0.8281;
670.8000;0.4265;-0.8306;
671.1000;0.4257;-0.8330;
671.4000;0.4274;-0.8232;
671.7000;0.4249;-0.8330;
672.0000;0.4176;-0.8429;
672.3000;0.4274;-0.8306;
672.6000;0.4265;-0.8355;
672.9000;0.4225;-0.8454;
673.2000;0.4233;-0.8429;
673.5000;0.4274;-0.8232;
673.8000;0.4257;-0.8355;
674.1000;0.4233;-0.8454;
674.4000;0.4233;-0.8404;
674.7000;0.4241;-0.8404;
675.0000;0.4233;-0.8355;
675.3000;0.4192;-0.8429;
675.6000;0.4200;-0.8281;
675.9000;0.4225;-0.8232;
676.2000;0.4249;-0.8183;
676.5000;0.4241;-0.8232;
676.8000;0.4241;-0.8306;
677.1000;0.4257;-0.8232;
677.4000;0.4208;-0.8330;
677.7000;0.4241;-0.8281;
678.0000;0.4298;-0.8109;
678.3000;0.4225;-0.8454;
678.6000;0.4249;-0.8281;
678.9000;0.4225;-0.8404;
679.2000;0.4217;-0.8429;
679.5000;0.4217;-0.8355;
679.8000;0.4208;-0.8380;
680.1000;0.4233;-0.8330;
680.4000;0.4168;-0.8478;
680.7000;0.4208;-0.8380;
681.0000;0.4192;-0.8330;
681.3000;0.4225;-0.8257;
681.6000;0.4225;-0.8281;
681.9000;0.4217;-0.8380;
682.2000;0.4208;-0.8454;
682.5000;0.4192;-0.8552;
682.8000;0.4217;-0.8552;
683.1000;0.4241;-0.8478;
683.4000;0.4200;-0.8454;
683.7000;0.4192;-0.8454;
684.0000;0.4233;-0.8306;
684.3000;0.4208;-0.8330;
684.6000;0.4168;-0.8404;
684.9000;0.4274;-0.8133;
685.2000;0.4192;-0.8330;
685.5000;0.4208;-0.8330;
685.8000;0.4217;-0.8404;
686.1000;0.4168;-0.8454;
686.4000;0.4192;-0.8404;
686.7000;0.4208;-0.8330;
687.0000;0.4184;-0.8454;
687.3000;0.4192;-0.8503;
687.6000;0.4184;-0.8503;
687.9000;0.4200;-0.8528;
688.2000;0.4176;-0.8503;
688.5000;0.4176;-0.8478;
688.8000;0.4151;-0.8528;
689.1000;0.4184;-0.8429;
689.4000;0.4168;-0.8454;
689.7000;0.4151;-0.8478;
690.0000;0.4168;-0.8355;
690.3000;0.4184;-0.8380;
690.6000;0.4192;-0.8380;
690.9000;0.4168;-0.8429;
691.2000;0.4160;-0.8429;
691.5000;0.4160;-0.8355;
691.8000;0.4176;-0.8281;
692.1000;0.4160;-0.8330;
692.4000;0.4151;-0.8330;
692.7000;0.4160;-0.8281;
693.0000;0.4168;-0.8232;
693.3000;0.4143;-0.8330;
693.6000;0.4168;-0.8257;
693.9000;0.4184;-0.8183;
694.2000;0.4160;-0.8207;
694.5000;0.4151;-0.8207;
694.8000;0.4151;-0.8281;
695.1000;0.4168;-0.8257;
695.4000;0.4184;-0.8158;
695.7000;0.4143;-0.8281;
696.0000;0.4094;-0.8306;
696.3000;0.4135;-0.8257;
696.6000;0.4184;-0.8257;
696.9000;0.4208;-0.8158;
697.2000;0.4176;-0.8207;
697.5000;0.4135;-0.8281;
697.8000;0.4143;-0.8281;
698.1000;0.4135;-0.8330;
698.4000;0.4135;-0.8454;
698.7000;0.4151;-0.8429;
699.0000;0.4151;-0.8306;
699.3000;0.4160;-0.8330;
699.6000;0.4176;-0.8257;
699.9000;0.4143;-0.8380;
700.2000;0.4192;-0.8183;
700.5000;0.4225;-0.8035;
700.8000;0.4143;-0.8133;
701.1000;0.4135;-0.8232;
701.4000;0.4135;-0.8257;
701.7000;0.4135;-0.8207;
702.0000;0.4143;-0.8183;
702.3000;0.4127;-0.8232;
702.6000;0.4184;-0.8035;
702.9000;0.4127;-0.8257;
703.2000;0.4135;-0.8257;
703.5000;0.4127;-0.8281;
703.8000;0.4135;-0.8281;
704.1000;0.4127;-0.8257;
704.4000;0.4160;-0.8281;
704.7000;0.4127;-0.8330;
705.0000;0.4135;-0.8355;
705.3000;0.4127;-0.8306;
705.6000;0.4135;-0.8232;
705.9000;0.4176;-0.8109;
706.2000;0.4127;-0.8257;
706.5000;0.4143;-0.8183;
706.8000;0.4086;-0.8330;
707.1000;0.4119;-0.8207;
707.4000;0.4151;-0.8183;
707.7000;0.4119;-0.8281;
708.0000;0.4135;-0.8257;
708.3000;0.4111;-0.8355;
708.6000;0.4103;-0.8478;
708.9000;0.4119;-0.8552;
709.2000;0.4103;-0.8528;
709.5000;0.4094;-0.8454;
709.8000;0.4103;-0.8528;
710.1000;0.4119;-0.8478;
710.4000;0.4127;-0.8429;
710.7000;0.4119;-0.8454;
711.0000;0.4103;-0.8454;
711.3000;0.4086;-0.8478;
711.6000;0.4103;-0.8380;
711.9000;0.4119;-0.8429;
712.2000;0.4111;-0.8429;
712.5000;0.4094;-0.8355;
712.8000;0.4103;-0.8306;
713.1000;0.4119;-0.8306;
713.4000;0.4046;-0.8454;
713.7000;0.4103;-0.8355;
714.0000;0.4111;-0.8355;
714.3000;0.4086;-0.8330;
714.6000;0.4094;-0.8306;
714.9000;0.4127;-0.8257;
715.2000;0.4119;-0.8330;
715.5000;0.4111;-0.8429;
715.8000;0.4119;-0.8429;
716.1000;0.4103;-0.8552;
716.4000;0.4094;-0.8552;
716.7000;0.4111;-0.8454;
717.0000;0.4070;-0.8478;
717.3000;0.4103;-0.8355;
717.6000;0.4103;-0.8404;
717.9000;0.4119;-0.8257;
718.2000;0.4086;-0.8355;
718.5000;0.4094;-0.8404;
718.8000;0.4086;-0.8503;
719.1000;0.4013;-0.8626;
719.4000;0.4078;-0.8404;
719.7000;0.4094;-0.8478;
720.0000;0.4127;-0.8380;
720.3000;0.4078;-0.8528;
720.6000;0.4078;-0.8454;
720.9000;0.4070;-0.8429;
721.2000;0.4062;-0.8404;
721.5000;0.4054;-0.8454;
721.8000;0.4070;-0.8355;
722.1000;0.4037;-0.8454;
722.4000;0.4086;-0.8306;
722.7000;0.4078;-0.8330;
723.0000;0.4070;-0.8380;
723.3000;0.4062;-0.8355;
723.6000;0.4062;-0.8281;
723.9000;0.4054;-0.8355;
724.2000;0.4070;-0.8355;
724.5000;0.4054;-0.8355;
724.8000;0.4111;-0.8207;
725.1000;0.4054;-0.8380;
725.4000;0.4054;-0.8330;
725.7000;0.4078;-0.8330;
726.0000;0.4062;-0.8355;
726.3000;0.4086;-0.8232;
726.6000;0.4070;-0.8281;
726.9000;0.3972;-0.8429;
727.2000;0.4078;-0.8207;
727.5000;0.4078;-0.8183;
727.8000;0.4070;-0.8281;
728.1000;0.4029;-0.8429;
728.4000;0.4062;-0.8355;
728.7000;0.4070;-0.8257;
729.0000;0.4029;-0.8306;
729.3000;0.4046;-0.8257;
729.6000;0.4054;-0.8281;
729.9000;0.4062;-0.8306;
730.2000;0.4037;-0.8306;
730.5000;0.4046;-0.8232;
730.8000;0.4054;-0.8306;
731.1000;0.4070;-0.8306;
731.4000;0.4046;-0.8454;
731.7000;0.4070;-0.8429;
732.0000;0.4013;-0.8577;
732.3000;0.4078;-0.8404;
732.6000;0.4078;-0.8429;
732.9000;0.4054;-0.8429;
733.2000;0.4062;-0.8355;
733.5000;0.4070;-0.8330;
733.8000;0.4062;-0.8330;
734.1000;0.4086;-0.8306;
734.4000;0.4005;-0.8380;
734.7000;0.3989;-0.8528;
735.0000;0.4037;-0.8404;
735.3000;0.4070;-0.8404;
735.6000;0.4111;-0.8306;
735.9000;0.4021;-0.8503;
736.2000;0.4046;-0.8429;
736.5000;0.4054;-0.8330;
736.8000;0.4046;-0.8330;
737.1000;0.4037;-0.8380;
737.4000;0.4054;-0.8330;
737.7000;0.4037;-0.8429;
738.0000;0.4054;-0.8355;
738.3000;0.4062;-0.8281;
738.6000;0.4037;-0.8281;
738.9000;0.4037;-0.8306;
739.2000;0.4046;-0.8281;
739.5000;0.4013;-0.8355;
739.8000;0.4103;-0.8084;
740.1000;0.4103;-0.8059;
740.4000;0.4070;-0.8084;
740.7000;0.4111;-0.7961;
741.0000;0.4062;-0.8010;
741.3000;0.4037;-0.8084;
741.6000;0.4062;-0.8133;
741.9000;0.4021;-0.8257;
742.2000;0.4046;-0.8183;
742.5000;0.4037;-0.8133;
742.8000;0.4054;-0.8059;
743.1000;0.4078;-0.7985;
743.4000;0.4046;-0.8158;
743.7000;0.4046;-0.8133;
744.0000;0.4046;-0.8183;
744.3000;0.4086;-0.8109;
744.6000;0.4021;-0.8330;
744.9000;0.4037;-0.8380;
745.2000;0.4037;-0.8404;
745.5000;0.3989;-0.8503;
745.8000;0.4029;-0.8306;
746.1000;0.4046;-0.8306;
746.4000;0.4046;-0.8355;
746.7000;0.4037;-0.8306;
747.0000;0.4103;-0.8109;
747.3000;0.4037;-0.8306;
747.6000;0.3997;-0.8355;
747.9000;0.4037;-0.8207;
748.2000;0.4037;-0.8257;
748.5000;0.4013;-0.8380;
748.8000;0.4046;-0.8429;
749.1000;0.4054;-0.8281;
749.4000;0.4037;-0.8330;
749.7000;0.4029;-0.8330;
750.0000;0.4070;-0.8232;
750.3000;0.4013;-0.8330;
750.6000;0.4029;-0.8183;
750.9000;0.4046;-0.8133;
751.2000;0.4119;-0.8010;
751.5000;0.4046;-0.8306;
751.8000;0.4062;-0.8232;
752.1000;0.4013;-0.8380;
752.4000;0.4037;-0.8306;
752.7000;0.4054;-0.8207;
753.0000;0.4037;-0.8232;
753.3000;0.3997;-0.8330;
753.6000;0.4013;-0.8380;
753.9000;0.4021;-0.8232;
754.2000;0.4037;-0.8158;
754.5000;0.4013;-0.8207;
754.8000;0.4005;-0.8281;
755.1000;0.4029;-0.8232;
755.4000;0.4013;-0.8257;
755.7000;0.4005;-0.8281;
756.0000;0.3997;-0.8330;
756.3000;0.3907;-0.8577;
756.6000;0.4005;-0.8306;
756.9000;0.3997;-0.8306;
757.2000;0.4013;-0.8355;
757.5000;0.4037;-0.8306;
757.8000;0.3997;-0.8454;
758.1000;0.4021;-0.8257;
758.4000;0.3989;-0.8355;
758.7000;0.4013;-0.8257;
759.0000;0.3989;-0.8257;
759.3000;0.4013;-0.8257;
759.6000;0.4005;-0.8281;
759.9000;0.4005;-0.8330;
760.2000;0.3997;-0.8306;
760.5000;0.3997;-0.8330;
760.8000;0.4013;-0.8306;
761.1000;0.3989;-0.8503;
761.4000;0.3997;-0.8429;
761.7000;0.3997;-0.8380;
762.0000;0.4005;-0.8454;
762.3000;0.3997;-0.8503;
762.6000;0.3964;-0.8528;
762.9000;0.4005;-0.8454;
763.2000;0.4021;-0.8306;
763.5000;0.3997;-0.8355;
763.8000;0.3997;-0.8380;
764.1000;0.3989;-0.8355;
764.4000;0.3989;-0.8404;
764.7000;0.3989;-0.8429;
765.0000;0.3972;-0.8454;
765.3000;0.3980;-0.8380;
765.6000;0.3997;-0.8306;
765.9000;0.4013;-0.8330;
766.2000;0.3980;-0.8380;
766.5000;0.4005;-0.8355;
766.8000;0.3956;-0.8454;
767.1000;0.4005;-0.8306;
767.4000;0.3989;-0.8330;
767.7000;0.3997;-0.8380;
768.0000;0.4021;-0.8330;
768.3000;0.3989;-0.8404;
768.6000;0.3980;-0.8404;
768.9000;0.3997;-0.8306;
769.2000;0.3932;-0.8404;
769.5000;0.3989;-0.8207;
769.8000;0.3972;-0.8306;
770.1000;0.3956;-0.8429;
770.4000;0.3972;-0.8404;
770.7000;0.3972;-0.8355;
771.0000;0.3972;-0.8380;
771.3000;0.3972;-0.8478;
771.6000;0.3980;-0.8404;
771.9000;0.3972;-0.8478;
772.2000;0.3980;-0.8429;
772.5000;0.3972;-0.8454;
772.8000;0.3940;-0.8380;
773.1000;0.3956;-0.8306;
773.4000;0.3997;-0.8207;
773.7000;0.3940;-0.8404;
774.0000;0.3972;-0.8380;
774.3000;0.3980;-0.8330;
774.6000;0.3980;-0.8257;
774.9000;0.3972;-0.8207;
775.2000;0.4054;-0.7985;
775.5000;0.3989;-0.8133;
775.8000;0.3980;-0.8158;
776.1000;0.3989;-0.8158;
776.4000;0.3980;-0.8183;
776.7000;0.3972;-0.8158;
777.0000;0.3989;-0.8158;
777.3000;0.3989;-0.8281;
777.6000;0.3980;-0.8355;
777.9000;0.3980;-0.8306;
778.2000;0.3989;-0.8306;
778.5000;0.3948;-0.8330;
778.8000;0.3956;-0.8281;
779.1000;0.3972;-0.8232;
779.4000;0.3972;-0.8232;
779.7000;0.4046;-0.7985;
780.0000;0.3972;-0.8257;
780.3000;0.3948;-0.8306;
780.6000;0.3956;-0.8330;
780.9000;0.3956;-0.8380;
781.2000;0.3956;-0.8257;
781.5000;0.3956;-0.8183;
781.8000;0.3997;-0.8010;
782.1000;0.3964;-0.8133;
782.4000;0.3956;-0.8158;
782.7000;0.3883;-0.8281;
783.0000;0.3972;-0.8059;
783.3000;0.3964;-0.8059;
783.6000;0.3964;-0.8010;
783.9000;0.3956;-0.8059;
784.2000;0.3940;-0.8158;
784.5000;0.3964;-0.8207;
784.8000;0.3972;-0.8232;
785.1000;0.3972;-0.8257;
785.4000;0.3940;-0.8281;
785.7000;0.3980;-0.8232;
786.0000;0.3956;-0.8232;
786.3000;0.3956;-0.8306;
786.6000;0.3980;-0.8207;
786.9000;0.4021;-0.8059;
787.2000;0.3980;-0.8133;
787.5000;0.3980;-0.8059;
787.8000;0.3956;-0.8084;
788.1000;0.4005;-0.8010;
788.4000;0.3948;-0.8232;
788.7000;0.3940;-0.8306;
789.0000;0.3940;-0.8232;
789.3000;0.3980;-0.8084;
789.6000;0.3948;-0.8109;
789.9000;0.3972;-0.8133;
790.2000;0.3956;-0.8207;
790.5000;0.3956;-0.8281;
790.8000;0.3948;-0.8109;
791.1000;0.3980;-0.8084;
791.4000;0.3964;-0.8133;
791.7000;0.3940;-0.8183;
792.0000;0.3964;-0.8109;
792.3000;0.3956;-0.8183;
792.6000;0.3923;-0.8306;
792.9000;0.3948;-0.8207;
793.2000;0.4013;-0.8109;
793.5000;0.3899;-0.8330;
793.8000;0.3948;-0.8133;
794.1000;0.3915;-0.8183;
794.4000;0.3932;-0.8035;
794.7000;0.3956;-0.7912;
795.0000;0.3964;-0.7936;
795.3000;0.3956;-0.7936;
795.6000;0.3891;-0.8084;
795.9000;0.3923;-0.8035;
796.2000;0.3948;-0.7961;
796.5000;0.3972;-0.7862;
796.8000;0.3940;-0.7985;
797.1000;0.3948;-0.7985;
797.4000;0.3980;-0.7887;
797.7000;0.3940;-0.7985;
798.0000;0.4054;-0.7838;
798.3000;0.3948;-0.8158;
798.6000;0.3956;-0.8035;
798.9000;0.3964;-0.8183;
799.2000;0.3956;-0.8207;
799.5000;0.3948;-0.8207;
799.8000;0.3956;-0.8257;
800.1000;0.3940;-0.8355;
800.4000;0.3980;-0.8306;
800.7000;0.3907;-0.8330;
801.0000;0.4029;-0.8010;
801.3000;0.3956;-0.8306;
801.6000;0.3932;-0.8355;
801.9000;0.3932;-0.8330;
802.2000;0.3932;-0.8306;
802.5000;0.3964;-0.8257;
802.8000;0.3956;-0.8330;
803.1000;0.3956;-0.8257;
803.4000;0.3899;-0.8429;
803.7000;0.3956;-0.8183;
804.0000;0.3956;-0.8183;
804.3000;0.3940;-0.8158;
804.6000;0.3923;-0.8035;
804.9000;0.3834;-0.8257;
805.2000;0.3915;-0.8133;
805.5000;0.3867;-0.8232;
805.8000;0.3932;-0.8084;
806.1000;0.3932;-0.8084;
806.4000;0.3932;-0.8207;
806.7000;0.3956;-0.8158;
807.0000;0.3940;-0.8257;
807.3000;0.3948;-0.8232;
807.6000;0.4021;-0.8035;
807.9000;0.3964;-0.8133;
808.2000;0.3948;-0.8133;
808.5000;0.3915;-0.8183;
808.8000;0.3972;-0.8084;
809.1000;0.3940;-0.8059;
809.4000;0.3940;-0.8035;
809.7000;0.3899;-0.8232;
810.0000;0.3948;-0.8158;
810.3000;0.3932;-0.8183;
810.6000;0.3915;-0.8158;
810.9000;0.3940;-0.8084;
811.2000;0.3948;-0.8084;
811.5000;0.3932;-0.8207;
811.8000;0.3940;-0.8207;
812.1000;0.3923;-0.8257;
812.4000;0.3940;-0.8330;
812.7000;0.3915;-0.8281;
813.0000;0.3915;-0.8207;
813.3000;0.3972;-0.8109;
813.6000;0.3907;-0.8330;
813.9000;0.3964;-0.8183;
814.2000;0.3964;-0.8158;
814.5000;0.3915;-0.8232;
814.8000;0.3940;-0.8109;
815.1000;0.3956;-0.8035;
815.4000;0.3932;-0.8133;
815.7000;0.3940;-0.8109;
816.0000;0.3923;-0.8133;
816.3000;0.3923;-0.8133;
816.6000;0.3940;-0.7961;
816.9000;0.3932;-0.8035;
817.2000;0.3915;-0.8133;
817.5000;0.3891;-0.8183;
817.8000;0.3972;-0.8059;
818.1000;0.3923;-0.8207;
818.4000;0.3932;-0.8133;
818.7000;0.3891;-0.8330;
819.0000;0.3948;-0.8109;
819.3000;0.3948;-0.8059;
819.6000;0.3940;-0.8109;
819.9000;0.3915;-0.8158;
820.2000;0.3907;-0.8158;
820.5000;0.3932;-0.8158;
820.8000;0.3850;-0.8355;
821.1000;0.3923;-0.8183;
821.4000;0.3923;-0.8133;
821.7000;0.3923;-0.8183;
822.0000;0.3956;-0.8084;
822.3000;0.3923;-0.8232;
822.6000;0.3940;-0.8232;
822.9000;0.3932;-0.8183;
823.2000;0.3923;-0.8257;
823.5000;0.3923;-0.8257;
823.8000;0.3923;-0.8330;
824.1000;0.3940;-0.8330;
824.4000;0.3932;-0.8330;
824.7000;0.3940;-0.8257;
825.0000;0.3915;-0.8257;
825.3000;0.3915;-0.8281;
825.6000;0.3932;-0.8257;
825.9000;0.3956;-0.8133;
826.2000;0.3923;-0.8158;
826.5000;0.3850;-0.8380;
826.8000;0.3915;-0.8306;
827.1000;0.3932;-0.8133;
827.4000;0.3915;-0.8306;
827.7000;0.3915;-0.8404;
828.0000;0.3940;-0.8330;
828.3000;0.3940;-0.8232;
828.6000;0.3915;-0.8330;
828.9000;0.3980;-0.8133;
829.2000;0.3923;-0.8207;
829.5000;0.3899;-0.8158;
829.8000;0.3923;-0.8035;
830.1000;0.3923;-0.8035;
830.4000;0.3899;-0.8109;
830.7000;0.3932;-0.8035;
831.0000;0.3948;-0.8059;
831.3000;0.3915;-0.8133;
831.6000;0.3907;-0.8133;
831.9000;0.3923;-0.8183;
832.2000;0.3932;-0.8207;
832.5000;0.3989;-0.8035;
832.8000;0.3932;-0.8133;
833.1000;0.3989;-0.7887;
833.4000;0.3948;-0.8035;
833.7000;0.3940;-0.7961;
834.0000;0.3989;-0.7862;
834.3000;0.3932;-0.7985;
834.6000;0.3923;-0.7936;
834.9000;0.3923;-0.7912;
835.2000;0.3899;-0.8010;
835.5000;0.3923;-0.7936;
835.8000;0.3915;-0.8010;
836.1000;0.3826;-0.8158;
836.4000;0.3989;-0.7714;
836.7000;0.3923;-0.7887;
837.0000;0.3883;-0.7912;
837.3000;0.3915;-0.7838;
837.6000;0.3907;-0.7912;
837.9000;0.3899;-0.7862;
838.2000;0.3915;-0.7788;
838.5000;0.3915;-0.7838;
838.8000;0.3915;-0.7862;
839.1000;0.3907;-0.7813;
839.4000;0.3915;-0.7912;
839.7000;0.3923;-0.7887;
840.0000;0.3915;-0.7912;
840.3000;0.3875;-0.8084;
840.6000;0.3899;-0.8084;
840.9000;0.3923;-0.8133;
841.2000;0.3899;-0.8257;
841.5000;0.3899;-0.8306;
841.8000;0.3891;-0.8355;
842.1000;0.3948;-0.8109;
842.4000;0.3940;-0.8158;
842.7000;0.3899;-0.8257;
843.0000;0.3899;-0.8306;
843.3000;0.3915;-0.8281;
843.6000;0.3923;-0.8133;
843.9000;0.3915;-0.8084;
844.2000;0.3858;-0.8207;
844.5000;0.3915;-0.8158;
844.8000;0.3915;-0.8158;
845.1000;0.3826;-0.8454;
845.4000;0.3907;-0.8281;
845.7000;0.3915;-0.8257;
846.0000;0.3923;-0.8257;
846.3000;0.3915;-0.8207;
846.6000;0.3883;-0.8306;
846.9000;0.3915;-0.8306;
847.2000;0.3907;-0.8330;
847.5000;0.3899;-0.8330;
847.8000;0.3899;-0.8330;
848.1000;0.3891;-0.8380;
848.4000;0.3891;-0.8380;
848.7000;0.3875;-0.8404;
849.0000;0.3891;-0.8330;
849.3000;0.3850;-0.8355;
849.6000;0.3907;-0.8257;
849.9000;0.3907;-0.8257;
850.2000;0.3923;-0.8257;
850.5000;0.3891;-0.8404;
850.8000;0.3972;-0.8133;
851.1000;0.3907;-0.8257;
851.4000;0.3875;-0.8380;
851.7000;0.3883;-0.8380;
852.0000;0.3858;-0.8478;
852.3000;0.3891;-0.8454;
852.6000;0.3932;-0.8380;
852.9000;0.3899;-0.8330;
853.2000;0.3899;-0.8355;
853.5000;0.3915;-0.8183;
853.8000;0.3875;-0.8183;
854.1000;0.3875;-0.8109;
854.4000;0.3899;-0.8010;
854.7000;0.3899;-0.8084;
855.0000;0.3915;-0.8059;
855.3000;0.3907;-0.8059;
855.6000;0.3899;-0.8109;
855.9000;0.3907;-0.8084;
856.2000;0.3891;-0.8183;
856.5000;0.3891;-0.8183;
856.8000;0.3883;-0.8158;
857.1000;0.3899;-0.8133;
857.4000;0.3907;-0.8084;
857.7000;0.3883;-0.8158;
858.0000;0.3956;-0.7862;
858.3000;0.3915;-0.7961;
858.6000;0.3907;-0.7887;
858.9000;0.3867;-0.8010;
859.2000;0.3883;-0.8035;
859.5000;0.3899;-0.8035;
859.8000;0.3867;-0.8207;
860.1000;0.3899;-0.8059;
860.4000;0.3891;-0.8084;
860.7000;0.3915;-0.8109;
861.0000;0.3899;-0.8207;
861.3000;0.3899;-0.8183;
861.6000;0.3907;-0.8133;
861.9000;0.3907;-0.8207;
862.2000;0.3899;-0.8306;
862.5000;0.3907;-0.8207;
862.8000;0.3891;-0.8257;
863.1000;0.3883;-0.8232;
863.4000;0.3940;-0.8109;
863.7000;0.3899;-0.8133;
864.0000;0.3842;-0.8183;
864.3000;0.3923;-0.8084;
864.6000;0.3899;-0.8059;
864.9000;0.3883;-0.8059;
865.2000;0.3915;-0.8059;
865.5000;0.3899;-0.8010;
865.8000;0.3891;-0.7936;
866.1000;0.3948;-0.7862;
866.4000;0.3907;-0.7961;
866.7000;0.3875;-0.7985;
867.0000;0.3858;-0.8084;
867.3000;0.3891;-0.8084;
867.6000;0.3891;-0.8059;
867.9000;0.3899;-0.8010;
868.2000;0.3867;-0.8109;
868.5000;0.3875;-0.8084;
868.8000;0.3907;-0.8109;
869.1000;0.3907;-0.8133;
869.4000;0.3883;-0.8232;
869.7000;0.3915;-0.8232;
870.0000;0.3891;-0.8232;
870.3000;0.3899;-0.8232;
870.6000;0.3899;-0.8232;
870.9000;0.3907;-0.8133;
871.2000;0.3883;-0.8207;
871.5000;0.3850;-0.8183;
871.8000;0.3883;-0.8035;
872.1000;0.3883;-0.7936;
872.4000;0.3850;-0.8035;
872.7000;0.3875;-0.7912;
873.0000;0.3875;-0.8010;
873.3000;0.3899;-0.8035;
873.6000;0.3883;-0.8035;
873.9000;0.3883;-0.8133;
874.2000;0.3883;-0.8158;
874.5000;0.3834;-0.8232;
874.8000;0.3899;-0.8133;
875.1000;0.3867;-0.8158;
875.4000;0.3891;-0.8084;
875.7000;0.3891;-0.8035;
876.0000;0.3891;-0.8059;
876.3000;0.3883;-0.8133;
876.6000;0.3883;-0.8059;
876.9000;0.3980;-0.7887;
877.2000;0.3883;-0.8084;
877.5000;0.3883;-0.8059;
877.8000;0.3875;-0.8059;
878.1000;0.3875;-0.8010;
878.4000;0.3875;-0.8059;
878.7000;0.3867;-0.8183;
879.0000;0.3875;-0.8158;
879.3000;0.3899;-0.8084;
879.6000;0.3899;-0.8084;
879.9000;0.3932;-0.8035;
880.2000;0.3891;-0.8084;
880.5000;0.3883;-0.8183;
880.8000;0.3907;-0.8059;
881.1000;0.3875;-0.8084;
881.4000;0.3899;-0.8084;
881.7000;0.3899;-0.8109;
882.0000;0.3891;-0.8133;
882.3000;0.3883;-0.8133;
882.6000;0.3883;-0.8109;
882.9000;0.3850;-0.8059;
883.2000;0.3899;-0.7961;
883.5000;0.3899;-0.7961;
883.8000;0.3875;-0.8010;
884.1000;0.3891;-0.8035;
884.4000;0.3891;-0.8035;
884.7000;0.3875;-0.8084;
885.0000;0.3826;-0.8183;
885.3000;0.3875;-0.8109;
885.6000;0.3883;-0.8133;
885.9000;0.3883;-0.8207;
886.2000;0.3858;-0.8158;
886.5000;0.3834;-0.8281;
886.8000;0.3867;-0.8257;
887.1000;0.3940;-0.8084;
887.4000;0.3793;-0.8429;
887.7000;0.3858;-0.8207;
888.0000;0.3891;-0.8084;
888.3000;0.3875;-0.8207;
888.6000;0.3850;-0.8257;
888.9000;0.3875;-0.8232;
889.2000;0.3883;-0.8207;
889.5000;0.3883;-0.8207;
889.8000;0.3891;-0.8183;
890.1000;0.3891;-0.8109;
890.4000;0.3891;-0.8158;
890.7000;0.3883;-0.8158;
891.0000;0.3818;-0.8281;
891.3000;0.3883;-0.8109;
891.6000;0.3858;-0.8133;
891.9000;0.3899;-0.8158;
892.2000;0.3883;-0.8207;
892.5000;0.3883;-0.8183;
892.8000;0.3883;-0.8084;
893.1000;0.3875;-0.8109;
893.4000;0.3883;-0.7985;
893.7000;0.3867;-0.8010;
894.0000;0.3883;-0.8059;
894.3000;0.3867;-0.8059;
894.6000;0.3875;-0.7985;
894.9000;0.3875;-0.7912;
895.2000;0.3867;-0.7936;
895.5000;0.3883;-0.7936;
895.8000;0.3891;-0.7838;
896.1000;0.3867;-0.7912;
896.4000;0.3875;-0.7961;
896.7000;0.3883;-0.8010;
897.0000;0.3915;-0.7985;
897.3000;0.3891;-0.8084;
897.6000;0.3858;-0.8183;
897.9000;0.3907;-0.8059;
898.2000;0.3867;-0.8158;
898.5000;0.3915;-0.7985;
898.8000;0.4021;-0.7714;
899.1000;0.3867;-0.8133;
899.4000;0.3858;-0.8281;
899.7000;0.3875;-0.8158;
900.0000;0.3875;-0.8158;
900.3000;0.3867;-0.8257;
900.6000;0.3858;-0.8380;
900.9000;0.3899;-0.8133;
901.2000;0.3867;-0.8281;
901.5000;0.3858;-0.8183;
901.8000;0.3834;-0.8183;
902.1000;0.3867;-0.8035;
902.4000;0.3867;-0.8059;
902.7000;0.3891;-0.8035;
903.0000;0.3826;-0.8183;
903.3000;0.3891;-0.7985;
903.6000;0.3891;-0.7912;
903.9000;0.3907;-0.7887;
904.2000;0.3883;-0.7936;
904.5000;0.3858;-0.7985;
904.8000;0.3842;-0.8158;
905.1000;0.3915;-0.7936;
905.4000;0.3867;-0.8010;
905.7000;0.3867;-0.8010;
906.0000;0.3891;-0.7985;
906.3000;0.3842;-0.8133;
906.6000;0.3858;-0.8084;
906.9000;0.3858;-0.8035;
907.2000;0.3948;-0.7739;
907.5000;0.3883;-0.7936;
907.8000;0.3907;-0.7912;
908.1000;0.3858;-0.8010;
908.4000;0.3850;-0.8109;
908.7000;0.3940;-0.7912;
909.0000;0.3867;-0.8084;
909.3000;0.3899;-0.8010;
909.6000;0.3867;-0.8133;
909.9000;0.3867;-0.8109;
910.2000;0.3858;-0.8158;
910.5000;0.3850;-0.8207;
910.8000;0.3858;-0.8183;
911.1000;0.3867;-0.8207;
911.4000;0.3907;-0.8059;
911.7000;0.3810;-0.8183;
912.0000;0.3875;-0.8133;
912.3000;0.3883;-0.8084;
912.6000;0.3875;-0.8158;
912.9000;0.3867;-0.8257;
913.2000;0.3891;-0.8183;
913.5000;0.3899;-0.8183;
913.8000;0.3932;-0.8059;
914.1000;0.3858;-0.8158;
914.4000;0.3858;-0.8183;
914.7000;0.3793;-0.8330;
915.0000;0.3867;-0.8207;
915.3000;0.3867;-0.8306;
915.6000;0.3948;-0.8010;
915.9000;0.3858;-0.8207;
916.2000;0.3867;-0.8232;
916.5000;0.3858;-0.8257;
916.8000;0.3875;-0.8133;
917.1000;0.3883;-0.8158;
917.4000;0.3899;-0.8109;
917.7000;0.3867;-0.8158;
918.0000;0.3883;-0.8133;
918.3000;0.3850;-0.8257;
918.6000;0.3858;-0.8158;
918.9000;0.3850;-0.8084;
919.2000;0.3858;-0.8010;
919.5000;0.3858;-0.8035;
919.8000;0.3850;-0.8010;
920.1000;0.3875;-0.7862;
920.4000;0.3867;-0.7961;
920.7000;0.3858;-0.7961;
921.0000;0.3842;-0.8010;
921.3000;0.3858;-0.8010;
921.6000;0.3899;-0.7912;
921.9000;0.3875;-0.8010;
922.2000;0.3891;-0.7887;
922.5000;0.3875;-0.7912;
922.8000;0.3801;-0.8084;
923.1000;0.3842;-0.7887;
923.4000;0.3834;-0.7788;
923.7000;0.3850;-0.7739;
924.0000;0.3850;-0.7813;
924.3000;0.3850;-0.7813;
924.6000;0.3899;-0.7838;
924.9000;0.3785;-0.8109;
925.2000;0.3867;-0.7912;
925.5000;0.3867;-0.7912;
925.8000;0.3858;-0.7887;
926.1000;0.3810;-0.7985;
926.4000;0.3867;-0.7862;
926.7000;0.3883;-0.7862;
927.0000;0.3875;-0.7912;
927.3000;0.3867;-0.7887;
927.6000;0.3858;-0.7961;
927.9000;0.3858;-0.8010;
928.2000;0.3867;-0.8035;
928.5000;0.3858;-0.8010;
928.8000;0.3899;-0.7936;
929.1000;0.3875;-0.7961;
929.4000;0.3858;-0.8084;
929.7000;0.3858;-0.8207;
930.0000;0.3793;-0.8306;
930.3000;0.3899;-0.8035;
930.6000;0.3834;-0.8232;
930.9000;0.3858;-0.8232;
931.2000;0.3834;-0.8281;
931.5000;0.3858;-0.8183;
931.8000;0.3875;-0.8133;
932.1000;0.3875;-0.8207;
932.4000;0.3923;-0.8084;
932.7000;0.3834;-0.8257;
933.0000;0.3891;-0.8084;
933.3000;0.3867;-0.8133;
933.6000;0.3858;-0.8109;
933.9000;0.3826;-0.8183;
934.2000;0.3858;-0.8158;
934.5000;0.3850;-0.8109;
934.8000;0.3850;-0.8059;
935.1000;0.3858;-0.7912;
935.4000;0.3858;-0.7912;
935.7000;0.3818;-0.7936;
936.0000;0.3858;-0.7764;
936.3000;0.3842;-0.7640;
936.6000;0.3850;-0.7690;
936.9000;0.3875;-0.7566;
937.2000;0.3842;-0.7813;
937.5000;0.3842;-0.7912;
937.8000;0.3867;-0.7936;
938.1000;0.3867;-0.7862;
938.4000;0.3867;-0.7813;
938.7000;0.3818;-0.7912;
939.0000;0.3858;-0.7862;
939.3000;0.3867;-0.7764;
939.6000;0.3875;-0.7714;
939.9000;0.3850;-0.7862;
940.2000;0.3858;-0.7838;
940.5000;0.3850;-0.7739;
940.8000;0.3867;-0.7690;
941.1000;0.3858;-0.7690;
941.4000;0.3875;-0.7739;
941.7000;0.3826;-0.7862;
942.0000;0.3867;-0.7838;
942.3000;0.3850;-0.7912;
942.6000;0.3834;-0.7985;
942.9000;0.3891;-0.7838;
943.2000;0.3891;-0.7813;
943.5000;0.3867;-0.7912;
943.8000;0.3834;-0.8084;
944.1000;0.3858;-0.8035;
944.4000;0.3899;-0.7912;
944.7000;0.3842;-0.8059;
945.0000;0.3826;-0.8084;
945.3000;0.3858;-0.8035;
945.6000;0.3842;-0.8035;
945.9000;0.3867;-0.7961;
946.2000;0.3875;-0.7936;
946.5000;0.3834;-0.8035;
946.8000;0.3867;-0.8059;
947.1000;0.3858;-0.8133;
947.4000;0.3834;-0.8183;
947.7000;0.3834;-0.8158;
948.0000;0.3867;-0.8035;
948.3000;0.3875;-0.7961;
948.6000;0.3858;-0.7985;
948.9000;0.3923;-0.7862;
949.2000;0.3875;-0.8059;
949.5000;0.3858;-0.8059;
949.8000;0.3858;-0.8059;
950.1000;0.3907;-0.7912;
950.4000;0.3883;-0.8084;
950.7000;0.3858;-0.8158;
951.0000;0.3867;-0.8281;
951.3000;0.3858;-0.8281;
951.6000;0.3834;-0.8207;
951.9000;0.3834;-0.8183;
952.2000;0.3875;-0.8059;
952.5000;0.3818;-0.8084;
952.8000;0.3858;-0.7985;
953.1000;0.3858;-0.8035;
953.4000;0.3850;-0.8010;
953.7000;0.3858;-0.8035;
954.0000;0.3850;-0.8109;
954.3000;0.3842;-0.8059;
954.6000;0.3842;-0.8084;
954.9000;0.3842;-0.8035;
955.2000;0.3826;-0.8035;
955.5000;0.3801;-0.8010;
955.8000;0.3842;-0.7985;
956.1000;0.3826;-0.8059;
956.4000;0.3850;-0.7985;
956.7000;0.3826;-0.8084;
957.0000;0.3858;-0.8109;
957.3000;0.3850;-0.8059;
957.6000;0.3850;-0.8109;
957.9000;0.3826;-0.8109;
958.2000;0.3867;-0.8084;
958.5000;0.3956;-0.7838;
958.8000;0.3891;-0.8010;
959.1000;0.3785;-0.8257;
959.4000;0.3850;-0.8133;
959.7000;0.3850;-0.8109;
960.0000;0.3793;-0.8158;
960.3000;0.3850;-0.8010;
960.6000;0.3842;-0.8084;
960.9000;0.3842;-0.8133;
961.2000;0.3818;-0.8232;
961.5000;0.3858;-0.8133;
961.8000;0.3842;-0.8232;
962.1000;0.3915;-0.8084;
962.4000;0.3850;-0.8158;
962.7000;0.3850;-0.8158;
963.0000;0.3850;-0.8183;
963.3000;0.3850;-0.8084;
963.6000;0.3850;-0.8084;
963.9000;0.3834;-0.8059;
964.2000;0.3842;-0.7936;
964.5000;0.3842;-0.8010;
964.8000;0.3867;-0.7961;
965.1000;0.3850;-0.7961;
965.4000;0.3842;-0.7985;
965.7000;0.3834;-0.8059;
966.0000;0.3858;-0.7961;
966.3000;0.3850;-0.7985;
966.6000;0.3850;-0.8084;
966.9000;0.3834;-0.8158;
967.2000;0.3842;-0.8109;
967.5000;0.3834;-0.8059;
967.8000;0.3834;-0.8133;
968.1000;0.3834;-0.8059;
968.4000;0.3785;-0.8306;
968.7000;0.3875;-0.8035;
969.0000;0.3818;-0.8257;
969.3000;0.3842;-0.8232;
969.6000;0.3842;-0.8306;
969.9000;0.3850;-0.8257;
970.2000;0.3834;-0.8183;
970.5000;0.3883;-0.8133;
970.8000;0.3842;-0.8207;
971.1000;0.3834;-0.8306;
971.4000;0.3850;-0.8207;
971.7000;0.3850;-0.8281;
972.0000;0.3867;-0.8207;
972.3000;0.3842;-0.8257;
972.6000;0.3858;-0.8257;
972.9000;0.3850;-0.8306;
973.2000;0.3850;-0.8330;
973.5000;0.3834;-0.8355;
973.8000;0.3858;-0.8380;
974.1000;0.3818;-0.8454;
974.4000;0.3858;-0.8257;
974.7000;0.3850;-0.8207;
975.0000;0.3850;-0.8183;
975.3000;0.3842;-0.8133;
975.6000;0.3842;-0.8158;
975.9000;0.3826;-0.8281;
976.2000;0.3842;-0.8257;
976.5000;0.3883;-0.8207;
976.8000;0.3858;-0.8207;
977.1000;0.3801;-0.8257;
977.4000;0.3834;-0.8183;
977.7000;0.3826;-0.8207;
978.0000;0.3842;-0.8158;
978.3000;0.3850;-0.8109;
978.6000;0.3842;-0.8084;
978.9000;0.3850;-0.8084;
979.2000;0.3875;-0.8035;
979.5000;0.3842;-0.8084;
979.8000;0.3850;-0.8133;
980.1000;0.3810;-0.8257;
980.4000;0.3842;-0.8257;
980.7000;0.3867;-0.8232;
981.0000;0.3850;-0.8355;
981.3000;0.3850;-0.8429;
981.6000;0.3850;-0.8478;
981.9000;0.3842;-0.8577;
982.2000;0.3842;-0.8552;
982.5000;0.3842;-0.8577;
982.8000;0.3850;-0.8651;
983.1000;0.3834;-0.8676;
983.4000;0.3858;-0.8552;
983.7000;0.3850;-0.8528;
984.0000;0.3858;-0.8429;
984.3000;0.3842;-0.8355;
984.6000;0.3834;-0.8380;
984.9000;0.3834;-0.8429;
985.2000;0.3858;-0.8380;
985.5000;0.3850;-0.8306;
985.8000;0.3883;-0.8158;
986.1000;0.3842;-0.8232;
986.4000;0.3850;-0.8133;
986.7000;0.3842;-0.8109;
987.0000;0.3850;-0.8133;
987.3000;0.3842;-0.8158;
987.6000;0.3850;-0.8133;
987.9000;0.3867;-0.8059;
988.2000;0.3834;-0.8232;
988.5000;0.3850;-0.8257;
988.8000;0.3850;-0.8257;
989.1000;0.3850;-0.8330;
989.4000;0.3842;-0.8257;
989.7000;0.3834;-0.8207;
990.0000;0.3810;-0.8330;
990.3000;0.3834;-0.8158;
990.6000;0.3834;-0.8158;
990.9000;0.3818;-0.8281;
991.2000;0.3826;-0.8306;
991.5000;0.3834;-0.8429;
991.8000;0.3801;-0.8380;
992.1000;0.3842;-0.8207;
992.4000;0.3761;-0.8281;
992.7000;0.3826;-0.8035;
993.0000;0.3883;-0.7961;
993.3000;0.3834;-0.8059;
993.6000;0.3842;-0.7985;
993.9000;0.3867;-0.7961;
994.2000;0.3834;-0.8059;
994.5000;0.3834;-0.8035;
994.8000;0.3850;-0.8059;
995.1000;0.3826;-0.8183;
995.4000;0.3826;-0.8281;
995.7000;0.3850;-0.8330;
996.0000;0.3810;-0.8503;
996.3000;0.3834;-0.8330;
996.6000;0.3842;-0.8257;
996.9000;0.3842;-0.8232;
997.2000;0.3850;-0.8207;
997.5000;0.3834;-0.8232;
997.8000;0.3858;-0.8133;
998.1000;0.3842;-0.8158;
998.4000;0.3834;-0.8158;
998.7000;0.3915;-0.7936;
999.0000;0.3810;-0.8281;
999.3000;0.3842;-0.8330;
999.6000;0.3850;-0.8306;
999.9000;0.3801;-0.8330;
1000.2000;0.3826;-0.8281;
1000.5000;0.3850;-0.8330;
1000.8000;0.3842;-0.8330;
1001.1000;0.3875;-0.8232;
1001.4000;0.3834;-0.8158;
1001.7000;0.3834;-0.8133;
1002.0000;0.3834;-0.8207;
1002.3000;0.3834;-0.8109;
1002.6000;0.3801;-0.8257;
1002.9000;0.3850;-0.8183;
1003.2000;0.3842;-0.8257;
1003.5000;0.3842;-0.8232;
1003.8000;0.3842;-0.8232;
1004.1000;0.3842;-0.8207;
1004.4000;0.3850;-0.8158;
1004.7000;0.3834;-0.8183;
1005.0000;0.3826;-0.8232;
1005.3000;0.3834;-0.8158;
1005.6000;0.3842;-0.8084;
1005.9000;0.3818;-0.8109;
1006.2000;0.3826;-0.8158;
1006.5000;0.3826;-0.8183;
1006.8000;0.3818;-0.8281;
1007.1000;0.3826;-0.8207;
1007.4000;0.3834;-0.8133;
1007.7000;0.3850;-0.8133;
1008.0000;0.3858;-0.8084;
1008.3000;0.3834;-0.8257;
1008.6000;0.3834;-0.8281;
1008.9000;0.3834;-0.8207;
1009.2000;0.3850;-0.8133;
1009.5000;0.3858;-0.8207;
1009.8000;0.3834;-0.8330;
1010.1000;0.3842;-0.8306;
1010.4000;0.3858;-0.8281;
1010.7000;0.3826;-0.8330;
1011.0000;0.3842;-0.8281;
1011.3000;0.3818;-0.8404;
1011.6000;0.3826;-0.8306;
1011.9000;0.3842;-0.8257;
1012.2000;0.3834;-0.8183;
1012.5000;0.3834;-0.8281;
1012.8000;0.3826;-0.8306;
1013.1000;0.3842;-0.8232;
1013.4000;0.3834;-0.8257;
1013.7000;0.3785;-0.8330;
1014.0000;0.3793;-0.8380;
1014.3000;0.3867;-0.8158;
1014.6000;0.3826;-0.8207;
1014.9000;0.3834;-0.8232;
1015.2000;0.3834;-0.8207;
1015.5000;0.3858;-0.8133;
1015.8000;0.3858;-0.8109;
1016.1000;0.3842;-0.8059;
1016.4000;0.3834;-0.8109;
1016.7000;0.3810;-0.8109;
1017.0000;0.3842;-0.8035;
1017.3000;0.3834;-0.8109;
1017.6000;0.3834;-0.8010;
1017.9000;0.3826;-0.8059;
1018.2000;0.3834;-0.8109;
1018.5000;0.3834;-0.8010;
1018.8000;0.3834;-0.8035;
1019.1000;0.3834;-0.8035;
1019.4000;0.3850;-0.7985;
1019.7000;0.3850;-0.8010;
1020.0000;0.3834;-0.8035;
1020.3000;0.3834;-0.8035;
1020.6000;0.3826;-0.8109;
1020.9000;0.3834;-0.8059;
1021.2000;0.3834;-0.8035;
1021.5000;0.3818;-0.8059;
1021.8000;0.3850;-0.8010;
1022.1000;0.3850;-0.7936;
1022.4000;0.3818;-0.8035;
1022.7000;0.3907;-0.7961;
1023.0000;0.3761;-0.8306;
1023.3000;0.3826;-0.8109;
1023.6000;0.3818;-0.8109;
1023.9000;0.3842;-0.8035;
1024.2000;0.3842;-0.8084;
1024.5000;0.3810;-0.8133;
1024.8000;0.3858;-0.7985;
1025.1000;0.3842;-0.8010;
1025.4000;0.3842;-0.7985;
1025.7000;0.3818;-0.8059;
1026.0000;0.3842;-0.8035;
1026.3000;0.3826;-0.8084;
1026.6000;0.3842;-0.8059;
1026.9000;0.3826;-0.8109;
1027.2000;0.3826;-0.8158;
1027.5000;0.3810;-0.8306;
1027.8000;0.3818;-0.8355;
1028.1000;0.3834;-0.8355;
1028.4000;0.3810;-0.8404;
1028.7000;0.3891;-0.8281;
1029.0000;0.3785;-0.8478;
1029.3000;0.3826;-0.8380;
1029.6000;0.3801;-0.8478;
1029.9000;0.3842;-0.8330;
1030.2000;0.3834;-0.8478;
1030.5000;0.3826;-0.8429;
1030.8000;0.3834;-0.8454;
1031.1000;0.3858;-0.8478;
1031.4000;0.3834;-0.8577;
1031.7000;0.3818;-0.8552;
1032.0000;0.3826;-0.8552;
1032.3000;0.3834;-0.8503;
1032.6000;0.3826;-0.8503;
1032.9000;0.3810;-0.8528;
1033.2000;0.3858;-0.8429;
1033.5000;0.3842;-0.8552;
1033.8000;0.3826;-0.8577;
1034.1000;0.3834;-0.8528;
1034.4000;0.3826;-0.8528;
1034.7000;0.3842;-0.8454;
1035.0000;0.3810;-0.8577;
1035.3000;0.3834;-0.8478;
1035.6000;0.3801;-0.8503;
1035.9000;0.3834;-0.8355;
1036.2000;0.3818;-0.8330;
1036.5000;0.3826;-0.8330;
1036.8000;0.3810;-0.8355;
1037.1000;0.3810;-0.8306;
1037.4000;0.3875;-0.8109;
1037.7000;0.3842;-0.8059;
1038.0000;0.3777;-0.8133;
1038.3000;0.3761;-0.8207;
1038.6000;0.3834;-0.8059;
1038.9000;0.3834;-0.8059;
1039.2000;0.3842;-0.8010;
1039.5000;0.3818;-0.8035;
1039.8000;0.3834;-0.8010;
1040.1000;0.3842;-0.7936;
1040.4000;0.3842;-0.7961;
1040.7000;0.3810;-0.8084;
1041.0000;0.3883;-0.7887;
1041.3000;0.3834;-0.8059;
1041.6000;0.3858;-0.7985;
1041.9000;0.3810;-0.8109;
1042.2000;0.3834;-0.7985;
1042.5000;0.3818;-0.8010;
1042.8000;0.3834;-0.7936;
1043.1000;0.3826;-0.7961;
1043.4000;0.3810;-0.8133;
1043.7000;0.3826;-0.8183;
1044.0000;0.3842;-0.8109;
1044.3000;0.3858;-0.8133;
1044.6000;0.3842;-0.8133;
1044.9000;0.3850;-0.8109;
1045.2000;0.3842;-0.8183;
1045.5000;0.3842;-0.8133;
1045.8000;0.3842;-0.8035;
1046.1000;0.3818;-0.8084;
1046.4000;0.3842;-0.8059;
1046.7000;0.3834;-0.8158;
1047.0000;0.3826;-0.8158;
1047.3000;0.3810;-0.8133;
1047.6000;0.3826;-0.8059;
1047.9000;0.3883;-0.7936;
1048.2000;0.3826;-0.8133;
1048.5000;0.3810;-0.8257;
1048.8000;0.3810;-0.8281;
1049.1000;0.3777;-0.8404;
1049.4000;0.3826;-0.8306;
1049.7000;0.3834;-0.8281;
1050.0000;0.3850;-0.8207;
1050.3000;0.3834;-0.8158;
1050.6000;0.3842;-0.8035;
1050.9000;0.3826;-0.8010;
1051.2000;0.3834;-0.8010;
1051.5000;0.3834;-0.8059;
1051.8000;0.3826;-0.8109;
1052.1000;0.3810;-0.8084;
1052.4000;0.3826;-0.8084;
1052.7000;0.3850;-0.7985;
1053.0000;0.3826;-0.8010;
1053.3000;0.3818;-0.8010;
1053.6000;0.3801;-0.8084;
1053.9000;0.3801;-0.8035;
1054.2000;0.3736;-0.8207;
1054.5000;0.3801;-0.8084;
1054.8000;0.3810;-0.8059;
1055.1000;0.3826;-0.8133;
1055.4000;0.3810;-0.8158;
1055.7000;0.3818;-0.8207;
1056.0000;0.3826;-0.8133;
1056.3000;0.3826;-0.8084;
1056.6000;0.3834;-0.8084;
1056.9000;0.3834;-0.8133;
1057.2000;0.3810;-0.8158;
1057.5000;0.3818;-0.8183;
1057.8000;0.3834;-0.8158;
1058.1000;0.3842;-0.8207;
1058.4000;0.3834;-0.8257;
1058.7000;0.3826;-0.8158;
1059.0000;0.3818;-0.8158;
1059.3000;0.3834;-0.8059;
1059.6000;0.3891;-0.7961;
1059.9000;0.3858;-0.8084;
1060.2000;0.3834;-0.8207;
1060.5000;0.3850;-0.8158;
1060.8000;0.3826;-0.8232;
1061.1000;0.3826;-0.8232;
1061.4000;0.3826;-0.8257;
1061.7000;0.3826;-0.8257;
1062.0000;0.3818;-0.8257;
1062.3000;0.3826;-0.8257;
1062.6000;0.3826;-0.8183;
1062.9000;0.3842;-0.8158;
1063.2000;0.3834;-0.8207;
1063.5000;0.3834;-0.8207;
1063.8000;0.3826;-0.8035;
1064.1000;0.3818;-0.8035;
1064.4000;0.3842;-0.8035;
1064.7000;0.3834;-0.8133;
1065.0000;0.3810;-0.8158;
1065.3000;0.3834;-0.8084;
1065.6000;0.3834;-0.8109;
1065.9000;0.3801;-0.8133;
1066.2000;0.3785;-0.8158;
1066.5000;0.3818;-0.8084;
1066.8000;0.3858;-0.7985;
1067.1000;0.3834;-0.8010;
1067.4000;0.3818;-0.8084;
1067.7000;0.3793;-0.8133;
1068.0000;0.3777;-0.8035;
1068.3000;0.3834;-0.7961;
1068.6000;0.3834;-0.7862;
1068.9000;0.3858;-0.7862;
1069.2000;0.3810;-0.7985;
1069.5000;0.3826;-0.7985;
1069.8000;0.3834;-0.8059;
1070.1000;0.3842;-0.8084;
1070.4000;0.3818;-0.8084;
1070.7000;0.3818;-0.8109;
1071.0000;0.3858;-0.8109;
1071.3000;0.3834;-0.8084;
1071.6000;0.3842;-0.8059;
1071.9000;0.3834;-0.8133;
1072.2000;0.3834;-0.8059;
1072.5000;0.3793;-0.8109;
1072.8000;0.3826;-0.8133;
1073.1000;0.3923;-0.7838;
1073.4000;0.3818;-0.8084;
1073.7000;0.3826;-0.8084;
1074.0000;0.3818;-0.8158;
1074.3000;0.3810;-0.8183;
1074.6000;0.3818;-0.8183;
1074.9000;0.3818;-0.8158;
1075.2000;0.3818;-0.8158;
1075.5000;0.3842;-0.8084;
1075.8000;0.3842;-0.8059;
1076.1000;0.3810;-0.8133;
1076.4000;0.3810;-0.8158;
1076.7000;0.3818;-0.8183;
1077.0000;0.3810;-0.8183;
1077.3000;0.3834;-0.8084;
1077.6000;0.3785;-0.8183;
1077.9000;0.3842;-0.8035;
1078.2000;0.3810;-0.8084;
1078.5000;0.3826;-0.8183;
1078.8000;0.3842;-0.8158;
1079.1000;0.3842;-0.8158;
1079.4000;0.3834;-0.8281;
1079.7000;0.3842;-0.8355;
1080.0000;0.3826;-0.8454;
1080.3000;0.3818;-0.8528;
1080.6000;0.3818;-0.8552;
1080.9000;0.3826;-0.8429;
1081.2000;0.3834;-0.8429;
1081.5000;0.3834;-0.8454;
1081.8000;0.3834;-0.8429;
1082.1000;0.3826;-0.8404;
1082.4000;0.3834;-0.8404;
1082.7000;0.3818;-0.8552;
1083.0000;0.3826;-0.8503;
1083.3000;0.3810;-0.8528;
1083.6000;0.3810;-0.8429;
1083.9000;0.3826;-0.8355;
1084.2000;0.3818;-0.8429;
1084.5000;0.3850;-0.8281;
1084.8000;0.3834;-0.8306;
1085.1000;0.3826;-0.8306;
1085.4000;0.3785;-0.8380;
1085.7000;0.3842;-0.8232;
1086.0000;0.3834;-0.8257;
1086.3000;0.3826;-0.8257;
1086.6000;0.3793;-0.8306;
1086.9000;0.3932;-0.7862;
1087.2000;0.3818;-0.8109;
1087.5000;0.3826;-0.8133;
1087.8000;0.3842;-0.8109;
1088.1000;0.3867;-0.8059;
1088.4000;0.3826;-0.8232;
1088.7000;0.3801;-0.8207;
1089.0000;0.3818;-0.8281;
1089.3000;0.3801;-0.8306;
1089.6000;0.3801;-0.8257;
1089.9000;0.3842;-0.8158;
1090.2000;0.3858;-0.8109;
1090.5000;0.3826;-0.8232;
1090.8000;0.3826;-0.8355;
1091.1000;0.3858;-0.8257;
1091.4000;0.3834;-0.8330;
1091.7000;0.3826;-0.8281;
1092.0000;0.3818;-0.8306;
1092.3000;0.3883;-0.8183;
1092.6000;0.3785;-0.8330;
1092.9000;0.3818;-0.8232;
1093.2000;0.3818;-0.8257;
1093.5000;0.3818;-0.8330;
1093.8000;0.3753;-0.8355;
1094.1000;0.3850;-0.8158;
1094.4000;0.3810;-0.8207;
1094.7000;0.3793;-0.8257;
1095.0000;0.3826;-0.8207;
1095.3000;0.3810;-0.8183;
1095.6000;0.3801;-0.8232;
1095.9000;0.3818;-0.8183;
1096.2000;0.3834;-0.7985;
1096.5000;0.3818;-0.8059;
1096.8000;0.3834;-0.8133;
1097.1000;0.3826;-0.8133;
1097.4000;0.3810;-0.8158;
1097.7000;0.3834;-0.8183;
1098.0000;0.3867;-0.8010;
1098.3000;0.3810;-0.8183;
1098.6000;0.3834;-0.8084;
1098.9000;0.3834;-0.8109;
1099.2000;0.3834;-0.8084;
1099.5000;0.3810;-0.8035;
1099.8000;0.3818;-0.7961;
1100.1000;0.3818;-0.8010;
1100.4000;0.3826;-0.7961;
1100.7000;0.3818;-0.7936;
1101.0000;0.3834;-0.7838;
1101.3000;0.3826;-0.7887;
1101.6000;0.3793;-0.7961;
1101.9000;0.3850;-0.7887;
1102.2000;0.3810;-0.7961;
1102.5000;0.3826;-0.7936;
1102.8000;0.3850;-0.7936;
1103.1000;0.3818;-0.8010;
1103.4000;0.3810;-0.8084;
1103.7000;0.3842;-0.7985;
1104.0000;0.3818;-0.8035;
1104.3000;0.3818;-0.8035;
1104.6000;0.3801;-0.8109;
1104.9000;0.3801;-0.8084;
1105.2000;0.3826;-0.8035;
1105.5000;0.3842;-0.8084;
1105.8000;0.3826;-0.8133;
1106.1000;0.3810;-0.8183;
1106.4000;0.3826;-0.8059;
1106.7000;0.3810;-0.8059;
1107.0000;0.3793;-0.8084;
1107.3000;0.3810;-0.8133;
1107.6000;0.3810;-0.8035;
1107.9000;0.3826;-0.8133;
1108.2000;0.3818;-0.8109;
1108.5000;0.3834;-0.7961;
1108.8000;0.3793;-0.8010;
1109.1000;0.3834;-0.7912;
1109.4000;0.3826;-0.7961;
1109.7000;0.3777;-0.8133;
1110.0000;0.3785;-0.8010;
1110.3000;0.3818;-0.8010;
1110.6000;0.3826;-0.8059;
1110.9000;0.3810;-0.8158;
1111.2000;0.3842;-0.8158;
1111.5000;0.3826;-0.8281;
1111.8000;0.3875;-0.8035;
1112.1000;0.3834;-0.8133;
1112.4000;0.3818;-0.8158;
1112.7000;0.3826;-0.8133;
1113.0000;0.3875;-0.8010;
1113.3000;0.3826;-0.8109;
1113.6000;0.3826;-0.8183;
1113.9000;0.3818;-0.8207;
1114.2000;0.3850;-0.8059;
1114.5000;0.3826;-0.8306;
1114.8000;0.3801;-0.8257;
1115.1000;0.3777;-0.8207;
1115.4000;0.3826;-0.8084;
1115.7000;0.3810;-0.8109;
1116.0000;0.3834;-0.8035;
1116.3000;0.3818;-0.8059;
1116.6000;0.3842;-0.8035;
1116.9000;0.3850;-0.8035;
1117.2000;0.3834;-0.8133;
1117.5000;0.3801;-0.8133;
1117.8000;0.3818;-0.8035;
1118.1000;0.3801;-0.8109;
1118.4000;0.3818;-0.8183;
1118.7000;0.3826;-0.8183;
1119.0000;0.3810;-0.8183;
1119.3000;0.3801;-0.8109;
1119.6000;0.3826;-0.8109;
1119.9000;0.3810;-0.8084;
1120.2000;0.3810;-0.8109;
1120.5000;0.3801;-0.8133;
1120.8000;0.3818;-0.8158;
1121.1000;0.3826;-0.8133;
1121.4000;0.3842;-0.8010;
1121.7000;0.3834;-0.7936;
1122.0000;0.3834;-0.7961;
1122.3000;0.3834;-0.8010;
1122.6000;0.3785;-0.8183;
1122.9000;0.3834;-0.8010;
1123.2000;0.3834;-0.8059;
1123.5000;0.3826;-0.8084;
1123.8000;0.3834;-0.8183;
1124.1000;0.3842;-0.8183;
1124.4000;0.3818;-0.8183;
1124.7000;0.3826;-0.8158;
1125.0000;0.3818;-0.8183;
1125.3000;0.3818;-0.8158;
1125.6000;0.3834;-0.8084;
1125.9000;0.3842;-0.8109;
1126.2000;0.3826;-0.8183;
1126.5000;0.3810;-0.8232;
1126.8000;0.3834;-0.8183;
1127.1000;0.3834;-0.8084;
1127.4000;0.3826;-0.8133;
1127.7000;0.3818;-0.8183;
1128.0000;0.3826;-0.8232;
1128.3000;0.3834;-0.8281;
1128.6000;0.3810;-0.8306;
1128.9000;0.3818;-0.8306;
1129.2000;0.3834;-0.8380;
1129.5000;0.3793;-0.8330;
1129.8000;0.3842;-0.8059;
1130.1000;0.3834;-0.8059;
1130.4000;0.3842;-0.8109;
1130.7000;0.3826;-0.8084;
1131.0000;0.3777;-0.8257;
1131.3000;0.3842;-0.8109;
1131.6000;0.3834;-0.8183;
1131.9000;0.3867;-0.8035;
1132.2000;0.3834;-0.8059;
1132.5000;0.3793;-0.8183;
1132.8000;0.3793;-0.8109;
1133.1000;0.3834;-0.8010;
1133.4000;0.3818;-0.8010;
1133.7000;0.3834;-0.7961;
1134.0000;0.3834;-0.8059;
1134.3000;0.3834;-0.8084;
1134.6000;0.3842;-0.8084;
1134.9000;0.3826;-0.8035;
1135.2000;0.3801;-0.8084;
1135.5000;0.3834;-0.8059;
1135.8000;0.3810;-0.8158;
1136.1000;0.3801;-0.8133;
1136.4000;0.3818;-0.8183;
1136.7000;0.3801;-0.8084;
1137.0000;0.3826;-0.7985;
1137.3000;0.3818;-0.8035;
1137.6000;0.3818;-0.8084;
1137.9000;0.3818;-0.8207;
1138.2000;0.3834;-0.8158;
1138.5000;0.3777;-0.8306;
1138.8000;0.3810;-0.8158;
1139.1000;0.3834;-0.8059;
1139.4000;0.3842;-0.8035;
1139.7000;0.3720;-0.8257;
1140.0000;0.3834;-0.7961;
1140.3000;0.3891;-0.7788;
1140.6000;0.3826;-0.7961;
1140.9000;0.3842;-0.7936;
1141.2000;0.3834;-0.7985;
1141.5000;0.3826;-0.7887;
1141.8000;0.3834;-0.7862;
1142.1000;0.3850;-0.7912;
1142.4000;0.3842;-0.7887;
1142.7000;0.3850;-0.7862;
1143.0000;0.3826;-0.7862;
1143.3000;0.3826;-0.7887;
1143.6000;0.3858;-0.7887;
1143.9000;0.3810;-0.8035;
1144.2000;0.3810;-0.8059;
1144.5000;0.3793;-0.8035;
1144.8000;0.3810;-0.8035;
1145.1000;0.3801;-0.8059;
1145.4000;0.3818;-0.8084;
1145.7000;0.3826;-0.7961;
1146.0000;0.3834;-0.7961;
1146.3000;0.3826;-0.7936;
1146.6000;0.3834;-0.7838;
1146.9000;0.3736;-0.8059;
1147.2000;0.3834;-0.7813;
1147.5000;0.3818;-0.7788;
1147.8000;0.3834;-0.7739;
1148.1000;0.3793;-0.7887;
1148.4000;0.3810;-0.7887;
1148.7000;0.3769;-0.7961;
1149.0000;0.3801;-0.7862;
1149.3000;0.3810;-0.7813;
1149.6000;0.3858;-0.7764;
1149.9000;0.3850;-0.7838;
1150.2000;0.3810;-0.7961;
1150.5000;0.3801;-0.8010;
1150.8000;0.3801;-0.8084;
1151.1000;0.3793;-0.8084;
1151.4000;0.3810;-0.8059;
1151.7000;0.3793;-0.8084;
1152.0000;0.3826;-0.7985;
1152.3000;0.3801;-0.8084;
1152.6000;0.3818;-0.8010;
1152.9000;0.3818;-0.8035;
1153.2000;0.3810;-0.8109;
1153.5000;0.3769;-0.8183;
1153.8000;0.3834;-0.8084;
1154.1000;0.3810;-0.8183;
1154.4000;0.3826;-0.8183;
1154.7000;0.3793;-0.8207;
1155.0000;0.3818;-0.8158;
1155.3000;0.3818;-0.8183;
1155.6000;0.3834;-0.8232;
1155.9000;0.3818;-0.8183;
1156.2000;0.3793;-0.8183;
1156.5000;0.3801;-0.8133;
1156.8000;0.3818;-0.8133;
1157.1000;0.3842;-0.8109;
1157.4000;0.3826;-0.8059;
1157.7000;0.3858;-0.8133;
1158.0000;0.3834;-0.8183;
1158.3000;0.3826;-0.8232;
1158.6000;0.3834;-0.8207;
1158.9000;0.3826;-0.8207;
1159.2000;0.3810;-0.8207;
1159.5000;0.3810;-0.8158;
1159.8000;0.3826;-0.8059;
1160.1000;0.3818;-0.7961;
1160.4000;0.3810;-0.7961;
1160.7000;0.3826;-0.7961;
1161.0000;0.3834;-0.7936;
1161.3000;0.3834;-0.7936;
1161.6000;0.3834;-0.7936;
1161.9000;0.3818;-0.7887;
1162.2000;0.3761;-0.8059;
1162.5000;0.3810;-0.7887;
1162.8000;0.3818;-0.7936;
1163.1000;0.3818;-0.7887;
1163.4000;0.3810;-0.7985;
1163.7000;0.3777;-0.8059;
1164.0000;0.3826;-0.7788;
1164.3000;0.3801;-0.7838;
1164.6000;0.3785;-0.7912;
1164.9000;0.3777;-0.7985;
1165.2000;0.3801;-0.7985;
1165.5000;0.3810;-0.7936;
1165.8000;0.3801;-0.7961;
1166.1000;0.3834;-0.7961;
1166.4000;0.3810;-0.7912;
1166.7000;0.3850;-0.7813;
1167.0000;0.3810;-0.7887;
1167.3000;0.3834;-0.7936;
1167.6000;0.3810;-0.8010;
1167.9000;0.3826;-0.7961;
1168.2000;0.3858;-0.7862;
1168.5000;0.3834;-0.8010;
1168.8000;0.3850;-0.7912;
1169.1000;0.3867;-0.7887;
1169.4000;0.3810;-0.8084;
1169.7000;0.3793;-0.8084;
1170.0000;0.3793;-0.8084;
1170.3000;0.3810;-0.8035;
1170.6000;0.3769;-0.8035;
1170.9000;0.3801;-0.7887;
1171.2000;0.3801;-0.7862;
1171.5000;0.3834;-0.7788;
1171.8000;0.3801;-0.7813;
1172.1000;0.3785;-0.7912;
1172.4000;0.3826;-0.7838;
1172.7000;0.3818;-0.7862;
1173.0000;0.3826;-0.7862;
1173.3000;0.3810;-0.7887;
1173.6000;0.3801;-0.7961;
1173.9000;0.3793;-0.7961;
1174.2000;0.3842;-0.7813;
1174.5000;0.3777;-0.7936;
1174.8000;0.3801;-0.7961;
1175.1000;0.3826;-0.7887;
1175.4000;0.3818;-0.7887;
1175.7000;0.3810;-0.7936;
1176.0000;0.3793;-0.8059;
1176.3000;0.3810;-0.8010;
1176.6000;0.3769;-0.8158;
1176.9000;0.3867;-0.7912;
1177.2000;0.3826;-0.8010;
1177.5000;0.3826;-0.8010;
1177.8000;0.3826;-0.7985;
1178.1000;0.3842;-0.7887;
1178.4000;0.3826;-0.7961;
1178.7000;0.3818;-0.7887;
1179.0000;0.3826;-0.7862;
1179.3000;0.3834;-0.7862;
1179.6000;0.3826;-0.7887;
1179.9000;0.3818;-0.7961;
1180.2000;0.3801;-0.7862;
1180.5000;0.3777;-0.7961;
1180.8000;0.3793;-0.7936;
1181.1000;0.3793;-0.7936;
1181.4000;0.3801;-0.7813;
1181.7000;0.3810;-0.7739;
1182.0000;0.3801;-0.7887;
1182.3000;0.3801;-0.7936;
1182.6000;0.3826;-0.7912;
1182.9000;0.3810;-0.7936;
1183.2000;0.3826;-0.7985;
1183.5000;0.3785;-0.8059;
1183.8000;0.3810;-0.8109;
1184.1000;0.3858;-0.8035;
1184.4000;0.3818;-0.8035;
1184.7000;0.3826;-0.7961;
1185.0000;0.3810;-0.7985;
1185.3000;0.3810;-0.8010;
1185.6000;0.3810;-0.8059;
1185.9000;0.3834;-0.8133;
1186.2000;0.3810;-0.8158;
1186.5000;0.3801;-0.8257;
1186.8000;0.3834;-0.8183;
1187.1000;0.3818;-0.8232;
1187.4000;0.3818;-0.8207;
1187.7000;0.3834;-0.8232;
1188.0000;0.3842;-0.8109;
1188.3000;0.3826;-0.8059;
1188.6000;0.3834;-0.8010;
1188.9000;0.3883;-0.7862;
1189.2000;0.3818;-0.8010;
1189.5000;0.3834;-0.7985;
1189.8000;0.3818;-0.7936;
1190.1000;0.3761;-0.8059;
1190.4000;0.3810;-0.7936;
1190.7000;0.3801;-0.7862;
1191.0000;0.3801;-0.7862;
1191.3000;0.3826;-0.7887;
1191.6000;0.3834;-0.7862;
1191.9000;0.3834;-0.7838;
1192.2000;0.3818;-0.7862;
1192.5000;0.3842;-0.7887;
1192.8000;0.3810;-0.7985;
1193.1000;0.3810;-0.7985;
1193.4000;0.3834;-0.7985;
1193.7000;0.3761;-0.8109;
1194.0000;0.3810;-0.7912;
1194.3000;0.3818;-0.7788;
1194.6000;0.3834;-0.7813;
1194.9000;0.3818;-0.7887;
1195.2000;0.3826;-0.7912;
1195.5000;0.3834;-0.7887;
1195.8000;0.3842;-0.7862;
1196.1000;0.3826;-0.7936;
1196.4000;0.3834;-0.7912;
1196.7000;0.3753;-0.8158;
1197.0000;0.3826;-0.8010;
1197.3000;0.3834;-0.8084;
1197.6000;0.3818;-0.8207;
1197.9000;0.3810;-0.8232;
1198.2000;0.3818;-0.8232;
1198.5000;0.3810;-0.8257;
1198.8000;0.3793;-0.8281;
1199.1000;0.3793;-0.8281;
1199.4000;0.3810;-0.8183;
1199.7000;0.3818;-0.8207;
1200.0000;0.3818;-0.8158;
1200.3000;0.3810;-0.8059;
1200.6000;0.3834;-0.7887;
1200.9000;0.3867;-0.7912;
1201.2000;0.3818;-0.7985;
1201.5000;0.3810;-0.8084;
1201.8000;0.3818;-0.8059;
1202.1000;0.3826;-0.8059;
1202.4000;0.3818;-0.8109;
1202.7000;0.3818;-0.8059;
1203.0000;0.3818;-0.8035;
1203.3000;0.3826;-0.8035;
1203.6000;0.3801;-0.7985;
1203.9000;0.3834;-0.8010;
1204.2000;0.3777;-0.8133;
1204.5000;0.3826;-0.8035;
1204.8000;0.3818;-0.8010;
1205.1000;0.3818;-0.8133;
1205.4000;0.3801;-0.8158;
1205.7000;0.3801;-0.8084;
1206.0000;0.3818;-0.8133;
1206.3000;0.3826;-0.8133;
1206.6000;0.3818;-0.8158;
1206.9000;0.3777;-0.8232;
1207.2000;0.3801;-0.8109;
1207.5000;0.3826;-0.8035;
1207.8000;0.3826;-0.8084;
1208.1000;0.3818;-0.8010;
1208.4000;0.3850;-0.7961;
1208.7000;0.3810;-0.8035;
1209.0000;0.3826;-0.8084;
1209.3000;0.3818;-0.8158;
1209.6000;0.3793;-0.8158;
1209.9000;0.3834;-0.8035;
1210.2000;0.3858;-0.8010;
1210.5000;0.3801;-0.8084;
1210.8000;0.3793;-0.8035;
1211.1000;0.3818;-0.8059;
1211.4000;0.3793;-0.8109;
1211.7000;0.3818;-0.8084;
1212.0000;0.3810;-0.8084;
1212.3000;0.3834;-0.8059;
1212.6000;0.3801;-0.8084;
1212.9000;0.3826;-0.8010;
1213.2000;0.3810;-0.8059;
1213.5000;0.3810;-0.8035;
1213.8000;0.3834;-0.7961;
1214.1000;0.3818;-0.7961;
1214.4000;0.3826;-0.7936;
1214.7000;0.3826;-0.8010;
1215.0000;0.3826;-0.7985;
1215.3000;0.3826;-0.7961;
1215.6000;0.3801;-0.7936;
1215.9000;0.3810;-0.7961;
1216.2000;0.3810;-0.8035;
1216.5000;0.3826;-0.8035;
1216.8000;0.3785;-0.8059;
1217.1000;0.3793;-0.8059;
1217.4000;0.3834;-0.7936;
1217.7000;0.3810;-0.8035;
1218.0000;0.3842;-0.7912;
1218.3000;0.3801;-0.8010;
1218.6000;0.3810;-0.7985;
1218.9000;0.3793;-0.8084;
1219.2000;0.3801;-0.8133;
1219.5000;0.3810;-0.8158;
1219.8000;0.3834;-0.8059;
1220.1000;0.3826;-0.7985;
1220.4000;0.3818;-0.8059;
1220.7000;0.3810;-0.8207;
1221.0000;0.3801;-0.8232;
1221.3000;0.3834;-0.8109;
1221.6000;0.3826;-0.8109;
1221.9000;0.3793;-0.8133;
1222.2000;0.3801;-0.8158;
1222.5000;0.3769;-0.8281;
1222.8000;0.3801;-0.8207;
1223.1000;0.3834;-0.8158;
1223.4000;0.3810;-0.8232;
1223.7000;0.3834;-0.8232;
1224.0000;0.3818;-0.8281;
1224.3000;0.3818;-0.8380;
1224.6000;0.3818;-0.8355;
1224.9000;0.3826;-0.8281;
1225.2000;0.3818;-0.8257;
1225.5000;0.3810;-0.8257;
1225.8000;0.3875;-0.8133;
1226.1000;0.3793;-0.8306;
1226.4000;0.3834;-0.8183;
1226.7000;0.3818;-0.8109;
1227.0000;0.3810;-0.8035;
1227.3000;0.3818;-0.8035;
1227.6000;0.3810;-0.8010;
1227.9000;0.3818;-0.7985;
1228.2000;0.3785;-0.8109;
1228.5000;0.3810;-0.8133;
1228.8000;0.3850;-0.8035;
1229.1000;0.3818;-0.8158;
1229.4000;0.3801;-0.8232;
1229.7000;0.3810;-0.8084;
1230.0000;0.3810;-0.8084;
1230.3000;0.3818;-0.7961;
1230.6000;0.3891;-0.7862;
1230.9000;0.3810;-0.8084;
1231.2000;0.3753;-0.8257;
1231.5000;0.3810;-0.8109;
1231.8000;0.3793;-0.8133;
1232.1000;0.3720;-0.8281;
1232.4000;0.3801;-0.8183;
1232.7000;0.3826;-0.8133;
1233.0000;0.3801;-0.8084;
1233.3000;0.3793;-0.8133;
1233.6000;0.3810;-0.8133;
1233.9000;0.3834;-0.8084;
1234.2000;0.3818;-0.8133;
1234.5000;0.3826;-0.8158;
1234.8000;0.3793;-0.8109;
1235.1000;0.3801;-0.7961;
1235.4000;0.3801;-0.7936;
1235.7000;0.3810;-0.7985;
1236.0000;0.3826;-0.8010;
1236.3000;0.3818;-0.8059;
1236.6000;0.3818;-0.8035;
1236.9000;0.3801;-0.8084;
1237.2000;0.3818;-0.8035;
1237.5000;0.3810;-0.8059;
1237.8000;0.3834;-0.7912;
1238.1000;0.3818;-0.7936;
1238.4000;0.3818;-0.8084;
1238.7000;0.3810;-0.8109;
1239.0000;0.3826;-0.7961;
1239.3000;0.3826;-0.7961;
1239.6000;0.3785;-0.8010;
1239.9000;0.3850;-0.7985;
1240.2000;0.3826;-0.7985;
1240.5000;0.3826;-0.8010;
1240.8000;0.3793;-0.8084;
1241.1000;0.3761;-0.8207;
1241.4000;0.3801;-0.8059;
1241.7000;0.3801;-0.8010;
1242.0000;0.3777;-0.8084;
1242.3000;0.3801;-0.7961;
1242.6000;0.3769;-0.8059;
1242.9000;0.3801;-0.7985;
1243.2000;0.3818;-0.7936;
1243.5000;0.3801;-0.7936;
1243.8000;0.3810;-0.7912;
1244.1000;0.3801;-0.7887;
1244.4000;0.3810;-0.7862;
1244.7000;0.3810;-0.7862;
1245.0000;0.3826;-0.7862;
1245.3000;0.3834;-0.7788;
1245.6000;0.3834;-0.7838;
1245.9000;0.3818;-0.7961;
1246.2000;0.3810;-0.7961;
1246.5000;0.3818;-0.7887;
1246.8000;0.3728;-0.8109;
1247.1000;0.3793;-0.7961;
1247.4000;0.3858;-0.7838;
1247.7000;0.3818;-0.7985;
1248.0000;0.3826;-0.7985;
1248.3000;0.3818;-0.8035;
1248.6000;0.3720;-0.8281;
1248.9000;0.3801;-0.8109;
1249.2000;0.3834;-0.7985;
1249.5000;0.3834;-0.7912;
1249.8000;0.3826;-0.7961;
1250.1000;0.3818;-0.7961;
1250.4000;0.3826;-0.7985;
1250.7000;0.3826;-0.8133;
1251.0000;0.3810;-0.8158;
1251.3000;0.3810;-0.8084;
1251.6000;0.3769;-0.8158;
1251.9000;0.3818;-0.7961;
1252.2000;0.3801;-0.7887;
1252.5000;0.3818;-0.7961;
1252.8000;0.3826;-0.7936;
1253.1000;0.3769;-0.8133;
1253.4000;0.3818;-0.8059;
1253.7000;0.3785;-0.8158;
1254.0000;0.3818;-0.8158;
1254.3000;0.3834;-0.8109;
1254.6000;0.3842;-0.8035;
1254.9000;0.3818;-0.8059;
1255.2000;0.3818;-0.8109;
1255.5000;0.3810;-0.8133;
1255.8000;0.3810;-0.8133;
1256.1000;0.3867;-0.8059;
1256.4000;0.3801;-0.8158;
1256.7000;0.3785;-0.8207;
1257.0000;0.3875;-0.7985;
1257.3000;0.3818;-0.8084;
1257.6000;0.3818;-0.8133;
1257.9000;0.3801;-0.8035;
1258.2000;0.3842;-0.7936;
1258.5000;0.3834;-0.7961;
1258.8000;0.3810;-0.8035;
1259.1000;0.3810;-0.8158;
1259.4000;0.3810;-0.8109;
1259.7000;0.3818;-0.8158;
1260.0000;0.3834;-0.8035;
1260.3000;0.3793;-0.7912;
1260.6000;0.3818;-0.7862;
1260.9000;0.3834;-0.7838;
1261.2000;0.3769;-0.7961;
1261.5000;0.3810;-0.7887;
1261.8000;0.3777;-0.8010;
1262.1000;0.3785;-0.8010;
1262.4000;0.3810;-0.7985;
1262.7000;0.3793;-0.8010;
1263.0000;0.3810;-0.7936;
1263.3000;0.3834;-0.7838;
1263.6000;0.3826;-0.7813;
1263.9000;0.3801;-0.7912;
1264.2000;0.3899;-0.7838;
1264.5000;0.3842;-0.7912;
1264.8000;0.3818;-0.7961;
1265.1000;0.3785;-0.8059;
1265.4000;0.3801;-0.7961;
1265.7000;0.3826;-0.7887;
1266.0000;0.3834;-0.7912;
1266.3000;0.3818;-0.8010;
1266.6000;0.3810;-0.7985;
1266.9000;0.3769;-0.8158;
1267.2000;0.3842;-0.8133;
1267.5000;0.3753;-0.8257;
1267.8000;0.3793;-0.8084;
1268.1000;0.3801;-0.8133;
1268.4000;0.3818;-0.8059;
1268.7000;0.3793;-0.8183;
1269.0000;0.3810;-0.8158;
1269.3000;0.3810;-0.8109;
1269.6000;0.3842;-0.7961;
1269.9000;0.3826;-0.8059;
1270.2000;0.3826;-0.8084;
1270.5000;0.3891;-0.8035;
1270.8000;0.3826;-0.8232;
1271.1000;0.3818;-0.8183;
1271.4000;0.3826;-0.8133;
1271.7000;0.3818;-0.8158;
1272.0000;0.3818;-0.8035;
1272.3000;0.3818;-0.7961;
1272.6000;0.3842;-0.7936;
1272.9000;0.3801;-0.8084;
1273.2000;0.3858;-0.7985;
1273.5000;0.3826;-0.8133;
1273.8000;0.3818;-0.8158;
1274.1000;0.3777;-0.8183;
1274.4000;0.3801;-0.8084;
1274.7000;0.3810;-0.8035;
1275.0000;0.3834;-0.7985;
1275.3000;0.3834;-0.7985;
1275.6000;0.3818;-0.7985;
1275.9000;0.3777;-0.8084;
1276.2000;0.3818;-0.7961;
1276.5000;0.3793;-0.7961;
1276.8000;0.3818;-0.7936;
1277.1000;0.3769;-0.8084;
1277.4000;0.3785;-0.8059;
1277.7000;0.3777;-0.8010;
1278.0000;0.3785;-0.8059;
1278.3000;0.3753;-0.8158;
1278.6000;0.3793;-0.8010;
1278.9000;0.3818;-0.7961;
1279.2000;0.3826;-0.8059;
1279.5000;0.3826;-0.8059;
1279.8000;0.3810;-0.8183;
1280.1000;0.3728;-0.8380;
1280.4000;0.3793;-0.8133;
1280.7000;0.3850;-0.7985;
1281.0000;0.3850;-0.8035;
1281.3000;0.3810;-0.8133;
1281.6000;0.3842;-0.8109;
1281.9000;0.3793;-0.8257;
1282.2000;0.3834;-0.8232;
1282.5000;0.3842;-0.8232;
1282.8000;0.3818;-0.8355;
1283.1000;0.3818;-0.8330;
1283.4000;0.3826;-0.8232;
1283.7000;0.3810;-0.8232;
1284.0000;0.3826;-0.8084;
1284.3000;0.3818;-0.8207;
1284.6000;0.3777;-0.8306;
1284.9000;0.3834;-0.8158;
1285.2000;0.3826;-0.8158;
1285.5000;0.3801;-0.8133;
1285.8000;0.3736;-0.8257;
1286.1000;0.3801;-0.8035;
1286.4000;0.3810;-0.8059;
1286.7000;0.3826;-0.8059;
1287.0000;0.3785;-0.8183;
1287.3000;0.3826;-0.8084;
1287.6000;0.3777;-0.8183;
1287.9000;0.3810;-0.8109;
1288.2000;0.3826;-0.8059;
1288.5000;0.3810;-0.8035;
1288.8000;0.3850;-0.7936;
1289.1000;0.3810;-0.8035;
1289.4000;0.3810;-0.8084;
1289.7000;0.3801;-0.8158;
1290.0000;0.3818;-0.8084;
1290.3000;0.3818;-0.8133;
1290.6000;0.3801;-0.8183;
1290.9000;0.3810;-0.8133;
1291.2000;0.3810;-0.8084;
1291.5000;0.3834;-0.8084;
1291.8000;0.3883;-0.7961;
1292.1000;0.3826;-0.8109;
1292.4000;0.3793;-0.8207;
1292.7000;0.3834;-0.8035;
1293.0000;0.3818;-0.8035;
1293.3000;0.3801;-0.8010;
1293.6000;0.3810;-0.7985;
1293.9000;0.3818;-0.8059;
1294.2000;0.3826;-0.8010;
1294.5000;0.3793;-0.8084;
1294.8000;0.3801;-0.8010;
1295.1000;0.3842;-0.7961;
1295.4000;0.3818;-0.8084;
1295.7000;0.3818;-0.8084;
1296.0000;0.3826;-0.7936;
1296.3000;0.3826;-0.7912;
1296.6000;0.3810;-0.8059;
1296.9000;0.3810;-0.8109;
1297.2000;0.3834;-0.8084;
1297.5000;0.3810;-0.8183;
1297.8000;0.3826;-0.8158;
1298.1000;0.3826;-0.8133;
1298.4000;0.3810;-0.8084;
1298.7000;0.3810;-0.8010;
1299.0000;0.3818;-0.7912;
1299.3000;0.3810;-0.7985;
1299.6000;0.3810;-0.8035;
1299.9000;0.3891;-0.7788;
1300.2000;0.3875;-0.7862;
1300.5000;0.3826;-0.7936;
1300.8000;0.3818;-0.8010;
1301.1000;0.3826;-0.8010;
1301.4000;0.3728;-0.8257;
1301.7000;0.3826;-0.7961;
1302.0000;0.3875;-0.7714;
1302.3000;0.3810;-0.7887;
1302.6000;0.3834;-0.7862;
1302.9000;0.3883;-0.7764;
1303.2000;0.3826;-0.7936;
1303.5000;0.3834;-0.7936;
1303.8000;0.3810;-0.8035;
1304.1000;0.3818;-0.8035;
1304.4000;0.3834;-0.7985;
1304.7000;0.3875;-0.7764;
1305.0000;0.3826;-0.8010;
1305.3000;0.3818;-0.8035;
1305.6000;0.3834;-0.8010;
1305.9000;0.3858;-0.7887;
1306.2000;0.3818;-0.8084;
1306.5000;0.3826;-0.8010;
1306.8000;0.3810;-0.8035;
1307.1000;0.3826;-0.8010;
1307.4000;0.3818;-0.8133;
1307.7000;0.3810;-0.8232;
1308.0000;0.3810;-0.8010;
1308.3000;0.3818;-0.7961;
1308.6000;0.3810;-0.7985;
1308.9000;0.3826;-0.7912;
1309.2000;0.3834;-0.7912;
1309.5000;0.3793;-0.8059;
1309.8000;0.3907;-0.7764;
1310.1000;0.3801;-0.7961;
1310.4000;0.3826;-0.7813;
1310.7000;0.3810;-0.7813;
1311.0000;0.3818;-0.7862;
1311.3000;0.3818;-0.7887;
1311.6000;0.3785;-0.8059;
1311.9000;0.3810;-0.8059;
1312.2000;0.3834;-0.7936;
1312.5000;0.3801;-0.7985;
1312.8000;0.3793;-0.8059;
1313.1000;0.3818;-0.7961;
1313.4000;0.3826;-0.7961;
1313.7000;0.3810;-0.7936;
1314.0000;0.3801;-0.7936;
1314.3000;0.3818;-0.7862;
1314.6000;0.3834;-0.7764;
1314.9000;0.3826;-0.7714;
1315.2000;0.3801;-0.7714;
1315.5000;0.3834;-0.7640;
1315.8000;0.3875;-0.7493;
1316.1000;0.3834;-0.7591;
1316.4000;0.3785;-0.7739;
1316.7000;0.3834;-0.7616;
1317.0000;0.3818;-0.7665;
1317.3000;0.3842;-0.7714;
1317.6000;0.3826;-0.7764;
1317.9000;0.3834;-0.7714;
1318.2000;0.3810;-0.7714;
1318.5000;0.3826;-0.7862;
1318.8000;0.3818;-0.7838;
1319.1000;0.3826;-0.7764;
1319.4000;0.3818;-0.7764;
1319.7000;0.3818;-0.7813;
1320.0000;0.3793;-0.7813;
1320.3000;0.3826;-0.7739;
1320.6000;0.3810;-0.7764;
1320.9000;0.3818;-0.7813;
1321.2000;0.3826;-0.7862;
1321.5000;0.3785;-0.7961;
1321.8000;0.3810;-0.7936;
1322.1000;0.3777;-0.8035;
1322.4000;0.3834;-0.7961;
1322.7000;0.3810;-0.8059;
1323.0000;0.3793;-0.8133;
1323.3000;0.3842;-0.8158;
1323.6000;0.3810;-0.8232;
1323.9000;0.3826;-0.8183;
1324.2000;0.3818;-0.8133;
1324.5000;0.3793;-0.8257;
1324.8000;0.3834;-0.8207;
1325.1000;0.3712;-0.8380;
1325.4000;0.3801;-0.8084;
1325.7000;0.3777;-0.8109;
1326.0000;0.3842;-0.7985;
1326.3000;0.3810;-0.7961;
1326.6000;0.3777;-0.8084;
1326.9000;0.3826;-0.7936;
1327.2000;0.3810;-0.7887;
1327.5000;0.3818;-0.7862;
1327.8000;0.3810;-0.7912;
1328.1000;0.3826;-0.7862;
1328.4000;0.3842;-0.7912;
1328.7000;0.3818;-0.8059;
1329.0000;0.3826;-0.8035;
1329.3000;0.3826;-0.8035;
1329.6000;0.3793;-0.8133;
1329.9000;0.3842;-0.8084;
1330.2000;0.3810;-0.8109;
1330.5000;0.3793;-0.8207;
1330.8000;0.3810;-0.8183;
1331.1000;0.3826;-0.8059;
1331.4000;0.3810;-0.8035;
1331.7000;0.3810;-0.8059;
1332.0000;0.3818;-0.8133;
1332.3000;0.3810;-0.8035;
1332.6000;0.3810;-0.7961;
1332.9000;0.3801;-0.7936;
1333.2000;0.3810;-0.7912;
1333.5000;0.3842;-0.7764;
1333.8000;0.3720;-0.8010;
1334.1000;0.3801;-0.7862;
1334.4000;0.3793;-0.7985;
1334.7000;0.3801;-0.7936;
1335.0000;0.3801;-0.7813;
1335.3000;0.3818;-0.7764;
1335.6000;0.3801;-0.7887;
1335.9000;0.3834;-0.7887;
1336.2000;0.3801;-0.7887;
1336.5000;0.3801;-0.7912;
1336.8000;0.3826;-0.7838;
1337.1000;0.3818;-0.7813;
1337.4000;0.3818;-0.7838;
1337.7000;0.3826;-0.7788;
1338.0000;0.3850;-0.7714;
1338.3000;0.3801;-0.7961;
1338.6000;0.3834;-0.7887;
1338.9000;0.3761;-0.8059;
1339.2000;0.3818;-0.7985;
1339.5000;0.3801;-0.8059;
1339.8000;0.3810;-0.8084;
1340.1000;0.3818;-0.8059;
1340.4000;0.3793;-0.8133;
1340.7000;0.3883;-0.7936;
1341.0000;0.3801;-0.8059;
1341.3000;0.3842;-0.7961;
1341.6000;0.3834;-0.8035;
1341.9000;0.3810;-0.8035;
1342.2000;0.3834;-0.7887;
1342.5000;0.3842;-0.7764;
1342.8000;0.3826;-0.7813;
1343.1000;0.3810;-0.7862;
1343.4000;0.3826;-0.7862;
1343.7000;0.3826;-0.7936;
1344.0000;0.3810;-0.7912;
1344.3000;0.3801;-0.7862;
1344.6000;0.3785;-0.7985;
1344.9000;0.3842;-0.7813;
1345.2000;0.3834;-0.7838;
1345.5000;0.3818;-0.7887;
1345.8000;0.3834;-0.7813;
1346.1000;0.3810;-0.7862;
1346.4000;0.3826;-0.7813;
1346.7000;0.3850;-0.7764;
1347.0000;0.3834;-0.7887;
1347.3000;0.3826;-0.7862;
1347.6000;0.3818;-0.7936;
1347.9000;0.3826;-0.7862;
1348.2000;0.3753;-0.8035;
1348.5000;0.3826;-0.7862;
1348.8000;0.3818;-0.7764;
1349.1000;0.3777;-0.7813;
1349.4000;0.3818;-0.7813;
1349.7000;0.3810;-0.7961;
1350.0000;0.3810;-0.7936;
1350.3000;0.3834;-0.7936;
1350.6000;0.3810;-0.7961;
1350.9000;0.3793;-0.7985;
1351.2000;0.3810;-0.7985;
1351.5000;0.3793;-0.8010;
1351.8000;0.3818;-0.7936;
1352.1000;0.3818;-0.7961;
1352.4000;0.3826;-0.7985;
1352.7000;0.3810;-0.7985;
1353.0000;0.3834;-0.7961;
1353.3000;0.3850;-0.7813;
1353.6000;0.3810;-0.7936;
1353.9000;0.3883;-0.7739;
1354.2000;0.3810;-0.7838;
1354.5000;0.3810;-0.7912;
1354.8000;0.3818;-0.7912;
1355.1000;0.3818;-0.7887;
1355.4000;0.3801;-0.7887;
1355.7000;0.3785;-0.7961;
1356.0000;0.3810;-0.7936;
1356.3000;0.3826;-0.7936;
1356.6000;0.3810;-0.7985;
1356.9000;0.3818;-0.8059;
1357.2000;0.3810;-0.7985;
1357.5000;0.3810;-0.8035;
1357.8000;0.3842;-0.8084;
1358.1000;0.3810;-0.7985;
1358.4000;0.3818;-0.7961;
1358.7000;0.3818;-0.7912;
1359.0000;0.3818;-0.8010;
1359.3000;0.3810;-0.8035;
1359.6000;0.3801;-0.8059;
1359.9000;0.3850;-0.7961;
1360.2000;0.3818;-0.8035;
1360.5000;0.3818;-0.8158;
1360.8000;0.3801;-0.8158;
1361.1000;0.3810;-0.8109;
1361.4000;0.3818;-0.8035;
1361.7000;0.3818;-0.8183;
1362.0000;0.3818;-0.8207;
1362.3000;0.3810;-0.8158;
1362.6000;0.3793;-0.8133;
1362.9000;0.3810;-0.8109;
1363.2000;0.3818;-0.8109;
1363.5000;0.3801;-0.8109;
1363.8000;0.3785;-0.8059;
1364.1000;0.3801;-0.8059;
1364.4000;0.3810;-0.8059;
1364.7000;0.3801;-0.8035;
1365.0000;0.3801;-0.8059;
1365.3000;0.3810;-0.8010;
1365.6000;0.3810;-0.7985;
1365.9000;0.3826;-0.7961;
1366.2000;0.3810;-0.8084;
1366.5000;0.3826;-0.8035;
1366.8000;0.3826;-0.8035;
1367.1000;0.3818;-0.8059;
1367.4000;0.3842;-0.8010;
1367.7000;0.3818;-0.8059;
1368.0000;0.3826;-0.8035;
1368.3000;0.3842;-0.7862;
1368.6000;0.3826;-0.7961;
1368.9000;0.3810;-0.8059;
1369.2000;0.3810;-0.8010;
1369.5000;0.3842;-0.8010;
1369.8000;0.3818;-0.8010;
1370.1000;0.3810;-0.8010;
1370.4000;0.3891;-0.7838;
1370.7000;0.3818;-0.8035;
1371.0000;0.3826;-0.8010;
1371.3000;0.3801;-0.7961;
1371.6000;0.3818;-0.7961;
1371.9000;0.3728;-0.8158;
1372.2000;0.3826;-0.7961;
1372.5000;0.3769;-0.8183;
1372.8000;0.3818;-0.8158;
1373.1000;0.3850;-0.8183;
1373.4000;0.3891;-0.7985;
1373.7000;0.3818;-0.8109;
1374.0000;0.3810;-0.8158;
1374.3000;0.3810;-0.8133;
1374.6000;0.3834;-0.8059;
1374.9000;0.3801;-0.8109;
1375.2000;0.3785;-0.8257;
1375.5000;0.3793;-0.8207;
1375.8000;0.3801;-0.8232;
1376.1000;0.3801;-0.8232;
1376.4000;0.3826;-0.8232;
1376.7000;0.3826;-0.8133;
1377.0000;0.3818;-0.8183;
1377.3000;0.3834;-0.8084;
1377.6000;0.3785;-0.8158;
1377.9000;0.3867;-0.7887;
1378.2000;0.3834;-0.7961;
1378.5000;0.3826;-0.7961;
1378.8000;0.3818;-0.7985;
1379.1000;0.3842;-0.8010;
1379.4000;0.3850;-0.8035;
1379.7000;0.3810;-0.8207;
1380.0000;0.3810;-0.8133;
1380.3000;0.3801;-0.8059;
1380.6000;0.3818;-0.8035;
1380.9000;0.3761;-0.8158;
1381.2000;0.3818;-0.8084;
1381.5000;0.3867;-0.7961;
1381.8000;0.3818;-0.7985;
1382.1000;0.3842;-0.7912;
1382.4000;0.3826;-0.7936;
1382.7000;0.3818;-0.7912;
1383.0000;0.3818;-0.7936;
1383.3000;0.3842;-0.7912;
1383.6000;0.3818;-0.7961;
1383.9000;0.3842;-0.7936;
1384.2000;0.3818;-0.7912;
1384.5000;0.3810;-0.7912;
1384.8000;0.3801;-0.7936;
1385.1000;0.3826;-0.7961;
1385.4000;0.3810;-0.7985;
1385.7000;0.3834;-0.8059;
1386.0000;0.3810;-0.8207;
1386.3000;0.3818;-0.8183;
1386.6000;0.3793;-0.8183;
1386.9000;0.3810;-0.8232;
1387.2000;0.3834;-0.8257;
1387.5000;0.3818;-0.8232;
1387.8000;0.3842;-0.8232;
1388.1000;0.3810;-0.8281;
1388.4000;0.3801;-0.8232;
1388.7000;0.3818;-0.8207;
1389.0000;0.3785;-0.8257;
1389.3000;0.3810;-0.8109;
1389.6000;0.3810;-0.8109;
1389.9000;0.3826;-0.8158;
1390.2000;0.3818;-0.8183;
1390.5000;0.3826;-0.8232;
1390.8000;0.3818;-0.8306;
1391.1000;0.3842;-0.8355;
1391.4000;0.3810;-0.8429;
1391.7000;0.3818;-0.8306;
1392.0000;0.3826;-0.8207;
1392.3000;0.3818;-0.8257;
1392.6000;0.3834;-0.8207;
1392.9000;0.3818;-0.8183;
1393.2000;0.3810;-0.8257;
1393.5000;0.3826;-0.8207;
1393.8000;0.3826;-0.8158;
1394.1000;0.3793;-0.8158;
1394.4000;0.3826;-0.8059;
1394.7000;0.3826;-0.8035;
1395.0000;0.3810;-0.8010;
1395.3000;0.3826;-0.8035;
1395.6000;0.3785;-0.8084;
1395.9000;0.3818;-0.8109;
1396.2000;0.3818;-0.8084;
1396.5000;0.3801;-0.8207;
1396.8000;0.3801;-0.8183;
1397.1000;0.3810;-0.8084;
1397.4000;0.3826;-0.8158;
1397.7000;0.3826;-0.8109;
1398.0000;0.3818;-0.8232;
1398.3000;0.3810;-0.8183;
1398.6000;0.3801;-0.8257;
1398.9000;0.3834;-0.8207;
1399.2000;0.3818;-0.8306;
1399.5000;0.3834;-0.8330;
1399.8000;0.3826;-0.8183;
