time/ms;Fluo/V;P700 deltaI/I x10³;
-199.8000;0.3622;-0.7147;
-199.5000;0.3630;-0.7221;
-199.2000;0.3622;-0.7320;
-198.9000;0.3622;-0.7369;
-198.6000;0.3647;-0.7369;
-198.3000;0.3622;-0.7443;
-198.0000;0.3622;-0.7345;
-197.7000;0.3639;-0.7369;
-197.4000;0.3639;-0.7369;
-197.1000;0.3655;-0.7345;
-196.8000;0.3622;-0.7419;
-196.5000;0.3639;-0.7443;
-196.2000;0.3622;-0.7493;
-195.9000;0.3630;-0.7468;
-195.6000;0.3630;-0.7443;
-195.3000;0.3671;-0.7369;
-195.0000;0.3630;-0.7542;
-194.7000;0.3663;-0.7493;
-194.4000;0.3630;-0.7566;
-194.1000;0.3622;-0.7591;
-193.8000;0.3639;-0.7517;
-193.5000;0.3630;-0.7419;
-193.2000;0.3622;-0.7419;
-192.9000;0.3639;-0.7394;
-192.6000;0.3573;-0.7566;
-192.3000;0.3639;-0.7369;
-192.0000;0.3614;-0.7345;
-191.7000;0.3590;-0.7295;
-191.4000;0.3622;-0.7271;
-191.1000;0.3639;-0.7345;
-190.8000;0.3606;-0.7320;
-190.5000;0.3639;-0.7197;
-190.2000;0.3622;-0.7221;
-189.9000;0.3647;-0.7172;
-189.6000;0.3647;-0.7172;
-189.3000;0.3630;-0.7147;
-189.0000;0.3647;-0.7147;
-188.7000;0.3622;-0.7221;
-188.4000;0.3630;-0.7320;
-188.1000;0.3639;-0.7369;
-187.8000;0.3639;-0.7443;
-187.5000;0.3630;-0.7419;
-187.2000;0.3630;-0.7345;
-186.9000;0.3647;-0.7271;
-186.6000;0.3614;-0.7320;
-186.3000;0.3622;-0.7394;
-186.0000;0.3598;-0.7468;
-185.7000;0.3622;-0.7419;
-185.4000;0.3630;-0.7443;
-185.1000;0.3630;-0.7394;
-184.8000;0.3614;-0.7345;
-184.5000;0.3663;-0.7147;
-184.2000;0.3639;-0.7197;
-183.9000;0.3622;-0.7271;
-183.6000;0.3630;-0.7271;
-183.3000;0.3630;-0.7369;
-183.0000;0.3533;-0.7690;
-182.7000;0.3614;-0.7616;
-182.4000;0.3622;-0.7542;
-182.1000;0.3630;-0.7493;
-181.8000;0.3647;-0.7419;
-181.5000;0.3614;-0.7419;
-181.2000;0.3639;-0.7369;
-180.9000;0.3696;-0.7197;
-180.6000;0.3639;-0.7320;
-180.3000;0.3671;-0.7295;
-180.0000;0.3630;-0.7369;
-179.7000;0.3639;-0.7320;
-179.4000;0.3647;-0.7369;
-179.1000;0.3647;-0.7419;
-178.8000;0.3630;-0.7468;
-178.5000;0.3622;-0.7493;
-178.2000;0.3582;-0.7493;
-177.9000;0.3622;-0.7419;
-177.6000;0.3598;-0.7419;
-177.3000;0.3614;-0.7394;
-177.0000;0.3622;-0.7369;
-176.7000;0.3622;-0.7320;
-176.4000;0.3647;-0.7295;
-176.1000;0.3647;-0.7320;
-175.8000;0.3639;-0.7369;
-175.5000;0.3655;-0.7345;
-175.2000;0.3622;-0.7443;
-174.9000;0.3647;-0.7295;
-174.6000;0.3630;-0.7320;
-174.3000;0.3622;-0.7369;
-174.0000;0.3639;-0.7320;
-173.7000;0.3639;-0.7394;
-173.4000;0.3630;-0.7394;
-173.1000;0.3647;-0.7468;
-172.8000;0.3647;-0.7443;
-172.5000;0.3606;-0.7468;
-172.2000;0.3622;-0.7419;
-171.9000;0.3630;-0.7419;
-171.6000;0.3639;-0.7369;
-171.3000;0.3622;-0.7295;
-171.0000;0.3647;-0.7221;
-170.7000;0.3630;-0.7271;
-170.4000;0.3533;-0.7616;
-170.1000;0.3622;-0.7394;
-169.8000;0.3630;-0.7443;
-169.5000;0.3630;-0.7468;
-169.2000;0.3639;-0.7542;
-168.9000;0.3639;-0.7640;
-168.6000;0.3647;-0.7616;
-168.3000;0.3647;-0.7468;
-168.0000;0.3630;-0.7468;
-167.7000;0.3622;-0.7443;
-167.4000;0.3647;-0.7443;
-167.1000;0.3663;-0.7419;
-166.8000;0.3647;-0.7419;
-166.5000;0.3606;-0.7566;
-166.2000;0.3582;-0.7714;
-165.9000;0.3639;-0.7714;
-165.6000;0.3647;-0.7739;
-165.3000;0.3639;-0.7714;
-165.0000;0.3639;-0.7566;
-164.7000;0.3639;-0.7542;
-164.4000;0.3647;-0.7493;
-164.1000;0.3630;-0.7493;
-163.8000;0.3630;-0.7493;
-163.5000;0.3639;-0.7468;
-163.2000;0.3590;-0.7468;
-162.9000;0.3630;-0.7369;
-162.6000;0.3630;-0.7271;
-162.3000;0.3622;-0.7221;
-162.0000;0.3598;-0.7246;
-161.7000;0.3614;-0.7320;
-161.4000;0.3590;-0.7320;
-161.1000;0.3630;-0.7295;
-160.8000;0.3622;-0.7221;
-160.5000;0.3639;-0.7271;
-160.2000;0.3614;-0.7271;
-159.9000;0.3614;-0.7295;
-159.6000;0.3622;-0.7295;
-159.3000;0.3606;-0.7394;
-159.0000;0.3614;-0.7345;
-158.7000;0.3647;-0.7271;
-158.4000;0.3630;-0.7320;
-158.1000;0.3639;-0.7419;
-157.8000;0.3614;-0.7517;
-157.5000;0.3647;-0.7394;
-157.2000;0.3687;-0.7147;
-156.9000;0.3630;-0.7295;
-156.6000;0.3622;-0.7246;
-156.3000;0.3647;-0.7221;
-156.0000;0.3639;-0.7221;
-155.7000;0.3614;-0.7271;
-155.4000;0.3630;-0.7246;
-155.1000;0.3639;-0.7271;
-154.8000;0.3557;-0.7493;
-154.5000;0.3630;-0.7221;
-154.2000;0.3639;-0.7197;
-153.9000;0.3647;-0.7197;
-153.6000;0.3639;-0.7197;
-153.3000;0.3639;-0.7172;
-153.0000;0.3630;-0.7098;
-152.7000;0.3630;-0.7074;
-152.4000;0.3639;-0.7024;
-152.1000;0.3614;-0.7098;
-151.8000;0.3622;-0.7123;
-151.5000;0.3630;-0.7098;
-151.2000;0.3598;-0.7123;
-150.9000;0.3622;-0.7172;
-150.6000;0.3614;-0.7197;
-150.3000;0.3622;-0.7197;
-150.0000;0.3663;-0.6926;
-149.7000;0.3630;-0.6975;
-149.4000;0.3606;-0.7000;
-149.1000;0.3598;-0.7049;
-148.8000;0.3622;-0.6926;
-148.5000;0.3639;-0.7000;
-148.2000;0.3622;-0.7098;
-147.9000;0.3639;-0.7147;
-147.6000;0.3630;-0.7246;
-147.3000;0.3639;-0.7221;
-147.0000;0.3590;-0.7246;
-146.7000;0.3590;-0.7246;
-146.4000;0.3614;-0.7246;
-146.1000;0.3622;-0.7197;
-145.8000;0.3639;-0.7197;
-145.5000;0.3630;-0.7123;
-145.2000;0.3639;-0.7172;
-144.9000;0.3630;-0.7098;
-144.6000;0.3630;-0.7098;
-144.3000;0.3622;-0.7098;
-144.0000;0.3704;-0.6876;
-143.7000;0.3647;-0.7098;
-143.4000;0.3630;-0.7074;
-143.1000;0.3639;-0.6950;
-142.8000;0.3622;-0.6975;
-142.5000;0.3639;-0.6926;
-142.2000;0.3671;-0.6778;
-141.9000;0.3639;-0.6926;
-141.6000;0.3614;-0.6926;
-141.3000;0.3582;-0.7147;
-141.0000;0.3614;-0.7098;
-140.7000;0.3622;-0.7221;
-140.4000;0.3630;-0.7345;
-140.1000;0.3622;-0.7394;
-139.8000;0.3614;-0.7394;
-139.5000;0.3630;-0.7419;
-139.2000;0.3622;-0.7345;
-138.9000;0.3614;-0.7369;
-138.6000;0.3630;-0.7320;
-138.3000;0.3614;-0.7271;
-138.0000;0.3655;-0.7172;
-137.7000;0.3622;-0.7221;
-137.4000;0.3630;-0.7246;
-137.1000;0.3671;-0.7123;
-136.8000;0.3663;-0.7221;
-136.5000;0.3622;-0.7369;
-136.2000;0.3630;-0.7419;
-135.9000;0.3630;-0.7468;
-135.6000;0.3647;-0.7369;
-135.3000;0.3630;-0.7468;
-135.0000;0.3630;-0.7468;
-134.7000;0.3647;-0.7468;
-134.4000;0.3639;-0.7443;
-134.1000;0.3639;-0.7443;
-133.8000;0.3639;-0.7468;
-133.5000;0.3565;-0.7616;
-133.2000;0.3655;-0.7419;
-132.9000;0.3647;-0.7419;
-132.6000;0.3639;-0.7443;
-132.3000;0.3630;-0.7419;
-132.0000;0.3639;-0.7443;
-131.7000;0.3622;-0.7517;
-131.4000;0.3630;-0.7591;
-131.1000;0.3639;-0.7616;
-130.8000;0.3606;-0.7616;
-130.5000;0.3639;-0.7517;
-130.2000;0.3630;-0.7468;
-129.9000;0.3622;-0.7369;
-129.6000;0.3630;-0.7295;
-129.3000;0.3622;-0.7246;
-129.0000;0.3622;-0.7271;
-128.7000;0.3614;-0.7369;
-128.4000;0.3557;-0.7517;
-128.1000;0.3630;-0.7295;
-127.8000;0.3630;-0.7246;
-127.5000;0.3573;-0.7493;
-127.2000;0.3647;-0.7320;
-126.9000;0.3639;-0.7345;
-126.6000;0.3655;-0.7369;
-126.3000;0.3622;-0.7419;
-126.0000;0.3630;-0.7369;
-125.7000;0.3614;-0.7394;
-125.4000;0.3671;-0.7221;
-125.1000;0.3614;-0.7369;
-124.8000;0.3630;-0.7345;
-124.5000;0.3622;-0.7394;
-124.2000;0.3598;-0.7443;
-123.9000;0.3647;-0.7443;
-123.6000;0.3630;-0.7468;
-123.3000;0.3614;-0.7468;
-123.0000;0.3630;-0.7493;
-122.7000;0.3622;-0.7443;
-122.4000;0.3639;-0.7369;
-122.1000;0.3630;-0.7345;
-121.8000;0.3622;-0.7320;
-121.5000;0.3614;-0.7394;
-121.2000;0.3614;-0.7394;
-120.9000;0.3622;-0.7369;
-120.6000;0.3630;-0.7369;
-120.3000;0.3630;-0.7394;
-120.0000;0.3565;-0.7591;
-119.7000;0.3606;-0.7419;
-119.4000;0.3614;-0.7517;
-119.1000;0.3614;-0.7419;
-118.8000;0.3606;-0.7320;
-118.5000;0.3630;-0.7271;
-118.2000;0.3639;-0.7271;
-117.9000;0.3639;-0.7320;
-117.6000;0.3647;-0.7221;
-117.3000;0.3630;-0.7246;
-117.0000;0.3622;-0.7320;
-116.7000;0.3622;-0.7369;
-116.4000;0.3598;-0.7443;
-116.1000;0.3655;-0.7271;
-115.8000;0.3639;-0.7246;
-115.5000;0.3639;-0.7295;
-115.2000;0.3573;-0.7443;
-114.9000;0.3639;-0.7246;
-114.6000;0.3590;-0.7295;
-114.3000;0.3630;-0.7172;
-114.0000;0.3630;-0.7123;
-113.7000;0.3622;-0.7271;
-113.4000;0.3630;-0.7271;
-113.1000;0.3598;-0.7394;
-112.8000;0.3712;-0.7024;
-112.5000;0.3647;-0.7271;
-112.2000;0.3622;-0.7468;
-111.9000;0.3630;-0.7443;
-111.6000;0.3687;-0.7295;
-111.3000;0.3655;-0.7271;
-111.0000;0.3630;-0.7246;
-110.7000;0.3630;-0.7147;
-110.4000;0.3630;-0.7147;
-110.1000;0.3590;-0.7147;
-109.8000;0.3630;-0.7123;
-109.5000;0.3606;-0.7246;
-109.2000;0.3639;-0.7123;
-108.9000;0.3639;-0.7197;
-108.6000;0.3622;-0.7246;
-108.3000;0.3630;-0.7246;
-108.0000;0.3622;-0.7320;
-107.7000;0.3647;-0.7369;
-107.4000;0.3622;-0.7419;
-107.1000;0.3647;-0.7345;
-106.8000;0.3630;-0.7295;
-106.5000;0.3614;-0.7320;
-106.2000;0.3639;-0.7271;
-105.9000;0.3630;-0.7320;
-105.6000;0.3639;-0.7394;
-105.3000;0.3622;-0.7419;
-105.0000;0.3687;-0.7172;
-104.7000;0.3630;-0.7320;
-104.4000;0.3647;-0.7295;
-104.1000;0.3606;-0.7443;
-103.8000;0.3630;-0.7419;
-103.5000;0.3614;-0.7394;
-103.2000;0.3639;-0.7246;
-102.9000;0.3696;-0.7221;
-102.6000;0.3630;-0.7369;
-102.3000;0.3639;-0.7345;
-102.0000;0.3639;-0.7369;
-101.7000;0.3630;-0.7394;
-101.4000;0.3655;-0.7369;
-101.1000;0.3639;-0.7320;
-100.8000;0.3647;-0.7320;
-100.5000;0.3630;-0.7320;
-100.2000;0.3630;-0.7345;
-99.9000;0.3614;-0.7369;
-99.6000;0.3630;-0.7295;
-99.3000;0.3630;-0.7345;
-99.0000;0.3622;-0.7369;
-98.7000;0.3630;-0.7443;
-98.4000;0.3704;-0.7147;
-98.1000;0.3630;-0.7345;
-97.8000;0.3639;-0.7246;
-97.5000;0.3598;-0.7320;
-97.2000;0.3630;-0.7271;
-96.9000;0.3630;-0.7246;
-96.6000;0.3606;-0.7320;
-96.3000;0.3639;-0.7271;
-96.0000;0.3639;-0.7320;
-95.7000;0.3630;-0.7369;
-95.4000;0.3622;-0.7320;
-95.1000;0.3630;-0.7271;
-94.8000;0.3630;-0.7345;
-94.5000;0.3630;-0.7369;
-94.2000;0.3614;-0.7419;
-93.9000;0.3639;-0.7369;
-93.6000;0.3630;-0.7345;
-93.3000;0.3606;-0.7443;
-93.0000;0.3614;-0.7493;
-92.7000;0.3622;-0.7542;
-92.4000;0.3647;-0.7468;
-92.1000;0.3679;-0.7419;
-91.8000;0.3630;-0.7493;
-91.5000;0.3622;-0.7443;
-91.2000;0.3671;-0.7246;
-90.9000;0.3622;-0.7345;
-90.6000;0.3639;-0.7295;
-90.3000;0.3606;-0.7320;
-90.0000;0.3639;-0.7246;
-89.7000;0.3622;-0.7197;
-89.4000;0.3639;-0.7147;
-89.1000;0.3639;-0.7147;
-88.8000;0.3679;-0.7049;
-88.5000;0.3639;-0.7246;
-88.2000;0.3565;-0.7493;
-87.9000;0.3712;-0.7221;
-87.6000;0.3639;-0.7493;
-87.3000;0.3639;-0.7468;
-87.0000;0.3630;-0.7345;
-86.7000;0.3590;-0.7394;
-86.4000;0.3639;-0.7345;
-86.1000;0.3720;-0.7098;
-85.8000;0.3614;-0.7493;
-85.5000;0.3630;-0.7542;
-85.2000;0.3606;-0.7517;
-84.9000;0.3606;-0.7468;
-84.6000;0.3582;-0.7542;
-84.3000;0.3630;-0.7493;
-84.0000;0.3606;-0.7542;
-83.7000;0.3630;-0.7419;
-83.4000;0.3582;-0.7640;
-83.1000;0.3622;-0.7517;
-82.8000;0.3622;-0.7566;
-82.5000;0.3614;-0.7517;
-82.2000;0.3639;-0.7542;
-81.9000;0.3622;-0.7493;
-81.6000;0.3639;-0.7493;
-81.3000;0.3655;-0.7443;
-81.0000;0.3598;-0.7542;
-80.7000;0.3639;-0.7419;
-80.4000;0.3606;-0.7443;
-80.1000;0.3614;-0.7468;
-79.8000;0.3696;-0.7271;
-79.5000;0.3630;-0.7493;
-79.2000;0.3622;-0.7566;
-78.9000;0.3639;-0.7419;
-78.6000;0.3590;-0.7542;
-78.3000;0.3663;-0.7419;
-78.0000;0.3590;-0.7542;
-77.7000;0.3639;-0.7394;
-77.4000;0.3622;-0.7419;
-77.1000;0.3614;-0.7443;
-76.8000;0.3639;-0.7493;
-76.5000;0.3622;-0.7443;
-76.2000;0.3630;-0.7468;
-75.9000;0.3639;-0.7443;
-75.6000;0.3630;-0.7394;
-75.3000;0.3622;-0.7419;
-75.0000;0.3663;-0.7295;
-74.7000;0.3630;-0.7394;
-74.4000;0.3622;-0.7394;
-74.1000;0.3622;-0.7419;
-73.8000;0.3614;-0.7369;
-73.5000;0.3630;-0.7394;
-73.2000;0.3647;-0.7345;
-72.9000;0.3590;-0.7566;
-72.6000;0.3647;-0.7419;
-72.3000;0.3639;-0.7394;
-72.0000;0.3647;-0.7419;
-71.7000;0.3630;-0.7468;
-71.4000;0.3639;-0.7369;
-71.1000;0.3598;-0.7419;
-70.8000;0.3639;-0.7394;
-70.5000;0.3639;-0.7468;
-70.2000;0.3647;-0.7443;
-69.9000;0.3639;-0.7493;
-69.6000;0.3614;-0.7566;
-69.3000;0.3655;-0.7517;
-69.0000;0.3614;-0.7591;
-68.7000;0.3630;-0.7591;
-68.4000;0.3630;-0.7566;
-68.1000;0.3647;-0.7542;
-67.8000;0.3647;-0.7517;
-67.5000;0.3647;-0.7542;
-67.2000;0.3671;-0.7493;
-66.9000;0.3639;-0.7468;
-66.6000;0.3622;-0.7566;
-66.3000;0.3639;-0.7493;
-66.0000;0.3663;-0.7369;
-65.7000;0.3630;-0.7419;
-65.4000;0.3639;-0.7419;
-65.1000;0.3549;-0.7665;
-64.8000;0.3614;-0.7493;
-64.5000;0.3622;-0.7542;
-64.2000;0.3647;-0.7493;
-63.9000;0.3622;-0.7493;
-63.6000;0.3630;-0.7369;
-63.3000;0.3598;-0.7419;
-63.0000;0.3630;-0.7419;
-62.7000;0.3630;-0.7443;
-62.4000;0.3614;-0.7493;
-62.1000;0.3606;-0.7468;
-61.8000;0.3590;-0.7493;
-61.5000;0.3647;-0.7468;
-61.2000;0.3647;-0.7493;
-60.9000;0.3630;-0.7468;
-60.6000;0.3630;-0.7517;
-60.3000;0.3630;-0.7542;
-60.0000;0.3639;-0.7591;
-59.7000;0.3647;-0.7493;
-59.4000;0.3622;-0.7591;
-59.1000;0.3639;-0.7616;
-58.8000;0.3630;-0.7665;
-58.5000;0.3606;-0.7739;
-58.2000;0.3614;-0.7640;
-57.9000;0.3622;-0.7517;
-57.6000;0.3622;-0.7517;
-57.3000;0.3647;-0.7468;
-57.0000;0.3614;-0.7493;
-56.7000;0.3630;-0.7468;
-56.4000;0.3622;-0.7542;
-56.1000;0.3622;-0.7542;
-55.8000;0.3622;-0.7640;
-55.5000;0.3639;-0.7616;
-55.2000;0.3639;-0.7616;
-54.9000;0.3614;-0.7690;
-54.6000;0.3647;-0.7739;
-54.3000;0.3590;-0.7788;
-54.0000;0.3630;-0.7616;
-53.7000;0.3630;-0.7690;
-53.4000;0.3630;-0.7640;
-53.1000;0.3630;-0.7616;
-52.8000;0.3630;-0.7566;
-52.5000;0.3647;-0.7517;
-52.2000;0.3565;-0.7640;
-51.9000;0.3639;-0.7394;
-51.6000;0.3647;-0.7419;
-51.3000;0.3639;-0.7493;
-51.0000;0.3639;-0.7566;
-50.7000;0.3630;-0.7566;
-50.4000;0.3647;-0.7542;
-50.1000;0.3622;-0.7640;
-49.8000;0.3614;-0.7591;
-49.5000;0.3622;-0.7566;
-49.2000;0.3606;-0.7640;
-48.9000;0.3598;-0.7665;
-48.6000;0.3606;-0.7468;
-48.3000;0.3630;-0.7517;
-48.0000;0.3606;-0.7419;
-47.7000;0.3630;-0.7394;
-47.4000;0.3622;-0.7419;
-47.1000;0.3630;-0.7517;
-46.8000;0.3614;-0.7566;
-46.5000;0.3639;-0.7566;
-46.2000;0.3663;-0.7493;
-45.9000;0.3630;-0.7616;
-45.6000;0.3630;-0.7591;
-45.3000;0.3647;-0.7566;
-45.0000;0.3728;-0.7394;
-44.7000;0.3622;-0.7591;
-44.4000;0.3647;-0.7443;
-44.1000;0.3639;-0.7419;
-43.8000;0.3622;-0.7443;
-43.5000;0.3622;-0.7443;
-43.2000;0.3622;-0.7419;
-42.9000;0.3622;-0.7419;
-42.6000;0.3630;-0.7295;
-42.3000;0.3639;-0.7345;
-42.0000;0.3622;-0.7271;
-41.7000;0.3679;-0.7098;
-41.4000;0.3639;-0.7271;
-41.1000;0.3647;-0.7345;
-40.8000;0.3614;-0.7419;
-40.5000;0.3630;-0.7493;
-40.2000;0.3630;-0.7517;
-39.9000;0.3606;-0.7591;
-39.6000;0.3606;-0.7616;
-39.3000;0.3630;-0.7566;
-39.0000;0.3590;-0.7566;
-38.7000;0.3696;-0.7468;
-38.4000;0.3622;-0.7591;
-38.1000;0.3606;-0.7665;
-37.8000;0.3622;-0.7566;
-37.5000;0.3630;-0.7493;
-37.2000;0.3630;-0.7542;
-36.9000;0.3614;-0.7616;
-36.6000;0.3622;-0.7640;
-36.3000;0.3655;-0.7542;
-36.0000;0.3614;-0.7493;
-35.7000;0.3630;-0.7443;
-35.4000;0.3614;-0.7517;
-35.1000;0.3614;-0.7517;
-34.8000;0.3622;-0.7493;
-34.5000;0.3630;-0.7493;
-34.2000;0.3622;-0.7591;
-33.9000;0.3622;-0.7640;
-33.6000;0.3639;-0.7493;
-33.3000;0.3704;-0.7320;
-33.0000;0.3622;-0.7517;
-32.7000;0.3647;-0.7468;
-32.4000;0.3630;-0.7493;
-32.1000;0.3590;-0.7616;
-31.8000;0.3630;-0.7542;
-31.5000;0.3630;-0.7566;
-31.2000;0.3655;-0.7468;
-30.9000;0.3639;-0.7493;
-30.6000;0.3630;-0.7468;
-30.3000;0.3630;-0.7419;
-30.0000;0.3655;-0.7443;
-29.7000;0.3630;-0.7542;
-29.4000;0.3614;-0.7517;
-29.1000;0.3614;-0.7493;
-28.8000;0.3630;-0.7320;
-28.5000;0.3630;-0.7295;
-28.2000;0.3639;-0.7271;
-27.9000;0.3647;-0.7221;
-27.6000;0.3630;-0.7246;
-27.3000;0.3639;-0.7271;
-27.0000;0.3614;-0.7419;
-26.7000;0.3622;-0.7468;
-26.4000;0.3639;-0.7468;
-26.1000;0.3647;-0.7468;
-25.8000;0.3647;-0.7493;
-25.5000;0.3630;-0.7443;
-25.2000;0.3696;-0.7197;
-24.9000;0.3630;-0.7369;
-24.6000;0.3606;-0.7419;
-24.3000;0.3639;-0.7419;
-24.0000;0.3630;-0.7591;
-23.7000;0.3639;-0.7468;
-23.4000;0.3622;-0.7468;
-23.1000;0.3598;-0.7517;
-22.8000;0.3622;-0.7517;
-22.5000;0.3639;-0.7566;
-22.2000;0.3630;-0.7591;
-21.9000;0.3606;-0.7665;
-21.6000;0.3606;-0.7616;
-21.3000;0.3606;-0.7566;
-21.0000;0.3639;-0.7468;
-20.7000;0.3622;-0.7640;
-20.4000;0.3671;-0.7468;
-20.1000;0.3622;-0.7640;
-19.8000;0.3630;-0.7690;
-19.5000;0.3647;-0.7665;
-19.2000;0.3630;-0.7690;
-18.9000;0.3622;-0.7714;
-18.6000;0.3639;-0.7665;
-18.3000;0.3622;-0.7690;
-18.0000;0.3630;-0.7640;
-17.7000;0.3639;-0.7665;
-17.4000;0.3639;-0.7591;
-17.1000;0.3639;-0.7542;
-16.8000;0.3687;-0.7320;
-16.5000;0.3614;-0.7468;
-16.2000;0.3639;-0.7468;
-15.9000;0.3622;-0.7419;
-15.6000;0.3639;-0.7369;
-15.3000;0.3630;-0.7320;
-15.0000;0.3630;-0.7419;
-14.7000;0.3639;-0.7443;
-14.4000;0.3614;-0.7468;
-14.1000;0.3639;-0.7468;
-13.8000;0.3647;-0.7493;
-13.5000;0.3590;-0.7591;
-13.2000;0.3622;-0.7566;
-12.9000;0.3614;-0.7665;
-12.6000;0.3606;-0.7690;
-12.3000;0.3622;-0.7665;
-12.0000;0.3622;-0.7665;
-11.7000;0.3622;-0.7690;
-11.4000;0.3630;-0.7640;
-11.1000;0.3614;-0.7764;
-10.8000;0.3565;-0.7912;
-10.5000;0.3606;-0.7788;
-10.2000;0.3655;-0.7764;
-9.9000;0.3614;-0.7813;
-9.6000;0.3630;-0.7739;
-9.3000;0.3622;-0.7665;
-9.0000;0.3598;-0.7640;
-8.7000;0.3639;-0.7616;
-8.4000;0.3639;-0.7616;
-8.1000;0.3590;-0.7690;
-7.8000;0.3639;-0.7493;
-7.5000;0.3630;-0.7468;
-7.2000;0.3622;-0.7468;
-6.9000;0.3614;-0.7517;
-6.6000;0.3630;-0.7517;
-6.3000;0.3622;-0.7493;
-6.0000;0.3622;-0.7468;
-5.7000;0.3622;-0.7468;
-5.4000;0.3630;-0.7493;
-5.1000;0.3630;-0.7690;
-4.8000;0.3622;-0.7665;
-4.5000;0.3630;-0.7665;
-4.2000;0.3630;-0.7690;
-3.9000;0.3630;-0.7714;
-3.6000;0.3606;-0.7714;
-3.3000;0.3622;-0.7690;
-3.0000;0.3622;-0.7665;
-2.7000;0.3606;-0.7640;
-2.4000;0.3630;-0.7665;
-2.1000;0.3614;-0.7665;
-1.8000;0.3630;-0.7616;
-1.5000;0.3630;-0.7690;
-1.2000;0.3622;-0.7690;
-0.9000;0.3622;-0.7591;
-0.6000;0.3622;-0.7566;
-0.3000;0.3614;-0.7616;
0.0000;0.3614;-0.7616;
0.3000;0.3801;-0.7369;
0.6000;0.4192;-0.6827;
0.9000;0.4493;-0.6260;
1.2000;0.4721;-0.5792;
1.5000;0.4933;-0.5373;
1.8000;0.5071;-0.4880;
2.1000;0.5201;-0.4461;
2.4000;0.5291;-0.4091;
2.7000;0.5364;-0.3771;
3.0000;0.5438;-0.3623;
3.3000;0.5478;-0.3500;
3.6000;0.5519;-0.3327;
3.9000;0.5560;-0.3204;
4.2000;0.5600;-0.3130;
4.5000;0.5698;-0.2785;
4.8000;0.5641;-0.2884;
5.1000;0.5674;-0.2686;
5.4000;0.5698;-0.2711;
5.7000;0.5804;-0.2440;
6.0000;0.5731;-0.2613;
6.3000;0.5739;-0.2613;
6.6000;0.5739;-0.2637;
6.9000;0.5796;-0.2539;
7.2000;0.5747;-0.2588;
7.5000;0.5869;-0.2292;
7.8000;0.5820;-0.2514;
8.1000;0.5828;-0.2415;
8.4000;0.5861;-0.2415;
8.7000;0.5885;-0.2440;
9.0000;0.5861;-0.2563;
9.3000;0.5877;-0.2539;
9.6000;0.5918;-0.2440;
9.9000;0.5910;-0.2588;
10.2000;0.5950;-0.2440;
10.5000;0.5861;-0.2785;
10.8000;0.5958;-0.2489;
11.1000;0.5983;-0.2489;
11.4000;0.5975;-0.2539;
11.7000;0.5958;-0.2489;
12.0000;0.5942;-0.2563;
12.3000;0.5999;-0.2489;
12.6000;0.6007;-0.2514;
12.9000;0.6007;-0.2539;
13.2000;0.6007;-0.2539;
13.5000;0.6072;-0.2440;
13.8000;0.6040;-0.2563;
14.1000;0.6032;-0.2613;
14.4000;0.6064;-0.2539;
14.7000;0.6097;-0.2514;
15.0000;0.6089;-0.2489;
15.3000;0.6105;-0.2539;
15.6000;0.6105;-0.2563;
15.9000;0.6129;-0.2514;
16.2000;0.6154;-0.2489;
16.5000;0.6121;-0.2588;
16.8000;0.6129;-0.2637;
17.1000;0.6146;-0.2637;
17.4000;0.6154;-0.2588;
17.7000;0.6170;-0.2563;
18.0000;0.6186;-0.2588;
18.3000;0.6186;-0.2539;
18.6000;0.6211;-0.2440;
18.9000;0.6186;-0.2415;
19.2000;0.6211;-0.2366;
19.5000;0.6211;-0.2267;
19.8000;0.6227;-0.2292;
20.1000;0.6227;-0.2218;
20.4000;0.6170;-0.2415;
20.7000;0.6235;-0.2267;
21.0000;0.6252;-0.2120;
21.3000;0.6300;-0.2095;
21.6000;0.6276;-0.2292;
21.9000;0.6235;-0.2366;
22.2000;0.6252;-0.2366;
22.5000;0.6292;-0.2292;
22.8000;0.6203;-0.2563;
23.1000;0.6252;-0.2366;
23.4000;0.6268;-0.2391;
23.7000;0.6284;-0.2440;
24.0000;0.6268;-0.2588;
24.3000;0.6284;-0.2489;
24.6000;0.6300;-0.2440;
24.9000;0.6300;-0.2514;
25.2000;0.6309;-0.2539;
25.5000;0.6317;-0.2440;
25.8000;0.6300;-0.2539;
26.1000;0.6317;-0.2539;
26.4000;0.6357;-0.2514;
26.7000;0.6292;-0.2637;
27.0000;0.6349;-0.2489;
27.3000;0.6357;-0.2415;
27.6000;0.6349;-0.2514;
27.9000;0.6260;-0.2834;
28.2000;0.6341;-0.2613;
28.5000;0.6349;-0.2563;
28.8000;0.6471;-0.2317;
29.1000;0.6439;-0.2366;
29.4000;0.6365;-0.2514;
29.7000;0.6422;-0.2292;
30.0000;0.6422;-0.2243;
30.3000;0.6390;-0.2391;
30.6000;0.6398;-0.2440;
30.9000;0.6406;-0.2440;
31.2000;0.6422;-0.2366;
31.5000;0.6422;-0.2341;
31.8000;0.6406;-0.2440;
32.1000;0.6406;-0.2465;
32.4000;0.6390;-0.2465;
32.7000;0.6422;-0.2341;
33.0000;0.6406;-0.2341;
33.3000;0.6431;-0.2317;
33.6000;0.6439;-0.2317;
33.9000;0.6422;-0.2317;
34.2000;0.6479;-0.2317;
34.5000;0.6431;-0.2440;
34.8000;0.6455;-0.2440;
35.1000;0.6447;-0.2489;
35.4000;0.6455;-0.2440;
35.7000;0.6439;-0.2440;
36.0000;0.6447;-0.2366;
36.3000;0.6504;-0.2243;
36.6000;0.6447;-0.2391;
36.9000;0.6455;-0.2366;
37.2000;0.6479;-0.2415;
37.5000;0.6447;-0.2514;
37.8000;0.6471;-0.2440;
38.1000;0.6479;-0.2440;
38.4000;0.6479;-0.2539;
38.7000;0.6479;-0.2514;
39.0000;0.6488;-0.2440;
39.3000;0.6463;-0.2563;
39.6000;0.6463;-0.2539;
39.9000;0.6447;-0.2637;
40.2000;0.6512;-0.2465;
40.5000;0.6488;-0.2465;
40.8000;0.6488;-0.2489;
41.1000;0.6504;-0.2489;
41.4000;0.6504;-0.2514;
41.7000;0.6504;-0.2539;
42.0000;0.6528;-0.2489;
42.3000;0.6528;-0.2489;
42.6000;0.6504;-0.2514;
42.9000;0.6488;-0.2514;
43.2000;0.6488;-0.2539;
43.5000;0.6488;-0.2613;
43.8000;0.6536;-0.2465;
44.1000;0.6512;-0.2465;
44.4000;0.6488;-0.2637;
44.7000;0.6512;-0.2637;
45.0000;0.6512;-0.2613;
45.3000;0.6504;-0.2637;
45.6000;0.6520;-0.2563;
45.9000;0.6512;-0.2514;
46.2000;0.6504;-0.2563;
46.5000;0.6528;-0.2440;
46.8000;0.6504;-0.2465;
47.1000;0.6471;-0.2613;
47.4000;0.6520;-0.2489;
47.7000;0.6512;-0.2489;
48.0000;0.6512;-0.2514;
48.3000;0.6528;-0.2514;
48.6000;0.6512;-0.2588;
48.9000;0.6536;-0.2563;
49.2000;0.6545;-0.2613;
49.5000;0.6553;-0.2514;
49.8000;0.6545;-0.2514;
50.1000;0.6561;-0.2514;
50.4000;0.6528;-0.2662;
50.7000;0.6536;-0.2711;
51.0000;0.6545;-0.2736;
51.3000;0.6504;-0.2711;
51.6000;0.6561;-0.2539;
51.9000;0.6512;-0.2588;
52.2000;0.6512;-0.2588;
52.5000;0.6536;-0.2563;
52.8000;0.6602;-0.2440;
53.1000;0.6561;-0.2637;
53.4000;0.6577;-0.2686;
53.7000;0.6553;-0.2834;
54.0000;0.6585;-0.2859;
54.3000;0.6569;-0.2958;
54.6000;0.6577;-0.2908;
54.9000;0.6577;-0.2859;
55.2000;0.6545;-0.2908;
55.5000;0.6585;-0.2736;
55.8000;0.6577;-0.2736;
56.1000;0.6585;-0.2834;
56.4000;0.6545;-0.2834;
56.7000;0.6569;-0.2760;
57.0000;0.6585;-0.2736;
57.3000;0.6569;-0.2884;
57.6000;0.6593;-0.2785;
57.9000;0.6585;-0.2711;
58.2000;0.6593;-0.2686;
58.5000;0.6691;-0.2415;
58.8000;0.6585;-0.2662;
59.1000;0.6593;-0.2711;
59.4000;0.6569;-0.2810;
59.7000;0.6634;-0.2613;
60.0000;0.6602;-0.2686;
60.3000;0.6585;-0.2736;
60.6000;0.6602;-0.2810;
60.9000;0.6577;-0.2908;
61.2000;0.6593;-0.2884;
61.5000;0.6593;-0.2810;
61.8000;0.6602;-0.2834;
62.1000;0.6602;-0.2859;
62.4000;0.6577;-0.2884;
62.7000;0.6610;-0.2810;
63.0000;0.6618;-0.2834;
63.3000;0.6618;-0.2859;
63.6000;0.6626;-0.2933;
63.9000;0.6593;-0.3032;
64.2000;0.6618;-0.2958;
64.5000;0.6618;-0.2933;
64.8000;0.6642;-0.2785;
65.1000;0.6626;-0.2859;
65.4000;0.6626;-0.2884;
65.7000;0.6569;-0.3056;
66.0000;0.6626;-0.2859;
66.3000;0.6634;-0.2884;
66.6000;0.6626;-0.2958;
66.9000;0.6659;-0.2884;
67.2000;0.6659;-0.2982;
67.5000;0.6634;-0.3081;
67.8000;0.6610;-0.3081;
68.1000;0.6634;-0.3032;
68.4000;0.6634;-0.2958;
68.7000;0.6675;-0.2884;
69.0000;0.6659;-0.2884;
69.3000;0.6618;-0.2908;
69.6000;0.6634;-0.2810;
69.9000;0.6650;-0.2711;
70.2000;0.6642;-0.2760;
70.5000;0.6634;-0.2884;
70.8000;0.6659;-0.2884;
71.1000;0.6659;-0.2785;
71.4000;0.6659;-0.2736;
71.7000;0.6634;-0.2785;
72.0000;0.6650;-0.2760;
72.3000;0.6659;-0.2760;
72.6000;0.6659;-0.2834;
72.9000;0.6659;-0.2810;
73.2000;0.6667;-0.2736;
73.5000;0.6675;-0.2686;
73.8000;0.6650;-0.2760;
74.1000;0.6650;-0.2810;
74.4000;0.6667;-0.2859;
74.7000;0.6634;-0.2933;
75.0000;0.6593;-0.2933;
75.3000;0.6667;-0.2810;
75.6000;0.6667;-0.2859;
75.9000;0.6675;-0.2785;
76.2000;0.6667;-0.2884;
76.5000;0.6683;-0.2834;
76.8000;0.6675;-0.2933;
77.1000;0.6756;-0.2810;
77.4000;0.6691;-0.2908;
77.7000;0.6683;-0.2834;
78.0000;0.6667;-0.2859;
78.3000;0.6667;-0.2908;
78.6000;0.6667;-0.2958;
78.9000;0.6675;-0.3007;
79.2000;0.6707;-0.2958;
79.5000;0.6683;-0.2982;
79.8000;0.6683;-0.2933;
80.1000;0.6691;-0.2908;
80.4000;0.6691;-0.2933;
80.7000;0.6707;-0.2834;
81.0000;0.6683;-0.2859;
81.3000;0.6748;-0.2736;
81.6000;0.6691;-0.2982;
81.9000;0.6707;-0.2933;
82.2000;0.6716;-0.2958;
82.5000;0.6716;-0.3007;
82.8000;0.6699;-0.2958;
83.1000;0.6691;-0.2982;
83.4000;0.6699;-0.3032;
83.7000;0.6724;-0.2982;
84.0000;0.6691;-0.3032;
84.3000;0.6707;-0.3081;
84.6000;0.6707;-0.3032;
84.9000;0.6699;-0.3056;
85.2000;0.6699;-0.2982;
85.5000;0.6642;-0.3204;
85.8000;0.6724;-0.3056;
86.1000;0.6707;-0.3081;
86.4000;0.6724;-0.3081;
86.7000;0.6724;-0.3130;
87.0000;0.6748;-0.3056;
87.3000;0.6732;-0.3155;
87.6000;0.6748;-0.3130;
87.9000;0.6740;-0.3155;
88.2000;0.6732;-0.3155;
88.5000;0.6732;-0.3105;
88.8000;0.6724;-0.3130;
89.1000;0.6732;-0.3056;
89.4000;0.6724;-0.3056;
89.7000;0.6748;-0.2958;
90.0000;0.6789;-0.2859;
90.3000;0.6732;-0.2958;
90.6000;0.6707;-0.3130;
90.9000;0.6764;-0.3032;
91.2000;0.6732;-0.3081;
91.5000;0.6756;-0.3081;
91.8000;0.6748;-0.3204;
92.1000;0.6732;-0.3253;
92.4000;0.6740;-0.3130;
92.7000;0.6764;-0.3130;
93.0000;0.6748;-0.3105;
93.3000;0.6748;-0.3032;
93.6000;0.6756;-0.3081;
93.9000;0.6756;-0.3130;
94.2000;0.6748;-0.3081;
94.5000;0.6756;-0.3081;
94.8000;0.6748;-0.3056;
95.1000;0.6764;-0.3032;
95.4000;0.6789;-0.3081;
95.7000;0.6821;-0.3032;
96.0000;0.6748;-0.3155;
96.3000;0.6805;-0.3056;
96.6000;0.6781;-0.3081;
96.9000;0.6756;-0.3130;
97.2000;0.6756;-0.3229;
97.5000;0.6781;-0.3179;
97.8000;0.6789;-0.3327;
98.1000;0.6764;-0.3352;
98.4000;0.6740;-0.3352;
98.7000;0.6789;-0.3253;
99.0000;0.6813;-0.3278;
99.3000;0.6797;-0.3352;
99.6000;0.6781;-0.3451;
99.9000;0.6772;-0.3377;
100.2000;0.6805;-0.3229;
100.5000;0.6789;-0.3377;
100.8000;0.6789;-0.3475;
101.1000;0.6789;-0.3500;
101.4000;0.6789;-0.3401;
101.7000;0.6813;-0.3377;
102.0000;0.6805;-0.3401;
102.3000;0.6789;-0.3327;
102.6000;0.6805;-0.3253;
102.9000;0.6821;-0.3253;
103.2000;0.6805;-0.3278;
103.5000;0.6870;-0.3155;
103.8000;0.6805;-0.3303;
104.1000;0.6829;-0.3130;
104.4000;0.6805;-0.3155;
104.7000;0.6821;-0.3081;
105.0000;0.6789;-0.3179;
105.3000;0.6813;-0.3155;
105.6000;0.6805;-0.3204;
105.9000;0.6781;-0.3278;
106.2000;0.6805;-0.3155;
106.5000;0.6772;-0.3327;
106.8000;0.6813;-0.3204;
107.1000;0.6862;-0.3155;
107.4000;0.6821;-0.3278;
107.7000;0.6805;-0.3303;
108.0000;0.6821;-0.3081;
108.3000;0.6838;-0.3056;
108.6000;0.6821;-0.3056;
108.9000;0.6829;-0.3032;
109.2000;0.6829;-0.2982;
109.5000;0.6813;-0.3056;
109.8000;0.6821;-0.3032;
110.1000;0.6829;-0.2982;
110.4000;0.6829;-0.3007;
110.7000;0.6829;-0.3032;
111.0000;0.6821;-0.3007;
111.3000;0.6838;-0.3032;
111.6000;0.6838;-0.3081;
111.9000;0.6838;-0.3081;
112.2000;0.6838;-0.3155;
112.5000;0.6829;-0.3179;
112.8000;0.6829;-0.3204;
113.1000;0.6862;-0.3179;
113.4000;0.6838;-0.3327;
113.7000;0.6846;-0.3377;
114.0000;0.6805;-0.3451;
114.3000;0.6781;-0.3549;
114.6000;0.6829;-0.3377;
114.9000;0.6854;-0.3401;
115.2000;0.6813;-0.3426;
115.5000;0.6838;-0.3377;
115.8000;0.6854;-0.3426;
116.1000;0.6846;-0.3475;
116.4000;0.6829;-0.3475;
116.7000;0.6862;-0.3352;
117.0000;0.6829;-0.3377;
117.3000;0.6846;-0.3352;
117.6000;0.6854;-0.3303;
117.9000;0.6854;-0.3377;
118.2000;0.6854;-0.3475;
118.5000;0.6854;-0.3500;
118.8000;0.6854;-0.3475;
119.1000;0.6878;-0.3451;
119.4000;0.6862;-0.3426;
119.7000;0.6952;-0.3327;
120.0000;0.6911;-0.3377;
120.3000;0.6862;-0.3524;
120.6000;0.6878;-0.3524;
120.9000;0.6862;-0.3500;
121.2000;0.6968;-0.3253;
121.5000;0.6870;-0.3500;
121.8000;0.6886;-0.3352;
122.1000;0.6870;-0.3377;
122.4000;0.6878;-0.3352;
122.7000;0.6878;-0.3401;
123.0000;0.6870;-0.3303;
123.3000;0.6927;-0.3204;
123.6000;0.6878;-0.3352;
123.9000;0.6886;-0.3451;
124.2000;0.6895;-0.3303;
124.5000;0.6886;-0.3352;
124.8000;0.6878;-0.3401;
125.1000;0.6886;-0.3303;
125.4000;0.6878;-0.3303;
125.7000;0.6903;-0.3327;
126.0000;0.6878;-0.3327;
126.3000;0.6935;-0.3204;
126.6000;0.6862;-0.3426;
126.9000;0.6895;-0.3377;
127.2000;0.6903;-0.3500;
127.5000;0.6878;-0.3524;
127.8000;0.6862;-0.3549;
128.1000;0.6935;-0.3475;
128.4000;0.6903;-0.3574;
128.7000;0.6911;-0.3648;
129.0000;0.6903;-0.3648;
129.3000;0.6960;-0.3426;
129.6000;0.6911;-0.3549;
129.9000;0.6935;-0.3500;
130.2000;0.6870;-0.3648;
130.5000;0.6878;-0.3722;
130.8000;0.6903;-0.3672;
131.1000;0.6911;-0.3598;
131.4000;0.6895;-0.3672;
131.7000;0.6911;-0.3697;
132.0000;0.6919;-0.3697;
132.3000;0.6968;-0.3549;
132.6000;0.6911;-0.3746;
132.9000;0.6935;-0.3598;
133.2000;0.6919;-0.3623;
133.5000;0.7017;-0.3303;
133.8000;0.6911;-0.3623;
134.1000;0.6952;-0.3623;
134.4000;0.6911;-0.3672;
134.7000;0.6911;-0.3648;
135.0000;0.6870;-0.3771;
135.3000;0.6935;-0.3672;
135.6000;0.6911;-0.3697;
135.9000;0.6927;-0.3672;
136.2000;0.6911;-0.3746;
136.5000;0.6919;-0.3722;
136.8000;0.6919;-0.3623;
137.1000;0.6911;-0.3746;
137.4000;0.6935;-0.3697;
137.7000;0.7000;-0.3475;
138.0000;0.6838;-0.3820;
138.3000;0.6919;-0.3722;
138.6000;0.6968;-0.3574;
138.9000;0.6935;-0.3623;
139.2000;0.6919;-0.3672;
139.5000;0.6895;-0.3672;
139.8000;0.6903;-0.3697;
140.1000;0.6960;-0.3648;
140.4000;0.6911;-0.3820;
140.7000;0.6960;-0.3722;
141.0000;0.6903;-0.3894;
141.3000;0.6976;-0.3672;
141.6000;0.6911;-0.3845;
141.9000;0.6911;-0.3845;
142.2000;0.6935;-0.3796;
142.5000;0.6919;-0.3968;
142.8000;0.6919;-0.3968;
143.1000;0.6935;-0.3894;
143.4000;0.6919;-0.3894;
143.7000;0.6919;-0.3993;
144.0000;0.6927;-0.3993;
144.3000;0.6935;-0.3919;
144.6000;0.6935;-0.3845;
144.9000;0.6943;-0.3820;
145.2000;0.6943;-0.3722;
145.5000;0.6943;-0.3648;
145.8000;0.6984;-0.3549;
146.1000;0.6943;-0.3697;
146.4000;0.6935;-0.3648;
146.7000;0.6927;-0.3672;
147.0000;0.6927;-0.3648;
147.3000;0.6952;-0.3623;
147.6000;0.6992;-0.3500;
147.9000;0.6943;-0.3722;
148.2000;0.6943;-0.3746;
148.5000;0.6943;-0.3722;
148.8000;0.6968;-0.3672;
149.1000;0.6960;-0.3697;
149.4000;0.6919;-0.3746;
149.7000;0.6927;-0.3672;
150.0000;0.6943;-0.3697;
150.3000;0.6960;-0.3648;
150.6000;0.6952;-0.3672;
150.9000;0.6943;-0.3697;
151.2000;0.6952;-0.3722;
151.5000;0.6968;-0.3796;
151.8000;0.6960;-0.3820;
152.1000;0.6943;-0.3820;
152.4000;0.6968;-0.3771;
152.7000;0.6919;-0.3968;
153.0000;0.6952;-0.3845;
153.3000;0.6960;-0.3845;
153.6000;0.6960;-0.3943;
153.9000;0.6960;-0.3894;
154.2000;0.6919;-0.4017;
154.5000;0.6952;-0.3919;
154.8000;0.6960;-0.3919;
155.1000;0.6960;-0.3845;
155.4000;0.6976;-0.3820;
155.7000;0.6992;-0.3771;
156.0000;0.6976;-0.3894;
156.3000;0.6968;-0.3820;
156.6000;0.6968;-0.3820;
156.9000;0.7000;-0.3771;
157.2000;0.6952;-0.4017;
157.5000;0.6952;-0.4017;
157.8000;0.6968;-0.3894;
158.1000;0.6886;-0.4190;
158.4000;0.6943;-0.3968;
158.7000;0.6952;-0.4042;
159.0000;0.6976;-0.4042;
159.3000;0.6960;-0.4141;
159.6000;0.6960;-0.4141;
159.9000;0.6992;-0.3993;
160.2000;0.6968;-0.4067;
160.5000;0.6984;-0.4017;
160.8000;0.7033;-0.3919;
161.1000;0.6968;-0.4116;
161.4000;0.6976;-0.3993;
161.7000;0.6960;-0.4067;
162.0000;0.6992;-0.3943;
162.3000;0.6919;-0.4042;
162.6000;0.6960;-0.3943;
162.9000;0.6952;-0.3919;
163.2000;0.6960;-0.3869;
163.5000;0.6968;-0.3869;
163.8000;0.6943;-0.3845;
164.1000;0.6976;-0.3771;
164.4000;0.6976;-0.3796;
164.7000;0.6943;-0.3869;
165.0000;0.6976;-0.3845;
165.3000;0.6976;-0.3820;
165.6000;0.6968;-0.3796;
165.9000;0.6976;-0.3796;
166.2000;0.6976;-0.3820;
166.5000;0.6968;-0.3919;
166.8000;0.6992;-0.3894;
167.1000;0.6943;-0.3943;
167.4000;0.6952;-0.3869;
167.7000;0.6960;-0.3869;
168.0000;0.6976;-0.3845;
168.3000;0.6976;-0.3820;
168.6000;0.6960;-0.3820;
168.9000;0.6992;-0.3845;
169.2000;0.6984;-0.3796;
169.5000;0.6968;-0.3697;
169.8000;0.6968;-0.3697;
170.1000;0.6984;-0.3672;
170.4000;0.6984;-0.3722;
170.7000;0.7000;-0.3697;
171.0000;0.6984;-0.3746;
171.3000;0.6960;-0.3820;
171.6000;0.6976;-0.3771;
171.9000;0.6984;-0.3722;
172.2000;0.6976;-0.3820;
172.5000;0.6927;-0.3943;
172.8000;0.6976;-0.3820;
173.1000;0.6976;-0.3771;
173.4000;0.6976;-0.3845;
173.7000;0.7017;-0.3648;
174.0000;0.6976;-0.3796;
174.3000;0.6984;-0.3869;
174.6000;0.6992;-0.3869;
174.9000;0.6976;-0.3869;
175.2000;0.6984;-0.3845;
175.5000;0.6984;-0.3771;
175.8000;0.6984;-0.3820;
176.1000;0.6992;-0.3820;
176.4000;0.6976;-0.3746;
176.7000;0.6960;-0.3820;
177.0000;0.6976;-0.3869;
177.3000;0.6976;-0.3845;
177.6000;0.6984;-0.3894;
177.9000;0.6927;-0.3968;
178.2000;0.6984;-0.3894;
178.5000;0.6976;-0.3845;
178.8000;0.7000;-0.3722;
179.1000;0.6984;-0.3796;
179.4000;0.6984;-0.3894;
179.7000;0.6960;-0.3968;
180.0000;0.6960;-0.3919;
180.3000;0.7025;-0.3845;
180.6000;0.7017;-0.3894;
180.9000;0.7066;-0.3746;
181.2000;0.7049;-0.3697;
181.5000;0.6984;-0.3820;
181.8000;0.7000;-0.3869;
182.1000;0.6976;-0.3968;
182.4000;0.6976;-0.3919;
182.7000;0.6976;-0.3894;
183.0000;0.6992;-0.3820;
183.3000;0.6984;-0.3820;
183.6000;0.6992;-0.3845;
183.9000;0.6952;-0.3968;
184.2000;0.6968;-0.3919;
184.5000;0.6992;-0.3968;
184.8000;0.7000;-0.3968;
185.1000;0.7000;-0.4042;
185.4000;0.6992;-0.3968;
185.7000;0.7000;-0.3894;
186.0000;0.7009;-0.3894;
186.3000;0.6992;-0.3993;
186.6000;0.7017;-0.3993;
186.9000;0.7000;-0.4042;
187.2000;0.6992;-0.4017;
187.5000;0.7000;-0.3968;
187.8000;0.6968;-0.3993;
188.1000;0.6984;-0.3943;
188.4000;0.6992;-0.3919;
188.7000;0.7017;-0.3820;
189.0000;0.6984;-0.3993;
189.3000;0.6976;-0.4017;
189.6000;0.6992;-0.3943;
189.9000;0.6992;-0.3993;
190.2000;0.7057;-0.3894;
190.5000;0.6992;-0.3968;
190.8000;0.6992;-0.3894;
191.1000;0.7000;-0.3796;
191.4000;0.6992;-0.3845;
191.7000;0.6984;-0.3869;
192.0000;0.6952;-0.3993;
192.3000;0.7000;-0.3820;
192.6000;0.7009;-0.3869;
192.9000;0.6976;-0.3919;
193.2000;0.6984;-0.3820;
193.5000;0.7009;-0.3771;
193.8000;0.6976;-0.3820;
194.1000;0.6952;-0.3943;
194.4000;0.6976;-0.3993;
194.7000;0.7009;-0.4042;
195.0000;0.6984;-0.4042;
195.3000;0.6984;-0.4042;
195.6000;0.6984;-0.4067;
195.9000;0.6968;-0.4042;
196.2000;0.7009;-0.3968;
196.5000;0.7098;-0.3796;
196.8000;0.6984;-0.3943;
197.1000;0.7000;-0.3820;
197.4000;0.6976;-0.3869;
197.7000;0.7000;-0.3894;
198.0000;0.7000;-0.3869;
198.3000;0.7000;-0.3869;
198.6000;0.7017;-0.3869;
198.9000;0.6992;-0.4017;
199.2000;0.6984;-0.4042;
199.5000;0.6984;-0.4091;
199.8000;0.6992;-0.4042;
200.1000;0.6984;-0.4042;
200.4000;0.6976;-0.4042;
200.7000;0.6992;-0.3968;
201.0000;0.7009;-0.3894;
201.3000;0.7000;-0.3894;
201.6000;0.6992;-0.3943;
201.9000;0.6943;-0.4017;
202.2000;0.6984;-0.3919;
202.5000;0.6992;-0.3869;
202.8000;0.6984;-0.3869;
203.1000;0.7000;-0.3845;
203.4000;0.7009;-0.3820;
203.7000;0.6976;-0.3845;
204.0000;0.6952;-0.3919;
204.3000;0.7025;-0.3771;
204.6000;0.6992;-0.3894;
204.9000;0.7041;-0.3796;
205.2000;0.7009;-0.3894;
205.5000;0.7009;-0.3943;
205.8000;0.7017;-0.3894;
206.1000;0.6976;-0.3943;
206.4000;0.7000;-0.3869;
206.7000;0.6984;-0.3796;
207.0000;0.6984;-0.3869;
207.3000;0.7009;-0.3894;
207.6000;0.7009;-0.3869;
207.9000;0.7049;-0.3722;
208.2000;0.6992;-0.3894;
208.5000;0.7000;-0.3820;
208.8000;0.6992;-0.3746;
209.1000;0.6968;-0.3820;
209.4000;0.6992;-0.3869;
209.7000;0.7009;-0.3672;
210.0000;0.7017;-0.3500;
210.3000;0.7025;-0.3500;
210.6000;0.7009;-0.3672;
210.9000;0.6992;-0.3771;
211.2000;0.7009;-0.3746;
211.5000;0.6943;-0.3919;
211.8000;0.6984;-0.3796;
212.1000;0.6976;-0.3746;
212.4000;0.6952;-0.3796;
212.7000;0.7000;-0.3598;
213.0000;0.6984;-0.3648;
213.3000;0.6992;-0.3697;
213.6000;0.7000;-0.3697;
213.9000;0.6992;-0.3722;
214.2000;0.7000;-0.3771;
214.5000;0.6984;-0.3771;
214.8000;0.7000;-0.3672;
215.1000;0.7009;-0.3672;
215.4000;0.7033;-0.3598;
215.7000;0.7009;-0.3623;
216.0000;0.7017;-0.3672;
216.3000;0.6992;-0.3697;
216.6000;0.7000;-0.3672;
216.9000;0.6992;-0.3746;
217.2000;0.6992;-0.3746;
217.5000;0.7000;-0.3796;
217.8000;0.7000;-0.3820;
218.1000;0.6984;-0.3820;
218.4000;0.6968;-0.3869;
218.7000;0.7017;-0.3722;
219.0000;0.7000;-0.3746;
219.3000;0.6992;-0.3820;
219.6000;0.6992;-0.3771;
219.9000;0.6992;-0.3796;
220.2000;0.6976;-0.3919;
220.5000;0.7000;-0.3894;
220.8000;0.6992;-0.3919;
221.1000;0.6984;-0.3968;
221.4000;0.7009;-0.3968;
221.7000;0.7009;-0.3919;
222.0000;0.6992;-0.3894;
222.3000;0.6968;-0.3820;
222.6000;0.6960;-0.3845;
222.9000;0.6895;-0.4017;
223.2000;0.6976;-0.3746;
223.5000;0.6927;-0.3845;
223.8000;0.6992;-0.3771;
224.1000;0.7025;-0.3796;
224.4000;0.6984;-0.3845;
224.7000;0.7000;-0.3722;
225.0000;0.6952;-0.3845;
225.3000;0.7000;-0.3672;
225.6000;0.7009;-0.3697;
225.9000;0.6927;-0.3993;
226.2000;0.6952;-0.3845;
226.5000;0.6968;-0.3796;
226.8000;0.6968;-0.3845;
227.1000;0.7017;-0.3796;
227.4000;0.6984;-0.3919;
227.7000;0.6895;-0.4116;
228.0000;0.7000;-0.3820;
228.3000;0.7009;-0.3820;
228.6000;0.6984;-0.3869;
228.9000;0.7000;-0.3845;
229.2000;0.6976;-0.3919;
229.5000;0.6992;-0.3722;
229.8000;0.6968;-0.3672;
230.1000;0.6976;-0.3598;
230.4000;0.6992;-0.3574;
230.7000;0.6968;-0.3574;
231.0000;0.6984;-0.3524;
231.3000;0.6976;-0.3574;
231.6000;0.6992;-0.3574;
231.9000;0.6984;-0.3598;
232.2000;0.6968;-0.3672;
232.5000;0.6976;-0.3648;
232.8000;0.7017;-0.3574;
233.1000;0.6968;-0.3771;
233.4000;0.6992;-0.3771;
233.7000;0.6935;-0.3943;
234.0000;0.6984;-0.3845;
234.3000;0.6984;-0.3845;
234.6000;0.6984;-0.3869;
234.9000;0.6927;-0.4067;
235.2000;0.7025;-0.3796;
235.5000;0.7000;-0.3796;
235.8000;0.6992;-0.3771;
236.1000;0.6976;-0.3771;
236.4000;0.6984;-0.3845;
236.7000;0.6968;-0.3722;
237.0000;0.6976;-0.3697;
237.3000;0.7009;-0.3648;
237.6000;0.6976;-0.3722;
237.9000;0.6984;-0.3746;
238.2000;0.6984;-0.3746;
238.5000;0.6968;-0.3672;
238.8000;0.7000;-0.3598;
239.1000;0.7017;-0.3574;
239.4000;0.7009;-0.3574;
239.7000;0.7000;-0.3623;
240.0000;0.7000;-0.3549;
240.3000;0.7009;-0.3549;
240.6000;0.6984;-0.3598;
240.9000;0.6992;-0.3549;
241.2000;0.6976;-0.3574;
241.5000;0.7033;-0.3426;
241.8000;0.6976;-0.3500;
242.1000;0.6976;-0.3549;
242.4000;0.6984;-0.3623;
242.7000;0.6984;-0.3648;
243.0000;0.6968;-0.3598;
243.3000;0.6968;-0.3574;
243.6000;0.6984;-0.3500;
243.9000;0.6984;-0.3648;
244.2000;0.6968;-0.3672;
244.5000;0.6968;-0.3697;
244.8000;0.6960;-0.3697;
245.1000;0.6960;-0.3623;
245.4000;0.6984;-0.3598;
245.7000;0.7017;-0.3500;
246.0000;0.6984;-0.3549;
246.3000;0.6984;-0.3574;
246.6000;0.6976;-0.3598;
246.9000;0.6984;-0.3574;
247.2000;0.6992;-0.3697;
247.5000;0.6968;-0.3672;
247.8000;0.6976;-0.3672;
248.1000;0.6992;-0.3697;
248.4000;0.6984;-0.3697;
248.7000;0.6992;-0.3722;
249.0000;0.6968;-0.3746;
249.3000;0.6976;-0.3722;
249.6000;0.6984;-0.3623;
249.9000;0.6984;-0.3697;
250.2000;0.6992;-0.3623;
250.5000;0.6976;-0.3574;
250.8000;0.6960;-0.3623;
251.1000;0.6992;-0.3549;
251.4000;0.7009;-0.3500;
251.7000;0.6968;-0.3574;
252.0000;0.7009;-0.3401;
252.3000;0.6992;-0.3524;
252.6000;0.6968;-0.3574;
252.9000;0.7017;-0.3500;
253.2000;0.6976;-0.3598;
253.5000;0.6984;-0.3598;
253.8000;0.6992;-0.3623;
254.1000;0.6992;-0.3648;
254.4000;0.6976;-0.3648;
254.7000;0.6943;-0.3574;
255.0000;0.6976;-0.3549;
255.3000;0.6968;-0.3598;
255.6000;0.6927;-0.3672;
255.9000;0.6984;-0.3549;
256.2000;0.6952;-0.3648;
256.5000;0.6952;-0.3574;
256.8000;0.6976;-0.3574;
257.1000;0.6952;-0.3549;
257.4000;0.6968;-0.3549;
257.7000;0.6960;-0.3623;
258.0000;0.6960;-0.3623;
258.3000;0.6919;-0.3796;
258.6000;0.6943;-0.3796;
258.9000;0.6968;-0.3648;
259.2000;0.6976;-0.3672;
259.5000;0.6960;-0.3771;
259.8000;0.6968;-0.3697;
260.1000;0.7009;-0.3549;
260.4000;0.6960;-0.3648;
260.7000;0.6960;-0.3574;
261.0000;0.6935;-0.3549;
261.3000;0.6968;-0.3475;
261.6000;0.6968;-0.3500;
261.9000;0.6927;-0.3549;
262.2000;0.6992;-0.3401;
262.5000;0.6976;-0.3574;
262.8000;0.6968;-0.3648;
263.1000;0.6968;-0.3746;
263.4000;0.6960;-0.3722;
263.7000;0.6976;-0.3672;
264.0000;0.6960;-0.3623;
264.3000;0.6984;-0.3549;
264.6000;0.6968;-0.3623;
264.9000;0.6968;-0.3623;
265.2000;0.6911;-0.3672;
265.5000;0.6976;-0.3574;
265.8000;0.6976;-0.3598;
266.1000;0.6992;-0.3500;
266.4000;0.6968;-0.3598;
266.7000;0.6968;-0.3623;
267.0000;0.6976;-0.3549;
267.3000;0.7009;-0.3475;
267.6000;0.7033;-0.3500;
267.9000;0.6952;-0.3672;
268.2000;0.7017;-0.3451;
268.5000;0.7049;-0.3377;
268.8000;0.6943;-0.3648;
269.1000;0.6903;-0.3722;
269.4000;0.6976;-0.3524;
269.7000;0.6960;-0.3598;
270.0000;0.6976;-0.3623;
270.3000;0.6943;-0.3746;
270.6000;0.6952;-0.3746;
270.9000;0.6903;-0.3796;
271.2000;0.7009;-0.3574;
271.5000;0.6968;-0.3796;
271.8000;0.6960;-0.3722;
272.1000;0.6984;-0.3598;
272.4000;0.6968;-0.3648;
272.7000;0.7017;-0.3648;
273.0000;0.6952;-0.3771;
273.3000;0.6968;-0.3722;
273.6000;0.6968;-0.3598;
273.9000;0.6968;-0.3574;
274.2000;0.6960;-0.3623;
274.5000;0.6968;-0.3598;
274.8000;0.6976;-0.3549;
275.1000;0.6976;-0.3549;
275.4000;0.6984;-0.3377;
275.7000;0.6976;-0.3451;
276.0000;0.6960;-0.3451;
276.3000;0.6976;-0.3352;
276.6000;0.6976;-0.3401;
276.9000;0.6952;-0.3401;
277.2000;0.6992;-0.3303;
277.5000;0.6976;-0.3377;
277.8000;0.7025;-0.3426;
278.1000;0.6960;-0.3623;
278.4000;0.6943;-0.3648;
278.7000;0.6943;-0.3623;
279.0000;0.6968;-0.3524;
279.3000;0.6960;-0.3574;
279.6000;0.6943;-0.3574;
279.9000;0.6919;-0.3524;
280.2000;0.6976;-0.3451;
280.5000;0.6960;-0.3426;
280.8000;0.6935;-0.3500;
281.1000;0.6960;-0.3524;
281.4000;0.6960;-0.3524;
281.7000;0.6960;-0.3623;
282.0000;0.6943;-0.3623;
282.3000;0.6992;-0.3549;
282.6000;0.6968;-0.3549;
282.9000;0.6943;-0.3500;
283.2000;0.6960;-0.3475;
283.5000;0.6943;-0.3524;
283.8000;0.6984;-0.3451;
284.1000;0.7041;-0.3303;
284.4000;0.6960;-0.3524;
284.7000;0.6943;-0.3598;
285.0000;0.6952;-0.3475;
285.3000;0.6952;-0.3598;
285.6000;0.6952;-0.3598;
285.9000;0.6960;-0.3574;
286.2000;0.6943;-0.3672;
286.5000;0.6952;-0.3623;
286.8000;0.6960;-0.3648;
287.1000;0.6943;-0.3648;
287.4000;0.6943;-0.3549;
287.7000;0.6943;-0.3524;
288.0000;0.6960;-0.3475;
288.3000;0.6960;-0.3426;
288.6000;0.6952;-0.3426;
288.9000;0.6943;-0.3451;
289.2000;0.6960;-0.3451;
289.5000;0.6919;-0.3574;
289.8000;0.6911;-0.3697;
290.1000;0.6960;-0.3672;
290.4000;0.6984;-0.3574;
290.7000;0.6903;-0.3746;
291.0000;0.6960;-0.3672;
291.3000;0.6960;-0.3648;
291.6000;0.7000;-0.3549;
291.9000;0.6952;-0.3672;
292.2000;0.6943;-0.3598;
292.5000;0.6895;-0.3549;
292.8000;0.6943;-0.3451;
293.1000;0.6935;-0.3598;
293.4000;0.6952;-0.3574;
293.7000;0.6943;-0.3623;
294.0000;0.6943;-0.3598;
294.3000;0.6960;-0.3500;
294.6000;0.6976;-0.3524;
294.9000;0.6976;-0.3549;
295.2000;0.6943;-0.3623;
295.5000;0.6952;-0.3574;
295.8000;0.6886;-0.3722;
296.1000;0.6952;-0.3574;
296.4000;0.6935;-0.3574;
296.7000;0.6992;-0.3475;
297.0000;0.6935;-0.3574;
297.3000;0.6976;-0.3451;
297.6000;0.6935;-0.3500;
297.9000;0.6952;-0.3426;
298.2000;0.6952;-0.3475;
298.5000;0.6927;-0.3574;
298.8000;0.6935;-0.3524;
299.1000;0.6927;-0.3574;
299.4000;0.6943;-0.3500;
299.7000;0.6927;-0.3524;
300.0000;0.6903;-0.3598;
300.3000;0.6943;-0.3451;
300.6000;0.6919;-0.3598;
300.9000;0.6935;-0.3623;
301.2000;0.6943;-0.3623;
301.5000;0.6935;-0.3623;
301.8000;0.6960;-0.3524;
302.1000;0.6935;-0.3524;
302.4000;0.6927;-0.3549;
302.7000;0.6943;-0.3500;
303.0000;0.6952;-0.3549;
303.3000;0.6943;-0.3549;
303.6000;0.6935;-0.3598;
303.9000;0.6927;-0.3648;
304.2000;0.6927;-0.3623;
304.5000;0.6943;-0.3574;
304.8000;0.6943;-0.3549;
305.1000;0.6943;-0.3549;
305.4000;0.6943;-0.3598;
305.7000;0.6960;-0.3574;
306.0000;0.6935;-0.3623;
306.3000;0.6927;-0.3697;
306.6000;0.6935;-0.3672;
306.9000;0.6952;-0.3623;
307.2000;0.6960;-0.3648;
307.5000;0.6935;-0.3746;
307.8000;0.6943;-0.3820;
308.1000;0.6952;-0.3771;
308.4000;0.6960;-0.3746;
308.7000;0.6935;-0.3722;
309.0000;0.7025;-0.3475;
309.3000;0.6935;-0.3771;
309.6000;0.6935;-0.3648;
309.9000;0.6927;-0.3648;
310.2000;0.6911;-0.3722;
310.5000;0.6903;-0.3672;
310.8000;0.6927;-0.3574;
311.1000;0.6935;-0.3648;
311.4000;0.6935;-0.3648;
311.7000;0.6927;-0.3697;
312.0000;0.6927;-0.3648;
312.3000;0.6935;-0.3722;
312.6000;0.6927;-0.3722;
312.9000;0.6927;-0.3771;
313.2000;0.6943;-0.3722;
313.5000;0.6935;-0.3771;
313.8000;0.6919;-0.3771;
314.1000;0.6919;-0.3746;
314.4000;0.6952;-0.3697;
314.7000;0.6927;-0.3820;
315.0000;0.6935;-0.3746;
315.3000;0.6927;-0.3672;
315.6000;0.6968;-0.3574;
315.9000;0.6943;-0.3549;
316.2000;0.6943;-0.3500;
316.5000;0.6895;-0.3598;
316.8000;0.6911;-0.3648;
317.1000;0.6952;-0.3648;
317.4000;0.6952;-0.3672;
317.7000;0.6846;-0.3869;
318.0000;0.6919;-0.3697;
318.3000;0.6911;-0.3648;
318.6000;0.6935;-0.3623;
318.9000;0.6960;-0.3623;
319.2000;0.6911;-0.3746;
319.5000;0.6935;-0.3722;
319.8000;0.6927;-0.3648;
320.1000;0.6919;-0.3746;
320.4000;0.6927;-0.3697;
320.7000;0.6927;-0.3722;
321.0000;0.6943;-0.3574;
321.3000;0.6943;-0.3672;
321.6000;0.6935;-0.3623;
321.9000;0.6927;-0.3648;
322.2000;0.6919;-0.3574;
322.5000;0.6870;-0.3672;
322.8000;0.6927;-0.3623;
323.1000;0.6919;-0.3524;
323.4000;0.6960;-0.3426;
323.7000;0.6927;-0.3623;
324.0000;0.6919;-0.3672;
324.3000;0.6935;-0.3598;
324.6000;0.6943;-0.3500;
324.9000;0.6886;-0.3598;
325.2000;0.6911;-0.3549;
325.5000;0.6911;-0.3524;
325.8000;0.6911;-0.3549;
326.1000;0.6943;-0.3500;
326.4000;0.6919;-0.3598;
326.7000;0.6911;-0.3623;
327.0000;0.6919;-0.3623;
327.3000;0.6927;-0.3672;
327.6000;0.6943;-0.3648;
327.9000;0.6878;-0.3722;
328.2000;0.6927;-0.3623;
328.5000;0.6943;-0.3549;
328.8000;0.6927;-0.3623;
329.1000;0.7009;-0.3377;
329.4000;0.6927;-0.3648;
329.7000;0.6919;-0.3648;
330.0000;0.6927;-0.3672;
330.3000;0.7000;-0.3426;
330.6000;0.6919;-0.3574;
330.9000;0.6984;-0.3401;
331.2000;0.6911;-0.3648;
331.5000;0.6911;-0.3648;
331.8000;0.6927;-0.3549;
332.1000;0.6919;-0.3500;
332.4000;0.6878;-0.3549;
332.7000;0.6911;-0.3524;
333.0000;0.6895;-0.3500;
333.3000;0.6911;-0.3524;
333.6000;0.6927;-0.3451;
333.9000;0.6911;-0.3524;
334.2000;0.6919;-0.3574;
334.5000;0.6911;-0.3574;
334.8000;0.6911;-0.3524;
335.1000;0.6911;-0.3549;
335.4000;0.6911;-0.3451;
335.7000;0.6919;-0.3549;
336.0000;0.6911;-0.3574;
336.3000;0.6927;-0.3524;
336.6000;0.6895;-0.3598;
336.9000;0.6919;-0.3524;
337.2000;0.6919;-0.3524;
337.5000;0.6927;-0.3426;
337.8000;0.6935;-0.3352;
338.1000;0.6911;-0.3475;
338.4000;0.6919;-0.3475;
338.7000;0.6927;-0.3451;
339.0000;0.6919;-0.3475;
339.3000;0.6927;-0.3475;
339.6000;0.6911;-0.3648;
339.9000;0.6911;-0.3697;
340.2000;0.6813;-0.3894;
340.5000;0.6935;-0.3549;
340.8000;0.6895;-0.3623;
341.1000;0.6903;-0.3574;
341.4000;0.6886;-0.3598;
341.7000;0.6911;-0.3672;
342.0000;0.6911;-0.3623;
342.3000;0.6895;-0.3623;
342.6000;0.6927;-0.3500;
342.9000;0.6911;-0.3524;
343.2000;0.6911;-0.3500;
343.5000;0.6960;-0.3377;
343.8000;0.6935;-0.3500;
344.1000;0.6895;-0.3574;
344.4000;0.6846;-0.3820;
344.7000;0.6895;-0.3672;
345.0000;0.6935;-0.3549;
345.3000;0.6911;-0.3648;
345.6000;0.6862;-0.3672;
345.9000;0.6895;-0.3648;
346.2000;0.6960;-0.3352;
346.5000;0.6919;-0.3451;
346.8000;0.6919;-0.3524;
347.1000;0.6903;-0.3574;
347.4000;0.6895;-0.3672;
347.7000;0.6895;-0.3672;
348.0000;0.6911;-0.3598;
348.3000;0.6911;-0.3475;
348.6000;0.6968;-0.3278;
348.9000;0.6903;-0.3352;
349.2000;0.6919;-0.3278;
349.5000;0.6919;-0.3352;
349.8000;0.6870;-0.3475;
350.1000;0.6903;-0.3377;
350.4000;0.6952;-0.3229;
350.7000;0.6911;-0.3352;
351.0000;0.6878;-0.3500;
351.3000;0.6895;-0.3475;
351.6000;0.6984;-0.3327;
351.9000;0.6870;-0.3648;
352.2000;0.6895;-0.3574;
352.5000;0.6903;-0.3500;
352.8000;0.6911;-0.3475;
353.1000;0.6829;-0.3771;
353.4000;0.6911;-0.3524;
353.7000;0.6919;-0.3549;
354.0000;0.6886;-0.3574;
354.3000;0.6903;-0.3475;
354.6000;0.6895;-0.3598;
354.9000;0.6821;-0.3722;
355.2000;0.6895;-0.3475;
355.5000;0.6903;-0.3549;
355.8000;0.6903;-0.3549;
356.1000;0.6903;-0.3598;
356.4000;0.6895;-0.3623;
356.7000;0.6903;-0.3746;
357.0000;0.6895;-0.3697;
357.3000;0.6895;-0.3623;
357.6000;0.6878;-0.3623;
357.9000;0.6903;-0.3574;
358.2000;0.6903;-0.3549;
358.5000;0.6895;-0.3475;
358.8000;0.6895;-0.3475;
359.1000;0.6895;-0.3426;
359.4000;0.6919;-0.3352;
359.7000;0.6895;-0.3475;
360.0000;0.6903;-0.3401;
360.3000;0.6903;-0.3524;
360.6000;0.6943;-0.3475;
360.9000;0.6895;-0.3598;
361.2000;0.6886;-0.3549;
361.5000;0.6895;-0.3475;
361.8000;0.6927;-0.3401;
362.1000;0.6854;-0.3623;
362.4000;0.6903;-0.3475;
362.7000;0.6903;-0.3451;
363.0000;0.6927;-0.3451;
363.3000;0.6911;-0.3549;
363.6000;0.6903;-0.3598;
363.9000;0.6878;-0.3672;
364.2000;0.6878;-0.3672;
364.5000;0.6911;-0.3524;
364.8000;0.6878;-0.3623;
365.1000;0.6846;-0.3672;
365.4000;0.6927;-0.3475;
365.7000;0.6846;-0.3623;
366.0000;0.6903;-0.3475;
366.3000;0.6870;-0.3623;
366.6000;0.6943;-0.3500;
366.9000;0.6854;-0.3672;
367.2000;0.6895;-0.3549;
367.5000;0.6862;-0.3672;
367.8000;0.7000;-0.3179;
368.1000;0.6919;-0.3253;
368.4000;0.6919;-0.3303;
368.7000;0.6903;-0.3352;
369.0000;0.6935;-0.3352;
369.3000;0.6886;-0.3401;
369.6000;0.6895;-0.3426;
369.9000;0.6878;-0.3377;
370.2000;0.6870;-0.3303;
370.5000;0.6886;-0.3204;
370.8000;0.6903;-0.3229;
371.1000;0.6895;-0.3303;
371.4000;0.6878;-0.3377;
371.7000;0.6870;-0.3401;
372.0000;0.6903;-0.3352;
372.3000;0.6895;-0.3352;
372.6000;0.6895;-0.3401;
372.9000;0.6878;-0.3500;
373.2000;0.6903;-0.3401;
373.5000;0.6895;-0.3451;
373.8000;0.6886;-0.3451;
374.1000;0.6911;-0.3426;
374.4000;0.6903;-0.3475;
374.7000;0.6870;-0.3500;
375.0000;0.6927;-0.3352;
375.3000;0.6903;-0.3352;
375.6000;0.6992;-0.3105;
375.9000;0.6935;-0.3327;
376.2000;0.6878;-0.3549;
376.5000;0.6878;-0.3524;
376.8000;0.6903;-0.3451;
377.1000;0.6886;-0.3401;
377.4000;0.6903;-0.3327;
377.7000;0.6895;-0.3327;
378.0000;0.6846;-0.3352;
378.3000;0.6886;-0.3253;
378.6000;0.6895;-0.3204;
378.9000;0.6895;-0.3229;
379.2000;0.6903;-0.3278;
379.5000;0.6878;-0.3352;
379.8000;0.6903;-0.3229;
380.1000;0.6886;-0.3278;
380.4000;0.6886;-0.3303;
380.7000;0.6878;-0.3303;
381.0000;0.6886;-0.3352;
381.3000;0.6854;-0.3426;
381.6000;0.6903;-0.3377;
381.9000;0.6878;-0.3377;
382.2000;0.6878;-0.3327;
382.5000;0.6870;-0.3327;
382.8000;0.6878;-0.3303;
383.1000;0.6886;-0.3303;
383.4000;0.6862;-0.3426;
383.7000;0.6886;-0.3500;
384.0000;0.6878;-0.3549;
384.3000;0.6862;-0.3574;
384.6000;0.6878;-0.3475;
384.9000;0.6878;-0.3451;
385.2000;0.6903;-0.3401;
385.5000;0.6886;-0.3352;
385.8000;0.6903;-0.3204;
386.1000;0.6903;-0.3278;
386.4000;0.6886;-0.3204;
386.7000;0.6854;-0.3327;
387.0000;0.6895;-0.3401;
387.3000;0.6854;-0.3426;
387.6000;0.6943;-0.3155;
387.9000;0.6886;-0.3352;
388.2000;0.6870;-0.3451;
388.5000;0.6846;-0.3401;
388.8000;0.6903;-0.3253;
389.1000;0.6895;-0.3278;
389.4000;0.6789;-0.3672;
389.7000;0.6903;-0.3377;
390.0000;0.6895;-0.3352;
390.3000;0.6886;-0.3327;
390.6000;0.6943;-0.3204;
390.9000;0.6886;-0.3352;
391.2000;0.6935;-0.3352;
391.5000;0.6927;-0.3401;
391.8000;0.6838;-0.3500;
392.1000;0.6886;-0.3303;
392.4000;0.6854;-0.3327;
392.7000;0.6886;-0.3278;
393.0000;0.6895;-0.3401;
393.3000;0.6870;-0.3352;
393.6000;0.6878;-0.3352;
393.9000;0.6919;-0.3253;
394.2000;0.6862;-0.3549;
394.5000;0.6886;-0.3500;
394.8000;0.6797;-0.3648;
395.1000;0.6895;-0.3401;
395.4000;0.6878;-0.3352;
395.7000;0.6838;-0.3451;
396.0000;0.6878;-0.3401;
396.3000;0.6886;-0.3303;
396.6000;0.6886;-0.3352;
396.9000;0.6862;-0.3451;
397.2000;0.6870;-0.3426;
397.5000;0.6870;-0.3352;
397.8000;0.6878;-0.3327;
398.1000;0.6870;-0.3426;
398.4000;0.6854;-0.3451;
398.7000;0.6854;-0.3401;
399.0000;0.6878;-0.3451;
399.3000;0.6862;-0.3451;
399.6000;0.6878;-0.3377;
399.9000;0.6862;-0.3401;
400.2000;0.6862;-0.3327;
400.5000;0.6895;-0.3253;
400.8000;0.6846;-0.3303;
401.1000;0.6854;-0.3303;
401.4000;0.6870;-0.3327;
401.7000;0.6886;-0.3352;
402.0000;0.6870;-0.3327;
402.3000;0.6878;-0.3327;
402.6000;0.6870;-0.3303;
402.9000;0.6886;-0.3229;
403.2000;0.6935;-0.3081;
403.5000;0.6870;-0.3253;
403.8000;0.6878;-0.3278;
404.1000;0.6878;-0.3377;
404.4000;0.6886;-0.3377;
404.7000;0.6895;-0.3253;
405.0000;0.6862;-0.3253;
405.3000;0.6886;-0.3179;
405.6000;0.6878;-0.3179;
405.9000;0.6878;-0.3278;
406.2000;0.6854;-0.3303;
406.5000;0.6862;-0.3278;
406.8000;0.6862;-0.3253;
407.1000;0.6878;-0.3155;
407.4000;0.6886;-0.3130;
407.7000;0.6781;-0.3327;
408.0000;0.6878;-0.3155;
408.3000;0.6862;-0.3253;
408.6000;0.6903;-0.3105;
408.9000;0.6878;-0.3155;
409.2000;0.6886;-0.3155;
409.5000;0.6870;-0.3253;
409.8000;0.6862;-0.3229;
410.1000;0.6821;-0.3303;
410.4000;0.6895;-0.3056;
410.7000;0.6846;-0.3130;
411.0000;0.6805;-0.3278;
411.3000;0.6854;-0.2982;
411.6000;0.6886;-0.2908;
411.9000;0.6854;-0.3056;
412.2000;0.6870;-0.3056;
412.5000;0.6772;-0.3278;
412.8000;0.6797;-0.3229;
413.1000;0.6870;-0.2933;
413.4000;0.6952;-0.2711;
413.7000;0.6862;-0.2908;
414.0000;0.6862;-0.3007;
414.3000;0.6878;-0.3007;
414.6000;0.6854;-0.3081;
414.9000;0.6870;-0.2982;
415.2000;0.6846;-0.3032;
415.5000;0.6878;-0.3032;
415.8000;0.6870;-0.3105;
416.1000;0.6846;-0.3179;
416.4000;0.6870;-0.3105;
416.7000;0.6895;-0.2982;
417.0000;0.6805;-0.3179;
417.3000;0.6870;-0.2958;
417.6000;0.6870;-0.3007;
417.9000;0.6854;-0.3032;
418.2000;0.6846;-0.3105;
418.5000;0.6878;-0.3007;
418.8000;0.6895;-0.2982;
419.1000;0.6870;-0.3056;
419.4000;0.6862;-0.2982;
419.7000;0.6846;-0.3081;
420.0000;0.6862;-0.3105;
420.3000;0.6903;-0.3130;
420.6000;0.6886;-0.3179;
420.9000;0.6862;-0.3229;
421.2000;0.6854;-0.3327;
421.5000;0.6878;-0.3229;
421.8000;0.6895;-0.3204;
422.1000;0.6886;-0.3253;
422.4000;0.6878;-0.3377;
422.7000;0.6862;-0.3426;
423.0000;0.6862;-0.3377;
423.3000;0.6886;-0.3327;
423.6000;0.6854;-0.3401;
423.9000;0.6846;-0.3426;
424.2000;0.6862;-0.3253;
424.5000;0.6878;-0.3229;
424.8000;0.6854;-0.3179;
425.1000;0.6870;-0.3105;
425.4000;0.6862;-0.3081;
425.7000;0.6846;-0.3155;
426.0000;0.6862;-0.3081;
426.3000;0.6870;-0.3081;
426.6000;0.6854;-0.3105;
426.9000;0.6878;-0.3056;
427.2000;0.6862;-0.3081;
427.5000;0.6854;-0.2982;
427.8000;0.6903;-0.2859;
428.1000;0.6829;-0.2982;
428.4000;0.6862;-0.2933;
428.7000;0.6846;-0.3032;
429.0000;0.6854;-0.3007;
429.3000;0.6854;-0.3105;
429.6000;0.6862;-0.3007;
429.9000;0.6870;-0.3056;
430.2000;0.6854;-0.3081;
430.5000;0.6838;-0.3105;
430.8000;0.6870;-0.3081;
431.1000;0.6870;-0.3130;
431.4000;0.6846;-0.3204;
431.7000;0.6870;-0.3204;
432.0000;0.6854;-0.3253;
432.3000;0.6838;-0.3352;
432.6000;0.6829;-0.3377;
432.9000;0.6846;-0.3229;
433.2000;0.6854;-0.3204;
433.5000;0.6854;-0.3155;
433.8000;0.6838;-0.3229;
434.1000;0.6838;-0.3204;
434.4000;0.6862;-0.3105;
434.7000;0.6927;-0.3007;
435.0000;0.6821;-0.3278;
435.3000;0.6854;-0.3204;
435.6000;0.6870;-0.3179;
435.9000;0.6821;-0.3253;
436.2000;0.6854;-0.3204;
436.5000;0.6846;-0.3155;
436.8000;0.6846;-0.3253;
437.1000;0.6846;-0.3155;
437.4000;0.6943;-0.2982;
437.7000;0.6846;-0.3179;
438.0000;0.6846;-0.3081;
438.3000;0.6846;-0.3081;
438.6000;0.6838;-0.3032;
438.9000;0.6886;-0.2933;
439.2000;0.6829;-0.3130;
439.5000;0.6846;-0.3130;
439.8000;0.6895;-0.3032;
440.1000;0.6846;-0.3204;
440.4000;0.6854;-0.3229;
440.7000;0.6862;-0.3204;
441.0000;0.6862;-0.3229;
441.3000;0.6862;-0.3179;
441.6000;0.6821;-0.3229;
441.9000;0.6854;-0.3105;
442.2000;0.6862;-0.3179;
442.5000;0.6846;-0.3229;
442.8000;0.6846;-0.3229;
443.1000;0.6862;-0.3130;
443.4000;0.6886;-0.3032;
443.7000;0.6829;-0.3155;
444.0000;0.6846;-0.3204;
444.3000;0.6838;-0.3229;
444.6000;0.6862;-0.3204;
444.9000;0.6886;-0.3056;
445.2000;0.6862;-0.3155;
445.5000;0.6813;-0.3303;
445.8000;0.6862;-0.3130;
446.1000;0.6854;-0.3155;
446.4000;0.6854;-0.3130;
446.7000;0.6854;-0.3155;
447.0000;0.6829;-0.3179;
447.3000;0.6854;-0.3007;
447.6000;0.6862;-0.3032;
447.9000;0.6846;-0.3081;
448.2000;0.6854;-0.3056;
448.5000;0.6870;-0.3032;
448.8000;0.6862;-0.3056;
449.1000;0.6854;-0.3130;
449.4000;0.6838;-0.3179;
449.7000;0.6854;-0.3056;
450.0000;0.6862;-0.3105;
450.3000;0.6854;-0.3179;
450.6000;0.6854;-0.3179;
450.9000;0.6862;-0.3081;
451.2000;0.6952;-0.2760;
451.5000;0.6870;-0.3007;
451.8000;0.6854;-0.3105;
452.1000;0.6943;-0.2810;
452.4000;0.6862;-0.3105;
452.7000;0.6870;-0.3081;
453.0000;0.6829;-0.3155;
453.3000;0.6838;-0.3081;
453.6000;0.6829;-0.3081;
453.9000;0.6846;-0.3056;
454.2000;0.6846;-0.3056;
454.5000;0.6821;-0.3007;
454.8000;0.6846;-0.3081;
455.1000;0.6919;-0.2958;
455.4000;0.6838;-0.3056;
455.7000;0.6854;-0.3007;
456.0000;0.6838;-0.2982;
456.3000;0.6895;-0.2834;
456.6000;0.6805;-0.3105;
456.9000;0.6829;-0.2958;
457.2000;0.6838;-0.2958;
457.5000;0.6862;-0.2834;
457.8000;0.6805;-0.2982;
458.1000;0.6838;-0.2884;
458.4000;0.6895;-0.2834;
458.7000;0.6846;-0.2834;
459.0000;0.6870;-0.2884;
459.3000;0.6862;-0.2982;
459.6000;0.6838;-0.3056;
459.9000;0.6854;-0.3130;
460.2000;0.6838;-0.3105;
460.5000;0.6862;-0.3105;
460.8000;0.6821;-0.3179;
461.1000;0.6838;-0.3081;
461.4000;0.6838;-0.3081;
461.7000;0.6829;-0.3105;
462.0000;0.6854;-0.3081;
462.3000;0.6846;-0.3229;
462.6000;0.6829;-0.3253;
462.9000;0.6854;-0.3155;
463.2000;0.6829;-0.3130;
463.5000;0.6886;-0.2958;
463.8000;0.6854;-0.3056;
464.1000;0.6846;-0.3007;
464.4000;0.6862;-0.3032;
464.7000;0.6838;-0.3105;
465.0000;0.6829;-0.3105;
465.3000;0.6862;-0.3105;
465.6000;0.6846;-0.3179;
465.9000;0.6903;-0.3130;
466.2000;0.6829;-0.3204;
466.5000;0.6846;-0.3081;
466.8000;0.6838;-0.3056;
467.1000;0.6829;-0.3105;
467.4000;0.6829;-0.3130;
467.7000;0.6829;-0.3081;
468.0000;0.6838;-0.3007;
468.3000;0.6821;-0.3032;
468.6000;0.6838;-0.2982;
468.9000;0.6829;-0.3032;
469.2000;0.6846;-0.3081;
469.5000;0.6838;-0.3130;
469.8000;0.6838;-0.3056;
470.1000;0.6862;-0.3007;
470.4000;0.6846;-0.3007;
470.7000;0.6846;-0.3007;
471.0000;0.6829;-0.3032;
471.3000;0.6821;-0.3105;
471.6000;0.6846;-0.3155;
471.9000;0.6886;-0.3081;
472.2000;0.6919;-0.3032;
472.5000;0.6846;-0.3303;
472.8000;0.6862;-0.3179;
473.1000;0.6878;-0.3056;
473.4000;0.6829;-0.3155;
473.7000;0.6829;-0.3130;
474.0000;0.6829;-0.3155;
474.3000;0.6813;-0.3155;
474.6000;0.6846;-0.3155;
474.9000;0.6846;-0.3229;
475.2000;0.6838;-0.3155;
475.5000;0.6838;-0.3130;
475.8000;0.6829;-0.3155;
476.1000;0.6805;-0.3253;
476.4000;0.6821;-0.3253;
476.7000;0.6846;-0.3229;
477.0000;0.6846;-0.3204;
477.3000;0.6838;-0.3204;
477.6000;0.6821;-0.3253;
477.9000;0.6846;-0.3253;
478.2000;0.6846;-0.3204;
478.5000;0.6797;-0.3327;
478.8000;0.6829;-0.3253;
479.1000;0.6789;-0.3426;
479.4000;0.6862;-0.3253;
479.7000;0.6829;-0.3278;
480.0000;0.6878;-0.3032;
480.3000;0.6829;-0.3130;
480.6000;0.6781;-0.3327;
480.9000;0.6781;-0.3327;
481.2000;0.6821;-0.3179;
481.5000;0.6838;-0.3229;
481.8000;0.6740;-0.3500;
482.1000;0.6805;-0.3303;
482.4000;0.6838;-0.3253;
482.7000;0.6797;-0.3303;
483.0000;0.6789;-0.3352;
483.3000;0.6903;-0.3056;
483.6000;0.6821;-0.3229;
483.9000;0.6707;-0.3574;
484.2000;0.6829;-0.3253;
484.5000;0.6789;-0.3253;
484.8000;0.6821;-0.3155;
485.1000;0.6878;-0.3081;
485.4000;0.6805;-0.3253;
485.7000;0.6813;-0.3179;
486.0000;0.6813;-0.3179;
486.3000;0.6838;-0.3130;
486.6000;0.6829;-0.3179;
486.9000;0.6838;-0.3130;
487.2000;0.6829;-0.3179;
487.5000;0.6813;-0.3179;
487.8000;0.6829;-0.3081;
488.1000;0.6821;-0.3081;
488.4000;0.6911;-0.2908;
488.7000;0.6805;-0.3204;
489.0000;0.6781;-0.3278;
489.3000;0.6829;-0.3130;
489.6000;0.6829;-0.3155;
489.9000;0.6813;-0.3204;
490.2000;0.6829;-0.3179;
490.5000;0.6813;-0.3253;
490.8000;0.6846;-0.3130;
491.1000;0.6829;-0.3130;
491.4000;0.6813;-0.3179;
491.7000;0.6829;-0.3155;
492.0000;0.6895;-0.3007;
492.3000;0.6846;-0.3105;
492.6000;0.6821;-0.3105;
492.9000;0.6829;-0.3130;
493.2000;0.6862;-0.3081;
493.5000;0.6838;-0.3204;
493.8000;0.6829;-0.3229;
494.1000;0.6805;-0.3204;
494.4000;0.6829;-0.3130;
494.7000;0.6821;-0.3204;
495.0000;0.6838;-0.3179;
495.3000;0.6829;-0.3179;
495.6000;0.6732;-0.3401;
495.9000;0.6821;-0.3130;
496.2000;0.6821;-0.3130;
496.5000;0.6813;-0.3056;
496.8000;0.6829;-0.3081;
497.1000;0.6838;-0.3056;
497.4000;0.6813;-0.3105;
497.7000;0.6740;-0.3327;
498.0000;0.6838;-0.3155;
498.3000;0.6829;-0.3105;
498.6000;0.6838;-0.3130;
498.9000;0.6821;-0.3130;
499.2000;0.6878;-0.2958;
499.5000;0.6813;-0.3105;
499.8000;0.6829;-0.3081;
500.1000;0.6821;-0.3155;
500.4000;0.6838;-0.3105;
500.7000;0.6805;-0.3179;
501.0000;0.6846;-0.3105;
501.3000;0.6838;-0.3229;
501.6000;0.6829;-0.3253;
501.9000;0.6854;-0.3278;
502.2000;0.6838;-0.3278;
502.5000;0.6805;-0.3278;
502.8000;0.6813;-0.3253;
503.1000;0.6821;-0.3253;
503.4000;0.6821;-0.3278;
503.7000;0.6935;-0.2958;
504.0000;0.6805;-0.3303;
504.3000;0.6821;-0.3327;
504.6000;0.6919;-0.2982;
504.9000;0.6854;-0.3081;
505.2000;0.6821;-0.3155;
505.5000;0.6789;-0.3179;
505.8000;0.6838;-0.3105;
506.1000;0.6805;-0.3179;
506.4000;0.6813;-0.3204;
506.7000;0.6805;-0.3204;
507.0000;0.6821;-0.3229;
507.3000;0.6821;-0.3352;
507.6000;0.6813;-0.3303;
507.9000;0.6805;-0.3278;
508.2000;0.6821;-0.3278;
508.5000;0.6838;-0.3327;
508.8000;0.6829;-0.3401;
509.1000;0.6813;-0.3377;
509.4000;0.6829;-0.3303;
509.7000;0.6813;-0.3253;
510.0000;0.6813;-0.3327;
510.3000;0.6821;-0.3426;
510.6000;0.6805;-0.3451;
510.9000;0.6797;-0.3426;
511.2000;0.6797;-0.3475;
511.5000;0.6813;-0.3451;
511.8000;0.6821;-0.3401;
512.1000;0.6813;-0.3377;
512.4000;0.6821;-0.3352;
512.7000;0.6829;-0.3229;
513.0000;0.6756;-0.3352;
513.3000;0.6829;-0.3204;
513.6000;0.6829;-0.3204;
513.9000;0.6821;-0.3229;
514.2000;0.6805;-0.3352;
514.5000;0.6789;-0.3352;
514.8000;0.6813;-0.3303;
515.1000;0.6829;-0.3253;
515.4000;0.6821;-0.3229;
515.7000;0.6805;-0.3179;
516.0000;0.6829;-0.3105;
516.3000;0.6813;-0.3081;
516.6000;0.6838;-0.3105;
516.9000;0.6813;-0.3179;
517.2000;0.6821;-0.3155;
517.5000;0.6829;-0.3179;
517.8000;0.6813;-0.3179;
518.1000;0.6813;-0.3130;
518.4000;0.6813;-0.3155;
518.7000;0.6829;-0.3204;
519.0000;0.6821;-0.3303;
519.3000;0.6813;-0.3327;
519.6000;0.6846;-0.3303;
519.9000;0.6829;-0.3278;
520.2000;0.6829;-0.3253;
520.5000;0.6789;-0.3377;
520.8000;0.6813;-0.3377;
521.1000;0.6805;-0.3475;
521.4000;0.6829;-0.3451;
521.7000;0.6805;-0.3500;
522.0000;0.6821;-0.3500;
522.3000;0.6829;-0.3451;
522.6000;0.6870;-0.3253;
522.9000;0.6846;-0.3303;
523.2000;0.6821;-0.3377;
523.5000;0.6781;-0.3549;
523.8000;0.6838;-0.3426;
524.1000;0.6829;-0.3401;
524.4000;0.6821;-0.3327;
524.7000;0.6862;-0.3229;
525.0000;0.6813;-0.3327;
525.3000;0.6838;-0.3204;
525.6000;0.6781;-0.3278;
525.9000;0.6789;-0.3179;
526.2000;0.6797;-0.3204;
526.5000;0.6740;-0.3303;
526.8000;0.6813;-0.3032;
527.1000;0.6813;-0.3032;
527.4000;0.6797;-0.3130;
527.7000;0.6821;-0.3081;
528.0000;0.6789;-0.3204;
528.3000;0.6797;-0.3105;
528.6000;0.6732;-0.3327;
528.9000;0.6789;-0.3179;
529.2000;0.6813;-0.3130;
529.5000;0.6781;-0.3155;
529.8000;0.6813;-0.3179;
530.1000;0.6854;-0.3155;
530.4000;0.6813;-0.3253;
530.7000;0.6821;-0.3253;
531.0000;0.6805;-0.3130;
531.3000;0.6797;-0.3179;
531.6000;0.6821;-0.3032;
531.9000;0.6813;-0.3056;
532.2000;0.6813;-0.3007;
532.5000;0.6813;-0.3105;
532.8000;0.6707;-0.3278;
533.1000;0.6813;-0.2982;
533.4000;0.6797;-0.2982;
533.7000;0.6805;-0.3032;
534.0000;0.6821;-0.2958;
534.3000;0.6829;-0.2982;
534.6000;0.6813;-0.3155;
534.9000;0.6805;-0.3155;
535.2000;0.6829;-0.3105;
535.5000;0.6813;-0.3105;
535.8000;0.6789;-0.3204;
536.1000;0.6813;-0.3204;
536.4000;0.6821;-0.3303;
536.7000;0.6846;-0.3155;
537.0000;0.6821;-0.3204;
537.3000;0.6797;-0.3253;
537.6000;0.6821;-0.3278;
537.9000;0.6829;-0.3229;
538.2000;0.6813;-0.3204;
538.5000;0.6813;-0.3278;
538.8000;0.6813;-0.3204;
539.1000;0.6797;-0.3155;
539.4000;0.6829;-0.3081;
539.7000;0.6805;-0.3155;
540.0000;0.6886;-0.2982;
540.3000;0.6772;-0.3278;
540.6000;0.6789;-0.3253;
540.9000;0.6805;-0.3229;
541.2000;0.6829;-0.3253;
541.5000;0.6748;-0.3500;
541.8000;0.6797;-0.3401;
542.1000;0.6813;-0.3327;
542.4000;0.6781;-0.3451;
542.7000;0.6781;-0.3426;
543.0000;0.6805;-0.3426;
543.3000;0.6821;-0.3377;
543.6000;0.6797;-0.3451;
543.9000;0.6781;-0.3377;
544.2000;0.6797;-0.3303;
544.5000;0.6805;-0.3278;
544.8000;0.6805;-0.3352;
545.1000;0.6789;-0.3451;
545.4000;0.6748;-0.3574;
545.7000;0.6772;-0.3401;
546.0000;0.6805;-0.3303;
546.3000;0.6854;-0.3130;
546.6000;0.6797;-0.3105;
546.9000;0.6797;-0.3204;
547.2000;0.6813;-0.3229;
547.5000;0.6789;-0.3303;
547.8000;0.6797;-0.3204;
548.1000;0.6821;-0.3081;
548.4000;0.6870;-0.2982;
548.7000;0.6805;-0.3204;
549.0000;0.6821;-0.3130;
549.3000;0.6813;-0.3229;
549.6000;0.6805;-0.3155;
549.9000;0.6813;-0.3032;
550.2000;0.6772;-0.3155;
550.5000;0.6772;-0.3179;
550.8000;0.6797;-0.3204;
551.1000;0.6772;-0.3327;
551.4000;0.6748;-0.3303;
551.7000;0.6805;-0.3155;
552.0000;0.6781;-0.3179;
552.3000;0.6797;-0.3081;
552.6000;0.6764;-0.3155;
552.9000;0.6797;-0.3105;
553.2000;0.6813;-0.2982;
553.5000;0.6813;-0.2958;
553.8000;0.6789;-0.3081;
554.1000;0.6895;-0.2834;
554.4000;0.6781;-0.3155;
554.7000;0.6813;-0.3105;
555.0000;0.6813;-0.3056;
555.3000;0.6813;-0.3032;
555.6000;0.6797;-0.3179;
555.9000;0.6813;-0.3105;
556.2000;0.6821;-0.3204;
556.5000;0.6805;-0.3229;
556.8000;0.6724;-0.3500;
557.1000;0.6805;-0.3327;
557.4000;0.6813;-0.3253;
557.7000;0.6821;-0.3327;
558.0000;0.6781;-0.3475;
558.3000;0.6805;-0.3229;
558.6000;0.6838;-0.3155;
558.9000;0.6797;-0.3155;
559.2000;0.6805;-0.3056;
559.5000;0.6821;-0.3056;
559.8000;0.6829;-0.3081;
560.1000;0.6813;-0.3032;
560.4000;0.6797;-0.3081;
560.7000;0.6756;-0.3179;
561.0000;0.6756;-0.3278;
561.3000;0.6789;-0.3204;
561.6000;0.6797;-0.3253;
561.9000;0.6789;-0.3179;
562.2000;0.6797;-0.3204;
562.5000;0.6797;-0.3253;
562.8000;0.6797;-0.3303;
563.1000;0.6813;-0.3377;
563.4000;0.6821;-0.3327;
563.7000;0.6740;-0.3574;
564.0000;0.6789;-0.3352;
564.3000;0.6797;-0.3303;
564.6000;0.6789;-0.3278;
564.9000;0.6813;-0.3253;
565.2000;0.6805;-0.3229;
565.5000;0.6756;-0.3303;
565.8000;0.6789;-0.3229;
566.1000;0.6789;-0.3204;
566.4000;0.6813;-0.3155;
566.7000;0.6789;-0.3155;
567.0000;0.6781;-0.3278;
567.3000;0.6805;-0.3278;
567.6000;0.6789;-0.3352;
567.9000;0.6813;-0.3377;
568.2000;0.6781;-0.3352;
568.5000;0.6797;-0.3303;
568.8000;0.6789;-0.3352;
569.1000;0.6870;-0.3204;
569.4000;0.6772;-0.3377;
569.7000;0.6813;-0.3278;
570.0000;0.6805;-0.3303;
570.3000;0.6829;-0.3179;
570.6000;0.6813;-0.3253;
570.9000;0.6829;-0.3105;
571.2000;0.6797;-0.3155;
571.5000;0.6797;-0.3155;
571.8000;0.6789;-0.3105;
572.1000;0.6789;-0.3105;
572.4000;0.6772;-0.3105;
572.7000;0.6813;-0.2933;
573.0000;0.6772;-0.3032;
573.3000;0.6781;-0.3056;
573.6000;0.6862;-0.2785;
573.9000;0.6789;-0.2958;
574.2000;0.6772;-0.3007;
574.5000;0.6756;-0.3032;
574.8000;0.6805;-0.2908;
575.1000;0.6838;-0.2810;
575.4000;0.6805;-0.2958;
575.7000;0.6797;-0.2982;
576.0000;0.6797;-0.3032;
576.3000;0.6781;-0.3130;
576.6000;0.6805;-0.3204;
576.9000;0.6813;-0.3179;
577.2000;0.6781;-0.3278;
577.5000;0.6846;-0.3081;
577.8000;0.6772;-0.3253;
578.1000;0.6789;-0.3327;
578.4000;0.6789;-0.3303;
578.7000;0.6805;-0.3278;
579.0000;0.6797;-0.3327;
579.3000;0.6805;-0.3303;
579.6000;0.6781;-0.3278;
579.9000;0.6789;-0.3229;
580.2000;0.6838;-0.3032;
580.5000;0.6683;-0.3426;
580.8000;0.6789;-0.3130;
581.1000;0.6805;-0.3155;
581.4000;0.6781;-0.3204;
581.7000;0.6813;-0.3130;
582.0000;0.6846;-0.3007;
582.3000;0.6748;-0.3229;
582.6000;0.6813;-0.3056;
582.9000;0.6805;-0.3081;
583.2000;0.6805;-0.3056;
583.5000;0.6805;-0.3007;
583.8000;0.6805;-0.3032;
584.1000;0.6789;-0.3056;
584.4000;0.6813;-0.2982;
584.7000;0.6797;-0.3032;
585.0000;0.6772;-0.3081;
585.3000;0.6805;-0.2958;
585.6000;0.6797;-0.3032;
585.9000;0.6772;-0.2982;
586.2000;0.6781;-0.3081;
586.5000;0.6789;-0.3032;
586.8000;0.6781;-0.2982;
587.1000;0.6797;-0.2958;
587.4000;0.6781;-0.3007;
587.7000;0.6805;-0.2908;
588.0000;0.6740;-0.3056;
588.3000;0.6805;-0.2859;
588.6000;0.6781;-0.2982;
588.9000;0.6781;-0.3032;
589.2000;0.6772;-0.3007;
589.5000;0.6805;-0.2958;
589.8000;0.6732;-0.3229;
590.1000;0.6781;-0.3105;
590.4000;0.6789;-0.3130;
590.7000;0.6797;-0.3032;
591.0000;0.6789;-0.3105;
591.3000;0.6805;-0.3032;
591.6000;0.6805;-0.3105;
591.9000;0.6772;-0.3130;
592.2000;0.6805;-0.3155;
592.5000;0.6781;-0.3278;
592.8000;0.6789;-0.3278;
593.1000;0.6789;-0.3229;
593.4000;0.6789;-0.3278;
593.7000;0.6813;-0.3229;
594.0000;0.6805;-0.3130;
594.3000;0.6797;-0.3130;
594.6000;0.6821;-0.3056;
594.9000;0.6813;-0.3032;
595.2000;0.6772;-0.3155;
595.5000;0.6797;-0.3056;
595.8000;0.6781;-0.3130;
596.1000;0.6764;-0.3179;
596.4000;0.6789;-0.3130;
596.7000;0.6789;-0.3204;
597.0000;0.6748;-0.3253;
597.3000;0.6764;-0.3179;
597.6000;0.6772;-0.3155;
597.9000;0.6805;-0.3130;
598.2000;0.6781;-0.3105;
598.5000;0.6781;-0.3081;
598.8000;0.6789;-0.3130;
599.1000;0.6764;-0.3179;
599.4000;0.6805;-0.3081;
599.7000;0.6756;-0.3253;
600.0000;0.6748;-0.3253;
600.3000;0.6756;-0.3229;
600.6000;0.6691;-0.3352;
600.9000;0.6650;-0.3426;
601.2000;0.6447;-0.3845;
601.5000;0.6276;-0.4165;
601.8000;0.6138;-0.4313;
602.1000;0.6015;-0.4510;
602.4000;0.5910;-0.4658;
602.7000;0.5755;-0.4979;
603.0000;0.5714;-0.5077;
603.3000;0.5576;-0.5324;
603.6000;0.5503;-0.5422;
603.9000;0.5446;-0.5545;
604.2000;0.5372;-0.5669;
604.5000;0.5307;-0.5743;
604.8000;0.5250;-0.5890;
605.1000;0.5161;-0.6088;
605.4000;0.5128;-0.6186;
605.7000;0.5112;-0.6334;
606.0000;0.5031;-0.6482;
606.3000;0.5022;-0.6408;
606.6000;0.4965;-0.6482;
606.9000;0.4941;-0.6630;
607.2000;0.4917;-0.6679;
607.5000;0.4843;-0.6876;
607.8000;0.4835;-0.6876;
608.1000;0.4803;-0.6950;
608.4000;0.4794;-0.6950;
608.7000;0.4778;-0.7049;
609.0000;0.4770;-0.6950;
609.3000;0.4729;-0.7123;
609.6000;0.4713;-0.7098;
609.9000;0.4689;-0.7147;
610.2000;0.4713;-0.7000;
610.5000;0.4664;-0.7074;
610.8000;0.4648;-0.7049;
611.1000;0.4664;-0.6926;
611.4000;0.4599;-0.7074;
611.7000;0.4607;-0.7221;
612.0000;0.4526;-0.7394;
612.3000;0.4567;-0.7320;
612.6000;0.4477;-0.7517;
612.9000;0.4534;-0.7295;
613.2000;0.4599;-0.7123;
613.5000;0.4510;-0.7271;
613.8000;0.4477;-0.7443;
614.1000;0.4510;-0.7468;
614.4000;0.4485;-0.7616;
614.7000;0.4477;-0.7616;
615.0000;0.4493;-0.7517;
615.3000;0.4444;-0.7542;
615.6000;0.4526;-0.7394;
615.9000;0.4444;-0.7517;
616.2000;0.4461;-0.7419;
616.5000;0.4469;-0.7345;
616.8000;0.4420;-0.7493;
617.1000;0.4404;-0.7566;
617.4000;0.4412;-0.7493;
617.7000;0.4347;-0.7739;
618.0000;0.4396;-0.7616;
618.3000;0.4396;-0.7591;
618.6000;0.4322;-0.7813;
618.9000;0.4363;-0.7616;
619.2000;0.4355;-0.7566;
619.5000;0.4347;-0.7566;
619.8000;0.4355;-0.7542;
620.1000;0.4330;-0.7566;
620.4000;0.4322;-0.7542;
620.7000;0.4330;-0.7640;
621.0000;0.4347;-0.7640;
621.3000;0.4306;-0.7739;
621.6000;0.4249;-0.7912;
621.9000;0.4298;-0.7640;
622.2000;0.4257;-0.7714;
622.5000;0.4314;-0.7616;
622.8000;0.4241;-0.7813;
623.1000;0.4282;-0.7739;
623.4000;0.4249;-0.7764;
623.7000;0.4265;-0.7640;
624.0000;0.4274;-0.7566;
624.3000;0.4265;-0.7665;
624.6000;0.4274;-0.7640;
624.9000;0.4265;-0.7591;
625.2000;0.4274;-0.7542;
625.5000;0.4265;-0.7616;
625.8000;0.4274;-0.7591;
626.1000;0.4290;-0.7591;
626.4000;0.4249;-0.7690;
626.7000;0.4265;-0.7714;
627.0000;0.4241;-0.7714;
627.3000;0.4257;-0.7690;
627.6000;0.4249;-0.7788;
627.9000;0.4233;-0.7887;
628.2000;0.4200;-0.7887;
628.5000;0.4225;-0.7813;
628.8000;0.4233;-0.7813;
629.1000;0.4225;-0.8059;
629.4000;0.4225;-0.7985;
629.7000;0.4265;-0.7887;
630.0000;0.4217;-0.7985;
630.3000;0.4241;-0.7936;
630.6000;0.4249;-0.7961;
630.9000;0.4208;-0.8010;
631.2000;0.4241;-0.7838;
631.5000;0.4217;-0.7838;
631.8000;0.4176;-0.7985;
632.1000;0.4200;-0.7912;
632.4000;0.4192;-0.7961;
632.7000;0.4151;-0.8059;
633.0000;0.4200;-0.7912;
633.3000;0.4168;-0.8010;
633.6000;0.4184;-0.8010;
633.9000;0.4192;-0.7936;
634.2000;0.4176;-0.7985;
634.5000;0.4176;-0.7961;
634.8000;0.4200;-0.8010;
635.1000;0.4168;-0.8084;
635.4000;0.4176;-0.8084;
635.7000;0.4176;-0.8084;
636.0000;0.4184;-0.8084;
636.3000;0.4184;-0.7936;
636.6000;0.4135;-0.8035;
636.9000;0.4168;-0.7912;
637.2000;0.4160;-0.7838;
637.5000;0.4176;-0.7887;
637.8000;0.4160;-0.7912;
638.1000;0.4135;-0.7936;
638.4000;0.4151;-0.7887;
638.7000;0.4192;-0.7739;
639.0000;0.4160;-0.7788;
639.3000;0.4111;-0.7887;
639.6000;0.4176;-0.7739;
639.9000;0.4135;-0.7862;
640.2000;0.4119;-0.7887;
640.5000;0.4127;-0.7788;
640.8000;0.4135;-0.7690;
641.1000;0.4119;-0.7714;
641.4000;0.4143;-0.7640;
641.7000;0.4103;-0.7739;
642.0000;0.4143;-0.7714;
642.3000;0.4135;-0.7640;
642.6000;0.4111;-0.7665;
642.9000;0.4111;-0.7690;
643.2000;0.4119;-0.7616;
643.5000;0.4192;-0.7419;
643.8000;0.4111;-0.7665;
644.1000;0.4135;-0.7739;
644.4000;0.4103;-0.7788;
644.7000;0.4135;-0.7640;
645.0000;0.4103;-0.7690;
645.3000;0.4111;-0.7616;
645.6000;0.4160;-0.7542;
645.9000;0.4119;-0.7690;
646.2000;0.4103;-0.7764;
646.5000;0.4127;-0.7690;
646.8000;0.4062;-0.7739;
647.1000;0.4070;-0.7739;
647.4000;0.4086;-0.7764;
647.7000;0.4070;-0.7739;
648.0000;0.4111;-0.7690;
648.3000;0.4103;-0.7739;
648.6000;0.4062;-0.7838;
648.9000;0.4094;-0.7764;
649.2000;0.4094;-0.7764;
649.5000;0.4094;-0.7739;
649.8000;0.4119;-0.7665;
650.1000;0.4086;-0.7714;
650.4000;0.4143;-0.7690;
650.7000;0.4086;-0.7714;
651.0000;0.4086;-0.7764;
651.3000;0.4078;-0.7813;
651.6000;0.4078;-0.7690;
651.9000;0.4070;-0.7665;
652.2000;0.4070;-0.7690;
652.5000;0.4078;-0.7690;
652.8000;0.4062;-0.7764;
653.1000;0.4054;-0.7838;
653.4000;0.4054;-0.7813;
653.7000;0.4046;-0.7887;
654.0000;0.4054;-0.7912;
654.3000;0.4013;-0.7936;
654.6000;0.4086;-0.7665;
654.9000;0.4054;-0.7788;
655.2000;0.4046;-0.7764;
655.5000;0.4062;-0.7714;
655.8000;0.4021;-0.7887;
656.1000;0.4037;-0.7912;
656.4000;0.4062;-0.7813;
656.7000;0.4054;-0.7862;
657.0000;0.4046;-0.7813;
657.3000;0.4029;-0.7887;
657.6000;0.4054;-0.7862;
657.9000;0.4037;-0.7985;
658.2000;0.4054;-0.7887;
658.5000;0.4046;-0.7788;
658.8000;0.3997;-0.7936;
659.1000;0.4054;-0.7764;
659.4000;0.4062;-0.7813;
659.7000;0.3980;-0.8035;
660.0000;0.4021;-0.7838;
660.3000;0.4054;-0.7912;
660.6000;0.4046;-0.7985;
660.9000;0.4054;-0.7936;
661.2000;0.4021;-0.7961;
661.5000;0.4021;-0.8010;
661.8000;0.4054;-0.7936;
662.1000;0.4037;-0.7936;
662.4000;0.4054;-0.7739;
662.7000;0.4037;-0.7764;
663.0000;0.4029;-0.7838;
663.3000;0.4046;-0.7838;
663.6000;0.4021;-0.7862;
663.9000;0.4021;-0.7912;
664.2000;0.4013;-0.7936;
664.5000;0.4037;-0.7887;
664.8000;0.3997;-0.7936;
665.1000;0.4021;-0.7887;
665.4000;0.4029;-0.7788;
665.7000;0.4029;-0.7838;
666.0000;0.4111;-0.7566;
666.3000;0.4005;-0.7813;
666.6000;0.4046;-0.7665;
666.9000;0.4005;-0.7788;
667.2000;0.4013;-0.7813;
667.5000;0.4005;-0.7862;
667.8000;0.3997;-0.7862;
668.1000;0.4021;-0.7887;
668.4000;0.4013;-0.7961;
668.7000;0.3972;-0.8010;
669.0000;0.3989;-0.7887;
669.3000;0.4005;-0.7838;
669.6000;0.3989;-0.7862;
669.9000;0.4005;-0.7961;
670.2000;0.3989;-0.7936;
670.5000;0.3997;-0.7936;
670.8000;0.4054;-0.7838;
671.1000;0.3940;-0.8158;
671.4000;0.3964;-0.7961;
671.7000;0.3972;-0.7838;
672.0000;0.4005;-0.7788;
672.3000;0.4037;-0.7739;
672.6000;0.3997;-0.7813;
672.9000;0.4005;-0.7862;
673.2000;0.3989;-0.7912;
673.5000;0.3989;-0.8010;
673.8000;0.4005;-0.7936;
674.1000;0.3940;-0.8035;
674.4000;0.3989;-0.7764;
674.7000;0.3980;-0.7788;
675.0000;0.3997;-0.7739;
675.3000;0.3989;-0.7862;
675.6000;0.3989;-0.7838;
675.9000;0.4005;-0.7739;
676.2000;0.3972;-0.7690;
676.5000;0.3964;-0.7616;
676.8000;0.3964;-0.7616;
677.1000;0.3980;-0.7616;
677.4000;0.3997;-0.7542;
677.7000;0.3989;-0.7566;
678.0000;0.3989;-0.7566;
678.3000;0.3964;-0.7517;
678.6000;0.3956;-0.7665;
678.9000;0.3989;-0.7616;
679.2000;0.3980;-0.7566;
679.5000;0.3980;-0.7517;
679.8000;0.3997;-0.7517;
680.1000;0.4013;-0.7468;
680.4000;0.3972;-0.7566;
680.7000;0.3980;-0.7566;
681.0000;0.3956;-0.7665;
681.3000;0.3964;-0.7591;
681.6000;0.3972;-0.7468;
681.9000;0.3964;-0.7493;
682.2000;0.4005;-0.7443;
682.5000;0.3964;-0.7517;
682.8000;0.3964;-0.7566;
683.1000;0.4062;-0.7345;
683.4000;0.3964;-0.7690;
683.7000;0.3972;-0.7690;
684.0000;0.3956;-0.7739;
684.3000;0.3956;-0.7788;
684.6000;0.3948;-0.7887;
684.9000;0.3972;-0.7862;
685.2000;0.3964;-0.7813;
685.5000;0.3956;-0.7714;
685.8000;0.3948;-0.7640;
686.1000;0.4062;-0.7295;
686.4000;0.3956;-0.7640;
686.7000;0.3940;-0.7690;
687.0000;0.3948;-0.7714;
687.3000;0.4021;-0.7517;
687.6000;0.3956;-0.7640;
687.9000;0.3948;-0.7739;
688.2000;0.3948;-0.7640;
688.5000;0.3948;-0.7591;
688.8000;0.3907;-0.7640;
689.1000;0.3948;-0.7566;
689.4000;0.4005;-0.7468;
689.7000;0.3940;-0.7616;
690.0000;0.3940;-0.7714;
690.3000;0.3956;-0.7739;
690.6000;0.3956;-0.7739;
690.9000;0.3980;-0.7690;
691.2000;0.3948;-0.7739;
691.5000;0.3964;-0.7665;
691.8000;0.3907;-0.7788;
692.1000;0.3940;-0.7739;
692.4000;0.3948;-0.7739;
692.7000;0.3948;-0.7764;
693.0000;0.3940;-0.7739;
693.3000;0.3915;-0.7788;
693.6000;0.4005;-0.7468;
693.9000;0.3940;-0.7690;
694.2000;0.3956;-0.7788;
694.5000;0.3964;-0.7813;
694.8000;0.3923;-0.7912;
695.1000;0.3932;-0.7838;
695.4000;0.3972;-0.7690;
695.7000;0.3899;-0.7838;
696.0000;0.3932;-0.7714;
696.3000;0.3834;-0.8059;
696.6000;0.3915;-0.7912;
696.9000;0.3907;-0.7912;
697.2000;0.3923;-0.7887;
697.5000;0.3948;-0.7739;
697.8000;0.3915;-0.7813;
698.1000;0.3842;-0.8059;
698.4000;0.3907;-0.7887;
698.7000;0.3907;-0.7862;
699.0000;0.3915;-0.7788;
699.3000;0.3899;-0.7764;
699.6000;0.3891;-0.7764;
699.9000;0.3915;-0.7838;
700.2000;0.3915;-0.7838;
700.5000;0.3915;-0.7838;
700.8000;0.3915;-0.7862;
701.1000;0.3948;-0.7862;
701.4000;0.3932;-0.7936;
701.7000;0.3940;-0.7887;
702.0000;0.3923;-0.7887;
702.3000;0.3932;-0.7862;
702.6000;0.3915;-0.7912;
702.9000;0.3948;-0.7764;
703.2000;0.3923;-0.7838;
703.5000;0.3907;-0.7936;
703.8000;0.3915;-0.7912;
704.1000;0.3883;-0.7961;
704.4000;0.3891;-0.7936;
704.7000;0.3826;-0.8133;
705.0000;0.3899;-0.7887;
705.3000;0.3915;-0.7838;
705.6000;0.3980;-0.7616;
705.9000;0.3956;-0.7690;
706.2000;0.3834;-0.8010;
706.5000;0.3907;-0.7887;
706.8000;0.3907;-0.7813;
707.1000;0.3891;-0.7813;
707.4000;0.3891;-0.7813;
707.7000;0.3907;-0.7714;
708.0000;0.3875;-0.7739;
708.3000;0.3907;-0.7714;
708.6000;0.3891;-0.7739;
708.9000;0.3907;-0.7714;
709.2000;0.3891;-0.7739;
709.5000;0.3907;-0.7788;
709.8000;0.3883;-0.7887;
710.1000;0.3899;-0.7862;
710.4000;0.3915;-0.7813;
710.7000;0.3915;-0.7862;
711.0000;0.3891;-0.7912;
711.3000;0.3883;-0.7936;
711.6000;0.3858;-0.7961;
711.9000;0.3875;-0.7912;
712.2000;0.3834;-0.7985;
712.5000;0.3899;-0.7788;
712.8000;0.3915;-0.7714;
713.1000;0.3891;-0.7739;
713.4000;0.3891;-0.7788;
713.7000;0.3875;-0.7665;
714.0000;0.3883;-0.7616;
714.3000;0.3932;-0.7542;
714.6000;0.3842;-0.7788;
714.9000;0.3899;-0.7542;
715.2000;0.3907;-0.7542;
715.5000;0.3907;-0.7591;
715.8000;0.3850;-0.7690;
716.1000;0.3867;-0.7764;
716.4000;0.3980;-0.7394;
716.7000;0.3850;-0.7764;
717.0000;0.3875;-0.7764;
717.3000;0.3899;-0.7566;
717.6000;0.3883;-0.7591;
717.9000;0.3875;-0.7591;
718.2000;0.3907;-0.7591;
718.5000;0.3875;-0.7665;
718.8000;0.3883;-0.7665;
719.1000;0.3891;-0.7714;
719.4000;0.3858;-0.7739;
719.7000;0.3875;-0.7936;
720.0000;0.3858;-0.8059;
720.3000;0.3899;-0.8010;
720.6000;0.3875;-0.7936;
720.9000;0.3826;-0.8084;
721.2000;0.3858;-0.7961;
721.5000;0.3883;-0.7912;
721.8000;0.3899;-0.7788;
722.1000;0.3891;-0.7912;
722.4000;0.3883;-0.7887;
722.7000;0.3858;-0.7985;
723.0000;0.3899;-0.7813;
723.3000;0.3875;-0.7838;
723.6000;0.3875;-0.7862;
723.9000;0.3883;-0.7887;
724.2000;0.3858;-0.7961;
724.5000;0.3875;-0.7961;
724.8000;0.3875;-0.8035;
725.1000;0.3867;-0.8059;
725.4000;0.3834;-0.8109;
725.7000;0.3883;-0.8084;
726.0000;0.3842;-0.8158;
726.3000;0.3891;-0.8035;
726.6000;0.3867;-0.7985;
726.9000;0.3818;-0.8109;
727.2000;0.3834;-0.8109;
727.5000;0.3891;-0.8109;
727.8000;0.3875;-0.8059;
728.1000;0.3867;-0.8109;
728.4000;0.3883;-0.7985;
728.7000;0.3867;-0.7936;
729.0000;0.3834;-0.7985;
729.3000;0.3867;-0.7862;
729.6000;0.3858;-0.7936;
729.9000;0.3858;-0.7961;
730.2000;0.3801;-0.8109;
730.5000;0.3875;-0.7936;
730.8000;0.3883;-0.7936;
731.1000;0.3867;-0.7985;
731.4000;0.3907;-0.7887;
731.7000;0.3842;-0.7985;
732.0000;0.3875;-0.7961;
732.3000;0.3858;-0.8084;
732.6000;0.3867;-0.8109;
732.9000;0.3883;-0.8059;
733.2000;0.3867;-0.8109;
733.5000;0.3867;-0.7985;
733.8000;0.3858;-0.8035;
734.1000;0.3899;-0.7887;
734.4000;0.3818;-0.8059;
734.7000;0.3834;-0.8059;
735.0000;0.3842;-0.8059;
735.3000;0.3858;-0.8035;
735.6000;0.3883;-0.7936;
735.9000;0.3867;-0.8010;
736.2000;0.3850;-0.8109;
736.5000;0.3842;-0.8084;
736.8000;0.3842;-0.8035;
737.1000;0.3850;-0.7961;
737.4000;0.3915;-0.7788;
737.7000;0.3858;-0.7887;
738.0000;0.3834;-0.7961;
738.3000;0.3777;-0.8084;
738.6000;0.3818;-0.7961;
738.9000;0.3834;-0.7985;
739.2000;0.3842;-0.8010;
739.5000;0.3850;-0.8035;
739.8000;0.3834;-0.8084;
740.1000;0.3850;-0.8084;
740.4000;0.3850;-0.8109;
740.7000;0.3834;-0.8133;
741.0000;0.3842;-0.8010;
741.3000;0.3858;-0.8035;
741.6000;0.3891;-0.7912;
741.9000;0.3834;-0.7985;
742.2000;0.3858;-0.7961;
742.5000;0.3940;-0.7665;
742.8000;0.3834;-0.7961;
743.1000;0.3834;-0.7985;
743.4000;0.3850;-0.7887;
743.7000;0.3842;-0.7961;
744.0000;0.3867;-0.7887;
744.3000;0.3842;-0.7985;
744.6000;0.3858;-0.7936;
744.9000;0.3842;-0.7912;
745.2000;0.3858;-0.7862;
745.5000;0.3842;-0.7788;
745.8000;0.3867;-0.7739;
746.1000;0.3842;-0.7739;
746.4000;0.3834;-0.7788;
746.7000;0.3858;-0.7764;
747.0000;0.3858;-0.7788;
747.3000;0.3867;-0.7788;
747.6000;0.3842;-0.7838;
747.9000;0.3834;-0.7862;
748.2000;0.3826;-0.7936;
748.5000;0.3834;-0.7936;
748.8000;0.3883;-0.7862;
749.1000;0.3842;-0.7936;
749.4000;0.3834;-0.7912;
749.7000;0.3842;-0.7862;
750.0000;0.3850;-0.7813;
750.3000;0.3834;-0.7764;
750.6000;0.3810;-0.7862;
750.9000;0.3842;-0.7764;
751.2000;0.3850;-0.7739;
751.5000;0.3842;-0.7714;
751.8000;0.3818;-0.7813;
752.1000;0.3826;-0.7813;
752.4000;0.3793;-0.7838;
752.7000;0.3826;-0.7714;
753.0000;0.3834;-0.7739;
753.3000;0.3834;-0.7739;
753.6000;0.3834;-0.7813;
753.9000;0.3842;-0.7862;
754.2000;0.3834;-0.7936;
754.5000;0.3858;-0.7887;
754.8000;0.3826;-0.7961;
755.1000;0.3834;-0.7936;
755.4000;0.3818;-0.7887;
755.7000;0.3826;-0.7838;
756.0000;0.3826;-0.7813;
756.3000;0.3842;-0.7764;
756.6000;0.3842;-0.7714;
756.9000;0.3826;-0.7838;
757.2000;0.3826;-0.7813;
757.5000;0.3842;-0.7813;
757.8000;0.3801;-0.7912;
758.1000;0.3810;-0.7936;
758.4000;0.3850;-0.7936;
758.7000;0.3818;-0.7887;
759.0000;0.3834;-0.7912;
759.3000;0.3810;-0.7887;
759.6000;0.3826;-0.7838;
759.9000;0.3818;-0.7862;
760.2000;0.3818;-0.7788;
760.5000;0.3842;-0.7788;
760.8000;0.3769;-0.7862;
761.1000;0.3818;-0.7690;
761.4000;0.3826;-0.7616;
761.7000;0.3801;-0.7640;
762.0000;0.3818;-0.7640;
762.3000;0.3826;-0.7616;
762.6000;0.3834;-0.7566;
762.9000;0.3810;-0.7764;
763.2000;0.3810;-0.7788;
763.5000;0.3769;-0.7887;
763.8000;0.3834;-0.7665;
764.1000;0.3818;-0.7690;
764.4000;0.3801;-0.7714;
764.7000;0.3810;-0.7714;
765.0000;0.3801;-0.7739;
765.3000;0.3818;-0.7714;
765.6000;0.3818;-0.7690;
765.9000;0.3801;-0.7690;
766.2000;0.3850;-0.7591;
766.5000;0.3867;-0.7542;
766.8000;0.3834;-0.7690;
767.1000;0.3842;-0.7665;
767.4000;0.3810;-0.7739;
767.7000;0.3826;-0.7714;
768.0000;0.3818;-0.7764;
768.3000;0.3818;-0.7838;
768.6000;0.3785;-0.7912;
768.9000;0.3818;-0.7838;
769.2000;0.3818;-0.7838;
769.5000;0.3834;-0.7813;
769.8000;0.3793;-0.7936;
770.1000;0.3826;-0.7887;
770.4000;0.3826;-0.7961;
770.7000;0.3793;-0.7985;
771.0000;0.3801;-0.7961;
771.3000;0.3801;-0.7862;
771.6000;0.3728;-0.8109;
771.9000;0.3793;-0.7912;
772.2000;0.3810;-0.7862;
772.5000;0.3875;-0.7764;
772.8000;0.3801;-0.7936;
773.1000;0.3793;-0.7912;
773.4000;0.3801;-0.7912;
773.7000;0.3826;-0.7912;
774.0000;0.3810;-0.7985;
774.3000;0.3785;-0.7936;
774.6000;0.3761;-0.7838;
774.9000;0.3777;-0.7936;
775.2000;0.3761;-0.7985;
775.5000;0.3777;-0.7936;
775.8000;0.3736;-0.7961;
776.1000;0.3810;-0.7739;
776.4000;0.3785;-0.7714;
776.7000;0.3826;-0.7566;
777.0000;0.3793;-0.7591;
777.3000;0.3801;-0.7616;
777.6000;0.3818;-0.7690;
777.9000;0.3785;-0.7788;
778.2000;0.3793;-0.7813;
778.5000;0.3777;-0.7887;
778.8000;0.3785;-0.7862;
779.1000;0.3810;-0.7862;
779.4000;0.3810;-0.7862;
779.7000;0.3793;-0.7961;
780.0000;0.3801;-0.7912;
780.3000;0.3834;-0.7764;
780.6000;0.3801;-0.7813;
780.9000;0.3793;-0.7862;
781.2000;0.3720;-0.7985;
781.5000;0.3793;-0.7788;
781.8000;0.3818;-0.7788;
782.1000;0.3801;-0.7862;
782.4000;0.3818;-0.7764;
782.7000;0.3801;-0.7764;
783.0000;0.3801;-0.7739;
783.3000;0.3793;-0.7813;
783.6000;0.3793;-0.7788;
783.9000;0.3793;-0.7813;
784.2000;0.3785;-0.7739;
784.5000;0.3785;-0.7566;
784.8000;0.3793;-0.7542;
785.1000;0.3785;-0.7443;
785.4000;0.3793;-0.7517;
785.7000;0.3793;-0.7542;
786.0000;0.3801;-0.7493;
786.3000;0.3777;-0.7566;
786.6000;0.3777;-0.7640;
786.9000;0.3744;-0.7665;
787.2000;0.3769;-0.7690;
787.5000;0.3761;-0.7764;
787.8000;0.3769;-0.7714;
788.1000;0.3793;-0.7690;
788.4000;0.3785;-0.7739;
788.7000;0.3793;-0.7690;
789.0000;0.3785;-0.7640;
789.3000;0.3834;-0.7566;
789.6000;0.3810;-0.7640;
789.9000;0.3704;-0.8010;
790.2000;0.3785;-0.7813;
790.5000;0.3793;-0.7690;
790.8000;0.3801;-0.7665;
791.1000;0.3801;-0.7714;
791.4000;0.3793;-0.7813;
791.7000;0.3793;-0.7813;
792.0000;0.3818;-0.7813;
792.3000;0.3753;-0.7813;
792.6000;0.3777;-0.7690;
792.9000;0.3785;-0.7739;
793.2000;0.3801;-0.7665;
793.5000;0.3777;-0.7616;
793.8000;0.3777;-0.7665;
794.1000;0.3777;-0.7764;
794.4000;0.3793;-0.7690;
794.7000;0.3753;-0.7764;
795.0000;0.3777;-0.7739;
795.3000;0.3753;-0.7764;
795.6000;0.3777;-0.7764;
795.9000;0.3801;-0.7665;
796.2000;0.3769;-0.7690;
796.5000;0.3769;-0.7788;
796.8000;0.3769;-0.7813;
797.1000;0.3769;-0.7764;
797.4000;0.3769;-0.7764;
797.7000;0.3736;-0.7838;
798.0000;0.3761;-0.7813;
798.3000;0.3761;-0.7788;
798.6000;0.3810;-0.7566;
798.9000;0.3753;-0.7714;
799.2000;0.3777;-0.7616;
799.5000;0.3777;-0.7764;
799.8000;0.3753;-0.7788;
800.1000;0.3728;-0.7764;
800.4000;0.3761;-0.7591;
800.7000;0.3858;-0.7246;
801.0000;0.3753;-0.7493;
801.3000;0.3801;-0.7443;
801.6000;0.3744;-0.7591;
801.9000;0.3777;-0.7591;
802.2000;0.3785;-0.7591;
802.5000;0.3761;-0.7665;
802.8000;0.3761;-0.7665;
803.1000;0.3777;-0.7640;
803.4000;0.3777;-0.7690;
803.7000;0.3769;-0.7640;
804.0000;0.3777;-0.7493;
804.3000;0.3769;-0.7566;
804.6000;0.3793;-0.7468;
804.9000;0.3785;-0.7468;
805.2000;0.3777;-0.7419;
805.5000;0.3769;-0.7468;
805.8000;0.3777;-0.7394;
806.1000;0.3728;-0.7542;
806.4000;0.3761;-0.7468;
806.7000;0.3769;-0.7443;
807.0000;0.3777;-0.7517;
807.3000;0.3736;-0.7542;
807.6000;0.3761;-0.7542;
807.9000;0.3744;-0.7468;
808.2000;0.3761;-0.7468;
808.5000;0.3769;-0.7493;
808.8000;0.3753;-0.7566;
809.1000;0.3761;-0.7493;
809.4000;0.3753;-0.7566;
809.7000;0.3777;-0.7517;
810.0000;0.3769;-0.7443;
810.3000;0.3777;-0.7468;
810.6000;0.3769;-0.7468;
810.9000;0.3777;-0.7517;
811.2000;0.3769;-0.7566;
811.5000;0.3761;-0.7616;
811.8000;0.3834;-0.7468;
812.1000;0.3785;-0.7517;
812.4000;0.3769;-0.7542;
812.7000;0.3761;-0.7517;
813.0000;0.3777;-0.7468;
813.3000;0.3744;-0.7517;
813.6000;0.3777;-0.7443;
813.9000;0.3761;-0.7468;
814.2000;0.3663;-0.7739;
814.5000;0.3842;-0.7369;
814.8000;0.3712;-0.7764;
815.1000;0.3720;-0.7862;
815.4000;0.3753;-0.7714;
815.7000;0.3761;-0.7591;
816.0000;0.3793;-0.7443;
816.3000;0.3818;-0.7394;
816.6000;0.3769;-0.7566;
816.9000;0.3753;-0.7665;
817.2000;0.3736;-0.7739;
817.5000;0.3761;-0.7591;
817.8000;0.3728;-0.7640;
818.1000;0.3769;-0.7542;
818.4000;0.3761;-0.7542;
818.7000;0.3769;-0.7542;
819.0000;0.3793;-0.7394;
819.3000;0.3761;-0.7566;
819.6000;0.3793;-0.7493;
819.9000;0.3728;-0.7591;
820.2000;0.3769;-0.7517;
820.5000;0.3753;-0.7566;
820.8000;0.3785;-0.7493;
821.1000;0.3761;-0.7566;
821.4000;0.3769;-0.7616;
821.7000;0.3761;-0.7665;
822.0000;0.3753;-0.7665;
822.3000;0.3744;-0.7616;
822.6000;0.3769;-0.7665;
822.9000;0.3761;-0.7764;
823.2000;0.3728;-0.7862;
823.5000;0.3826;-0.7690;
823.8000;0.3761;-0.7912;
824.1000;0.3777;-0.7862;
824.4000;0.3777;-0.7887;
824.7000;0.3761;-0.7912;
825.0000;0.3744;-0.7936;
825.3000;0.3753;-0.7912;
825.6000;0.3769;-0.7887;
825.9000;0.3761;-0.7862;
826.2000;0.3761;-0.7714;
826.5000;0.3769;-0.7591;
826.8000;0.3753;-0.7690;
827.1000;0.3753;-0.7764;
827.4000;0.3744;-0.7764;
827.7000;0.3769;-0.7616;
828.0000;0.3753;-0.7665;
828.3000;0.3753;-0.7665;
828.6000;0.3769;-0.7566;
828.9000;0.3769;-0.7468;
829.2000;0.3720;-0.7591;
829.5000;0.3753;-0.7468;
829.8000;0.3769;-0.7493;
830.1000;0.3761;-0.7493;
830.4000;0.3744;-0.7566;
830.7000;0.3744;-0.7517;
831.0000;0.3761;-0.7517;
831.3000;0.3761;-0.7616;
831.6000;0.3753;-0.7517;
831.9000;0.3761;-0.7542;
832.2000;0.3736;-0.7566;
832.5000;0.3728;-0.7616;
832.8000;0.3744;-0.7640;
833.1000;0.3744;-0.7714;
833.4000;0.3736;-0.7616;
833.7000;0.3736;-0.7566;
834.0000;0.3744;-0.7493;
834.3000;0.3736;-0.7517;
834.6000;0.3753;-0.7591;
834.9000;0.3744;-0.7591;
835.2000;0.3744;-0.7616;
835.5000;0.3744;-0.7640;
835.8000;0.3655;-0.7862;
836.1000;0.3720;-0.7690;
836.4000;0.3753;-0.7566;
836.7000;0.3753;-0.7517;
837.0000;0.3744;-0.7517;
837.3000;0.3753;-0.7566;
837.6000;0.3744;-0.7640;
837.9000;0.3753;-0.7616;
838.2000;0.3744;-0.7640;
838.5000;0.3777;-0.7640;
838.8000;0.3736;-0.7714;
839.1000;0.3761;-0.7714;
839.4000;0.3761;-0.7690;
839.7000;0.3761;-0.7739;
840.0000;0.3720;-0.7862;
840.3000;0.3769;-0.7764;
840.6000;0.3744;-0.7764;
840.9000;0.3744;-0.7739;
841.2000;0.3728;-0.7690;
841.5000;0.3744;-0.7665;
841.8000;0.3753;-0.7690;
842.1000;0.3769;-0.7665;
842.4000;0.3720;-0.7788;
842.7000;0.3744;-0.7739;
843.0000;0.3793;-0.7591;
843.3000;0.3720;-0.7739;
843.6000;0.3777;-0.7542;
843.9000;0.3744;-0.7616;
844.2000;0.3753;-0.7616;
844.5000;0.3720;-0.7739;
844.8000;0.3753;-0.7665;
845.1000;0.3761;-0.7616;
845.4000;0.3744;-0.7739;
845.7000;0.3744;-0.7739;
846.0000;0.3761;-0.7739;
846.3000;0.3777;-0.7813;
846.6000;0.3753;-0.7912;
846.9000;0.3744;-0.7788;
847.2000;0.3704;-0.7838;
847.5000;0.3720;-0.7788;
847.8000;0.3761;-0.7764;
848.1000;0.3777;-0.7714;
848.4000;0.3736;-0.7788;
848.7000;0.3736;-0.7764;
849.0000;0.3687;-0.7862;
849.3000;0.3728;-0.7690;
849.6000;0.3744;-0.7591;
849.9000;0.3728;-0.7591;
850.2000;0.3736;-0.7616;
850.5000;0.3728;-0.7640;
850.8000;0.3753;-0.7591;
851.1000;0.3744;-0.7616;
851.4000;0.3744;-0.7591;
851.7000;0.3744;-0.7616;
852.0000;0.3744;-0.7690;
852.3000;0.3810;-0.7566;
852.6000;0.3736;-0.7788;
852.9000;0.3736;-0.7764;
853.2000;0.3696;-0.7788;
853.5000;0.3687;-0.7813;
853.8000;0.3687;-0.7788;
854.1000;0.3720;-0.7640;
854.4000;0.3696;-0.7690;
854.7000;0.3720;-0.7690;
855.0000;0.3720;-0.7690;
855.3000;0.3720;-0.7690;
855.6000;0.3696;-0.7838;
855.9000;0.3687;-0.7961;
856.2000;0.3728;-0.7838;
856.5000;0.3720;-0.7862;
856.8000;0.3655;-0.8059;
857.1000;0.3744;-0.7813;
857.4000;0.3696;-0.7862;
857.7000;0.3736;-0.7813;
858.0000;0.3736;-0.7813;
858.3000;0.3753;-0.7714;
858.6000;0.3753;-0.7690;
858.9000;0.3728;-0.7739;
859.2000;0.3712;-0.7813;
859.5000;0.3753;-0.7739;
859.8000;0.3744;-0.7640;
860.1000;0.3744;-0.7591;
860.4000;0.3736;-0.7591;
860.7000;0.3736;-0.7665;
861.0000;0.3761;-0.7690;
861.3000;0.3736;-0.7690;
861.6000;0.3712;-0.7714;
861.9000;0.3704;-0.7739;
862.2000;0.3736;-0.7665;
862.5000;0.3793;-0.7616;
862.8000;0.3744;-0.7690;
863.1000;0.3704;-0.7838;
863.4000;0.3744;-0.7764;
863.7000;0.3720;-0.7813;
864.0000;0.3712;-0.7764;
864.3000;0.3736;-0.7714;
864.6000;0.3728;-0.7714;
864.9000;0.3736;-0.7640;
865.2000;0.3720;-0.7665;
865.5000;0.3696;-0.7542;
865.8000;0.3720;-0.7517;
866.1000;0.3753;-0.7566;
866.4000;0.3728;-0.7616;
866.7000;0.3744;-0.7616;
867.0000;0.3720;-0.7640;
867.3000;0.3655;-0.7788;
867.6000;0.3744;-0.7714;
867.9000;0.3655;-0.8010;
868.2000;0.3704;-0.7813;
868.5000;0.3728;-0.7714;
868.8000;0.3728;-0.7665;
869.1000;0.3712;-0.7813;
869.4000;0.3728;-0.7838;
869.7000;0.3720;-0.7862;
870.0000;0.3720;-0.7862;
870.3000;0.3728;-0.7862;
870.6000;0.3720;-0.7961;
870.9000;0.3712;-0.7985;
871.2000;0.3744;-0.7838;
871.5000;0.3712;-0.7961;
871.8000;0.3736;-0.7961;
872.1000;0.3753;-0.7936;
872.4000;0.3753;-0.7961;
872.7000;0.3728;-0.7985;
873.0000;0.3744;-0.7862;
873.3000;0.3728;-0.7862;
873.6000;0.3736;-0.7887;
873.9000;0.3720;-0.7985;
874.2000;0.3728;-0.7912;
874.5000;0.3696;-0.7936;
874.8000;0.3736;-0.7838;
875.1000;0.3728;-0.7813;
875.4000;0.3736;-0.7764;
875.7000;0.3687;-0.7961;
876.0000;0.3671;-0.7985;
876.3000;0.3744;-0.7813;
876.6000;0.3736;-0.7838;
876.9000;0.3728;-0.7862;
877.2000;0.3712;-0.7936;
877.5000;0.3728;-0.7912;
877.8000;0.3728;-0.7912;
878.1000;0.3744;-0.7887;
878.4000;0.3696;-0.8059;
878.7000;0.3696;-0.8158;
879.0000;0.3720;-0.8158;
879.3000;0.3704;-0.8207;
879.6000;0.3728;-0.8183;
879.9000;0.3712;-0.8035;
880.2000;0.3728;-0.7936;
880.5000;0.3728;-0.7862;
880.8000;0.3728;-0.7887;
881.1000;0.3728;-0.7838;
881.4000;0.3769;-0.7739;
881.7000;0.3736;-0.7764;
882.0000;0.3777;-0.7690;
882.3000;0.3712;-0.7788;
882.6000;0.3728;-0.7838;
882.9000;0.3736;-0.7788;
883.2000;0.3720;-0.7813;
883.5000;0.3753;-0.7714;
883.8000;0.3712;-0.7739;
884.1000;0.3736;-0.7714;
884.4000;0.3761;-0.7764;
884.7000;0.3712;-0.8010;
885.0000;0.3728;-0.7912;
885.3000;0.3744;-0.7887;
885.6000;0.3728;-0.7912;
885.9000;0.3704;-0.7961;
886.2000;0.3720;-0.7887;
886.5000;0.3720;-0.7862;
886.8000;0.3720;-0.7838;
887.1000;0.3712;-0.7838;
887.4000;0.3728;-0.7640;
887.7000;0.3728;-0.7542;
888.0000;0.3793;-0.7345;
888.3000;0.3671;-0.7591;
888.6000;0.3704;-0.7517;
888.9000;0.3728;-0.7443;
889.2000;0.3777;-0.7369;
889.5000;0.3704;-0.7640;
889.8000;0.3728;-0.7591;
890.1000;0.3753;-0.7517;
890.4000;0.3720;-0.7616;
890.7000;0.3704;-0.7640;
891.0000;0.3696;-0.7640;
891.3000;0.3704;-0.7690;
891.6000;0.3720;-0.7640;
891.9000;0.3712;-0.7665;
892.2000;0.3736;-0.7665;
892.5000;0.3704;-0.7690;
892.8000;0.3793;-0.7566;
893.1000;0.3720;-0.7714;
893.4000;0.3720;-0.7764;
893.7000;0.3712;-0.7788;
894.0000;0.3736;-0.7714;
894.3000;0.3647;-0.7961;
894.6000;0.3712;-0.7862;
894.9000;0.3769;-0.7739;
895.2000;0.3720;-0.7887;
895.5000;0.3720;-0.7838;
895.8000;0.3704;-0.7813;
896.1000;0.3728;-0.7690;
896.4000;0.3736;-0.7616;
896.7000;0.3728;-0.7714;
897.0000;0.3728;-0.7739;
897.3000;0.3744;-0.7616;
897.6000;0.3728;-0.7542;
897.9000;0.3712;-0.7542;
898.2000;0.3696;-0.7517;
898.5000;0.3712;-0.7517;
898.8000;0.3712;-0.7591;
899.1000;0.3704;-0.7640;
899.4000;0.3720;-0.7690;
899.7000;0.3728;-0.7566;
900.0000;0.3720;-0.7665;
900.3000;0.3736;-0.7616;
900.6000;0.3687;-0.7690;
900.9000;0.3801;-0.7369;
901.2000;0.3687;-0.7714;
901.5000;0.3712;-0.7714;
901.8000;0.3720;-0.7764;
902.1000;0.3687;-0.7862;
902.4000;0.3753;-0.7640;
902.7000;0.3687;-0.7813;
903.0000;0.3728;-0.7764;
903.3000;0.3720;-0.7788;
903.6000;0.3728;-0.7788;
903.9000;0.3696;-0.7764;
904.2000;0.3720;-0.7665;
904.5000;0.3753;-0.7517;
904.8000;0.3728;-0.7616;
905.1000;0.3720;-0.7665;
905.4000;0.3728;-0.7690;
905.7000;0.3696;-0.7714;
906.0000;0.3720;-0.7566;
906.3000;0.3696;-0.7616;
906.6000;0.3712;-0.7542;
906.9000;0.3704;-0.7591;
907.2000;0.3728;-0.7542;
907.5000;0.3696;-0.7616;
907.8000;0.3720;-0.7690;
908.1000;0.3712;-0.7764;
908.4000;0.3736;-0.7838;
908.7000;0.3712;-0.7838;
909.0000;0.3793;-0.7566;
909.3000;0.3720;-0.7739;
909.6000;0.3704;-0.7690;
909.9000;0.3712;-0.7665;
910.2000;0.3712;-0.7690;
910.5000;0.3720;-0.7690;
910.8000;0.3696;-0.7739;
911.1000;0.3712;-0.7714;
911.4000;0.3704;-0.7764;
911.7000;0.3720;-0.7690;
912.0000;0.3744;-0.7640;
912.3000;0.3720;-0.7739;
912.6000;0.3712;-0.7690;
912.9000;0.3712;-0.7665;
913.2000;0.3736;-0.7640;
913.5000;0.3712;-0.7640;
913.8000;0.3704;-0.7616;
914.1000;0.3679;-0.7665;
914.4000;0.3712;-0.7591;
914.7000;0.3704;-0.7542;
915.0000;0.3704;-0.7468;
915.3000;0.3679;-0.7443;
915.6000;0.3663;-0.7542;
915.9000;0.3712;-0.7419;
916.2000;0.3712;-0.7443;
916.5000;0.3704;-0.7542;
916.8000;0.3671;-0.7690;
917.1000;0.3728;-0.7616;
917.4000;0.3720;-0.7640;
917.7000;0.3704;-0.7665;
918.0000;0.3712;-0.7665;
918.3000;0.3736;-0.7566;
918.6000;0.3712;-0.7640;
918.9000;0.3704;-0.7714;
919.2000;0.3696;-0.7764;
919.5000;0.3720;-0.7690;
919.8000;0.3736;-0.7714;
920.1000;0.3712;-0.7739;
920.4000;0.3720;-0.7616;
920.7000;0.3720;-0.7591;
921.0000;0.3712;-0.7665;
921.3000;0.3671;-0.7690;
921.6000;0.3720;-0.7591;
921.9000;0.3687;-0.7665;
922.2000;0.3704;-0.7542;
922.5000;0.3704;-0.7493;
922.8000;0.3671;-0.7517;
923.1000;0.3704;-0.7493;
923.4000;0.3712;-0.7468;
923.7000;0.3687;-0.7591;
924.0000;0.3687;-0.7616;
924.3000;0.3687;-0.7714;
924.6000;0.3720;-0.7542;
924.9000;0.3696;-0.7542;
925.2000;0.3712;-0.7443;
925.5000;0.3679;-0.7369;
925.8000;0.3696;-0.7221;
926.1000;0.3704;-0.7197;
926.4000;0.3736;-0.7123;
926.7000;0.3704;-0.7320;
927.0000;0.3704;-0.7443;
927.3000;0.3712;-0.7517;
927.6000;0.3687;-0.7640;
927.9000;0.3761;-0.7419;
928.2000;0.3720;-0.7443;
928.5000;0.3712;-0.7443;
928.8000;0.3785;-0.7221;
929.1000;0.3769;-0.7221;
929.4000;0.3687;-0.7443;
929.7000;0.3704;-0.7394;
930.0000;0.3753;-0.7147;
930.3000;0.3696;-0.7295;
930.6000;0.3704;-0.7295;
930.9000;0.3712;-0.7345;
931.2000;0.3785;-0.7172;
931.5000;0.3720;-0.7246;
931.8000;0.3704;-0.7369;
932.1000;0.3696;-0.7345;
932.4000;0.3679;-0.7345;
932.7000;0.3696;-0.7345;
933.0000;0.3598;-0.7640;
933.3000;0.3712;-0.7369;
933.6000;0.3704;-0.7271;
933.9000;0.3712;-0.7419;
934.2000;0.3704;-0.7394;
934.5000;0.3704;-0.7369;
934.8000;0.3704;-0.7320;
935.1000;0.3704;-0.7419;
935.4000;0.3696;-0.7419;
935.7000;0.3687;-0.7468;
936.0000;0.3696;-0.7419;
936.3000;0.3736;-0.7419;
936.6000;0.3744;-0.7320;
936.9000;0.3712;-0.7443;
937.2000;0.3687;-0.7369;
937.5000;0.3704;-0.7419;
937.8000;0.3704;-0.7493;
938.1000;0.3696;-0.7665;
938.4000;0.3704;-0.7640;
938.7000;0.3696;-0.7591;
939.0000;0.3704;-0.7616;
939.3000;0.3696;-0.7542;
939.6000;0.3647;-0.7542;
939.9000;0.3712;-0.7468;
940.2000;0.3696;-0.7517;
940.5000;0.3687;-0.7616;
940.8000;0.3728;-0.7542;
941.1000;0.3696;-0.7640;
941.4000;0.3736;-0.7542;
941.7000;0.3712;-0.7517;
942.0000;0.3679;-0.7493;
942.3000;0.3704;-0.7419;
942.6000;0.3704;-0.7320;
942.9000;0.3704;-0.7345;
943.2000;0.3687;-0.7517;
943.5000;0.3687;-0.7394;
943.8000;0.3712;-0.7394;
944.1000;0.3720;-0.7419;
944.4000;0.3712;-0.7443;
944.7000;0.3687;-0.7419;
945.0000;0.3720;-0.7345;
945.3000;0.3679;-0.7369;
945.6000;0.3671;-0.7394;
945.9000;0.3679;-0.7369;
946.2000;0.3679;-0.7419;
946.5000;0.3736;-0.7345;
946.8000;0.3671;-0.7493;
947.1000;0.3696;-0.7468;
947.4000;0.3720;-0.7468;
947.7000;0.3704;-0.7591;
948.0000;0.3679;-0.7690;
948.3000;0.3687;-0.7714;
948.6000;0.3679;-0.7665;
948.9000;0.3687;-0.7616;
949.2000;0.3671;-0.7665;
949.5000;0.3590;-0.7887;
949.8000;0.3696;-0.7468;
950.1000;0.3679;-0.7443;
950.4000;0.3704;-0.7419;
950.7000;0.3679;-0.7493;
951.0000;0.3671;-0.7640;
951.3000;0.3687;-0.7566;
951.6000;0.3687;-0.7493;
951.9000;0.3679;-0.7566;
952.2000;0.3687;-0.7493;
952.5000;0.3687;-0.7394;
952.8000;0.3687;-0.7419;
953.1000;0.3728;-0.7369;
953.4000;0.3671;-0.7443;
953.7000;0.3696;-0.7394;
954.0000;0.3696;-0.7369;
954.3000;0.3671;-0.7419;
954.6000;0.3687;-0.7369;
954.9000;0.3679;-0.7419;
955.2000;0.3696;-0.7443;
955.5000;0.3696;-0.7468;
955.8000;0.3687;-0.7493;
956.1000;0.3663;-0.7493;
956.4000;0.3696;-0.7443;
956.7000;0.3679;-0.7443;
957.0000;0.3696;-0.7542;
957.3000;0.3647;-0.7665;
957.6000;0.3687;-0.7542;
957.9000;0.3728;-0.7443;
958.2000;0.3704;-0.7566;
958.5000;0.3687;-0.7542;
958.8000;0.3687;-0.7468;
959.1000;0.3687;-0.7542;
959.4000;0.3704;-0.7566;
959.7000;0.3696;-0.7739;
960.0000;0.3696;-0.7690;
960.3000;0.3687;-0.7591;
960.6000;0.3679;-0.7493;
960.9000;0.3655;-0.7542;
961.2000;0.3647;-0.7690;
961.5000;0.3679;-0.7640;
961.8000;0.3663;-0.7714;
962.1000;0.3728;-0.7542;
962.4000;0.3687;-0.7640;
962.7000;0.3663;-0.7739;
963.0000;0.3696;-0.7739;
963.3000;0.3696;-0.7788;
963.6000;0.3696;-0.7838;
963.9000;0.3704;-0.7714;
964.2000;0.3679;-0.7690;
964.5000;0.3687;-0.7714;
964.8000;0.3696;-0.7862;
965.1000;0.3712;-0.7714;
965.4000;0.3687;-0.7690;
965.7000;0.3679;-0.7665;
966.0000;0.3655;-0.7690;
966.3000;0.3679;-0.7591;
966.6000;0.3679;-0.7566;
966.9000;0.3704;-0.7468;
967.2000;0.3687;-0.7566;
967.5000;0.3712;-0.7468;
967.8000;0.3712;-0.7345;
968.1000;0.3728;-0.7295;
968.4000;0.3655;-0.7493;
968.7000;0.3720;-0.7271;
969.0000;0.3696;-0.7271;
969.3000;0.3679;-0.7295;
969.6000;0.3655;-0.7394;
969.9000;0.3696;-0.7345;
970.2000;0.3687;-0.7320;
970.5000;0.3704;-0.7345;
970.8000;0.3687;-0.7517;
971.1000;0.3663;-0.7616;
971.4000;0.3647;-0.7665;
971.7000;0.3663;-0.7542;
972.0000;0.3679;-0.7566;
972.3000;0.3679;-0.7542;
972.6000;0.3671;-0.7591;
972.9000;0.3696;-0.7616;
973.2000;0.3687;-0.7517;
973.5000;0.3728;-0.7419;
973.8000;0.3696;-0.7493;
974.1000;0.3687;-0.7419;
974.4000;0.3704;-0.7345;
974.7000;0.3696;-0.7345;
975.0000;0.3679;-0.7443;
975.3000;0.3728;-0.7320;
975.6000;0.3679;-0.7468;
975.9000;0.3712;-0.7394;
976.2000;0.3671;-0.7591;
976.5000;0.3679;-0.7493;
976.8000;0.3687;-0.7468;
977.1000;0.3671;-0.7468;
977.4000;0.3696;-0.7394;
977.7000;0.3687;-0.7369;
978.0000;0.3720;-0.7295;
978.3000;0.3793;-0.7123;
978.6000;0.3704;-0.7394;
978.9000;0.3696;-0.7443;
979.2000;0.3704;-0.7345;
979.5000;0.3687;-0.7419;
979.8000;0.3704;-0.7468;
980.1000;0.3663;-0.7591;
980.4000;0.3696;-0.7517;
980.7000;0.3687;-0.7517;
981.0000;0.3679;-0.7591;
981.3000;0.3663;-0.7714;
981.6000;0.3647;-0.7690;
981.9000;0.3671;-0.7640;
982.2000;0.3704;-0.7616;
982.5000;0.3696;-0.7591;
982.8000;0.3663;-0.7517;
983.1000;0.3679;-0.7468;
983.4000;0.3704;-0.7419;
983.7000;0.3687;-0.7394;
984.0000;0.3671;-0.7345;
984.3000;0.3655;-0.7493;
984.6000;0.3687;-0.7320;
984.9000;0.3671;-0.7394;
985.2000;0.3704;-0.7320;
985.5000;0.3679;-0.7394;
985.8000;0.3687;-0.7443;
986.1000;0.3736;-0.7345;
986.4000;0.3679;-0.7468;
986.7000;0.3696;-0.7468;
987.0000;0.3671;-0.7493;
987.3000;0.3687;-0.7419;
987.6000;0.3679;-0.7419;
987.9000;0.3687;-0.7345;
988.2000;0.3663;-0.7345;
988.5000;0.3704;-0.7295;
988.8000;0.3687;-0.7345;
989.1000;0.3687;-0.7394;
989.4000;0.3696;-0.7419;
989.7000;0.3696;-0.7443;
990.0000;0.3704;-0.7419;
990.3000;0.3696;-0.7566;
990.6000;0.3671;-0.7542;
990.9000;0.3687;-0.7542;
991.2000;0.3687;-0.7493;
991.5000;0.3671;-0.7493;
991.8000;0.3696;-0.7394;
992.1000;0.3671;-0.7419;
992.4000;0.3622;-0.7542;
992.7000;0.3679;-0.7419;
993.0000;0.3679;-0.7394;
993.3000;0.3704;-0.7419;
993.6000;0.3696;-0.7493;
993.9000;0.3712;-0.7419;
994.2000;0.3679;-0.7468;
994.5000;0.3687;-0.7493;
994.8000;0.3696;-0.7468;
995.1000;0.3696;-0.7394;
995.4000;0.3687;-0.7320;
995.7000;0.3687;-0.7295;
996.0000;0.3679;-0.7295;
996.3000;0.3687;-0.7345;
996.6000;0.3687;-0.7345;
996.9000;0.3671;-0.7369;
997.2000;0.3696;-0.7271;
997.5000;0.3639;-0.7443;
997.8000;0.3663;-0.7271;
998.1000;0.3679;-0.7295;
998.4000;0.3712;-0.7246;
998.7000;0.3687;-0.7295;
999.0000;0.3647;-0.7468;
999.3000;0.3655;-0.7517;
999.6000;0.3679;-0.7443;
999.9000;0.3704;-0.7394;
1000.2000;0.3679;-0.7493;
1000.5000;0.3679;-0.7493;
1000.8000;0.3687;-0.7591;
1001.1000;0.3696;-0.7566;
1001.4000;0.3679;-0.7493;
1001.7000;0.3671;-0.7443;
1002.0000;0.3687;-0.7443;
1002.3000;0.3753;-0.7295;
1002.6000;0.3679;-0.7443;
1002.9000;0.3687;-0.7394;
1003.2000;0.3679;-0.7443;
1003.5000;0.3679;-0.7394;
1003.8000;0.3687;-0.7295;
1004.1000;0.3712;-0.7295;
1004.4000;0.3679;-0.7419;
1004.7000;0.3647;-0.7468;
1005.0000;0.3696;-0.7443;
1005.3000;0.3671;-0.7443;
1005.6000;0.3671;-0.7443;
1005.9000;0.3671;-0.7566;
1006.2000;0.3687;-0.7517;
1006.5000;0.3679;-0.7616;
1006.8000;0.3679;-0.7591;
1007.1000;0.3647;-0.7591;
1007.4000;0.3671;-0.7468;
1007.7000;0.3687;-0.7419;
1008.0000;0.3663;-0.7419;
1008.3000;0.3671;-0.7517;
1008.6000;0.3687;-0.7591;
1008.9000;0.3679;-0.7616;
1009.2000;0.3728;-0.7493;
1009.5000;0.3696;-0.7665;
1009.8000;0.3679;-0.7640;
1010.1000;0.3728;-0.7493;
1010.4000;0.3679;-0.7616;
1010.7000;0.3687;-0.7566;
1011.0000;0.3679;-0.7640;
1011.3000;0.3671;-0.7665;
1011.6000;0.3696;-0.7714;
1011.9000;0.3687;-0.7714;
1012.2000;0.3663;-0.7665;
1012.5000;0.3696;-0.7493;
1012.8000;0.3687;-0.7566;
1013.1000;0.3696;-0.7591;
1013.4000;0.3687;-0.7566;
1013.7000;0.3696;-0.7493;
1014.0000;0.3728;-0.7493;
1014.3000;0.3704;-0.7542;
1014.6000;0.3687;-0.7517;
1014.9000;0.3679;-0.7517;
1015.2000;0.3696;-0.7542;
1015.5000;0.3704;-0.7443;
1015.8000;0.3647;-0.7542;
1016.1000;0.3663;-0.7517;
1016.4000;0.3671;-0.7542;
1016.7000;0.3679;-0.7468;
1017.0000;0.3720;-0.7419;
1017.3000;0.3679;-0.7566;
1017.6000;0.3663;-0.7542;
1017.9000;0.3663;-0.7591;
1018.2000;0.3785;-0.7246;
1018.5000;0.3663;-0.7468;
1018.8000;0.3655;-0.7517;
1019.1000;0.3687;-0.7443;
1019.4000;0.3687;-0.7394;
1019.7000;0.3687;-0.7493;
1020.0000;0.3647;-0.7640;
1020.3000;0.3704;-0.7591;
1020.6000;0.3687;-0.7542;
1020.9000;0.3704;-0.7542;
1021.2000;0.3679;-0.7640;
1021.5000;0.3687;-0.7591;
1021.8000;0.3704;-0.7517;
1022.1000;0.3696;-0.7443;
1022.4000;0.3696;-0.7443;
1022.7000;0.3647;-0.7468;
1023.0000;0.3687;-0.7345;
1023.3000;0.3696;-0.7295;
1023.6000;0.3679;-0.7419;
1023.9000;0.3687;-0.7443;
1024.2000;0.3663;-0.7468;
1024.5000;0.3696;-0.7419;
1024.8000;0.3679;-0.7468;
1025.1000;0.3687;-0.7468;
1025.4000;0.3647;-0.7616;
1025.7000;0.3679;-0.7591;
1026.0000;0.3663;-0.7690;
1026.3000;0.3679;-0.7690;
1026.6000;0.3663;-0.7591;
1026.9000;0.3655;-0.7616;
1027.2000;0.3663;-0.7566;
1027.5000;0.3663;-0.7517;
1027.8000;0.3671;-0.7468;
1028.1000;0.3663;-0.7517;
1028.4000;0.3671;-0.7468;
1028.7000;0.3655;-0.7394;
1029.0000;0.3671;-0.7394;
1029.3000;0.3696;-0.7394;
1029.6000;0.3671;-0.7419;
1029.9000;0.3671;-0.7369;
1030.2000;0.3679;-0.7394;
1030.5000;0.3679;-0.7345;
1030.8000;0.3712;-0.7369;
1031.1000;0.3687;-0.7369;
1031.4000;0.3663;-0.7419;
1031.7000;0.3630;-0.7542;
1032.0000;0.3671;-0.7443;
1032.3000;0.3679;-0.7443;
1032.6000;0.3663;-0.7419;
1032.9000;0.3671;-0.7419;
1033.2000;0.3696;-0.7394;
1033.5000;0.3679;-0.7419;
1033.8000;0.3679;-0.7419;
1034.1000;0.3696;-0.7419;
1034.4000;0.3687;-0.7493;
1034.7000;0.3679;-0.7517;
1035.0000;0.3671;-0.7517;
1035.3000;0.3663;-0.7468;
1035.6000;0.3671;-0.7394;
1035.9000;0.3671;-0.7443;
1036.2000;0.3679;-0.7394;
1036.5000;0.3679;-0.7419;
1036.8000;0.3671;-0.7443;
1037.1000;0.3679;-0.7493;
1037.4000;0.3647;-0.7591;
1037.7000;0.3663;-0.7591;
1038.0000;0.3687;-0.7591;
1038.3000;0.3687;-0.7542;
1038.6000;0.3696;-0.7468;
1038.9000;0.3639;-0.7566;
1039.2000;0.3687;-0.7443;
1039.5000;0.3639;-0.7542;
1039.8000;0.3663;-0.7493;
1040.1000;0.3663;-0.7542;
1040.4000;0.3712;-0.7419;
1040.7000;0.3679;-0.7443;
1041.0000;0.3696;-0.7443;
1041.3000;0.3663;-0.7394;
1041.6000;0.3679;-0.7369;
1041.9000;0.3696;-0.7369;
1042.2000;0.3622;-0.7566;
1042.5000;0.3769;-0.7172;
1042.8000;0.3671;-0.7443;
1043.1000;0.3671;-0.7369;
1043.4000;0.3671;-0.7468;
1043.7000;0.3687;-0.7443;
1044.0000;0.3671;-0.7443;
1044.3000;0.3647;-0.7468;
1044.6000;0.3663;-0.7419;
1044.9000;0.3639;-0.7468;
1045.2000;0.3671;-0.7443;
1045.5000;0.3663;-0.7468;
1045.8000;0.3663;-0.7591;
1046.1000;0.3671;-0.7591;
1046.4000;0.3671;-0.7566;
1046.7000;0.3671;-0.7542;
1047.0000;0.3614;-0.7690;
1047.3000;0.3696;-0.7566;
1047.6000;0.3663;-0.7591;
1047.9000;0.3663;-0.7616;
1048.2000;0.3663;-0.7591;
1048.5000;0.3679;-0.7542;
1048.8000;0.3679;-0.7517;
1049.1000;0.3565;-0.7862;
1049.4000;0.3671;-0.7517;
1049.7000;0.3663;-0.7517;
1050.0000;0.3696;-0.7369;
1050.3000;0.3679;-0.7443;
1050.6000;0.3712;-0.7271;
1050.9000;0.3687;-0.7221;
1051.2000;0.3647;-0.7369;
1051.5000;0.3679;-0.7345;
1051.8000;0.3777;-0.7123;
1052.1000;0.3663;-0.7419;
1052.4000;0.3679;-0.7345;
1052.7000;0.3622;-0.7443;
1053.0000;0.3655;-0.7369;
1053.3000;0.3655;-0.7394;
1053.6000;0.3663;-0.7542;
1053.9000;0.3606;-0.7665;
1054.2000;0.3647;-0.7566;
1054.5000;0.3655;-0.7542;
1054.8000;0.3696;-0.7443;
1055.1000;0.3663;-0.7591;
1055.4000;0.3696;-0.7542;
1055.7000;0.3606;-0.7714;
1056.0000;0.3647;-0.7616;
1056.3000;0.3655;-0.7640;
1056.6000;0.3679;-0.7591;
1056.9000;0.3663;-0.7542;
1057.2000;0.3671;-0.7493;
1057.5000;0.3687;-0.7419;
1057.8000;0.3687;-0.7320;
1058.1000;0.3687;-0.7345;
1058.4000;0.3679;-0.7345;
1058.7000;0.3663;-0.7443;
1059.0000;0.3663;-0.7468;
1059.3000;0.3647;-0.7517;
1059.6000;0.3655;-0.7616;
1059.9000;0.3728;-0.7394;
1060.2000;0.3671;-0.7591;
1060.5000;0.3671;-0.7566;
1060.8000;0.3655;-0.7517;
1061.1000;0.3679;-0.7542;
1061.4000;0.3671;-0.7468;
1061.7000;0.3671;-0.7468;
1062.0000;0.3639;-0.7517;
1062.3000;0.3696;-0.7345;
1062.6000;0.3647;-0.7394;
1062.9000;0.3663;-0.7394;
1063.2000;0.3663;-0.7468;
1063.5000;0.3687;-0.7295;
1063.8000;0.3687;-0.7345;
1064.1000;0.3655;-0.7419;
1064.4000;0.3647;-0.7419;
1064.7000;0.3679;-0.7369;
1065.0000;0.3679;-0.7369;
1065.3000;0.3663;-0.7394;
1065.6000;0.3687;-0.7468;
1065.9000;0.3679;-0.7616;
1066.2000;0.3728;-0.7493;
1066.5000;0.3744;-0.7419;
1066.8000;0.3671;-0.7714;
1067.1000;0.3687;-0.7690;
1067.4000;0.3655;-0.7616;
1067.7000;0.3655;-0.7616;
1068.0000;0.3704;-0.7517;
1068.3000;0.3655;-0.7591;
1068.6000;0.3671;-0.7591;
1068.9000;0.3630;-0.7714;
1069.2000;0.3663;-0.7542;
1069.5000;0.3655;-0.7542;
1069.8000;0.3622;-0.7714;
1070.1000;0.3663;-0.7566;
1070.4000;0.3671;-0.7640;
1070.7000;0.3647;-0.7764;
1071.0000;0.3728;-0.7616;
1071.3000;0.3671;-0.7739;
1071.6000;0.3687;-0.7665;
1071.9000;0.3647;-0.7665;
1072.2000;0.3744;-0.7369;
1072.5000;0.3663;-0.7468;
1072.8000;0.3647;-0.7517;
1073.1000;0.3663;-0.7419;
1073.4000;0.3663;-0.7419;
1073.7000;0.3671;-0.7394;
1074.0000;0.3728;-0.7345;
1074.3000;0.3687;-0.7566;
1074.6000;0.3663;-0.7690;
1074.9000;0.3655;-0.7665;
1075.2000;0.3671;-0.7591;
1075.5000;0.3687;-0.7542;
1075.8000;0.3622;-0.7714;
1076.1000;0.3655;-0.7640;
1076.4000;0.3679;-0.7616;
1076.7000;0.3671;-0.7714;
1077.0000;0.3655;-0.7690;
1077.3000;0.3639;-0.7616;
1077.6000;0.3614;-0.7739;
1077.9000;0.3687;-0.7517;
1078.2000;0.3679;-0.7493;
1078.5000;0.3647;-0.7517;
1078.8000;0.3655;-0.7493;
1079.1000;0.3647;-0.7517;
1079.4000;0.3663;-0.7591;
1079.7000;0.3655;-0.7690;
1080.0000;0.3647;-0.7690;
1080.3000;0.3687;-0.7640;
1080.6000;0.3679;-0.7616;
1080.9000;0.3663;-0.7591;
1081.2000;0.3679;-0.7493;
1081.5000;0.3696;-0.7468;
1081.8000;0.3590;-0.7813;
1082.1000;0.3663;-0.7566;
1082.4000;0.3671;-0.7493;
1082.7000;0.3671;-0.7591;
1083.0000;0.3679;-0.7566;
1083.3000;0.3671;-0.7591;
1083.6000;0.3663;-0.7591;
1083.9000;0.3679;-0.7517;
1084.2000;0.3671;-0.7443;
1084.5000;0.3679;-0.7468;
1084.8000;0.3671;-0.7517;
1085.1000;0.3655;-0.7517;
1085.4000;0.3736;-0.7197;
1085.7000;0.3671;-0.7394;
1086.0000;0.3671;-0.7443;
1086.3000;0.3679;-0.7320;
1086.6000;0.3679;-0.7369;
1086.9000;0.3663;-0.7369;
1087.2000;0.3647;-0.7394;
1087.5000;0.3663;-0.7443;
1087.8000;0.3655;-0.7468;
1088.1000;0.3663;-0.7468;
1088.4000;0.3679;-0.7443;
1088.7000;0.3655;-0.7542;
1089.0000;0.3687;-0.7443;
1089.3000;0.3687;-0.7345;
1089.6000;0.3655;-0.7394;
1089.9000;0.3720;-0.7271;
1090.2000;0.3671;-0.7443;
1090.5000;0.3671;-0.7419;
1090.8000;0.3687;-0.7443;
1091.1000;0.3655;-0.7517;
1091.4000;0.3712;-0.7394;
1091.7000;0.3663;-0.7493;
1092.0000;0.3671;-0.7468;
1092.3000;0.3671;-0.7517;
1092.6000;0.3663;-0.7591;
1092.9000;0.3647;-0.7665;
1093.2000;0.3630;-0.7714;
1093.5000;0.3614;-0.7690;
1093.8000;0.3639;-0.7616;
1094.1000;0.3671;-0.7542;
1094.4000;0.3630;-0.7665;
1094.7000;0.3671;-0.7517;
1095.0000;0.3614;-0.7640;
1095.3000;0.3679;-0.7542;
1095.6000;0.3671;-0.7591;
1095.9000;0.3679;-0.7640;
1096.2000;0.3679;-0.7640;
1096.5000;0.3671;-0.7690;
1096.8000;0.3671;-0.7616;
1097.1000;0.3655;-0.7591;
1097.4000;0.3679;-0.7591;
1097.7000;0.3647;-0.7566;
1098.0000;0.3663;-0.7517;
1098.3000;0.3679;-0.7468;
1098.6000;0.3671;-0.7517;
1098.9000;0.3647;-0.7517;
1099.2000;0.3712;-0.7345;
1099.5000;0.3663;-0.7443;
1099.8000;0.3647;-0.7468;
1100.1000;0.3639;-0.7443;
1100.4000;0.3663;-0.7295;
1100.7000;0.3655;-0.7295;
1101.0000;0.3663;-0.7295;
1101.3000;0.3687;-0.7221;
1101.6000;0.3679;-0.7295;
1101.9000;0.3663;-0.7369;
1102.2000;0.3663;-0.7345;
1102.5000;0.3671;-0.7369;
1102.8000;0.3655;-0.7443;
1103.1000;0.3663;-0.7517;
1103.4000;0.3622;-0.7566;
1103.7000;0.3663;-0.7517;
1104.0000;0.3663;-0.7493;
1104.3000;0.3655;-0.7493;
1104.6000;0.3663;-0.7517;
1104.9000;0.3655;-0.7419;
1105.2000;0.3663;-0.7443;
1105.5000;0.3655;-0.7468;
1105.8000;0.3777;-0.7172;
1106.1000;0.3671;-0.7468;
1106.4000;0.3663;-0.7517;
1106.7000;0.3671;-0.7517;
1107.0000;0.3687;-0.7493;
1107.3000;0.3655;-0.7493;
1107.6000;0.3679;-0.7443;
1107.9000;0.3687;-0.7443;
1108.2000;0.3671;-0.7493;
1108.5000;0.3671;-0.7517;
1108.8000;0.3679;-0.7517;
1109.1000;0.3655;-0.7493;
1109.4000;0.3663;-0.7493;
1109.7000;0.3679;-0.7542;
1110.0000;0.3647;-0.7690;
1110.3000;0.3655;-0.7714;
1110.6000;0.3663;-0.7591;
1110.9000;0.3671;-0.7616;
1111.2000;0.3712;-0.7468;
1111.5000;0.3671;-0.7542;
1111.8000;0.3614;-0.7690;
1112.1000;0.3655;-0.7517;
1112.4000;0.3622;-0.7591;
1112.7000;0.3663;-0.7566;
1113.0000;0.3663;-0.7517;
1113.3000;0.3614;-0.7640;
1113.6000;0.3655;-0.7566;
1113.9000;0.3671;-0.7591;
1114.2000;0.3663;-0.7591;
1114.5000;0.3639;-0.7714;
1114.8000;0.3671;-0.7665;
1115.1000;0.3663;-0.7739;
1115.4000;0.3630;-0.7912;
1115.7000;0.3663;-0.7862;
1116.0000;0.3663;-0.7912;
1116.3000;0.3655;-0.7912;
1116.6000;0.3655;-0.7887;
1116.9000;0.3655;-0.7912;
1117.2000;0.3679;-0.7838;
1117.5000;0.3655;-0.7912;
1117.8000;0.3671;-0.7813;
1118.1000;0.3655;-0.7739;
1118.4000;0.3663;-0.7788;
1118.7000;0.3671;-0.7788;
1119.0000;0.3663;-0.7714;
1119.3000;0.3671;-0.7616;
1119.6000;0.3630;-0.7665;
1119.9000;0.3663;-0.7566;
1120.2000;0.3679;-0.7517;
1120.5000;0.3663;-0.7616;
1120.8000;0.3687;-0.7665;
1121.1000;0.3663;-0.7665;
1121.4000;0.3663;-0.7616;
1121.7000;0.3639;-0.7640;
1122.0000;0.3639;-0.7714;
1122.3000;0.3679;-0.7542;
1122.6000;0.3663;-0.7591;
1122.9000;0.3663;-0.7566;
1123.2000;0.3663;-0.7566;
1123.5000;0.3663;-0.7616;
1123.8000;0.3696;-0.7493;
1124.1000;0.3663;-0.7493;
1124.4000;0.3655;-0.7419;
1124.7000;0.3639;-0.7443;
1125.0000;0.3647;-0.7443;
1125.3000;0.3639;-0.7493;
1125.6000;0.3647;-0.7542;
1125.9000;0.3655;-0.7517;
1126.2000;0.3639;-0.7542;
1126.5000;0.3679;-0.7419;
1126.8000;0.3671;-0.7468;
1127.1000;0.3663;-0.7468;
1127.4000;0.3663;-0.7419;
1127.7000;0.3663;-0.7419;
1128.0000;0.3606;-0.7616;
1128.3000;0.3655;-0.7443;
1128.6000;0.3663;-0.7419;
1128.9000;0.3671;-0.7443;
1129.2000;0.3606;-0.7591;
1129.5000;0.3655;-0.7542;
1129.8000;0.3671;-0.7443;
1130.1000;0.3671;-0.7468;
1130.4000;0.3671;-0.7468;
1130.7000;0.3655;-0.7542;
1131.0000;0.3639;-0.7566;
1131.3000;0.3647;-0.7517;
1131.6000;0.3663;-0.7419;
1131.9000;0.3647;-0.7542;
1132.2000;0.3696;-0.7419;
1132.5000;0.3679;-0.7542;
1132.8000;0.3655;-0.7591;
1133.1000;0.3671;-0.7566;
1133.4000;0.3720;-0.7419;
1133.7000;0.3671;-0.7566;
1134.0000;0.3671;-0.7542;
1134.3000;0.3704;-0.7419;
1134.6000;0.3663;-0.7591;
1134.9000;0.3647;-0.7690;
1135.2000;0.3671;-0.7542;
1135.5000;0.3639;-0.7542;
1135.8000;0.3655;-0.7517;
1136.1000;0.3647;-0.7566;
1136.4000;0.3663;-0.7542;
1136.7000;0.3671;-0.7566;
1137.0000;0.3663;-0.7640;
1137.3000;0.3655;-0.7640;
1137.6000;0.3671;-0.7616;
1137.9000;0.3679;-0.7665;
1138.2000;0.3663;-0.7591;
1138.5000;0.3687;-0.7493;
1138.8000;0.3663;-0.7542;
1139.1000;0.3671;-0.7517;
1139.4000;0.3663;-0.7591;
1139.7000;0.3663;-0.7566;
1140.0000;0.3663;-0.7542;
1140.3000;0.3647;-0.7468;
1140.6000;0.3671;-0.7468;
1140.9000;0.3630;-0.7640;
1141.2000;0.3639;-0.7640;
1141.5000;0.3728;-0.7394;
1141.8000;0.3663;-0.7616;
1142.1000;0.3655;-0.7640;
1142.4000;0.3663;-0.7616;
1142.7000;0.3663;-0.7542;
1143.0000;0.3655;-0.7517;
1143.3000;0.3630;-0.7640;
1143.6000;0.3663;-0.7591;
1143.9000;0.3687;-0.7616;
1144.2000;0.3639;-0.7714;
1144.5000;0.3663;-0.7566;
1144.8000;0.3639;-0.7616;
1145.1000;0.3663;-0.7616;
1145.4000;0.3663;-0.7542;
1145.7000;0.3663;-0.7542;
1146.0000;0.3744;-0.7345;
1146.3000;0.3639;-0.7517;
1146.6000;0.3655;-0.7542;
1146.9000;0.3679;-0.7517;
1147.2000;0.3679;-0.7468;
1147.5000;0.3655;-0.7468;
1147.8000;0.3663;-0.7468;
1148.1000;0.3663;-0.7419;
1148.4000;0.3663;-0.7468;
1148.7000;0.3622;-0.7566;
1149.0000;0.3655;-0.7468;
1149.3000;0.3663;-0.7419;
1149.6000;0.3655;-0.7468;
1149.9000;0.3647;-0.7517;
1150.2000;0.3671;-0.7517;
1150.5000;0.3663;-0.7566;
1150.8000;0.3736;-0.7443;
1151.1000;0.3655;-0.7640;
1151.4000;0.3655;-0.7591;
1151.7000;0.3663;-0.7591;
1152.0000;0.3663;-0.7493;
1152.3000;0.3655;-0.7566;
1152.6000;0.3647;-0.7616;
1152.9000;0.3736;-0.7468;
1153.2000;0.3663;-0.7764;
1153.5000;0.3663;-0.7764;
1153.8000;0.3647;-0.7764;
1154.1000;0.3663;-0.7714;
1154.4000;0.3655;-0.7788;
1154.7000;0.3655;-0.7764;
1155.0000;0.3663;-0.7690;
1155.3000;0.3671;-0.7665;
1155.6000;0.3671;-0.7542;
1155.9000;0.3663;-0.7542;
1156.2000;0.3671;-0.7566;
1156.5000;0.3671;-0.7493;
1156.8000;0.3614;-0.7591;
1157.1000;0.3573;-0.7764;
1157.4000;0.3647;-0.7616;
1157.7000;0.3655;-0.7591;
1158.0000;0.3663;-0.7665;
1158.3000;0.3679;-0.7616;
1158.6000;0.3671;-0.7616;
1158.9000;0.3663;-0.7616;
1159.2000;0.3647;-0.7616;
1159.5000;0.3663;-0.7591;
1159.8000;0.3696;-0.7566;
1160.1000;0.3671;-0.7566;
1160.4000;0.3655;-0.7591;
1160.7000;0.3647;-0.7616;
1161.0000;0.3655;-0.7566;
1161.3000;0.3671;-0.7566;
1161.6000;0.3655;-0.7640;
1161.9000;0.3663;-0.7665;
1162.2000;0.3663;-0.7640;
1162.5000;0.3712;-0.7640;
1162.8000;0.3663;-0.7690;
1163.1000;0.3671;-0.7616;
1163.4000;0.3647;-0.7665;
1163.7000;0.3647;-0.7714;
1164.0000;0.3663;-0.7739;
1164.3000;0.3655;-0.7690;
1164.6000;0.3671;-0.7640;
1164.9000;0.3663;-0.7616;
1165.2000;0.3655;-0.7616;
1165.5000;0.3663;-0.7566;
1165.8000;0.3663;-0.7616;
1166.1000;0.3671;-0.7443;
1166.4000;0.3647;-0.7468;
1166.7000;0.3630;-0.7493;
1167.0000;0.3663;-0.7493;
1167.3000;0.3639;-0.7616;
1167.6000;0.3663;-0.7566;
1167.9000;0.3671;-0.7542;
1168.2000;0.3598;-0.7813;
1168.5000;0.3671;-0.7640;
1168.8000;0.3696;-0.7591;
1169.1000;0.3663;-0.7665;
1169.4000;0.3663;-0.7665;
1169.7000;0.3655;-0.7714;
1170.0000;0.3679;-0.7690;
1170.3000;0.3655;-0.7616;
1170.6000;0.3655;-0.7566;
1170.9000;0.3655;-0.7542;
1171.2000;0.3671;-0.7542;
1171.5000;0.3647;-0.7616;
1171.8000;0.3728;-0.7369;
1172.1000;0.3639;-0.7468;
1172.4000;0.3663;-0.7443;
1172.7000;0.3622;-0.7517;
1173.0000;0.3647;-0.7443;
1173.3000;0.3647;-0.7369;
1173.6000;0.3761;-0.7147;
1173.9000;0.3663;-0.7468;
1174.2000;0.3671;-0.7443;
1174.5000;0.3655;-0.7591;
1174.8000;0.3671;-0.7493;
1175.1000;0.3663;-0.7394;
1175.4000;0.3639;-0.7443;
1175.7000;0.3614;-0.7493;
1176.0000;0.3655;-0.7345;
1176.3000;0.3647;-0.7271;
1176.6000;0.3647;-0.7369;
1176.9000;0.3663;-0.7369;
1177.2000;0.3663;-0.7345;
1177.5000;0.3663;-0.7419;
1177.8000;0.3647;-0.7394;
1178.1000;0.3655;-0.7493;
1178.4000;0.3655;-0.7517;
1178.7000;0.3630;-0.7714;
1179.0000;0.3639;-0.7714;
1179.3000;0.3655;-0.7764;
1179.6000;0.3639;-0.7838;
1179.9000;0.3663;-0.7788;
1180.2000;0.3655;-0.7764;
1180.5000;0.3655;-0.7813;
1180.8000;0.3696;-0.7690;
1181.1000;0.3671;-0.7739;
1181.4000;0.3639;-0.7788;
1181.7000;0.3622;-0.7714;
1182.0000;0.3655;-0.7640;
1182.3000;0.3647;-0.7566;
1182.6000;0.3655;-0.7542;
1182.9000;0.3590;-0.7739;
1183.2000;0.3565;-0.7788;
1183.5000;0.3655;-0.7566;
1183.8000;0.3663;-0.7566;
1184.1000;0.3679;-0.7443;
1184.4000;0.3687;-0.7394;
1184.7000;0.3679;-0.7345;
1185.0000;0.3663;-0.7394;
1185.3000;0.3622;-0.7493;
1185.6000;0.3655;-0.7493;
1185.9000;0.3655;-0.7419;
1186.2000;0.3614;-0.7493;
1186.5000;0.3639;-0.7394;
1186.8000;0.3663;-0.7394;
1187.1000;0.3622;-0.7468;
1187.4000;0.3622;-0.7542;
1187.7000;0.3663;-0.7493;
1188.0000;0.3679;-0.7443;
1188.3000;0.3647;-0.7616;
1188.6000;0.3655;-0.7517;
1188.9000;0.3704;-0.7369;
1189.2000;0.3671;-0.7443;
1189.5000;0.3655;-0.7468;
1189.8000;0.3663;-0.7493;
1190.1000;0.3663;-0.7443;
1190.4000;0.3663;-0.7493;
1190.7000;0.3647;-0.7566;
1191.0000;0.3687;-0.7517;
1191.3000;0.3639;-0.7542;
1191.6000;0.3655;-0.7517;
1191.9000;0.3663;-0.7542;
1192.2000;0.3647;-0.7616;
1192.5000;0.3655;-0.7566;
1192.8000;0.3647;-0.7616;
1193.1000;0.3647;-0.7566;
1193.4000;0.3655;-0.7493;
1193.7000;0.3671;-0.7419;
1194.0000;0.3663;-0.7443;
1194.3000;0.3671;-0.7493;
1194.6000;0.3647;-0.7517;
1194.9000;0.3639;-0.7468;
1195.2000;0.3630;-0.7443;
1195.5000;0.3639;-0.7394;
1195.8000;0.3549;-0.7665;
1196.1000;0.3639;-0.7443;
1196.4000;0.3630;-0.7443;
1196.7000;0.3639;-0.7468;
1197.0000;0.3655;-0.7443;
1197.3000;0.3663;-0.7468;
1197.6000;0.3647;-0.7493;
1197.9000;0.3753;-0.7271;
1198.2000;0.3671;-0.7345;
1198.5000;0.3647;-0.7443;
1198.8000;0.3663;-0.7394;
1199.1000;0.3663;-0.7394;
1199.4000;0.3647;-0.7419;
1199.7000;0.3655;-0.7345;
1200.0000;0.3655;-0.7394;
1200.3000;0.3663;-0.7419;
1200.6000;0.3598;-0.7640;
1200.9000;0.3606;-0.7616;
1201.2000;0.3696;-0.7443;
1201.5000;0.3696;-0.7468;
1201.8000;0.3696;-0.7443;
1202.1000;0.3647;-0.7542;
1202.4000;0.3647;-0.7517;
1202.7000;0.3647;-0.7517;
1203.0000;0.3663;-0.7468;
1203.3000;0.3655;-0.7443;
1203.6000;0.3639;-0.7394;
1203.9000;0.3663;-0.7419;
1204.2000;0.3622;-0.7493;
1204.5000;0.3639;-0.7468;
1204.8000;0.3647;-0.7566;
1205.1000;0.3655;-0.7542;
1205.4000;0.3647;-0.7517;
1205.7000;0.3639;-0.7394;
1206.0000;0.3647;-0.7419;
1206.3000;0.3622;-0.7468;
1206.6000;0.3655;-0.7345;
1206.9000;0.3639;-0.7345;
1207.2000;0.3622;-0.7320;
1207.5000;0.3639;-0.7295;
1207.8000;0.3647;-0.7345;
1208.1000;0.3663;-0.7345;
1208.4000;0.3639;-0.7443;
1208.7000;0.3655;-0.7443;
1209.0000;0.3647;-0.7394;
1209.3000;0.3663;-0.7394;
1209.6000;0.3655;-0.7419;
1209.9000;0.3655;-0.7419;
1210.2000;0.3679;-0.7443;
1210.5000;0.3639;-0.7566;
1210.8000;0.3736;-0.7369;
1211.1000;0.3630;-0.7517;
1211.4000;0.3639;-0.7542;
1211.7000;0.3663;-0.7369;
1212.0000;0.3639;-0.7493;
1212.3000;0.3663;-0.7493;
1212.6000;0.3655;-0.7468;
1212.9000;0.3655;-0.7394;
1213.2000;0.3663;-0.7443;
1213.5000;0.3655;-0.7443;
1213.8000;0.3655;-0.7493;
1214.1000;0.3671;-0.7468;
1214.4000;0.3647;-0.7468;
1214.7000;0.3704;-0.7320;
1215.0000;0.3663;-0.7369;
1215.3000;0.3655;-0.7320;
1215.6000;0.3655;-0.7295;
1215.9000;0.3639;-0.7419;
1216.2000;0.3639;-0.7468;
1216.5000;0.3655;-0.7468;
1216.8000;0.3647;-0.7394;
1217.1000;0.3639;-0.7369;
1217.4000;0.3639;-0.7419;
1217.7000;0.3655;-0.7443;
1218.0000;0.3647;-0.7542;
1218.3000;0.3639;-0.7542;
1218.6000;0.3704;-0.7419;
1218.9000;0.3647;-0.7493;
1219.2000;0.3647;-0.7542;
1219.5000;0.3647;-0.7591;
1219.8000;0.3647;-0.7591;
1220.1000;0.3655;-0.7517;
1220.4000;0.3647;-0.7566;
1220.7000;0.3687;-0.7419;
1221.0000;0.3655;-0.7468;
1221.3000;0.3671;-0.7468;
1221.6000;0.3655;-0.7542;
1221.9000;0.3663;-0.7517;
1222.2000;0.3655;-0.7542;
1222.5000;0.3639;-0.7640;
1222.8000;0.3655;-0.7591;
1223.1000;0.3639;-0.7566;
1223.4000;0.3679;-0.7468;
1223.7000;0.3655;-0.7616;
1224.0000;0.3655;-0.7690;
1224.3000;0.3663;-0.7566;
1224.6000;0.3704;-0.7468;
1224.9000;0.3655;-0.7493;
1225.2000;0.3614;-0.7493;
1225.5000;0.3630;-0.7369;
1225.8000;0.3647;-0.7443;
1226.1000;0.3647;-0.7394;
1226.4000;0.3655;-0.7369;
1226.7000;0.3630;-0.7419;
1227.0000;0.3647;-0.7394;
1227.3000;0.3655;-0.7394;
1227.6000;0.3647;-0.7468;
1227.9000;0.3712;-0.7345;
1228.2000;0.3671;-0.7369;
1228.5000;0.3655;-0.7345;
1228.8000;0.3647;-0.7394;
1229.1000;0.3622;-0.7468;
1229.4000;0.3647;-0.7419;
1229.7000;0.3655;-0.7369;
1230.0000;0.3639;-0.7419;
1230.3000;0.3663;-0.7369;
1230.6000;0.3663;-0.7419;
1230.9000;0.3663;-0.7443;
1231.2000;0.3655;-0.7394;
1231.5000;0.3679;-0.7419;
1231.8000;0.3663;-0.7493;
1232.1000;0.3639;-0.7542;
1232.4000;0.3671;-0.7419;
1232.7000;0.3671;-0.7419;
1233.0000;0.3687;-0.7394;
1233.3000;0.3663;-0.7443;
1233.6000;0.3671;-0.7419;
1233.9000;0.3655;-0.7394;
1234.2000;0.3655;-0.7320;
1234.5000;0.3647;-0.7345;
1234.8000;0.3671;-0.7345;
1235.1000;0.3687;-0.7221;
1235.4000;0.3671;-0.7369;
1235.7000;0.3639;-0.7517;
1236.0000;0.3647;-0.7493;
1236.3000;0.3647;-0.7493;
1236.6000;0.3655;-0.7517;
1236.9000;0.3663;-0.7591;
1237.2000;0.3655;-0.7616;
1237.5000;0.3655;-0.7591;
1237.8000;0.3655;-0.7517;
1238.1000;0.3679;-0.7443;
1238.4000;0.3655;-0.7517;
1238.7000;0.3655;-0.7468;
1239.0000;0.3655;-0.7419;
1239.3000;0.3630;-0.7517;
1239.6000;0.3590;-0.7640;
1239.9000;0.3639;-0.7468;
1240.2000;0.3639;-0.7493;
1240.5000;0.3647;-0.7468;
1240.8000;0.3630;-0.7468;
1241.1000;0.3647;-0.7443;
1241.4000;0.3663;-0.7468;
1241.7000;0.3639;-0.7566;
1242.0000;0.3630;-0.7517;
1242.3000;0.3655;-0.7443;
1242.6000;0.3630;-0.7493;
1242.9000;0.3630;-0.7468;
1243.2000;0.3647;-0.7295;
1243.5000;0.3630;-0.7394;
1243.8000;0.3663;-0.7295;
1244.1000;0.3639;-0.7369;
1244.4000;0.3655;-0.7345;
1244.7000;0.3663;-0.7394;
1245.0000;0.3663;-0.7394;
1245.3000;0.3655;-0.7320;
1245.6000;0.3671;-0.7123;
1245.9000;0.3647;-0.7172;
1246.2000;0.3671;-0.7221;
1246.5000;0.3639;-0.7345;
1246.8000;0.3639;-0.7443;
1247.1000;0.3671;-0.7394;
1247.4000;0.3614;-0.7566;
1247.7000;0.3630;-0.7493;
1248.0000;0.3647;-0.7493;
1248.3000;0.3647;-0.7419;
1248.6000;0.3639;-0.7394;
1248.9000;0.3647;-0.7345;
1249.2000;0.3655;-0.7320;
1249.5000;0.3582;-0.7517;
1249.8000;0.3663;-0.7320;
1250.1000;0.3663;-0.7246;
1250.4000;0.3663;-0.7295;
1250.7000;0.3639;-0.7271;
1251.0000;0.3639;-0.7295;
1251.3000;0.3655;-0.7295;
1251.6000;0.3671;-0.7295;
1251.9000;0.3622;-0.7419;
1252.2000;0.3663;-0.7369;
1252.5000;0.3655;-0.7295;
1252.8000;0.3655;-0.7394;
1253.1000;0.3639;-0.7419;
1253.4000;0.3647;-0.7369;
1253.7000;0.3655;-0.7369;
1254.0000;0.3655;-0.7345;
1254.3000;0.3647;-0.7443;
1254.6000;0.3647;-0.7468;
1254.9000;0.3671;-0.7345;
1255.2000;0.3655;-0.7345;
1255.5000;0.3647;-0.7468;
1255.8000;0.3655;-0.7369;
1256.1000;0.3630;-0.7566;
1256.4000;0.3671;-0.7468;
1256.7000;0.3663;-0.7443;
1257.0000;0.3639;-0.7542;
1257.3000;0.3663;-0.7616;
1257.6000;0.3671;-0.7591;
1257.9000;0.3655;-0.7566;
1258.2000;0.3647;-0.7443;
1258.5000;0.3655;-0.7394;
1258.8000;0.3639;-0.7468;
1259.1000;0.3647;-0.7419;
1259.4000;0.3655;-0.7419;
1259.7000;0.3622;-0.7419;
1260.0000;0.3655;-0.7320;
1260.3000;0.3671;-0.7246;
1260.6000;0.3647;-0.7345;
1260.9000;0.3647;-0.7369;
1261.2000;0.3712;-0.7246;
1261.5000;0.3655;-0.7394;
1261.8000;0.3663;-0.7394;
1262.1000;0.3630;-0.7468;
1262.4000;0.3639;-0.7468;
1262.7000;0.3647;-0.7345;
1263.0000;0.3639;-0.7345;
1263.3000;0.3622;-0.7394;
1263.6000;0.3639;-0.7493;
1263.9000;0.3598;-0.7566;
1264.2000;0.3736;-0.7197;
1264.5000;0.3630;-0.7493;
1264.8000;0.3671;-0.7419;
1265.1000;0.3663;-0.7443;
1265.4000;0.3663;-0.7369;
1265.7000;0.3655;-0.7345;
1266.0000;0.3663;-0.7246;
1266.3000;0.3647;-0.7271;
1266.6000;0.3647;-0.7295;
1266.9000;0.3630;-0.7419;
1267.2000;0.3630;-0.7443;
1267.5000;0.3622;-0.7345;
1267.8000;0.3639;-0.7345;
1268.1000;0.3582;-0.7493;
1268.4000;0.3655;-0.7271;
1268.7000;0.3630;-0.7295;
1269.0000;0.3639;-0.7295;
1269.3000;0.3655;-0.7295;
1269.6000;0.3655;-0.7246;
1269.9000;0.3647;-0.7246;
1270.2000;0.3647;-0.7197;
1270.5000;0.3630;-0.7197;
1270.8000;0.3655;-0.7221;
1271.1000;0.3647;-0.7295;
1271.4000;0.3671;-0.7345;
1271.7000;0.3663;-0.7468;
1272.0000;0.3639;-0.7493;
1272.3000;0.3655;-0.7468;
1272.6000;0.3655;-0.7468;
1272.9000;0.3622;-0.7566;
1273.2000;0.3647;-0.7566;
1273.5000;0.3647;-0.7640;
1273.8000;0.3647;-0.7690;
1274.1000;0.3639;-0.7640;
1274.4000;0.3696;-0.7468;
1274.7000;0.3655;-0.7616;
1275.0000;0.3655;-0.7591;
1275.3000;0.3663;-0.7665;
1275.6000;0.3655;-0.7640;
1275.9000;0.3655;-0.7591;
1276.2000;0.3663;-0.7690;
1276.5000;0.3639;-0.7640;
1276.8000;0.3647;-0.7591;
1277.1000;0.3647;-0.7542;
1277.4000;0.3630;-0.7517;
1277.7000;0.3622;-0.7566;
1278.0000;0.3639;-0.7493;
1278.3000;0.3630;-0.7542;
1278.6000;0.3647;-0.7517;
1278.9000;0.3639;-0.7443;
1279.2000;0.3671;-0.7468;
1279.5000;0.3712;-0.7394;
1279.8000;0.3639;-0.7468;
1280.1000;0.3679;-0.7369;
1280.4000;0.3704;-0.7320;
1280.7000;0.3647;-0.7566;
1281.0000;0.3630;-0.7566;
1281.3000;0.3720;-0.7369;
1281.6000;0.3655;-0.7468;
1281.9000;0.3671;-0.7419;
1282.2000;0.3679;-0.7419;
1282.5000;0.3639;-0.7566;
1282.8000;0.3663;-0.7493;
1283.1000;0.3663;-0.7468;
1283.4000;0.3655;-0.7443;
1283.7000;0.3647;-0.7443;
1284.0000;0.3655;-0.7394;
1284.3000;0.3630;-0.7468;
1284.6000;0.3647;-0.7345;
1284.9000;0.3647;-0.7419;
1285.2000;0.3647;-0.7468;
1285.5000;0.3639;-0.7419;
1285.8000;0.3622;-0.7443;
1286.1000;0.3647;-0.7443;
1286.4000;0.3639;-0.7493;
1286.7000;0.3687;-0.7369;
1287.0000;0.3655;-0.7443;
1287.3000;0.3590;-0.7566;
1287.6000;0.3687;-0.7295;
1287.9000;0.3655;-0.7419;
1288.2000;0.3744;-0.7197;
1288.5000;0.3671;-0.7493;
1288.8000;0.3630;-0.7591;
1289.1000;0.3639;-0.7591;
1289.4000;0.3655;-0.7443;
1289.7000;0.3663;-0.7394;
1290.0000;0.3696;-0.7295;
1290.3000;0.3582;-0.7665;
1290.6000;0.3647;-0.7369;
1290.9000;0.3655;-0.7443;
1291.2000;0.3671;-0.7345;
1291.5000;0.3655;-0.7345;
1291.8000;0.3647;-0.7443;
1292.1000;0.3647;-0.7295;
1292.4000;0.3679;-0.7246;
1292.7000;0.3630;-0.7419;
1293.0000;0.3598;-0.7419;
1293.3000;0.3671;-0.7197;
1293.6000;0.3647;-0.7172;
1293.9000;0.3639;-0.7098;
1294.2000;0.3639;-0.7049;
1294.5000;0.3630;-0.7049;
1294.8000;0.3687;-0.7024;
1295.1000;0.3655;-0.7221;
1295.4000;0.3622;-0.7320;
1295.7000;0.3647;-0.7345;
1296.0000;0.3655;-0.7369;
1296.3000;0.3687;-0.7271;
1296.6000;0.3663;-0.7271;
1296.9000;0.3663;-0.7295;
1297.2000;0.3639;-0.7345;
1297.5000;0.3647;-0.7345;
1297.8000;0.3647;-0.7369;
1298.1000;0.3639;-0.7320;
1298.4000;0.3639;-0.7394;
1298.7000;0.3647;-0.7369;
1299.0000;0.3630;-0.7345;
1299.3000;0.3630;-0.7394;
1299.6000;0.3647;-0.7419;
1299.9000;0.3647;-0.7419;
1300.2000;0.3647;-0.7345;
1300.5000;0.3647;-0.7468;
1300.8000;0.3663;-0.7443;
1301.1000;0.3647;-0.7443;
1301.4000;0.3679;-0.7369;
1301.7000;0.3647;-0.7394;
1302.0000;0.3655;-0.7345;
1302.3000;0.3647;-0.7197;
1302.6000;0.3655;-0.7098;
1302.9000;0.3647;-0.7147;
1303.2000;0.3647;-0.7123;
1303.5000;0.3549;-0.7443;
1303.8000;0.3647;-0.7221;
1304.1000;0.3663;-0.7271;
1304.4000;0.3622;-0.7369;
1304.7000;0.3655;-0.7271;
1305.0000;0.3647;-0.7271;
1305.3000;0.3655;-0.7320;
1305.6000;0.3630;-0.7443;
1305.9000;0.3647;-0.7419;
1306.2000;0.3647;-0.7419;
1306.5000;0.3639;-0.7419;
1306.8000;0.3696;-0.7295;
1307.1000;0.3655;-0.7443;
1307.4000;0.3647;-0.7468;
1307.7000;0.3647;-0.7369;
1308.0000;0.3655;-0.7369;
1308.3000;0.3639;-0.7443;
1308.6000;0.3647;-0.7369;
1308.9000;0.3647;-0.7369;
1309.2000;0.3647;-0.7493;
1309.5000;0.3655;-0.7468;
1309.8000;0.3614;-0.7493;
1310.1000;0.3647;-0.7369;
1310.4000;0.3639;-0.7419;
1310.7000;0.3647;-0.7517;
1311.0000;0.3614;-0.7640;
1311.3000;0.3639;-0.7566;
1311.6000;0.3639;-0.7616;
1311.9000;0.3647;-0.7517;
1312.2000;0.3744;-0.7123;
1312.5000;0.3622;-0.7419;
1312.8000;0.3614;-0.7468;
1313.1000;0.3647;-0.7394;
1313.4000;0.3655;-0.7369;
1313.7000;0.3630;-0.7493;
1314.0000;0.3655;-0.7443;
1314.3000;0.3655;-0.7419;
1314.6000;0.3639;-0.7542;
1314.9000;0.3622;-0.7566;
1315.2000;0.3639;-0.7517;
1315.5000;0.3647;-0.7542;
1315.8000;0.3647;-0.7591;
1316.1000;0.3614;-0.7566;
1316.4000;0.3696;-0.7369;
1316.7000;0.3647;-0.7566;
1317.0000;0.3630;-0.7640;
1317.3000;0.3622;-0.7640;
1317.6000;0.3598;-0.7640;
1317.9000;0.3639;-0.7517;
1318.2000;0.3622;-0.7566;
1318.5000;0.3639;-0.7566;
1318.8000;0.3622;-0.7714;
1319.1000;0.3639;-0.7640;
1319.4000;0.3647;-0.7640;
1319.7000;0.3606;-0.7665;
1320.0000;0.3647;-0.7616;
1320.3000;0.3712;-0.7640;
1320.6000;0.3663;-0.7764;
1320.9000;0.3647;-0.7764;
1321.2000;0.3639;-0.7739;
1321.5000;0.3647;-0.7616;
1321.8000;0.3647;-0.7665;
1322.1000;0.3663;-0.7764;
1322.4000;0.3647;-0.7788;
1322.7000;0.3655;-0.7714;
1323.0000;0.3655;-0.7640;
1323.3000;0.3614;-0.7665;
1323.6000;0.3639;-0.7591;
1323.9000;0.3663;-0.7566;
1324.2000;0.3647;-0.7517;
1324.5000;0.3655;-0.7468;
1324.8000;0.3647;-0.7443;
1325.1000;0.3687;-0.7320;
1325.4000;0.3655;-0.7468;
1325.7000;0.3639;-0.7468;
1326.0000;0.3647;-0.7419;
1326.3000;0.3647;-0.7419;
1326.6000;0.3639;-0.7345;
1326.9000;0.3655;-0.7246;
1327.2000;0.3639;-0.7246;
1327.5000;0.3671;-0.7295;
1327.8000;0.3655;-0.7369;
1328.1000;0.3647;-0.7419;
1328.4000;0.3655;-0.7369;
1328.7000;0.3647;-0.7369;
1329.0000;0.3655;-0.7295;
1329.3000;0.3663;-0.7320;
1329.6000;0.3655;-0.7345;
1329.9000;0.3639;-0.7468;
1330.2000;0.3639;-0.7493;
1330.5000;0.3671;-0.7369;
1330.8000;0.3639;-0.7419;
1331.1000;0.3639;-0.7443;
1331.4000;0.3630;-0.7493;
1331.7000;0.3647;-0.7369;
1332.0000;0.3647;-0.7419;
1332.3000;0.3639;-0.7443;
1332.6000;0.3639;-0.7542;
1332.9000;0.3655;-0.7419;
1333.2000;0.3639;-0.7443;
1333.5000;0.3630;-0.7493;
1333.8000;0.3639;-0.7566;
1334.1000;0.3704;-0.7468;
1334.4000;0.3647;-0.7566;
1334.7000;0.3647;-0.7517;
1335.0000;0.3639;-0.7517;
1335.3000;0.3630;-0.7468;
1335.6000;0.3639;-0.7443;
1335.9000;0.3639;-0.7369;
1336.2000;0.3622;-0.7468;
1336.5000;0.3655;-0.7394;
1336.8000;0.3647;-0.7517;
1337.1000;0.3647;-0.7493;
1337.4000;0.3679;-0.7394;
1337.7000;0.3639;-0.7419;
1338.0000;0.3647;-0.7443;
1338.3000;0.3655;-0.7468;
1338.6000;0.3663;-0.7419;
1338.9000;0.3647;-0.7493;
1339.2000;0.3630;-0.7517;
1339.5000;0.3630;-0.7542;
1339.8000;0.3639;-0.7468;
1340.1000;0.3647;-0.7493;
1340.4000;0.3639;-0.7517;
1340.7000;0.3639;-0.7566;
1341.0000;0.3647;-0.7542;
1341.3000;0.3606;-0.7665;
1341.6000;0.3606;-0.7616;
1341.9000;0.3647;-0.7517;
1342.2000;0.3622;-0.7566;
1342.5000;0.3647;-0.7616;
1342.8000;0.3639;-0.7542;
1343.1000;0.3647;-0.7493;
1343.4000;0.3655;-0.7493;
1343.7000;0.3655;-0.7493;
1344.0000;0.3639;-0.7517;
1344.3000;0.3655;-0.7443;
1344.6000;0.3663;-0.7443;
1344.9000;0.3655;-0.7493;
1345.2000;0.3647;-0.7493;
1345.5000;0.3630;-0.7394;
1345.8000;0.3712;-0.7123;
1346.1000;0.3655;-0.7246;
1346.4000;0.3582;-0.7443;
1346.7000;0.3663;-0.7271;
1347.0000;0.3630;-0.7419;
1347.3000;0.3630;-0.7419;
1347.6000;0.3630;-0.7468;
1347.9000;0.3639;-0.7542;
1348.2000;0.3639;-0.7566;
1348.5000;0.3647;-0.7493;
1348.8000;0.3630;-0.7493;
1349.1000;0.3639;-0.7542;
1349.4000;0.3639;-0.7616;
1349.7000;0.3647;-0.7616;
1350.0000;0.3614;-0.7616;
1350.3000;0.3622;-0.7591;
1350.6000;0.3639;-0.7566;
1350.9000;0.3663;-0.7517;
1351.2000;0.3622;-0.7566;
1351.5000;0.3630;-0.7493;
1351.8000;0.3639;-0.7517;
1352.1000;0.3663;-0.7443;
1352.4000;0.3639;-0.7493;
1352.7000;0.3655;-0.7468;
1353.0000;0.3639;-0.7493;
1353.3000;0.3622;-0.7517;
1353.6000;0.3647;-0.7542;
1353.9000;0.3647;-0.7665;
1354.2000;0.3630;-0.7739;
1354.5000;0.3639;-0.7764;
1354.8000;0.3655;-0.7690;
1355.1000;0.3655;-0.7616;
1355.4000;0.3663;-0.7493;
1355.7000;0.3663;-0.7468;
1356.0000;0.3655;-0.7419;
1356.3000;0.3671;-0.7394;
1356.6000;0.3639;-0.7493;
1356.9000;0.3647;-0.7517;
1357.2000;0.3704;-0.7320;
1357.5000;0.3655;-0.7468;
1357.8000;0.3639;-0.7493;
1358.1000;0.3630;-0.7542;
1358.4000;0.3639;-0.7468;
1358.7000;0.3582;-0.7443;
1359.0000;0.3598;-0.7419;
1359.3000;0.3671;-0.7246;
1359.6000;0.3647;-0.7295;
1359.9000;0.3639;-0.7419;
1360.2000;0.3639;-0.7419;
1360.5000;0.3647;-0.7345;
1360.8000;0.3630;-0.7369;
1361.1000;0.3647;-0.7394;
1361.4000;0.3630;-0.7394;
1361.7000;0.3647;-0.7394;
1362.0000;0.3598;-0.7517;
1362.3000;0.3639;-0.7468;
1362.6000;0.3639;-0.7419;
1362.9000;0.3655;-0.7369;
1363.2000;0.3590;-0.7517;
1363.5000;0.3622;-0.7320;
1363.8000;0.3647;-0.7320;
1364.1000;0.3663;-0.7271;
1364.4000;0.3639;-0.7320;
1364.7000;0.3647;-0.7295;
1365.0000;0.3687;-0.7246;
1365.3000;0.3606;-0.7493;
1365.6000;0.3744;-0.7098;
1365.9000;0.3639;-0.7369;
1366.2000;0.3630;-0.7443;
1366.5000;0.3639;-0.7493;
1366.8000;0.3639;-0.7443;
1367.1000;0.3606;-0.7517;
1367.4000;0.3655;-0.7419;
1367.7000;0.3647;-0.7493;
1368.0000;0.3655;-0.7369;
1368.3000;0.3647;-0.7394;
1368.6000;0.3655;-0.7345;
1368.9000;0.3679;-0.7271;
1369.2000;0.3647;-0.7320;
1369.5000;0.3639;-0.7394;
1369.8000;0.3655;-0.7419;
1370.1000;0.3639;-0.7345;
1370.4000;0.3622;-0.7295;
1370.7000;0.3655;-0.7271;
1371.0000;0.3647;-0.7271;
1371.3000;0.3647;-0.7147;
1371.6000;0.3639;-0.7197;
1371.9000;0.3630;-0.7221;
1372.2000;0.3639;-0.7221;
1372.5000;0.3663;-0.7197;
1372.8000;0.3663;-0.7320;
1373.1000;0.3622;-0.7493;
1373.4000;0.3647;-0.7369;
1373.7000;0.3655;-0.7419;
1374.0000;0.3639;-0.7517;
1374.3000;0.3647;-0.7517;
1374.6000;0.3663;-0.7394;
1374.9000;0.3639;-0.7419;
1375.2000;0.3663;-0.7394;
1375.5000;0.3639;-0.7369;
1375.8000;0.3663;-0.7271;
1376.1000;0.3671;-0.7197;
1376.4000;0.3639;-0.7221;
1376.7000;0.3671;-0.7246;
1377.0000;0.3622;-0.7419;
1377.3000;0.3647;-0.7320;
1377.6000;0.3639;-0.7320;
1377.9000;0.3647;-0.7246;
1378.2000;0.3663;-0.7271;
1378.5000;0.3622;-0.7246;
1378.8000;0.3639;-0.7197;
1379.1000;0.3720;-0.7074;
1379.4000;0.3639;-0.7394;
1379.7000;0.3630;-0.7443;
1380.0000;0.3647;-0.7369;
1380.3000;0.3671;-0.7295;
1380.6000;0.3630;-0.7419;
1380.9000;0.3647;-0.7394;
1381.2000;0.3614;-0.7468;
1381.5000;0.3639;-0.7369;
1381.8000;0.3557;-0.7591;
1382.1000;0.3639;-0.7320;
1382.4000;0.3647;-0.7468;
1382.7000;0.3655;-0.7369;
1383.0000;0.3712;-0.7172;
1383.3000;0.3630;-0.7394;
1383.6000;0.3630;-0.7419;
1383.9000;0.3614;-0.7493;
1384.2000;0.3622;-0.7542;
1384.5000;0.3655;-0.7369;
1384.8000;0.3630;-0.7394;
1385.1000;0.3639;-0.7419;
1385.4000;0.3671;-0.7320;
1385.7000;0.3639;-0.7394;
1386.0000;0.3671;-0.7369;
1386.3000;0.3622;-0.7517;
1386.6000;0.3639;-0.7468;
1386.9000;0.3647;-0.7591;
1387.2000;0.3647;-0.7616;
1387.5000;0.3671;-0.7468;
1387.8000;0.3630;-0.7591;
1388.1000;0.3696;-0.7443;
1388.4000;0.3582;-0.7714;
1388.7000;0.3663;-0.7517;
1389.0000;0.3573;-0.7665;
1389.3000;0.3647;-0.7517;
1389.6000;0.3647;-0.7517;
1389.9000;0.3647;-0.7591;
1390.2000;0.3663;-0.7493;
1390.5000;0.3647;-0.7517;
1390.8000;0.3720;-0.7394;
1391.1000;0.3671;-0.7419;
1391.4000;0.3687;-0.7295;
1391.7000;0.3630;-0.7419;
1392.0000;0.3630;-0.7419;
1392.3000;0.3647;-0.7394;
1392.6000;0.3630;-0.7419;
1392.9000;0.3622;-0.7616;
1393.2000;0.3655;-0.7566;
1393.5000;0.3630;-0.7591;
1393.8000;0.3639;-0.7616;
1394.1000;0.3630;-0.7640;
1394.4000;0.3630;-0.7640;
1394.7000;0.3622;-0.7640;
1395.0000;0.3639;-0.7542;
1395.3000;0.3647;-0.7468;
1395.6000;0.3639;-0.7493;
1395.9000;0.3639;-0.7443;
1396.2000;0.3573;-0.7566;
1396.5000;0.3622;-0.7517;
1396.8000;0.3655;-0.7517;
1397.1000;0.3614;-0.7616;
1397.4000;0.3606;-0.7616;
1397.7000;0.3614;-0.7640;
1398.0000;0.3647;-0.7566;
1398.3000;0.3655;-0.7616;
1398.6000;0.3647;-0.7493;
1398.9000;0.3622;-0.7542;
1399.2000;0.3655;-0.7443;
1399.5000;0.3639;-0.7493;
1399.8000;0.3671;-0.7394;
