time/ms;Fluo/V;P700 deltaI/I x10³;
-199.8000;0.1213;3.8222;
-199.5000;0.1205;3.8222;
-199.2000;0.1245;3.8325;
-198.9000;0.1205;3.8273;
-198.6000;0.1205;3.8376;
-198.3000;0.1197;3.8222;
-198.0000;0.1188;3.8248;
-197.7000;0.1213;3.8427;
-197.4000;0.1197;3.8427;
-197.1000;0.1205;3.8402;
-196.8000;0.1205;3.8325;
-196.5000;0.1188;3.8299;
-196.2000;0.1213;3.8248;
-195.9000;0.1221;3.8248;
-195.6000;0.1205;3.8222;
-195.3000;0.1213;3.8273;
-195.0000;0.1188;3.8145;
-194.7000;0.1237;3.8376;
-194.4000;0.1229;3.8248;
-194.1000;0.1229;3.8171;
-193.8000;0.1188;3.8197;
-193.5000;0.1205;3.8248;
-193.2000;0.1229;3.8273;
-192.9000;0.1205;3.8094;
-192.6000;0.1197;3.8094;
-192.3000;0.1213;3.8222;
-192.0000;0.1205;3.8197;
-191.7000;0.1188;3.8145;
-191.4000;0.1205;3.8171;
-191.1000;0.1188;3.8197;
-190.8000;0.1205;3.8248;
-190.5000;0.1188;3.8222;
-190.2000;0.1197;3.8248;
-189.9000;0.1221;3.8273;
-189.6000;0.1221;3.8197;
-189.3000;0.1205;3.8222;
-189.0000;0.1188;3.8273;
-188.7000;0.1188;3.8273;
-188.4000;0.1197;3.8273;
-188.1000;0.1221;3.8325;
-187.8000;0.1188;3.8350;
-187.5000;0.1205;3.8402;
-187.2000;0.1197;3.8402;
-186.9000;0.1205;3.8402;
-186.6000;0.1229;3.8427;
-186.3000;0.1213;3.8504;
-186.0000;0.1188;3.8350;
-185.7000;0.1197;3.8402;
-185.4000;0.1180;3.8299;
-185.1000;0.1164;3.8248;
-184.8000;0.1197;3.8402;
-184.5000;0.1205;3.8402;
-184.2000;0.1221;3.8402;
-183.9000;0.1197;3.8299;
-183.6000;0.1205;3.8376;
-183.3000;0.1099;3.7966;
-183.0000;0.1205;3.8248;
-182.7000;0.1180;3.8068;
-182.4000;0.1180;3.8120;
-182.1000;0.1205;3.8248;
-181.8000;0.1205;3.8171;
-181.5000;0.1197;3.8222;
-181.2000;0.1221;3.8350;
-180.9000;0.1197;3.8273;
-180.6000;0.1221;3.8427;
-180.3000;0.1188;3.8350;
-180.0000;0.1213;3.8402;
-179.7000;0.1205;3.8479;
-179.4000;0.1221;3.8556;
-179.1000;0.1172;3.8376;
-178.8000;0.1237;3.8581;
-178.5000;0.1213;3.8479;
-178.2000;0.1091;3.8171;
-177.9000;0.1213;3.8556;
-177.6000;0.1221;3.8581;
-177.3000;0.1213;3.8581;
-177.0000;0.1197;3.8504;
-176.7000;0.1213;3.8530;
-176.4000;0.1197;3.8530;
-176.1000;0.1197;3.8402;
-175.8000;0.1197;3.8325;
-175.5000;0.1245;3.8556;
-175.2000;0.1213;3.8427;
-174.9000;0.1066;3.8043;
-174.6000;0.1188;3.8453;
-174.3000;0.1205;3.8427;
-174.0000;0.1205;3.8376;
-173.7000;0.1197;3.8376;
-173.4000;0.1205;3.8376;
-173.1000;0.1180;3.8376;
-172.8000;0.1197;3.8427;
-172.5000;0.1221;3.8350;
-172.2000;0.1205;3.8402;
-171.9000;0.1197;3.8479;
-171.6000;0.1197;3.8479;
-171.3000;0.1237;3.8556;
-171.0000;0.1205;3.8427;
-170.7000;0.1164;3.8197;
-170.4000;0.1188;3.8248;
-170.1000;0.1205;3.8222;
-169.8000;0.1213;3.8325;
-169.5000;0.1123;3.8068;
-169.2000;0.1327;3.8658;
-168.9000;0.1213;3.8325;
-168.6000;0.1213;3.8350;
-168.3000;0.1254;3.8504;
-168.0000;0.1180;3.8402;
-167.7000;0.1197;3.8350;
-167.4000;0.1213;3.8402;
-167.1000;0.1197;3.8273;
-166.8000;0.1205;3.8299;
-166.5000;0.1197;3.8197;
-166.2000;0.1221;3.8248;
-165.9000;0.1188;3.8043;
-165.6000;0.1197;3.8017;
-165.3000;0.1205;3.8145;
-165.0000;0.1188;3.8171;
-164.7000;0.1197;3.8248;
-164.4000;0.1188;3.8325;
-164.1000;0.1237;3.8402;
-163.8000;0.1213;3.8350;
-163.5000;0.1229;3.8453;
-163.2000;0.1205;3.8376;
-162.9000;0.1205;3.8427;
-162.6000;0.1197;3.8325;
-162.3000;0.1188;3.8197;
-162.0000;0.1213;3.8222;
-161.7000;0.1205;3.8145;
-161.4000;0.1245;3.8350;
-161.1000;0.1197;3.8248;
-160.8000;0.1188;3.8197;
-160.5000;0.1205;3.8299;
-160.2000;0.1188;3.8299;
-159.9000;0.1197;3.8248;
-159.6000;0.1213;3.8222;
-159.3000;0.1188;3.8145;
-159.0000;0.1197;3.8171;
-158.7000;0.1221;3.8197;
-158.4000;0.1197;3.8145;
-158.1000;0.1164;3.8068;
-157.8000;0.1188;3.8120;
-157.5000;0.1213;3.8197;
-157.2000;0.1197;3.8171;
-156.9000;0.1188;3.8171;
-156.6000;0.1180;3.8171;
-156.3000;0.1221;3.8222;
-156.0000;0.1213;3.8197;
-155.7000;0.1197;3.8222;
-155.4000;0.1131;3.7966;
-155.1000;0.1205;3.8248;
-154.8000;0.1213;3.8273;
-154.5000;0.1197;3.8376;
-154.2000;0.1148;3.8171;
-153.9000;0.1221;3.8325;
-153.6000;0.1197;3.8222;
-153.3000;0.1254;3.8299;
-153.0000;0.1205;3.8197;
-152.7000;0.1286;3.8453;
-152.4000;0.1319;3.8504;
-152.1000;0.1229;3.8299;
-151.8000;0.1205;3.8248;
-151.5000;0.1197;3.8197;
-151.2000;0.1205;3.8222;
-150.9000;0.1197;3.8248;
-150.6000;0.1229;3.8273;
-150.3000;0.1107;3.7940;
-150.0000;0.1278;3.8453;
-149.7000;0.1221;3.8273;
-149.4000;0.1197;3.8222;
-149.1000;0.1180;3.8197;
-148.8000;0.1205;3.8273;
-148.5000;0.1213;3.8325;
-148.2000;0.1188;3.8273;
-147.9000;0.1197;3.8273;
-147.6000;0.1188;3.8350;
-147.3000;0.1221;3.8376;
-147.0000;0.1197;3.8376;
-146.7000;0.1229;3.8530;
-146.4000;0.1197;3.8453;
-146.1000;0.1205;3.8427;
-145.8000;0.1205;3.8427;
-145.5000;0.1205;3.8453;
-145.2000;0.1180;3.8402;
-144.9000;0.1197;3.8453;
-144.6000;0.1205;3.8556;
-144.3000;0.1172;3.8453;
-144.0000;0.1237;3.8735;
-143.7000;0.1213;3.8607;
-143.4000;0.1237;3.8658;
-143.1000;0.1205;3.8504;
-142.8000;0.1205;3.8504;
-142.5000;0.1197;3.8530;
-142.2000;0.1254;3.8684;
-141.9000;0.1205;3.8427;
-141.6000;0.1205;3.8479;
-141.3000;0.1213;3.8504;
-141.0000;0.1197;3.8427;
-140.7000;0.1205;3.8350;
-140.4000;0.1205;3.8222;
-140.1000;0.1213;3.8248;
-139.8000;0.1197;3.8222;
-139.5000;0.1205;3.8222;
-139.2000;0.1205;3.8222;
-138.9000;0.1188;3.8197;
-138.6000;0.1172;3.8094;
-138.3000;0.1221;3.8043;
-138.0000;0.1213;3.8017;
-137.7000;0.1188;3.8120;
-137.4000;0.1140;3.8120;
-137.1000;0.1188;3.8273;
-136.8000;0.1213;3.8299;
-136.5000;0.1188;3.8248;
-136.2000;0.1221;3.8325;
-135.9000;0.1197;3.8248;
-135.6000;0.1156;3.8171;
-135.3000;0.1205;3.8376;
-135.0000;0.1205;3.8273;
-134.7000;0.1278;3.8504;
-134.4000;0.1205;3.8325;
-134.1000;0.1221;3.8376;
-133.8000;0.1197;3.8402;
-133.5000;0.1188;3.8427;
-133.2000;0.1172;3.8453;
-132.9000;0.1074;3.8222;
-132.6000;0.1205;3.8607;
-132.3000;0.1221;3.8556;
-132.0000;0.1205;3.8530;
-131.7000;0.1205;3.8607;
-131.4000;0.1172;3.8556;
-131.1000;0.1270;3.8812;
-130.8000;0.1180;3.8530;
-130.5000;0.1213;3.8633;
-130.2000;0.1197;3.8556;
-129.9000;0.1188;3.8453;
-129.6000;0.1148;3.8299;
-129.3000;0.1172;3.8273;
-129.0000;0.1245;3.8427;
-128.7000;0.1107;3.8120;
-128.4000;0.1245;3.8530;
-128.1000;0.1229;3.8479;
-127.8000;0.1213;3.8581;
-127.5000;0.1074;3.8094;
-127.2000;0.1197;3.8453;
-126.9000;0.1205;3.8607;
-126.6000;0.1188;3.8504;
-126.3000;0.1229;3.8710;
-126.0000;0.1213;3.8581;
-125.7000;0.1270;3.8735;
-125.4000;0.1205;3.8633;
-125.1000;0.1197;3.8556;
-124.8000;0.1197;3.8581;
-124.5000;0.1197;3.8504;
-124.2000;0.1213;3.8453;
-123.9000;0.1205;3.8376;
-123.6000;0.1197;3.8299;
-123.3000;0.1180;3.8325;
-123.0000;0.1197;3.8299;
-122.7000;0.1205;3.8325;
-122.4000;0.1213;3.8325;
-122.1000;0.1213;3.8299;
-121.8000;0.1213;3.8376;
-121.5000;0.1188;3.8350;
-121.2000;0.1213;3.8325;
-120.9000;0.1213;3.8350;
-120.6000;0.1197;3.8248;
-120.3000;0.1221;3.8325;
-120.0000;0.1221;3.8299;
-119.7000;0.1229;3.8402;
-119.4000;0.1205;3.8427;
-119.1000;0.1205;3.8376;
-118.8000;0.1188;3.8325;
-118.5000;0.1213;3.8376;
-118.2000;0.1188;3.8325;
-117.9000;0.1197;3.8350;
-117.6000;0.1205;3.8273;
-117.3000;0.1205;3.8299;
-117.0000;0.1213;3.8376;
-116.7000;0.1188;3.8273;
-116.4000;0.1213;3.8350;
-116.1000;0.1254;3.8504;
-115.8000;0.1197;3.8325;
-115.5000;0.1188;3.8376;
-115.2000;0.1180;3.8222;
-114.9000;0.1262;3.8453;
-114.6000;0.1245;3.8479;
-114.3000;0.1221;3.8376;
-114.0000;0.1213;3.8299;
-113.7000;0.1197;3.8273;
-113.4000;0.1270;3.8453;
-113.1000;0.1229;3.8427;
-112.8000;0.1197;3.8299;
-112.5000;0.1205;3.8273;
-112.2000;0.1286;3.8504;
-111.9000;0.1213;3.8299;
-111.6000;0.1213;3.8299;
-111.3000;0.1205;3.8325;
-111.0000;0.1213;3.8376;
-110.7000;0.1286;3.8581;
-110.4000;0.1237;3.8376;
-110.1000;0.1229;3.8299;
-109.8000;0.1221;3.8299;
-109.5000;0.1205;3.8273;
-109.2000;0.1221;3.8273;
-108.9000;0.1229;3.8248;
-108.6000;0.1188;3.8222;
-108.3000;0.1156;3.8248;
-108.0000;0.1254;3.8427;
-107.7000;0.1180;3.8248;
-107.4000;0.1131;3.7966;
-107.1000;0.1164;3.8120;
-106.8000;0.1131;3.8017;
-106.5000;0.1205;3.8197;
-106.2000;0.1221;3.8350;
-105.9000;0.1229;3.8350;
-105.6000;0.1221;3.8299;
-105.3000;0.1140;3.8145;
-105.0000;0.1180;3.8299;
-104.7000;0.1172;3.8299;
-104.4000;0.1221;3.8376;
-104.1000;0.1286;3.8684;
-103.8000;0.1213;3.8479;
-103.5000;0.1205;3.8479;
-103.2000;0.1213;3.8427;
-102.9000;0.1205;3.8504;
-102.6000;0.1197;3.8530;
-102.3000;0.1148;3.8350;
-102.0000;0.1197;3.8504;
-101.7000;0.1188;3.8479;
-101.4000;0.1197;3.8581;
-101.1000;0.1221;3.8658;
-100.8000;0.1221;3.8607;
-100.5000;0.1197;3.8453;
-100.2000;0.1213;3.8530;
-99.9000;0.1237;3.8607;
-99.6000;0.1237;3.8581;
-99.3000;0.1229;3.8607;
-99.0000;0.1213;3.8530;
-98.7000;0.1229;3.8479;
-98.4000;0.1213;3.8453;
-98.1000;0.1213;3.8402;
-97.8000;0.1205;3.8376;
-97.5000;0.1205;3.8376;
-97.2000;0.1188;3.8427;
-96.9000;0.1221;3.8607;
-96.6000;0.1188;3.8504;
-96.3000;0.1197;3.8530;
-96.0000;0.1197;3.8504;
-95.7000;0.1245;3.8633;
-95.4000;0.1254;3.8633;
-95.1000;0.1180;3.8325;
-94.8000;0.1205;3.8427;
-94.5000;0.1213;3.8479;
-94.2000;0.1205;3.8479;
-93.9000;0.1205;3.8530;
-93.6000;0.1188;3.8402;
-93.3000;0.1237;3.8556;
-93.0000;0.1221;3.8453;
-92.7000;0.1197;3.8376;
-92.4000;0.1180;3.8273;
-92.1000;0.1262;3.8427;
-91.8000;0.1213;3.8299;
-91.5000;0.1213;3.8222;
-91.2000;0.1172;3.8120;
-90.9000;0.1115;3.7889;
-90.6000;0.1148;3.8043;
-90.3000;0.1221;3.8350;
-90.0000;0.1099;3.8043;
-89.7000;0.1205;3.8376;
-89.4000;0.1213;3.8402;
-89.1000;0.1197;3.8504;
-88.8000;0.1156;3.8402;
-88.5000;0.1148;3.8248;
-88.2000;0.1221;3.8453;
-87.9000;0.1180;3.8427;
-87.6000;0.1213;3.8427;
-87.3000;0.1213;3.8427;
-87.0000;0.1237;3.8556;
-86.7000;0.1188;3.8479;
-86.4000;0.1213;3.8479;
-86.1000;0.1197;3.8504;
-85.8000;0.1205;3.8504;
-85.5000;0.1213;3.8504;
-85.2000;0.1197;3.8453;
-84.9000;0.1205;3.8504;
-84.6000;0.1180;3.8427;
-84.3000;0.1197;3.8504;
-84.0000;0.1205;3.8504;
-83.7000;0.1197;3.8530;
-83.4000;0.1156;3.8299;
-83.1000;0.1205;3.8427;
-82.8000;0.1205;3.8453;
-82.5000;0.1213;3.8453;
-82.2000;0.1197;3.8325;
-81.9000;0.1180;3.8273;
-81.6000;0.1278;3.8453;
-81.3000;0.1205;3.8402;
-81.0000;0.1197;3.8427;
-80.7000;0.1205;3.8479;
-80.4000;0.1213;3.8504;
-80.1000;0.1229;3.8427;
-79.8000;0.1188;3.8299;
-79.5000;0.1197;3.8325;
-79.2000;0.1180;3.8299;
-78.9000;0.1180;3.8273;
-78.6000;0.1197;3.8299;
-78.3000;0.1213;3.8453;
-78.0000;0.1221;3.8504;
-77.7000;0.1237;3.8530;
-77.4000;0.1270;3.8633;
-77.1000;0.1213;3.8453;
-76.8000;0.1213;3.8376;
-76.5000;0.1197;3.8402;
-76.2000;0.1213;3.8427;
-75.9000;0.1188;3.8402;
-75.6000;0.1229;3.8479;
-75.3000;0.1148;3.8222;
-75.0000;0.1221;3.8325;
-74.7000;0.1188;3.8273;
-74.4000;0.1180;3.8273;
-74.1000;0.1205;3.8479;
-73.8000;0.1213;3.8504;
-73.5000;0.1188;3.8479;
-73.2000;0.1294;3.8735;
-72.9000;0.1197;3.8376;
-72.6000;0.1229;3.8479;
-72.3000;0.1188;3.8325;
-72.0000;0.1205;3.8376;
-71.7000;0.1213;3.8350;
-71.4000;0.1205;3.8402;
-71.1000;0.1188;3.8325;
-70.8000;0.1188;3.8325;
-70.5000;0.1229;3.8376;
-70.2000;0.1197;3.8299;
-69.9000;0.1221;3.8376;
-69.6000;0.1213;3.8350;
-69.3000;0.1229;3.8453;
-69.0000;0.1229;3.8453;
-68.7000;0.1188;3.8350;
-68.4000;0.1180;3.8453;
-68.1000;0.1197;3.8453;
-67.8000;0.1197;3.8453;
-67.5000;0.1270;3.8504;
-67.2000;0.1229;3.8479;
-66.9000;0.1221;3.8504;
-66.6000;0.1197;3.8453;
-66.3000;0.1205;3.8427;
-66.0000;0.1213;3.8427;
-65.7000;0.1205;3.8504;
-65.4000;0.1172;3.8427;
-65.1000;0.1180;3.8504;
-64.8000;0.1213;3.8607;
-64.5000;0.1221;3.8607;
-64.2000;0.1254;3.8633;
-63.9000;0.1205;3.8479;
-63.6000;0.1221;3.8376;
-63.3000;0.1213;3.8427;
-63.0000;0.1213;3.8427;
-62.7000;0.1205;3.8453;
-62.4000;0.1221;3.8530;
-62.1000;0.1286;3.8658;
-61.8000;0.1091;3.7991;
-61.5000;0.1172;3.8248;
-61.2000;0.1205;3.8350;
-60.9000;0.1197;3.8325;
-60.6000;0.1188;3.8222;
-60.3000;0.1205;3.8273;
-60.0000;0.1197;3.8248;
-59.7000;0.1123;3.7991;
-59.4000;0.1188;3.8120;
-59.1000;0.1197;3.8120;
-58.8000;0.1188;3.8120;
-58.5000;0.1221;3.8171;
-58.2000;0.1213;3.8145;
-57.9000;0.1197;3.8171;
-57.6000;0.1221;3.8299;
-57.3000;0.1188;3.8222;
-57.0000;0.1205;3.8273;
-56.7000;0.1205;3.8350;
-56.4000;0.1197;3.8402;
-56.1000;0.1180;3.8376;
-55.8000;0.1213;3.8479;
-55.5000;0.1229;3.8530;
-55.2000;0.1213;3.8402;
-54.9000;0.1180;3.8376;
-54.6000;0.1197;3.8427;
-54.3000;0.1213;3.8427;
-54.0000;0.1188;3.8427;
-53.7000;0.1205;3.8402;
-53.4000;0.1221;3.8453;
-53.1000;0.1148;3.8273;
-52.8000;0.1213;3.8376;
-52.5000;0.1148;3.8171;
-52.2000;0.1213;3.8376;
-51.9000;0.1213;3.8453;
-51.6000;0.1188;3.8376;
-51.3000;0.1180;3.8299;
-51.0000;0.1205;3.8427;
-50.7000;0.1213;3.8427;
-50.4000;0.1180;3.8325;
-50.1000;0.1229;3.8427;
-49.8000;0.1197;3.8350;
-49.5000;0.1302;3.8556;
-49.2000;0.1229;3.8299;
-48.9000;0.1197;3.8248;
-48.6000;0.1237;3.8299;
-48.3000;0.1205;3.8197;
-48.0000;0.1213;3.8222;
-47.7000;0.1221;3.8197;
-47.4000;0.1172;3.8145;
-47.1000;0.1213;3.8222;
-46.8000;0.1205;3.8145;
-46.5000;0.1197;3.8197;
-46.2000;0.1197;3.8171;
-45.9000;0.1205;3.8325;
-45.6000;0.1172;3.8197;
-45.3000;0.1188;3.8273;
-45.0000;0.1197;3.8222;
-44.7000;0.1205;3.8299;
-44.4000;0.1213;3.8325;
-44.1000;0.1188;3.8376;
-43.8000;0.1197;3.8248;
-43.5000;0.1205;3.8248;
-43.2000;0.1197;3.8299;
-42.9000;0.1188;3.8325;
-42.6000;0.1188;3.8299;
-42.3000;0.1197;3.8350;
-42.0000;0.1213;3.8350;
-41.7000;0.1213;3.8427;
-41.4000;0.1245;3.8504;
-41.1000;0.1205;3.8350;
-40.8000;0.1278;3.8453;
-40.5000;0.1205;3.8350;
-40.2000;0.1229;3.8479;
-39.9000;0.1188;3.8402;
-39.6000;0.1188;3.8427;
-39.3000;0.1229;3.8427;
-39.0000;0.1180;3.8350;
-38.7000;0.1245;3.8479;
-38.4000;0.1213;3.8325;
-38.1000;0.1205;3.8248;
-37.8000;0.1286;3.8479;
-37.5000;0.1188;3.8145;
-37.2000;0.1205;3.8222;
-36.9000;0.1197;3.8273;
-36.6000;0.1221;3.8350;
-36.3000;0.1156;3.8171;
-36.0000;0.1131;3.8017;
-35.7000;0.1197;3.8222;
-35.4000;0.1213;3.8325;
-35.1000;0.1115;3.8145;
-34.8000;0.1205;3.8427;
-34.5000;0.1221;3.8402;
-34.2000;0.1083;3.8094;
-33.9000;0.1221;3.8427;
-33.6000;0.1180;3.8376;
-33.3000;0.1197;3.8376;
-33.0000;0.1197;3.8350;
-32.7000;0.1213;3.8325;
-32.4000;0.1221;3.8273;
-32.1000;0.1205;3.8325;
-31.8000;0.1197;3.8350;
-31.5000;0.1197;3.8325;
-31.2000;0.1197;3.8299;
-30.9000;0.1205;3.8299;
-30.6000;0.1099;3.8043;
-30.3000;0.1197;3.8325;
-30.0000;0.1229;3.8402;
-29.7000;0.1188;3.8325;
-29.4000;0.1213;3.8479;
-29.1000;0.1221;3.8504;
-28.8000;0.1213;3.8453;
-28.5000;0.1188;3.8427;
-28.2000;0.1221;3.8402;
-27.9000;0.1205;3.8427;
-27.6000;0.1205;3.8453;
-27.3000;0.1205;3.8504;
-27.0000;0.1205;3.8556;
-26.7000;0.1197;3.8479;
-26.4000;0.1221;3.8427;
-26.1000;0.1205;3.8504;
-25.8000;0.1188;3.8427;
-25.5000;0.1197;3.8504;
-25.2000;0.1188;3.8427;
-24.9000;0.1213;3.8504;
-24.6000;0.1197;3.8479;
-24.3000;0.1197;3.8325;
-24.0000;0.1188;3.8350;
-23.7000;0.1188;3.8402;
-23.4000;0.1180;3.8453;
-23.1000;0.1197;3.8453;
-22.8000;0.1205;3.8504;
-22.5000;0.1213;3.8530;
-22.2000;0.1197;3.8504;
-21.9000;0.1221;3.8556;
-21.6000;0.1197;3.8504;
-21.3000;0.1213;3.8530;
-21.0000;0.1221;3.8479;
-20.7000;0.1213;3.8530;
-20.4000;0.1197;3.8530;
-20.1000;0.1164;3.8325;
-19.8000;0.1221;3.8453;
-19.5000;0.1188;3.8427;
-19.2000;0.1188;3.8402;
-18.9000;0.1213;3.8376;
-18.6000;0.1197;3.8402;
-18.3000;0.1205;3.8504;
-18.0000;0.1197;3.8453;
-17.7000;0.1262;3.8633;
-17.4000;0.1245;3.8479;
-17.1000;0.1180;3.8350;
-16.8000;0.1229;3.8530;
-16.5000;0.1180;3.8427;
-16.2000;0.1229;3.8504;
-15.9000;0.1221;3.8427;
-15.6000;0.1172;3.8273;
-15.3000;0.1205;3.8325;
-15.0000;0.1205;3.8273;
-14.7000;0.1188;3.8299;
-14.4000;0.1205;3.8376;
-14.1000;0.1213;3.8376;
-13.8000;0.1335;3.8710;
-13.5000;0.1107;3.8094;
-13.2000;0.1131;3.8120;
-12.9000;0.1164;3.8248;
-12.6000;0.1148;3.8197;
-12.3000;0.1229;3.8453;
-12.0000;0.1229;3.8504;
-11.7000;0.1286;3.8735;
-11.4000;0.1221;3.8504;
-11.1000;0.1335;3.8863;
-10.8000;0.1213;3.8453;
-10.5000;0.1237;3.8427;
-10.2000;0.1245;3.8453;
-9.9000;0.1205;3.8402;
-9.6000;0.1270;3.8633;
-9.3000;0.1205;3.8504;
-9.0000;0.1099;3.8248;
-8.7000;0.1237;3.8556;
-8.4000;0.1213;3.8427;
-8.1000;0.1197;3.8376;
-7.8000;0.1099;3.8120;
-7.5000;0.1197;3.8402;
-7.2000;0.1221;3.8427;
-6.9000;0.1197;3.8402;
-6.6000;0.1172;3.8299;
-6.3000;0.1213;3.8325;
-6.0000;0.1197;3.8299;
-5.7000;0.1221;3.8325;
-5.4000;0.1188;3.8299;
-5.1000;0.1229;3.8427;
-4.8000;0.1164;3.8145;
-4.5000;0.1205;3.8325;
-4.2000;0.1172;3.8273;
-3.9000;0.1205;3.8376;
-3.6000;0.1188;3.8325;
-3.3000;0.1197;3.8376;
-3.0000;0.1180;3.8299;
-2.7000;0.1213;3.8453;
-2.4000;0.1205;3.8453;
-2.1000;0.1245;3.8607;
-1.8000;0.1205;3.8427;
-1.5000;0.1205;3.8402;
-1.2000;0.1213;3.8376;
-0.9000;0.1229;3.8453;
-0.6000;0.1197;3.8350;
-0.3000;0.1221;3.8402;
0.0000;0.1221;3.8402;
0.3000;0.1221;3.8402;
0.6000;0.1213;3.8453;
0.9000;0.1245;3.8556;
1.2000;0.1294;3.8735;
1.5000;0.1335;3.8992;
1.8000;0.1359;3.9094;
2.1000;0.1376;3.9171;
2.4000;0.1319;3.9120;
2.7000;0.1254;3.8915;
3.0000;0.1376;3.9351;
3.3000;0.1416;3.9505;
3.6000;0.1376;3.9479;
3.9000;0.1392;3.9582;
4.2000;0.1376;3.9556;
4.5000;0.1400;3.9530;
4.8000;0.1392;3.9479;
5.1000;0.1400;3.9428;
5.4000;0.1457;3.9582;
5.7000;0.1416;3.9582;
6.0000;0.1433;3.9607;
6.3000;0.1392;3.9582;
6.6000;0.1416;3.9710;
6.9000;0.1433;3.9710;
7.2000;0.1416;3.9736;
7.5000;0.1408;3.9787;
7.8000;0.1441;3.9813;
8.1000;0.1416;3.9761;
8.4000;0.1506;3.9992;
8.7000;0.1416;3.9736;
9.0000;0.1416;3.9710;
9.3000;0.1433;3.9787;
9.6000;0.1416;3.9787;
9.9000;0.1400;3.9710;
10.2000;0.1473;3.9864;
10.5000;0.1408;3.9684;
10.8000;0.1416;3.9684;
11.1000;0.1416;3.9582;
11.4000;0.1433;3.9659;
11.7000;0.1425;3.9607;
12.0000;0.1441;3.9736;
12.3000;0.1400;3.9659;
12.6000;0.1449;3.9761;
12.9000;0.1425;3.9710;
13.2000;0.1433;3.9684;
13.5000;0.1384;3.9530;
13.8000;0.1425;3.9710;
14.1000;0.1408;3.9710;
14.4000;0.1441;3.9864;
14.7000;0.1441;3.9890;
15.0000;0.1416;3.9890;
15.3000;0.1441;3.9915;
15.6000;0.1449;3.9915;
15.9000;0.1449;3.9890;
16.2000;0.1433;3.9761;
16.5000;0.1433;3.9838;
16.8000;0.1449;3.9761;
17.1000;0.1449;3.9787;
17.4000;0.1449;3.9736;
17.7000;0.1433;3.9710;
18.0000;0.1433;3.9761;
18.3000;0.1449;3.9838;
18.6000;0.1425;3.9761;
18.9000;0.1425;3.9813;
19.2000;0.1441;3.9813;
19.5000;0.1441;3.9890;
19.8000;0.1359;3.9710;
20.1000;0.1465;3.9915;
20.4000;0.1465;3.9864;
20.7000;0.1433;3.9761;
21.0000;0.1433;3.9736;
21.3000;0.1465;3.9813;
21.6000;0.1457;3.9813;
21.9000;0.1449;3.9787;
22.2000;0.1457;3.9736;
22.5000;0.1473;3.9838;
22.8000;0.1449;3.9838;
23.1000;0.1425;3.9761;
23.4000;0.1433;3.9864;
23.7000;0.1433;3.9787;
24.0000;0.1473;3.9864;
24.3000;0.1433;3.9864;
24.6000;0.1400;3.9761;
24.9000;0.1473;3.9992;
25.2000;0.1457;3.9890;
25.5000;0.1441;3.9941;
25.8000;0.1457;3.9967;
26.1000;0.1457;4.0018;
26.4000;0.1433;3.9941;
26.7000;0.1400;3.9967;
27.0000;0.1449;4.0018;
27.3000;0.1465;4.0043;
27.6000;0.1473;4.0069;
27.9000;0.1498;4.0043;
28.2000;0.1473;3.9890;
28.5000;0.1465;3.9838;
28.8000;0.1555;4.0043;
29.1000;0.1441;3.9813;
29.4000;0.1449;3.9813;
29.7000;0.1408;3.9684;
30.0000;0.1457;3.9787;
30.3000;0.1408;3.9761;
30.6000;0.1490;3.9890;
30.9000;0.1449;3.9736;
31.2000;0.1465;3.9710;
31.5000;0.1465;3.9787;
31.8000;0.1490;3.9838;
32.1000;0.1465;3.9890;
32.4000;0.1433;3.9813;
32.7000;0.1457;3.9915;
33.0000;0.1481;3.9967;
33.3000;0.1457;3.9838;
33.6000;0.1449;3.9838;
33.9000;0.1473;3.9915;
34.2000;0.1449;3.9813;
34.5000;0.1506;3.9915;
34.8000;0.1473;3.9787;
35.1000;0.1465;3.9787;
35.4000;0.1441;3.9761;
35.7000;0.1473;3.9941;
36.0000;0.1457;3.9941;
36.3000;0.1473;3.9992;
36.6000;0.1465;3.9813;
36.9000;0.1587;4.0197;
37.2000;0.1473;3.9813;
37.5000;0.1547;3.9992;
37.8000;0.1457;3.9838;
38.1000;0.1473;3.9864;
38.4000;0.1465;3.9890;
38.7000;0.1481;3.9941;
39.0000;0.1473;3.9864;
39.3000;0.1481;3.9941;
39.6000;0.1490;3.9967;
39.9000;0.1465;4.0069;
40.2000;0.1465;3.9992;
40.5000;0.1465;3.9941;
40.8000;0.1490;3.9890;
41.1000;0.1481;3.9890;
41.4000;0.1490;3.9813;
41.7000;0.1490;3.9838;
42.0000;0.1473;3.9787;
42.3000;0.1506;3.9941;
42.6000;0.1522;3.9967;
42.9000;0.1473;3.9787;
43.2000;0.1506;3.9813;
43.5000;0.1514;3.9787;
43.8000;0.1465;3.9607;
44.1000;0.1473;3.9736;
44.4000;0.1490;3.9736;
44.7000;0.1465;3.9710;
45.0000;0.1465;3.9710;
45.3000;0.1473;3.9684;
45.6000;0.1481;3.9710;
45.9000;0.1481;3.9684;
46.2000;0.1465;3.9582;
46.5000;0.1506;3.9684;
46.8000;0.1481;3.9710;
47.1000;0.1490;3.9684;
47.4000;0.1490;3.9736;
47.7000;0.1490;3.9787;
48.0000;0.1506;3.9813;
48.3000;0.1465;3.9633;
48.6000;0.1441;3.9556;
48.9000;0.1449;3.9633;
49.2000;0.1498;3.9864;
49.5000;0.1498;3.9864;
49.8000;0.1457;3.9787;
50.1000;0.1481;3.9813;
50.4000;0.1555;4.0043;
50.7000;0.1490;3.9890;
51.0000;0.1481;3.9813;
51.3000;0.1490;3.9813;
51.6000;0.1465;3.9710;
51.9000;0.1481;3.9838;
52.2000;0.1506;3.9838;
52.5000;0.1481;3.9736;
52.8000;0.1481;3.9838;
53.1000;0.1473;3.9813;
53.4000;0.1547;4.0018;
53.7000;0.1473;3.9813;
54.0000;0.1490;3.9838;
54.3000;0.1514;3.9890;
54.6000;0.1506;3.9890;
54.9000;0.1514;3.9967;
55.2000;0.1481;3.9890;
55.5000;0.1490;3.9864;
55.8000;0.1498;3.9864;
56.1000;0.1490;3.9864;
56.4000;0.1433;3.9813;
56.7000;0.1498;3.9992;
57.0000;0.1473;3.9941;
57.3000;0.1498;3.9967;
57.6000;0.1490;4.0043;
57.9000;0.1490;4.0043;
58.2000;0.1498;3.9941;
58.5000;0.1481;3.9890;
58.8000;0.1490;3.9941;
59.1000;0.1481;3.9915;
59.4000;0.1490;3.9890;
59.7000;0.1481;3.9890;
60.0000;0.1498;3.9864;
60.3000;0.1473;3.9813;
60.6000;0.1473;3.9813;
60.9000;0.1457;3.9787;
61.2000;0.1498;3.9864;
61.5000;0.1457;3.9710;
61.8000;0.1481;3.9787;
62.1000;0.1449;3.9736;
62.4000;0.1514;3.9967;
62.7000;0.1457;3.9813;
63.0000;0.1498;3.9967;
63.3000;0.1522;4.0069;
63.6000;0.1457;3.9967;
63.9000;0.1587;4.0249;
64.2000;0.1498;4.0018;
64.5000;0.1506;3.9992;
64.8000;0.1473;3.9864;
65.1000;0.1490;3.9838;
65.4000;0.1498;3.9864;
65.7000;0.1490;3.9838;
66.0000;0.1498;3.9838;
66.3000;0.1481;3.9813;
66.6000;0.1514;3.9864;
66.9000;0.1490;3.9813;
67.2000;0.1481;3.9838;
67.5000;0.1490;3.9864;
67.8000;0.1481;3.9890;
68.1000;0.1490;3.9890;
68.4000;0.1506;3.9915;
68.7000;0.1506;3.9915;
69.0000;0.1571;4.0120;
69.3000;0.1473;3.9813;
69.6000;0.1490;3.9787;
69.9000;0.1498;3.9761;
70.2000;0.1498;3.9736;
70.5000;0.1490;3.9684;
70.8000;0.1481;3.9659;
71.1000;0.1587;3.9915;
71.4000;0.1481;3.9582;
71.7000;0.1498;3.9556;
72.0000;0.1490;3.9556;
72.3000;0.1481;3.9582;
72.6000;0.1481;3.9607;
72.9000;0.1538;3.9736;
73.2000;0.1490;3.9659;
73.5000;0.1498;3.9659;
73.8000;0.1498;3.9659;
74.1000;0.1506;3.9659;
74.4000;0.1506;3.9736;
74.7000;0.1506;3.9659;
75.0000;0.1506;3.9684;
75.3000;0.1490;3.9582;
75.6000;0.1498;3.9607;
75.9000;0.1506;3.9659;
76.2000;0.1498;3.9684;
76.5000;0.1506;3.9659;
76.8000;0.1514;3.9710;
77.1000;0.1514;3.9684;
77.4000;0.1587;4.0018;
77.7000;0.1514;3.9761;
78.0000;0.1498;3.9710;
78.3000;0.1408;3.9325;
78.6000;0.1481;3.9556;
78.9000;0.1465;3.9556;
79.2000;0.1498;3.9607;
79.5000;0.1416;3.9479;
79.8000;0.1587;3.9941;
80.1000;0.1514;3.9659;
80.4000;0.1514;3.9659;
80.7000;0.1498;3.9659;
81.0000;0.1457;3.9607;
81.3000;0.1490;3.9633;
81.6000;0.1481;3.9684;
81.9000;0.1465;3.9684;
82.2000;0.1514;3.9659;
82.5000;0.1628;3.9915;
82.8000;0.1392;3.9325;
83.1000;0.1490;3.9556;
83.4000;0.1555;3.9582;
83.7000;0.1498;3.9453;
84.0000;0.1490;3.9505;
84.3000;0.1514;3.9505;
84.6000;0.1506;3.9530;
84.9000;0.1490;3.9505;
85.2000;0.1498;3.9556;
85.5000;0.1636;3.9941;
85.8000;0.1514;3.9633;
86.1000;0.1490;3.9607;
86.4000;0.1490;3.9530;
86.7000;0.1604;3.9761;
87.0000;0.1490;3.9556;
87.3000;0.1490;3.9582;
87.6000;0.1473;3.9505;
87.9000;0.1498;3.9633;
88.2000;0.1498;3.9659;
88.5000;0.1481;3.9633;
88.8000;0.1506;3.9633;
89.1000;0.1506;3.9659;
89.4000;0.1530;3.9736;
89.7000;0.1481;3.9659;
90.0000;0.1506;3.9761;
90.3000;0.1522;3.9864;
90.6000;0.1514;3.9787;
90.9000;0.1506;3.9710;
91.2000;0.1506;3.9761;
91.5000;0.1506;3.9736;
91.8000;0.1506;3.9633;
92.1000;0.1506;3.9659;
92.4000;0.1522;3.9761;
92.7000;0.1530;3.9710;
93.0000;0.1498;3.9710;
93.3000;0.1547;3.9813;
93.6000;0.1547;3.9684;
93.9000;0.1490;3.9633;
94.2000;0.1481;3.9582;
94.5000;0.1490;3.9607;
94.8000;0.1498;3.9633;
95.1000;0.1498;3.9582;
95.4000;0.1506;3.9633;
95.7000;0.1490;3.9684;
96.0000;0.1514;3.9813;
96.3000;0.1498;3.9761;
96.6000;0.1498;3.9787;
96.9000;0.1416;3.9479;
97.2000;0.1587;3.9967;
97.5000;0.1506;3.9659;
97.8000;0.1530;3.9684;
98.1000;0.1473;3.9505;
98.4000;0.1473;3.9505;
98.7000;0.1538;3.9633;
99.0000;0.1490;3.9530;
99.3000;0.1425;3.9402;
99.6000;0.1514;3.9736;
99.9000;0.1522;3.9761;
100.2000;0.1506;3.9736;
100.5000;0.1498;3.9659;
100.8000;0.1449;3.9530;
101.1000;0.1506;3.9659;
101.4000;0.1538;3.9659;
101.7000;0.1538;3.9659;
102.0000;0.1490;3.9479;
102.3000;0.1433;3.9274;
102.6000;0.1538;3.9479;
102.9000;0.1457;3.9402;
103.2000;0.1416;3.9248;
103.5000;0.1571;3.9736;
103.8000;0.1473;3.9428;
104.1000;0.1506;3.9530;
104.4000;0.1433;3.9351;
104.7000;0.1506;3.9633;
105.0000;0.1538;3.9787;
105.3000;0.1498;3.9633;
105.6000;0.1457;3.9556;
105.9000;0.1530;3.9787;
106.2000;0.1465;3.9607;
106.5000;0.1555;3.9864;
106.8000;0.1449;3.9659;
107.1000;0.1506;3.9890;
107.4000;0.1441;3.9633;
107.7000;0.1547;3.9864;
108.0000;0.1514;3.9787;
108.3000;0.1481;3.9659;
108.6000;0.1506;3.9633;
108.9000;0.1506;3.9505;
109.2000;0.1490;3.9505;
109.5000;0.1506;3.9582;
109.8000;0.1481;3.9633;
110.1000;0.1514;3.9659;
110.4000;0.1498;3.9633;
110.7000;0.1522;3.9659;
111.0000;0.1506;3.9659;
111.3000;0.1506;3.9633;
111.6000;0.1490;3.9582;
111.9000;0.1514;3.9582;
112.2000;0.1538;3.9710;
112.5000;0.1522;3.9736;
112.8000;0.1498;3.9659;
113.1000;0.1498;3.9633;
113.4000;0.1514;3.9633;
113.7000;0.1514;3.9582;
114.0000;0.1498;3.9505;
114.3000;0.1498;3.9453;
114.6000;0.1490;3.9402;
114.9000;0.1473;3.9351;
115.2000;0.1530;3.9582;
115.5000;0.1514;3.9530;
115.8000;0.1490;3.9479;
116.1000;0.1514;3.9556;
116.4000;0.1481;3.9505;
116.7000;0.1530;3.9684;
117.0000;0.1490;3.9684;
117.3000;0.1490;3.9659;
117.6000;0.1449;3.9556;
117.9000;0.1522;3.9787;
118.2000;0.1506;3.9710;
118.5000;0.1498;3.9684;
118.8000;0.1481;3.9556;
119.1000;0.1514;3.9710;
119.4000;0.1555;3.9864;
119.7000;0.1457;3.9530;
120.0000;0.1490;3.9633;
120.3000;0.1522;3.9736;
120.6000;0.1555;3.9864;
120.9000;0.1498;3.9761;
121.2000;0.1522;3.9761;
121.5000;0.1473;3.9684;
121.8000;0.1514;3.9710;
122.1000;0.1522;3.9710;
122.4000;0.1498;3.9684;
122.7000;0.1522;3.9761;
123.0000;0.1530;3.9813;
123.3000;0.1538;3.9838;
123.6000;0.1563;3.9941;
123.9000;0.1490;3.9710;
124.2000;0.1498;3.9761;
124.5000;0.1498;3.9736;
124.8000;0.1514;3.9736;
125.1000;0.1506;3.9787;
125.4000;0.1506;3.9787;
125.7000;0.1530;3.9890;
126.0000;0.1506;3.9736;
126.3000;0.1465;3.9607;
126.6000;0.1555;3.9864;
126.9000;0.1506;3.9633;
127.2000;0.1563;3.9787;
127.5000;0.1538;3.9787;
127.8000;0.1522;3.9736;
128.1000;0.1514;3.9787;
128.4000;0.1490;3.9736;
128.7000;0.1506;3.9736;
129.0000;0.1514;3.9787;
129.3000;0.1490;3.9684;
129.6000;0.1506;3.9684;
129.9000;0.1490;3.9556;
130.2000;0.1506;3.9633;
130.5000;0.1514;3.9633;
130.8000;0.1506;3.9582;
131.1000;0.1498;3.9530;
131.4000;0.1514;3.9633;
131.7000;0.1514;3.9684;
132.0000;0.1522;3.9684;
132.3000;0.1522;3.9684;
132.6000;0.1506;3.9736;
132.9000;0.1538;3.9787;
133.2000;0.1506;3.9736;
133.5000;0.1514;3.9736;
133.8000;0.1514;3.9736;
134.1000;0.1514;3.9787;
134.4000;0.1490;3.9736;
134.7000;0.1441;3.9556;
135.0000;0.1490;3.9761;
135.3000;0.1498;3.9787;
135.6000;0.1490;3.9736;
135.9000;0.1490;3.9736;
136.2000;0.1498;3.9787;
136.5000;0.1506;3.9864;
136.8000;0.1400;3.9505;
137.1000;0.1522;3.9710;
137.4000;0.1506;3.9684;
137.7000;0.1604;3.9915;
138.0000;0.1522;3.9633;
138.3000;0.1481;3.9505;
138.6000;0.1587;3.9736;
138.9000;0.1506;3.9633;
139.2000;0.1498;3.9710;
139.5000;0.1498;3.9787;
139.8000;0.1530;3.9864;
140.1000;0.1498;3.9710;
140.4000;0.1514;3.9787;
140.7000;0.1481;3.9684;
141.0000;0.1514;3.9736;
141.3000;0.1506;3.9659;
141.6000;0.1514;3.9684;
141.9000;0.1514;3.9710;
142.2000;0.1522;3.9710;
142.5000;0.1481;3.9659;
142.8000;0.1473;3.9607;
143.1000;0.1490;3.9684;
143.4000;0.1604;4.0043;
143.7000;0.1514;3.9761;
144.0000;0.1514;3.9710;
144.3000;0.1538;3.9787;
144.6000;0.1530;3.9813;
144.9000;0.1514;3.9761;
145.2000;0.1498;3.9684;
145.5000;0.1555;3.9761;
145.8000;0.1555;3.9684;
146.1000;0.1490;3.9607;
146.4000;0.1490;3.9607;
146.7000;0.1498;3.9633;
147.0000;0.1547;3.9864;
147.3000;0.1530;3.9838;
147.6000;0.1514;3.9761;
147.9000;0.1514;3.9659;
148.2000;0.1514;3.9607;
148.5000;0.1522;3.9582;
148.8000;0.1522;3.9607;
149.1000;0.1498;3.9556;
149.4000;0.1514;3.9582;
149.7000;0.1514;3.9633;
150.0000;0.1514;3.9710;
150.3000;0.1498;3.9633;
150.6000;0.1522;3.9761;
150.9000;0.1514;3.9761;
151.2000;0.1441;3.9607;
151.5000;0.1498;3.9813;
151.8000;0.1514;3.9890;
152.1000;0.1514;3.9967;
152.4000;0.1481;3.9864;
152.7000;0.1595;4.0120;
153.0000;0.1506;3.9890;
153.3000;0.1498;3.9813;
153.6000;0.1506;3.9864;
153.9000;0.1498;3.9813;
154.2000;0.1506;3.9813;
154.5000;0.1522;3.9838;
154.8000;0.1522;3.9864;
155.1000;0.1514;3.9813;
155.4000;0.1506;3.9787;
155.7000;0.1506;3.9838;
156.0000;0.1498;3.9864;
156.3000;0.1514;3.9813;
156.6000;0.1522;3.9761;
156.9000;0.1481;3.9633;
157.2000;0.1498;3.9607;
157.5000;0.1514;3.9659;
157.8000;0.1522;3.9684;
158.1000;0.1514;3.9633;
158.4000;0.1506;3.9607;
158.7000;0.1628;3.9864;
159.0000;0.1514;3.9582;
159.3000;0.1490;3.9479;
159.6000;0.1538;3.9633;
159.9000;0.1506;3.9479;
160.2000;0.1522;3.9479;
160.5000;0.1498;3.9428;
160.8000;0.1384;3.9094;
161.1000;0.1514;3.9479;
161.4000;0.1506;3.9505;
161.7000;0.1473;3.9530;
162.0000;0.1490;3.9607;
162.3000;0.1514;3.9659;
162.6000;0.1465;3.9659;
162.9000;0.1498;3.9710;
163.2000;0.1506;3.9813;
163.5000;0.1481;3.9787;
163.8000;0.1481;3.9787;
164.1000;0.1490;3.9710;
164.4000;0.1522;3.9838;
164.7000;0.1498;3.9838;
165.0000;0.1514;3.9838;
165.3000;0.1522;3.9890;
165.6000;0.1522;3.9838;
165.9000;0.1514;3.9813;
166.2000;0.1522;3.9838;
166.5000;0.1506;3.9761;
166.8000;0.1522;3.9761;
167.1000;0.1506;3.9633;
167.4000;0.1384;3.9300;
167.7000;0.1490;3.9556;
168.0000;0.1514;3.9530;
168.3000;0.1538;3.9607;
168.6000;0.1522;3.9479;
168.9000;0.1530;3.9530;
169.2000;0.1604;3.9787;
169.5000;0.1530;3.9556;
169.8000;0.1514;3.9505;
170.1000;0.1506;3.9428;
170.4000;0.1522;3.9505;
170.7000;0.1506;3.9479;
171.0000;0.1506;3.9505;
171.3000;0.1506;3.9428;
171.6000;0.1530;3.9556;
171.9000;0.1481;3.9453;
172.2000;0.1490;3.9505;
172.5000;0.1457;3.9453;
172.8000;0.1498;3.9633;
173.1000;0.1473;3.9607;
173.4000;0.1506;3.9659;
173.7000;0.1514;3.9659;
174.0000;0.1514;3.9582;
174.3000;0.1490;3.9556;
174.6000;0.1514;3.9582;
174.9000;0.1547;3.9813;
175.2000;0.1498;3.9659;
175.5000;0.1498;3.9761;
175.8000;0.1498;3.9684;
176.1000;0.1498;3.9659;
176.4000;0.1473;3.9633;
176.7000;0.1498;3.9607;
177.0000;0.1514;3.9659;
177.3000;0.1498;3.9582;
177.6000;0.1538;3.9736;
177.9000;0.1506;3.9659;
178.2000;0.1490;3.9633;
178.5000;0.1498;3.9607;
178.8000;0.1506;3.9659;
179.1000;0.1563;3.9864;
179.4000;0.1522;3.9761;
179.7000;0.1506;3.9761;
180.0000;0.1498;3.9761;
180.3000;0.1522;3.9838;
180.6000;0.1490;3.9736;
180.9000;0.1490;3.9761;
181.2000;0.1457;3.9530;
181.5000;0.1506;3.9633;
181.8000;0.1514;3.9710;
182.1000;0.1498;3.9659;
182.4000;0.1514;3.9659;
182.7000;0.1498;3.9607;
183.0000;0.1498;3.9633;
183.3000;0.1498;3.9633;
183.6000;0.1506;3.9684;
183.9000;0.1498;3.9684;
184.2000;0.1490;3.9684;
184.5000;0.1555;3.9915;
184.8000;0.1604;4.0018;
185.1000;0.1473;3.9659;
185.4000;0.1579;3.9915;
185.7000;0.1514;3.9659;
186.0000;0.1498;3.9633;
186.3000;0.1514;3.9684;
186.6000;0.1506;3.9736;
186.9000;0.1498;3.9633;
187.2000;0.1506;3.9684;
187.5000;0.1465;3.9582;
187.8000;0.1490;3.9659;
188.1000;0.1506;3.9659;
188.4000;0.1433;3.9453;
188.7000;0.1490;3.9530;
189.0000;0.1563;3.9659;
189.3000;0.1506;3.9505;
189.6000;0.1530;3.9607;
189.9000;0.1514;3.9684;
190.2000;0.1514;3.9761;
190.5000;0.1579;3.9967;
190.8000;0.1514;3.9787;
191.1000;0.1522;3.9736;
191.4000;0.1522;3.9761;
191.7000;0.1490;3.9633;
192.0000;0.1498;3.9736;
192.3000;0.1514;3.9659;
192.6000;0.1522;3.9761;
192.9000;0.1498;3.9684;
193.2000;0.1498;3.9659;
193.5000;0.1425;3.9377;
193.8000;0.1506;3.9633;
194.1000;0.1457;3.9479;
194.4000;0.1506;3.9530;
194.7000;0.1514;3.9505;
195.0000;0.1506;3.9505;
195.3000;0.1449;3.9300;
195.6000;0.1481;3.9453;
195.9000;0.1530;3.9582;
196.2000;0.1400;3.9274;
196.5000;0.1498;3.9556;
196.8000;0.1506;3.9582;
197.1000;0.1506;3.9633;
197.4000;0.1498;3.9556;
197.7000;0.1522;3.9479;
198.0000;0.1514;3.9479;
198.3000;0.1498;3.9453;
198.6000;0.1473;3.9351;
198.9000;0.1506;3.9377;
199.2000;0.1506;3.9325;
199.5000;0.1514;3.9402;
199.8000;0.1514;3.9402;
200.1000;0.1514;3.9479;
200.4000;0.1490;3.9428;
200.7000;0.1506;3.9428;
201.0000;0.1514;3.9479;
201.3000;0.1498;3.9402;
201.6000;0.1506;3.9479;
201.9000;0.1498;3.9377;
202.2000;0.1506;3.9453;
202.5000;0.1498;3.9428;
202.8000;0.1514;3.9556;
203.1000;0.1498;3.9428;
203.4000;0.1530;3.9556;
203.7000;0.1514;3.9530;
204.0000;0.1514;3.9530;
204.3000;0.1498;3.9479;
204.6000;0.1498;3.9479;
204.9000;0.1457;3.9351;
205.2000;0.1514;3.9505;
205.5000;0.1506;3.9428;
205.8000;0.1481;3.9453;
206.1000;0.1498;3.9530;
206.4000;0.1522;3.9633;
206.7000;0.1449;3.9530;
207.0000;0.1522;3.9659;
207.3000;0.1490;3.9582;
207.6000;0.1514;3.9633;
207.9000;0.1490;3.9607;
208.2000;0.1506;3.9607;
208.5000;0.1530;3.9556;
208.8000;0.1506;3.9505;
209.1000;0.1481;3.9453;
209.4000;0.1514;3.9453;
209.7000;0.1498;3.9479;
210.0000;0.1481;3.9479;
210.3000;0.1481;3.9453;
210.6000;0.1490;3.9402;
210.9000;0.1498;3.9428;
211.2000;0.1506;3.9453;
211.5000;0.1498;3.9453;
211.8000;0.1547;3.9453;
212.1000;0.1408;3.9248;
212.4000;0.1514;3.9530;
212.7000;0.1498;3.9377;
213.0000;0.1498;3.9300;
213.3000;0.1465;3.9197;
213.6000;0.1514;3.9248;
213.9000;0.1522;3.9300;
214.2000;0.1522;3.9274;
214.5000;0.1457;3.9069;
214.8000;0.1441;3.9017;
215.1000;0.1514;3.9351;
215.4000;0.1490;3.9300;
215.7000;0.1481;3.9325;
216.0000;0.1498;3.9351;
216.3000;0.1522;3.9505;
216.6000;0.1514;3.9505;
216.9000;0.1498;3.9530;
217.2000;0.1514;3.9607;
217.5000;0.1506;3.9530;
217.8000;0.1506;3.9530;
218.1000;0.1538;3.9684;
218.4000;0.1498;3.9582;
218.7000;0.1522;3.9530;
219.0000;0.1522;3.9351;
219.3000;0.1481;3.9171;
219.6000;0.1498;3.9274;
219.9000;0.1498;3.9274;
220.2000;0.1473;3.9248;
220.5000;0.1498;3.9300;
220.8000;0.1481;3.9300;
221.1000;0.1506;3.9428;
221.4000;0.1481;3.9325;
221.7000;0.1514;3.9402;
222.0000;0.1522;3.9351;
222.3000;0.1498;3.9325;
222.6000;0.1490;3.9325;
222.9000;0.1498;3.9325;
223.2000;0.1490;3.9325;
223.5000;0.1498;3.9377;
223.8000;0.1530;3.9530;
224.1000;0.1538;3.9505;
224.4000;0.1490;3.9453;
224.7000;0.1490;3.9377;
225.0000;0.1498;3.9402;
225.3000;0.1522;3.9453;
225.6000;0.1514;3.9453;
225.9000;0.1457;3.9351;
226.2000;0.1498;3.9479;
226.5000;0.1506;3.9505;
226.8000;0.1506;3.9530;
227.1000;0.1514;3.9479;
227.4000;0.1506;3.9402;
227.7000;0.1506;3.9479;
228.0000;0.1514;3.9530;
228.3000;0.1498;3.9530;
228.6000;0.1506;3.9428;
228.9000;0.1490;3.9402;
229.2000;0.1514;3.9505;
229.5000;0.1498;3.9428;
229.8000;0.1498;3.9453;
230.1000;0.1490;3.9428;
230.4000;0.1514;3.9479;
230.7000;0.1433;3.9300;
231.0000;0.1481;3.9453;
231.3000;0.1514;3.9479;
231.6000;0.1481;3.9453;
231.9000;0.1465;3.9325;
232.2000;0.1530;3.9479;
232.5000;0.1490;3.9505;
232.8000;0.1530;3.9505;
233.1000;0.1506;3.9530;
233.4000;0.1514;3.9505;
233.7000;0.1506;3.9505;
234.0000;0.1514;3.9505;
234.3000;0.1506;3.9402;
234.6000;0.1506;3.9479;
234.9000;0.1514;3.9582;
235.2000;0.1490;3.9633;
235.5000;0.1490;3.9684;
235.8000;0.1481;3.9607;
236.1000;0.1514;3.9659;
236.4000;0.1522;3.9607;
236.7000;0.1506;3.9530;
237.0000;0.1498;3.9556;
237.3000;0.1522;3.9582;
237.6000;0.1498;3.9556;
237.9000;0.1498;3.9556;
238.2000;0.1514;3.9684;
238.5000;0.1522;3.9736;
238.8000;0.1506;3.9736;
239.1000;0.1498;3.9684;
239.4000;0.1506;3.9710;
239.7000;0.1522;3.9761;
240.0000;0.1506;3.9684;
240.3000;0.1498;3.9633;
240.6000;0.1498;3.9736;
240.9000;0.1530;3.9710;
241.2000;0.1506;3.9633;
241.5000;0.1457;3.9505;
241.8000;0.1506;3.9736;
242.1000;0.1522;3.9787;
242.4000;0.1498;3.9684;
242.7000;0.1490;3.9710;
243.0000;0.1522;3.9761;
243.3000;0.1473;3.9710;
243.6000;0.1514;3.9761;
243.9000;0.1498;3.9710;
244.2000;0.1490;3.9710;
244.5000;0.1522;3.9787;
244.8000;0.1514;3.9710;
245.1000;0.1506;3.9736;
245.4000;0.1514;3.9633;
245.7000;0.1506;3.9684;
246.0000;0.1571;3.9890;
246.3000;0.1522;3.9787;
246.6000;0.1506;3.9684;
246.9000;0.1481;3.9556;
247.2000;0.1481;3.9556;
247.5000;0.1514;3.9684;
247.8000;0.1514;3.9633;
248.1000;0.1481;3.9633;
248.4000;0.1538;3.9736;
248.7000;0.1514;3.9710;
249.0000;0.1522;3.9813;
249.3000;0.1498;3.9813;
249.6000;0.1514;3.9813;
249.9000;0.1506;3.9787;
250.2000;0.1514;3.9659;
250.5000;0.1514;3.9736;
250.8000;0.1481;3.9633;
251.1000;0.1506;3.9710;
251.4000;0.1490;3.9684;
251.7000;0.1449;3.9505;
252.0000;0.1490;3.9684;
252.3000;0.1498;3.9787;
252.6000;0.1473;3.9684;
252.9000;0.1481;3.9787;
253.2000;0.1490;3.9736;
253.5000;0.1514;3.9787;
253.8000;0.1506;3.9659;
254.1000;0.1538;3.9838;
254.4000;0.1506;3.9710;
254.7000;0.1392;3.9377;
255.0000;0.1514;3.9787;
255.3000;0.1416;3.9659;
255.6000;0.1506;3.9761;
255.9000;0.1506;3.9787;
256.2000;0.1530;3.9915;
256.5000;0.1481;3.9787;
256.8000;0.1498;3.9736;
257.1000;0.1498;3.9684;
257.4000;0.1514;3.9813;
257.7000;0.1384;3.9453;
258.0000;0.1490;3.9787;
258.3000;0.1481;3.9710;
258.6000;0.1498;3.9761;
258.9000;0.1457;3.9684;
259.2000;0.1522;3.9813;
259.5000;0.1522;3.9864;
259.8000;0.1457;3.9607;
260.1000;0.1530;3.9787;
260.4000;0.1563;3.9967;
260.7000;0.1506;3.9890;
261.0000;0.1506;3.9890;
261.3000;0.1506;3.9967;
261.6000;0.1522;3.9941;
261.9000;0.1506;3.9864;
262.2000;0.1506;3.9838;
262.5000;0.1498;3.9890;
262.8000;0.1547;3.9992;
263.1000;0.1514;3.9992;
263.4000;0.1490;3.9967;
263.7000;0.1498;3.9967;
264.0000;0.1506;4.0018;
264.3000;0.1481;3.9941;
264.6000;0.1506;3.9967;
264.9000;0.1473;3.9864;
265.2000;0.1514;3.9890;
265.5000;0.1522;3.9838;
265.8000;0.1506;3.9787;
266.1000;0.1514;3.9864;
266.4000;0.1514;3.9838;
266.7000;0.1465;3.9684;
267.0000;0.1547;3.9838;
267.3000;0.1514;3.9736;
267.6000;0.1481;3.9607;
267.9000;0.1506;3.9684;
268.2000;0.1498;3.9684;
268.5000;0.1416;3.9377;
268.8000;0.1506;3.9710;
269.1000;0.1506;3.9633;
269.4000;0.1490;3.9607;
269.7000;0.1530;3.9736;
270.0000;0.1514;3.9736;
270.3000;0.1498;3.9659;
270.6000;0.1498;3.9659;
270.9000;0.1498;3.9582;
271.2000;0.1514;3.9633;
271.5000;0.1506;3.9659;
271.8000;0.1538;3.9761;
272.1000;0.1506;3.9761;
272.4000;0.1506;3.9761;
272.7000;0.1490;3.9684;
273.0000;0.1522;3.9787;
273.3000;0.1498;3.9736;
273.6000;0.1473;3.9710;
273.9000;0.1481;3.9736;
274.2000;0.1522;3.9813;
274.5000;0.1506;3.9813;
274.8000;0.1538;3.9838;
275.1000;0.1490;3.9838;
275.4000;0.1547;3.9941;
275.7000;0.1522;3.9838;
276.0000;0.1522;3.9864;
276.3000;0.1522;3.9838;
276.6000;0.1530;3.9838;
276.9000;0.1555;3.9890;
277.2000;0.1506;3.9684;
277.5000;0.1506;3.9659;
277.8000;0.1514;3.9684;
278.1000;0.1490;3.9582;
278.4000;0.1498;3.9556;
278.7000;0.1514;3.9582;
279.0000;0.1530;3.9607;
279.3000;0.1522;3.9607;
279.6000;0.1506;3.9556;
279.9000;0.1555;3.9761;
280.2000;0.1498;3.9556;
280.5000;0.1530;3.9684;
280.8000;0.1473;3.9479;
281.1000;0.1530;3.9633;
281.4000;0.1498;3.9710;
281.7000;0.1506;3.9736;
282.0000;0.1514;3.9710;
282.3000;0.1522;3.9787;
282.6000;0.1506;3.9813;
282.9000;0.1481;3.9915;
283.2000;0.1498;3.9941;
283.5000;0.1506;3.9761;
283.8000;0.1506;3.9710;
284.1000;0.1506;3.9633;
284.4000;0.1473;3.9505;
284.7000;0.1514;3.9659;
285.0000;0.1441;3.9530;
285.3000;0.1498;3.9684;
285.6000;0.1538;3.9787;
285.9000;0.1514;3.9684;
286.2000;0.1514;3.9761;
286.5000;0.1514;3.9787;
286.8000;0.1547;3.9710;
287.1000;0.1547;3.9761;
287.4000;0.1506;3.9582;
287.7000;0.1498;3.9479;
288.0000;0.1481;3.9402;
288.3000;0.1595;3.9736;
288.6000;0.1506;3.9479;
288.9000;0.1506;3.9530;
289.2000;0.1457;3.9402;
289.5000;0.1514;3.9556;
289.8000;0.1604;3.9864;
290.1000;0.1425;3.9300;
290.4000;0.1498;3.9556;
290.7000;0.1481;3.9505;
291.0000;0.1522;3.9659;
291.3000;0.1408;3.9325;
291.6000;0.1449;3.9505;
291.9000;0.1514;3.9633;
292.2000;0.1514;3.9556;
292.5000;0.1490;3.9453;
292.8000;0.1538;3.9582;
293.1000;0.1506;3.9479;
293.4000;0.1514;3.9505;
293.7000;0.1433;3.9300;
294.0000;0.1441;3.9248;
294.3000;0.1498;3.9351;
294.6000;0.1441;3.9248;
294.9000;0.1506;3.9530;
295.2000;0.1498;3.9505;
295.5000;0.1522;3.9556;
295.8000;0.1514;3.9479;
296.1000;0.1530;3.9633;
296.4000;0.1514;3.9582;
296.7000;0.1522;3.9556;
297.0000;0.1522;3.9607;
297.3000;0.1522;3.9556;
297.6000;0.1490;3.9428;
297.9000;0.1506;3.9453;
298.2000;0.1498;3.9428;
298.5000;0.1490;3.9428;
298.8000;0.1490;3.9402;
299.1000;0.1481;3.9402;
299.4000;0.1506;3.9556;
299.7000;0.1522;3.9633;
300.0000;0.1547;3.9633;
300.3000;0.1506;3.9479;
300.6000;0.1400;3.9248;
300.9000;0.1490;3.9402;
301.2000;0.1498;3.9453;
301.5000;0.1514;3.9633;
301.8000;0.1498;3.9556;
302.1000;0.1473;3.9556;
302.4000;0.1514;3.9659;
302.7000;0.1490;3.9556;
303.0000;0.1506;3.9582;
303.3000;0.1481;3.9582;
303.6000;0.1481;3.9428;
303.9000;0.1514;3.9453;
304.2000;0.1506;3.9428;
304.5000;0.1514;3.9582;
304.8000;0.1490;3.9556;
305.1000;0.1498;3.9633;
305.4000;0.1481;3.9736;
305.7000;0.1498;3.9761;
306.0000;0.1514;3.9890;
306.3000;0.1538;3.9967;
306.6000;0.1481;3.9761;
306.9000;0.1506;3.9710;
307.2000;0.1506;3.9684;
307.5000;0.1498;3.9684;
307.8000;0.1547;3.9838;
308.1000;0.1514;3.9736;
308.4000;0.1563;3.9838;
308.7000;0.1506;3.9607;
309.0000;0.1522;3.9582;
309.3000;0.1490;3.9530;
309.6000;0.1481;3.9479;
309.9000;0.1506;3.9505;
310.2000;0.1506;3.9402;
310.5000;0.1547;3.9530;
310.8000;0.1481;3.9402;
311.1000;0.1392;3.9120;
311.4000;0.1563;3.9582;
311.7000;0.1481;3.9479;
312.0000;0.1498;3.9633;
312.3000;0.1530;3.9838;
312.6000;0.1490;3.9684;
312.9000;0.1473;3.9684;
313.2000;0.1555;3.9915;
313.5000;0.1498;3.9659;
313.8000;0.1595;3.9813;
314.1000;0.1498;3.9530;
314.4000;0.1441;3.9453;
314.7000;0.1498;3.9659;
315.0000;0.1522;3.9736;
315.3000;0.1587;3.9992;
315.6000;0.1473;3.9633;
315.9000;0.1473;3.9659;
316.2000;0.1498;3.9659;
316.5000;0.1514;3.9684;
316.8000;0.1506;3.9710;
317.1000;0.1498;3.9607;
317.4000;0.1522;3.9684;
317.7000;0.1522;3.9582;
318.0000;0.1530;3.9607;
318.3000;0.1506;3.9659;
318.6000;0.1506;3.9582;
318.9000;0.1530;3.9607;
319.2000;0.1514;3.9633;
319.5000;0.1514;3.9633;
319.8000;0.1514;3.9710;
320.1000;0.1506;3.9633;
320.4000;0.1522;3.9787;
320.7000;0.1506;3.9736;
321.0000;0.1490;3.9710;
321.3000;0.1490;3.9684;
321.6000;0.1441;3.9659;
321.9000;0.1498;3.9710;
322.2000;0.1506;3.9761;
322.5000;0.1514;3.9710;
322.8000;0.1506;3.9659;
323.1000;0.1506;3.9556;
323.4000;0.1530;3.9505;
323.7000;0.1587;3.9710;
324.0000;0.1522;3.9582;
324.3000;0.1538;3.9453;
324.6000;0.1498;3.9300;
324.9000;0.1506;3.9351;
325.2000;0.1490;3.9351;
325.5000;0.1441;3.9171;
325.8000;0.1506;3.9453;
326.1000;0.1514;3.9530;
326.4000;0.1433;3.9300;
326.7000;0.1514;3.9582;
327.0000;0.1498;3.9505;
327.3000;0.1514;3.9607;
327.6000;0.1506;3.9633;
327.9000;0.1498;3.9607;
328.2000;0.1498;3.9607;
328.5000;0.1481;3.9582;
328.8000;0.1481;3.9633;
329.1000;0.1498;3.9659;
329.4000;0.1506;3.9710;
329.7000;0.1506;3.9684;
330.0000;0.1498;3.9633;
330.3000;0.1368;3.9300;
330.6000;0.1425;3.9428;
330.9000;0.1498;3.9607;
331.2000;0.1506;3.9607;
331.5000;0.1506;3.9659;
331.8000;0.1449;3.9556;
332.1000;0.1498;3.9659;
332.4000;0.1498;3.9787;
332.7000;0.1449;3.9659;
333.0000;0.1498;3.9787;
333.3000;0.1506;3.9736;
333.6000;0.1514;3.9761;
333.9000;0.1530;3.9813;
334.2000;0.1473;3.9633;
334.5000;0.1498;3.9710;
334.8000;0.1457;3.9582;
335.1000;0.1473;3.9659;
335.4000;0.1571;3.9890;
335.7000;0.1522;3.9813;
336.0000;0.1514;3.9864;
336.3000;0.1506;3.9761;
336.6000;0.1481;3.9710;
336.9000;0.1506;3.9787;
337.2000;0.1506;3.9761;
337.5000;0.1506;3.9787;
337.8000;0.1490;3.9710;
338.1000;0.1506;3.9710;
338.4000;0.1490;3.9787;
338.7000;0.1530;3.9838;
339.0000;0.1498;3.9684;
339.3000;0.1490;3.9659;
339.6000;0.1506;3.9736;
339.9000;0.1498;3.9761;
340.2000;0.1490;3.9838;
340.5000;0.1506;3.9915;
340.8000;0.1514;3.9787;
341.1000;0.1498;3.9787;
341.4000;0.1498;3.9787;
341.7000;0.1481;3.9684;
342.0000;0.1514;3.9787;
342.3000;0.1538;3.9890;
342.6000;0.1490;3.9838;
342.9000;0.1506;3.9813;
343.2000;0.1514;3.9736;
343.5000;0.1530;3.9813;
343.8000;0.1506;3.9736;
344.1000;0.1506;3.9838;
344.4000;0.1490;3.9838;
344.7000;0.1514;3.9941;
345.0000;0.1538;3.9967;
345.3000;0.1490;3.9787;
345.6000;0.1498;3.9761;
345.9000;0.1514;3.9838;
346.2000;0.1490;3.9684;
346.5000;0.1506;3.9684;
346.8000;0.1490;3.9530;
347.1000;0.1449;3.9428;
347.4000;0.1498;3.9659;
347.7000;0.1416;3.9428;
348.0000;0.1506;3.9710;
348.3000;0.1481;3.9684;
348.6000;0.1376;3.9505;
348.9000;0.1514;3.9838;
349.2000;0.1498;3.9787;
349.5000;0.1506;3.9813;
349.8000;0.1506;3.9710;
350.1000;0.1498;3.9710;
350.4000;0.1498;3.9710;
350.7000;0.1490;3.9736;
351.0000;0.1498;3.9813;
351.3000;0.1481;3.9787;
351.6000;0.1514;3.9890;
351.9000;0.1522;3.9787;
352.2000;0.1498;3.9813;
352.5000;0.1392;3.9402;
352.8000;0.1490;3.9633;
353.1000;0.1522;3.9736;
353.4000;0.1473;3.9633;
353.7000;0.1490;3.9582;
354.0000;0.1514;3.9556;
354.3000;0.1563;3.9710;
354.6000;0.1514;3.9556;
354.9000;0.1498;3.9530;
355.2000;0.1498;3.9607;
355.5000;0.1481;3.9530;
355.8000;0.1571;3.9684;
356.1000;0.1514;3.9428;
356.4000;0.1514;3.9428;
356.7000;0.1498;3.9505;
357.0000;0.1506;3.9530;
357.3000;0.1498;3.9453;
357.6000;0.1522;3.9556;
357.9000;0.1490;3.9377;
358.2000;0.1506;3.9479;
358.5000;0.1490;3.9428;
358.8000;0.1514;3.9453;
359.1000;0.1506;3.9505;
359.4000;0.1490;3.9530;
359.7000;0.1498;3.9582;
360.0000;0.1498;3.9479;
360.3000;0.1514;3.9530;
360.6000;0.1498;3.9530;
360.9000;0.1498;3.9453;
361.2000;0.1506;3.9479;
361.5000;0.1522;3.9505;
361.8000;0.1498;3.9453;
362.1000;0.1490;3.9402;
362.4000;0.1506;3.9479;
362.7000;0.1498;3.9479;
363.0000;0.1498;3.9402;
363.3000;0.1506;3.9377;
363.6000;0.1490;3.9300;
363.9000;0.1530;3.9428;
364.2000;0.1481;3.9428;
364.5000;0.1514;3.9556;
364.8000;0.1506;3.9607;
365.1000;0.1514;3.9633;
365.4000;0.1498;3.9659;
365.7000;0.1498;3.9659;
366.0000;0.1514;3.9505;
366.3000;0.1530;3.9556;
366.6000;0.1522;3.9659;
366.9000;0.1522;3.9607;
367.2000;0.1530;3.9479;
367.5000;0.1498;3.9556;
367.8000;0.1522;3.9582;
368.1000;0.1522;3.9684;
368.4000;0.1506;3.9607;
368.7000;0.1498;3.9633;
369.0000;0.1490;3.9582;
369.3000;0.1506;3.9659;
369.6000;0.1481;3.9582;
369.9000;0.1506;3.9607;
370.2000;0.1490;3.9556;
370.5000;0.1595;3.9838;
370.8000;0.1425;3.9377;
371.1000;0.1506;3.9505;
371.4000;0.1530;3.9582;
371.7000;0.1571;3.9684;
372.0000;0.1506;3.9505;
372.3000;0.1498;3.9607;
372.6000;0.1587;3.9941;
372.9000;0.1514;3.9761;
373.2000;0.1555;3.9915;
373.5000;0.1498;3.9838;
373.8000;0.1563;3.9838;
374.1000;0.1498;3.9582;
374.4000;0.1473;3.9453;
374.7000;0.1498;3.9530;
375.0000;0.1498;3.9556;
375.3000;0.1490;3.9505;
375.6000;0.1514;3.9684;
375.9000;0.1506;3.9633;
376.2000;0.1514;3.9813;
376.5000;0.1490;3.9813;
376.8000;0.1514;3.9787;
377.1000;0.1498;3.9710;
377.4000;0.1473;3.9633;
377.7000;0.1498;3.9761;
378.0000;0.1498;3.9761;
378.3000;0.1506;3.9761;
378.6000;0.1441;3.9633;
378.9000;0.1498;3.9813;
379.2000;0.1498;3.9890;
379.5000;0.1481;3.9838;
379.8000;0.1498;3.9838;
380.1000;0.1498;3.9787;
380.4000;0.1514;3.9787;
380.7000;0.1506;3.9787;
381.0000;0.1522;3.9838;
381.3000;0.1506;3.9813;
381.6000;0.1506;3.9787;
381.9000;0.1506;3.9838;
382.2000;0.1522;3.9864;
382.5000;0.1522;3.9813;
382.8000;0.1465;3.9556;
383.1000;0.1587;3.9941;
383.4000;0.1522;3.9736;
383.7000;0.1490;3.9607;
384.0000;0.1506;3.9633;
384.3000;0.1530;3.9659;
384.6000;0.1604;3.9838;
384.9000;0.1514;3.9633;
385.2000;0.1514;3.9556;
385.5000;0.1506;3.9556;
385.8000;0.1506;3.9607;
386.1000;0.1490;3.9530;
386.4000;0.1514;3.9633;
386.7000;0.1473;3.9530;
387.0000;0.1522;3.9684;
387.3000;0.1490;3.9607;
387.6000;0.1490;3.9684;
387.9000;0.1514;3.9787;
388.2000;0.1498;3.9710;
388.5000;0.1514;3.9684;
388.8000;0.1498;3.9582;
389.1000;0.1498;3.9453;
389.4000;0.1506;3.9453;
389.7000;0.1555;3.9582;
390.0000;0.1490;3.9530;
390.3000;0.1481;3.9659;
390.6000;0.1498;3.9736;
390.9000;0.1514;3.9890;
391.2000;0.1522;3.9864;
391.5000;0.1506;3.9787;
391.8000;0.1473;3.9659;
392.1000;0.1506;3.9710;
392.4000;0.1530;3.9761;
392.7000;0.1498;3.9736;
393.0000;0.1547;3.9838;
393.3000;0.1498;3.9761;
393.6000;0.1506;3.9761;
393.9000;0.1498;3.9684;
394.2000;0.1490;3.9633;
394.5000;0.1490;3.9633;
394.8000;0.1481;3.9530;
395.1000;0.1538;3.9659;
395.4000;0.1506;3.9556;
395.7000;0.1449;3.9402;
396.0000;0.1506;3.9556;
396.3000;0.1555;3.9659;
396.6000;0.1522;3.9530;
396.9000;0.1506;3.9556;
397.2000;0.1449;3.9300;
397.5000;0.1416;3.9300;
397.8000;0.1498;3.9530;
398.1000;0.1490;3.9582;
398.4000;0.1490;3.9633;
398.7000;0.1498;3.9607;
399.0000;0.1579;3.9736;
399.3000;0.1481;3.9556;
399.6000;0.1498;3.9607;
399.9000;0.1490;3.9505;
400.2000;0.1498;3.9607;
400.5000;0.1522;3.9710;
400.8000;0.1481;3.9582;
401.1000;0.1522;3.9684;
401.4000;0.1514;3.9710;
401.7000;0.1506;3.9813;
402.0000;0.1481;3.9761;
402.3000;0.1506;3.9838;
402.6000;0.1514;3.9890;
402.9000;0.1498;3.9813;
403.2000;0.1522;3.9864;
403.5000;0.1490;3.9761;
403.8000;0.1530;3.9838;
404.1000;0.1473;3.9659;
404.4000;0.1506;3.9684;
404.7000;0.1498;3.9684;
405.0000;0.1498;3.9684;
405.3000;0.1522;3.9761;
405.6000;0.1506;3.9761;
405.9000;0.1498;3.9787;
406.2000;0.1457;3.9556;
406.5000;0.1522;3.9787;
406.8000;0.1514;3.9710;
407.1000;0.1490;3.9684;
407.4000;0.1571;3.9864;
407.7000;0.1490;3.9736;
408.0000;0.1514;3.9787;
408.3000;0.1408;3.9453;
408.6000;0.1538;3.9838;
408.9000;0.1506;3.9761;
409.2000;0.1506;3.9736;
409.5000;0.1514;3.9761;
409.8000;0.1506;3.9684;
410.1000;0.1481;3.9556;
410.4000;0.1490;3.9530;
410.7000;0.1514;3.9582;
411.0000;0.1506;3.9582;
411.3000;0.1514;3.9684;
411.6000;0.1506;3.9659;
411.9000;0.1530;3.9684;
412.2000;0.1490;3.9633;
412.5000;0.1514;3.9710;
412.8000;0.1595;3.9838;
413.1000;0.1506;3.9556;
413.4000;0.1481;3.9479;
413.7000;0.1384;3.9248;
414.0000;0.1506;3.9659;
414.3000;0.1498;3.9659;
414.6000;0.1514;3.9736;
414.9000;0.1498;3.9633;
415.2000;0.1490;3.9530;
415.5000;0.1514;3.9607;
415.8000;0.1498;3.9607;
416.1000;0.1481;3.9530;
416.4000;0.1514;3.9633;
416.7000;0.1595;3.9813;
417.0000;0.1498;3.9582;
417.3000;0.1506;3.9607;
417.6000;0.1522;3.9736;
417.9000;0.1506;3.9684;
418.2000;0.1506;3.9684;
418.5000;0.1490;3.9607;
418.8000;0.1498;3.9505;
419.1000;0.1547;3.9582;
419.4000;0.1506;3.9505;
419.7000;0.1498;3.9402;
420.0000;0.1465;3.9351;
420.3000;0.1514;3.9530;
420.6000;0.1514;3.9505;
420.9000;0.1498;3.9505;
421.2000;0.1457;3.9453;
421.5000;0.1490;3.9556;
421.8000;0.1498;3.9659;
422.1000;0.1506;3.9659;
422.4000;0.1490;3.9684;
422.7000;0.1506;3.9659;
423.0000;0.1530;3.9736;
423.3000;0.1538;3.9736;
423.6000;0.1433;3.9530;
423.9000;0.1433;3.9582;
424.2000;0.1514;3.9838;
424.5000;0.1498;3.9710;
424.8000;0.1563;3.9967;
425.1000;0.1498;3.9710;
425.4000;0.1498;3.9736;
425.7000;0.1498;3.9787;
426.0000;0.1571;3.9890;
426.3000;0.1498;3.9659;
426.6000;0.1490;3.9582;
426.9000;0.1514;3.9607;
427.2000;0.1522;3.9659;
427.5000;0.1498;3.9582;
427.8000;0.1522;3.9607;
428.1000;0.1522;3.9582;
428.4000;0.1481;3.9530;
428.7000;0.1506;3.9582;
429.0000;0.1514;3.9582;
429.3000;0.1514;3.9607;
429.6000;0.1506;3.9607;
429.9000;0.1571;3.9838;
430.2000;0.1481;3.9684;
430.5000;0.1490;3.9736;
430.8000;0.1498;3.9736;
431.1000;0.1506;3.9864;
431.4000;0.1481;3.9890;
431.7000;0.1498;3.9890;
432.0000;0.1538;3.9992;
432.3000;0.1490;3.9890;
432.6000;0.1498;3.9890;
432.9000;0.1490;3.9890;
433.2000;0.1498;3.9838;
433.5000;0.1490;3.9787;
433.8000;0.1514;3.9787;
434.1000;0.1490;3.9556;
434.4000;0.1490;3.9556;
434.7000;0.1506;3.9607;
435.0000;0.1490;3.9633;
435.3000;0.1530;3.9659;
435.6000;0.1498;3.9582;
435.9000;0.1457;3.9428;
436.2000;0.1498;3.9607;
436.5000;0.1490;3.9479;
436.8000;0.1490;3.9582;
437.1000;0.1506;3.9633;
437.4000;0.1514;3.9710;
437.7000;0.1498;3.9684;
438.0000;0.1490;3.9659;
438.3000;0.1498;3.9659;
438.6000;0.1498;3.9633;
438.9000;0.1473;3.9684;
439.2000;0.1514;3.9761;
439.5000;0.1490;3.9710;
439.8000;0.1498;3.9761;
440.1000;0.1530;3.9838;
440.4000;0.1530;3.9761;
440.7000;0.1473;3.9582;
441.0000;0.1490;3.9684;
441.3000;0.1514;3.9684;
441.6000;0.1522;3.9659;
441.9000;0.1506;3.9633;
442.2000;0.1481;3.9607;
442.5000;0.1498;3.9633;
442.8000;0.1514;3.9607;
443.1000;0.1555;3.9761;
443.4000;0.1514;3.9710;
443.7000;0.1530;3.9761;
444.0000;0.1555;3.9915;
444.3000;0.1522;3.9736;
444.6000;0.1498;3.9659;
444.9000;0.1514;3.9787;
445.2000;0.1481;3.9787;
445.5000;0.1522;3.9787;
445.8000;0.1587;3.9967;
446.1000;0.1490;3.9684;
446.4000;0.1376;3.9402;
446.7000;0.1490;3.9710;
447.0000;0.1465;3.9582;
447.3000;0.1473;3.9582;
447.6000;0.1498;3.9659;
447.9000;0.1506;3.9684;
448.2000;0.1490;3.9659;
448.5000;0.1547;3.9787;
448.8000;0.1563;3.9813;
449.1000;0.1498;3.9633;
449.4000;0.1506;3.9659;
449.7000;0.1506;3.9684;
450.0000;0.1514;3.9659;
450.3000;0.1490;3.9582;
450.6000;0.1490;3.9556;
450.9000;0.1538;3.9761;
451.2000;0.1498;3.9633;
451.5000;0.1490;3.9659;
451.8000;0.1449;3.9556;
452.1000;0.1473;3.9659;
452.4000;0.1490;3.9684;
452.7000;0.1473;3.9582;
453.0000;0.1506;3.9607;
453.3000;0.1473;3.9505;
453.6000;0.1530;3.9684;
453.9000;0.1498;3.9659;
454.2000;0.1498;3.9659;
454.5000;0.1473;3.9582;
454.8000;0.1506;3.9633;
455.1000;0.1490;3.9556;
455.4000;0.1498;3.9582;
455.7000;0.1514;3.9684;
456.0000;0.1498;3.9659;
456.3000;0.1498;3.9607;
456.6000;0.1514;3.9684;
456.9000;0.1506;3.9684;
457.2000;0.1481;3.9607;
457.5000;0.1514;3.9607;
457.8000;0.1522;3.9684;
458.1000;0.1490;3.9505;
458.4000;0.1514;3.9505;
458.7000;0.1490;3.9428;
459.0000;0.1498;3.9453;
459.3000;0.1506;3.9479;
459.6000;0.1514;3.9453;
459.9000;0.1522;3.9556;
460.2000;0.1514;3.9633;
460.5000;0.1498;3.9582;
460.8000;0.1506;3.9530;
461.1000;0.1506;3.9607;
461.4000;0.1473;3.9607;
461.7000;0.1571;3.9838;
462.0000;0.1498;3.9607;
462.3000;0.1490;3.9556;
462.6000;0.1425;3.9479;
462.9000;0.1514;3.9684;
463.2000;0.1490;3.9659;
463.5000;0.1490;3.9633;
463.8000;0.1506;3.9710;
464.1000;0.1457;3.9607;
464.4000;0.1514;3.9710;
464.7000;0.1441;3.9530;
465.0000;0.1473;3.9582;
465.3000;0.1547;3.9761;
465.6000;0.1449;3.9479;
465.9000;0.1465;3.9530;
466.2000;0.1604;3.9967;
466.5000;0.1547;3.9761;
466.8000;0.1530;3.9761;
467.1000;0.1498;3.9761;
467.4000;0.1522;3.9787;
467.7000;0.1506;3.9736;
468.0000;0.1481;3.9710;
468.3000;0.1400;3.9479;
468.6000;0.1498;3.9710;
468.9000;0.1506;3.9736;
469.2000;0.1498;3.9761;
469.5000;0.1579;4.0095;
469.8000;0.1506;3.9787;
470.1000;0.1490;3.9710;
470.4000;0.1514;3.9813;
470.7000;0.1522;3.9890;
471.0000;0.1506;3.9915;
471.3000;0.1498;3.9890;
471.6000;0.1530;3.9967;
471.9000;0.1506;3.9787;
472.2000;0.1506;3.9838;
472.5000;0.1514;3.9813;
472.8000;0.1490;3.9813;
473.1000;0.1498;3.9787;
473.4000;0.1506;3.9787;
473.7000;0.1473;3.9710;
474.0000;0.1416;3.9556;
474.3000;0.1506;3.9838;
474.6000;0.1563;3.9967;
474.9000;0.1498;3.9736;
475.2000;0.1490;3.9736;
475.5000;0.1498;3.9736;
475.8000;0.1522;3.9813;
476.1000;0.1490;3.9736;
476.4000;0.1514;3.9864;
476.7000;0.1490;3.9864;
477.0000;0.1506;3.9864;
477.3000;0.1498;3.9941;
477.6000;0.1457;3.9864;
477.9000;0.1490;3.9941;
478.2000;0.1498;3.9941;
478.5000;0.1514;3.9941;
478.8000;0.1506;3.9838;
479.1000;0.1498;3.9813;
479.4000;0.1498;3.9736;
479.7000;0.1514;3.9787;
480.0000;0.1506;3.9787;
480.3000;0.1514;3.9813;
480.6000;0.1506;3.9838;
480.9000;0.1522;3.9890;
481.2000;0.1498;3.9761;
481.5000;0.1522;3.9761;
481.8000;0.1522;3.9761;
482.1000;0.1514;3.9787;
482.4000;0.1498;3.9838;
482.7000;0.1433;3.9530;
483.0000;0.1506;3.9761;
483.3000;0.1522;3.9787;
483.6000;0.1498;3.9710;
483.9000;0.1563;3.9915;
484.2000;0.1498;3.9736;
484.5000;0.1481;3.9659;
484.8000;0.1490;3.9684;
485.1000;0.1384;3.9325;
485.4000;0.1506;3.9659;
485.7000;0.1530;3.9607;
486.0000;0.1514;3.9530;
486.3000;0.1530;3.9530;
486.6000;0.1473;3.9505;
486.9000;0.1579;3.9838;
487.2000;0.1498;3.9659;
487.5000;0.1498;3.9633;
487.8000;0.1530;3.9710;
488.1000;0.1514;3.9684;
488.4000;0.1498;3.9607;
488.7000;0.1530;3.9684;
489.0000;0.1490;3.9607;
489.3000;0.1490;3.9761;
489.6000;0.1490;3.9813;
489.9000;0.1481;3.9787;
490.2000;0.1481;3.9787;
490.5000;0.1498;3.9684;
490.8000;0.1498;3.9684;
491.1000;0.1514;3.9736;
491.4000;0.1498;3.9607;
491.7000;0.1490;3.9530;
492.0000;0.1506;3.9607;
492.3000;0.1514;3.9659;
492.6000;0.1538;3.9736;
492.9000;0.1506;3.9607;
493.2000;0.1571;3.9787;
493.5000;0.1506;3.9582;
493.8000;0.1530;3.9530;
494.1000;0.1514;3.9582;
494.4000;0.1571;3.9761;
494.7000;0.1522;3.9633;
495.0000;0.1490;3.9607;
495.3000;0.1522;3.9736;
495.6000;0.1498;3.9684;
495.9000;0.1498;3.9684;
496.2000;0.1498;3.9684;
496.5000;0.1441;3.9505;
496.8000;0.1506;3.9659;
497.1000;0.1506;3.9684;
497.4000;0.1498;3.9787;
497.7000;0.1498;3.9710;
498.0000;0.1490;3.9710;
498.3000;0.1538;3.9761;
498.6000;0.1506;3.9736;
498.9000;0.1449;3.9582;
499.2000;0.1490;3.9607;
499.5000;0.1498;3.9582;
499.8000;0.1481;3.9607;
500.1000;0.1506;3.9684;
500.4000;0.1498;3.9582;
500.7000;0.1490;3.9428;
501.0000;0.1433;3.9300;
501.3000;0.1498;3.9530;
501.6000;0.1522;3.9582;
501.9000;0.1498;3.9453;
502.2000;0.1506;3.9607;
502.5000;0.1465;3.9530;
502.8000;0.1514;3.9659;
503.1000;0.1506;3.9659;
503.4000;0.1514;3.9710;
503.7000;0.1579;3.9761;
504.0000;0.1530;3.9607;
504.3000;0.1506;3.9607;
504.6000;0.1522;3.9633;
504.9000;0.1522;3.9633;
505.2000;0.1490;3.9633;
505.5000;0.1498;3.9633;
505.8000;0.1481;3.9479;
506.1000;0.1506;3.9582;
506.4000;0.1506;3.9633;
506.7000;0.1506;3.9659;
507.0000;0.1514;3.9633;
507.3000;0.1490;3.9582;
507.6000;0.1506;3.9582;
507.9000;0.1498;3.9659;
508.2000;0.1490;3.9684;
508.5000;0.1473;3.9710;
508.8000;0.1490;3.9761;
509.1000;0.1506;3.9813;
509.4000;0.1506;3.9864;
509.7000;0.1490;3.9813;
510.0000;0.1506;3.9787;
510.3000;0.1498;3.9787;
510.6000;0.1530;3.9890;
510.9000;0.1481;3.9710;
511.2000;0.1530;3.9761;
511.5000;0.1490;3.9684;
511.8000;0.1498;3.9710;
512.1000;0.1506;3.9838;
512.4000;0.1514;3.9761;
512.7000;0.1514;3.9684;
513.0000;0.1506;3.9607;
513.3000;0.1514;3.9582;
513.6000;0.1514;3.9556;
513.9000;0.1506;3.9556;
514.2000;0.1522;3.9505;
514.5000;0.1563;3.9582;
514.8000;0.1506;3.9479;
515.1000;0.1441;3.9351;
515.4000;0.1498;3.9684;
515.7000;0.1498;3.9684;
516.0000;0.1490;3.9710;
516.3000;0.1498;3.9710;
516.6000;0.1498;3.9684;
516.9000;0.1506;3.9710;
517.2000;0.1514;3.9607;
517.5000;0.1506;3.9582;
517.8000;0.1498;3.9582;
518.1000;0.1498;3.9556;
518.4000;0.1498;3.9633;
518.7000;0.1514;3.9633;
519.0000;0.1522;3.9607;
519.3000;0.1522;3.9633;
519.6000;0.1547;3.9659;
519.9000;0.1498;3.9402;
520.2000;0.1498;3.9505;
520.5000;0.1514;3.9505;
520.8000;0.1514;3.9582;
521.1000;0.1498;3.9582;
521.4000;0.1481;3.9582;
521.7000;0.1490;3.9607;
522.0000;0.1498;3.9556;
522.3000;0.1514;3.9607;
522.6000;0.1490;3.9582;
522.9000;0.1498;3.9607;
523.2000;0.1506;3.9659;
523.5000;0.1498;3.9659;
523.8000;0.1514;3.9684;
524.1000;0.1498;3.9633;
524.4000;0.1506;3.9710;
524.7000;0.1514;3.9710;
525.0000;0.1530;3.9838;
525.3000;0.1506;3.9761;
525.6000;0.1481;3.9710;
525.9000;0.1620;3.9992;
526.2000;0.1522;3.9736;
526.5000;0.1498;3.9710;
526.8000;0.1522;3.9761;
527.1000;0.1547;3.9838;
527.4000;0.1514;3.9736;
527.7000;0.1481;3.9530;
528.0000;0.1473;3.9453;
528.3000;0.1506;3.9556;
528.6000;0.1490;3.9582;
528.9000;0.1457;3.9556;
529.2000;0.1547;3.9787;
529.5000;0.1490;3.9633;
529.8000;0.1506;3.9684;
530.1000;0.1563;3.9864;
530.4000;0.1514;3.9787;
530.7000;0.1498;3.9736;
531.0000;0.1490;3.9659;
531.3000;0.1498;3.9659;
531.6000;0.1481;3.9556;
531.9000;0.1457;3.9530;
532.2000;0.1514;3.9813;
532.5000;0.1481;3.9684;
532.8000;0.1506;3.9761;
533.1000;0.1506;3.9736;
533.4000;0.1498;3.9684;
533.7000;0.1498;3.9787;
534.0000;0.1522;3.9864;
534.3000;0.1506;3.9787;
534.6000;0.1441;3.9607;
534.9000;0.1514;3.9864;
535.2000;0.1530;3.9890;
535.5000;0.1506;3.9787;
535.8000;0.1522;3.9813;
536.1000;0.1506;3.9761;
536.4000;0.1498;3.9787;
536.7000;0.1579;3.9992;
537.0000;0.1481;3.9684;
537.3000;0.1449;3.9582;
537.6000;0.1604;4.0043;
537.9000;0.1481;3.9633;
538.2000;0.1490;3.9684;
538.5000;0.1498;3.9684;
538.8000;0.1514;3.9736;
539.1000;0.1498;3.9684;
539.4000;0.1481;3.9838;
539.7000;0.1498;3.9761;
540.0000;0.1522;3.9787;
540.3000;0.1384;3.9351;
540.6000;0.1506;3.9659;
540.9000;0.1514;3.9556;
541.2000;0.1514;3.9607;
541.5000;0.1498;3.9607;
541.8000;0.1490;3.9556;
542.1000;0.1481;3.9530;
542.4000;0.1522;3.9607;
542.7000;0.1506;3.9607;
543.0000;0.1473;3.9607;
543.3000;0.1490;3.9582;
543.6000;0.1449;3.9428;
543.9000;0.1506;3.9633;
544.2000;0.1490;3.9659;
544.5000;0.1498;3.9607;
544.8000;0.1506;3.9684;
545.1000;0.1506;3.9761;
545.4000;0.1498;3.9633;
545.7000;0.1490;3.9582;
546.0000;0.1441;3.9505;
546.3000;0.1506;3.9633;
546.6000;0.1514;3.9710;
546.9000;0.1506;3.9633;
547.2000;0.1498;3.9659;
547.5000;0.1498;3.9607;
547.8000;0.1506;3.9582;
548.1000;0.1490;3.9582;
548.4000;0.1473;3.9556;
548.7000;0.1490;3.9582;
549.0000;0.1498;3.9556;
549.3000;0.1498;3.9556;
549.6000;0.1506;3.9582;
549.9000;0.1514;3.9659;
550.2000;0.1506;3.9633;
550.5000;0.1522;3.9659;
550.8000;0.1530;3.9633;
551.1000;0.1506;3.9736;
551.4000;0.1514;3.9710;
551.7000;0.1498;3.9633;
552.0000;0.1498;3.9607;
552.3000;0.1490;3.9659;
552.6000;0.1547;3.9838;
552.9000;0.1522;3.9684;
553.2000;0.1490;3.9530;
553.5000;0.1481;3.9582;
553.8000;0.1465;3.9479;
554.1000;0.1522;3.9556;
554.4000;0.1514;3.9582;
554.7000;0.1392;3.9223;
555.0000;0.1490;3.9582;
555.3000;0.1514;3.9684;
555.6000;0.1481;3.9659;
555.9000;0.1506;3.9710;
556.2000;0.1514;3.9710;
556.5000;0.1514;3.9838;
556.8000;0.1530;3.9813;
557.1000;0.1514;3.9684;
557.4000;0.1498;3.9659;
557.7000;0.1522;3.9710;
558.0000;0.1506;3.9607;
558.3000;0.1538;3.9761;
558.6000;0.1490;3.9582;
558.9000;0.1498;3.9607;
559.2000;0.1408;3.9223;
559.5000;0.1490;3.9479;
559.8000;0.1547;3.9659;
560.1000;0.1425;3.9428;
560.4000;0.1530;3.9787;
560.7000;0.1563;3.9992;
561.0000;0.1498;3.9761;
561.3000;0.1538;3.9915;
561.6000;0.1506;3.9787;
561.9000;0.1465;3.9530;
562.2000;0.1506;3.9710;
562.5000;0.1547;3.9890;
562.8000;0.1506;3.9813;
563.1000;0.1644;4.0172;
563.4000;0.1498;3.9736;
563.7000;0.1506;3.9710;
564.0000;0.1514;3.9787;
564.3000;0.1498;3.9736;
564.6000;0.1514;3.9838;
564.9000;0.1498;3.9864;
565.2000;0.1490;3.9915;
565.5000;0.1506;3.9890;
565.8000;0.1498;3.9967;
566.1000;0.1498;3.9915;
566.4000;0.1506;3.9838;
566.7000;0.1490;3.9838;
567.0000;0.1498;3.9813;
567.3000;0.1481;3.9736;
567.6000;0.1547;3.9787;
567.9000;0.1506;3.9684;
568.2000;0.1490;3.9736;
568.5000;0.1522;3.9761;
568.8000;0.1514;3.9736;
569.1000;0.1514;3.9736;
569.4000;0.1449;3.9479;
569.7000;0.1490;3.9530;
570.0000;0.1514;3.9556;
570.3000;0.1514;3.9633;
570.6000;0.1514;3.9582;
570.9000;0.1498;3.9479;
571.2000;0.1530;3.9607;
571.5000;0.1506;3.9607;
571.8000;0.1498;3.9659;
572.1000;0.1522;3.9684;
572.4000;0.1490;3.9556;
572.7000;0.1498;3.9607;
573.0000;0.1514;3.9556;
573.3000;0.1514;3.9607;
573.6000;0.1506;3.9710;
573.9000;0.1498;3.9710;
574.2000;0.1628;4.0146;
574.5000;0.1490;3.9710;
574.8000;0.1506;3.9838;
575.1000;0.1490;3.9761;
575.4000;0.1514;3.9813;
575.7000;0.1481;3.9607;
576.0000;0.1514;3.9659;
576.3000;0.1555;3.9736;
576.6000;0.1514;3.9582;
576.9000;0.1514;3.9607;
577.2000;0.1547;3.9607;
577.5000;0.1498;3.9582;
577.8000;0.1514;3.9607;
578.1000;0.1514;3.9505;
578.4000;0.1514;3.9582;
578.7000;0.1522;3.9684;
579.0000;0.1514;3.9659;
579.3000;0.1490;3.9761;
579.6000;0.1449;3.9659;
579.9000;0.1498;3.9684;
580.2000;0.1530;3.9761;
580.5000;0.1473;3.9710;
580.8000;0.1538;3.9736;
581.1000;0.1465;3.9530;
581.4000;0.1498;3.9582;
581.7000;0.1547;3.9633;
582.0000;0.1506;3.9530;
582.3000;0.1449;3.9377;
582.6000;0.1547;3.9659;
582.9000;0.1490;3.9530;
583.2000;0.1620;3.9787;
583.5000;0.1514;3.9607;
583.8000;0.1481;3.9479;
584.1000;0.1506;3.9582;
584.4000;0.1473;3.9505;
584.7000;0.1490;3.9607;
585.0000;0.1457;3.9556;
585.3000;0.1490;3.9607;
585.6000;0.1473;3.9582;
585.9000;0.1490;3.9710;
586.2000;0.1506;3.9761;
586.5000;0.1530;3.9736;
586.8000;0.1490;3.9633;
587.1000;0.1522;3.9684;
587.4000;0.1506;3.9684;
587.7000;0.1473;3.9530;
588.0000;0.1498;3.9479;
588.3000;0.1514;3.9479;
588.6000;0.1481;3.9402;
588.9000;0.1571;3.9659;
589.2000;0.1506;3.9530;
589.5000;0.1465;3.9453;
589.8000;0.1481;3.9633;
590.1000;0.1628;4.0120;
590.4000;0.1514;3.9787;
590.7000;0.1506;3.9710;
591.0000;0.1490;3.9582;
591.3000;0.1514;3.9659;
591.6000;0.1481;3.9530;
591.9000;0.1481;3.9556;
592.2000;0.1498;3.9556;
592.5000;0.1490;3.9479;
592.8000;0.1457;3.9377;
593.1000;0.1490;3.9479;
593.4000;0.1538;3.9607;
593.7000;0.1490;3.9505;
594.0000;0.1514;3.9607;
594.3000;0.1481;3.9582;
594.6000;0.1481;3.9556;
594.9000;0.1498;3.9556;
595.2000;0.1498;3.9479;
595.5000;0.1481;3.9453;
595.8000;0.1481;3.9453;
596.1000;0.1465;3.9453;
596.4000;0.1547;3.9659;
596.7000;0.1457;3.9428;
597.0000;0.1620;3.9915;
597.3000;0.1425;3.9453;
597.6000;0.1522;3.9710;
597.9000;0.1514;3.9684;
598.2000;0.1490;3.9556;
598.5000;0.1538;3.9633;
598.8000;0.1514;3.9530;
599.1000;0.1490;3.9530;
599.4000;0.1522;3.9582;
599.7000;0.1498;3.9453;
600.0000;0.1498;3.9479;
600.3000;0.1449;3.9274;
600.6000;0.1490;3.9428;
600.9000;0.1481;3.9351;
601.2000;0.1481;3.9300;
601.5000;0.1473;3.9146;
601.8000;0.1481;3.9017;
602.1000;0.1465;3.8838;
602.4000;0.1449;3.8735;
602.7000;0.1449;3.8684;
603.0000;0.1481;3.8633;
603.3000;0.1457;3.8556;
603.6000;0.1408;3.8453;
603.9000;0.1457;3.8530;
604.2000;0.1441;3.8376;
604.5000;0.1433;3.8350;
604.8000;0.1457;3.8504;
605.1000;0.1400;3.8376;
605.4000;0.1408;3.8376;
605.7000;0.1400;3.8273;
606.0000;0.1376;3.8222;
606.3000;0.1408;3.8350;
606.6000;0.1441;3.8453;
606.9000;0.1400;3.8222;
607.2000;0.1376;3.8120;
607.5000;0.1376;3.8043;
607.8000;0.1465;3.8376;
608.1000;0.1359;3.8068;
608.4000;0.1400;3.8094;
608.7000;0.1368;3.7940;
609.0000;0.1400;3.7914;
609.3000;0.1368;3.7735;
609.6000;0.1368;3.7863;
609.9000;0.1368;3.7863;
610.2000;0.1408;3.8043;
610.5000;0.1270;3.7683;
610.8000;0.1368;3.7914;
611.1000;0.1335;3.7760;
611.4000;0.1351;3.7991;
611.7000;0.1368;3.7966;
612.0000;0.1368;3.8068;
612.3000;0.1416;3.8273;
612.6000;0.1351;3.8120;
612.9000;0.1359;3.8171;
613.2000;0.1359;3.8145;
613.5000;0.1294;3.7991;
613.8000;0.1351;3.8094;
614.1000;0.1343;3.8068;
614.4000;0.1368;3.8145;
614.7000;0.1359;3.8094;
615.0000;0.1335;3.8043;
615.3000;0.1368;3.8120;
615.6000;0.1327;3.7991;
615.9000;0.1343;3.8043;
616.2000;0.1343;3.8068;
616.5000;0.1335;3.8017;
616.8000;0.1351;3.8043;
617.1000;0.1343;3.8043;
617.4000;0.1343;3.7991;
617.7000;0.1311;3.7889;
618.0000;0.1262;3.7786;
618.3000;0.1327;3.8120;
618.6000;0.1351;3.8197;
618.9000;0.1319;3.8094;
619.2000;0.1270;3.7940;
619.5000;0.1416;3.8402;
619.8000;0.1351;3.8222;
620.1000;0.1302;3.8120;
620.4000;0.1311;3.8094;
620.7000;0.1335;3.8145;
621.0000;0.1311;3.8094;
621.3000;0.1351;3.8145;
621.6000;0.1294;3.8043;
621.9000;0.1302;3.8017;
622.2000;0.1205;3.7658;
622.5000;0.1286;3.7940;
622.8000;0.1311;3.7991;
623.1000;0.1311;3.7966;
623.4000;0.1294;3.7889;
623.7000;0.1311;3.7837;
624.0000;0.1286;3.7735;
624.3000;0.1302;3.7812;
624.6000;0.1311;3.7863;
624.9000;0.1319;3.7966;
625.2000;0.1294;3.7914;
625.5000;0.1286;3.7914;
625.8000;0.1278;3.7914;
626.1000;0.1311;3.7966;
626.4000;0.1286;3.7940;
626.7000;0.1286;3.7940;
627.0000;0.1294;3.7966;
627.3000;0.1278;3.7991;
627.6000;0.1286;3.7966;
627.9000;0.1278;3.7940;
628.2000;0.1302;3.8017;
628.5000;0.1294;3.8043;
628.8000;0.1286;3.8017;
629.1000;0.1286;3.8017;
629.4000;0.1254;3.7966;
629.7000;0.1286;3.8120;
630.0000;0.1286;3.8145;
630.3000;0.1278;3.8094;
630.6000;0.1270;3.8145;
630.9000;0.1302;3.8273;
631.2000;0.1286;3.8299;
631.5000;0.1311;3.8376;
631.8000;0.1221;3.8222;
632.1000;0.1278;3.8427;
632.4000;0.1286;3.8453;
632.7000;0.1262;3.8197;
633.0000;0.1294;3.8273;
633.3000;0.1278;3.8197;
633.6000;0.1270;3.8120;
633.9000;0.1278;3.8120;
634.2000;0.1262;3.8043;
634.5000;0.1286;3.8145;
634.8000;0.1270;3.8120;
635.1000;0.1270;3.8120;
635.4000;0.1164;3.7786;
635.7000;0.1262;3.8017;
636.0000;0.1262;3.7966;
636.3000;0.1262;3.7966;
636.6000;0.1270;3.7940;
636.9000;0.1262;3.7914;
637.2000;0.1294;3.7966;
637.5000;0.1319;3.8017;
637.8000;0.1311;3.7966;
638.1000;0.1254;3.7837;
638.4000;0.1262;3.7914;
638.7000;0.1262;3.7863;
639.0000;0.1254;3.7889;
639.3000;0.1262;3.7889;
639.6000;0.1270;3.7889;
639.9000;0.1254;3.7914;
640.2000;0.1254;3.7940;
640.5000;0.1262;3.7966;
640.8000;0.1311;3.8094;
641.1000;0.1245;3.7863;
641.4000;0.1319;3.7991;
641.7000;0.1245;3.7735;
642.0000;0.1254;3.7812;
642.3000;0.1262;3.7889;
642.6000;0.1197;3.7863;
642.9000;0.1229;3.7991;
643.2000;0.1188;3.7889;
643.5000;0.1237;3.8017;
643.8000;0.1254;3.8145;
644.1000;0.1221;3.7914;
644.4000;0.1245;3.7966;
644.7000;0.1254;3.7940;
645.0000;0.1262;3.7940;
645.3000;0.1278;3.7940;
645.6000;0.1237;3.7786;
645.9000;0.1229;3.7735;
646.2000;0.1237;3.7760;
646.5000;0.1262;3.7837;
646.8000;0.1237;3.7735;
647.1000;0.1131;3.7453;
647.4000;0.1262;3.7786;
647.7000;0.1245;3.7735;
648.0000;0.1245;3.7812;
648.3000;0.1221;3.7760;
648.6000;0.1237;3.7786;
648.9000;0.1245;3.7735;
649.2000;0.1294;3.7760;
649.5000;0.1237;3.7530;
649.8000;0.1205;3.7555;
650.1000;0.1229;3.7606;
650.4000;0.1254;3.7735;
650.7000;0.1254;3.7760;
651.0000;0.1254;3.7709;
651.3000;0.1237;3.7683;
651.6000;0.1327;3.8068;
651.9000;0.1213;3.7837;
652.2000;0.1237;3.7940;
652.5000;0.1221;3.7966;
652.8000;0.1180;3.7760;
653.1000;0.1221;3.7966;
653.4000;0.1213;3.7966;
653.7000;0.1270;3.8043;
654.0000;0.1245;3.8043;
654.3000;0.1123;3.7837;
654.6000;0.1229;3.7966;
654.9000;0.1245;3.7889;
655.2000;0.1262;3.7914;
655.5000;0.1270;3.7940;
655.8000;0.1229;3.7914;
656.1000;0.1302;3.8171;
656.4000;0.1245;3.7966;
656.7000;0.1221;3.7991;
657.0000;0.1237;3.7914;
657.3000;0.1213;3.7786;
657.6000;0.1270;3.8068;
657.9000;0.1213;3.7863;
658.2000;0.1229;3.7914;
658.5000;0.1254;3.7991;
658.8000;0.1221;3.7837;
659.1000;0.1205;3.7812;
659.4000;0.1213;3.7863;
659.7000;0.1229;3.7940;
660.0000;0.1213;3.7991;
660.3000;0.1197;3.7991;
660.6000;0.1221;3.8043;
660.9000;0.1197;3.7940;
661.2000;0.1197;3.7914;
661.5000;0.1254;3.8171;
661.8000;0.1213;3.8017;
662.1000;0.1213;3.8017;
662.4000;0.1221;3.8043;
662.7000;0.1213;3.7966;
663.0000;0.1237;3.7966;
663.3000;0.1091;3.7632;
663.6000;0.1205;3.7940;
663.9000;0.1213;3.7991;
664.2000;0.1213;3.8068;
664.5000;0.1221;3.8094;
664.8000;0.1197;3.8120;
665.1000;0.1205;3.8094;
665.4000;0.1180;3.7914;
665.7000;0.1205;3.7940;
666.0000;0.1254;3.7991;
666.3000;0.1197;3.7812;
666.6000;0.1213;3.7812;
666.9000;0.1205;3.7760;
667.2000;0.1213;3.7786;
667.5000;0.1229;3.7837;
667.8000;0.1197;3.7914;
668.1000;0.1205;3.7991;
668.4000;0.1172;3.7966;
668.7000;0.1140;3.7940;
669.0000;0.1197;3.8043;
669.3000;0.1205;3.8068;
669.6000;0.1205;3.8043;
669.9000;0.1156;3.7914;
670.2000;0.1205;3.7991;
670.5000;0.1205;3.7966;
670.8000;0.1197;3.7889;
671.1000;0.1286;3.8197;
671.4000;0.1188;3.7966;
671.7000;0.1245;3.8094;
672.0000;0.1221;3.8068;
672.3000;0.1180;3.7966;
672.6000;0.1221;3.8094;
672.9000;0.1221;3.8145;
673.2000;0.1197;3.8094;
673.5000;0.1197;3.8094;
673.8000;0.1180;3.8043;
674.1000;0.1213;3.7966;
674.4000;0.1188;3.7889;
674.7000;0.1237;3.8094;
675.0000;0.1213;3.8120;
675.3000;0.1254;3.8222;
675.6000;0.1254;3.8273;
675.9000;0.1188;3.8171;
676.2000;0.1156;3.8017;
676.5000;0.1205;3.8171;
676.8000;0.1278;3.8453;
677.1000;0.1221;3.8273;
677.4000;0.1205;3.8120;
677.7000;0.1213;3.8094;
678.0000;0.1205;3.8094;
678.3000;0.1205;3.8043;
678.6000;0.1197;3.8017;
678.9000;0.1188;3.7940;
679.2000;0.1188;3.7889;
679.5000;0.1148;3.7863;
679.8000;0.1188;3.8068;
680.1000;0.1205;3.8120;
680.4000;0.1229;3.8043;
680.7000;0.1213;3.7991;
681.0000;0.1205;3.8017;
681.3000;0.1188;3.7991;
681.6000;0.1172;3.7914;
681.9000;0.1188;3.7940;
682.2000;0.1205;3.7940;
682.5000;0.1205;3.7914;
682.8000;0.1197;3.7863;
683.1000;0.1188;3.7966;
683.4000;0.1172;3.8017;
683.7000;0.1205;3.8197;
684.0000;0.1205;3.8094;
684.3000;0.1197;3.8068;
684.6000;0.1278;3.8350;
684.9000;0.1197;3.8094;
685.2000;0.1188;3.8068;
685.5000;0.1237;3.8222;
685.8000;0.1164;3.8145;
686.1000;0.1213;3.8222;
686.4000;0.1172;3.8068;
686.7000;0.1197;3.8171;
687.0000;0.1197;3.8197;
687.3000;0.1205;3.8248;
687.6000;0.1180;3.8145;
687.9000;0.1188;3.8120;
688.2000;0.1197;3.8068;
688.5000;0.1213;3.8171;
688.8000;0.1229;3.8171;
689.1000;0.1221;3.8171;
689.4000;0.1140;3.7966;
689.7000;0.1213;3.8197;
690.0000;0.1140;3.7966;
690.3000;0.1205;3.8094;
690.6000;0.1188;3.8017;
690.9000;0.1140;3.7889;
691.2000;0.1164;3.7863;
691.5000;0.1221;3.8094;
691.8000;0.1221;3.8068;
692.1000;0.1197;3.8017;
692.4000;0.1107;3.7837;
692.7000;0.1237;3.8120;
693.0000;0.1164;3.7914;
693.3000;0.1172;3.7966;
693.6000;0.1180;3.8043;
693.9000;0.1131;3.7940;
694.2000;0.1205;3.8248;
694.5000;0.1188;3.8273;
694.8000;0.1172;3.8222;
695.1000;0.1172;3.8197;
695.4000;0.1164;3.8145;
695.7000;0.1197;3.8248;
696.0000;0.1188;3.8145;
696.3000;0.1140;3.8068;
696.6000;0.1205;3.8273;
696.9000;0.1188;3.8222;
697.2000;0.1188;3.8068;
697.5000;0.1221;3.8145;
697.8000;0.1221;3.8120;
698.1000;0.1156;3.7889;
698.4000;0.1188;3.8094;
698.7000;0.1221;3.7991;
699.0000;0.1188;3.7914;
699.3000;0.1131;3.7786;
699.6000;0.1188;3.7889;
699.9000;0.1172;3.7914;
700.2000;0.1205;3.7991;
700.5000;0.1197;3.7940;
700.8000;0.1229;3.8017;
701.1000;0.1197;3.8017;
701.4000;0.1156;3.7991;
701.7000;0.1164;3.8094;
702.0000;0.1205;3.8197;
702.3000;0.1188;3.8197;
702.6000;0.1172;3.8120;
702.9000;0.1205;3.8197;
703.2000;0.1245;3.8197;
703.5000;0.1148;3.7863;
703.8000;0.1148;3.7889;
704.1000;0.1164;3.7889;
704.4000;0.1197;3.7966;
704.7000;0.1180;3.7914;
705.0000;0.1180;3.7889;
705.3000;0.1180;3.7991;
705.6000;0.1172;3.8017;
705.9000;0.1180;3.8043;
706.2000;0.1172;3.8017;
706.5000;0.1180;3.8068;
706.8000;0.1172;3.8068;
707.1000;0.1221;3.8197;
707.4000;0.1164;3.8017;
707.7000;0.1180;3.8068;
708.0000;0.1180;3.8120;
708.3000;0.1188;3.8197;
708.6000;0.1188;3.8222;
708.9000;0.1180;3.8120;
709.2000;0.1164;3.8094;
709.5000;0.1270;3.8427;
709.8000;0.1188;3.8299;
710.1000;0.1180;3.8248;
710.4000;0.1172;3.8197;
710.7000;0.1156;3.8043;
711.0000;0.1294;3.8325;
711.3000;0.1180;3.8017;
711.6000;0.1197;3.8043;
711.9000;0.1172;3.8043;
712.2000;0.1221;3.8197;
712.5000;0.1172;3.8017;
712.8000;0.1164;3.7966;
713.1000;0.1164;3.7889;
713.4000;0.1180;3.7889;
713.7000;0.1180;3.7889;
714.0000;0.1180;3.7889;
714.3000;0.1123;3.7760;
714.6000;0.1140;3.7760;
714.9000;0.1164;3.7812;
715.2000;0.1156;3.7735;
715.5000;0.1172;3.7683;
715.8000;0.1188;3.7735;
716.1000;0.1197;3.7735;
716.4000;0.1131;3.7606;
716.7000;0.1131;3.7658;
717.0000;0.1180;3.7889;
717.3000;0.1172;3.7837;
717.6000;0.1180;3.7837;
717.9000;0.1197;3.7863;
718.2000;0.1188;3.7889;
718.5000;0.1172;3.7914;
718.8000;0.1172;3.7914;
719.1000;0.1148;3.7940;
719.4000;0.1205;3.8017;
719.7000;0.1188;3.7914;
720.0000;0.1156;3.7812;
720.3000;0.1172;3.7735;
720.6000;0.1164;3.7786;
720.9000;0.1172;3.7812;
721.2000;0.1172;3.7837;
721.5000;0.1164;3.7889;
721.8000;0.1164;3.7940;
722.1000;0.1172;3.8017;
722.4000;0.1172;3.8043;
722.7000;0.1115;3.7837;
723.0000;0.1140;3.7863;
723.3000;0.1156;3.7889;
723.6000;0.1205;3.8017;
723.9000;0.1180;3.7991;
724.2000;0.1131;3.7786;
724.5000;0.1156;3.7914;
724.8000;0.1229;3.8171;
725.1000;0.1164;3.7991;
725.4000;0.1213;3.8068;
725.7000;0.1156;3.7940;
726.0000;0.1115;3.7812;
726.3000;0.1229;3.8120;
726.6000;0.1164;3.7863;
726.9000;0.1172;3.7735;
727.2000;0.1197;3.7709;
727.5000;0.1172;3.7812;
727.8000;0.1164;3.7863;
728.1000;0.1164;3.7889;
728.4000;0.1351;3.8479;
728.7000;0.1188;3.7991;
729.0000;0.1172;3.7914;
729.3000;0.1172;3.8017;
729.6000;0.1164;3.7966;
729.9000;0.1172;3.8017;
730.2000;0.1188;3.7991;
730.5000;0.1148;3.7786;
730.8000;0.1164;3.7709;
731.1000;0.1172;3.7709;
731.4000;0.1188;3.7786;
731.7000;0.1188;3.7914;
732.0000;0.1083;3.7504;
732.3000;0.1164;3.7760;
732.6000;0.1180;3.7786;
732.9000;0.1180;3.7812;
733.2000;0.1237;3.7863;
733.5000;0.1099;3.7555;
733.8000;0.1172;3.7735;
734.1000;0.1164;3.7760;
734.4000;0.1172;3.7812;
734.7000;0.1188;3.7889;
735.0000;0.1180;3.7889;
735.3000;0.1188;3.7940;
735.6000;0.1172;3.7966;
735.9000;0.1107;3.7735;
736.2000;0.1172;3.7914;
736.5000;0.1188;3.7966;
736.8000;0.1180;3.7889;
737.1000;0.1213;3.8043;
737.4000;0.1164;3.8017;
737.7000;0.1180;3.8043;
738.0000;0.1156;3.8017;
738.3000;0.1180;3.7966;
738.6000;0.1172;3.7863;
738.9000;0.1180;3.7991;
739.2000;0.1188;3.8043;
739.5000;0.1172;3.8017;
739.8000;0.1172;3.8094;
740.1000;0.1188;3.8197;
740.4000;0.1172;3.8043;
740.7000;0.1164;3.8094;
741.0000;0.1205;3.8145;
741.3000;0.1221;3.8171;
741.6000;0.1164;3.8017;
741.9000;0.1131;3.7991;
742.2000;0.1164;3.8094;
742.5000;0.1156;3.8094;
742.8000;0.1156;3.8145;
743.1000;0.1172;3.8171;
743.4000;0.1148;3.8171;
743.7000;0.1164;3.8145;
744.0000;0.1115;3.7966;
744.3000;0.1172;3.8120;
744.6000;0.1172;3.8171;
744.9000;0.1156;3.8068;
745.2000;0.1172;3.8043;
745.5000;0.1164;3.7991;
745.8000;0.1188;3.8068;
746.1000;0.1172;3.8068;
746.4000;0.1172;3.7991;
746.7000;0.1180;3.7991;
747.0000;0.1221;3.8171;
747.3000;0.1131;3.7966;
747.6000;0.1156;3.7991;
747.9000;0.1156;3.8043;
748.2000;0.1164;3.7991;
748.5000;0.1205;3.8043;
748.8000;0.1156;3.7914;
749.1000;0.1180;3.7966;
749.4000;0.1156;3.7914;
749.7000;0.1237;3.8145;
750.0000;0.1140;3.7940;
750.3000;0.1172;3.8094;
750.6000;0.1164;3.8094;
750.9000;0.1245;3.8325;
751.2000;0.1164;3.8171;
751.5000;0.1262;3.8453;
751.8000;0.1164;3.8248;
752.1000;0.1140;3.8145;
752.4000;0.1229;3.8299;
752.7000;0.1164;3.8068;
753.0000;0.1156;3.7914;
753.3000;0.1172;3.7914;
753.6000;0.1140;3.7863;
753.9000;0.1164;3.7889;
754.2000;0.1164;3.7889;
754.5000;0.1180;3.7991;
754.8000;0.1156;3.7914;
755.1000;0.1156;3.7889;
755.4000;0.1164;3.7837;
755.7000;0.1164;3.7889;
756.0000;0.1180;3.7966;
756.3000;0.1164;3.8017;
756.6000;0.1172;3.7991;
756.9000;0.1254;3.8222;
757.2000;0.1172;3.7966;
757.5000;0.1156;3.7940;
757.8000;0.1140;3.7914;
758.1000;0.1140;3.7889;
758.4000;0.1156;3.7914;
758.7000;0.1148;3.7991;
759.0000;0.1131;3.7914;
759.3000;0.1156;3.7966;
759.6000;0.1164;3.8017;
759.9000;0.1205;3.8171;
760.2000;0.1107;3.7940;
760.5000;0.1188;3.8120;
760.8000;0.1180;3.8145;
761.1000;0.1115;3.7966;
761.4000;0.1188;3.8120;
761.7000;0.1083;3.7889;
762.0000;0.1197;3.8248;
762.3000;0.1164;3.8145;
762.6000;0.1156;3.8145;
762.9000;0.1123;3.8094;
763.2000;0.1172;3.8299;
763.5000;0.1172;3.8350;
763.8000;0.1180;3.8350;
764.1000;0.1156;3.8222;
764.4000;0.1197;3.8402;
764.7000;0.1156;3.8222;
765.0000;0.1131;3.8145;
765.3000;0.1148;3.8120;
765.6000;0.1091;3.7966;
765.9000;0.1172;3.8222;
766.2000;0.1156;3.8273;
766.5000;0.1148;3.8248;
766.8000;0.1156;3.8145;
767.1000;0.1180;3.8145;
767.4000;0.1156;3.8120;
767.7000;0.1156;3.8120;
768.0000;0.1107;3.7991;
768.3000;0.1164;3.8043;
768.6000;0.1172;3.8068;
768.9000;0.1156;3.8017;
769.2000;0.1074;3.7760;
769.5000;0.1123;3.7966;
769.8000;0.1213;3.8068;
770.1000;0.1131;3.7812;
770.4000;0.1131;3.7863;
770.7000;0.1156;3.8017;
771.0000;0.1148;3.7991;
771.3000;0.1197;3.7991;
771.6000;0.1156;3.7940;
771.9000;0.1148;3.7966;
772.2000;0.1131;3.7940;
772.5000;0.1074;3.7863;
772.8000;0.1172;3.8248;
773.1000;0.1140;3.8197;
773.4000;0.1229;3.8453;
773.7000;0.1172;3.8299;
774.0000;0.1188;3.8299;
774.3000;0.1197;3.8376;
774.6000;0.1164;3.8171;
774.9000;0.1140;3.8120;
775.2000;0.1156;3.8094;
775.5000;0.1091;3.7966;
775.8000;0.1180;3.8120;
776.1000;0.1172;3.8068;
776.4000;0.1123;3.7863;
776.7000;0.1156;3.7889;
777.0000;0.1140;3.7812;
777.3000;0.1156;3.7837;
777.6000;0.1164;3.7889;
777.9000;0.1156;3.7940;
778.2000;0.1180;3.8017;
778.5000;0.1229;3.8094;
778.8000;0.1131;3.7914;
779.1000;0.1164;3.7991;
779.4000;0.1188;3.8068;
779.7000;0.1164;3.8043;
780.0000;0.1164;3.8094;
780.3000;0.1180;3.8171;
780.6000;0.1156;3.8145;
780.9000;0.1172;3.8197;
781.2000;0.1172;3.8171;
781.5000;0.1115;3.7940;
781.8000;0.1164;3.8068;
782.1000;0.1140;3.7966;
782.4000;0.1188;3.8197;
782.7000;0.1172;3.8299;
783.0000;0.1172;3.8248;
783.3000;0.1172;3.8120;
783.6000;0.1066;3.7812;
783.9000;0.1156;3.8043;
784.2000;0.1205;3.8068;
784.5000;0.1180;3.7966;
784.8000;0.1148;3.7914;
785.1000;0.1148;3.7940;
785.4000;0.1148;3.7863;
785.7000;0.1156;3.7837;
786.0000;0.1123;3.7812;
786.3000;0.1188;3.7889;
786.6000;0.1164;3.7863;
786.9000;0.1229;3.8043;
787.2000;0.1180;3.7940;
787.5000;0.1164;3.7889;
787.8000;0.1164;3.7991;
788.1000;0.1156;3.7940;
788.4000;0.1156;3.8017;
788.7000;0.1156;3.7991;
789.0000;0.1180;3.8017;
789.3000;0.1123;3.7914;
789.6000;0.1164;3.8068;
789.9000;0.1156;3.8043;
790.2000;0.1156;3.7966;
790.5000;0.1180;3.8068;
790.8000;0.1148;3.7991;
791.1000;0.1148;3.7991;
791.4000;0.1188;3.8120;
791.7000;0.1156;3.8043;
792.0000;0.1156;3.7914;
792.3000;0.1156;3.7940;
792.6000;0.1148;3.7914;
792.9000;0.1164;3.7914;
793.2000;0.1205;3.8068;
793.5000;0.1156;3.7889;
793.8000;0.1156;3.7837;
794.1000;0.1164;3.7914;
794.4000;0.1131;3.7837;
794.7000;0.1164;3.7991;
795.0000;0.1123;3.7889;
795.3000;0.1180;3.8017;
795.6000;0.1172;3.7940;
795.9000;0.1099;3.7735;
796.2000;0.1164;3.7940;
796.5000;0.1180;3.8017;
796.8000;0.1156;3.7940;
797.1000;0.1156;3.7940;
797.4000;0.1156;3.8043;
797.7000;0.1156;3.8017;
798.0000;0.1213;3.8120;
798.3000;0.1180;3.8068;
798.6000;0.1213;3.8197;
798.9000;0.1148;3.8017;
799.2000;0.1131;3.7991;
799.5000;0.1156;3.8017;
799.8000;0.1148;3.7991;
800.1000;0.1164;3.8017;
800.4000;0.1140;3.7940;
800.7000;0.1148;3.7914;
801.0000;0.1164;3.7966;
801.3000;0.1148;3.7940;
801.6000;0.1148;3.7991;
801.9000;0.1172;3.8068;
802.2000;0.1156;3.8068;
802.5000;0.1042;3.7760;
802.8000;0.1148;3.8094;
803.1000;0.1172;3.8145;
803.4000;0.1148;3.8094;
803.7000;0.1083;3.7914;
804.0000;0.1148;3.8171;
804.3000;0.1164;3.8248;
804.6000;0.1148;3.8171;
804.9000;0.1140;3.8171;
805.2000;0.1188;3.8197;
805.5000;0.1148;3.8068;
805.8000;0.1115;3.7914;
806.1000;0.1148;3.7914;
806.4000;0.1156;3.7863;
806.7000;0.1156;3.7837;
807.0000;0.1164;3.7837;
807.3000;0.1197;3.7914;
807.6000;0.1278;3.8299;
807.9000;0.1140;3.7863;
808.2000;0.1164;3.8043;
808.5000;0.1229;3.8197;
808.8000;0.1148;3.7991;
809.1000;0.1115;3.7991;
809.4000;0.1156;3.8120;
809.7000;0.1180;3.8171;
810.0000;0.1156;3.8120;
810.3000;0.1262;3.8479;
810.6000;0.1140;3.8171;
810.9000;0.1164;3.8197;
811.2000;0.1245;3.8350;
811.5000;0.1148;3.7991;
811.8000;0.1140;3.7991;
812.1000;0.1156;3.8017;
812.4000;0.1131;3.8017;
812.7000;0.1140;3.8043;
813.0000;0.1148;3.8120;
813.3000;0.1164;3.8222;
813.6000;0.1140;3.8222;
813.9000;0.1156;3.8273;
814.2000;0.1148;3.8273;
814.5000;0.1164;3.8376;
814.8000;0.1156;3.8273;
815.1000;0.1180;3.8222;
815.4000;0.1148;3.8171;
815.7000;0.1123;3.8120;
816.0000;0.1164;3.8197;
816.3000;0.1140;3.8197;
816.6000;0.1091;3.8017;
816.9000;0.1140;3.8068;
817.2000;0.1148;3.8043;
817.5000;0.1074;3.7940;
817.8000;0.1172;3.8197;
818.1000;0.1083;3.7889;
818.4000;0.1156;3.8017;
818.7000;0.1188;3.8068;
819.0000;0.1107;3.7786;
819.3000;0.1083;3.7735;
819.6000;0.1156;3.8017;
819.9000;0.1197;3.8043;
820.2000;0.1148;3.7966;
820.5000;0.1164;3.7991;
820.8000;0.1148;3.7889;
821.1000;0.1164;3.7889;
821.4000;0.1148;3.7863;
821.7000;0.1148;3.7889;
822.0000;0.1221;3.7940;
822.3000;0.1131;3.7812;
822.6000;0.1074;3.7658;
822.9000;0.1156;3.7991;
823.2000;0.1156;3.8094;
823.5000;0.1140;3.8222;
823.8000;0.1156;3.8197;
824.1000;0.1197;3.8325;
824.4000;0.1148;3.8145;
824.7000;0.1188;3.8248;
825.0000;0.1140;3.8094;
825.3000;0.1156;3.8094;
825.6000;0.1164;3.8145;
825.9000;0.1148;3.8094;
826.2000;0.1156;3.8145;
826.5000;0.1140;3.8094;
826.8000;0.1140;3.8094;
827.1000;0.1131;3.8043;
827.4000;0.1164;3.8120;
827.7000;0.1172;3.8120;
828.0000;0.1156;3.8043;
828.3000;0.1131;3.7863;
828.6000;0.1140;3.8017;
828.9000;0.1148;3.8017;
829.2000;0.1164;3.8094;
829.5000;0.1140;3.7940;
829.8000;0.1172;3.8068;
830.1000;0.1140;3.7914;
830.4000;0.1148;3.8094;
830.7000;0.1156;3.8171;
831.0000;0.1148;3.8145;
831.3000;0.1099;3.7991;
831.6000;0.1156;3.8299;
831.9000;0.1148;3.8222;
832.2000;0.1131;3.8120;
832.5000;0.1188;3.8197;
832.8000;0.1188;3.8222;
833.1000;0.1131;3.7991;
833.4000;0.1148;3.8068;
833.7000;0.1140;3.8043;
834.0000;0.1148;3.8043;
834.3000;0.1123;3.8043;
834.6000;0.1148;3.8094;
834.9000;0.1164;3.8094;
835.2000;0.1148;3.8120;
835.5000;0.1164;3.8068;
835.8000;0.1156;3.8017;
836.1000;0.1156;3.8017;
836.4000;0.1148;3.7991;
836.7000;0.1156;3.8120;
837.0000;0.1148;3.8120;
837.3000;0.1140;3.8043;
837.6000;0.1131;3.8017;
837.9000;0.1164;3.8068;
838.2000;0.1180;3.8068;
838.5000;0.1148;3.7914;
838.8000;0.1140;3.7812;
839.1000;0.1148;3.7735;
839.4000;0.1148;3.7837;
839.7000;0.1148;3.7837;
840.0000;0.1156;3.7889;
840.3000;0.1156;3.8068;
840.6000;0.1148;3.8017;
840.9000;0.1148;3.8043;
841.2000;0.1156;3.8068;
841.5000;0.1074;3.7940;
841.8000;0.1140;3.8145;
842.1000;0.1131;3.8171;
842.4000;0.1131;3.8171;
842.7000;0.1148;3.8171;
843.0000;0.1131;3.8094;
843.3000;0.1156;3.8145;
843.6000;0.1156;3.8145;
843.9000;0.1131;3.8043;
844.2000;0.1205;3.8197;
844.5000;0.1140;3.8094;
844.8000;0.1140;3.8145;
845.1000;0.1164;3.8273;
845.4000;0.1164;3.8273;
845.7000;0.1180;3.8299;
846.0000;0.1140;3.8017;
846.3000;0.1221;3.8299;
846.6000;0.1099;3.8017;
846.9000;0.1172;3.8171;
847.2000;0.1140;3.7966;
847.5000;0.1188;3.8171;
847.8000;0.1123;3.8094;
848.1000;0.1140;3.8299;
848.4000;0.1083;3.8094;
848.7000;0.1131;3.8273;
849.0000;0.1140;3.8376;
849.3000;0.1131;3.8350;
849.6000;0.1164;3.8427;
849.9000;0.1156;3.8504;
850.2000;0.1140;3.8376;
850.5000;0.1164;3.8453;
850.8000;0.1172;3.8453;
851.1000;0.1148;3.8402;
851.4000;0.1131;3.8273;
851.7000;0.1123;3.8222;
852.0000;0.1172;3.8350;
852.3000;0.1164;3.8350;
852.6000;0.1180;3.8376;
852.9000;0.1180;3.8427;
853.2000;0.1156;3.8325;
853.5000;0.1172;3.8350;
853.8000;0.1156;3.8197;
854.1000;0.1131;3.8145;
854.4000;0.1131;3.8145;
854.7000;0.1123;3.8094;
855.0000;0.1221;3.8376;
855.3000;0.1148;3.8197;
855.6000;0.1156;3.8171;
855.9000;0.1156;3.8171;
856.2000;0.1180;3.8222;
856.5000;0.1237;3.8453;
856.8000;0.1140;3.8248;
857.1000;0.1123;3.8248;
857.4000;0.1123;3.8145;
857.7000;0.1140;3.8273;
858.0000;0.1148;3.8325;
858.3000;0.1148;3.8299;
858.6000;0.1140;3.8299;
858.9000;0.1156;3.8273;
859.2000;0.1140;3.8171;
859.5000;0.1140;3.8120;
859.8000;0.1123;3.8068;
860.1000;0.1148;3.8120;
860.4000;0.1156;3.8145;
860.7000;0.1156;3.8120;
861.0000;0.1172;3.8120;
861.3000;0.1148;3.8068;
861.6000;0.1156;3.8120;
861.9000;0.1123;3.8043;
862.2000;0.1148;3.8171;
862.5000;0.1148;3.8222;
862.8000;0.1131;3.8197;
863.1000;0.1140;3.8222;
863.4000;0.1180;3.8350;
863.7000;0.1156;3.8222;
864.0000;0.1148;3.8171;
864.3000;0.1107;3.8068;
864.6000;0.1148;3.8068;
864.9000;0.1156;3.8120;
865.2000;0.1140;3.8145;
865.5000;0.1140;3.8043;
865.8000;0.1156;3.7991;
866.1000;0.1156;3.8043;
866.4000;0.1188;3.8197;
866.7000;0.1131;3.8120;
867.0000;0.1148;3.8145;
867.3000;0.1180;3.8222;
867.6000;0.1164;3.8171;
867.9000;0.1115;3.8120;
868.2000;0.1148;3.8145;
868.5000;0.1123;3.8068;
868.8000;0.1156;3.8171;
869.1000;0.1148;3.8120;
869.4000;0.1180;3.8197;
869.7000;0.1148;3.8017;
870.0000;0.1131;3.7991;
870.3000;0.1164;3.8145;
870.6000;0.1188;3.8171;
870.9000;0.1148;3.8043;
871.2000;0.1148;3.8017;
871.5000;0.1156;3.8017;
871.8000;0.1156;3.8068;
872.1000;0.1148;3.8145;
872.4000;0.1164;3.8197;
872.7000;0.1148;3.8068;
873.0000;0.1140;3.8068;
873.3000;0.1123;3.7940;
873.6000;0.1131;3.8017;
873.9000;0.1156;3.7966;
874.2000;0.1131;3.7914;
874.5000;0.1148;3.8068;
874.8000;0.1140;3.8068;
875.1000;0.1156;3.8197;
875.4000;0.1164;3.8325;
875.7000;0.1140;3.8222;
876.0000;0.1172;3.8299;
876.3000;0.1148;3.8222;
876.6000;0.1131;3.8120;
876.9000;0.1123;3.7966;
877.2000;0.1164;3.8094;
877.5000;0.1237;3.8325;
877.8000;0.1156;3.8145;
878.1000;0.1148;3.8145;
878.4000;0.1042;3.7786;
878.7000;0.1156;3.8120;
879.0000;0.1172;3.8145;
879.3000;0.1156;3.8094;
879.6000;0.1172;3.8145;
879.9000;0.1123;3.8094;
880.2000;0.1140;3.8094;
880.5000;0.1140;3.8171;
880.8000;0.1131;3.8120;
881.1000;0.1148;3.8068;
881.4000;0.1099;3.7991;
881.7000;0.1148;3.8145;
882.0000;0.1115;3.8043;
882.3000;0.1140;3.8094;
882.6000;0.1107;3.8017;
882.9000;0.1099;3.7966;
883.2000;0.1156;3.8094;
883.5000;0.1148;3.8120;
883.8000;0.1156;3.8043;
884.1000;0.1164;3.7966;
884.4000;0.1164;3.7966;
884.7000;0.1164;3.8043;
885.0000;0.1156;3.8068;
885.3000;0.1156;3.8068;
885.6000;0.1026;3.7658;
885.9000;0.1131;3.7991;
886.2000;0.1148;3.7914;
886.5000;0.1148;3.7991;
886.8000;0.1156;3.8068;
887.1000;0.1140;3.8094;
887.4000;0.1140;3.8145;
887.7000;0.1156;3.7991;
888.0000;0.1188;3.8120;
888.3000;0.1131;3.8017;
888.6000;0.1164;3.8043;
888.9000;0.1140;3.7914;
889.2000;0.1164;3.8043;
889.5000;0.1148;3.7966;
889.8000;0.1050;3.7709;
890.1000;0.1091;3.7837;
890.4000;0.1131;3.7940;
890.7000;0.1197;3.8197;
891.0000;0.1034;3.7812;
891.3000;0.1107;3.7914;
891.6000;0.1148;3.8043;
891.9000;0.1172;3.8094;
892.2000;0.1156;3.8120;
892.5000;0.1164;3.8094;
892.8000;0.1156;3.8094;
893.1000;0.1156;3.8197;
893.4000;0.1140;3.8120;
893.7000;0.1115;3.8043;
894.0000;0.1221;3.8325;
894.3000;0.1156;3.8094;
894.6000;0.1148;3.8017;
894.9000;0.1107;3.7889;
895.2000;0.1156;3.8094;
895.5000;0.1083;3.7914;
895.8000;0.1148;3.8068;
896.1000;0.1131;3.7914;
896.4000;0.1140;3.7889;
896.7000;0.1156;3.7966;
897.0000;0.1156;3.7889;
897.3000;0.1131;3.7863;
897.6000;0.1131;3.7889;
897.9000;0.1140;3.7914;
898.2000;0.1148;3.7940;
898.5000;0.1148;3.7966;
898.8000;0.1172;3.8068;
899.1000;0.1131;3.8068;
899.4000;0.1148;3.8120;
899.7000;0.1148;3.8043;
900.0000;0.1156;3.7991;
900.3000;0.1148;3.8017;
900.6000;0.1156;3.8145;
900.9000;0.1131;3.8043;
901.2000;0.1156;3.7966;
901.5000;0.1164;3.7889;
901.8000;0.1156;3.7863;
902.1000;0.1156;3.7889;
902.4000;0.1188;3.7991;
902.7000;0.1148;3.7991;
903.0000;0.1197;3.8043;
903.3000;0.1245;3.8145;
903.6000;0.1026;3.7478;
903.9000;0.1148;3.7889;
904.2000;0.1140;3.7914;
904.5000;0.1156;3.7889;
904.8000;0.1115;3.7863;
905.1000;0.1140;3.8017;
905.4000;0.1123;3.8043;
905.7000;0.1115;3.7991;
906.0000;0.1164;3.8197;
906.3000;0.1131;3.8068;
906.6000;0.1099;3.7940;
906.9000;0.1140;3.8068;
907.2000;0.1156;3.8120;
907.5000;0.1140;3.8043;
907.8000;0.1123;3.7991;
908.1000;0.1140;3.7966;
908.4000;0.1148;3.7991;
908.7000;0.1164;3.7991;
909.0000;0.1164;3.8017;
909.3000;0.1156;3.7940;
909.6000;0.1172;3.8043;
909.9000;0.1156;3.7966;
910.2000;0.1148;3.7991;
910.5000;0.1131;3.7940;
910.8000;0.1148;3.8094;
911.1000;0.1140;3.8094;
911.4000;0.1140;3.8017;
911.7000;0.1164;3.8043;
912.0000;0.1140;3.8017;
912.3000;0.1156;3.8222;
912.6000;0.1148;3.8248;
912.9000;0.1131;3.8299;
913.2000;0.1083;3.8120;
913.5000;0.1042;3.7991;
913.8000;0.1156;3.8325;
914.1000;0.1197;3.8427;
914.4000;0.1148;3.8222;
914.7000;0.1156;3.8273;
915.0000;0.1156;3.8273;
915.3000;0.1172;3.8248;
915.6000;0.1148;3.8273;
915.9000;0.1148;3.8248;
916.2000;0.1172;3.8171;
916.5000;0.1229;3.8325;
916.8000;0.1140;3.8094;
917.1000;0.1148;3.8171;
917.4000;0.1140;3.8222;
917.7000;0.1164;3.8299;
918.0000;0.1205;3.8479;
918.3000;0.1131;3.8248;
918.6000;0.1140;3.8171;
918.9000;0.1140;3.8068;
919.2000;0.1131;3.8068;
919.5000;0.1140;3.8120;
919.8000;0.1140;3.8094;
920.1000;0.1205;3.8222;
920.4000;0.1148;3.8120;
920.7000;0.1140;3.8171;
921.0000;0.1245;3.8556;
921.3000;0.1156;3.8350;
921.6000;0.1148;3.8248;
921.9000;0.1148;3.8171;
922.2000;0.1148;3.8043;
922.5000;0.1164;3.8120;
922.8000;0.1156;3.7991;
923.1000;0.1156;3.8017;
923.4000;0.1140;3.7966;
923.7000;0.1172;3.8145;
924.0000;0.1156;3.8145;
924.3000;0.1131;3.8068;
924.6000;0.1197;3.8222;
924.9000;0.1164;3.8120;
925.2000;0.1156;3.8171;
925.5000;0.1091;3.7940;
925.8000;0.1188;3.8068;
926.1000;0.1164;3.8068;
926.4000;0.1099;3.7812;
926.7000;0.1180;3.8094;
927.0000;0.1131;3.8094;
927.3000;0.1140;3.8120;
927.6000;0.1213;3.8299;
927.9000;0.1156;3.8094;
928.2000;0.1164;3.8197;
928.5000;0.1131;3.8120;
928.8000;0.1131;3.8145;
929.1000;0.1156;3.8197;
929.4000;0.1156;3.8145;
929.7000;0.1172;3.8171;
930.0000;0.1148;3.8043;
930.3000;0.1148;3.8043;
930.6000;0.1148;3.8120;
930.9000;0.1164;3.8120;
931.2000;0.1140;3.8043;
931.5000;0.1131;3.8017;
931.8000;0.1156;3.8017;
932.1000;0.1131;3.8043;
932.4000;0.1140;3.8094;
932.7000;0.1140;3.8145;
933.0000;0.1123;3.8171;
933.3000;0.1131;3.8120;
933.6000;0.1140;3.8094;
933.9000;0.1156;3.8043;
934.2000;0.1172;3.8043;
934.5000;0.1164;3.7966;
934.8000;0.1156;3.7863;
935.1000;0.1131;3.7760;
935.4000;0.1172;3.7940;
935.7000;0.1123;3.7786;
936.0000;0.1172;3.7940;
936.3000;0.1140;3.7837;
936.6000;0.1156;3.7889;
936.9000;0.1123;3.7760;
937.2000;0.1131;3.7837;
937.5000;0.1140;3.7812;
937.8000;0.1156;3.7863;
938.1000;0.1131;3.7760;
938.4000;0.1156;3.7889;
938.7000;0.1148;3.7837;
939.0000;0.1164;3.7863;
939.3000;0.1148;3.7786;
939.6000;0.1156;3.7837;
939.9000;0.1131;3.7812;
940.2000;0.1131;3.7889;
940.5000;0.1262;3.8222;
940.8000;0.1172;3.7914;
941.1000;0.1131;3.7889;
941.4000;0.1131;3.7991;
941.7000;0.1148;3.7966;
942.0000;0.1148;3.8017;
942.3000;0.1123;3.7863;
942.6000;0.1148;3.7966;
942.9000;0.1197;3.8120;
943.2000;0.1148;3.7991;
943.5000;0.1205;3.8222;
943.8000;0.1083;3.7837;
944.1000;0.1148;3.8017;
944.4000;0.1131;3.8068;
944.7000;0.1131;3.8068;
945.0000;0.1164;3.8145;
945.3000;0.1131;3.8120;
945.6000;0.1156;3.8120;
945.9000;0.1237;3.8299;
946.2000;0.1131;3.8017;
946.5000;0.1140;3.8017;
946.8000;0.1050;3.7812;
947.1000;0.1156;3.8120;
947.4000;0.1156;3.7991;
947.7000;0.1172;3.7966;
948.0000;0.1148;3.7914;
948.3000;0.1156;3.8017;
948.6000;0.1188;3.8145;
948.9000;0.1188;3.8197;
949.2000;0.1140;3.8017;
949.5000;0.1140;3.8017;
949.8000;0.1164;3.8043;
950.1000;0.1140;3.8120;
950.4000;0.1148;3.8145;
950.7000;0.1148;3.8120;
951.0000;0.1140;3.8017;
951.3000;0.1148;3.8068;
951.6000;0.1148;3.7966;
951.9000;0.1172;3.8068;
952.2000;0.1156;3.8017;
952.5000;0.1140;3.7991;
952.8000;0.1083;3.7837;
953.1000;0.1131;3.7940;
953.4000;0.1148;3.7991;
953.7000;0.1140;3.7991;
954.0000;0.1148;3.7966;
954.3000;0.1140;3.7863;
954.6000;0.1156;3.7940;
954.9000;0.1197;3.8068;
955.2000;0.1123;3.7837;
955.5000;0.1131;3.7863;
955.8000;0.1115;3.7837;
956.1000;0.1148;3.7863;
956.4000;0.1131;3.7837;
956.7000;0.1156;3.7889;
957.0000;0.1156;3.7889;
957.3000;0.1140;3.7863;
957.6000;0.1172;3.7940;
957.9000;0.1172;3.7991;
958.2000;0.1148;3.7940;
958.5000;0.1180;3.8068;
958.8000;0.1245;3.8350;
959.1000;0.1123;3.7966;
959.4000;0.1156;3.7991;
959.7000;0.1148;3.7966;
960.0000;0.1156;3.7940;
960.3000;0.1131;3.7837;
960.6000;0.1172;3.7991;
960.9000;0.1018;3.7658;
961.2000;0.1148;3.8017;
961.5000;0.1131;3.7966;
961.8000;0.1140;3.7940;
962.1000;0.1164;3.8017;
962.4000;0.1066;3.7632;
962.7000;0.1164;3.7966;
963.0000;0.1197;3.8043;
963.3000;0.1221;3.8068;
963.6000;0.1254;3.8197;
963.9000;0.1123;3.7786;
964.2000;0.1131;3.7863;
964.5000;0.1107;3.7812;
964.8000;0.1131;3.7837;
965.1000;0.1140;3.7863;
965.4000;0.1074;3.7735;
965.7000;0.1131;3.7889;
966.0000;0.1148;3.7966;
966.3000;0.1172;3.8094;
966.6000;0.1091;3.7966;
966.9000;0.1148;3.8094;
967.2000;0.1156;3.8068;
967.5000;0.1164;3.8094;
967.8000;0.1148;3.7966;
968.1000;0.1156;3.8043;
968.4000;0.1131;3.8094;
968.7000;0.1164;3.8145;
969.0000;0.1156;3.8197;
969.3000;0.1148;3.8145;
969.6000;0.1140;3.8017;
969.9000;0.1140;3.8120;
970.2000;0.1140;3.8017;
970.5000;0.1131;3.8068;
970.8000;0.1131;3.8068;
971.1000;0.1140;3.8068;
971.4000;0.1115;3.7991;
971.7000;0.1164;3.8145;
972.0000;0.1172;3.8171;
972.3000;0.1123;3.8145;
972.6000;0.1164;3.8197;
972.9000;0.1123;3.8120;
973.2000;0.1140;3.8120;
973.5000;0.1131;3.8145;
973.8000;0.1140;3.8222;
974.1000;0.1172;3.8376;
974.4000;0.1050;3.8120;
974.7000;0.1164;3.8504;
975.0000;0.1140;3.8427;
975.3000;0.1148;3.8479;
975.6000;0.1148;3.8453;
975.9000;0.1107;3.8325;
976.2000;0.1140;3.8376;
976.5000;0.1140;3.8376;
976.8000;0.1018;3.7914;
977.1000;0.1148;3.8273;
977.4000;0.1148;3.8248;
977.7000;0.1140;3.8145;
978.0000;0.1172;3.8222;
978.3000;0.1131;3.8094;
978.6000;0.1156;3.8171;
978.9000;0.1148;3.8120;
979.2000;0.1148;3.8120;
979.5000;0.1140;3.8145;
979.8000;0.1148;3.8222;
980.1000;0.1164;3.8197;
980.4000;0.1131;3.8094;
980.7000;0.1140;3.8120;
981.0000;0.1131;3.8120;
981.3000;0.1123;3.8094;
981.6000;0.1140;3.8120;
981.9000;0.1115;3.7966;
982.2000;0.1115;3.7966;
982.5000;0.1140;3.8017;
982.8000;0.1164;3.8068;
983.1000;0.1188;3.8145;
983.4000;0.1107;3.7940;
983.7000;0.1131;3.7966;
984.0000;0.1164;3.8043;
984.3000;0.1148;3.8120;
984.6000;0.1156;3.8197;
984.9000;0.1131;3.8145;
985.2000;0.1131;3.8197;
985.5000;0.1140;3.8222;
985.8000;0.1140;3.8145;
986.1000;0.1148;3.8094;
986.4000;0.1197;3.8299;
986.7000;0.1140;3.8145;
987.0000;0.1156;3.8120;
987.3000;0.1148;3.8043;
987.6000;0.1156;3.8043;
987.9000;0.1131;3.8068;
988.2000;0.1148;3.7966;
988.5000;0.1148;3.7914;
988.8000;0.1140;3.7914;
989.1000;0.1123;3.7889;
989.4000;0.1148;3.8094;
989.7000;0.1140;3.8145;
990.0000;0.1156;3.8299;
990.3000;0.1172;3.8299;
990.6000;0.1197;3.8299;
990.9000;0.1131;3.8248;
991.2000;0.1123;3.8222;
991.5000;0.1123;3.8171;
991.8000;0.1148;3.8120;
992.1000;0.1148;3.8094;
992.4000;0.1131;3.7991;
992.7000;0.1164;3.7991;
993.0000;0.1140;3.8043;
993.3000;0.1140;3.7991;
993.6000;0.1156;3.8068;
993.9000;0.1131;3.7940;
994.2000;0.1131;3.7991;
994.5000;0.1091;3.7812;
994.8000;0.1156;3.8043;
995.1000;0.1140;3.7940;
995.4000;0.1123;3.7914;
995.7000;0.1099;3.7812;
996.0000;0.1164;3.8120;
996.3000;0.1140;3.8017;
996.6000;0.1156;3.7991;
996.9000;0.1131;3.8145;
997.2000;0.1074;3.8043;
997.5000;0.1229;3.8402;
997.8000;0.1131;3.8094;
998.1000;0.1123;3.8068;
998.4000;0.1156;3.8043;
998.7000;0.1148;3.8043;
999.0000;0.1164;3.8094;
999.3000;0.1156;3.8068;
999.6000;0.1156;3.7991;
999.9000;0.1123;3.7863;
1000.2000;0.1140;3.7889;
1000.5000;0.1140;3.7940;
1000.8000;0.1140;3.7812;
1001.1000;0.1156;3.7837;
1001.4000;0.1131;3.7812;
1001.7000;0.1131;3.7812;
1002.0000;0.1131;3.7837;
1002.3000;0.1131;3.7940;
1002.6000;0.1140;3.7991;
1002.9000;0.1123;3.7966;
1003.2000;0.1123;3.8043;
1003.5000;0.1148;3.8120;
1003.8000;0.1156;3.8120;
1004.1000;0.1156;3.8145;
1004.4000;0.1148;3.7966;
1004.7000;0.1156;3.8120;
1005.0000;0.1140;3.8120;
1005.3000;0.1148;3.8094;
1005.6000;0.1148;3.8068;
1005.9000;0.1131;3.8043;
1006.2000;0.1115;3.8043;
1006.5000;0.1131;3.8145;
1006.8000;0.1140;3.8222;
1007.1000;0.1018;3.7812;
1007.4000;0.1107;3.7940;
1007.7000;0.1131;3.7966;
1008.0000;0.1123;3.7837;
1008.3000;0.1140;3.7863;
1008.6000;0.1131;3.7889;
1008.9000;0.1123;3.7914;
1009.2000;0.1188;3.8120;
1009.5000;0.1156;3.8043;
1009.8000;0.1140;3.8043;
1010.1000;0.1156;3.8043;
1010.4000;0.1034;3.7683;
1010.7000;0.1148;3.8043;
1011.0000;0.1148;3.7966;
1011.3000;0.1156;3.7966;
1011.6000;0.1131;3.7966;
1011.9000;0.1131;3.8043;
1012.2000;0.1148;3.8017;
1012.5000;0.1148;3.8017;
1012.8000;0.1140;3.7991;
1013.1000;0.1123;3.7889;
1013.4000;0.1131;3.7966;
1013.7000;0.1107;3.7940;
1014.0000;0.1213;3.8273;
1014.3000;0.1140;3.8120;
1014.6000;0.1042;3.7837;
1014.9000;0.1050;3.7940;
1015.2000;0.1148;3.8197;
1015.5000;0.1131;3.8043;
1015.8000;0.1140;3.8094;
1016.1000;0.1172;3.8171;
1016.4000;0.1123;3.8068;
1016.7000;0.1123;3.8043;
1017.0000;0.1164;3.8120;
1017.3000;0.1164;3.8094;
1017.6000;0.1164;3.8120;
1017.9000;0.1164;3.8222;
1018.2000;0.1107;3.8043;
1018.5000;0.1131;3.8068;
1018.8000;0.1164;3.8197;
1019.1000;0.1140;3.8145;
1019.4000;0.1197;3.8068;
1019.7000;0.1172;3.8120;
1020.0000;0.1156;3.8043;
1020.3000;0.1099;3.7812;
1020.6000;0.1131;3.7966;
1020.9000;0.1156;3.8043;
1021.2000;0.1140;3.7966;
1021.5000;0.1131;3.7991;
1021.8000;0.1148;3.8068;
1022.1000;0.1148;3.8017;
1022.4000;0.1164;3.7966;
1022.7000;0.1172;3.8017;
1023.0000;0.1131;3.7940;
1023.3000;0.1115;3.7812;
1023.6000;0.1148;3.7940;
1023.9000;0.1164;3.7940;
1024.2000;0.1115;3.7889;
1024.5000;0.1123;3.7966;
1024.8000;0.1164;3.8145;
1025.1000;0.1148;3.8120;
1025.4000;0.1156;3.8120;
1025.7000;0.1140;3.8068;
1026.0000;0.1123;3.8043;
1026.3000;0.1156;3.8145;
1026.6000;0.1180;3.8145;
1026.9000;0.1099;3.7889;
1027.2000;0.1140;3.8017;
1027.5000;0.1140;3.7914;
1027.8000;0.1180;3.7940;
1028.1000;0.1148;3.7940;
1028.4000;0.1148;3.7914;
1028.7000;0.1123;3.7863;
1029.0000;0.1131;3.7940;
1029.3000;0.1180;3.8120;
1029.6000;0.1131;3.7966;
1029.9000;0.1148;3.7966;
1030.2000;0.1091;3.7812;
1030.5000;0.1123;3.8017;
1030.8000;0.1148;3.8017;
1031.1000;0.1164;3.8094;
1031.4000;0.1254;3.8376;
1031.7000;0.1131;3.7940;
1032.0000;0.1197;3.8043;
1032.3000;0.1131;3.7966;
1032.6000;0.1140;3.8068;
1032.9000;0.1172;3.8043;
1033.2000;0.1131;3.7914;
1033.5000;0.1156;3.7991;
1033.8000;0.1123;3.7863;
1034.1000;0.1148;3.7940;
1034.4000;0.1172;3.8068;
1034.7000;0.1140;3.7991;
1035.0000;0.1140;3.7991;
1035.3000;0.1148;3.8043;
1035.6000;0.1074;3.7940;
1035.9000;0.1148;3.8197;
1036.2000;0.1131;3.8094;
1036.5000;0.1140;3.8094;
1036.8000;0.1140;3.8145;
1037.1000;0.1148;3.8197;
1037.4000;0.1140;3.8197;
1037.7000;0.1123;3.8171;
1038.0000;0.1123;3.8145;
1038.3000;0.1148;3.8094;
1038.6000;0.1131;3.8043;
1038.9000;0.1140;3.8120;
1039.2000;0.1131;3.8145;
1039.5000;0.1140;3.8171;
1039.8000;0.1148;3.8197;
1040.1000;0.1131;3.8120;
1040.4000;0.1140;3.8248;
1040.7000;0.1172;3.8376;
1041.0000;0.1099;3.8248;
1041.3000;0.1148;3.8299;
1041.6000;0.1164;3.8120;
1041.9000;0.1091;3.7889;
1042.2000;0.1156;3.7914;
1042.5000;0.1213;3.8043;
1042.8000;0.1164;3.7837;
1043.1000;0.1172;3.7760;
1043.4000;0.1164;3.7709;
1043.7000;0.1148;3.7786;
1044.0000;0.1148;3.7786;
1044.3000;0.1213;3.7991;
1044.6000;0.1164;3.7837;
1044.9000;0.1148;3.7812;
1045.2000;0.1123;3.7760;
1045.5000;0.1115;3.7735;
1045.8000;0.1148;3.7863;
1046.1000;0.1172;3.8017;
1046.4000;0.1156;3.7966;
1046.7000;0.1148;3.7889;
1047.0000;0.1131;3.7837;
1047.3000;0.1140;3.7914;
1047.6000;0.1131;3.7863;
1047.9000;0.1131;3.7837;
1048.2000;0.1148;3.7940;
1048.5000;0.1148;3.7940;
1048.8000;0.1115;3.7966;
1049.1000;0.1131;3.8043;
1049.4000;0.1140;3.8017;
1049.7000;0.1148;3.8043;
1050.0000;0.1172;3.8197;
1050.3000;0.1123;3.8120;
1050.6000;0.1140;3.8120;
1050.9000;0.1148;3.8120;
1051.2000;0.1156;3.8068;
1051.5000;0.1188;3.8017;
1051.8000;0.1140;3.7760;
1052.1000;0.1131;3.7760;
1052.4000;0.1140;3.7812;
1052.7000;0.1050;3.7581;
1053.0000;0.1131;3.7940;
1053.3000;0.1156;3.7991;
1053.6000;0.1245;3.8171;
1053.9000;0.1140;3.7863;
1054.2000;0.1148;3.7889;
1054.5000;0.1066;3.7735;
1054.8000;0.1140;3.7837;
1055.1000;0.1140;3.7812;
1055.4000;0.1156;3.7837;
1055.7000;0.1254;3.8273;
1056.0000;0.1172;3.7966;
1056.3000;0.1148;3.7966;
1056.6000;0.1148;3.8017;
1056.9000;0.1140;3.7991;
1057.2000;0.1148;3.8017;
1057.5000;0.1140;3.7940;
1057.8000;0.1131;3.7914;
1058.1000;0.1131;3.8017;
1058.4000;0.1091;3.7889;
1058.7000;0.1099;3.7786;
1059.0000;0.1131;3.7966;
1059.3000;0.1131;3.7914;
1059.6000;0.1140;3.7889;
1059.9000;0.1148;3.7940;
1060.2000;0.1140;3.8017;
1060.5000;0.1237;3.8273;
1060.8000;0.1140;3.8017;
1061.1000;0.1197;3.8222;
1061.4000;0.1140;3.8094;
1061.7000;0.1188;3.8222;
1062.0000;0.1140;3.7991;
1062.3000;0.1148;3.8068;
1062.6000;0.1156;3.8120;
1062.9000;0.1164;3.8068;
1063.2000;0.1156;3.8120;
1063.5000;0.1156;3.8120;
1063.8000;0.1213;3.8248;
1064.1000;0.1123;3.7914;
1064.4000;0.1131;3.7914;
1064.7000;0.1123;3.7889;
1065.0000;0.1115;3.7812;
1065.3000;0.1148;3.7966;
1065.6000;0.1172;3.8068;
1065.9000;0.1131;3.7966;
1066.2000;0.1131;3.7991;
1066.5000;0.1172;3.8017;
1066.8000;0.1107;3.7940;
1067.1000;0.1156;3.7991;
1067.4000;0.1156;3.8068;
1067.7000;0.1164;3.8068;
1068.0000;0.1180;3.8043;
1068.3000;0.1148;3.7940;
1068.6000;0.1164;3.8094;
1068.9000;0.1148;3.8017;
1069.2000;0.1172;3.8043;
1069.5000;0.1115;3.7966;
1069.8000;0.1140;3.7991;
1070.1000;0.1131;3.7991;
1070.4000;0.1131;3.7991;
1070.7000;0.1131;3.8017;
1071.0000;0.1140;3.8017;
1071.3000;0.1148;3.7991;
1071.6000;0.1131;3.7940;
1071.9000;0.1034;3.7683;
1072.2000;0.1148;3.8043;
1072.5000;0.1140;3.8043;
1072.8000;0.1140;3.8068;
1073.1000;0.1156;3.8120;
1073.4000;0.1099;3.7889;
1073.7000;0.1221;3.8171;
1074.0000;0.1148;3.7991;
1074.3000;0.1188;3.8068;
1074.6000;0.1148;3.7991;
1074.9000;0.1123;3.8043;
1075.2000;0.1123;3.7991;
1075.5000;0.1131;3.7940;
1075.8000;0.1148;3.8043;
1076.1000;0.1140;3.7940;
1076.4000;0.1140;3.7940;
1076.7000;0.1148;3.7940;
1077.0000;0.1148;3.7914;
1077.3000;0.1074;3.7837;
1077.6000;0.1131;3.8068;
1077.9000;0.1148;3.8145;
1078.2000;0.1140;3.8171;
1078.5000;0.1156;3.8222;
1078.8000;0.1140;3.8197;
1079.1000;0.1140;3.8222;
1079.4000;0.1188;3.8402;
1079.7000;0.1156;3.8197;
1080.0000;0.1148;3.8171;
1080.3000;0.1115;3.8017;
1080.6000;0.1148;3.8068;
1080.9000;0.1074;3.7837;
1081.2000;0.1131;3.7966;
1081.5000;0.1140;3.7991;
1081.8000;0.1099;3.7812;
1082.1000;0.1066;3.7812;
1082.4000;0.1205;3.8325;
1082.7000;0.1148;3.8043;
1083.0000;0.1148;3.8068;
1083.3000;0.1156;3.8197;
1083.6000;0.1213;3.8376;
1083.9000;0.1205;3.8273;
1084.2000;0.1148;3.8068;
1084.5000;0.1164;3.8145;
1084.8000;0.1262;3.8504;
1085.1000;0.1140;3.8145;
1085.4000;0.1140;3.8171;
1085.7000;0.1140;3.8197;
1086.0000;0.1131;3.8094;
1086.3000;0.1140;3.8068;
1086.6000;0.1140;3.8043;
1086.9000;0.1164;3.8094;
1087.2000;0.1131;3.8068;
1087.5000;0.1123;3.8043;
1087.8000;0.1180;3.8248;
1088.1000;0.1140;3.8145;
1088.4000;0.1156;3.8094;
1088.7000;0.1131;3.8017;
1089.0000;0.1131;3.7966;
1089.3000;0.1270;3.8376;
1089.6000;0.1213;3.8145;
1089.9000;0.1140;3.7914;
1090.2000;0.1156;3.7940;
1090.5000;0.1172;3.7991;
1090.8000;0.1140;3.7966;
1091.1000;0.1148;3.8094;
1091.4000;0.1156;3.8171;
1091.7000;0.1140;3.8197;
1092.0000;0.1026;3.7863;
1092.3000;0.1140;3.8197;
1092.6000;0.1123;3.8094;
1092.9000;0.1115;3.8043;
1093.2000;0.1140;3.8094;
1093.5000;0.1156;3.8120;
1093.8000;0.1148;3.8043;
1094.1000;0.1164;3.8043;
1094.4000;0.1140;3.7991;
1094.7000;0.1148;3.7966;
1095.0000;0.1123;3.7889;
1095.3000;0.1164;3.8068;
1095.6000;0.1123;3.8017;
1095.9000;0.1099;3.7863;
1096.2000;0.1140;3.8068;
1096.5000;0.1107;3.7940;
1096.8000;0.1205;3.8197;
1097.1000;0.1148;3.8017;
1097.4000;0.1131;3.8017;
1097.7000;0.1148;3.7966;
1098.0000;0.1107;3.7812;
1098.3000;0.1148;3.7966;
1098.6000;0.1131;3.7991;
1098.9000;0.1148;3.8068;
1099.2000;0.1205;3.8273;
1099.5000;0.1148;3.8043;
1099.8000;0.1156;3.8017;
1100.1000;0.1107;3.7914;
1100.4000;0.1123;3.7940;
1100.7000;0.1148;3.8017;
1101.0000;0.1156;3.7966;
1101.3000;0.1164;3.7940;
1101.6000;0.1148;3.7863;
1101.9000;0.1140;3.7812;
1102.2000;0.1091;3.7709;
1102.5000;0.1091;3.7735;
1102.8000;0.1131;3.7889;
1103.1000;0.1131;3.7863;
1103.4000;0.1083;3.7786;
1103.7000;0.1131;3.7966;
1104.0000;0.1156;3.8043;
1104.3000;0.1131;3.8094;
1104.6000;0.1148;3.8094;
1104.9000;0.1148;3.8094;
1105.2000;0.1140;3.8017;
1105.5000;0.1213;3.8222;
1105.8000;0.1148;3.7991;
1106.1000;0.1229;3.8171;
1106.4000;0.1131;3.7940;
1106.7000;0.1115;3.7914;
1107.0000;0.1123;3.7991;
1107.3000;0.1156;3.8043;
1107.6000;0.1156;3.7940;
1107.9000;0.1140;3.7940;
1108.2000;0.1140;3.8017;
1108.5000;0.1140;3.8094;
1108.8000;0.1156;3.8273;
1109.1000;0.1148;3.8248;
1109.4000;0.1131;3.8171;
1109.7000;0.1197;3.8350;
1110.0000;0.1148;3.8273;
1110.3000;0.1156;3.8299;
1110.6000;0.1140;3.8222;
1110.9000;0.1115;3.8145;
1111.2000;0.1164;3.8171;
1111.5000;0.1164;3.8120;
1111.8000;0.1140;3.7991;
1112.1000;0.1148;3.7940;
1112.4000;0.1140;3.7966;
1112.7000;0.1131;3.7889;
1113.0000;0.1140;3.7940;
1113.3000;0.1140;3.7966;
1113.6000;0.1131;3.8017;
1113.9000;0.1164;3.8068;
1114.2000;0.1148;3.8068;
1114.5000;0.1131;3.8043;
1114.8000;0.1140;3.8043;
1115.1000;0.1148;3.8068;
1115.4000;0.1254;3.8350;
1115.7000;0.1156;3.8094;
1116.0000;0.1123;3.7966;
1116.3000;0.1140;3.7991;
1116.6000;0.1221;3.8273;
1116.9000;0.1180;3.8171;
1117.2000;0.1156;3.8094;
1117.5000;0.1131;3.8068;
1117.8000;0.1156;3.8171;
1118.1000;0.1148;3.8094;
1118.4000;0.1140;3.8068;
1118.7000;0.1140;3.8120;
1119.0000;0.1131;3.8273;
1119.3000;0.1140;3.8222;
1119.6000;0.1131;3.8299;
1119.9000;0.1148;3.8427;
1120.2000;0.1140;3.8299;
1120.5000;0.1140;3.8273;
1120.8000;0.1188;3.8402;
1121.1000;0.1140;3.8299;
1121.4000;0.1123;3.8325;
1121.7000;0.1148;3.8350;
1122.0000;0.1115;3.8222;
1122.3000;0.1148;3.8299;
1122.6000;0.1131;3.8222;
1122.9000;0.1099;3.8145;
1123.2000;0.1131;3.8273;
1123.5000;0.1156;3.8222;
1123.8000;0.1164;3.8248;
1124.1000;0.1197;3.8376;
1124.4000;0.1148;3.8222;
1124.7000;0.1148;3.8171;
1125.0000;0.1140;3.8197;
1125.3000;0.1156;3.8248;
1125.6000;0.1131;3.8299;
1125.9000;0.1131;3.8248;
1126.2000;0.1205;3.8530;
1126.5000;0.1123;3.8273;
1126.8000;0.1164;3.8402;
1127.1000;0.1140;3.8350;
1127.4000;0.1148;3.8427;
1127.7000;0.1156;3.8504;
1128.0000;0.1058;3.8145;
1128.3000;0.1164;3.8479;
1128.6000;0.1148;3.8427;
1128.9000;0.1140;3.8325;
1129.2000;0.1148;3.8376;
1129.5000;0.1140;3.8376;
1129.8000;0.1140;3.8402;
1130.1000;0.1115;3.8325;
1130.4000;0.1148;3.8273;
1130.7000;0.1188;3.8427;
1131.0000;0.1156;3.8350;
1131.3000;0.1123;3.8299;
1131.6000;0.1140;3.8248;
1131.9000;0.1115;3.8197;
1132.2000;0.1148;3.8197;
1132.5000;0.1131;3.8094;
1132.8000;0.1148;3.8145;
1133.1000;0.1148;3.8017;
1133.4000;0.1140;3.8017;
1133.7000;0.1148;3.8145;
1134.0000;0.1140;3.8094;
1134.3000;0.1148;3.8222;
1134.6000;0.1140;3.8299;
1134.9000;0.1156;3.8325;
1135.2000;0.1180;3.8402;
1135.5000;0.1140;3.8197;
1135.8000;0.1180;3.8248;
1136.1000;0.1148;3.8171;
1136.4000;0.1180;3.8197;
1136.7000;0.1164;3.8197;
1137.0000;0.1148;3.8171;
1137.3000;0.1164;3.8197;
1137.6000;0.1164;3.8248;
1137.9000;0.1123;3.8171;
1138.2000;0.1123;3.8197;
1138.5000;0.1164;3.8376;
1138.8000;0.1140;3.8197;
1139.1000;0.1148;3.8171;
1139.4000;0.1172;3.8248;
1139.7000;0.1148;3.8120;
1140.0000;0.1115;3.8017;
1140.3000;0.1131;3.8068;
1140.6000;0.1148;3.8094;
1140.9000;0.1148;3.8120;
1141.2000;0.1148;3.8120;
1141.5000;0.1140;3.8017;
1141.8000;0.1131;3.7991;
1142.1000;0.1148;3.7914;
1142.4000;0.1156;3.7889;
1142.7000;0.1156;3.7889;
1143.0000;0.1131;3.7812;
1143.3000;0.1148;3.7837;
1143.6000;0.1123;3.7786;
1143.9000;0.1237;3.8120;
1144.2000;0.1164;3.7812;
1144.5000;0.1140;3.7863;
1144.8000;0.1131;3.7863;
1145.1000;0.1131;3.7837;
1145.4000;0.1172;3.7940;
1145.7000;0.1123;3.7914;
1146.0000;0.1148;3.8017;
1146.3000;0.1140;3.7889;
1146.6000;0.1140;3.7812;
1146.9000;0.1050;3.7658;
1147.2000;0.1164;3.8017;
1147.5000;0.1123;3.7889;
1147.8000;0.1140;3.8017;
1148.1000;0.1156;3.8017;
1148.4000;0.1254;3.8273;
1148.7000;0.1107;3.7966;
1149.0000;0.1140;3.8120;
1149.3000;0.1140;3.8017;
1149.6000;0.1131;3.8120;
1149.9000;0.1123;3.8068;
1150.2000;0.1115;3.8120;
1150.5000;0.1026;3.7812;
1150.8000;0.1131;3.8120;
1151.1000;0.1156;3.8171;
1151.4000;0.1180;3.8171;
1151.7000;0.1123;3.7940;
1152.0000;0.1091;3.7889;
1152.3000;0.1156;3.8145;
1152.6000;0.1180;3.8171;
1152.9000;0.1140;3.8094;
1153.2000;0.1131;3.8068;
1153.5000;0.1148;3.8171;
1153.8000;0.1205;3.8299;
1154.1000;0.1099;3.8017;
1154.4000;0.1123;3.8068;
1154.7000;0.1131;3.8145;
1155.0000;0.1140;3.8094;
1155.3000;0.1131;3.8068;
1155.6000;0.1131;3.8068;
1155.9000;0.1074;3.7966;
1156.2000;0.1123;3.8120;
1156.5000;0.1115;3.8120;
1156.8000;0.1099;3.8043;
1157.1000;0.1131;3.8120;
1157.4000;0.1140;3.8120;
1157.7000;0.1140;3.8197;
1158.0000;0.1140;3.8222;
1158.3000;0.1140;3.8273;
1158.6000;0.1197;3.8556;
1158.9000;0.1148;3.8402;
1159.2000;0.1140;3.8325;
1159.5000;0.1131;3.8299;
1159.8000;0.1123;3.8299;
1160.1000;0.1156;3.8402;
1160.4000;0.1140;3.8350;
1160.7000;0.1099;3.8171;
1161.0000;0.1140;3.8350;
1161.3000;0.1156;3.8299;
1161.6000;0.1140;3.8273;
1161.9000;0.1156;3.8299;
1162.2000;0.1140;3.8197;
1162.5000;0.1148;3.8248;
1162.8000;0.1180;3.8402;
1163.1000;0.1156;3.8273;
1163.4000;0.1131;3.8197;
1163.7000;0.1164;3.8248;
1164.0000;0.1131;3.8325;
1164.3000;0.1140;3.8427;
1164.6000;0.1131;3.8479;
1164.9000;0.1107;3.8427;
1165.2000;0.1148;3.8479;
1165.5000;0.1123;3.8402;
1165.8000;0.1140;3.8427;
1166.1000;0.1140;3.8376;
1166.4000;0.1131;3.8273;
1166.7000;0.1148;3.8273;
1167.0000;0.1164;3.8273;
1167.3000;0.1140;3.8094;
1167.6000;0.1156;3.8222;
1167.9000;0.1205;3.8402;
1168.2000;0.1148;3.8197;
1168.5000;0.1131;3.8171;
1168.8000;0.1205;3.8376;
1169.1000;0.1131;3.8197;
1169.4000;0.1156;3.8248;
1169.7000;0.1148;3.8273;
1170.0000;0.1164;3.8299;
1170.3000;0.1148;3.8222;
1170.6000;0.1148;3.8273;
1170.9000;0.1148;3.8273;
1171.2000;0.1148;3.8197;
1171.5000;0.1188;3.8299;
1171.8000;0.1140;3.8197;
1172.1000;0.1140;3.8171;
1172.4000;0.1131;3.8273;
1172.7000;0.1148;3.8299;
1173.0000;0.1140;3.8248;
1173.3000;0.1131;3.8248;
1173.6000;0.1156;3.8299;
1173.9000;0.1140;3.8145;
1174.2000;0.1131;3.8120;
1174.5000;0.1156;3.8043;
1174.8000;0.1221;3.8171;
1175.1000;0.1197;3.8094;
1175.4000;0.1074;3.7683;
1175.7000;0.1140;3.7889;
1176.0000;0.1050;3.7606;
1176.3000;0.1123;3.7940;
1176.6000;0.1172;3.8120;
1176.9000;0.1123;3.8043;
1177.2000;0.1140;3.8120;
1177.5000;0.1140;3.8120;
1177.8000;0.1164;3.8145;
1178.1000;0.1140;3.8197;
1178.4000;0.1205;3.8273;
1178.7000;0.1156;3.8145;
1179.0000;0.1140;3.8094;
1179.3000;0.1140;3.8145;
1179.6000;0.1140;3.8017;
1179.9000;0.1156;3.8120;
1180.2000;0.1140;3.8068;
1180.5000;0.1140;3.8094;
1180.8000;0.1123;3.8145;
1181.1000;0.1123;3.8068;
1181.4000;0.1107;3.7991;
1181.7000;0.1156;3.8094;
1182.0000;0.1131;3.8094;
1182.3000;0.1148;3.8273;
1182.6000;0.1148;3.8273;
1182.9000;0.1131;3.8273;
1183.2000;0.1148;3.8273;
1183.5000;0.1140;3.8197;
1183.8000;0.1148;3.8171;
1184.1000;0.1148;3.8248;
1184.4000;0.1197;3.8427;
1184.7000;0.1180;3.8402;
1185.0000;0.1140;3.8299;
1185.3000;0.1140;3.8376;
1185.6000;0.1148;3.8453;
1185.9000;0.1107;3.8376;
1186.2000;0.1148;3.8453;
1186.5000;0.1123;3.8376;
1186.8000;0.1156;3.8453;
1187.1000;0.1115;3.8325;
1187.4000;0.1172;3.8402;
1187.7000;0.1148;3.8299;
1188.0000;0.1156;3.8273;
1188.3000;0.1123;3.8222;
1188.6000;0.1140;3.8299;
1188.9000;0.1180;3.8479;
1189.2000;0.1131;3.8350;
1189.5000;0.1115;3.8273;
1189.8000;0.1172;3.8479;
1190.1000;0.1140;3.8427;
1190.4000;0.1131;3.8376;
1190.7000;0.1058;3.8120;
1191.0000;0.1213;3.8658;
1191.3000;0.1156;3.8504;
1191.6000;0.1188;3.8633;
1191.9000;0.1009;3.8120;
1192.2000;0.1131;3.8504;
1192.5000;0.1123;3.8504;
1192.8000;0.1066;3.8299;
1193.1000;0.1148;3.8504;
1193.4000;0.1156;3.8581;
1193.7000;0.1140;3.8607;
1194.0000;0.1164;3.8581;
1194.3000;0.1156;3.8453;
1194.6000;0.1148;3.8479;
1194.9000;0.1156;3.8453;
1195.2000;0.1156;3.8453;
1195.5000;0.1074;3.8273;
1195.8000;0.1099;3.8248;
1196.1000;0.1148;3.8350;
1196.4000;0.1164;3.8376;
1196.7000;0.1115;3.8222;
1197.0000;0.1140;3.8222;
1197.3000;0.1172;3.8376;
1197.6000;0.1140;3.8350;
1197.9000;0.1140;3.8402;
1198.2000;0.1140;3.8402;
1198.5000;0.1164;3.8453;
1198.8000;0.1148;3.8402;
1199.1000;0.1148;3.8350;
1199.4000;0.1107;3.8248;
1199.7000;0.1131;3.8350;
1200.0000;0.1148;3.8402;
1200.3000;0.1148;3.8376;
1200.6000;0.1140;3.8273;
1200.9000;0.1164;3.8350;
1201.2000;0.1123;3.8197;
1201.5000;0.1156;3.8248;
1201.8000;0.1140;3.8120;
1202.1000;0.1140;3.8222;
1202.4000;0.1131;3.8171;
1202.7000;0.1115;3.8171;
1203.0000;0.1131;3.8222;
1203.3000;0.1148;3.8248;
1203.6000;0.1148;3.8350;
1203.9000;0.1148;3.8350;
1204.2000;0.1148;3.8299;
1204.5000;0.1140;3.8171;
1204.8000;0.1164;3.8222;
1205.1000;0.1148;3.8171;
1205.4000;0.1156;3.8171;
1205.7000;0.1140;3.8273;
1206.0000;0.1140;3.8273;
1206.3000;0.1099;3.8248;
1206.6000;0.1156;3.8376;
1206.9000;0.1164;3.8453;
1207.2000;0.1156;3.8350;
1207.5000;0.1140;3.8273;
1207.8000;0.1131;3.8273;
1208.1000;0.1123;3.8222;
1208.4000;0.1180;3.8350;
1208.7000;0.1123;3.8273;
1209.0000;0.1131;3.8325;
1209.3000;0.1131;3.8273;
1209.6000;0.1140;3.8325;
1209.9000;0.1140;3.8350;
1210.2000;0.1148;3.8427;
1210.5000;0.1131;3.8350;
1210.8000;0.1115;3.8273;
1211.1000;0.1140;3.8273;
1211.4000;0.1148;3.8222;
1211.7000;0.1148;3.8222;
1212.0000;0.1115;3.8171;
1212.3000;0.1131;3.8325;
1212.6000;0.1009;3.8043;
1212.9000;0.1148;3.8427;
1213.2000;0.1197;3.8556;
1213.5000;0.1123;3.8222;
1213.8000;0.1156;3.8222;
1214.1000;0.1074;3.8068;
1214.4000;0.1148;3.8299;
1214.7000;0.1140;3.8273;
1215.0000;0.1140;3.8376;
1215.3000;0.1140;3.8325;
1215.6000;0.1123;3.8171;
1215.9000;0.1140;3.8197;
1216.2000;0.1164;3.8248;
1216.5000;0.1148;3.8248;
1216.8000;0.1197;3.8376;
1217.1000;0.1148;3.8248;
1217.4000;0.1123;3.8248;
1217.7000;0.1131;3.8299;
1218.0000;0.1148;3.8350;
1218.3000;0.1131;3.8325;
1218.6000;0.1156;3.8402;
1218.9000;0.1123;3.8299;
1219.2000;0.1148;3.8376;
1219.5000;0.1148;3.8325;
1219.8000;0.1140;3.8402;
1220.1000;0.1140;3.8402;
1220.4000;0.1083;3.8145;
1220.7000;0.1164;3.8376;
1221.0000;0.1148;3.8350;
1221.3000;0.1140;3.8273;
1221.6000;0.1180;3.8350;
1221.9000;0.1172;3.8350;
1222.2000;0.1156;3.8427;
1222.5000;0.1123;3.8248;
1222.8000;0.1131;3.8222;
1223.1000;0.1140;3.8299;
1223.4000;0.1148;3.8325;
1223.7000;0.1148;3.8376;
1224.0000;0.1034;3.8043;
1224.3000;0.1140;3.8376;
1224.6000;0.1131;3.8325;
1224.9000;0.1131;3.8222;
1225.2000;0.1131;3.8248;
1225.5000;0.1172;3.8350;
1225.8000;0.1140;3.8350;
1226.1000;0.1131;3.8273;
1226.4000;0.1140;3.8376;
1226.7000;0.1115;3.8273;
1227.0000;0.1140;3.8376;
1227.3000;0.1148;3.8299;
1227.6000;0.1115;3.8222;
1227.9000;0.1123;3.8222;
1228.2000;0.1131;3.8222;
1228.5000;0.1131;3.8222;
1228.8000;0.1083;3.8145;
1229.1000;0.1148;3.8350;
1229.4000;0.1140;3.8273;
1229.7000;0.1123;3.8273;
1230.0000;0.1140;3.8376;
1230.3000;0.1188;3.8530;
1230.6000;0.1140;3.8402;
1230.9000;0.1140;3.8376;
1231.2000;0.1091;3.8197;
1231.5000;0.1140;3.8402;
1231.8000;0.1148;3.8453;
1232.1000;0.1156;3.8530;
1232.4000;0.1140;3.8556;
1232.7000;0.1131;3.8530;
1233.0000;0.1140;3.8581;
1233.3000;0.1123;3.8479;
1233.6000;0.1148;3.8479;
1233.9000;0.1131;3.8376;
1234.2000;0.1131;3.8453;
1234.5000;0.1123;3.8453;
1234.8000;0.1140;3.8479;
1235.1000;0.1131;3.8427;
1235.4000;0.1131;3.8427;
1235.7000;0.1050;3.8068;
1236.0000;0.1164;3.8453;
1236.3000;0.1156;3.8427;
1236.6000;0.1140;3.8402;
1236.9000;0.1164;3.8427;
1237.2000;0.1140;3.8325;
1237.5000;0.1140;3.8376;
1237.8000;0.1042;3.8120;
1238.1000;0.1140;3.8402;
1238.4000;0.1131;3.8427;
1238.7000;0.1131;3.8376;
1239.0000;0.1123;3.8402;
1239.3000;0.1131;3.8325;
1239.6000;0.1148;3.8376;
1239.9000;0.1140;3.8299;
1240.2000;0.1107;3.8197;
1240.5000;0.1140;3.8145;
1240.8000;0.1140;3.8120;
1241.1000;0.1140;3.8145;
1241.4000;0.1213;3.8325;
1241.7000;0.1180;3.8171;
1242.0000;0.1148;3.8094;
1242.3000;0.1131;3.8120;
1242.6000;0.1148;3.8120;
1242.9000;0.1074;3.8017;
1243.2000;0.1148;3.8145;
1243.5000;0.1148;3.8120;
1243.8000;0.1229;3.8376;
1244.1000;0.1140;3.8248;
1244.4000;0.1188;3.8427;
1244.7000;0.1131;3.8325;
1245.0000;0.1140;3.8427;
1245.3000;0.1172;3.8504;
1245.6000;0.1115;3.8350;
1245.9000;0.1156;3.8453;
1246.2000;0.1148;3.8427;
1246.5000;0.1180;3.8581;
1246.8000;0.1131;3.8504;
1247.1000;0.1058;3.8376;
1247.4000;0.1164;3.8658;
1247.7000;0.1131;3.8556;
1248.0000;0.1140;3.8710;
1248.3000;0.1140;3.8658;
1248.6000;0.1245;3.8838;
1248.9000;0.1164;3.8607;
1249.2000;0.1148;3.8530;
1249.5000;0.1140;3.8479;
1249.8000;0.1148;3.8479;
1250.1000;0.1131;3.8479;
1250.4000;0.1148;3.8504;
1250.7000;0.1140;3.8530;
1251.0000;0.1156;3.8658;
1251.3000;0.1140;3.8658;
1251.6000;0.1034;3.8402;
1251.9000;0.1107;3.8530;
1252.2000;0.1148;3.8556;
1252.5000;0.1221;3.8838;
1252.8000;0.1180;3.8607;
1253.1000;0.1148;3.8427;
1253.4000;0.1229;3.8556;
1253.7000;0.1107;3.8222;
1254.0000;0.1140;3.8222;
1254.3000;0.1131;3.8197;
1254.6000;0.1131;3.8222;
1254.9000;0.1123;3.8248;
1255.2000;0.1148;3.8325;
1255.5000;0.1148;3.8376;
1255.8000;0.1131;3.8350;
1256.1000;0.1140;3.8402;
1256.4000;0.1091;3.8273;
1256.7000;0.1123;3.8350;
1257.0000;0.1123;3.8273;
1257.3000;0.1156;3.8350;
1257.6000;0.1131;3.8376;
1257.9000;0.1172;3.8530;
1258.2000;0.1140;3.8427;
1258.5000;0.1156;3.8453;
1258.8000;0.1156;3.8556;
1259.1000;0.1148;3.8556;
1259.4000;0.1115;3.8402;
1259.7000;0.1131;3.8479;
1260.0000;0.1107;3.8427;
1260.3000;0.1131;3.8504;
1260.6000;0.1140;3.8350;
1260.9000;0.1115;3.8273;
1261.2000;0.1140;3.8299;
1261.5000;0.1131;3.8222;
1261.8000;0.1148;3.8299;
1262.1000;0.1140;3.8248;
1262.4000;0.1156;3.8273;
1262.7000;0.1140;3.8171;
1263.0000;0.1018;3.7837;
1263.3000;0.1164;3.8171;
1263.6000;0.1148;3.8068;
1263.9000;0.1172;3.8197;
1264.2000;0.1148;3.8094;
1264.5000;0.1107;3.8043;
1264.8000;0.1123;3.8068;
1265.1000;0.1091;3.7966;
1265.4000;0.1123;3.8017;
1265.7000;0.1115;3.7991;
1266.0000;0.1156;3.8043;
1266.3000;0.1131;3.8094;
1266.6000;0.1123;3.7991;
1266.9000;0.1123;3.8068;
1267.2000;0.1140;3.8094;
1267.5000;0.1164;3.8068;
1267.8000;0.1164;3.8068;
1268.1000;0.1131;3.7940;
1268.4000;0.1091;3.7889;
1268.7000;0.1164;3.8094;
1269.0000;0.1140;3.8094;
1269.3000;0.1140;3.8120;
1269.6000;0.1140;3.8094;
1269.9000;0.1091;3.8043;
1270.2000;0.1148;3.8197;
1270.5000;0.1034;3.7863;
1270.8000;0.1148;3.8094;
1271.1000;0.1099;3.7914;
1271.4000;0.1140;3.8094;
1271.7000;0.1123;3.8068;
1272.0000;0.1123;3.8120;
1272.3000;0.1115;3.8222;
1272.6000;0.1140;3.8325;
1272.9000;0.1140;3.8299;
1273.2000;0.1156;3.8350;
1273.5000;0.1123;3.8222;
1273.8000;0.1188;3.8350;
1274.1000;0.1140;3.8350;
1274.4000;0.1131;3.8273;
1274.7000;0.1123;3.8299;
1275.0000;0.1131;3.8299;
1275.3000;0.1156;3.8453;
1275.6000;0.1148;3.8427;
1275.9000;0.1156;3.8427;
1276.2000;0.1131;3.8479;
1276.5000;0.1156;3.8504;
1276.8000;0.1140;3.8376;
1277.1000;0.1140;3.8350;
1277.4000;0.1156;3.8402;
1277.7000;0.1099;3.8171;
1278.0000;0.1140;3.8248;
1278.3000;0.1148;3.8299;
1278.6000;0.1156;3.8325;
1278.9000;0.1156;3.8376;
1279.2000;0.1140;3.8376;
1279.5000;0.1156;3.8504;
1279.8000;0.1148;3.8453;
1280.1000;0.1164;3.8504;
1280.4000;0.1172;3.8530;
1280.7000;0.1140;3.8479;
1281.0000;0.1148;3.8427;
1281.3000;0.1148;3.8402;
1281.6000;0.1091;3.8222;
1281.9000;0.1131;3.8427;
1282.2000;0.1140;3.8402;
1282.5000;0.1148;3.8350;
1282.8000;0.1115;3.8299;
1283.1000;0.1131;3.8273;
1283.4000;0.1148;3.8299;
1283.7000;0.1140;3.8248;
1284.0000;0.1058;3.8043;
1284.3000;0.1131;3.8248;
1284.6000;0.1123;3.8197;
1284.9000;0.1091;3.8171;
1285.2000;0.1180;3.8427;
1285.5000;0.1123;3.8197;
1285.8000;0.1091;3.8094;
1286.1000;0.1131;3.8273;
1286.4000;0.1148;3.8350;
1286.7000;0.1123;3.8273;
1287.0000;0.1083;3.8145;
1287.3000;0.1140;3.8350;
1287.6000;0.1107;3.8299;
1287.9000;0.1115;3.8299;
1288.2000;0.1140;3.8273;
1288.5000;0.1123;3.8222;
1288.8000;0.1140;3.8273;
1289.1000;0.1156;3.8325;
1289.4000;0.1148;3.8325;
1289.7000;0.1148;3.8402;
1290.0000;0.1164;3.8376;
1290.3000;0.1156;3.8299;
1290.6000;0.1140;3.8325;
1290.9000;0.1156;3.8350;
1291.2000;0.1156;3.8299;
1291.5000;0.1221;3.8504;
1291.8000;0.1188;3.8376;
1292.1000;0.1164;3.8402;
1292.4000;0.1131;3.8222;
1292.7000;0.1148;3.8325;
1293.0000;0.1107;3.8273;
1293.3000;0.1148;3.8376;
1293.6000;0.1140;3.8325;
1293.9000;0.1148;3.8376;
1294.2000;0.1131;3.8402;
1294.5000;0.1131;3.8402;
1294.8000;0.1156;3.8453;
1295.1000;0.1115;3.8325;
1295.4000;0.1156;3.8402;
1295.7000;0.1131;3.8273;
1296.0000;0.1156;3.8376;
1296.3000;0.1148;3.8299;
1296.6000;0.1148;3.8248;
1296.9000;0.1123;3.8145;
1297.2000;0.1131;3.8171;
1297.5000;0.1115;3.8120;
1297.8000;0.1123;3.8094;
1298.1000;0.1140;3.8171;
1298.4000;0.1107;3.7991;
1298.7000;0.1123;3.7991;
1299.0000;0.1131;3.7914;
1299.3000;0.1099;3.7837;
1299.6000;0.1148;3.8017;
1299.9000;0.1164;3.8043;
1300.2000;0.1156;3.8120;
1300.5000;0.1140;3.8145;
1300.8000;0.1123;3.8017;
1301.1000;0.1140;3.8068;
1301.4000;0.1156;3.8120;
1301.7000;0.1123;3.8043;
1302.0000;0.1123;3.7966;
1302.3000;0.1156;3.8145;
1302.6000;0.1156;3.8222;
1302.9000;0.1172;3.8299;
1303.2000;0.1091;3.8043;
1303.5000;0.1164;3.8273;
1303.8000;0.1140;3.8197;
1304.1000;0.1140;3.8171;
1304.4000;0.1115;3.8120;
1304.7000;0.1140;3.8222;
1305.0000;0.1123;3.8094;
1305.3000;0.1148;3.8248;
1305.6000;0.1148;3.8299;
1305.9000;0.1140;3.8273;
1306.2000;0.1156;3.8350;
1306.5000;0.1123;3.8273;
1306.8000;0.1148;3.8248;
1307.1000;0.1148;3.8222;
1307.4000;0.1123;3.8197;
1307.7000;0.1156;3.8299;
1308.0000;0.1180;3.8376;
1308.3000;0.1140;3.8197;
1308.6000;0.1123;3.8197;
1308.9000;0.1083;3.8094;
1309.2000;0.1091;3.8145;
1309.5000;0.1140;3.8299;
1309.8000;0.1115;3.8248;
1310.1000;0.1164;3.8273;
1310.4000;0.1156;3.8197;
1310.7000;0.1131;3.8120;
1311.0000;0.1278;3.8479;
1311.3000;0.1123;3.8068;
1311.6000;0.1156;3.8299;
1311.9000;0.1148;3.8222;
1312.2000;0.1140;3.8248;
1312.5000;0.1131;3.8222;
1312.8000;0.1156;3.8171;
1313.1000;0.1140;3.8094;
1313.4000;0.1123;3.8145;
1313.7000;0.1074;3.8017;
1314.0000;0.1140;3.8120;
1314.3000;0.1148;3.8171;
1314.6000;0.1099;3.7966;
1314.9000;0.1140;3.8017;
1315.2000;0.1140;3.8094;
1315.5000;0.1115;3.8017;
1315.8000;0.1164;3.8043;
1316.1000;0.1131;3.8017;
1316.4000;0.1148;3.7966;
1316.7000;0.1156;3.7889;
1317.0000;0.1140;3.7889;
1317.3000;0.1148;3.8017;
1317.6000;0.1148;3.7914;
1317.9000;0.1107;3.7914;
1318.2000;0.1140;3.8017;
1318.5000;0.1123;3.8017;
1318.8000;0.1123;3.7991;
1319.1000;0.1140;3.8120;
1319.4000;0.1164;3.8273;
1319.7000;0.1172;3.8325;
1320.0000;0.1164;3.8325;
1320.3000;0.1148;3.8197;
1320.6000;0.1091;3.8068;
1320.9000;0.1156;3.8299;
1321.2000;0.1164;3.8299;
1321.5000;0.1140;3.8197;
1321.8000;0.1164;3.8273;
1322.1000;0.1148;3.8299;
1322.4000;0.1131;3.8222;
1322.7000;0.1140;3.8222;
1323.0000;0.1140;3.8248;
1323.3000;0.1123;3.8197;
1323.6000;0.1123;3.8197;
1323.9000;0.1123;3.8222;
1324.2000;0.1131;3.8145;
1324.5000;0.1140;3.8094;
1324.8000;0.1148;3.8171;
1325.1000;0.1115;3.8120;
1325.4000;0.1140;3.8222;
1325.7000;0.1140;3.8171;
1326.0000;0.1140;3.8171;
1326.3000;0.1131;3.8171;
1326.6000;0.1140;3.8325;
1326.9000;0.1148;3.8376;
1327.2000;0.1156;3.8376;
1327.5000;0.1107;3.8222;
1327.8000;0.1123;3.8273;
1328.1000;0.1164;3.8325;
1328.4000;0.1164;3.8197;
1328.7000;0.1140;3.8145;
1329.0000;0.1131;3.8197;
1329.3000;0.1131;3.8171;
1329.6000;0.1140;3.8197;
1329.9000;0.1156;3.8273;
1330.2000;0.1205;3.8402;
1330.5000;0.1148;3.8248;
1330.8000;0.1148;3.8299;
1331.1000;0.1107;3.8145;
1331.4000;0.1123;3.8145;
1331.7000;0.1115;3.8145;
1332.0000;0.1131;3.8248;
1332.3000;0.1148;3.8197;
1332.6000;0.1148;3.8248;
1332.9000;0.1156;3.8222;
1333.2000;0.1131;3.8120;
1333.5000;0.1050;3.7837;
1333.8000;0.1058;3.7760;
1334.1000;0.1042;3.7709;
1334.4000;0.1140;3.7914;
1334.7000;0.1123;3.7889;
1335.0000;0.1148;3.7940;
1335.3000;0.1131;3.7966;
1335.6000;0.1140;3.8017;
1335.9000;0.1148;3.8120;
1336.2000;0.1123;3.8120;
1336.5000;0.1148;3.8171;
1336.8000;0.1131;3.8120;
1337.1000;0.1140;3.8120;
1337.4000;0.1148;3.8171;
1337.7000;0.1148;3.8145;
1338.0000;0.1180;3.8248;
1338.3000;0.1156;3.8120;
1338.6000;0.1140;3.8145;
1338.9000;0.1140;3.8197;
1339.2000;0.1148;3.8120;
1339.5000;0.1140;3.8094;
1339.8000;0.1140;3.8094;
1340.1000;0.1213;3.8376;
1340.4000;0.1156;3.8299;
1340.7000;0.1156;3.8376;
1341.0000;0.1156;3.8325;
1341.3000;0.1131;3.8171;
1341.6000;0.1083;3.7966;
1341.9000;0.1205;3.8325;
1342.2000;0.1172;3.8197;
1342.5000;0.1131;3.8145;
1342.8000;0.1123;3.8043;
1343.1000;0.1148;3.8094;
1343.4000;0.1115;3.8120;
1343.7000;0.1156;3.8120;
1344.0000;0.1140;3.8120;
1344.3000;0.1140;3.8145;
1344.6000;0.1148;3.8197;
1344.9000;0.1131;3.8171;
1345.2000;0.1131;3.8171;
1345.5000;0.1140;3.8171;
1345.8000;0.1131;3.8171;
1346.1000;0.1140;3.8094;
1346.4000;0.1172;3.8120;
1346.7000;0.1164;3.8145;
1347.0000;0.1140;3.8068;
1347.3000;0.1156;3.8094;
1347.6000;0.1140;3.8145;
1347.9000;0.1131;3.8094;
1348.2000;0.1140;3.8043;
1348.5000;0.1140;3.8094;
1348.8000;0.1172;3.8145;
1349.1000;0.1156;3.8068;
1349.4000;0.1221;3.8350;
1349.7000;0.1140;3.8120;
1350.0000;0.1140;3.8145;
1350.3000;0.1091;3.7991;
1350.6000;0.1140;3.8145;
1350.9000;0.1156;3.8273;
1351.2000;0.1148;3.8197;
1351.5000;0.1140;3.8120;
1351.8000;0.1164;3.8094;
1352.1000;0.1164;3.8094;
1352.4000;0.1140;3.7966;
1352.7000;0.1131;3.8017;
1353.0000;0.1066;3.7837;
1353.3000;0.1148;3.8145;
1353.6000;0.1156;3.8197;
1353.9000;0.1156;3.8273;
1354.2000;0.1164;3.8222;
1354.5000;0.1131;3.8120;
1354.8000;0.1074;3.7863;
1355.1000;0.1148;3.8017;
1355.4000;0.1156;3.8171;
1355.7000;0.1156;3.8222;
1356.0000;0.1083;3.8120;
1356.3000;0.1148;3.8299;
1356.6000;0.1164;3.8248;
1356.9000;0.1074;3.8017;
1357.2000;0.1148;3.8145;
1357.5000;0.1140;3.8145;
1357.8000;0.1018;3.7735;
1358.1000;0.1140;3.8145;
1358.4000;0.1188;3.8248;
1358.7000;0.1140;3.8120;
1359.0000;0.1164;3.8171;
1359.3000;0.1156;3.8171;
1359.6000;0.1123;3.8120;
1359.9000;0.1148;3.8197;
1360.2000;0.1140;3.8197;
1360.5000;0.1131;3.8350;
1360.8000;0.1148;3.8402;
1361.1000;0.1172;3.8376;
1361.4000;0.1140;3.8299;
1361.7000;0.1131;3.8222;
1362.0000;0.1123;3.8248;
1362.3000;0.1115;3.8248;
1362.6000;0.1148;3.8479;
1362.9000;0.1180;3.8607;
1363.2000;0.1140;3.8453;
1363.5000;0.1123;3.8402;
1363.8000;0.1131;3.8376;
1364.1000;0.1123;3.8350;
1364.4000;0.1123;3.8325;
1364.7000;0.1131;3.8325;
1365.0000;0.1221;3.8556;
1365.3000;0.1148;3.8299;
1365.6000;0.1066;3.8094;
1365.9000;0.1140;3.8273;
1366.2000;0.1123;3.8248;
1366.5000;0.1091;3.8197;
1366.8000;0.1140;3.8248;
1367.1000;0.1115;3.8197;
1367.4000;0.1140;3.8325;
1367.7000;0.1140;3.8376;
1368.0000;0.1148;3.8325;
1368.3000;0.1148;3.8299;
1368.6000;0.1156;3.8325;
1368.9000;0.1123;3.8171;
1369.2000;0.1156;3.8273;
1369.5000;0.1115;3.8068;
1369.8000;0.1140;3.7991;
1370.1000;0.1140;3.7966;
1370.4000;0.1164;3.7889;
1370.7000;0.1148;3.7914;
1371.0000;0.1140;3.7889;
1371.3000;0.1148;3.7889;
1371.6000;0.1140;3.7837;
1371.9000;0.1091;3.7658;
1372.2000;0.1164;3.7837;
1372.5000;0.1156;3.7786;
1372.8000;0.1197;3.7889;
1373.1000;0.1123;3.7760;
1373.4000;0.1148;3.7837;
1373.7000;0.1140;3.7966;
1374.0000;0.1148;3.7966;
1374.3000;0.1164;3.8043;
1374.6000;0.1254;3.8427;
1374.9000;0.1131;3.8043;
1375.2000;0.1148;3.8017;
1375.5000;0.1180;3.8171;
1375.8000;0.1148;3.8017;
1376.1000;0.1148;3.8017;
1376.4000;0.1123;3.7940;
1376.7000;0.1140;3.8017;
1377.0000;0.1221;3.8273;
1377.3000;0.1140;3.7991;
1377.6000;0.1099;3.7889;
1377.9000;0.1115;3.7966;
1378.2000;0.1164;3.8145;
1378.5000;0.1131;3.8094;
1378.8000;0.1221;3.8325;
1379.1000;0.1140;3.8094;
1379.4000;0.1148;3.8043;
1379.7000;0.1148;3.8120;
1380.0000;0.1099;3.7940;
1380.3000;0.1140;3.8017;
1380.6000;0.1131;3.8094;
1380.9000;0.1156;3.8120;
1381.2000;0.1148;3.8094;
1381.5000;0.1131;3.7940;
1381.8000;0.1148;3.7914;
1382.1000;0.1156;3.7940;
1382.4000;0.1140;3.7914;
1382.7000;0.1123;3.7863;
1383.0000;0.1140;3.7966;
1383.3000;0.1099;3.7889;
1383.6000;0.1131;3.7966;
1383.9000;0.1148;3.7991;
1384.2000;0.1131;3.7991;
1384.5000;0.1140;3.7966;
1384.8000;0.1140;3.8043;
1385.1000;0.1148;3.7991;
1385.4000;0.1123;3.7837;
1385.7000;0.1140;3.7889;
1386.0000;0.1164;3.7966;
1386.3000;0.1115;3.7889;
1386.6000;0.1148;3.7991;
1386.9000;0.1156;3.7940;
1387.2000;0.1156;3.7940;
1387.5000;0.1140;3.7940;
1387.8000;0.1140;3.7966;
1388.1000;0.1115;3.7889;
1388.4000;0.1156;3.7940;
1388.7000;0.1148;3.7889;
1389.0000;0.1083;3.7683;
1389.3000;0.1034;3.7581;
1389.6000;0.1148;3.7940;
1389.9000;0.1148;3.7991;
1390.2000;0.1148;3.7889;
1390.5000;0.1123;3.7889;
1390.8000;0.1148;3.7889;
1391.1000;0.1140;3.7914;
1391.4000;0.1131;3.7837;
1391.7000;0.1131;3.7863;
1392.0000;0.1140;3.7837;
1392.3000;0.1140;3.7812;
1392.6000;0.1099;3.7735;
1392.9000;0.1156;3.7914;
1393.2000;0.1156;3.7940;
1393.5000;0.1140;3.7914;
1393.8000;0.1156;3.7991;
1394.1000;0.1164;3.8094;
1394.4000;0.1115;3.7940;
1394.7000;0.1131;3.7966;
1395.0000;0.1140;3.7991;
1395.3000;0.1156;3.7991;
1395.6000;0.1148;3.7940;
1395.9000;0.1123;3.7940;
1396.2000;0.1156;3.8017;
1396.5000;0.1156;3.8017;
1396.8000;0.1131;3.8017;
1397.1000;0.1131;3.7991;
1397.4000;0.1156;3.8145;
1397.7000;0.1148;3.8145;
1398.0000;0.1140;3.8068;
1398.3000;0.1107;3.7966;
1398.6000;0.1115;3.7991;
1398.9000;0.1148;3.8068;
1399.2000;0.1123;3.8068;
1399.5000;0.1140;3.8094;
1399.8000;0.1140;3.8043;
