time/ms;Fluo/V;P700 deltaI/I x10³;
-199.8000;0.1278;3.7299;
-199.5000;0.1286;3.7401;
-199.2000;0.1278;3.7299;
-198.9000;0.1278;3.7196;
-198.6000;0.1262;3.7145;
-198.3000;0.1286;3.7196;
-198.0000;0.1286;3.7247;
-197.7000;0.1311;3.7196;
-197.4000;0.1197;3.6786;
-197.1000;0.1286;3.7068;
-196.8000;0.1262;3.7042;
-196.5000;0.1302;3.7170;
-196.2000;0.1245;3.7016;
-195.9000;0.1278;3.7145;
-195.6000;0.1368;3.7350;
-195.3000;0.1262;3.7016;
-195.0000;0.1262;3.7068;
-194.7000;0.1229;3.6991;
-194.4000;0.1278;3.7119;
-194.1000;0.1270;3.7068;
-193.8000;0.1270;3.7093;
-193.5000;0.1278;3.7247;
-193.2000;0.1262;3.7093;
-192.9000;0.1278;3.7093;
-192.6000;0.1278;3.6914;
-192.3000;0.1311;3.7042;
-192.0000;0.1286;3.7016;
-191.7000;0.1368;3.7247;
-191.4000;0.1294;3.7093;
-191.1000;0.1294;3.7119;
-190.8000;0.1270;3.7068;
-190.5000;0.1270;3.7170;
-190.2000;0.1278;3.7119;
-189.9000;0.1278;3.7042;
-189.6000;0.1262;3.7042;
-189.3000;0.1254;3.7042;
-189.0000;0.1278;3.7068;
-188.7000;0.1237;3.6991;
-188.4000;0.1270;3.7093;
-188.1000;0.1286;3.7145;
-187.8000;0.1270;3.7016;
-187.5000;0.1278;3.7068;
-187.2000;0.1262;3.7119;
-186.9000;0.1368;3.7299;
-186.6000;0.1278;3.6965;
-186.3000;0.1278;3.7016;
-186.0000;0.1286;3.6991;
-185.7000;0.1262;3.6965;
-185.4000;0.1319;3.7145;
-185.1000;0.1270;3.7016;
-184.8000;0.1286;3.7093;
-184.5000;0.1262;3.7196;
-184.2000;0.1278;3.7145;
-183.9000;0.1172;3.6863;
-183.6000;0.1286;3.7170;
-183.3000;0.1262;3.7196;
-183.0000;0.1302;3.7222;
-182.7000;0.1278;3.7145;
-182.4000;0.1262;3.7016;
-182.1000;0.1286;3.7093;
-181.8000;0.1254;3.7016;
-181.5000;0.1278;3.7042;
-181.2000;0.1270;3.7016;
-180.9000;0.1188;3.6709;
-180.6000;0.1278;3.6940;
-180.3000;0.1278;3.6914;
-180.0000;0.1262;3.6965;
-179.7000;0.1221;3.6914;
-179.4000;0.1294;3.7145;
-179.1000;0.1286;3.7068;
-178.8000;0.1286;3.7016;
-178.5000;0.1262;3.6965;
-178.2000;0.1262;3.6940;
-177.9000;0.1270;3.7016;
-177.6000;0.1302;3.7068;
-177.3000;0.1245;3.6888;
-177.0000;0.1254;3.6940;
-176.7000;0.1262;3.7016;
-176.4000;0.1286;3.7068;
-176.1000;0.1286;3.7170;
-175.8000;0.1262;3.7068;
-175.5000;0.1278;3.7068;
-175.2000;0.1278;3.7145;
-174.9000;0.1270;3.7170;
-174.6000;0.1254;3.6991;
-174.3000;0.1270;3.7068;
-174.0000;0.1270;3.7093;
-173.7000;0.1335;3.7273;
-173.4000;0.1262;3.6965;
-173.1000;0.1368;3.7273;
-172.8000;0.1245;3.6940;
-172.5000;0.1286;3.7119;
-172.2000;0.1254;3.7093;
-171.9000;0.1254;3.7068;
-171.6000;0.1262;3.7016;
-171.3000;0.1294;3.7042;
-171.0000;0.1270;3.6965;
-170.7000;0.1294;3.7042;
-170.4000;0.1245;3.6914;
-170.1000;0.1262;3.6991;
-169.8000;0.1221;3.6965;
-169.5000;0.1286;3.7196;
-169.2000;0.1221;3.6991;
-168.9000;0.1262;3.7016;
-168.6000;0.1262;3.6991;
-168.3000;0.1270;3.7068;
-168.0000;0.1237;3.6991;
-167.7000;0.1156;3.6760;
-167.4000;0.1286;3.7119;
-167.1000;0.1351;3.7299;
-166.8000;0.1245;3.7068;
-166.5000;0.1327;3.7299;
-166.2000;0.1270;3.6965;
-165.9000;0.1351;3.7222;
-165.6000;0.1254;3.6991;
-165.3000;0.1286;3.7093;
-165.0000;0.1270;3.7016;
-164.7000;0.1278;3.7016;
-164.4000;0.1278;3.7042;
-164.1000;0.1270;3.7042;
-163.8000;0.1254;3.6991;
-163.5000;0.1270;3.7042;
-163.2000;0.1262;3.7119;
-162.9000;0.1270;3.7247;
-162.6000;0.1270;3.7222;
-162.3000;0.1278;3.7222;
-162.0000;0.1286;3.7145;
-161.7000;0.1254;3.7068;
-161.4000;0.1286;3.7093;
-161.1000;0.1286;3.7247;
-160.8000;0.1302;3.7299;
-160.5000;0.1286;3.7170;
-160.2000;0.1294;3.7196;
-159.9000;0.1213;3.6965;
-159.6000;0.1278;3.7093;
-159.3000;0.1278;3.7042;
-159.0000;0.1262;3.6965;
-158.7000;0.1245;3.6991;
-158.4000;0.1278;3.7093;
-158.1000;0.1294;3.7119;
-157.8000;0.1197;3.6786;
-157.5000;0.1270;3.7016;
-157.2000;0.1278;3.7093;
-156.9000;0.1286;3.7042;
-156.6000;0.1270;3.7093;
-156.3000;0.1229;3.7042;
-156.0000;0.1270;3.7170;
-155.7000;0.1294;3.7196;
-155.4000;0.1278;3.7196;
-155.1000;0.1278;3.7299;
-154.8000;0.1270;3.7222;
-154.5000;0.1270;3.7145;
-154.2000;0.1278;3.7350;
-153.9000;0.1254;3.7299;
-153.6000;0.1254;3.7222;
-153.3000;0.1278;3.7376;
-153.0000;0.1278;3.7453;
-152.7000;0.1270;3.7324;
-152.4000;0.1188;3.6965;
-152.1000;0.1286;3.7222;
-151.8000;0.1286;3.7196;
-151.5000;0.1262;3.7068;
-151.2000;0.1245;3.7016;
-150.9000;0.1343;3.7273;
-150.6000;0.1278;3.7093;
-150.3000;0.1278;3.7119;
-150.0000;0.1343;3.7350;
-149.7000;0.1197;3.6786;
-149.4000;0.1286;3.7042;
-149.1000;0.1262;3.6991;
-148.8000;0.1245;3.6940;
-148.5000;0.1180;3.6734;
-148.2000;0.1294;3.6965;
-147.9000;0.1335;3.7196;
-147.6000;0.1286;3.7145;
-147.3000;0.1278;3.7068;
-147.0000;0.1262;3.6965;
-146.7000;0.1254;3.6965;
-146.4000;0.1172;3.6811;
-146.1000;0.1262;3.7016;
-145.8000;0.1278;3.7145;
-145.5000;0.1294;3.7196;
-145.2000;0.1278;3.7273;
-144.9000;0.1270;3.7196;
-144.6000;0.1294;3.7196;
-144.3000;0.1302;3.7196;
-144.0000;0.1351;3.7350;
-143.7000;0.1245;3.7042;
-143.4000;0.1319;3.7222;
-143.1000;0.1262;3.7093;
-142.8000;0.1286;3.7170;
-142.5000;0.1270;3.7068;
-142.2000;0.1335;3.7222;
-141.9000;0.1229;3.6965;
-141.6000;0.1270;3.7016;
-141.3000;0.1262;3.7042;
-141.0000;0.1359;3.7299;
-140.7000;0.1254;3.6991;
-140.4000;0.1278;3.7068;
-140.1000;0.1262;3.7170;
-139.8000;0.1237;3.7119;
-139.5000;0.1262;3.7119;
-139.2000;0.1221;3.7042;
-138.9000;0.1278;3.7170;
-138.6000;0.1278;3.7170;
-138.3000;0.1254;3.7145;
-138.0000;0.1245;3.7042;
-137.7000;0.1262;3.7119;
-137.4000;0.1262;3.7145;
-137.1000;0.1254;3.7093;
-136.8000;0.1278;3.7170;
-136.5000;0.1270;3.7196;
-136.2000;0.1254;3.7042;
-135.9000;0.1278;3.6991;
-135.6000;0.1286;3.7093;
-135.3000;0.1245;3.6965;
-135.0000;0.1262;3.7016;
-134.7000;0.1270;3.7016;
-134.4000;0.1180;3.6786;
-134.1000;0.1278;3.7042;
-133.8000;0.1351;3.7247;
-133.5000;0.1294;3.7016;
-133.2000;0.1270;3.6965;
-132.9000;0.1294;3.7016;
-132.6000;0.1270;3.6991;
-132.3000;0.1270;3.7016;
-132.0000;0.1254;3.6965;
-131.7000;0.1294;3.6888;
-131.4000;0.1278;3.6837;
-131.1000;0.1254;3.6888;
-130.8000;0.1254;3.6811;
-130.5000;0.1254;3.6786;
-130.2000;0.1286;3.6863;
-129.9000;0.1278;3.6914;
-129.6000;0.1254;3.6786;
-129.3000;0.1270;3.6863;
-129.0000;0.1286;3.6940;
-128.7000;0.1254;3.6863;
-128.4000;0.1245;3.6837;
-128.1000;0.1245;3.6811;
-127.8000;0.1270;3.6863;
-127.5000;0.1278;3.6914;
-127.2000;0.1262;3.6914;
-126.9000;0.1262;3.6888;
-126.6000;0.1262;3.7016;
-126.3000;0.1270;3.6965;
-126.0000;0.1262;3.7016;
-125.7000;0.1270;3.7119;
-125.4000;0.1270;3.7119;
-125.1000;0.1254;3.7093;
-124.8000;0.1262;3.7093;
-124.5000;0.1278;3.7145;
-124.2000;0.1262;3.7119;
-123.9000;0.1262;3.7068;
-123.6000;0.1278;3.7068;
-123.3000;0.1351;3.7196;
-123.0000;0.1270;3.6888;
-122.7000;0.1286;3.6940;
-122.4000;0.1278;3.6837;
-122.1000;0.1262;3.6837;
-121.8000;0.1262;3.6863;
-121.5000;0.1262;3.6888;
-121.2000;0.1278;3.6991;
-120.9000;0.1262;3.6991;
-120.6000;0.1286;3.7042;
-120.3000;0.1368;3.7247;
-120.0000;0.1254;3.6991;
-119.7000;0.1245;3.6940;
-119.4000;0.1270;3.6940;
-119.1000;0.1237;3.6837;
-118.8000;0.1262;3.6914;
-118.5000;0.1278;3.7042;
-118.2000;0.1302;3.7016;
-117.9000;0.1262;3.6991;
-117.6000;0.1270;3.7016;
-117.3000;0.1245;3.7016;
-117.0000;0.1286;3.7119;
-116.7000;0.1278;3.7068;
-116.4000;0.1270;3.7093;
-116.1000;0.1286;3.7093;
-115.8000;0.1270;3.7145;
-115.5000;0.1262;3.6965;
-115.2000;0.1278;3.6965;
-114.9000;0.1254;3.6940;
-114.6000;0.1245;3.6991;
-114.3000;0.1245;3.7016;
-114.0000;0.1262;3.7068;
-113.7000;0.1294;3.7222;
-113.4000;0.1286;3.7222;
-113.1000;0.1311;3.7324;
-112.8000;0.1286;3.7196;
-112.5000;0.1278;3.7170;
-112.2000;0.1278;3.7196;
-111.9000;0.1270;3.7145;
-111.6000;0.1270;3.7170;
-111.3000;0.1262;3.7068;
-111.0000;0.1197;3.6863;
-110.7000;0.1221;3.6888;
-110.4000;0.1262;3.6965;
-110.1000;0.1245;3.6811;
-109.8000;0.1262;3.6914;
-109.5000;0.1294;3.7068;
-109.2000;0.1286;3.7093;
-108.9000;0.1245;3.6965;
-108.6000;0.1262;3.6914;
-108.3000;0.1278;3.6914;
-108.0000;0.1278;3.6965;
-107.7000;0.1278;3.6991;
-107.4000;0.1221;3.6760;
-107.1000;0.1270;3.6863;
-106.8000;0.1270;3.6991;
-106.5000;0.1221;3.6888;
-106.2000;0.1237;3.6940;
-105.9000;0.1294;3.7016;
-105.6000;0.1286;3.6940;
-105.3000;0.1278;3.6888;
-105.0000;0.1262;3.6888;
-104.7000;0.1245;3.6786;
-104.4000;0.1270;3.6811;
-104.1000;0.1270;3.6837;
-103.8000;0.1188;3.6734;
-103.5000;0.1262;3.6940;
-103.2000;0.1278;3.6965;
-102.9000;0.1254;3.6888;
-102.6000;0.1262;3.6991;
-102.3000;0.1286;3.7016;
-102.0000;0.1302;3.7042;
-101.7000;0.1270;3.6888;
-101.4000;0.1262;3.6940;
-101.1000;0.1254;3.6914;
-100.8000;0.1262;3.6991;
-100.5000;0.1270;3.6991;
-100.2000;0.1311;3.7196;
-99.9000;0.1270;3.7093;
-99.6000;0.1237;3.6991;
-99.3000;0.1270;3.7093;
-99.0000;0.1294;3.6991;
-98.7000;0.1213;3.6709;
-98.4000;0.1205;3.6734;
-98.1000;0.1278;3.6991;
-97.8000;0.1254;3.6991;
-97.5000;0.1270;3.7016;
-97.2000;0.1278;3.6940;
-96.9000;0.1311;3.7042;
-96.6000;0.1278;3.6991;
-96.3000;0.1270;3.7068;
-96.0000;0.1270;3.7042;
-95.7000;0.1311;3.7222;
-95.4000;0.1278;3.7170;
-95.1000;0.1270;3.7068;
-94.8000;0.1351;3.7299;
-94.5000;0.1294;3.7119;
-94.2000;0.1245;3.6888;
-93.9000;0.1278;3.6888;
-93.6000;0.1311;3.7068;
-93.3000;0.1270;3.6991;
-93.0000;0.1270;3.6863;
-92.7000;0.1221;3.6580;
-92.4000;0.1262;3.6683;
-92.1000;0.1205;3.6606;
-91.8000;0.1278;3.6760;
-91.5000;0.1278;3.6837;
-91.2000;0.1278;3.6709;
-90.9000;0.1270;3.6734;
-90.6000;0.1327;3.6965;
-90.3000;0.1278;3.6734;
-90.0000;0.1270;3.6811;
-89.7000;0.1270;3.6863;
-89.4000;0.1262;3.6863;
-89.1000;0.1278;3.6940;
-88.8000;0.1254;3.6863;
-88.5000;0.1278;3.6914;
-88.2000;0.1262;3.6786;
-87.9000;0.1262;3.6914;
-87.6000;0.1262;3.6811;
-87.3000;0.1262;3.6811;
-87.0000;0.1156;3.6503;
-86.7000;0.1270;3.6760;
-86.4000;0.1262;3.6657;
-86.1000;0.1270;3.6606;
-85.8000;0.1270;3.6632;
-85.5000;0.1278;3.6683;
-85.2000;0.1286;3.6760;
-84.9000;0.1319;3.6991;
-84.6000;0.1278;3.6863;
-84.3000;0.1278;3.6863;
-84.0000;0.1270;3.6888;
-83.7000;0.1286;3.6914;
-83.4000;0.1286;3.6888;
-83.1000;0.1229;3.6734;
-82.8000;0.1245;3.6760;
-82.5000;0.1278;3.6863;
-82.2000;0.1229;3.6734;
-81.9000;0.1270;3.6863;
-81.6000;0.1270;3.6940;
-81.3000;0.1278;3.6991;
-81.0000;0.1254;3.6965;
-80.7000;0.1286;3.7016;
-80.4000;0.1278;3.6940;
-80.1000;0.1319;3.7068;
-79.8000;0.1180;3.6606;
-79.5000;0.1286;3.6914;
-79.2000;0.1213;3.6734;
-78.9000;0.1286;3.6888;
-78.6000;0.1286;3.6914;
-78.3000;0.1262;3.6811;
-78.0000;0.1254;3.6760;
-77.7000;0.1278;3.6863;
-77.4000;0.1254;3.6863;
-77.1000;0.1286;3.6991;
-76.8000;0.1254;3.7042;
-76.5000;0.1262;3.6965;
-76.2000;0.1270;3.6940;
-75.9000;0.1262;3.6888;
-75.6000;0.1278;3.6965;
-75.3000;0.1327;3.7222;
-75.0000;0.1286;3.7170;
-74.7000;0.1270;3.7042;
-74.4000;0.1270;3.7093;
-74.1000;0.1286;3.7170;
-73.8000;0.1278;3.7222;
-73.5000;0.1229;3.7093;
-73.2000;0.1278;3.7222;
-72.9000;0.1245;3.7196;
-72.6000;0.1270;3.7247;
-72.3000;0.1262;3.7196;
-72.0000;0.1262;3.7196;
-71.7000;0.1262;3.7145;
-71.4000;0.1286;3.7119;
-71.1000;0.1286;3.7170;
-70.8000;0.1270;3.7170;
-70.5000;0.1254;3.7170;
-70.2000;0.1172;3.6888;
-69.9000;0.1156;3.6837;
-69.6000;0.1254;3.7093;
-69.3000;0.1262;3.7119;
-69.0000;0.1229;3.7170;
-68.7000;0.1164;3.6888;
-68.4000;0.1262;3.7196;
-68.1000;0.1180;3.6965;
-67.8000;0.1254;3.7145;
-67.5000;0.1148;3.6888;
-67.2000;0.1270;3.7196;
-66.9000;0.1254;3.7119;
-66.6000;0.1286;3.7119;
-66.3000;0.1262;3.6965;
-66.0000;0.1270;3.6888;
-65.7000;0.1270;3.6940;
-65.4000;0.1278;3.6940;
-65.1000;0.1270;3.6940;
-64.8000;0.1270;3.6965;
-64.5000;0.1221;3.6811;
-64.2000;0.1237;3.6863;
-63.9000;0.1270;3.6965;
-63.6000;0.1311;3.7119;
-63.3000;0.1311;3.7247;
-63.0000;0.1286;3.7093;
-62.7000;0.1270;3.7170;
-62.4000;0.1294;3.7376;
-62.1000;0.1254;3.7222;
-61.8000;0.1254;3.7247;
-61.5000;0.1262;3.7222;
-61.2000;0.1278;3.7273;
-60.9000;0.1286;3.7350;
-60.6000;0.1262;3.7299;
-60.3000;0.1262;3.7376;
-60.0000;0.1278;3.7427;
-59.7000;0.1286;3.7401;
-59.4000;0.1262;3.7299;
-59.1000;0.1270;3.7299;
-58.8000;0.1245;3.7273;
-58.5000;0.1270;3.7350;
-58.2000;0.1270;3.7427;
-57.9000;0.1270;3.7350;
-57.6000;0.1262;3.7299;
-57.3000;0.1270;3.7247;
-57.0000;0.1278;3.7324;
-56.7000;0.1262;3.7299;
-56.4000;0.1254;3.7222;
-56.1000;0.1262;3.7196;
-55.8000;0.1286;3.7222;
-55.5000;0.1294;3.7093;
-55.2000;0.1286;3.7093;
-54.9000;0.1278;3.7042;
-54.6000;0.1278;3.7016;
-54.3000;0.1278;3.7093;
-54.0000;0.1319;3.7247;
-53.7000;0.1270;3.7068;
-53.4000;0.1262;3.7042;
-53.1000;0.1262;3.7042;
-52.8000;0.1254;3.7068;
-52.5000;0.1262;3.7119;
-52.2000;0.1164;3.6888;
-51.9000;0.1278;3.7119;
-51.6000;0.1262;3.7068;
-51.3000;0.1213;3.6914;
-51.0000;0.1294;3.7093;
-50.7000;0.1254;3.7016;
-50.4000;0.1172;3.6837;
-50.1000;0.1262;3.6991;
-49.8000;0.1188;3.6914;
-49.5000;0.1245;3.6965;
-49.2000;0.1262;3.7093;
-48.9000;0.1270;3.7196;
-48.6000;0.1254;3.7196;
-48.3000;0.1262;3.7119;
-48.0000;0.1262;3.7093;
-47.7000;0.1213;3.6965;
-47.4000;0.1270;3.7119;
-47.1000;0.1172;3.6837;
-46.8000;0.1229;3.6991;
-46.5000;0.1262;3.7170;
-46.2000;0.1237;3.7119;
-45.9000;0.1245;3.7222;
-45.6000;0.1270;3.7324;
-45.3000;0.1327;3.7478;
-45.0000;0.1254;3.7196;
-44.7000;0.1262;3.7196;
-44.4000;0.1245;3.7093;
-44.1000;0.1286;3.7247;
-43.8000;0.1270;3.7170;
-43.5000;0.1278;3.7247;
-43.2000;0.1262;3.7273;
-42.9000;0.1302;3.7376;
-42.6000;0.1270;3.7273;
-42.3000;0.1254;3.7247;
-42.0000;0.1254;3.7170;
-41.7000;0.1278;3.7170;
-41.4000;0.1245;3.7145;
-41.1000;0.1270;3.7170;
-40.8000;0.1254;3.7145;
-40.5000;0.1278;3.7196;
-40.2000;0.1270;3.7170;
-39.9000;0.1262;3.7093;
-39.6000;0.1278;3.7170;
-39.3000;0.1262;3.7119;
-39.0000;0.1278;3.7196;
-38.7000;0.1311;3.7273;
-38.4000;0.1262;3.7196;
-38.1000;0.1278;3.7170;
-37.8000;0.1270;3.7068;
-37.5000;0.1270;3.7016;
-37.2000;0.1262;3.7016;
-36.9000;0.1245;3.6965;
-36.6000;0.1302;3.7247;
-36.3000;0.1278;3.7222;
-36.0000;0.1262;3.7170;
-35.7000;0.1262;3.7145;
-35.4000;0.1254;3.7068;
-35.1000;0.1254;3.7145;
-34.8000;0.1278;3.7324;
-34.5000;0.1262;3.7273;
-34.2000;0.1254;3.7247;
-33.9000;0.1262;3.7222;
-33.6000;0.1270;3.7299;
-33.3000;0.1270;3.7299;
-33.0000;0.1254;3.7273;
-32.7000;0.1262;3.7350;
-32.4000;0.1327;3.7504;
-32.1000;0.1294;3.7299;
-31.8000;0.1286;3.7273;
-31.5000;0.1286;3.7222;
-31.2000;0.1278;3.7068;
-30.9000;0.1245;3.6991;
-30.6000;0.1262;3.7068;
-30.3000;0.1278;3.7145;
-30.0000;0.1254;3.7145;
-29.7000;0.1286;3.7350;
-29.4000;0.1286;3.7376;
-29.1000;0.1254;3.7273;
-28.8000;0.1294;3.7401;
-28.5000;0.1262;3.7273;
-28.2000;0.1311;3.7478;
-27.9000;0.1229;3.7196;
-27.6000;0.1254;3.7222;
-27.3000;0.1302;3.7324;
-27.0000;0.1245;3.7145;
-26.7000;0.1262;3.7299;
-26.4000;0.1229;3.7068;
-26.1000;0.1245;3.7093;
-25.8000;0.1286;3.7222;
-25.5000;0.1254;3.7170;
-25.2000;0.1213;3.7068;
-24.9000;0.1213;3.7068;
-24.6000;0.1270;3.7196;
-24.3000;0.1262;3.7145;
-24.0000;0.1245;3.7119;
-23.7000;0.1286;3.7170;
-23.4000;0.1262;3.7016;
-23.1000;0.1237;3.6965;
-22.8000;0.1278;3.7119;
-22.5000;0.1254;3.7093;
-22.2000;0.1262;3.7196;
-21.9000;0.1278;3.7145;
-21.6000;0.1254;3.7170;
-21.3000;0.1245;3.7119;
-21.0000;0.1254;3.7145;
-20.7000;0.1278;3.7196;
-20.4000;0.1237;3.7093;
-20.1000;0.1294;3.7299;
-19.8000;0.1245;3.7093;
-19.5000;0.1294;3.7222;
-19.2000;0.1270;3.7093;
-18.9000;0.1254;3.7093;
-18.6000;0.1245;3.7068;
-18.3000;0.1254;3.7068;
-18.0000;0.1262;3.7170;
-17.7000;0.1278;3.7170;
-17.4000;0.1262;3.7145;
-17.1000;0.1254;3.7145;
-16.8000;0.1245;3.7119;
-16.5000;0.1270;3.7222;
-16.2000;0.1270;3.7222;
-15.9000;0.1278;3.7170;
-15.6000;0.1278;3.7222;
-15.3000;0.1278;3.7222;
-15.0000;0.1148;3.6734;
-14.7000;0.1270;3.7119;
-14.4000;0.1262;3.7119;
-14.1000;0.1237;3.6965;
-13.8000;0.1245;3.6888;
-13.5000;0.1278;3.6940;
-13.2000;0.1278;3.6965;
-12.9000;0.1245;3.6888;
-12.6000;0.1270;3.6914;
-12.3000;0.1270;3.6863;
-12.0000;0.1262;3.6837;
-11.7000;0.1286;3.6837;
-11.4000;0.1245;3.6734;
-11.1000;0.1245;3.6811;
-10.8000;0.1262;3.6837;
-10.5000;0.1262;3.6837;
-10.2000;0.1254;3.6734;
-9.9000;0.1270;3.6786;
-9.6000;0.1262;3.6863;
-9.3000;0.1262;3.6888;
-9.0000;0.1270;3.6914;
-8.7000;0.1270;3.6837;
-8.4000;0.1294;3.6914;
-8.1000;0.1262;3.6888;
-7.8000;0.1286;3.6965;
-7.5000;0.1254;3.6888;
-7.2000;0.1197;3.6760;
-6.9000;0.1286;3.7042;
-6.6000;0.1270;3.7068;
-6.3000;0.1254;3.7016;
-6.0000;0.1229;3.6837;
-5.7000;0.1270;3.6940;
-5.4000;0.1254;3.6940;
-5.1000;0.1237;3.6914;
-4.8000;0.1254;3.6991;
-4.5000;0.1237;3.6991;
-4.2000;0.1254;3.7042;
-3.9000;0.1254;3.7042;
-3.6000;0.1254;3.7093;
-3.3000;0.1205;3.6940;
-3.0000;0.1262;3.7119;
-2.7000;0.1270;3.7119;
-2.4000;0.1270;3.7119;
-2.1000;0.1229;3.7042;
-1.8000;0.1270;3.7222;
-1.5000;0.1270;3.7324;
-1.2000;0.1254;3.7273;
-0.9000;0.1213;3.7119;
-0.6000;0.1262;3.7350;
-0.3000;0.1245;3.7324;
0.0000;0.1245;3.7324;
0.3000;0.1270;3.7299;
0.6000;0.1286;3.7478;
0.9000;0.1319;3.7632;
1.2000;0.1343;3.7735;
1.5000;0.1343;3.7760;
1.8000;0.1376;3.7940;
2.1000;0.1400;3.8043;
2.4000;0.1425;3.8017;
2.7000;0.1433;3.8017;
3.0000;0.1416;3.8068;
3.3000;0.1555;3.8453;
3.6000;0.1465;3.8248;
3.9000;0.1343;3.7966;
4.2000;0.1490;3.8427;
4.5000;0.1473;3.8350;
4.8000;0.1481;3.8427;
5.1000;0.1571;3.8735;
5.4000;0.1473;3.8530;
5.7000;0.1473;3.8504;
6.0000;0.1433;3.8299;
6.3000;0.1457;3.8453;
6.6000;0.1490;3.8504;
6.9000;0.1473;3.8479;
7.2000;0.1465;3.8504;
7.5000;0.1498;3.8633;
7.8000;0.1498;3.8735;
8.1000;0.1449;3.8556;
8.4000;0.1481;3.8761;
8.7000;0.1587;3.9043;
9.0000;0.1481;3.8658;
9.3000;0.1498;3.8684;
9.6000;0.1555;3.8787;
9.9000;0.1498;3.8710;
10.2000;0.1498;3.8761;
10.5000;0.1547;3.8889;
10.8000;0.1433;3.8530;
11.1000;0.1498;3.8607;
11.4000;0.1514;3.8658;
11.7000;0.1481;3.8581;
12.0000;0.1514;3.8684;
12.3000;0.1441;3.8530;
12.6000;0.1490;3.8556;
12.9000;0.1498;3.8581;
13.2000;0.1498;3.8607;
13.5000;0.1506;3.8607;
13.8000;0.1506;3.8658;
14.1000;0.1514;3.8710;
14.4000;0.1490;3.8581;
14.7000;0.1514;3.8581;
15.0000;0.1506;3.8607;
15.3000;0.1514;3.8530;
15.6000;0.1514;3.8479;
15.9000;0.1498;3.8427;
16.2000;0.1506;3.8530;
16.5000;0.1498;3.8556;
16.8000;0.1498;3.8607;
17.1000;0.1498;3.8633;
17.4000;0.1514;3.8658;
17.7000;0.1506;3.8633;
18.0000;0.1514;3.8633;
18.3000;0.1538;3.8658;
18.6000;0.1514;3.8684;
18.9000;0.1514;3.8761;
19.2000;0.1514;3.8684;
19.5000;0.1522;3.8761;
19.8000;0.1530;3.8812;
20.1000;0.1498;3.8787;
20.4000;0.1522;3.8787;
20.7000;0.1506;3.8658;
21.0000;0.1514;3.8735;
21.3000;0.1538;3.8684;
21.6000;0.1522;3.8684;
21.9000;0.1441;3.8453;
22.2000;0.1490;3.8658;
22.5000;0.1522;3.8787;
22.8000;0.1522;3.8735;
23.1000;0.1555;3.8863;
23.4000;0.1538;3.8787;
23.7000;0.1538;3.8761;
24.0000;0.1538;3.8735;
24.3000;0.1530;3.8761;
24.6000;0.1514;3.8684;
24.9000;0.1514;3.8607;
25.2000;0.1530;3.8684;
25.5000;0.1530;3.8684;
25.8000;0.1530;3.8607;
26.1000;0.1522;3.8581;
26.4000;0.1538;3.8684;
26.7000;0.1530;3.8633;
27.0000;0.1547;3.8658;
27.3000;0.1514;3.8607;
27.6000;0.1506;3.8710;
27.9000;0.1522;3.8812;
28.2000;0.1514;3.8787;
28.5000;0.1498;3.8710;
28.8000;0.1514;3.8735;
29.1000;0.1522;3.8658;
29.4000;0.1538;3.8658;
29.7000;0.1555;3.8838;
30.0000;0.1449;3.8556;
30.3000;0.1538;3.8735;
30.6000;0.1530;3.8812;
30.9000;0.1555;3.8863;
31.2000;0.1538;3.8735;
31.5000;0.1547;3.8735;
31.8000;0.1465;3.8504;
32.1000;0.1498;3.8504;
32.4000;0.1555;3.8607;
32.7000;0.1530;3.8658;
33.0000;0.1498;3.8607;
33.3000;0.1547;3.8710;
33.6000;0.1587;3.8812;
33.9000;0.1530;3.8658;
34.2000;0.1522;3.8607;
34.5000;0.1547;3.8710;
34.8000;0.1547;3.8761;
35.1000;0.1530;3.8787;
35.4000;0.1522;3.8812;
35.7000;0.1595;3.8966;
36.0000;0.1522;3.8735;
36.3000;0.1490;3.8556;
36.6000;0.1538;3.8684;
36.9000;0.1522;3.8658;
37.2000;0.1555;3.8761;
37.5000;0.1555;3.8812;
37.8000;0.1555;3.8812;
38.1000;0.1547;3.8787;
38.4000;0.1547;3.8812;
38.7000;0.1538;3.8863;
39.0000;0.1612;3.9069;
39.3000;0.1587;3.9069;
39.6000;0.1579;3.8992;
39.9000;0.1628;3.8992;
40.2000;0.1547;3.8838;
40.5000;0.1538;3.8761;
40.8000;0.1538;3.8787;
41.1000;0.1547;3.8863;
41.4000;0.1547;3.8863;
41.7000;0.1587;3.8966;
42.0000;0.1555;3.8915;
42.3000;0.1538;3.8863;
42.6000;0.1530;3.8838;
42.9000;0.1530;3.8812;
43.2000;0.1547;3.8889;
43.5000;0.1538;3.8838;
43.8000;0.1514;3.8684;
44.1000;0.1514;3.8633;
44.4000;0.1530;3.8658;
44.7000;0.1465;3.8402;
45.0000;0.1571;3.8761;
45.3000;0.1555;3.8658;
45.6000;0.1555;3.8710;
45.9000;0.1538;3.8761;
46.2000;0.1538;3.8761;
46.5000;0.1530;3.8633;
46.8000;0.1555;3.8710;
47.1000;0.1661;3.8966;
47.4000;0.1547;3.8658;
47.7000;0.1555;3.8658;
48.0000;0.1555;3.8581;
48.3000;0.1498;3.8427;
48.6000;0.1555;3.8735;
48.9000;0.1604;3.8889;
49.2000;0.1522;3.8658;
49.5000;0.1538;3.8735;
49.8000;0.1538;3.8710;
50.1000;0.1555;3.8710;
50.4000;0.1555;3.8710;
50.7000;0.1547;3.8761;
51.0000;0.1530;3.8863;
51.3000;0.1522;3.8889;
51.6000;0.1555;3.8889;
51.9000;0.1530;3.8787;
52.2000;0.1595;3.8863;
52.5000;0.1547;3.8787;
52.8000;0.1547;3.8812;
53.1000;0.1530;3.8710;
53.4000;0.1538;3.8710;
53.7000;0.1555;3.8761;
54.0000;0.1547;3.8761;
54.3000;0.1498;3.8607;
54.6000;0.1530;3.8710;
54.9000;0.1571;3.8787;
55.2000;0.1547;3.8710;
55.5000;0.1579;3.8684;
55.8000;0.1644;3.8838;
56.1000;0.1547;3.8504;
56.4000;0.1595;3.8658;
56.7000;0.1555;3.8504;
57.0000;0.1555;3.8581;
57.3000;0.1547;3.8607;
57.6000;0.1547;3.8607;
57.9000;0.1612;3.8710;
58.2000;0.1522;3.8556;
58.5000;0.1530;3.8530;
58.8000;0.1547;3.8710;
59.1000;0.1555;3.8735;
59.4000;0.1522;3.8684;
59.7000;0.1563;3.8710;
60.0000;0.1547;3.8710;
60.3000;0.1555;3.8787;
60.6000;0.1555;3.8735;
60.9000;0.1555;3.8761;
61.2000;0.1555;3.8838;
61.5000;0.1555;3.8863;
61.8000;0.1587;3.8889;
62.1000;0.1555;3.8863;
62.4000;0.1563;3.8838;
62.7000;0.1547;3.8838;
63.0000;0.1547;3.8863;
63.3000;0.1555;3.8889;
63.6000;0.1530;3.8761;
63.9000;0.1547;3.8761;
64.2000;0.1579;3.8735;
64.5000;0.1563;3.8710;
64.8000;0.1587;3.8684;
65.1000;0.1571;3.8710;
65.4000;0.1449;3.8453;
65.7000;0.1587;3.8863;
66.0000;0.1538;3.8684;
66.3000;0.1514;3.8633;
66.6000;0.1563;3.8787;
66.9000;0.1547;3.8812;
67.2000;0.1555;3.8838;
67.5000;0.1571;3.8812;
67.8000;0.1571;3.8863;
68.1000;0.1547;3.8863;
68.4000;0.1514;3.8658;
68.7000;0.1547;3.8658;
69.0000;0.1579;3.8710;
69.3000;0.1571;3.8710;
69.6000;0.1538;3.8710;
69.9000;0.1547;3.8787;
70.2000;0.1555;3.8735;
70.5000;0.1563;3.8787;
70.8000;0.1571;3.8787;
71.1000;0.1530;3.8761;
71.4000;0.1555;3.8787;
71.7000;0.1547;3.8787;
72.0000;0.1555;3.8761;
72.3000;0.1530;3.8710;
72.6000;0.1579;3.8761;
72.9000;0.1571;3.8761;
73.2000;0.1571;3.8710;
73.5000;0.1522;3.8453;
73.8000;0.1563;3.8658;
74.1000;0.1579;3.8684;
74.4000;0.1595;3.8710;
74.7000;0.1555;3.8633;
75.0000;0.1538;3.8556;
75.3000;0.1579;3.8658;
75.6000;0.1571;3.8761;
75.9000;0.1571;3.8710;
76.2000;0.1571;3.8684;
76.5000;0.1498;3.8658;
76.8000;0.1547;3.8812;
77.1000;0.1555;3.8812;
77.4000;0.1547;3.8735;
77.7000;0.1579;3.8787;
78.0000;0.1547;3.8787;
78.3000;0.1555;3.8889;
78.6000;0.1547;3.8863;
78.9000;0.1538;3.8863;
79.2000;0.1587;3.8915;
79.5000;0.1547;3.8838;
79.8000;0.1506;3.8658;
80.1000;0.1547;3.8710;
80.4000;0.1563;3.8812;
80.7000;0.1587;3.8940;
81.0000;0.1555;3.8915;
81.3000;0.1538;3.8838;
81.6000;0.1530;3.8684;
81.9000;0.1571;3.8633;
82.2000;0.1547;3.8556;
82.5000;0.1538;3.8530;
82.8000;0.1555;3.8710;
83.1000;0.1563;3.8710;
83.4000;0.1481;3.8530;
83.7000;0.1571;3.8710;
84.0000;0.1555;3.8658;
84.3000;0.1571;3.8684;
84.6000;0.1555;3.8710;
84.9000;0.1498;3.8479;
85.2000;0.1538;3.8479;
85.5000;0.1530;3.8556;
85.8000;0.1571;3.8761;
86.1000;0.1571;3.8863;
86.4000;0.1547;3.8735;
86.7000;0.1538;3.8633;
87.0000;0.1571;3.8735;
87.3000;0.1579;3.8812;
87.6000;0.1538;3.8684;
87.9000;0.1604;3.8735;
88.2000;0.1538;3.8633;
88.5000;0.1620;3.8735;
88.8000;0.1579;3.8607;
89.1000;0.1563;3.8556;
89.4000;0.1547;3.8607;
89.7000;0.1547;3.8761;
90.0000;0.1587;3.8915;
90.3000;0.1563;3.8940;
90.6000;0.1587;3.8940;
90.9000;0.1563;3.8863;
91.2000;0.1481;3.8581;
91.5000;0.1547;3.8761;
91.8000;0.1571;3.8812;
92.1000;0.1587;3.8838;
92.4000;0.1571;3.8838;
92.7000;0.1563;3.8889;
93.0000;0.1579;3.8915;
93.3000;0.1571;3.8838;
93.6000;0.1579;3.8812;
93.9000;0.1514;3.8684;
94.2000;0.1547;3.8761;
94.5000;0.1571;3.8787;
94.8000;0.1563;3.8787;
95.1000;0.1563;3.8761;
95.4000;0.1538;3.8735;
95.7000;0.1563;3.8710;
96.0000;0.1555;3.8684;
96.3000;0.1563;3.8761;
96.6000;0.1563;3.8735;
96.9000;0.1563;3.8735;
97.2000;0.1490;3.8581;
97.5000;0.1547;3.8735;
97.8000;0.1571;3.8812;
98.1000;0.1579;3.8710;
98.4000;0.1547;3.8633;
98.7000;0.1555;3.8684;
99.0000;0.1563;3.8710;
99.3000;0.1522;3.8607;
99.6000;0.1571;3.8735;
99.9000;0.1595;3.8838;
100.2000;0.1563;3.8787;
100.5000;0.1563;3.8735;
100.8000;0.1555;3.8812;
101.1000;0.1506;3.8658;
101.4000;0.1571;3.8838;
101.7000;0.1481;3.8633;
102.0000;0.1514;3.8684;
102.3000;0.1506;3.8735;
102.6000;0.1449;3.8556;
102.9000;0.1547;3.8889;
103.2000;0.1555;3.8863;
103.5000;0.1563;3.8787;
103.8000;0.1555;3.8812;
104.1000;0.1579;3.8889;
104.4000;0.1547;3.8838;
104.7000;0.1555;3.8889;
105.0000;0.1530;3.8838;
105.3000;0.1555;3.8889;
105.6000;0.1563;3.8863;
105.9000;0.1571;3.8838;
106.2000;0.1555;3.8761;
106.5000;0.1555;3.8863;
106.8000;0.1636;3.9120;
107.1000;0.1555;3.8889;
107.4000;0.1571;3.8863;
107.7000;0.1579;3.8889;
108.0000;0.1579;3.8838;
108.3000;0.1571;3.8838;
108.6000;0.1571;3.8761;
108.9000;0.1555;3.8735;
109.2000;0.1547;3.8735;
109.5000;0.1538;3.8787;
109.8000;0.1595;3.8915;
110.1000;0.1571;3.8863;
110.4000;0.1522;3.8658;
110.7000;0.1538;3.8607;
111.0000;0.1563;3.8633;
111.3000;0.1563;3.8658;
111.6000;0.1555;3.8581;
111.9000;0.1547;3.8684;
112.2000;0.1498;3.8607;
112.5000;0.1547;3.8684;
112.8000;0.1563;3.8658;
113.1000;0.1547;3.8684;
113.4000;0.1490;3.8530;
113.7000;0.1563;3.8787;
114.0000;0.1538;3.8684;
114.3000;0.1555;3.8761;
114.6000;0.1538;3.8761;
114.9000;0.1636;3.9017;
115.2000;0.1587;3.8863;
115.5000;0.1555;3.8812;
115.8000;0.1555;3.8787;
116.1000;0.1563;3.8863;
116.4000;0.1555;3.8812;
116.7000;0.1555;3.8838;
117.0000;0.1563;3.8761;
117.3000;0.1547;3.8735;
117.6000;0.1538;3.8684;
117.9000;0.1563;3.8761;
118.2000;0.1530;3.8684;
118.5000;0.1555;3.8787;
118.8000;0.1571;3.8710;
119.1000;0.1563;3.8607;
119.4000;0.1547;3.8479;
119.7000;0.1563;3.8479;
120.0000;0.1555;3.8453;
120.3000;0.1563;3.8581;
120.6000;0.1571;3.8607;
120.9000;0.1571;3.8633;
121.2000;0.1579;3.8658;
121.5000;0.1579;3.8710;
121.8000;0.1587;3.8838;
122.1000;0.1587;3.8735;
122.4000;0.1547;3.8658;
122.7000;0.1563;3.8607;
123.0000;0.1579;3.8633;
123.3000;0.1571;3.8684;
123.6000;0.1563;3.8658;
123.9000;0.1538;3.8607;
124.2000;0.1530;3.8607;
124.5000;0.1579;3.8710;
124.8000;0.1547;3.8633;
125.1000;0.1587;3.8889;
125.4000;0.1547;3.8863;
125.7000;0.1547;3.8940;
126.0000;0.1490;3.8735;
126.3000;0.1441;3.8504;
126.6000;0.1669;3.9043;
126.9000;0.1579;3.8838;
127.2000;0.1579;3.8889;
127.5000;0.1538;3.8838;
127.8000;0.1571;3.8940;
128.1000;0.1538;3.8838;
128.4000;0.1563;3.8761;
128.7000;0.1628;3.9017;
129.0000;0.1538;3.8787;
129.3000;0.1498;3.8633;
129.6000;0.1563;3.8710;
129.9000;0.1547;3.8710;
130.2000;0.1579;3.8761;
130.5000;0.1579;3.8838;
130.8000;0.1579;3.8889;
131.1000;0.1571;3.8889;
131.4000;0.1563;3.8812;
131.7000;0.1563;3.8889;
132.0000;0.1571;3.8966;
132.3000;0.1563;3.8889;
132.6000;0.1538;3.8735;
132.9000;0.1506;3.8581;
133.2000;0.1538;3.8684;
133.5000;0.1555;3.8735;
133.8000;0.1481;3.8581;
134.1000;0.1587;3.8889;
134.4000;0.1555;3.8889;
134.7000;0.1628;3.9094;
135.0000;0.1571;3.8992;
135.3000;0.1571;3.8915;
135.6000;0.1522;3.8658;
135.9000;0.1571;3.8838;
136.2000;0.1579;3.8863;
136.5000;0.1563;3.8812;
136.8000;0.1685;3.9171;
137.1000;0.1571;3.8863;
137.4000;0.1555;3.8761;
137.7000;0.1555;3.8710;
138.0000;0.1555;3.8633;
138.3000;0.1620;3.8889;
138.6000;0.1563;3.8787;
138.9000;0.1547;3.8787;
139.2000;0.1538;3.8761;
139.5000;0.1530;3.8735;
139.8000;0.1563;3.8787;
140.1000;0.1555;3.8812;
140.4000;0.1563;3.8787;
140.7000;0.1571;3.8812;
141.0000;0.1628;3.8940;
141.3000;0.1595;3.8915;
141.6000;0.1563;3.8838;
141.9000;0.1555;3.8787;
142.2000;0.1563;3.8761;
142.5000;0.1579;3.8787;
142.8000;0.1547;3.8761;
143.1000;0.1652;3.9017;
143.4000;0.1579;3.8863;
143.7000;0.1571;3.8915;
144.0000;0.1547;3.8863;
144.3000;0.1473;3.8479;
144.6000;0.1555;3.8684;
144.9000;0.1530;3.8607;
145.2000;0.1555;3.8710;
145.5000;0.1555;3.8684;
145.8000;0.1587;3.8838;
146.1000;0.1563;3.8761;
146.4000;0.1579;3.8889;
146.7000;0.1571;3.8838;
147.0000;0.1563;3.8915;
147.3000;0.1522;3.8812;
147.6000;0.1555;3.8812;
147.9000;0.1555;3.8787;
148.2000;0.1514;3.8710;
148.5000;0.1571;3.8787;
148.8000;0.1587;3.8761;
149.1000;0.1563;3.8710;
149.4000;0.1473;3.8479;
149.7000;0.1555;3.8607;
150.0000;0.1579;3.8607;
150.3000;0.1555;3.8504;
150.6000;0.1547;3.8453;
150.9000;0.1547;3.8504;
151.2000;0.1579;3.8581;
151.5000;0.1579;3.8556;
151.8000;0.1457;3.8248;
152.1000;0.1579;3.8530;
152.4000;0.1555;3.8453;
152.7000;0.1571;3.8556;
153.0000;0.1555;3.8556;
153.3000;0.1547;3.8530;
153.6000;0.1571;3.8556;
153.9000;0.1563;3.8633;
154.2000;0.1587;3.8761;
154.5000;0.1555;3.8684;
154.8000;0.1563;3.8633;
155.1000;0.1571;3.8710;
155.4000;0.1555;3.8684;
155.7000;0.1587;3.8761;
156.0000;0.1563;3.8710;
156.3000;0.1563;3.8735;
156.6000;0.1538;3.8684;
156.9000;0.1563;3.8838;
157.2000;0.1661;3.9017;
157.5000;0.1571;3.8787;
157.8000;0.1555;3.8761;
158.1000;0.1555;3.8658;
158.4000;0.1530;3.8684;
158.7000;0.1473;3.8479;
159.0000;0.1522;3.8607;
159.3000;0.1669;3.9043;
159.6000;0.1555;3.8761;
159.9000;0.1555;3.8787;
160.2000;0.1579;3.8761;
160.5000;0.1563;3.8710;
160.8000;0.1652;3.8966;
161.1000;0.1571;3.8710;
161.4000;0.1587;3.8838;
161.7000;0.1449;3.8376;
162.0000;0.1595;3.8812;
162.3000;0.1538;3.8684;
162.6000;0.1555;3.8787;
162.9000;0.1587;3.8966;
163.2000;0.1563;3.8889;
163.5000;0.1579;3.8863;
163.8000;0.1538;3.8863;
164.1000;0.1571;3.8992;
164.4000;0.1571;3.8966;
164.7000;0.1522;3.8735;
165.0000;0.1571;3.8889;
165.3000;0.1563;3.8863;
165.6000;0.1587;3.8940;
165.9000;0.1530;3.8787;
166.2000;0.1555;3.8761;
166.5000;0.1579;3.8812;
166.8000;0.1563;3.8684;
167.1000;0.1571;3.8735;
167.4000;0.1579;3.8658;
167.7000;0.1571;3.8658;
168.0000;0.1595;3.8787;
168.3000;0.1571;3.8658;
168.6000;0.1555;3.8607;
168.9000;0.1563;3.8658;
169.2000;0.1547;3.8633;
169.5000;0.1571;3.8735;
169.8000;0.1555;3.8684;
170.1000;0.1563;3.8761;
170.4000;0.1555;3.8684;
170.7000;0.1538;3.8633;
171.0000;0.1555;3.8658;
171.3000;0.1538;3.8633;
171.6000;0.1547;3.8530;
171.9000;0.1579;3.8607;
172.2000;0.1555;3.8581;
172.5000;0.1652;3.8915;
172.8000;0.1563;3.8658;
173.1000;0.1538;3.8607;
173.4000;0.1555;3.8684;
173.7000;0.1538;3.8633;
174.0000;0.1449;3.8453;
174.3000;0.1555;3.8735;
174.6000;0.1571;3.8684;
174.9000;0.1555;3.8658;
175.2000;0.1571;3.8787;
175.5000;0.1563;3.8735;
175.8000;0.1555;3.8658;
176.1000;0.1669;3.9017;
176.4000;0.1514;3.8556;
176.7000;0.1547;3.8710;
177.0000;0.1587;3.8940;
177.3000;0.1555;3.8863;
177.6000;0.1579;3.8838;
177.9000;0.1490;3.8710;
178.2000;0.1587;3.8940;
178.5000;0.1563;3.8863;
178.8000;0.1433;3.8479;
179.1000;0.1571;3.8838;
179.4000;0.1571;3.8838;
179.7000;0.1579;3.8838;
180.0000;0.1547;3.8735;
180.3000;0.1547;3.8761;
180.6000;0.1547;3.8710;
180.9000;0.1555;3.8761;
181.2000;0.1628;3.8940;
181.5000;0.1538;3.8684;
181.8000;0.1498;3.8530;
182.1000;0.1604;3.8735;
182.4000;0.1571;3.8658;
182.7000;0.1563;3.8710;
183.0000;0.1563;3.8658;
183.3000;0.1571;3.8607;
183.6000;0.1555;3.8530;
183.9000;0.1587;3.8633;
184.2000;0.1547;3.8504;
184.5000;0.1571;3.8633;
184.8000;0.1563;3.8633;
185.1000;0.1530;3.8504;
185.4000;0.1538;3.8607;
185.7000;0.1555;3.8658;
186.0000;0.1563;3.8684;
186.3000;0.1538;3.8581;
186.6000;0.1571;3.8761;
186.9000;0.1587;3.8889;
187.2000;0.1547;3.8761;
187.5000;0.1555;3.8761;
187.8000;0.1555;3.8761;
188.1000;0.1538;3.8761;
188.4000;0.1571;3.8761;
188.7000;0.1587;3.8838;
189.0000;0.1571;3.8735;
189.3000;0.1563;3.8735;
189.6000;0.1587;3.8812;
189.9000;0.1538;3.8735;
190.2000;0.1547;3.8761;
190.5000;0.1555;3.8710;
190.8000;0.1563;3.8684;
191.1000;0.1538;3.8607;
191.4000;0.1595;3.8812;
191.7000;0.1555;3.8658;
192.0000;0.1547;3.8607;
192.3000;0.1571;3.8761;
192.6000;0.1579;3.8838;
192.9000;0.1563;3.8863;
193.2000;0.1547;3.8838;
193.5000;0.1563;3.8992;
193.8000;0.1563;3.8992;
194.1000;0.1563;3.8940;
194.4000;0.1547;3.8812;
194.7000;0.1571;3.8992;
195.0000;0.1579;3.8966;
195.3000;0.1587;3.8940;
195.6000;0.1555;3.8787;
195.9000;0.1628;3.9043;
196.2000;0.1555;3.8940;
196.5000;0.1604;3.9017;
196.8000;0.1587;3.8966;
197.1000;0.1579;3.8915;
197.4000;0.1571;3.8863;
197.7000;0.1522;3.8812;
198.0000;0.1555;3.8838;
198.3000;0.1571;3.8838;
198.6000;0.1579;3.8838;
198.9000;0.1563;3.8761;
199.2000;0.1538;3.8710;
199.5000;0.1547;3.8735;
199.8000;0.1555;3.8761;
200.1000;0.1571;3.8812;
200.4000;0.1563;3.8735;
200.7000;0.1530;3.8787;
201.0000;0.1538;3.8787;
201.3000;0.1563;3.8889;
201.6000;0.1555;3.8889;
201.9000;0.1620;3.8992;
202.2000;0.1547;3.8787;
202.5000;0.1563;3.8735;
202.8000;0.1522;3.8633;
203.1000;0.1547;3.8710;
203.4000;0.1547;3.8761;
203.7000;0.1547;3.8787;
204.0000;0.1555;3.8787;
204.3000;0.1538;3.8710;
204.6000;0.1571;3.8735;
204.9000;0.1547;3.8710;
205.2000;0.1555;3.8761;
205.5000;0.1555;3.8787;
205.8000;0.1555;3.8812;
206.1000;0.1547;3.8735;
206.4000;0.1563;3.8812;
206.7000;0.1563;3.8787;
207.0000;0.1547;3.8684;
207.3000;0.1579;3.8812;
207.6000;0.1563;3.8787;
207.9000;0.1555;3.8838;
208.2000;0.1555;3.8787;
208.5000;0.1538;3.8787;
208.8000;0.1555;3.8838;
209.1000;0.1579;3.8915;
209.4000;0.1555;3.8838;
209.7000;0.1587;3.8863;
210.0000;0.1563;3.8838;
210.3000;0.1579;3.8863;
210.6000;0.1571;3.8838;
210.9000;0.1433;3.8453;
211.2000;0.1563;3.8812;
211.5000;0.1571;3.8812;
211.8000;0.1555;3.8787;
212.1000;0.1538;3.8684;
212.4000;0.1587;3.8838;
212.7000;0.1555;3.8607;
213.0000;0.1547;3.8556;
213.3000;0.1465;3.8273;
213.6000;0.1547;3.8556;
213.9000;0.1555;3.8556;
214.2000;0.1547;3.8504;
214.5000;0.1677;3.8838;
214.8000;0.1571;3.8479;
215.1000;0.1571;3.8607;
215.4000;0.1579;3.8633;
215.7000;0.1563;3.8556;
216.0000;0.1579;3.8530;
216.3000;0.1571;3.8504;
216.6000;0.1555;3.8479;
216.9000;0.1595;3.8607;
217.2000;0.1563;3.8607;
217.5000;0.1636;3.8889;
217.8000;0.1563;3.8658;
218.1000;0.1563;3.8633;
218.4000;0.1555;3.8556;
218.7000;0.1555;3.8427;
219.0000;0.1530;3.8453;
219.3000;0.1498;3.8376;
219.6000;0.1514;3.8504;
219.9000;0.1498;3.8402;
220.2000;0.1555;3.8633;
220.5000;0.1579;3.8735;
220.8000;0.1522;3.8479;
221.1000;0.1547;3.8556;
221.4000;0.1555;3.8530;
221.7000;0.1481;3.8376;
222.0000;0.1490;3.8427;
222.3000;0.1522;3.8427;
222.6000;0.1612;3.8735;
222.9000;0.1465;3.8350;
223.2000;0.1579;3.8633;
223.5000;0.1547;3.8556;
223.8000;0.1563;3.8530;
224.1000;0.1555;3.8556;
224.4000;0.1555;3.8556;
224.7000;0.1563;3.8633;
225.0000;0.1604;3.8761;
225.3000;0.1538;3.8530;
225.6000;0.1547;3.8556;
225.9000;0.1498;3.8427;
226.2000;0.1563;3.8735;
226.5000;0.1555;3.8556;
226.8000;0.1449;3.8248;
227.1000;0.1555;3.8530;
227.4000;0.1538;3.8453;
227.7000;0.1506;3.8402;
228.0000;0.1530;3.8453;
228.3000;0.1498;3.8504;
228.6000;0.1547;3.8581;
228.9000;0.1547;3.8556;
229.2000;0.1563;3.8556;
229.5000;0.1587;3.8607;
229.8000;0.1563;3.8607;
230.1000;0.1555;3.8556;
230.4000;0.1571;3.8735;
230.7000;0.1555;3.8658;
231.0000;0.1644;3.8838;
231.3000;0.1563;3.8658;
231.6000;0.1530;3.8479;
231.9000;0.1547;3.8479;
232.2000;0.1547;3.8479;
232.5000;0.1563;3.8453;
232.8000;0.1547;3.8402;
233.1000;0.1530;3.8350;
233.4000;0.1587;3.8581;
233.7000;0.1563;3.8581;
234.0000;0.1522;3.8504;
234.3000;0.1547;3.8530;
234.6000;0.1538;3.8607;
234.9000;0.1620;3.8838;
235.2000;0.1538;3.8581;
235.5000;0.1563;3.8633;
235.8000;0.1563;3.8581;
236.1000;0.1563;3.8607;
236.4000;0.1587;3.8735;
236.7000;0.1547;3.8658;
237.0000;0.1563;3.8710;
237.3000;0.1547;3.8710;
237.6000;0.1547;3.8761;
237.9000;0.1555;3.8812;
238.2000;0.1547;3.8787;
238.5000;0.1555;3.8761;
238.8000;0.1571;3.8838;
239.1000;0.1571;3.8812;
239.4000;0.1530;3.8684;
239.7000;0.1547;3.8735;
240.0000;0.1547;3.8684;
240.3000;0.1547;3.8710;
240.6000;0.1547;3.8710;
240.9000;0.1555;3.8684;
241.2000;0.1604;3.8838;
241.5000;0.1555;3.8735;
241.8000;0.1547;3.8684;
242.1000;0.1571;3.8735;
242.4000;0.1555;3.8684;
242.7000;0.1579;3.8710;
243.0000;0.1555;3.8735;
243.3000;0.1563;3.8787;
243.6000;0.1538;3.8735;
243.9000;0.1555;3.8735;
244.2000;0.1547;3.8787;
244.5000;0.1530;3.8735;
244.8000;0.1571;3.8915;
245.1000;0.1555;3.8940;
245.4000;0.1506;3.8710;
245.7000;0.1555;3.8838;
246.0000;0.1555;3.8787;
246.3000;0.1579;3.8889;
246.6000;0.1563;3.8889;
246.9000;0.1571;3.8940;
247.2000;0.1522;3.8915;
247.5000;0.1571;3.9069;
247.8000;0.1547;3.8915;
248.1000;0.1433;3.8684;
248.4000;0.1571;3.9120;
248.7000;0.1563;3.8992;
249.0000;0.1498;3.8710;
249.3000;0.1555;3.8966;
249.6000;0.1547;3.8992;
249.9000;0.1571;3.8992;
250.2000;0.1612;3.9197;
250.5000;0.1563;3.8992;
250.8000;0.1514;3.8812;
251.1000;0.1620;3.9120;
251.4000;0.1579;3.8889;
251.7000;0.1587;3.8992;
252.0000;0.1416;3.8427;
252.3000;0.1652;3.9094;
252.6000;0.1506;3.8735;
252.9000;0.1555;3.8863;
253.2000;0.1587;3.8966;
253.5000;0.1571;3.8940;
253.8000;0.1612;3.9069;
254.1000;0.1408;3.8556;
254.4000;0.1547;3.8992;
254.7000;0.1547;3.9043;
255.0000;0.1538;3.8940;
255.3000;0.1547;3.8992;
255.6000;0.1563;3.8940;
255.9000;0.1530;3.8838;
256.2000;0.1547;3.8940;
256.5000;0.1587;3.9069;
256.8000;0.1587;3.9017;
257.1000;0.1636;3.9197;
257.4000;0.1530;3.8761;
257.7000;0.1555;3.8940;
258.0000;0.1530;3.8812;
258.3000;0.1514;3.8812;
258.6000;0.1547;3.8940;
258.9000;0.1579;3.9120;
259.2000;0.1563;3.9017;
259.5000;0.1563;3.9043;
259.8000;0.1571;3.9094;
260.1000;0.1636;3.9223;
260.4000;0.1587;3.9120;
260.7000;0.1555;3.9017;
261.0000;0.1595;3.9146;
261.3000;0.1555;3.8992;
261.6000;0.1587;3.8992;
261.9000;0.1563;3.8940;
262.2000;0.1571;3.8966;
262.5000;0.1563;3.8863;
262.8000;0.1571;3.8838;
263.1000;0.1587;3.8889;
263.4000;0.1538;3.8787;
263.7000;0.1538;3.8889;
264.0000;0.1587;3.8915;
264.3000;0.1547;3.8838;
264.6000;0.1538;3.8940;
264.9000;0.1538;3.8915;
265.2000;0.1661;3.9094;
265.5000;0.1530;3.8684;
265.8000;0.1563;3.8710;
266.1000;0.1587;3.8787;
266.4000;0.1571;3.8838;
266.7000;0.1563;3.8812;
267.0000;0.1555;3.8787;
267.3000;0.1563;3.8863;
267.6000;0.1555;3.8863;
267.9000;0.1563;3.8838;
268.2000;0.1555;3.8863;
268.5000;0.1571;3.8915;
268.8000;0.1620;3.8992;
269.1000;0.1514;3.8710;
269.4000;0.1579;3.8838;
269.7000;0.1579;3.8812;
270.0000;0.1538;3.8684;
270.3000;0.1595;3.8915;
270.6000;0.1571;3.8787;
270.9000;0.1555;3.8684;
271.2000;0.1547;3.8684;
271.5000;0.1547;3.8761;
271.8000;0.1628;3.9017;
272.1000;0.1571;3.8735;
272.4000;0.1530;3.8658;
272.7000;0.1547;3.8658;
273.0000;0.1547;3.8633;
273.3000;0.1571;3.8710;
273.6000;0.1563;3.8710;
273.9000;0.1555;3.8787;
274.2000;0.1620;3.9069;
274.5000;0.1571;3.8992;
274.8000;0.1571;3.8966;
275.1000;0.1661;3.9223;
275.4000;0.1587;3.8838;
275.7000;0.1587;3.8812;
276.0000;0.1579;3.8658;
276.3000;0.1571;3.8658;
276.6000;0.1595;3.8633;
276.9000;0.1571;3.8607;
277.2000;0.1538;3.8556;
277.5000;0.1555;3.8658;
277.8000;0.1628;3.8889;
278.1000;0.1555;3.8710;
278.4000;0.1587;3.8735;
278.7000;0.1604;3.8787;
279.0000;0.1563;3.8684;
279.3000;0.1563;3.8658;
279.6000;0.1563;3.8658;
279.9000;0.1547;3.8556;
280.2000;0.1579;3.8581;
280.5000;0.1571;3.8633;
280.8000;0.1628;3.8787;
281.1000;0.1628;3.8838;
281.4000;0.1579;3.8710;
281.7000;0.1530;3.8607;
282.0000;0.1563;3.8658;
282.3000;0.1547;3.8684;
282.6000;0.1555;3.8684;
282.9000;0.1563;3.8735;
283.2000;0.1571;3.8735;
283.5000;0.1563;3.8658;
283.8000;0.1579;3.8633;
284.1000;0.1579;3.8684;
284.4000;0.1555;3.8633;
284.7000;0.1587;3.8761;
285.0000;0.1579;3.8735;
285.3000;0.1563;3.8710;
285.6000;0.1547;3.8710;
285.9000;0.1530;3.8710;
286.2000;0.1538;3.8658;
286.5000;0.1547;3.8658;
286.8000;0.1571;3.8710;
287.1000;0.1579;3.8812;
287.4000;0.1587;3.8735;
287.7000;0.1587;3.8658;
288.0000;0.1563;3.8684;
288.3000;0.1571;3.8761;
288.6000;0.1555;3.8735;
288.9000;0.1571;3.8710;
289.2000;0.1522;3.8607;
289.5000;0.1506;3.8607;
289.8000;0.1555;3.8633;
290.1000;0.1571;3.8735;
290.4000;0.1514;3.8479;
290.7000;0.1449;3.8376;
291.0000;0.1547;3.8633;
291.3000;0.1522;3.8607;
291.6000;0.1579;3.8761;
291.9000;0.1563;3.8735;
292.2000;0.1604;3.8940;
292.5000;0.1555;3.8838;
292.8000;0.1547;3.8761;
293.1000;0.1571;3.8838;
293.4000;0.1547;3.8812;
293.7000;0.1563;3.8787;
294.0000;0.1563;3.8787;
294.3000;0.1506;3.8658;
294.6000;0.1555;3.8915;
294.9000;0.1685;3.9248;
295.2000;0.1571;3.8992;
295.5000;0.1604;3.9094;
295.8000;0.1538;3.8915;
296.1000;0.1587;3.9094;
296.4000;0.1563;3.8915;
296.7000;0.1538;3.8838;
297.0000;0.1620;3.8992;
297.3000;0.1555;3.8812;
297.6000;0.1522;3.8684;
297.9000;0.1538;3.8761;
298.2000;0.1563;3.8787;
298.5000;0.1587;3.8838;
298.8000;0.1555;3.8761;
299.1000;0.1571;3.8787;
299.4000;0.1547;3.8787;
299.7000;0.1555;3.8838;
300.0000;0.1587;3.8838;
300.3000;0.1571;3.8761;
300.6000;0.1547;3.8735;
300.9000;0.1547;3.8684;
301.2000;0.1563;3.8735;
301.5000;0.1571;3.8761;
301.8000;0.1571;3.8658;
302.1000;0.1538;3.8504;
302.4000;0.1555;3.8633;
302.7000;0.1547;3.8658;
303.0000;0.1571;3.8633;
303.3000;0.1555;3.8684;
303.6000;0.1514;3.8556;
303.9000;0.1571;3.8607;
304.2000;0.1538;3.8504;
304.5000;0.1563;3.8556;
304.8000;0.1563;3.8607;
305.1000;0.1571;3.8735;
305.4000;0.1563;3.8710;
305.7000;0.1547;3.8735;
306.0000;0.1571;3.8812;
306.3000;0.1538;3.8735;
306.6000;0.1579;3.8812;
306.9000;0.1563;3.8710;
307.2000;0.1547;3.8735;
307.5000;0.1538;3.8735;
307.8000;0.1555;3.8684;
308.1000;0.1579;3.8838;
308.4000;0.1547;3.8761;
308.7000;0.1579;3.8863;
309.0000;0.1563;3.8812;
309.3000;0.1563;3.8787;
309.6000;0.1547;3.8787;
309.9000;0.1555;3.8915;
310.2000;0.1563;3.8838;
310.5000;0.1579;3.8915;
310.8000;0.1547;3.8761;
311.1000;0.1547;3.8787;
311.4000;0.1547;3.8787;
311.7000;0.1514;3.8658;
312.0000;0.1555;3.8812;
312.3000;0.1538;3.8710;
312.6000;0.1547;3.8761;
312.9000;0.1547;3.8761;
313.2000;0.1547;3.8812;
313.5000;0.1571;3.8863;
313.8000;0.1563;3.8735;
314.1000;0.1547;3.8710;
314.4000;0.1522;3.8658;
314.7000;0.1579;3.8812;
315.0000;0.1563;3.8761;
315.3000;0.1563;3.8787;
315.6000;0.1571;3.8863;
315.9000;0.1538;3.8889;
316.2000;0.1563;3.8940;
316.5000;0.1579;3.9043;
316.8000;0.1538;3.8889;
317.1000;0.1563;3.8889;
317.4000;0.1563;3.8812;
317.7000;0.1449;3.8504;
318.0000;0.1604;3.8966;
318.3000;0.1579;3.8863;
318.6000;0.1563;3.8812;
318.9000;0.1547;3.8838;
319.2000;0.1571;3.8889;
319.5000;0.1563;3.8915;
319.8000;0.1563;3.9017;
320.1000;0.1571;3.9017;
320.4000;0.1555;3.8992;
320.7000;0.1587;3.9120;
321.0000;0.1571;3.9069;
321.3000;0.1571;3.9094;
321.6000;0.1563;3.9043;
321.9000;0.1563;3.8966;
322.2000;0.1538;3.8966;
322.5000;0.1555;3.8992;
322.8000;0.1547;3.9017;
323.1000;0.1555;3.9094;
323.4000;0.1563;3.8940;
323.7000;0.1555;3.8940;
324.0000;0.1571;3.8966;
324.3000;0.1563;3.8915;
324.6000;0.1563;3.8940;
324.9000;0.1563;3.8915;
325.2000;0.1587;3.8966;
325.5000;0.1563;3.8761;
325.8000;0.1579;3.8812;
326.1000;0.1563;3.8761;
326.4000;0.1555;3.8838;
326.7000;0.1538;3.8838;
327.0000;0.1571;3.8915;
327.3000;0.1571;3.8992;
327.6000;0.1563;3.8940;
327.9000;0.1547;3.8915;
328.2000;0.1555;3.8992;
328.5000;0.1563;3.9069;
328.8000;0.1555;3.9069;
329.1000;0.1579;3.9171;
329.4000;0.1571;3.9069;
329.7000;0.1587;3.9043;
330.0000;0.1612;3.9146;
330.3000;0.1555;3.8915;
330.6000;0.1571;3.8812;
330.9000;0.1555;3.8735;
331.2000;0.1555;3.8812;
331.5000;0.1555;3.8812;
331.8000;0.1563;3.8761;
332.1000;0.1620;3.8992;
332.4000;0.1547;3.8710;
332.7000;0.1538;3.8735;
333.0000;0.1555;3.8787;
333.3000;0.1571;3.8863;
333.6000;0.1530;3.8787;
333.9000;0.1530;3.8889;
334.2000;0.1595;3.8992;
334.5000;0.1555;3.8863;
334.8000;0.1579;3.8940;
335.1000;0.1563;3.8863;
335.4000;0.1547;3.8812;
335.7000;0.1587;3.8992;
336.0000;0.1579;3.8966;
336.3000;0.1612;3.8966;
336.6000;0.1571;3.8915;
336.9000;0.1555;3.8838;
337.2000;0.1579;3.8940;
337.5000;0.1547;3.8735;
337.8000;0.1563;3.8787;
338.1000;0.1555;3.8863;
338.4000;0.1473;3.8658;
338.7000;0.1571;3.8889;
339.0000;0.1538;3.8915;
339.3000;0.1547;3.8966;
339.6000;0.1563;3.8889;
339.9000;0.1571;3.8992;
340.2000;0.1563;3.8940;
340.5000;0.1416;3.8504;
340.8000;0.1547;3.8863;
341.1000;0.1579;3.8863;
341.4000;0.1547;3.8812;
341.7000;0.1547;3.8761;
342.0000;0.1579;3.8787;
342.3000;0.1563;3.8838;
342.6000;0.1555;3.8838;
342.9000;0.1555;3.8812;
343.2000;0.1604;3.8915;
343.5000;0.1555;3.8761;
343.8000;0.1547;3.8761;
344.1000;0.1555;3.8787;
344.4000;0.1506;3.8761;
344.7000;0.1563;3.8863;
345.0000;0.1571;3.8838;
345.3000;0.1555;3.8787;
345.6000;0.1538;3.8812;
345.9000;0.1538;3.8863;
346.2000;0.1555;3.8812;
346.5000;0.1563;3.8812;
346.8000;0.1563;3.8863;
347.1000;0.1579;3.8915;
347.4000;0.1563;3.8940;
347.7000;0.1579;3.9017;
348.0000;0.1555;3.8838;
348.3000;0.1579;3.8889;
348.6000;0.1595;3.8940;
348.9000;0.1563;3.8966;
349.2000;0.1547;3.8966;
349.5000;0.1547;3.8940;
349.8000;0.1530;3.8863;
350.1000;0.1547;3.8863;
350.4000;0.1579;3.8992;
350.7000;0.1555;3.8863;
351.0000;0.1555;3.8863;
351.3000;0.1563;3.8863;
351.6000;0.1563;3.8838;
351.9000;0.1563;3.8787;
352.2000;0.1563;3.8812;
352.5000;0.1538;3.8735;
352.8000;0.1538;3.8607;
353.1000;0.1669;3.8992;
353.4000;0.1555;3.8633;
353.7000;0.1538;3.8633;
354.0000;0.1547;3.8710;
354.3000;0.1571;3.8710;
354.6000;0.1530;3.8684;
354.9000;0.1538;3.8684;
355.2000;0.1555;3.8710;
355.5000;0.1571;3.8735;
355.8000;0.1571;3.8710;
356.1000;0.1555;3.8658;
356.4000;0.1555;3.8658;
356.7000;0.1547;3.8633;
357.0000;0.1555;3.8556;
357.3000;0.1530;3.8479;
357.6000;0.1555;3.8556;
357.9000;0.1587;3.8735;
358.2000;0.1563;3.8710;
358.5000;0.1563;3.8787;
358.8000;0.1555;3.8658;
359.1000;0.1547;3.8658;
359.4000;0.1571;3.8735;
359.7000;0.1571;3.8710;
360.0000;0.1555;3.8735;
360.3000;0.1547;3.8684;
360.6000;0.1530;3.8581;
360.9000;0.1547;3.8684;
361.2000;0.1538;3.8581;
361.5000;0.1571;3.8761;
361.8000;0.1530;3.8530;
362.1000;0.1587;3.8761;
362.4000;0.1547;3.8633;
362.7000;0.1571;3.8710;
363.0000;0.1547;3.8581;
363.3000;0.1571;3.8633;
363.6000;0.1571;3.8479;
363.9000;0.1587;3.8633;
364.2000;0.1571;3.8556;
364.5000;0.1498;3.8273;
364.8000;0.1530;3.8504;
365.1000;0.1563;3.8633;
365.4000;0.1587;3.8710;
365.7000;0.1563;3.8581;
366.0000;0.1547;3.8658;
366.3000;0.1538;3.8735;
366.6000;0.1555;3.8735;
366.9000;0.1522;3.8658;
367.2000;0.1563;3.8735;
367.5000;0.1538;3.8581;
367.8000;0.1571;3.8710;
368.1000;0.1579;3.8684;
368.4000;0.1522;3.8556;
368.7000;0.1563;3.8658;
369.0000;0.1563;3.8556;
369.3000;0.1652;3.8787;
369.6000;0.1579;3.8633;
369.9000;0.1547;3.8581;
370.2000;0.1563;3.8581;
370.5000;0.1571;3.8684;
370.8000;0.1563;3.8710;
371.1000;0.1563;3.8838;
371.4000;0.1563;3.8863;
371.7000;0.1530;3.8812;
372.0000;0.1555;3.8940;
372.3000;0.1555;3.8966;
372.6000;0.1555;3.8889;
372.9000;0.1661;3.9274;
373.2000;0.1555;3.8838;
373.5000;0.1571;3.8863;
373.8000;0.1538;3.8812;
374.1000;0.1563;3.8863;
374.4000;0.1571;3.8889;
374.7000;0.1579;3.8889;
375.0000;0.1579;3.8838;
375.3000;0.1547;3.8658;
375.6000;0.1547;3.8761;
375.9000;0.1571;3.8863;
376.2000;0.1563;3.8889;
376.5000;0.1563;3.8966;
376.8000;0.1538;3.8940;
377.1000;0.1530;3.8787;
377.4000;0.1579;3.8940;
377.7000;0.1555;3.8992;
378.0000;0.1547;3.9017;
378.3000;0.1571;3.9171;
378.6000;0.1579;3.9171;
378.9000;0.1547;3.9043;
379.2000;0.1547;3.9043;
379.5000;0.1563;3.8992;
379.8000;0.1628;3.9223;
380.1000;0.1579;3.9017;
380.4000;0.1547;3.8992;
380.7000;0.1571;3.9043;
381.0000;0.1555;3.9043;
381.3000;0.1555;3.9043;
381.6000;0.1547;3.9043;
381.9000;0.1538;3.8966;
382.2000;0.1530;3.9017;
382.5000;0.1547;3.9069;
382.8000;0.1555;3.9043;
383.1000;0.1547;3.9043;
383.4000;0.1563;3.8915;
383.7000;0.1555;3.8940;
384.0000;0.1563;3.8940;
384.3000;0.1547;3.8838;
384.6000;0.1563;3.8889;
384.9000;0.1538;3.8863;
385.2000;0.1555;3.8992;
385.5000;0.1481;3.8838;
385.8000;0.1555;3.9069;
386.1000;0.1547;3.8992;
386.4000;0.1538;3.9043;
386.7000;0.1563;3.9069;
387.0000;0.1547;3.9017;
387.3000;0.1563;3.8966;
387.6000;0.1571;3.8966;
387.9000;0.1571;3.8940;
388.2000;0.1530;3.8761;
388.5000;0.1587;3.8940;
388.8000;0.1490;3.8735;
389.1000;0.1571;3.9017;
389.4000;0.1530;3.8889;
389.7000;0.1555;3.8992;
390.0000;0.1563;3.8915;
390.3000;0.1538;3.8889;
390.6000;0.1547;3.8889;
390.9000;0.1522;3.8787;
391.2000;0.1547;3.8889;
391.5000;0.1522;3.8684;
391.8000;0.1571;3.8915;
392.1000;0.1555;3.8838;
392.4000;0.1555;3.8863;
392.7000;0.1563;3.8863;
393.0000;0.1563;3.8889;
393.3000;0.1563;3.8838;
393.6000;0.1547;3.8812;
393.9000;0.1547;3.8863;
394.2000;0.1563;3.8915;
394.5000;0.1547;3.8787;
394.8000;0.1563;3.8812;
395.1000;0.1555;3.8684;
395.4000;0.1571;3.8710;
395.7000;0.1571;3.8787;
396.0000;0.1579;3.8812;
396.3000;0.1563;3.8838;
396.6000;0.1685;3.9223;
396.9000;0.1571;3.8838;
397.2000;0.1506;3.8838;
397.5000;0.1563;3.8889;
397.8000;0.1563;3.8889;
398.1000;0.1571;3.8735;
398.4000;0.1661;3.8940;
398.7000;0.1579;3.8787;
399.0000;0.1579;3.8838;
399.3000;0.1563;3.8812;
399.6000;0.1579;3.8838;
399.9000;0.1587;3.8889;
400.2000;0.1579;3.8889;
400.5000;0.1571;3.8812;
400.8000;0.1571;3.8812;
401.1000;0.1563;3.8787;
401.4000;0.1563;3.8838;
401.7000;0.1587;3.8761;
402.0000;0.1563;3.8684;
402.3000;0.1547;3.8607;
402.6000;0.1571;3.8633;
402.9000;0.1563;3.8633;
403.2000;0.1563;3.8607;
403.5000;0.1555;3.8633;
403.8000;0.1538;3.8607;
404.1000;0.1555;3.8658;
404.4000;0.1441;3.8299;
404.7000;0.1563;3.8633;
405.0000;0.1563;3.8633;
405.3000;0.1563;3.8735;
405.6000;0.1677;3.9171;
405.9000;0.1547;3.8787;
406.2000;0.1563;3.8812;
406.5000;0.1530;3.8761;
406.8000;0.1571;3.8812;
407.1000;0.1555;3.8684;
407.4000;0.1547;3.8658;
407.7000;0.1604;3.8940;
408.0000;0.1538;3.8812;
408.3000;0.1555;3.8787;
408.6000;0.1636;3.9017;
408.9000;0.1547;3.8812;
409.2000;0.1571;3.8863;
409.5000;0.1571;3.8787;
409.8000;0.1571;3.8710;
410.1000;0.1555;3.8684;
410.4000;0.1571;3.8633;
410.7000;0.1530;3.8479;
411.0000;0.1530;3.8402;
411.3000;0.1555;3.8427;
411.6000;0.1555;3.8402;
411.9000;0.1563;3.8427;
412.2000;0.1579;3.8453;
412.5000;0.1530;3.8273;
412.8000;0.1506;3.8197;
413.1000;0.1563;3.8376;
413.4000;0.1571;3.8273;
413.7000;0.1555;3.8197;
414.0000;0.1579;3.8197;
414.3000;0.1563;3.8222;
414.6000;0.1571;3.8350;
414.9000;0.1579;3.8453;
415.2000;0.1481;3.8222;
415.5000;0.1555;3.8453;
415.8000;0.1547;3.8504;
416.1000;0.1563;3.8633;
416.4000;0.1538;3.8658;
416.7000;0.1555;3.8684;
417.0000;0.1547;3.8684;
417.3000;0.1547;3.8787;
417.6000;0.1547;3.8710;
417.9000;0.1555;3.8761;
418.2000;0.1555;3.8710;
418.5000;0.1563;3.8684;
418.8000;0.1555;3.8658;
419.1000;0.1563;3.8658;
419.4000;0.1473;3.8402;
419.7000;0.1563;3.8658;
420.0000;0.1555;3.8684;
420.3000;0.1473;3.8479;
420.6000;0.1579;3.8838;
420.9000;0.1555;3.8787;
421.2000;0.1547;3.8787;
421.5000;0.1555;3.8761;
421.8000;0.1555;3.8787;
422.1000;0.1538;3.8812;
422.4000;0.1563;3.8889;
422.7000;0.1530;3.8915;
423.0000;0.1563;3.9171;
423.3000;0.1547;3.9146;
423.6000;0.1547;3.9197;
423.9000;0.1514;3.8992;
424.2000;0.1555;3.9094;
424.5000;0.1579;3.9043;
424.8000;0.1579;3.9120;
425.1000;0.1547;3.8992;
425.4000;0.1555;3.9069;
425.7000;0.1579;3.9197;
426.0000;0.1571;3.9171;
426.3000;0.1457;3.8838;
426.6000;0.1563;3.9017;
426.9000;0.1538;3.8966;
427.2000;0.1473;3.8761;
427.5000;0.1538;3.8940;
427.8000;0.1555;3.8940;
428.1000;0.1530;3.8812;
428.4000;0.1555;3.8889;
428.7000;0.1579;3.8992;
429.0000;0.1547;3.8940;
429.3000;0.1514;3.8838;
429.6000;0.1604;3.9094;
429.9000;0.1514;3.8761;
430.2000;0.1571;3.8940;
430.5000;0.1661;3.9223;
430.8000;0.1555;3.8812;
431.1000;0.1563;3.8863;
431.4000;0.1595;3.9043;
431.7000;0.1579;3.9017;
432.0000;0.1555;3.8966;
432.3000;0.1457;3.8658;
432.6000;0.1563;3.8966;
432.9000;0.1547;3.8966;
433.2000;0.1571;3.9017;
433.5000;0.1490;3.8838;
433.8000;0.1506;3.8863;
434.1000;0.1587;3.9120;
434.4000;0.1563;3.8966;
434.7000;0.1547;3.8889;
435.0000;0.1555;3.8940;
435.3000;0.1522;3.8838;
435.6000;0.1547;3.8889;
435.9000;0.1547;3.8966;
436.2000;0.1571;3.8966;
436.5000;0.1538;3.8966;
436.8000;0.1604;3.9094;
437.1000;0.1538;3.8966;
437.4000;0.1457;3.8658;
437.7000;0.1563;3.8992;
438.0000;0.1555;3.9017;
438.3000;0.1555;3.9069;
438.6000;0.1538;3.9017;
438.9000;0.1555;3.8940;
439.2000;0.1555;3.8838;
439.5000;0.1547;3.8812;
439.8000;0.1579;3.8735;
440.1000;0.1563;3.8761;
440.4000;0.1563;3.8761;
440.7000;0.1579;3.8761;
441.0000;0.1563;3.8838;
441.3000;0.1530;3.8812;
441.6000;0.1538;3.8787;
441.9000;0.1547;3.8787;
442.2000;0.1563;3.8735;
442.5000;0.1563;3.8607;
442.8000;0.1530;3.8581;
443.1000;0.1555;3.8607;
443.4000;0.1547;3.8530;
443.7000;0.1604;3.8658;
444.0000;0.1563;3.8556;
444.3000;0.1547;3.8504;
444.6000;0.1547;3.8607;
444.9000;0.1555;3.8607;
445.2000;0.1579;3.8684;
445.5000;0.1555;3.8735;
445.8000;0.1530;3.8735;
446.1000;0.1563;3.8863;
446.4000;0.1555;3.8787;
446.7000;0.1538;3.8684;
447.0000;0.1612;3.8915;
447.3000;0.1530;3.8710;
447.6000;0.1563;3.8735;
447.9000;0.1563;3.8735;
448.2000;0.1555;3.8684;
448.5000;0.1563;3.8684;
448.8000;0.1563;3.8710;
449.1000;0.1587;3.8940;
449.4000;0.1547;3.8863;
449.7000;0.1563;3.8838;
450.0000;0.1555;3.8787;
450.3000;0.1522;3.8735;
450.6000;0.1563;3.8966;
450.9000;0.1547;3.8889;
451.2000;0.1571;3.8863;
451.5000;0.1530;3.8761;
451.8000;0.1555;3.8812;
452.1000;0.1563;3.8787;
452.4000;0.1571;3.8889;
452.7000;0.1547;3.8889;
453.0000;0.1563;3.9017;
453.3000;0.1571;3.8966;
453.6000;0.1538;3.8966;
453.9000;0.1555;3.9043;
454.2000;0.1563;3.9094;
454.5000;0.1595;3.9248;
454.8000;0.1538;3.9094;
455.1000;0.1579;3.9171;
455.4000;0.1571;3.9069;
455.7000;0.1538;3.8966;
456.0000;0.1555;3.8992;
456.3000;0.1563;3.9043;
456.6000;0.1441;3.8684;
456.9000;0.1555;3.9094;
457.2000;0.1555;3.9069;
457.5000;0.1612;3.9197;
457.8000;0.1514;3.9017;
458.1000;0.1555;3.9171;
458.4000;0.1514;3.9094;
458.7000;0.1547;3.9069;
459.0000;0.1547;3.9043;
459.3000;0.1547;3.9094;
459.6000;0.1530;3.9043;
459.9000;0.1522;3.8966;
460.2000;0.1498;3.8940;
460.5000;0.1530;3.9017;
460.8000;0.1555;3.9017;
461.1000;0.1547;3.8940;
461.4000;0.1530;3.8915;
461.7000;0.1563;3.8992;
462.0000;0.1563;3.9069;
462.3000;0.1547;3.9069;
462.6000;0.1563;3.9094;
462.9000;0.1547;3.9094;
463.2000;0.1547;3.9069;
463.5000;0.1547;3.9069;
463.8000;0.1538;3.9043;
464.1000;0.1661;3.9402;
464.4000;0.1579;3.9120;
464.7000;0.1587;3.8992;
465.0000;0.1571;3.8915;
465.3000;0.1538;3.8889;
465.6000;0.1563;3.8940;
465.9000;0.1563;3.8915;
466.2000;0.1555;3.8915;
466.5000;0.1555;3.8863;
466.8000;0.1547;3.8812;
467.1000;0.1571;3.8940;
467.4000;0.1563;3.8812;
467.7000;0.1563;3.8787;
468.0000;0.1571;3.8838;
468.3000;0.1547;3.8787;
468.6000;0.1701;3.9248;
468.9000;0.1579;3.8889;
469.2000;0.1538;3.8838;
469.5000;0.1555;3.8915;
469.8000;0.1490;3.8761;
470.1000;0.1530;3.8838;
470.4000;0.1547;3.9017;
470.7000;0.1547;3.9043;
471.0000;0.1555;3.9069;
471.3000;0.1555;3.9069;
471.6000;0.1547;3.9017;
471.9000;0.1530;3.8992;
472.2000;0.1555;3.9094;
472.5000;0.1555;3.9043;
472.8000;0.1530;3.8966;
473.1000;0.1563;3.9043;
473.4000;0.1571;3.9069;
473.7000;0.1563;3.9017;
474.0000;0.1563;3.8992;
474.3000;0.1571;3.8915;
474.6000;0.1555;3.8863;
474.9000;0.1587;3.8889;
475.2000;0.1652;3.9043;
475.5000;0.1555;3.8915;
475.8000;0.1555;3.8992;
476.1000;0.1547;3.8940;
476.4000;0.1579;3.9043;
476.7000;0.1555;3.8966;
477.0000;0.1547;3.8915;
477.3000;0.1547;3.8992;
477.6000;0.1538;3.8915;
477.9000;0.1563;3.8966;
478.2000;0.1538;3.8966;
478.5000;0.1563;3.9017;
478.8000;0.1563;3.9017;
479.1000;0.1547;3.8966;
479.4000;0.1571;3.9043;
479.7000;0.1555;3.8915;
480.0000;0.1563;3.8992;
480.3000;0.1571;3.9017;
480.6000;0.1563;3.9017;
480.9000;0.1563;3.9017;
481.2000;0.1522;3.9017;
481.5000;0.1547;3.9017;
481.8000;0.1579;3.8966;
482.1000;0.1604;3.9069;
482.4000;0.1555;3.8889;
482.7000;0.1571;3.9017;
483.0000;0.1579;3.9094;
483.3000;0.1563;3.9171;
483.6000;0.1563;3.9094;
483.9000;0.1538;3.9069;
484.2000;0.1547;3.9094;
484.5000;0.1595;3.9146;
484.8000;0.1652;3.9453;
485.1000;0.1563;3.9248;
485.4000;0.1473;3.8889;
485.7000;0.1538;3.9120;
486.0000;0.1555;3.9094;
486.3000;0.1555;3.9069;
486.6000;0.1538;3.9094;
486.9000;0.1555;3.9146;
487.2000;0.1522;3.9069;
487.5000;0.1547;3.9197;
487.8000;0.1571;3.9146;
488.1000;0.1555;3.9094;
488.4000;0.1547;3.9069;
488.7000;0.1522;3.8992;
489.0000;0.1481;3.8838;
489.3000;0.1579;3.9120;
489.6000;0.1555;3.8966;
489.9000;0.1538;3.8889;
490.2000;0.1652;3.9300;
490.5000;0.1538;3.9069;
490.8000;0.1547;3.9146;
491.1000;0.1555;3.9146;
491.4000;0.1571;3.9146;
491.7000;0.1530;3.8992;
492.0000;0.1555;3.9094;
492.3000;0.1571;3.9120;
492.6000;0.1563;3.9146;
492.9000;0.1563;3.9223;
493.2000;0.1547;3.9223;
493.5000;0.1538;3.9197;
493.8000;0.1514;3.9120;
494.1000;0.1563;3.9248;
494.4000;0.1547;3.9197;
494.7000;0.1563;3.9146;
495.0000;0.1555;3.9120;
495.3000;0.1555;3.9094;
495.6000;0.1620;3.9274;
495.9000;0.1555;3.9043;
496.2000;0.1579;3.9146;
496.5000;0.1555;3.9146;
496.8000;0.1587;3.9094;
497.1000;0.1604;3.9197;
497.4000;0.1571;3.9043;
497.7000;0.1571;3.9043;
498.0000;0.1612;3.9171;
498.3000;0.1555;3.9017;
498.6000;0.1547;3.9043;
498.9000;0.1555;3.8992;
499.2000;0.1579;3.9094;
499.5000;0.1538;3.8992;
499.8000;0.1563;3.9069;
500.1000;0.1571;3.9017;
500.4000;0.1571;3.8992;
500.7000;0.1587;3.8966;
501.0000;0.1538;3.8966;
501.3000;0.1547;3.8940;
501.6000;0.1571;3.8992;
501.9000;0.1522;3.8915;
502.2000;0.1530;3.9017;
502.5000;0.1555;3.8992;
502.8000;0.1555;3.8992;
503.1000;0.1563;3.9017;
503.4000;0.1555;3.9043;
503.7000;0.1538;3.8992;
504.0000;0.1538;3.8992;
504.3000;0.1555;3.9069;
504.6000;0.1661;3.9248;
504.9000;0.1612;3.9069;
505.2000;0.1498;3.8710;
505.5000;0.1538;3.8735;
505.8000;0.1571;3.8812;
506.1000;0.1538;3.8658;
506.4000;0.1563;3.8812;
506.7000;0.1547;3.8787;
507.0000;0.1579;3.8889;
507.3000;0.1514;3.8787;
507.6000;0.1571;3.8992;
507.9000;0.1563;3.9043;
508.2000;0.1555;3.9094;
508.5000;0.1563;3.9120;
508.8000;0.1563;3.9069;
509.1000;0.1555;3.9069;
509.4000;0.1571;3.9120;
509.7000;0.1579;3.9120;
510.0000;0.1620;3.9300;
510.3000;0.1538;3.9094;
510.6000;0.1563;3.9146;
510.9000;0.1563;3.9171;
511.2000;0.1571;3.9197;
511.5000;0.1571;3.9248;
511.8000;0.1530;3.9197;
512.1000;0.1522;3.9120;
512.4000;0.1547;3.9171;
512.7000;0.1547;3.9120;
513.0000;0.1555;3.9223;
513.3000;0.1612;3.9377;
513.6000;0.1579;3.9325;
513.9000;0.1555;3.9351;
514.2000;0.1547;3.9248;
514.5000;0.1547;3.9171;
514.8000;0.1555;3.9120;
515.1000;0.1547;3.9017;
515.4000;0.1547;3.8940;
515.7000;0.1563;3.9094;
516.0000;0.1563;3.9094;
516.3000;0.1563;3.9274;
516.6000;0.1547;3.9223;
516.9000;0.1563;3.9248;
517.2000;0.1563;3.9171;
517.5000;0.1571;3.9120;
517.8000;0.1514;3.8915;
518.1000;0.1555;3.9120;
518.4000;0.1555;3.9094;
518.7000;0.1563;3.9146;
519.0000;0.1563;3.9043;
519.3000;0.1563;3.9120;
519.6000;0.1481;3.8940;
519.9000;0.1547;3.9120;
520.2000;0.1563;3.9171;
520.5000;0.1547;3.9017;
520.8000;0.1563;3.8966;
521.1000;0.1555;3.8992;
521.4000;0.1538;3.8863;
521.7000;0.1490;3.8684;
522.0000;0.1555;3.8863;
522.3000;0.1571;3.9017;
522.6000;0.1538;3.8915;
522.9000;0.1571;3.9017;
523.2000;0.1571;3.9069;
523.5000;0.1555;3.9094;
523.8000;0.1555;3.9043;
524.1000;0.1555;3.8992;
524.4000;0.1563;3.8966;
524.7000;0.1571;3.8966;
525.0000;0.1579;3.8966;
525.3000;0.1587;3.8940;
525.6000;0.1587;3.8940;
525.9000;0.1563;3.8863;
526.2000;0.1571;3.8940;
526.5000;0.1538;3.8915;
526.8000;0.1563;3.9069;
527.1000;0.1555;3.8966;
527.4000;0.1416;3.8607;
527.7000;0.1563;3.8992;
528.0000;0.1538;3.8940;
528.3000;0.1514;3.8863;
528.6000;0.1555;3.9069;
528.9000;0.1620;3.9171;
529.2000;0.1571;3.9017;
529.5000;0.1547;3.8940;
529.8000;0.1669;3.9274;
530.1000;0.1571;3.8966;
530.4000;0.1547;3.8889;
530.7000;0.1530;3.8863;
531.0000;0.1547;3.8863;
531.3000;0.1506;3.8761;
531.6000;0.1563;3.8889;
531.9000;0.1563;3.8915;
532.2000;0.1579;3.8915;
532.5000;0.1571;3.8812;
532.8000;0.1652;3.9017;
533.1000;0.1555;3.8710;
533.4000;0.1547;3.8658;
533.7000;0.1547;3.8633;
534.0000;0.1506;3.8556;
534.3000;0.1555;3.8710;
534.6000;0.1530;3.8710;
534.9000;0.1547;3.8761;
535.2000;0.1547;3.8838;
535.5000;0.1547;3.8863;
535.8000;0.1530;3.8761;
536.1000;0.1522;3.8735;
536.4000;0.1555;3.9017;
536.7000;0.1522;3.8915;
537.0000;0.1522;3.8915;
537.3000;0.1547;3.9043;
537.6000;0.1579;3.9171;
537.9000;0.1579;3.9223;
538.2000;0.1563;3.9146;
538.5000;0.1555;3.9120;
538.8000;0.1538;3.9069;
539.1000;0.1555;3.9146;
539.4000;0.1555;3.9094;
539.7000;0.1604;3.9094;
540.0000;0.1563;3.8787;
540.3000;0.1530;3.8684;
540.6000;0.1555;3.8735;
540.9000;0.1547;3.8787;
541.2000;0.1555;3.8863;
541.5000;0.1538;3.8863;
541.8000;0.1555;3.8838;
542.1000;0.1538;3.8889;
542.4000;0.1563;3.8915;
542.7000;0.1604;3.9017;
543.0000;0.1538;3.8889;
543.3000;0.1563;3.8889;
543.6000;0.1571;3.8940;
543.9000;0.1538;3.8966;
544.2000;0.1555;3.8940;
544.5000;0.1571;3.8966;
544.8000;0.1547;3.8940;
545.1000;0.1538;3.8838;
545.4000;0.1579;3.8915;
545.7000;0.1522;3.8684;
546.0000;0.1555;3.8710;
546.3000;0.1538;3.8658;
546.6000;0.1563;3.8710;
546.9000;0.1563;3.8633;
547.2000;0.1522;3.8504;
547.5000;0.1555;3.8427;
547.8000;0.1555;3.8427;
548.1000;0.1555;3.8402;
548.4000;0.1538;3.8427;
548.7000;0.1547;3.8453;
549.0000;0.1555;3.8479;
549.3000;0.1547;3.8633;
549.6000;0.1661;3.8966;
549.9000;0.1547;3.8684;
550.2000;0.1530;3.8658;
550.5000;0.1563;3.8735;
550.8000;0.1506;3.8556;
551.1000;0.1555;3.8761;
551.4000;0.1490;3.8581;
551.7000;0.1555;3.8838;
552.0000;0.1571;3.8863;
552.3000;0.1587;3.8915;
552.6000;0.1555;3.8889;
552.9000;0.1441;3.8607;
553.2000;0.1522;3.8812;
553.5000;0.1563;3.8787;
553.8000;0.1547;3.8761;
554.1000;0.1473;3.8479;
554.4000;0.1555;3.8761;
554.7000;0.1579;3.8838;
555.0000;0.1530;3.8684;
555.3000;0.1587;3.8812;
555.6000;0.1555;3.8658;
555.9000;0.1563;3.8710;
556.2000;0.1555;3.8710;
556.5000;0.1547;3.8684;
556.8000;0.1555;3.8735;
557.1000;0.1555;3.8787;
557.4000;0.1530;3.8710;
557.7000;0.1579;3.8889;
558.0000;0.1587;3.8889;
558.3000;0.1571;3.8863;
558.6000;0.1538;3.8787;
558.9000;0.1555;3.8761;
559.2000;0.1538;3.8761;
559.5000;0.1571;3.8838;
559.8000;0.1579;3.8915;
560.1000;0.1547;3.8761;
560.4000;0.1571;3.8889;
560.7000;0.1563;3.8889;
561.0000;0.1555;3.8889;
561.3000;0.1563;3.8915;
561.6000;0.1620;3.8966;
561.9000;0.1571;3.8863;
562.2000;0.1522;3.8735;
562.5000;0.1571;3.8966;
562.8000;0.1547;3.8915;
563.1000;0.1547;3.8966;
563.4000;0.1555;3.8889;
563.7000;0.1555;3.8940;
564.0000;0.1555;3.8992;
564.3000;0.1538;3.8966;
564.6000;0.1555;3.9017;
564.9000;0.1530;3.8915;
565.2000;0.1555;3.8992;
565.5000;0.1571;3.8966;
565.8000;0.1530;3.8915;
566.1000;0.1555;3.8889;
566.4000;0.1563;3.8863;
566.7000;0.1522;3.8633;
567.0000;0.1547;3.8710;
567.3000;0.1530;3.8710;
567.6000;0.1538;3.8735;
567.9000;0.1563;3.8735;
568.2000;0.1555;3.8812;
568.5000;0.1571;3.8838;
568.8000;0.1547;3.8889;
569.1000;0.1547;3.8992;
569.4000;0.1514;3.8915;
569.7000;0.1555;3.9017;
570.0000;0.1555;3.9069;
570.3000;0.1538;3.9069;
570.6000;0.1530;3.8966;
570.9000;0.1547;3.8992;
571.2000;0.1563;3.9043;
571.5000;0.1571;3.9171;
571.8000;0.1530;3.9094;
572.1000;0.1538;3.9094;
572.4000;0.1547;3.8966;
572.7000;0.1571;3.9069;
573.0000;0.1555;3.9043;
573.3000;0.1538;3.9094;
573.6000;0.1555;3.9146;
573.9000;0.1547;3.9069;
574.2000;0.1563;3.9094;
574.5000;0.1530;3.8940;
574.8000;0.1604;3.8992;
575.1000;0.1563;3.8838;
575.4000;0.1555;3.8812;
575.7000;0.1563;3.8889;
576.0000;0.1555;3.8889;
576.3000;0.1563;3.8966;
576.6000;0.1555;3.9120;
576.9000;0.1530;3.8992;
577.2000;0.1538;3.9043;
577.5000;0.1538;3.9017;
577.8000;0.1555;3.9094;
578.1000;0.1538;3.9043;
578.4000;0.1547;3.9094;
578.7000;0.1547;3.9069;
579.0000;0.1449;3.8735;
579.3000;0.1620;3.9146;
579.6000;0.1538;3.8992;
579.9000;0.1555;3.9043;
580.2000;0.1563;3.8940;
580.5000;0.1530;3.8863;
580.8000;0.1563;3.8992;
581.1000;0.1579;3.8992;
581.4000;0.1571;3.9017;
581.7000;0.1571;3.9017;
582.0000;0.1530;3.9017;
582.3000;0.1547;3.9017;
582.6000;0.1555;3.8992;
582.9000;0.1571;3.8992;
583.2000;0.1547;3.9017;
583.5000;0.1571;3.9069;
583.8000;0.1547;3.9069;
584.1000;0.1563;3.9069;
584.4000;0.1555;3.9120;
584.7000;0.1481;3.8915;
585.0000;0.1579;3.9120;
585.3000;0.1587;3.9094;
585.6000;0.1538;3.8992;
585.9000;0.1563;3.8992;
586.2000;0.1538;3.8940;
586.5000;0.1571;3.8992;
586.8000;0.1579;3.8915;
587.1000;0.1538;3.8863;
587.4000;0.1555;3.8940;
587.7000;0.1506;3.8940;
588.0000;0.1547;3.9069;
588.3000;0.1538;3.9017;
588.6000;0.1538;3.9017;
588.9000;0.1547;3.9094;
589.2000;0.1571;3.9146;
589.5000;0.1555;3.9120;
589.8000;0.1595;3.9120;
590.1000;0.1563;3.9069;
590.4000;0.1555;3.9043;
590.7000;0.1563;3.9094;
591.0000;0.1547;3.9069;
591.3000;0.1547;3.9043;
591.6000;0.1506;3.8992;
591.9000;0.1555;3.9069;
592.2000;0.1555;3.9120;
592.5000;0.1555;3.9043;
592.8000;0.1555;3.8966;
593.1000;0.1563;3.9043;
593.4000;0.1547;3.9017;
593.7000;0.1538;3.9043;
594.0000;0.1555;3.9017;
594.3000;0.1563;3.9120;
594.6000;0.1563;3.9094;
594.9000;0.1587;3.9171;
595.2000;0.1555;3.9094;
595.5000;0.1555;3.9069;
595.8000;0.1563;3.9146;
596.1000;0.1547;3.9197;
596.4000;0.1538;3.9325;
596.7000;0.1620;3.9505;
597.0000;0.1571;3.9351;
597.3000;0.1555;3.9223;
597.6000;0.1538;3.9171;
597.9000;0.1547;3.9120;
598.2000;0.1547;3.9043;
598.5000;0.1514;3.8863;
598.8000;0.1481;3.8710;
599.1000;0.1490;3.8761;
599.4000;0.1563;3.9043;
599.7000;0.1612;3.9223;
600.0000;0.1555;3.9043;
600.3000;0.1563;3.9017;
600.6000;0.1538;3.8863;
600.9000;0.1628;3.8966;
601.2000;0.1530;3.8556;
601.5000;0.1538;3.8402;
601.8000;0.1506;3.8248;
602.1000;0.1530;3.8197;
602.4000;0.1465;3.7991;
602.7000;0.1481;3.7966;
603.0000;0.1433;3.7709;
603.3000;0.1481;3.7786;
603.6000;0.1481;3.7786;
603.9000;0.1490;3.7709;
604.2000;0.1481;3.7555;
604.5000;0.1465;3.7581;
604.8000;0.1465;3.7632;
605.1000;0.1465;3.7709;
605.4000;0.1490;3.7683;
605.7000;0.1490;3.7453;
606.0000;0.1490;3.7324;
606.3000;0.1465;3.7273;
606.6000;0.1465;3.7299;
606.9000;0.1433;3.7247;
607.2000;0.1457;3.7273;
607.5000;0.1481;3.7324;
607.8000;0.1425;3.7273;
608.1000;0.1449;3.7299;
608.4000;0.1490;3.7376;
608.7000;0.1416;3.7222;
609.0000;0.1408;3.7170;
609.3000;0.1408;3.7247;
609.6000;0.1408;3.7222;
609.9000;0.1506;3.7555;
610.2000;0.1481;3.7401;
610.5000;0.1449;3.7273;
610.8000;0.1376;3.7042;
611.1000;0.1400;3.7119;
611.4000;0.1441;3.7222;
611.7000;0.1441;3.7119;
612.0000;0.1433;3.7119;
612.3000;0.1400;3.7042;
612.6000;0.1392;3.7016;
612.9000;0.1425;3.7145;
613.2000;0.1400;3.7145;
613.5000;0.1433;3.7273;
613.8000;0.1416;3.7145;
614.1000;0.1433;3.7119;
614.4000;0.1376;3.7068;
614.7000;0.1522;3.7401;
615.0000;0.1392;3.7068;
615.3000;0.1408;3.7222;
615.6000;0.1408;3.7299;
615.9000;0.1425;3.7427;
616.2000;0.1416;3.7401;
616.5000;0.1416;3.7504;
616.8000;0.1408;3.7478;
617.1000;0.1408;3.7453;
617.4000;0.1416;3.7427;
617.7000;0.1400;3.7453;
618.0000;0.1416;3.7350;
618.3000;0.1408;3.7299;
618.6000;0.1408;3.7222;
618.9000;0.1335;3.6965;
619.2000;0.1392;3.7119;
619.5000;0.1335;3.6888;
619.8000;0.1319;3.6940;
620.1000;0.1392;3.7222;
620.4000;0.1343;3.7016;
620.7000;0.1384;3.7093;
621.0000;0.1392;3.7016;
621.3000;0.1286;3.6683;
621.6000;0.1343;3.6940;
621.9000;0.1392;3.7170;
622.2000;0.1376;3.7196;
622.5000;0.1408;3.7196;
622.8000;0.1254;3.6734;
623.1000;0.1384;3.7170;
623.4000;0.1433;3.7324;
623.7000;0.1392;3.7042;
624.0000;0.1384;3.6991;
624.3000;0.1376;3.6991;
624.6000;0.1384;3.6965;
624.9000;0.1359;3.6940;
625.2000;0.1392;3.6991;
625.5000;0.1384;3.6940;
625.8000;0.1302;3.6786;
626.1000;0.1376;3.6965;
626.4000;0.1327;3.6811;
626.7000;0.1359;3.6965;
627.0000;0.1384;3.6991;
627.3000;0.1327;3.6888;
627.6000;0.1351;3.6914;
627.9000;0.1368;3.6991;
628.2000;0.1376;3.7068;
628.5000;0.1359;3.7016;
628.8000;0.1351;3.6965;
629.1000;0.1376;3.7016;
629.4000;0.1376;3.7093;
629.7000;0.1327;3.7068;
630.0000;0.1359;3.7170;
630.3000;0.1343;3.7145;
630.6000;0.1359;3.7170;
630.9000;0.1384;3.7170;
631.2000;0.1376;3.7222;
631.5000;0.1351;3.7222;
631.8000;0.1335;3.7299;
632.1000;0.1335;3.7299;
632.4000;0.1351;3.7401;
632.7000;0.1473;3.7786;
633.0000;0.1319;3.7273;
633.3000;0.1343;3.7324;
633.6000;0.1376;3.7324;
633.9000;0.1343;3.7273;
634.2000;0.1416;3.7453;
634.5000;0.1343;3.7222;
634.8000;0.1327;3.7247;
635.1000;0.1384;3.7453;
635.4000;0.1368;3.7401;
635.7000;0.1408;3.7530;
636.0000;0.1359;3.7427;
636.3000;0.1351;3.7350;
636.6000;0.1351;3.7299;
636.9000;0.1376;3.7401;
637.2000;0.1311;3.7222;
637.5000;0.1335;3.7299;
637.8000;0.1351;3.7299;
638.1000;0.1368;3.7273;
638.4000;0.1319;3.7119;
638.7000;0.1343;3.7170;
639.0000;0.1359;3.7196;
639.3000;0.1384;3.7376;
639.6000;0.1311;3.7170;
639.9000;0.1319;3.7196;
640.2000;0.1343;3.7273;
640.5000;0.1368;3.7273;
640.8000;0.1327;3.7145;
641.1000;0.1311;3.7196;
641.4000;0.1433;3.7453;
641.7000;0.1311;3.7196;
642.0000;0.1343;3.7350;
642.3000;0.1311;3.7273;
642.6000;0.1368;3.7504;
642.9000;0.1327;3.7350;
643.2000;0.1302;3.7273;
643.5000;0.1278;3.7273;
643.8000;0.1335;3.7478;
644.1000;0.1327;3.7376;
644.4000;0.1278;3.7247;
644.7000;0.1343;3.7504;
645.0000;0.1351;3.7504;
645.3000;0.1286;3.7299;
645.6000;0.1319;3.7324;
645.9000;0.1368;3.7350;
646.2000;0.1327;3.7196;
646.5000;0.1327;3.7145;
646.8000;0.1270;3.7042;
647.1000;0.1327;3.7170;
647.4000;0.1319;3.7042;
647.7000;0.1376;3.7196;
648.0000;0.1319;3.6991;
648.3000;0.1311;3.6914;
648.6000;0.1335;3.7016;
648.9000;0.1311;3.7042;
649.2000;0.1335;3.7222;
649.5000;0.1311;3.7247;
649.8000;0.1335;3.7376;
650.1000;0.1278;3.7247;
650.4000;0.1286;3.7299;
650.7000;0.1327;3.7376;
651.0000;0.1319;3.7401;
651.3000;0.1302;3.7350;
651.6000;0.1302;3.7273;
651.9000;0.1311;3.7247;
652.2000;0.1311;3.7222;
652.5000;0.1278;3.7119;
652.8000;0.1294;3.7145;
653.1000;0.1319;3.7222;
653.4000;0.1343;3.7350;
653.7000;0.1327;3.7376;
654.0000;0.1311;3.7350;
654.3000;0.1302;3.7273;
654.6000;0.1335;3.7324;
654.9000;0.1311;3.7247;
655.2000;0.1311;3.7170;
655.5000;0.1311;3.7273;
655.8000;0.1286;3.7376;
656.1000;0.1286;3.7350;
656.4000;0.1286;3.7350;
656.7000;0.1270;3.7324;
657.0000;0.1302;3.7453;
657.3000;0.1311;3.7401;
657.6000;0.1180;3.6991;
657.9000;0.1327;3.7453;
658.2000;0.1302;3.7376;
658.5000;0.1319;3.7478;
658.8000;0.1343;3.7478;
659.1000;0.1302;3.7427;
659.4000;0.1294;3.7324;
659.7000;0.1319;3.7478;
660.0000;0.1327;3.7453;
660.3000;0.1294;3.7427;
660.6000;0.1311;3.7427;
660.9000;0.1311;3.7427;
661.2000;0.1368;3.7504;
661.5000;0.1278;3.7247;
661.8000;0.1311;3.7247;
662.1000;0.1302;3.7273;
662.4000;0.1311;3.7299;
662.7000;0.1294;3.7376;
663.0000;0.1311;3.7453;
663.3000;0.1262;3.7350;
663.6000;0.1294;3.7504;
663.9000;0.1311;3.7555;
664.2000;0.1311;3.7555;
664.5000;0.1351;3.7709;
664.8000;0.1286;3.7376;
665.1000;0.1302;3.7350;
665.4000;0.1400;3.7606;
665.7000;0.1270;3.7170;
666.0000;0.1311;3.7299;
666.3000;0.1286;3.7170;
666.6000;0.1262;3.6991;
666.9000;0.1294;3.7068;
667.2000;0.1327;3.7247;
667.5000;0.1319;3.7299;
667.8000;0.1262;3.7196;
668.1000;0.1351;3.7453;
668.4000;0.1286;3.7324;
668.7000;0.1286;3.7376;
669.0000;0.1278;3.7299;
669.3000;0.1286;3.7299;
669.6000;0.1294;3.7324;
669.9000;0.1311;3.7427;
670.2000;0.1311;3.7453;
670.5000;0.1335;3.7453;
670.8000;0.1278;3.7324;
671.1000;0.1302;3.7350;
671.4000;0.1302;3.7324;
671.7000;0.1294;3.7247;
672.0000;0.1270;3.7093;
672.3000;0.1335;3.7350;
672.6000;0.1302;3.7299;
672.9000;0.1311;3.7324;
673.2000;0.1400;3.7581;
673.5000;0.1294;3.7299;
673.8000;0.1311;3.7222;
674.1000;0.1294;3.7170;
674.4000;0.1319;3.7273;
674.7000;0.1278;3.7222;
675.0000;0.1286;3.7196;
675.3000;0.1302;3.7145;
675.6000;0.1270;3.7042;
675.9000;0.1270;3.7016;
676.2000;0.1286;3.6940;
676.5000;0.1286;3.6888;
676.8000;0.1278;3.6940;
677.1000;0.1270;3.6863;
677.4000;0.1286;3.7016;
677.7000;0.1286;3.7145;
678.0000;0.1351;3.7376;
678.3000;0.1270;3.7247;
678.6000;0.1392;3.7581;
678.9000;0.1270;3.7170;
679.2000;0.1286;3.7324;
679.5000;0.1237;3.7145;
679.8000;0.1335;3.7376;
680.1000;0.1278;3.7299;
680.4000;0.1278;3.7376;
680.7000;0.1416;3.7735;
681.0000;0.1335;3.7504;
681.3000;0.1270;3.7350;
681.6000;0.1205;3.7222;
681.9000;0.1302;3.7453;
682.2000;0.1237;3.7222;
682.5000;0.1270;3.7299;
682.8000;0.1245;3.7196;
683.1000;0.1270;3.7299;
683.4000;0.1254;3.7196;
683.7000;0.1286;3.7273;
684.0000;0.1262;3.7247;
684.3000;0.1286;3.7324;
684.6000;0.1262;3.7299;
684.9000;0.1286;3.7324;
685.2000;0.1311;3.7427;
685.5000;0.1302;3.7427;
685.8000;0.1270;3.7324;
686.1000;0.1278;3.7299;
686.4000;0.1156;3.6965;
686.7000;0.1262;3.7222;
687.0000;0.1286;3.7273;
687.3000;0.1254;3.7170;
687.6000;0.1270;3.7273;
687.9000;0.1278;3.7350;
688.2000;0.1262;3.7324;
688.5000;0.1286;3.7401;
688.8000;0.1262;3.7299;
689.1000;0.1262;3.7247;
689.4000;0.1286;3.7196;
689.7000;0.1229;3.7093;
690.0000;0.1262;3.7170;
690.3000;0.1270;3.7273;
690.6000;0.1278;3.7299;
690.9000;0.1270;3.7350;
691.2000;0.1270;3.7376;
691.5000;0.1254;3.7324;
691.8000;0.1286;3.7401;
692.1000;0.1335;3.7530;
692.4000;0.1237;3.7222;
692.7000;0.1262;3.7273;
693.0000;0.1286;3.7247;
693.3000;0.1270;3.7222;
693.6000;0.1245;3.7196;
693.9000;0.1262;3.7247;
694.2000;0.1278;3.7273;
694.5000;0.1302;3.7324;
694.8000;0.1335;3.7401;
695.1000;0.1278;3.7273;
695.4000;0.1311;3.7350;
695.7000;0.1278;3.7196;
696.0000;0.1286;3.7273;
696.3000;0.1278;3.7299;
696.6000;0.1278;3.7247;
696.9000;0.1278;3.7324;
697.2000;0.1278;3.7350;
697.5000;0.1262;3.7350;
697.8000;0.1262;3.7478;
698.1000;0.1278;3.7478;
698.4000;0.1286;3.7376;
698.7000;0.1270;3.7350;
699.0000;0.1294;3.7453;
699.3000;0.1254;3.7273;
699.6000;0.1245;3.7247;
699.9000;0.1254;3.7273;
700.2000;0.1245;3.7350;
700.5000;0.1270;3.7453;
700.8000;0.1237;3.7427;
701.1000;0.1270;3.7453;
701.4000;0.1237;3.7427;
701.7000;0.1254;3.7350;
702.0000;0.1254;3.7401;
702.3000;0.1254;3.7478;
702.6000;0.1294;3.7555;
702.9000;0.1245;3.7478;
703.2000;0.1254;3.7555;
703.5000;0.1254;3.7555;
703.8000;0.1254;3.7581;
704.1000;0.1270;3.7581;
704.4000;0.1270;3.7581;
704.7000;0.1294;3.7581;
705.0000;0.1278;3.7581;
705.3000;0.1278;3.7555;
705.6000;0.1213;3.7273;
705.9000;0.1254;3.7427;
706.2000;0.1270;3.7453;
706.5000;0.1254;3.7376;
706.8000;0.1245;3.7350;
707.1000;0.1262;3.7427;
707.4000;0.1245;3.7427;
707.7000;0.1278;3.7504;
708.0000;0.1270;3.7632;
708.3000;0.1302;3.7658;
708.6000;0.1286;3.7555;
708.9000;0.1262;3.7401;
709.2000;0.1229;3.7350;
709.5000;0.1270;3.7453;
709.8000;0.1254;3.7427;
710.1000;0.1294;3.7530;
710.4000;0.1188;3.7222;
710.7000;0.1254;3.7376;
711.0000;0.1270;3.7401;
711.3000;0.1188;3.7350;
711.6000;0.1237;3.7453;
711.9000;0.1262;3.7530;
712.2000;0.1278;3.7555;
712.5000;0.1254;3.7530;
712.8000;0.1294;3.7581;
713.1000;0.1254;3.7504;
713.4000;0.1262;3.7427;
713.7000;0.1262;3.7401;
714.0000;0.1278;3.7478;
714.3000;0.1254;3.7504;
714.6000;0.1229;3.7427;
714.9000;0.1188;3.7350;
715.2000;0.1262;3.7581;
715.5000;0.1270;3.7530;
715.8000;0.1237;3.7530;
716.1000;0.1286;3.7683;
716.4000;0.1254;3.7555;
716.7000;0.1278;3.7606;
717.0000;0.1131;3.7247;
717.3000;0.1221;3.7376;
717.6000;0.1270;3.7504;
717.9000;0.1311;3.7632;
718.2000;0.1237;3.7427;
718.5000;0.1237;3.7350;
718.8000;0.1294;3.7376;
719.1000;0.1262;3.7299;
719.4000;0.1262;3.7273;
719.7000;0.1245;3.7324;
720.0000;0.1311;3.7427;
720.3000;0.1278;3.7376;
720.6000;0.1245;3.7222;
720.9000;0.1302;3.7453;
721.2000;0.1254;3.7299;
721.5000;0.1254;3.7376;
721.8000;0.1351;3.7709;
722.1000;0.1245;3.7427;
722.4000;0.1286;3.7453;
722.7000;0.1286;3.7401;
723.0000;0.1254;3.7324;
723.3000;0.1237;3.7299;
723.6000;0.1270;3.7350;
723.9000;0.1327;3.7581;
724.2000;0.1180;3.7170;
724.5000;0.1254;3.7427;
724.8000;0.1237;3.7504;
725.1000;0.1262;3.7478;
725.4000;0.1278;3.7581;
725.7000;0.1237;3.7504;
726.0000;0.1245;3.7504;
726.3000;0.1262;3.7478;
726.6000;0.1254;3.7453;
726.9000;0.1245;3.7504;
727.2000;0.1229;3.7453;
727.5000;0.1254;3.7478;
727.8000;0.1254;3.7427;
728.1000;0.1278;3.7530;
728.4000;0.1278;3.7581;
728.7000;0.1107;3.7145;
729.0000;0.1245;3.7401;
729.3000;0.1229;3.7324;
729.6000;0.1245;3.7376;
729.9000;0.1254;3.7401;
730.2000;0.1262;3.7478;
730.5000;0.1278;3.7453;
730.8000;0.1262;3.7453;
731.1000;0.1302;3.7632;
731.4000;0.1245;3.7478;
731.7000;0.1245;3.7504;
732.0000;0.1237;3.7504;
732.3000;0.1254;3.7530;
732.6000;0.1262;3.7581;
732.9000;0.1262;3.7581;
733.2000;0.1254;3.7606;
733.5000;0.1237;3.7530;
733.8000;0.1254;3.7555;
734.1000;0.1254;3.7581;
734.4000;0.1188;3.7427;
734.7000;0.1254;3.7555;
735.0000;0.1229;3.7555;
735.3000;0.1245;3.7555;
735.6000;0.1254;3.7530;
735.9000;0.1245;3.7504;
736.2000;0.1237;3.7555;
736.5000;0.1229;3.7453;
736.8000;0.1327;3.7581;
737.1000;0.1237;3.7350;
737.4000;0.1180;3.7145;
737.7000;0.1245;3.7376;
738.0000;0.1245;3.7401;
738.3000;0.1278;3.7453;
738.6000;0.1294;3.7504;
738.9000;0.1188;3.7273;
739.2000;0.1270;3.7555;
739.5000;0.1302;3.7555;
739.8000;0.1245;3.7376;
740.1000;0.1270;3.7478;
740.4000;0.1254;3.7453;
740.7000;0.1286;3.7606;
741.0000;0.1237;3.7606;
741.3000;0.1245;3.7606;
741.6000;0.1245;3.7581;
741.9000;0.1245;3.7632;
742.2000;0.1262;3.7632;
742.5000;0.1229;3.7555;
742.8000;0.1229;3.7606;
743.1000;0.1262;3.7658;
743.4000;0.1262;3.7683;
743.7000;0.1351;3.7863;
744.0000;0.1270;3.7658;
744.3000;0.1237;3.7606;
744.6000;0.1262;3.7555;
744.9000;0.1254;3.7581;
745.2000;0.1140;3.7170;
745.5000;0.1237;3.7478;
745.8000;0.1229;3.7453;
746.1000;0.1254;3.7504;
746.4000;0.1262;3.7453;
746.7000;0.1205;3.7350;
747.0000;0.1237;3.7453;
747.3000;0.1245;3.7478;
747.6000;0.1245;3.7555;
747.9000;0.1237;3.7478;
748.2000;0.1237;3.7504;
748.5000;0.1262;3.7555;
748.8000;0.1335;3.7760;
749.1000;0.1245;3.7581;
749.4000;0.1245;3.7555;
749.7000;0.1262;3.7530;
750.0000;0.1262;3.7632;
750.3000;0.1254;3.7658;
750.6000;0.1205;3.7478;
750.9000;0.1237;3.7581;
751.2000;0.1237;3.7401;
751.5000;0.1245;3.7427;
751.8000;0.1221;3.7376;
752.1000;0.1327;3.7606;
752.4000;0.1237;3.7376;
752.7000;0.1237;3.7324;
753.0000;0.1262;3.7427;
753.3000;0.1197;3.7247;
753.6000;0.1278;3.7504;
753.9000;0.1245;3.7427;
754.2000;0.1262;3.7427;
754.5000;0.1262;3.7324;
754.8000;0.1262;3.7401;
755.1000;0.1237;3.7324;
755.4000;0.1254;3.7376;
755.7000;0.1262;3.7350;
756.0000;0.1229;3.7299;
756.3000;0.1237;3.7324;
756.6000;0.1245;3.7350;
756.9000;0.1245;3.7324;
757.2000;0.1327;3.7632;
757.5000;0.1229;3.7273;
757.8000;0.1237;3.7247;
758.1000;0.1229;3.7299;
758.4000;0.1229;3.7324;
758.7000;0.1262;3.7427;
759.0000;0.1254;3.7555;
759.3000;0.1262;3.7555;
759.6000;0.1245;3.7530;
759.9000;0.1229;3.7555;
760.2000;0.1213;3.7453;
760.5000;0.1254;3.7530;
760.8000;0.1221;3.7401;
761.1000;0.1197;3.7324;
761.4000;0.1270;3.7453;
761.7000;0.1270;3.7453;
762.0000;0.1254;3.7350;
762.3000;0.1254;3.7453;
762.6000;0.1237;3.7453;
762.9000;0.1237;3.7401;
763.2000;0.1245;3.7453;
763.5000;0.1221;3.7453;
763.8000;0.1229;3.7530;
764.1000;0.1245;3.7504;
764.4000;0.1245;3.7555;
764.7000;0.1245;3.7530;
765.0000;0.1254;3.7478;
765.3000;0.1237;3.7427;
765.6000;0.1237;3.7401;
765.9000;0.1245;3.7376;
766.2000;0.1229;3.7427;
766.5000;0.1229;3.7530;
766.8000;0.1229;3.7555;
767.1000;0.1270;3.7683;
767.4000;0.1131;3.7247;
767.7000;0.1237;3.7504;
768.0000;0.1221;3.7453;
768.3000;0.1245;3.7478;
768.6000;0.1237;3.7478;
768.9000;0.1237;3.7530;
769.2000;0.1254;3.7683;
769.5000;0.1245;3.7658;
769.8000;0.1237;3.7632;
770.1000;0.1229;3.7530;
770.4000;0.1286;3.7709;
770.7000;0.1237;3.7504;
771.0000;0.1237;3.7453;
771.3000;0.1262;3.7581;
771.6000;0.1245;3.7555;
771.9000;0.1311;3.7683;
772.2000;0.1229;3.7427;
772.5000;0.1237;3.7453;
772.8000;0.1229;3.7453;
773.1000;0.1237;3.7504;
773.4000;0.1237;3.7530;
773.7000;0.1229;3.7555;
774.0000;0.1221;3.7478;
774.3000;0.1245;3.7581;
774.6000;0.1245;3.7606;
774.9000;0.1245;3.7530;
775.2000;0.1245;3.7453;
775.5000;0.1237;3.7504;
775.8000;0.1245;3.7581;
776.1000;0.1254;3.7606;
776.4000;0.1245;3.7632;
776.7000;0.1245;3.7632;
777.0000;0.1172;3.7478;
777.3000;0.1221;3.7555;
777.6000;0.1213;3.7478;
777.9000;0.1254;3.7504;
778.2000;0.1237;3.7453;
778.5000;0.1229;3.7401;
778.8000;0.1254;3.7453;
779.1000;0.1319;3.7632;
779.4000;0.1286;3.7530;
779.7000;0.1140;3.7093;
780.0000;0.1245;3.7504;
780.3000;0.1221;3.7427;
780.6000;0.1254;3.7555;
780.9000;0.1262;3.7504;
781.2000;0.1237;3.7504;
781.5000;0.1245;3.7453;
781.8000;0.1245;3.7401;
782.1000;0.1221;3.7273;
782.4000;0.1254;3.7324;
782.7000;0.1245;3.7299;
783.0000;0.1221;3.7222;
783.3000;0.1229;3.7145;
783.6000;0.1229;3.7119;
783.9000;0.1221;3.7093;
784.2000;0.1107;3.6786;
784.5000;0.1270;3.7324;
784.8000;0.1221;3.7299;
785.1000;0.1205;3.7299;
785.4000;0.1221;3.7350;
785.7000;0.1229;3.7427;
786.0000;0.1221;3.7453;
786.3000;0.1188;3.7299;
786.6000;0.1229;3.7478;
786.9000;0.1213;3.7453;
787.2000;0.1254;3.7555;
787.5000;0.1229;3.7427;
787.8000;0.1229;3.7453;
788.1000;0.1213;3.7350;
788.4000;0.1188;3.7222;
788.7000;0.1245;3.7401;
789.0000;0.1221;3.7324;
789.3000;0.1245;3.7427;
789.6000;0.1229;3.7401;
789.9000;0.1254;3.7427;
790.2000;0.1278;3.7453;
790.5000;0.1343;3.7683;
790.8000;0.1188;3.7273;
791.1000;0.1229;3.7350;
791.4000;0.1229;3.7350;
791.7000;0.1229;3.7427;
792.0000;0.1213;3.7401;
792.3000;0.1180;3.7350;
792.6000;0.1237;3.7606;
792.9000;0.1197;3.7453;
793.2000;0.1237;3.7453;
793.5000;0.1221;3.7427;
793.8000;0.1237;3.7504;
794.1000;0.1262;3.7555;
794.4000;0.1229;3.7324;
794.7000;0.1237;3.7299;
795.0000;0.1221;3.7376;
795.3000;0.1205;3.7427;
795.6000;0.1237;3.7453;
795.9000;0.1237;3.7453;
796.2000;0.1229;3.7453;
796.5000;0.1221;3.7453;
796.8000;0.1254;3.7478;
797.1000;0.1254;3.7504;
797.4000;0.1197;3.7376;
797.7000;0.1245;3.7401;
798.0000;0.1237;3.7427;
798.3000;0.1245;3.7427;
798.6000;0.1221;3.7376;
798.9000;0.1221;3.7401;
799.2000;0.1221;3.7350;
799.5000;0.1254;3.7453;
799.8000;0.1131;3.7068;
800.1000;0.1205;3.7247;
800.4000;0.1213;3.7273;
800.7000;0.1221;3.7247;
801.0000;0.1205;3.7196;
801.3000;0.1245;3.7376;
801.6000;0.1245;3.7478;
801.9000;0.1148;3.7222;
802.2000;0.1180;3.7324;
802.5000;0.1237;3.7401;
802.8000;0.1262;3.7376;
803.1000;0.1229;3.7273;
803.4000;0.1229;3.7222;
803.7000;0.1245;3.7299;
804.0000;0.1229;3.7376;
804.3000;0.1213;3.7324;
804.6000;0.1205;3.7376;
804.9000;0.1237;3.7478;
805.2000;0.1188;3.7324;
805.5000;0.1245;3.7427;
805.8000;0.1221;3.7401;
806.1000;0.1237;3.7401;
806.4000;0.1229;3.7376;
806.7000;0.1245;3.7478;
807.0000;0.1229;3.7478;
807.3000;0.1245;3.7632;
807.6000;0.1237;3.7632;
807.9000;0.1237;3.7606;
808.2000;0.1213;3.7401;
808.5000;0.1245;3.7504;
808.8000;0.1180;3.7401;
809.1000;0.1262;3.7555;
809.4000;0.1221;3.7478;
809.7000;0.1140;3.7170;
810.0000;0.1180;3.7222;
810.3000;0.1245;3.7350;
810.6000;0.1205;3.7299;
810.9000;0.1221;3.7324;
811.2000;0.1229;3.7247;
811.5000;0.1156;3.6991;
811.8000;0.1188;3.7093;
812.1000;0.1245;3.7273;
812.4000;0.1270;3.7350;
812.7000;0.1237;3.7299;
813.0000;0.1237;3.7350;
813.3000;0.1245;3.7478;
813.6000;0.1213;3.7401;
813.9000;0.1221;3.7401;
814.2000;0.1237;3.7478;
814.5000;0.1221;3.7453;
814.8000;0.1229;3.7478;
815.1000;0.1319;3.7760;
815.4000;0.1205;3.7376;
815.7000;0.1197;3.7324;
816.0000;0.1229;3.7427;
816.3000;0.1229;3.7376;
816.6000;0.1237;3.7350;
816.9000;0.1221;3.7350;
817.2000;0.1229;3.7376;
817.5000;0.1213;3.7427;
817.8000;0.1237;3.7504;
818.1000;0.1229;3.7504;
818.4000;0.1254;3.7555;
818.7000;0.1229;3.7530;
819.0000;0.1237;3.7555;
819.3000;0.1254;3.7606;
819.6000;0.1294;3.7760;
819.9000;0.1197;3.7581;
820.2000;0.1213;3.7530;
820.5000;0.1229;3.7581;
820.8000;0.1205;3.7504;
821.1000;0.1278;3.7735;
821.4000;0.1221;3.7555;
821.7000;0.1156;3.7324;
822.0000;0.1229;3.7632;
822.3000;0.1229;3.7606;
822.6000;0.1229;3.7709;
822.9000;0.1270;3.7786;
823.2000;0.1254;3.7658;
823.5000;0.1213;3.7555;
823.8000;0.1156;3.7299;
824.1000;0.1237;3.7504;
824.4000;0.1229;3.7427;
824.7000;0.1197;3.7299;
825.0000;0.1213;3.7299;
825.3000;0.1221;3.7324;
825.6000;0.1237;3.7350;
825.9000;0.1229;3.7376;
826.2000;0.1237;3.7299;
826.5000;0.1213;3.7247;
826.8000;0.1229;3.7350;
827.1000;0.1237;3.7401;
827.4000;0.1245;3.7401;
827.7000;0.1213;3.7427;
828.0000;0.1221;3.7401;
828.3000;0.1254;3.7427;
828.6000;0.1237;3.7478;
828.9000;0.1237;3.7504;
829.2000;0.1164;3.7376;
829.5000;0.1140;3.7145;
829.8000;0.1188;3.7401;
830.1000;0.1221;3.7504;
830.4000;0.1319;3.7709;
830.7000;0.1213;3.7427;
831.0000;0.1237;3.7427;
831.3000;0.1229;3.7427;
831.6000;0.1237;3.7453;
831.9000;0.1245;3.7401;
832.2000;0.1221;3.7453;
832.5000;0.1245;3.7530;
832.8000;0.1140;3.7299;
833.1000;0.1237;3.7606;
833.4000;0.1229;3.7530;
833.7000;0.1254;3.7581;
834.0000;0.1278;3.7632;
834.3000;0.1188;3.7427;
834.6000;0.1229;3.7478;
834.9000;0.1140;3.7222;
835.2000;0.1237;3.7504;
835.5000;0.1221;3.7478;
835.8000;0.1213;3.7427;
836.1000;0.1229;3.7530;
836.4000;0.1205;3.7504;
836.7000;0.1221;3.7555;
837.0000;0.1294;3.7760;
837.3000;0.1229;3.7504;
837.6000;0.1229;3.7530;
837.9000;0.1335;3.7786;
838.2000;0.1229;3.7504;
838.5000;0.1229;3.7555;
838.8000;0.1229;3.7683;
839.1000;0.1229;3.7760;
839.4000;0.1221;3.7709;
839.7000;0.1213;3.7658;
840.0000;0.1221;3.7658;
840.3000;0.1221;3.7632;
840.6000;0.1237;3.7735;
840.9000;0.1205;3.7709;
841.2000;0.1221;3.7709;
841.5000;0.1205;3.7683;
841.8000;0.1213;3.7683;
842.1000;0.1221;3.7632;
842.4000;0.1229;3.7606;
842.7000;0.1270;3.7709;
843.0000;0.1197;3.7581;
843.3000;0.1140;3.7530;
843.6000;0.1229;3.7760;
843.9000;0.1172;3.7555;
844.2000;0.1188;3.7530;
844.5000;0.1205;3.7555;
844.8000;0.1221;3.7504;
845.1000;0.1221;3.7453;
845.4000;0.1213;3.7427;
845.7000;0.1197;3.7427;
846.0000;0.1205;3.7427;
846.3000;0.1164;3.7299;
846.6000;0.1319;3.7709;
846.9000;0.1221;3.7453;
847.2000;0.1237;3.7401;
847.5000;0.1205;3.7324;
847.8000;0.1221;3.7478;
848.1000;0.1286;3.7581;
848.4000;0.1254;3.7427;
848.7000;0.1245;3.7453;
849.0000;0.1221;3.7427;
849.3000;0.1229;3.7427;
849.6000;0.1237;3.7453;
849.9000;0.1221;3.7401;
850.2000;0.1302;3.7581;
850.5000;0.1229;3.7247;
850.8000;0.1229;3.7324;
851.1000;0.1229;3.7299;
851.4000;0.1213;3.7273;
851.7000;0.1213;3.7324;
852.0000;0.1180;3.7247;
852.3000;0.1237;3.7401;
852.6000;0.1237;3.7453;
852.9000;0.1221;3.7427;
853.2000;0.1205;3.7350;
853.5000;0.1148;3.7119;
853.8000;0.1213;3.7350;
854.1000;0.1221;3.7401;
854.4000;0.1335;3.7683;
854.7000;0.1254;3.7555;
855.0000;0.1229;3.7427;
855.3000;0.1205;3.7401;
855.6000;0.1172;3.7324;
855.9000;0.1237;3.7478;
856.2000;0.1229;3.7504;
856.5000;0.1229;3.7478;
856.8000;0.1140;3.7247;
857.1000;0.1229;3.7606;
857.4000;0.1237;3.7760;
857.7000;0.1213;3.7555;
858.0000;0.1197;3.7530;
858.3000;0.1123;3.7196;
858.6000;0.1245;3.7530;
858.9000;0.1221;3.7530;
859.2000;0.1221;3.7504;
859.5000;0.1213;3.7453;
859.8000;0.1229;3.7555;
860.1000;0.1221;3.7581;
860.4000;0.1229;3.7606;
860.7000;0.1205;3.7555;
861.0000;0.1197;3.7504;
861.3000;0.1221;3.7530;
861.6000;0.1221;3.7606;
861.9000;0.1205;3.7555;
862.2000;0.1221;3.7581;
862.5000;0.1221;3.7606;
862.8000;0.1221;3.7658;
863.1000;0.1205;3.7581;
863.4000;0.1213;3.7555;
863.7000;0.1237;3.7581;
864.0000;0.1311;3.7760;
864.3000;0.1229;3.7606;
864.6000;0.1197;3.7555;
864.9000;0.1229;3.7606;
865.2000;0.1229;3.7606;
865.5000;0.1221;3.7530;
865.8000;0.1156;3.7401;
866.1000;0.1278;3.7709;
866.4000;0.1213;3.7555;
866.7000;0.1188;3.7555;
867.0000;0.1229;3.7606;
867.3000;0.1237;3.7606;
867.6000;0.1262;3.7658;
867.9000;0.1221;3.7606;
868.2000;0.1229;3.7683;
868.5000;0.1197;3.7658;
868.8000;0.1115;3.7401;
869.1000;0.1213;3.7709;
869.4000;0.1221;3.7658;
869.7000;0.1205;3.7555;
870.0000;0.1278;3.7786;
870.3000;0.1229;3.7632;
870.6000;0.1213;3.7581;
870.9000;0.1229;3.7632;
871.2000;0.1205;3.7530;
871.5000;0.1254;3.7658;
871.8000;0.1221;3.7606;
872.1000;0.1213;3.7606;
872.4000;0.1221;3.7504;
872.7000;0.1205;3.7453;
873.0000;0.1245;3.7530;
873.3000;0.1278;3.7683;
873.6000;0.1205;3.7401;
873.9000;0.1197;3.7350;
874.2000;0.1237;3.7478;
874.5000;0.1237;3.7530;
874.8000;0.1237;3.7453;
875.1000;0.1213;3.7478;
875.4000;0.1213;3.7530;
875.7000;0.1107;3.7247;
876.0000;0.1205;3.7581;
876.3000;0.1197;3.7606;
876.6000;0.1278;3.7837;
876.9000;0.1205;3.7581;
877.2000;0.1213;3.7658;
877.5000;0.1205;3.7632;
877.8000;0.1221;3.7530;
878.1000;0.1229;3.7581;
878.4000;0.1197;3.7530;
878.7000;0.1188;3.7478;
879.0000;0.1205;3.7453;
879.3000;0.1205;3.7606;
879.6000;0.1254;3.7709;
879.9000;0.1229;3.7632;
880.2000;0.1221;3.7581;
880.5000;0.1237;3.7606;
880.8000;0.1262;3.7658;
881.1000;0.1221;3.7606;
881.4000;0.1286;3.7735;
881.7000;0.1262;3.7709;
882.0000;0.1245;3.7606;
882.3000;0.1221;3.7530;
882.6000;0.1237;3.7632;
882.9000;0.1237;3.7658;
883.2000;0.1164;3.7478;
883.5000;0.1213;3.7658;
883.8000;0.1229;3.7709;
884.1000;0.1197;3.7530;
884.4000;0.1172;3.7478;
884.7000;0.1229;3.7581;
885.0000;0.1213;3.7530;
885.3000;0.1213;3.7581;
885.6000;0.1221;3.7632;
885.9000;0.1221;3.7683;
886.2000;0.1245;3.7760;
886.5000;0.1237;3.7683;
886.8000;0.1213;3.7632;
887.1000;0.1221;3.7581;
887.4000;0.1302;3.7837;
887.7000;0.1221;3.7530;
888.0000;0.1237;3.7606;
888.3000;0.1197;3.7453;
888.6000;0.1221;3.7504;
888.9000;0.1213;3.7555;
889.2000;0.1180;3.7581;
889.5000;0.1213;3.7658;
889.8000;0.1221;3.7683;
890.1000;0.1213;3.7683;
890.4000;0.1213;3.7658;
890.7000;0.1221;3.7683;
891.0000;0.1245;3.7735;
891.3000;0.1229;3.7760;
891.6000;0.1140;3.7581;
891.9000;0.1245;3.7837;
892.2000;0.1131;3.7581;
892.5000;0.1229;3.7786;
892.8000;0.1213;3.7709;
893.1000;0.1213;3.7658;
893.4000;0.1188;3.7530;
893.7000;0.1213;3.7555;
894.0000;0.1237;3.7658;
894.3000;0.1221;3.7606;
894.6000;0.1229;3.7581;
894.9000;0.1213;3.7606;
895.2000;0.1237;3.7632;
895.5000;0.1221;3.7581;
895.8000;0.1115;3.7376;
896.1000;0.1229;3.7683;
896.4000;0.1237;3.7632;
896.7000;0.1229;3.7632;
897.0000;0.1245;3.7760;
897.3000;0.1237;3.7837;
897.6000;0.1237;3.7812;
897.9000;0.1213;3.7709;
898.2000;0.1205;3.7632;
898.5000;0.1237;3.7735;
898.8000;0.1205;3.7683;
899.1000;0.1229;3.7709;
899.4000;0.1237;3.7786;
899.7000;0.1156;3.7530;
900.0000;0.1221;3.7735;
900.3000;0.1237;3.7760;
900.6000;0.1229;3.7709;
900.9000;0.1254;3.7683;
901.2000;0.1229;3.7658;
901.5000;0.1237;3.7606;
901.8000;0.1164;3.7453;
902.1000;0.1213;3.7658;
902.4000;0.1237;3.7735;
902.7000;0.1237;3.7812;
903.0000;0.1213;3.7709;
903.3000;0.1254;3.7709;
903.6000;0.1221;3.7555;
903.9000;0.1229;3.7632;
904.2000;0.1221;3.7555;
904.5000;0.1205;3.7504;
904.8000;0.1262;3.7581;
905.1000;0.1221;3.7376;
905.4000;0.1237;3.7376;
905.7000;0.1213;3.7350;
906.0000;0.1221;3.7299;
906.3000;0.1188;3.7299;
906.6000;0.1221;3.7401;
906.9000;0.1221;3.7504;
907.2000;0.1221;3.7555;
907.5000;0.1205;3.7478;
907.8000;0.1229;3.7581;
908.1000;0.1213;3.7555;
908.4000;0.1197;3.7504;
908.7000;0.1221;3.7530;
909.0000;0.1213;3.7453;
909.3000;0.1221;3.7504;
909.6000;0.1221;3.7478;
909.9000;0.1229;3.7530;
910.2000;0.1221;3.7530;
910.5000;0.1245;3.7555;
910.8000;0.1237;3.7504;
911.1000;0.1221;3.7555;
911.4000;0.1229;3.7530;
911.7000;0.1229;3.7504;
912.0000;0.1188;3.7427;
912.3000;0.1237;3.7581;
912.6000;0.1205;3.7504;
912.9000;0.1205;3.7530;
913.2000;0.1188;3.7453;
913.5000;0.1229;3.7606;
913.8000;0.1229;3.7632;
914.1000;0.1221;3.7632;
914.4000;0.1221;3.7632;
914.7000;0.1213;3.7530;
915.0000;0.1205;3.7504;
915.3000;0.1221;3.7478;
915.6000;0.1197;3.7376;
915.9000;0.1237;3.7427;
916.2000;0.1335;3.7760;
916.5000;0.1221;3.7376;
916.8000;0.1188;3.7273;
917.1000;0.1221;3.7427;
917.4000;0.1221;3.7478;
917.7000;0.1213;3.7478;
918.0000;0.1099;3.7170;
918.3000;0.1213;3.7555;
918.6000;0.1221;3.7606;
918.9000;0.1221;3.7683;
919.2000;0.1262;3.7760;
919.5000;0.1205;3.7581;
919.8000;0.1197;3.7504;
920.1000;0.1197;3.7530;
920.4000;0.1237;3.7581;
920.7000;0.1221;3.7530;
921.0000;0.1197;3.7427;
921.3000;0.1229;3.7478;
921.6000;0.1221;3.7555;
921.9000;0.1221;3.7504;
922.2000;0.1286;3.7735;
922.5000;0.1205;3.7504;
922.8000;0.1221;3.7530;
923.1000;0.1237;3.7581;
923.4000;0.1221;3.7606;
923.7000;0.1221;3.7632;
924.0000;0.1229;3.7581;
924.3000;0.1221;3.7453;
924.6000;0.1221;3.7478;
924.9000;0.1245;3.7581;
925.2000;0.1221;3.7453;
925.5000;0.1205;3.7401;
925.8000;0.1197;3.7376;
926.1000;0.1237;3.7427;
926.4000;0.1205;3.7427;
926.7000;0.1213;3.7401;
927.0000;0.1278;3.7555;
927.3000;0.1229;3.7427;
927.6000;0.1229;3.7427;
927.9000;0.1205;3.7324;
928.2000;0.1229;3.7376;
928.5000;0.1229;3.7350;
928.8000;0.1270;3.7453;
929.1000;0.1229;3.7376;
929.4000;0.1221;3.7504;
929.7000;0.1221;3.7504;
930.0000;0.1229;3.7606;
930.3000;0.1221;3.7632;
930.6000;0.1229;3.7658;
930.9000;0.1229;3.7658;
931.2000;0.1213;3.7735;
931.5000;0.1213;3.7760;
931.8000;0.1213;3.7760;
932.1000;0.1254;3.7889;
932.4000;0.1245;3.7837;
932.7000;0.1221;3.7735;
933.0000;0.1229;3.7709;
933.3000;0.1229;3.7709;
933.6000;0.1229;3.7735;
933.9000;0.1221;3.7735;
934.2000;0.1270;3.7940;
934.5000;0.1221;3.7812;
934.8000;0.1221;3.7760;
935.1000;0.1221;3.7812;
935.4000;0.1197;3.7709;
935.7000;0.1213;3.7683;
936.0000;0.1205;3.7658;
936.3000;0.1197;3.7606;
936.6000;0.1221;3.7632;
936.9000;0.1205;3.7683;
937.2000;0.1205;3.7735;
937.5000;0.1205;3.7735;
937.8000;0.1164;3.7530;
938.1000;0.1237;3.7683;
938.4000;0.1221;3.7606;
938.7000;0.1237;3.7683;
939.0000;0.1213;3.7735;
939.3000;0.1229;3.7735;
939.6000;0.1213;3.7786;
939.9000;0.1221;3.7837;
940.2000;0.1221;3.7786;
940.5000;0.1229;3.7863;
940.8000;0.1156;3.7658;
941.1000;0.1205;3.7735;
941.4000;0.1221;3.7786;
941.7000;0.1205;3.7837;
942.0000;0.1197;3.7837;
942.3000;0.1180;3.7812;
942.6000;0.1213;3.7837;
942.9000;0.1221;3.7786;
943.2000;0.1384;3.8222;
943.5000;0.1221;3.7735;
943.8000;0.1229;3.7760;
944.1000;0.1254;3.7863;
944.4000;0.1237;3.7837;
944.7000;0.1205;3.7837;
945.0000;0.1221;3.7863;
945.3000;0.1221;3.7889;
945.6000;0.1213;3.7786;
945.9000;0.1221;3.7812;
946.2000;0.1221;3.7760;
946.5000;0.1278;3.7940;
946.8000;0.1213;3.7658;
947.1000;0.1221;3.7709;
947.4000;0.1213;3.7709;
947.7000;0.1229;3.7837;
948.0000;0.1237;3.7889;
948.3000;0.1262;3.7966;
948.6000;0.1131;3.7658;
948.9000;0.1245;3.7991;
949.2000;0.1237;3.7889;
949.5000;0.1083;3.7453;
949.8000;0.1213;3.7735;
950.1000;0.1229;3.7812;
950.4000;0.1180;3.7632;
950.7000;0.1213;3.7658;
951.0000;0.1205;3.7658;
951.3000;0.1205;3.7786;
951.6000;0.1221;3.7760;
951.9000;0.1188;3.7709;
952.2000;0.1213;3.7735;
952.5000;0.1221;3.7709;
952.8000;0.1262;3.7863;
953.1000;0.1148;3.7504;
953.4000;0.1213;3.7709;
953.7000;0.1229;3.7760;
954.0000;0.1140;3.7401;
954.3000;0.1205;3.7632;
954.6000;0.1221;3.7683;
954.9000;0.1148;3.7530;
955.2000;0.1245;3.7683;
955.5000;0.1213;3.7735;
955.8000;0.1213;3.7760;
956.1000;0.1221;3.7786;
956.4000;0.1302;3.8017;
956.7000;0.1188;3.7760;
957.0000;0.1278;3.7914;
957.3000;0.1197;3.7812;
957.6000;0.1221;3.7812;
957.9000;0.1205;3.7812;
958.2000;0.1213;3.7812;
958.5000;0.1205;3.7786;
958.8000;0.1229;3.7760;
959.1000;0.1229;3.7837;
959.4000;0.1213;3.7837;
959.7000;0.1229;3.7812;
960.0000;0.1213;3.7837;
960.3000;0.1229;3.7889;
960.6000;0.1245;3.7914;
960.9000;0.1254;3.7889;
961.2000;0.1197;3.7709;
961.5000;0.1205;3.7812;
961.8000;0.1311;3.8068;
962.1000;0.1172;3.7735;
962.4000;0.1197;3.7760;
962.7000;0.1156;3.7606;
963.0000;0.1221;3.7837;
963.3000;0.1213;3.7837;
963.6000;0.1213;3.7863;
963.9000;0.1188;3.7889;
964.2000;0.1164;3.7966;
964.5000;0.1213;3.8094;
964.8000;0.1213;3.7991;
965.1000;0.1229;3.8120;
965.4000;0.1237;3.8043;
965.7000;0.1221;3.7991;
966.0000;0.1180;3.7760;
966.3000;0.1188;3.7760;
966.6000;0.1254;3.7914;
966.9000;0.1229;3.7889;
967.2000;0.1205;3.7786;
967.5000;0.1213;3.7658;
967.8000;0.1213;3.7606;
968.1000;0.1245;3.7786;
968.4000;0.1213;3.7735;
968.7000;0.1213;3.7709;
969.0000;0.1229;3.7812;
969.3000;0.1221;3.7837;
969.6000;0.1188;3.7786;
969.9000;0.1205;3.7889;
970.2000;0.1213;3.7889;
970.5000;0.1278;3.8068;
970.8000;0.1221;3.7837;
971.1000;0.1229;3.7837;
971.4000;0.1197;3.7786;
971.7000;0.1205;3.7760;
972.0000;0.1156;3.7606;
972.3000;0.1327;3.8145;
972.6000;0.1221;3.7786;
972.9000;0.1237;3.7812;
973.2000;0.1229;3.7812;
973.5000;0.1164;3.7632;
973.8000;0.1229;3.7837;
974.1000;0.1213;3.7786;
974.4000;0.1221;3.7812;
974.7000;0.1205;3.7812;
975.0000;0.1229;3.7966;
975.3000;0.1221;3.7991;
975.6000;0.1237;3.7991;
975.9000;0.1213;3.7863;
976.2000;0.1197;3.7863;
976.5000;0.1197;3.7889;
976.8000;0.1262;3.8043;
977.1000;0.1131;3.7735;
977.4000;0.1148;3.7786;
977.7000;0.1197;3.7914;
978.0000;0.1278;3.8197;
978.3000;0.1213;3.8017;
978.6000;0.1213;3.8017;
978.9000;0.1237;3.8068;
979.2000;0.1229;3.7966;
979.5000;0.1221;3.7966;
979.8000;0.1213;3.7837;
980.1000;0.1205;3.7812;
980.4000;0.1229;3.7889;
980.7000;0.1254;3.7914;
981.0000;0.1270;3.7940;
981.3000;0.1188;3.7709;
981.6000;0.1213;3.7709;
981.9000;0.1180;3.7632;
982.2000;0.1197;3.7683;
982.5000;0.1213;3.7786;
982.8000;0.1197;3.7709;
983.1000;0.1221;3.7786;
983.4000;0.1245;3.7863;
983.7000;0.1221;3.7812;
984.0000;0.1221;3.7863;
984.3000;0.1213;3.7837;
984.6000;0.1221;3.7889;
984.9000;0.1205;3.7786;
985.2000;0.1213;3.7812;
985.5000;0.1229;3.7863;
985.8000;0.1237;3.7863;
986.1000;0.1213;3.7812;
986.4000;0.1197;3.7683;
986.7000;0.1221;3.7658;
987.0000;0.1254;3.7760;
987.3000;0.1205;3.7606;
987.6000;0.1205;3.7658;
987.9000;0.1245;3.7863;
988.2000;0.1213;3.7863;
988.5000;0.1237;3.7863;
988.8000;0.1229;3.7863;
989.1000;0.1156;3.7683;
989.4000;0.1213;3.7837;
989.7000;0.1213;3.7966;
990.0000;0.1213;3.7914;
990.3000;0.1205;3.7889;
990.6000;0.1221;3.7991;
990.9000;0.1221;3.7991;
991.2000;0.1229;3.7991;
991.5000;0.1221;3.7914;
991.8000;0.1229;3.7991;
992.1000;0.1213;3.7760;
992.4000;0.1237;3.7889;
992.7000;0.1213;3.7760;
993.0000;0.1213;3.7683;
993.3000;0.1229;3.7786;
993.6000;0.1221;3.7786;
993.9000;0.1213;3.7786;
994.2000;0.1205;3.7786;
994.5000;0.1205;3.7786;
994.8000;0.1245;3.7889;
995.1000;0.1188;3.7812;
995.4000;0.1213;3.7863;
995.7000;0.1245;3.7940;
996.0000;0.1188;3.7786;
996.3000;0.1229;3.7889;
996.6000;0.1229;3.7940;
996.9000;0.1213;3.7914;
997.2000;0.1213;3.7863;
997.5000;0.1213;3.7837;
997.8000;0.1188;3.7837;
998.1000;0.1188;3.7760;
998.4000;0.1213;3.7760;
998.7000;0.1172;3.7658;
999.0000;0.1229;3.7914;
999.3000;0.1245;3.8017;
999.6000;0.1197;3.7863;
999.9000;0.1229;3.7966;
1000.2000;0.1213;3.7914;
1000.5000;0.1262;3.7991;
1000.8000;0.1197;3.7837;
1001.1000;0.1213;3.7837;
1001.4000;0.1123;3.7581;
1001.7000;0.1197;3.7709;
1002.0000;0.1188;3.7760;
1002.3000;0.1197;3.7658;
1002.6000;0.1245;3.7735;
1002.9000;0.1221;3.7709;
1003.2000;0.1221;3.7658;
1003.5000;0.1229;3.7606;
1003.8000;0.1229;3.7581;
1004.1000;0.1205;3.7530;
1004.4000;0.1221;3.7581;
1004.7000;0.1205;3.7504;
1005.0000;0.1237;3.7581;
1005.3000;0.1221;3.7606;
1005.6000;0.1197;3.7555;
1005.9000;0.1213;3.7606;
1006.2000;0.1107;3.7376;
1006.5000;0.1221;3.7709;
1006.8000;0.1213;3.7683;
1007.1000;0.1278;3.7940;
1007.4000;0.1221;3.7812;
1007.7000;0.1221;3.7863;
1008.0000;0.1221;3.7837;
1008.3000;0.1221;3.7889;
1008.6000;0.1107;3.7530;
1008.9000;0.1229;3.7991;
1009.2000;0.1213;3.7991;
1009.5000;0.1245;3.8017;
1009.8000;0.1205;3.7837;
1010.1000;0.1245;3.7940;
1010.4000;0.1188;3.7786;
1010.7000;0.1221;3.7940;
1011.0000;0.1188;3.7889;
1011.3000;0.1221;3.7966;
1011.6000;0.1229;3.8017;
1011.9000;0.1099;3.7606;
1012.2000;0.1221;3.7966;
1012.5000;0.1221;3.7966;
1012.8000;0.1221;3.7863;
1013.1000;0.1205;3.7760;
1013.4000;0.1197;3.7735;
1013.7000;0.1213;3.7786;
1014.0000;0.1213;3.7812;
1014.3000;0.1229;3.7914;
1014.6000;0.1229;3.7914;
1014.9000;0.1229;3.7837;
1015.2000;0.1213;3.7812;
1015.5000;0.1205;3.7760;
1015.8000;0.1213;3.7786;
1016.1000;0.1205;3.7658;
1016.4000;0.1213;3.7735;
1016.7000;0.1221;3.7658;
1017.0000;0.1205;3.7632;
1017.3000;0.1221;3.7658;
1017.6000;0.1237;3.7658;
1017.9000;0.1213;3.7658;
1018.2000;0.1197;3.7504;
1018.5000;0.1213;3.7504;
1018.8000;0.1237;3.7658;
1019.1000;0.1221;3.7658;
1019.4000;0.1229;3.7760;
1019.7000;0.1213;3.7735;
1020.0000;0.1221;3.7735;
1020.3000;0.1205;3.7709;
1020.6000;0.1221;3.7863;
1020.9000;0.1213;3.7837;
1021.2000;0.1180;3.7786;
1021.5000;0.1213;3.7889;
1021.8000;0.1237;3.7914;
1022.1000;0.1197;3.7863;
1022.4000;0.1213;3.7914;
1022.7000;0.1229;3.7914;
1023.0000;0.1205;3.7786;
1023.3000;0.1213;3.7837;
1023.6000;0.1229;3.7812;
1023.9000;0.1221;3.7812;
1024.2000;0.1221;3.7812;
1024.5000;0.1229;3.7837;
1024.8000;0.1213;3.7760;
1025.1000;0.1213;3.7760;
1025.4000;0.1197;3.7786;
1025.7000;0.1221;3.7837;
1026.0000;0.1164;3.7709;
1026.3000;0.1221;3.7837;
1026.6000;0.1221;3.7812;
1026.9000;0.1221;3.7786;
1027.2000;0.1213;3.7786;
1027.5000;0.1205;3.7735;
1027.8000;0.1180;3.7658;
1028.1000;0.1229;3.7812;
1028.4000;0.1205;3.7786;
1028.7000;0.1229;3.7863;
1029.0000;0.1229;3.7889;
1029.3000;0.1205;3.7812;
1029.6000;0.1237;3.7837;
1029.9000;0.1229;3.7863;
1030.2000;0.1245;3.7914;
1030.5000;0.1213;3.7914;
1030.8000;0.1221;3.7863;
1031.1000;0.1254;3.7914;
1031.4000;0.1221;3.7889;
1031.7000;0.1229;3.7914;
1032.0000;0.1237;3.7914;
1032.3000;0.1229;3.7966;
1032.6000;0.1221;3.7940;
1032.9000;0.1221;3.7940;
1033.2000;0.1237;3.8068;
1033.5000;0.1229;3.8043;
1033.8000;0.1221;3.8094;
1034.1000;0.1262;3.8171;
1034.4000;0.1221;3.8068;
1034.7000;0.1188;3.7940;
1035.0000;0.1156;3.7914;
1035.3000;0.1213;3.8043;
1035.6000;0.1213;3.7966;
1035.9000;0.1180;3.7837;
1036.2000;0.1221;3.7966;
1036.5000;0.1213;3.7940;
1036.8000;0.1188;3.7863;
1037.1000;0.1172;3.7863;
1037.4000;0.1205;3.7889;
1037.7000;0.1213;3.7786;
1038.0000;0.1213;3.7786;
1038.3000;0.1172;3.7658;
1038.6000;0.1221;3.7812;
1038.9000;0.1213;3.7837;
1039.2000;0.1229;3.7812;
1039.5000;0.1221;3.7837;
1039.8000;0.1221;3.7889;
1040.1000;0.1229;3.7914;
1040.4000;0.1278;3.7940;
1040.7000;0.1221;3.7812;
1041.0000;0.1237;3.7863;
1041.3000;0.1245;3.7889;
1041.6000;0.1229;3.7812;
1041.9000;0.1221;3.7709;
1042.2000;0.1205;3.7735;
1042.5000;0.1205;3.7837;
1042.8000;0.1213;3.7837;
1043.1000;0.1205;3.7812;
1043.4000;0.1221;3.7914;
1043.7000;0.1205;3.7812;
1044.0000;0.1213;3.7786;
1044.3000;0.1237;3.7863;
1044.6000;0.1213;3.7786;
1044.9000;0.1229;3.7863;
1045.2000;0.1205;3.7889;
1045.5000;0.1197;3.7812;
1045.8000;0.1197;3.7863;
1046.1000;0.1213;3.7863;
1046.4000;0.1205;3.7812;
1046.7000;0.1213;3.7837;
1047.0000;0.1229;3.7914;
1047.3000;0.1213;3.7863;
1047.6000;0.1205;3.7812;
1047.9000;0.1229;3.7940;
1048.2000;0.1229;3.7991;
1048.5000;0.1221;3.7940;
1048.8000;0.1213;3.7889;
1049.1000;0.1229;3.7914;
1049.4000;0.1237;3.7940;
1049.7000;0.1221;3.7889;
1050.0000;0.1221;3.7940;
1050.3000;0.1213;3.7914;
1050.6000;0.1213;3.7863;
1050.9000;0.1197;3.7735;
1051.2000;0.1205;3.7760;
1051.5000;0.1237;3.7837;
1051.8000;0.1197;3.7786;
1052.1000;0.1213;3.7812;
1052.4000;0.1221;3.7812;
1052.7000;0.1221;3.7760;
1053.0000;0.1294;3.8017;
1053.3000;0.1237;3.7889;
1053.6000;0.1140;3.7632;
1053.9000;0.1213;3.7786;
1054.2000;0.1172;3.7812;
1054.5000;0.1221;3.7914;
1054.8000;0.1213;3.7863;
1055.1000;0.1213;3.7786;
1055.4000;0.1213;3.7837;
1055.7000;0.1221;3.7812;
1056.0000;0.1237;3.7812;
1056.3000;0.1197;3.7812;
1056.6000;0.1221;3.7837;
1056.9000;0.1221;3.7760;
1057.2000;0.1164;3.7453;
1057.5000;0.1205;3.7504;
1057.8000;0.1221;3.7555;
1058.1000;0.1213;3.7632;
1058.4000;0.1213;3.7683;
1058.7000;0.1180;3.7606;
1059.0000;0.1205;3.7709;
1059.3000;0.1237;3.7863;
1059.6000;0.1221;3.7863;
1059.9000;0.1213;3.7914;
1060.2000;0.1205;3.7837;
1060.5000;0.1229;3.7889;
1060.8000;0.1311;3.8068;
1061.1000;0.1229;3.7863;
1061.4000;0.1262;3.7991;
1061.7000;0.1205;3.7889;
1062.0000;0.1213;3.7863;
1062.3000;0.1213;3.7914;
1062.6000;0.1221;3.7914;
1062.9000;0.1213;3.8017;
1063.2000;0.1172;3.7889;
1063.5000;0.1213;3.7914;
1063.8000;0.1221;3.7940;
1064.1000;0.1205;3.7966;
1064.4000;0.1197;3.8043;
1064.7000;0.1213;3.8094;
1065.0000;0.1205;3.8068;
1065.3000;0.1213;3.8017;
1065.6000;0.1205;3.7991;
1065.9000;0.1221;3.8068;
1066.2000;0.1205;3.7940;
1066.5000;0.1213;3.7940;
1066.8000;0.1245;3.8017;
1067.1000;0.1221;3.7991;
1067.4000;0.1205;3.7914;
1067.7000;0.1221;3.7837;
1068.0000;0.1131;3.7632;
1068.3000;0.1221;3.7863;
1068.6000;0.1229;3.7889;
1068.9000;0.1213;3.7812;
1069.2000;0.1188;3.7863;
1069.5000;0.1229;3.7991;
1069.8000;0.1254;3.7991;
1070.1000;0.1205;3.7863;
1070.4000;0.1221;3.7940;
1070.7000;0.1221;3.7914;
1071.0000;0.1197;3.7786;
1071.3000;0.1245;3.7889;
1071.6000;0.1205;3.7837;
1071.9000;0.1245;3.7889;
1072.2000;0.1237;3.7786;
1072.5000;0.1197;3.7735;
1072.8000;0.1221;3.7863;
1073.1000;0.1205;3.7786;
1073.4000;0.1205;3.7760;
1073.7000;0.1213;3.7786;
1074.0000;0.1197;3.7735;
1074.3000;0.1197;3.7658;
1074.6000;0.1205;3.7735;
1074.9000;0.1221;3.7760;
1075.2000;0.1245;3.7914;
1075.5000;0.1221;3.7863;
1075.8000;0.1213;3.7863;
1076.1000;0.1205;3.7889;
1076.4000;0.1197;3.7812;
1076.7000;0.1197;3.7786;
1077.0000;0.1229;3.7914;
1077.3000;0.1221;3.7940;
1077.6000;0.1205;3.7914;
1077.9000;0.1205;3.7940;
1078.2000;0.1197;3.8017;
1078.5000;0.1205;3.8017;
1078.8000;0.1156;3.7889;
1079.1000;0.1245;3.8094;
1079.4000;0.1197;3.7966;
1079.7000;0.1229;3.8017;
1080.0000;0.1205;3.7914;
1080.3000;0.1213;3.7914;
1080.6000;0.1205;3.7914;
1080.9000;0.1237;3.8017;
1081.2000;0.1229;3.8043;
1081.5000;0.1197;3.7914;
1081.8000;0.1237;3.7991;
1082.1000;0.1221;3.7940;
1082.4000;0.1213;3.7991;
1082.7000;0.1205;3.7940;
1083.0000;0.1213;3.7966;
1083.3000;0.1205;3.7966;
1083.6000;0.1221;3.8094;
1083.9000;0.1205;3.8043;
1084.2000;0.1188;3.7991;
1084.5000;0.1221;3.8043;
1084.8000;0.1221;3.8094;
1085.1000;0.1221;3.7991;
1085.4000;0.1205;3.7966;
1085.7000;0.1221;3.7940;
1086.0000;0.1221;3.7940;
1086.3000;0.1221;3.7889;
1086.6000;0.1221;3.7812;
1086.9000;0.1205;3.7709;
1087.2000;0.1221;3.7760;
1087.5000;0.1221;3.7786;
1087.8000;0.1229;3.7889;
1088.1000;0.1229;3.7863;
1088.4000;0.1221;3.7863;
1088.7000;0.1221;3.7940;
1089.0000;0.1197;3.7837;
1089.3000;0.1205;3.7786;
1089.6000;0.1221;3.7837;
1089.9000;0.1197;3.7760;
1090.2000;0.1197;3.7837;
1090.5000;0.1197;3.7786;
1090.8000;0.1205;3.7709;
1091.1000;0.1197;3.7606;
1091.4000;0.1205;3.7658;
1091.7000;0.1229;3.7709;
1092.0000;0.1205;3.7683;
1092.3000;0.1294;3.7863;
1092.6000;0.1237;3.7812;
1092.9000;0.1286;3.8068;
1093.2000;0.1221;3.7966;
1093.5000;0.1197;3.7837;
1093.8000;0.1172;3.7709;
1094.1000;0.1229;3.7889;
1094.4000;0.1180;3.7812;
1094.7000;0.1229;3.7914;
1095.0000;0.1270;3.8043;
1095.3000;0.1188;3.7812;
1095.6000;0.1213;3.7812;
1095.9000;0.1221;3.7863;
1096.2000;0.1229;3.7812;
1096.5000;0.1221;3.7837;
1096.8000;0.1197;3.7812;
1097.1000;0.1188;3.7760;
1097.4000;0.1205;3.7786;
1097.7000;0.1229;3.7863;
1098.0000;0.1188;3.7786;
1098.3000;0.1197;3.7735;
1098.6000;0.1229;3.7889;
1098.9000;0.1221;3.7889;
1099.2000;0.1311;3.8068;
1099.5000;0.1213;3.7812;
1099.8000;0.1197;3.7863;
1100.1000;0.1197;3.7889;
1100.4000;0.1197;3.7940;
1100.7000;0.1197;3.7914;
1101.0000;0.1197;3.7889;
1101.3000;0.1262;3.8017;
1101.6000;0.1205;3.7863;
1101.9000;0.1221;3.7914;
1102.2000;0.1221;3.7914;
1102.5000;0.1237;3.7914;
1102.8000;0.1221;3.7812;
1103.1000;0.1205;3.7812;
1103.4000;0.1213;3.7914;
1103.7000;0.1221;3.7966;
1104.0000;0.1229;3.7889;
1104.3000;0.1245;3.7991;
1104.6000;0.1270;3.7991;
1104.9000;0.1221;3.7863;
1105.2000;0.1221;3.7863;
1105.5000;0.1213;3.7786;
1105.8000;0.1205;3.7837;
1106.1000;0.1172;3.7837;
1106.4000;0.1172;3.7812;
1106.7000;0.1188;3.7863;
1107.0000;0.1205;3.7940;
1107.3000;0.1221;3.8017;
1107.6000;0.1205;3.7991;
1107.9000;0.1221;3.8017;
1108.2000;0.1221;3.8043;
1108.5000;0.1205;3.8017;
1108.8000;0.1213;3.8068;
1109.1000;0.1188;3.8043;
1109.4000;0.1156;3.7786;
1109.7000;0.1213;3.8017;
1110.0000;0.1205;3.8120;
1110.3000;0.1107;3.7940;
1110.6000;0.1205;3.8068;
1110.9000;0.1197;3.8017;
1111.2000;0.1197;3.7966;
1111.5000;0.1302;3.8197;
1111.8000;0.1229;3.7991;
1112.1000;0.1205;3.7889;
1112.4000;0.1197;3.7812;
1112.7000;0.1205;3.7991;
1113.0000;0.1213;3.8017;
1113.3000;0.1229;3.8017;
1113.6000;0.1237;3.8068;
1113.9000;0.1197;3.7966;
1114.2000;0.1197;3.7889;
1114.5000;0.1237;3.8094;
1114.8000;0.1213;3.8043;
1115.1000;0.1229;3.8043;
1115.4000;0.1278;3.8094;
1115.7000;0.1205;3.7966;
1116.0000;0.1213;3.7991;
1116.3000;0.1221;3.8017;
1116.6000;0.1237;3.8068;
1116.9000;0.1245;3.8094;
1117.2000;0.1188;3.7940;
1117.5000;0.1229;3.7991;
1117.8000;0.1172;3.7812;
1118.1000;0.1254;3.8120;
1118.4000;0.1156;3.7991;
1118.7000;0.1213;3.8094;
1119.0000;0.1188;3.8043;
1119.3000;0.1180;3.8017;
1119.6000;0.1205;3.8017;
1119.9000;0.1205;3.8017;
1120.2000;0.1229;3.8120;
1120.5000;0.1237;3.8120;
1120.8000;0.1221;3.7991;
1121.1000;0.1205;3.7940;
1121.4000;0.1221;3.8017;
1121.7000;0.1197;3.8017;
1122.0000;0.1213;3.8094;
1122.3000;0.1197;3.8068;
1122.6000;0.1188;3.7991;
1122.9000;0.1237;3.8120;
1123.2000;0.1197;3.8043;
1123.5000;0.1197;3.8094;
1123.8000;0.1229;3.8120;
1124.1000;0.1205;3.8094;
1124.4000;0.1213;3.8017;
1124.7000;0.1213;3.8043;
1125.0000;0.1221;3.8017;
1125.3000;0.1221;3.7991;
1125.6000;0.1213;3.7914;
1125.9000;0.1205;3.7889;
1126.2000;0.1205;3.7914;
1126.5000;0.1205;3.7837;
1126.8000;0.1221;3.7863;
1127.1000;0.1294;3.8068;
1127.4000;0.1197;3.7709;
1127.7000;0.1278;3.7991;
1128.0000;0.1213;3.7837;
1128.3000;0.1188;3.7812;
1128.6000;0.1229;3.7863;
1128.9000;0.1197;3.7914;
1129.2000;0.1205;3.7940;
1129.5000;0.1221;3.7966;
1129.8000;0.1205;3.7914;
1130.1000;0.1205;3.7837;
1130.4000;0.1188;3.7709;
1130.7000;0.1205;3.7683;
1131.0000;0.1229;3.7735;
1131.3000;0.1107;3.7350;
1131.6000;0.1254;3.7735;
1131.9000;0.1172;3.7504;
1132.2000;0.1205;3.7683;
1132.5000;0.1237;3.7812;
1132.8000;0.1229;3.7812;
1133.1000;0.1188;3.7786;
1133.4000;0.1368;3.8350;
1133.7000;0.1205;3.7863;
1134.0000;0.1205;3.7837;
1134.3000;0.1188;3.7709;
1134.6000;0.1221;3.7812;
1134.9000;0.1213;3.7709;
1135.2000;0.1221;3.7760;
1135.5000;0.1221;3.7812;
1135.8000;0.1213;3.7760;
1136.1000;0.1205;3.7760;
1136.4000;0.1140;3.7504;
1136.7000;0.1213;3.7658;
1137.0000;0.1205;3.7709;
1137.3000;0.1245;3.7837;
1137.6000;0.1221;3.7735;
1137.9000;0.1197;3.7683;
1138.2000;0.1205;3.7735;
1138.5000;0.1237;3.7786;
1138.8000;0.1237;3.7889;
1139.1000;0.1188;3.7735;
1139.4000;0.1188;3.7683;
1139.7000;0.1221;3.7709;
1140.0000;0.1213;3.7658;
1140.3000;0.1229;3.7606;
1140.6000;0.1205;3.7735;
1140.9000;0.1213;3.7863;
1141.2000;0.1270;3.7966;
1141.5000;0.1156;3.7658;
1141.8000;0.1188;3.7735;
1142.1000;0.1180;3.7683;
1142.4000;0.1140;3.7658;
1142.7000;0.1221;3.7966;
1143.0000;0.1237;3.7966;
1143.3000;0.1188;3.7991;
1143.6000;0.1205;3.7991;
1143.9000;0.1221;3.8017;
1144.2000;0.1245;3.8145;
1144.5000;0.1205;3.8043;
1144.8000;0.1205;3.8120;
1145.1000;0.1229;3.8222;
1145.4000;0.1221;3.8145;
1145.7000;0.1205;3.8068;
1146.0000;0.1221;3.8068;
1146.3000;0.1213;3.8068;
1146.6000;0.1221;3.8068;
1146.9000;0.1197;3.8068;
1147.2000;0.1197;3.8094;
1147.5000;0.1213;3.8094;
1147.8000;0.1237;3.8145;
1148.1000;0.1205;3.8197;
1148.4000;0.1188;3.8145;
1148.7000;0.1213;3.8222;
1149.0000;0.1205;3.8145;
1149.3000;0.1229;3.8120;
1149.6000;0.1172;3.7914;
1149.9000;0.1123;3.7735;
1150.2000;0.1197;3.7991;
1150.5000;0.1213;3.8043;
1150.8000;0.1221;3.8094;
1151.1000;0.1188;3.7889;
1151.4000;0.1213;3.8017;
1151.7000;0.1229;3.8145;
1152.0000;0.1213;3.8068;
1152.3000;0.1164;3.7940;
1152.6000;0.1213;3.8094;
1152.9000;0.1197;3.8120;
1153.2000;0.1197;3.8094;
1153.5000;0.1229;3.8120;
1153.8000;0.1213;3.8068;
1154.1000;0.1221;3.8068;
1154.4000;0.1221;3.8017;
1154.7000;0.1213;3.7940;
1155.0000;0.1213;3.8017;
1155.3000;0.1229;3.8120;
1155.6000;0.1254;3.8145;
1155.9000;0.1205;3.7914;
1156.2000;0.1229;3.7991;
1156.5000;0.1221;3.7863;
1156.8000;0.1221;3.7889;
1157.1000;0.1180;3.7889;
1157.4000;0.1213;3.7991;
1157.7000;0.1221;3.8094;
1158.0000;0.1197;3.8043;
1158.3000;0.1197;3.8017;
1158.6000;0.1213;3.7991;
1158.9000;0.1213;3.7966;
1159.2000;0.1188;3.7966;
1159.5000;0.1213;3.8043;
1159.8000;0.1180;3.7991;
1160.1000;0.1221;3.8120;
1160.4000;0.1221;3.8043;
1160.7000;0.1188;3.7889;
1161.0000;0.1221;3.7991;
1161.3000;0.1213;3.7889;
1161.6000;0.1237;3.7991;
1161.9000;0.1205;3.7940;
1162.2000;0.1229;3.7914;
1162.5000;0.1221;3.7940;
1162.8000;0.1205;3.7889;
1163.1000;0.1237;3.7966;
1163.4000;0.1221;3.7863;
1163.7000;0.1221;3.7863;
1164.0000;0.1286;3.8094;
1164.3000;0.1221;3.7914;
1164.6000;0.1229;3.7760;
1164.9000;0.1197;3.7709;
1165.2000;0.1197;3.7760;
1165.5000;0.1213;3.7760;
1165.8000;0.1213;3.7760;
1166.1000;0.1205;3.7735;
1166.4000;0.1262;3.7940;
1166.7000;0.1229;3.7812;
1167.0000;0.1229;3.7760;
1167.3000;0.1221;3.7683;
1167.6000;0.1188;3.7683;
1167.9000;0.1197;3.7735;
1168.2000;0.1205;3.7837;
1168.5000;0.1205;3.7812;
1168.8000;0.1188;3.7760;
1169.1000;0.1221;3.7812;
1169.4000;0.1229;3.7837;
1169.7000;0.1213;3.7812;
1170.0000;0.1197;3.7889;
1170.3000;0.1131;3.7735;
1170.6000;0.1221;3.7991;
1170.9000;0.1213;3.7940;
1171.2000;0.1229;3.8043;
1171.5000;0.1221;3.8043;
1171.8000;0.1123;3.7786;
1172.1000;0.1180;3.8043;
1172.4000;0.1229;3.8171;
1172.7000;0.1319;3.8402;
1173.0000;0.1205;3.8068;
1173.3000;0.1172;3.8017;
1173.6000;0.1180;3.8017;
1173.9000;0.1229;3.8197;
1174.2000;0.1262;3.8273;
1174.5000;0.1205;3.8120;
1174.8000;0.1213;3.8145;
1175.1000;0.1278;3.8325;
1175.4000;0.1197;3.8094;
1175.7000;0.1205;3.8068;
1176.0000;0.1221;3.7940;
1176.3000;0.1156;3.7658;
1176.6000;0.1221;3.7760;
1176.9000;0.1188;3.7760;
1177.2000;0.1237;3.7863;
1177.5000;0.1180;3.7683;
1177.8000;0.1197;3.7760;
1178.1000;0.1197;3.7812;
1178.4000;0.1205;3.7812;
1178.7000;0.1205;3.7786;
1179.0000;0.1278;3.8017;
1179.3000;0.1221;3.7863;
1179.6000;0.1131;3.7606;
1179.9000;0.1229;3.7889;
1180.2000;0.1205;3.7889;
1180.5000;0.1213;3.7940;
1180.8000;0.1205;3.8043;
1181.1000;0.1205;3.7966;
1181.4000;0.1131;3.7735;
1181.7000;0.1188;3.7812;
1182.0000;0.1221;3.7889;
1182.3000;0.1205;3.7889;
1182.6000;0.1197;3.7940;
1182.9000;0.1197;3.7914;
1183.2000;0.1197;3.7940;
1183.5000;0.1213;3.7889;
1183.8000;0.1205;3.7889;
1184.1000;0.1229;3.7940;
1184.4000;0.1213;3.7914;
1184.7000;0.1213;3.7914;
1185.0000;0.1237;3.8043;
1185.3000;0.1262;3.8120;
1185.6000;0.1188;3.7966;
1185.9000;0.1205;3.7991;
1186.2000;0.1213;3.8068;
1186.5000;0.1213;3.8043;
1186.8000;0.1213;3.7940;
1187.1000;0.1237;3.8068;
1187.4000;0.1148;3.7735;
1187.7000;0.1221;3.7966;
1188.0000;0.1197;3.7940;
1188.3000;0.1188;3.7914;
1188.6000;0.1205;3.7889;
1188.9000;0.1205;3.7966;
1189.2000;0.1221;3.7991;
1189.5000;0.1245;3.8120;
1189.8000;0.1148;3.7914;
1190.1000;0.1180;3.7966;
1190.4000;0.1188;3.7991;
1190.7000;0.1197;3.8017;
1191.0000;0.1221;3.8068;
1191.3000;0.1205;3.8017;
1191.6000;0.1205;3.8017;
1191.9000;0.1229;3.8017;
1192.2000;0.1123;3.7760;
1192.5000;0.1221;3.8017;
1192.8000;0.1221;3.8068;
1193.1000;0.1213;3.8043;
1193.4000;0.1213;3.8068;
1193.7000;0.1270;3.8299;
1194.0000;0.1205;3.8094;
1194.3000;0.1164;3.7966;
1194.6000;0.1213;3.8120;
1194.9000;0.1229;3.8171;
1195.2000;0.1213;3.8145;
1195.5000;0.1213;3.8094;
1195.8000;0.1205;3.8043;
1196.1000;0.1237;3.8094;
1196.4000;0.1213;3.8043;
1196.7000;0.1221;3.7914;
1197.0000;0.1221;3.8017;
1197.3000;0.1270;3.8171;
1197.6000;0.1172;3.7914;
1197.9000;0.1229;3.8043;
1198.2000;0.1213;3.8094;
1198.5000;0.1205;3.8068;
1198.8000;0.1180;3.8043;
1199.1000;0.1188;3.8043;
1199.4000;0.1205;3.8068;
1199.7000;0.1213;3.8145;
1200.0000;0.1205;3.8120;
1200.3000;0.1221;3.8197;
1200.6000;0.1221;3.8197;
1200.9000;0.1123;3.7863;
1201.2000;0.1237;3.8222;
1201.5000;0.1213;3.8043;
1201.8000;0.1237;3.8120;
1202.1000;0.1221;3.7914;
1202.4000;0.1213;3.7966;
1202.7000;0.1237;3.8017;
1203.0000;0.1172;3.7914;
1203.3000;0.1205;3.8094;
1203.6000;0.1286;3.8248;
1203.9000;0.1286;3.8197;
1204.2000;0.1302;3.8273;
1204.5000;0.1188;3.8017;
1204.8000;0.1172;3.7991;
1205.1000;0.1197;3.8068;
1205.4000;0.1213;3.8145;
1205.7000;0.1205;3.8145;
1206.0000;0.1229;3.8094;
1206.3000;0.1172;3.7940;
1206.6000;0.1213;3.8043;
1206.9000;0.1213;3.8017;
1207.2000;0.1197;3.8017;
1207.5000;0.1213;3.7940;
1207.8000;0.1205;3.7966;
1208.1000;0.1229;3.8017;
1208.4000;0.1205;3.7966;
1208.7000;0.1229;3.7991;
1209.0000;0.1221;3.7940;
1209.3000;0.1302;3.8068;
1209.6000;0.1213;3.7837;
1209.9000;0.1245;3.7914;
1210.2000;0.1213;3.7812;
1210.5000;0.1270;3.7940;
1210.8000;0.1197;3.7683;
1211.1000;0.1205;3.7786;
1211.4000;0.1221;3.7812;
1211.7000;0.1205;3.7786;
1212.0000;0.1213;3.7760;
1212.3000;0.1213;3.7709;
1212.6000;0.1188;3.7658;
1212.9000;0.1197;3.7683;
1213.2000;0.1172;3.7760;
1213.5000;0.1213;3.7812;
1213.8000;0.1229;3.7812;
1214.1000;0.1205;3.7760;
1214.4000;0.1213;3.7760;
1214.7000;0.1229;3.7889;
1215.0000;0.1213;3.7914;
1215.3000;0.1205;3.7914;
1215.6000;0.1205;3.7940;
1215.9000;0.1197;3.7940;
1216.2000;0.1205;3.7991;
1216.5000;0.1188;3.7966;
1216.8000;0.1180;3.7966;
1217.1000;0.1213;3.7991;
1217.4000;0.1221;3.8017;
1217.7000;0.1205;3.7863;
1218.0000;0.1213;3.7863;
1218.3000;0.1245;3.7940;
1218.6000;0.1213;3.7786;
1218.9000;0.1221;3.7914;
1219.2000;0.1213;3.7914;
1219.5000;0.1197;3.7735;
1219.8000;0.1237;3.7786;
1220.1000;0.1205;3.7683;
1220.4000;0.1180;3.7658;
1220.7000;0.1197;3.7812;
1221.0000;0.1205;3.7837;
1221.3000;0.1180;3.7735;
1221.6000;0.1197;3.7837;
1221.9000;0.1197;3.7889;
1222.2000;0.1197;3.7940;
1222.5000;0.1180;3.7914;
1222.8000;0.1213;3.7966;
1223.1000;0.1213;3.7914;
1223.4000;0.1180;3.7760;
1223.7000;0.1197;3.7837;
1224.0000;0.1197;3.7760;
1224.3000;0.1205;3.7709;
1224.6000;0.1213;3.7735;
1224.9000;0.1213;3.7812;
1225.2000;0.1197;3.7735;
1225.5000;0.1205;3.7786;
1225.8000;0.1221;3.7837;
1226.1000;0.1221;3.7914;
1226.4000;0.1221;3.7889;
1226.7000;0.1197;3.7863;
1227.0000;0.1205;3.7863;
1227.3000;0.1237;3.7966;
1227.6000;0.1213;3.7837;
1227.9000;0.1213;3.7812;
1228.2000;0.1229;3.7863;
1228.5000;0.1213;3.7889;
1228.8000;0.1229;3.7889;
1229.1000;0.1221;3.7940;
1229.4000;0.1188;3.7914;
1229.7000;0.1237;3.8043;
1230.0000;0.1229;3.8043;
1230.3000;0.1221;3.8043;
1230.6000;0.1213;3.8017;
1230.9000;0.1237;3.8145;
1231.2000;0.1205;3.7966;
1231.5000;0.1229;3.7991;
1231.8000;0.1221;3.7991;
1232.1000;0.1197;3.7812;
1232.4000;0.1213;3.7914;
1232.7000;0.1197;3.7991;
1233.0000;0.1180;3.7940;
1233.3000;0.1213;3.7940;
1233.6000;0.1213;3.8094;
1233.9000;0.1237;3.8120;
1234.2000;0.1221;3.7991;
1234.5000;0.1221;3.7991;
1234.8000;0.1221;3.8043;
1235.1000;0.1205;3.7940;
1235.4000;0.1156;3.7786;
1235.7000;0.1221;3.8043;
1236.0000;0.1205;3.7914;
1236.3000;0.1213;3.7966;
1236.6000;0.1229;3.8043;
1236.9000;0.1221;3.7991;
1237.2000;0.1148;3.7709;
1237.5000;0.1213;3.7863;
1237.8000;0.1262;3.8017;
1238.1000;0.1197;3.7837;
1238.4000;0.1188;3.7837;
1238.7000;0.1197;3.7837;
1239.0000;0.1205;3.7837;
1239.3000;0.1213;3.7837;
1239.6000;0.1229;3.7786;
1239.9000;0.1245;3.7786;
1240.2000;0.1197;3.7632;
1240.5000;0.1188;3.7709;
1240.8000;0.1229;3.7760;
1241.1000;0.1221;3.7683;
1241.4000;0.1197;3.7632;
1241.7000;0.1180;3.7606;
1242.0000;0.1229;3.7760;
1242.3000;0.1229;3.7889;
1242.6000;0.1221;3.7863;
1242.9000;0.1205;3.7812;
1243.2000;0.1188;3.7786;
1243.5000;0.1188;3.7812;
1243.8000;0.1245;3.7991;
1244.1000;0.1221;3.7940;
1244.4000;0.1229;3.7914;
1244.7000;0.1197;3.7812;
1245.0000;0.1205;3.7966;
1245.3000;0.1221;3.8043;
1245.6000;0.1197;3.8017;
1245.9000;0.1229;3.8068;
1246.2000;0.1213;3.8068;
1246.5000;0.1245;3.8197;
1246.8000;0.1213;3.8094;
1247.1000;0.1197;3.7991;
1247.4000;0.1270;3.8197;
1247.7000;0.1213;3.8017;
1248.0000;0.1205;3.7940;
1248.3000;0.1156;3.7786;
1248.6000;0.1205;3.7914;
1248.9000;0.1213;3.7863;
1249.2000;0.1229;3.7863;
1249.5000;0.1123;3.7632;
1249.8000;0.1213;3.7863;
1250.1000;0.1221;3.7863;
1250.4000;0.1376;3.8248;
1250.7000;0.1213;3.7863;
1251.0000;0.1229;3.7940;
1251.3000;0.1278;3.8120;
1251.6000;0.1245;3.8094;
1251.9000;0.1221;3.8094;
1252.2000;0.1229;3.8068;
1252.5000;0.1205;3.8068;
1252.8000;0.1205;3.8145;
1253.1000;0.1229;3.8171;
1253.4000;0.1180;3.7940;
1253.7000;0.1180;3.7889;
1254.0000;0.1221;3.7914;
1254.3000;0.1188;3.7914;
1254.6000;0.1229;3.7863;
1254.9000;0.1213;3.7863;
1255.2000;0.1213;3.7914;
1255.5000;0.1221;3.7940;
1255.8000;0.1180;3.7786;
1256.1000;0.1172;3.7658;
1256.4000;0.1180;3.7658;
1256.7000;0.1188;3.7683;
1257.0000;0.1148;3.7530;
1257.3000;0.1213;3.7863;
1257.6000;0.1205;3.7837;
1257.9000;0.1197;3.7863;
1258.2000;0.1205;3.7812;
1258.5000;0.1205;3.7735;
1258.8000;0.1197;3.7735;
1259.1000;0.1205;3.7709;
1259.4000;0.1213;3.7709;
1259.7000;0.1213;3.7735;
1260.0000;0.1205;3.7760;
1260.3000;0.1213;3.7786;
1260.6000;0.1237;3.7940;
1260.9000;0.1197;3.7914;
1261.2000;0.1197;3.7889;
1261.5000;0.1188;3.7786;
1261.8000;0.1180;3.7760;
1262.1000;0.1311;3.8145;
1262.4000;0.1205;3.7863;
1262.7000;0.1205;3.7786;
1263.0000;0.1245;3.7914;
1263.3000;0.1197;3.7735;
1263.6000;0.1205;3.7735;
1263.9000;0.1205;3.7760;
1264.2000;0.1229;3.7889;
1264.5000;0.1205;3.7889;
1264.8000;0.1148;3.7735;
1265.1000;0.1213;3.7863;
1265.4000;0.1213;3.7683;
1265.7000;0.1205;3.7709;
1266.0000;0.1188;3.7683;
1266.3000;0.1197;3.7709;
1266.6000;0.1205;3.7760;
1266.9000;0.1286;3.7966;
1267.2000;0.1302;3.8043;
1267.5000;0.1205;3.7735;
1267.8000;0.1197;3.7735;
1268.1000;0.1188;3.7658;
1268.4000;0.1245;3.7735;
1268.7000;0.1213;3.7683;
1269.0000;0.1188;3.7658;
1269.3000;0.1229;3.7786;
1269.6000;0.1245;3.7786;
1269.9000;0.1205;3.7735;
1270.2000;0.1229;3.7812;
1270.5000;0.1221;3.7760;
1270.8000;0.1188;3.7683;
1271.1000;0.1205;3.7786;
1271.4000;0.1245;3.7863;
1271.7000;0.1205;3.7760;
1272.0000;0.1148;3.7709;
1272.3000;0.1205;3.7863;
1272.6000;0.1205;3.7837;
1272.9000;0.1197;3.7760;
1273.2000;0.1229;3.7837;
1273.5000;0.1229;3.7786;
1273.8000;0.1254;3.7760;
1274.1000;0.1205;3.7709;
1274.4000;0.1197;3.7632;
1274.7000;0.1205;3.7632;
1275.0000;0.1205;3.7683;
1275.3000;0.1197;3.7683;
1275.6000;0.1197;3.7709;
1275.9000;0.1270;3.7991;
1276.2000;0.1197;3.7812;
1276.5000;0.1205;3.7863;
1276.8000;0.1188;3.7786;
1277.1000;0.1221;3.7863;
1277.4000;0.1213;3.7863;
1277.7000;0.1148;3.7709;
1278.0000;0.1221;3.7940;
1278.3000;0.1205;3.7914;
1278.6000;0.1221;3.7914;
1278.9000;0.1197;3.7863;
1279.2000;0.1221;3.7914;
1279.5000;0.1197;3.7837;
1279.8000;0.1221;3.7940;
1280.1000;0.1286;3.8197;
1280.4000;0.1237;3.8120;
1280.7000;0.1180;3.7991;
1281.0000;0.1245;3.8145;
1281.3000;0.1205;3.7966;
1281.6000;0.1188;3.7940;
1281.9000;0.1213;3.7991;
1282.2000;0.1229;3.8043;
1282.5000;0.1205;3.8043;
1282.8000;0.1221;3.8145;
1283.1000;0.1270;3.8299;
1283.4000;0.1188;3.8068;
1283.7000;0.1213;3.8120;
1284.0000;0.1245;3.8248;
1284.3000;0.1245;3.8094;
1284.6000;0.1188;3.7940;
1284.9000;0.1205;3.8017;
1285.2000;0.1213;3.7940;
1285.5000;0.1197;3.7812;
1285.8000;0.1197;3.7863;
1286.1000;0.1205;3.7837;
1286.4000;0.1237;3.7889;
1286.7000;0.1205;3.7760;
1287.0000;0.1197;3.7760;
1287.3000;0.1205;3.7786;
1287.6000;0.1221;3.7786;
1287.9000;0.1188;3.7632;
1288.2000;0.1205;3.7760;
1288.5000;0.1205;3.7812;
1288.8000;0.1229;3.7863;
1289.1000;0.1164;3.7786;
1289.4000;0.1229;3.7914;
1289.7000;0.1213;3.7991;
1290.0000;0.1213;3.8043;
1290.3000;0.1245;3.8094;
1290.6000;0.1188;3.7966;
1290.9000;0.1172;3.7863;
1291.2000;0.1270;3.8197;
1291.5000;0.1205;3.8068;
1291.8000;0.1205;3.8043;
1292.1000;0.1156;3.7863;
1292.4000;0.1213;3.8094;
1292.7000;0.1213;3.8120;
1293.0000;0.1221;3.8248;
1293.3000;0.1205;3.8171;
1293.6000;0.1180;3.8094;
1293.9000;0.1221;3.8171;
1294.2000;0.1205;3.8120;
1294.5000;0.1237;3.8197;
1294.8000;0.1197;3.8094;
1295.1000;0.1237;3.8222;
1295.4000;0.1197;3.7966;
1295.7000;0.1221;3.8043;
1296.0000;0.1197;3.7966;
1296.3000;0.1213;3.7991;
1296.6000;0.1115;3.7709;
1296.9000;0.1221;3.7914;
1297.2000;0.1197;3.7812;
1297.5000;0.1205;3.7837;
1297.8000;0.1351;3.8350;
1298.1000;0.1197;3.7889;
1298.4000;0.1213;3.7940;
1298.7000;0.1229;3.7991;
1299.0000;0.1278;3.8068;
1299.3000;0.1205;3.7940;
1299.6000;0.1254;3.8094;
1299.9000;0.1188;3.8068;
1300.2000;0.1221;3.8171;
1300.5000;0.1221;3.8248;
1300.8000;0.1229;3.8120;
1301.1000;0.1213;3.8145;
1301.4000;0.1197;3.8145;
1301.7000;0.1221;3.8222;
1302.0000;0.1221;3.8197;
1302.3000;0.1262;3.8350;
1302.6000;0.1205;3.8248;
1302.9000;0.1197;3.8248;
1303.2000;0.1221;3.8299;
1303.5000;0.1213;3.8222;
1303.8000;0.1205;3.8248;
1304.1000;0.1221;3.8222;
1304.4000;0.1245;3.8222;
1304.7000;0.1164;3.7914;
1305.0000;0.1197;3.7991;
1305.3000;0.1254;3.8171;
1305.6000;0.1229;3.8094;
1305.9000;0.1140;3.7940;
1306.2000;0.1205;3.8043;
1306.5000;0.1286;3.8120;
1306.8000;0.1221;3.7940;
1307.1000;0.1205;3.7837;
1307.4000;0.1188;3.7863;
1307.7000;0.1188;3.7837;
1308.0000;0.1205;3.7889;
1308.3000;0.1221;3.7940;
1308.6000;0.1221;3.7966;
1308.9000;0.1188;3.7966;
1309.2000;0.1213;3.8043;
1309.5000;0.1213;3.7991;
1309.8000;0.1115;3.7632;
1310.1000;0.1229;3.7914;
1310.4000;0.1221;3.7914;
1310.7000;0.1221;3.7991;
1311.0000;0.1245;3.8145;
1311.3000;0.1213;3.8094;
1311.6000;0.1205;3.8120;
1311.9000;0.1156;3.7966;
1312.2000;0.1221;3.8273;
1312.5000;0.1221;3.8197;
1312.8000;0.1205;3.8068;
1313.1000;0.1237;3.8120;
1313.4000;0.1221;3.8094;
1313.7000;0.1180;3.8017;
1314.0000;0.1205;3.8094;
1314.3000;0.1197;3.8145;
1314.6000;0.1205;3.8197;
1314.9000;0.1221;3.8273;
1315.2000;0.1197;3.8171;
1315.5000;0.1172;3.8017;
1315.8000;0.1254;3.8222;
1316.1000;0.1213;3.8043;
1316.4000;0.1205;3.8017;
1316.7000;0.1188;3.7991;
1317.0000;0.1213;3.8068;
1317.3000;0.1221;3.8043;
1317.6000;0.1180;3.7940;
1317.9000;0.1221;3.7966;
1318.2000;0.1180;3.7863;
1318.5000;0.1229;3.8043;
1318.8000;0.1245;3.8145;
1319.1000;0.1221;3.8145;
1319.4000;0.1107;3.7735;
1319.7000;0.1188;3.7966;
1320.0000;0.1221;3.8043;
1320.3000;0.1229;3.8068;
1320.6000;0.1197;3.7991;
1320.9000;0.1213;3.7991;
1321.2000;0.1197;3.7991;
1321.5000;0.1197;3.8094;
1321.8000;0.1172;3.7991;
1322.1000;0.1180;3.8120;
1322.4000;0.1205;3.8043;
1322.7000;0.1205;3.8017;
1323.0000;0.1213;3.7991;
1323.3000;0.1237;3.8197;
1323.6000;0.1221;3.8120;
1323.9000;0.1221;3.8145;
1324.2000;0.1245;3.8197;
1324.5000;0.1229;3.8145;
1324.8000;0.1221;3.8120;
1325.1000;0.1262;3.8299;
1325.4000;0.1221;3.8145;
1325.7000;0.1188;3.8043;
1326.0000;0.1229;3.8171;
1326.3000;0.1262;3.8273;
1326.6000;0.1188;3.8068;
1326.9000;0.1180;3.7966;
1327.2000;0.1148;3.7760;
1327.5000;0.1254;3.8145;
1327.8000;0.1188;3.7940;
1328.1000;0.1197;3.7966;
1328.4000;0.1197;3.7991;
1328.7000;0.1213;3.8043;
1329.0000;0.1319;3.8376;
1329.3000;0.1188;3.8043;
1329.6000;0.1197;3.8068;
1329.9000;0.1335;3.8556;
1330.2000;0.1213;3.8120;
1330.5000;0.1197;3.8068;
1330.8000;0.1205;3.8094;
1331.1000;0.1229;3.8171;
1331.4000;0.1164;3.8068;
1331.7000;0.1205;3.8145;
1332.0000;0.1221;3.8043;
1332.3000;0.1213;3.8068;
1332.6000;0.1205;3.8043;
1332.9000;0.1188;3.8017;
1333.2000;0.1197;3.8094;
1333.5000;0.1180;3.8017;
1333.8000;0.1245;3.8197;
1334.1000;0.1197;3.8017;
1334.4000;0.1197;3.8017;
1334.7000;0.1205;3.8017;
1335.0000;0.1221;3.8043;
1335.3000;0.1188;3.7966;
1335.6000;0.1180;3.7837;
1335.9000;0.1172;3.7735;
1336.2000;0.1213;3.7837;
1336.5000;0.1205;3.7914;
1336.8000;0.1213;3.8017;
1337.1000;0.1148;3.7863;
1337.4000;0.1197;3.7991;
1337.7000;0.1172;3.7940;
1338.0000;0.1213;3.8043;
1338.3000;0.1205;3.7991;
1338.6000;0.1180;3.8017;
1338.9000;0.1188;3.8068;
1339.2000;0.1205;3.8068;
1339.5000;0.1205;3.8145;
1339.8000;0.1213;3.8171;
1340.1000;0.1254;3.8273;
1340.4000;0.1197;3.8145;
1340.7000;0.1188;3.8068;
1341.0000;0.1237;3.8171;
1341.3000;0.1205;3.8171;
1341.6000;0.1237;3.8171;
1341.9000;0.1262;3.8273;
1342.2000;0.1180;3.7991;
1342.5000;0.1229;3.8094;
1342.8000;0.1205;3.8094;
1343.1000;0.1213;3.8094;
1343.4000;0.1123;3.7914;
1343.7000;0.1107;3.7914;
1344.0000;0.1213;3.8325;
1344.3000;0.1205;3.8299;
1344.6000;0.1205;3.8248;
1344.9000;0.1245;3.8325;
1345.2000;0.1229;3.8299;
1345.5000;0.1148;3.7966;
1345.8000;0.1221;3.8120;
1346.1000;0.1221;3.8068;
1346.4000;0.1213;3.7940;
1346.7000;0.1213;3.7889;
1347.0000;0.1205;3.7863;
1347.3000;0.1197;3.7889;
1347.6000;0.1205;3.7837;
1347.9000;0.1180;3.7735;
1348.2000;0.1229;3.7863;
1348.5000;0.1197;3.7837;
1348.8000;0.1197;3.7889;
1349.1000;0.1172;3.7863;
1349.4000;0.1221;3.7991;
1349.7000;0.1205;3.7940;
1350.0000;0.1205;3.7991;
1350.3000;0.1213;3.7863;
1350.6000;0.1213;3.7889;
1350.9000;0.1205;3.7914;
1351.2000;0.1205;3.7966;
1351.5000;0.1197;3.8017;
1351.8000;0.1213;3.8068;
1352.1000;0.1205;3.8094;
1352.4000;0.1229;3.8043;
1352.7000;0.1188;3.8017;
1353.0000;0.1229;3.8145;
1353.3000;0.1229;3.8043;
1353.6000;0.1197;3.8043;
1353.9000;0.1229;3.8120;
1354.2000;0.1237;3.8094;
1354.5000;0.1229;3.8068;
1354.8000;0.1197;3.8043;
1355.1000;0.1188;3.8043;
1355.4000;0.1205;3.8043;
1355.7000;0.1229;3.8197;
1356.0000;0.1099;3.7914;
1356.3000;0.1180;3.8171;
1356.6000;0.1205;3.8273;
1356.9000;0.1197;3.8273;
1357.2000;0.1221;3.8350;
1357.5000;0.1205;3.8376;
1357.8000;0.1172;3.8350;
1358.1000;0.1213;3.8376;
1358.4000;0.1197;3.8325;
1358.7000;0.1213;3.8248;
1359.0000;0.1205;3.8197;
1359.3000;0.1180;3.8145;
1359.6000;0.1180;3.8197;
1359.9000;0.1197;3.8197;
1360.2000;0.1245;3.8248;
1360.5000;0.1205;3.8017;
1360.8000;0.1221;3.8120;
1361.1000;0.1188;3.8068;
1361.4000;0.1188;3.8043;
1361.7000;0.1229;3.8145;
1362.0000;0.1205;3.8017;
1362.3000;0.1229;3.8017;
1362.6000;0.1148;3.7863;
1362.9000;0.1197;3.8043;
1363.2000;0.1164;3.7914;
1363.5000;0.1221;3.8094;
1363.8000;0.1262;3.8222;
1364.1000;0.1180;3.8094;
1364.4000;0.1213;3.8222;
1364.7000;0.1205;3.8171;
1365.0000;0.1197;3.8068;
1365.3000;0.1180;3.7991;
1365.6000;0.1229;3.8068;
1365.9000;0.1205;3.7966;
1366.2000;0.1213;3.7966;
1366.5000;0.1229;3.8094;
1366.8000;0.1197;3.8043;
1367.1000;0.1229;3.8094;
1367.4000;0.1229;3.8017;
1367.7000;0.1229;3.7966;
1368.0000;0.1205;3.7966;
1368.3000;0.1197;3.8017;
1368.6000;0.1205;3.8120;
1368.9000;0.1213;3.8120;
1369.2000;0.1213;3.8171;
1369.5000;0.1197;3.8197;
1369.8000;0.1197;3.8120;
1370.1000;0.1213;3.8068;
1370.4000;0.1213;3.8145;
1370.7000;0.1197;3.8171;
1371.0000;0.1197;3.8197;
1371.3000;0.1197;3.8145;
1371.6000;0.1213;3.8248;
1371.9000;0.1205;3.8273;
1372.2000;0.1197;3.8273;
1372.5000;0.1221;3.8299;
1372.8000;0.1205;3.8248;
1373.1000;0.1188;3.8325;
1373.4000;0.1197;3.8299;
1373.7000;0.1221;3.8427;
1374.0000;0.1302;3.8633;
1374.3000;0.1188;3.8273;
1374.6000;0.1205;3.8350;
1374.9000;0.1205;3.8273;
1375.2000;0.1245;3.8376;
1375.5000;0.1221;3.8273;
1375.8000;0.1205;3.8197;
1376.1000;0.1221;3.8248;
1376.4000;0.1229;3.8222;
1376.7000;0.1213;3.8197;
1377.0000;0.1205;3.8171;
1377.3000;0.1205;3.8145;
1377.6000;0.1205;3.8120;
1377.9000;0.1213;3.8068;
1378.2000;0.1237;3.8094;
1378.5000;0.1221;3.8017;
1378.8000;0.1213;3.8043;
1379.1000;0.1229;3.8197;
1379.4000;0.1213;3.8094;
1379.7000;0.1197;3.8017;
1380.0000;0.1278;3.8145;
1380.3000;0.1213;3.7889;
1380.6000;0.1205;3.7812;
1380.9000;0.1229;3.7863;
1381.2000;0.1164;3.7735;
1381.5000;0.1205;3.7966;
1381.8000;0.1213;3.8171;
1382.1000;0.1164;3.8017;
1382.4000;0.1229;3.8248;
1382.7000;0.1229;3.8299;
1383.0000;0.1197;3.8094;
1383.3000;0.1221;3.8094;
1383.6000;0.1213;3.8043;
1383.9000;0.1213;3.8094;
1384.2000;0.1278;3.8273;
1384.5000;0.1205;3.8068;
1384.8000;0.1205;3.7991;
1385.1000;0.1335;3.8376;
1385.4000;0.1205;3.8120;
1385.7000;0.1270;3.8273;
1386.0000;0.1205;3.8120;
1386.3000;0.1197;3.8068;
1386.6000;0.1237;3.8145;
1386.9000;0.1131;3.7837;
1387.2000;0.1205;3.8043;
1387.5000;0.1197;3.8043;
1387.8000;0.1205;3.8120;
1388.1000;0.1172;3.8043;
1388.4000;0.1245;3.8273;
1388.7000;0.1221;3.8222;
1389.0000;0.1205;3.8222;
1389.3000;0.1205;3.8197;
1389.6000;0.1221;3.8197;
1389.9000;0.1213;3.8145;
1390.2000;0.1213;3.8171;
1390.5000;0.1278;3.8479;
1390.8000;0.1213;3.8222;
1391.1000;0.1205;3.8171;
1391.4000;0.1188;3.8120;
1391.7000;0.1213;3.8145;
1392.0000;0.1188;3.8171;
1392.3000;0.1213;3.8171;
1392.6000;0.1229;3.8171;
1392.9000;0.1205;3.8068;
1393.2000;0.1205;3.8120;
1393.5000;0.1205;3.8145;
1393.8000;0.1188;3.8120;
1394.1000;0.1205;3.8171;
1394.4000;0.1229;3.8171;
1394.7000;0.1229;3.8145;
1395.0000;0.1197;3.8094;
1395.3000;0.1213;3.8171;
1395.6000;0.1197;3.8197;
1395.9000;0.1140;3.8068;
1396.2000;0.1205;3.8120;
1396.5000;0.1188;3.7991;
1396.8000;0.1213;3.8120;
1397.1000;0.1270;3.8197;
1397.4000;0.1262;3.8171;
1397.7000;0.1205;3.8068;
1398.0000;0.1197;3.7991;
1398.3000;0.1205;3.7991;
1398.6000;0.1213;3.8017;
1398.9000;0.1205;3.7991;
1399.2000;0.1254;3.8120;
1399.5000;0.1213;3.7991;
1399.8000;0.1205;3.7966;
