time/ms;Fluo/V;P700 deltaI/I x10³;
-199.8000;0.1254;3.7914;
-199.5000;0.1254;3.7889;
-199.2000;0.1270;3.7786;
-198.9000;0.1254;3.7760;
-198.6000;0.1221;3.7709;
-198.3000;0.1278;3.7812;
-198.0000;0.1254;3.7837;
-197.7000;0.1213;3.7735;
-197.4000;0.1270;3.7940;
-197.1000;0.1286;3.7940;
-196.8000;0.1213;3.7735;
-196.5000;0.1294;3.7966;
-196.2000;0.1245;3.7812;
-195.9000;0.1262;3.7837;
-195.6000;0.1237;3.7812;
-195.3000;0.1237;3.7837;
-195.0000;0.1188;3.7606;
-194.7000;0.1262;3.7735;
-194.4000;0.1254;3.7632;
-194.1000;0.1099;3.7247;
-193.8000;0.1237;3.7760;
-193.5000;0.1229;3.7735;
-193.2000;0.1262;3.7760;
-192.9000;0.1254;3.7735;
-192.6000;0.1245;3.7786;
-192.3000;0.1270;3.7889;
-192.0000;0.1270;3.7863;
-191.7000;0.1335;3.8017;
-191.4000;0.1286;3.7889;
-191.1000;0.1229;3.7786;
-190.8000;0.1270;3.7863;
-190.5000;0.1156;3.7427;
-190.2000;0.1262;3.7606;
-189.9000;0.1262;3.7658;
-189.6000;0.1237;3.7683;
-189.3000;0.1294;3.7863;
-189.0000;0.1254;3.7735;
-188.7000;0.1115;3.7376;
-188.4000;0.1327;3.7991;
-188.1000;0.1262;3.7837;
-187.8000;0.1229;3.7812;
-187.5000;0.1319;3.7966;
-187.2000;0.1245;3.7735;
-186.9000;0.1270;3.7863;
-186.6000;0.1270;3.7786;
-186.3000;0.1172;3.7555;
-186.0000;0.1188;3.7581;
-185.7000;0.1270;3.7786;
-185.4000;0.1286;3.7837;
-185.1000;0.1229;3.7760;
-184.8000;0.1205;3.7735;
-184.5000;0.1262;3.7889;
-184.2000;0.1262;3.7966;
-183.9000;0.1302;3.7991;
-183.6000;0.1156;3.7530;
-183.3000;0.1245;3.7914;
-183.0000;0.1294;3.7991;
-182.7000;0.1343;3.8197;
-182.4000;0.1262;3.7914;
-182.1000;0.1245;3.7889;
-181.8000;0.1254;3.7966;
-181.5000;0.1237;3.7863;
-181.2000;0.1254;3.7914;
-180.9000;0.1270;3.7889;
-180.6000;0.1262;3.7786;
-180.3000;0.1245;3.7760;
-180.0000;0.1302;3.7837;
-179.7000;0.1237;3.7735;
-179.4000;0.1262;3.7812;
-179.1000;0.1254;3.7837;
-178.8000;0.1262;3.7812;
-178.5000;0.1262;3.7812;
-178.2000;0.1286;3.7812;
-177.9000;0.1262;3.7760;
-177.6000;0.1278;3.7812;
-177.3000;0.1262;3.7760;
-177.0000;0.1254;3.7709;
-176.7000;0.1278;3.7837;
-176.4000;0.1278;3.7889;
-176.1000;0.1311;3.8068;
-175.8000;0.1254;3.7966;
-175.5000;0.1254;3.7991;
-175.2000;0.1278;3.8145;
-174.9000;0.1262;3.8094;
-174.6000;0.1254;3.8043;
-174.3000;0.1302;3.8120;
-174.0000;0.1262;3.7966;
-173.7000;0.1245;3.7966;
-173.4000;0.1278;3.7914;
-173.1000;0.1262;3.7991;
-172.8000;0.1270;3.8068;
-172.5000;0.1278;3.8171;
-172.2000;0.1262;3.8094;
-171.9000;0.1229;3.7991;
-171.6000;0.1262;3.8043;
-171.3000;0.1270;3.8043;
-171.0000;0.1254;3.8017;
-170.7000;0.1245;3.7889;
-170.4000;0.1245;3.7940;
-170.1000;0.1245;3.7889;
-169.8000;0.1262;3.7991;
-169.5000;0.1254;3.7940;
-169.2000;0.1319;3.8094;
-168.9000;0.1197;3.7760;
-168.6000;0.1254;3.7966;
-168.3000;0.1254;3.7940;
-168.0000;0.1245;3.7991;
-167.7000;0.1262;3.7991;
-167.4000;0.1245;3.7991;
-167.1000;0.1254;3.8043;
-166.8000;0.1148;3.7709;
-166.5000;0.1254;3.8043;
-166.2000;0.1262;3.8094;
-165.9000;0.1262;3.8068;
-165.6000;0.1262;3.8094;
-165.3000;0.1262;3.8145;
-165.0000;0.1311;3.8376;
-164.7000;0.1270;3.8273;
-164.4000;0.1262;3.8145;
-164.1000;0.1262;3.8068;
-163.8000;0.1254;3.7991;
-163.5000;0.1270;3.8017;
-163.2000;0.1254;3.7889;
-162.9000;0.1254;3.7889;
-162.6000;0.1262;3.7863;
-162.3000;0.1245;3.7837;
-162.0000;0.1254;3.7863;
-161.7000;0.1254;3.7863;
-161.4000;0.1237;3.7812;
-161.1000;0.1262;3.7966;
-160.8000;0.1245;3.7940;
-160.5000;0.1229;3.7991;
-160.2000;0.1262;3.8043;
-159.9000;0.1319;3.8248;
-159.6000;0.1262;3.8171;
-159.3000;0.1262;3.8120;
-159.0000;0.1254;3.8017;
-158.7000;0.1262;3.8094;
-158.4000;0.1384;3.8530;
-158.1000;0.1245;3.8120;
-157.8000;0.1262;3.8094;
-157.5000;0.1262;3.8043;
-157.2000;0.1262;3.8120;
-156.9000;0.1245;3.8068;
-156.6000;0.1254;3.8043;
-156.3000;0.1351;3.8273;
-156.0000;0.1229;3.7940;
-155.7000;0.1270;3.8017;
-155.4000;0.1229;3.7991;
-155.1000;0.1237;3.7991;
-154.8000;0.1245;3.8094;
-154.5000;0.1270;3.8222;
-154.2000;0.1262;3.8171;
-153.9000;0.1262;3.8171;
-153.6000;0.1270;3.8248;
-153.3000;0.1270;3.8197;
-153.0000;0.1254;3.8094;
-152.7000;0.1254;3.8145;
-152.4000;0.1262;3.8120;
-152.1000;0.1254;3.8094;
-151.8000;0.1343;3.8325;
-151.5000;0.1278;3.8222;
-151.2000;0.1254;3.8094;
-150.9000;0.1294;3.8197;
-150.6000;0.1172;3.7863;
-150.3000;0.1254;3.8017;
-150.0000;0.1270;3.8068;
-149.7000;0.1262;3.8094;
-149.4000;0.1254;3.8094;
-149.1000;0.1262;3.8197;
-148.8000;0.1270;3.8248;
-148.5000;0.1270;3.8299;
-148.2000;0.1245;3.8248;
-147.9000;0.1270;3.8325;
-147.6000;0.1254;3.8222;
-147.3000;0.1245;3.8094;
-147.0000;0.1286;3.8120;
-146.7000;0.1262;3.8043;
-146.4000;0.1278;3.8120;
-146.1000;0.1270;3.8094;
-145.8000;0.1376;3.8427;
-145.5000;0.1286;3.8145;
-145.2000;0.1229;3.8043;
-144.9000;0.1262;3.8094;
-144.6000;0.1254;3.8017;
-144.3000;0.1270;3.8094;
-144.0000;0.1302;3.8197;
-143.7000;0.1140;3.7683;
-143.4000;0.1286;3.8043;
-143.1000;0.1237;3.7940;
-142.8000;0.1188;3.7786;
-142.5000;0.1262;3.8017;
-142.2000;0.1270;3.8043;
-141.9000;0.1254;3.8017;
-141.6000;0.1254;3.8094;
-141.3000;0.1221;3.7940;
-141.0000;0.1229;3.7914;
-140.7000;0.1262;3.8068;
-140.4000;0.1254;3.8043;
-140.1000;0.1229;3.8043;
-139.8000;0.1270;3.8197;
-139.5000;0.1262;3.8145;
-139.2000;0.1229;3.8043;
-138.9000;0.1254;3.8094;
-138.6000;0.1262;3.8068;
-138.3000;0.1278;3.8094;
-138.0000;0.1270;3.8068;
-137.7000;0.1311;3.8222;
-137.4000;0.1262;3.8017;
-137.1000;0.1302;3.8145;
-136.8000;0.1270;3.8120;
-136.5000;0.1262;3.8068;
-136.2000;0.1254;3.7991;
-135.9000;0.1245;3.7991;
-135.6000;0.1245;3.7914;
-135.3000;0.1197;3.7709;
-135.0000;0.1270;3.7940;
-134.7000;0.1294;3.8017;
-134.4000;0.1278;3.7966;
-134.1000;0.1270;3.7991;
-133.8000;0.1270;3.7889;
-133.5000;0.1278;3.7940;
-133.2000;0.1278;3.8017;
-132.9000;0.1270;3.8017;
-132.6000;0.1237;3.7863;
-132.3000;0.1311;3.8094;
-132.0000;0.1262;3.7940;
-131.7000;0.1237;3.7837;
-131.4000;0.1254;3.7966;
-131.1000;0.1254;3.7940;
-130.8000;0.1254;3.8017;
-130.5000;0.1294;3.8145;
-130.2000;0.1254;3.7914;
-129.9000;0.1384;3.8197;
-129.6000;0.1254;3.7760;
-129.3000;0.1278;3.7966;
-129.0000;0.1278;3.7966;
-128.7000;0.1254;3.7966;
-128.4000;0.1294;3.8120;
-128.1000;0.1278;3.8043;
-127.8000;0.1254;3.7914;
-127.5000;0.1270;3.7940;
-127.2000;0.1270;3.7914;
-126.9000;0.1270;3.7837;
-126.6000;0.1343;3.8068;
-126.3000;0.1237;3.7760;
-126.0000;0.1237;3.7786;
-125.7000;0.1270;3.7889;
-125.4000;0.1262;3.7914;
-125.1000;0.1400;3.8325;
-124.8000;0.1188;3.7786;
-124.5000;0.1237;3.8043;
-124.2000;0.1254;3.8043;
-123.9000;0.1254;3.7966;
-123.6000;0.1270;3.7914;
-123.3000;0.1254;3.7940;
-123.0000;0.1262;3.8017;
-122.7000;0.1254;3.8068;
-122.4000;0.1245;3.8120;
-122.1000;0.1245;3.8145;
-121.8000;0.1237;3.8068;
-121.5000;0.1262;3.8017;
-121.2000;0.1245;3.8017;
-120.9000;0.1278;3.8043;
-120.6000;0.1245;3.8068;
-120.3000;0.1245;3.8068;
-120.0000;0.1188;3.7863;
-119.7000;0.1245;3.8120;
-119.4000;0.1245;3.7966;
-119.1000;0.1262;3.7966;
-118.8000;0.1351;3.8197;
-118.5000;0.1237;3.7914;
-118.2000;0.1254;3.7991;
-117.9000;0.1278;3.8197;
-117.6000;0.1262;3.8197;
-117.3000;0.1286;3.8248;
-117.0000;0.1262;3.8197;
-116.7000;0.1278;3.8145;
-116.4000;0.1294;3.8145;
-116.1000;0.1205;3.7889;
-115.8000;0.1237;3.8017;
-115.5000;0.1262;3.8043;
-115.2000;0.1254;3.8094;
-114.9000;0.1270;3.8273;
-114.6000;0.1262;3.8171;
-114.3000;0.1245;3.8222;
-114.0000;0.1270;3.8197;
-113.7000;0.1278;3.8197;
-113.4000;0.1245;3.8145;
-113.1000;0.1270;3.8197;
-112.8000;0.1262;3.8145;
-112.5000;0.1254;3.8145;
-112.2000;0.1245;3.8094;
-111.9000;0.1229;3.8017;
-111.6000;0.1270;3.8068;
-111.3000;0.1254;3.8068;
-111.0000;0.1294;3.8120;
-110.7000;0.1262;3.8017;
-110.4000;0.1237;3.8017;
-110.1000;0.1221;3.8094;
-109.8000;0.1262;3.8120;
-109.5000;0.1270;3.8068;
-109.2000;0.1245;3.7991;
-108.9000;0.1237;3.8017;
-108.6000;0.1262;3.8068;
-108.3000;0.1270;3.8094;
-108.0000;0.1286;3.8145;
-107.7000;0.1270;3.8094;
-107.4000;0.1286;3.8197;
-107.1000;0.1384;3.8479;
-106.8000;0.1270;3.8145;
-106.5000;0.1384;3.8530;
-106.2000;0.1237;3.8043;
-105.9000;0.1197;3.7940;
-105.6000;0.1270;3.8197;
-105.3000;0.1221;3.8043;
-105.0000;0.1278;3.8145;
-104.7000;0.1319;3.8222;
-104.4000;0.1270;3.8017;
-104.1000;0.1245;3.7940;
-103.8000;0.1270;3.7966;
-103.5000;0.1262;3.7991;
-103.2000;0.1270;3.7991;
-102.9000;0.1302;3.8094;
-102.6000;0.1213;3.7914;
-102.3000;0.1270;3.8017;
-102.0000;0.1262;3.7966;
-101.7000;0.1254;3.7966;
-101.4000;0.1278;3.8043;
-101.1000;0.1278;3.8094;
-100.8000;0.1343;3.8376;
-100.5000;0.1237;3.8120;
-100.2000;0.1245;3.8145;
-99.9000;0.1254;3.8145;
-99.6000;0.1254;3.8197;
-99.3000;0.1237;3.8120;
-99.0000;0.1262;3.8197;
-98.7000;0.1254;3.8145;
-98.4000;0.1254;3.8043;
-98.1000;0.1262;3.8043;
-97.8000;0.1270;3.8017;
-97.5000;0.1262;3.8017;
-97.2000;0.1286;3.8094;
-96.9000;0.1302;3.8197;
-96.6000;0.1278;3.8120;
-96.3000;0.1270;3.8094;
-96.0000;0.1262;3.8017;
-95.7000;0.1278;3.8145;
-95.4000;0.1245;3.8094;
-95.1000;0.1254;3.8120;
-94.8000;0.1245;3.8120;
-94.5000;0.1286;3.8222;
-94.2000;0.1262;3.8120;
-93.9000;0.1237;3.8017;
-93.6000;0.1237;3.7991;
-93.3000;0.1245;3.7914;
-93.0000;0.1254;3.7889;
-92.7000;0.1376;3.8197;
-92.4000;0.1262;3.7966;
-92.1000;0.1270;3.8017;
-91.8000;0.1278;3.7991;
-91.5000;0.1172;3.7632;
-91.2000;0.1262;3.7966;
-90.9000;0.1254;3.7889;
-90.6000;0.1245;3.7837;
-90.3000;0.1262;3.7966;
-90.0000;0.1254;3.8017;
-89.7000;0.1262;3.8120;
-89.4000;0.1254;3.8043;
-89.1000;0.1262;3.8043;
-88.8000;0.1237;3.8068;
-88.5000;0.1278;3.8145;
-88.2000;0.1286;3.8145;
-87.9000;0.1245;3.8120;
-87.6000;0.1254;3.8120;
-87.3000;0.1254;3.8171;
-87.0000;0.1237;3.8120;
-86.7000;0.1270;3.8171;
-86.4000;0.1270;3.8068;
-86.1000;0.1278;3.8068;
-85.8000;0.1278;3.8120;
-85.5000;0.1254;3.8043;
-85.2000;0.1254;3.7966;
-84.9000;0.1262;3.8017;
-84.6000;0.1302;3.8222;
-84.3000;0.1262;3.8094;
-84.0000;0.1237;3.8043;
-83.7000;0.1237;3.8043;
-83.4000;0.1245;3.7991;
-83.1000;0.1254;3.8017;
-82.8000;0.1229;3.7966;
-82.5000;0.1254;3.7966;
-82.2000;0.1254;3.7966;
-81.9000;0.1254;3.7889;
-81.6000;0.1262;3.7863;
-81.3000;0.1262;3.7940;
-81.0000;0.1254;3.7863;
-80.7000;0.1270;3.7991;
-80.4000;0.1262;3.8017;
-80.1000;0.1262;3.8043;
-79.8000;0.1245;3.7966;
-79.5000;0.1262;3.7966;
-79.2000;0.1262;3.7991;
-78.9000;0.1237;3.7966;
-78.6000;0.1262;3.8017;
-78.3000;0.1245;3.7914;
-78.0000;0.1351;3.8222;
-77.7000;0.1359;3.8325;
-77.4000;0.1262;3.8017;
-77.1000;0.1254;3.7966;
-76.8000;0.1262;3.7991;
-76.5000;0.1245;3.7991;
-76.2000;0.1262;3.7966;
-75.9000;0.1270;3.7940;
-75.6000;0.1254;3.7889;
-75.3000;0.1245;3.7914;
-75.0000;0.1270;3.7940;
-74.7000;0.1245;3.7914;
-74.4000;0.1245;3.7786;
-74.1000;0.1237;3.7735;
-73.8000;0.1237;3.7760;
-73.5000;0.1245;3.7812;
-73.2000;0.1254;3.7914;
-72.9000;0.1286;3.8017;
-72.6000;0.1376;3.8273;
-72.3000;0.1262;3.7914;
-72.0000;0.1197;3.7812;
-71.7000;0.1197;3.7889;
-71.4000;0.1254;3.7966;
-71.1000;0.1237;3.7966;
-70.8000;0.1262;3.7940;
-70.5000;0.1262;3.8017;
-70.2000;0.1254;3.8068;
-69.9000;0.1270;3.7991;
-69.6000;0.1262;3.8068;
-69.3000;0.1245;3.8068;
-69.0000;0.1335;3.8376;
-68.7000;0.1245;3.8017;
-68.4000;0.1229;3.7966;
-68.1000;0.1286;3.8171;
-67.8000;0.1245;3.8017;
-67.5000;0.1221;3.7940;
-67.2000;0.1278;3.8145;
-66.9000;0.1245;3.8145;
-66.6000;0.1221;3.8094;
-66.3000;0.1237;3.8120;
-66.0000;0.1376;3.8556;
-65.7000;0.1270;3.8248;
-65.4000;0.1262;3.8248;
-65.1000;0.1270;3.8248;
-64.8000;0.1254;3.8222;
-64.5000;0.1123;3.7735;
-64.2000;0.1245;3.8068;
-63.9000;0.1254;3.8043;
-63.6000;0.1262;3.8222;
-63.3000;0.1327;3.8453;
-63.0000;0.1262;3.8145;
-62.7000;0.1237;3.8171;
-62.4000;0.1351;3.8504;
-62.1000;0.1180;3.7991;
-61.8000;0.1229;3.8197;
-61.5000;0.1270;3.8273;
-61.2000;0.1278;3.8145;
-60.9000;0.1278;3.8120;
-60.6000;0.1188;3.7863;
-60.3000;0.1237;3.7966;
-60.0000;0.1254;3.8017;
-59.7000;0.1254;3.7991;
-59.4000;0.1213;3.7863;
-59.1000;0.1254;3.8017;
-58.8000;0.1262;3.8068;
-58.5000;0.1286;3.8120;
-58.2000;0.1254;3.8043;
-57.9000;0.1197;3.7889;
-57.6000;0.1237;3.8017;
-57.3000;0.1270;3.8017;
-57.0000;0.1229;3.7889;
-56.7000;0.1270;3.8043;
-56.4000;0.1270;3.8120;
-56.1000;0.1286;3.8171;
-55.8000;0.1245;3.8120;
-55.5000;0.1254;3.8145;
-55.2000;0.1270;3.8145;
-54.9000;0.1270;3.8222;
-54.6000;0.1270;3.8197;
-54.3000;0.1262;3.8145;
-54.0000;0.1294;3.8248;
-53.7000;0.1270;3.8094;
-53.4000;0.1262;3.8094;
-53.1000;0.1213;3.7940;
-52.8000;0.1262;3.7991;
-52.5000;0.1278;3.8068;
-52.2000;0.1286;3.8068;
-51.9000;0.1270;3.8017;
-51.6000;0.1262;3.7966;
-51.3000;0.1254;3.7991;
-51.0000;0.1205;3.7889;
-50.7000;0.1254;3.8068;
-50.4000;0.1245;3.8043;
-50.1000;0.1343;3.8273;
-49.8000;0.1172;3.7812;
-49.5000;0.1262;3.8145;
-49.2000;0.1270;3.8197;
-48.9000;0.1278;3.8197;
-48.6000;0.1245;3.8273;
-48.3000;0.1254;3.8248;
-48.0000;0.1270;3.8273;
-47.7000;0.1254;3.8222;
-47.4000;0.1270;3.8197;
-47.1000;0.1229;3.8171;
-46.8000;0.1254;3.8299;
-46.5000;0.1262;3.8248;
-46.2000;0.1148;3.7889;
-45.9000;0.1254;3.8248;
-45.6000;0.1343;3.8504;
-45.3000;0.1254;3.8299;
-45.0000;0.1237;3.8171;
-44.7000;0.1237;3.8145;
-44.4000;0.1245;3.8120;
-44.1000;0.1278;3.8120;
-43.8000;0.1278;3.8171;
-43.5000;0.1245;3.8043;
-43.2000;0.1278;3.8068;
-42.9000;0.1245;3.8017;
-42.6000;0.1254;3.8068;
-42.3000;0.1278;3.8043;
-42.0000;0.1197;3.7914;
-41.7000;0.1270;3.8017;
-41.4000;0.1245;3.8017;
-41.1000;0.1254;3.8068;
-40.8000;0.1254;3.8017;
-40.5000;0.1213;3.7914;
-40.2000;0.1254;3.8043;
-39.9000;0.1229;3.7914;
-39.6000;0.1237;3.7940;
-39.3000;0.1278;3.8068;
-39.0000;0.1270;3.8068;
-38.7000;0.1286;3.8094;
-38.4000;0.1270;3.8120;
-38.1000;0.1327;3.8273;
-37.8000;0.1254;3.8145;
-37.5000;0.1245;3.8171;
-37.2000;0.1262;3.8145;
-36.9000;0.1254;3.8094;
-36.6000;0.1254;3.7966;
-36.3000;0.1237;3.7940;
-36.0000;0.1254;3.7966;
-35.7000;0.1237;3.7940;
-35.4000;0.1156;3.7735;
-35.1000;0.1245;3.7991;
-34.8000;0.1319;3.8222;
-34.5000;0.1245;3.8094;
-34.2000;0.1270;3.8197;
-33.9000;0.1245;3.8197;
-33.6000;0.1262;3.8273;
-33.3000;0.1245;3.8273;
-33.0000;0.1270;3.8299;
-32.7000;0.1294;3.8350;
-32.4000;0.1237;3.8145;
-32.1000;0.1237;3.8145;
-31.8000;0.1237;3.8094;
-31.5000;0.1262;3.8145;
-31.2000;0.1270;3.8145;
-30.9000;0.1213;3.8068;
-30.6000;0.1302;3.8299;
-30.3000;0.1221;3.8094;
-30.0000;0.1254;3.8350;
-29.7000;0.1221;3.8248;
-29.4000;0.1262;3.8453;
-29.1000;0.1319;3.8556;
-28.8000;0.1237;3.8248;
-28.5000;0.1278;3.8402;
-28.2000;0.1262;3.8402;
-27.9000;0.1262;3.8376;
-27.6000;0.1262;3.8273;
-27.3000;0.1270;3.8350;
-27.0000;0.1237;3.8120;
-26.7000;0.1262;3.8248;
-26.4000;0.1270;3.8350;
-26.1000;0.1254;3.8427;
-25.8000;0.1221;3.8248;
-25.5000;0.1262;3.8222;
-25.2000;0.1270;3.8299;
-24.9000;0.1254;3.8248;
-24.6000;0.1286;3.8350;
-24.3000;0.1278;3.8273;
-24.0000;0.1270;3.8171;
-23.7000;0.1254;3.8171;
-23.4000;0.1262;3.8145;
-23.1000;0.1286;3.8222;
-22.8000;0.1294;3.8222;
-22.5000;0.1262;3.8094;
-22.2000;0.1270;3.8094;
-21.9000;0.1254;3.8094;
-21.6000;0.1262;3.8068;
-21.3000;0.1213;3.8068;
-21.0000;0.1278;3.8273;
-20.7000;0.1254;3.8222;
-20.4000;0.1262;3.8325;
-20.1000;0.1229;3.8273;
-19.8000;0.1237;3.8299;
-19.5000;0.1221;3.8222;
-19.2000;0.1254;3.8273;
-18.9000;0.1262;3.8273;
-18.6000;0.1254;3.8171;
-18.3000;0.1286;3.8273;
-18.0000;0.1254;3.8145;
-17.7000;0.1254;3.8120;
-17.4000;0.1262;3.8120;
-17.1000;0.1213;3.8017;
-16.8000;0.1262;3.8171;
-16.5000;0.1262;3.8222;
-16.2000;0.1229;3.8120;
-15.9000;0.1229;3.8068;
-15.6000;0.1245;3.8068;
-15.3000;0.1229;3.8017;
-15.0000;0.1254;3.8043;
-14.7000;0.1294;3.8197;
-14.4000;0.1270;3.8094;
-14.1000;0.1245;3.7966;
-13.8000;0.1335;3.8145;
-13.5000;0.1245;3.7863;
-13.2000;0.1254;3.7914;
-12.9000;0.1262;3.7889;
-12.6000;0.1270;3.7991;
-12.3000;0.1278;3.8068;
-12.0000;0.1221;3.7914;
-11.7000;0.1319;3.8145;
-11.4000;0.1254;3.7991;
-11.1000;0.1245;3.7991;
-10.8000;0.1254;3.8017;
-10.5000;0.1278;3.8068;
-10.2000;0.1254;3.7966;
-9.9000;0.1237;3.7812;
-9.6000;0.1237;3.7786;
-9.3000;0.1270;3.7837;
-9.0000;0.1213;3.7709;
-8.7000;0.1319;3.7991;
-8.4000;0.1278;3.7914;
-8.1000;0.1245;3.7786;
-7.8000;0.1254;3.7889;
-7.5000;0.1286;3.8017;
-7.2000;0.1278;3.8017;
-6.9000;0.1262;3.7914;
-6.6000;0.1245;3.7889;
-6.3000;0.1278;3.7940;
-6.0000;0.1262;3.7966;
-5.7000;0.1319;3.8145;
-5.4000;0.1254;3.8043;
-5.1000;0.1237;3.7966;
-4.8000;0.1270;3.7991;
-4.5000;0.1245;3.7940;
-4.2000;0.1278;3.7991;
-3.9000;0.1237;3.7837;
-3.6000;0.1270;3.7914;
-3.3000;0.1270;3.8017;
-3.0000;0.1262;3.7966;
-2.7000;0.1245;3.7863;
-2.4000;0.1229;3.7812;
-2.1000;0.1245;3.7863;
-1.8000;0.1254;3.7889;
-1.5000;0.1270;3.7966;
-1.2000;0.1229;3.7940;
-0.9000;0.1270;3.8068;
-0.6000;0.1254;3.7991;
-0.3000;0.1245;3.7940;
0.0000;0.1245;3.7940;
0.3000;0.1270;3.7889;
0.6000;0.1294;3.7863;
0.9000;0.1319;3.8043;
1.2000;0.1319;3.8094;
1.5000;0.1368;3.8248;
1.8000;0.1376;3.8453;
2.1000;0.1400;3.8581;
2.4000;0.1547;3.9069;
2.7000;0.1384;3.8710;
3.0000;0.1408;3.8915;
3.3000;0.1384;3.8940;
3.6000;0.1416;3.9017;
3.9000;0.1408;3.8940;
4.2000;0.1416;3.9069;
4.5000;0.1327;3.8812;
4.8000;0.1433;3.9146;
5.1000;0.1449;3.9171;
5.4000;0.1408;3.9120;
5.7000;0.1425;3.9197;
6.0000;0.1416;3.9146;
6.3000;0.1425;3.9146;
6.6000;0.1457;3.9274;
6.9000;0.1433;3.9248;
7.2000;0.1449;3.9248;
7.5000;0.1425;3.9197;
7.8000;0.1376;3.9094;
8.1000;0.1465;3.9377;
8.4000;0.1441;3.9351;
8.7000;0.1449;3.9351;
9.0000;0.1433;3.9402;
9.3000;0.1449;3.9300;
9.6000;0.1449;3.9274;
9.9000;0.1449;3.9300;
10.2000;0.1425;3.9248;
10.5000;0.1408;3.9197;
10.8000;0.1465;3.9479;
11.1000;0.1441;3.9402;
11.4000;0.1441;3.9377;
11.7000;0.1425;3.9248;
12.0000;0.1416;3.9146;
12.3000;0.1465;3.9377;
12.6000;0.1392;3.9120;
12.9000;0.1457;3.9402;
13.2000;0.1571;3.9710;
13.5000;0.1473;3.9505;
13.8000;0.1449;3.9428;
14.1000;0.1506;3.9607;
14.4000;0.1425;3.9377;
14.7000;0.1449;3.9377;
15.0000;0.1465;3.9505;
15.3000;0.1449;3.9402;
15.6000;0.1457;3.9428;
15.9000;0.1425;3.9428;
16.2000;0.1457;3.9428;
16.5000;0.1449;3.9402;
16.8000;0.1465;3.9377;
17.1000;0.1473;3.9428;
17.4000;0.1465;3.9428;
17.7000;0.1457;3.9505;
18.0000;0.1457;3.9453;
18.3000;0.1473;3.9479;
18.6000;0.1473;3.9530;
18.9000;0.1465;3.9505;
19.2000;0.1457;3.9428;
19.5000;0.1498;3.9505;
19.8000;0.1473;3.9505;
20.1000;0.1490;3.9633;
20.4000;0.1433;3.9377;
20.7000;0.1465;3.9505;
21.0000;0.1449;3.9402;
21.3000;0.1481;3.9428;
21.6000;0.1441;3.9300;
21.9000;0.1473;3.9402;
22.2000;0.1400;3.9197;
22.5000;0.1465;3.9428;
22.8000;0.1473;3.9530;
23.1000;0.1481;3.9633;
23.4000;0.1465;3.9607;
23.7000;0.1490;3.9607;
24.0000;0.1563;3.9890;
24.3000;0.1449;3.9530;
24.6000;0.1473;3.9659;
24.9000;0.1465;3.9633;
25.2000;0.1490;3.9710;
25.5000;0.1473;3.9684;
25.8000;0.1465;3.9633;
26.1000;0.1465;3.9633;
26.4000;0.1604;3.9992;
26.7000;0.1490;3.9530;
27.0000;0.1465;3.9453;
27.3000;0.1498;3.9505;
27.6000;0.1481;3.9556;
27.9000;0.1490;3.9582;
28.2000;0.1473;3.9556;
28.5000;0.1441;3.9479;
28.8000;0.1490;3.9530;
29.1000;0.1490;3.9530;
29.4000;0.1481;3.9582;
29.7000;0.1481;3.9530;
30.0000;0.1490;3.9505;
30.3000;0.1498;3.9582;
30.6000;0.1506;3.9530;
30.9000;0.1408;3.9402;
31.2000;0.1490;3.9633;
31.5000;0.1481;3.9607;
31.8000;0.1481;3.9607;
32.1000;0.1473;3.9607;
32.4000;0.1465;3.9530;
32.7000;0.1481;3.9530;
33.0000;0.1498;3.9505;
33.3000;0.1481;3.9428;
33.6000;0.1490;3.9505;
33.9000;0.1490;3.9428;
34.2000;0.1490;3.9428;
34.5000;0.1538;3.9582;
34.8000;0.1490;3.9428;
35.1000;0.1506;3.9505;
35.4000;0.1473;3.9453;
35.7000;0.1490;3.9479;
36.0000;0.1506;3.9530;
36.3000;0.1481;3.9479;
36.6000;0.1490;3.9402;
36.9000;0.1441;3.9223;
37.2000;0.1481;3.9325;
37.5000;0.1490;3.9248;
37.8000;0.1490;3.9223;
38.1000;0.1481;3.9197;
38.4000;0.1506;3.9171;
38.7000;0.1481;3.9171;
39.0000;0.1555;3.9351;
39.3000;0.1506;3.9197;
39.6000;0.1498;3.9223;
39.9000;0.1530;3.9300;
40.2000;0.1465;3.9146;
40.5000;0.1506;3.9197;
40.8000;0.1498;3.9325;
41.1000;0.1490;3.9300;
41.4000;0.1604;3.9633;
41.7000;0.1498;3.9351;
42.0000;0.1506;3.9351;
42.3000;0.1490;3.9274;
42.6000;0.1481;3.9325;
42.9000;0.1506;3.9428;
43.2000;0.1481;3.9325;
43.5000;0.1481;3.9325;
43.8000;0.1392;3.8992;
44.1000;0.1522;3.9402;
44.4000;0.1481;3.9300;
44.7000;0.1514;3.9351;
45.0000;0.1498;3.9402;
45.3000;0.1514;3.9428;
45.6000;0.1498;3.9479;
45.9000;0.1514;3.9505;
46.2000;0.1522;3.9582;
46.5000;0.1514;3.9607;
46.8000;0.1473;3.9479;
47.1000;0.1490;3.9530;
47.4000;0.1538;3.9659;
47.7000;0.1481;3.9479;
48.0000;0.1416;3.9351;
48.3000;0.1506;3.9556;
48.6000;0.1522;3.9607;
48.9000;0.1498;3.9582;
49.2000;0.1473;3.9530;
49.5000;0.1498;3.9607;
49.8000;0.1498;3.9505;
50.1000;0.1506;3.9505;
50.4000;0.1514;3.9479;
50.7000;0.1514;3.9505;
51.0000;0.1530;3.9505;
51.3000;0.1498;3.9377;
51.6000;0.1514;3.9453;
51.9000;0.1498;3.9530;
52.2000;0.1392;3.9171;
52.5000;0.1498;3.9479;
52.8000;0.1514;3.9505;
53.1000;0.1498;3.9428;
53.4000;0.1514;3.9325;
53.7000;0.1473;3.9223;
54.0000;0.1465;3.9248;
54.3000;0.1506;3.9351;
54.6000;0.1490;3.9248;
54.9000;0.1563;3.9453;
55.2000;0.1498;3.9248;
55.5000;0.1538;3.9453;
55.8000;0.1547;3.9582;
56.1000;0.1514;3.9556;
56.4000;0.1481;3.9377;
56.7000;0.1506;3.9453;
57.0000;0.1506;3.9505;
57.3000;0.1457;3.9325;
57.6000;0.1498;3.9377;
57.9000;0.1514;3.9377;
58.2000;0.1522;3.9453;
58.5000;0.1490;3.9274;
58.8000;0.1498;3.9402;
59.1000;0.1481;3.9402;
59.4000;0.1506;3.9505;
59.7000;0.1498;3.9453;
60.0000;0.1514;3.9479;
60.3000;0.1506;3.9402;
60.6000;0.1449;3.9428;
60.9000;0.1595;3.9890;
61.2000;0.1506;3.9633;
61.5000;0.1498;3.9479;
61.8000;0.1506;3.9505;
62.1000;0.1522;3.9530;
62.4000;0.1498;3.9505;
62.7000;0.1498;3.9453;
63.0000;0.1498;3.9377;
63.3000;0.1449;3.9223;
63.6000;0.1498;3.9351;
63.9000;0.1506;3.9402;
64.2000;0.1449;3.9325;
64.5000;0.1506;3.9479;
64.8000;0.1506;3.9453;
65.1000;0.1514;3.9428;
65.4000;0.1490;3.9377;
65.7000;0.1473;3.9325;
66.0000;0.1514;3.9402;
66.3000;0.1481;3.9351;
66.6000;0.1506;3.9351;
66.9000;0.1498;3.9325;
67.2000;0.1498;3.9300;
67.5000;0.1514;3.9248;
67.8000;0.1506;3.9274;
68.1000;0.1490;3.9171;
68.4000;0.1547;3.9351;
68.7000;0.1514;3.9223;
69.0000;0.1490;3.9146;
69.3000;0.1473;3.9146;
69.6000;0.1498;3.9223;
69.9000;0.1547;3.9248;
70.2000;0.1522;3.9248;
70.5000;0.1522;3.9171;
70.8000;0.1514;3.9197;
71.1000;0.1538;3.9300;
71.4000;0.1498;3.9197;
71.7000;0.1498;3.9223;
72.0000;0.1514;3.9248;
72.3000;0.1522;3.9300;
72.6000;0.1498;3.9300;
72.9000;0.1514;3.9325;
73.2000;0.1506;3.9223;
73.5000;0.1522;3.9248;
73.8000;0.1522;3.9223;
74.1000;0.1514;3.9171;
74.4000;0.1514;3.9274;
74.7000;0.1498;3.9223;
75.0000;0.1441;3.9094;
75.3000;0.1506;3.9248;
75.6000;0.1514;3.9274;
75.9000;0.1530;3.9351;
76.2000;0.1514;3.9351;
76.5000;0.1522;3.9377;
76.8000;0.1514;3.9248;
77.1000;0.1514;3.9248;
77.4000;0.1498;3.9248;
77.7000;0.1498;3.9274;
78.0000;0.1579;3.9530;
78.3000;0.1506;3.9248;
78.6000;0.1522;3.9274;
78.9000;0.1522;3.9248;
79.2000;0.1522;3.9300;
79.5000;0.1498;3.9248;
79.8000;0.1514;3.9274;
80.1000;0.1449;3.9043;
80.4000;0.1530;3.9197;
80.7000;0.1490;3.9069;
81.0000;0.1433;3.8863;
81.3000;0.1481;3.9146;
81.6000;0.1547;3.9428;
81.9000;0.1522;3.9351;
82.2000;0.1506;3.9325;
82.5000;0.1579;3.9556;
82.8000;0.1522;3.9351;
83.1000;0.1530;3.9325;
83.4000;0.1506;3.9248;
83.7000;0.1522;3.9300;
84.0000;0.1620;3.9582;
84.3000;0.1514;3.9274;
84.6000;0.1498;3.9171;
84.9000;0.1547;3.9377;
85.2000;0.1481;3.9274;
85.5000;0.1514;3.9325;
85.8000;0.1498;3.9300;
86.1000;0.1481;3.9248;
86.4000;0.1506;3.9377;
86.7000;0.1522;3.9402;
87.0000;0.1498;3.9325;
87.3000;0.1481;3.9274;
87.6000;0.1522;3.9377;
87.9000;0.1530;3.9274;
88.2000;0.1522;3.9248;
88.5000;0.1522;3.9300;
88.8000;0.1506;3.9274;
89.1000;0.1555;3.9377;
89.4000;0.1465;3.9197;
89.7000;0.1522;3.9351;
90.0000;0.1530;3.9402;
90.3000;0.1498;3.9300;
90.6000;0.1530;3.9325;
90.9000;0.1506;3.9300;
91.2000;0.1498;3.9325;
91.5000;0.1547;3.9453;
91.8000;0.1490;3.9351;
92.1000;0.1506;3.9377;
92.4000;0.1514;3.9377;
92.7000;0.1522;3.9377;
93.0000;0.1506;3.9300;
93.3000;0.1506;3.9402;
93.6000;0.1490;3.9479;
93.9000;0.1522;3.9453;
94.2000;0.1514;3.9479;
94.5000;0.1522;3.9428;
94.8000;0.1555;3.9505;
95.1000;0.1498;3.9351;
95.4000;0.1522;3.9325;
95.7000;0.1506;3.9248;
96.0000;0.1449;3.9017;
96.3000;0.1514;3.9248;
96.6000;0.1514;3.9274;
96.9000;0.1506;3.9274;
97.2000;0.1498;3.9274;
97.5000;0.1514;3.9325;
97.8000;0.1530;3.9505;
98.1000;0.1522;3.9479;
98.4000;0.1514;3.9402;
98.7000;0.1498;3.9325;
99.0000;0.1530;3.9377;
99.3000;0.1498;3.9274;
99.6000;0.1538;3.9325;
99.9000;0.1604;3.9428;
100.2000;0.1498;3.9146;
100.5000;0.1498;3.9197;
100.8000;0.1490;3.9120;
101.1000;0.1514;3.9223;
101.4000;0.1514;3.9197;
101.7000;0.1571;3.9325;
102.0000;0.1547;3.9325;
102.3000;0.1514;3.9223;
102.6000;0.1514;3.9248;
102.9000;0.1481;3.9197;
103.2000;0.1498;3.9248;
103.5000;0.1506;3.9197;
103.8000;0.1555;3.9351;
104.1000;0.1522;3.9377;
104.4000;0.1514;3.9377;
104.7000;0.1514;3.9453;
105.0000;0.1425;3.9197;
105.3000;0.1506;3.9402;
105.6000;0.1514;3.9402;
105.9000;0.1555;3.9479;
106.2000;0.1449;3.9223;
106.5000;0.1506;3.9351;
106.8000;0.1498;3.9325;
107.1000;0.1506;3.9351;
107.4000;0.1547;3.9479;
107.7000;0.1506;3.9402;
108.0000;0.1457;3.9300;
108.3000;0.1514;3.9453;
108.6000;0.1481;3.9300;
108.9000;0.1514;3.9377;
109.2000;0.1490;3.9351;
109.5000;0.1514;3.9351;
109.8000;0.1506;3.9325;
110.1000;0.1506;3.9274;
110.4000;0.1530;3.9223;
110.7000;0.1547;3.9223;
111.0000;0.1538;3.9197;
111.3000;0.1457;3.9043;
111.6000;0.1538;3.9223;
111.9000;0.1522;3.9171;
112.2000;0.1514;3.9248;
112.5000;0.1514;3.9223;
112.8000;0.1530;3.9223;
113.1000;0.1490;3.9171;
113.4000;0.1506;3.9146;
113.7000;0.1506;3.9146;
114.0000;0.1498;3.9120;
114.3000;0.1563;3.9325;
114.6000;0.1530;3.9223;
114.9000;0.1490;3.9094;
115.2000;0.1441;3.8940;
115.5000;0.1490;3.9069;
115.8000;0.1522;3.9248;
116.1000;0.1506;3.9274;
116.4000;0.1506;3.9223;
116.7000;0.1506;3.9248;
117.0000;0.1514;3.9351;
117.3000;0.1514;3.9300;
117.6000;0.1506;3.9248;
117.9000;0.1514;3.9274;
118.2000;0.1514;3.9402;
118.5000;0.1449;3.9223;
118.8000;0.1514;3.9300;
119.1000;0.1514;3.9351;
119.4000;0.1538;3.9248;
119.7000;0.1506;3.9248;
120.0000;0.1530;3.9351;
120.3000;0.1587;3.9505;
120.6000;0.1465;3.9351;
120.9000;0.1490;3.9274;
121.2000;0.1563;3.9607;
121.5000;0.1595;3.9659;
121.8000;0.1490;3.9428;
122.1000;0.1457;3.9300;
122.4000;0.1563;3.9607;
122.7000;0.1522;3.9428;
123.0000;0.1522;3.9453;
123.3000;0.1490;3.9274;
123.6000;0.1522;3.9351;
123.9000;0.1514;3.9197;
124.2000;0.1506;3.9223;
124.5000;0.1514;3.9171;
124.8000;0.1522;3.9197;
125.1000;0.1522;3.9146;
125.4000;0.1530;3.9223;
125.7000;0.1514;3.9094;
126.0000;0.1547;3.9274;
126.3000;0.1490;3.9197;
126.6000;0.1530;3.9325;
126.9000;0.1522;3.9325;
127.2000;0.1514;3.9325;
127.5000;0.1506;3.9325;
127.8000;0.1514;3.9274;
128.1000;0.1530;3.9377;
128.4000;0.1563;3.9453;
128.7000;0.1514;3.9377;
129.0000;0.1506;3.9325;
129.3000;0.1514;3.9325;
129.6000;0.1530;3.9453;
129.9000;0.1530;3.9351;
130.2000;0.1457;3.9171;
130.5000;0.1522;3.9351;
130.8000;0.1506;3.9274;
131.1000;0.1506;3.9351;
131.4000;0.1506;3.9377;
131.7000;0.1506;3.9428;
132.0000;0.1506;3.9325;
132.3000;0.1498;3.9300;
132.6000;0.1522;3.9402;
132.9000;0.1514;3.9479;
133.2000;0.1506;3.9453;
133.5000;0.1473;3.9402;
133.8000;0.1506;3.9428;
134.1000;0.1522;3.9505;
134.4000;0.1514;3.9530;
134.7000;0.1506;3.9530;
135.0000;0.1498;3.9582;
135.3000;0.1498;3.9479;
135.6000;0.1506;3.9505;
135.9000;0.1514;3.9556;
136.2000;0.1530;3.9582;
136.5000;0.1538;3.9530;
136.8000;0.1522;3.9505;
137.1000;0.1530;3.9556;
137.4000;0.1481;3.9351;
137.7000;0.1457;3.9274;
138.0000;0.1538;3.9402;
138.3000;0.1571;3.9402;
138.6000;0.1506;3.9171;
138.9000;0.1514;3.9223;
139.2000;0.1506;3.9274;
139.5000;0.1522;3.9300;
139.8000;0.1538;3.9377;
140.1000;0.1530;3.9377;
140.4000;0.1522;3.9402;
140.7000;0.1514;3.9479;
141.0000;0.1522;3.9505;
141.3000;0.1530;3.9530;
141.6000;0.1555;3.9505;
141.9000;0.1522;3.9428;
142.2000;0.1506;3.9351;
142.5000;0.1571;3.9556;
142.8000;0.1506;3.9377;
143.1000;0.1514;3.9453;
143.4000;0.1457;3.9274;
143.7000;0.1514;3.9377;
144.0000;0.1506;3.9351;
144.3000;0.1506;3.9325;
144.6000;0.1506;3.9377;
144.9000;0.1498;3.9248;
145.2000;0.1514;3.9274;
145.5000;0.1506;3.9377;
145.8000;0.1514;3.9428;
146.1000;0.1522;3.9377;
146.4000;0.1506;3.9325;
146.7000;0.1514;3.9325;
147.0000;0.1571;3.9582;
147.3000;0.1514;3.9402;
147.6000;0.1514;3.9402;
147.9000;0.1514;3.9351;
148.2000;0.1514;3.9479;
148.5000;0.1522;3.9582;
148.8000;0.1514;3.9505;
149.1000;0.1530;3.9607;
149.4000;0.1522;3.9556;
149.7000;0.1514;3.9556;
150.0000;0.1514;3.9556;
150.3000;0.1522;3.9582;
150.6000;0.1514;3.9710;
150.9000;0.1538;3.9710;
151.2000;0.1530;3.9761;
151.5000;0.1498;3.9633;
151.8000;0.1514;3.9633;
152.1000;0.1522;3.9633;
152.4000;0.1522;3.9556;
152.7000;0.1506;3.9505;
153.0000;0.1506;3.9530;
153.3000;0.1555;3.9736;
153.6000;0.1612;3.9941;
153.9000;0.1506;3.9582;
154.2000;0.1547;3.9633;
154.5000;0.1522;3.9556;
154.8000;0.1530;3.9556;
155.1000;0.1612;3.9813;
155.4000;0.1514;3.9505;
155.7000;0.1514;3.9402;
156.0000;0.1514;3.9377;
156.3000;0.1522;3.9377;
156.6000;0.1530;3.9351;
156.9000;0.1506;3.9351;
157.2000;0.1530;3.9530;
157.5000;0.1530;3.9479;
157.8000;0.1538;3.9556;
158.1000;0.1506;3.9402;
158.4000;0.1530;3.9453;
158.7000;0.1547;3.9453;
159.0000;0.1522;3.9377;
159.3000;0.1514;3.9377;
159.6000;0.1514;3.9274;
159.9000;0.1530;3.9325;
160.2000;0.1522;3.9300;
160.5000;0.1506;3.9248;
160.8000;0.1514;3.9274;
161.1000;0.1530;3.9300;
161.4000;0.1498;3.9248;
161.7000;0.1449;3.9043;
162.0000;0.1547;3.9300;
162.3000;0.1522;3.9171;
162.6000;0.1481;3.9069;
162.9000;0.1498;3.9120;
163.2000;0.1473;3.9094;
163.5000;0.1530;3.9197;
163.8000;0.1522;3.9120;
164.1000;0.1522;3.9120;
164.4000;0.1522;3.9146;
164.7000;0.1530;3.9223;
165.0000;0.1530;3.9274;
165.3000;0.1522;3.9197;
165.6000;0.1530;3.9197;
165.9000;0.1538;3.9248;
166.2000;0.1514;3.9325;
166.5000;0.1506;3.9274;
166.8000;0.1530;3.9248;
167.1000;0.1481;3.9069;
167.4000;0.1522;3.9300;
167.7000;0.1498;3.9223;
168.0000;0.1514;3.9197;
168.3000;0.1506;3.9223;
168.6000;0.1522;3.9300;
168.9000;0.1498;3.9274;
169.2000;0.1481;3.9171;
169.5000;0.1506;3.9300;
169.8000;0.1498;3.9325;
170.1000;0.1498;3.9351;
170.4000;0.1514;3.9325;
170.7000;0.1506;3.9223;
171.0000;0.1522;3.9274;
171.3000;0.1514;3.9197;
171.6000;0.1490;3.9094;
171.9000;0.1514;3.9094;
172.2000;0.1547;3.9197;
172.5000;0.1522;3.9171;
172.8000;0.1522;3.9248;
173.1000;0.1498;3.9248;
173.4000;0.1514;3.9223;
173.7000;0.1514;3.9248;
174.0000;0.1506;3.9223;
174.3000;0.1506;3.9274;
174.6000;0.1506;3.9351;
174.9000;0.1490;3.9300;
175.2000;0.1538;3.9479;
175.5000;0.1522;3.9479;
175.8000;0.1498;3.9300;
176.1000;0.1457;3.9094;
176.4000;0.1506;3.9300;
176.7000;0.1498;3.9248;
177.0000;0.1514;3.9248;
177.3000;0.1481;3.9146;
177.6000;0.1514;3.9300;
177.9000;0.1522;3.9300;
178.2000;0.1555;3.9453;
178.5000;0.1506;3.9223;
178.8000;0.1514;3.9248;
179.1000;0.1514;3.9248;
179.4000;0.1465;3.8992;
179.7000;0.1506;3.9094;
180.0000;0.1514;3.9069;
180.3000;0.1498;3.9043;
180.6000;0.1538;3.9146;
180.9000;0.1522;3.9171;
181.2000;0.1506;3.9146;
181.5000;0.1522;3.9248;
181.8000;0.1490;3.9197;
182.1000;0.1506;3.9325;
182.4000;0.1490;3.9300;
182.7000;0.1514;3.9351;
183.0000;0.1530;3.9325;
183.3000;0.1498;3.9274;
183.6000;0.1579;3.9530;
183.9000;0.1530;3.9377;
184.2000;0.1506;3.9325;
184.5000;0.1522;3.9351;
184.8000;0.1522;3.9351;
185.1000;0.1514;3.9300;
185.4000;0.1579;3.9556;
185.7000;0.1514;3.9377;
186.0000;0.1514;3.9402;
186.3000;0.1522;3.9505;
186.6000;0.1522;3.9530;
186.9000;0.1514;3.9582;
187.2000;0.1490;3.9479;
187.5000;0.1498;3.9428;
187.8000;0.1514;3.9505;
188.1000;0.1530;3.9556;
188.4000;0.1514;3.9428;
188.7000;0.1506;3.9402;
189.0000;0.1522;3.9377;
189.3000;0.1514;3.9325;
189.6000;0.1522;3.9325;
189.9000;0.1506;3.9223;
190.2000;0.1498;3.9146;
190.5000;0.1490;3.9223;
190.8000;0.1506;3.9248;
191.1000;0.1490;3.9146;
191.4000;0.1490;3.9120;
191.7000;0.1400;3.8915;
192.0000;0.1498;3.9146;
192.3000;0.1514;3.9248;
192.6000;0.1506;3.9274;
192.9000;0.1522;3.9248;
193.2000;0.1498;3.9248;
193.5000;0.1392;3.9069;
193.8000;0.1481;3.9248;
194.1000;0.1392;3.8992;
194.4000;0.1522;3.9402;
194.7000;0.1522;3.9325;
195.0000;0.1538;3.9300;
195.3000;0.1498;3.9300;
195.6000;0.1514;3.9402;
195.9000;0.1481;3.9146;
196.2000;0.1514;3.9248;
196.5000;0.1490;3.9146;
196.8000;0.1506;3.9223;
197.1000;0.1506;3.9223;
197.4000;0.1522;3.9248;
197.7000;0.1498;3.9223;
198.0000;0.1400;3.8915;
198.3000;0.1538;3.9402;
198.6000;0.1620;3.9710;
198.9000;0.1490;3.9351;
199.2000;0.1530;3.9556;
199.5000;0.1555;3.9684;
199.8000;0.1514;3.9530;
200.1000;0.1571;3.9556;
200.4000;0.1498;3.9377;
200.7000;0.1514;3.9453;
201.0000;0.1441;3.9171;
201.3000;0.1522;3.9428;
201.6000;0.1547;3.9428;
201.9000;0.1506;3.9377;
202.2000;0.1506;3.9402;
202.5000;0.1498;3.9351;
202.8000;0.1481;3.9377;
203.1000;0.1506;3.9453;
203.4000;0.1522;3.9530;
203.7000;0.1514;3.9453;
204.0000;0.1506;3.9428;
204.3000;0.1425;3.9120;
204.6000;0.1514;3.9351;
204.9000;0.1522;3.9402;
205.2000;0.1538;3.9377;
205.5000;0.1522;3.9274;
205.8000;0.1506;3.9325;
206.1000;0.1506;3.9300;
206.4000;0.1506;3.9325;
206.7000;0.1506;3.9274;
207.0000;0.1522;3.9402;
207.3000;0.1522;3.9453;
207.6000;0.1498;3.9428;
207.9000;0.1498;3.9428;
208.2000;0.1498;3.9453;
208.5000;0.1514;3.9530;
208.8000;0.1498;3.9556;
209.1000;0.1498;3.9607;
209.4000;0.1498;3.9633;
209.7000;0.1522;3.9659;
210.0000;0.1498;3.9505;
210.3000;0.1514;3.9505;
210.6000;0.1506;3.9453;
210.9000;0.1538;3.9453;
211.2000;0.1571;3.9479;
211.5000;0.1530;3.9377;
211.8000;0.1490;3.9377;
212.1000;0.1506;3.9300;
212.4000;0.1514;3.9402;
212.7000;0.1392;3.9094;
213.0000;0.1514;3.9402;
213.3000;0.1498;3.9300;
213.6000;0.1514;3.9351;
213.9000;0.1498;3.9351;
214.2000;0.1506;3.9402;
214.5000;0.1416;3.9094;
214.8000;0.1506;3.9377;
215.1000;0.1538;3.9530;
215.4000;0.1498;3.9377;
215.7000;0.1522;3.9351;
216.0000;0.1400;3.9094;
216.3000;0.1571;3.9556;
216.6000;0.1522;3.9428;
216.9000;0.1498;3.9377;
217.2000;0.1498;3.9325;
217.5000;0.1555;3.9453;
217.8000;0.1522;3.9402;
218.1000;0.1449;3.9248;
218.4000;0.1481;3.9351;
218.7000;0.1514;3.9505;
219.0000;0.1563;3.9684;
219.3000;0.1514;3.9479;
219.6000;0.1490;3.9377;
219.9000;0.1555;3.9582;
220.2000;0.1514;3.9377;
220.5000;0.1530;3.9377;
220.8000;0.1473;3.9223;
221.1000;0.1433;3.9146;
221.4000;0.1498;3.9351;
221.7000;0.1506;3.9428;
222.0000;0.1506;3.9453;
222.3000;0.1498;3.9377;
222.6000;0.1506;3.9325;
222.9000;0.1481;3.9223;
223.2000;0.1481;3.9274;
223.5000;0.1490;3.9351;
223.8000;0.1490;3.9453;
224.1000;0.1522;3.9556;
224.4000;0.1555;3.9710;
224.7000;0.1514;3.9633;
225.0000;0.1571;3.9736;
225.3000;0.1514;3.9582;
225.6000;0.1522;3.9530;
225.9000;0.1522;3.9556;
226.2000;0.1506;3.9556;
226.5000;0.1522;3.9556;
226.8000;0.1490;3.9479;
227.1000;0.1547;3.9684;
227.4000;0.1498;3.9607;
227.7000;0.1506;3.9633;
228.0000;0.1506;3.9607;
228.3000;0.1498;3.9582;
228.6000;0.1465;3.9377;
228.9000;0.1522;3.9556;
229.2000;0.1506;3.9582;
229.5000;0.1522;3.9633;
229.8000;0.1514;3.9607;
230.1000;0.1514;3.9582;
230.4000;0.1555;3.9607;
230.7000;0.1530;3.9607;
231.0000;0.1514;3.9582;
231.3000;0.1514;3.9479;
231.6000;0.1522;3.9453;
231.9000;0.1490;3.9402;
232.2000;0.1514;3.9377;
232.5000;0.1530;3.9377;
232.8000;0.1514;3.9325;
233.1000;0.1514;3.9428;
233.4000;0.1506;3.9402;
233.7000;0.1530;3.9505;
234.0000;0.1522;3.9582;
234.3000;0.1522;3.9607;
234.6000;0.1506;3.9505;
234.9000;0.1481;3.9428;
235.2000;0.1514;3.9556;
235.5000;0.1498;3.9479;
235.8000;0.1506;3.9453;
236.1000;0.1538;3.9582;
236.4000;0.1530;3.9505;
236.7000;0.1522;3.9556;
237.0000;0.1498;3.9556;
237.3000;0.1555;3.9787;
237.6000;0.1530;3.9659;
237.9000;0.1473;3.9505;
238.2000;0.1481;3.9402;
238.5000;0.1530;3.9556;
238.8000;0.1522;3.9428;
239.1000;0.1473;3.9377;
239.4000;0.1490;3.9453;
239.7000;0.1522;3.9505;
240.0000;0.1514;3.9530;
240.3000;0.1490;3.9428;
240.6000;0.1522;3.9453;
240.9000;0.1514;3.9351;
241.2000;0.1506;3.9351;
241.5000;0.1587;3.9633;
241.8000;0.1522;3.9479;
242.1000;0.1490;3.9428;
242.4000;0.1522;3.9505;
242.7000;0.1498;3.9402;
243.0000;0.1506;3.9428;
243.3000;0.1522;3.9428;
243.6000;0.1506;3.9377;
243.9000;0.1522;3.9479;
244.2000;0.1498;3.9453;
244.5000;0.1506;3.9479;
244.8000;0.1538;3.9530;
245.1000;0.1514;3.9479;
245.4000;0.1490;3.9325;
245.7000;0.1498;3.9428;
246.0000;0.1514;3.9453;
246.3000;0.1530;3.9453;
246.6000;0.1514;3.9428;
246.9000;0.1547;3.9556;
247.2000;0.1514;3.9479;
247.5000;0.1416;3.9223;
247.8000;0.1498;3.9505;
248.1000;0.1522;3.9607;
248.4000;0.1506;3.9556;
248.7000;0.1579;3.9787;
249.0000;0.1514;3.9505;
249.3000;0.1498;3.9479;
249.6000;0.1522;3.9479;
249.9000;0.1514;3.9377;
250.2000;0.1408;3.9017;
250.5000;0.1481;3.9274;
250.8000;0.1490;3.9300;
251.1000;0.1514;3.9377;
251.4000;0.1498;3.9428;
251.7000;0.1514;3.9453;
252.0000;0.1628;3.9813;
252.3000;0.1498;3.9428;
252.6000;0.1522;3.9453;
252.9000;0.1514;3.9530;
253.2000;0.1498;3.9479;
253.5000;0.1530;3.9556;
253.8000;0.1506;3.9633;
254.1000;0.1506;3.9633;
254.4000;0.1506;3.9556;
254.7000;0.1506;3.9556;
255.0000;0.1498;3.9453;
255.3000;0.1498;3.9479;
255.6000;0.1506;3.9453;
255.9000;0.1481;3.9377;
256.2000;0.1408;3.9146;
256.5000;0.1506;3.9377;
256.8000;0.1522;3.9402;
257.1000;0.1506;3.9428;
257.4000;0.1530;3.9505;
257.7000;0.1473;3.9248;
258.0000;0.1514;3.9351;
258.3000;0.1514;3.9325;
258.6000;0.1538;3.9428;
258.9000;0.1481;3.9274;
259.2000;0.1498;3.9325;
259.5000;0.1498;3.9402;
259.8000;0.1514;3.9453;
260.1000;0.1530;3.9530;
260.4000;0.1514;3.9428;
260.7000;0.1490;3.9402;
261.0000;0.1547;3.9582;
261.3000;0.1522;3.9582;
261.6000;0.1506;3.9556;
261.9000;0.1522;3.9582;
262.2000;0.1490;3.9556;
262.5000;0.1514;3.9479;
262.8000;0.1538;3.9505;
263.1000;0.1522;3.9428;
263.4000;0.1449;3.9197;
263.7000;0.1506;3.9351;
264.0000;0.1530;3.9453;
264.3000;0.1490;3.9428;
264.6000;0.1506;3.9479;
264.9000;0.1514;3.9402;
265.2000;0.1481;3.9351;
265.5000;0.1514;3.9505;
265.8000;0.1514;3.9428;
266.1000;0.1538;3.9479;
266.4000;0.1522;3.9479;
266.7000;0.1506;3.9351;
267.0000;0.1498;3.9402;
267.3000;0.1408;3.9171;
267.6000;0.1530;3.9479;
267.9000;0.1514;3.9556;
268.2000;0.1481;3.9530;
268.5000;0.1498;3.9428;
268.8000;0.1384;3.9017;
269.1000;0.1563;3.9530;
269.4000;0.1514;3.9377;
269.7000;0.1522;3.9428;
270.0000;0.1498;3.9377;
270.3000;0.1555;3.9556;
270.6000;0.1498;3.9530;
270.9000;0.1473;3.9351;
271.2000;0.1547;3.9428;
271.5000;0.1425;3.9171;
271.8000;0.1522;3.9402;
272.1000;0.1522;3.9428;
272.4000;0.1490;3.9377;
272.7000;0.1514;3.9505;
273.0000;0.1530;3.9556;
273.3000;0.1490;3.9351;
273.6000;0.1514;3.9428;
273.9000;0.1522;3.9453;
274.2000;0.1481;3.9351;
274.5000;0.1522;3.9351;
274.8000;0.1522;3.9402;
275.1000;0.1587;3.9607;
275.4000;0.1514;3.9274;
275.7000;0.1530;3.9300;
276.0000;0.1538;3.9377;
276.3000;0.1449;3.9146;
276.6000;0.1514;3.9402;
276.9000;0.1506;3.9300;
277.2000;0.1506;3.9325;
277.5000;0.1522;3.9428;
277.8000;0.1522;3.9453;
278.1000;0.1522;3.9505;
278.4000;0.1514;3.9351;
278.7000;0.1506;3.9351;
279.0000;0.1506;3.9325;
279.3000;0.1433;3.9171;
279.6000;0.1530;3.9351;
279.9000;0.1498;3.9300;
280.2000;0.1506;3.9274;
280.5000;0.1522;3.9300;
280.8000;0.1514;3.9325;
281.1000;0.1522;3.9377;
281.4000;0.1481;3.9325;
281.7000;0.1514;3.9479;
282.0000;0.1514;3.9505;
282.3000;0.1514;3.9479;
282.6000;0.1506;3.9556;
282.9000;0.1498;3.9607;
283.2000;0.1506;3.9633;
283.5000;0.1530;3.9710;
283.8000;0.1514;3.9710;
284.1000;0.1522;3.9710;
284.4000;0.1530;3.9684;
284.7000;0.1514;3.9556;
285.0000;0.1465;3.9428;
285.3000;0.1506;3.9505;
285.6000;0.1498;3.9505;
285.9000;0.1506;3.9556;
286.2000;0.1547;3.9659;
286.5000;0.1506;3.9479;
286.8000;0.1538;3.9582;
287.1000;0.1555;3.9659;
287.4000;0.1530;3.9659;
287.7000;0.1490;3.9582;
288.0000;0.1530;3.9582;
288.3000;0.1530;3.9453;
288.6000;0.1522;3.9351;
288.9000;0.1595;3.9607;
289.2000;0.1522;3.9351;
289.5000;0.1538;3.9402;
289.8000;0.1563;3.9479;
290.1000;0.1530;3.9325;
290.4000;0.1457;3.9094;
290.7000;0.1522;3.9274;
291.0000;0.1506;3.9223;
291.3000;0.1490;3.9325;
291.6000;0.1498;3.9325;
291.9000;0.1433;3.9223;
292.2000;0.1514;3.9479;
292.5000;0.1522;3.9530;
292.8000;0.1506;3.9453;
293.1000;0.1506;3.9325;
293.4000;0.1481;3.9248;
293.7000;0.1530;3.9325;
294.0000;0.1522;3.9351;
294.3000;0.1514;3.9248;
294.6000;0.1547;3.9428;
294.9000;0.1547;3.9325;
295.2000;0.1506;3.9146;
295.5000;0.1538;3.9248;
295.8000;0.1498;3.9171;
296.1000;0.1522;3.9274;
296.4000;0.1506;3.9223;
296.7000;0.1490;3.9197;
297.0000;0.1514;3.9248;
297.3000;0.1457;3.9197;
297.6000;0.1498;3.9197;
297.9000;0.1506;3.9223;
298.2000;0.1498;3.9223;
298.5000;0.1506;3.9274;
298.8000;0.1530;3.9351;
299.1000;0.1506;3.9300;
299.4000;0.1506;3.9300;
299.7000;0.1514;3.9325;
300.0000;0.1522;3.9377;
300.3000;0.1547;3.9325;
300.6000;0.1514;3.9248;
300.9000;0.1530;3.9351;
301.2000;0.1481;3.9223;
301.5000;0.1522;3.9300;
301.8000;0.1514;3.9274;
302.1000;0.1538;3.9325;
302.4000;0.1522;3.9351;
302.7000;0.1514;3.9248;
303.0000;0.1522;3.9248;
303.3000;0.1449;3.9043;
303.6000;0.1506;3.9197;
303.9000;0.1490;3.9197;
304.2000;0.1473;3.9197;
304.5000;0.1514;3.9223;
304.8000;0.1498;3.9248;
305.1000;0.1498;3.9300;
305.4000;0.1530;3.9377;
305.7000;0.1514;3.9325;
306.0000;0.1506;3.9274;
306.3000;0.1498;3.9223;
306.6000;0.1506;3.9325;
306.9000;0.1547;3.9530;
307.2000;0.1514;3.9351;
307.5000;0.1514;3.9402;
307.8000;0.1416;3.9094;
308.1000;0.1449;3.9223;
308.4000;0.1514;3.9453;
308.7000;0.1514;3.9453;
309.0000;0.1522;3.9556;
309.3000;0.1530;3.9530;
309.6000;0.1490;3.9402;
309.9000;0.1514;3.9377;
310.2000;0.1522;3.9402;
310.5000;0.1433;3.9146;
310.8000;0.1636;3.9736;
311.1000;0.1481;3.9300;
311.4000;0.1498;3.9300;
311.7000;0.1514;3.9377;
312.0000;0.1571;3.9633;
312.3000;0.1498;3.9377;
312.6000;0.1490;3.9351;
312.9000;0.1506;3.9377;
313.2000;0.1506;3.9453;
313.5000;0.1522;3.9505;
313.8000;0.1416;3.9248;
314.1000;0.1563;3.9556;
314.4000;0.1514;3.9556;
314.7000;0.1490;3.9453;
315.0000;0.1514;3.9453;
315.3000;0.1498;3.9351;
315.6000;0.1498;3.9325;
315.9000;0.1481;3.9223;
316.2000;0.1490;3.9223;
316.5000;0.1506;3.9351;
316.8000;0.1506;3.9377;
317.1000;0.1473;3.9300;
317.4000;0.1481;3.9300;
317.7000;0.1498;3.9300;
318.0000;0.1449;3.9171;
318.3000;0.1555;3.9428;
318.6000;0.1449;3.9223;
318.9000;0.1473;3.9274;
319.2000;0.1514;3.9377;
319.5000;0.1514;3.9351;
319.8000;0.1498;3.9300;
320.1000;0.1490;3.9325;
320.4000;0.1530;3.9377;
320.7000;0.1506;3.9351;
321.0000;0.1498;3.9300;
321.3000;0.1498;3.9377;
321.6000;0.1498;3.9402;
321.9000;0.1530;3.9505;
322.2000;0.1490;3.9402;
322.5000;0.1506;3.9505;
322.8000;0.1522;3.9556;
323.1000;0.1473;3.9453;
323.4000;0.1506;3.9479;
323.7000;0.1530;3.9453;
324.0000;0.1522;3.9556;
324.3000;0.1522;3.9402;
324.6000;0.1506;3.9325;
324.9000;0.1530;3.9325;
325.2000;0.1506;3.9377;
325.5000;0.1522;3.9377;
325.8000;0.1530;3.9428;
326.1000;0.1530;3.9377;
326.4000;0.1522;3.9351;
326.7000;0.1522;3.9351;
327.0000;0.1530;3.9428;
327.3000;0.1538;3.9453;
327.6000;0.1530;3.9402;
327.9000;0.1514;3.9377;
328.2000;0.1538;3.9453;
328.5000;0.1498;3.9377;
328.8000;0.1490;3.9325;
329.1000;0.1530;3.9402;
329.4000;0.1530;3.9428;
329.7000;0.1522;3.9300;
330.0000;0.1587;3.9428;
330.3000;0.1457;3.9043;
330.6000;0.1530;3.9223;
330.9000;0.1490;3.9197;
331.2000;0.1490;3.9094;
331.5000;0.1481;3.9120;
331.8000;0.1522;3.9171;
332.1000;0.1587;3.9274;
332.4000;0.1441;3.8992;
332.7000;0.1514;3.9197;
333.0000;0.1408;3.8966;
333.3000;0.1587;3.9402;
333.6000;0.1522;3.9223;
333.9000;0.1547;3.9300;
334.2000;0.1514;3.9248;
334.5000;0.1538;3.9479;
334.8000;0.1538;3.9479;
335.1000;0.1490;3.9402;
335.4000;0.1514;3.9428;
335.7000;0.1506;3.9402;
336.0000;0.1514;3.9325;
336.3000;0.1530;3.9428;
336.6000;0.1514;3.9402;
336.9000;0.1514;3.9325;
337.2000;0.1514;3.9248;
337.5000;0.1498;3.9248;
337.8000;0.1644;3.9684;
338.1000;0.1571;3.9479;
338.4000;0.1530;3.9325;
338.7000;0.1522;3.9351;
339.0000;0.1506;3.9300;
339.3000;0.1514;3.9223;
339.6000;0.1514;3.9248;
339.9000;0.1538;3.9300;
340.2000;0.1498;3.9120;
340.5000;0.1498;3.9197;
340.8000;0.1522;3.9171;
341.1000;0.1522;3.9197;
341.4000;0.1506;3.9171;
341.7000;0.1514;3.9146;
342.0000;0.1449;3.9017;
342.3000;0.1530;3.9248;
342.6000;0.1514;3.9274;
342.9000;0.1498;3.9171;
343.2000;0.1563;3.9351;
343.5000;0.1514;3.9223;
343.8000;0.1522;3.9274;
344.1000;0.1522;3.9377;
344.4000;0.1514;3.9402;
344.7000;0.1473;3.9274;
345.0000;0.1498;3.9377;
345.3000;0.1506;3.9377;
345.6000;0.1498;3.9377;
345.9000;0.1514;3.9402;
346.2000;0.1506;3.9428;
346.5000;0.1498;3.9351;
346.8000;0.1530;3.9402;
347.1000;0.1506;3.9300;
347.4000;0.1514;3.9325;
347.7000;0.1514;3.9300;
348.0000;0.1490;3.9325;
348.3000;0.1506;3.9274;
348.6000;0.1514;3.9274;
348.9000;0.1481;3.9223;
349.2000;0.1522;3.9351;
349.5000;0.1481;3.9274;
349.8000;0.1506;3.9351;
350.1000;0.1514;3.9377;
350.4000;0.1522;3.9453;
350.7000;0.1490;3.9351;
351.0000;0.1522;3.9607;
351.3000;0.1506;3.9633;
351.6000;0.1514;3.9633;
351.9000;0.1481;3.9556;
352.2000;0.1514;3.9659;
352.5000;0.1490;3.9607;
352.8000;0.1514;3.9659;
353.1000;0.1514;3.9530;
353.4000;0.1514;3.9556;
353.7000;0.1571;3.9607;
354.0000;0.1481;3.9300;
354.3000;0.1522;3.9377;
354.6000;0.1547;3.9453;
354.9000;0.1490;3.9402;
355.2000;0.1490;3.9377;
355.5000;0.1530;3.9428;
355.8000;0.1514;3.9428;
356.1000;0.1538;3.9453;
356.4000;0.1400;3.9017;
356.7000;0.1514;3.9300;
357.0000;0.1628;3.9684;
357.3000;0.1571;3.9582;
357.6000;0.1514;3.9377;
357.9000;0.1514;3.9377;
358.2000;0.1498;3.9377;
358.5000;0.1522;3.9505;
358.8000;0.1522;3.9505;
359.1000;0.1538;3.9582;
359.4000;0.1490;3.9351;
359.7000;0.1506;3.9351;
360.0000;0.1441;3.9069;
360.3000;0.1490;3.9248;
360.6000;0.1490;3.9223;
360.9000;0.1506;3.9223;
361.2000;0.1506;3.9300;
361.5000;0.1498;3.9274;
361.8000;0.1522;3.9402;
362.1000;0.1498;3.9325;
362.4000;0.1522;3.9325;
362.7000;0.1506;3.9300;
363.0000;0.1538;3.9453;
363.3000;0.1522;3.9402;
363.6000;0.1506;3.9402;
363.9000;0.1530;3.9428;
364.2000;0.1490;3.9402;
364.5000;0.1498;3.9428;
364.8000;0.1514;3.9479;
365.1000;0.1498;3.9402;
365.4000;0.1522;3.9428;
365.7000;0.1506;3.9530;
366.0000;0.1498;3.9428;
366.3000;0.1498;3.9377;
366.6000;0.1514;3.9351;
366.9000;0.1514;3.9300;
367.2000;0.1555;3.9300;
367.5000;0.1514;3.9274;
367.8000;0.1498;3.9274;
368.1000;0.1514;3.9325;
368.4000;0.1514;3.9325;
368.7000;0.1522;3.9402;
369.0000;0.1514;3.9479;
369.3000;0.1498;3.9453;
369.6000;0.1514;3.9428;
369.9000;0.1506;3.9402;
370.2000;0.1522;3.9428;
370.5000;0.1514;3.9402;
370.8000;0.1506;3.9325;
371.1000;0.1490;3.9197;
371.4000;0.1465;3.9094;
371.7000;0.1514;3.9300;
372.0000;0.1514;3.9300;
372.3000;0.1457;3.9094;
372.6000;0.1514;3.9274;
372.9000;0.1530;3.9197;
373.2000;0.1514;3.9094;
373.5000;0.1514;3.9120;
373.8000;0.1530;3.9146;
374.1000;0.1530;3.9197;
374.4000;0.1522;3.9197;
374.7000;0.1506;3.9197;
375.0000;0.1514;3.9248;
375.3000;0.1506;3.9248;
375.6000;0.1506;3.9197;
375.9000;0.1498;3.9171;
376.2000;0.1481;3.9300;
376.5000;0.1506;3.9428;
376.8000;0.1506;3.9453;
377.1000;0.1514;3.9479;
377.4000;0.1481;3.9377;
377.7000;0.1490;3.9377;
378.0000;0.1514;3.9453;
378.3000;0.1490;3.9274;
378.6000;0.1514;3.9377;
378.9000;0.1530;3.9453;
379.2000;0.1506;3.9505;
379.5000;0.1514;3.9505;
379.8000;0.1604;3.9761;
380.1000;0.1514;3.9453;
380.4000;0.1498;3.9377;
380.7000;0.1514;3.9453;
381.0000;0.1522;3.9556;
381.3000;0.1506;3.9479;
381.6000;0.1506;3.9505;
381.9000;0.1563;3.9530;
382.2000;0.1530;3.9453;
382.5000;0.1498;3.9325;
382.8000;0.1555;3.9453;
383.1000;0.1498;3.9402;
383.4000;0.1587;3.9659;
383.7000;0.1506;3.9402;
384.0000;0.1498;3.9351;
384.3000;0.1514;3.9377;
384.6000;0.1506;3.9325;
384.9000;0.1400;3.9017;
385.2000;0.1473;3.9120;
385.5000;0.1514;3.9223;
385.8000;0.1514;3.9300;
386.1000;0.1481;3.9377;
386.4000;0.1498;3.9351;
386.7000;0.1498;3.9248;
387.0000;0.1522;3.9377;
387.3000;0.1506;3.9377;
387.6000;0.1506;3.9377;
387.9000;0.1481;3.9325;
388.2000;0.1506;3.9377;
388.5000;0.1628;3.9787;
388.8000;0.1514;3.9505;
389.1000;0.1514;3.9479;
389.4000;0.1514;3.9505;
389.7000;0.1514;3.9453;
390.0000;0.1522;3.9505;
390.3000;0.1522;3.9530;
390.6000;0.1595;3.9761;
390.9000;0.1530;3.9582;
391.2000;0.1571;3.9684;
391.5000;0.1465;3.9428;
391.8000;0.1514;3.9505;
392.1000;0.1514;3.9530;
392.4000;0.1498;3.9505;
392.7000;0.1506;3.9479;
393.0000;0.1522;3.9530;
393.3000;0.1547;3.9607;
393.6000;0.1506;3.9505;
393.9000;0.1530;3.9479;
394.2000;0.1514;3.9453;
394.5000;0.1506;3.9402;
394.8000;0.1506;3.9351;
395.1000;0.1522;3.9402;
395.4000;0.1530;3.9377;
395.7000;0.1522;3.9351;
396.0000;0.1506;3.9146;
396.3000;0.1514;3.9120;
396.6000;0.1514;3.9069;
396.9000;0.1490;3.9094;
397.2000;0.1457;3.8966;
397.5000;0.1571;3.9300;
397.8000;0.1506;3.9094;
398.1000;0.1514;3.9069;
398.4000;0.1506;3.9120;
398.7000;0.1498;3.9146;
399.0000;0.1514;3.9197;
399.3000;0.1538;3.9325;
399.6000;0.1506;3.9223;
399.9000;0.1571;3.9428;
400.2000;0.1514;3.9351;
400.5000;0.1514;3.9351;
400.8000;0.1514;3.9377;
401.1000;0.1506;3.9325;
401.4000;0.1522;3.9325;
401.7000;0.1522;3.9300;
402.0000;0.1514;3.9428;
402.3000;0.1498;3.9428;
402.6000;0.1449;3.9300;
402.9000;0.1579;3.9556;
403.2000;0.1506;3.9325;
403.5000;0.1530;3.9428;
403.8000;0.1555;3.9582;
404.1000;0.1506;3.9453;
404.4000;0.1587;3.9761;
404.7000;0.1490;3.9556;
405.0000;0.1522;3.9530;
405.3000;0.1506;3.9556;
405.6000;0.1498;3.9453;
405.9000;0.1604;3.9684;
406.2000;0.1530;3.9530;
406.5000;0.1498;3.9453;
406.8000;0.1433;3.9300;
407.1000;0.1530;3.9582;
407.4000;0.1457;3.9479;
407.7000;0.1506;3.9453;
408.0000;0.1604;3.9659;
408.3000;0.1547;3.9505;
408.6000;0.1530;3.9479;
408.9000;0.1514;3.9530;
409.2000;0.1522;3.9505;
409.5000;0.1506;3.9453;
409.8000;0.1498;3.9428;
410.1000;0.1514;3.9556;
410.4000;0.1514;3.9479;
410.7000;0.1473;3.9428;
411.0000;0.1481;3.9402;
411.3000;0.1481;3.9377;
411.6000;0.1514;3.9453;
411.9000;0.1506;3.9479;
412.2000;0.1506;3.9505;
412.5000;0.1498;3.9428;
412.8000;0.1522;3.9402;
413.1000;0.1490;3.9377;
413.4000;0.1514;3.9530;
413.7000;0.1506;3.9556;
414.0000;0.1514;3.9607;
414.3000;0.1506;3.9530;
414.6000;0.1514;3.9479;
414.9000;0.1506;3.9453;
415.2000;0.1555;3.9607;
415.5000;0.1522;3.9479;
415.8000;0.1530;3.9556;
416.1000;0.1522;3.9633;
416.4000;0.1522;3.9607;
416.7000;0.1514;3.9633;
417.0000;0.1514;3.9633;
417.3000;0.1514;3.9607;
417.6000;0.1506;3.9607;
417.9000;0.1514;3.9530;
418.2000;0.1506;3.9530;
418.5000;0.1490;3.9479;
418.8000;0.1498;3.9377;
419.1000;0.1425;3.9300;
419.4000;0.1514;3.9556;
419.7000;0.1522;3.9633;
420.0000;0.1506;3.9607;
420.3000;0.1498;3.9659;
420.6000;0.1514;3.9684;
420.9000;0.1530;3.9710;
421.2000;0.1514;3.9736;
421.5000;0.1449;3.9582;
421.8000;0.1498;3.9736;
422.1000;0.1514;3.9761;
422.4000;0.1506;3.9736;
422.7000;0.1547;3.9761;
423.0000;0.1498;3.9556;
423.3000;0.1522;3.9607;
423.6000;0.1514;3.9556;
423.9000;0.1547;3.9633;
424.2000;0.1522;3.9633;
424.5000;0.1506;3.9607;
424.8000;0.1514;3.9556;
425.1000;0.1490;3.9505;
425.4000;0.1498;3.9479;
425.7000;0.1514;3.9607;
426.0000;0.1514;3.9684;
426.3000;0.1579;3.9813;
426.6000;0.1506;3.9633;
426.9000;0.1490;3.9530;
427.2000;0.1530;3.9633;
427.5000;0.1490;3.9530;
427.8000;0.1506;3.9607;
428.1000;0.1587;3.9761;
428.4000;0.1359;3.9094;
428.7000;0.1506;3.9453;
429.0000;0.1473;3.9428;
429.3000;0.1522;3.9479;
429.6000;0.1514;3.9428;
429.9000;0.1457;3.9248;
430.2000;0.1498;3.9300;
430.5000;0.1506;3.9300;
430.8000;0.1514;3.9274;
431.1000;0.1514;3.9377;
431.4000;0.1636;3.9582;
431.7000;0.1506;3.9274;
432.0000;0.1530;3.9351;
432.3000;0.1514;3.9300;
432.6000;0.1514;3.9377;
432.9000;0.1481;3.9325;
433.2000;0.1506;3.9479;
433.5000;0.1522;3.9505;
433.8000;0.1457;3.9428;
434.1000;0.1498;3.9607;
434.4000;0.1514;3.9736;
434.7000;0.1514;3.9736;
435.0000;0.1506;3.9736;
435.3000;0.1490;3.9633;
435.6000;0.1498;3.9582;
435.9000;0.1514;3.9582;
436.2000;0.1498;3.9479;
436.5000;0.1490;3.9351;
436.8000;0.1563;3.9505;
437.1000;0.1506;3.9351;
437.4000;0.1522;3.9402;
437.7000;0.1522;3.9402;
438.0000;0.1555;3.9428;
438.3000;0.1538;3.9428;
438.6000;0.1514;3.9351;
438.9000;0.1481;3.9300;
439.2000;0.1490;3.9300;
439.5000;0.1490;3.9325;
439.8000;0.1514;3.9377;
440.1000;0.1522;3.9377;
440.4000;0.1473;3.9248;
440.7000;0.1506;3.9223;
441.0000;0.1506;3.9223;
441.3000;0.1555;3.9428;
441.6000;0.1498;3.9223;
441.9000;0.1457;3.9094;
442.2000;0.1522;3.9325;
442.5000;0.1506;3.9351;
442.8000;0.1498;3.9351;
443.1000;0.1522;3.9325;
443.4000;0.1595;3.9633;
443.7000;0.1473;3.9325;
444.0000;0.1514;3.9505;
444.3000;0.1514;3.9505;
444.6000;0.1522;3.9505;
444.9000;0.1506;3.9505;
445.2000;0.1490;3.9428;
445.5000;0.1498;3.9505;
445.8000;0.1506;3.9530;
446.1000;0.1498;3.9530;
446.4000;0.1530;3.9607;
446.7000;0.1547;3.9530;
447.0000;0.1530;3.9453;
447.3000;0.1498;3.9377;
447.6000;0.1514;3.9428;
447.9000;0.1506;3.9402;
448.2000;0.1473;3.9248;
448.5000;0.1416;3.9069;
448.8000;0.1514;3.9377;
449.1000;0.1620;3.9633;
449.4000;0.1433;3.9146;
449.7000;0.1490;3.9325;
450.0000;0.1481;3.9325;
450.3000;0.1547;3.9659;
450.6000;0.1490;3.9505;
450.9000;0.1481;3.9428;
451.2000;0.1514;3.9453;
451.5000;0.1530;3.9556;
451.8000;0.1473;3.9428;
452.1000;0.1506;3.9556;
452.4000;0.1490;3.9505;
452.7000;0.1506;3.9607;
453.0000;0.1490;3.9505;
453.3000;0.1514;3.9582;
453.6000;0.1506;3.9556;
453.9000;0.1522;3.9582;
454.2000;0.1490;3.9428;
454.5000;0.1481;3.9453;
454.8000;0.1490;3.9505;
455.1000;0.1457;3.9377;
455.4000;0.1490;3.9453;
455.7000;0.1473;3.9505;
456.0000;0.1481;3.9505;
456.3000;0.1449;3.9325;
456.6000;0.1506;3.9428;
456.9000;0.1506;3.9377;
457.2000;0.1498;3.9248;
457.5000;0.1506;3.9197;
457.8000;0.1514;3.9171;
458.1000;0.1522;3.9197;
458.4000;0.1538;3.9223;
458.7000;0.1522;3.9197;
459.0000;0.1506;3.9223;
459.3000;0.1514;3.9197;
459.6000;0.1538;3.9223;
459.9000;0.1498;3.9094;
460.2000;0.1506;3.9146;
460.5000;0.1506;3.9146;
460.8000;0.1514;3.9171;
461.1000;0.1506;3.9223;
461.4000;0.1538;3.9351;
461.7000;0.1506;3.9300;
462.0000;0.1506;3.9223;
462.3000;0.1498;3.9146;
462.6000;0.1514;3.9223;
462.9000;0.1498;3.9223;
463.2000;0.1490;3.9248;
463.5000;0.1514;3.9223;
463.8000;0.1538;3.9274;
464.1000;0.1498;3.9146;
464.4000;0.1522;3.9248;
464.7000;0.1481;3.9120;
465.0000;0.1506;3.9146;
465.3000;0.1530;3.9351;
465.6000;0.1514;3.9274;
465.9000;0.1506;3.9274;
466.2000;0.1473;3.9146;
466.5000;0.1465;3.9069;
466.8000;0.1506;3.9197;
467.1000;0.1481;3.9120;
467.4000;0.1506;3.9146;
467.7000;0.1538;3.9197;
468.0000;0.1538;3.9146;
468.3000;0.1449;3.8966;
468.6000;0.1530;3.9274;
468.9000;0.1514;3.9171;
469.2000;0.1498;3.9043;
469.5000;0.1514;3.9094;
469.8000;0.1522;3.9069;
470.1000;0.1498;3.9146;
470.4000;0.1530;3.9274;
470.7000;0.1498;3.9197;
471.0000;0.1514;3.9197;
471.3000;0.1490;3.9197;
471.6000;0.1514;3.9171;
471.9000;0.1514;3.9274;
472.2000;0.1522;3.9351;
472.5000;0.1530;3.9300;
472.8000;0.1514;3.9197;
473.1000;0.1514;3.9043;
473.4000;0.1522;3.9094;
473.7000;0.1498;3.9017;
474.0000;0.1514;3.9017;
474.3000;0.1522;3.8863;
474.6000;0.1506;3.8863;
474.9000;0.1514;3.9043;
475.2000;0.1530;3.9069;
475.5000;0.1498;3.8940;
475.8000;0.1514;3.9043;
476.1000;0.1498;3.9017;
476.4000;0.1433;3.8812;
476.7000;0.1490;3.9017;
477.0000;0.1490;3.9017;
477.3000;0.1490;3.9017;
477.6000;0.1498;3.9043;
477.9000;0.1514;3.9069;
478.2000;0.1465;3.9069;
478.5000;0.1506;3.9197;
478.8000;0.1498;3.9171;
479.1000;0.1530;3.9300;
479.4000;0.1506;3.9325;
479.7000;0.1506;3.9402;
480.0000;0.1506;3.9377;
480.3000;0.1490;3.9325;
480.6000;0.1514;3.9325;
480.9000;0.1514;3.9300;
481.2000;0.1579;3.9351;
481.5000;0.1481;3.9197;
481.8000;0.1498;3.9248;
482.1000;0.1498;3.9351;
482.4000;0.1555;3.9402;
482.7000;0.1498;3.9171;
483.0000;0.1490;3.9069;
483.3000;0.1538;3.9274;
483.6000;0.1522;3.9274;
483.9000;0.1481;3.9248;
484.2000;0.1506;3.9300;
484.5000;0.1522;3.9530;
484.8000;0.1506;3.9453;
485.1000;0.1530;3.9453;
485.4000;0.1506;3.9505;
485.7000;0.1522;3.9453;
486.0000;0.1490;3.9300;
486.3000;0.1514;3.9274;
486.6000;0.1506;3.9300;
486.9000;0.1514;3.9300;
487.2000;0.1498;3.9171;
487.5000;0.1506;3.9223;
487.8000;0.1490;3.9197;
488.1000;0.1498;3.9274;
488.4000;0.1498;3.9248;
488.7000;0.1522;3.9274;
489.0000;0.1514;3.9248;
489.3000;0.1522;3.9223;
489.6000;0.1522;3.9351;
489.9000;0.1433;3.9094;
490.2000;0.1530;3.9453;
490.5000;0.1522;3.9402;
490.8000;0.1514;3.9402;
491.1000;0.1481;3.9274;
491.4000;0.1425;3.9043;
491.7000;0.1506;3.9248;
492.0000;0.1514;3.9120;
492.3000;0.1514;3.9146;
492.6000;0.1481;3.9043;
492.9000;0.1506;3.9017;
493.2000;0.1498;3.9069;
493.5000;0.1498;3.9146;
493.8000;0.1514;3.9197;
494.1000;0.1579;3.9377;
494.4000;0.1514;3.9197;
494.7000;0.1384;3.8915;
495.0000;0.1579;3.9479;
495.3000;0.1490;3.9274;
495.6000;0.1490;3.9300;
495.9000;0.1498;3.9325;
496.2000;0.1595;3.9607;
496.5000;0.1530;3.9377;
496.8000;0.1498;3.9274;
497.1000;0.1490;3.9274;
497.4000;0.1498;3.9377;
497.7000;0.1506;3.9402;
498.0000;0.1514;3.9453;
498.3000;0.1530;3.9428;
498.6000;0.1506;3.9377;
498.9000;0.1547;3.9402;
499.2000;0.1498;3.9248;
499.5000;0.1547;3.9505;
499.8000;0.1514;3.9325;
500.1000;0.1522;3.9248;
500.4000;0.1498;3.9171;
500.7000;0.1498;3.9197;
501.0000;0.1530;3.9325;
501.3000;0.1490;3.9171;
501.6000;0.1530;3.9300;
501.9000;0.1522;3.9351;
502.2000;0.1506;3.9300;
502.5000;0.1490;3.9223;
502.8000;0.1498;3.9223;
503.1000;0.1481;3.9274;
503.4000;0.1506;3.9325;
503.7000;0.1530;3.9377;
504.0000;0.1530;3.9428;
504.3000;0.1514;3.9428;
504.6000;0.1506;3.9377;
504.9000;0.1490;3.9428;
505.2000;0.1522;3.9582;
505.5000;0.1506;3.9428;
505.8000;0.1522;3.9453;
506.1000;0.1498;3.9402;
506.4000;0.1522;3.9453;
506.7000;0.1514;3.9479;
507.0000;0.1506;3.9530;
507.3000;0.1433;3.9274;
507.6000;0.1506;3.9453;
507.9000;0.1506;3.9377;
508.2000;0.1506;3.9300;
508.5000;0.1490;3.9300;
508.8000;0.1498;3.9428;
509.1000;0.1506;3.9428;
509.4000;0.1506;3.9453;
509.7000;0.1514;3.9479;
510.0000;0.1506;3.9479;
510.3000;0.1522;3.9453;
510.6000;0.1522;3.9377;
510.9000;0.1506;3.9377;
511.2000;0.1538;3.9530;
511.5000;0.1514;3.9479;
511.8000;0.1514;3.9453;
512.1000;0.1506;3.9351;
512.4000;0.1490;3.9325;
512.7000;0.1514;3.9428;
513.0000;0.1506;3.9351;
513.3000;0.1514;3.9351;
513.6000;0.1506;3.9453;
513.9000;0.1498;3.9377;
514.2000;0.1530;3.9479;
514.5000;0.1498;3.9377;
514.8000;0.1490;3.9351;
515.1000;0.1490;3.9428;
515.4000;0.1506;3.9479;
515.7000;0.1498;3.9479;
516.0000;0.1514;3.9607;
516.3000;0.1506;3.9530;
516.6000;0.1490;3.9530;
516.9000;0.1514;3.9607;
517.2000;0.1530;3.9607;
517.5000;0.1481;3.9479;
517.8000;0.1538;3.9710;
518.1000;0.1547;3.9684;
518.4000;0.1514;3.9582;
518.7000;0.1547;3.9582;
519.0000;0.1522;3.9505;
519.3000;0.1522;3.9530;
519.6000;0.1514;3.9351;
519.9000;0.1498;3.9300;
520.2000;0.1490;3.9248;
520.5000;0.1473;3.9171;
520.8000;0.1506;3.9274;
521.1000;0.1506;3.9300;
521.4000;0.1530;3.9325;
521.7000;0.1506;3.9274;
522.0000;0.1481;3.9171;
522.3000;0.1514;3.9300;
522.6000;0.1506;3.9248;
522.9000;0.1506;3.9248;
523.2000;0.1530;3.9300;
523.5000;0.1441;3.8940;
523.8000;0.1595;3.9325;
524.1000;0.1514;3.9043;
524.4000;0.1514;3.9069;
524.7000;0.1514;3.9094;
525.0000;0.1465;3.9043;
525.3000;0.1490;3.9223;
525.6000;0.1522;3.9351;
525.9000;0.1579;3.9453;
526.2000;0.1587;3.9428;
526.5000;0.1514;3.9197;
526.8000;0.1522;3.9274;
527.1000;0.1530;3.9402;
527.4000;0.1538;3.9377;
527.7000;0.1490;3.9248;
528.0000;0.1498;3.9325;
528.3000;0.1506;3.9248;
528.6000;0.1530;3.9223;
528.9000;0.1506;3.9146;
529.2000;0.1490;3.9197;
529.5000;0.1498;3.9248;
529.8000;0.1506;3.9300;
530.1000;0.1506;3.9248;
530.4000;0.1555;3.9351;
530.7000;0.1498;3.9274;
531.0000;0.1514;3.9325;
531.3000;0.1538;3.9325;
531.6000;0.1506;3.9325;
531.9000;0.1506;3.9325;
532.2000;0.1506;3.9428;
532.5000;0.1563;3.9428;
532.8000;0.1514;3.9300;
533.1000;0.1490;3.9223;
533.4000;0.1522;3.9248;
533.7000;0.1506;3.9300;
534.0000;0.1498;3.9171;
534.3000;0.1465;3.9094;
534.6000;0.1425;3.8966;
534.9000;0.1506;3.9094;
535.2000;0.1416;3.8812;
535.5000;0.1522;3.9120;
535.8000;0.1530;3.9146;
536.1000;0.1522;3.9094;
536.4000;0.1514;3.9094;
536.7000;0.1498;3.9069;
537.0000;0.1506;3.9120;
537.3000;0.1514;3.9146;
537.6000;0.1514;3.9094;
537.9000;0.1490;3.9094;
538.2000;0.1547;3.9248;
538.5000;0.1514;3.9094;
538.8000;0.1514;3.9274;
539.1000;0.1416;3.9069;
539.4000;0.1506;3.9351;
539.7000;0.1514;3.9274;
540.0000;0.1481;3.9146;
540.3000;0.1473;3.9171;
540.6000;0.1498;3.9043;
540.9000;0.1473;3.8966;
541.2000;0.1555;3.9146;
541.5000;0.1522;3.9069;
541.8000;0.1506;3.9017;
542.1000;0.1490;3.8940;
542.4000;0.1571;3.9223;
542.7000;0.1522;3.9094;
543.0000;0.1473;3.8992;
543.3000;0.1498;3.8966;
543.6000;0.1538;3.9094;
543.9000;0.1538;3.9171;
544.2000;0.1457;3.9069;
544.5000;0.1604;3.9582;
544.8000;0.1530;3.9377;
545.1000;0.1555;3.9377;
545.4000;0.1514;3.9274;
545.7000;0.1498;3.9223;
546.0000;0.1514;3.9197;
546.3000;0.1498;3.9146;
546.6000;0.1498;3.9146;
546.9000;0.1498;3.9223;
547.2000;0.1384;3.8992;
547.5000;0.1506;3.9300;
547.8000;0.1522;3.9351;
548.1000;0.1490;3.9300;
548.4000;0.1506;3.9274;
548.7000;0.1522;3.9274;
549.0000;0.1465;3.9171;
549.3000;0.1522;3.9351;
549.6000;0.1538;3.9377;
549.9000;0.1514;3.9351;
550.2000;0.1465;3.9274;
550.5000;0.1506;3.9377;
550.8000;0.1538;3.9402;
551.1000;0.1522;3.9300;
551.4000;0.1579;3.9453;
551.7000;0.1506;3.9300;
552.0000;0.1506;3.9325;
552.3000;0.1481;3.9274;
552.6000;0.1514;3.9300;
552.9000;0.1506;3.9197;
553.2000;0.1522;3.9171;
553.5000;0.1481;3.9069;
553.8000;0.1522;3.9223;
554.1000;0.1514;3.9300;
554.4000;0.1522;3.9300;
554.7000;0.1506;3.9377;
555.0000;0.1506;3.9402;
555.3000;0.1481;3.9300;
555.6000;0.1408;3.9146;
555.9000;0.1522;3.9479;
556.2000;0.1506;3.9402;
556.5000;0.1506;3.9402;
556.8000;0.1514;3.9402;
557.1000;0.1530;3.9505;
557.4000;0.1465;3.9351;
557.7000;0.1514;3.9402;
558.0000;0.1530;3.9530;
558.3000;0.1555;3.9633;
558.6000;0.1506;3.9479;
558.9000;0.1506;3.9505;
559.2000;0.1522;3.9582;
559.5000;0.1506;3.9453;
559.8000;0.1506;3.9479;
560.1000;0.1506;3.9377;
560.4000;0.1441;3.9146;
560.7000;0.1416;3.9171;
561.0000;0.1457;3.9274;
561.3000;0.1563;3.9453;
561.6000;0.1571;3.9530;
561.9000;0.1522;3.9402;
562.2000;0.1538;3.9351;
562.5000;0.1498;3.9274;
562.8000;0.1498;3.9248;
563.1000;0.1530;3.9300;
563.4000;0.1498;3.9300;
563.7000;0.1506;3.9351;
564.0000;0.1522;3.9325;
564.3000;0.1514;3.9325;
564.6000;0.1514;3.9377;
564.9000;0.1514;3.9377;
565.2000;0.1522;3.9402;
565.5000;0.1514;3.9274;
565.8000;0.1514;3.9223;
566.1000;0.1408;3.8940;
566.4000;0.1579;3.9479;
566.7000;0.1506;3.9325;
567.0000;0.1522;3.9300;
567.3000;0.1522;3.9300;
567.6000;0.1514;3.9197;
567.9000;0.1498;3.9146;
568.2000;0.1555;3.9325;
568.5000;0.1498;3.9248;
568.8000;0.1514;3.9325;
569.1000;0.1506;3.9325;
569.4000;0.1498;3.9351;
569.7000;0.1522;3.9325;
570.0000;0.1490;3.9248;
570.3000;0.1514;3.9300;
570.6000;0.1498;3.9325;
570.9000;0.1530;3.9377;
571.2000;0.1506;3.9274;
571.5000;0.1498;3.9248;
571.8000;0.1498;3.9300;
572.1000;0.1506;3.9248;
572.4000;0.1522;3.9197;
572.7000;0.1506;3.9197;
573.0000;0.1490;3.9171;
573.3000;0.1514;3.9223;
573.6000;0.1514;3.9248;
573.9000;0.1506;3.9223;
574.2000;0.1498;3.9274;
574.5000;0.1530;3.9351;
574.8000;0.1514;3.9300;
575.1000;0.1506;3.9274;
575.4000;0.1514;3.9300;
575.7000;0.1514;3.9377;
576.0000;0.1538;3.9453;
576.3000;0.1400;3.8940;
576.6000;0.1498;3.9197;
576.9000;0.1498;3.9197;
577.2000;0.1522;3.9223;
577.5000;0.1506;3.9146;
577.8000;0.1498;3.9017;
578.1000;0.1498;3.9094;
578.4000;0.1490;3.9069;
578.7000;0.1514;3.9197;
579.0000;0.1514;3.9248;
579.3000;0.1384;3.8889;
579.6000;0.1498;3.9197;
579.9000;0.1514;3.9197;
580.2000;0.1538;3.9197;
580.5000;0.1498;3.9094;
580.8000;0.1498;3.9197;
581.1000;0.1522;3.9223;
581.4000;0.1498;3.9146;
581.7000;0.1481;3.9120;
582.0000;0.1514;3.9248;
582.3000;0.1506;3.9300;
582.6000;0.1490;3.9248;
582.9000;0.1506;3.9223;
583.2000;0.1506;3.9248;
583.5000;0.1522;3.9223;
583.8000;0.1538;3.9274;
584.1000;0.1506;3.9171;
584.4000;0.1555;3.9274;
584.7000;0.1498;3.9120;
585.0000;0.1514;3.9197;
585.3000;0.1522;3.9248;
585.6000;0.1522;3.9223;
585.9000;0.1498;3.9146;
586.2000;0.1506;3.9069;
586.5000;0.1522;3.9069;
586.8000;0.1506;3.9094;
587.1000;0.1473;3.8966;
587.4000;0.1490;3.9043;
587.7000;0.1514;3.9120;
588.0000;0.1498;3.9094;
588.3000;0.1514;3.9094;
588.6000;0.1514;3.9069;
588.9000;0.1522;3.9120;
589.2000;0.1449;3.8838;
589.5000;0.1498;3.9043;
589.8000;0.1522;3.9094;
590.1000;0.1506;3.9120;
590.4000;0.1498;3.9120;
590.7000;0.1506;3.9248;
591.0000;0.1506;3.9223;
591.3000;0.1473;3.9120;
591.6000;0.1522;3.9274;
591.9000;0.1498;3.9274;
592.2000;0.1506;3.9402;
592.5000;0.1498;3.9453;
592.8000;0.1498;3.9428;
593.1000;0.1498;3.9248;
593.4000;0.1481;3.9146;
593.7000;0.1522;3.9300;
594.0000;0.1530;3.9325;
594.3000;0.1514;3.9402;
594.6000;0.1490;3.9377;
594.9000;0.1408;3.9197;
595.2000;0.1506;3.9377;
595.5000;0.1522;3.9453;
595.8000;0.1522;3.9453;
596.1000;0.1498;3.9428;
596.4000;0.1514;3.9402;
596.7000;0.1506;3.9402;
597.0000;0.1506;3.9325;
597.3000;0.1481;3.9248;
597.6000;0.1481;3.9248;
597.9000;0.1498;3.9300;
598.2000;0.1522;3.9402;
598.5000;0.1433;3.9043;
598.8000;0.1514;3.9274;
599.1000;0.1530;3.9351;
599.4000;0.1498;3.9274;
599.7000;0.1514;3.9300;
600.0000;0.1498;3.9248;
600.3000;0.1498;3.9171;
600.6000;0.1506;3.9146;
600.9000;0.1481;3.8915;
601.2000;0.1481;3.8787;
601.5000;0.1522;3.8863;
601.8000;0.1465;3.8658;
602.1000;0.1457;3.8453;
602.4000;0.1441;3.8299;
602.7000;0.1457;3.8171;
603.0000;0.1449;3.8145;
603.3000;0.1490;3.8145;
603.6000;0.1400;3.7863;
603.9000;0.1433;3.7889;
604.2000;0.1416;3.7940;
604.5000;0.1425;3.7940;
604.8000;0.1416;3.7863;
605.1000;0.1425;3.7914;
605.4000;0.1392;3.7709;
605.7000;0.1408;3.7735;
606.0000;0.1408;3.7735;
606.3000;0.1400;3.7735;
606.6000;0.1416;3.7786;
606.9000;0.1359;3.7658;
607.2000;0.1392;3.7760;
607.5000;0.1359;3.7709;
607.8000;0.1384;3.7812;
608.1000;0.1408;3.7837;
608.4000;0.1368;3.7683;
608.7000;0.1400;3.7709;
609.0000;0.1359;3.7606;
609.3000;0.1302;3.7427;
609.6000;0.1359;3.7786;
609.9000;0.1433;3.8068;
610.2000;0.1384;3.7889;
610.5000;0.1376;3.7812;
610.8000;0.1368;3.7786;
611.1000;0.1351;3.7709;
611.4000;0.1351;3.7760;
611.7000;0.1359;3.7760;
612.0000;0.1359;3.7760;
612.3000;0.1302;3.7555;
612.6000;0.1343;3.7735;
612.9000;0.1351;3.7760;
613.2000;0.1481;3.8171;
613.5000;0.1294;3.7606;
613.8000;0.1351;3.7760;
614.1000;0.1351;3.7760;
614.4000;0.1327;3.7709;
614.7000;0.1400;3.7863;
615.0000;0.1343;3.7683;
615.3000;0.1368;3.7632;
615.6000;0.1335;3.7581;
615.9000;0.1351;3.7632;
616.2000;0.1359;3.7735;
616.5000;0.1343;3.7632;
616.8000;0.1294;3.7453;
617.1000;0.1335;3.7530;
617.4000;0.1335;3.7581;
617.7000;0.1311;3.7530;
618.0000;0.1229;3.7222;
618.3000;0.1311;3.7427;
618.6000;0.1294;3.7478;
618.9000;0.1286;3.7453;
619.2000;0.1286;3.7401;
619.5000;0.1327;3.7504;
619.8000;0.1400;3.7760;
620.1000;0.1205;3.7170;
620.4000;0.1286;3.7401;
620.7000;0.1302;3.7401;
621.0000;0.1384;3.7735;
621.3000;0.1335;3.7632;
621.6000;0.1319;3.7709;
621.9000;0.1286;3.7606;
622.2000;0.1408;3.7889;
622.5000;0.1286;3.7581;
622.8000;0.1319;3.7555;
623.1000;0.1327;3.7606;
623.4000;0.1286;3.7606;
623.7000;0.1311;3.7632;
624.0000;0.1311;3.7581;
624.3000;0.1294;3.7478;
624.6000;0.1302;3.7658;
624.9000;0.1286;3.7606;
625.2000;0.1294;3.7581;
625.5000;0.1286;3.7555;
625.8000;0.1294;3.7683;
626.1000;0.1302;3.7786;
626.4000;0.1270;3.7760;
626.7000;0.1286;3.7709;
627.0000;0.1270;3.7632;
627.3000;0.1311;3.7735;
627.6000;0.1286;3.7683;
627.9000;0.1254;3.7555;
628.2000;0.1286;3.7581;
628.5000;0.1278;3.7658;
628.8000;0.1286;3.7632;
629.1000;0.1270;3.7632;
629.4000;0.1270;3.7632;
629.7000;0.1278;3.7606;
630.0000;0.1254;3.7504;
630.3000;0.1262;3.7530;
630.6000;0.1262;3.7581;
630.9000;0.1286;3.7658;
631.2000;0.1286;3.7658;
631.5000;0.1254;3.7581;
631.8000;0.1262;3.7581;
632.1000;0.1302;3.7735;
632.4000;0.1286;3.7760;
632.7000;0.1294;3.7914;
633.0000;0.1262;3.7786;
633.3000;0.1262;3.7786;
633.6000;0.1262;3.7683;
633.9000;0.1278;3.7786;
634.2000;0.1254;3.7786;
634.5000;0.1302;3.7889;
634.8000;0.1245;3.7683;
635.1000;0.1270;3.7735;
635.4000;0.1237;3.7658;
635.7000;0.1221;3.7555;
636.0000;0.1254;3.7581;
636.3000;0.1351;3.7914;
636.6000;0.1278;3.7683;
636.9000;0.1245;3.7606;
637.2000;0.1197;3.7555;
637.5000;0.1294;3.7812;
637.8000;0.1262;3.7735;
638.1000;0.1335;3.7889;
638.4000;0.1294;3.7735;
638.7000;0.1294;3.7786;
639.0000;0.1254;3.7683;
639.3000;0.1221;3.7606;
639.6000;0.1221;3.7555;
639.9000;0.1286;3.7735;
640.2000;0.1262;3.7606;
640.5000;0.1237;3.7504;
640.8000;0.1262;3.7581;
641.1000;0.1254;3.7530;
641.4000;0.1237;3.7606;
641.7000;0.1245;3.7658;
642.0000;0.1319;3.7940;
642.3000;0.1221;3.7555;
642.6000;0.1254;3.7658;
642.9000;0.1254;3.7632;
643.2000;0.1245;3.7709;
643.5000;0.1180;3.7606;
643.8000;0.1254;3.7889;
644.1000;0.1278;3.7940;
644.4000;0.1221;3.7709;
644.7000;0.1229;3.7709;
645.0000;0.1311;3.7889;
645.3000;0.1229;3.7606;
645.6000;0.1286;3.7683;
645.9000;0.1237;3.7555;
646.2000;0.1319;3.7709;
646.5000;0.1237;3.7453;
646.8000;0.1205;3.7401;
647.1000;0.1262;3.7453;
647.4000;0.1221;3.7350;
647.7000;0.1319;3.7581;
648.0000;0.1229;3.7273;
648.3000;0.1245;3.7350;
648.6000;0.1229;3.7299;
648.9000;0.1221;3.7299;
649.2000;0.1245;3.7324;
649.5000;0.1237;3.7324;
649.8000;0.1221;3.7273;
650.1000;0.1221;3.7299;
650.4000;0.1221;3.7376;
650.7000;0.1213;3.7324;
651.0000;0.1237;3.7350;
651.3000;0.1205;3.7299;
651.6000;0.1229;3.7324;
651.9000;0.1221;3.7299;
652.2000;0.1245;3.7376;
652.5000;0.1213;3.7401;
652.8000;0.1156;3.7170;
653.1000;0.1229;3.7453;
653.4000;0.1237;3.7453;
653.7000;0.1245;3.7453;
654.0000;0.1254;3.7478;
654.3000;0.1213;3.7453;
654.6000;0.1213;3.7478;
654.9000;0.1197;3.7401;
655.2000;0.1229;3.7504;
655.5000;0.1221;3.7478;
655.8000;0.1262;3.7632;
656.1000;0.1123;3.7273;
656.4000;0.1205;3.7427;
656.7000;0.1221;3.7530;
657.0000;0.1319;3.7735;
657.3000;0.1229;3.7504;
657.6000;0.1197;3.7350;
657.9000;0.1205;3.7324;
658.2000;0.1156;3.7170;
658.5000;0.1237;3.7299;
658.8000;0.1213;3.7324;
659.1000;0.1213;3.7299;
659.4000;0.1229;3.7376;
659.7000;0.1213;3.7401;
660.0000;0.1229;3.7453;
660.3000;0.1197;3.7453;
660.6000;0.1221;3.7427;
660.9000;0.1270;3.7658;
661.2000;0.1172;3.7376;
661.5000;0.1237;3.7555;
661.8000;0.1205;3.7555;
662.1000;0.1197;3.7478;
662.4000;0.1262;3.7658;
662.7000;0.1221;3.7581;
663.0000;0.1327;3.7940;
663.3000;0.1213;3.7606;
663.6000;0.1213;3.7478;
663.9000;0.1197;3.7453;
664.2000;0.1213;3.7555;
664.5000;0.1229;3.7581;
664.8000;0.1229;3.7581;
665.1000;0.1213;3.7530;
665.4000;0.1221;3.7478;
665.7000;0.1213;3.7453;
666.0000;0.1213;3.7530;
666.3000;0.1188;3.7530;
666.6000;0.1213;3.7581;
666.9000;0.1197;3.7581;
667.2000;0.1262;3.7709;
667.5000;0.1245;3.7555;
667.8000;0.1270;3.7709;
668.1000;0.1229;3.7658;
668.4000;0.1197;3.7606;
668.7000;0.1221;3.7632;
669.0000;0.1205;3.7581;
669.3000;0.1245;3.7709;
669.6000;0.1205;3.7606;
669.9000;0.1180;3.7530;
670.2000;0.1294;3.7812;
670.5000;0.1188;3.7606;
670.8000;0.1172;3.7530;
671.1000;0.1197;3.7504;
671.4000;0.1205;3.7478;
671.7000;0.1180;3.7427;
672.0000;0.1205;3.7504;
672.3000;0.1180;3.7453;
672.6000;0.1188;3.7427;
672.9000;0.1188;3.7401;
673.2000;0.1205;3.7427;
673.5000;0.1205;3.7324;
673.8000;0.1205;3.7324;
674.1000;0.1188;3.7299;
674.4000;0.1156;3.7222;
674.7000;0.1221;3.7427;
675.0000;0.1188;3.7376;
675.3000;0.1172;3.7324;
675.6000;0.1197;3.7427;
675.9000;0.1254;3.7504;
676.2000;0.1229;3.7478;
676.5000;0.1107;3.7068;
676.8000;0.1148;3.7119;
677.1000;0.1140;3.7145;
677.4000;0.1245;3.7401;
677.7000;0.1091;3.6965;
678.0000;0.1197;3.7376;
678.3000;0.1156;3.7299;
678.6000;0.1188;3.7376;
678.9000;0.1188;3.7350;
679.2000;0.1188;3.7324;
679.5000;0.1164;3.7273;
679.8000;0.1245;3.7555;
680.1000;0.1197;3.7427;
680.4000;0.1188;3.7427;
680.7000;0.1156;3.7273;
681.0000;0.1197;3.7453;
681.3000;0.1229;3.7530;
681.6000;0.1156;3.7350;
681.9000;0.1197;3.7555;
682.2000;0.1115;3.7376;
682.5000;0.1197;3.7530;
682.8000;0.1188;3.7555;
683.1000;0.1156;3.7478;
683.4000;0.1197;3.7632;
683.7000;0.1180;3.7530;
684.0000;0.1188;3.7555;
684.3000;0.1205;3.7555;
684.6000;0.1197;3.7581;
684.9000;0.1197;3.7581;
685.2000;0.1188;3.7555;
685.5000;0.1197;3.7555;
685.8000;0.1172;3.7581;
686.1000;0.1254;3.7786;
686.4000;0.1180;3.7632;
686.7000;0.1188;3.7658;
687.0000;0.1172;3.7581;
687.3000;0.1197;3.7709;
687.6000;0.1172;3.7786;
687.9000;0.1172;3.7812;
688.2000;0.1197;3.7940;
688.5000;0.1197;3.7991;
688.8000;0.1172;3.7863;
689.1000;0.1197;3.7863;
689.4000;0.1172;3.7786;
689.7000;0.1180;3.7760;
690.0000;0.1197;3.7709;
690.3000;0.1164;3.7632;
690.6000;0.1180;3.7606;
690.9000;0.1213;3.7581;
691.2000;0.1221;3.7581;
691.5000;0.1188;3.7478;
691.8000;0.1172;3.7401;
692.1000;0.1197;3.7350;
692.4000;0.1197;3.7401;
692.7000;0.1099;3.7222;
693.0000;0.1188;3.7555;
693.3000;0.1197;3.7632;
693.6000;0.1172;3.7530;
693.9000;0.1172;3.7478;
694.2000;0.1188;3.7632;
694.5000;0.1123;3.7427;
694.8000;0.1172;3.7530;
695.1000;0.1188;3.7581;
695.4000;0.1188;3.7606;
695.7000;0.1205;3.7581;
696.0000;0.1172;3.7478;
696.3000;0.1172;3.7478;
696.6000;0.1197;3.7504;
696.9000;0.1221;3.7581;
697.2000;0.1180;3.7478;
697.5000;0.1188;3.7530;
697.8000;0.1197;3.7632;
698.1000;0.1188;3.7504;
698.4000;0.1188;3.7350;
698.7000;0.1156;3.7401;
699.0000;0.1172;3.7478;
699.3000;0.1172;3.7530;
699.6000;0.1197;3.7683;
699.9000;0.1188;3.7683;
700.2000;0.1180;3.7632;
700.5000;0.1197;3.7709;
700.8000;0.1205;3.7760;
701.1000;0.1172;3.7683;
701.4000;0.1180;3.7658;
701.7000;0.1197;3.7760;
702.0000;0.1172;3.7632;
702.3000;0.1180;3.7683;
702.6000;0.1148;3.7658;
702.9000;0.1123;3.7658;
703.2000;0.1221;3.7940;
703.5000;0.1156;3.7683;
703.8000;0.1156;3.7606;
704.1000;0.1172;3.7632;
704.4000;0.1188;3.7683;
704.7000;0.1148;3.7632;
705.0000;0.1156;3.7504;
705.3000;0.1188;3.7504;
705.6000;0.1188;3.7530;
705.9000;0.1180;3.7504;
706.2000;0.1197;3.7606;
706.5000;0.1172;3.7581;
706.8000;0.1164;3.7606;
707.1000;0.1156;3.7683;
707.4000;0.1188;3.7735;
707.7000;0.1180;3.7735;
708.0000;0.1180;3.7606;
708.3000;0.1197;3.7658;
708.6000;0.1156;3.7581;
708.9000;0.1156;3.7555;
709.2000;0.1172;3.7530;
709.5000;0.1164;3.7555;
709.8000;0.1164;3.7555;
710.1000;0.1172;3.7530;
710.4000;0.1156;3.7504;
710.7000;0.1164;3.7478;
711.0000;0.1164;3.7530;
711.3000;0.1197;3.7581;
711.6000;0.1188;3.7504;
711.9000;0.1197;3.7478;
712.2000;0.1188;3.7453;
712.5000;0.1172;3.7453;
712.8000;0.1205;3.7606;
713.1000;0.1172;3.7504;
713.4000;0.1205;3.7632;
713.7000;0.1156;3.7581;
714.0000;0.1164;3.7709;
714.3000;0.1131;3.7555;
714.6000;0.1148;3.7530;
714.9000;0.1180;3.7632;
715.2000;0.1148;3.7555;
715.5000;0.1172;3.7606;
715.8000;0.1188;3.7581;
716.1000;0.1213;3.7735;
716.4000;0.1156;3.7504;
716.7000;0.1131;3.7401;
717.0000;0.1221;3.7683;
717.3000;0.1172;3.7581;
717.6000;0.1205;3.7632;
717.9000;0.1164;3.7581;
718.2000;0.1156;3.7555;
718.5000;0.1180;3.7581;
718.8000;0.1172;3.7581;
719.1000;0.1156;3.7555;
719.4000;0.1164;3.7581;
719.7000;0.1180;3.7632;
720.0000;0.1180;3.7632;
720.3000;0.1172;3.7606;
720.6000;0.1172;3.7632;
720.9000;0.1188;3.7632;
721.2000;0.1188;3.7581;
721.5000;0.1172;3.7478;
721.8000;0.1180;3.7478;
722.1000;0.1180;3.7453;
722.4000;0.1221;3.7606;
722.7000;0.1164;3.7478;
723.0000;0.1148;3.7401;
723.3000;0.1180;3.7376;
723.6000;0.1148;3.7299;
723.9000;0.1172;3.7299;
724.2000;0.1172;3.7350;
724.5000;0.1164;3.7376;
724.8000;0.1107;3.7196;
725.1000;0.1164;3.7324;
725.4000;0.1164;3.7324;
725.7000;0.1221;3.7530;
726.0000;0.1115;3.7247;
726.3000;0.1180;3.7530;
726.6000;0.1148;3.7530;
726.9000;0.1180;3.7606;
727.2000;0.1115;3.7453;
727.5000;0.1180;3.7606;
727.8000;0.1123;3.7427;
728.1000;0.1164;3.7530;
728.4000;0.1131;3.7401;
728.7000;0.1180;3.7606;
729.0000;0.1245;3.7735;
729.3000;0.1172;3.7530;
729.6000;0.1172;3.7555;
729.9000;0.1164;3.7555;
730.2000;0.1245;3.7735;
730.5000;0.1172;3.7453;
730.8000;0.1156;3.7453;
731.1000;0.1148;3.7530;
731.4000;0.1164;3.7658;
731.7000;0.1156;3.7530;
732.0000;0.1172;3.7530;
732.3000;0.1180;3.7555;
732.6000;0.1115;3.7453;
732.9000;0.1172;3.7632;
733.2000;0.1164;3.7530;
733.5000;0.1123;3.7427;
733.8000;0.1172;3.7555;
734.1000;0.1156;3.7478;
734.4000;0.1131;3.7478;
734.7000;0.1188;3.7606;
735.0000;0.1066;3.7273;
735.3000;0.1140;3.7530;
735.6000;0.1156;3.7555;
735.9000;0.1180;3.7555;
736.2000;0.1164;3.7530;
736.5000;0.1172;3.7555;
736.8000;0.1188;3.7632;
737.1000;0.1123;3.7376;
737.4000;0.1188;3.7581;
737.7000;0.1180;3.7555;
738.0000;0.1180;3.7581;
738.3000;0.1180;3.7504;
738.6000;0.1172;3.7581;
738.9000;0.1180;3.7683;
739.2000;0.1180;3.7658;
739.5000;0.1229;3.7786;
739.8000;0.1148;3.7478;
740.1000;0.1188;3.7658;
740.4000;0.1172;3.7606;
740.7000;0.1123;3.7504;
741.0000;0.1205;3.7709;
741.3000;0.1164;3.7632;
741.6000;0.1197;3.7683;
741.9000;0.1164;3.7760;
742.2000;0.1172;3.7812;
742.5000;0.1131;3.7735;
742.8000;0.1180;3.7837;
743.1000;0.1148;3.7863;
743.4000;0.1172;3.7889;
743.7000;0.1156;3.7786;
744.0000;0.1180;3.7760;
744.3000;0.1164;3.7735;
744.6000;0.1148;3.7709;
744.9000;0.1156;3.7812;
745.2000;0.1140;3.7786;
745.5000;0.1180;3.7914;
745.8000;0.1180;3.7786;
746.1000;0.1140;3.7606;
746.4000;0.1172;3.7581;
746.7000;0.1164;3.7478;
747.0000;0.1164;3.7504;
747.3000;0.1164;3.7504;
747.6000;0.1172;3.7606;
747.9000;0.1180;3.7683;
748.2000;0.1140;3.7632;
748.5000;0.1197;3.7683;
748.8000;0.1164;3.7683;
749.1000;0.1172;3.7760;
749.4000;0.1115;3.7632;
749.7000;0.1164;3.7735;
750.0000;0.1172;3.7683;
750.3000;0.1148;3.7530;
750.6000;0.1156;3.7606;
750.9000;0.1148;3.7581;
751.2000;0.1148;3.7581;
751.5000;0.1148;3.7606;
751.8000;0.1156;3.7606;
752.1000;0.1123;3.7427;
752.4000;0.1172;3.7530;
752.7000;0.1180;3.7606;
753.0000;0.1074;3.7324;
753.3000;0.1148;3.7606;
753.6000;0.1123;3.7555;
753.9000;0.1205;3.7735;
754.2000;0.1123;3.7478;
754.5000;0.1172;3.7606;
754.8000;0.1164;3.7530;
755.1000;0.1213;3.7632;
755.4000;0.1172;3.7632;
755.7000;0.1197;3.7837;
756.0000;0.1107;3.7581;
756.3000;0.1164;3.7735;
756.6000;0.1180;3.7863;
756.9000;0.1172;3.7863;
757.2000;0.1148;3.7709;
757.5000;0.1164;3.7786;
757.8000;0.1131;3.7683;
758.1000;0.1164;3.7735;
758.4000;0.1115;3.7606;
758.7000;0.1156;3.7683;
759.0000;0.1164;3.7735;
759.3000;0.1172;3.7735;
759.6000;0.1172;3.7709;
759.9000;0.1156;3.7735;
760.2000;0.1148;3.7658;
760.5000;0.1180;3.7683;
760.8000;0.1164;3.7504;
761.1000;0.1172;3.7530;
761.4000;0.1164;3.7555;
761.7000;0.1148;3.7478;
762.0000;0.1172;3.7606;
762.3000;0.1091;3.7350;
762.6000;0.1164;3.7606;
762.9000;0.1164;3.7658;
763.2000;0.1148;3.7683;
763.5000;0.1180;3.7735;
763.8000;0.1188;3.7760;
764.1000;0.1221;3.7837;
764.4000;0.1180;3.7683;
764.7000;0.1180;3.7709;
765.0000;0.1172;3.7786;
765.3000;0.1140;3.7709;
765.6000;0.1180;3.7709;
765.9000;0.1180;3.7760;
766.2000;0.1164;3.7658;
766.5000;0.1197;3.7606;
766.8000;0.1148;3.7453;
767.1000;0.1164;3.7581;
767.4000;0.1140;3.7530;
767.7000;0.1156;3.7478;
768.0000;0.1156;3.7504;
768.3000;0.1172;3.7530;
768.6000;0.1140;3.7606;
768.9000;0.1164;3.7632;
769.2000;0.1140;3.7530;
769.5000;0.1148;3.7530;
769.8000;0.1172;3.7658;
770.1000;0.1180;3.7632;
770.4000;0.1197;3.7735;
770.7000;0.1148;3.7581;
771.0000;0.1115;3.7478;
771.3000;0.1172;3.7504;
771.6000;0.1229;3.7632;
771.9000;0.1026;3.7196;
772.2000;0.1172;3.7581;
772.5000;0.1172;3.7555;
772.8000;0.1123;3.7427;
773.1000;0.1180;3.7530;
773.4000;0.1164;3.7453;
773.7000;0.1164;3.7427;
774.0000;0.1197;3.7606;
774.3000;0.1148;3.7427;
774.6000;0.1156;3.7453;
774.9000;0.1188;3.7530;
775.2000;0.1180;3.7530;
775.5000;0.1148;3.7478;
775.8000;0.1156;3.7606;
776.1000;0.1164;3.7606;
776.4000;0.1156;3.7427;
776.7000;0.1172;3.7401;
777.0000;0.1148;3.7427;
777.3000;0.1156;3.7376;
777.6000;0.1172;3.7530;
777.9000;0.1172;3.7504;
778.2000;0.1148;3.7581;
778.5000;0.1091;3.7478;
778.8000;0.1172;3.7709;
779.1000;0.1140;3.7632;
779.4000;0.1156;3.7658;
779.7000;0.1164;3.7683;
780.0000;0.1164;3.7735;
780.3000;0.1164;3.7683;
780.6000;0.1180;3.7658;
780.9000;0.1164;3.7530;
781.2000;0.1172;3.7632;
781.5000;0.1164;3.7581;
781.8000;0.1115;3.7478;
782.1000;0.1164;3.7478;
782.4000;0.1156;3.7427;
782.7000;0.1164;3.7273;
783.0000;0.1156;3.7299;
783.3000;0.1180;3.7401;
783.6000;0.1148;3.7350;
783.9000;0.1172;3.7401;
784.2000;0.1156;3.7453;
784.5000;0.1172;3.7401;
784.8000;0.1213;3.7555;
785.1000;0.1278;3.7683;
785.4000;0.1164;3.7401;
785.7000;0.1164;3.7427;
786.0000;0.1123;3.7247;
786.3000;0.1205;3.7581;
786.6000;0.1140;3.7376;
786.9000;0.1148;3.7453;
787.2000;0.1140;3.7453;
787.5000;0.1131;3.7478;
787.8000;0.1172;3.7581;
788.1000;0.1148;3.7478;
788.4000;0.1156;3.7478;
788.7000;0.1205;3.7632;
789.0000;0.1140;3.7401;
789.3000;0.1172;3.7530;
789.6000;0.1148;3.7530;
789.9000;0.1140;3.7555;
790.2000;0.1172;3.7632;
790.5000;0.1091;3.7401;
790.8000;0.1164;3.7504;
791.1000;0.1156;3.7478;
791.4000;0.1148;3.7530;
791.7000;0.1148;3.7581;
792.0000;0.1156;3.7632;
792.3000;0.1140;3.7555;
792.6000;0.1148;3.7581;
792.9000;0.1180;3.7632;
793.2000;0.1172;3.7581;
793.5000;0.1148;3.7453;
793.8000;0.1099;3.7376;
794.1000;0.1140;3.7504;
794.4000;0.1148;3.7530;
794.7000;0.1164;3.7478;
795.0000;0.1148;3.7453;
795.3000;0.1107;3.7247;
795.6000;0.1205;3.7478;
795.9000;0.1156;3.7350;
796.2000;0.1123;3.7222;
796.5000;0.1140;3.7273;
796.8000;0.1083;3.7273;
797.1000;0.1156;3.7478;
797.4000;0.1188;3.7683;
797.7000;0.1123;3.7581;
798.0000;0.1164;3.7606;
798.3000;0.1156;3.7530;
798.6000;0.1172;3.7555;
798.9000;0.1131;3.7427;
799.2000;0.1221;3.7735;
799.5000;0.1148;3.7581;
799.8000;0.1148;3.7606;
800.1000;0.1123;3.7530;
800.4000;0.1140;3.7453;
800.7000;0.1148;3.7530;
801.0000;0.1164;3.7606;
801.3000;0.1140;3.7504;
801.6000;0.1156;3.7581;
801.9000;0.1164;3.7555;
802.2000;0.1156;3.7606;
802.5000;0.1148;3.7555;
802.8000;0.1164;3.7453;
803.1000;0.1131;3.7401;
803.4000;0.1156;3.7427;
803.7000;0.1148;3.7401;
804.0000;0.1148;3.7427;
804.3000;0.1156;3.7453;
804.6000;0.1140;3.7427;
804.9000;0.1131;3.7350;
805.2000;0.1140;3.7324;
805.5000;0.1131;3.7273;
805.8000;0.1156;3.7324;
806.1000;0.1148;3.7324;
806.4000;0.1156;3.7504;
806.7000;0.1164;3.7606;
807.0000;0.1156;3.7581;
807.3000;0.1156;3.7530;
807.6000;0.1197;3.7658;
807.9000;0.1213;3.7658;
808.2000;0.1156;3.7581;
808.5000;0.1148;3.7555;
808.8000;0.1131;3.7401;
809.1000;0.1140;3.7478;
809.4000;0.1123;3.7453;
809.7000;0.1188;3.7581;
810.0000;0.1205;3.7581;
810.3000;0.1091;3.7376;
810.6000;0.1164;3.7581;
810.9000;0.1180;3.7683;
811.2000;0.1205;3.7786;
811.5000;0.1156;3.7632;
811.8000;0.1164;3.7581;
812.1000;0.1164;3.7581;
812.4000;0.1156;3.7581;
812.7000;0.1148;3.7581;
813.0000;0.1156;3.7606;
813.3000;0.1164;3.7530;
813.6000;0.1148;3.7581;
813.9000;0.1156;3.7555;
814.2000;0.1148;3.7504;
814.5000;0.1188;3.7632;
814.8000;0.1140;3.7555;
815.1000;0.1123;3.7555;
815.4000;0.1140;3.7658;
815.7000;0.1148;3.7632;
816.0000;0.1180;3.7658;
816.3000;0.1213;3.7812;
816.6000;0.1156;3.7581;
816.9000;0.1140;3.7606;
817.2000;0.1148;3.7683;
817.5000;0.1123;3.7530;
817.8000;0.1148;3.7606;
818.1000;0.1148;3.7658;
818.4000;0.1107;3.7478;
818.7000;0.1148;3.7632;
819.0000;0.1091;3.7555;
819.3000;0.1188;3.7966;
819.6000;0.1140;3.7735;
819.9000;0.1148;3.7683;
820.2000;0.1148;3.7709;
820.5000;0.1148;3.7683;
820.8000;0.1205;3.7837;
821.1000;0.1148;3.7683;
821.4000;0.1123;3.7683;
821.7000;0.1140;3.7735;
822.0000;0.1156;3.7709;
822.3000;0.1164;3.7735;
822.6000;0.1148;3.7786;
822.9000;0.1148;3.7837;
823.2000;0.1156;3.7837;
823.5000;0.1131;3.7837;
823.8000;0.1172;3.7914;
824.1000;0.1172;3.7786;
824.4000;0.1148;3.7889;
824.7000;0.1164;3.7940;
825.0000;0.1148;3.7837;
825.3000;0.1148;3.7786;
825.6000;0.1123;3.7709;
825.9000;0.1156;3.7786;
826.2000;0.1278;3.8145;
826.5000;0.1148;3.7735;
826.8000;0.1172;3.7709;
827.1000;0.1172;3.7735;
827.4000;0.1180;3.7760;
827.7000;0.1140;3.7606;
828.0000;0.1148;3.7581;
828.3000;0.1156;3.7581;
828.6000;0.1074;3.7299;
828.9000;0.1164;3.7606;
829.2000;0.1148;3.7555;
829.5000;0.1156;3.7606;
829.8000;0.1164;3.7709;
830.1000;0.1131;3.7683;
830.4000;0.1131;3.7735;
830.7000;0.1156;3.7632;
831.0000;0.1148;3.7530;
831.3000;0.1164;3.7555;
831.6000;0.1148;3.7606;
831.9000;0.1091;3.7350;
832.2000;0.1164;3.7581;
832.5000;0.1148;3.7555;
832.8000;0.1156;3.7658;
833.1000;0.1156;3.7658;
833.4000;0.1156;3.7658;
833.7000;0.1140;3.7606;
834.0000;0.1164;3.7735;
834.3000;0.1156;3.7760;
834.6000;0.1140;3.7735;
834.9000;0.1164;3.7683;
835.2000;0.1180;3.7658;
835.5000;0.1131;3.7555;
835.8000;0.1131;3.7478;
836.1000;0.1148;3.7530;
836.4000;0.1197;3.7735;
836.7000;0.1148;3.7581;
837.0000;0.1180;3.7606;
837.3000;0.1156;3.7581;
837.6000;0.1229;3.7863;
837.9000;0.1164;3.7606;
838.2000;0.1131;3.7530;
838.5000;0.1115;3.7478;
838.8000;0.1156;3.7606;
839.1000;0.1164;3.7658;
839.4000;0.1156;3.7581;
839.7000;0.1140;3.7606;
840.0000;0.1156;3.7606;
840.3000;0.1115;3.7555;
840.6000;0.1156;3.7683;
840.9000;0.1148;3.7709;
841.2000;0.1115;3.7555;
841.5000;0.1148;3.7555;
841.8000;0.1131;3.7581;
842.1000;0.1131;3.7504;
842.4000;0.1213;3.7709;
842.7000;0.1148;3.7555;
843.0000;0.1172;3.7709;
843.3000;0.1188;3.7760;
843.6000;0.1156;3.7709;
843.9000;0.1140;3.7760;
844.2000;0.1180;3.7837;
844.5000;0.1164;3.7786;
844.8000;0.1042;3.7453;
845.1000;0.1099;3.7504;
845.4000;0.1164;3.7632;
845.7000;0.1205;3.7735;
846.0000;0.1140;3.7530;
846.3000;0.1172;3.7709;
846.6000;0.1148;3.7632;
846.9000;0.1148;3.7581;
847.2000;0.1164;3.7581;
847.5000;0.1131;3.7530;
847.8000;0.1131;3.7530;
848.1000;0.1213;3.7760;
848.4000;0.1164;3.7632;
848.7000;0.1148;3.7632;
849.0000;0.1148;3.7709;
849.3000;0.1140;3.7632;
849.6000;0.1156;3.7555;
849.9000;0.1156;3.7453;
850.2000;0.1148;3.7478;
850.5000;0.1156;3.7530;
850.8000;0.1164;3.7606;
851.1000;0.1197;3.7683;
851.4000;0.1156;3.7709;
851.7000;0.1164;3.7760;
852.0000;0.1164;3.7735;
852.3000;0.1042;3.7350;
852.6000;0.1148;3.7632;
852.9000;0.1140;3.7683;
853.2000;0.1180;3.7735;
853.5000;0.1148;3.7786;
853.8000;0.1140;3.7658;
854.1000;0.1123;3.7658;
854.4000;0.1156;3.7735;
854.7000;0.1050;3.7350;
855.0000;0.1123;3.7581;
855.3000;0.1131;3.7530;
855.6000;0.1140;3.7606;
855.9000;0.1156;3.7683;
856.2000;0.1172;3.7632;
856.5000;0.1148;3.7504;
856.8000;0.1123;3.7530;
857.1000;0.1197;3.7735;
857.4000;0.1131;3.7530;
857.7000;0.1213;3.7812;
858.0000;0.1180;3.7735;
858.3000;0.1172;3.7812;
858.6000;0.1156;3.7812;
858.9000;0.1156;3.7760;
859.2000;0.1156;3.7786;
859.5000;0.1148;3.7760;
859.8000;0.1164;3.7812;
860.1000;0.1148;3.7658;
860.4000;0.1156;3.7683;
860.7000;0.1148;3.7786;
861.0000;0.1140;3.7709;
861.3000;0.1148;3.7735;
861.6000;0.1131;3.7735;
861.9000;0.1148;3.7760;
862.2000;0.1148;3.7812;
862.5000;0.1148;3.7812;
862.8000;0.1140;3.7760;
863.1000;0.1131;3.7709;
863.4000;0.1172;3.7837;
863.7000;0.1148;3.7735;
864.0000;0.1180;3.7760;
864.3000;0.1172;3.7709;
864.6000;0.1213;3.7812;
864.9000;0.1164;3.7760;
865.2000;0.1131;3.7735;
865.5000;0.1180;3.7889;
865.8000;0.1156;3.7863;
866.1000;0.1180;3.7863;
866.4000;0.1270;3.8043;
866.7000;0.1140;3.7658;
867.0000;0.1237;3.7914;
867.3000;0.1091;3.7478;
867.6000;0.1156;3.7632;
867.9000;0.1156;3.7683;
868.2000;0.1156;3.7709;
868.5000;0.1058;3.7401;
868.8000;0.1148;3.7760;
869.1000;0.1156;3.7760;
869.4000;0.1172;3.7709;
869.7000;0.1164;3.7632;
870.0000;0.1140;3.7606;
870.3000;0.1156;3.7632;
870.6000;0.1140;3.7606;
870.9000;0.1180;3.7709;
871.2000;0.1148;3.7658;
871.5000;0.1172;3.7683;
871.8000;0.1123;3.7555;
872.1000;0.1180;3.7606;
872.4000;0.1148;3.7555;
872.7000;0.1131;3.7504;
873.0000;0.1254;3.7837;
873.3000;0.1140;3.7555;
873.6000;0.1172;3.7658;
873.9000;0.1148;3.7632;
874.2000;0.1140;3.7683;
874.5000;0.1148;3.7683;
874.8000;0.1172;3.7658;
875.1000;0.1148;3.7632;
875.4000;0.1131;3.7555;
875.7000;0.1140;3.7658;
876.0000;0.1140;3.7735;
876.3000;0.1156;3.7786;
876.6000;0.1156;3.7837;
876.9000;0.1148;3.7786;
877.2000;0.1180;3.7863;
877.5000;0.1091;3.7735;
877.8000;0.1156;3.7837;
878.1000;0.1148;3.7735;
878.4000;0.1140;3.7735;
878.7000;0.1156;3.7837;
879.0000;0.1140;3.7760;
879.3000;0.1131;3.7683;
879.6000;0.1164;3.7709;
879.9000;0.1148;3.7760;
880.2000;0.1131;3.7760;
880.5000;0.1050;3.7427;
880.8000;0.1140;3.7709;
881.1000;0.1164;3.7735;
881.4000;0.1131;3.7760;
881.7000;0.1140;3.7786;
882.0000;0.1262;3.8120;
882.3000;0.1074;3.7504;
882.6000;0.1074;3.7453;
882.9000;0.1123;3.7530;
883.2000;0.1131;3.7504;
883.5000;0.1164;3.7581;
883.8000;0.1140;3.7606;
884.1000;0.1156;3.7683;
884.4000;0.1164;3.7683;
884.7000;0.1205;3.7760;
885.0000;0.1140;3.7683;
885.3000;0.1091;3.7504;
885.6000;0.1131;3.7581;
885.9000;0.1172;3.7683;
886.2000;0.1188;3.7735;
886.5000;0.1148;3.7632;
886.8000;0.1148;3.7581;
887.1000;0.1131;3.7504;
887.4000;0.1131;3.7581;
887.7000;0.0969;3.7119;
888.0000;0.1156;3.7735;
888.3000;0.1140;3.7658;
888.6000;0.1148;3.7632;
888.9000;0.1148;3.7683;
889.2000;0.1213;3.7889;
889.5000;0.1156;3.7786;
889.8000;0.1172;3.7786;
890.1000;0.1156;3.7735;
890.4000;0.1164;3.7658;
890.7000;0.1140;3.7581;
891.0000;0.1099;3.7453;
891.3000;0.1164;3.7606;
891.6000;0.1156;3.7581;
891.9000;0.1172;3.7658;
892.2000;0.1148;3.7632;
892.5000;0.1156;3.7786;
892.8000;0.1148;3.7863;
893.1000;0.1140;3.7914;
893.4000;0.1123;3.7837;
893.7000;0.1140;3.7812;
894.0000;0.1140;3.7709;
894.3000;0.1140;3.7735;
894.6000;0.1148;3.7760;
894.9000;0.1140;3.7709;
895.2000;0.1140;3.7709;
895.5000;0.1131;3.7735;
895.8000;0.1148;3.7735;
896.1000;0.1140;3.7709;
896.4000;0.1164;3.7786;
896.7000;0.1148;3.7760;
897.0000;0.1156;3.7683;
897.3000;0.1148;3.7735;
897.6000;0.1140;3.7709;
897.9000;0.1164;3.7709;
898.2000;0.1156;3.7658;
898.5000;0.1140;3.7606;
898.8000;0.1148;3.7581;
899.1000;0.1148;3.7709;
899.4000;0.1140;3.7658;
899.7000;0.1123;3.7658;
900.0000;0.1156;3.7709;
900.3000;0.1140;3.7709;
900.6000;0.1140;3.7735;
900.9000;0.1172;3.7914;
901.2000;0.1115;3.7760;
901.5000;0.1140;3.7760;
901.8000;0.1131;3.7837;
902.1000;0.1140;3.7940;
902.4000;0.1140;3.7863;
902.7000;0.1131;3.7863;
903.0000;0.1123;3.7863;
903.3000;0.1156;3.8043;
903.6000;0.1148;3.7889;
903.9000;0.1050;3.7606;
904.2000;0.1172;3.7812;
904.5000;0.1180;3.7760;
904.8000;0.1115;3.7581;
905.1000;0.1140;3.7683;
905.4000;0.1131;3.7735;
905.7000;0.1140;3.7812;
906.0000;0.1229;3.7966;
906.3000;0.1156;3.7760;
906.6000;0.1164;3.7632;
906.9000;0.1148;3.7606;
907.2000;0.1164;3.7632;
907.5000;0.1164;3.7606;
907.8000;0.1156;3.7555;
908.1000;0.1156;3.7632;
908.4000;0.1156;3.7709;
908.7000;0.1099;3.7632;
909.0000;0.1140;3.7735;
909.3000;0.1140;3.7760;
909.6000;0.1180;3.7709;
909.9000;0.1205;3.7786;
910.2000;0.1140;3.7581;
910.5000;0.1148;3.7632;
910.8000;0.1156;3.7606;
911.1000;0.1156;3.7606;
911.4000;0.1156;3.7632;
911.7000;0.1099;3.7401;
912.0000;0.1131;3.7453;
912.3000;0.1107;3.7376;
912.6000;0.1180;3.7658;
912.9000;0.1164;3.7478;
913.2000;0.1107;3.7273;
913.5000;0.1058;3.7222;
913.8000;0.1083;3.7299;
914.1000;0.1180;3.7606;
914.4000;0.1156;3.7504;
914.7000;0.1164;3.7555;
915.0000;0.1042;3.7247;
915.3000;0.1123;3.7478;
915.6000;0.1140;3.7555;
915.9000;0.1115;3.7555;
916.2000;0.1115;3.7530;
916.5000;0.1197;3.7786;
916.8000;0.1131;3.7606;
917.1000;0.1148;3.7632;
917.4000;0.1140;3.7658;
917.7000;0.1131;3.7581;
918.0000;0.1172;3.7632;
918.3000;0.1140;3.7504;
918.6000;0.1148;3.7427;
918.9000;0.1148;3.7427;
919.2000;0.1123;3.7427;
919.5000;0.1156;3.7530;
919.8000;0.1156;3.7530;
920.1000;0.1164;3.7530;
920.4000;0.1131;3.7478;
920.7000;0.1164;3.7555;
921.0000;0.1148;3.7478;
921.3000;0.1172;3.7606;
921.6000;0.1148;3.7427;
921.9000;0.1148;3.7453;
922.2000;0.1140;3.7478;
922.5000;0.1180;3.7658;
922.8000;0.1083;3.7504;
923.1000;0.1148;3.7786;
923.4000;0.1140;3.7786;
923.7000;0.1140;3.7735;
924.0000;0.1156;3.7760;
924.3000;0.1156;3.7709;
924.6000;0.1148;3.7658;
924.9000;0.1148;3.7683;
925.2000;0.1156;3.7683;
925.5000;0.1262;3.7940;
925.8000;0.1123;3.7632;
926.1000;0.1115;3.7581;
926.4000;0.1156;3.7786;
926.7000;0.1148;3.7889;
927.0000;0.1172;3.7940;
927.3000;0.1131;3.7837;
927.6000;0.1164;3.7837;
927.9000;0.1099;3.7683;
928.2000;0.1172;3.7889;
928.5000;0.1156;3.7863;
928.8000;0.1180;3.7940;
929.1000;0.1148;3.7735;
929.4000;0.1140;3.7812;
929.7000;0.1131;3.7760;
930.0000;0.1140;3.7735;
930.3000;0.1156;3.7837;
930.6000;0.1140;3.7760;
930.9000;0.1131;3.7709;
931.2000;0.1140;3.7837;
931.5000;0.1148;3.7812;
931.8000;0.1156;3.7837;
932.1000;0.1131;3.7786;
932.4000;0.1140;3.7812;
932.7000;0.1148;3.7837;
933.0000;0.1156;3.7786;
933.3000;0.1140;3.7812;
933.6000;0.1156;3.7914;
933.9000;0.1140;3.7812;
934.2000;0.1131;3.7735;
934.5000;0.1131;3.7683;
934.8000;0.1156;3.7837;
935.1000;0.1188;3.7812;
935.4000;0.1131;3.7735;
935.7000;0.1066;3.7427;
936.0000;0.1197;3.7889;
936.3000;0.1188;3.7863;
936.6000;0.1140;3.7812;
936.9000;0.1099;3.7683;
937.2000;0.1123;3.7837;
937.5000;0.1164;3.7940;
937.8000;0.1148;3.7863;
938.1000;0.1188;3.7991;
938.4000;0.1123;3.7658;
938.7000;0.1140;3.7709;
939.0000;0.1148;3.7735;
939.3000;0.1058;3.7632;
939.6000;0.1148;3.7863;
939.9000;0.1131;3.7837;
940.2000;0.1156;3.7914;
940.5000;0.1156;3.7889;
940.8000;0.1156;3.7863;
941.1000;0.1148;3.7812;
941.4000;0.1197;3.7837;
941.7000;0.1140;3.7632;
942.0000;0.1140;3.7735;
942.3000;0.1164;3.7863;
942.6000;0.1131;3.7812;
942.9000;0.1123;3.7812;
943.2000;0.1164;3.7863;
943.5000;0.1140;3.7786;
943.8000;0.1123;3.7658;
944.1000;0.1140;3.7735;
944.4000;0.1278;3.8043;
944.7000;0.1131;3.7658;
945.0000;0.1148;3.7760;
945.3000;0.1188;3.7914;
945.6000;0.1018;3.7427;
945.9000;0.1140;3.7786;
946.2000;0.1156;3.7889;
946.5000;0.1131;3.7863;
946.8000;0.1156;3.7991;
947.1000;0.1131;3.7966;
947.4000;0.1140;3.7966;
947.7000;0.1131;3.7991;
948.0000;0.1156;3.8017;
948.3000;0.1148;3.7940;
948.6000;0.1140;3.7889;
948.9000;0.1115;3.7837;
949.2000;0.1115;3.7889;
949.5000;0.1172;3.8043;
949.8000;0.1164;3.8017;
950.1000;0.1148;3.7966;
950.4000;0.1148;3.7837;
950.7000;0.1156;3.7940;
951.0000;0.1131;3.7914;
951.3000;0.1156;3.7914;
951.6000;0.1131;3.7837;
951.9000;0.1131;3.7837;
952.2000;0.1164;3.7889;
952.5000;0.1066;3.7530;
952.8000;0.1156;3.7760;
953.1000;0.1140;3.7786;
953.4000;0.1156;3.7812;
953.7000;0.1148;3.7786;
954.0000;0.1140;3.7760;
954.3000;0.1140;3.7812;
954.6000;0.1131;3.7863;
954.9000;0.1188;3.7914;
955.2000;0.1123;3.7735;
955.5000;0.1156;3.7837;
955.8000;0.1148;3.7786;
956.1000;0.1164;3.7786;
956.4000;0.1156;3.7812;
956.7000;0.1164;3.7812;
957.0000;0.1156;3.7812;
957.3000;0.1148;3.7786;
957.6000;0.1156;3.7863;
957.9000;0.1148;3.7889;
958.2000;0.1164;3.7966;
958.5000;0.1148;3.7914;
958.8000;0.1164;3.7914;
959.1000;0.1050;3.7581;
959.4000;0.1140;3.7966;
959.7000;0.1131;3.7940;
960.0000;0.1091;3.7863;
960.3000;0.1164;3.8043;
960.6000;0.1148;3.7966;
960.9000;0.1164;3.8017;
961.2000;0.1140;3.7940;
961.5000;0.1140;3.7914;
961.8000;0.1099;3.7863;
962.1000;0.1148;3.7966;
962.4000;0.1172;3.7914;
962.7000;0.1131;3.7837;
963.0000;0.1131;3.7863;
963.3000;0.1131;3.7889;
963.6000;0.1131;3.7889;
963.9000;0.1213;3.8043;
964.2000;0.1229;3.7991;
964.5000;0.1123;3.7709;
964.8000;0.1156;3.7914;
965.1000;0.1180;3.8043;
965.4000;0.1148;3.7966;
965.7000;0.1140;3.7889;
966.0000;0.1091;3.7786;
966.3000;0.1140;3.7863;
966.6000;0.1148;3.7786;
966.9000;0.1131;3.7760;
967.2000;0.1140;3.7812;
967.5000;0.1197;3.7914;
967.8000;0.1156;3.7812;
968.1000;0.1123;3.7786;
968.4000;0.1148;3.7837;
968.7000;0.1156;3.7889;
969.0000;0.1156;3.7991;
969.3000;0.1156;3.7940;
969.6000;0.1131;3.7760;
969.9000;0.1148;3.7889;
970.2000;0.1156;3.7837;
970.5000;0.1156;3.7863;
970.8000;0.1131;3.7812;
971.1000;0.1148;3.7863;
971.4000;0.1140;3.7889;
971.7000;0.1140;3.7914;
972.0000;0.1140;3.7940;
972.3000;0.1140;3.7966;
972.6000;0.1180;3.8043;
972.9000;0.1148;3.7863;
973.2000;0.1148;3.7863;
973.5000;0.1148;3.7812;
973.8000;0.1180;3.7863;
974.1000;0.1164;3.7812;
974.4000;0.1131;3.7786;
974.7000;0.1140;3.7812;
975.0000;0.1156;3.7966;
975.3000;0.1034;3.7735;
975.6000;0.1131;3.8017;
975.9000;0.1156;3.7991;
976.2000;0.1148;3.8017;
976.5000;0.1156;3.7991;
976.8000;0.1140;3.7914;
977.1000;0.1074;3.7760;
977.4000;0.1083;3.7760;
977.7000;0.1140;3.7940;
978.0000;0.1140;3.7914;
978.3000;0.1148;3.7991;
978.6000;0.1140;3.8068;
978.9000;0.1237;3.8350;
979.2000;0.1148;3.8068;
979.5000;0.1164;3.8120;
979.8000;0.1131;3.8120;
980.1000;0.1131;3.8017;
980.4000;0.1164;3.8094;
980.7000;0.1148;3.8068;
981.0000;0.1148;3.7991;
981.3000;0.1140;3.7889;
981.6000;0.1066;3.7632;
981.9000;0.1164;3.7863;
982.2000;0.1140;3.7735;
982.5000;0.1156;3.7889;
982.8000;0.1188;3.7889;
983.1000;0.1156;3.7786;
983.4000;0.1188;3.7914;
983.7000;0.1042;3.7530;
984.0000;0.1172;3.7940;
984.3000;0.1099;3.7812;
984.6000;0.1148;3.7966;
984.9000;0.1123;3.7863;
985.2000;0.1140;3.7863;
985.5000;0.1140;3.7914;
985.8000;0.1123;3.7863;
986.1000;0.1026;3.7581;
986.4000;0.1066;3.7837;
986.7000;0.1188;3.8197;
987.0000;0.1148;3.8120;
987.3000;0.1140;3.8094;
987.6000;0.1254;3.8325;
987.9000;0.1156;3.8017;
988.2000;0.1188;3.8120;
988.5000;0.1123;3.7914;
988.8000;0.1148;3.7991;
989.1000;0.1107;3.7837;
989.4000;0.1172;3.7966;
989.7000;0.1140;3.7837;
990.0000;0.1123;3.7735;
990.3000;0.1148;3.7786;
990.6000;0.1140;3.7709;
990.9000;0.1131;3.7760;
991.2000;0.1140;3.7786;
991.5000;0.1164;3.7863;
991.8000;0.1148;3.7889;
992.1000;0.1164;3.7914;
992.4000;0.1156;3.7889;
992.7000;0.1123;3.7786;
993.0000;0.1172;3.7837;
993.3000;0.1172;3.7837;
993.6000;0.1123;3.7683;
993.9000;0.1140;3.7735;
994.2000;0.1156;3.7760;
994.5000;0.1148;3.7889;
994.8000;0.1140;3.7889;
995.1000;0.1180;3.8017;
995.4000;0.1164;3.7914;
995.7000;0.1148;3.7863;
996.0000;0.1156;3.7889;
996.3000;0.1050;3.7478;
996.6000;0.1172;3.7812;
996.9000;0.1156;3.7914;
997.2000;0.1074;3.7812;
997.5000;0.1164;3.7991;
997.8000;0.1229;3.8120;
998.1000;0.1066;3.7812;
998.4000;0.1164;3.8017;
998.7000;0.1115;3.7863;
999.0000;0.1245;3.8145;
999.3000;0.1140;3.7837;
999.6000;0.1140;3.7786;
999.9000;0.1115;3.7683;
1000.2000;0.1131;3.7786;
1000.5000;0.1164;3.7914;
1000.8000;0.1156;3.7966;
1001.1000;0.1164;3.7914;
1001.4000;0.1156;3.7889;
1001.7000;0.1148;3.7889;
1002.0000;0.1172;3.7991;
1002.3000;0.1164;3.7966;
1002.6000;0.1172;3.7837;
1002.9000;0.1123;3.7658;
1003.2000;0.1140;3.7786;
1003.5000;0.1180;3.7914;
1003.8000;0.1148;3.7837;
1004.1000;0.1164;3.7863;
1004.4000;0.1164;3.7940;
1004.7000;0.1156;3.7863;
1005.0000;0.1148;3.7889;
1005.3000;0.1148;3.7812;
1005.6000;0.1148;3.7863;
1005.9000;0.1115;3.7812;
1006.2000;0.1058;3.7709;
1006.5000;0.1140;3.7914;
1006.8000;0.1148;3.7966;
1007.1000;0.1164;3.7991;
1007.4000;0.1131;3.7991;
1007.7000;0.1140;3.8017;
1008.0000;0.1148;3.8094;
1008.3000;0.1148;3.8017;
1008.6000;0.1140;3.7966;
1008.9000;0.1123;3.7914;
1009.2000;0.1140;3.7889;
1009.5000;0.1148;3.7863;
1009.8000;0.1164;3.7889;
1010.1000;0.1091;3.7760;
1010.4000;0.1131;3.7914;
1010.7000;0.1197;3.8094;
1011.0000;0.1148;3.8017;
1011.3000;0.1156;3.8094;
1011.6000;0.1148;3.8017;
1011.9000;0.1164;3.7966;
1012.2000;0.1131;3.7914;
1012.5000;0.1131;3.7991;
1012.8000;0.1148;3.8043;
1013.1000;0.1197;3.8120;
1013.4000;0.1148;3.7940;
1013.7000;0.1140;3.7863;
1014.0000;0.1156;3.7914;
1014.3000;0.1131;3.7812;
1014.6000;0.1237;3.8197;
1014.9000;0.1131;3.7863;
1015.2000;0.1131;3.7812;
1015.5000;0.1123;3.7709;
1015.8000;0.1156;3.7889;
1016.1000;0.1148;3.7940;
1016.4000;0.1140;3.7812;
1016.7000;0.1164;3.7889;
1017.0000;0.1115;3.7760;
1017.3000;0.1172;3.7863;
1017.6000;0.1148;3.7812;
1017.9000;0.1107;3.7683;
1018.2000;0.1131;3.7760;
1018.5000;0.1148;3.7837;
1018.8000;0.1180;3.7966;
1019.1000;0.1164;3.7914;
1019.4000;0.1148;3.7812;
1019.7000;0.1172;3.7940;
1020.0000;0.1131;3.7786;
1020.3000;0.1237;3.8094;
1020.6000;0.1058;3.7530;
1020.9000;0.1115;3.7709;
1021.2000;0.1148;3.7863;
1021.5000;0.1123;3.7786;
1021.8000;0.1148;3.7863;
1022.1000;0.1140;3.7760;
1022.4000;0.1140;3.7786;
1022.7000;0.1156;3.7760;
1023.0000;0.1123;3.7658;
1023.3000;0.1229;3.8043;
1023.6000;0.1123;3.7863;
1023.9000;0.1156;3.7863;
1024.2000;0.1156;3.7837;
1024.5000;0.1140;3.7683;
1024.8000;0.1164;3.7735;
1025.1000;0.1148;3.7760;
1025.4000;0.1148;3.7735;
1025.7000;0.1148;3.7683;
1026.0000;0.1115;3.7683;
1026.3000;0.1164;3.7837;
1026.6000;0.1164;3.7709;
1026.9000;0.1131;3.7709;
1027.2000;0.1123;3.7709;
1027.5000;0.1123;3.7683;
1027.8000;0.1148;3.7786;
1028.1000;0.1148;3.7786;
1028.4000;0.1172;3.7786;
1028.7000;0.1131;3.7709;
1029.0000;0.1131;3.7658;
1029.3000;0.1115;3.7504;
1029.6000;0.1131;3.7606;
1029.9000;0.1156;3.7709;
1030.2000;0.1156;3.7735;
1030.5000;0.1140;3.7735;
1030.8000;0.1156;3.7760;
1031.1000;0.1286;3.8068;
1031.4000;0.1140;3.7658;
1031.7000;0.1164;3.7683;
1032.0000;0.1156;3.7709;
1032.3000;0.1148;3.7658;
1032.6000;0.1213;3.7889;
1032.9000;0.1156;3.7760;
1033.2000;0.1148;3.7735;
1033.5000;0.1156;3.7735;
1033.8000;0.1140;3.7735;
1034.1000;0.1164;3.7683;
1034.4000;0.1131;3.7581;
1034.7000;0.1148;3.7606;
1035.0000;0.1123;3.7504;
1035.3000;0.1123;3.7555;
1035.6000;0.1148;3.7658;
1035.9000;0.1131;3.7581;
1036.2000;0.1131;3.7709;
1036.5000;0.1148;3.7760;
1036.8000;0.1131;3.7683;
1037.1000;0.1140;3.7735;
1037.4000;0.1180;3.7837;
1037.7000;0.1188;3.7812;
1038.0000;0.1140;3.7709;
1038.3000;0.1237;3.8017;
1038.6000;0.1156;3.7683;
1038.9000;0.1156;3.7632;
1039.2000;0.1148;3.7606;
1039.5000;0.1180;3.7709;
1039.8000;0.1140;3.7658;
1040.1000;0.1131;3.7658;
1040.4000;0.1148;3.7632;
1040.7000;0.1131;3.7555;
1041.0000;0.1172;3.7632;
1041.3000;0.1156;3.7530;
1041.6000;0.1140;3.7453;
1041.9000;0.1131;3.7401;
1042.2000;0.1188;3.7658;
1042.5000;0.1140;3.7530;
1042.8000;0.1180;3.7735;
1043.1000;0.1140;3.7709;
1043.4000;0.1050;3.7427;
1043.7000;0.1074;3.7555;
1044.0000;0.1156;3.7812;
1044.3000;0.1148;3.7735;
1044.6000;0.1172;3.7812;
1044.9000;0.1148;3.7760;
1045.2000;0.1140;3.7683;
1045.5000;0.1156;3.7683;
1045.8000;0.1099;3.7555;
1046.1000;0.1156;3.7760;
1046.4000;0.1058;3.7504;
1046.7000;0.1164;3.7863;
1047.0000;0.1156;3.7812;
1047.3000;0.1131;3.7709;
1047.6000;0.1131;3.7709;
1047.9000;0.1148;3.7812;
1048.2000;0.1140;3.7812;
1048.5000;0.1164;3.7863;
1048.8000;0.1115;3.7812;
1049.1000;0.1148;3.7889;
1049.4000;0.1221;3.8043;
1049.7000;0.1156;3.7889;
1050.0000;0.1123;3.7735;
1050.3000;0.1131;3.7786;
1050.6000;0.1172;3.7889;
1050.9000;0.1148;3.7889;
1051.2000;0.1140;3.7889;
1051.5000;0.1164;3.7889;
1051.8000;0.1156;3.7837;
1052.1000;0.1148;3.7812;
1052.4000;0.1197;3.7863;
1052.7000;0.1148;3.7812;
1053.0000;0.1140;3.7812;
1053.3000;0.1164;3.7940;
1053.6000;0.1140;3.7837;
1053.9000;0.1034;3.7581;
1054.2000;0.1123;3.7889;
1054.5000;0.1172;3.7991;
1054.8000;0.1164;3.7914;
1055.1000;0.1026;3.7606;
1055.4000;0.1042;3.7606;
1055.7000;0.1131;3.7863;
1056.0000;0.1107;3.7760;
1056.3000;0.1156;3.7863;
1056.6000;0.1140;3.7837;
1056.9000;0.1140;3.7863;
1057.2000;0.1123;3.7760;
1057.5000;0.1205;3.8094;
1057.8000;0.1156;3.7812;
1058.1000;0.1164;3.7812;
1058.4000;0.1164;3.7863;
1058.7000;0.1131;3.7735;
1059.0000;0.1156;3.7760;
1059.3000;0.1148;3.7735;
1059.6000;0.1018;3.7504;
1059.9000;0.1148;3.7914;
1060.2000;0.1091;3.7786;
1060.5000;0.1156;3.7914;
1060.8000;0.1156;3.7914;
1061.1000;0.1107;3.7760;
1061.4000;0.1066;3.7632;
1061.7000;0.1140;3.7863;
1062.0000;0.1148;3.7837;
1062.3000;0.1131;3.7812;
1062.6000;0.1140;3.7837;
1062.9000;0.1123;3.7786;
1063.2000;0.1140;3.7812;
1063.5000;0.1156;3.7683;
1063.8000;0.1140;3.7760;
1064.1000;0.1156;3.7760;
1064.4000;0.1164;3.7812;
1064.7000;0.1131;3.7709;
1065.0000;0.1156;3.7786;
1065.3000;0.1197;3.7786;
1065.6000;0.1148;3.7735;
1065.9000;0.1156;3.7786;
1066.2000;0.1172;3.7786;
1066.5000;0.1148;3.7658;
1066.8000;0.1115;3.7606;
1067.1000;0.1083;3.7555;
1067.4000;0.1140;3.7606;
1067.7000;0.1140;3.7735;
1068.0000;0.1148;3.7786;
1068.3000;0.1115;3.7735;
1068.6000;0.1148;3.7837;
1068.9000;0.1172;3.7914;
1069.2000;0.1140;3.7812;
1069.5000;0.1164;3.7863;
1069.8000;0.1148;3.7786;
1070.1000;0.1164;3.7966;
1070.4000;0.1148;3.7966;
1070.7000;0.1188;3.7914;
1071.0000;0.1140;3.7786;
1071.3000;0.1156;3.7837;
1071.6000;0.1148;3.7863;
1071.9000;0.1107;3.7683;
1072.2000;0.1140;3.7837;
1072.5000;0.1156;3.7940;
1072.8000;0.1131;3.7914;
1073.1000;0.1148;3.8017;
1073.4000;0.1107;3.7966;
1073.7000;0.1140;3.8094;
1074.0000;0.1148;3.7991;
1074.3000;0.1156;3.8043;
1074.6000;0.1131;3.7940;
1074.9000;0.1131;3.8043;
1075.2000;0.1156;3.8068;
1075.5000;0.1164;3.8068;
1075.8000;0.1197;3.8273;
1076.1000;0.1140;3.8068;
1076.4000;0.1140;3.8094;
1076.7000;0.1164;3.8068;
1077.0000;0.1180;3.7991;
1077.3000;0.1148;3.7914;
1077.6000;0.1148;3.7889;
1077.9000;0.1123;3.7837;
1078.2000;0.1140;3.7760;
1078.5000;0.1115;3.7735;
1078.8000;0.1148;3.7760;
1079.1000;0.1131;3.7683;
1079.4000;0.1156;3.7812;
1079.7000;0.1164;3.7837;
1080.0000;0.1140;3.7889;
1080.3000;0.1164;3.7966;
1080.6000;0.1131;3.7863;
1080.9000;0.1123;3.7812;
1081.2000;0.1042;3.7581;
1081.5000;0.1148;3.7966;
1081.8000;0.1123;3.7889;
1082.1000;0.1197;3.8120;
1082.4000;0.1115;3.7863;
1082.7000;0.1164;3.7966;
1083.0000;0.1091;3.7760;
1083.3000;0.1140;3.7889;
1083.6000;0.1107;3.7812;
1083.9000;0.1148;3.7940;
1084.2000;0.1107;3.7837;
1084.5000;0.1148;3.7914;
1084.8000;0.1140;3.7863;
1085.1000;0.1131;3.7863;
1085.4000;0.1172;3.7966;
1085.7000;0.1148;3.7914;
1086.0000;0.1156;3.7966;
1086.3000;0.1156;3.7940;
1086.6000;0.1164;3.7940;
1086.9000;0.1164;3.7863;
1087.2000;0.1156;3.7837;
1087.5000;0.1148;3.7812;
1087.8000;0.1140;3.7889;
1088.1000;0.1164;3.7966;
1088.4000;0.1140;3.7863;
1088.7000;0.1148;3.7863;
1089.0000;0.1123;3.7812;
1089.3000;0.1140;3.7786;
1089.6000;0.1148;3.7760;
1089.9000;0.1156;3.7760;
1090.2000;0.1099;3.7632;
1090.5000;0.1164;3.7863;
1090.8000;0.1131;3.7709;
1091.1000;0.1140;3.7683;
1091.4000;0.1140;3.7632;
1091.7000;0.1140;3.7683;
1092.0000;0.1148;3.7709;
1092.3000;0.1148;3.7735;
1092.6000;0.1115;3.7683;
1092.9000;0.1099;3.7683;
1093.2000;0.1107;3.7760;
1093.5000;0.1245;3.8120;
1093.8000;0.1156;3.7812;
1094.1000;0.1083;3.7530;
1094.4000;0.1115;3.7581;
1094.7000;0.1140;3.7581;
1095.0000;0.1148;3.7606;
1095.3000;0.1148;3.7606;
1095.6000;0.1148;3.7632;
1095.9000;0.1131;3.7581;
1096.2000;0.1148;3.7632;
1096.5000;0.1123;3.7581;
1096.8000;0.1140;3.7632;
1097.1000;0.1131;3.7606;
1097.4000;0.1131;3.7658;
1097.7000;0.1131;3.7683;
1098.0000;0.1148;3.7760;
1098.3000;0.1148;3.7760;
1098.6000;0.1148;3.7863;
1098.9000;0.1140;3.7889;
1099.2000;0.1164;3.7940;
1099.5000;0.1131;3.7812;
1099.8000;0.1099;3.7735;
1100.1000;0.1156;3.7914;
1100.4000;0.1123;3.7837;
1100.7000;0.1123;3.7760;
1101.0000;0.1156;3.7812;
1101.3000;0.1148;3.7735;
1101.6000;0.1001;3.7273;
1101.9000;0.1140;3.7606;
1102.2000;0.1156;3.7581;
1102.5000;0.1140;3.7453;
1102.8000;0.1148;3.7478;
1103.1000;0.1131;3.7504;
1103.4000;0.1148;3.7478;
1103.7000;0.1156;3.7478;
1104.0000;0.1245;3.7735;
1104.3000;0.1156;3.7555;
1104.6000;0.1050;3.7273;
1104.9000;0.1131;3.7453;
1105.2000;0.1156;3.7555;
1105.5000;0.1115;3.7530;
1105.8000;0.1148;3.7658;
1106.1000;0.1140;3.7709;
1106.4000;0.1140;3.7786;
1106.7000;0.1221;3.8043;
1107.0000;0.1131;3.7812;
1107.3000;0.1164;3.7863;
1107.6000;0.1123;3.7709;
1107.9000;0.1148;3.7760;
1108.2000;0.1148;3.7812;
1108.5000;0.1140;3.7786;
1108.8000;0.1156;3.7812;
1109.1000;0.1140;3.7812;
1109.4000;0.1140;3.7863;
1109.7000;0.1140;3.7837;
1110.0000;0.1156;3.7863;
1110.3000;0.1156;3.7914;
1110.6000;0.1156;3.7760;
1110.9000;0.1148;3.7735;
1111.2000;0.1156;3.7760;
1111.5000;0.1140;3.7812;
1111.8000;0.1156;3.7863;
1112.1000;0.1164;3.7837;
1112.4000;0.1131;3.7786;
1112.7000;0.1148;3.7837;
1113.0000;0.1180;3.7966;
1113.3000;0.1156;3.7889;
1113.6000;0.1164;3.7914;
1113.9000;0.1115;3.7735;
1114.2000;0.1148;3.7863;
1114.5000;0.1123;3.7760;
1114.8000;0.1148;3.7837;
1115.1000;0.1050;3.7478;
1115.4000;0.1131;3.7735;
1115.7000;0.1123;3.7735;
1116.0000;0.1107;3.7683;
1116.3000;0.1123;3.7683;
1116.6000;0.1164;3.7837;
1116.9000;0.1148;3.7812;
1117.2000;0.1123;3.7760;
1117.5000;0.1156;3.7786;
1117.8000;0.1156;3.7863;
1118.1000;0.1148;3.7837;
1118.4000;0.1140;3.7760;
1118.7000;0.1164;3.7812;
1119.0000;0.1156;3.7735;
1119.3000;0.1140;3.7581;
1119.6000;0.1140;3.7581;
1119.9000;0.1148;3.7606;
1120.2000;0.1172;3.7606;
1120.5000;0.1148;3.7504;
1120.8000;0.1156;3.7504;
1121.1000;0.1156;3.7530;
1121.4000;0.1148;3.7632;
1121.7000;0.1164;3.7709;
1122.0000;0.1115;3.7530;
1122.3000;0.1131;3.7555;
1122.6000;0.1156;3.7709;
1122.9000;0.1074;3.7581;
1123.2000;0.1131;3.7812;
1123.5000;0.1221;3.8120;
1123.8000;0.1172;3.7889;
1124.1000;0.1140;3.7837;
1124.4000;0.1148;3.7889;
1124.7000;0.1131;3.7812;
1125.0000;0.1156;3.7889;
1125.3000;0.1148;3.7863;
1125.6000;0.1164;3.8043;
1125.9000;0.1148;3.7991;
1126.2000;0.1026;3.7683;
1126.5000;0.1172;3.7966;
1126.8000;0.1123;3.7940;
1127.1000;0.1115;3.7914;
1127.4000;0.1091;3.7889;
1127.7000;0.1164;3.8145;
1128.0000;0.1140;3.7991;
1128.3000;0.1115;3.7914;
1128.6000;0.1148;3.7991;
1128.9000;0.1156;3.8043;
1129.2000;0.1156;3.7966;
1129.5000;0.1107;3.7760;
1129.8000;0.1131;3.7760;
1130.1000;0.1123;3.7709;
1130.4000;0.1164;3.7914;
1130.7000;0.1221;3.8068;
1131.0000;0.1140;3.7889;
1131.3000;0.1140;3.7837;
1131.6000;0.1148;3.7914;
1131.9000;0.1140;3.7863;
1132.2000;0.1148;3.7914;
1132.5000;0.1140;3.7812;
1132.8000;0.1148;3.7966;
1133.1000;0.1180;3.8043;
1133.4000;0.1156;3.7966;
1133.7000;0.1123;3.7786;
1134.0000;0.1140;3.7760;
1134.3000;0.1140;3.7889;
1134.6000;0.1164;3.7940;
1134.9000;0.1148;3.7863;
1135.2000;0.1148;3.7863;
1135.5000;0.1131;3.7889;
1135.8000;0.1148;3.7889;
1136.1000;0.1180;3.7991;
1136.4000;0.1131;3.7837;
1136.7000;0.1131;3.7889;
1137.0000;0.1140;3.7966;
1137.3000;0.1083;3.7837;
1137.6000;0.1115;3.7863;
1137.9000;0.1131;3.7760;
1138.2000;0.1131;3.7683;
1138.5000;0.1107;3.7555;
1138.8000;0.1148;3.7735;
1139.1000;0.1164;3.7863;
1139.4000;0.1099;3.7658;
1139.7000;0.1140;3.7786;
1140.0000;0.1205;3.8094;
1140.3000;0.1140;3.7940;
1140.6000;0.1131;3.7889;
1140.9000;0.1156;3.7966;
1141.2000;0.1148;3.7966;
1141.5000;0.1148;3.7889;
1141.8000;0.1164;3.7991;
1142.1000;0.1140;3.7940;
1142.4000;0.1107;3.7889;
1142.7000;0.1148;3.8043;
1143.0000;0.1131;3.7991;
1143.3000;0.1123;3.7914;
1143.6000;0.1148;3.7889;
1143.9000;0.1140;3.7812;
1144.2000;0.1140;3.7786;
1144.5000;0.1156;3.7760;
1144.8000;0.1156;3.7812;
1145.1000;0.1140;3.7709;
1145.4000;0.1148;3.7837;
1145.7000;0.1156;3.7940;
1146.0000;0.1148;3.8068;
1146.3000;0.1131;3.7940;
1146.6000;0.1140;3.7966;
1146.9000;0.1099;3.7760;
1147.2000;0.1188;3.8017;
1147.5000;0.1115;3.7735;
1147.8000;0.1140;3.7837;
1148.1000;0.1180;3.7940;
1148.4000;0.1156;3.7889;
1148.7000;0.1140;3.7863;
1149.0000;0.1099;3.7709;
1149.3000;0.1034;3.7530;
1149.6000;0.1131;3.7812;
1149.9000;0.1083;3.7735;
1150.2000;0.1172;3.7966;
1150.5000;0.1115;3.7812;
1150.8000;0.1123;3.7863;
1151.1000;0.1148;3.7991;
1151.4000;0.1229;3.8222;
1151.7000;0.1148;3.7889;
1152.0000;0.1050;3.7555;
1152.3000;0.1140;3.7786;
1152.6000;0.1123;3.7632;
1152.9000;0.1156;3.7760;
1153.2000;0.1156;3.7786;
1153.5000;0.1245;3.8094;
1153.8000;0.1148;3.7837;
1154.1000;0.1188;3.8068;
1154.4000;0.1131;3.7940;
1154.7000;0.1066;3.7760;
1155.0000;0.1156;3.8017;
1155.3000;0.1148;3.7966;
1155.6000;0.1140;3.7837;
1155.9000;0.1140;3.7812;
1156.2000;0.1148;3.7735;
1156.5000;0.1156;3.7735;
1156.8000;0.1107;3.7530;
1157.1000;0.1131;3.7504;
1157.4000;0.1148;3.7478;
1157.7000;0.1164;3.7555;
1158.0000;0.1140;3.7504;
1158.3000;0.1164;3.7504;
1158.6000;0.1156;3.7581;
1158.9000;0.1123;3.7504;
1159.2000;0.1026;3.7273;
1159.5000;0.1123;3.7555;
1159.8000;0.1148;3.7530;
1160.1000;0.1164;3.7504;
1160.4000;0.1156;3.7427;
1160.7000;0.1140;3.7401;
1161.0000;0.1172;3.7581;
1161.3000;0.1172;3.7581;
1161.6000;0.1172;3.7735;
1161.9000;0.1140;3.7709;
1162.2000;0.1140;3.7837;
1162.5000;0.1156;3.7914;
1162.8000;0.1115;3.7760;
1163.1000;0.1131;3.7760;
1163.4000;0.1156;3.7837;
1163.7000;0.1164;3.7735;
1164.0000;0.1148;3.7760;
1164.3000;0.1148;3.7786;
1164.6000;0.1262;3.8043;
1164.9000;0.1140;3.7683;
1165.2000;0.1148;3.7735;
1165.5000;0.1140;3.7735;
1165.8000;0.1148;3.7837;
1166.1000;0.1131;3.7889;
1166.4000;0.1164;3.7914;
1166.7000;0.1148;3.7863;
1167.0000;0.1123;3.7760;
1167.3000;0.1131;3.7760;
1167.6000;0.1213;3.8043;
1167.9000;0.1140;3.7812;
1168.2000;0.1188;3.7940;
1168.5000;0.1188;3.7889;
1168.8000;0.1148;3.7786;
1169.1000;0.1148;3.7786;
1169.4000;0.1123;3.7581;
1169.7000;0.1140;3.7606;
1170.0000;0.1140;3.7581;
1170.3000;0.1205;3.7812;
1170.6000;0.1140;3.7632;
1170.9000;0.1140;3.7555;
1171.2000;0.1140;3.7581;
1171.5000;0.1131;3.7453;
1171.8000;0.1156;3.7581;
1172.1000;0.1140;3.7606;
1172.4000;0.1131;3.7709;
1172.7000;0.1131;3.7658;
1173.0000;0.1156;3.7658;
1173.3000;0.1140;3.7581;
1173.6000;0.1123;3.7606;
1173.9000;0.1107;3.7453;
1174.2000;0.1123;3.7555;
1174.5000;0.1140;3.7658;
1174.8000;0.1164;3.7658;
1175.1000;0.1123;3.7478;
1175.4000;0.1164;3.7581;
1175.7000;0.1164;3.7581;
1176.0000;0.1140;3.7478;
1176.3000;0.1156;3.7401;
1176.6000;0.1180;3.7530;
1176.9000;0.1123;3.7350;
1177.2000;0.1107;3.7324;
1177.5000;0.1107;3.7478;
1177.8000;0.1148;3.7555;
1178.1000;0.1131;3.7606;
1178.4000;0.1254;3.8068;
1178.7000;0.1140;3.7683;
1179.0000;0.1148;3.7632;
1179.3000;0.1140;3.7606;
1179.6000;0.1164;3.7581;
1179.9000;0.1131;3.7427;
1180.2000;0.1156;3.7555;
1180.5000;0.1140;3.7478;
1180.8000;0.1131;3.7401;
1181.1000;0.1140;3.7478;
1181.4000;0.1131;3.7427;
1181.7000;0.1148;3.7530;
1182.0000;0.1123;3.7401;
1182.3000;0.1140;3.7555;
1182.6000;0.1131;3.7478;
1182.9000;0.1140;3.7504;
1183.2000;0.1188;3.7581;
1183.5000;0.1131;3.7376;
1183.8000;0.1164;3.7478;
1184.1000;0.1148;3.7504;
1184.4000;0.1123;3.7453;
1184.7000;0.1148;3.7504;
1185.0000;0.1107;3.7453;
1185.3000;0.1131;3.7683;
1185.6000;0.1148;3.7683;
1185.9000;0.1237;3.7889;
1186.2000;0.1140;3.7606;
1186.5000;0.1180;3.7658;
1186.8000;0.1213;3.7735;
1187.1000;0.1131;3.7658;
1187.4000;0.1148;3.7658;
1187.7000;0.1115;3.7632;
1188.0000;0.1140;3.7760;
1188.3000;0.1148;3.7786;
1188.6000;0.1140;3.7812;
1188.9000;0.1148;3.7786;
1189.2000;0.1131;3.7658;
1189.5000;0.1091;3.7478;
1189.8000;0.1131;3.7555;
1190.1000;0.1156;3.7530;
1190.4000;0.1148;3.7530;
1190.7000;0.1156;3.7555;
1191.0000;0.1123;3.7555;
1191.3000;0.1140;3.7632;
1191.6000;0.1164;3.7760;
1191.9000;0.1164;3.7863;
1192.2000;0.1083;3.7581;
1192.5000;0.1172;3.7837;
1192.8000;0.1188;3.7914;
1193.1000;0.1197;3.7940;
1193.4000;0.1148;3.7863;
1193.7000;0.1156;3.7863;
1194.0000;0.1164;3.7889;
1194.3000;0.1123;3.7735;
1194.6000;0.1148;3.7760;
1194.9000;0.1107;3.7683;
1195.2000;0.1188;3.7863;
1195.5000;0.1140;3.7658;
1195.8000;0.1026;3.7453;
1196.1000;0.1131;3.7760;
1196.4000;0.1148;3.7812;
1196.7000;0.1156;3.7863;
1197.0000;0.1123;3.7760;
1197.3000;0.1148;3.7735;
1197.6000;0.1172;3.7760;
1197.9000;0.1091;3.7581;
1198.2000;0.1140;3.7683;
1198.5000;0.1156;3.7812;
1198.8000;0.1156;3.7683;
1199.1000;0.1156;3.7683;
1199.4000;0.1140;3.7606;
1199.7000;0.1140;3.7606;
1200.0000;0.1107;3.7632;
1200.3000;0.1123;3.7658;
1200.6000;0.1156;3.7786;
1200.9000;0.1140;3.7735;
1201.2000;0.1180;3.7914;
1201.5000;0.1131;3.7837;
1201.8000;0.1131;3.7837;
1202.1000;0.1148;3.7863;
1202.4000;0.1156;3.7863;
1202.7000;0.1156;3.7786;
1203.0000;0.1164;3.7760;
1203.3000;0.1140;3.7786;
1203.6000;0.1148;3.7837;
1203.9000;0.1156;3.7812;
1204.2000;0.1123;3.7709;
1204.5000;0.1148;3.7683;
1204.8000;0.1131;3.7555;
1205.1000;0.1140;3.7606;
1205.4000;0.1148;3.7478;
1205.7000;0.1140;3.7478;
1206.0000;0.1140;3.7555;
1206.3000;0.1156;3.7606;
1206.6000;0.1140;3.7581;
1206.9000;0.1148;3.7478;
1207.2000;0.1172;3.7606;
1207.5000;0.1140;3.7632;
1207.8000;0.1140;3.7606;
1208.1000;0.1140;3.7658;
1208.4000;0.1213;3.7966;
1208.7000;0.1140;3.7760;
1209.0000;0.1099;3.7632;
1209.3000;0.1140;3.7812;
1209.6000;0.1123;3.7786;
1209.9000;0.1156;3.7837;
1210.2000;0.1131;3.7606;
1210.5000;0.1131;3.7632;
1210.8000;0.1156;3.7709;
1211.1000;0.1131;3.7658;
1211.4000;0.1156;3.7658;
1211.7000;0.1131;3.7606;
1212.0000;0.1107;3.7401;
1212.3000;0.1156;3.7581;
1212.6000;0.1140;3.7555;
1212.9000;0.1148;3.7632;
1213.2000;0.1140;3.7735;
1213.5000;0.1131;3.7760;
1213.8000;0.1148;3.7735;
1214.1000;0.1172;3.7760;
1214.4000;0.1140;3.7606;
1214.7000;0.1148;3.7683;
1215.0000;0.1026;3.7324;
1215.3000;0.1156;3.7606;
1215.6000;0.1188;3.7683;
1215.9000;0.1148;3.7555;
1216.2000;0.1131;3.7530;
1216.5000;0.1131;3.7504;
1216.8000;0.1180;3.7632;
1217.1000;0.1115;3.7530;
1217.4000;0.1148;3.7632;
1217.7000;0.1172;3.7786;
1218.0000;0.1164;3.7735;
1218.3000;0.1140;3.7658;
1218.6000;0.1140;3.7606;
1218.9000;0.1148;3.7606;
1219.2000;0.1164;3.7632;
1219.5000;0.1131;3.7606;
1219.8000;0.1083;3.7453;
1220.1000;0.1148;3.7581;
1220.4000;0.1131;3.7530;
1220.7000;0.1213;3.7760;
1221.0000;0.1131;3.7606;
1221.3000;0.1131;3.7581;
1221.6000;0.1197;3.7863;
1221.9000;0.1140;3.7683;
1222.2000;0.1123;3.7709;
1222.5000;0.1140;3.7658;
1222.8000;0.1131;3.7658;
1223.1000;0.1131;3.7632;
1223.4000;0.1131;3.7735;
1223.7000;0.1148;3.7760;
1224.0000;0.1156;3.7760;
1224.3000;0.1148;3.7632;
1224.6000;0.1131;3.7606;
1224.9000;0.1140;3.7606;
1225.2000;0.1026;3.7196;
1225.5000;0.1131;3.7530;
1225.8000;0.1131;3.7530;
1226.1000;0.1156;3.7709;
1226.4000;0.1131;3.7735;
1226.7000;0.1131;3.7632;
1227.0000;0.1156;3.7658;
1227.3000;0.1140;3.7581;
1227.6000;0.1156;3.7683;
1227.9000;0.1148;3.7581;
1228.2000;0.1156;3.7530;
1228.5000;0.1148;3.7478;
1228.8000;0.1115;3.7401;
1229.1000;0.1140;3.7530;
1229.4000;0.1164;3.7530;
1229.7000;0.1140;3.7504;
1230.0000;0.1140;3.7504;
1230.3000;0.1131;3.7453;
1230.6000;0.1156;3.7581;
1230.9000;0.1140;3.7581;
1231.2000;0.1164;3.7658;
1231.5000;0.1115;3.7581;
1231.8000;0.1164;3.7683;
1232.1000;0.1131;3.7632;
1232.4000;0.1140;3.7683;
1232.7000;0.1115;3.7632;
1233.0000;0.1156;3.7760;
1233.3000;0.1140;3.7709;
1233.6000;0.1172;3.7760;
1233.9000;0.1123;3.7709;
1234.2000;0.1148;3.7786;
1234.5000;0.1107;3.7606;
1234.8000;0.1140;3.7709;
1235.1000;0.0993;3.7376;
1235.4000;0.1140;3.7735;
1235.7000;0.1148;3.7735;
1236.0000;0.1115;3.7683;
1236.3000;0.1156;3.7683;
1236.6000;0.1164;3.7709;
1236.9000;0.1148;3.7632;
1237.2000;0.1131;3.7658;
1237.5000;0.1156;3.7760;
1237.8000;0.1123;3.7658;
1238.1000;0.1156;3.7812;
1238.4000;0.1131;3.7760;
1238.7000;0.1172;3.7837;
1239.0000;0.1148;3.7837;
1239.3000;0.1140;3.7889;
1239.6000;0.1140;3.7940;
1239.9000;0.1164;3.7914;
1240.2000;0.1156;3.7837;
1240.5000;0.1131;3.7837;
1240.8000;0.1156;3.7889;
1241.1000;0.1172;3.7786;
1241.4000;0.1123;3.7760;
1241.7000;0.1148;3.7863;
1242.0000;0.1205;3.8068;
1242.3000;0.1140;3.7914;
1242.6000;0.1172;3.7914;
1242.9000;0.1148;3.7837;
1243.2000;0.1140;3.7863;
1243.5000;0.1148;3.7991;
1243.8000;0.1156;3.7966;
1244.1000;0.1156;3.8017;
1244.4000;0.1148;3.8017;
1244.7000;0.1197;3.8171;
1245.0000;0.1156;3.7966;
1245.3000;0.1140;3.7863;
1245.6000;0.1140;3.7786;
1245.9000;0.1148;3.7889;
1246.2000;0.1140;3.7889;
1246.5000;0.1188;3.7966;
1246.8000;0.1115;3.7735;
1247.1000;0.1148;3.7760;
1247.4000;0.1140;3.7658;
1247.7000;0.1148;3.7658;
1248.0000;0.1115;3.7530;
1248.3000;0.1131;3.7581;
1248.6000;0.1213;3.7760;
1248.9000;0.1148;3.7658;
1249.2000;0.1034;3.7350;
1249.5000;0.1123;3.7632;
1249.8000;0.1140;3.7632;
1250.1000;0.1148;3.7632;
1250.4000;0.1131;3.7683;
1250.7000;0.1140;3.7709;
1251.0000;0.1148;3.7760;
1251.3000;0.1197;3.7889;
1251.6000;0.1131;3.7683;
1251.9000;0.1156;3.7760;
1252.2000;0.1131;3.7735;
1252.5000;0.1131;3.7735;
1252.8000;0.1107;3.7735;
1253.1000;0.1131;3.7889;
1253.4000;0.1140;3.7914;
1253.7000;0.1131;3.7914;
1254.0000;0.1083;3.7683;
1254.3000;0.1131;3.7735;
1254.6000;0.1131;3.7709;
1254.9000;0.1066;3.7658;
1255.2000;0.1115;3.7837;
1255.5000;0.1156;3.7914;
1255.8000;0.1148;3.7940;
1256.1000;0.1197;3.8068;
1256.4000;0.1148;3.7914;
1256.7000;0.1140;3.7991;
1257.0000;0.1131;3.7889;
1257.3000;0.1245;3.8068;
1257.6000;0.1115;3.7709;
1257.9000;0.1148;3.7863;
1258.2000;0.1140;3.7863;
1258.5000;0.1140;3.7889;
1258.8000;0.1148;3.7889;
1259.1000;0.1131;3.7735;
1259.4000;0.1172;3.7812;
1259.7000;0.1148;3.7760;
1260.0000;0.1131;3.7683;
1260.3000;0.1156;3.7709;
1260.6000;0.1123;3.7581;
1260.9000;0.1148;3.7786;
1261.2000;0.1140;3.7709;
1261.5000;0.1140;3.7709;
1261.8000;0.1156;3.7760;
1262.1000;0.1164;3.7760;
1262.4000;0.1140;3.7709;
1262.7000;0.1131;3.7581;
1263.0000;0.1180;3.7683;
1263.3000;0.1148;3.7606;
1263.6000;0.1156;3.7632;
1263.9000;0.1148;3.7606;
1264.2000;0.1148;3.7683;
1264.5000;0.1148;3.7658;
1264.8000;0.1123;3.7632;
1265.1000;0.1107;3.7632;
1265.4000;0.1148;3.7709;
1265.7000;0.1156;3.7683;
1266.0000;0.1156;3.7632;
1266.3000;0.1188;3.7709;
1266.6000;0.1156;3.7555;
1266.9000;0.1140;3.7504;
1267.2000;0.1123;3.7530;
1267.5000;0.1140;3.7683;
1267.8000;0.1131;3.7709;
1268.1000;0.1148;3.7735;
1268.4000;0.1099;3.7581;
1268.7000;0.1172;3.7786;
1269.0000;0.1099;3.7555;
1269.3000;0.1083;3.7581;
1269.6000;0.1123;3.7812;
1269.9000;0.1131;3.7812;
1270.2000;0.1148;3.7786;
1270.5000;0.1074;3.7555;
1270.8000;0.1148;3.7786;
1271.1000;0.1148;3.7786;
1271.4000;0.1131;3.7709;
1271.7000;0.1148;3.7735;
1272.0000;0.1131;3.7735;
1272.3000;0.1156;3.7709;
1272.6000;0.1180;3.7812;
1272.9000;0.1140;3.7606;
1273.2000;0.1123;3.7606;
1273.5000;0.1131;3.7606;
1273.8000;0.1140;3.7606;
1274.1000;0.1164;3.7658;
1274.4000;0.1148;3.7555;
1274.7000;0.1140;3.7504;
1275.0000;0.1140;3.7555;
1275.3000;0.1148;3.7632;
1275.6000;0.1156;3.7555;
1275.9000;0.1156;3.7555;
1276.2000;0.1131;3.7453;
1276.5000;0.1148;3.7581;
1276.8000;0.1148;3.7504;
1277.1000;0.1140;3.7530;
1277.4000;0.1107;3.7478;
1277.7000;0.1148;3.7555;
1278.0000;0.1156;3.7581;
1278.3000;0.1164;3.7606;
1278.6000;0.1140;3.7530;
1278.9000;0.1148;3.7658;
1279.2000;0.1140;3.7632;
1279.5000;0.1131;3.7632;
1279.8000;0.1148;3.7735;
1280.1000;0.1140;3.7760;
1280.4000;0.1148;3.7735;
1280.7000;0.1188;3.7786;
1281.0000;0.1131;3.7632;
1281.3000;0.1123;3.7683;
1281.6000;0.1123;3.7658;
1281.9000;0.1131;3.7683;
1282.2000;0.1156;3.7786;
1282.5000;0.1123;3.7760;
1282.8000;0.1083;3.7658;
1283.1000;0.1131;3.7837;
1283.4000;0.1156;3.7837;
1283.7000;0.1172;3.7863;
1284.0000;0.1164;3.7812;
1284.3000;0.1091;3.7555;
1284.6000;0.1123;3.7606;
1284.9000;0.1131;3.7658;
1285.2000;0.1172;3.7786;
1285.5000;0.1188;3.7786;
1285.8000;0.1148;3.7632;
1286.1000;0.1156;3.7606;
1286.4000;0.1091;3.7350;
1286.7000;0.1131;3.7581;
1287.0000;0.1131;3.7632;
1287.3000;0.1164;3.7683;
1287.6000;0.1131;3.7581;
1287.9000;0.1140;3.7581;
1288.2000;0.1140;3.7606;
1288.5000;0.1221;3.7760;
1288.8000;0.1148;3.7530;
1289.1000;0.1197;3.7683;
1289.4000;0.1148;3.7606;
1289.7000;0.1123;3.7530;
1290.0000;0.1131;3.7555;
1290.3000;0.1131;3.7606;
1290.6000;0.1148;3.7658;
1290.9000;0.1140;3.7658;
1291.2000;0.1156;3.7760;
1291.5000;0.1262;3.8043;
1291.8000;0.1140;3.7760;
1292.1000;0.1148;3.7837;
1292.4000;0.1115;3.7812;
1292.7000;0.1156;3.7837;
1293.0000;0.1237;3.8068;
1293.3000;0.1140;3.7837;
1293.6000;0.1148;3.7812;
1293.9000;0.1140;3.7760;
1294.2000;0.1140;3.7812;
1294.5000;0.1058;3.7581;
1294.8000;0.1131;3.7760;
1295.1000;0.1148;3.7786;
1295.4000;0.1205;3.8017;
1295.7000;0.1197;3.7940;
1296.0000;0.1140;3.7812;
1296.3000;0.1131;3.7837;
1296.6000;0.1123;3.7760;
1296.9000;0.1131;3.7760;
1297.2000;0.1148;3.7889;
1297.5000;0.1148;3.7812;
1297.8000;0.1140;3.7786;
1298.1000;0.1148;3.7786;
1298.4000;0.1091;3.7683;
1298.7000;0.1164;3.7837;
1299.0000;0.1156;3.7812;
1299.3000;0.1148;3.7683;
1299.6000;0.1123;3.7555;
1299.9000;0.1172;3.7709;
1300.2000;0.1148;3.7658;
1300.5000;0.1123;3.7504;
1300.8000;0.1148;3.7530;
1301.1000;0.1148;3.7555;
1301.4000;0.1156;3.7658;
1301.7000;0.1156;3.7581;
1302.0000;0.1262;3.7940;
1302.3000;0.1188;3.7735;
1302.6000;0.1140;3.7683;
1302.9000;0.1148;3.7709;
1303.2000;0.1140;3.7632;
1303.5000;0.1115;3.7555;
1303.8000;0.1131;3.7658;
1304.1000;0.1148;3.7606;
1304.4000;0.1156;3.7658;
1304.7000;0.1148;3.7709;
1305.0000;0.1140;3.7735;
1305.3000;0.1140;3.7709;
1305.6000;0.1131;3.7658;
1305.9000;0.1115;3.7632;
1306.2000;0.1083;3.7401;
1306.5000;0.1197;3.7709;
1306.8000;0.1148;3.7555;
1307.1000;0.1140;3.7555;
1307.4000;0.1131;3.7606;
1307.7000;0.1140;3.7530;
1308.0000;0.1131;3.7478;
1308.3000;0.1140;3.7427;
1308.6000;0.1099;3.7222;
1308.9000;0.1148;3.7401;
1309.2000;0.1180;3.7478;
1309.5000;0.1140;3.7376;
1309.8000;0.1172;3.7504;
1310.1000;0.1107;3.7324;
1310.4000;0.1123;3.7376;
1310.7000;0.1131;3.7453;
1311.0000;0.1131;3.7453;
1311.3000;0.1140;3.7606;
1311.6000;0.1131;3.7606;
1311.9000;0.1148;3.7658;
1312.2000;0.1107;3.7478;
1312.5000;0.1140;3.7504;
1312.8000;0.1066;3.7247;
1313.1000;0.1099;3.7299;
1313.4000;0.1148;3.7376;
1313.7000;0.1213;3.7555;
1314.0000;0.1237;3.7606;
1314.3000;0.1156;3.7401;
1314.6000;0.1148;3.7401;
1314.9000;0.1148;3.7324;
1315.2000;0.1140;3.7401;
1315.5000;0.1180;3.7453;
1315.8000;0.1131;3.7299;
1316.1000;0.1107;3.7247;
1316.4000;0.1148;3.7401;
1316.7000;0.1131;3.7299;
1317.0000;0.1148;3.7324;
1317.3000;0.1115;3.7299;
1317.6000;0.1140;3.7427;
1317.9000;0.1148;3.7478;
1318.2000;0.1148;3.7427;
1318.5000;0.1115;3.7376;
1318.8000;0.1140;3.7478;
1319.1000;0.1131;3.7453;
1319.4000;0.1123;3.7530;
1319.7000;0.1140;3.7530;
1320.0000;0.1156;3.7478;
1320.3000;0.1123;3.7427;
1320.6000;0.1148;3.7478;
1320.9000;0.1131;3.7376;
1321.2000;0.1148;3.7453;
1321.5000;0.1131;3.7401;
1321.8000;0.1131;3.7401;
1322.1000;0.1140;3.7401;
1322.4000;0.1131;3.7350;
1322.7000;0.1140;3.7478;
1323.0000;0.1140;3.7530;
1323.3000;0.1156;3.7683;
1323.6000;0.1148;3.7658;
1323.9000;0.1131;3.7581;
1324.2000;0.1164;3.7658;
1324.5000;0.1148;3.7683;
1324.8000;0.1197;3.7812;
1325.1000;0.1131;3.7504;
1325.4000;0.1107;3.7427;
1325.7000;0.1140;3.7530;
1326.0000;0.1091;3.7376;
1326.3000;0.1115;3.7581;
1326.6000;0.1140;3.7581;
1326.9000;0.1066;3.7299;
1327.2000;0.1115;3.7401;
1327.5000;0.1140;3.7453;
1327.8000;0.1140;3.7478;
1328.1000;0.1148;3.7453;
1328.4000;0.1074;3.7247;
1328.7000;0.1156;3.7530;
1329.0000;0.1148;3.7530;
1329.3000;0.1237;3.7812;
1329.6000;0.1140;3.7504;
1329.9000;0.1131;3.7453;
1330.2000;0.1140;3.7581;
1330.5000;0.1148;3.7581;
1330.8000;0.1148;3.7606;
1331.1000;0.1140;3.7530;
1331.4000;0.1123;3.7504;
1331.7000;0.1140;3.7581;
1332.0000;0.1156;3.7555;
1332.3000;0.1172;3.7632;
1332.6000;0.1131;3.7453;
1332.9000;0.1115;3.7401;
1333.2000;0.1156;3.7632;
1333.5000;0.1221;3.7914;
1333.8000;0.1140;3.7658;
1334.1000;0.1164;3.7683;
1334.4000;0.1148;3.7683;
1334.7000;0.1148;3.7683;
1335.0000;0.1156;3.7658;
1335.3000;0.1091;3.7530;
1335.6000;0.1164;3.7889;
1335.9000;0.1099;3.7606;
1336.2000;0.1131;3.7683;
1336.5000;0.1140;3.7683;
1336.8000;0.1156;3.7812;
1337.1000;0.1172;3.7837;
1337.4000;0.1140;3.7760;
1337.7000;0.1180;3.7914;
1338.0000;0.1140;3.7786;
1338.3000;0.1131;3.7760;
1338.6000;0.1180;3.7889;
1338.9000;0.1140;3.7786;
1339.2000;0.1115;3.7786;
1339.5000;0.1140;3.7889;
1339.8000;0.1131;3.7863;
1340.1000;0.1115;3.7837;
1340.4000;0.1156;3.7940;
1340.7000;0.1115;3.7837;
1341.0000;0.1140;3.7940;
1341.3000;0.1140;3.7966;
1341.6000;0.1205;3.8043;
1341.9000;0.1115;3.7709;
1342.2000;0.1107;3.7658;
1342.5000;0.1140;3.7683;
1342.8000;0.1131;3.7709;
1343.1000;0.1083;3.7606;
1343.4000;0.1115;3.7709;
1343.7000;0.1213;3.7991;
1344.0000;0.1140;3.7709;
1344.3000;0.1164;3.7760;
1344.6000;0.1156;3.7632;
1344.9000;0.1140;3.7632;
1345.2000;0.1148;3.7709;
1345.5000;0.1156;3.7837;
1345.8000;0.1115;3.7606;
1346.1000;0.1172;3.7812;
1346.4000;0.1140;3.7658;
1346.7000;0.1140;3.7658;
1347.0000;0.1140;3.7581;
1347.3000;0.1140;3.7581;
1347.6000;0.1156;3.7735;
1347.9000;0.1148;3.7709;
1348.2000;0.1123;3.7606;
1348.5000;0.1123;3.7632;
1348.8000;0.1123;3.7632;
1349.1000;0.1164;3.7709;
1349.4000;0.1140;3.7632;
1349.7000;0.1164;3.7735;
1350.0000;0.1156;3.7683;
1350.3000;0.1164;3.7683;
1350.6000;0.1140;3.7555;
1350.9000;0.1026;3.7222;
1351.2000;0.1164;3.7606;
1351.5000;0.1156;3.7530;
1351.8000;0.1164;3.7581;
1352.1000;0.1123;3.7504;
1352.4000;0.1148;3.7581;
1352.7000;0.1140;3.7530;
1353.0000;0.1131;3.7453;
1353.3000;0.1148;3.7606;
1353.6000;0.1172;3.7658;
1353.9000;0.1148;3.7555;
1354.2000;0.1140;3.7555;
1354.5000;0.1140;3.7632;
1354.8000;0.1140;3.7581;
1355.1000;0.1148;3.7658;
1355.4000;0.1172;3.7735;
1355.7000;0.1115;3.7606;
1356.0000;0.1123;3.7709;
1356.3000;0.1156;3.7812;
1356.6000;0.1140;3.7760;
1356.9000;0.1148;3.7812;
1357.2000;0.1156;3.7812;
1357.5000;0.1197;3.7786;
1357.8000;0.1115;3.7530;
1358.1000;0.1156;3.7658;
1358.4000;0.1140;3.7760;
1358.7000;0.1140;3.7709;
1359.0000;0.1140;3.7632;
1359.3000;0.1099;3.7478;
1359.6000;0.1156;3.7581;
1359.9000;0.1083;3.7376;
1360.2000;0.1156;3.7530;
1360.5000;0.1172;3.7632;
1360.8000;0.1148;3.7581;
1361.1000;0.1156;3.7581;
1361.4000;0.1140;3.7632;
1361.7000;0.1115;3.7581;
1362.0000;0.1164;3.7658;
1362.3000;0.1172;3.7658;
1362.6000;0.1091;3.7530;
1362.9000;0.1237;3.7914;
1363.2000;0.1148;3.7786;
1363.5000;0.1099;3.7683;
1363.8000;0.1156;3.7786;
1364.1000;0.1229;3.8094;
1364.4000;0.1140;3.7786;
1364.7000;0.1140;3.7760;
1365.0000;0.1205;3.7940;
1365.3000;0.1188;3.7760;
1365.6000;0.1083;3.7453;
1365.9000;0.1131;3.7606;
1366.2000;0.1188;3.7786;
1366.5000;0.1074;3.7350;
1366.8000;0.1148;3.7530;
1367.1000;0.1221;3.7632;
1367.4000;0.1107;3.7299;
1367.7000;0.1140;3.7350;
1368.0000;0.1148;3.7401;
1368.3000;0.1164;3.7453;
1368.6000;0.1115;3.7401;
1368.9000;0.1140;3.7478;
1369.2000;0.1148;3.7453;
1369.5000;0.1140;3.7504;
1369.8000;0.1123;3.7478;
1370.1000;0.1140;3.7581;
1370.4000;0.1164;3.7606;
1370.7000;0.1148;3.7658;
1371.0000;0.1172;3.7709;
1371.3000;0.1156;3.7837;
1371.6000;0.1140;3.7683;
1371.9000;0.1148;3.7709;
1372.2000;0.1099;3.7453;
1372.5000;0.1123;3.7478;
1372.8000;0.1164;3.7606;
1373.1000;0.1156;3.7555;
1373.4000;0.1172;3.7581;
1373.7000;0.1148;3.7658;
1374.0000;0.1115;3.7478;
1374.3000;0.1156;3.7504;
1374.6000;0.1140;3.7478;
1374.9000;0.1140;3.7530;
1375.2000;0.1148;3.7632;
1375.5000;0.1091;3.7453;
1375.8000;0.1148;3.7658;
1376.1000;0.1140;3.7683;
1376.4000;0.1148;3.7683;
1376.7000;0.1148;3.7581;
1377.0000;0.1140;3.7632;
1377.3000;0.1140;3.7709;
1377.6000;0.1188;3.7812;
1377.9000;0.1140;3.7658;
1378.2000;0.1115;3.7581;
1378.5000;0.1123;3.7606;
1378.8000;0.1123;3.7709;
1379.1000;0.1083;3.7478;
1379.4000;0.1131;3.7658;
1379.7000;0.1148;3.7581;
1380.0000;0.1148;3.7530;
1380.3000;0.1115;3.7530;
1380.6000;0.1107;3.7530;
1380.9000;0.1115;3.7632;
1381.2000;0.1131;3.7632;
1381.5000;0.1131;3.7658;
1381.8000;0.1164;3.7735;
1382.1000;0.1148;3.7658;
1382.4000;0.1148;3.7658;
1382.7000;0.1148;3.7606;
1383.0000;0.1115;3.7581;
1383.3000;0.1156;3.7683;
1383.6000;0.1148;3.7606;
1383.9000;0.1148;3.7530;
1384.2000;0.1172;3.7735;
1384.5000;0.1148;3.7683;
1384.8000;0.1148;3.7683;
1385.1000;0.1140;3.7709;
1385.4000;0.1148;3.7709;
1385.7000;0.1140;3.7760;
1386.0000;0.1148;3.7863;
1386.3000;0.1148;3.7966;
1386.6000;0.1148;3.7889;
1386.9000;0.1156;3.7940;
1387.2000;0.1148;3.7966;
1387.5000;0.1148;3.7940;
1387.8000;0.1123;3.7812;
1388.1000;0.1140;3.7863;
1388.4000;0.1180;3.7914;
1388.7000;0.1148;3.7837;
1389.0000;0.1140;3.7812;
1389.3000;0.1148;3.7812;
1389.6000;0.1140;3.7812;
1389.9000;0.1148;3.7812;
1390.2000;0.1148;3.7863;
1390.5000;0.1205;3.7940;
1390.8000;0.1148;3.7812;
1391.1000;0.1156;3.7760;
1391.4000;0.1148;3.7760;
1391.7000;0.1148;3.7735;
1392.0000;0.1229;3.7889;
1392.3000;0.1140;3.7709;
1392.6000;0.1148;3.7735;
1392.9000;0.1131;3.7632;
1393.2000;0.1156;3.7658;
1393.5000;0.1148;3.7709;
1393.8000;0.1156;3.7735;
1394.1000;0.1083;3.7401;
1394.4000;0.1156;3.7658;
1394.7000;0.1148;3.7683;
1395.0000;0.1140;3.7709;
1395.3000;0.1131;3.7709;
1395.6000;0.1123;3.7760;
1395.9000;0.1131;3.7812;
1396.2000;0.1099;3.7760;
1396.5000;0.1148;3.7812;
1396.8000;0.1148;3.7760;
1397.1000;0.1140;3.7683;
1397.4000;0.1140;3.7709;
1397.7000;0.1148;3.7760;
1398.0000;0.1148;3.7760;
1398.3000;0.1148;3.7760;
1398.6000;0.1148;3.7760;
1398.9000;0.1197;3.7914;
1399.2000;0.1140;3.7709;
1399.5000;0.1123;3.7555;
1399.8000;0.1131;3.7606;
