time/ms;Fluo/V;P700 deltaI/I x10³;
-199.8000;0.1172;3.8222;
-199.5000;0.1188;3.8197;
-199.2000;0.1188;3.8171;
-198.9000;0.1197;3.8094;
-198.6000;0.1205;3.8145;
-198.3000;0.1197;3.8094;
-198.0000;0.1188;3.8094;
-197.7000;0.1197;3.8171;
-197.4000;0.1237;3.8248;
-197.1000;0.1188;3.8043;
-196.8000;0.1197;3.8043;
-196.5000;0.1197;3.7991;
-196.2000;0.1254;3.8171;
-195.9000;0.1188;3.7966;
-195.6000;0.1197;3.7940;
-195.3000;0.1188;3.7863;
-195.0000;0.1205;3.7786;
-194.7000;0.1188;3.7735;
-194.4000;0.1188;3.7760;
-194.1000;0.1172;3.7812;
-193.8000;0.1172;3.7812;
-193.5000;0.1197;3.7863;
-193.2000;0.1254;3.8043;
-192.9000;0.1180;3.7914;
-192.6000;0.1205;3.8043;
-192.3000;0.1205;3.8094;
-192.0000;0.1140;3.8017;
-191.7000;0.1156;3.8017;
-191.4000;0.1197;3.8017;
-191.1000;0.1205;3.8017;
-190.8000;0.1205;3.7991;
-190.5000;0.1180;3.7914;
-190.2000;0.1286;3.8222;
-189.9000;0.1197;3.7940;
-189.6000;0.1188;3.7914;
-189.3000;0.1229;3.7991;
-189.0000;0.1172;3.7940;
-188.7000;0.1197;3.8094;
-188.4000;0.1197;3.8017;
-188.1000;0.1205;3.8043;
-187.8000;0.1197;3.8043;
-187.5000;0.1180;3.8017;
-187.2000;0.1180;3.7991;
-186.9000;0.1205;3.7991;
-186.6000;0.1188;3.7991;
-186.3000;0.1197;3.7991;
-186.0000;0.1205;3.8043;
-185.7000;0.1205;3.8017;
-185.4000;0.1221;3.8145;
-185.1000;0.1213;3.8094;
-184.8000;0.1213;3.8068;
-184.5000;0.1213;3.8017;
-184.2000;0.1164;3.7940;
-183.9000;0.1197;3.7966;
-183.6000;0.1172;3.7837;
-183.3000;0.1140;3.7812;
-183.0000;0.1197;3.7889;
-182.7000;0.1197;3.7889;
-182.4000;0.1221;3.7940;
-182.1000;0.1205;3.7914;
-181.8000;0.1213;3.7940;
-181.5000;0.1221;3.8017;
-181.2000;0.1074;3.7632;
-180.9000;0.1221;3.8043;
-180.6000;0.1205;3.8017;
-180.3000;0.1205;3.8043;
-180.0000;0.1172;3.7966;
-179.7000;0.1197;3.7991;
-179.4000;0.1213;3.8120;
-179.1000;0.1286;3.8273;
-178.8000;0.1180;3.7940;
-178.5000;0.1343;3.8402;
-178.2000;0.1205;3.8068;
-177.9000;0.1164;3.7940;
-177.6000;0.1197;3.8068;
-177.3000;0.1164;3.7914;
-177.0000;0.1205;3.7991;
-176.7000;0.1188;3.7889;
-176.4000;0.1180;3.7914;
-176.1000;0.1188;3.7966;
-175.8000;0.1188;3.7991;
-175.5000;0.1197;3.7966;
-175.2000;0.1180;3.7966;
-174.9000;0.1180;3.7889;
-174.6000;0.1172;3.7786;
-174.3000;0.1188;3.7889;
-174.0000;0.1197;3.7966;
-173.7000;0.1197;3.8017;
-173.4000;0.1180;3.8017;
-173.1000;0.1188;3.8043;
-172.8000;0.1148;3.7966;
-172.5000;0.1172;3.8068;
-172.2000;0.1205;3.8094;
-171.9000;0.1180;3.8094;
-171.6000;0.1197;3.8120;
-171.3000;0.1221;3.8171;
-171.0000;0.1188;3.8145;
-170.7000;0.1197;3.8120;
-170.4000;0.1213;3.8068;
-170.1000;0.1205;3.8017;
-169.8000;0.1205;3.8068;
-169.5000;0.1229;3.8145;
-169.2000;0.1197;3.8171;
-168.9000;0.1213;3.8171;
-168.6000;0.1213;3.8145;
-168.3000;0.1180;3.8094;
-168.0000;0.1213;3.8248;
-167.7000;0.1188;3.8145;
-167.4000;0.1123;3.7863;
-167.1000;0.1197;3.8120;
-166.8000;0.1205;3.8145;
-166.5000;0.1270;3.8427;
-166.2000;0.1180;3.8068;
-165.9000;0.1115;3.7889;
-165.6000;0.1188;3.8145;
-165.3000;0.1237;3.8299;
-165.0000;0.1197;3.8145;
-164.7000;0.1148;3.8120;
-164.4000;0.1180;3.8197;
-164.1000;0.1213;3.8197;
-163.8000;0.1197;3.8197;
-163.5000;0.1213;3.8273;
-163.2000;0.1205;3.8325;
-162.9000;0.1197;3.8273;
-162.6000;0.1213;3.8376;
-162.3000;0.1156;3.8299;
-162.0000;0.1172;3.8350;
-161.7000;0.1172;3.8299;
-161.4000;0.1188;3.8299;
-161.1000;0.1205;3.8248;
-160.8000;0.1188;3.8197;
-160.5000;0.1229;3.8248;
-160.2000;0.1213;3.8094;
-159.9000;0.1221;3.8120;
-159.6000;0.1148;3.7940;
-159.3000;0.1278;3.8273;
-159.0000;0.1221;3.7966;
-158.7000;0.1180;3.7837;
-158.4000;0.1237;3.7914;
-158.1000;0.1188;3.7837;
-157.8000;0.1197;3.7940;
-157.5000;0.1188;3.7966;
-157.2000;0.1221;3.8120;
-156.9000;0.1197;3.8043;
-156.6000;0.1188;3.8017;
-156.3000;0.1197;3.7966;
-156.0000;0.1156;3.7863;
-155.7000;0.1188;3.7991;
-155.4000;0.1172;3.8017;
-155.1000;0.1254;3.8273;
-154.8000;0.1180;3.8068;
-154.5000;0.1148;3.8017;
-154.2000;0.1180;3.8017;
-153.9000;0.1205;3.8068;
-153.6000;0.1205;3.8043;
-153.3000;0.1115;3.7837;
-153.0000;0.1148;3.7889;
-152.7000;0.1221;3.8043;
-152.4000;0.1180;3.7966;
-152.1000;0.1180;3.7966;
-151.8000;0.1180;3.7863;
-151.5000;0.1164;3.7991;
-151.2000;0.1188;3.8068;
-150.9000;0.1164;3.7991;
-150.6000;0.1156;3.7940;
-150.3000;0.1270;3.8222;
-150.0000;0.1197;3.8017;
-149.7000;0.1205;3.7940;
-149.4000;0.1286;3.8222;
-149.1000;0.1205;3.8017;
-148.8000;0.1172;3.7991;
-148.5000;0.1188;3.8068;
-148.2000;0.1205;3.8094;
-147.9000;0.1205;3.8017;
-147.6000;0.1205;3.8068;
-147.3000;0.1229;3.8197;
-147.0000;0.1213;3.8197;
-146.7000;0.1180;3.8171;
-146.4000;0.1197;3.8145;
-146.1000;0.1205;3.8120;
-145.8000;0.1188;3.8068;
-145.5000;0.1180;3.8145;
-145.2000;0.1172;3.8120;
-144.9000;0.1188;3.8120;
-144.6000;0.1221;3.8197;
-144.3000;0.1270;3.8273;
-144.0000;0.1180;3.7991;
-143.7000;0.1140;3.7966;
-143.4000;0.1188;3.8145;
-143.1000;0.1197;3.8068;
-142.8000;0.1197;3.8120;
-142.5000;0.1221;3.8248;
-142.2000;0.1221;3.8171;
-141.9000;0.1229;3.8222;
-141.6000;0.1156;3.7991;
-141.3000;0.1140;3.7940;
-141.0000;0.1197;3.8120;
-140.7000;0.1188;3.8094;
-140.4000;0.1180;3.8094;
-140.1000;0.1172;3.7991;
-139.8000;0.1213;3.8043;
-139.5000;0.1188;3.7991;
-139.2000;0.1172;3.7966;
-138.9000;0.1197;3.8043;
-138.6000;0.1213;3.8120;
-138.3000;0.1188;3.8068;
-138.0000;0.1213;3.8120;
-137.7000;0.1221;3.8094;
-137.4000;0.1197;3.8068;
-137.1000;0.1213;3.8120;
-136.8000;0.1205;3.8043;
-136.5000;0.1197;3.7889;
-136.2000;0.1213;3.7991;
-135.9000;0.1188;3.7940;
-135.6000;0.1180;3.7940;
-135.3000;0.1197;3.7966;
-135.0000;0.1221;3.8043;
-134.7000;0.1197;3.7966;
-134.4000;0.1180;3.7940;
-134.1000;0.1205;3.8017;
-133.8000;0.1205;3.8094;
-133.5000;0.1180;3.8043;
-133.2000;0.1221;3.8197;
-132.9000;0.1188;3.8043;
-132.6000;0.1205;3.8043;
-132.3000;0.1205;3.8068;
-132.0000;0.1197;3.8043;
-131.7000;0.1197;3.8094;
-131.4000;0.1180;3.8043;
-131.1000;0.1172;3.8120;
-130.8000;0.1172;3.8145;
-130.5000;0.1197;3.8248;
-130.2000;0.1188;3.8120;
-129.9000;0.1180;3.8068;
-129.6000;0.1213;3.8197;
-129.3000;0.1221;3.8145;
-129.0000;0.1221;3.8017;
-128.7000;0.1164;3.7837;
-128.4000;0.1205;3.7889;
-128.1000;0.1254;3.7966;
-127.8000;0.1254;3.7966;
-127.5000;0.1229;3.7966;
-127.2000;0.1213;3.7991;
-126.9000;0.1205;3.8043;
-126.6000;0.1148;3.7837;
-126.3000;0.1245;3.8120;
-126.0000;0.1205;3.7991;
-125.7000;0.1213;3.8094;
-125.4000;0.1148;3.7889;
-125.1000;0.1140;3.7889;
-124.8000;0.1197;3.8094;
-124.5000;0.1221;3.8222;
-124.2000;0.1197;3.8222;
-123.9000;0.1156;3.8017;
-123.6000;0.1156;3.7940;
-123.3000;0.1140;3.7863;
-123.0000;0.1221;3.7991;
-122.7000;0.1237;3.8094;
-122.4000;0.1213;3.8145;
-122.1000;0.1180;3.8017;
-121.8000;0.1213;3.8094;
-121.5000;0.1148;3.7914;
-121.2000;0.1213;3.8068;
-120.9000;0.1197;3.8017;
-120.6000;0.1197;3.7966;
-120.3000;0.1197;3.7966;
-120.0000;0.1172;3.7914;
-119.7000;0.1180;3.7940;
-119.4000;0.1205;3.8068;
-119.1000;0.1180;3.7966;
-118.8000;0.1221;3.8094;
-118.5000;0.1197;3.7991;
-118.2000;0.1180;3.8043;
-117.9000;0.1197;3.8068;
-117.6000;0.1197;3.8043;
-117.3000;0.1156;3.7889;
-117.0000;0.1229;3.8120;
-116.7000;0.1229;3.8248;
-116.4000;0.1197;3.8145;
-116.1000;0.1213;3.8145;
-115.8000;0.1188;3.8043;
-115.5000;0.1197;3.8043;
-115.2000;0.1205;3.8068;
-114.9000;0.1188;3.8043;
-114.6000;0.1172;3.8043;
-114.3000;0.1180;3.8171;
-114.0000;0.1213;3.8197;
-113.7000;0.1172;3.8017;
-113.4000;0.1172;3.7991;
-113.1000;0.1180;3.7966;
-112.8000;0.1213;3.8068;
-112.5000;0.1197;3.8068;
-112.2000;0.1180;3.8068;
-111.9000;0.1213;3.8197;
-111.6000;0.1188;3.8068;
-111.3000;0.1221;3.8145;
-111.0000;0.1188;3.8043;
-110.7000;0.1188;3.8094;
-110.4000;0.1229;3.8197;
-110.1000;0.1188;3.8145;
-109.8000;0.1180;3.8171;
-109.5000;0.1213;3.8273;
-109.2000;0.1213;3.8197;
-108.9000;0.1197;3.8145;
-108.6000;0.1278;3.8350;
-108.3000;0.1172;3.8017;
-108.0000;0.1205;3.8068;
-107.7000;0.1180;3.8043;
-107.4000;0.1229;3.8171;
-107.1000;0.1205;3.8197;
-106.8000;0.1197;3.8094;
-106.5000;0.1180;3.8068;
-106.2000;0.1213;3.8120;
-105.9000;0.1205;3.8017;
-105.6000;0.1213;3.8094;
-105.3000;0.1197;3.8094;
-105.0000;0.1188;3.8068;
-104.7000;0.1213;3.8068;
-104.4000;0.1213;3.8094;
-104.1000;0.1237;3.8197;
-103.8000;0.1172;3.7940;
-103.5000;0.1188;3.8017;
-103.2000;0.1140;3.7914;
-102.9000;0.1213;3.8171;
-102.6000;0.1197;3.8120;
-102.3000;0.1197;3.8068;
-102.0000;0.1221;3.8145;
-101.7000;0.1213;3.8094;
-101.4000;0.1115;3.7786;
-101.1000;0.1213;3.8197;
-100.8000;0.1180;3.8171;
-100.5000;0.1180;3.8171;
-100.2000;0.1205;3.8197;
-99.9000;0.1213;3.8171;
-99.6000;0.1188;3.8120;
-99.3000;0.1188;3.8043;
-99.0000;0.1180;3.8017;
-98.7000;0.1245;3.8325;
-98.4000;0.1188;3.8120;
-98.1000;0.1205;3.8120;
-97.8000;0.1091;3.7786;
-97.5000;0.1205;3.8094;
-97.2000;0.1213;3.8068;
-96.9000;0.1205;3.8120;
-96.6000;0.1197;3.8145;
-96.3000;0.1188;3.8145;
-96.0000;0.1205;3.8171;
-95.7000;0.1197;3.8120;
-95.4000;0.1197;3.8120;
-95.1000;0.1205;3.8094;
-94.8000;0.1213;3.8094;
-94.5000;0.1205;3.8068;
-94.2000;0.1213;3.8043;
-93.9000;0.1278;3.8325;
-93.6000;0.1188;3.8043;
-93.3000;0.1180;3.8120;
-93.0000;0.1197;3.8145;
-92.7000;0.1172;3.8043;
-92.4000;0.1188;3.8043;
-92.1000;0.1205;3.8068;
-91.8000;0.1221;3.7991;
-91.5000;0.1205;3.7991;
-91.2000;0.1205;3.8094;
-90.9000;0.1213;3.8197;
-90.6000;0.1197;3.8145;
-90.3000;0.1213;3.8068;
-90.0000;0.1205;3.8068;
-89.7000;0.1205;3.8145;
-89.4000;0.1205;3.8171;
-89.1000;0.1172;3.8068;
-88.8000;0.1286;3.8376;
-88.5000;0.1213;3.8120;
-88.2000;0.1197;3.8094;
-87.9000;0.1148;3.8017;
-87.6000;0.1188;3.7940;
-87.3000;0.1188;3.8094;
-87.0000;0.1188;3.8145;
-86.7000;0.1188;3.8197;
-86.4000;0.1197;3.8171;
-86.1000;0.1180;3.8120;
-85.8000;0.1197;3.8094;
-85.5000;0.1205;3.8043;
-85.2000;0.1278;3.8248;
-84.9000;0.1205;3.8017;
-84.6000;0.1188;3.8017;
-84.3000;0.1188;3.8017;
-84.0000;0.1180;3.8017;
-83.7000;0.1197;3.8043;
-83.4000;0.1229;3.8222;
-83.1000;0.1205;3.8120;
-82.8000;0.1180;3.8043;
-82.5000;0.1197;3.8017;
-82.2000;0.1188;3.7991;
-81.9000;0.1148;3.7863;
-81.6000;0.1188;3.8043;
-81.3000;0.1213;3.8068;
-81.0000;0.1197;3.8094;
-80.7000;0.1188;3.8068;
-80.4000;0.1156;3.7914;
-80.1000;0.1197;3.7991;
-79.8000;0.1205;3.7991;
-79.5000;0.1188;3.7966;
-79.2000;0.1213;3.7966;
-78.9000;0.1188;3.7914;
-78.6000;0.1197;3.7966;
-78.3000;0.1188;3.7914;
-78.0000;0.1188;3.8017;
-77.7000;0.1188;3.8043;
-77.4000;0.1188;3.8094;
-77.1000;0.1197;3.8145;
-76.8000;0.1254;3.8376;
-76.5000;0.1197;3.8222;
-76.2000;0.1180;3.8273;
-75.9000;0.1205;3.8299;
-75.6000;0.1205;3.8273;
-75.3000;0.1180;3.8171;
-75.0000;0.1188;3.8171;
-74.7000;0.1213;3.8222;
-74.4000;0.1197;3.8197;
-74.1000;0.1205;3.8299;
-73.8000;0.1197;3.8248;
-73.5000;0.1172;3.8222;
-73.2000;0.1197;3.8325;
-72.9000;0.1188;3.8248;
-72.6000;0.1213;3.8299;
-72.3000;0.1229;3.8376;
-72.0000;0.1107;3.8017;
-71.7000;0.1188;3.8273;
-71.4000;0.1188;3.8325;
-71.1000;0.1205;3.8325;
-70.8000;0.1237;3.8402;
-70.5000;0.1140;3.8017;
-70.2000;0.1188;3.8171;
-69.9000;0.1205;3.8197;
-69.6000;0.1083;3.7837;
-69.3000;0.1213;3.8273;
-69.0000;0.1197;3.8171;
-68.7000;0.1188;3.8145;
-68.4000;0.1188;3.8043;
-68.1000;0.1172;3.8043;
-67.8000;0.1205;3.8145;
-67.5000;0.1188;3.8068;
-67.2000;0.1172;3.8094;
-66.9000;0.1188;3.8017;
-66.6000;0.1262;3.8248;
-66.3000;0.1188;3.8120;
-66.0000;0.1180;3.8094;
-65.7000;0.1172;3.8120;
-65.4000;0.1197;3.8094;
-65.1000;0.1115;3.7812;
-64.8000;0.1197;3.7991;
-64.5000;0.1180;3.7940;
-64.2000;0.1058;3.7530;
-63.9000;0.1205;3.7991;
-63.6000;0.1205;3.7966;
-63.3000;0.1148;3.7812;
-63.0000;0.1245;3.8094;
-62.7000;0.1172;3.8043;
-62.4000;0.1180;3.8017;
-62.1000;0.1180;3.8017;
-61.8000;0.1245;3.8145;
-61.5000;0.1164;3.7889;
-61.2000;0.1197;3.8017;
-60.9000;0.1180;3.7991;
-60.6000;0.1188;3.8094;
-60.3000;0.1221;3.8171;
-60.0000;0.1188;3.8145;
-59.7000;0.1188;3.8171;
-59.4000;0.1188;3.8171;
-59.1000;0.1172;3.8094;
-58.8000;0.1213;3.8222;
-58.5000;0.1205;3.8222;
-58.2000;0.1180;3.8248;
-57.9000;0.1188;3.8171;
-57.6000;0.1294;3.8350;
-57.3000;0.1197;3.8043;
-57.0000;0.1197;3.7966;
-56.7000;0.1180;3.7914;
-56.4000;0.1164;3.7889;
-56.1000;0.1188;3.7966;
-55.8000;0.1180;3.7991;
-55.5000;0.1164;3.7991;
-55.2000;0.1205;3.8120;
-54.9000;0.1180;3.8094;
-54.6000;0.1205;3.8145;
-54.3000;0.1213;3.8145;
-54.0000;0.1205;3.8068;
-53.7000;0.1245;3.8145;
-53.4000;0.1205;3.8017;
-53.1000;0.1180;3.7863;
-52.8000;0.1188;3.7991;
-52.5000;0.1140;3.7940;
-52.2000;0.1172;3.8017;
-51.9000;0.1180;3.7966;
-51.6000;0.1262;3.8120;
-51.3000;0.1197;3.8017;
-51.0000;0.1205;3.8120;
-50.7000;0.1164;3.8120;
-50.4000;0.1172;3.8222;
-50.1000;0.1197;3.8299;
-49.8000;0.1156;3.8248;
-49.5000;0.1205;3.8299;
-49.2000;0.1180;3.8325;
-48.9000;0.1188;3.8427;
-48.6000;0.1074;3.8094;
-48.3000;0.1286;3.8633;
-48.0000;0.1197;3.8402;
-47.7000;0.1180;3.8350;
-47.4000;0.1213;3.8350;
-47.1000;0.1205;3.8248;
-46.8000;0.1180;3.8222;
-46.5000;0.1180;3.8145;
-46.2000;0.1180;3.8197;
-45.9000;0.1188;3.8222;
-45.6000;0.1074;3.7914;
-45.3000;0.1188;3.8171;
-45.0000;0.1172;3.8120;
-44.7000;0.1213;3.8222;
-44.4000;0.1180;3.8043;
-44.1000;0.1188;3.8171;
-43.8000;0.1156;3.8094;
-43.5000;0.1221;3.8299;
-43.2000;0.1205;3.8325;
-42.9000;0.1180;3.8248;
-42.6000;0.1188;3.8222;
-42.3000;0.1180;3.8145;
-42.0000;0.1188;3.8145;
-41.7000;0.1197;3.8171;
-41.4000;0.1213;3.8197;
-41.1000;0.1180;3.8145;
-40.8000;0.1164;3.8068;
-40.5000;0.1180;3.8145;
-40.2000;0.1123;3.8043;
-39.9000;0.1229;3.8248;
-39.6000;0.1172;3.8171;
-39.3000;0.1172;3.8171;
-39.0000;0.1131;3.8120;
-38.7000;0.1205;3.8248;
-38.4000;0.1205;3.8222;
-38.1000;0.1213;3.8273;
-37.8000;0.1172;3.8171;
-37.5000;0.1197;3.8145;
-37.2000;0.1245;3.8222;
-36.9000;0.1188;3.8068;
-36.6000;0.1197;3.8120;
-36.3000;0.1188;3.8094;
-36.0000;0.1197;3.8145;
-35.7000;0.1188;3.8197;
-35.4000;0.1197;3.8197;
-35.1000;0.1148;3.7991;
-34.8000;0.1180;3.8043;
-34.5000;0.1278;3.8350;
-34.2000;0.1205;3.8197;
-33.9000;0.1197;3.8068;
-33.6000;0.1148;3.8043;
-33.3000;0.1205;3.8248;
-33.0000;0.1188;3.8145;
-32.7000;0.1205;3.8248;
-32.4000;0.1140;3.7966;
-32.1000;0.1197;3.8171;
-31.8000;0.1205;3.8273;
-31.5000;0.1205;3.8248;
-31.2000;0.1164;3.8248;
-30.9000;0.1205;3.8299;
-30.6000;0.1180;3.8197;
-30.3000;0.1213;3.8094;
-30.0000;0.1197;3.8068;
-29.7000;0.1164;3.7966;
-29.4000;0.1294;3.8273;
-29.1000;0.1213;3.8068;
-28.8000;0.1286;3.8273;
-28.5000;0.1188;3.8068;
-28.2000;0.1197;3.8068;
-27.9000;0.1237;3.8222;
-27.6000;0.1188;3.8017;
-27.3000;0.1213;3.8094;
-27.0000;0.1213;3.8017;
-26.7000;0.1262;3.8171;
-26.4000;0.1205;3.7940;
-26.1000;0.1205;3.7889;
-25.8000;0.1188;3.7966;
-25.5000;0.1197;3.8017;
-25.2000;0.1156;3.7991;
-24.9000;0.1188;3.8068;
-24.6000;0.1237;3.8145;
-24.3000;0.1164;3.7914;
-24.0000;0.1172;3.8017;
-23.7000;0.1156;3.7940;
-23.4000;0.1221;3.8145;
-23.1000;0.1188;3.7966;
-22.8000;0.1074;3.7683;
-22.5000;0.1164;3.7991;
-22.2000;0.1197;3.8043;
-21.9000;0.1254;3.8222;
-21.6000;0.1197;3.8017;
-21.3000;0.1156;3.7914;
-21.0000;0.1205;3.8094;
-20.7000;0.1205;3.8120;
-20.4000;0.1221;3.8222;
-20.1000;0.1180;3.8197;
-19.8000;0.1278;3.8556;
-19.5000;0.1188;3.8273;
-19.2000;0.1294;3.8581;
-18.9000;0.1197;3.8171;
-18.6000;0.1180;3.8222;
-18.3000;0.1131;3.8120;
-18.0000;0.1188;3.8248;
-17.7000;0.1188;3.8222;
-17.4000;0.1180;3.8120;
-17.1000;0.1205;3.8197;
-16.8000;0.1140;3.8120;
-16.5000;0.1221;3.8453;
-16.2000;0.1294;3.8710;
-15.9000;0.1213;3.8376;
-15.6000;0.1164;3.8248;
-15.3000;0.1205;3.8376;
-15.0000;0.1197;3.8402;
-14.7000;0.1197;3.8402;
-14.4000;0.1188;3.8376;
-14.1000;0.1188;3.8350;
-13.8000;0.1180;3.8273;
-13.5000;0.1156;3.8197;
-13.2000;0.1197;3.8273;
-12.9000;0.1180;3.8145;
-12.6000;0.1213;3.8222;
-12.3000;0.1237;3.8299;
-12.0000;0.1172;3.8171;
-11.7000;0.1180;3.8222;
-11.4000;0.1270;3.8453;
-11.1000;0.1164;3.8094;
-10.8000;0.1221;3.8273;
-10.5000;0.1172;3.8094;
-10.2000;0.1237;3.8197;
-9.9000;0.1205;3.8094;
-9.6000;0.1148;3.7889;
-9.3000;0.1180;3.7966;
-9.0000;0.1197;3.7940;
-8.7000;0.1197;3.7889;
-8.4000;0.1205;3.7940;
-8.1000;0.1205;3.7940;
-7.8000;0.1213;3.7940;
-7.5000;0.1213;3.8068;
-7.2000;0.1188;3.8043;
-6.9000;0.1205;3.8094;
-6.6000;0.1205;3.8068;
-6.3000;0.1172;3.8043;
-6.0000;0.1188;3.8145;
-5.7000;0.1197;3.8171;
-5.4000;0.1188;3.8197;
-5.1000;0.1172;3.8145;
-4.8000;0.1164;3.8145;
-4.5000;0.1180;3.8171;
-4.2000;0.1148;3.8145;
-3.9000;0.1172;3.8197;
-3.6000;0.1180;3.8171;
-3.3000;0.1164;3.8145;
-3.0000;0.1164;3.8171;
-2.7000;0.1180;3.8248;
-2.4000;0.1180;3.8222;
-2.1000;0.1205;3.8248;
-1.8000;0.1197;3.8248;
-1.5000;0.1197;3.8350;
-1.2000;0.1213;3.8427;
-0.9000;0.1237;3.8581;
-0.6000;0.1172;3.8325;
-0.3000;0.1197;3.8325;
0.0000;0.1197;3.8325;
0.3000;0.1205;3.8068;
0.6000;0.1245;3.8299;
0.9000;0.1270;3.8556;
1.2000;0.1294;3.8684;
1.5000;0.1319;3.8838;
1.8000;0.1343;3.8992;
2.1000;0.1343;3.9043;
2.4000;0.1368;3.9094;
2.7000;0.1473;3.9530;
3.0000;0.1384;3.9377;
3.3000;0.1416;3.9607;
3.6000;0.1425;3.9710;
3.9000;0.1416;3.9736;
4.2000;0.1416;3.9761;
4.5000;0.1416;3.9684;
4.8000;0.1425;3.9761;
5.1000;0.1425;3.9736;
5.4000;0.1425;3.9736;
5.7000;0.1449;3.9838;
6.0000;0.1425;3.9813;
6.3000;0.1433;3.9761;
6.6000;0.1425;3.9864;
6.9000;0.1425;3.9813;
7.2000;0.1416;3.9813;
7.5000;0.1416;3.9813;
7.8000;0.1425;3.9967;
8.1000;0.1433;3.9915;
8.4000;0.1433;3.9838;
8.7000;0.1392;3.9710;
9.0000;0.1433;3.9761;
9.3000;0.1465;3.9787;
9.6000;0.1449;3.9736;
9.9000;0.1416;3.9659;
10.2000;0.1433;3.9761;
10.5000;0.1441;3.9813;
10.8000;0.1498;3.9941;
11.1000;0.1433;3.9710;
11.4000;0.1441;3.9813;
11.7000;0.1449;3.9890;
12.0000;0.1433;3.9864;
12.3000;0.1441;3.9838;
12.6000;0.1433;3.9736;
12.9000;0.1392;3.9633;
13.2000;0.1433;3.9684;
13.5000;0.1433;3.9684;
13.8000;0.1400;3.9556;
14.1000;0.1441;3.9684;
14.4000;0.1449;3.9787;
14.7000;0.1473;3.9890;
15.0000;0.1441;3.9710;
15.3000;0.1433;3.9761;
15.6000;0.1457;3.9813;
15.9000;0.1457;3.9838;
16.2000;0.1441;3.9864;
16.5000;0.1368;3.9761;
16.8000;0.1441;3.9915;
17.1000;0.1473;4.0018;
17.4000;0.1441;3.9838;
17.7000;0.1514;4.0095;
18.0000;0.1441;3.9941;
18.3000;0.1457;3.9915;
18.6000;0.1416;3.9813;
18.9000;0.1449;3.9915;
19.2000;0.1506;3.9992;
19.5000;0.1449;3.9890;
19.8000;0.1457;3.9941;
20.1000;0.1449;3.9992;
20.4000;0.1433;3.9915;
20.7000;0.1327;3.9505;
21.0000;0.1465;3.9787;
21.3000;0.1343;3.9428;
21.6000;0.1449;3.9659;
21.9000;0.1465;3.9684;
22.2000;0.1465;3.9659;
22.5000;0.1465;3.9607;
22.8000;0.1473;3.9633;
23.1000;0.1473;3.9659;
23.4000;0.1433;3.9607;
23.7000;0.1465;3.9710;
24.0000;0.1449;3.9633;
24.3000;0.1457;3.9684;
24.6000;0.1473;3.9684;
24.9000;0.1465;3.9659;
25.2000;0.1408;3.9453;
25.5000;0.1465;3.9710;
25.8000;0.1449;3.9659;
26.1000;0.1490;3.9761;
26.4000;0.1498;3.9736;
26.7000;0.1465;3.9684;
27.0000;0.1498;3.9787;
27.3000;0.1473;3.9633;
27.6000;0.1433;3.9607;
27.9000;0.1481;3.9736;
28.2000;0.1465;3.9684;
28.5000;0.1465;3.9684;
28.8000;0.1465;3.9813;
29.1000;0.1449;3.9813;
29.4000;0.1465;3.9736;
29.7000;0.1490;3.9787;
30.0000;0.1481;3.9813;
30.3000;0.1473;3.9684;
30.6000;0.1457;3.9582;
30.9000;0.1498;3.9684;
31.2000;0.1481;3.9556;
31.5000;0.1481;3.9530;
31.8000;0.1473;3.9428;
32.1000;0.1473;3.9453;
32.4000;0.1481;3.9479;
32.7000;0.1465;3.9428;
33.0000;0.1481;3.9453;
33.3000;0.1490;3.9453;
33.6000;0.1465;3.9325;
33.9000;0.1506;3.9351;
34.2000;0.1473;3.9223;
34.5000;0.1457;3.9171;
34.8000;0.1473;3.9274;
35.1000;0.1506;3.9325;
35.4000;0.1481;3.9300;
35.7000;0.1473;3.9428;
36.0000;0.1490;3.9505;
36.3000;0.1506;3.9633;
36.6000;0.1490;3.9633;
36.9000;0.1522;3.9659;
37.2000;0.1481;3.9659;
37.5000;0.1530;3.9838;
37.8000;0.1473;3.9659;
38.1000;0.1465;3.9684;
38.4000;0.1473;3.9633;
38.7000;0.1392;3.9300;
39.0000;0.1473;3.9556;
39.3000;0.1481;3.9505;
39.6000;0.1498;3.9582;
39.9000;0.1481;3.9530;
40.2000;0.1522;3.9633;
40.5000;0.1473;3.9633;
40.8000;0.1473;3.9530;
41.1000;0.1481;3.9607;
41.4000;0.1473;3.9684;
41.7000;0.1506;3.9659;
42.0000;0.1481;3.9684;
42.3000;0.1473;3.9556;
42.6000;0.1506;3.9659;
42.9000;0.1490;3.9684;
43.2000;0.1481;3.9633;
43.5000;0.1506;3.9684;
43.8000;0.1506;3.9659;
44.1000;0.1498;3.9479;
44.4000;0.1465;3.9377;
44.7000;0.1490;3.9428;
45.0000;0.1498;3.9402;
45.3000;0.1490;3.9453;
45.6000;0.1538;3.9633;
45.9000;0.1481;3.9377;
46.2000;0.1530;3.9607;
46.5000;0.1506;3.9479;
46.8000;0.1481;3.9453;
47.1000;0.1490;3.9479;
47.4000;0.1481;3.9453;
47.7000;0.1498;3.9505;
48.0000;0.1490;3.9453;
48.3000;0.1481;3.9377;
48.6000;0.1547;3.9556;
48.9000;0.1481;3.9505;
49.2000;0.1612;3.9941;
49.5000;0.1522;3.9556;
49.8000;0.1441;3.9325;
50.1000;0.1498;3.9505;
50.4000;0.1514;3.9633;
50.7000;0.1498;3.9659;
51.0000;0.1481;3.9633;
51.3000;0.1465;3.9428;
51.6000;0.1514;3.9505;
51.9000;0.1498;3.9453;
52.2000;0.1408;3.9171;
52.5000;0.1530;3.9556;
52.8000;0.1498;3.9453;
53.1000;0.1498;3.9479;
53.4000;0.1530;3.9633;
53.7000;0.1506;3.9582;
54.0000;0.1506;3.9556;
54.3000;0.1514;3.9428;
54.6000;0.1555;3.9479;
54.9000;0.1498;3.9325;
55.2000;0.1498;3.9325;
55.5000;0.1522;3.9479;
55.8000;0.1490;3.9453;
56.1000;0.1514;3.9505;
56.4000;0.1514;3.9479;
56.7000;0.1530;3.9505;
57.0000;0.1522;3.9479;
57.3000;0.1514;3.9453;
57.6000;0.1514;3.9505;
57.9000;0.1449;3.9300;
58.2000;0.1530;3.9582;
58.5000;0.1490;3.9402;
58.8000;0.1514;3.9556;
59.1000;0.1514;3.9505;
59.4000;0.1547;3.9633;
59.7000;0.1506;3.9556;
60.0000;0.1506;3.9453;
60.3000;0.1506;3.9479;
60.6000;0.1473;3.9402;
60.9000;0.1514;3.9479;
61.2000;0.1506;3.9453;
61.5000;0.1514;3.9428;
61.8000;0.1490;3.9351;
62.1000;0.1498;3.9300;
62.4000;0.1506;3.9274;
62.7000;0.1514;3.9197;
63.0000;0.1514;3.9223;
63.3000;0.1490;3.9069;
63.6000;0.1522;3.9171;
63.9000;0.1506;3.9146;
64.2000;0.1595;3.9402;
64.5000;0.1530;3.9300;
64.8000;0.1514;3.9274;
65.1000;0.1351;3.8838;
65.4000;0.1498;3.9248;
65.7000;0.1457;3.9146;
66.0000;0.1522;3.9377;
66.3000;0.1530;3.9479;
66.6000;0.1522;3.9428;
66.9000;0.1506;3.9351;
67.2000;0.1514;3.9428;
67.5000;0.1514;3.9530;
67.8000;0.1506;3.9505;
68.1000;0.1522;3.9505;
68.4000;0.1530;3.9479;
68.7000;0.1522;3.9479;
69.0000;0.1530;3.9633;
69.3000;0.1506;3.9556;
69.6000;0.1498;3.9505;
69.9000;0.1522;3.9453;
70.2000;0.1465;3.9274;
70.5000;0.1506;3.9453;
70.8000;0.1530;3.9582;
71.1000;0.1530;3.9479;
71.4000;0.1498;3.9325;
71.7000;0.1530;3.9351;
72.0000;0.1506;3.9248;
72.3000;0.1465;3.9146;
72.6000;0.1538;3.9248;
72.9000;0.1514;3.9223;
73.2000;0.1506;3.9146;
73.5000;0.1547;3.9300;
73.8000;0.1628;3.9530;
74.1000;0.1506;3.9274;
74.4000;0.1514;3.9248;
74.7000;0.1530;3.9300;
75.0000;0.1604;3.9633;
75.3000;0.1498;3.9325;
75.6000;0.1522;3.9479;
75.9000;0.1571;3.9582;
76.2000;0.1555;3.9607;
76.5000;0.1514;3.9479;
76.8000;0.1490;3.9453;
77.1000;0.1538;3.9607;
77.4000;0.1522;3.9582;
77.7000;0.1530;3.9556;
78.0000;0.1514;3.9428;
78.3000;0.1522;3.9479;
78.6000;0.1490;3.9402;
78.9000;0.1530;3.9479;
79.2000;0.1481;3.9325;
79.5000;0.1514;3.9453;
79.8000;0.1538;3.9505;
80.1000;0.1506;3.9530;
80.4000;0.1530;3.9582;
80.7000;0.1481;3.9453;
81.0000;0.1522;3.9582;
81.3000;0.1547;3.9633;
81.6000;0.1595;3.9761;
81.9000;0.1522;3.9556;
82.2000;0.1604;3.9761;
82.5000;0.1555;3.9684;
82.8000;0.1644;4.0018;
83.1000;0.1506;3.9659;
83.4000;0.1522;3.9761;
83.7000;0.1555;3.9941;
84.0000;0.1530;3.9813;
84.3000;0.1538;3.9710;
84.6000;0.1514;3.9710;
84.9000;0.1620;3.9890;
85.2000;0.1514;3.9530;
85.5000;0.1547;3.9582;
85.8000;0.1530;3.9556;
86.1000;0.1530;3.9633;
86.4000;0.1555;3.9710;
86.7000;0.1530;3.9633;
87.0000;0.1522;3.9556;
87.3000;0.1514;3.9633;
87.6000;0.1563;3.9813;
87.9000;0.1522;3.9787;
88.2000;0.1547;3.9838;
88.5000;0.1604;3.9992;
88.8000;0.1530;3.9710;
89.1000;0.1571;3.9838;
89.4000;0.1522;3.9736;
89.7000;0.1506;3.9684;
90.0000;0.1530;3.9813;
90.3000;0.1514;3.9787;
90.6000;0.1498;3.9684;
90.9000;0.1555;3.9838;
91.2000;0.1441;3.9402;
91.5000;0.1506;3.9582;
91.8000;0.1530;3.9787;
92.1000;0.1522;3.9684;
92.4000;0.1579;3.9838;
92.7000;0.1530;3.9787;
93.0000;0.1522;3.9684;
93.3000;0.1530;3.9761;
93.6000;0.1514;3.9710;
93.9000;0.1506;3.9659;
94.2000;0.1441;3.9453;
94.5000;0.1538;3.9761;
94.8000;0.1538;3.9736;
95.1000;0.1555;3.9684;
95.4000;0.1547;3.9659;
95.7000;0.1538;3.9607;
96.0000;0.1571;3.9710;
96.3000;0.1644;4.0043;
96.6000;0.1547;3.9710;
96.9000;0.1522;3.9633;
97.2000;0.1514;3.9556;
97.5000;0.1522;3.9607;
97.8000;0.1595;3.9787;
98.1000;0.1506;3.9582;
98.4000;0.1571;3.9787;
98.7000;0.1514;3.9659;
99.0000;0.1530;3.9710;
99.3000;0.1547;3.9633;
99.6000;0.1530;3.9607;
99.9000;0.1538;3.9684;
100.2000;0.1514;3.9607;
100.5000;0.1530;3.9659;
100.8000;0.1555;3.9659;
101.1000;0.1530;3.9659;
101.4000;0.1555;3.9659;
101.7000;0.1620;3.9864;
102.0000;0.1530;3.9633;
102.3000;0.1530;3.9607;
102.6000;0.1579;3.9736;
102.9000;0.1538;3.9530;
103.2000;0.1595;3.9736;
103.5000;0.1506;3.9505;
103.8000;0.1571;3.9684;
104.1000;0.1547;3.9556;
104.4000;0.1457;3.9351;
104.7000;0.1571;3.9582;
105.0000;0.1522;3.9556;
105.3000;0.1530;3.9505;
105.6000;0.1481;3.9325;
105.9000;0.1538;3.9505;
106.2000;0.1514;3.9556;
106.5000;0.1514;3.9607;
106.8000;0.1506;3.9607;
107.1000;0.1530;3.9633;
107.4000;0.1522;3.9582;
107.7000;0.1514;3.9582;
108.0000;0.1522;3.9607;
108.3000;0.1538;3.9710;
108.6000;0.1530;3.9684;
108.9000;0.1538;3.9684;
109.2000;0.1530;3.9659;
109.5000;0.1538;3.9736;
109.8000;0.1530;3.9710;
110.1000;0.1498;3.9659;
110.4000;0.1490;3.9607;
110.7000;0.1522;3.9684;
111.0000;0.1522;3.9607;
111.3000;0.1530;3.9582;
111.6000;0.1538;3.9530;
111.9000;0.1530;3.9582;
112.2000;0.1522;3.9479;
112.5000;0.1498;3.9505;
112.8000;0.1538;3.9659;
113.1000;0.1506;3.9556;
113.4000;0.1522;3.9607;
113.7000;0.1563;3.9710;
114.0000;0.1514;3.9556;
114.3000;0.1538;3.9607;
114.6000;0.1490;3.9582;
114.9000;0.1538;3.9710;
115.2000;0.1530;3.9684;
115.5000;0.1538;3.9761;
115.8000;0.1522;3.9787;
116.1000;0.1538;3.9761;
116.4000;0.1538;3.9736;
116.7000;0.1628;3.9992;
117.0000;0.1530;3.9684;
117.3000;0.1538;3.9710;
117.6000;0.1522;3.9684;
117.9000;0.1538;3.9736;
118.2000;0.1595;3.9941;
118.5000;0.1563;3.9813;
118.8000;0.1555;3.9710;
119.1000;0.1538;3.9684;
119.4000;0.1547;3.9556;
119.7000;0.1514;3.9453;
120.0000;0.1547;3.9479;
120.3000;0.1538;3.9479;
120.6000;0.1481;3.9351;
120.9000;0.1595;3.9838;
121.2000;0.1538;3.9710;
121.5000;0.1538;3.9659;
121.8000;0.1506;3.9582;
122.1000;0.1530;3.9582;
122.4000;0.1498;3.9428;
122.7000;0.1538;3.9582;
123.0000;0.1514;3.9582;
123.3000;0.1522;3.9479;
123.6000;0.1547;3.9530;
123.9000;0.1530;3.9479;
124.2000;0.1530;3.9505;
124.5000;0.1522;3.9505;
124.8000;0.1522;3.9582;
125.1000;0.1563;3.9684;
125.4000;0.1555;3.9684;
125.7000;0.1538;3.9633;
126.0000;0.1514;3.9607;
126.3000;0.1571;3.9787;
126.6000;0.1555;3.9864;
126.9000;0.1547;3.9736;
127.2000;0.1547;3.9633;
127.5000;0.1555;3.9633;
127.8000;0.1563;3.9633;
128.1000;0.1555;3.9582;
128.4000;0.1530;3.9556;
128.7000;0.1522;3.9582;
129.0000;0.1538;3.9556;
129.3000;0.1514;3.9479;
129.6000;0.1538;3.9659;
129.9000;0.1522;3.9633;
130.2000;0.1506;3.9582;
130.5000;0.1579;3.9761;
130.8000;0.1530;3.9530;
131.1000;0.1530;3.9530;
131.4000;0.1538;3.9582;
131.7000;0.1595;3.9787;
132.0000;0.1530;3.9659;
132.3000;0.1530;3.9736;
132.6000;0.1530;3.9684;
132.9000;0.1555;3.9710;
133.2000;0.1538;3.9659;
133.5000;0.1530;3.9582;
133.8000;0.1498;3.9453;
134.1000;0.1530;3.9505;
134.4000;0.1538;3.9530;
134.7000;0.1530;3.9479;
135.0000;0.1530;3.9530;
135.3000;0.1522;3.9582;
135.6000;0.1522;3.9530;
135.9000;0.1538;3.9582;
136.2000;0.1530;3.9607;
136.5000;0.1547;3.9659;
136.8000;0.1571;3.9736;
137.1000;0.1522;3.9607;
137.4000;0.1530;3.9710;
137.7000;0.1538;3.9710;
138.0000;0.1538;3.9710;
138.3000;0.1530;3.9582;
138.6000;0.1490;3.9402;
138.9000;0.1547;3.9530;
139.2000;0.1530;3.9530;
139.5000;0.1538;3.9556;
139.8000;0.1530;3.9633;
140.1000;0.1547;3.9710;
140.4000;0.1538;3.9710;
140.7000;0.1498;3.9582;
141.0000;0.1538;3.9710;
141.3000;0.1530;3.9787;
141.6000;0.1555;3.9787;
141.9000;0.1522;3.9761;
142.2000;0.1416;3.9479;
142.5000;0.1490;3.9710;
142.8000;0.1530;3.9787;
143.1000;0.1538;3.9736;
143.4000;0.1563;3.9864;
143.7000;0.1465;3.9633;
144.0000;0.1506;3.9710;
144.3000;0.1547;3.9838;
144.6000;0.1547;3.9710;
144.9000;0.1538;3.9736;
145.2000;0.1530;3.9838;
145.5000;0.1514;3.9838;
145.8000;0.1547;3.9838;
146.1000;0.1522;3.9710;
146.4000;0.1530;3.9684;
146.7000;0.1530;3.9582;
147.0000;0.1563;3.9659;
147.3000;0.1530;3.9710;
147.6000;0.1481;3.9479;
147.9000;0.1538;3.9633;
148.2000;0.1522;3.9556;
148.5000;0.1538;3.9505;
148.8000;0.1530;3.9530;
149.1000;0.1530;3.9505;
149.4000;0.1555;3.9505;
149.7000;0.1547;3.9479;
150.0000;0.1538;3.9479;
150.3000;0.1530;3.9530;
150.6000;0.1571;3.9530;
150.9000;0.1530;3.9428;
151.2000;0.1538;3.9479;
151.5000;0.1636;3.9787;
151.8000;0.1538;3.9402;
152.1000;0.1571;3.9505;
152.4000;0.1522;3.9479;
152.7000;0.1547;3.9505;
153.0000;0.1579;3.9582;
153.3000;0.1563;3.9633;
153.6000;0.1514;3.9453;
153.9000;0.1547;3.9479;
154.2000;0.1522;3.9505;
154.5000;0.1538;3.9633;
154.8000;0.1530;3.9607;
155.1000;0.1547;3.9582;
155.4000;0.1530;3.9505;
155.7000;0.1538;3.9530;
156.0000;0.1530;3.9453;
156.3000;0.1538;3.9479;
156.6000;0.1538;3.9479;
156.9000;0.1522;3.9530;
157.2000;0.1538;3.9556;
157.5000;0.1538;3.9530;
157.8000;0.1538;3.9530;
158.1000;0.1547;3.9633;
158.4000;0.1612;3.9890;
158.7000;0.1538;3.9633;
159.0000;0.1522;3.9607;
159.3000;0.1522;3.9453;
159.6000;0.1579;3.9684;
159.9000;0.1547;3.9659;
160.2000;0.1538;3.9505;
160.5000;0.1490;3.9351;
160.8000;0.1547;3.9607;
161.1000;0.1538;3.9530;
161.4000;0.1547;3.9556;
161.7000;0.1538;3.9582;
162.0000;0.1555;3.9633;
162.3000;0.1538;3.9582;
162.6000;0.1587;3.9710;
162.9000;0.1522;3.9556;
163.2000;0.1547;3.9710;
163.5000;0.1522;3.9607;
163.8000;0.1547;3.9556;
164.1000;0.1538;3.9530;
164.4000;0.1571;3.9659;
164.7000;0.1547;3.9684;
165.0000;0.1498;3.9582;
165.3000;0.1522;3.9710;
165.6000;0.1547;3.9710;
165.9000;0.1538;3.9736;
166.2000;0.1547;3.9684;
166.5000;0.1530;3.9607;
166.8000;0.1530;3.9633;
167.1000;0.1530;3.9582;
167.4000;0.1522;3.9659;
167.7000;0.1530;3.9607;
168.0000;0.1571;3.9736;
168.3000;0.1538;3.9633;
168.6000;0.1555;3.9659;
168.9000;0.1490;3.9556;
169.2000;0.1555;3.9736;
169.5000;0.1547;3.9530;
169.8000;0.1547;3.9607;
170.1000;0.1538;3.9633;
170.4000;0.1481;3.9351;
170.7000;0.1481;3.9351;
171.0000;0.1538;3.9556;
171.3000;0.1644;3.9941;
171.6000;0.1547;3.9607;
171.9000;0.1522;3.9556;
172.2000;0.1530;3.9556;
172.5000;0.1555;3.9659;
172.8000;0.1538;3.9582;
173.1000;0.1538;3.9582;
173.4000;0.1547;3.9633;
173.7000;0.1563;3.9659;
174.0000;0.1514;3.9428;
174.3000;0.1538;3.9607;
174.6000;0.1522;3.9607;
174.9000;0.1530;3.9607;
175.2000;0.1530;3.9607;
175.5000;0.1530;3.9556;
175.8000;0.1669;3.9992;
176.1000;0.1555;3.9710;
176.4000;0.1563;3.9787;
176.7000;0.1465;3.9505;
177.0000;0.1538;3.9684;
177.3000;0.1530;3.9736;
177.6000;0.1547;3.9710;
177.9000;0.1538;3.9659;
178.2000;0.1538;3.9607;
178.5000;0.1547;3.9633;
178.8000;0.1547;3.9607;
179.1000;0.1522;3.9530;
179.4000;0.1433;3.9274;
179.7000;0.1530;3.9505;
180.0000;0.1530;3.9556;
180.3000;0.1547;3.9607;
180.6000;0.1530;3.9505;
180.9000;0.1530;3.9530;
181.2000;0.1530;3.9556;
181.5000;0.1530;3.9659;
181.8000;0.1506;3.9659;
182.1000;0.1530;3.9710;
182.4000;0.1530;3.9710;
182.7000;0.1522;3.9607;
183.0000;0.1522;3.9582;
183.3000;0.1530;3.9633;
183.6000;0.1538;3.9607;
183.9000;0.1530;3.9556;
184.2000;0.1530;3.9530;
184.5000;0.1547;3.9582;
184.8000;0.1514;3.9556;
185.1000;0.1547;3.9684;
185.4000;0.1538;3.9684;
185.7000;0.1490;3.9582;
186.0000;0.1522;3.9710;
186.3000;0.1498;3.9659;
186.6000;0.1530;3.9684;
186.9000;0.1530;3.9684;
187.2000;0.1538;3.9633;
187.5000;0.1555;3.9684;
187.8000;0.1538;3.9633;
188.1000;0.1538;3.9633;
188.4000;0.1514;3.9556;
188.7000;0.1547;3.9582;
189.0000;0.1563;3.9505;
189.3000;0.1563;3.9505;
189.6000;0.1547;3.9428;
189.9000;0.1587;3.9556;
190.2000;0.1522;3.9428;
190.5000;0.1538;3.9530;
190.8000;0.1538;3.9633;
191.1000;0.1644;3.9890;
191.4000;0.1514;3.9582;
191.7000;0.1604;3.9736;
192.0000;0.1530;3.9607;
192.3000;0.1587;3.9710;
192.6000;0.1522;3.9505;
192.9000;0.1555;3.9633;
193.2000;0.1563;3.9684;
193.5000;0.1538;3.9633;
193.8000;0.1408;3.9197;
194.1000;0.1547;3.9633;
194.4000;0.1563;3.9684;
194.7000;0.1522;3.9710;
195.0000;0.1473;3.9582;
195.3000;0.1538;3.9736;
195.6000;0.1538;3.9684;
195.9000;0.1514;3.9556;
196.2000;0.1481;3.9377;
196.5000;0.1538;3.9582;
196.8000;0.1547;3.9607;
197.1000;0.1530;3.9582;
197.4000;0.1481;3.9479;
197.7000;0.1538;3.9556;
198.0000;0.1555;3.9684;
198.3000;0.1555;3.9838;
198.6000;0.1612;3.9967;
198.9000;0.1563;3.9761;
199.2000;0.1555;3.9813;
199.5000;0.1522;3.9736;
199.8000;0.1481;3.9633;
200.1000;0.1538;3.9736;
200.4000;0.1522;3.9710;
200.7000;0.1595;3.9915;
201.0000;0.1555;3.9787;
201.3000;0.1522;3.9787;
201.6000;0.1555;3.9787;
201.9000;0.1555;3.9736;
202.2000;0.1538;3.9736;
202.5000;0.1538;3.9684;
202.8000;0.1604;3.9967;
203.1000;0.1538;3.9761;
203.4000;0.1547;3.9787;
203.7000;0.1522;3.9684;
204.0000;0.1547;3.9710;
204.3000;0.1522;3.9710;
204.6000;0.1530;3.9761;
204.9000;0.1538;3.9710;
205.2000;0.1522;3.9787;
205.5000;0.1514;3.9736;
205.8000;0.1538;3.9736;
206.1000;0.1530;3.9684;
206.4000;0.1547;3.9710;
206.7000;0.1530;3.9659;
207.0000;0.1530;3.9659;
207.3000;0.1530;3.9607;
207.6000;0.1514;3.9530;
207.9000;0.1530;3.9556;
208.2000;0.1547;3.9607;
208.5000;0.1604;3.9761;
208.8000;0.1530;3.9505;
209.1000;0.1514;3.9453;
209.4000;0.1538;3.9479;
209.7000;0.1563;3.9607;
210.0000;0.1522;3.9556;
210.3000;0.1661;3.9941;
210.6000;0.1555;3.9607;
210.9000;0.1530;3.9582;
211.2000;0.1530;3.9582;
211.5000;0.1514;3.9582;
211.8000;0.1547;3.9659;
212.1000;0.1530;3.9633;
212.4000;0.1555;3.9659;
212.7000;0.1506;3.9556;
213.0000;0.1522;3.9710;
213.3000;0.1538;3.9813;
213.6000;0.1522;3.9813;
213.9000;0.1538;3.9838;
214.2000;0.1490;3.9761;
214.5000;0.1563;3.9967;
214.8000;0.1522;3.9787;
215.1000;0.1522;3.9684;
215.4000;0.1538;3.9761;
215.7000;0.1563;3.9813;
216.0000;0.1547;3.9684;
216.3000;0.1522;3.9607;
216.6000;0.1555;3.9684;
216.9000;0.1636;3.9890;
217.2000;0.1547;3.9659;
217.5000;0.1547;3.9710;
217.8000;0.1530;3.9684;
218.1000;0.1514;3.9684;
218.4000;0.1538;3.9710;
218.7000;0.1604;3.9787;
219.0000;0.1522;3.9607;
219.3000;0.1514;3.9659;
219.6000;0.1538;3.9736;
219.9000;0.1522;3.9659;
220.2000;0.1530;3.9684;
220.5000;0.1538;3.9582;
220.8000;0.1538;3.9582;
221.1000;0.1555;3.9607;
221.4000;0.1547;3.9633;
221.7000;0.1514;3.9530;
222.0000;0.1538;3.9607;
222.3000;0.1522;3.9607;
222.6000;0.1555;3.9684;
222.9000;0.1571;3.9710;
223.2000;0.1538;3.9659;
223.5000;0.1538;3.9710;
223.8000;0.1506;3.9530;
224.1000;0.1563;3.9761;
224.4000;0.1555;3.9710;
224.7000;0.1547;3.9684;
225.0000;0.1547;3.9659;
225.3000;0.1538;3.9582;
225.6000;0.1538;3.9633;
225.9000;0.1530;3.9633;
226.2000;0.1530;3.9633;
226.5000;0.1555;3.9684;
226.8000;0.1530;3.9633;
227.1000;0.1571;3.9659;
227.4000;0.1498;3.9453;
227.7000;0.1547;3.9607;
228.0000;0.1563;3.9582;
228.3000;0.1555;3.9582;
228.6000;0.1547;3.9633;
228.9000;0.1538;3.9633;
229.2000;0.1547;3.9582;
229.5000;0.1628;3.9813;
229.8000;0.1547;3.9556;
230.1000;0.1547;3.9556;
230.4000;0.1538;3.9582;
230.7000;0.1522;3.9530;
231.0000;0.1547;3.9530;
231.3000;0.1522;3.9505;
231.6000;0.1612;3.9761;
231.9000;0.1547;3.9607;
232.2000;0.1530;3.9582;
232.5000;0.1547;3.9659;
232.8000;0.1538;3.9659;
233.1000;0.1547;3.9582;
233.4000;0.1538;3.9633;
233.7000;0.1514;3.9582;
234.0000;0.1530;3.9607;
234.3000;0.1514;3.9607;
234.6000;0.1547;3.9659;
234.9000;0.1522;3.9556;
235.2000;0.1530;3.9684;
235.5000;0.1522;3.9659;
235.8000;0.1530;3.9736;
236.1000;0.1530;3.9864;
236.4000;0.1473;3.9761;
236.7000;0.1587;4.0018;
237.0000;0.1555;3.9890;
237.3000;0.1530;3.9761;
237.6000;0.1538;3.9684;
237.9000;0.1522;3.9633;
238.2000;0.1514;3.9556;
238.5000;0.1538;3.9633;
238.8000;0.1514;3.9556;
239.1000;0.1547;3.9582;
239.4000;0.1538;3.9633;
239.7000;0.1620;3.9890;
240.0000;0.1538;3.9710;
240.3000;0.1530;3.9684;
240.6000;0.1522;3.9659;
240.9000;0.1538;3.9659;
241.2000;0.1530;3.9659;
241.5000;0.1530;3.9659;
241.8000;0.1490;3.9479;
242.1000;0.1530;3.9736;
242.4000;0.1538;3.9710;
242.7000;0.1530;3.9761;
243.0000;0.1555;3.9838;
243.3000;0.1522;3.9813;
243.6000;0.1522;3.9813;
243.9000;0.1506;3.9813;
244.2000;0.1538;3.9915;
244.5000;0.1514;3.9890;
244.8000;0.1538;3.9915;
245.1000;0.1522;3.9838;
245.4000;0.1547;3.9864;
245.7000;0.1547;3.9813;
246.0000;0.1433;3.9582;
246.3000;0.1530;3.9992;
246.6000;0.1457;3.9736;
246.9000;0.1547;3.9992;
247.2000;0.1522;3.9915;
247.5000;0.1522;3.9864;
247.8000;0.1473;3.9787;
248.1000;0.1522;3.9890;
248.4000;0.1522;3.9890;
248.7000;0.1530;3.9838;
249.0000;0.1547;3.9838;
249.3000;0.1530;3.9838;
249.6000;0.1522;3.9864;
249.9000;0.1547;3.9890;
250.2000;0.1522;3.9838;
250.5000;0.1506;3.9864;
250.8000;0.1538;3.9787;
251.1000;0.1530;3.9684;
251.4000;0.1514;3.9659;
251.7000;0.1530;3.9633;
252.0000;0.1538;3.9684;
252.3000;0.1538;3.9659;
252.6000;0.1530;3.9556;
252.9000;0.1538;3.9684;
253.2000;0.1506;3.9633;
253.5000;0.1530;3.9659;
253.8000;0.1547;3.9787;
254.1000;0.1506;3.9710;
254.4000;0.1522;3.9684;
254.7000;0.1538;3.9736;
255.0000;0.1530;3.9736;
255.3000;0.1522;3.9659;
255.6000;0.1628;4.0018;
255.9000;0.1530;3.9710;
256.2000;0.1530;3.9607;
256.5000;0.1514;3.9505;
256.8000;0.1522;3.9607;
257.1000;0.1530;3.9633;
257.4000;0.1530;3.9684;
257.7000;0.1530;3.9684;
258.0000;0.1547;3.9659;
258.3000;0.1595;3.9864;
258.6000;0.1555;3.9710;
258.9000;0.1538;3.9659;
259.2000;0.1538;3.9607;
259.5000;0.1587;3.9890;
259.8000;0.1538;3.9710;
260.1000;0.1538;3.9710;
260.4000;0.1530;3.9736;
260.7000;0.1530;3.9710;
261.0000;0.1547;3.9761;
261.3000;0.1538;3.9787;
261.6000;0.1530;3.9787;
261.9000;0.1522;3.9813;
262.2000;0.1547;3.9890;
262.5000;0.1587;3.9967;
262.8000;0.1547;3.9864;
263.1000;0.1538;3.9838;
263.4000;0.1538;3.9838;
263.7000;0.1547;3.9915;
264.0000;0.1555;3.9967;
264.3000;0.1595;3.9992;
264.6000;0.1555;3.9864;
264.9000;0.1547;3.9864;
265.2000;0.1538;3.9813;
265.5000;0.1538;3.9813;
265.8000;0.1530;3.9915;
266.1000;0.1538;3.9941;
266.4000;0.1490;3.9838;
266.7000;0.1522;3.9967;
267.0000;0.1514;3.9967;
267.3000;0.1538;4.0018;
267.6000;0.1538;4.0069;
267.9000;0.1530;4.0120;
268.2000;0.1538;4.0095;
268.5000;0.1538;4.0095;
268.8000;0.1547;4.0043;
269.1000;0.1555;4.0069;
269.4000;0.1530;3.9941;
269.7000;0.1547;3.9941;
270.0000;0.1522;3.9941;
270.3000;0.1547;3.9941;
270.6000;0.1538;3.9813;
270.9000;0.1547;3.9787;
271.2000;0.1555;3.9838;
271.5000;0.1563;3.9761;
271.8000;0.1522;3.9659;
272.1000;0.1538;3.9710;
272.4000;0.1522;3.9684;
272.7000;0.1538;3.9659;
273.0000;0.1547;3.9684;
273.3000;0.1530;3.9633;
273.6000;0.1587;3.9659;
273.9000;0.1547;3.9710;
274.2000;0.1604;3.9890;
274.5000;0.1538;3.9684;
274.8000;0.1547;3.9633;
275.1000;0.1538;3.9607;
275.4000;0.1538;3.9684;
275.7000;0.1530;3.9607;
276.0000;0.1530;3.9633;
276.3000;0.1547;3.9684;
276.6000;0.1522;3.9710;
276.9000;0.1538;3.9736;
277.2000;0.1555;3.9838;
277.5000;0.1522;3.9736;
277.8000;0.1571;3.9864;
278.1000;0.1514;3.9761;
278.4000;0.1522;3.9736;
278.7000;0.1522;3.9813;
279.0000;0.1538;3.9736;
279.3000;0.1538;3.9787;
279.6000;0.1498;3.9684;
279.9000;0.1522;3.9813;
280.2000;0.1522;3.9813;
280.5000;0.1538;3.9838;
280.8000;0.1522;3.9787;
281.1000;0.1547;3.9761;
281.4000;0.1538;3.9761;
281.7000;0.1547;3.9838;
282.0000;0.1538;3.9761;
282.3000;0.1530;3.9710;
282.6000;0.1522;3.9761;
282.9000;0.1538;3.9864;
283.2000;0.1547;3.9838;
283.5000;0.1522;3.9838;
283.8000;0.1530;3.9813;
284.1000;0.1538;3.9838;
284.4000;0.1547;3.9915;
284.7000;0.1547;3.9915;
285.0000;0.1538;3.9941;
285.3000;0.1547;4.0018;
285.6000;0.1555;3.9992;
285.9000;0.1538;3.9967;
286.2000;0.1514;3.9915;
286.5000;0.1555;3.9941;
286.8000;0.1530;3.9838;
287.1000;0.1547;3.9915;
287.4000;0.1547;3.9890;
287.7000;0.1522;3.9864;
288.0000;0.1481;3.9607;
288.3000;0.1408;3.9479;
288.6000;0.1522;3.9813;
288.9000;0.1530;3.9787;
289.2000;0.1522;3.9761;
289.5000;0.1530;3.9736;
289.8000;0.1530;3.9838;
290.1000;0.1530;3.9787;
290.4000;0.1555;3.9890;
290.7000;0.1555;3.9890;
291.0000;0.1538;3.9838;
291.3000;0.1514;3.9684;
291.6000;0.1587;3.9941;
291.9000;0.1530;3.9761;
292.2000;0.1612;3.9941;
292.5000;0.1628;3.9890;
292.8000;0.1628;3.9941;
293.1000;0.1538;3.9710;
293.4000;0.1669;4.0043;
293.7000;0.1538;3.9684;
294.0000;0.1555;3.9736;
294.3000;0.1547;3.9787;
294.6000;0.1538;3.9659;
294.9000;0.1538;3.9659;
295.2000;0.1612;3.9838;
295.5000;0.1538;3.9710;
295.8000;0.1441;3.9453;
296.1000;0.1506;3.9659;
296.4000;0.1563;3.9838;
296.7000;0.1547;3.9710;
297.0000;0.1530;3.9710;
297.3000;0.1530;3.9736;
297.6000;0.1514;3.9710;
297.9000;0.1547;3.9890;
298.2000;0.1425;3.9556;
298.5000;0.1563;3.9992;
298.8000;0.1587;3.9992;
299.1000;0.1522;3.9761;
299.4000;0.1547;3.9813;
299.7000;0.1498;3.9787;
300.0000;0.1514;3.9813;
300.3000;0.1538;3.9761;
300.6000;0.1538;3.9787;
300.9000;0.1547;3.9838;
301.2000;0.1563;3.9890;
301.5000;0.1530;3.9838;
301.8000;0.1555;3.9941;
302.1000;0.1547;3.9890;
302.4000;0.1555;3.9915;
302.7000;0.1490;3.9761;
303.0000;0.1636;4.0197;
303.3000;0.1538;4.0018;
303.6000;0.1538;3.9967;
303.9000;0.1555;4.0069;
304.2000;0.1498;3.9992;
304.5000;0.1538;4.0095;
304.8000;0.1514;4.0095;
305.1000;0.1522;4.0120;
305.4000;0.1555;4.0172;
305.7000;0.1530;4.0018;
306.0000;0.1433;3.9787;
306.3000;0.1555;3.9992;
306.6000;0.1530;3.9890;
306.9000;0.1555;4.0018;
307.2000;0.1538;3.9890;
307.5000;0.1530;3.9941;
307.8000;0.1449;3.9736;
308.1000;0.1571;4.0172;
308.4000;0.1669;4.0454;
308.7000;0.1547;4.0018;
309.0000;0.1620;4.0197;
309.3000;0.1457;3.9761;
309.6000;0.1457;3.9813;
309.9000;0.1555;4.0095;
310.2000;0.1547;4.0069;
310.5000;0.1530;4.0172;
310.8000;0.1498;4.0018;
311.1000;0.1547;4.0172;
311.4000;0.1441;3.9813;
311.7000;0.1563;4.0069;
312.0000;0.1547;3.9992;
312.3000;0.1555;3.9941;
312.6000;0.1547;3.9967;
312.9000;0.1547;3.9967;
313.2000;0.1538;3.9915;
313.5000;0.1538;3.9890;
313.8000;0.1538;3.9787;
314.1000;0.1547;3.9915;
314.4000;0.1490;3.9659;
314.7000;0.1538;3.9813;
315.0000;0.1530;3.9864;
315.3000;0.1522;3.9864;
315.6000;0.1457;3.9530;
315.9000;0.1547;3.9838;
316.2000;0.1498;3.9813;
316.5000;0.1612;4.0069;
316.8000;0.1571;3.9864;
317.1000;0.1522;3.9890;
317.4000;0.1555;3.9992;
317.7000;0.1587;4.0018;
318.0000;0.1547;3.9890;
318.3000;0.1506;3.9813;
318.6000;0.1547;3.9864;
318.9000;0.1547;3.9813;
319.2000;0.1514;3.9813;
319.5000;0.1490;3.9684;
319.8000;0.1506;3.9710;
320.1000;0.1538;3.9838;
320.4000;0.1514;3.9736;
320.7000;0.1498;3.9761;
321.0000;0.1522;3.9813;
321.3000;0.1530;3.9838;
321.6000;0.1522;3.9838;
321.9000;0.1547;3.9813;
322.2000;0.1506;3.9659;
322.5000;0.1530;3.9684;
322.8000;0.1538;3.9787;
323.1000;0.1530;3.9787;
323.4000;0.1530;3.9864;
323.7000;0.1514;3.9838;
324.0000;0.1530;3.9838;
324.3000;0.1530;3.9941;
324.6000;0.1530;3.9813;
324.9000;0.1530;3.9761;
325.2000;0.1522;3.9761;
325.5000;0.1530;3.9813;
325.8000;0.1530;3.9787;
326.1000;0.1530;3.9813;
326.4000;0.1547;3.9864;
326.7000;0.1538;3.9761;
327.0000;0.1425;3.9377;
327.3000;0.1538;3.9684;
327.6000;0.1522;3.9633;
327.9000;0.1514;3.9684;
328.2000;0.1530;3.9736;
328.5000;0.1514;3.9736;
328.8000;0.1522;3.9736;
329.1000;0.1538;3.9787;
329.4000;0.1547;3.9761;
329.7000;0.1547;3.9633;
330.0000;0.1547;3.9710;
330.3000;0.1555;3.9761;
330.6000;0.1547;3.9787;
330.9000;0.1538;3.9787;
331.2000;0.1514;3.9864;
331.5000;0.1571;4.0069;
331.8000;0.1514;3.9915;
332.1000;0.1522;3.9941;
332.4000;0.1571;3.9992;
332.7000;0.1563;3.9967;
333.0000;0.1506;3.9864;
333.3000;0.1530;3.9890;
333.6000;0.1457;3.9736;
333.9000;0.1555;3.9967;
334.2000;0.1555;3.9992;
334.5000;0.1587;4.0197;
334.8000;0.1530;3.9992;
335.1000;0.1538;4.0069;
335.4000;0.1547;4.0095;
335.7000;0.1498;3.9941;
336.0000;0.1538;4.0095;
336.3000;0.1538;4.0018;
336.6000;0.1547;3.9915;
336.9000;0.1538;4.0018;
337.2000;0.1571;4.0095;
337.5000;0.1530;3.9890;
337.8000;0.1522;3.9915;
338.1000;0.1563;4.0043;
338.4000;0.1530;3.9813;
338.7000;0.1579;3.9967;
339.0000;0.1547;3.9838;
339.3000;0.1490;3.9761;
339.6000;0.1530;3.9915;
339.9000;0.1530;3.9864;
340.2000;0.1538;3.9915;
340.5000;0.1416;3.9607;
340.8000;0.1547;3.9890;
341.1000;0.1522;3.9864;
341.4000;0.1628;4.0249;
341.7000;0.1547;3.9890;
342.0000;0.1530;3.9761;
342.3000;0.1522;3.9736;
342.6000;0.1538;3.9838;
342.9000;0.1547;3.9941;
343.2000;0.1555;3.9890;
343.5000;0.1555;3.9787;
343.8000;0.1555;3.9864;
344.1000;0.1571;3.9992;
344.4000;0.1522;3.9890;
344.7000;0.1522;3.9915;
345.0000;0.1538;3.9992;
345.3000;0.1506;3.9864;
345.6000;0.1530;3.9941;
345.9000;0.1530;3.9915;
346.2000;0.1514;3.9838;
346.5000;0.1457;3.9761;
346.8000;0.1530;3.9890;
347.1000;0.1538;3.9890;
347.4000;0.1547;3.9813;
347.7000;0.1530;3.9761;
348.0000;0.1547;3.9710;
348.3000;0.1563;3.9710;
348.6000;0.1522;3.9582;
348.9000;0.1522;3.9684;
349.2000;0.1514;3.9684;
349.5000;0.1538;3.9736;
349.8000;0.1530;3.9761;
350.1000;0.1538;3.9736;
350.4000;0.1514;3.9710;
350.7000;0.1538;3.9761;
351.0000;0.1538;3.9813;
351.3000;0.1547;3.9864;
351.6000;0.1530;3.9787;
351.9000;0.1538;3.9864;
352.2000;0.1563;3.9941;
352.5000;0.1571;4.0043;
352.8000;0.1555;3.9941;
353.1000;0.1547;3.9967;
353.4000;0.1530;3.9992;
353.7000;0.1490;3.9941;
354.0000;0.1514;3.9967;
354.3000;0.1530;3.9967;
354.6000;0.1522;3.9915;
354.9000;0.1538;3.9967;
355.2000;0.1547;3.9967;
355.5000;0.1522;3.9838;
355.8000;0.1506;3.9710;
356.1000;0.1530;3.9864;
356.4000;0.1538;3.9890;
356.7000;0.1547;3.9992;
357.0000;0.1522;3.9890;
357.3000;0.1481;3.9761;
357.6000;0.1538;3.9915;
357.9000;0.1538;3.9864;
358.2000;0.1555;3.9838;
358.5000;0.1571;3.9890;
358.8000;0.1498;3.9684;
359.1000;0.1522;3.9864;
359.4000;0.1522;3.9915;
359.7000;0.1555;3.9890;
360.0000;0.1538;3.9761;
360.3000;0.1530;3.9787;
360.6000;0.1555;3.9813;
360.9000;0.1522;3.9787;
361.2000;0.1547;3.9864;
361.5000;0.1522;3.9787;
361.8000;0.1538;3.9710;
362.1000;0.1522;3.9633;
362.4000;0.1530;3.9530;
362.7000;0.1481;3.9453;
363.0000;0.1530;3.9633;
363.3000;0.1506;3.9582;
363.6000;0.1587;3.9684;
363.9000;0.1530;3.9607;
364.2000;0.1530;3.9556;
364.5000;0.1530;3.9505;
364.8000;0.1538;3.9633;
365.1000;0.1538;3.9659;
365.4000;0.1522;3.9505;
365.7000;0.1522;3.9530;
366.0000;0.1538;3.9530;
366.3000;0.1547;3.9556;
366.6000;0.1579;3.9710;
366.9000;0.1538;3.9582;
367.2000;0.1530;3.9479;
367.5000;0.1530;3.9377;
367.8000;0.1514;3.9351;
368.1000;0.1522;3.9351;
368.4000;0.1538;3.9325;
368.7000;0.1530;3.9402;
369.0000;0.1555;3.9479;
369.3000;0.1514;3.9453;
369.6000;0.1555;3.9607;
369.9000;0.1547;3.9607;
370.2000;0.1547;3.9684;
370.5000;0.1530;3.9659;
370.8000;0.1538;3.9582;
371.1000;0.1522;3.9530;
371.4000;0.1538;3.9479;
371.7000;0.1522;3.9428;
372.0000;0.1530;3.9453;
372.3000;0.1530;3.9505;
372.6000;0.1579;3.9684;
372.9000;0.1522;3.9479;
373.2000;0.1547;3.9607;
373.5000;0.1636;3.9787;
373.8000;0.1538;3.9530;
374.1000;0.1530;3.9453;
374.4000;0.1555;3.9530;
374.7000;0.1538;3.9505;
375.0000;0.1547;3.9607;
375.3000;0.1522;3.9633;
375.6000;0.1530;3.9505;
375.9000;0.1530;3.9659;
376.2000;0.1555;3.9710;
376.5000;0.1538;3.9710;
376.8000;0.1555;3.9736;
377.1000;0.1522;3.9659;
377.4000;0.1514;3.9710;
377.7000;0.1538;3.9761;
378.0000;0.1538;3.9736;
378.3000;0.1538;3.9684;
378.6000;0.1441;3.9351;
378.9000;0.1530;3.9582;
379.2000;0.1530;3.9556;
379.5000;0.1571;3.9710;
379.8000;0.1481;3.9428;
380.1000;0.1538;3.9556;
380.4000;0.1538;3.9607;
380.7000;0.1547;3.9607;
381.0000;0.1538;3.9633;
381.3000;0.1498;3.9582;
381.6000;0.1530;3.9659;
381.9000;0.1547;3.9633;
382.2000;0.1522;3.9505;
382.5000;0.1563;3.9761;
382.8000;0.1530;3.9607;
383.1000;0.1473;3.9402;
383.4000;0.1522;3.9582;
383.7000;0.1498;3.9479;
384.0000;0.1481;3.9428;
384.3000;0.1661;3.9967;
384.6000;0.1538;3.9633;
384.9000;0.1530;3.9582;
385.2000;0.1522;3.9607;
385.5000;0.1579;3.9684;
385.8000;0.1538;3.9607;
386.1000;0.1538;3.9479;
386.4000;0.1538;3.9453;
386.7000;0.1522;3.9428;
387.0000;0.1530;3.9402;
387.3000;0.1530;3.9325;
387.6000;0.1538;3.9377;
387.9000;0.1522;3.9248;
388.2000;0.1538;3.9248;
388.5000;0.1547;3.9377;
388.8000;0.1522;3.9351;
389.1000;0.1522;3.9428;
389.4000;0.1628;3.9710;
389.7000;0.1547;3.9453;
390.0000;0.1498;3.9248;
390.3000;0.1530;3.9402;
390.6000;0.1563;3.9582;
390.9000;0.1514;3.9402;
391.2000;0.1522;3.9479;
391.5000;0.1522;3.9505;
391.8000;0.1547;3.9556;
392.1000;0.1538;3.9530;
392.4000;0.1538;3.9505;
392.7000;0.1514;3.9479;
393.0000;0.1547;3.9556;
393.3000;0.1555;3.9710;
393.6000;0.1514;3.9633;
393.9000;0.1514;3.9582;
394.2000;0.1514;3.9479;
394.5000;0.1538;3.9556;
394.8000;0.1547;3.9659;
395.1000;0.1530;3.9607;
395.4000;0.1506;3.9582;
395.7000;0.1538;3.9659;
396.0000;0.1538;3.9633;
396.3000;0.1538;3.9582;
396.6000;0.1628;3.9890;
396.9000;0.1530;3.9633;
397.2000;0.1555;3.9684;
397.5000;0.1522;3.9607;
397.8000;0.1571;3.9684;
398.1000;0.1530;3.9633;
398.4000;0.1538;3.9659;
398.7000;0.1490;3.9505;
399.0000;0.1538;3.9659;
399.3000;0.1481;3.9377;
399.6000;0.1538;3.9659;
399.9000;0.1530;3.9684;
400.2000;0.1530;3.9684;
400.5000;0.1522;3.9659;
400.8000;0.1555;3.9710;
401.1000;0.1555;3.9684;
401.4000;0.1465;3.9428;
401.7000;0.1522;3.9582;
402.0000;0.1530;3.9582;
402.3000;0.1538;3.9556;
402.6000;0.1547;3.9582;
402.9000;0.1514;3.9453;
403.2000;0.1530;3.9453;
403.5000;0.1530;3.9402;
403.8000;0.1563;3.9479;
404.1000;0.1530;3.9300;
404.4000;0.1530;3.9377;
404.7000;0.1514;3.9377;
405.0000;0.1530;3.9325;
405.3000;0.1547;3.9300;
405.6000;0.1514;3.9197;
405.9000;0.1530;3.9248;
406.2000;0.1538;3.9300;
406.5000;0.1522;3.9248;
406.8000;0.1514;3.9325;
407.1000;0.1530;3.9351;
407.4000;0.1538;3.9377;
407.7000;0.1522;3.9351;
408.0000;0.1555;3.9428;
408.3000;0.1547;3.9402;
408.6000;0.1498;3.9300;
408.9000;0.1530;3.9377;
409.2000;0.1604;3.9607;
409.5000;0.1530;3.9453;
409.8000;0.1538;3.9479;
410.1000;0.1498;3.9325;
410.4000;0.1547;3.9505;
410.7000;0.1538;3.9582;
411.0000;0.1514;3.9530;
411.3000;0.1555;3.9633;
411.6000;0.1538;3.9530;
411.9000;0.1530;3.9505;
412.2000;0.1530;3.9402;
412.5000;0.1538;3.9479;
412.8000;0.1514;3.9428;
413.1000;0.1514;3.9377;
413.4000;0.1506;3.9351;
413.7000;0.1522;3.9505;
414.0000;0.1538;3.9530;
414.3000;0.1522;3.9582;
414.6000;0.1538;3.9607;
414.9000;0.1530;3.9505;
415.2000;0.1522;3.9556;
415.5000;0.1538;3.9633;
415.8000;0.1522;3.9556;
416.1000;0.1530;3.9582;
416.4000;0.1530;3.9607;
416.7000;0.1538;3.9684;
417.0000;0.1522;3.9659;
417.3000;0.1530;3.9633;
417.6000;0.1490;3.9530;
417.9000;0.1595;3.9761;
418.2000;0.1522;3.9556;
418.5000;0.1490;3.9428;
418.8000;0.1538;3.9530;
419.1000;0.1547;3.9505;
419.4000;0.1538;3.9556;
419.7000;0.1506;3.9428;
420.0000;0.1522;3.9607;
420.3000;0.1555;3.9761;
420.6000;0.1538;3.9710;
420.9000;0.1538;3.9710;
421.2000;0.1538;3.9761;
421.5000;0.1530;3.9710;
421.8000;0.1547;3.9736;
422.1000;0.1538;3.9659;
422.4000;0.1538;3.9633;
422.7000;0.1587;3.9761;
423.0000;0.1555;3.9736;
423.3000;0.1538;3.9659;
423.6000;0.1538;3.9633;
423.9000;0.1538;3.9607;
424.2000;0.1522;3.9556;
424.5000;0.1514;3.9556;
424.8000;0.1449;3.9377;
425.1000;0.1530;3.9530;
425.4000;0.1433;3.9274;
425.7000;0.1481;3.9479;
426.0000;0.1538;3.9659;
426.3000;0.1538;3.9684;
426.6000;0.1538;3.9736;
426.9000;0.1465;3.9479;
427.2000;0.1530;3.9710;
427.5000;0.1514;3.9684;
427.8000;0.1498;3.9659;
428.1000;0.1538;3.9813;
428.4000;0.1530;3.9813;
428.7000;0.1481;3.9710;
429.0000;0.1538;3.9813;
429.3000;0.1490;3.9787;
429.6000;0.1522;3.9761;
429.9000;0.1522;3.9684;
430.2000;0.1522;3.9684;
430.5000;0.1547;3.9736;
430.8000;0.1538;3.9684;
431.1000;0.1514;3.9710;
431.4000;0.1465;3.9556;
431.7000;0.1530;3.9684;
432.0000;0.1547;3.9710;
432.3000;0.1522;3.9633;
432.6000;0.1449;3.9377;
432.9000;0.1547;3.9710;
433.2000;0.1506;3.9556;
433.5000;0.1547;3.9710;
433.8000;0.1522;3.9633;
434.1000;0.1538;3.9582;
434.4000;0.1547;3.9607;
434.7000;0.1530;3.9556;
435.0000;0.1538;3.9556;
435.3000;0.1530;3.9582;
435.6000;0.1473;3.9453;
435.9000;0.1538;3.9633;
436.2000;0.1522;3.9582;
436.5000;0.1530;3.9633;
436.8000;0.1547;3.9659;
437.1000;0.1547;3.9659;
437.4000;0.1538;3.9582;
437.7000;0.1547;3.9659;
438.0000;0.1530;3.9736;
438.3000;0.1538;3.9761;
438.6000;0.1538;3.9838;
438.9000;0.1522;3.9787;
439.2000;0.1530;3.9787;
439.5000;0.1530;3.9787;
439.8000;0.1530;3.9710;
440.1000;0.1522;3.9684;
440.4000;0.1555;3.9761;
440.7000;0.1530;3.9761;
441.0000;0.1555;3.9864;
441.3000;0.1530;3.9813;
441.6000;0.1481;3.9761;
441.9000;0.1522;3.9813;
442.2000;0.1498;3.9761;
442.5000;0.1547;3.9890;
442.8000;0.1522;3.9813;
443.1000;0.1563;3.9915;
443.4000;0.1538;3.9787;
443.7000;0.1587;3.9992;
444.0000;0.1530;3.9813;
444.3000;0.1538;3.9838;
444.6000;0.1522;3.9864;
444.9000;0.1547;3.9941;
445.2000;0.1530;3.9890;
445.5000;0.1530;3.9890;
445.8000;0.1522;3.9813;
446.1000;0.1547;3.9967;
446.4000;0.1547;3.9890;
446.7000;0.1555;3.9941;
447.0000;0.1547;3.9813;
447.3000;0.1538;3.9838;
447.6000;0.1522;3.9890;
447.9000;0.1506;3.9838;
448.2000;0.1457;3.9710;
448.5000;0.1563;3.9890;
448.8000;0.1563;3.9890;
449.1000;0.1538;3.9838;
449.4000;0.1538;3.9761;
449.7000;0.1449;3.9453;
450.0000;0.1530;3.9736;
450.3000;0.1530;3.9736;
450.6000;0.1547;3.9736;
450.9000;0.1530;3.9659;
451.2000;0.1490;3.9530;
451.5000;0.1416;3.9325;
451.8000;0.1563;3.9736;
452.1000;0.1538;3.9659;
452.4000;0.1538;3.9710;
452.7000;0.1481;3.9556;
453.0000;0.1555;3.9787;
453.3000;0.1538;3.9710;
453.6000;0.1522;3.9684;
453.9000;0.1547;3.9864;
454.2000;0.1547;3.9838;
454.5000;0.1612;4.0018;
454.8000;0.1571;3.9838;
455.1000;0.1555;3.9710;
455.4000;0.1555;3.9736;
455.7000;0.1530;3.9684;
456.0000;0.1563;3.9736;
456.3000;0.1587;3.9813;
456.6000;0.1530;3.9684;
456.9000;0.1530;3.9710;
457.2000;0.1612;3.9941;
457.5000;0.1538;3.9633;
457.8000;0.1547;3.9607;
458.1000;0.1514;3.9607;
458.4000;0.1547;3.9633;
458.7000;0.1530;3.9607;
459.0000;0.1571;3.9761;
459.3000;0.1547;3.9710;
459.6000;0.1522;3.9607;
459.9000;0.1538;3.9633;
460.2000;0.1538;3.9710;
460.5000;0.1579;3.9736;
460.8000;0.1538;3.9582;
461.1000;0.1522;3.9505;
461.4000;0.1514;3.9479;
461.7000;0.1530;3.9479;
462.0000;0.1514;3.9530;
462.3000;0.1514;3.9582;
462.6000;0.1522;3.9684;
462.9000;0.1522;3.9684;
463.2000;0.1530;3.9607;
463.5000;0.1514;3.9530;
463.8000;0.1547;3.9684;
464.1000;0.1530;3.9607;
464.4000;0.1538;3.9710;
464.7000;0.1498;3.9556;
465.0000;0.1530;3.9633;
465.3000;0.1563;3.9684;
465.6000;0.1555;3.9582;
465.9000;0.1547;3.9556;
466.2000;0.1555;3.9556;
466.5000;0.1530;3.9505;
466.8000;0.1538;3.9479;
467.1000;0.1547;3.9530;
467.4000;0.1538;3.9556;
467.7000;0.1481;3.9428;
468.0000;0.1538;3.9530;
468.3000;0.1506;3.9505;
468.6000;0.1547;3.9582;
468.9000;0.1547;3.9530;
469.2000;0.1579;3.9582;
469.5000;0.1522;3.9453;
469.8000;0.1538;3.9633;
470.1000;0.1530;3.9633;
470.4000;0.1555;3.9710;
470.7000;0.1514;3.9659;
471.0000;0.1530;3.9607;
471.3000;0.1506;3.9530;
471.6000;0.1522;3.9479;
471.9000;0.1522;3.9479;
472.2000;0.1538;3.9505;
472.5000;0.1538;3.9505;
472.8000;0.1595;3.9710;
473.1000;0.1530;3.9582;
473.4000;0.1563;3.9761;
473.7000;0.1530;3.9633;
474.0000;0.1538;3.9684;
474.3000;0.1538;3.9736;
474.6000;0.1538;3.9736;
474.9000;0.1538;3.9659;
475.2000;0.1538;3.9633;
475.5000;0.1555;3.9684;
475.8000;0.1530;3.9736;
476.1000;0.1514;3.9710;
476.4000;0.1522;3.9736;
476.7000;0.1555;3.9813;
477.0000;0.1530;3.9813;
477.3000;0.1522;3.9710;
477.6000;0.1514;3.9633;
477.9000;0.1538;3.9710;
478.2000;0.1530;3.9761;
478.5000;0.1547;3.9761;
478.8000;0.1506;3.9659;
479.1000;0.1530;3.9736;
479.4000;0.1522;3.9736;
479.7000;0.1555;3.9787;
480.0000;0.1555;3.9864;
480.3000;0.1547;3.9813;
480.6000;0.1555;3.9787;
480.9000;0.1555;3.9813;
481.2000;0.1530;3.9787;
481.5000;0.1522;3.9838;
481.8000;0.1547;3.9915;
482.1000;0.1530;3.9761;
482.4000;0.1538;3.9787;
482.7000;0.1538;3.9736;
483.0000;0.1538;3.9633;
483.3000;0.1555;3.9684;
483.6000;0.1530;3.9582;
483.9000;0.1506;3.9556;
484.2000;0.1547;3.9659;
484.5000;0.1547;3.9607;
484.8000;0.1538;3.9607;
485.1000;0.1538;3.9607;
485.4000;0.1522;3.9556;
485.7000;0.1522;3.9684;
486.0000;0.1490;3.9556;
486.3000;0.1555;3.9684;
486.6000;0.1579;3.9787;
486.9000;0.1522;3.9607;
487.2000;0.1522;3.9659;
487.5000;0.1579;3.9838;
487.8000;0.1498;3.9659;
488.1000;0.1514;3.9710;
488.4000;0.1538;3.9838;
488.7000;0.1571;3.9941;
489.0000;0.1522;3.9813;
489.3000;0.1522;3.9813;
489.6000;0.1530;3.9813;
489.9000;0.1522;3.9684;
490.2000;0.1506;3.9633;
490.5000;0.1522;3.9684;
490.8000;0.1490;3.9582;
491.1000;0.1661;4.0043;
491.4000;0.1514;3.9607;
491.7000;0.1538;3.9710;
492.0000;0.1522;3.9761;
492.3000;0.1522;3.9736;
492.6000;0.1506;3.9761;
492.9000;0.1522;3.9813;
493.2000;0.1490;3.9710;
493.5000;0.1530;3.9838;
493.8000;0.1522;3.9736;
494.1000;0.1522;3.9710;
494.4000;0.1522;3.9684;
494.7000;0.1506;3.9607;
495.0000;0.1547;3.9710;
495.3000;0.1547;3.9659;
495.6000;0.1514;3.9556;
495.9000;0.1530;3.9633;
496.2000;0.1547;3.9684;
496.5000;0.1547;3.9659;
496.8000;0.1538;3.9761;
497.1000;0.1530;3.9813;
497.4000;0.1514;3.9787;
497.7000;0.1506;3.9659;
498.0000;0.1547;3.9761;
498.3000;0.1481;3.9530;
498.6000;0.1547;3.9736;
498.9000;0.1538;3.9659;
499.2000;0.1514;3.9607;
499.5000;0.1490;3.9505;
499.8000;0.1538;3.9710;
500.1000;0.1538;3.9633;
500.4000;0.1530;3.9684;
500.7000;0.1522;3.9684;
501.0000;0.1547;3.9813;
501.3000;0.1563;3.9864;
501.6000;0.1538;3.9684;
501.9000;0.1530;3.9659;
502.2000;0.1563;3.9736;
502.5000;0.1612;3.9941;
502.8000;0.1579;3.9864;
503.1000;0.1530;3.9710;
503.4000;0.1555;3.9761;
503.7000;0.1530;3.9736;
504.0000;0.1498;3.9607;
504.3000;0.1522;3.9710;
504.6000;0.1587;3.9890;
504.9000;0.1522;3.9684;
505.2000;0.1538;3.9633;
505.5000;0.1514;3.9530;
505.8000;0.1538;3.9530;
506.1000;0.1530;3.9479;
506.4000;0.1498;3.9402;
506.7000;0.1530;3.9505;
507.0000;0.1604;3.9659;
507.3000;0.1538;3.9453;
507.6000;0.1555;3.9428;
507.9000;0.1547;3.9428;
508.2000;0.1514;3.9377;
508.5000;0.1538;3.9428;
508.8000;0.1530;3.9479;
509.1000;0.1595;3.9736;
509.4000;0.1530;3.9479;
509.7000;0.1563;3.9710;
510.0000;0.1538;3.9633;
510.3000;0.1530;3.9556;
510.6000;0.1538;3.9607;
510.9000;0.1530;3.9556;
511.2000;0.1563;3.9582;
511.5000;0.1522;3.9556;
511.8000;0.1538;3.9582;
512.1000;0.1530;3.9530;
512.4000;0.1547;3.9530;
512.7000;0.1538;3.9453;
513.0000;0.1555;3.9453;
513.3000;0.1530;3.9377;
513.6000;0.1522;3.9377;
513.9000;0.1522;3.9402;
514.2000;0.1547;3.9530;
514.5000;0.1522;3.9556;
514.8000;0.1538;3.9582;
515.1000;0.1555;3.9659;
515.4000;0.1538;3.9607;
515.7000;0.1522;3.9530;
516.0000;0.1530;3.9556;
516.3000;0.1530;3.9505;
516.6000;0.1547;3.9556;
516.9000;0.1555;3.9607;
517.2000;0.1490;3.9428;
517.5000;0.1538;3.9505;
517.8000;0.1530;3.9530;
518.1000;0.1571;3.9582;
518.4000;0.1522;3.9505;
518.7000;0.1522;3.9505;
519.0000;0.1555;3.9530;
519.3000;0.1425;3.9248;
519.6000;0.1522;3.9505;
519.9000;0.1530;3.9710;
520.2000;0.1628;3.9992;
520.5000;0.1465;3.9530;
520.8000;0.1547;3.9659;
521.1000;0.1530;3.9684;
521.4000;0.1530;3.9659;
521.7000;0.1538;3.9710;
522.0000;0.1506;3.9556;
522.3000;0.1563;3.9710;
522.6000;0.1506;3.9556;
522.9000;0.1522;3.9556;
523.2000;0.1587;3.9787;
523.5000;0.1506;3.9659;
523.8000;0.1514;3.9710;
524.1000;0.1636;4.0069;
524.4000;0.1522;3.9710;
524.7000;0.1530;3.9761;
525.0000;0.1514;3.9659;
525.3000;0.1457;3.9505;
525.6000;0.1514;3.9633;
525.9000;0.1538;3.9684;
526.2000;0.1506;3.9633;
526.5000;0.1522;3.9736;
526.8000;0.1530;3.9787;
527.1000;0.1579;3.9967;
527.4000;0.1661;4.0197;
527.7000;0.1538;3.9864;
528.0000;0.1514;3.9813;
528.3000;0.1506;3.9787;
528.6000;0.1538;3.9890;
528.9000;0.1530;3.9787;
529.2000;0.1547;3.9787;
529.5000;0.1620;4.0069;
529.8000;0.1547;3.9864;
530.1000;0.1538;3.9864;
530.4000;0.1530;3.9761;
530.7000;0.1538;3.9838;
531.0000;0.1530;3.9838;
531.3000;0.1547;3.9787;
531.6000;0.1530;3.9787;
531.9000;0.1530;3.9813;
532.2000;0.1530;3.9787;
532.5000;0.1538;3.9813;
532.8000;0.1530;3.9710;
533.1000;0.1538;3.9736;
533.4000;0.1506;3.9633;
533.7000;0.1563;3.9787;
534.0000;0.1547;3.9684;
534.3000;0.1522;3.9530;
534.6000;0.1547;3.9607;
534.9000;0.1530;3.9556;
535.2000;0.1498;3.9479;
535.5000;0.1547;3.9684;
535.8000;0.1530;3.9633;
536.1000;0.1530;3.9556;
536.4000;0.1498;3.9479;
536.7000;0.1506;3.9556;
537.0000;0.1555;3.9582;
537.3000;0.1547;3.9659;
537.6000;0.1498;3.9530;
537.9000;0.1506;3.9582;
538.2000;0.1563;3.9761;
538.5000;0.1506;3.9582;
538.8000;0.1506;3.9607;
539.1000;0.1555;3.9710;
539.4000;0.1547;3.9684;
539.7000;0.1604;3.9890;
540.0000;0.1547;3.9736;
540.3000;0.1522;3.9684;
540.6000;0.1522;3.9736;
540.9000;0.1522;3.9838;
541.2000;0.1522;3.9787;
541.5000;0.1538;3.9684;
541.8000;0.1538;3.9684;
542.1000;0.1522;3.9633;
542.4000;0.1538;3.9710;
542.7000;0.1522;3.9736;
543.0000;0.1530;3.9684;
543.3000;0.1522;3.9633;
543.6000;0.1522;3.9556;
543.9000;0.1555;3.9607;
544.2000;0.1538;3.9479;
544.5000;0.1506;3.9479;
544.8000;0.1620;3.9736;
545.1000;0.1538;3.9607;
545.4000;0.1490;3.9582;
545.7000;0.1661;4.0043;
546.0000;0.1538;3.9710;
546.3000;0.1530;3.9761;
546.6000;0.1538;3.9838;
546.9000;0.1571;3.9890;
547.2000;0.1555;3.9813;
547.5000;0.1563;3.9787;
547.8000;0.1595;3.9890;
548.1000;0.1530;3.9710;
548.4000;0.1547;3.9736;
548.7000;0.1538;3.9607;
549.0000;0.1490;3.9479;
549.3000;0.1490;3.9479;
549.6000;0.1506;3.9607;
549.9000;0.1530;3.9684;
550.2000;0.1555;3.9813;
550.5000;0.1547;3.9813;
550.8000;0.1522;3.9736;
551.1000;0.1514;3.9684;
551.4000;0.1530;3.9787;
551.7000;0.1547;3.9761;
552.0000;0.1538;3.9736;
552.3000;0.1538;3.9787;
552.6000;0.1522;3.9736;
552.9000;0.1522;3.9710;
553.2000;0.1538;3.9761;
553.5000;0.1514;3.9813;
553.8000;0.1538;3.9915;
554.1000;0.1547;3.9890;
554.4000;0.1425;3.9582;
554.7000;0.1416;3.9582;
555.0000;0.1514;3.9992;
555.3000;0.1522;3.9992;
555.6000;0.1514;3.9813;
555.9000;0.1555;3.9941;
556.2000;0.1538;3.9890;
556.5000;0.1530;3.9838;
556.8000;0.1522;3.9787;
557.1000;0.1530;3.9761;
557.4000;0.1530;3.9838;
557.7000;0.1490;3.9736;
558.0000;0.1530;3.9864;
558.3000;0.1547;3.9941;
558.6000;0.1547;3.9890;
558.9000;0.1538;3.9838;
559.2000;0.1547;3.9890;
559.5000;0.1530;3.9915;
559.8000;0.1514;3.9992;
560.1000;0.1538;4.0095;
560.4000;0.1547;4.0146;
560.7000;0.1587;4.0223;
561.0000;0.1547;4.0146;
561.3000;0.1538;4.0120;
561.6000;0.1555;4.0223;
561.9000;0.1538;4.0197;
562.2000;0.1530;4.0172;
562.5000;0.1571;4.0249;
562.8000;0.1490;3.9992;
563.1000;0.1530;4.0018;
563.4000;0.1465;3.9838;
563.7000;0.1530;4.0018;
564.0000;0.1506;3.9992;
564.3000;0.1522;3.9941;
564.6000;0.1530;3.9941;
564.9000;0.1538;4.0043;
565.2000;0.1547;4.0120;
565.5000;0.1522;3.9992;
565.8000;0.1555;4.0043;
566.1000;0.1530;3.9967;
566.4000;0.1530;3.9941;
566.7000;0.1538;3.9941;
567.0000;0.1538;3.9915;
567.3000;0.1481;3.9761;
567.6000;0.1555;3.9941;
567.9000;0.1481;3.9710;
568.2000;0.1530;3.9813;
568.5000;0.1514;3.9736;
568.8000;0.1563;3.9915;
569.1000;0.1555;3.9838;
569.4000;0.1538;3.9838;
569.7000;0.1652;4.0223;
570.0000;0.1571;3.9992;
570.3000;0.1547;3.9915;
570.6000;0.1563;3.9941;
570.9000;0.1538;3.9838;
571.2000;0.1555;3.9890;
571.5000;0.1522;3.9813;
571.8000;0.1522;3.9787;
572.1000;0.1538;3.9864;
572.4000;0.1514;3.9761;
572.7000;0.1538;3.9736;
573.0000;0.1522;3.9710;
573.3000;0.1538;3.9890;
573.6000;0.1514;3.9813;
573.9000;0.1522;3.9787;
574.2000;0.1530;3.9864;
574.5000;0.1522;3.9967;
574.8000;0.1522;3.9941;
575.1000;0.1522;3.9890;
575.4000;0.1506;3.9864;
575.7000;0.1522;3.9864;
576.0000;0.1522;3.9864;
576.3000;0.1514;3.9890;
576.6000;0.1530;3.9864;
576.9000;0.1530;3.9890;
577.2000;0.1530;3.9941;
577.5000;0.1506;3.9838;
577.8000;0.1514;3.9864;
578.1000;0.1538;3.9864;
578.4000;0.1530;3.9967;
578.7000;0.1563;4.0120;
579.0000;0.1514;3.9941;
579.3000;0.1506;3.9890;
579.6000;0.1530;3.9967;
579.9000;0.1571;4.0069;
580.2000;0.1530;3.9992;
580.5000;0.1555;3.9941;
580.8000;0.1538;3.9915;
581.1000;0.1555;3.9915;
581.4000;0.1538;3.9813;
581.7000;0.1514;3.9761;
582.0000;0.1498;3.9710;
582.3000;0.1547;3.9761;
582.6000;0.1514;3.9659;
582.9000;0.1530;3.9710;
583.2000;0.1530;3.9684;
583.5000;0.1595;3.9941;
583.8000;0.1425;3.9556;
584.1000;0.1547;3.9838;
584.4000;0.1563;3.9941;
584.7000;0.1473;3.9736;
585.0000;0.1547;3.9890;
585.3000;0.1563;3.9992;
585.6000;0.1538;3.9915;
585.9000;0.1547;3.9967;
586.2000;0.1547;3.9890;
586.5000;0.1538;3.9890;
586.8000;0.1547;3.9915;
587.1000;0.1538;3.9864;
587.4000;0.1555;3.9967;
587.7000;0.1522;3.9838;
588.0000;0.1538;3.9941;
588.3000;0.1522;4.0018;
588.6000;0.1538;4.0120;
588.9000;0.1530;3.9992;
589.2000;0.1538;3.9864;
589.5000;0.1538;3.9813;
589.8000;0.1522;3.9710;
590.1000;0.1530;3.9659;
590.4000;0.1530;3.9659;
590.7000;0.1522;3.9684;
591.0000;0.1530;3.9684;
591.3000;0.1555;3.9684;
591.6000;0.1547;3.9607;
591.9000;0.1538;3.9607;
592.2000;0.1538;3.9633;
592.5000;0.1547;3.9761;
592.8000;0.1522;3.9736;
593.1000;0.1514;3.9761;
593.4000;0.1522;3.9813;
593.7000;0.1555;3.9787;
594.0000;0.1538;3.9838;
594.3000;0.1620;4.0120;
594.6000;0.1522;3.9967;
594.9000;0.1530;3.9915;
595.2000;0.1522;3.9941;
595.5000;0.1555;3.9967;
595.8000;0.1522;3.9864;
596.1000;0.1538;3.9941;
596.4000;0.1547;3.9941;
596.7000;0.1547;3.9941;
597.0000;0.1538;3.9890;
597.3000;0.1530;3.9890;
597.6000;0.1563;3.9941;
597.9000;0.1538;3.9915;
598.2000;0.1538;3.9992;
598.5000;0.1547;3.9967;
598.8000;0.1522;3.9890;
599.1000;0.1514;3.9864;
599.4000;0.1506;3.9915;
599.7000;0.1498;3.9838;
600.0000;0.1522;3.9813;
600.3000;0.1530;3.9864;
600.6000;0.1555;3.9890;
600.9000;0.1514;3.9633;
601.2000;0.1522;3.9556;
601.5000;0.1514;3.9479;
601.8000;0.1522;3.9428;
602.1000;0.1506;3.9146;
602.4000;0.1490;3.9017;
602.7000;0.1498;3.8966;
603.0000;0.1490;3.8889;
603.3000;0.1490;3.8761;
603.6000;0.1490;3.8710;
603.9000;0.1465;3.8658;
604.2000;0.1465;3.8607;
604.5000;0.1449;3.8504;
604.8000;0.1473;3.8556;
605.1000;0.1473;3.8530;
605.4000;0.1449;3.8453;
605.7000;0.1392;3.8248;
606.0000;0.1433;3.8325;
606.3000;0.1473;3.8427;
606.6000;0.1457;3.8376;
606.9000;0.1433;3.8325;
607.2000;0.1433;3.8273;
607.5000;0.1457;3.8299;
607.8000;0.1433;3.8222;
608.1000;0.1433;3.8145;
608.4000;0.1433;3.8273;
608.7000;0.1433;3.8248;
609.0000;0.1416;3.8145;
609.3000;0.1425;3.8171;
609.6000;0.1408;3.8145;
609.9000;0.1384;3.8120;
610.2000;0.1473;3.8402;
610.5000;0.1400;3.8120;
610.8000;0.1400;3.8197;
611.1000;0.1408;3.8222;
611.4000;0.1433;3.8248;
611.7000;0.1425;3.8145;
612.0000;0.1408;3.8094;
612.3000;0.1400;3.8120;
612.6000;0.1400;3.8068;
612.9000;0.1392;3.8068;
613.2000;0.1376;3.8017;
613.5000;0.1408;3.8120;
613.8000;0.1392;3.8094;
614.1000;0.1425;3.8171;
614.4000;0.1416;3.8197;
614.7000;0.1400;3.8145;
615.0000;0.1335;3.7966;
615.3000;0.1359;3.7991;
615.6000;0.1384;3.8120;
615.9000;0.1351;3.7991;
616.2000;0.1376;3.8120;
616.5000;0.1384;3.8068;
616.8000;0.1400;3.8094;
617.1000;0.1400;3.8222;
617.4000;0.1392;3.8171;
617.7000;0.1400;3.8222;
618.0000;0.1384;3.8248;
618.3000;0.1416;3.8325;
618.6000;0.1392;3.8299;
618.9000;0.1392;3.8325;
619.2000;0.1343;3.8222;
619.5000;0.1351;3.8248;
619.8000;0.1376;3.8299;
620.1000;0.1359;3.8222;
620.4000;0.1294;3.8017;
620.7000;0.1376;3.8171;
621.0000;0.1376;3.8197;
621.3000;0.1359;3.8171;
621.6000;0.1392;3.8273;
621.9000;0.1359;3.8094;
622.2000;0.1368;3.8094;
622.5000;0.1376;3.8043;
622.8000;0.1327;3.7889;
623.1000;0.1376;3.7966;
623.4000;0.1376;3.7914;
623.7000;0.1351;3.7889;
624.0000;0.1408;3.8120;
624.3000;0.1359;3.8017;
624.6000;0.1376;3.8017;
624.9000;0.1335;3.8017;
625.2000;0.1368;3.8145;
625.5000;0.1351;3.8068;
625.8000;0.1351;3.8120;
626.1000;0.1327;3.8145;
626.4000;0.1351;3.8017;
626.7000;0.1359;3.8017;
627.0000;0.1359;3.8068;
627.3000;0.1351;3.8043;
627.6000;0.1343;3.8017;
627.9000;0.1335;3.7914;
628.2000;0.1359;3.7991;
628.5000;0.1351;3.7966;
628.8000;0.1449;3.8222;
629.1000;0.1335;3.7914;
629.4000;0.1351;3.7966;
629.7000;0.1351;3.7940;
630.0000;0.1343;3.7991;
630.3000;0.1335;3.7991;
630.6000;0.1343;3.8017;
630.9000;0.1327;3.7966;
631.2000;0.1351;3.8094;
631.5000;0.1343;3.7991;
631.8000;0.1351;3.8145;
632.1000;0.1343;3.8145;
632.4000;0.1343;3.8120;
632.7000;0.1327;3.8094;
633.0000;0.1408;3.8350;
633.3000;0.1327;3.8120;
633.6000;0.1302;3.8068;
633.9000;0.1294;3.7966;
634.2000;0.1327;3.8017;
634.5000;0.1343;3.8043;
634.8000;0.1343;3.8120;
635.1000;0.1319;3.8068;
635.4000;0.1335;3.8068;
635.7000;0.1294;3.7940;
636.0000;0.1327;3.7991;
636.3000;0.1237;3.7683;
636.6000;0.1229;3.7658;
636.9000;0.1319;3.8043;
637.2000;0.1335;3.8145;
637.5000;0.1254;3.8017;
637.8000;0.1270;3.8094;
638.1000;0.1311;3.8068;
638.4000;0.1311;3.8043;
638.7000;0.1327;3.8145;
639.0000;0.1294;3.8068;
639.3000;0.1335;3.8222;
639.6000;0.1425;3.8504;
639.9000;0.1311;3.8197;
640.2000;0.1327;3.8248;
640.5000;0.1278;3.8094;
640.8000;0.1302;3.8120;
641.1000;0.1302;3.8171;
641.4000;0.1302;3.8120;
641.7000;0.1319;3.8120;
642.0000;0.1294;3.8094;
642.3000;0.1343;3.8197;
642.6000;0.1327;3.8145;
642.9000;0.1302;3.8043;
643.2000;0.1262;3.7966;
643.5000;0.1286;3.7966;
643.8000;0.1311;3.7991;
644.1000;0.1351;3.8145;
644.4000;0.1302;3.8043;
644.7000;0.1294;3.8068;
645.0000;0.1311;3.8017;
645.3000;0.1368;3.8197;
645.6000;0.1294;3.7966;
645.9000;0.1302;3.7966;
646.2000;0.1302;3.7940;
646.5000;0.1311;3.7940;
646.8000;0.1294;3.7940;
647.1000;0.1302;3.8017;
647.4000;0.1294;3.7991;
647.7000;0.1302;3.7966;
648.0000;0.1286;3.7966;
648.3000;0.1254;3.7889;
648.6000;0.1278;3.7914;
648.9000;0.1311;3.7991;
649.2000;0.1270;3.7966;
649.5000;0.1286;3.7940;
649.8000;0.1311;3.8094;
650.1000;0.1270;3.7991;
650.4000;0.1302;3.8120;
650.7000;0.1302;3.8094;
651.0000;0.1343;3.8171;
651.3000;0.1302;3.8094;
651.6000;0.1302;3.8068;
651.9000;0.1286;3.8120;
652.2000;0.1278;3.8197;
652.5000;0.1286;3.8197;
652.8000;0.1278;3.8248;
653.1000;0.1351;3.8350;
653.4000;0.1262;3.8145;
653.7000;0.1221;3.8068;
654.0000;0.1270;3.8222;
654.3000;0.1286;3.8094;
654.6000;0.1262;3.8068;
654.9000;0.1254;3.8171;
655.2000;0.1278;3.8171;
655.5000;0.1254;3.8120;
655.8000;0.1278;3.8171;
656.1000;0.1245;3.7991;
656.4000;0.1278;3.8043;
656.7000;0.1286;3.8145;
657.0000;0.1286;3.8120;
657.3000;0.1311;3.8171;
657.6000;0.1254;3.7940;
657.9000;0.1286;3.8017;
658.2000;0.1278;3.7914;
658.5000;0.1237;3.7812;
658.8000;0.1351;3.8068;
659.1000;0.1359;3.8017;
659.4000;0.1302;3.7889;
659.7000;0.1270;3.7812;
660.0000;0.1319;3.8017;
660.3000;0.1286;3.7940;
660.6000;0.1343;3.8043;
660.9000;0.1278;3.7863;
661.2000;0.1294;3.7914;
661.5000;0.1270;3.7837;
661.8000;0.1221;3.7632;
662.1000;0.1262;3.7760;
662.4000;0.1294;3.7914;
662.7000;0.1262;3.7735;
663.0000;0.1286;3.7914;
663.3000;0.1262;3.7837;
663.6000;0.1213;3.7709;
663.9000;0.1245;3.7889;
664.2000;0.1254;3.7837;
664.5000;0.1286;3.7837;
664.8000;0.1270;3.7837;
665.1000;0.1270;3.7991;
665.4000;0.1270;3.8094;
665.7000;0.1302;3.8273;
666.0000;0.1294;3.8299;
666.3000;0.1302;3.8402;
666.6000;0.1262;3.8350;
666.9000;0.1262;3.8376;
667.2000;0.1270;3.8402;
667.5000;0.1319;3.8479;
667.8000;0.1213;3.8043;
668.1000;0.1278;3.8145;
668.4000;0.1270;3.8120;
668.7000;0.1254;3.8094;
669.0000;0.1286;3.8068;
669.3000;0.1229;3.7966;
669.6000;0.1245;3.8017;
669.9000;0.1302;3.8145;
670.2000;0.1229;3.8017;
670.5000;0.1254;3.7991;
670.8000;0.1270;3.8094;
671.1000;0.1262;3.8068;
671.4000;0.1262;3.8017;
671.7000;0.1245;3.7940;
672.0000;0.1254;3.8017;
672.3000;0.1262;3.7914;
672.6000;0.1245;3.7837;
672.9000;0.1245;3.7940;
673.2000;0.1205;3.7812;
673.5000;0.1254;3.7940;
673.8000;0.1229;3.7837;
674.1000;0.1245;3.7812;
674.4000;0.1115;3.7478;
674.7000;0.1262;3.7863;
675.0000;0.1213;3.7786;
675.3000;0.1327;3.8120;
675.6000;0.1237;3.7966;
675.9000;0.1335;3.8171;
676.2000;0.1254;3.7940;
676.5000;0.1205;3.7760;
676.8000;0.1327;3.8094;
677.1000;0.1254;3.7966;
677.4000;0.1278;3.8068;
677.7000;0.1148;3.7683;
678.0000;0.1229;3.7940;
678.3000;0.1262;3.8017;
678.6000;0.1245;3.7940;
678.9000;0.1270;3.8043;
679.2000;0.1245;3.7991;
679.5000;0.1286;3.8043;
679.8000;0.1254;3.7966;
680.1000;0.1254;3.8017;
680.4000;0.1286;3.8197;
680.7000;0.1221;3.8043;
681.0000;0.1229;3.8068;
681.3000;0.1254;3.8120;
681.6000;0.1245;3.8068;
681.9000;0.1188;3.7914;
682.2000;0.1254;3.8171;
682.5000;0.1245;3.8145;
682.8000;0.1245;3.8248;
683.1000;0.1270;3.8273;
683.4000;0.1254;3.8299;
683.7000;0.1229;3.8120;
684.0000;0.1270;3.8273;
684.3000;0.1237;3.8145;
684.6000;0.1229;3.8068;
684.9000;0.1254;3.8094;
685.2000;0.1213;3.8017;
685.5000;0.1221;3.8017;
685.8000;0.1254;3.8094;
686.1000;0.1245;3.8043;
686.4000;0.1229;3.7991;
686.7000;0.1245;3.7966;
687.0000;0.1245;3.7889;
687.3000;0.1262;3.7940;
687.6000;0.1245;3.7914;
687.9000;0.1254;3.7863;
688.2000;0.1262;3.7863;
688.5000;0.1254;3.7812;
688.8000;0.1245;3.7863;
689.1000;0.1237;3.7863;
689.4000;0.1237;3.7786;
689.7000;0.1254;3.7837;
690.0000;0.1270;3.7812;
690.3000;0.1229;3.7812;
690.6000;0.1254;3.7735;
690.9000;0.1229;3.7683;
691.2000;0.1262;3.7812;
691.5000;0.1278;3.7940;
691.8000;0.1221;3.7812;
692.1000;0.1229;3.7812;
692.4000;0.1262;3.7940;
692.7000;0.1213;3.7760;
693.0000;0.1205;3.7735;
693.3000;0.1245;3.7837;
693.6000;0.1270;3.7889;
693.9000;0.1245;3.7837;
694.2000;0.1237;3.7786;
694.5000;0.1237;3.7837;
694.8000;0.1205;3.7760;
695.1000;0.1237;3.7837;
695.4000;0.1229;3.7889;
695.7000;0.1221;3.7837;
696.0000;0.1229;3.7837;
696.3000;0.1237;3.7863;
696.6000;0.1270;3.7991;
696.9000;0.1245;3.7940;
697.2000;0.1262;3.8094;
697.5000;0.1237;3.8120;
697.8000;0.1278;3.8197;
698.1000;0.1262;3.8120;
698.4000;0.1245;3.8017;
698.7000;0.1245;3.7991;
699.0000;0.1237;3.7991;
699.3000;0.1237;3.7991;
699.6000;0.1262;3.8068;
699.9000;0.1197;3.7940;
700.2000;0.1245;3.8068;
700.5000;0.1237;3.7991;
700.8000;0.1245;3.7940;
701.1000;0.1237;3.7914;
701.4000;0.1245;3.7966;
701.7000;0.1213;3.7760;
702.0000;0.1237;3.7940;
702.3000;0.1254;3.7966;
702.6000;0.1245;3.7914;
702.9000;0.1262;3.8043;
703.2000;0.1213;3.7914;
703.5000;0.1237;3.7991;
703.8000;0.1254;3.8068;
704.1000;0.1229;3.8068;
704.4000;0.1197;3.7966;
704.7000;0.1237;3.8197;
705.0000;0.1221;3.8222;
705.3000;0.1180;3.8043;
705.6000;0.1245;3.8120;
705.9000;0.1213;3.7991;
706.2000;0.1237;3.7991;
706.5000;0.1254;3.8043;
706.8000;0.1221;3.7889;
707.1000;0.1213;3.7863;
707.4000;0.1254;3.8043;
707.7000;0.1245;3.7966;
708.0000;0.1254;3.7966;
708.3000;0.1254;3.8094;
708.6000;0.1205;3.7991;
708.9000;0.1237;3.8043;
709.2000;0.1221;3.7940;
709.5000;0.1229;3.7966;
709.8000;0.1237;3.8043;
710.1000;0.1205;3.7966;
710.4000;0.1245;3.8068;
710.7000;0.1221;3.7966;
711.0000;0.1221;3.7889;
711.3000;0.1254;3.7914;
711.6000;0.1229;3.7889;
711.9000;0.1229;3.7991;
712.2000;0.1237;3.8094;
712.5000;0.1229;3.8043;
712.8000;0.1221;3.8145;
713.1000;0.1262;3.8222;
713.4000;0.1229;3.8145;
713.7000;0.1254;3.8197;
714.0000;0.1245;3.8248;
714.3000;0.1229;3.8222;
714.6000;0.1237;3.8325;
714.9000;0.1213;3.8248;
715.2000;0.1229;3.8248;
715.5000;0.1188;3.8171;
715.8000;0.1245;3.8248;
716.1000;0.1245;3.8248;
716.4000;0.1221;3.8248;
716.7000;0.1221;3.8325;
717.0000;0.1245;3.8299;
717.3000;0.1245;3.8299;
717.6000;0.1262;3.8402;
717.9000;0.1229;3.8325;
718.2000;0.1286;3.8479;
718.5000;0.1229;3.8222;
718.8000;0.1237;3.8145;
719.1000;0.1221;3.8145;
719.4000;0.1237;3.8273;
719.7000;0.1205;3.8145;
720.0000;0.1237;3.8120;
720.3000;0.1213;3.8197;
720.6000;0.1229;3.8222;
720.9000;0.1221;3.8197;
721.2000;0.1221;3.8197;
721.5000;0.1205;3.8043;
721.8000;0.1197;3.7966;
722.1000;0.1229;3.8145;
722.4000;0.1221;3.8068;
722.7000;0.1221;3.8120;
723.0000;0.1197;3.8094;
723.3000;0.1229;3.8222;
723.6000;0.1229;3.8197;
723.9000;0.1229;3.8094;
724.2000;0.1213;3.8043;
724.5000;0.1221;3.7966;
724.8000;0.1221;3.7991;
725.1000;0.1237;3.8068;
725.4000;0.1221;3.8017;
725.7000;0.1197;3.7991;
726.0000;0.1188;3.7966;
726.3000;0.1221;3.8068;
726.6000;0.1221;3.8145;
726.9000;0.1131;3.7889;
727.2000;0.1229;3.8043;
727.5000;0.1197;3.8017;
727.8000;0.1221;3.8171;
728.1000;0.1221;3.8145;
728.4000;0.1164;3.8043;
728.7000;0.1213;3.8171;
729.0000;0.1221;3.8197;
729.3000;0.1221;3.8222;
729.6000;0.1229;3.8171;
729.9000;0.1245;3.8120;
730.2000;0.1221;3.7966;
730.5000;0.1221;3.7991;
730.8000;0.1205;3.8068;
731.1000;0.1237;3.8145;
731.4000;0.1188;3.8043;
731.7000;0.1229;3.8094;
732.0000;0.1188;3.7991;
732.3000;0.1213;3.8043;
732.6000;0.1180;3.7940;
732.9000;0.1229;3.8068;
733.2000;0.1197;3.7966;
733.5000;0.1286;3.8197;
733.8000;0.1270;3.8120;
734.1000;0.1205;3.7966;
734.4000;0.1237;3.7940;
734.7000;0.1205;3.7991;
735.0000;0.1229;3.8094;
735.3000;0.1229;3.8145;
735.6000;0.1188;3.8017;
735.9000;0.1229;3.8094;
736.2000;0.1221;3.8068;
736.5000;0.1229;3.8068;
736.8000;0.1213;3.8017;
737.1000;0.1205;3.8068;
737.4000;0.1229;3.8094;
737.7000;0.1213;3.8017;
738.0000;0.1245;3.8120;
738.3000;0.1221;3.8120;
738.6000;0.1221;3.8171;
738.9000;0.1229;3.8197;
739.2000;0.1221;3.8171;
739.5000;0.1302;3.8350;
739.8000;0.1254;3.8222;
740.1000;0.1237;3.8273;
740.4000;0.1245;3.8299;
740.7000;0.1221;3.8197;
741.0000;0.1213;3.8145;
741.3000;0.1237;3.8248;
741.6000;0.1180;3.8043;
741.9000;0.1221;3.8120;
742.2000;0.1213;3.8197;
742.5000;0.1221;3.8299;
742.8000;0.1229;3.8222;
743.1000;0.1213;3.8120;
743.4000;0.1197;3.8043;
743.7000;0.1197;3.8068;
744.0000;0.1229;3.8120;
744.3000;0.1229;3.8120;
744.6000;0.1221;3.8068;
744.9000;0.1172;3.7914;
745.2000;0.1221;3.8094;
745.5000;0.1229;3.8120;
745.8000;0.1221;3.8068;
746.1000;0.1205;3.7966;
746.4000;0.1213;3.7914;
746.7000;0.1221;3.7940;
747.0000;0.1180;3.7863;
747.3000;0.1197;3.7837;
747.6000;0.1205;3.7837;
747.9000;0.1262;3.7966;
748.2000;0.1205;3.7786;
748.5000;0.1221;3.7812;
748.8000;0.1213;3.7863;
749.1000;0.1254;3.7966;
749.4000;0.1197;3.7837;
749.7000;0.1237;3.7914;
750.0000;0.1221;3.7812;
750.3000;0.1294;3.7991;
750.6000;0.1254;3.7991;
750.9000;0.1188;3.7786;
751.2000;0.1172;3.7760;
751.5000;0.1221;3.7966;
751.8000;0.1221;3.7966;
752.1000;0.1180;3.7812;
752.4000;0.1205;3.7837;
752.7000;0.1213;3.7786;
753.0000;0.1221;3.7889;
753.3000;0.1327;3.8197;
753.6000;0.1213;3.7889;
753.9000;0.1188;3.7940;
754.2000;0.1221;3.8017;
754.5000;0.1221;3.8068;
754.8000;0.1221;3.8017;
755.1000;0.1197;3.7914;
755.4000;0.1156;3.7760;
755.7000;0.1221;3.7966;
756.0000;0.1221;3.8043;
756.3000;0.1205;3.7991;
756.6000;0.1229;3.8017;
756.9000;0.1229;3.8017;
757.2000;0.1254;3.8120;
757.5000;0.1205;3.8017;
757.8000;0.1205;3.7991;
758.1000;0.1205;3.7991;
758.4000;0.1311;3.8325;
758.7000;0.1197;3.8043;
759.0000;0.1221;3.8120;
759.3000;0.1221;3.8171;
759.6000;0.1221;3.8248;
759.9000;0.1197;3.8171;
760.2000;0.1221;3.8222;
760.5000;0.1221;3.8299;
760.8000;0.1213;3.8197;
761.1000;0.1213;3.8248;
761.4000;0.1188;3.8222;
761.7000;0.1213;3.8325;
762.0000;0.1197;3.8222;
762.3000;0.1197;3.8171;
762.6000;0.1237;3.8222;
762.9000;0.1237;3.8145;
763.2000;0.1327;3.8453;
763.5000;0.1229;3.8197;
763.8000;0.1197;3.8197;
764.1000;0.1237;3.8273;
764.4000;0.1197;3.8120;
764.7000;0.1221;3.8145;
765.0000;0.1229;3.8248;
765.3000;0.1221;3.8222;
765.6000;0.1237;3.8197;
765.9000;0.1221;3.8145;
766.2000;0.1197;3.8043;
766.5000;0.1188;3.7991;
766.8000;0.1221;3.8068;
767.1000;0.1213;3.8120;
767.4000;0.1197;3.8043;
767.7000;0.1188;3.8145;
768.0000;0.1229;3.8299;
768.3000;0.1213;3.8273;
768.6000;0.1156;3.8068;
768.9000;0.1221;3.8197;
769.2000;0.1123;3.7812;
769.5000;0.1221;3.8120;
769.8000;0.1197;3.8068;
770.1000;0.1245;3.8145;
770.4000;0.1213;3.8094;
770.7000;0.1245;3.8197;
771.0000;0.1180;3.8068;
771.3000;0.1213;3.8068;
771.6000;0.1245;3.8222;
771.9000;0.1213;3.8145;
772.2000;0.1254;3.8376;
772.5000;0.1286;3.8350;
772.8000;0.1205;3.8017;
773.1000;0.1205;3.7991;
773.4000;0.1221;3.7991;
773.7000;0.1237;3.8094;
774.0000;0.1229;3.8094;
774.3000;0.1205;3.8017;
774.6000;0.1188;3.7940;
774.9000;0.1245;3.8120;
775.2000;0.1213;3.7914;
775.5000;0.1164;3.7889;
775.8000;0.1221;3.8017;
776.1000;0.1229;3.8043;
776.4000;0.1205;3.7991;
776.7000;0.1205;3.7940;
777.0000;0.1156;3.7889;
777.3000;0.1221;3.8017;
777.6000;0.1172;3.7991;
777.9000;0.1099;3.7812;
778.2000;0.1188;3.8145;
778.5000;0.1229;3.8248;
778.8000;0.1205;3.8171;
779.1000;0.1188;3.8171;
779.4000;0.1221;3.8248;
779.7000;0.1197;3.8222;
780.0000;0.1188;3.8145;
780.3000;0.1099;3.7812;
780.6000;0.1213;3.8197;
780.9000;0.1164;3.8017;
781.2000;0.1205;3.8145;
781.5000;0.1188;3.8120;
781.8000;0.1205;3.8145;
782.1000;0.1213;3.8145;
782.4000;0.1254;3.8171;
782.7000;0.1221;3.8068;
783.0000;0.1123;3.7760;
783.3000;0.1221;3.8043;
783.6000;0.1205;3.7940;
783.9000;0.1213;3.7991;
784.2000;0.1213;3.7991;
784.5000;0.1221;3.7991;
784.8000;0.1221;3.7940;
785.1000;0.1221;3.7940;
785.4000;0.1327;3.8376;
785.7000;0.1205;3.8043;
786.0000;0.1213;3.8017;
786.3000;0.1140;3.7812;
786.6000;0.1229;3.7991;
786.9000;0.1205;3.7914;
787.2000;0.1188;3.7863;
787.5000;0.1286;3.8171;
787.8000;0.1237;3.7991;
788.1000;0.1205;3.7837;
788.4000;0.1197;3.7760;
788.7000;0.1213;3.7914;
789.0000;0.1197;3.7889;
789.3000;0.1188;3.7914;
789.6000;0.1172;3.7863;
789.9000;0.1213;3.7966;
790.2000;0.1205;3.7914;
790.5000;0.1286;3.8248;
790.8000;0.1180;3.8017;
791.1000;0.1221;3.8120;
791.4000;0.1221;3.8068;
791.7000;0.1188;3.7991;
792.0000;0.1221;3.8068;
792.3000;0.1221;3.8094;
792.6000;0.1205;3.8094;
792.9000;0.1197;3.8017;
793.2000;0.1188;3.7940;
793.5000;0.1197;3.8094;
793.8000;0.1197;3.8222;
794.1000;0.1221;3.8376;
794.4000;0.1221;3.8273;
794.7000;0.1188;3.8197;
795.0000;0.1180;3.8068;
795.3000;0.1197;3.8094;
795.6000;0.1180;3.8043;
795.9000;0.1311;3.8479;
796.2000;0.1148;3.7991;
796.5000;0.1237;3.8248;
796.8000;0.1205;3.8171;
797.1000;0.1229;3.8273;
797.4000;0.1180;3.8222;
797.7000;0.1197;3.8197;
798.0000;0.1213;3.8248;
798.3000;0.1197;3.8273;
798.6000;0.1205;3.8376;
798.9000;0.1213;3.8273;
799.2000;0.1205;3.8222;
799.5000;0.1237;3.8248;
799.8000;0.1213;3.8222;
800.1000;0.1213;3.8171;
800.4000;0.1180;3.8068;
800.7000;0.1197;3.8171;
801.0000;0.1197;3.8068;
801.3000;0.1164;3.7991;
801.6000;0.1197;3.8068;
801.9000;0.1197;3.8068;
802.2000;0.1197;3.8068;
802.5000;0.1197;3.8043;
802.8000;0.1180;3.7966;
803.1000;0.1197;3.7991;
803.4000;0.1148;3.7914;
803.7000;0.1197;3.8017;
804.0000;0.1221;3.8145;
804.3000;0.1188;3.8120;
804.6000;0.1205;3.8248;
804.9000;0.1205;3.8197;
805.2000;0.1188;3.8145;
805.5000;0.1205;3.8248;
805.8000;0.1205;3.8094;
806.1000;0.1229;3.8145;
806.4000;0.1262;3.8248;
806.7000;0.1221;3.8171;
807.0000;0.1205;3.8171;
807.3000;0.1205;3.8145;
807.6000;0.1205;3.8068;
807.9000;0.1188;3.8017;
808.2000;0.1221;3.8043;
808.5000;0.1188;3.8017;
808.8000;0.1180;3.7991;
809.1000;0.1205;3.8043;
809.4000;0.1262;3.8145;
809.7000;0.1311;3.8325;
810.0000;0.1188;3.8043;
810.3000;0.1205;3.8017;
810.6000;0.1148;3.7863;
810.9000;0.1188;3.7940;
811.2000;0.1205;3.7966;
811.5000;0.1172;3.7837;
811.8000;0.1197;3.7966;
812.1000;0.1197;3.7966;
812.4000;0.1180;3.7863;
812.7000;0.1180;3.7760;
813.0000;0.1180;3.7735;
813.3000;0.1172;3.7786;
813.6000;0.1197;3.7812;
813.9000;0.1213;3.7889;
814.2000;0.1197;3.7889;
814.5000;0.1213;3.7914;
814.8000;0.1229;3.7991;
815.1000;0.1221;3.7991;
815.4000;0.1205;3.7966;
815.7000;0.1205;3.7940;
816.0000;0.1213;3.7940;
816.3000;0.1205;3.7863;
816.6000;0.1180;3.7760;
816.9000;0.1205;3.7889;
817.2000;0.1188;3.7812;
817.5000;0.1229;3.7991;
817.8000;0.1180;3.7863;
818.1000;0.1213;3.7914;
818.4000;0.1229;3.8017;
818.7000;0.1213;3.7940;
819.0000;0.1213;3.7966;
819.3000;0.1172;3.7786;
819.6000;0.1221;3.7863;
819.9000;0.1197;3.7914;
820.2000;0.1172;3.7837;
820.5000;0.1197;3.7863;
820.8000;0.1213;3.7940;
821.1000;0.1188;3.7889;
821.4000;0.1213;3.7966;
821.7000;0.1213;3.8043;
822.0000;0.1197;3.7991;
822.3000;0.1188;3.7966;
822.6000;0.1180;3.7914;
822.9000;0.1221;3.7966;
823.2000;0.1270;3.8094;
823.5000;0.1237;3.8120;
823.8000;0.1172;3.8043;
824.1000;0.1197;3.8068;
824.4000;0.1335;3.8402;
824.7000;0.1213;3.7991;
825.0000;0.1197;3.7863;
825.3000;0.1262;3.8043;
825.6000;0.1188;3.7812;
825.9000;0.1229;3.7940;
826.2000;0.1205;3.7863;
826.5000;0.1229;3.7914;
826.8000;0.1180;3.7914;
827.1000;0.1221;3.8068;
827.4000;0.1221;3.8094;
827.7000;0.1205;3.8068;
828.0000;0.1164;3.8068;
828.3000;0.1221;3.8222;
828.6000;0.1205;3.8222;
828.9000;0.1213;3.8120;
829.2000;0.1229;3.8120;
829.5000;0.1221;3.8171;
829.8000;0.1180;3.8043;
830.1000;0.1188;3.8068;
830.4000;0.1197;3.8043;
830.7000;0.1197;3.8017;
831.0000;0.1205;3.8017;
831.3000;0.1197;3.7991;
831.6000;0.1164;3.7940;
831.9000;0.1172;3.7914;
832.2000;0.1205;3.8043;
832.5000;0.1213;3.8043;
832.8000;0.1205;3.8017;
833.1000;0.1180;3.7991;
833.4000;0.1188;3.7966;
833.7000;0.1188;3.7991;
834.0000;0.1205;3.8043;
834.3000;0.1180;3.8017;
834.6000;0.1229;3.8094;
834.9000;0.1164;3.7991;
835.2000;0.1197;3.8068;
835.5000;0.1229;3.8094;
835.8000;0.1221;3.7991;
836.1000;0.1205;3.7940;
836.4000;0.1188;3.7837;
836.7000;0.1205;3.7914;
837.0000;0.1278;3.8197;
837.3000;0.1188;3.7914;
837.6000;0.1188;3.7966;
837.9000;0.1188;3.7914;
838.2000;0.1180;3.7837;
838.5000;0.1140;3.7606;
838.8000;0.1205;3.7786;
839.1000;0.1197;3.7786;
839.4000;0.1188;3.7889;
839.7000;0.1180;3.7812;
840.0000;0.1205;3.7914;
840.3000;0.1221;3.7940;
840.6000;0.1213;3.7966;
840.9000;0.1221;3.7940;
841.2000;0.1180;3.7940;
841.5000;0.1213;3.7966;
841.8000;0.1188;3.7889;
842.1000;0.1172;3.7889;
842.4000;0.1123;3.7786;
842.7000;0.1148;3.7786;
843.0000;0.1205;3.7966;
843.3000;0.1180;3.7940;
843.6000;0.1205;3.8043;
843.9000;0.1197;3.7991;
844.2000;0.1115;3.7709;
844.5000;0.1188;3.7966;
844.8000;0.1164;3.7940;
845.1000;0.1213;3.8017;
845.4000;0.1205;3.8017;
845.7000;0.1197;3.7940;
846.0000;0.1197;3.7889;
846.3000;0.1221;3.8017;
846.6000;0.1262;3.8094;
846.9000;0.1197;3.7786;
847.2000;0.1188;3.7837;
847.5000;0.1213;3.7786;
847.8000;0.1188;3.7812;
848.1000;0.1197;3.7812;
848.4000;0.1229;3.7991;
848.7000;0.1197;3.7914;
849.0000;0.1221;3.8094;
849.3000;0.1221;3.8120;
849.6000;0.1188;3.7991;
849.9000;0.1140;3.7966;
850.2000;0.1197;3.8094;
850.5000;0.1205;3.8094;
850.8000;0.1221;3.8068;
851.1000;0.1197;3.7966;
851.4000;0.1197;3.7940;
851.7000;0.1213;3.7966;
852.0000;0.1164;3.7786;
852.3000;0.1197;3.7966;
852.6000;0.1188;3.7914;
852.9000;0.1188;3.7940;
853.2000;0.1180;3.7966;
853.5000;0.1164;3.7914;
853.8000;0.1197;3.8043;
854.1000;0.1188;3.7914;
854.4000;0.1270;3.8120;
854.7000;0.1156;3.7837;
855.0000;0.1197;3.7889;
855.3000;0.1213;3.7991;
855.6000;0.1188;3.7889;
855.9000;0.1172;3.7735;
856.2000;0.1180;3.7760;
856.5000;0.1172;3.7683;
856.8000;0.1205;3.7735;
857.1000;0.1188;3.7735;
857.4000;0.1205;3.7786;
857.7000;0.1164;3.7658;
858.0000;0.1107;3.7453;
858.3000;0.1205;3.7709;
858.6000;0.1123;3.7504;
858.9000;0.1188;3.7683;
859.2000;0.1188;3.7786;
859.5000;0.1262;3.7991;
859.8000;0.1156;3.7683;
860.1000;0.1172;3.7735;
860.4000;0.1172;3.7760;
860.7000;0.1205;3.7889;
861.0000;0.1197;3.7837;
861.3000;0.1197;3.7812;
861.6000;0.1188;3.7735;
861.9000;0.1172;3.7735;
862.2000;0.1213;3.7889;
862.5000;0.1213;3.7914;
862.8000;0.1245;3.7940;
863.1000;0.1188;3.7735;
863.4000;0.1188;3.7709;
863.7000;0.1156;3.7581;
864.0000;0.1188;3.7735;
864.3000;0.1172;3.7709;
864.6000;0.1229;3.7812;
864.9000;0.1188;3.7735;
865.2000;0.1205;3.7735;
865.5000;0.1205;3.7735;
865.8000;0.1180;3.7683;
866.1000;0.1254;3.7940;
866.4000;0.1188;3.7786;
866.7000;0.1286;3.8094;
867.0000;0.1213;3.7889;
867.3000;0.1213;3.7812;
867.6000;0.1205;3.7837;
867.9000;0.1140;3.7606;
868.2000;0.1140;3.7658;
868.5000;0.1221;3.7940;
868.8000;0.1205;3.7863;
869.1000;0.1197;3.7812;
869.4000;0.1188;3.7863;
869.7000;0.1205;3.7812;
870.0000;0.1180;3.7812;
870.3000;0.1180;3.7837;
870.6000;0.1180;3.7837;
870.9000;0.1205;3.7940;
871.2000;0.1197;3.8017;
871.5000;0.1205;3.8043;
871.8000;0.1172;3.7940;
872.1000;0.1205;3.7991;
872.4000;0.1180;3.7966;
872.7000;0.1197;3.7966;
873.0000;0.1197;3.8017;
873.3000;0.1131;3.7914;
873.6000;0.1205;3.8120;
873.9000;0.1237;3.8222;
874.2000;0.1188;3.8068;
874.5000;0.1213;3.8094;
874.8000;0.1327;3.8427;
875.1000;0.1205;3.8017;
875.4000;0.1180;3.7940;
875.7000;0.1164;3.7837;
876.0000;0.1205;3.7940;
876.3000;0.1205;3.7966;
876.6000;0.1180;3.7966;
876.9000;0.1213;3.8017;
877.2000;0.1180;3.8043;
877.5000;0.1180;3.7991;
877.8000;0.1197;3.8017;
878.1000;0.1172;3.8017;
878.4000;0.1205;3.8120;
878.7000;0.1180;3.8145;
879.0000;0.1180;3.8094;
879.3000;0.1213;3.8145;
879.6000;0.1205;3.8094;
879.9000;0.1188;3.7991;
880.2000;0.1188;3.7991;
880.5000;0.1180;3.7889;
880.8000;0.1221;3.7991;
881.1000;0.1197;3.7837;
881.4000;0.1197;3.7889;
881.7000;0.1213;3.7889;
882.0000;0.1180;3.7863;
882.3000;0.1221;3.8017;
882.6000;0.1180;3.7991;
882.9000;0.1213;3.8043;
883.2000;0.1213;3.7991;
883.5000;0.1156;3.7837;
883.8000;0.1229;3.7991;
884.1000;0.1197;3.7940;
884.4000;0.1197;3.7914;
884.7000;0.1156;3.7837;
885.0000;0.1254;3.8120;
885.3000;0.1205;3.7991;
885.6000;0.1188;3.7966;
885.9000;0.1172;3.7966;
886.2000;0.1197;3.7991;
886.5000;0.1213;3.8068;
886.8000;0.1188;3.7889;
887.1000;0.1156;3.7812;
887.4000;0.1197;3.7889;
887.7000;0.1245;3.8043;
888.0000;0.1180;3.7889;
888.3000;0.1213;3.8017;
888.6000;0.1107;3.7735;
888.9000;0.1205;3.8043;
889.2000;0.1172;3.8017;
889.5000;0.1213;3.7966;
889.8000;0.1115;3.7735;
890.1000;0.1188;3.7940;
890.4000;0.1213;3.8043;
890.7000;0.1262;3.8043;
891.0000;0.1188;3.7914;
891.3000;0.1221;3.7966;
891.6000;0.1188;3.7889;
891.9000;0.1197;3.7940;
892.2000;0.1180;3.7889;
892.5000;0.1188;3.7914;
892.8000;0.1197;3.7966;
893.1000;0.1254;3.8068;
893.4000;0.1172;3.7966;
893.7000;0.1164;3.8068;
894.0000;0.1197;3.8094;
894.3000;0.1213;3.8120;
894.6000;0.1188;3.7991;
894.9000;0.1205;3.8068;
895.2000;0.1172;3.7991;
895.5000;0.1180;3.8017;
895.8000;0.1180;3.7914;
896.1000;0.1172;3.7889;
896.4000;0.1205;3.8094;
896.7000;0.1221;3.8120;
897.0000;0.1188;3.8094;
897.3000;0.1213;3.8120;
897.6000;0.1164;3.7991;
897.9000;0.1221;3.8068;
898.2000;0.1213;3.8094;
898.5000;0.1188;3.7966;
898.8000;0.1197;3.7966;
899.1000;0.1213;3.7991;
899.4000;0.1229;3.8043;
899.7000;0.1213;3.8094;
900.0000;0.1197;3.7991;
900.3000;0.1180;3.7966;
900.6000;0.1148;3.7940;
900.9000;0.1180;3.7940;
901.2000;0.1221;3.8068;
901.5000;0.1180;3.7991;
901.8000;0.1188;3.8043;
902.1000;0.1188;3.8043;
902.4000;0.1188;3.7966;
902.7000;0.1180;3.7991;
903.0000;0.1205;3.7991;
903.3000;0.1197;3.7966;
903.6000;0.1262;3.8222;
903.9000;0.1188;3.8043;
904.2000;0.1245;3.8299;
904.5000;0.1197;3.8145;
904.8000;0.1188;3.8171;
905.1000;0.1197;3.8171;
905.4000;0.1172;3.8120;
905.7000;0.1188;3.8120;
906.0000;0.1197;3.8120;
906.3000;0.1172;3.8043;
906.6000;0.1221;3.8222;
906.9000;0.1205;3.8094;
907.2000;0.1172;3.7991;
907.5000;0.1156;3.7889;
907.8000;0.1197;3.8017;
908.1000;0.1172;3.8017;
908.4000;0.1213;3.8094;
908.7000;0.1188;3.8145;
909.0000;0.1140;3.7940;
909.3000;0.1180;3.8120;
909.6000;0.1221;3.8197;
909.9000;0.1245;3.8273;
910.2000;0.1245;3.8171;
910.5000;0.1156;3.7966;
910.8000;0.1197;3.8017;
911.1000;0.1188;3.7966;
911.4000;0.1197;3.7940;
911.7000;0.1278;3.8171;
912.0000;0.1164;3.7760;
912.3000;0.1180;3.7812;
912.6000;0.1148;3.7658;
912.9000;0.1197;3.7683;
913.2000;0.1270;3.7940;
913.5000;0.1262;3.7966;
913.8000;0.1188;3.7760;
914.1000;0.1197;3.7735;
914.4000;0.1188;3.7786;
914.7000;0.1197;3.7812;
915.0000;0.1205;3.7837;
915.3000;0.1213;3.7837;
915.6000;0.1197;3.7709;
915.9000;0.1188;3.7735;
916.2000;0.1148;3.7632;
916.5000;0.1188;3.7812;
916.8000;0.1180;3.7863;
917.1000;0.1197;3.7889;
917.4000;0.1197;3.7940;
917.7000;0.1205;3.8043;
918.0000;0.1188;3.7991;
918.3000;0.1180;3.7991;
918.6000;0.1197;3.7914;
918.9000;0.1188;3.7889;
919.2000;0.1197;3.7940;
919.5000;0.1205;3.7914;
919.8000;0.1172;3.7940;
920.1000;0.1205;3.7991;
920.4000;0.1172;3.7837;
920.7000;0.1188;3.7940;
921.0000;0.1205;3.7940;
921.3000;0.1205;3.7889;
921.6000;0.1213;3.7966;
921.9000;0.1197;3.7889;
922.2000;0.1188;3.7889;
922.5000;0.1245;3.8094;
922.8000;0.1205;3.7914;
923.1000;0.1180;3.7735;
923.4000;0.1180;3.7709;
923.7000;0.1221;3.7863;
924.0000;0.1180;3.7760;
924.3000;0.1180;3.7735;
924.6000;0.1180;3.7760;
924.9000;0.1188;3.7812;
925.2000;0.1213;3.7786;
925.5000;0.1335;3.8043;
925.8000;0.1180;3.7683;
926.1000;0.1197;3.7735;
926.4000;0.1205;3.7735;
926.7000;0.1172;3.7735;
927.0000;0.1180;3.7786;
927.3000;0.1156;3.7709;
927.6000;0.1099;3.7581;
927.9000;0.1180;3.7786;
928.2000;0.1180;3.7735;
928.5000;0.1140;3.7683;
928.8000;0.1205;3.7940;
929.1000;0.1205;3.7991;
929.4000;0.1131;3.7914;
929.7000;0.1197;3.8017;
930.0000;0.1197;3.8094;
930.3000;0.1205;3.8120;
930.6000;0.1180;3.8017;
930.9000;0.1197;3.8094;
931.2000;0.1197;3.8171;
931.5000;0.1197;3.8145;
931.8000;0.1180;3.8094;
932.1000;0.1188;3.8017;
932.4000;0.1205;3.8068;
932.7000;0.1205;3.7940;
933.0000;0.1156;3.7786;
933.3000;0.1172;3.7889;
933.6000;0.1180;3.7889;
933.9000;0.1156;3.7760;
934.2000;0.1197;3.7914;
934.5000;0.1188;3.7940;
934.8000;0.1197;3.7991;
935.1000;0.1180;3.7966;
935.4000;0.1172;3.7914;
935.7000;0.1188;3.7914;
936.0000;0.1188;3.7837;
936.3000;0.1221;3.7991;
936.6000;0.1188;3.7940;
936.9000;0.1188;3.8017;
937.2000;0.1180;3.7966;
937.5000;0.1205;3.8094;
937.8000;0.1188;3.8043;
938.1000;0.1197;3.7966;
938.4000;0.1188;3.7940;
938.7000;0.1197;3.7863;
939.0000;0.1221;3.7863;
939.3000;0.1294;3.8145;
939.6000;0.1180;3.7837;
939.9000;0.1180;3.7735;
940.2000;0.1188;3.7837;
940.5000;0.1197;3.7914;
940.8000;0.1229;3.7991;
941.1000;0.1197;3.7966;
941.4000;0.1180;3.7914;
941.7000;0.1197;3.7991;
942.0000;0.1180;3.7991;
942.3000;0.1221;3.8068;
942.6000;0.1254;3.8145;
942.9000;0.1188;3.8068;
943.2000;0.1205;3.8120;
943.5000;0.1213;3.8145;
943.8000;0.1197;3.8043;
944.1000;0.1213;3.8145;
944.4000;0.1188;3.8197;
944.7000;0.1197;3.8273;
945.0000;0.1270;3.8504;
945.3000;0.1197;3.8248;
945.6000;0.1197;3.8145;
945.9000;0.1140;3.7966;
946.2000;0.1205;3.8145;
946.5000;0.1197;3.7991;
946.8000;0.1197;3.7966;
947.1000;0.1197;3.7991;
947.4000;0.1197;3.8068;
947.7000;0.1213;3.8068;
948.0000;0.1213;3.8068;
948.3000;0.1188;3.8017;
948.6000;0.1172;3.7940;
948.9000;0.1180;3.7966;
949.2000;0.1270;3.8120;
949.5000;0.1148;3.7709;
949.8000;0.1205;3.7889;
950.1000;0.1180;3.7837;
950.4000;0.1180;3.7863;
950.7000;0.1229;3.8017;
951.0000;0.1286;3.8197;
951.3000;0.1197;3.7914;
951.6000;0.1188;3.7940;
951.9000;0.1229;3.7991;
952.2000;0.1180;3.7940;
952.5000;0.1205;3.7914;
952.8000;0.1180;3.7837;
953.1000;0.1245;3.8094;
953.4000;0.1205;3.7914;
953.7000;0.1213;3.7966;
954.0000;0.1188;3.8043;
954.3000;0.1237;3.8120;
954.6000;0.1131;3.7914;
954.9000;0.1172;3.7966;
955.2000;0.1172;3.7991;
955.5000;0.1188;3.8017;
955.8000;0.1197;3.8017;
956.1000;0.1197;3.8094;
956.4000;0.1197;3.8094;
956.7000;0.1197;3.8145;
957.0000;0.1213;3.8171;
957.3000;0.1188;3.8068;
957.6000;0.1188;3.8094;
957.9000;0.1197;3.8197;
958.2000;0.1156;3.8120;
958.5000;0.1050;3.7837;
958.8000;0.1205;3.8299;
959.1000;0.1180;3.8145;
959.4000;0.1180;3.8145;
959.7000;0.1172;3.8120;
960.0000;0.1180;3.8171;
960.3000;0.1164;3.8094;
960.6000;0.1213;3.8222;
960.9000;0.1188;3.8120;
961.2000;0.1180;3.8145;
961.5000;0.1180;3.8145;
961.8000;0.1156;3.8068;
962.1000;0.1188;3.8197;
962.4000;0.1205;3.8350;
962.7000;0.1107;3.8171;
963.0000;0.1197;3.8376;
963.3000;0.1188;3.8273;
963.6000;0.1180;3.8222;
963.9000;0.1213;3.8197;
964.2000;0.1180;3.8248;
964.5000;0.1188;3.8299;
964.8000;0.1197;3.8325;
965.1000;0.1221;3.8376;
965.4000;0.1294;3.8607;
965.7000;0.1172;3.8325;
966.0000;0.1180;3.8299;
966.3000;0.1205;3.8248;
966.6000;0.1188;3.8145;
966.9000;0.1188;3.8120;
967.2000;0.1205;3.8017;
967.5000;0.1172;3.8017;
967.8000;0.1172;3.7991;
968.1000;0.1205;3.8120;
968.4000;0.1213;3.8197;
968.7000;0.1180;3.8068;
969.0000;0.1123;3.7940;
969.3000;0.1172;3.8094;
969.6000;0.1213;3.8197;
969.9000;0.1180;3.8094;
970.2000;0.1197;3.8145;
970.5000;0.1180;3.8222;
970.8000;0.1188;3.8222;
971.1000;0.1180;3.8171;
971.4000;0.1172;3.8248;
971.7000;0.1197;3.8350;
972.0000;0.1180;3.8402;
972.3000;0.1188;3.8479;
972.6000;0.1180;3.8479;
972.9000;0.1205;3.8504;
973.2000;0.1197;3.8479;
973.5000;0.1197;3.8350;
973.8000;0.1188;3.8350;
974.1000;0.1213;3.8273;
974.4000;0.1172;3.8197;
974.7000;0.1180;3.8197;
975.0000;0.1156;3.8068;
975.3000;0.1229;3.8248;
975.6000;0.1262;3.8197;
975.9000;0.1172;3.8017;
976.2000;0.1197;3.8197;
976.5000;0.1213;3.8299;
976.8000;0.1188;3.8171;
977.1000;0.1123;3.7914;
977.4000;0.1188;3.8171;
977.7000;0.1188;3.8017;
978.0000;0.1188;3.7940;
978.3000;0.1180;3.7966;
978.6000;0.1188;3.8017;
978.9000;0.1237;3.8171;
979.2000;0.1213;3.8094;
979.5000;0.1180;3.8043;
979.8000;0.1205;3.7966;
980.1000;0.1197;3.7914;
980.4000;0.1221;3.7991;
980.7000;0.1091;3.7606;
981.0000;0.1188;3.7991;
981.3000;0.1172;3.8017;
981.6000;0.1205;3.8120;
981.9000;0.1197;3.8120;
982.2000;0.1172;3.8043;
982.5000;0.1188;3.8120;
982.8000;0.1205;3.8273;
983.1000;0.1197;3.8248;
983.4000;0.1172;3.8197;
983.7000;0.1302;3.8427;
984.0000;0.1237;3.8299;
984.3000;0.1213;3.8248;
984.6000;0.1180;3.8248;
984.9000;0.1172;3.8171;
985.2000;0.1164;3.8094;
985.5000;0.1205;3.8248;
985.8000;0.1180;3.8145;
986.1000;0.1180;3.8197;
986.4000;0.1213;3.8273;
986.7000;0.1131;3.8017;
987.0000;0.1131;3.7991;
987.3000;0.1245;3.8273;
987.6000;0.1180;3.8120;
987.9000;0.1245;3.8273;
988.2000;0.1188;3.8248;
988.5000;0.1197;3.8222;
988.8000;0.1197;3.8171;
989.1000;0.1229;3.8222;
989.4000;0.1213;3.8145;
989.7000;0.1254;3.8325;
990.0000;0.1180;3.8197;
990.3000;0.1131;3.8120;
990.6000;0.1205;3.8299;
990.9000;0.1205;3.8222;
991.2000;0.1188;3.8120;
991.5000;0.1164;3.8094;
991.8000;0.1278;3.8248;
992.1000;0.1197;3.7991;
992.4000;0.1188;3.7991;
992.7000;0.1164;3.8068;
993.0000;0.1172;3.8094;
993.3000;0.1188;3.8094;
993.6000;0.1205;3.8171;
993.9000;0.1172;3.8068;
994.2000;0.1188;3.8171;
994.5000;0.1197;3.8171;
994.8000;0.1164;3.8171;
995.1000;0.1164;3.8120;
995.4000;0.1188;3.8222;
995.7000;0.1221;3.8325;
996.0000;0.1205;3.8248;
996.3000;0.1197;3.8273;
996.6000;0.1188;3.8273;
996.9000;0.1213;3.8171;
997.2000;0.1180;3.8094;
997.5000;0.1164;3.8068;
997.8000;0.1221;3.8273;
998.1000;0.1164;3.8068;
998.4000;0.1197;3.8171;
998.7000;0.1205;3.8120;
999.0000;0.1172;3.8043;
999.3000;0.1172;3.8120;
999.6000;0.1254;3.8325;
999.9000;0.1156;3.7991;
1000.2000;0.1213;3.8120;
1000.5000;0.1188;3.8017;
1000.8000;0.1197;3.8222;
1001.1000;0.1148;3.8094;
1001.4000;0.1213;3.8325;
1001.7000;0.1180;3.8248;
1002.0000;0.1197;3.8325;
1002.3000;0.1140;3.8145;
1002.6000;0.1188;3.8273;
1002.9000;0.1180;3.8248;
1003.2000;0.1180;3.8273;
1003.5000;0.1237;3.8376;
1003.8000;0.1188;3.8248;
1004.1000;0.1188;3.8222;
1004.4000;0.1188;3.8299;
1004.7000;0.1172;3.8273;
1005.0000;0.1197;3.8273;
1005.3000;0.1164;3.8248;
1005.6000;0.1205;3.8325;
1005.9000;0.1180;3.8222;
1006.2000;0.1099;3.8017;
1006.5000;0.1172;3.8171;
1006.8000;0.1188;3.8145;
1007.1000;0.1188;3.8197;
1007.4000;0.1197;3.8222;
1007.7000;0.1205;3.8171;
1008.0000;0.1188;3.8171;
1008.3000;0.1148;3.8068;
1008.6000;0.1188;3.8197;
1008.9000;0.1180;3.8222;
1009.2000;0.1197;3.8325;
1009.5000;0.1197;3.8299;
1009.8000;0.1180;3.8120;
1010.1000;0.1229;3.8273;
1010.4000;0.1180;3.8094;
1010.7000;0.1188;3.8197;
1011.0000;0.1197;3.8197;
1011.3000;0.1188;3.8171;
1011.6000;0.1172;3.8145;
1011.9000;0.1172;3.8197;
1012.2000;0.1180;3.8171;
1012.5000;0.1180;3.8171;
1012.8000;0.1188;3.8171;
1013.1000;0.1180;3.8222;
1013.4000;0.1197;3.8273;
1013.7000;0.1188;3.8197;
1014.0000;0.1197;3.8222;
1014.3000;0.1262;3.8479;
1014.6000;0.1188;3.8350;
1014.9000;0.1205;3.8299;
1015.2000;0.1197;3.8453;
1015.5000;0.1197;3.8453;
1015.8000;0.1188;3.8402;
1016.1000;0.1164;3.8376;
1016.4000;0.1188;3.8479;
1016.7000;0.1164;3.8453;
1017.0000;0.1172;3.8325;
1017.3000;0.1172;3.8350;
1017.6000;0.1172;3.8376;
1017.9000;0.1262;3.8581;
1018.2000;0.1229;3.8453;
1018.5000;0.1188;3.8325;
1018.8000;0.1188;3.8248;
1019.1000;0.1197;3.8299;
1019.4000;0.1164;3.8222;
1019.7000;0.1221;3.8273;
1020.0000;0.1180;3.8197;
1020.3000;0.1327;3.8607;
1020.6000;0.1123;3.8068;
1020.9000;0.1188;3.8273;
1021.2000;0.1254;3.8402;
1021.5000;0.1254;3.8376;
1021.8000;0.1074;3.7812;
1022.1000;0.1188;3.8068;
1022.4000;0.1164;3.7991;
1022.7000;0.1188;3.8197;
1023.0000;0.1188;3.8222;
1023.3000;0.1188;3.8248;
1023.6000;0.1180;3.8299;
1023.9000;0.1197;3.8248;
1024.2000;0.1180;3.8197;
1024.5000;0.1172;3.8197;
1024.8000;0.1197;3.8171;
1025.1000;0.1164;3.8120;
1025.4000;0.1180;3.8094;
1025.7000;0.1213;3.8222;
1026.0000;0.1156;3.8171;
1026.3000;0.1213;3.8325;
1026.6000;0.1180;3.8273;
1026.9000;0.1188;3.8248;
1027.2000;0.1205;3.8299;
1027.5000;0.1172;3.8171;
1027.8000;0.1180;3.8171;
1028.1000;0.1172;3.8248;
1028.4000;0.1197;3.8299;
1028.7000;0.1180;3.8376;
1029.0000;0.1197;3.8427;
1029.3000;0.1188;3.8427;
1029.6000;0.1164;3.8427;
1029.9000;0.1180;3.8556;
1030.2000;0.1197;3.8581;
1030.5000;0.1172;3.8504;
1030.8000;0.1172;3.8530;
1031.1000;0.1188;3.8427;
1031.4000;0.1180;3.8453;
1031.7000;0.1205;3.8479;
1032.0000;0.1180;3.8376;
1032.3000;0.1221;3.8479;
1032.6000;0.1180;3.8427;
1032.9000;0.1197;3.8479;
1033.2000;0.1197;3.8453;
1033.5000;0.1180;3.8427;
1033.8000;0.1205;3.8479;
1034.1000;0.1180;3.8402;
1034.4000;0.1188;3.8376;
1034.7000;0.1180;3.8376;
1035.0000;0.1180;3.8402;
1035.3000;0.1205;3.8556;
1035.6000;0.1164;3.8479;
1035.9000;0.1188;3.8530;
1036.2000;0.1205;3.8479;
1036.5000;0.1205;3.8402;
1036.8000;0.1205;3.8350;
1037.1000;0.1188;3.8273;
1037.4000;0.1164;3.8197;
1037.7000;0.1197;3.8273;
1038.0000;0.1180;3.8197;
1038.3000;0.1123;3.8017;
1038.6000;0.1197;3.8273;
1038.9000;0.1172;3.8222;
1039.2000;0.1188;3.8273;
1039.5000;0.1213;3.8325;
1039.8000;0.1156;3.8171;
1040.1000;0.1172;3.8248;
1040.4000;0.1172;3.8299;
1040.7000;0.1197;3.8376;
1041.0000;0.1197;3.8273;
1041.3000;0.1197;3.8350;
1041.6000;0.1197;3.8350;
1041.9000;0.1213;3.8376;
1042.2000;0.1188;3.8248;
1042.5000;0.1254;3.8402;
1042.8000;0.1188;3.8325;
1043.1000;0.1091;3.8068;
1043.4000;0.1131;3.8120;
1043.7000;0.1262;3.8350;
1044.0000;0.1229;3.8248;
1044.3000;0.1213;3.8197;
1044.6000;0.1099;3.7991;
1044.9000;0.1180;3.8222;
1045.2000;0.1156;3.8197;
1045.5000;0.1254;3.8479;
1045.8000;0.1197;3.8350;
1046.1000;0.1254;3.8556;
1046.4000;0.1205;3.8350;
1046.7000;0.1205;3.8453;
1047.0000;0.1156;3.8273;
1047.3000;0.1180;3.8376;
1047.6000;0.1197;3.8350;
1047.9000;0.1197;3.8376;
1048.2000;0.1164;3.8299;
1048.5000;0.1213;3.8427;
1048.8000;0.1213;3.8325;
1049.1000;0.1172;3.8248;
1049.4000;0.1205;3.8299;
1049.7000;0.1221;3.8453;
1050.0000;0.1205;3.8427;
1050.3000;0.1188;3.8350;
1050.6000;0.1188;3.8299;
1050.9000;0.1188;3.8376;
1051.2000;0.1180;3.8299;
1051.5000;0.1188;3.8299;
1051.8000;0.1188;3.8248;
1052.1000;0.1188;3.8376;
1052.4000;0.1197;3.8427;
1052.7000;0.1205;3.8453;
1053.0000;0.1197;3.8453;
1053.3000;0.1197;3.8504;
1053.6000;0.1188;3.8504;
1053.9000;0.1205;3.8530;
1054.2000;0.1172;3.8479;
1054.5000;0.1188;3.8556;
1054.8000;0.1180;3.8453;
1055.1000;0.1180;3.8504;
1055.4000;0.1074;3.8145;
1055.7000;0.1172;3.8453;
1056.0000;0.1188;3.8479;
1056.3000;0.1188;3.8453;
1056.6000;0.1197;3.8376;
1056.9000;0.1180;3.8376;
1057.2000;0.1188;3.8376;
1057.5000;0.1172;3.8402;
1057.8000;0.1188;3.8427;
1058.1000;0.1180;3.8402;
1058.4000;0.1205;3.8325;
1058.7000;0.1188;3.8273;
1059.0000;0.1164;3.8171;
1059.3000;0.1164;3.8043;
1059.6000;0.1205;3.8145;
1059.9000;0.1180;3.8068;
1060.2000;0.1197;3.8145;
1060.5000;0.1140;3.8068;
1060.8000;0.1188;3.8171;
1061.1000;0.1213;3.8248;
1061.4000;0.1213;3.8350;
1061.7000;0.1188;3.8299;
1062.0000;0.1164;3.8222;
1062.3000;0.1205;3.8350;
1062.6000;0.1188;3.8376;
1062.9000;0.1172;3.8350;
1063.2000;0.1164;3.8325;
1063.5000;0.1140;3.8248;
1063.8000;0.1205;3.8376;
1064.1000;0.1197;3.8376;
1064.4000;0.1237;3.8376;
1064.7000;0.1180;3.8325;
1065.0000;0.1197;3.8504;
1065.3000;0.1188;3.8427;
1065.6000;0.1180;3.8453;
1065.9000;0.1180;3.8479;
1066.2000;0.1205;3.8504;
1066.5000;0.1197;3.8479;
1066.8000;0.1164;3.8376;
1067.1000;0.1148;3.8376;
1067.4000;0.1188;3.8504;
1067.7000;0.1188;3.8453;
1068.0000;0.1205;3.8427;
1068.3000;0.1180;3.8325;
1068.6000;0.1172;3.8325;
1068.9000;0.1123;3.8248;
1069.2000;0.1188;3.8427;
1069.5000;0.1237;3.8581;
1069.8000;0.1197;3.8530;
1070.1000;0.1197;3.8504;
1070.4000;0.1172;3.8427;
1070.7000;0.1180;3.8427;
1071.0000;0.1319;3.8863;
1071.3000;0.1164;3.8479;
1071.6000;0.1172;3.8504;
1071.9000;0.1213;3.8581;
1072.2000;0.1156;3.8479;
1072.5000;0.1197;3.8658;
1072.8000;0.1197;3.8710;
1073.1000;0.1099;3.8350;
1073.4000;0.1180;3.8479;
1073.7000;0.1180;3.8402;
1074.0000;0.1197;3.8402;
1074.3000;0.1221;3.8402;
1074.6000;0.1180;3.8299;
1074.9000;0.1172;3.8197;
1075.2000;0.1197;3.8248;
1075.5000;0.1188;3.8120;
1075.8000;0.1140;3.7991;
1076.1000;0.1164;3.8120;
1076.4000;0.1180;3.8248;
1076.7000;0.1270;3.8427;
1077.0000;0.1180;3.8222;
1077.3000;0.1205;3.8299;
1077.6000;0.1197;3.8248;
1077.9000;0.1197;3.8325;
1078.2000;0.1197;3.8325;
1078.5000;0.1197;3.8350;
1078.8000;0.1205;3.8350;
1079.1000;0.1197;3.8376;
1079.4000;0.1335;3.8863;
1079.7000;0.1164;3.8325;
1080.0000;0.1197;3.8350;
1080.3000;0.1205;3.8350;
1080.6000;0.1188;3.8299;
1080.9000;0.1188;3.8299;
1081.2000;0.1213;3.8453;
1081.5000;0.1221;3.8453;
1081.8000;0.1180;3.8427;
1082.1000;0.1164;3.8402;
1082.4000;0.1197;3.8504;
1082.7000;0.1188;3.8376;
1083.0000;0.1188;3.8325;
1083.3000;0.1180;3.8299;
1083.6000;0.1205;3.8350;
1083.9000;0.1205;3.8248;
1084.2000;0.1188;3.8248;
1084.5000;0.1188;3.8248;
1084.8000;0.1205;3.8299;
1085.1000;0.1205;3.8376;
1085.4000;0.1156;3.8222;
1085.7000;0.1205;3.8402;
1086.0000;0.1205;3.8376;
1086.3000;0.1180;3.8273;
1086.6000;0.1164;3.8222;
1086.9000;0.1197;3.8248;
1087.2000;0.1188;3.8222;
1087.5000;0.1172;3.8273;
1087.8000;0.1180;3.8402;
1088.1000;0.1205;3.8453;
1088.4000;0.1213;3.8453;
1088.7000;0.1148;3.8273;
1089.0000;0.1188;3.8273;
1089.3000;0.1188;3.8197;
1089.6000;0.1262;3.8376;
1089.9000;0.1180;3.8197;
1090.2000;0.1213;3.8299;
1090.5000;0.1180;3.8299;
1090.8000;0.1131;3.8094;
1091.1000;0.1164;3.8171;
1091.4000;0.1131;3.8068;
1091.7000;0.1188;3.8120;
1092.0000;0.1221;3.8248;
1092.3000;0.1180;3.8145;
1092.6000;0.1188;3.8120;
1092.9000;0.1172;3.8120;
1093.2000;0.1197;3.8222;
1093.5000;0.1197;3.8222;
1093.8000;0.1164;3.8120;
1094.1000;0.1156;3.7991;
1094.4000;0.1197;3.8043;
1094.7000;0.1205;3.8145;
1095.0000;0.1188;3.8197;
1095.3000;0.1172;3.8145;
1095.6000;0.1197;3.8299;
1095.9000;0.1262;3.8479;
1096.2000;0.1172;3.8248;
1096.5000;0.1172;3.8299;
1096.8000;0.1188;3.8273;
1097.1000;0.1197;3.8402;
1097.4000;0.1180;3.8376;
1097.7000;0.1180;3.8427;
1098.0000;0.1213;3.8427;
1098.3000;0.1164;3.8350;
1098.6000;0.1180;3.8325;
1098.9000;0.1180;3.8299;
1099.2000;0.1180;3.8197;
1099.5000;0.1197;3.8197;
1099.8000;0.1180;3.8273;
1100.1000;0.1221;3.8350;
1100.4000;0.1197;3.8299;
1100.7000;0.1205;3.8376;
1101.0000;0.1197;3.8376;
1101.3000;0.1197;3.8376;
1101.6000;0.1172;3.8248;
1101.9000;0.1131;3.8145;
1102.2000;0.1164;3.8248;
1102.5000;0.1180;3.8376;
1102.8000;0.1188;3.8402;
1103.1000;0.1180;3.8504;
1103.4000;0.1221;3.8607;
1103.7000;0.1172;3.8453;
1104.0000;0.1197;3.8530;
1104.3000;0.1066;3.8222;
1104.6000;0.1172;3.8530;
1104.9000;0.1188;3.8556;
1105.2000;0.1188;3.8504;
1105.5000;0.1148;3.8350;
1105.8000;0.1172;3.8479;
1106.1000;0.1188;3.8479;
1106.4000;0.1172;3.8427;
1106.7000;0.1188;3.8427;
1107.0000;0.1180;3.8402;
1107.3000;0.1180;3.8376;
1107.6000;0.1254;3.8658;
1107.9000;0.1172;3.8479;
1108.2000;0.1188;3.8530;
1108.5000;0.1197;3.8556;
1108.8000;0.1180;3.8402;
1109.1000;0.1172;3.8325;
1109.4000;0.1205;3.8427;
1109.7000;0.1197;3.8427;
1110.0000;0.1188;3.8402;
1110.3000;0.1221;3.8453;
1110.6000;0.1140;3.8248;
1110.9000;0.1197;3.8376;
1111.2000;0.1205;3.8402;
1111.5000;0.1197;3.8376;
1111.8000;0.1123;3.8120;
1112.1000;0.1172;3.8222;
1112.4000;0.1131;3.8197;
1112.7000;0.1197;3.8197;
1113.0000;0.1197;3.8197;
1113.3000;0.1213;3.8299;
1113.6000;0.1083;3.7991;
1113.9000;0.1172;3.8197;
1114.2000;0.1205;3.8222;
1114.5000;0.1180;3.8171;
1114.8000;0.1197;3.8248;
1115.1000;0.1197;3.8068;
1115.4000;0.1221;3.8120;
1115.7000;0.1018;3.7632;
1116.0000;0.1213;3.8248;
1116.3000;0.1197;3.8248;
1116.6000;0.1221;3.8273;
1116.9000;0.1172;3.8248;
1117.2000;0.1164;3.8171;
1117.5000;0.1188;3.8248;
1117.8000;0.1197;3.8350;
1118.1000;0.1172;3.8453;
1118.4000;0.1229;3.8633;
1118.7000;0.1188;3.8504;
1119.0000;0.1197;3.8427;
1119.3000;0.1164;3.8325;
1119.6000;0.1172;3.8376;
1119.9000;0.1197;3.8427;
1120.2000;0.1188;3.8325;
1120.5000;0.1172;3.8299;
1120.8000;0.1188;3.8402;
1121.1000;0.1172;3.8350;
1121.4000;0.1188;3.8402;
1121.7000;0.1180;3.8325;
1122.0000;0.1180;3.8222;
1122.3000;0.1050;3.7837;
1122.6000;0.1188;3.8197;
1122.9000;0.1205;3.8197;
1123.2000;0.1180;3.8145;
1123.5000;0.1164;3.8068;
1123.8000;0.1188;3.8068;
1124.1000;0.1180;3.8094;
1124.4000;0.1188;3.8222;
1124.7000;0.1156;3.8145;
1125.0000;0.1188;3.8145;
1125.3000;0.1197;3.8145;
1125.6000;0.1180;3.8171;
1125.9000;0.1213;3.8299;
1126.2000;0.1197;3.8350;
1126.5000;0.1180;3.8273;
1126.8000;0.1221;3.8350;
1127.1000;0.1205;3.8325;
1127.4000;0.1197;3.8248;
1127.7000;0.1188;3.8248;
1128.0000;0.1180;3.8197;
1128.3000;0.1148;3.8197;
1128.6000;0.1180;3.8248;
1128.9000;0.1156;3.8273;
1129.2000;0.1188;3.8376;
1129.5000;0.1197;3.8325;
1129.8000;0.1180;3.8197;
1130.1000;0.1172;3.8171;
1130.4000;0.1197;3.8248;
1130.7000;0.1180;3.8222;
1131.0000;0.1164;3.8145;
1131.3000;0.1156;3.8197;
1131.6000;0.1278;3.8581;
1131.9000;0.1221;3.8402;
1132.2000;0.1197;3.8299;
1132.5000;0.1172;3.8299;
1132.8000;0.1180;3.8402;
1133.1000;0.1205;3.8402;
1133.4000;0.1172;3.8222;
1133.7000;0.1180;3.8299;
1134.0000;0.1172;3.8325;
1134.3000;0.1140;3.8197;
1134.6000;0.1213;3.8350;
1134.9000;0.1180;3.8171;
1135.2000;0.1180;3.8120;
1135.5000;0.1188;3.8145;
1135.8000;0.1229;3.8222;
1136.1000;0.1213;3.8222;
1136.4000;0.1164;3.8248;
1136.7000;0.1188;3.8376;
1137.0000;0.1188;3.8376;
1137.3000;0.1205;3.8350;
1137.6000;0.1188;3.8299;
1137.9000;0.1180;3.8299;
1138.2000;0.1197;3.8325;
1138.5000;0.1172;3.8325;
1138.8000;0.1188;3.8453;
1139.1000;0.1229;3.8581;
1139.4000;0.1237;3.8658;
1139.7000;0.1180;3.8479;
1140.0000;0.1172;3.8453;
1140.3000;0.1156;3.8453;
1140.6000;0.1180;3.8504;
1140.9000;0.1188;3.8453;
1141.2000;0.1172;3.8427;
1141.5000;0.1172;3.8504;
1141.8000;0.1156;3.8350;
1142.1000;0.1213;3.8453;
1142.4000;0.1172;3.8376;
1142.7000;0.1188;3.8402;
1143.0000;0.1197;3.8453;
1143.3000;0.1197;3.8453;
1143.6000;0.1188;3.8350;
1143.9000;0.1180;3.8248;
1144.2000;0.1180;3.8273;
1144.5000;0.1197;3.8376;
1144.8000;0.1213;3.8402;
1145.1000;0.1197;3.8273;
1145.4000;0.1180;3.8248;
1145.7000;0.1164;3.8171;
1146.0000;0.1180;3.8248;
1146.3000;0.1245;3.8402;
1146.6000;0.1188;3.8299;
1146.9000;0.1205;3.8350;
1147.2000;0.1205;3.8402;
1147.5000;0.1164;3.8273;
1147.8000;0.1164;3.8248;
1148.1000;0.1197;3.8299;
1148.4000;0.1188;3.8145;
1148.7000;0.1213;3.8299;
1149.0000;0.1172;3.8171;
1149.3000;0.1180;3.8171;
1149.6000;0.1180;3.8171;
1149.9000;0.1188;3.8299;
1150.2000;0.1197;3.8273;
1150.5000;0.1197;3.8376;
1150.8000;0.1188;3.8479;
1151.1000;0.1205;3.8479;
1151.4000;0.1140;3.8376;
1151.7000;0.1180;3.8376;
1152.0000;0.1180;3.8402;
1152.3000;0.1164;3.8325;
1152.6000;0.1188;3.8325;
1152.9000;0.1197;3.8120;
1153.2000;0.1188;3.8068;
1153.5000;0.1172;3.8017;
1153.8000;0.1172;3.7940;
1154.1000;0.1188;3.7991;
1154.4000;0.1172;3.7991;
1154.7000;0.1213;3.8094;
1155.0000;0.1197;3.7991;
1155.3000;0.1172;3.7940;
1155.6000;0.1172;3.7914;
1155.9000;0.1205;3.7940;
1156.2000;0.1180;3.7991;
1156.5000;0.1156;3.7940;
1156.8000;0.1197;3.8120;
1157.1000;0.1205;3.8068;
1157.4000;0.1197;3.8043;
1157.7000;0.1229;3.8120;
1158.0000;0.1172;3.7966;
1158.3000;0.1180;3.7940;
1158.6000;0.1213;3.8068;
1158.9000;0.1197;3.8017;
1159.2000;0.1172;3.7991;
1159.5000;0.1172;3.8068;
1159.8000;0.1180;3.8145;
1160.1000;0.1164;3.8222;
1160.4000;0.1172;3.8197;
1160.7000;0.1156;3.8222;
1161.0000;0.1172;3.8299;
1161.3000;0.1164;3.8273;
1161.6000;0.1131;3.8145;
1161.9000;0.1197;3.8376;
1162.2000;0.1172;3.8350;
1162.5000;0.1197;3.8479;
1162.8000;0.1180;3.8402;
1163.1000;0.1140;3.8325;
1163.4000;0.1172;3.8453;
1163.7000;0.1213;3.8504;
1164.0000;0.1197;3.8376;
1164.3000;0.1180;3.8376;
1164.6000;0.1205;3.8325;
1164.9000;0.1197;3.8325;
1165.2000;0.1188;3.8273;
1165.5000;0.1197;3.8376;
1165.8000;0.1148;3.8222;
1166.1000;0.1180;3.8299;
1166.4000;0.1197;3.8427;
1166.7000;0.1180;3.8427;
1167.0000;0.1180;3.8402;
1167.3000;0.1205;3.8427;
1167.6000;0.1172;3.8427;
1167.9000;0.1213;3.8504;
1168.2000;0.1188;3.8453;
1168.5000;0.1180;3.8427;
1168.8000;0.1188;3.8530;
1169.1000;0.1188;3.8479;
1169.4000;0.1180;3.8427;
1169.7000;0.1180;3.8453;
1170.0000;0.1172;3.8376;
1170.3000;0.1091;3.8094;
1170.6000;0.1180;3.8273;
1170.9000;0.1172;3.8376;
1171.2000;0.1197;3.8479;
1171.5000;0.1197;3.8504;
1171.8000;0.1213;3.8581;
1172.1000;0.1197;3.8530;
1172.4000;0.1205;3.8581;
1172.7000;0.1188;3.8556;
1173.0000;0.1115;3.8273;
1173.3000;0.1172;3.8376;
1173.6000;0.1213;3.8607;
1173.9000;0.1197;3.8556;
1174.2000;0.1197;3.8504;
1174.5000;0.1123;3.8350;
1174.8000;0.1172;3.8453;
1175.1000;0.1197;3.8504;
1175.4000;0.1254;3.8658;
1175.7000;0.1205;3.8479;
1176.0000;0.1229;3.8530;
1176.3000;0.1213;3.8479;
1176.6000;0.1197;3.8402;
1176.9000;0.1197;3.8453;
1177.2000;0.1188;3.8427;
1177.5000;0.1156;3.8350;
1177.8000;0.1197;3.8427;
1178.1000;0.1213;3.8479;
1178.4000;0.1213;3.8504;
1178.7000;0.1180;3.8376;
1179.0000;0.1180;3.8376;
1179.3000;0.1131;3.8273;
1179.6000;0.1188;3.8453;
1179.9000;0.1164;3.8453;
1180.2000;0.1164;3.8479;
1180.5000;0.1180;3.8453;
1180.8000;0.1180;3.8504;
1181.1000;0.1197;3.8530;
1181.4000;0.1205;3.8427;
1181.7000;0.1180;3.8350;
1182.0000;0.1188;3.8325;
1182.3000;0.1188;3.8350;
1182.6000;0.1188;3.8325;
1182.9000;0.1188;3.8427;
1183.2000;0.1197;3.8453;
1183.5000;0.1188;3.8427;
1183.8000;0.1180;3.8299;
1184.1000;0.1140;3.8248;
1184.4000;0.1172;3.8376;
1184.7000;0.1188;3.8427;
1185.0000;0.1172;3.8427;
1185.3000;0.1180;3.8427;
1185.6000;0.1180;3.8427;
1185.9000;0.1066;3.8222;
1186.2000;0.1148;3.8479;
1186.5000;0.1172;3.8479;
1186.8000;0.1180;3.8427;
1187.1000;0.1188;3.8402;
1187.4000;0.1180;3.8427;
1187.7000;0.1254;3.8530;
1188.0000;0.1205;3.8402;
1188.3000;0.1197;3.8402;
1188.6000;0.1180;3.8248;
1188.9000;0.1180;3.8350;
1189.2000;0.1172;3.8350;
1189.5000;0.1164;3.8299;
1189.8000;0.1188;3.8427;
1190.1000;0.1245;3.8581;
1190.4000;0.1213;3.8479;
1190.7000;0.1197;3.8427;
1191.0000;0.1188;3.8376;
1191.3000;0.1205;3.8376;
1191.6000;0.1172;3.8197;
1191.9000;0.1205;3.8325;
1192.2000;0.1188;3.8299;
1192.5000;0.1188;3.8325;
1192.8000;0.1229;3.8427;
1193.1000;0.1245;3.8427;
1193.4000;0.1197;3.8350;
1193.7000;0.1180;3.8299;
1194.0000;0.1197;3.8376;
1194.3000;0.1213;3.8402;
1194.6000;0.1188;3.8273;
1194.9000;0.1278;3.8530;
1195.2000;0.1188;3.8350;
1195.5000;0.1180;3.8427;
1195.8000;0.1188;3.8376;
1196.1000;0.1205;3.8479;
1196.4000;0.1172;3.8325;
1196.7000;0.1180;3.8273;
1197.0000;0.1188;3.8299;
1197.3000;0.1188;3.8299;
1197.6000;0.1180;3.8427;
1197.9000;0.1229;3.8607;
1198.2000;0.1180;3.8504;
1198.5000;0.1213;3.8504;
1198.8000;0.1205;3.8453;
1199.1000;0.1205;3.8479;
1199.4000;0.1213;3.8479;
1199.7000;0.1180;3.8479;
1200.0000;0.1205;3.8530;
1200.3000;0.1180;3.8556;
1200.6000;0.1180;3.8530;
1200.9000;0.1156;3.8479;
1201.2000;0.1188;3.8504;
1201.5000;0.1156;3.8427;
1201.8000;0.1197;3.8530;
1202.1000;0.1180;3.8530;
1202.4000;0.1180;3.8607;
1202.7000;0.1197;3.8658;
1203.0000;0.1172;3.8581;
1203.3000;0.1172;3.8556;
1203.6000;0.1188;3.8556;
1203.9000;0.1180;3.8479;
1204.2000;0.1180;3.8479;
1204.5000;0.1172;3.8504;
1204.8000;0.1180;3.8530;
1205.1000;0.1180;3.8402;
1205.4000;0.1172;3.8402;
1205.7000;0.1164;3.8376;
1206.0000;0.1237;3.8556;
1206.3000;0.1213;3.8633;
1206.6000;0.1180;3.8607;
1206.9000;0.1180;3.8581;
1207.2000;0.1213;3.8607;
1207.5000;0.1278;3.8940;
1207.8000;0.1188;3.8684;
1208.1000;0.1180;3.8658;
1208.4000;0.1188;3.8607;
1208.7000;0.1197;3.8684;
1209.0000;0.1197;3.8607;
1209.3000;0.1172;3.8556;
1209.6000;0.1164;3.8607;
1209.9000;0.1180;3.8607;
1210.2000;0.1188;3.8633;
1210.5000;0.1188;3.8658;
1210.8000;0.1164;3.8504;
1211.1000;0.1172;3.8530;
1211.4000;0.1213;3.8607;
1211.7000;0.1148;3.8402;
1212.0000;0.1188;3.8479;
1212.3000;0.1172;3.8504;
1212.6000;0.1197;3.8633;
1212.9000;0.1197;3.8633;
1213.2000;0.1164;3.8581;
1213.5000;0.1180;3.8633;
1213.8000;0.1197;3.8658;
1214.1000;0.1180;3.8658;
1214.4000;0.1066;3.8350;
1214.7000;0.1188;3.8633;
1215.0000;0.1172;3.8633;
1215.3000;0.1197;3.8684;
1215.6000;0.1188;3.8633;
1215.9000;0.1180;3.8556;
1216.2000;0.1197;3.8607;
1216.5000;0.1188;3.8633;
1216.8000;0.1188;3.8530;
1217.1000;0.1197;3.8556;
1217.4000;0.1172;3.8479;
1217.7000;0.1164;3.8453;
1218.0000;0.1205;3.8581;
1218.3000;0.1172;3.8504;
1218.6000;0.1156;3.8479;
1218.9000;0.1359;3.8966;
1219.2000;0.1188;3.8530;
1219.5000;0.1197;3.8479;
1219.8000;0.1197;3.8504;
1220.1000;0.1074;3.8145;
1220.4000;0.1172;3.8453;
1220.7000;0.1197;3.8402;
1221.0000;0.1188;3.8402;
1221.3000;0.1172;3.8402;
1221.6000;0.1262;3.8607;
1221.9000;0.1188;3.8376;
1222.2000;0.1188;3.8427;
1222.5000;0.1148;3.8299;
1222.8000;0.1197;3.8402;
1223.1000;0.1156;3.8222;
1223.4000;0.1278;3.8607;
1223.7000;0.1172;3.8325;
1224.0000;0.1180;3.8376;
1224.3000;0.1188;3.8402;
1224.6000;0.1205;3.8504;
1224.9000;0.1172;3.8350;
1225.2000;0.1172;3.8299;
1225.5000;0.1172;3.8376;
1225.8000;0.1188;3.8453;
1226.1000;0.1197;3.8376;
1226.4000;0.1156;3.8325;
1226.7000;0.1164;3.8197;
1227.0000;0.1164;3.8248;
1227.3000;0.1180;3.8350;
1227.6000;0.1164;3.8325;
1227.9000;0.1172;3.8376;
1228.2000;0.1188;3.8427;
1228.5000;0.1197;3.8479;
1228.8000;0.1180;3.8479;
1229.1000;0.1140;3.8350;
1229.4000;0.1245;3.8684;
1229.7000;0.1188;3.8530;
1230.0000;0.1115;3.8325;
1230.3000;0.1172;3.8556;
1230.6000;0.1197;3.8581;
1230.9000;0.1180;3.8530;
1231.2000;0.1180;3.8530;
1231.5000;0.1172;3.8479;
1231.8000;0.1180;3.8504;
1232.1000;0.1188;3.8556;
1232.4000;0.1172;3.8479;
1232.7000;0.1188;3.8530;
1233.0000;0.1197;3.8607;
1233.3000;0.1180;3.8530;
1233.6000;0.1213;3.8607;
1233.9000;0.1205;3.8581;
1234.2000;0.1172;3.8376;
1234.5000;0.1180;3.8350;
1234.8000;0.1180;3.8273;
1235.1000;0.1188;3.8273;
1235.4000;0.1172;3.8376;
1235.7000;0.1197;3.8479;
1236.0000;0.1172;3.8402;
1236.3000;0.1188;3.8325;
1236.6000;0.1172;3.8171;
1236.9000;0.1180;3.8197;
1237.2000;0.1197;3.8299;
1237.5000;0.1180;3.8248;
1237.8000;0.1172;3.8299;
1238.1000;0.1180;3.8350;
1238.4000;0.1188;3.8376;
1238.7000;0.1213;3.8453;
1239.0000;0.1164;3.8350;
1239.3000;0.1197;3.8453;
1239.6000;0.1172;3.8530;
1239.9000;0.1197;3.8556;
1240.2000;0.1180;3.8581;
1240.5000;0.1148;3.8479;
1240.8000;0.1197;3.8607;
1241.1000;0.1197;3.8607;
1241.4000;0.1180;3.8556;
1241.7000;0.1286;3.8838;
1242.0000;0.1180;3.8581;
1242.3000;0.1245;3.8710;
1242.6000;0.1172;3.8376;
1242.9000;0.1180;3.8376;
1243.2000;0.1180;3.8427;
1243.5000;0.1156;3.8427;
1243.8000;0.1180;3.8453;
1244.1000;0.1172;3.8479;
1244.4000;0.1164;3.8427;
1244.7000;0.1188;3.8453;
1245.0000;0.1188;3.8504;
1245.3000;0.1311;3.8889;
1245.6000;0.1180;3.8581;
1245.9000;0.1180;3.8530;
1246.2000;0.1197;3.8504;
1246.5000;0.1172;3.8427;
1246.8000;0.1164;3.8504;
1247.1000;0.1213;3.8530;
1247.4000;0.1172;3.8453;
1247.7000;0.1188;3.8530;
1248.0000;0.1197;3.8530;
1248.3000;0.1172;3.8453;
1248.6000;0.1197;3.8350;
1248.9000;0.1180;3.8325;
1249.2000;0.1164;3.8350;
1249.5000;0.1205;3.8427;
1249.8000;0.1180;3.8402;
1250.1000;0.1197;3.8427;
1250.4000;0.1180;3.8427;
1250.7000;0.1180;3.8479;
1251.0000;0.1205;3.8427;
1251.3000;0.1188;3.8273;
1251.6000;0.1172;3.8222;
1251.9000;0.1188;3.8273;
1252.2000;0.1188;3.8222;
1252.5000;0.1180;3.8222;
1252.8000;0.1164;3.8197;
1253.1000;0.1172;3.8068;
1253.4000;0.1156;3.8094;
1253.7000;0.1213;3.8273;
1254.0000;0.1237;3.8325;
1254.3000;0.1205;3.8222;
1254.6000;0.1188;3.8068;
1254.9000;0.1180;3.8145;
1255.2000;0.1197;3.8222;
1255.5000;0.1221;3.8325;
1255.8000;0.1172;3.8299;
1256.1000;0.1188;3.8350;
1256.4000;0.1140;3.8222;
1256.7000;0.1221;3.8376;
1257.0000;0.1164;3.8273;
1257.3000;0.1140;3.8197;
1257.6000;0.1278;3.8530;
1257.9000;0.1205;3.8325;
1258.2000;0.1197;3.8325;
1258.5000;0.1197;3.8376;
1258.8000;0.1205;3.8453;
1259.1000;0.1197;3.8402;
1259.4000;0.1156;3.8376;
1259.7000;0.1180;3.8427;
1260.0000;0.1180;3.8402;
1260.3000;0.1172;3.8299;
1260.6000;0.1180;3.8273;
1260.9000;0.1180;3.8350;
1261.2000;0.1188;3.8453;
1261.5000;0.1180;3.8453;
1261.8000;0.1188;3.8504;
1262.1000;0.1197;3.8504;
1262.4000;0.1180;3.8453;
1262.7000;0.1197;3.8504;
1263.0000;0.1205;3.8658;
1263.3000;0.1188;3.8607;
1263.6000;0.1180;3.8607;
1263.9000;0.1188;3.8633;
1264.2000;0.1205;3.8530;
1264.5000;0.1197;3.8427;
1264.8000;0.1221;3.8530;
1265.1000;0.1164;3.8376;
1265.4000;0.1148;3.8299;
1265.7000;0.1197;3.8325;
1266.0000;0.1172;3.8197;
1266.3000;0.1237;3.8402;
1266.6000;0.1197;3.8273;
1266.9000;0.1180;3.8248;
1267.2000;0.1180;3.8299;
1267.5000;0.1197;3.8325;
1267.8000;0.1213;3.8427;
1268.1000;0.1172;3.8376;
1268.4000;0.1180;3.8376;
1268.7000;0.1197;3.8453;
1269.0000;0.1188;3.8479;
1269.3000;0.1278;3.8684;
1269.6000;0.1188;3.8427;
1269.9000;0.1180;3.8427;
1270.2000;0.1213;3.8607;
1270.5000;0.1197;3.8556;
1270.8000;0.1197;3.8581;
1271.1000;0.1172;3.8530;
1271.4000;0.1156;3.8453;
1271.7000;0.1164;3.8556;
1272.0000;0.1180;3.8556;
1272.3000;0.1188;3.8504;
1272.6000;0.1180;3.8479;
1272.9000;0.1197;3.8556;
1273.2000;0.1188;3.8556;
1273.5000;0.1172;3.8504;
1273.8000;0.1188;3.8530;
1274.1000;0.1180;3.8453;
1274.4000;0.1164;3.8376;
1274.7000;0.1188;3.8453;
1275.0000;0.1180;3.8402;
1275.3000;0.1205;3.8479;
1275.6000;0.1180;3.8427;
1275.9000;0.1172;3.8427;
1276.2000;0.1205;3.8479;
1276.5000;0.1180;3.8427;
1276.8000;0.1140;3.8376;
1277.1000;0.1164;3.8504;
1277.4000;0.1188;3.8479;
1277.7000;0.1180;3.8453;
1278.0000;0.1172;3.8453;
1278.3000;0.1164;3.8350;
1278.6000;0.1140;3.8248;
1278.9000;0.1172;3.8376;
1279.2000;0.1197;3.8376;
1279.5000;0.1164;3.8273;
1279.8000;0.1123;3.8248;
1280.1000;0.1148;3.8350;
1280.4000;0.1156;3.8350;
1280.7000;0.1172;3.8402;
1281.0000;0.1164;3.8427;
1281.3000;0.1148;3.8427;
1281.6000;0.1140;3.8530;
1281.9000;0.1205;3.8581;
1282.2000;0.1172;3.8581;
1282.5000;0.1172;3.8556;
1282.8000;0.1180;3.8427;
1283.1000;0.1180;3.8427;
1283.4000;0.1197;3.8453;
1283.7000;0.1197;3.8427;
1284.0000;0.1180;3.8504;
1284.3000;0.1213;3.8453;
1284.6000;0.1188;3.8453;
1284.9000;0.1197;3.8479;
1285.2000;0.1188;3.8402;
1285.5000;0.1172;3.8376;
1285.8000;0.1197;3.8427;
1286.1000;0.1156;3.8325;
1286.4000;0.1221;3.8350;
1286.7000;0.1066;3.8017;
1287.0000;0.1197;3.8376;
1287.3000;0.1156;3.8325;
1287.6000;0.1156;3.8248;
1287.9000;0.1197;3.8325;
1288.2000;0.1172;3.8273;
1288.5000;0.1180;3.8248;
1288.8000;0.1197;3.8222;
1289.1000;0.1180;3.8248;
1289.4000;0.1188;3.8299;
1289.7000;0.1221;3.8427;
1290.0000;0.1205;3.8479;
1290.3000;0.1229;3.8453;
1290.6000;0.1197;3.8453;
1290.9000;0.1197;3.8504;
1291.2000;0.1205;3.8556;
1291.5000;0.1205;3.8479;
1291.8000;0.1180;3.8325;
1292.1000;0.1188;3.8402;
1292.4000;0.1131;3.8299;
1292.7000;0.1197;3.8453;
1293.0000;0.1180;3.8402;
1293.3000;0.1205;3.8581;
1293.6000;0.1213;3.8530;
1293.9000;0.1172;3.8427;
1294.2000;0.1156;3.8325;
1294.5000;0.1197;3.8479;
1294.8000;0.1188;3.8504;
1295.1000;0.1197;3.8607;
1295.4000;0.1123;3.8402;
1295.7000;0.1188;3.8556;
1296.0000;0.1188;3.8581;
1296.3000;0.1188;3.8556;
1296.6000;0.1180;3.8556;
1296.9000;0.1123;3.8427;
1297.2000;0.1188;3.8633;
1297.5000;0.1172;3.8658;
1297.8000;0.1156;3.8607;
1298.1000;0.1180;3.8633;
1298.4000;0.1197;3.8633;
1298.7000;0.1066;3.8248;
1299.0000;0.1188;3.8479;
1299.3000;0.1188;3.8453;
1299.6000;0.1188;3.8479;
1299.9000;0.1197;3.8427;
1300.2000;0.1188;3.8402;
1300.5000;0.1180;3.8402;
1300.8000;0.1164;3.8325;
1301.1000;0.1180;3.8453;
1301.4000;0.1205;3.8556;
1301.7000;0.1180;3.8581;
1302.0000;0.1115;3.8453;
1302.3000;0.1197;3.8581;
1302.6000;0.1066;3.8171;
1302.9000;0.1197;3.8556;
1303.2000;0.1237;3.8658;
1303.5000;0.1148;3.8427;
1303.8000;0.1180;3.8427;
1304.1000;0.1254;3.8581;
1304.4000;0.1180;3.8350;
1304.7000;0.1180;3.8376;
1305.0000;0.1188;3.8376;
1305.3000;0.1205;3.8427;
1305.6000;0.1213;3.8402;
1305.9000;0.1205;3.8479;
1306.2000;0.1197;3.8453;
1306.5000;0.1205;3.8530;
1306.8000;0.1188;3.8504;
1307.1000;0.1180;3.8453;
1307.4000;0.1180;3.8530;
1307.7000;0.1197;3.8453;
1308.0000;0.1164;3.8376;
1308.3000;0.1172;3.8556;
1308.6000;0.1197;3.8504;
1308.9000;0.1123;3.8376;
1309.2000;0.1180;3.8581;
1309.5000;0.1197;3.8658;
1309.8000;0.1197;3.8710;
1310.1000;0.1180;3.8710;
1310.4000;0.1188;3.8607;
1310.7000;0.1188;3.8607;
1311.0000;0.1164;3.8504;
1311.3000;0.1205;3.8556;
1311.6000;0.1188;3.8556;
1311.9000;0.1245;3.8684;
1312.2000;0.1237;3.8530;
1312.5000;0.1197;3.8453;
1312.8000;0.1197;3.8479;
1313.1000;0.1278;3.8761;
1313.4000;0.1188;3.8479;
1313.7000;0.1156;3.8453;
1314.0000;0.1213;3.8607;
1314.3000;0.1180;3.8633;
1314.6000;0.1197;3.8581;
1314.9000;0.1164;3.8581;
1315.2000;0.1254;3.8812;
1315.5000;0.1148;3.8504;
1315.8000;0.1221;3.8607;
1316.1000;0.1164;3.8479;
1316.4000;0.1197;3.8581;
1316.7000;0.1188;3.8504;
1317.0000;0.1205;3.8504;
1317.3000;0.1180;3.8607;
1317.6000;0.1197;3.8633;
1317.9000;0.1172;3.8556;
1318.2000;0.1180;3.8530;
1318.5000;0.1205;3.8479;
1318.8000;0.1180;3.8402;
1319.1000;0.1172;3.8376;
1319.4000;0.1180;3.8402;
1319.7000;0.1197;3.8427;
1320.0000;0.1172;3.8427;
1320.3000;0.1197;3.8530;
1320.6000;0.1164;3.8402;
1320.9000;0.1197;3.8453;
1321.2000;0.1172;3.8350;
1321.5000;0.1172;3.8479;
1321.8000;0.1221;3.8633;
1322.1000;0.1197;3.8556;
1322.4000;0.1197;3.8453;
1322.7000;0.1180;3.8556;
1323.0000;0.1180;3.8556;
1323.3000;0.1172;3.8530;
1323.6000;0.1091;3.8273;
1323.9000;0.1188;3.8504;
1324.2000;0.1172;3.8402;
1324.5000;0.1180;3.8376;
1324.8000;0.1197;3.8479;
1325.1000;0.1180;3.8556;
1325.4000;0.1237;3.8812;
1325.7000;0.1172;3.8633;
1326.0000;0.1197;3.8658;
1326.3000;0.1188;3.8607;
1326.6000;0.1188;3.8581;
1326.9000;0.1197;3.8633;
1327.2000;0.1156;3.8479;
1327.5000;0.1213;3.8504;
1327.8000;0.1131;3.8273;
1328.1000;0.1245;3.8607;
1328.4000;0.1205;3.8530;
1328.7000;0.1197;3.8453;
1329.0000;0.1197;3.8504;
1329.3000;0.1172;3.8350;
1329.6000;0.1188;3.8479;
1329.9000;0.1180;3.8479;
1330.2000;0.1197;3.8453;
1330.5000;0.1156;3.8402;
1330.8000;0.1172;3.8479;
1331.1000;0.1197;3.8530;
1331.4000;0.1156;3.8453;
1331.7000;0.1188;3.8530;
1332.0000;0.1123;3.8350;
1332.3000;0.1180;3.8607;
1332.6000;0.1180;3.8556;
1332.9000;0.1148;3.8479;
1333.2000;0.1188;3.8633;
1333.5000;0.1188;3.8581;
1333.8000;0.1237;3.8684;
1334.1000;0.1188;3.8581;
1334.4000;0.1131;3.8530;
1334.7000;0.1074;3.8222;
1335.0000;0.1213;3.8581;
1335.3000;0.1156;3.8350;
1335.6000;0.1164;3.8350;
1335.9000;0.1156;3.8350;
1336.2000;0.1205;3.8607;
1336.5000;0.1148;3.8479;
1336.8000;0.1188;3.8581;
1337.1000;0.1221;3.8684;
1337.4000;0.1197;3.8658;
1337.7000;0.1180;3.8530;
1338.0000;0.1188;3.8530;
1338.3000;0.1188;3.8556;
1338.6000;0.1197;3.8581;
1338.9000;0.1221;3.8684;
1339.2000;0.1180;3.8581;
1339.5000;0.1172;3.8581;
1339.8000;0.1205;3.8658;
1340.1000;0.1156;3.8556;
1340.4000;0.1188;3.8710;
1340.7000;0.1172;3.8607;
1341.0000;0.1188;3.8684;
1341.3000;0.1188;3.8684;
1341.6000;0.1213;3.8787;
1341.9000;0.1188;3.8735;
1342.2000;0.1180;3.8761;
1342.5000;0.1197;3.8761;
1342.8000;0.1180;3.8607;
1343.1000;0.1188;3.8453;
1343.4000;0.1188;3.8504;
1343.7000;0.1205;3.8556;
1344.0000;0.1164;3.8504;
1344.3000;0.1245;3.8684;
1344.6000;0.1180;3.8453;
1344.9000;0.1188;3.8453;
1345.2000;0.1197;3.8479;
1345.5000;0.1172;3.8376;
1345.8000;0.1083;3.8145;
1346.1000;0.1197;3.8402;
1346.4000;0.1188;3.8325;
1346.7000;0.1205;3.8273;
1347.0000;0.1164;3.8094;
1347.3000;0.1164;3.8145;
1347.6000;0.1205;3.8299;
1347.9000;0.1197;3.8299;
1348.2000;0.1180;3.8325;
1348.5000;0.1140;3.8145;
1348.8000;0.1188;3.8273;
1349.1000;0.1148;3.8273;
1349.4000;0.1213;3.8530;
1349.7000;0.1213;3.8453;
1350.0000;0.1164;3.8402;
1350.3000;0.1188;3.8479;
1350.6000;0.1156;3.8248;
1350.9000;0.1188;3.8248;
1351.2000;0.1188;3.8197;
1351.5000;0.1140;3.8094;
1351.8000;0.1180;3.8299;
1352.1000;0.1148;3.8273;
1352.4000;0.1188;3.8350;
1352.7000;0.1197;3.8453;
1353.0000;0.1172;3.8325;
1353.3000;0.1197;3.8479;
1353.6000;0.1188;3.8530;
1353.9000;0.1188;3.8479;
1354.2000;0.1188;3.8581;
1354.5000;0.1172;3.8581;
1354.8000;0.1180;3.8581;
1355.1000;0.1197;3.8530;
1355.4000;0.1188;3.8479;
1355.7000;0.1164;3.8427;
1356.0000;0.1164;3.8376;
1356.3000;0.1172;3.8453;
1356.6000;0.1197;3.8530;
1356.9000;0.1197;3.8530;
1357.2000;0.1180;3.8453;
1357.5000;0.1172;3.8453;
1357.8000;0.1180;3.8556;
1358.1000;0.1205;3.8556;
1358.4000;0.1099;3.8299;
1358.7000;0.1197;3.8658;
1359.0000;0.1213;3.8607;
1359.3000;0.1188;3.8633;
1359.6000;0.1188;3.8658;
1359.9000;0.1172;3.8581;
1360.2000;0.1188;3.8556;
1360.5000;0.1156;3.8427;
1360.8000;0.1131;3.8453;
1361.1000;0.1172;3.8504;
1361.4000;0.1172;3.8453;
1361.7000;0.1229;3.8633;
1362.0000;0.1180;3.8581;
1362.3000;0.1197;3.8530;
1362.6000;0.1180;3.8504;
1362.9000;0.1197;3.8581;
1363.2000;0.1172;3.8479;
1363.5000;0.1099;3.8222;
1363.8000;0.1180;3.8453;
1364.1000;0.1197;3.8607;
1364.4000;0.1245;3.8761;
1364.7000;0.1197;3.8607;
1365.0000;0.1172;3.8556;
1365.3000;0.1205;3.8658;
1365.6000;0.1245;3.8633;
1365.9000;0.1180;3.8479;
1366.2000;0.1172;3.8504;
1366.5000;0.1237;3.8633;
1366.8000;0.1180;3.8556;
1367.1000;0.1180;3.8581;
1367.4000;0.1197;3.8607;
1367.7000;0.1197;3.8607;
1368.0000;0.1205;3.8684;
1368.3000;0.1188;3.8710;
1368.6000;0.1164;3.8556;
1368.9000;0.1221;3.8787;
1369.2000;0.1172;3.8710;
1369.5000;0.1188;3.8761;
1369.8000;0.1188;3.8684;
1370.1000;0.1188;3.8684;
1370.4000;0.1156;3.8556;
1370.7000;0.1156;3.8581;
1371.0000;0.1205;3.8658;
1371.3000;0.1180;3.8633;
1371.6000;0.1164;3.8581;
1371.9000;0.1205;3.8684;
1372.2000;0.1172;3.8581;
1372.5000;0.1180;3.8556;
1372.8000;0.1164;3.8581;
1373.1000;0.1205;3.8607;
1373.4000;0.1197;3.8556;
1373.7000;0.1188;3.8530;
1374.0000;0.1180;3.8479;
1374.3000;0.1197;3.8504;
1374.6000;0.1172;3.8479;
1374.9000;0.1254;3.8735;
1375.2000;0.1180;3.8530;
1375.5000;0.1172;3.8504;
1375.8000;0.1205;3.8556;
1376.1000;0.1188;3.8504;
1376.4000;0.1172;3.8453;
1376.7000;0.1197;3.8530;
1377.0000;0.1188;3.8453;
1377.3000;0.1197;3.8350;
1377.6000;0.1164;3.8299;
1377.9000;0.1188;3.8402;
1378.2000;0.1140;3.8222;
1378.5000;0.1188;3.8402;
1378.8000;0.1164;3.8402;
1379.1000;0.1172;3.8479;
1379.4000;0.1188;3.8504;
1379.7000;0.1213;3.8581;
1380.0000;0.1188;3.8633;
1380.3000;0.1188;3.8530;
1380.6000;0.1213;3.8556;
1380.9000;0.1188;3.8479;
1381.2000;0.1188;3.8530;
1381.5000;0.1164;3.8504;
1381.8000;0.1172;3.8556;
1382.1000;0.1188;3.8556;
1382.4000;0.1180;3.8479;
1382.7000;0.1188;3.8504;
1383.0000;0.1180;3.8402;
1383.3000;0.1188;3.8504;
1383.6000;0.1180;3.8427;
1383.9000;0.1180;3.8427;
1384.2000;0.1180;3.8427;
1384.5000;0.1245;3.8607;
1384.8000;0.1164;3.8427;
1385.1000;0.1180;3.8427;
1385.4000;0.1172;3.8376;
1385.7000;0.1058;3.8120;
1386.0000;0.1205;3.8530;
1386.3000;0.1188;3.8453;
1386.6000;0.1286;3.8812;
1386.9000;0.1164;3.8427;
1387.2000;0.1197;3.8427;
1387.5000;0.1180;3.8504;
1387.8000;0.1172;3.8530;
1388.1000;0.1180;3.8556;
1388.4000;0.1180;3.8530;
1388.7000;0.1148;3.8427;
1389.0000;0.1172;3.8530;
1389.3000;0.1188;3.8504;
1389.6000;0.1262;3.8710;
1389.9000;0.1188;3.8453;
1390.2000;0.1197;3.8453;
1390.5000;0.1180;3.8325;
1390.8000;0.1197;3.8299;
1391.1000;0.1197;3.8248;
1391.4000;0.1180;3.8197;
1391.7000;0.1156;3.8197;
1392.0000;0.1188;3.8350;
1392.3000;0.1180;3.8248;
1392.6000;0.1172;3.8248;
1392.9000;0.1172;3.8427;
1393.2000;0.1164;3.8453;
1393.5000;0.1156;3.8427;
1393.8000;0.1172;3.8453;
1394.1000;0.1172;3.8504;
1394.4000;0.1164;3.8504;
1394.7000;0.1156;3.8402;
1395.0000;0.1188;3.8530;
1395.3000;0.1205;3.8530;
1395.6000;0.1197;3.8479;
1395.9000;0.1188;3.8581;
1396.2000;0.1197;3.8633;
1396.5000;0.1156;3.8633;
1396.8000;0.1172;3.8684;
1397.1000;0.1172;3.8658;
1397.4000;0.1172;3.8684;
1397.7000;0.1180;3.8735;
1398.0000;0.1180;3.8761;
1398.3000;0.1156;3.8684;
1398.6000;0.1180;3.8684;
1398.9000;0.1172;3.8581;
1399.2000;0.1066;3.8273;
1399.5000;0.1188;3.8607;
1399.8000;0.1237;3.8735;
