time/ms;Fluo/V;P700 deltaI/I x10³;
-199.8000;0.1205;3.8633;
-199.5000;0.1156;3.8504;
-199.2000;0.1188;3.8607;
-198.9000;0.1213;3.8607;
-198.6000;0.1213;3.8581;
-198.3000;0.1197;3.8453;
-198.0000;0.1205;3.8504;
-197.7000;0.1213;3.8556;
-197.4000;0.1229;3.8530;
-197.1000;0.1213;3.8556;
-196.8000;0.1188;3.8581;
-196.5000;0.1205;3.8556;
-196.2000;0.1197;3.8530;
-195.9000;0.1197;3.8556;
-195.6000;0.1197;3.8658;
-195.3000;0.1180;3.8633;
-195.0000;0.1197;3.8607;
-194.7000;0.1197;3.8581;
-194.4000;0.1197;3.8658;
-194.1000;0.1180;3.8607;
-193.8000;0.1294;3.8940;
-193.5000;0.1213;3.8787;
-193.2000;0.1197;3.8735;
-192.9000;0.1213;3.8710;
-192.6000;0.1213;3.8684;
-192.3000;0.1221;3.8735;
-192.0000;0.1188;3.8710;
-191.7000;0.1197;3.8607;
-191.4000;0.1140;3.8402;
-191.1000;0.1205;3.8556;
-190.8000;0.1205;3.8556;
-190.5000;0.1245;3.8735;
-190.2000;0.1213;3.8633;
-189.9000;0.1205;3.8658;
-189.6000;0.1213;3.8556;
-189.3000;0.1221;3.8633;
-189.0000;0.1205;3.8633;
-188.7000;0.1131;3.8453;
-188.4000;0.1197;3.8658;
-188.1000;0.1205;3.8710;
-187.8000;0.1205;3.8735;
-187.5000;0.1221;3.8812;
-187.2000;0.1213;3.8787;
-186.9000;0.1197;3.8761;
-186.6000;0.1270;3.8966;
-186.3000;0.1205;3.8787;
-186.0000;0.1197;3.8735;
-185.7000;0.1123;3.8427;
-185.4000;0.1172;3.8607;
-185.1000;0.1213;3.8658;
-184.8000;0.1205;3.8556;
-184.5000;0.1205;3.8479;
-184.2000;0.1131;3.8325;
-183.9000;0.1213;3.8556;
-183.6000;0.1213;3.8530;
-183.3000;0.1213;3.8530;
-183.0000;0.1221;3.8607;
-182.7000;0.1237;3.8581;
-182.4000;0.1213;3.8556;
-182.1000;0.1213;3.8581;
-181.8000;0.1213;3.8658;
-181.5000;0.1205;3.8710;
-181.2000;0.1213;3.8735;
-180.9000;0.1213;3.8735;
-180.6000;0.1197;3.8710;
-180.3000;0.1107;3.8453;
-180.0000;0.1205;3.8812;
-179.7000;0.1205;3.8863;
-179.4000;0.1180;3.8863;
-179.1000;0.1099;3.8556;
-178.8000;0.1188;3.8915;
-178.5000;0.1213;3.8966;
-178.2000;0.1335;3.9325;
-177.9000;0.1197;3.8889;
-177.6000;0.1205;3.8889;
-177.3000;0.1205;3.8915;
-177.0000;0.1213;3.8787;
-176.7000;0.1197;3.8735;
-176.4000;0.1197;3.8684;
-176.1000;0.1205;3.8658;
-175.8000;0.1221;3.8735;
-175.5000;0.1237;3.8735;
-175.2000;0.1148;3.8581;
-174.9000;0.1229;3.8812;
-174.6000;0.1188;3.8684;
-174.3000;0.1172;3.8658;
-174.0000;0.1188;3.8761;
-173.7000;0.1205;3.8761;
-173.4000;0.1197;3.8710;
-173.1000;0.1172;3.8581;
-172.8000;0.1205;3.8710;
-172.5000;0.1262;3.8812;
-172.2000;0.1213;3.8607;
-171.9000;0.1229;3.8787;
-171.6000;0.1229;3.8838;
-171.3000;0.1237;3.8838;
-171.0000;0.1221;3.8761;
-170.7000;0.1213;3.8735;
-170.4000;0.1221;3.8684;
-170.1000;0.1278;3.8812;
-169.8000;0.1213;3.8658;
-169.5000;0.1197;3.8607;
-169.2000;0.1245;3.8710;
-168.9000;0.1197;3.8530;
-168.6000;0.1229;3.8684;
-168.3000;0.1172;3.8556;
-168.0000;0.1229;3.8684;
-167.7000;0.1213;3.8581;
-167.4000;0.1180;3.8479;
-167.1000;0.1188;3.8427;
-166.8000;0.1213;3.8504;
-166.5000;0.1229;3.8504;
-166.2000;0.1229;3.8530;
-165.9000;0.1188;3.8453;
-165.6000;0.1229;3.8427;
-165.3000;0.1213;3.8402;
-165.0000;0.1205;3.8479;
-164.7000;0.1205;3.8479;
-164.4000;0.1229;3.8556;
-164.1000;0.1197;3.8504;
-163.8000;0.1156;3.8427;
-163.5000;0.1221;3.8658;
-163.2000;0.1197;3.8530;
-162.9000;0.1205;3.8581;
-162.6000;0.1205;3.8633;
-162.3000;0.1245;3.8710;
-162.0000;0.1197;3.8607;
-161.7000;0.1197;3.8581;
-161.4000;0.1197;3.8530;
-161.1000;0.1213;3.8556;
-160.8000;0.1197;3.8607;
-160.5000;0.1172;3.8556;
-160.2000;0.1180;3.8530;
-159.9000;0.1229;3.8710;
-159.6000;0.1213;3.8607;
-159.3000;0.1237;3.8735;
-159.0000;0.1213;3.8684;
-158.7000;0.1188;3.8530;
-158.4000;0.1213;3.8633;
-158.1000;0.1197;3.8479;
-157.8000;0.1205;3.8504;
-157.5000;0.1205;3.8581;
-157.2000;0.1205;3.8607;
-156.9000;0.1213;3.8633;
-156.6000;0.1205;3.8710;
-156.3000;0.1180;3.8684;
-156.0000;0.1213;3.8761;
-155.7000;0.1213;3.8735;
-155.4000;0.1237;3.8838;
-155.1000;0.1148;3.8607;
-154.8000;0.1083;3.8376;
-154.5000;0.1213;3.8735;
-154.2000;0.1270;3.8915;
-153.9000;0.1180;3.8658;
-153.6000;0.1197;3.8684;
-153.3000;0.1197;3.8607;
-153.0000;0.1205;3.8684;
-152.7000;0.1229;3.8761;
-152.4000;0.1180;3.8658;
-152.1000;0.1197;3.8658;
-151.8000;0.1205;3.8658;
-151.5000;0.1229;3.8684;
-151.2000;0.1213;3.8607;
-150.9000;0.1205;3.8581;
-150.6000;0.1197;3.8684;
-150.3000;0.1213;3.8684;
-150.0000;0.1221;3.8684;
-149.7000;0.1213;3.8684;
-149.4000;0.1188;3.8607;
-149.1000;0.1188;3.8556;
-148.8000;0.1205;3.8607;
-148.5000;0.1197;3.8581;
-148.2000;0.1213;3.8735;
-147.9000;0.1197;3.8710;
-147.6000;0.1205;3.8838;
-147.3000;0.1188;3.8787;
-147.0000;0.1286;3.9197;
-146.7000;0.1188;3.8966;
-146.4000;0.1221;3.8915;
-146.1000;0.1221;3.8863;
-145.8000;0.1229;3.8838;
-145.5000;0.1197;3.8787;
-145.2000;0.1213;3.8787;
-144.9000;0.1205;3.8735;
-144.6000;0.1213;3.8658;
-144.3000;0.1188;3.8633;
-144.0000;0.1197;3.8684;
-143.7000;0.1229;3.8761;
-143.4000;0.1197;3.8761;
-143.1000;0.1197;3.8607;
-142.8000;0.1180;3.8479;
-142.5000;0.1205;3.8530;
-142.2000;0.1197;3.8530;
-141.9000;0.1205;3.8504;
-141.6000;0.1205;3.8479;
-141.3000;0.1205;3.8530;
-141.0000;0.1197;3.8556;
-140.7000;0.1229;3.8556;
-140.4000;0.1205;3.8556;
-140.1000;0.1221;3.8581;
-139.8000;0.1205;3.8581;
-139.5000;0.1205;3.8633;
-139.2000;0.1221;3.8684;
-138.9000;0.1335;3.9043;
-138.6000;0.1221;3.8735;
-138.3000;0.1205;3.8684;
-138.0000;0.1197;3.8658;
-137.7000;0.1205;3.8658;
-137.4000;0.1180;3.8504;
-137.1000;0.1319;3.8940;
-136.8000;0.1213;3.8633;
-136.5000;0.1237;3.8710;
-136.2000;0.1294;3.8889;
-135.9000;0.1205;3.8607;
-135.6000;0.1213;3.8530;
-135.3000;0.1229;3.8658;
-135.0000;0.1197;3.8530;
-134.7000;0.1229;3.8607;
-134.4000;0.1270;3.8684;
-134.1000;0.1213;3.8556;
-133.8000;0.1213;3.8581;
-133.5000;0.1164;3.8556;
-133.2000;0.1229;3.8633;
-132.9000;0.1205;3.8530;
-132.6000;0.1294;3.8940;
-132.3000;0.1188;3.8581;
-132.0000;0.1213;3.8684;
-131.7000;0.1221;3.8684;
-131.4000;0.1213;3.8607;
-131.1000;0.1140;3.8402;
-130.8000;0.1205;3.8684;
-130.5000;0.1148;3.8556;
-130.2000;0.1188;3.8735;
-129.9000;0.1205;3.8735;
-129.6000;0.1205;3.8735;
-129.3000;0.1197;3.8710;
-129.0000;0.1197;3.8607;
-128.7000;0.1205;3.8581;
-128.4000;0.1245;3.8633;
-128.1000;0.1221;3.8581;
-127.8000;0.1221;3.8530;
-127.5000;0.1197;3.8402;
-127.2000;0.1180;3.8402;
-126.9000;0.1213;3.8479;
-126.6000;0.1221;3.8504;
-126.3000;0.1180;3.8427;
-126.0000;0.1205;3.8530;
-125.7000;0.1197;3.8479;
-125.4000;0.1180;3.8453;
-125.1000;0.1213;3.8607;
-124.8000;0.1188;3.8530;
-124.5000;0.1205;3.8530;
-124.2000;0.1213;3.8581;
-123.9000;0.1213;3.8633;
-123.6000;0.1188;3.8607;
-123.3000;0.1229;3.8684;
-123.0000;0.1180;3.8530;
-122.7000;0.1229;3.8658;
-122.4000;0.1221;3.8556;
-122.1000;0.1197;3.8556;
-121.8000;0.1254;3.8710;
-121.5000;0.1197;3.8530;
-121.2000;0.1188;3.8530;
-120.9000;0.1123;3.8402;
-120.6000;0.1205;3.8658;
-120.3000;0.1237;3.8787;
-120.0000;0.1229;3.8581;
-119.7000;0.1188;3.8453;
-119.4000;0.1205;3.8530;
-119.1000;0.1221;3.8556;
-118.8000;0.1205;3.8504;
-118.5000;0.1197;3.8581;
-118.2000;0.1221;3.8658;
-117.9000;0.1221;3.8607;
-117.6000;0.1359;3.9017;
-117.3000;0.1213;3.8633;
-117.0000;0.1205;3.8684;
-116.7000;0.1197;3.8658;
-116.4000;0.1229;3.8787;
-116.1000;0.1237;3.8838;
-115.8000;0.1213;3.8735;
-115.5000;0.1180;3.8684;
-115.2000;0.1205;3.8761;
-114.9000;0.1213;3.8735;
-114.6000;0.1270;3.8838;
-114.3000;0.1213;3.8607;
-114.0000;0.1197;3.8556;
-113.7000;0.1188;3.8479;
-113.4000;0.1221;3.8530;
-113.1000;0.1221;3.8581;
-112.8000;0.1197;3.8530;
-112.5000;0.1221;3.8556;
-112.2000;0.1197;3.8556;
-111.9000;0.1188;3.8530;
-111.6000;0.1213;3.8658;
-111.3000;0.1213;3.8556;
-111.0000;0.1213;3.8556;
-110.7000;0.1237;3.8607;
-110.4000;0.1213;3.8479;
-110.1000;0.1205;3.8530;
-109.8000;0.1188;3.8607;
-109.5000;0.1205;3.8658;
-109.2000;0.1205;3.8710;
-108.9000;0.1197;3.8658;
-108.6000;0.1213;3.8735;
-108.3000;0.1213;3.8812;
-108.0000;0.1205;3.8787;
-107.7000;0.1213;3.8735;
-107.4000;0.1188;3.8633;
-107.1000;0.1180;3.8658;
-106.8000;0.1205;3.8633;
-106.5000;0.1213;3.8607;
-106.2000;0.1205;3.8556;
-105.9000;0.1188;3.8556;
-105.6000;0.1180;3.8504;
-105.3000;0.1180;3.8556;
-105.0000;0.1205;3.8581;
-104.7000;0.1180;3.8581;
-104.4000;0.1156;3.8530;
-104.1000;0.1205;3.8658;
-103.8000;0.1197;3.8684;
-103.5000;0.1197;3.8607;
-103.2000;0.1213;3.8710;
-102.9000;0.1213;3.8787;
-102.6000;0.1197;3.8710;
-102.3000;0.1205;3.8684;
-102.0000;0.1197;3.8633;
-101.7000;0.1213;3.8684;
-101.4000;0.1213;3.8735;
-101.1000;0.1205;3.8710;
-100.8000;0.1213;3.8658;
-100.5000;0.1221;3.8684;
-100.2000;0.1197;3.8530;
-99.9000;0.1229;3.8684;
-99.6000;0.1197;3.8556;
-99.3000;0.1213;3.8633;
-99.0000;0.1229;3.8658;
-98.7000;0.1237;3.8735;
-98.4000;0.1245;3.8658;
-98.1000;0.1107;3.8248;
-97.8000;0.1180;3.8479;
-97.5000;0.1237;3.8735;
-97.2000;0.1221;3.8735;
-96.9000;0.1197;3.8735;
-96.6000;0.1156;3.8530;
-96.3000;0.1205;3.8787;
-96.0000;0.1221;3.8812;
-95.7000;0.1205;3.8761;
-95.4000;0.1229;3.8787;
-95.1000;0.1221;3.8735;
-94.8000;0.1213;3.8607;
-94.5000;0.1180;3.8633;
-94.2000;0.1180;3.8504;
-93.9000;0.1213;3.8556;
-93.6000;0.1115;3.8325;
-93.3000;0.1197;3.8530;
-93.0000;0.1188;3.8479;
-92.7000;0.1221;3.8581;
-92.4000;0.1237;3.8633;
-92.1000;0.1213;3.8607;
-91.8000;0.1221;3.8658;
-91.5000;0.1205;3.8607;
-91.2000;0.1229;3.8633;
-90.9000;0.1197;3.8530;
-90.6000;0.1140;3.8479;
-90.3000;0.1180;3.8684;
-90.0000;0.1197;3.8684;
-89.7000;0.1205;3.8684;
-89.4000;0.1254;3.8838;
-89.1000;0.1164;3.8633;
-88.8000;0.1188;3.8581;
-88.5000;0.1221;3.8607;
-88.2000;0.1148;3.8376;
-87.9000;0.1205;3.8479;
-87.6000;0.1188;3.8581;
-87.3000;0.1188;3.8504;
-87.0000;0.1213;3.8607;
-86.7000;0.1213;3.8607;
-86.4000;0.1213;3.8581;
-86.1000;0.1221;3.8658;
-85.8000;0.1213;3.8607;
-85.5000;0.1197;3.8633;
-85.2000;0.1213;3.8787;
-84.9000;0.1188;3.8710;
-84.6000;0.1213;3.8710;
-84.3000;0.1213;3.8710;
-84.0000;0.1197;3.8658;
-83.7000;0.1197;3.8710;
-83.4000;0.1188;3.8710;
-83.1000;0.1188;3.8710;
-82.8000;0.1213;3.8684;
-82.5000;0.1197;3.8710;
-82.2000;0.1148;3.8530;
-81.9000;0.1197;3.8658;
-81.6000;0.1180;3.8581;
-81.3000;0.1213;3.8710;
-81.0000;0.1205;3.8556;
-80.7000;0.1205;3.8556;
-80.4000;0.1311;3.8838;
-80.1000;0.1140;3.8453;
-79.8000;0.1213;3.8633;
-79.5000;0.1205;3.8633;
-79.2000;0.1123;3.8453;
-78.9000;0.1180;3.8710;
-78.6000;0.1213;3.8684;
-78.3000;0.1205;3.8581;
-78.0000;0.1197;3.8504;
-77.7000;0.1205;3.8479;
-77.4000;0.1205;3.8479;
-77.1000;0.1221;3.8607;
-76.8000;0.1213;3.8581;
-76.5000;0.1205;3.8607;
-76.2000;0.1164;3.8556;
-75.9000;0.1197;3.8633;
-75.6000;0.1221;3.8658;
-75.3000;0.1205;3.8658;
-75.0000;0.1213;3.8710;
-74.7000;0.1197;3.8735;
-74.4000;0.1213;3.8761;
-74.1000;0.1205;3.8787;
-73.8000;0.1148;3.8581;
-73.5000;0.1205;3.8735;
-73.2000;0.1278;3.8940;
-72.9000;0.1213;3.8812;
-72.6000;0.1172;3.8684;
-72.3000;0.1205;3.8684;
-72.0000;0.1262;3.8761;
-71.7000;0.1221;3.8658;
-71.4000;0.1286;3.8915;
-71.1000;0.1213;3.8684;
-70.8000;0.1205;3.8607;
-70.5000;0.1148;3.8427;
-70.2000;0.1188;3.8581;
-69.9000;0.1205;3.8607;
-69.6000;0.1270;3.8889;
-69.3000;0.1254;3.8761;
-69.0000;0.1188;3.8633;
-68.7000;0.1188;3.8607;
-68.4000;0.1270;3.8812;
-68.1000;0.1229;3.8607;
-67.8000;0.1237;3.8581;
-67.5000;0.1197;3.8453;
-67.2000;0.1197;3.8479;
-66.9000;0.1221;3.8504;
-66.6000;0.1221;3.8607;
-66.3000;0.1188;3.8453;
-66.0000;0.1221;3.8530;
-65.7000;0.1221;3.8427;
-65.4000;0.1188;3.8350;
-65.1000;0.1213;3.8453;
-64.8000;0.1213;3.8479;
-64.5000;0.1205;3.8453;
-64.2000;0.1197;3.8453;
-63.9000;0.1221;3.8581;
-63.6000;0.1213;3.8530;
-63.3000;0.1180;3.8530;
-63.0000;0.1262;3.8710;
-62.7000;0.1197;3.8581;
-62.4000;0.1221;3.8710;
-62.1000;0.1197;3.8581;
-61.8000;0.1213;3.8658;
-61.5000;0.1270;3.8787;
-61.2000;0.1205;3.8556;
-60.9000;0.1229;3.8684;
-60.6000;0.1213;3.8607;
-60.3000;0.1197;3.8530;
-60.0000;0.1229;3.8607;
-59.7000;0.1205;3.8453;
-59.4000;0.1213;3.8479;
-59.1000;0.1221;3.8427;
-58.8000;0.1221;3.8504;
-58.5000;0.1188;3.8479;
-58.2000;0.1107;3.8273;
-57.9000;0.1197;3.8556;
-57.6000;0.1205;3.8581;
-57.3000;0.1254;3.8710;
-57.0000;0.1197;3.8581;
-56.7000;0.1197;3.8684;
-56.4000;0.1221;3.8735;
-56.1000;0.1107;3.8402;
-55.8000;0.1197;3.8658;
-55.5000;0.1197;3.8607;
-55.2000;0.1205;3.8684;
-54.9000;0.1237;3.8761;
-54.6000;0.1213;3.8735;
-54.3000;0.1197;3.8684;
-54.0000;0.1197;3.8710;
-53.7000;0.1229;3.8658;
-53.4000;0.1213;3.8581;
-53.1000;0.1237;3.8684;
-52.8000;0.1197;3.8607;
-52.5000;0.1229;3.8684;
-52.2000;0.1237;3.8633;
-51.9000;0.1221;3.8530;
-51.6000;0.1197;3.8581;
-51.3000;0.1237;3.8633;
-51.0000;0.1213;3.8479;
-50.7000;0.1213;3.8427;
-50.4000;0.1213;3.8479;
-50.1000;0.1213;3.8556;
-49.8000;0.1286;3.8710;
-49.5000;0.1205;3.8530;
-49.2000;0.1180;3.8402;
-48.9000;0.1221;3.8376;
-48.6000;0.1270;3.8427;
-48.3000;0.1197;3.8299;
-48.0000;0.1188;3.8376;
-47.7000;0.1148;3.8222;
-47.4000;0.1237;3.8479;
-47.1000;0.1213;3.8504;
-46.8000;0.1237;3.8607;
-46.5000;0.1245;3.8710;
-46.2000;0.1213;3.8530;
-45.9000;0.1213;3.8530;
-45.6000;0.1188;3.8581;
-45.3000;0.1188;3.8581;
-45.0000;0.1229;3.8607;
-44.7000;0.1213;3.8556;
-44.4000;0.1205;3.8530;
-44.1000;0.1197;3.8504;
-43.8000;0.1221;3.8581;
-43.5000;0.1229;3.8735;
-43.2000;0.1205;3.8710;
-42.9000;0.1197;3.8658;
-42.6000;0.1197;3.8658;
-42.3000;0.1205;3.8633;
-42.0000;0.1123;3.8376;
-41.7000;0.1188;3.8556;
-41.4000;0.1197;3.8504;
-41.1000;0.1237;3.8581;
-40.8000;0.1197;3.8556;
-40.5000;0.1286;3.8787;
-40.2000;0.1229;3.8684;
-39.9000;0.1237;3.8658;
-39.6000;0.1188;3.8530;
-39.3000;0.1245;3.8761;
-39.0000;0.1229;3.8710;
-38.7000;0.1197;3.8761;
-38.4000;0.1197;3.8710;
-38.1000;0.1197;3.8607;
-37.8000;0.1205;3.8684;
-37.5000;0.1172;3.8556;
-37.2000;0.1197;3.8530;
-36.9000;0.1197;3.8607;
-36.6000;0.1270;3.8863;
-36.3000;0.1164;3.8530;
-36.0000;0.1213;3.8684;
-35.7000;0.1205;3.8684;
-35.4000;0.1188;3.8710;
-35.1000;0.1205;3.8735;
-34.8000;0.1205;3.8735;
-34.5000;0.1213;3.8735;
-34.2000;0.1221;3.8761;
-33.9000;0.1213;3.8658;
-33.6000;0.1213;3.8710;
-33.3000;0.1205;3.8658;
-33.0000;0.1237;3.8761;
-32.7000;0.1205;3.8658;
-32.4000;0.1180;3.8607;
-32.1000;0.1221;3.8735;
-31.8000;0.1205;3.8787;
-31.5000;0.1197;3.8812;
-31.2000;0.1197;3.8761;
-30.9000;0.1213;3.8812;
-30.6000;0.1099;3.8479;
-30.3000;0.1205;3.8812;
-30.0000;0.1221;3.8761;
-29.7000;0.1213;3.8710;
-29.4000;0.1205;3.8735;
-29.1000;0.1164;3.8658;
-28.8000;0.1254;3.8889;
-28.5000;0.1205;3.8735;
-28.2000;0.1213;3.8761;
-27.9000;0.1180;3.8658;
-27.6000;0.1188;3.8658;
-27.3000;0.1221;3.8658;
-27.0000;0.1221;3.8761;
-26.7000;0.1213;3.8761;
-26.4000;0.1140;3.8633;
-26.1000;0.1213;3.8889;
-25.8000;0.1197;3.8787;
-25.5000;0.1197;3.8735;
-25.2000;0.1197;3.8735;
-24.9000;0.1205;3.8787;
-24.6000;0.1188;3.8735;
-24.3000;0.1197;3.8735;
-24.0000;0.1221;3.8812;
-23.7000;0.1213;3.8787;
-23.4000;0.1164;3.8633;
-23.1000;0.1221;3.8710;
-22.8000;0.1221;3.8787;
-22.5000;0.1197;3.8735;
-22.2000;0.1180;3.8735;
-21.9000;0.1188;3.8735;
-21.6000;0.1164;3.8581;
-21.3000;0.1197;3.8735;
-21.0000;0.1197;3.8735;
-20.7000;0.1197;3.8761;
-20.4000;0.1229;3.8863;
-20.1000;0.1213;3.8812;
-19.8000;0.1213;3.8761;
-19.5000;0.1188;3.8658;
-19.2000;0.1359;3.9197;
-18.9000;0.1237;3.8812;
-18.6000;0.1205;3.8710;
-18.3000;0.1205;3.8607;
-18.0000;0.1213;3.8684;
-17.7000;0.1229;3.8735;
-17.4000;0.1197;3.8607;
-17.1000;0.1197;3.8684;
-16.8000;0.1188;3.8607;
-16.5000;0.1197;3.8581;
-16.2000;0.1205;3.8581;
-15.9000;0.1099;3.8171;
-15.6000;0.1197;3.8556;
-15.3000;0.1197;3.8633;
-15.0000;0.1237;3.8684;
-14.7000;0.1197;3.8556;
-14.4000;0.1213;3.8633;
-14.1000;0.1205;3.8607;
-13.8000;0.1221;3.8658;
-13.5000;0.1262;3.8787;
-13.2000;0.1213;3.8607;
-12.9000;0.1237;3.8658;
-12.6000;0.1237;3.8581;
-12.3000;0.1221;3.8504;
-12.0000;0.1205;3.8350;
-11.7000;0.1197;3.8453;
-11.4000;0.1205;3.8530;
-11.1000;0.1188;3.8530;
-10.8000;0.1188;3.8607;
-10.5000;0.1213;3.8658;
-10.2000;0.1270;3.8915;
-9.9000;0.1221;3.8761;
-9.6000;0.1213;3.8710;
-9.3000;0.1205;3.8684;
-9.0000;0.1205;3.8581;
-8.7000;0.1229;3.8607;
-8.4000;0.1205;3.8479;
-8.1000;0.1229;3.8479;
-7.8000;0.1197;3.8479;
-7.5000;0.1180;3.8504;
-7.2000;0.1229;3.8530;
-6.9000;0.1229;3.8556;
-6.6000;0.1213;3.8556;
-6.3000;0.1213;3.8427;
-6.0000;0.1213;3.8453;
-5.7000;0.1229;3.8453;
-5.4000;0.1188;3.8350;
-5.1000;0.1221;3.8479;
-4.8000;0.1286;3.8710;
-4.5000;0.1221;3.8530;
-4.2000;0.1221;3.8479;
-3.9000;0.1221;3.8479;
-3.6000;0.1180;3.8376;
-3.3000;0.1213;3.8556;
-3.0000;0.1197;3.8607;
-2.7000;0.1197;3.8633;
-2.4000;0.1237;3.8812;
-2.1000;0.1205;3.8787;
-1.8000;0.1245;3.8915;
-1.5000;0.1213;3.8761;
-1.2000;0.1205;3.8658;
-0.9000;0.1237;3.8710;
-0.6000;0.1229;3.8581;
-0.3000;0.1221;3.8556;
0.0000;0.1221;3.8556;
0.3000;0.1213;3.8376;
0.6000;0.1221;3.8556;
0.9000;0.1262;3.8735;
1.2000;0.1311;3.8992;
1.5000;0.1319;3.9146;
1.8000;0.1359;3.9248;
2.1000;0.1262;3.9069;
2.4000;0.1400;3.9505;
2.7000;0.1400;3.9582;
3.0000;0.1530;3.9992;
3.3000;0.1384;3.9659;
3.6000;0.1416;3.9890;
3.9000;0.1425;4.0018;
4.2000;0.1416;3.9992;
4.5000;0.1433;3.9992;
4.8000;0.1351;3.9684;
5.1000;0.1465;3.9967;
5.4000;0.1408;3.9890;
5.7000;0.1441;3.9992;
6.0000;0.1416;4.0018;
6.3000;0.1465;4.0146;
6.6000;0.1400;3.9941;
6.9000;0.1441;4.0043;
7.2000;0.1457;4.0069;
7.5000;0.1433;4.0095;
7.8000;0.1457;4.0146;
8.1000;0.1449;4.0146;
8.4000;0.1465;4.0300;
8.7000;0.1416;4.0300;
9.0000;0.1425;4.0326;
9.3000;0.1433;4.0351;
9.6000;0.1433;4.0300;
9.9000;0.1433;4.0223;
10.2000;0.1433;4.0172;
10.5000;0.1473;4.0274;
10.8000;0.1433;4.0223;
11.1000;0.1425;4.0300;
11.4000;0.1465;4.0351;
11.7000;0.1498;4.0480;
12.0000;0.1400;4.0120;
12.3000;0.1441;4.0223;
12.6000;0.1441;4.0197;
12.9000;0.1449;4.0249;
13.2000;0.1465;4.0326;
13.5000;0.1473;4.0351;
13.8000;0.1433;4.0172;
14.1000;0.1335;3.9890;
14.4000;0.1457;4.0146;
14.7000;0.1441;4.0095;
15.0000;0.1400;3.9890;
15.3000;0.1457;4.0095;
15.6000;0.1457;4.0146;
15.9000;0.1441;4.0249;
16.2000;0.1441;4.0300;
16.5000;0.1441;4.0274;
16.8000;0.1457;4.0274;
17.1000;0.1465;4.0274;
17.4000;0.1449;4.0223;
17.7000;0.1538;4.0454;
18.0000;0.1490;4.0300;
18.3000;0.1498;4.0377;
18.6000;0.1457;4.0326;
18.9000;0.1490;4.0480;
19.2000;0.1481;4.0403;
19.5000;0.1506;4.0428;
19.8000;0.1473;4.0403;
20.1000;0.1465;4.0403;
20.4000;0.1457;4.0326;
20.7000;0.1473;4.0326;
21.0000;0.1449;4.0146;
21.3000;0.1457;4.0069;
21.6000;0.1457;3.9992;
21.9000;0.1465;4.0018;
22.2000;0.1490;4.0197;
22.5000;0.1490;4.0172;
22.8000;0.1490;4.0146;
23.1000;0.1368;3.9813;
23.4000;0.1408;4.0043;
23.7000;0.1473;4.0197;
24.0000;0.1498;4.0300;
24.3000;0.1571;4.0454;
24.6000;0.1473;4.0223;
24.9000;0.1530;4.0403;
25.2000;0.1465;4.0249;
25.5000;0.1530;4.0454;
25.8000;0.1465;4.0274;
26.1000;0.1473;4.0274;
26.4000;0.1473;4.0223;
26.7000;0.1490;4.0274;
27.0000;0.1514;4.0300;
27.3000;0.1481;4.0249;
27.6000;0.1506;4.0300;
27.9000;0.1416;4.0018;
28.2000;0.1473;4.0197;
28.5000;0.1416;4.0018;
28.8000;0.1473;4.0197;
29.1000;0.1506;4.0223;
29.4000;0.1490;4.0172;
29.7000;0.1498;4.0197;
30.0000;0.1506;4.0146;
30.3000;0.1481;4.0069;
30.6000;0.1547;4.0223;
30.9000;0.1490;4.0069;
31.2000;0.1538;4.0223;
31.5000;0.1481;4.0018;
31.8000;0.1481;4.0018;
32.1000;0.1498;4.0069;
32.4000;0.1514;4.0095;
32.7000;0.1481;4.0069;
33.0000;0.1481;4.0146;
33.3000;0.1490;4.0172;
33.6000;0.1522;4.0274;
33.9000;0.1514;4.0223;
34.2000;0.1498;4.0146;
34.5000;0.1490;4.0172;
34.8000;0.1514;4.0172;
35.1000;0.1522;4.0172;
35.4000;0.1522;4.0274;
35.7000;0.1498;4.0249;
36.0000;0.1498;4.0274;
36.3000;0.1571;4.0608;
36.6000;0.1481;4.0300;
36.9000;0.1473;4.0326;
37.2000;0.1498;4.0403;
37.5000;0.1506;4.0403;
37.8000;0.1498;4.0377;
38.1000;0.1498;4.0377;
38.4000;0.1514;4.0480;
38.7000;0.1498;4.0326;
39.0000;0.1555;4.0403;
39.3000;0.1498;4.0223;
39.6000;0.1481;4.0120;
39.9000;0.1449;3.9992;
40.2000;0.1490;4.0120;
40.5000;0.1506;4.0095;
40.8000;0.1514;4.0095;
41.1000;0.1498;4.0095;
41.4000;0.1506;4.0095;
41.7000;0.1538;4.0197;
42.0000;0.1498;4.0043;
42.3000;0.1498;4.0095;
42.6000;0.1514;4.0146;
42.9000;0.1506;4.0018;
43.2000;0.1498;4.0043;
43.5000;0.1490;4.0069;
43.8000;0.1498;4.0197;
44.1000;0.1506;4.0146;
44.4000;0.1563;4.0403;
44.7000;0.1506;4.0249;
45.0000;0.1506;4.0197;
45.3000;0.1514;4.0172;
45.6000;0.1473;4.0095;
45.9000;0.1498;4.0172;
46.2000;0.1538;4.0300;
46.5000;0.1604;4.0326;
46.8000;0.1498;4.0043;
47.1000;0.1563;4.0300;
47.4000;0.1433;3.9813;
47.7000;0.1514;4.0018;
48.0000;0.1506;4.0043;
48.3000;0.1457;3.9915;
48.6000;0.1538;4.0043;
48.9000;0.1530;4.0069;
49.2000;0.1514;4.0043;
49.5000;0.1555;4.0274;
49.8000;0.1612;4.0377;
50.1000;0.1530;4.0043;
50.4000;0.1506;3.9967;
50.7000;0.1481;3.9941;
51.0000;0.1555;4.0120;
51.3000;0.1514;3.9967;
51.6000;0.1530;3.9992;
51.9000;0.1595;4.0146;
52.2000;0.1530;4.0043;
52.5000;0.1538;4.0146;
52.8000;0.1522;4.0069;
53.1000;0.1490;3.9967;
53.4000;0.1514;4.0120;
53.7000;0.1473;4.0095;
54.0000;0.1506;4.0223;
54.3000;0.1538;4.0274;
54.6000;0.1555;4.0300;
54.9000;0.1514;4.0197;
55.2000;0.1506;4.0197;
55.5000;0.1522;4.0274;
55.8000;0.1490;4.0172;
56.1000;0.1498;4.0095;
56.4000;0.1457;4.0069;
56.7000;0.1555;4.0377;
57.0000;0.1514;4.0223;
57.3000;0.1644;4.0505;
57.6000;0.1506;4.0095;
57.9000;0.1530;4.0043;
58.2000;0.1530;4.0043;
58.5000;0.1514;4.0069;
58.8000;0.1538;4.0146;
59.1000;0.1514;4.0018;
59.4000;0.1514;4.0043;
59.7000;0.1538;3.9992;
60.0000;0.1530;3.9992;
60.3000;0.1530;4.0018;
60.6000;0.1465;3.9838;
60.9000;0.1522;4.0018;
61.2000;0.1530;3.9992;
61.5000;0.1555;4.0069;
61.8000;0.1579;4.0197;
62.1000;0.1522;4.0043;
62.4000;0.1530;4.0018;
62.7000;0.1547;4.0120;
63.0000;0.1392;3.9710;
63.3000;0.1538;4.0197;
63.6000;0.1522;4.0120;
63.9000;0.1514;4.0095;
64.2000;0.1514;4.0095;
64.5000;0.1514;4.0146;
64.8000;0.1530;4.0172;
65.1000;0.1514;4.0223;
65.4000;0.1538;4.0249;
65.7000;0.1547;4.0300;
66.0000;0.1530;4.0274;
66.3000;0.1514;4.0223;
66.6000;0.1530;4.0249;
66.9000;0.1498;4.0120;
67.2000;0.1514;4.0043;
67.5000;0.1522;4.0095;
67.8000;0.1530;4.0018;
68.1000;0.1530;4.0018;
68.4000;0.1538;4.0018;
68.7000;0.1449;3.9787;
69.0000;0.1530;3.9967;
69.3000;0.1595;4.0249;
69.6000;0.1579;4.0197;
69.9000;0.1530;4.0018;
70.2000;0.1538;3.9941;
70.5000;0.1530;4.0043;
70.8000;0.1547;4.0095;
71.1000;0.1514;4.0095;
71.4000;0.1498;4.0069;
71.7000;0.1490;4.0043;
72.0000;0.1547;4.0069;
72.3000;0.1530;3.9967;
72.6000;0.1555;3.9967;
72.9000;0.1555;4.0043;
73.2000;0.1530;3.9967;
73.5000;0.1498;3.9864;
73.8000;0.1514;3.9941;
74.1000;0.1530;3.9890;
74.4000;0.1514;3.9890;
74.7000;0.1563;4.0095;
75.0000;0.1522;4.0043;
75.3000;0.1530;3.9992;
75.6000;0.1604;4.0172;
75.9000;0.1571;4.0197;
76.2000;0.1530;4.0095;
76.5000;0.1530;4.0043;
76.8000;0.1425;3.9736;
77.1000;0.1522;3.9915;
77.4000;0.1514;3.9890;
77.7000;0.1530;4.0018;
78.0000;0.1514;3.9992;
78.3000;0.1571;4.0146;
78.6000;0.1506;3.9941;
78.9000;0.1538;4.0018;
79.2000;0.1514;4.0018;
79.5000;0.1441;3.9761;
79.8000;0.1587;4.0197;
80.1000;0.1522;3.9941;
80.4000;0.1514;3.9915;
80.7000;0.1498;3.9915;
81.0000;0.1522;4.0018;
81.3000;0.1571;4.0197;
81.6000;0.1522;4.0043;
81.9000;0.1522;4.0043;
82.2000;0.1522;4.0095;
82.5000;0.1538;4.0120;
82.8000;0.1530;3.9941;
83.1000;0.1538;3.9915;
83.4000;0.1530;3.9941;
83.7000;0.1595;4.0069;
84.0000;0.1522;3.9890;
84.3000;0.1538;3.9941;
84.6000;0.1547;4.0095;
84.9000;0.1538;4.0095;
85.2000;0.1555;4.0043;
85.5000;0.1547;4.0120;
85.8000;0.1547;4.0069;
86.1000;0.1547;4.0018;
86.4000;0.1547;4.0043;
86.7000;0.1547;4.0095;
87.0000;0.1538;4.0120;
87.3000;0.1547;4.0120;
87.6000;0.1530;4.0146;
87.9000;0.1620;4.0454;
88.2000;0.1506;4.0172;
88.5000;0.1530;4.0197;
88.8000;0.1538;4.0223;
89.1000;0.1530;4.0120;
89.4000;0.1465;3.9890;
89.7000;0.1571;4.0172;
90.0000;0.1530;4.0018;
90.3000;0.1636;4.0300;
90.6000;0.1522;3.9915;
90.9000;0.1449;3.9761;
91.2000;0.1538;4.0043;
91.5000;0.1522;4.0018;
91.8000;0.1547;4.0043;
92.1000;0.1530;4.0043;
92.4000;0.1547;4.0095;
92.7000;0.1538;4.0018;
93.0000;0.1538;3.9941;
93.3000;0.1555;4.0018;
93.6000;0.1498;3.9864;
93.9000;0.1538;4.0018;
94.2000;0.1514;3.9967;
94.5000;0.1498;3.9838;
94.8000;0.1538;3.9992;
95.1000;0.1530;4.0043;
95.4000;0.1595;4.0197;
95.7000;0.1506;3.9915;
96.0000;0.1522;3.9992;
96.3000;0.1555;4.0120;
96.6000;0.1538;3.9992;
96.9000;0.1555;4.0069;
97.2000;0.1506;4.0069;
97.5000;0.1604;4.0274;
97.8000;0.1538;4.0069;
98.1000;0.1530;4.0095;
98.4000;0.1538;4.0120;
98.7000;0.1571;4.0326;
99.0000;0.1579;4.0351;
99.3000;0.1555;4.0326;
99.6000;0.1571;4.0326;
99.9000;0.1538;4.0172;
100.2000;0.1547;4.0326;
100.5000;0.1449;3.9941;
100.8000;0.1465;4.0018;
101.1000;0.1538;4.0274;
101.4000;0.1547;4.0300;
101.7000;0.1547;4.0274;
102.0000;0.1563;4.0351;
102.3000;0.1538;4.0300;
102.6000;0.1563;4.0351;
102.9000;0.1538;4.0223;
103.2000;0.1547;4.0172;
103.5000;0.1506;4.0120;
103.8000;0.1481;4.0069;
104.1000;0.1612;4.0377;
104.4000;0.1538;4.0249;
104.7000;0.1538;4.0146;
105.0000;0.1547;4.0095;
105.3000;0.1547;4.0043;
105.6000;0.1522;4.0043;
105.9000;0.1522;3.9992;
106.2000;0.1530;3.9967;
106.5000;0.1538;4.0069;
106.8000;0.1522;4.0043;
107.1000;0.1547;4.0069;
107.4000;0.1547;4.0069;
107.7000;0.1595;4.0274;
108.0000;0.1555;4.0146;
108.3000;0.1530;4.0146;
108.6000;0.1498;4.0095;
108.9000;0.1538;4.0249;
109.2000;0.1644;4.0582;
109.5000;0.1555;4.0300;
109.8000;0.1538;4.0223;
110.1000;0.1538;4.0249;
110.4000;0.1563;4.0249;
110.7000;0.1506;4.0043;
111.0000;0.1538;4.0095;
111.3000;0.1555;4.0069;
111.6000;0.1555;4.0146;
111.9000;0.1498;3.9941;
112.2000;0.1547;3.9992;
112.5000;0.1481;3.9915;
112.8000;0.1547;3.9992;
113.1000;0.1547;4.0018;
113.4000;0.1481;3.9787;
113.7000;0.1547;3.9941;
114.0000;0.1538;3.9915;
114.3000;0.1709;4.0326;
114.6000;0.1547;3.9941;
114.9000;0.1612;4.0249;
115.2000;0.1408;3.9684;
115.5000;0.1506;3.9941;
115.8000;0.1547;4.0095;
116.1000;0.1555;4.0120;
116.4000;0.1579;4.0223;
116.7000;0.1481;3.9915;
117.0000;0.1571;4.0172;
117.3000;0.1547;4.0146;
117.6000;0.1555;4.0197;
117.9000;0.1547;4.0172;
118.2000;0.1522;3.9915;
118.5000;0.1587;4.0172;
118.8000;0.1547;4.0043;
119.1000;0.1555;4.0069;
119.4000;0.1555;4.0069;
119.7000;0.1563;4.0069;
120.0000;0.1547;3.9992;
120.3000;0.1538;4.0043;
120.6000;0.1555;4.0043;
120.9000;0.1563;4.0069;
121.2000;0.1555;4.0146;
121.5000;0.1506;3.9992;
121.8000;0.1538;4.0043;
122.1000;0.1595;4.0249;
122.4000;0.1555;4.0095;
122.7000;0.1506;3.9915;
123.0000;0.1522;3.9992;
123.3000;0.1530;4.0043;
123.6000;0.1522;3.9941;
123.9000;0.1530;4.0043;
124.2000;0.1547;4.0043;
124.5000;0.1563;4.0069;
124.8000;0.1555;4.0043;
125.1000;0.1538;4.0043;
125.4000;0.1514;4.0043;
125.7000;0.1563;4.0120;
126.0000;0.1555;4.0095;
126.3000;0.1538;4.0120;
126.6000;0.1530;4.0120;
126.9000;0.1530;4.0043;
127.2000;0.1522;3.9967;
127.5000;0.1563;4.0172;
127.8000;0.1514;4.0095;
128.1000;0.1587;4.0249;
128.4000;0.1547;4.0146;
128.7000;0.1555;4.0172;
129.0000;0.1530;4.0043;
129.3000;0.1538;4.0043;
129.6000;0.1547;4.0095;
129.9000;0.1571;4.0043;
130.2000;0.1555;3.9992;
130.5000;0.1522;3.9864;
130.8000;0.1620;4.0146;
131.1000;0.1563;3.9992;
131.4000;0.1547;3.9941;
131.7000;0.1530;3.9967;
132.0000;0.1538;4.0018;
132.3000;0.1547;4.0043;
132.6000;0.1644;4.0274;
132.9000;0.1530;3.9838;
133.2000;0.1506;3.9864;
133.5000;0.1522;3.9941;
133.8000;0.1506;3.9813;
134.1000;0.1555;3.9864;
134.4000;0.1506;3.9787;
134.7000;0.1555;3.9915;
135.0000;0.1563;3.9967;
135.3000;0.1530;3.9941;
135.6000;0.1547;3.9941;
135.9000;0.1522;3.9915;
136.2000;0.1563;4.0018;
136.5000;0.1547;4.0043;
136.8000;0.1547;3.9967;
137.1000;0.1522;3.9967;
137.4000;0.1538;3.9992;
137.7000;0.1571;4.0120;
138.0000;0.1547;3.9992;
138.3000;0.1490;3.9864;
138.6000;0.1547;3.9915;
138.9000;0.1530;3.9864;
139.2000;0.1538;3.9838;
139.5000;0.1538;3.9864;
139.8000;0.1563;3.9967;
140.1000;0.1563;3.9915;
140.4000;0.1514;3.9684;
140.7000;0.1530;3.9864;
141.0000;0.1555;3.9941;
141.3000;0.1669;4.0249;
141.6000;0.1547;3.9915;
141.9000;0.1538;3.9890;
142.2000;0.1547;4.0043;
142.5000;0.1547;4.0095;
142.8000;0.1522;4.0069;
143.1000;0.1604;4.0351;
143.4000;0.1530;4.0197;
143.7000;0.1547;4.0197;
144.0000;0.1555;4.0223;
144.3000;0.1547;4.0197;
144.6000;0.1538;4.0146;
144.9000;0.1538;4.0172;
145.2000;0.1530;4.0095;
145.5000;0.1547;4.0120;
145.8000;0.1563;4.0172;
146.1000;0.1522;4.0043;
146.4000;0.1555;4.0069;
146.7000;0.1563;4.0120;
147.0000;0.1473;3.9915;
147.3000;0.1547;4.0095;
147.6000;0.1547;4.0095;
147.9000;0.1538;4.0043;
148.2000;0.1563;4.0120;
148.5000;0.1530;4.0120;
148.8000;0.1538;4.0172;
149.1000;0.1604;4.0403;
149.4000;0.1530;4.0120;
149.7000;0.1490;3.9941;
150.0000;0.1530;4.0043;
150.3000;0.1538;4.0069;
150.6000;0.1547;4.0172;
150.9000;0.1563;4.0197;
151.2000;0.1530;4.0018;
151.5000;0.1555;4.0120;
151.8000;0.1587;4.0197;
152.1000;0.1677;4.0428;
152.4000;0.1538;3.9992;
152.7000;0.1538;3.9992;
153.0000;0.1522;3.9941;
153.3000;0.1563;3.9941;
153.6000;0.1547;3.9915;
153.9000;0.1547;3.9915;
154.2000;0.1530;3.9890;
154.5000;0.1522;3.9813;
154.8000;0.1547;3.9787;
155.1000;0.1530;3.9787;
155.4000;0.1547;3.9941;
155.7000;0.1555;4.0069;
156.0000;0.1490;3.9967;
156.3000;0.1530;4.0146;
156.6000;0.1522;4.0095;
156.9000;0.1547;4.0120;
157.2000;0.1547;4.0043;
157.5000;0.1555;4.0043;
157.8000;0.1522;4.0018;
158.1000;0.1538;3.9992;
158.4000;0.1547;3.9967;
158.7000;0.1538;3.9967;
159.0000;0.1563;4.0095;
159.3000;0.1514;3.9967;
159.6000;0.1555;4.0120;
159.9000;0.1530;3.9941;
160.2000;0.1547;3.9992;
160.5000;0.1457;3.9813;
160.8000;0.1587;4.0120;
161.1000;0.1547;3.9915;
161.4000;0.1555;3.9890;
161.7000;0.1555;3.9890;
162.0000;0.1555;3.9941;
162.3000;0.1563;3.9967;
162.6000;0.1522;3.9813;
162.9000;0.1538;3.9838;
163.2000;0.1579;3.9992;
163.5000;0.1547;3.9890;
163.8000;0.1538;3.9915;
164.1000;0.1506;3.9736;
164.4000;0.1538;3.9864;
164.7000;0.1538;3.9890;
165.0000;0.1547;3.9915;
165.3000;0.1538;3.9864;
165.6000;0.1563;3.9941;
165.9000;0.1538;3.9941;
166.2000;0.1563;4.0018;
166.5000;0.1481;3.9864;
166.8000;0.1563;4.0146;
167.1000;0.1571;4.0172;
167.4000;0.1547;4.0043;
167.7000;0.1547;4.0069;
168.0000;0.1481;3.9890;
168.3000;0.1547;4.0095;
168.6000;0.1522;4.0018;
168.9000;0.1538;4.0043;
169.2000;0.1579;4.0172;
169.5000;0.1530;4.0146;
169.8000;0.1555;4.0172;
170.1000;0.1538;4.0120;
170.4000;0.1538;4.0069;
170.7000;0.1555;4.0069;
171.0000;0.1555;4.0018;
171.3000;0.1522;3.9915;
171.6000;0.1555;3.9967;
171.9000;0.1522;3.9941;
172.2000;0.1555;4.0043;
172.5000;0.1538;3.9967;
172.8000;0.1563;3.9967;
173.1000;0.1555;3.9992;
173.4000;0.1563;3.9941;
173.7000;0.1522;3.9838;
174.0000;0.1530;3.9864;
174.3000;0.1555;3.9967;
174.6000;0.1506;3.9890;
174.9000;0.1530;4.0069;
175.2000;0.1538;4.0146;
175.5000;0.1538;4.0095;
175.8000;0.1547;4.0095;
176.1000;0.1563;4.0146;
176.4000;0.1538;4.0095;
176.7000;0.1498;3.9890;
177.0000;0.1538;4.0018;
177.3000;0.1579;4.0095;
177.6000;0.1547;4.0095;
177.9000;0.1547;4.0069;
178.2000;0.1530;4.0095;
178.5000;0.1563;4.0197;
178.8000;0.1547;4.0069;
179.1000;0.1547;4.0095;
179.4000;0.1530;4.0095;
179.7000;0.1538;4.0095;
180.0000;0.1547;4.0069;
180.3000;0.1473;3.9813;
180.6000;0.1547;4.0043;
180.9000;0.1530;3.9992;
181.2000;0.1555;4.0120;
181.5000;0.1547;4.0018;
181.8000;0.1538;3.9941;
182.1000;0.1547;3.9992;
182.4000;0.1555;4.0018;
182.7000;0.1547;4.0043;
183.0000;0.1514;3.9967;
183.3000;0.1538;4.0043;
183.6000;0.1547;4.0120;
183.9000;0.1547;4.0120;
184.2000;0.1538;4.0120;
184.5000;0.1506;4.0095;
184.8000;0.1538;4.0197;
185.1000;0.1555;4.0274;
185.4000;0.1555;4.0249;
185.7000;0.1522;4.0197;
186.0000;0.1530;4.0172;
186.3000;0.1563;4.0274;
186.6000;0.1547;4.0197;
186.9000;0.1555;4.0274;
187.2000;0.1620;4.0351;
187.5000;0.1693;4.0582;
187.8000;0.1563;4.0146;
188.1000;0.1579;4.0172;
188.4000;0.1595;4.0197;
188.7000;0.1547;4.0095;
189.0000;0.1604;4.0249;
189.3000;0.1538;4.0095;
189.6000;0.1587;4.0300;
189.9000;0.1547;4.0326;
190.2000;0.1530;4.0300;
190.5000;0.1571;4.0377;
190.8000;0.1547;4.0326;
191.1000;0.1522;4.0249;
191.4000;0.1547;4.0274;
191.7000;0.1612;4.0428;
192.0000;0.1547;4.0249;
192.3000;0.1514;4.0120;
192.6000;0.1506;4.0146;
192.9000;0.1547;4.0223;
193.2000;0.1547;4.0197;
193.5000;0.1530;4.0069;
193.8000;0.1555;4.0120;
194.1000;0.1555;4.0120;
194.4000;0.1547;4.0172;
194.7000;0.1547;4.0146;
195.0000;0.1579;4.0223;
195.3000;0.1538;4.0120;
195.6000;0.1538;4.0172;
195.9000;0.1538;4.0146;
196.2000;0.1538;4.0223;
196.5000;0.1522;4.0095;
196.8000;0.1555;4.0172;
197.1000;0.1555;4.0120;
197.4000;0.1522;4.0018;
197.7000;0.1538;4.0069;
198.0000;0.1538;4.0043;
198.3000;0.1538;3.9992;
198.6000;0.1522;3.9890;
198.9000;0.1538;3.9967;
199.2000;0.1530;3.9941;
199.5000;0.1555;3.9967;
199.8000;0.1481;3.9761;
200.1000;0.1563;3.9915;
200.4000;0.1563;3.9890;
200.7000;0.1538;3.9838;
201.0000;0.1587;3.9967;
201.3000;0.1530;3.9838;
201.6000;0.1538;3.9890;
201.9000;0.1547;3.9992;
202.2000;0.1538;3.9992;
202.5000;0.1555;4.0095;
202.8000;0.1481;3.9915;
203.1000;0.1555;4.0018;
203.4000;0.1538;3.9992;
203.7000;0.1538;4.0018;
204.0000;0.1555;3.9992;
204.3000;0.1555;4.0043;
204.6000;0.1644;4.0249;
204.9000;0.1530;3.9967;
205.2000;0.1555;3.9992;
205.5000;0.1563;4.0069;
205.8000;0.1530;3.9992;
206.1000;0.1522;3.9890;
206.4000;0.1628;4.0172;
206.7000;0.1555;3.9967;
207.0000;0.1579;4.0120;
207.3000;0.1522;3.9915;
207.6000;0.1579;4.0018;
207.9000;0.1563;4.0018;
208.2000;0.1579;4.0120;
208.5000;0.1498;3.9967;
208.8000;0.1538;4.0095;
209.1000;0.1595;4.0197;
209.4000;0.1571;4.0146;
209.7000;0.1530;4.0172;
210.0000;0.1530;4.0223;
210.3000;0.1530;4.0120;
210.6000;0.1449;3.9915;
210.9000;0.1538;4.0120;
211.2000;0.1530;4.0069;
211.5000;0.1547;4.0069;
211.8000;0.1538;4.0069;
212.1000;0.1579;4.0120;
212.4000;0.1547;3.9992;
212.7000;0.1628;4.0172;
213.0000;0.1538;3.9941;
213.3000;0.1555;4.0043;
213.6000;0.1661;4.0274;
213.9000;0.1555;3.9992;
214.2000;0.1563;3.9915;
214.5000;0.1506;3.9787;
214.8000;0.1457;3.9607;
215.1000;0.1522;3.9915;
215.4000;0.1547;3.9992;
215.7000;0.1612;4.0249;
216.0000;0.1538;4.0018;
216.3000;0.1538;3.9967;
216.6000;0.1555;4.0018;
216.9000;0.1522;3.9967;
217.2000;0.1555;4.0018;
217.5000;0.1555;4.0069;
217.8000;0.1547;4.0018;
218.1000;0.1547;3.9967;
218.4000;0.1571;4.0069;
218.7000;0.1563;4.0223;
219.0000;0.1563;4.0274;
219.3000;0.1563;4.0274;
219.6000;0.1555;4.0274;
219.9000;0.1563;4.0249;
220.2000;0.1563;4.0197;
220.5000;0.1555;4.0120;
220.8000;0.1547;4.0120;
221.1000;0.1563;3.9992;
221.4000;0.1514;3.9915;
221.7000;0.1555;3.9992;
222.0000;0.1555;4.0043;
222.3000;0.1538;4.0043;
222.6000;0.1571;4.0146;
222.9000;0.1498;3.9941;
223.2000;0.1547;4.0120;
223.5000;0.1441;3.9736;
223.8000;0.1538;3.9915;
224.1000;0.1514;3.9787;
224.4000;0.1555;3.9864;
224.7000;0.1587;3.9915;
225.0000;0.1563;3.9838;
225.3000;0.1538;3.9761;
225.6000;0.1538;3.9813;
225.9000;0.1538;3.9813;
226.2000;0.1555;3.9813;
226.5000;0.1433;3.9556;
226.8000;0.1530;3.9787;
227.1000;0.1547;3.9915;
227.4000;0.1514;3.9838;
227.7000;0.1555;3.9967;
228.0000;0.1587;4.0146;
228.3000;0.1563;4.0172;
228.6000;0.1547;4.0223;
228.9000;0.1547;4.0274;
229.2000;0.1604;4.0326;
229.5000;0.1538;4.0095;
229.8000;0.1555;4.0069;
230.1000;0.1563;4.0043;
230.4000;0.1604;4.0249;
230.7000;0.1538;4.0043;
231.0000;0.1530;4.0018;
231.3000;0.1555;4.0146;
231.6000;0.1506;3.9992;
231.9000;0.1538;4.0069;
232.2000;0.1514;4.0069;
232.5000;0.1563;4.0095;
232.8000;0.1563;4.0069;
233.1000;0.1522;3.9864;
233.4000;0.1628;4.0095;
233.7000;0.1538;3.9890;
234.0000;0.1538;3.9890;
234.3000;0.1433;3.9505;
234.6000;0.1530;3.9838;
234.9000;0.1555;3.9890;
235.2000;0.1604;4.0095;
235.5000;0.1522;3.9838;
235.8000;0.1530;3.9890;
236.1000;0.1563;3.9915;
236.4000;0.1547;3.9915;
236.7000;0.1555;3.9941;
237.0000;0.1514;3.9864;
237.3000;0.1514;3.9813;
237.6000;0.1530;3.9838;
237.9000;0.1506;3.9761;
238.2000;0.1538;3.9787;
238.5000;0.1547;3.9838;
238.8000;0.1555;3.9967;
239.1000;0.1514;3.9915;
239.4000;0.1563;4.0069;
239.7000;0.1555;4.0069;
240.0000;0.1555;4.0095;
240.3000;0.1571;4.0069;
240.6000;0.1595;4.0197;
240.9000;0.1563;4.0146;
241.2000;0.1538;4.0095;
241.5000;0.1547;4.0069;
241.8000;0.1547;4.0069;
242.1000;0.1563;4.0197;
242.4000;0.1547;4.0120;
242.7000;0.1571;4.0095;
243.0000;0.1514;3.9992;
243.3000;0.1538;4.0043;
243.6000;0.1547;3.9992;
243.9000;0.1538;3.9992;
244.2000;0.1416;3.9607;
244.5000;0.1652;4.0351;
244.8000;0.1538;4.0095;
245.1000;0.1538;4.0069;
245.4000;0.1563;4.0095;
245.7000;0.1587;4.0069;
246.0000;0.1571;4.0043;
246.3000;0.1563;4.0095;
246.6000;0.1644;4.0274;
246.9000;0.1555;3.9915;
247.2000;0.1563;3.9941;
247.5000;0.1547;3.9890;
247.8000;0.1555;3.9941;
248.1000;0.1563;3.9967;
248.4000;0.1579;4.0043;
248.7000;0.1538;3.9864;
249.0000;0.1555;3.9915;
249.3000;0.1571;3.9967;
249.6000;0.1522;3.9838;
249.9000;0.1547;3.9890;
250.2000;0.1538;3.9864;
250.5000;0.1563;3.9915;
250.8000;0.1547;3.9838;
251.1000;0.1571;3.9890;
251.4000;0.1563;3.9813;
251.7000;0.1547;3.9838;
252.0000;0.1538;3.9864;
252.3000;0.1522;3.9890;
252.6000;0.1547;3.9967;
252.9000;0.1481;3.9864;
253.2000;0.1555;4.0095;
253.5000;0.1538;4.0146;
253.8000;0.1555;4.0300;
254.1000;0.1555;4.0300;
254.4000;0.1555;4.0274;
254.7000;0.1522;4.0249;
255.0000;0.1547;4.0197;
255.3000;0.1547;4.0197;
255.6000;0.1538;4.0197;
255.9000;0.1547;4.0172;
256.2000;0.1547;4.0120;
256.5000;0.1547;4.0146;
256.8000;0.1563;4.0223;
257.1000;0.1481;3.9967;
257.4000;0.1547;4.0120;
257.7000;0.1547;4.0120;
258.0000;0.1563;4.0120;
258.3000;0.1538;4.0018;
258.6000;0.1506;3.9967;
258.9000;0.1449;3.9864;
259.2000;0.1473;3.9838;
259.5000;0.1538;4.0018;
259.8000;0.1506;3.9915;
260.1000;0.1538;4.0069;
260.4000;0.1538;4.0146;
260.7000;0.1571;4.0197;
261.0000;0.1652;4.0531;
261.3000;0.1555;4.0274;
261.6000;0.1628;4.0377;
261.9000;0.1522;4.0146;
262.2000;0.1547;4.0172;
262.5000;0.1538;4.0172;
262.8000;0.1579;4.0249;
263.1000;0.1595;4.0223;
263.4000;0.1538;4.0095;
263.7000;0.1636;4.0403;
264.0000;0.1620;4.0326;
264.3000;0.1563;4.0223;
264.6000;0.1457;3.9864;
264.9000;0.1498;3.9992;
265.2000;0.1530;4.0146;
265.5000;0.1563;4.0249;
265.8000;0.1555;4.0274;
266.1000;0.1571;4.0300;
266.4000;0.1522;4.0095;
266.7000;0.1547;4.0146;
267.0000;0.1538;4.0043;
267.3000;0.1538;3.9941;
267.6000;0.1563;3.9992;
267.9000;0.1563;3.9890;
268.2000;0.1547;3.9864;
268.5000;0.1563;3.9838;
268.8000;0.1538;3.9736;
269.1000;0.1514;3.9736;
269.4000;0.1506;3.9710;
269.7000;0.1555;3.9813;
270.0000;0.1555;3.9761;
270.3000;0.1563;3.9684;
270.6000;0.1547;3.9659;
270.9000;0.1530;3.9582;
271.2000;0.1563;3.9684;
271.5000;0.1547;3.9607;
271.8000;0.1547;3.9556;
272.1000;0.1547;3.9582;
272.4000;0.1677;4.0018;
272.7000;0.1547;3.9684;
273.0000;0.1547;3.9736;
273.3000;0.1547;3.9787;
273.6000;0.1555;3.9813;
273.9000;0.1530;3.9787;
274.2000;0.1547;3.9813;
274.5000;0.1547;3.9838;
274.8000;0.1530;3.9864;
275.1000;0.1514;3.9813;
275.4000;0.1547;3.9864;
275.7000;0.1555;3.9890;
276.0000;0.1563;3.9941;
276.3000;0.1571;3.9864;
276.6000;0.1547;3.9761;
276.9000;0.1555;3.9787;
277.2000;0.1547;3.9838;
277.5000;0.1555;3.9941;
277.8000;0.1547;3.9813;
278.1000;0.1538;3.9736;
278.4000;0.1538;3.9710;
278.7000;0.1547;3.9710;
279.0000;0.1612;3.9967;
279.3000;0.1538;3.9761;
279.6000;0.1522;3.9761;
279.9000;0.1547;3.9915;
280.2000;0.1498;3.9761;
280.5000;0.1538;3.9941;
280.8000;0.1628;4.0146;
281.1000;0.1547;3.9864;
281.4000;0.1563;3.9864;
281.7000;0.1563;3.9915;
282.0000;0.1571;3.9967;
282.3000;0.1514;3.9813;
282.6000;0.1522;3.9864;
282.9000;0.1571;3.9967;
283.2000;0.1571;3.9992;
283.5000;0.1481;3.9813;
283.8000;0.1547;4.0043;
284.1000;0.1490;3.9864;
284.4000;0.1530;4.0043;
284.7000;0.1547;4.0018;
285.0000;0.1465;3.9761;
285.3000;0.1514;3.9915;
285.6000;0.1595;4.0197;
285.9000;0.1522;3.9890;
286.2000;0.1628;4.0249;
286.5000;0.1563;3.9915;
286.8000;0.1620;4.0095;
287.1000;0.1563;3.9941;
287.4000;0.1547;3.9813;
287.7000;0.1555;3.9813;
288.0000;0.1595;3.9915;
288.3000;0.1571;3.9838;
288.6000;0.1555;3.9813;
288.9000;0.1571;3.9813;
289.2000;0.1563;3.9787;
289.5000;0.1555;3.9838;
289.8000;0.1579;4.0018;
290.1000;0.1530;3.9864;
290.4000;0.1457;3.9684;
290.7000;0.1571;3.9941;
291.0000;0.1538;3.9890;
291.3000;0.1555;3.9915;
291.6000;0.1547;3.9915;
291.9000;0.1555;3.9992;
292.2000;0.1547;4.0120;
292.5000;0.1530;4.0069;
292.8000;0.1555;4.0172;
293.1000;0.1538;4.0197;
293.4000;0.1547;4.0146;
293.7000;0.1538;4.0018;
294.0000;0.1555;4.0018;
294.3000;0.1538;3.9992;
294.6000;0.1522;3.9864;
294.9000;0.1538;3.9864;
295.2000;0.1563;3.9915;
295.5000;0.1571;4.0018;
295.8000;0.1522;3.9992;
296.1000;0.1555;3.9992;
296.4000;0.1538;3.9915;
296.7000;0.1547;3.9915;
297.0000;0.1538;3.9915;
297.3000;0.1530;3.9967;
297.6000;0.1563;4.0018;
297.9000;0.1522;3.9915;
298.2000;0.1547;4.0018;
298.5000;0.1555;4.0018;
298.8000;0.1547;4.0018;
299.1000;0.1547;4.0018;
299.4000;0.1612;4.0172;
299.7000;0.1530;3.9992;
300.0000;0.1514;3.9890;
300.3000;0.1547;4.0043;
300.6000;0.1571;4.0018;
300.9000;0.1538;3.9967;
301.2000;0.1530;4.0043;
301.5000;0.1514;4.0069;
301.8000;0.1628;4.0326;
302.1000;0.1522;3.9967;
302.4000;0.1514;3.9967;
302.7000;0.1563;3.9890;
303.0000;0.1530;3.9761;
303.3000;0.1555;3.9890;
303.6000;0.1514;3.9787;
303.9000;0.1538;3.9915;
304.2000;0.1538;3.9890;
304.5000;0.1530;3.9864;
304.8000;0.1522;3.9890;
305.1000;0.1555;3.9967;
305.4000;0.1547;3.9864;
305.7000;0.1612;4.0043;
306.0000;0.1530;3.9761;
306.3000;0.1555;3.9890;
306.6000;0.1555;3.9992;
306.9000;0.1498;3.9838;
307.2000;0.1612;4.0018;
307.5000;0.1490;3.9633;
307.8000;0.1604;3.9967;
308.1000;0.1490;3.9838;
308.4000;0.1547;3.9915;
308.7000;0.1563;3.9967;
309.0000;0.1490;3.9813;
309.3000;0.1547;3.9941;
309.6000;0.1522;3.9941;
309.9000;0.1530;3.9915;
310.2000;0.1587;4.0069;
310.5000;0.1538;3.9992;
310.8000;0.1498;3.9890;
311.1000;0.1538;3.9915;
311.4000;0.1538;3.9941;
311.7000;0.1530;3.9838;
312.0000;0.1522;3.9890;
312.3000;0.1547;4.0018;
312.6000;0.1563;4.0146;
312.9000;0.1547;4.0095;
313.2000;0.1571;4.0120;
313.5000;0.1522;4.0018;
313.8000;0.1538;4.0043;
314.1000;0.1538;4.0018;
314.4000;0.1530;3.9992;
314.7000;0.1571;4.0043;
315.0000;0.1538;3.9890;
315.3000;0.1547;3.9890;
315.6000;0.1538;3.9864;
315.9000;0.1490;3.9659;
316.2000;0.1547;3.9813;
316.5000;0.1555;3.9890;
316.8000;0.1563;3.9890;
317.1000;0.1547;3.9787;
317.4000;0.1547;3.9813;
317.7000;0.1555;3.9864;
318.0000;0.1538;3.9813;
318.3000;0.1587;3.9915;
318.6000;0.1555;3.9813;
318.9000;0.1530;3.9813;
319.2000;0.1530;3.9864;
319.5000;0.1538;3.9838;
319.8000;0.1571;3.9890;
320.1000;0.1530;3.9787;
320.4000;0.1555;3.9967;
320.7000;0.1555;3.9967;
321.0000;0.1514;3.9890;
321.3000;0.1612;4.0146;
321.6000;0.1547;3.9967;
321.9000;0.1514;3.9941;
322.2000;0.1465;3.9761;
322.5000;0.1547;4.0069;
322.8000;0.1522;4.0043;
323.1000;0.1506;3.9967;
323.4000;0.1473;3.9890;
323.7000;0.1530;4.0069;
324.0000;0.1555;4.0197;
324.3000;0.1538;4.0197;
324.6000;0.1604;4.0300;
324.9000;0.1571;4.0249;
325.2000;0.1530;4.0120;
325.5000;0.1563;4.0172;
325.8000;0.1547;4.0172;
326.1000;0.1538;4.0095;
326.4000;0.1555;4.0172;
326.7000;0.1555;4.0197;
327.0000;0.1547;4.0069;
327.3000;0.1612;4.0172;
327.6000;0.1547;4.0069;
327.9000;0.1555;4.0043;
328.2000;0.1547;4.0043;
328.5000;0.1547;4.0069;
328.8000;0.1547;4.0018;
329.1000;0.1530;3.9941;
329.4000;0.1522;3.9967;
329.7000;0.1579;4.0095;
330.0000;0.1514;3.9941;
330.3000;0.1547;3.9967;
330.6000;0.1538;3.9941;
330.9000;0.1514;3.9864;
331.2000;0.1555;4.0095;
331.5000;0.1547;3.9992;
331.8000;0.1538;3.9941;
332.1000;0.1514;3.9838;
332.4000;0.1530;3.9838;
332.7000;0.1555;3.9890;
333.0000;0.1555;3.9890;
333.3000;0.1538;3.9864;
333.6000;0.1530;3.9864;
333.9000;0.1538;3.9761;
334.2000;0.1522;3.9813;
334.5000;0.1547;3.9890;
334.8000;0.1555;3.9992;
335.1000;0.1547;3.9890;
335.4000;0.1555;4.0043;
335.7000;0.1587;4.0120;
336.0000;0.1522;3.9941;
336.3000;0.1555;4.0069;
336.6000;0.1555;4.0095;
336.9000;0.1555;4.0146;
337.2000;0.1538;4.0120;
337.5000;0.1530;4.0197;
337.8000;0.1522;4.0172;
338.1000;0.1530;4.0223;
338.4000;0.1538;4.0172;
338.7000;0.1538;4.0197;
339.0000;0.1604;4.0351;
339.3000;0.1547;4.0197;
339.6000;0.1579;4.0274;
339.9000;0.1555;4.0120;
340.2000;0.1538;4.0146;
340.5000;0.1538;4.0197;
340.8000;0.1547;4.0249;
341.1000;0.1522;4.0095;
341.4000;0.1530;4.0095;
341.7000;0.1571;4.0197;
342.0000;0.1555;4.0146;
342.3000;0.1522;4.0095;
342.6000;0.1530;4.0120;
342.9000;0.1571;4.0197;
343.2000;0.1530;4.0172;
343.5000;0.1555;4.0120;
343.8000;0.1522;3.9992;
344.1000;0.1555;4.0069;
344.4000;0.1506;3.9915;
344.7000;0.1538;4.0095;
345.0000;0.1538;4.0018;
345.3000;0.1563;4.0120;
345.6000;0.1555;4.0120;
345.9000;0.1547;4.0018;
346.2000;0.1530;3.9992;
346.5000;0.1555;4.0018;
346.8000;0.1547;3.9941;
347.1000;0.1538;4.0018;
347.4000;0.1514;4.0018;
347.7000;0.1547;4.0120;
348.0000;0.1563;4.0069;
348.3000;0.1547;3.9992;
348.6000;0.1506;3.9890;
348.9000;0.1530;4.0043;
349.2000;0.1595;4.0249;
349.5000;0.1563;4.0146;
349.8000;0.1563;4.0120;
350.1000;0.1490;3.9864;
350.4000;0.1530;3.9992;
350.7000;0.1530;4.0043;
351.0000;0.1547;4.0069;
351.3000;0.1498;3.9967;
351.6000;0.1555;4.0146;
351.9000;0.1571;4.0146;
352.2000;0.1490;3.9967;
352.5000;0.1652;4.0351;
352.8000;0.1563;4.0095;
353.1000;0.1490;3.9941;
353.4000;0.1563;4.0249;
353.7000;0.1506;4.0069;
354.0000;0.1595;4.0326;
354.3000;0.1555;4.0095;
354.6000;0.1481;3.9967;
354.9000;0.1538;4.0146;
355.2000;0.1538;4.0095;
355.5000;0.1555;4.0172;
355.8000;0.1547;4.0223;
356.1000;0.1514;4.0249;
356.4000;0.1538;4.0249;
356.7000;0.1530;4.0146;
357.0000;0.1555;4.0249;
357.3000;0.1538;4.0197;
357.6000;0.1571;4.0223;
357.9000;0.1530;4.0120;
358.2000;0.1563;4.0172;
358.5000;0.1530;4.0146;
358.8000;0.1538;4.0197;
359.1000;0.1555;4.0172;
359.4000;0.1530;4.0120;
359.7000;0.1563;4.0197;
360.0000;0.1538;4.0172;
360.3000;0.1538;4.0300;
360.6000;0.1563;4.0403;
360.9000;0.1538;4.0403;
361.2000;0.1547;4.0300;
361.5000;0.1514;4.0223;
361.8000;0.1587;4.0377;
362.1000;0.1563;4.0249;
362.4000;0.1538;4.0197;
362.7000;0.1547;4.0172;
363.0000;0.1571;4.0300;
363.3000;0.1481;3.9992;
363.6000;0.1604;4.0428;
363.9000;0.1530;4.0223;
364.2000;0.1538;4.0197;
364.5000;0.1530;4.0223;
364.8000;0.1514;4.0223;
365.1000;0.1555;4.0351;
365.4000;0.1514;4.0223;
365.7000;0.1538;4.0197;
366.0000;0.1547;4.0095;
366.3000;0.1547;4.0197;
366.6000;0.1530;4.0120;
366.9000;0.1612;4.0403;
367.2000;0.1547;4.0120;
367.5000;0.1506;4.0069;
367.8000;0.1547;4.0146;
368.1000;0.1530;4.0095;
368.4000;0.1547;4.0146;
368.7000;0.1547;4.0197;
369.0000;0.1530;4.0095;
369.3000;0.1563;4.0172;
369.6000;0.1555;4.0095;
369.9000;0.1555;4.0043;
370.2000;0.1514;3.9967;
370.5000;0.1563;4.0172;
370.8000;0.1538;4.0069;
371.1000;0.1530;4.0069;
371.4000;0.1547;4.0146;
371.7000;0.1547;4.0249;
372.0000;0.1530;4.0197;
372.3000;0.1547;4.0197;
372.6000;0.1547;4.0197;
372.9000;0.1530;4.0249;
373.2000;0.1604;4.0403;
373.5000;0.1530;4.0223;
373.8000;0.1547;4.0172;
374.1000;0.1555;4.0172;
374.4000;0.1514;4.0120;
374.7000;0.1530;4.0172;
375.0000;0.1563;4.0249;
375.3000;0.1538;4.0172;
375.6000;0.1538;4.0120;
375.9000;0.1522;4.0069;
376.2000;0.1530;4.0172;
376.5000;0.1498;4.0043;
376.8000;0.1530;4.0223;
377.1000;0.1563;4.0326;
377.4000;0.1441;4.0018;
377.7000;0.1555;4.0326;
378.0000;0.1538;4.0249;
378.3000;0.1555;4.0300;
378.6000;0.1547;4.0326;
378.9000;0.1538;4.0197;
379.2000;0.1571;4.0223;
379.5000;0.1530;4.0095;
379.8000;0.1538;4.0120;
380.1000;0.1490;3.9967;
380.4000;0.1522;4.0095;
380.7000;0.1473;3.9992;
381.0000;0.1604;4.0377;
381.3000;0.1547;4.0274;
381.6000;0.1547;4.0249;
381.9000;0.1571;4.0326;
382.2000;0.1514;4.0146;
382.5000;0.1555;4.0326;
382.8000;0.1547;4.0249;
383.1000;0.1555;4.0249;
383.4000;0.1547;4.0172;
383.7000;0.1555;4.0197;
384.0000;0.1538;4.0223;
384.3000;0.1538;4.0197;
384.6000;0.1530;4.0120;
384.9000;0.1530;4.0120;
385.2000;0.1522;4.0018;
385.5000;0.1563;4.0146;
385.8000;0.1530;4.0043;
386.1000;0.1555;4.0043;
386.4000;0.1628;4.0249;
386.7000;0.1538;3.9992;
387.0000;0.1530;4.0018;
387.3000;0.1538;4.0069;
387.6000;0.1547;4.0172;
387.9000;0.1538;4.0095;
388.2000;0.1571;4.0120;
388.5000;0.1530;3.9941;
388.8000;0.1555;4.0095;
389.1000;0.1530;3.9941;
389.4000;0.1571;3.9992;
389.7000;0.1522;3.9838;
390.0000;0.1547;3.9890;
390.3000;0.1547;3.9941;
390.6000;0.1514;3.9864;
390.9000;0.1538;3.9864;
391.2000;0.1555;3.9890;
391.5000;0.1530;3.9967;
391.8000;0.1538;3.9941;
392.1000;0.1538;4.0018;
392.4000;0.1530;4.0120;
392.7000;0.1530;4.0172;
393.0000;0.1522;4.0069;
393.3000;0.1547;4.0146;
393.6000;0.1555;4.0043;
393.9000;0.1547;4.0043;
394.2000;0.1563;4.0018;
394.5000;0.1538;4.0043;
394.8000;0.1563;4.0120;
395.1000;0.1538;4.0043;
395.4000;0.1555;4.0172;
395.7000;0.1514;4.0069;
396.0000;0.1555;4.0146;
396.3000;0.1547;4.0018;
396.6000;0.1538;3.9992;
396.9000;0.1669;4.0377;
397.2000;0.1538;4.0018;
397.5000;0.1538;4.0069;
397.8000;0.1465;3.9890;
398.1000;0.1530;4.0120;
398.4000;0.1563;4.0172;
398.7000;0.1457;3.9864;
399.0000;0.1530;4.0043;
399.3000;0.1547;4.0069;
399.6000;0.1555;4.0018;
399.9000;0.1538;4.0069;
400.2000;0.1563;4.0095;
400.5000;0.1555;4.0095;
400.8000;0.1538;4.0120;
401.1000;0.1498;3.9967;
401.4000;0.1538;4.0069;
401.7000;0.1538;4.0095;
402.0000;0.1538;4.0120;
402.3000;0.1538;4.0095;
402.6000;0.1677;4.0582;
402.9000;0.1522;4.0095;
403.2000;0.1506;3.9992;
403.5000;0.1571;4.0095;
403.8000;0.1547;3.9992;
404.1000;0.1449;3.9633;
404.4000;0.1538;3.9941;
404.7000;0.1669;4.0274;
405.0000;0.1538;3.9992;
405.3000;0.1547;4.0069;
405.6000;0.1579;4.0223;
405.9000;0.1547;4.0095;
406.2000;0.1522;4.0018;
406.5000;0.1522;4.0069;
406.8000;0.1522;4.0043;
407.1000;0.1571;4.0120;
407.4000;0.1547;4.0095;
407.7000;0.1555;4.0095;
408.0000;0.1563;4.0043;
408.3000;0.1579;4.0018;
408.6000;0.1547;3.9992;
408.9000;0.1563;4.0069;
409.2000;0.1547;4.0018;
409.5000;0.1587;4.0043;
409.8000;0.1555;3.9967;
410.1000;0.1563;4.0018;
410.4000;0.1547;4.0146;
410.7000;0.1579;4.0326;
411.0000;0.1579;4.0326;
411.3000;0.1555;4.0197;
411.6000;0.1612;4.0377;
411.9000;0.1538;4.0146;
412.2000;0.1563;4.0120;
412.5000;0.1538;4.0120;
412.8000;0.1547;4.0326;
413.1000;0.1530;4.0377;
413.4000;0.1498;4.0223;
413.7000;0.1547;4.0249;
414.0000;0.1563;4.0249;
414.3000;0.1530;4.0274;
414.6000;0.1547;4.0249;
414.9000;0.1547;4.0351;
415.2000;0.1547;4.0377;
415.5000;0.1555;4.0300;
415.8000;0.1547;4.0351;
416.1000;0.1522;4.0300;
416.4000;0.1547;4.0326;
416.7000;0.1538;4.0249;
417.0000;0.1547;4.0223;
417.3000;0.1555;4.0249;
417.6000;0.1555;4.0249;
417.9000;0.1514;4.0172;
418.2000;0.1506;4.0043;
418.5000;0.1538;4.0018;
418.8000;0.1555;4.0018;
419.1000;0.1595;4.0197;
419.4000;0.1514;4.0069;
419.7000;0.1587;4.0274;
420.0000;0.1538;4.0069;
420.3000;0.1473;4.0043;
420.6000;0.1563;4.0197;
420.9000;0.1547;4.0197;
421.2000;0.1530;4.0095;
421.5000;0.1547;4.0069;
421.8000;0.1538;4.0069;
422.1000;0.1563;4.0146;
422.4000;0.1563;4.0069;
422.7000;0.1612;4.0197;
423.0000;0.1538;4.0095;
423.3000;0.1587;4.0197;
423.6000;0.1538;4.0223;
423.9000;0.1481;3.9992;
424.2000;0.1547;4.0172;
424.5000;0.1547;4.0223;
424.8000;0.1538;4.0172;
425.1000;0.1547;4.0095;
425.4000;0.1555;4.0146;
425.7000;0.1595;4.0274;
426.0000;0.1547;4.0018;
426.3000;0.1571;4.0095;
426.6000;0.1490;3.9864;
426.9000;0.1538;4.0069;
427.2000;0.1563;4.0146;
427.5000;0.1506;3.9967;
427.8000;0.1547;4.0146;
428.1000;0.1530;4.0095;
428.4000;0.1547;4.0043;
428.7000;0.1530;4.0069;
429.0000;0.1547;4.0069;
429.3000;0.1563;4.0043;
429.6000;0.1522;3.9890;
429.9000;0.1538;3.9915;
430.2000;0.1563;4.0018;
430.5000;0.1555;4.0018;
430.8000;0.1571;4.0043;
431.1000;0.1538;3.9992;
431.4000;0.1547;3.9992;
431.7000;0.1522;3.9915;
432.0000;0.1579;4.0018;
432.3000;0.1522;3.9864;
432.6000;0.1579;4.0043;
432.9000;0.1530;3.9890;
433.2000;0.1547;3.9838;
433.5000;0.1555;3.9915;
433.8000;0.1449;3.9607;
434.1000;0.1530;3.9915;
434.4000;0.1555;3.9967;
434.7000;0.1563;4.0018;
435.0000;0.1547;3.9890;
435.3000;0.1636;4.0095;
435.6000;0.1620;4.0146;
435.9000;0.1563;3.9992;
436.2000;0.1538;3.9941;
436.5000;0.1538;3.9992;
436.8000;0.1547;3.9992;
437.1000;0.1563;4.0018;
437.4000;0.1563;4.0018;
437.7000;0.1530;3.9915;
438.0000;0.1555;3.9992;
438.3000;0.1538;3.9915;
438.6000;0.1571;4.0146;
438.9000;0.1522;4.0095;
439.2000;0.1547;4.0146;
439.5000;0.1538;4.0043;
439.8000;0.1547;4.0069;
440.1000;0.1538;4.0043;
440.4000;0.1538;4.0018;
440.7000;0.1555;3.9967;
441.0000;0.1547;3.9941;
441.3000;0.1555;3.9992;
441.6000;0.1547;3.9992;
441.9000;0.1547;4.0018;
442.2000;0.1530;4.0018;
442.5000;0.1538;4.0043;
442.8000;0.1530;4.0018;
443.1000;0.1595;4.0274;
443.4000;0.1563;4.0146;
443.7000;0.1530;4.0018;
444.0000;0.1538;3.9992;
444.3000;0.1538;3.9915;
444.6000;0.1604;4.0146;
444.9000;0.1563;4.0018;
445.2000;0.1612;4.0172;
445.5000;0.1547;4.0018;
445.8000;0.1547;4.0018;
446.1000;0.1555;3.9941;
446.4000;0.1555;4.0018;
446.7000;0.1547;4.0069;
447.0000;0.1498;3.9890;
447.3000;0.1522;3.9787;
447.6000;0.1563;3.9838;
447.9000;0.1547;3.9890;
448.2000;0.1579;4.0043;
448.5000;0.1555;3.9967;
448.8000;0.1530;3.9915;
449.1000;0.1457;3.9787;
449.4000;0.1555;4.0069;
449.7000;0.1555;4.0120;
450.0000;0.1522;4.0069;
450.3000;0.1538;4.0043;
450.6000;0.1425;3.9838;
450.9000;0.1538;4.0172;
451.2000;0.1538;4.0197;
451.5000;0.1538;4.0146;
451.8000;0.1538;4.0146;
452.1000;0.1579;4.0274;
452.4000;0.1555;4.0223;
452.7000;0.1555;4.0197;
453.0000;0.1538;4.0120;
453.3000;0.1506;4.0018;
453.6000;0.1571;4.0146;
453.9000;0.1547;4.0043;
454.2000;0.1530;3.9941;
454.5000;0.1555;3.9967;
454.8000;0.1555;4.0018;
455.1000;0.1530;4.0018;
455.4000;0.1547;4.0069;
455.7000;0.1547;3.9967;
456.0000;0.1563;3.9941;
456.3000;0.1538;3.9890;
456.6000;0.1538;3.9864;
456.9000;0.1555;3.9813;
457.2000;0.1538;3.9761;
457.5000;0.1514;3.9736;
457.8000;0.1498;3.9582;
458.1000;0.1538;3.9582;
458.4000;0.1571;3.9659;
458.7000;0.1571;3.9736;
459.0000;0.1538;3.9659;
459.3000;0.1522;3.9736;
459.6000;0.1538;3.9761;
459.9000;0.1506;3.9633;
460.2000;0.1538;3.9710;
460.5000;0.1457;3.9505;
460.8000;0.1538;3.9684;
461.1000;0.1555;3.9761;
461.4000;0.1538;3.9761;
461.7000;0.1538;3.9761;
462.0000;0.1522;3.9659;
462.3000;0.1538;3.9736;
462.6000;0.1538;3.9736;
462.9000;0.1563;3.9787;
463.2000;0.1538;3.9710;
463.5000;0.1547;3.9787;
463.8000;0.1522;3.9659;
464.1000;0.1530;3.9659;
464.4000;0.1538;3.9659;
464.7000;0.1530;3.9582;
465.0000;0.1555;3.9633;
465.3000;0.1538;3.9684;
465.6000;0.1579;3.9736;
465.9000;0.1555;3.9736;
466.2000;0.1530;3.9736;
466.5000;0.1522;3.9787;
466.8000;0.1530;3.9838;
467.1000;0.1604;4.0043;
467.4000;0.1547;3.9915;
467.7000;0.1555;3.9941;
468.0000;0.1530;3.9864;
468.3000;0.1595;4.0069;
468.6000;0.1555;3.9915;
468.9000;0.1555;3.9915;
469.2000;0.1530;3.9838;
469.5000;0.1547;3.9761;
469.8000;0.1563;3.9710;
470.1000;0.1620;3.9838;
470.4000;0.1538;3.9736;
470.7000;0.1547;3.9684;
471.0000;0.1506;3.9633;
471.3000;0.1547;3.9761;
471.6000;0.1571;3.9890;
471.9000;0.1530;3.9915;
472.2000;0.1538;3.9890;
472.5000;0.1579;4.0043;
472.8000;0.1563;3.9941;
473.1000;0.1628;4.0069;
473.4000;0.1563;3.9890;
473.7000;0.1563;3.9838;
474.0000;0.1563;3.9864;
474.3000;0.1538;3.9761;
474.6000;0.1547;3.9813;
474.9000;0.1522;3.9813;
475.2000;0.1538;3.9967;
475.5000;0.1587;4.0069;
475.8000;0.1538;3.9890;
476.1000;0.1530;3.9915;
476.4000;0.1563;3.9967;
476.7000;0.1514;3.9838;
477.0000;0.1473;3.9633;
477.3000;0.1538;3.9838;
477.6000;0.1538;3.9915;
477.9000;0.1547;3.9992;
478.2000;0.1555;4.0018;
478.5000;0.1547;3.9941;
478.8000;0.1522;3.9915;
479.1000;0.1555;4.0043;
479.4000;0.1563;4.0043;
479.7000;0.1530;3.9890;
480.0000;0.1506;3.9813;
480.3000;0.1612;4.0120;
480.6000;0.1547;3.9992;
480.9000;0.1555;4.0043;
481.2000;0.1538;4.0069;
481.5000;0.1514;4.0043;
481.8000;0.1555;4.0120;
482.1000;0.1530;4.0095;
482.4000;0.1530;4.0043;
482.7000;0.1555;4.0172;
483.0000;0.1555;4.0274;
483.3000;0.1563;4.0249;
483.6000;0.1514;4.0069;
483.9000;0.1563;4.0069;
484.2000;0.1538;3.9992;
484.5000;0.1628;4.0223;
484.8000;0.1449;3.9684;
485.1000;0.1538;3.9967;
485.4000;0.1547;3.9915;
485.7000;0.1538;3.9941;
486.0000;0.1530;4.0018;
486.3000;0.1547;4.0018;
486.6000;0.1555;4.0069;
486.9000;0.1538;4.0043;
487.2000;0.1547;4.0095;
487.5000;0.1530;4.0043;
487.8000;0.1547;4.0120;
488.1000;0.1555;4.0172;
488.4000;0.1547;4.0069;
488.7000;0.1538;4.0018;
489.0000;0.1530;3.9890;
489.3000;0.1538;3.9992;
489.6000;0.1547;3.9992;
489.9000;0.1579;4.0069;
490.2000;0.1538;3.9941;
490.5000;0.1538;4.0018;
490.8000;0.1538;4.0095;
491.1000;0.1522;4.0018;
491.4000;0.1530;4.0018;
491.7000;0.1538;4.0095;
492.0000;0.1547;4.0172;
492.3000;0.1473;3.9915;
492.6000;0.1538;4.0120;
492.9000;0.1538;4.0095;
493.2000;0.1530;4.0120;
493.5000;0.1481;3.9967;
493.8000;0.1538;4.0120;
494.1000;0.1555;4.0120;
494.4000;0.1547;4.0043;
494.7000;0.1555;4.0095;
495.0000;0.1457;3.9838;
495.3000;0.1530;4.0120;
495.6000;0.1587;4.0300;
495.9000;0.1490;4.0043;
496.2000;0.1473;3.9967;
496.5000;0.1538;4.0146;
496.8000;0.1547;4.0197;
497.1000;0.1555;4.0223;
497.4000;0.1538;4.0146;
497.7000;0.1425;3.9838;
498.0000;0.1538;4.0197;
498.3000;0.1547;4.0249;
498.6000;0.1579;4.0351;
498.9000;0.1538;4.0197;
499.2000;0.1538;4.0197;
499.5000;0.1547;4.0197;
499.8000;0.1555;4.0172;
500.1000;0.1563;4.0172;
500.4000;0.1522;4.0069;
500.7000;0.1555;4.0095;
501.0000;0.1547;4.0223;
501.3000;0.1555;4.0249;
501.6000;0.1530;4.0172;
501.9000;0.1473;4.0095;
502.2000;0.1522;4.0223;
502.5000;0.1514;4.0120;
502.8000;0.1538;4.0197;
503.1000;0.1449;3.9890;
503.4000;0.1490;4.0043;
503.7000;0.1538;4.0223;
504.0000;0.1538;4.0197;
504.3000;0.1530;4.0146;
504.6000;0.1538;4.0120;
504.9000;0.1530;4.0069;
505.2000;0.1538;4.0095;
505.5000;0.1522;4.0043;
505.8000;0.1538;3.9915;
506.1000;0.1555;3.9967;
506.4000;0.1441;3.9633;
506.7000;0.1563;3.9915;
507.0000;0.1555;3.9890;
507.3000;0.1555;3.9992;
507.6000;0.1522;3.9915;
507.9000;0.1538;4.0018;
508.2000;0.1538;3.9941;
508.5000;0.1563;3.9915;
508.8000;0.1571;3.9915;
509.1000;0.1514;3.9890;
509.4000;0.1555;3.9890;
509.7000;0.1538;3.9941;
510.0000;0.1514;3.9864;
510.3000;0.1514;3.9915;
510.6000;0.1538;4.0018;
510.9000;0.1530;3.9992;
511.2000;0.1514;3.9967;
511.5000;0.1522;3.9967;
511.8000;0.1604;4.0197;
512.1000;0.1530;3.9992;
512.4000;0.1530;3.9967;
512.7000;0.1514;3.9915;
513.0000;0.1498;3.9838;
513.3000;0.1490;3.9736;
513.6000;0.1530;3.9813;
513.9000;0.1555;4.0043;
514.2000;0.1530;4.0018;
514.5000;0.1538;4.0043;
514.8000;0.1522;4.0043;
515.1000;0.1620;4.0377;
515.4000;0.1522;4.0095;
515.7000;0.1547;4.0197;
516.0000;0.1530;4.0069;
516.3000;0.1547;4.0069;
516.6000;0.1506;3.9941;
516.9000;0.1555;4.0120;
517.2000;0.1522;3.9967;
517.5000;0.1506;3.9890;
517.8000;0.1547;3.9992;
518.1000;0.1628;4.0172;
518.4000;0.1538;3.9967;
518.7000;0.1514;3.9941;
519.0000;0.1538;3.9915;
519.3000;0.1538;3.9838;
519.6000;0.1498;3.9710;
519.9000;0.1555;3.9941;
520.2000;0.1522;3.9941;
520.5000;0.1547;3.9992;
520.8000;0.1449;3.9787;
521.1000;0.1481;3.9890;
521.4000;0.1547;3.9941;
521.7000;0.1490;3.9838;
522.0000;0.1555;4.0018;
522.3000;0.1522;3.9915;
522.6000;0.1538;3.9992;
522.9000;0.1514;3.9941;
523.2000;0.1538;4.0043;
523.5000;0.1538;4.0069;
523.8000;0.1538;4.0146;
524.1000;0.1514;4.0043;
524.4000;0.1538;4.0043;
524.7000;0.1595;4.0120;
525.0000;0.1538;3.9941;
525.3000;0.1522;3.9915;
525.6000;0.1604;4.0095;
525.9000;0.1563;4.0043;
526.2000;0.1547;4.0018;
526.5000;0.1547;3.9890;
526.8000;0.1547;3.9941;
527.1000;0.1555;3.9915;
527.4000;0.1530;3.9915;
527.7000;0.1530;3.9941;
528.0000;0.1530;3.9915;
528.3000;0.1555;4.0172;
528.6000;0.1530;4.0095;
528.9000;0.1530;4.0095;
529.2000;0.1538;4.0043;
529.5000;0.1579;4.0197;
529.8000;0.1465;3.9813;
530.1000;0.1522;3.9813;
530.4000;0.1547;3.9838;
530.7000;0.1555;3.9864;
531.0000;0.1563;3.9761;
531.3000;0.1530;3.9710;
531.6000;0.1538;3.9659;
531.9000;0.1538;3.9787;
532.2000;0.1522;3.9761;
532.5000;0.1563;3.9864;
532.8000;0.1547;3.9864;
533.1000;0.1555;3.9890;
533.4000;0.1571;3.9838;
533.7000;0.1514;3.9736;
534.0000;0.1571;3.9890;
534.3000;0.1563;3.9915;
534.6000;0.1514;3.9787;
534.9000;0.1604;4.0018;
535.2000;0.1514;3.9736;
535.5000;0.1547;3.9838;
535.8000;0.1530;3.9710;
536.1000;0.1628;4.0043;
536.4000;0.1522;3.9813;
536.7000;0.1498;3.9813;
537.0000;0.1595;4.0120;
537.3000;0.1538;3.9941;
537.6000;0.1547;3.9890;
537.9000;0.1530;3.9864;
538.2000;0.1555;3.9813;
538.5000;0.1538;3.9838;
538.8000;0.1587;4.0095;
539.1000;0.1514;4.0043;
539.4000;0.1604;4.0249;
539.7000;0.1538;4.0095;
540.0000;0.1555;4.0069;
540.3000;0.1620;4.0223;
540.6000;0.1547;3.9967;
540.9000;0.1555;4.0095;
541.2000;0.1498;3.9992;
541.5000;0.1595;4.0249;
541.8000;0.1563;4.0172;
542.1000;0.1547;4.0120;
542.4000;0.1563;4.0120;
542.7000;0.1522;3.9992;
543.0000;0.1604;4.0172;
543.3000;0.1538;4.0018;
543.6000;0.1498;3.9864;
543.9000;0.1538;3.9992;
544.2000;0.1522;4.0018;
544.5000;0.1538;4.0043;
544.8000;0.1538;4.0069;
545.1000;0.1538;4.0018;
545.4000;0.1514;3.9992;
545.7000;0.1498;3.9915;
546.0000;0.1547;4.0043;
546.3000;0.1530;3.9890;
546.6000;0.1538;3.9838;
546.9000;0.1547;3.9838;
547.2000;0.1547;3.9813;
547.5000;0.1547;3.9838;
547.8000;0.1538;3.9838;
548.1000;0.1538;3.9864;
548.4000;0.1555;3.9967;
548.7000;0.1538;4.0018;
549.0000;0.1465;3.9710;
549.3000;0.1547;3.9813;
549.6000;0.1538;3.9787;
549.9000;0.1587;3.9813;
550.2000;0.1547;3.9813;
550.5000;0.1563;3.9813;
550.8000;0.1538;3.9838;
551.1000;0.1538;3.9813;
551.4000;0.1555;3.9915;
551.7000;0.1555;3.9967;
552.0000;0.1538;3.9915;
552.3000;0.1538;3.9890;
552.6000;0.1457;3.9684;
552.9000;0.1538;3.9967;
553.2000;0.1522;3.9915;
553.5000;0.1563;4.0172;
553.8000;0.1555;4.0043;
554.1000;0.1522;3.9890;
554.4000;0.1555;3.9967;
554.7000;0.1530;3.9890;
555.0000;0.1530;3.9864;
555.3000;0.1547;3.9813;
555.6000;0.1530;3.9736;
555.9000;0.1538;3.9761;
556.2000;0.1538;3.9787;
556.5000;0.1547;3.9787;
556.8000;0.1547;3.9761;
557.1000;0.1555;3.9864;
557.4000;0.1538;3.9915;
557.7000;0.1547;3.9890;
558.0000;0.1538;3.9967;
558.3000;0.1538;4.0018;
558.6000;0.1538;4.0018;
558.9000;0.1490;3.9838;
559.2000;0.1604;4.0197;
559.5000;0.1522;3.9992;
559.8000;0.1530;3.9915;
560.1000;0.1547;3.9992;
560.4000;0.1498;3.9915;
560.7000;0.1555;4.0120;
561.0000;0.1538;4.0095;
561.3000;0.1563;4.0197;
561.6000;0.1620;4.0351;
561.9000;0.1547;4.0069;
562.2000;0.1465;3.9915;
562.5000;0.1530;4.0146;
562.8000;0.1530;4.0095;
563.1000;0.1571;4.0120;
563.4000;0.1416;3.9684;
563.7000;0.1522;4.0043;
564.0000;0.1555;4.0018;
564.3000;0.1595;4.0146;
564.6000;0.1538;4.0043;
564.9000;0.1547;4.0043;
565.2000;0.1530;3.9864;
565.5000;0.1457;3.9556;
565.8000;0.1571;3.9838;
566.1000;0.1514;3.9659;
566.4000;0.1547;3.9838;
566.7000;0.1563;3.9890;
567.0000;0.1604;4.0095;
567.3000;0.1547;3.9838;
567.6000;0.1530;3.9890;
567.9000;0.1530;3.9890;
568.2000;0.1547;3.9890;
568.5000;0.1473;3.9787;
568.8000;0.1530;4.0018;
569.1000;0.1547;3.9992;
569.4000;0.1587;4.0095;
569.7000;0.1538;3.9864;
570.0000;0.1522;3.9761;
570.3000;0.1530;3.9813;
570.6000;0.1530;3.9787;
570.9000;0.1522;3.9838;
571.2000;0.1547;3.9967;
571.5000;0.1522;3.9941;
571.8000;0.1538;3.9941;
572.1000;0.1530;3.9890;
572.4000;0.1538;3.9864;
572.7000;0.1522;3.9838;
573.0000;0.1538;3.9761;
573.3000;0.1490;3.9684;
573.6000;0.1571;4.0043;
573.9000;0.1530;3.9967;
574.2000;0.1547;3.9992;
574.5000;0.1514;3.9941;
574.8000;0.1555;4.0095;
575.1000;0.1547;4.0069;
575.4000;0.1587;4.0095;
575.7000;0.1530;3.9941;
576.0000;0.1571;3.9992;
576.3000;0.1522;3.9838;
576.6000;0.1587;4.0018;
576.9000;0.1547;3.9864;
577.2000;0.1538;3.9941;
577.5000;0.1490;3.9838;
577.8000;0.1538;3.9967;
578.1000;0.1547;3.9941;
578.4000;0.1547;3.9915;
578.7000;0.1547;3.9838;
579.0000;0.1506;3.9838;
579.3000;0.1555;3.9967;
579.6000;0.1538;3.9890;
579.9000;0.1530;3.9864;
580.2000;0.1547;3.9890;
580.5000;0.1441;3.9582;
580.8000;0.1538;3.9864;
581.1000;0.1522;3.9864;
581.4000;0.1547;3.9992;
581.7000;0.1465;3.9864;
582.0000;0.1677;4.0480;
582.3000;0.1538;4.0018;
582.6000;0.1522;3.9967;
582.9000;0.1538;3.9890;
583.2000;0.1547;3.9864;
583.5000;0.1555;3.9813;
583.8000;0.1538;3.9736;
584.1000;0.1530;3.9684;
584.4000;0.1604;3.9890;
584.7000;0.1530;3.9684;
585.0000;0.1457;3.9325;
585.3000;0.1530;3.9556;
585.6000;0.1538;3.9505;
585.9000;0.1538;3.9607;
586.2000;0.1538;3.9582;
586.5000;0.1547;3.9505;
586.8000;0.1481;3.9453;
587.1000;0.1522;3.9607;
587.4000;0.1514;3.9607;
587.7000;0.1490;3.9556;
588.0000;0.1530;3.9710;
588.3000;0.1595;3.9967;
588.6000;0.1522;3.9761;
588.9000;0.1595;4.0043;
589.2000;0.1530;3.9864;
589.5000;0.1538;3.9864;
589.8000;0.1530;3.9890;
590.1000;0.1457;3.9787;
590.4000;0.1555;4.0018;
590.7000;0.1547;3.9915;
591.0000;0.1547;3.9967;
591.3000;0.1538;3.9890;
591.6000;0.1538;3.9838;
591.9000;0.1514;3.9787;
592.2000;0.1538;3.9838;
592.5000;0.1547;3.9915;
592.8000;0.1522;3.9915;
593.1000;0.1547;3.9992;
593.4000;0.1547;4.0043;
593.7000;0.1538;4.0018;
594.0000;0.1538;3.9941;
594.3000;0.1530;3.9967;
594.6000;0.1538;4.0043;
594.9000;0.1538;4.0043;
595.2000;0.1547;3.9915;
595.5000;0.1538;3.9992;
595.8000;0.1547;3.9941;
596.1000;0.1530;4.0018;
596.4000;0.1481;3.9864;
596.7000;0.1506;3.9915;
597.0000;0.1514;3.9890;
597.3000;0.1514;3.9941;
597.6000;0.1538;3.9941;
597.9000;0.1547;3.9992;
598.2000;0.1522;3.9890;
598.5000;0.1498;3.9787;
598.8000;0.1538;3.9915;
599.1000;0.1530;3.9992;
599.4000;0.1555;4.0146;
599.7000;0.1563;4.0197;
600.0000;0.1530;4.0095;
600.3000;0.1555;4.0146;
600.6000;0.1547;4.0018;
600.9000;0.1530;3.9992;
601.2000;0.1530;3.9890;
601.5000;0.1522;3.9838;
601.8000;0.1530;3.9813;
602.1000;0.1522;3.9736;
602.4000;0.1522;3.9556;
602.7000;0.1498;3.9377;
603.0000;0.1473;3.9171;
603.3000;0.1473;3.9069;
603.6000;0.1481;3.9017;
603.9000;0.1547;3.9094;
604.2000;0.1498;3.8992;
604.5000;0.1481;3.8966;
604.8000;0.1449;3.8812;
605.1000;0.1506;3.8992;
605.4000;0.1481;3.8889;
605.7000;0.1473;3.8838;
606.0000;0.1457;3.8812;
606.3000;0.1473;3.8838;
606.6000;0.1465;3.8735;
606.9000;0.1481;3.8812;
607.2000;0.1433;3.8684;
607.5000;0.1457;3.8787;
607.8000;0.1441;3.8761;
608.1000;0.1416;3.8607;
608.4000;0.1408;3.8633;
608.7000;0.1425;3.8658;
609.0000;0.1449;3.8633;
609.3000;0.1408;3.8504;
609.6000;0.1408;3.8556;
609.9000;0.1449;3.8684;
610.2000;0.1416;3.8607;
610.5000;0.1441;3.8684;
610.8000;0.1481;3.8838;
611.1000;0.1416;3.8633;
611.4000;0.1441;3.8633;
611.7000;0.1433;3.8684;
612.0000;0.1343;3.8504;
612.3000;0.1392;3.8607;
612.6000;0.1441;3.8633;
612.9000;0.1408;3.8607;
613.2000;0.1408;3.8607;
613.5000;0.1392;3.8633;
613.8000;0.1392;3.8607;
614.1000;0.1425;3.8710;
614.4000;0.1408;3.8607;
614.7000;0.1311;3.8299;
615.0000;0.1498;3.8863;
615.3000;0.1408;3.8581;
615.6000;0.1368;3.8427;
615.9000;0.1376;3.8530;
616.2000;0.1416;3.8633;
616.5000;0.1376;3.8453;
616.8000;0.1392;3.8581;
617.1000;0.1408;3.8684;
617.4000;0.1392;3.8710;
617.7000;0.1400;3.8710;
618.0000;0.1473;3.8889;
618.3000;0.1392;3.8607;
618.6000;0.1400;3.8530;
618.9000;0.1400;3.8633;
619.2000;0.1392;3.8633;
619.5000;0.1392;3.8607;
619.8000;0.1433;3.8710;
620.1000;0.1392;3.8735;
620.4000;0.1384;3.8607;
620.7000;0.1376;3.8581;
621.0000;0.1392;3.8607;
621.3000;0.1376;3.8530;
621.6000;0.1400;3.8504;
621.9000;0.1392;3.8556;
622.2000;0.1351;3.8530;
622.5000;0.1376;3.8633;
622.8000;0.1294;3.8376;
623.1000;0.1400;3.8735;
623.4000;0.1376;3.8607;
623.7000;0.1449;3.8812;
624.0000;0.1376;3.8479;
624.3000;0.1473;3.8812;
624.6000;0.1384;3.8530;
624.9000;0.1327;3.8402;
625.2000;0.1359;3.8453;
625.5000;0.1376;3.8427;
625.8000;0.1359;3.8453;
626.1000;0.1351;3.8427;
626.4000;0.1368;3.8427;
626.7000;0.1376;3.8376;
627.0000;0.1319;3.8350;
627.3000;0.1359;3.8402;
627.6000;0.1368;3.8402;
627.9000;0.1351;3.8402;
628.2000;0.1359;3.8350;
628.5000;0.1335;3.8325;
628.8000;0.1376;3.8427;
629.1000;0.1368;3.8402;
629.4000;0.1351;3.8350;
629.7000;0.1343;3.8248;
630.0000;0.1278;3.7991;
630.3000;0.1351;3.8222;
630.6000;0.1359;3.8248;
630.9000;0.1278;3.8068;
631.2000;0.1335;3.8222;
631.5000;0.1368;3.8350;
631.8000;0.1359;3.8350;
632.1000;0.1335;3.8325;
632.4000;0.1343;3.8273;
632.7000;0.1327;3.8171;
633.0000;0.1327;3.8145;
633.3000;0.1343;3.8299;
633.6000;0.1335;3.8171;
633.9000;0.1327;3.8017;
634.2000;0.1408;3.8248;
634.5000;0.1368;3.8248;
634.8000;0.1351;3.8171;
635.1000;0.1343;3.8171;
635.4000;0.1278;3.8017;
635.7000;0.1359;3.8248;
636.0000;0.1327;3.8273;
636.3000;0.1343;3.8299;
636.6000;0.1343;3.8350;
636.9000;0.1311;3.8248;
637.2000;0.1335;3.8273;
637.5000;0.1335;3.8427;
637.8000;0.1408;3.8812;
638.1000;0.1335;3.8530;
638.4000;0.1335;3.8556;
638.7000;0.1237;3.8248;
639.0000;0.1286;3.8248;
639.3000;0.1213;3.8145;
639.6000;0.1327;3.8453;
639.9000;0.1302;3.8427;
640.2000;0.1319;3.8453;
640.5000;0.1343;3.8453;
640.8000;0.1319;3.8427;
641.1000;0.1302;3.8350;
641.4000;0.1302;3.8325;
641.7000;0.1302;3.8325;
642.0000;0.1311;3.8350;
642.3000;0.1327;3.8325;
642.6000;0.1335;3.8299;
642.9000;0.1335;3.8299;
643.2000;0.1319;3.8197;
643.5000;0.1319;3.8222;
643.8000;0.1302;3.8273;
644.1000;0.1311;3.8376;
644.4000;0.1311;3.8453;
644.7000;0.1408;3.8633;
645.0000;0.1311;3.8350;
645.3000;0.1294;3.8248;
645.6000;0.1319;3.8299;
645.9000;0.1311;3.8273;
646.2000;0.1302;3.8248;
646.5000;0.1359;3.8325;
646.8000;0.1384;3.8530;
647.1000;0.1311;3.8453;
647.4000;0.1302;3.8402;
647.7000;0.1311;3.8325;
648.0000;0.1302;3.8376;
648.3000;0.1302;3.8402;
648.6000;0.1319;3.8504;
648.9000;0.1327;3.8581;
649.2000;0.1302;3.8504;
649.5000;0.1294;3.8479;
649.8000;0.1327;3.8479;
650.1000;0.1343;3.8581;
650.4000;0.1311;3.8376;
650.7000;0.1286;3.8299;
651.0000;0.1319;3.8453;
651.3000;0.1319;3.8504;
651.6000;0.1302;3.8453;
651.9000;0.1302;3.8402;
652.2000;0.1302;3.8376;
652.5000;0.1311;3.8325;
652.8000;0.1319;3.8273;
653.1000;0.1302;3.8273;
653.4000;0.1311;3.8299;
653.7000;0.1302;3.8299;
654.0000;0.1270;3.8197;
654.3000;0.1270;3.8197;
654.6000;0.1302;3.8248;
654.9000;0.1319;3.8248;
655.2000;0.1343;3.8376;
655.5000;0.1262;3.8120;
655.8000;0.1302;3.8120;
656.1000;0.1221;3.7940;
656.4000;0.1286;3.8171;
656.7000;0.1376;3.8427;
657.0000;0.1262;3.8068;
657.3000;0.1327;3.8197;
657.6000;0.1294;3.8145;
657.9000;0.1286;3.8120;
658.2000;0.1254;3.8017;
658.5000;0.1319;3.8068;
658.8000;0.1278;3.8068;
659.1000;0.1294;3.8094;
659.4000;0.1262;3.8197;
659.7000;0.1278;3.8222;
660.0000;0.1294;3.8376;
660.3000;0.1286;3.8402;
660.6000;0.1359;3.8556;
660.9000;0.1335;3.8427;
661.2000;0.1278;3.8299;
661.5000;0.1311;3.8453;
661.8000;0.1278;3.8350;
662.1000;0.1270;3.8299;
662.4000;0.1270;3.8376;
662.7000;0.1294;3.8427;
663.0000;0.1286;3.8376;
663.3000;0.1294;3.8427;
663.6000;0.1311;3.8479;
663.9000;0.1270;3.8325;
664.2000;0.1270;3.8350;
664.5000;0.1270;3.8376;
664.8000;0.1270;3.8350;
665.1000;0.1270;3.8299;
665.4000;0.1278;3.8376;
665.7000;0.1278;3.8325;
666.0000;0.1262;3.8197;
666.3000;0.1270;3.8273;
666.6000;0.1262;3.8222;
666.9000;0.1286;3.8171;
667.2000;0.1286;3.8299;
667.5000;0.1302;3.8376;
667.8000;0.1278;3.8299;
668.1000;0.1311;3.8376;
668.4000;0.1278;3.8299;
668.7000;0.1286;3.8350;
669.0000;0.1294;3.8350;
669.3000;0.1286;3.8273;
669.6000;0.1278;3.8197;
669.9000;0.1245;3.8197;
670.2000;0.1270;3.8350;
670.5000;0.1270;3.8273;
670.8000;0.1197;3.8068;
671.1000;0.1278;3.8248;
671.4000;0.1262;3.8145;
671.7000;0.1294;3.8197;
672.0000;0.1270;3.8094;
672.3000;0.1286;3.8120;
672.6000;0.1254;3.8094;
672.9000;0.1262;3.8197;
673.2000;0.1270;3.8171;
673.5000;0.1245;3.8094;
673.8000;0.1286;3.8197;
674.1000;0.1270;3.8248;
674.4000;0.1278;3.8222;
674.7000;0.1286;3.8350;
675.0000;0.1278;3.8350;
675.3000;0.1254;3.8273;
675.6000;0.1286;3.8273;
675.9000;0.1229;3.8171;
676.2000;0.1270;3.8325;
676.5000;0.1270;3.8325;
676.8000;0.1245;3.8325;
677.1000;0.1286;3.8479;
677.4000;0.1262;3.8222;
677.7000;0.1270;3.8145;
678.0000;0.1270;3.8197;
678.3000;0.1327;3.8376;
678.6000;0.1172;3.7991;
678.9000;0.1294;3.8299;
679.2000;0.1262;3.8248;
679.5000;0.1254;3.8273;
679.8000;0.1278;3.8299;
680.1000;0.1302;3.8402;
680.4000;0.1262;3.8248;
680.7000;0.1229;3.8197;
681.0000;0.1351;3.8556;
681.3000;0.1188;3.8145;
681.6000;0.1270;3.8427;
681.9000;0.1270;3.8273;
682.2000;0.1368;3.8479;
682.5000;0.1286;3.8222;
682.8000;0.1270;3.8171;
683.1000;0.1270;3.8145;
683.4000;0.1237;3.8068;
683.7000;0.1172;3.7889;
684.0000;0.1245;3.8094;
684.3000;0.1278;3.8171;
684.6000;0.1270;3.8145;
684.9000;0.1237;3.8094;
685.2000;0.1205;3.8017;
685.5000;0.1237;3.8068;
685.8000;0.1294;3.8197;
686.1000;0.1327;3.8222;
686.4000;0.1254;3.8094;
686.7000;0.1245;3.8171;
687.0000;0.1327;3.8350;
687.3000;0.1262;3.8145;
687.6000;0.1221;3.8017;
687.9000;0.1254;3.8043;
688.2000;0.1262;3.8043;
688.5000;0.1278;3.8120;
688.8000;0.1262;3.8171;
689.1000;0.1294;3.8222;
689.4000;0.1254;3.8145;
689.7000;0.1245;3.8145;
690.0000;0.1237;3.8120;
690.3000;0.1237;3.8094;
690.6000;0.1262;3.8094;
690.9000;0.1270;3.8120;
691.2000;0.1254;3.8068;
691.5000;0.1286;3.8171;
691.8000;0.1262;3.8145;
692.1000;0.1270;3.8145;
692.4000;0.1254;3.8145;
692.7000;0.1237;3.8120;
693.0000;0.1262;3.8197;
693.3000;0.1245;3.8094;
693.6000;0.1270;3.8197;
693.9000;0.1286;3.8222;
694.2000;0.1278;3.8145;
694.5000;0.1254;3.8145;
694.8000;0.1245;3.8145;
695.1000;0.1254;3.8248;
695.4000;0.1254;3.8350;
695.7000;0.1237;3.8350;
696.0000;0.1302;3.8556;
696.3000;0.1254;3.8402;
696.6000;0.1254;3.8402;
696.9000;0.1254;3.8325;
697.2000;0.1245;3.8273;
697.5000;0.1262;3.8171;
697.8000;0.1254;3.8094;
698.1000;0.1237;3.7991;
698.4000;0.1237;3.8017;
698.7000;0.1278;3.8145;
699.0000;0.1237;3.8068;
699.3000;0.1213;3.8017;
699.6000;0.1262;3.8145;
699.9000;0.1302;3.8350;
700.2000;0.1270;3.8197;
700.5000;0.1229;3.8094;
700.8000;0.1221;3.7966;
701.1000;0.1262;3.8094;
701.4000;0.1245;3.8145;
701.7000;0.1262;3.8068;
702.0000;0.1237;3.8017;
702.3000;0.1221;3.8068;
702.6000;0.1237;3.8043;
702.9000;0.1229;3.8068;
703.2000;0.1245;3.8017;
703.5000;0.1254;3.8043;
703.8000;0.1254;3.8094;
704.1000;0.1270;3.8094;
704.4000;0.1262;3.8094;
704.7000;0.1237;3.8043;
705.0000;0.1254;3.8068;
705.3000;0.1237;3.8017;
705.6000;0.1270;3.8094;
705.9000;0.1262;3.8043;
706.2000;0.1278;3.8171;
706.5000;0.1262;3.8197;
706.8000;0.1148;3.8017;
707.1000;0.1188;3.8197;
707.4000;0.1237;3.8273;
707.7000;0.1245;3.8222;
708.0000;0.1254;3.8197;
708.3000;0.1221;3.8145;
708.6000;0.1262;3.8402;
708.9000;0.1221;3.8299;
709.2000;0.1262;3.8325;
709.5000;0.1262;3.8350;
709.8000;0.1245;3.8376;
710.1000;0.1302;3.8530;
710.4000;0.1262;3.8376;
710.7000;0.1245;3.8299;
711.0000;0.1245;3.8325;
711.3000;0.1262;3.8350;
711.6000;0.1254;3.8325;
711.9000;0.1221;3.8197;
712.2000;0.1213;3.8197;
712.5000;0.1245;3.8299;
712.8000;0.1270;3.8350;
713.1000;0.1270;3.8350;
713.4000;0.1245;3.8299;
713.7000;0.1245;3.8325;
714.0000;0.1197;3.8145;
714.3000;0.1270;3.8350;
714.6000;0.1302;3.8376;
714.9000;0.1254;3.8197;
715.2000;0.1254;3.8145;
715.5000;0.1270;3.8325;
715.8000;0.1270;3.8222;
716.1000;0.1245;3.8120;
716.4000;0.1335;3.8453;
716.7000;0.1148;3.7863;
717.0000;0.1254;3.8145;
717.3000;0.1245;3.8094;
717.6000;0.1245;3.8120;
717.9000;0.1262;3.8171;
718.2000;0.1213;3.8094;
718.5000;0.1229;3.8145;
718.8000;0.1131;3.7889;
719.1000;0.1221;3.8222;
719.4000;0.1221;3.8273;
719.7000;0.1229;3.8350;
720.0000;0.1213;3.8248;
720.3000;0.1237;3.8299;
720.6000;0.1221;3.8197;
720.9000;0.1221;3.8120;
721.2000;0.1229;3.8043;
721.5000;0.1229;3.8068;
721.8000;0.1245;3.8145;
722.1000;0.1213;3.8068;
722.4000;0.1213;3.8120;
722.7000;0.1237;3.8145;
723.0000;0.1286;3.8350;
723.3000;0.1229;3.8248;
723.6000;0.1245;3.8145;
723.9000;0.1172;3.8043;
724.2000;0.1229;3.8120;
724.5000;0.1229;3.8120;
724.8000;0.1229;3.8145;
725.1000;0.1335;3.8479;
725.4000;0.1245;3.8145;
725.7000;0.1262;3.8171;
726.0000;0.1245;3.8094;
726.3000;0.1237;3.7991;
726.6000;0.1245;3.8017;
726.9000;0.1237;3.7940;
727.2000;0.1229;3.7966;
727.5000;0.1278;3.8171;
727.8000;0.1262;3.8197;
728.1000;0.1221;3.8094;
728.4000;0.1237;3.8120;
728.7000;0.1237;3.8145;
729.0000;0.1172;3.8017;
729.3000;0.1245;3.8248;
729.6000;0.1188;3.8171;
729.9000;0.1221;3.8248;
730.2000;0.1180;3.8145;
730.5000;0.1221;3.8171;
730.8000;0.1229;3.8248;
731.1000;0.1180;3.8120;
731.4000;0.1237;3.8248;
731.7000;0.1221;3.8248;
732.0000;0.1237;3.8273;
732.3000;0.1229;3.8299;
732.6000;0.1237;3.8222;
732.9000;0.1229;3.8171;
733.2000;0.1254;3.8222;
733.5000;0.1237;3.8299;
733.8000;0.1237;3.8273;
734.1000;0.1229;3.8350;
734.4000;0.1229;3.8248;
734.7000;0.1221;3.8299;
735.0000;0.1229;3.8248;
735.3000;0.1205;3.8197;
735.6000;0.1229;3.8197;
735.9000;0.1278;3.8350;
736.2000;0.1254;3.8197;
736.5000;0.1205;3.8068;
736.8000;0.1221;3.8094;
737.1000;0.1245;3.8171;
737.4000;0.1221;3.8120;
737.7000;0.1245;3.8094;
738.0000;0.1205;3.7966;
738.3000;0.1148;3.7863;
738.6000;0.1213;3.8094;
738.9000;0.1294;3.8248;
739.2000;0.1229;3.8145;
739.5000;0.1237;3.8197;
739.8000;0.1221;3.8120;
740.1000;0.1245;3.8171;
740.4000;0.1229;3.8094;
740.7000;0.1213;3.8068;
741.0000;0.1237;3.8171;
741.3000;0.1148;3.7914;
741.6000;0.1221;3.8171;
741.9000;0.1237;3.8197;
742.2000;0.1229;3.8222;
742.5000;0.1237;3.8325;
742.8000;0.1107;3.7940;
743.1000;0.1237;3.8299;
743.4000;0.1270;3.8299;
743.7000;0.1245;3.8273;
744.0000;0.1229;3.8171;
744.3000;0.1221;3.8068;
744.6000;0.1221;3.8068;
744.9000;0.1229;3.8043;
745.2000;0.1254;3.8068;
745.5000;0.1221;3.7889;
745.8000;0.1213;3.7914;
746.1000;0.1180;3.7863;
746.4000;0.1254;3.7991;
746.7000;0.1254;3.7991;
747.0000;0.1237;3.7914;
747.3000;0.1237;3.7863;
747.6000;0.1229;3.7914;
747.9000;0.1221;3.7966;
748.2000;0.1229;3.7991;
748.5000;0.1229;3.7991;
748.8000;0.1229;3.8068;
749.1000;0.1254;3.8222;
749.4000;0.1229;3.8222;
749.7000;0.1213;3.8171;
750.0000;0.1148;3.7991;
750.3000;0.1221;3.8068;
750.6000;0.1254;3.8171;
750.9000;0.1148;3.7889;
751.2000;0.1221;3.8120;
751.5000;0.1270;3.8273;
751.8000;0.1188;3.8094;
752.1000;0.1213;3.8094;
752.4000;0.1229;3.8145;
752.7000;0.1172;3.7940;
753.0000;0.1229;3.8017;
753.3000;0.1229;3.8068;
753.6000;0.1107;3.7786;
753.9000;0.1221;3.8197;
754.2000;0.1221;3.8094;
754.5000;0.1221;3.8197;
754.8000;0.1221;3.8120;
755.1000;0.1213;3.8145;
755.4000;0.1237;3.8171;
755.7000;0.1254;3.8222;
756.0000;0.1221;3.8171;
756.3000;0.1213;3.8094;
756.6000;0.1221;3.8068;
756.9000;0.1229;3.8068;
757.2000;0.1229;3.8145;
757.5000;0.1229;3.8145;
757.8000;0.1221;3.8171;
758.1000;0.1205;3.8094;
758.4000;0.1221;3.8120;
758.7000;0.1229;3.8094;
759.0000;0.1229;3.8017;
759.3000;0.1213;3.7991;
759.6000;0.1205;3.7940;
759.9000;0.1205;3.7966;
760.2000;0.1221;3.7914;
760.5000;0.1327;3.8248;
760.8000;0.1188;3.8017;
761.1000;0.1221;3.8222;
761.4000;0.1115;3.7940;
761.7000;0.1213;3.8068;
762.0000;0.1237;3.8145;
762.3000;0.1221;3.8068;
762.6000;0.1205;3.8094;
762.9000;0.1245;3.8197;
763.2000;0.1237;3.8171;
763.5000;0.1245;3.8171;
763.8000;0.1213;3.8068;
764.1000;0.1245;3.8171;
764.4000;0.1213;3.8145;
764.7000;0.1205;3.8145;
765.0000;0.1221;3.8145;
765.3000;0.1213;3.8094;
765.6000;0.1221;3.8120;
765.9000;0.1205;3.8068;
766.2000;0.1221;3.8120;
766.5000;0.1205;3.8094;
766.8000;0.1229;3.8197;
767.1000;0.1237;3.8171;
767.4000;0.1213;3.8094;
767.7000;0.1286;3.8299;
768.0000;0.1311;3.8350;
768.3000;0.1221;3.8145;
768.6000;0.1229;3.8120;
768.9000;0.1221;3.8145;
769.2000;0.1237;3.8171;
769.5000;0.1237;3.8197;
769.8000;0.1197;3.8068;
770.1000;0.1213;3.8068;
770.4000;0.1229;3.8068;
770.7000;0.1213;3.8043;
771.0000;0.1180;3.7837;
771.3000;0.1188;3.7812;
771.6000;0.1237;3.7889;
771.9000;0.1131;3.7606;
772.2000;0.1221;3.7863;
772.5000;0.1237;3.7966;
772.8000;0.1229;3.7966;
773.1000;0.1197;3.7914;
773.4000;0.1221;3.7991;
773.7000;0.1221;3.7889;
774.0000;0.1213;3.7889;
774.3000;0.1205;3.7889;
774.6000;0.1131;3.7735;
774.9000;0.1229;3.7991;
775.2000;0.1245;3.8120;
775.5000;0.1270;3.8171;
775.8000;0.1245;3.8094;
776.1000;0.1319;3.8299;
776.4000;0.1213;3.7991;
776.7000;0.1213;3.7991;
777.0000;0.1099;3.7709;
777.3000;0.1205;3.7991;
777.6000;0.1221;3.8145;
777.9000;0.1197;3.7991;
778.2000;0.1237;3.8017;
778.5000;0.1221;3.7966;
778.8000;0.1213;3.7914;
779.1000;0.1221;3.7940;
779.4000;0.1205;3.7966;
779.7000;0.1237;3.7991;
780.0000;0.1229;3.7940;
780.3000;0.1237;3.7966;
780.6000;0.1229;3.7966;
780.9000;0.1221;3.8017;
781.2000;0.1294;3.8222;
781.5000;0.1221;3.8043;
781.8000;0.1213;3.7940;
782.1000;0.1205;3.8017;
782.4000;0.1245;3.8068;
782.7000;0.1229;3.8068;
783.0000;0.1229;3.8120;
783.3000;0.1205;3.8145;
783.6000;0.1213;3.8248;
783.9000;0.1229;3.8325;
784.2000;0.1221;3.8350;
784.5000;0.1205;3.8325;
784.8000;0.1180;3.8197;
785.1000;0.1237;3.8376;
785.4000;0.1164;3.8120;
785.7000;0.1205;3.8248;
786.0000;0.1213;3.8273;
786.3000;0.1213;3.8197;
786.6000;0.1197;3.8171;
786.9000;0.1156;3.8145;
787.2000;0.1262;3.8350;
787.5000;0.1245;3.8248;
787.8000;0.1229;3.8248;
788.1000;0.1213;3.8197;
788.4000;0.1229;3.8222;
788.7000;0.1213;3.8171;
789.0000;0.1213;3.8171;
789.3000;0.1197;3.8145;
789.6000;0.1205;3.8171;
789.9000;0.1245;3.8350;
790.2000;0.1221;3.8299;
790.5000;0.1213;3.8299;
790.8000;0.1188;3.8145;
791.1000;0.1237;3.8325;
791.4000;0.1229;3.8402;
791.7000;0.1213;3.8402;
792.0000;0.1131;3.8094;
792.3000;0.1213;3.8273;
792.6000;0.1245;3.8376;
792.9000;0.1237;3.8350;
793.2000;0.1245;3.8299;
793.5000;0.1197;3.8120;
793.8000;0.1205;3.7991;
794.1000;0.1245;3.8120;
794.4000;0.1221;3.8043;
794.7000;0.1237;3.8094;
795.0000;0.1229;3.8094;
795.3000;0.1221;3.8171;
795.6000;0.1213;3.8068;
795.9000;0.1213;3.8120;
796.2000;0.1221;3.8171;
796.5000;0.1229;3.8145;
796.8000;0.1205;3.8120;
797.1000;0.1213;3.8145;
797.4000;0.1213;3.8171;
797.7000;0.1221;3.8299;
798.0000;0.1229;3.8222;
798.3000;0.1197;3.8120;
798.6000;0.1237;3.8222;
798.9000;0.1205;3.8145;
799.2000;0.1197;3.8145;
799.5000;0.1197;3.8094;
799.8000;0.1213;3.8145;
800.1000;0.1180;3.8068;
800.4000;0.1221;3.8120;
800.7000;0.1213;3.8043;
801.0000;0.1229;3.8017;
801.3000;0.1221;3.8068;
801.6000;0.1245;3.8068;
801.9000;0.1213;3.8017;
802.2000;0.1286;3.8248;
802.5000;0.1229;3.8171;
802.8000;0.1205;3.8120;
803.1000;0.1205;3.8043;
803.4000;0.1188;3.8120;
803.7000;0.1213;3.8171;
804.0000;0.1221;3.8171;
804.3000;0.1229;3.8120;
804.6000;0.1197;3.8043;
804.9000;0.1205;3.8017;
805.2000;0.1221;3.8171;
805.5000;0.1237;3.8273;
805.8000;0.1197;3.8248;
806.1000;0.1229;3.8350;
806.4000;0.1237;3.8350;
806.7000;0.1213;3.8273;
807.0000;0.1156;3.8068;
807.3000;0.1188;3.8248;
807.6000;0.1188;3.8171;
807.9000;0.1221;3.8145;
808.2000;0.1205;3.8068;
808.5000;0.1197;3.8043;
808.8000;0.1205;3.8094;
809.1000;0.1205;3.8017;
809.4000;0.1229;3.8145;
809.7000;0.1205;3.8017;
810.0000;0.1270;3.8171;
810.3000;0.1229;3.8171;
810.6000;0.1221;3.8248;
810.9000;0.1286;3.8376;
811.2000;0.1229;3.8222;
811.5000;0.1221;3.8273;
811.8000;0.1197;3.8248;
812.1000;0.1205;3.8197;
812.4000;0.1254;3.8325;
812.7000;0.1229;3.8222;
813.0000;0.1229;3.8171;
813.3000;0.1205;3.8145;
813.6000;0.1229;3.8248;
813.9000;0.1245;3.8299;
814.2000;0.1205;3.8248;
814.5000;0.1221;3.8273;
814.8000;0.1180;3.8145;
815.1000;0.1205;3.8197;
815.4000;0.1221;3.8222;
815.7000;0.1245;3.8325;
816.0000;0.1278;3.8453;
816.3000;0.1221;3.8197;
816.6000;0.1237;3.8222;
816.9000;0.1221;3.8222;
817.2000;0.1229;3.8273;
817.5000;0.1213;3.8197;
817.8000;0.1058;3.7786;
818.1000;0.1302;3.8350;
818.4000;0.1262;3.8222;
818.7000;0.1205;3.8017;
819.0000;0.1205;3.7940;
819.3000;0.1221;3.8043;
819.6000;0.1115;3.7812;
819.9000;0.1221;3.8171;
820.2000;0.1197;3.8043;
820.5000;0.1197;3.8017;
820.8000;0.1229;3.8248;
821.1000;0.1254;3.8350;
821.4000;0.1172;3.8068;
821.7000;0.1213;3.8145;
822.0000;0.1229;3.8222;
822.3000;0.1221;3.8197;
822.6000;0.1172;3.7991;
822.9000;0.1229;3.8120;
823.2000;0.1221;3.8094;
823.5000;0.1221;3.8043;
823.8000;0.1213;3.7966;
824.1000;0.1229;3.8094;
824.4000;0.1213;3.7991;
824.7000;0.1245;3.8145;
825.0000;0.1213;3.8043;
825.3000;0.1221;3.8094;
825.6000;0.1205;3.8043;
825.9000;0.1197;3.8068;
826.2000;0.1213;3.8145;
826.5000;0.1213;3.8120;
826.8000;0.1229;3.8197;
827.1000;0.1319;3.8350;
827.4000;0.1221;3.8094;
827.7000;0.1221;3.8094;
828.0000;0.1221;3.8120;
828.3000;0.1213;3.8145;
828.6000;0.1237;3.8222;
828.9000;0.1221;3.8120;
829.2000;0.1229;3.8171;
829.5000;0.1213;3.8222;
829.8000;0.1213;3.8299;
830.1000;0.1205;3.8197;
830.4000;0.1213;3.8197;
830.7000;0.1221;3.8145;
831.0000;0.1221;3.8068;
831.3000;0.1205;3.8068;
831.6000;0.1197;3.8094;
831.9000;0.1205;3.8171;
832.2000;0.1237;3.8222;
832.5000;0.1213;3.8197;
832.8000;0.1213;3.8299;
833.1000;0.1213;3.8222;
833.4000;0.1180;3.8068;
833.7000;0.1221;3.8171;
834.0000;0.1164;3.7940;
834.3000;0.1164;3.8017;
834.6000;0.1221;3.8094;
834.9000;0.1197;3.7991;
835.2000;0.1229;3.8145;
835.5000;0.1197;3.8094;
835.8000;0.1213;3.8197;
836.1000;0.1237;3.8325;
836.4000;0.1245;3.8402;
836.7000;0.1205;3.8350;
837.0000;0.1205;3.8427;
837.3000;0.1213;3.8453;
837.6000;0.1205;3.8453;
837.9000;0.1172;3.8376;
838.2000;0.1213;3.8376;
838.5000;0.1221;3.8376;
838.8000;0.1229;3.8427;
839.1000;0.1229;3.8453;
839.4000;0.1205;3.8376;
839.7000;0.1221;3.8376;
840.0000;0.1278;3.8530;
840.3000;0.1221;3.8299;
840.6000;0.1197;3.8222;
840.9000;0.1221;3.8248;
841.2000;0.1205;3.8171;
841.5000;0.1221;3.8222;
841.8000;0.1229;3.8273;
842.1000;0.1197;3.8222;
842.4000;0.1237;3.8299;
842.7000;0.1229;3.8402;
843.0000;0.1205;3.8402;
843.3000;0.1213;3.8427;
843.6000;0.1221;3.8479;
843.9000;0.1188;3.8427;
844.2000;0.1197;3.8325;
844.5000;0.1197;3.8299;
844.8000;0.1213;3.8350;
845.1000;0.1221;3.8402;
845.4000;0.1188;3.8350;
845.7000;0.1205;3.8376;
846.0000;0.1197;3.8273;
846.3000;0.1221;3.8273;
846.6000;0.1148;3.8120;
846.9000;0.1213;3.8299;
847.2000;0.1213;3.8325;
847.5000;0.1262;3.8402;
847.8000;0.1213;3.8376;
848.1000;0.1245;3.8479;
848.4000;0.1205;3.8299;
848.7000;0.1205;3.8248;
849.0000;0.1205;3.8197;
849.3000;0.1205;3.8197;
849.6000;0.1172;3.8043;
849.9000;0.1156;3.7966;
850.2000;0.1172;3.7889;
850.5000;0.1213;3.7991;
850.8000;0.1197;3.8043;
851.1000;0.1205;3.8094;
851.4000;0.1205;3.8068;
851.7000;0.1327;3.8376;
852.0000;0.1221;3.8043;
852.3000;0.1205;3.8043;
852.6000;0.1205;3.8068;
852.9000;0.1156;3.7966;
853.2000;0.1213;3.8068;
853.5000;0.1197;3.8017;
853.8000;0.1221;3.8145;
854.1000;0.1237;3.8171;
854.4000;0.1229;3.8171;
854.7000;0.1221;3.8171;
855.0000;0.1213;3.8197;
855.3000;0.1156;3.8043;
855.6000;0.1229;3.8171;
855.9000;0.1197;3.8094;
856.2000;0.1205;3.8068;
856.5000;0.1205;3.8145;
856.8000;0.1164;3.8068;
857.1000;0.1213;3.8222;
857.4000;0.1262;3.8325;
857.7000;0.1213;3.8222;
858.0000;0.1270;3.8402;
858.3000;0.1229;3.8325;
858.6000;0.1205;3.8273;
858.9000;0.1221;3.8350;
859.2000;0.1229;3.8350;
859.5000;0.1213;3.8325;
859.8000;0.1229;3.8299;
860.1000;0.1205;3.8273;
860.4000;0.1213;3.8376;
860.7000;0.1180;3.8273;
861.0000;0.1221;3.8402;
861.3000;0.1286;3.8453;
861.6000;0.1213;3.8273;
861.9000;0.1197;3.8145;
862.2000;0.1213;3.8222;
862.5000;0.1197;3.8273;
862.8000;0.1213;3.8299;
863.1000;0.1115;3.8017;
863.4000;0.1205;3.8248;
863.7000;0.1205;3.8197;
864.0000;0.1319;3.8479;
864.3000;0.1221;3.8145;
864.6000;0.1221;3.8145;
864.9000;0.1221;3.8197;
865.2000;0.1221;3.8171;
865.5000;0.1213;3.8197;
865.8000;0.1164;3.8120;
866.1000;0.1229;3.8376;
866.4000;0.1197;3.8299;
866.7000;0.1213;3.8376;
867.0000;0.1221;3.8325;
867.3000;0.1213;3.8299;
867.6000;0.1205;3.8171;
867.9000;0.1213;3.8248;
868.2000;0.1229;3.8299;
868.5000;0.1131;3.8171;
868.8000;0.1245;3.8453;
869.1000;0.1221;3.8402;
869.4000;0.1205;3.8376;
869.7000;0.1213;3.8248;
870.0000;0.1213;3.8222;
870.3000;0.1221;3.8120;
870.6000;0.1245;3.8068;
870.9000;0.1221;3.8017;
871.2000;0.1245;3.8017;
871.5000;0.1221;3.7991;
871.8000;0.1205;3.8017;
872.1000;0.1262;3.8222;
872.4000;0.1205;3.7991;
872.7000;0.1221;3.7966;
873.0000;0.1278;3.8094;
873.3000;0.1221;3.7940;
873.6000;0.1213;3.7837;
873.9000;0.1205;3.7889;
874.2000;0.1197;3.7991;
874.5000;0.1213;3.8094;
874.8000;0.1221;3.8068;
875.1000;0.1197;3.8068;
875.4000;0.1213;3.8145;
875.7000;0.1229;3.8273;
876.0000;0.1197;3.8120;
876.3000;0.1213;3.8120;
876.6000;0.1221;3.8197;
876.9000;0.1221;3.8197;
877.2000;0.1221;3.8376;
877.5000;0.1213;3.8376;
877.8000;0.1205;3.8427;
878.1000;0.1197;3.8350;
878.4000;0.1221;3.8504;
878.7000;0.1205;3.8479;
879.0000;0.1262;3.8684;
879.3000;0.1237;3.8607;
879.6000;0.1205;3.8479;
879.9000;0.1180;3.8453;
880.2000;0.1205;3.8479;
880.5000;0.1245;3.8556;
880.8000;0.1221;3.8427;
881.1000;0.1213;3.8479;
881.4000;0.1221;3.8581;
881.7000;0.1188;3.8504;
882.0000;0.1213;3.8556;
882.3000;0.1213;3.8504;
882.6000;0.1221;3.8530;
882.9000;0.1197;3.8479;
883.2000;0.1188;3.8427;
883.5000;0.1221;3.8479;
883.8000;0.1302;3.8607;
884.1000;0.1197;3.8325;
884.4000;0.1205;3.8222;
884.7000;0.1188;3.8171;
885.0000;0.1221;3.8273;
885.3000;0.1180;3.8222;
885.6000;0.1205;3.8376;
885.9000;0.1148;3.8197;
886.2000;0.1221;3.8504;
886.5000;0.1221;3.8479;
886.8000;0.1197;3.8453;
887.1000;0.1327;3.8940;
887.4000;0.1205;3.8427;
887.7000;0.1213;3.8402;
888.0000;0.1205;3.8376;
888.3000;0.1221;3.8402;
888.6000;0.1140;3.8145;
888.9000;0.1205;3.8273;
889.2000;0.1286;3.8453;
889.5000;0.1205;3.8350;
889.8000;0.1229;3.8325;
890.1000;0.1213;3.8376;
890.4000;0.1221;3.8299;
890.7000;0.1205;3.8376;
891.0000;0.1229;3.8427;
891.3000;0.1229;3.8325;
891.6000;0.1213;3.8273;
891.9000;0.1205;3.8299;
892.2000;0.1205;3.8197;
892.5000;0.1229;3.8171;
892.8000;0.1213;3.8222;
893.1000;0.1213;3.8273;
893.4000;0.1197;3.8273;
893.7000;0.1213;3.8299;
894.0000;0.1213;3.8299;
894.3000;0.1221;3.8299;
894.6000;0.1254;3.8530;
894.9000;0.1229;3.8427;
895.2000;0.1156;3.8325;
895.5000;0.1205;3.8479;
895.8000;0.1221;3.8479;
896.1000;0.1131;3.8197;
896.4000;0.1221;3.8504;
896.7000;0.1123;3.8325;
897.0000;0.1188;3.8427;
897.3000;0.1172;3.8376;
897.6000;0.1221;3.8453;
897.9000;0.1205;3.8376;
898.2000;0.1205;3.8402;
898.5000;0.1197;3.8350;
898.8000;0.1213;3.8350;
899.1000;0.1221;3.8427;
899.4000;0.1205;3.8376;
899.7000;0.1205;3.8427;
900.0000;0.1229;3.8556;
900.3000;0.1213;3.8427;
900.6000;0.1262;3.8504;
900.9000;0.1237;3.8453;
901.2000;0.1213;3.8427;
901.5000;0.1245;3.8556;
901.8000;0.1221;3.8427;
902.1000;0.1237;3.8376;
902.4000;0.1197;3.8325;
902.7000;0.1197;3.8427;
903.0000;0.1221;3.8504;
903.3000;0.1213;3.8350;
903.6000;0.1205;3.8350;
903.9000;0.1205;3.8325;
904.2000;0.1245;3.8376;
904.5000;0.1213;3.8145;
904.8000;0.1221;3.8222;
905.1000;0.1205;3.8145;
905.4000;0.1172;3.8043;
905.7000;0.1237;3.8222;
906.0000;0.1221;3.8145;
906.3000;0.1221;3.8145;
906.6000;0.1221;3.8197;
906.9000;0.1213;3.8248;
907.2000;0.1205;3.8222;
907.5000;0.1188;3.8222;
907.8000;0.1213;3.8197;
908.1000;0.1205;3.8222;
908.4000;0.1180;3.8068;
908.7000;0.1164;3.8043;
909.0000;0.1197;3.8120;
909.3000;0.1156;3.8068;
909.6000;0.1205;3.8068;
909.9000;0.1213;3.8197;
910.2000;0.1131;3.8094;
910.5000;0.1221;3.8325;
910.8000;0.1197;3.8197;
911.1000;0.1237;3.8273;
911.4000;0.1197;3.8068;
911.7000;0.1197;3.8017;
912.0000;0.1197;3.7966;
912.3000;0.1229;3.8094;
912.6000;0.1180;3.8043;
912.9000;0.1164;3.8145;
913.2000;0.1197;3.8197;
913.5000;0.1213;3.8273;
913.8000;0.1188;3.8171;
914.1000;0.1213;3.8273;
914.4000;0.1164;3.8197;
914.7000;0.1229;3.8350;
915.0000;0.1172;3.8299;
915.3000;0.1197;3.8453;
915.6000;0.1205;3.8402;
915.9000;0.1229;3.8427;
916.2000;0.1229;3.8479;
916.5000;0.1180;3.8350;
916.8000;0.1237;3.8581;
917.1000;0.1237;3.8530;
917.4000;0.1213;3.8504;
917.7000;0.1302;3.8787;
918.0000;0.1302;3.8812;
918.3000;0.1213;3.8530;
918.6000;0.1197;3.8479;
918.9000;0.1205;3.8453;
919.2000;0.1148;3.8350;
919.5000;0.1213;3.8581;
919.8000;0.1205;3.8581;
920.1000;0.1237;3.8735;
920.4000;0.1205;3.8556;
920.7000;0.1213;3.8530;
921.0000;0.1229;3.8556;
921.3000;0.1197;3.8427;
921.6000;0.1180;3.8376;
921.9000;0.1229;3.8376;
922.2000;0.1221;3.8402;
922.5000;0.1205;3.8350;
922.8000;0.1213;3.8402;
923.1000;0.1205;3.8453;
923.4000;0.1172;3.8402;
923.7000;0.1229;3.8504;
924.0000;0.1205;3.8376;
924.3000;0.1213;3.8479;
924.6000;0.1205;3.8504;
924.9000;0.1213;3.8479;
925.2000;0.1229;3.8479;
925.5000;0.1197;3.8427;
925.8000;0.1188;3.8427;
926.1000;0.1213;3.8453;
926.4000;0.1205;3.8402;
926.7000;0.1213;3.8402;
927.0000;0.1278;3.8581;
927.3000;0.1213;3.8504;
927.6000;0.1205;3.8479;
927.9000;0.1107;3.8120;
928.2000;0.1188;3.8350;
928.5000;0.1188;3.8376;
928.8000;0.1148;3.8222;
929.1000;0.1180;3.8248;
929.4000;0.1188;3.8325;
929.7000;0.1270;3.8607;
930.0000;0.1197;3.8427;
930.3000;0.1172;3.8350;
930.6000;0.1188;3.8427;
930.9000;0.1172;3.8299;
931.2000;0.1221;3.8427;
931.5000;0.1229;3.8427;
931.8000;0.1205;3.8402;
932.1000;0.1294;3.8735;
932.4000;0.1213;3.8479;
932.7000;0.1213;3.8453;
933.0000;0.1221;3.8453;
933.3000;0.1188;3.8376;
933.6000;0.1229;3.8427;
933.9000;0.1205;3.8427;
934.2000;0.1245;3.8556;
934.5000;0.1188;3.8376;
934.8000;0.1213;3.8402;
935.1000;0.1197;3.8299;
935.4000;0.1205;3.8299;
935.7000;0.1205;3.8222;
936.0000;0.1294;3.8530;
936.3000;0.1221;3.8299;
936.6000;0.1188;3.8299;
936.9000;0.1180;3.8222;
937.2000;0.1205;3.8299;
937.5000;0.1188;3.8248;
937.8000;0.1229;3.8350;
938.1000;0.1221;3.8299;
938.4000;0.1197;3.8299;
938.7000;0.1205;3.8299;
939.0000;0.1205;3.8350;
939.3000;0.1205;3.8402;
939.6000;0.1270;3.8607;
939.9000;0.1188;3.8402;
940.2000;0.1205;3.8479;
940.5000;0.1229;3.8633;
940.8000;0.1221;3.8530;
941.1000;0.1188;3.8453;
941.4000;0.1164;3.8350;
941.7000;0.1262;3.8710;
942.0000;0.1180;3.8402;
942.3000;0.1197;3.8402;
942.6000;0.1262;3.8710;
942.9000;0.1205;3.8556;
943.2000;0.1188;3.8504;
943.5000;0.1205;3.8479;
943.8000;0.1197;3.8402;
944.1000;0.1205;3.8453;
944.4000;0.1221;3.8479;
944.7000;0.1180;3.8402;
945.0000;0.1205;3.8504;
945.3000;0.1213;3.8453;
945.6000;0.1221;3.8504;
945.9000;0.1229;3.8607;
946.2000;0.1197;3.8530;
946.5000;0.1213;3.8427;
946.8000;0.1197;3.8376;
947.1000;0.1221;3.8427;
947.4000;0.1205;3.8273;
947.7000;0.1164;3.8171;
948.0000;0.1188;3.8248;
948.3000;0.1188;3.8350;
948.6000;0.1205;3.8402;
948.9000;0.1188;3.8350;
949.2000;0.1221;3.8504;
949.5000;0.1197;3.8402;
949.8000;0.1205;3.8453;
950.1000;0.1172;3.8427;
950.4000;0.1205;3.8530;
950.7000;0.1254;3.8658;
951.0000;0.1188;3.8504;
951.3000;0.1229;3.8504;
951.6000;0.1188;3.8402;
951.9000;0.1197;3.8350;
952.2000;0.1188;3.8248;
952.5000;0.1205;3.8299;
952.8000;0.1156;3.8171;
953.1000;0.1221;3.8248;
953.4000;0.1197;3.8120;
953.7000;0.1164;3.8043;
954.0000;0.1229;3.8171;
954.3000;0.1229;3.8171;
954.6000;0.1229;3.8197;
954.9000;0.1270;3.8350;
955.2000;0.1188;3.8068;
955.5000;0.1213;3.8120;
955.8000;0.1205;3.8094;
956.1000;0.1172;3.8017;
956.4000;0.1197;3.8145;
956.7000;0.1188;3.8197;
957.0000;0.1180;3.8248;
957.3000;0.1205;3.8222;
957.6000;0.1123;3.8043;
957.9000;0.1188;3.8197;
958.2000;0.1237;3.8299;
958.5000;0.1205;3.8248;
958.8000;0.1213;3.8145;
959.1000;0.1262;3.8325;
959.4000;0.1180;3.8094;
959.7000;0.1213;3.8222;
960.0000;0.1156;3.8145;
960.3000;0.1205;3.8197;
960.6000;0.1172;3.8068;
960.9000;0.1180;3.8171;
961.2000;0.1197;3.8299;
961.5000;0.1197;3.8299;
961.8000;0.1221;3.8376;
962.1000;0.1205;3.8453;
962.4000;0.1197;3.8427;
962.7000;0.1286;3.8633;
963.0000;0.1205;3.8427;
963.3000;0.1213;3.8350;
963.6000;0.1188;3.8248;
963.9000;0.1197;3.8325;
964.2000;0.1205;3.8376;
964.5000;0.1197;3.8376;
964.8000;0.1213;3.8427;
965.1000;0.1197;3.8402;
965.4000;0.1188;3.8402;
965.7000;0.1229;3.8530;
966.0000;0.1221;3.8556;
966.3000;0.1213;3.8556;
966.6000;0.1213;3.8556;
966.9000;0.1221;3.8684;
967.2000;0.1188;3.8607;
967.5000;0.1205;3.8556;
967.8000;0.1197;3.8453;
968.1000;0.1197;3.8479;
968.4000;0.1188;3.8453;
968.7000;0.1197;3.8479;
969.0000;0.1197;3.8556;
969.3000;0.1213;3.8607;
969.6000;0.1213;3.8556;
969.9000;0.1229;3.8581;
970.2000;0.1205;3.8453;
970.5000;0.1335;3.8838;
970.8000;0.1197;3.8402;
971.1000;0.1213;3.8453;
971.4000;0.1221;3.8427;
971.7000;0.1180;3.8325;
972.0000;0.1302;3.8658;
972.3000;0.1197;3.8350;
972.6000;0.1229;3.8453;
972.9000;0.1197;3.8402;
973.2000;0.1164;3.8325;
973.5000;0.1245;3.8504;
973.8000;0.1140;3.8171;
974.1000;0.1180;3.8222;
974.4000;0.1205;3.8376;
974.7000;0.1205;3.8402;
975.0000;0.1188;3.8376;
975.3000;0.1107;3.8171;
975.6000;0.1254;3.8581;
975.9000;0.1221;3.8530;
976.2000;0.1205;3.8453;
976.5000;0.1197;3.8350;
976.8000;0.1237;3.8427;
977.1000;0.1213;3.8350;
977.4000;0.1205;3.8427;
977.7000;0.1180;3.8350;
978.0000;0.1197;3.8427;
978.3000;0.1213;3.8504;
978.6000;0.1213;3.8479;
978.9000;0.1213;3.8504;
979.2000;0.1164;3.8402;
979.5000;0.1180;3.8402;
979.8000;0.1221;3.8479;
980.1000;0.1254;3.8633;
980.4000;0.1205;3.8504;
980.7000;0.1188;3.8479;
981.0000;0.1205;3.8556;
981.3000;0.1197;3.8530;
981.6000;0.1205;3.8479;
981.9000;0.1131;3.8350;
982.2000;0.1188;3.8607;
982.5000;0.1213;3.8607;
982.8000;0.1237;3.8581;
983.1000;0.1221;3.8504;
983.4000;0.1188;3.8453;
983.7000;0.1197;3.8530;
984.0000;0.1205;3.8556;
984.3000;0.1172;3.8479;
984.6000;0.1164;3.8453;
984.9000;0.1180;3.8581;
985.2000;0.1197;3.8607;
985.5000;0.1221;3.8633;
985.8000;0.1188;3.8581;
986.1000;0.1180;3.8607;
986.4000;0.1221;3.8658;
986.7000;0.1213;3.8607;
987.0000;0.1197;3.8607;
987.3000;0.1205;3.8530;
987.6000;0.1197;3.8658;
987.9000;0.1188;3.8633;
988.2000;0.1107;3.8530;
988.5000;0.1197;3.8684;
988.8000;0.1197;3.8658;
989.1000;0.1245;3.8710;
989.4000;0.1245;3.8761;
989.7000;0.1148;3.8504;
990.0000;0.1058;3.8145;
990.3000;0.1213;3.8556;
990.6000;0.1262;3.8684;
990.9000;0.1197;3.8607;
991.2000;0.1221;3.8556;
991.5000;0.1221;3.8479;
991.8000;0.1180;3.8479;
992.1000;0.1188;3.8581;
992.4000;0.1197;3.8530;
992.7000;0.1197;3.8504;
993.0000;0.1197;3.8453;
993.3000;0.1188;3.8350;
993.6000;0.1197;3.8427;
993.9000;0.1188;3.8453;
994.2000;0.1205;3.8504;
994.5000;0.1188;3.8479;
994.8000;0.1197;3.8479;
995.1000;0.1180;3.8402;
995.4000;0.1245;3.8504;
995.7000;0.1221;3.8453;
996.0000;0.1099;3.8171;
996.3000;0.1180;3.8427;
996.6000;0.1197;3.8504;
996.9000;0.1205;3.8556;
997.2000;0.1205;3.8556;
997.5000;0.1278;3.8710;
997.8000;0.1221;3.8633;
998.1000;0.1213;3.8556;
998.4000;0.1131;3.8376;
998.7000;0.1205;3.8581;
999.0000;0.1262;3.8735;
999.3000;0.1205;3.8581;
999.6000;0.1221;3.8581;
999.9000;0.1213;3.8581;
1000.2000;0.1180;3.8556;
1000.5000;0.1213;3.8633;
1000.8000;0.1197;3.8607;
1001.1000;0.1221;3.8710;
1001.4000;0.1197;3.8658;
1001.7000;0.1197;3.8710;
1002.0000;0.1197;3.8658;
1002.3000;0.1213;3.8633;
1002.6000;0.1213;3.8581;
1002.9000;0.1205;3.8479;
1003.2000;0.1213;3.8504;
1003.5000;0.1205;3.8453;
1003.8000;0.1205;3.8427;
1004.1000;0.1164;3.8376;
1004.4000;0.1213;3.8453;
1004.7000;0.1188;3.8376;
1005.0000;0.1205;3.8402;
1005.3000;0.1213;3.8453;
1005.6000;0.1205;3.8350;
1005.9000;0.1180;3.8325;
1006.2000;0.1197;3.8402;
1006.5000;0.1164;3.8376;
1006.8000;0.1188;3.8427;
1007.1000;0.1213;3.8402;
1007.4000;0.1205;3.8427;
1007.7000;0.1188;3.8325;
1008.0000;0.1197;3.8273;
1008.3000;0.1197;3.8325;
1008.6000;0.1270;3.8581;
1008.9000;0.1172;3.8376;
1009.2000;0.1213;3.8453;
1009.5000;0.1180;3.8376;
1009.8000;0.1180;3.8350;
1010.1000;0.1237;3.8479;
1010.4000;0.1180;3.8350;
1010.7000;0.1197;3.8402;
1011.0000;0.1254;3.8530;
1011.3000;0.1205;3.8350;
1011.6000;0.1213;3.8402;
1011.9000;0.1237;3.8350;
1012.2000;0.1188;3.8248;
1012.5000;0.1180;3.8325;
1012.8000;0.1180;3.8299;
1013.1000;0.1164;3.8299;
1013.4000;0.1197;3.8504;
1013.7000;0.1237;3.8658;
1014.0000;0.1172;3.8504;
1014.3000;0.1213;3.8581;
1014.6000;0.1197;3.8607;
1014.9000;0.1197;3.8607;
1015.2000;0.1197;3.8530;
1015.5000;0.1197;3.8504;
1015.8000;0.1197;3.8504;
1016.1000;0.1213;3.8479;
1016.4000;0.1197;3.8479;
1016.7000;0.1205;3.8453;
1017.0000;0.1180;3.8427;
1017.3000;0.1180;3.8376;
1017.6000;0.1188;3.8402;
1017.9000;0.1197;3.8427;
1018.2000;0.1205;3.8479;
1018.5000;0.1205;3.8479;
1018.8000;0.1131;3.8273;
1019.1000;0.1188;3.8453;
1019.4000;0.1197;3.8453;
1019.7000;0.1205;3.8350;
1020.0000;0.1188;3.8325;
1020.3000;0.1197;3.8197;
1020.6000;0.1205;3.8197;
1020.9000;0.1188;3.8197;
1021.2000;0.1205;3.8222;
1021.5000;0.1188;3.8248;
1021.8000;0.1197;3.8299;
1022.1000;0.1213;3.8376;
1022.4000;0.1172;3.8299;
1022.7000;0.1254;3.8581;
1023.0000;0.1205;3.8479;
1023.3000;0.1197;3.8581;
1023.6000;0.1188;3.8504;
1023.9000;0.1180;3.8453;
1024.2000;0.1205;3.8479;
1024.5000;0.1229;3.8607;
1024.8000;0.1205;3.8556;
1025.1000;0.1221;3.8504;
1025.4000;0.1213;3.8504;
1025.7000;0.1188;3.8453;
1026.0000;0.1188;3.8479;
1026.3000;0.1188;3.8504;
1026.6000;0.1188;3.8479;
1026.9000;0.1311;3.8889;
1027.2000;0.1205;3.8479;
1027.5000;0.1213;3.8556;
1027.8000;0.1221;3.8530;
1028.1000;0.1229;3.8684;
1028.4000;0.1213;3.8633;
1028.7000;0.1140;3.8479;
1029.0000;0.1180;3.8633;
1029.3000;0.1262;3.8761;
1029.6000;0.1115;3.8248;
1029.9000;0.1205;3.8556;
1030.2000;0.1205;3.8453;
1030.5000;0.1221;3.8556;
1030.8000;0.1197;3.8633;
1031.1000;0.1229;3.8735;
1031.4000;0.1221;3.8761;
1031.7000;0.1123;3.8427;
1032.0000;0.1213;3.8581;
1032.3000;0.1180;3.8556;
1032.6000;0.1172;3.8376;
1032.9000;0.1213;3.8376;
1033.2000;0.1188;3.8427;
1033.5000;0.1197;3.8453;
1033.8000;0.1213;3.8504;
1034.1000;0.1180;3.8479;
1034.4000;0.1180;3.8402;
1034.7000;0.1188;3.8427;
1035.0000;0.1197;3.8427;
1035.3000;0.1229;3.8453;
1035.6000;0.1205;3.8479;
1035.9000;0.1180;3.8479;
1036.2000;0.1205;3.8581;
1036.5000;0.1205;3.8581;
1036.8000;0.1131;3.8299;
1037.1000;0.1180;3.8427;
1037.4000;0.1213;3.8556;
1037.7000;0.1197;3.8530;
1038.0000;0.1205;3.8453;
1038.3000;0.1197;3.8402;
1038.6000;0.1213;3.8325;
1038.9000;0.1237;3.8402;
1039.2000;0.1213;3.8402;
1039.5000;0.1188;3.8325;
1039.8000;0.1172;3.8273;
1040.1000;0.1197;3.8376;
1040.4000;0.1221;3.8402;
1040.7000;0.1188;3.8273;
1041.0000;0.1164;3.8222;
1041.3000;0.1197;3.8248;
1041.6000;0.1188;3.8248;
1041.9000;0.1164;3.8222;
1042.2000;0.1197;3.8350;
1042.5000;0.1164;3.8325;
1042.8000;0.1221;3.8530;
1043.1000;0.1213;3.8581;
1043.4000;0.1205;3.8607;
1043.7000;0.1164;3.8556;
1044.0000;0.1205;3.8530;
1044.3000;0.1205;3.8581;
1044.6000;0.1221;3.8633;
1044.9000;0.1254;3.8684;
1045.2000;0.1213;3.8556;
1045.5000;0.1205;3.8530;
1045.8000;0.1083;3.8145;
1046.1000;0.1237;3.8556;
1046.4000;0.1197;3.8556;
1046.7000;0.1270;3.8838;
1047.0000;0.1180;3.8504;
1047.3000;0.1188;3.8530;
1047.6000;0.1172;3.8479;
1047.9000;0.1180;3.8479;
1048.2000;0.1205;3.8402;
1048.5000;0.1205;3.8479;
1048.8000;0.1197;3.8504;
1049.1000;0.1237;3.8581;
1049.4000;0.1205;3.8504;
1049.7000;0.1180;3.8402;
1050.0000;0.1172;3.8325;
1050.3000;0.1205;3.8402;
1050.6000;0.1164;3.8299;
1050.9000;0.1221;3.8376;
1051.2000;0.1140;3.8222;
1051.5000;0.1221;3.8453;
1051.8000;0.1188;3.8402;
1052.1000;0.1237;3.8607;
1052.4000;0.1115;3.8299;
1052.7000;0.1164;3.8427;
1053.0000;0.1245;3.8607;
1053.3000;0.1213;3.8479;
1053.6000;0.1254;3.8607;
1053.9000;0.1172;3.8453;
1054.2000;0.1213;3.8607;
1054.5000;0.1213;3.8581;
1054.8000;0.1197;3.8581;
1055.1000;0.1213;3.8581;
1055.4000;0.1221;3.8556;
1055.7000;0.1213;3.8581;
1056.0000;0.1213;3.8530;
1056.3000;0.1180;3.8427;
1056.6000;0.1229;3.8556;
1056.9000;0.1197;3.8556;
1057.2000;0.1221;3.8556;
1057.5000;0.1172;3.8453;
1057.8000;0.1213;3.8530;
1058.1000;0.1205;3.8581;
1058.4000;0.1221;3.8607;
1058.7000;0.1140;3.8376;
1059.0000;0.1205;3.8504;
1059.3000;0.1205;3.8453;
1059.6000;0.1180;3.8325;
1059.9000;0.1205;3.8453;
1060.2000;0.1172;3.8248;
1060.5000;0.1229;3.8376;
1060.8000;0.1172;3.8145;
1061.1000;0.1188;3.8197;
1061.4000;0.1197;3.8197;
1061.7000;0.1197;3.8273;
1062.0000;0.1197;3.8325;
1062.3000;0.1188;3.8402;
1062.6000;0.1221;3.8504;
1062.9000;0.1164;3.8299;
1063.2000;0.1197;3.8427;
1063.5000;0.1213;3.8479;
1063.8000;0.1123;3.8145;
1064.1000;0.1205;3.8325;
1064.4000;0.1221;3.8427;
1064.7000;0.1205;3.8504;
1065.0000;0.1205;3.8479;
1065.3000;0.1205;3.8556;
1065.6000;0.1205;3.8633;
1065.9000;0.1156;3.8427;
1066.2000;0.1188;3.8427;
1066.5000;0.1197;3.8427;
1066.8000;0.1254;3.8658;
1067.1000;0.1180;3.8402;
1067.4000;0.1197;3.8479;
1067.7000;0.1221;3.8530;
1068.0000;0.1213;3.8479;
1068.3000;0.1221;3.8556;
1068.6000;0.1205;3.8504;
1068.9000;0.1205;3.8556;
1069.2000;0.1188;3.8581;
1069.5000;0.1294;3.8787;
1069.8000;0.1254;3.8684;
1070.1000;0.1213;3.8607;
1070.4000;0.1213;3.8607;
1070.7000;0.1188;3.8581;
1071.0000;0.1213;3.8607;
1071.3000;0.1221;3.8530;
1071.6000;0.1213;3.8479;
1071.9000;0.1213;3.8427;
1072.2000;0.1205;3.8325;
1072.5000;0.1245;3.8453;
1072.8000;0.1172;3.8273;
1073.1000;0.1205;3.8350;
1073.4000;0.1213;3.8376;
1073.7000;0.1180;3.8325;
1074.0000;0.1131;3.8197;
1074.3000;0.1205;3.8350;
1074.6000;0.1180;3.8402;
1074.9000;0.1180;3.8376;
1075.2000;0.1188;3.8530;
1075.5000;0.1205;3.8530;
1075.8000;0.1213;3.8504;
1076.1000;0.1197;3.8530;
1076.4000;0.1197;3.8556;
1076.7000;0.1197;3.8633;
1077.0000;0.1188;3.8607;
1077.3000;0.1148;3.8530;
1077.6000;0.1213;3.8710;
1077.9000;0.1197;3.8607;
1078.2000;0.1197;3.8607;
1078.5000;0.1213;3.8658;
1078.8000;0.1188;3.8658;
1079.1000;0.1188;3.8735;
1079.4000;0.1205;3.8761;
1079.7000;0.1188;3.8581;
1080.0000;0.1197;3.8530;
1080.3000;0.1197;3.8453;
1080.6000;0.1156;3.8350;
1080.9000;0.1197;3.8427;
1081.2000;0.1172;3.8376;
1081.5000;0.1197;3.8402;
1081.8000;0.1172;3.8402;
1082.1000;0.1205;3.8453;
1082.4000;0.1205;3.8427;
1082.7000;0.1343;3.8838;
1083.0000;0.1197;3.8479;
1083.3000;0.1197;3.8402;
1083.6000;0.1164;3.8376;
1083.9000;0.1164;3.8376;
1084.2000;0.1213;3.8504;
1084.5000;0.1197;3.8556;
1084.8000;0.1164;3.8504;
1085.1000;0.1066;3.8222;
1085.4000;0.1197;3.8530;
1085.7000;0.1148;3.8325;
1086.0000;0.1188;3.8504;
1086.3000;0.1205;3.8504;
1086.6000;0.1221;3.8427;
1086.9000;0.1221;3.8427;
1087.2000;0.1197;3.8376;
1087.5000;0.1180;3.8376;
1087.8000;0.1294;3.8838;
1088.1000;0.1197;3.8658;
1088.4000;0.1270;3.8940;
1088.7000;0.1156;3.8658;
1089.0000;0.1221;3.8633;
1089.3000;0.1205;3.8581;
1089.6000;0.1197;3.8581;
1089.9000;0.1188;3.8504;
1090.2000;0.1197;3.8607;
1090.5000;0.1188;3.8684;
1090.8000;0.1197;3.8684;
1091.1000;0.1188;3.8710;
1091.4000;0.1205;3.8658;
1091.7000;0.1197;3.8633;
1092.0000;0.1245;3.8633;
1092.3000;0.1205;3.8581;
1092.6000;0.1172;3.8581;
1092.9000;0.1205;3.8658;
1093.2000;0.1221;3.8658;
1093.5000;0.1197;3.8504;
1093.8000;0.1278;3.8812;
1094.1000;0.1205;3.8684;
1094.4000;0.1213;3.8684;
1094.7000;0.1172;3.8581;
1095.0000;0.1197;3.8607;
1095.3000;0.1188;3.8556;
1095.6000;0.1229;3.8684;
1095.9000;0.1197;3.8633;
1096.2000;0.1237;3.8684;
1096.5000;0.1188;3.8581;
1096.8000;0.1205;3.8684;
1097.1000;0.1197;3.8684;
1097.4000;0.1197;3.8684;
1097.7000;0.1180;3.8658;
1098.0000;0.1205;3.8735;
1098.3000;0.1205;3.8735;
1098.6000;0.1245;3.8838;
1098.9000;0.1197;3.8633;
1099.2000;0.1197;3.8710;
1099.5000;0.0985;3.8171;
1099.8000;0.1172;3.8735;
1100.1000;0.1180;3.8710;
1100.4000;0.1197;3.8787;
1100.7000;0.1229;3.8735;
1101.0000;0.1205;3.8735;
1101.3000;0.1188;3.8581;
1101.6000;0.1221;3.8710;
1101.9000;0.1213;3.8633;
1102.2000;0.1205;3.8710;
1102.5000;0.1205;3.8658;
1102.8000;0.1205;3.8581;
1103.1000;0.1205;3.8504;
1103.4000;0.1197;3.8504;
1103.7000;0.1197;3.8504;
1104.0000;0.1131;3.8376;
1104.3000;0.1188;3.8479;
1104.6000;0.1205;3.8453;
1104.9000;0.1197;3.8402;
1105.2000;0.1221;3.8504;
1105.5000;0.1213;3.8530;
1105.8000;0.1221;3.8530;
1106.1000;0.1237;3.8530;
1106.4000;0.1205;3.8479;
1106.7000;0.1221;3.8453;
1107.0000;0.1156;3.8248;
1107.3000;0.1229;3.8479;
1107.6000;0.1229;3.8504;
1107.9000;0.1205;3.8427;
1108.2000;0.1319;3.8761;
1108.5000;0.1197;3.8504;
1108.8000;0.1245;3.8530;
1109.1000;0.1148;3.8273;
1109.4000;0.1197;3.8453;
1109.7000;0.1221;3.8556;
1110.0000;0.1197;3.8504;
1110.3000;0.1197;3.8504;
1110.6000;0.1172;3.8556;
1110.9000;0.1188;3.8607;
1111.2000;0.1213;3.8633;
1111.5000;0.1180;3.8633;
1111.8000;0.1188;3.8658;
1112.1000;0.1213;3.8735;
1112.4000;0.1156;3.8581;
1112.7000;0.1262;3.8735;
1113.0000;0.1205;3.8581;
1113.3000;0.1221;3.8581;
1113.6000;0.1213;3.8556;
1113.9000;0.1213;3.8710;
1114.2000;0.1188;3.8607;
1114.5000;0.1156;3.8479;
1114.8000;0.1254;3.8812;
1115.1000;0.1197;3.8735;
1115.4000;0.1205;3.8761;
1115.7000;0.1188;3.8761;
1116.0000;0.1205;3.8838;
1116.3000;0.1180;3.8889;
1116.6000;0.1156;3.8761;
1116.9000;0.1164;3.8787;
1117.2000;0.1197;3.8787;
1117.5000;0.1197;3.8812;
1117.8000;0.1197;3.8761;
1118.1000;0.1188;3.8735;
1118.4000;0.1197;3.8735;
1118.7000;0.1213;3.8812;
1119.0000;0.1213;3.8838;
1119.3000;0.1197;3.8787;
1119.6000;0.1197;3.8710;
1119.9000;0.1221;3.8761;
1120.2000;0.1205;3.8710;
1120.5000;0.1197;3.8658;
1120.8000;0.1180;3.8633;
1121.1000;0.1221;3.8761;
1121.4000;0.1197;3.8735;
1121.7000;0.1229;3.8787;
1122.0000;0.1237;3.8838;
1122.3000;0.1164;3.8607;
1122.6000;0.1278;3.8863;
1122.9000;0.1197;3.8710;
1123.2000;0.1180;3.8658;
1123.5000;0.1180;3.8658;
1123.8000;0.1197;3.8684;
1124.1000;0.1197;3.8710;
1124.4000;0.1205;3.8710;
1124.7000;0.1205;3.8658;
1125.0000;0.1270;3.8838;
1125.3000;0.1221;3.8658;
1125.6000;0.1148;3.8504;
1125.9000;0.1180;3.8581;
1126.2000;0.1188;3.8556;
1126.5000;0.1213;3.8710;
1126.8000;0.1164;3.8607;
1127.1000;0.1213;3.8787;
1127.4000;0.1205;3.8787;
1127.7000;0.1221;3.8863;
1128.0000;0.1254;3.8966;
1128.3000;0.1197;3.8761;
1128.6000;0.1180;3.8658;
1128.9000;0.1188;3.8684;
1129.2000;0.1197;3.8710;
1129.5000;0.1213;3.8735;
1129.8000;0.1245;3.8838;
1130.1000;0.1245;3.8710;
1130.4000;0.1197;3.8581;
1130.7000;0.1197;3.8479;
1131.0000;0.1131;3.8350;
1131.3000;0.1205;3.8556;
1131.6000;0.1188;3.8479;
1131.9000;0.1172;3.8376;
1132.2000;0.1237;3.8556;
1132.5000;0.1172;3.8402;
1132.8000;0.1205;3.8479;
1133.1000;0.1278;3.8684;
1133.4000;0.1197;3.8453;
1133.7000;0.1188;3.8325;
1134.0000;0.1197;3.8453;
1134.3000;0.1205;3.8479;
1134.6000;0.1180;3.8325;
1134.9000;0.1164;3.8325;
1135.2000;0.1188;3.8350;
1135.5000;0.1213;3.8427;
1135.8000;0.1205;3.8453;
1136.1000;0.1188;3.8453;
1136.4000;0.1188;3.8504;
1136.7000;0.1197;3.8530;
1137.0000;0.1188;3.8504;
1137.3000;0.1205;3.8479;
1137.6000;0.1172;3.8479;
1137.9000;0.1197;3.8530;
1138.2000;0.1221;3.8581;
1138.5000;0.1188;3.8530;
1138.8000;0.1197;3.8556;
1139.1000;0.1180;3.8504;
1139.4000;0.1205;3.8607;
1139.7000;0.1213;3.8658;
1140.0000;0.1172;3.8530;
1140.3000;0.1188;3.8556;
1140.6000;0.1213;3.8607;
1140.9000;0.1115;3.8402;
1141.2000;0.1180;3.8633;
1141.5000;0.1156;3.8479;
1141.8000;0.1205;3.8658;
1142.1000;0.1197;3.8658;
1142.4000;0.1188;3.8735;
1142.7000;0.1197;3.8787;
1143.0000;0.1188;3.8761;
1143.3000;0.1115;3.8556;
1143.6000;0.1213;3.8710;
1143.9000;0.1245;3.8658;
1144.2000;0.1254;3.8633;
1144.5000;0.1221;3.8581;
1144.8000;0.1115;3.8402;
1145.1000;0.1131;3.8530;
1145.4000;0.1188;3.8787;
1145.7000;0.1205;3.8787;
1146.0000;0.1205;3.8710;
1146.3000;0.1221;3.8761;
1146.6000;0.1205;3.8761;
1146.9000;0.1205;3.8684;
1147.2000;0.1205;3.8710;
1147.5000;0.1205;3.8787;
1147.8000;0.1221;3.8889;
1148.1000;0.1229;3.8940;
1148.4000;0.1123;3.8607;
1148.7000;0.1197;3.8940;
1149.0000;0.1237;3.8992;
1149.3000;0.1197;3.8812;
1149.6000;0.1221;3.8812;
1149.9000;0.1197;3.8735;
1150.2000;0.1205;3.8812;
1150.5000;0.1188;3.8812;
1150.8000;0.1205;3.8761;
1151.1000;0.1205;3.8710;
1151.4000;0.1188;3.8658;
1151.7000;0.1205;3.8710;
1152.0000;0.1188;3.8761;
1152.3000;0.1205;3.8761;
1152.6000;0.1164;3.8504;
1152.9000;0.1205;3.8556;
1153.2000;0.1205;3.8479;
1153.5000;0.1164;3.8427;
1153.8000;0.1188;3.8607;
1154.1000;0.1205;3.8556;
1154.4000;0.1205;3.8581;
1154.7000;0.1205;3.8710;
1155.0000;0.1205;3.8658;
1155.3000;0.1188;3.8607;
1155.6000;0.1172;3.8556;
1155.9000;0.1188;3.8556;
1156.2000;0.1213;3.8633;
1156.5000;0.1180;3.8581;
1156.8000;0.1197;3.8581;
1157.1000;0.1205;3.8633;
1157.4000;0.1197;3.8633;
1157.7000;0.1172;3.8479;
1158.0000;0.1164;3.8453;
1158.3000;0.1188;3.8530;
1158.6000;0.1262;3.8812;
1158.9000;0.1205;3.8710;
1159.2000;0.1197;3.8761;
1159.5000;0.1180;3.8761;
1159.8000;0.1197;3.8761;
1160.1000;0.1188;3.8633;
1160.4000;0.1205;3.8633;
1160.7000;0.1180;3.8479;
1161.0000;0.1213;3.8556;
1161.3000;0.1213;3.8633;
1161.6000;0.1221;3.8710;
1161.9000;0.1221;3.8684;
1162.2000;0.1213;3.8684;
1162.5000;0.1197;3.8633;
1162.8000;0.1197;3.8581;
1163.1000;0.1197;3.8581;
1163.4000;0.1245;3.8710;
1163.7000;0.1205;3.8581;
1164.0000;0.1180;3.8581;
1164.3000;0.1213;3.8684;
1164.6000;0.1188;3.8581;
1164.9000;0.1270;3.8838;
1165.2000;0.1197;3.8556;
1165.5000;0.1188;3.8530;
1165.8000;0.1221;3.8607;
1166.1000;0.1188;3.8530;
1166.4000;0.1188;3.8581;
1166.7000;0.1188;3.8556;
1167.0000;0.1197;3.8581;
1167.3000;0.1131;3.8325;
1167.6000;0.1205;3.8453;
1167.9000;0.1123;3.8299;
1168.2000;0.1205;3.8581;
1168.5000;0.1188;3.8479;
1168.8000;0.1180;3.8581;
1169.1000;0.1197;3.8607;
1169.4000;0.1197;3.8607;
1169.7000;0.1205;3.8504;
1170.0000;0.1197;3.8479;
1170.3000;0.1213;3.8504;
1170.6000;0.1197;3.8479;
1170.9000;0.1172;3.8556;
1171.2000;0.1213;3.8607;
1171.5000;0.1205;3.8556;
1171.8000;0.1213;3.8607;
1172.1000;0.1188;3.8530;
1172.4000;0.1197;3.8479;
1172.7000;0.1229;3.8684;
1173.0000;0.1188;3.8607;
1173.3000;0.1172;3.8530;
1173.6000;0.1205;3.8658;
1173.9000;0.1197;3.8658;
1174.2000;0.1205;3.8658;
1174.5000;0.1172;3.8633;
1174.8000;0.1197;3.8684;
1175.1000;0.1213;3.8684;
1175.4000;0.1221;3.8787;
1175.7000;0.1197;3.8735;
1176.0000;0.1188;3.8658;
1176.3000;0.1188;3.8684;
1176.6000;0.1197;3.8658;
1176.9000;0.1221;3.8710;
1177.2000;0.1188;3.8684;
1177.5000;0.1180;3.8735;
1177.8000;0.1205;3.8761;
1178.1000;0.1221;3.8735;
1178.4000;0.1197;3.8607;
1178.7000;0.1180;3.8504;
1179.0000;0.1197;3.8633;
1179.3000;0.1188;3.8607;
1179.6000;0.1221;3.8658;
1179.9000;0.1205;3.8658;
1180.2000;0.1188;3.8581;
1180.5000;0.1221;3.8633;
1180.8000;0.1074;3.8197;
1181.1000;0.1213;3.8607;
1181.4000;0.1213;3.8658;
1181.7000;0.1180;3.8530;
1182.0000;0.1221;3.8607;
1182.3000;0.1213;3.8581;
1182.6000;0.1229;3.8581;
1182.9000;0.1221;3.8504;
1183.2000;0.1205;3.8427;
1183.5000;0.1172;3.8402;
1183.8000;0.1188;3.8376;
1184.1000;0.1213;3.8427;
1184.4000;0.1294;3.8787;
1184.7000;0.1188;3.8479;
1185.0000;0.1237;3.8530;
1185.3000;0.1083;3.8171;
1185.6000;0.1205;3.8479;
1185.9000;0.1213;3.8504;
1186.2000;0.1188;3.8453;
1186.5000;0.1148;3.8376;
1186.8000;0.1197;3.8453;
1187.1000;0.1197;3.8427;
1187.4000;0.1188;3.8504;
1187.7000;0.1213;3.8581;
1188.0000;0.1205;3.8504;
1188.3000;0.1197;3.8453;
1188.6000;0.1188;3.8402;
1188.9000;0.1205;3.8453;
1189.2000;0.1205;3.8479;
1189.5000;0.1205;3.8504;
1189.8000;0.1180;3.8376;
1190.1000;0.1148;3.8222;
1190.4000;0.1180;3.8350;
1190.7000;0.1213;3.8427;
1191.0000;0.1172;3.8325;
1191.3000;0.1229;3.8479;
1191.6000;0.1213;3.8504;
1191.9000;0.1205;3.8402;
1192.2000;0.1172;3.8273;
1192.5000;0.1213;3.8376;
1192.8000;0.1237;3.8453;
1193.1000;0.1188;3.8197;
1193.4000;0.1213;3.8376;
1193.7000;0.1197;3.8402;
1194.0000;0.1188;3.8453;
1194.3000;0.1335;3.8761;
1194.6000;0.1197;3.8453;
1194.9000;0.1213;3.8504;
1195.2000;0.1188;3.8453;
1195.5000;0.1197;3.8479;
1195.8000;0.1180;3.8427;
1196.1000;0.1221;3.8530;
1196.4000;0.1205;3.8479;
1196.7000;0.1205;3.8504;
1197.0000;0.1074;3.8197;
1197.3000;0.1197;3.8581;
1197.6000;0.1205;3.8530;
1197.9000;0.1197;3.8376;
1198.2000;0.1197;3.8376;
1198.5000;0.1229;3.8427;
1198.8000;0.1091;3.7991;
1199.1000;0.1197;3.8299;
1199.4000;0.1197;3.8325;
1199.7000;0.1213;3.8427;
1200.0000;0.1172;3.8325;
1200.3000;0.1197;3.8376;
1200.6000;0.1123;3.8197;
1200.9000;0.1237;3.8504;
1201.2000;0.1197;3.8427;
1201.5000;0.1205;3.8402;
1201.8000;0.1164;3.8222;
1202.1000;0.1213;3.8453;
1202.4000;0.1197;3.8402;
1202.7000;0.1197;3.8376;
1203.0000;0.1205;3.8402;
1203.3000;0.1205;3.8427;
1203.6000;0.1213;3.8504;
1203.9000;0.1164;3.8350;
1204.2000;0.1205;3.8376;
1204.5000;0.1197;3.8427;
1204.8000;0.1172;3.8376;
1205.1000;0.1213;3.8504;
1205.4000;0.1205;3.8504;
1205.7000;0.1197;3.8530;
1206.0000;0.1156;3.8530;
1206.3000;0.1229;3.8710;
1206.6000;0.1237;3.8787;
1206.9000;0.1123;3.8427;
1207.2000;0.1205;3.8684;
1207.5000;0.1148;3.8350;
1207.8000;0.1254;3.8581;
1208.1000;0.1188;3.8350;
1208.4000;0.1131;3.8145;
1208.7000;0.1213;3.8479;
1209.0000;0.1205;3.8402;
1209.3000;0.1180;3.8376;
1209.6000;0.1164;3.8350;
1209.9000;0.1197;3.8479;
1210.2000;0.1188;3.8402;
1210.5000;0.1180;3.8376;
1210.8000;0.1188;3.8427;
1211.1000;0.1197;3.8350;
1211.4000;0.1205;3.8248;
1211.7000;0.1188;3.8197;
1212.0000;0.1172;3.8145;
1212.3000;0.1213;3.8222;
1212.6000;0.1205;3.8248;
1212.9000;0.1148;3.8043;
1213.2000;0.1188;3.8197;
1213.5000;0.1197;3.8376;
1213.8000;0.1205;3.8479;
1214.1000;0.1197;3.8453;
1214.4000;0.1188;3.8427;
1214.7000;0.1172;3.8427;
1215.0000;0.1188;3.8453;
1215.3000;0.1180;3.8504;
1215.6000;0.1172;3.8530;
1215.9000;0.1164;3.8479;
1216.2000;0.1205;3.8556;
1216.5000;0.1221;3.8581;
1216.8000;0.1197;3.8556;
1217.1000;0.1188;3.8427;
1217.4000;0.1213;3.8427;
1217.7000;0.1205;3.8479;
1218.0000;0.1083;3.8171;
1218.3000;0.1188;3.8479;
1218.6000;0.1140;3.8299;
1218.9000;0.1229;3.8607;
1219.2000;0.1197;3.8504;
1219.5000;0.1213;3.8633;
1219.8000;0.1221;3.8581;
1220.1000;0.1205;3.8607;
1220.4000;0.1205;3.8556;
1220.7000;0.1237;3.8633;
1221.0000;0.1197;3.8633;
1221.3000;0.1172;3.8530;
1221.6000;0.1188;3.8581;
1221.9000;0.1188;3.8504;
1222.2000;0.1197;3.8556;
1222.5000;0.1205;3.8684;
1222.8000;0.1197;3.8504;
1223.1000;0.1197;3.8453;
1223.4000;0.1213;3.8581;
1223.7000;0.1278;3.8735;
1224.0000;0.1213;3.8581;
1224.3000;0.1213;3.8504;
1224.6000;0.1213;3.8453;
1224.9000;0.1164;3.8325;
1225.2000;0.1213;3.8453;
1225.5000;0.1213;3.8376;
1225.8000;0.1148;3.8171;
1226.1000;0.1229;3.8350;
1226.4000;0.1205;3.8197;
1226.7000;0.1237;3.8273;
1227.0000;0.1213;3.8273;
1227.3000;0.1188;3.8145;
1227.6000;0.1188;3.8222;
1227.9000;0.1205;3.8350;
1228.2000;0.1229;3.8376;
1228.5000;0.1205;3.8222;
1228.8000;0.1213;3.8222;
1229.1000;0.1180;3.8171;
1229.4000;0.1213;3.8299;
1229.7000;0.1180;3.8197;
1230.0000;0.1131;3.8120;
1230.3000;0.1180;3.8273;
1230.6000;0.1188;3.8350;
1230.9000;0.1148;3.8197;
1231.2000;0.1131;3.8145;
1231.5000;0.1188;3.8299;
1231.8000;0.1188;3.8325;
1232.1000;0.1172;3.8325;
1232.4000;0.1197;3.8402;
1232.7000;0.1205;3.8479;
1233.0000;0.1188;3.8402;
1233.3000;0.1180;3.8350;
1233.6000;0.1180;3.8402;
1233.9000;0.1188;3.8427;
1234.2000;0.1221;3.8402;
1234.5000;0.1197;3.8376;
1234.8000;0.1205;3.8376;
1235.1000;0.1188;3.8350;
1235.4000;0.1172;3.8299;
1235.7000;0.1197;3.8299;
1236.0000;0.1188;3.8299;
1236.3000;0.1221;3.8376;
1236.6000;0.1270;3.8427;
1236.9000;0.1188;3.8222;
1237.2000;0.1188;3.8171;
1237.5000;0.1180;3.8171;
1237.8000;0.1213;3.8248;
1238.1000;0.1131;3.8017;
1238.4000;0.1197;3.8248;
1238.7000;0.1197;3.8248;
1239.0000;0.1123;3.8120;
1239.3000;0.1213;3.8325;
1239.6000;0.1180;3.8350;
1239.9000;0.1172;3.8427;
1240.2000;0.1188;3.8556;
1240.5000;0.1197;3.8479;
1240.8000;0.1205;3.8427;
1241.1000;0.1229;3.8479;
1241.4000;0.1197;3.8453;
1241.7000;0.1229;3.8530;
1242.0000;0.1213;3.8427;
1242.3000;0.1197;3.8402;
1242.6000;0.1172;3.8376;
1242.9000;0.1180;3.8325;
1243.2000;0.1205;3.8376;
1243.5000;0.1148;3.8222;
1243.8000;0.1205;3.8427;
1244.1000;0.1205;3.8376;
1244.4000;0.1213;3.8530;
1244.7000;0.1221;3.8607;
1245.0000;0.1188;3.8556;
1245.3000;0.1197;3.8479;
1245.6000;0.1197;3.8453;
1245.9000;0.1197;3.8479;
1246.2000;0.1229;3.8504;
1246.5000;0.1205;3.8427;
1246.8000;0.1188;3.8325;
1247.1000;0.1197;3.8273;
1247.4000;0.1197;3.8299;
1247.7000;0.1188;3.8376;
1248.0000;0.1188;3.8427;
1248.3000;0.1213;3.8479;
1248.6000;0.1172;3.8325;
1248.9000;0.1197;3.8479;
1249.2000;0.1188;3.8453;
1249.5000;0.1213;3.8581;
1249.8000;0.1188;3.8556;
1250.1000;0.1180;3.8581;
1250.4000;0.1188;3.8530;
1250.7000;0.1197;3.8607;
1251.0000;0.1205;3.8607;
1251.3000;0.1197;3.8581;
1251.6000;0.1197;3.8556;
1251.9000;0.1172;3.8556;
1252.2000;0.1188;3.8581;
1252.5000;0.1197;3.8581;
1252.8000;0.1205;3.8581;
1253.1000;0.1188;3.8479;
1253.4000;0.1205;3.8427;
1253.7000;0.1205;3.8427;
1254.0000;0.1205;3.8427;
1254.3000;0.1205;3.8453;
1254.6000;0.1099;3.8248;
1254.9000;0.1156;3.8273;
1255.2000;0.1197;3.8479;
1255.5000;0.1197;3.8479;
1255.8000;0.1294;3.8761;
1256.1000;0.1188;3.8530;
1256.4000;0.1188;3.8427;
1256.7000;0.1156;3.8376;
1257.0000;0.1335;3.8812;
1257.3000;0.1221;3.8427;
1257.6000;0.1197;3.8504;
1257.9000;0.1188;3.8479;
1258.2000;0.1188;3.8530;
1258.5000;0.1091;3.8222;
1258.8000;0.1188;3.8530;
1259.1000;0.1180;3.8556;
1259.4000;0.1188;3.8581;
1259.7000;0.1205;3.8658;
1260.0000;0.1172;3.8556;
1260.3000;0.1197;3.8684;
1260.6000;0.1205;3.8812;
1260.9000;0.1188;3.8761;
1261.2000;0.1213;3.8787;
1261.5000;0.1221;3.8915;
1261.8000;0.1205;3.8838;
1262.1000;0.1188;3.8761;
1262.4000;0.1188;3.8735;
1262.7000;0.1205;3.8812;
1263.0000;0.1188;3.8761;
1263.3000;0.1148;3.8556;
1263.6000;0.1197;3.8735;
1263.9000;0.1188;3.8761;
1264.2000;0.1172;3.8607;
1264.5000;0.1213;3.8658;
1264.8000;0.1172;3.8607;
1265.1000;0.1221;3.8838;
1265.4000;0.1213;3.8761;
1265.7000;0.1180;3.8633;
1266.0000;0.1205;3.8658;
1266.3000;0.1213;3.8735;
1266.6000;0.1278;3.8863;
1266.9000;0.1188;3.8504;
1267.2000;0.1197;3.8479;
1267.5000;0.1221;3.8504;
1267.8000;0.1156;3.8402;
1268.1000;0.1188;3.8479;
1268.4000;0.1205;3.8556;
1268.7000;0.1172;3.8453;
1269.0000;0.1205;3.8530;
1269.3000;0.1197;3.8479;
1269.6000;0.1172;3.8402;
1269.9000;0.1205;3.8504;
1270.2000;0.1205;3.8504;
1270.5000;0.1197;3.8556;
1270.8000;0.1205;3.8504;
1271.1000;0.1188;3.8556;
1271.4000;0.1213;3.8658;
1271.7000;0.1221;3.8658;
1272.0000;0.1188;3.8581;
1272.3000;0.1188;3.8556;
1272.6000;0.1205;3.8684;
1272.9000;0.1188;3.8633;
1273.2000;0.1197;3.8607;
1273.5000;0.1188;3.8581;
1273.8000;0.1302;3.8915;
1274.1000;0.1197;3.8607;
1274.4000;0.1180;3.8581;
1274.7000;0.1205;3.8658;
1275.0000;0.1115;3.8325;
1275.3000;0.1205;3.8556;
1275.6000;0.1205;3.8504;
1275.9000;0.1180;3.8376;
1276.2000;0.1188;3.8402;
1276.5000;0.1180;3.8402;
1276.8000;0.1213;3.8530;
1277.1000;0.1205;3.8556;
1277.4000;0.1180;3.8581;
1277.7000;0.1197;3.8581;
1278.0000;0.1205;3.8658;
1278.3000;0.1188;3.8581;
1278.6000;0.1197;3.8556;
1278.9000;0.1188;3.8556;
1279.2000;0.1180;3.8658;
1279.5000;0.1197;3.8658;
1279.8000;0.1221;3.8735;
1280.1000;0.1197;3.8658;
1280.4000;0.1205;3.8684;
1280.7000;0.1213;3.8761;
1281.0000;0.1262;3.8889;
1281.3000;0.1205;3.8710;
1281.6000;0.1237;3.8812;
1281.9000;0.1229;3.8761;
1282.2000;0.1197;3.8633;
1282.5000;0.1188;3.8633;
1282.8000;0.1221;3.8633;
1283.1000;0.1197;3.8581;
1283.4000;0.1205;3.8607;
1283.7000;0.1205;3.8684;
1284.0000;0.1188;3.8684;
1284.3000;0.1188;3.8710;
1284.6000;0.1164;3.8607;
1284.9000;0.1180;3.8633;
1285.2000;0.1205;3.8684;
1285.5000;0.1213;3.8735;
1285.8000;0.1180;3.8658;
1286.1000;0.1221;3.8735;
1286.4000;0.1188;3.8556;
1286.7000;0.1197;3.8581;
1287.0000;0.1245;3.8787;
1287.3000;0.1197;3.8684;
1287.6000;0.1278;3.8838;
1287.9000;0.1188;3.8633;
1288.2000;0.1221;3.8684;
1288.5000;0.1188;3.8684;
1288.8000;0.1197;3.8761;
1289.1000;0.1188;3.8710;
1289.4000;0.1197;3.8710;
1289.7000;0.1188;3.8658;
1290.0000;0.1205;3.8684;
1290.3000;0.1180;3.8658;
1290.6000;0.1197;3.8658;
1290.9000;0.1205;3.8607;
1291.2000;0.1197;3.8658;
1291.5000;0.1197;3.8607;
1291.8000;0.1180;3.8530;
1292.1000;0.1205;3.8607;
1292.4000;0.1213;3.8607;
1292.7000;0.1131;3.8479;
1293.0000;0.1197;3.8658;
1293.3000;0.1213;3.8607;
1293.6000;0.1188;3.8658;
1293.9000;0.1188;3.8581;
1294.2000;0.1229;3.8710;
1294.5000;0.1213;3.8684;
1294.8000;0.1172;3.8633;
1295.1000;0.1188;3.8607;
1295.4000;0.1197;3.8530;
1295.7000;0.1270;3.8787;
1296.0000;0.1205;3.8530;
1296.3000;0.1188;3.8556;
1296.6000;0.1205;3.8633;
1296.9000;0.1221;3.8658;
1297.2000;0.1197;3.8633;
1297.5000;0.1221;3.8633;
1297.8000;0.1180;3.8658;
1298.1000;0.1245;3.8735;
1298.4000;0.1197;3.8607;
1298.7000;0.1278;3.8940;
1299.0000;0.1213;3.8710;
1299.3000;0.1180;3.8658;
1299.6000;0.1245;3.8735;
1299.9000;0.1180;3.8607;
1300.2000;0.1188;3.8607;
1300.5000;0.1197;3.8581;
1300.8000;0.1213;3.8607;
1301.1000;0.1172;3.8402;
1301.4000;0.1188;3.8427;
1301.7000;0.1245;3.8607;
1302.0000;0.1115;3.8248;
1302.3000;0.1205;3.8581;
1302.6000;0.1213;3.8556;
1302.9000;0.1180;3.8376;
1303.2000;0.1156;3.8273;
1303.5000;0.1213;3.8350;
1303.8000;0.1270;3.8556;
1304.1000;0.1197;3.8427;
1304.4000;0.1205;3.8402;
1304.7000;0.1180;3.8350;
1305.0000;0.1197;3.8325;
1305.3000;0.1205;3.8427;
1305.6000;0.1197;3.8325;
1305.9000;0.1221;3.8325;
1306.2000;0.1197;3.8376;
1306.5000;0.1205;3.8479;
1306.8000;0.1172;3.8402;
1307.1000;0.1213;3.8453;
1307.4000;0.1213;3.8402;
1307.7000;0.1205;3.8427;
1308.0000;0.1188;3.8427;
1308.3000;0.1205;3.8453;
1308.6000;0.1205;3.8453;
1308.9000;0.1221;3.8479;
1309.2000;0.1278;3.8710;
1309.5000;0.1164;3.8402;
1309.8000;0.1213;3.8556;
1310.1000;0.1197;3.8504;
1310.4000;0.1254;3.8556;
1310.7000;0.1172;3.8402;
1311.0000;0.1164;3.8453;
1311.3000;0.1262;3.8684;
1311.6000;0.1221;3.8504;
1311.9000;0.1197;3.8479;
1312.2000;0.1205;3.8581;
1312.5000;0.1197;3.8607;
1312.8000;0.1213;3.8658;
1313.1000;0.1164;3.8530;
1313.4000;0.1213;3.8684;
1313.7000;0.1221;3.8761;
1314.0000;0.1197;3.8761;
1314.3000;0.1197;3.8684;
1314.6000;0.1229;3.8735;
1314.9000;0.1164;3.8453;
1315.2000;0.1197;3.8530;
1315.5000;0.1172;3.8556;
1315.8000;0.1254;3.8761;
1316.1000;0.1188;3.8453;
1316.4000;0.1197;3.8504;
1316.7000;0.1229;3.8684;
1317.0000;0.1172;3.8479;
1317.3000;0.1197;3.8581;
1317.6000;0.1221;3.8607;
1317.9000;0.1229;3.8710;
1318.2000;0.1229;3.8735;
1318.5000;0.1213;3.8735;
1318.8000;0.1245;3.8838;
1319.1000;0.1213;3.8658;
1319.4000;0.1245;3.8735;
1319.7000;0.1148;3.8479;
1320.0000;0.1188;3.8607;
1320.3000;0.1197;3.8684;
1320.6000;0.1172;3.8710;
1320.9000;0.1188;3.8658;
1321.2000;0.1172;3.8633;
1321.5000;0.1221;3.8838;
1321.8000;0.1188;3.8761;
1322.1000;0.1115;3.8479;
1322.4000;0.1180;3.8658;
1322.7000;0.1221;3.8735;
1323.0000;0.1197;3.8658;
1323.3000;0.1188;3.8607;
1323.6000;0.1197;3.8633;
1323.9000;0.1188;3.8787;
1324.2000;0.1131;3.8633;
1324.5000;0.1197;3.8735;
1324.8000;0.1245;3.8863;
1325.1000;0.1188;3.8607;
1325.4000;0.1197;3.8658;
1325.7000;0.1180;3.8633;
1326.0000;0.1172;3.8581;
1326.3000;0.1188;3.8607;
1326.6000;0.1213;3.8684;
1326.9000;0.1197;3.8607;
1327.2000;0.1188;3.8607;
1327.5000;0.1180;3.8530;
1327.8000;0.1197;3.8607;
1328.1000;0.1213;3.8658;
1328.4000;0.1205;3.8504;
1328.7000;0.1050;3.8043;
1329.0000;0.1270;3.8658;
1329.3000;0.1237;3.8633;
1329.6000;0.1172;3.8376;
1329.9000;0.1180;3.8350;
1330.2000;0.1205;3.8453;
1330.5000;0.1237;3.8633;
1330.8000;0.1205;3.8581;
1331.1000;0.1270;3.8710;
1331.4000;0.1197;3.8530;
1331.7000;0.1164;3.8479;
1332.0000;0.1213;3.8633;
1332.3000;0.1180;3.8581;
1332.6000;0.1294;3.8838;
1332.9000;0.1180;3.8504;
1333.2000;0.1148;3.8427;
1333.5000;0.1188;3.8607;
1333.8000;0.1197;3.8530;
1334.1000;0.1180;3.8504;
1334.4000;0.1180;3.8633;
1334.7000;0.1197;3.8633;
1335.0000;0.1213;3.8684;
1335.3000;0.1164;3.8453;
1335.6000;0.1123;3.8402;
1335.9000;0.1213;3.8530;
1336.2000;0.1270;3.8710;
1336.5000;0.1018;3.8222;
1336.8000;0.1180;3.8658;
1337.1000;0.1213;3.8684;
1337.4000;0.1205;3.8633;
1337.7000;0.1205;3.8633;
1338.0000;0.1205;3.8710;
1338.3000;0.1172;3.8504;
1338.6000;0.1180;3.8556;
1338.9000;0.1188;3.8581;
1339.2000;0.1197;3.8581;
1339.5000;0.1188;3.8556;
1339.8000;0.1131;3.8427;
1340.1000;0.1221;3.8710;
1340.4000;0.1197;3.8581;
1340.7000;0.1245;3.8684;
1341.0000;0.1221;3.8658;
1341.3000;0.1188;3.8658;
1341.6000;0.1205;3.8710;
1341.9000;0.1205;3.8658;
1342.2000;0.1213;3.8710;
1342.5000;0.1221;3.8761;
1342.8000;0.1180;3.8684;
1343.1000;0.1188;3.8658;
1343.4000;0.1221;3.8710;
1343.7000;0.1213;3.8633;
1344.0000;0.1188;3.8581;
1344.3000;0.1180;3.8581;
1344.6000;0.1237;3.8735;
1344.9000;0.1205;3.8633;
1345.2000;0.1205;3.8735;
1345.5000;0.1180;3.8607;
1345.8000;0.1188;3.8607;
1346.1000;0.1188;3.8684;
1346.4000;0.1270;3.8889;
1346.7000;0.1221;3.8735;
1347.0000;0.1221;3.8735;
1347.3000;0.1205;3.8812;
1347.6000;0.1205;3.8812;
1347.9000;0.1188;3.8658;
1348.2000;0.1188;3.8633;
1348.5000;0.1197;3.8658;
1348.8000;0.1180;3.8607;
1349.1000;0.1172;3.8530;
1349.4000;0.1221;3.8633;
1349.7000;0.1188;3.8633;
1350.0000;0.1221;3.8658;
1350.3000;0.1197;3.8607;
1350.6000;0.1205;3.8735;
1350.9000;0.1213;3.8735;
1351.2000;0.1213;3.8684;
1351.5000;0.1197;3.8556;
1351.8000;0.1221;3.8684;
1352.1000;0.1205;3.8581;
1352.4000;0.1213;3.8453;
1352.7000;0.1213;3.8504;
1353.0000;0.1205;3.8427;
1353.3000;0.1213;3.8453;
1353.6000;0.1205;3.8556;
1353.9000;0.1172;3.8581;
1354.2000;0.1229;3.8658;
1354.5000;0.1221;3.8658;
1354.8000;0.1197;3.8556;
1355.1000;0.1180;3.8530;
1355.4000;0.1156;3.8504;
1355.7000;0.1197;3.8684;
1356.0000;0.1205;3.8684;
1356.3000;0.1188;3.8633;
1356.6000;0.1197;3.8658;
1356.9000;0.1156;3.8504;
1357.2000;0.1148;3.8453;
1357.5000;0.1197;3.8504;
1357.8000;0.1188;3.8453;
1358.1000;0.1172;3.8376;
1358.4000;0.1188;3.8479;
1358.7000;0.1180;3.8504;
1359.0000;0.1156;3.8427;
1359.3000;0.1180;3.8479;
1359.6000;0.1180;3.8479;
1359.9000;0.1197;3.8479;
1360.2000;0.1229;3.8504;
1360.5000;0.1197;3.8427;
1360.8000;0.1115;3.8145;
1361.1000;0.1197;3.8453;
1361.4000;0.1205;3.8479;
1361.7000;0.1229;3.8504;
1362.0000;0.1205;3.8556;
1362.3000;0.1205;3.8530;
1362.6000;0.1213;3.8633;
1362.9000;0.1205;3.8607;
1363.2000;0.1197;3.8556;
1363.5000;0.1172;3.8453;
1363.8000;0.1205;3.8556;
1364.1000;0.1172;3.8402;
1364.4000;0.1188;3.8376;
1364.7000;0.1229;3.8556;
1365.0000;0.1213;3.8530;
1365.3000;0.1172;3.8427;
1365.6000;0.1213;3.8504;
1365.9000;0.1294;3.8787;
1366.2000;0.1164;3.8530;
1366.5000;0.1197;3.8581;
1366.8000;0.1205;3.8658;
1367.1000;0.1197;3.8607;
1367.4000;0.1197;3.8684;
1367.7000;0.1034;3.8299;
1368.0000;0.1213;3.8889;
1368.3000;0.1172;3.8787;
1368.6000;0.1180;3.8735;
1368.9000;0.1213;3.8735;
1369.2000;0.1205;3.8735;
1369.5000;0.1221;3.8761;
1369.8000;0.1254;3.8838;
1370.1000;0.1197;3.8787;
1370.4000;0.1205;3.8787;
1370.7000;0.1205;3.8838;
1371.0000;0.1213;3.8915;
1371.3000;0.1180;3.8863;
1371.6000;0.1221;3.8992;
1371.9000;0.1131;3.8710;
1372.2000;0.1237;3.8915;
1372.5000;0.1205;3.8787;
1372.8000;0.1180;3.8812;
1373.1000;0.1205;3.8787;
1373.4000;0.1180;3.8658;
1373.7000;0.1188;3.8735;
1374.0000;0.1148;3.8684;
1374.3000;0.1197;3.8838;
1374.6000;0.1188;3.8838;
1374.9000;0.1197;3.8889;
1375.2000;0.1221;3.8787;
1375.5000;0.1229;3.8787;
1375.8000;0.1197;3.8710;
1376.1000;0.1229;3.8761;
1376.4000;0.1213;3.8812;
1376.7000;0.1229;3.8915;
1377.0000;0.1172;3.8787;
1377.3000;0.1221;3.8863;
1377.6000;0.1188;3.8812;
1377.9000;0.1221;3.8838;
1378.2000;0.1229;3.8889;
1378.5000;0.1197;3.8787;
1378.8000;0.1205;3.8812;
1379.1000;0.1188;3.8812;
1379.4000;0.1205;3.8863;
1379.7000;0.1197;3.8812;
1380.0000;0.1188;3.8710;
1380.3000;0.1188;3.8607;
1380.6000;0.1188;3.8530;
1380.9000;0.1188;3.8504;
1381.2000;0.1205;3.8530;
1381.5000;0.1197;3.8556;
1381.8000;0.1188;3.8607;
1382.1000;0.1213;3.8633;
1382.4000;0.1205;3.8556;
1382.7000;0.1213;3.8607;
1383.0000;0.1213;3.8556;
1383.3000;0.1213;3.8581;
1383.6000;0.1188;3.8504;
1383.9000;0.1172;3.8453;
1384.2000;0.1221;3.8556;
1384.5000;0.1197;3.8479;
1384.8000;0.1197;3.8504;
1385.1000;0.1172;3.8453;
1385.4000;0.1197;3.8556;
1385.7000;0.1188;3.8633;
1386.0000;0.1213;3.8658;
1386.3000;0.1188;3.8633;
1386.6000;0.1180;3.8633;
1386.9000;0.1237;3.8787;
1387.2000;0.1188;3.8607;
1387.5000;0.1188;3.8556;
1387.8000;0.1197;3.8530;
1388.1000;0.1197;3.8581;
1388.4000;0.1188;3.8581;
1388.7000;0.1245;3.8787;
1389.0000;0.1229;3.8581;
1389.3000;0.1188;3.8504;
1389.6000;0.1188;3.8556;
1389.9000;0.1188;3.8556;
1390.2000;0.1188;3.8530;
1390.5000;0.1197;3.8504;
1390.8000;0.1197;3.8504;
1391.1000;0.1205;3.8530;
1391.4000;0.1205;3.8504;
1391.7000;0.1180;3.8556;
1392.0000;0.1205;3.8607;
1392.3000;0.1197;3.8633;
1392.6000;0.1254;3.8838;
1392.9000;0.1197;3.8761;
1393.2000;0.1197;3.8735;
1393.5000;0.1221;3.8812;
1393.8000;0.1205;3.8812;
1394.1000;0.1319;3.9146;
1394.4000;0.1197;3.8735;
1394.7000;0.1205;3.8710;
1395.0000;0.1229;3.8761;
1395.3000;0.1188;3.8684;
1395.6000;0.1188;3.8735;
1395.9000;0.1188;3.8658;
1396.2000;0.1197;3.8787;
1396.5000;0.1188;3.8658;
1396.8000;0.1180;3.8581;
1397.1000;0.1188;3.8581;
1397.4000;0.1197;3.8530;
1397.7000;0.1221;3.8581;
1398.0000;0.1180;3.8453;
1398.3000;0.1205;3.8556;
1398.6000;0.1221;3.8633;
1398.9000;0.1205;3.8581;
1399.2000;0.1180;3.8556;
1399.5000;0.1172;3.8607;
1399.8000;0.1197;3.8633;
