time/ms;Fluo/V;P700 deltaI/I x10³;
-199.8000;0.1400;3.8633;
-199.5000;0.1376;3.8633;
-199.2000;0.1376;3.8530;
-198.9000;0.1392;3.8530;
-198.6000;0.1376;3.8530;
-198.3000;0.1392;3.8581;
-198.0000;0.1400;3.8607;
-197.7000;0.1376;3.8633;
-197.4000;0.1392;3.8658;
-197.1000;0.1376;3.8581;
-196.8000;0.1384;3.8607;
-196.5000;0.1343;3.8427;
-196.2000;0.1384;3.8710;
-195.9000;0.1376;3.8735;
-195.6000;0.1376;3.8761;
-195.3000;0.1359;3.8710;
-195.0000;0.1408;3.8761;
-194.7000;0.1384;3.8684;
-194.4000;0.1392;3.8761;
-194.1000;0.1351;3.8633;
-193.8000;0.1376;3.8735;
-193.5000;0.1376;3.8735;
-193.2000;0.1368;3.8684;
-192.9000;0.1351;3.8581;
-192.6000;0.1384;3.8658;
-192.3000;0.1392;3.8684;
-192.0000;0.1392;3.8556;
-191.7000;0.1376;3.8530;
-191.4000;0.1384;3.8530;
-191.1000;0.1408;3.8556;
-190.8000;0.1376;3.8504;
-190.5000;0.1473;3.8658;
-190.2000;0.1368;3.8402;
-189.9000;0.1384;3.8402;
-189.6000;0.1392;3.8453;
-189.3000;0.1278;3.8145;
-189.0000;0.1400;3.8479;
-188.7000;0.1376;3.8453;
-188.4000;0.1319;3.8248;
-188.1000;0.1392;3.8453;
-187.8000;0.1384;3.8402;
-187.5000;0.1384;3.8325;
-187.2000;0.1392;3.8299;
-186.9000;0.1384;3.8273;
-186.6000;0.1384;3.8197;
-186.3000;0.1384;3.8299;
-186.0000;0.1376;3.8248;
-185.7000;0.1384;3.8248;
-185.4000;0.1392;3.8222;
-185.1000;0.1392;3.8197;
-184.8000;0.1490;3.8530;
-184.5000;0.1400;3.8325;
-184.2000;0.1392;3.8325;
-183.9000;0.1392;3.8402;
-183.6000;0.1392;3.8504;
-183.3000;0.1376;3.8427;
-183.0000;0.1359;3.8376;
-182.7000;0.1384;3.8453;
-182.4000;0.1278;3.8145;
-182.1000;0.1368;3.8376;
-181.8000;0.1368;3.8504;
-181.5000;0.1351;3.8453;
-181.2000;0.1384;3.8530;
-180.9000;0.1376;3.8530;
-180.6000;0.1384;3.8581;
-180.3000;0.1368;3.8607;
-180.0000;0.1376;3.8761;
-179.7000;0.1376;3.8735;
-179.4000;0.1376;3.8710;
-179.1000;0.1376;3.8787;
-178.8000;0.1400;3.8838;
-178.5000;0.1384;3.8710;
-178.2000;0.1392;3.8581;
-177.9000;0.1384;3.8581;
-177.6000;0.1392;3.8633;
-177.3000;0.1392;3.8710;
-177.0000;0.1368;3.8658;
-176.7000;0.1351;3.8530;
-176.4000;0.1376;3.8556;
-176.1000;0.1376;3.8504;
-175.8000;0.1473;3.8787;
-175.5000;0.1376;3.8530;
-175.2000;0.1384;3.8633;
-174.9000;0.1384;3.8633;
-174.6000;0.1376;3.8735;
-174.3000;0.1384;3.8812;
-174.0000;0.1392;3.8863;
-173.7000;0.1392;3.8940;
-173.4000;0.1400;3.8889;
-173.1000;0.1384;3.8863;
-172.8000;0.1384;3.8838;
-172.5000;0.1376;3.8863;
-172.2000;0.1400;3.8838;
-171.9000;0.1343;3.8556;
-171.6000;0.1368;3.8607;
-171.3000;0.1400;3.8735;
-171.0000;0.1384;3.8633;
-170.7000;0.1400;3.8658;
-170.4000;0.1359;3.8479;
-170.1000;0.1384;3.8607;
-169.8000;0.1384;3.8684;
-169.5000;0.1384;3.8684;
-169.2000;0.1392;3.8607;
-168.9000;0.1416;3.8633;
-168.6000;0.1400;3.8633;
-168.3000;0.1384;3.8607;
-168.0000;0.1384;3.8633;
-167.7000;0.1376;3.8581;
-167.4000;0.1384;3.8607;
-167.1000;0.1368;3.8658;
-166.8000;0.1302;3.8453;
-166.5000;0.1392;3.8684;
-166.2000;0.1400;3.8735;
-165.9000;0.1400;3.8710;
-165.6000;0.1400;3.8761;
-165.3000;0.1384;3.8684;
-165.0000;0.1400;3.8787;
-164.7000;0.1408;3.8710;
-164.4000;0.1392;3.8658;
-164.1000;0.1384;3.8684;
-163.8000;0.1376;3.8684;
-163.5000;0.1376;3.8761;
-163.2000;0.1384;3.8633;
-162.9000;0.1400;3.8633;
-162.6000;0.1384;3.8556;
-162.3000;0.1392;3.8556;
-162.0000;0.1384;3.8504;
-161.7000;0.1351;3.8453;
-161.4000;0.1376;3.8530;
-161.1000;0.1400;3.8633;
-160.8000;0.1457;3.8940;
-160.5000;0.1376;3.8684;
-160.2000;0.1392;3.8710;
-159.9000;0.1400;3.8735;
-159.6000;0.1416;3.8812;
-159.3000;0.1408;3.8787;
-159.0000;0.1408;3.8838;
-158.7000;0.1376;3.8735;
-158.4000;0.1408;3.8787;
-158.1000;0.1408;3.8787;
-157.8000;0.1416;3.8761;
-157.5000;0.1376;3.8530;
-157.2000;0.1384;3.8684;
-156.9000;0.1335;3.8633;
-156.6000;0.1384;3.8812;
-156.3000;0.1351;3.8735;
-156.0000;0.1376;3.8787;
-155.7000;0.1351;3.8735;
-155.4000;0.1376;3.8863;
-155.1000;0.1384;3.8812;
-154.8000;0.1392;3.8838;
-154.5000;0.1376;3.8838;
-154.2000;0.1392;3.8863;
-153.9000;0.1392;3.8915;
-153.6000;0.1384;3.8889;
-153.3000;0.1384;3.8863;
-153.0000;0.1392;3.8940;
-152.7000;0.1408;3.9043;
-152.4000;0.1400;3.8992;
-152.1000;0.1384;3.9069;
-151.8000;0.1392;3.8915;
-151.5000;0.1376;3.8838;
-151.2000;0.1384;3.8915;
-150.9000;0.1400;3.8940;
-150.6000;0.1376;3.8838;
-150.3000;0.1400;3.8863;
-150.0000;0.1376;3.8863;
-149.7000;0.1376;3.8863;
-149.4000;0.1384;3.8940;
-149.1000;0.1392;3.8940;
-148.8000;0.1400;3.9017;
-148.5000;0.1392;3.9017;
-148.2000;0.1392;3.8992;
-147.9000;0.1392;3.8915;
-147.6000;0.1392;3.8787;
-147.3000;0.1376;3.8787;
-147.0000;0.1392;3.8915;
-146.7000;0.1392;3.8812;
-146.4000;0.1400;3.8761;
-146.1000;0.1384;3.8684;
-145.8000;0.1376;3.8684;
-145.5000;0.1376;3.8735;
-145.2000;0.1408;3.8838;
-144.9000;0.1392;3.8761;
-144.6000;0.1481;3.8992;
-144.3000;0.1368;3.8658;
-144.0000;0.1408;3.8787;
-143.7000;0.1490;3.8966;
-143.4000;0.1384;3.8684;
-143.1000;0.1384;3.8684;
-142.8000;0.1400;3.8787;
-142.5000;0.1376;3.8735;
-142.2000;0.1400;3.8761;
-141.9000;0.1400;3.8761;
-141.6000;0.1392;3.8863;
-141.3000;0.1384;3.8710;
-141.0000;0.1376;3.8684;
-140.7000;0.1254;3.8248;
-140.4000;0.1384;3.8556;
-140.1000;0.1327;3.8402;
-139.8000;0.1416;3.8658;
-139.5000;0.1376;3.8607;
-139.2000;0.1392;3.8607;
-138.9000;0.1384;3.8581;
-138.6000;0.1384;3.8633;
-138.3000;0.1392;3.8633;
-138.0000;0.1376;3.8710;
-137.7000;0.1384;3.8684;
-137.4000;0.1400;3.8710;
-137.1000;0.1368;3.8684;
-136.8000;0.1400;3.8838;
-136.5000;0.1400;3.8838;
-136.2000;0.1400;3.8915;
-135.9000;0.1392;3.8889;
-135.6000;0.1384;3.8966;
-135.3000;0.1400;3.8940;
-135.0000;0.1384;3.8863;
-134.7000;0.1384;3.8838;
-134.4000;0.1392;3.8812;
-134.1000;0.1368;3.8787;
-133.8000;0.1449;3.8915;
-133.5000;0.1368;3.8684;
-133.2000;0.1384;3.8684;
-132.9000;0.1311;3.8376;
-132.6000;0.1400;3.8607;
-132.3000;0.1392;3.8581;
-132.0000;0.1384;3.8633;
-131.7000;0.1416;3.8812;
-131.4000;0.1392;3.8735;
-131.1000;0.1335;3.8607;
-130.8000;0.1384;3.8761;
-130.5000;0.1400;3.8787;
-130.2000;0.1343;3.8710;
-129.9000;0.1368;3.8863;
-129.6000;0.1384;3.8915;
-129.3000;0.1359;3.8761;
-129.0000;0.1384;3.8633;
-128.7000;0.1376;3.8735;
-128.4000;0.1384;3.8684;
-128.1000;0.1392;3.8761;
-127.8000;0.1368;3.8787;
-127.5000;0.1392;3.8812;
-127.2000;0.1384;3.8658;
-126.9000;0.1392;3.8633;
-126.6000;0.1376;3.8633;
-126.3000;0.1384;3.8633;
-126.0000;0.1392;3.8710;
-125.7000;0.1376;3.8735;
-125.4000;0.1384;3.8710;
-125.1000;0.1368;3.8735;
-124.8000;0.1416;3.8812;
-124.5000;0.1384;3.8684;
-124.2000;0.1376;3.8658;
-123.9000;0.1359;3.8530;
-123.6000;0.1311;3.8350;
-123.3000;0.1392;3.8607;
-123.0000;0.1392;3.8556;
-122.7000;0.1400;3.8581;
-122.4000;0.1400;3.8684;
-122.1000;0.1376;3.8710;
-121.8000;0.1286;3.8427;
-121.5000;0.1490;3.9094;
-121.2000;0.1384;3.8812;
-120.9000;0.1376;3.8863;
-120.6000;0.1368;3.8838;
-120.3000;0.1416;3.8889;
-120.0000;0.1408;3.8889;
-119.7000;0.1384;3.8863;
-119.4000;0.1392;3.8992;
-119.1000;0.1425;3.9223;
-118.8000;0.1384;3.9171;
-118.5000;0.1376;3.9197;
-118.2000;0.1425;3.9325;
-117.9000;0.1384;3.9120;
-117.6000;0.1384;3.9017;
-117.3000;0.1392;3.8966;
-117.0000;0.1384;3.8915;
-116.7000;0.1384;3.8812;
-116.4000;0.1376;3.8735;
-116.1000;0.1465;3.8915;
-115.8000;0.1392;3.8658;
-115.5000;0.1392;3.8556;
-115.2000;0.1359;3.8581;
-114.9000;0.1376;3.8658;
-114.6000;0.1384;3.8684;
-114.3000;0.1400;3.8761;
-114.0000;0.1384;3.8710;
-113.7000;0.1441;3.8915;
-113.4000;0.1384;3.8812;
-113.1000;0.1335;3.8761;
-112.8000;0.1376;3.8812;
-112.5000;0.1368;3.8735;
-112.2000;0.1384;3.8735;
-111.9000;0.1384;3.8658;
-111.6000;0.1359;3.8556;
-111.3000;0.1392;3.8658;
-111.0000;0.1408;3.8761;
-110.7000;0.1392;3.8787;
-110.4000;0.1384;3.8735;
-110.1000;0.1400;3.8735;
-109.8000;0.1278;3.8427;
-109.5000;0.1343;3.8633;
-109.2000;0.1384;3.8684;
-108.9000;0.1400;3.8710;
-108.6000;0.1384;3.8710;
-108.3000;0.1400;3.8633;
-108.0000;0.1359;3.8530;
-107.7000;0.1490;3.8940;
-107.4000;0.1433;3.8684;
-107.1000;0.1376;3.8658;
-106.8000;0.1368;3.8530;
-106.5000;0.1351;3.8581;
-106.2000;0.1376;3.8658;
-105.9000;0.1384;3.8735;
-105.6000;0.1392;3.8735;
-105.3000;0.1376;3.8684;
-105.0000;0.1473;3.8940;
-104.7000;0.1359;3.8735;
-104.4000;0.1392;3.8838;
-104.1000;0.1457;3.8992;
-103.8000;0.1384;3.8787;
-103.5000;0.1400;3.8889;
-103.2000;0.1400;3.8889;
-102.9000;0.1392;3.8787;
-102.6000;0.1376;3.8735;
-102.3000;0.1359;3.8607;
-102.0000;0.1254;3.8197;
-101.7000;0.1416;3.8607;
-101.4000;0.1392;3.8453;
-101.1000;0.1392;3.8479;
-100.8000;0.1359;3.8376;
-100.5000;0.1416;3.8607;
-100.2000;0.1449;3.8812;
-99.9000;0.1384;3.8581;
-99.6000;0.1457;3.8761;
-99.3000;0.1384;3.8504;
-99.0000;0.1384;3.8530;
-98.7000;0.1302;3.8299;
-98.4000;0.1376;3.8504;
-98.1000;0.1400;3.8633;
-97.8000;0.1359;3.8504;
-97.5000;0.1400;3.8633;
-97.2000;0.1368;3.8684;
-96.9000;0.1351;3.8710;
-96.6000;0.1368;3.8658;
-96.3000;0.1400;3.8710;
-96.0000;0.1392;3.8633;
-95.7000;0.1368;3.8633;
-95.4000;0.1400;3.8658;
-95.1000;0.1425;3.8710;
-94.8000;0.1400;3.8607;
-94.5000;0.1359;3.8581;
-94.2000;0.1408;3.8710;
-93.9000;0.1384;3.8607;
-93.6000;0.1425;3.8735;
-93.3000;0.1384;3.8658;
-93.0000;0.1392;3.8710;
-92.7000;0.1384;3.8684;
-92.4000;0.1408;3.8684;
-92.1000;0.1368;3.8607;
-91.8000;0.1384;3.8633;
-91.5000;0.1392;3.8684;
-91.2000;0.1416;3.8710;
-90.9000;0.1376;3.8581;
-90.6000;0.1368;3.8658;
-90.3000;0.1376;3.8761;
-90.0000;0.1384;3.8787;
-89.7000;0.1376;3.8812;
-89.4000;0.1376;3.8761;
-89.1000;0.1384;3.8863;
-88.8000;0.1376;3.8838;
-88.5000;0.1384;3.8863;
-88.2000;0.1351;3.8761;
-87.9000;0.1376;3.8838;
-87.6000;0.1376;3.8710;
-87.3000;0.1384;3.8658;
-87.0000;0.1376;3.8607;
-86.7000;0.1376;3.8658;
-86.4000;0.1392;3.8710;
-86.1000;0.1384;3.8710;
-85.8000;0.1392;3.8735;
-85.5000;0.1368;3.8658;
-85.2000;0.1392;3.8735;
-84.9000;0.1376;3.8710;
-84.6000;0.1392;3.8787;
-84.3000;0.1376;3.8658;
-84.0000;0.1384;3.8607;
-83.7000;0.1392;3.8556;
-83.4000;0.1416;3.8684;
-83.1000;0.1351;3.8556;
-82.8000;0.1376;3.8710;
-82.5000;0.1400;3.8710;
-82.2000;0.1327;3.8581;
-81.9000;0.1302;3.8376;
-81.6000;0.1368;3.8658;
-81.3000;0.1376;3.8658;
-81.0000;0.1359;3.8556;
-80.7000;0.1343;3.8402;
-80.4000;0.1359;3.8556;
-80.1000;0.1384;3.8530;
-79.8000;0.1359;3.8530;
-79.5000;0.1351;3.8453;
-79.2000;0.1311;3.8402;
-78.9000;0.1302;3.8376;
-78.6000;0.1384;3.8607;
-78.3000;0.1384;3.8556;
-78.0000;0.1335;3.8479;
-77.7000;0.1384;3.8684;
-77.4000;0.1400;3.8607;
-77.1000;0.1376;3.8530;
-76.8000;0.1392;3.8607;
-76.5000;0.1384;3.8607;
-76.2000;0.1384;3.8684;
-75.9000;0.1384;3.8761;
-75.6000;0.1376;3.8710;
-75.3000;0.1376;3.8658;
-75.0000;0.1433;3.8812;
-74.7000;0.1368;3.8658;
-74.4000;0.1384;3.8761;
-74.1000;0.1368;3.8684;
-73.8000;0.1457;3.8915;
-73.5000;0.1392;3.8812;
-73.2000;0.1376;3.8863;
-72.9000;0.1384;3.8838;
-72.6000;0.1392;3.8889;
-72.3000;0.1408;3.8863;
-72.0000;0.1457;3.8915;
-71.7000;0.1457;3.8889;
-71.4000;0.1359;3.8633;
-71.1000;0.1400;3.8684;
-70.8000;0.1335;3.8633;
-70.5000;0.1368;3.8812;
-70.2000;0.1392;3.8812;
-69.9000;0.1286;3.8556;
-69.6000;0.1392;3.8863;
-69.3000;0.1384;3.8838;
-69.0000;0.1457;3.9017;
-68.7000;0.1408;3.8838;
-68.4000;0.1400;3.8863;
-68.1000;0.1400;3.8838;
-67.8000;0.1351;3.8787;
-67.5000;0.1384;3.8863;
-67.2000;0.1376;3.8889;
-66.9000;0.1392;3.8915;
-66.6000;0.1368;3.8787;
-66.3000;0.1392;3.8838;
-66.0000;0.1376;3.8761;
-65.7000;0.1392;3.8710;
-65.4000;0.1368;3.8710;
-65.1000;0.1384;3.8710;
-64.8000;0.1392;3.8658;
-64.5000;0.1400;3.8710;
-64.2000;0.1384;3.8633;
-63.9000;0.1465;3.8812;
-63.6000;0.1368;3.8633;
-63.3000;0.1392;3.8710;
-63.0000;0.1384;3.8735;
-62.7000;0.1376;3.8633;
-62.4000;0.1376;3.8607;
-62.1000;0.1392;3.8658;
-61.8000;0.1392;3.8735;
-61.5000;0.1384;3.8735;
-61.2000;0.1335;3.8658;
-60.9000;0.1384;3.8863;
-60.6000;0.1359;3.8863;
-60.3000;0.1319;3.8761;
-60.0000;0.1351;3.8787;
-59.7000;0.1368;3.8863;
-59.4000;0.1359;3.8812;
-59.1000;0.1376;3.8889;
-58.8000;0.1392;3.8915;
-58.5000;0.1392;3.8915;
-58.2000;0.1359;3.8838;
-57.9000;0.1408;3.9017;
-57.6000;0.1376;3.8863;
-57.3000;0.1392;3.8812;
-57.0000;0.1416;3.8915;
-56.7000;0.1392;3.8838;
-56.4000;0.1384;3.8940;
-56.1000;0.1384;3.8889;
-55.8000;0.1384;3.8863;
-55.5000;0.1408;3.8915;
-55.2000;0.1473;3.9094;
-54.9000;0.1384;3.8812;
-54.6000;0.1368;3.8863;
-54.3000;0.1384;3.8812;
-54.0000;0.1416;3.8838;
-53.7000;0.1343;3.8710;
-53.4000;0.1376;3.8812;
-53.1000;0.1400;3.8889;
-52.8000;0.1408;3.8863;
-52.5000;0.1319;3.8735;
-52.2000;0.1376;3.8863;
-51.9000;0.1368;3.8915;
-51.6000;0.1384;3.8992;
-51.3000;0.1384;3.8966;
-51.0000;0.1384;3.8863;
-50.7000;0.1368;3.8787;
-50.4000;0.1416;3.8889;
-50.1000;0.1408;3.8915;
-49.8000;0.1376;3.8761;
-49.5000;0.1408;3.8915;
-49.2000;0.1368;3.8787;
-48.9000;0.1376;3.8812;
-48.6000;0.1392;3.8889;
-48.3000;0.1376;3.8863;
-48.0000;0.1408;3.8889;
-47.7000;0.1392;3.8889;
-47.4000;0.1376;3.8787;
-47.1000;0.1400;3.8863;
-46.8000;0.1408;3.8863;
-46.5000;0.1392;3.8863;
-46.2000;0.1384;3.8838;
-45.9000;0.1376;3.8838;
-45.6000;0.1384;3.8838;
-45.3000;0.1441;3.8940;
-45.0000;0.1408;3.8787;
-44.7000;0.1384;3.8710;
-44.4000;0.1408;3.8710;
-44.1000;0.1384;3.8633;
-43.8000;0.1433;3.8812;
-43.5000;0.1384;3.8633;
-43.2000;0.1384;3.8710;
-42.9000;0.1457;3.8966;
-42.6000;0.1384;3.8735;
-42.3000;0.1392;3.8838;
-42.0000;0.1351;3.8684;
-41.7000;0.1384;3.8863;
-41.4000;0.1384;3.8838;
-41.1000;0.1359;3.8735;
-40.8000;0.1392;3.8812;
-40.5000;0.1368;3.8684;
-40.2000;0.1384;3.8735;
-39.9000;0.1384;3.8761;
-39.6000;0.1351;3.8658;
-39.3000;0.1311;3.8427;
-39.0000;0.1384;3.8581;
-38.7000;0.1400;3.8607;
-38.4000;0.1376;3.8581;
-38.1000;0.1368;3.8504;
-37.8000;0.1400;3.8556;
-37.5000;0.1343;3.8350;
-37.2000;0.1400;3.8530;
-36.9000;0.1376;3.8504;
-36.6000;0.1400;3.8530;
-36.3000;0.1384;3.8530;
-36.0000;0.1351;3.8376;
-35.7000;0.1384;3.8453;
-35.4000;0.1400;3.8530;
-35.1000;0.1384;3.8556;
-34.8000;0.1359;3.8530;
-34.5000;0.1384;3.8607;
-34.2000;0.1384;3.8530;
-33.9000;0.1368;3.8607;
-33.6000;0.1376;3.8684;
-33.3000;0.1376;3.8684;
-33.0000;0.1368;3.8633;
-32.7000;0.1392;3.8684;
-32.4000;0.1392;3.8735;
-32.1000;0.1392;3.8735;
-31.8000;0.1384;3.8658;
-31.5000;0.1359;3.8581;
-31.2000;0.1376;3.8607;
-30.9000;0.1400;3.8684;
-30.6000;0.1376;3.8710;
-30.3000;0.1384;3.8735;
-30.0000;0.1392;3.8658;
-29.7000;0.1408;3.8710;
-29.4000;0.1425;3.8787;
-29.1000;0.1392;3.8556;
-28.8000;0.1392;3.8530;
-28.5000;0.1400;3.8530;
-28.2000;0.1400;3.8504;
-27.9000;0.1392;3.8504;
-27.6000;0.1384;3.8581;
-27.3000;0.1384;3.8607;
-27.0000;0.1384;3.8556;
-26.7000;0.1376;3.8607;
-26.4000;0.1376;3.8633;
-26.1000;0.1449;3.8863;
-25.8000;0.1376;3.8761;
-25.5000;0.1400;3.8787;
-25.2000;0.1425;3.8761;
-24.9000;0.1392;3.8735;
-24.6000;0.1368;3.8735;
-24.3000;0.1351;3.8633;
-24.0000;0.1359;3.8684;
-23.7000;0.1368;3.8735;
-23.4000;0.1392;3.8812;
-23.1000;0.1270;3.8504;
-22.8000;0.1359;3.8684;
-22.5000;0.1359;3.8658;
-22.2000;0.1327;3.8530;
-21.9000;0.1368;3.8684;
-21.6000;0.1351;3.8633;
-21.3000;0.1351;3.8607;
-21.0000;0.1441;3.8838;
-20.7000;0.1384;3.8658;
-20.4000;0.1392;3.8684;
-20.1000;0.1376;3.8581;
-19.8000;0.1449;3.8812;
-19.5000;0.1400;3.8633;
-19.2000;0.1400;3.8633;
-18.9000;0.1384;3.8607;
-18.6000;0.1392;3.8658;
-18.3000;0.1392;3.8787;
-18.0000;0.1384;3.8710;
-17.7000;0.1408;3.8710;
-17.4000;0.1376;3.8607;
-17.1000;0.1384;3.8581;
-16.8000;0.1368;3.8556;
-16.5000;0.1392;3.8658;
-16.2000;0.1392;3.8684;
-15.9000;0.1376;3.8710;
-15.6000;0.1400;3.8787;
-15.3000;0.1368;3.8735;
-15.0000;0.1368;3.8787;
-14.7000;0.1384;3.8863;
-14.4000;0.1400;3.8838;
-14.1000;0.1400;3.8838;
-13.8000;0.1376;3.8735;
-13.5000;0.1376;3.8710;
-13.2000;0.1384;3.8735;
-12.9000;0.1441;3.8940;
-12.6000;0.1384;3.8684;
-12.3000;0.1384;3.8658;
-12.0000;0.1376;3.8556;
-11.7000;0.1416;3.8684;
-11.4000;0.1392;3.8556;
-11.1000;0.1368;3.8607;
-10.8000;0.1368;3.8581;
-10.5000;0.1392;3.8633;
-10.2000;0.1384;3.8607;
-9.9000;0.1392;3.8607;
-9.6000;0.1408;3.8581;
-9.3000;0.1400;3.8530;
-9.0000;0.1384;3.8530;
-8.7000;0.1384;3.8427;
-8.4000;0.1384;3.8504;
-8.1000;0.1368;3.8479;
-7.8000;0.1416;3.8607;
-7.5000;0.1368;3.8427;
-7.2000;0.1384;3.8530;
-6.9000;0.1425;3.8633;
-6.6000;0.1416;3.8607;
-6.3000;0.1384;3.8581;
-6.0000;0.1425;3.8633;
-5.7000;0.1343;3.8402;
-5.4000;0.1408;3.8658;
-5.1000;0.1343;3.8427;
-4.8000;0.1449;3.8710;
-4.5000;0.1400;3.8581;
-4.2000;0.1400;3.8556;
-3.9000;0.1400;3.8504;
-3.6000;0.1441;3.8633;
-3.3000;0.1408;3.8581;
-3.0000;0.1400;3.8581;
-2.7000;0.1400;3.8530;
-2.4000;0.1400;3.8479;
-2.1000;0.1368;3.8427;
-1.8000;0.1368;3.8453;
-1.5000;0.1376;3.8581;
-1.2000;0.1384;3.8607;
-0.9000;0.1384;3.8684;
-0.6000;0.1384;3.8684;
-0.3000;0.1368;3.8710;
0.0000;0.1368;3.8710;
0.3000;0.1376;3.8581;
0.6000;0.1376;3.8633;
0.9000;0.1359;3.8684;
1.2000;0.1376;3.8838;
1.5000;0.1425;3.9017;
1.8000;0.1433;3.9094;
2.1000;0.1425;3.9197;
2.4000;0.1449;3.9300;
2.7000;0.1425;3.9300;
3.0000;0.1449;3.9377;
3.3000;0.1433;3.9402;
3.6000;0.1449;3.9453;
3.9000;0.1441;3.9453;
4.2000;0.1481;3.9428;
4.5000;0.1457;3.9428;
4.8000;0.1473;3.9633;
5.1000;0.1441;3.9659;
5.4000;0.1441;3.9633;
5.7000;0.1465;3.9607;
6.0000;0.1465;3.9607;
6.3000;0.1449;3.9582;
6.6000;0.1465;3.9659;
6.9000;0.1449;3.9633;
7.2000;0.1449;3.9710;
7.5000;0.1498;3.9915;
7.8000;0.1465;3.9838;
8.1000;0.1465;3.9915;
8.4000;0.1547;4.0172;
8.7000;0.1490;4.0018;
9.0000;0.1473;3.9915;
9.3000;0.1481;3.9967;
9.6000;0.1473;3.9890;
9.9000;0.1457;3.9813;
10.2000;0.1473;4.0069;
10.5000;0.1465;3.9967;
10.8000;0.1465;3.9915;
11.1000;0.1416;3.9633;
11.4000;0.1481;3.9864;
11.7000;0.1490;3.9890;
12.0000;0.1473;3.9890;
12.3000;0.1433;3.9787;
12.6000;0.1343;3.9479;
12.9000;0.1465;3.9890;
13.2000;0.1481;3.9941;
13.5000;0.1473;4.0043;
13.8000;0.1473;4.0018;
14.1000;0.1457;3.9967;
14.4000;0.1465;4.0043;
14.7000;0.1473;4.0018;
15.0000;0.1514;4.0069;
15.3000;0.1538;4.0146;
15.6000;0.1490;3.9915;
15.9000;0.1473;3.9864;
16.2000;0.1465;3.9838;
16.5000;0.1481;3.9838;
16.8000;0.1498;3.9813;
17.1000;0.1498;3.9864;
17.4000;0.1465;3.9813;
17.7000;0.1481;3.9890;
18.0000;0.1481;3.9838;
18.3000;0.1441;3.9761;
18.6000;0.1506;3.9890;
18.9000;0.1481;3.9838;
19.2000;0.1473;3.9838;
19.5000;0.1473;3.9864;
19.8000;0.1441;3.9787;
20.1000;0.1465;3.9736;
20.4000;0.1473;3.9710;
20.7000;0.1473;3.9582;
21.0000;0.1571;3.9864;
21.3000;0.1465;3.9659;
21.6000;0.1481;3.9659;
21.9000;0.1481;3.9684;
22.2000;0.1490;3.9736;
22.5000;0.1522;3.9838;
22.8000;0.1490;3.9736;
23.1000;0.1473;3.9684;
23.4000;0.1481;3.9736;
23.7000;0.1449;3.9659;
24.0000;0.1490;3.9710;
24.3000;0.1465;3.9659;
24.6000;0.1490;3.9659;
24.9000;0.1481;3.9659;
25.2000;0.1473;3.9633;
25.5000;0.1473;3.9607;
25.8000;0.1498;3.9710;
26.1000;0.1498;3.9710;
26.4000;0.1522;3.9787;
26.7000;0.1498;3.9787;
27.0000;0.1498;3.9736;
27.3000;0.1490;3.9659;
27.6000;0.1490;3.9684;
27.9000;0.1506;3.9736;
28.2000;0.1498;3.9787;
28.5000;0.1481;3.9787;
28.8000;0.1506;3.9992;
29.1000;0.1490;3.9941;
29.4000;0.1498;3.9864;
29.7000;0.1473;3.9813;
30.0000;0.1473;3.9838;
30.3000;0.1449;3.9761;
30.6000;0.1481;3.9813;
30.9000;0.1473;3.9813;
31.2000;0.1490;3.9813;
31.5000;0.1481;3.9864;
31.8000;0.1449;3.9761;
32.1000;0.1400;3.9607;
32.4000;0.1498;3.9864;
32.7000;0.1587;4.0146;
33.0000;0.1490;3.9864;
33.3000;0.1595;4.0223;
33.6000;0.1481;4.0043;
33.9000;0.1441;3.9890;
34.2000;0.1457;3.9992;
34.5000;0.1490;4.0043;
34.8000;0.1506;4.0069;
35.1000;0.1441;3.9864;
35.4000;0.1490;3.9992;
35.7000;0.1473;3.9967;
36.0000;0.1457;3.9992;
36.3000;0.1498;4.0095;
36.6000;0.1449;3.9967;
36.9000;0.1514;4.0120;
37.2000;0.1490;4.0018;
37.5000;0.1514;4.0120;
37.8000;0.1490;4.0018;
38.1000;0.1481;3.9967;
38.4000;0.1457;3.9761;
38.7000;0.1473;3.9915;
39.0000;0.1449;3.9761;
39.3000;0.1441;3.9813;
39.6000;0.1506;4.0069;
39.9000;0.1473;4.0018;
40.2000;0.1473;3.9890;
40.5000;0.1473;3.9813;
40.8000;0.1522;3.9967;
41.1000;0.1392;3.9582;
41.4000;0.1514;3.9941;
41.7000;0.1498;3.9838;
42.0000;0.1522;3.9915;
42.3000;0.1490;3.9915;
42.6000;0.1481;3.9915;
42.9000;0.1465;3.9787;
43.2000;0.1481;3.9890;
43.5000;0.1522;4.0069;
43.8000;0.1498;4.0018;
44.1000;0.1514;3.9967;
44.4000;0.1457;3.9915;
44.7000;0.1473;3.9992;
45.0000;0.1481;4.0018;
45.3000;0.1506;3.9992;
45.6000;0.1490;3.9941;
45.9000;0.1473;3.9967;
46.2000;0.1481;4.0018;
46.5000;0.1465;4.0095;
46.8000;0.1473;4.0120;
47.1000;0.1506;4.0146;
47.4000;0.1473;4.0146;
47.7000;0.1473;4.0172;
48.0000;0.1481;4.0069;
48.3000;0.1473;4.0069;
48.6000;0.1490;4.0043;
48.9000;0.1473;3.9967;
49.2000;0.1490;3.9915;
49.5000;0.1465;3.9838;
49.8000;0.1473;3.9787;
50.1000;0.1465;3.9787;
50.4000;0.1465;3.9813;
50.7000;0.1473;3.9787;
51.0000;0.1506;3.9864;
51.3000;0.1481;3.9864;
51.6000;0.1498;3.9890;
51.9000;0.1473;3.9838;
52.2000;0.1490;3.9838;
52.5000;0.1498;3.9838;
52.8000;0.1506;3.9813;
53.1000;0.1506;3.9838;
53.4000;0.1506;3.9890;
53.7000;0.1490;3.9838;
54.0000;0.1514;3.9890;
54.3000;0.1490;3.9761;
54.6000;0.1490;3.9710;
54.9000;0.1490;3.9684;
55.2000;0.1481;3.9787;
55.5000;0.1481;3.9761;
55.8000;0.1473;3.9736;
56.1000;0.1490;3.9813;
56.4000;0.1490;3.9736;
56.7000;0.1449;3.9607;
57.0000;0.1481;3.9761;
57.3000;0.1457;3.9761;
57.6000;0.1490;3.9941;
57.9000;0.1538;4.0069;
58.2000;0.1522;4.0018;
58.5000;0.1416;3.9530;
58.8000;0.1481;3.9710;
59.1000;0.1506;3.9813;
59.4000;0.1481;3.9787;
59.7000;0.1538;3.9864;
60.0000;0.1473;3.9607;
60.3000;0.1465;3.9556;
60.6000;0.1384;3.9197;
60.9000;0.1481;3.9479;
61.2000;0.1498;3.9607;
61.5000;0.1490;3.9582;
61.8000;0.1506;3.9556;
62.1000;0.1481;3.9530;
62.4000;0.1530;3.9633;
62.7000;0.1481;3.9505;
63.0000;0.1498;3.9530;
63.3000;0.1481;3.9453;
63.6000;0.1506;3.9505;
63.9000;0.1498;3.9428;
64.2000;0.1490;3.9428;
64.5000;0.1481;3.9351;
64.8000;0.1481;3.9377;
65.1000;0.1498;3.9479;
65.4000;0.1481;3.9505;
65.7000;0.1490;3.9505;
66.0000;0.1522;3.9607;
66.3000;0.1498;3.9556;
66.6000;0.1457;3.9556;
66.9000;0.1408;3.9351;
67.2000;0.1481;3.9607;
67.5000;0.1490;3.9556;
67.8000;0.1416;3.9377;
68.1000;0.1498;3.9633;
68.4000;0.1465;3.9582;
68.7000;0.1604;4.0069;
69.0000;0.1465;3.9659;
69.3000;0.1498;3.9787;
69.6000;0.1514;3.9787;
69.9000;0.1555;3.9941;
70.2000;0.1506;3.9864;
70.5000;0.1498;3.9787;
70.8000;0.1563;4.0018;
71.1000;0.1490;3.9736;
71.4000;0.1481;3.9761;
71.7000;0.1498;3.9736;
72.0000;0.1473;3.9684;
72.3000;0.1465;3.9736;
72.6000;0.1490;3.9838;
72.9000;0.1490;3.9838;
73.2000;0.1481;3.9761;
73.5000;0.1481;3.9864;
73.8000;0.1490;3.9864;
74.1000;0.1498;3.9915;
74.4000;0.1506;3.9890;
74.7000;0.1473;3.9890;
75.0000;0.1498;3.9941;
75.3000;0.1490;4.0018;
75.6000;0.1498;3.9992;
75.9000;0.1473;3.9864;
76.2000;0.1498;3.9864;
76.5000;0.1506;3.9864;
76.8000;0.1481;3.9838;
77.1000;0.1490;3.9813;
77.4000;0.1490;3.9736;
77.7000;0.1481;3.9761;
78.0000;0.1522;3.9915;
78.3000;0.1490;3.9915;
78.6000;0.1506;3.9967;
78.9000;0.1506;3.9890;
79.2000;0.1490;3.9813;
79.5000;0.1498;3.9813;
79.8000;0.1490;3.9736;
80.1000;0.1514;3.9710;
80.4000;0.1425;3.9453;
80.7000;0.1433;3.9428;
81.0000;0.1473;3.9607;
81.3000;0.1481;3.9684;
81.6000;0.1473;3.9684;
81.9000;0.1465;3.9659;
82.2000;0.1490;3.9633;
82.5000;0.1522;3.9684;
82.8000;0.1457;3.9479;
83.1000;0.1490;3.9607;
83.4000;0.1490;3.9736;
83.7000;0.1481;3.9736;
84.0000;0.1506;3.9787;
84.3000;0.1514;3.9941;
84.6000;0.1514;3.9915;
84.9000;0.1465;3.9813;
85.2000;0.1473;3.9864;
85.5000;0.1490;3.9838;
85.8000;0.1490;3.9761;
86.1000;0.1506;3.9813;
86.4000;0.1514;3.9838;
86.7000;0.1506;3.9838;
87.0000;0.1522;3.9915;
87.3000;0.1498;3.9864;
87.6000;0.1473;3.9838;
87.9000;0.1473;3.9736;
88.2000;0.1473;3.9659;
88.5000;0.1522;3.9787;
88.8000;0.1481;3.9736;
89.1000;0.1506;3.9838;
89.4000;0.1587;3.9992;
89.7000;0.1490;3.9813;
90.0000;0.1522;3.9941;
90.3000;0.1457;3.9736;
90.6000;0.1490;3.9787;
90.9000;0.1490;3.9761;
91.2000;0.1425;3.9582;
91.5000;0.1506;3.9838;
91.8000;0.1449;3.9710;
92.1000;0.1514;3.9890;
92.4000;0.1481;3.9813;
92.7000;0.1555;4.0018;
93.0000;0.1555;3.9941;
93.3000;0.1490;3.9684;
93.6000;0.1457;3.9633;
93.9000;0.1498;3.9659;
94.2000;0.1481;3.9633;
94.5000;0.1457;3.9582;
94.8000;0.1563;3.9838;
95.1000;0.1473;3.9710;
95.4000;0.1506;3.9890;
95.7000;0.1498;3.9915;
96.0000;0.1522;3.9890;
96.3000;0.1514;3.9890;
96.6000;0.1473;3.9813;
96.9000;0.1490;3.9915;
97.2000;0.1498;3.9967;
97.5000;0.1481;3.9864;
97.8000;0.1490;3.9813;
98.1000;0.1473;3.9787;
98.4000;0.1465;3.9813;
98.7000;0.1498;3.9941;
99.0000;0.1490;3.9864;
99.3000;0.1481;3.9864;
99.6000;0.1498;3.9967;
99.9000;0.1490;3.9915;
100.2000;0.1498;3.9941;
100.5000;0.1498;3.9992;
100.8000;0.1498;3.9890;
101.1000;0.1506;3.9941;
101.4000;0.1498;3.9941;
101.7000;0.1481;3.9838;
102.0000;0.1490;3.9890;
102.3000;0.1416;3.9556;
102.6000;0.1490;3.9710;
102.9000;0.1481;3.9684;
103.2000;0.1433;3.9530;
103.5000;0.1506;3.9736;
103.8000;0.1481;3.9607;
104.1000;0.1457;3.9607;
104.4000;0.1490;3.9684;
104.7000;0.1563;3.9838;
105.0000;0.1555;3.9838;
105.3000;0.1384;3.9325;
105.6000;0.1522;3.9710;
105.9000;0.1481;3.9556;
106.2000;0.1490;3.9582;
106.5000;0.1481;3.9556;
106.8000;0.1473;3.9633;
107.1000;0.1457;3.9556;
107.4000;0.1416;3.9428;
107.7000;0.1506;3.9633;
108.0000;0.1490;3.9582;
108.3000;0.1473;3.9505;
108.6000;0.1441;3.9505;
108.9000;0.1490;3.9761;
109.2000;0.1514;3.9813;
109.5000;0.1473;3.9633;
109.8000;0.1490;3.9787;
110.1000;0.1481;3.9761;
110.4000;0.1481;3.9684;
110.7000;0.1490;3.9633;
111.0000;0.1490;3.9607;
111.3000;0.1481;3.9582;
111.6000;0.1490;3.9659;
111.9000;0.1563;3.9813;
112.2000;0.1449;3.9453;
112.5000;0.1490;3.9582;
112.8000;0.1481;3.9659;
113.1000;0.1522;3.9736;
113.4000;0.1506;3.9864;
113.7000;0.1490;3.9838;
114.0000;0.1514;3.9915;
114.3000;0.1449;3.9736;
114.6000;0.1416;3.9684;
114.9000;0.1490;3.9890;
115.2000;0.1481;3.9915;
115.5000;0.1498;3.9941;
115.8000;0.1498;3.9967;
116.1000;0.1506;3.9967;
116.4000;0.1498;3.9992;
116.7000;0.1530;4.0069;
117.0000;0.1514;3.9941;
117.3000;0.1473;3.9761;
117.6000;0.1473;3.9761;
117.9000;0.1490;3.9736;
118.2000;0.1506;3.9838;
118.5000;0.1498;3.9813;
118.8000;0.1473;3.9761;
119.1000;0.1490;3.9813;
119.4000;0.1481;3.9787;
119.7000;0.1481;3.9761;
120.0000;0.1490;3.9761;
120.3000;0.1490;3.9761;
120.6000;0.1490;3.9787;
120.9000;0.1481;3.9787;
121.2000;0.1514;3.9890;
121.5000;0.1490;3.9838;
121.8000;0.1490;3.9787;
122.1000;0.1506;3.9864;
122.4000;0.1416;3.9633;
122.7000;0.1490;3.9864;
123.0000;0.1530;4.0069;
123.3000;0.1481;3.9915;
123.6000;0.1498;3.9890;
123.9000;0.1490;3.9890;
124.2000;0.1473;3.9838;
124.5000;0.1490;3.9838;
124.8000;0.1473;3.9710;
125.1000;0.1514;3.9864;
125.4000;0.1465;3.9787;
125.7000;0.1465;3.9864;
126.0000;0.1490;3.9787;
126.3000;0.1441;3.9633;
126.6000;0.1490;3.9890;
126.9000;0.1490;3.9838;
127.2000;0.1506;3.9915;
127.5000;0.1481;3.9992;
127.8000;0.1506;4.0120;
128.1000;0.1498;3.9992;
128.4000;0.1530;4.0120;
128.7000;0.1579;4.0223;
129.0000;0.1481;3.9864;
129.3000;0.1449;3.9684;
129.6000;0.1530;3.9967;
129.9000;0.1506;3.9890;
130.2000;0.1490;3.9915;
130.5000;0.1498;3.9890;
130.8000;0.1506;3.9992;
131.1000;0.1433;3.9864;
131.4000;0.1473;4.0018;
131.7000;0.1547;4.0172;
132.0000;0.1490;4.0043;
132.3000;0.1490;3.9890;
132.6000;0.1490;3.9864;
132.9000;0.1490;3.9864;
133.2000;0.1506;3.9915;
133.5000;0.1498;3.9992;
133.8000;0.1481;3.9967;
134.1000;0.1490;3.9890;
134.4000;0.1498;3.9890;
134.7000;0.1473;3.9890;
135.0000;0.1490;3.9864;
135.3000;0.1490;3.9941;
135.6000;0.1490;3.9890;
135.9000;0.1490;3.9915;
136.2000;0.1481;3.9992;
136.5000;0.1473;4.0018;
136.8000;0.1498;3.9992;
137.1000;0.1498;4.0018;
137.4000;0.1490;4.0018;
137.7000;0.1490;4.0043;
138.0000;0.1498;4.0043;
138.3000;0.1490;3.9992;
138.6000;0.1473;3.9941;
138.9000;0.1384;3.9556;
139.2000;0.1481;3.9838;
139.5000;0.1498;3.9915;
139.8000;0.1481;3.9992;
140.1000;0.1473;3.9941;
140.4000;0.1490;3.9992;
140.7000;0.1490;3.9992;
141.0000;0.1457;3.9864;
141.3000;0.1473;3.9941;
141.6000;0.1465;3.9941;
141.9000;0.1490;3.9992;
142.2000;0.1490;3.9992;
142.5000;0.1498;3.9915;
142.8000;0.1498;3.9915;
143.1000;0.1490;3.9992;
143.4000;0.1498;4.0069;
143.7000;0.1481;4.0043;
144.0000;0.1465;4.0018;
144.3000;0.1457;3.9992;
144.6000;0.1514;4.0120;
144.9000;0.1498;4.0120;
145.2000;0.1490;4.0018;
145.5000;0.1490;4.0043;
145.8000;0.1490;4.0043;
146.1000;0.1473;4.0018;
146.4000;0.1473;3.9992;
146.7000;0.1465;3.9992;
147.0000;0.1571;4.0274;
147.3000;0.1465;4.0043;
147.6000;0.1522;4.0223;
147.9000;0.1498;4.0095;
148.2000;0.1498;3.9992;
148.5000;0.1449;3.9838;
148.8000;0.1490;3.9890;
149.1000;0.1384;3.9659;
149.4000;0.1490;3.9967;
149.7000;0.1490;3.9915;
150.0000;0.1465;3.9838;
150.3000;0.1490;3.9864;
150.6000;0.1481;3.9890;
150.9000;0.1473;3.9915;
151.2000;0.1498;3.9967;
151.5000;0.1473;3.9890;
151.8000;0.1490;3.9890;
152.1000;0.1490;3.9915;
152.4000;0.1498;3.9941;
152.7000;0.1677;4.0531;
153.0000;0.1498;4.0018;
153.3000;0.1547;4.0223;
153.6000;0.1425;3.9915;
153.9000;0.1498;4.0120;
154.2000;0.1538;4.0249;
154.5000;0.1490;4.0120;
154.8000;0.1498;4.0069;
155.1000;0.1498;4.0018;
155.4000;0.1506;4.0069;
155.7000;0.1522;4.0146;
156.0000;0.1481;4.0043;
156.3000;0.1473;4.0043;
156.6000;0.1481;3.9992;
156.9000;0.1481;3.9992;
157.2000;0.1481;4.0146;
157.5000;0.1473;4.0172;
157.8000;0.1481;4.0249;
158.1000;0.1473;4.0172;
158.4000;0.1416;4.0095;
158.7000;0.1514;4.0274;
159.0000;0.1416;3.9992;
159.3000;0.1473;4.0172;
159.6000;0.1530;4.0326;
159.9000;0.1481;4.0197;
160.2000;0.1514;4.0197;
160.5000;0.1473;4.0043;
160.8000;0.1530;4.0223;
161.1000;0.1490;4.0018;
161.4000;0.1563;4.0274;
161.7000;0.1498;4.0146;
162.0000;0.1433;3.9941;
162.3000;0.1465;4.0043;
162.6000;0.1490;4.0069;
162.9000;0.1490;4.0069;
163.2000;0.1481;4.0120;
163.5000;0.1481;4.0146;
163.8000;0.1481;4.0223;
164.1000;0.1473;4.0223;
164.4000;0.1490;4.0223;
164.7000;0.1465;4.0120;
165.0000;0.1506;4.0146;
165.3000;0.1481;4.0146;
165.6000;0.1465;3.9992;
165.9000;0.1490;4.0043;
166.2000;0.1481;3.9992;
166.5000;0.1465;3.9992;
166.8000;0.1490;4.0069;
167.1000;0.1490;4.0018;
167.4000;0.1506;4.0043;
167.7000;0.1506;3.9967;
168.0000;0.1490;3.9992;
168.3000;0.1481;3.9992;
168.6000;0.1473;3.9967;
168.9000;0.1490;3.9890;
169.2000;0.1481;3.9915;
169.5000;0.1490;3.9967;
169.8000;0.1498;3.9992;
170.1000;0.1514;3.9941;
170.4000;0.1481;3.9967;
170.7000;0.1498;4.0069;
171.0000;0.1473;4.0095;
171.3000;0.1481;4.0146;
171.6000;0.1465;4.0095;
171.9000;0.1514;4.0172;
172.2000;0.1481;4.0043;
172.5000;0.1490;4.0069;
172.8000;0.1530;4.0146;
173.1000;0.1490;4.0120;
173.4000;0.1498;4.0120;
173.7000;0.1481;3.9992;
174.0000;0.1604;4.0403;
174.3000;0.1481;4.0018;
174.6000;0.1473;4.0043;
174.9000;0.1490;4.0069;
175.2000;0.1490;3.9992;
175.5000;0.1571;4.0223;
175.8000;0.1490;4.0018;
176.1000;0.1490;3.9941;
176.4000;0.1498;3.9941;
176.7000;0.1481;3.9967;
177.0000;0.1498;3.9941;
177.3000;0.1490;3.9864;
177.6000;0.1498;3.9992;
177.9000;0.1457;3.9864;
178.2000;0.1506;4.0018;
178.5000;0.1498;3.9992;
178.8000;0.1473;3.9941;
179.1000;0.1473;3.9992;
179.4000;0.1465;4.0043;
179.7000;0.1481;4.0043;
180.0000;0.1555;4.0274;
180.3000;0.1473;3.9992;
180.6000;0.1465;3.9941;
180.9000;0.1498;3.9967;
181.2000;0.1465;3.9864;
181.5000;0.1498;3.9941;
181.8000;0.1490;3.9813;
182.1000;0.1481;3.9761;
182.4000;0.1473;3.9761;
182.7000;0.1465;3.9761;
183.0000;0.1465;3.9838;
183.3000;0.1473;3.9915;
183.6000;0.1433;3.9813;
183.9000;0.1498;3.9941;
184.2000;0.1579;4.0274;
184.5000;0.1481;4.0018;
184.8000;0.1498;3.9941;
185.1000;0.1465;3.9838;
185.4000;0.1506;3.9992;
185.7000;0.1490;3.9890;
186.0000;0.1473;3.9915;
186.3000;0.1465;3.9838;
186.6000;0.1490;3.9813;
186.9000;0.1490;3.9838;
187.2000;0.1506;3.9838;
187.5000;0.1481;3.9761;
187.8000;0.1481;3.9761;
188.1000;0.1465;3.9710;
188.4000;0.1490;3.9787;
188.7000;0.1425;3.9582;
189.0000;0.1473;3.9684;
189.3000;0.1473;3.9761;
189.6000;0.1498;3.9864;
189.9000;0.1490;3.9941;
190.2000;0.1481;3.9890;
190.5000;0.1490;3.9967;
190.8000;0.1498;3.9941;
191.1000;0.1498;3.9915;
191.4000;0.1490;3.9915;
191.7000;0.1481;3.9813;
192.0000;0.1547;4.0095;
192.3000;0.1498;3.9967;
192.6000;0.1473;3.9915;
192.9000;0.1473;3.9838;
193.2000;0.1481;3.9838;
193.5000;0.1514;3.9915;
193.8000;0.1481;3.9967;
194.1000;0.1481;4.0018;
194.4000;0.1481;3.9967;
194.7000;0.1473;3.9967;
195.0000;0.1490;4.0069;
195.3000;0.1498;4.0095;
195.6000;0.1490;4.0095;
195.9000;0.1481;4.0043;
196.2000;0.1481;4.0043;
196.5000;0.1490;4.0120;
196.8000;0.1481;4.0120;
197.1000;0.1481;4.0146;
197.4000;0.1481;4.0146;
197.7000;0.1498;4.0069;
198.0000;0.1473;4.0043;
198.3000;0.1416;3.9787;
198.6000;0.1465;3.9967;
198.9000;0.1498;4.0069;
199.2000;0.1522;4.0069;
199.5000;0.1473;3.9967;
199.8000;0.1490;4.0018;
200.1000;0.1498;4.0018;
200.4000;0.1481;3.9915;
200.7000;0.1490;3.9967;
201.0000;0.1522;4.0018;
201.3000;0.1481;4.0018;
201.6000;0.1481;4.0018;
201.9000;0.1498;4.0043;
202.2000;0.1547;4.0120;
202.5000;0.1490;3.9992;
202.8000;0.1473;4.0018;
203.1000;0.1473;4.0043;
203.4000;0.1506;4.0146;
203.7000;0.1498;4.0095;
204.0000;0.1514;4.0069;
204.3000;0.1506;3.9992;
204.6000;0.1522;4.0069;
204.9000;0.1481;4.0018;
205.2000;0.1490;4.0095;
205.5000;0.1441;3.9992;
205.8000;0.1465;4.0095;
206.1000;0.1490;4.0120;
206.4000;0.1473;3.9992;
206.7000;0.1506;4.0043;
207.0000;0.1481;3.9941;
207.3000;0.1490;3.9915;
207.6000;0.1490;3.9890;
207.9000;0.1490;3.9864;
208.2000;0.1490;3.9838;
208.5000;0.1465;3.9761;
208.8000;0.1473;3.9684;
209.1000;0.1514;3.9787;
209.4000;0.1465;3.9684;
209.7000;0.1457;3.9710;
210.0000;0.1490;3.9787;
210.3000;0.1473;3.9838;
210.6000;0.1514;3.9941;
210.9000;0.1465;3.9761;
211.2000;0.1481;3.9736;
211.5000;0.1498;3.9787;
211.8000;0.1490;3.9787;
212.1000;0.1490;3.9838;
212.4000;0.1490;3.9838;
212.7000;0.1490;3.9890;
213.0000;0.1481;3.9864;
213.3000;0.1481;3.9787;
213.6000;0.1457;3.9761;
213.9000;0.1481;3.9813;
214.2000;0.1490;3.9864;
214.5000;0.1498;3.9890;
214.8000;0.1506;3.9864;
215.1000;0.1473;3.9736;
215.4000;0.1490;3.9787;
215.7000;0.1555;4.0018;
216.0000;0.1481;3.9838;
216.3000;0.1481;3.9864;
216.6000;0.1498;3.9941;
216.9000;0.1481;3.9941;
217.2000;0.1481;3.9864;
217.5000;0.1481;3.9736;
217.8000;0.1490;3.9787;
218.1000;0.1498;3.9864;
218.4000;0.1530;3.9941;
218.7000;0.1490;3.9813;
219.0000;0.1400;3.9582;
219.3000;0.1506;3.9890;
219.6000;0.1473;3.9761;
219.9000;0.1506;3.9890;
220.2000;0.1498;3.9941;
220.5000;0.1538;4.0069;
220.8000;0.1530;3.9967;
221.1000;0.1473;3.9813;
221.4000;0.1481;3.9813;
221.7000;0.1473;3.9761;
222.0000;0.1457;3.9736;
222.3000;0.1555;4.0018;
222.6000;0.1490;3.9761;
222.9000;0.1498;3.9838;
223.2000;0.1473;3.9813;
223.5000;0.1465;3.9915;
223.8000;0.1555;4.0274;
224.1000;0.1481;4.0043;
224.4000;0.1473;3.9941;
224.7000;0.1473;3.9941;
225.0000;0.1465;3.9992;
225.3000;0.1473;4.0018;
225.6000;0.1376;3.9710;
225.9000;0.1473;3.9890;
226.2000;0.1465;3.9813;
226.5000;0.1465;3.9787;
226.8000;0.1506;3.9915;
227.1000;0.1465;3.9813;
227.4000;0.1449;3.9787;
227.7000;0.1498;3.9838;
228.0000;0.1490;3.9761;
228.3000;0.1481;3.9633;
228.6000;0.1498;3.9684;
228.9000;0.1473;3.9633;
229.2000;0.1481;3.9684;
229.5000;0.1473;3.9684;
229.8000;0.1490;3.9684;
230.1000;0.1481;3.9659;
230.4000;0.1506;3.9761;
230.7000;0.1481;3.9736;
231.0000;0.1506;3.9864;
231.3000;0.1457;3.9659;
231.6000;0.1490;3.9736;
231.9000;0.1490;3.9761;
232.2000;0.1481;3.9736;
232.5000;0.1490;3.9864;
232.8000;0.1473;3.9813;
233.1000;0.1441;3.9710;
233.4000;0.1481;3.9813;
233.7000;0.1481;3.9813;
234.0000;0.1506;3.9864;
234.3000;0.1481;3.9890;
234.6000;0.1490;3.9967;
234.9000;0.1481;3.9941;
235.2000;0.1490;3.9915;
235.5000;0.1481;3.9941;
235.8000;0.1384;3.9736;
236.1000;0.1490;4.0069;
236.4000;0.1473;4.0043;
236.7000;0.1490;4.0146;
237.0000;0.1506;4.0223;
237.3000;0.1473;4.0172;
237.6000;0.1465;4.0146;
237.9000;0.1490;4.0172;
238.2000;0.1490;4.0197;
238.5000;0.1457;4.0069;
238.8000;0.1465;3.9992;
239.1000;0.1506;4.0095;
239.4000;0.1490;4.0018;
239.7000;0.1498;4.0120;
240.0000;0.1506;4.0043;
240.3000;0.1465;3.9890;
240.6000;0.1473;3.9967;
240.9000;0.1490;3.9967;
241.2000;0.1498;3.9941;
241.5000;0.1481;3.9890;
241.8000;0.1481;3.9838;
242.1000;0.1490;3.9864;
242.4000;0.1490;3.9838;
242.7000;0.1490;3.9787;
243.0000;0.1481;3.9710;
243.3000;0.1490;3.9684;
243.6000;0.1514;3.9813;
243.9000;0.1481;3.9710;
244.2000;0.1481;3.9761;
244.5000;0.1481;3.9787;
244.8000;0.1441;3.9659;
245.1000;0.1465;3.9813;
245.4000;0.1481;3.9890;
245.7000;0.1481;3.9838;
246.0000;0.1481;3.9813;
246.3000;0.1506;3.9838;
246.6000;0.1481;3.9890;
246.9000;0.1473;3.9915;
247.2000;0.1473;3.9967;
247.5000;0.1490;3.9992;
247.8000;0.1595;4.0300;
248.1000;0.1490;3.9941;
248.4000;0.1481;3.9864;
248.7000;0.1506;3.9967;
249.0000;0.1473;3.9941;
249.3000;0.1498;4.0018;
249.6000;0.1457;3.9838;
249.9000;0.1481;3.9941;
250.2000;0.1490;3.9941;
250.5000;0.1490;3.9967;
250.8000;0.1473;3.9890;
251.1000;0.1498;3.9941;
251.4000;0.1441;3.9813;
251.7000;0.1465;3.9967;
252.0000;0.1473;3.9915;
252.3000;0.1490;3.9915;
252.6000;0.1473;3.9864;
252.9000;0.1514;3.9967;
253.2000;0.1473;3.9890;
253.5000;0.1481;3.9941;
253.8000;0.1481;4.0018;
254.1000;0.1490;3.9967;
254.4000;0.1473;3.9838;
254.7000;0.1498;3.9813;
255.0000;0.1473;3.9864;
255.3000;0.1506;3.9890;
255.6000;0.1498;3.9864;
255.9000;0.1490;3.9864;
256.2000;0.1490;3.9787;
256.5000;0.1490;3.9787;
256.8000;0.1473;3.9761;
257.1000;0.1481;3.9864;
257.4000;0.1498;3.9967;
257.7000;0.1481;3.9967;
258.0000;0.1587;4.0274;
258.3000;0.1481;3.9967;
258.6000;0.1473;3.9967;
258.9000;0.1457;3.9864;
259.2000;0.1481;3.9890;
259.5000;0.1473;3.9838;
259.8000;0.1465;3.9890;
260.1000;0.1408;3.9710;
260.4000;0.1490;3.9890;
260.7000;0.1506;3.9915;
261.0000;0.1368;3.9582;
261.3000;0.1490;3.9967;
261.6000;0.1498;3.9992;
261.9000;0.1473;3.9967;
262.2000;0.1522;4.0120;
262.5000;0.1457;3.9967;
262.8000;0.1490;4.0043;
263.1000;0.1522;4.0197;
263.4000;0.1547;4.0223;
263.7000;0.1465;4.0018;
264.0000;0.1498;4.0018;
264.3000;0.1490;3.9992;
264.6000;0.1498;4.0069;
264.9000;0.1473;4.0069;
265.2000;0.1481;4.0069;
265.5000;0.1490;3.9967;
265.8000;0.1506;4.0043;
266.1000;0.1498;4.0018;
266.4000;0.1481;3.9915;
266.7000;0.1498;3.9915;
267.0000;0.1514;3.9890;
267.3000;0.1490;3.9864;
267.6000;0.1465;3.9864;
267.9000;0.1481;3.9890;
268.2000;0.1433;3.9761;
268.5000;0.1457;3.9813;
268.8000;0.1465;3.9761;
269.1000;0.1481;3.9787;
269.4000;0.1522;3.9864;
269.7000;0.1522;3.9864;
270.0000;0.1465;3.9736;
270.3000;0.1473;3.9787;
270.6000;0.1498;3.9864;
270.9000;0.1498;3.9890;
271.2000;0.1490;3.9864;
271.5000;0.1547;4.0146;
271.8000;0.1490;3.9915;
272.1000;0.1514;3.9992;
272.4000;0.1457;3.9890;
272.7000;0.1481;3.9915;
273.0000;0.1465;3.9838;
273.3000;0.1473;3.9838;
273.6000;0.1481;3.9967;
273.9000;0.1490;3.9967;
274.2000;0.1498;3.9967;
274.5000;0.1506;3.9915;
274.8000;0.1498;3.9838;
275.1000;0.1473;3.9736;
275.4000;0.1465;3.9787;
275.7000;0.1506;3.9915;
276.0000;0.1465;3.9813;
276.3000;0.1481;3.9915;
276.6000;0.1416;3.9710;
276.9000;0.1506;3.9864;
277.2000;0.1490;3.9761;
277.5000;0.1498;3.9864;
277.8000;0.1498;3.9915;
278.1000;0.1481;3.9864;
278.4000;0.1498;3.9915;
278.7000;0.1481;3.9813;
279.0000;0.1473;3.9710;
279.3000;0.1498;3.9761;
279.6000;0.1498;3.9684;
279.9000;0.1506;3.9659;
280.2000;0.1473;3.9607;
280.5000;0.1481;3.9787;
280.8000;0.1481;3.9761;
281.1000;0.1449;3.9607;
281.4000;0.1425;3.9556;
281.7000;0.1490;3.9761;
282.0000;0.1490;3.9736;
282.3000;0.1490;3.9736;
282.6000;0.1384;3.9453;
282.9000;0.1498;3.9736;
283.2000;0.1506;3.9813;
283.5000;0.1498;3.9761;
283.8000;0.1498;3.9761;
284.1000;0.1465;3.9710;
284.4000;0.1400;3.9607;
284.7000;0.1481;3.9915;
285.0000;0.1392;3.9556;
285.3000;0.1498;3.9813;
285.6000;0.1498;3.9813;
285.9000;0.1490;3.9736;
286.2000;0.1498;3.9684;
286.5000;0.1465;3.9684;
286.8000;0.1481;3.9684;
287.1000;0.1522;3.9864;
287.4000;0.1522;3.9838;
287.7000;0.1490;3.9813;
288.0000;0.1490;3.9787;
288.3000;0.1498;3.9813;
288.6000;0.1481;3.9736;
288.9000;0.1465;3.9659;
289.2000;0.1490;3.9761;
289.5000;0.1481;3.9787;
289.8000;0.1506;3.9915;
290.1000;0.1490;3.9915;
290.4000;0.1473;3.9813;
290.7000;0.1457;3.9736;
291.0000;0.1481;3.9838;
291.3000;0.1506;3.9941;
291.6000;0.1498;3.9915;
291.9000;0.1481;3.9890;
292.2000;0.1481;3.9864;
292.5000;0.1392;3.9710;
292.8000;0.1473;4.0018;
293.1000;0.1481;4.0069;
293.4000;0.1498;4.0120;
293.7000;0.1481;4.0043;
294.0000;0.1473;4.0043;
294.3000;0.1457;3.9941;
294.6000;0.1473;3.9915;
294.9000;0.1449;3.9890;
295.2000;0.1473;3.9967;
295.5000;0.1449;3.9915;
295.8000;0.1481;3.9941;
296.1000;0.1498;3.9992;
296.4000;0.1481;3.9967;
296.7000;0.1490;4.0018;
297.0000;0.1498;3.9992;
297.3000;0.1490;4.0069;
297.6000;0.1506;4.0146;
297.9000;0.1538;4.0197;
298.2000;0.1465;3.9967;
298.5000;0.1530;4.0249;
298.8000;0.1457;4.0043;
299.1000;0.1481;4.0069;
299.4000;0.1473;4.0018;
299.7000;0.1481;4.0043;
300.0000;0.1490;3.9992;
300.3000;0.1473;3.9967;
300.6000;0.1433;3.9864;
300.9000;0.1481;3.9992;
301.2000;0.1481;3.9967;
301.5000;0.1498;3.9941;
301.8000;0.1498;3.9941;
302.1000;0.1473;3.9864;
302.4000;0.1481;3.9941;
302.7000;0.1457;3.9890;
303.0000;0.1490;3.9992;
303.3000;0.1473;3.9941;
303.6000;0.1481;3.9890;
303.9000;0.1481;3.9992;
304.2000;0.1465;3.9915;
304.5000;0.1514;4.0043;
304.8000;0.1481;4.0069;
305.1000;0.1457;4.0018;
305.4000;0.1571;4.0300;
305.7000;0.1490;4.0043;
306.0000;0.1498;4.0120;
306.3000;0.1473;4.0043;
306.6000;0.1498;4.0069;
306.9000;0.1481;4.0069;
307.2000;0.1490;4.0172;
307.5000;0.1514;4.0274;
307.8000;0.1490;4.0274;
308.1000;0.1433;4.0018;
308.4000;0.1473;4.0197;
308.7000;0.1473;4.0300;
309.0000;0.1498;4.0351;
309.3000;0.1465;4.0326;
309.6000;0.1490;4.0377;
309.9000;0.1465;4.0351;
310.2000;0.1473;4.0403;
310.5000;0.1498;4.0403;
310.8000;0.1481;4.0249;
311.1000;0.1538;4.0351;
311.4000;0.1473;4.0146;
311.7000;0.1498;4.0146;
312.0000;0.1547;4.0300;
312.3000;0.1490;4.0146;
312.6000;0.1514;4.0223;
312.9000;0.1481;4.0069;
313.2000;0.1433;3.9890;
313.5000;0.1498;4.0120;
313.8000;0.1481;4.0018;
314.1000;0.1335;3.9659;
314.4000;0.1498;4.0120;
314.7000;0.1481;4.0095;
315.0000;0.1490;4.0120;
315.3000;0.1473;4.0146;
315.6000;0.1481;4.0223;
315.9000;0.1490;4.0146;
316.2000;0.1473;4.0120;
316.5000;0.1400;3.9864;
316.8000;0.1506;4.0223;
317.1000;0.1506;4.0172;
317.4000;0.1490;4.0120;
317.7000;0.1538;4.0249;
318.0000;0.1481;4.0018;
318.3000;0.1481;4.0069;
318.6000;0.1490;4.0172;
318.9000;0.1481;4.0146;
319.2000;0.1465;4.0120;
319.5000;0.1506;4.0095;
319.8000;0.1490;4.0095;
320.1000;0.1457;4.0095;
320.4000;0.1473;4.0120;
320.7000;0.1490;4.0197;
321.0000;0.1481;4.0172;
321.3000;0.1465;4.0146;
321.6000;0.1441;4.0018;
321.9000;0.1522;4.0274;
322.2000;0.1490;4.0146;
322.5000;0.1481;4.0095;
322.8000;0.1433;3.9992;
323.1000;0.1490;4.0069;
323.4000;0.1490;4.0095;
323.7000;0.1481;4.0095;
324.0000;0.1481;4.0069;
324.3000;0.1481;4.0095;
324.6000;0.1490;4.0095;
324.9000;0.1530;4.0223;
325.2000;0.1465;4.0043;
325.5000;0.1481;4.0095;
325.8000;0.1465;4.0043;
326.1000;0.1490;4.0146;
326.4000;0.1473;4.0069;
326.7000;0.1473;4.0043;
327.0000;0.1490;4.0095;
327.3000;0.1498;4.0069;
327.6000;0.1481;3.9992;
327.9000;0.1506;4.0043;
328.2000;0.1579;4.0377;
328.5000;0.1498;4.0172;
328.8000;0.1514;4.0197;
329.1000;0.1506;4.0249;
329.4000;0.1490;4.0172;
329.7000;0.1498;4.0095;
330.0000;0.1538;4.0172;
330.3000;0.1530;4.0095;
330.6000;0.1506;4.0018;
330.9000;0.1506;4.0069;
331.2000;0.1473;4.0069;
331.5000;0.1473;4.0095;
331.8000;0.1506;4.0249;
332.1000;0.1498;4.0249;
332.4000;0.1481;4.0172;
332.7000;0.1481;4.0146;
333.0000;0.1465;4.0043;
333.3000;0.1473;4.0120;
333.6000;0.1481;4.0095;
333.9000;0.1433;3.9915;
334.2000;0.1481;3.9992;
334.5000;0.1498;4.0095;
334.8000;0.1506;4.0120;
335.1000;0.1473;4.0120;
335.4000;0.1465;4.0146;
335.7000;0.1384;3.9864;
336.0000;0.1514;4.0223;
336.3000;0.1433;3.9992;
336.6000;0.1498;4.0197;
336.9000;0.1490;4.0146;
337.2000;0.1628;4.0582;
337.5000;0.1498;4.0146;
337.8000;0.1254;3.9479;
338.1000;0.1465;3.9941;
338.4000;0.1481;3.9992;
338.7000;0.1506;4.0069;
339.0000;0.1481;4.0043;
339.3000;0.1473;4.0069;
339.6000;0.1595;4.0403;
339.9000;0.1498;4.0223;
340.2000;0.1538;4.0351;
340.5000;0.1433;4.0146;
340.8000;0.1498;4.0300;
341.1000;0.1457;4.0249;
341.4000;0.1506;4.0351;
341.7000;0.1473;4.0274;
342.0000;0.1490;4.0300;
342.3000;0.1506;4.0351;
342.6000;0.1473;4.0249;
342.9000;0.1587;4.0531;
343.2000;0.1538;4.0403;
343.5000;0.1473;4.0146;
343.8000;0.1514;4.0172;
344.1000;0.1490;4.0146;
344.4000;0.1547;4.0403;
344.7000;0.1473;4.0172;
345.0000;0.1498;4.0146;
345.3000;0.1490;4.0172;
345.6000;0.1481;4.0120;
345.9000;0.1473;4.0146;
346.2000;0.1481;4.0172;
346.5000;0.1473;4.0197;
346.8000;0.1506;4.0300;
347.1000;0.1473;4.0249;
347.4000;0.1481;4.0274;
347.7000;0.1490;4.0300;
348.0000;0.1481;4.0249;
348.3000;0.1481;4.0223;
348.6000;0.1490;4.0300;
348.9000;0.1498;4.0326;
349.2000;0.1506;4.0326;
349.5000;0.1490;4.0300;
349.8000;0.1384;3.9967;
350.1000;0.1498;4.0274;
350.4000;0.1481;4.0274;
350.7000;0.1473;4.0197;
351.0000;0.1506;4.0403;
351.3000;0.1473;4.0326;
351.6000;0.1490;4.0300;
351.9000;0.1530;4.0351;
352.2000;0.1473;4.0300;
352.5000;0.1547;4.0531;
352.8000;0.1506;4.0300;
353.1000;0.1416;4.0069;
353.4000;0.1408;4.0095;
353.7000;0.1465;4.0249;
354.0000;0.1441;4.0120;
354.3000;0.1481;4.0274;
354.6000;0.1481;4.0326;
354.9000;0.1481;4.0326;
355.2000;0.1473;4.0274;
355.5000;0.1522;4.0351;
355.8000;0.1498;4.0274;
356.1000;0.1441;4.0120;
356.4000;0.1506;4.0326;
356.7000;0.1473;4.0197;
357.0000;0.1465;4.0197;
357.3000;0.1490;4.0300;
357.6000;0.1522;4.0300;
357.9000;0.1490;4.0223;
358.2000;0.1498;4.0300;
358.5000;0.1490;4.0351;
358.8000;0.1465;4.0274;
359.1000;0.1481;4.0274;
359.4000;0.1490;4.0326;
359.7000;0.1538;4.0454;
360.0000;0.1449;4.0197;
360.3000;0.1425;4.0146;
360.6000;0.1457;4.0249;
360.9000;0.1457;4.0223;
361.2000;0.1514;4.0300;
361.5000;0.1473;4.0197;
361.8000;0.1506;4.0197;
362.1000;0.1465;4.0095;
362.4000;0.1481;4.0069;
362.7000;0.1433;3.9967;
363.0000;0.1490;4.0120;
363.3000;0.1481;4.0069;
363.6000;0.1473;4.0018;
363.9000;0.1465;3.9967;
364.2000;0.1457;3.9915;
364.5000;0.1481;4.0069;
364.8000;0.1473;4.0018;
365.1000;0.1498;4.0043;
365.4000;0.1498;4.0018;
365.7000;0.1449;3.9915;
366.0000;0.1498;4.0018;
366.3000;0.1498;3.9967;
366.6000;0.1490;3.9992;
366.9000;0.1506;4.0120;
367.2000;0.1506;4.0095;
367.5000;0.1506;4.0095;
367.8000;0.1490;4.0120;
368.1000;0.1506;4.0197;
368.4000;0.1473;4.0095;
368.7000;0.1481;4.0146;
369.0000;0.1465;4.0043;
369.3000;0.1490;4.0146;
369.6000;0.1506;4.0223;
369.9000;0.1506;4.0223;
370.2000;0.1481;4.0223;
370.5000;0.1530;4.0300;
370.8000;0.1498;4.0223;
371.1000;0.1506;4.0120;
371.4000;0.1376;3.9813;
371.7000;0.1490;4.0120;
372.0000;0.1514;4.0120;
372.3000;0.1530;4.0223;
372.6000;0.1490;4.0172;
372.9000;0.1481;4.0069;
373.2000;0.1473;4.0120;
373.5000;0.1473;4.0069;
373.8000;0.1481;4.0120;
374.1000;0.1481;4.0120;
374.4000;0.1506;4.0249;
374.7000;0.1433;3.9967;
375.0000;0.1514;4.0300;
375.3000;0.1490;4.0274;
375.6000;0.1498;4.0300;
375.9000;0.1506;4.0300;
376.2000;0.1490;4.0223;
376.5000;0.1490;4.0172;
376.8000;0.1481;4.0249;
377.1000;0.1498;4.0172;
377.4000;0.1481;4.0043;
377.7000;0.1481;4.0069;
378.0000;0.1473;4.0120;
378.3000;0.1481;4.0120;
378.6000;0.1498;4.0069;
378.9000;0.1506;4.0043;
379.2000;0.1425;3.9761;
379.5000;0.1490;3.9992;
379.8000;0.1506;3.9992;
380.1000;0.1498;3.9992;
380.4000;0.1506;3.9992;
380.7000;0.1506;4.0043;
381.0000;0.1490;3.9992;
381.3000;0.1514;4.0018;
381.6000;0.1490;3.9915;
381.9000;0.1490;3.9864;
382.2000;0.1498;4.0018;
382.5000;0.1449;3.9915;
382.8000;0.1481;4.0043;
383.1000;0.1457;3.9992;
383.4000;0.1498;4.0146;
383.7000;0.1498;4.0146;
384.0000;0.1465;4.0043;
384.3000;0.1481;4.0018;
384.6000;0.1465;3.9967;
384.9000;0.1506;4.0146;
385.2000;0.1465;4.0018;
385.5000;0.1530;4.0249;
385.8000;0.1473;4.0172;
386.1000;0.1490;4.0274;
386.4000;0.1490;4.0223;
386.7000;0.1506;4.0326;
387.0000;0.1506;4.0377;
387.3000;0.1490;4.0300;
387.6000;0.1498;4.0300;
387.9000;0.1498;4.0249;
388.2000;0.1473;4.0172;
388.5000;0.1538;4.0351;
388.8000;0.1490;4.0274;
389.1000;0.1490;4.0300;
389.4000;0.1481;4.0249;
389.7000;0.1547;4.0557;
390.0000;0.1530;4.0454;
390.3000;0.1481;4.0326;
390.6000;0.1457;4.0351;
390.9000;0.1473;4.0377;
391.2000;0.1481;4.0300;
391.5000;0.1473;4.0197;
391.8000;0.1490;4.0249;
392.1000;0.1481;4.0274;
392.4000;0.1490;4.0274;
392.7000;0.1465;4.0146;
393.0000;0.1481;4.0172;
393.3000;0.1506;4.0172;
393.6000;0.1473;4.0146;
393.9000;0.1514;4.0197;
394.2000;0.1498;4.0018;
394.5000;0.1563;4.0249;
394.8000;0.1498;3.9941;
395.1000;0.1587;4.0197;
395.4000;0.1465;3.9838;
395.7000;0.1498;3.9838;
396.0000;0.1481;3.9761;
396.3000;0.1522;3.9941;
396.6000;0.1490;3.9992;
396.9000;0.1481;3.9941;
397.2000;0.1490;3.9864;
397.5000;0.1490;3.9992;
397.8000;0.1522;4.0095;
398.1000;0.1465;4.0043;
398.4000;0.1498;4.0223;
398.7000;0.1490;4.0197;
399.0000;0.1465;4.0120;
399.3000;0.1481;4.0120;
399.6000;0.1473;4.0120;
399.9000;0.1473;4.0146;
400.2000;0.1506;4.0197;
400.5000;0.1506;4.0043;
400.8000;0.1490;3.9992;
401.1000;0.1481;4.0043;
401.4000;0.1481;4.0018;
401.7000;0.1506;4.0172;
402.0000;0.1481;4.0172;
402.3000;0.1481;4.0069;
402.6000;0.1473;4.0018;
402.9000;0.1498;3.9992;
403.2000;0.1490;4.0069;
403.5000;0.1473;3.9915;
403.8000;0.1490;3.9864;
404.1000;0.1481;3.9890;
404.4000;0.1547;4.0018;
404.7000;0.1473;3.9710;
405.0000;0.1481;3.9684;
405.3000;0.1481;3.9710;
405.6000;0.1498;3.9787;
405.9000;0.1473;3.9736;
406.2000;0.1473;3.9787;
406.5000;0.1481;3.9813;
406.8000;0.1514;3.9915;
407.1000;0.1481;3.9864;
407.4000;0.1506;3.9941;
407.7000;0.1490;3.9992;
408.0000;0.1498;3.9992;
408.3000;0.1498;3.9992;
408.6000;0.1498;3.9967;
408.9000;0.1490;3.9941;
409.2000;0.1490;3.9941;
409.5000;0.1449;3.9710;
409.8000;0.1473;3.9787;
410.1000;0.1481;3.9838;
410.4000;0.1481;3.9864;
410.7000;0.1490;3.9890;
411.0000;0.1490;3.9890;
411.3000;0.1514;3.9967;
411.6000;0.1425;3.9710;
411.9000;0.1490;3.9864;
412.2000;0.1506;3.9915;
412.5000;0.1490;3.9890;
412.8000;0.1481;3.9967;
413.1000;0.1481;3.9967;
413.4000;0.1481;3.9967;
413.7000;0.1465;3.9941;
414.0000;0.1481;3.9915;
414.3000;0.1481;3.9890;
414.6000;0.1514;3.9915;
414.9000;0.1481;3.9941;
415.2000;0.1465;3.9915;
415.5000;0.1473;3.9992;
415.8000;0.1481;4.0018;
416.1000;0.1481;3.9941;
416.4000;0.1522;4.0018;
416.7000;0.1481;3.9864;
417.0000;0.1465;3.9864;
417.3000;0.1473;3.9915;
417.6000;0.1457;3.9864;
417.9000;0.1490;3.9967;
418.2000;0.1514;3.9992;
418.5000;0.1465;3.9941;
418.8000;0.1490;4.0069;
419.1000;0.1473;4.0095;
419.4000;0.1465;4.0197;
419.7000;0.1481;4.0172;
420.0000;0.1506;4.0172;
420.3000;0.1465;4.0120;
420.6000;0.1473;4.0095;
420.9000;0.1473;4.0095;
421.2000;0.1498;4.0095;
421.5000;0.1506;4.0095;
421.8000;0.1481;3.9992;
422.1000;0.1481;4.0018;
422.4000;0.1457;3.9941;
422.7000;0.1481;4.0018;
423.0000;0.1481;4.0018;
423.3000;0.1498;4.0018;
423.6000;0.1490;3.9992;
423.9000;0.1506;3.9992;
424.2000;0.1490;3.9941;
424.5000;0.1522;4.0069;
424.8000;0.1473;4.0095;
425.1000;0.1481;4.0043;
425.4000;0.1343;3.9659;
425.7000;0.1490;4.0120;
426.0000;0.1538;4.0249;
426.3000;0.1465;4.0069;
426.6000;0.1490;4.0069;
426.9000;0.1481;3.9915;
427.2000;0.1481;3.9915;
427.5000;0.1514;4.0043;
427.8000;0.1481;4.0043;
428.1000;0.1490;3.9992;
428.4000;0.1481;3.9992;
428.7000;0.1490;4.0043;
429.0000;0.1490;4.0018;
429.3000;0.1441;4.0043;
429.6000;0.1498;4.0043;
429.9000;0.1538;4.0172;
430.2000;0.1400;3.9864;
430.5000;0.1473;4.0043;
430.8000;0.1481;4.0043;
431.1000;0.1481;4.0095;
431.4000;0.1498;4.0095;
431.7000;0.1481;4.0069;
432.0000;0.1498;4.0043;
432.3000;0.1327;3.9607;
432.6000;0.1457;3.9864;
432.9000;0.1490;3.9890;
433.2000;0.1416;3.9633;
433.5000;0.1579;4.0095;
433.8000;0.1555;3.9915;
434.1000;0.1538;3.9915;
434.4000;0.1498;3.9813;
434.7000;0.1433;3.9684;
435.0000;0.1425;3.9659;
435.3000;0.1498;3.9890;
435.6000;0.1522;3.9915;
435.9000;0.1612;4.0326;
436.2000;0.1481;3.9967;
436.5000;0.1506;4.0095;
436.8000;0.1433;3.9941;
437.1000;0.1587;4.0377;
437.4000;0.1490;4.0197;
437.7000;0.1514;4.0223;
438.0000;0.1457;4.0043;
438.3000;0.1481;4.0146;
438.6000;0.1481;4.0197;
438.9000;0.1465;4.0172;
439.2000;0.1481;4.0197;
439.5000;0.1465;4.0095;
439.8000;0.1457;3.9992;
440.1000;0.1506;4.0146;
440.4000;0.1481;4.0095;
440.7000;0.1481;3.9992;
441.0000;0.1473;4.0043;
441.3000;0.1514;4.0146;
441.6000;0.1481;4.0095;
441.9000;0.1490;4.0069;
442.2000;0.1481;4.0120;
442.5000;0.1506;4.0095;
442.8000;0.1481;3.9992;
443.1000;0.1498;4.0043;
443.4000;0.1506;4.0043;
443.7000;0.1538;4.0223;
444.0000;0.1465;4.0043;
444.3000;0.1473;4.0069;
444.6000;0.1490;4.0172;
444.9000;0.1481;4.0223;
445.2000;0.1530;4.0300;
445.5000;0.1490;4.0172;
445.8000;0.1498;4.0249;
446.1000;0.1530;4.0197;
446.4000;0.1490;4.0120;
446.7000;0.1490;4.0120;
447.0000;0.1538;4.0300;
447.3000;0.1481;4.0043;
447.6000;0.1481;4.0018;
447.9000;0.1506;4.0172;
448.2000;0.1547;4.0351;
448.5000;0.1473;4.0069;
448.8000;0.1490;4.0249;
449.1000;0.1465;4.0095;
449.4000;0.1498;4.0249;
449.7000;0.1506;4.0223;
450.0000;0.1473;4.0095;
450.3000;0.1481;4.0197;
450.6000;0.1449;3.9992;
450.9000;0.1481;4.0146;
451.2000;0.1579;4.0428;
451.5000;0.1473;4.0249;
451.8000;0.1490;4.0274;
452.1000;0.1506;4.0300;
452.4000;0.1490;4.0197;
452.7000;0.1490;4.0197;
453.0000;0.1481;4.0249;
453.3000;0.1514;4.0300;
453.6000;0.1457;4.0146;
453.9000;0.1473;4.0146;
454.2000;0.1506;4.0249;
454.5000;0.1465;4.0197;
454.8000;0.1490;4.0146;
455.1000;0.1481;4.0043;
455.4000;0.1481;4.0018;
455.7000;0.1490;4.0095;
456.0000;0.1498;4.0095;
456.3000;0.1547;4.0223;
456.6000;0.1481;4.0120;
456.9000;0.1465;4.0095;
457.2000;0.1465;4.0095;
457.5000;0.1416;3.9890;
457.8000;0.1530;4.0172;
458.1000;0.1441;3.9941;
458.4000;0.1498;4.0146;
458.7000;0.1457;4.0018;
459.0000;0.1481;4.0197;
459.3000;0.1498;4.0197;
459.6000;0.1408;3.9941;
459.9000;0.1530;4.0351;
460.2000;0.1498;4.0274;
460.5000;0.1490;4.0274;
460.8000;0.1490;4.0249;
461.1000;0.1473;4.0095;
461.4000;0.1465;4.0095;
461.7000;0.1441;4.0018;
462.0000;0.1481;4.0146;
462.3000;0.1481;4.0146;
462.6000;0.1465;4.0095;
462.9000;0.1457;4.0120;
463.2000;0.1506;4.0274;
463.5000;0.1433;4.0120;
463.8000;0.1522;4.0249;
464.1000;0.1481;4.0120;
464.4000;0.1506;4.0146;
464.7000;0.1473;4.0043;
465.0000;0.1490;4.0043;
465.3000;0.1481;4.0018;
465.6000;0.1473;4.0069;
465.9000;0.1490;4.0146;
466.2000;0.1473;4.0018;
466.5000;0.1498;4.0043;
466.8000;0.1522;4.0172;
467.1000;0.1465;4.0018;
467.4000;0.1498;4.0095;
467.7000;0.1473;4.0095;
468.0000;0.1490;4.0197;
468.3000;0.1506;4.0197;
468.6000;0.1473;4.0146;
468.9000;0.1473;4.0018;
469.2000;0.1514;4.0146;
469.5000;0.1473;4.0043;
469.8000;0.1473;4.0120;
470.1000;0.1514;4.0197;
470.4000;0.1506;4.0197;
470.7000;0.1538;4.0326;
471.0000;0.1481;4.0249;
471.3000;0.1490;4.0300;
471.6000;0.1457;4.0172;
471.9000;0.1490;4.0197;
472.2000;0.1473;4.0172;
472.5000;0.1481;4.0249;
472.8000;0.1490;4.0223;
473.1000;0.1425;4.0095;
473.4000;0.1490;4.0274;
473.7000;0.1498;4.0249;
474.0000;0.1457;4.0095;
474.3000;0.1481;4.0223;
474.6000;0.1506;4.0249;
474.9000;0.1465;4.0120;
475.2000;0.1538;4.0274;
475.5000;0.1490;4.0172;
475.8000;0.1481;4.0223;
476.1000;0.1514;4.0377;
476.4000;0.1514;4.0351;
476.7000;0.1498;4.0326;
477.0000;0.1490;4.0326;
477.3000;0.1473;4.0377;
477.6000;0.1490;4.0403;
477.9000;0.1465;4.0377;
478.2000;0.1481;4.0326;
478.5000;0.1408;4.0146;
478.8000;0.1465;4.0120;
479.1000;0.1473;4.0069;
479.4000;0.1481;4.0197;
479.7000;0.1506;4.0274;
480.0000;0.1522;4.0326;
480.3000;0.1449;4.0172;
480.6000;0.1506;4.0274;
480.9000;0.1498;4.0274;
481.2000;0.1506;4.0300;
481.5000;0.1490;4.0274;
481.8000;0.1490;4.0197;
482.1000;0.1522;4.0300;
482.4000;0.1490;4.0223;
482.7000;0.1514;4.0172;
483.0000;0.1481;4.0172;
483.3000;0.1457;3.9941;
483.6000;0.1498;4.0043;
483.9000;0.1490;3.9941;
484.2000;0.1490;3.9992;
484.5000;0.1506;4.0043;
484.8000;0.1490;4.0120;
485.1000;0.1514;4.0172;
485.4000;0.1416;3.9941;
485.7000;0.1481;4.0197;
486.0000;0.1506;4.0172;
486.3000;0.1498;4.0120;
486.6000;0.1473;4.0069;
486.9000;0.1490;4.0120;
487.2000;0.1457;4.0146;
487.5000;0.1473;4.0146;
487.8000;0.1490;4.0274;
488.1000;0.1473;4.0300;
488.4000;0.1457;4.0249;
488.7000;0.1490;4.0249;
489.0000;0.1498;4.0274;
489.3000;0.1490;4.0223;
489.6000;0.1506;4.0300;
489.9000;0.1490;4.0197;
490.2000;0.1498;4.0223;
490.5000;0.1490;4.0172;
490.8000;0.1514;4.0172;
491.1000;0.1465;4.0146;
491.4000;0.1490;4.0223;
491.7000;0.1481;4.0172;
492.0000;0.1490;4.0172;
492.3000;0.1506;4.0249;
492.6000;0.1457;4.0146;
492.9000;0.1457;4.0172;
493.2000;0.1579;4.0685;
493.5000;0.1498;4.0428;
493.8000;0.1416;4.0223;
494.1000;0.1416;4.0172;
494.4000;0.1514;4.0403;
494.7000;0.1408;4.0197;
495.0000;0.1481;4.0428;
495.3000;0.1530;4.0531;
495.6000;0.1547;4.0531;
495.9000;0.1473;4.0403;
496.2000;0.1506;4.0326;
496.5000;0.1465;4.0223;
496.8000;0.1441;4.0095;
497.1000;0.1457;4.0120;
497.4000;0.1481;4.0223;
497.7000;0.1506;4.0326;
498.0000;0.1441;4.0069;
498.3000;0.1465;4.0197;
498.6000;0.1481;4.0300;
498.9000;0.1473;4.0120;
499.2000;0.1522;4.0223;
499.5000;0.1481;4.0223;
499.8000;0.1457;4.0172;
500.1000;0.1481;4.0223;
500.4000;0.1498;4.0300;
500.7000;0.1481;4.0249;
501.0000;0.1490;4.0274;
501.3000;0.1481;4.0249;
501.6000;0.1473;4.0146;
501.9000;0.1481;4.0069;
502.2000;0.1481;3.9992;
502.5000;0.1457;4.0018;
502.8000;0.1481;4.0043;
503.1000;0.1490;4.0146;
503.4000;0.1473;4.0069;
503.7000;0.1481;3.9992;
504.0000;0.1506;3.9941;
504.3000;0.1481;3.9915;
504.6000;0.1465;3.9890;
504.9000;0.1473;3.9967;
505.2000;0.1498;4.0095;
505.5000;0.1490;4.0043;
505.8000;0.1506;4.0095;
506.1000;0.1490;3.9992;
506.4000;0.1449;3.9941;
506.7000;0.1481;4.0069;
507.0000;0.1506;4.0095;
507.3000;0.1490;4.0095;
507.6000;0.1441;3.9941;
507.9000;0.1433;3.9813;
508.2000;0.1481;3.9992;
508.5000;0.1457;3.9890;
508.8000;0.1498;3.9890;
509.1000;0.1473;3.9813;
509.4000;0.1498;3.9890;
509.7000;0.1481;3.9838;
510.0000;0.1506;3.9915;
510.3000;0.1490;3.9941;
510.6000;0.1465;3.9915;
510.9000;0.1490;3.9967;
511.2000;0.1481;3.9967;
511.5000;0.1547;4.0172;
511.8000;0.1457;4.0018;
512.1000;0.1481;4.0146;
512.4000;0.1481;4.0223;
512.7000;0.1416;3.9992;
513.0000;0.1481;4.0146;
513.3000;0.1506;4.0172;
513.6000;0.1490;4.0146;
513.9000;0.1522;4.0223;
514.2000;0.1490;4.0172;
514.5000;0.1481;4.0197;
514.8000;0.1457;4.0197;
515.1000;0.1473;4.0146;
515.4000;0.1473;4.0197;
515.7000;0.1481;4.0172;
516.0000;0.1481;4.0069;
516.3000;0.1481;3.9992;
516.6000;0.1457;3.9915;
516.9000;0.1473;3.9992;
517.2000;0.1449;3.9864;
517.5000;0.1498;3.9915;
517.8000;0.1498;3.9992;
518.1000;0.1498;4.0069;
518.4000;0.1490;4.0043;
518.7000;0.1481;3.9992;
519.0000;0.1481;4.0018;
519.3000;0.1490;3.9967;
519.6000;0.1490;4.0043;
519.9000;0.1514;4.0095;
520.2000;0.1490;3.9941;
520.5000;0.1481;3.9967;
520.8000;0.1481;3.9967;
521.1000;0.1481;3.9992;
521.4000;0.1481;3.9941;
521.7000;0.1490;3.9992;
522.0000;0.1481;3.9915;
522.3000;0.1506;4.0043;
522.6000;0.1481;3.9967;
522.9000;0.1481;4.0043;
523.2000;0.1498;3.9992;
523.5000;0.1490;3.9915;
523.8000;0.1498;3.9864;
524.1000;0.1465;3.9813;
524.4000;0.1465;3.9813;
524.7000;0.1481;3.9890;
525.0000;0.1481;3.9890;
525.3000;0.1416;3.9736;
525.6000;0.1473;3.9838;
525.9000;0.1490;3.9838;
526.2000;0.1481;3.9838;
526.5000;0.1359;3.9530;
526.8000;0.1465;3.9838;
527.1000;0.1481;3.9890;
527.4000;0.1481;3.9941;
527.7000;0.1506;4.0043;
528.0000;0.1473;4.0043;
528.3000;0.1481;3.9992;
528.6000;0.1490;3.9915;
528.9000;0.1547;4.0120;
529.2000;0.1481;3.9864;
529.5000;0.1481;3.9838;
529.8000;0.1481;3.9992;
530.1000;0.1490;3.9992;
530.4000;0.1457;3.9864;
530.7000;0.1441;3.9838;
531.0000;0.1498;3.9838;
531.3000;0.1490;3.9787;
531.6000;0.1587;4.0120;
531.9000;0.1481;3.9890;
532.2000;0.1473;3.9941;
532.5000;0.1490;4.0043;
532.8000;0.1490;3.9992;
533.1000;0.1514;4.0069;
533.4000;0.1498;4.0069;
533.7000;0.1490;4.0043;
534.0000;0.1498;4.0043;
534.3000;0.1490;4.0043;
534.6000;0.1538;4.0223;
534.9000;0.1498;4.0146;
535.2000;0.1490;4.0043;
535.5000;0.1498;4.0146;
535.8000;0.1473;4.0095;
536.1000;0.1465;4.0120;
536.4000;0.1490;4.0172;
536.7000;0.1498;4.0223;
537.0000;0.1449;4.0197;
537.3000;0.1473;4.0146;
537.6000;0.1481;4.0146;
537.9000;0.1604;4.0480;
538.2000;0.1490;4.0069;
538.5000;0.1473;3.9915;
538.8000;0.1481;3.9838;
539.1000;0.1579;4.0146;
539.4000;0.1465;3.9813;
539.7000;0.1465;3.9838;
540.0000;0.1555;4.0069;
540.3000;0.1498;4.0018;
540.6000;0.1490;4.0043;
540.9000;0.1449;3.9967;
541.2000;0.1709;4.0710;
541.5000;0.1490;3.9967;
541.8000;0.1490;3.9915;
542.1000;0.1522;4.0120;
542.4000;0.1465;3.9992;
542.7000;0.1465;3.9941;
543.0000;0.1465;3.9813;
543.3000;0.1433;3.9710;
543.6000;0.1441;3.9787;
543.9000;0.1481;3.9915;
544.2000;0.1457;3.9813;
544.5000;0.1457;3.9710;
544.8000;0.1481;3.9736;
545.1000;0.1490;3.9838;
545.4000;0.1506;3.9838;
545.7000;0.1490;3.9684;
546.0000;0.1473;3.9633;
546.3000;0.1522;3.9813;
546.6000;0.1481;3.9684;
546.9000;0.1498;3.9684;
547.2000;0.1490;3.9684;
547.5000;0.1490;3.9761;
547.8000;0.1490;3.9787;
548.1000;0.1506;3.9736;
548.4000;0.1465;3.9633;
548.7000;0.1481;3.9607;
549.0000;0.1481;3.9607;
549.3000;0.1441;3.9453;
549.6000;0.1498;3.9659;
549.9000;0.1416;3.9453;
550.2000;0.1490;3.9633;
550.5000;0.1522;3.9761;
550.8000;0.1481;3.9607;
551.1000;0.1473;3.9607;
551.4000;0.1481;3.9633;
551.7000;0.1538;3.9761;
552.0000;0.1522;3.9710;
552.3000;0.1473;3.9582;
552.6000;0.1514;3.9710;
552.9000;0.1481;3.9556;
553.2000;0.1473;3.9607;
553.5000;0.1473;3.9633;
553.8000;0.1481;3.9684;
554.1000;0.1481;3.9710;
554.4000;0.1498;3.9787;
554.7000;0.1506;3.9838;
555.0000;0.1498;3.9813;
555.3000;0.1490;3.9838;
555.6000;0.1490;3.9864;
555.9000;0.1457;3.9813;
556.2000;0.1490;3.9915;
556.5000;0.1465;3.9838;
556.8000;0.1473;3.9864;
557.1000;0.1449;3.9813;
557.4000;0.1498;3.9915;
557.7000;0.1465;3.9864;
558.0000;0.1490;3.9864;
558.3000;0.1433;3.9736;
558.6000;0.1481;3.9761;
558.9000;0.1481;3.9787;
559.2000;0.1490;3.9710;
559.5000;0.1490;3.9787;
559.8000;0.1490;3.9787;
560.1000;0.1481;3.9787;
560.4000;0.1498;3.9813;
560.7000;0.1506;3.9864;
561.0000;0.1514;3.9967;
561.3000;0.1481;3.9864;
561.6000;0.1457;3.9813;
561.9000;0.1490;3.9890;
562.2000;0.1473;3.9761;
562.5000;0.1481;3.9813;
562.8000;0.1473;3.9787;
563.1000;0.1473;3.9761;
563.4000;0.1465;3.9736;
563.7000;0.1481;3.9761;
564.0000;0.1449;3.9659;
564.3000;0.1473;3.9736;
564.6000;0.1481;3.9684;
564.9000;0.1457;3.9633;
565.2000;0.1490;3.9710;
565.5000;0.1498;3.9838;
565.8000;0.1506;3.9915;
566.1000;0.1490;3.9864;
566.4000;0.1587;4.0043;
566.7000;0.1498;3.9787;
567.0000;0.1685;4.0377;
567.3000;0.1481;3.9736;
567.6000;0.1481;3.9684;
567.9000;0.1465;3.9684;
568.2000;0.1473;3.9684;
568.5000;0.1506;3.9710;
568.8000;0.1490;3.9659;
569.1000;0.1473;3.9607;
569.4000;0.1490;3.9582;
569.7000;0.1498;3.9530;
570.0000;0.1490;3.9607;
570.3000;0.1514;3.9659;
570.6000;0.1481;3.9582;
570.9000;0.1498;3.9659;
571.2000;0.1481;3.9607;
571.5000;0.1481;3.9633;
571.8000;0.1481;3.9633;
572.1000;0.1498;3.9761;
572.4000;0.1579;3.9992;
572.7000;0.1465;3.9736;
573.0000;0.1481;3.9633;
573.3000;0.1579;3.9890;
573.6000;0.1498;3.9633;
573.9000;0.1481;3.9556;
574.2000;0.1473;3.9607;
574.5000;0.1498;3.9736;
574.8000;0.1481;3.9787;
575.1000;0.1465;3.9761;
575.4000;0.1473;3.9787;
575.7000;0.1359;3.9479;
576.0000;0.1490;3.9838;
576.3000;0.1498;3.9838;
576.6000;0.1408;3.9530;
576.9000;0.1481;3.9684;
577.2000;0.1498;3.9659;
577.5000;0.1506;3.9684;
577.8000;0.1547;3.9787;
578.1000;0.1457;3.9633;
578.4000;0.1465;3.9684;
578.7000;0.1481;3.9684;
579.0000;0.1465;3.9736;
579.3000;0.1473;3.9710;
579.6000;0.1441;3.9659;
579.9000;0.1473;3.9633;
580.2000;0.1490;3.9633;
580.5000;0.1481;3.9607;
580.8000;0.1449;3.9530;
581.1000;0.1547;3.9787;
581.4000;0.1506;3.9684;
581.7000;0.1490;3.9684;
582.0000;0.1490;3.9710;
582.3000;0.1481;3.9736;
582.6000;0.1425;3.9556;
582.9000;0.1490;3.9761;
583.2000;0.1490;3.9736;
583.5000;0.1481;3.9633;
583.8000;0.1547;3.9915;
584.1000;0.1481;3.9633;
584.4000;0.1506;3.9659;
584.7000;0.1481;3.9582;
585.0000;0.1490;3.9607;
585.3000;0.1473;3.9582;
585.6000;0.1490;3.9530;
585.9000;0.1506;3.9607;
586.2000;0.1490;3.9659;
586.5000;0.1490;3.9710;
586.8000;0.1498;3.9710;
587.1000;0.1490;3.9736;
587.4000;0.1490;3.9684;
587.7000;0.1490;3.9710;
588.0000;0.1481;3.9633;
588.3000;0.1473;3.9582;
588.6000;0.1473;3.9530;
588.9000;0.1457;3.9582;
589.2000;0.1425;3.9530;
589.5000;0.1473;3.9684;
589.8000;0.1465;3.9659;
590.1000;0.1571;4.0018;
590.4000;0.1465;3.9633;
590.7000;0.1506;3.9787;
591.0000;0.1498;3.9736;
591.3000;0.1481;3.9761;
591.6000;0.1498;3.9787;
591.9000;0.1481;3.9838;
592.2000;0.1473;3.9813;
592.5000;0.1490;3.9941;
592.8000;0.1465;3.9890;
593.1000;0.1498;3.9941;
593.4000;0.1490;3.9864;
593.7000;0.1481;3.9941;
594.0000;0.1457;3.9813;
594.3000;0.1490;3.9967;
594.6000;0.1481;3.9890;
594.9000;0.1490;3.9941;
595.2000;0.1490;3.9967;
595.5000;0.1465;3.9838;
595.8000;0.1498;3.9864;
596.1000;0.1481;3.9915;
596.4000;0.1481;3.9761;
596.7000;0.1481;3.9736;
597.0000;0.1514;3.9915;
597.3000;0.1481;3.9710;
597.6000;0.1465;3.9684;
597.9000;0.1473;3.9761;
598.2000;0.1498;3.9787;
598.5000;0.1563;3.9992;
598.8000;0.1490;3.9710;
599.1000;0.1473;3.9736;
599.4000;0.1473;3.9736;
599.7000;0.1473;3.9710;
600.0000;0.1473;3.9684;
600.3000;0.1481;3.9633;
600.6000;0.1457;3.9530;
600.9000;0.1441;3.9402;
601.2000;0.1473;3.9325;
601.5000;0.1465;3.9094;
601.8000;0.1433;3.9017;
602.1000;0.1449;3.9120;
602.4000;0.1433;3.9043;
602.7000;0.1441;3.8992;
603.0000;0.1425;3.8940;
603.3000;0.1392;3.8684;
603.6000;0.1457;3.8863;
603.9000;0.1392;3.8530;
604.2000;0.1392;3.8556;
604.5000;0.1449;3.8658;
604.8000;0.1400;3.8479;
605.1000;0.1335;3.8299;
605.4000;0.1376;3.8402;
605.7000;0.1359;3.8350;
606.0000;0.1351;3.8273;
606.3000;0.1343;3.8171;
606.6000;0.1368;3.8197;
606.9000;0.1408;3.8273;
607.2000;0.1335;3.8043;
607.5000;0.1327;3.7966;
607.8000;0.1343;3.8094;
608.1000;0.1351;3.8222;
608.4000;0.1359;3.8273;
608.7000;0.1335;3.8171;
609.0000;0.1343;3.8145;
609.3000;0.1327;3.8145;
609.6000;0.1319;3.8068;
609.9000;0.1319;3.8043;
610.2000;0.1311;3.8043;
610.5000;0.1311;3.7991;
610.8000;0.1335;3.8043;
611.1000;0.1311;3.7991;
611.4000;0.1368;3.8068;
611.7000;0.1327;3.7889;
612.0000;0.1335;3.7837;
612.3000;0.1302;3.7786;
612.6000;0.1262;3.7683;
612.9000;0.1311;3.7812;
613.2000;0.1278;3.7709;
613.5000;0.1302;3.7812;
613.8000;0.1286;3.7760;
614.1000;0.1351;3.7914;
614.4000;0.1278;3.7735;
614.7000;0.1286;3.7760;
615.0000;0.1262;3.7658;
615.3000;0.1286;3.7658;
615.6000;0.1270;3.7632;
615.9000;0.1278;3.7683;
616.2000;0.1262;3.7658;
616.5000;0.1270;3.7606;
616.8000;0.1278;3.7530;
617.1000;0.1302;3.7658;
617.4000;0.1254;3.7632;
617.7000;0.1254;3.7658;
618.0000;0.1343;3.7940;
618.3000;0.1188;3.7401;
618.6000;0.1278;3.7760;
618.9000;0.1262;3.7760;
619.2000;0.1270;3.7914;
619.5000;0.1262;3.7889;
619.8000;0.1270;3.7812;
620.1000;0.1262;3.7786;
620.4000;0.1254;3.7786;
620.7000;0.1254;3.7812;
621.0000;0.1237;3.7760;
621.3000;0.1262;3.7863;
621.6000;0.1254;3.7786;
621.9000;0.1262;3.7966;
622.2000;0.1245;3.7940;
622.5000;0.1262;3.7991;
622.8000;0.1254;3.7914;
623.1000;0.1262;3.7940;
623.4000;0.1294;3.8068;
623.7000;0.1262;3.8043;
624.0000;0.1254;3.8120;
624.3000;0.1213;3.8017;
624.6000;0.1213;3.7889;
624.9000;0.1254;3.7966;
625.2000;0.1245;3.7914;
625.5000;0.1213;3.7837;
625.8000;0.1229;3.7863;
626.1000;0.1254;3.7837;
626.4000;0.1197;3.7632;
626.7000;0.1221;3.7658;
627.0000;0.1197;3.7530;
627.3000;0.1245;3.7658;
627.6000;0.1221;3.7658;
627.9000;0.1221;3.7683;
628.2000;0.1180;3.7683;
628.5000;0.1213;3.7812;
628.8000;0.1205;3.7889;
629.1000;0.1262;3.7991;
629.4000;0.1237;3.7863;
629.7000;0.1213;3.7863;
630.0000;0.1237;3.7760;
630.3000;0.1188;3.7683;
630.6000;0.1205;3.7735;
630.9000;0.1237;3.7760;
631.2000;0.1262;3.7914;
631.5000;0.1205;3.7735;
631.8000;0.1221;3.7812;
632.1000;0.1221;3.7786;
632.4000;0.1254;3.7837;
632.7000;0.1213;3.7760;
633.0000;0.1205;3.7658;
633.3000;0.1205;3.7735;
633.6000;0.1213;3.7786;
633.9000;0.1213;3.7812;
634.2000;0.1221;3.7863;
634.5000;0.1205;3.7837;
634.8000;0.1205;3.7940;
635.1000;0.1221;3.7966;
635.4000;0.1197;3.7940;
635.7000;0.1213;3.7940;
636.0000;0.1205;3.7889;
636.3000;0.1221;3.7940;
636.6000;0.1188;3.7683;
636.9000;0.1237;3.7914;
637.2000;0.1164;3.7735;
637.5000;0.1156;3.7760;
637.8000;0.1197;3.7735;
638.1000;0.1172;3.7683;
638.4000;0.1270;3.7991;
638.7000;0.1205;3.7709;
639.0000;0.1213;3.7735;
639.3000;0.1172;3.7606;
639.6000;0.1180;3.7683;
639.9000;0.1188;3.7555;
640.2000;0.1188;3.7606;
640.5000;0.1188;3.7658;
640.8000;0.1188;3.7555;
641.1000;0.1188;3.7581;
641.4000;0.1197;3.7606;
641.7000;0.1311;3.7991;
642.0000;0.1172;3.7709;
642.3000;0.1172;3.7683;
642.6000;0.1172;3.7735;
642.9000;0.1180;3.7760;
643.2000;0.1172;3.7786;
643.5000;0.1188;3.7735;
643.8000;0.1237;3.7914;
644.1000;0.1164;3.7760;
644.4000;0.1229;3.7966;
644.7000;0.1188;3.7863;
645.0000;0.1245;3.8043;
645.3000;0.1148;3.7735;
645.6000;0.1229;3.7837;
645.9000;0.1180;3.7683;
646.2000;0.1164;3.7760;
646.5000;0.1205;3.7786;
646.8000;0.1180;3.7760;
647.1000;0.1188;3.7683;
647.4000;0.1156;3.7632;
647.7000;0.1221;3.7735;
648.0000;0.1188;3.7709;
648.3000;0.1180;3.7760;
648.6000;0.1131;3.7632;
648.9000;0.1180;3.7735;
649.2000;0.1140;3.7606;
649.5000;0.1172;3.7683;
649.8000;0.1180;3.7735;
650.1000;0.1172;3.7837;
650.4000;0.1180;3.7786;
650.7000;0.1172;3.7837;
651.0000;0.1172;3.7837;
651.3000;0.1172;3.7837;
651.6000;0.1188;3.7914;
651.9000;0.1180;3.7889;
652.2000;0.1188;3.7837;
652.5000;0.1172;3.7709;
652.8000;0.1172;3.7786;
653.1000;0.1188;3.7760;
653.4000;0.1180;3.7709;
653.7000;0.1197;3.7760;
654.0000;0.1164;3.7786;
654.3000;0.1156;3.7760;
654.6000;0.1180;3.7760;
654.9000;0.1180;3.7735;
655.2000;0.1213;3.7940;
655.5000;0.1188;3.7991;
655.8000;0.1107;3.7760;
656.1000;0.1172;3.7966;
656.4000;0.1156;3.7889;
656.7000;0.1148;3.7786;
657.0000;0.1172;3.7863;
657.3000;0.1164;3.7786;
657.6000;0.1148;3.7735;
657.9000;0.1156;3.7786;
658.2000;0.1164;3.7812;
658.5000;0.1172;3.7837;
658.8000;0.1156;3.7837;
659.1000;0.1180;3.7889;
659.4000;0.1131;3.7735;
659.7000;0.1156;3.7760;
660.0000;0.1245;3.7991;
660.3000;0.1172;3.7786;
660.6000;0.1188;3.7812;
660.9000;0.1172;3.7863;
661.2000;0.1156;3.7760;
661.5000;0.1140;3.7709;
661.8000;0.1172;3.7837;
662.1000;0.1172;3.7786;
662.4000;0.1164;3.7760;
662.7000;0.1074;3.7581;
663.0000;0.1237;3.8043;
663.3000;0.1205;3.7991;
663.6000;0.1164;3.7812;
663.9000;0.1172;3.7889;
664.2000;0.1180;3.7914;
664.5000;0.1140;3.7760;
664.8000;0.1221;3.8094;
665.1000;0.1172;3.7940;
665.4000;0.1164;3.7889;
665.7000;0.1172;3.7914;
666.0000;0.1164;3.7812;
666.3000;0.1140;3.7709;
666.6000;0.1164;3.7709;
666.9000;0.1172;3.7760;
667.2000;0.1205;3.7863;
667.5000;0.1237;3.7991;
667.8000;0.1188;3.7837;
668.1000;0.1164;3.7863;
668.4000;0.1091;3.7632;
668.7000;0.1237;3.7966;
669.0000;0.1148;3.7683;
669.3000;0.1164;3.7683;
669.6000;0.1164;3.7735;
669.9000;0.1164;3.7658;
670.2000;0.1148;3.7683;
670.5000;0.1131;3.7709;
670.8000;0.1172;3.7812;
671.1000;0.1172;3.7760;
671.4000;0.1205;3.7914;
671.7000;0.1140;3.7683;
672.0000;0.1156;3.7812;
672.3000;0.1164;3.7837;
672.6000;0.1148;3.7863;
672.9000;0.1156;3.7863;
673.2000;0.1221;3.8068;
673.5000;0.1156;3.7914;
673.8000;0.1156;3.7863;
674.1000;0.1148;3.7837;
674.4000;0.1140;3.7683;
674.7000;0.1131;3.7683;
675.0000;0.1164;3.7709;
675.3000;0.1172;3.7735;
675.6000;0.1140;3.7606;
675.9000;0.1123;3.7683;
676.2000;0.1156;3.7786;
676.5000;0.1156;3.7863;
676.8000;0.1172;3.7863;
677.1000;0.1140;3.7786;
677.4000;0.1156;3.7940;
677.7000;0.1131;3.7914;
678.0000;0.1148;3.7940;
678.3000;0.1140;3.7837;
678.6000;0.1156;3.7863;
678.9000;0.1156;3.7966;
679.2000;0.1140;3.7914;
679.5000;0.1156;3.7914;
679.8000;0.1099;3.7786;
680.1000;0.1148;3.7914;
680.4000;0.1148;3.7889;
680.7000;0.1156;3.7837;
681.0000;0.1091;3.7606;
681.3000;0.1188;3.7889;
681.6000;0.1148;3.7837;
681.9000;0.1148;3.7837;
682.2000;0.1050;3.7683;
682.5000;0.1148;3.7914;
682.8000;0.1131;3.7786;
683.1000;0.1172;3.7889;
683.4000;0.1229;3.8145;
683.7000;0.1156;3.7914;
684.0000;0.1140;3.7966;
684.3000;0.1156;3.7966;
684.6000;0.1140;3.7889;
684.9000;0.1123;3.7812;
685.2000;0.1140;3.7940;
685.5000;0.1148;3.7940;
685.8000;0.1180;3.7940;
686.1000;0.1148;3.7863;
686.4000;0.1156;3.7863;
686.7000;0.1148;3.7837;
687.0000;0.1213;3.8068;
687.3000;0.1213;3.8120;
687.6000;0.1140;3.7966;
687.9000;0.1131;3.7966;
688.2000;0.1131;3.7889;
688.5000;0.1156;3.8043;
688.8000;0.1140;3.8043;
689.1000;0.1172;3.8094;
689.4000;0.1140;3.8068;
689.7000;0.1156;3.8094;
690.0000;0.1140;3.7914;
690.3000;0.1205;3.8043;
690.6000;0.1123;3.7991;
690.9000;0.1058;3.7709;
691.2000;0.1131;3.7940;
691.5000;0.1172;3.8068;
691.8000;0.1188;3.8094;
692.1000;0.1164;3.8094;
692.4000;0.1131;3.8145;
692.7000;0.1156;3.8068;
693.0000;0.1180;3.8068;
693.3000;0.1140;3.8094;
693.6000;0.1123;3.8043;
693.9000;0.1148;3.8145;
694.2000;0.1131;3.8094;
694.5000;0.1123;3.8017;
694.8000;0.1140;3.8068;
695.1000;0.1156;3.8068;
695.4000;0.1254;3.8376;
695.7000;0.1156;3.8120;
696.0000;0.1197;3.8248;
696.3000;0.1221;3.8299;
696.6000;0.1140;3.8068;
696.9000;0.1140;3.8043;
697.2000;0.1131;3.8094;
697.5000;0.1091;3.7991;
697.8000;0.1131;3.8068;
698.1000;0.1091;3.7966;
698.4000;0.1018;3.7683;
698.7000;0.1140;3.7991;
699.0000;0.1091;3.7863;
699.3000;0.1107;3.7863;
699.6000;0.1164;3.8043;
699.9000;0.1148;3.8068;
700.2000;0.1083;3.7863;
700.5000;0.1205;3.8120;
700.8000;0.1091;3.7760;
701.1000;0.1123;3.7837;
701.4000;0.1164;3.7889;
701.7000;0.1083;3.7735;
702.0000;0.1140;3.7837;
702.3000;0.1123;3.7735;
702.6000;0.1197;3.8017;
702.9000;0.1156;3.7940;
703.2000;0.1188;3.7991;
703.5000;0.1148;3.7940;
703.8000;0.1140;3.7940;
704.1000;0.1107;3.7914;
704.4000;0.1148;3.7940;
704.7000;0.1148;3.8043;
705.0000;0.1197;3.8222;
705.3000;0.1140;3.8068;
705.6000;0.1131;3.8171;
705.9000;0.1148;3.8222;
706.2000;0.1074;3.7966;
706.5000;0.1131;3.8120;
706.8000;0.1123;3.8043;
707.1000;0.1131;3.8043;
707.4000;0.1083;3.7914;
707.7000;0.1131;3.8120;
708.0000;0.1140;3.8222;
708.3000;0.1156;3.8171;
708.6000;0.1131;3.7991;
708.9000;0.1140;3.7914;
709.2000;0.1123;3.7812;
709.5000;0.1123;3.7760;
709.8000;0.1131;3.7812;
710.1000;0.1123;3.7889;
710.4000;0.1099;3.7863;
710.7000;0.1148;3.7966;
711.0000;0.1123;3.7914;
711.3000;0.1123;3.7940;
711.6000;0.1123;3.7940;
711.9000;0.1188;3.8222;
712.2000;0.1123;3.8120;
712.5000;0.1140;3.8197;
712.8000;0.1091;3.8068;
713.1000;0.1131;3.8171;
713.4000;0.1278;3.8633;
713.7000;0.1148;3.8222;
714.0000;0.1140;3.8197;
714.3000;0.1131;3.8094;
714.6000;0.1164;3.8145;
714.9000;0.1140;3.8222;
715.2000;0.1091;3.8043;
715.5000;0.1115;3.8043;
715.8000;0.1140;3.7991;
716.1000;0.1123;3.8068;
716.4000;0.1156;3.8197;
716.7000;0.1148;3.8120;
717.0000;0.1140;3.8094;
717.3000;0.1164;3.8120;
717.6000;0.1123;3.8068;
717.9000;0.1131;3.8120;
718.2000;0.1099;3.8094;
718.5000;0.1156;3.8273;
718.8000;0.1156;3.8222;
719.1000;0.1123;3.8094;
719.4000;0.1140;3.8094;
719.7000;0.1140;3.8017;
720.0000;0.1148;3.8043;
720.3000;0.1140;3.8017;
720.6000;0.1115;3.7966;
720.9000;0.1180;3.8043;
721.2000;0.1066;3.7760;
721.5000;0.1091;3.7837;
721.8000;0.1140;3.7914;
722.1000;0.1034;3.7632;
722.4000;0.1058;3.7735;
722.7000;0.1156;3.7940;
723.0000;0.1148;3.7837;
723.3000;0.1148;3.7786;
723.6000;0.1270;3.8197;
723.9000;0.1140;3.7863;
724.2000;0.1123;3.7812;
724.5000;0.1058;3.7683;
724.8000;0.1140;3.7940;
725.1000;0.1074;3.7889;
725.4000;0.1156;3.8094;
725.7000;0.1205;3.8222;
726.0000;0.1107;3.7991;
726.3000;0.1156;3.8068;
726.6000;0.1140;3.7914;
726.9000;0.1123;3.7889;
727.2000;0.1140;3.7966;
727.5000;0.1156;3.7966;
727.8000;0.1140;3.7863;
728.1000;0.1140;3.7863;
728.4000;0.1140;3.7914;
728.7000;0.1140;3.7940;
729.0000;0.1131;3.7837;
729.3000;0.1123;3.7786;
729.6000;0.1148;3.7837;
729.9000;0.1140;3.7837;
730.2000;0.1148;3.7889;
730.5000;0.1148;3.7940;
730.8000;0.1131;3.7940;
731.1000;0.1123;3.7966;
731.4000;0.1107;3.7991;
731.7000;0.1131;3.7966;
732.0000;0.1140;3.7991;
732.3000;0.1107;3.7837;
732.6000;0.1131;3.7914;
732.9000;0.1131;3.7940;
733.2000;0.1131;3.7940;
733.5000;0.1123;3.7863;
733.8000;0.1140;3.8017;
734.1000;0.1123;3.7940;
734.4000;0.1131;3.7914;
734.7000;0.1131;3.8043;
735.0000;0.1131;3.8094;
735.3000;0.1131;3.8094;
735.6000;0.1131;3.7940;
735.9000;0.1123;3.7914;
736.2000;0.1148;3.7966;
736.5000;0.1091;3.7837;
736.8000;0.1140;3.8094;
737.1000;0.1164;3.8145;
737.4000;0.1058;3.7889;
737.7000;0.1131;3.8068;
738.0000;0.1140;3.8197;
738.3000;0.1131;3.8171;
738.6000;0.1123;3.8120;
738.9000;0.1156;3.8222;
739.2000;0.1123;3.8171;
739.5000;0.1180;3.8376;
739.8000;0.1140;3.8222;
740.1000;0.1123;3.8145;
740.4000;0.1156;3.8325;
740.7000;0.1131;3.8222;
741.0000;0.1156;3.8273;
741.3000;0.1156;3.8197;
741.6000;0.1131;3.8068;
741.9000;0.1107;3.8068;
742.2000;0.1123;3.7991;
742.5000;0.1148;3.8043;
742.8000;0.1148;3.8120;
743.1000;0.1131;3.8094;
743.4000;0.1131;3.8043;
743.7000;0.1123;3.7991;
744.0000;0.1188;3.8171;
744.3000;0.1148;3.7991;
744.6000;0.1123;3.8017;
744.9000;0.1254;3.8427;
745.2000;0.1140;3.8068;
745.5000;0.1197;3.8273;
745.8000;0.1148;3.8094;
746.1000;0.1180;3.8273;
746.4000;0.1140;3.8120;
746.7000;0.1131;3.8068;
747.0000;0.1148;3.8068;
747.3000;0.1034;3.7786;
747.6000;0.1140;3.8120;
747.9000;0.1107;3.8017;
748.2000;0.1131;3.8120;
748.5000;0.1140;3.8145;
748.8000;0.1123;3.8094;
749.1000;0.1131;3.8043;
749.4000;0.1156;3.8248;
749.7000;0.1131;3.8068;
750.0000;0.1107;3.8043;
750.3000;0.1131;3.8068;
750.6000;0.1140;3.8068;
750.9000;0.1148;3.8094;
751.2000;0.1107;3.7966;
751.5000;0.1140;3.7966;
751.8000;0.1148;3.8017;
752.1000;0.1123;3.7966;
752.4000;0.1034;3.7760;
752.7000;0.1115;3.8068;
753.0000;0.1140;3.8145;
753.3000;0.1074;3.8017;
753.6000;0.1123;3.8043;
753.9000;0.1115;3.8043;
754.2000;0.1107;3.8068;
754.5000;0.1140;3.8120;
754.8000;0.1107;3.8068;
755.1000;0.1262;3.8504;
755.4000;0.1131;3.8094;
755.7000;0.1131;3.8145;
756.0000;0.1148;3.8197;
756.3000;0.1131;3.8171;
756.6000;0.1140;3.8145;
756.9000;0.1229;3.8350;
757.2000;0.1099;3.8094;
757.5000;0.1123;3.8094;
757.8000;0.1115;3.8017;
758.1000;0.1115;3.8043;
758.4000;0.1188;3.8273;
758.7000;0.1148;3.8171;
759.0000;0.1131;3.8145;
759.3000;0.1140;3.8171;
759.6000;0.1107;3.8120;
759.9000;0.1131;3.8068;
760.2000;0.1123;3.8171;
760.5000;0.1123;3.8171;
760.8000;0.1164;3.8197;
761.1000;0.1148;3.8043;
761.4000;0.1140;3.7991;
761.7000;0.1123;3.7940;
762.0000;0.1172;3.8017;
762.3000;0.1140;3.7940;
762.6000;0.1123;3.7889;
762.9000;0.1237;3.8171;
763.2000;0.1140;3.7863;
763.5000;0.1115;3.7812;
763.8000;0.1091;3.7709;
764.1000;0.1115;3.7760;
764.4000;0.1140;3.7786;
764.7000;0.1123;3.7837;
765.0000;0.1131;3.7966;
765.3000;0.1099;3.7966;
765.6000;0.1131;3.8068;
765.9000;0.1123;3.7991;
766.2000;0.1148;3.8171;
766.5000;0.1131;3.8120;
766.8000;0.1131;3.8222;
767.1000;0.1131;3.8299;
767.4000;0.1140;3.8350;
767.7000;0.1115;3.8273;
768.0000;0.1115;3.8248;
768.3000;0.1115;3.8222;
768.6000;0.1107;3.8094;
768.9000;0.1074;3.8043;
769.2000;0.1099;3.8120;
769.5000;0.1107;3.8145;
769.8000;0.1107;3.8145;
770.1000;0.1099;3.8017;
770.4000;0.1131;3.8145;
770.7000;0.1115;3.8094;
771.0000;0.1123;3.8171;
771.3000;0.1115;3.8197;
771.6000;0.1123;3.8248;
771.9000;0.1115;3.8171;
772.2000;0.1123;3.8248;
772.5000;0.1099;3.8120;
772.8000;0.1099;3.8120;
773.1000;0.1131;3.8120;
773.4000;0.1115;3.8145;
773.7000;0.1131;3.8145;
774.0000;0.1115;3.8145;
774.3000;0.1123;3.8248;
774.6000;0.1131;3.8325;
774.9000;0.1140;3.8222;
775.2000;0.1123;3.8273;
775.5000;0.1131;3.8325;
775.8000;0.1123;3.8376;
776.1000;0.1148;3.8376;
776.4000;0.1164;3.8402;
776.7000;0.1140;3.8325;
777.0000;0.1205;3.8556;
777.3000;0.1205;3.8581;
777.6000;0.1107;3.8325;
777.9000;0.1115;3.8479;
778.2000;0.1140;3.8453;
778.5000;0.1148;3.8350;
778.8000;0.1123;3.8299;
779.1000;0.1172;3.8453;
779.4000;0.1091;3.8197;
779.7000;0.1115;3.8273;
780.0000;0.1131;3.8273;
780.3000;0.1123;3.8273;
780.6000;0.1131;3.8350;
780.9000;0.1131;3.8376;
781.2000;0.1115;3.8222;
781.5000;0.1058;3.8068;
781.8000;0.1115;3.8222;
782.1000;0.1123;3.8222;
782.4000;0.1140;3.8325;
782.7000;0.1123;3.8325;
783.0000;0.1140;3.8402;
783.3000;0.1131;3.8350;
783.6000;0.1131;3.8222;
783.9000;0.1115;3.8273;
784.2000;0.1140;3.8273;
784.5000;0.1107;3.8197;
784.8000;0.1123;3.8273;
785.1000;0.1115;3.8325;
785.4000;0.1123;3.8299;
785.7000;0.1131;3.8248;
786.0000;0.1115;3.8325;
786.3000;0.1115;3.8427;
786.6000;0.1123;3.8479;
786.9000;0.1140;3.8607;
787.2000;0.1099;3.8453;
787.5000;0.1123;3.8402;
787.8000;0.1164;3.8530;
788.1000;0.1123;3.8402;
788.4000;0.1115;3.8402;
788.7000;0.1140;3.8427;
789.0000;0.1123;3.8325;
789.3000;0.1123;3.8273;
789.6000;0.1099;3.8197;
789.9000;0.1140;3.8350;
790.2000;0.1074;3.8068;
790.5000;0.1123;3.8222;
790.8000;0.1123;3.8273;
791.1000;0.1123;3.8402;
791.4000;0.1115;3.8325;
791.7000;0.1140;3.8350;
792.0000;0.1131;3.8273;
792.3000;0.1123;3.8197;
792.6000;0.1197;3.8402;
792.9000;0.1123;3.8120;
793.2000;0.1140;3.8094;
793.5000;0.1099;3.8017;
793.8000;0.1140;3.8120;
794.1000;0.1131;3.8120;
794.4000;0.1148;3.8197;
794.7000;0.1115;3.8120;
795.0000;0.1058;3.7837;
795.3000;0.1131;3.8094;
795.6000;0.1131;3.8197;
795.9000;0.1148;3.8248;
796.2000;0.1123;3.8197;
796.5000;0.1091;3.8248;
796.8000;0.1123;3.8376;
797.1000;0.1099;3.8197;
797.4000;0.1026;3.7940;
797.7000;0.1197;3.8427;
798.0000;0.1123;3.8299;
798.3000;0.1172;3.8453;
798.6000;0.1123;3.8273;
798.9000;0.1131;3.8325;
799.2000;0.1123;3.8350;
799.5000;0.1140;3.8453;
799.8000;0.1115;3.8453;
800.1000;0.1074;3.8299;
800.4000;0.1115;3.8376;
800.7000;0.1123;3.8402;
801.0000;0.1018;3.8120;
801.3000;0.1123;3.8325;
801.6000;0.1123;3.8402;
801.9000;0.1131;3.8504;
802.2000;0.1083;3.8248;
802.5000;0.1123;3.8402;
802.8000;0.1099;3.8350;
803.1000;0.1140;3.8402;
803.4000;0.1172;3.8479;
803.7000;0.1140;3.8273;
804.0000;0.1123;3.8171;
804.3000;0.1172;3.8376;
804.6000;0.1123;3.8299;
804.9000;0.1115;3.8325;
805.2000;0.1123;3.8350;
805.5000;0.1099;3.8299;
805.8000;0.1148;3.8427;
806.1000;0.1099;3.8350;
806.4000;0.1131;3.8299;
806.7000;0.1123;3.8248;
807.0000;0.1107;3.8197;
807.3000;0.1123;3.8299;
807.6000;0.1131;3.8325;
807.9000;0.1115;3.8299;
808.2000;0.1164;3.8402;
808.5000;0.1140;3.8427;
808.8000;0.1091;3.8376;
809.1000;0.1123;3.8504;
809.4000;0.1115;3.8504;
809.7000;0.1148;3.8581;
810.0000;0.1091;3.8402;
810.3000;0.1115;3.8376;
810.6000;0.1107;3.8402;
810.9000;0.1123;3.8402;
811.2000;0.1083;3.8325;
811.5000;0.1123;3.8325;
811.8000;0.1131;3.8350;
812.1000;0.1074;3.8171;
812.4000;0.1131;3.8325;
812.7000;0.1107;3.8273;
813.0000;0.1115;3.8299;
813.3000;0.1148;3.8350;
813.6000;0.1140;3.8453;
813.9000;0.1262;3.8761;
814.2000;0.1148;3.8581;
814.5000;0.1099;3.8402;
814.8000;0.1123;3.8530;
815.1000;0.1123;3.8479;
815.4000;0.1180;3.8633;
815.7000;0.1115;3.8530;
816.0000;0.1115;3.8530;
816.3000;0.1148;3.8581;
816.6000;0.1074;3.8299;
816.9000;0.1099;3.8171;
817.2000;0.1115;3.8273;
817.5000;0.1083;3.8094;
817.8000;0.1115;3.8273;
818.1000;0.1131;3.8376;
818.4000;0.1123;3.8350;
818.7000;0.1140;3.8325;
819.0000;0.1180;3.8427;
819.3000;0.1115;3.8325;
819.6000;0.1123;3.8376;
819.9000;0.1115;3.8453;
820.2000;0.1156;3.8607;
820.5000;0.1107;3.8402;
820.8000;0.1123;3.8402;
821.1000;0.1123;3.8376;
821.4000;0.1148;3.8427;
821.7000;0.1115;3.8299;
822.0000;0.1115;3.8273;
822.3000;0.1123;3.8299;
822.6000;0.1123;3.8273;
822.9000;0.1254;3.8761;
823.2000;0.1131;3.8273;
823.5000;0.1131;3.8350;
823.8000;0.1140;3.8376;
824.1000;0.1148;3.8402;
824.4000;0.1131;3.8350;
824.7000;0.1123;3.8299;
825.0000;0.1099;3.8248;
825.3000;0.1107;3.8248;
825.6000;0.1131;3.8299;
825.9000;0.1123;3.8273;
826.2000;0.1131;3.8299;
826.5000;0.1123;3.8273;
826.8000;0.1123;3.8273;
827.1000;0.1140;3.8325;
827.4000;0.1131;3.8427;
827.7000;0.1107;3.8299;
828.0000;0.1107;3.8197;
828.3000;0.1115;3.8299;
828.6000;0.1123;3.8273;
828.9000;0.1156;3.8453;
829.2000;0.1131;3.8350;
829.5000;0.1131;3.8299;
829.8000;0.1115;3.8325;
830.1000;0.1131;3.8376;
830.4000;0.1140;3.8453;
830.7000;0.1156;3.8504;
831.0000;0.1140;3.8427;
831.3000;0.1115;3.8325;
831.6000;0.1115;3.8222;
831.9000;0.1140;3.8299;
832.2000;0.1107;3.8222;
832.5000;0.1123;3.8299;
832.8000;0.1156;3.8402;
833.1000;0.1123;3.8299;
833.4000;0.1115;3.8222;
833.7000;0.1188;3.8427;
834.0000;0.1083;3.8171;
834.3000;0.1115;3.8222;
834.6000;0.1140;3.8325;
834.9000;0.1107;3.8145;
835.2000;0.1123;3.8197;
835.5000;0.1131;3.8222;
835.8000;0.1172;3.8504;
836.1000;0.1058;3.8222;
836.4000;0.1050;3.8120;
836.7000;0.1123;3.8248;
837.0000;0.1197;3.8427;
837.3000;0.1074;3.8145;
837.6000;0.1197;3.8504;
837.9000;0.1131;3.8273;
838.2000;0.1099;3.8171;
838.5000;0.1131;3.8197;
838.8000;0.1115;3.8222;
839.1000;0.1140;3.8299;
839.4000;0.1148;3.8299;
839.7000;0.1164;3.8350;
840.0000;0.1156;3.8299;
840.3000;0.1131;3.8222;
840.6000;0.1074;3.8145;
840.9000;0.1083;3.8222;
841.2000;0.1131;3.8325;
841.5000;0.1131;3.8197;
841.8000;0.1156;3.8248;
842.1000;0.1140;3.8197;
842.4000;0.1107;3.8120;
842.7000;0.1115;3.8094;
843.0000;0.1164;3.8197;
843.3000;0.1131;3.8197;
843.6000;0.1123;3.8197;
843.9000;0.1123;3.8171;
844.2000;0.1115;3.8120;
844.5000;0.1140;3.8171;
844.8000;0.1131;3.8145;
845.1000;0.1123;3.8145;
845.4000;0.1131;3.8197;
845.7000;0.1156;3.8145;
846.0000;0.1123;3.8094;
846.3000;0.1099;3.8094;
846.6000;0.1140;3.8120;
846.9000;0.1042;3.7914;
847.2000;0.1131;3.8197;
847.5000;0.1107;3.8145;
847.8000;0.1115;3.8197;
848.1000;0.1123;3.8222;
848.4000;0.1107;3.8120;
848.7000;0.1115;3.8043;
849.0000;0.1140;3.8120;
849.3000;0.1123;3.8068;
849.6000;0.1115;3.8043;
849.9000;0.1107;3.8017;
850.2000;0.1131;3.8094;
850.5000;0.1107;3.7991;
850.8000;0.1131;3.8068;
851.1000;0.1131;3.8094;
851.4000;0.1131;3.8043;
851.7000;0.1115;3.8017;
852.0000;0.1140;3.8094;
852.3000;0.1115;3.8094;
852.6000;0.1131;3.8222;
852.9000;0.1091;3.8145;
853.2000;0.1091;3.8068;
853.5000;0.1140;3.8171;
853.8000;0.1131;3.8120;
854.1000;0.1123;3.8094;
854.4000;0.1123;3.8145;
854.7000;0.1123;3.8171;
855.0000;0.1123;3.8273;
855.3000;0.1123;3.8248;
855.6000;0.1115;3.8222;
855.9000;0.1131;3.8273;
856.2000;0.1099;3.8222;
856.5000;0.1131;3.8350;
856.8000;0.1091;3.8248;
857.1000;0.1123;3.8299;
857.4000;0.1123;3.8273;
857.7000;0.1131;3.8248;
858.0000;0.1156;3.8248;
858.3000;0.1099;3.8094;
858.6000;0.1107;3.8120;
858.9000;0.1091;3.8145;
859.2000;0.1107;3.8222;
859.5000;0.1034;3.8043;
859.8000;0.1221;3.8504;
860.1000;0.1131;3.8273;
860.4000;0.1099;3.8068;
860.7000;0.1131;3.8197;
861.0000;0.1180;3.8427;
861.3000;0.1115;3.8299;
861.6000;0.1091;3.8248;
861.9000;0.1107;3.8325;
862.2000;0.1131;3.8402;
862.5000;0.1115;3.8299;
862.8000;0.1107;3.8325;
863.1000;0.1083;3.8273;
863.4000;0.1115;3.8248;
863.7000;0.1107;3.8222;
864.0000;0.1115;3.8299;
864.3000;0.1131;3.8325;
864.6000;0.1107;3.8171;
864.9000;0.1131;3.8325;
865.2000;0.1123;3.8248;
865.5000;0.1115;3.8248;
865.8000;0.1123;3.8325;
866.1000;0.1131;3.8402;
866.4000;0.1140;3.8350;
866.7000;0.1131;3.8273;
867.0000;0.1123;3.8299;
867.3000;0.1140;3.8350;
867.6000;0.1123;3.8376;
867.9000;0.1123;3.8402;
868.2000;0.1131;3.8248;
868.5000;0.1123;3.8273;
868.8000;0.1131;3.8427;
869.1000;0.1115;3.8427;
869.4000;0.1074;3.8273;
869.7000;0.1115;3.8299;
870.0000;0.1123;3.8299;
870.3000;0.1034;3.8043;
870.6000;0.1123;3.8222;
870.9000;0.1107;3.8120;
871.2000;0.1123;3.8222;
871.5000;0.1123;3.8273;
871.8000;0.1156;3.8376;
872.1000;0.1107;3.8222;
872.4000;0.1148;3.8325;
872.7000;0.1123;3.8299;
873.0000;0.1140;3.8325;
873.3000;0.1123;3.8197;
873.6000;0.1115;3.8171;
873.9000;0.1131;3.8222;
874.2000;0.1123;3.8376;
874.5000;0.1083;3.8248;
874.8000;0.1107;3.8273;
875.1000;0.1107;3.8325;
875.4000;0.1107;3.8325;
875.7000;0.1123;3.8427;
876.0000;0.1123;3.8402;
876.3000;0.1140;3.8427;
876.6000;0.1123;3.8402;
876.9000;0.1123;3.8350;
877.2000;0.1131;3.8325;
877.5000;0.1123;3.8273;
877.8000;0.1140;3.8222;
878.1000;0.1123;3.8248;
878.4000;0.1148;3.8222;
878.7000;0.1123;3.8171;
879.0000;0.1131;3.8222;
879.3000;0.1156;3.8197;
879.6000;0.1123;3.8145;
879.9000;0.1131;3.8120;
880.2000;0.1115;3.8120;
880.5000;0.1115;3.8145;
880.8000;0.1115;3.8120;
881.1000;0.1131;3.8171;
881.4000;0.1140;3.8197;
881.7000;0.1140;3.8145;
882.0000;0.1140;3.8222;
882.3000;0.1140;3.8376;
882.6000;0.1131;3.8376;
882.9000;0.1131;3.8325;
883.2000;0.1131;3.8325;
883.5000;0.1083;3.8222;
883.8000;0.1180;3.8530;
884.1000;0.1188;3.8633;
884.4000;0.1123;3.8350;
884.7000;0.1123;3.8299;
885.0000;0.1115;3.8171;
885.3000;0.1131;3.8145;
885.6000;0.1148;3.8171;
885.9000;0.1115;3.8197;
886.2000;0.1107;3.8222;
886.5000;0.1140;3.8299;
886.8000;0.1140;3.8273;
887.1000;0.1180;3.8350;
887.4000;0.1115;3.8248;
887.7000;0.1123;3.8248;
888.0000;0.1115;3.8248;
888.3000;0.1123;3.8402;
888.6000;0.1083;3.8453;
888.9000;0.1042;3.8248;
889.2000;0.1115;3.8376;
889.5000;0.1131;3.8376;
889.8000;0.1123;3.8350;
890.1000;0.1099;3.8376;
890.4000;0.1058;3.8325;
890.7000;0.1123;3.8530;
891.0000;0.1123;3.8530;
891.3000;0.1091;3.8376;
891.6000;0.1107;3.8453;
891.9000;0.1131;3.8530;
892.2000;0.1140;3.8581;
892.5000;0.1107;3.8504;
892.8000;0.1131;3.8504;
893.1000;0.1099;3.8504;
893.4000;0.1083;3.8376;
893.7000;0.1115;3.8376;
894.0000;0.1115;3.8350;
894.3000;0.1221;3.8658;
894.6000;0.1123;3.8427;
894.9000;0.1123;3.8325;
895.2000;0.1058;3.8120;
895.5000;0.1107;3.8350;
895.8000;0.1115;3.8402;
896.1000;0.1099;3.8248;
896.4000;0.1115;3.8248;
896.7000;0.1115;3.8273;
897.0000;0.1148;3.8427;
897.3000;0.1131;3.8427;
897.6000;0.1131;3.8427;
897.9000;0.1131;3.8479;
898.2000;0.1156;3.8581;
898.5000;0.1115;3.8607;
898.8000;0.1123;3.8581;
899.1000;0.1115;3.8556;
899.4000;0.1115;3.8479;
899.7000;0.1099;3.8453;
900.0000;0.1107;3.8453;
900.3000;0.1107;3.8427;
900.6000;0.1099;3.8453;
900.9000;0.1074;3.8479;
901.2000;0.1115;3.8581;
901.5000;0.1115;3.8530;
901.8000;0.1091;3.8427;
902.1000;0.1123;3.8479;
902.4000;0.1131;3.8453;
902.7000;0.1115;3.8376;
903.0000;0.1148;3.8453;
903.3000;0.1115;3.8299;
903.6000;0.1131;3.8299;
903.9000;0.1131;3.8248;
904.2000;0.1140;3.8197;
904.5000;0.1123;3.8197;
904.8000;0.1131;3.8325;
905.1000;0.1099;3.8350;
905.4000;0.1107;3.8402;
905.7000;0.1115;3.8479;
906.0000;0.1140;3.8581;
906.3000;0.1107;3.8556;
906.6000;0.1123;3.8530;
906.9000;0.1107;3.8402;
907.2000;0.1123;3.8299;
907.5000;0.1140;3.8325;
907.8000;0.1034;3.8043;
908.1000;0.1107;3.8350;
908.4000;0.1034;3.8145;
908.7000;0.1131;3.8402;
909.0000;0.1156;3.8530;
909.3000;0.1107;3.8376;
909.6000;0.1156;3.8556;
909.9000;0.1123;3.8479;
910.2000;0.1131;3.8427;
910.5000;0.1164;3.8504;
910.8000;0.1083;3.8402;
911.1000;0.1180;3.8684;
911.4000;0.1140;3.8479;
911.7000;0.1123;3.8402;
912.0000;0.1115;3.8402;
912.3000;0.1148;3.8504;
912.6000;0.1115;3.8402;
912.9000;0.1115;3.8376;
913.2000;0.1123;3.8376;
913.5000;0.1107;3.8299;
913.8000;0.1123;3.8350;
914.1000;0.1123;3.8427;
914.4000;0.1034;3.8068;
914.7000;0.1107;3.8248;
915.0000;0.1115;3.8325;
915.3000;0.1148;3.8350;
915.6000;0.1107;3.8273;
915.9000;0.1123;3.8350;
916.2000;0.1107;3.8273;
916.5000;0.1099;3.8248;
916.8000;0.1050;3.8145;
917.1000;0.1099;3.8325;
917.4000;0.1123;3.8402;
917.7000;0.1115;3.8350;
918.0000;0.1115;3.8299;
918.3000;0.1115;3.8376;
918.6000;0.1115;3.8299;
918.9000;0.1115;3.8376;
919.2000;0.1123;3.8427;
919.5000;0.1123;3.8376;
919.8000;0.1123;3.8376;
920.1000;0.1131;3.8299;
920.4000;0.1123;3.8350;
920.7000;0.1131;3.8197;
921.0000;0.1091;3.8017;
921.3000;0.1140;3.8197;
921.6000;0.1123;3.8197;
921.9000;0.1123;3.8248;
922.2000;0.1123;3.8273;
922.5000;0.1140;3.8299;
922.8000;0.1148;3.8402;
923.1000;0.1123;3.8273;
923.4000;0.1091;3.8145;
923.7000;0.1066;3.8094;
924.0000;0.1140;3.8325;
924.3000;0.1131;3.8273;
924.6000;0.1107;3.8248;
924.9000;0.1123;3.8197;
925.2000;0.1140;3.8222;
925.5000;0.1123;3.8094;
925.8000;0.1115;3.8017;
926.1000;0.1140;3.7991;
926.4000;0.1115;3.7863;
926.7000;0.1131;3.7889;
927.0000;0.1099;3.7914;
927.3000;0.1091;3.7966;
927.6000;0.1115;3.8068;
927.9000;0.1066;3.8043;
928.2000;0.1148;3.8350;
928.5000;0.1131;3.8376;
928.8000;0.1115;3.8299;
929.1000;0.1050;3.8068;
929.4000;0.1140;3.8222;
929.7000;0.1131;3.8273;
930.0000;0.1131;3.8376;
930.3000;0.1018;3.7991;
930.6000;0.1140;3.8325;
930.9000;0.1148;3.8453;
931.2000;0.1115;3.8376;
931.5000;0.1131;3.8427;
931.8000;0.1131;3.8453;
932.1000;0.1066;3.8145;
932.4000;0.1115;3.8299;
932.7000;0.1115;3.8376;
933.0000;0.1001;3.8171;
933.3000;0.1018;3.8197;
933.6000;0.1156;3.8658;
933.9000;0.1148;3.8633;
934.2000;0.1115;3.8633;
934.5000;0.1188;3.8812;
934.8000;0.1107;3.8530;
935.1000;0.1131;3.8607;
935.4000;0.1140;3.8658;
935.7000;0.1123;3.8556;
936.0000;0.1115;3.8530;
936.3000;0.1123;3.8453;
936.6000;0.1123;3.8453;
936.9000;0.1123;3.8402;
937.2000;0.1091;3.8222;
937.5000;0.1115;3.8197;
937.8000;0.1107;3.8222;
938.1000;0.1131;3.8325;
938.4000;0.1042;3.8145;
938.7000;0.1115;3.8402;
939.0000;0.1107;3.8350;
939.3000;0.1123;3.8376;
939.6000;0.1140;3.8402;
939.9000;0.1123;3.8325;
940.2000;0.1123;3.8350;
940.5000;0.1123;3.8273;
940.8000;0.1123;3.8402;
941.1000;0.1156;3.8556;
941.4000;0.1083;3.8427;
941.7000;0.1131;3.8581;
942.0000;0.1123;3.8530;
942.3000;0.1123;3.8402;
942.6000;0.1123;3.8350;
942.9000;0.1140;3.8402;
943.2000;0.1123;3.8273;
943.5000;0.1107;3.8171;
943.8000;0.1091;3.8171;
944.1000;0.1107;3.8299;
944.4000;0.1115;3.8350;
944.7000;0.1123;3.8427;
945.0000;0.1123;3.8427;
945.3000;0.1123;3.8376;
945.6000;0.1115;3.8350;
945.9000;0.1115;3.8402;
946.2000;0.1148;3.8504;
946.5000;0.1131;3.8376;
946.8000;0.1107;3.8273;
947.1000;0.1164;3.8402;
947.4000;0.1131;3.8197;
947.7000;0.1131;3.8222;
948.0000;0.1066;3.8222;
948.3000;0.1213;3.8735;
948.6000;0.1107;3.8402;
948.9000;0.1091;3.8427;
949.2000;0.1115;3.8530;
949.5000;0.1123;3.8479;
949.8000;0.1115;3.8427;
950.1000;0.1131;3.8453;
950.4000;0.1131;3.8504;
950.7000;0.1107;3.8479;
951.0000;0.1180;3.8607;
951.3000;0.1091;3.8325;
951.6000;0.1115;3.8402;
951.9000;0.0928;3.7863;
952.2000;0.1123;3.8427;
952.5000;0.1123;3.8530;
952.8000;0.1221;3.8735;
953.1000;0.1009;3.8068;
953.4000;0.1099;3.8376;
953.7000;0.1140;3.8556;
954.0000;0.1074;3.8350;
954.3000;0.1140;3.8581;
954.6000;0.1115;3.8530;
954.9000;0.1115;3.8556;
955.2000;0.1140;3.8530;
955.5000;0.1115;3.8479;
955.8000;0.1123;3.8479;
956.1000;0.1091;3.8427;
956.4000;0.1107;3.8504;
956.7000;0.1148;3.8607;
957.0000;0.1131;3.8504;
957.3000;0.1099;3.8427;
957.6000;0.1131;3.8504;
957.9000;0.1099;3.8453;
958.2000;0.1091;3.8350;
958.5000;0.1107;3.8402;
958.8000;0.1115;3.8376;
959.1000;0.1115;3.8325;
959.4000;0.1107;3.8273;
959.7000;0.1115;3.8402;
960.0000;0.1148;3.8504;
960.3000;0.1131;3.8453;
960.6000;0.1123;3.8402;
960.9000;0.1131;3.8376;
961.2000;0.1156;3.8504;
961.5000;0.1123;3.8376;
961.8000;0.1115;3.8402;
962.1000;0.1115;3.8453;
962.4000;0.1188;3.8581;
962.7000;0.1131;3.8453;
963.0000;0.1148;3.8504;
963.3000;0.1115;3.8479;
963.6000;0.1123;3.8402;
963.9000;0.1099;3.8376;
964.2000;0.1026;3.8197;
964.5000;0.1123;3.8427;
964.8000;0.1099;3.8376;
965.1000;0.1099;3.8376;
965.4000;0.1123;3.8427;
965.7000;0.1156;3.8479;
966.0000;0.1083;3.8197;
966.3000;0.1140;3.8402;
966.6000;0.1140;3.8402;
966.9000;0.1099;3.8248;
967.2000;0.1074;3.8171;
967.5000;0.1131;3.8325;
967.8000;0.1131;3.8402;
968.1000;0.1123;3.8350;
968.4000;0.1083;3.8248;
968.7000;0.1083;3.8248;
969.0000;0.1115;3.8427;
969.3000;0.1140;3.8479;
969.6000;0.1131;3.8504;
969.9000;0.1115;3.8376;
970.2000;0.1091;3.8376;
970.5000;0.1156;3.8556;
970.8000;0.1074;3.8376;
971.1000;0.1140;3.8581;
971.4000;0.1123;3.8479;
971.7000;0.1066;3.8325;
972.0000;0.1123;3.8453;
972.3000;0.1156;3.8504;
972.6000;0.1115;3.8350;
972.9000;0.1172;3.8479;
973.2000;0.1074;3.8120;
973.5000;0.1074;3.8094;
973.8000;0.1099;3.8273;
974.1000;0.1107;3.8222;
974.4000;0.1140;3.8453;
974.7000;0.1115;3.8273;
975.0000;0.1164;3.8479;
975.3000;0.1131;3.8427;
975.6000;0.1131;3.8376;
975.9000;0.1107;3.8273;
976.2000;0.1131;3.8299;
976.5000;0.1091;3.8299;
976.8000;0.1123;3.8402;
977.1000;0.1156;3.8530;
977.4000;0.1115;3.8299;
977.7000;0.1123;3.8376;
978.0000;0.1107;3.8504;
978.3000;0.1107;3.8504;
978.6000;0.1123;3.8581;
978.9000;0.1107;3.8504;
979.2000;0.1115;3.8479;
979.5000;0.1066;3.8325;
979.8000;0.1083;3.8376;
980.1000;0.1140;3.8504;
980.4000;0.1115;3.8376;
980.7000;0.1115;3.8299;
981.0000;0.1107;3.8273;
981.3000;0.1115;3.8299;
981.6000;0.1131;3.8273;
981.9000;0.1148;3.8325;
982.2000;0.1131;3.8402;
982.5000;0.1115;3.8325;
982.8000;0.1115;3.8325;
983.1000;0.1042;3.8248;
983.4000;0.1115;3.8402;
983.7000;0.1123;3.8299;
984.0000;0.1107;3.8299;
984.3000;0.1099;3.8248;
984.6000;0.1245;3.8658;
984.9000;0.1123;3.8248;
985.2000;0.1018;3.8043;
985.5000;0.1131;3.8402;
985.8000;0.1131;3.8479;
986.1000;0.1083;3.8350;
986.4000;0.1172;3.8633;
986.7000;0.1115;3.8427;
987.0000;0.1099;3.8402;
987.3000;0.1140;3.8453;
987.6000;0.1115;3.8325;
987.9000;0.1091;3.8299;
988.2000;0.1115;3.8299;
988.5000;0.1083;3.8248;
988.8000;0.1107;3.8325;
989.1000;0.1115;3.8248;
989.4000;0.1123;3.8273;
989.7000;0.1131;3.8273;
990.0000;0.1123;3.8273;
990.3000;0.1123;3.8325;
990.6000;0.1099;3.8248;
990.9000;0.1123;3.8273;
991.2000;0.1115;3.8222;
991.5000;0.1123;3.8248;
991.8000;0.1115;3.8402;
992.1000;0.1131;3.8556;
992.4000;0.1140;3.8581;
992.7000;0.1107;3.8581;
993.0000;0.1115;3.8530;
993.3000;0.1123;3.8504;
993.6000;0.1140;3.8530;
993.9000;0.1140;3.8427;
994.2000;0.1091;3.8299;
994.5000;0.1115;3.8325;
994.8000;0.1107;3.8427;
995.1000;0.1083;3.8376;
995.4000;0.1107;3.8479;
995.7000;0.1115;3.8504;
996.0000;0.1107;3.8504;
996.3000;0.1140;3.8556;
996.6000;0.1115;3.8479;
996.9000;0.1107;3.8479;
997.2000;0.1131;3.8530;
997.5000;0.1123;3.8453;
997.8000;0.1123;3.8479;
998.1000;0.1107;3.8479;
998.4000;0.1140;3.8530;
998.7000;0.1131;3.8504;
999.0000;0.1083;3.8453;
999.3000;0.1107;3.8530;
999.6000;0.1140;3.8504;
999.9000;0.1123;3.8453;
1000.2000;0.1164;3.8530;
1000.5000;0.1131;3.8402;
1000.8000;0.1123;3.8299;
1001.1000;0.1083;3.8145;
1001.4000;0.1123;3.8222;
1001.7000;0.1123;3.8222;
1002.0000;0.1140;3.8273;
1002.3000;0.1140;3.8248;
1002.6000;0.1091;3.8145;
1002.9000;0.1083;3.8068;
1003.2000;0.1107;3.8120;
1003.5000;0.1197;3.8350;
1003.8000;0.1123;3.8120;
1004.1000;0.1131;3.8094;
1004.4000;0.1115;3.8094;
1004.7000;0.1107;3.8120;
1005.0000;0.1107;3.8171;
1005.3000;0.1115;3.8197;
1005.6000;0.1131;3.8171;
1005.9000;0.1131;3.8248;
1006.2000;0.1099;3.8299;
1006.5000;0.1115;3.8299;
1006.8000;0.1123;3.8299;
1007.1000;0.1058;3.8094;
1007.4000;0.1099;3.8273;
1007.7000;0.1131;3.8427;
1008.0000;0.1140;3.8248;
1008.3000;0.1083;3.8068;
1008.6000;0.1115;3.8145;
1008.9000;0.1131;3.8197;
1009.2000;0.1099;3.8171;
1009.5000;0.1131;3.8273;
1009.8000;0.1140;3.8325;
1010.1000;0.1115;3.8222;
1010.4000;0.1123;3.8222;
1010.7000;0.1115;3.8145;
1011.0000;0.1148;3.8248;
1011.3000;0.1140;3.8222;
1011.6000;0.1115;3.8171;
1011.9000;0.1115;3.8094;
1012.2000;0.1107;3.8068;
1012.5000;0.1131;3.8197;
1012.8000;0.1131;3.8222;
1013.1000;0.1115;3.8145;
1013.4000;0.1099;3.8145;
1013.7000;0.1115;3.8299;
1014.0000;0.1115;3.8273;
1014.3000;0.1140;3.8273;
1014.6000;0.1123;3.8273;
1014.9000;0.1123;3.8402;
1015.2000;0.1115;3.8350;
1015.5000;0.1123;3.8222;
1015.8000;0.1099;3.8273;
1016.1000;0.1099;3.8299;
1016.4000;0.1115;3.8402;
1016.7000;0.1123;3.8376;
1017.0000;0.1107;3.8325;
1017.3000;0.1074;3.8145;
1017.6000;0.1123;3.8376;
1017.9000;0.1107;3.8248;
1018.2000;0.1107;3.8248;
1018.5000;0.1115;3.8222;
1018.8000;0.1131;3.8222;
1019.1000;0.1156;3.8248;
1019.4000;0.1099;3.8068;
1019.7000;0.1123;3.8017;
1020.0000;0.1123;3.8068;
1020.3000;0.1107;3.8171;
1020.6000;0.1066;3.8094;
1020.9000;0.1099;3.8197;
1021.2000;0.1107;3.8273;
1021.5000;0.1123;3.8402;
1021.8000;0.1156;3.8504;
1022.1000;0.1115;3.8376;
1022.4000;0.1115;3.8299;
1022.7000;0.1115;3.8299;
1023.0000;0.1123;3.8350;
1023.3000;0.1115;3.8299;
1023.6000;0.1083;3.8197;
1023.9000;0.1107;3.8299;
1024.2000;0.1213;3.8607;
1024.5000;0.1074;3.8171;
1024.8000;0.1115;3.8248;
1025.1000;0.1026;3.7889;
1025.4000;0.1091;3.8094;
1025.7000;0.1131;3.8248;
1026.0000;0.1131;3.8222;
1026.3000;0.0977;3.7889;
1026.6000;0.1172;3.8376;
1026.9000;0.1148;3.8273;
1027.2000;0.1123;3.8197;
1027.5000;0.1099;3.8068;
1027.8000;0.1140;3.8171;
1028.1000;0.1026;3.7940;
1028.4000;0.1148;3.8325;
1028.7000;0.1115;3.8197;
1029.0000;0.1115;3.8120;
1029.3000;0.1131;3.8197;
1029.6000;0.1123;3.8222;
1029.9000;0.1140;3.8350;
1030.2000;0.1123;3.8222;
1030.5000;0.1123;3.8273;
1030.8000;0.1107;3.8197;
1031.1000;0.1066;3.8068;
1031.4000;0.1123;3.8171;
1031.7000;0.1131;3.8222;
1032.0000;0.1107;3.8222;
1032.3000;0.1066;3.8120;
1032.6000;0.1164;3.8427;
1032.9000;0.1115;3.8248;
1033.2000;0.1107;3.8197;
1033.5000;0.1188;3.8350;
1033.8000;0.1074;3.8068;
1034.1000;0.1107;3.8197;
1034.4000;0.1034;3.8017;
1034.7000;0.1115;3.8273;
1035.0000;0.1099;3.8273;
1035.3000;0.1164;3.8402;
1035.6000;0.1131;3.8376;
1035.9000;0.1140;3.8402;
1036.2000;0.1115;3.8325;
1036.5000;0.1066;3.8145;
1036.8000;0.1123;3.8171;
1037.1000;0.1140;3.8299;
1037.4000;0.1099;3.8222;
1037.7000;0.1115;3.8222;
1038.0000;0.1140;3.8299;
1038.3000;0.1123;3.8273;
1038.6000;0.1123;3.8350;
1038.9000;0.1164;3.8504;
1039.2000;0.1140;3.8453;
1039.5000;0.1148;3.8556;
1039.8000;0.1140;3.8556;
1040.1000;0.1107;3.8402;
1040.4000;0.1131;3.8350;
1040.7000;0.1115;3.8325;
1041.0000;0.1172;3.8479;
1041.3000;0.1140;3.8479;
1041.6000;0.1115;3.8376;
1041.9000;0.1123;3.8402;
1042.2000;0.1148;3.8530;
1042.5000;0.1115;3.8453;
1042.8000;0.1107;3.8427;
1043.1000;0.1066;3.8197;
1043.4000;0.1115;3.8273;
1043.7000;0.1140;3.8325;
1044.0000;0.1107;3.8273;
1044.3000;0.1115;3.8427;
1044.6000;0.1115;3.8427;
1044.9000;0.1050;3.8299;
1045.2000;0.1099;3.8427;
1045.5000;0.1123;3.8479;
1045.8000;0.1123;3.8479;
1046.1000;0.1131;3.8504;
1046.4000;0.1156;3.8530;
1046.7000;0.1050;3.8273;
1047.0000;0.1123;3.8453;
1047.3000;0.1107;3.8427;
1047.6000;0.1131;3.8453;
1047.9000;0.1083;3.8273;
1048.2000;0.1123;3.8453;
1048.5000;0.1123;3.8325;
1048.8000;0.1123;3.8325;
1049.1000;0.1213;3.8633;
1049.4000;0.1115;3.8248;
1049.7000;0.1123;3.8299;
1050.0000;0.1115;3.8248;
1050.3000;0.1115;3.8299;
1050.6000;0.1123;3.8376;
1050.9000;0.1083;3.8350;
1051.2000;0.1123;3.8402;
1051.5000;0.1115;3.8376;
1051.8000;0.1123;3.8325;
1052.1000;0.1115;3.8376;
1052.4000;0.1123;3.8350;
1052.7000;0.1123;3.8325;
1053.0000;0.1099;3.8222;
1053.3000;0.1091;3.8145;
1053.6000;0.1123;3.8197;
1053.9000;0.1131;3.8222;
1054.2000;0.1237;3.8427;
1054.5000;0.1107;3.8094;
1054.8000;0.1123;3.8171;
1055.1000;0.1099;3.8145;
1055.4000;0.1123;3.8222;
1055.7000;0.1115;3.8248;
1056.0000;0.1099;3.8248;
1056.3000;0.1123;3.8273;
1056.6000;0.1131;3.8325;
1056.9000;0.1099;3.8273;
1057.2000;0.1140;3.8402;
1057.5000;0.1107;3.8350;
1057.8000;0.1107;3.8427;
1058.1000;0.1140;3.8504;
1058.4000;0.1107;3.8350;
1058.7000;0.1140;3.8376;
1059.0000;0.1115;3.8376;
1059.3000;0.1091;3.8299;
1059.6000;0.1099;3.8402;
1059.9000;0.1042;3.8222;
1060.2000;0.1115;3.8427;
1060.5000;0.1123;3.8427;
1060.8000;0.1123;3.8350;
1061.1000;0.1091;3.8350;
1061.4000;0.1123;3.8350;
1061.7000;0.1115;3.8376;
1062.0000;0.1083;3.8273;
1062.3000;0.1091;3.8299;
1062.6000;0.1099;3.8273;
1062.9000;0.1131;3.8427;
1063.2000;0.1140;3.8453;
1063.5000;0.1131;3.8530;
1063.8000;0.1123;3.8530;
1064.1000;0.1156;3.8684;
1064.4000;0.1140;3.8581;
1064.7000;0.1131;3.8530;
1065.0000;0.1213;3.8658;
1065.3000;0.1083;3.8325;
1065.6000;0.1123;3.8453;
1065.9000;0.1107;3.8427;
1066.2000;0.1140;3.8479;
1066.5000;0.1131;3.8402;
1066.8000;0.1115;3.8427;
1067.1000;0.1066;3.8248;
1067.4000;0.1107;3.8427;
1067.7000;0.1107;3.8376;
1068.0000;0.1107;3.8402;
1068.3000;0.1099;3.8299;
1068.6000;0.1148;3.8453;
1068.9000;0.1083;3.8273;
1069.2000;0.1123;3.8350;
1069.5000;0.1148;3.8376;
1069.8000;0.1074;3.8120;
1070.1000;0.1115;3.8248;
1070.4000;0.1131;3.8350;
1070.7000;0.1131;3.8402;
1071.0000;0.1107;3.8350;
1071.3000;0.1115;3.8350;
1071.6000;0.1131;3.8350;
1071.9000;0.1131;3.8325;
1072.2000;0.1042;3.7966;
1072.5000;0.1115;3.8171;
1072.8000;0.1107;3.8171;
1073.1000;0.1115;3.8197;
1073.4000;0.1115;3.8222;
1073.7000;0.1083;3.8222;
1074.0000;0.1099;3.8222;
1074.3000;0.1091;3.8248;
1074.6000;0.1140;3.8402;
1074.9000;0.1107;3.8299;
1075.2000;0.1099;3.8248;
1075.5000;0.1115;3.8350;
1075.8000;0.1107;3.8299;
1076.1000;0.1131;3.8376;
1076.4000;0.1107;3.8299;
1076.7000;0.1115;3.8248;
1077.0000;0.1123;3.8273;
1077.3000;0.1123;3.8273;
1077.6000;0.1091;3.8222;
1077.9000;0.1140;3.8376;
1078.2000;0.1115;3.8248;
1078.5000;0.1107;3.8171;
1078.8000;0.1107;3.8145;
1079.1000;0.1099;3.8222;
1079.4000;0.1099;3.8222;
1079.7000;0.1107;3.8248;
1080.0000;0.1123;3.8273;
1080.3000;0.1050;3.8120;
1080.6000;0.1131;3.8402;
1080.9000;0.1123;3.8479;
1081.2000;0.1131;3.8556;
1081.5000;0.1123;3.8402;
1081.8000;0.1131;3.8402;
1082.1000;0.1123;3.8350;
1082.4000;0.1083;3.8350;
1082.7000;0.1123;3.8299;
1083.0000;0.1140;3.8299;
1083.3000;0.1123;3.8299;
1083.6000;0.1115;3.8248;
1083.9000;0.1066;3.8222;
1084.2000;0.1140;3.8376;
1084.5000;0.1131;3.8376;
1084.8000;0.1107;3.8402;
1085.1000;0.1131;3.8427;
1085.4000;0.1083;3.8376;
1085.7000;0.1099;3.8402;
1086.0000;0.1131;3.8504;
1086.3000;0.1091;3.8402;
1086.6000;0.1107;3.8504;
1086.9000;0.1131;3.8504;
1087.2000;0.1140;3.8427;
1087.5000;0.1115;3.8325;
1087.8000;0.1123;3.8248;
1088.1000;0.1115;3.8273;
1088.4000;0.1131;3.8325;
1088.7000;0.1115;3.8273;
1089.0000;0.1123;3.8325;
1089.3000;0.1123;3.8325;
1089.6000;0.1131;3.8350;
1089.9000;0.1115;3.8376;
1090.2000;0.1140;3.8402;
1090.5000;0.1164;3.8479;
1090.8000;0.1123;3.8427;
1091.1000;0.1091;3.8376;
1091.4000;0.1099;3.8350;
1091.7000;0.1115;3.8273;
1092.0000;0.1107;3.8350;
1092.3000;0.1107;3.8402;
1092.6000;0.1115;3.8376;
1092.9000;0.1123;3.8427;
1093.2000;0.1115;3.8427;
1093.5000;0.1140;3.8504;
1093.8000;0.1123;3.8530;
1094.1000;0.1115;3.8427;
1094.4000;0.1115;3.8427;
1094.7000;0.1107;3.8402;
1095.0000;0.1123;3.8453;
1095.3000;0.1099;3.8402;
1095.6000;0.1197;3.8684;
1095.9000;0.1107;3.8427;
1096.2000;0.1074;3.8273;
1096.5000;0.1115;3.8350;
1096.8000;0.1123;3.8376;
1097.1000;0.1123;3.8402;
1097.4000;0.1115;3.8376;
1097.7000;0.1131;3.8427;
1098.0000;0.1107;3.8376;
1098.3000;0.1172;3.8530;
1098.6000;0.1115;3.8299;
1098.9000;0.1115;3.8325;
1099.2000;0.1099;3.8325;
1099.5000;0.1123;3.8273;
1099.8000;0.1131;3.8197;
1100.1000;0.1115;3.8171;
1100.4000;0.1099;3.8197;
1100.7000;0.1107;3.8350;
1101.0000;0.1099;3.8402;
1101.3000;0.1164;3.8581;
1101.6000;0.1115;3.8453;
1101.9000;0.1107;3.8504;
1102.2000;0.1099;3.8453;
1102.5000;0.1148;3.8581;
1102.8000;0.1107;3.8427;
1103.1000;0.1123;3.8453;
1103.4000;0.1099;3.8427;
1103.7000;0.1123;3.8427;
1104.0000;0.1140;3.8427;
1104.3000;0.1091;3.8299;
1104.6000;0.1123;3.8299;
1104.9000;0.1131;3.8376;
1105.2000;0.1131;3.8453;
1105.5000;0.1099;3.8350;
1105.8000;0.1123;3.8350;
1106.1000;0.1107;3.8376;
1106.4000;0.1107;3.8427;
1106.7000;0.1042;3.8197;
1107.0000;0.1091;3.8299;
1107.3000;0.1099;3.8222;
1107.6000;0.1115;3.8197;
1107.9000;0.1115;3.8299;
1108.2000;0.1123;3.8376;
1108.5000;0.1140;3.8376;
1108.8000;0.1099;3.8350;
1109.1000;0.1123;3.8402;
1109.4000;0.1107;3.8402;
1109.7000;0.1107;3.8402;
1110.0000;0.1091;3.8273;
1110.3000;0.1140;3.8402;
1110.6000;0.1115;3.8376;
1110.9000;0.1107;3.8376;
1111.2000;0.1099;3.8299;
1111.5000;0.1123;3.8376;
1111.8000;0.1123;3.8350;
1112.1000;0.1156;3.8479;
1112.4000;0.1115;3.8299;
1112.7000;0.1115;3.8376;
1113.0000;0.1115;3.8402;
1113.3000;0.1107;3.8299;
1113.6000;0.1115;3.8299;
1113.9000;0.1123;3.8350;
1114.2000;0.1172;3.8479;
1114.5000;0.1107;3.8325;
1114.8000;0.1148;3.8479;
1115.1000;0.1083;3.8273;
1115.4000;0.1131;3.8427;
1115.7000;0.1099;3.8402;
1116.0000;0.1221;3.8787;
1116.3000;0.1115;3.8376;
1116.6000;0.1115;3.8402;
1116.9000;0.1156;3.8376;
1117.2000;0.1099;3.8171;
1117.5000;0.1074;3.8222;
1117.8000;0.1107;3.8325;
1118.1000;0.1294;3.8889;
1118.4000;0.0993;3.8043;
1118.7000;0.1115;3.8402;
1119.0000;0.1123;3.8376;
1119.3000;0.1115;3.8350;
1119.6000;0.1172;3.8556;
1119.9000;0.1197;3.8556;
1120.2000;0.0993;3.7966;
1120.5000;0.1001;3.8017;
1120.8000;0.1156;3.8479;
1121.1000;0.0977;3.7914;
1121.4000;0.1197;3.8504;
1121.7000;0.1115;3.8248;
1122.0000;0.1107;3.8222;
1122.3000;0.1107;3.8248;
1122.6000;0.1115;3.8325;
1122.9000;0.1034;3.8094;
1123.2000;0.1140;3.8273;
1123.5000;0.1107;3.8120;
1123.8000;0.1115;3.8043;
1124.1000;0.1115;3.8043;
1124.4000;0.1123;3.8068;
1124.7000;0.1107;3.8043;
1125.0000;0.1123;3.8120;
1125.3000;0.1107;3.8145;
1125.6000;0.1107;3.8171;
1125.9000;0.1164;3.8350;
1126.2000;0.1140;3.8299;
1126.5000;0.1115;3.8171;
1126.8000;0.1123;3.8094;
1127.1000;0.1140;3.8171;
1127.4000;0.1107;3.8068;
1127.7000;0.1050;3.7914;
1128.0000;0.1131;3.8068;
1128.3000;0.1131;3.8145;
1128.6000;0.1123;3.8197;
1128.9000;0.1123;3.8273;
1129.2000;0.1123;3.8350;
1129.5000;0.1123;3.8325;
1129.8000;0.1115;3.8197;
1130.1000;0.1099;3.8197;
1130.4000;0.1123;3.8145;
1130.7000;0.1123;3.8171;
1131.0000;0.1107;3.8197;
1131.3000;0.1156;3.8273;
1131.6000;0.1115;3.8094;
1131.9000;0.1205;3.8350;
1132.2000;0.1115;3.8068;
1132.5000;0.1123;3.8068;
1132.8000;0.1099;3.7889;
1133.1000;0.1099;3.7940;
1133.4000;0.1140;3.8017;
1133.7000;0.1131;3.7966;
1134.0000;0.1172;3.8068;
1134.3000;0.1115;3.7966;
1134.6000;0.1131;3.7940;
1134.9000;0.1066;3.7863;
1135.2000;0.1115;3.7914;
1135.5000;0.1115;3.7863;
1135.8000;0.1123;3.7889;
1136.1000;0.1140;3.7966;
1136.4000;0.1050;3.7914;
1136.7000;0.1123;3.8043;
1137.0000;0.1115;3.8043;
1137.3000;0.1115;3.8145;
1137.6000;0.1115;3.8171;
1137.9000;0.1115;3.8171;
1138.2000;0.1115;3.8145;
1138.5000;0.1123;3.8120;
1138.8000;0.1123;3.8145;
1139.1000;0.1009;3.7837;
1139.4000;0.1140;3.8197;
1139.7000;0.1131;3.8120;
1140.0000;0.1042;3.7940;
1140.3000;0.1164;3.8273;
1140.6000;0.1115;3.8273;
1140.9000;0.1140;3.8376;
1141.2000;0.1140;3.8299;
1141.5000;0.1148;3.8273;
1141.8000;0.1107;3.8068;
1142.1000;0.1091;3.8043;
1142.4000;0.1140;3.8171;
1142.7000;0.1115;3.8094;
1143.0000;0.1115;3.8094;
1143.3000;0.1099;3.8017;
1143.6000;0.1131;3.8145;
1143.9000;0.1050;3.7940;
1144.2000;0.1099;3.8094;
1144.5000;0.1172;3.8273;
1144.8000;0.1058;3.8017;
1145.1000;0.1197;3.8325;
1145.4000;0.1107;3.8197;
1145.7000;0.1115;3.8273;
1146.0000;0.1123;3.8325;
1146.3000;0.1148;3.8376;
1146.6000;0.1099;3.8222;
1146.9000;0.1123;3.8299;
1147.2000;0.1213;3.8479;
1147.5000;0.1140;3.8350;
1147.8000;0.1107;3.8325;
1148.1000;0.1131;3.8299;
1148.4000;0.1050;3.8171;
1148.7000;0.1107;3.8299;
1149.0000;0.1123;3.8222;
1149.3000;0.1123;3.8222;
1149.6000;0.1123;3.8222;
1149.9000;0.1131;3.8273;
1150.2000;0.1131;3.8299;
1150.5000;0.1131;3.8273;
1150.8000;0.1115;3.8248;
1151.1000;0.1123;3.8273;
1151.4000;0.1107;3.8248;
1151.7000;0.1123;3.8299;
1152.0000;0.1131;3.8402;
1152.3000;0.1115;3.8402;
1152.6000;0.1115;3.8402;
1152.9000;0.1115;3.8453;
1153.2000;0.1099;3.8427;
1153.5000;0.1131;3.8530;
1153.8000;0.1140;3.8556;
1154.1000;0.1099;3.8402;
1154.4000;0.1091;3.8376;
1154.7000;0.1099;3.8427;
1155.0000;0.1123;3.8530;
1155.3000;0.1091;3.8376;
1155.6000;0.1123;3.8350;
1155.9000;0.1107;3.8197;
1156.2000;0.1115;3.8248;
1156.5000;0.1123;3.8197;
1156.8000;0.1115;3.8094;
1157.1000;0.1156;3.8197;
1157.4000;0.1164;3.8248;
1157.7000;0.1123;3.8068;
1158.0000;0.1115;3.7991;
1158.3000;0.1107;3.7889;
1158.6000;0.1140;3.7991;
1158.9000;0.1115;3.7966;
1159.2000;0.1123;3.7940;
1159.5000;0.1123;3.7940;
1159.8000;0.1115;3.7940;
1160.1000;0.1099;3.7914;
1160.4000;0.1099;3.7837;
1160.7000;0.1123;3.7889;
1161.0000;0.1123;3.7889;
1161.3000;0.1148;3.8043;
1161.6000;0.1148;3.8120;
1161.9000;0.1123;3.8068;
1162.2000;0.1131;3.8043;
1162.5000;0.1148;3.8043;
1162.8000;0.1140;3.8068;
1163.1000;0.1115;3.8043;
1163.4000;0.1074;3.7914;
1163.7000;0.1123;3.7991;
1164.0000;0.1148;3.8145;
1164.3000;0.1148;3.8248;
1164.6000;0.1131;3.8171;
1164.9000;0.1066;3.8068;
1165.2000;0.1058;3.7991;
1165.5000;0.1099;3.8094;
1165.8000;0.1099;3.8145;
1166.1000;0.1140;3.8325;
1166.4000;0.1115;3.8273;
1166.7000;0.1099;3.8248;
1167.0000;0.1140;3.8350;
1167.3000;0.1107;3.8197;
1167.6000;0.1123;3.8273;
1167.9000;0.1115;3.8222;
1168.2000;0.1140;3.8248;
1168.5000;0.1140;3.8299;
1168.8000;0.1115;3.8197;
1169.1000;0.1148;3.8273;
1169.4000;0.1115;3.8248;
1169.7000;0.1074;3.8171;
1170.0000;0.1107;3.8376;
1170.3000;0.1148;3.8504;
1170.6000;0.1083;3.8350;
1170.9000;0.1099;3.8376;
1171.2000;0.1123;3.8402;
1171.5000;0.1123;3.8427;
1171.8000;0.1148;3.8427;
1172.1000;0.1140;3.8453;
1172.4000;0.1107;3.8299;
1172.7000;0.1123;3.8222;
1173.0000;0.1123;3.8325;
1173.3000;0.1123;3.8248;
1173.6000;0.1164;3.8350;
1173.9000;0.1099;3.8222;
1174.2000;0.1115;3.8273;
1174.5000;0.1140;3.8299;
1174.8000;0.1107;3.8222;
1175.1000;0.1091;3.8171;
1175.4000;0.1091;3.8068;
1175.7000;0.1131;3.8171;
1176.0000;0.1115;3.8120;
1176.3000;0.1107;3.8094;
1176.6000;0.1123;3.8068;
1176.9000;0.1115;3.8017;
1177.2000;0.1123;3.7991;
1177.5000;0.1123;3.7991;
1177.8000;0.1099;3.7966;
1178.1000;0.1140;3.8120;
1178.4000;0.1131;3.8197;
1178.7000;0.1131;3.8222;
1179.0000;0.1107;3.8248;
1179.3000;0.1131;3.8299;
1179.6000;0.1131;3.8248;
1179.9000;0.1123;3.8145;
1180.2000;0.1074;3.7889;
1180.5000;0.1123;3.8017;
1180.8000;0.1123;3.8120;
1181.1000;0.1115;3.8120;
1181.4000;0.1099;3.8120;
1181.7000;0.1107;3.8068;
1182.0000;0.1131;3.8068;
1182.3000;0.1091;3.7966;
1182.6000;0.1140;3.8171;
1182.9000;0.1115;3.8094;
1183.2000;0.1083;3.8017;
1183.5000;0.1115;3.8120;
1183.8000;0.1164;3.8325;
1184.1000;0.1099;3.8248;
1184.4000;0.1107;3.8325;
1184.7000;0.1131;3.8325;
1185.0000;0.1164;3.8350;
1185.3000;0.1099;3.8273;
1185.6000;0.1115;3.8273;
1185.9000;0.1131;3.8350;
1186.2000;0.1115;3.8248;
1186.5000;0.1115;3.8222;
1186.8000;0.1107;3.8273;
1187.1000;0.1123;3.8325;
1187.4000;0.1115;3.8350;
1187.7000;0.1123;3.8427;
1188.0000;0.1091;3.8325;
1188.3000;0.1131;3.8350;
1188.6000;0.1140;3.8376;
1188.9000;0.1131;3.8299;
1189.2000;0.1131;3.8299;
1189.5000;0.1123;3.8325;
1189.8000;0.1131;3.8350;
1190.1000;0.1115;3.8350;
1190.4000;0.1107;3.8350;
1190.7000;0.1123;3.8325;
1191.0000;0.1107;3.8350;
1191.3000;0.1107;3.8299;
1191.6000;0.1091;3.8273;
1191.9000;0.1123;3.8299;
1192.2000;0.1099;3.8197;
1192.5000;0.1131;3.8350;
1192.8000;0.1115;3.8350;
1193.1000;0.1083;3.8325;
1193.4000;0.1123;3.8427;
1193.7000;0.1123;3.8350;
1194.0000;0.1131;3.8325;
1194.3000;0.1066;3.8171;
1194.6000;0.1107;3.8325;
1194.9000;0.1115;3.8427;
1195.2000;0.1148;3.8530;
1195.5000;0.1131;3.8453;
1195.8000;0.1099;3.8299;
1196.1000;0.1131;3.8299;
1196.4000;0.1107;3.8171;
1196.7000;0.1123;3.8197;
1197.0000;0.1107;3.8043;
1197.3000;0.1115;3.8094;
1197.6000;0.1115;3.8043;
1197.9000;0.1115;3.8120;
1198.2000;0.1091;3.8094;
1198.5000;0.1123;3.8171;
1198.8000;0.1123;3.8145;
1199.1000;0.1131;3.8145;
1199.4000;0.1254;3.8658;
1199.7000;0.1123;3.8248;
1200.0000;0.1131;3.8273;
1200.3000;0.1091;3.8145;
1200.6000;0.1115;3.8197;
1200.9000;0.1107;3.8145;
1201.2000;0.1107;3.8120;
1201.5000;0.1115;3.8222;
1201.8000;0.1099;3.8171;
1202.1000;0.1099;3.8222;
1202.4000;0.1123;3.8325;
1202.7000;0.1001;3.8068;
1203.0000;0.1115;3.8427;
1203.3000;0.1131;3.8530;
1203.6000;0.1107;3.8376;
1203.9000;0.1115;3.8350;
1204.2000;0.1156;3.8453;
1204.5000;0.1099;3.8273;
1204.8000;0.1066;3.8248;
1205.1000;0.1131;3.8402;
1205.4000;0.1115;3.8350;
1205.7000;0.1107;3.8350;
1206.0000;0.1123;3.8402;
1206.3000;0.1115;3.8299;
1206.6000;0.1115;3.8350;
1206.9000;0.1115;3.8299;
1207.2000;0.1091;3.8145;
1207.5000;0.1131;3.8248;
1207.8000;0.1140;3.8325;
1208.1000;0.1115;3.8273;
1208.4000;0.1107;3.8273;
1208.7000;0.1107;3.8273;
1209.0000;0.1107;3.8273;
1209.3000;0.1123;3.8197;
1209.6000;0.1115;3.8197;
1209.9000;0.1123;3.8197;
1210.2000;0.1115;3.8171;
1210.5000;0.1074;3.8043;
1210.8000;0.1107;3.8222;
1211.1000;0.1107;3.8273;
1211.4000;0.1115;3.8325;
1211.7000;0.1107;3.8350;
1212.0000;0.1123;3.8299;
1212.3000;0.1099;3.8222;
1212.6000;0.1131;3.8222;
1212.9000;0.1107;3.8171;
1213.2000;0.1148;3.8273;
1213.5000;0.1107;3.8094;
1213.8000;0.1107;3.8120;
1214.1000;0.1115;3.8197;
1214.4000;0.1115;3.8145;
1214.7000;0.1115;3.8197;
1215.0000;0.1115;3.8197;
1215.3000;0.1172;3.8350;
1215.6000;0.1115;3.8222;
1215.9000;0.1123;3.8273;
1216.2000;0.1107;3.8299;
1216.5000;0.1115;3.8273;
1216.8000;0.1115;3.8273;
1217.1000;0.1115;3.8273;
1217.4000;0.1083;3.8171;
1217.7000;0.1091;3.8197;
1218.0000;0.1107;3.8145;
1218.3000;0.1115;3.8145;
1218.6000;0.1131;3.8248;
1218.9000;0.1115;3.8222;
1219.2000;0.1131;3.8350;
1219.5000;0.1131;3.8427;
1219.8000;0.1123;3.8427;
1220.1000;0.1123;3.8427;
1220.4000;0.1066;3.8222;
1220.7000;0.1115;3.8376;
1221.0000;0.1099;3.8325;
1221.3000;0.1107;3.8248;
1221.6000;0.1123;3.8248;
1221.9000;0.1123;3.8248;
1222.2000;0.1123;3.8299;
1222.5000;0.1099;3.8222;
1222.8000;0.1123;3.8273;
1223.1000;0.1107;3.8325;
1223.4000;0.1099;3.8222;
1223.7000;0.1107;3.8299;
1224.0000;0.1115;3.8197;
1224.3000;0.1131;3.8222;
1224.6000;0.1115;3.8145;
1224.9000;0.1115;3.8094;
1225.2000;0.1140;3.8120;
1225.5000;0.1107;3.8043;
1225.8000;0.1164;3.8171;
1226.1000;0.1131;3.8171;
1226.4000;0.1123;3.8171;
1226.7000;0.1115;3.8222;
1227.0000;0.1123;3.8222;
1227.3000;0.1107;3.8120;
1227.6000;0.1123;3.8171;
1227.9000;0.1099;3.8197;
1228.2000;0.1074;3.8145;
1228.5000;0.1123;3.8248;
1228.8000;0.1131;3.8248;
1229.1000;0.1115;3.8171;
1229.4000;0.1131;3.8299;
1229.7000;0.1107;3.8171;
1230.0000;0.1140;3.8197;
1230.3000;0.1115;3.8171;
1230.6000;0.1115;3.8171;
1230.9000;0.1197;3.8479;
1231.2000;0.1034;3.7991;
1231.5000;0.1123;3.8299;
1231.8000;0.1091;3.8145;
1232.1000;0.1164;3.8197;
1232.4000;0.1123;3.8171;
1232.7000;0.1099;3.8068;
1233.0000;0.1188;3.8350;
1233.3000;0.1107;3.8094;
1233.6000;0.1123;3.8171;
1233.9000;0.1058;3.7940;
1234.2000;0.1180;3.8325;
1234.5000;0.1123;3.8094;
1234.8000;0.1123;3.8068;
1235.1000;0.1115;3.8043;
1235.4000;0.1107;3.8043;
1235.7000;0.1001;3.7760;
1236.0000;0.1115;3.8017;
1236.3000;0.1156;3.8145;
1236.6000;0.1148;3.8120;
1236.9000;0.1083;3.7914;
1237.2000;0.0993;3.7504;
1237.5000;0.1107;3.7786;
1237.8000;0.1115;3.7812;
1238.1000;0.1115;3.7837;
1238.4000;0.1123;3.7940;
1238.7000;0.1123;3.7940;
1239.0000;0.1107;3.7863;
1239.3000;0.1099;3.7914;
1239.6000;0.1115;3.8043;
1239.9000;0.1115;3.7966;
1240.2000;0.1099;3.7940;
1240.5000;0.1123;3.8068;
1240.8000;0.1115;3.8043;
1241.1000;0.1107;3.8094;
1241.4000;0.1148;3.8222;
1241.7000;0.1148;3.8197;
1242.0000;0.1115;3.8068;
1242.3000;0.1123;3.8094;
1242.6000;0.1123;3.8094;
1242.9000;0.1131;3.8068;
1243.2000;0.1115;3.7991;
1243.5000;0.1107;3.8017;
1243.8000;0.1131;3.8068;
1244.1000;0.1107;3.7991;
1244.4000;0.1123;3.8017;
1244.7000;0.1115;3.8017;
1245.0000;0.1099;3.7966;
1245.3000;0.1131;3.8145;
1245.6000;0.1074;3.7966;
1245.9000;0.1123;3.8145;
1246.2000;0.1083;3.8017;
1246.5000;0.1107;3.8068;
1246.8000;0.1156;3.8120;
1247.1000;0.1131;3.7966;
1247.4000;0.1123;3.8043;
1247.7000;0.1115;3.8017;
1248.0000;0.1107;3.7914;
1248.3000;0.1099;3.7914;
1248.6000;0.1107;3.7889;
1248.9000;0.1156;3.8094;
1249.2000;0.1074;3.7889;
1249.5000;0.1091;3.7914;
1249.8000;0.1123;3.7991;
1250.1000;0.1034;3.7735;
1250.4000;0.1115;3.7889;
1250.7000;0.1156;3.8120;
1251.0000;0.1123;3.8017;
1251.3000;0.1099;3.8068;
1251.6000;0.1115;3.8197;
1251.9000;0.1107;3.8197;
1252.2000;0.1148;3.8273;
1252.5000;0.1115;3.8197;
1252.8000;0.1123;3.8197;
1253.1000;0.1123;3.8248;
1253.4000;0.1099;3.8145;
1253.7000;0.1083;3.8120;
1254.0000;0.1115;3.8145;
1254.3000;0.1107;3.8120;
1254.6000;0.1115;3.8171;
1254.9000;0.1107;3.8171;
1255.2000;0.1107;3.8197;
1255.5000;0.1107;3.8120;
1255.8000;0.1091;3.8017;
1256.1000;0.1115;3.8120;
1256.4000;0.1123;3.8171;
1256.7000;0.1058;3.7991;
1257.0000;0.1123;3.8120;
1257.3000;0.1115;3.8171;
1257.6000;0.1172;3.8376;
1257.9000;0.1074;3.8145;
1258.2000;0.1099;3.8171;
1258.5000;0.1140;3.8222;
1258.8000;0.1115;3.8145;
1259.1000;0.1115;3.8094;
1259.4000;0.1131;3.8120;
1259.7000;0.1115;3.8197;
1260.0000;0.1107;3.8171;
1260.3000;0.1115;3.8171;
1260.6000;0.1115;3.8222;
1260.9000;0.1115;3.8197;
1261.2000;0.1107;3.8120;
1261.5000;0.1115;3.8094;
1261.8000;0.1107;3.8145;
1262.1000;0.1066;3.8068;
1262.4000;0.1115;3.8145;
1262.7000;0.1131;3.8222;
1263.0000;0.1148;3.8248;
1263.3000;0.1058;3.7940;
1263.6000;0.1107;3.8068;
1263.9000;0.1099;3.8068;
1264.2000;0.1107;3.8171;
1264.5000;0.1115;3.8171;
1264.8000;0.1131;3.8222;
1265.1000;0.1107;3.8197;
1265.4000;0.1066;3.8197;
1265.7000;0.1131;3.8402;
1266.0000;0.1148;3.8273;
1266.3000;0.1115;3.8222;
1266.6000;0.1164;3.8376;
1266.9000;0.1140;3.8350;
1267.2000;0.1140;3.8325;
1267.5000;0.1107;3.8273;
1267.8000;0.1123;3.8248;
1268.1000;0.1140;3.8222;
1268.4000;0.1058;3.7991;
1268.7000;0.1123;3.8171;
1269.0000;0.1131;3.8171;
1269.3000;0.1123;3.8094;
1269.6000;0.1180;3.8273;
1269.9000;0.1123;3.8094;
1270.2000;0.1099;3.8145;
1270.5000;0.1123;3.8325;
1270.8000;0.1107;3.8350;
1271.1000;0.1099;3.8273;
1271.4000;0.1042;3.8043;
1271.7000;0.1107;3.8171;
1272.0000;0.1083;3.8068;
1272.3000;0.1115;3.8222;
1272.6000;0.1042;3.8017;
1272.9000;0.1066;3.8197;
1273.2000;0.1042;3.8222;
1273.5000;0.1123;3.8427;
1273.8000;0.1107;3.8350;
1274.1000;0.1107;3.8376;
1274.4000;0.1245;3.8838;
1274.7000;0.1123;3.8453;
1275.0000;0.1123;3.8376;
1275.3000;0.1115;3.8299;
1275.6000;0.1123;3.8248;
1275.9000;0.1091;3.8248;
1276.2000;0.1123;3.8427;
1276.5000;0.1074;3.8299;
1276.8000;0.1099;3.8325;
1277.1000;0.1026;3.8043;
1277.4000;0.1115;3.8222;
1277.7000;0.1083;3.8094;
1278.0000;0.1131;3.8171;
1278.3000;0.1066;3.7991;
1278.6000;0.1115;3.8120;
1278.9000;0.1099;3.8043;
1279.2000;0.1034;3.7889;
1279.5000;0.1107;3.8120;
1279.8000;0.1164;3.8350;
1280.1000;0.1083;3.8068;
1280.4000;0.1099;3.8068;
1280.7000;0.1107;3.8068;
1281.0000;0.1107;3.8043;
1281.3000;0.1083;3.8043;
1281.6000;0.1115;3.8171;
1281.9000;0.1115;3.8248;
1282.2000;0.1205;3.8581;
1282.5000;0.1115;3.8376;
1282.8000;0.1083;3.8248;
1283.1000;0.1140;3.8299;
1283.4000;0.1123;3.8273;
1283.7000;0.1123;3.8273;
1284.0000;0.1123;3.8273;
1284.3000;0.1107;3.8222;
1284.6000;0.1123;3.8299;
1284.9000;0.1148;3.8273;
1285.2000;0.1099;3.8120;
1285.5000;0.1115;3.8171;
1285.8000;0.1115;3.8145;
1286.1000;0.1115;3.8120;
1286.4000;0.1123;3.8120;
1286.7000;0.1115;3.8145;
1287.0000;0.1107;3.8171;
1287.3000;0.1107;3.8094;
1287.6000;0.1131;3.8171;
1287.9000;0.1123;3.8222;
1288.2000;0.1099;3.8094;
1288.5000;0.1131;3.8171;
1288.8000;0.1107;3.8043;
1289.1000;0.1115;3.8120;
1289.4000;0.1034;3.7837;
1289.7000;0.1115;3.8043;
1290.0000;0.1115;3.8068;
1290.3000;0.1107;3.8068;
1290.6000;0.1099;3.8197;
1290.9000;0.1148;3.8299;
1291.2000;0.1131;3.8222;
1291.5000;0.1115;3.8222;
1291.8000;0.1099;3.8197;
1292.1000;0.1091;3.8222;
1292.4000;0.1099;3.8222;
1292.7000;0.1140;3.8299;
1293.0000;0.1115;3.8222;
1293.3000;0.1123;3.8273;
1293.6000;0.1115;3.8299;
1293.9000;0.1107;3.8350;
1294.2000;0.1107;3.8350;
1294.5000;0.1115;3.8273;
1294.8000;0.1123;3.8273;
1295.1000;0.1123;3.8299;
1295.4000;0.1172;3.8453;
1295.7000;0.1131;3.8299;
1296.0000;0.1115;3.8248;
1296.3000;0.1123;3.8299;
1296.6000;0.1123;3.8248;
1296.9000;0.1115;3.8222;
1297.2000;0.1164;3.8350;
1297.5000;0.1066;3.8145;
1297.8000;0.1115;3.8248;
1298.1000;0.1074;3.8171;
1298.4000;0.1050;3.8120;
1298.7000;0.1123;3.8248;
1299.0000;0.1156;3.8248;
1299.3000;0.1107;3.8197;
1299.6000;0.1131;3.8299;
1299.9000;0.1091;3.8222;
1300.2000;0.1050;3.8145;
1300.5000;0.1107;3.8222;
1300.8000;0.1131;3.8299;
1301.1000;0.1091;3.8197;
1301.4000;0.1066;3.8145;
1301.7000;0.1123;3.8350;
1302.0000;0.1115;3.8402;
1302.3000;0.1091;3.8376;
1302.6000;0.1115;3.8350;
1302.9000;0.1099;3.8350;
1303.2000;0.1107;3.8350;
1303.5000;0.1131;3.8376;
1303.8000;0.1123;3.8376;
1304.1000;0.1115;3.8325;
1304.4000;0.1115;3.8402;
1304.7000;0.1115;3.8427;
1305.0000;0.1115;3.8402;
1305.3000;0.1148;3.8402;
1305.6000;0.1123;3.8427;
1305.9000;0.1107;3.8453;
1306.2000;0.1091;3.8427;
1306.5000;0.1099;3.8427;
1306.8000;0.1115;3.8427;
1307.1000;0.1099;3.8325;
1307.4000;0.1115;3.8350;
1307.7000;0.1099;3.8273;
1308.0000;0.1107;3.8325;
1308.3000;0.1156;3.8453;
1308.6000;0.1107;3.8504;
1308.9000;0.1107;3.8427;
1309.2000;0.1131;3.8479;
1309.5000;0.1123;3.8453;
1309.8000;0.1115;3.8376;
1310.1000;0.1091;3.8299;
1310.4000;0.1148;3.8453;
1310.7000;0.1123;3.8325;
1311.0000;0.1148;3.8427;
1311.3000;0.1115;3.8402;
1311.6000;0.1107;3.8273;
1311.9000;0.1115;3.8273;
1312.2000;0.1099;3.8171;
1312.5000;0.1099;3.8120;
1312.8000;0.1107;3.8068;
1313.1000;0.1107;3.8145;
1313.4000;0.1115;3.8171;
1313.7000;0.1131;3.8197;
1314.0000;0.1131;3.8197;
1314.3000;0.1115;3.8145;
1314.6000;0.1115;3.8145;
1314.9000;0.1123;3.8197;
1315.2000;0.1107;3.8273;
1315.5000;0.1115;3.8299;
1315.8000;0.1115;3.8325;
1316.1000;0.1172;3.8530;
1316.4000;0.1058;3.8145;
1316.7000;0.1074;3.8145;
1317.0000;0.1107;3.8171;
1317.3000;0.1140;3.8120;
1317.6000;0.1083;3.8068;
1317.9000;0.1172;3.8299;
1318.2000;0.1107;3.8145;
1318.5000;0.1091;3.8094;
1318.8000;0.1107;3.8145;
1319.1000;0.1115;3.8145;
1319.4000;0.1074;3.8094;
1319.7000;0.1115;3.8248;
1320.0000;0.1042;3.8043;
1320.3000;0.1107;3.8094;
1320.6000;0.1107;3.8094;
1320.9000;0.1099;3.8043;
1321.2000;0.1034;3.7863;
1321.5000;0.1107;3.7991;
1321.8000;0.1107;3.8017;
1322.1000;0.1107;3.8068;
1322.4000;0.1107;3.8043;
1322.7000;0.1083;3.7991;
1323.0000;0.1074;3.7991;
1323.3000;0.1131;3.8145;
1323.6000;0.1123;3.8094;
1323.9000;0.1115;3.8094;
1324.2000;0.1074;3.8017;
1324.5000;0.1091;3.8094;
1324.8000;0.1083;3.8043;
1325.1000;0.1131;3.8145;
1325.4000;0.1131;3.8120;
1325.7000;0.1172;3.8171;
1326.0000;0.1148;3.8120;
1326.3000;0.1123;3.8094;
1326.6000;0.1164;3.8197;
1326.9000;0.1180;3.8197;
1327.2000;0.1009;3.7760;
1327.5000;0.1140;3.8145;
1327.8000;0.1091;3.8120;
1328.1000;0.1107;3.8248;
1328.4000;0.1099;3.8248;
1328.7000;0.1123;3.8248;
1329.0000;0.1091;3.8145;
1329.3000;0.1099;3.8222;
1329.6000;0.1131;3.8197;
1329.9000;0.1131;3.8248;
1330.2000;0.1197;3.8325;
1330.5000;0.1083;3.8068;
1330.8000;0.1115;3.8197;
1331.1000;0.1123;3.8171;
1331.4000;0.1083;3.8145;
1331.7000;0.1107;3.8171;
1332.0000;0.1131;3.8222;
1332.3000;0.1107;3.8222;
1332.6000;0.1115;3.8273;
1332.9000;0.1123;3.8273;
1333.2000;0.1131;3.8299;
1333.5000;0.1115;3.8248;
1333.8000;0.1123;3.8273;
1334.1000;0.1107;3.8222;
1334.4000;0.1115;3.8197;
1334.7000;0.1140;3.8273;
1335.0000;0.1115;3.8197;
1335.3000;0.1058;3.8120;
1335.6000;0.1115;3.8273;
1335.9000;0.1107;3.8248;
1336.2000;0.1123;3.8299;
1336.5000;0.1115;3.8248;
1336.8000;0.1131;3.8197;
1337.1000;0.1123;3.8222;
1337.4000;0.1148;3.8376;
1337.7000;0.1123;3.8350;
1338.0000;0.1107;3.8376;
1338.3000;0.1156;3.8453;
1338.6000;0.1107;3.8350;
1338.9000;0.1188;3.8633;
1339.2000;0.1099;3.8350;
1339.5000;0.1091;3.8299;
1339.8000;0.1107;3.8350;
1340.1000;0.1115;3.8376;
1340.4000;0.1156;3.8504;
1340.7000;0.1091;3.8299;
1341.0000;0.1131;3.8402;
1341.3000;0.1131;3.8376;
1341.6000;0.1131;3.8325;
1341.9000;0.1091;3.8197;
1342.2000;0.1107;3.8222;
1342.5000;0.1140;3.8325;
1342.8000;0.1131;3.8376;
1343.1000;0.1123;3.8402;
1343.4000;0.1213;3.8658;
1343.7000;0.1123;3.8453;
1344.0000;0.1115;3.8453;
1344.3000;0.1172;3.8556;
1344.6000;0.1131;3.8350;
1344.9000;0.1131;3.8402;
1345.2000;0.1099;3.8402;
1345.5000;0.1123;3.8402;
1345.8000;0.1115;3.8427;
1346.1000;0.1050;3.8145;
1346.4000;0.1107;3.8248;
1346.7000;0.1131;3.8222;
1347.0000;0.1172;3.8299;
1347.3000;0.1083;3.8043;
1347.6000;0.1107;3.8120;
1347.9000;0.1099;3.8197;
1348.2000;0.1074;3.8043;
1348.5000;0.1099;3.8043;
1348.8000;0.1107;3.7991;
1349.1000;0.1091;3.8043;
1349.4000;0.1099;3.8094;
1349.7000;0.1115;3.8043;
1350.0000;0.1091;3.7966;
1350.3000;0.1123;3.8017;
1350.6000;0.1115;3.7991;
1350.9000;0.1115;3.8043;
1351.2000;0.1107;3.8094;
1351.5000;0.1115;3.8017;
1351.8000;0.1018;3.7837;
1352.1000;0.1131;3.8120;
1352.4000;0.1131;3.8171;
1352.7000;0.1107;3.8171;
1353.0000;0.1107;3.8120;
1353.3000;0.1091;3.8017;
1353.6000;0.1115;3.8094;
1353.9000;0.1131;3.8222;
1354.2000;0.1123;3.8248;
1354.5000;0.1099;3.8197;
1354.8000;0.1042;3.8043;
1355.1000;0.1099;3.8197;
1355.4000;0.1115;3.8197;
1355.7000;0.1115;3.8197;
1356.0000;0.1107;3.8171;
1356.3000;0.1099;3.8017;
1356.6000;0.1091;3.7991;
1356.9000;0.1148;3.8094;
1357.2000;0.1115;3.8043;
1357.5000;0.1107;3.8017;
1357.8000;0.1115;3.7991;
1358.1000;0.1083;3.8043;
1358.4000;0.1123;3.8171;
1358.7000;0.1099;3.8145;
1359.0000;0.1099;3.8094;
1359.3000;0.1115;3.8171;
1359.6000;0.1148;3.8171;
1359.9000;0.1172;3.8068;
1360.2000;0.1115;3.7863;
1360.5000;0.1123;3.7889;
1360.8000;0.1115;3.7889;
1361.1000;0.1131;3.7940;
1361.4000;0.1115;3.7940;
1361.7000;0.1197;3.8197;
1362.0000;0.1107;3.7914;
1362.3000;0.1131;3.8094;
1362.6000;0.1115;3.7991;
1362.9000;0.1188;3.8120;
1363.2000;0.1131;3.7940;
1363.5000;0.1107;3.7966;
1363.8000;0.1115;3.7991;
1364.1000;0.1107;3.8043;
1364.4000;0.1131;3.8068;
1364.7000;0.1107;3.8068;
1365.0000;0.1091;3.8043;
1365.3000;0.1123;3.8043;
1365.6000;0.1115;3.8017;
1365.9000;0.1091;3.7889;
1366.2000;0.1140;3.8043;
1366.5000;0.1074;3.7940;
1366.8000;0.1131;3.8197;
1367.1000;0.1099;3.8120;
1367.4000;0.1148;3.8197;
1367.7000;0.1115;3.8171;
1368.0000;0.1140;3.8248;
1368.3000;0.1164;3.8350;
1368.6000;0.1123;3.8248;
1368.9000;0.1131;3.8248;
1369.2000;0.1091;3.8120;
1369.5000;0.1066;3.8043;
1369.8000;0.1091;3.8120;
1370.1000;0.1050;3.8068;
1370.4000;0.1099;3.8145;
1370.7000;0.1107;3.8222;
1371.0000;0.1148;3.8350;
1371.3000;0.1140;3.8273;
1371.6000;0.1107;3.8171;
1371.9000;0.1115;3.8248;
1372.2000;0.1099;3.8120;
1372.5000;0.1107;3.8120;
1372.8000;0.1115;3.8094;
1373.1000;0.1140;3.8068;
1373.4000;0.1115;3.8043;
1373.7000;0.1123;3.8094;
1374.0000;0.1123;3.8120;
1374.3000;0.1083;3.7940;
1374.6000;0.1131;3.8171;
1374.9000;0.1123;3.8248;
1375.2000;0.1115;3.8197;
1375.5000;0.1058;3.8043;
1375.8000;0.1091;3.8145;
1376.1000;0.1131;3.8222;
1376.4000;0.1099;3.8171;
1376.7000;0.1115;3.8145;
1377.0000;0.1115;3.8171;
1377.3000;0.1188;3.8325;
1377.6000;0.1148;3.8171;
1377.9000;0.1091;3.8017;
1378.2000;0.1107;3.8145;
1378.5000;0.1123;3.8120;
1378.8000;0.1123;3.8043;
1379.1000;0.1115;3.7991;
1379.4000;0.1107;3.8017;
1379.7000;0.1107;3.8120;
1380.0000;0.1123;3.8222;
1380.3000;0.1131;3.8197;
1380.6000;0.1115;3.8120;
1380.9000;0.1123;3.8222;
1381.2000;0.1131;3.8248;
1381.5000;0.1115;3.8145;
1381.8000;0.1115;3.8171;
1382.1000;0.1107;3.8120;
1382.4000;0.1140;3.8145;
1382.7000;0.1107;3.8068;
1383.0000;0.1074;3.7940;
1383.3000;0.1091;3.8043;
1383.6000;0.1115;3.8145;
1383.9000;0.1107;3.8145;
1384.2000;0.1123;3.8248;
1384.5000;0.1115;3.8273;
1384.8000;0.1115;3.8273;
1385.1000;0.1115;3.8299;
1385.4000;0.1091;3.8248;
1385.7000;0.1074;3.8197;
1386.0000;0.1115;3.8402;
1386.3000;0.1099;3.8350;
1386.6000;0.1099;3.8350;
1386.9000;0.1091;3.8273;
1387.2000;0.1115;3.8248;
1387.5000;0.1115;3.8299;
1387.8000;0.1115;3.8273;
1388.1000;0.1115;3.8325;
1388.4000;0.1107;3.8350;
1388.7000;0.1131;3.8427;
1389.0000;0.1115;3.8273;
1389.3000;0.1131;3.8299;
1389.6000;0.1107;3.8299;
1389.9000;0.1131;3.8402;
1390.2000;0.1099;3.8273;
1390.5000;0.1099;3.8325;
1390.8000;0.1107;3.8273;
1391.1000;0.1107;3.8222;
1391.4000;0.1115;3.8248;
1391.7000;0.1115;3.8094;
1392.0000;0.1001;3.7812;
1392.3000;0.1115;3.8094;
1392.6000;0.1123;3.8068;
1392.9000;0.1115;3.8145;
1393.2000;0.1115;3.8068;
1393.5000;0.1131;3.8197;
1393.8000;0.1115;3.8094;
1394.1000;0.1131;3.8197;
1394.4000;0.1123;3.8145;
1394.7000;0.1140;3.8171;
1395.0000;0.1123;3.8171;
1395.3000;0.1123;3.8171;
1395.6000;0.1123;3.8171;
1395.9000;0.1131;3.8120;
1396.2000;0.1123;3.8120;
1396.5000;0.1083;3.8043;
1396.8000;0.1123;3.8120;
1397.1000;0.1099;3.8094;
1397.4000;0.1091;3.8068;
1397.7000;0.1123;3.8171;
1398.0000;0.1107;3.7991;
1398.3000;0.1123;3.8120;
1398.6000;0.1115;3.8171;
1398.9000;0.1131;3.8145;
1399.2000;0.1123;3.8171;
1399.5000;0.1115;3.8248;
1399.8000;0.1123;3.8299;
