time/ms;Fluo/V;P700 deltaI/I x10³;
-199.8000;0.1278;3.8658;
-199.5000;0.1302;3.8633;
-199.2000;0.1311;3.8710;
-198.9000;0.1311;3.8658;
-198.6000;0.1302;3.8710;
-198.3000;0.1294;3.8684;
-198.0000;0.1286;3.8607;
-197.7000;0.1311;3.8581;
-197.4000;0.1294;3.8530;
-197.1000;0.1327;3.8633;
-196.8000;0.1319;3.8658;
-196.5000;0.1302;3.8684;
-196.2000;0.1319;3.8684;
-195.9000;0.1311;3.8633;
-195.6000;0.1311;3.8710;
-195.3000;0.1278;3.8607;
-195.0000;0.1302;3.8633;
-194.7000;0.1294;3.8658;
-194.4000;0.1302;3.8710;
-194.1000;0.1319;3.8684;
-193.8000;0.1294;3.8479;
-193.5000;0.1302;3.8479;
-193.2000;0.1294;3.8402;
-192.9000;0.1327;3.8479;
-192.6000;0.1294;3.8376;
-192.3000;0.1302;3.8479;
-192.0000;0.1343;3.8684;
-191.7000;0.1302;3.8504;
-191.4000;0.1311;3.8479;
-191.1000;0.1343;3.8581;
-190.8000;0.1294;3.8530;
-190.5000;0.1302;3.8504;
-190.2000;0.1294;3.8402;
-189.9000;0.1262;3.8248;
-189.6000;0.1311;3.8453;
-189.3000;0.1319;3.8479;
-189.0000;0.1286;3.8325;
-188.7000;0.1302;3.8350;
-188.4000;0.1294;3.8325;
-188.1000;0.1343;3.8504;
-187.8000;0.1359;3.8607;
-187.5000;0.1278;3.8350;
-187.2000;0.1294;3.8479;
-186.9000;0.1327;3.8633;
-186.6000;0.1180;3.8197;
-186.3000;0.1302;3.8530;
-186.0000;0.1286;3.8530;
-185.7000;0.1262;3.8350;
-185.4000;0.1302;3.8453;
-185.1000;0.1278;3.8402;
-184.8000;0.1311;3.8581;
-184.5000;0.1286;3.8504;
-184.2000;0.1319;3.8479;
-183.9000;0.1351;3.8581;
-183.6000;0.1311;3.8376;
-183.3000;0.1302;3.8376;
-183.0000;0.1286;3.8325;
-182.7000;0.1311;3.8427;
-182.4000;0.1286;3.8350;
-182.1000;0.1270;3.8350;
-181.8000;0.1343;3.8633;
-181.5000;0.1302;3.8581;
-181.2000;0.1270;3.8530;
-180.9000;0.1286;3.8402;
-180.6000;0.1302;3.8427;
-180.3000;0.1311;3.8402;
-180.0000;0.1205;3.8068;
-179.7000;0.1286;3.8376;
-179.4000;0.1302;3.8427;
-179.1000;0.1294;3.8402;
-178.8000;0.1278;3.8402;
-178.5000;0.1302;3.8376;
-178.2000;0.1302;3.8427;
-177.9000;0.1311;3.8453;
-177.6000;0.1335;3.8479;
-177.3000;0.1270;3.8402;
-177.0000;0.1343;3.8530;
-176.7000;0.1327;3.8453;
-176.4000;0.1286;3.8427;
-176.1000;0.1311;3.8402;
-175.8000;0.1302;3.8427;
-175.5000;0.1368;3.8633;
-175.2000;0.1302;3.8504;
-174.9000;0.1311;3.8530;
-174.6000;0.1343;3.8710;
-174.3000;0.1221;3.8479;
-174.0000;0.1335;3.8735;
-173.7000;0.1278;3.8581;
-173.4000;0.1359;3.8838;
-173.1000;0.1294;3.8684;
-172.8000;0.1302;3.8761;
-172.5000;0.1311;3.8812;
-172.2000;0.1294;3.8735;
-171.9000;0.1311;3.8710;
-171.6000;0.1311;3.8658;
-171.3000;0.1311;3.8607;
-171.0000;0.1294;3.8633;
-170.7000;0.1311;3.8658;
-170.4000;0.1302;3.8710;
-170.1000;0.1311;3.8735;
-169.8000;0.1319;3.8812;
-169.5000;0.1302;3.8735;
-169.2000;0.1319;3.8787;
-168.9000;0.1311;3.8863;
-168.6000;0.1254;3.8607;
-168.3000;0.1286;3.8735;
-168.0000;0.1311;3.8735;
-167.7000;0.1376;3.8940;
-167.4000;0.1302;3.8684;
-167.1000;0.1286;3.8607;
-166.8000;0.1302;3.8607;
-166.5000;0.1254;3.8556;
-166.2000;0.1245;3.8581;
-165.9000;0.1351;3.8787;
-165.6000;0.1302;3.8556;
-165.3000;0.1302;3.8581;
-165.0000;0.1245;3.8479;
-164.7000;0.1294;3.8607;
-164.4000;0.1294;3.8581;
-164.1000;0.1343;3.8761;
-163.8000;0.1335;3.8761;
-163.5000;0.1237;3.8453;
-163.2000;0.1311;3.8607;
-162.9000;0.1278;3.8530;
-162.6000;0.1327;3.8658;
-162.3000;0.1294;3.8761;
-162.0000;0.1294;3.8710;
-161.7000;0.1294;3.8735;
-161.4000;0.1262;3.8607;
-161.1000;0.1327;3.8684;
-160.8000;0.1359;3.8684;
-160.5000;0.1294;3.8556;
-160.2000;0.1319;3.8581;
-159.9000;0.1302;3.8556;
-159.6000;0.1302;3.8633;
-159.3000;0.1302;3.8633;
-159.0000;0.1319;3.8607;
-158.7000;0.1302;3.8607;
-158.4000;0.1327;3.8658;
-158.1000;0.1319;3.8633;
-157.8000;0.1294;3.8581;
-157.5000;0.1302;3.8556;
-157.2000;0.1302;3.8581;
-156.9000;0.1327;3.8530;
-156.6000;0.1351;3.8633;
-156.3000;0.1286;3.8581;
-156.0000;0.1294;3.8581;
-155.7000;0.1294;3.8684;
-155.4000;0.1286;3.8607;
-155.1000;0.1294;3.8530;
-154.8000;0.1286;3.8530;
-154.5000;0.1294;3.8504;
-154.2000;0.1343;3.8633;
-153.9000;0.1302;3.8504;
-153.6000;0.1311;3.8556;
-153.3000;0.1384;3.8735;
-153.0000;0.1286;3.8556;
-152.7000;0.1294;3.8607;
-152.4000;0.1319;3.8607;
-152.1000;0.1221;3.8376;
-151.8000;0.1376;3.8812;
-151.5000;0.1294;3.8530;
-151.2000;0.1302;3.8504;
-150.9000;0.1311;3.8530;
-150.6000;0.1294;3.8530;
-150.3000;0.1302;3.8504;
-150.0000;0.1278;3.8479;
-149.7000;0.1286;3.8453;
-149.4000;0.1302;3.8376;
-149.1000;0.1302;3.8402;
-148.8000;0.1319;3.8453;
-148.5000;0.1302;3.8402;
-148.2000;0.1311;3.8376;
-147.9000;0.1319;3.8427;
-147.6000;0.1319;3.8402;
-147.3000;0.1294;3.8350;
-147.0000;0.1311;3.8273;
-146.7000;0.1302;3.8222;
-146.4000;0.1294;3.8197;
-146.1000;0.1294;3.8248;
-145.8000;0.1270;3.8222;
-145.5000;0.1302;3.8299;
-145.2000;0.1286;3.8248;
-144.9000;0.1221;3.8068;
-144.6000;0.1294;3.8325;
-144.3000;0.1278;3.8248;
-144.0000;0.1302;3.8376;
-143.7000;0.1311;3.8479;
-143.4000;0.1311;3.8530;
-143.1000;0.1319;3.8556;
-142.8000;0.1262;3.8350;
-142.5000;0.1270;3.8325;
-142.2000;0.1319;3.8376;
-141.9000;0.1286;3.8350;
-141.6000;0.1319;3.8427;
-141.3000;0.1335;3.8427;
-141.0000;0.1286;3.8402;
-140.7000;0.1335;3.8479;
-140.4000;0.1270;3.8376;
-140.1000;0.1319;3.8504;
-139.8000;0.1286;3.8453;
-139.5000;0.1294;3.8504;
-139.2000;0.1294;3.8427;
-138.9000;0.1311;3.8479;
-138.6000;0.1286;3.8402;
-138.3000;0.1311;3.8556;
-138.0000;0.1311;3.8581;
-137.7000;0.1335;3.8658;
-137.4000;0.1294;3.8556;
-137.1000;0.1319;3.8633;
-136.8000;0.1254;3.8504;
-136.5000;0.1319;3.8556;
-136.2000;0.1286;3.8453;
-135.9000;0.1254;3.8350;
-135.6000;0.1294;3.8556;
-135.3000;0.1286;3.8530;
-135.0000;0.1294;3.8504;
-134.7000;0.1294;3.8479;
-134.4000;0.1245;3.8376;
-134.1000;0.1278;3.8530;
-133.8000;0.1302;3.8607;
-133.5000;0.1294;3.8710;
-133.2000;0.1302;3.8735;
-132.9000;0.1302;3.8658;
-132.6000;0.1368;3.8761;
-132.3000;0.1335;3.8684;
-132.0000;0.1278;3.8504;
-131.7000;0.1368;3.8735;
-131.4000;0.1392;3.8735;
-131.1000;0.1319;3.8530;
-130.8000;0.1327;3.8658;
-130.5000;0.1302;3.8607;
-130.2000;0.1302;3.8504;
-129.9000;0.1286;3.8556;
-129.6000;0.1302;3.8607;
-129.3000;0.1294;3.8633;
-129.0000;0.1262;3.8556;
-128.7000;0.1302;3.8658;
-128.4000;0.1286;3.8658;
-128.1000;0.1302;3.8684;
-127.8000;0.1311;3.8658;
-127.5000;0.1302;3.8658;
-127.2000;0.1294;3.8633;
-126.9000;0.1319;3.8633;
-126.6000;0.1294;3.8607;
-126.3000;0.1278;3.8581;
-126.0000;0.1302;3.8607;
-125.7000;0.1278;3.8633;
-125.4000;0.1270;3.8658;
-125.1000;0.1270;3.8504;
-124.8000;0.1294;3.8556;
-124.5000;0.1302;3.8504;
-124.2000;0.1286;3.8504;
-123.9000;0.1311;3.8633;
-123.6000;0.1294;3.8530;
-123.3000;0.1302;3.8530;
-123.0000;0.1286;3.8504;
-122.7000;0.1302;3.8530;
-122.4000;0.1294;3.8581;
-122.1000;0.1302;3.8556;
-121.8000;0.1302;3.8556;
-121.5000;0.1311;3.8607;
-121.2000;0.1319;3.8633;
-120.9000;0.1294;3.8556;
-120.6000;0.1319;3.8684;
-120.3000;0.1237;3.8530;
-120.0000;0.1319;3.8761;
-119.7000;0.1278;3.8581;
-119.4000;0.1359;3.8787;
-119.1000;0.1286;3.8479;
-118.8000;0.1319;3.8504;
-118.5000;0.1335;3.8427;
-118.2000;0.1294;3.8376;
-117.9000;0.1311;3.8479;
-117.6000;0.1311;3.8530;
-117.3000;0.1311;3.8556;
-117.0000;0.1294;3.8504;
-116.7000;0.1286;3.8402;
-116.4000;0.1302;3.8504;
-116.1000;0.1294;3.8479;
-115.8000;0.1286;3.8607;
-115.5000;0.1351;3.8889;
-115.2000;0.1302;3.8710;
-114.9000;0.1311;3.8684;
-114.6000;0.1302;3.8684;
-114.3000;0.1278;3.8633;
-114.0000;0.1319;3.8761;
-113.7000;0.1311;3.8761;
-113.4000;0.1294;3.8633;
-113.1000;0.1286;3.8581;
-112.8000;0.1286;3.8556;
-112.5000;0.1311;3.8556;
-112.2000;0.1311;3.8556;
-111.9000;0.1294;3.8453;
-111.6000;0.1319;3.8453;
-111.3000;0.1327;3.8402;
-111.0000;0.1319;3.8427;
-110.7000;0.1302;3.8427;
-110.4000;0.1311;3.8504;
-110.1000;0.1286;3.8376;
-109.8000;0.1359;3.8607;
-109.5000;0.1319;3.8453;
-109.2000;0.1286;3.8479;
-108.9000;0.1286;3.8453;
-108.6000;0.1335;3.8581;
-108.3000;0.1262;3.8325;
-108.0000;0.1294;3.8427;
-107.7000;0.1294;3.8427;
-107.4000;0.1294;3.8402;
-107.1000;0.1311;3.8479;
-106.8000;0.1254;3.8325;
-106.5000;0.1286;3.8427;
-106.2000;0.1294;3.8479;
-105.9000;0.1294;3.8402;
-105.6000;0.1311;3.8479;
-105.3000;0.1278;3.8376;
-105.0000;0.1335;3.8479;
-104.7000;0.1294;3.8427;
-104.4000;0.1302;3.8427;
-104.1000;0.1262;3.8350;
-103.8000;0.1262;3.8350;
-103.5000;0.1294;3.8504;
-103.2000;0.1319;3.8633;
-102.9000;0.1302;3.8607;
-102.6000;0.1278;3.8607;
-102.3000;0.1294;3.8710;
-102.0000;0.1311;3.8633;
-101.7000;0.1302;3.8556;
-101.4000;0.1286;3.8581;
-101.1000;0.1294;3.8556;
-100.8000;0.1343;3.8607;
-100.5000;0.1351;3.8684;
-100.2000;0.1302;3.8581;
-99.9000;0.1327;3.8607;
-99.6000;0.1262;3.8402;
-99.3000;0.1302;3.8479;
-99.0000;0.1294;3.8556;
-98.7000;0.1221;3.8273;
-98.4000;0.1294;3.8479;
-98.1000;0.1294;3.8530;
-97.8000;0.1294;3.8581;
-97.5000;0.1302;3.8607;
-97.2000;0.1254;3.8427;
-96.9000;0.1302;3.8530;
-96.6000;0.1311;3.8607;
-96.3000;0.1302;3.8633;
-96.0000;0.1343;3.8735;
-95.7000;0.1294;3.8633;
-95.4000;0.1286;3.8607;
-95.1000;0.1286;3.8633;
-94.8000;0.1286;3.8581;
-94.5000;0.1302;3.8633;
-94.2000;0.1311;3.8710;
-93.9000;0.1286;3.8504;
-93.6000;0.1286;3.8479;
-93.3000;0.1294;3.8504;
-93.0000;0.1376;3.8684;
-92.7000;0.1319;3.8556;
-92.4000;0.1311;3.8556;
-92.1000;0.1319;3.8556;
-91.8000;0.1319;3.8530;
-91.5000;0.1262;3.8273;
-91.2000;0.1294;3.8376;
-90.9000;0.1302;3.8479;
-90.6000;0.1302;3.8530;
-90.3000;0.1319;3.8556;
-90.0000;0.1311;3.8581;
-89.7000;0.1286;3.8453;
-89.4000;0.1311;3.8530;
-89.1000;0.1302;3.8556;
-88.8000;0.1294;3.8556;
-88.5000;0.1294;3.8504;
-88.2000;0.1311;3.8581;
-87.9000;0.1294;3.8581;
-87.6000;0.1319;3.8581;
-87.3000;0.1302;3.8530;
-87.0000;0.1311;3.8633;
-86.7000;0.1286;3.8581;
-86.4000;0.1294;3.8556;
-86.1000;0.1286;3.8453;
-85.8000;0.1294;3.8453;
-85.5000;0.1311;3.8504;
-85.2000;0.1270;3.8402;
-84.9000;0.1294;3.8556;
-84.6000;0.1311;3.8607;
-84.3000;0.1327;3.8658;
-84.0000;0.1319;3.8607;
-83.7000;0.1278;3.8402;
-83.4000;0.1335;3.8556;
-83.1000;0.1351;3.8581;
-82.8000;0.1343;3.8633;
-82.5000;0.1302;3.8607;
-82.2000;0.1270;3.8530;
-81.9000;0.1302;3.8710;
-81.6000;0.1302;3.8658;
-81.3000;0.1311;3.8581;
-81.0000;0.1302;3.8530;
-80.7000;0.1311;3.8504;
-80.4000;0.1319;3.8607;
-80.1000;0.1311;3.8530;
-79.8000;0.1302;3.8530;
-79.5000;0.1294;3.8530;
-79.2000;0.1294;3.8504;
-78.9000;0.1302;3.8581;
-78.6000;0.1359;3.8787;
-78.3000;0.1302;3.8658;
-78.0000;0.1311;3.8633;
-77.7000;0.1384;3.8735;
-77.4000;0.1335;3.8633;
-77.1000;0.1302;3.8581;
-76.8000;0.1319;3.8710;
-76.5000;0.1278;3.8556;
-76.2000;0.1302;3.8658;
-75.9000;0.1400;3.8889;
-75.6000;0.1254;3.8479;
-75.3000;0.1286;3.8658;
-75.0000;0.1351;3.8735;
-74.7000;0.1302;3.8556;
-74.4000;0.1294;3.8607;
-74.1000;0.1286;3.8607;
-73.8000;0.1319;3.8684;
-73.5000;0.1311;3.8556;
-73.2000;0.1286;3.8504;
-72.9000;0.1327;3.8658;
-72.6000;0.1311;3.8607;
-72.3000;0.1319;3.8556;
-72.0000;0.1400;3.8761;
-71.7000;0.1311;3.8479;
-71.4000;0.1294;3.8479;
-71.1000;0.1311;3.8530;
-70.8000;0.1311;3.8427;
-70.5000;0.1294;3.8453;
-70.2000;0.1286;3.8427;
-69.9000;0.1408;3.8735;
-69.6000;0.1302;3.8504;
-69.3000;0.1294;3.8427;
-69.0000;0.1302;3.8479;
-68.7000;0.1302;3.8453;
-68.4000;0.1392;3.8633;
-68.1000;0.1294;3.8479;
-67.8000;0.1319;3.8581;
-67.5000;0.1311;3.8402;
-67.2000;0.1294;3.8427;
-66.9000;0.1302;3.8530;
-66.6000;0.1311;3.8607;
-66.3000;0.1311;3.8581;
-66.0000;0.1319;3.8633;
-65.7000;0.1319;3.8633;
-65.4000;0.1294;3.8530;
-65.1000;0.1294;3.8556;
-64.8000;0.1245;3.8402;
-64.5000;0.1286;3.8504;
-64.2000;0.1302;3.8530;
-63.9000;0.1319;3.8530;
-63.6000;0.1294;3.8556;
-63.3000;0.1327;3.8607;
-63.0000;0.1311;3.8633;
-62.7000;0.1384;3.8889;
-62.4000;0.1311;3.8710;
-62.1000;0.1278;3.8607;
-61.8000;0.1311;3.8658;
-61.5000;0.1311;3.8684;
-61.2000;0.1213;3.8402;
-60.9000;0.1302;3.8658;
-60.6000;0.1319;3.8710;
-60.3000;0.1294;3.8633;
-60.0000;0.1294;3.8633;
-59.7000;0.1311;3.8761;
-59.4000;0.1294;3.8710;
-59.1000;0.1286;3.8684;
-58.8000;0.1294;3.8684;
-58.5000;0.1294;3.8710;
-58.2000;0.1319;3.8761;
-57.9000;0.1343;3.8761;
-57.6000;0.1311;3.8658;
-57.3000;0.1302;3.8556;
-57.0000;0.1302;3.8556;
-56.7000;0.1286;3.8479;
-56.4000;0.1278;3.8453;
-56.1000;0.1327;3.8556;
-55.8000;0.1311;3.8453;
-55.5000;0.1311;3.8530;
-55.2000;0.1311;3.8453;
-54.9000;0.1319;3.8479;
-54.6000;0.1294;3.8581;
-54.3000;0.1302;3.8607;
-54.0000;0.1319;3.8556;
-53.7000;0.1229;3.8273;
-53.4000;0.1319;3.8530;
-53.1000;0.1311;3.8556;
-52.8000;0.1294;3.8581;
-52.5000;0.1140;3.8222;
-52.2000;0.1302;3.8684;
-51.9000;0.1335;3.8735;
-51.6000;0.1302;3.8633;
-51.3000;0.1311;3.8633;
-51.0000;0.1359;3.8735;
-50.7000;0.1302;3.8479;
-50.4000;0.1270;3.8453;
-50.1000;0.1294;3.8556;
-49.8000;0.1278;3.8479;
-49.5000;0.1359;3.8735;
-49.2000;0.1286;3.8504;
-48.9000;0.1327;3.8556;
-48.6000;0.1294;3.8350;
-48.3000;0.1294;3.8402;
-48.0000;0.1254;3.8248;
-47.7000;0.1278;3.8299;
-47.4000;0.1319;3.8427;
-47.1000;0.1327;3.8530;
-46.8000;0.1319;3.8504;
-46.5000;0.1270;3.8427;
-46.2000;0.1302;3.8427;
-45.9000;0.1294;3.8376;
-45.6000;0.1343;3.8479;
-45.3000;0.1319;3.8325;
-45.0000;0.1319;3.8376;
-44.7000;0.1294;3.8299;
-44.4000;0.1278;3.8376;
-44.1000;0.1311;3.8427;
-43.8000;0.1245;3.8273;
-43.5000;0.1286;3.8453;
-43.2000;0.1319;3.8427;
-42.9000;0.1335;3.8504;
-42.6000;0.1245;3.8325;
-42.3000;0.1319;3.8479;
-42.0000;0.1359;3.8556;
-41.7000;0.1294;3.8427;
-41.4000;0.1294;3.8402;
-41.1000;0.1270;3.8402;
-40.8000;0.1294;3.8530;
-40.5000;0.1311;3.8479;
-40.2000;0.1302;3.8504;
-39.9000;0.1270;3.8350;
-39.6000;0.1311;3.8530;
-39.3000;0.1311;3.8504;
-39.0000;0.1294;3.8427;
-38.7000;0.1311;3.8453;
-38.4000;0.1286;3.8376;
-38.1000;0.1311;3.8556;
-37.8000;0.1311;3.8530;
-37.5000;0.1286;3.8530;
-37.2000;0.1270;3.8530;
-36.9000;0.1270;3.8479;
-36.6000;0.1237;3.8350;
-36.3000;0.1368;3.8710;
-36.0000;0.1311;3.8556;
-35.7000;0.1294;3.8530;
-35.4000;0.1294;3.8581;
-35.1000;0.1302;3.8504;
-34.8000;0.1343;3.8581;
-34.5000;0.1302;3.8427;
-34.2000;0.1319;3.8530;
-33.9000;0.1311;3.8607;
-33.6000;0.1262;3.8556;
-33.3000;0.1286;3.8710;
-33.0000;0.1262;3.8633;
-32.7000;0.1311;3.8710;
-32.4000;0.1311;3.8735;
-32.1000;0.1278;3.8607;
-31.8000;0.1286;3.8556;
-31.5000;0.1311;3.8581;
-31.2000;0.1311;3.8556;
-30.9000;0.1286;3.8581;
-30.6000;0.1294;3.8479;
-30.3000;0.1302;3.8633;
-30.0000;0.1319;3.8658;
-29.7000;0.1286;3.8607;
-29.4000;0.1286;3.8607;
-29.1000;0.1302;3.8658;
-28.8000;0.1311;3.8658;
-28.5000;0.1302;3.8633;
-28.2000;0.1311;3.8556;
-27.9000;0.1286;3.8530;
-27.6000;0.1294;3.8556;
-27.3000;0.1294;3.8581;
-27.0000;0.1294;3.8607;
-26.7000;0.1286;3.8684;
-26.4000;0.1343;3.8812;
-26.1000;0.1294;3.8684;
-25.8000;0.1311;3.8710;
-25.5000;0.1262;3.8530;
-25.2000;0.1294;3.8530;
-24.9000;0.1311;3.8607;
-24.6000;0.1294;3.8556;
-24.3000;0.1262;3.8504;
-24.0000;0.1302;3.8607;
-23.7000;0.1311;3.8556;
-23.4000;0.1294;3.8556;
-23.1000;0.1302;3.8633;
-22.8000;0.1180;3.8299;
-22.5000;0.1294;3.8684;
-22.2000;0.1302;3.8735;
-21.9000;0.1311;3.8761;
-21.6000;0.1302;3.8710;
-21.3000;0.1286;3.8684;
-21.0000;0.1262;3.8556;
-20.7000;0.1327;3.8761;
-20.4000;0.1351;3.8812;
-20.1000;0.1319;3.8761;
-19.8000;0.1302;3.8684;
-19.5000;0.1213;3.8479;
-19.2000;0.1302;3.8761;
-18.9000;0.1302;3.8735;
-18.6000;0.1294;3.8710;
-18.3000;0.1294;3.8684;
-18.0000;0.1302;3.8607;
-17.7000;0.1302;3.8556;
-17.4000;0.1294;3.8479;
-17.1000;0.1294;3.8530;
-16.8000;0.1327;3.8607;
-16.5000;0.1319;3.8556;
-16.2000;0.1327;3.8581;
-15.9000;0.1270;3.8530;
-15.6000;0.1294;3.8658;
-15.3000;0.1294;3.8710;
-15.0000;0.1311;3.8735;
-14.7000;0.1278;3.8581;
-14.4000;0.1302;3.8684;
-14.1000;0.1311;3.8761;
-13.8000;0.1294;3.8684;
-13.5000;0.1294;3.8658;
-13.2000;0.1319;3.8633;
-12.9000;0.1262;3.8479;
-12.6000;0.1359;3.8735;
-12.3000;0.1286;3.8607;
-12.0000;0.1327;3.8658;
-11.7000;0.1254;3.8402;
-11.4000;0.1294;3.8581;
-11.1000;0.1294;3.8633;
-10.8000;0.1294;3.8684;
-10.5000;0.1343;3.8761;
-10.2000;0.1286;3.8633;
-9.9000;0.1278;3.8658;
-9.6000;0.1311;3.8710;
-9.3000;0.1294;3.8735;
-9.0000;0.1302;3.8710;
-8.7000;0.1311;3.8761;
-8.4000;0.1319;3.8761;
-8.1000;0.1311;3.8812;
-7.8000;0.1302;3.8735;
-7.5000;0.1278;3.8710;
-7.2000;0.1311;3.8787;
-6.9000;0.1311;3.8787;
-6.6000;0.1270;3.8684;
-6.3000;0.1302;3.8838;
-6.0000;0.1302;3.8812;
-5.7000;0.1302;3.8838;
-5.4000;0.1327;3.8787;
-5.1000;0.1311;3.8787;
-4.8000;0.1327;3.8812;
-4.5000;0.1294;3.8658;
-4.2000;0.1286;3.8658;
-3.9000;0.1302;3.8581;
-3.6000;0.1311;3.8633;
-3.3000;0.1294;3.8684;
-3.0000;0.1311;3.8658;
-2.7000;0.1237;3.8453;
-2.4000;0.1286;3.8581;
-2.1000;0.1319;3.8607;
-1.8000;0.1319;3.8658;
-1.5000;0.1335;3.8581;
-1.2000;0.1302;3.8556;
-0.9000;0.1278;3.8607;
-0.6000;0.1335;3.8761;
-0.3000;0.1319;3.8787;
0.0000;0.1319;3.8787;
0.3000;0.1311;3.8684;
0.6000;0.1262;3.8530;
0.9000;0.1359;3.8889;
1.2000;0.1327;3.8863;
1.5000;0.1425;3.9274;
1.8000;0.1392;3.9223;
2.1000;0.1425;3.9300;
2.4000;0.1449;3.9453;
2.7000;0.1425;3.9453;
3.0000;0.1425;3.9479;
3.3000;0.1425;3.9505;
3.6000;0.1408;3.9530;
3.9000;0.1433;3.9633;
4.2000;0.1441;3.9633;
4.5000;0.1449;3.9710;
4.8000;0.1441;3.9761;
5.1000;0.1441;3.9787;
5.4000;0.1498;3.9967;
5.7000;0.1449;3.9813;
6.0000;0.1449;3.9890;
6.3000;0.1465;3.9915;
6.6000;0.1441;3.9736;
6.9000;0.1408;3.9761;
7.2000;0.1465;3.9915;
7.5000;0.1408;3.9813;
7.8000;0.1457;3.9915;
8.1000;0.1425;3.9915;
8.4000;0.1416;3.9941;
8.7000;0.1441;4.0069;
9.0000;0.1457;4.0043;
9.3000;0.1425;3.9992;
9.6000;0.1465;4.0018;
9.9000;0.1351;3.9736;
10.2000;0.1433;3.9967;
10.5000;0.1449;4.0069;
10.8000;0.1457;4.0095;
11.1000;0.1465;4.0043;
11.4000;0.1449;4.0043;
11.7000;0.1481;4.0095;
12.0000;0.1457;4.0120;
12.3000;0.1457;4.0197;
12.6000;0.1473;4.0197;
12.9000;0.1514;4.0223;
13.2000;0.1498;4.0197;
13.5000;0.1473;4.0172;
13.8000;0.1465;4.0146;
14.1000;0.1506;4.0197;
14.4000;0.1481;4.0146;
14.7000;0.1457;4.0120;
15.0000;0.1457;3.9992;
15.3000;0.1457;3.9967;
15.6000;0.1457;3.9915;
15.9000;0.1441;3.9967;
16.2000;0.1465;3.9941;
16.5000;0.1490;3.9915;
16.8000;0.1465;3.9890;
17.1000;0.1408;3.9710;
17.4000;0.1465;3.9890;
17.7000;0.1481;4.0069;
18.0000;0.1481;4.0095;
18.3000;0.1457;3.9992;
18.6000;0.1473;3.9967;
18.9000;0.1465;3.9941;
19.2000;0.1465;3.9838;
19.5000;0.1579;4.0120;
19.8000;0.1473;3.9941;
20.1000;0.1481;3.9992;
20.4000;0.1473;3.9915;
20.7000;0.1481;3.9941;
21.0000;0.1481;3.9864;
21.3000;0.1563;4.0120;
21.6000;0.1481;3.9941;
21.9000;0.1457;3.9941;
22.2000;0.1506;4.0069;
22.5000;0.1490;3.9967;
22.8000;0.1481;4.0018;
23.1000;0.1490;4.0146;
23.4000;0.1530;4.0274;
23.7000;0.1481;4.0146;
24.0000;0.1473;4.0146;
24.3000;0.1506;4.0223;
24.6000;0.1433;4.0095;
24.9000;0.1481;4.0172;
25.2000;0.1481;4.0172;
25.5000;0.1465;4.0120;
25.8000;0.1408;3.9967;
26.1000;0.1481;4.0069;
26.4000;0.1506;4.0069;
26.7000;0.1490;4.0018;
27.0000;0.1490;3.9967;
27.3000;0.1441;3.9787;
27.6000;0.1498;3.9890;
27.9000;0.1481;3.9864;
28.2000;0.1481;3.9864;
28.5000;0.1506;3.9992;
28.8000;0.1498;3.9992;
29.1000;0.1490;3.9967;
29.4000;0.1481;3.9967;
29.7000;0.1481;3.9992;
30.0000;0.1498;3.9941;
30.3000;0.1481;3.9992;
30.6000;0.1481;3.9941;
30.9000;0.1473;3.9890;
31.2000;0.1449;3.9838;
31.5000;0.1514;3.9992;
31.8000;0.1481;3.9890;
32.1000;0.1490;3.9967;
32.4000;0.1498;3.9915;
32.7000;0.1506;3.9941;
33.0000;0.1498;3.9967;
33.3000;0.1490;3.9967;
33.6000;0.1473;3.9941;
33.9000;0.1481;4.0043;
34.2000;0.1498;4.0043;
34.5000;0.1506;4.0043;
34.8000;0.1433;3.9813;
35.1000;0.1498;3.9941;
35.4000;0.1490;3.9915;
35.7000;0.1498;3.9941;
36.0000;0.1498;3.9967;
36.3000;0.1563;4.0095;
36.6000;0.1481;3.9890;
36.9000;0.1530;4.0018;
37.2000;0.1538;4.0069;
37.5000;0.1465;3.9787;
37.8000;0.1514;3.9967;
38.1000;0.1498;3.9941;
38.4000;0.1465;3.9915;
38.7000;0.1506;3.9967;
39.0000;0.1506;3.9941;
39.3000;0.1490;3.9941;
39.6000;0.1506;4.0018;
39.9000;0.1473;3.9967;
40.2000;0.1490;3.9941;
40.5000;0.1514;4.0043;
40.8000;0.1522;4.0069;
41.1000;0.1498;4.0172;
41.4000;0.1490;4.0120;
41.7000;0.1506;4.0146;
42.0000;0.1506;4.0120;
42.3000;0.1457;4.0018;
42.6000;0.1506;4.0095;
42.9000;0.1506;4.0146;
43.2000;0.1490;4.0120;
43.5000;0.1506;4.0095;
43.8000;0.1490;4.0120;
44.1000;0.1490;4.0197;
44.4000;0.1530;4.0300;
44.7000;0.1490;4.0197;
45.0000;0.1490;4.0146;
45.3000;0.1514;4.0197;
45.6000;0.1490;4.0095;
45.9000;0.1498;4.0095;
46.2000;0.1490;4.0069;
46.5000;0.1506;4.0120;
46.8000;0.1490;4.0069;
47.1000;0.1490;4.0018;
47.4000;0.1490;4.0043;
47.7000;0.1506;4.0043;
48.0000;0.1457;3.9992;
48.3000;0.1506;3.9992;
48.6000;0.1498;3.9941;
48.9000;0.1473;3.9864;
49.2000;0.1506;3.9967;
49.5000;0.1498;3.9967;
49.8000;0.1498;3.9941;
50.1000;0.1538;3.9967;
50.4000;0.1490;3.9813;
50.7000;0.1506;3.9864;
51.0000;0.1538;3.9967;
51.3000;0.1514;3.9890;
51.6000;0.1498;3.9890;
51.9000;0.1490;3.9915;
52.2000;0.1514;4.0018;
52.5000;0.1490;3.9941;
52.8000;0.1490;3.9941;
53.1000;0.1506;3.9992;
53.4000;0.1514;3.9967;
53.7000;0.1481;3.9813;
54.0000;0.1506;3.9838;
54.3000;0.1498;3.9890;
54.6000;0.1514;3.9967;
54.9000;0.1522;4.0043;
55.2000;0.1465;3.9967;
55.5000;0.1506;4.0043;
55.8000;0.1498;3.9967;
56.1000;0.1530;4.0120;
56.4000;0.1490;4.0043;
56.7000;0.1498;4.0095;
57.0000;0.1498;4.0069;
57.3000;0.1490;4.0043;
57.6000;0.1514;4.0069;
57.9000;0.1506;4.0018;
58.2000;0.1547;4.0069;
58.5000;0.1514;3.9992;
58.8000;0.1514;3.9941;
59.1000;0.1506;3.9967;
59.4000;0.1579;4.0223;
59.7000;0.1506;3.9915;
60.0000;0.1514;3.9864;
60.3000;0.1506;3.9890;
60.6000;0.1506;3.9838;
60.9000;0.1538;3.9915;
61.2000;0.1490;3.9890;
61.5000;0.1506;3.9941;
61.8000;0.1490;3.9915;
62.1000;0.1490;3.9967;
62.4000;0.1514;4.0043;
62.7000;0.1506;4.0043;
63.0000;0.1514;4.0172;
63.3000;0.1514;4.0172;
63.6000;0.1441;3.9915;
63.9000;0.1506;4.0069;
64.2000;0.1498;4.0018;
64.5000;0.1506;4.0018;
64.8000;0.1514;4.0018;
65.1000;0.1522;3.9992;
65.4000;0.1506;3.9864;
65.7000;0.1490;3.9813;
66.0000;0.1579;4.0043;
66.3000;0.1490;3.9813;
66.6000;0.1506;3.9864;
66.9000;0.1490;3.9813;
67.2000;0.1490;3.9787;
67.5000;0.1481;3.9813;
67.8000;0.1514;3.9992;
68.1000;0.1506;3.9941;
68.4000;0.1514;3.9992;
68.7000;0.1514;4.0043;
69.0000;0.1538;4.0120;
69.3000;0.1538;4.0120;
69.6000;0.1506;3.9967;
69.9000;0.1514;4.0018;
70.2000;0.1498;3.9890;
70.5000;0.1547;4.0043;
70.8000;0.1498;3.9967;
71.1000;0.1490;3.9967;
71.4000;0.1506;4.0043;
71.7000;0.1498;3.9967;
72.0000;0.1490;3.9890;
72.3000;0.1490;3.9890;
72.6000;0.1498;3.9941;
72.9000;0.1498;3.9941;
73.2000;0.1473;3.9941;
73.5000;0.1514;4.0095;
73.8000;0.1530;4.0018;
74.1000;0.1514;3.9915;
74.4000;0.1433;3.9710;
74.7000;0.1498;3.9890;
75.0000;0.1538;3.9967;
75.3000;0.1514;3.9890;
75.6000;0.1506;3.9813;
75.9000;0.1514;3.9787;
76.2000;0.1530;3.9787;
76.5000;0.1490;3.9710;
76.8000;0.1506;3.9684;
77.1000;0.1490;3.9607;
77.4000;0.1506;3.9684;
77.7000;0.1490;3.9659;
78.0000;0.1514;3.9659;
78.3000;0.1506;3.9710;
78.6000;0.1506;3.9736;
78.9000;0.1522;3.9761;
79.2000;0.1425;3.9659;
79.5000;0.1514;4.0018;
79.8000;0.1530;4.0069;
80.1000;0.1506;4.0018;
80.4000;0.1449;3.9864;
80.7000;0.1490;4.0018;
81.0000;0.1498;3.9941;
81.3000;0.1416;3.9787;
81.6000;0.1498;3.9967;
81.9000;0.1522;4.0095;
82.2000;0.1498;3.9992;
82.5000;0.1481;4.0018;
82.8000;0.1506;4.0043;
83.1000;0.1514;3.9992;
83.4000;0.1522;4.0095;
83.7000;0.1514;4.0043;
84.0000;0.1555;4.0172;
84.3000;0.1481;4.0018;
84.6000;0.1530;4.0069;
84.9000;0.1506;4.0095;
85.2000;0.1563;4.0223;
85.5000;0.1522;4.0120;
85.8000;0.1498;4.0069;
86.1000;0.1506;4.0120;
86.4000;0.1498;4.0095;
86.7000;0.1481;4.0069;
87.0000;0.1514;4.0069;
87.3000;0.1522;4.0043;
87.6000;0.1490;3.9864;
87.9000;0.1571;4.0146;
88.2000;0.1506;4.0018;
88.5000;0.1490;3.9941;
88.8000;0.1514;4.0018;
89.1000;0.1506;3.9992;
89.4000;0.1514;4.0018;
89.7000;0.1522;3.9890;
90.0000;0.1473;3.9813;
90.3000;0.1514;3.9967;
90.6000;0.1514;3.9941;
90.9000;0.1490;3.9915;
91.2000;0.1514;4.0018;
91.5000;0.1498;3.9992;
91.8000;0.1522;4.0043;
92.1000;0.1506;4.0018;
92.4000;0.1522;4.0043;
92.7000;0.1506;3.9967;
93.0000;0.1506;3.9967;
93.3000;0.1457;3.9736;
93.6000;0.1522;3.9864;
93.9000;0.1563;3.9967;
94.2000;0.1514;3.9864;
94.5000;0.1571;3.9890;
94.8000;0.1498;3.9659;
95.1000;0.1506;3.9607;
95.4000;0.1473;3.9530;
95.7000;0.1522;3.9607;
96.0000;0.1530;3.9736;
96.3000;0.1481;3.9684;
96.6000;0.1449;3.9633;
96.9000;0.1522;3.9864;
97.2000;0.1490;3.9659;
97.5000;0.1604;3.9992;
97.8000;0.1514;3.9838;
98.1000;0.1514;3.9761;
98.4000;0.1530;3.9838;
98.7000;0.1490;3.9684;
99.0000;0.1620;4.0069;
99.3000;0.1522;3.9813;
99.6000;0.1506;3.9787;
99.9000;0.1498;3.9787;
100.2000;0.1538;3.9890;
100.5000;0.1498;3.9736;
100.8000;0.1522;3.9736;
101.1000;0.1465;3.9582;
101.4000;0.1538;3.9736;
101.7000;0.1506;3.9633;
102.0000;0.1514;3.9659;
102.3000;0.1514;3.9710;
102.6000;0.1514;3.9736;
102.9000;0.1490;3.9787;
103.2000;0.1522;3.9992;
103.5000;0.1506;3.9941;
103.8000;0.1449;3.9710;
104.1000;0.1514;3.9915;
104.4000;0.1490;3.9787;
104.7000;0.1636;4.0146;
105.0000;0.1473;3.9710;
105.3000;0.1498;3.9813;
105.6000;0.1514;3.9813;
105.9000;0.1522;3.9787;
106.2000;0.1498;3.9736;
106.5000;0.1473;3.9787;
106.8000;0.1514;3.9915;
107.1000;0.1481;3.9890;
107.4000;0.1506;3.9915;
107.7000;0.1514;3.9890;
108.0000;0.1473;3.9813;
108.3000;0.1522;3.9941;
108.6000;0.1498;3.9864;
108.9000;0.1506;3.9813;
109.2000;0.1506;3.9787;
109.5000;0.1473;3.9659;
109.8000;0.1498;3.9761;
110.1000;0.1506;3.9787;
110.4000;0.1506;3.9864;
110.7000;0.1441;3.9761;
111.0000;0.1514;3.9864;
111.3000;0.1481;3.9787;
111.6000;0.1571;4.0120;
111.9000;0.1514;4.0018;
112.2000;0.1538;3.9992;
112.5000;0.1481;3.9813;
112.8000;0.1498;3.9864;
113.1000;0.1449;3.9736;
113.4000;0.1587;4.0172;
113.7000;0.1400;3.9659;
114.0000;0.1473;3.9838;
114.3000;0.1530;4.0069;
114.6000;0.1498;3.9992;
114.9000;0.1506;4.0095;
115.2000;0.1522;4.0069;
115.5000;0.1538;4.0095;
115.8000;0.1490;3.9915;
116.1000;0.1490;3.9864;
116.4000;0.1538;4.0018;
116.7000;0.1522;4.0018;
117.0000;0.1465;3.9838;
117.3000;0.1547;3.9992;
117.6000;0.1514;4.0018;
117.9000;0.1490;3.9890;
118.2000;0.1506;3.9890;
118.5000;0.1555;4.0069;
118.8000;0.1514;3.9915;
119.1000;0.1522;4.0043;
119.4000;0.1579;4.0172;
119.7000;0.1506;3.9967;
120.0000;0.1506;3.9890;
120.3000;0.1538;4.0069;
120.6000;0.1555;4.0095;
120.9000;0.1538;4.0069;
121.2000;0.1473;3.9838;
121.5000;0.1498;3.9890;
121.8000;0.1514;3.9813;
122.1000;0.1490;3.9659;
122.4000;0.1490;3.9659;
122.7000;0.1522;3.9659;
123.0000;0.1514;3.9607;
123.3000;0.1473;3.9556;
123.6000;0.1498;3.9684;
123.9000;0.1498;3.9813;
124.2000;0.1514;3.9710;
124.5000;0.1490;3.9684;
124.8000;0.1514;3.9710;
125.1000;0.1506;3.9684;
125.4000;0.1506;3.9659;
125.7000;0.1538;3.9736;
126.0000;0.1506;3.9684;
126.3000;0.1498;3.9736;
126.6000;0.1506;3.9684;
126.9000;0.1530;3.9761;
127.2000;0.1498;3.9710;
127.5000;0.1514;3.9864;
127.8000;0.1490;3.9787;
128.1000;0.1555;3.9992;
128.4000;0.1473;3.9838;
128.7000;0.1481;3.9890;
129.0000;0.1514;3.9992;
129.3000;0.1522;4.0043;
129.6000;0.1506;4.0018;
129.9000;0.1457;3.9864;
130.2000;0.1490;3.9915;
130.5000;0.1514;4.0018;
130.8000;0.1473;3.9864;
131.1000;0.1498;3.9890;
131.4000;0.1514;3.9864;
131.7000;0.1498;3.9838;
132.0000;0.1522;3.9838;
132.3000;0.1490;3.9787;
132.6000;0.1514;3.9915;
132.9000;0.1547;4.0069;
133.2000;0.1498;3.9890;
133.5000;0.1514;3.9915;
133.8000;0.1522;3.9992;
134.1000;0.1530;3.9992;
134.4000;0.1547;3.9992;
134.7000;0.1530;3.9941;
135.0000;0.1514;3.9838;
135.3000;0.1522;3.9967;
135.6000;0.1498;3.9941;
135.9000;0.1490;3.9890;
136.2000;0.1506;3.9941;
136.5000;0.1506;3.9967;
136.8000;0.1522;4.0069;
137.1000;0.1498;4.0146;
137.4000;0.1555;4.0223;
137.7000;0.1384;3.9710;
138.0000;0.1522;4.0069;
138.3000;0.1530;4.0043;
138.6000;0.1538;4.0043;
138.9000;0.1506;3.9915;
139.2000;0.1538;3.9941;
139.5000;0.1514;3.9864;
139.8000;0.1522;3.9890;
140.1000;0.1490;3.9838;
140.4000;0.1498;3.9761;
140.7000;0.1498;3.9736;
141.0000;0.1498;3.9864;
141.3000;0.1490;3.9915;
141.6000;0.1522;3.9941;
141.9000;0.1522;3.9890;
142.2000;0.1490;3.9813;
142.5000;0.1449;3.9710;
142.8000;0.1498;3.9967;
143.1000;0.1465;3.9915;
143.4000;0.1522;4.0018;
143.7000;0.1498;3.9915;
144.0000;0.1514;3.9864;
144.3000;0.1522;3.9890;
144.6000;0.1490;3.9684;
144.9000;0.1498;3.9710;
145.2000;0.1514;3.9761;
145.5000;0.1506;3.9864;
145.8000;0.1506;3.9813;
146.1000;0.1514;3.9864;
146.4000;0.1498;3.9838;
146.7000;0.1506;3.9890;
147.0000;0.1522;3.9992;
147.3000;0.1506;4.0018;
147.6000;0.1506;3.9864;
147.9000;0.1506;3.9941;
148.2000;0.1530;3.9890;
148.5000;0.1514;3.9890;
148.8000;0.1522;3.9838;
149.1000;0.1465;3.9736;
149.4000;0.1481;3.9813;
149.7000;0.1522;3.9864;
150.0000;0.1514;3.9915;
150.3000;0.1522;3.9967;
150.6000;0.1522;4.0018;
150.9000;0.1530;4.0018;
151.2000;0.1514;3.9992;
151.5000;0.1498;3.9992;
151.8000;0.1457;3.9838;
152.1000;0.1506;3.9992;
152.4000;0.1538;4.0069;
152.7000;0.1514;3.9915;
153.0000;0.1481;3.9761;
153.3000;0.1506;3.9813;
153.6000;0.1522;3.9864;
153.9000;0.1595;4.0120;
154.2000;0.1514;3.9915;
154.5000;0.1506;3.9838;
154.8000;0.1498;3.9787;
155.1000;0.1514;3.9864;
155.4000;0.1481;3.9864;
155.7000;0.1514;3.9915;
156.0000;0.1522;3.9915;
156.3000;0.1506;3.9838;
156.6000;0.1514;3.9813;
156.9000;0.1498;3.9787;
157.2000;0.1490;3.9787;
157.5000;0.1498;3.9813;
157.8000;0.1506;3.9710;
158.1000;0.1498;3.9736;
158.4000;0.1408;3.9428;
158.7000;0.1506;3.9736;
159.0000;0.1490;3.9736;
159.3000;0.1522;3.9736;
159.6000;0.1514;3.9684;
159.9000;0.1506;3.9761;
160.2000;0.1506;3.9787;
160.5000;0.1498;3.9787;
160.8000;0.1498;3.9813;
161.1000;0.1514;3.9864;
161.4000;0.1498;3.9890;
161.7000;0.1498;3.9864;
162.0000;0.1506;3.9813;
162.3000;0.1522;3.9787;
162.6000;0.1522;3.9761;
162.9000;0.1514;3.9813;
163.2000;0.1514;3.9761;
163.5000;0.1522;3.9761;
163.8000;0.1498;3.9684;
164.1000;0.1506;3.9736;
164.4000;0.1506;3.9761;
164.7000;0.1498;3.9813;
165.0000;0.1490;3.9787;
165.3000;0.1522;3.9813;
165.6000;0.1506;3.9890;
165.9000;0.1522;3.9941;
166.2000;0.1465;3.9761;
166.5000;0.1498;3.9967;
166.8000;0.1481;3.9864;
167.1000;0.1604;4.0172;
167.4000;0.1522;3.9813;
167.7000;0.1498;3.9787;
168.0000;0.1498;3.9838;
168.3000;0.1481;3.9736;
168.6000;0.1506;3.9838;
168.9000;0.1473;3.9684;
169.2000;0.1530;3.9838;
169.5000;0.1490;3.9710;
169.8000;0.1506;3.9736;
170.1000;0.1506;3.9761;
170.4000;0.1490;3.9710;
170.7000;0.1490;3.9710;
171.0000;0.1498;3.9787;
171.3000;0.1457;3.9736;
171.6000;0.1506;3.9761;
171.9000;0.1490;3.9710;
172.2000;0.1506;3.9787;
172.5000;0.1481;3.9710;
172.8000;0.1481;3.9736;
173.1000;0.1514;3.9838;
173.4000;0.1506;3.9813;
173.7000;0.1604;4.0120;
174.0000;0.1498;3.9864;
174.3000;0.1522;3.9967;
174.6000;0.1498;3.9967;
174.9000;0.1506;3.9992;
175.2000;0.1498;3.9915;
175.5000;0.1522;3.9915;
175.8000;0.1514;3.9838;
176.1000;0.1506;3.9915;
176.4000;0.1506;3.9838;
176.7000;0.1498;3.9838;
177.0000;0.1514;4.0069;
177.3000;0.1506;4.0120;
177.6000;0.1514;4.0172;
177.9000;0.1514;4.0146;
178.2000;0.1506;4.0120;
178.5000;0.1514;4.0018;
178.8000;0.1538;4.0146;
179.1000;0.1538;4.0095;
179.4000;0.1547;4.0095;
179.7000;0.1506;3.9864;
180.0000;0.1530;3.9787;
180.3000;0.1498;3.9710;
180.6000;0.1530;3.9864;
180.9000;0.1490;3.9736;
181.2000;0.1481;3.9633;
181.5000;0.1522;3.9736;
181.8000;0.1514;3.9659;
182.1000;0.1392;3.9351;
182.4000;0.1498;3.9761;
182.7000;0.1506;3.9736;
183.0000;0.1465;3.9736;
183.3000;0.1522;3.9787;
183.6000;0.1506;3.9838;
183.9000;0.1514;3.9864;
184.2000;0.1538;3.9967;
184.5000;0.1522;3.9915;
184.8000;0.1490;3.9890;
185.1000;0.1514;3.9967;
185.4000;0.1506;3.9967;
185.7000;0.1514;3.9941;
186.0000;0.1522;3.9992;
186.3000;0.1530;4.0018;
186.6000;0.1481;3.9915;
186.9000;0.1522;4.0069;
187.2000;0.1473;3.9915;
187.5000;0.1481;3.9890;
187.8000;0.1498;3.9992;
188.1000;0.1530;3.9992;
188.4000;0.1604;4.0197;
188.7000;0.1498;3.9890;
189.0000;0.1433;3.9761;
189.3000;0.1506;3.9992;
189.6000;0.1555;4.0172;
189.9000;0.1514;4.0043;
190.2000;0.1481;3.9941;
190.5000;0.1490;3.9992;
190.8000;0.1498;4.0069;
191.1000;0.1579;4.0326;
191.4000;0.1595;4.0274;
191.7000;0.1530;3.9967;
192.0000;0.1522;3.9992;
192.3000;0.1514;4.0069;
192.6000;0.1514;4.0069;
192.9000;0.1522;4.0069;
193.2000;0.1538;4.0043;
193.5000;0.1571;4.0120;
193.8000;0.1522;3.9941;
194.1000;0.1449;3.9787;
194.4000;0.1514;3.9890;
194.7000;0.1498;3.9915;
195.0000;0.1498;4.0018;
195.3000;0.1506;4.0018;
195.6000;0.1498;3.9967;
195.9000;0.1530;4.0018;
196.2000;0.1433;3.9659;
196.5000;0.1506;3.9915;
196.8000;0.1522;3.9967;
197.1000;0.1555;4.0043;
197.4000;0.1514;3.9941;
197.7000;0.1449;3.9710;
198.0000;0.1506;3.9992;
198.3000;0.1490;3.9915;
198.6000;0.1506;3.9813;
198.9000;0.1498;3.9890;
199.2000;0.1506;3.9915;
199.5000;0.1514;3.9992;
199.8000;0.1514;4.0043;
200.1000;0.1481;3.9941;
200.4000;0.1498;4.0043;
200.7000;0.1465;3.9992;
201.0000;0.1498;4.0069;
201.3000;0.1506;4.0043;
201.6000;0.1498;4.0043;
201.9000;0.1514;4.0043;
202.2000;0.1498;4.0018;
202.5000;0.1530;4.0120;
202.8000;0.1506;3.9967;
203.1000;0.1465;3.9838;
203.4000;0.1506;3.9864;
203.7000;0.1473;3.9736;
204.0000;0.1498;3.9890;
204.3000;0.1522;3.9967;
204.6000;0.1522;3.9915;
204.9000;0.1522;3.9813;
205.2000;0.1530;3.9890;
205.5000;0.1563;3.9967;
205.8000;0.1498;3.9864;
206.1000;0.1571;4.0043;
206.4000;0.1522;3.9787;
206.7000;0.1384;3.9428;
207.0000;0.1571;4.0018;
207.3000;0.1514;3.9941;
207.6000;0.1522;3.9992;
207.9000;0.1538;4.0095;
208.2000;0.1498;3.9915;
208.5000;0.1522;4.0069;
208.8000;0.1506;4.0018;
209.1000;0.1481;3.9890;
209.4000;0.1498;3.9941;
209.7000;0.1514;3.9915;
210.0000;0.1441;3.9813;
210.3000;0.1522;3.9992;
210.6000;0.1547;3.9992;
210.9000;0.1530;4.0043;
211.2000;0.1530;4.0018;
211.5000;0.1481;3.9838;
211.8000;0.1514;3.9915;
212.1000;0.1490;3.9813;
212.4000;0.1530;3.9941;
212.7000;0.1514;3.9864;
213.0000;0.1506;3.9761;
213.3000;0.1498;3.9736;
213.6000;0.1481;3.9684;
213.9000;0.1498;3.9761;
214.2000;0.1555;3.9967;
214.5000;0.1490;3.9838;
214.8000;0.1506;3.9941;
215.1000;0.1490;3.9890;
215.4000;0.1522;4.0043;
215.7000;0.1490;3.9992;
216.0000;0.1506;4.0069;
216.3000;0.1522;4.0120;
216.6000;0.1522;4.0095;
216.9000;0.1498;4.0018;
217.2000;0.1514;4.0018;
217.5000;0.1473;3.9890;
217.8000;0.1506;3.9967;
218.1000;0.1449;3.9659;
218.4000;0.1506;3.9915;
218.7000;0.1530;3.9967;
219.0000;0.1522;3.9890;
219.3000;0.1490;3.9890;
219.6000;0.1498;3.9864;
219.9000;0.1538;3.9967;
220.2000;0.1514;3.9941;
220.5000;0.1530;3.9967;
220.8000;0.1498;3.9890;
221.1000;0.1506;3.9864;
221.4000;0.1514;3.9838;
221.7000;0.1506;3.9813;
222.0000;0.1506;3.9761;
222.3000;0.1473;3.9736;
222.6000;0.1481;3.9838;
222.9000;0.1514;3.9967;
223.2000;0.1498;3.9915;
223.5000;0.1498;4.0018;
223.8000;0.1498;4.0043;
224.1000;0.1514;4.0018;
224.4000;0.1481;3.9941;
224.7000;0.1490;4.0043;
225.0000;0.1481;3.9992;
225.3000;0.1506;4.0095;
225.6000;0.1514;4.0095;
225.9000;0.1498;4.0069;
226.2000;0.1498;4.0018;
226.5000;0.1514;3.9967;
226.8000;0.1514;3.9992;
227.1000;0.1514;4.0018;
227.4000;0.1498;4.0018;
227.7000;0.1514;4.0095;
228.0000;0.1514;4.0120;
228.3000;0.1506;4.0120;
228.6000;0.1514;4.0172;
228.9000;0.1498;4.0095;
229.2000;0.1506;4.0120;
229.5000;0.1481;4.0018;
229.8000;0.1498;3.9967;
230.1000;0.1506;3.9967;
230.4000;0.1481;3.9864;
230.7000;0.1506;3.9992;
231.0000;0.1514;3.9992;
231.3000;0.1498;3.9941;
231.6000;0.1514;3.9967;
231.9000;0.1506;3.9915;
232.2000;0.1514;3.9890;
232.5000;0.1481;3.9813;
232.8000;0.1514;3.9864;
233.1000;0.1506;3.9890;
233.4000;0.1506;3.9992;
233.7000;0.1506;3.9992;
234.0000;0.1506;3.9941;
234.3000;0.1490;3.9864;
234.6000;0.1481;3.9761;
234.9000;0.1490;3.9761;
235.2000;0.1465;3.9736;
235.5000;0.1473;3.9761;
235.8000;0.1498;3.9838;
236.1000;0.1498;3.9787;
236.4000;0.1490;3.9736;
236.7000;0.1498;3.9736;
237.0000;0.1498;3.9736;
237.3000;0.1498;3.9659;
237.6000;0.1538;3.9787;
237.9000;0.1498;3.9710;
238.2000;0.1530;3.9838;
238.5000;0.1498;3.9813;
238.8000;0.1498;3.9787;
239.1000;0.1498;3.9736;
239.4000;0.1498;3.9761;
239.7000;0.1490;3.9864;
240.0000;0.1498;3.9915;
240.3000;0.1514;3.9915;
240.6000;0.1473;3.9787;
240.9000;0.1506;3.9864;
241.2000;0.1490;3.9787;
241.5000;0.1522;3.9915;
241.8000;0.1514;3.9915;
242.1000;0.1547;4.0069;
242.4000;0.1555;4.0069;
242.7000;0.1481;3.9915;
243.0000;0.1490;3.9838;
243.3000;0.1514;3.9915;
243.6000;0.1514;3.9941;
243.9000;0.1498;3.9864;
244.2000;0.1481;3.9915;
244.5000;0.1522;4.0018;
244.8000;0.1514;3.9967;
245.1000;0.1481;3.9890;
245.4000;0.1490;3.9864;
245.7000;0.1490;3.9890;
246.0000;0.1530;4.0043;
246.3000;0.1481;3.9941;
246.6000;0.1498;3.9992;
246.9000;0.1481;3.9915;
247.2000;0.1506;4.0043;
247.5000;0.1465;3.9813;
247.8000;0.1506;3.9992;
248.1000;0.1498;4.0069;
248.4000;0.1506;4.0043;
248.7000;0.1514;3.9967;
249.0000;0.1498;3.9992;
249.3000;0.1571;4.0274;
249.6000;0.1473;3.9941;
249.9000;0.1490;3.9890;
250.2000;0.1514;3.9864;
250.5000;0.1506;3.9838;
250.8000;0.1498;3.9813;
251.1000;0.1506;3.9761;
251.4000;0.1465;3.9582;
251.7000;0.1498;3.9736;
252.0000;0.1498;3.9710;
252.3000;0.1530;3.9915;
252.6000;0.1473;3.9864;
252.9000;0.1490;3.9992;
253.2000;0.1514;3.9915;
253.5000;0.1433;3.9736;
253.8000;0.1514;3.9941;
254.1000;0.1498;3.9915;
254.4000;0.1498;3.9813;
254.7000;0.1490;3.9838;
255.0000;0.1498;3.9838;
255.3000;0.1506;3.9890;
255.6000;0.1481;3.9813;
255.9000;0.1490;3.9864;
256.2000;0.1506;3.9890;
256.5000;0.1473;3.9813;
256.8000;0.1490;3.9838;
257.1000;0.1433;3.9684;
257.4000;0.1514;3.9941;
257.7000;0.1498;3.9967;
258.0000;0.1490;3.9941;
258.3000;0.1490;3.9915;
258.6000;0.1506;3.9967;
258.9000;0.1530;3.9992;
259.2000;0.1473;3.9838;
259.5000;0.1498;3.9890;
259.8000;0.1547;4.0018;
260.1000;0.1498;3.9915;
260.4000;0.1498;3.9941;
260.7000;0.1481;3.9838;
261.0000;0.1506;3.9864;
261.3000;0.1571;4.0095;
261.6000;0.1498;3.9890;
261.9000;0.1498;3.9864;
262.2000;0.1522;3.9941;
262.5000;0.1547;4.0069;
262.8000;0.1506;3.9967;
263.1000;0.1522;4.0043;
263.4000;0.1498;3.9967;
263.7000;0.1522;4.0069;
264.0000;0.1636;4.0377;
264.3000;0.1514;4.0018;
264.6000;0.1506;3.9890;
264.9000;0.1473;3.9813;
265.2000;0.1506;3.9787;
265.5000;0.1514;3.9787;
265.8000;0.1498;3.9838;
266.1000;0.1522;3.9787;
266.4000;0.1522;3.9813;
266.7000;0.1490;3.9761;
267.0000;0.1506;3.9761;
267.3000;0.1490;3.9710;
267.6000;0.1498;3.9813;
267.9000;0.1506;3.9915;
268.2000;0.1538;3.9915;
268.5000;0.1506;3.9787;
268.8000;0.1555;3.9941;
269.1000;0.1514;3.9864;
269.4000;0.1506;3.9864;
269.7000;0.1506;3.9864;
270.0000;0.1530;3.9890;
270.3000;0.1481;3.9736;
270.6000;0.1530;3.9838;
270.9000;0.1498;3.9787;
271.2000;0.1506;3.9838;
271.5000;0.1530;3.9890;
271.8000;0.1490;3.9736;
272.1000;0.1481;3.9736;
272.4000;0.1481;3.9736;
272.7000;0.1506;3.9787;
273.0000;0.1522;3.9864;
273.3000;0.1506;3.9761;
273.6000;0.1506;3.9813;
273.9000;0.1506;3.9813;
274.2000;0.1522;3.9864;
274.5000;0.1498;3.9813;
274.8000;0.1490;3.9761;
275.1000;0.1465;3.9684;
275.4000;0.1522;3.9787;
275.7000;0.1506;3.9684;
276.0000;0.1506;3.9684;
276.3000;0.1530;3.9684;
276.6000;0.1498;3.9659;
276.9000;0.1506;3.9684;
277.2000;0.1530;3.9684;
277.5000;0.1514;3.9633;
277.8000;0.1498;3.9556;
278.1000;0.1522;3.9607;
278.4000;0.1506;3.9607;
278.7000;0.1506;3.9582;
279.0000;0.1506;3.9582;
279.3000;0.1506;3.9582;
279.6000;0.1514;3.9633;
279.9000;0.1514;3.9684;
280.2000;0.1473;3.9659;
280.5000;0.1506;3.9710;
280.8000;0.1506;3.9633;
281.1000;0.1490;3.9607;
281.4000;0.1506;3.9684;
281.7000;0.1506;3.9684;
282.0000;0.1514;3.9736;
282.3000;0.1498;3.9787;
282.6000;0.1498;3.9710;
282.9000;0.1522;3.9736;
283.2000;0.1530;3.9838;
283.5000;0.1498;3.9761;
283.8000;0.1490;3.9710;
284.1000;0.1498;3.9787;
284.4000;0.1490;3.9838;
284.7000;0.1522;3.9838;
285.0000;0.1498;3.9864;
285.3000;0.1498;3.9890;
285.6000;0.1522;3.9915;
285.9000;0.1506;3.9787;
286.2000;0.1514;3.9915;
286.5000;0.1498;3.9890;
286.8000;0.1514;3.9890;
287.1000;0.1506;3.9890;
287.4000;0.1498;3.9838;
287.7000;0.1498;3.9813;
288.0000;0.1498;3.9864;
288.3000;0.1498;3.9864;
288.6000;0.1514;3.9813;
288.9000;0.1425;3.9659;
289.2000;0.1514;3.9915;
289.5000;0.1498;3.9864;
289.8000;0.1506;3.9838;
290.1000;0.1555;4.0018;
290.4000;0.1522;3.9813;
290.7000;0.1506;3.9813;
291.0000;0.1506;3.9787;
291.3000;0.1498;3.9864;
291.6000;0.1506;3.9864;
291.9000;0.1522;3.9992;
292.2000;0.1481;4.0018;
292.5000;0.1514;4.0018;
292.8000;0.1498;3.9813;
293.1000;0.1376;3.9402;
293.4000;0.1522;3.9761;
293.7000;0.1506;3.9787;
294.0000;0.1514;3.9864;
294.3000;0.1530;3.9915;
294.6000;0.1514;3.9890;
294.9000;0.1498;3.9890;
295.2000;0.1530;3.9992;
295.5000;0.1506;3.9941;
295.8000;0.1522;3.9967;
296.1000;0.1490;3.9941;
296.4000;0.1498;3.9992;
296.7000;0.1506;3.9915;
297.0000;0.1514;3.9864;
297.3000;0.1522;3.9890;
297.6000;0.1506;3.9864;
297.9000;0.1490;3.9838;
298.2000;0.1506;3.9890;
298.5000;0.1473;3.9787;
298.8000;0.1514;3.9967;
299.1000;0.1433;3.9787;
299.4000;0.1481;3.9890;
299.7000;0.1506;3.9890;
300.0000;0.1636;4.0249;
300.3000;0.1506;3.9813;
300.6000;0.1514;3.9710;
300.9000;0.1498;3.9710;
301.2000;0.1449;3.9607;
301.5000;0.1514;3.9761;
301.8000;0.1530;3.9813;
302.1000;0.1498;3.9710;
302.4000;0.1506;3.9761;
302.7000;0.1498;3.9710;
303.0000;0.1547;3.9813;
303.3000;0.1506;3.9813;
303.6000;0.1514;3.9787;
303.9000;0.1506;3.9787;
304.2000;0.1555;3.9787;
304.5000;0.1547;3.9736;
304.8000;0.1514;3.9736;
305.1000;0.1506;3.9787;
305.4000;0.1465;3.9813;
305.7000;0.1506;3.9915;
306.0000;0.1498;3.9915;
306.3000;0.1506;3.9915;
306.6000;0.1481;3.9787;
306.9000;0.1490;3.9787;
307.2000;0.1530;3.9915;
307.5000;0.1538;3.9992;
307.8000;0.1514;3.9992;
308.1000;0.1481;3.9967;
308.4000;0.1457;3.9992;
308.7000;0.1498;4.0120;
309.0000;0.1506;4.0095;
309.3000;0.1595;4.0249;
309.6000;0.1473;3.9967;
309.9000;0.1506;3.9992;
310.2000;0.1498;3.9864;
310.5000;0.1481;3.9787;
310.8000;0.1481;3.9813;
311.1000;0.1490;3.9787;
311.4000;0.1538;3.9915;
311.7000;0.1506;3.9813;
312.0000;0.1490;3.9838;
312.3000;0.1473;3.9736;
312.6000;0.1498;3.9838;
312.9000;0.1514;3.9890;
313.2000;0.1506;3.9813;
313.5000;0.1481;3.9813;
313.8000;0.1506;3.9838;
314.1000;0.1498;3.9941;
314.4000;0.1481;3.9941;
314.7000;0.1490;3.9864;
315.0000;0.1473;3.9787;
315.3000;0.1498;3.9890;
315.6000;0.1506;3.9941;
315.9000;0.1514;3.9967;
316.2000;0.1514;3.9941;
316.5000;0.1514;3.9941;
316.8000;0.1498;3.9864;
317.1000;0.1547;3.9967;
317.4000;0.1547;3.9941;
317.7000;0.1506;3.9838;
318.0000;0.1473;3.9736;
318.3000;0.1490;3.9787;
318.6000;0.1514;3.9838;
318.9000;0.1498;3.9813;
319.2000;0.1498;3.9736;
319.5000;0.1514;3.9838;
319.8000;0.1490;3.9761;
320.1000;0.1514;3.9864;
320.4000;0.1514;3.9864;
320.7000;0.1498;3.9813;
321.0000;0.1481;3.9761;
321.3000;0.1481;3.9838;
321.6000;0.1490;3.9864;
321.9000;0.1506;3.9992;
322.2000;0.1481;3.9864;
322.5000;0.1498;3.9915;
322.8000;0.1514;3.9941;
323.1000;0.1538;3.9992;
323.4000;0.1433;3.9710;
323.7000;0.1506;3.9941;
324.0000;0.1555;4.0120;
324.3000;0.1587;4.0197;
324.6000;0.1498;3.9941;
324.9000;0.1514;3.9967;
325.2000;0.1514;3.9890;
325.5000;0.1636;4.0274;
325.8000;0.1514;3.9941;
326.1000;0.1473;3.9787;
326.4000;0.1481;3.9838;
326.7000;0.1506;3.9941;
327.0000;0.1571;4.0095;
327.3000;0.1498;3.9941;
327.6000;0.1481;3.9838;
327.9000;0.1555;3.9967;
328.2000;0.1506;3.9967;
328.5000;0.1457;3.9864;
328.8000;0.1506;3.9967;
329.1000;0.1514;3.9992;
329.4000;0.1498;3.9992;
329.7000;0.1628;4.0403;
330.0000;0.1498;3.9967;
330.3000;0.1538;4.0069;
330.6000;0.1449;3.9813;
330.9000;0.1514;3.9941;
331.2000;0.1538;3.9941;
331.5000;0.1465;3.9838;
331.8000;0.1490;3.9838;
332.1000;0.1579;4.0069;
332.4000;0.1498;3.9864;
332.7000;0.1481;3.9838;
333.0000;0.1522;3.9864;
333.3000;0.1514;3.9890;
333.6000;0.1490;3.9736;
333.9000;0.1490;3.9761;
334.2000;0.1490;3.9710;
334.5000;0.1506;3.9813;
334.8000;0.1473;3.9761;
335.1000;0.1490;3.9684;
335.4000;0.1506;3.9787;
335.7000;0.1514;3.9813;
336.0000;0.1498;3.9761;
336.3000;0.1498;3.9710;
336.6000;0.1490;3.9607;
336.9000;0.1530;3.9787;
337.2000;0.1514;3.9736;
337.5000;0.1506;3.9633;
337.8000;0.1522;3.9787;
338.1000;0.1514;3.9736;
338.4000;0.1514;3.9710;
338.7000;0.1498;3.9736;
339.0000;0.1490;3.9787;
339.3000;0.1490;3.9890;
339.6000;0.1506;3.9890;
339.9000;0.1547;3.9890;
340.2000;0.1514;3.9890;
340.5000;0.1498;3.9838;
340.8000;0.1563;4.0146;
341.1000;0.1522;3.9967;
341.4000;0.1490;3.9787;
341.7000;0.1498;3.9864;
342.0000;0.1522;3.9915;
342.3000;0.1498;3.9864;
342.6000;0.1522;3.9864;
342.9000;0.1506;3.9915;
343.2000;0.1490;3.9890;
343.5000;0.1530;3.9967;
343.8000;0.1498;3.9992;
344.1000;0.1473;3.9890;
344.4000;0.1498;3.9890;
344.7000;0.1547;4.0120;
345.0000;0.1555;4.0069;
345.3000;0.1506;3.9941;
345.6000;0.1555;4.0018;
345.9000;0.1457;3.9787;
346.2000;0.1498;3.9890;
346.5000;0.1530;3.9941;
346.8000;0.1506;3.9864;
347.1000;0.1490;3.9684;
347.4000;0.1425;3.9402;
347.7000;0.1514;3.9710;
348.0000;0.1506;3.9710;
348.3000;0.1506;3.9633;
348.6000;0.1514;3.9684;
348.9000;0.1522;3.9710;
349.2000;0.1514;3.9736;
349.5000;0.1530;3.9787;
349.8000;0.1514;3.9710;
350.1000;0.1506;3.9736;
350.4000;0.1490;3.9710;
350.7000;0.1481;3.9710;
351.0000;0.1506;3.9813;
351.3000;0.1530;3.9838;
351.6000;0.1506;3.9761;
351.9000;0.1498;3.9736;
352.2000;0.1571;3.9941;
352.5000;0.1506;3.9633;
352.8000;0.1506;3.9659;
353.1000;0.1490;3.9607;
353.4000;0.1498;3.9684;
353.7000;0.1514;3.9838;
354.0000;0.1498;3.9813;
354.3000;0.1490;3.9838;
354.6000;0.1514;3.9890;
354.9000;0.1514;3.9890;
355.2000;0.1514;3.9915;
355.5000;0.1506;3.9838;
355.8000;0.1498;3.9838;
356.1000;0.1514;3.9915;
356.4000;0.1514;3.9967;
356.7000;0.1490;3.9864;
357.0000;0.1498;3.9941;
357.3000;0.1490;3.9941;
357.6000;0.1498;3.9992;
357.9000;0.1522;4.0069;
358.2000;0.1514;3.9967;
358.5000;0.1498;3.9864;
358.8000;0.1522;3.9890;
359.1000;0.1490;3.9787;
359.4000;0.1490;3.9813;
359.7000;0.1522;3.9967;
360.0000;0.1506;3.9941;
360.3000;0.1498;3.9915;
360.6000;0.1514;4.0043;
360.9000;0.1498;4.0043;
361.2000;0.1490;3.9992;
361.5000;0.1498;3.9915;
361.8000;0.1490;3.9915;
362.1000;0.1498;3.9890;
362.4000;0.1481;3.9787;
362.7000;0.1498;3.9787;
363.0000;0.1514;3.9813;
363.3000;0.1490;3.9736;
363.6000;0.1490;3.9761;
363.9000;0.1538;3.9890;
364.2000;0.1555;3.9838;
364.5000;0.1498;3.9736;
364.8000;0.1522;3.9813;
365.1000;0.1490;3.9659;
365.4000;0.1498;3.9684;
365.7000;0.1506;3.9684;
366.0000;0.1514;3.9684;
366.3000;0.1498;3.9530;
366.6000;0.1530;3.9659;
366.9000;0.1579;3.9838;
367.2000;0.1490;3.9659;
367.5000;0.1425;3.9453;
367.8000;0.1514;3.9736;
368.1000;0.1473;3.9659;
368.4000;0.1490;3.9607;
368.7000;0.1498;3.9659;
369.0000;0.1400;3.9402;
369.3000;0.1538;3.9736;
369.6000;0.1449;3.9505;
369.9000;0.1571;3.9864;
370.2000;0.1490;3.9736;
370.5000;0.1400;3.9479;
370.8000;0.1498;3.9813;
371.1000;0.1514;3.9710;
371.4000;0.1433;3.9428;
371.7000;0.1465;3.9530;
372.0000;0.1506;3.9684;
372.3000;0.1490;3.9633;
372.6000;0.1490;3.9659;
372.9000;0.1481;3.9607;
373.2000;0.1465;3.9710;
373.5000;0.1506;3.9710;
373.8000;0.1498;3.9659;
374.1000;0.1498;3.9710;
374.4000;0.1514;3.9787;
374.7000;0.1522;3.9813;
375.0000;0.1522;3.9813;
375.3000;0.1506;3.9813;
375.6000;0.1514;3.9838;
375.9000;0.1498;3.9787;
376.2000;0.1595;4.0223;
376.5000;0.1498;3.9941;
376.8000;0.1506;3.9992;
377.1000;0.1571;4.0120;
377.4000;0.1481;3.9864;
377.7000;0.1490;3.9915;
378.0000;0.1522;3.9941;
378.3000;0.1498;3.9813;
378.6000;0.1498;3.9787;
378.9000;0.1481;3.9838;
379.2000;0.1538;4.0043;
379.5000;0.1530;4.0095;
379.8000;0.1506;4.0043;
380.1000;0.1498;4.0069;
380.4000;0.1514;4.0018;
380.7000;0.1498;3.9967;
381.0000;0.1530;4.0120;
381.3000;0.1506;3.9967;
381.6000;0.1506;3.9941;
381.9000;0.1457;3.9864;
382.2000;0.1465;3.9787;
382.5000;0.1506;3.9838;
382.8000;0.1506;3.9890;
383.1000;0.1498;3.9941;
383.4000;0.1506;3.9941;
383.7000;0.1514;3.9941;
384.0000;0.1490;3.9864;
384.3000;0.1498;3.9813;
384.6000;0.1506;3.9813;
384.9000;0.1490;3.9710;
385.2000;0.1506;3.9787;
385.5000;0.1506;3.9761;
385.8000;0.1481;3.9659;
386.1000;0.1530;3.9813;
386.4000;0.1498;3.9710;
386.7000;0.1514;3.9761;
387.0000;0.1506;3.9761;
387.3000;0.1457;3.9582;
387.6000;0.1506;3.9864;
387.9000;0.1530;3.9890;
388.2000;0.1538;3.9864;
388.5000;0.1498;3.9838;
388.8000;0.1498;3.9787;
389.1000;0.1506;3.9813;
389.4000;0.1514;3.9915;
389.7000;0.1506;3.9941;
390.0000;0.1522;3.9890;
390.3000;0.1498;3.9864;
390.6000;0.1465;3.9813;
390.9000;0.1514;3.9890;
391.2000;0.1514;3.9992;
391.5000;0.1612;4.0197;
391.8000;0.1506;3.9890;
392.1000;0.1514;3.9864;
392.4000;0.1490;3.9864;
392.7000;0.1514;3.9890;
393.0000;0.1506;3.9864;
393.3000;0.1506;3.9915;
393.6000;0.1498;3.9890;
393.9000;0.1506;3.9941;
394.2000;0.1506;3.9864;
394.5000;0.1514;3.9787;
394.8000;0.1506;3.9864;
395.1000;0.1522;3.9941;
395.4000;0.1498;3.9941;
395.7000;0.1490;3.9992;
396.0000;0.1490;3.9967;
396.3000;0.1506;3.9967;
396.6000;0.1514;3.9941;
396.9000;0.1498;3.9915;
397.2000;0.1514;3.9941;
397.5000;0.1522;3.9967;
397.8000;0.1571;4.0095;
398.1000;0.1571;4.0069;
398.4000;0.1522;3.9915;
398.7000;0.1514;3.9890;
399.0000;0.1498;3.9813;
399.3000;0.1522;3.9915;
399.6000;0.1498;3.9941;
399.9000;0.1498;3.9941;
400.2000;0.1400;3.9684;
400.5000;0.1506;3.9890;
400.8000;0.1498;3.9864;
401.1000;0.1530;3.9838;
401.4000;0.1522;3.9761;
401.7000;0.1514;3.9761;
402.0000;0.1506;3.9684;
402.3000;0.1514;3.9659;
402.6000;0.1506;3.9659;
402.9000;0.1481;3.9684;
403.2000;0.1498;3.9787;
403.5000;0.1498;3.9736;
403.8000;0.1530;3.9813;
404.1000;0.1522;3.9787;
404.4000;0.1498;3.9633;
404.7000;0.1498;3.9607;
405.0000;0.1490;3.9530;
405.3000;0.1498;3.9530;
405.6000;0.1506;3.9607;
405.9000;0.1514;3.9556;
406.2000;0.1514;3.9530;
406.5000;0.1514;3.9556;
406.8000;0.1506;3.9607;
407.1000;0.1514;3.9633;
407.4000;0.1547;3.9761;
407.7000;0.1514;3.9607;
408.0000;0.1490;3.9530;
408.3000;0.1400;3.9274;
408.6000;0.1514;3.9582;
408.9000;0.1498;3.9530;
409.2000;0.1522;3.9684;
409.5000;0.1498;3.9633;
409.8000;0.1490;3.9659;
410.1000;0.1481;3.9556;
410.4000;0.1514;3.9659;
410.7000;0.1498;3.9633;
411.0000;0.1498;3.9607;
411.3000;0.1530;3.9736;
411.6000;0.1514;3.9710;
411.9000;0.1514;3.9736;
412.2000;0.1506;3.9710;
412.5000;0.1547;3.9813;
412.8000;0.1514;3.9736;
413.1000;0.1506;3.9684;
413.4000;0.1498;3.9633;
413.7000;0.1498;3.9684;
414.0000;0.1506;3.9710;
414.3000;0.1498;3.9607;
414.6000;0.1490;3.9659;
414.9000;0.1538;3.9838;
415.2000;0.1465;3.9736;
415.5000;0.1628;4.0146;
415.8000;0.1481;3.9633;
416.1000;0.1498;3.9633;
416.4000;0.1498;3.9684;
416.7000;0.1555;3.9787;
417.0000;0.1506;3.9582;
417.3000;0.1506;3.9607;
417.6000;0.1481;3.9556;
417.9000;0.1498;3.9659;
418.2000;0.1506;3.9710;
418.5000;0.1481;3.9684;
418.8000;0.1514;3.9813;
419.1000;0.1506;3.9864;
419.4000;0.1506;3.9864;
419.7000;0.1490;3.9813;
420.0000;0.1465;3.9659;
420.3000;0.1473;3.9761;
420.6000;0.1514;3.9890;
420.9000;0.1530;3.9915;
421.2000;0.1506;3.9864;
421.5000;0.1595;4.0120;
421.8000;0.1457;3.9761;
422.1000;0.1628;4.0223;
422.4000;0.1506;3.9890;
422.7000;0.1498;3.9890;
423.0000;0.1514;3.9864;
423.3000;0.1571;3.9941;
423.6000;0.1506;3.9761;
423.9000;0.1498;3.9761;
424.2000;0.1425;3.9556;
424.5000;0.1514;3.9838;
424.8000;0.1498;3.9838;
425.1000;0.1498;3.9736;
425.4000;0.1490;3.9761;
425.7000;0.1498;3.9787;
426.0000;0.1506;3.9710;
426.3000;0.1514;3.9710;
426.6000;0.1481;3.9684;
426.9000;0.1498;3.9659;
427.2000;0.1530;3.9710;
427.5000;0.1506;3.9710;
427.8000;0.1506;3.9761;
428.1000;0.1514;3.9761;
428.4000;0.1490;3.9633;
428.7000;0.1498;3.9684;
429.0000;0.1490;3.9684;
429.3000;0.1506;3.9710;
429.6000;0.1506;3.9633;
429.9000;0.1538;3.9761;
430.2000;0.1498;3.9736;
430.5000;0.1481;3.9633;
430.8000;0.1514;3.9633;
431.1000;0.1481;3.9530;
431.4000;0.1522;3.9633;
431.7000;0.1490;3.9607;
432.0000;0.1538;3.9736;
432.3000;0.1449;3.9479;
432.6000;0.1490;3.9710;
432.9000;0.1498;3.9787;
433.2000;0.1490;3.9761;
433.5000;0.1514;3.9761;
433.8000;0.1506;3.9684;
434.1000;0.1473;3.9659;
434.4000;0.1506;3.9710;
434.7000;0.1506;3.9761;
435.0000;0.1498;3.9736;
435.3000;0.1506;3.9684;
435.6000;0.1506;3.9684;
435.9000;0.1506;3.9710;
436.2000;0.1514;3.9838;
436.5000;0.1457;3.9787;
436.8000;0.1498;3.9838;
437.1000;0.1506;3.9915;
437.4000;0.1498;3.9890;
437.7000;0.1506;3.9890;
438.0000;0.1506;3.9864;
438.3000;0.1571;3.9967;
438.6000;0.1579;3.9890;
438.9000;0.1498;3.9582;
439.2000;0.1498;3.9607;
439.5000;0.1522;3.9710;
439.8000;0.1522;3.9659;
440.1000;0.1498;3.9633;
440.4000;0.1490;3.9530;
440.7000;0.1384;3.9197;
441.0000;0.1408;3.9197;
441.3000;0.1522;3.9505;
441.6000;0.1595;3.9890;
441.9000;0.1522;3.9761;
442.2000;0.1498;3.9710;
442.5000;0.1514;3.9684;
442.8000;0.1481;3.9556;
443.1000;0.1490;3.9607;
443.4000;0.1490;3.9633;
443.7000;0.1563;3.9864;
444.0000;0.1506;3.9761;
444.3000;0.1522;3.9838;
444.6000;0.1506;3.9787;
444.9000;0.1514;3.9813;
445.2000;0.1514;3.9838;
445.5000;0.1612;4.0095;
445.8000;0.1530;3.9761;
446.1000;0.1530;3.9787;
446.4000;0.1506;3.9710;
446.7000;0.1506;3.9684;
447.0000;0.1506;3.9736;
447.3000;0.1498;3.9659;
447.6000;0.1490;3.9556;
447.9000;0.1514;3.9607;
448.2000;0.1498;3.9633;
448.5000;0.1473;3.9582;
448.8000;0.1506;3.9582;
449.1000;0.1473;3.9479;
449.4000;0.1506;3.9607;
449.7000;0.1498;3.9659;
450.0000;0.1498;3.9710;
450.3000;0.1473;3.9582;
450.6000;0.1522;3.9813;
450.9000;0.1555;3.9967;
451.2000;0.1498;3.9890;
451.5000;0.1506;3.9864;
451.8000;0.1481;3.9761;
452.1000;0.1498;3.9761;
452.4000;0.1490;3.9684;
452.7000;0.1481;3.9582;
453.0000;0.1498;3.9607;
453.3000;0.1473;3.9428;
453.6000;0.1506;3.9556;
453.9000;0.1490;3.9453;
454.2000;0.1473;3.9428;
454.5000;0.1522;3.9633;
454.8000;0.1473;3.9556;
455.1000;0.1522;3.9736;
455.4000;0.1498;3.9761;
455.7000;0.1481;3.9607;
456.0000;0.1506;3.9505;
456.3000;0.1498;3.9505;
456.6000;0.1514;3.9582;
456.9000;0.1433;3.9428;
457.2000;0.1490;3.9633;
457.5000;0.1481;3.9556;
457.8000;0.1498;3.9684;
458.1000;0.1481;3.9684;
458.4000;0.1465;3.9633;
458.7000;0.1506;3.9761;
459.0000;0.1522;3.9761;
459.3000;0.1481;3.9710;
459.6000;0.1506;3.9736;
459.9000;0.1498;3.9710;
460.2000;0.1506;3.9736;
460.5000;0.1514;3.9710;
460.8000;0.1481;3.9633;
461.1000;0.1481;3.9633;
461.4000;0.1522;3.9710;
461.7000;0.1506;3.9633;
462.0000;0.1555;3.9838;
462.3000;0.1604;3.9992;
462.6000;0.1498;3.9710;
462.9000;0.1465;3.9659;
463.2000;0.1457;3.9582;
463.5000;0.1538;3.9864;
463.8000;0.1481;3.9710;
464.1000;0.1498;3.9761;
464.4000;0.1514;3.9813;
464.7000;0.1498;3.9761;
465.0000;0.1506;3.9813;
465.3000;0.1465;3.9684;
465.6000;0.1620;4.0043;
465.9000;0.1490;3.9684;
466.2000;0.1514;3.9710;
466.5000;0.1506;3.9659;
466.8000;0.1498;3.9659;
467.1000;0.1514;3.9787;
467.4000;0.1522;3.9761;
467.7000;0.1481;3.9659;
468.0000;0.1522;3.9710;
468.3000;0.1473;3.9556;
468.6000;0.1506;3.9607;
468.9000;0.1490;3.9633;
469.2000;0.1514;3.9633;
469.5000;0.1506;3.9659;
469.8000;0.1530;3.9659;
470.1000;0.1514;3.9659;
470.4000;0.1490;3.9582;
470.7000;0.1498;3.9556;
471.0000;0.1506;3.9659;
471.3000;0.1490;3.9607;
471.6000;0.1514;3.9607;
471.9000;0.1490;3.9659;
472.2000;0.1530;3.9736;
472.5000;0.1522;3.9787;
472.8000;0.1506;3.9787;
473.1000;0.1457;3.9684;
473.4000;0.1514;3.9838;
473.7000;0.1514;3.9864;
474.0000;0.1481;3.9684;
474.3000;0.1481;3.9633;
474.6000;0.1506;3.9633;
474.9000;0.1563;3.9710;
475.2000;0.1506;3.9607;
475.5000;0.1514;3.9736;
475.8000;0.1498;3.9736;
476.1000;0.1498;3.9736;
476.4000;0.1514;3.9710;
476.7000;0.1514;3.9607;
477.0000;0.1506;3.9710;
477.3000;0.1506;3.9710;
477.6000;0.1506;3.9710;
477.9000;0.1514;3.9813;
478.2000;0.1449;3.9633;
478.5000;0.1498;3.9659;
478.8000;0.1481;3.9659;
479.1000;0.1490;3.9787;
479.4000;0.1498;3.9864;
479.7000;0.1498;3.9864;
480.0000;0.1465;3.9761;
480.3000;0.1473;3.9813;
480.6000;0.1490;3.9915;
480.9000;0.1514;3.9941;
481.2000;0.1490;3.9915;
481.5000;0.1490;3.9915;
481.8000;0.1514;3.9941;
482.1000;0.1481;3.9838;
482.4000;0.1514;3.9838;
482.7000;0.1481;3.9710;
483.0000;0.1506;3.9813;
483.3000;0.1514;3.9838;
483.6000;0.1481;3.9787;
483.9000;0.1490;3.9864;
484.2000;0.1579;4.0197;
484.5000;0.1538;4.0069;
484.8000;0.1514;4.0043;
485.1000;0.1506;4.0018;
485.4000;0.1481;3.9967;
485.7000;0.1514;3.9992;
486.0000;0.1506;4.0069;
486.3000;0.1498;3.9941;
486.6000;0.1481;3.9890;
486.9000;0.1514;3.9992;
487.2000;0.1530;4.0095;
487.5000;0.1506;3.9941;
487.8000;0.1506;3.9890;
488.1000;0.1514;3.9992;
488.4000;0.1490;3.9992;
488.7000;0.1587;4.0274;
489.0000;0.1530;4.0069;
489.3000;0.1498;3.9992;
489.6000;0.1506;4.0043;
489.9000;0.1506;4.0018;
490.2000;0.1498;3.9941;
490.5000;0.1498;3.9992;
490.8000;0.1514;4.0095;
491.1000;0.1506;4.0043;
491.4000;0.1514;4.0018;
491.7000;0.1490;4.0043;
492.0000;0.1506;4.0043;
492.3000;0.1514;4.0018;
492.6000;0.1498;3.9992;
492.9000;0.1490;3.9967;
493.2000;0.1490;3.9967;
493.5000;0.1522;4.0069;
493.8000;0.1498;4.0069;
494.1000;0.1514;4.0069;
494.4000;0.1506;4.0069;
494.7000;0.1498;3.9992;
495.0000;0.1498;3.9967;
495.3000;0.1449;3.9890;
495.6000;0.1481;3.9941;
495.9000;0.1498;4.0069;
496.2000;0.1490;4.0018;
496.5000;0.1522;4.0120;
496.8000;0.1530;4.0095;
497.1000;0.1563;4.0223;
497.4000;0.1498;4.0095;
497.7000;0.1522;4.0095;
498.0000;0.1555;4.0197;
498.3000;0.1506;4.0172;
498.6000;0.1498;4.0120;
498.9000;0.1498;4.0172;
499.2000;0.1457;4.0069;
499.5000;0.1490;4.0043;
499.8000;0.1506;4.0043;
500.1000;0.1498;4.0018;
500.4000;0.1490;3.9967;
500.7000;0.1498;3.9915;
501.0000;0.1498;3.9864;
501.3000;0.1490;3.9864;
501.6000;0.1506;3.9838;
501.9000;0.1522;3.9864;
502.2000;0.1449;3.9684;
502.5000;0.1514;3.9890;
502.8000;0.1490;3.9967;
503.1000;0.1498;3.9915;
503.4000;0.1587;4.0274;
503.7000;0.1506;4.0095;
504.0000;0.1498;4.0069;
504.3000;0.1465;3.9992;
504.6000;0.1490;4.0172;
504.9000;0.1506;4.0197;
505.2000;0.1490;4.0095;
505.5000;0.1522;4.0172;
505.8000;0.1481;4.0043;
506.1000;0.1522;4.0095;
506.4000;0.1473;3.9890;
506.7000;0.1506;4.0043;
507.0000;0.1579;4.0300;
507.3000;0.1530;4.0095;
507.6000;0.1514;4.0069;
507.9000;0.1587;4.0223;
508.2000;0.1547;4.0120;
508.5000;0.1481;3.9915;
508.8000;0.1498;4.0095;
509.1000;0.1490;4.0018;
509.4000;0.1506;4.0095;
509.7000;0.1490;4.0095;
510.0000;0.1498;4.0069;
510.3000;0.1522;4.0146;
510.6000;0.1498;4.0249;
510.9000;0.1498;4.0223;
511.2000;0.1506;4.0223;
511.5000;0.1571;4.0326;
511.8000;0.1506;4.0095;
512.1000;0.1506;4.0069;
512.4000;0.1506;4.0120;
512.7000;0.1522;3.9992;
513.0000;0.1506;3.9864;
513.3000;0.1579;4.0095;
513.6000;0.1490;3.9813;
513.9000;0.1498;3.9838;
514.2000;0.1498;3.9864;
514.5000;0.1506;3.9890;
514.8000;0.1490;3.9864;
515.1000;0.1514;3.9967;
515.4000;0.1514;3.9967;
515.7000;0.1514;3.9941;
516.0000;0.1506;3.9967;
516.3000;0.1595;4.0300;
516.6000;0.1514;3.9992;
516.9000;0.1473;3.9941;
517.2000;0.1506;4.0095;
517.5000;0.1498;4.0043;
517.8000;0.1498;3.9941;
518.1000;0.1555;4.0172;
518.4000;0.1514;4.0018;
518.7000;0.1522;4.0069;
519.0000;0.1522;4.0043;
519.3000;0.1530;4.0069;
519.6000;0.1498;3.9967;
519.9000;0.1498;3.9941;
520.2000;0.1490;3.9838;
520.5000;0.1498;3.9890;
520.8000;0.1506;3.9992;
521.1000;0.1514;4.0043;
521.4000;0.1490;3.9941;
521.7000;0.1498;3.9992;
522.0000;0.1498;3.9992;
522.3000;0.1522;4.0018;
522.6000;0.1473;3.9967;
522.9000;0.1530;4.0146;
523.2000;0.1498;4.0146;
523.5000;0.1514;4.0223;
523.8000;0.1514;4.0069;
524.1000;0.1490;4.0043;
524.4000;0.1514;4.0043;
524.7000;0.1514;3.9941;
525.0000;0.1490;3.9813;
525.3000;0.1490;3.9761;
525.6000;0.1506;3.9813;
525.9000;0.1498;3.9864;
526.2000;0.1530;3.9915;
526.5000;0.1481;3.9761;
526.8000;0.1498;3.9838;
527.1000;0.1522;3.9992;
527.4000;0.1449;3.9813;
527.7000;0.1490;3.9967;
528.0000;0.1490;3.9992;
528.3000;0.1498;4.0043;
528.6000;0.1498;4.0069;
528.9000;0.1498;4.0146;
529.2000;0.1481;4.0018;
529.5000;0.1490;4.0069;
529.8000;0.1522;4.0095;
530.1000;0.1481;4.0043;
530.4000;0.1498;4.0069;
530.7000;0.1514;4.0018;
531.0000;0.1547;4.0095;
531.3000;0.1506;3.9992;
531.6000;0.1481;3.9941;
531.9000;0.1449;3.9813;
532.2000;0.1506;3.9915;
532.5000;0.1473;3.9787;
532.8000;0.1498;3.9813;
533.1000;0.1506;3.9890;
533.4000;0.1498;3.9890;
533.7000;0.1530;3.9967;
534.0000;0.1514;3.9992;
534.3000;0.1449;3.9890;
534.6000;0.1506;4.0018;
534.9000;0.1490;3.9967;
535.2000;0.1547;4.0018;
535.5000;0.1392;3.9633;
535.8000;0.1514;3.9941;
536.1000;0.1481;3.9838;
536.4000;0.1481;3.9838;
536.7000;0.1498;3.9890;
537.0000;0.1368;3.9582;
537.3000;0.1514;4.0018;
537.6000;0.1514;3.9967;
537.9000;0.1425;3.9659;
538.2000;0.1514;3.9941;
538.5000;0.1506;4.0018;
538.8000;0.1506;3.9915;
539.1000;0.1498;3.9890;
539.4000;0.1473;3.9761;
539.7000;0.1571;3.9915;
540.0000;0.1473;3.9710;
540.3000;0.1506;3.9787;
540.6000;0.1498;3.9684;
540.9000;0.1530;3.9787;
541.2000;0.1498;3.9684;
541.5000;0.1522;3.9659;
541.8000;0.1490;3.9582;
542.1000;0.1425;3.9453;
542.4000;0.1506;3.9684;
542.7000;0.1506;3.9710;
543.0000;0.1506;3.9787;
543.3000;0.1555;3.9967;
543.6000;0.1530;3.9761;
543.9000;0.1530;3.9710;
544.2000;0.1522;3.9736;
544.5000;0.1514;3.9787;
544.8000;0.1530;3.9838;
545.1000;0.1530;3.9915;
545.4000;0.1522;3.9967;
545.7000;0.1514;3.9992;
546.0000;0.1498;3.9992;
546.3000;0.1514;4.0018;
546.6000;0.1514;4.0018;
546.9000;0.1490;3.9992;
547.2000;0.1481;3.9967;
547.5000;0.1506;3.9941;
547.8000;0.1506;3.9890;
548.1000;0.1514;3.9915;
548.4000;0.1498;3.9864;
548.7000;0.1498;3.9838;
549.0000;0.1481;3.9838;
549.3000;0.1514;3.9890;
549.6000;0.1481;3.9787;
549.9000;0.1530;3.9838;
550.2000;0.1498;3.9710;
550.5000;0.1506;3.9710;
550.8000;0.1481;3.9710;
551.1000;0.1498;3.9787;
551.4000;0.1506;3.9838;
551.7000;0.1498;3.9915;
552.0000;0.1506;3.9915;
552.3000;0.1522;3.9967;
552.6000;0.1490;3.9890;
552.9000;0.1498;3.9864;
553.2000;0.1457;3.9736;
553.5000;0.1481;3.9864;
553.8000;0.1498;3.9941;
554.1000;0.1514;3.9941;
554.4000;0.1538;3.9941;
554.7000;0.1498;3.9787;
555.0000;0.1449;3.9736;
555.3000;0.1514;3.9890;
555.6000;0.1538;3.9967;
555.9000;0.1481;3.9736;
556.2000;0.1514;3.9838;
556.5000;0.1408;3.9659;
556.8000;0.1506;3.9890;
557.1000;0.1449;3.9761;
557.4000;0.1522;3.9967;
557.7000;0.1514;3.9864;
558.0000;0.1498;3.9787;
558.3000;0.1604;4.0223;
558.6000;0.1498;3.9941;
558.9000;0.1555;4.0146;
559.2000;0.1498;4.0018;
559.5000;0.1547;4.0120;
559.8000;0.1457;3.9864;
560.1000;0.1425;3.9710;
560.4000;0.1522;3.9992;
560.7000;0.1506;3.9992;
561.0000;0.1490;3.9992;
561.3000;0.1514;4.0069;
561.6000;0.1498;4.0043;
561.9000;0.1506;3.9992;
562.2000;0.1490;3.9967;
562.5000;0.1490;3.9890;
562.8000;0.1522;4.0018;
563.1000;0.1473;3.9890;
563.4000;0.1506;3.9890;
563.7000;0.1506;3.9736;
564.0000;0.1490;3.9761;
564.3000;0.1506;3.9813;
564.6000;0.1498;3.9890;
564.9000;0.1498;3.9787;
565.2000;0.1506;3.9890;
565.5000;0.1498;3.9890;
565.8000;0.1530;3.9941;
566.1000;0.1506;3.9864;
566.4000;0.1498;3.9838;
566.7000;0.1506;3.9787;
567.0000;0.1514;3.9838;
567.3000;0.1490;3.9736;
567.6000;0.1465;3.9710;
567.9000;0.1506;3.9761;
568.2000;0.1514;3.9787;
568.5000;0.1514;3.9864;
568.8000;0.1490;3.9915;
569.1000;0.1506;3.9992;
569.4000;0.1490;3.9967;
569.7000;0.1522;4.0043;
570.0000;0.1498;4.0043;
570.3000;0.1514;4.0018;
570.6000;0.1433;3.9710;
570.9000;0.1506;4.0043;
571.2000;0.1506;4.0069;
571.5000;0.1514;3.9992;
571.8000;0.1547;3.9967;
572.1000;0.1506;3.9890;
572.4000;0.1522;3.9941;
572.7000;0.1498;3.9941;
573.0000;0.1506;4.0018;
573.3000;0.1555;4.0146;
573.6000;0.1506;4.0043;
573.9000;0.1506;4.0018;
574.2000;0.1498;3.9992;
574.5000;0.1506;3.9992;
574.8000;0.1514;3.9890;
575.1000;0.1498;3.9787;
575.4000;0.1498;3.9659;
575.7000;0.1457;3.9530;
576.0000;0.1514;3.9684;
576.3000;0.1514;3.9710;
576.6000;0.1522;3.9787;
576.9000;0.1514;3.9787;
577.2000;0.1587;4.0043;
577.5000;0.1490;3.9864;
577.8000;0.1514;3.9915;
578.1000;0.1490;3.9890;
578.4000;0.1522;4.0018;
578.7000;0.1490;3.9890;
579.0000;0.1547;4.0095;
579.3000;0.1547;4.0146;
579.6000;0.1408;3.9736;
579.9000;0.1498;3.9967;
580.2000;0.1473;3.9864;
580.5000;0.1514;4.0043;
580.8000;0.1498;3.9992;
581.1000;0.1490;3.9915;
581.4000;0.1506;4.0018;
581.7000;0.1506;3.9992;
582.0000;0.1506;4.0043;
582.3000;0.1490;3.9967;
582.6000;0.1514;3.9967;
582.9000;0.1514;3.9941;
583.2000;0.1604;4.0197;
583.5000;0.1514;3.9890;
583.8000;0.1514;3.9915;
584.1000;0.1538;3.9941;
584.4000;0.1514;3.9941;
584.7000;0.1490;4.0018;
585.0000;0.1490;4.0043;
585.3000;0.1563;4.0120;
585.6000;0.1490;3.9941;
585.9000;0.1506;4.0018;
586.2000;0.1506;3.9864;
586.5000;0.1514;3.9992;
586.8000;0.1522;4.0018;
587.1000;0.1498;3.9992;
587.4000;0.1538;4.0018;
587.7000;0.1538;4.0018;
588.0000;0.1498;3.9967;
588.3000;0.1514;3.9992;
588.6000;0.1498;3.9941;
588.9000;0.1514;3.9890;
589.2000;0.1400;3.9530;
589.5000;0.1498;3.9761;
589.8000;0.1490;3.9787;
590.1000;0.1441;3.9684;
590.4000;0.1490;3.9761;
590.7000;0.1506;3.9787;
591.0000;0.1490;3.9684;
591.3000;0.1522;3.9787;
591.6000;0.1514;3.9761;
591.9000;0.1490;3.9736;
592.2000;0.1530;3.9813;
592.5000;0.1530;3.9787;
592.8000;0.1473;3.9607;
593.1000;0.1457;3.9556;
593.4000;0.1498;3.9736;
593.7000;0.1490;3.9813;
594.0000;0.1498;3.9915;
594.3000;0.1416;3.9736;
594.6000;0.1457;3.9890;
594.9000;0.1490;3.9992;
595.2000;0.1506;4.0043;
595.5000;0.1571;4.0197;
595.8000;0.1514;3.9941;
596.1000;0.1498;4.0018;
596.4000;0.1563;4.0197;
596.7000;0.1506;4.0043;
597.0000;0.1481;3.9967;
597.3000;0.1465;3.9941;
597.6000;0.1506;3.9915;
597.9000;0.1498;3.9813;
598.2000;0.1498;3.9761;
598.5000;0.1490;3.9787;
598.8000;0.1506;3.9890;
599.1000;0.1498;3.9864;
599.4000;0.1490;3.9787;
599.7000;0.1506;3.9813;
600.0000;0.1498;3.9787;
600.3000;0.1490;3.9813;
600.6000;0.1490;3.9787;
600.9000;0.1481;3.9684;
601.2000;0.1490;3.9607;
601.5000;0.1465;3.9402;
601.8000;0.1481;3.9402;
602.1000;0.1490;3.9377;
602.4000;0.1441;3.9171;
602.7000;0.1481;3.9171;
603.0000;0.1457;3.9017;
603.3000;0.1433;3.8915;
603.6000;0.1465;3.8863;
603.9000;0.1433;3.8812;
604.2000;0.1425;3.8735;
604.5000;0.1302;3.8376;
604.8000;0.1441;3.8710;
605.1000;0.1408;3.8684;
605.4000;0.1408;3.8607;
605.7000;0.1400;3.8607;
606.0000;0.1416;3.8633;
606.3000;0.1384;3.8504;
606.6000;0.1400;3.8581;
606.9000;0.1392;3.8581;
607.2000;0.1416;3.8710;
607.5000;0.1392;3.8658;
607.8000;0.1392;3.8633;
608.1000;0.1400;3.8607;
608.4000;0.1376;3.8530;
608.7000;0.1392;3.8479;
609.0000;0.1368;3.8376;
609.3000;0.1368;3.8453;
609.6000;0.1368;3.8427;
609.9000;0.1335;3.8376;
610.2000;0.1359;3.8402;
610.5000;0.1351;3.8350;
610.8000;0.1351;3.8376;
611.1000;0.1327;3.8273;
611.4000;0.1351;3.8325;
611.7000;0.1368;3.8325;
612.0000;0.1359;3.8325;
612.3000;0.1376;3.8427;
612.6000;0.1335;3.8350;
612.9000;0.1351;3.8402;
613.2000;0.1335;3.8350;
613.5000;0.1351;3.8350;
613.8000;0.1343;3.8248;
614.1000;0.1359;3.8273;
614.4000;0.1335;3.8248;
614.7000;0.1327;3.8171;
615.0000;0.1335;3.8248;
615.3000;0.1335;3.8222;
615.6000;0.1319;3.8222;
615.9000;0.1335;3.8222;
616.2000;0.1327;3.8273;
616.5000;0.1319;3.8171;
616.8000;0.1311;3.8145;
617.1000;0.1351;3.8273;
617.4000;0.1343;3.8171;
617.7000;0.1319;3.8068;
618.0000;0.1343;3.8094;
618.3000;0.1335;3.8043;
618.6000;0.1294;3.8017;
618.9000;0.1311;3.8068;
619.2000;0.1335;3.8248;
619.5000;0.1311;3.8197;
619.8000;0.1302;3.8171;
620.1000;0.1294;3.8145;
620.4000;0.1302;3.8197;
620.7000;0.1294;3.8222;
621.0000;0.1294;3.8273;
621.3000;0.1302;3.8273;
621.6000;0.1286;3.8273;
621.9000;0.1302;3.8222;
622.2000;0.1319;3.8068;
622.5000;0.1286;3.8017;
622.8000;0.1294;3.8145;
623.1000;0.1319;3.8197;
623.4000;0.1270;3.8094;
623.7000;0.1164;3.7786;
624.0000;0.1351;3.8350;
624.3000;0.1286;3.8145;
624.6000;0.1302;3.8094;
624.9000;0.1294;3.8120;
625.2000;0.1351;3.8325;
625.5000;0.1278;3.8094;
625.8000;0.1286;3.8222;
626.1000;0.1286;3.8171;
626.4000;0.1278;3.8043;
626.7000;0.1180;3.7606;
627.0000;0.1278;3.7863;
627.3000;0.1286;3.7940;
627.6000;0.1278;3.7914;
627.9000;0.1278;3.7863;
628.2000;0.1270;3.7837;
628.5000;0.1286;3.7940;
628.8000;0.1229;3.7812;
629.1000;0.1262;3.7863;
629.4000;0.1278;3.7940;
629.7000;0.1213;3.7735;
630.0000;0.1245;3.7863;
630.3000;0.1262;3.7940;
630.6000;0.1270;3.7991;
630.9000;0.1262;3.8043;
631.2000;0.1286;3.8068;
631.5000;0.1245;3.7991;
631.8000;0.1205;3.7837;
632.1000;0.1245;3.8017;
632.4000;0.1262;3.8145;
632.7000;0.1254;3.8171;
633.0000;0.1319;3.8273;
633.3000;0.1286;3.8094;
633.6000;0.1262;3.8043;
633.9000;0.1254;3.8068;
634.2000;0.1311;3.8171;
634.5000;0.1245;3.7991;
634.8000;0.1262;3.7991;
635.1000;0.1254;3.8043;
635.4000;0.1254;3.8094;
635.7000;0.1237;3.8068;
636.0000;0.1254;3.8043;
636.3000;0.1262;3.8017;
636.6000;0.1254;3.8017;
636.9000;0.1237;3.7991;
637.2000;0.1245;3.8043;
637.5000;0.1237;3.8094;
637.8000;0.1229;3.8171;
638.1000;0.1254;3.8171;
638.4000;0.1245;3.8120;
638.7000;0.1254;3.8197;
639.0000;0.1237;3.8145;
639.3000;0.1270;3.8222;
639.6000;0.1107;3.7812;
639.9000;0.1270;3.8171;
640.2000;0.1245;3.8094;
640.5000;0.1229;3.8043;
640.8000;0.1221;3.8043;
641.1000;0.1237;3.8145;
641.4000;0.1229;3.8145;
641.7000;0.1229;3.8145;
642.0000;0.1254;3.8273;
642.3000;0.1221;3.8197;
642.6000;0.1205;3.8222;
642.9000;0.1213;3.8171;
643.2000;0.1237;3.8145;
643.5000;0.1131;3.7889;
643.8000;0.1229;3.8068;
644.1000;0.1229;3.8094;
644.4000;0.1229;3.8043;
644.7000;0.1229;3.8017;
645.0000;0.1164;3.7889;
645.3000;0.1237;3.8068;
645.6000;0.1229;3.8043;
645.9000;0.1213;3.7991;
646.2000;0.1213;3.8017;
646.5000;0.1205;3.8017;
646.8000;0.1229;3.8094;
647.1000;0.1180;3.7991;
647.4000;0.1229;3.8171;
647.7000;0.1221;3.8120;
648.0000;0.1197;3.8043;
648.3000;0.1229;3.8043;
648.6000;0.1131;3.7863;
648.9000;0.1302;3.8427;
649.2000;0.1245;3.8325;
649.5000;0.1229;3.8197;
649.8000;0.1213;3.8017;
650.1000;0.1221;3.8017;
650.4000;0.1180;3.7940;
650.7000;0.1164;3.7914;
651.0000;0.1197;3.8094;
651.3000;0.1099;3.7812;
651.6000;0.1229;3.8197;
651.9000;0.1237;3.8222;
652.2000;0.1229;3.8171;
652.5000;0.1140;3.7914;
652.8000;0.1213;3.8120;
653.1000;0.1205;3.8068;
653.4000;0.1213;3.8068;
653.7000;0.1213;3.8043;
654.0000;0.1229;3.8094;
654.3000;0.1221;3.8017;
654.6000;0.1237;3.8094;
654.9000;0.1245;3.8222;
655.2000;0.1197;3.8120;
655.5000;0.1188;3.8145;
655.8000;0.1229;3.8145;
656.1000;0.1213;3.8094;
656.4000;0.1205;3.8094;
656.7000;0.1205;3.8120;
657.0000;0.1188;3.8068;
657.3000;0.1205;3.8145;
657.6000;0.1213;3.8197;
657.9000;0.1278;3.8376;
658.2000;0.1197;3.8094;
658.5000;0.1188;3.8017;
658.8000;0.1197;3.8017;
659.1000;0.1172;3.7966;
659.4000;0.1188;3.8068;
659.7000;0.1221;3.8248;
660.0000;0.1213;3.8248;
660.3000;0.1205;3.8197;
660.6000;0.1205;3.8197;
660.9000;0.1197;3.8094;
661.2000;0.1205;3.7966;
661.5000;0.1221;3.8171;
661.8000;0.1172;3.8017;
662.1000;0.1197;3.8145;
662.4000;0.1188;3.8094;
662.7000;0.1140;3.7914;
663.0000;0.1197;3.8120;
663.3000;0.1205;3.8171;
663.6000;0.1172;3.8094;
663.9000;0.1205;3.8120;
664.2000;0.1180;3.8017;
664.5000;0.1205;3.8120;
664.8000;0.1180;3.8094;
665.1000;0.1213;3.8222;
665.4000;0.1213;3.8222;
665.7000;0.1205;3.8222;
666.0000;0.1205;3.8171;
666.3000;0.1245;3.8299;
666.6000;0.1188;3.8094;
666.9000;0.1197;3.8171;
667.2000;0.1197;3.8197;
667.5000;0.1205;3.8171;
667.8000;0.1188;3.8171;
668.1000;0.1180;3.8222;
668.4000;0.1180;3.8197;
668.7000;0.1148;3.8120;
669.0000;0.1205;3.8197;
669.3000;0.1180;3.8171;
669.6000;0.1156;3.8094;
669.9000;0.1180;3.8145;
670.2000;0.1188;3.8222;
670.5000;0.1254;3.8376;
670.8000;0.1213;3.8145;
671.1000;0.1148;3.7991;
671.4000;0.1205;3.8145;
671.7000;0.1156;3.8043;
672.0000;0.1131;3.7966;
672.3000;0.1205;3.8171;
672.6000;0.1229;3.8273;
672.9000;0.1197;3.8248;
673.2000;0.1172;3.8248;
673.5000;0.1188;3.8248;
673.8000;0.1197;3.8222;
674.1000;0.1115;3.8094;
674.4000;0.1197;3.8273;
674.7000;0.1188;3.8222;
675.0000;0.1164;3.8171;
675.3000;0.1205;3.8325;
675.6000;0.1188;3.8325;
675.9000;0.1172;3.8273;
676.2000;0.1205;3.8427;
676.5000;0.1148;3.8197;
676.8000;0.1188;3.8273;
677.1000;0.1188;3.8197;
677.4000;0.1188;3.8273;
677.7000;0.1180;3.8222;
678.0000;0.1164;3.8171;
678.3000;0.1164;3.8145;
678.6000;0.1205;3.8145;
678.9000;0.1188;3.8145;
679.2000;0.1213;3.8171;
679.5000;0.1213;3.8094;
679.8000;0.1188;3.8068;
680.1000;0.1140;3.7889;
680.4000;0.1180;3.7914;
680.7000;0.1180;3.7940;
681.0000;0.1197;3.7991;
681.3000;0.1164;3.7991;
681.6000;0.1205;3.8145;
681.9000;0.1164;3.7966;
682.2000;0.1156;3.8017;
682.5000;0.1188;3.8145;
682.8000;0.1164;3.8094;
683.1000;0.1205;3.8273;
683.4000;0.1180;3.8145;
683.7000;0.1188;3.8248;
684.0000;0.1172;3.8273;
684.3000;0.1156;3.8273;
684.6000;0.1172;3.8402;
684.9000;0.1188;3.8427;
685.2000;0.1172;3.8402;
685.5000;0.1188;3.8453;
685.8000;0.1115;3.8222;
686.1000;0.1164;3.8325;
686.4000;0.1213;3.8479;
686.7000;0.1123;3.8171;
687.0000;0.1180;3.8299;
687.3000;0.1180;3.8325;
687.6000;0.1188;3.8273;
687.9000;0.1197;3.8350;
688.2000;0.1107;3.8043;
688.5000;0.1156;3.8222;
688.8000;0.1188;3.8299;
689.1000;0.1180;3.8325;
689.4000;0.1180;3.8273;
689.7000;0.1172;3.8273;
690.0000;0.1140;3.8248;
690.3000;0.1131;3.8171;
690.6000;0.1042;3.7889;
690.9000;0.1205;3.8350;
691.2000;0.1205;3.8402;
691.5000;0.1197;3.8350;
691.8000;0.1197;3.8299;
692.1000;0.1180;3.8325;
692.4000;0.1237;3.8479;
692.7000;0.1115;3.8094;
693.0000;0.1197;3.8325;
693.3000;0.1197;3.8350;
693.6000;0.1156;3.8197;
693.9000;0.1197;3.8299;
694.2000;0.1197;3.8325;
694.5000;0.1148;3.8299;
694.8000;0.1172;3.8350;
695.1000;0.1180;3.8273;
695.4000;0.1172;3.8171;
695.7000;0.1180;3.8120;
696.0000;0.1164;3.8017;
696.3000;0.1156;3.8017;
696.6000;0.1115;3.7889;
696.9000;0.1172;3.8120;
697.2000;0.1180;3.8120;
697.5000;0.1172;3.8094;
697.8000;0.1180;3.8171;
698.1000;0.1172;3.8222;
698.4000;0.1164;3.8068;
698.7000;0.1188;3.8197;
699.0000;0.1123;3.8017;
699.3000;0.1164;3.8197;
699.6000;0.1148;3.8171;
699.9000;0.1172;3.8376;
700.2000;0.1123;3.8171;
700.5000;0.1172;3.8376;
700.8000;0.1180;3.8350;
701.1000;0.1156;3.8248;
701.4000;0.1140;3.8273;
701.7000;0.1172;3.8350;
702.0000;0.1172;3.8402;
702.3000;0.1148;3.8376;
702.6000;0.1172;3.8427;
702.9000;0.1197;3.8530;
703.2000;0.1180;3.8427;
703.5000;0.1188;3.8299;
703.8000;0.1172;3.8273;
704.1000;0.1164;3.8273;
704.4000;0.1188;3.8402;
704.7000;0.1156;3.8350;
705.0000;0.1140;3.8299;
705.3000;0.1164;3.8350;
705.6000;0.1180;3.8299;
705.9000;0.1148;3.8145;
706.2000;0.1172;3.8273;
706.5000;0.1180;3.8350;
706.8000;0.1156;3.8325;
707.1000;0.1050;3.7991;
707.4000;0.1180;3.8402;
707.7000;0.1148;3.8325;
708.0000;0.1148;3.8325;
708.3000;0.1180;3.8402;
708.6000;0.1164;3.8350;
708.9000;0.1164;3.8453;
709.2000;0.1188;3.8530;
709.5000;0.1172;3.8479;
709.8000;0.1188;3.8453;
710.1000;0.1180;3.8325;
710.4000;0.1188;3.8299;
710.7000;0.1172;3.8171;
711.0000;0.1172;3.8197;
711.3000;0.1156;3.8248;
711.6000;0.1197;3.8402;
711.9000;0.1164;3.8376;
712.2000;0.1172;3.8350;
712.5000;0.1197;3.8402;
712.8000;0.1172;3.8222;
713.1000;0.1180;3.8350;
713.4000;0.1197;3.8325;
713.7000;0.1180;3.8350;
714.0000;0.1180;3.8350;
714.3000;0.1213;3.8530;
714.6000;0.1188;3.8427;
714.9000;0.1172;3.8402;
715.2000;0.1099;3.8197;
715.5000;0.1148;3.8299;
715.8000;0.1172;3.8273;
716.1000;0.1115;3.8068;
716.4000;0.1156;3.8145;
716.7000;0.1164;3.8222;
717.0000;0.1188;3.8376;
717.3000;0.1156;3.8427;
717.6000;0.1164;3.8402;
717.9000;0.1164;3.8402;
718.2000;0.1180;3.8376;
718.5000;0.1164;3.8248;
718.8000;0.1164;3.8273;
719.1000;0.1172;3.8299;
719.4000;0.1148;3.8325;
719.7000;0.1164;3.8402;
720.0000;0.1148;3.8376;
720.3000;0.1148;3.8299;
720.6000;0.1148;3.8325;
720.9000;0.1164;3.8350;
721.2000;0.1172;3.8427;
721.5000;0.1164;3.8427;
721.8000;0.1188;3.8479;
722.1000;0.1164;3.8427;
722.4000;0.1188;3.8453;
722.7000;0.1148;3.8325;
723.0000;0.1156;3.8350;
723.3000;0.1148;3.8427;
723.6000;0.1164;3.8453;
723.9000;0.1164;3.8402;
724.2000;0.1164;3.8402;
724.5000;0.1164;3.8427;
724.8000;0.1164;3.8376;
725.1000;0.1099;3.8197;
725.4000;0.1164;3.8248;
725.7000;0.1148;3.8171;
726.0000;0.1148;3.8171;
726.3000;0.1148;3.8222;
726.6000;0.1123;3.8120;
726.9000;0.1148;3.8273;
727.2000;0.1140;3.8197;
727.5000;0.1148;3.8299;
727.8000;0.1156;3.8273;
728.1000;0.1213;3.8479;
728.4000;0.1164;3.8273;
728.7000;0.1156;3.8325;
729.0000;0.1172;3.8325;
729.3000;0.1156;3.8273;
729.6000;0.1164;3.8325;
729.9000;0.1172;3.8325;
730.2000;0.1172;3.8325;
730.5000;0.1156;3.8273;
730.8000;0.1148;3.8197;
731.1000;0.1229;3.8350;
731.4000;0.1172;3.8197;
731.7000;0.1164;3.8222;
732.0000;0.1156;3.8068;
732.3000;0.1172;3.8094;
732.6000;0.1188;3.8094;
732.9000;0.1148;3.8068;
733.2000;0.1140;3.8068;
733.5000;0.1188;3.8222;
733.8000;0.1172;3.8094;
734.1000;0.1115;3.7940;
734.4000;0.1091;3.7812;
734.7000;0.1131;3.8094;
735.0000;0.1172;3.8120;
735.3000;0.1164;3.8043;
735.6000;0.1205;3.8197;
735.9000;0.1164;3.8068;
736.2000;0.1164;3.8120;
736.5000;0.1148;3.8145;
736.8000;0.1188;3.8222;
737.1000;0.1140;3.8197;
737.4000;0.1172;3.8248;
737.7000;0.1140;3.8171;
738.0000;0.1140;3.8248;
738.3000;0.1131;3.8120;
738.6000;0.1148;3.8197;
738.9000;0.1172;3.8222;
739.2000;0.1148;3.8043;
739.5000;0.1164;3.8017;
739.8000;0.1091;3.7889;
740.1000;0.1148;3.8043;
740.4000;0.1172;3.8120;
740.7000;0.1172;3.8094;
741.0000;0.1237;3.8299;
741.3000;0.1009;3.7786;
741.6000;0.1156;3.8197;
741.9000;0.1131;3.8171;
742.2000;0.1164;3.8222;
742.5000;0.1156;3.8120;
742.8000;0.1156;3.8120;
743.1000;0.1270;3.8504;
743.4000;0.1140;3.8222;
743.7000;0.1140;3.8222;
744.0000;0.1123;3.8197;
744.3000;0.1148;3.8299;
744.6000;0.1123;3.8145;
744.9000;0.1148;3.8197;
745.2000;0.1156;3.8222;
745.5000;0.1164;3.8171;
745.8000;0.1156;3.8222;
746.1000;0.1148;3.8171;
746.4000;0.1164;3.8197;
746.7000;0.1034;3.7863;
747.0000;0.1156;3.8248;
747.3000;0.1140;3.8273;
747.6000;0.1140;3.8350;
747.9000;0.1156;3.8376;
748.2000;0.1156;3.8299;
748.5000;0.1156;3.8248;
748.8000;0.1156;3.8248;
749.1000;0.1156;3.8273;
749.4000;0.1148;3.8273;
749.7000;0.1140;3.8273;
750.0000;0.1148;3.8350;
750.3000;0.1107;3.8273;
750.6000;0.1140;3.8350;
750.9000;0.1180;3.8453;
751.2000;0.1123;3.8273;
751.5000;0.1148;3.8402;
751.8000;0.1172;3.8453;
752.1000;0.1164;3.8427;
752.4000;0.1140;3.8325;
752.7000;0.1148;3.8299;
753.0000;0.1148;3.8350;
753.3000;0.1156;3.8325;
753.6000;0.1107;3.8273;
753.9000;0.1140;3.8350;
754.2000;0.1213;3.8402;
754.5000;0.1164;3.8248;
754.8000;0.1140;3.8171;
755.1000;0.1172;3.8222;
755.4000;0.1148;3.8145;
755.7000;0.1140;3.8120;
756.0000;0.1156;3.8171;
756.3000;0.1140;3.8120;
756.6000;0.1123;3.8017;
756.9000;0.1172;3.8248;
757.2000;0.1164;3.8222;
757.5000;0.1172;3.8273;
757.8000;0.1156;3.8248;
758.1000;0.1164;3.8325;
758.4000;0.1164;3.8350;
758.7000;0.1148;3.8273;
759.0000;0.1156;3.8350;
759.3000;0.1156;3.8273;
759.6000;0.1156;3.8222;
759.9000;0.1140;3.8171;
760.2000;0.1148;3.8248;
760.5000;0.1164;3.8402;
760.8000;0.1164;3.8325;
761.1000;0.1180;3.8453;
761.4000;0.1164;3.8427;
761.7000;0.1172;3.8427;
762.0000;0.1148;3.8325;
762.3000;0.1237;3.8530;
762.6000;0.1148;3.8248;
762.9000;0.1180;3.8376;
763.2000;0.1148;3.8325;
763.5000;0.1123;3.8325;
763.8000;0.1148;3.8402;
764.1000;0.1164;3.8453;
764.4000;0.1172;3.8530;
764.7000;0.1156;3.8453;
765.0000;0.1237;3.8735;
765.3000;0.1148;3.8504;
765.6000;0.1172;3.8504;
765.9000;0.1197;3.8556;
766.2000;0.1156;3.8376;
766.5000;0.1140;3.8325;
766.8000;0.1148;3.8376;
767.1000;0.1156;3.8325;
767.4000;0.1148;3.8273;
767.7000;0.1123;3.8120;
768.0000;0.1213;3.8376;
768.3000;0.1164;3.8376;
768.6000;0.1164;3.8402;
768.9000;0.1140;3.8402;
769.2000;0.1140;3.8376;
769.5000;0.1099;3.8273;
769.8000;0.1156;3.8376;
770.1000;0.1172;3.8376;
770.4000;0.1140;3.8273;
770.7000;0.1156;3.8299;
771.0000;0.1172;3.8248;
771.3000;0.1164;3.8197;
771.6000;0.1156;3.8248;
771.9000;0.1164;3.8273;
772.2000;0.1140;3.8197;
772.5000;0.1148;3.8197;
772.8000;0.1131;3.8248;
773.1000;0.1188;3.8325;
773.4000;0.1188;3.8350;
773.7000;0.1164;3.8325;
774.0000;0.1148;3.8299;
774.3000;0.1140;3.8350;
774.6000;0.1156;3.8402;
774.9000;0.1148;3.8504;
775.2000;0.1164;3.8530;
775.5000;0.1140;3.8453;
775.8000;0.1156;3.8530;
776.1000;0.1148;3.8479;
776.4000;0.1156;3.8556;
776.7000;0.1164;3.8504;
777.0000;0.1156;3.8402;
777.3000;0.1156;3.8427;
777.6000;0.1156;3.8350;
777.9000;0.1140;3.8273;
778.2000;0.1123;3.8350;
778.5000;0.1123;3.8350;
778.8000;0.1172;3.8504;
779.1000;0.1164;3.8453;
779.4000;0.1164;3.8402;
779.7000;0.1237;3.8684;
780.0000;0.1156;3.8402;
780.3000;0.1148;3.8376;
780.6000;0.1180;3.8325;
780.9000;0.1140;3.8222;
781.2000;0.1058;3.8017;
781.5000;0.1156;3.8299;
781.8000;0.1229;3.8427;
782.1000;0.1123;3.8120;
782.4000;0.1245;3.8530;
782.7000;0.1091;3.8120;
783.0000;0.1148;3.8273;
783.3000;0.1131;3.8197;
783.6000;0.1131;3.8171;
783.9000;0.1148;3.8248;
784.2000;0.1213;3.8479;
784.5000;0.1123;3.8325;
784.8000;0.1107;3.8325;
785.1000;0.1107;3.8273;
785.4000;0.1197;3.8556;
785.7000;0.1172;3.8402;
786.0000;0.1058;3.8094;
786.3000;0.1131;3.8222;
786.6000;0.1140;3.8325;
786.9000;0.1156;3.8427;
787.2000;0.1164;3.8479;
787.5000;0.1164;3.8427;
787.8000;0.1123;3.8222;
788.1000;0.1148;3.8171;
788.4000;0.1131;3.8043;
788.7000;0.1140;3.8120;
789.0000;0.1131;3.8068;
789.3000;0.1131;3.8068;
789.6000;0.1188;3.8197;
789.9000;0.1156;3.8145;
790.2000;0.1091;3.7991;
790.5000;0.1180;3.8273;
790.8000;0.1131;3.8068;
791.1000;0.1188;3.8299;
791.4000;0.1148;3.8120;
791.7000;0.1156;3.8273;
792.0000;0.1148;3.8197;
792.3000;0.1148;3.8248;
792.6000;0.1140;3.8273;
792.9000;0.1172;3.8402;
793.2000;0.1156;3.8479;
793.5000;0.1205;3.8684;
793.8000;0.1140;3.8504;
794.1000;0.1123;3.8453;
794.4000;0.1140;3.8376;
794.7000;0.1148;3.8376;
795.0000;0.1148;3.8325;
795.3000;0.1123;3.8171;
795.6000;0.1148;3.8248;
795.9000;0.1148;3.8325;
796.2000;0.1123;3.8248;
796.5000;0.1123;3.8350;
796.8000;0.1091;3.8197;
797.1000;0.1156;3.8299;
797.4000;0.1140;3.8171;
797.7000;0.1156;3.8273;
798.0000;0.1148;3.8248;
798.3000;0.1156;3.8402;
798.6000;0.1172;3.8479;
798.9000;0.1156;3.8504;
799.2000;0.1140;3.8453;
799.5000;0.1123;3.8504;
799.8000;0.1140;3.8556;
800.1000;0.1131;3.8581;
800.4000;0.1148;3.8607;
800.7000;0.1115;3.8427;
801.0000;0.1156;3.8504;
801.3000;0.1140;3.8427;
801.6000;0.1140;3.8504;
801.9000;0.1164;3.8504;
802.2000;0.1148;3.8479;
802.5000;0.1172;3.8504;
802.8000;0.1107;3.8350;
803.1000;0.1148;3.8427;
803.4000;0.1156;3.8479;
803.7000;0.1164;3.8479;
804.0000;0.1148;3.8402;
804.3000;0.1148;3.8402;
804.6000;0.1148;3.8350;
804.9000;0.1148;3.8427;
805.2000;0.1123;3.8350;
805.5000;0.1123;3.8299;
805.8000;0.1107;3.8197;
806.1000;0.1140;3.8273;
806.4000;0.1123;3.8248;
806.7000;0.1140;3.8325;
807.0000;0.1140;3.8299;
807.3000;0.1164;3.8402;
807.6000;0.1123;3.8299;
807.9000;0.1091;3.8197;
808.2000;0.1058;3.8145;
808.5000;0.1172;3.8607;
808.8000;0.1131;3.8504;
809.1000;0.1050;3.8273;
809.4000;0.1156;3.8556;
809.7000;0.1180;3.8684;
810.0000;0.1091;3.8402;
810.3000;0.1148;3.8556;
810.6000;0.1131;3.8453;
810.9000;0.1205;3.8684;
811.2000;0.1107;3.8350;
811.5000;0.1156;3.8453;
811.8000;0.1164;3.8479;
812.1000;0.1140;3.8402;
812.4000;0.1156;3.8427;
812.7000;0.1148;3.8350;
813.0000;0.1131;3.8299;
813.3000;0.1148;3.8273;
813.6000;0.1164;3.8299;
813.9000;0.1213;3.8530;
814.2000;0.1148;3.8299;
814.5000;0.1148;3.8273;
814.8000;0.1148;3.8350;
815.1000;0.1148;3.8453;
815.4000;0.1148;3.8479;
815.7000;0.1148;3.8530;
816.0000;0.1164;3.8581;
816.3000;0.1164;3.8530;
816.6000;0.1131;3.8376;
816.9000;0.1131;3.8299;
817.2000;0.1107;3.8273;
817.5000;0.1148;3.8376;
817.8000;0.1148;3.8350;
818.1000;0.1140;3.8299;
818.4000;0.1156;3.8427;
818.7000;0.1131;3.8453;
819.0000;0.1148;3.8504;
819.3000;0.1156;3.8504;
819.6000;0.1156;3.8556;
819.9000;0.1172;3.8479;
820.2000;0.1180;3.8402;
820.5000;0.1123;3.8273;
820.8000;0.1148;3.8299;
821.1000;0.1148;3.8197;
821.4000;0.1123;3.8120;
821.7000;0.1164;3.8222;
822.0000;0.1131;3.8248;
822.3000;0.1115;3.8273;
822.6000;0.1148;3.8402;
822.9000;0.1180;3.8556;
823.2000;0.1131;3.8402;
823.5000;0.1034;3.8171;
823.8000;0.1156;3.8556;
824.1000;0.1131;3.8376;
824.4000;0.1156;3.8479;
824.7000;0.1180;3.8556;
825.0000;0.1172;3.8556;
825.3000;0.1091;3.8273;
825.6000;0.1123;3.8402;
825.9000;0.1140;3.8479;
826.2000;0.1148;3.8504;
826.5000;0.1148;3.8556;
826.8000;0.1156;3.8556;
827.1000;0.1107;3.8453;
827.4000;0.1140;3.8530;
827.7000;0.1148;3.8556;
828.0000;0.1188;3.8658;
828.3000;0.1140;3.8556;
828.6000;0.1172;3.8504;
828.9000;0.1156;3.8479;
829.2000;0.1156;3.8530;
829.5000;0.1140;3.8556;
829.8000;0.1148;3.8556;
830.1000;0.1148;3.8530;
830.4000;0.1172;3.8556;
830.7000;0.1131;3.8479;
831.0000;0.1123;3.8402;
831.3000;0.1164;3.8479;
831.6000;0.1131;3.8402;
831.9000;0.1164;3.8479;
832.2000;0.1140;3.8325;
832.5000;0.1140;3.8325;
832.8000;0.1148;3.8350;
833.1000;0.1140;3.8325;
833.4000;0.1140;3.8299;
833.7000;0.1140;3.8325;
834.0000;0.1131;3.8325;
834.3000;0.1140;3.8427;
834.6000;0.1172;3.8607;
834.9000;0.1156;3.8633;
835.2000;0.1188;3.8633;
835.5000;0.1148;3.8479;
835.8000;0.1140;3.8453;
836.1000;0.1131;3.8427;
836.4000;0.1164;3.8453;
836.7000;0.1156;3.8376;
837.0000;0.1156;3.8299;
837.3000;0.1140;3.8248;
837.6000;0.1131;3.8273;
837.9000;0.1156;3.8376;
838.2000;0.1164;3.8453;
838.5000;0.1164;3.8453;
838.8000;0.1091;3.8248;
839.1000;0.1221;3.8556;
839.4000;0.1148;3.8453;
839.7000;0.1156;3.8530;
840.0000;0.1156;3.8479;
840.3000;0.1131;3.8453;
840.6000;0.1180;3.8556;
840.9000;0.1156;3.8581;
841.2000;0.1205;3.8684;
841.5000;0.1197;3.8658;
841.8000;0.1123;3.8427;
842.1000;0.1123;3.8325;
842.4000;0.1148;3.8376;
842.7000;0.1107;3.8299;
843.0000;0.1131;3.8402;
843.3000;0.1123;3.8427;
843.6000;0.1156;3.8402;
843.9000;0.1172;3.8427;
844.2000;0.1107;3.8273;
844.5000;0.1131;3.8273;
844.8000;0.1148;3.8427;
845.1000;0.1131;3.8427;
845.4000;0.1131;3.8376;
845.7000;0.1140;3.8248;
846.0000;0.1180;3.8299;
846.3000;0.1164;3.8299;
846.6000;0.1131;3.8325;
846.9000;0.1131;3.8299;
847.2000;0.1131;3.8273;
847.5000;0.1131;3.8248;
847.8000;0.1164;3.8197;
848.1000;0.1180;3.8350;
848.4000;0.1156;3.8325;
848.7000;0.1083;3.8171;
849.0000;0.1131;3.8350;
849.3000;0.1131;3.8248;
849.6000;0.1148;3.8248;
849.9000;0.1140;3.8273;
850.2000;0.1140;3.8350;
850.5000;0.1009;3.8043;
850.8000;0.1164;3.8453;
851.1000;0.1140;3.8453;
851.4000;0.1164;3.8504;
851.7000;0.1140;3.8427;
852.0000;0.1156;3.8530;
852.3000;0.1140;3.8504;
852.6000;0.1123;3.8504;
852.9000;0.1140;3.8479;
853.2000;0.1115;3.8427;
853.5000;0.1140;3.8453;
853.8000;0.1156;3.8556;
854.1000;0.1148;3.8556;
854.4000;0.1156;3.8504;
854.7000;0.1148;3.8530;
855.0000;0.1148;3.8530;
855.3000;0.1131;3.8556;
855.6000;0.1188;3.8710;
855.9000;0.1156;3.8530;
856.2000;0.1131;3.8453;
856.5000;0.1131;3.8299;
856.8000;0.1172;3.8376;
857.1000;0.1164;3.8350;
857.4000;0.1140;3.8299;
857.7000;0.1140;3.8350;
858.0000;0.1286;3.8761;
858.3000;0.1131;3.8299;
858.6000;0.1148;3.8325;
858.9000;0.1018;3.7966;
859.2000;0.1140;3.8325;
859.5000;0.1123;3.8325;
859.8000;0.1148;3.8376;
860.1000;0.1140;3.8350;
860.4000;0.1148;3.8350;
860.7000;0.1156;3.8273;
861.0000;0.1221;3.8556;
861.3000;0.1123;3.8273;
861.6000;0.1148;3.8273;
861.9000;0.1140;3.8299;
862.2000;0.1099;3.8094;
862.5000;0.1123;3.8248;
862.8000;0.1140;3.8325;
863.1000;0.1123;3.8248;
863.4000;0.1140;3.8325;
863.7000;0.1140;3.8299;
864.0000;0.1172;3.8325;
864.3000;0.1131;3.8299;
864.6000;0.1131;3.8350;
864.9000;0.1156;3.8479;
865.2000;0.1115;3.8273;
865.5000;0.1148;3.8350;
865.8000;0.1188;3.8325;
866.1000;0.1131;3.8197;
866.4000;0.1140;3.8222;
866.7000;0.1148;3.8248;
867.0000;0.1140;3.8273;
867.3000;0.1018;3.7966;
867.6000;0.1099;3.8197;
867.9000;0.1148;3.8376;
868.2000;0.1156;3.8350;
868.5000;0.1131;3.8299;
868.8000;0.1140;3.8350;
869.1000;0.1115;3.8402;
869.4000;0.1131;3.8299;
869.7000;0.1140;3.8222;
870.0000;0.1131;3.8222;
870.3000;0.1180;3.8376;
870.6000;0.1131;3.8273;
870.9000;0.1140;3.8248;
871.2000;0.1131;3.8197;
871.5000;0.1156;3.8248;
871.8000;0.1115;3.8197;
872.1000;0.1131;3.8145;
872.4000;0.1156;3.8171;
872.7000;0.1156;3.8197;
873.0000;0.1148;3.8222;
873.3000;0.1074;3.8017;
873.6000;0.1148;3.8350;
873.9000;0.1164;3.8402;
874.2000;0.1164;3.8376;
874.5000;0.1123;3.8325;
874.8000;0.1140;3.8427;
875.1000;0.1148;3.8427;
875.4000;0.1099;3.8197;
875.7000;0.1140;3.8299;
876.0000;0.1123;3.8273;
876.3000;0.1050;3.7991;
876.6000;0.1091;3.8248;
876.9000;0.1107;3.8376;
877.2000;0.1148;3.8453;
877.5000;0.1066;3.8094;
877.8000;0.1148;3.8402;
878.1000;0.1156;3.8402;
878.4000;0.1148;3.8402;
878.7000;0.1188;3.8479;
879.0000;0.1115;3.8299;
879.3000;0.1107;3.8273;
879.6000;0.1123;3.8427;
879.9000;0.1050;3.8171;
880.2000;0.1164;3.8427;
880.5000;0.1148;3.8350;
880.8000;0.1148;3.8325;
881.1000;0.1058;3.8068;
881.4000;0.1148;3.8299;
881.7000;0.1148;3.8248;
882.0000;0.1140;3.8145;
882.3000;0.1140;3.8120;
882.6000;0.1140;3.8145;
882.9000;0.1148;3.8171;
883.2000;0.1172;3.8222;
883.5000;0.1107;3.8094;
883.8000;0.1140;3.8222;
884.1000;0.1058;3.8068;
884.4000;0.1131;3.8350;
884.7000;0.1148;3.8325;
885.0000;0.1131;3.8402;
885.3000;0.1140;3.8453;
885.6000;0.1140;3.8504;
885.9000;0.1140;3.8530;
886.2000;0.1115;3.8427;
886.5000;0.1148;3.8581;
886.8000;0.1148;3.8556;
887.1000;0.1148;3.8453;
887.4000;0.1131;3.8376;
887.7000;0.1156;3.8402;
888.0000;0.1131;3.8376;
888.3000;0.1131;3.8350;
888.6000;0.1148;3.8376;
888.9000;0.1148;3.8299;
889.2000;0.1148;3.8248;
889.5000;0.1148;3.8222;
889.8000;0.1172;3.8350;
890.1000;0.1115;3.8222;
890.4000;0.1156;3.8427;
890.7000;0.1050;3.8043;
891.0000;0.1156;3.8248;
891.3000;0.1140;3.8222;
891.6000;0.1164;3.8248;
891.9000;0.1140;3.8145;
892.2000;0.1156;3.8197;
892.5000;0.1042;3.7914;
892.8000;0.1148;3.8248;
893.1000;0.1156;3.8325;
893.4000;0.1156;3.8350;
893.7000;0.1180;3.8453;
894.0000;0.1140;3.8325;
894.3000;0.1156;3.8402;
894.6000;0.1115;3.8222;
894.9000;0.1131;3.8222;
895.2000;0.1148;3.8222;
895.5000;0.1123;3.8273;
895.8000;0.1140;3.8325;
896.1000;0.1131;3.8325;
896.4000;0.1123;3.8350;
896.7000;0.1140;3.8427;
897.0000;0.1091;3.8299;
897.3000;0.1221;3.8607;
897.6000;0.1034;3.8017;
897.9000;0.1180;3.8504;
898.2000;0.1148;3.8350;
898.5000;0.1205;3.8453;
898.8000;0.1042;3.8017;
899.1000;0.1148;3.8325;
899.4000;0.1115;3.8222;
899.7000;0.1172;3.8402;
900.0000;0.1148;3.8248;
900.3000;0.1074;3.8017;
900.6000;0.1164;3.8248;
900.9000;0.1131;3.8120;
901.2000;0.1131;3.8094;
901.5000;0.1131;3.8068;
901.8000;0.1115;3.8120;
902.1000;0.1140;3.8222;
902.4000;0.1066;3.8017;
902.7000;0.1229;3.8427;
903.0000;0.1107;3.8197;
903.3000;0.1213;3.8402;
903.6000;0.1131;3.8248;
903.9000;0.1229;3.8530;
904.2000;0.1107;3.8145;
904.5000;0.1148;3.8325;
904.8000;0.1107;3.8325;
905.1000;0.1188;3.8504;
905.4000;0.1180;3.8376;
905.7000;0.1123;3.8299;
906.0000;0.1140;3.8376;
906.3000;0.1148;3.8350;
906.6000;0.1180;3.8402;
906.9000;0.1115;3.8145;
907.2000;0.1115;3.8094;
907.5000;0.1131;3.8094;
907.8000;0.1123;3.8017;
908.1000;0.1083;3.7812;
908.4000;0.1148;3.8017;
908.7000;0.1123;3.8043;
909.0000;0.1140;3.8043;
909.3000;0.1123;3.7966;
909.6000;0.1148;3.8017;
909.9000;0.1156;3.8043;
910.2000;0.1164;3.8120;
910.5000;0.1148;3.8248;
910.8000;0.1156;3.8299;
911.1000;0.1140;3.8376;
911.4000;0.1156;3.8325;
911.7000;0.1156;3.8222;
912.0000;0.1115;3.8120;
912.3000;0.1131;3.8197;
912.6000;0.1140;3.8197;
912.9000;0.1131;3.8145;
913.2000;0.1026;3.7991;
913.5000;0.1148;3.8325;
913.8000;0.1164;3.8402;
914.1000;0.1131;3.8325;
914.4000;0.1131;3.8273;
914.7000;0.1115;3.8145;
915.0000;0.1148;3.8273;
915.3000;0.1018;3.7914;
915.6000;0.1148;3.8171;
915.9000;0.1131;3.8120;
916.2000;0.1107;3.8145;
916.5000;0.1140;3.8273;
916.8000;0.1123;3.8273;
917.1000;0.1156;3.8376;
917.4000;0.1131;3.8402;
917.7000;0.1148;3.8350;
918.0000;0.1140;3.8299;
918.3000;0.1213;3.8479;
918.6000;0.1123;3.8222;
918.9000;0.1164;3.8248;
919.2000;0.1140;3.8145;
919.5000;0.1140;3.8145;
919.8000;0.1131;3.7991;
920.1000;0.1156;3.8043;
920.4000;0.1140;3.8094;
920.7000;0.1188;3.8171;
921.0000;0.1066;3.7940;
921.3000;0.1327;3.8787;
921.6000;0.1131;3.8248;
921.9000;0.1148;3.8222;
922.2000;0.1091;3.8222;
922.5000;0.1140;3.8350;
922.8000;0.1083;3.8222;
923.1000;0.1123;3.8350;
923.4000;0.1115;3.8325;
923.7000;0.1172;3.8479;
924.0000;0.1172;3.8376;
924.3000;0.1074;3.8120;
924.6000;0.1164;3.8376;
924.9000;0.1123;3.8171;
925.2000;0.1140;3.8222;
925.5000;0.1164;3.8299;
925.8000;0.1131;3.8248;
926.1000;0.1164;3.8325;
926.4000;0.1131;3.8222;
926.7000;0.1156;3.8299;
927.0000;0.1140;3.8248;
927.3000;0.1131;3.8273;
927.6000;0.1091;3.8145;
927.9000;0.1148;3.8197;
928.2000;0.1131;3.8145;
928.5000;0.1140;3.8120;
928.8000;0.1148;3.8222;
929.1000;0.1156;3.8222;
929.4000;0.1172;3.8299;
929.7000;0.1123;3.8197;
930.0000;0.1180;3.8222;
930.3000;0.1156;3.8171;
930.6000;0.1131;3.8197;
930.9000;0.1319;3.8658;
931.2000;0.1131;3.8120;
931.5000;0.1140;3.8094;
931.8000;0.1156;3.8043;
932.1000;0.1148;3.8068;
932.4000;0.1156;3.8068;
932.7000;0.1131;3.8145;
933.0000;0.1156;3.8248;
933.3000;0.1091;3.8171;
933.6000;0.1221;3.8479;
933.9000;0.1123;3.8171;
934.2000;0.1107;3.8145;
934.5000;0.1140;3.8197;
934.8000;0.1131;3.8120;
935.1000;0.1131;3.8017;
935.4000;0.1148;3.8145;
935.7000;0.1148;3.8145;
936.0000;0.1140;3.8120;
936.3000;0.1164;3.8068;
936.6000;0.1140;3.8017;
936.9000;0.1164;3.8120;
937.2000;0.1148;3.8171;
937.5000;0.1197;3.8350;
937.8000;0.1140;3.8273;
938.1000;0.1131;3.8299;
938.4000;0.1172;3.8504;
938.7000;0.1131;3.8402;
939.0000;0.1140;3.8350;
939.3000;0.1164;3.8350;
939.6000;0.1148;3.8299;
939.9000;0.1123;3.8248;
940.2000;0.1172;3.8350;
940.5000;0.1140;3.8222;
940.8000;0.1148;3.8171;
941.1000;0.1148;3.8145;
941.4000;0.1262;3.8479;
941.7000;0.1148;3.8171;
942.0000;0.1148;3.8248;
942.3000;0.1213;3.8402;
942.6000;0.1140;3.8299;
942.9000;0.1123;3.8222;
943.2000;0.1140;3.8325;
943.5000;0.1131;3.8299;
943.8000;0.1148;3.8222;
944.1000;0.1140;3.8273;
944.4000;0.1148;3.8325;
944.7000;0.1131;3.8248;
945.0000;0.1140;3.8248;
945.3000;0.1131;3.8222;
945.6000;0.1107;3.8273;
945.9000;0.1140;3.8299;
946.2000;0.1131;3.8376;
946.5000;0.1140;3.8273;
946.8000;0.1140;3.8197;
947.1000;0.1148;3.8197;
947.4000;0.1123;3.8145;
947.7000;0.1148;3.8248;
948.0000;0.1148;3.8273;
948.3000;0.1107;3.8197;
948.6000;0.1148;3.8273;
948.9000;0.1140;3.8325;
949.2000;0.1107;3.8248;
949.5000;0.1131;3.8248;
949.8000;0.1156;3.8325;
950.1000;0.1148;3.8248;
950.4000;0.1083;3.8120;
950.7000;0.1131;3.8248;
951.0000;0.1131;3.8325;
951.3000;0.1131;3.8248;
951.6000;0.1099;3.8171;
951.9000;0.1172;3.8299;
952.2000;0.1148;3.8222;
952.5000;0.1140;3.8197;
952.8000;0.1156;3.8299;
953.1000;0.1140;3.8273;
953.4000;0.1148;3.8299;
953.7000;0.1131;3.8248;
954.0000;0.1156;3.8427;
954.3000;0.1131;3.8402;
954.6000;0.1148;3.8479;
954.9000;0.1156;3.8530;
955.2000;0.1140;3.8556;
955.5000;0.1140;3.8479;
955.8000;0.1164;3.8504;
956.1000;0.1164;3.8427;
956.4000;0.1140;3.8376;
956.7000;0.1156;3.8350;
957.0000;0.1148;3.8427;
957.3000;0.1140;3.8376;
957.6000;0.1172;3.8479;
957.9000;0.1156;3.8427;
958.2000;0.1197;3.8581;
958.5000;0.1140;3.8376;
958.8000;0.1083;3.8171;
959.1000;0.1107;3.8222;
959.4000;0.1156;3.8325;
959.7000;0.1140;3.8273;
960.0000;0.1148;3.8197;
960.3000;0.1115;3.8017;
960.6000;0.1123;3.8017;
960.9000;0.1107;3.7991;
961.2000;0.1099;3.7889;
961.5000;0.1123;3.8094;
961.8000;0.1188;3.8222;
962.1000;0.1131;3.7991;
962.4000;0.1180;3.8120;
962.7000;0.1156;3.8043;
963.0000;0.1148;3.8094;
963.3000;0.1180;3.8068;
963.6000;0.1156;3.7966;
963.9000;0.1148;3.7940;
964.2000;0.1123;3.7914;
964.5000;0.1074;3.7812;
964.8000;0.1131;3.8043;
965.1000;0.1164;3.8197;
965.4000;0.1091;3.8043;
965.7000;0.1115;3.8197;
966.0000;0.1221;3.8581;
966.3000;0.1156;3.8453;
966.6000;0.1148;3.8530;
966.9000;0.1156;3.8556;
967.2000;0.1156;3.8479;
967.5000;0.1148;3.8453;
967.8000;0.1148;3.8479;
968.1000;0.1140;3.8376;
968.4000;0.1148;3.8453;
968.7000;0.1148;3.8453;
969.0000;0.1156;3.8453;
969.3000;0.1205;3.8556;
969.6000;0.1140;3.8376;
969.9000;0.1156;3.8453;
970.2000;0.1156;3.8479;
970.5000;0.1140;3.8453;
970.8000;0.1099;3.8376;
971.1000;0.1115;3.8427;
971.4000;0.1074;3.8402;
971.7000;0.1164;3.8761;
972.0000;0.1140;3.8633;
972.3000;0.1164;3.8530;
972.6000;0.1180;3.8530;
972.9000;0.1148;3.8402;
973.2000;0.1042;3.7940;
973.5000;0.1156;3.8222;
973.8000;0.1091;3.8043;
974.1000;0.1131;3.8145;
974.4000;0.1123;3.8120;
974.7000;0.1099;3.8043;
975.0000;0.1156;3.8325;
975.3000;0.1164;3.8325;
975.6000;0.1156;3.8299;
975.9000;0.1140;3.8325;
976.2000;0.1131;3.8273;
976.5000;0.1107;3.8197;
976.8000;0.1140;3.8171;
977.1000;0.1083;3.8043;
977.4000;0.1123;3.8094;
977.7000;0.1180;3.8325;
978.0000;0.1221;3.8325;
978.3000;0.1148;3.8145;
978.6000;0.1148;3.8171;
978.9000;0.1140;3.8222;
979.2000;0.1091;3.8068;
979.5000;0.1156;3.8273;
979.8000;0.1140;3.8068;
980.1000;0.1131;3.8171;
980.4000;0.1148;3.8299;
980.7000;0.1156;3.8376;
981.0000;0.1140;3.8299;
981.3000;0.1123;3.8273;
981.6000;0.1115;3.8273;
981.9000;0.1026;3.8017;
982.2000;0.1140;3.8248;
982.5000;0.1148;3.8325;
982.8000;0.1140;3.8402;
983.1000;0.1123;3.8453;
983.4000;0.1131;3.8427;
983.7000;0.1140;3.8427;
984.0000;0.1164;3.8658;
984.3000;0.1172;3.8556;
984.6000;0.1245;3.8838;
984.9000;0.1156;3.8607;
985.2000;0.1140;3.8581;
985.5000;0.1172;3.8735;
985.8000;0.1131;3.8581;
986.1000;0.1131;3.8504;
986.4000;0.1180;3.8607;
986.7000;0.1140;3.8427;
987.0000;0.1148;3.8402;
987.3000;0.1213;3.8504;
987.6000;0.1140;3.8350;
987.9000;0.1131;3.8273;
988.2000;0.1156;3.8350;
988.5000;0.1148;3.8325;
988.8000;0.1148;3.8273;
989.1000;0.1131;3.8325;
989.4000;0.1099;3.8171;
989.7000;0.1148;3.8299;
990.0000;0.1140;3.8350;
990.3000;0.1180;3.8453;
990.6000;0.1123;3.8325;
990.9000;0.1123;3.8273;
991.2000;0.1123;3.8402;
991.5000;0.1131;3.8479;
991.8000;0.1123;3.8376;
992.1000;0.1123;3.8402;
992.4000;0.1188;3.8530;
992.7000;0.1140;3.8299;
993.0000;0.1164;3.8376;
993.3000;0.1164;3.8325;
993.6000;0.1140;3.8273;
993.9000;0.1140;3.8248;
994.2000;0.1099;3.8171;
994.5000;0.1188;3.8504;
994.8000;0.1156;3.8402;
995.1000;0.1148;3.8402;
995.4000;0.1180;3.8556;
995.7000;0.1091;3.8453;
996.0000;0.1115;3.8607;
996.3000;0.0993;3.8120;
996.6000;0.1050;3.8222;
996.9000;0.1115;3.8402;
997.2000;0.1131;3.8427;
997.5000;0.1197;3.8556;
997.8000;0.1091;3.8273;
998.1000;0.1140;3.8350;
998.4000;0.1107;3.8197;
998.7000;0.1205;3.8453;
999.0000;0.1156;3.8325;
999.3000;0.1140;3.8376;
999.6000;0.1148;3.8427;
999.9000;0.1099;3.8197;
1000.2000;0.1131;3.8325;
1000.5000;0.1131;3.8299;
1000.8000;0.1164;3.8325;
1001.1000;0.1140;3.8325;
1001.4000;0.1140;3.8350;
1001.7000;0.1148;3.8427;
1002.0000;0.1205;3.8607;
1002.3000;0.1156;3.8453;
1002.6000;0.1140;3.8556;
1002.9000;0.1140;3.8504;
1003.2000;0.1164;3.8607;
1003.5000;0.1140;3.8504;
1003.8000;0.1140;3.8427;
1004.1000;0.1107;3.8299;
1004.4000;0.1164;3.8581;
1004.7000;0.1156;3.8479;
1005.0000;0.1034;3.8197;
1005.3000;0.1148;3.8633;
1005.6000;0.1131;3.8556;
1005.9000;0.1115;3.8530;
1006.2000;0.1140;3.8556;
1006.5000;0.1140;3.8556;
1006.8000;0.1148;3.8453;
1007.1000;0.1140;3.8453;
1007.4000;0.1131;3.8376;
1007.7000;0.1156;3.8376;
1008.0000;0.1131;3.8350;
1008.3000;0.1197;3.8556;
1008.6000;0.1156;3.8402;
1008.9000;0.1131;3.8427;
1009.2000;0.1140;3.8479;
1009.5000;0.1140;3.8427;
1009.8000;0.1156;3.8427;
1010.1000;0.1131;3.8376;
1010.4000;0.1115;3.8248;
1010.7000;0.1131;3.8222;
1011.0000;0.1148;3.8299;
1011.3000;0.1107;3.8171;
1011.6000;0.1131;3.8197;
1011.9000;0.1099;3.8171;
1012.2000;0.1083;3.8171;
1012.5000;0.1148;3.8325;
1012.8000;0.1131;3.8273;
1013.1000;0.1131;3.8222;
1013.4000;0.1066;3.8171;
1013.7000;0.1148;3.8299;
1014.0000;0.1140;3.8299;
1014.3000;0.1148;3.8479;
1014.6000;0.1140;3.8479;
1014.9000;0.1107;3.8453;
1015.2000;0.1123;3.8402;
1015.5000;0.1140;3.8376;
1015.8000;0.1140;3.8350;
1016.1000;0.1148;3.8350;
1016.4000;0.1172;3.8453;
1016.7000;0.1140;3.8325;
1017.0000;0.1140;3.8376;
1017.3000;0.1148;3.8350;
1017.6000;0.1115;3.8273;
1017.9000;0.1140;3.8350;
1018.2000;0.1140;3.8350;
1018.5000;0.1197;3.8581;
1018.8000;0.1123;3.8376;
1019.1000;0.1131;3.8325;
1019.4000;0.1066;3.8197;
1019.7000;0.1123;3.8402;
1020.0000;0.1131;3.8325;
1020.3000;0.1091;3.8222;
1020.6000;0.1140;3.8325;
1020.9000;0.1140;3.8273;
1021.2000;0.1123;3.8325;
1021.5000;0.1156;3.8504;
1021.8000;0.1156;3.8530;
1022.1000;0.1148;3.8453;
1022.4000;0.1131;3.8427;
1022.7000;0.1131;3.8402;
1023.0000;0.1123;3.8325;
1023.3000;0.1156;3.8453;
1023.6000;0.1140;3.8453;
1023.9000;0.1083;3.8222;
1024.2000;0.1123;3.8325;
1024.5000;0.1140;3.8350;
1024.8000;0.1156;3.8402;
1025.1000;0.1115;3.8299;
1025.4000;0.1123;3.8325;
1025.7000;0.1131;3.8325;
1026.0000;0.1115;3.8197;
1026.3000;0.1123;3.8299;
1026.6000;0.1221;3.8479;
1026.9000;0.1140;3.8325;
1027.2000;0.1140;3.8325;
1027.5000;0.1123;3.8299;
1027.8000;0.1115;3.8350;
1028.1000;0.1140;3.8479;
1028.4000;0.1140;3.8556;
1028.7000;0.1123;3.8556;
1029.0000;0.1172;3.8761;
1029.3000;0.1148;3.8761;
1029.6000;0.1115;3.8710;
1029.9000;0.1107;3.8658;
1030.2000;0.1148;3.8735;
1030.5000;0.1140;3.8710;
1030.8000;0.1188;3.8684;
1031.1000;0.1115;3.8556;
1031.4000;0.1107;3.8453;
1031.7000;0.1156;3.8607;
1032.0000;0.1148;3.8581;
1032.3000;0.1058;3.8248;
1032.6000;0.1131;3.8479;
1032.9000;0.1123;3.8530;
1033.2000;0.1172;3.8684;
1033.5000;0.1123;3.8581;
1033.8000;0.1140;3.8479;
1034.1000;0.1229;3.8684;
1034.4000;0.1172;3.8581;
1034.7000;0.1148;3.8504;
1035.0000;0.1131;3.8427;
1035.3000;0.0944;3.7889;
1035.6000;0.1156;3.8479;
1035.9000;0.1131;3.8453;
1036.2000;0.1099;3.8427;
1036.5000;0.1140;3.8479;
1036.8000;0.1050;3.8248;
1037.1000;0.1123;3.8479;
1037.4000;0.1156;3.8530;
1037.7000;0.1140;3.8453;
1038.0000;0.1123;3.8350;
1038.3000;0.1164;3.8556;
1038.6000;0.1164;3.8607;
1038.9000;0.1131;3.8504;
1039.2000;0.1156;3.8581;
1039.5000;0.1074;3.8325;
1039.8000;0.1091;3.8427;
1040.1000;0.1123;3.8479;
1040.4000;0.1123;3.8607;
1040.7000;0.1131;3.8607;
1041.0000;0.1156;3.8658;
1041.3000;0.1148;3.8607;
1041.6000;0.1131;3.8530;
1041.9000;0.1148;3.8556;
1042.2000;0.1148;3.8504;
1042.5000;0.1156;3.8581;
1042.8000;0.1131;3.8453;
1043.1000;0.1148;3.8479;
1043.4000;0.1131;3.8453;
1043.7000;0.1140;3.8376;
1044.0000;0.1131;3.8427;
1044.3000;0.1164;3.8504;
1044.6000;0.1123;3.8453;
1044.9000;0.1140;3.8427;
1045.2000;0.1140;3.8402;
1045.5000;0.1140;3.8376;
1045.8000;0.1140;3.8376;
1046.1000;0.1099;3.8299;
1046.4000;0.1164;3.8427;
1046.7000;0.1140;3.8325;
1047.0000;0.1140;3.8479;
1047.3000;0.1140;3.8427;
1047.6000;0.1123;3.8350;
1047.9000;0.1156;3.8427;
1048.2000;0.1131;3.8453;
1048.5000;0.1156;3.8453;
1048.8000;0.1123;3.8453;
1049.1000;0.1123;3.8376;
1049.4000;0.1115;3.8299;
1049.7000;0.1156;3.8427;
1050.0000;0.1140;3.8402;
1050.3000;0.1123;3.8427;
1050.6000;0.1156;3.8427;
1050.9000;0.1123;3.8402;
1051.2000;0.1131;3.8556;
1051.5000;0.1123;3.8607;
1051.8000;0.1131;3.8607;
1052.1000;0.1156;3.8710;
1052.4000;0.1123;3.8581;
1052.7000;0.1156;3.8530;
1053.0000;0.1091;3.8299;
1053.3000;0.1148;3.8376;
1053.6000;0.1156;3.8350;
1053.9000;0.1140;3.8350;
1054.2000;0.1131;3.8350;
1054.5000;0.1074;3.8120;
1054.8000;0.1148;3.8299;
1055.1000;0.1123;3.8273;
1055.4000;0.1083;3.8094;
1055.7000;0.1123;3.8197;
1056.0000;0.1131;3.8248;
1056.3000;0.1237;3.8504;
1056.6000;0.1148;3.8325;
1056.9000;0.1164;3.8427;
1057.2000;0.1140;3.8402;
1057.5000;0.1123;3.8427;
1057.8000;0.1140;3.8427;
1058.1000;0.1123;3.8376;
1058.4000;0.1140;3.8427;
1058.7000;0.1188;3.8556;
1059.0000;0.1140;3.8402;
1059.3000;0.1123;3.8376;
1059.6000;0.1131;3.8350;
1059.9000;0.1115;3.8299;
1060.2000;0.1131;3.8402;
1060.5000;0.1140;3.8376;
1060.8000;0.1140;3.8325;
1061.1000;0.1156;3.8479;
1061.4000;0.1148;3.8504;
1061.7000;0.1115;3.8453;
1062.0000;0.1131;3.8427;
1062.3000;0.1156;3.8530;
1062.6000;0.1123;3.8376;
1062.9000;0.1123;3.8325;
1063.2000;0.1131;3.8299;
1063.5000;0.1197;3.8453;
1063.8000;0.1164;3.8376;
1064.1000;0.1148;3.8350;
1064.4000;0.1123;3.8273;
1064.7000;0.1083;3.8171;
1065.0000;0.1123;3.8350;
1065.3000;0.1156;3.8427;
1065.6000;0.1140;3.8325;
1065.9000;0.1115;3.8299;
1066.2000;0.1140;3.8402;
1066.5000;0.1148;3.8427;
1066.8000;0.1156;3.8479;
1067.1000;0.1131;3.8376;
1067.4000;0.1140;3.8402;
1067.7000;0.1172;3.8453;
1068.0000;0.1099;3.8325;
1068.3000;0.1140;3.8453;
1068.6000;0.1148;3.8402;
1068.9000;0.1205;3.8633;
1069.2000;0.1148;3.8504;
1069.5000;0.1221;3.8607;
1069.8000;0.1140;3.8376;
1070.1000;0.1180;3.8530;
1070.4000;0.1148;3.8453;
1070.7000;0.1123;3.8376;
1071.0000;0.1180;3.8530;
1071.3000;0.1156;3.8504;
1071.6000;0.1140;3.8427;
1071.9000;0.1131;3.8402;
1072.2000;0.1123;3.8299;
1072.5000;0.1148;3.8248;
1072.8000;0.1156;3.8273;
1073.1000;0.1156;3.8325;
1073.4000;0.1131;3.8299;
1073.7000;0.1140;3.8350;
1074.0000;0.1270;3.8658;
1074.3000;0.1140;3.8273;
1074.6000;0.1148;3.8325;
1074.9000;0.1140;3.8350;
1075.2000;0.1083;3.8222;
1075.5000;0.1148;3.8402;
1075.8000;0.1140;3.8453;
1076.1000;0.1131;3.8427;
1076.4000;0.1140;3.8453;
1076.7000;0.1172;3.8504;
1077.0000;0.1156;3.8479;
1077.3000;0.1131;3.8479;
1077.6000;0.1123;3.8402;
1077.9000;0.1131;3.8453;
1078.2000;0.1156;3.8504;
1078.5000;0.1115;3.8376;
1078.8000;0.1131;3.8479;
1079.1000;0.1131;3.8556;
1079.4000;0.1148;3.8479;
1079.7000;0.1123;3.8299;
1080.0000;0.1107;3.8222;
1080.3000;0.1156;3.8299;
1080.6000;0.1140;3.8197;
1080.9000;0.1131;3.8171;
1081.2000;0.1131;3.8171;
1081.5000;0.1131;3.8222;
1081.8000;0.1115;3.8222;
1082.1000;0.1131;3.8171;
1082.4000;0.1140;3.8171;
1082.7000;0.1148;3.8197;
1083.0000;0.1123;3.8145;
1083.3000;0.1140;3.8120;
1083.6000;0.1140;3.8171;
1083.9000;0.1115;3.8145;
1084.2000;0.1156;3.8299;
1084.5000;0.1148;3.8273;
1084.8000;0.1156;3.8273;
1085.1000;0.1131;3.8197;
1085.4000;0.1131;3.8094;
1085.7000;0.1148;3.8120;
1086.0000;0.1156;3.8017;
1086.3000;0.1148;3.8094;
1086.6000;0.1148;3.8068;
1086.9000;0.1123;3.8043;
1087.2000;0.1131;3.7966;
1087.5000;0.1156;3.8017;
1087.8000;0.1148;3.7991;
1088.1000;0.1148;3.7940;
1088.4000;0.1205;3.8248;
1088.7000;0.1140;3.7940;
1089.0000;0.1140;3.7991;
1089.3000;0.1148;3.8043;
1089.6000;0.1156;3.7991;
1089.9000;0.1115;3.7863;
1090.2000;0.1140;3.7966;
1090.5000;0.1131;3.7991;
1090.8000;0.1148;3.8043;
1091.1000;0.1107;3.7966;
1091.4000;0.1123;3.8068;
1091.7000;0.1131;3.8120;
1092.0000;0.1205;3.8453;
1092.3000;0.1148;3.8376;
1092.6000;0.1107;3.8299;
1092.9000;0.1107;3.8299;
1093.2000;0.1140;3.8273;
1093.5000;0.1156;3.8402;
1093.8000;0.1099;3.8273;
1094.1000;0.1180;3.8504;
1094.4000;0.1164;3.8350;
1094.7000;0.1140;3.8325;
1095.0000;0.1131;3.8222;
1095.3000;0.1164;3.8273;
1095.6000;0.1131;3.8197;
1095.9000;0.1205;3.8402;
1096.2000;0.1050;3.8017;
1096.5000;0.1131;3.8222;
1096.8000;0.1131;3.8222;
1097.1000;0.1140;3.8222;
1097.4000;0.1107;3.8197;
1097.7000;0.1140;3.8273;
1098.0000;0.1066;3.8043;
1098.3000;0.1140;3.8248;
1098.6000;0.1140;3.8248;
1098.9000;0.1074;3.8068;
1099.2000;0.1107;3.8171;
1099.5000;0.1148;3.8350;
1099.8000;0.1140;3.8350;
1100.1000;0.1131;3.8402;
1100.4000;0.1131;3.8453;
1100.7000;0.1131;3.8479;
1101.0000;0.1148;3.8453;
1101.3000;0.1140;3.8325;
1101.6000;0.1140;3.8350;
1101.9000;0.1099;3.8299;
1102.2000;0.1188;3.8479;
1102.5000;0.1123;3.8376;
1102.8000;0.1115;3.8376;
1103.1000;0.1050;3.8120;
1103.4000;0.1131;3.8427;
1103.7000;0.1123;3.8453;
1104.0000;0.1148;3.8530;
1104.3000;0.1221;3.8710;
1104.6000;0.1148;3.8453;
1104.9000;0.1148;3.8427;
1105.2000;0.1148;3.8350;
1105.5000;0.1140;3.8402;
1105.8000;0.1148;3.8376;
1106.1000;0.1123;3.8325;
1106.4000;0.1156;3.8248;
1106.7000;0.1156;3.8197;
1107.0000;0.1123;3.8197;
1107.3000;0.1131;3.8222;
1107.6000;0.1091;3.8120;
1107.9000;0.1156;3.8325;
1108.2000;0.1115;3.8197;
1108.5000;0.1131;3.8273;
1108.8000;0.1131;3.8248;
1109.1000;0.1074;3.8068;
1109.4000;0.1180;3.8350;
1109.7000;0.1140;3.8273;
1110.0000;0.1140;3.8197;
1110.3000;0.1140;3.8299;
1110.6000;0.1107;3.8171;
1110.9000;0.1131;3.8299;
1111.2000;0.1115;3.8222;
1111.5000;0.1156;3.8222;
1111.8000;0.1115;3.8273;
1112.1000;0.1115;3.8376;
1112.4000;0.1131;3.8376;
1112.7000;0.1140;3.8299;
1113.0000;0.1083;3.8171;
1113.3000;0.1123;3.8273;
1113.6000;0.1148;3.8376;
1113.9000;0.1148;3.8350;
1114.2000;0.1131;3.8376;
1114.5000;0.1115;3.8376;
1114.8000;0.1115;3.8325;
1115.1000;0.1140;3.8453;
1115.4000;0.1156;3.8504;
1115.7000;0.1131;3.8427;
1116.0000;0.1131;3.8556;
1116.3000;0.1140;3.8504;
1116.6000;0.1131;3.8479;
1116.9000;0.1148;3.8581;
1117.2000;0.1123;3.8530;
1117.5000;0.1148;3.8581;
1117.8000;0.1164;3.8633;
1118.1000;0.1140;3.8479;
1118.4000;0.1148;3.8530;
1118.7000;0.1123;3.8299;
1119.0000;0.1123;3.8248;
1119.3000;0.1140;3.8171;
1119.6000;0.1131;3.8248;
1119.9000;0.1156;3.8273;
1120.2000;0.1148;3.8197;
1120.5000;0.1131;3.8248;
1120.8000;0.1131;3.8248;
1121.1000;0.1115;3.8248;
1121.4000;0.1148;3.8273;
1121.7000;0.1140;3.8248;
1122.0000;0.1164;3.8402;
1122.3000;0.1131;3.8197;
1122.6000;0.1140;3.8299;
1122.9000;0.1131;3.8350;
1123.2000;0.1156;3.8325;
1123.5000;0.1156;3.8427;
1123.8000;0.1115;3.8273;
1124.1000;0.1131;3.8325;
1124.4000;0.1123;3.8325;
1124.7000;0.1123;3.8325;
1125.0000;0.1140;3.8402;
1125.3000;0.1131;3.8350;
1125.6000;0.1221;3.8607;
1125.9000;0.1123;3.8273;
1126.2000;0.1131;3.8171;
1126.5000;0.1091;3.8094;
1126.8000;0.1131;3.8248;
1127.1000;0.1131;3.8325;
1127.4000;0.1180;3.8530;
1127.7000;0.1123;3.8325;
1128.0000;0.1131;3.8376;
1128.3000;0.1115;3.8350;
1128.6000;0.1131;3.8299;
1128.9000;0.1123;3.8376;
1129.2000;0.1131;3.8479;
1129.5000;0.1156;3.8556;
1129.8000;0.1140;3.8427;
1130.1000;0.1131;3.8350;
1130.4000;0.1042;3.8094;
1130.7000;0.1164;3.8402;
1131.0000;0.1156;3.8350;
1131.3000;0.1123;3.8222;
1131.6000;0.1140;3.8248;
1131.9000;0.1156;3.8197;
1132.2000;0.1140;3.8171;
1132.5000;0.1140;3.8248;
1132.8000;0.1156;3.8299;
1133.1000;0.1164;3.8273;
1133.4000;0.1131;3.8120;
1133.7000;0.1140;3.8171;
1134.0000;0.1123;3.8248;
1134.3000;0.1140;3.8222;
1134.6000;0.1140;3.8248;
1134.9000;0.1140;3.8273;
1135.2000;0.1148;3.8376;
1135.5000;0.1148;3.8350;
1135.8000;0.1131;3.8273;
1136.1000;0.1131;3.8248;
1136.4000;0.1131;3.8248;
1136.7000;0.1148;3.8273;
1137.0000;0.1180;3.8376;
1137.3000;0.1148;3.8325;
1137.6000;0.1164;3.8376;
1137.9000;0.1099;3.8197;
1138.2000;0.1131;3.8222;
1138.5000;0.1148;3.8299;
1138.8000;0.1148;3.8273;
1139.1000;0.1140;3.8299;
1139.4000;0.1156;3.8402;
1139.7000;0.1131;3.8350;
1140.0000;0.1156;3.8427;
1140.3000;0.1123;3.8222;
1140.6000;0.1123;3.8299;
1140.9000;0.1148;3.8350;
1141.2000;0.1148;3.8273;
1141.5000;0.1123;3.8197;
1141.8000;0.1140;3.8248;
1142.1000;0.1205;3.8504;
1142.4000;0.1099;3.8197;
1142.7000;0.1148;3.8350;
1143.0000;0.1148;3.8376;
1143.3000;0.1148;3.8350;
1143.6000;0.1221;3.8710;
1143.9000;0.1123;3.8504;
1144.2000;0.1131;3.8504;
1144.5000;0.1164;3.8633;
1144.8000;0.1131;3.8556;
1145.1000;0.1099;3.8427;
1145.4000;0.1278;3.8812;
1145.7000;0.1140;3.8350;
1146.0000;0.1123;3.8273;
1146.3000;0.1131;3.8325;
1146.6000;0.1148;3.8453;
1146.9000;0.1148;3.8453;
1147.2000;0.1156;3.8530;
1147.5000;0.1156;3.8556;
1147.8000;0.1123;3.8427;
1148.1000;0.1115;3.8376;
1148.4000;0.1140;3.8427;
1148.7000;0.1148;3.8479;
1149.0000;0.1140;3.8402;
1149.3000;0.1107;3.8299;
1149.6000;0.1091;3.8222;
1149.9000;0.1131;3.8325;
1150.2000;0.1115;3.8299;
1150.5000;0.1140;3.8453;
1150.8000;0.1188;3.8581;
1151.1000;0.1148;3.8504;
1151.4000;0.1123;3.8402;
1151.7000;0.1156;3.8504;
1152.0000;0.1213;3.8684;
1152.3000;0.1058;3.8325;
1152.6000;0.1148;3.8633;
1152.9000;0.1123;3.8607;
1153.2000;0.1131;3.8556;
1153.5000;0.1148;3.8530;
1153.8000;0.1140;3.8504;
1154.1000;0.1123;3.8504;
1154.4000;0.1123;3.8530;
1154.7000;0.1131;3.8530;
1155.0000;0.1140;3.8479;
1155.3000;0.1123;3.8325;
1155.6000;0.1131;3.8427;
1155.9000;0.1115;3.8325;
1156.2000;0.1156;3.8453;
1156.5000;0.1131;3.8376;
1156.8000;0.1180;3.8530;
1157.1000;0.1131;3.8530;
1157.4000;0.1107;3.8402;
1157.7000;0.1164;3.8504;
1158.0000;0.1131;3.8376;
1158.3000;0.1140;3.8427;
1158.6000;0.1115;3.8325;
1158.9000;0.1148;3.8427;
1159.2000;0.1140;3.8479;
1159.5000;0.1140;3.8530;
1159.8000;0.1148;3.8556;
1160.1000;0.1164;3.8581;
1160.4000;0.1123;3.8479;
1160.7000;0.1091;3.8427;
1161.0000;0.1115;3.8504;
1161.3000;0.1123;3.8504;
1161.6000;0.1156;3.8556;
1161.9000;0.1140;3.8453;
1162.2000;0.1115;3.8376;
1162.5000;0.1140;3.8402;
1162.8000;0.1131;3.8376;
1163.1000;0.1148;3.8453;
1163.4000;0.1140;3.8453;
1163.7000;0.1131;3.8453;
1164.0000;0.1140;3.8453;
1164.3000;0.1107;3.8299;
1164.6000;0.1131;3.8273;
1164.9000;0.1131;3.8325;
1165.2000;0.1148;3.8299;
1165.5000;0.1148;3.8222;
1165.8000;0.1123;3.8094;
1166.1000;0.1172;3.8197;
1166.4000;0.1156;3.8094;
1166.7000;0.1115;3.8068;
1167.0000;0.1083;3.8017;
1167.3000;0.1140;3.8299;
1167.6000;0.1131;3.8222;
1167.9000;0.1140;3.8171;
1168.2000;0.1115;3.8145;
1168.5000;0.1123;3.8222;
1168.8000;0.1148;3.8273;
1169.1000;0.1140;3.8248;
1169.4000;0.1164;3.8350;
1169.7000;0.1123;3.8273;
1170.0000;0.1123;3.8376;
1170.3000;0.1148;3.8530;
1170.6000;0.1140;3.8479;
1170.9000;0.1156;3.8479;
1171.2000;0.1123;3.8402;
1171.5000;0.1148;3.8453;
1171.8000;0.1140;3.8530;
1172.1000;0.1123;3.8479;
1172.4000;0.1115;3.8402;
1172.7000;0.1148;3.8504;
1173.0000;0.1140;3.8504;
1173.3000;0.1156;3.8556;
1173.6000;0.1140;3.8556;
1173.9000;0.1066;3.8376;
1174.2000;0.1083;3.8402;
1174.5000;0.1123;3.8530;
1174.8000;0.1172;3.8658;
1175.1000;0.1107;3.8376;
1175.4000;0.1131;3.8427;
1175.7000;0.1123;3.8453;
1176.0000;0.1115;3.8453;
1176.3000;0.1091;3.8402;
1176.6000;0.1148;3.8453;
1176.9000;0.1123;3.8402;
1177.2000;0.1123;3.8402;
1177.5000;0.1115;3.8197;
1177.8000;0.1123;3.8222;
1178.1000;0.1164;3.8325;
1178.4000;0.1156;3.8350;
1178.7000;0.1172;3.8427;
1179.0000;0.1156;3.8427;
1179.3000;0.1131;3.8325;
1179.6000;0.1156;3.8350;
1179.9000;0.1115;3.8273;
1180.2000;0.1107;3.8350;
1180.5000;0.1172;3.8530;
1180.8000;0.1107;3.8325;
1181.1000;0.1148;3.8427;
1181.4000;0.1140;3.8427;
1181.7000;0.1066;3.8222;
1182.0000;0.1131;3.8299;
1182.3000;0.1131;3.8299;
1182.6000;0.1107;3.8222;
1182.9000;0.1131;3.8325;
1183.2000;0.1148;3.8299;
1183.5000;0.1164;3.8350;
1183.8000;0.1140;3.8248;
1184.1000;0.1140;3.8325;
1184.4000;0.1148;3.8325;
1184.7000;0.1148;3.8299;
1185.0000;0.1115;3.8299;
1185.3000;0.1115;3.8171;
1185.6000;0.1140;3.8197;
1185.9000;0.1131;3.8222;
1186.2000;0.1123;3.8299;
1186.5000;0.1107;3.8273;
1186.8000;0.1131;3.8350;
1187.1000;0.1164;3.8376;
1187.4000;0.1123;3.8248;
1187.7000;0.1131;3.8273;
1188.0000;0.1140;3.8248;
1188.3000;0.1115;3.8299;
1188.6000;0.1131;3.8325;
1188.9000;0.1115;3.8248;
1189.2000;0.1115;3.8222;
1189.5000;0.1131;3.8248;
1189.8000;0.1140;3.8376;
1190.1000;0.1026;3.8120;
1190.4000;0.1131;3.8427;
1190.7000;0.1131;3.8453;
1191.0000;0.1026;3.8094;
1191.3000;0.1140;3.8299;
1191.6000;0.1188;3.8504;
1191.9000;0.1140;3.8350;
1192.2000;0.1140;3.8376;
1192.5000;0.1115;3.8376;
1192.8000;0.1148;3.8427;
1193.1000;0.1131;3.8402;
1193.4000;0.1083;3.8248;
1193.7000;0.1148;3.8325;
1194.0000;0.1123;3.8273;
1194.3000;0.1123;3.8427;
1194.6000;0.1156;3.8530;
1194.9000;0.1131;3.8530;
1195.2000;0.1131;3.8581;
1195.5000;0.1083;3.8453;
1195.8000;0.1148;3.8504;
1196.1000;0.1115;3.8376;
1196.4000;0.1148;3.8427;
1196.7000;0.1188;3.8556;
1197.0000;0.1123;3.8350;
1197.3000;0.1164;3.8453;
1197.6000;0.1131;3.8427;
1197.9000;0.1148;3.8530;
1198.2000;0.1123;3.8427;
1198.5000;0.1205;3.8684;
1198.8000;0.1099;3.8325;
1199.1000;0.1107;3.8299;
1199.4000;0.1148;3.8453;
1199.7000;0.1188;3.8556;
1200.0000;0.1140;3.8479;
1200.3000;0.1131;3.8453;
1200.6000;0.1148;3.8504;
1200.9000;0.1123;3.8453;
1201.2000;0.1188;3.8530;
1201.5000;0.1123;3.8350;
1201.8000;0.1091;3.8299;
1202.1000;0.1140;3.8427;
1202.4000;0.1156;3.8427;
1202.7000;0.1213;3.8607;
1203.0000;0.1131;3.8376;
1203.3000;0.1131;3.8325;
1203.6000;0.1156;3.8402;
1203.9000;0.1156;3.8530;
1204.2000;0.1164;3.8530;
1204.5000;0.1123;3.8427;
1204.8000;0.1123;3.8402;
1205.1000;0.1115;3.8350;
1205.4000;0.1091;3.8299;
1205.7000;0.1140;3.8376;
1206.0000;0.1140;3.8402;
1206.3000;0.1140;3.8376;
1206.6000;0.1026;3.8094;
1206.9000;0.1131;3.8273;
1207.2000;0.1123;3.8299;
1207.5000;0.1083;3.8145;
1207.8000;0.1140;3.8222;
1208.1000;0.1091;3.8094;
1208.4000;0.1131;3.8197;
1208.7000;0.1140;3.8222;
1209.0000;0.1164;3.8248;
1209.3000;0.1164;3.8222;
1209.6000;0.1099;3.8068;
1209.9000;0.1099;3.8222;
1210.2000;0.1140;3.8325;
1210.5000;0.1156;3.8376;
1210.8000;0.1148;3.8376;
1211.1000;0.1221;3.8556;
1211.4000;0.1172;3.8427;
1211.7000;0.1131;3.8299;
1212.0000;0.1131;3.8273;
1212.3000;0.1164;3.8325;
1212.6000;0.1140;3.8273;
1212.9000;0.1180;3.8402;
1213.2000;0.1131;3.8299;
1213.5000;0.1131;3.8325;
1213.8000;0.1123;3.8325;
1214.1000;0.1221;3.8658;
1214.4000;0.1140;3.8427;
1214.7000;0.1131;3.8402;
1215.0000;0.1131;3.8376;
1215.3000;0.1156;3.8453;
1215.6000;0.1131;3.8427;
1215.9000;0.1148;3.8376;
1216.2000;0.1131;3.8376;
1216.5000;0.1148;3.8453;
1216.8000;0.1164;3.8556;
1217.1000;0.1115;3.8402;
1217.4000;0.1123;3.8402;
1217.7000;0.1123;3.8350;
1218.0000;0.1115;3.8273;
1218.3000;0.1123;3.8248;
1218.6000;0.1140;3.8273;
1218.9000;0.1123;3.8145;
1219.2000;0.1140;3.8299;
1219.5000;0.1140;3.8222;
1219.8000;0.1050;3.8017;
1220.1000;0.1123;3.8325;
1220.4000;0.1115;3.8299;
1220.7000;0.1164;3.8453;
1221.0000;0.1140;3.8402;
1221.3000;0.1123;3.8402;
1221.6000;0.1148;3.8427;
1221.9000;0.1140;3.8376;
1222.2000;0.1018;3.8120;
1222.5000;0.1197;3.8633;
1222.8000;0.1083;3.8248;
1223.1000;0.1148;3.8427;
1223.4000;0.1148;3.8376;
1223.7000;0.1131;3.8299;
1224.0000;0.1123;3.8248;
1224.3000;0.1140;3.8299;
1224.6000;0.1131;3.8273;
1224.9000;0.1140;3.8325;
1225.2000;0.1131;3.8350;
1225.5000;0.1083;3.8350;
1225.8000;0.1091;3.8402;
1226.1000;0.1140;3.8530;
1226.4000;0.1123;3.8556;
1226.7000;0.1254;3.8915;
1227.0000;0.1131;3.8504;
1227.3000;0.1140;3.8479;
1227.6000;0.1278;3.8838;
1227.9000;0.1131;3.8427;
1228.2000;0.1123;3.8376;
1228.5000;0.1131;3.8350;
1228.8000;0.1123;3.8248;
1229.1000;0.1115;3.8325;
1229.4000;0.1115;3.8376;
1229.7000;0.1131;3.8376;
1230.0000;0.1164;3.8504;
1230.3000;0.1140;3.8376;
1230.6000;0.1197;3.8479;
1230.9000;0.1140;3.8273;
1231.2000;0.1148;3.8376;
1231.5000;0.1123;3.8402;
1231.8000;0.1131;3.8530;
1232.1000;0.1148;3.8504;
1232.4000;0.1123;3.8402;
1232.7000;0.1123;3.8427;
1233.0000;0.1180;3.8581;
1233.3000;0.1131;3.8504;
1233.6000;0.1123;3.8427;
1233.9000;0.1131;3.8504;
1234.2000;0.1115;3.8402;
1234.5000;0.1131;3.8453;
1234.8000;0.1148;3.8453;
1235.1000;0.1131;3.8376;
1235.4000;0.1131;3.8376;
1235.7000;0.1115;3.8222;
1236.0000;0.1156;3.8376;
1236.3000;0.1131;3.8376;
1236.6000;0.1237;3.8684;
1236.9000;0.1131;3.8427;
1237.2000;0.1172;3.8556;
1237.5000;0.1180;3.8581;
1237.8000;0.1123;3.8504;
1238.1000;0.1140;3.8556;
1238.4000;0.1115;3.8556;
1238.7000;0.1107;3.8556;
1239.0000;0.1140;3.8684;
1239.3000;0.1115;3.8556;
1239.6000;0.1140;3.8504;
1239.9000;0.1148;3.8633;
1240.2000;0.1115;3.8504;
1240.5000;0.1123;3.8581;
1240.8000;0.1148;3.8581;
1241.1000;0.1148;3.8530;
1241.4000;0.1123;3.8504;
1241.7000;0.1131;3.8479;
1242.0000;0.1148;3.8479;
1242.3000;0.1156;3.8504;
1242.6000;0.1148;3.8453;
1242.9000;0.1148;3.8402;
1243.2000;0.1115;3.8350;
1243.5000;0.1123;3.8504;
1243.8000;0.1115;3.8556;
1244.1000;0.1188;3.8761;
1244.4000;0.1140;3.8453;
1244.7000;0.1140;3.8402;
1245.0000;0.1140;3.8402;
1245.3000;0.1131;3.8325;
1245.6000;0.1140;3.8350;
1245.9000;0.1083;3.8171;
1246.2000;0.1205;3.8504;
1246.5000;0.1123;3.8248;
1246.8000;0.1042;3.8145;
1247.1000;0.1172;3.8427;
1247.4000;0.1164;3.8453;
1247.7000;0.1131;3.8376;
1248.0000;0.1123;3.8350;
1248.3000;0.1123;3.8402;
1248.6000;0.1131;3.8453;
1248.9000;0.1148;3.8479;
1249.2000;0.1164;3.8453;
1249.5000;0.1140;3.8325;
1249.8000;0.1148;3.8376;
1250.1000;0.1156;3.8453;
1250.4000;0.1131;3.8427;
1250.7000;0.1148;3.8453;
1251.0000;0.1164;3.8453;
1251.3000;0.1115;3.8453;
1251.6000;0.1131;3.8427;
1251.9000;0.1148;3.8479;
1252.2000;0.1148;3.8530;
1252.5000;0.1148;3.8504;
1252.8000;0.1140;3.8479;
1253.1000;0.1188;3.8607;
1253.4000;0.1156;3.8453;
1253.7000;0.1140;3.8479;
1254.0000;0.1115;3.8479;
1254.3000;0.1148;3.8504;
1254.6000;0.1156;3.8556;
1254.9000;0.1164;3.8607;
1255.2000;0.1172;3.8479;
1255.5000;0.1131;3.8299;
1255.8000;0.1123;3.8222;
1256.1000;0.1140;3.8325;
1256.4000;0.1140;3.8376;
1256.7000;0.1140;3.8504;
1257.0000;0.1123;3.8453;
1257.3000;0.1115;3.8427;
1257.6000;0.1156;3.8504;
1257.9000;0.1148;3.8427;
1258.2000;0.1148;3.8402;
1258.5000;0.1123;3.8350;
1258.8000;0.1115;3.8325;
1259.1000;0.1115;3.8325;
1259.4000;0.1131;3.8273;
1259.7000;0.1123;3.8299;
1260.0000;0.1188;3.8504;
1260.3000;0.1205;3.8530;
1260.6000;0.1164;3.8350;
1260.9000;0.1123;3.8299;
1261.2000;0.1107;3.8299;
1261.5000;0.1107;3.8273;
1261.8000;0.1115;3.8376;
1262.1000;0.1140;3.8479;
1262.4000;0.1131;3.8530;
1262.7000;0.1172;3.8684;
1263.0000;0.1131;3.8530;
1263.3000;0.1140;3.8504;
1263.6000;0.1131;3.8504;
1263.9000;0.1148;3.8350;
1264.2000;0.1156;3.8376;
1264.5000;0.1123;3.8273;
1264.8000;0.1140;3.8325;
1265.1000;0.1188;3.8453;
1265.4000;0.1091;3.8171;
1265.7000;0.1140;3.8325;
1266.0000;0.1091;3.8248;
1266.3000;0.1131;3.8402;
1266.6000;0.1148;3.8427;
1266.9000;0.1172;3.8530;
1267.2000;0.1140;3.8376;
1267.5000;0.1131;3.8376;
1267.8000;0.1140;3.8427;
1268.1000;0.1197;3.8581;
1268.4000;0.1172;3.8530;
1268.7000;0.1115;3.8402;
1269.0000;0.1123;3.8453;
1269.3000;0.1074;3.8299;
1269.6000;0.1123;3.8530;
1269.9000;0.1131;3.8504;
1270.2000;0.1131;3.8504;
1270.5000;0.1131;3.8453;
1270.8000;0.1123;3.8402;
1271.1000;0.1115;3.8325;
1271.4000;0.1140;3.8248;
1271.7000;0.1131;3.8197;
1272.0000;0.1164;3.8197;
1272.3000;0.1140;3.8068;
1272.6000;0.1131;3.8068;
1272.9000;0.1123;3.8120;
1273.2000;0.1115;3.8094;
1273.5000;0.1115;3.8017;
1273.8000;0.1099;3.8094;
1274.1000;0.1115;3.8068;
1274.4000;0.1156;3.8248;
1274.7000;0.1140;3.8171;
1275.0000;0.1148;3.8197;
1275.3000;0.1156;3.8273;
1275.6000;0.1148;3.8248;
1275.9000;0.1131;3.8325;
1276.2000;0.1131;3.8350;
1276.5000;0.1156;3.8402;
1276.8000;0.1123;3.8222;
1277.1000;0.1140;3.8222;
1277.4000;0.1148;3.8248;
1277.7000;0.1140;3.8145;
1278.0000;0.1156;3.8145;
1278.3000;0.1164;3.8273;
1278.6000;0.1180;3.8427;
1278.9000;0.1131;3.8197;
1279.2000;0.1148;3.8273;
1279.5000;0.1148;3.8376;
1279.8000;0.1140;3.8273;
1280.1000;0.1083;3.8068;
1280.4000;0.1099;3.8043;
1280.7000;0.1156;3.8350;
1281.0000;0.1140;3.8222;
1281.3000;0.1123;3.8222;
1281.6000;0.1066;3.8043;
1281.9000;0.1140;3.8273;
1282.2000;0.1156;3.8325;
1282.5000;0.1140;3.8273;
1282.8000;0.1140;3.8299;
1283.1000;0.1123;3.8248;
1283.4000;0.1066;3.8171;
1283.7000;0.1148;3.8350;
1284.0000;0.1115;3.8197;
1284.3000;0.1213;3.8479;
1284.6000;0.1123;3.8120;
1284.9000;0.1140;3.8273;
1285.2000;0.1172;3.8402;
1285.5000;0.1140;3.8299;
1285.8000;0.1131;3.8350;
1286.1000;0.1099;3.8299;
1286.4000;0.1148;3.8376;
1286.7000;0.1131;3.8325;
1287.0000;0.1131;3.8299;
1287.3000;0.1140;3.8222;
1287.6000;0.1115;3.8197;
1287.9000;0.1131;3.8171;
1288.2000;0.1148;3.8273;
1288.5000;0.1148;3.8273;
1288.8000;0.1131;3.8222;
1289.1000;0.1123;3.8120;
1289.4000;0.1099;3.8043;
1289.7000;0.1140;3.8197;
1290.0000;0.1164;3.8273;
1290.3000;0.1148;3.8222;
1290.6000;0.1131;3.8171;
1290.9000;0.1131;3.8248;
1291.2000;0.1115;3.8222;
1291.5000;0.1091;3.8068;
1291.8000;0.1131;3.8222;
1292.1000;0.1140;3.8171;
1292.4000;0.1107;3.8017;
1292.7000;0.1156;3.8248;
1293.0000;0.1148;3.8222;
1293.3000;0.1131;3.8222;
1293.6000;0.1123;3.8120;
1293.9000;0.1131;3.8197;
1294.2000;0.1131;3.8248;
1294.5000;0.1115;3.8273;
1294.8000;0.1131;3.8325;
1295.1000;0.1140;3.8325;
1295.4000;0.1140;3.8402;
1295.7000;0.1123;3.8376;
1296.0000;0.1115;3.8350;
1296.3000;0.1148;3.8453;
1296.6000;0.1140;3.8402;
1296.9000;0.1156;3.8402;
1297.2000;0.1140;3.8402;
1297.5000;0.1140;3.8402;
1297.8000;0.1148;3.8402;
1298.1000;0.1131;3.8325;
1298.4000;0.1140;3.8325;
1298.7000;0.1131;3.8402;
1299.0000;0.1107;3.8350;
1299.3000;0.1156;3.8479;
1299.6000;0.1140;3.8376;
1299.9000;0.1140;3.8402;
1300.2000;0.1164;3.8479;
1300.5000;0.1148;3.8504;
1300.8000;0.1099;3.8427;
1301.1000;0.1123;3.8427;
1301.4000;0.1164;3.8453;
1301.7000;0.1131;3.8376;
1302.0000;0.1205;3.8530;
1302.3000;0.1148;3.8376;
1302.6000;0.1091;3.8273;
1302.9000;0.1140;3.8376;
1303.2000;0.1123;3.8350;
1303.5000;0.1140;3.8427;
1303.8000;0.1140;3.8427;
1304.1000;0.1140;3.8504;
1304.4000;0.1131;3.8556;
1304.7000;0.1131;3.8479;
1305.0000;0.1148;3.8479;
1305.3000;0.1131;3.8453;
1305.6000;0.1148;3.8427;
1305.9000;0.1140;3.8479;
1306.2000;0.1148;3.8530;
1306.5000;0.1148;3.8556;
1306.8000;0.1140;3.8504;
1307.1000;0.1083;3.8376;
1307.4000;0.1115;3.8530;
1307.7000;0.1140;3.8504;
1308.0000;0.1148;3.8581;
1308.3000;0.1131;3.8556;
1308.6000;0.1131;3.8427;
1308.9000;0.1156;3.8479;
1309.2000;0.1148;3.8453;
1309.5000;0.1091;3.8273;
1309.8000;0.1131;3.8427;
1310.1000;0.1115;3.8453;
1310.4000;0.1148;3.8607;
1310.7000;0.1131;3.8581;
1311.0000;0.1123;3.8504;
1311.3000;0.1140;3.8581;
1311.6000;0.1156;3.8556;
1311.9000;0.1164;3.8581;
1312.2000;0.1148;3.8453;
1312.5000;0.1148;3.8504;
1312.8000;0.1131;3.8479;
1313.1000;0.1148;3.8504;
1313.4000;0.1148;3.8504;
1313.7000;0.1131;3.8504;
1314.0000;0.1115;3.8453;
1314.3000;0.1066;3.8222;
1314.6000;0.1131;3.8402;
1314.9000;0.1180;3.8479;
1315.2000;0.1107;3.8376;
1315.5000;0.0993;3.7966;
1315.8000;0.1148;3.8427;
1316.1000;0.1140;3.8402;
1316.4000;0.1131;3.8376;
1316.7000;0.1131;3.8350;
1317.0000;0.1156;3.8427;
1317.3000;0.1131;3.8325;
1317.6000;0.1099;3.8222;
1317.9000;0.1026;3.8094;
1318.2000;0.1140;3.8273;
1318.5000;0.1123;3.8171;
1318.8000;0.1213;3.8453;
1319.1000;0.1140;3.8325;
1319.4000;0.1140;3.8299;
1319.7000;0.1131;3.8325;
1320.0000;0.1107;3.8273;
1320.3000;0.1131;3.8350;
1320.6000;0.1148;3.8376;
1320.9000;0.1131;3.8325;
1321.2000;0.1156;3.8350;
1321.5000;0.1123;3.8145;
1321.8000;0.1123;3.8197;
1322.1000;0.1148;3.8325;
1322.4000;0.1131;3.8273;
1322.7000;0.1123;3.8222;
1323.0000;0.1115;3.8299;
1323.3000;0.1140;3.8427;
1323.6000;0.1107;3.8453;
1323.9000;0.1123;3.8581;
1324.2000;0.1123;3.8581;
1324.5000;0.1148;3.8556;
1324.8000;0.1115;3.8453;
1325.1000;0.1050;3.8350;
1325.4000;0.1148;3.8479;
1325.7000;0.1140;3.8402;
1326.0000;0.1140;3.8504;
1326.3000;0.1131;3.8402;
1326.6000;0.1188;3.8556;
1326.9000;0.1091;3.8273;
1327.2000;0.1148;3.8453;
1327.5000;0.1140;3.8427;
1327.8000;0.1131;3.8427;
1328.1000;0.1131;3.8453;
1328.4000;0.1140;3.8479;
1328.7000;0.1115;3.8453;
1329.0000;0.1123;3.8530;
1329.3000;0.1140;3.8504;
1329.6000;0.1123;3.8427;
1329.9000;0.1107;3.8402;
1330.2000;0.1131;3.8402;
1330.5000;0.1107;3.8299;
1330.8000;0.1131;3.8453;
1331.1000;0.1058;3.8222;
1331.4000;0.1140;3.8376;
1331.7000;0.1131;3.8350;
1332.0000;0.1148;3.8325;
1332.3000;0.1164;3.8325;
1332.6000;0.1148;3.8248;
1332.9000;0.1148;3.8299;
1333.2000;0.1148;3.8350;
1333.5000;0.1140;3.8427;
1333.8000;0.1115;3.8376;
1334.1000;0.1115;3.8325;
1334.4000;0.1131;3.8350;
1334.7000;0.1188;3.8479;
1335.0000;0.1148;3.8402;
1335.3000;0.1148;3.8453;
1335.6000;0.1140;3.8376;
1335.9000;0.1131;3.8299;
1336.2000;0.1205;3.8581;
1336.5000;0.1172;3.8556;
1336.8000;0.1140;3.8479;
1337.1000;0.1123;3.8376;
1337.4000;0.1123;3.8402;
1337.7000;0.1123;3.8402;
1338.0000;0.1140;3.8453;
1338.3000;0.0961;3.8043;
1338.6000;0.1131;3.8504;
1338.9000;0.1148;3.8530;
1339.2000;0.1123;3.8479;
1339.5000;0.1115;3.8427;
1339.8000;0.1140;3.8479;
1340.1000;0.1164;3.8453;
1340.4000;0.1148;3.8376;
1340.7000;0.1131;3.8376;
1341.0000;0.1123;3.8325;
1341.3000;0.1172;3.8350;
1341.6000;0.1197;3.8325;
1341.9000;0.1123;3.8273;
1342.2000;0.1140;3.8402;
1342.5000;0.1140;3.8325;
1342.8000;0.1197;3.8453;
1343.1000;0.1140;3.8402;
1343.4000;0.1140;3.8350;
1343.7000;0.1123;3.8325;
1344.0000;0.1115;3.8273;
1344.3000;0.1131;3.8325;
1344.6000;0.1131;3.8299;
1344.9000;0.1148;3.8376;
1345.2000;0.1131;3.8350;
1345.5000;0.1140;3.8376;
1345.8000;0.1099;3.8171;
1346.1000;0.1140;3.8350;
1346.4000;0.1156;3.8376;
1346.7000;0.1148;3.8402;
1347.0000;0.1123;3.8427;
1347.3000;0.1140;3.8402;
1347.6000;0.1197;3.8479;
1347.9000;0.1164;3.8350;
1348.2000;0.1148;3.8222;
1348.5000;0.1115;3.8171;
1348.8000;0.1131;3.8350;
1349.1000;0.1140;3.8427;
1349.4000;0.1131;3.8402;
1349.7000;0.1123;3.8376;
1350.0000;0.1107;3.8350;
1350.3000;0.1140;3.8453;
1350.6000;0.1131;3.8402;
1350.9000;0.1066;3.8299;
1351.2000;0.1156;3.8479;
1351.5000;0.1148;3.8427;
1351.8000;0.1140;3.8273;
1352.1000;0.1156;3.8325;
1352.4000;0.1172;3.8402;
1352.7000;0.1156;3.8453;
1353.0000;0.1148;3.8530;
1353.3000;0.1123;3.8453;
1353.6000;0.1115;3.8453;
1353.9000;0.1148;3.8504;
1354.2000;0.1140;3.8402;
1354.5000;0.1123;3.8325;
1354.8000;0.1131;3.8350;
1355.1000;0.1197;3.8504;
1355.4000;0.1156;3.8325;
1355.7000;0.1148;3.8325;
1356.0000;0.1123;3.8197;
1356.3000;0.1205;3.8427;
1356.6000;0.1148;3.8325;
1356.9000;0.1140;3.8299;
1357.2000;0.1115;3.8248;
1357.5000;0.1123;3.8325;
1357.8000;0.1131;3.8350;
1358.1000;0.1131;3.8402;
1358.4000;0.1156;3.8504;
1358.7000;0.1172;3.8581;
1359.0000;0.1123;3.8453;
1359.3000;0.1131;3.8453;
1359.6000;0.1131;3.8427;
1359.9000;0.1131;3.8350;
1360.2000;0.1148;3.8402;
1360.5000;0.1131;3.8248;
1360.8000;0.1131;3.8273;
1361.1000;0.1123;3.8325;
1361.4000;0.1131;3.8325;
1361.7000;0.1140;3.8299;
1362.0000;0.1188;3.8376;
1362.3000;0.1123;3.8325;
1362.6000;0.1115;3.8350;
1362.9000;0.1123;3.8376;
1363.2000;0.1188;3.8607;
1363.5000;0.1115;3.8453;
1363.8000;0.1180;3.8658;
1364.1000;0.1131;3.8530;
1364.4000;0.1156;3.8607;
1364.7000;0.1131;3.8556;
1365.0000;0.1140;3.8581;
1365.3000;0.1148;3.8633;
1365.6000;0.1140;3.8633;
1365.9000;0.1148;3.8556;
1366.2000;0.1156;3.8530;
1366.5000;0.1148;3.8504;
1366.8000;0.1115;3.8427;
1367.1000;0.1131;3.8427;
1367.4000;0.1140;3.8402;
1367.7000;0.1115;3.8402;
1368.0000;0.1148;3.8427;
1368.3000;0.1140;3.8376;
1368.6000;0.1188;3.8530;
1368.9000;0.1140;3.8376;
1369.2000;0.1131;3.8376;
1369.5000;0.1140;3.8453;
1369.8000;0.1131;3.8325;
1370.1000;0.1115;3.8197;
1370.4000;0.1131;3.8273;
1370.7000;0.1140;3.8273;
1371.0000;0.1140;3.8248;
1371.3000;0.1156;3.8248;
1371.6000;0.1131;3.8145;
1371.9000;0.1115;3.8171;
1372.2000;0.1140;3.8248;
1372.5000;0.1115;3.8120;
1372.8000;0.1115;3.8120;
1373.1000;0.1148;3.8094;
1373.4000;0.1156;3.8197;
1373.7000;0.1140;3.8273;
1374.0000;0.1148;3.8273;
1374.3000;0.1156;3.8350;
1374.6000;0.1148;3.8325;
1374.9000;0.1221;3.8504;
1375.2000;0.1148;3.8299;
1375.5000;0.1131;3.8171;
1375.8000;0.1123;3.8171;
1376.1000;0.1131;3.8222;
1376.4000;0.1148;3.8325;
1376.7000;0.1148;3.8273;
1377.0000;0.1148;3.8299;
1377.3000;0.1131;3.8248;
1377.6000;0.1197;3.8427;
1377.9000;0.1115;3.8145;
1378.2000;0.1205;3.8376;
1378.5000;0.1131;3.8171;
1378.8000;0.1140;3.8171;
1379.1000;0.1156;3.8273;
1379.4000;0.1213;3.8453;
1379.7000;0.1213;3.8325;
1380.0000;0.1091;3.7991;
1380.3000;0.1131;3.8120;
1380.6000;0.1164;3.8197;
1380.9000;0.1156;3.8222;
1381.2000;0.1148;3.8197;
1381.5000;0.1123;3.8120;
1381.8000;0.1115;3.8068;
1382.1000;0.1131;3.8171;
1382.4000;0.1123;3.8248;
1382.7000;0.1123;3.8222;
1383.0000;0.1148;3.8350;
1383.3000;0.1115;3.8299;
1383.6000;0.1164;3.8402;
1383.9000;0.1148;3.8376;
1384.2000;0.1156;3.8325;
1384.5000;0.1221;3.8556;
1384.8000;0.1229;3.8581;
1385.1000;0.1164;3.8427;
1385.4000;0.1188;3.8427;
1385.7000;0.1140;3.8273;
1386.0000;0.1148;3.8273;
1386.3000;0.1115;3.8197;
1386.6000;0.1140;3.8197;
1386.9000;0.1131;3.8222;
1387.2000;0.1148;3.8273;
1387.5000;0.1107;3.8248;
1387.8000;0.1123;3.8350;
1388.1000;0.1107;3.8222;
1388.4000;0.1131;3.8248;
1388.7000;0.1131;3.8273;
1389.0000;0.1229;3.8453;
1389.3000;0.1254;3.8530;
1389.6000;0.1131;3.8248;
1389.9000;0.1123;3.8222;
1390.2000;0.1123;3.8299;
1390.5000;0.1140;3.8273;
1390.8000;0.1131;3.8376;
1391.1000;0.1140;3.8402;
1391.4000;0.1131;3.8325;
1391.7000;0.1123;3.8248;
1392.0000;0.1140;3.8171;
1392.3000;0.1140;3.8222;
1392.6000;0.1140;3.8299;
1392.9000;0.1131;3.8350;
1393.2000;0.1115;3.8299;
1393.5000;0.1123;3.8299;
1393.8000;0.1148;3.8376;
1394.1000;0.1164;3.8376;
1394.4000;0.1148;3.8299;
1394.7000;0.1131;3.8248;
1395.0000;0.1156;3.8222;
1395.3000;0.1148;3.8171;
1395.6000;0.1148;3.8171;
1395.9000;0.1131;3.8171;
1396.2000;0.1066;3.7940;
1396.5000;0.1148;3.8222;
1396.8000;0.1107;3.8197;
1397.1000;0.1123;3.8197;
1397.4000;0.1123;3.8171;
1397.7000;0.1123;3.8222;
1398.0000;0.1140;3.8197;
1398.3000;0.1140;3.8248;
1398.6000;0.1131;3.8299;
1398.9000;0.1131;3.8273;
1399.2000;0.1115;3.8273;
1399.5000;0.1140;3.8376;
1399.8000;0.1140;3.8402;
