time/ms;Fluo/V;P700 deltaI/I x10³;
-199.8000;0.1213;3.8607;
-199.5000;0.1213;3.8556;
-199.2000;0.1197;3.8530;
-198.9000;0.1188;3.8556;
-198.6000;0.1188;3.8556;
-198.3000;0.1254;3.8684;
-198.0000;0.1188;3.8530;
-197.7000;0.1205;3.8556;
-197.4000;0.1180;3.8453;
-197.1000;0.1188;3.8530;
-196.8000;0.1205;3.8530;
-196.5000;0.1205;3.8453;
-196.2000;0.1205;3.8479;
-195.9000;0.1197;3.8504;
-195.6000;0.1197;3.8479;
-195.3000;0.1197;3.8479;
-195.0000;0.1188;3.8453;
-194.7000;0.1172;3.8376;
-194.4000;0.1205;3.8299;
-194.1000;0.1229;3.8325;
-193.8000;0.1188;3.8248;
-193.5000;0.1180;3.8299;
-193.2000;0.1205;3.8350;
-192.9000;0.1197;3.8273;
-192.6000;0.1262;3.8453;
-192.3000;0.1197;3.8248;
-192.0000;0.1197;3.8299;
-191.7000;0.1205;3.8376;
-191.4000;0.1188;3.8376;
-191.1000;0.1180;3.8376;
-190.8000;0.1180;3.8427;
-190.5000;0.1197;3.8479;
-190.2000;0.1213;3.8453;
-189.9000;0.1205;3.8350;
-189.6000;0.1188;3.8376;
-189.3000;0.1180;3.8376;
-189.0000;0.1205;3.8402;
-188.7000;0.1319;3.8684;
-188.4000;0.1197;3.8325;
-188.1000;0.1197;3.8350;
-187.8000;0.1213;3.8427;
-187.5000;0.1205;3.8376;
-187.2000;0.1197;3.8402;
-186.9000;0.1164;3.8402;
-186.6000;0.1205;3.8530;
-186.3000;0.1197;3.8556;
-186.0000;0.1188;3.8479;
-185.7000;0.1188;3.8453;
-185.4000;0.1197;3.8427;
-185.1000;0.1221;3.8556;
-184.8000;0.1221;3.8658;
-184.5000;0.1197;3.8607;
-184.2000;0.1205;3.8684;
-183.9000;0.1205;3.8735;
-183.6000;0.1205;3.8684;
-183.3000;0.1197;3.8658;
-183.0000;0.1197;3.8479;
-182.7000;0.1180;3.8479;
-182.4000;0.1180;3.8479;
-182.1000;0.1115;3.8299;
-181.8000;0.1197;3.8556;
-181.5000;0.1197;3.8479;
-181.2000;0.1237;3.8633;
-180.9000;0.1180;3.8504;
-180.6000;0.1205;3.8581;
-180.3000;0.1188;3.8504;
-180.0000;0.1286;3.8710;
-179.7000;0.1205;3.8581;
-179.4000;0.1197;3.8556;
-179.1000;0.1123;3.8222;
-178.8000;0.1229;3.8530;
-178.5000;0.1205;3.8402;
-178.2000;0.1188;3.8350;
-177.9000;0.1270;3.8504;
-177.6000;0.1213;3.8376;
-177.3000;0.1229;3.8453;
-177.0000;0.1205;3.8427;
-176.7000;0.1351;3.8735;
-176.4000;0.1197;3.8325;
-176.1000;0.1188;3.8350;
-175.8000;0.1180;3.8376;
-175.5000;0.1197;3.8453;
-175.2000;0.1213;3.8556;
-174.9000;0.1197;3.8479;
-174.6000;0.1188;3.8453;
-174.3000;0.1197;3.8479;
-174.0000;0.1188;3.8479;
-173.7000;0.1237;3.8530;
-173.4000;0.1205;3.8479;
-173.1000;0.1197;3.8376;
-172.8000;0.1197;3.8376;
-172.5000;0.1302;3.8787;
-172.2000;0.1197;3.8479;
-171.9000;0.1205;3.8479;
-171.6000;0.1188;3.8453;
-171.3000;0.1205;3.8479;
-171.0000;0.1197;3.8504;
-170.7000;0.1172;3.8427;
-170.4000;0.1188;3.8453;
-170.1000;0.1172;3.8427;
-169.8000;0.1213;3.8453;
-169.5000;0.1188;3.8299;
-169.2000;0.1188;3.8248;
-168.9000;0.1302;3.8504;
-168.6000;0.1205;3.8222;
-168.3000;0.1213;3.8197;
-168.0000;0.1213;3.8145;
-167.7000;0.1221;3.8222;
-167.4000;0.1205;3.8222;
-167.1000;0.1205;3.8222;
-166.8000;0.1107;3.7966;
-166.5000;0.1172;3.8197;
-166.2000;0.1188;3.8248;
-165.9000;0.1197;3.8299;
-165.6000;0.1148;3.8171;
-165.3000;0.1197;3.8376;
-165.0000;0.1197;3.8427;
-164.7000;0.1123;3.8222;
-164.4000;0.1213;3.8530;
-164.1000;0.1205;3.8530;
-163.8000;0.1205;3.8581;
-163.5000;0.1229;3.8530;
-163.2000;0.1197;3.8556;
-162.9000;0.1074;3.8171;
-162.6000;0.1205;3.8453;
-162.3000;0.1188;3.8376;
-162.0000;0.1197;3.8376;
-161.7000;0.1180;3.8273;
-161.4000;0.1197;3.8350;
-161.1000;0.1180;3.8273;
-160.8000;0.1172;3.8197;
-160.5000;0.1213;3.8325;
-160.2000;0.1083;3.8017;
-159.9000;0.1205;3.8325;
-159.6000;0.1205;3.8325;
-159.3000;0.1148;3.8197;
-159.0000;0.1197;3.8273;
-158.7000;0.1131;3.8145;
-158.4000;0.1229;3.8402;
-158.1000;0.1197;3.8325;
-157.8000;0.1197;3.8350;
-157.5000;0.1213;3.8350;
-157.2000;0.1197;3.8402;
-156.9000;0.1188;3.8299;
-156.6000;0.1213;3.8376;
-156.3000;0.1180;3.8299;
-156.0000;0.1311;3.8684;
-155.7000;0.1221;3.8427;
-155.4000;0.1197;3.8350;
-155.1000;0.1188;3.8325;
-154.8000;0.1188;3.8325;
-154.5000;0.1197;3.8350;
-154.2000;0.1188;3.8273;
-153.9000;0.1197;3.8325;
-153.6000;0.1156;3.8197;
-153.3000;0.1197;3.8145;
-153.0000;0.1278;3.8427;
-152.7000;0.1197;3.8273;
-152.4000;0.1205;3.8299;
-152.1000;0.1221;3.8299;
-151.8000;0.1213;3.8376;
-151.5000;0.1115;3.8120;
-151.2000;0.1254;3.8427;
-150.9000;0.1205;3.8248;
-150.6000;0.1221;3.8248;
-150.3000;0.1327;3.8581;
-150.0000;0.1188;3.8120;
-149.7000;0.1148;3.8017;
-149.4000;0.1205;3.8120;
-149.1000;0.1172;3.8017;
-148.8000;0.1172;3.7991;
-148.5000;0.1294;3.8376;
-148.2000;0.1221;3.8273;
-147.9000;0.1213;3.8222;
-147.6000;0.1180;3.8171;
-147.3000;0.1205;3.8299;
-147.0000;0.1205;3.8299;
-146.7000;0.1205;3.8350;
-146.4000;0.1205;3.8248;
-146.1000;0.1188;3.8222;
-145.8000;0.1205;3.8248;
-145.5000;0.1205;3.8197;
-145.2000;0.1197;3.8248;
-144.9000;0.1188;3.8222;
-144.6000;0.1180;3.8222;
-144.3000;0.1205;3.8222;
-144.0000;0.1205;3.8376;
-143.7000;0.1188;3.8325;
-143.4000;0.1188;3.8402;
-143.1000;0.1213;3.8402;
-142.8000;0.1245;3.8427;
-142.5000;0.1221;3.8376;
-142.2000;0.1197;3.8350;
-141.9000;0.1254;3.8453;
-141.6000;0.1221;3.8350;
-141.3000;0.1197;3.8299;
-141.0000;0.1221;3.8402;
-140.7000;0.1197;3.8325;
-140.4000;0.1237;3.8427;
-140.1000;0.1188;3.8273;
-139.8000;0.1221;3.8376;
-139.5000;0.1188;3.8325;
-139.2000;0.1188;3.8402;
-138.9000;0.1205;3.8453;
-138.6000;0.1188;3.8299;
-138.3000;0.1197;3.8350;
-138.0000;0.1197;3.8427;
-137.7000;0.1237;3.8607;
-137.4000;0.1188;3.8427;
-137.1000;0.1156;3.8248;
-136.8000;0.1164;3.8325;
-136.5000;0.1172;3.8299;
-136.2000;0.1205;3.8325;
-135.9000;0.1140;3.8273;
-135.6000;0.1197;3.8427;
-135.3000;0.1205;3.8427;
-135.0000;0.1205;3.8453;
-134.7000;0.1205;3.8376;
-134.4000;0.1197;3.8376;
-134.1000;0.1270;3.8530;
-133.8000;0.1213;3.8350;
-133.5000;0.1180;3.8376;
-133.2000;0.1197;3.8376;
-132.9000;0.1180;3.8350;
-132.6000;0.1074;3.8017;
-132.3000;0.1213;3.8427;
-132.0000;0.1156;3.8350;
-131.7000;0.1188;3.8427;
-131.4000;0.1221;3.8479;
-131.1000;0.1262;3.8710;
-130.8000;0.1197;3.8504;
-130.5000;0.1213;3.8479;
-130.2000;0.1197;3.8427;
-129.9000;0.1205;3.8273;
-129.6000;0.1197;3.8222;
-129.3000;0.1205;3.8222;
-129.0000;0.1197;3.8248;
-128.7000;0.1205;3.8248;
-128.4000;0.1221;3.8325;
-128.1000;0.1180;3.8325;
-127.8000;0.1221;3.8479;
-127.5000;0.1148;3.8350;
-127.2000;0.1197;3.8376;
-126.9000;0.1221;3.8376;
-126.6000;0.1221;3.8325;
-126.3000;0.1254;3.8350;
-126.0000;0.1180;3.8197;
-125.7000;0.1188;3.8171;
-125.4000;0.1205;3.8222;
-125.1000;0.1205;3.8273;
-124.8000;0.1197;3.8222;
-124.5000;0.1164;3.8120;
-124.2000;0.1188;3.8402;
-123.9000;0.1123;3.8248;
-123.6000;0.1197;3.8530;
-123.3000;0.1148;3.8376;
-123.0000;0.1172;3.8453;
-122.7000;0.1237;3.8633;
-122.4000;0.1197;3.8530;
-122.1000;0.1164;3.8581;
-121.8000;0.1197;3.8633;
-121.5000;0.1115;3.8325;
-121.2000;0.1213;3.8607;
-120.9000;0.1205;3.8504;
-120.6000;0.1205;3.8479;
-120.3000;0.1197;3.8427;
-120.0000;0.1205;3.8402;
-119.7000;0.1115;3.8094;
-119.4000;0.1099;3.8017;
-119.1000;0.1180;3.8222;
-118.8000;0.1229;3.8402;
-118.5000;0.1213;3.8325;
-118.2000;0.1197;3.8299;
-117.9000;0.1197;3.8248;
-117.6000;0.1205;3.8248;
-117.3000;0.1188;3.8171;
-117.0000;0.1205;3.8145;
-116.7000;0.1229;3.8248;
-116.4000;0.1180;3.8145;
-116.1000;0.1205;3.8145;
-115.8000;0.1254;3.8248;
-115.5000;0.1205;3.8120;
-115.2000;0.1180;3.8094;
-114.9000;0.1172;3.8094;
-114.6000;0.1205;3.8120;
-114.3000;0.1213;3.8145;
-114.0000;0.1148;3.8017;
-113.7000;0.1188;3.8171;
-113.4000;0.1229;3.8273;
-113.1000;0.1180;3.8171;
-112.8000;0.1213;3.8325;
-112.5000;0.1188;3.8299;
-112.2000;0.1164;3.8222;
-111.9000;0.1148;3.8248;
-111.6000;0.1213;3.8453;
-111.3000;0.1229;3.8556;
-111.0000;0.1164;3.8350;
-110.7000;0.1213;3.8556;
-110.4000;0.1205;3.8504;
-110.1000;0.1156;3.8299;
-109.8000;0.1164;3.8427;
-109.5000;0.1197;3.8427;
-109.2000;0.1270;3.8581;
-108.9000;0.1213;3.8402;
-108.6000;0.1197;3.8299;
-108.3000;0.1213;3.8453;
-108.0000;0.1221;3.8479;
-107.7000;0.1172;3.8325;
-107.4000;0.1205;3.8350;
-107.1000;0.1180;3.8427;
-106.8000;0.1197;3.8453;
-106.5000;0.1213;3.8453;
-106.2000;0.1197;3.8427;
-105.9000;0.1205;3.8504;
-105.6000;0.1229;3.8556;
-105.3000;0.1205;3.8376;
-105.0000;0.1156;3.8197;
-104.7000;0.1205;3.8248;
-104.4000;0.1229;3.8325;
-104.1000;0.1156;3.8043;
-103.8000;0.1188;3.8197;
-103.5000;0.1188;3.8222;
-103.2000;0.1205;3.8248;
-102.9000;0.1172;3.8222;
-102.6000;0.1205;3.8376;
-102.3000;0.1180;3.8325;
-102.0000;0.1188;3.8376;
-101.7000;0.1197;3.8376;
-101.4000;0.1180;3.8376;
-101.1000;0.1164;3.8299;
-100.8000;0.1205;3.8402;
-100.5000;0.1270;3.8581;
-100.2000;0.1197;3.8325;
-99.9000;0.1197;3.8402;
-99.6000;0.1221;3.8556;
-99.3000;0.1213;3.8453;
-99.0000;0.1221;3.8427;
-98.7000;0.1302;3.8684;
-98.4000;0.1229;3.8479;
-98.1000;0.1148;3.8222;
-97.8000;0.1213;3.8376;
-97.5000;0.1254;3.8453;
-97.2000;0.1164;3.8350;
-96.9000;0.1188;3.8479;
-96.6000;0.1294;3.8761;
-96.3000;0.1188;3.8530;
-96.0000;0.1180;3.8453;
-95.7000;0.1197;3.8402;
-95.4000;0.1205;3.8504;
-95.1000;0.1188;3.8530;
-94.8000;0.1197;3.8556;
-94.5000;0.1197;3.8530;
-94.2000;0.1197;3.8530;
-93.9000;0.1197;3.8530;
-93.6000;0.1188;3.8479;
-93.3000;0.1205;3.8479;
-93.0000;0.1213;3.8453;
-92.7000;0.1245;3.8607;
-92.4000;0.1205;3.8504;
-92.1000;0.1205;3.8479;
-91.8000;0.1205;3.8530;
-91.5000;0.1213;3.8427;
-91.2000;0.1205;3.8479;
-90.9000;0.1188;3.8402;
-90.6000;0.1148;3.8376;
-90.3000;0.1188;3.8504;
-90.0000;0.1180;3.8427;
-89.7000;0.1213;3.8530;
-89.4000;0.1197;3.8530;
-89.1000;0.1205;3.8556;
-88.8000;0.1213;3.8633;
-88.5000;0.1213;3.8556;
-88.2000;0.1197;3.8402;
-87.9000;0.1213;3.8453;
-87.6000;0.1205;3.8427;
-87.3000;0.1205;3.8453;
-87.0000;0.1188;3.8402;
-86.7000;0.1172;3.8402;
-86.4000;0.1188;3.8453;
-86.1000;0.1188;3.8479;
-85.8000;0.1180;3.8402;
-85.5000;0.1205;3.8427;
-85.2000;0.1205;3.8427;
-84.9000;0.1213;3.8402;
-84.6000;0.1205;3.8427;
-84.3000;0.1188;3.8350;
-84.0000;0.1213;3.8402;
-83.7000;0.1197;3.8376;
-83.4000;0.1205;3.8453;
-83.1000;0.1205;3.8427;
-82.8000;0.1213;3.8453;
-82.5000;0.1180;3.8350;
-82.2000;0.1205;3.8376;
-81.9000;0.1205;3.8325;
-81.6000;0.1188;3.8299;
-81.3000;0.1221;3.8325;
-81.0000;0.1237;3.8376;
-80.7000;0.1205;3.8299;
-80.4000;0.1188;3.8248;
-80.1000;0.1188;3.8222;
-79.8000;0.1221;3.8273;
-79.5000;0.1205;3.8222;
-79.2000;0.1180;3.8171;
-78.9000;0.1205;3.8299;
-78.6000;0.1205;3.8325;
-78.3000;0.1205;3.8248;
-78.0000;0.1180;3.8145;
-77.7000;0.1213;3.8222;
-77.4000;0.1221;3.8350;
-77.1000;0.1205;3.8273;
-76.8000;0.1188;3.8171;
-76.5000;0.1188;3.8171;
-76.2000;0.1180;3.8171;
-75.9000;0.1091;3.7914;
-75.6000;0.1205;3.8222;
-75.3000;0.1205;3.8248;
-75.0000;0.1229;3.8350;
-74.7000;0.1221;3.8299;
-74.4000;0.1188;3.8171;
-74.1000;0.1213;3.8171;
-73.8000;0.1197;3.8222;
-73.5000;0.1237;3.8299;
-73.2000;0.1205;3.8299;
-72.9000;0.1262;3.8556;
-72.6000;0.1164;3.8273;
-72.3000;0.1205;3.8427;
-72.0000;0.1205;3.8402;
-71.7000;0.1188;3.8299;
-71.4000;0.1197;3.8376;
-71.1000;0.1197;3.8325;
-70.8000;0.1197;3.8453;
-70.5000;0.1205;3.8453;
-70.2000;0.1237;3.8633;
-69.9000;0.1180;3.8530;
-69.6000;0.1205;3.8556;
-69.3000;0.1213;3.8581;
-69.0000;0.1180;3.8402;
-68.7000;0.1262;3.8504;
-68.4000;0.1213;3.8222;
-68.1000;0.1197;3.8094;
-67.8000;0.1213;3.8043;
-67.5000;0.1205;3.7991;
-67.2000;0.1205;3.8094;
-66.9000;0.1205;3.8171;
-66.6000;0.1221;3.8248;
-66.3000;0.1213;3.8197;
-66.0000;0.1294;3.8479;
-65.7000;0.1197;3.8145;
-65.4000;0.1180;3.8094;
-65.1000;0.1197;3.8094;
-64.8000;0.1237;3.8171;
-64.5000;0.1197;3.7991;
-64.2000;0.1213;3.7991;
-63.9000;0.1197;3.7940;
-63.6000;0.1213;3.7914;
-63.3000;0.1205;3.7966;
-63.0000;0.1205;3.7966;
-62.7000;0.1221;3.8017;
-62.4000;0.1205;3.7940;
-62.1000;0.1197;3.8017;
-61.8000;0.1213;3.8094;
-61.5000;0.1156;3.8043;
-61.2000;0.1197;3.8171;
-60.9000;0.1188;3.8222;
-60.6000;0.1172;3.8273;
-60.3000;0.1180;3.8299;
-60.0000;0.1205;3.8402;
-59.7000;0.1205;3.8350;
-59.4000;0.1197;3.8273;
-59.1000;0.1188;3.8376;
-58.8000;0.1205;3.8402;
-58.5000;0.1205;3.8427;
-58.2000;0.1205;3.8530;
-57.9000;0.1205;3.8633;
-57.6000;0.1156;3.8453;
-57.3000;0.1197;3.8504;
-57.0000;0.1213;3.8504;
-56.7000;0.1172;3.8402;
-56.4000;0.1197;3.8479;
-56.1000;0.1172;3.8350;
-55.8000;0.1205;3.8479;
-55.5000;0.1205;3.8427;
-55.2000;0.1188;3.8402;
-54.9000;0.1197;3.8402;
-54.6000;0.1205;3.8427;
-54.3000;0.1197;3.8376;
-54.0000;0.1197;3.8402;
-53.7000;0.1197;3.8504;
-53.4000;0.1180;3.8479;
-53.1000;0.1205;3.8479;
-52.8000;0.1180;3.8376;
-52.5000;0.1180;3.8350;
-52.2000;0.1213;3.8504;
-51.9000;0.1262;3.8633;
-51.6000;0.1213;3.8479;
-51.3000;0.1205;3.8530;
-51.0000;0.1197;3.8530;
-50.7000;0.1083;3.8145;
-50.4000;0.1197;3.8556;
-50.1000;0.1213;3.8504;
-49.8000;0.1213;3.8504;
-49.5000;0.1197;3.8453;
-49.2000;0.1221;3.8427;
-48.9000;0.1188;3.8427;
-48.6000;0.1083;3.8248;
-48.3000;0.1188;3.8504;
-48.0000;0.1213;3.8530;
-47.7000;0.1205;3.8453;
-47.4000;0.1164;3.8427;
-47.1000;0.1188;3.8453;
-46.8000;0.1188;3.8427;
-46.5000;0.1197;3.8453;
-46.2000;0.1197;3.8581;
-45.9000;0.1188;3.8607;
-45.6000;0.1205;3.8633;
-45.3000;0.1197;3.8633;
-45.0000;0.1213;3.8684;
-44.7000;0.1180;3.8607;
-44.4000;0.1197;3.8633;
-44.1000;0.1180;3.8581;
-43.8000;0.1213;3.8633;
-43.5000;0.1188;3.8556;
-43.2000;0.1180;3.8479;
-42.9000;0.1188;3.8556;
-42.6000;0.1205;3.8530;
-42.3000;0.1205;3.8607;
-42.0000;0.1237;3.8787;
-41.7000;0.1197;3.8607;
-41.4000;0.1197;3.8530;
-41.1000;0.1221;3.8530;
-40.8000;0.1205;3.8402;
-40.5000;0.1180;3.8350;
-40.2000;0.1140;3.8299;
-39.9000;0.1205;3.8427;
-39.6000;0.1188;3.8427;
-39.3000;0.1205;3.8479;
-39.0000;0.1188;3.8427;
-38.7000;0.1197;3.8453;
-38.4000;0.1123;3.8273;
-38.1000;0.1237;3.8556;
-37.8000;0.1205;3.8479;
-37.5000;0.1229;3.8581;
-37.2000;0.1205;3.8479;
-36.9000;0.1197;3.8402;
-36.6000;0.1172;3.8299;
-36.3000;0.1213;3.8479;
-36.0000;0.1294;3.8710;
-35.7000;0.1197;3.8350;
-35.4000;0.1156;3.8222;
-35.1000;0.1213;3.8402;
-34.8000;0.1197;3.8402;
-34.5000;0.1213;3.8376;
-34.2000;0.1131;3.8171;
-33.9000;0.1205;3.8273;
-33.6000;0.1286;3.8479;
-33.3000;0.1188;3.8222;
-33.0000;0.1180;3.8197;
-32.7000;0.1205;3.8273;
-32.4000;0.1205;3.8299;
-32.1000;0.1197;3.8248;
-31.8000;0.1237;3.8402;
-31.5000;0.1205;3.8273;
-31.2000;0.1205;3.8299;
-30.9000;0.1229;3.8402;
-30.6000;0.1197;3.8273;
-30.3000;0.1180;3.8197;
-30.0000;0.1213;3.8273;
-29.7000;0.1205;3.8222;
-29.4000;0.1205;3.8222;
-29.1000;0.1188;3.8273;
-28.8000;0.1180;3.8325;
-28.5000;0.1197;3.8325;
-28.2000;0.1205;3.8299;
-27.9000;0.1172;3.8171;
-27.6000;0.1197;3.8222;
-27.3000;0.1197;3.8273;
-27.0000;0.1188;3.8248;
-26.7000;0.1205;3.8299;
-26.4000;0.1286;3.8581;
-26.1000;0.1221;3.8376;
-25.8000;0.1221;3.8376;
-25.5000;0.1197;3.8299;
-25.2000;0.1205;3.8273;
-24.9000;0.1229;3.8350;
-24.6000;0.1286;3.8504;
-24.3000;0.1213;3.8299;
-24.0000;0.1213;3.8222;
-23.7000;0.1164;3.8120;
-23.4000;0.1213;3.8299;
-23.1000;0.1115;3.8017;
-22.8000;0.1197;3.8222;
-22.5000;0.1205;3.8325;
-22.2000;0.1164;3.8197;
-21.9000;0.1197;3.8273;
-21.6000;0.1205;3.8376;
-21.3000;0.1188;3.8350;
-21.0000;0.1237;3.8427;
-20.7000;0.1221;3.8325;
-20.4000;0.1197;3.8299;
-20.1000;0.1205;3.8376;
-19.8000;0.1229;3.8402;
-19.5000;0.1213;3.8350;
-19.2000;0.1197;3.8325;
-18.9000;0.1197;3.8350;
-18.6000;0.1164;3.8325;
-18.3000;0.1254;3.8607;
-18.0000;0.1188;3.8556;
-17.7000;0.1262;3.8735;
-17.4000;0.1213;3.8581;
-17.1000;0.1197;3.8504;
-16.8000;0.1229;3.8607;
-16.5000;0.1197;3.8427;
-16.2000;0.1188;3.8376;
-15.9000;0.1229;3.8504;
-15.6000;0.1213;3.8402;
-15.3000;0.1197;3.8427;
-15.0000;0.1221;3.8453;
-14.7000;0.1205;3.8479;
-14.4000;0.1213;3.8453;
-14.1000;0.1188;3.8453;
-13.8000;0.1221;3.8453;
-13.5000;0.1123;3.8273;
-13.2000;0.1213;3.8504;
-12.9000;0.1205;3.8479;
-12.6000;0.1205;3.8453;
-12.3000;0.1180;3.8427;
-12.0000;0.1180;3.8479;
-11.7000;0.1197;3.8453;
-11.4000;0.1172;3.8402;
-11.1000;0.1197;3.8504;
-10.8000;0.1205;3.8581;
-10.5000;0.1205;3.8504;
-10.2000;0.1197;3.8402;
-9.9000;0.1254;3.8530;
-9.6000;0.1262;3.8530;
-9.3000;0.1245;3.8556;
-9.0000;0.1205;3.8479;
-8.7000;0.1188;3.8453;
-8.4000;0.1205;3.8453;
-8.1000;0.1213;3.8453;
-7.8000;0.1213;3.8427;
-7.5000;0.1221;3.8556;
-7.2000;0.1188;3.8504;
-6.9000;0.1172;3.8453;
-6.6000;0.1237;3.8581;
-6.3000;0.1205;3.8453;
-6.0000;0.1197;3.8376;
-5.7000;0.1205;3.8376;
-5.4000;0.1180;3.8376;
-5.1000;0.1213;3.8479;
-4.8000;0.1180;3.8402;
-4.5000;0.1180;3.8427;
-4.2000;0.1197;3.8556;
-3.9000;0.1156;3.8504;
-3.6000;0.1172;3.8479;
-3.3000;0.1164;3.8453;
-3.0000;0.1205;3.8402;
-2.7000;0.1205;3.8427;
-2.4000;0.1213;3.8453;
-2.1000;0.1188;3.8376;
-1.8000;0.1197;3.8453;
-1.5000;0.1156;3.8350;
-1.2000;0.1205;3.8376;
-0.9000;0.1343;3.8863;
-0.6000;0.1205;3.8581;
-0.3000;0.1270;3.8787;
0.0000;0.1270;3.8787;
0.3000;0.1180;3.8299;
0.6000;0.1245;3.8504;
0.9000;0.1278;3.8710;
1.2000;0.1294;3.8915;
1.5000;0.1327;3.9094;
1.8000;0.1294;3.9094;
2.1000;0.1368;3.9325;
2.4000;0.1359;3.9453;
2.7000;0.1384;3.9607;
3.0000;0.1392;3.9684;
3.3000;0.1392;3.9659;
3.6000;0.1384;3.9684;
3.9000;0.1400;3.9787;
4.2000;0.1400;3.9838;
4.5000;0.1408;3.9813;
4.8000;0.1441;3.9967;
5.1000;0.1449;3.9992;
5.4000;0.1481;4.0069;
5.7000;0.1408;3.9890;
6.0000;0.1416;3.9890;
6.3000;0.1498;4.0197;
6.6000;0.1425;3.9992;
6.9000;0.1498;4.0300;
7.2000;0.1433;4.0043;
7.5000;0.1416;4.0172;
7.8000;0.1449;4.0223;
8.1000;0.1433;4.0172;
8.4000;0.1425;4.0223;
8.7000;0.1425;4.0146;
9.0000;0.1433;4.0146;
9.3000;0.1400;4.0043;
9.6000;0.1416;4.0018;
9.9000;0.1408;4.0069;
10.2000;0.1408;4.0172;
10.5000;0.1433;4.0274;
10.8000;0.1425;4.0223;
11.1000;0.1425;4.0172;
11.4000;0.1433;4.0095;
11.7000;0.1416;4.0069;
12.0000;0.1433;4.0095;
12.3000;0.1433;4.0069;
12.6000;0.1441;4.0095;
12.9000;0.1441;4.0095;
13.2000;0.1392;3.9967;
13.5000;0.1425;3.9941;
13.8000;0.1433;3.9941;
14.1000;0.1433;3.9941;
14.4000;0.1441;3.9838;
14.7000;0.1441;3.9864;
15.0000;0.1449;3.9941;
15.3000;0.1449;4.0043;
15.6000;0.1441;4.0095;
15.9000;0.1425;4.0043;
16.2000;0.1376;3.9967;
16.5000;0.1473;4.0223;
16.8000;0.1449;4.0095;
17.1000;0.1425;3.9992;
17.4000;0.1384;3.9864;
17.7000;0.1473;4.0018;
18.0000;0.1457;3.9941;
18.3000;0.1441;4.0043;
18.6000;0.1392;3.9864;
18.9000;0.1433;4.0120;
19.2000;0.1465;4.0223;
19.5000;0.1441;4.0172;
19.8000;0.1449;4.0223;
20.1000;0.1441;4.0146;
20.4000;0.1481;4.0223;
20.7000;0.1457;4.0223;
21.0000;0.1449;4.0120;
21.3000;0.1465;4.0095;
21.6000;0.1408;3.9967;
21.9000;0.1457;4.0043;
22.2000;0.1457;3.9915;
22.5000;0.1490;3.9992;
22.8000;0.1457;3.9941;
23.1000;0.1465;4.0069;
23.4000;0.1457;4.0197;
23.7000;0.1449;4.0172;
24.0000;0.1481;4.0274;
24.3000;0.1473;4.0249;
24.6000;0.1465;4.0120;
24.9000;0.1457;4.0069;
25.2000;0.1481;4.0043;
25.5000;0.1481;3.9967;
25.8000;0.1481;3.9992;
26.1000;0.1449;3.9941;
26.4000;0.1473;4.0018;
26.7000;0.1465;4.0043;
27.0000;0.1481;4.0018;
27.3000;0.1473;3.9992;
27.6000;0.1473;3.9915;
27.9000;0.1490;3.9890;
28.2000;0.1473;3.9864;
28.5000;0.1465;3.9915;
28.8000;0.1473;3.9890;
29.1000;0.1457;3.9890;
29.4000;0.1481;3.9890;
29.7000;0.1473;3.9787;
30.0000;0.1481;3.9864;
30.3000;0.1465;3.9864;
30.6000;0.1473;3.9915;
30.9000;0.1481;3.9864;
31.2000;0.1408;3.9607;
31.5000;0.1457;3.9710;
31.8000;0.1441;3.9659;
32.1000;0.1465;3.9864;
32.4000;0.1481;3.9890;
32.7000;0.1538;4.0018;
33.0000;0.1498;3.9992;
33.3000;0.1490;3.9992;
33.6000;0.1490;3.9967;
33.9000;0.1441;3.9787;
34.2000;0.1506;4.0043;
34.5000;0.1481;4.0069;
34.8000;0.1481;4.0043;
35.1000;0.1481;4.0120;
35.4000;0.1481;4.0069;
35.7000;0.1481;4.0095;
36.0000;0.1490;4.0069;
36.3000;0.1506;3.9992;
36.6000;0.1441;3.9838;
36.9000;0.1481;3.9992;
37.2000;0.1473;3.9992;
37.5000;0.1498;3.9967;
37.8000;0.1465;3.9915;
38.1000;0.1538;4.0095;
38.4000;0.1481;4.0018;
38.7000;0.1473;3.9890;
39.0000;0.1481;3.9941;
39.3000;0.1449;3.9838;
39.6000;0.1490;3.9992;
39.9000;0.1490;3.9890;
40.2000;0.1563;4.0120;
40.5000;0.1498;3.9992;
40.8000;0.1473;3.9992;
41.1000;0.1473;3.9967;
41.4000;0.1498;4.0018;
41.7000;0.1506;4.0095;
42.0000;0.1481;4.0095;
42.3000;0.1449;3.9992;
42.6000;0.1481;4.0043;
42.9000;0.1522;4.0146;
43.2000;0.1514;4.0069;
43.5000;0.1506;4.0120;
43.8000;0.1457;3.9915;
44.1000;0.1555;4.0223;
44.4000;0.1538;4.0172;
44.7000;0.1490;3.9992;
45.0000;0.1514;4.0043;
45.3000;0.1481;3.9967;
45.6000;0.1465;3.9915;
45.9000;0.1514;4.0043;
46.2000;0.1481;3.9915;
46.5000;0.1473;3.9813;
46.8000;0.1449;3.9813;
47.1000;0.1498;3.9864;
47.4000;0.1506;3.9915;
47.7000;0.1514;3.9992;
48.0000;0.1522;4.0018;
48.3000;0.1498;4.0018;
48.6000;0.1506;3.9967;
48.9000;0.1465;3.9838;
49.2000;0.1555;4.0043;
49.5000;0.1498;3.9915;
49.8000;0.1490;3.9864;
50.1000;0.1522;3.9941;
50.4000;0.1498;3.9915;
50.7000;0.1490;3.9890;
51.0000;0.1449;3.9787;
51.3000;0.1506;3.9813;
51.6000;0.1498;3.9736;
51.9000;0.1481;3.9787;
52.2000;0.1506;3.9890;
52.5000;0.1538;3.9915;
52.8000;0.1490;3.9787;
53.1000;0.1490;3.9761;
53.4000;0.1498;3.9761;
53.7000;0.1514;3.9813;
54.0000;0.1506;3.9736;
54.3000;0.1498;3.9736;
54.6000;0.1506;3.9813;
54.9000;0.1506;3.9838;
55.2000;0.1506;3.9838;
55.5000;0.1490;3.9813;
55.8000;0.1514;3.9992;
56.1000;0.1498;4.0018;
56.4000;0.1547;4.0069;
56.7000;0.1498;3.9864;
57.0000;0.1498;3.9813;
57.3000;0.1522;3.9813;
57.6000;0.1481;3.9787;
57.9000;0.1490;3.9890;
58.2000;0.1498;3.9941;
58.5000;0.1595;4.0172;
58.8000;0.1506;3.9992;
59.1000;0.1473;3.9838;
59.4000;0.1522;3.9890;
59.7000;0.1522;3.9941;
60.0000;0.1522;4.0043;
60.3000;0.1498;3.9915;
60.6000;0.1490;3.9890;
60.9000;0.1498;3.9915;
61.2000;0.1538;4.0043;
61.5000;0.1522;3.9992;
61.8000;0.1514;3.9967;
62.1000;0.1506;3.9838;
62.4000;0.1498;3.9838;
62.7000;0.1514;3.9941;
63.0000;0.1457;3.9864;
63.3000;0.1506;4.0018;
63.6000;0.1506;4.0095;
63.9000;0.1506;4.0095;
64.2000;0.1530;4.0120;
64.5000;0.1522;4.0018;
64.8000;0.1522;4.0069;
65.1000;0.1514;4.0043;
65.4000;0.1522;4.0018;
65.7000;0.1514;4.0043;
66.0000;0.1628;4.0300;
66.3000;0.1522;4.0069;
66.6000;0.1522;4.0095;
66.9000;0.1555;4.0172;
67.2000;0.1506;4.0069;
67.5000;0.1522;4.0095;
67.8000;0.1490;3.9992;
68.1000;0.1530;4.0146;
68.4000;0.1514;4.0146;
68.7000;0.1522;4.0172;
69.0000;0.1530;4.0146;
69.3000;0.1514;4.0043;
69.6000;0.1514;4.0069;
69.9000;0.1449;3.9915;
70.2000;0.1530;4.0172;
70.5000;0.1506;4.0069;
70.8000;0.1498;4.0043;
71.1000;0.1498;3.9941;
71.4000;0.1547;4.0120;
71.7000;0.1522;4.0018;
72.0000;0.1514;4.0043;
72.3000;0.1498;3.9992;
72.6000;0.1490;4.0018;
72.9000;0.1506;4.0018;
73.2000;0.1595;4.0326;
73.5000;0.1530;4.0043;
73.8000;0.1522;3.9992;
74.1000;0.1530;4.0043;
74.4000;0.1449;3.9838;
74.7000;0.1514;3.9941;
75.0000;0.1473;3.9838;
75.3000;0.1498;3.9864;
75.6000;0.1522;3.9992;
75.9000;0.1538;3.9967;
76.2000;0.1538;3.9915;
76.5000;0.1522;3.9967;
76.8000;0.1530;3.9941;
77.1000;0.1514;3.9890;
77.4000;0.1490;3.9890;
77.7000;0.1498;3.9864;
78.0000;0.1506;3.9864;
78.3000;0.1514;3.9864;
78.6000;0.1514;3.9864;
78.9000;0.1506;3.9967;
79.2000;0.1522;4.0018;
79.5000;0.1514;3.9992;
79.8000;0.1530;3.9967;
80.1000;0.1498;3.9915;
80.4000;0.1506;3.9967;
80.7000;0.1490;3.9915;
81.0000;0.1530;3.9941;
81.3000;0.1506;3.9890;
81.6000;0.1522;3.9941;
81.9000;0.1522;3.9967;
82.2000;0.1514;3.9787;
82.5000;0.1473;3.9633;
82.8000;0.1530;3.9710;
83.1000;0.1514;3.9710;
83.4000;0.1498;3.9659;
83.7000;0.1465;3.9582;
84.0000;0.1465;3.9710;
84.3000;0.1514;3.9864;
84.6000;0.1522;3.9864;
84.9000;0.1490;3.9787;
85.2000;0.1555;3.9941;
85.5000;0.1514;3.9890;
85.8000;0.1514;3.9967;
86.1000;0.1555;3.9967;
86.4000;0.1538;3.9864;
86.7000;0.1522;3.9787;
87.0000;0.1563;4.0018;
87.3000;0.1555;3.9838;
87.6000;0.1514;3.9761;
87.9000;0.1522;3.9838;
88.2000;0.1530;3.9838;
88.5000;0.1514;3.9838;
88.8000;0.1514;3.9813;
89.1000;0.1522;3.9813;
89.4000;0.1490;3.9684;
89.7000;0.1530;3.9864;
90.0000;0.1538;3.9915;
90.3000;0.1498;3.9864;
90.6000;0.1449;3.9761;
90.9000;0.1514;3.9941;
91.2000;0.1498;3.9915;
91.5000;0.1408;3.9633;
91.8000;0.1522;3.9992;
92.1000;0.1522;4.0043;
92.4000;0.1538;3.9992;
92.7000;0.1522;3.9941;
93.0000;0.1522;3.9992;
93.3000;0.1506;3.9941;
93.6000;0.1522;4.0095;
93.9000;0.1522;4.0146;
94.2000;0.1498;3.9992;
94.5000;0.1522;3.9992;
94.8000;0.1530;3.9992;
95.1000;0.1547;4.0095;
95.4000;0.1522;3.9967;
95.7000;0.1506;3.9941;
96.0000;0.1522;3.9890;
96.3000;0.1571;4.0018;
96.6000;0.1522;3.9813;
96.9000;0.1547;3.9915;
97.2000;0.1612;4.0223;
97.5000;0.1522;3.9915;
97.8000;0.1530;3.9992;
98.1000;0.1522;4.0069;
98.4000;0.1530;4.0120;
98.7000;0.1538;4.0043;
99.0000;0.1514;3.9941;
99.3000;0.1538;3.9967;
99.6000;0.1538;4.0018;
99.9000;0.1522;3.9915;
100.2000;0.1522;3.9941;
100.5000;0.1498;3.9864;
100.8000;0.1522;3.9915;
101.1000;0.1506;3.9915;
101.4000;0.1522;3.9967;
101.7000;0.1506;3.9941;
102.0000;0.1522;3.9915;
102.3000;0.1538;4.0043;
102.6000;0.1530;4.0069;
102.9000;0.1514;3.9967;
103.2000;0.1555;4.0069;
103.5000;0.1530;3.9941;
103.8000;0.1530;3.9838;
104.1000;0.1563;3.9864;
104.4000;0.1604;4.0069;
104.7000;0.1522;3.9838;
105.0000;0.1481;3.9684;
105.3000;0.1571;4.0069;
105.6000;0.1514;3.9967;
105.9000;0.1538;4.0018;
106.2000;0.1522;3.9941;
106.5000;0.1449;3.9684;
106.8000;0.1514;3.9813;
107.1000;0.1506;3.9736;
107.4000;0.1522;3.9736;
107.7000;0.1612;4.0018;
108.0000;0.1555;3.9967;
108.3000;0.1522;3.9838;
108.6000;0.1514;3.9864;
108.9000;0.1538;3.9864;
109.2000;0.1538;3.9838;
109.5000;0.1514;3.9787;
109.8000;0.1538;3.9864;
110.1000;0.1538;3.9941;
110.4000;0.1547;4.0018;
110.7000;0.1514;3.9992;
111.0000;0.1538;4.0120;
111.3000;0.1547;4.0249;
111.6000;0.1538;4.0146;
111.9000;0.1498;4.0043;
112.2000;0.1514;4.0095;
112.5000;0.1506;4.0043;
112.8000;0.1538;4.0069;
113.1000;0.1538;4.0018;
113.4000;0.1498;3.9838;
113.7000;0.1530;3.9890;
114.0000;0.1538;3.9915;
114.3000;0.1522;3.9890;
114.6000;0.1612;4.0146;
114.9000;0.1530;3.9890;
115.2000;0.1669;4.0351;
115.5000;0.1441;3.9736;
115.8000;0.1522;4.0043;
116.1000;0.1530;4.0069;
116.4000;0.1481;3.9941;
116.7000;0.1547;4.0197;
117.0000;0.1555;4.0172;
117.3000;0.1506;3.9992;
117.6000;0.1538;4.0043;
117.9000;0.1530;4.0069;
118.2000;0.1538;4.0095;
118.5000;0.1547;4.0095;
118.8000;0.1530;4.0120;
119.1000;0.1547;4.0146;
119.4000;0.1571;4.0172;
119.7000;0.1522;4.0095;
120.0000;0.1530;4.0043;
120.3000;0.1563;4.0120;
120.6000;0.1555;4.0120;
120.9000;0.1522;4.0095;
121.2000;0.1579;4.0249;
121.5000;0.1514;4.0095;
121.8000;0.1530;4.0223;
122.1000;0.1514;4.0095;
122.4000;0.1547;4.0197;
122.7000;0.1538;4.0172;
123.0000;0.1555;4.0120;
123.3000;0.1481;3.9915;
123.6000;0.1547;4.0120;
123.9000;0.1490;3.9941;
124.2000;0.1530;3.9967;
124.5000;0.1530;4.0018;
124.8000;0.1538;4.0043;
125.1000;0.1522;3.9915;
125.4000;0.1530;3.9864;
125.7000;0.1538;3.9838;
126.0000;0.1514;3.9838;
126.3000;0.1514;3.9915;
126.6000;0.1514;3.9890;
126.9000;0.1547;3.9967;
127.2000;0.1522;3.9890;
127.5000;0.1530;3.9890;
127.8000;0.1587;4.0043;
128.1000;0.1522;3.9915;
128.4000;0.1441;3.9684;
128.7000;0.1612;4.0120;
129.0000;0.1555;3.9941;
129.3000;0.1522;3.9864;
129.6000;0.1514;3.9787;
129.9000;0.1555;3.9915;
130.2000;0.1530;3.9838;
130.5000;0.1579;4.0018;
130.8000;0.1612;3.9992;
131.1000;0.1538;3.9761;
131.4000;0.1506;3.9710;
131.7000;0.1514;3.9710;
132.0000;0.1538;3.9761;
132.3000;0.1555;3.9838;
132.6000;0.1498;3.9813;
132.9000;0.1522;3.9915;
133.2000;0.1563;3.9992;
133.5000;0.1538;3.9967;
133.8000;0.1530;3.9890;
134.1000;0.1563;4.0069;
134.4000;0.1538;3.9992;
134.7000;0.1538;4.0018;
135.0000;0.1506;3.9915;
135.3000;0.1506;3.9967;
135.6000;0.1522;3.9992;
135.9000;0.1530;4.0018;
136.2000;0.1538;3.9967;
136.5000;0.1514;3.9992;
136.8000;0.1530;4.0069;
137.1000;0.1530;4.0069;
137.4000;0.1514;3.9992;
137.7000;0.1538;4.0043;
138.0000;0.1555;4.0120;
138.3000;0.1538;4.0069;
138.6000;0.1538;4.0095;
138.9000;0.1547;4.0120;
139.2000;0.1563;4.0197;
139.5000;0.1538;4.0146;
139.8000;0.1547;4.0146;
140.1000;0.1522;3.9992;
140.4000;0.1514;3.9967;
140.7000;0.1522;3.9941;
141.0000;0.1514;4.0018;
141.3000;0.1538;4.0120;
141.6000;0.1530;4.0146;
141.9000;0.1498;4.0120;
142.2000;0.1498;4.0018;
142.5000;0.1522;4.0018;
142.8000;0.1514;4.0043;
143.1000;0.1538;4.0095;
143.4000;0.1522;4.0018;
143.7000;0.1547;4.0018;
144.0000;0.1522;4.0043;
144.3000;0.1538;4.0095;
144.6000;0.1522;4.0120;
144.9000;0.1538;4.0120;
145.2000;0.1481;3.9967;
145.5000;0.1522;4.0069;
145.8000;0.1514;4.0069;
146.1000;0.1522;4.0120;
146.4000;0.1530;4.0120;
146.7000;0.1530;4.0095;
147.0000;0.1481;3.9967;
147.3000;0.1490;3.9992;
147.6000;0.1538;4.0146;
147.9000;0.1530;4.0095;
148.2000;0.1538;4.0146;
148.5000;0.1530;4.0043;
148.8000;0.1538;4.0146;
149.1000;0.1522;4.0146;
149.4000;0.1498;4.0120;
149.7000;0.1538;4.0223;
150.0000;0.1498;4.0146;
150.3000;0.1514;4.0197;
150.6000;0.1514;4.0197;
150.9000;0.1514;4.0146;
151.2000;0.1490;4.0018;
151.5000;0.1449;3.9941;
151.8000;0.1530;4.0120;
152.1000;0.1563;4.0120;
152.4000;0.1522;4.0069;
152.7000;0.1368;3.9684;
153.0000;0.1530;4.0069;
153.3000;0.1604;4.0274;
153.6000;0.1514;3.9941;
153.9000;0.1490;3.9787;
154.2000;0.1538;3.9992;
154.5000;0.1587;4.0069;
154.8000;0.1538;3.9813;
155.1000;0.1522;3.9761;
155.4000;0.1530;3.9761;
155.7000;0.1538;3.9890;
156.0000;0.1522;3.9992;
156.3000;0.1490;3.9992;
156.6000;0.1547;4.0043;
156.9000;0.1465;3.9915;
157.2000;0.1538;4.0069;
157.5000;0.1530;4.0018;
157.8000;0.1547;4.0095;
158.1000;0.1498;4.0095;
158.4000;0.1522;4.0043;
158.7000;0.1506;4.0095;
159.0000;0.1522;4.0095;
159.3000;0.1514;4.0095;
159.6000;0.1514;4.0146;
159.9000;0.1530;4.0146;
160.2000;0.1530;4.0095;
160.5000;0.1514;4.0043;
160.8000;0.1490;3.9890;
161.1000;0.1595;4.0249;
161.4000;0.1514;4.0018;
161.7000;0.1514;3.9992;
162.0000;0.1506;3.9967;
162.3000;0.1522;4.0043;
162.6000;0.1538;4.0018;
162.9000;0.1538;4.0069;
163.2000;0.1498;4.0043;
163.5000;0.1514;4.0095;
163.8000;0.1514;4.0172;
164.1000;0.1530;4.0197;
164.4000;0.1538;4.0249;
164.7000;0.1522;4.0197;
165.0000;0.1530;4.0274;
165.3000;0.1490;4.0197;
165.6000;0.1530;4.0249;
165.9000;0.1530;4.0274;
166.2000;0.1490;4.0197;
166.5000;0.1514;4.0351;
166.8000;0.1595;4.0557;
167.1000;0.1522;4.0326;
167.4000;0.1530;4.0300;
167.7000;0.1514;4.0249;
168.0000;0.1530;4.0326;
168.3000;0.1522;4.0274;
168.6000;0.1514;4.0223;
168.9000;0.1506;4.0043;
169.2000;0.1408;3.9761;
169.5000;0.1547;4.0120;
169.8000;0.1538;4.0018;
170.1000;0.1514;3.9992;
170.4000;0.1506;4.0043;
170.7000;0.1514;4.0043;
171.0000;0.1538;4.0069;
171.3000;0.1490;3.9941;
171.6000;0.1530;4.0018;
171.9000;0.1498;3.9864;
172.2000;0.1563;4.0069;
172.5000;0.1514;3.9967;
172.8000;0.1652;4.0351;
173.1000;0.1538;3.9992;
173.4000;0.1522;3.9941;
173.7000;0.1604;4.0043;
174.0000;0.1530;3.9864;
174.3000;0.1449;3.9607;
174.6000;0.1530;3.9838;
174.9000;0.1530;3.9838;
175.2000;0.1522;3.9787;
175.5000;0.1530;3.9864;
175.8000;0.1538;3.9941;
176.1000;0.1547;4.0043;
176.4000;0.1530;3.9890;
176.7000;0.1530;3.9941;
177.0000;0.1538;3.9941;
177.3000;0.1530;3.9992;
177.6000;0.1498;3.9787;
177.9000;0.1522;3.9787;
178.2000;0.1514;3.9838;
178.5000;0.1514;3.9915;
178.8000;0.1538;3.9941;
179.1000;0.1522;3.9915;
179.4000;0.1547;3.9967;
179.7000;0.1547;3.9915;
180.0000;0.1514;3.9838;
180.3000;0.1538;3.9890;
180.6000;0.1530;3.9864;
180.9000;0.1522;3.9787;
181.2000;0.1514;3.9761;
181.5000;0.1514;3.9761;
181.8000;0.1538;3.9787;
182.1000;0.1530;3.9864;
182.4000;0.1530;3.9813;
182.7000;0.1530;3.9761;
183.0000;0.1522;3.9787;
183.3000;0.1514;3.9761;
183.6000;0.1538;3.9864;
183.9000;0.1530;3.9761;
184.2000;0.1514;3.9787;
184.5000;0.1530;3.9838;
184.8000;0.1530;3.9890;
185.1000;0.1514;3.9736;
185.4000;0.1514;3.9736;
185.7000;0.1547;3.9864;
186.0000;0.1538;3.9941;
186.3000;0.1506;3.9761;
186.6000;0.1514;3.9710;
186.9000;0.1563;3.9890;
187.2000;0.1522;3.9761;
187.5000;0.1465;3.9582;
187.8000;0.1522;3.9684;
188.1000;0.1530;3.9787;
188.4000;0.1481;3.9736;
188.7000;0.1522;3.9813;
189.0000;0.1522;3.9761;
189.3000;0.1481;3.9659;
189.6000;0.1522;3.9684;
189.9000;0.1530;3.9736;
190.2000;0.1481;3.9530;
190.5000;0.1514;3.9607;
190.8000;0.1522;3.9684;
191.1000;0.1547;3.9710;
191.4000;0.1530;3.9684;
191.7000;0.1538;3.9633;
192.0000;0.1481;3.9402;
192.3000;0.1547;3.9633;
192.6000;0.1514;3.9505;
192.9000;0.1563;3.9659;
193.2000;0.1555;3.9607;
193.5000;0.1530;3.9556;
193.8000;0.1530;3.9607;
194.1000;0.1530;3.9556;
194.4000;0.1506;3.9453;
194.7000;0.1530;3.9505;
195.0000;0.1490;3.9428;
195.3000;0.1538;3.9582;
195.6000;0.1522;3.9607;
195.9000;0.1538;3.9736;
196.2000;0.1571;3.9890;
196.5000;0.1522;3.9787;
196.8000;0.1530;3.9813;
197.1000;0.1547;3.9813;
197.4000;0.1547;3.9838;
197.7000;0.1538;3.9787;
198.0000;0.1359;3.9351;
198.3000;0.1530;3.9838;
198.6000;0.1514;3.9813;
198.9000;0.1538;3.9890;
199.2000;0.1522;3.9890;
199.5000;0.1441;3.9607;
199.8000;0.1490;3.9761;
200.1000;0.1514;3.9890;
200.4000;0.1530;3.9813;
200.7000;0.1522;3.9787;
201.0000;0.1547;3.9838;
201.3000;0.1563;3.9941;
201.6000;0.1555;3.9992;
201.9000;0.1579;4.0095;
202.2000;0.1506;3.9992;
202.5000;0.1538;4.0095;
202.8000;0.1547;4.0095;
203.1000;0.1538;4.0018;
203.4000;0.1530;4.0018;
203.7000;0.1522;3.9890;
204.0000;0.1538;3.9838;
204.3000;0.1538;3.9864;
204.6000;0.1538;3.9864;
204.9000;0.1481;3.9710;
205.2000;0.1490;3.9813;
205.5000;0.1473;3.9736;
205.8000;0.1530;3.9838;
206.1000;0.1636;4.0120;
206.4000;0.1595;3.9967;
206.7000;0.1522;3.9710;
207.0000;0.1522;3.9633;
207.3000;0.1498;3.9607;
207.6000;0.1538;3.9736;
207.9000;0.1514;3.9736;
208.2000;0.1514;3.9761;
208.5000;0.1514;3.9838;
208.8000;0.1522;3.9838;
209.1000;0.1465;3.9556;
209.4000;0.1514;3.9813;
209.7000;0.1522;3.9813;
210.0000;0.1522;3.9761;
210.3000;0.1506;3.9736;
210.6000;0.1522;3.9787;
210.9000;0.1498;3.9684;
211.2000;0.1612;3.9967;
211.5000;0.1538;3.9813;
211.8000;0.1620;3.9992;
212.1000;0.1538;3.9659;
212.4000;0.1498;3.9607;
212.7000;0.1481;3.9633;
213.0000;0.1522;3.9582;
213.3000;0.1538;3.9607;
213.6000;0.1522;3.9633;
213.9000;0.1555;3.9710;
214.2000;0.1563;3.9838;
214.5000;0.1538;3.9813;
214.8000;0.1530;3.9838;
215.1000;0.1522;3.9761;
215.4000;0.1547;3.9736;
215.7000;0.1538;3.9710;
216.0000;0.1547;3.9761;
216.3000;0.1465;3.9505;
216.6000;0.1530;3.9736;
216.9000;0.1514;3.9633;
217.2000;0.1522;3.9633;
217.5000;0.1530;3.9684;
217.8000;0.1522;3.9633;
218.1000;0.1522;3.9684;
218.4000;0.1522;3.9633;
218.7000;0.1538;3.9659;
219.0000;0.1538;3.9633;
219.3000;0.1530;3.9556;
219.6000;0.1530;3.9582;
219.9000;0.1498;3.9453;
220.2000;0.1400;3.9248;
220.5000;0.1522;3.9556;
220.8000;0.1506;3.9530;
221.1000;0.1530;3.9659;
221.4000;0.1555;3.9736;
221.7000;0.1514;3.9582;
222.0000;0.1530;3.9607;
222.3000;0.1555;3.9710;
222.6000;0.1522;3.9659;
222.9000;0.1538;3.9761;
223.2000;0.1538;3.9787;
223.5000;0.1530;3.9736;
223.8000;0.1530;3.9710;
224.1000;0.1579;3.9736;
224.4000;0.1547;3.9684;
224.7000;0.1547;3.9659;
225.0000;0.1555;3.9659;
225.3000;0.1514;3.9659;
225.6000;0.1538;3.9736;
225.9000;0.1555;3.9684;
226.2000;0.1538;3.9607;
226.5000;0.1514;3.9582;
226.8000;0.1538;3.9607;
227.1000;0.1538;3.9582;
227.4000;0.1563;3.9582;
227.7000;0.1514;3.9402;
228.0000;0.1506;3.9325;
228.3000;0.1530;3.9325;
228.6000;0.1538;3.9300;
228.9000;0.1555;3.9402;
229.2000;0.1514;3.9274;
229.5000;0.1538;3.9377;
229.8000;0.1514;3.9351;
230.1000;0.1538;3.9479;
230.4000;0.1522;3.9377;
230.7000;0.1514;3.9325;
231.0000;0.1530;3.9402;
231.3000;0.1530;3.9453;
231.6000;0.1530;3.9453;
231.9000;0.1481;3.9300;
232.2000;0.1506;3.9300;
232.5000;0.1522;3.9351;
232.8000;0.1547;3.9428;
233.1000;0.1530;3.9377;
233.4000;0.1530;3.9505;
233.7000;0.1571;3.9479;
234.0000;0.1563;3.9556;
234.3000;0.1522;3.9453;
234.6000;0.1538;3.9582;
234.9000;0.1514;3.9453;
235.2000;0.1530;3.9479;
235.5000;0.1530;3.9325;
235.8000;0.1522;3.9300;
236.1000;0.1530;3.9351;
236.4000;0.1506;3.9351;
236.7000;0.1522;3.9402;
237.0000;0.1522;3.9453;
237.3000;0.1506;3.9428;
237.6000;0.1538;3.9556;
237.9000;0.1571;3.9659;
238.2000;0.1547;3.9633;
238.5000;0.1530;3.9607;
238.8000;0.1555;3.9659;
239.1000;0.1530;3.9556;
239.4000;0.1538;3.9505;
239.7000;0.1530;3.9530;
240.0000;0.1522;3.9530;
240.3000;0.1538;3.9582;
240.6000;0.1530;3.9530;
240.9000;0.1498;3.9428;
241.2000;0.1538;3.9479;
241.5000;0.1538;3.9479;
241.8000;0.1522;3.9402;
242.1000;0.1555;3.9479;
242.4000;0.1514;3.9377;
242.7000;0.1514;3.9402;
243.0000;0.1530;3.9428;
243.3000;0.1547;3.9556;
243.6000;0.1547;3.9633;
243.9000;0.1538;3.9659;
244.2000;0.1530;3.9607;
244.5000;0.1449;3.9402;
244.8000;0.1547;3.9761;
245.1000;0.1522;3.9659;
245.4000;0.1604;3.9941;
245.7000;0.1538;3.9710;
246.0000;0.1514;3.9633;
246.3000;0.1547;3.9736;
246.6000;0.1587;3.9761;
246.9000;0.1538;3.9684;
247.2000;0.1538;3.9659;
247.5000;0.1555;3.9736;
247.8000;0.1514;3.9607;
248.1000;0.1563;3.9813;
248.4000;0.1555;3.9710;
248.7000;0.1538;3.9710;
249.0000;0.1547;3.9736;
249.3000;0.1538;3.9633;
249.6000;0.1538;3.9736;
249.9000;0.1555;3.9838;
250.2000;0.1538;3.9864;
250.5000;0.1514;3.9761;
250.8000;0.1498;3.9736;
251.1000;0.1514;3.9813;
251.4000;0.1457;3.9582;
251.7000;0.1538;3.9761;
252.0000;0.1538;3.9761;
252.3000;0.1587;3.9787;
252.6000;0.1547;3.9659;
252.9000;0.1538;3.9556;
253.2000;0.1530;3.9582;
253.5000;0.1522;3.9633;
253.8000;0.1522;3.9684;
254.1000;0.1530;3.9659;
254.4000;0.1506;3.9633;
254.7000;0.1547;3.9710;
255.0000;0.1522;3.9659;
255.3000;0.1538;3.9787;
255.6000;0.1530;3.9813;
255.9000;0.1522;3.9864;
256.2000;0.1538;3.9941;
256.5000;0.1530;3.9890;
256.8000;0.1506;3.9838;
257.1000;0.1522;3.9864;
257.4000;0.1538;3.9890;
257.7000;0.1547;3.9890;
258.0000;0.1514;3.9864;
258.3000;0.1522;3.9838;
258.6000;0.1522;3.9787;
258.9000;0.1514;3.9736;
259.2000;0.1538;3.9684;
259.5000;0.1530;3.9736;
259.8000;0.1538;3.9864;
260.1000;0.1547;3.9838;
260.4000;0.1555;3.9813;
260.7000;0.1538;3.9813;
261.0000;0.1530;3.9838;
261.3000;0.1555;3.9864;
261.6000;0.1522;3.9864;
261.9000;0.1538;3.9915;
262.2000;0.1522;3.9915;
262.5000;0.1506;3.9915;
262.8000;0.1547;3.9941;
263.1000;0.1506;3.9736;
263.4000;0.1547;3.9838;
263.7000;0.1514;3.9710;
264.0000;0.1538;3.9787;
264.3000;0.1481;3.9684;
264.6000;0.1530;3.9838;
264.9000;0.1506;3.9787;
265.2000;0.1514;3.9761;
265.5000;0.1530;3.9761;
265.8000;0.1530;3.9684;
266.1000;0.1571;3.9813;
266.4000;0.1498;3.9684;
266.7000;0.1563;3.9761;
267.0000;0.1530;3.9659;
267.3000;0.1514;3.9659;
267.6000;0.1522;3.9710;
267.9000;0.1506;3.9710;
268.2000;0.1441;3.9402;
268.5000;0.1530;3.9761;
268.8000;0.1522;3.9607;
269.1000;0.1506;3.9607;
269.4000;0.1530;3.9736;
269.7000;0.1595;3.9890;
270.0000;0.1579;3.9864;
270.3000;0.1538;3.9710;
270.6000;0.1547;3.9659;
270.9000;0.1555;3.9761;
271.2000;0.1547;3.9761;
271.5000;0.1555;3.9761;
271.8000;0.1538;3.9736;
272.1000;0.1538;3.9761;
272.4000;0.1604;3.9941;
272.7000;0.1514;3.9787;
273.0000;0.1538;3.9838;
273.3000;0.1522;3.9761;
273.6000;0.1506;3.9838;
273.9000;0.1514;3.9813;
274.2000;0.1538;3.9915;
274.5000;0.1514;3.9787;
274.8000;0.1555;3.9838;
275.1000;0.1530;3.9736;
275.4000;0.1514;3.9736;
275.7000;0.1538;3.9684;
276.0000;0.1547;3.9736;
276.3000;0.1563;3.9710;
276.6000;0.1547;3.9633;
276.9000;0.1498;3.9556;
277.2000;0.1530;3.9659;
277.5000;0.1514;3.9684;
277.8000;0.1522;3.9607;
278.1000;0.1490;3.9479;
278.4000;0.1514;3.9607;
278.7000;0.1514;3.9530;
279.0000;0.1514;3.9479;
279.3000;0.1465;3.9325;
279.6000;0.1530;3.9479;
279.9000;0.1530;3.9428;
280.2000;0.1547;3.9453;
280.5000;0.1490;3.9351;
280.8000;0.1514;3.9453;
281.1000;0.1522;3.9607;
281.4000;0.1522;3.9710;
281.7000;0.1522;3.9787;
282.0000;0.1433;3.9453;
282.3000;0.1522;3.9787;
282.6000;0.1506;3.9710;
282.9000;0.1514;3.9684;
283.2000;0.1522;3.9710;
283.5000;0.1506;3.9659;
283.8000;0.1538;3.9659;
284.1000;0.1514;3.9710;
284.4000;0.1465;3.9479;
284.7000;0.1522;3.9736;
285.0000;0.1530;3.9787;
285.3000;0.1498;3.9659;
285.6000;0.1530;3.9736;
285.9000;0.1498;3.9633;
286.2000;0.1628;3.9941;
286.5000;0.1514;3.9710;
286.8000;0.1514;3.9761;
287.1000;0.1522;3.9864;
287.4000;0.1547;3.9915;
287.7000;0.1530;3.9915;
288.0000;0.1522;3.9761;
288.3000;0.1522;3.9659;
288.6000;0.1530;3.9761;
288.9000;0.1498;3.9607;
289.2000;0.1506;3.9684;
289.5000;0.1514;3.9710;
289.8000;0.1433;3.9428;
290.1000;0.1522;3.9710;
290.4000;0.1530;3.9761;
290.7000;0.1522;3.9787;
291.0000;0.1530;3.9838;
291.3000;0.1555;3.9890;
291.6000;0.1530;3.9787;
291.9000;0.1522;3.9838;
292.2000;0.1538;3.9838;
292.5000;0.1530;3.9736;
292.8000;0.1538;3.9787;
293.1000;0.1441;3.9453;
293.4000;0.1522;3.9633;
293.7000;0.1538;3.9684;
294.0000;0.1547;3.9736;
294.3000;0.1522;3.9761;
294.6000;0.1514;3.9761;
294.9000;0.1547;3.9838;
295.2000;0.1555;3.9967;
295.5000;0.1514;3.9890;
295.8000;0.1547;3.9864;
296.1000;0.1457;3.9505;
296.4000;0.1522;3.9684;
296.7000;0.1547;3.9736;
297.0000;0.1522;3.9530;
297.3000;0.1538;3.9453;
297.6000;0.1530;3.9453;
297.9000;0.1538;3.9453;
298.2000;0.1522;3.9505;
298.5000;0.1522;3.9659;
298.8000;0.1506;3.9530;
299.1000;0.1522;3.9582;
299.4000;0.1506;3.9582;
299.7000;0.1506;3.9607;
300.0000;0.1514;3.9710;
300.3000;0.1538;3.9710;
300.6000;0.1530;3.9659;
300.9000;0.1514;3.9633;
301.2000;0.1563;3.9813;
301.5000;0.1514;3.9607;
301.8000;0.1530;3.9710;
302.1000;0.1490;3.9633;
302.4000;0.1530;3.9710;
302.7000;0.1530;3.9684;
303.0000;0.1538;3.9761;
303.3000;0.1522;3.9736;
303.6000;0.1530;3.9787;
303.9000;0.1530;3.9787;
304.2000;0.1547;3.9787;
304.5000;0.1530;3.9787;
304.8000;0.1538;3.9890;
305.1000;0.1538;3.9915;
305.4000;0.1530;3.9864;
305.7000;0.1612;4.0095;
306.0000;0.1538;3.9941;
306.3000;0.1538;3.9890;
306.6000;0.1449;3.9633;
306.9000;0.1514;3.9864;
307.2000;0.1538;3.9864;
307.5000;0.1530;3.9787;
307.8000;0.1522;3.9787;
308.1000;0.1530;3.9813;
308.4000;0.1538;3.9864;
308.7000;0.1514;3.9761;
309.0000;0.1538;3.9838;
309.3000;0.1563;3.9890;
309.6000;0.1530;3.9890;
309.9000;0.1538;3.9915;
310.2000;0.1628;4.0172;
310.5000;0.1547;3.9864;
310.8000;0.1530;3.9890;
311.1000;0.1522;3.9838;
311.4000;0.1441;3.9607;
311.7000;0.1538;3.9864;
312.0000;0.1522;3.9787;
312.3000;0.1522;3.9761;
312.6000;0.1538;3.9736;
312.9000;0.1538;3.9838;
313.2000;0.1530;3.9838;
313.5000;0.1547;4.0018;
313.8000;0.1522;3.9890;
314.1000;0.1522;3.9838;
314.4000;0.1538;3.9864;
314.7000;0.1555;3.9941;
315.0000;0.1514;3.9838;
315.3000;0.1522;3.9915;
315.6000;0.1538;3.9941;
315.9000;0.1563;3.9992;
316.2000;0.1538;3.9941;
316.5000;0.1538;3.9838;
316.8000;0.1490;3.9684;
317.1000;0.1514;3.9684;
317.4000;0.1498;3.9607;
317.7000;0.1490;3.9582;
318.0000;0.1571;3.9890;
318.3000;0.1563;3.9915;
318.6000;0.1522;3.9864;
318.9000;0.1506;3.9864;
319.2000;0.1661;4.0223;
319.5000;0.1538;3.9838;
319.8000;0.1538;3.9838;
320.1000;0.1538;3.9838;
320.4000;0.1547;3.9890;
320.7000;0.1563;3.9915;
321.0000;0.1449;3.9582;
321.3000;0.1506;3.9787;
321.6000;0.1530;3.9890;
321.9000;0.1620;4.0120;
322.2000;0.1595;4.0018;
322.5000;0.1530;3.9864;
322.8000;0.1506;3.9761;
323.1000;0.1538;3.9838;
323.4000;0.1522;3.9813;
323.7000;0.1530;3.9761;
324.0000;0.1514;3.9761;
324.3000;0.1661;4.0249;
324.6000;0.1547;3.9864;
324.9000;0.1555;3.9864;
325.2000;0.1530;3.9736;
325.5000;0.1538;3.9710;
325.8000;0.1514;3.9684;
326.1000;0.1547;3.9787;
326.4000;0.1538;3.9736;
326.7000;0.1506;3.9684;
327.0000;0.1547;3.9659;
327.3000;0.1538;3.9710;
327.6000;0.1514;3.9684;
327.9000;0.1538;3.9710;
328.2000;0.1547;3.9684;
328.5000;0.1522;3.9633;
328.8000;0.1522;3.9633;
329.1000;0.1538;3.9633;
329.4000;0.1530;3.9607;
329.7000;0.1506;3.9582;
330.0000;0.1498;3.9607;
330.3000;0.1547;3.9684;
330.6000;0.1498;3.9556;
330.9000;0.1530;3.9556;
331.2000;0.1530;3.9633;
331.5000;0.1522;3.9633;
331.8000;0.1530;3.9761;
332.1000;0.1538;3.9710;
332.4000;0.1547;3.9761;
332.7000;0.1506;3.9659;
333.0000;0.1514;3.9659;
333.3000;0.1514;3.9633;
333.6000;0.1620;3.9838;
333.9000;0.1522;3.9505;
334.2000;0.1522;3.9582;
334.5000;0.1579;3.9761;
334.8000;0.1514;3.9607;
335.1000;0.1522;3.9684;
335.4000;0.1522;3.9761;
335.7000;0.1522;3.9761;
336.0000;0.1530;3.9967;
336.3000;0.1530;3.9864;
336.6000;0.1514;3.9787;
336.9000;0.1547;3.9890;
337.2000;0.1522;3.9813;
337.5000;0.1530;3.9864;
337.8000;0.1547;3.9941;
338.1000;0.1457;3.9761;
338.4000;0.1473;3.9736;
338.7000;0.1416;3.9556;
339.0000;0.1538;3.9941;
339.3000;0.1530;3.9915;
339.6000;0.1522;3.9915;
339.9000;0.1522;3.9941;
340.2000;0.1522;3.9915;
340.5000;0.1465;3.9736;
340.8000;0.1522;3.9941;
341.1000;0.1538;4.0018;
341.4000;0.1433;3.9787;
341.7000;0.1538;3.9941;
342.0000;0.1522;3.9838;
342.3000;0.1473;3.9633;
342.6000;0.1538;3.9787;
342.9000;0.1579;3.9838;
343.2000;0.1498;3.9684;
343.5000;0.1530;3.9864;
343.8000;0.1563;3.9941;
344.1000;0.1530;3.9838;
344.4000;0.1547;3.9890;
344.7000;0.1530;3.9864;
345.0000;0.1514;3.9813;
345.3000;0.1514;3.9890;
345.6000;0.1538;4.0043;
345.9000;0.1481;3.9813;
346.2000;0.1530;3.9915;
346.5000;0.1530;3.9915;
346.8000;0.1522;3.9890;
347.1000;0.1506;3.9864;
347.4000;0.1522;3.9915;
347.7000;0.1530;3.9941;
348.0000;0.1506;3.9838;
348.3000;0.1465;3.9736;
348.6000;0.1522;3.9890;
348.9000;0.1514;3.9736;
349.2000;0.1522;3.9761;
349.5000;0.1547;3.9890;
349.8000;0.1506;3.9813;
350.1000;0.1514;3.9787;
350.4000;0.1522;3.9813;
350.7000;0.1555;3.9838;
351.0000;0.1522;3.9787;
351.3000;0.1522;3.9787;
351.6000;0.1547;3.9915;
351.9000;0.1530;3.9890;
352.2000;0.1506;3.9864;
352.5000;0.1522;3.9941;
352.8000;0.1514;3.9941;
353.1000;0.1530;3.9890;
353.4000;0.1514;3.9761;
353.7000;0.1506;3.9736;
354.0000;0.1514;3.9787;
354.3000;0.1449;3.9505;
354.6000;0.1522;3.9761;
354.9000;0.1514;3.9633;
355.2000;0.1547;3.9736;
355.5000;0.1538;3.9761;
355.8000;0.1530;3.9710;
356.1000;0.1538;3.9659;
356.4000;0.1579;3.9890;
356.7000;0.1522;3.9787;
357.0000;0.1555;3.9813;
357.3000;0.1530;3.9736;
357.6000;0.1530;3.9736;
357.9000;0.1530;3.9736;
358.2000;0.1547;3.9761;
358.5000;0.1522;3.9787;
358.8000;0.1514;3.9761;
359.1000;0.1522;3.9864;
359.4000;0.1538;3.9890;
359.7000;0.1538;3.9890;
360.0000;0.1490;3.9659;
360.3000;0.1547;3.9813;
360.6000;0.1538;3.9838;
360.9000;0.1530;3.9787;
361.2000;0.1538;3.9813;
361.5000;0.1530;3.9813;
361.8000;0.1514;3.9710;
362.1000;0.1530;3.9813;
362.4000;0.1538;3.9736;
362.7000;0.1506;3.9787;
363.0000;0.1514;3.9838;
363.3000;0.1514;3.9838;
363.6000;0.1506;3.9838;
363.9000;0.1490;3.9761;
364.2000;0.1506;3.9684;
364.5000;0.1416;3.9428;
364.8000;0.1538;3.9761;
365.1000;0.1538;3.9813;
365.4000;0.1612;3.9967;
365.7000;0.1547;3.9787;
366.0000;0.1538;3.9761;
366.3000;0.1514;3.9761;
366.6000;0.1514;3.9684;
366.9000;0.1522;3.9684;
367.2000;0.1481;3.9556;
367.5000;0.1587;3.9813;
367.8000;0.1522;3.9607;
368.1000;0.1547;3.9582;
368.4000;0.1506;3.9556;
368.7000;0.1547;3.9684;
369.0000;0.1514;3.9582;
369.3000;0.1490;3.9505;
369.6000;0.1514;3.9556;
369.9000;0.1506;3.9582;
370.2000;0.1522;3.9659;
370.5000;0.1530;3.9710;
370.8000;0.1538;3.9659;
371.1000;0.1522;3.9556;
371.4000;0.1563;3.9659;
371.7000;0.1538;3.9633;
372.0000;0.1530;3.9659;
372.3000;0.1555;3.9813;
372.6000;0.1530;3.9736;
372.9000;0.1514;3.9659;
373.2000;0.1514;3.9736;
373.5000;0.1530;3.9813;
373.8000;0.1530;3.9710;
374.1000;0.1522;3.9659;
374.4000;0.1514;3.9633;
374.7000;0.1522;3.9684;
375.0000;0.1514;3.9607;
375.3000;0.1506;3.9684;
375.6000;0.1530;3.9813;
375.9000;0.1530;3.9890;
376.2000;0.1538;4.0018;
376.5000;0.1538;4.0018;
376.8000;0.1530;3.9915;
377.1000;0.1530;3.9864;
377.4000;0.1514;3.9864;
377.7000;0.1538;3.9890;
378.0000;0.1522;3.9864;
378.3000;0.1522;3.9915;
378.6000;0.1522;3.9864;
378.9000;0.1498;3.9787;
379.2000;0.1514;3.9736;
379.5000;0.1530;3.9787;
379.8000;0.1530;3.9864;
380.1000;0.1530;3.9813;
380.4000;0.1538;3.9736;
380.7000;0.1514;3.9710;
381.0000;0.1579;3.9864;
381.3000;0.1538;3.9633;
381.6000;0.1538;3.9633;
381.9000;0.1547;3.9736;
382.2000;0.1538;3.9684;
382.5000;0.1522;3.9659;
382.8000;0.1522;3.9710;
383.1000;0.1530;3.9684;
383.4000;0.1587;3.9890;
383.7000;0.1547;3.9813;
384.0000;0.1530;3.9787;
384.3000;0.1490;3.9684;
384.6000;0.1604;3.9992;
384.9000;0.1595;4.0018;
385.2000;0.1522;3.9864;
385.5000;0.1514;3.9838;
385.8000;0.1514;3.9787;
386.1000;0.1506;3.9787;
386.4000;0.1522;3.9761;
386.7000;0.1392;3.9428;
387.0000;0.1547;3.9787;
387.3000;0.1555;3.9761;
387.6000;0.1530;3.9684;
387.9000;0.1555;3.9736;
388.2000;0.1587;3.9813;
388.5000;0.1530;3.9633;
388.8000;0.1538;3.9710;
389.1000;0.1522;3.9659;
389.4000;0.1530;3.9710;
389.7000;0.1514;3.9787;
390.0000;0.1530;3.9761;
390.3000;0.1522;3.9761;
390.6000;0.1522;3.9838;
390.9000;0.1522;3.9761;
391.2000;0.1498;3.9684;
391.5000;0.1498;3.9684;
391.8000;0.1604;3.9941;
392.1000;0.1604;3.9915;
392.4000;0.1538;3.9659;
392.7000;0.1547;3.9659;
393.0000;0.1522;3.9710;
393.3000;0.1547;3.9761;
393.6000;0.1538;3.9710;
393.9000;0.1522;3.9659;
394.2000;0.1538;3.9710;
394.5000;0.1547;3.9787;
394.8000;0.1530;3.9710;
395.1000;0.1530;3.9787;
395.4000;0.1555;3.9941;
395.7000;0.1563;3.9941;
396.0000;0.1522;3.9864;
396.3000;0.1498;3.9813;
396.6000;0.1538;3.9838;
396.9000;0.1538;3.9915;
397.2000;0.1555;3.9915;
397.5000;0.1514;3.9761;
397.8000;0.1530;3.9736;
398.1000;0.1563;3.9813;
398.4000;0.1538;3.9838;
398.7000;0.1538;3.9864;
399.0000;0.1538;3.9941;
399.3000;0.1506;3.9838;
399.6000;0.1514;3.9864;
399.9000;0.1522;3.9915;
400.2000;0.1530;3.9967;
400.5000;0.1538;3.9915;
400.8000;0.1514;3.9941;
401.1000;0.1506;3.9967;
401.4000;0.1547;4.0043;
401.7000;0.1538;3.9992;
402.0000;0.1522;3.9915;
402.3000;0.1506;3.9890;
402.6000;0.1522;3.9915;
402.9000;0.1522;3.9941;
403.2000;0.1538;3.9941;
403.5000;0.1514;3.9890;
403.8000;0.1514;3.9890;
404.1000;0.1555;3.9967;
404.4000;0.1538;3.9967;
404.7000;0.1514;3.9967;
405.0000;0.1522;3.9967;
405.3000;0.1555;4.0043;
405.6000;0.1636;4.0197;
405.9000;0.1538;3.9941;
406.2000;0.1514;3.9864;
406.5000;0.1522;3.9864;
406.8000;0.1522;3.9915;
407.1000;0.1595;4.0095;
407.4000;0.1457;3.9633;
407.7000;0.1530;3.9838;
408.0000;0.1612;4.0069;
408.3000;0.1530;3.9838;
408.6000;0.1538;3.9838;
408.9000;0.1522;3.9787;
409.2000;0.1530;3.9787;
409.5000;0.1538;3.9890;
409.8000;0.1530;3.9967;
410.1000;0.1465;3.9761;
410.4000;0.1522;3.9838;
410.7000;0.1514;3.9736;
411.0000;0.1490;3.9633;
411.3000;0.1514;3.9736;
411.6000;0.1538;3.9787;
411.9000;0.1522;3.9761;
412.2000;0.1498;3.9864;
412.5000;0.1514;3.9864;
412.8000;0.1522;3.9890;
413.1000;0.1538;3.9890;
413.4000;0.1538;3.9864;
413.7000;0.1522;3.9813;
414.0000;0.1522;3.9838;
414.3000;0.1522;3.9761;
414.6000;0.1555;3.9864;
414.9000;0.1506;3.9787;
415.2000;0.1522;3.9967;
415.5000;0.1522;3.9864;
415.8000;0.1530;3.9838;
416.1000;0.1538;3.9864;
416.4000;0.1530;3.9864;
416.7000;0.1490;3.9787;
417.0000;0.1498;3.9813;
417.3000;0.1490;3.9787;
417.6000;0.1506;3.9787;
417.9000;0.1530;3.9838;
418.2000;0.1530;3.9890;
418.5000;0.1433;3.9582;
418.8000;0.1522;3.9915;
419.1000;0.1571;4.0018;
419.4000;0.1555;3.9941;
419.7000;0.1538;3.9915;
420.0000;0.1530;3.9941;
420.3000;0.1555;3.9967;
420.6000;0.1514;3.9941;
420.9000;0.1416;3.9710;
421.2000;0.1620;4.0197;
421.5000;0.1506;3.9992;
421.8000;0.1514;4.0018;
422.1000;0.1481;3.9890;
422.4000;0.1530;3.9941;
422.7000;0.1522;3.9941;
423.0000;0.1522;3.9941;
423.3000;0.1538;3.9941;
423.6000;0.1530;3.9890;
423.9000;0.1522;3.9890;
424.2000;0.1514;3.9915;
424.5000;0.1514;4.0018;
424.8000;0.1530;3.9992;
425.1000;0.1522;3.9992;
425.4000;0.1522;4.0018;
425.7000;0.1538;3.9992;
426.0000;0.1522;3.9967;
426.3000;0.1530;3.9967;
426.6000;0.1514;3.9992;
426.9000;0.1514;3.9992;
427.2000;0.1522;3.9941;
427.5000;0.1530;4.0018;
427.8000;0.1530;4.0069;
428.1000;0.1514;4.0018;
428.4000;0.1514;3.9992;
428.7000;0.1547;4.0018;
429.0000;0.1522;3.9941;
429.3000;0.1530;3.9992;
429.6000;0.1506;3.9967;
429.9000;0.1555;4.0069;
430.2000;0.1506;3.9941;
430.5000;0.1514;3.9992;
430.8000;0.1530;3.9992;
431.1000;0.1514;3.9967;
431.4000;0.1490;4.0018;
431.7000;0.1514;4.0043;
432.0000;0.1490;3.9915;
432.3000;0.1481;3.9967;
432.6000;0.1587;4.0223;
432.9000;0.1530;4.0197;
433.2000;0.1498;4.0095;
433.5000;0.1522;4.0197;
433.8000;0.1530;4.0223;
434.1000;0.1522;4.0146;
434.4000;0.1522;4.0095;
434.7000;0.1612;4.0377;
435.0000;0.1555;4.0197;
435.3000;0.1530;4.0095;
435.6000;0.1522;4.0095;
435.9000;0.1538;4.0069;
436.2000;0.1490;3.9967;
436.5000;0.1530;4.0146;
436.8000;0.1490;4.0043;
437.1000;0.1506;4.0095;
437.4000;0.1538;4.0095;
437.7000;0.1538;4.0043;
438.0000;0.1433;3.9659;
438.3000;0.1530;3.9864;
438.6000;0.1530;3.9864;
438.9000;0.1538;3.9890;
439.2000;0.1506;3.9838;
439.5000;0.1538;3.9915;
439.8000;0.1612;4.0249;
440.1000;0.1522;4.0018;
440.4000;0.1522;3.9967;
440.7000;0.1498;3.9838;
441.0000;0.1579;4.0146;
441.3000;0.1530;4.0018;
441.6000;0.1522;4.0095;
441.9000;0.1522;4.0197;
442.2000;0.1522;4.0120;
442.5000;0.1530;4.0095;
442.8000;0.1490;3.9992;
443.1000;0.1522;4.0069;
443.4000;0.1514;4.0043;
443.7000;0.1522;3.9941;
444.0000;0.1522;3.9813;
444.3000;0.1481;3.9659;
444.6000;0.1530;3.9838;
444.9000;0.1522;3.9864;
445.2000;0.1506;3.9864;
445.5000;0.1506;3.9915;
445.8000;0.1538;3.9967;
446.1000;0.1522;3.9941;
446.4000;0.1555;4.0095;
446.7000;0.1538;4.0018;
447.0000;0.1563;4.0095;
447.3000;0.1538;4.0043;
447.6000;0.1547;4.0069;
447.9000;0.1514;4.0043;
448.2000;0.1522;4.0043;
448.5000;0.1514;3.9967;
448.8000;0.1514;4.0018;
449.1000;0.1538;4.0069;
449.4000;0.1547;4.0018;
449.7000;0.1506;3.9838;
450.0000;0.1514;3.9864;
450.3000;0.1522;3.9864;
450.6000;0.1538;3.9864;
450.9000;0.1514;3.9838;
451.2000;0.1441;3.9607;
451.5000;0.1628;4.0095;
451.8000;0.1571;3.9992;
452.1000;0.1547;4.0018;
452.4000;0.1522;3.9890;
452.7000;0.1522;3.9915;
453.0000;0.1433;3.9684;
453.3000;0.1538;3.9992;
453.6000;0.1555;4.0043;
453.9000;0.1530;3.9915;
454.2000;0.1514;3.9915;
454.5000;0.1530;3.9941;
454.8000;0.1514;3.9941;
455.1000;0.1547;3.9967;
455.4000;0.1522;3.9941;
455.7000;0.1514;4.0095;
456.0000;0.1661;4.0531;
456.3000;0.1571;4.0300;
456.6000;0.1514;4.0146;
456.9000;0.1538;4.0223;
457.2000;0.1514;4.0197;
457.5000;0.1530;4.0120;
457.8000;0.1538;4.0197;
458.1000;0.1473;3.9992;
458.4000;0.1506;4.0018;
458.7000;0.1522;3.9941;
459.0000;0.1522;3.9992;
459.3000;0.1506;3.9890;
459.6000;0.1514;3.9941;
459.9000;0.1490;3.9915;
460.2000;0.1498;3.9864;
460.5000;0.1538;3.9838;
460.8000;0.1571;3.9915;
461.1000;0.1522;3.9813;
461.4000;0.1530;3.9813;
461.7000;0.1530;3.9864;
462.0000;0.1457;3.9710;
462.3000;0.1530;3.9890;
462.6000;0.1522;3.9813;
462.9000;0.1587;3.9992;
463.2000;0.1514;3.9838;
463.5000;0.1538;3.9838;
463.8000;0.1498;3.9761;
464.1000;0.1522;3.9838;
464.4000;0.1530;3.9864;
464.7000;0.1506;3.9838;
465.0000;0.1579;4.0069;
465.3000;0.1481;3.9838;
465.6000;0.1538;3.9941;
465.9000;0.1538;3.9967;
466.2000;0.1579;4.0120;
466.5000;0.1538;4.0120;
466.8000;0.1522;4.0043;
467.1000;0.1530;4.0146;
467.4000;0.1522;4.0043;
467.7000;0.1530;3.9941;
468.0000;0.1514;3.9915;
468.3000;0.1538;3.9967;
468.6000;0.1530;3.9915;
468.9000;0.1522;3.9864;
469.2000;0.1514;3.9864;
469.5000;0.1538;3.9915;
469.8000;0.1538;3.9864;
470.1000;0.1530;3.9838;
470.4000;0.1522;3.9813;
470.7000;0.1530;3.9864;
471.0000;0.1522;3.9864;
471.3000;0.1538;3.9967;
471.6000;0.1522;3.9915;
471.9000;0.1530;3.9890;
472.2000;0.1530;3.9992;
472.5000;0.1530;4.0069;
472.8000;0.1506;4.0069;
473.1000;0.1514;4.0146;
473.4000;0.1547;4.0197;
473.7000;0.1514;4.0069;
474.0000;0.1538;4.0120;
474.3000;0.1506;4.0043;
474.6000;0.1579;4.0146;
474.9000;0.1604;4.0223;
475.2000;0.1530;4.0018;
475.5000;0.1530;4.0043;
475.8000;0.1506;4.0095;
476.1000;0.1547;4.0120;
476.4000;0.1506;3.9967;
476.7000;0.1506;3.9967;
477.0000;0.1579;4.0146;
477.3000;0.1530;4.0095;
477.6000;0.1530;4.0095;
477.9000;0.1522;4.0043;
478.2000;0.1498;4.0043;
478.5000;0.1538;4.0172;
478.8000;0.1530;4.0069;
479.1000;0.1522;3.9967;
479.4000;0.1522;3.9941;
479.7000;0.1522;3.9890;
480.0000;0.1547;3.9941;
480.3000;0.1547;4.0043;
480.6000;0.1522;3.9992;
480.9000;0.1522;4.0018;
481.2000;0.1579;4.0146;
481.5000;0.1530;3.9967;
481.8000;0.1538;3.9915;
482.1000;0.1514;3.9967;
482.4000;0.1579;4.0069;
482.7000;0.1555;3.9941;
483.0000;0.1571;3.9967;
483.3000;0.1514;3.9941;
483.6000;0.1538;4.0069;
483.9000;0.1530;3.9967;
484.2000;0.1538;3.9967;
484.5000;0.1530;3.9992;
484.8000;0.1538;4.0043;
485.1000;0.1514;4.0018;
485.4000;0.1555;4.0120;
485.7000;0.1522;3.9967;
486.0000;0.1538;3.9992;
486.3000;0.1530;3.9967;
486.6000;0.1530;3.9941;
486.9000;0.1530;3.9864;
487.2000;0.1522;3.9787;
487.5000;0.1522;3.9838;
487.8000;0.1530;3.9864;
488.1000;0.1530;3.9890;
488.4000;0.1547;3.9864;
488.7000;0.1538;3.9864;
489.0000;0.1547;3.9967;
489.3000;0.1506;3.9813;
489.6000;0.1514;3.9864;
489.9000;0.1522;3.9813;
490.2000;0.1522;3.9838;
490.5000;0.1490;3.9813;
490.8000;0.1522;3.9864;
491.1000;0.1473;3.9736;
491.4000;0.1522;3.9864;
491.7000;0.1530;3.9890;
492.0000;0.1481;3.9787;
492.3000;0.1506;3.9813;
492.6000;0.1530;3.9864;
492.9000;0.1547;3.9941;
493.2000;0.1547;3.9967;
493.5000;0.1530;3.9890;
493.8000;0.1530;3.9890;
494.1000;0.1547;3.9915;
494.4000;0.1449;3.9736;
494.7000;0.1522;3.9967;
495.0000;0.1522;4.0043;
495.3000;0.1490;3.9941;
495.6000;0.1522;3.9992;
495.9000;0.1530;3.9967;
496.2000;0.1498;3.9890;
496.5000;0.1595;4.0043;
496.8000;0.1538;3.9915;
497.1000;0.1522;3.9890;
497.4000;0.1514;3.9864;
497.7000;0.1522;3.9967;
498.0000;0.1522;3.9941;
498.3000;0.1530;4.0069;
498.6000;0.1530;4.0018;
498.9000;0.1522;4.0043;
499.2000;0.1595;4.0095;
499.5000;0.1538;3.9890;
499.8000;0.1530;3.9915;
500.1000;0.1465;3.9684;
500.4000;0.1547;3.9967;
500.7000;0.1433;3.9633;
501.0000;0.1530;3.9890;
501.3000;0.1514;3.9813;
501.6000;0.1522;3.9890;
501.9000;0.1547;3.9967;
502.2000;0.1547;3.9967;
502.5000;0.1538;3.9967;
502.8000;0.1628;4.0326;
503.1000;0.1522;4.0043;
503.4000;0.1538;4.0069;
503.7000;0.1522;4.0043;
504.0000;0.1563;4.0069;
504.3000;0.1530;3.9967;
504.6000;0.1538;3.9941;
504.9000;0.1506;3.9864;
505.2000;0.1481;3.9761;
505.5000;0.1538;3.9941;
505.8000;0.1530;3.9967;
506.1000;0.1522;3.9864;
506.4000;0.1498;3.9838;
506.7000;0.1522;3.9864;
507.0000;0.1538;3.9864;
507.3000;0.1522;3.9838;
507.6000;0.1530;3.9915;
507.9000;0.1522;3.9890;
508.2000;0.1538;3.9915;
508.5000;0.1563;3.9890;
508.8000;0.1530;3.9838;
509.1000;0.1547;3.9864;
509.4000;0.1514;3.9838;
509.7000;0.1522;3.9915;
510.0000;0.1538;3.9915;
510.3000;0.1506;3.9915;
510.6000;0.1522;3.9967;
510.9000;0.1514;3.9967;
511.2000;0.1538;4.0069;
511.5000;0.1522;3.9915;
511.8000;0.1538;3.9941;
512.1000;0.1538;3.9915;
512.4000;0.1506;3.9838;
512.7000;0.1514;3.9864;
513.0000;0.1538;3.9941;
513.3000;0.1538;3.9967;
513.6000;0.1555;3.9967;
513.9000;0.1538;3.9890;
514.2000;0.1514;3.9890;
514.5000;0.1538;4.0018;
514.8000;0.1522;4.0018;
515.1000;0.1571;4.0146;
515.4000;0.1538;4.0043;
515.7000;0.1530;3.9992;
516.0000;0.1514;3.9992;
516.3000;0.1530;4.0043;
516.6000;0.1481;3.9864;
516.9000;0.1514;3.9992;
517.2000;0.1555;4.0069;
517.5000;0.1514;3.9890;
517.8000;0.1522;3.9864;
518.1000;0.1530;3.9864;
518.4000;0.1530;3.9864;
518.7000;0.1522;3.9915;
519.0000;0.1522;3.9890;
519.3000;0.1547;3.9915;
519.6000;0.1522;3.9967;
519.9000;0.1522;3.9967;
520.2000;0.1514;3.9890;
520.5000;0.1530;3.9838;
520.8000;0.1547;3.9890;
521.1000;0.1514;3.9813;
521.4000;0.1457;3.9607;
521.7000;0.1538;3.9761;
522.0000;0.1506;3.9761;
522.3000;0.1522;3.9813;
522.6000;0.1530;3.9813;
522.9000;0.1506;3.9813;
523.2000;0.1514;3.9864;
523.5000;0.1571;4.0043;
523.8000;0.1530;3.9941;
524.1000;0.1514;3.9941;
524.4000;0.1522;3.9890;
524.7000;0.1514;3.9864;
525.0000;0.1522;3.9813;
525.3000;0.1506;3.9838;
525.6000;0.1522;3.9915;
525.9000;0.1522;3.9992;
526.2000;0.1449;3.9838;
526.5000;0.1522;3.9941;
526.8000;0.1506;3.9787;
527.1000;0.1530;3.9813;
527.4000;0.1498;3.9787;
527.7000;0.1530;3.9915;
528.0000;0.1514;3.9890;
528.3000;0.1514;3.9915;
528.6000;0.1514;3.9864;
528.9000;0.1530;3.9838;
529.2000;0.1530;3.9915;
529.5000;0.1522;3.9890;
529.8000;0.1506;3.9941;
530.1000;0.1473;3.9787;
530.4000;0.1547;3.9967;
530.7000;0.1481;3.9838;
531.0000;0.1425;3.9761;
531.3000;0.1530;4.0018;
531.6000;0.1538;4.0043;
531.9000;0.1652;4.0274;
532.2000;0.1498;3.9838;
532.5000;0.1506;3.9838;
532.8000;0.1522;3.9890;
533.1000;0.1530;3.9838;
533.4000;0.1538;3.9813;
533.7000;0.1522;3.9890;
534.0000;0.1620;4.0274;
534.3000;0.1530;4.0095;
534.6000;0.1514;4.0069;
534.9000;0.1522;4.0069;
535.2000;0.1555;4.0095;
535.5000;0.1530;3.9967;
535.8000;0.1530;3.9967;
536.1000;0.1644;4.0300;
536.4000;0.1530;4.0069;
536.7000;0.1547;4.0069;
537.0000;0.1538;4.0069;
537.3000;0.1514;4.0043;
537.6000;0.1538;4.0069;
537.9000;0.1538;4.0043;
538.2000;0.1530;3.9941;
538.5000;0.1522;3.9890;
538.8000;0.1506;3.9890;
539.1000;0.1530;3.9838;
539.4000;0.1538;3.9890;
539.7000;0.1498;3.9761;
540.0000;0.1514;3.9813;
540.3000;0.1514;3.9838;
540.6000;0.1538;3.9864;
540.9000;0.1514;3.9813;
541.2000;0.1538;3.9864;
541.5000;0.1465;3.9607;
541.8000;0.1563;3.9941;
542.1000;0.1498;3.9787;
542.4000;0.1636;4.0172;
542.7000;0.1604;4.0095;
543.0000;0.1538;3.9915;
543.3000;0.1498;3.9787;
543.6000;0.1530;3.9890;
543.9000;0.1514;3.9864;
544.2000;0.1530;3.9864;
544.5000;0.1481;3.9710;
544.8000;0.1522;3.9787;
545.1000;0.1514;3.9838;
545.4000;0.1547;3.9941;
545.7000;0.1522;3.9864;
546.0000;0.1579;3.9967;
546.3000;0.1522;3.9813;
546.6000;0.1538;3.9761;
546.9000;0.1522;3.9659;
547.2000;0.1530;3.9684;
547.5000;0.1530;3.9736;
547.8000;0.1530;3.9787;
548.1000;0.1530;3.9787;
548.4000;0.1530;3.9813;
548.7000;0.1481;3.9633;
549.0000;0.1514;3.9710;
549.3000;0.1530;3.9813;
549.6000;0.1538;3.9864;
549.9000;0.1620;4.0146;
550.2000;0.1522;3.9838;
550.5000;0.1441;3.9607;
550.8000;0.1498;3.9890;
551.1000;0.1522;3.9967;
551.4000;0.1522;3.9967;
551.7000;0.1530;3.9992;
552.0000;0.1522;3.9967;
552.3000;0.1579;4.0095;
552.6000;0.1538;3.9992;
552.9000;0.1514;3.9915;
553.2000;0.1530;4.0043;
553.5000;0.1669;4.0454;
553.8000;0.1538;4.0146;
554.1000;0.1530;4.0146;
554.4000;0.1522;4.0095;
554.7000;0.1473;3.9941;
555.0000;0.1490;4.0018;
555.3000;0.1547;4.0120;
555.6000;0.1587;4.0274;
555.9000;0.1498;3.9967;
556.2000;0.1522;4.0043;
556.5000;0.1514;4.0043;
556.8000;0.1481;3.9967;
557.1000;0.1530;4.0018;
557.4000;0.1514;3.9992;
557.7000;0.1522;3.9967;
558.0000;0.1506;3.9890;
558.3000;0.1595;4.0146;
558.6000;0.1547;3.9992;
558.9000;0.1514;3.9915;
559.2000;0.1522;3.9941;
559.5000;0.1530;3.9941;
559.8000;0.1506;3.9915;
560.1000;0.1522;3.9915;
560.4000;0.1530;4.0018;
560.7000;0.1547;4.0069;
561.0000;0.1498;3.9967;
561.3000;0.1457;3.9684;
561.6000;0.1506;3.9838;
561.9000;0.1538;3.9967;
562.2000;0.1555;4.0095;
562.5000;0.1522;3.9915;
562.8000;0.1514;3.9864;
563.1000;0.1522;3.9890;
563.4000;0.1587;4.0018;
563.7000;0.1547;3.9838;
564.0000;0.1514;3.9659;
564.3000;0.1506;3.9736;
564.6000;0.1506;3.9813;
564.9000;0.1433;3.9505;
565.2000;0.1530;3.9787;
565.5000;0.1498;3.9633;
565.8000;0.1522;3.9761;
566.1000;0.1506;3.9659;
566.4000;0.1490;3.9684;
566.7000;0.1522;3.9813;
567.0000;0.1538;3.9890;
567.3000;0.1514;3.9838;
567.6000;0.1538;3.9915;
567.9000;0.1555;3.9915;
568.2000;0.1547;3.9838;
568.5000;0.1547;3.9838;
568.8000;0.1538;3.9736;
569.1000;0.1522;3.9659;
569.4000;0.1571;3.9736;
569.7000;0.1530;3.9659;
570.0000;0.1530;3.9684;
570.3000;0.1514;3.9684;
570.6000;0.1530;3.9787;
570.9000;0.1530;3.9787;
571.2000;0.1522;3.9761;
571.5000;0.1514;3.9710;
571.8000;0.1612;4.0043;
572.1000;0.1522;3.9915;
572.4000;0.1555;3.9992;
572.7000;0.1522;3.9838;
573.0000;0.1514;3.9813;
573.3000;0.1473;3.9710;
573.6000;0.1538;3.9787;
573.9000;0.1514;3.9633;
574.2000;0.1498;3.9505;
574.5000;0.1538;3.9710;
574.8000;0.1498;3.9582;
575.1000;0.1547;3.9813;
575.4000;0.1530;3.9787;
575.7000;0.1514;3.9813;
576.0000;0.1530;3.9864;
576.3000;0.1555;3.9992;
576.6000;0.1498;3.9787;
576.9000;0.1563;3.9915;
577.2000;0.1522;3.9864;
577.5000;0.1571;4.0018;
577.8000;0.1498;3.9761;
578.1000;0.1522;3.9761;
578.4000;0.1506;3.9684;
578.7000;0.1530;3.9710;
579.0000;0.1547;3.9787;
579.3000;0.1514;3.9736;
579.6000;0.1514;3.9813;
579.9000;0.1498;3.9787;
580.2000;0.1628;4.0172;
580.5000;0.1522;3.9890;
580.8000;0.1522;3.9787;
581.1000;0.1547;3.9710;
581.4000;0.1522;3.9710;
581.7000;0.1514;3.9736;
582.0000;0.1538;3.9761;
582.3000;0.1481;3.9633;
582.6000;0.1506;3.9659;
582.9000;0.1538;3.9787;
583.2000;0.1530;3.9736;
583.5000;0.1514;3.9761;
583.8000;0.1514;3.9813;
584.1000;0.1538;3.9838;
584.4000;0.1506;3.9813;
584.7000;0.1506;3.9761;
585.0000;0.1530;3.9787;
585.3000;0.1538;3.9787;
585.6000;0.1530;3.9813;
585.9000;0.1522;3.9787;
586.2000;0.1530;3.9813;
586.5000;0.1522;3.9761;
586.8000;0.1538;3.9736;
587.1000;0.1506;3.9659;
587.4000;0.1481;3.9659;
587.7000;0.1514;3.9761;
588.0000;0.1522;3.9736;
588.3000;0.1563;3.9838;
588.6000;0.1506;3.9607;
588.9000;0.1530;3.9736;
589.2000;0.1506;3.9736;
589.5000;0.1547;3.9813;
589.8000;0.1506;3.9761;
590.1000;0.1498;3.9633;
590.4000;0.1538;3.9659;
590.7000;0.1514;3.9684;
591.0000;0.1506;3.9710;
591.3000;0.1522;3.9736;
591.6000;0.1514;3.9659;
591.9000;0.1506;3.9607;
592.2000;0.1522;3.9633;
592.5000;0.1530;3.9659;
592.8000;0.1473;3.9479;
593.1000;0.1538;3.9736;
593.4000;0.1538;3.9813;
593.7000;0.1481;3.9659;
594.0000;0.1555;3.9838;
594.3000;0.1538;3.9915;
594.6000;0.1514;3.9915;
594.9000;0.1530;3.9941;
595.2000;0.1530;3.9992;
595.5000;0.1514;3.9838;
595.8000;0.1547;3.9915;
596.1000;0.1612;4.0095;
596.4000;0.1530;3.9787;
596.7000;0.1498;3.9761;
597.0000;0.1547;3.9838;
597.3000;0.1538;3.9787;
597.6000;0.1555;3.9813;
597.9000;0.1522;3.9710;
598.2000;0.1514;3.9684;
598.5000;0.1522;3.9607;
598.8000;0.1538;3.9633;
599.1000;0.1538;3.9633;
599.4000;0.1530;3.9684;
599.7000;0.1498;3.9633;
600.0000;0.1530;3.9684;
600.3000;0.1555;3.9736;
600.6000;0.1506;3.9607;
600.9000;0.1522;3.9607;
601.2000;0.1498;3.9479;
601.5000;0.1506;3.9428;
601.8000;0.1522;3.9479;
602.1000;0.1530;3.9453;
602.4000;0.1490;3.9248;
602.7000;0.1481;3.9197;
603.0000;0.1465;3.9094;
603.3000;0.1465;3.8915;
603.6000;0.1433;3.8735;
603.9000;0.1449;3.8735;
604.2000;0.1449;3.8684;
604.5000;0.1425;3.8581;
604.8000;0.1449;3.8581;
605.1000;0.1433;3.8607;
605.4000;0.1449;3.8581;
605.7000;0.1425;3.8556;
606.0000;0.1433;3.8453;
606.3000;0.1425;3.8350;
606.6000;0.1441;3.8376;
606.9000;0.1441;3.8350;
607.2000;0.1416;3.8273;
607.5000;0.1416;3.8222;
607.8000;0.1433;3.8299;
608.1000;0.1392;3.8222;
608.4000;0.1408;3.8197;
608.7000;0.1425;3.8171;
609.0000;0.1416;3.8120;
609.3000;0.1400;3.8068;
609.6000;0.1400;3.8068;
609.9000;0.1408;3.8171;
610.2000;0.1425;3.8222;
610.5000;0.1416;3.8197;
610.8000;0.1408;3.8120;
611.1000;0.1465;3.8402;
611.4000;0.1384;3.8222;
611.7000;0.1392;3.8171;
612.0000;0.1400;3.8222;
612.3000;0.1400;3.8197;
612.6000;0.1392;3.8120;
612.9000;0.1400;3.8120;
613.2000;0.1392;3.8120;
613.5000;0.1368;3.8068;
613.8000;0.1392;3.8171;
614.1000;0.1384;3.8145;
614.4000;0.1376;3.8120;
614.7000;0.1376;3.8043;
615.0000;0.1384;3.8068;
615.3000;0.1400;3.8145;
615.6000;0.1384;3.8094;
615.9000;0.1368;3.7991;
616.2000;0.1359;3.7991;
616.5000;0.1368;3.7914;
616.8000;0.1359;3.7812;
617.1000;0.1335;3.7760;
617.4000;0.1376;3.7914;
617.7000;0.1335;3.7863;
618.0000;0.1384;3.7991;
618.3000;0.1359;3.7940;
618.6000;0.1359;3.7940;
618.9000;0.1254;3.7709;
619.2000;0.1376;3.8043;
619.5000;0.1343;3.7940;
619.8000;0.1343;3.7991;
620.1000;0.1278;3.7812;
620.4000;0.1359;3.8017;
620.7000;0.1368;3.8094;
621.0000;0.1425;3.8197;
621.3000;0.1351;3.8043;
621.6000;0.1351;3.7914;
621.9000;0.1408;3.8068;
622.2000;0.1359;3.7914;
622.5000;0.1359;3.7889;
622.8000;0.1343;3.7914;
623.1000;0.1327;3.7863;
623.4000;0.1335;3.7863;
623.7000;0.1343;3.7914;
624.0000;0.1335;3.8017;
624.3000;0.1359;3.8094;
624.6000;0.1335;3.8043;
624.9000;0.1343;3.8043;
625.2000;0.1327;3.8017;
625.5000;0.1343;3.8145;
625.8000;0.1351;3.8197;
626.1000;0.1351;3.8222;
626.4000;0.1327;3.8197;
626.7000;0.1343;3.8120;
627.0000;0.1319;3.7940;
627.3000;0.1327;3.7940;
627.6000;0.1376;3.7940;
627.9000;0.1327;3.7812;
628.2000;0.1433;3.8145;
628.5000;0.1302;3.7837;
628.8000;0.1327;3.7966;
629.1000;0.1262;3.7735;
629.4000;0.1311;3.7837;
629.7000;0.1311;3.7914;
630.0000;0.1302;3.7940;
630.3000;0.1278;3.7863;
630.6000;0.1311;3.7940;
630.9000;0.1335;3.8017;
631.2000;0.1311;3.7991;
631.5000;0.1319;3.8043;
631.8000;0.1311;3.8017;
632.1000;0.1327;3.8017;
632.4000;0.1327;3.7966;
632.7000;0.1311;3.7914;
633.0000;0.1319;3.8017;
633.3000;0.1311;3.7991;
633.6000;0.1286;3.7940;
633.9000;0.1294;3.7966;
634.2000;0.1319;3.8043;
634.5000;0.1221;3.7863;
634.8000;0.1294;3.8120;
635.1000;0.1286;3.8094;
635.4000;0.1302;3.8145;
635.7000;0.1302;3.8120;
636.0000;0.1294;3.8043;
636.3000;0.1319;3.8043;
636.6000;0.1302;3.8068;
636.9000;0.1294;3.7940;
637.2000;0.1311;3.7966;
637.5000;0.1254;3.7786;
637.8000;0.1311;3.8043;
638.1000;0.1311;3.8068;
638.4000;0.1302;3.8068;
638.7000;0.1278;3.7940;
639.0000;0.1286;3.8017;
639.3000;0.1392;3.8299;
639.6000;0.1302;3.8017;
639.9000;0.1294;3.7991;
640.2000;0.1286;3.7991;
640.5000;0.1302;3.7991;
640.8000;0.1294;3.7966;
641.1000;0.1384;3.8248;
641.4000;0.1278;3.7940;
641.7000;0.1302;3.8068;
642.0000;0.1286;3.8171;
642.3000;0.1286;3.8120;
642.6000;0.1286;3.8094;
642.9000;0.1286;3.8068;
643.2000;0.1302;3.8017;
643.5000;0.1221;3.7837;
643.8000;0.1278;3.8043;
644.1000;0.1286;3.8043;
644.4000;0.1278;3.8068;
644.7000;0.1278;3.8094;
645.0000;0.1270;3.8145;
645.3000;0.1254;3.8043;
645.6000;0.1278;3.8068;
645.9000;0.1278;3.8043;
646.2000;0.1286;3.8043;
646.5000;0.1278;3.8068;
646.8000;0.1205;3.7889;
647.1000;0.1294;3.8068;
647.4000;0.1270;3.8043;
647.7000;0.1270;3.8068;
648.0000;0.1335;3.8120;
648.3000;0.1237;3.7863;
648.6000;0.1302;3.7966;
648.9000;0.1254;3.7889;
649.2000;0.1254;3.7837;
649.5000;0.1278;3.7889;
649.8000;0.1205;3.7683;
650.1000;0.1278;3.7889;
650.4000;0.1278;3.7889;
650.7000;0.1262;3.7940;
651.0000;0.1270;3.7991;
651.3000;0.1286;3.8094;
651.6000;0.1278;3.8017;
651.9000;0.1286;3.8094;
652.2000;0.1335;3.8299;
652.5000;0.1270;3.8068;
652.8000;0.1245;3.8017;
653.1000;0.1286;3.8043;
653.4000;0.1286;3.8120;
653.7000;0.1270;3.8043;
654.0000;0.1245;3.8017;
654.3000;0.1270;3.8120;
654.6000;0.1270;3.8145;
654.9000;0.1213;3.8120;
655.2000;0.1262;3.8222;
655.5000;0.1270;3.8222;
655.8000;0.1270;3.8171;
656.1000;0.1245;3.8120;
656.4000;0.1270;3.8222;
656.7000;0.1262;3.8222;
657.0000;0.1270;3.8248;
657.3000;0.1254;3.8171;
657.6000;0.1245;3.8120;
657.9000;0.1262;3.8197;
658.2000;0.1262;3.8273;
658.5000;0.1278;3.8273;
658.8000;0.1262;3.8273;
659.1000;0.1278;3.8299;
659.4000;0.1254;3.8197;
659.7000;0.1270;3.8120;
660.0000;0.1278;3.8197;
660.3000;0.1262;3.8120;
660.6000;0.1197;3.7863;
660.9000;0.1262;3.8094;
661.2000;0.1254;3.8094;
661.5000;0.1237;3.8145;
661.8000;0.1262;3.8222;
662.1000;0.1197;3.8094;
662.4000;0.1156;3.8043;
662.7000;0.1286;3.8325;
663.0000;0.1237;3.8299;
663.3000;0.1384;3.8735;
663.6000;0.1245;3.8325;
663.9000;0.1254;3.8376;
664.2000;0.1237;3.8350;
664.5000;0.1262;3.8376;
664.8000;0.1180;3.8171;
665.1000;0.1262;3.8427;
665.4000;0.1262;3.8376;
665.7000;0.1254;3.8350;
666.0000;0.1254;3.8402;
666.3000;0.1278;3.8530;
666.6000;0.1245;3.8479;
666.9000;0.1237;3.8376;
667.2000;0.1229;3.8350;
667.5000;0.1237;3.8325;
667.8000;0.1245;3.8325;
668.1000;0.1237;3.8325;
668.4000;0.1245;3.8325;
668.7000;0.1254;3.8171;
669.0000;0.1213;3.8043;
669.3000;0.1245;3.8120;
669.6000;0.1237;3.8094;
669.9000;0.1229;3.8017;
670.2000;0.1237;3.8068;
670.5000;0.1245;3.8017;
670.8000;0.1229;3.8017;
671.1000;0.1213;3.8068;
671.4000;0.1245;3.8145;
671.7000;0.1229;3.8094;
672.0000;0.1254;3.8145;
672.3000;0.1245;3.8017;
672.6000;0.1245;3.7991;
672.9000;0.1254;3.8120;
673.2000;0.1237;3.8120;
673.5000;0.1278;3.8171;
673.8000;0.1237;3.8068;
674.1000;0.1254;3.8171;
674.4000;0.1270;3.8350;
674.7000;0.1262;3.8299;
675.0000;0.1270;3.8299;
675.3000;0.1262;3.8248;
675.6000;0.1245;3.8145;
675.9000;0.1237;3.8043;
676.2000;0.1245;3.8068;
676.5000;0.1245;3.8145;
676.8000;0.1245;3.8197;
677.1000;0.1278;3.8273;
677.4000;0.1302;3.8325;
677.7000;0.1229;3.8145;
678.0000;0.1229;3.8171;
678.3000;0.1302;3.8325;
678.6000;0.1245;3.8222;
678.9000;0.1221;3.8171;
679.2000;0.1245;3.8145;
679.5000;0.1245;3.8145;
679.8000;0.1254;3.8120;
680.1000;0.1221;3.8145;
680.4000;0.1270;3.8273;
680.7000;0.1229;3.8094;
681.0000;0.1254;3.8171;
681.3000;0.1237;3.8145;
681.6000;0.1237;3.8197;
681.9000;0.1311;3.8376;
682.2000;0.1229;3.8222;
682.5000;0.1237;3.8197;
682.8000;0.1245;3.8197;
683.1000;0.1221;3.8120;
683.4000;0.1221;3.8145;
683.7000;0.1172;3.8017;
684.0000;0.1229;3.8068;
684.3000;0.1245;3.8171;
684.6000;0.1237;3.8145;
684.9000;0.1131;3.7735;
685.2000;0.1123;3.7709;
685.5000;0.1148;3.7812;
685.8000;0.1156;3.7786;
686.1000;0.1213;3.7914;
686.4000;0.1205;3.7812;
686.7000;0.1229;3.7760;
687.0000;0.1229;3.7812;
687.3000;0.1197;3.7658;
687.6000;0.1221;3.7786;
687.9000;0.1245;3.7966;
688.2000;0.1221;3.7940;
688.5000;0.1245;3.8017;
688.8000;0.1229;3.8145;
689.1000;0.1254;3.8273;
689.4000;0.1229;3.8248;
689.7000;0.1140;3.7966;
690.0000;0.1221;3.8120;
690.3000;0.1237;3.8094;
690.6000;0.1213;3.7991;
690.9000;0.1229;3.8043;
691.2000;0.1221;3.8094;
691.5000;0.1205;3.7991;
691.8000;0.1180;3.7966;
692.1000;0.1221;3.7991;
692.4000;0.1221;3.7940;
692.7000;0.1221;3.7889;
693.0000;0.1278;3.8068;
693.3000;0.1221;3.7940;
693.6000;0.1229;3.7991;
693.9000;0.1229;3.8017;
694.2000;0.1302;3.8197;
694.5000;0.1237;3.8017;
694.8000;0.1148;3.7812;
695.1000;0.1221;3.7940;
695.4000;0.1213;3.7966;
695.7000;0.1229;3.7966;
696.0000;0.1245;3.8068;
696.3000;0.1221;3.8043;
696.6000;0.1221;3.7991;
696.9000;0.1213;3.8043;
697.2000;0.1229;3.8043;
697.5000;0.1254;3.8043;
697.8000;0.1221;3.7914;
698.1000;0.1245;3.8043;
698.4000;0.1302;3.8197;
698.7000;0.1229;3.8145;
699.0000;0.1213;3.8171;
699.3000;0.1262;3.8299;
699.6000;0.1270;3.8376;
699.9000;0.1237;3.8197;
700.2000;0.1229;3.8171;
700.5000;0.1205;3.8171;
700.8000;0.1245;3.8248;
701.1000;0.1229;3.8197;
701.4000;0.1229;3.8197;
701.7000;0.1221;3.8094;
702.0000;0.1221;3.7991;
702.3000;0.1229;3.7966;
702.6000;0.1221;3.7863;
702.9000;0.1237;3.7991;
703.2000;0.1197;3.7940;
703.5000;0.1221;3.8043;
703.8000;0.1213;3.8068;
704.1000;0.1213;3.8043;
704.4000;0.1229;3.8043;
704.7000;0.1213;3.8017;
705.0000;0.1221;3.8017;
705.3000;0.1172;3.7735;
705.6000;0.1237;3.7914;
705.9000;0.1229;3.7889;
706.2000;0.1123;3.7504;
706.5000;0.1213;3.7786;
706.8000;0.1205;3.7889;
707.1000;0.1221;3.7991;
707.4000;0.1229;3.7966;
707.7000;0.1205;3.7914;
708.0000;0.1229;3.7966;
708.3000;0.1229;3.7914;
708.6000;0.1221;3.7889;
708.9000;0.1197;3.7760;
709.2000;0.1286;3.7966;
709.5000;0.1205;3.7760;
709.8000;0.1229;3.7863;
710.1000;0.1237;3.7863;
710.4000;0.1254;3.7966;
710.7000;0.1213;3.7863;
711.0000;0.1213;3.7966;
711.3000;0.1229;3.8017;
711.6000;0.1197;3.7914;
711.9000;0.1237;3.7940;
712.2000;0.1213;3.7991;
712.5000;0.1221;3.8017;
712.8000;0.1213;3.7940;
713.1000;0.1213;3.7863;
713.4000;0.1213;3.7914;
713.7000;0.1213;3.7889;
714.0000;0.1278;3.8017;
714.3000;0.1172;3.7863;
714.6000;0.1197;3.7863;
714.9000;0.1213;3.7991;
715.2000;0.1205;3.7889;
715.5000;0.1221;3.7863;
715.8000;0.1221;3.7812;
716.1000;0.1229;3.7812;
716.4000;0.1213;3.7760;
716.7000;0.1237;3.7837;
717.0000;0.1115;3.7504;
717.3000;0.1197;3.7786;
717.6000;0.1197;3.7709;
717.9000;0.1229;3.7863;
718.2000;0.1221;3.7889;
718.5000;0.1197;3.7966;
718.8000;0.1213;3.7940;
719.1000;0.1229;3.7966;
719.4000;0.1221;3.7966;
719.7000;0.1213;3.7812;
720.0000;0.1205;3.7889;
720.3000;0.1205;3.7889;
720.6000;0.1237;3.7889;
720.9000;0.1213;3.7786;
721.2000;0.1237;3.7991;
721.5000;0.1213;3.7914;
721.8000;0.1213;3.7863;
722.1000;0.1205;3.7940;
722.4000;0.1213;3.7889;
722.7000;0.1245;3.8094;
723.0000;0.1180;3.7940;
723.3000;0.1197;3.7889;
723.6000;0.1205;3.7889;
723.9000;0.1213;3.7914;
724.2000;0.1205;3.7863;
724.5000;0.1156;3.7760;
724.8000;0.1221;3.7863;
725.1000;0.1221;3.7863;
725.4000;0.1205;3.7837;
725.7000;0.1221;3.7914;
726.0000;0.1245;3.7940;
726.3000;0.1229;3.7889;
726.6000;0.1229;3.7966;
726.9000;0.1229;3.7914;
727.2000;0.1148;3.7735;
727.5000;0.1319;3.8273;
727.8000;0.1213;3.7914;
728.1000;0.1213;3.7863;
728.4000;0.1188;3.7812;
728.7000;0.1213;3.7889;
729.0000;0.1205;3.7863;
729.3000;0.1221;3.7889;
729.6000;0.1099;3.7658;
729.9000;0.1197;3.7940;
730.2000;0.1221;3.7991;
730.5000;0.1221;3.7991;
730.8000;0.1148;3.7889;
731.1000;0.1205;3.8043;
731.4000;0.1229;3.7991;
731.7000;0.1197;3.7940;
732.0000;0.1229;3.7991;
732.3000;0.1278;3.8145;
732.6000;0.1221;3.7966;
732.9000;0.1213;3.7889;
733.2000;0.1221;3.7889;
733.5000;0.1205;3.7760;
733.8000;0.1172;3.7735;
734.1000;0.1229;3.7914;
734.4000;0.1229;3.7966;
734.7000;0.1205;3.7889;
735.0000;0.1237;3.7940;
735.3000;0.1197;3.7812;
735.6000;0.1180;3.7760;
735.9000;0.1148;3.7606;
736.2000;0.1197;3.7863;
736.5000;0.1197;3.7940;
736.8000;0.1311;3.8120;
737.1000;0.1164;3.7837;
737.4000;0.1197;3.7966;
737.7000;0.1197;3.7889;
738.0000;0.1213;3.7889;
738.3000;0.1221;3.7889;
738.6000;0.1180;3.7914;
738.9000;0.1213;3.7991;
739.2000;0.1237;3.8017;
739.5000;0.1213;3.7966;
739.8000;0.1205;3.7940;
740.1000;0.1213;3.8017;
740.4000;0.1172;3.7914;
740.7000;0.1229;3.8120;
741.0000;0.1205;3.8248;
741.3000;0.1213;3.8325;
741.6000;0.1221;3.8248;
741.9000;0.1221;3.8197;
742.2000;0.1213;3.8222;
742.5000;0.1205;3.8094;
742.8000;0.1197;3.8043;
743.1000;0.1237;3.8120;
743.4000;0.1213;3.8068;
743.7000;0.1205;3.7991;
744.0000;0.1197;3.7966;
744.3000;0.1180;3.7914;
744.6000;0.1205;3.7940;
744.9000;0.1221;3.7991;
745.2000;0.1213;3.7991;
745.5000;0.1172;3.7966;
745.8000;0.1197;3.8068;
746.1000;0.1164;3.7991;
746.4000;0.1197;3.8145;
746.7000;0.1229;3.8222;
747.0000;0.1197;3.8145;
747.3000;0.1229;3.8248;
747.6000;0.1205;3.8171;
747.9000;0.1197;3.8197;
748.2000;0.1197;3.8094;
748.5000;0.1213;3.8120;
748.8000;0.1213;3.8068;
749.1000;0.1197;3.8120;
749.4000;0.1180;3.8145;
749.7000;0.1205;3.8248;
750.0000;0.1205;3.8197;
750.3000;0.1213;3.8197;
750.6000;0.1205;3.8197;
750.9000;0.1197;3.8120;
751.2000;0.1197;3.8145;
751.5000;0.1205;3.8094;
751.8000;0.1205;3.8094;
752.1000;0.1205;3.8197;
752.4000;0.1188;3.8145;
752.7000;0.1205;3.8094;
753.0000;0.1205;3.8017;
753.3000;0.1188;3.7966;
753.6000;0.1205;3.7966;
753.9000;0.1180;3.8017;
754.2000;0.1197;3.8043;
754.5000;0.1319;3.8325;
754.8000;0.1197;3.7940;
755.1000;0.1205;3.7914;
755.4000;0.1172;3.7812;
755.7000;0.1213;3.7914;
756.0000;0.1229;3.8043;
756.3000;0.1229;3.8068;
756.6000;0.1180;3.7863;
756.9000;0.1205;3.7889;
757.2000;0.1205;3.7889;
757.5000;0.1221;3.7914;
757.8000;0.1115;3.7709;
758.1000;0.1188;3.8017;
758.4000;0.1213;3.7966;
758.7000;0.1197;3.7914;
759.0000;0.1245;3.8043;
759.3000;0.1197;3.7966;
759.6000;0.1237;3.8120;
759.9000;0.1123;3.7735;
760.2000;0.1172;3.7863;
760.5000;0.1221;3.8017;
760.8000;0.1197;3.7940;
761.1000;0.1278;3.8171;
761.4000;0.1229;3.7940;
761.7000;0.1205;3.7914;
762.0000;0.1237;3.8017;
762.3000;0.1205;3.7966;
762.6000;0.1197;3.7966;
762.9000;0.1188;3.8017;
763.2000;0.1188;3.8094;
763.5000;0.1221;3.8145;
763.8000;0.1164;3.7991;
764.1000;0.1172;3.7914;
764.4000;0.1197;3.8068;
764.7000;0.1140;3.7889;
765.0000;0.1188;3.7940;
765.3000;0.1213;3.8017;
765.6000;0.1197;3.8043;
765.9000;0.1188;3.8068;
766.2000;0.1205;3.8017;
766.5000;0.1180;3.7966;
766.8000;0.1197;3.8017;
767.1000;0.1180;3.8068;
767.4000;0.1229;3.8222;
767.7000;0.1188;3.8068;
768.0000;0.1197;3.7991;
768.3000;0.1188;3.7991;
768.6000;0.1188;3.7966;
768.9000;0.1180;3.7889;
769.2000;0.1180;3.7863;
769.5000;0.1197;3.7889;
769.8000;0.1205;3.8017;
770.1000;0.1213;3.8094;
770.4000;0.1172;3.8171;
770.7000;0.1197;3.8197;
771.0000;0.1188;3.8094;
771.3000;0.1205;3.8222;
771.6000;0.1148;3.7991;
771.9000;0.1172;3.7991;
772.2000;0.1254;3.8350;
772.5000;0.1197;3.8222;
772.8000;0.1188;3.8197;
773.1000;0.1180;3.8120;
773.4000;0.1213;3.8197;
773.7000;0.1205;3.8171;
774.0000;0.1205;3.8273;
774.3000;0.1213;3.8248;
774.6000;0.1188;3.8197;
774.9000;0.1213;3.8197;
775.2000;0.1180;3.8094;
775.5000;0.1205;3.8120;
775.8000;0.1205;3.8068;
776.1000;0.1188;3.8068;
776.4000;0.1229;3.8197;
776.7000;0.1205;3.8197;
777.0000;0.1188;3.8145;
777.3000;0.1213;3.8120;
777.6000;0.1221;3.8145;
777.9000;0.1213;3.8222;
778.2000;0.1188;3.8171;
778.5000;0.1213;3.8273;
778.8000;0.1221;3.8248;
779.1000;0.1229;3.8325;
779.4000;0.1205;3.8325;
779.7000;0.1221;3.8273;
780.0000;0.1197;3.8197;
780.3000;0.1188;3.8197;
780.6000;0.1172;3.8094;
780.9000;0.1205;3.8273;
781.2000;0.1188;3.8222;
781.5000;0.1180;3.8299;
781.8000;0.1205;3.8376;
782.1000;0.1197;3.8248;
782.4000;0.1180;3.8299;
782.7000;0.1188;3.8350;
783.0000;0.1205;3.8427;
783.3000;0.1262;3.8658;
783.6000;0.1180;3.8402;
783.9000;0.1229;3.8402;
784.2000;0.1197;3.8248;
784.5000;0.1197;3.8273;
784.8000;0.1262;3.8453;
785.1000;0.1213;3.8376;
785.4000;0.1188;3.8402;
785.7000;0.1213;3.8402;
786.0000;0.1115;3.8120;
786.3000;0.1188;3.8197;
786.6000;0.1172;3.8145;
786.9000;0.1188;3.8197;
787.2000;0.1188;3.8145;
787.5000;0.1172;3.8120;
787.8000;0.1180;3.8120;
788.1000;0.1197;3.8171;
788.4000;0.1180;3.8094;
788.7000;0.1188;3.8120;
789.0000;0.1197;3.8222;
789.3000;0.1180;3.8197;
789.6000;0.1197;3.8248;
789.9000;0.1262;3.8427;
790.2000;0.1197;3.8248;
790.5000;0.1197;3.8248;
790.8000;0.1188;3.8197;
791.1000;0.1131;3.8043;
791.4000;0.1188;3.8145;
791.7000;0.1197;3.8197;
792.0000;0.1197;3.8145;
792.3000;0.1197;3.8145;
792.6000;0.1180;3.8043;
792.9000;0.1197;3.7991;
793.2000;0.1180;3.8017;
793.5000;0.1205;3.8197;
793.8000;0.1164;3.8017;
794.1000;0.1197;3.8120;
794.4000;0.1270;3.8273;
794.7000;0.1164;3.8017;
795.0000;0.1221;3.8171;
795.3000;0.1156;3.7940;
795.6000;0.1205;3.8171;
795.9000;0.1172;3.8094;
796.2000;0.1180;3.8094;
796.5000;0.1172;3.8094;
796.8000;0.1180;3.8171;
797.1000;0.1188;3.8197;
797.4000;0.1205;3.8197;
797.7000;0.1221;3.8197;
798.0000;0.1188;3.8248;
798.3000;0.1205;3.8325;
798.6000;0.1188;3.8248;
798.9000;0.1221;3.8325;
799.2000;0.1180;3.8197;
799.5000;0.1205;3.8248;
799.8000;0.1180;3.8171;
800.1000;0.1197;3.8222;
800.4000;0.1091;3.7914;
800.7000;0.1205;3.8197;
801.0000;0.1197;3.8222;
801.3000;0.1131;3.7966;
801.6000;0.1156;3.7940;
801.9000;0.1294;3.8299;
802.2000;0.1286;3.8402;
802.5000;0.1262;3.8248;
802.8000;0.1188;3.8145;
803.1000;0.1172;3.8094;
803.4000;0.1205;3.8222;
803.7000;0.1172;3.8171;
804.0000;0.1156;3.8145;
804.3000;0.1156;3.8043;
804.6000;0.1148;3.7863;
804.9000;0.1213;3.8145;
805.2000;0.1213;3.8094;
805.5000;0.1172;3.8043;
805.8000;0.1188;3.8094;
806.1000;0.1188;3.8120;
806.4000;0.1180;3.8171;
806.7000;0.1180;3.8171;
807.0000;0.1180;3.8299;
807.3000;0.1172;3.8197;
807.6000;0.1286;3.8427;
807.9000;0.1188;3.8222;
808.2000;0.1148;3.8120;
808.5000;0.1148;3.8145;
808.8000;0.1205;3.8248;
809.1000;0.1180;3.8248;
809.4000;0.1180;3.8222;
809.7000;0.1197;3.8273;
810.0000;0.1164;3.8222;
810.3000;0.1188;3.8248;
810.6000;0.1188;3.8197;
810.9000;0.1205;3.8197;
811.2000;0.1115;3.7991;
811.5000;0.1197;3.8299;
811.8000;0.1197;3.8273;
812.1000;0.1197;3.8222;
812.4000;0.1205;3.8350;
812.7000;0.1180;3.8248;
813.0000;0.1164;3.8171;
813.3000;0.1172;3.8171;
813.6000;0.1188;3.8273;
813.9000;0.1205;3.8350;
814.2000;0.1148;3.8222;
814.5000;0.1197;3.8350;
814.8000;0.1213;3.8376;
815.1000;0.1213;3.8350;
815.4000;0.1197;3.8273;
815.7000;0.1188;3.8145;
816.0000;0.1197;3.8273;
816.3000;0.1205;3.8350;
816.6000;0.1180;3.8273;
816.9000;0.1221;3.8479;
817.2000;0.1131;3.8273;
817.5000;0.1205;3.8479;
817.8000;0.1148;3.8299;
818.1000;0.1197;3.8350;
818.4000;0.1197;3.8273;
818.7000;0.1172;3.8145;
819.0000;0.1221;3.8325;
819.3000;0.1172;3.8273;
819.6000;0.1221;3.8453;
819.9000;0.1180;3.8325;
820.2000;0.1188;3.8376;
820.5000;0.1188;3.8273;
820.8000;0.1213;3.8248;
821.1000;0.1188;3.8120;
821.4000;0.1156;3.8017;
821.7000;0.1229;3.8222;
822.0000;0.1188;3.8171;
822.3000;0.1172;3.8222;
822.6000;0.1180;3.8299;
822.9000;0.1213;3.8479;
823.2000;0.1172;3.8273;
823.5000;0.1188;3.8248;
823.8000;0.1221;3.8402;
824.1000;0.1197;3.8325;
824.4000;0.1262;3.8479;
824.7000;0.1131;3.8120;
825.0000;0.1213;3.8325;
825.3000;0.1197;3.8248;
825.6000;0.1180;3.8197;
825.9000;0.1205;3.8273;
826.2000;0.1180;3.8273;
826.5000;0.1180;3.8299;
826.8000;0.1188;3.8350;
827.1000;0.1205;3.8350;
827.4000;0.1164;3.8197;
827.7000;0.1188;3.8248;
828.0000;0.1180;3.8248;
828.3000;0.1188;3.8273;
828.6000;0.1164;3.8273;
828.9000;0.1188;3.8350;
829.2000;0.1172;3.8325;
829.5000;0.1180;3.8299;
829.8000;0.1172;3.8325;
830.1000;0.1156;3.8197;
830.4000;0.1156;3.8068;
830.7000;0.1205;3.8171;
831.0000;0.1180;3.8145;
831.3000;0.1172;3.8171;
831.6000;0.1213;3.8350;
831.9000;0.1188;3.8273;
832.2000;0.1197;3.8350;
832.5000;0.1164;3.8325;
832.8000;0.1188;3.8402;
833.1000;0.1172;3.8402;
833.4000;0.1172;3.8350;
833.7000;0.1180;3.8350;
834.0000;0.1302;3.8812;
834.3000;0.1205;3.8427;
834.6000;0.1172;3.8402;
834.9000;0.1172;3.8350;
835.2000;0.1188;3.8350;
835.5000;0.1172;3.8376;
835.8000;0.1229;3.8556;
836.1000;0.1188;3.8479;
836.4000;0.1180;3.8350;
836.7000;0.1180;3.8299;
837.0000;0.1172;3.8350;
837.3000;0.1213;3.8402;
837.6000;0.1172;3.8325;
837.9000;0.1180;3.8273;
838.2000;0.1188;3.8376;
838.5000;0.1197;3.8350;
838.8000;0.1197;3.8453;
839.1000;0.1188;3.8427;
839.4000;0.1172;3.8350;
839.7000;0.1221;3.8479;
840.0000;0.1197;3.8376;
840.3000;0.1156;3.8273;
840.6000;0.1188;3.8427;
840.9000;0.1164;3.8273;
841.2000;0.1148;3.8248;
841.5000;0.1237;3.8479;
841.8000;0.1180;3.8376;
842.1000;0.1294;3.8658;
842.4000;0.1213;3.8479;
842.7000;0.1180;3.8479;
843.0000;0.1205;3.8530;
843.3000;0.1107;3.8197;
843.6000;0.1343;3.8915;
843.9000;0.1156;3.8376;
844.2000;0.1221;3.8504;
844.5000;0.1115;3.8299;
844.8000;0.1180;3.8556;
845.1000;0.1221;3.8658;
845.4000;0.1172;3.8530;
845.7000;0.1164;3.8556;
846.0000;0.1188;3.8530;
846.3000;0.1180;3.8530;
846.6000;0.1188;3.8402;
846.9000;0.1188;3.8453;
847.2000;0.1188;3.8402;
847.5000;0.1188;3.8299;
847.8000;0.1197;3.8273;
848.1000;0.1180;3.8299;
848.4000;0.1197;3.8376;
848.7000;0.1188;3.8299;
849.0000;0.1180;3.8325;
849.3000;0.1188;3.8299;
849.6000;0.1180;3.8248;
849.9000;0.1180;3.8222;
850.2000;0.1180;3.8197;
850.5000;0.1188;3.8171;
850.8000;0.1180;3.8248;
851.1000;0.1213;3.8350;
851.4000;0.1188;3.8273;
851.7000;0.1205;3.8402;
852.0000;0.1188;3.8376;
852.3000;0.1197;3.8325;
852.6000;0.1188;3.8273;
852.9000;0.1294;3.8530;
853.2000;0.1180;3.8248;
853.5000;0.1197;3.8325;
853.8000;0.1205;3.8350;
854.1000;0.1107;3.8068;
854.4000;0.1188;3.8248;
854.7000;0.1188;3.8171;
855.0000;0.1205;3.8145;
855.3000;0.1180;3.8145;
855.6000;0.1164;3.8120;
855.9000;0.1148;3.8068;
856.2000;0.1197;3.8273;
856.5000;0.1188;3.8222;
856.8000;0.1172;3.8248;
857.1000;0.1197;3.8222;
857.4000;0.1205;3.8222;
857.7000;0.1180;3.8273;
858.0000;0.1188;3.8299;
858.3000;0.1188;3.8325;
858.6000;0.1188;3.8248;
858.9000;0.1213;3.8325;
859.2000;0.1123;3.8068;
859.5000;0.1205;3.8325;
859.8000;0.1205;3.8299;
860.1000;0.1188;3.8197;
860.4000;0.1197;3.8222;
860.7000;0.1205;3.8248;
861.0000;0.1180;3.8299;
861.3000;0.1180;3.8248;
861.6000;0.1188;3.8273;
861.9000;0.1164;3.8171;
862.2000;0.1188;3.8299;
862.5000;0.1221;3.8427;
862.8000;0.1180;3.8299;
863.1000;0.1180;3.8273;
863.4000;0.1180;3.8273;
863.7000;0.1197;3.8273;
864.0000;0.1164;3.8171;
864.3000;0.1254;3.8376;
864.6000;0.1180;3.8197;
864.9000;0.1156;3.8145;
865.2000;0.1213;3.8273;
865.5000;0.1188;3.8197;
865.8000;0.1131;3.7991;
866.1000;0.1197;3.8248;
866.4000;0.1197;3.8350;
866.7000;0.1180;3.8376;
867.0000;0.1188;3.8376;
867.3000;0.1262;3.8581;
867.6000;0.1188;3.8427;
867.9000;0.1197;3.8453;
868.2000;0.1180;3.8350;
868.5000;0.1164;3.8376;
868.8000;0.1172;3.8350;
869.1000;0.1188;3.8402;
869.4000;0.1205;3.8453;
869.7000;0.1180;3.8479;
870.0000;0.1213;3.8556;
870.3000;0.1180;3.8402;
870.6000;0.1262;3.8530;
870.9000;0.1180;3.8325;
871.2000;0.1164;3.8222;
871.5000;0.1164;3.8248;
871.8000;0.1180;3.8325;
872.1000;0.1172;3.8350;
872.4000;0.1172;3.8325;
872.7000;0.1180;3.8273;
873.0000;0.1197;3.8350;
873.3000;0.1180;3.8299;
873.6000;0.1188;3.8299;
873.9000;0.1180;3.8350;
874.2000;0.1213;3.8453;
874.5000;0.1172;3.8427;
874.8000;0.1180;3.8325;
875.1000;0.1197;3.8402;
875.4000;0.1140;3.8222;
875.7000;0.1180;3.8325;
876.0000;0.1180;3.8325;
876.3000;0.1164;3.8325;
876.6000;0.1197;3.8402;
876.9000;0.1172;3.8427;
877.2000;0.1172;3.8402;
877.5000;0.1156;3.8453;
877.8000;0.1172;3.8581;
878.1000;0.1213;3.8735;
878.4000;0.1180;3.8453;
878.7000;0.1180;3.8504;
879.0000;0.1148;3.8402;
879.3000;0.1172;3.8402;
879.6000;0.1180;3.8402;
879.9000;0.1172;3.8427;
880.2000;0.1148;3.8248;
880.5000;0.1180;3.8325;
880.8000;0.1180;3.8325;
881.1000;0.1205;3.8325;
881.4000;0.1180;3.8248;
881.7000;0.1172;3.8248;
882.0000;0.1180;3.8350;
882.3000;0.1172;3.8376;
882.6000;0.1164;3.8376;
882.9000;0.1180;3.8299;
883.2000;0.1180;3.8222;
883.5000;0.1180;3.8120;
883.8000;0.1197;3.8197;
884.1000;0.1172;3.8145;
884.4000;0.1180;3.8171;
884.7000;0.1197;3.8222;
885.0000;0.1188;3.8145;
885.3000;0.1237;3.8197;
885.6000;0.1188;3.7991;
885.9000;0.1197;3.8068;
886.2000;0.1197;3.8043;
886.5000;0.1188;3.8094;
886.8000;0.1164;3.8145;
887.1000;0.1213;3.8197;
887.4000;0.1197;3.8171;
887.7000;0.1188;3.8094;
888.0000;0.1180;3.8120;
888.3000;0.1083;3.7837;
888.6000;0.1237;3.8197;
888.9000;0.1172;3.8068;
889.2000;0.1180;3.8068;
889.5000;0.1148;3.7889;
889.8000;0.1188;3.7966;
890.1000;0.1164;3.7914;
890.4000;0.1205;3.8068;
890.7000;0.1180;3.8068;
891.0000;0.1229;3.8299;
891.3000;0.1083;3.7837;
891.6000;0.1188;3.8120;
891.9000;0.1245;3.8402;
892.2000;0.1188;3.8145;
892.5000;0.1164;3.8120;
892.8000;0.1164;3.8043;
893.1000;0.1180;3.8043;
893.4000;0.1180;3.7966;
893.7000;0.1172;3.7940;
894.0000;0.1164;3.7966;
894.3000;0.1131;3.7863;
894.6000;0.1156;3.7966;
894.9000;0.1148;3.7966;
895.2000;0.1213;3.8197;
895.5000;0.1164;3.8094;
895.8000;0.1156;3.8043;
896.1000;0.1172;3.8120;
896.4000;0.1245;3.8350;
896.7000;0.1254;3.8402;
897.0000;0.1205;3.8248;
897.3000;0.1213;3.8350;
897.6000;0.1172;3.8350;
897.9000;0.1066;3.8094;
898.2000;0.1172;3.8453;
898.5000;0.1172;3.8453;
898.8000;0.1197;3.8453;
899.1000;0.1188;3.8453;
899.4000;0.1180;3.8427;
899.7000;0.1115;3.8248;
900.0000;0.1254;3.8684;
900.3000;0.1172;3.8427;
900.6000;0.1172;3.8299;
900.9000;0.1311;3.8710;
901.2000;0.1221;3.8350;
901.5000;0.1156;3.8171;
901.8000;0.1164;3.8171;
902.1000;0.1188;3.8273;
902.4000;0.1164;3.8222;
902.7000;0.1270;3.8504;
903.0000;0.1188;3.8171;
903.3000;0.1188;3.8145;
903.6000;0.1205;3.8197;
903.9000;0.1172;3.8197;
904.2000;0.1205;3.8222;
904.5000;0.1148;3.8068;
904.8000;0.1205;3.8171;
905.1000;0.1172;3.8120;
905.4000;0.1172;3.8222;
905.7000;0.1156;3.8145;
906.0000;0.1148;3.8197;
906.3000;0.1188;3.8222;
906.6000;0.1180;3.8094;
906.9000;0.1172;3.8145;
907.2000;0.1156;3.8120;
907.5000;0.1172;3.8197;
907.8000;0.1188;3.8273;
908.1000;0.1197;3.8299;
908.4000;0.1164;3.8299;
908.7000;0.1156;3.8248;
909.0000;0.1131;3.8248;
909.3000;0.1123;3.8248;
909.6000;0.1180;3.8350;
909.9000;0.1262;3.8556;
910.2000;0.1197;3.8299;
910.5000;0.1188;3.8504;
910.8000;0.1172;3.8504;
911.1000;0.1140;3.8427;
911.4000;0.1172;3.8504;
911.7000;0.1188;3.8530;
912.0000;0.1197;3.8453;
912.3000;0.1180;3.8427;
912.6000;0.1197;3.8427;
912.9000;0.1221;3.8530;
913.2000;0.1172;3.8376;
913.5000;0.1164;3.8376;
913.8000;0.1180;3.8402;
914.1000;0.1180;3.8427;
914.4000;0.1197;3.8479;
914.7000;0.1156;3.8376;
915.0000;0.1221;3.8581;
915.3000;0.1148;3.8325;
915.6000;0.1172;3.8427;
915.9000;0.1188;3.8479;
916.2000;0.1197;3.8453;
916.5000;0.1156;3.8427;
916.8000;0.1197;3.8607;
917.1000;0.1188;3.8607;
917.4000;0.1197;3.8633;
917.7000;0.1188;3.8633;
918.0000;0.1188;3.8684;
918.3000;0.1237;3.8735;
918.6000;0.1213;3.8581;
918.9000;0.1197;3.8530;
919.2000;0.1180;3.8402;
919.5000;0.1180;3.8427;
919.8000;0.1148;3.8299;
920.1000;0.1180;3.8299;
920.4000;0.1131;3.8171;
920.7000;0.1180;3.8325;
921.0000;0.1180;3.8273;
921.3000;0.1237;3.8427;
921.6000;0.1172;3.8222;
921.9000;0.1172;3.8222;
922.2000;0.1180;3.8145;
922.5000;0.1221;3.8222;
922.8000;0.1221;3.8248;
923.1000;0.1156;3.8094;
923.4000;0.1245;3.8325;
923.7000;0.1188;3.8171;
924.0000;0.1140;3.7966;
924.3000;0.1197;3.8222;
924.6000;0.1180;3.8120;
924.9000;0.1188;3.8171;
925.2000;0.1188;3.8197;
925.5000;0.1172;3.8145;
925.8000;0.1164;3.8222;
926.1000;0.1188;3.8325;
926.4000;0.1164;3.8299;
926.7000;0.1197;3.8325;
927.0000;0.1188;3.8350;
927.3000;0.1172;3.8273;
927.6000;0.1180;3.8299;
927.9000;0.1180;3.8325;
928.2000;0.1213;3.8350;
928.5000;0.1164;3.8350;
928.8000;0.1164;3.8427;
929.1000;0.1188;3.8504;
929.4000;0.1221;3.8556;
929.7000;0.1180;3.8453;
930.0000;0.1188;3.8530;
930.3000;0.1172;3.8530;
930.6000;0.1172;3.8530;
930.9000;0.1197;3.8607;
931.2000;0.1148;3.8504;
931.5000;0.1156;3.8479;
931.8000;0.1172;3.8504;
932.1000;0.1123;3.8325;
932.4000;0.1286;3.8761;
932.7000;0.1180;3.8427;
933.0000;0.1213;3.8556;
933.3000;0.1319;3.8812;
933.6000;0.1221;3.8479;
933.9000;0.1205;3.8376;
934.2000;0.1115;3.8248;
934.5000;0.1164;3.8402;
934.8000;0.1180;3.8402;
935.1000;0.1172;3.8427;
935.4000;0.1148;3.8350;
935.7000;0.1156;3.8350;
936.0000;0.1188;3.8402;
936.3000;0.1180;3.8376;
936.6000;0.1156;3.8273;
936.9000;0.1123;3.8171;
937.2000;0.1180;3.8325;
937.5000;0.1164;3.8350;
937.8000;0.1180;3.8222;
938.1000;0.1180;3.8145;
938.4000;0.1188;3.8094;
938.7000;0.1188;3.8171;
939.0000;0.1180;3.8222;
939.3000;0.1091;3.7991;
939.6000;0.1180;3.8248;
939.9000;0.1180;3.8325;
940.2000;0.1148;3.8222;
940.5000;0.1172;3.8273;
940.8000;0.1180;3.8350;
941.1000;0.1188;3.8299;
941.4000;0.1180;3.8376;
941.7000;0.1172;3.8402;
942.0000;0.1180;3.8402;
942.3000;0.1188;3.8453;
942.6000;0.1188;3.8504;
942.9000;0.1180;3.8427;
943.2000;0.1172;3.8504;
943.5000;0.1180;3.8453;
943.8000;0.1180;3.8402;
944.1000;0.1164;3.8350;
944.4000;0.1188;3.8350;
944.7000;0.1172;3.8376;
945.0000;0.1188;3.8427;
945.3000;0.1180;3.8479;
945.6000;0.1180;3.8581;
945.9000;0.1131;3.8504;
946.2000;0.1148;3.8479;
946.5000;0.1188;3.8504;
946.8000;0.1205;3.8556;
947.1000;0.1278;3.8735;
947.4000;0.1172;3.8427;
947.7000;0.1205;3.8581;
948.0000;0.1262;3.8812;
948.3000;0.1164;3.8402;
948.6000;0.1197;3.8504;
948.9000;0.1188;3.8556;
949.2000;0.1180;3.8504;
949.5000;0.1156;3.8427;
949.8000;0.1180;3.8453;
950.1000;0.1188;3.8479;
950.4000;0.1213;3.8504;
950.7000;0.1172;3.8376;
951.0000;0.1197;3.8453;
951.3000;0.1164;3.8427;
951.6000;0.1131;3.8299;
951.9000;0.1180;3.8453;
952.2000;0.1172;3.8427;
952.5000;0.1188;3.8402;
952.8000;0.1172;3.8402;
953.1000;0.1172;3.8376;
953.4000;0.1180;3.8350;
953.7000;0.1180;3.8376;
954.0000;0.1164;3.8376;
954.3000;0.1172;3.8453;
954.6000;0.1180;3.8504;
954.9000;0.1188;3.8530;
955.2000;0.1188;3.8556;
955.5000;0.1164;3.8376;
955.8000;0.1164;3.8427;
956.1000;0.1131;3.8325;
956.4000;0.1213;3.8479;
956.7000;0.1213;3.8453;
957.0000;0.1229;3.8504;
957.3000;0.1172;3.8350;
957.6000;0.1197;3.8376;
957.9000;0.1148;3.8299;
958.2000;0.1172;3.8376;
958.5000;0.1197;3.8402;
958.8000;0.1213;3.8402;
959.1000;0.1205;3.8402;
959.4000;0.1188;3.8299;
959.7000;0.1156;3.8171;
960.0000;0.1188;3.8273;
960.3000;0.1156;3.8197;
960.6000;0.1180;3.8222;
960.9000;0.1156;3.8197;
961.2000;0.1180;3.8299;
961.5000;0.1188;3.8427;
961.8000;0.1180;3.8453;
962.1000;0.1172;3.8479;
962.4000;0.1148;3.8427;
962.7000;0.1188;3.8402;
963.0000;0.1140;3.8273;
963.3000;0.1172;3.8350;
963.6000;0.1180;3.8273;
963.9000;0.1188;3.8299;
964.2000;0.1180;3.8197;
964.5000;0.1188;3.8145;
964.8000;0.1188;3.8145;
965.1000;0.1205;3.8248;
965.4000;0.1188;3.8299;
965.7000;0.1180;3.8350;
966.0000;0.1164;3.8325;
966.3000;0.1148;3.8248;
966.6000;0.1148;3.8248;
966.9000;0.1115;3.8120;
967.2000;0.1156;3.8222;
967.5000;0.1180;3.8222;
967.8000;0.1180;3.8325;
968.1000;0.1197;3.8402;
968.4000;0.1172;3.8376;
968.7000;0.1091;3.8120;
969.0000;0.1180;3.8376;
969.3000;0.1188;3.8453;
969.6000;0.1180;3.8350;
969.9000;0.1164;3.8248;
970.2000;0.1205;3.8350;
970.5000;0.1180;3.8273;
970.8000;0.1197;3.8325;
971.1000;0.1164;3.8171;
971.4000;0.1172;3.8197;
971.7000;0.1180;3.8325;
972.0000;0.1074;3.8120;
972.3000;0.1180;3.8350;
972.6000;0.1262;3.8684;
972.9000;0.1180;3.8453;
973.2000;0.1205;3.8479;
973.5000;0.1164;3.8350;
973.8000;0.1188;3.8504;
974.1000;0.1156;3.8402;
974.4000;0.1180;3.8479;
974.7000;0.1180;3.8530;
975.0000;0.1213;3.8556;
975.3000;0.1205;3.8530;
975.6000;0.1188;3.8427;
975.9000;0.1180;3.8402;
976.2000;0.1188;3.8325;
976.5000;0.1172;3.8222;
976.8000;0.1172;3.8248;
977.1000;0.1164;3.8248;
977.4000;0.1180;3.8222;
977.7000;0.1180;3.8222;
978.0000;0.1197;3.8350;
978.3000;0.1188;3.8299;
978.6000;0.1172;3.8222;
978.9000;0.1172;3.8145;
979.2000;0.1188;3.8171;
979.5000;0.1221;3.8171;
979.8000;0.1172;3.8017;
980.1000;0.1172;3.8145;
980.4000;0.1188;3.8273;
980.7000;0.1197;3.8299;
981.0000;0.1164;3.8197;
981.3000;0.1172;3.8248;
981.6000;0.1115;3.7991;
981.9000;0.1188;3.8248;
982.2000;0.1180;3.8273;
982.5000;0.1172;3.8248;
982.8000;0.1197;3.8299;
983.1000;0.1180;3.8299;
983.4000;0.1172;3.8402;
983.7000;0.1254;3.8633;
984.0000;0.1066;3.8094;
984.3000;0.1172;3.8402;
984.6000;0.1164;3.8376;
984.9000;0.1197;3.8402;
985.2000;0.1197;3.8299;
985.5000;0.1148;3.8171;
985.8000;0.1172;3.8299;
986.1000;0.1172;3.8248;
986.4000;0.1180;3.8171;
986.7000;0.1188;3.8197;
987.0000;0.1164;3.8145;
987.3000;0.1172;3.8197;
987.6000;0.1172;3.8171;
987.9000;0.1164;3.8171;
988.2000;0.1180;3.8222;
988.5000;0.1123;3.8145;
988.8000;0.1180;3.8376;
989.1000;0.1197;3.8350;
989.4000;0.1172;3.8299;
989.7000;0.1172;3.8222;
990.0000;0.1205;3.8299;
990.3000;0.1172;3.8222;
990.6000;0.1164;3.8145;
990.9000;0.1229;3.8350;
991.2000;0.1164;3.8171;
991.5000;0.1180;3.8299;
991.8000;0.1197;3.8325;
992.1000;0.1278;3.8556;
992.4000;0.1180;3.8222;
992.7000;0.1172;3.8120;
993.0000;0.1172;3.8145;
993.3000;0.1172;3.8145;
993.6000;0.1188;3.8273;
993.9000;0.1221;3.8402;
994.2000;0.1172;3.8248;
994.5000;0.1164;3.8171;
994.8000;0.1172;3.8222;
995.1000;0.1188;3.8248;
995.4000;0.1197;3.8299;
995.7000;0.1156;3.8145;
996.0000;0.1140;3.8273;
996.3000;0.1180;3.8325;
996.6000;0.1197;3.8376;
996.9000;0.1180;3.8350;
997.2000;0.1262;3.8581;
997.5000;0.1172;3.8376;
997.8000;0.1164;3.8350;
998.1000;0.1254;3.8581;
998.4000;0.1188;3.8402;
998.7000;0.1188;3.8273;
999.0000;0.1050;3.7863;
999.3000;0.1172;3.8248;
999.6000;0.1172;3.8222;
999.9000;0.1180;3.8248;
1000.2000;0.1205;3.8350;
1000.5000;0.1164;3.8325;
1000.8000;0.1164;3.8325;
1001.1000;0.1180;3.8376;
1001.4000;0.1172;3.8325;
1001.7000;0.1188;3.8427;
1002.0000;0.1188;3.8325;
1002.3000;0.1164;3.8376;
1002.6000;0.1164;3.8325;
1002.9000;0.1156;3.8376;
1003.2000;0.1180;3.8376;
1003.5000;0.1164;3.8376;
1003.8000;0.1148;3.8299;
1004.1000;0.1099;3.8171;
1004.4000;0.1164;3.8427;
1004.7000;0.1205;3.8556;
1005.0000;0.1172;3.8479;
1005.3000;0.1180;3.8504;
1005.6000;0.1164;3.8453;
1005.9000;0.1188;3.8402;
1006.2000;0.1091;3.8171;
1006.5000;0.1286;3.8684;
1006.8000;0.1172;3.8402;
1007.1000;0.1188;3.8376;
1007.4000;0.1156;3.8299;
1007.7000;0.1164;3.8350;
1008.0000;0.1172;3.8299;
1008.3000;0.1180;3.8325;
1008.6000;0.1164;3.8350;
1008.9000;0.1172;3.8325;
1009.2000;0.1188;3.8299;
1009.5000;0.1180;3.8325;
1009.8000;0.1164;3.8273;
1010.1000;0.1205;3.8325;
1010.4000;0.1197;3.8325;
1010.7000;0.1197;3.8350;
1011.0000;0.1205;3.8402;
1011.3000;0.1188;3.8402;
1011.6000;0.1205;3.8402;
1011.9000;0.1180;3.8427;
1012.2000;0.1180;3.8325;
1012.5000;0.1180;3.8376;
1012.8000;0.1172;3.8325;
1013.1000;0.1188;3.8376;
1013.4000;0.1156;3.8350;
1013.7000;0.1180;3.8350;
1014.0000;0.1172;3.8325;
1014.3000;0.1172;3.8402;
1014.6000;0.1229;3.8479;
1014.9000;0.1172;3.8325;
1015.2000;0.1205;3.8325;
1015.5000;0.1188;3.8273;
1015.8000;0.1180;3.8222;
1016.1000;0.1229;3.8376;
1016.4000;0.1205;3.8248;
1016.7000;0.1188;3.8299;
1017.0000;0.1140;3.8273;
1017.3000;0.1221;3.8453;
1017.6000;0.1188;3.8350;
1017.9000;0.1245;3.8607;
1018.2000;0.1172;3.8376;
1018.5000;0.1205;3.8350;
1018.8000;0.1172;3.8248;
1019.1000;0.1172;3.8248;
1019.4000;0.1180;3.8299;
1019.7000;0.1180;3.8325;
1020.0000;0.1140;3.8248;
1020.3000;0.1164;3.8273;
1020.6000;0.1164;3.8171;
1020.9000;0.1172;3.8222;
1021.2000;0.1197;3.8325;
1021.5000;0.1205;3.8479;
1021.8000;0.1172;3.8402;
1022.1000;0.1205;3.8427;
1022.4000;0.1172;3.8248;
1022.7000;0.1188;3.8197;
1023.0000;0.1164;3.8222;
1023.3000;0.1180;3.8299;
1023.6000;0.1180;3.8273;
1023.9000;0.1164;3.8273;
1024.2000;0.1172;3.8299;
1024.5000;0.1172;3.8376;
1024.8000;0.1188;3.8427;
1025.1000;0.1164;3.8402;
1025.4000;0.1197;3.8504;
1025.7000;0.1172;3.8479;
1026.0000;0.1180;3.8453;
1026.3000;0.1131;3.8273;
1026.6000;0.1172;3.8350;
1026.9000;0.1188;3.8453;
1027.2000;0.1188;3.8453;
1027.5000;0.1180;3.8427;
1027.8000;0.1164;3.8453;
1028.1000;0.1229;3.8633;
1028.4000;0.1148;3.8350;
1028.7000;0.1197;3.8402;
1029.0000;0.1164;3.8350;
1029.3000;0.1180;3.8530;
1029.6000;0.1188;3.8530;
1029.9000;0.1172;3.8479;
1030.2000;0.1172;3.8453;
1030.5000;0.1131;3.8248;
1030.8000;0.1180;3.8376;
1031.1000;0.1205;3.8402;
1031.4000;0.1050;3.7966;
1031.7000;0.1180;3.8402;
1032.0000;0.1180;3.8402;
1032.3000;0.1188;3.8479;
1032.6000;0.1237;3.8504;
1032.9000;0.1164;3.8350;
1033.2000;0.1164;3.8299;
1033.5000;0.1180;3.8350;
1033.8000;0.1172;3.8299;
1034.1000;0.1197;3.8325;
1034.4000;0.1197;3.8350;
1034.7000;0.1188;3.8325;
1035.0000;0.1148;3.8248;
1035.3000;0.1140;3.8120;
1035.6000;0.1180;3.8197;
1035.9000;0.1172;3.8273;
1036.2000;0.1180;3.8299;
1036.5000;0.1213;3.8453;
1036.8000;0.1180;3.8376;
1037.1000;0.1205;3.8402;
1037.4000;0.1188;3.8376;
1037.7000;0.1180;3.8299;
1038.0000;0.1197;3.8299;
1038.3000;0.1188;3.8248;
1038.6000;0.1180;3.8222;
1038.9000;0.1180;3.8273;
1039.2000;0.1172;3.8273;
1039.5000;0.1180;3.8273;
1039.8000;0.1197;3.8350;
1040.1000;0.1172;3.8299;
1040.4000;0.1164;3.8325;
1040.7000;0.1172;3.8325;
1041.0000;0.1156;3.8350;
1041.3000;0.1156;3.8325;
1041.6000;0.1164;3.8299;
1041.9000;0.1172;3.8350;
1042.2000;0.1270;3.8735;
1042.5000;0.1180;3.8530;
1042.8000;0.1107;3.8376;
1043.1000;0.1180;3.8556;
1043.4000;0.1180;3.8556;
1043.7000;0.1180;3.8530;
1044.0000;0.1197;3.8453;
1044.3000;0.1180;3.8479;
1044.6000;0.1205;3.8427;
1044.9000;0.1188;3.8427;
1045.2000;0.1164;3.8350;
1045.5000;0.1172;3.8479;
1045.8000;0.1188;3.8556;
1046.1000;0.1172;3.8453;
1046.4000;0.1164;3.8453;
1046.7000;0.1197;3.8504;
1047.0000;0.1205;3.8504;
1047.3000;0.1172;3.8479;
1047.6000;0.1172;3.8479;
1047.9000;0.1180;3.8376;
1048.2000;0.1197;3.8376;
1048.5000;0.1180;3.8325;
1048.8000;0.1205;3.8350;
1049.1000;0.1140;3.8171;
1049.4000;0.1172;3.8171;
1049.7000;0.1180;3.8222;
1050.0000;0.1221;3.8376;
1050.3000;0.1188;3.8171;
1050.6000;0.1188;3.8222;
1050.9000;0.1164;3.8248;
1051.2000;0.1188;3.8376;
1051.5000;0.1156;3.8402;
1051.8000;0.1148;3.8325;
1052.1000;0.1123;3.8248;
1052.4000;0.1099;3.8171;
1052.7000;0.1172;3.8350;
1053.0000;0.1156;3.8350;
1053.3000;0.1229;3.8530;
1053.6000;0.1180;3.8453;
1053.9000;0.1180;3.8350;
1054.2000;0.1180;3.8325;
1054.5000;0.1180;3.8350;
1054.8000;0.1172;3.8325;
1055.1000;0.1180;3.8325;
1055.4000;0.1180;3.8376;
1055.7000;0.1164;3.8325;
1056.0000;0.1197;3.8453;
1056.3000;0.1148;3.8350;
1056.6000;0.1172;3.8402;
1056.9000;0.1156;3.8273;
1057.2000;0.1164;3.8273;
1057.5000;0.1164;3.8273;
1057.8000;0.1180;3.8273;
1058.1000;0.1180;3.8325;
1058.4000;0.1172;3.8299;
1058.7000;0.1172;3.8299;
1059.0000;0.1197;3.8350;
1059.3000;0.1197;3.8325;
1059.6000;0.1180;3.8222;
1059.9000;0.1180;3.8273;
1060.2000;0.1197;3.8273;
1060.5000;0.1197;3.8299;
1060.8000;0.1148;3.8273;
1061.1000;0.1164;3.8350;
1061.4000;0.1197;3.8427;
1061.7000;0.1180;3.8427;
1062.0000;0.1172;3.8325;
1062.3000;0.1140;3.8273;
1062.6000;0.1164;3.8350;
1062.9000;0.1270;3.8735;
1063.2000;0.1156;3.8376;
1063.5000;0.1123;3.8376;
1063.8000;0.1156;3.8530;
1064.1000;0.1172;3.8556;
1064.4000;0.1205;3.8556;
1064.7000;0.1197;3.8556;
1065.0000;0.1188;3.8556;
1065.3000;0.1188;3.8556;
1065.6000;0.1188;3.8581;
1065.9000;0.1115;3.8453;
1066.2000;0.1123;3.8504;
1066.5000;0.1172;3.8633;
1066.8000;0.1180;3.8556;
1067.1000;0.1188;3.8607;
1067.4000;0.1180;3.8453;
1067.7000;0.1180;3.8530;
1068.0000;0.1172;3.8556;
1068.3000;0.1237;3.8658;
1068.6000;0.1180;3.8556;
1068.9000;0.1180;3.8530;
1069.2000;0.1229;3.8710;
1069.5000;0.1188;3.8556;
1069.8000;0.1197;3.8530;
1070.1000;0.1180;3.8504;
1070.4000;0.1180;3.8402;
1070.7000;0.1188;3.8556;
1071.0000;0.1172;3.8504;
1071.3000;0.1229;3.8633;
1071.6000;0.1156;3.8427;
1071.9000;0.1164;3.8402;
1072.2000;0.1180;3.8530;
1072.5000;0.1115;3.8299;
1072.8000;0.1164;3.8479;
1073.1000;0.1123;3.8376;
1073.4000;0.1156;3.8402;
1073.7000;0.1164;3.8504;
1074.0000;0.1148;3.8402;
1074.3000;0.1245;3.8735;
1074.6000;0.1188;3.8530;
1074.9000;0.1172;3.8530;
1075.2000;0.1156;3.8427;
1075.5000;0.1180;3.8479;
1075.8000;0.1180;3.8581;
1076.1000;0.1188;3.8530;
1076.4000;0.1180;3.8479;
1076.7000;0.1156;3.8402;
1077.0000;0.1172;3.8402;
1077.3000;0.1197;3.8453;
1077.6000;0.1180;3.8453;
1077.9000;0.1172;3.8607;
1078.2000;0.1156;3.8607;
1078.5000;0.1156;3.8658;
1078.8000;0.1164;3.8658;
1079.1000;0.1140;3.8530;
1079.4000;0.1180;3.8581;
1079.7000;0.1180;3.8504;
1080.0000;0.1164;3.8427;
1080.3000;0.1188;3.8453;
1080.6000;0.1164;3.8376;
1080.9000;0.1172;3.8376;
1081.2000;0.1197;3.8427;
1081.5000;0.1188;3.8453;
1081.8000;0.1172;3.8427;
1082.1000;0.1172;3.8504;
1082.4000;0.1156;3.8479;
1082.7000;0.1172;3.8556;
1083.0000;0.1221;3.8710;
1083.3000;0.1164;3.8479;
1083.6000;0.1172;3.8427;
1083.9000;0.1180;3.8479;
1084.2000;0.1197;3.8453;
1084.5000;0.1156;3.8427;
1084.8000;0.1180;3.8479;
1085.1000;0.1148;3.8402;
1085.4000;0.1148;3.8376;
1085.7000;0.1172;3.8479;
1086.0000;0.1131;3.8299;
1086.3000;0.1164;3.8376;
1086.6000;0.1172;3.8479;
1086.9000;0.1270;3.8710;
1087.2000;0.1172;3.8427;
1087.5000;0.1180;3.8402;
1087.8000;0.1172;3.8325;
1088.1000;0.1131;3.8197;
1088.4000;0.1197;3.8273;
1088.7000;0.1180;3.8248;
1089.0000;0.1213;3.8376;
1089.3000;0.1164;3.8325;
1089.6000;0.1156;3.8376;
1089.9000;0.1180;3.8427;
1090.2000;0.1140;3.8299;
1090.5000;0.1180;3.8299;
1090.8000;0.1188;3.8273;
1091.1000;0.1221;3.8402;
1091.4000;0.1197;3.8350;
1091.7000;0.1188;3.8273;
1092.0000;0.1148;3.8197;
1092.3000;0.1156;3.8273;
1092.6000;0.1172;3.8427;
1092.9000;0.1197;3.8530;
1093.2000;0.1180;3.8504;
1093.5000;0.1164;3.8479;
1093.8000;0.1180;3.8504;
1094.1000;0.1188;3.8479;
1094.4000;0.1148;3.8376;
1094.7000;0.1172;3.8453;
1095.0000;0.1164;3.8479;
1095.3000;0.1188;3.8556;
1095.6000;0.1172;3.8479;
1095.9000;0.1172;3.8479;
1096.2000;0.1172;3.8402;
1096.5000;0.1180;3.8402;
1096.8000;0.1188;3.8325;
1097.1000;0.1164;3.8299;
1097.4000;0.1197;3.8376;
1097.7000;0.1172;3.8325;
1098.0000;0.1197;3.8453;
1098.3000;0.1188;3.8453;
1098.6000;0.1172;3.8402;
1098.9000;0.1164;3.8402;
1099.2000;0.1164;3.8376;
1099.5000;0.1164;3.8376;
1099.8000;0.1180;3.8402;
1100.1000;0.1180;3.8607;
1100.4000;0.1164;3.8479;
1100.7000;0.1123;3.8299;
1101.0000;0.1180;3.8453;
1101.3000;0.1164;3.8350;
1101.6000;0.1123;3.8171;
1101.9000;0.1188;3.8427;
1102.2000;0.1172;3.8376;
1102.5000;0.1188;3.8325;
1102.8000;0.1164;3.8350;
1103.1000;0.1083;3.8145;
1103.4000;0.1180;3.8479;
1103.7000;0.1229;3.8530;
1104.0000;0.1172;3.8402;
1104.3000;0.1180;3.8402;
1104.6000;0.1172;3.8350;
1104.9000;0.1164;3.8299;
1105.2000;0.1148;3.8325;
1105.5000;0.1172;3.8504;
1105.8000;0.1180;3.8607;
1106.1000;0.1148;3.8556;
1106.4000;0.1050;3.8248;
1106.7000;0.1205;3.8556;
1107.0000;0.1180;3.8479;
1107.3000;0.1180;3.8504;
1107.6000;0.1180;3.8607;
1107.9000;0.1148;3.8658;
1108.2000;0.1180;3.8684;
1108.5000;0.1172;3.8607;
1108.8000;0.1148;3.8581;
1109.1000;0.1172;3.8556;
1109.4000;0.1164;3.8658;
1109.7000;0.1156;3.8658;
1110.0000;0.1164;3.8658;
1110.3000;0.1131;3.8504;
1110.6000;0.1156;3.8556;
1110.9000;0.1221;3.8735;
1111.2000;0.1172;3.8607;
1111.5000;0.1172;3.8633;
1111.8000;0.1205;3.8761;
1112.1000;0.1188;3.8658;
1112.4000;0.1270;3.8863;
1112.7000;0.1172;3.8607;
1113.0000;0.1172;3.8633;
1113.3000;0.1123;3.8504;
1113.6000;0.1188;3.8735;
1113.9000;0.1188;3.8710;
1114.2000;0.1172;3.8684;
1114.5000;0.1172;3.8633;
1114.8000;0.1156;3.8530;
1115.1000;0.1188;3.8658;
1115.4000;0.1221;3.8658;
1115.7000;0.1172;3.8581;
1116.0000;0.1180;3.8530;
1116.3000;0.1148;3.8453;
1116.6000;0.1107;3.8299;
1116.9000;0.1172;3.8504;
1117.2000;0.1140;3.8427;
1117.5000;0.1140;3.8427;
1117.8000;0.1172;3.8453;
1118.1000;0.1180;3.8427;
1118.4000;0.1131;3.8402;
1118.7000;0.1164;3.8556;
1119.0000;0.1294;3.8915;
1119.3000;0.1156;3.8427;
1119.6000;0.1188;3.8479;
1119.9000;0.1205;3.8556;
1120.2000;0.1262;3.8735;
1120.5000;0.1123;3.8402;
1120.8000;0.1213;3.8684;
1121.1000;0.1188;3.8556;
1121.4000;0.1221;3.8658;
1121.7000;0.1164;3.8504;
1122.0000;0.1237;3.8658;
1122.3000;0.1180;3.8453;
1122.6000;0.1180;3.8453;
1122.9000;0.1172;3.8504;
1123.2000;0.1237;3.8607;
1123.5000;0.1188;3.8581;
1123.8000;0.1156;3.8556;
1124.1000;0.1213;3.8735;
1124.4000;0.1180;3.8684;
1124.7000;0.1115;3.8504;
1125.0000;0.1172;3.8530;
1125.3000;0.1140;3.8427;
1125.6000;0.1172;3.8556;
1125.9000;0.1172;3.8530;
1126.2000;0.1172;3.8479;
1126.5000;0.1172;3.8530;
1126.8000;0.1172;3.8633;
1127.1000;0.1131;3.8530;
1127.4000;0.1164;3.8658;
1127.7000;0.1140;3.8479;
1128.0000;0.1180;3.8581;
1128.3000;0.1164;3.8427;
1128.6000;0.1131;3.8299;
1128.9000;0.1197;3.8427;
1129.2000;0.1205;3.8479;
1129.5000;0.1180;3.8427;
1129.8000;0.1245;3.8504;
1130.1000;0.1180;3.8402;
1130.4000;0.1156;3.8376;
1130.7000;0.1148;3.8350;
1131.0000;0.1148;3.8350;
1131.3000;0.1172;3.8350;
1131.6000;0.1107;3.8120;
1131.9000;0.1148;3.8197;
1132.2000;0.1156;3.8299;
1132.5000;0.1197;3.8376;
1132.8000;0.1083;3.8043;
1133.1000;0.1172;3.8248;
1133.4000;0.1172;3.8350;
1133.7000;0.1180;3.8350;
1134.0000;0.1229;3.8556;
1134.3000;0.1188;3.8504;
1134.6000;0.1197;3.8556;
1134.9000;0.1172;3.8556;
1135.2000;0.1172;3.8633;
1135.5000;0.1180;3.8607;
1135.8000;0.1164;3.8581;
1136.1000;0.1180;3.8633;
1136.4000;0.1245;3.8889;
1136.7000;0.1156;3.8581;
1137.0000;0.1099;3.8402;
1137.3000;0.1237;3.8787;
1137.6000;0.1156;3.8453;
1137.9000;0.1180;3.8479;
1138.2000;0.1164;3.8479;
1138.5000;0.1164;3.8607;
1138.8000;0.1180;3.8633;
1139.1000;0.1156;3.8658;
1139.4000;0.1188;3.8761;
1139.7000;0.1156;3.8607;
1140.0000;0.1172;3.8633;
1140.3000;0.1213;3.8735;
1140.6000;0.1180;3.8633;
1140.9000;0.1172;3.8633;
1141.2000;0.1197;3.8684;
1141.5000;0.1148;3.8504;
1141.8000;0.1180;3.8581;
1142.1000;0.1164;3.8530;
1142.4000;0.1172;3.8530;
1142.7000;0.1197;3.8607;
1143.0000;0.1180;3.8479;
1143.3000;0.1148;3.8453;
1143.6000;0.1091;3.8120;
1143.9000;0.1221;3.8530;
1144.2000;0.1099;3.8094;
1144.5000;0.1180;3.8299;
1144.8000;0.1180;3.8222;
1145.1000;0.1107;3.8171;
1145.4000;0.1172;3.8350;
1145.7000;0.1172;3.8273;
1146.0000;0.1123;3.8145;
1146.3000;0.1229;3.8376;
1146.6000;0.1188;3.8350;
1146.9000;0.1180;3.8350;
1147.2000;0.1180;3.8299;
1147.5000;0.1197;3.8350;
1147.8000;0.1188;3.8402;
1148.1000;0.1188;3.8427;
1148.4000;0.1180;3.8376;
1148.7000;0.1164;3.8402;
1149.0000;0.1221;3.8607;
1149.3000;0.1164;3.8479;
1149.6000;0.1172;3.8427;
1149.9000;0.1180;3.8504;
1150.2000;0.1164;3.8453;
1150.5000;0.1180;3.8453;
1150.8000;0.1197;3.8556;
1151.1000;0.1188;3.8633;
1151.4000;0.1156;3.8479;
1151.7000;0.1180;3.8479;
1152.0000;0.1205;3.8479;
1152.3000;0.1156;3.8376;
1152.6000;0.1148;3.8350;
1152.9000;0.1172;3.8402;
1153.2000;0.1164;3.8479;
1153.5000;0.1172;3.8427;
1153.8000;0.1164;3.8376;
1154.1000;0.1205;3.8530;
1154.4000;0.1172;3.8453;
1154.7000;0.1172;3.8504;
1155.0000;0.1148;3.8402;
1155.3000;0.1188;3.8427;
1155.6000;0.1180;3.8427;
1155.9000;0.1172;3.8402;
1156.2000;0.1148;3.8273;
1156.5000;0.1156;3.8273;
1156.8000;0.1205;3.8299;
1157.1000;0.1164;3.8248;
1157.4000;0.1180;3.8402;
1157.7000;0.1123;3.8145;
1158.0000;0.1262;3.8633;
1158.3000;0.1172;3.8453;
1158.6000;0.1188;3.8504;
1158.9000;0.1164;3.8453;
1159.2000;0.1180;3.8658;
1159.5000;0.1164;3.8735;
1159.8000;0.1180;3.8761;
1160.1000;0.1091;3.8633;
1160.4000;0.1180;3.8863;
1160.7000;0.1164;3.8812;
1161.0000;0.1205;3.8863;
1161.3000;0.1188;3.8812;
1161.6000;0.1172;3.8761;
1161.9000;0.1188;3.8684;
1162.2000;0.1172;3.8684;
1162.5000;0.1172;3.8633;
1162.8000;0.1172;3.8581;
1163.1000;0.1164;3.8504;
1163.4000;0.1123;3.8350;
1163.7000;0.1164;3.8504;
1164.0000;0.1164;3.8556;
1164.3000;0.1213;3.8710;
1164.6000;0.1197;3.8658;
1164.9000;0.1172;3.8581;
1165.2000;0.1156;3.8504;
1165.5000;0.1156;3.8581;
1165.8000;0.1172;3.8556;
1166.1000;0.1172;3.8607;
1166.4000;0.1172;3.8581;
1166.7000;0.1213;3.8581;
1167.0000;0.1213;3.8530;
1167.3000;0.1205;3.8453;
1167.6000;0.1156;3.8376;
1167.9000;0.1091;3.8120;
1168.2000;0.1123;3.8197;
1168.5000;0.1172;3.8325;
1168.8000;0.1164;3.8299;
1169.1000;0.1156;3.8171;
1169.4000;0.1180;3.8222;
1169.7000;0.1164;3.8222;
1170.0000;0.1197;3.8222;
1170.3000;0.1237;3.8402;
1170.6000;0.1188;3.8222;
1170.9000;0.1254;3.8427;
1171.2000;0.1205;3.8273;
1171.5000;0.1172;3.8197;
1171.8000;0.1164;3.8248;
1172.1000;0.1172;3.8325;
1172.4000;0.1172;3.8273;
1172.7000;0.1172;3.8325;
1173.0000;0.1148;3.8325;
1173.3000;0.1172;3.8504;
1173.6000;0.1180;3.8479;
1173.9000;0.1172;3.8427;
1174.2000;0.1156;3.8453;
1174.5000;0.1172;3.8504;
1174.8000;0.1188;3.8504;
1175.1000;0.1156;3.8376;
1175.4000;0.1148;3.8402;
1175.7000;0.1156;3.8453;
1176.0000;0.1172;3.8453;
1176.3000;0.1172;3.8530;
1176.6000;0.1188;3.8556;
1176.9000;0.1188;3.8607;
1177.2000;0.1180;3.8581;
1177.5000;0.1164;3.8556;
1177.8000;0.1148;3.8530;
1178.1000;0.1213;3.8607;
1178.4000;0.1156;3.8504;
1178.7000;0.1172;3.8607;
1179.0000;0.1164;3.8581;
1179.3000;0.1131;3.8504;
1179.6000;0.1180;3.8479;
1179.9000;0.1115;3.8350;
1180.2000;0.1156;3.8530;
1180.5000;0.1164;3.8556;
1180.8000;0.1172;3.8633;
1181.1000;0.1278;3.8863;
1181.4000;0.1188;3.8556;
1181.7000;0.1172;3.8581;
1182.0000;0.1172;3.8504;
1182.3000;0.1115;3.8299;
1182.6000;0.1188;3.8479;
1182.9000;0.1188;3.8402;
1183.2000;0.1172;3.8402;
1183.5000;0.1188;3.8427;
1183.8000;0.1172;3.8427;
1184.1000;0.1197;3.8479;
1184.4000;0.1180;3.8376;
1184.7000;0.1172;3.8402;
1185.0000;0.1148;3.8273;
1185.3000;0.1188;3.8376;
1185.6000;0.1140;3.8299;
1185.9000;0.1180;3.8350;
1186.2000;0.1262;3.8581;
1186.5000;0.1172;3.8350;
1186.8000;0.1164;3.8299;
1187.1000;0.1172;3.8325;
1187.4000;0.1172;3.8325;
1187.7000;0.1188;3.8350;
1188.0000;0.1164;3.8222;
1188.3000;0.1188;3.8376;
1188.6000;0.1156;3.8427;
1188.9000;0.1164;3.8402;
1189.2000;0.1205;3.8479;
1189.5000;0.1172;3.8325;
1189.8000;0.1164;3.8376;
1190.1000;0.1140;3.8325;
1190.4000;0.1156;3.8427;
1190.7000;0.1164;3.8427;
1191.0000;0.1164;3.8453;
1191.3000;0.1254;3.8735;
1191.6000;0.1156;3.8479;
1191.9000;0.1172;3.8504;
1192.2000;0.1172;3.8530;
1192.5000;0.1172;3.8479;
1192.8000;0.1172;3.8453;
1193.1000;0.1148;3.8376;
1193.4000;0.1074;3.8120;
1193.7000;0.1172;3.8376;
1194.0000;0.1172;3.8350;
1194.3000;0.1172;3.8325;
1194.6000;0.1164;3.8171;
1194.9000;0.1140;3.8094;
1195.2000;0.1188;3.8273;
1195.5000;0.1237;3.8299;
1195.8000;0.1164;3.8068;
1196.1000;0.1172;3.8222;
1196.4000;0.1156;3.8325;
1196.7000;0.1180;3.8427;
1197.0000;0.1188;3.8402;
1197.3000;0.1164;3.8299;
1197.6000;0.1180;3.8350;
1197.9000;0.1180;3.8299;
1198.2000;0.1172;3.8222;
1198.5000;0.1172;3.8248;
1198.8000;0.1164;3.8222;
1199.1000;0.1197;3.8248;
1199.4000;0.1180;3.8273;
1199.7000;0.1172;3.8222;
1200.0000;0.1172;3.8171;
1200.3000;0.1172;3.8197;
1200.6000;0.1180;3.8145;
1200.9000;0.1197;3.8171;
1201.2000;0.1180;3.8145;
1201.5000;0.1164;3.8068;
1201.8000;0.1172;3.8171;
1202.1000;0.1205;3.8325;
1202.4000;0.1156;3.8273;
1202.7000;0.1197;3.8350;
1203.0000;0.1188;3.8273;
1203.3000;0.1140;3.8197;
1203.6000;0.1172;3.8248;
1203.9000;0.1115;3.8094;
1204.2000;0.1164;3.8222;
1204.5000;0.1188;3.8376;
1204.8000;0.1172;3.8299;
1205.1000;0.1140;3.8171;
1205.4000;0.1172;3.8222;
1205.7000;0.1180;3.8197;
1206.0000;0.1115;3.8068;
1206.3000;0.1164;3.8273;
1206.6000;0.1172;3.8273;
1206.9000;0.1188;3.8376;
1207.2000;0.1188;3.8248;
1207.5000;0.1172;3.8171;
1207.8000;0.1164;3.8273;
1208.1000;0.1172;3.8222;
1208.4000;0.1221;3.8402;
1208.7000;0.1180;3.8299;
1209.0000;0.1156;3.8248;
1209.3000;0.1188;3.8479;
1209.6000;0.1180;3.8479;
1209.9000;0.1164;3.8376;
1210.2000;0.1156;3.8299;
1210.5000;0.1164;3.8325;
1210.8000;0.1188;3.8325;
1211.1000;0.1213;3.8402;
1211.4000;0.1115;3.8197;
1211.7000;0.1172;3.8350;
1212.0000;0.1188;3.8350;
1212.3000;0.1172;3.8299;
1212.6000;0.1083;3.7966;
1212.9000;0.1180;3.8299;
1213.2000;0.1188;3.8350;
1213.5000;0.1180;3.8402;
1213.8000;0.1164;3.8350;
1214.1000;0.1188;3.8479;
1214.4000;0.1180;3.8427;
1214.7000;0.1180;3.8402;
1215.0000;0.1197;3.8427;
1215.3000;0.1131;3.8350;
1215.6000;0.1254;3.8812;
1215.9000;0.1270;3.8863;
1216.2000;0.1156;3.8453;
1216.5000;0.1180;3.8556;
1216.8000;0.1164;3.8607;
1217.1000;0.1180;3.8658;
1217.4000;0.1188;3.8607;
1217.7000;0.1164;3.8479;
1218.0000;0.1148;3.8581;
1218.3000;0.1164;3.8581;
1218.6000;0.1026;3.8094;
1218.9000;0.1180;3.8402;
1219.2000;0.1188;3.8479;
1219.5000;0.1180;3.8402;
1219.8000;0.1172;3.8325;
1220.1000;0.1172;3.8427;
1220.4000;0.1115;3.8299;
1220.7000;0.1229;3.8556;
1221.0000;0.1197;3.8402;
1221.3000;0.1172;3.8350;
1221.6000;0.1091;3.8145;
1221.9000;0.1172;3.8325;
1222.2000;0.1164;3.8299;
1222.5000;0.1262;3.8556;
1222.8000;0.1156;3.8325;
1223.1000;0.1172;3.8350;
1223.4000;0.1172;3.8350;
1223.7000;0.1229;3.8530;
1224.0000;0.1164;3.8299;
1224.3000;0.1286;3.8735;
1224.6000;0.1302;3.8684;
1224.9000;0.1180;3.8325;
1225.2000;0.1164;3.8171;
1225.5000;0.1172;3.8248;
1225.8000;0.1164;3.8197;
1226.1000;0.1180;3.8171;
1226.4000;0.1172;3.8248;
1226.7000;0.1172;3.8299;
1227.0000;0.1156;3.8299;
1227.3000;0.1197;3.8504;
1227.6000;0.1237;3.8658;
1227.9000;0.1237;3.8710;
1228.2000;0.1172;3.8530;
1228.5000;0.1164;3.8556;
1228.8000;0.1197;3.8684;
1229.1000;0.1188;3.8581;
1229.4000;0.1115;3.8350;
1229.7000;0.1188;3.8504;
1230.0000;0.1188;3.8453;
1230.3000;0.1172;3.8402;
1230.6000;0.1164;3.8299;
1230.9000;0.1164;3.8350;
1231.2000;0.1180;3.8402;
1231.5000;0.1164;3.8376;
1231.8000;0.1172;3.8427;
1232.1000;0.1164;3.8453;
1232.4000;0.1188;3.8581;
1232.7000;0.1156;3.8504;
1233.0000;0.1180;3.8658;
1233.3000;0.1131;3.8530;
1233.6000;0.1188;3.8684;
1233.9000;0.1172;3.8684;
1234.2000;0.1180;3.8710;
1234.5000;0.1164;3.8607;
1234.8000;0.1172;3.8607;
1235.1000;0.1172;3.8530;
1235.4000;0.1172;3.8556;
1235.7000;0.1205;3.8530;
1236.0000;0.1172;3.8402;
1236.3000;0.1188;3.8350;
1236.6000;0.1172;3.8376;
1236.9000;0.1164;3.8402;
1237.2000;0.1229;3.8658;
1237.5000;0.1164;3.8427;
1237.8000;0.1180;3.8427;
1238.1000;0.1286;3.8787;
1238.4000;0.1164;3.8376;
1238.7000;0.1156;3.8402;
1239.0000;0.1213;3.8530;
1239.3000;0.1188;3.8453;
1239.6000;0.1115;3.8299;
1239.9000;0.1148;3.8350;
1240.2000;0.1042;3.8017;
1240.5000;0.1107;3.8197;
1240.8000;0.1197;3.8504;
1241.1000;0.1172;3.8453;
1241.4000;0.1164;3.8453;
1241.7000;0.1237;3.8684;
1242.0000;0.1180;3.8504;
1242.3000;0.1180;3.8453;
1242.6000;0.1148;3.8479;
1242.9000;0.1107;3.8299;
1243.2000;0.1172;3.8530;
1243.5000;0.1254;3.8787;
1243.8000;0.1172;3.8710;
1244.1000;0.1197;3.8761;
1244.4000;0.1188;3.8735;
1244.7000;0.1172;3.8658;
1245.0000;0.1180;3.8735;
1245.3000;0.1164;3.8607;
1245.6000;0.1131;3.8427;
1245.9000;0.1164;3.8479;
1246.2000;0.1172;3.8530;
1246.5000;0.1197;3.8710;
1246.8000;0.1172;3.8658;
1247.1000;0.1172;3.8684;
1247.4000;0.1172;3.8607;
1247.7000;0.1164;3.8556;
1248.0000;0.1172;3.8735;
1248.3000;0.1148;3.8684;
1248.6000;0.1172;3.8710;
1248.9000;0.1164;3.8658;
1249.2000;0.1172;3.8684;
1249.5000;0.1156;3.8607;
1249.8000;0.1123;3.8453;
1250.1000;0.1180;3.8607;
1250.4000;0.1221;3.8658;
1250.7000;0.1172;3.8581;
1251.0000;0.1205;3.8658;
1251.3000;0.1197;3.8684;
1251.6000;0.1237;3.8761;
1251.9000;0.1140;3.8530;
1252.2000;0.1123;3.8479;
1252.5000;0.1172;3.8710;
1252.8000;0.1156;3.8735;
1253.1000;0.1205;3.8863;
1253.4000;0.1188;3.8658;
1253.7000;0.1148;3.8581;
1254.0000;0.1197;3.8658;
1254.3000;0.1180;3.8633;
1254.6000;0.1164;3.8504;
1254.9000;0.1180;3.8504;
1255.2000;0.1172;3.8479;
1255.5000;0.1180;3.8581;
1255.8000;0.1180;3.8633;
1256.1000;0.1237;3.8812;
1256.4000;0.1172;3.8556;
1256.7000;0.1180;3.8633;
1257.0000;0.1180;3.8787;
1257.3000;0.1180;3.8710;
1257.6000;0.1172;3.8658;
1257.9000;0.1164;3.8504;
1258.2000;0.1172;3.8530;
1258.5000;0.1180;3.8504;
1258.8000;0.1188;3.8556;
1259.1000;0.1180;3.8633;
1259.4000;0.1188;3.8658;
1259.7000;0.1188;3.8735;
1260.0000;0.1156;3.8633;
1260.3000;0.1156;3.8633;
1260.6000;0.1164;3.8633;
1260.9000;0.1188;3.8710;
1261.2000;0.1140;3.8633;
1261.5000;0.1180;3.8761;
1261.8000;0.1180;3.8787;
1262.1000;0.1172;3.8787;
1262.4000;0.1205;3.8633;
1262.7000;0.1164;3.8453;
1263.0000;0.1172;3.8504;
1263.3000;0.1148;3.8376;
1263.6000;0.1221;3.8479;
1263.9000;0.1058;3.8017;
1264.2000;0.1205;3.8556;
1264.5000;0.1172;3.8581;
1264.8000;0.1188;3.8556;
1265.1000;0.1164;3.8530;
1265.4000;0.1188;3.8684;
1265.7000;0.1188;3.8684;
1266.0000;0.1164;3.8556;
1266.3000;0.1164;3.8427;
1266.6000;0.1180;3.8479;
1266.9000;0.1197;3.8607;
1267.2000;0.1172;3.8581;
1267.5000;0.1156;3.8581;
1267.8000;0.1172;3.8684;
1268.1000;0.1188;3.8761;
1268.4000;0.1164;3.8658;
1268.7000;0.1164;3.8710;
1269.0000;0.1172;3.8838;
1269.3000;0.1180;3.8761;
1269.6000;0.1164;3.8735;
1269.9000;0.1172;3.8684;
1270.2000;0.1164;3.8658;
1270.5000;0.1229;3.8915;
1270.8000;0.1131;3.8710;
1271.1000;0.1091;3.8633;
1271.4000;0.1221;3.8992;
1271.7000;0.1148;3.8812;
1272.0000;0.1172;3.8863;
1272.3000;0.1188;3.8940;
1272.6000;0.1188;3.8812;
1272.9000;0.1197;3.8761;
1273.2000;0.1172;3.8761;
1273.5000;0.1164;3.8787;
1273.8000;0.1164;3.8787;
1274.1000;0.1164;3.8761;
1274.4000;0.1172;3.8710;
1274.7000;0.1156;3.8658;
1275.0000;0.1172;3.8633;
1275.3000;0.1188;3.8658;
1275.6000;0.1172;3.8581;
1275.9000;0.1172;3.8530;
1276.2000;0.1172;3.8556;
1276.5000;0.1188;3.8658;
1276.8000;0.1164;3.8658;
1277.1000;0.1091;3.8427;
1277.4000;0.1180;3.8581;
1277.7000;0.1205;3.8633;
1278.0000;0.1066;3.8120;
1278.3000;0.1294;3.9043;
1278.6000;0.1164;3.8710;
1278.9000;0.1164;3.8658;
1279.2000;0.1172;3.8581;
1279.5000;0.1172;3.8633;
1279.8000;0.1172;3.8684;
1280.1000;0.1188;3.8684;
1280.4000;0.1148;3.8581;
1280.7000;0.1164;3.8556;
1281.0000;0.1156;3.8556;
1281.3000;0.1197;3.8710;
1281.6000;0.1172;3.8607;
1281.9000;0.1172;3.8607;
1282.2000;0.1131;3.8402;
1282.5000;0.1180;3.8556;
1282.8000;0.1188;3.8658;
1283.1000;0.1156;3.8633;
1283.4000;0.1213;3.8812;
1283.7000;0.1164;3.8684;
1284.0000;0.1172;3.8735;
1284.3000;0.1148;3.8735;
1284.6000;0.1156;3.8710;
1284.9000;0.1123;3.8607;
1285.2000;0.1172;3.8684;
1285.5000;0.1164;3.8710;
1285.8000;0.1180;3.8735;
1286.1000;0.1180;3.8710;
1286.4000;0.1180;3.8812;
1286.7000;0.1180;3.8863;
1287.0000;0.1188;3.8863;
1287.3000;0.1164;3.8787;
1287.6000;0.1188;3.8761;
1287.9000;0.1172;3.8735;
1288.2000;0.1180;3.8787;
1288.5000;0.1164;3.8684;
1288.8000;0.1156;3.8633;
1289.1000;0.1197;3.8710;
1289.4000;0.1180;3.8658;
1289.7000;0.1164;3.8556;
1290.0000;0.1188;3.8607;
1290.3000;0.1188;3.8633;
1290.6000;0.1188;3.8633;
1290.9000;0.1107;3.8479;
1291.2000;0.1188;3.8710;
1291.5000;0.1188;3.8735;
1291.8000;0.1197;3.8812;
1292.1000;0.1180;3.8812;
1292.4000;0.1172;3.8787;
1292.7000;0.1188;3.8710;
1293.0000;0.1180;3.8710;
1293.3000;0.1164;3.8581;
1293.6000;0.1172;3.8581;
1293.9000;0.1172;3.8684;
1294.2000;0.1172;3.8658;
1294.5000;0.1172;3.8684;
1294.8000;0.1164;3.8658;
1295.1000;0.1164;3.8710;
1295.4000;0.1180;3.8761;
1295.7000;0.1172;3.8761;
1296.0000;0.1205;3.8812;
1296.3000;0.1197;3.8812;
1296.6000;0.1164;3.8761;
1296.9000;0.1205;3.8838;
1297.2000;0.1188;3.8863;
1297.5000;0.1172;3.8812;
1297.8000;0.1172;3.8838;
1298.1000;0.1294;3.9197;
1298.4000;0.1197;3.8889;
1298.7000;0.1164;3.8787;
1299.0000;0.1164;3.8889;
1299.3000;0.1156;3.8735;
1299.6000;0.1180;3.8658;
1299.9000;0.1172;3.8633;
1300.2000;0.1172;3.8684;
1300.5000;0.1172;3.8684;
1300.8000;0.1172;3.8710;
1301.1000;0.1099;3.8530;
1301.4000;0.1172;3.8735;
1301.7000;0.1172;3.8684;
1302.0000;0.1180;3.8735;
1302.3000;0.1188;3.8761;
1302.6000;0.1172;3.8658;
1302.9000;0.1180;3.8710;
1303.2000;0.1180;3.8787;
1303.5000;0.1180;3.8787;
1303.8000;0.1164;3.8761;
1304.1000;0.1164;3.8710;
1304.4000;0.1188;3.8710;
1304.7000;0.1180;3.8633;
1305.0000;0.1164;3.8581;
1305.3000;0.1156;3.8504;
1305.6000;0.1172;3.8504;
1305.9000;0.1156;3.8479;
1306.2000;0.1164;3.8504;
1306.5000;0.1164;3.8530;
1306.8000;0.1172;3.8556;
1307.1000;0.1205;3.8658;
1307.4000;0.1197;3.8658;
1307.7000;0.1172;3.8658;
1308.0000;0.1156;3.8581;
1308.3000;0.1180;3.8607;
1308.6000;0.1164;3.8633;
1308.9000;0.1156;3.8607;
1309.2000;0.1164;3.8633;
1309.5000;0.1172;3.8607;
1309.8000;0.1180;3.8633;
1310.1000;0.1172;3.8633;
1310.4000;0.1188;3.8684;
1310.7000;0.1172;3.8658;
1311.0000;0.1188;3.8658;
1311.3000;0.1148;3.8556;
1311.6000;0.1164;3.8504;
1311.9000;0.1188;3.8556;
1312.2000;0.1245;3.8658;
1312.5000;0.1180;3.8479;
1312.8000;0.1164;3.8453;
1313.1000;0.1205;3.8453;
1313.4000;0.1156;3.8350;
1313.7000;0.1180;3.8427;
1314.0000;0.1172;3.8453;
1314.3000;0.1148;3.8402;
1314.6000;0.1172;3.8530;
1314.9000;0.1148;3.8530;
1315.2000;0.1164;3.8658;
1315.5000;0.1172;3.8710;
1315.8000;0.1172;3.8761;
1316.1000;0.1172;3.8761;
1316.4000;0.1172;3.8735;
1316.7000;0.1164;3.8710;
1317.0000;0.1148;3.8581;
1317.3000;0.1156;3.8684;
1317.6000;0.1172;3.8761;
1317.9000;0.1180;3.8838;
1318.2000;0.1197;3.8838;
1318.5000;0.1180;3.8761;
1318.8000;0.1180;3.8633;
1319.1000;0.1180;3.8684;
1319.4000;0.1180;3.8684;
1319.7000;0.1172;3.8581;
1320.0000;0.1180;3.8530;
1320.3000;0.1156;3.8530;
1320.6000;0.1164;3.8530;
1320.9000;0.1172;3.8581;
1321.2000;0.1156;3.8504;
1321.5000;0.1164;3.8504;
1321.8000;0.1164;3.8581;
1322.1000;0.1164;3.8607;
1322.4000;0.1172;3.8581;
1322.7000;0.1180;3.8633;
1323.0000;0.1172;3.8658;
1323.3000;0.1148;3.8581;
1323.6000;0.1172;3.8658;
1323.9000;0.1156;3.8530;
1324.2000;0.1172;3.8658;
1324.5000;0.1172;3.8658;
1324.8000;0.1164;3.8684;
1325.1000;0.1221;3.8812;
1325.4000;0.1156;3.8607;
1325.7000;0.1172;3.8633;
1326.0000;0.1156;3.8658;
1326.3000;0.1188;3.8761;
1326.6000;0.1278;3.8889;
1326.9000;0.1156;3.8556;
1327.2000;0.1172;3.8633;
1327.5000;0.1140;3.8479;
1327.8000;0.1188;3.8556;
1328.1000;0.1164;3.8530;
1328.4000;0.1172;3.8504;
1328.7000;0.1172;3.8530;
1329.0000;0.1180;3.8504;
1329.3000;0.1197;3.8556;
1329.6000;0.1188;3.8607;
1329.9000;0.1172;3.8633;
1330.2000;0.1172;3.8607;
1330.5000;0.1172;3.8607;
1330.8000;0.1099;3.8453;
1331.1000;0.1197;3.8658;
1331.4000;0.1172;3.8710;
1331.7000;0.1172;3.8658;
1332.0000;0.1123;3.8581;
1332.3000;0.1164;3.8633;
1332.6000;0.1140;3.8479;
1332.9000;0.1164;3.8530;
1333.2000;0.1205;3.8633;
1333.5000;0.1180;3.8633;
1333.8000;0.1188;3.8710;
1334.1000;0.1188;3.8684;
1334.4000;0.1180;3.8607;
1334.7000;0.1172;3.8530;
1335.0000;0.1156;3.8556;
1335.3000;0.1180;3.8658;
1335.6000;0.1172;3.8658;
1335.9000;0.1164;3.8556;
1336.2000;0.1148;3.8530;
1336.5000;0.1164;3.8581;
1336.8000;0.1180;3.8607;
1337.1000;0.1180;3.8607;
1337.4000;0.1148;3.8504;
1337.7000;0.1140;3.8556;
1338.0000;0.1213;3.8735;
1338.3000;0.1180;3.8607;
1338.6000;0.1083;3.8299;
1338.9000;0.1164;3.8556;
1339.2000;0.1180;3.8633;
1339.5000;0.1188;3.8633;
1339.8000;0.1164;3.8607;
1340.1000;0.1164;3.8556;
1340.4000;0.1172;3.8633;
1340.7000;0.1180;3.8556;
1341.0000;0.1164;3.8504;
1341.3000;0.1156;3.8479;
1341.6000;0.1270;3.8838;
1341.9000;0.1180;3.8658;
1342.2000;0.1180;3.8735;
1342.5000;0.1180;3.8684;
1342.8000;0.1164;3.8530;
1343.1000;0.1213;3.8607;
1343.4000;0.1221;3.8658;
1343.7000;0.1197;3.8607;
1344.0000;0.1213;3.8633;
1344.3000;0.1188;3.8556;
1344.6000;0.1180;3.8581;
1344.9000;0.1180;3.8658;
1345.2000;0.1156;3.8710;
1345.5000;0.1123;3.8581;
1345.8000;0.1188;3.8710;
1346.1000;0.1172;3.8556;
1346.4000;0.1164;3.8504;
1346.7000;0.1164;3.8453;
1347.0000;0.1172;3.8453;
1347.3000;0.1164;3.8402;
1347.6000;0.1172;3.8427;
1347.9000;0.1172;3.8479;
1348.2000;0.1164;3.8530;
1348.5000;0.1156;3.8530;
1348.8000;0.1197;3.8761;
1349.1000;0.1148;3.8581;
1349.4000;0.1197;3.8710;
1349.7000;0.1180;3.8581;
1350.0000;0.1074;3.8248;
1350.3000;0.1180;3.8479;
1350.6000;0.1164;3.8453;
1350.9000;0.1172;3.8479;
1351.2000;0.1213;3.8581;
1351.5000;0.1148;3.8376;
1351.8000;0.1180;3.8504;
1352.1000;0.1164;3.8581;
1352.4000;0.1148;3.8479;
1352.7000;0.1172;3.8504;
1353.0000;0.1180;3.8556;
1353.3000;0.1180;3.8479;
1353.6000;0.1172;3.8504;
1353.9000;0.1140;3.8453;
1354.2000;0.1156;3.8479;
1354.5000;0.1188;3.8504;
1354.8000;0.1180;3.8504;
1355.1000;0.1188;3.8581;
1355.4000;0.1197;3.8633;
1355.7000;0.1180;3.8684;
1356.0000;0.1229;3.8889;
1356.3000;0.1180;3.8761;
1356.6000;0.1180;3.8761;
1356.9000;0.1172;3.8915;
1357.2000;0.1148;3.8838;
1357.5000;0.1164;3.8761;
1357.8000;0.1172;3.8735;
1358.1000;0.1188;3.8710;
1358.4000;0.1188;3.8735;
1358.7000;0.1156;3.8735;
1359.0000;0.1148;3.8633;
1359.3000;0.1180;3.8761;
1359.6000;0.1188;3.8710;
1359.9000;0.1188;3.8761;
1360.2000;0.1172;3.8684;
1360.5000;0.1180;3.8735;
1360.8000;0.1164;3.8735;
1361.1000;0.1156;3.8710;
1361.4000;0.1188;3.8889;
1361.7000;0.1164;3.8812;
1362.0000;0.1140;3.8787;
1362.3000;0.1156;3.8761;
1362.6000;0.1180;3.8863;
1362.9000;0.1074;3.8504;
1363.2000;0.1180;3.8812;
1363.5000;0.1172;3.8812;
1363.8000;0.1164;3.8787;
1364.1000;0.1156;3.8633;
1364.4000;0.1148;3.8530;
1364.7000;0.1197;3.8607;
1365.0000;0.1188;3.8607;
1365.3000;0.1164;3.8556;
1365.6000;0.1140;3.8556;
1365.9000;0.1164;3.8658;
1366.2000;0.1188;3.8761;
1366.5000;0.1172;3.8658;
1366.8000;0.1172;3.8633;
1367.1000;0.1115;3.8530;
1367.4000;0.1197;3.8761;
1367.7000;0.1148;3.8607;
1368.0000;0.1172;3.8658;
1368.3000;0.1156;3.8607;
1368.6000;0.1172;3.8658;
1368.9000;0.1172;3.8684;
1369.2000;0.1164;3.8658;
1369.5000;0.1148;3.8607;
1369.8000;0.1156;3.8684;
1370.1000;0.1188;3.8812;
1370.4000;0.1270;3.9017;
1370.7000;0.1270;3.9146;
1371.0000;0.1172;3.8838;
1371.3000;0.1188;3.8863;
1371.6000;0.1172;3.8863;
1371.9000;0.1180;3.8863;
1372.2000;0.1172;3.8915;
1372.5000;0.1156;3.8761;
1372.8000;0.1205;3.8710;
1373.1000;0.1172;3.8658;
1373.4000;0.1172;3.8607;
1373.7000;0.1180;3.8607;
1374.0000;0.1131;3.8504;
1374.3000;0.1148;3.8581;
1374.6000;0.1172;3.8684;
1374.9000;0.1180;3.8787;
1375.2000;0.1164;3.8787;
1375.5000;0.1164;3.8812;
1375.8000;0.1156;3.8735;
1376.1000;0.1172;3.8838;
1376.4000;0.1237;3.8992;
1376.7000;0.1172;3.8761;
1377.0000;0.1156;3.8761;
1377.3000;0.1164;3.8761;
1377.6000;0.1164;3.8633;
1377.9000;0.1205;3.8735;
1378.2000;0.1156;3.8735;
1378.5000;0.1172;3.8735;
1378.8000;0.1156;3.8710;
1379.1000;0.1172;3.8658;
1379.4000;0.1148;3.8633;
1379.7000;0.1140;3.8658;
1380.0000;0.1140;3.8735;
1380.3000;0.1115;3.8710;
1380.6000;0.1180;3.8915;
1380.9000;0.1164;3.8889;
1381.2000;0.1180;3.8966;
1381.5000;0.1197;3.9017;
1381.8000;0.1180;3.8863;
1382.1000;0.1172;3.8735;
1382.4000;0.1172;3.8658;
1382.7000;0.1180;3.8658;
1383.0000;0.1213;3.8658;
1383.3000;0.1091;3.8222;
1383.6000;0.1180;3.8453;
1383.9000;0.1156;3.8402;
1384.2000;0.1172;3.8556;
1384.5000;0.1172;3.8607;
1384.8000;0.1164;3.8581;
1385.1000;0.1180;3.8658;
1385.4000;0.1188;3.8684;
1385.7000;0.1188;3.8684;
1386.0000;0.1180;3.8607;
1386.3000;0.1156;3.8581;
1386.6000;0.1213;3.8658;
1386.9000;0.1180;3.8581;
1387.2000;0.1164;3.8479;
1387.5000;0.1164;3.8530;
1387.8000;0.1172;3.8633;
1388.1000;0.1188;3.8633;
1388.4000;0.1156;3.8633;
1388.7000;0.1164;3.8607;
1389.0000;0.1180;3.8658;
1389.3000;0.1172;3.8658;
1389.6000;0.1148;3.8556;
1389.9000;0.1164;3.8607;
1390.2000;0.1172;3.8633;
1390.5000;0.1140;3.8530;
1390.8000;0.1172;3.8607;
1391.1000;0.1188;3.8710;
1391.4000;0.1172;3.8607;
1391.7000;0.1164;3.8684;
1392.0000;0.1180;3.8658;
1392.3000;0.1180;3.8633;
1392.6000;0.1148;3.8633;
1392.9000;0.1172;3.8838;
1393.2000;0.1172;3.8838;
1393.5000;0.1188;3.8915;
1393.8000;0.1164;3.8863;
1394.1000;0.1180;3.8863;
1394.4000;0.1172;3.8787;
1394.7000;0.1188;3.8735;
1395.0000;0.1156;3.8684;
1395.3000;0.1172;3.8710;
1395.6000;0.1148;3.8581;
1395.9000;0.1180;3.8658;
1396.2000;0.1164;3.8581;
1396.5000;0.1156;3.8530;
1396.8000;0.1164;3.8581;
1397.1000;0.1205;3.8684;
1397.4000;0.1172;3.8710;
1397.7000;0.1180;3.8735;
1398.0000;0.1180;3.8735;
1398.3000;0.1172;3.8735;
1398.6000;0.1148;3.8658;
1398.9000;0.1164;3.8735;
1399.2000;0.1188;3.8863;
1399.5000;0.1172;3.8863;
1399.8000;0.1091;3.8581;
