time/ms;Fluo/V;P700 deltaI/I x10³;
-199.8000;0.1197;3.8299;
-199.5000;0.1180;3.8273;
-199.2000;0.1180;3.8299;
-198.9000;0.1245;3.8504;
-198.6000;0.1188;3.8325;
-198.3000;0.1197;3.8299;
-198.0000;0.1180;3.8197;
-197.7000;0.1205;3.8222;
-197.4000;0.1213;3.8299;
-197.1000;0.1156;3.8120;
-196.8000;0.1197;3.8325;
-196.5000;0.1270;3.8504;
-196.2000;0.1205;3.8299;
-195.9000;0.1164;3.8222;
-195.6000;0.1205;3.8273;
-195.3000;0.1164;3.8171;
-195.0000;0.1188;3.8248;
-194.7000;0.1197;3.8222;
-194.4000;0.1188;3.8248;
-194.1000;0.1213;3.8325;
-193.8000;0.1172;3.8197;
-193.5000;0.1188;3.8197;
-193.2000;0.1221;3.8325;
-192.9000;0.1164;3.8248;
-192.6000;0.1221;3.8402;
-192.3000;0.1205;3.8325;
-192.0000;0.1229;3.8350;
-191.7000;0.1205;3.8273;
-191.4000;0.1221;3.8299;
-191.1000;0.1205;3.8222;
-190.8000;0.1180;3.8120;
-190.5000;0.1205;3.8145;
-190.2000;0.1205;3.8273;
-189.9000;0.1213;3.8273;
-189.6000;0.1221;3.8350;
-189.3000;0.1245;3.8453;
-189.0000;0.1245;3.8479;
-188.7000;0.1213;3.8453;
-188.4000;0.1213;3.8453;
-188.1000;0.1213;3.8427;
-187.8000;0.1123;3.8222;
-187.5000;0.1205;3.8402;
-187.2000;0.1172;3.8376;
-186.9000;0.1205;3.8427;
-186.6000;0.1197;3.8376;
-186.3000;0.1205;3.8376;
-186.0000;0.1197;3.8299;
-185.7000;0.1197;3.8350;
-185.4000;0.1197;3.8402;
-185.1000;0.1237;3.8530;
-184.8000;0.1229;3.8453;
-184.5000;0.1180;3.8350;
-184.2000;0.1164;3.8273;
-183.9000;0.1221;3.8479;
-183.6000;0.1205;3.8376;
-183.3000;0.1180;3.8273;
-183.0000;0.1188;3.8273;
-182.7000;0.1172;3.8325;
-182.4000;0.1213;3.8350;
-182.1000;0.1213;3.8325;
-181.8000;0.1205;3.8427;
-181.5000;0.1213;3.8427;
-181.2000;0.1205;3.8453;
-180.9000;0.1197;3.8402;
-180.6000;0.1221;3.8453;
-180.3000;0.1205;3.8427;
-180.0000;0.1221;3.8453;
-179.7000;0.1237;3.8453;
-179.4000;0.1188;3.8325;
-179.1000;0.1197;3.8376;
-178.8000;0.1213;3.8479;
-178.5000;0.1221;3.8453;
-178.2000;0.1180;3.8273;
-177.9000;0.1205;3.8273;
-177.6000;0.1213;3.8325;
-177.3000;0.1197;3.8273;
-177.0000;0.1188;3.8197;
-176.7000;0.1197;3.8325;
-176.4000;0.1221;3.8402;
-176.1000;0.1221;3.8453;
-175.8000;0.1213;3.8453;
-175.5000;0.1205;3.8453;
-175.2000;0.1180;3.8350;
-174.9000;0.1205;3.8427;
-174.6000;0.1172;3.8273;
-174.3000;0.1197;3.8248;
-174.0000;0.1180;3.8171;
-173.7000;0.1205;3.8299;
-173.4000;0.1205;3.8273;
-173.1000;0.1188;3.8222;
-172.8000;0.1205;3.8222;
-172.5000;0.1197;3.8222;
-172.2000;0.1213;3.8273;
-171.9000;0.1286;3.8427;
-171.6000;0.1213;3.8248;
-171.3000;0.1205;3.8222;
-171.0000;0.1205;3.8197;
-170.7000;0.1188;3.8171;
-170.4000;0.1197;3.8197;
-170.1000;0.1213;3.8325;
-169.8000;0.1172;3.8145;
-169.5000;0.1205;3.8248;
-169.2000;0.1188;3.8248;
-168.9000;0.1213;3.8325;
-168.6000;0.1221;3.8402;
-168.3000;0.1213;3.8350;
-168.0000;0.1197;3.8350;
-167.7000;0.1205;3.8325;
-167.4000;0.1221;3.8376;
-167.1000;0.1197;3.8248;
-166.8000;0.1156;3.8094;
-166.5000;0.1172;3.8197;
-166.2000;0.1254;3.8581;
-165.9000;0.1221;3.8479;
-165.6000;0.1197;3.8376;
-165.3000;0.1188;3.8325;
-165.0000;0.1188;3.8273;
-164.7000;0.1197;3.8299;
-164.4000;0.1237;3.8299;
-164.1000;0.1197;3.8171;
-163.8000;0.1205;3.8222;
-163.5000;0.1180;3.8171;
-163.2000;0.1262;3.8402;
-162.9000;0.1221;3.8350;
-162.6000;0.1188;3.8273;
-162.3000;0.1237;3.8376;
-162.0000;0.1262;3.8299;
-161.7000;0.1205;3.8222;
-161.4000;0.1197;3.8325;
-161.1000;0.1213;3.8325;
-160.8000;0.1205;3.8248;
-160.5000;0.1229;3.8273;
-160.2000;0.1237;3.8325;
-159.9000;0.1221;3.8248;
-159.6000;0.1229;3.8222;
-159.3000;0.1270;3.8248;
-159.0000;0.1245;3.8299;
-158.7000;0.1197;3.8222;
-158.4000;0.1213;3.8299;
-158.1000;0.1205;3.8273;
-157.8000;0.1197;3.8299;
-157.5000;0.1205;3.8222;
-157.2000;0.1188;3.8248;
-156.9000;0.1197;3.8248;
-156.6000;0.1188;3.8197;
-156.3000;0.1172;3.8171;
-156.0000;0.1213;3.8248;
-155.7000;0.1205;3.8171;
-155.4000;0.1197;3.8120;
-155.1000;0.1188;3.8120;
-154.8000;0.1188;3.8094;
-154.5000;0.1107;3.7812;
-154.2000;0.1197;3.8017;
-153.9000;0.1188;3.7966;
-153.6000;0.1172;3.7914;
-153.3000;0.1205;3.7940;
-153.0000;0.1164;3.7966;
-152.7000;0.1270;3.8325;
-152.4000;0.1188;3.8043;
-152.1000;0.1229;3.8222;
-151.8000;0.1294;3.8402;
-151.5000;0.1254;3.8248;
-151.2000;0.1205;3.8145;
-150.9000;0.1164;3.8043;
-150.6000;0.1205;3.8145;
-150.3000;0.1205;3.8171;
-150.0000;0.1213;3.8171;
-149.7000;0.1164;3.8068;
-149.4000;0.1205;3.8222;
-149.1000;0.1197;3.8120;
-148.8000;0.1237;3.8222;
-148.5000;0.1197;3.8068;
-148.2000;0.1213;3.8043;
-147.9000;0.1213;3.8068;
-147.6000;0.1205;3.8043;
-147.3000;0.1205;3.8094;
-147.0000;0.1197;3.8197;
-146.7000;0.1213;3.8273;
-146.4000;0.1205;3.8197;
-146.1000;0.1221;3.8273;
-145.8000;0.1205;3.8273;
-145.5000;0.1213;3.8273;
-145.2000;0.1205;3.8273;
-144.9000;0.1197;3.8273;
-144.6000;0.1180;3.8222;
-144.3000;0.1205;3.8273;
-144.0000;0.1197;3.8248;
-143.7000;0.1205;3.8299;
-143.4000;0.1197;3.8299;
-143.1000;0.1213;3.8350;
-142.8000;0.1221;3.8350;
-142.5000;0.1188;3.8145;
-142.2000;0.1205;3.8145;
-141.9000;0.1205;3.8171;
-141.6000;0.1237;3.8273;
-141.3000;0.1221;3.8171;
-141.0000;0.1197;3.8197;
-140.7000;0.1172;3.8171;
-140.4000;0.1188;3.8222;
-140.1000;0.1197;3.8299;
-139.8000;0.1188;3.8325;
-139.5000;0.1205;3.8325;
-139.2000;0.1188;3.8299;
-138.9000;0.1213;3.8273;
-138.6000;0.1286;3.8479;
-138.3000;0.1188;3.8350;
-138.0000;0.1197;3.8376;
-137.7000;0.1197;3.8350;
-137.4000;0.1197;3.8427;
-137.1000;0.1205;3.8427;
-136.8000;0.1254;3.8530;
-136.5000;0.1205;3.8402;
-136.2000;0.1156;3.8197;
-135.9000;0.1286;3.8581;
-135.6000;0.1213;3.8402;
-135.3000;0.1278;3.8633;
-135.0000;0.1205;3.8402;
-134.7000;0.1221;3.8427;
-134.4000;0.1205;3.8402;
-134.1000;0.1221;3.8530;
-133.8000;0.1197;3.8427;
-133.5000;0.1188;3.8402;
-133.2000;0.1188;3.8350;
-132.9000;0.1066;3.7863;
-132.6000;0.1205;3.8248;
-132.3000;0.1221;3.8325;
-132.0000;0.1213;3.8325;
-131.7000;0.1213;3.8248;
-131.4000;0.1213;3.8325;
-131.1000;0.1237;3.8299;
-130.8000;0.1180;3.8068;
-130.5000;0.1245;3.8120;
-130.2000;0.1213;3.7914;
-129.9000;0.1197;3.7940;
-129.6000;0.1172;3.7889;
-129.3000;0.1205;3.7914;
-129.0000;0.1213;3.7991;
-128.7000;0.1221;3.7940;
-128.4000;0.1197;3.7966;
-128.1000;0.1188;3.7914;
-127.8000;0.1213;3.7940;
-127.5000;0.1188;3.7914;
-127.2000;0.1188;3.7991;
-126.9000;0.1205;3.8197;
-126.6000;0.1229;3.8197;
-126.3000;0.1213;3.8222;
-126.0000;0.1213;3.8222;
-125.7000;0.1213;3.8350;
-125.4000;0.1213;3.8299;
-125.1000;0.1188;3.8299;
-124.8000;0.1197;3.8248;
-124.5000;0.1188;3.8273;
-124.2000;0.1197;3.8197;
-123.9000;0.1197;3.8197;
-123.6000;0.1188;3.8145;
-123.3000;0.1188;3.8094;
-123.0000;0.1197;3.8171;
-122.7000;0.1229;3.8299;
-122.4000;0.1213;3.8273;
-122.1000;0.1205;3.8222;
-121.8000;0.1221;3.8376;
-121.5000;0.1205;3.8273;
-121.2000;0.1229;3.8299;
-120.9000;0.1221;3.8222;
-120.6000;0.1205;3.8171;
-120.3000;0.1213;3.8145;
-120.0000;0.1197;3.8248;
-119.7000;0.1164;3.8197;
-119.4000;0.1180;3.8248;
-119.1000;0.1197;3.8145;
-118.8000;0.1180;3.8145;
-118.5000;0.1172;3.8120;
-118.2000;0.1213;3.8197;
-117.9000;0.1205;3.8171;
-117.6000;0.1205;3.8094;
-117.3000;0.1237;3.8171;
-117.0000;0.1205;3.8068;
-116.7000;0.1172;3.7966;
-116.4000;0.1205;3.8094;
-116.1000;0.1229;3.8171;
-115.8000;0.1205;3.8094;
-115.5000;0.1221;3.8197;
-115.2000;0.1197;3.8094;
-114.9000;0.1229;3.8197;
-114.6000;0.1197;3.8120;
-114.3000;0.1197;3.8094;
-114.0000;0.1205;3.8171;
-113.7000;0.1091;3.7837;
-113.4000;0.1197;3.8145;
-113.1000;0.1254;3.8222;
-112.8000;0.1221;3.8171;
-112.5000;0.1197;3.8197;
-112.2000;0.1197;3.8171;
-111.9000;0.1221;3.8248;
-111.6000;0.1229;3.8222;
-111.3000;0.1229;3.8273;
-111.0000;0.1221;3.8273;
-110.7000;0.1237;3.8248;
-110.4000;0.1180;3.8094;
-110.1000;0.1213;3.8197;
-109.8000;0.1213;3.8197;
-109.5000;0.1213;3.8248;
-109.2000;0.1205;3.8273;
-108.9000;0.1197;3.8273;
-108.6000;0.1197;3.8248;
-108.3000;0.1213;3.8222;
-108.0000;0.1188;3.8120;
-107.7000;0.1205;3.8222;
-107.4000;0.1172;3.8120;
-107.1000;0.1205;3.8299;
-106.8000;0.1221;3.8427;
-106.5000;0.1221;3.8402;
-106.2000;0.1270;3.8504;
-105.9000;0.1205;3.8325;
-105.6000;0.1254;3.8504;
-105.3000;0.1115;3.8120;
-105.0000;0.1188;3.8427;
-104.7000;0.1205;3.8350;
-104.4000;0.1205;3.8427;
-104.1000;0.1245;3.8427;
-103.8000;0.1164;3.8273;
-103.5000;0.1197;3.8299;
-103.2000;0.1205;3.8299;
-102.9000;0.1205;3.8350;
-102.6000;0.1180;3.8325;
-102.3000;0.1197;3.8350;
-102.0000;0.1188;3.8376;
-101.7000;0.1180;3.8427;
-101.4000;0.1180;3.8453;
-101.1000;0.1172;3.8427;
-100.8000;0.1188;3.8453;
-100.5000;0.1213;3.8453;
-100.2000;0.1213;3.8556;
-99.9000;0.1188;3.8453;
-99.6000;0.1197;3.8402;
-99.3000;0.1213;3.8453;
-99.0000;0.1205;3.8350;
-98.7000;0.1188;3.8248;
-98.4000;0.1205;3.8273;
-98.1000;0.1205;3.8248;
-97.8000;0.1180;3.8299;
-97.5000;0.1172;3.8222;
-97.2000;0.1205;3.8299;
-96.9000;0.1205;3.8248;
-96.6000;0.1205;3.8325;
-96.3000;0.1205;3.8402;
-96.0000;0.1180;3.8325;
-95.7000;0.1197;3.8453;
-95.4000;0.1229;3.8479;
-95.1000;0.1213;3.8453;
-94.8000;0.1188;3.8325;
-94.5000;0.1197;3.8299;
-94.2000;0.1205;3.8299;
-93.9000;0.1213;3.8222;
-93.6000;0.1188;3.8068;
-93.3000;0.1221;3.8222;
-93.0000;0.1205;3.8248;
-92.7000;0.1213;3.8197;
-92.4000;0.1205;3.8222;
-92.1000;0.1197;3.8222;
-91.8000;0.1213;3.8222;
-91.5000;0.1205;3.8171;
-91.2000;0.1221;3.8222;
-90.9000;0.1197;3.8248;
-90.6000;0.1197;3.8273;
-90.3000;0.1221;3.8299;
-90.0000;0.1197;3.8273;
-89.7000;0.1270;3.8479;
-89.4000;0.1213;3.8325;
-89.1000;0.1213;3.8120;
-88.8000;0.1229;3.8120;
-88.5000;0.1221;3.8145;
-88.2000;0.1197;3.8017;
-87.9000;0.1205;3.8043;
-87.6000;0.1188;3.8017;
-87.3000;0.1237;3.8043;
-87.0000;0.1188;3.8043;
-86.7000;0.1213;3.8145;
-86.4000;0.1164;3.8043;
-86.1000;0.1205;3.8145;
-85.8000;0.1237;3.8248;
-85.5000;0.1213;3.8248;
-85.2000;0.1213;3.8325;
-84.9000;0.1229;3.8299;
-84.6000;0.1164;3.8068;
-84.3000;0.1213;3.8248;
-84.0000;0.1213;3.8248;
-83.7000;0.1180;3.8145;
-83.4000;0.1213;3.8197;
-83.1000;0.1197;3.8222;
-82.8000;0.1188;3.8171;
-82.5000;0.1221;3.8299;
-82.2000;0.1254;3.8376;
-81.9000;0.1188;3.8222;
-81.6000;0.1229;3.8299;
-81.3000;0.1294;3.8504;
-81.0000;0.1205;3.8248;
-80.7000;0.1286;3.8427;
-80.4000;0.1188;3.8197;
-80.1000;0.1213;3.8171;
-79.8000;0.1221;3.8120;
-79.5000;0.1213;3.8120;
-79.2000;0.1197;3.8043;
-78.9000;0.1205;3.8197;
-78.6000;0.1262;3.8453;
-78.3000;0.1221;3.8402;
-78.0000;0.1213;3.8453;
-77.7000;0.1221;3.8581;
-77.4000;0.1197;3.8479;
-77.1000;0.1221;3.8479;
-76.8000;0.1197;3.8325;
-76.5000;0.1172;3.8248;
-76.2000;0.1221;3.8299;
-75.9000;0.1213;3.8248;
-75.6000;0.1205;3.8222;
-75.3000;0.1197;3.8248;
-75.0000;0.1213;3.8299;
-74.7000;0.1221;3.8376;
-74.4000;0.1229;3.8453;
-74.1000;0.1197;3.8350;
-73.8000;0.1205;3.8273;
-73.5000;0.1237;3.8350;
-73.2000;0.1205;3.8222;
-72.9000;0.1197;3.8248;
-72.6000;0.1180;3.8145;
-72.3000;0.1213;3.8248;
-72.0000;0.1205;3.8171;
-71.7000;0.1213;3.8120;
-71.4000;0.1197;3.8068;
-71.1000;0.1213;3.8094;
-70.8000;0.1213;3.8197;
-70.5000;0.1205;3.8273;
-70.2000;0.1213;3.8325;
-69.9000;0.1197;3.8273;
-69.6000;0.1205;3.8299;
-69.3000;0.1213;3.8273;
-69.0000;0.1213;3.8222;
-68.7000;0.1205;3.8120;
-68.4000;0.1180;3.8068;
-68.1000;0.1205;3.8171;
-67.8000;0.1197;3.8145;
-67.5000;0.1156;3.8043;
-67.2000;0.1229;3.8222;
-66.9000;0.1205;3.8197;
-66.6000;0.1148;3.8145;
-66.3000;0.1188;3.8273;
-66.0000;0.1197;3.8325;
-65.7000;0.1156;3.8171;
-65.4000;0.1188;3.8299;
-65.1000;0.1213;3.8427;
-64.8000;0.1123;3.8145;
-64.5000;0.1213;3.8402;
-64.2000;0.1221;3.8350;
-63.9000;0.1254;3.8453;
-63.6000;0.1188;3.8299;
-63.3000;0.1262;3.8453;
-63.0000;0.1229;3.8402;
-62.7000;0.1237;3.8402;
-62.4000;0.1197;3.8299;
-62.1000;0.1197;3.8376;
-61.8000;0.1213;3.8350;
-61.5000;0.1205;3.8299;
-61.2000;0.1180;3.8145;
-60.9000;0.1213;3.8299;
-60.6000;0.1156;3.8094;
-60.3000;0.1164;3.8222;
-60.0000;0.1213;3.8350;
-59.7000;0.1180;3.8299;
-59.4000;0.1205;3.8376;
-59.1000;0.1188;3.8402;
-58.8000;0.1205;3.8299;
-58.5000;0.1205;3.8299;
-58.2000;0.1205;3.8248;
-57.9000;0.1221;3.8299;
-57.6000;0.1205;3.8273;
-57.3000;0.1188;3.8350;
-57.0000;0.1237;3.8427;
-56.7000;0.1237;3.8453;
-56.4000;0.1229;3.8325;
-56.1000;0.1172;3.8145;
-55.8000;0.1213;3.8248;
-55.5000;0.1197;3.8222;
-55.2000;0.1197;3.8120;
-54.9000;0.1294;3.8376;
-54.6000;0.1205;3.8068;
-54.3000;0.1213;3.8145;
-54.0000;0.1205;3.8171;
-53.7000;0.1229;3.8325;
-53.4000;0.1188;3.8171;
-53.1000;0.1188;3.8222;
-52.8000;0.1221;3.8248;
-52.5000;0.1205;3.8120;
-52.2000;0.1180;3.8094;
-51.9000;0.1197;3.8197;
-51.6000;0.1197;3.8222;
-51.3000;0.1205;3.8273;
-51.0000;0.1213;3.8273;
-50.7000;0.1245;3.8350;
-50.4000;0.1197;3.8222;
-50.1000;0.1197;3.8350;
-49.8000;0.1197;3.8504;
-49.5000;0.1197;3.8530;
-49.2000;0.1213;3.8479;
-48.9000;0.1205;3.8453;
-48.6000;0.1197;3.8402;
-48.3000;0.1205;3.8402;
-48.0000;0.1229;3.8504;
-47.7000;0.1205;3.8479;
-47.4000;0.1229;3.8479;
-47.1000;0.1188;3.8453;
-46.8000;0.1115;3.8222;
-46.5000;0.1229;3.8504;
-46.2000;0.1205;3.8479;
-45.9000;0.1213;3.8402;
-45.6000;0.1197;3.8350;
-45.3000;0.1229;3.8453;
-45.0000;0.1197;3.8299;
-44.7000;0.1131;3.8145;
-44.4000;0.1188;3.8299;
-44.1000;0.1221;3.8325;
-43.8000;0.1034;3.7760;
-43.5000;0.1221;3.8273;
-43.2000;0.1180;3.8094;
-42.9000;0.1229;3.8197;
-42.6000;0.1180;3.8017;
-42.3000;0.1197;3.8017;
-42.0000;0.1213;3.8094;
-41.7000;0.1188;3.8094;
-41.4000;0.1245;3.8299;
-41.1000;0.1205;3.8248;
-40.8000;0.1197;3.8171;
-40.5000;0.1180;3.8222;
-40.2000;0.1197;3.8299;
-39.9000;0.1180;3.8427;
-39.6000;0.1197;3.8376;
-39.3000;0.1180;3.8222;
-39.0000;0.1197;3.8273;
-38.7000;0.1237;3.8402;
-38.4000;0.1180;3.8273;
-38.1000;0.1229;3.8376;
-37.8000;0.1205;3.8376;
-37.5000;0.1180;3.8299;
-37.2000;0.1237;3.8453;
-36.9000;0.1188;3.8325;
-36.6000;0.1213;3.8376;
-36.3000;0.1229;3.8376;
-36.0000;0.1229;3.8402;
-35.7000;0.1197;3.8273;
-35.4000;0.1221;3.8350;
-35.1000;0.1221;3.8453;
-34.8000;0.1197;3.8350;
-34.5000;0.1205;3.8402;
-34.2000;0.1197;3.8350;
-33.9000;0.1197;3.8299;
-33.6000;0.1205;3.8376;
-33.3000;0.1180;3.8350;
-33.0000;0.1188;3.8402;
-32.7000;0.1205;3.8453;
-32.4000;0.1221;3.8427;
-32.1000;0.1213;3.8402;
-31.8000;0.1197;3.8402;
-31.5000;0.1221;3.8479;
-31.2000;0.1213;3.8402;
-30.9000;0.1205;3.8325;
-30.6000;0.1197;3.8273;
-30.3000;0.1213;3.8376;
-30.0000;0.1197;3.8402;
-29.7000;0.1197;3.8427;
-29.4000;0.1197;3.8402;
-29.1000;0.1188;3.8376;
-28.8000;0.1205;3.8376;
-28.5000;0.1213;3.8402;
-28.2000;0.1221;3.8325;
-27.9000;0.1205;3.8248;
-27.6000;0.1197;3.8299;
-27.3000;0.1205;3.8325;
-27.0000;0.1213;3.8427;
-26.7000;0.1197;3.8402;
-26.4000;0.1188;3.8427;
-26.1000;0.1213;3.8427;
-25.8000;0.1205;3.8479;
-25.5000;0.1213;3.8504;
-25.2000;0.1197;3.8504;
-24.9000;0.1140;3.8402;
-24.6000;0.1197;3.8453;
-24.3000;0.1205;3.8479;
-24.0000;0.1221;3.8479;
-23.7000;0.1180;3.8376;
-23.4000;0.1213;3.8402;
-23.1000;0.1245;3.8530;
-22.8000;0.1213;3.8504;
-22.5000;0.1099;3.8094;
-22.2000;0.1213;3.8479;
-21.9000;0.1213;3.8556;
-21.6000;0.1188;3.8453;
-21.3000;0.1188;3.8427;
-21.0000;0.1229;3.8581;
-20.7000;0.1205;3.8479;
-20.4000;0.1172;3.8376;
-20.1000;0.1099;3.8017;
-19.8000;0.1188;3.8325;
-19.5000;0.1205;3.8402;
-19.2000;0.1172;3.8273;
-18.9000;0.1270;3.8556;
-18.6000;0.1245;3.8556;
-18.3000;0.1180;3.8325;
-18.0000;0.1164;3.8222;
-17.7000;0.1197;3.8273;
-17.4000;0.1172;3.8273;
-17.1000;0.1197;3.8299;
-16.8000;0.1197;3.8325;
-16.5000;0.1197;3.8273;
-16.2000;0.1197;3.8248;
-15.9000;0.1229;3.8325;
-15.6000;0.1197;3.8402;
-15.3000;0.1229;3.8479;
-15.0000;0.1205;3.8479;
-14.7000;0.1237;3.8607;
-14.4000;0.1286;3.8735;
-14.1000;0.1205;3.8453;
-13.8000;0.1237;3.8607;
-13.5000;0.1188;3.8479;
-13.2000;0.1188;3.8453;
-12.9000;0.1205;3.8530;
-12.6000;0.1197;3.8504;
-12.3000;0.1197;3.8504;
-12.0000;0.1229;3.8633;
-11.7000;0.1197;3.8530;
-11.4000;0.1229;3.8684;
-11.1000;0.1197;3.8530;
-10.8000;0.1205;3.8479;
-10.5000;0.1213;3.8479;
-10.2000;0.1180;3.8504;
-9.9000;0.1205;3.8633;
-9.6000;0.1205;3.8530;
-9.3000;0.1229;3.8607;
-9.0000;0.1074;3.8043;
-8.7000;0.1213;3.8453;
-8.4000;0.1197;3.8453;
-8.1000;0.1197;3.8427;
-7.8000;0.1188;3.8479;
-7.5000;0.1205;3.8530;
-7.2000;0.1074;3.8171;
-6.9000;0.1229;3.8479;
-6.6000;0.1229;3.8427;
-6.3000;0.1221;3.8479;
-6.0000;0.1270;3.8504;
-5.7000;0.1213;3.8427;
-5.4000;0.1213;3.8504;
-5.1000;0.1229;3.8427;
-4.8000;0.1213;3.8402;
-4.5000;0.1205;3.8427;
-4.2000;0.1197;3.8479;
-3.9000;0.1205;3.8556;
-3.6000;0.1213;3.8504;
-3.3000;0.1205;3.8453;
-3.0000;0.1197;3.8479;
-2.7000;0.1205;3.8453;
-2.4000;0.1188;3.8427;
-2.1000;0.1188;3.8427;
-1.8000;0.1197;3.8427;
-1.5000;0.1213;3.8376;
-1.2000;0.1197;3.8402;
-0.9000;0.1221;3.8427;
-0.6000;0.1213;3.8402;
-0.3000;0.1245;3.8479;
0.0000;0.1245;3.8479;
0.3000;0.1205;3.8145;
0.6000;0.1245;3.8376;
0.9000;0.1270;3.8607;
1.2000;0.1319;3.8863;
1.5000;0.1327;3.8940;
1.8000;0.1335;3.9094;
2.1000;0.1384;3.9274;
2.4000;0.1392;3.9428;
2.7000;0.1416;3.9530;
3.0000;0.1400;3.9479;
3.3000;0.1400;3.9556;
3.6000;0.1400;3.9556;
3.9000;0.1408;3.9633;
4.2000;0.1343;3.9479;
4.5000;0.1425;3.9684;
4.8000;0.1400;3.9607;
5.1000;0.1425;3.9787;
5.4000;0.1425;3.9787;
5.7000;0.1408;3.9761;
6.0000;0.1441;3.9864;
6.3000;0.1416;3.9890;
6.6000;0.1416;3.9890;
6.9000;0.1400;3.9941;
7.2000;0.1433;3.9967;
7.5000;0.1376;3.9787;
7.8000;0.1425;3.9915;
8.1000;0.1433;3.9890;
8.4000;0.1425;3.9890;
8.7000;0.1359;3.9710;
9.0000;0.1416;3.9915;
9.3000;0.1400;3.9890;
9.6000;0.1449;4.0018;
9.9000;0.1449;3.9992;
10.2000;0.1441;4.0018;
10.5000;0.1441;3.9992;
10.8000;0.1441;4.0018;
11.1000;0.1400;3.9992;
11.4000;0.1457;4.0120;
11.7000;0.1425;3.9992;
12.0000;0.1449;4.0043;
12.3000;0.1571;4.0428;
12.6000;0.1433;3.9967;
12.9000;0.1473;4.0043;
13.2000;0.1416;4.0018;
13.5000;0.1433;4.0018;
13.8000;0.1384;3.9915;
14.1000;0.1538;4.0377;
14.4000;0.1400;3.9992;
14.7000;0.1441;4.0095;
15.0000;0.1473;4.0146;
15.3000;0.1514;4.0274;
15.6000;0.1465;4.0120;
15.9000;0.1514;4.0172;
16.2000;0.1408;3.9941;
16.5000;0.1465;3.9992;
16.8000;0.1490;3.9967;
17.1000;0.1449;3.9915;
17.4000;0.1441;3.9915;
17.7000;0.1457;3.9915;
18.0000;0.1473;3.9967;
18.3000;0.1465;3.9864;
18.6000;0.1441;3.9813;
18.9000;0.1441;3.9813;
19.2000;0.1457;3.9838;
19.5000;0.1449;3.9941;
19.8000;0.1449;3.9915;
20.1000;0.1465;3.9941;
20.4000;0.1449;3.9890;
20.7000;0.1457;3.9992;
21.0000;0.1457;3.9992;
21.3000;0.1433;3.9967;
21.6000;0.1473;4.0069;
21.9000;0.1490;4.0043;
22.2000;0.1457;3.9967;
22.5000;0.1457;4.0018;
22.8000;0.1498;4.0095;
23.1000;0.1400;3.9787;
23.4000;0.1465;3.9992;
23.7000;0.1465;3.9890;
24.0000;0.1465;4.0018;
24.3000;0.1473;3.9967;
24.6000;0.1465;4.0018;
24.9000;0.1473;4.0018;
25.2000;0.1473;3.9992;
25.5000;0.1465;4.0018;
25.8000;0.1490;4.0095;
26.1000;0.1457;4.0095;
26.4000;0.1449;4.0120;
26.7000;0.1392;3.9890;
27.0000;0.1465;4.0120;
27.3000;0.1514;4.0249;
27.6000;0.1465;3.9992;
27.9000;0.1465;3.9864;
28.2000;0.1481;3.9890;
28.5000;0.1457;3.9736;
28.8000;0.1457;3.9761;
29.1000;0.1481;3.9941;
29.4000;0.1473;3.9864;
29.7000;0.1490;3.9915;
30.0000;0.1465;3.9941;
30.3000;0.1449;3.9890;
30.6000;0.1441;3.9813;
30.9000;0.1449;3.9787;
31.2000;0.1465;3.9890;
31.5000;0.1522;4.0043;
31.8000;0.1465;3.9992;
32.1000;0.1473;3.9915;
32.4000;0.1473;3.9890;
32.7000;0.1465;3.9967;
33.0000;0.1481;3.9915;
33.3000;0.1620;4.0223;
33.6000;0.1392;3.9633;
33.9000;0.1465;3.9813;
34.2000;0.1457;3.9864;
34.5000;0.1571;4.0197;
34.8000;0.1465;3.9941;
35.1000;0.1473;3.9864;
35.4000;0.1425;3.9684;
35.7000;0.1473;3.9813;
36.0000;0.1481;3.9838;
36.3000;0.1481;3.9787;
36.6000;0.1490;3.9813;
36.9000;0.1473;3.9761;
37.2000;0.1465;3.9736;
37.5000;0.1490;3.9864;
37.8000;0.1490;3.9915;
38.1000;0.1473;3.9941;
38.4000;0.1465;3.9941;
38.7000;0.1481;3.9915;
39.0000;0.1473;3.9967;
39.3000;0.1465;3.9967;
39.6000;0.1490;4.0018;
39.9000;0.1441;3.9941;
40.2000;0.1449;3.9967;
40.5000;0.1498;4.0095;
40.8000;0.1498;4.0120;
41.1000;0.1400;3.9890;
41.4000;0.1473;4.0095;
41.7000;0.1498;4.0172;
42.0000;0.1490;4.0095;
42.3000;0.1506;4.0069;
42.6000;0.1465;3.9864;
42.9000;0.1473;3.9941;
43.2000;0.1473;3.9915;
43.5000;0.1490;3.9864;
43.8000;0.1490;3.9864;
44.1000;0.1490;3.9915;
44.4000;0.1490;3.9992;
44.7000;0.1465;4.0018;
45.0000;0.1490;4.0043;
45.3000;0.1473;3.9915;
45.6000;0.1498;3.9967;
45.9000;0.1498;3.9992;
46.2000;0.1547;4.0043;
46.5000;0.1490;4.0018;
46.8000;0.1473;3.9941;
47.1000;0.1506;4.0018;
47.4000;0.1416;3.9761;
47.7000;0.1498;3.9967;
48.0000;0.1498;3.9992;
48.3000;0.1498;3.9992;
48.6000;0.1579;4.0146;
48.9000;0.1514;3.9967;
49.2000;0.1579;4.0172;
49.5000;0.1481;3.9864;
49.8000;0.1522;3.9967;
50.1000;0.1563;4.0069;
50.4000;0.1433;3.9838;
50.7000;0.1490;4.0018;
51.0000;0.1506;4.0043;
51.3000;0.1506;4.0120;
51.6000;0.1506;4.0018;
51.9000;0.1457;3.9941;
52.2000;0.1473;4.0018;
52.5000;0.1522;4.0146;
52.8000;0.1506;3.9992;
53.1000;0.1490;3.9915;
53.4000;0.1498;3.9941;
53.7000;0.1481;3.9992;
54.0000;0.1490;3.9992;
54.3000;0.1384;3.9787;
54.6000;0.1522;4.0120;
54.9000;0.1506;4.0146;
55.2000;0.1498;4.0146;
55.5000;0.1538;4.0249;
55.8000;0.1490;4.0069;
56.1000;0.1481;4.0018;
56.4000;0.1498;4.0069;
56.7000;0.1481;4.0069;
57.0000;0.1506;4.0146;
57.3000;0.1538;4.0172;
57.6000;0.1563;4.0249;
57.9000;0.1530;4.0223;
58.2000;0.1522;4.0223;
58.5000;0.1530;4.0197;
58.8000;0.1506;4.0043;
59.1000;0.1506;4.0069;
59.4000;0.1490;4.0069;
59.7000;0.1465;3.9941;
60.0000;0.1506;4.0095;
60.3000;0.1481;4.0043;
60.6000;0.1514;4.0069;
60.9000;0.1481;3.9915;
61.2000;0.1490;3.9890;
61.5000;0.1481;3.9813;
61.8000;0.1498;3.9915;
62.1000;0.1473;3.9941;
62.4000;0.1481;4.0018;
62.7000;0.1522;4.0146;
63.0000;0.1490;4.0018;
63.3000;0.1579;4.0172;
63.6000;0.1514;3.9992;
63.9000;0.1530;4.0095;
64.2000;0.1481;3.9915;
64.5000;0.1506;3.9864;
64.8000;0.1498;3.9864;
65.1000;0.1522;3.9864;
65.4000;0.1506;3.9838;
65.7000;0.1498;3.9864;
66.0000;0.1506;3.9890;
66.3000;0.1514;3.9915;
66.6000;0.1498;3.9864;
66.9000;0.1481;3.9838;
67.2000;0.1514;3.9941;
67.5000;0.1530;3.9915;
67.8000;0.1506;3.9890;
68.1000;0.1514;3.9864;
68.4000;0.1514;3.9941;
68.7000;0.1498;3.9915;
69.0000;0.1555;4.0043;
69.3000;0.1522;3.9890;
69.6000;0.1530;3.9890;
69.9000;0.1530;3.9864;
70.2000;0.1498;3.9864;
70.5000;0.1522;3.9813;
70.8000;0.1473;3.9710;
71.1000;0.1514;3.9915;
71.4000;0.1620;4.0249;
71.7000;0.1547;4.0018;
72.0000;0.1498;3.9941;
72.3000;0.1506;3.9890;
72.6000;0.1506;3.9915;
72.9000;0.1490;3.9941;
73.2000;0.1563;4.0095;
73.5000;0.1506;3.9915;
73.8000;0.1449;3.9787;
74.1000;0.1530;3.9967;
74.4000;0.1530;3.9941;
74.7000;0.1514;4.0018;
75.0000;0.1514;4.0069;
75.3000;0.1514;3.9967;
75.6000;0.1595;4.0172;
75.9000;0.1514;3.9992;
76.2000;0.1514;3.9941;
76.5000;0.1498;3.9967;
76.8000;0.1628;4.0326;
77.1000;0.1604;4.0351;
77.4000;0.1538;4.0197;
77.7000;0.1604;4.0480;
78.0000;0.1522;4.0120;
78.3000;0.1473;3.9941;
78.6000;0.1457;3.9941;
78.9000;0.1514;4.0018;
79.2000;0.1514;4.0120;
79.5000;0.1514;4.0095;
79.8000;0.1506;4.0069;
80.1000;0.1530;4.0069;
80.4000;0.1514;4.0018;
80.7000;0.1441;3.9838;
81.0000;0.1522;4.0069;
81.3000;0.1506;4.0043;
81.6000;0.1522;4.0095;
81.9000;0.1514;3.9992;
82.2000;0.1514;3.9967;
82.5000;0.1441;3.9633;
82.8000;0.1530;3.9890;
83.1000;0.1465;3.9864;
83.4000;0.1514;4.0018;
83.7000;0.1530;4.0018;
84.0000;0.1514;4.0146;
84.3000;0.1538;4.0146;
84.6000;0.1547;4.0095;
84.9000;0.1522;4.0018;
85.2000;0.1506;3.9864;
85.5000;0.1538;3.9915;
85.8000;0.1522;3.9864;
86.1000;0.1522;3.9992;
86.4000;0.1530;3.9992;
86.7000;0.1514;3.9992;
87.0000;0.1514;4.0043;
87.3000;0.1514;4.0043;
87.6000;0.1530;4.0043;
87.9000;0.1490;3.9890;
88.2000;0.1514;3.9967;
88.5000;0.1506;3.9915;
88.8000;0.1514;3.9967;
89.1000;0.1506;3.9915;
89.4000;0.1490;3.9890;
89.7000;0.1498;3.9941;
90.0000;0.1522;3.9941;
90.3000;0.1514;3.9915;
90.6000;0.1547;4.0095;
90.9000;0.1514;4.0018;
91.2000;0.1514;4.0069;
91.5000;0.1522;4.0069;
91.8000;0.1522;4.0069;
92.1000;0.1514;4.0043;
92.4000;0.1522;4.0095;
92.7000;0.1506;4.0043;
93.0000;0.1506;4.0069;
93.3000;0.1530;4.0146;
93.6000;0.1514;4.0172;
93.9000;0.1514;4.0146;
94.2000;0.1522;4.0197;
94.5000;0.1530;4.0274;
94.8000;0.1530;4.0249;
95.1000;0.1473;4.0069;
95.4000;0.1530;4.0223;
95.7000;0.1473;3.9992;
96.0000;0.1530;4.0095;
96.3000;0.1498;4.0018;
96.6000;0.1473;3.9915;
96.9000;0.1506;4.0018;
97.2000;0.1522;4.0043;
97.5000;0.1490;3.9967;
97.8000;0.1538;4.0146;
98.1000;0.1490;4.0043;
98.4000;0.1522;4.0018;
98.7000;0.1449;3.9761;
99.0000;0.1498;3.9967;
99.3000;0.1522;3.9992;
99.6000;0.1522;4.0018;
99.9000;0.1530;4.0069;
100.2000;0.1522;4.0018;
100.5000;0.1538;3.9992;
100.8000;0.1530;3.9967;
101.1000;0.1530;3.9992;
101.4000;0.1514;3.9915;
101.7000;0.1522;3.9941;
102.0000;0.1490;3.9813;
102.3000;0.1522;3.9890;
102.6000;0.1506;3.9813;
102.9000;0.1530;3.9915;
103.2000;0.1555;4.0069;
103.5000;0.1555;4.0172;
103.8000;0.1530;4.0095;
104.1000;0.1547;4.0043;
104.4000;0.1514;3.9941;
104.7000;0.1530;3.9915;
105.0000;0.1530;3.9864;
105.3000;0.1506;3.9838;
105.6000;0.1506;3.9864;
105.9000;0.1473;3.9787;
106.2000;0.1506;3.9890;
106.5000;0.1669;4.0403;
106.8000;0.1473;3.9915;
107.1000;0.1514;4.0043;
107.4000;0.1514;4.0043;
107.7000;0.1547;4.0095;
108.0000;0.1425;3.9684;
108.3000;0.1522;3.9967;
108.6000;0.1538;4.0043;
108.9000;0.1481;3.9864;
109.2000;0.1547;4.0043;
109.5000;0.1522;4.0018;
109.8000;0.1506;3.9967;
110.1000;0.1514;3.9915;
110.4000;0.1522;3.9941;
110.7000;0.1538;3.9890;
111.0000;0.1522;3.9890;
111.3000;0.1498;3.9787;
111.6000;0.1514;3.9890;
111.9000;0.1538;3.9992;
112.2000;0.1538;4.0043;
112.5000;0.1530;4.0043;
112.8000;0.1522;3.9941;
113.1000;0.1522;3.9864;
113.4000;0.1514;3.9813;
113.7000;0.1555;3.9890;
114.0000;0.1530;3.9890;
114.3000;0.1538;3.9967;
114.6000;0.1522;3.9864;
114.9000;0.1490;3.9813;
115.2000;0.1481;3.9761;
115.5000;0.1538;3.9992;
115.8000;0.1522;3.9941;
116.1000;0.1538;3.9915;
116.4000;0.1522;3.9787;
116.7000;0.1506;3.9838;
117.0000;0.1538;3.9992;
117.3000;0.1538;3.9941;
117.6000;0.1530;3.9915;
117.9000;0.1514;3.9838;
118.2000;0.1530;3.9864;
118.5000;0.1530;3.9915;
118.8000;0.1490;3.9813;
119.1000;0.1555;3.9915;
119.4000;0.1490;3.9787;
119.7000;0.1530;3.9967;
120.0000;0.1522;3.9941;
120.3000;0.1416;3.9659;
120.6000;0.1481;3.9890;
120.9000;0.1514;3.9941;
121.2000;0.1604;4.0095;
121.5000;0.1522;3.9864;
121.8000;0.1522;3.9838;
122.1000;0.1547;3.9890;
122.4000;0.1571;3.9967;
122.7000;0.1522;3.9941;
123.0000;0.1547;3.9967;
123.3000;0.1530;3.9967;
123.6000;0.1530;3.9915;
123.9000;0.1514;3.9864;
124.2000;0.1628;4.0095;
124.5000;0.1506;3.9710;
124.8000;0.1498;3.9736;
125.1000;0.1490;3.9710;
125.4000;0.1571;3.9967;
125.7000;0.1530;3.9967;
126.0000;0.1506;3.9941;
126.3000;0.1498;3.9864;
126.6000;0.1555;3.9941;
126.9000;0.1538;3.9992;
127.2000;0.1506;3.9967;
127.5000;0.1433;3.9684;
127.8000;0.1538;3.9890;
128.1000;0.1522;3.9864;
128.4000;0.1449;3.9710;
128.7000;0.1514;3.9890;
129.0000;0.1522;3.9915;
129.3000;0.1538;4.0018;
129.6000;0.1506;3.9992;
129.9000;0.1506;4.0018;
130.2000;0.1506;4.0069;
130.5000;0.1579;4.0223;
130.8000;0.1506;4.0043;
131.1000;0.1506;3.9967;
131.4000;0.1530;3.9864;
131.7000;0.1481;3.9633;
132.0000;0.1506;3.9761;
132.3000;0.1538;3.9838;
132.6000;0.1514;3.9813;
132.9000;0.1563;3.9941;
133.2000;0.1522;3.9915;
133.5000;0.1522;3.9915;
133.8000;0.1522;3.9864;
134.1000;0.1514;3.9890;
134.4000;0.1522;3.9915;
134.7000;0.1530;4.0018;
135.0000;0.1587;4.0197;
135.3000;0.1538;4.0018;
135.6000;0.1547;3.9941;
135.9000;0.1547;3.9941;
136.2000;0.1514;3.9992;
136.5000;0.1547;4.0043;
136.8000;0.1547;4.0043;
137.1000;0.1530;3.9941;
137.4000;0.1547;3.9967;
137.7000;0.1514;3.9915;
138.0000;0.1620;4.0172;
138.3000;0.1530;3.9967;
138.6000;0.1547;3.9915;
138.9000;0.1522;3.9813;
139.2000;0.1571;3.9967;
139.5000;0.1538;3.9890;
139.8000;0.1498;3.9633;
140.1000;0.1555;3.9787;
140.4000;0.1514;3.9607;
140.7000;0.1530;3.9684;
141.0000;0.1522;3.9787;
141.3000;0.1490;3.9633;
141.6000;0.1514;3.9838;
141.9000;0.1522;3.9838;
142.2000;0.1506;3.9736;
142.5000;0.1547;3.9813;
142.8000;0.1555;3.9838;
143.1000;0.1571;3.9864;
143.4000;0.1514;3.9787;
143.7000;0.1457;3.9736;
144.0000;0.1522;3.9761;
144.3000;0.1408;3.9479;
144.6000;0.1555;3.9915;
144.9000;0.1506;3.9736;
145.2000;0.1498;3.9787;
145.5000;0.1530;3.9890;
145.8000;0.1490;3.9864;
146.1000;0.1514;3.9838;
146.4000;0.1498;3.9761;
146.7000;0.1498;3.9761;
147.0000;0.1506;3.9915;
147.3000;0.1506;3.9890;
147.6000;0.1530;3.9915;
147.9000;0.1506;3.9864;
148.2000;0.1538;3.9941;
148.5000;0.1522;3.9838;
148.8000;0.1547;3.9967;
149.1000;0.1465;3.9761;
149.4000;0.1498;3.9838;
149.7000;0.1547;3.9967;
150.0000;0.1530;3.9915;
150.3000;0.1498;3.9838;
150.6000;0.1522;3.9967;
150.9000;0.1522;4.0018;
151.2000;0.1530;4.0018;
151.5000;0.1661;4.0531;
151.8000;0.1506;4.0018;
152.1000;0.1481;4.0043;
152.4000;0.1465;3.9864;
152.7000;0.1579;4.0043;
153.0000;0.1522;3.9915;
153.3000;0.1530;3.9915;
153.6000;0.1547;4.0018;
153.9000;0.1538;3.9992;
154.2000;0.1530;3.9890;
154.5000;0.1514;3.9838;
154.8000;0.1522;3.9813;
155.1000;0.1522;3.9915;
155.4000;0.1538;4.0018;
155.7000;0.1514;3.9787;
156.0000;0.1522;3.9813;
156.3000;0.1522;3.9787;
156.6000;0.1506;3.9838;
156.9000;0.1547;3.9915;
157.2000;0.1514;3.9915;
157.5000;0.1538;4.0069;
157.8000;0.1522;4.0095;
158.1000;0.1547;4.0172;
158.4000;0.1547;4.0197;
158.7000;0.1522;4.0223;
159.0000;0.1530;4.0274;
159.3000;0.1522;4.0197;
159.6000;0.1522;4.0223;
159.9000;0.1538;4.0274;
160.2000;0.1522;4.0223;
160.5000;0.1530;4.0249;
160.8000;0.1555;4.0274;
161.1000;0.1538;4.0223;
161.4000;0.1538;4.0172;
161.7000;0.1522;4.0043;
162.0000;0.1490;3.9915;
162.3000;0.1506;3.9992;
162.6000;0.1547;4.0120;
162.9000;0.1530;4.0069;
163.2000;0.1547;4.0095;
163.5000;0.1530;4.0146;
163.8000;0.1530;4.0197;
164.1000;0.1530;4.0197;
164.4000;0.1587;4.0300;
164.7000;0.1514;4.0146;
165.0000;0.1514;4.0120;
165.3000;0.1571;4.0249;
165.6000;0.1530;4.0043;
165.9000;0.1506;3.9967;
166.2000;0.1514;4.0018;
166.5000;0.1514;4.0018;
166.8000;0.1579;4.0197;
167.1000;0.1498;3.9864;
167.4000;0.1449;3.9813;
167.7000;0.1408;3.9710;
168.0000;0.1538;4.0120;
168.3000;0.1449;3.9890;
168.6000;0.1579;4.0377;
168.9000;0.1571;4.0377;
169.2000;0.1522;4.0197;
169.5000;0.1547;4.0249;
169.8000;0.1538;4.0197;
170.1000;0.1522;4.0223;
170.4000;0.1538;4.0197;
170.7000;0.1538;4.0120;
171.0000;0.1498;4.0120;
171.3000;0.1465;4.0018;
171.6000;0.1530;4.0172;
171.9000;0.1530;4.0172;
172.2000;0.1530;4.0120;
172.5000;0.1522;4.0146;
172.8000;0.1522;4.0172;
173.1000;0.1522;4.0197;
173.4000;0.1514;4.0172;
173.7000;0.1571;4.0274;
174.0000;0.1522;4.0120;
174.3000;0.1530;4.0172;
174.6000;0.1538;4.0095;
174.9000;0.1514;4.0095;
175.2000;0.1514;4.0172;
175.5000;0.1538;4.0274;
175.8000;0.1547;4.0300;
176.1000;0.1530;4.0274;
176.4000;0.1506;4.0197;
176.7000;0.1530;4.0300;
177.0000;0.1547;4.0326;
177.3000;0.1498;4.0326;
177.6000;0.1514;4.0377;
177.9000;0.1530;4.0428;
178.2000;0.1522;4.0454;
178.5000;0.1490;4.0351;
178.8000;0.1522;4.0403;
179.1000;0.1538;4.0274;
179.4000;0.1547;4.0274;
179.7000;0.1514;4.0274;
180.0000;0.1506;4.0274;
180.3000;0.1530;4.0351;
180.6000;0.1514;4.0326;
180.9000;0.1522;4.0351;
181.2000;0.1514;4.0351;
181.5000;0.1530;4.0428;
181.8000;0.1522;4.0300;
182.1000;0.1522;4.0351;
182.4000;0.1522;4.0377;
182.7000;0.1498;4.0351;
183.0000;0.1506;4.0351;
183.3000;0.1490;4.0326;
183.6000;0.1530;4.0351;
183.9000;0.1538;4.0351;
184.2000;0.1530;4.0377;
184.5000;0.1522;4.0351;
184.8000;0.1530;4.0377;
185.1000;0.1514;4.0249;
185.4000;0.1530;4.0326;
185.7000;0.1522;4.0326;
186.0000;0.1538;4.0351;
186.3000;0.1522;4.0377;
186.6000;0.1522;4.0351;
186.9000;0.1538;4.0377;
187.2000;0.1530;4.0403;
187.5000;0.1522;4.0403;
187.8000;0.1530;4.0377;
188.1000;0.1530;4.0326;
188.4000;0.1587;4.0351;
188.7000;0.1514;4.0172;
189.0000;0.1522;4.0223;
189.3000;0.1547;4.0300;
189.6000;0.1587;4.0300;
189.9000;0.1514;4.0018;
190.2000;0.1547;4.0095;
190.5000;0.1547;4.0018;
190.8000;0.1571;4.0172;
191.1000;0.1530;4.0043;
191.4000;0.1457;3.9941;
191.7000;0.1481;4.0095;
192.0000;0.1530;4.0249;
192.3000;0.1547;4.0197;
192.6000;0.1587;4.0351;
192.9000;0.1538;4.0172;
193.2000;0.1530;4.0172;
193.5000;0.1506;4.0069;
193.8000;0.1579;4.0300;
194.1000;0.1538;4.0197;
194.4000;0.1506;4.0095;
194.7000;0.1547;4.0197;
195.0000;0.1522;4.0223;
195.3000;0.1506;4.0172;
195.6000;0.1441;3.9992;
195.9000;0.1555;4.0274;
196.2000;0.1530;4.0249;
196.5000;0.1441;3.9992;
196.8000;0.1547;4.0249;
197.1000;0.1538;4.0197;
197.4000;0.1522;4.0172;
197.7000;0.1530;4.0249;
198.0000;0.1514;4.0223;
198.3000;0.1530;4.0172;
198.6000;0.1522;4.0095;
198.9000;0.1498;4.0043;
199.2000;0.1538;4.0197;
199.5000;0.1498;4.0095;
199.8000;0.1538;4.0223;
200.1000;0.1490;4.0095;
200.4000;0.1514;4.0095;
200.7000;0.1547;4.0172;
201.0000;0.1604;4.0377;
201.3000;0.1530;4.0249;
201.6000;0.1538;4.0274;
201.9000;0.1506;4.0172;
202.2000;0.1530;4.0172;
202.5000;0.1514;4.0172;
202.8000;0.1498;4.0095;
203.1000;0.1522;4.0172;
203.4000;0.1530;4.0223;
203.7000;0.1506;4.0146;
204.0000;0.1530;4.0120;
204.3000;0.1506;3.9992;
204.6000;0.1490;3.9967;
204.9000;0.1530;4.0146;
205.2000;0.1579;4.0300;
205.5000;0.1563;4.0300;
205.8000;0.1522;4.0223;
206.1000;0.1538;4.0326;
206.4000;0.1571;4.0377;
206.7000;0.1555;4.0403;
207.0000;0.1522;4.0274;
207.3000;0.1538;4.0249;
207.6000;0.1514;4.0120;
207.9000;0.1530;4.0223;
208.2000;0.1530;4.0223;
208.5000;0.1538;4.0223;
208.8000;0.1514;4.0197;
209.1000;0.1522;4.0326;
209.4000;0.1514;4.0274;
209.7000;0.1579;4.0480;
210.0000;0.1538;4.0249;
210.3000;0.1636;4.0505;
210.6000;0.1530;4.0197;
210.9000;0.1522;4.0300;
211.2000;0.1530;4.0351;
211.5000;0.1530;4.0249;
211.8000;0.1530;4.0223;
212.1000;0.1514;4.0172;
212.4000;0.1514;4.0146;
212.7000;0.1547;4.0197;
213.0000;0.1547;4.0172;
213.3000;0.1530;4.0197;
213.6000;0.1555;4.0326;
213.9000;0.1530;4.0249;
214.2000;0.1538;4.0300;
214.5000;0.1514;4.0069;
214.8000;0.1498;4.0095;
215.1000;0.1514;4.0146;
215.4000;0.1547;4.0274;
215.7000;0.1522;4.0197;
216.0000;0.1416;3.9890;
216.3000;0.1506;4.0172;
216.6000;0.1547;4.0249;
216.9000;0.1514;4.0197;
217.2000;0.1506;4.0249;
217.5000;0.1514;4.0377;
217.8000;0.1465;4.0223;
218.1000;0.1522;4.0326;
218.4000;0.1604;4.0582;
218.7000;0.1538;4.0377;
219.0000;0.1514;4.0274;
219.3000;0.1538;4.0351;
219.6000;0.1522;4.0326;
219.9000;0.1506;4.0274;
220.2000;0.1514;4.0172;
220.5000;0.1538;4.0120;
220.8000;0.1530;4.0197;
221.1000;0.1530;4.0197;
221.4000;0.1571;4.0300;
221.7000;0.1538;4.0172;
222.0000;0.1522;4.0120;
222.3000;0.1433;3.9915;
222.6000;0.1514;4.0069;
222.9000;0.1522;4.0172;
223.2000;0.1522;4.0197;
223.5000;0.1547;4.0300;
223.8000;0.1530;4.0326;
224.1000;0.1538;4.0428;
224.4000;0.1538;4.0351;
224.7000;0.1530;4.0274;
225.0000;0.1514;4.0249;
225.3000;0.1522;4.0223;
225.6000;0.1530;4.0274;
225.9000;0.1522;4.0274;
226.2000;0.1530;4.0351;
226.5000;0.1595;4.0659;
226.8000;0.1530;4.0454;
227.1000;0.1538;4.0505;
227.4000;0.1506;4.0326;
227.7000;0.1522;4.0300;
228.0000;0.1514;4.0351;
228.3000;0.1522;4.0454;
228.6000;0.1587;4.0557;
228.9000;0.1498;4.0351;
229.2000;0.1530;4.0377;
229.5000;0.1538;4.0454;
229.8000;0.1522;4.0377;
230.1000;0.1571;4.0454;
230.4000;0.1506;4.0197;
230.7000;0.1530;4.0249;
231.0000;0.1530;4.0249;
231.3000;0.1506;4.0197;
231.6000;0.1498;4.0146;
231.9000;0.1522;4.0249;
232.2000;0.1563;4.0454;
232.5000;0.1490;4.0403;
232.8000;0.1571;4.0710;
233.1000;0.1498;4.0557;
233.4000;0.1514;4.0505;
233.7000;0.1506;4.0351;
234.0000;0.1522;4.0351;
234.3000;0.1498;4.0326;
234.6000;0.1490;4.0377;
234.9000;0.1498;4.0428;
235.2000;0.1522;4.0403;
235.5000;0.1490;4.0454;
235.8000;0.1514;4.0480;
236.1000;0.1571;4.0659;
236.4000;0.1522;4.0505;
236.7000;0.1498;4.0480;
237.0000;0.1530;4.0685;
237.3000;0.1522;4.0582;
237.6000;0.1522;4.0582;
237.9000;0.1522;4.0608;
238.2000;0.1555;4.0659;
238.5000;0.1498;4.0531;
238.8000;0.1514;4.0480;
239.1000;0.1498;4.0480;
239.4000;0.1612;4.0659;
239.7000;0.1530;4.0428;
240.0000;0.1522;4.0480;
240.3000;0.1514;4.0403;
240.6000;0.1522;4.0326;
240.9000;0.1514;4.0300;
241.2000;0.1522;4.0403;
241.5000;0.1522;4.0351;
241.8000;0.1538;4.0403;
242.1000;0.1538;4.0428;
242.4000;0.1530;4.0403;
242.7000;0.1522;4.0377;
243.0000;0.1473;4.0172;
243.3000;0.1514;4.0249;
243.6000;0.1514;4.0274;
243.9000;0.1530;4.0249;
244.2000;0.1538;4.0300;
244.5000;0.1522;4.0249;
244.8000;0.1538;4.0351;
245.1000;0.1514;4.0403;
245.4000;0.1530;4.0582;
245.7000;0.1563;4.0633;
246.0000;0.1514;4.0480;
246.3000;0.1506;4.0428;
246.6000;0.1506;4.0428;
246.9000;0.1490;4.0403;
247.2000;0.1514;4.0454;
247.5000;0.1538;4.0403;
247.8000;0.1408;3.9915;
248.1000;0.1538;4.0300;
248.4000;0.1547;4.0274;
248.7000;0.1498;4.0223;
249.0000;0.1514;4.0274;
249.3000;0.1547;4.0480;
249.6000;0.1522;4.0351;
249.9000;0.1498;4.0351;
250.2000;0.1514;4.0351;
250.5000;0.1538;4.0454;
250.8000;0.1514;4.0428;
251.1000;0.1514;4.0480;
251.4000;0.1522;4.0505;
251.7000;0.1514;4.0480;
252.0000;0.1506;4.0377;
252.3000;0.1481;4.0274;
252.6000;0.1522;4.0428;
252.9000;0.1522;4.0326;
253.2000;0.1522;4.0377;
253.5000;0.1514;4.0351;
253.8000;0.1693;4.0864;
254.1000;0.1530;4.0428;
254.4000;0.1563;4.0377;
254.7000;0.1530;4.0300;
255.0000;0.1530;4.0274;
255.3000;0.1506;4.0223;
255.6000;0.1514;4.0249;
255.9000;0.1555;4.0377;
256.2000;0.1490;4.0223;
256.5000;0.1506;4.0300;
256.8000;0.1514;4.0326;
257.1000;0.1538;4.0326;
257.4000;0.1514;4.0223;
257.7000;0.1522;4.0172;
258.0000;0.1538;4.0172;
258.3000;0.1514;4.0095;
258.6000;0.1506;4.0018;
258.9000;0.1547;4.0095;
259.2000;0.1538;4.0095;
259.5000;0.1514;4.0069;
259.8000;0.1449;3.9838;
260.1000;0.1522;4.0043;
260.4000;0.1343;3.9582;
260.7000;0.1644;4.0377;
261.0000;0.1538;4.0120;
261.3000;0.1530;4.0043;
261.6000;0.1514;4.0043;
261.9000;0.1636;4.0428;
262.2000;0.1530;4.0069;
262.5000;0.1514;4.0018;
262.8000;0.1547;4.0018;
263.1000;0.1538;3.9967;
263.4000;0.1490;3.9787;
263.7000;0.1514;3.9838;
264.0000;0.1522;3.9813;
264.3000;0.1547;3.9813;
264.6000;0.1522;3.9864;
264.9000;0.1530;3.9915;
265.2000;0.1530;4.0018;
265.5000;0.1514;4.0069;
265.8000;0.1506;4.0172;
266.1000;0.1530;4.0223;
266.4000;0.1522;4.0249;
266.7000;0.1522;4.0274;
267.0000;0.1506;4.0274;
267.3000;0.1530;4.0377;
267.6000;0.1522;4.0351;
267.9000;0.1498;4.0249;
268.2000;0.1538;4.0351;
268.5000;0.1522;4.0351;
268.8000;0.1530;4.0377;
269.1000;0.1547;4.0454;
269.4000;0.1538;4.0428;
269.7000;0.1555;4.0454;
270.0000;0.1465;4.0249;
270.3000;0.1522;4.0454;
270.6000;0.1530;4.0454;
270.9000;0.1530;4.0428;
271.2000;0.1522;4.0274;
271.5000;0.1514;4.0197;
271.8000;0.1522;4.0249;
272.1000;0.1538;4.0326;
272.4000;0.1522;4.0300;
272.7000;0.1538;4.0377;
273.0000;0.1506;4.0223;
273.3000;0.1538;4.0351;
273.6000;0.1530;4.0326;
273.9000;0.1514;4.0249;
274.2000;0.1514;4.0249;
274.5000;0.1538;4.0428;
274.8000;0.1538;4.0428;
275.1000;0.1530;4.0300;
275.4000;0.1457;4.0018;
275.7000;0.1530;4.0095;
276.0000;0.1490;3.9941;
276.3000;0.1579;4.0146;
276.6000;0.1522;3.9992;
276.9000;0.1571;4.0197;
277.2000;0.1530;4.0069;
277.5000;0.1514;3.9915;
277.8000;0.1506;4.0018;
278.1000;0.1490;4.0043;
278.4000;0.1555;4.0172;
278.7000;0.1514;4.0069;
279.0000;0.1506;3.9915;
279.3000;0.1506;3.9838;
279.6000;0.1547;4.0043;
279.9000;0.1506;3.9992;
280.2000;0.1498;4.0018;
280.5000;0.1449;3.9864;
280.8000;0.1522;4.0043;
281.1000;0.1522;4.0095;
281.4000;0.1457;3.9992;
281.7000;0.1530;4.0249;
282.0000;0.1530;4.0274;
282.3000;0.1530;4.0223;
282.6000;0.1530;4.0249;
282.9000;0.1506;4.0274;
283.2000;0.1514;4.0223;
283.5000;0.1473;4.0043;
283.8000;0.1555;4.0326;
284.1000;0.1498;4.0146;
284.4000;0.1425;3.9941;
284.7000;0.1563;4.0300;
285.0000;0.1547;4.0249;
285.3000;0.1498;4.0120;
285.6000;0.1506;4.0197;
285.9000;0.1538;4.0274;
286.2000;0.1522;4.0197;
286.5000;0.1465;4.0043;
286.8000;0.1408;3.9915;
287.1000;0.1530;4.0249;
287.4000;0.1514;4.0172;
287.7000;0.1579;4.0326;
288.0000;0.1522;4.0120;
288.3000;0.1514;4.0018;
288.6000;0.1506;4.0043;
288.9000;0.1506;3.9992;
289.2000;0.1538;4.0120;
289.5000;0.1514;4.0146;
289.8000;0.1530;4.0069;
290.1000;0.1538;4.0120;
290.4000;0.1498;4.0043;
290.7000;0.1538;4.0043;
291.0000;0.1522;4.0018;
291.3000;0.1522;4.0069;
291.6000;0.1538;4.0120;
291.9000;0.1514;4.0069;
292.2000;0.1522;4.0146;
292.5000;0.1595;4.0428;
292.8000;0.1538;4.0197;
293.1000;0.1644;4.0505;
293.4000;0.1498;4.0043;
293.7000;0.1538;4.0069;
294.0000;0.1506;4.0043;
294.3000;0.1514;4.0095;
294.6000;0.1538;4.0146;
294.9000;0.1465;4.0069;
295.2000;0.1522;4.0172;
295.5000;0.1538;4.0300;
295.8000;0.1522;4.0197;
296.1000;0.1481;4.0043;
296.4000;0.1547;4.0197;
296.7000;0.1547;4.0172;
297.0000;0.1538;4.0223;
297.3000;0.1555;4.0326;
297.6000;0.1547;4.0274;
297.9000;0.1433;3.9992;
298.2000;0.1506;4.0172;
298.5000;0.1498;4.0146;
298.8000;0.1538;4.0120;
299.1000;0.1538;4.0120;
299.4000;0.1522;4.0069;
299.7000;0.1498;3.9992;
300.0000;0.1522;4.0069;
300.3000;0.1555;4.0197;
300.6000;0.1538;4.0069;
300.9000;0.1547;4.0120;
301.2000;0.1587;4.0146;
301.5000;0.1538;3.9915;
301.8000;0.1563;3.9941;
302.1000;0.1514;3.9941;
302.4000;0.1538;3.9992;
302.7000;0.1514;4.0069;
303.0000;0.1530;4.0069;
303.3000;0.1506;4.0120;
303.6000;0.1514;4.0120;
303.9000;0.1522;4.0146;
304.2000;0.1514;4.0043;
304.5000;0.1571;4.0249;
304.8000;0.1579;4.0351;
305.1000;0.1530;4.0274;
305.4000;0.1530;4.0377;
305.7000;0.1522;4.0377;
306.0000;0.1530;4.0351;
306.3000;0.1514;4.0326;
306.6000;0.1547;4.0403;
306.9000;0.1522;4.0326;
307.2000;0.1538;4.0403;
307.5000;0.1530;4.0326;
307.8000;0.1538;4.0351;
308.1000;0.1522;4.0274;
308.4000;0.1465;4.0069;
308.7000;0.1506;4.0120;
309.0000;0.1514;4.0197;
309.3000;0.1530;4.0197;
309.6000;0.1530;4.0300;
309.9000;0.1514;4.0249;
310.2000;0.1522;4.0274;
310.5000;0.1441;4.0018;
310.8000;0.1522;4.0351;
311.1000;0.1530;4.0403;
311.4000;0.1514;4.0274;
311.7000;0.1506;4.0249;
312.0000;0.1506;4.0249;
312.3000;0.1498;4.0197;
312.6000;0.1473;4.0120;
312.9000;0.1547;4.0326;
313.2000;0.1530;4.0351;
313.5000;0.1473;4.0274;
313.8000;0.1514;4.0351;
314.1000;0.1514;4.0300;
314.4000;0.1538;4.0249;
314.7000;0.1498;4.0146;
315.0000;0.1530;4.0223;
315.3000;0.1522;4.0146;
315.6000;0.1481;3.9992;
315.9000;0.1522;4.0146;
316.2000;0.1530;4.0172;
316.5000;0.1530;4.0172;
316.8000;0.1555;4.0249;
317.1000;0.1522;4.0172;
317.4000;0.1555;4.0300;
317.7000;0.1547;4.0300;
318.0000;0.1530;4.0300;
318.3000;0.1522;4.0223;
318.6000;0.1530;4.0172;
318.9000;0.1530;4.0146;
319.2000;0.1506;4.0043;
319.5000;0.1514;4.0146;
319.8000;0.1506;4.0146;
320.1000;0.1481;4.0146;
320.4000;0.1538;4.0274;
320.7000;0.1498;4.0223;
321.0000;0.1514;4.0326;
321.3000;0.1506;4.0351;
321.6000;0.1490;4.0351;
321.9000;0.1514;4.0377;
322.2000;0.1530;4.0326;
322.5000;0.1530;4.0300;
322.8000;0.1465;4.0095;
323.1000;0.1538;4.0326;
323.4000;0.1498;4.0300;
323.7000;0.1498;4.0274;
324.0000;0.1514;4.0326;
324.3000;0.1522;4.0326;
324.6000;0.1547;4.0403;
324.9000;0.1506;4.0300;
325.2000;0.1506;4.0249;
325.5000;0.1506;4.0249;
325.8000;0.1522;4.0326;
326.1000;0.1538;4.0249;
326.4000;0.1530;4.0095;
326.7000;0.1498;4.0069;
327.0000;0.1514;4.0120;
327.3000;0.1514;4.0172;
327.6000;0.1522;4.0120;
327.9000;0.1522;4.0172;
328.2000;0.1555;4.0223;
328.5000;0.1522;4.0095;
328.8000;0.1538;4.0069;
329.1000;0.1416;3.9736;
329.4000;0.1571;4.0223;
329.7000;0.1530;4.0172;
330.0000;0.1498;4.0120;
330.3000;0.1530;4.0172;
330.6000;0.1514;4.0043;
330.9000;0.1522;3.9967;
331.2000;0.1506;4.0069;
331.5000;0.1498;4.0018;
331.8000;0.1530;4.0069;
332.1000;0.1514;4.0069;
332.4000;0.1547;4.0172;
332.7000;0.1473;3.9967;
333.0000;0.1514;4.0043;
333.3000;0.1530;4.0095;
333.6000;0.1522;4.0172;
333.9000;0.1522;4.0172;
334.2000;0.1522;4.0197;
334.5000;0.1506;4.0120;
334.8000;0.1538;4.0223;
335.1000;0.1547;4.0197;
335.4000;0.1514;4.0146;
335.7000;0.1555;4.0197;
336.0000;0.1506;4.0095;
336.3000;0.1498;4.0018;
336.6000;0.1514;3.9992;
336.9000;0.1449;3.9864;
337.2000;0.1522;4.0172;
337.5000;0.1433;3.9967;
337.8000;0.1481;4.0095;
338.1000;0.1514;4.0146;
338.4000;0.1530;4.0120;
338.7000;0.1498;4.0043;
339.0000;0.1547;4.0223;
339.3000;0.1522;4.0069;
339.6000;0.1465;3.9890;
339.9000;0.1449;3.9838;
340.2000;0.1506;4.0069;
340.5000;0.1490;3.9992;
340.8000;0.1530;4.0043;
341.1000;0.1498;4.0043;
341.4000;0.1530;4.0095;
341.7000;0.1530;4.0172;
342.0000;0.1514;4.0120;
342.3000;0.1514;4.0069;
342.6000;0.1522;4.0069;
342.9000;0.1530;4.0018;
343.2000;0.1457;3.9761;
343.5000;0.1530;4.0043;
343.8000;0.1514;4.0095;
344.1000;0.1433;3.9838;
344.4000;0.1530;4.0197;
344.7000;0.1522;4.0146;
345.0000;0.1514;4.0172;
345.3000;0.1530;4.0120;
345.6000;0.1514;4.0069;
345.9000;0.1522;4.0197;
346.2000;0.1416;3.9890;
346.5000;0.1506;4.0120;
346.8000;0.1538;4.0249;
347.1000;0.1490;4.0120;
347.4000;0.1563;4.0377;
347.7000;0.1514;4.0300;
348.0000;0.1465;4.0069;
348.3000;0.1522;4.0223;
348.6000;0.1514;4.0223;
348.9000;0.1522;4.0300;
349.2000;0.1514;4.0197;
349.5000;0.1506;4.0172;
349.8000;0.1514;4.0120;
350.1000;0.1498;4.0043;
350.4000;0.1530;4.0172;
350.7000;0.1522;4.0120;
351.0000;0.1547;4.0095;
351.3000;0.1530;4.0043;
351.6000;0.1522;4.0018;
351.9000;0.1522;4.0069;
352.2000;0.1490;3.9941;
352.5000;0.1457;3.9967;
352.8000;0.1498;4.0120;
353.1000;0.1604;4.0326;
353.4000;0.1408;3.9813;
353.7000;0.1506;4.0095;
354.0000;0.1530;4.0274;
354.3000;0.1522;4.0172;
354.6000;0.1481;4.0095;
354.9000;0.1473;4.0018;
355.2000;0.1587;4.0403;
355.5000;0.1522;4.0249;
355.8000;0.1522;4.0223;
356.1000;0.1522;4.0146;
356.4000;0.1530;4.0146;
356.7000;0.1530;4.0172;
357.0000;0.1506;4.0120;
357.3000;0.1514;4.0146;
357.6000;0.1530;4.0249;
357.9000;0.1522;4.0326;
358.2000;0.1514;4.0377;
358.5000;0.1481;4.0274;
358.8000;0.1579;4.0480;
359.1000;0.1514;4.0403;
359.4000;0.1530;4.0377;
359.7000;0.1490;4.0249;
360.0000;0.1522;4.0377;
360.3000;0.1514;4.0377;
360.6000;0.1490;4.0300;
360.9000;0.1579;4.0531;
361.2000;0.1547;4.0403;
361.5000;0.1530;4.0403;
361.8000;0.1522;4.0428;
362.1000;0.1514;4.0428;
362.4000;0.1522;4.0351;
362.7000;0.1514;4.0249;
363.0000;0.1514;4.0172;
363.3000;0.1522;4.0197;
363.6000;0.1522;4.0095;
363.9000;0.1514;4.0043;
364.2000;0.1530;4.0069;
364.5000;0.1514;4.0043;
364.8000;0.1522;4.0043;
365.1000;0.1522;4.0043;
365.4000;0.1514;4.0095;
365.7000;0.1506;4.0095;
366.0000;0.1514;4.0095;
366.3000;0.1514;4.0095;
366.6000;0.1506;4.0095;
366.9000;0.1538;4.0043;
367.2000;0.1530;4.0043;
367.5000;0.1571;4.0146;
367.8000;0.1498;3.9915;
368.1000;0.1514;4.0095;
368.4000;0.1555;4.0172;
368.7000;0.1506;4.0095;
369.0000;0.1522;4.0120;
369.3000;0.1457;3.9864;
369.6000;0.1522;4.0120;
369.9000;0.1563;4.0274;
370.2000;0.1449;3.9941;
370.5000;0.1490;4.0120;
370.8000;0.1514;4.0249;
371.1000;0.1506;4.0249;
371.4000;0.1587;4.0454;
371.7000;0.1506;4.0223;
372.0000;0.1514;4.0172;
372.3000;0.1522;4.0249;
372.6000;0.1498;4.0146;
372.9000;0.1498;4.0223;
373.2000;0.1465;4.0120;
373.5000;0.1498;4.0249;
373.8000;0.1522;4.0223;
374.1000;0.1514;4.0300;
374.4000;0.1498;4.0274;
374.7000;0.1522;4.0223;
375.0000;0.1514;4.0146;
375.3000;0.1538;4.0172;
375.6000;0.1506;4.0172;
375.9000;0.1522;4.0249;
376.2000;0.1441;3.9915;
376.5000;0.1457;3.9915;
376.8000;0.1530;4.0069;
377.1000;0.1522;4.0120;
377.4000;0.1498;4.0095;
377.7000;0.1514;4.0172;
378.0000;0.1522;4.0223;
378.3000;0.1547;4.0249;
378.6000;0.1522;4.0146;
378.9000;0.1522;4.0095;
379.2000;0.1522;4.0043;
379.5000;0.1538;4.0043;
379.8000;0.1522;3.9915;
380.1000;0.1514;3.9915;
380.4000;0.1490;3.9915;
380.7000;0.1652;4.0351;
381.0000;0.1514;3.9992;
381.3000;0.1514;4.0069;
381.6000;0.1498;4.0069;
381.9000;0.1522;4.0146;
382.2000;0.1579;4.0223;
382.5000;0.1449;3.9813;
382.8000;0.1538;4.0069;
383.1000;0.1522;4.0018;
383.4000;0.1514;3.9992;
383.7000;0.1506;3.9992;
384.0000;0.1530;3.9967;
384.3000;0.1530;3.9967;
384.6000;0.1506;3.9915;
384.9000;0.1514;3.9941;
385.2000;0.1522;3.9864;
385.5000;0.1514;3.9838;
385.8000;0.1514;3.9813;
386.1000;0.1490;3.9813;
386.4000;0.1522;3.9941;
386.7000;0.1473;3.9813;
387.0000;0.1490;3.9838;
387.3000;0.1522;4.0018;
387.6000;0.1506;4.0018;
387.9000;0.1481;3.9915;
388.2000;0.1506;3.9992;
388.5000;0.1547;4.0095;
388.8000;0.1547;4.0095;
389.1000;0.1506;3.9890;
389.4000;0.1514;3.9890;
389.7000;0.1514;3.9838;
390.0000;0.1530;3.9864;
390.3000;0.1538;3.9915;
390.6000;0.1530;3.9864;
390.9000;0.1514;3.9787;
391.2000;0.1498;3.9710;
391.5000;0.1449;3.9505;
391.8000;0.1514;3.9838;
392.1000;0.1555;3.9890;
392.4000;0.1514;3.9838;
392.7000;0.1522;3.9915;
393.0000;0.1498;3.9838;
393.3000;0.1538;3.9864;
393.6000;0.1498;3.9787;
393.9000;0.1579;4.0043;
394.2000;0.1490;3.9813;
394.5000;0.1506;3.9838;
394.8000;0.1514;3.9915;
395.1000;0.1425;3.9684;
395.4000;0.1522;3.9941;
395.7000;0.1506;3.9967;
396.0000;0.1538;4.0069;
396.3000;0.1506;4.0018;
396.6000;0.1514;4.0043;
396.9000;0.1579;4.0197;
397.2000;0.1506;3.9915;
397.5000;0.1514;3.9813;
397.8000;0.1522;3.9915;
398.1000;0.1449;3.9761;
398.4000;0.1571;4.0146;
398.7000;0.1563;4.0172;
399.0000;0.1490;3.9967;
399.3000;0.1522;4.0043;
399.6000;0.1498;3.9992;
399.9000;0.1441;3.9787;
400.2000;0.1506;4.0069;
400.5000;0.1465;3.9864;
400.8000;0.1522;3.9941;
401.1000;0.1506;3.9967;
401.4000;0.1538;4.0018;
401.7000;0.1457;3.9761;
402.0000;0.1530;3.9967;
402.3000;0.1522;4.0018;
402.6000;0.1522;4.0043;
402.9000;0.1506;3.9967;
403.2000;0.1522;3.9967;
403.5000;0.1530;3.9941;
403.8000;0.1506;3.9967;
404.1000;0.1555;4.0069;
404.4000;0.1514;4.0043;
404.7000;0.1506;4.0043;
405.0000;0.1498;4.0095;
405.3000;0.1538;4.0223;
405.6000;0.1530;4.0249;
405.9000;0.1538;4.0223;
406.2000;0.1530;4.0120;
406.5000;0.1498;4.0095;
406.8000;0.1547;4.0197;
407.1000;0.1506;4.0146;
407.4000;0.1514;4.0223;
407.7000;0.1506;4.0223;
408.0000;0.1506;4.0146;
408.3000;0.1514;4.0095;
408.6000;0.1661;4.0531;
408.9000;0.1514;4.0249;
409.2000;0.1449;4.0043;
409.5000;0.1538;4.0326;
409.8000;0.1506;4.0120;
410.1000;0.1530;4.0197;
410.4000;0.1522;4.0223;
410.7000;0.1538;4.0249;
411.0000;0.1514;4.0120;
411.3000;0.1530;4.0146;
411.6000;0.1514;4.0146;
411.9000;0.1538;4.0172;
412.2000;0.1538;4.0172;
412.5000;0.1530;4.0197;
412.8000;0.1547;4.0197;
413.1000;0.1473;3.9941;
413.4000;0.1547;4.0223;
413.7000;0.1506;4.0120;
414.0000;0.1481;3.9992;
414.3000;0.1522;4.0043;
414.6000;0.1514;4.0120;
414.9000;0.1547;4.0197;
415.2000;0.1604;4.0403;
415.5000;0.1522;4.0172;
415.8000;0.1522;4.0172;
416.1000;0.1506;4.0146;
416.4000;0.1465;3.9992;
416.7000;0.1538;4.0172;
417.0000;0.1530;4.0146;
417.3000;0.1571;4.0146;
417.6000;0.1538;4.0018;
417.9000;0.1522;3.9967;
418.2000;0.1514;3.9992;
418.5000;0.1530;4.0043;
418.8000;0.1481;3.9915;
419.1000;0.1506;3.9992;
419.4000;0.1514;4.0018;
419.7000;0.1530;4.0043;
420.0000;0.1530;4.0095;
420.3000;0.1481;4.0018;
420.6000;0.1506;4.0120;
420.9000;0.1514;4.0146;
421.2000;0.1530;4.0197;
421.5000;0.1498;4.0120;
421.8000;0.1522;4.0197;
422.1000;0.1522;4.0172;
422.4000;0.1522;4.0172;
422.7000;0.1538;4.0197;
423.0000;0.1473;4.0018;
423.3000;0.1514;4.0197;
423.6000;0.1538;4.0223;
423.9000;0.1514;4.0172;
424.2000;0.1522;4.0223;
424.5000;0.1490;4.0095;
424.8000;0.1538;4.0172;
425.1000;0.1506;4.0069;
425.4000;0.1498;3.9941;
425.7000;0.1506;4.0018;
426.0000;0.1506;4.0069;
426.3000;0.1522;4.0069;
426.6000;0.1465;4.0018;
426.9000;0.1498;4.0095;
427.2000;0.1506;3.9967;
427.5000;0.1514;4.0018;
427.8000;0.1538;4.0172;
428.1000;0.1449;3.9864;
428.4000;0.1481;4.0043;
428.7000;0.1522;4.0043;
429.0000;0.1522;4.0197;
429.3000;0.1538;4.0223;
429.6000;0.1522;4.0172;
429.9000;0.1522;4.0120;
430.2000;0.1522;4.0069;
430.5000;0.1498;4.0095;
430.8000;0.1498;4.0223;
431.1000;0.1498;4.0223;
431.4000;0.1522;4.0223;
431.7000;0.1530;4.0249;
432.0000;0.1490;4.0146;
432.3000;0.1522;4.0223;
432.6000;0.1506;4.0120;
432.9000;0.1498;4.0069;
433.2000;0.1514;4.0095;
433.5000;0.1498;4.0018;
433.8000;0.1571;4.0274;
434.1000;0.1490;4.0069;
434.4000;0.1522;4.0120;
434.7000;0.1538;4.0249;
435.0000;0.1481;4.0095;
435.3000;0.1498;4.0172;
435.6000;0.1514;4.0249;
435.9000;0.1547;4.0274;
436.2000;0.1522;4.0223;
436.5000;0.1522;4.0172;
436.8000;0.1514;4.0146;
437.1000;0.1530;4.0146;
437.4000;0.1506;3.9967;
437.7000;0.1522;4.0120;
438.0000;0.1498;4.0146;
438.3000;0.1514;4.0095;
438.6000;0.1498;4.0043;
438.9000;0.1530;4.0120;
439.2000;0.1522;4.0018;
439.5000;0.1457;3.9838;
439.8000;0.1538;4.0018;
440.1000;0.1644;4.0300;
440.4000;0.1579;4.0120;
440.7000;0.1522;4.0043;
441.0000;0.1498;4.0018;
441.3000;0.1481;3.9915;
441.6000;0.1538;4.0018;
441.9000;0.1506;3.9992;
442.2000;0.1522;3.9967;
442.5000;0.1498;3.9967;
442.8000;0.1522;4.0095;
443.1000;0.1522;4.0120;
443.4000;0.1522;4.0146;
443.7000;0.1530;4.0146;
444.0000;0.1514;4.0172;
444.3000;0.1514;4.0069;
444.6000;0.1530;4.0095;
444.9000;0.1522;4.0043;
445.2000;0.1514;4.0043;
445.5000;0.1538;4.0095;
445.8000;0.1530;4.0043;
446.1000;0.1506;4.0018;
446.4000;0.1522;4.0069;
446.7000;0.1530;4.0043;
447.0000;0.1490;4.0018;
447.3000;0.1498;3.9967;
447.6000;0.1514;3.9967;
447.9000;0.1522;3.9967;
448.2000;0.1522;4.0043;
448.5000;0.1530;4.0043;
448.8000;0.1522;4.0095;
449.1000;0.1522;4.0274;
449.4000;0.1514;4.0197;
449.7000;0.1514;4.0249;
450.0000;0.1506;4.0095;
450.3000;0.1490;3.9941;
450.6000;0.1498;4.0043;
450.9000;0.1522;4.0069;
451.2000;0.1498;4.0146;
451.5000;0.1538;4.0223;
451.8000;0.1514;4.0120;
452.1000;0.1595;4.0300;
452.4000;0.1506;4.0043;
452.7000;0.1473;3.9941;
453.0000;0.1514;4.0095;
453.3000;0.1530;4.0223;
453.6000;0.1506;4.0146;
453.9000;0.1522;4.0146;
454.2000;0.1498;4.0069;
454.5000;0.1506;4.0120;
454.8000;0.1538;4.0146;
455.1000;0.1498;4.0069;
455.4000;0.1514;4.0146;
455.7000;0.1506;4.0172;
456.0000;0.1530;4.0249;
456.3000;0.1522;4.0274;
456.6000;0.1514;4.0300;
456.9000;0.1506;4.0197;
457.2000;0.1522;4.0172;
457.5000;0.1490;3.9967;
457.8000;0.1522;4.0043;
458.1000;0.1449;3.9838;
458.4000;0.1498;4.0018;
458.7000;0.1514;3.9915;
459.0000;0.1457;3.9710;
459.3000;0.1538;4.0018;
459.6000;0.1538;4.0043;
459.9000;0.1514;4.0018;
460.2000;0.1514;4.0095;
460.5000;0.1514;4.0069;
460.8000;0.1522;4.0043;
461.1000;0.1522;4.0095;
461.4000;0.1514;4.0095;
461.7000;0.1514;4.0095;
462.0000;0.1555;4.0274;
462.3000;0.1530;4.0172;
462.6000;0.1506;4.0095;
462.9000;0.1514;4.0095;
463.2000;0.1465;3.9941;
463.5000;0.1522;3.9941;
463.8000;0.1522;4.0069;
464.1000;0.1481;3.9992;
464.4000;0.1514;3.9967;
464.7000;0.1547;4.0018;
465.0000;0.1506;3.9941;
465.3000;0.1465;3.9813;
465.6000;0.1506;3.9838;
465.9000;0.1522;3.9915;
466.2000;0.1612;4.0223;
466.5000;0.1506;3.9864;
466.8000;0.1530;3.9915;
467.1000;0.1506;3.9890;
467.4000;0.1538;3.9967;
467.7000;0.1522;3.9864;
468.0000;0.1522;3.9838;
468.3000;0.1530;3.9864;
468.6000;0.1498;3.9787;
468.9000;0.1514;3.9915;
469.2000;0.1669;4.0326;
469.5000;0.1538;3.9992;
469.8000;0.1530;3.9992;
470.1000;0.1522;3.9941;
470.4000;0.1514;3.9941;
470.7000;0.1538;4.0018;
471.0000;0.1530;4.0043;
471.3000;0.1522;4.0069;
471.6000;0.1547;4.0095;
471.9000;0.1522;4.0069;
472.2000;0.1538;4.0146;
472.5000;0.1408;3.9633;
472.8000;0.1481;3.9813;
473.1000;0.1563;4.0120;
473.4000;0.1506;4.0018;
473.7000;0.1571;4.0120;
474.0000;0.1514;3.9890;
474.3000;0.1555;4.0043;
474.6000;0.1563;3.9992;
474.9000;0.1563;4.0043;
475.2000;0.1530;3.9992;
475.5000;0.1522;3.9967;
475.8000;0.1628;4.0274;
476.1000;0.1530;4.0018;
476.4000;0.1538;4.0146;
476.7000;0.1473;4.0043;
477.0000;0.1579;4.0454;
477.3000;0.1530;4.0300;
477.6000;0.1457;4.0095;
477.9000;0.1506;4.0120;
478.2000;0.1514;4.0146;
478.5000;0.1514;4.0120;
478.8000;0.1522;4.0172;
479.1000;0.1490;4.0146;
479.4000;0.1538;4.0223;
479.7000;0.1506;4.0197;
480.0000;0.1538;4.0403;
480.3000;0.1514;4.0300;
480.6000;0.1538;4.0326;
480.9000;0.1506;4.0223;
481.2000;0.1514;4.0249;
481.5000;0.1547;4.0223;
481.8000;0.1555;4.0274;
482.1000;0.1530;4.0146;
482.4000;0.1522;4.0069;
482.7000;0.1514;4.0043;
483.0000;0.1514;4.0018;
483.3000;0.1522;4.0018;
483.6000;0.1514;3.9992;
483.9000;0.1595;4.0197;
484.2000;0.1506;3.9941;
484.5000;0.1547;4.0069;
484.8000;0.1514;4.0018;
485.1000;0.1522;3.9992;
485.4000;0.1514;4.0018;
485.7000;0.1506;3.9915;
486.0000;0.1449;3.9787;
486.3000;0.1547;4.0043;
486.6000;0.1506;4.0018;
486.9000;0.1538;4.0146;
487.2000;0.1473;3.9967;
487.5000;0.1555;4.0223;
487.8000;0.1490;4.0043;
488.1000;0.1506;4.0043;
488.4000;0.1522;3.9992;
488.7000;0.1498;4.0043;
489.0000;0.1506;4.0146;
489.3000;0.1514;4.0249;
489.6000;0.1506;4.0172;
489.9000;0.1522;4.0197;
490.2000;0.1514;4.0223;
490.5000;0.1563;4.0274;
490.8000;0.1514;4.0095;
491.1000;0.1481;3.9967;
491.4000;0.1514;4.0043;
491.7000;0.1522;4.0043;
492.0000;0.1547;4.0120;
492.3000;0.1506;3.9967;
492.6000;0.1514;3.9992;
492.9000;0.1530;4.0095;
493.2000;0.1530;4.0069;
493.5000;0.1416;3.9710;
493.8000;0.1490;3.9915;
494.1000;0.1506;3.9941;
494.4000;0.1498;3.9864;
494.7000;0.1514;3.9941;
495.0000;0.1465;3.9838;
495.3000;0.1563;4.0146;
495.6000;0.1473;3.9813;
495.9000;0.1522;3.9915;
496.2000;0.1506;4.0018;
496.5000;0.1563;4.0172;
496.8000;0.1514;4.0069;
497.1000;0.1530;4.0018;
497.4000;0.1490;3.9992;
497.7000;0.1506;3.9967;
498.0000;0.1538;4.0069;
498.3000;0.1571;4.0249;
498.6000;0.1522;4.0043;
498.9000;0.1490;4.0018;
499.2000;0.1522;4.0146;
499.5000;0.1530;4.0197;
499.8000;0.1498;4.0146;
500.1000;0.1441;3.9941;
500.4000;0.1522;4.0146;
500.7000;0.1522;4.0146;
501.0000;0.1530;4.0146;
501.3000;0.1465;3.9864;
501.6000;0.1522;3.9967;
501.9000;0.1538;4.0018;
502.2000;0.1522;3.9992;
502.5000;0.1522;4.0018;
502.8000;0.1514;4.0069;
503.1000;0.1514;4.0095;
503.4000;0.1522;4.0018;
503.7000;0.1506;3.9864;
504.0000;0.1457;3.9838;
504.3000;0.1514;3.9967;
504.6000;0.1490;3.9941;
504.9000;0.1538;4.0018;
505.2000;0.1522;3.9941;
505.5000;0.1506;3.9992;
505.8000;0.1498;3.9967;
506.1000;0.1506;3.9890;
506.4000;0.1522;3.9864;
506.7000;0.1522;3.9813;
507.0000;0.1563;4.0018;
507.3000;0.1555;3.9992;
507.6000;0.1530;3.9992;
507.9000;0.1587;4.0095;
508.2000;0.1522;3.9967;
508.5000;0.1498;3.9967;
508.8000;0.1498;4.0043;
509.1000;0.1481;3.9864;
509.4000;0.1538;3.9941;
509.7000;0.1481;3.9890;
510.0000;0.1465;3.9890;
510.3000;0.1538;4.0120;
510.6000;0.1530;4.0172;
510.9000;0.1571;4.0223;
511.2000;0.1563;4.0197;
511.5000;0.1473;3.9915;
511.8000;0.1530;3.9967;
512.1000;0.1595;4.0069;
512.4000;0.1538;3.9813;
512.7000;0.1514;3.9761;
513.0000;0.1498;3.9710;
513.3000;0.1538;3.9813;
513.6000;0.1522;3.9761;
513.9000;0.1522;3.9761;
514.2000;0.1490;3.9736;
514.5000;0.1522;3.9736;
514.8000;0.1514;3.9761;
515.1000;0.1522;3.9787;
515.4000;0.1506;3.9736;
515.7000;0.1506;3.9633;
516.0000;0.1538;3.9736;
516.3000;0.1498;3.9607;
516.6000;0.1514;3.9761;
516.9000;0.1530;3.9864;
517.2000;0.1547;3.9915;
517.5000;0.1522;3.9838;
517.8000;0.1522;3.9890;
518.1000;0.1530;3.9915;
518.4000;0.1555;3.9941;
518.7000;0.1498;3.9890;
519.0000;0.1506;3.9967;
519.3000;0.1522;4.0018;
519.6000;0.1441;3.9761;
519.9000;0.1530;4.0018;
520.2000;0.1530;3.9967;
520.5000;0.1506;3.9813;
520.8000;0.1498;3.9761;
521.1000;0.1514;3.9787;
521.4000;0.1530;3.9813;
521.7000;0.1547;3.9864;
522.0000;0.1490;3.9659;
522.3000;0.1530;3.9736;
522.6000;0.1514;3.9761;
522.9000;0.1514;3.9838;
523.2000;0.1498;3.9761;
523.5000;0.1530;3.9864;
523.8000;0.1481;3.9710;
524.1000;0.1514;3.9736;
524.4000;0.1514;3.9761;
524.7000;0.1514;3.9736;
525.0000;0.1620;4.0120;
525.3000;0.1547;3.9813;
525.6000;0.1522;3.9761;
525.9000;0.1498;3.9736;
526.2000;0.1506;3.9787;
526.5000;0.1522;3.9838;
526.8000;0.1514;3.9761;
527.1000;0.1457;3.9633;
527.4000;0.1514;3.9813;
527.7000;0.1530;3.9838;
528.0000;0.1498;3.9761;
528.3000;0.1506;3.9864;
528.6000;0.1490;3.9761;
528.9000;0.1522;3.9838;
529.2000;0.1522;3.9915;
529.5000;0.1530;3.9967;
529.8000;0.1530;3.9967;
530.1000;0.1514;3.9890;
530.4000;0.1514;3.9967;
530.7000;0.1530;3.9992;
531.0000;0.1522;3.9941;
531.3000;0.1514;3.9941;
531.6000;0.1514;3.9890;
531.9000;0.1522;3.9864;
532.2000;0.1506;3.9736;
532.5000;0.1522;3.9787;
532.8000;0.1490;3.9787;
533.1000;0.1522;3.9838;
533.4000;0.1506;3.9813;
533.7000;0.1579;3.9967;
534.0000;0.1506;3.9787;
534.3000;0.1522;3.9890;
534.6000;0.1498;3.9941;
534.9000;0.1465;3.9813;
535.2000;0.1571;4.0095;
535.5000;0.1481;3.9890;
535.8000;0.1555;4.0172;
536.1000;0.1538;4.0120;
536.4000;0.1514;3.9967;
536.7000;0.1473;3.9761;
537.0000;0.1522;3.9813;
537.3000;0.1498;3.9838;
537.6000;0.1538;4.0018;
537.9000;0.1522;4.0043;
538.2000;0.1538;4.0146;
538.5000;0.1612;4.0403;
538.8000;0.1506;4.0043;
539.1000;0.1530;4.0095;
539.4000;0.1514;4.0120;
539.7000;0.1530;4.0172;
540.0000;0.1522;4.0197;
540.3000;0.1538;4.0223;
540.6000;0.1506;4.0172;
540.9000;0.1506;4.0146;
541.2000;0.1498;4.0120;
541.5000;0.1514;4.0249;
541.8000;0.1522;4.0172;
542.1000;0.1506;4.0069;
542.4000;0.1522;4.0043;
542.7000;0.1530;4.0018;
543.0000;0.1530;3.9890;
543.3000;0.1506;3.9838;
543.6000;0.1465;3.9761;
543.9000;0.1514;3.9967;
544.2000;0.1514;4.0018;
544.5000;0.1579;4.0146;
544.8000;0.1481;3.9787;
545.1000;0.1530;3.9915;
545.4000;0.1514;3.9915;
545.7000;0.1473;3.9710;
546.0000;0.1506;3.9838;
546.3000;0.1490;3.9787;
546.6000;0.1514;3.9890;
546.9000;0.1547;3.9915;
547.2000;0.1522;3.9890;
547.5000;0.1441;3.9736;
547.8000;0.1506;3.9915;
548.1000;0.1547;4.0043;
548.4000;0.1498;3.9992;
548.7000;0.1498;3.9967;
549.0000;0.1522;4.0146;
549.3000;0.1547;4.0197;
549.6000;0.1604;4.0300;
549.9000;0.1530;4.0095;
550.2000;0.1441;3.9890;
550.5000;0.1506;4.0018;
550.8000;0.1506;4.0069;
551.1000;0.1498;4.0095;
551.4000;0.1498;4.0172;
551.7000;0.1514;4.0197;
552.0000;0.1498;4.0095;
552.3000;0.1506;4.0069;
552.6000;0.1490;4.0043;
552.9000;0.1498;4.0095;
553.2000;0.1498;4.0095;
553.5000;0.1514;4.0197;
553.8000;0.1498;4.0146;
554.1000;0.1579;4.0351;
554.4000;0.1506;4.0095;
554.7000;0.1498;4.0043;
555.0000;0.1506;4.0172;
555.3000;0.1465;4.0018;
555.6000;0.1538;4.0172;
555.9000;0.1538;4.0249;
556.2000;0.1547;4.0300;
556.5000;0.1498;4.0172;
556.8000;0.1490;4.0095;
557.1000;0.1490;4.0018;
557.4000;0.1538;4.0274;
557.7000;0.1506;4.0197;
558.0000;0.1506;4.0172;
558.3000;0.1530;4.0249;
558.6000;0.1457;4.0043;
558.9000;0.1506;4.0172;
559.2000;0.1506;4.0197;
559.5000;0.1563;4.0428;
559.8000;0.1555;4.0249;
560.1000;0.1522;4.0120;
560.4000;0.1506;4.0146;
560.7000;0.1506;4.0249;
561.0000;0.1530;4.0326;
561.3000;0.1522;4.0351;
561.6000;0.1538;4.0428;
561.9000;0.1522;4.0403;
562.2000;0.1538;4.0326;
562.5000;0.1522;4.0274;
562.8000;0.1498;4.0197;
563.1000;0.1530;4.0249;
563.4000;0.1514;4.0146;
563.7000;0.1530;4.0197;
564.0000;0.1506;4.0146;
564.3000;0.1514;4.0120;
564.6000;0.1481;4.0043;
564.9000;0.1530;4.0120;
565.2000;0.1522;4.0069;
565.5000;0.1514;3.9992;
565.8000;0.1514;4.0018;
566.1000;0.1514;3.9967;
566.4000;0.1538;3.9992;
566.7000;0.1490;3.9864;
567.0000;0.1522;3.9890;
567.3000;0.1514;3.9864;
567.6000;0.1465;3.9813;
567.9000;0.1571;4.0043;
568.2000;0.1514;3.9967;
568.5000;0.1547;4.0018;
568.8000;0.1522;3.9941;
569.1000;0.1530;3.9992;
569.4000;0.1522;3.9992;
569.7000;0.1490;3.9967;
570.0000;0.1514;4.0043;
570.3000;0.1514;4.0018;
570.6000;0.1555;4.0095;
570.9000;0.1530;4.0018;
571.2000;0.1538;4.0043;
571.5000;0.1538;4.0146;
571.8000;0.1547;4.0146;
572.1000;0.1514;4.0069;
572.4000;0.1514;4.0095;
572.7000;0.1506;4.0095;
573.0000;0.1449;3.9864;
573.3000;0.1506;3.9992;
573.6000;0.1514;3.9967;
573.9000;0.1620;4.0223;
574.2000;0.1465;3.9761;
574.5000;0.1530;3.9915;
574.8000;0.1506;3.9941;
575.1000;0.1514;4.0018;
575.4000;0.1547;4.0018;
575.7000;0.1465;3.9761;
576.0000;0.1514;3.9864;
576.3000;0.1538;3.9941;
576.6000;0.1514;3.9890;
576.9000;0.1522;3.9890;
577.2000;0.1530;3.9941;
577.5000;0.1506;3.9915;
577.8000;0.1514;3.9992;
578.1000;0.1506;4.0018;
578.4000;0.1498;3.9967;
578.7000;0.1530;3.9915;
579.0000;0.1498;3.9838;
579.3000;0.1506;3.9864;
579.6000;0.1514;3.9813;
579.9000;0.1522;3.9838;
580.2000;0.1530;3.9864;
580.5000;0.1457;3.9633;
580.8000;0.1555;4.0018;
581.1000;0.1514;3.9967;
581.4000;0.1522;3.9890;
581.7000;0.1514;3.9838;
582.0000;0.1538;3.9890;
582.3000;0.1530;3.9890;
582.6000;0.1530;3.9967;
582.9000;0.1538;4.0043;
583.2000;0.1514;4.0018;
583.5000;0.1555;4.0197;
583.8000;0.1522;4.0146;
584.1000;0.1506;4.0069;
584.4000;0.1522;4.0146;
584.7000;0.1587;4.0377;
585.0000;0.1473;4.0018;
585.3000;0.1506;4.0043;
585.6000;0.1498;3.9915;
585.9000;0.1514;3.9941;
586.2000;0.1530;3.9915;
586.5000;0.1522;3.9915;
586.8000;0.1514;3.9967;
587.1000;0.1481;3.9864;
587.4000;0.1579;3.9967;
587.7000;0.1514;3.9787;
588.0000;0.1473;3.9659;
588.3000;0.1555;3.9864;
588.6000;0.1571;4.0018;
588.9000;0.1506;3.9890;
589.2000;0.1506;3.9915;
589.5000;0.1490;3.9992;
589.8000;0.1522;4.0069;
590.1000;0.1514;4.0018;
590.4000;0.1514;4.0018;
590.7000;0.1530;4.0069;
591.0000;0.1522;4.0095;
591.3000;0.1547;4.0197;
591.6000;0.1514;3.9992;
591.9000;0.1587;4.0120;
592.2000;0.1538;3.9992;
592.5000;0.1538;3.9941;
592.8000;0.1522;3.9941;
593.1000;0.1530;3.9992;
593.4000;0.1555;4.0043;
593.7000;0.1490;3.9890;
594.0000;0.1514;3.9890;
594.3000;0.1498;3.9915;
594.6000;0.1514;3.9915;
594.9000;0.1514;3.9890;
595.2000;0.1514;3.9864;
595.5000;0.1457;3.9736;
595.8000;0.1514;3.9813;
596.1000;0.1514;3.9864;
596.4000;0.1514;3.9864;
596.7000;0.1481;3.9838;
597.0000;0.1620;4.0197;
597.3000;0.1514;3.9941;
597.6000;0.1522;4.0018;
597.9000;0.1530;3.9992;
598.2000;0.1473;3.9838;
598.5000;0.1506;3.9992;
598.8000;0.1530;4.0018;
599.1000;0.1506;4.0018;
599.4000;0.1514;3.9967;
599.7000;0.1514;4.0095;
600.0000;0.1490;4.0018;
600.3000;0.1522;4.0146;
600.6000;0.1530;4.0146;
600.9000;0.1465;3.9941;
601.2000;0.1506;3.9915;
601.5000;0.1506;3.9761;
601.8000;0.1498;3.9633;
602.1000;0.1498;3.9505;
602.4000;0.1490;3.9453;
602.7000;0.1465;3.9300;
603.0000;0.1473;3.9197;
603.3000;0.1506;3.9197;
603.6000;0.1473;3.9043;
603.9000;0.1433;3.8838;
604.2000;0.1465;3.8915;
604.5000;0.1473;3.8966;
604.8000;0.1457;3.8889;
605.1000;0.1433;3.8812;
605.4000;0.1433;3.8838;
605.7000;0.1433;3.8787;
606.0000;0.1425;3.8761;
606.3000;0.1506;3.8940;
606.6000;0.1400;3.8658;
606.9000;0.1425;3.8735;
607.2000;0.1449;3.8889;
607.5000;0.1400;3.8735;
607.8000;0.1433;3.8735;
608.1000;0.1416;3.8761;
608.4000;0.1400;3.8607;
608.7000;0.1408;3.8556;
609.0000;0.1351;3.8453;
609.3000;0.1408;3.8581;
609.6000;0.1400;3.8581;
609.9000;0.1392;3.8581;
610.2000;0.1408;3.8581;
610.5000;0.1351;3.8402;
610.8000;0.1392;3.8504;
611.1000;0.1384;3.8453;
611.4000;0.1319;3.8325;
611.7000;0.1392;3.8453;
612.0000;0.1384;3.8376;
612.3000;0.1400;3.8556;
612.6000;0.1343;3.8402;
612.9000;0.1351;3.8402;
613.2000;0.1359;3.8504;
613.5000;0.1376;3.8556;
613.8000;0.1376;3.8581;
614.1000;0.1376;3.8684;
614.4000;0.1359;3.8633;
614.7000;0.1376;3.8556;
615.0000;0.1368;3.8607;
615.3000;0.1351;3.8530;
615.6000;0.1343;3.8530;
615.9000;0.1392;3.8658;
616.2000;0.1392;3.8633;
616.5000;0.1368;3.8633;
616.8000;0.1335;3.8376;
617.1000;0.1351;3.8402;
617.4000;0.1368;3.8479;
617.7000;0.1343;3.8453;
618.0000;0.1376;3.8504;
618.3000;0.1376;3.8504;
618.6000;0.1343;3.8453;
618.9000;0.1343;3.8402;
619.2000;0.1343;3.8453;
619.5000;0.1335;3.8530;
619.8000;0.1343;3.8556;
620.1000;0.1327;3.8504;
620.4000;0.1343;3.8530;
620.7000;0.1351;3.8556;
621.0000;0.1311;3.8479;
621.3000;0.1351;3.8504;
621.6000;0.1286;3.8325;
621.9000;0.1311;3.8325;
622.2000;0.1351;3.8376;
622.5000;0.1335;3.8299;
622.8000;0.1359;3.8402;
623.1000;0.1343;3.8350;
623.4000;0.1343;3.8222;
623.7000;0.1327;3.8145;
624.0000;0.1327;3.8171;
624.3000;0.1319;3.8197;
624.6000;0.1302;3.8197;
624.9000;0.1302;3.8222;
625.2000;0.1327;3.8248;
625.5000;0.1286;3.8222;
625.8000;0.1319;3.8350;
626.1000;0.1335;3.8427;
626.4000;0.1311;3.8402;
626.7000;0.1327;3.8325;
627.0000;0.1294;3.8222;
627.3000;0.1400;3.8633;
627.6000;0.1302;3.8427;
627.9000;0.1319;3.8453;
628.2000;0.1351;3.8633;
628.5000;0.1302;3.8479;
628.8000;0.1294;3.8453;
629.1000;0.1327;3.8453;
629.4000;0.1311;3.8402;
629.7000;0.1311;3.8273;
630.0000;0.1335;3.8350;
630.3000;0.1294;3.8273;
630.6000;0.1294;3.8299;
630.9000;0.1294;3.8376;
631.2000;0.1286;3.8325;
631.5000;0.1302;3.8299;
631.8000;0.1294;3.8325;
632.1000;0.1302;3.8273;
632.4000;0.1311;3.8248;
632.7000;0.1319;3.8299;
633.0000;0.1384;3.8427;
633.3000;0.1270;3.8222;
633.6000;0.1319;3.8325;
633.9000;0.1286;3.8350;
634.2000;0.1286;3.8350;
634.5000;0.1311;3.8453;
634.8000;0.1270;3.8222;
635.1000;0.1294;3.8248;
635.4000;0.1302;3.8248;
635.7000;0.1278;3.8248;
636.0000;0.1286;3.8248;
636.3000;0.1302;3.8350;
636.6000;0.1262;3.8171;
636.9000;0.1311;3.8325;
637.2000;0.1286;3.8299;
637.5000;0.1286;3.8350;
637.8000;0.1294;3.8427;
638.1000;0.1286;3.8350;
638.4000;0.1278;3.8222;
638.7000;0.1254;3.8171;
639.0000;0.1278;3.8248;
639.3000;0.1286;3.8197;
639.6000;0.1311;3.8222;
639.9000;0.1286;3.8145;
640.2000;0.1319;3.8171;
640.5000;0.1286;3.8145;
640.8000;0.1286;3.8145;
641.1000;0.1237;3.7966;
641.4000;0.1270;3.8043;
641.7000;0.1327;3.8222;
642.0000;0.1270;3.8043;
642.3000;0.1254;3.8120;
642.6000;0.1237;3.8068;
642.9000;0.1270;3.8094;
643.2000;0.1221;3.7914;
643.5000;0.1302;3.8248;
643.8000;0.1278;3.8145;
644.1000;0.1327;3.8273;
644.4000;0.1213;3.7889;
644.7000;0.1213;3.7940;
645.0000;0.1213;3.7914;
645.3000;0.1319;3.8145;
645.6000;0.1245;3.8094;
645.9000;0.1278;3.8197;
646.2000;0.1302;3.8248;
646.5000;0.1278;3.8145;
646.8000;0.1254;3.8094;
647.1000;0.1245;3.8017;
647.4000;0.1278;3.8068;
647.7000;0.1270;3.8043;
648.0000;0.1278;3.8068;
648.3000;0.1270;3.8120;
648.6000;0.1262;3.8171;
648.9000;0.1262;3.8197;
649.2000;0.1302;3.8376;
649.5000;0.1254;3.8273;
649.8000;0.1278;3.8171;
650.1000;0.1270;3.8171;
650.4000;0.1262;3.8145;
650.7000;0.1254;3.8043;
651.0000;0.1278;3.8171;
651.3000;0.1254;3.8171;
651.6000;0.1229;3.8094;
651.9000;0.1270;3.8145;
652.2000;0.1262;3.8120;
652.5000;0.1188;3.7966;
652.8000;0.1270;3.8145;
653.1000;0.1254;3.8043;
653.4000;0.1262;3.8068;
653.7000;0.1262;3.8094;
654.0000;0.1254;3.8043;
654.3000;0.1302;3.8120;
654.6000;0.1262;3.8043;
654.9000;0.1213;3.7889;
655.2000;0.1229;3.8094;
655.5000;0.1229;3.8068;
655.8000;0.1245;3.8197;
656.1000;0.1262;3.8248;
656.4000;0.1254;3.8145;
656.7000;0.1262;3.8171;
657.0000;0.1245;3.8197;
657.3000;0.1254;3.8197;
657.6000;0.1270;3.8222;
657.9000;0.1229;3.8043;
658.2000;0.1213;3.7940;
658.5000;0.1221;3.8068;
658.8000;0.1229;3.8094;
659.1000;0.1237;3.8120;
659.4000;0.1237;3.8145;
659.7000;0.1237;3.8043;
660.0000;0.1237;3.8145;
660.3000;0.1221;3.8094;
660.6000;0.1205;3.8094;
660.9000;0.1237;3.8248;
661.2000;0.1229;3.8171;
661.5000;0.1188;3.8068;
661.8000;0.1221;3.8120;
662.1000;0.1245;3.8145;
662.4000;0.1172;3.7812;
662.7000;0.1221;3.8094;
663.0000;0.1245;3.8171;
663.3000;0.1245;3.8145;
663.6000;0.1245;3.8222;
663.9000;0.1221;3.8171;
664.2000;0.1180;3.8171;
664.5000;0.1262;3.8325;
664.8000;0.1245;3.8325;
665.1000;0.1229;3.8273;
665.4000;0.1237;3.8299;
665.7000;0.1245;3.8273;
666.0000;0.1221;3.8222;
666.3000;0.1237;3.8325;
666.6000;0.1245;3.8350;
666.9000;0.1254;3.8402;
667.2000;0.1172;3.8248;
667.5000;0.1254;3.8504;
667.8000;0.1237;3.8479;
668.1000;0.1180;3.8273;
668.4000;0.1229;3.8325;
668.7000;0.1237;3.8350;
669.0000;0.1221;3.8299;
669.3000;0.1229;3.8299;
669.6000;0.1221;3.8222;
669.9000;0.1294;3.8427;
670.2000;0.1245;3.8299;
670.5000;0.1229;3.8299;
670.8000;0.1221;3.8325;
671.1000;0.1229;3.8402;
671.4000;0.1229;3.8402;
671.7000;0.1245;3.8479;
672.0000;0.1229;3.8607;
672.3000;0.1229;3.8530;
672.6000;0.1221;3.8402;
672.9000;0.1213;3.8453;
673.2000;0.1221;3.8376;
673.5000;0.1229;3.8376;
673.8000;0.1229;3.8376;
674.1000;0.1254;3.8427;
674.4000;0.1245;3.8427;
674.7000;0.1229;3.8350;
675.0000;0.1221;3.8350;
675.3000;0.1319;3.8607;
675.6000;0.1254;3.8350;
675.9000;0.1221;3.8273;
676.2000;0.1245;3.8350;
676.5000;0.1213;3.8325;
676.8000;0.1229;3.8248;
677.1000;0.1229;3.8248;
677.4000;0.1237;3.8325;
677.7000;0.1237;3.8171;
678.0000;0.1237;3.8273;
678.3000;0.1172;3.7966;
678.6000;0.1188;3.8094;
678.9000;0.1221;3.8094;
679.2000;0.1237;3.8120;
679.5000;0.1197;3.8043;
679.8000;0.1237;3.8222;
680.1000;0.1221;3.8197;
680.4000;0.1213;3.8171;
680.7000;0.1229;3.8222;
681.0000;0.1213;3.8273;
681.3000;0.1205;3.8222;
681.6000;0.1213;3.8248;
681.9000;0.1213;3.8299;
682.2000;0.1205;3.8222;
682.5000;0.1229;3.8325;
682.8000;0.1221;3.8350;
683.1000;0.1254;3.8402;
683.4000;0.1156;3.7940;
683.7000;0.1221;3.8171;
684.0000;0.1229;3.8273;
684.3000;0.1237;3.8248;
684.6000;0.1164;3.8094;
684.9000;0.1237;3.8248;
685.2000;0.1221;3.8197;
685.5000;0.1237;3.8299;
685.8000;0.1213;3.8299;
686.1000;0.1213;3.8197;
686.4000;0.1205;3.8120;
686.7000;0.1221;3.8222;
687.0000;0.1245;3.8248;
687.3000;0.1229;3.8222;
687.6000;0.1205;3.8197;
687.9000;0.1221;3.8222;
688.2000;0.1221;3.8197;
688.5000;0.1205;3.8145;
688.8000;0.1205;3.8145;
689.1000;0.1278;3.8453;
689.4000;0.1099;3.7966;
689.7000;0.1205;3.8350;
690.0000;0.1205;3.8376;
690.3000;0.1213;3.8325;
690.6000;0.1229;3.8350;
690.9000;0.1213;3.8325;
691.2000;0.1197;3.8299;
691.5000;0.1229;3.8402;
691.8000;0.1221;3.8453;
692.1000;0.1229;3.8504;
692.4000;0.1278;3.8684;
692.7000;0.1172;3.8376;
693.0000;0.1229;3.8479;
693.3000;0.1205;3.8479;
693.6000;0.1197;3.8402;
693.9000;0.1221;3.8453;
694.2000;0.1229;3.8376;
694.5000;0.1197;3.8273;
694.8000;0.1188;3.8299;
695.1000;0.1197;3.8453;
695.4000;0.1205;3.8427;
695.7000;0.1213;3.8427;
696.0000;0.1229;3.8530;
696.3000;0.1123;3.8325;
696.6000;0.1213;3.8556;
696.9000;0.1197;3.8556;
697.2000;0.1197;3.8402;
697.5000;0.1221;3.8453;
697.8000;0.1245;3.8453;
698.1000;0.1205;3.8325;
698.4000;0.1245;3.8376;
698.7000;0.1229;3.8325;
699.0000;0.1197;3.8299;
699.3000;0.1164;3.8273;
699.6000;0.1213;3.8453;
699.9000;0.1205;3.8479;
700.2000;0.1229;3.8556;
700.5000;0.1188;3.8427;
700.8000;0.1221;3.8479;
701.1000;0.1205;3.8402;
701.4000;0.1180;3.8273;
701.7000;0.1205;3.8376;
702.0000;0.1205;3.8376;
702.3000;0.0985;3.7812;
702.6000;0.1229;3.8427;
702.9000;0.1221;3.8479;
703.2000;0.1197;3.8376;
703.5000;0.1229;3.8530;
703.8000;0.1172;3.8299;
704.1000;0.1205;3.8376;
704.4000;0.1221;3.8427;
704.7000;0.1221;3.8427;
705.0000;0.1197;3.8402;
705.3000;0.1197;3.8427;
705.6000;0.1188;3.8427;
705.9000;0.1197;3.8350;
706.2000;0.1205;3.8273;
706.5000;0.1188;3.8248;
706.8000;0.1188;3.8222;
707.1000;0.1205;3.8273;
707.4000;0.1180;3.8299;
707.7000;0.1197;3.8273;
708.0000;0.1262;3.8427;
708.3000;0.1213;3.8222;
708.6000;0.1221;3.8120;
708.9000;0.1180;3.8017;
709.2000;0.1197;3.8145;
709.5000;0.1205;3.8248;
709.8000;0.1197;3.8299;
710.1000;0.1254;3.8402;
710.4000;0.1221;3.8350;
710.7000;0.1197;3.8171;
711.0000;0.1221;3.8325;
711.3000;0.1180;3.8222;
711.6000;0.1148;3.8068;
711.9000;0.1188;3.8299;
712.2000;0.1237;3.8504;
712.5000;0.1197;3.8376;
712.8000;0.1221;3.8402;
713.1000;0.1213;3.8453;
713.4000;0.1229;3.8581;
713.7000;0.1213;3.8633;
714.0000;0.1221;3.8684;
714.3000;0.1180;3.8581;
714.6000;0.1237;3.8735;
714.9000;0.1205;3.8633;
715.2000;0.1091;3.8248;
715.5000;0.1213;3.8581;
715.8000;0.1197;3.8479;
716.1000;0.1229;3.8556;
716.4000;0.1205;3.8504;
716.7000;0.1188;3.8504;
717.0000;0.1180;3.8376;
717.3000;0.1205;3.8376;
717.6000;0.1254;3.8479;
717.9000;0.1197;3.8350;
718.2000;0.1197;3.8350;
718.5000;0.1205;3.8376;
718.8000;0.1188;3.8325;
719.1000;0.1213;3.8376;
719.4000;0.1213;3.8299;
719.7000;0.1180;3.8222;
720.0000;0.1205;3.8325;
720.3000;0.1376;3.8863;
720.6000;0.1205;3.8325;
720.9000;0.1188;3.8299;
721.2000;0.1221;3.8453;
721.5000;0.1213;3.8504;
721.8000;0.1221;3.8504;
722.1000;0.1197;3.8504;
722.4000;0.1180;3.8402;
722.7000;0.1213;3.8350;
723.0000;0.1172;3.8273;
723.3000;0.1335;3.8761;
723.6000;0.1188;3.8402;
723.9000;0.1205;3.8504;
724.2000;0.1188;3.8530;
724.5000;0.1197;3.8607;
724.8000;0.1188;3.8633;
725.1000;0.1188;3.8556;
725.4000;0.1213;3.8556;
725.7000;0.1197;3.8581;
726.0000;0.1197;3.8581;
726.3000;0.1180;3.8504;
726.6000;0.1197;3.8427;
726.9000;0.1205;3.8530;
727.2000;0.1164;3.8325;
727.5000;0.1156;3.8299;
727.8000;0.1213;3.8427;
728.1000;0.1188;3.8350;
728.4000;0.1197;3.8350;
728.7000;0.1164;3.8350;
729.0000;0.1188;3.8248;
729.3000;0.1197;3.8197;
729.6000;0.1213;3.8299;
729.9000;0.1180;3.8299;
730.2000;0.1213;3.8350;
730.5000;0.1188;3.8273;
730.8000;0.1205;3.8273;
731.1000;0.1197;3.8325;
731.4000;0.1131;3.8197;
731.7000;0.1188;3.8350;
732.0000;0.1237;3.8427;
732.3000;0.1197;3.8248;
732.6000;0.1205;3.8273;
732.9000;0.1278;3.8530;
733.2000;0.1197;3.8248;
733.5000;0.1188;3.8299;
733.8000;0.1205;3.8325;
734.1000;0.1221;3.8427;
734.4000;0.1213;3.8376;
734.7000;0.1197;3.8427;
735.0000;0.1083;3.8171;
735.3000;0.1115;3.8222;
735.6000;0.1294;3.8838;
735.9000;0.1221;3.8581;
736.2000;0.1205;3.8633;
736.5000;0.1237;3.8735;
736.8000;0.1254;3.8710;
737.1000;0.1327;3.9017;
737.4000;0.1172;3.8402;
737.7000;0.1188;3.8504;
738.0000;0.1197;3.8479;
738.3000;0.1164;3.8325;
738.6000;0.1180;3.8427;
738.9000;0.1188;3.8453;
739.2000;0.1205;3.8581;
739.5000;0.1311;3.8863;
739.8000;0.1188;3.8453;
740.1000;0.1180;3.8427;
740.4000;0.1229;3.8504;
740.7000;0.1213;3.8453;
741.0000;0.1205;3.8402;
741.3000;0.1213;3.8350;
741.6000;0.1221;3.8479;
741.9000;0.1197;3.8427;
742.2000;0.1197;3.8427;
742.5000;0.1172;3.8453;
742.8000;0.1172;3.8479;
743.1000;0.1205;3.8556;
743.4000;0.1180;3.8427;
743.7000;0.1180;3.8376;
744.0000;0.1221;3.8402;
744.3000;0.1172;3.8273;
744.6000;0.1188;3.8299;
744.9000;0.1197;3.8299;
745.2000;0.1245;3.8427;
745.5000;0.1205;3.8402;
745.8000;0.1205;3.8350;
746.1000;0.1172;3.8350;
746.4000;0.1164;3.8350;
746.7000;0.1188;3.8530;
747.0000;0.1172;3.8504;
747.3000;0.1172;3.8504;
747.6000;0.1205;3.8556;
747.9000;0.1172;3.8556;
748.2000;0.1197;3.8633;
748.5000;0.1164;3.8530;
748.8000;0.1188;3.8633;
749.1000;0.1205;3.8684;
749.4000;0.1188;3.8710;
749.7000;0.1197;3.8761;
750.0000;0.1180;3.8735;
750.3000;0.1172;3.8658;
750.6000;0.1156;3.8607;
750.9000;0.1197;3.8556;
751.2000;0.1213;3.8684;
751.5000;0.1188;3.8607;
751.8000;0.1180;3.8504;
752.1000;0.1188;3.8479;
752.4000;0.1213;3.8479;
752.7000;0.1188;3.8427;
753.0000;0.1172;3.8299;
753.3000;0.1188;3.8376;
753.6000;0.1180;3.8273;
753.9000;0.1083;3.8017;
754.2000;0.1213;3.8427;
754.5000;0.1180;3.8273;
754.8000;0.1188;3.8325;
755.1000;0.1188;3.8376;
755.4000;0.1197;3.8402;
755.7000;0.1172;3.8376;
756.0000;0.1213;3.8504;
756.3000;0.1221;3.8479;
756.6000;0.1164;3.8376;
756.9000;0.1156;3.8350;
757.2000;0.1164;3.8273;
757.5000;0.1180;3.8325;
757.8000;0.1213;3.8427;
758.1000;0.1188;3.8325;
758.4000;0.1205;3.8427;
758.7000;0.1172;3.8325;
759.0000;0.1359;3.8889;
759.3000;0.1156;3.8350;
759.6000;0.1229;3.8479;
759.9000;0.1254;3.8530;
760.2000;0.1213;3.8479;
760.5000;0.1140;3.8248;
760.8000;0.1180;3.8402;
761.1000;0.1245;3.8684;
761.4000;0.1188;3.8504;
761.7000;0.1237;3.8607;
762.0000;0.1188;3.8479;
762.3000;0.1164;3.8427;
762.6000;0.1302;3.8735;
762.9000;0.1180;3.8402;
763.2000;0.1172;3.8402;
763.5000;0.1180;3.8402;
763.8000;0.1245;3.8658;
764.1000;0.1172;3.8479;
764.4000;0.1180;3.8453;
764.7000;0.1148;3.8299;
765.0000;0.1213;3.8504;
765.3000;0.1197;3.8479;
765.6000;0.1188;3.8479;
765.9000;0.1156;3.8350;
766.2000;0.1245;3.8556;
766.5000;0.1213;3.8530;
766.8000;0.1180;3.8325;
767.1000;0.1164;3.8350;
767.4000;0.1148;3.8402;
767.7000;0.1180;3.8581;
768.0000;0.1180;3.8581;
768.3000;0.1180;3.8453;
768.6000;0.1180;3.8556;
768.9000;0.1180;3.8504;
769.2000;0.1180;3.8556;
769.5000;0.1221;3.8684;
769.8000;0.1164;3.8530;
770.1000;0.1180;3.8530;
770.4000;0.1172;3.8607;
770.7000;0.1156;3.8530;
771.0000;0.1180;3.8530;
771.3000;0.1180;3.8504;
771.6000;0.1188;3.8658;
771.9000;0.1164;3.8453;
772.2000;0.1188;3.8530;
772.5000;0.1180;3.8556;
772.8000;0.1188;3.8453;
773.1000;0.1197;3.8453;
773.4000;0.1172;3.8376;
773.7000;0.1205;3.8402;
774.0000;0.1172;3.8376;
774.3000;0.1188;3.8427;
774.6000;0.1213;3.8427;
774.9000;0.1156;3.8402;
775.2000;0.1164;3.8453;
775.5000;0.1156;3.8402;
775.8000;0.1172;3.8376;
776.1000;0.1205;3.8479;
776.4000;0.1131;3.8299;
776.7000;0.1278;3.8658;
777.0000;0.1188;3.8402;
777.3000;0.1172;3.8402;
777.6000;0.1172;3.8427;
777.9000;0.1156;3.8402;
778.2000;0.1148;3.8325;
778.5000;0.1188;3.8402;
778.8000;0.1180;3.8453;
779.1000;0.1180;3.8453;
779.4000;0.1180;3.8427;
779.7000;0.1197;3.8479;
780.0000;0.1148;3.8402;
780.3000;0.1188;3.8581;
780.6000;0.1205;3.8504;
780.9000;0.1164;3.8504;
781.2000;0.1180;3.8427;
781.5000;0.1172;3.8479;
781.8000;0.1188;3.8530;
782.1000;0.1188;3.8530;
782.4000;0.1180;3.8376;
782.7000;0.1188;3.8427;
783.0000;0.1262;3.8658;
783.3000;0.1172;3.8427;
783.6000;0.1123;3.8299;
783.9000;0.1188;3.8504;
784.2000;0.1197;3.8530;
784.5000;0.1180;3.8530;
784.8000;0.1180;3.8530;
785.1000;0.1172;3.8427;
785.4000;0.1180;3.8479;
785.7000;0.1188;3.8581;
786.0000;0.1180;3.8556;
786.3000;0.1180;3.8479;
786.6000;0.1245;3.8658;
786.9000;0.1197;3.8530;
787.2000;0.1180;3.8530;
787.5000;0.1205;3.8607;
787.8000;0.1172;3.8402;
788.1000;0.1197;3.8453;
788.4000;0.1197;3.8402;
788.7000;0.1188;3.8402;
789.0000;0.1188;3.8479;
789.3000;0.1197;3.8479;
789.6000;0.1164;3.8376;
789.9000;0.1188;3.8479;
790.2000;0.1172;3.8453;
790.5000;0.1180;3.8376;
790.8000;0.1188;3.8325;
791.1000;0.1205;3.8504;
791.4000;0.1180;3.8479;
791.7000;0.1188;3.8556;
792.0000;0.1180;3.8479;
792.3000;0.1180;3.8453;
792.6000;0.1188;3.8504;
792.9000;0.1197;3.8479;
793.2000;0.1164;3.8453;
793.5000;0.1148;3.8427;
793.8000;0.1197;3.8453;
794.1000;0.1115;3.8273;
794.4000;0.1180;3.8479;
794.7000;0.1188;3.8530;
795.0000;0.1164;3.8479;
795.3000;0.1164;3.8427;
795.6000;0.1180;3.8479;
795.9000;0.1188;3.8427;
796.2000;0.1164;3.8350;
796.5000;0.1156;3.8273;
796.8000;0.1156;3.8299;
797.1000;0.1180;3.8453;
797.4000;0.1140;3.8350;
797.7000;0.1172;3.8299;
798.0000;0.1164;3.8350;
798.3000;0.1180;3.8376;
798.6000;0.1164;3.8427;
798.9000;0.1180;3.8427;
799.2000;0.1188;3.8453;
799.5000;0.1197;3.8504;
799.8000;0.1188;3.8530;
800.1000;0.1213;3.8607;
800.4000;0.1156;3.8530;
800.7000;0.1164;3.8479;
801.0000;0.1180;3.8530;
801.3000;0.1188;3.8581;
801.6000;0.1172;3.8530;
801.9000;0.1131;3.8402;
802.2000;0.1180;3.8479;
802.5000;0.1156;3.8427;
802.8000;0.1164;3.8453;
803.1000;0.1164;3.8427;
803.4000;0.1188;3.8504;
803.7000;0.1180;3.8453;
804.0000;0.1205;3.8479;
804.3000;0.1188;3.8504;
804.6000;0.1197;3.8556;
804.9000;0.1205;3.8658;
805.2000;0.1180;3.8607;
805.5000;0.1197;3.8633;
805.8000;0.1164;3.8581;
806.1000;0.1180;3.8556;
806.4000;0.1156;3.8504;
806.7000;0.1164;3.8556;
807.0000;0.1180;3.8556;
807.3000;0.1237;3.8633;
807.6000;0.1188;3.8479;
807.9000;0.1180;3.8556;
808.2000;0.1286;3.8761;
808.5000;0.1164;3.8427;
808.8000;0.1172;3.8504;
809.1000;0.1188;3.8556;
809.4000;0.1180;3.8530;
809.7000;0.1286;3.8863;
810.0000;0.1254;3.8761;
810.3000;0.1172;3.8556;
810.6000;0.1164;3.8581;
810.9000;0.1156;3.8607;
811.2000;0.1172;3.8684;
811.5000;0.1172;3.8658;
811.8000;0.1156;3.8607;
812.1000;0.1180;3.8633;
812.4000;0.1148;3.8530;
812.7000;0.1164;3.8556;
813.0000;0.1164;3.8504;
813.3000;0.1237;3.8735;
813.6000;0.1172;3.8530;
813.9000;0.1180;3.8556;
814.2000;0.1172;3.8479;
814.5000;0.1180;3.8479;
814.8000;0.1180;3.8504;
815.1000;0.1172;3.8453;
815.4000;0.1172;3.8530;
815.7000;0.1164;3.8530;
816.0000;0.1164;3.8479;
816.3000;0.1050;3.8197;
816.6000;0.1172;3.8504;
816.9000;0.1188;3.8684;
817.2000;0.1123;3.8479;
817.5000;0.1213;3.8735;
817.8000;0.1180;3.8710;
818.1000;0.1115;3.8479;
818.4000;0.1205;3.8761;
818.7000;0.1188;3.8684;
819.0000;0.1156;3.8607;
819.3000;0.1148;3.8581;
819.6000;0.1172;3.8607;
819.9000;0.1172;3.8633;
820.2000;0.1197;3.8684;
820.5000;0.1188;3.8530;
820.8000;0.1164;3.8479;
821.1000;0.1205;3.8607;
821.4000;0.1197;3.8658;
821.7000;0.1180;3.8658;
822.0000;0.1164;3.8607;
822.3000;0.1164;3.8530;
822.6000;0.1197;3.8556;
822.9000;0.1197;3.8581;
823.2000;0.1172;3.8556;
823.5000;0.1156;3.8479;
823.8000;0.1180;3.8504;
824.1000;0.1156;3.8504;
824.4000;0.1205;3.8607;
824.7000;0.1197;3.8607;
825.0000;0.1180;3.8556;
825.3000;0.1180;3.8453;
825.6000;0.1172;3.8479;
825.9000;0.1172;3.8479;
826.2000;0.1188;3.8479;
826.5000;0.1180;3.8479;
826.8000;0.1172;3.8504;
827.1000;0.1164;3.8427;
827.4000;0.1180;3.8427;
827.7000;0.1172;3.8479;
828.0000;0.1172;3.8504;
828.3000;0.1148;3.8402;
828.6000;0.1156;3.8376;
828.9000;0.1172;3.8427;
829.2000;0.1164;3.8376;
829.5000;0.1221;3.8633;
829.8000;0.1164;3.8427;
830.1000;0.1164;3.8479;
830.4000;0.1180;3.8504;
830.7000;0.1123;3.8299;
831.0000;0.1229;3.8658;
831.3000;0.1172;3.8530;
831.6000;0.1164;3.8479;
831.9000;0.1156;3.8479;
832.2000;0.1131;3.8530;
832.5000;0.1156;3.8710;
832.8000;0.1164;3.8735;
833.1000;0.1172;3.8710;
833.4000;0.1180;3.8787;
833.7000;0.1172;3.8735;
834.0000;0.1278;3.9069;
834.3000;0.1197;3.8684;
834.6000;0.1213;3.8787;
834.9000;0.1156;3.8633;
835.2000;0.1172;3.8684;
835.5000;0.1172;3.8684;
835.8000;0.1188;3.8684;
836.1000;0.1172;3.8633;
836.4000;0.1180;3.8633;
836.7000;0.1156;3.8556;
837.0000;0.1180;3.8607;
837.3000;0.1156;3.8581;
837.6000;0.1148;3.8504;
837.9000;0.1172;3.8530;
838.2000;0.1180;3.8581;
838.5000;0.1164;3.8556;
838.8000;0.1180;3.8607;
839.1000;0.1156;3.8581;
839.4000;0.1131;3.8479;
839.7000;0.1188;3.8735;
840.0000;0.1180;3.8684;
840.3000;0.1148;3.8556;
840.6000;0.1188;3.8761;
840.9000;0.1197;3.8838;
841.2000;0.1180;3.8838;
841.5000;0.1164;3.8710;
841.8000;0.1123;3.8530;
842.1000;0.1172;3.8658;
842.4000;0.1188;3.8812;
842.7000;0.1164;3.8684;
843.0000;0.1156;3.8658;
843.3000;0.1180;3.8710;
843.6000;0.1164;3.8633;
843.9000;0.1164;3.8607;
844.2000;0.1188;3.8658;
844.5000;0.1164;3.8581;
844.8000;0.1172;3.8607;
845.1000;0.1156;3.8581;
845.4000;0.1180;3.8504;
845.7000;0.1164;3.8556;
846.0000;0.1213;3.8633;
846.3000;0.1156;3.8581;
846.6000;0.1197;3.8761;
846.9000;0.1164;3.8787;
847.2000;0.1188;3.8787;
847.5000;0.1156;3.8735;
847.8000;0.1221;3.8915;
848.1000;0.1172;3.8787;
848.4000;0.1156;3.8633;
848.7000;0.1172;3.8607;
849.0000;0.1164;3.8633;
849.3000;0.1156;3.8607;
849.6000;0.1164;3.8607;
849.9000;0.1050;3.8350;
850.2000;0.1164;3.8530;
850.5000;0.1164;3.8504;
850.8000;0.1164;3.8504;
851.1000;0.1197;3.8581;
851.4000;0.1180;3.8556;
851.7000;0.1156;3.8530;
852.0000;0.1140;3.8376;
852.3000;0.1237;3.8633;
852.6000;0.1156;3.8376;
852.9000;0.1050;3.8094;
853.2000;0.1164;3.8402;
853.5000;0.1099;3.8248;
853.8000;0.1180;3.8530;
854.1000;0.1188;3.8581;
854.4000;0.1164;3.8530;
854.7000;0.1156;3.8453;
855.0000;0.1221;3.8710;
855.3000;0.1197;3.8658;
855.6000;0.1172;3.8530;
855.9000;0.1083;3.8248;
856.2000;0.1197;3.8479;
856.5000;0.1188;3.8479;
856.8000;0.1213;3.8530;
857.1000;0.1197;3.8504;
857.4000;0.1213;3.8607;
857.7000;0.1180;3.8556;
858.0000;0.1164;3.8607;
858.3000;0.1164;3.8556;
858.6000;0.1164;3.8658;
858.9000;0.1172;3.8607;
859.2000;0.1164;3.8453;
859.5000;0.1172;3.8427;
859.8000;0.1164;3.8427;
860.1000;0.1172;3.8453;
860.4000;0.1205;3.8504;
860.7000;0.1156;3.8453;
861.0000;0.1156;3.8479;
861.3000;0.1180;3.8633;
861.6000;0.1172;3.8530;
861.9000;0.1164;3.8581;
862.2000;0.1164;3.8633;
862.5000;0.1164;3.8684;
862.8000;0.1164;3.8658;
863.1000;0.1148;3.8556;
863.4000;0.1156;3.8556;
863.7000;0.1197;3.8607;
864.0000;0.1188;3.8684;
864.3000;0.1221;3.8812;
864.6000;0.1156;3.8658;
864.9000;0.1164;3.8684;
865.2000;0.1180;3.8735;
865.5000;0.1172;3.8684;
865.8000;0.1172;3.8710;
866.1000;0.1180;3.8710;
866.4000;0.1164;3.8684;
866.7000;0.1164;3.8710;
867.0000;0.1156;3.8710;
867.3000;0.1180;3.8735;
867.6000;0.1188;3.8658;
867.9000;0.1188;3.8710;
868.2000;0.1180;3.8735;
868.5000;0.1148;3.8684;
868.8000;0.1197;3.8863;
869.1000;0.1197;3.8863;
869.4000;0.1131;3.8684;
869.7000;0.1164;3.8761;
870.0000;0.1140;3.8658;
870.3000;0.1164;3.8658;
870.6000;0.1156;3.8530;
870.9000;0.1172;3.8556;
871.2000;0.1180;3.8658;
871.5000;0.1074;3.8376;
871.8000;0.1164;3.8633;
872.1000;0.1180;3.8633;
872.4000;0.1148;3.8556;
872.7000;0.1164;3.8556;
873.0000;0.1156;3.8581;
873.3000;0.1140;3.8658;
873.6000;0.1148;3.8710;
873.9000;0.1164;3.8761;
874.2000;0.1172;3.8761;
874.5000;0.1156;3.8658;
874.8000;0.1148;3.8530;
875.1000;0.1188;3.8633;
875.4000;0.1254;3.8812;
875.7000;0.1074;3.8350;
876.0000;0.1091;3.8350;
876.3000;0.1180;3.8556;
876.6000;0.1205;3.8556;
876.9000;0.1188;3.8453;
877.2000;0.1172;3.8325;
877.5000;0.1237;3.8479;
877.8000;0.1164;3.8427;
878.1000;0.1172;3.8325;
878.4000;0.1140;3.8299;
878.7000;0.1148;3.8350;
879.0000;0.1148;3.8273;
879.3000;0.1180;3.8325;
879.6000;0.1180;3.8427;
879.9000;0.1164;3.8402;
880.2000;0.1156;3.8325;
880.5000;0.1123;3.8171;
880.8000;0.1180;3.8402;
881.1000;0.1123;3.8222;
881.4000;0.1156;3.8248;
881.7000;0.1172;3.8376;
882.0000;0.1131;3.8273;
882.3000;0.1188;3.8427;
882.6000;0.1180;3.8479;
882.9000;0.1172;3.8402;
883.2000;0.1180;3.8504;
883.5000;0.1164;3.8504;
883.8000;0.1172;3.8530;
884.1000;0.1180;3.8504;
884.4000;0.1197;3.8453;
884.7000;0.1180;3.8427;
885.0000;0.1156;3.8248;
885.3000;0.1099;3.8068;
885.6000;0.1164;3.8299;
885.9000;0.1164;3.8453;
886.2000;0.1164;3.8479;
886.5000;0.1099;3.8299;
886.8000;0.1164;3.8504;
887.1000;0.1156;3.8581;
887.4000;0.1172;3.8684;
887.7000;0.1156;3.8581;
888.0000;0.1197;3.8761;
888.3000;0.1188;3.8735;
888.6000;0.1172;3.8684;
888.9000;0.1156;3.8581;
889.2000;0.1164;3.8633;
889.5000;0.1164;3.8658;
889.8000;0.1188;3.8684;
890.1000;0.1172;3.8633;
890.4000;0.1123;3.8581;
890.7000;0.1156;3.8710;
891.0000;0.1148;3.8581;
891.3000;0.1164;3.8633;
891.6000;0.1148;3.8607;
891.9000;0.1164;3.8684;
892.2000;0.1148;3.8581;
892.5000;0.1221;3.8761;
892.8000;0.1156;3.8556;
893.1000;0.1164;3.8633;
893.4000;0.1245;3.8710;
893.7000;0.1188;3.8607;
894.0000;0.1180;3.8556;
894.3000;0.1156;3.8479;
894.6000;0.1172;3.8479;
894.9000;0.1188;3.8556;
895.2000;0.1172;3.8530;
895.5000;0.1180;3.8633;
895.8000;0.1172;3.8556;
896.1000;0.1180;3.8556;
896.4000;0.1180;3.8530;
896.7000;0.1188;3.8633;
897.0000;0.1156;3.8633;
897.3000;0.1180;3.8658;
897.6000;0.1148;3.8607;
897.9000;0.1262;3.8915;
898.2000;0.1172;3.8658;
898.5000;0.1172;3.8684;
898.8000;0.1180;3.8710;
899.1000;0.1188;3.8710;
899.4000;0.1131;3.8556;
899.7000;0.1180;3.8684;
900.0000;0.1180;3.8684;
900.3000;0.1229;3.8735;
900.6000;0.1188;3.8607;
900.9000;0.1172;3.8556;
901.2000;0.1221;3.8684;
901.5000;0.1156;3.8504;
901.8000;0.1180;3.8607;
902.1000;0.1156;3.8556;
902.4000;0.1180;3.8556;
902.7000;0.1164;3.8581;
903.0000;0.1156;3.8504;
903.3000;0.1156;3.8453;
903.6000;0.1164;3.8453;
903.9000;0.1172;3.8427;
904.2000;0.1156;3.8350;
904.5000;0.1172;3.8325;
904.8000;0.1164;3.8350;
905.1000;0.1164;3.8376;
905.4000;0.1188;3.8427;
905.7000;0.1180;3.8325;
906.0000;0.1156;3.8350;
906.3000;0.1172;3.8376;
906.6000;0.1156;3.8376;
906.9000;0.1180;3.8402;
907.2000;0.1172;3.8350;
907.5000;0.1262;3.8607;
907.8000;0.1180;3.8402;
908.1000;0.1156;3.8350;
908.4000;0.1172;3.8376;
908.7000;0.1172;3.8453;
909.0000;0.1148;3.8427;
909.3000;0.1156;3.8581;
909.6000;0.1156;3.8581;
909.9000;0.1148;3.8581;
910.2000;0.1188;3.8684;
910.5000;0.1180;3.8658;
910.8000;0.1148;3.8556;
911.1000;0.1156;3.8607;
911.4000;0.1148;3.8581;
911.7000;0.1180;3.8581;
912.0000;0.1148;3.8427;
912.3000;0.1172;3.8402;
912.6000;0.1172;3.8402;
912.9000;0.1180;3.8581;
913.2000;0.1156;3.8581;
913.5000;0.1172;3.8479;
913.8000;0.1172;3.8453;
914.1000;0.1188;3.8479;
914.4000;0.1188;3.8581;
914.7000;0.1164;3.8556;
915.0000;0.1140;3.8504;
915.3000;0.1156;3.8530;
915.6000;0.1148;3.8504;
915.9000;0.1172;3.8658;
916.2000;0.1172;3.8710;
916.5000;0.1172;3.8761;
916.8000;0.1164;3.8735;
917.1000;0.1172;3.8761;
917.4000;0.1180;3.8735;
917.7000;0.1172;3.8761;
918.0000;0.1164;3.8710;
918.3000;0.1172;3.8581;
918.6000;0.1164;3.8581;
918.9000;0.1148;3.8658;
919.2000;0.1172;3.8684;
919.5000;0.1140;3.8633;
919.8000;0.1091;3.8530;
920.1000;0.1148;3.8633;
920.4000;0.1197;3.8761;
920.7000;0.1188;3.8838;
921.0000;0.1180;3.8787;
921.3000;0.1156;3.8710;
921.6000;0.1180;3.8710;
921.9000;0.1123;3.8556;
922.2000;0.1172;3.8658;
922.5000;0.1180;3.8658;
922.8000;0.1164;3.8735;
923.1000;0.1172;3.8710;
923.4000;0.1180;3.8735;
923.7000;0.1172;3.8633;
924.0000;0.1164;3.8607;
924.3000;0.1140;3.8633;
924.6000;0.1164;3.8658;
924.9000;0.1172;3.8684;
925.2000;0.1180;3.8684;
925.5000;0.1172;3.8658;
925.8000;0.1164;3.8710;
926.1000;0.1205;3.8787;
926.4000;0.1180;3.8710;
926.7000;0.1107;3.8427;
927.0000;0.1172;3.8633;
927.3000;0.1164;3.8633;
927.6000;0.1140;3.8607;
927.9000;0.1164;3.8556;
928.2000;0.1180;3.8633;
928.5000;0.1188;3.8633;
928.8000;0.1148;3.8530;
929.1000;0.1156;3.8530;
929.4000;0.1140;3.8504;
929.7000;0.1164;3.8556;
930.0000;0.1172;3.8530;
930.3000;0.1164;3.8556;
930.6000;0.1164;3.8556;
930.9000;0.1156;3.8479;
931.2000;0.1164;3.8581;
931.5000;0.1188;3.8684;
931.8000;0.1180;3.8710;
932.1000;0.1188;3.8735;
932.4000;0.1172;3.8812;
932.7000;0.1156;3.8787;
933.0000;0.1188;3.8863;
933.3000;0.1156;3.8761;
933.6000;0.1180;3.8710;
933.9000;0.1164;3.8658;
934.2000;0.1164;3.8607;
934.5000;0.1148;3.8684;
934.8000;0.1156;3.8607;
935.1000;0.1172;3.8658;
935.4000;0.1148;3.8684;
935.7000;0.1172;3.8863;
936.0000;0.1164;3.8889;
936.3000;0.1172;3.8915;
936.6000;0.1188;3.8992;
936.9000;0.1164;3.8992;
937.2000;0.1164;3.8915;
937.5000;0.1197;3.8966;
937.8000;0.1180;3.8838;
938.1000;0.1172;3.8761;
938.4000;0.1188;3.8735;
938.7000;0.1180;3.8658;
939.0000;0.1156;3.8530;
939.3000;0.1156;3.8504;
939.6000;0.1172;3.8530;
939.9000;0.1148;3.8504;
940.2000;0.1156;3.8504;
940.5000;0.1164;3.8530;
940.8000;0.1180;3.8581;
941.1000;0.1164;3.8633;
941.4000;0.1148;3.8556;
941.7000;0.1172;3.8735;
942.0000;0.1140;3.8658;
942.3000;0.1156;3.8710;
942.6000;0.1123;3.8607;
942.9000;0.1131;3.8607;
943.2000;0.1164;3.8684;
943.5000;0.1164;3.8581;
943.8000;0.1172;3.8530;
944.1000;0.1245;3.8684;
944.4000;0.1148;3.8504;
944.7000;0.1164;3.8607;
945.0000;0.1164;3.8633;
945.3000;0.1148;3.8633;
945.6000;0.1172;3.8658;
945.9000;0.1140;3.8607;
946.2000;0.1156;3.8633;
946.5000;0.1172;3.8581;
946.8000;0.1172;3.8658;
947.1000;0.1172;3.8735;
947.4000;0.1172;3.8735;
947.7000;0.1237;3.8838;
948.0000;0.1172;3.8633;
948.3000;0.1172;3.8633;
948.6000;0.1213;3.8787;
948.9000;0.1156;3.8607;
949.2000;0.1115;3.8504;
949.5000;0.1091;3.8427;
949.8000;0.1156;3.8607;
950.1000;0.1213;3.8710;
950.4000;0.1180;3.8633;
950.7000;0.1262;3.8889;
951.0000;0.1172;3.8607;
951.3000;0.1188;3.8684;
951.6000;0.1188;3.8684;
951.9000;0.1156;3.8556;
952.2000;0.1180;3.8633;
952.5000;0.1188;3.8607;
952.8000;0.1140;3.8607;
953.1000;0.1164;3.8710;
953.4000;0.1180;3.8735;
953.7000;0.1164;3.8710;
954.0000;0.1148;3.8761;
954.3000;0.1148;3.8710;
954.6000;0.1180;3.8761;
954.9000;0.1164;3.8581;
955.2000;0.1164;3.8658;
955.5000;0.1221;3.8915;
955.8000;0.1188;3.8787;
956.1000;0.1172;3.8787;
956.4000;0.1050;3.8427;
956.7000;0.1164;3.8735;
957.0000;0.1180;3.8812;
957.3000;0.1148;3.8787;
957.6000;0.1164;3.8863;
957.9000;0.1164;3.8889;
958.2000;0.1156;3.8940;
958.5000;0.1172;3.8889;
958.8000;0.1172;3.8812;
959.1000;0.1140;3.8607;
959.4000;0.1156;3.8607;
959.7000;0.1221;3.8710;
960.0000;0.1156;3.8581;
960.3000;0.1131;3.8556;
960.6000;0.1172;3.8633;
960.9000;0.1148;3.8504;
961.2000;0.1172;3.8530;
961.5000;0.1237;3.8658;
961.8000;0.1164;3.8504;
962.1000;0.1172;3.8607;
962.4000;0.1164;3.8633;
962.7000;0.1188;3.8710;
963.0000;0.1197;3.8761;
963.3000;0.1172;3.8658;
963.6000;0.1156;3.8684;
963.9000;0.1172;3.8787;
964.2000;0.1156;3.8812;
964.5000;0.1180;3.8889;
964.8000;0.1172;3.8863;
965.1000;0.1172;3.8838;
965.4000;0.1115;3.8658;
965.7000;0.1164;3.8710;
966.0000;0.1115;3.8530;
966.3000;0.1115;3.8479;
966.6000;0.1164;3.8684;
966.9000;0.1050;3.8299;
967.2000;0.1164;3.8684;
967.5000;0.1180;3.8735;
967.8000;0.1164;3.8607;
968.1000;0.1164;3.8581;
968.4000;0.1197;3.8710;
968.7000;0.1123;3.8530;
969.0000;0.1245;3.8838;
969.3000;0.1083;3.8376;
969.6000;0.1172;3.8710;
969.9000;0.1164;3.8684;
970.2000;0.1172;3.8581;
970.5000;0.1131;3.8556;
970.8000;0.1172;3.8556;
971.1000;0.1131;3.8453;
971.4000;0.1148;3.8479;
971.7000;0.1099;3.8479;
972.0000;0.1213;3.8761;
972.3000;0.1099;3.8504;
972.6000;0.1148;3.8633;
972.9000;0.1156;3.8684;
973.2000;0.1237;3.8992;
973.5000;0.1172;3.8710;
973.8000;0.1172;3.8735;
974.1000;0.1123;3.8710;
974.4000;0.1107;3.8710;
974.7000;0.1140;3.8812;
975.0000;0.1164;3.8889;
975.3000;0.1148;3.8863;
975.6000;0.1156;3.8787;
975.9000;0.1164;3.8889;
976.2000;0.1156;3.8889;
976.5000;0.1164;3.8915;
976.8000;0.1164;3.8863;
977.1000;0.1188;3.8915;
977.4000;0.1172;3.8863;
977.7000;0.1164;3.8863;
978.0000;0.1099;3.8658;
978.3000;0.1172;3.8710;
978.6000;0.1188;3.8735;
978.9000;0.1172;3.8658;
979.2000;0.1164;3.8658;
979.5000;0.1140;3.8607;
979.8000;0.1148;3.8633;
980.1000;0.1172;3.8710;
980.4000;0.1148;3.8633;
980.7000;0.1164;3.8633;
981.0000;0.1140;3.8556;
981.3000;0.1172;3.8684;
981.6000;0.1172;3.8710;
981.9000;0.1156;3.8735;
982.2000;0.1172;3.8710;
982.5000;0.1148;3.8710;
982.8000;0.1172;3.8710;
983.1000;0.1172;3.8735;
983.4000;0.1188;3.8761;
983.7000;0.1188;3.8658;
984.0000;0.1213;3.8863;
984.3000;0.1188;3.8761;
984.6000;0.1140;3.8633;
984.9000;0.1156;3.8658;
985.2000;0.1156;3.8710;
985.5000;0.1164;3.8761;
985.8000;0.1180;3.8838;
986.1000;0.1164;3.8787;
986.4000;0.1156;3.8710;
986.7000;0.1148;3.8761;
987.0000;0.1156;3.8735;
987.3000;0.1172;3.8812;
987.6000;0.1229;3.8915;
987.9000;0.1156;3.8710;
988.2000;0.1221;3.8838;
988.5000;0.1107;3.8530;
988.8000;0.1164;3.8684;
989.1000;0.1164;3.8633;
989.4000;0.1213;3.8684;
989.7000;0.1172;3.8581;
990.0000;0.1156;3.8658;
990.3000;0.1188;3.8735;
990.6000;0.1099;3.8479;
990.9000;0.1197;3.8710;
991.2000;0.1164;3.8504;
991.5000;0.1156;3.8427;
991.8000;0.1148;3.8273;
992.1000;0.1164;3.8325;
992.4000;0.1180;3.8453;
992.7000;0.1197;3.8504;
993.0000;0.1123;3.8402;
993.3000;0.1164;3.8453;
993.6000;0.1205;3.8658;
993.9000;0.1164;3.8607;
994.2000;0.1140;3.8530;
994.5000;0.1188;3.8607;
994.8000;0.1180;3.8556;
995.1000;0.1180;3.8684;
995.4000;0.1164;3.8684;
995.7000;0.1172;3.8633;
996.0000;0.1131;3.8504;
996.3000;0.1156;3.8556;
996.6000;0.1188;3.8658;
996.9000;0.1099;3.8376;
997.2000;0.1180;3.8556;
997.5000;0.1172;3.8530;
997.8000;0.1148;3.8479;
998.1000;0.1188;3.8633;
998.4000;0.1180;3.8479;
998.7000;0.1172;3.8479;
999.0000;0.1148;3.8427;
999.3000;0.1164;3.8479;
999.6000;0.1188;3.8504;
999.9000;0.1156;3.8427;
1000.2000;0.1164;3.8402;
1000.5000;0.1156;3.8402;
1000.8000;0.1148;3.8350;
1001.1000;0.1164;3.8402;
1001.4000;0.1099;3.8197;
1001.7000;0.1131;3.8350;
1002.0000;0.1180;3.8479;
1002.3000;0.1140;3.8479;
1002.6000;0.1164;3.8453;
1002.9000;0.1140;3.8402;
1003.2000;0.1180;3.8556;
1003.5000;0.1164;3.8453;
1003.8000;0.1156;3.8427;
1004.1000;0.1164;3.8479;
1004.4000;0.1148;3.8427;
1004.7000;0.1156;3.8427;
1005.0000;0.1205;3.8504;
1005.3000;0.1164;3.8402;
1005.6000;0.1164;3.8453;
1005.9000;0.1172;3.8504;
1006.2000;0.1180;3.8530;
1006.5000;0.1254;3.8607;
1006.8000;0.1172;3.8453;
1007.1000;0.1131;3.8350;
1007.4000;0.1156;3.8402;
1007.7000;0.1156;3.8427;
1008.0000;0.1172;3.8504;
1008.3000;0.1131;3.8402;
1008.6000;0.1180;3.8427;
1008.9000;0.1180;3.8530;
1009.2000;0.1083;3.8376;
1009.5000;0.1123;3.8453;
1009.8000;0.1172;3.8581;
1010.1000;0.1164;3.8556;
1010.4000;0.1115;3.8402;
1010.7000;0.1131;3.8479;
1011.0000;0.1164;3.8504;
1011.3000;0.1188;3.8504;
1011.6000;0.1156;3.8479;
1011.9000;0.1156;3.8581;
1012.2000;0.1148;3.8581;
1012.5000;0.1156;3.8556;
1012.8000;0.1164;3.8633;
1013.1000;0.1156;3.8633;
1013.4000;0.1156;3.8556;
1013.7000;0.1164;3.8581;
1014.0000;0.1156;3.8633;
1014.3000;0.1180;3.8633;
1014.6000;0.1026;3.8222;
1014.9000;0.1180;3.8581;
1015.2000;0.1156;3.8581;
1015.5000;0.1140;3.8530;
1015.8000;0.1172;3.8633;
1016.1000;0.1197;3.8607;
1016.4000;0.1156;3.8504;
1016.7000;0.1172;3.8633;
1017.0000;0.1188;3.8633;
1017.3000;0.1180;3.8530;
1017.6000;0.1156;3.8479;
1017.9000;0.1156;3.8453;
1018.2000;0.1172;3.8427;
1018.5000;0.1180;3.8453;
1018.8000;0.1180;3.8376;
1019.1000;0.1164;3.8350;
1019.4000;0.1188;3.8453;
1019.7000;0.1172;3.8530;
1020.0000;0.1213;3.8710;
1020.3000;0.1156;3.8581;
1020.6000;0.1188;3.8658;
1020.9000;0.1180;3.8658;
1021.2000;0.1148;3.8556;
1021.5000;0.1156;3.8581;
1021.8000;0.1172;3.8581;
1022.1000;0.1140;3.8427;
1022.4000;0.1180;3.8530;
1022.7000;0.1148;3.8453;
1023.0000;0.1156;3.8581;
1023.3000;0.1180;3.8556;
1023.6000;0.1156;3.8504;
1023.9000;0.1148;3.8453;
1024.2000;0.1156;3.8581;
1024.5000;0.1180;3.8684;
1024.8000;0.1156;3.8633;
1025.1000;0.1156;3.8633;
1025.4000;0.1180;3.8581;
1025.7000;0.1188;3.8530;
1026.0000;0.1180;3.8504;
1026.3000;0.1180;3.8607;
1026.6000;0.1180;3.8658;
1026.9000;0.1164;3.8633;
1027.2000;0.1180;3.8787;
1027.5000;0.1156;3.8761;
1027.8000;0.1164;3.8787;
1028.1000;0.1140;3.8787;
1028.4000;0.1156;3.8787;
1028.7000;0.1164;3.8735;
1029.0000;0.1156;3.8710;
1029.3000;0.1131;3.8735;
1029.6000;0.1148;3.8684;
1029.9000;0.1164;3.8684;
1030.2000;0.1197;3.8735;
1030.5000;0.1172;3.8633;
1030.8000;0.1172;3.8607;
1031.1000;0.1180;3.8633;
1031.4000;0.1148;3.8607;
1031.7000;0.1148;3.8581;
1032.0000;0.1188;3.8710;
1032.3000;0.1164;3.8658;
1032.6000;0.1164;3.8658;
1032.9000;0.1164;3.8735;
1033.2000;0.1164;3.8607;
1033.5000;0.1172;3.8658;
1033.8000;0.1180;3.8658;
1034.1000;0.1188;3.8658;
1034.4000;0.1164;3.8684;
1034.7000;0.1172;3.8658;
1035.0000;0.1254;3.8838;
1035.3000;0.1172;3.8607;
1035.6000;0.1221;3.8735;
1035.9000;0.1172;3.8556;
1036.2000;0.1164;3.8581;
1036.5000;0.1156;3.8633;
1036.8000;0.1180;3.8735;
1037.1000;0.1221;3.8863;
1037.4000;0.1172;3.8787;
1037.7000;0.1156;3.8735;
1038.0000;0.1156;3.8658;
1038.3000;0.1180;3.8812;
1038.6000;0.1188;3.8863;
1038.9000;0.1156;3.8812;
1039.2000;0.1156;3.8710;
1039.5000;0.1131;3.8633;
1039.8000;0.1156;3.8658;
1040.1000;0.1083;3.8530;
1040.4000;0.1197;3.8838;
1040.7000;0.1164;3.8787;
1041.0000;0.1148;3.8812;
1041.3000;0.1188;3.8863;
1041.6000;0.1221;3.8940;
1041.9000;0.1148;3.8710;
1042.2000;0.1180;3.8761;
1042.5000;0.1205;3.8761;
1042.8000;0.1164;3.8530;
1043.1000;0.1164;3.8504;
1043.4000;0.1172;3.8633;
1043.7000;0.1066;3.8325;
1044.0000;0.1156;3.8607;
1044.3000;0.1156;3.8556;
1044.6000;0.1156;3.8530;
1044.9000;0.1123;3.8325;
1045.2000;0.1180;3.8556;
1045.5000;0.1172;3.8530;
1045.8000;0.1140;3.8402;
1046.1000;0.1197;3.8581;
1046.4000;0.1188;3.8530;
1046.7000;0.1164;3.8376;
1047.0000;0.1148;3.8325;
1047.3000;0.1180;3.8427;
1047.6000;0.1148;3.8299;
1047.9000;0.1156;3.8350;
1048.2000;0.1180;3.8427;
1048.5000;0.1140;3.8325;
1048.8000;0.1172;3.8530;
1049.1000;0.1156;3.8504;
1049.4000;0.1140;3.8453;
1049.7000;0.1148;3.8530;
1050.0000;0.1148;3.8427;
1050.3000;0.1107;3.8402;
1050.6000;0.1180;3.8453;
1050.9000;0.1164;3.8402;
1051.2000;0.1148;3.8325;
1051.5000;0.1213;3.8479;
1051.8000;0.1172;3.8325;
1052.1000;0.1156;3.8299;
1052.4000;0.1156;3.8299;
1052.7000;0.1148;3.8325;
1053.0000;0.1148;3.8299;
1053.3000;0.1164;3.8402;
1053.6000;0.1148;3.8350;
1053.9000;0.1156;3.8453;
1054.2000;0.1180;3.8479;
1054.5000;0.1172;3.8530;
1054.8000;0.1140;3.8453;
1055.1000;0.1164;3.8427;
1055.4000;0.1188;3.8350;
1055.7000;0.1148;3.8171;
1056.0000;0.1148;3.8145;
1056.3000;0.1221;3.8299;
1056.6000;0.1188;3.8197;
1056.9000;0.1205;3.8273;
1057.2000;0.1294;3.8530;
1057.5000;0.1278;3.8504;
1057.8000;0.1156;3.8120;
1058.1000;0.1156;3.7991;
1058.4000;0.1164;3.7940;
1058.7000;0.1156;3.7889;
1059.0000;0.1188;3.8120;
1059.3000;0.1140;3.8068;
1059.6000;0.1074;3.7837;
1059.9000;0.1197;3.8299;
1060.2000;0.1180;3.8094;
1060.5000;0.1172;3.8222;
1060.8000;0.1180;3.8273;
1061.1000;0.1172;3.8171;
1061.4000;0.1156;3.8171;
1061.7000;0.1172;3.8197;
1062.0000;0.1058;3.7889;
1062.3000;0.1164;3.8120;
1062.6000;0.1188;3.8299;
1062.9000;0.1213;3.8325;
1063.2000;0.1319;3.8633;
1063.5000;0.1197;3.8222;
1063.8000;0.1140;3.8043;
1064.1000;0.1156;3.8094;
1064.4000;0.1140;3.8171;
1064.7000;0.1115;3.8043;
1065.0000;0.1221;3.8350;
1065.3000;0.1156;3.8197;
1065.6000;0.1164;3.8325;
1065.9000;0.1164;3.8299;
1066.2000;0.1140;3.8350;
1066.5000;0.1180;3.8427;
1066.8000;0.1148;3.8325;
1067.1000;0.1148;3.8325;
1067.4000;0.1164;3.8299;
1067.7000;0.1148;3.8222;
1068.0000;0.1140;3.8171;
1068.3000;0.1148;3.8197;
1068.6000;0.1156;3.8248;
1068.9000;0.1156;3.8248;
1069.2000;0.1156;3.8197;
1069.5000;0.1180;3.8299;
1069.8000;0.1148;3.8299;
1070.1000;0.1221;3.8479;
1070.4000;0.1140;3.8350;
1070.7000;0.1148;3.8376;
1071.0000;0.1164;3.8402;
1071.3000;0.1107;3.8299;
1071.6000;0.1148;3.8453;
1071.9000;0.1148;3.8479;
1072.2000;0.1188;3.8633;
1072.5000;0.1180;3.8607;
1072.8000;0.1164;3.8581;
1073.1000;0.1156;3.8479;
1073.4000;0.1164;3.8427;
1073.7000;0.1148;3.8427;
1074.0000;0.1123;3.8248;
1074.3000;0.1164;3.8350;
1074.6000;0.1164;3.8453;
1074.9000;0.1172;3.8376;
1075.2000;0.1172;3.8350;
1075.5000;0.1156;3.8427;
1075.8000;0.1148;3.8427;
1076.1000;0.1156;3.8402;
1076.4000;0.1156;3.8453;
1076.7000;0.1148;3.8402;
1077.0000;0.1156;3.8350;
1077.3000;0.1188;3.8402;
1077.6000;0.1140;3.8248;
1077.9000;0.1148;3.8248;
1078.2000;0.1140;3.8325;
1078.5000;0.1221;3.8556;
1078.8000;0.1148;3.8325;
1079.1000;0.1156;3.8325;
1079.4000;0.1188;3.8427;
1079.7000;0.1164;3.8273;
1080.0000;0.1156;3.8197;
1080.3000;0.1107;3.8017;
1080.6000;0.1131;3.8068;
1080.9000;0.1148;3.8120;
1081.2000;0.1164;3.8171;
1081.5000;0.1180;3.8197;
1081.8000;0.1140;3.8094;
1082.1000;0.1164;3.8068;
1082.4000;0.1156;3.8120;
1082.7000;0.1188;3.8197;
1083.0000;0.1148;3.8222;
1083.3000;0.1172;3.8350;
1083.6000;0.1205;3.8530;
1083.9000;0.1245;3.8633;
1084.2000;0.1172;3.8299;
1084.5000;0.1164;3.8299;
1084.8000;0.1172;3.8299;
1085.1000;0.1213;3.8299;
1085.4000;0.1156;3.8094;
1085.7000;0.1148;3.8068;
1086.0000;0.1188;3.8299;
1086.3000;0.1197;3.8350;
1086.6000;0.1197;3.8376;
1086.9000;0.1148;3.8197;
1087.2000;0.1140;3.8145;
1087.5000;0.1156;3.8222;
1087.8000;0.1172;3.8453;
1088.1000;0.1164;3.8453;
1088.4000;0.1180;3.8427;
1088.7000;0.1213;3.8453;
1089.0000;0.1123;3.8171;
1089.3000;0.1197;3.8299;
1089.6000;0.1197;3.8299;
1089.9000;0.1164;3.8222;
1090.2000;0.1083;3.7914;
1090.5000;0.1148;3.8120;
1090.8000;0.1156;3.8171;
1091.1000;0.1172;3.8222;
1091.4000;0.1156;3.8197;
1091.7000;0.1123;3.8197;
1092.0000;0.1164;3.8222;
1092.3000;0.1156;3.8222;
1092.6000;0.1148;3.8222;
1092.9000;0.1164;3.8248;
1093.2000;0.1164;3.8350;
1093.5000;0.1148;3.8325;
1093.8000;0.1156;3.8376;
1094.1000;0.1140;3.8402;
1094.4000;0.1164;3.8325;
1094.7000;0.1197;3.8325;
1095.0000;0.1172;3.8350;
1095.3000;0.1197;3.8402;
1095.6000;0.1164;3.8427;
1095.9000;0.1148;3.8376;
1096.2000;0.1164;3.8453;
1096.5000;0.1180;3.8504;
1096.8000;0.1115;3.8376;
1097.1000;0.1164;3.8479;
1097.4000;0.1172;3.8530;
1097.7000;0.1172;3.8453;
1098.0000;0.1164;3.8504;
1098.3000;0.1091;3.8427;
1098.6000;0.1156;3.8607;
1098.9000;0.1188;3.8838;
1099.2000;0.1172;3.8761;
1099.5000;0.1148;3.8658;
1099.8000;0.1156;3.8684;
1100.1000;0.1197;3.8710;
1100.4000;0.1180;3.8761;
1100.7000;0.1164;3.8710;
1101.0000;0.1156;3.8581;
1101.3000;0.1164;3.8658;
1101.6000;0.1148;3.8607;
1101.9000;0.1156;3.8607;
1102.2000;0.1131;3.8556;
1102.5000;0.1164;3.8504;
1102.8000;0.1148;3.8479;
1103.1000;0.1180;3.8581;
1103.4000;0.1172;3.8607;
1103.7000;0.1180;3.8684;
1104.0000;0.1164;3.8607;
1104.3000;0.1131;3.8504;
1104.6000;0.1172;3.8684;
1104.9000;0.1164;3.8735;
1105.2000;0.1213;3.8812;
1105.5000;0.1131;3.8581;
1105.8000;0.1148;3.8581;
1106.1000;0.1099;3.8325;
1106.4000;0.1156;3.8427;
1106.7000;0.1164;3.8479;
1107.0000;0.1172;3.8556;
1107.3000;0.1164;3.8479;
1107.6000;0.1164;3.8581;
1107.9000;0.1164;3.8556;
1108.2000;0.1131;3.8453;
1108.5000;0.1156;3.8504;
1108.8000;0.1131;3.8479;
1109.1000;0.1164;3.8581;
1109.4000;0.1140;3.8504;
1109.7000;0.1156;3.8479;
1110.0000;0.1140;3.8479;
1110.3000;0.1172;3.8504;
1110.6000;0.1156;3.8453;
1110.9000;0.1213;3.8453;
1111.2000;0.1099;3.8094;
1111.5000;0.1172;3.8325;
1111.8000;0.1131;3.8145;
1112.1000;0.1172;3.8325;
1112.4000;0.1148;3.8299;
1112.7000;0.1156;3.8273;
1113.0000;0.1270;3.8684;
1113.3000;0.1164;3.8427;
1113.6000;0.1156;3.8402;
1113.9000;0.1131;3.8273;
1114.2000;0.1156;3.8350;
1114.5000;0.1140;3.8402;
1114.8000;0.1180;3.8427;
1115.1000;0.1140;3.8427;
1115.4000;0.1188;3.8556;
1115.7000;0.1156;3.8504;
1116.0000;0.1164;3.8530;
1116.3000;0.1156;3.8504;
1116.6000;0.1140;3.8453;
1116.9000;0.1140;3.8453;
1117.2000;0.1156;3.8402;
1117.5000;0.1140;3.8453;
1117.8000;0.1156;3.8530;
1118.1000;0.1156;3.8530;
1118.4000;0.1245;3.8812;
1118.7000;0.1131;3.8556;
1119.0000;0.1148;3.8581;
1119.3000;0.1148;3.8556;
1119.6000;0.1156;3.8556;
1119.9000;0.1156;3.8633;
1120.2000;0.1164;3.8633;
1120.5000;0.1115;3.8504;
1120.8000;0.1172;3.8710;
1121.1000;0.1172;3.8735;
1121.4000;0.1164;3.8684;
1121.7000;0.1180;3.8735;
1122.0000;0.1164;3.8710;
1122.3000;0.1164;3.8607;
1122.6000;0.1164;3.8504;
1122.9000;0.1164;3.8607;
1123.2000;0.1148;3.8607;
1123.5000;0.1156;3.8658;
1123.8000;0.1148;3.8607;
1124.1000;0.1148;3.8633;
1124.4000;0.1164;3.8607;
1124.7000;0.1156;3.8530;
1125.0000;0.1180;3.8581;
1125.3000;0.1172;3.8633;
1125.6000;0.1156;3.8633;
1125.9000;0.1156;3.8658;
1126.2000;0.1164;3.8684;
1126.5000;0.1140;3.8607;
1126.8000;0.1188;3.8761;
1127.1000;0.1197;3.8787;
1127.4000;0.1148;3.8684;
1127.7000;0.1148;3.8633;
1128.0000;0.1148;3.8607;
1128.3000;0.1050;3.8350;
1128.6000;0.1172;3.8633;
1128.9000;0.1172;3.8658;
1129.2000;0.1156;3.8684;
1129.5000;0.1148;3.8684;
1129.8000;0.1164;3.8710;
1130.1000;0.1107;3.8453;
1130.4000;0.1164;3.8684;
1130.7000;0.1164;3.8761;
1131.0000;0.1205;3.8863;
1131.3000;0.1148;3.8607;
1131.6000;0.1172;3.8658;
1131.9000;0.1164;3.8633;
1132.2000;0.1180;3.8633;
1132.5000;0.1156;3.8581;
1132.8000;0.1164;3.8633;
1133.1000;0.1172;3.8581;
1133.4000;0.1172;3.8581;
1133.7000;0.1148;3.8581;
1134.0000;0.1164;3.8607;
1134.3000;0.1148;3.8581;
1134.6000;0.1140;3.8556;
1134.9000;0.1156;3.8607;
1135.2000;0.1156;3.8658;
1135.5000;0.1156;3.8607;
1135.8000;0.1180;3.8684;
1136.1000;0.1148;3.8530;
1136.4000;0.1197;3.8684;
1136.7000;0.1172;3.8607;
1137.0000;0.1180;3.8607;
1137.3000;0.1156;3.8530;
1137.6000;0.1131;3.8427;
1137.9000;0.1197;3.8530;
1138.2000;0.1115;3.8376;
1138.5000;0.1172;3.8530;
1138.8000;0.1156;3.8530;
1139.1000;0.1164;3.8581;
1139.4000;0.1156;3.8504;
1139.7000;0.1164;3.8556;
1140.0000;0.1172;3.8581;
1140.3000;0.1156;3.8633;
1140.6000;0.1164;3.8684;
1140.9000;0.1123;3.8633;
1141.2000;0.1148;3.8761;
1141.5000;0.1058;3.8479;
1141.8000;0.1156;3.8812;
1142.1000;0.1156;3.8761;
1142.4000;0.1066;3.8504;
1142.7000;0.1164;3.8761;
1143.0000;0.1172;3.8735;
1143.3000;0.1172;3.8710;
1143.6000;0.1164;3.8787;
1143.9000;0.1164;3.8761;
1144.2000;0.1172;3.8787;
1144.5000;0.1172;3.8838;
1144.8000;0.1164;3.8761;
1145.1000;0.1172;3.8812;
1145.4000;0.1164;3.8787;
1145.7000;0.1164;3.8684;
1146.0000;0.1172;3.8710;
1146.3000;0.1107;3.8453;
1146.6000;0.1172;3.8658;
1146.9000;0.1156;3.8607;
1147.2000;0.1180;3.8658;
1147.5000;0.1156;3.8581;
1147.8000;0.1164;3.8761;
1148.1000;0.1156;3.8658;
1148.4000;0.1164;3.8633;
1148.7000;0.1156;3.8658;
1149.0000;0.1180;3.8710;
1149.3000;0.1164;3.8658;
1149.6000;0.1164;3.8684;
1149.9000;0.1172;3.8581;
1150.2000;0.1156;3.8581;
1150.5000;0.1164;3.8556;
1150.8000;0.1156;3.8556;
1151.1000;0.1172;3.8581;
1151.4000;0.1156;3.8607;
1151.7000;0.1156;3.8504;
1152.0000;0.1164;3.8479;
1152.3000;0.1115;3.8325;
1152.6000;0.1197;3.8556;
1152.9000;0.1172;3.8607;
1153.2000;0.1156;3.8453;
1153.5000;0.1172;3.8453;
1153.8000;0.1164;3.8376;
1154.1000;0.1213;3.8607;
1154.4000;0.1156;3.8453;
1154.7000;0.1205;3.8556;
1155.0000;0.1115;3.8376;
1155.3000;0.1148;3.8530;
1155.6000;0.1205;3.8633;
1155.9000;0.1107;3.8402;
1156.2000;0.1148;3.8530;
1156.5000;0.1172;3.8607;
1156.8000;0.1197;3.8633;
1157.1000;0.1197;3.8556;
1157.4000;0.1188;3.8504;
1157.7000;0.1148;3.8427;
1158.0000;0.1164;3.8350;
1158.3000;0.1156;3.8325;
1158.6000;0.1172;3.8453;
1158.9000;0.1164;3.8427;
1159.2000;0.1140;3.8376;
1159.5000;0.1188;3.8556;
1159.8000;0.1180;3.8607;
1160.1000;0.1188;3.8710;
1160.4000;0.1123;3.8530;
1160.7000;0.1172;3.8633;
1161.0000;0.1197;3.8710;
1161.3000;0.1148;3.8607;
1161.6000;0.1140;3.8581;
1161.9000;0.1164;3.8633;
1162.2000;0.1099;3.8376;
1162.5000;0.1197;3.8787;
1162.8000;0.1050;3.8376;
1163.1000;0.1221;3.8735;
1163.4000;0.1148;3.8530;
1163.7000;0.1172;3.8530;
1164.0000;0.1172;3.8633;
1164.3000;0.1188;3.8735;
1164.6000;0.1156;3.8684;
1164.9000;0.1180;3.8735;
1165.2000;0.1156;3.8735;
1165.5000;0.1172;3.8761;
1165.8000;0.1172;3.8710;
1166.1000;0.1164;3.8812;
1166.4000;0.1140;3.8761;
1166.7000;0.1156;3.8787;
1167.0000;0.1188;3.8787;
1167.3000;0.1172;3.8735;
1167.6000;0.1164;3.8710;
1167.9000;0.1156;3.8658;
1168.2000;0.1156;3.8633;
1168.5000;0.1180;3.8710;
1168.8000;0.1156;3.8633;
1169.1000;0.1148;3.8633;
1169.4000;0.1188;3.8710;
1169.7000;0.1156;3.8633;
1170.0000;0.1148;3.8581;
1170.3000;0.1131;3.8504;
1170.6000;0.1131;3.8504;
1170.9000;0.1164;3.8556;
1171.2000;0.1148;3.8556;
1171.5000;0.1148;3.8581;
1171.8000;0.1148;3.8581;
1172.1000;0.1156;3.8633;
1172.4000;0.1180;3.8633;
1172.7000;0.1156;3.8684;
1173.0000;0.1172;3.8710;
1173.3000;0.1164;3.8787;
1173.6000;0.1164;3.8761;
1173.9000;0.1156;3.8787;
1174.2000;0.1140;3.8761;
1174.5000;0.1140;3.8787;
1174.8000;0.1164;3.8812;
1175.1000;0.1164;3.8761;
1175.4000;0.1148;3.8710;
1175.7000;0.1148;3.8684;
1176.0000;0.1131;3.8658;
1176.3000;0.1156;3.8684;
1176.6000;0.1066;3.8402;
1176.9000;0.1213;3.8710;
1177.2000;0.1164;3.8607;
1177.5000;0.1156;3.8530;
1177.8000;0.1172;3.8530;
1178.1000;0.1107;3.8350;
1178.4000;0.1164;3.8581;
1178.7000;0.1172;3.8581;
1179.0000;0.1131;3.8581;
1179.3000;0.1164;3.8710;
1179.6000;0.1131;3.8581;
1179.9000;0.1164;3.8735;
1180.2000;0.1188;3.8889;
1180.5000;0.1164;3.8889;
1180.8000;0.1131;3.8761;
1181.1000;0.1188;3.8992;
1181.4000;0.1188;3.8940;
1181.7000;0.1156;3.8812;
1182.0000;0.1164;3.8812;
1182.3000;0.1156;3.8735;
1182.6000;0.1164;3.8787;
1182.9000;0.1172;3.8838;
1183.2000;0.1099;3.8530;
1183.5000;0.1180;3.8658;
1183.8000;0.1172;3.8710;
1184.1000;0.1107;3.8556;
1184.4000;0.1164;3.8812;
1184.7000;0.1164;3.8812;
1185.0000;0.1148;3.8761;
1185.3000;0.1213;3.8863;
1185.6000;0.1156;3.8710;
1185.9000;0.1148;3.8710;
1186.2000;0.1188;3.8863;
1186.5000;0.1148;3.8735;
1186.8000;0.1156;3.8735;
1187.1000;0.1156;3.8684;
1187.4000;0.1156;3.8658;
1187.7000;0.1164;3.8735;
1188.0000;0.1148;3.8684;
1188.3000;0.1156;3.8735;
1188.6000;0.1188;3.8838;
1188.9000;0.1107;3.8556;
1189.2000;0.1164;3.8710;
1189.5000;0.1148;3.8761;
1189.8000;0.1156;3.8735;
1190.1000;0.1164;3.8761;
1190.4000;0.1172;3.8761;
1190.7000;0.1156;3.8812;
1191.0000;0.1156;3.8812;
1191.3000;0.1099;3.8581;
1191.6000;0.1172;3.8735;
1191.9000;0.1148;3.8607;
1192.2000;0.1140;3.8581;
1192.5000;0.1156;3.8710;
1192.8000;0.1172;3.8684;
1193.1000;0.1197;3.8735;
1193.4000;0.1180;3.8658;
1193.7000;0.1164;3.8633;
1194.0000;0.1164;3.8658;
1194.3000;0.1172;3.8607;
1194.6000;0.1099;3.8325;
1194.9000;0.1115;3.8376;
1195.2000;0.1140;3.8427;
1195.5000;0.1148;3.8325;
1195.8000;0.1172;3.8427;
1196.1000;0.1156;3.8427;
1196.4000;0.1083;3.8299;
1196.7000;0.1164;3.8530;
1197.0000;0.1131;3.8504;
1197.3000;0.1050;3.8299;
1197.6000;0.1180;3.8735;
1197.9000;0.1205;3.8838;
1198.2000;0.1115;3.8504;
1198.5000;0.1164;3.8710;
1198.8000;0.1172;3.8735;
1199.1000;0.1164;3.8812;
1199.4000;0.1074;3.8530;
1199.7000;0.1164;3.8735;
1200.0000;0.1131;3.8684;
1200.3000;0.1156;3.8658;
1200.6000;0.1180;3.8684;
1200.9000;0.1205;3.8735;
1201.2000;0.1115;3.8581;
1201.5000;0.1164;3.8735;
1201.8000;0.1164;3.8787;
1202.1000;0.1083;3.8633;
1202.4000;0.1156;3.8787;
1202.7000;0.1148;3.8787;
1203.0000;0.1197;3.9069;
1203.3000;0.1172;3.8915;
1203.6000;0.1148;3.8812;
1203.9000;0.1164;3.8940;
1204.2000;0.1148;3.8915;
1204.5000;0.1148;3.8915;
1204.8000;0.1156;3.8787;
1205.1000;0.1140;3.8658;
1205.4000;0.1164;3.8735;
1205.7000;0.1156;3.8863;
1206.0000;0.1180;3.8940;
1206.3000;0.1140;3.8812;
1206.6000;0.1148;3.8838;
1206.9000;0.1140;3.8710;
1207.2000;0.1172;3.8761;
1207.5000;0.1180;3.8812;
1207.8000;0.1156;3.8761;
1208.1000;0.1131;3.8633;
1208.4000;0.1156;3.8735;
1208.7000;0.1156;3.8684;
1209.0000;0.1172;3.8735;
1209.3000;0.1140;3.8684;
1209.6000;0.1148;3.8735;
1209.9000;0.1148;3.8812;
1210.2000;0.1164;3.8915;
1210.5000;0.1164;3.8787;
1210.8000;0.1164;3.8787;
1211.1000;0.1156;3.8658;
1211.4000;0.1172;3.8735;
1211.7000;0.1164;3.8658;
1212.0000;0.1237;3.8915;
1212.3000;0.1205;3.8838;
1212.6000;0.1172;3.8735;
1212.9000;0.1172;3.8735;
1213.2000;0.1180;3.8761;
1213.5000;0.1115;3.8504;
1213.8000;0.1156;3.8658;
1214.1000;0.1140;3.8581;
1214.4000;0.1172;3.8684;
1214.7000;0.1172;3.8735;
1215.0000;0.1156;3.8684;
1215.3000;0.1156;3.8607;
1215.6000;0.1164;3.8684;
1215.9000;0.1262;3.8940;
1216.2000;0.1148;3.8684;
1216.5000;0.1164;3.8684;
1216.8000;0.1164;3.8684;
1217.1000;0.1180;3.8787;
1217.4000;0.1156;3.8838;
1217.7000;0.1164;3.8838;
1218.0000;0.1164;3.8787;
1218.3000;0.1148;3.8812;
1218.6000;0.1123;3.8735;
1218.9000;0.1180;3.8812;
1219.2000;0.1107;3.8607;
1219.5000;0.1148;3.8658;
1219.8000;0.1262;3.8940;
1220.1000;0.1107;3.8479;
1220.4000;0.1172;3.8710;
1220.7000;0.1164;3.8710;
1221.0000;0.1172;3.8633;
1221.3000;0.1197;3.8684;
1221.6000;0.1172;3.8607;
1221.9000;0.1140;3.8530;
1222.2000;0.1164;3.8607;
1222.5000;0.1188;3.8607;
1222.8000;0.1156;3.8556;
1223.1000;0.1156;3.8530;
1223.4000;0.1107;3.8427;
1223.7000;0.1164;3.8530;
1224.0000;0.1180;3.8581;
1224.3000;0.1156;3.8530;
1224.6000;0.1156;3.8530;
1224.9000;0.1164;3.8556;
1225.2000;0.1156;3.8504;
1225.5000;0.1131;3.8504;
1225.8000;0.1172;3.8479;
1226.1000;0.1156;3.8479;
1226.4000;0.1164;3.8453;
1226.7000;0.1156;3.8427;
1227.0000;0.1140;3.8402;
1227.3000;0.1172;3.8504;
1227.6000;0.1131;3.8453;
1227.9000;0.1164;3.8530;
1228.2000;0.1148;3.8453;
1228.5000;0.1148;3.8530;
1228.8000;0.1156;3.8633;
1229.1000;0.1156;3.8658;
1229.4000;0.1148;3.8607;
1229.7000;0.1213;3.8761;
1230.0000;0.1156;3.8633;
1230.3000;0.1107;3.8556;
1230.6000;0.1156;3.8658;
1230.9000;0.1156;3.8607;
1231.2000;0.1156;3.8684;
1231.5000;0.1164;3.8735;
1231.8000;0.1156;3.8761;
1232.1000;0.1180;3.8812;
1232.4000;0.1148;3.8710;
1232.7000;0.1164;3.8787;
1233.0000;0.1156;3.8787;
1233.3000;0.1164;3.8812;
1233.6000;0.1172;3.8761;
1233.9000;0.1172;3.8735;
1234.2000;0.1156;3.8658;
1234.5000;0.1140;3.8607;
1234.8000;0.1172;3.8658;
1235.1000;0.1164;3.8658;
1235.4000;0.1164;3.8684;
1235.7000;0.1115;3.8530;
1236.0000;0.1172;3.8633;
1236.3000;0.1197;3.8710;
1236.6000;0.1164;3.8633;
1236.9000;0.1148;3.8530;
1237.2000;0.1172;3.8607;
1237.5000;0.1164;3.8607;
1237.8000;0.1131;3.8530;
1238.1000;0.1156;3.8607;
1238.4000;0.1172;3.8658;
1238.7000;0.1156;3.8581;
1239.0000;0.1140;3.8530;
1239.3000;0.1172;3.8581;
1239.6000;0.1172;3.8427;
1239.9000;0.1115;3.8248;
1240.2000;0.1148;3.8427;
1240.5000;0.1164;3.8479;
1240.8000;0.1156;3.8453;
1241.1000;0.1156;3.8581;
1241.4000;0.1148;3.8556;
1241.7000;0.1156;3.8658;
1242.0000;0.1156;3.8607;
1242.3000;0.1188;3.8710;
1242.6000;0.1172;3.8684;
1242.9000;0.1180;3.8761;
1243.2000;0.1164;3.8633;
1243.5000;0.1140;3.8504;
1243.8000;0.1302;3.9017;
1244.1000;0.1172;3.8607;
1244.4000;0.1197;3.8658;
1244.7000;0.1270;3.8966;
1245.0000;0.1156;3.8530;
1245.3000;0.1164;3.8633;
1245.6000;0.1180;3.8684;
1245.9000;0.1148;3.8633;
1246.2000;0.1123;3.8530;
1246.5000;0.1188;3.8658;
1246.8000;0.1148;3.8427;
1247.1000;0.1164;3.8504;
1247.4000;0.1180;3.8607;
1247.7000;0.1180;3.8581;
1248.0000;0.1164;3.8556;
1248.3000;0.1172;3.8427;
1248.6000;0.1148;3.8453;
1248.9000;0.1148;3.8530;
1249.2000;0.1172;3.8607;
1249.5000;0.1188;3.8581;
1249.8000;0.1164;3.8530;
1250.1000;0.1164;3.8633;
1250.4000;0.1148;3.8633;
1250.7000;0.1148;3.8684;
1251.0000;0.1156;3.8658;
1251.3000;0.1131;3.8658;
1251.6000;0.1164;3.8735;
1251.9000;0.1172;3.8761;
1252.2000;0.1197;3.8838;
1252.5000;0.1188;3.8889;
1252.8000;0.1156;3.8838;
1253.1000;0.1148;3.8735;
1253.4000;0.1123;3.8658;
1253.7000;0.1180;3.8812;
1254.0000;0.1164;3.8787;
1254.3000;0.1188;3.8889;
1254.6000;0.1164;3.8863;
1254.9000;0.1148;3.8812;
1255.2000;0.1115;3.8633;
1255.5000;0.1148;3.8658;
1255.8000;0.1156;3.8607;
1256.1000;0.1164;3.8556;
1256.4000;0.1156;3.8556;
1256.7000;0.1148;3.8556;
1257.0000;0.1164;3.8556;
1257.3000;0.1148;3.8504;
1257.6000;0.1164;3.8581;
1257.9000;0.1148;3.8479;
1258.2000;0.1197;3.8633;
1258.5000;0.1115;3.8453;
1258.8000;0.1172;3.8556;
1259.1000;0.1164;3.8556;
1259.4000;0.1197;3.8710;
1259.7000;0.1172;3.8556;
1260.0000;0.1156;3.8607;
1260.3000;0.1188;3.8710;
1260.6000;0.1156;3.8556;
1260.9000;0.1148;3.8607;
1261.2000;0.1115;3.8556;
1261.5000;0.1237;3.8838;
1261.8000;0.1131;3.8581;
1262.1000;0.1172;3.8684;
1262.4000;0.1148;3.8633;
1262.7000;0.1164;3.8658;
1263.0000;0.1123;3.8607;
1263.3000;0.1156;3.8710;
1263.6000;0.1156;3.8735;
1263.9000;0.1148;3.8761;
1264.2000;0.1156;3.8863;
1264.5000;0.1164;3.8838;
1264.8000;0.1164;3.8838;
1265.1000;0.1115;3.8735;
1265.4000;0.1156;3.8787;
1265.7000;0.1148;3.8889;
1266.0000;0.1034;3.8556;
1266.3000;0.1156;3.8812;
1266.6000;0.1156;3.8812;
1266.9000;0.1148;3.8863;
1267.2000;0.1164;3.8992;
1267.5000;0.1172;3.8966;
1267.8000;0.1172;3.8992;
1268.1000;0.1164;3.8915;
1268.4000;0.1262;3.9094;
1268.7000;0.1172;3.8812;
1269.0000;0.1148;3.8735;
1269.3000;0.1156;3.8735;
1269.6000;0.1188;3.8966;
1269.9000;0.1229;3.9017;
1270.2000;0.1099;3.8658;
1270.5000;0.1164;3.8684;
1270.8000;0.1131;3.8530;
1271.1000;0.1164;3.8607;
1271.4000;0.1156;3.8633;
1271.7000;0.1164;3.8684;
1272.0000;0.1140;3.8607;
1272.3000;0.1172;3.8710;
1272.6000;0.1172;3.8710;
1272.9000;0.1140;3.8581;
1273.2000;0.1188;3.8633;
1273.5000;0.1156;3.8581;
1273.8000;0.1164;3.8684;
1274.1000;0.1221;3.8889;
1274.4000;0.1148;3.8633;
1274.7000;0.1164;3.8812;
1275.0000;0.1213;3.8966;
1275.3000;0.1164;3.8863;
1275.6000;0.1148;3.8787;
1275.9000;0.1164;3.8812;
1276.2000;0.1180;3.8838;
1276.5000;0.1148;3.8787;
1276.8000;0.1140;3.8735;
1277.1000;0.1148;3.8787;
1277.4000;0.1131;3.8787;
1277.7000;0.1140;3.8787;
1278.0000;0.1164;3.8812;
1278.3000;0.1229;3.8992;
1278.6000;0.1172;3.8838;
1278.9000;0.1164;3.8889;
1279.2000;0.1188;3.8992;
1279.5000;0.1164;3.8915;
1279.8000;0.1156;3.8863;
1280.1000;0.1148;3.8838;
1280.4000;0.1172;3.8940;
1280.7000;0.1148;3.8889;
1281.0000;0.1156;3.8863;
1281.3000;0.1172;3.8838;
1281.6000;0.1123;3.8761;
1281.9000;0.1156;3.8838;
1282.2000;0.1140;3.8761;
1282.5000;0.1148;3.8761;
1282.8000;0.1164;3.8761;
1283.1000;0.1140;3.8658;
1283.4000;0.1229;3.8863;
1283.7000;0.1164;3.8735;
1284.0000;0.1188;3.8838;
1284.3000;0.1156;3.8787;
1284.6000;0.1164;3.8787;
1284.9000;0.1148;3.8787;
1285.2000;0.1164;3.8735;
1285.5000;0.1164;3.8710;
1285.8000;0.1140;3.8607;
1286.1000;0.1140;3.8504;
1286.4000;0.1074;3.8402;
1286.7000;0.1172;3.8710;
1287.0000;0.1123;3.8581;
1287.3000;0.1148;3.8761;
1287.6000;0.1156;3.8787;
1287.9000;0.1164;3.8812;
1288.2000;0.1148;3.8710;
1288.5000;0.1164;3.8863;
1288.8000;0.1140;3.8735;
1289.1000;0.1197;3.8940;
1289.4000;0.1148;3.8658;
1289.7000;0.1164;3.8658;
1290.0000;0.1164;3.8684;
1290.3000;0.1164;3.8658;
1290.6000;0.1148;3.8658;
1290.9000;0.1164;3.8710;
1291.2000;0.1156;3.8684;
1291.5000;0.1083;3.8453;
1291.8000;0.1180;3.8735;
1292.1000;0.1099;3.8479;
1292.4000;0.1148;3.8607;
1292.7000;0.1156;3.8633;
1293.0000;0.1148;3.8658;
1293.3000;0.1050;3.8402;
1293.6000;0.1115;3.8684;
1293.9000;0.1148;3.8735;
1294.2000;0.1164;3.8658;
1294.5000;0.1156;3.8684;
1294.8000;0.1172;3.8658;
1295.1000;0.1131;3.8581;
1295.4000;0.1148;3.8607;
1295.7000;0.1172;3.8658;
1296.0000;0.1172;3.8658;
1296.3000;0.1156;3.8658;
1296.6000;0.1148;3.8658;
1296.9000;0.1115;3.8607;
1297.2000;0.1099;3.8633;
1297.5000;0.1123;3.8684;
1297.8000;0.1164;3.8710;
1298.1000;0.1180;3.8838;
1298.4000;0.1107;3.8658;
1298.7000;0.1197;3.8889;
1299.0000;0.1131;3.8633;
1299.3000;0.1180;3.8787;
1299.6000;0.1197;3.8812;
1299.9000;0.1156;3.8684;
1300.2000;0.1140;3.8581;
1300.5000;0.1172;3.8710;
1300.8000;0.1172;3.8658;
1301.1000;0.1197;3.8735;
1301.4000;0.1156;3.8607;
1301.7000;0.1164;3.8735;
1302.0000;0.1172;3.8710;
1302.3000;0.1123;3.8607;
1302.6000;0.1156;3.8735;
1302.9000;0.1172;3.8710;
1303.2000;0.1180;3.8735;
1303.5000;0.1172;3.8710;
1303.8000;0.1164;3.8761;
1304.1000;0.1148;3.8658;
1304.4000;0.1197;3.8787;
1304.7000;0.1164;3.8761;
1305.0000;0.1188;3.8838;
1305.3000;0.1131;3.8710;
1305.6000;0.1180;3.8710;
1305.9000;0.1180;3.8735;
1306.2000;0.1148;3.8556;
1306.5000;0.1131;3.8530;
1306.8000;0.1164;3.8581;
1307.1000;0.1172;3.8607;
1307.4000;0.1172;3.8556;
1307.7000;0.1123;3.8504;
1308.0000;0.1164;3.8710;
1308.3000;0.1042;3.8479;
1308.6000;0.1164;3.8812;
1308.9000;0.1099;3.8581;
1309.2000;0.1172;3.8838;
1309.5000;0.1172;3.8889;
1309.8000;0.1180;3.8863;
1310.1000;0.1131;3.8735;
1310.4000;0.1164;3.8812;
1310.7000;0.1156;3.8838;
1311.0000;0.1197;3.8889;
1311.3000;0.1164;3.8761;
1311.6000;0.1180;3.8787;
1311.9000;0.1172;3.8761;
1312.2000;0.1140;3.8556;
1312.5000;0.1156;3.8658;
1312.8000;0.1164;3.8710;
1313.1000;0.1180;3.8787;
1313.4000;0.1254;3.8940;
1313.7000;0.1172;3.8607;
1314.0000;0.1164;3.8530;
1314.3000;0.1180;3.8504;
1314.6000;0.1164;3.8581;
1314.9000;0.1148;3.8658;
1315.2000;0.1213;3.8889;
1315.5000;0.1245;3.8966;
1315.8000;0.1140;3.8735;
1316.1000;0.1188;3.8863;
1316.4000;0.1156;3.8710;
1316.7000;0.1156;3.8761;
1317.0000;0.1180;3.8761;
1317.3000;0.1156;3.8658;
1317.6000;0.1107;3.8453;
1317.9000;0.1156;3.8581;
1318.2000;0.1123;3.8530;
1318.5000;0.1180;3.8812;
1318.8000;0.1164;3.8684;
1319.1000;0.1172;3.8735;
1319.4000;0.1156;3.8710;
1319.7000;0.1164;3.8812;
1320.0000;0.1148;3.8735;
1320.3000;0.1180;3.8915;
1320.6000;0.1156;3.8889;
1320.9000;0.1180;3.8863;
1321.2000;0.1164;3.8863;
1321.5000;0.1164;3.8863;
1321.8000;0.1164;3.8812;
1322.1000;0.1164;3.8812;
1322.4000;0.1172;3.8889;
1322.7000;0.1172;3.8889;
1323.0000;0.1148;3.8812;
1323.3000;0.1156;3.8761;
1323.6000;0.1180;3.8710;
1323.9000;0.1148;3.8787;
1324.2000;0.1213;3.8940;
1324.5000;0.1164;3.8863;
1324.8000;0.1164;3.8838;
1325.1000;0.1164;3.8863;
1325.4000;0.1188;3.8915;
1325.7000;0.1156;3.8915;
1326.0000;0.1148;3.8863;
1326.3000;0.1172;3.8966;
1326.6000;0.1172;3.8940;
1326.9000;0.1164;3.8863;
1327.2000;0.1172;3.8889;
1327.5000;0.1197;3.9017;
1327.8000;0.1188;3.9017;
1328.1000;0.1156;3.8966;
1328.4000;0.1172;3.9043;
1328.7000;0.1172;3.9043;
1329.0000;0.1180;3.8966;
1329.3000;0.1172;3.8915;
1329.6000;0.1107;3.8787;
1329.9000;0.1156;3.8838;
1330.2000;0.1188;3.8863;
1330.5000;0.1148;3.8710;
1330.8000;0.1188;3.8812;
1331.1000;0.1180;3.8863;
1331.4000;0.1172;3.8812;
1331.7000;0.1156;3.8812;
1332.0000;0.1091;3.8530;
1332.3000;0.1205;3.8915;
1332.6000;0.1172;3.8761;
1332.9000;0.1197;3.8710;
1333.2000;0.1156;3.8710;
1333.5000;0.1156;3.8581;
1333.8000;0.1156;3.8581;
1334.1000;0.1172;3.8684;
1334.4000;0.1148;3.8684;
1334.7000;0.1156;3.8761;
1335.0000;0.1083;3.8530;
1335.3000;0.1172;3.8889;
1335.6000;0.1148;3.8761;
1335.9000;0.1172;3.8735;
1336.2000;0.1131;3.8556;
1336.5000;0.1180;3.8761;
1336.8000;0.1180;3.8735;
1337.1000;0.1148;3.8556;
1337.4000;0.1156;3.8556;
1337.7000;0.1205;3.8735;
1338.0000;0.1148;3.8581;
1338.3000;0.1148;3.8530;
1338.6000;0.1074;3.8299;
1338.9000;0.1172;3.8504;
1339.2000;0.1131;3.8453;
1339.5000;0.1123;3.8376;
1339.8000;0.1164;3.8530;
1340.1000;0.1164;3.8479;
1340.4000;0.1140;3.8504;
1340.7000;0.1254;3.8812;
1341.0000;0.1172;3.8556;
1341.3000;0.1156;3.8453;
1341.6000;0.1245;3.8684;
1341.9000;0.1107;3.8427;
1342.2000;0.1172;3.8581;
1342.5000;0.1164;3.8581;
1342.8000;0.1148;3.8530;
1343.1000;0.1156;3.8633;
1343.4000;0.1180;3.8735;
1343.7000;0.1164;3.8684;
1344.0000;0.1172;3.8838;
1344.3000;0.1197;3.8863;
1344.6000;0.1164;3.8812;
1344.9000;0.1140;3.8761;
1345.2000;0.1140;3.8735;
1345.5000;0.1172;3.8735;
1345.8000;0.1148;3.8710;
1346.1000;0.1156;3.8710;
1346.4000;0.1164;3.8710;
1346.7000;0.1237;3.8863;
1347.0000;0.1172;3.8710;
1347.3000;0.1180;3.8633;
1347.6000;0.1115;3.8453;
1347.9000;0.1188;3.8658;
1348.2000;0.1042;3.8222;
1348.5000;0.1148;3.8479;
1348.8000;0.1148;3.8479;
1349.1000;0.1156;3.8453;
1349.4000;0.1172;3.8556;
1349.7000;0.1156;3.8556;
1350.0000;0.1140;3.8556;
1350.3000;0.1148;3.8607;
1350.6000;0.1164;3.8658;
1350.9000;0.1156;3.8684;
1351.2000;0.1172;3.8684;
1351.5000;0.1156;3.8581;
1351.8000;0.1221;3.8761;
1352.1000;0.1140;3.8556;
1352.4000;0.1140;3.8479;
1352.7000;0.1164;3.8556;
1353.0000;0.1156;3.8530;
1353.3000;0.1140;3.8581;
1353.6000;0.1156;3.8607;
1353.9000;0.1156;3.8581;
1354.2000;0.1172;3.8684;
1354.5000;0.1164;3.8633;
1354.8000;0.1091;3.8427;
1355.1000;0.1156;3.8658;
1355.4000;0.1131;3.8633;
1355.7000;0.1172;3.8658;
1356.0000;0.1172;3.8658;
1356.3000;0.1172;3.8607;
1356.6000;0.1107;3.8376;
1356.9000;0.1188;3.8530;
1357.2000;0.1164;3.8350;
1357.5000;0.1148;3.8299;
1357.8000;0.1115;3.8248;
1358.1000;0.1156;3.8402;
1358.4000;0.1180;3.8479;
1358.7000;0.1156;3.8453;
1359.0000;0.1156;3.8556;
1359.3000;0.1188;3.8710;
1359.6000;0.1172;3.8761;
1359.9000;0.1164;3.8710;
1360.2000;0.1172;3.8787;
1360.5000;0.1172;3.8787;
1360.8000;0.1172;3.8761;
1361.1000;0.1164;3.8710;
1361.4000;0.1148;3.8607;
1361.7000;0.1148;3.8658;
1362.0000;0.1180;3.8633;
1362.3000;0.1148;3.8530;
1362.6000;0.1140;3.8530;
1362.9000;0.1148;3.8504;
1363.2000;0.1229;3.8710;
1363.5000;0.1148;3.8479;
1363.8000;0.1172;3.8607;
1364.1000;0.1180;3.8581;
1364.4000;0.1188;3.8504;
1364.7000;0.1180;3.8479;
1365.0000;0.1245;3.8710;
1365.3000;0.1140;3.8504;
1365.6000;0.1188;3.8710;
1365.9000;0.1099;3.8427;
1366.2000;0.1172;3.8633;
1366.5000;0.1131;3.8479;
1366.8000;0.1123;3.8453;
1367.1000;0.1156;3.8581;
1367.4000;0.1099;3.8504;
1367.7000;0.1140;3.8607;
1368.0000;0.1164;3.8684;
1368.3000;0.1115;3.8607;
1368.6000;0.1156;3.8607;
1368.9000;0.1156;3.8658;
1369.2000;0.1156;3.8633;
1369.5000;0.1140;3.8633;
1369.8000;0.1148;3.8735;
1370.1000;0.1180;3.8812;
1370.4000;0.1148;3.8710;
1370.7000;0.1164;3.8735;
1371.0000;0.1148;3.8735;
1371.3000;0.1148;3.8710;
1371.6000;0.1156;3.8735;
1371.9000;0.1148;3.8684;
1372.2000;0.1123;3.8556;
1372.5000;0.1140;3.8581;
1372.8000;0.1140;3.8607;
1373.1000;0.1188;3.8761;
1373.4000;0.1172;3.8812;
1373.7000;0.1131;3.8710;
1374.0000;0.1172;3.8812;
1374.3000;0.1123;3.8710;
1374.6000;0.1156;3.8710;
1374.9000;0.1188;3.8940;
1375.2000;0.1180;3.8992;
1375.5000;0.1156;3.8889;
1375.8000;0.1148;3.8812;
1376.1000;0.1164;3.8787;
1376.4000;0.1164;3.8889;
1376.7000;0.1164;3.8812;
1377.0000;0.1180;3.8812;
1377.3000;0.1172;3.8761;
1377.6000;0.1188;3.8812;
1377.9000;0.1180;3.8761;
1378.2000;0.1148;3.8684;
1378.5000;0.1156;3.8658;
1378.8000;0.1172;3.8633;
1379.1000;0.1083;3.8427;
1379.4000;0.1148;3.8581;
1379.7000;0.1123;3.8581;
1380.0000;0.1123;3.8556;
1380.3000;0.1156;3.8684;
1380.6000;0.1164;3.8761;
1380.9000;0.1156;3.8710;
1381.2000;0.1050;3.8325;
1381.5000;0.1213;3.8684;
1381.8000;0.1148;3.8556;
1382.1000;0.1148;3.8504;
1382.4000;0.1164;3.8556;
1382.7000;0.1180;3.8556;
1383.0000;0.1164;3.8504;
1383.3000;0.1123;3.8427;
1383.6000;0.1156;3.8530;
1383.9000;0.1164;3.8607;
1384.2000;0.1156;3.8633;
1384.5000;0.1148;3.8684;
1384.8000;0.1172;3.8735;
1385.1000;0.1164;3.8787;
1385.4000;0.1188;3.8761;
1385.7000;0.1180;3.8787;
1386.0000;0.1172;3.8761;
1386.3000;0.1148;3.8761;
1386.6000;0.1164;3.8787;
1386.9000;0.1140;3.8633;
1387.2000;0.1172;3.8735;
1387.5000;0.1115;3.8556;
1387.8000;0.1131;3.8684;
1388.1000;0.1156;3.8658;
1388.4000;0.1156;3.8761;
1388.7000;0.1164;3.8710;
1389.0000;0.1180;3.8735;
1389.3000;0.1148;3.8658;
1389.6000;0.1164;3.8658;
1389.9000;0.1148;3.8633;
1390.2000;0.1148;3.8581;
1390.5000;0.1140;3.8581;
1390.8000;0.1172;3.8684;
1391.1000;0.1221;3.8915;
1391.4000;0.1221;3.8863;
1391.7000;0.1148;3.8658;
1392.0000;0.1156;3.8658;
1392.3000;0.1180;3.8684;
1392.6000;0.1148;3.8710;
1392.9000;0.1229;3.8992;
1393.2000;0.1156;3.8787;
1393.5000;0.1229;3.9017;
1393.8000;0.1164;3.8735;
1394.1000;0.1140;3.8607;
1394.4000;0.1131;3.8530;
1394.7000;0.1188;3.8684;
1395.0000;0.1172;3.8658;
1395.3000;0.1221;3.8812;
1395.6000;0.1172;3.8787;
1395.9000;0.1172;3.8761;
1396.2000;0.1164;3.8684;
1396.5000;0.1180;3.8684;
1396.8000;0.1156;3.8684;
1397.1000;0.1172;3.8735;
1397.4000;0.1164;3.8812;
1397.7000;0.1148;3.8735;
1398.0000;0.1164;3.8812;
1398.3000;0.1140;3.8761;
1398.6000;0.1148;3.8633;
1398.9000;0.1107;3.8530;
1399.2000;0.1140;3.8581;
1399.5000;0.1197;3.8735;
1399.8000;0.1188;3.8684;
