time/ms;Fluo/V;P700 deltaI/I x10³;
-199.8000;0.6007;1.9689;
-199.5000;0.5999;1.9689;
-199.2000;0.5958;1.9597;
-198.9000;0.5999;1.9689;
-198.6000;0.5999;1.9666;
-198.3000;0.5991;1.9573;
-198.0000;0.5991;1.9643;
-197.7000;0.6007;1.9712;
-197.4000;0.6024;1.9689;
-197.1000;0.6032;1.9735;
-196.8000;0.6032;1.9758;
-196.5000;0.6138;1.9990;
-196.2000;0.6089;1.9828;
-195.9000;0.6048;1.9828;
-195.6000;0.6056;1.9782;
-195.3000;0.6056;1.9782;
-195.0000;0.6056;1.9851;
-194.7000;0.6040;1.9851;
-194.4000;0.6048;1.9805;
-194.1000;0.6048;1.9735;
-193.8000;0.6032;1.9643;
-193.5000;0.6056;1.9620;
-193.2000;0.6048;1.9620;
-192.9000;0.6072;1.9689;
-192.6000;0.6072;1.9620;
-192.3000;0.6089;1.9712;
-192.0000;0.6089;1.9712;
-191.7000;0.6089;1.9735;
-191.4000;0.6097;1.9689;
-191.1000;0.6097;1.9712;
-190.8000;0.6113;1.9782;
-190.5000;0.6097;1.9758;
-190.2000;0.6081;1.9712;
-189.9000;0.6097;1.9851;
-189.6000;0.6089;1.9782;
-189.3000;0.6105;1.9851;
-189.0000;0.6113;1.9874;
-188.7000;0.6113;1.9874;
-188.4000;0.6146;1.9967;
-188.1000;0.6121;2.0013;
-187.8000;0.6121;1.9920;
-187.5000;0.6186;2.0013;
-187.2000;0.6154;1.9851;
-186.9000;0.6146;1.9828;
-186.6000;0.6154;1.9828;
-186.3000;0.6178;1.9874;
-186.0000;0.6170;1.9828;
-185.7000;0.6186;1.9920;
-185.4000;0.6178;1.9920;
-185.1000;0.6170;1.9944;
-184.8000;0.6186;1.9990;
-184.5000;0.6113;1.9805;
-184.2000;0.6195;1.9967;
-183.9000;0.6162;1.9874;
-183.6000;0.6195;1.9851;
-183.3000;0.6195;1.9920;
-183.0000;0.6203;1.9920;
-182.7000;0.6195;1.9990;
-182.4000;0.6203;2.0036;
-182.1000;0.6203;1.9967;
-181.8000;0.6211;1.9967;
-181.5000;0.6227;2.0106;
-181.2000;0.6219;2.0106;
-180.9000;0.6235;2.0106;
-180.6000;0.6243;2.0152;
-180.3000;0.6227;2.0036;
-180.0000;0.6243;2.0036;
-179.7000;0.6235;2.0013;
-179.4000;0.6260;2.0059;
-179.1000;0.6260;1.9967;
-178.8000;0.6243;2.0013;
-178.5000;0.6235;1.9990;
-178.2000;0.6219;1.9805;
-177.9000;0.6260;1.9897;
-177.6000;0.6284;2.0036;
-177.3000;0.6260;1.9990;
-177.0000;0.6276;2.0059;
-176.7000;0.6284;2.0082;
-176.4000;0.6292;2.0036;
-176.1000;0.6260;1.9920;
-175.8000;0.6300;2.0036;
-175.5000;0.6317;2.0036;
-175.2000;0.6292;1.9944;
-174.9000;0.6292;1.9897;
-174.6000;0.6317;1.9897;
-174.3000;0.6325;1.9920;
-174.0000;0.6341;1.9990;
-173.7000;0.6317;1.9874;
-173.4000;0.6309;1.9874;
-173.1000;0.6341;1.9851;
-172.8000;0.6325;1.9758;
-172.5000;0.6333;1.9643;
-172.2000;0.6341;1.9643;
-171.9000;0.6170;1.9249;
-171.6000;0.6349;1.9689;
-171.3000;0.6357;1.9828;
-171.0000;0.6292;1.9689;
-170.7000;0.6341;1.9758;
-170.4000;0.6365;1.9758;
-170.1000;0.6341;1.9643;
-169.8000;0.6349;1.9758;
-169.5000;0.6374;1.9782;
-169.2000;0.6365;1.9758;
-168.9000;0.6382;1.9782;
-168.6000;0.6520;2.0152;
-168.3000;0.6374;1.9828;
-168.0000;0.6390;1.9920;
-167.7000;0.6406;1.9944;
-167.4000;0.6406;1.9897;
-167.1000;0.6406;1.9920;
-166.8000;0.6406;1.9967;
-166.5000;0.6365;1.9920;
-166.2000;0.6431;2.0106;
-165.9000;0.6471;2.0106;
-165.6000;0.6398;1.9805;
-165.3000;0.6341;1.9666;
-165.0000;0.6414;1.9874;
-164.7000;0.6422;1.9805;
-164.4000;0.6463;1.9851;
-164.1000;0.6439;1.9758;
-163.8000;0.6439;1.9712;
-163.5000;0.6479;1.9782;
-163.2000;0.6422;1.9712;
-162.9000;0.6455;1.9828;
-162.6000;0.6439;1.9851;
-162.3000;0.6455;1.9851;
-162.0000;0.6455;1.9920;
-161.7000;0.6439;1.9828;
-161.4000;0.6455;1.9828;
-161.1000;0.6447;1.9782;
-160.8000;0.6471;1.9758;
-160.5000;0.6463;1.9689;
-160.2000;0.6471;1.9735;
-159.9000;0.6496;1.9712;
-159.6000;0.6455;1.9689;
-159.3000;0.6496;1.9782;
-159.0000;0.6479;1.9782;
-158.7000;0.6488;1.9828;
-158.4000;0.6496;1.9897;
-158.1000;0.6504;1.9874;
-157.8000;0.6520;1.9897;
-157.5000;0.6504;1.9851;
-157.2000;0.6496;1.9735;
-156.9000;0.6520;1.9689;
-156.6000;0.6536;1.9620;
-156.3000;0.6512;1.9527;
-156.0000;0.6528;1.9573;
-155.7000;0.6520;1.9527;
-155.4000;0.6545;1.9481;
-155.1000;0.6512;1.9504;
-154.8000;0.6536;1.9643;
-154.5000;0.6536;1.9689;
-154.2000;0.6569;1.9735;
-153.9000;0.6414;1.9342;
-153.6000;0.6553;1.9643;
-153.3000;0.6536;1.9527;
-153.0000;0.6553;1.9689;
-152.7000;0.6561;1.9712;
-152.4000;0.6553;1.9689;
-152.1000;0.6569;1.9735;
-151.8000;0.6569;1.9735;
-151.5000;0.6585;1.9666;
-151.2000;0.6561;1.9666;
-150.9000;0.6602;1.9666;
-150.6000;0.6618;1.9758;
-150.3000;0.6610;1.9643;
-150.0000;0.6585;1.9620;
-149.7000;0.6593;1.9689;
-149.4000;0.6626;1.9666;
-149.1000;0.6585;1.9597;
-148.8000;0.6610;1.9620;
-148.5000;0.6634;1.9689;
-148.2000;0.6593;1.9550;
-147.9000;0.6610;1.9504;
-147.6000;0.6650;1.9643;
-147.3000;0.6634;1.9643;
-147.0000;0.6618;1.9620;
-146.7000;0.6642;1.9735;
-146.4000;0.6634;1.9782;
-146.1000;0.6667;1.9874;
-145.8000;0.6634;1.9758;
-145.5000;0.6642;1.9735;
-145.2000;0.6634;1.9666;
-144.9000;0.6667;1.9712;
-144.6000;0.6659;1.9712;
-144.3000;0.6659;1.9735;
-144.0000;0.6667;1.9712;
-143.7000;0.6683;1.9712;
-143.4000;0.6675;1.9666;
-143.1000;0.6659;1.9620;
-142.8000;0.6667;1.9597;
-142.5000;0.6732;1.9758;
-142.2000;0.6667;1.9689;
-141.9000;0.6659;1.9620;
-141.6000;0.6675;1.9620;
-141.3000;0.6683;1.9550;
-141.0000;0.6675;1.9666;
-140.7000;0.6667;1.9735;
-140.4000;0.6691;1.9782;
-140.1000;0.6642;1.9689;
-139.8000;0.6683;1.9758;
-139.5000;0.6707;1.9782;
-139.2000;0.6683;1.9735;
-138.9000;0.6707;1.9735;
-138.6000;0.6716;1.9712;
-138.3000;0.6748;1.9735;
-138.0000;0.6707;1.9666;
-137.7000;0.6699;1.9620;
-137.4000;0.6691;1.9504;
-137.1000;0.6716;1.9573;
-136.8000;0.6724;1.9643;
-136.5000;0.6724;1.9666;
-136.2000;0.6716;1.9666;
-135.9000;0.6748;1.9620;
-135.6000;0.6740;1.9527;
-135.3000;0.6724;1.9527;
-135.0000;0.6724;1.9527;
-134.7000;0.6724;1.9573;
-134.4000;0.6683;1.9481;
-134.1000;0.6732;1.9643;
-133.8000;0.6732;1.9689;
-133.5000;0.6756;1.9666;
-133.2000;0.6756;1.9758;
-132.9000;0.6748;1.9782;
-132.6000;0.6764;1.9782;
-132.3000;0.6870;2.0013;
-132.0000;0.6772;1.9805;
-131.7000;0.6748;1.9735;
-131.4000;0.6764;1.9643;
-131.1000;0.6764;1.9643;
-130.8000;0.6813;1.9666;
-130.5000;0.6764;1.9597;
-130.2000;0.6789;1.9666;
-129.9000;0.6781;1.9758;
-129.6000;0.6789;1.9689;
-129.3000;0.6781;1.9620;
-129.0000;0.6805;1.9643;
-128.7000;0.6797;1.9643;
-128.4000;0.6813;1.9666;
-128.1000;0.6813;1.9620;
-127.8000;0.6821;1.9712;
-127.5000;0.6797;1.9666;
-127.2000;0.6797;1.9689;
-126.9000;0.6821;1.9712;
-126.6000;0.6805;1.9620;
-126.3000;0.6813;1.9620;
-126.0000;0.6829;1.9620;
-125.7000;0.6805;1.9573;
-125.4000;0.6805;1.9481;
-125.1000;0.6821;1.9527;
-124.8000;0.6838;1.9712;
-124.5000;0.6756;1.9527;
-124.2000;0.6846;1.9689;
-123.9000;0.6821;1.9573;
-123.6000;0.6854;1.9550;
-123.3000;0.6821;1.9573;
-123.0000;0.6838;1.9573;
-122.7000;0.6846;1.9666;
-122.4000;0.6829;1.9573;
-122.1000;0.6878;1.9712;
-121.8000;0.6870;1.9851;
-121.5000;0.6846;1.9897;
-121.2000;0.6862;1.9944;
-120.9000;0.6870;1.9967;
-120.6000;0.6870;1.9944;
-120.3000;0.6886;1.9944;
-120.0000;0.6870;1.9967;
-119.7000;0.6878;1.9944;
-119.4000;0.6895;1.9920;
-119.1000;0.6943;1.9990;
-118.8000;0.6895;1.9758;
-118.5000;0.6903;1.9758;
-118.2000;0.6927;1.9805;
-117.9000;0.6927;1.9782;
-117.6000;0.6903;1.9828;
-117.3000;0.6895;1.9735;
-117.0000;0.6903;1.9597;
-116.7000;0.6903;1.9573;
-116.4000;0.6903;1.9597;
-116.1000;0.6854;1.9550;
-115.8000;0.6886;1.9550;
-115.5000;0.6895;1.9550;
-115.2000;0.6911;1.9550;
-114.9000;0.6878;1.9597;
-114.6000;0.6911;1.9782;
-114.3000;0.6943;1.9920;
-114.0000;0.6927;1.9851;
-113.7000;0.6919;1.9897;
-113.4000;0.6943;1.9967;
-113.1000;0.6943;1.9967;
-112.8000;0.6927;2.0013;
-112.5000;0.6935;2.0013;
-112.2000;0.6992;2.0082;
-111.9000;0.6992;1.9920;
-111.6000;0.6943;1.9805;
-111.3000;0.6992;1.9874;
-111.0000;0.6935;1.9735;
-110.7000;0.6854;1.9458;
-110.4000;0.6935;1.9666;
-110.1000;0.6952;1.9689;
-109.8000;0.6960;1.9735;
-109.5000;0.6927;1.9666;
-109.2000;0.6927;1.9643;
-108.9000;0.6943;1.9689;
-108.6000;0.6943;1.9735;
-108.3000;0.6968;1.9851;
-108.0000;0.7025;1.9990;
-107.7000;0.7009;1.9851;
-107.4000;0.6984;1.9851;
-107.1000;0.6976;1.9897;
-106.8000;0.6919;1.9735;
-106.5000;0.7041;1.9944;
-106.2000;0.6976;1.9874;
-105.9000;0.6976;1.9990;
-105.6000;0.6984;1.9990;
-105.3000;0.6968;1.9828;
-105.0000;0.7025;2.0036;
-104.7000;0.6976;1.9920;
-104.4000;0.6976;1.9967;
-104.1000;0.6992;1.9944;
-103.8000;0.7000;1.9920;
-103.5000;0.6976;1.9828;
-103.2000;0.7009;1.9897;
-102.9000;0.6992;1.9897;
-102.6000;0.7057;2.0059;
-102.3000;0.6992;1.9851;
-102.0000;0.7009;1.9828;
-101.7000;0.6992;1.9758;
-101.4000;0.7066;1.9990;
-101.1000;0.7106;1.9990;
-100.8000;0.7000;1.9689;
-100.5000;0.7009;1.9689;
-100.2000;0.7025;1.9712;
-99.9000;0.7025;1.9735;
-99.6000;0.7049;1.9735;
-99.3000;0.7017;1.9620;
-99.0000;0.7009;1.9712;
-98.7000;0.7009;1.9735;
-98.4000;0.7025;1.9828;
-98.1000;0.7009;1.9828;
-97.8000;0.7049;1.9944;
-97.5000;0.7041;1.9990;
-97.2000;0.7041;2.0036;
-96.9000;0.7049;1.9897;
-96.6000;0.7025;1.9805;
-96.3000;0.7049;1.9828;
-96.0000;0.7041;1.9782;
-95.7000;0.7033;1.9735;
-95.4000;0.7057;1.9758;
-95.1000;0.7033;1.9735;
-94.8000;0.7041;1.9666;
-94.5000;0.7057;1.9643;
-94.2000;0.7057;1.9689;
-93.9000;0.7114;1.9851;
-93.6000;0.7074;1.9828;
-93.3000;0.7049;1.9782;
-93.0000;0.7074;1.9851;
-92.7000;0.7057;1.9735;
-92.4000;0.7057;1.9805;
-92.1000;0.7082;1.9874;
-91.8000;0.7082;1.9920;
-91.5000;0.7090;1.9920;
-91.2000;0.7074;1.9851;
-90.9000;0.7049;1.9851;
-90.6000;0.7057;1.9805;
-90.3000;0.7066;1.9874;
-90.0000;0.7066;1.9851;
-89.7000;0.7090;1.9920;
-89.4000;0.7090;1.9874;
-89.1000;0.7090;1.9920;
-88.8000;0.7139;2.0129;
-88.5000;0.7114;2.0082;
-88.2000;0.7098;2.0082;
-87.9000;0.7057;1.9990;
-87.6000;0.7106;1.9944;
-87.3000;0.7123;1.9990;
-87.0000;0.7106;1.9967;
-86.7000;0.7098;1.9967;
-86.4000;0.7114;1.9920;
-86.1000;0.7090;1.9828;
-85.8000;0.7114;1.9874;
-85.5000;0.7106;1.9828;
-85.2000;0.7098;1.9805;
-84.9000;0.7123;1.9805;
-84.6000;0.7123;1.9805;
-84.3000;0.7131;1.9828;
-84.0000;0.7123;1.9782;
-83.7000;0.7131;1.9782;
-83.4000;0.7147;1.9897;
-83.1000;0.7131;1.9897;
-82.8000;0.7220;2.0036;
-82.5000;0.7147;1.9805;
-82.2000;0.7106;1.9758;
-81.9000;0.7131;1.9851;
-81.6000;0.7114;1.9735;
-81.3000;0.7147;1.9828;
-81.0000;0.7155;1.9828;
-80.7000;0.7139;1.9828;
-80.4000;0.7188;1.9944;
-80.1000;0.7139;1.9920;
-79.8000;0.7147;2.0082;
-79.5000;0.7131;2.0106;
-79.2000;0.7098;2.0013;
-78.9000;0.7155;2.0082;
-78.6000;0.7131;2.0036;
-78.3000;0.7147;1.9967;
-78.0000;0.7114;1.9851;
-77.7000;0.7163;1.9874;
-77.4000;0.7139;1.9782;
-77.1000;0.7163;1.9805;
-76.8000;0.7155;1.9712;
-76.5000;0.7139;1.9712;
-76.2000;0.7139;1.9712;
-75.9000;0.7196;1.9874;
-75.6000;0.7163;1.9897;
-75.3000;0.7155;1.9944;
-75.0000;0.7171;1.9990;
-74.7000;0.7131;1.9828;
-74.4000;0.7147;1.9805;
-74.1000;0.7179;1.9805;
-73.8000;0.7155;1.9828;
-73.5000;0.7179;1.9782;
-73.2000;0.7188;1.9712;
-72.9000;0.7188;1.9712;
-72.6000;0.7147;1.9573;
-72.3000;0.7147;1.9666;
-72.0000;0.7155;1.9597;
-71.7000;0.7179;1.9550;
-71.4000;0.7188;1.9481;
-71.1000;0.7163;1.9504;
-70.8000;0.7196;1.9550;
-70.5000;0.7123;1.9435;
-70.2000;0.7188;1.9573;
-69.9000;0.7179;1.9643;
-69.6000;0.7212;1.9689;
-69.3000;0.7147;1.9597;
-69.0000;0.7179;1.9643;
-68.7000;0.7196;1.9643;
-68.4000;0.7196;1.9689;
-68.1000;0.7188;1.9689;
-67.8000;0.7196;1.9712;
-67.5000;0.7179;1.9666;
-67.2000;0.7171;1.9689;
-66.9000;0.7204;1.9597;
-66.6000;0.7204;1.9597;
-66.3000;0.7155;1.9573;
-66.0000;0.7212;1.9782;
-65.7000;0.7334;2.0106;
-65.4000;0.7196;1.9758;
-65.1000;0.7220;1.9689;
-64.8000;0.7212;1.9573;
-64.5000;0.7212;1.9527;
-64.2000;0.7196;1.9458;
-63.9000;0.7204;1.9458;
-63.6000;0.7220;1.9550;
-63.3000;0.7212;1.9666;
-63.0000;0.7293;1.9874;
-62.7000;0.7293;1.9851;
-62.4000;0.7228;1.9666;
-62.1000;0.7212;1.9643;
-61.8000;0.7245;1.9620;
-61.5000;0.7220;1.9550;
-61.2000;0.7188;1.9435;
-60.9000;0.7228;1.9643;
-60.6000;0.7269;1.9735;
-60.3000;0.7220;1.9550;
-60.0000;0.7204;1.9504;
-59.7000;0.7228;1.9597;
-59.4000;0.7253;1.9527;
-59.1000;0.7188;1.9388;
-58.8000;0.7220;1.9504;
-58.5000;0.7196;1.9458;
-58.2000;0.7261;1.9643;
-57.9000;0.7245;1.9643;
-57.6000;0.7220;1.9573;
-57.3000;0.7236;1.9550;
-57.0000;0.7171;1.9481;
-56.7000;0.7253;1.9712;
-56.4000;0.7253;1.9735;
-56.1000;0.7179;1.9527;
-55.8000;0.7261;1.9758;
-55.5000;0.7204;1.9620;
-55.2000;0.7236;1.9643;
-54.9000;0.7220;1.9550;
-54.6000;0.7196;1.9481;
-54.3000;0.7245;1.9666;
-54.0000;0.7253;1.9643;
-53.7000;0.7236;1.9597;
-53.4000;0.7212;1.9573;
-53.1000;0.7326;1.9897;
-52.8000;0.7277;1.9828;
-52.5000;0.7277;1.9851;
-52.2000;0.7245;1.9782;
-51.9000;0.7261;1.9758;
-51.6000;0.7269;1.9805;
-51.3000;0.7245;1.9666;
-51.0000;0.7285;1.9712;
-50.7000;0.7253;1.9620;
-50.4000;0.7269;1.9643;
-50.1000;0.7261;1.9735;
-49.8000;0.7277;1.9689;
-49.5000;0.7285;1.9689;
-49.2000;0.7245;1.9643;
-48.9000;0.7293;1.9712;
-48.6000;0.7285;1.9573;
-48.3000;0.7277;1.9573;
-48.0000;0.7293;1.9620;
-47.7000;0.7277;1.9689;
-47.4000;0.7220;1.9550;
-47.1000;0.7228;1.9481;
-46.8000;0.7212;1.9411;
-46.5000;0.7285;1.9458;
-46.2000;0.7269;1.9481;
-45.9000;0.7285;1.9435;
-45.6000;0.7220;1.9249;
-45.3000;0.7302;1.9388;
-45.0000;0.7285;1.9296;
-44.7000;0.7302;1.9388;
-44.4000;0.7285;1.9365;
-44.1000;0.7277;1.9411;
-43.8000;0.7285;1.9458;
-43.5000;0.7293;1.9550;
-43.2000;0.7285;1.9550;
-42.9000;0.7293;1.9527;
-42.6000;0.7293;1.9597;
-42.3000;0.7277;1.9573;
-42.0000;0.7285;1.9666;
-41.7000;0.7269;1.9666;
-41.4000;0.7293;1.9597;
-41.1000;0.7310;1.9643;
-40.8000;0.7277;1.9666;
-40.5000;0.7285;1.9758;
-40.2000;0.7302;1.9735;
-39.9000;0.7302;1.9735;
-39.6000;0.7310;1.9643;
-39.3000;0.7302;1.9573;
-39.0000;0.7383;1.9782;
-38.7000;0.7293;1.9597;
-38.4000;0.7334;1.9550;
-38.1000;0.7318;1.9504;
-37.8000;0.7326;1.9504;
-37.5000;0.7326;1.9620;
-37.2000;0.7285;1.9643;
-36.9000;0.7285;1.9597;
-36.6000;0.7318;1.9689;
-36.3000;0.7326;1.9712;
-36.0000;0.7310;1.9689;
-35.7000;0.7269;1.9597;
-35.4000;0.7359;1.9689;
-35.1000;0.7318;1.9597;
-34.8000;0.7326;1.9550;
-34.5000;0.7204;1.9226;
-34.2000;0.7334;1.9573;
-33.9000;0.7326;1.9573;
-33.6000;0.7326;1.9504;
-33.3000;0.7302;1.9550;
-33.0000;0.7310;1.9573;
-32.7000;0.7318;1.9573;
-32.4000;0.7318;1.9550;
-32.1000;0.7253;1.9388;
-31.8000;0.7302;1.9435;
-31.5000;0.7212;1.9203;
-31.2000;0.7326;1.9435;
-30.9000;0.7310;1.9458;
-30.6000;0.7342;1.9365;
-30.3000;0.7326;1.9365;
-30.0000;0.7310;1.9365;
-29.7000;0.7326;1.9435;
-29.4000;0.7318;1.9435;
-29.1000;0.7334;1.9411;
-28.8000;0.7310;1.9435;
-28.5000;0.7326;1.9388;
-28.2000;0.7350;1.9388;
-27.9000;0.7318;1.9342;
-27.6000;0.7326;1.9411;
-27.3000;0.7342;1.9411;
-27.0000;0.7334;1.9411;
-26.7000;0.7326;1.9411;
-26.4000;0.7334;1.9481;
-26.1000;0.7326;1.9550;
-25.8000;0.7334;1.9573;
-25.5000;0.7342;1.9527;
-25.2000;0.7326;1.9550;
-24.9000;0.7342;1.9620;
-24.6000;0.7350;1.9597;
-24.3000;0.7367;1.9597;
-24.0000;0.7334;1.9550;
-23.7000;0.7350;1.9597;
-23.4000;0.7261;1.9273;
-23.1000;0.7310;1.9319;
-22.8000;0.7334;1.9319;
-22.5000;0.7359;1.9319;
-22.2000;0.7350;1.9365;
-21.9000;0.7334;1.9435;
-21.6000;0.7334;1.9411;
-21.3000;0.7342;1.9411;
-21.0000;0.7318;1.9388;
-20.7000;0.7367;1.9504;
-20.4000;0.7350;1.9458;
-20.1000;0.7318;1.9342;
-19.8000;0.7334;1.9342;
-19.5000;0.7342;1.9365;
-19.2000;0.7326;1.9435;
-18.9000;0.7342;1.9411;
-18.6000;0.7342;1.9365;
-18.3000;0.7350;1.9342;
-18.0000;0.7342;1.9365;
-17.7000;0.7342;1.9458;
-17.4000;0.7342;1.9527;
-17.1000;0.7350;1.9527;
-16.8000;0.7277;1.9296;
-16.5000;0.7342;1.9435;
-16.2000;0.7334;1.9342;
-15.9000;0.7367;1.9411;
-15.6000;0.7367;1.9365;
-15.3000;0.7334;1.9273;
-15.0000;0.7334;1.9226;
-14.7000;0.7383;1.9342;
-14.4000;0.7407;1.9342;
-14.1000;0.7375;1.9273;
-13.8000;0.7334;1.9203;
-13.5000;0.7350;1.9296;
-13.2000;0.7359;1.9319;
-12.9000;0.7383;1.9226;
-12.6000;0.7375;1.9273;
-12.3000;0.7342;1.9296;
-12.0000;0.7350;1.9249;
-11.7000;0.7310;1.9249;
-11.4000;0.7432;1.9504;
-11.1000;0.7350;1.9365;
-10.8000;0.7416;1.9504;
-10.5000;0.7407;1.9504;
-10.2000;0.7359;1.9458;
-9.9000;0.7367;1.9388;
-9.6000;0.7359;1.9388;
-9.3000;0.7383;1.9504;
-9.0000;0.7375;1.9527;
-8.7000;0.7367;1.9411;
-8.4000;0.7318;1.9296;
-8.1000;0.7359;1.9411;
-7.8000;0.7375;1.9458;
-7.5000;0.7359;1.9435;
-7.2000;0.7350;1.9435;
-6.9000;0.7350;1.9411;
-6.6000;0.7391;1.9458;
-6.3000;0.7342;1.9388;
-6.0000;0.7350;1.9411;
-5.7000;0.7383;1.9550;
-5.4000;0.7375;1.9504;
-5.1000;0.7383;1.9527;
-4.8000;0.7391;1.9504;
-4.5000;0.7375;1.9481;
-4.2000;0.7391;1.9527;
-3.9000;0.7383;1.9504;
-3.6000;0.7375;1.9527;
-3.3000;0.7391;1.9504;
-3.0000;0.7391;1.9527;
-2.7000;0.7383;1.9527;
-2.4000;0.7383;1.9643;
-2.1000;0.7375;1.9643;
-1.8000;0.7407;1.9735;
-1.5000;0.7595;2.0267;
-1.2000;0.7367;1.9712;
-0.9000;0.7399;1.9828;
-0.6000;0.7383;1.9712;
-0.3000;0.7375;1.9712;
0.0000;0.7375;1.9712;
0.3000;0.7481;1.9527;
0.6000;0.7668;1.9666;
0.9000;0.7831;1.9897;
1.2000;0.7920;2.0129;
1.5000;0.8034;2.0360;
1.8000;0.8148;2.0476;
2.1000;0.8197;2.0545;
2.4000;0.8254;2.0638;
2.7000;0.8287;2.0730;
3.0000;0.8327;2.0846;
3.3000;0.8400;2.0938;
3.6000;0.8400;2.0915;
3.9000;0.8433;2.0985;
4.2000;0.8441;2.1031;
4.5000;0.8474;2.1077;
4.8000;0.8474;2.0938;
5.1000;0.8506;2.0985;
5.4000;0.8514;2.1100;
5.7000;0.8531;2.1077;
6.0000;0.8563;2.1170;
6.3000;0.8612;2.1262;
6.6000;0.8555;2.1147;
6.9000;0.8555;2.1170;
7.2000;0.8571;2.1124;
7.5000;0.8571;2.1147;
7.8000;0.8580;2.1124;
8.1000;0.8588;2.1193;
8.4000;0.8555;2.1124;
8.7000;0.8620;2.1193;
9.0000;0.8580;2.1077;
9.3000;0.8637;2.1285;
9.6000;0.8628;2.1239;
9.9000;0.8628;2.1216;
10.2000;0.8637;2.1239;
10.5000;0.8580;2.1100;
10.8000;0.8661;2.1239;
11.1000;0.8645;2.1147;
11.4000;0.8612;2.1077;
11.7000;0.8677;2.1239;
12.0000;0.8718;2.1285;
12.3000;0.8702;2.1285;
12.6000;0.8694;2.1332;
12.9000;0.8685;2.1447;
13.2000;0.8669;2.1401;
13.5000;0.8661;2.1494;
13.8000;0.8685;2.1609;
14.1000;0.8661;2.1540;
14.4000;0.8588;2.1285;
14.7000;0.8702;2.1494;
15.0000;0.8661;2.1332;
15.3000;0.8685;2.1401;
15.6000;0.8702;2.1447;
15.9000;0.8628;2.1309;
16.2000;0.8734;2.1424;
16.5000;0.8726;2.1424;
16.8000;0.8710;2.1424;
17.1000;0.8726;2.1494;
17.4000;0.8734;2.1517;
17.7000;0.8726;2.1540;
18.0000;0.8751;2.1679;
18.3000;0.8734;2.1633;
18.6000;0.8742;2.1609;
18.9000;0.8751;2.1563;
19.2000;0.8775;2.1633;
19.5000;0.8751;2.1517;
19.8000;0.8759;2.1494;
20.1000;0.8751;2.1517;
20.4000;0.8775;2.1563;
20.7000;0.8807;2.1494;
21.0000;0.8759;2.1424;
21.3000;0.8751;2.1355;
21.6000;0.8759;2.1378;
21.9000;0.8759;2.1517;
22.2000;0.8767;2.1540;
22.5000;0.8767;2.1494;
22.8000;0.8791;2.1586;
23.1000;0.8783;2.1494;
23.4000;0.8767;2.1447;
23.7000;0.8791;2.1540;
24.0000;0.8775;2.1540;
24.3000;0.8783;2.1517;
24.6000;0.8816;2.1609;
24.9000;0.8783;2.1563;
25.2000;0.8775;2.1517;
25.5000;0.8783;2.1609;
25.8000;0.8799;2.1656;
26.1000;0.8775;2.1609;
26.4000;0.8799;2.1633;
26.7000;0.8759;2.1424;
27.0000;0.8807;2.1517;
27.3000;0.8791;2.1494;
27.6000;0.8791;2.1355;
27.9000;0.8816;2.1378;
28.2000;0.8791;2.1447;
28.5000;0.8824;2.1586;
28.8000;0.8807;2.1540;
29.1000;0.8832;2.1517;
29.4000;0.8807;2.1424;
29.7000;0.8816;2.1401;
30.0000;0.8807;2.1424;
30.3000;0.8807;2.1401;
30.6000;0.8807;2.1309;
30.9000;0.8791;2.1193;
31.2000;0.8807;2.1239;
31.5000;0.8840;2.1285;
31.8000;0.8816;2.1309;
32.1000;0.8889;2.1424;
32.4000;0.8848;2.1355;
32.7000;0.8824;2.1309;
33.0000;0.8848;2.1285;
33.3000;0.8832;2.1262;
33.6000;0.8832;2.1285;
33.9000;0.8832;2.1285;
34.2000;0.8824;2.1355;
34.5000;0.8873;2.1471;
34.8000;0.8807;2.1401;
35.1000;0.8881;2.1517;
35.4000;0.8832;2.1424;
35.7000;0.8856;2.1494;
36.0000;0.8840;2.1401;
36.3000;0.8840;2.1401;
36.6000;0.8856;2.1401;
36.9000;0.8840;2.1447;
37.2000;0.8832;2.1540;
37.5000;0.8856;2.1494;
37.8000;0.8840;2.1517;
38.1000;0.8856;2.1540;
38.4000;0.8816;2.1517;
38.7000;0.8848;2.1679;
39.0000;0.8864;2.1725;
39.3000;0.8873;2.1609;
39.6000;0.8848;2.1494;
39.9000;0.8848;2.1471;
40.2000;0.8840;2.1401;
40.5000;0.8856;2.1447;
40.8000;0.8864;2.1447;
41.1000;0.8864;2.1401;
41.4000;0.8864;2.1424;
41.7000;0.8864;2.1401;
42.0000;0.8873;2.1424;
42.3000;0.8889;2.1401;
42.6000;0.9003;2.1748;
42.9000;0.8889;2.1447;
43.2000;0.8824;2.1239;
43.5000;0.8873;2.1447;
43.8000;0.8889;2.1517;
44.1000;0.8848;2.1424;
44.4000;0.8881;2.1517;
44.7000;0.8881;2.1424;
45.0000;0.8905;2.1494;
45.3000;0.8938;2.1540;
45.6000;0.8905;2.1424;
45.9000;0.8905;2.1401;
46.2000;0.8873;2.1309;
46.5000;0.8873;2.1239;
46.8000;0.8889;2.1262;
47.1000;0.8889;2.1355;
47.4000;0.8873;2.1309;
47.7000;0.8889;2.1285;
48.0000;0.8881;2.1309;
48.3000;0.8897;2.1355;
48.6000;0.8873;2.1285;
48.9000;0.8807;2.1124;
49.2000;0.8889;2.1285;
49.5000;0.8897;2.1355;
49.8000;0.8930;2.1401;
50.1000;0.8889;2.1285;
50.4000;0.8889;2.1285;
50.7000;0.8881;2.1262;
51.0000;0.8889;2.1262;
51.3000;0.8889;2.1401;
51.6000;0.8881;2.1401;
51.9000;0.8930;2.1471;
52.2000;0.8905;2.1471;
52.5000;0.8881;2.1424;
52.8000;0.8889;2.1447;
53.1000;0.8897;2.1447;
53.4000;0.8889;2.1447;
53.7000;0.8897;2.1517;
54.0000;0.8889;2.1494;
54.3000;0.8897;2.1471;
54.6000;0.8897;2.1447;
54.9000;0.8897;2.1424;
55.2000;0.8881;2.1355;
55.5000;0.8897;2.1285;
55.8000;0.8913;2.1378;
56.1000;0.8897;2.1309;
56.4000;0.8905;2.1285;
56.7000;0.8897;2.1239;
57.0000;0.8921;2.1262;
57.3000;0.8921;2.1332;
57.6000;0.8905;2.1332;
57.9000;0.8921;2.1378;
58.2000;0.8913;2.1378;
58.5000;0.8897;2.1378;
58.8000;0.8913;2.1424;
59.1000;0.8905;2.1378;
59.4000;0.8897;2.1378;
59.7000;0.8889;2.1494;
60.0000;0.8864;2.1517;
60.3000;0.8954;2.1679;
60.6000;0.8946;2.1540;
60.9000;0.8873;2.1378;
61.2000;0.8921;2.1447;
61.5000;0.8913;2.1471;
61.8000;0.8905;2.1447;
62.1000;0.8775;2.1170;
62.4000;0.8913;2.1424;
62.7000;0.8889;2.1355;
63.0000;0.8897;2.1471;
63.3000;0.8913;2.1540;
63.6000;0.8913;2.1609;
63.9000;0.8873;2.1447;
64.2000;0.8897;2.1447;
64.5000;0.8905;2.1355;
64.8000;0.8897;2.1285;
65.1000;0.8913;2.1285;
65.4000;0.8897;2.1216;
65.7000;0.8881;2.1239;
66.0000;0.8913;2.1378;
66.3000;0.8930;2.1332;
66.6000;0.8889;2.1170;
66.9000;0.8897;2.1193;
67.2000;0.8889;2.1170;
67.5000;0.8913;2.1332;
67.8000;0.8905;2.1355;
68.1000;0.8913;2.1355;
68.4000;0.8905;2.1401;
68.7000;0.8938;2.1378;
69.0000;0.8913;2.1285;
69.3000;0.8913;2.1262;
69.6000;0.8905;2.1262;
69.9000;0.8921;2.1262;
70.2000;0.8921;2.1355;
70.5000;0.8905;2.1285;
70.8000;0.8905;2.1239;
71.1000;0.8905;2.1262;
71.4000;0.8905;2.1309;
71.7000;0.8905;2.1285;
72.0000;0.8905;2.1332;
72.3000;0.8913;2.1332;
72.6000;0.8921;2.1401;
72.9000;0.8905;2.1285;
73.2000;0.8897;2.1424;
73.5000;0.8930;2.1517;
73.8000;0.8905;2.1401;
74.1000;0.8913;2.1332;
74.4000;0.8913;2.1332;
74.7000;0.8897;2.1355;
75.0000;0.8913;2.1401;
75.3000;0.8889;2.1378;
75.6000;0.8897;2.1378;
75.9000;0.8921;2.1378;
76.2000;0.8905;2.1378;
76.5000;0.8930;2.1563;
76.8000;0.8946;2.1540;
77.1000;0.8930;2.1563;
77.4000;0.8921;2.1563;
77.7000;0.8897;2.1540;
78.0000;0.8987;2.1656;
78.3000;0.8970;2.1633;
78.6000;0.8921;2.1517;
78.9000;0.8938;2.1540;
79.2000;0.8921;2.1471;
79.5000;0.8946;2.1494;
79.8000;0.8921;2.1332;
80.1000;0.8848;2.1054;
80.4000;0.8962;2.1401;
80.7000;0.8864;2.1124;
81.0000;0.8905;2.1239;
81.3000;0.8954;2.1332;
81.6000;0.8921;2.1216;
81.9000;0.8921;2.1239;
82.2000;0.8905;2.1285;
82.5000;0.8905;2.1216;
82.8000;0.8946;2.1285;
83.1000;0.8897;2.1054;
83.4000;0.8905;2.1100;
83.7000;0.8897;2.1147;
84.0000;0.8930;2.1193;
84.3000;0.8954;2.1262;
84.6000;0.8930;2.1216;
84.9000;0.8889;2.1170;
85.2000;0.8897;2.1193;
85.5000;0.9035;2.1540;
85.8000;0.8905;2.1239;
86.1000;0.8856;2.1239;
86.4000;0.8905;2.1332;
86.7000;0.8921;2.1355;
87.0000;0.8905;2.1285;
87.3000;0.8905;2.1309;
87.6000;0.8905;2.1401;
87.9000;0.8921;2.1494;
88.2000;0.8905;2.1378;
88.5000;0.8913;2.1355;
88.8000;0.8889;2.1285;
89.1000;0.8921;2.1285;
89.4000;0.8930;2.1285;
89.7000;0.8938;2.1262;
90.0000;0.8938;2.1378;
90.3000;0.8930;2.1332;
90.6000;0.8889;2.1309;
90.9000;0.8921;2.1285;
91.2000;0.8946;2.1285;
91.5000;0.8954;2.1216;
91.8000;0.9011;2.1355;
92.1000;0.8930;2.1262;
92.4000;0.8938;2.1401;
92.7000;0.8930;2.1285;
93.0000;0.8938;2.1239;
93.3000;0.8970;2.1355;
93.6000;0.8938;2.1262;
93.9000;0.8889;2.1285;
94.2000;0.8970;2.1401;
94.5000;0.8954;2.1447;
94.8000;0.8978;2.1424;
95.1000;0.8905;2.1239;
95.4000;0.8799;2.0915;
95.7000;0.8848;2.1054;
96.0000;0.8921;2.1216;
96.3000;0.8913;2.1239;
96.6000;0.8905;2.1355;
96.9000;0.8897;2.1355;
97.2000;0.8913;2.1517;
97.5000;0.8913;2.1424;
97.8000;0.8905;2.1471;
98.1000;0.8905;2.1424;
98.4000;0.8913;2.1447;
98.7000;0.8905;2.1424;
99.0000;0.8921;2.1494;
99.3000;0.8921;2.1494;
99.6000;0.8938;2.1586;
99.9000;0.8905;2.1424;
100.2000;0.8905;2.1494;
100.5000;0.8921;2.1517;
100.8000;0.8921;2.1355;
101.1000;0.8921;2.1262;
101.4000;0.8921;2.1309;
101.7000;0.8938;2.1332;
102.0000;0.8897;2.1309;
102.3000;0.8930;2.1262;
102.6000;0.8930;2.1239;
102.9000;0.8930;2.1100;
103.2000;0.8970;2.1100;
103.5000;0.8930;2.1077;
103.8000;0.8897;2.1054;
104.1000;0.8889;2.1054;
104.4000;0.8913;2.1124;
104.7000;0.8938;2.1170;
105.0000;0.8938;2.1193;
105.3000;0.8921;2.1170;
105.6000;0.8889;2.1077;
105.9000;0.8921;2.1216;
106.2000;0.8921;2.1193;
106.5000;0.8930;2.1285;
106.8000;0.8921;2.1332;
107.1000;0.8930;2.1309;
107.4000;0.8930;2.1239;
107.7000;0.8913;2.1309;
108.0000;0.8921;2.1401;
108.3000;0.8905;2.1401;
108.6000;0.8930;2.1378;
108.9000;0.8873;2.1285;
109.2000;0.8913;2.1378;
109.5000;0.9027;2.1609;
109.8000;0.8905;2.1355;
110.1000;0.8913;2.1285;
110.4000;0.8921;2.1285;
110.7000;0.8921;2.1262;
111.0000;0.8913;2.1262;
111.3000;0.8913;2.1239;
111.6000;0.8913;2.1239;
111.9000;0.8921;2.1239;
112.2000;0.8905;2.1239;
112.5000;0.8938;2.1239;
112.8000;0.8921;2.1216;
113.1000;0.8913;2.1309;
113.4000;0.8921;2.1355;
113.7000;0.8905;2.1309;
114.0000;0.8905;2.1378;
114.3000;0.8921;2.1424;
114.6000;0.8921;2.1447;
114.9000;0.8921;2.1424;
115.2000;0.8921;2.1378;
115.5000;0.8921;2.1424;
115.8000;0.8938;2.1309;
116.1000;0.8930;2.1378;
116.4000;0.8913;2.1355;
116.7000;0.9027;2.1540;
117.0000;0.9011;2.1447;
117.3000;0.8930;2.1262;
117.6000;0.8873;2.1124;
117.9000;0.8913;2.1239;
118.2000;0.8938;2.1216;
118.5000;0.8921;2.1239;
118.8000;0.8930;2.1239;
119.1000;0.8905;2.1147;
119.4000;0.8921;2.1193;
119.7000;0.8921;2.1147;
120.0000;0.8938;2.1216;
120.3000;0.8905;2.1124;
120.6000;0.8930;2.1216;
120.9000;0.8913;2.1216;
121.2000;0.8921;2.1239;
121.5000;0.8921;2.1216;
121.8000;0.8864;2.1124;
122.1000;0.8913;2.1239;
122.4000;0.8905;2.1285;
122.7000;0.8921;2.1309;
123.0000;0.8897;2.1239;
123.3000;0.8913;2.1193;
123.6000;0.8921;2.1216;
123.9000;0.8930;2.1193;
124.2000;0.8921;2.1216;
124.5000;0.8913;2.1170;
124.8000;0.8930;2.1100;
125.1000;0.8921;2.1124;
125.4000;0.8921;2.1077;
125.7000;0.8930;2.1124;
126.0000;0.8873;2.1008;
126.3000;0.8946;2.1100;
126.6000;0.8930;2.1147;
126.9000;0.8987;2.1193;
127.2000;0.8905;2.1077;
127.5000;0.8930;2.1170;
127.8000;0.8938;2.1077;
128.1000;0.8856;2.0915;
128.4000;0.8913;2.1054;
128.7000;0.8921;2.1100;
129.0000;0.8938;2.1147;
129.3000;0.8930;2.1077;
129.6000;0.8905;2.1077;
129.9000;0.8921;2.1216;
130.2000;0.8913;2.1147;
130.5000;0.8873;2.1031;
130.8000;0.8921;2.1147;
131.1000;0.8913;2.1077;
131.4000;0.8970;2.1262;
131.7000;0.8905;2.1077;
132.0000;0.8938;2.1147;
132.3000;0.8905;2.1054;
132.6000;0.8921;2.1100;
132.9000;0.8889;2.1100;
133.2000;0.8930;2.1193;
133.5000;0.8856;2.1077;
133.8000;0.8897;2.1262;
134.1000;0.8978;2.1424;
134.4000;0.8930;2.1332;
134.7000;0.8905;2.1285;
135.0000;0.8921;2.1332;
135.3000;0.8930;2.1309;
135.6000;0.8962;2.1401;
135.9000;0.8930;2.1355;
136.2000;0.8905;2.1378;
136.5000;0.8816;2.1193;
136.8000;0.8938;2.1447;
137.1000;0.8938;2.1471;
137.4000;0.8921;2.1471;
137.7000;0.8995;2.1609;
138.0000;0.8930;2.1378;
138.3000;0.8930;2.1309;
138.6000;0.8905;2.1332;
138.9000;0.8905;2.1332;
139.2000;0.8930;2.1471;
139.5000;0.8913;2.1424;
139.8000;0.8921;2.1285;
140.1000;0.8905;2.1309;
140.4000;0.8913;2.1332;
140.7000;0.8930;2.1424;
141.0000;0.8921;2.1378;
141.3000;0.8889;2.1332;
141.6000;0.8897;2.1285;
141.9000;0.8930;2.1401;
142.2000;0.9035;2.1725;
142.5000;0.8881;2.1332;
142.8000;0.8930;2.1378;
143.1000;0.8921;2.1332;
143.4000;0.8913;2.1193;
143.7000;0.8881;2.1124;
144.0000;0.8930;2.1262;
144.3000;0.8913;2.1262;
144.6000;0.8930;2.1309;
144.9000;0.8881;2.1239;
145.2000;0.8905;2.1285;
145.5000;0.8938;2.1424;
145.8000;0.8921;2.1378;
146.1000;0.8921;2.1309;
146.4000;0.8930;2.1401;
146.7000;0.8905;2.1332;
147.0000;0.8913;2.1262;
147.3000;0.8913;2.1355;
147.6000;0.8921;2.1401;
147.9000;0.8921;2.1378;
148.2000;0.8921;2.1355;
148.5000;0.8930;2.1285;
148.8000;0.8856;2.1077;
149.1000;0.8962;2.1285;
149.4000;0.8913;2.1285;
149.7000;0.8930;2.1239;
150.0000;0.8930;2.1239;
150.3000;0.8938;2.1239;
150.6000;0.8864;2.1031;
150.9000;0.8897;2.1147;
151.2000;0.8921;2.1170;
151.5000;0.8913;2.1100;
151.8000;0.8897;2.1124;
152.1000;0.8938;2.1147;
152.4000;0.8791;2.0823;
152.7000;0.8921;2.1147;
153.0000;0.8913;2.1193;
153.3000;0.8913;2.1124;
153.6000;0.9044;2.1447;
153.9000;0.8921;2.1100;
154.2000;0.8905;2.1054;
154.5000;0.8930;2.1124;
154.8000;0.8921;2.1124;
155.1000;0.8913;2.1031;
155.4000;0.8921;2.1124;
155.7000;0.8930;2.1054;
156.0000;0.8856;2.0892;
156.3000;0.8921;2.1054;
156.6000;0.8832;2.0869;
156.9000;0.8930;2.1054;
157.2000;0.8905;2.1077;
157.5000;0.8921;2.1077;
157.8000;0.8921;2.1147;
158.1000;0.8930;2.1124;
158.4000;0.8913;2.1170;
158.7000;0.8921;2.1216;
159.0000;0.8897;2.1216;
159.3000;0.8946;2.1309;
159.6000;0.8921;2.1193;
159.9000;0.8913;2.1124;
160.2000;0.8921;2.1170;
160.5000;0.8913;2.1193;
160.8000;0.8995;2.1378;
161.1000;0.8930;2.1193;
161.4000;0.8930;2.1124;
161.7000;0.8930;2.1170;
162.0000;0.8897;2.1077;
162.3000;0.8930;2.1077;
162.6000;0.8913;2.1031;
162.9000;0.8930;2.1124;
163.2000;0.8921;2.1054;
163.5000;0.8930;2.1077;
163.8000;0.8889;2.1054;
164.1000;0.8921;2.1216;
164.4000;0.8905;2.1262;
164.7000;0.8905;2.1285;
165.0000;0.8905;2.1332;
165.3000;0.8905;2.1378;
165.6000;0.8897;2.1355;
165.9000;0.8897;2.1447;
166.2000;0.8840;2.1309;
166.5000;0.8970;2.1586;
166.8000;0.8913;2.1424;
167.1000;0.8930;2.1471;
167.4000;0.8930;2.1424;
167.7000;0.8897;2.1309;
168.0000;0.8921;2.1285;
168.3000;0.8921;2.1309;
168.6000;0.8905;2.1332;
168.9000;0.8913;2.1355;
169.2000;0.8905;2.1285;
169.5000;0.8913;2.1355;
169.8000;0.8905;2.1285;
170.1000;0.8905;2.1239;
170.4000;0.8881;2.1193;
170.7000;0.8921;2.1309;
171.0000;0.8938;2.1401;
171.3000;0.8897;2.1285;
171.6000;0.8921;2.1309;
171.9000;0.8881;2.1332;
172.2000;0.8897;2.1401;
172.5000;0.8930;2.1401;
172.8000;0.8938;2.1378;
173.1000;0.8938;2.1332;
173.4000;0.8864;2.1124;
173.7000;0.8946;2.1332;
174.0000;0.8897;2.1170;
174.3000;0.8995;2.1401;
174.6000;0.8905;2.1285;
174.9000;0.8889;2.1262;
175.2000;0.8930;2.1262;
175.5000;0.8897;2.1193;
175.8000;0.8930;2.1401;
176.1000;0.8930;2.1401;
176.4000;0.8897;2.1471;
176.7000;0.8921;2.1540;
177.0000;0.8913;2.1494;
177.3000;0.8921;2.1424;
177.6000;0.8913;2.1424;
177.9000;0.8889;2.1355;
178.2000;0.8905;2.1378;
178.5000;0.8921;2.1401;
178.8000;0.8930;2.1424;
179.1000;0.8930;2.1494;
179.4000;0.8913;2.1586;
179.7000;0.8913;2.1586;
180.0000;0.8913;2.1633;
180.3000;0.8897;2.1609;
180.6000;0.8897;2.1633;
180.9000;0.8889;2.1586;
181.2000;0.8905;2.1656;
181.5000;0.8905;2.1633;
181.8000;0.8930;2.1656;
182.1000;0.8921;2.1656;
182.4000;0.8930;2.1563;
182.7000;0.8881;2.1471;
183.0000;0.8905;2.1540;
183.3000;0.8905;2.1378;
183.6000;0.8921;2.1401;
183.9000;0.8897;2.1355;
184.2000;0.8913;2.1378;
184.5000;0.8913;2.1378;
184.8000;0.8970;2.1540;
185.1000;0.8921;2.1494;
185.4000;0.8930;2.1447;
185.7000;0.8921;2.1471;
186.0000;0.8938;2.1517;
186.3000;0.8946;2.1633;
186.6000;0.8921;2.1540;
186.9000;0.8930;2.1540;
187.2000;0.8905;2.1447;
187.5000;0.8897;2.1424;
187.8000;0.8938;2.1540;
188.1000;0.8930;2.1471;
188.4000;0.8905;2.1424;
188.7000;0.8913;2.1378;
189.0000;0.8921;2.1401;
189.3000;0.8930;2.1424;
189.6000;0.8897;2.1447;
189.9000;0.8873;2.1332;
190.2000;0.8897;2.1332;
190.5000;0.8905;2.1332;
190.8000;0.8905;2.1332;
191.1000;0.8905;2.1332;
191.4000;0.8930;2.1332;
191.7000;0.8897;2.1262;
192.0000;0.8897;2.1285;
192.3000;0.8905;2.1262;
192.6000;0.8897;2.1401;
192.9000;0.8897;2.1378;
193.2000;0.8905;2.1355;
193.5000;0.8913;2.1355;
193.8000;0.8921;2.1401;
194.1000;0.8897;2.1401;
194.4000;0.8913;2.1517;
194.7000;0.8954;2.1609;
195.0000;0.8897;2.1494;
195.3000;0.8905;2.1401;
195.6000;0.8905;2.1378;
195.9000;0.8913;2.1239;
196.2000;0.8913;2.1262;
196.5000;0.8889;2.1216;
196.8000;0.8913;2.1285;
197.1000;0.8946;2.1309;
197.4000;0.8946;2.1262;
197.7000;0.8913;2.1170;
198.0000;0.8930;2.1239;
198.3000;0.8913;2.1309;
198.6000;0.8921;2.1262;
198.9000;0.8921;2.1309;
199.2000;0.9035;2.1656;
199.5000;0.8848;2.1193;
199.8000;0.8921;2.1355;
200.1000;0.8913;2.1309;
200.4000;0.8946;2.1424;
200.7000;0.8930;2.1471;
201.0000;0.8897;2.1401;
201.3000;0.8905;2.1447;
201.6000;0.8913;2.1401;
201.9000;0.8848;2.1216;
202.2000;0.8897;2.1309;
202.5000;0.8930;2.1332;
202.8000;0.8897;2.1355;
203.1000;0.8921;2.1494;
203.4000;0.8921;2.1355;
203.7000;0.8905;2.1355;
204.0000;0.8856;2.1355;
204.3000;0.8921;2.1586;
204.6000;0.8897;2.1540;
204.9000;0.8921;2.1586;
205.2000;0.8913;2.1517;
205.5000;0.8921;2.1424;
205.8000;0.8905;2.1401;
206.1000;0.8905;2.1355;
206.4000;0.8905;2.1309;
206.7000;0.8913;2.1309;
207.0000;0.8921;2.1332;
207.3000;0.8913;2.1239;
207.6000;0.8905;2.1147;
207.9000;0.8889;2.1147;
208.2000;0.8913;2.1193;
208.5000;0.8930;2.1285;
208.8000;0.8930;2.1285;
209.1000;0.8930;2.1378;
209.4000;0.8921;2.1378;
209.7000;0.8930;2.1309;
210.0000;0.8913;2.1262;
210.3000;0.8905;2.1355;
210.6000;0.8897;2.1378;
210.9000;0.8921;2.1355;
211.2000;0.8921;2.1424;
211.5000;0.8913;2.1447;
211.8000;0.8921;2.1424;
212.1000;0.8897;2.1401;
212.4000;0.8905;2.1332;
212.7000;0.8889;2.1332;
213.0000;0.8905;2.1309;
213.3000;0.8905;2.1216;
213.6000;0.8905;2.1309;
213.9000;0.8897;2.1447;
214.2000;0.8913;2.1471;
214.5000;0.8905;2.1471;
214.8000;0.8905;2.1517;
215.1000;0.8913;2.1563;
215.4000;0.8905;2.1517;
215.7000;0.8913;2.1517;
216.0000;0.8938;2.1586;
216.3000;0.8897;2.1447;
216.6000;0.8897;2.1424;
216.9000;0.8905;2.1401;
217.2000;0.8897;2.1355;
217.5000;0.8897;2.1355;
217.8000;0.8873;2.1309;
218.1000;0.8881;2.1355;
218.4000;0.8913;2.1471;
218.7000;0.8913;2.1471;
219.0000;0.8889;2.1401;
219.3000;0.8930;2.1471;
219.6000;0.8921;2.1471;
219.9000;0.8921;2.1401;
220.2000;0.8978;2.1401;
220.5000;0.8905;2.1239;
220.8000;0.8921;2.1239;
221.1000;0.8897;2.1100;
221.4000;0.8897;2.1100;
221.7000;0.8897;2.1216;
222.0000;0.8978;2.1447;
222.3000;0.8905;2.1285;
222.6000;0.8946;2.1471;
222.9000;0.8921;2.1401;
223.2000;0.8913;2.1332;
223.5000;0.8897;2.1309;
223.8000;0.8905;2.1239;
224.1000;0.8897;2.1193;
224.4000;0.9011;2.1471;
224.7000;0.8921;2.1355;
225.0000;0.8913;2.1378;
225.3000;0.8938;2.1378;
225.6000;0.8905;2.1285;
225.9000;0.8905;2.1332;
226.2000;0.8913;2.1309;
226.5000;0.8905;2.1309;
226.8000;0.8913;2.1378;
227.1000;0.8946;2.1401;
227.4000;0.8913;2.1239;
227.7000;0.8913;2.1355;
228.0000;0.8897;2.1378;
228.3000;0.8905;2.1378;
228.6000;0.8913;2.1424;
228.9000;0.8881;2.1332;
229.2000;0.8913;2.1332;
229.5000;0.8905;2.1355;
229.8000;0.8930;2.1378;
230.1000;0.8930;2.1401;
230.4000;0.8921;2.1401;
230.7000;0.8913;2.1332;
231.0000;0.8889;2.1332;
231.3000;0.8921;2.1447;
231.6000;0.8897;2.1378;
231.9000;0.8889;2.1401;
232.2000;0.8897;2.1447;
232.5000;0.8905;2.1424;
232.8000;0.8905;2.1424;
233.1000;0.8930;2.1424;
233.4000;0.8897;2.1239;
233.7000;0.8930;2.1239;
234.0000;0.8913;2.1262;
234.3000;0.8946;2.1424;
234.6000;0.8905;2.1285;
234.9000;0.8897;2.1239;
235.2000;0.8921;2.1216;
235.5000;0.8913;2.1124;
235.8000;0.8889;2.1054;
236.1000;0.8913;2.1193;
236.4000;0.8897;2.1100;
236.7000;0.8897;2.1124;
237.0000;0.8897;2.1031;
237.3000;0.8905;2.1031;
237.6000;0.8905;2.1077;
237.9000;0.8889;2.1077;
238.2000;0.8962;2.1309;
238.5000;0.8889;2.1193;
238.8000;0.8881;2.1193;
239.1000;0.8897;2.1239;
239.4000;0.8913;2.1285;
239.7000;0.8897;2.1285;
240.0000;0.8905;2.1401;
240.3000;0.8905;2.1355;
240.6000;0.8889;2.1262;
240.9000;0.8864;2.1216;
241.2000;0.8873;2.1216;
241.5000;0.8913;2.1285;
241.8000;0.8913;2.1332;
242.1000;0.8897;2.1309;
242.4000;0.8897;2.1332;
242.7000;0.8946;2.1332;
243.0000;0.8954;2.1355;
243.3000;0.8905;2.1170;
243.6000;0.8921;2.1216;
243.9000;0.8930;2.1285;
244.2000;0.8856;2.1147;
244.5000;0.8897;2.1332;
244.8000;0.8913;2.1309;
245.1000;0.8824;2.1147;
245.4000;0.8864;2.1170;
245.7000;0.8905;2.1332;
246.0000;0.8881;2.1309;
246.3000;0.8913;2.1471;
246.6000;0.8897;2.1401;
246.9000;0.8905;2.1401;
247.2000;0.8897;2.1401;
247.5000;0.8913;2.1447;
247.8000;0.8987;2.1656;
248.1000;0.8913;2.1517;
248.4000;0.8889;2.1401;
248.7000;0.8832;2.1147;
249.0000;0.8881;2.1239;
249.3000;0.8921;2.1239;
249.6000;0.8954;2.1355;
249.9000;0.8864;2.1124;
250.2000;0.8905;2.1216;
250.5000;0.8913;2.1077;
250.8000;0.8905;2.1147;
251.1000;0.8913;2.1147;
251.4000;0.8913;2.1216;
251.7000;0.8913;2.1332;
252.0000;0.8897;2.1355;
252.3000;0.8921;2.1355;
252.6000;0.8889;2.1262;
252.9000;0.8897;2.1332;
253.2000;0.8889;2.1332;
253.5000;0.8897;2.1447;
253.8000;0.8881;2.1471;
254.1000;0.8970;2.1633;
254.4000;0.8889;2.1401;
254.7000;0.8881;2.1309;
255.0000;0.8889;2.1239;
255.3000;0.8921;2.1309;
255.6000;0.8921;2.1355;
255.9000;0.8946;2.1517;
256.2000;0.8921;2.1563;
256.5000;0.8905;2.1517;
256.8000;0.8913;2.1563;
257.1000;0.8905;2.1563;
257.4000;0.8897;2.1517;
257.7000;0.8873;2.1494;
258.0000;0.8905;2.1563;
258.3000;0.8873;2.1494;
258.6000;0.8930;2.1586;
258.9000;0.8913;2.1540;
259.2000;0.8913;2.1540;
259.5000;0.8913;2.1609;
259.8000;0.8921;2.1586;
260.1000;0.8889;2.1563;
260.4000;0.8930;2.1540;
260.7000;0.8913;2.1447;
261.0000;0.8938;2.1494;
261.3000;0.8913;2.1332;
261.6000;0.8905;2.1332;
261.9000;0.8921;2.1447;
262.2000;0.8921;2.1447;
262.5000;0.8889;2.1309;
262.8000;0.8930;2.1355;
263.1000;0.8897;2.1401;
263.4000;0.8913;2.1494;
263.7000;0.8897;2.1494;
264.0000;0.8889;2.1494;
264.3000;0.8913;2.1517;
264.6000;0.8913;2.1586;
264.9000;0.8962;2.1702;
265.2000;0.8905;2.1494;
265.5000;0.8930;2.1633;
265.8000;0.8897;2.1517;
266.1000;0.8921;2.1540;
266.4000;0.8913;2.1471;
266.7000;0.8889;2.1355;
267.0000;0.8921;2.1471;
267.3000;0.8946;2.1609;
267.6000;0.8881;2.1586;
267.9000;0.8881;2.1656;
268.2000;0.8913;2.1725;
268.5000;0.8930;2.1771;
268.8000;0.8913;2.1725;
269.1000;0.8905;2.1702;
269.4000;0.8824;2.1471;
269.7000;0.8921;2.1609;
270.0000;0.8856;2.1540;
270.3000;0.8897;2.1563;
270.6000;0.8881;2.1494;
270.9000;0.8832;2.1309;
271.2000;0.8897;2.1447;
271.5000;0.8930;2.1494;
271.8000;0.8905;2.1494;
272.1000;0.8905;2.1563;
272.4000;0.8962;2.1725;
272.7000;0.8889;2.1609;
273.0000;0.8889;2.1702;
273.3000;0.8905;2.1702;
273.6000;0.8873;2.1656;
273.9000;0.8987;2.1933;
274.2000;0.8873;2.1748;
274.5000;0.8897;2.1794;
274.8000;0.8913;2.1771;
275.1000;0.8873;2.1771;
275.4000;0.8848;2.1702;
275.7000;0.8897;2.1748;
276.0000;0.8897;2.1771;
276.3000;0.8905;2.1818;
276.6000;0.8913;2.1887;
276.9000;0.8873;2.1841;
277.2000;0.8913;2.1887;
277.5000;0.8905;2.1818;
277.8000;0.8799;2.1517;
278.1000;0.8889;2.1679;
278.4000;0.8864;2.1633;
278.7000;0.8913;2.1794;
279.0000;0.8897;2.1771;
279.3000;0.8905;2.1656;
279.6000;0.8889;2.1563;
279.9000;0.8921;2.1656;
280.2000;0.8962;2.1794;
280.5000;0.8905;2.1771;
280.8000;0.8913;2.1794;
281.1000;0.8921;2.1864;
281.4000;0.8930;2.1864;
281.7000;0.8913;2.1748;
282.0000;0.8921;2.1725;
282.3000;0.8921;2.1702;
282.6000;0.8978;2.1887;
282.9000;0.8897;2.1794;
283.2000;0.8889;2.1771;
283.5000;0.8889;2.1771;
283.8000;0.8848;2.1702;
284.1000;0.8905;2.1841;
284.4000;0.8873;2.1841;
284.7000;0.8889;2.1887;
285.0000;0.8930;2.1841;
285.3000;0.8889;2.1794;
285.6000;0.8881;2.1864;
285.9000;0.8905;2.1933;
286.2000;0.8946;2.2049;
286.5000;0.8873;2.1841;
286.8000;0.8889;2.1887;
287.1000;0.8905;2.1910;
287.4000;0.8889;2.1887;
287.7000;0.8905;2.1933;
288.0000;0.8897;2.1956;
288.3000;0.8905;2.2003;
288.6000;0.8930;2.2142;
288.9000;0.8905;2.2118;
289.2000;0.8905;2.2072;
289.5000;0.8913;2.2026;
289.8000;0.8946;2.1980;
290.1000;0.8881;2.1725;
290.4000;0.8881;2.1633;
290.7000;0.8897;2.1679;
291.0000;0.8881;2.1656;
291.3000;0.8897;2.1633;
291.6000;0.8897;2.1771;
291.9000;0.8946;2.1794;
292.2000;0.8905;2.1679;
292.5000;0.8938;2.1771;
292.8000;0.8864;2.1586;
293.1000;0.8897;2.1563;
293.4000;0.8930;2.1794;
293.7000;0.8881;2.1702;
294.0000;0.8905;2.1841;
294.3000;0.8889;2.1933;
294.6000;0.8897;2.1980;
294.9000;0.8897;2.1956;
295.2000;0.8897;2.2003;
295.5000;0.8930;2.2118;
295.8000;0.9052;2.2327;
296.1000;0.8897;2.1956;
296.4000;0.8742;2.1540;
296.7000;0.8864;2.1864;
297.0000;0.8873;2.1818;
297.3000;0.8889;2.1748;
297.6000;0.8889;2.1679;
297.9000;0.8921;2.1841;
298.2000;0.8905;2.1864;
298.5000;0.8905;2.1864;
298.8000;0.8897;2.1771;
299.1000;0.8905;2.1818;
299.4000;0.8897;2.1864;
299.7000;0.8897;2.1933;
300.0000;0.8905;2.1887;
300.3000;0.8913;2.1887;
300.6000;0.8905;2.1841;
300.9000;0.8881;2.1771;
301.2000;0.8889;2.1818;
301.5000;0.8889;2.1933;
301.8000;0.8905;2.1910;
302.1000;0.8913;2.1910;
302.4000;0.8897;2.1933;
302.7000;0.8897;2.1933;
303.0000;0.8897;2.1887;
303.3000;0.8962;2.1910;
303.6000;0.8905;2.1771;
303.9000;0.8881;2.1725;
304.2000;0.9003;2.2003;
304.5000;0.8897;2.1725;
304.8000;0.8905;2.1725;
305.1000;0.8905;2.1748;
305.4000;0.8905;2.1702;
305.7000;0.8848;2.1540;
306.0000;0.8897;2.1725;
306.3000;0.8889;2.1725;
306.6000;0.8905;2.1794;
306.9000;0.8889;2.1748;
307.2000;0.8840;2.1609;
307.5000;0.8832;2.1586;
307.8000;0.8889;2.1633;
308.1000;0.8913;2.1702;
308.4000;0.8921;2.1794;
308.7000;0.8954;2.1771;
309.0000;0.8848;2.1401;
309.3000;0.8881;2.1563;
309.6000;0.8905;2.1563;
309.9000;0.8905;2.1586;
310.2000;0.8897;2.1471;
310.5000;0.8905;2.1563;
310.8000;0.8970;2.1748;
311.1000;0.8897;2.1586;
311.4000;0.8913;2.1656;
311.7000;0.8881;2.1656;
312.0000;0.8889;2.1656;
312.3000;0.8873;2.1679;
312.6000;0.8897;2.1725;
312.9000;0.8848;2.1633;
313.2000;0.8848;2.1656;
313.5000;0.8921;2.1794;
313.8000;0.8913;2.1748;
314.1000;0.8897;2.1725;
314.4000;0.8930;2.1771;
314.7000;0.8905;2.1748;
315.0000;0.8881;2.1794;
315.3000;0.8921;2.1887;
315.6000;0.8905;2.1794;
315.9000;0.8905;2.1864;
316.2000;0.8970;2.1933;
316.5000;0.8889;2.1748;
316.8000;0.8791;2.1586;
317.1000;0.8905;2.1794;
317.4000;0.8897;2.1748;
317.7000;0.8881;2.1633;
318.0000;0.8897;2.1725;
318.3000;0.8905;2.1609;
318.6000;0.8913;2.1702;
318.9000;0.8881;2.1679;
319.2000;0.8881;2.1679;
319.5000;0.8913;2.1864;
319.8000;0.8881;2.1725;
320.1000;0.8913;2.1771;
320.4000;0.8913;2.1725;
320.7000;0.8897;2.1679;
321.0000;0.8905;2.1679;
321.3000;0.8905;2.1656;
321.6000;0.8889;2.1633;
321.9000;0.8897;2.1633;
322.2000;0.8930;2.1771;
322.5000;0.8954;2.1771;
322.8000;0.8897;2.1633;
323.1000;0.8889;2.1702;
323.4000;0.8905;2.1725;
323.7000;0.8913;2.1679;
324.0000;0.8905;2.1656;
324.3000;0.8889;2.1702;
324.6000;0.8889;2.1771;
324.9000;0.8889;2.1702;
325.2000;0.8864;2.1633;
325.5000;0.8905;2.1748;
325.8000;0.8905;2.1794;
326.1000;0.8905;2.1864;
326.4000;0.8913;2.1887;
326.7000;0.8881;2.1771;
327.0000;0.8889;2.1818;
327.3000;0.8889;2.1841;
327.6000;0.8889;2.1933;
327.9000;0.8889;2.1956;
328.2000;0.8881;2.1910;
328.5000;0.8889;2.1794;
328.8000;0.8889;2.1794;
329.1000;0.8897;2.1818;
329.4000;0.8873;2.1656;
329.7000;0.8962;2.1748;
330.0000;0.8913;2.1586;
330.3000;0.8881;2.1563;
330.6000;0.8897;2.1586;
330.9000;0.8946;2.1656;
331.2000;0.8897;2.1586;
331.5000;0.8905;2.1586;
331.8000;0.8913;2.1633;
332.1000;0.8905;2.1679;
332.4000;0.8897;2.1586;
332.7000;0.8913;2.1633;
333.0000;0.8864;2.1563;
333.3000;0.8889;2.1725;
333.6000;0.8889;2.1771;
333.9000;0.8889;2.1702;
334.2000;0.8873;2.1702;
334.5000;0.8889;2.1748;
334.8000;0.8873;2.1702;
335.1000;0.8905;2.1725;
335.4000;0.8889;2.1771;
335.7000;0.8889;2.1794;
336.0000;0.8856;2.1794;
336.3000;0.8897;2.1956;
336.6000;0.8864;2.1933;
336.9000;0.8873;2.1864;
337.2000;0.8954;2.2049;
337.5000;0.8962;2.2049;
337.8000;0.8864;2.1887;
338.1000;0.8913;2.2003;
338.4000;0.8897;2.1980;
338.7000;0.8954;2.2049;
339.0000;0.8856;2.1725;
339.3000;0.8889;2.1818;
339.6000;0.8905;2.1794;
339.9000;0.8897;2.1864;
340.2000;0.8930;2.1910;
340.5000;0.8856;2.1679;
340.8000;0.8889;2.1771;
341.1000;0.8913;2.1794;
341.4000;0.8897;2.1794;
341.7000;0.8873;2.1771;
342.0000;0.8995;2.2026;
342.3000;0.8881;2.1748;
342.6000;0.8832;2.1633;
342.9000;0.8848;2.1656;
343.2000;0.8897;2.1702;
343.5000;0.8905;2.1771;
343.8000;0.8881;2.1656;
344.1000;0.8897;2.1702;
344.4000;0.8881;2.1679;
344.7000;0.8881;2.1633;
345.0000;0.8889;2.1656;
345.3000;0.8897;2.1656;
345.6000;0.8905;2.1633;
345.9000;0.8938;2.1702;
346.2000;0.8897;2.1656;
346.5000;0.8889;2.1656;
346.8000;0.8905;2.1633;
347.1000;0.8864;2.1586;
347.4000;0.8897;2.1679;
347.7000;0.8897;2.1818;
348.0000;0.8897;2.1864;
348.3000;0.8881;2.1841;
348.6000;0.8897;2.1841;
348.9000;0.8897;2.1771;
349.2000;0.8848;2.1725;
349.5000;0.8905;2.1748;
349.8000;0.8905;2.1864;
350.1000;0.8897;2.1794;
350.4000;0.8913;2.1794;
350.7000;0.8840;2.1633;
351.0000;0.8897;2.1794;
351.3000;0.8864;2.1748;
351.6000;0.8897;2.1771;
351.9000;0.8881;2.1702;
352.2000;0.8864;2.1679;
352.5000;0.8897;2.1702;
352.8000;0.8881;2.1633;
353.1000;0.8913;2.1748;
353.4000;0.8889;2.1748;
353.7000;0.8913;2.1771;
354.0000;0.8913;2.1748;
354.3000;0.8897;2.1725;
354.6000;0.8873;2.1679;
354.9000;0.8897;2.1679;
355.2000;0.8897;2.1609;
355.5000;0.8897;2.1563;
355.8000;0.8905;2.1563;
356.1000;0.8897;2.1517;
356.4000;0.8864;2.1424;
356.7000;0.8897;2.1494;
357.0000;0.8881;2.1471;
357.3000;0.8864;2.1424;
357.6000;0.8889;2.1471;
357.9000;0.8889;2.1563;
358.2000;0.8889;2.1540;
358.5000;0.8881;2.1563;
358.8000;0.8897;2.1609;
359.1000;0.8856;2.1540;
359.4000;0.8897;2.1609;
359.7000;0.8881;2.1471;
360.0000;0.8897;2.1447;
360.3000;0.8864;2.1378;
360.6000;0.8913;2.1471;
360.9000;0.8946;2.1563;
361.2000;0.8905;2.1494;
361.5000;0.8864;2.1401;
361.8000;0.8905;2.1563;
362.1000;0.8913;2.1633;
362.4000;0.8897;2.1517;
362.7000;0.8889;2.1540;
363.0000;0.8881;2.1471;
363.3000;0.8913;2.1471;
363.6000;0.8889;2.1447;
363.9000;0.8913;2.1494;
364.2000;0.8889;2.1424;
364.5000;0.8913;2.1471;
364.8000;0.8913;2.1540;
365.1000;0.9003;2.1771;
365.4000;0.9011;2.1725;
365.7000;0.8913;2.1471;
366.0000;0.8913;2.1540;
366.3000;0.8897;2.1563;
366.6000;0.8905;2.1540;
366.9000;0.8962;2.1725;
367.2000;0.8905;2.1633;
367.5000;0.8938;2.1748;
367.8000;0.8864;2.1656;
368.1000;0.8889;2.1609;
368.4000;0.8873;2.1517;
368.7000;0.8897;2.1563;
369.0000;0.8889;2.1563;
369.3000;0.8881;2.1563;
369.6000;0.8897;2.1633;
369.9000;0.8905;2.1702;
370.2000;0.8881;2.1771;
370.5000;0.8921;2.1887;
370.8000;0.8897;2.1864;
371.1000;0.8921;2.1748;
371.4000;0.8864;2.1609;
371.7000;0.8897;2.1609;
372.0000;0.8897;2.1609;
372.3000;0.8897;2.1609;
372.6000;0.8889;2.1633;
372.9000;0.8881;2.1586;
373.2000;0.8889;2.1494;
373.5000;0.8881;2.1447;
373.8000;0.8889;2.1494;
374.1000;0.8881;2.1471;
374.4000;0.8897;2.1517;
374.7000;0.8897;2.1517;
375.0000;0.8897;2.1540;
375.3000;0.8897;2.1563;
375.6000;0.8889;2.1517;
375.9000;0.8889;2.1563;
376.2000;0.8913;2.1540;
376.5000;0.8921;2.1540;
376.8000;0.8897;2.1540;
377.1000;0.8889;2.1540;
377.4000;0.8913;2.1609;
377.7000;0.8905;2.1540;
378.0000;0.8881;2.1424;
378.3000;0.8897;2.1517;
378.6000;0.8889;2.1540;
378.9000;0.8905;2.1540;
379.2000;0.8897;2.1517;
379.5000;0.8881;2.1609;
379.8000;0.8848;2.1494;
380.1000;0.8905;2.1609;
380.4000;0.8889;2.1609;
380.7000;0.8881;2.1540;
381.0000;0.8962;2.1771;
381.3000;0.8873;2.1586;
381.6000;0.8905;2.1702;
381.9000;0.8881;2.1771;
382.2000;0.8881;2.1702;
382.5000;0.8897;2.1702;
382.8000;0.8881;2.1771;
383.1000;0.8856;2.1748;
383.4000;0.8881;2.1771;
383.7000;0.8873;2.1771;
384.0000;0.9003;2.2003;
384.3000;0.8897;2.1702;
384.6000;0.8905;2.1748;
384.9000;0.8889;2.1748;
385.2000;0.8881;2.1794;
385.5000;0.8881;2.1864;
385.8000;0.8913;2.1818;
386.1000;0.8897;2.1818;
386.4000;0.8889;2.1771;
386.7000;0.8889;2.1748;
387.0000;0.8881;2.1702;
387.3000;0.8930;2.1818;
387.6000;0.8905;2.1818;
387.9000;0.8832;2.1540;
388.2000;0.8889;2.1633;
388.5000;0.8978;2.1841;
388.8000;0.8897;2.1586;
389.1000;0.8921;2.1702;
389.4000;0.8889;2.1563;
389.7000;0.8905;2.1633;
390.0000;0.8897;2.1633;
390.3000;0.8897;2.1679;
390.6000;0.8881;2.1702;
390.9000;0.8856;2.1702;
391.2000;0.8889;2.1794;
391.5000;0.9003;2.1933;
391.8000;0.8897;2.1633;
392.1000;0.8905;2.1633;
392.4000;0.8905;2.1656;
392.7000;0.8913;2.1656;
393.0000;0.8881;2.1563;
393.3000;0.8889;2.1586;
393.6000;0.8905;2.1517;
393.9000;0.8889;2.1471;
394.2000;0.8889;2.1447;
394.5000;0.8897;2.1447;
394.8000;0.8889;2.1401;
395.1000;0.8889;2.1355;
395.4000;0.8889;2.1355;
395.7000;0.8962;2.1540;
396.0000;0.8889;2.1401;
396.3000;0.8897;2.1494;
396.6000;0.8889;2.1517;
396.9000;0.8873;2.1586;
397.2000;0.8889;2.1656;
397.5000;0.8889;2.1679;
397.8000;0.8881;2.1656;
398.1000;0.8897;2.1633;
398.4000;0.8864;2.1609;
398.7000;0.8897;2.1679;
399.0000;0.8889;2.1702;
399.3000;0.9011;2.1910;
399.6000;0.8873;2.1633;
399.9000;0.8905;2.1725;
400.2000;0.8913;2.1679;
400.5000;0.8889;2.1702;
400.8000;0.8873;2.1725;
401.1000;0.8881;2.1910;
401.4000;0.8881;2.2003;
401.7000;0.8856;2.1887;
402.0000;0.8897;2.1933;
402.3000;0.8921;2.1933;
402.6000;0.8897;2.1864;
402.9000;0.8889;2.1818;
403.2000;0.8881;2.1841;
403.5000;0.8905;2.1933;
403.8000;0.8881;2.1910;
404.1000;0.8864;2.1841;
404.4000;0.8889;2.1818;
404.7000;0.8881;2.1771;
405.0000;0.8881;2.1841;
405.3000;0.8897;2.1933;
405.6000;0.8905;2.1887;
405.9000;0.8856;2.1841;
406.2000;0.8881;2.1841;
406.5000;0.8873;2.1818;
406.8000;0.8856;2.1656;
407.1000;0.8889;2.1656;
407.4000;0.8905;2.1725;
407.7000;0.8913;2.1702;
408.0000;0.8897;2.1748;
408.3000;0.8897;2.1679;
408.6000;0.8897;2.1609;
408.9000;0.8905;2.1517;
409.2000;0.8897;2.1447;
409.5000;0.8889;2.1494;
409.8000;0.8889;2.1609;
410.1000;0.8881;2.1656;
410.4000;0.8889;2.1702;
410.7000;0.8905;2.1725;
411.0000;0.8889;2.1656;
411.3000;0.8881;2.1633;
411.6000;0.8873;2.1609;
411.9000;0.8897;2.1725;
412.2000;0.8897;2.1702;
412.5000;0.8897;2.1771;
412.8000;0.8889;2.1794;
413.1000;0.8881;2.1748;
413.4000;0.8897;2.1794;
413.7000;0.8962;2.1980;
414.0000;0.8889;2.1679;
414.3000;0.8897;2.1609;
414.6000;0.8889;2.1540;
414.9000;0.8897;2.1609;
415.2000;0.8889;2.1656;
415.5000;0.8897;2.1656;
415.8000;0.8913;2.1748;
416.1000;0.8897;2.1794;
416.4000;0.8921;2.1841;
416.7000;0.8921;2.1864;
417.0000;0.8897;2.1748;
417.3000;0.8897;2.1748;
417.6000;0.8905;2.1864;
417.9000;0.8897;2.1864;
418.2000;0.8913;2.1818;
418.5000;0.8897;2.1771;
418.8000;0.8881;2.1748;
419.1000;0.8889;2.1771;
419.4000;0.8889;2.1748;
419.7000;0.8832;2.1563;
420.0000;0.8889;2.1633;
420.3000;0.8864;2.1563;
420.6000;0.8864;2.1633;
420.9000;0.8881;2.1771;
421.2000;0.8881;2.1748;
421.5000;0.8873;2.1702;
421.8000;0.8881;2.1748;
422.1000;0.8864;2.1725;
422.4000;0.8921;2.1794;
422.7000;0.8889;2.1794;
423.0000;0.8889;2.1841;
423.3000;0.8775;2.1586;
423.6000;0.8897;2.1864;
423.9000;0.8881;2.1702;
424.2000;0.8913;2.1702;
424.5000;0.8921;2.1748;
424.8000;0.8938;2.1818;
425.1000;0.8905;2.1725;
425.4000;0.8889;2.1656;
425.7000;0.8897;2.1586;
426.0000;0.8881;2.1540;
426.3000;0.8897;2.1702;
426.6000;0.8881;2.1748;
426.9000;0.8897;2.1702;
427.2000;0.8921;2.1818;
427.5000;0.8889;2.1794;
427.8000;0.8881;2.1771;
428.1000;0.8889;2.1818;
428.4000;0.8897;2.1864;
428.7000;0.8905;2.1818;
429.0000;0.8897;2.1794;
429.3000;0.8889;2.1794;
429.6000;0.8807;2.1656;
429.9000;0.8897;2.1794;
430.2000;0.8881;2.1864;
430.5000;0.8873;2.1748;
430.8000;0.8905;2.1702;
431.1000;0.8954;2.1818;
431.4000;0.8881;2.1586;
431.7000;0.8889;2.1563;
432.0000;0.8897;2.1609;
432.3000;0.8921;2.1771;
432.6000;0.8905;2.1771;
432.9000;0.8816;2.1656;
433.2000;0.8905;2.1864;
433.5000;0.8905;2.1841;
433.8000;0.8897;2.1818;
434.1000;0.8864;2.1818;
434.4000;0.8889;2.1910;
434.7000;0.8856;2.1794;
435.0000;0.8848;2.1841;
435.3000;0.8881;2.1933;
435.6000;0.8889;2.1910;
435.9000;0.8913;2.1980;
436.2000;0.8905;2.2003;
436.5000;0.8889;2.1864;
436.8000;0.8873;2.1818;
437.1000;0.8824;2.1702;
437.4000;0.8881;2.1864;
437.7000;0.8930;2.1887;
438.0000;0.8881;2.1748;
438.3000;0.8881;2.1609;
438.6000;0.8897;2.1748;
438.9000;0.8897;2.1910;
439.2000;0.8889;2.1956;
439.5000;0.8881;2.1910;
439.8000;0.8864;2.1887;
440.1000;0.8897;2.1841;
440.4000;0.8873;2.1794;
440.7000;0.8889;2.1771;
441.0000;0.8881;2.1748;
441.3000;0.8881;2.1794;
441.6000;0.8897;2.1818;
441.9000;0.8864;2.1771;
442.2000;0.8873;2.1771;
442.5000;0.8881;2.1794;
442.8000;0.8848;2.1725;
443.1000;0.8881;2.1841;
443.4000;0.8824;2.1679;
443.7000;0.8864;2.1702;
444.0000;0.8905;2.1818;
444.3000;0.8881;2.1794;
444.6000;0.8897;2.1794;
444.9000;0.8889;2.1818;
445.2000;0.8930;2.1980;
445.5000;0.8889;2.1864;
445.8000;0.8889;2.1910;
446.1000;0.8905;2.1887;
446.4000;0.8913;2.1818;
446.7000;0.8897;2.1771;
447.0000;0.8889;2.1725;
447.3000;0.8897;2.1818;
447.6000;0.8881;2.1864;
447.9000;0.8873;2.1794;
448.2000;0.8873;2.1818;
448.5000;0.8889;2.1818;
448.8000;0.8889;2.1818;
449.1000;0.8946;2.2026;
449.4000;0.8881;2.1956;
449.7000;0.8873;2.1841;
450.0000;0.8913;2.1910;
450.3000;0.8905;2.1748;
450.6000;0.8921;2.1679;
450.9000;0.8881;2.1609;
451.2000;0.8897;2.1702;
451.5000;0.8889;2.1725;
451.8000;0.8832;2.1679;
452.1000;0.8864;2.1794;
452.4000;0.8881;2.1771;
452.7000;0.8905;2.1725;
453.0000;0.8889;2.1656;
453.3000;0.8881;2.1609;
453.6000;0.8881;2.1656;
453.9000;0.8889;2.1771;
454.2000;0.8897;2.1794;
454.5000;0.8881;2.1702;
454.8000;0.8938;2.1771;
455.1000;0.8889;2.1609;
455.4000;0.8921;2.1609;
455.7000;0.8897;2.1609;
456.0000;0.8889;2.1586;
456.3000;0.8889;2.1633;
456.6000;0.8905;2.1563;
456.9000;0.8881;2.1609;
457.2000;0.8873;2.1586;
457.5000;0.8881;2.1656;
457.8000;0.8889;2.1656;
458.1000;0.8921;2.1771;
458.4000;0.8897;2.1725;
458.7000;0.8913;2.1725;
459.0000;0.8856;2.1633;
459.3000;0.8889;2.1633;
459.6000;0.8889;2.1633;
459.9000;0.8938;2.1656;
460.2000;0.8897;2.1563;
460.5000;0.8889;2.1586;
460.8000;0.8905;2.1586;
461.1000;0.8816;2.1471;
461.4000;0.8873;2.1633;
461.7000;0.8897;2.1656;
462.0000;0.8873;2.1656;
462.3000;0.8881;2.1748;
462.6000;0.8889;2.1748;
462.9000;0.8873;2.1748;
463.2000;0.8889;2.1794;
463.5000;0.8873;2.1794;
463.8000;0.8881;2.1771;
464.1000;0.8897;2.1794;
464.4000;0.8905;2.1771;
464.7000;0.8864;2.1633;
465.0000;0.8889;2.1563;
465.3000;0.8864;2.1609;
465.6000;0.8897;2.1633;
465.9000;0.8897;2.1656;
466.2000;0.8889;2.1633;
466.5000;0.8873;2.1609;
466.8000;0.8881;2.1679;
467.1000;0.8873;2.1633;
467.4000;0.8905;2.1633;
467.7000;0.8881;2.1540;
468.0000;0.8889;2.1679;
468.3000;0.8905;2.1679;
468.6000;0.8897;2.1725;
468.9000;0.8897;2.1679;
469.2000;0.8905;2.1702;
469.5000;0.8905;2.1702;
469.8000;0.8897;2.1679;
470.1000;0.8897;2.1679;
470.4000;0.8897;2.1679;
470.7000;0.8889;2.1748;
471.0000;0.8897;2.1771;
471.3000;0.8905;2.1841;
471.6000;0.8897;2.1841;
471.9000;0.8889;2.1841;
472.2000;0.8905;2.2026;
472.5000;0.8889;2.1980;
472.8000;0.8873;2.1910;
473.1000;0.8889;2.1910;
473.4000;0.8889;2.1910;
473.7000;0.8881;2.1956;
474.0000;0.8913;2.1980;
474.3000;0.8881;2.1887;
474.6000;0.8913;2.1910;
474.9000;0.8905;2.1818;
475.2000;0.8832;2.1656;
475.5000;0.8913;2.1864;
475.8000;0.8873;2.1771;
476.1000;0.8873;2.1748;
476.4000;0.8881;2.1748;
476.7000;0.8889;2.1771;
477.0000;0.8897;2.1818;
477.3000;0.8897;2.1864;
477.6000;0.8881;2.1841;
477.9000;0.8881;2.1956;
478.2000;0.8905;2.2095;
478.5000;0.8897;2.2072;
478.8000;0.8938;2.2165;
479.1000;0.8881;2.2003;
479.4000;0.8881;2.1980;
479.7000;0.8913;2.1980;
480.0000;0.8913;2.1887;
480.3000;0.8962;2.2026;
480.6000;0.8897;2.1910;
480.9000;0.8807;2.1702;
481.2000;0.8897;2.1818;
481.5000;0.8840;2.1748;
481.8000;0.8946;2.2049;
482.1000;0.8897;2.1864;
482.4000;0.8897;2.1980;
482.7000;0.8889;2.1980;
483.0000;0.8881;2.1910;
483.3000;0.8913;2.1910;
483.6000;0.8856;2.1794;
483.9000;0.8905;2.1887;
484.2000;0.8881;2.1887;
484.5000;0.8848;2.1910;
484.8000;0.8873;2.2003;
485.1000;0.8864;2.1956;
485.4000;0.8873;2.2003;
485.7000;0.8881;2.2026;
486.0000;0.8905;2.2118;
486.3000;0.8889;2.2142;
486.6000;0.8873;2.2049;
486.9000;0.8881;2.2026;
487.2000;0.8905;2.2026;
487.5000;0.8946;2.2072;
487.8000;0.8889;2.2003;
488.1000;0.8889;2.2026;
488.4000;0.8889;2.2003;
488.7000;0.8913;2.2049;
489.0000;0.8897;2.2095;
489.3000;0.8873;2.2003;
489.6000;0.8897;2.2049;
489.9000;0.8905;2.2095;
490.2000;0.8905;2.2049;
490.5000;0.8881;2.1956;
490.8000;0.8889;2.1887;
491.1000;0.8897;2.1887;
491.4000;0.8954;2.2095;
491.7000;0.8889;2.1933;
492.0000;0.8856;2.1887;
492.3000;0.8881;2.2049;
492.6000;0.8881;2.2003;
492.9000;0.8873;2.2049;
493.2000;0.8864;2.2049;
493.5000;0.8897;2.2026;
493.8000;0.8767;2.1702;
494.1000;0.8905;2.2049;
494.4000;0.8978;2.2095;
494.7000;0.8889;2.1956;
495.0000;0.8881;2.1980;
495.3000;0.8873;2.1980;
495.6000;0.8889;2.1980;
495.9000;0.8881;2.1933;
496.2000;0.8897;2.1956;
496.5000;0.8897;2.1933;
496.8000;0.8881;2.1910;
497.1000;0.8856;2.1864;
497.4000;0.8873;2.1956;
497.7000;0.8889;2.1980;
498.0000;0.8921;2.2072;
498.3000;0.8864;2.2049;
498.6000;0.8840;2.1910;
498.9000;0.8889;2.1956;
499.2000;0.8889;2.2049;
499.5000;0.8881;2.2026;
499.8000;0.8889;2.2026;
500.1000;0.8881;2.2049;
500.4000;0.8897;2.1980;
500.7000;0.8889;2.1887;
501.0000;0.8954;2.2049;
501.3000;0.8881;2.1864;
501.6000;0.8897;2.1956;
501.9000;0.8921;2.2003;
502.2000;0.8889;2.1933;
502.5000;0.8881;2.1956;
502.8000;0.8881;2.2026;
503.1000;0.8873;2.1956;
503.4000;0.8913;2.1887;
503.7000;0.8905;2.1910;
504.0000;0.8897;2.1956;
504.3000;0.8881;2.1818;
504.6000;0.8881;2.1794;
504.9000;0.8832;2.1679;
505.2000;0.8889;2.1818;
505.5000;0.8816;2.1702;
505.8000;0.8905;2.1794;
506.1000;0.8881;2.1702;
506.4000;0.8905;2.1818;
506.7000;0.8889;2.1771;
507.0000;0.8897;2.1864;
507.3000;0.8881;2.1771;
507.6000;0.8905;2.1864;
507.9000;0.8873;2.1771;
508.2000;0.8889;2.1679;
508.5000;0.8897;2.1679;
508.8000;0.8913;2.1679;
509.1000;0.8881;2.1679;
509.4000;0.8881;2.1748;
509.7000;0.8881;2.1748;
510.0000;0.8873;2.1679;
510.3000;0.8897;2.1725;
510.6000;0.8897;2.1748;
510.9000;0.8889;2.1725;
511.2000;0.8897;2.1910;
511.5000;0.8897;2.1933;
511.8000;0.8897;2.1818;
512.1000;0.8905;2.1794;
512.4000;0.8889;2.1702;
512.7000;0.8881;2.1702;
513.0000;0.8921;2.1887;
513.3000;0.8889;2.1864;
513.6000;0.8913;2.1956;
513.9000;0.8889;2.1956;
514.2000;0.8873;2.1933;
514.5000;0.8905;2.2026;
514.8000;0.8921;2.1956;
515.1000;0.8881;2.1864;
515.4000;0.8881;2.1725;
515.7000;0.8897;2.1818;
516.0000;0.8881;2.1818;
516.3000;0.8873;2.1864;
516.6000;0.8881;2.1956;
516.9000;0.8897;2.2049;
517.2000;0.8856;2.1887;
517.5000;0.8864;2.1818;
517.8000;0.8889;2.1841;
518.1000;0.8897;2.1794;
518.4000;0.8905;2.1818;
518.7000;0.8832;2.1656;
519.0000;0.8897;2.1910;
519.3000;0.8897;2.1933;
519.6000;0.8897;2.1980;
519.9000;0.8873;2.1887;
520.2000;0.8864;2.1794;
520.5000;0.8921;2.1864;
520.8000;0.8897;2.1794;
521.1000;0.8873;2.1771;
521.4000;0.8873;2.1818;
521.7000;0.8970;2.2003;
522.0000;0.8889;2.1841;
522.3000;0.8897;2.1725;
522.6000;0.8905;2.1725;
522.9000;0.8897;2.1702;
523.2000;0.8905;2.1748;
523.5000;0.8897;2.1771;
523.8000;0.8913;2.1771;
524.1000;0.8962;2.1887;
524.4000;0.8913;2.1771;
524.7000;0.8905;2.1887;
525.0000;0.8889;2.1933;
525.3000;0.8881;2.1956;
525.6000;0.8881;2.2072;
525.9000;0.8889;2.2072;
526.2000;0.8873;2.2003;
526.5000;0.8873;2.2072;
526.8000;0.8889;2.2049;
527.1000;0.8897;2.1980;
527.4000;0.8889;2.1933;
527.7000;0.8921;2.1956;
528.0000;0.8881;2.1864;
528.3000;0.8881;2.1864;
528.6000;0.8889;2.1910;
528.9000;0.8881;2.1980;
529.2000;0.8873;2.1956;
529.5000;0.8938;2.2118;
529.8000;0.8881;2.1980;
530.1000;0.8881;2.2049;
530.4000;0.8897;2.2118;
530.7000;0.8889;2.2095;
531.0000;0.8889;2.2095;
531.3000;0.8873;2.2072;
531.6000;0.8962;2.2188;
531.9000;0.8913;2.1933;
532.2000;0.8881;2.1841;
532.5000;0.8881;2.1702;
532.8000;0.8873;2.1633;
533.1000;0.8881;2.1725;
533.4000;0.8913;2.1725;
533.7000;0.8921;2.1725;
534.0000;0.8889;2.1679;
534.3000;0.8881;2.1748;
534.6000;0.8881;2.1725;
534.9000;0.8881;2.1702;
535.2000;0.8881;2.1748;
535.5000;0.8881;2.1794;
535.8000;0.8864;2.1864;
536.1000;0.8881;2.1887;
536.4000;0.8873;2.1818;
536.7000;0.8905;2.1910;
537.0000;0.8889;2.1887;
537.3000;0.8897;2.1956;
537.6000;0.8905;2.2026;
537.9000;0.8873;2.1956;
538.2000;0.8856;2.1910;
538.5000;0.8832;2.1771;
538.8000;0.8905;2.1887;
539.1000;0.8881;2.1794;
539.4000;0.8938;2.1933;
539.7000;0.8905;2.1864;
540.0000;0.8897;2.1887;
540.3000;0.8881;2.1864;
540.6000;0.8881;2.1841;
540.9000;0.8856;2.1725;
541.2000;0.8881;2.1725;
541.5000;0.8881;2.1656;
541.8000;0.8881;2.1748;
542.1000;0.8889;2.1864;
542.4000;0.8881;2.1887;
542.7000;0.8881;2.1771;
543.0000;0.8889;2.1818;
543.3000;0.8889;2.1864;
543.6000;0.8889;2.1864;
543.9000;0.8889;2.1910;
544.2000;0.8881;2.1887;
544.5000;0.8881;2.1887;
544.8000;0.8840;2.1748;
545.1000;0.8881;2.1841;
545.4000;0.8881;2.1910;
545.7000;0.8873;2.1887;
546.0000;0.8832;2.1818;
546.3000;0.8873;2.1910;
546.6000;0.8897;2.2026;
546.9000;0.8881;2.2095;
547.2000;0.8799;2.1910;
547.5000;0.8913;2.2211;
547.8000;0.8905;2.2211;
548.1000;0.8881;2.2095;
548.4000;0.8889;2.2072;
548.7000;0.8889;2.2003;
549.0000;0.8873;2.1887;
549.3000;0.8889;2.1933;
549.6000;0.8873;2.1933;
549.9000;0.8881;2.1864;
550.2000;0.8873;2.1841;
550.5000;0.8897;2.1841;
550.8000;0.8873;2.1771;
551.1000;0.8881;2.1702;
551.4000;0.8889;2.1818;
551.7000;0.8889;2.1818;
552.0000;0.8881;2.1771;
552.3000;0.8889;2.1794;
552.6000;0.8905;2.1771;
552.9000;0.8889;2.1771;
553.2000;0.8889;2.1748;
553.5000;0.8987;2.1956;
553.8000;0.8897;2.1748;
554.1000;0.8881;2.1771;
554.4000;0.8881;2.1748;
554.7000;0.8873;2.1771;
555.0000;0.8816;2.1609;
555.3000;0.8905;2.1841;
555.6000;0.8905;2.1933;
555.9000;0.8856;2.1818;
556.2000;0.8897;2.1910;
556.5000;0.8897;2.1887;
556.8000;0.8889;2.1910;
557.1000;0.8897;2.1910;
557.4000;0.8897;2.1864;
557.7000;0.8897;2.1910;
558.0000;0.8913;2.1956;
558.3000;0.8905;2.1933;
558.6000;0.8905;2.1980;
558.9000;0.8881;2.1980;
559.2000;0.8881;2.1980;
559.5000;0.8840;2.1771;
559.8000;0.8873;2.1887;
560.1000;0.8881;2.1910;
560.4000;0.8864;2.1887;
560.7000;0.8889;2.1910;
561.0000;0.8897;2.1956;
561.3000;0.8840;2.1841;
561.6000;0.8905;2.2026;
561.9000;0.8807;2.1748;
562.2000;0.8864;2.1818;
562.5000;0.8881;2.1910;
562.8000;0.8881;2.1933;
563.1000;0.8873;2.1887;
563.4000;0.8840;2.1864;
563.7000;0.8897;2.1956;
564.0000;0.8881;2.1887;
564.3000;0.8889;2.1980;
564.6000;0.8905;2.2003;
564.9000;0.8889;2.1887;
565.2000;0.8864;2.1887;
565.5000;0.8897;2.2003;
565.8000;0.8873;2.1956;
566.1000;0.8889;2.1956;
566.4000;0.8864;2.1887;
566.7000;0.8881;2.1980;
567.0000;0.8897;2.1933;
567.3000;0.8873;2.1841;
567.6000;0.8864;2.1864;
567.9000;0.8881;2.1887;
568.2000;0.8840;2.1818;
568.5000;0.8889;2.2003;
568.8000;0.8921;2.2095;
569.1000;0.8889;2.2026;
569.4000;0.8889;2.1956;
569.7000;0.8881;2.1887;
570.0000;0.8889;2.1887;
570.3000;0.8881;2.1956;
570.6000;0.8889;2.2003;
570.9000;0.8881;2.1887;
571.2000;0.8881;2.1956;
571.5000;0.8856;2.1956;
571.8000;0.8897;2.2072;
572.1000;0.8905;2.2003;
572.4000;0.8881;2.1980;
572.7000;0.8881;2.1980;
573.0000;0.8856;2.1864;
573.3000;0.8995;2.2142;
573.6000;0.8897;2.1887;
573.9000;0.8889;2.2003;
574.2000;0.8897;2.2049;
574.5000;0.8930;2.2165;
574.8000;0.8897;2.2072;
575.1000;0.8889;2.2072;
575.4000;0.8938;2.2118;
575.7000;0.8905;2.2118;
576.0000;0.8873;2.2049;
576.3000;0.8873;2.1980;
576.6000;0.8889;2.2003;
576.9000;0.8962;2.2165;
577.2000;0.8905;2.2003;
577.5000;0.8856;2.1933;
577.8000;0.8889;2.2049;
578.1000;0.8840;2.2072;
578.4000;0.8889;2.2142;
578.7000;0.8881;2.2003;
579.0000;0.8856;2.1864;
579.3000;0.8881;2.1887;
579.6000;0.8889;2.1980;
579.9000;0.8873;2.1887;
580.2000;0.8864;2.1887;
580.5000;0.8881;2.2003;
580.8000;0.8897;2.2095;
581.1000;0.8873;2.2003;
581.4000;0.8881;2.2049;
581.7000;0.8897;2.2072;
582.0000;0.8889;2.2095;
582.3000;0.8873;2.2095;
582.6000;0.8856;2.2095;
582.9000;0.8873;2.2165;
583.2000;0.8889;2.2211;
583.5000;0.8856;2.2095;
583.8000;0.8889;2.2165;
584.1000;0.8881;2.2280;
584.4000;0.8856;2.2211;
584.7000;0.8897;2.2211;
585.0000;0.8905;2.2257;
585.3000;0.8881;2.2165;
585.6000;0.8881;2.2072;
585.9000;0.8921;2.2026;
586.2000;0.8905;2.1956;
586.5000;0.8897;2.1980;
586.8000;0.8864;2.2003;
587.1000;0.8873;2.1980;
587.4000;0.8881;2.2003;
587.7000;0.8816;2.1841;
588.0000;0.8864;2.1980;
588.3000;0.8930;2.2142;
588.6000;0.8807;2.1794;
588.9000;0.8897;2.2072;
589.2000;0.8905;2.2026;
589.5000;0.8881;2.2072;
589.8000;0.8905;2.2211;
590.1000;0.8873;2.2003;
590.4000;0.8995;2.2257;
590.7000;0.8889;2.2049;
591.0000;0.8873;2.2095;
591.3000;0.8864;2.2026;
591.6000;0.8881;2.2003;
591.9000;0.8905;2.2072;
592.2000;0.8881;2.1933;
592.5000;0.8897;2.2026;
592.8000;0.8873;2.1980;
593.1000;0.8816;2.1910;
593.4000;0.8881;2.2118;
593.7000;0.8889;2.2118;
594.0000;0.8905;2.2072;
594.3000;0.8881;2.2049;
594.6000;0.8751;2.1656;
594.9000;0.8864;2.1910;
595.2000;0.8881;2.2072;
595.5000;0.8881;2.2118;
595.8000;0.8881;2.2095;
596.1000;0.8881;2.2142;
596.4000;0.8881;2.2072;
596.7000;0.8897;2.2026;
597.0000;0.8921;2.2118;
597.3000;0.8913;2.2049;
597.6000;0.8873;2.1910;
597.9000;0.8897;2.1933;
598.2000;0.8856;2.1864;
598.5000;0.8873;2.1841;
598.8000;0.8881;2.1980;
599.1000;0.8889;2.1980;
599.4000;0.8840;2.1864;
599.7000;0.8856;2.1887;
600.0000;0.8864;2.1887;
600.3000;0.8897;2.1841;
600.6000;0.8905;2.1702;
600.9000;0.8913;2.1609;
601.2000;0.8881;2.1447;
601.5000;0.8921;2.1401;
601.8000;0.8783;2.1077;
602.1000;0.8694;2.0962;
602.4000;0.8694;2.0985;
602.7000;0.8653;2.0915;
603.0000;0.8637;2.0823;
603.3000;0.8563;2.0638;
603.6000;0.8555;2.0661;
603.9000;0.8514;2.0638;
604.2000;0.8466;2.0638;
604.5000;0.8425;2.0591;
604.8000;0.8384;2.0429;
605.1000;0.8376;2.0545;
605.4000;0.8344;2.0522;
605.7000;0.8287;2.0476;
606.0000;0.8270;2.0429;
606.3000;0.8246;2.0406;
606.6000;0.8230;2.0406;
606.9000;0.8197;2.0291;
607.2000;0.8164;2.0337;
607.5000;0.8091;2.0198;
607.8000;0.8181;2.0499;
608.1000;0.8091;2.0337;
608.4000;0.8067;2.0267;
608.7000;0.8099;2.0314;
609.0000;0.8067;2.0337;
609.3000;0.8026;2.0267;
609.6000;0.8010;2.0152;
609.9000;0.8034;2.0198;
610.2000;0.7969;2.0152;
610.5000;0.7985;2.0267;
610.8000;0.7961;2.0198;
611.1000;0.7945;2.0106;
611.4000;0.7985;2.0383;
611.7000;0.7904;2.0221;
612.0000;0.7863;2.0175;
612.3000;0.7871;2.0221;
612.6000;0.7888;2.0314;
612.9000;0.7863;2.0360;
613.2000;0.7855;2.0383;
613.5000;0.7920;2.0545;
613.8000;0.7847;2.0337;
614.1000;0.7814;2.0175;
614.4000;0.7774;2.0198;
614.7000;0.7766;2.0244;
615.0000;0.7790;2.0267;
615.3000;0.7757;2.0175;
615.6000;0.7757;2.0152;
615.9000;0.7806;2.0267;
616.2000;0.7790;2.0129;
616.5000;0.7700;1.9920;
616.8000;0.7725;1.9990;
617.1000;0.7684;1.9967;
617.4000;0.7700;1.9967;
617.7000;0.7643;1.9967;
618.0000;0.7570;1.9805;
618.3000;0.7668;2.0036;
618.6000;0.7660;2.0129;
618.9000;0.7652;2.0221;
619.2000;0.7660;2.0198;
619.5000;0.7611;2.0175;
619.8000;0.7643;2.0267;
620.1000;0.7619;2.0291;
620.4000;0.7627;2.0267;
620.7000;0.7595;2.0152;
621.0000;0.7603;2.0059;
621.3000;0.7595;2.0082;
621.6000;0.7603;2.0129;
621.9000;0.7570;2.0036;
622.2000;0.7595;2.0082;
622.5000;0.7521;2.0059;
622.8000;0.7627;2.0221;
623.1000;0.7562;2.0106;
623.4000;0.7562;2.0129;
623.7000;0.7530;2.0129;
624.0000;0.7521;2.0175;
624.3000;0.7538;2.0244;
624.6000;0.7513;2.0244;
624.9000;0.7505;2.0221;
625.2000;0.7489;2.0152;
625.5000;0.7554;2.0221;
625.8000;0.7497;2.0152;
626.1000;0.7489;2.0175;
626.4000;0.7489;2.0267;
626.7000;0.7481;2.0291;
627.0000;0.7473;2.0267;
627.3000;0.7448;2.0314;
627.6000;0.7497;2.0429;
627.9000;0.7440;2.0291;
628.2000;0.7432;2.0244;
628.5000;0.7359;2.0059;
628.8000;0.7432;2.0198;
629.1000;0.7440;2.0267;
629.4000;0.7440;2.0314;
629.7000;0.7416;2.0152;
630.0000;0.7399;2.0129;
630.3000;0.7399;2.0152;
630.6000;0.7383;2.0175;
630.9000;0.7416;2.0221;
631.2000;0.7367;2.0152;
631.5000;0.7383;2.0106;
631.8000;0.7318;1.9897;
632.1000;0.7375;2.0036;
632.4000;0.7350;2.0152;
632.7000;0.7424;2.0383;
633.0000;0.7359;2.0244;
633.3000;0.7326;2.0082;
633.6000;0.7350;2.0013;
633.9000;0.7318;1.9920;
634.2000;0.7342;2.0059;
634.5000;0.7342;2.0036;
634.8000;0.7359;2.0152;
635.1000;0.7310;2.0059;
635.4000;0.7302;1.9990;
635.7000;0.7326;2.0059;
636.0000;0.7342;2.0059;
636.3000;0.7326;1.9990;
636.6000;0.7302;2.0013;
636.9000;0.7318;2.0198;
637.2000;0.7326;2.0221;
637.5000;0.7277;2.0198;
637.8000;0.7277;2.0267;
638.1000;0.7269;2.0244;
638.4000;0.7293;2.0175;
638.7000;0.7261;2.0129;
639.0000;0.7212;1.9944;
639.3000;0.7277;1.9897;
639.6000;0.7269;1.9920;
639.9000;0.7245;1.9897;
640.2000;0.7236;1.9920;
640.5000;0.7253;1.9967;
640.8000;0.7147;1.9758;
641.1000;0.7245;1.9967;
641.4000;0.7228;1.9990;
641.7000;0.7228;2.0082;
642.0000;0.7236;2.0059;
642.3000;0.7155;1.9851;
642.6000;0.7228;1.9990;
642.9000;0.7220;1.9990;
643.2000;0.7188;1.9990;
643.5000;0.7204;2.0082;
643.8000;0.7212;2.0106;
644.1000;0.7196;2.0082;
644.4000;0.7196;2.0082;
644.7000;0.7204;2.0106;
645.0000;0.7196;1.9944;
645.3000;0.7212;1.9944;
645.6000;0.7196;1.9897;
645.9000;0.7204;1.9944;
646.2000;0.7171;1.9897;
646.5000;0.7196;1.9967;
646.8000;0.7171;1.9990;
647.1000;0.7163;2.0013;
647.4000;0.7179;2.0036;
647.7000;0.7179;1.9967;
648.0000;0.7163;2.0013;
648.3000;0.7147;1.9967;
648.6000;0.7082;1.9828;
648.9000;0.7131;1.9897;
649.2000;0.7131;1.9782;
649.5000;0.7123;1.9805;
649.8000;0.7155;1.9967;
650.1000;0.7106;1.9805;
650.4000;0.7139;1.9944;
650.7000;0.7114;1.9944;
651.0000;0.7212;2.0175;
651.3000;0.7123;1.9967;
651.6000;0.6984;1.9712;
651.9000;0.7114;1.9967;
652.2000;0.7123;2.0036;
652.5000;0.7123;2.0129;
652.8000;0.7098;1.9920;
653.1000;0.7074;1.9920;
653.4000;0.7090;1.9944;
653.7000;0.7017;1.9805;
654.0000;0.7098;2.0059;
654.3000;0.7114;2.0036;
654.6000;0.7074;2.0036;
654.9000;0.7074;2.0082;
655.2000;0.7082;2.0129;
655.5000;0.7123;2.0291;
655.8000;0.7098;2.0198;
656.1000;0.7066;2.0106;
656.4000;0.7074;2.0106;
656.7000;0.7049;2.0059;
657.0000;0.7074;2.0175;
657.3000;0.7057;2.0082;
657.6000;0.7049;1.9990;
657.9000;0.7139;2.0129;
658.2000;0.7057;1.9920;
658.5000;0.7025;1.9851;
658.8000;0.7041;1.9967;
659.1000;0.7041;2.0082;
659.4000;0.7025;2.0059;
659.7000;0.7009;2.0013;
660.0000;0.7066;2.0082;
660.3000;0.7025;1.9990;
660.6000;0.7025;2.0013;
660.9000;0.7017;2.0059;
661.2000;0.7017;1.9990;
661.5000;0.7017;2.0036;
661.8000;0.7017;1.9990;
662.1000;0.7000;1.9851;
662.4000;0.6984;1.9920;
662.7000;0.6992;1.9990;
663.0000;0.6992;1.9990;
663.3000;0.6992;2.0036;
663.6000;0.6943;1.9851;
663.9000;0.6927;1.9782;
664.2000;0.6992;1.9897;
664.5000;0.6976;1.9944;
664.8000;0.6976;1.9874;
665.1000;0.7000;1.9828;
665.4000;0.6984;1.9782;
665.7000;0.6984;1.9805;
666.0000;0.7000;1.9828;
666.3000;0.6976;1.9828;
666.6000;0.6960;1.9828;
666.9000;0.6976;1.9874;
667.2000;0.6976;1.9967;
667.5000;0.6968;1.9967;
667.8000;0.6976;2.0082;
668.1000;0.6992;2.0106;
668.4000;0.6960;2.0059;
668.7000;0.6952;2.0036;
669.0000;0.6976;2.0082;
669.3000;0.6992;2.0152;
669.6000;0.6943;2.0129;
669.9000;0.7009;2.0360;
670.2000;0.6968;2.0267;
670.5000;0.6960;2.0198;
670.8000;0.6919;2.0082;
671.1000;0.6935;2.0106;
671.4000;0.6919;2.0106;
671.7000;0.6952;2.0244;
672.0000;0.6854;2.0036;
672.3000;0.6911;2.0106;
672.6000;0.6984;2.0291;
672.9000;0.6976;2.0291;
673.2000;0.6943;2.0152;
673.5000;0.6927;2.0221;
673.8000;0.6911;2.0267;
674.1000;0.6927;2.0175;
674.4000;0.6927;2.0152;
674.7000;0.6919;2.0129;
675.0000;0.6952;2.0198;
675.3000;0.6895;2.0059;
675.6000;0.6895;2.0059;
675.9000;0.6919;2.0059;
676.2000;0.6895;2.0082;
676.5000;0.6927;2.0152;
676.8000;0.6919;2.0175;
677.1000;0.6911;2.0175;
677.4000;0.6895;2.0036;
677.7000;0.6895;2.0013;
678.0000;0.6911;2.0082;
678.3000;0.6886;2.0059;
678.6000;0.6903;1.9990;
678.9000;0.6895;1.9920;
679.2000;0.6895;1.9828;
679.5000;0.6903;1.9920;
679.8000;0.7000;2.0152;
680.1000;0.6886;1.9990;
680.4000;0.6886;2.0106;
680.7000;0.6854;1.9967;
681.0000;0.6895;2.0036;
681.3000;0.6878;1.9990;
681.6000;0.6862;1.9897;
681.9000;0.6854;1.9944;
682.2000;0.6919;2.0129;
682.5000;0.6878;2.0059;
682.8000;0.6878;1.9920;
683.1000;0.6870;1.9874;
683.4000;0.6862;1.9967;
683.7000;0.6886;2.0013;
684.0000;0.6862;2.0013;
684.3000;0.6854;1.9920;
684.6000;0.6854;1.9944;
684.9000;0.6821;2.0013;
685.2000;0.6903;2.0221;
685.5000;0.6854;2.0082;
685.8000;0.6781;1.9828;
686.1000;0.6846;1.9990;
686.4000;0.6919;2.0221;
686.7000;0.6854;2.0082;
687.0000;0.6895;2.0221;
687.3000;0.6854;2.0198;
687.6000;0.6821;2.0082;
687.9000;0.6829;2.0036;
688.2000;0.6846;2.0082;
688.5000;0.6838;2.0221;
688.8000;0.6862;2.0267;
689.1000;0.6870;2.0221;
689.4000;0.6821;2.0175;
689.7000;0.6846;2.0267;
690.0000;0.6797;2.0129;
690.3000;0.6846;2.0152;
690.6000;0.6829;2.0059;
690.9000;0.6740;1.9920;
691.2000;0.6805;2.0106;
691.5000;0.6838;2.0129;
691.8000;0.6829;2.0036;
692.1000;0.6862;2.0013;
692.4000;0.6813;1.9990;
692.7000;0.6813;2.0082;
693.0000;0.6764;2.0036;
693.3000;0.6813;2.0106;
693.6000;0.6813;2.0129;
693.9000;0.6870;2.0291;
694.2000;0.6789;2.0244;
694.5000;0.6829;2.0221;
694.8000;0.6813;2.0106;
695.1000;0.6789;2.0013;
695.4000;0.6781;1.9990;
695.7000;0.6789;2.0036;
696.0000;0.6748;1.9851;
696.3000;0.6821;2.0013;
696.6000;0.6716;1.9805;
696.9000;0.6789;1.9920;
697.2000;0.6789;1.9805;
697.5000;0.6805;1.9735;
697.8000;0.6764;1.9643;
698.1000;0.6772;1.9666;
698.4000;0.6789;1.9828;
698.7000;0.6805;1.9897;
699.0000;0.6789;1.9897;
699.3000;0.6789;1.9967;
699.6000;0.6805;1.9967;
699.9000;0.6789;1.9967;
700.2000;0.6789;2.0036;
700.5000;0.6716;1.9851;
700.8000;0.6772;1.9967;
701.1000;0.6797;1.9967;
701.4000;0.6772;1.9990;
701.7000;0.6781;2.0082;
702.0000;0.6781;2.0106;
702.3000;0.6772;2.0244;
702.6000;0.6789;2.0267;
702.9000;0.6756;2.0129;
703.2000;0.6772;2.0082;
703.5000;0.6764;2.0106;
703.8000;0.6764;2.0129;
704.1000;0.6772;2.0152;
704.4000;0.6756;1.9990;
704.7000;0.6748;1.9967;
705.0000;0.6748;2.0036;
705.3000;0.6748;2.0036;
705.6000;0.6740;1.9990;
705.9000;0.6772;2.0059;
706.2000;0.6748;2.0082;
706.5000;0.6756;2.0152;
706.8000;0.6772;2.0221;
707.1000;0.6724;2.0036;
707.4000;0.6748;2.0129;
707.7000;0.6764;2.0221;
708.0000;0.6732;2.0129;
708.3000;0.6740;2.0129;
708.6000;0.6642;2.0013;
708.9000;0.6675;2.0082;
709.2000;0.6740;2.0244;
709.5000;0.6748;2.0198;
709.8000;0.6675;2.0059;
710.1000;0.6756;2.0314;
710.4000;0.6756;2.0383;
710.7000;0.6732;2.0383;
711.0000;0.6716;2.0244;
711.3000;0.6732;2.0314;
711.6000;0.6732;2.0267;
711.9000;0.6699;2.0198;
712.2000;0.6683;2.0129;
712.5000;0.6724;2.0198;
712.8000;0.6732;2.0129;
713.1000;0.6724;2.0129;
713.4000;0.6732;2.0129;
713.7000;0.6699;2.0129;
714.0000;0.6724;2.0175;
714.3000;0.6724;2.0152;
714.6000;0.6716;2.0059;
714.9000;0.6756;2.0244;
715.2000;0.6724;2.0129;
715.5000;0.6716;2.0152;
715.8000;0.6707;2.0013;
716.1000;0.6716;2.0152;
716.4000;0.6699;2.0221;
716.7000;0.6724;2.0175;
717.0000;0.6699;2.0175;
717.3000;0.6716;2.0198;
717.6000;0.6707;2.0175;
717.9000;0.6707;2.0221;
718.2000;0.6699;2.0152;
718.5000;0.6699;2.0152;
718.8000;0.6716;2.0244;
719.1000;0.6716;2.0152;
719.4000;0.6691;2.0152;
719.7000;0.6724;2.0267;
720.0000;0.6699;2.0106;
720.3000;0.6764;2.0221;
720.6000;0.6716;2.0198;
720.9000;0.6716;2.0244;
721.2000;0.6683;2.0106;
721.5000;0.6659;1.9990;
721.8000;0.6675;2.0106;
722.1000;0.6667;2.0059;
722.4000;0.6691;2.0152;
722.7000;0.6724;2.0175;
723.0000;0.6707;2.0175;
723.3000;0.6707;2.0129;
723.6000;0.6699;2.0129;
723.9000;0.6699;2.0106;
724.2000;0.6732;2.0152;
724.5000;0.6716;2.0152;
724.8000;0.6748;2.0244;
725.1000;0.6675;2.0106;
725.4000;0.6683;2.0129;
725.7000;0.6650;2.0036;
726.0000;0.6707;2.0175;
726.3000;0.6683;2.0106;
726.6000;0.6683;2.0106;
726.9000;0.6650;1.9990;
727.2000;0.6675;2.0059;
727.5000;0.6667;2.0059;
727.8000;0.6626;1.9944;
728.1000;0.6675;2.0036;
728.4000;0.6667;1.9990;
728.7000;0.6699;2.0106;
729.0000;0.6659;1.9967;
729.3000;0.6675;2.0059;
729.6000;0.6675;2.0013;
729.9000;0.6675;1.9920;
730.2000;0.6659;1.9967;
730.5000;0.6699;1.9990;
730.8000;0.6659;1.9897;
731.1000;0.6675;1.9897;
731.4000;0.6667;1.9851;
731.7000;0.6699;1.9805;
732.0000;0.6659;1.9758;
732.3000;0.6667;1.9782;
732.6000;0.6650;1.9851;
732.9000;0.6683;1.9990;
733.2000;0.6667;2.0036;
733.5000;0.6659;2.0036;
733.8000;0.6667;2.0129;
734.1000;0.6667;2.0106;
734.4000;0.6659;2.0106;
734.7000;0.6650;2.0082;
735.0000;0.6724;2.0152;
735.3000;0.6650;2.0013;
735.6000;0.6667;2.0059;
735.9000;0.6659;2.0082;
736.2000;0.6650;2.0106;
736.5000;0.6642;1.9967;
736.8000;0.6642;1.9828;
737.1000;0.6659;1.9782;
737.4000;0.6724;1.9897;
737.7000;0.6716;1.9782;
738.0000;0.6642;1.9643;
738.3000;0.6650;1.9735;
738.6000;0.6659;1.9712;
738.9000;0.6618;1.9758;
739.2000;0.6642;1.9805;
739.5000;0.6659;1.9851;
739.8000;0.6659;1.9805;
740.1000;0.6667;1.9920;
740.4000;0.6642;1.9967;
740.7000;0.6642;1.9990;
741.0000;0.6650;2.0013;
741.3000;0.6650;2.0036;
741.6000;0.6626;2.0036;
741.9000;0.6642;1.9967;
742.2000;0.6650;1.9967;
742.5000;0.6634;1.9944;
742.8000;0.6634;1.9874;
743.1000;0.6642;1.9920;
743.4000;0.6650;1.9967;
743.7000;0.6602;1.9874;
744.0000;0.6650;1.9920;
744.3000;0.6626;1.9874;
744.6000;0.6634;1.9920;
744.9000;0.6642;2.0059;
745.2000;0.6650;2.0059;
745.5000;0.6618;2.0036;
745.8000;0.6642;2.0082;
746.1000;0.6634;2.0198;
746.4000;0.6642;2.0198;
746.7000;0.6585;2.0036;
747.0000;0.6642;2.0198;
747.3000;0.6602;2.0106;
747.6000;0.6659;2.0152;
747.9000;0.6577;2.0059;
748.2000;0.6593;2.0036;
748.5000;0.6626;2.0129;
748.8000;0.6626;2.0082;
749.1000;0.6618;2.0036;
749.4000;0.6618;2.0013;
749.7000;0.6610;1.9990;
750.0000;0.6618;2.0036;
750.3000;0.6626;2.0082;
750.6000;0.6569;1.9990;
750.9000;0.6618;2.0082;
751.2000;0.6634;2.0059;
751.5000;0.6626;2.0129;
751.8000;0.6716;2.0314;
752.1000;0.6577;1.9990;
752.4000;0.6610;2.0129;
752.7000;0.6610;2.0106;
753.0000;0.6626;2.0175;
753.3000;0.6593;2.0129;
753.6000;0.6626;2.0291;
753.9000;0.6593;2.0244;
754.2000;0.6618;2.0221;
754.5000;0.6610;2.0221;
754.8000;0.6667;2.0267;
755.1000;0.6610;2.0221;
755.4000;0.6602;2.0175;
755.7000;0.6602;2.0152;
756.0000;0.6593;2.0106;
756.3000;0.6626;2.0198;
756.6000;0.6602;2.0082;
756.9000;0.6593;2.0059;
757.2000;0.6602;2.0129;
757.5000;0.6602;2.0129;
757.8000;0.6602;2.0152;
758.1000;0.6585;2.0082;
758.4000;0.6667;2.0221;
758.7000;0.6618;2.0106;
759.0000;0.6569;2.0082;
759.3000;0.6602;2.0059;
759.6000;0.6610;2.0152;
759.9000;0.6634;2.0291;
760.2000;0.6593;2.0244;
760.5000;0.6626;2.0221;
760.8000;0.6585;2.0129;
761.1000;0.6602;2.0198;
761.4000;0.6585;2.0221;
761.7000;0.6585;2.0337;
762.0000;0.6593;2.0291;
762.3000;0.6577;2.0291;
762.6000;0.6577;2.0360;
762.9000;0.6577;2.0383;
763.2000;0.6602;2.0453;
763.5000;0.6577;2.0360;
763.8000;0.6593;2.0337;
764.1000;0.6593;2.0267;
764.4000;0.6577;2.0082;
764.7000;0.6577;2.0129;
765.0000;0.6593;2.0198;
765.3000;0.6585;2.0244;
765.6000;0.6585;2.0244;
765.9000;0.6577;2.0175;
766.2000;0.6593;2.0152;
766.5000;0.6528;2.0082;
766.8000;0.6528;2.0036;
767.1000;0.6585;2.0129;
767.4000;0.6593;2.0152;
767.7000;0.6577;2.0129;
768.0000;0.6561;2.0175;
768.3000;0.6569;2.0244;
768.6000;0.6577;2.0267;
768.9000;0.6585;2.0244;
769.2000;0.6577;2.0221;
769.5000;0.6577;2.0314;
769.8000;0.6585;2.0360;
770.1000;0.6585;2.0406;
770.4000;0.6585;2.0383;
770.7000;0.6602;2.0360;
771.0000;0.6553;2.0267;
771.3000;0.6593;2.0360;
771.6000;0.6593;2.0314;
771.9000;0.6520;2.0106;
772.2000;0.6569;2.0198;
772.5000;0.6577;2.0175;
772.8000;0.6577;2.0082;
773.1000;0.6569;2.0106;
773.4000;0.6569;2.0221;
773.7000;0.6569;2.0175;
774.0000;0.6593;2.0291;
774.3000;0.6585;2.0314;
774.6000;0.6569;2.0291;
774.9000;0.6479;2.0082;
775.2000;0.6561;2.0267;
775.5000;0.6577;2.0267;
775.8000;0.6553;2.0244;
776.1000;0.6585;2.0267;
776.4000;0.6634;2.0499;
776.7000;0.6585;2.0429;
777.0000;0.6585;2.0406;
777.3000;0.6577;2.0406;
777.6000;0.6593;2.0406;
777.9000;0.6610;2.0406;
778.2000;0.6569;2.0314;
778.5000;0.6553;2.0267;
778.8000;0.6561;2.0337;
779.1000;0.6667;2.0545;
779.4000;0.6585;2.0267;
779.7000;0.6618;2.0337;
780.0000;0.6545;2.0152;
780.3000;0.6569;2.0106;
780.6000;0.6577;2.0106;
780.9000;0.6569;2.0129;
781.2000;0.6569;2.0152;
781.5000;0.6569;2.0129;
781.8000;0.6561;2.0129;
782.1000;0.6577;2.0152;
782.4000;0.6553;2.0152;
782.7000;0.6569;2.0221;
783.0000;0.6618;2.0337;
783.3000;0.6569;2.0198;
783.6000;0.6553;2.0244;
783.9000;0.6545;2.0129;
784.2000;0.6553;2.0106;
784.5000;0.6585;2.0082;
784.8000;0.6561;2.0129;
785.1000;0.6553;2.0221;
785.4000;0.6553;2.0244;
785.7000;0.6561;2.0291;
786.0000;0.6545;2.0198;
786.3000;0.6545;2.0129;
786.6000;0.6569;2.0198;
786.9000;0.6618;2.0267;
787.2000;0.6561;2.0036;
787.5000;0.6536;1.9944;
787.8000;0.6553;2.0082;
788.1000;0.6536;2.0036;
788.4000;0.6545;2.0013;
788.7000;0.6585;2.0059;
789.0000;0.6553;2.0013;
789.3000;0.6528;1.9920;
789.6000;0.6447;1.9712;
789.9000;0.6512;2.0036;
790.2000;0.6528;2.0106;
790.5000;0.6561;2.0152;
790.8000;0.6553;2.0221;
791.1000;0.6536;2.0129;
791.4000;0.6545;2.0129;
791.7000;0.6545;2.0198;
792.0000;0.6569;2.0337;
792.3000;0.6545;2.0314;
792.6000;0.6553;2.0337;
792.9000;0.6528;2.0291;
793.2000;0.6536;2.0314;
793.5000;0.6545;2.0244;
793.8000;0.6545;2.0267;
794.1000;0.6528;2.0314;
794.4000;0.6536;2.0337;
794.7000;0.6536;2.0314;
795.0000;0.6561;2.0383;
795.3000;0.6536;2.0314;
795.6000;0.6545;2.0383;
795.9000;0.6610;2.0568;
796.2000;0.6553;2.0406;
796.5000;0.6536;2.0291;
796.8000;0.6553;2.0337;
797.1000;0.6553;2.0314;
797.4000;0.6545;2.0198;
797.7000;0.6577;2.0267;
798.0000;0.6528;2.0244;
798.3000;0.6553;2.0267;
798.6000;0.6536;2.0267;
798.9000;0.6528;2.0267;
799.2000;0.6528;2.0291;
799.5000;0.6504;2.0221;
799.8000;0.6512;2.0291;
800.1000;0.6528;2.0267;
800.4000;0.6520;2.0291;
800.7000;0.6528;2.0314;
801.0000;0.6520;2.0314;
801.3000;0.6536;2.0314;
801.6000;0.6496;2.0198;
801.9000;0.6528;2.0244;
802.2000;0.6528;2.0291;
802.5000;0.6634;2.0568;
802.8000;0.6520;2.0291;
803.1000;0.6528;2.0291;
803.4000;0.6536;2.0244;
803.7000;0.6528;2.0129;
804.0000;0.6512;2.0059;
804.3000;0.6520;2.0198;
804.6000;0.6512;2.0244;
804.9000;0.6528;2.0337;
805.2000;0.6536;2.0314;
805.5000;0.6431;1.9944;
805.8000;0.6659;2.0522;
806.1000;0.6536;2.0291;
806.4000;0.6545;2.0360;
806.7000;0.6561;2.0453;
807.0000;0.6528;2.0337;
807.3000;0.6536;2.0360;
807.6000;0.6553;2.0267;
807.9000;0.6536;2.0244;
808.2000;0.6528;2.0221;
808.5000;0.6553;2.0267;
808.8000;0.6520;2.0221;
809.1000;0.6512;2.0244;
809.4000;0.6520;2.0267;
809.7000;0.6512;2.0221;
810.0000;0.6512;2.0175;
810.3000;0.6512;2.0221;
810.6000;0.6504;2.0267;
810.9000;0.6528;2.0314;
811.2000;0.6545;2.0267;
811.5000;0.6528;2.0198;
811.8000;0.6536;2.0314;
812.1000;0.6520;2.0267;
812.4000;0.6520;2.0198;
812.7000;0.6512;2.0106;
813.0000;0.6528;2.0152;
813.3000;0.6520;2.0175;
813.6000;0.6512;2.0175;
813.9000;0.6528;2.0244;
814.2000;0.6512;2.0175;
814.5000;0.6512;2.0198;
814.8000;0.6528;2.0198;
815.1000;0.6520;2.0198;
815.4000;0.6520;2.0267;
815.7000;0.6504;2.0221;
816.0000;0.6520;2.0244;
816.3000;0.6512;2.0267;
816.6000;0.6496;2.0291;
816.9000;0.6504;2.0314;
817.2000;0.6512;2.0198;
817.5000;0.6520;2.0152;
817.8000;0.6512;2.0106;
818.1000;0.6545;2.0175;
818.4000;0.6528;2.0198;
818.7000;0.6561;2.0291;
819.0000;0.6520;2.0198;
819.3000;0.6512;2.0267;
819.6000;0.6520;2.0360;
819.9000;0.6488;2.0291;
820.2000;0.6504;2.0314;
820.5000;0.6528;2.0314;
820.8000;0.6504;2.0267;
821.1000;0.6488;2.0198;
821.4000;0.6512;2.0221;
821.7000;0.6528;2.0244;
822.0000;0.6512;2.0267;
822.3000;0.6496;2.0291;
822.6000;0.6512;2.0291;
822.9000;0.6488;2.0314;
823.2000;0.6479;2.0291;
823.5000;0.6520;2.0337;
823.8000;0.6536;2.0360;
824.1000;0.6496;2.0244;
824.4000;0.6455;2.0152;
824.7000;0.6512;2.0244;
825.0000;0.6479;2.0267;
825.3000;0.6496;2.0244;
825.6000;0.6504;2.0267;
825.9000;0.6431;2.0106;
826.2000;0.6439;2.0152;
826.5000;0.6512;2.0314;
826.8000;0.6479;2.0152;
827.1000;0.6488;2.0106;
827.4000;0.6496;2.0129;
827.7000;0.6496;2.0036;
828.0000;0.6561;2.0175;
828.3000;0.6553;2.0106;
828.6000;0.6504;1.9920;
828.9000;0.6561;2.0059;
829.2000;0.6512;1.9897;
829.5000;0.6520;1.9874;
829.8000;0.6545;1.9874;
830.1000;0.6512;1.9805;
830.4000;0.6512;1.9920;
830.7000;0.6561;2.0036;
831.0000;0.6577;2.0059;
831.3000;0.6479;1.9990;
831.6000;0.6504;2.0129;
831.9000;0.6479;2.0059;
832.2000;0.6504;2.0082;
832.5000;0.6496;2.0036;
832.8000;0.6496;2.0152;
833.1000;0.6512;2.0152;
833.4000;0.6488;2.0106;
833.7000;0.6520;2.0244;
834.0000;0.6512;2.0152;
834.3000;0.6496;2.0082;
834.6000;0.6488;2.0013;
834.9000;0.6496;2.0059;
835.2000;0.6504;2.0129;
835.5000;0.6512;2.0129;
835.8000;0.6488;2.0082;
836.1000;0.6471;2.0059;
836.4000;0.6479;2.0013;
836.7000;0.6463;2.0036;
837.0000;0.6479;2.0082;
837.3000;0.6512;2.0082;
837.6000;0.6496;2.0106;
837.9000;0.6504;2.0106;
838.2000;0.6488;2.0106;
838.5000;0.6504;2.0106;
838.8000;0.6553;2.0198;
839.1000;0.6488;2.0129;
839.4000;0.6512;2.0267;
839.7000;0.6496;2.0152;
840.0000;0.6512;2.0106;
840.3000;0.6471;2.0036;
840.6000;0.6536;2.0198;
840.9000;0.6479;2.0082;
841.2000;0.6512;1.9990;
841.5000;0.6496;1.9967;
841.8000;0.6504;1.9944;
842.1000;0.6471;1.9944;
842.4000;0.6488;2.0013;
842.7000;0.6471;2.0036;
843.0000;0.6463;2.0059;
843.3000;0.6471;2.0059;
843.6000;0.6504;2.0129;
843.9000;0.6431;2.0059;
844.2000;0.6488;2.0175;
844.5000;0.6479;2.0106;
844.8000;0.6471;2.0106;
845.1000;0.6422;2.0036;
845.4000;0.6398;2.0013;
845.7000;0.6488;2.0244;
846.0000;0.6528;2.0244;
846.3000;0.6463;2.0013;
846.6000;0.6463;2.0082;
846.9000;0.6471;2.0152;
847.2000;0.6496;2.0129;
847.5000;0.6471;1.9967;
847.8000;0.6488;2.0106;
848.1000;0.6422;1.9920;
848.4000;0.6471;2.0082;
848.7000;0.6496;2.0106;
849.0000;0.6455;2.0129;
849.3000;0.6488;2.0175;
849.6000;0.6488;2.0106;
849.9000;0.6471;2.0106;
850.2000;0.6512;2.0106;
850.5000;0.6520;2.0082;
850.8000;0.6479;2.0013;
851.1000;0.6479;1.9990;
851.4000;0.6471;2.0059;
851.7000;0.6471;2.0175;
852.0000;0.6488;2.0244;
852.3000;0.6479;2.0244;
852.6000;0.6504;2.0337;
852.9000;0.6479;2.0291;
853.2000;0.6455;2.0175;
853.5000;0.6463;2.0198;
853.8000;0.6479;2.0198;
854.1000;0.6479;2.0082;
854.4000;0.6463;2.0059;
854.7000;0.6496;2.0129;
855.0000;0.6471;2.0175;
855.3000;0.6479;2.0267;
855.6000;0.6479;2.0244;
855.9000;0.6496;2.0198;
856.2000;0.6479;2.0129;
856.5000;0.6488;2.0129;
856.8000;0.6463;2.0106;
857.1000;0.6455;2.0175;
857.4000;0.6479;2.0198;
857.7000;0.6479;2.0244;
858.0000;0.6471;2.0082;
858.3000;0.6455;2.0152;
858.6000;0.6463;2.0129;
858.9000;0.6471;2.0198;
859.2000;0.6471;2.0221;
859.5000;0.6406;2.0082;
859.8000;0.6447;2.0152;
860.1000;0.6463;2.0198;
860.4000;0.6471;2.0175;
860.7000;0.6455;2.0129;
861.0000;0.6479;2.0267;
861.3000;0.6471;2.0267;
861.6000;0.6642;2.0661;
861.9000;0.6479;2.0291;
862.2000;0.6479;2.0244;
862.5000;0.6471;2.0198;
862.8000;0.6488;2.0267;
863.1000;0.6463;2.0198;
863.4000;0.6471;2.0198;
863.7000;0.6528;2.0406;
864.0000;0.6447;2.0267;
864.3000;0.6463;2.0337;
864.6000;0.6488;2.0383;
864.9000;0.6512;2.0406;
865.2000;0.6455;2.0291;
865.5000;0.6455;2.0314;
865.8000;0.6520;2.0476;
866.1000;0.6471;2.0383;
866.4000;0.6479;2.0360;
866.7000;0.6463;2.0267;
867.0000;0.6471;2.0337;
867.3000;0.6536;2.0476;
867.6000;0.6536;2.0522;
867.9000;0.6349;2.0129;
868.2000;0.6439;2.0291;
868.5000;0.6496;2.0314;
868.8000;0.6520;2.0383;
869.1000;0.6471;2.0198;
869.4000;0.6431;2.0036;
869.7000;0.6422;2.0036;
870.0000;0.6455;2.0129;
870.3000;0.6463;2.0152;
870.6000;0.6479;2.0152;
870.9000;0.6398;2.0013;
871.2000;0.6455;2.0152;
871.5000;0.6479;2.0175;
871.8000;0.6463;2.0175;
872.1000;0.6561;2.0383;
872.4000;0.6406;2.0129;
872.7000;0.6463;2.0221;
873.0000;0.6414;2.0106;
873.3000;0.6455;2.0244;
873.6000;0.6439;2.0244;
873.9000;0.6471;2.0175;
874.2000;0.6471;1.9967;
874.5000;0.6528;2.0152;
874.8000;0.6455;1.9990;
875.1000;0.6463;2.0059;
875.4000;0.6455;2.0036;
875.7000;0.6439;2.0013;
876.0000;0.6488;2.0152;
876.3000;0.6463;2.0082;
876.6000;0.6455;2.0082;
876.9000;0.6455;2.0082;
877.2000;0.6479;2.0129;
877.5000;0.6463;2.0036;
877.8000;0.6431;2.0013;
878.1000;0.6447;2.0082;
878.4000;0.6447;2.0082;
878.7000;0.6471;2.0129;
879.0000;0.6463;2.0244;
879.3000;0.6455;2.0198;
879.6000;0.6439;2.0221;
879.9000;0.6439;2.0152;
880.2000;0.6447;2.0129;
880.5000;0.6479;2.0106;
880.8000;0.6431;1.9944;
881.1000;0.6455;2.0013;
881.4000;0.6447;1.9990;
881.7000;0.6553;2.0337;
882.0000;0.6431;2.0129;
882.3000;0.6455;2.0221;
882.6000;0.6455;2.0175;
882.9000;0.6447;2.0129;
883.2000;0.6455;2.0175;
883.5000;0.6455;2.0244;
883.8000;0.6463;2.0291;
884.1000;0.6463;2.0221;
884.4000;0.6455;2.0129;
884.7000;0.6463;2.0175;
885.0000;0.6439;2.0129;
885.3000;0.6471;2.0198;
885.6000;0.6447;2.0244;
885.9000;0.6455;2.0244;
886.2000;0.6431;2.0152;
886.5000;0.6463;2.0198;
886.8000;0.6479;2.0175;
887.1000;0.6414;2.0059;
887.4000;0.6431;2.0129;
887.7000;0.6382;1.9990;
888.0000;0.6422;2.0152;
888.3000;0.6431;2.0267;
888.6000;0.6447;2.0291;
888.9000;0.6455;2.0314;
889.2000;0.6447;2.0291;
889.5000;0.6439;2.0198;
889.8000;0.6447;2.0198;
890.1000;0.6455;2.0244;
890.4000;0.6479;2.0291;
890.7000;0.6447;2.0221;
891.0000;0.6447;2.0314;
891.3000;0.6463;2.0383;
891.6000;0.6439;2.0291;
891.9000;0.6471;2.0383;
892.2000;0.6431;2.0244;
892.5000;0.6455;2.0291;
892.8000;0.6455;2.0383;
893.1000;0.6488;2.0591;
893.4000;0.6447;2.0499;
893.7000;0.6447;2.0337;
894.0000;0.6439;2.0337;
894.3000;0.6447;2.0267;
894.6000;0.6471;2.0383;
894.9000;0.6431;2.0175;
895.2000;0.6414;2.0175;
895.5000;0.6455;2.0314;
895.8000;0.6463;2.0291;
896.1000;0.6447;2.0244;
896.4000;0.6439;2.0267;
896.7000;0.6414;2.0360;
897.0000;0.6414;2.0429;
897.3000;0.6439;2.0383;
897.6000;0.6414;2.0267;
897.9000;0.6349;2.0059;
898.2000;0.6455;2.0291;
898.5000;0.6422;2.0198;
898.8000;0.6406;2.0152;
899.1000;0.6504;2.0453;
899.4000;0.6439;2.0291;
899.7000;0.6439;2.0267;
900.0000;0.6431;2.0291;
900.3000;0.6447;2.0198;
900.6000;0.6471;2.0267;
900.9000;0.6455;2.0291;
901.2000;0.6455;2.0291;
901.5000;0.6439;2.0175;
901.8000;0.6439;2.0267;
902.1000;0.6463;2.0314;
902.4000;0.6439;2.0152;
902.7000;0.6431;2.0152;
903.0000;0.6447;2.0175;
903.3000;0.6447;2.0198;
903.6000;0.6455;2.0129;
903.9000;0.6439;2.0059;
904.2000;0.6447;2.0059;
904.5000;0.6439;1.9990;
904.8000;0.6463;2.0059;
905.1000;0.6439;2.0082;
905.4000;0.6447;2.0198;
905.7000;0.6471;2.0152;
906.0000;0.6431;2.0082;
906.3000;0.6439;2.0129;
906.6000;0.6439;2.0175;
906.9000;0.6447;2.0129;
907.2000;0.6439;2.0198;
907.5000;0.6431;2.0152;
907.8000;0.6439;2.0106;
908.1000;0.6439;2.0106;
908.4000;0.6439;2.0106;
908.7000;0.6447;2.0129;
909.0000;0.6431;2.0059;
909.3000;0.6496;2.0267;
909.6000;0.6431;2.0152;
909.9000;0.6439;2.0152;
910.2000;0.6414;2.0082;
910.5000;0.6463;2.0244;
910.8000;0.6471;2.0221;
911.1000;0.6447;2.0152;
911.4000;0.6504;2.0291;
911.7000;0.6431;2.0244;
912.0000;0.6414;2.0267;
912.3000;0.6439;2.0337;
912.6000;0.6422;2.0337;
912.9000;0.6357;2.0244;
913.2000;0.6422;2.0360;
913.5000;0.6422;2.0406;
913.8000;0.6439;2.0337;
914.1000;0.6422;2.0314;
914.4000;0.6447;2.0383;
914.7000;0.6439;2.0406;
915.0000;0.6414;2.0337;
915.3000;0.6349;2.0267;
915.6000;0.6431;2.0360;
915.9000;0.6422;2.0383;
916.2000;0.6479;2.0429;
916.5000;0.6439;2.0267;
916.8000;0.6455;2.0221;
917.1000;0.6422;2.0221;
917.4000;0.6447;2.0291;
917.7000;0.6422;2.0267;
918.0000;0.6488;2.0383;
918.3000;0.6431;2.0360;
918.6000;0.6447;2.0429;
918.9000;0.6520;2.0522;
919.2000;0.6414;2.0244;
919.5000;0.6439;2.0198;
919.8000;0.6414;2.0152;
920.1000;0.6431;2.0152;
920.4000;0.6398;2.0129;
920.7000;0.6439;2.0221;
921.0000;0.6471;2.0337;
921.3000;0.6447;2.0337;
921.6000;0.6431;2.0337;
921.9000;0.6479;2.0476;
922.2000;0.6463;2.0429;
922.5000;0.6431;2.0383;
922.8000;0.6439;2.0337;
923.1000;0.6398;2.0221;
923.4000;0.6414;2.0267;
923.7000;0.6431;2.0221;
924.0000;0.6496;2.0406;
924.3000;0.6431;2.0244;
924.6000;0.6406;2.0198;
924.9000;0.6382;2.0175;
925.2000;0.6422;2.0406;
925.5000;0.6431;2.0406;
925.8000;0.6455;2.0383;
926.1000;0.6414;2.0291;
926.4000;0.6431;2.0360;
926.7000;0.6431;2.0152;
927.0000;0.6398;2.0106;
927.3000;0.6414;2.0106;
927.6000;0.6439;2.0175;
927.9000;0.6431;2.0175;
928.2000;0.6414;2.0152;
928.5000;0.6431;2.0175;
928.8000;0.6422;2.0036;
929.1000;0.6414;2.0059;
929.4000;0.6422;1.9990;
929.7000;0.6398;1.9990;
930.0000;0.6422;2.0013;
930.3000;0.6422;2.0036;
930.6000;0.6431;2.0036;
930.9000;0.6406;2.0059;
931.2000;0.6422;2.0106;
931.5000;0.6422;2.0129;
931.8000;0.6536;2.0522;
932.1000;0.6414;2.0267;
932.4000;0.6406;2.0221;
932.7000;0.6422;2.0244;
933.0000;0.6455;2.0267;
933.3000;0.6390;2.0152;
933.6000;0.6398;2.0198;
933.9000;0.6382;2.0082;
934.2000;0.6431;2.0129;
934.5000;0.6439;2.0244;
934.8000;0.6422;2.0198;
935.1000;0.6422;2.0129;
935.4000;0.6422;2.0152;
935.7000;0.6414;2.0221;
936.0000;0.6455;2.0383;
936.3000;0.6414;2.0337;
936.6000;0.6422;2.0383;
936.9000;0.6374;2.0267;
937.2000;0.6422;2.0360;
937.5000;0.6414;2.0314;
937.8000;0.6439;2.0360;
938.1000;0.6431;2.0314;
938.4000;0.6414;2.0175;
938.7000;0.6349;2.0106;
939.0000;0.6431;2.0198;
939.3000;0.6414;2.0244;
939.6000;0.6398;2.0152;
939.9000;0.6422;2.0175;
940.2000;0.6431;2.0152;
940.5000;0.6439;2.0244;
940.8000;0.6422;2.0152;
941.1000;0.6398;2.0129;
941.4000;0.6414;2.0129;
941.7000;0.6463;2.0267;
942.0000;0.6398;2.0175;
942.3000;0.6414;2.0129;
942.6000;0.6414;2.0175;
942.9000;0.6422;2.0291;
943.2000;0.6463;2.0429;
943.5000;0.6398;2.0291;
943.8000;0.6422;2.0406;
944.1000;0.6390;2.0360;
944.4000;0.6390;2.0453;
944.7000;0.6455;2.0568;
945.0000;0.6431;2.0476;
945.3000;0.6422;2.0476;
945.6000;0.6414;2.0453;
945.9000;0.6422;2.0453;
946.2000;0.6365;2.0291;
946.5000;0.6422;2.0360;
946.8000;0.6406;2.0244;
947.1000;0.6414;2.0267;
947.4000;0.6422;2.0314;
947.7000;0.6390;2.0291;
948.0000;0.6406;2.0406;
948.3000;0.6431;2.0429;
948.6000;0.6414;2.0337;
948.9000;0.6422;2.0314;
949.2000;0.6422;2.0383;
949.5000;0.6422;2.0406;
949.8000;0.6439;2.0360;
950.1000;0.6398;2.0360;
950.4000;0.6406;2.0291;
950.7000;0.6422;2.0360;
951.0000;0.6422;2.0360;
951.3000;0.6414;2.0267;
951.6000;0.6406;2.0152;
951.9000;0.6414;2.0106;
952.2000;0.6431;2.0198;
952.5000;0.6374;2.0082;
952.8000;0.6390;2.0036;
953.1000;0.6398;2.0036;
953.4000;0.6422;2.0175;
953.7000;0.6365;2.0036;
954.0000;0.6406;2.0175;
954.3000;0.6414;2.0175;
954.6000;0.6422;2.0221;
954.9000;0.6414;2.0267;
955.2000;0.6422;2.0244;
955.5000;0.6390;2.0152;
955.8000;0.6398;2.0291;
956.1000;0.6431;2.0291;
956.4000;0.6406;2.0267;
956.7000;0.6431;2.0314;
957.0000;0.6390;2.0244;
957.3000;0.6414;2.0337;
957.6000;0.6414;2.0244;
957.9000;0.6406;2.0267;
958.2000;0.6414;2.0291;
958.5000;0.6422;2.0360;
958.8000;0.6406;2.0175;
959.1000;0.6406;2.0198;
959.4000;0.6414;2.0244;
959.7000;0.6479;2.0406;
960.0000;0.6463;2.0198;
960.3000;0.6414;2.0059;
960.6000;0.6398;2.0082;
960.9000;0.6463;2.0244;
961.2000;0.6414;2.0106;
961.5000;0.6406;2.0106;
961.8000;0.6390;2.0152;
962.1000;0.6431;2.0221;
962.4000;0.6406;2.0221;
962.7000;0.6447;2.0360;
963.0000;0.6414;2.0267;
963.3000;0.6414;2.0267;
963.6000;0.6390;2.0314;
963.9000;0.6414;2.0453;
964.2000;0.6374;2.0291;
964.5000;0.6382;2.0314;
964.8000;0.6439;2.0499;
965.1000;0.6406;2.0476;
965.4000;0.6463;2.0545;
965.7000;0.6406;2.0383;
966.0000;0.6382;2.0267;
966.3000;0.6374;2.0291;
966.6000;0.6406;2.0476;
966.9000;0.6398;2.0429;
967.2000;0.6439;2.0499;
967.5000;0.6406;2.0406;
967.8000;0.6414;2.0406;
968.1000;0.6422;2.0406;
968.4000;0.6439;2.0499;
968.7000;0.6414;2.0360;
969.0000;0.6382;2.0291;
969.3000;0.6398;2.0314;
969.6000;0.6398;2.0383;
969.9000;0.6382;2.0383;
970.2000;0.6365;2.0383;
970.5000;0.6382;2.0383;
970.8000;0.6398;2.0406;
971.1000;0.6398;2.0406;
971.4000;0.6431;2.0453;
971.7000;0.6374;2.0337;
972.0000;0.6398;2.0360;
972.3000;0.6406;2.0267;
972.6000;0.6390;2.0221;
972.9000;0.6414;2.0221;
973.2000;0.6398;2.0267;
973.5000;0.6406;2.0244;
973.8000;0.6398;2.0291;
974.1000;0.6398;2.0267;
974.4000;0.6398;2.0152;
974.7000;0.6382;2.0106;
975.0000;0.6398;2.0152;
975.3000;0.6398;2.0129;
975.6000;0.6357;2.0129;
975.9000;0.6406;2.0291;
976.2000;0.6390;2.0314;
976.5000;0.6390;2.0337;
976.8000;0.6447;2.0591;
977.1000;0.6374;2.0337;
977.4000;0.6374;2.0406;
977.7000;0.6431;2.0522;
978.0000;0.6390;2.0314;
978.3000;0.6406;2.0360;
978.6000;0.6398;2.0337;
978.9000;0.6422;2.0429;
979.2000;0.6390;2.0360;
979.5000;0.6309;2.0175;
979.8000;0.6398;2.0360;
980.1000;0.6406;2.0337;
980.4000;0.6422;2.0499;
980.7000;0.6390;2.0429;
981.0000;0.6414;2.0429;
981.3000;0.6398;2.0453;
981.6000;0.6463;2.0615;
981.9000;0.6357;2.0383;
982.2000;0.6390;2.0476;
982.5000;0.6390;2.0568;
982.8000;0.6406;2.0522;
983.1000;0.6406;2.0684;
983.4000;0.6414;2.0684;
983.7000;0.6406;2.0615;
984.0000;0.6414;2.0545;
984.3000;0.6431;2.0476;
984.6000;0.6414;2.0360;
984.9000;0.6406;2.0406;
985.2000;0.6455;2.0476;
985.5000;0.6406;2.0314;
985.8000;0.6496;2.0453;
986.1000;0.6365;2.0267;
986.4000;0.6333;2.0198;
986.7000;0.6414;2.0314;
987.0000;0.6390;2.0244;
987.3000;0.6398;2.0198;
987.6000;0.6398;2.0152;
987.9000;0.6422;2.0175;
988.2000;0.6463;2.0360;
988.5000;0.6390;2.0221;
988.8000;0.6390;2.0175;
989.1000;0.6382;2.0221;
989.4000;0.6398;2.0244;
989.7000;0.6406;2.0267;
990.0000;0.6398;2.0221;
990.3000;0.6406;2.0314;
990.6000;0.6382;2.0244;
990.9000;0.6414;2.0314;
991.2000;0.6390;2.0244;
991.5000;0.6422;2.0337;
991.8000;0.6390;2.0291;
992.1000;0.6341;2.0059;
992.4000;0.6398;2.0198;
992.7000;0.6382;2.0175;
993.0000;0.6398;2.0152;
993.3000;0.6406;2.0129;
993.6000;0.6406;2.0175;
993.9000;0.6422;2.0244;
994.2000;0.6431;2.0314;
994.5000;0.6398;2.0244;
994.8000;0.6357;2.0106;
995.1000;0.6382;2.0267;
995.4000;0.6431;2.0337;
995.7000;0.6414;2.0267;
996.0000;0.6406;2.0221;
996.3000;0.6398;2.0244;
996.6000;0.6406;2.0152;
996.9000;0.6398;2.0129;
997.2000;0.6382;2.0106;
997.5000;0.6431;2.0267;
997.8000;0.6357;2.0082;
998.1000;0.6317;1.9990;
998.4000;0.6398;2.0175;
998.7000;0.6406;2.0152;
999.0000;0.6390;2.0244;
999.3000;0.6414;2.0267;
999.6000;0.6317;2.0059;
999.9000;0.6382;2.0267;
1000.2000;0.6398;2.0383;
1000.5000;0.6471;2.0522;
1000.8000;0.6374;2.0337;
1001.1000;0.6390;2.0522;
1001.4000;0.6374;2.0429;
1001.7000;0.6374;2.0429;
1002.0000;0.6382;2.0406;
1002.3000;0.6365;2.0360;
1002.6000;0.6382;2.0337;
1002.9000;0.6382;2.0291;
1003.2000;0.6414;2.0337;
1003.5000;0.6447;2.0429;
1003.8000;0.6406;2.0383;
1004.1000;0.6422;2.0406;
1004.4000;0.6398;2.0291;
1004.7000;0.6357;2.0106;
1005.0000;0.6398;2.0198;
1005.3000;0.6390;2.0129;
1005.6000;0.6414;2.0175;
1005.9000;0.6390;2.0198;
1006.2000;0.6309;2.0036;
1006.5000;0.6382;2.0175;
1006.8000;0.6414;2.0267;
1007.1000;0.6414;2.0360;
1007.4000;0.6406;2.0314;
1007.7000;0.6414;2.0406;
1008.0000;0.6422;2.0406;
1008.3000;0.6398;2.0337;
1008.6000;0.6406;2.0453;
1008.9000;0.6292;2.0175;
1009.2000;0.6300;2.0175;
1009.5000;0.6406;2.0406;
1009.8000;0.6414;2.0360;
1010.1000;0.6406;2.0383;
1010.4000;0.6398;2.0337;
1010.7000;0.6390;2.0198;
1011.0000;0.6414;2.0175;
1011.3000;0.6390;2.0106;
1011.6000;0.6382;2.0129;
1011.9000;0.6406;2.0291;
1012.2000;0.6406;2.0360;
1012.5000;0.6390;2.0314;
1012.8000;0.6357;2.0198;
1013.1000;0.6341;2.0059;
1013.4000;0.6390;2.0152;
1013.7000;0.6390;2.0152;
1014.0000;0.6528;2.0545;
1014.3000;0.6390;2.0244;
1014.6000;0.6365;2.0244;
1014.9000;0.6390;2.0221;
1015.2000;0.6374;2.0175;
1015.5000;0.6398;2.0221;
1015.8000;0.6398;2.0267;
1016.1000;0.6374;2.0221;
1016.4000;0.6414;2.0267;
1016.7000;0.6390;2.0129;
1017.0000;0.6471;2.0244;
1017.3000;0.6398;2.0129;
1017.6000;0.6390;2.0106;
1017.9000;0.6382;2.0175;
1018.2000;0.6382;2.0221;
1018.5000;0.6390;2.0221;
1018.8000;0.6439;2.0244;
1019.1000;0.6406;2.0129;
1019.4000;0.6382;2.0082;
1019.7000;0.6390;2.0152;
1020.0000;0.6398;2.0152;
1020.3000;0.6406;2.0175;
1020.6000;0.6374;2.0059;
1020.9000;0.6398;2.0082;
1021.2000;0.6390;2.0082;
1021.5000;0.6431;2.0129;
1021.8000;0.6406;2.0106;
1022.1000;0.6382;2.0129;
1022.4000;0.6390;2.0198;
1022.7000;0.6414;2.0244;
1023.0000;0.6390;2.0198;
1023.3000;0.6374;2.0129;
1023.6000;0.6382;2.0175;
1023.9000;0.6382;2.0198;
1024.2000;0.6398;2.0244;
1024.5000;0.6398;2.0314;
1024.8000;0.6406;2.0360;
1025.1000;0.6374;2.0291;
1025.4000;0.6406;2.0360;
1025.7000;0.6382;2.0360;
1026.0000;0.6374;2.0406;
1026.3000;0.6414;2.0545;
1026.6000;0.6382;2.0476;
1026.9000;0.6374;2.0429;
1027.2000;0.6374;2.0406;
1027.5000;0.6390;2.0476;
1027.8000;0.6390;2.0429;
1028.1000;0.6382;2.0291;
1028.4000;0.6374;2.0244;
1028.7000;0.6365;2.0291;
1029.0000;0.6349;2.0360;
1029.3000;0.6390;2.0360;
1029.6000;0.6398;2.0383;
1029.9000;0.6382;2.0360;
1030.2000;0.6398;2.0383;
1030.5000;0.6357;2.0267;
1030.8000;0.6414;2.0337;
1031.1000;0.6390;2.0406;
1031.4000;0.6398;2.0406;
1031.7000;0.6439;2.0499;
1032.0000;0.6390;2.0360;
1032.3000;0.6365;2.0267;
1032.6000;0.6431;2.0360;
1032.9000;0.6463;2.0429;
1033.2000;0.6406;2.0267;
1033.5000;0.6365;2.0267;
1033.8000;0.6382;2.0267;
1034.1000;0.6349;2.0152;
1034.4000;0.6390;2.0175;
1034.7000;0.6422;2.0314;
1035.0000;0.6439;2.0337;
1035.3000;0.6398;2.0221;
1035.6000;0.6390;2.0267;
1035.9000;0.6422;2.0291;
1036.2000;0.6398;2.0267;
1036.5000;0.6382;2.0314;
1036.8000;0.6325;2.0244;
1037.1000;0.6479;2.0615;
1037.4000;0.6374;2.0383;
1037.7000;0.6382;2.0337;
1038.0000;0.6463;2.0545;
1038.3000;0.6406;2.0453;
1038.6000;0.6382;2.0360;
1038.9000;0.6374;2.0337;
1039.2000;0.6390;2.0360;
1039.5000;0.6431;2.0406;
1039.8000;0.6349;2.0175;
1040.1000;0.6365;2.0337;
1040.4000;0.6422;2.0360;
1040.7000;0.6382;2.0291;
1041.0000;0.6357;2.0221;
1041.3000;0.6382;2.0221;
1041.6000;0.6390;2.0267;
1041.9000;0.6374;2.0244;
1042.2000;0.6398;2.0314;
1042.5000;0.6390;2.0314;
1042.8000;0.6382;2.0314;
1043.1000;0.6374;2.0291;
1043.4000;0.6431;2.0337;
1043.7000;0.6398;2.0314;
1044.0000;0.6398;2.0267;
1044.3000;0.6374;2.0267;
1044.6000;0.6365;2.0291;
1044.9000;0.6365;2.0267;
1045.2000;0.6390;2.0360;
1045.5000;0.6382;2.0429;
1045.8000;0.6414;2.0476;
1046.1000;0.6390;2.0406;
1046.4000;0.6414;2.0522;
1046.7000;0.6390;2.0522;
1047.0000;0.6390;2.0499;
1047.3000;0.6317;2.0291;
1047.6000;0.6300;2.0314;
1047.9000;0.6382;2.0499;
1048.2000;0.6398;2.0522;
1048.5000;0.6374;2.0453;
1048.8000;0.6398;2.0568;
1049.1000;0.6398;2.0476;
1049.4000;0.6374;2.0429;
1049.7000;0.6357;2.0406;
1050.0000;0.6382;2.0545;
1050.3000;0.6382;2.0453;
1050.6000;0.6398;2.0476;
1050.9000;0.6390;2.0429;
1051.2000;0.6374;2.0499;
1051.5000;0.6390;2.0545;
1051.8000;0.6390;2.0591;
1052.1000;0.6365;2.0429;
1052.4000;0.6374;2.0406;
1052.7000;0.6479;2.0684;
1053.0000;0.6471;2.0615;
1053.3000;0.6382;2.0429;
1053.6000;0.6333;2.0314;
1053.9000;0.6341;2.0221;
1054.2000;0.6390;2.0406;
1054.5000;0.6374;2.0383;
1054.8000;0.6398;2.0406;
1055.1000;0.6341;2.0291;
1055.4000;0.6374;2.0429;
1055.7000;0.6365;2.0383;
1056.0000;0.6357;2.0406;
1056.3000;0.6422;2.0591;
1056.6000;0.6439;2.0615;
1056.9000;0.6374;2.0476;
1057.2000;0.6235;2.0106;
1057.5000;0.6382;2.0476;
1057.8000;0.6390;2.0453;
1058.1000;0.6382;2.0476;
1058.4000;0.6398;2.0591;
1058.7000;0.6357;2.0383;
1059.0000;0.6390;2.0406;
1059.3000;0.6455;2.0545;
1059.6000;0.6374;2.0337;
1059.9000;0.6365;2.0406;
1060.2000;0.6382;2.0453;
1060.5000;0.6374;2.0499;
1060.8000;0.6374;2.0568;
1061.1000;0.6431;2.0615;
1061.4000;0.6365;2.0406;
1061.7000;0.6374;2.0337;
1062.0000;0.6390;2.0314;
1062.3000;0.6374;2.0337;
1062.6000;0.6357;2.0360;
1062.9000;0.6374;2.0429;
1063.2000;0.6365;2.0406;
1063.5000;0.6382;2.0453;
1063.8000;0.6382;2.0476;
1064.1000;0.6374;2.0453;
1064.4000;0.6365;2.0406;
1064.7000;0.6390;2.0406;
1065.0000;0.6374;2.0337;
1065.3000;0.6382;2.0429;
1065.6000;0.6357;2.0360;
1065.9000;0.6374;2.0314;
1066.2000;0.6414;2.0337;
1066.5000;0.6349;2.0152;
1066.8000;0.6374;2.0129;
1067.1000;0.6398;2.0175;
1067.4000;0.6292;1.9874;
1067.7000;0.6382;2.0059;
1068.0000;0.6374;2.0106;
1068.3000;0.6349;2.0082;
1068.6000;0.6374;2.0198;
1068.9000;0.6357;2.0221;
1069.2000;0.6374;2.0291;
1069.5000;0.6365;2.0244;
1069.8000;0.6398;2.0383;
1070.1000;0.6365;2.0244;
1070.4000;0.6365;2.0244;
1070.7000;0.6333;2.0198;
1071.0000;0.6382;2.0314;
1071.3000;0.6365;2.0267;
1071.6000;0.6341;2.0221;
1071.9000;0.6349;2.0129;
1072.2000;0.6382;2.0198;
1072.5000;0.6390;2.0244;
1072.8000;0.6357;2.0221;
1073.1000;0.6374;2.0337;
1073.4000;0.6333;2.0244;
1073.7000;0.6365;2.0406;
1074.0000;0.6374;2.0429;
1074.3000;0.6365;2.0337;
1074.6000;0.6357;2.0337;
1074.9000;0.6349;2.0291;
1075.2000;0.6357;2.0291;
1075.5000;0.6357;2.0267;
1075.8000;0.6365;2.0129;
1076.1000;0.6357;2.0106;
1076.4000;0.6357;2.0106;
1076.7000;0.6422;2.0314;
1077.0000;0.6357;2.0152;
1077.3000;0.6374;2.0244;
1077.6000;0.6317;2.0106;
1077.9000;0.6374;2.0267;
1078.2000;0.6365;2.0175;
1078.5000;0.6374;2.0244;
1078.8000;0.6374;2.0360;
1079.1000;0.6365;2.0314;
1079.4000;0.6382;2.0337;
1079.7000;0.6374;2.0314;
1080.0000;0.6365;2.0291;
1080.3000;0.6488;2.0476;
1080.6000;0.6382;2.0244;
1080.9000;0.6382;2.0198;
1081.2000;0.6341;2.0198;
1081.5000;0.6374;2.0198;
1081.8000;0.6374;2.0175;
1082.1000;0.6374;2.0152;
1082.4000;0.6374;2.0106;
1082.7000;0.6374;2.0152;
1083.0000;0.6488;2.0406;
1083.3000;0.6447;2.0337;
1083.6000;0.6349;2.0175;
1083.9000;0.6365;2.0244;
1084.2000;0.6365;2.0314;
1084.5000;0.6382;2.0406;
1084.8000;0.6357;2.0337;
1085.1000;0.6365;2.0383;
1085.4000;0.6382;2.0453;
1085.7000;0.6349;2.0476;
1086.0000;0.6349;2.0545;
1086.3000;0.6357;2.0476;
1086.6000;0.6341;2.0383;
1086.9000;0.6365;2.0337;
1087.2000;0.6414;2.0476;
1087.5000;0.6349;2.0337;
1087.8000;0.6374;2.0406;
1088.1000;0.6447;2.0568;
1088.4000;0.6382;2.0360;
1088.7000;0.6390;2.0337;
1089.0000;0.6398;2.0522;
1089.3000;0.6357;2.0476;
1089.6000;0.6357;2.0476;
1089.9000;0.6365;2.0453;
1090.2000;0.6382;2.0476;
1090.5000;0.6357;2.0453;
1090.8000;0.6374;2.0453;
1091.1000;0.6365;2.0406;
1091.4000;0.6374;2.0406;
1091.7000;0.6374;2.0406;
1092.0000;0.6349;2.0291;
1092.3000;0.6357;2.0244;
1092.6000;0.6365;2.0129;
1092.9000;0.6349;2.0036;
1093.2000;0.6382;2.0082;
1093.5000;0.6374;2.0106;
1093.8000;0.6374;2.0244;
1094.1000;0.6365;2.0129;
1094.4000;0.6365;2.0129;
1094.7000;0.6349;2.0106;
1095.0000;0.6382;2.0129;
1095.3000;0.6374;2.0198;
1095.6000;0.6374;2.0198;
1095.9000;0.6357;2.0244;
1096.2000;0.6374;2.0198;
1096.5000;0.6365;2.0291;
1096.8000;0.6365;2.0337;
1097.1000;0.6365;2.0267;
1097.4000;0.6357;2.0221;
1097.7000;0.6365;2.0267;
1098.0000;0.6390;2.0360;
1098.3000;0.6374;2.0337;
1098.6000;0.6357;2.0314;
1098.9000;0.6365;2.0314;
1099.2000;0.6341;2.0291;
1099.5000;0.6365;2.0291;
1099.8000;0.6374;2.0267;
1100.1000;0.6374;2.0314;
1100.4000;0.6398;2.0337;
1100.7000;0.6390;2.0291;
1101.0000;0.6365;2.0175;
1101.3000;0.6374;2.0152;
1101.6000;0.6349;2.0198;
1101.9000;0.6422;2.0406;
1102.2000;0.6357;2.0267;
1102.5000;0.6374;2.0337;
1102.8000;0.6357;2.0267;
1103.1000;0.6447;2.0429;
1103.4000;0.6325;2.0106;
1103.7000;0.6382;2.0267;
1104.0000;0.6349;2.0267;
1104.3000;0.6357;2.0267;
1104.6000;0.6382;2.0314;
1104.9000;0.6357;2.0198;
1105.2000;0.6300;2.0082;
1105.5000;0.6374;2.0152;
1105.8000;0.6390;2.0244;
1106.1000;0.6390;2.0221;
1106.4000;0.6357;2.0221;
1106.7000;0.6292;2.0106;
1107.0000;0.6357;2.0198;
1107.3000;0.6374;2.0106;
1107.6000;0.6374;2.0106;
1107.9000;0.6374;2.0152;
1108.2000;0.6357;2.0106;
1108.5000;0.6390;2.0152;
1108.8000;0.6382;2.0082;
1109.1000;0.6414;2.0198;
1109.4000;0.6365;2.0152;
1109.7000;0.6374;2.0175;
1110.0000;0.6374;2.0152;
1110.3000;0.6374;2.0036;
1110.6000;0.6357;2.0082;
1110.9000;0.6357;2.0082;
1111.2000;0.6374;2.0129;
1111.5000;0.6357;2.0152;
1111.8000;0.6374;2.0198;
1112.1000;0.6357;2.0221;
1112.4000;0.6504;2.0545;
1112.7000;0.6398;2.0267;
1113.0000;0.6374;2.0291;
1113.3000;0.6382;2.0221;
1113.6000;0.6365;2.0198;
1113.9000;0.6374;2.0129;
1114.2000;0.6357;2.0175;
1114.5000;0.6382;2.0198;
1114.8000;0.6365;2.0198;
1115.1000;0.6357;2.0175;
1115.4000;0.6365;2.0244;
1115.7000;0.6349;2.0244;
1116.0000;0.6374;2.0267;
1116.3000;0.6390;2.0291;
1116.6000;0.6333;2.0082;
1116.9000;0.6374;2.0152;
1117.2000;0.6398;2.0198;
1117.5000;0.6365;2.0198;
1117.8000;0.6365;2.0106;
1118.1000;0.6357;2.0059;
1118.4000;0.6357;2.0129;
1118.7000;0.6357;2.0106;
1119.0000;0.6341;2.0106;
1119.3000;0.6382;2.0221;
1119.6000;0.6439;2.0453;
1119.9000;0.6398;2.0360;
1120.2000;0.6357;2.0360;
1120.5000;0.6374;2.0406;
1120.8000;0.6374;2.0314;
1121.1000;0.6349;2.0198;
1121.4000;0.6349;2.0221;
1121.7000;0.6365;2.0314;
1122.0000;0.6374;2.0175;
1122.3000;0.6333;2.0152;
1122.6000;0.6333;2.0129;
1122.9000;0.6365;2.0082;
1123.2000;0.6357;2.0221;
1123.5000;0.6365;2.0198;
1123.8000;0.6382;2.0175;
1124.1000;0.6365;2.0175;
1124.4000;0.6365;2.0175;
1124.7000;0.6382;2.0152;
1125.0000;0.6349;2.0152;
1125.3000;0.6374;2.0129;
1125.6000;0.6357;2.0244;
1125.9000;0.6284;2.0152;
1126.2000;0.6357;2.0291;
1126.5000;0.6390;2.0291;
1126.8000;0.6365;2.0314;
1127.1000;0.6414;2.0360;
1127.4000;0.6357;2.0152;
1127.7000;0.6365;2.0198;
1128.0000;0.6365;2.0152;
1128.3000;0.6365;2.0175;
1128.6000;0.6365;2.0082;
1128.9000;0.6357;2.0152;
1129.2000;0.6365;2.0291;
1129.5000;0.6349;2.0267;
1129.8000;0.6357;2.0291;
1130.1000;0.6374;2.0337;
1130.4000;0.6374;2.0314;
1130.7000;0.6365;2.0152;
1131.0000;0.6357;2.0129;
1131.3000;0.6382;2.0244;
1131.6000;0.6398;2.0244;
1131.9000;0.6357;2.0221;
1132.2000;0.6357;2.0291;
1132.5000;0.6357;2.0291;
1132.8000;0.6374;2.0291;
1133.1000;0.6325;2.0175;
1133.4000;0.6349;2.0244;
1133.7000;0.6357;2.0175;
1134.0000;0.6390;2.0337;
1134.3000;0.6292;2.0152;
1134.6000;0.6357;2.0337;
1134.9000;0.6374;2.0314;
1135.2000;0.6365;2.0244;
1135.5000;0.6309;2.0152;
1135.8000;0.6333;2.0175;
1136.1000;0.6374;2.0267;
1136.4000;0.6365;2.0221;
1136.7000;0.6406;2.0291;
1137.0000;0.6365;2.0337;
1137.3000;0.6357;2.0267;
1137.6000;0.6357;2.0175;
1137.9000;0.6374;2.0244;
1138.2000;0.6325;2.0152;
1138.5000;0.6365;2.0198;
1138.8000;0.6341;2.0059;
1139.1000;0.6357;2.0106;
1139.4000;0.6357;2.0129;
1139.7000;0.6422;2.0221;
1140.0000;0.6349;2.0129;
1140.3000;0.6382;2.0221;
1140.6000;0.6365;2.0198;
1140.9000;0.6374;2.0152;
1141.2000;0.6365;2.0175;
1141.5000;0.6374;2.0244;
1141.8000;0.6349;2.0314;
1142.1000;0.6365;2.0429;
1142.4000;0.6382;2.0429;
1142.7000;0.6398;2.0476;
1143.0000;0.6357;2.0337;
1143.3000;0.6390;2.0314;
1143.6000;0.6341;2.0152;
1143.9000;0.6357;2.0221;
1144.2000;0.6341;2.0244;
1144.5000;0.6382;2.0244;
1144.8000;0.6374;2.0198;
1145.1000;0.6349;2.0244;
1145.4000;0.6382;2.0314;
1145.7000;0.6349;2.0337;
1146.0000;0.6365;2.0267;
1146.3000;0.6422;2.0244;
1146.6000;0.6390;2.0314;
1146.9000;0.6365;2.0314;
1147.2000;0.6357;2.0291;
1147.5000;0.6406;2.0429;
1147.8000;0.6276;2.0175;
1148.1000;0.6365;2.0360;
1148.4000;0.6398;2.0453;
1148.7000;0.6235;2.0106;
1149.0000;0.6365;2.0383;
1149.3000;0.6357;2.0291;
1149.6000;0.6374;2.0291;
1149.9000;0.6382;2.0244;
1150.2000;0.6349;2.0244;
1150.5000;0.6439;2.0476;
1150.8000;0.6365;2.0314;
1151.1000;0.6276;2.0152;
1151.4000;0.6357;2.0221;
1151.7000;0.6390;2.0267;
1152.0000;0.6382;2.0314;
1152.3000;0.6422;2.0429;
1152.6000;0.6374;2.0267;
1152.9000;0.6365;2.0337;
1153.2000;0.6325;2.0221;
1153.5000;0.6374;2.0221;
1153.8000;0.6374;2.0152;
1154.1000;0.6300;2.0059;
1154.4000;0.6365;2.0175;
1154.7000;0.6390;2.0175;
1155.0000;0.6349;2.0129;
1155.3000;0.6357;2.0221;
1155.6000;0.6374;2.0314;
1155.9000;0.6374;2.0383;
1156.2000;0.6333;2.0383;
1156.5000;0.6333;2.0360;
1156.8000;0.6349;2.0221;
1157.1000;0.6382;2.0198;
1157.4000;0.6374;2.0129;
1157.7000;0.6349;2.0082;
1158.0000;0.6431;2.0337;
1158.3000;0.6349;2.0221;
1158.6000;0.6365;2.0152;
1158.9000;0.6382;2.0221;
1159.2000;0.6357;2.0198;
1159.5000;0.6374;2.0267;
1159.8000;0.6374;2.0152;
1160.1000;0.6357;2.0198;
1160.4000;0.6349;2.0244;
1160.7000;0.6365;2.0267;
1161.0000;0.6374;2.0244;
1161.3000;0.6390;2.0291;
1161.6000;0.6365;2.0314;
1161.9000;0.6398;2.0406;
1162.2000;0.6365;2.0476;
1162.5000;0.6357;2.0545;
1162.8000;0.6374;2.0638;
1163.1000;0.6365;2.0638;
1163.4000;0.6398;2.0684;
1163.7000;0.6341;2.0591;
1164.0000;0.6325;2.0522;
1164.3000;0.6357;2.0638;
1164.6000;0.6365;2.0707;
1164.9000;0.6390;2.0684;
1165.2000;0.6365;2.0522;
1165.5000;0.6382;2.0453;
1165.8000;0.6382;2.0453;
1166.1000;0.6349;2.0360;
1166.4000;0.6382;2.0360;
1166.7000;0.6357;2.0337;
1167.0000;0.6374;2.0291;
1167.3000;0.6398;2.0314;
1167.6000;0.6439;2.0406;
1167.9000;0.6382;2.0337;
1168.2000;0.6365;2.0360;
1168.5000;0.6365;2.0383;
1168.8000;0.6365;2.0337;
1169.1000;0.6341;2.0360;
1169.4000;0.6382;2.0360;
1169.7000;0.6341;2.0337;
1170.0000;0.6325;2.0291;
1170.3000;0.6398;2.0545;
1170.6000;0.6357;2.0429;
1170.9000;0.6365;2.0406;
1171.2000;0.6333;2.0314;
1171.5000;0.6374;2.0291;
1171.8000;0.6357;2.0244;
1172.1000;0.6349;2.0198;
1172.4000;0.6374;2.0267;
1172.7000;0.6333;2.0198;
1173.0000;0.6325;2.0198;
1173.3000;0.6390;2.0360;
1173.6000;0.6374;2.0337;
1173.9000;0.6300;2.0198;
1174.2000;0.6357;2.0244;
1174.5000;0.6357;2.0198;
1174.8000;0.6341;2.0152;
1175.1000;0.6325;2.0082;
1175.4000;0.6374;2.0129;
1175.7000;0.6357;2.0059;
1176.0000;0.6357;2.0106;
1176.3000;0.6325;2.0036;
1176.6000;0.6365;2.0175;
1176.9000;0.6357;2.0198;
1177.2000;0.6414;2.0221;
1177.5000;0.6357;2.0129;
1177.8000;0.6357;2.0129;
1178.1000;0.6349;2.0152;
1178.4000;0.6349;2.0198;
1178.7000;0.6365;2.0337;
1179.0000;0.6341;2.0291;
1179.3000;0.6349;2.0429;
1179.6000;0.6357;2.0383;
1179.9000;0.6374;2.0360;
1180.2000;0.6374;2.0383;
1180.5000;0.6374;2.0360;
1180.8000;0.6365;2.0383;
1181.1000;0.6455;2.0568;
1181.4000;0.6390;2.0453;
1181.7000;0.6374;2.0314;
1182.0000;0.6365;2.0291;
1182.3000;0.6374;2.0267;
1182.6000;0.6382;2.0337;
1182.9000;0.6357;2.0267;
1183.2000;0.6406;2.0244;
1183.5000;0.6390;2.0175;
1183.8000;0.6341;2.0036;
1184.1000;0.6390;2.0129;
1184.4000;0.6341;2.0013;
1184.7000;0.6374;2.0129;
1185.0000;0.6349;2.0129;
1185.3000;0.6349;2.0314;
1185.6000;0.6390;2.0429;
1185.9000;0.6325;2.0314;
1186.2000;0.6365;2.0406;
1186.5000;0.6382;2.0406;
1186.8000;0.6374;2.0383;
1187.1000;0.6382;2.0453;
1187.4000;0.6365;2.0499;
1187.7000;0.6382;2.0476;
1188.0000;0.6406;2.0545;
1188.3000;0.6365;2.0476;
1188.6000;0.6333;2.0360;
1188.9000;0.6357;2.0383;
1189.2000;0.6390;2.0453;
1189.5000;0.6357;2.0406;
1189.8000;0.6479;2.0707;
1190.1000;0.6365;2.0406;
1190.4000;0.6365;2.0499;
1190.7000;0.6398;2.0730;
1191.0000;0.6349;2.0545;
1191.3000;0.6365;2.0591;
1191.6000;0.6357;2.0429;
1191.9000;0.6382;2.0476;
1192.2000;0.6349;2.0360;
1192.5000;0.6365;2.0429;
1192.8000;0.6317;2.0221;
1193.1000;0.6365;2.0267;
1193.4000;0.6357;2.0267;
1193.7000;0.6414;2.0383;
1194.0000;0.6325;2.0244;
1194.3000;0.6357;2.0360;
1194.6000;0.6365;2.0337;
1194.9000;0.6374;2.0406;
1195.2000;0.6382;2.0383;
1195.5000;0.6374;2.0337;
1195.8000;0.6374;2.0429;
1196.1000;0.6341;2.0383;
1196.4000;0.6365;2.0476;
1196.7000;0.6365;2.0522;
1197.0000;0.6365;2.0453;
1197.3000;0.6431;2.0568;
1197.6000;0.6382;2.0406;
1197.9000;0.6349;2.0360;
1198.2000;0.6349;2.0314;
1198.5000;0.6398;2.0499;
1198.8000;0.6374;2.0476;
1199.1000;0.6317;2.0360;
1199.4000;0.6382;2.0476;
1199.7000;0.6365;2.0383;
1200.0000;0.6398;2.0453;
1200.3000;0.6357;2.0360;
1200.6000;0.6325;2.0360;
1200.9000;0.6349;2.0314;
1201.2000;0.6349;2.0337;
1201.5000;0.6317;2.0152;
1201.8000;0.6365;2.0337;
1202.1000;0.6431;2.0476;
1202.4000;0.6357;2.0360;
1202.7000;0.6374;2.0499;
1203.0000;0.6431;2.0638;
1203.3000;0.6374;2.0453;
1203.6000;0.6341;2.0337;
1203.9000;0.6341;2.0383;
1204.2000;0.6365;2.0499;
1204.5000;0.6309;2.0406;
1204.8000;0.6365;2.0591;
1205.1000;0.6455;2.0638;
1205.4000;0.6398;2.0406;
1205.7000;0.6382;2.0360;
1206.0000;0.6382;2.0291;
1206.3000;0.6357;2.0314;
1206.6000;0.6357;2.0360;
1206.9000;0.6390;2.0360;
1207.2000;0.6382;2.0453;
1207.5000;0.6374;2.0476;
1207.8000;0.6382;2.0499;
1208.1000;0.6382;2.0615;
1208.4000;0.6390;2.0707;
1208.7000;0.6365;2.0684;
1209.0000;0.6292;2.0429;
1209.3000;0.6365;2.0615;
1209.6000;0.6398;2.0638;
1209.9000;0.6422;2.0730;
1210.2000;0.6374;2.0522;
1210.5000;0.6357;2.0383;
1210.8000;0.6406;2.0568;
1211.1000;0.6309;2.0337;
1211.4000;0.6365;2.0406;
1211.7000;0.6317;2.0383;
1212.0000;0.6374;2.0545;
1212.3000;0.6382;2.0545;
1212.6000;0.6365;2.0545;
1212.9000;0.6357;2.0476;
1213.2000;0.6341;2.0360;
1213.5000;0.6390;2.0476;
1213.8000;0.6365;2.0476;
1214.1000;0.6341;2.0429;
1214.4000;0.6374;2.0453;
1214.7000;0.6374;2.0476;
1215.0000;0.6374;2.0615;
1215.3000;0.6357;2.0591;
1215.6000;0.6357;2.0476;
1215.9000;0.6374;2.0406;
1216.2000;0.6382;2.0337;
1216.5000;0.6349;2.0267;
1216.8000;0.6365;2.0383;
1217.1000;0.6357;2.0383;
1217.4000;0.6414;2.0476;
1217.7000;0.6374;2.0453;
1218.0000;0.6357;2.0476;
1218.3000;0.6349;2.0476;
1218.6000;0.6349;2.0499;
1218.9000;0.6349;2.0545;
1219.2000;0.6374;2.0545;
1219.5000;0.6406;2.0661;
1219.8000;0.6365;2.0499;
1220.1000;0.6365;2.0545;
1220.4000;0.6390;2.0661;
1220.7000;0.6357;2.0568;
1221.0000;0.6365;2.0615;
1221.3000;0.6382;2.0661;
1221.6000;0.6341;2.0568;
1221.9000;0.6431;2.0776;
1222.2000;0.6382;2.0522;
1222.5000;0.6398;2.0476;
1222.8000;0.6300;2.0244;
1223.1000;0.6398;2.0383;
1223.4000;0.6382;2.0221;
1223.7000;0.6365;2.0106;
1224.0000;0.6292;1.9897;
1224.3000;0.6357;2.0082;
1224.6000;0.6365;2.0291;
1224.9000;0.6357;2.0383;
1225.2000;0.6357;2.0406;
1225.5000;0.6365;2.0383;
1225.8000;0.6382;2.0360;
1226.1000;0.6382;2.0314;
1226.4000;0.6357;2.0267;
1226.7000;0.6341;2.0198;
1227.0000;0.6341;2.0152;
1227.3000;0.6349;2.0175;
1227.6000;0.6390;2.0244;
1227.9000;0.6349;2.0175;
1228.2000;0.6333;2.0152;
1228.5000;0.6431;2.0337;
1228.8000;0.6349;2.0198;
1229.1000;0.6365;2.0221;
1229.4000;0.6365;2.0221;
1229.7000;0.6374;2.0314;
1230.0000;0.6382;2.0337;
1230.3000;0.6300;2.0175;
1230.6000;0.6365;2.0406;
1230.9000;0.6374;2.0360;
1231.2000;0.6390;2.0429;
1231.5000;0.6341;2.0360;
1231.8000;0.6325;2.0291;
1232.1000;0.6349;2.0337;
1232.4000;0.6374;2.0291;
1232.7000;0.6357;2.0337;
1233.0000;0.6349;2.0383;
1233.3000;0.6357;2.0406;
1233.6000;0.6374;2.0337;
1233.9000;0.6365;2.0267;
1234.2000;0.6374;2.0291;
1234.5000;0.6349;2.0267;
1234.8000;0.6390;2.0453;
1235.1000;0.6390;2.0453;
1235.4000;0.6390;2.0406;
1235.7000;0.6357;2.0314;
1236.0000;0.6390;2.0383;
1236.3000;0.6349;2.0291;
1236.6000;0.6382;2.0337;
1236.9000;0.6349;2.0175;
1237.2000;0.6365;2.0106;
1237.5000;0.6374;2.0152;
1237.8000;0.6357;2.0129;
1238.1000;0.6317;2.0175;
1238.4000;0.6374;2.0406;
1238.7000;0.6422;2.0615;
1239.0000;0.6365;2.0568;
1239.3000;0.6341;2.0591;
1239.6000;0.6341;2.0545;
1239.9000;0.6349;2.0568;
1240.2000;0.6333;2.0591;
1240.5000;0.6365;2.0707;
1240.8000;0.6365;2.0661;
1241.1000;0.6357;2.0591;
1241.4000;0.6422;2.0638;
1241.7000;0.6333;2.0453;
1242.0000;0.6365;2.0522;
1242.3000;0.6349;2.0383;
1242.6000;0.6374;2.0429;
1242.9000;0.6333;2.0337;
1243.2000;0.6365;2.0383;
1243.5000;0.6276;2.0244;
1243.8000;0.6292;2.0383;
1244.1000;0.6357;2.0499;
1244.4000;0.6365;2.0406;
1244.7000;0.6365;2.0453;
1245.0000;0.6390;2.0591;
1245.3000;0.6374;2.0545;
1245.6000;0.6325;2.0499;
1245.9000;0.6365;2.0638;
1246.2000;0.6365;2.0661;
1246.5000;0.6268;2.0429;
1246.8000;0.6414;2.0707;
1247.1000;0.6512;2.0938;
1247.4000;0.6382;2.0684;
1247.7000;0.6382;2.0615;
1248.0000;0.6333;2.0453;
1248.3000;0.6357;2.0360;
1248.6000;0.6300;2.0106;
1248.9000;0.6365;2.0314;
1249.2000;0.6374;2.0314;
1249.5000;0.6349;2.0291;
1249.8000;0.6357;2.0314;
1250.1000;0.6406;2.0429;
1250.4000;0.6365;2.0244;
1250.7000;0.6382;2.0291;
1251.0000;0.6365;2.0198;
1251.3000;0.6341;2.0175;
1251.6000;0.6382;2.0314;
1251.9000;0.6365;2.0267;
1252.2000;0.6349;2.0314;
1252.5000;0.6333;2.0244;
1252.8000;0.6365;2.0314;
1253.1000;0.6365;2.0291;
1253.4000;0.6365;2.0244;
1253.7000;0.6357;2.0267;
1254.0000;0.6374;2.0221;
1254.3000;0.6431;2.0267;
1254.6000;0.6374;2.0152;
1254.9000;0.6390;2.0198;
1255.2000;0.6365;2.0244;
1255.5000;0.6390;2.0291;
1255.8000;0.6357;2.0175;
1256.1000;0.6365;2.0291;
1256.4000;0.6382;2.0314;
1256.7000;0.6374;2.0360;
1257.0000;0.6349;2.0267;
1257.3000;0.6365;2.0360;
1257.6000;0.6374;2.0406;
1257.9000;0.6252;2.0198;
1258.2000;0.6398;2.0522;
1258.5000;0.6349;2.0406;
1258.8000;0.6325;2.0314;
1259.1000;0.6357;2.0360;
1259.4000;0.6309;2.0314;
1259.7000;0.6390;2.0453;
1260.0000;0.6374;2.0453;
1260.3000;0.6382;2.0476;
1260.6000;0.6349;2.0383;
1260.9000;0.6439;2.0591;
1261.2000;0.6349;2.0429;
1261.5000;0.6357;2.0429;
1261.8000;0.6382;2.0453;
1262.1000;0.6365;2.0360;
1262.4000;0.6365;2.0314;
1262.7000;0.6357;2.0360;
1263.0000;0.6349;2.0453;
1263.3000;0.6309;2.0383;
1263.6000;0.6374;2.0545;
1263.9000;0.6422;2.0499;
1264.2000;0.6406;2.0337;
1264.5000;0.6365;2.0221;
1264.8000;0.6357;2.0314;
1265.1000;0.6390;2.0406;
1265.4000;0.6284;2.0198;
1265.7000;0.6406;2.0453;
1266.0000;0.6349;2.0360;
1266.3000;0.6349;2.0314;
1266.6000;0.6357;2.0337;
1266.9000;0.6382;2.0429;
1267.2000;0.6365;2.0476;
1267.5000;0.6455;2.0615;
1267.8000;0.6390;2.0453;
1268.1000;0.6439;2.0568;
1268.4000;0.6374;2.0383;
1268.7000;0.6365;2.0291;
1269.0000;0.6365;2.0314;
1269.3000;0.6365;2.0244;
1269.6000;0.6374;2.0267;
1269.9000;0.6374;2.0175;
1270.2000;0.6252;1.9897;
1270.5000;0.6357;2.0244;
1270.8000;0.6341;2.0314;
1271.1000;0.6382;2.0267;
1271.4000;0.6357;2.0175;
1271.7000;0.6374;2.0129;
1272.0000;0.6317;2.0036;
1272.3000;0.6414;2.0337;
1272.6000;0.6422;2.0267;
1272.9000;0.6349;2.0129;
1273.2000;0.6382;2.0244;
1273.5000;0.6374;2.0337;
1273.8000;0.6374;2.0360;
1274.1000;0.6349;2.0406;
1274.4000;0.6374;2.0429;
1274.7000;0.6333;2.0383;
1275.0000;0.6374;2.0453;
1275.3000;0.6374;2.0383;
1275.6000;0.6374;2.0522;
1275.9000;0.6390;2.0545;
1276.2000;0.6341;2.0499;
1276.5000;0.6398;2.0615;
1276.8000;0.6374;2.0499;
1277.1000;0.6357;2.0453;
1277.4000;0.6374;2.0476;
1277.7000;0.6357;2.0453;
1278.0000;0.6349;2.0453;
1278.3000;0.6365;2.0476;
1278.6000;0.6357;2.0476;
1278.9000;0.6374;2.0453;
1279.2000;0.6374;2.0406;
1279.5000;0.6349;2.0360;
1279.8000;0.6382;2.0406;
1280.1000;0.6357;2.0337;
1280.4000;0.6374;2.0406;
1280.7000;0.6357;2.0453;
1281.0000;0.6357;2.0499;
1281.3000;0.6317;2.0429;
1281.6000;0.6357;2.0453;
1281.9000;0.6365;2.0522;
1282.2000;0.6374;2.0453;
1282.5000;0.6422;2.0476;
1282.8000;0.6309;2.0267;
1283.1000;0.6374;2.0476;
1283.4000;0.6374;2.0383;
1283.7000;0.6349;2.0291;
1284.0000;0.6317;2.0129;
1284.3000;0.6333;2.0152;
1284.6000;0.6398;2.0175;
1284.9000;0.6365;2.0221;
1285.2000;0.6398;2.0291;
1285.5000;0.6357;2.0221;
1285.8000;0.6382;2.0175;
1286.1000;0.6382;2.0106;
1286.4000;0.6365;2.0082;
1286.7000;0.6357;2.0129;
1287.0000;0.6365;2.0175;
1287.3000;0.6365;2.0221;
1287.6000;0.6374;2.0291;
1287.9000;0.6357;2.0175;
1288.2000;0.6325;2.0036;
1288.5000;0.6374;2.0129;
1288.8000;0.6333;2.0036;
1289.1000;0.6349;2.0175;
1289.4000;0.6349;2.0106;
1289.7000;0.6349;2.0059;
1290.0000;0.6333;2.0106;
1290.3000;0.6333;2.0106;
1290.6000;0.6365;2.0152;
1290.9000;0.6349;2.0175;
1291.2000;0.6349;2.0175;
1291.5000;0.6398;2.0244;
1291.8000;0.6365;2.0244;
1292.1000;0.6374;2.0291;
1292.4000;0.6382;2.0360;
1292.7000;0.6365;2.0267;
1293.0000;0.6374;2.0198;
1293.3000;0.6382;2.0198;
1293.6000;0.6382;2.0267;
1293.9000;0.6390;2.0267;
1294.2000;0.6374;2.0291;
1294.5000;0.6374;2.0267;
1294.8000;0.6414;2.0314;
1295.1000;0.6365;2.0198;
1295.4000;0.6365;2.0244;
1295.7000;0.6382;2.0337;
1296.0000;0.6374;2.0383;
1296.3000;0.6374;2.0453;
1296.6000;0.6390;2.0429;
1296.9000;0.6374;2.0314;
1297.2000;0.6365;2.0267;
1297.5000;0.6398;2.0383;
1297.8000;0.6390;2.0337;
1298.1000;0.6382;2.0291;
1298.4000;0.6382;2.0291;
1298.7000;0.6357;2.0244;
1299.0000;0.6374;2.0267;
1299.3000;0.6349;2.0175;
1299.6000;0.6309;2.0152;
1299.9000;0.6398;2.0360;
1300.2000;0.6374;2.0360;
1300.5000;0.6349;2.0314;
1300.8000;0.6349;2.0360;
1301.1000;0.6349;2.0337;
1301.4000;0.6357;2.0291;
1301.7000;0.6349;2.0198;
1302.0000;0.6357;2.0314;
1302.3000;0.6374;2.0337;
1302.6000;0.6365;2.0337;
1302.9000;0.6357;2.0314;
1303.2000;0.6382;2.0337;
1303.5000;0.6374;2.0337;
1303.8000;0.6357;2.0221;
1304.1000;0.6382;2.0291;
1304.4000;0.6341;2.0267;
1304.7000;0.6365;2.0314;
1305.0000;0.6325;2.0244;
1305.3000;0.6357;2.0383;
1305.6000;0.6333;2.0314;
1305.9000;0.6471;2.0684;
1306.2000;0.6341;2.0360;
1306.5000;0.6365;2.0476;
1306.8000;0.6447;2.0615;
1307.1000;0.6357;2.0337;
1307.4000;0.6365;2.0360;
1307.7000;0.6349;2.0314;
1308.0000;0.6365;2.0383;
1308.3000;0.6382;2.0429;
1308.6000;0.6365;2.0453;
1308.9000;0.6341;2.0360;
1309.2000;0.6374;2.0406;
1309.5000;0.6333;2.0314;
1309.8000;0.6357;2.0360;
1310.1000;0.6365;2.0383;
1310.4000;0.6374;2.0383;
1310.7000;0.6382;2.0453;
1311.0000;0.6382;2.0337;
1311.3000;0.6382;2.0314;
1311.6000;0.6374;2.0221;
1311.9000;0.6414;2.0267;
1312.2000;0.6374;2.0152;
1312.5000;0.6374;2.0175;
1312.8000;0.6390;2.0314;
1313.1000;0.6382;2.0267;
1313.4000;0.6374;2.0221;
1313.7000;0.6357;2.0244;
1314.0000;0.6390;2.0314;
1314.3000;0.6390;2.0337;
1314.6000;0.6357;2.0244;
1314.9000;0.6357;2.0221;
1315.2000;0.6357;2.0244;
1315.5000;0.6374;2.0198;
1315.8000;0.6349;2.0198;
1316.1000;0.6349;2.0314;
1316.4000;0.6374;2.0476;
1316.7000;0.6382;2.0522;
1317.0000;0.6422;2.0522;
1317.3000;0.6374;2.0360;
1317.6000;0.6382;2.0291;
1317.9000;0.6374;2.0221;
1318.2000;0.6365;2.0244;
1318.5000;0.6357;2.0221;
1318.8000;0.6349;2.0175;
1319.1000;0.6333;2.0152;
1319.4000;0.6365;2.0267;
1319.7000;0.6382;2.0291;
1320.0000;0.6341;2.0152;
1320.3000;0.6341;2.0129;
1320.6000;0.6365;2.0337;
1320.9000;0.6365;2.0337;
1321.2000;0.6406;2.0406;
1321.5000;0.6325;2.0244;
1321.8000;0.6365;2.0221;
1322.1000;0.6341;2.0129;
1322.4000;0.6390;2.0291;
1322.7000;0.6390;2.0291;
1323.0000;0.6365;2.0337;
1323.3000;0.6455;2.0522;
1323.6000;0.6374;2.0244;
1323.9000;0.6382;2.0221;
1324.2000;0.6365;2.0129;
1324.5000;0.6341;2.0175;
1324.8000;0.6374;2.0175;
1325.1000;0.6374;2.0198;
1325.4000;0.6374;2.0106;
1325.7000;0.6390;2.0106;
1326.0000;0.6365;2.0129;
1326.3000;0.6374;2.0198;
1326.6000;0.6341;2.0175;
1326.9000;0.6365;2.0244;
1327.2000;0.6382;2.0383;
1327.5000;0.6390;2.0429;
1327.8000;0.6365;2.0360;
1328.1000;0.6374;2.0476;
1328.4000;0.6406;2.0545;
1328.7000;0.6382;2.0383;
1329.0000;0.6284;2.0198;
1329.3000;0.6414;2.0476;
1329.6000;0.6374;2.0360;
1329.9000;0.6382;2.0267;
1330.2000;0.6382;2.0221;
1330.5000;0.6365;2.0267;
1330.8000;0.6374;2.0267;
1331.1000;0.6374;2.0360;
1331.4000;0.6365;2.0267;
1331.7000;0.6365;2.0291;
1332.0000;0.6374;2.0291;
1332.3000;0.6382;2.0267;
1332.6000;0.6382;2.0337;
1332.9000;0.6365;2.0267;
1333.2000;0.6390;2.0244;
1333.5000;0.6365;2.0198;
1333.8000;0.6374;2.0314;
1334.1000;0.6390;2.0383;
1334.4000;0.6357;2.0267;
1334.7000;0.6357;2.0198;
1335.0000;0.6406;2.0360;
1335.3000;0.6414;2.0383;
1335.6000;0.6357;2.0337;
1335.9000;0.6382;2.0383;
1336.2000;0.6374;2.0314;
1336.5000;0.6349;2.0267;
1336.8000;0.6365;2.0314;
1337.1000;0.6365;2.0267;
1337.4000;0.6382;2.0291;
1337.7000;0.6382;2.0244;
1338.0000;0.6374;2.0106;
1338.3000;0.6374;2.0175;
1338.6000;0.6365;2.0267;
1338.9000;0.6382;2.0291;
1339.2000;0.6357;2.0175;
1339.5000;0.6365;2.0291;
1339.8000;0.6349;2.0314;
1340.1000;0.6374;2.0429;
1340.4000;0.6390;2.0429;
1340.7000;0.6357;2.0291;
1341.0000;0.6374;2.0337;
1341.3000;0.6365;2.0429;
1341.6000;0.6357;2.0383;
1341.9000;0.6374;2.0360;
1342.2000;0.6374;2.0383;
1342.5000;0.6374;2.0453;
1342.8000;0.6398;2.0522;
1343.1000;0.6365;2.0522;
1343.4000;0.6349;2.0545;
1343.7000;0.6374;2.0499;
1344.0000;0.6284;2.0244;
1344.3000;0.6390;2.0545;
1344.6000;0.6333;2.0499;
1344.9000;0.6374;2.0591;
1345.2000;0.6357;2.0499;
1345.5000;0.6333;2.0291;
1345.8000;0.6365;2.0314;
1346.1000;0.6365;2.0267;
1346.4000;0.6365;2.0198;
1346.7000;0.6365;2.0175;
1347.0000;0.6365;2.0082;
1347.3000;0.6357;2.0059;
1347.6000;0.6374;2.0175;
1347.9000;0.6398;2.0221;
1348.2000;0.6365;2.0106;
1348.5000;0.6390;2.0175;
1348.8000;0.6357;2.0152;
1349.1000;0.6447;2.0499;
1349.4000;0.6357;2.0267;
1349.7000;0.6357;2.0198;
1350.0000;0.6357;2.0152;
1350.3000;0.6365;2.0106;
1350.6000;0.6374;2.0129;
1350.9000;0.6341;2.0082;
1351.2000;0.6357;2.0198;
1351.5000;0.6357;2.0129;
1351.8000;0.6365;2.0129;
1352.1000;0.6374;2.0198;
1352.4000;0.6357;2.0152;
1352.7000;0.6374;2.0267;
1353.0000;0.6382;2.0244;
1353.3000;0.6309;2.0106;
1353.6000;0.6317;2.0221;
1353.9000;0.6374;2.0337;
1354.2000;0.6365;2.0291;
1354.5000;0.6382;2.0314;
1354.8000;0.6374;2.0337;
1355.1000;0.6382;2.0337;
1355.4000;0.6365;2.0337;
1355.7000;0.6349;2.0337;
1356.0000;0.6382;2.0291;
1356.3000;0.6365;2.0198;
1356.6000;0.6382;2.0244;
1356.9000;0.6341;2.0198;
1357.2000;0.6365;2.0129;
1357.5000;0.6374;2.0175;
1357.8000;0.6382;2.0267;
1358.1000;0.6365;2.0175;
1358.4000;0.6341;2.0106;
1358.7000;0.6390;2.0314;
1359.0000;0.6398;2.0383;
1359.3000;0.6357;2.0244;
1359.6000;0.6382;2.0244;
1359.9000;0.6309;2.0106;
1360.2000;0.6422;2.0476;
1360.5000;0.6398;2.0476;
1360.8000;0.6268;2.0059;
1361.1000;0.6374;2.0244;
1361.4000;0.6431;2.0291;
1361.7000;0.6398;2.0267;
1362.0000;0.6398;2.0267;
1362.3000;0.6349;2.0175;
1362.6000;0.6349;2.0244;
1362.9000;0.6317;2.0175;
1363.2000;0.6390;2.0429;
1363.5000;0.6406;2.0476;
1363.8000;0.6390;2.0476;
1364.1000;0.6374;2.0522;
1364.4000;0.6398;2.0568;
1364.7000;0.6374;2.0453;
1365.0000;0.6374;2.0406;
1365.3000;0.6382;2.0453;
1365.6000;0.6414;2.0568;
1365.9000;0.6374;2.0499;
1366.2000;0.6374;2.0476;
1366.5000;0.6365;2.0383;
1366.8000;0.6390;2.0360;
1367.1000;0.6374;2.0383;
1367.4000;0.6374;2.0337;
1367.7000;0.6349;2.0244;
1368.0000;0.6390;2.0314;
1368.3000;0.6406;2.0429;
1368.6000;0.6398;2.0429;
1368.9000;0.6365;2.0360;
1369.2000;0.6333;2.0221;
1369.5000;0.6463;2.0499;
1369.8000;0.6390;2.0314;
1370.1000;0.6365;2.0314;
1370.4000;0.6382;2.0314;
1370.7000;0.6365;2.0244;
1371.0000;0.6382;2.0314;
1371.3000;0.6374;2.0267;
1371.6000;0.6406;2.0314;
1371.9000;0.6374;2.0267;
1372.2000;0.6382;2.0082;
1372.5000;0.6374;2.0082;
1372.8000;0.6325;2.0036;
1373.1000;0.6382;2.0198;
1373.4000;0.6406;2.0198;
1373.7000;0.6349;2.0129;
1374.0000;0.6349;2.0198;
1374.3000;0.6382;2.0198;
1374.6000;0.6382;2.0198;
1374.9000;0.6365;2.0244;
1375.2000;0.6357;2.0267;
1375.5000;0.6365;2.0314;
1375.8000;0.6382;2.0337;
1376.1000;0.6374;2.0360;
1376.4000;0.6357;2.0337;
1376.7000;0.6357;2.0221;
1377.0000;0.6374;2.0221;
1377.3000;0.6374;2.0152;
1377.6000;0.6357;2.0198;
1377.9000;0.6341;2.0106;
1378.2000;0.6390;2.0221;
1378.5000;0.6357;2.0244;
1378.8000;0.6382;2.0267;
1379.1000;0.6365;2.0175;
1379.4000;0.6365;2.0152;
1379.7000;0.6365;2.0036;
1380.0000;0.6390;2.0106;
1380.3000;0.6390;2.0082;
1380.6000;0.6390;2.0129;
1380.9000;0.6406;2.0129;
1381.2000;0.6374;2.0036;
1381.5000;0.6390;2.0106;
1381.8000;0.6374;2.0013;
1382.1000;0.6365;1.9944;
1382.4000;0.6406;1.9967;
1382.7000;0.6382;1.9967;
1383.0000;0.6374;2.0013;
1383.3000;0.6382;1.9990;
1383.6000;0.6382;2.0106;
1383.9000;0.6365;2.0059;
1384.2000;0.6365;2.0013;
1384.5000;0.6365;2.0059;
1384.8000;0.6398;2.0036;
1385.1000;0.6382;2.0013;
1385.4000;0.6382;2.0036;
1385.7000;0.6382;2.0129;
1386.0000;0.6398;2.0221;
1386.3000;0.6341;2.0129;
1386.6000;0.6382;2.0244;
1386.9000;0.6365;2.0244;
1387.2000;0.6365;2.0244;
1387.5000;0.6365;2.0198;
1387.8000;0.6357;2.0198;
1388.1000;0.6382;2.0221;
1388.4000;0.6357;2.0198;
1388.7000;0.6382;2.0314;
1389.0000;0.6374;2.0267;
1389.3000;0.6365;2.0129;
1389.6000;0.6357;2.0129;
1389.9000;0.6390;2.0198;
1390.2000;0.6374;2.0175;
1390.5000;0.6390;2.0221;
1390.8000;0.6382;2.0198;
1391.1000;0.6398;2.0152;
1391.4000;0.6382;2.0152;
1391.7000;0.6382;2.0175;
1392.0000;0.6349;2.0175;
1392.3000;0.6382;2.0337;
1392.6000;0.6365;2.0221;
1392.9000;0.6382;2.0198;
1393.2000;0.6357;2.0152;
1393.5000;0.6357;2.0198;
1393.8000;0.6382;2.0244;
1394.1000;0.6374;2.0198;
1394.4000;0.6317;1.9990;
1394.7000;0.6382;2.0129;
1395.0000;0.6390;2.0152;
1395.3000;0.6398;2.0175;
1395.6000;0.6382;2.0106;
1395.9000;0.6406;2.0129;
1396.2000;0.6374;2.0106;
1396.5000;0.6382;2.0036;
1396.8000;0.6365;2.0036;
1397.1000;0.6374;2.0082;
1397.4000;0.6398;2.0244;
1397.7000;0.6365;2.0175;
1398.0000;0.6398;2.0267;
1398.3000;0.6382;2.0383;
1398.6000;0.6382;2.0406;
1398.9000;0.6398;2.0383;
1399.2000;0.6382;2.0337;
1399.5000;0.6390;2.0337;
1399.8000;0.6365;2.0291;
