time/ms;Fluo/V;P700 deltaI/I x10³;
-199.8000;0.7635;2.3553;
-199.5000;0.7635;2.3599;
-199.2000;0.7562;2.3460;
-198.9000;0.7643;2.3622;
-198.6000;0.7643;2.3576;
-198.3000;0.7660;2.3576;
-198.0000;0.7643;2.3507;
-197.7000;0.7635;2.3530;
-197.4000;0.7652;2.3576;
-197.1000;0.7635;2.3576;
-196.8000;0.7635;2.3599;
-196.5000;0.7643;2.3576;
-196.2000;0.7635;2.3645;
-195.9000;0.7652;2.3692;
-195.6000;0.7643;2.3553;
-195.3000;0.7643;2.3460;
-195.0000;0.7643;2.3321;
-194.7000;0.7635;2.3321;
-194.4000;0.7611;2.3183;
-194.1000;0.7635;2.3183;
-193.8000;0.7635;2.3275;
-193.5000;0.7652;2.3298;
-193.2000;0.7627;2.3345;
-192.9000;0.7627;2.3414;
-192.6000;0.7643;2.3460;
-192.3000;0.7627;2.3437;
-192.0000;0.7635;2.3391;
-191.7000;0.7643;2.3391;
-191.4000;0.7660;2.3414;
-191.1000;0.7643;2.3368;
-190.8000;0.7643;2.3321;
-190.5000;0.7652;2.3298;
-190.2000;0.7635;2.3321;
-189.9000;0.7635;2.3298;
-189.6000;0.7643;2.3345;
-189.3000;0.7635;2.3275;
-189.0000;0.7660;2.3345;
-188.7000;0.7643;2.3275;
-188.4000;0.7627;2.3229;
-188.1000;0.7635;2.3252;
-187.8000;0.7643;2.3298;
-187.5000;0.7635;2.3252;
-187.2000;0.7635;2.3206;
-186.9000;0.7635;2.3160;
-186.6000;0.7643;2.3206;
-186.3000;0.7660;2.3298;
-186.0000;0.7660;2.3252;
-185.7000;0.7643;2.3229;
-185.4000;0.7635;2.3275;
-185.1000;0.7643;2.3298;
-184.8000;0.7643;2.3275;
-184.5000;0.7627;2.3368;
-184.2000;0.7635;2.3391;
-183.9000;0.7668;2.3414;
-183.6000;0.7643;2.3368;
-183.3000;0.7660;2.3437;
-183.0000;0.7635;2.3345;
-182.7000;0.7643;2.3345;
-182.4000;0.7627;2.3391;
-182.1000;0.7652;2.3368;
-181.8000;0.7643;2.3391;
-181.5000;0.7652;2.3345;
-181.2000;0.7700;2.3576;
-180.9000;0.7652;2.3483;
-180.6000;0.7643;2.3460;
-180.3000;0.7668;2.3507;
-180.0000;0.7643;2.3414;
-179.7000;0.7643;2.3530;
-179.4000;0.7595;2.3391;
-179.1000;0.7611;2.3437;
-178.8000;0.7643;2.3530;
-178.5000;0.7668;2.3622;
-178.2000;0.7643;2.3507;
-177.9000;0.7627;2.3507;
-177.6000;0.7652;2.3530;
-177.3000;0.7668;2.3553;
-177.0000;0.7643;2.3507;
-176.7000;0.7643;2.3460;
-176.4000;0.7627;2.3391;
-176.1000;0.7660;2.3460;
-175.8000;0.7692;2.3507;
-175.5000;0.7643;2.3437;
-175.2000;0.7578;2.3345;
-174.9000;0.7643;2.3622;
-174.6000;0.7643;2.3622;
-174.3000;0.7603;2.3483;
-174.0000;0.7643;2.3599;
-173.7000;0.7643;2.3483;
-173.4000;0.7643;2.3460;
-173.1000;0.7652;2.3483;
-172.8000;0.7700;2.3645;
-172.5000;0.7652;2.3483;
-172.2000;0.7635;2.3414;
-171.9000;0.7643;2.3437;
-171.6000;0.7627;2.3391;
-171.3000;0.7635;2.3414;
-171.0000;0.7627;2.3391;
-170.7000;0.7635;2.3368;
-170.4000;0.7627;2.3298;
-170.1000;0.7652;2.3229;
-169.8000;0.7652;2.3160;
-169.5000;0.7660;2.3136;
-169.2000;0.7660;2.3113;
-168.9000;0.7700;2.3183;
-168.6000;0.7595;2.3021;
-168.3000;0.7635;2.3113;
-168.0000;0.7643;2.3136;
-167.7000;0.7709;2.3345;
-167.4000;0.7635;2.3345;
-167.1000;0.7635;2.3298;
-166.8000;0.7684;2.3483;
-166.5000;0.7635;2.3368;
-166.2000;0.7635;2.3298;
-165.9000;0.7627;2.3252;
-165.6000;0.7635;2.3252;
-165.3000;0.7611;2.3298;
-165.0000;0.7635;2.3391;
-164.7000;0.7660;2.3414;
-164.4000;0.7635;2.3321;
-164.1000;0.7611;2.3252;
-163.8000;0.7652;2.3298;
-163.5000;0.7635;2.3229;
-163.2000;0.7643;2.3252;
-162.9000;0.7619;2.3183;
-162.6000;0.7717;2.3460;
-162.3000;0.7643;2.3252;
-162.0000;0.7562;2.3136;
-161.7000;0.7684;2.3483;
-161.4000;0.7603;2.3345;
-161.1000;0.7619;2.3298;
-160.8000;0.7643;2.3437;
-160.5000;0.7627;2.3414;
-160.2000;0.7635;2.3391;
-159.9000;0.7652;2.3460;
-159.6000;0.7684;2.3530;
-159.3000;0.7643;2.3460;
-159.0000;0.7652;2.3460;
-158.7000;0.7586;2.3391;
-158.4000;0.7668;2.3507;
-158.1000;0.7668;2.3507;
-157.8000;0.7578;2.3275;
-157.5000;0.7627;2.3321;
-157.2000;0.7652;2.3368;
-156.9000;0.7635;2.3345;
-156.6000;0.7668;2.3437;
-156.3000;0.7668;2.3368;
-156.0000;0.7652;2.3298;
-155.7000;0.7643;2.3414;
-155.4000;0.7643;2.3483;
-155.1000;0.7643;2.3391;
-154.8000;0.7635;2.3345;
-154.5000;0.7660;2.3298;
-154.2000;0.7660;2.3252;
-153.9000;0.7643;2.3183;
-153.6000;0.7611;2.3206;
-153.3000;0.7603;2.3252;
-153.0000;0.7627;2.3345;
-152.7000;0.7643;2.3275;
-152.4000;0.7619;2.3298;
-152.1000;0.7627;2.3391;
-151.8000;0.7595;2.3391;
-151.5000;0.7619;2.3553;
-151.2000;0.7627;2.3645;
-150.9000;0.7692;2.3738;
-150.6000;0.7725;2.3877;
-150.3000;0.7635;2.3669;
-150.0000;0.7611;2.3507;
-149.7000;0.7643;2.3622;
-149.4000;0.7635;2.3507;
-149.1000;0.7586;2.3321;
-148.8000;0.7668;2.3507;
-148.5000;0.7660;2.3576;
-148.2000;0.7652;2.3483;
-147.9000;0.7635;2.3414;
-147.6000;0.7603;2.3298;
-147.3000;0.7619;2.3321;
-147.0000;0.7578;2.3206;
-146.7000;0.7643;2.3275;
-146.4000;0.7643;2.3275;
-146.1000;0.7627;2.3345;
-145.8000;0.7619;2.3345;
-145.5000;0.7619;2.3252;
-145.2000;0.7668;2.3345;
-144.9000;0.7619;2.3160;
-144.6000;0.7643;2.3275;
-144.3000;0.7643;2.3368;
-144.0000;0.7643;2.3368;
-143.7000;0.7643;2.3321;
-143.4000;0.7643;2.3368;
-143.1000;0.7635;2.3437;
-142.8000;0.7652;2.3460;
-142.5000;0.7619;2.3345;
-142.2000;0.7676;2.3414;
-141.9000;0.7627;2.3391;
-141.6000;0.7635;2.3437;
-141.3000;0.7652;2.3483;
-141.0000;0.7643;2.3391;
-140.7000;0.7643;2.3391;
-140.4000;0.7643;2.3483;
-140.1000;0.7619;2.3437;
-139.8000;0.7627;2.3414;
-139.5000;0.7684;2.3483;
-139.2000;0.7627;2.3437;
-138.9000;0.7570;2.3229;
-138.6000;0.7652;2.3437;
-138.3000;0.7643;2.3391;
-138.0000;0.7627;2.3437;
-137.7000;0.7635;2.3530;
-137.4000;0.7635;2.3507;
-137.1000;0.7660;2.3507;
-136.8000;0.7668;2.3507;
-136.5000;0.7643;2.3368;
-136.2000;0.7660;2.3275;
-135.9000;0.7643;2.3321;
-135.6000;0.7652;2.3414;
-135.3000;0.7635;2.3298;
-135.0000;0.7652;2.3275;
-134.7000;0.7660;2.3275;
-134.4000;0.7611;2.3136;
-134.1000;0.7700;2.3321;
-133.8000;0.7684;2.3275;
-133.5000;0.7660;2.3090;
-133.2000;0.7619;2.3044;
-132.9000;0.7676;2.3229;
-132.6000;0.7652;2.3229;
-132.3000;0.7643;2.3298;
-132.0000;0.7643;2.3345;
-131.7000;0.7652;2.3345;
-131.4000;0.7611;2.3229;
-131.1000;0.7676;2.3460;
-130.8000;0.7635;2.3345;
-130.5000;0.7635;2.3321;
-130.2000;0.7570;2.3183;
-129.9000;0.7627;2.3368;
-129.6000;0.7619;2.3321;
-129.3000;0.7611;2.3206;
-129.0000;0.7635;2.3275;
-128.7000;0.7643;2.3368;
-128.4000;0.7643;2.3391;
-128.1000;0.7660;2.3391;
-127.8000;0.7635;2.3345;
-127.5000;0.7635;2.3460;
-127.2000;0.7635;2.3460;
-126.9000;0.7660;2.3483;
-126.6000;0.7643;2.3321;
-126.3000;0.7619;2.3206;
-126.0000;0.7611;2.3252;
-125.7000;0.7603;2.3345;
-125.4000;0.7643;2.3414;
-125.1000;0.7652;2.3460;
-124.8000;0.7660;2.3437;
-124.5000;0.7652;2.3437;
-124.2000;0.7635;2.3391;
-123.9000;0.7660;2.3414;
-123.6000;0.7676;2.3460;
-123.3000;0.7652;2.3437;
-123.0000;0.7627;2.3368;
-122.7000;0.7643;2.3414;
-122.4000;0.7643;2.3345;
-122.1000;0.7660;2.3414;
-121.8000;0.7643;2.3437;
-121.5000;0.7643;2.3483;
-121.2000;0.7652;2.3437;
-120.9000;0.7643;2.3368;
-120.6000;0.7627;2.3298;
-120.3000;0.7603;2.3229;
-120.0000;0.7668;2.3321;
-119.7000;0.7733;2.3507;
-119.4000;0.7627;2.3252;
-119.1000;0.7709;2.3345;
-118.8000;0.7652;2.3229;
-118.5000;0.7643;2.3252;
-118.2000;0.7652;2.3183;
-117.9000;0.7652;2.3113;
-117.6000;0.7603;2.3090;
-117.3000;0.7635;2.3206;
-117.0000;0.7611;2.3136;
-116.7000;0.7611;2.3136;
-116.4000;0.7627;2.3160;
-116.1000;0.7635;2.3298;
-115.8000;0.7611;2.3321;
-115.5000;0.7611;2.3321;
-115.2000;0.7643;2.3345;
-114.9000;0.7635;2.3275;
-114.6000;0.7643;2.3345;
-114.3000;0.7635;2.3252;
-114.0000;0.7652;2.3252;
-113.7000;0.7635;2.3321;
-113.4000;0.7668;2.3345;
-113.1000;0.7676;2.3391;
-112.8000;0.7627;2.3275;
-112.5000;0.7652;2.3252;
-112.2000;0.7635;2.3321;
-111.9000;0.7652;2.3368;
-111.6000;0.7627;2.3321;
-111.3000;0.7635;2.3345;
-111.0000;0.7652;2.3391;
-110.7000;0.7668;2.3321;
-110.4000;0.7611;2.3252;
-110.1000;0.7627;2.3437;
-109.8000;0.7643;2.3483;
-109.5000;0.7668;2.3483;
-109.2000;0.7668;2.3460;
-108.9000;0.7643;2.3345;
-108.6000;0.7635;2.3275;
-108.3000;0.7627;2.3229;
-108.0000;0.7643;2.3229;
-107.7000;0.7660;2.3183;
-107.4000;0.7627;2.3113;
-107.1000;0.7643;2.3206;
-106.8000;0.7668;2.3229;
-106.5000;0.7635;2.3206;
-106.2000;0.7652;2.3298;
-105.9000;0.7725;2.3437;
-105.6000;0.7660;2.3136;
-105.3000;0.7652;2.3113;
-105.0000;0.7619;2.3021;
-104.7000;0.7603;2.2951;
-104.4000;0.7627;2.3021;
-104.1000;0.7652;2.3044;
-103.8000;0.7619;2.3044;
-103.5000;0.7627;2.3160;
-103.2000;0.7660;2.3252;
-102.9000;0.7619;2.3160;
-102.6000;0.7635;2.3206;
-102.3000;0.7619;2.3183;
-102.0000;0.7676;2.3460;
-101.7000;0.7652;2.3368;
-101.4000;0.7619;2.3252;
-101.1000;0.7652;2.3275;
-100.8000;0.7619;2.3183;
-100.5000;0.7619;2.3090;
-100.2000;0.7635;2.3113;
-99.9000;0.7627;2.2998;
-99.6000;0.7611;2.2951;
-99.3000;0.7660;2.3044;
-99.0000;0.7619;2.2998;
-98.7000;0.7635;2.3090;
-98.4000;0.7635;2.3113;
-98.1000;0.7660;2.3067;
-97.8000;0.7676;2.3113;
-97.5000;0.7684;2.3183;
-97.2000;0.7635;2.3160;
-96.9000;0.7643;2.3113;
-96.6000;0.7611;2.3044;
-96.3000;0.7611;2.3044;
-96.0000;0.7643;2.3090;
-95.7000;0.7635;2.3136;
-95.4000;0.7603;2.3160;
-95.1000;0.7643;2.3229;
-94.8000;0.7603;2.3160;
-94.5000;0.7643;2.3298;
-94.2000;0.7643;2.3252;
-93.9000;0.7635;2.3206;
-93.6000;0.7635;2.3252;
-93.3000;0.7652;2.3275;
-93.0000;0.7635;2.3252;
-92.7000;0.7643;2.3275;
-92.4000;0.7627;2.3136;
-92.1000;0.7660;2.3183;
-91.8000;0.7635;2.3160;
-91.5000;0.7635;2.3183;
-91.2000;0.7635;2.3113;
-90.9000;0.7643;2.3229;
-90.6000;0.7668;2.3345;
-90.3000;0.7627;2.3160;
-90.0000;0.7627;2.3136;
-89.7000;0.7652;2.3368;
-89.4000;0.7635;2.3391;
-89.1000;0.7652;2.3368;
-88.8000;0.7643;2.3507;
-88.5000;0.7635;2.3437;
-88.2000;0.7660;2.3483;
-87.9000;0.7635;2.3414;
-87.6000;0.7652;2.3460;
-87.3000;0.7652;2.3437;
-87.0000;0.7676;2.3391;
-86.7000;0.7611;2.3298;
-86.4000;0.7676;2.3391;
-86.1000;0.7643;2.3368;
-85.8000;0.7635;2.3368;
-85.5000;0.7635;2.3368;
-85.2000;0.7676;2.3391;
-84.9000;0.7635;2.3321;
-84.6000;0.7643;2.3345;
-84.3000;0.7603;2.3298;
-84.0000;0.7603;2.3160;
-83.7000;0.7676;2.3368;
-83.4000;0.7611;2.3298;
-83.1000;0.7643;2.3298;
-82.8000;0.7603;2.3160;
-82.5000;0.7643;2.3229;
-82.2000;0.7652;2.3275;
-81.9000;0.7619;2.3183;
-81.6000;0.7668;2.3252;
-81.3000;0.7652;2.3229;
-81.0000;0.7627;2.3136;
-80.7000;0.7668;2.3229;
-80.4000;0.7627;2.3229;
-80.1000;0.7627;2.3298;
-79.8000;0.7611;2.3368;
-79.5000;0.7643;2.3391;
-79.2000;0.7635;2.3391;
-78.9000;0.7635;2.3321;
-78.6000;0.7635;2.3298;
-78.3000;0.7627;2.3275;
-78.0000;0.7595;2.3136;
-77.7000;0.7643;2.3275;
-77.4000;0.7619;2.3160;
-77.1000;0.7635;2.3275;
-76.8000;0.7643;2.3229;
-76.5000;0.7676;2.3252;
-76.2000;0.7660;2.3183;
-75.9000;0.7652;2.3206;
-75.6000;0.7668;2.3229;
-75.3000;0.7652;2.3160;
-75.0000;0.7660;2.3206;
-74.7000;0.7643;2.3183;
-74.4000;0.7611;2.3183;
-74.1000;0.7643;2.3183;
-73.8000;0.7643;2.3113;
-73.5000;0.7643;2.3183;
-73.2000;0.7635;2.3229;
-72.9000;0.7619;2.3252;
-72.6000;0.7668;2.3437;
-72.3000;0.7635;2.3391;
-72.0000;0.7619;2.3345;
-71.7000;0.7627;2.3298;
-71.4000;0.7652;2.3368;
-71.1000;0.7635;2.3345;
-70.8000;0.7619;2.3391;
-70.5000;0.7643;2.3483;
-70.2000;0.7643;2.3483;
-69.9000;0.7643;2.3483;
-69.6000;0.7676;2.3507;
-69.3000;0.7635;2.3368;
-69.0000;0.7635;2.3321;
-68.7000;0.7627;2.3229;
-68.4000;0.7635;2.3183;
-68.1000;0.7627;2.3183;
-67.8000;0.7643;2.3229;
-67.5000;0.7635;2.3229;
-67.2000;0.7635;2.3252;
-66.9000;0.7668;2.3252;
-66.6000;0.7660;2.3252;
-66.3000;0.7652;2.3391;
-66.0000;0.7652;2.3391;
-65.7000;0.7652;2.3391;
-65.4000;0.7643;2.3368;
-65.1000;0.7643;2.3368;
-64.8000;0.7619;2.3275;
-64.5000;0.7652;2.3298;
-64.2000;0.7643;2.3183;
-63.9000;0.7668;2.3298;
-63.6000;0.7660;2.3321;
-63.3000;0.7635;2.3345;
-63.0000;0.7652;2.3437;
-62.7000;0.7619;2.3321;
-62.4000;0.7643;2.3391;
-62.1000;0.7652;2.3391;
-61.8000;0.7643;2.3391;
-61.5000;0.7643;2.3414;
-61.2000;0.7643;2.3414;
-60.9000;0.7652;2.3321;
-60.6000;0.7652;2.3275;
-60.3000;0.7627;2.3206;
-60.0000;0.7652;2.3229;
-59.7000;0.7668;2.3368;
-59.4000;0.7619;2.3275;
-59.1000;0.7619;2.3206;
-58.8000;0.7668;2.3345;
-58.5000;0.7643;2.3321;
-58.2000;0.7652;2.3298;
-57.9000;0.7643;2.3345;
-57.6000;0.7619;2.3345;
-57.3000;0.7635;2.3414;
-57.0000;0.7603;2.3345;
-56.7000;0.7635;2.3391;
-56.4000;0.7652;2.3460;
-56.1000;0.7660;2.3507;
-55.8000;0.7652;2.3437;
-55.5000;0.7627;2.3391;
-55.2000;0.7668;2.3483;
-54.9000;0.7643;2.3414;
-54.6000;0.7652;2.3414;
-54.3000;0.7635;2.3345;
-54.0000;0.7652;2.3345;
-53.7000;0.7635;2.3298;
-53.4000;0.7660;2.3275;
-53.1000;0.7643;2.3183;
-52.8000;0.7757;2.3483;
-52.5000;0.7635;2.3206;
-52.2000;0.7652;2.3252;
-51.9000;0.7660;2.3321;
-51.6000;0.7570;2.3183;
-51.3000;0.7643;2.3345;
-51.0000;0.7652;2.3345;
-50.7000;0.7676;2.3368;
-50.4000;0.7668;2.3414;
-50.1000;0.7668;2.3391;
-49.8000;0.7700;2.3391;
-49.5000;0.7660;2.3275;
-49.2000;0.7692;2.3483;
-48.9000;0.7643;2.3275;
-48.6000;0.7668;2.3391;
-48.3000;0.7635;2.3298;
-48.0000;0.7652;2.3229;
-47.7000;0.7619;2.3183;
-47.4000;0.7635;2.3160;
-47.1000;0.7635;2.3229;
-46.8000;0.7611;2.3229;
-46.5000;0.7627;2.3345;
-46.2000;0.7635;2.3321;
-45.9000;0.7627;2.3298;
-45.6000;0.7766;2.3553;
-45.3000;0.7643;2.3229;
-45.0000;0.7635;2.3136;
-44.7000;0.7635;2.3090;
-44.4000;0.7627;2.3067;
-44.1000;0.7635;2.3113;
-43.8000;0.7627;2.3067;
-43.5000;0.7562;2.3021;
-43.2000;0.7627;2.3229;
-42.9000;0.7627;2.3321;
-42.6000;0.7627;2.3298;
-42.3000;0.7635;2.3321;
-42.0000;0.7635;2.3414;
-41.7000;0.7635;2.3437;
-41.4000;0.7635;2.3437;
-41.1000;0.7652;2.3414;
-40.8000;0.7668;2.3391;
-40.5000;0.7652;2.3298;
-40.2000;0.7652;2.3252;
-39.9000;0.7643;2.3183;
-39.6000;0.7652;2.3160;
-39.3000;0.7668;2.3275;
-39.0000;0.7643;2.3229;
-38.7000;0.7635;2.3183;
-38.4000;0.7627;2.3183;
-38.1000;0.7635;2.3229;
-37.8000;0.7619;2.3183;
-37.5000;0.7635;2.3229;
-37.2000;0.7668;2.3321;
-36.9000;0.7652;2.3252;
-36.6000;0.7643;2.3183;
-36.3000;0.7652;2.3160;
-36.0000;0.7652;2.3160;
-35.7000;0.7530;2.2859;
-35.4000;0.7619;2.3113;
-35.1000;0.7635;2.3067;
-34.8000;0.7619;2.3021;
-34.5000;0.7635;2.3090;
-34.2000;0.7652;2.3136;
-33.9000;0.7627;2.3113;
-33.6000;0.7635;2.3183;
-33.3000;0.7643;2.3206;
-33.0000;0.7692;2.3275;
-32.7000;0.7668;2.3275;
-32.4000;0.7757;2.3483;
-32.1000;0.7627;2.3321;
-31.8000;0.7627;2.3345;
-31.5000;0.7643;2.3252;
-31.2000;0.7652;2.3252;
-30.9000;0.7635;2.3160;
-30.6000;0.7652;2.3136;
-30.3000;0.7643;2.3090;
-30.0000;0.7660;2.3113;
-29.7000;0.7652;2.3113;
-29.4000;0.7652;2.3206;
-29.1000;0.7643;2.3136;
-28.8000;0.7652;2.3160;
-28.5000;0.7643;2.3160;
-28.2000;0.7643;2.3090;
-27.9000;0.7652;2.3067;
-27.6000;0.7652;2.3090;
-27.3000;0.7643;2.3021;
-27.0000;0.7643;2.3090;
-26.7000;0.7643;2.3113;
-26.4000;0.7847;2.3553;
-26.1000;0.7676;2.3160;
-25.8000;0.7619;2.3090;
-25.5000;0.7603;2.3044;
-25.2000;0.7611;2.3090;
-24.9000;0.7652;2.3229;
-24.6000;0.7538;2.2928;
-24.3000;0.7643;2.3136;
-24.0000;0.7652;2.3229;
-23.7000;0.7619;2.3206;
-23.4000;0.7643;2.3298;
-23.1000;0.7595;2.3252;
-22.8000;0.7611;2.3275;
-22.5000;0.7627;2.3391;
-22.2000;0.7692;2.3437;
-21.9000;0.7652;2.3345;
-21.6000;0.7668;2.3345;
-21.3000;0.7643;2.3206;
-21.0000;0.7766;2.3483;
-20.7000;0.7611;2.3136;
-20.4000;0.7635;2.3206;
-20.1000;0.7489;2.2789;
-19.8000;0.7627;2.3113;
-19.5000;0.7586;2.3044;
-19.2000;0.7627;2.3229;
-18.9000;0.7652;2.3206;
-18.6000;0.7611;2.3090;
-18.3000;0.7627;2.3183;
-18.0000;0.7660;2.3206;
-17.7000;0.7643;2.3136;
-17.4000;0.7668;2.3160;
-17.1000;0.7660;2.3113;
-16.8000;0.7668;2.3044;
-16.5000;0.7635;2.3021;
-16.2000;0.7684;2.3136;
-15.9000;0.7635;2.3160;
-15.6000;0.7660;2.3206;
-15.3000;0.7643;2.3206;
-15.0000;0.7643;2.3206;
-14.7000;0.7660;2.3229;
-14.4000;0.7684;2.3252;
-14.1000;0.7635;2.3136;
-13.8000;0.7692;2.3252;
-13.5000;0.7668;2.3183;
-13.2000;0.7627;2.3113;
-12.9000;0.7546;2.2951;
-12.6000;0.7619;2.3136;
-12.3000;0.7611;2.3090;
-12.0000;0.7635;2.3113;
-11.7000;0.7635;2.3067;
-11.4000;0.7635;2.3067;
-11.1000;0.7619;2.3113;
-10.8000;0.7578;2.3067;
-10.5000;0.7660;2.3206;
-10.2000;0.7635;2.3160;
-9.9000;0.7627;2.3183;
-9.6000;0.7619;2.3021;
-9.3000;0.7684;2.3113;
-9.0000;0.7611;2.3044;
-8.7000;0.7652;2.3044;
-8.4000;0.7652;2.3090;
-8.1000;0.7643;2.3183;
-7.8000;0.7652;2.3298;
-7.5000;0.7635;2.3229;
-7.2000;0.7627;2.3275;
-6.9000;0.7611;2.3275;
-6.6000;0.7660;2.3298;
-6.3000;0.7652;2.3252;
-6.0000;0.7652;2.3252;
-5.7000;0.7652;2.3275;
-5.4000;0.7652;2.3229;
-5.1000;0.7652;2.3298;
-4.8000;0.7627;2.3252;
-4.5000;0.7619;2.3275;
-4.2000;0.7652;2.3298;
-3.9000;0.7595;2.3136;
-3.6000;0.7660;2.3298;
-3.3000;0.7635;2.3252;
-3.0000;0.7725;2.3414;
-2.7000;0.7635;2.3183;
-2.4000;0.7627;2.3160;
-2.1000;0.7676;2.3160;
-1.8000;0.7660;2.3229;
-1.5000;0.7603;2.3113;
-1.2000;0.7643;2.3136;
-0.9000;0.7668;2.3183;
-0.6000;0.7676;2.3275;
-0.3000;0.7790;2.3460;
0.0000;0.7790;2.3460;
0.3000;0.7635;2.3113;
0.6000;0.7643;2.3298;
0.9000;0.7635;2.3507;
1.2000;0.7635;2.3645;
1.5000;0.7611;2.3761;
1.8000;0.7611;2.3830;
2.1000;0.7603;2.3784;
2.4000;0.7643;2.3992;
2.7000;0.7652;2.4108;
3.0000;0.7652;2.4316;
3.3000;0.7635;2.4316;
3.6000;0.7635;2.4339;
3.9000;0.7684;2.4594;
4.2000;0.7668;2.4617;
4.5000;0.7700;2.4687;
4.8000;0.7652;2.4571;
5.1000;0.7652;2.4617;
5.4000;0.7668;2.4617;
5.7000;0.7668;2.4756;
6.0000;0.7676;2.4779;
6.3000;0.7668;2.4779;
6.6000;0.7684;2.4733;
6.9000;0.7643;2.4663;
7.2000;0.7684;2.4779;
7.5000;0.7684;2.4895;
7.8000;0.7700;2.4918;
8.1000;0.7692;2.4987;
8.4000;0.7692;2.4918;
8.7000;0.7660;2.4848;
9.0000;0.7676;2.4848;
9.3000;0.7700;2.4848;
9.6000;0.7700;2.4848;
9.9000;0.7709;2.4964;
10.2000;0.7692;2.4941;
10.5000;0.7700;2.4987;
10.8000;0.7660;2.4779;
11.1000;0.7806;2.5149;
11.4000;0.7709;2.4895;
11.7000;0.7676;2.4779;
12.0000;0.7709;2.4941;
12.3000;0.7717;2.4964;
12.6000;0.7700;2.4964;
12.9000;0.7709;2.5010;
13.2000;0.7725;2.5034;
13.5000;0.7725;2.4987;
13.8000;0.7709;2.4941;
14.1000;0.7717;2.4964;
14.4000;0.7709;2.4895;
14.7000;0.7717;2.4941;
15.0000;0.7725;2.4895;
15.3000;0.7725;2.4848;
15.6000;0.7725;2.4779;
15.9000;0.7741;2.4779;
16.2000;0.7749;2.4872;
16.5000;0.7725;2.4895;
16.8000;0.7733;2.4895;
17.1000;0.7733;2.4848;
17.4000;0.7766;2.4872;
17.7000;0.7741;2.4872;
18.0000;0.7725;2.4872;
18.3000;0.7766;2.4918;
18.6000;0.7741;2.4848;
18.9000;0.7741;2.4802;
19.2000;0.7741;2.4756;
19.5000;0.7757;2.4802;
19.8000;0.7749;2.4663;
20.1000;0.7733;2.4640;
20.4000;0.7725;2.4594;
20.7000;0.7749;2.4594;
21.0000;0.7757;2.4594;
21.3000;0.7700;2.4478;
21.6000;0.7733;2.4617;
21.9000;0.7757;2.4687;
22.2000;0.7749;2.4733;
22.5000;0.7749;2.4848;
22.8000;0.7757;2.4941;
23.1000;0.7741;2.4872;
23.4000;0.7741;2.4733;
23.7000;0.7741;2.4687;
24.0000;0.7757;2.4710;
24.3000;0.7733;2.4733;
24.6000;0.7774;2.4779;
24.9000;0.7749;2.4779;
25.2000;0.7766;2.4779;
25.5000;0.7709;2.4617;
25.8000;0.7749;2.4756;
26.1000;0.7774;2.4825;
26.4000;0.7798;2.4848;
26.7000;0.7757;2.4825;
27.0000;0.7766;2.4825;
27.3000;0.7790;2.4872;
27.6000;0.7782;2.4756;
27.9000;0.7757;2.4733;
28.2000;0.7749;2.4779;
28.5000;0.7757;2.4895;
28.8000;0.7782;2.4848;
29.1000;0.7774;2.4802;
29.4000;0.7757;2.4756;
29.7000;0.7774;2.4802;
30.0000;0.7782;2.4733;
30.3000;0.7798;2.4802;
30.6000;0.7766;2.4779;
30.9000;0.7757;2.4663;
31.2000;0.7766;2.4733;
31.5000;0.7757;2.4687;
31.8000;0.7757;2.4710;
32.1000;0.7741;2.4687;
32.4000;0.7782;2.4779;
32.7000;0.7774;2.4663;
33.0000;0.7757;2.4779;
33.3000;0.7766;2.4825;
33.6000;0.7774;2.4802;
33.9000;0.7790;2.4802;
34.2000;0.7766;2.4756;
34.5000;0.7774;2.4872;
34.8000;0.7733;2.4802;
35.1000;0.7749;2.4779;
35.4000;0.7782;2.4895;
35.7000;0.7709;2.4733;
36.0000;0.7749;2.4756;
36.3000;0.7790;2.4895;
36.6000;0.7766;2.4848;
36.9000;0.7741;2.4779;
37.2000;0.7782;2.4848;
37.5000;0.7766;2.4825;
37.8000;0.7782;2.4895;
38.1000;0.7749;2.4779;
38.4000;0.7766;2.4733;
38.7000;0.7782;2.4617;
39.0000;0.7798;2.4756;
39.3000;0.7774;2.4756;
39.6000;0.7757;2.4733;
39.9000;0.7766;2.4687;
40.2000;0.7782;2.4640;
40.5000;0.7766;2.4617;
40.8000;0.7782;2.4687;
41.1000;0.7766;2.4733;
41.4000;0.7766;2.4756;
41.7000;0.7774;2.4756;
42.0000;0.7806;2.4687;
42.3000;0.7798;2.4733;
42.6000;0.7782;2.4663;
42.9000;0.7782;2.4756;
43.2000;0.7782;2.4687;
43.5000;0.7782;2.4687;
43.8000;0.7782;2.4663;
44.1000;0.7790;2.4687;
44.4000;0.7782;2.4779;
44.7000;0.7709;2.4640;
45.0000;0.7774;2.4872;
45.3000;0.7757;2.4802;
45.6000;0.7782;2.4779;
45.9000;0.7798;2.4825;
46.2000;0.7790;2.4802;
46.5000;0.7790;2.4895;
46.8000;0.7823;2.4987;
47.1000;0.7798;2.4918;
47.4000;0.7774;2.4779;
47.7000;0.7733;2.4571;
48.0000;0.7798;2.4710;
48.3000;0.7782;2.4710;
48.6000;0.7798;2.4756;
48.9000;0.7774;2.4710;
49.2000;0.7814;2.4825;
49.5000;0.7847;2.4895;
49.8000;0.7766;2.4756;
50.1000;0.7766;2.4733;
50.4000;0.7757;2.4710;
50.7000;0.7839;2.4918;
51.0000;0.7782;2.4825;
51.3000;0.7774;2.4802;
51.6000;0.7774;2.4825;
51.9000;0.7790;2.4848;
52.2000;0.7790;2.4918;
52.5000;0.7782;2.4895;
52.8000;0.7782;2.4872;
53.1000;0.7774;2.4918;
53.4000;0.7774;2.4848;
53.7000;0.7782;2.4895;
54.0000;0.7774;2.4895;
54.3000;0.7798;2.4848;
54.6000;0.7790;2.4872;
54.9000;0.7766;2.4756;
55.2000;0.7766;2.4687;
55.5000;0.7782;2.4802;
55.8000;0.7774;2.4825;
56.1000;0.7782;2.4825;
56.4000;0.7757;2.4848;
56.7000;0.7782;2.4895;
57.0000;0.7814;2.4872;
57.3000;0.7806;2.4779;
57.6000;0.7798;2.4825;
57.9000;0.7798;2.4895;
58.2000;0.7798;2.4895;
58.5000;0.7790;2.4987;
58.8000;0.7798;2.5010;
59.1000;0.7766;2.4987;
59.4000;0.7790;2.5034;
59.7000;0.7774;2.5010;
60.0000;0.7774;2.5034;
60.3000;0.7790;2.5010;
60.6000;0.7790;2.4987;
60.9000;0.7790;2.4964;
61.2000;0.7749;2.4918;
61.5000;0.7774;2.4895;
61.8000;0.7774;2.4802;
62.1000;0.7790;2.4848;
62.4000;0.7782;2.4802;
62.7000;0.7782;2.4825;
63.0000;0.7782;2.4779;
63.3000;0.7814;2.4941;
63.6000;0.7798;2.4895;
63.9000;0.7774;2.4848;
64.2000;0.7880;2.5080;
64.5000;0.7798;2.4895;
64.8000;0.7798;2.4825;
65.1000;0.7774;2.4848;
65.4000;0.7766;2.4802;
65.7000;0.7774;2.4918;
66.0000;0.7782;2.4895;
66.3000;0.7766;2.4825;
66.6000;0.7757;2.4848;
66.9000;0.7774;2.4848;
67.2000;0.7709;2.4710;
67.5000;0.7749;2.4802;
67.8000;0.7774;2.4872;
68.1000;0.7798;2.4872;
68.4000;0.7831;2.5010;
68.7000;0.7782;2.4941;
69.0000;0.7725;2.4848;
69.3000;0.7774;2.5010;
69.6000;0.7782;2.5010;
69.9000;0.7839;2.5172;
70.2000;0.7782;2.5010;
70.5000;0.7766;2.4941;
70.8000;0.7790;2.4895;
71.1000;0.7782;2.4941;
71.4000;0.7757;2.4987;
71.7000;0.7774;2.5010;
72.0000;0.7782;2.4941;
72.3000;0.7782;2.5034;
72.6000;0.7782;2.5010;
72.9000;0.7766;2.5034;
73.2000;0.7766;2.4918;
73.5000;0.7823;2.4987;
73.8000;0.7798;2.4872;
74.1000;0.7749;2.4825;
74.4000;0.7774;2.4918;
74.7000;0.7806;2.5034;
75.0000;0.7814;2.5034;
75.3000;0.7790;2.4895;
75.6000;0.7806;2.4825;
75.9000;0.7798;2.4895;
76.2000;0.7798;2.4895;
76.5000;0.7798;2.4941;
76.8000;0.7774;2.4872;
77.1000;0.7790;2.4895;
77.4000;0.7790;2.4941;
77.7000;0.7790;2.4964;
78.0000;0.7766;2.4918;
78.3000;0.7831;2.5103;
78.6000;0.7798;2.5010;
78.9000;0.7798;2.4987;
79.2000;0.7790;2.4918;
79.5000;0.7782;2.4918;
79.8000;0.7823;2.4987;
80.1000;0.7831;2.4918;
80.4000;0.7782;2.4802;
80.7000;0.7782;2.4802;
81.0000;0.7782;2.4756;
81.3000;0.7790;2.4756;
81.6000;0.7774;2.4663;
81.9000;0.7782;2.4687;
82.2000;0.7798;2.4687;
82.5000;0.7790;2.4640;
82.8000;0.7823;2.4779;
83.1000;0.7774;2.4710;
83.4000;0.7757;2.4733;
83.7000;0.7798;2.4825;
84.0000;0.7888;2.4987;
84.3000;0.7790;2.4779;
84.6000;0.7725;2.4687;
84.9000;0.7798;2.4895;
85.2000;0.7766;2.4825;
85.5000;0.7782;2.4825;
85.8000;0.7774;2.4710;
86.1000;0.7766;2.4663;
86.4000;0.7774;2.4733;
86.7000;0.7790;2.4756;
87.0000;0.7798;2.4640;
87.3000;0.7774;2.4640;
87.6000;0.7798;2.4617;
87.9000;0.7749;2.4617;
88.2000;0.7814;2.4663;
88.5000;0.7774;2.4548;
88.8000;0.7798;2.4594;
89.1000;0.7717;2.4386;
89.4000;0.7798;2.4548;
89.7000;0.7774;2.4501;
90.0000;0.7790;2.4594;
90.3000;0.7798;2.4687;
90.6000;0.7863;2.4872;
90.9000;0.7831;2.4802;
91.2000;0.7774;2.4640;
91.5000;0.7782;2.4687;
91.8000;0.7798;2.4733;
92.1000;0.7766;2.4594;
92.4000;0.7798;2.4687;
92.7000;0.7782;2.4663;
93.0000;0.7814;2.4663;
93.3000;0.7774;2.4640;
93.6000;0.7896;2.4802;
93.9000;0.7798;2.4617;
94.2000;0.7782;2.4733;
94.5000;0.7790;2.4848;
94.8000;0.7757;2.4825;
95.1000;0.7798;2.4941;
95.4000;0.7790;2.4848;
95.7000;0.7782;2.4756;
96.0000;0.7782;2.4710;
96.3000;0.7790;2.4733;
96.6000;0.7798;2.4640;
96.9000;0.7790;2.4594;
97.2000;0.7790;2.4756;
97.5000;0.7790;2.4663;
97.8000;0.7798;2.4756;
98.1000;0.7790;2.4756;
98.4000;0.7798;2.4756;
98.7000;0.7790;2.4733;
99.0000;0.7741;2.4617;
99.3000;0.7790;2.4687;
99.6000;0.7790;2.4710;
99.9000;0.7676;2.4501;
100.2000;0.7782;2.4848;
100.5000;0.7774;2.4895;
100.8000;0.7774;2.4872;
101.1000;0.7741;2.4779;
101.4000;0.7814;2.4895;
101.7000;0.7806;2.4918;
102.0000;0.7774;2.4779;
102.3000;0.7766;2.4918;
102.6000;0.7749;2.4848;
102.9000;0.7757;2.4918;
103.2000;0.7766;2.4895;
103.5000;0.7774;2.4802;
103.8000;0.7782;2.4825;
104.1000;0.7774;2.4802;
104.4000;0.7774;2.4895;
104.7000;0.7782;2.4872;
105.0000;0.7757;2.4756;
105.3000;0.7831;2.4802;
105.6000;0.7790;2.4895;
105.9000;0.7790;2.4848;
106.2000;0.7774;2.4779;
106.5000;0.7790;2.4918;
106.8000;0.7814;2.4918;
107.1000;0.7717;2.4617;
107.4000;0.7766;2.4733;
107.7000;0.7749;2.4779;
108.0000;0.7774;2.4872;
108.3000;0.7806;2.4872;
108.6000;0.7774;2.4848;
108.9000;0.7757;2.4802;
109.2000;0.7790;2.4895;
109.5000;0.7774;2.4895;
109.8000;0.7782;2.4872;
110.1000;0.7774;2.4825;
110.4000;0.7888;2.5103;
110.7000;0.7798;2.4848;
111.0000;0.7831;2.4964;
111.3000;0.7798;2.4872;
111.6000;0.7806;2.4918;
111.9000;0.7766;2.4802;
112.2000;0.7790;2.4895;
112.5000;0.7774;2.4941;
112.8000;0.7774;2.4848;
113.1000;0.7749;2.4872;
113.4000;0.7806;2.4987;
113.7000;0.7733;2.4895;
114.0000;0.7766;2.4964;
114.3000;0.7798;2.5034;
114.6000;0.7814;2.4987;
114.9000;0.7806;2.4941;
115.2000;0.7774;2.4872;
115.5000;0.7741;2.4918;
115.8000;0.7823;2.5057;
116.1000;0.7766;2.4895;
116.4000;0.7774;2.4825;
116.7000;0.7798;2.4895;
117.0000;0.7782;2.4895;
117.3000;0.7660;2.4640;
117.6000;0.7855;2.4987;
117.9000;0.7798;2.4872;
118.2000;0.7782;2.4895;
118.5000;0.7774;2.4918;
118.8000;0.7782;2.4848;
119.1000;0.7733;2.4710;
119.4000;0.7790;2.4825;
119.7000;0.7774;2.4779;
120.0000;0.7766;2.4802;
120.3000;0.7700;2.4663;
120.6000;0.7790;2.4895;
120.9000;0.7757;2.4779;
121.2000;0.7782;2.4848;
121.5000;0.7782;2.4779;
121.8000;0.7766;2.4687;
122.1000;0.7798;2.4733;
122.4000;0.7823;2.4825;
122.7000;0.7798;2.4848;
123.0000;0.7757;2.4756;
123.3000;0.7798;2.4825;
123.6000;0.7782;2.4848;
123.9000;0.7766;2.4872;
124.2000;0.7766;2.4872;
124.5000;0.7790;2.4941;
124.8000;0.7790;2.4918;
125.1000;0.7814;2.4918;
125.4000;0.7782;2.4918;
125.7000;0.7766;2.4872;
126.0000;0.7766;2.4918;
126.3000;0.7749;2.4941;
126.6000;0.7700;2.4710;
126.9000;0.7782;2.4918;
127.2000;0.7782;2.4918;
127.5000;0.7774;2.4779;
127.8000;0.7782;2.4779;
128.1000;0.7766;2.4779;
128.4000;0.7766;2.4825;
128.7000;0.7782;2.4825;
129.0000;0.7766;2.4872;
129.3000;0.7757;2.4756;
129.6000;0.7725;2.4548;
129.9000;0.7790;2.4756;
130.2000;0.7749;2.4710;
130.5000;0.7790;2.4733;
130.8000;0.7823;2.4825;
131.1000;0.7790;2.4779;
131.4000;0.7774;2.4756;
131.7000;0.7733;2.4663;
132.0000;0.7806;2.4848;
132.3000;0.7782;2.4733;
132.6000;0.7798;2.4756;
132.9000;0.7782;2.4710;
133.2000;0.7774;2.4687;
133.5000;0.7782;2.4802;
133.8000;0.7814;2.4779;
134.1000;0.7806;2.4756;
134.4000;0.7831;2.4825;
134.7000;0.7798;2.4802;
135.0000;0.7774;2.4825;
135.3000;0.7774;2.4848;
135.6000;0.7766;2.4802;
135.9000;0.7757;2.4848;
136.2000;0.7790;2.4918;
136.5000;0.7782;2.4848;
136.8000;0.7757;2.4825;
137.1000;0.7782;2.4941;
137.4000;0.7766;2.4964;
137.7000;0.7798;2.5034;
138.0000;0.7766;2.4918;
138.3000;0.7741;2.4802;
138.6000;0.7782;2.4872;
138.9000;0.7774;2.4802;
139.2000;0.7766;2.4872;
139.5000;0.7774;2.4941;
139.8000;0.7790;2.5010;
140.1000;0.7766;2.4964;
140.4000;0.7766;2.4848;
140.7000;0.7766;2.4872;
141.0000;0.7790;2.4987;
141.3000;0.7774;2.5057;
141.6000;0.7782;2.5126;
141.9000;0.7766;2.5219;
142.2000;0.7774;2.5126;
142.5000;0.7717;2.4941;
142.8000;0.7774;2.5057;
143.1000;0.7847;2.5196;
143.4000;0.7814;2.4987;
143.7000;0.7774;2.4872;
144.0000;0.7831;2.5057;
144.3000;0.7749;2.4941;
144.6000;0.7766;2.5057;
144.9000;0.7774;2.5149;
145.2000;0.7774;2.5196;
145.5000;0.7774;2.5172;
145.8000;0.7749;2.5103;
146.1000;0.7757;2.5126;
146.4000;0.7790;2.5149;
146.7000;0.7717;2.4918;
147.0000;0.7749;2.4964;
147.3000;0.7790;2.5080;
147.6000;0.7709;2.4941;
147.9000;0.7774;2.5010;
148.2000;0.7757;2.4964;
148.5000;0.7774;2.4987;
148.8000;0.7766;2.4964;
149.1000;0.7790;2.5057;
149.4000;0.7782;2.5057;
149.7000;0.7725;2.5010;
150.0000;0.7774;2.4987;
150.3000;0.7782;2.4802;
150.6000;0.7823;2.4779;
150.9000;0.7766;2.4594;
151.2000;0.7774;2.4687;
151.5000;0.7790;2.4687;
151.8000;0.7847;2.4825;
152.1000;0.7676;2.4409;
152.4000;0.7766;2.4779;
152.7000;0.7757;2.4802;
153.0000;0.7774;2.4848;
153.3000;0.7766;2.4825;
153.6000;0.7749;2.4802;
153.9000;0.7798;2.4918;
154.2000;0.7798;2.4941;
154.5000;0.7790;2.4987;
154.8000;0.7774;2.4964;
155.1000;0.7766;2.4895;
155.4000;0.7782;2.4941;
155.7000;0.7766;2.4756;
156.0000;0.7774;2.4756;
156.3000;0.7766;2.4733;
156.6000;0.7766;2.4594;
156.9000;0.7790;2.4571;
157.2000;0.7790;2.4687;
157.5000;0.7790;2.4640;
157.8000;0.7766;2.4617;
158.1000;0.7774;2.4710;
158.4000;0.7741;2.4663;
158.7000;0.7774;2.4733;
159.0000;0.7766;2.4779;
159.3000;0.7798;2.4802;
159.6000;0.7757;2.4733;
159.9000;0.7766;2.4733;
160.2000;0.7774;2.4733;
160.5000;0.7790;2.4802;
160.8000;0.7774;2.4802;
161.1000;0.7766;2.4779;
161.4000;0.7766;2.4802;
161.7000;0.7806;2.4848;
162.0000;0.7798;2.4779;
162.3000;0.7757;2.4710;
162.6000;0.7806;2.4895;
162.9000;0.7790;2.4872;
163.2000;0.7814;2.4895;
163.5000;0.7798;2.4872;
163.8000;0.7774;2.4872;
164.1000;0.7782;2.4918;
164.4000;0.7757;2.4825;
164.7000;0.7839;2.5057;
165.0000;0.7774;2.4872;
165.3000;0.7749;2.4848;
165.6000;0.7757;2.4987;
165.9000;0.7766;2.5010;
166.2000;0.7774;2.4941;
166.5000;0.7782;2.4964;
166.8000;0.7774;2.5010;
167.1000;0.7782;2.5103;
167.4000;0.7766;2.5034;
167.7000;0.7766;2.5010;
168.0000;0.7774;2.5034;
168.3000;0.7749;2.4941;
168.6000;0.7766;2.4895;
168.9000;0.7766;2.4825;
169.2000;0.7806;2.4802;
169.5000;0.7782;2.4779;
169.8000;0.7774;2.4779;
170.1000;0.7766;2.4710;
170.4000;0.7782;2.4710;
170.7000;0.7790;2.4825;
171.0000;0.7774;2.4779;
171.3000;0.7774;2.4756;
171.6000;0.7774;2.4733;
171.9000;0.7774;2.4802;
172.2000;0.7790;2.4941;
172.5000;0.7774;2.4918;
172.8000;0.7790;2.4964;
173.1000;0.7782;2.4964;
173.4000;0.7798;2.4964;
173.7000;0.7782;2.4941;
174.0000;0.7782;2.4941;
174.3000;0.7782;2.4895;
174.6000;0.7790;2.4941;
174.9000;0.7847;2.5010;
175.2000;0.7831;2.4895;
175.5000;0.7774;2.4756;
175.8000;0.7798;2.4779;
176.1000;0.7757;2.4802;
176.4000;0.7766;2.4663;
176.7000;0.7766;2.4687;
177.0000;0.7774;2.4756;
177.3000;0.7774;2.4802;
177.6000;0.7774;2.4802;
177.9000;0.7766;2.4825;
178.2000;0.7774;2.4710;
178.5000;0.7766;2.4756;
178.8000;0.7782;2.4779;
179.1000;0.7766;2.4710;
179.4000;0.7766;2.4733;
179.7000;0.7790;2.4710;
180.0000;0.7782;2.4710;
180.3000;0.7766;2.4687;
180.6000;0.7774;2.4779;
180.9000;0.7766;2.4848;
181.2000;0.7782;2.4779;
181.5000;0.7782;2.4779;
181.8000;0.7831;2.4872;
182.1000;0.7774;2.4895;
182.4000;0.7766;2.4987;
182.7000;0.7766;2.5034;
183.0000;0.7757;2.4941;
183.3000;0.7774;2.4964;
183.6000;0.7774;2.4895;
183.9000;0.7774;2.4918;
184.2000;0.7757;2.4987;
184.5000;0.7774;2.4918;
184.8000;0.7757;2.4848;
185.1000;0.7790;2.4848;
185.4000;0.7798;2.4756;
185.7000;0.7766;2.4710;
186.0000;0.7823;2.4733;
186.3000;0.7766;2.4571;
186.6000;0.7790;2.4687;
186.9000;0.7782;2.4663;
187.2000;0.7790;2.4663;
187.5000;0.7782;2.4687;
187.8000;0.7766;2.4733;
188.1000;0.7831;2.4872;
188.4000;0.7790;2.4848;
188.7000;0.7782;2.4872;
189.0000;0.7782;2.4872;
189.3000;0.7749;2.4756;
189.6000;0.7774;2.4872;
189.9000;0.7774;2.4895;
190.2000;0.7749;2.4895;
190.5000;0.7766;2.4941;
190.8000;0.7757;2.4964;
191.1000;0.7782;2.5010;
191.4000;0.7766;2.4964;
191.7000;0.7790;2.4941;
192.0000;0.7757;2.4756;
192.3000;0.7766;2.4779;
192.6000;0.7757;2.4825;
192.9000;0.7766;2.4895;
193.2000;0.7766;2.4872;
193.5000;0.7774;2.4848;
193.8000;0.7766;2.4733;
194.1000;0.7774;2.4710;
194.4000;0.7774;2.4640;
194.7000;0.7766;2.4687;
195.0000;0.7774;2.4872;
195.3000;0.7749;2.4779;
195.6000;0.7766;2.4825;
195.9000;0.7774;2.4825;
196.2000;0.7782;2.4733;
196.5000;0.7766;2.4571;
196.8000;0.7717;2.4432;
197.1000;0.7782;2.4548;
197.4000;0.7757;2.4525;
197.7000;0.7774;2.4733;
198.0000;0.7782;2.4802;
198.3000;0.7733;2.4710;
198.6000;0.7757;2.4802;
198.9000;0.7757;2.4733;
199.2000;0.7774;2.4733;
199.5000;0.7766;2.4710;
199.8000;0.7741;2.4663;
200.1000;0.7774;2.4756;
200.4000;0.7766;2.4756;
200.7000;0.7757;2.4687;
201.0000;0.7749;2.4733;
201.3000;0.7766;2.4710;
201.6000;0.7709;2.4594;
201.9000;0.7782;2.4687;
202.2000;0.7774;2.4710;
202.5000;0.7749;2.4617;
202.8000;0.7717;2.4548;
203.1000;0.7757;2.4663;
203.4000;0.7774;2.4663;
203.7000;0.7782;2.4756;
204.0000;0.7790;2.4779;
204.3000;0.7733;2.4548;
204.6000;0.7766;2.4640;
204.9000;0.7757;2.4594;
205.2000;0.7749;2.4640;
205.5000;0.7774;2.4756;
205.8000;0.7757;2.4710;
206.1000;0.7774;2.4687;
206.4000;0.7774;2.4663;
206.7000;0.7774;2.4779;
207.0000;0.7782;2.4779;
207.3000;0.7774;2.4779;
207.6000;0.7814;2.4964;
207.9000;0.7839;2.4964;
208.2000;0.7782;2.4848;
208.5000;0.7766;2.4895;
208.8000;0.7790;2.4872;
209.1000;0.7741;2.4802;
209.4000;0.7774;2.4941;
209.7000;0.7766;2.4941;
210.0000;0.7757;2.4964;
210.3000;0.7782;2.5057;
210.6000;0.7766;2.4918;
210.9000;0.7774;2.4918;
211.2000;0.7749;2.4918;
211.5000;0.7766;2.4941;
211.8000;0.7749;2.4987;
212.1000;0.7774;2.4918;
212.4000;0.7798;2.4941;
212.7000;0.7823;2.4918;
213.0000;0.7814;2.4918;
213.3000;0.7790;2.4872;
213.6000;0.7774;2.4756;
213.9000;0.7749;2.4663;
214.2000;0.7823;2.4802;
214.5000;0.7766;2.4687;
214.8000;0.7782;2.4640;
215.1000;0.7766;2.4640;
215.4000;0.7668;2.4432;
215.7000;0.7774;2.4710;
216.0000;0.7782;2.4756;
216.3000;0.7733;2.4687;
216.6000;0.7766;2.4756;
216.9000;0.7814;2.4918;
217.2000;0.7766;2.4825;
217.5000;0.7766;2.4779;
217.8000;0.7766;2.4779;
218.1000;0.7790;2.4941;
218.4000;0.7790;2.4941;
218.7000;0.7774;2.4872;
219.0000;0.7774;2.4918;
219.3000;0.7774;2.4918;
219.6000;0.7766;2.4895;
219.9000;0.7766;2.4802;
220.2000;0.7741;2.4779;
220.5000;0.7774;2.4802;
220.8000;0.7733;2.4687;
221.1000;0.7774;2.4733;
221.4000;0.7766;2.4733;
221.7000;0.7774;2.4802;
222.0000;0.7757;2.4825;
222.3000;0.7749;2.4895;
222.6000;0.7749;2.4872;
222.9000;0.7774;2.4872;
223.2000;0.7774;2.4848;
223.5000;0.7741;2.4802;
223.8000;0.7749;2.4779;
224.1000;0.7741;2.4733;
224.4000;0.7774;2.4779;
224.7000;0.7766;2.4756;
225.0000;0.7757;2.4756;
225.3000;0.7757;2.4825;
225.6000;0.7766;2.4779;
225.9000;0.7733;2.4779;
226.2000;0.7774;2.4825;
226.5000;0.7757;2.4733;
226.8000;0.7749;2.4710;
227.1000;0.7774;2.4825;
227.4000;0.7749;2.4779;
227.7000;0.7749;2.4733;
228.0000;0.7774;2.4756;
228.3000;0.7757;2.4710;
228.6000;0.7741;2.4733;
228.9000;0.7757;2.4756;
229.2000;0.7757;2.4687;
229.5000;0.7749;2.4687;
229.8000;0.7766;2.4640;
230.1000;0.7782;2.4687;
230.4000;0.7782;2.4710;
230.7000;0.7766;2.4710;
231.0000;0.7717;2.4617;
231.3000;0.7774;2.4687;
231.6000;0.7766;2.4710;
231.9000;0.7741;2.4548;
232.2000;0.7774;2.4571;
232.5000;0.7741;2.4548;
232.8000;0.7766;2.4710;
233.1000;0.7757;2.4756;
233.4000;0.7831;2.4918;
233.7000;0.7774;2.4802;
234.0000;0.7757;2.4848;
234.3000;0.7741;2.4802;
234.6000;0.7782;2.4872;
234.9000;0.7766;2.4848;
235.2000;0.7774;2.4918;
235.5000;0.7749;2.4895;
235.8000;0.7766;2.4918;
236.1000;0.7806;2.4964;
236.4000;0.7798;2.4964;
236.7000;0.7766;2.4802;
237.0000;0.7766;2.4825;
237.3000;0.7782;2.4733;
237.6000;0.7766;2.4733;
237.9000;0.7766;2.4687;
238.2000;0.7757;2.4571;
238.5000;0.7782;2.4640;
238.8000;0.7782;2.4663;
239.1000;0.7774;2.4710;
239.4000;0.7717;2.4687;
239.7000;0.7757;2.4594;
240.0000;0.7766;2.4617;
240.3000;0.7798;2.4710;
240.6000;0.7766;2.4756;
240.9000;0.7766;2.4756;
241.2000;0.7766;2.4733;
241.5000;0.7774;2.4802;
241.8000;0.7798;2.4872;
242.1000;0.7766;2.4872;
242.4000;0.7741;2.4756;
242.7000;0.7774;2.4848;
243.0000;0.7774;2.4848;
243.3000;0.7757;2.4779;
243.6000;0.7766;2.4848;
243.9000;0.7757;2.4872;
244.2000;0.7766;2.4872;
244.5000;0.7757;2.4848;
244.8000;0.7741;2.4848;
245.1000;0.7766;2.4825;
245.4000;0.7757;2.4802;
245.7000;0.7782;2.4756;
246.0000;0.7757;2.4756;
246.3000;0.7757;2.4779;
246.6000;0.7774;2.4964;
246.9000;0.7774;2.4895;
247.2000;0.7782;2.4918;
247.5000;0.7757;2.4895;
247.8000;0.7766;2.4825;
248.1000;0.7749;2.4779;
248.4000;0.7774;2.4848;
248.7000;0.7798;2.4941;
249.0000;0.7774;2.4895;
249.3000;0.7717;2.4779;
249.6000;0.7757;2.4848;
249.9000;0.7757;2.4802;
250.2000;0.7790;2.4756;
250.5000;0.7774;2.4802;
250.8000;0.7749;2.4733;
251.1000;0.7766;2.4802;
251.4000;0.7692;2.4663;
251.7000;0.7757;2.4918;
252.0000;0.7766;2.4918;
252.3000;0.7766;2.4872;
252.6000;0.7757;2.4802;
252.9000;0.7749;2.4825;
253.2000;0.7790;2.4987;
253.5000;0.7741;2.4941;
253.8000;0.7749;2.4918;
254.1000;0.7774;2.4848;
254.4000;0.7774;2.4802;
254.7000;0.7766;2.4710;
255.0000;0.7774;2.4663;
255.3000;0.7782;2.4594;
255.6000;0.7774;2.4687;
255.9000;0.7766;2.4733;
256.2000;0.7774;2.4733;
256.5000;0.7782;2.4756;
256.8000;0.7782;2.4825;
257.1000;0.7757;2.4710;
257.4000;0.7814;2.4733;
257.7000;0.7766;2.4687;
258.0000;0.7749;2.4733;
258.3000;0.7733;2.4663;
258.6000;0.7757;2.4733;
258.9000;0.7766;2.4663;
259.2000;0.7774;2.4733;
259.5000;0.7741;2.4617;
259.8000;0.7798;2.4802;
260.1000;0.7806;2.4710;
260.4000;0.7700;2.4478;
260.7000;0.7766;2.4733;
261.0000;0.7652;2.4432;
261.3000;0.7766;2.4640;
261.6000;0.7790;2.4756;
261.9000;0.7741;2.4663;
262.2000;0.7684;2.4501;
262.5000;0.7709;2.4617;
262.8000;0.7774;2.4756;
263.1000;0.7741;2.4756;
263.4000;0.7823;2.4895;
263.7000;0.7766;2.4710;
264.0000;0.7774;2.4733;
264.3000;0.7757;2.4756;
264.6000;0.7766;2.4802;
264.9000;0.7757;2.4802;
265.2000;0.7774;2.4848;
265.5000;0.7774;2.4756;
265.8000;0.7774;2.4756;
266.1000;0.7774;2.4779;
266.4000;0.7774;2.4687;
266.7000;0.7766;2.4687;
267.0000;0.7766;2.4640;
267.3000;0.7757;2.4571;
267.6000;0.7766;2.4687;
267.9000;0.7733;2.4663;
268.2000;0.7774;2.4733;
268.5000;0.7774;2.4825;
268.8000;0.7709;2.4710;
269.1000;0.7749;2.4872;
269.4000;0.7774;2.4895;
269.7000;0.7790;2.4895;
270.0000;0.7774;2.4895;
270.3000;0.7766;2.4848;
270.6000;0.7766;2.4987;
270.9000;0.7684;2.4756;
271.2000;0.7766;2.4941;
271.5000;0.7766;2.4895;
271.8000;0.7790;2.4895;
272.1000;0.7774;2.4825;
272.4000;0.7749;2.4756;
272.7000;0.7790;2.4848;
273.0000;0.7774;2.4825;
273.3000;0.7757;2.4733;
273.6000;0.7749;2.4687;
273.9000;0.7757;2.4640;
274.2000;0.7749;2.4594;
274.5000;0.7757;2.4571;
274.8000;0.7766;2.4571;
275.1000;0.7749;2.4525;
275.4000;0.7700;2.4409;
275.7000;0.7741;2.4617;
276.0000;0.7766;2.4802;
276.3000;0.7741;2.4872;
276.6000;0.7782;2.4895;
276.9000;0.7766;2.4802;
277.2000;0.7749;2.4710;
277.5000;0.7774;2.4779;
277.8000;0.7749;2.4710;
278.1000;0.7749;2.4733;
278.4000;0.7774;2.4848;
278.7000;0.7766;2.4918;
279.0000;0.7766;2.4987;
279.3000;0.7766;2.4872;
279.6000;0.7831;2.4941;
279.9000;0.7733;2.4733;
280.2000;0.7782;2.4802;
280.5000;0.7766;2.4779;
280.8000;0.7757;2.4779;
281.1000;0.7782;2.4872;
281.4000;0.7774;2.4848;
281.7000;0.7757;2.4895;
282.0000;0.7774;2.4802;
282.3000;0.7782;2.4710;
282.6000;0.7774;2.4756;
282.9000;0.7749;2.4733;
283.2000;0.7782;2.4710;
283.5000;0.7814;2.4733;
283.8000;0.7757;2.4640;
284.1000;0.7757;2.4640;
284.4000;0.7757;2.4617;
284.7000;0.7766;2.4733;
285.0000;0.7782;2.4872;
285.3000;0.7757;2.4756;
285.6000;0.7757;2.4687;
285.9000;0.7766;2.4687;
286.2000;0.7741;2.4548;
286.5000;0.7806;2.4687;
286.8000;0.7741;2.4687;
287.1000;0.7774;2.4802;
287.4000;0.7774;2.4872;
287.7000;0.7757;2.4825;
288.0000;0.7733;2.4663;
288.3000;0.7757;2.4710;
288.6000;0.7749;2.4663;
288.9000;0.7757;2.4663;
289.2000;0.7749;2.4640;
289.5000;0.7766;2.4756;
289.8000;0.7774;2.4825;
290.1000;0.7766;2.4756;
290.4000;0.7774;2.4710;
290.7000;0.7757;2.4663;
291.0000;0.7749;2.4663;
291.3000;0.7757;2.4802;
291.6000;0.7749;2.4802;
291.9000;0.7839;2.4987;
292.2000;0.7782;2.4802;
292.5000;0.7766;2.4802;
292.8000;0.7774;2.4756;
293.1000;0.7709;2.4617;
293.4000;0.7782;2.4756;
293.7000;0.7766;2.4710;
294.0000;0.7757;2.4687;
294.3000;0.7766;2.4640;
294.6000;0.7709;2.4548;
294.9000;0.7757;2.4640;
295.2000;0.7757;2.4594;
295.5000;0.7749;2.4617;
295.8000;0.7766;2.4663;
296.1000;0.7757;2.4710;
296.4000;0.7757;2.4825;
296.7000;0.7741;2.4918;
297.0000;0.7741;2.4918;
297.3000;0.7766;2.4848;
297.6000;0.7766;2.4825;
297.9000;0.7749;2.4802;
298.2000;0.7790;2.4872;
298.5000;0.7709;2.4640;
298.8000;0.7766;2.4640;
299.1000;0.7749;2.4687;
299.4000;0.7766;2.4733;
299.7000;0.7757;2.4640;
300.0000;0.7790;2.4779;
300.3000;0.7757;2.4779;
300.6000;0.7766;2.4802;
300.9000;0.7749;2.4848;
301.2000;0.7725;2.4802;
301.5000;0.7757;2.4756;
301.8000;0.7700;2.4594;
302.1000;0.7766;2.4756;
302.4000;0.7757;2.4710;
302.7000;0.7782;2.4872;
303.0000;0.7749;2.4895;
303.3000;0.7741;2.4872;
303.6000;0.7774;2.4987;
303.9000;0.7782;2.4964;
304.2000;0.7757;2.4964;
304.5000;0.7766;2.4872;
304.8000;0.7741;2.4848;
305.1000;0.7774;2.4941;
305.4000;0.7782;2.4964;
305.7000;0.7741;2.4895;
306.0000;0.7766;2.4848;
306.3000;0.7766;2.4825;
306.6000;0.7766;2.4825;
306.9000;0.7749;2.4779;
307.2000;0.7774;2.4802;
307.5000;0.7766;2.4825;
307.8000;0.7757;2.4733;
308.1000;0.7774;2.4756;
308.4000;0.7774;2.4733;
308.7000;0.7766;2.4802;
309.0000;0.7709;2.4687;
309.3000;0.7774;2.4941;
309.6000;0.7774;2.4964;
309.9000;0.7692;2.4825;
310.2000;0.7782;2.5080;
310.5000;0.7757;2.5080;
310.8000;0.7782;2.5103;
311.1000;0.7757;2.5010;
311.4000;0.7774;2.5010;
311.7000;0.7766;2.5010;
312.0000;0.7766;2.4918;
312.3000;0.7749;2.4825;
312.6000;0.7757;2.4802;
312.9000;0.7757;2.4802;
313.2000;0.7782;2.4895;
313.5000;0.7757;2.4964;
313.8000;0.7717;2.4895;
314.1000;0.7790;2.5057;
314.4000;0.7782;2.4964;
314.7000;0.7782;2.4987;
315.0000;0.7749;2.4895;
315.3000;0.7774;2.4895;
315.6000;0.7757;2.4941;
315.9000;0.7774;2.4941;
316.2000;0.7749;2.4895;
316.5000;0.7749;2.4918;
316.8000;0.7757;2.4895;
317.1000;0.7717;2.4825;
317.4000;0.7757;2.4964;
317.7000;0.7749;2.4964;
318.0000;0.7766;2.4941;
318.3000;0.7733;2.4825;
318.6000;0.7766;2.4779;
318.9000;0.7766;2.4802;
319.2000;0.7749;2.4733;
319.5000;0.7774;2.4872;
319.8000;0.7782;2.4848;
320.1000;0.7766;2.4802;
320.4000;0.7766;2.4918;
320.7000;0.7766;2.4964;
321.0000;0.7733;2.4848;
321.3000;0.7757;2.4872;
321.6000;0.7757;2.4825;
321.9000;0.7782;2.4941;
322.2000;0.7757;2.4848;
322.5000;0.7757;2.4918;
322.8000;0.7806;2.4987;
323.1000;0.7757;2.4941;
323.4000;0.7709;2.4779;
323.7000;0.7766;2.4941;
324.0000;0.7774;2.4964;
324.3000;0.7766;2.4895;
324.6000;0.7782;2.4941;
324.9000;0.7774;2.4918;
325.2000;0.7757;2.4941;
325.5000;0.7668;2.4733;
325.8000;0.7741;2.4848;
326.1000;0.7749;2.4941;
326.4000;0.7741;2.4918;
326.7000;0.7766;2.4895;
327.0000;0.7774;2.4848;
327.3000;0.7766;2.4987;
327.6000;0.7766;2.5010;
327.9000;0.7774;2.5034;
328.2000;0.7774;2.5010;
328.5000;0.7766;2.4964;
328.8000;0.7774;2.4895;
329.1000;0.7798;2.5010;
329.4000;0.7798;2.5010;
329.7000;0.7774;2.4987;
330.0000;0.7766;2.4825;
330.3000;0.7766;2.4756;
330.6000;0.7749;2.4756;
330.9000;0.7798;2.4872;
331.2000;0.7782;2.4756;
331.5000;0.7725;2.4710;
331.8000;0.7766;2.4802;
332.1000;0.7774;2.4756;
332.4000;0.7774;2.4687;
332.7000;0.7757;2.4571;
333.0000;0.7823;2.4756;
333.3000;0.7831;2.4756;
333.6000;0.7766;2.4594;
333.9000;0.7757;2.4617;
334.2000;0.7741;2.4617;
334.5000;0.7766;2.4779;
334.8000;0.7757;2.4872;
335.1000;0.7749;2.4802;
335.4000;0.7749;2.4802;
335.7000;0.7757;2.4825;
336.0000;0.7741;2.4756;
336.3000;0.7725;2.4756;
336.6000;0.7733;2.4756;
336.9000;0.7741;2.4825;
337.2000;0.7757;2.4895;
337.5000;0.7757;2.4848;
337.8000;0.7757;2.4872;
338.1000;0.7782;2.4964;
338.4000;0.7766;2.4848;
338.7000;0.7757;2.4779;
339.0000;0.7766;2.4756;
339.3000;0.7766;2.4756;
339.6000;0.7741;2.4848;
339.9000;0.7766;2.4918;
340.2000;0.7766;2.4918;
340.5000;0.7749;2.4872;
340.8000;0.7766;2.4918;
341.1000;0.7766;2.4895;
341.4000;0.7749;2.4802;
341.7000;0.7717;2.4687;
342.0000;0.7733;2.4733;
342.3000;0.7757;2.4756;
342.6000;0.7749;2.4802;
342.9000;0.7733;2.4733;
343.2000;0.7790;2.4802;
343.5000;0.7757;2.4710;
343.8000;0.7774;2.4779;
344.1000;0.7766;2.4756;
344.4000;0.7749;2.4733;
344.7000;0.7757;2.4756;
345.0000;0.7757;2.4733;
345.3000;0.7749;2.4733;
345.6000;0.7741;2.4733;
345.9000;0.7831;2.5010;
346.2000;0.7757;2.4895;
346.5000;0.7798;2.5080;
346.8000;0.7790;2.4987;
347.1000;0.7757;2.4964;
347.4000;0.7749;2.4872;
347.7000;0.7741;2.4872;
348.0000;0.7757;2.4802;
348.3000;0.7725;2.4687;
348.6000;0.7757;2.4756;
348.9000;0.7766;2.4733;
349.2000;0.7741;2.4687;
349.5000;0.7749;2.4779;
349.8000;0.7823;2.4964;
350.1000;0.7733;2.4825;
350.4000;0.7749;2.4802;
350.7000;0.7757;2.4802;
351.0000;0.7749;2.4779;
351.3000;0.7798;2.4918;
351.6000;0.7749;2.4964;
351.9000;0.7757;2.4941;
352.2000;0.7757;2.5057;
352.5000;0.7774;2.5057;
352.8000;0.7757;2.4987;
353.1000;0.7717;2.4918;
353.4000;0.7757;2.4987;
353.7000;0.7782;2.5057;
354.0000;0.7741;2.4964;
354.3000;0.7757;2.4964;
354.6000;0.7774;2.4872;
354.9000;0.7782;2.4918;
355.2000;0.7733;2.4918;
355.5000;0.7725;2.4848;
355.8000;0.7766;2.4941;
356.1000;0.7741;2.4848;
356.4000;0.7855;2.5103;
356.7000;0.7749;2.4802;
357.0000;0.7814;2.4848;
357.3000;0.7757;2.4663;
357.6000;0.7774;2.4733;
357.9000;0.7766;2.4802;
358.2000;0.7749;2.4802;
358.5000;0.7741;2.4756;
358.8000;0.7749;2.4779;
359.1000;0.7766;2.4802;
359.4000;0.7757;2.4802;
359.7000;0.7757;2.4848;
360.0000;0.7766;2.4918;
360.3000;0.7774;2.4964;
360.6000;0.7749;2.4895;
360.9000;0.7741;2.4964;
361.2000;0.7757;2.4987;
361.5000;0.7749;2.4895;
361.8000;0.7757;2.4987;
362.1000;0.7757;2.5010;
362.4000;0.7725;2.4918;
362.7000;0.7766;2.4918;
363.0000;0.7757;2.4964;
363.3000;0.7757;2.4987;
363.6000;0.7766;2.4964;
363.9000;0.7757;2.5010;
364.2000;0.7757;2.4987;
364.5000;0.7757;2.4918;
364.8000;0.7814;2.4987;
365.1000;0.7774;2.4872;
365.4000;0.7774;2.4918;
365.7000;0.7749;2.4872;
366.0000;0.7749;2.4872;
366.3000;0.7757;2.4872;
366.6000;0.7782;2.4895;
366.9000;0.7749;2.4756;
367.2000;0.7757;2.4802;
367.5000;0.7749;2.4848;
367.8000;0.7749;2.4918;
368.1000;0.7774;2.5010;
368.4000;0.7766;2.5010;
368.7000;0.7725;2.4941;
369.0000;0.7757;2.5010;
369.3000;0.7749;2.5010;
369.6000;0.7766;2.4941;
369.9000;0.7823;2.5126;
370.2000;0.7766;2.5057;
370.5000;0.7814;2.5126;
370.8000;0.7847;2.5149;
371.1000;0.7766;2.4895;
371.4000;0.7668;2.4640;
371.7000;0.7733;2.4941;
372.0000;0.7741;2.4918;
372.3000;0.7676;2.4779;
372.6000;0.7741;2.4872;
372.9000;0.7749;2.4941;
373.2000;0.7855;2.5126;
373.5000;0.7741;2.4895;
373.8000;0.7741;2.5034;
374.1000;0.7774;2.4987;
374.4000;0.7757;2.4987;
374.7000;0.7741;2.4895;
375.0000;0.7741;2.5010;
375.3000;0.7766;2.5057;
375.6000;0.7774;2.5010;
375.9000;0.7757;2.4941;
376.2000;0.7766;2.5057;
376.5000;0.7766;2.5080;
376.8000;0.7766;2.4987;
377.1000;0.7749;2.4964;
377.4000;0.7749;2.4918;
377.7000;0.7749;2.4895;
378.0000;0.7766;2.4848;
378.3000;0.7741;2.4872;
378.6000;0.7749;2.4779;
378.9000;0.7733;2.4825;
379.2000;0.7741;2.4825;
379.5000;0.7774;2.4895;
379.8000;0.7741;2.4941;
380.1000;0.7741;2.5010;
380.4000;0.7749;2.5080;
380.7000;0.7733;2.5010;
381.0000;0.7692;2.4848;
381.3000;0.7741;2.4941;
381.6000;0.7774;2.5034;
381.9000;0.7766;2.5080;
382.2000;0.7757;2.5034;
382.5000;0.7749;2.5010;
382.8000;0.7733;2.5010;
383.1000;0.7814;2.5242;
383.4000;0.7766;2.5103;
383.7000;0.7749;2.5010;
384.0000;0.7757;2.5034;
384.3000;0.7766;2.5034;
384.6000;0.7749;2.5034;
384.9000;0.7774;2.5057;
385.2000;0.7749;2.5010;
385.5000;0.7757;2.5103;
385.8000;0.7766;2.5242;
386.1000;0.7782;2.5219;
386.4000;0.7782;2.5172;
386.7000;0.7757;2.5103;
387.0000;0.7766;2.5196;
387.3000;0.7766;2.5172;
387.6000;0.7766;2.5126;
387.9000;0.7774;2.5172;
388.2000;0.7749;2.5196;
388.5000;0.7749;2.5149;
388.8000;0.7684;2.5010;
389.1000;0.7757;2.5172;
389.4000;0.7766;2.5103;
389.7000;0.7774;2.5126;
390.0000;0.7757;2.5034;
390.3000;0.7741;2.5034;
390.6000;0.7757;2.5057;
390.9000;0.7766;2.5034;
391.2000;0.7749;2.4987;
391.5000;0.7757;2.5080;
391.8000;0.7757;2.4987;
392.1000;0.7766;2.4964;
392.4000;0.7725;2.4825;
392.7000;0.7757;2.4872;
393.0000;0.7757;2.4987;
393.3000;0.7757;2.4964;
393.6000;0.7757;2.4987;
393.9000;0.7741;2.4848;
394.2000;0.7717;2.4848;
394.5000;0.7733;2.4872;
394.8000;0.7782;2.5010;
395.1000;0.7741;2.4895;
395.4000;0.7717;2.4848;
395.7000;0.7757;2.4895;
396.0000;0.7757;2.4941;
396.3000;0.7766;2.4918;
396.6000;0.7692;2.4825;
396.9000;0.7749;2.4964;
397.2000;0.7790;2.5057;
397.5000;0.7766;2.4895;
397.8000;0.7741;2.4825;
398.1000;0.7749;2.4895;
398.4000;0.7749;2.4895;
398.7000;0.7757;2.4895;
399.0000;0.7741;2.4987;
399.3000;0.7757;2.5010;
399.6000;0.7717;2.4941;
399.9000;0.7709;2.4848;
400.2000;0.7790;2.4987;
400.5000;0.7733;2.4848;
400.8000;0.7741;2.4802;
401.1000;0.7749;2.4918;
401.4000;0.7757;2.4825;
401.7000;0.7766;2.4895;
402.0000;0.7757;2.4802;
402.3000;0.7741;2.4733;
402.6000;0.7749;2.4872;
402.9000;0.7749;2.4895;
403.2000;0.7766;2.5034;
403.5000;0.7741;2.5010;
403.8000;0.7700;2.4895;
404.1000;0.7741;2.5010;
404.4000;0.7741;2.5034;
404.7000;0.7749;2.5057;
405.0000;0.7741;2.5080;
405.3000;0.7749;2.5057;
405.6000;0.7741;2.5057;
405.9000;0.7741;2.5149;
406.2000;0.7741;2.5126;
406.5000;0.7749;2.5172;
406.8000;0.7757;2.5242;
407.1000;0.7741;2.5126;
407.4000;0.7741;2.5126;
407.7000;0.7766;2.5126;
408.0000;0.7725;2.5103;
408.3000;0.7757;2.5080;
408.6000;0.7749;2.5034;
408.9000;0.7749;2.4918;
409.2000;0.7749;2.4895;
409.5000;0.7749;2.4895;
409.8000;0.7774;2.4987;
410.1000;0.7676;2.4710;
410.4000;0.7749;2.4895;
410.7000;0.7741;2.4848;
411.0000;0.7774;2.4941;
411.3000;0.7733;2.4895;
411.6000;0.7790;2.4918;
411.9000;0.7774;2.4987;
412.2000;0.7782;2.5034;
412.5000;0.7766;2.4941;
412.8000;0.7749;2.4964;
413.1000;0.7676;2.4756;
413.4000;0.7709;2.4848;
413.7000;0.7774;2.4918;
414.0000;0.7733;2.4756;
414.3000;0.7733;2.4710;
414.6000;0.7725;2.4710;
414.9000;0.7717;2.4687;
415.2000;0.7692;2.4710;
415.5000;0.7749;2.4872;
415.8000;0.7741;2.4733;
416.1000;0.7749;2.4710;
416.4000;0.7725;2.4663;
416.7000;0.7757;2.4802;
417.0000;0.7774;2.4918;
417.3000;0.7749;2.4848;
417.6000;0.7790;2.5010;
417.9000;0.7757;2.5057;
418.2000;0.7733;2.5080;
418.5000;0.7733;2.5080;
418.8000;0.7733;2.4987;
419.1000;0.7741;2.4918;
419.4000;0.7774;2.4941;
419.7000;0.7733;2.4848;
420.0000;0.7749;2.4895;
420.3000;0.7749;2.4848;
420.6000;0.7757;2.4918;
420.9000;0.7733;2.4918;
421.2000;0.7733;2.4941;
421.5000;0.7749;2.5010;
421.8000;0.7757;2.4941;
422.1000;0.7757;2.4872;
422.4000;0.7749;2.4872;
422.7000;0.7766;2.4872;
423.0000;0.7774;2.4964;
423.3000;0.7733;2.4848;
423.6000;0.7725;2.4825;
423.9000;0.7790;2.4964;
424.2000;0.7741;2.4872;
424.5000;0.7749;2.4941;
424.8000;0.7741;2.4941;
425.1000;0.7709;2.4941;
425.4000;0.7855;2.5311;
425.7000;0.7709;2.4987;
426.0000;0.7757;2.5057;
426.3000;0.7766;2.5057;
426.6000;0.7757;2.5010;
426.9000;0.7782;2.5080;
427.2000;0.7749;2.5010;
427.5000;0.7757;2.4964;
427.8000;0.7766;2.4941;
428.1000;0.7766;2.5010;
428.4000;0.7766;2.4987;
428.7000;0.7847;2.5172;
429.0000;0.7700;2.4825;
429.3000;0.7725;2.4918;
429.6000;0.7741;2.4987;
429.9000;0.7814;2.5126;
430.2000;0.7733;2.4987;
430.5000;0.7749;2.4964;
430.8000;0.7757;2.4987;
431.1000;0.7733;2.4918;
431.4000;0.7733;2.4872;
431.7000;0.7749;2.4964;
432.0000;0.7757;2.4918;
432.3000;0.7782;2.4964;
432.6000;0.7749;2.4941;
432.9000;0.7757;2.4941;
433.2000;0.7741;2.4872;
433.5000;0.7749;2.4918;
433.8000;0.7749;2.4895;
434.1000;0.7863;2.5242;
434.4000;0.7741;2.5034;
434.7000;0.7749;2.5103;
435.0000;0.7757;2.5126;
435.3000;0.7733;2.5172;
435.6000;0.7757;2.5242;
435.9000;0.7700;2.5080;
436.2000;0.7749;2.5288;
436.5000;0.7774;2.5334;
436.8000;0.7757;2.5288;
437.1000;0.7717;2.5149;
437.4000;0.7733;2.5219;
437.7000;0.7823;2.5357;
438.0000;0.7757;2.5149;
438.3000;0.7741;2.5149;
438.6000;0.7741;2.5126;
438.9000;0.7717;2.5149;
439.2000;0.7749;2.5242;
439.5000;0.7757;2.5196;
439.8000;0.7717;2.4987;
440.1000;0.7733;2.4918;
440.4000;0.7798;2.5034;
440.7000;0.7749;2.5057;
441.0000;0.7757;2.5126;
441.3000;0.7782;2.5126;
441.6000;0.7757;2.5034;
441.9000;0.7782;2.5149;
442.2000;0.7749;2.5080;
442.5000;0.7741;2.5034;
442.8000;0.7717;2.4895;
443.1000;0.7749;2.4964;
443.4000;0.7749;2.4987;
443.7000;0.7741;2.4918;
444.0000;0.7725;2.4895;
444.3000;0.7757;2.4848;
444.6000;0.7741;2.4872;
444.9000;0.7757;2.5034;
445.2000;0.7741;2.4987;
445.5000;0.7741;2.4872;
445.8000;0.7749;2.4733;
446.1000;0.7766;2.4756;
446.4000;0.7749;2.4756;
446.7000;0.7766;2.4825;
447.0000;0.7766;2.4918;
447.3000;0.7709;2.4779;
447.6000;0.7749;2.4872;
447.9000;0.7725;2.4779;
448.2000;0.7700;2.4687;
448.5000;0.7741;2.4733;
448.8000;0.7741;2.4802;
449.1000;0.7725;2.4779;
449.4000;0.7782;2.4895;
449.7000;0.7749;2.4756;
450.0000;0.7709;2.4687;
450.3000;0.7619;2.4548;
450.6000;0.7725;2.4825;
450.9000;0.7709;2.4756;
451.2000;0.7741;2.4872;
451.5000;0.7725;2.4802;
451.8000;0.7717;2.4872;
452.1000;0.7692;2.4802;
452.4000;0.7741;2.4825;
452.7000;0.7733;2.4756;
453.0000;0.7766;2.4825;
453.3000;0.7725;2.4733;
453.6000;0.7749;2.4825;
453.9000;0.7741;2.4895;
454.2000;0.7741;2.4987;
454.5000;0.7757;2.5010;
454.8000;0.7757;2.5034;
455.1000;0.7741;2.5010;
455.4000;0.7757;2.4987;
455.7000;0.7749;2.4941;
456.0000;0.7757;2.4872;
456.3000;0.7733;2.4779;
456.6000;0.7757;2.4733;
456.9000;0.7790;2.4848;
457.2000;0.7757;2.4825;
457.5000;0.7757;2.4802;
457.8000;0.7766;2.4825;
458.1000;0.7782;2.4895;
458.4000;0.7749;2.4802;
458.7000;0.7749;2.4756;
459.0000;0.7733;2.4710;
459.3000;0.7733;2.4779;
459.6000;0.7717;2.4872;
459.9000;0.7766;2.4918;
460.2000;0.7757;2.4872;
460.5000;0.7741;2.4895;
460.8000;0.7733;2.4964;
461.1000;0.7741;2.4987;
461.4000;0.7757;2.4918;
461.7000;0.7741;2.4918;
462.0000;0.7741;2.4964;
462.3000;0.7749;2.4872;
462.6000;0.7749;2.4895;
462.9000;0.7774;2.4987;
463.2000;0.7757;2.4964;
463.5000;0.7749;2.5034;
463.8000;0.7733;2.4941;
464.1000;0.7757;2.5057;
464.4000;0.7741;2.4987;
464.7000;0.7749;2.5057;
465.0000;0.7749;2.5010;
465.3000;0.7782;2.5126;
465.6000;0.7749;2.5034;
465.9000;0.7749;2.5034;
466.2000;0.7733;2.5010;
466.5000;0.7774;2.5034;
466.8000;0.7733;2.4941;
467.1000;0.7717;2.4964;
467.4000;0.7709;2.4848;
467.7000;0.7766;2.4941;
468.0000;0.7692;2.4733;
468.3000;0.7782;2.4941;
468.6000;0.7749;2.4918;
468.9000;0.7757;2.4941;
469.2000;0.7709;2.4918;
469.5000;0.7725;2.4964;
469.8000;0.7749;2.4964;
470.1000;0.7741;2.4895;
470.4000;0.7717;2.4802;
470.7000;0.7757;2.4918;
471.0000;0.7725;2.4825;
471.3000;0.7782;2.5010;
471.6000;0.7757;2.4918;
471.9000;0.7709;2.4918;
472.2000;0.7766;2.5172;
472.5000;0.7684;2.5057;
472.8000;0.7741;2.5172;
473.1000;0.7749;2.5219;
473.4000;0.7725;2.5149;
473.7000;0.7733;2.5057;
474.0000;0.7749;2.5010;
474.3000;0.7749;2.4987;
474.6000;0.7725;2.4964;
474.9000;0.7741;2.5010;
475.2000;0.7741;2.4918;
475.5000;0.7733;2.4872;
475.8000;0.7741;2.4848;
476.1000;0.7774;2.4918;
476.4000;0.7749;2.4964;
476.7000;0.7741;2.4941;
477.0000;0.7749;2.5010;
477.3000;0.7733;2.5034;
477.6000;0.7749;2.5034;
477.9000;0.7733;2.5010;
478.2000;0.7733;2.4987;
478.5000;0.7749;2.5010;
478.8000;0.7757;2.4941;
479.1000;0.7725;2.4802;
479.4000;0.7757;2.4918;
479.7000;0.7766;2.4918;
480.0000;0.7741;2.4825;
480.3000;0.7766;2.4848;
480.6000;0.7774;2.4825;
480.9000;0.7749;2.4825;
481.2000;0.7749;2.4779;
481.5000;0.7749;2.4802;
481.8000;0.7757;2.4779;
482.1000;0.7749;2.4872;
482.4000;0.7741;2.4895;
482.7000;0.7749;2.4895;
483.0000;0.7733;2.4918;
483.3000;0.7757;2.4964;
483.6000;0.7717;2.4941;
483.9000;0.7741;2.5010;
484.2000;0.7774;2.5034;
484.5000;0.7823;2.5103;
484.8000;0.7709;2.4895;
485.1000;0.7660;2.4710;
485.4000;0.7774;2.4987;
485.7000;0.7774;2.4964;
486.0000;0.7733;2.4848;
486.3000;0.7766;2.4987;
486.6000;0.7733;2.4895;
486.9000;0.7749;2.4987;
487.2000;0.7749;2.4964;
487.5000;0.7766;2.4987;
487.8000;0.7725;2.4964;
488.1000;0.7725;2.4918;
488.4000;0.7717;2.4987;
488.7000;0.7741;2.5034;
489.0000;0.7725;2.5034;
489.3000;0.7692;2.4918;
489.6000;0.7741;2.5034;
489.9000;0.7766;2.5057;
490.2000;0.7766;2.4941;
490.5000;0.7749;2.4918;
490.8000;0.7733;2.4848;
491.1000;0.7733;2.4848;
491.4000;0.7725;2.4779;
491.7000;0.7749;2.4802;
492.0000;0.7757;2.4848;
492.3000;0.7725;2.4872;
492.6000;0.7717;2.4895;
492.9000;0.7741;2.4918;
493.2000;0.7814;2.5034;
493.5000;0.7757;2.4941;
493.8000;0.7749;2.4964;
494.1000;0.7749;2.4941;
494.4000;0.7741;2.4918;
494.7000;0.7774;2.4987;
495.0000;0.7766;2.5010;
495.3000;0.7774;2.5010;
495.6000;0.7766;2.5057;
495.9000;0.7757;2.5103;
496.2000;0.7725;2.4964;
496.5000;0.7757;2.5080;
496.8000;0.7717;2.4987;
497.1000;0.7741;2.5103;
497.4000;0.7733;2.5196;
497.7000;0.7741;2.5172;
498.0000;0.7741;2.5149;
498.3000;0.7733;2.5126;
498.6000;0.7766;2.5149;
498.9000;0.7717;2.5080;
499.2000;0.7741;2.5103;
499.5000;0.7733;2.5103;
499.8000;0.7749;2.5103;
500.1000;0.7757;2.5057;
500.4000;0.7741;2.5010;
500.7000;0.7733;2.5010;
501.0000;0.7676;2.4825;
501.3000;0.7733;2.5080;
501.6000;0.7725;2.5057;
501.9000;0.7733;2.5057;
502.2000;0.7741;2.5080;
502.5000;0.7725;2.5034;
502.8000;0.7733;2.4987;
503.1000;0.7684;2.4895;
503.4000;0.7741;2.5010;
503.7000;0.7725;2.4964;
504.0000;0.7717;2.5010;
504.3000;0.7749;2.5080;
504.6000;0.7733;2.5103;
504.9000;0.7741;2.5126;
505.2000;0.7749;2.5057;
505.5000;0.7725;2.4941;
505.8000;0.7766;2.4964;
506.1000;0.7749;2.4918;
506.4000;0.7741;2.4918;
506.7000;0.7749;2.4918;
507.0000;0.7749;2.4895;
507.3000;0.7774;2.4987;
507.6000;0.7725;2.4872;
507.9000;0.7749;2.4918;
508.2000;0.7725;2.4825;
508.5000;0.7757;2.4918;
508.8000;0.7733;2.4895;
509.1000;0.7725;2.4848;
509.4000;0.7733;2.4872;
509.7000;0.7733;2.4802;
510.0000;0.7757;2.4779;
510.3000;0.7757;2.4895;
510.6000;0.7741;2.4848;
510.9000;0.7733;2.4872;
511.2000;0.7741;2.4941;
511.5000;0.7749;2.4918;
511.8000;0.7749;2.4941;
512.1000;0.7766;2.4987;
512.4000;0.7717;2.4918;
512.7000;0.7823;2.5172;
513.0000;0.7733;2.4941;
513.3000;0.7741;2.4918;
513.6000;0.7733;2.4848;
513.9000;0.7749;2.4779;
514.2000;0.7741;2.4710;
514.5000;0.7733;2.4733;
514.8000;0.7717;2.4733;
515.1000;0.7741;2.4895;
515.4000;0.7733;2.4872;
515.7000;0.7757;2.4918;
516.0000;0.7741;2.4872;
516.3000;0.7749;2.4964;
516.6000;0.7725;2.4941;
516.9000;0.7757;2.5057;
517.2000;0.7741;2.5057;
517.5000;0.7733;2.5057;
517.8000;0.7749;2.5080;
518.1000;0.7733;2.4964;
518.4000;0.7741;2.4987;
518.7000;0.7749;2.5080;
519.0000;0.7757;2.5126;
519.3000;0.7741;2.5057;
519.6000;0.7733;2.5010;
519.9000;0.7741;2.5034;
520.2000;0.7741;2.5103;
520.5000;0.7749;2.5057;
520.8000;0.7733;2.5103;
521.1000;0.7725;2.5080;
521.4000;0.7749;2.5126;
521.7000;0.7757;2.5080;
522.0000;0.7749;2.5149;
522.3000;0.7749;2.5103;
522.6000;0.7741;2.5034;
522.9000;0.7749;2.5080;
523.2000;0.7741;2.4964;
523.5000;0.7741;2.5057;
523.8000;0.7741;2.5080;
524.1000;0.7757;2.5057;
524.4000;0.7725;2.4964;
524.7000;0.7733;2.5010;
525.0000;0.7717;2.4941;
525.3000;0.7733;2.4964;
525.6000;0.7741;2.4987;
525.9000;0.7692;2.4895;
526.2000;0.7741;2.4941;
526.5000;0.7749;2.4941;
526.8000;0.7749;2.4918;
527.1000;0.7741;2.4918;
527.4000;0.7749;2.5034;
527.7000;0.7741;2.5010;
528.0000;0.7749;2.5080;
528.3000;0.7733;2.5103;
528.6000;0.7725;2.5219;
528.9000;0.7717;2.5126;
529.2000;0.7709;2.5103;
529.5000;0.7741;2.5126;
529.8000;0.7725;2.5103;
530.1000;0.7757;2.5219;
530.4000;0.7741;2.5103;
530.7000;0.7725;2.5034;
531.0000;0.7741;2.5080;
531.3000;0.7749;2.5149;
531.6000;0.7757;2.5196;
531.9000;0.7749;2.5126;
532.2000;0.7741;2.5149;
532.5000;0.7782;2.5242;
532.8000;0.7741;2.5172;
533.1000;0.7741;2.5149;
533.4000;0.7749;2.5034;
533.7000;0.7692;2.4918;
534.0000;0.7725;2.5057;
534.3000;0.7741;2.5057;
534.6000;0.7749;2.5057;
534.9000;0.7709;2.4987;
535.2000;0.7741;2.5126;
535.5000;0.7717;2.5080;
535.8000;0.7741;2.5126;
536.1000;0.7725;2.5149;
536.4000;0.7782;2.5311;
536.7000;0.7741;2.5242;
537.0000;0.7717;2.5288;
537.3000;0.7741;2.5334;
537.6000;0.7839;2.5519;
537.9000;0.7741;2.5404;
538.2000;0.7741;2.5381;
538.5000;0.7733;2.5334;
538.8000;0.7733;2.5219;
539.1000;0.7733;2.5126;
539.4000;0.7733;2.5126;
539.7000;0.7798;2.5265;
540.0000;0.7741;2.5057;
540.3000;0.7741;2.4964;
540.6000;0.7749;2.4964;
540.9000;0.7733;2.5010;
541.2000;0.7766;2.5126;
541.5000;0.7741;2.5103;
541.8000;0.7741;2.5057;
542.1000;0.7757;2.5010;
542.4000;0.7733;2.5010;
542.7000;0.7692;2.5010;
543.0000;0.7709;2.5034;
543.3000;0.7741;2.5149;
543.6000;0.7684;2.5080;
543.9000;0.7725;2.5010;
544.2000;0.7733;2.5126;
544.5000;0.7733;2.5126;
544.8000;0.7733;2.5149;
545.1000;0.7668;2.5034;
545.4000;0.7717;2.5149;
545.7000;0.7700;2.5057;
546.0000;0.7733;2.5172;
546.3000;0.7733;2.5103;
546.6000;0.7733;2.5057;
546.9000;0.7741;2.5126;
547.2000;0.7741;2.5103;
547.5000;0.7741;2.5010;
547.8000;0.7700;2.4872;
548.1000;0.7790;2.5103;
548.4000;0.7757;2.5057;
548.7000;0.7741;2.5080;
549.0000;0.7700;2.5057;
549.3000;0.7733;2.5034;
549.6000;0.7725;2.4964;
549.9000;0.7741;2.4941;
550.2000;0.7717;2.4848;
550.5000;0.7668;2.4779;
550.8000;0.7741;2.4941;
551.1000;0.7782;2.5057;
551.4000;0.7660;2.4756;
551.7000;0.7741;2.5057;
552.0000;0.7741;2.5172;
552.3000;0.7806;2.5357;
552.6000;0.7741;2.5196;
552.9000;0.7741;2.5196;
553.2000;0.7725;2.5219;
553.5000;0.7660;2.5080;
553.8000;0.7749;2.5288;
554.1000;0.7733;2.5149;
554.4000;0.7741;2.5149;
554.7000;0.7700;2.5034;
555.0000;0.7741;2.5103;
555.3000;0.7733;2.5242;
555.6000;0.7790;2.5311;
555.9000;0.7725;2.5172;
556.2000;0.7749;2.5242;
556.5000;0.7741;2.5196;
556.8000;0.7676;2.5126;
557.1000;0.7741;2.5288;
557.4000;0.7749;2.5288;
557.7000;0.7757;2.5265;
558.0000;0.7741;2.5242;
558.3000;0.7733;2.5357;
558.6000;0.7757;2.5357;
558.9000;0.7749;2.5311;
559.2000;0.7741;2.5288;
559.5000;0.7709;2.5196;
559.8000;0.7774;2.5404;
560.1000;0.7733;2.5242;
560.4000;0.7831;2.5473;
560.7000;0.7725;2.5219;
561.0000;0.7709;2.5219;
561.3000;0.7798;2.5288;
561.6000;0.7717;2.5080;
561.9000;0.7733;2.5080;
562.2000;0.7749;2.5149;
562.5000;0.7741;2.5242;
562.8000;0.7766;2.5311;
563.1000;0.7749;2.5219;
563.4000;0.7725;2.5196;
563.7000;0.7741;2.5149;
564.0000;0.7757;2.5196;
564.3000;0.7733;2.5057;
564.6000;0.7741;2.5034;
564.9000;0.7749;2.5080;
565.2000;0.7741;2.5149;
565.5000;0.7749;2.5149;
565.8000;0.7733;2.5126;
566.1000;0.7749;2.5242;
566.4000;0.7741;2.5288;
566.7000;0.7684;2.5172;
567.0000;0.7570;2.4802;
567.3000;0.7725;2.5219;
567.6000;0.7717;2.5288;
567.9000;0.7725;2.5311;
568.2000;0.7839;2.5635;
568.5000;0.7741;2.5288;
568.8000;0.7749;2.5334;
569.1000;0.7741;2.5242;
569.4000;0.7741;2.5242;
569.7000;0.7733;2.5219;
570.0000;0.7725;2.5172;
570.3000;0.7741;2.5242;
570.6000;0.7741;2.5265;
570.9000;0.7725;2.5219;
571.2000;0.7757;2.5265;
571.5000;0.7733;2.5196;
571.8000;0.7741;2.5172;
572.1000;0.7717;2.5010;
572.4000;0.7757;2.4987;
572.7000;0.7725;2.4848;
573.0000;0.7757;2.4895;
573.3000;0.7733;2.4825;
573.6000;0.7725;2.4779;
573.9000;0.7774;2.4987;
574.2000;0.7733;2.4987;
574.5000;0.7717;2.5010;
574.8000;0.7717;2.5034;
575.1000;0.7749;2.5172;
575.4000;0.7741;2.5103;
575.7000;0.7709;2.5103;
576.0000;0.7733;2.5219;
576.3000;0.7766;2.5265;
576.6000;0.7725;2.5172;
576.9000;0.7741;2.5126;
577.2000;0.7741;2.5242;
577.5000;0.7741;2.5334;
577.8000;0.7741;2.5334;
578.1000;0.7766;2.5357;
578.4000;0.7709;2.5242;
578.7000;0.7733;2.5311;
579.0000;0.7757;2.5404;
579.3000;0.7749;2.5473;
579.6000;0.7741;2.5450;
579.9000;0.7725;2.5404;
580.2000;0.7692;2.5357;
580.5000;0.7741;2.5357;
580.8000;0.7668;2.5172;
581.1000;0.7709;2.5265;
581.4000;0.7725;2.5242;
581.7000;0.7741;2.5334;
582.0000;0.7733;2.5219;
582.3000;0.7684;2.5196;
582.6000;0.7676;2.5172;
582.9000;0.7725;2.5196;
583.2000;0.7790;2.5381;
583.5000;0.7725;2.5126;
583.8000;0.7757;2.5219;
584.1000;0.7741;2.5172;
584.4000;0.7725;2.5126;
584.7000;0.7725;2.5149;
585.0000;0.7733;2.5010;
585.3000;0.7741;2.4964;
585.6000;0.7733;2.4872;
585.9000;0.7700;2.4964;
586.2000;0.7733;2.5057;
586.5000;0.7717;2.5010;
586.8000;0.7733;2.5034;
587.1000;0.7741;2.5080;
587.4000;0.7725;2.5103;
587.7000;0.7733;2.5196;
588.0000;0.7733;2.5265;
588.3000;0.7733;2.5288;
588.6000;0.7733;2.5242;
588.9000;0.7733;2.5288;
589.2000;0.7749;2.5265;
589.5000;0.7749;2.5149;
589.8000;0.7749;2.5196;
590.1000;0.7798;2.5427;
590.4000;0.7733;2.5311;
590.7000;0.7733;2.5265;
591.0000;0.7757;2.5288;
591.3000;0.7725;2.5242;
591.6000;0.7709;2.5172;
591.9000;0.7757;2.5288;
592.2000;0.7733;2.5288;
592.5000;0.7741;2.5265;
592.8000;0.7733;2.5311;
593.1000;0.7717;2.5196;
593.4000;0.7733;2.5149;
593.7000;0.7733;2.5196;
594.0000;0.7700;2.5103;
594.3000;0.7741;2.5219;
594.6000;0.7749;2.5242;
594.9000;0.7725;2.5196;
595.2000;0.7725;2.5196;
595.5000;0.7741;2.5265;
595.8000;0.7741;2.5219;
596.1000;0.7733;2.5242;
596.4000;0.7733;2.5219;
596.7000;0.7717;2.5219;
597.0000;0.7733;2.5196;
597.3000;0.7725;2.5057;
597.6000;0.7782;2.5219;
597.9000;0.7725;2.5103;
598.2000;0.7741;2.5242;
598.5000;0.7766;2.5288;
598.8000;0.7725;2.5288;
599.1000;0.7774;2.5450;
599.4000;0.7766;2.5496;
599.7000;0.7725;2.5357;
600.0000;0.7709;2.5288;
600.3000;0.7782;2.5334;
600.6000;0.7766;2.5219;
600.9000;0.7766;2.5057;
601.2000;0.7741;2.4848;
601.5000;0.7725;2.4663;
601.8000;0.7676;2.4478;
602.1000;0.7635;2.4386;
602.4000;0.7619;2.4339;
602.7000;0.7538;2.4085;
603.0000;0.7464;2.3854;
603.3000;0.7432;2.3692;
603.6000;0.7432;2.3715;
603.9000;0.7407;2.3715;
604.2000;0.7440;2.3784;
604.5000;0.7293;2.3414;
604.8000;0.7350;2.3507;
605.1000;0.7261;2.3368;
605.4000;0.7220;2.3345;
605.7000;0.7220;2.3345;
606.0000;0.7155;2.3252;
606.3000;0.7074;2.3021;
606.6000;0.7082;2.2998;
606.9000;0.7041;2.3021;
607.2000;0.7033;2.2951;
607.5000;0.7009;2.2974;
607.8000;0.6976;2.2928;
608.1000;0.6968;2.2974;
608.4000;0.6960;2.2882;
608.7000;0.6935;2.2836;
609.0000;0.6829;2.2674;
609.3000;0.6886;2.2882;
609.6000;0.6862;2.2836;
609.9000;0.6862;2.2859;
610.2000;0.6813;2.2812;
610.5000;0.6813;2.2789;
610.8000;0.6862;2.2928;
611.1000;0.6756;2.2697;
611.4000;0.6764;2.2812;
611.7000;0.6740;2.2720;
612.0000;0.6707;2.2674;
612.3000;0.6724;2.2627;
612.6000;0.6691;2.2512;
612.9000;0.6683;2.2489;
613.2000;0.6683;2.2535;
613.5000;0.6642;2.2512;
613.8000;0.6634;2.2604;
614.1000;0.6626;2.2558;
614.4000;0.6618;2.2627;
614.7000;0.6602;2.2674;
615.0000;0.6463;2.2512;
615.3000;0.6585;2.2812;
615.6000;0.6545;2.2812;
615.9000;0.6553;2.2859;
616.2000;0.6545;2.2882;
616.5000;0.6528;2.2812;
616.8000;0.6536;2.2812;
617.1000;0.6479;2.2720;
617.4000;0.6471;2.2697;
617.7000;0.6479;2.2766;
618.0000;0.6455;2.2697;
618.3000;0.6398;2.2512;
618.6000;0.6455;2.2674;
618.9000;0.6479;2.2743;
619.2000;0.6341;2.2535;
619.5000;0.6390;2.2720;
619.8000;0.6390;2.2697;
620.1000;0.6317;2.2419;
620.4000;0.6414;2.2627;
620.7000;0.6365;2.2535;
621.0000;0.6349;2.2604;
621.3000;0.6357;2.2604;
621.6000;0.6325;2.2489;
621.9000;0.6317;2.2489;
622.2000;0.6211;2.2257;
622.5000;0.6252;2.2373;
622.8000;0.6284;2.2489;
623.1000;0.6268;2.2396;
623.4000;0.6243;2.2234;
623.7000;0.6260;2.2257;
624.0000;0.6252;2.2280;
624.3000;0.6243;2.2350;
624.6000;0.6317;2.2581;
624.9000;0.6268;2.2535;
625.2000;0.6235;2.2396;
625.5000;0.6227;2.2489;
625.8000;0.6211;2.2489;
626.1000;0.6178;2.2327;
626.4000;0.6195;2.2419;
626.7000;0.6178;2.2442;
627.0000;0.6129;2.2489;
627.3000;0.6219;2.2789;
627.6000;0.6154;2.2627;
627.9000;0.6154;2.2627;
628.2000;0.6178;2.2789;
628.5000;0.6097;2.2674;
628.8000;0.6138;2.2812;
629.1000;0.6129;2.2836;
629.4000;0.6113;2.2789;
629.7000;0.6097;2.2743;
630.0000;0.6081;2.2697;
630.3000;0.6097;2.2766;
630.6000;0.6146;2.2882;
630.9000;0.6097;2.2720;
631.2000;0.6097;2.2743;
631.5000;0.5942;2.2350;
631.8000;0.6097;2.2651;
632.1000;0.6032;2.2512;
632.4000;0.6040;2.2535;
632.7000;0.6007;2.2604;
633.0000;0.6056;2.2627;
633.3000;0.6015;2.2512;
633.6000;0.6024;2.2535;
633.9000;0.6024;2.2512;
634.2000;0.5999;2.2535;
634.5000;0.5983;2.2535;
634.8000;0.5999;2.2604;
635.1000;0.6015;2.2651;
635.4000;0.5999;2.2674;
635.7000;0.5999;2.2720;
636.0000;0.6015;2.2789;
636.3000;0.5958;2.2697;
636.6000;0.5958;2.2743;
636.9000;0.5958;2.2789;
637.2000;0.5967;2.2836;
637.5000;0.5934;2.2743;
637.8000;0.5958;2.2651;
638.1000;0.5893;2.2465;
638.4000;0.5950;2.2604;
638.7000;0.5942;2.2604;
639.0000;0.5934;2.2627;
639.3000;0.5910;2.2558;
639.6000;0.5918;2.2627;
639.9000;0.5902;2.2627;
640.2000;0.5869;2.2558;
640.5000;0.5926;2.2651;
640.8000;0.5902;2.2651;
641.1000;0.5885;2.2604;
641.4000;0.5885;2.2627;
641.7000;0.5869;2.2627;
642.0000;0.5893;2.2720;
642.3000;0.5853;2.2697;
642.6000;0.5861;2.2651;
642.9000;0.5836;2.2604;
643.2000;0.5877;2.2812;
643.5000;0.5812;2.2720;
643.8000;0.5845;2.2859;
644.1000;0.5853;2.2836;
644.4000;0.5845;2.2882;
644.7000;0.5861;2.2951;
645.0000;0.5828;2.2812;
645.3000;0.5763;2.2674;
645.6000;0.5836;2.2998;
645.9000;0.5828;2.2998;
646.2000;0.5828;2.2998;
646.5000;0.5885;2.3136;
646.8000;0.5820;2.2998;
647.1000;0.5828;2.2998;
647.4000;0.5828;2.2951;
647.7000;0.5763;2.2812;
648.0000;0.5796;2.2743;
648.3000;0.5788;2.2697;
648.6000;0.5771;2.2627;
648.9000;0.5739;2.2674;
649.2000;0.5779;2.2720;
649.5000;0.5771;2.2674;
649.8000;0.5788;2.2743;
650.1000;0.5763;2.2627;
650.4000;0.5763;2.2581;
650.7000;0.5747;2.2535;
651.0000;0.5763;2.2651;
651.3000;0.5755;2.2604;
651.6000;0.5771;2.2697;
651.9000;0.5739;2.2604;
652.2000;0.5755;2.2651;
652.5000;0.5747;2.2651;
652.8000;0.5739;2.2674;
653.1000;0.5722;2.2651;
653.4000;0.5739;2.2766;
653.7000;0.5739;2.2743;
654.0000;0.5706;2.2651;
654.3000;0.5739;2.2836;
654.6000;0.5731;2.2812;
654.9000;0.5706;2.2697;
655.2000;0.5706;2.2674;
655.5000;0.5698;2.2627;
655.8000;0.5706;2.2651;
656.1000;0.5682;2.2604;
656.4000;0.5698;2.2697;
656.7000;0.5763;2.2789;
657.0000;0.5657;2.2627;
657.3000;0.5690;2.2743;
657.6000;0.5657;2.2558;
657.9000;0.5682;2.2581;
658.2000;0.5682;2.2558;
658.5000;0.5682;2.2558;
658.8000;0.5665;2.2581;
659.1000;0.5747;2.2674;
659.4000;0.5682;2.2581;
659.7000;0.5665;2.2627;
660.0000;0.5641;2.2581;
660.3000;0.5657;2.2627;
660.6000;0.5665;2.2651;
660.9000;0.5682;2.2651;
661.2000;0.5714;2.2720;
661.5000;0.5674;2.2651;
661.8000;0.5649;2.2604;
662.1000;0.5649;2.2581;
662.4000;0.5625;2.2489;
662.7000;0.5674;2.2535;
663.0000;0.5657;2.2627;
663.3000;0.5633;2.2627;
663.6000;0.5657;2.2697;
663.9000;0.5649;2.2627;
664.2000;0.5625;2.2581;
664.5000;0.5633;2.2581;
664.8000;0.5633;2.2651;
665.1000;0.5608;2.2604;
665.4000;0.5617;2.2697;
665.7000;0.5633;2.2697;
666.0000;0.5641;2.2720;
666.3000;0.5739;2.2951;
666.6000;0.5592;2.2512;
666.9000;0.5519;2.2257;
667.2000;0.5641;2.2465;
667.5000;0.5608;2.2489;
667.8000;0.5617;2.2535;
668.1000;0.5625;2.2604;
668.4000;0.5592;2.2581;
668.7000;0.5608;2.2627;
669.0000;0.5584;2.2535;
669.3000;0.5576;2.2465;
669.6000;0.5592;2.2419;
669.9000;0.5584;2.2419;
670.2000;0.5584;2.2512;
670.5000;0.5576;2.2489;
670.8000;0.5625;2.2604;
671.1000;0.5600;2.2535;
671.4000;0.5608;2.2535;
671.7000;0.5633;2.2604;
672.0000;0.5592;2.2512;
672.3000;0.5568;2.2465;
672.6000;0.5592;2.2535;
672.9000;0.5568;2.2535;
673.2000;0.5592;2.2535;
673.5000;0.5560;2.2558;
673.8000;0.5592;2.2697;
674.1000;0.5625;2.2789;
674.4000;0.5657;2.2928;
674.7000;0.5543;2.2674;
675.0000;0.5568;2.2743;
675.3000;0.5560;2.2720;
675.6000;0.5543;2.2674;
675.9000;0.5568;2.2651;
676.2000;0.5503;2.2419;
676.5000;0.5511;2.2396;
676.8000;0.5543;2.2512;
677.1000;0.5551;2.2558;
677.4000;0.5527;2.2535;
677.7000;0.5551;2.2558;
678.0000;0.5568;2.2743;
678.3000;0.5527;2.2697;
678.6000;0.5535;2.2743;
678.9000;0.5527;2.2720;
679.2000;0.5535;2.2604;
679.5000;0.5527;2.2627;
679.8000;0.5519;2.2604;
680.1000;0.5527;2.2604;
680.4000;0.5527;2.2558;
680.7000;0.5527;2.2512;
681.0000;0.5519;2.2558;
681.3000;0.5478;2.2327;
681.6000;0.5519;2.2535;
681.9000;0.5527;2.2604;
682.2000;0.5519;2.2581;
682.5000;0.5519;2.2535;
682.8000;0.5535;2.2558;
683.1000;0.5519;2.2512;
683.4000;0.5527;2.2373;
683.7000;0.5527;2.2350;
684.0000;0.5551;2.2396;
684.3000;0.5527;2.2465;
684.6000;0.5503;2.2465;
684.9000;0.5478;2.2396;
685.2000;0.5478;2.2350;
685.5000;0.5519;2.2489;
685.8000;0.5486;2.2442;
686.1000;0.5478;2.2396;
686.4000;0.5511;2.2512;
686.7000;0.5495;2.2581;
687.0000;0.5462;2.2396;
687.3000;0.5486;2.2465;
687.6000;0.5495;2.2489;
687.9000;0.5486;2.2419;
688.2000;0.5495;2.2489;
688.5000;0.5470;2.2465;
688.8000;0.5495;2.2581;
689.1000;0.5486;2.2581;
689.4000;0.5503;2.2535;
689.7000;0.5470;2.2512;
690.0000;0.5495;2.2581;
690.3000;0.5576;2.2812;
690.6000;0.5470;2.2581;
690.9000;0.5470;2.2604;
691.2000;0.5462;2.2674;
691.5000;0.5462;2.2697;
691.8000;0.5478;2.2743;
692.1000;0.5454;2.2674;
692.4000;0.5462;2.2581;
692.7000;0.5470;2.2651;
693.0000;0.5486;2.2743;
693.3000;0.5405;2.2489;
693.6000;0.5454;2.2604;
693.9000;0.5470;2.2581;
694.2000;0.5470;2.2743;
694.5000;0.5470;2.2789;
694.8000;0.5405;2.2604;
695.1000;0.5454;2.2627;
695.4000;0.5429;2.2604;
695.7000;0.5462;2.2697;
696.0000;0.5413;2.2489;
696.3000;0.5438;2.2535;
696.6000;0.5462;2.2651;
696.9000;0.5462;2.2697;
697.2000;0.5454;2.2674;
697.5000;0.5413;2.2581;
697.8000;0.5356;2.2442;
698.1000;0.5454;2.2558;
698.4000;0.5543;2.2789;
698.7000;0.5454;2.2535;
699.0000;0.5446;2.2535;
699.3000;0.5454;2.2581;
699.6000;0.5332;2.2280;
699.9000;0.5356;2.2350;
700.2000;0.5462;2.2604;
700.5000;0.5421;2.2489;
700.8000;0.5405;2.2489;
701.1000;0.5421;2.2535;
701.4000;0.5478;2.2604;
701.7000;0.5454;2.2627;
702.0000;0.5429;2.2535;
702.3000;0.5438;2.2489;
702.6000;0.5389;2.2350;
702.9000;0.5389;2.2419;
703.2000;0.5429;2.2535;
703.5000;0.5421;2.2465;
703.8000;0.5413;2.2419;
704.1000;0.5438;2.2489;
704.4000;0.5405;2.2465;
704.7000;0.5397;2.2465;
705.0000;0.5405;2.2465;
705.3000;0.5405;2.2489;
705.6000;0.5405;2.2627;
705.9000;0.5405;2.2627;
706.2000;0.5397;2.2558;
706.5000;0.5413;2.2512;
706.8000;0.5429;2.2697;
707.1000;0.5405;2.2512;
707.4000;0.5381;2.2350;
707.7000;0.5405;2.2257;
708.0000;0.5405;2.2327;
708.3000;0.5421;2.2465;
708.6000;0.5405;2.2465;
708.9000;0.5397;2.2558;
709.2000;0.5454;2.2651;
709.5000;0.5413;2.2558;
709.8000;0.5413;2.2651;
710.1000;0.5413;2.2720;
710.4000;0.5397;2.2627;
710.7000;0.5389;2.2674;
711.0000;0.5413;2.2697;
711.3000;0.5413;2.2604;
711.6000;0.5389;2.2512;
711.9000;0.5381;2.2535;
712.2000;0.5381;2.2535;
712.5000;0.5381;2.2674;
712.8000;0.5413;2.2812;
713.1000;0.5381;2.2743;
713.4000;0.5389;2.2766;
713.7000;0.5372;2.2766;
714.0000;0.5397;2.2836;
714.3000;0.5429;2.2882;
714.6000;0.5389;2.2743;
714.9000;0.5397;2.2697;
715.2000;0.5372;2.2581;
715.5000;0.5381;2.2604;
715.8000;0.5364;2.2558;
716.1000;0.5389;2.2558;
716.4000;0.5389;2.2535;
716.7000;0.5389;2.2489;
717.0000;0.5470;2.2697;
717.3000;0.5405;2.2512;
717.6000;0.5372;2.2512;
717.9000;0.5413;2.2558;
718.2000;0.5364;2.2512;
718.5000;0.5364;2.2465;
718.8000;0.5372;2.2442;
719.1000;0.5381;2.2535;
719.4000;0.5397;2.2604;
719.7000;0.5364;2.2604;
720.0000;0.5381;2.2674;
720.3000;0.5340;2.2558;
720.6000;0.5405;2.2651;
720.9000;0.5364;2.2581;
721.2000;0.5364;2.2535;
721.5000;0.5364;2.2396;
721.8000;0.5340;2.2350;
722.1000;0.5372;2.2465;
722.4000;0.5397;2.2489;
722.7000;0.5364;2.2419;
723.0000;0.5381;2.2535;
723.3000;0.5356;2.2442;
723.6000;0.5372;2.2535;
723.9000;0.5364;2.2489;
724.2000;0.5340;2.2465;
724.5000;0.5299;2.2350;
724.8000;0.5356;2.2419;
725.1000;0.5364;2.2442;
725.4000;0.5364;2.2419;
725.7000;0.5332;2.2512;
726.0000;0.5332;2.2489;
726.3000;0.5372;2.2558;
726.6000;0.5381;2.2535;
726.9000;0.5332;2.2350;
727.2000;0.5356;2.2419;
727.5000;0.5356;2.2489;
727.8000;0.5389;2.2558;
728.1000;0.5340;2.2465;
728.4000;0.5332;2.2465;
728.7000;0.5364;2.2489;
729.0000;0.5348;2.2512;
729.3000;0.5340;2.2465;
729.6000;0.5438;2.2720;
729.9000;0.5340;2.2489;
730.2000;0.5356;2.2512;
730.5000;0.5315;2.2535;
730.8000;0.5315;2.2465;
731.1000;0.5324;2.2350;
731.4000;0.5324;2.2350;
731.7000;0.5332;2.2373;
732.0000;0.5299;2.2257;
732.3000;0.5332;2.2350;
732.6000;0.5340;2.2442;
732.9000;0.5324;2.2442;
733.2000;0.5340;2.2512;
733.5000;0.5307;2.2512;
733.8000;0.5348;2.2651;
734.1000;0.5348;2.2743;
734.4000;0.5340;2.2674;
734.7000;0.5340;2.2535;
735.0000;0.5315;2.2489;
735.3000;0.5324;2.2535;
735.6000;0.5356;2.2627;
735.9000;0.5364;2.2558;
736.2000;0.5283;2.2303;
736.5000;0.5324;2.2442;
736.8000;0.5332;2.2512;
737.1000;0.5324;2.2512;
737.4000;0.5324;2.2419;
737.7000;0.5324;2.2465;
738.0000;0.5381;2.2581;
738.3000;0.5299;2.2396;
738.6000;0.5340;2.2489;
738.9000;0.5348;2.2419;
739.2000;0.5283;2.2211;
739.5000;0.5267;2.2188;
739.8000;0.5315;2.2327;
740.1000;0.5291;2.2303;
740.4000;0.5283;2.2419;
740.7000;0.5315;2.2442;
741.0000;0.5307;2.2489;
741.3000;0.5218;2.2303;
741.6000;0.5299;2.2465;
741.9000;0.5315;2.2465;
742.2000;0.5283;2.2373;
742.5000;0.5291;2.2419;
742.8000;0.5340;2.2512;
743.1000;0.5275;2.2442;
743.4000;0.5299;2.2465;
743.7000;0.5315;2.2396;
744.0000;0.5283;2.2373;
744.3000;0.5315;2.2442;
744.6000;0.5356;2.2489;
744.9000;0.5291;2.2327;
745.2000;0.5348;2.2489;
745.5000;0.5299;2.2535;
745.8000;0.5307;2.2489;
746.1000;0.5201;2.2165;
746.4000;0.5299;2.2465;
746.7000;0.5299;2.2558;
747.0000;0.5348;2.2743;
747.3000;0.5299;2.2720;
747.6000;0.5364;2.2812;
747.9000;0.5348;2.2697;
748.2000;0.5340;2.2651;
748.5000;0.5315;2.2604;
748.8000;0.5291;2.2442;
749.1000;0.5250;2.2419;
749.4000;0.5299;2.2558;
749.7000;0.5291;2.2581;
750.0000;0.5299;2.2604;
750.3000;0.5291;2.2558;
750.6000;0.5299;2.2558;
750.9000;0.5299;2.2558;
751.2000;0.5291;2.2465;
751.5000;0.5291;2.2535;
751.8000;0.5307;2.2535;
752.1000;0.5307;2.2512;
752.4000;0.5283;2.2465;
752.7000;0.5226;2.2303;
753.0000;0.5299;2.2512;
753.3000;0.5299;2.2512;
753.6000;0.5299;2.2489;
753.9000;0.5291;2.2512;
754.2000;0.5258;2.2604;
754.5000;0.5307;2.2720;
754.8000;0.5291;2.2651;
755.1000;0.5299;2.2720;
755.4000;0.5315;2.2697;
755.7000;0.5291;2.2627;
756.0000;0.5250;2.2535;
756.3000;0.5226;2.2558;
756.6000;0.5283;2.2720;
756.9000;0.5307;2.2720;
757.2000;0.5315;2.2651;
757.5000;0.5283;2.2558;
757.8000;0.5267;2.2558;
758.1000;0.5291;2.2535;
758.4000;0.5307;2.2604;
758.7000;0.5258;2.2558;
759.0000;0.5275;2.2581;
759.3000;0.5275;2.2512;
759.6000;0.5283;2.2535;
759.9000;0.5283;2.2535;
760.2000;0.5283;2.2651;
760.5000;0.5267;2.2627;
760.8000;0.5275;2.2627;
761.1000;0.5291;2.2697;
761.4000;0.5267;2.2674;
761.7000;0.5275;2.2581;
762.0000;0.5275;2.2627;
762.3000;0.5283;2.2604;
762.6000;0.5258;2.2465;
762.9000;0.5267;2.2396;
763.2000;0.5291;2.2396;
763.5000;0.5267;2.2373;
763.8000;0.5267;2.2396;
764.1000;0.5291;2.2419;
764.4000;0.5267;2.2327;
764.7000;0.5267;2.2373;
765.0000;0.5283;2.2373;
765.3000;0.5275;2.2303;
765.6000;0.5340;2.2396;
765.9000;0.5324;2.2350;
766.2000;0.5283;2.2373;
766.5000;0.5275;2.2442;
766.8000;0.5177;2.2211;
767.1000;0.5258;2.2465;
767.4000;0.5275;2.2465;
767.7000;0.5201;2.2350;
768.0000;0.5250;2.2512;
768.3000;0.5275;2.2627;
768.6000;0.5291;2.2651;
768.9000;0.5267;2.2651;
769.2000;0.5267;2.2581;
769.5000;0.5283;2.2581;
769.8000;0.5275;2.2581;
770.1000;0.5267;2.2581;
770.4000;0.5267;2.2604;
770.7000;0.5267;2.2651;
771.0000;0.5275;2.2512;
771.3000;0.5267;2.2489;
771.6000;0.5193;2.2465;
771.9000;0.5250;2.2581;
772.2000;0.5258;2.2674;
772.5000;0.5258;2.2674;
772.8000;0.5177;2.2465;
773.1000;0.5250;2.2512;
773.4000;0.5226;2.2465;
773.7000;0.5242;2.2512;
774.0000;0.5283;2.2581;
774.3000;0.5267;2.2512;
774.6000;0.5258;2.2535;
774.9000;0.5267;2.2512;
775.2000;0.5275;2.2442;
775.5000;0.5258;2.2512;
775.8000;0.5258;2.2581;
776.1000;0.5307;2.2720;
776.4000;0.5275;2.2604;
776.7000;0.5267;2.2604;
777.0000;0.5242;2.2604;
777.3000;0.5242;2.2558;
777.6000;0.5283;2.2697;
777.9000;0.5299;2.2743;
778.2000;0.5250;2.2604;
778.5000;0.5291;2.2697;
778.8000;0.5258;2.2581;
779.1000;0.5275;2.2720;
779.4000;0.5250;2.2651;
779.7000;0.5242;2.2558;
780.0000;0.5250;2.2558;
780.3000;0.5242;2.2604;
780.6000;0.5242;2.2627;
780.9000;0.5234;2.2558;
781.2000;0.5250;2.2558;
781.5000;0.5258;2.2512;
781.8000;0.5291;2.2627;
782.1000;0.5267;2.2604;
782.4000;0.5250;2.2651;
782.7000;0.5258;2.2581;
783.0000;0.5242;2.2535;
783.3000;0.5234;2.2558;
783.6000;0.5234;2.2627;
783.9000;0.5234;2.2581;
784.2000;0.5234;2.2535;
784.5000;0.5250;2.2535;
784.8000;0.5258;2.2627;
785.1000;0.5242;2.2674;
785.4000;0.5226;2.2558;
785.7000;0.5218;2.2535;
786.0000;0.5275;2.2535;
786.3000;0.5258;2.2535;
786.6000;0.5250;2.2465;
786.9000;0.5258;2.2419;
787.2000;0.5250;2.2373;
787.5000;0.5250;2.2442;
787.8000;0.5267;2.2512;
788.1000;0.5250;2.2465;
788.4000;0.5267;2.2558;
788.7000;0.5234;2.2489;
789.0000;0.5226;2.2512;
789.3000;0.5250;2.2627;
789.6000;0.5226;2.2581;
789.9000;0.5250;2.2581;
790.2000;0.5275;2.2535;
790.5000;0.5218;2.2327;
790.8000;0.5218;2.2396;
791.1000;0.5242;2.2489;
791.4000;0.5218;2.2396;
791.7000;0.5250;2.2442;
792.0000;0.5267;2.2465;
792.3000;0.5177;2.2234;
792.6000;0.5226;2.2465;
792.9000;0.5242;2.2674;
793.2000;0.5242;2.2720;
793.5000;0.5226;2.2697;
793.8000;0.5267;2.2743;
794.1000;0.5242;2.2697;
794.4000;0.5128;2.2350;
794.7000;0.5234;2.2651;
795.0000;0.5267;2.2674;
795.3000;0.5234;2.2604;
795.6000;0.5275;2.2674;
795.9000;0.5193;2.2396;
796.2000;0.5234;2.2535;
796.5000;0.5234;2.2604;
796.8000;0.5242;2.2627;
797.1000;0.5226;2.2697;
797.4000;0.5185;2.2604;
797.7000;0.5218;2.2766;
798.0000;0.5185;2.2743;
798.3000;0.5242;2.2859;
798.6000;0.5226;2.2789;
798.9000;0.5234;2.2720;
799.2000;0.5267;2.2697;
799.5000;0.5267;2.2789;
799.8000;0.5267;2.2789;
800.1000;0.5234;2.2720;
800.4000;0.5234;2.2743;
800.7000;0.5226;2.2720;
801.0000;0.5250;2.2766;
801.3000;0.5250;2.2766;
801.6000;0.5210;2.2743;
801.9000;0.5250;2.2789;
802.2000;0.5234;2.2674;
802.5000;0.5234;2.2604;
802.8000;0.5348;2.2974;
803.1000;0.5226;2.2651;
803.4000;0.5250;2.2720;
803.7000;0.5226;2.2743;
804.0000;0.5226;2.2743;
804.3000;0.5218;2.2720;
804.6000;0.5218;2.2720;
804.9000;0.5210;2.2697;
805.2000;0.5283;2.2836;
805.5000;0.5218;2.2651;
805.8000;0.5234;2.2674;
806.1000;0.5234;2.2581;
806.4000;0.5169;2.2442;
806.7000;0.5210;2.2512;
807.0000;0.5226;2.2604;
807.3000;0.5218;2.2627;
807.6000;0.5250;2.2604;
807.9000;0.5258;2.2651;
808.2000;0.5234;2.2489;
808.5000;0.5185;2.2396;
808.8000;0.5226;2.2489;
809.1000;0.5218;2.2535;
809.4000;0.5218;2.2419;
809.7000;0.5210;2.2512;
810.0000;0.5234;2.2604;
810.3000;0.5283;2.2812;
810.6000;0.5226;2.2720;
810.9000;0.5218;2.2766;
811.2000;0.5161;2.2581;
811.5000;0.5218;2.2697;
811.8000;0.5201;2.2674;
812.1000;0.5201;2.2627;
812.4000;0.5210;2.2674;
812.7000;0.5210;2.2697;
813.0000;0.5226;2.2789;
813.3000;0.5112;2.2465;
813.6000;0.5193;2.2651;
813.9000;0.5234;2.2812;
814.2000;0.5210;2.2789;
814.5000;0.5226;2.2882;
814.8000;0.5177;2.2697;
815.1000;0.5226;2.2743;
815.4000;0.5307;2.2928;
815.7000;0.5218;2.2720;
816.0000;0.5242;2.2789;
816.3000;0.5226;2.2789;
816.6000;0.5185;2.2743;
816.9000;0.5226;2.2720;
817.2000;0.5234;2.2720;
817.5000;0.5201;2.2651;
817.8000;0.5218;2.2604;
818.1000;0.5210;2.2581;
818.4000;0.5218;2.2604;
818.7000;0.5218;2.2512;
819.0000;0.5201;2.2442;
819.3000;0.5185;2.2419;
819.6000;0.5201;2.2396;
819.9000;0.5193;2.2327;
820.2000;0.5193;2.2257;
820.5000;0.5201;2.2327;
820.8000;0.5218;2.2396;
821.1000;0.5275;2.2535;
821.4000;0.5169;2.2280;
821.7000;0.5226;2.2373;
822.0000;0.5210;2.2396;
822.3000;0.5210;2.2465;
822.6000;0.5193;2.2558;
822.9000;0.5193;2.2465;
823.2000;0.5169;2.2396;
823.5000;0.5234;2.2512;
823.8000;0.5218;2.2535;
824.1000;0.5201;2.2581;
824.4000;0.5193;2.2627;
824.7000;0.5201;2.2766;
825.0000;0.5201;2.2720;
825.3000;0.5201;2.2674;
825.6000;0.5234;2.2766;
825.9000;0.5234;2.2720;
826.2000;0.5226;2.2743;
826.5000;0.5218;2.2720;
826.8000;0.5250;2.2766;
827.1000;0.5169;2.2604;
827.4000;0.5218;2.2743;
827.7000;0.5210;2.2720;
828.0000;0.5201;2.2674;
828.3000;0.5210;2.2743;
828.6000;0.5177;2.2581;
828.9000;0.5201;2.2651;
829.2000;0.5210;2.2604;
829.5000;0.5218;2.2651;
829.8000;0.5210;2.2581;
830.1000;0.5250;2.2627;
830.4000;0.5218;2.2512;
830.7000;0.5226;2.2512;
831.0000;0.5250;2.2558;
831.3000;0.5324;2.2720;
831.6000;0.5218;2.2604;
831.9000;0.5218;2.2581;
832.2000;0.5210;2.2535;
832.5000;0.5193;2.2465;
832.8000;0.5226;2.2535;
833.1000;0.5210;2.2535;
833.4000;0.5201;2.2535;
833.7000;0.5234;2.2627;
834.0000;0.5218;2.2604;
834.3000;0.5210;2.2535;
834.6000;0.5210;2.2535;
834.9000;0.5153;2.2419;
835.2000;0.5185;2.2535;
835.5000;0.5185;2.2512;
835.8000;0.5201;2.2558;
836.1000;0.5218;2.2604;
836.4000;0.5193;2.2627;
836.7000;0.5218;2.2674;
837.0000;0.5210;2.2674;
837.3000;0.5201;2.2651;
837.6000;0.5185;2.2489;
837.9000;0.5144;2.2373;
838.2000;0.5185;2.2627;
838.5000;0.5201;2.2674;
838.8000;0.5218;2.2697;
839.1000;0.5201;2.2604;
839.4000;0.5201;2.2581;
839.7000;0.5242;2.2627;
840.0000;0.5234;2.2581;
840.3000;0.5193;2.2697;
840.6000;0.5177;2.2581;
840.9000;0.5177;2.2604;
841.2000;0.5177;2.2604;
841.5000;0.5210;2.2697;
841.8000;0.5193;2.2743;
842.1000;0.5193;2.2812;
842.4000;0.5258;2.2859;
842.7000;0.5201;2.2674;
843.0000;0.5193;2.2581;
843.3000;0.5177;2.2535;
843.6000;0.5218;2.2743;
843.9000;0.5177;2.2766;
844.2000;0.5185;2.2766;
844.5000;0.5201;2.2836;
844.8000;0.5177;2.2766;
845.1000;0.5193;2.2766;
845.4000;0.5218;2.2812;
845.7000;0.5193;2.2720;
846.0000;0.5185;2.2651;
846.3000;0.5185;2.2651;
846.6000;0.5193;2.2743;
846.9000;0.5193;2.2674;
847.2000;0.5185;2.2558;
847.5000;0.5185;2.2697;
847.8000;0.5193;2.2651;
848.1000;0.5193;2.2604;
848.4000;0.5210;2.2535;
848.7000;0.5185;2.2419;
849.0000;0.5218;2.2558;
849.3000;0.5201;2.2535;
849.6000;0.5201;2.2512;
849.9000;0.5185;2.2535;
850.2000;0.5169;2.2442;
850.5000;0.5201;2.2558;
850.8000;0.5210;2.2489;
851.1000;0.5210;2.2489;
851.4000;0.5210;2.2604;
851.7000;0.5201;2.2581;
852.0000;0.5177;2.2558;
852.3000;0.5210;2.2558;
852.6000;0.5242;2.2766;
852.9000;0.5193;2.2697;
853.2000;0.5185;2.2627;
853.5000;0.5193;2.2535;
853.8000;0.5193;2.2651;
854.1000;0.5226;2.2789;
854.4000;0.5193;2.2743;
854.7000;0.5193;2.2743;
855.0000;0.5153;2.2720;
855.3000;0.5193;2.2651;
855.6000;0.5185;2.2558;
855.9000;0.5161;2.2465;
856.2000;0.5144;2.2373;
856.5000;0.5153;2.2465;
856.8000;0.5267;2.2789;
857.1000;0.5193;2.2627;
857.4000;0.5234;2.2789;
857.7000;0.5185;2.2697;
858.0000;0.5193;2.2651;
858.3000;0.5258;2.2743;
858.6000;0.5177;2.2558;
858.9000;0.5120;2.2396;
859.2000;0.5193;2.2512;
859.5000;0.5193;2.2489;
859.8000;0.5193;2.2535;
860.1000;0.5210;2.2535;
860.4000;0.5153;2.2512;
860.7000;0.5201;2.2627;
861.0000;0.5185;2.2651;
861.3000;0.5193;2.2766;
861.6000;0.5169;2.2743;
861.9000;0.5193;2.2812;
862.2000;0.5185;2.2812;
862.5000;0.5185;2.2766;
862.8000;0.5185;2.2720;
863.1000;0.5201;2.2812;
863.4000;0.5193;2.2836;
863.7000;0.5177;2.2766;
864.0000;0.5210;2.2812;
864.3000;0.5185;2.2674;
864.6000;0.5104;2.2373;
864.9000;0.5210;2.2627;
865.2000;0.5177;2.2558;
865.5000;0.5185;2.2558;
865.8000;0.5177;2.2535;
866.1000;0.5177;2.2535;
866.4000;0.5161;2.2558;
866.7000;0.5193;2.2697;
867.0000;0.5193;2.2720;
867.3000;0.5177;2.2674;
867.6000;0.5169;2.2581;
867.9000;0.5193;2.2697;
868.2000;0.5201;2.2812;
868.5000;0.5177;2.2766;
868.8000;0.5185;2.2766;
869.1000;0.5201;2.2836;
869.4000;0.5193;2.2697;
869.7000;0.5177;2.2674;
870.0000;0.5112;2.2535;
870.3000;0.5169;2.2627;
870.6000;0.5185;2.2697;
870.9000;0.5201;2.2604;
871.2000;0.5185;2.2604;
871.5000;0.5177;2.2627;
871.8000;0.5177;2.2651;
872.1000;0.5250;2.2812;
872.4000;0.5201;2.2743;
872.7000;0.5185;2.2674;
873.0000;0.5169;2.2697;
873.3000;0.5177;2.2651;
873.6000;0.5210;2.2651;
873.9000;0.5177;2.2674;
874.2000;0.5169;2.2789;
874.5000;0.5185;2.2789;
874.8000;0.5185;2.2812;
875.1000;0.5193;2.2697;
875.4000;0.5193;2.2720;
875.7000;0.5104;2.2674;
876.0000;0.5193;2.2789;
876.3000;0.5161;2.2836;
876.6000;0.5185;2.2882;
876.9000;0.5177;2.2882;
877.2000;0.5177;2.2882;
877.5000;0.5169;2.2789;
877.8000;0.5185;2.2859;
878.1000;0.5185;2.2766;
878.4000;0.5185;2.2651;
878.7000;0.5185;2.2604;
879.0000;0.5169;2.2558;
879.3000;0.5185;2.2581;
879.6000;0.5185;2.2558;
879.9000;0.5193;2.2558;
880.2000;0.5185;2.2558;
880.5000;0.5193;2.2697;
880.8000;0.5161;2.2720;
881.1000;0.5193;2.2836;
881.4000;0.5153;2.2697;
881.7000;0.5169;2.2743;
882.0000;0.5161;2.2604;
882.3000;0.5169;2.2535;
882.6000;0.5185;2.2489;
882.9000;0.5226;2.2651;
883.2000;0.5169;2.2465;
883.5000;0.5169;2.2489;
883.8000;0.5177;2.2535;
884.1000;0.5193;2.2535;
884.4000;0.5169;2.2558;
884.7000;0.5193;2.2581;
885.0000;0.5177;2.2558;
885.3000;0.5210;2.2604;
885.6000;0.5144;2.2489;
885.9000;0.5169;2.2581;
886.2000;0.5185;2.2627;
886.5000;0.5218;2.2674;
886.8000;0.5169;2.2535;
887.1000;0.5169;2.2465;
887.4000;0.5185;2.2396;
887.7000;0.5177;2.2373;
888.0000;0.5120;2.2280;
888.3000;0.5169;2.2327;
888.6000;0.5144;2.2211;
888.9000;0.5169;2.2257;
889.2000;0.5169;2.2303;
889.5000;0.5177;2.2303;
889.8000;0.5169;2.2327;
890.1000;0.5185;2.2419;
890.4000;0.5169;2.2419;
890.7000;0.5161;2.2419;
891.0000;0.5185;2.2489;
891.3000;0.5185;2.2489;
891.6000;0.5291;2.2766;
891.9000;0.5169;2.2396;
892.2000;0.5169;2.2419;
892.5000;0.5161;2.2373;
892.8000;0.5169;2.2350;
893.1000;0.5161;2.2327;
893.4000;0.5169;2.2234;
893.7000;0.5177;2.2350;
894.0000;0.5234;2.2558;
894.3000;0.5177;2.2303;
894.6000;0.5169;2.2257;
894.9000;0.5201;2.2303;
895.2000;0.5177;2.2257;
895.5000;0.5193;2.2350;
895.8000;0.5193;2.2303;
896.1000;0.5201;2.2419;
896.4000;0.5144;2.2257;
896.7000;0.5177;2.2419;
897.0000;0.5136;2.2327;
897.3000;0.5169;2.2465;
897.6000;0.5177;2.2581;
897.9000;0.5169;2.2604;
898.2000;0.5161;2.2535;
898.5000;0.5193;2.2489;
898.8000;0.5193;2.2419;
899.1000;0.5185;2.2419;
899.4000;0.5153;2.2280;
899.7000;0.5169;2.2350;
900.0000;0.5177;2.2396;
900.3000;0.5161;2.2442;
900.6000;0.5185;2.2627;
900.9000;0.5136;2.2535;
901.2000;0.5177;2.2720;
901.5000;0.5201;2.2720;
901.8000;0.5185;2.2674;
902.1000;0.5161;2.2604;
902.4000;0.5218;2.2789;
902.7000;0.5226;2.2812;
903.0000;0.5185;2.2766;
903.3000;0.5177;2.2627;
903.6000;0.5177;2.2604;
903.9000;0.5169;2.2535;
904.2000;0.5185;2.2535;
904.5000;0.5177;2.2442;
904.8000;0.5210;2.2442;
905.1000;0.5193;2.2442;
905.4000;0.5161;2.2350;
905.7000;0.5218;2.2489;
906.0000;0.5185;2.2327;
906.3000;0.5185;2.2188;
906.6000;0.5177;2.2165;
906.9000;0.5128;2.2142;
907.2000;0.5161;2.2350;
907.5000;0.5185;2.2373;
907.8000;0.5136;2.2280;
908.1000;0.5169;2.2350;
908.4000;0.5120;2.2327;
908.7000;0.5185;2.2489;
909.0000;0.5177;2.2512;
909.3000;0.5177;2.2465;
909.6000;0.5218;2.2535;
909.9000;0.5226;2.2627;
910.2000;0.5169;2.2419;
910.5000;0.5226;2.2558;
910.8000;0.5177;2.2396;
911.1000;0.5177;2.2373;
911.4000;0.5144;2.2396;
911.7000;0.5104;2.2350;
912.0000;0.5161;2.2442;
912.3000;0.5128;2.2396;
912.6000;0.5161;2.2512;
912.9000;0.5071;2.2350;
913.2000;0.5144;2.2651;
913.5000;0.5177;2.2581;
913.8000;0.5177;2.2558;
914.1000;0.5161;2.2465;
914.4000;0.5161;2.2465;
914.7000;0.5161;2.2442;
915.0000;0.5153;2.2373;
915.3000;0.5169;2.2419;
915.6000;0.5177;2.2396;
915.9000;0.5153;2.2442;
916.2000;0.5153;2.2442;
916.5000;0.5153;2.2373;
916.8000;0.5169;2.2350;
917.1000;0.5161;2.2327;
917.4000;0.5144;2.2188;
917.7000;0.5161;2.2257;
918.0000;0.5169;2.2234;
918.3000;0.5120;2.2188;
918.6000;0.5144;2.2327;
918.9000;0.5136;2.2350;
919.2000;0.5218;2.2489;
919.5000;0.5161;2.2303;
919.8000;0.5161;2.2350;
920.1000;0.5136;2.2350;
920.4000;0.5185;2.2489;
920.7000;0.5210;2.2535;
921.0000;0.5153;2.2489;
921.3000;0.5177;2.2373;
921.6000;0.5169;2.2188;
921.9000;0.5177;2.2234;
922.2000;0.5177;2.2280;
922.5000;0.5161;2.2373;
922.8000;0.5161;2.2442;
923.1000;0.5144;2.2512;
923.4000;0.5185;2.2604;
923.7000;0.5063;2.2257;
924.0000;0.5153;2.2489;
924.3000;0.5210;2.2604;
924.6000;0.5153;2.2558;
924.9000;0.5161;2.2558;
925.2000;0.5161;2.2581;
925.5000;0.5161;2.2535;
925.8000;0.5218;2.2674;
926.1000;0.5104;2.2396;
926.4000;0.5185;2.2512;
926.7000;0.5153;2.2373;
927.0000;0.5169;2.2442;
927.3000;0.5242;2.2604;
927.6000;0.5267;2.2697;
927.9000;0.5136;2.2442;
928.2000;0.5153;2.2442;
928.5000;0.5185;2.2535;
928.8000;0.5193;2.2512;
929.1000;0.5210;2.2535;
929.4000;0.5153;2.2373;
929.7000;0.5169;2.2396;
930.0000;0.5161;2.2257;
930.3000;0.5161;2.2234;
930.6000;0.5153;2.2211;
930.9000;0.5112;2.2234;
931.2000;0.5177;2.2489;
931.5000;0.5177;2.2465;
931.8000;0.5177;2.2489;
932.1000;0.5161;2.2419;
932.4000;0.5104;2.2257;
932.7000;0.5153;2.2327;
933.0000;0.5177;2.2396;
933.3000;0.5136;2.2350;
933.6000;0.5193;2.2465;
933.9000;0.5177;2.2396;
934.2000;0.5177;2.2350;
934.5000;0.5153;2.2280;
934.8000;0.5169;2.2465;
935.1000;0.5144;2.2489;
935.4000;0.5136;2.2512;
935.7000;0.5153;2.2535;
936.0000;0.5161;2.2558;
936.3000;0.5136;2.2373;
936.6000;0.5144;2.2373;
936.9000;0.5153;2.2489;
937.2000;0.5169;2.2535;
937.5000;0.5144;2.2581;
937.8000;0.5144;2.2651;
938.1000;0.5185;2.2581;
938.4000;0.5161;2.2512;
938.7000;0.5193;2.2651;
939.0000;0.5136;2.2350;
939.3000;0.5169;2.2419;
939.6000;0.5153;2.2465;
939.9000;0.5153;2.2489;
940.2000;0.5153;2.2489;
940.5000;0.5153;2.2512;
940.8000;0.5153;2.2465;
941.1000;0.5153;2.2512;
941.4000;0.5161;2.2489;
941.7000;0.5169;2.2581;
942.0000;0.5128;2.2512;
942.3000;0.5169;2.2558;
942.6000;0.5161;2.2419;
942.9000;0.5144;2.2396;
943.2000;0.5153;2.2419;
943.5000;0.5144;2.2489;
943.8000;0.5136;2.2512;
944.1000;0.5177;2.2581;
944.4000;0.5153;2.2558;
944.7000;0.5185;2.2651;
945.0000;0.5153;2.2627;
945.3000;0.5088;2.2512;
945.6000;0.5193;2.2743;
945.9000;0.5193;2.2743;
946.2000;0.5177;2.2604;
946.5000;0.5153;2.2489;
946.8000;0.5104;2.2465;
947.1000;0.5136;2.2581;
947.4000;0.5226;2.2859;
947.7000;0.5169;2.2697;
948.0000;0.5161;2.2581;
948.3000;0.5201;2.2697;
948.6000;0.5128;2.2512;
948.9000;0.5177;2.2674;
949.2000;0.5201;2.2766;
949.5000;0.5161;2.2674;
949.8000;0.5193;2.2766;
950.1000;0.5161;2.2697;
950.4000;0.5136;2.2627;
950.7000;0.5128;2.2581;
951.0000;0.5161;2.2604;
951.3000;0.5136;2.2535;
951.6000;0.5169;2.2627;
951.9000;0.5153;2.2581;
952.2000;0.5144;2.2512;
952.5000;0.5169;2.2581;
952.8000;0.5177;2.2604;
953.1000;0.5120;2.2558;
953.4000;0.5144;2.2581;
953.7000;0.5144;2.2581;
954.0000;0.5169;2.2651;
954.3000;0.5161;2.2674;
954.6000;0.5161;2.2627;
954.9000;0.5144;2.2651;
955.2000;0.5169;2.2627;
955.5000;0.5112;2.2535;
955.8000;0.5169;2.2581;
956.1000;0.5185;2.2697;
956.4000;0.5226;2.2720;
956.7000;0.5153;2.2627;
957.0000;0.5169;2.2651;
957.3000;0.5153;2.2674;
957.6000;0.5161;2.2720;
957.9000;0.5120;2.2627;
958.2000;0.5144;2.2581;
958.5000;0.5128;2.2535;
958.8000;0.5161;2.2604;
959.1000;0.5161;2.2558;
959.4000;0.5161;2.2674;
959.7000;0.5201;2.2697;
960.0000;0.5193;2.2697;
960.3000;0.5169;2.2604;
960.6000;0.5136;2.2558;
960.9000;0.5144;2.2512;
961.2000;0.5169;2.2558;
961.5000;0.5169;2.2627;
961.8000;0.5177;2.2651;
962.1000;0.5161;2.2604;
962.4000;0.5153;2.2419;
962.7000;0.5153;2.2442;
963.0000;0.5144;2.2396;
963.3000;0.5234;2.2720;
963.6000;0.5161;2.2535;
963.9000;0.5128;2.2489;
964.2000;0.5136;2.2512;
964.5000;0.5136;2.2604;
964.8000;0.5144;2.2581;
965.1000;0.5128;2.2535;
965.4000;0.5161;2.2535;
965.7000;0.5267;2.2789;
966.0000;0.5153;2.2442;
966.3000;0.5104;2.2373;
966.6000;0.5153;2.2465;
966.9000;0.5161;2.2465;
967.2000;0.5144;2.2373;
967.5000;0.5136;2.2327;
967.8000;0.5153;2.2419;
968.1000;0.5144;2.2327;
968.4000;0.5144;2.2350;
968.7000;0.5144;2.2350;
969.0000;0.5161;2.2373;
969.3000;0.5144;2.2257;
969.6000;0.5144;2.2211;
969.9000;0.5144;2.2118;
970.2000;0.5128;2.2072;
970.5000;0.5120;2.2072;
970.8000;0.5136;2.2234;
971.1000;0.5120;2.2188;
971.4000;0.5128;2.2280;
971.7000;0.5128;2.2280;
972.0000;0.5112;2.2188;
972.3000;0.5185;2.2350;
972.6000;0.5153;2.2280;
972.9000;0.5128;2.2211;
973.2000;0.5161;2.2327;
973.5000;0.5169;2.2303;
973.8000;0.5169;2.2280;
974.1000;0.5136;2.2257;
974.4000;0.5144;2.2465;
974.7000;0.5153;2.2442;
975.0000;0.5153;2.2442;
975.3000;0.5120;2.2396;
975.6000;0.5144;2.2535;
975.9000;0.5153;2.2512;
976.2000;0.5153;2.2558;
976.5000;0.5128;2.2465;
976.8000;0.5144;2.2489;
977.1000;0.5161;2.2558;
977.4000;0.5193;2.2651;
977.7000;0.5193;2.2697;
978.0000;0.5144;2.2627;
978.3000;0.5144;2.2558;
978.6000;0.5169;2.2581;
978.9000;0.5144;2.2465;
979.2000;0.5153;2.2489;
979.5000;0.5153;2.2442;
979.8000;0.5136;2.2419;
980.1000;0.5258;2.2581;
980.4000;0.5144;2.2327;
980.7000;0.5136;2.2373;
981.0000;0.5144;2.2373;
981.3000;0.5153;2.2396;
981.6000;0.5136;2.2327;
981.9000;0.5144;2.2327;
982.2000;0.5169;2.2350;
982.5000;0.5201;2.2442;
982.8000;0.5161;2.2257;
983.1000;0.5161;2.2350;
983.4000;0.5218;2.2512;
983.7000;0.5153;2.2373;
984.0000;0.5136;2.2234;
984.3000;0.5161;2.2303;
984.6000;0.5153;2.2280;
984.9000;0.5234;2.2512;
985.2000;0.5161;2.2396;
985.5000;0.5161;2.2465;
985.8000;0.5144;2.2373;
986.1000;0.5161;2.2419;
986.4000;0.5144;2.2280;
986.7000;0.5136;2.2257;
987.0000;0.5144;2.2303;
987.3000;0.5161;2.2373;
987.6000;0.5153;2.2373;
987.9000;0.5144;2.2350;
988.2000;0.5177;2.2442;
988.5000;0.5161;2.2396;
988.8000;0.5144;2.2465;
989.1000;0.5153;2.2512;
989.4000;0.5153;2.2535;
989.7000;0.5144;2.2558;
990.0000;0.5112;2.2442;
990.3000;0.5153;2.2465;
990.6000;0.5144;2.2373;
990.9000;0.5144;2.2373;
991.2000;0.5218;2.2489;
991.5000;0.5104;2.2234;
991.8000;0.5144;2.2350;
992.1000;0.5112;2.2327;
992.4000;0.5112;2.2257;
992.7000;0.5022;2.2026;
993.0000;0.5153;2.2327;
993.3000;0.5153;2.2211;
993.6000;0.5169;2.2211;
993.9000;0.5161;2.2280;
994.2000;0.5128;2.2234;
994.5000;0.5136;2.2234;
994.8000;0.5201;2.2350;
995.1000;0.5169;2.2280;
995.4000;0.5128;2.2280;
995.7000;0.5128;2.2373;
996.0000;0.5136;2.2465;
996.3000;0.5161;2.2465;
996.6000;0.5136;2.2396;
996.9000;0.5096;2.2303;
997.2000;0.5161;2.2350;
997.5000;0.5161;2.2350;
997.8000;0.5104;2.2234;
998.1000;0.5144;2.2396;
998.4000;0.5144;2.2350;
998.7000;0.5193;2.2581;
999.0000;0.5047;2.2280;
999.3000;0.5136;2.2465;
999.6000;0.5153;2.2558;
999.9000;0.5234;2.2674;
1000.2000;0.5161;2.2512;
1000.5000;0.5136;2.2535;
1000.8000;0.5096;2.2419;
1001.1000;0.5144;2.2512;
1001.4000;0.5153;2.2558;
1001.7000;0.5128;2.2465;
1002.0000;0.5104;2.2419;
1002.3000;0.5136;2.2558;
1002.6000;0.5144;2.2512;
1002.9000;0.5210;2.2558;
1003.2000;0.5136;2.2442;
1003.5000;0.5120;2.2396;
1003.8000;0.5193;2.2604;
1004.1000;0.5185;2.2604;
1004.4000;0.5120;2.2489;
1004.7000;0.5144;2.2442;
1005.0000;0.5153;2.2419;
1005.3000;0.5161;2.2327;
1005.6000;0.5120;2.2303;
1005.9000;0.5055;2.2142;
1006.2000;0.5161;2.2280;
1006.5000;0.5177;2.2257;
1006.8000;0.5136;2.2072;
1007.1000;0.5153;2.2049;
1007.4000;0.5153;2.2003;
1007.7000;0.5136;2.2003;
1008.0000;0.5161;2.2049;
1008.3000;0.5153;2.2049;
1008.6000;0.5136;2.2049;
1008.9000;0.5144;2.2026;
1009.2000;0.5153;2.2049;
1009.5000;0.5161;2.2095;
1009.8000;0.5136;2.2072;
1010.1000;0.5144;2.2165;
1010.4000;0.5096;2.2072;
1010.7000;0.5136;2.2165;
1011.0000;0.5144;2.2165;
1011.3000;0.5128;2.2118;
1011.6000;0.5144;2.2072;
1011.9000;0.5128;2.2003;
1012.2000;0.5136;2.1980;
1012.5000;0.5153;2.2118;
1012.8000;0.5144;2.2118;
1013.1000;0.5136;2.2049;
1013.4000;0.5144;2.2095;
1013.7000;0.5136;2.2095;
1014.0000;0.5120;2.2118;
1014.3000;0.5104;2.2188;
1014.6000;0.5144;2.2257;
1014.9000;0.5144;2.2118;
1015.2000;0.5128;2.2049;
1015.5000;0.5136;2.2026;
1015.8000;0.5144;2.2095;
1016.1000;0.5144;2.2095;
1016.4000;0.5144;2.2072;
1016.7000;0.5169;2.2142;
1017.0000;0.5169;2.2049;
1017.3000;0.5153;2.2026;
1017.6000;0.5144;2.2072;
1017.9000;0.5120;2.2003;
1018.2000;0.5161;2.2142;
1018.5000;0.5169;2.2165;
1018.8000;0.5136;2.2118;
1019.1000;0.5242;2.2350;
1019.4000;0.5161;2.2211;
1019.7000;0.5136;2.2211;
1020.0000;0.5136;2.2211;
1020.3000;0.5128;2.2234;
1020.6000;0.5153;2.2257;
1020.9000;0.5193;2.2350;
1021.2000;0.5153;2.2234;
1021.5000;0.5144;2.2234;
1021.8000;0.5136;2.2257;
1022.1000;0.5144;2.2327;
1022.4000;0.5144;2.2280;
1022.7000;0.5128;2.2280;
1023.0000;0.5161;2.2280;
1023.3000;0.5144;2.2280;
1023.6000;0.5161;2.2303;
1023.9000;0.5128;2.2350;
1024.2000;0.5128;2.2465;
1024.5000;0.5144;2.2419;
1024.8000;0.5153;2.2350;
1025.1000;0.5185;2.2396;
1025.4000;0.5120;2.2350;
1025.7000;0.5112;2.2257;
1026.0000;0.5234;2.2627;
1026.3000;0.5120;2.2327;
1026.6000;0.5120;2.2257;
1026.9000;0.5144;2.2350;
1027.2000;0.5136;2.2327;
1027.5000;0.5112;2.2211;
1027.8000;0.5136;2.2234;
1028.1000;0.5136;2.2303;
1028.4000;0.5136;2.2303;
1028.7000;0.5120;2.2234;
1029.0000;0.5128;2.2303;
1029.3000;0.5144;2.2396;
1029.6000;0.5120;2.2280;
1029.9000;0.5136;2.2350;
1030.2000;0.5177;2.2465;
1030.5000;0.5153;2.2558;
1030.8000;0.5153;2.2558;
1031.1000;0.5136;2.2419;
1031.4000;0.5136;2.2373;
1031.7000;0.5128;2.2396;
1032.0000;0.5128;2.2442;
1032.3000;0.5161;2.2512;
1032.6000;0.5144;2.2465;
1032.9000;0.5128;2.2419;
1033.2000;0.5136;2.2512;
1033.5000;0.5136;2.2489;
1033.8000;0.5128;2.2419;
1034.1000;0.5144;2.2419;
1034.4000;0.5144;2.2442;
1034.7000;0.5161;2.2558;
1035.0000;0.5153;2.2512;
1035.3000;0.5185;2.2558;
1035.6000;0.5153;2.2489;
1035.9000;0.5177;2.2512;
1036.2000;0.5088;2.2188;
1036.5000;0.5153;2.2327;
1036.8000;0.5112;2.2280;
1037.1000;0.5144;2.2257;
1037.4000;0.5193;2.2396;
1037.7000;0.5112;2.2188;
1038.0000;0.5128;2.2234;
1038.3000;0.5144;2.2211;
1038.6000;0.5144;2.2188;
1038.9000;0.5128;2.2211;
1039.2000;0.5153;2.2211;
1039.5000;0.5144;2.2188;
1039.8000;0.5128;2.2188;
1040.1000;0.5112;2.2118;
1040.4000;0.5201;2.2234;
1040.7000;0.5161;2.2280;
1041.0000;0.5128;2.2188;
1041.3000;0.5144;2.2257;
1041.6000;0.5185;2.2419;
1041.9000;0.5136;2.2350;
1042.2000;0.5112;2.2350;
1042.5000;0.5136;2.2373;
1042.8000;0.5088;2.2234;
1043.1000;0.5177;2.2512;
1043.4000;0.5210;2.2581;
1043.7000;0.5144;2.2465;
1044.0000;0.5169;2.2489;
1044.3000;0.5047;2.2165;
1044.6000;0.5104;2.2350;
1044.9000;0.5177;2.2581;
1045.2000;0.5193;2.2604;
1045.5000;0.5136;2.2581;
1045.8000;0.5193;2.2720;
1046.1000;0.5144;2.2651;
1046.4000;0.5161;2.2674;
1046.7000;0.5193;2.2697;
1047.0000;0.5128;2.2465;
1047.3000;0.5128;2.2465;
1047.6000;0.5120;2.2419;
1047.9000;0.5112;2.2373;
1048.2000;0.5112;2.2350;
1048.5000;0.5144;2.2489;
1048.8000;0.5136;2.2489;
1049.1000;0.5136;2.2558;
1049.4000;0.5104;2.2465;
1049.7000;0.5120;2.2558;
1050.0000;0.5218;2.2651;
1050.3000;0.5144;2.2489;
1050.6000;0.5120;2.2396;
1050.9000;0.5120;2.2465;
1051.2000;0.5136;2.2512;
1051.5000;0.5104;2.2442;
1051.8000;0.5136;2.2373;
1052.1000;0.5055;2.2188;
1052.4000;0.5136;2.2303;
1052.7000;0.5144;2.2373;
1053.0000;0.5071;2.2234;
1053.3000;0.5128;2.2327;
1053.6000;0.5153;2.2373;
1053.9000;0.5136;2.2373;
1054.2000;0.5112;2.2303;
1054.5000;0.5120;2.2211;
1054.8000;0.5136;2.2165;
1055.1000;0.5169;2.2211;
1055.4000;0.5153;2.2211;
1055.7000;0.5193;2.2373;
1056.0000;0.5112;2.2280;
1056.3000;0.5136;2.2442;
1056.6000;0.5136;2.2535;
1056.9000;0.5136;2.2581;
1057.2000;0.5120;2.2535;
1057.5000;0.5128;2.2581;
1057.8000;0.5136;2.2535;
1058.1000;0.5112;2.2442;
1058.4000;0.5047;2.2350;
1058.7000;0.5161;2.2558;
1059.0000;0.5136;2.2512;
1059.3000;0.5128;2.2512;
1059.6000;0.5136;2.2512;
1059.9000;0.5144;2.2465;
1060.2000;0.5169;2.2512;
1060.5000;0.5144;2.2373;
1060.8000;0.5136;2.2350;
1061.1000;0.5161;2.2396;
1061.4000;0.5169;2.2535;
1061.7000;0.5169;2.2581;
1062.0000;0.5144;2.2489;
1062.3000;0.5128;2.2442;
1062.6000;0.5185;2.2535;
1062.9000;0.5177;2.2489;
1063.2000;0.5120;2.2489;
1063.5000;0.5144;2.2535;
1063.8000;0.5112;2.2558;
1064.1000;0.5088;2.2419;
1064.4000;0.5120;2.2442;
1064.7000;0.5079;2.2373;
1065.0000;0.5136;2.2442;
1065.3000;0.5153;2.2512;
1065.6000;0.5128;2.2465;
1065.9000;0.5128;2.2396;
1066.2000;0.5161;2.2465;
1066.5000;0.5193;2.2604;
1066.8000;0.5128;2.2581;
1067.1000;0.5112;2.2581;
1067.4000;0.5136;2.2651;
1067.7000;0.5185;2.2674;
1068.0000;0.5153;2.2558;
1068.3000;0.5136;2.2419;
1068.6000;0.5136;2.2419;
1068.9000;0.5128;2.2396;
1069.2000;0.5144;2.2465;
1069.5000;0.5161;2.2512;
1069.8000;0.5144;2.2512;
1070.1000;0.5120;2.2489;
1070.4000;0.5120;2.2396;
1070.7000;0.5120;2.2303;
1071.0000;0.5128;2.2350;
1071.3000;0.5128;2.2257;
1071.6000;0.5128;2.2257;
1071.9000;0.5258;2.2581;
1072.2000;0.5120;2.2303;
1072.5000;0.5136;2.2396;
1072.8000;0.5120;2.2442;
1073.1000;0.5128;2.2581;
1073.4000;0.5128;2.2558;
1073.7000;0.5144;2.2604;
1074.0000;0.5128;2.2627;
1074.3000;0.5120;2.2581;
1074.6000;0.5136;2.2581;
1074.9000;0.5112;2.2489;
1075.2000;0.5112;2.2419;
1075.5000;0.5169;2.2442;
1075.8000;0.5128;2.2303;
1076.1000;0.5136;2.2465;
1076.4000;0.5144;2.2512;
1076.7000;0.5128;2.2465;
1077.0000;0.5185;2.2627;
1077.3000;0.5128;2.2489;
1077.6000;0.5136;2.2442;
1077.9000;0.5136;2.2373;
1078.2000;0.5136;2.2396;
1078.5000;0.5136;2.2373;
1078.8000;0.5144;2.2303;
1079.1000;0.5144;2.2327;
1079.4000;0.5128;2.2303;
1079.7000;0.5128;2.2303;
1080.0000;0.5144;2.2350;
1080.3000;0.5071;2.2049;
1080.6000;0.5120;2.2142;
1080.9000;0.5136;2.2188;
1081.2000;0.5144;2.2095;
1081.5000;0.5153;2.2188;
1081.8000;0.5144;2.2165;
1082.1000;0.5161;2.2211;
1082.4000;0.5096;2.2118;
1082.7000;0.5128;2.2165;
1083.0000;0.5071;2.2072;
1083.3000;0.5031;2.2003;
1083.6000;0.5136;2.2350;
1083.9000;0.5153;2.2303;
1084.2000;0.5112;2.2234;
1084.5000;0.5120;2.2257;
1084.8000;0.5120;2.2327;
1085.1000;0.5177;2.2442;
1085.4000;0.5120;2.2350;
1085.7000;0.5136;2.2327;
1086.0000;0.5128;2.2419;
1086.3000;0.5136;2.2442;
1086.6000;0.5128;2.2442;
1086.9000;0.5120;2.2419;
1087.2000;0.5120;2.2465;
1087.5000;0.5120;2.2419;
1087.8000;0.5128;2.2419;
1088.1000;0.5128;2.2442;
1088.4000;0.5144;2.2396;
1088.7000;0.5128;2.2303;
1089.0000;0.5128;2.2373;
1089.3000;0.5144;2.2350;
1089.6000;0.5136;2.2350;
1089.9000;0.5153;2.2373;
1090.2000;0.5136;2.2396;
1090.5000;0.5128;2.2303;
1090.8000;0.5128;2.2350;
1091.1000;0.5112;2.2303;
1091.4000;0.5022;2.2049;
1091.7000;0.5144;2.2350;
1092.0000;0.5169;2.2465;
1092.3000;0.5136;2.2419;
1092.6000;0.5112;2.2442;
1092.9000;0.5055;2.2350;
1093.2000;0.5120;2.2581;
1093.5000;0.5128;2.2489;
1093.8000;0.5112;2.2373;
1094.1000;0.5120;2.2303;
1094.4000;0.5136;2.2465;
1094.7000;0.5136;2.2512;
1095.0000;0.5153;2.2604;
1095.3000;0.5128;2.2558;
1095.6000;0.5112;2.2535;
1095.9000;0.5136;2.2604;
1096.2000;0.5120;2.2465;
1096.5000;0.5120;2.2558;
1096.8000;0.5096;2.2558;
1097.1000;0.5144;2.2627;
1097.4000;0.5242;2.2766;
1097.7000;0.5153;2.2651;
1098.0000;0.5136;2.2627;
1098.3000;0.5136;2.2720;
1098.6000;0.5128;2.2627;
1098.9000;0.5055;2.2512;
1099.2000;0.5120;2.2697;
1099.5000;0.5136;2.2627;
1099.8000;0.5112;2.2581;
1100.1000;0.5234;2.2859;
1100.4000;0.5136;2.2604;
1100.7000;0.5120;2.2697;
1101.0000;0.5112;2.2651;
1101.3000;0.5136;2.2651;
1101.6000;0.5120;2.2651;
1101.9000;0.5128;2.2720;
1102.2000;0.5128;2.2651;
1102.5000;0.5128;2.2674;
1102.8000;0.5136;2.2627;
1103.1000;0.5136;2.2535;
1103.4000;0.5218;2.2674;
1103.7000;0.5153;2.2489;
1104.0000;0.5104;2.2350;
1104.3000;0.5128;2.2419;
1104.6000;0.5120;2.2442;
1104.9000;0.5120;2.2419;
1105.2000;0.5128;2.2512;
1105.5000;0.5112;2.2373;
1105.8000;0.5128;2.2465;
1106.1000;0.5136;2.2512;
1106.4000;0.5136;2.2581;
1106.7000;0.5128;2.2581;
1107.0000;0.5128;2.2604;
1107.3000;0.5242;2.2859;
1107.6000;0.5144;2.2627;
1107.9000;0.5144;2.2651;
1108.2000;0.5144;2.2674;
1108.5000;0.5128;2.2674;
1108.8000;0.5153;2.2743;
1109.1000;0.5136;2.2674;
1109.4000;0.5144;2.2674;
1109.7000;0.5104;2.2558;
1110.0000;0.5136;2.2604;
1110.3000;0.5112;2.2558;
1110.6000;0.5144;2.2674;
1110.9000;0.5120;2.2697;
1111.2000;0.5144;2.2697;
1111.5000;0.5136;2.2720;
1111.8000;0.5153;2.2743;
1112.1000;0.5112;2.2743;
1112.4000;0.5136;2.2766;
1112.7000;0.5153;2.2743;
1113.0000;0.5128;2.2720;
1113.3000;0.5136;2.2697;
1113.6000;0.5144;2.2720;
1113.9000;0.5153;2.2743;
1114.2000;0.5136;2.2743;
1114.5000;0.5153;2.2743;
1114.8000;0.5136;2.2674;
1115.1000;0.5136;2.2651;
1115.4000;0.5136;2.2674;
1115.7000;0.5153;2.2789;
1116.0000;0.5144;2.2720;
1116.3000;0.5120;2.2651;
1116.6000;0.5120;2.2651;
1116.9000;0.5104;2.2697;
1117.2000;0.5088;2.2743;
1117.5000;0.5136;2.2812;
1117.8000;0.5136;2.2812;
1118.1000;0.5169;2.2836;
1118.4000;0.5136;2.2766;
1118.7000;0.5128;2.2720;
1119.0000;0.5088;2.2674;
1119.3000;0.5136;2.2720;
1119.6000;0.5120;2.2674;
1119.9000;0.5128;2.2743;
1120.2000;0.5128;2.2743;
1120.5000;0.5120;2.2697;
1120.8000;0.5112;2.2720;
1121.1000;0.5136;2.2743;
1121.4000;0.5136;2.2697;
1121.7000;0.5120;2.2627;
1122.0000;0.5104;2.2581;
1122.3000;0.5120;2.2604;
1122.6000;0.5136;2.2720;
1122.9000;0.5144;2.2720;
1123.2000;0.5120;2.2720;
1123.5000;0.5136;2.2766;
1123.8000;0.5128;2.2674;
1124.1000;0.5136;2.2512;
1124.4000;0.5144;2.2512;
1124.7000;0.5128;2.2512;
1125.0000;0.5136;2.2535;
1125.3000;0.5128;2.2558;
1125.6000;0.5144;2.2512;
1125.9000;0.5104;2.2442;
1126.2000;0.5096;2.2396;
1126.5000;0.5136;2.2558;
1126.8000;0.5144;2.2581;
1127.1000;0.5120;2.2535;
1127.4000;0.5104;2.2558;
1127.7000;0.5112;2.2581;
1128.0000;0.5226;2.2836;
1128.3000;0.5120;2.2558;
1128.6000;0.5096;2.2535;
1128.9000;0.5120;2.2627;
1129.2000;0.5136;2.2581;
1129.5000;0.5120;2.2627;
1129.8000;0.5120;2.2558;
1130.1000;0.5120;2.2535;
1130.4000;0.5112;2.2419;
1130.7000;0.5136;2.2489;
1131.0000;0.5201;2.2627;
1131.3000;0.5088;2.2327;
1131.6000;0.5112;2.2280;
1131.9000;0.5120;2.2373;
1132.2000;0.5104;2.2442;
1132.5000;0.5226;2.2743;
1132.8000;0.5128;2.2558;
1133.1000;0.5128;2.2512;
1133.4000;0.5104;2.2396;
1133.7000;0.5136;2.2396;
1134.0000;0.5112;2.2257;
1134.3000;0.5104;2.2327;
1134.6000;0.5112;2.2489;
1134.9000;0.5144;2.2512;
1135.2000;0.5153;2.2489;
1135.5000;0.5120;2.2535;
1135.8000;0.5161;2.2720;
1136.1000;0.5055;2.2442;
1136.4000;0.5120;2.2535;
1136.7000;0.5112;2.2535;
1137.0000;0.5136;2.2604;
1137.3000;0.5112;2.2535;
1137.6000;0.5112;2.2581;
1137.9000;0.5136;2.2720;
1138.2000;0.5144;2.2766;
1138.5000;0.5193;2.2812;
1138.8000;0.5169;2.2743;
1139.1000;0.5144;2.2651;
1139.4000;0.5120;2.2766;
1139.7000;0.5153;2.2859;
1140.0000;0.5120;2.2720;
1140.3000;0.5128;2.2836;
1140.6000;0.5136;2.2882;
1140.9000;0.5104;2.2674;
1141.2000;0.5063;2.2604;
1141.5000;0.5218;2.2951;
1141.8000;0.5153;2.2766;
1142.1000;0.5136;2.2720;
1142.4000;0.5136;2.2743;
1142.7000;0.5120;2.2720;
1143.0000;0.5136;2.2743;
1143.3000;0.5136;2.2836;
1143.6000;0.5161;2.2836;
1143.9000;0.5120;2.2766;
1144.2000;0.5128;2.2789;
1144.5000;0.5128;2.2789;
1144.8000;0.5136;2.2766;
1145.1000;0.5144;2.2836;
1145.4000;0.5112;2.2697;
1145.7000;0.5161;2.2789;
1146.0000;0.5120;2.2697;
1146.3000;0.5136;2.2674;
1146.6000;0.5128;2.2651;
1146.9000;0.5128;2.2627;
1147.2000;0.5161;2.2697;
1147.5000;0.5128;2.2743;
1147.8000;0.5120;2.2674;
1148.1000;0.5161;2.2743;
1148.4000;0.5144;2.2766;
1148.7000;0.5136;2.2743;
1149.0000;0.5039;2.2512;
1149.3000;0.5144;2.2627;
1149.6000;0.5128;2.2674;
1149.9000;0.5120;2.2651;
1150.2000;0.5112;2.2674;
1150.5000;0.5104;2.2674;
1150.8000;0.5120;2.2697;
1151.1000;0.5144;2.2836;
1151.4000;0.5112;2.2789;
1151.7000;0.5226;2.2998;
1152.0000;0.5128;2.2789;
1152.3000;0.5120;2.2743;
1152.6000;0.5112;2.2720;
1152.9000;0.5144;2.2720;
1153.2000;0.5144;2.2697;
1153.5000;0.5136;2.2697;
1153.8000;0.5136;2.2720;
1154.1000;0.5153;2.2766;
1154.4000;0.5136;2.2766;
1154.7000;0.5136;2.2836;
1155.0000;0.5136;2.2789;
1155.3000;0.5136;2.2697;
1155.6000;0.5104;2.2674;
1155.9000;0.5112;2.2720;
1156.2000;0.5144;2.2789;
1156.5000;0.5128;2.2674;
1156.8000;0.5120;2.2558;
1157.1000;0.5039;2.2465;
1157.4000;0.5120;2.2558;
1157.7000;0.5088;2.2419;
1158.0000;0.5128;2.2581;
1158.3000;0.5104;2.2558;
1158.6000;0.5153;2.2651;
1158.9000;0.5104;2.2651;
1159.2000;0.5096;2.2651;
1159.5000;0.5112;2.2697;
1159.8000;0.5079;2.2697;
1160.1000;0.5169;2.2905;
1160.4000;0.5144;2.2789;
1160.7000;0.5063;2.2674;
1161.0000;0.5120;2.2743;
1161.3000;0.5136;2.2789;
1161.6000;0.5128;2.2789;
1161.9000;0.5096;2.2697;
1162.2000;0.5112;2.2697;
1162.5000;0.5120;2.2697;
1162.8000;0.5128;2.2766;
1163.1000;0.5112;2.2720;
1163.4000;0.5120;2.2720;
1163.7000;0.5112;2.2720;
1164.0000;0.5169;2.2836;
1164.3000;0.5112;2.2697;
1164.6000;0.5128;2.2789;
1164.9000;0.5144;2.2836;
1165.2000;0.5128;2.2812;
1165.5000;0.5218;2.2998;
1165.8000;0.5153;2.2766;
1166.1000;0.5088;2.2604;
1166.4000;0.5120;2.2720;
1166.7000;0.5120;2.2651;
1167.0000;0.5153;2.2697;
1167.3000;0.5112;2.2604;
1167.6000;0.5144;2.2766;
1167.9000;0.5112;2.2812;
1168.2000;0.5096;2.2743;
1168.5000;0.5071;2.2604;
1168.8000;0.5128;2.2674;
1169.1000;0.5088;2.2581;
1169.4000;0.5136;2.2627;
1169.7000;0.5128;2.2604;
1170.0000;0.5153;2.2604;
1170.3000;0.5120;2.2558;
1170.6000;0.5128;2.2535;
1170.9000;0.5136;2.2535;
1171.2000;0.5112;2.2604;
1171.5000;0.5096;2.2581;
1171.8000;0.5104;2.2604;
1172.1000;0.5128;2.2627;
1172.4000;0.5128;2.2535;
1172.7000;0.5161;2.2651;
1173.0000;0.5161;2.2581;
1173.3000;0.5128;2.2465;
1173.6000;0.5112;2.2489;
1173.9000;0.5153;2.2581;
1174.2000;0.5088;2.2419;
1174.5000;0.5153;2.2558;
1174.8000;0.5153;2.2581;
1175.1000;0.5128;2.2442;
1175.4000;0.5144;2.2465;
1175.7000;0.5144;2.2419;
1176.0000;0.5112;2.2396;
1176.3000;0.5104;2.2535;
1176.6000;0.5128;2.2627;
1176.9000;0.5128;2.2604;
1177.2000;0.5088;2.2442;
1177.5000;0.5104;2.2581;
1177.8000;0.5136;2.2651;
1178.1000;0.5096;2.2512;
1178.4000;0.5120;2.2512;
1178.7000;0.5120;2.2581;
1179.0000;0.5112;2.2627;
1179.3000;0.5128;2.2651;
1179.6000;0.5104;2.2604;
1179.9000;0.5128;2.2674;
1180.2000;0.5128;2.2674;
1180.5000;0.5136;2.2720;
1180.8000;0.5120;2.2651;
1181.1000;0.5112;2.2674;
1181.4000;0.5112;2.2743;
1181.7000;0.5120;2.2674;
1182.0000;0.5153;2.2651;
1182.3000;0.5153;2.2627;
1182.6000;0.5153;2.2627;
1182.9000;0.5153;2.2604;
1183.2000;0.5144;2.2651;
1183.5000;0.5128;2.2604;
1183.8000;0.5144;2.2581;
1184.1000;0.5128;2.2581;
1184.4000;0.5120;2.2535;
1184.7000;0.5153;2.2697;
1185.0000;0.5063;2.2535;
1185.3000;0.5128;2.2627;
1185.6000;0.5153;2.2720;
1185.9000;0.5128;2.2720;
1186.2000;0.5112;2.2766;
1186.5000;0.5071;2.2720;
1186.8000;0.5193;2.2928;
1187.1000;0.5112;2.2789;
1187.4000;0.5096;2.2859;
1187.7000;0.5079;2.2812;
1188.0000;0.5185;2.3044;
1188.3000;0.5128;2.2812;
1188.6000;0.5112;2.2674;
1188.9000;0.5128;2.2743;
1189.2000;0.5120;2.2743;
1189.5000;0.5161;2.2859;
1189.8000;0.5104;2.2697;
1190.1000;0.5128;2.2604;
1190.4000;0.5120;2.2627;
1190.7000;0.5112;2.2581;
1191.0000;0.5128;2.2651;
1191.3000;0.5128;2.2674;
1191.6000;0.5104;2.2604;
1191.9000;0.5144;2.2720;
1192.2000;0.5128;2.2720;
1192.5000;0.5112;2.2674;
1192.8000;0.5120;2.2604;
1193.1000;0.5120;2.2581;
1193.4000;0.5144;2.2674;
1193.7000;0.5153;2.2697;
1194.0000;0.5169;2.2743;
1194.3000;0.5128;2.2720;
1194.6000;0.5128;2.2789;
1194.9000;0.5136;2.2812;
1195.2000;0.5128;2.2743;
1195.5000;0.5088;2.2720;
1195.8000;0.5063;2.2651;
1196.1000;0.5193;2.2859;
1196.4000;0.5112;2.2720;
1196.7000;0.5112;2.2766;
1197.0000;0.5136;2.2859;
1197.3000;0.5128;2.2974;
1197.6000;0.5128;2.3021;
1197.9000;0.5128;2.2998;
1198.2000;0.5104;2.2882;
1198.5000;0.5128;2.2928;
1198.8000;0.5144;2.2974;
1199.1000;0.5112;2.2720;
1199.4000;0.5071;2.2535;
1199.7000;0.5120;2.2674;
1200.0000;0.5104;2.2697;
1200.3000;0.5039;2.2535;
1200.6000;0.5079;2.2604;
1200.9000;0.5088;2.2651;
1201.2000;0.5128;2.2789;
1201.5000;0.5120;2.2836;
1201.8000;0.5210;2.3021;
1202.1000;0.5136;2.2789;
1202.4000;0.5128;2.2720;
1202.7000;0.5136;2.2697;
1203.0000;0.5120;2.2627;
1203.3000;0.5144;2.2581;
1203.6000;0.5144;2.2627;
1203.9000;0.5112;2.2604;
1204.2000;0.5112;2.2604;
1204.5000;0.5120;2.2697;
1204.8000;0.5144;2.2743;
1205.1000;0.5136;2.2789;
1205.4000;0.5201;2.2836;
1205.7000;0.5112;2.2627;
1206.0000;0.5144;2.2674;
1206.3000;0.5144;2.2674;
1206.6000;0.5128;2.2627;
1206.9000;0.5128;2.2581;
1207.2000;0.5153;2.2627;
1207.5000;0.5136;2.2535;
1207.8000;0.5136;2.2535;
1208.1000;0.5144;2.2581;
1208.4000;0.5136;2.2651;
1208.7000;0.5144;2.2720;
1209.0000;0.5128;2.2766;
1209.3000;0.5120;2.2859;
1209.6000;0.5153;2.2836;
1209.9000;0.5079;2.2674;
1210.2000;0.5136;2.2720;
1210.5000;0.5128;2.2766;
1210.8000;0.5104;2.2720;
1211.1000;0.5120;2.2766;
1211.4000;0.5112;2.2697;
1211.7000;0.5144;2.2743;
1212.0000;0.5136;2.2789;
1212.3000;0.5128;2.2766;
1212.6000;0.5120;2.2720;
1212.9000;0.5128;2.2812;
1213.2000;0.5128;2.2697;
1213.5000;0.5128;2.2697;
1213.8000;0.5144;2.2812;
1214.1000;0.5193;2.2998;
1214.4000;0.5112;2.2812;
1214.7000;0.5112;2.2859;
1215.0000;0.5079;2.2789;
1215.3000;0.5112;2.2882;
1215.6000;0.5104;2.2720;
1215.9000;0.5153;2.2743;
1216.2000;0.5128;2.2812;
1216.5000;0.5136;2.2789;
1216.8000;0.5112;2.2720;
1217.1000;0.5104;2.2697;
1217.4000;0.5144;2.2697;
1217.7000;0.5128;2.2674;
1218.0000;0.5153;2.2651;
1218.3000;0.5128;2.2581;
1218.6000;0.5055;2.2396;
1218.9000;0.5128;2.2581;
1219.2000;0.5136;2.2558;
1219.5000;0.5120;2.2535;
1219.8000;0.5104;2.2442;
1220.1000;0.5112;2.2535;
1220.4000;0.5128;2.2627;
1220.7000;0.5120;2.2697;
1221.0000;0.5112;2.2697;
1221.3000;0.5104;2.2674;
1221.6000;0.5144;2.2674;
1221.9000;0.5112;2.2651;
1222.2000;0.5136;2.2627;
1222.5000;0.5128;2.2674;
1222.8000;0.5136;2.2766;
1223.1000;0.5120;2.2674;
1223.4000;0.5112;2.2604;
1223.7000;0.5120;2.2535;
1224.0000;0.5144;2.2651;
1224.3000;0.5063;2.2465;
1224.6000;0.5120;2.2627;
1224.9000;0.5112;2.2651;
1225.2000;0.5153;2.2743;
1225.5000;0.5120;2.2674;
1225.8000;0.5128;2.2674;
1226.1000;0.5112;2.2604;
1226.4000;0.5104;2.2558;
1226.7000;0.5128;2.2604;
1227.0000;0.5104;2.2512;
1227.3000;0.5161;2.2651;
1227.6000;0.5104;2.2419;
1227.9000;0.5128;2.2535;
1228.2000;0.5136;2.2373;
1228.5000;0.5144;2.2373;
1228.8000;0.5096;2.2327;
1229.1000;0.5120;2.2442;
1229.4000;0.5120;2.2442;
1229.7000;0.5136;2.2465;
1230.0000;0.5136;2.2396;
1230.3000;0.5079;2.2234;
1230.6000;0.5136;2.2396;
1230.9000;0.5104;2.2350;
1231.2000;0.5096;2.2327;
1231.5000;0.5063;2.2211;
1231.8000;0.5120;2.2327;
1232.1000;0.5104;2.2327;
1232.4000;0.5112;2.2280;
1232.7000;0.5153;2.2512;
1233.0000;0.5104;2.2465;
1233.3000;0.5128;2.2489;
1233.6000;0.5161;2.2651;
1233.9000;0.5128;2.2535;
1234.2000;0.5136;2.2535;
1234.5000;0.5136;2.2581;
1234.8000;0.5055;2.2442;
1235.1000;0.5128;2.2651;
1235.4000;0.5112;2.2581;
1235.7000;0.5128;2.2512;
1236.0000;0.5120;2.2558;
1236.3000;0.5136;2.2581;
1236.6000;0.5128;2.2465;
1236.9000;0.5161;2.2512;
1237.2000;0.5136;2.2442;
1237.5000;0.5210;2.2697;
1237.8000;0.5096;2.2465;
1238.1000;0.5136;2.2396;
1238.4000;0.5136;2.2442;
1238.7000;0.5144;2.2489;
1239.0000;0.5063;2.2327;
1239.3000;0.5136;2.2512;
1239.6000;0.5144;2.2512;
1239.9000;0.5128;2.2535;
1240.2000;0.5136;2.2627;
1240.5000;0.5128;2.2604;
1240.8000;0.5128;2.2512;
1241.1000;0.5104;2.2604;
1241.4000;0.5153;2.2604;
1241.7000;0.5144;2.2442;
1242.0000;0.5153;2.2512;
1242.3000;0.5144;2.2535;
1242.6000;0.5144;2.2512;
1242.9000;0.5136;2.2465;
1243.2000;0.5104;2.2327;
1243.5000;0.5128;2.2373;
1243.8000;0.5136;2.2489;
1244.1000;0.5128;2.2535;
1244.4000;0.5136;2.2442;
1244.7000;0.5136;2.2396;
1245.0000;0.5112;2.2373;
1245.3000;0.5112;2.2419;
1245.6000;0.5112;2.2489;
1245.9000;0.5120;2.2465;
1246.2000;0.5128;2.2465;
1246.5000;0.5128;2.2581;
1246.8000;0.5120;2.2604;
1247.1000;0.5120;2.2604;
1247.4000;0.5120;2.2512;
1247.7000;0.5128;2.2604;
1248.0000;0.5136;2.2674;
1248.3000;0.5136;2.2627;
1248.6000;0.5136;2.2535;
1248.9000;0.5112;2.2512;
1249.2000;0.5055;2.2396;
1249.5000;0.5112;2.2535;
1249.8000;0.5136;2.2627;
1250.1000;0.5128;2.2674;
1250.4000;0.5128;2.2604;
1250.7000;0.5120;2.2581;
1251.0000;0.5153;2.2766;
1251.3000;0.5169;2.2743;
1251.6000;0.5136;2.2720;
1251.9000;0.5128;2.2651;
1252.2000;0.5153;2.2674;
1252.5000;0.5104;2.2535;
1252.8000;0.5144;2.2581;
1253.1000;0.5120;2.2558;
1253.4000;0.5120;2.2512;
1253.7000;0.5128;2.2442;
1254.0000;0.5128;2.2535;
1254.3000;0.5112;2.2558;
1254.6000;0.5120;2.2627;
1254.9000;0.5169;2.2674;
1255.2000;0.5096;2.2627;
1255.5000;0.5047;2.2489;
1255.8000;0.5120;2.2674;
1256.1000;0.5112;2.2581;
1256.4000;0.5120;2.2651;
1256.7000;0.5128;2.2674;
1257.0000;0.5144;2.2627;
1257.3000;0.5136;2.2674;
1257.6000;0.5136;2.2674;
1257.9000;0.5120;2.2558;
1258.2000;0.5112;2.2442;
1258.5000;0.5120;2.2442;
1258.8000;0.5201;2.2581;
1259.1000;0.5169;2.2627;
1259.4000;0.5128;2.2558;
1259.7000;0.5112;2.2465;
1260.0000;0.5079;2.2350;
1260.3000;0.5079;2.2512;
1260.6000;0.5104;2.2627;
1260.9000;0.5112;2.2697;
1261.2000;0.5120;2.2674;
1261.5000;0.5120;2.2743;
1261.8000;0.5153;2.2789;
1262.1000;0.5039;2.2535;
1262.4000;0.5120;2.2720;
1262.7000;0.5112;2.2674;
1263.0000;0.5120;2.2674;
1263.3000;0.5218;2.3021;
1263.6000;0.5136;2.2836;
1263.9000;0.5128;2.2743;
1264.2000;0.5112;2.2651;
1264.5000;0.5104;2.2581;
1264.8000;0.5128;2.2581;
1265.1000;0.5136;2.2651;
1265.4000;0.5136;2.2581;
1265.7000;0.5128;2.2558;
1266.0000;0.5104;2.2558;
1266.3000;0.5153;2.2581;
1266.6000;0.5128;2.2465;
1266.9000;0.5128;2.2442;
1267.2000;0.5128;2.2535;
1267.5000;0.5104;2.2581;
1267.8000;0.5136;2.2720;
1268.1000;0.5177;2.2859;
1268.4000;0.5055;2.2581;
1268.7000;0.5136;2.2720;
1269.0000;0.5136;2.2789;
1269.3000;0.5120;2.2766;
1269.6000;0.5136;2.2743;
1269.9000;0.5112;2.2720;
1270.2000;0.5079;2.2651;
1270.5000;0.5120;2.2651;
1270.8000;0.5112;2.2627;
1271.1000;0.4998;2.2419;
1271.4000;0.5120;2.2766;
1271.7000;0.5120;2.2720;
1272.0000;0.5096;2.2651;
1272.3000;0.5136;2.2766;
1272.6000;0.5161;2.2743;
1272.9000;0.5128;2.2697;
1273.2000;0.5022;2.2442;
1273.5000;0.5096;2.2651;
1273.8000;0.5112;2.2604;
1274.1000;0.5120;2.2674;
1274.4000;0.5120;2.2651;
1274.7000;0.5128;2.2651;
1275.0000;0.5120;2.2697;
1275.3000;0.5136;2.2743;
1275.6000;0.5120;2.2674;
1275.9000;0.5096;2.2651;
1276.2000;0.5112;2.2697;
1276.5000;0.5128;2.2720;
1276.8000;0.5088;2.2535;
1277.1000;0.5112;2.2489;
1277.4000;0.5112;2.2442;
1277.7000;0.5128;2.2465;
1278.0000;0.5128;2.2512;
1278.3000;0.5128;2.2465;
1278.6000;0.5112;2.2489;
1278.9000;0.5104;2.2535;
1279.2000;0.5112;2.2489;
1279.5000;0.5120;2.2512;
1279.8000;0.5112;2.2581;
1280.1000;0.5144;2.2627;
1280.4000;0.5128;2.2697;
1280.7000;0.5136;2.2743;
1281.0000;0.5153;2.2766;
1281.3000;0.5120;2.2743;
1281.6000;0.5112;2.2743;
1281.9000;0.5120;2.2697;
1282.2000;0.5112;2.2674;
1282.5000;0.5112;2.2627;
1282.8000;0.5112;2.2720;
1283.1000;0.5063;2.2627;
1283.4000;0.5088;2.2651;
1283.7000;0.5136;2.2766;
1284.0000;0.5112;2.2697;
1284.3000;0.5144;2.2812;
1284.6000;0.5120;2.2720;
1284.9000;0.5144;2.2720;
1285.2000;0.5112;2.2627;
1285.5000;0.5144;2.2581;
1285.8000;0.5120;2.2512;
1286.1000;0.5104;2.2512;
1286.4000;0.5112;2.2442;
1286.7000;0.5128;2.2396;
1287.0000;0.5136;2.2442;
1287.3000;0.5120;2.2350;
1287.6000;0.5144;2.2465;
1287.9000;0.5063;2.2396;
1288.2000;0.5128;2.2651;
1288.5000;0.5088;2.2627;
1288.8000;0.5112;2.2651;
1289.1000;0.5022;2.2465;
1289.4000;0.5128;2.2697;
1289.7000;0.5104;2.2512;
1290.0000;0.5128;2.2489;
1290.3000;0.5153;2.2558;
1290.6000;0.5136;2.2489;
1290.9000;0.5112;2.2512;
1291.2000;0.5096;2.2558;
1291.5000;0.5088;2.2465;
1291.8000;0.5112;2.2512;
1292.1000;0.5136;2.2604;
1292.4000;0.5128;2.2535;
1292.7000;0.5144;2.2581;
1293.0000;0.5104;2.2535;
1293.3000;0.5136;2.2558;
1293.6000;0.5136;2.2558;
1293.9000;0.5120;2.2489;
1294.2000;0.5104;2.2535;
1294.5000;0.5120;2.2512;
1294.8000;0.5128;2.2512;
1295.1000;0.5112;2.2558;
1295.4000;0.5104;2.2558;
1295.7000;0.5120;2.2535;
1296.0000;0.5120;2.2535;
1296.3000;0.5104;2.2535;
1296.6000;0.5120;2.2604;
1296.9000;0.5120;2.2535;
1297.2000;0.5088;2.2396;
1297.5000;0.5120;2.2489;
1297.8000;0.5112;2.2396;
1298.1000;0.5128;2.2419;
1298.4000;0.5128;2.2442;
1298.7000;0.5112;2.2489;
1299.0000;0.5112;2.2512;
1299.3000;0.5120;2.2558;
1299.6000;0.5136;2.2512;
1299.9000;0.5128;2.2581;
1300.2000;0.5120;2.2651;
1300.5000;0.5071;2.2465;
1300.8000;0.5153;2.2720;
1301.1000;0.5144;2.2674;
1301.4000;0.5112;2.2581;
1301.7000;0.5112;2.2558;
1302.0000;0.5120;2.2604;
1302.3000;0.5120;2.2535;
1302.6000;0.5136;2.2604;
1302.9000;0.5128;2.2697;
1303.2000;0.5112;2.2651;
1303.5000;0.5161;2.2720;
1303.8000;0.5104;2.2651;
1304.1000;0.5120;2.2581;
1304.4000;0.5096;2.2581;
1304.7000;0.5120;2.2604;
1305.0000;0.5136;2.2651;
1305.3000;0.5136;2.2627;
1305.6000;0.5120;2.2627;
1305.9000;0.5112;2.2651;
1306.2000;0.5153;2.2743;
1306.5000;0.5128;2.2581;
1306.8000;0.5079;2.2535;
1307.1000;0.5136;2.2604;
1307.4000;0.5104;2.2489;
1307.7000;0.5112;2.2535;
1308.0000;0.5153;2.2604;
1308.3000;0.5112;2.2465;
1308.6000;0.5096;2.2373;
1308.9000;0.5153;2.2651;
1309.2000;0.5104;2.2512;
1309.5000;0.5112;2.2465;
1309.8000;0.5128;2.2512;
1310.1000;0.5055;2.2280;
1310.4000;0.5104;2.2558;
1310.7000;0.5112;2.2465;
1311.0000;0.5193;2.2651;
1311.3000;0.5128;2.2604;
1311.6000;0.5096;2.2581;
1311.9000;0.5144;2.2535;
1312.2000;0.5169;2.2604;
1312.5000;0.5136;2.2419;
1312.8000;0.5128;2.2350;
1313.1000;0.5055;2.2234;
1313.4000;0.5226;2.2627;
1313.7000;0.5120;2.2350;
1314.0000;0.5096;2.2280;
1314.3000;0.5120;2.2373;
1314.6000;0.5112;2.2280;
1314.9000;0.5104;2.2303;
1315.2000;0.5104;2.2396;
1315.5000;0.5144;2.2442;
1315.8000;0.5120;2.2373;
1316.1000;0.5128;2.2442;
1316.4000;0.5161;2.2489;
1316.7000;0.5128;2.2442;
1317.0000;0.5112;2.2419;
1317.3000;0.5128;2.2489;
1317.6000;0.5136;2.2604;
1317.9000;0.5112;2.2535;
1318.2000;0.5136;2.2512;
1318.5000;0.5120;2.2535;
1318.8000;0.5120;2.2442;
1319.1000;0.5104;2.2350;
1319.4000;0.5120;2.2327;
1319.7000;0.5128;2.2396;
1320.0000;0.5136;2.2535;
1320.3000;0.5120;2.2535;
1320.6000;0.5104;2.2442;
1320.9000;0.5128;2.2396;
1321.2000;0.5136;2.2396;
1321.5000;0.5112;2.2442;
1321.8000;0.5112;2.2465;
1322.1000;0.5120;2.2558;
1322.4000;0.5088;2.2512;
1322.7000;0.5104;2.2465;
1323.0000;0.5096;2.2512;
1323.3000;0.5112;2.2489;
1323.6000;0.5120;2.2489;
1323.9000;0.5128;2.2512;
1324.2000;0.5128;2.2512;
1324.5000;0.5201;2.2674;
1324.8000;0.5128;2.2419;
1325.1000;0.5144;2.2465;
1325.4000;0.5096;2.2419;
1325.7000;0.5088;2.2396;
1326.0000;0.5128;2.2373;
1326.3000;0.5136;2.2327;
1326.6000;0.5144;2.2303;
1326.9000;0.5136;2.2211;
1327.2000;0.5120;2.2211;
1327.5000;0.5136;2.2211;
1327.8000;0.5136;2.2234;
1328.1000;0.5104;2.2165;
1328.4000;0.5128;2.2188;
1328.7000;0.5120;2.2211;
1329.0000;0.5144;2.2303;
1329.3000;0.5144;2.2303;
1329.6000;0.5128;2.2280;
1329.9000;0.4998;2.2026;
1330.2000;0.5104;2.2303;
1330.5000;0.5136;2.2373;
1330.8000;0.5120;2.2373;
1331.1000;0.5104;2.2280;
1331.4000;0.5136;2.2327;
1331.7000;0.5234;2.2581;
1332.0000;0.5161;2.2350;
1332.3000;0.4998;2.2095;
1332.6000;0.5120;2.2350;
1332.9000;0.5136;2.2465;
1333.2000;0.5120;2.2396;
1333.5000;0.5128;2.2396;
1333.8000;0.5128;2.2419;
1334.1000;0.5136;2.2535;
1334.4000;0.5136;2.2581;
1334.7000;0.5112;2.2558;
1335.0000;0.5120;2.2558;
1335.3000;0.5120;2.2512;
1335.6000;0.5128;2.2419;
1335.9000;0.5128;2.2396;
1336.2000;0.5112;2.2350;
1336.5000;0.5112;2.2396;
1336.8000;0.5144;2.2396;
1337.1000;0.5128;2.2350;
1337.4000;0.5136;2.2465;
1337.7000;0.5071;2.2257;
1338.0000;0.5144;2.2373;
1338.3000;0.5096;2.2350;
1338.6000;0.5120;2.2489;
1338.9000;0.5128;2.2535;
1339.2000;0.5218;2.2766;
1339.5000;0.5120;2.2535;
1339.8000;0.5112;2.2465;
1340.1000;0.5112;2.2535;
1340.4000;0.5112;2.2558;
1340.7000;0.5104;2.2581;
1341.0000;0.5120;2.2697;
1341.3000;0.5112;2.2720;
1341.6000;0.5128;2.2697;
1341.9000;0.5136;2.2720;
1342.2000;0.5128;2.2697;
1342.5000;0.5128;2.2674;
1342.8000;0.5112;2.2674;
1343.1000;0.5112;2.2674;
1343.4000;0.5120;2.2627;
1343.7000;0.5136;2.2558;
1344.0000;0.5112;2.2558;
1344.3000;0.5153;2.2581;
1344.6000;0.5120;2.2512;
1344.9000;0.5096;2.2512;
1345.2000;0.5104;2.2581;
1345.5000;0.5104;2.2512;
1345.8000;0.5120;2.2627;
1346.1000;0.5096;2.2581;
1346.4000;0.5071;2.2535;
1346.7000;0.5112;2.2604;
1347.0000;0.5128;2.2581;
1347.3000;0.5177;2.2743;
1347.6000;0.5128;2.2558;
1347.9000;0.5128;2.2558;
1348.2000;0.5128;2.2512;
1348.5000;0.5128;2.2581;
1348.8000;0.5104;2.2581;
1349.1000;0.5112;2.2651;
1349.4000;0.5104;2.2674;
1349.7000;0.5128;2.2697;
1350.0000;0.5128;2.2651;
1350.3000;0.5112;2.2627;
1350.6000;0.5128;2.2604;
1350.9000;0.5112;2.2558;
1351.2000;0.5136;2.2674;
1351.5000;0.5112;2.2651;
1351.8000;0.5112;2.2627;
1352.1000;0.5128;2.2697;
1352.4000;0.5104;2.2581;
1352.7000;0.5104;2.2512;
1353.0000;0.5128;2.2627;
1353.3000;0.5136;2.2651;
1353.6000;0.5128;2.2627;
1353.9000;0.5193;2.2812;
1354.2000;0.5096;2.2558;
1354.5000;0.5112;2.2697;
1354.8000;0.5096;2.2697;
1355.1000;0.5088;2.2604;
1355.4000;0.5079;2.2558;
1355.7000;0.5136;2.2581;
1356.0000;0.5120;2.2604;
1356.3000;0.5128;2.2720;
1356.6000;0.5128;2.2697;
1356.9000;0.5120;2.2558;
1357.2000;0.5112;2.2535;
1357.5000;0.5071;2.2442;
1357.8000;0.5128;2.2627;
1358.1000;0.5136;2.2697;
1358.4000;0.5104;2.2651;
1358.7000;0.5144;2.2789;
1359.0000;0.5153;2.2674;
1359.3000;0.5128;2.2535;
1359.6000;0.5096;2.2465;
1359.9000;0.5112;2.2558;
1360.2000;0.5112;2.2535;
1360.5000;0.5104;2.2535;
1360.8000;0.5104;2.2627;
1361.1000;0.5128;2.2697;
1361.4000;0.5120;2.2627;
1361.7000;0.5104;2.2558;
1362.0000;0.5177;2.2697;
1362.3000;0.5136;2.2604;
1362.6000;0.5136;2.2581;
1362.9000;0.5128;2.2558;
1363.2000;0.5169;2.2651;
1363.5000;0.5136;2.2627;
1363.8000;0.5144;2.2674;
1364.1000;0.5112;2.2697;
1364.4000;0.5136;2.2697;
1364.7000;0.5128;2.2627;
1365.0000;0.5193;2.2766;
1365.3000;0.5096;2.2535;
1365.6000;0.5136;2.2651;
1365.9000;0.5079;2.2512;
1366.2000;0.5104;2.2581;
1366.5000;0.5104;2.2535;
1366.8000;0.5128;2.2651;
1367.1000;0.5120;2.2674;
1367.4000;0.5120;2.2697;
1367.7000;0.5226;2.2928;
1368.0000;0.5136;2.2743;
1368.3000;0.5136;2.2836;
1368.6000;0.5120;2.2812;
1368.9000;0.5136;2.2836;
1369.2000;0.5120;2.2766;
1369.5000;0.5144;2.2789;
1369.8000;0.5144;2.2812;
1370.1000;0.5144;2.2789;
1370.4000;0.5096;2.2489;
1370.7000;0.5120;2.2489;
1371.0000;0.5128;2.2535;
1371.3000;0.5144;2.2558;
1371.6000;0.5169;2.2558;
1371.9000;0.5128;2.2465;
1372.2000;0.5136;2.2442;
1372.5000;0.5185;2.2581;
1372.8000;0.5153;2.2535;
1373.1000;0.5112;2.2558;
1373.4000;0.5120;2.2558;
1373.7000;0.4998;2.2234;
1374.0000;0.5169;2.2674;
1374.3000;0.5144;2.2651;
1374.6000;0.5120;2.2743;
1374.9000;0.5120;2.2651;
1375.2000;0.5128;2.2535;
1375.5000;0.5210;2.2720;
1375.8000;0.5039;2.2257;
1376.1000;0.5120;2.2489;
1376.4000;0.5063;2.2327;
1376.7000;0.5112;2.2442;
1377.0000;0.5120;2.2489;
1377.3000;0.5128;2.2512;
1377.6000;0.5144;2.2535;
1377.9000;0.5128;2.2581;
1378.2000;0.5071;2.2465;
1378.5000;0.5096;2.2535;
1378.8000;0.5128;2.2535;
1379.1000;0.5104;2.2512;
1379.4000;0.5088;2.2535;
1379.7000;0.5096;2.2604;
1380.0000;0.5128;2.2581;
1380.3000;0.5112;2.2535;
1380.6000;0.5096;2.2489;
1380.9000;0.5120;2.2442;
1381.2000;0.5234;2.2812;
1381.5000;0.5136;2.2627;
1381.8000;0.5104;2.2697;
1382.1000;0.5120;2.2535;
1382.4000;0.5128;2.2535;
1382.7000;0.5120;2.2535;
1383.0000;0.5128;2.2604;
1383.3000;0.5104;2.2535;
1383.6000;0.5128;2.2442;
1383.9000;0.5120;2.2373;
1384.2000;0.5120;2.2373;
1384.5000;0.5120;2.2280;
1384.8000;0.5104;2.2303;
1385.1000;0.5153;2.2512;
1385.4000;0.5120;2.2327;
1385.7000;0.5079;2.2188;
1386.0000;0.5169;2.2419;
1386.3000;0.5088;2.2211;
1386.6000;0.5120;2.2373;
1386.9000;0.5104;2.2327;
1387.2000;0.5210;2.2627;
1387.5000;0.5120;2.2442;
1387.8000;0.5128;2.2512;
1388.1000;0.5153;2.2604;
1388.4000;0.5096;2.2442;
1388.7000;0.5144;2.2604;
1389.0000;0.5104;2.2535;
1389.3000;0.5144;2.2512;
1389.6000;0.5120;2.2396;
1389.9000;0.5161;2.2465;
1390.2000;0.5136;2.2442;
1390.5000;0.5128;2.2327;
1390.8000;0.5136;2.2257;
1391.1000;0.5136;2.2327;
1391.4000;0.5136;2.2327;
1391.7000;0.5128;2.2327;
1392.0000;0.5112;2.2396;
1392.3000;0.5128;2.2512;
1392.6000;0.5104;2.2442;
1392.9000;0.5193;2.2720;
1393.2000;0.5128;2.2581;
1393.5000;0.5144;2.2512;
1393.8000;0.5112;2.2535;
1394.1000;0.5136;2.2697;
1394.4000;0.5104;2.2697;
1394.7000;0.5120;2.2720;
1395.0000;0.5112;2.2651;
1395.3000;0.5112;2.2604;
1395.6000;0.5112;2.2512;
1395.9000;0.5112;2.2442;
1396.2000;0.5112;2.2512;
1396.5000;0.5104;2.2396;
1396.8000;0.5112;2.2465;
1397.1000;0.5104;2.2419;
1397.4000;0.5112;2.2419;
1397.7000;0.5136;2.2581;
1398.0000;0.5128;2.2465;
1398.3000;0.5128;2.2489;
1398.6000;0.5128;2.2581;
1398.9000;0.5096;2.2581;
1399.2000;0.5120;2.2720;
1399.5000;0.5153;2.2836;
1399.8000;0.5120;2.2812;
