time/ms;Fluo/V;P700 deltaI/I x10³;
-199.8000;0.7367;2.1887;
-199.5000;0.7359;2.1887;
-199.2000;0.7342;2.1864;
-198.9000;0.7359;2.1980;
-198.6000;0.7367;2.2003;
-198.3000;0.7350;2.1841;
-198.0000;0.7350;2.1794;
-197.7000;0.7334;2.1725;
-197.4000;0.7334;2.1748;
-197.1000;0.7350;2.1771;
-196.8000;0.7342;2.1794;
-196.5000;0.7375;2.1910;
-196.2000;0.7342;2.1818;
-195.9000;0.7342;2.1841;
-195.6000;0.7326;2.1748;
-195.3000;0.7424;2.1933;
-195.0000;0.7367;2.1933;
-194.7000;0.7350;2.1887;
-194.4000;0.7359;2.1956;
-194.1000;0.7350;2.2003;
-193.8000;0.7318;2.2003;
-193.5000;0.7432;2.2257;
-193.2000;0.7359;2.2049;
-192.9000;0.7253;2.1841;
-192.6000;0.7350;2.1910;
-192.3000;0.7253;2.1656;
-192.0000;0.7359;2.1956;
-191.7000;0.7326;2.1933;
-191.4000;0.7334;2.2003;
-191.1000;0.7359;2.2049;
-190.8000;0.7326;2.1933;
-190.5000;0.7375;2.2049;
-190.2000;0.7342;2.1933;
-189.9000;0.7342;2.1910;
-189.6000;0.7383;2.1980;
-189.3000;0.7350;2.1910;
-189.0000;0.7342;2.1864;
-188.7000;0.7350;2.1864;
-188.4000;0.7350;2.1910;
-188.1000;0.7350;2.1910;
-187.8000;0.7367;2.1956;
-187.5000;0.7326;2.1910;
-187.2000;0.7342;2.1910;
-186.9000;0.7342;2.1933;
-186.6000;0.7342;2.1933;
-186.3000;0.7334;2.1910;
-186.0000;0.7350;2.1933;
-185.7000;0.7318;2.1910;
-185.4000;0.7318;2.1841;
-185.1000;0.7350;2.2003;
-184.8000;0.7359;2.2026;
-184.5000;0.7391;2.2118;
-184.2000;0.7350;2.2026;
-183.9000;0.7334;2.2003;
-183.6000;0.7359;2.2049;
-183.3000;0.7342;2.2003;
-183.0000;0.7359;2.2095;
-182.7000;0.7334;2.2003;
-182.4000;0.7326;2.2003;
-182.1000;0.7359;2.2095;
-181.8000;0.7350;2.2142;
-181.5000;0.7359;2.2211;
-181.2000;0.7334;2.2142;
-180.9000;0.7367;2.2142;
-180.6000;0.7367;2.2165;
-180.3000;0.7334;2.2049;
-180.0000;0.7456;2.2327;
-179.7000;0.7326;2.2072;
-179.4000;0.7367;2.2211;
-179.1000;0.7359;2.2165;
-178.8000;0.7350;2.2142;
-178.5000;0.7448;2.2327;
-178.2000;0.7326;2.2118;
-177.9000;0.7342;2.2165;
-177.6000;0.7359;2.2165;
-177.3000;0.7277;2.2026;
-177.0000;0.7350;2.2211;
-176.7000;0.7342;2.2188;
-176.4000;0.7334;2.2211;
-176.1000;0.7342;2.2257;
-175.8000;0.7350;2.2211;
-175.5000;0.7350;2.2118;
-175.2000;0.7350;2.2072;
-174.9000;0.7342;2.2095;
-174.6000;0.7375;2.2095;
-174.3000;0.7432;2.2188;
-174.0000;0.7375;2.1956;
-173.7000;0.7350;2.1887;
-173.4000;0.7310;2.1841;
-173.1000;0.7367;2.1980;
-172.8000;0.7424;2.2095;
-172.5000;0.7293;2.1748;
-172.2000;0.7399;2.1933;
-171.9000;0.7359;2.1864;
-171.6000;0.7350;2.1910;
-171.3000;0.7318;2.1841;
-171.0000;0.7359;2.1864;
-170.7000;0.7375;2.2118;
-170.4000;0.7359;2.2026;
-170.1000;0.7432;2.2142;
-169.8000;0.7530;2.2280;
-169.5000;0.7375;2.1887;
-169.2000;0.7350;2.1980;
-168.9000;0.7326;2.1933;
-168.6000;0.7350;2.2026;
-168.3000;0.7342;2.2049;
-168.0000;0.7359;2.2095;
-167.7000;0.7359;2.2095;
-167.4000;0.7334;2.2095;
-167.1000;0.7326;2.2072;
-166.8000;0.7326;2.2026;
-166.5000;0.7310;2.2003;
-166.2000;0.7326;2.2095;
-165.9000;0.7334;2.2142;
-165.6000;0.7302;2.2095;
-165.3000;0.7342;2.2142;
-165.0000;0.7326;2.2234;
-164.7000;0.7383;2.2419;
-164.4000;0.7359;2.2350;
-164.1000;0.7326;2.2280;
-163.8000;0.7375;2.2373;
-163.5000;0.7334;2.2257;
-163.2000;0.7342;2.2257;
-162.9000;0.7342;2.2280;
-162.6000;0.7359;2.2327;
-162.3000;0.7359;2.2303;
-162.0000;0.7342;2.2165;
-161.7000;0.7293;2.1980;
-161.4000;0.7350;2.2188;
-161.1000;0.7342;2.2280;
-160.8000;0.7310;2.2188;
-160.5000;0.7334;2.2257;
-160.2000;0.7359;2.2350;
-159.9000;0.7359;2.2327;
-159.6000;0.7342;2.2257;
-159.3000;0.7342;2.2234;
-159.0000;0.7342;2.2280;
-158.7000;0.7367;2.2234;
-158.4000;0.7375;2.2257;
-158.1000;0.7383;2.2303;
-157.8000;0.7399;2.2373;
-157.5000;0.7342;2.2211;
-157.2000;0.7342;2.2142;
-156.9000;0.7359;2.2188;
-156.6000;0.7407;2.2280;
-156.3000;0.7310;2.2049;
-156.0000;0.7342;2.2118;
-155.7000;0.7350;2.2188;
-155.4000;0.7342;2.2188;
-155.1000;0.7367;2.2211;
-154.8000;0.7326;2.2095;
-154.5000;0.7359;2.2142;
-154.2000;0.7334;2.2072;
-153.9000;0.7367;2.2142;
-153.6000;0.7326;2.2003;
-153.3000;0.7359;2.2003;
-153.0000;0.7367;2.2026;
-152.7000;0.7416;2.2072;
-152.4000;0.7359;2.2003;
-152.1000;0.7391;2.2142;
-151.8000;0.7350;2.1956;
-151.5000;0.7367;2.1980;
-151.2000;0.7342;2.1956;
-150.9000;0.7342;2.1956;
-150.6000;0.7334;2.1980;
-150.3000;0.7359;2.1956;
-150.0000;0.7350;2.1980;
-149.7000;0.7342;2.1933;
-149.4000;0.7350;2.1933;
-149.1000;0.7350;2.1887;
-148.8000;0.7375;2.1956;
-148.5000;0.7367;2.2003;
-148.2000;0.7350;2.1980;
-147.9000;0.7342;2.1980;
-147.6000;0.7350;2.1980;
-147.3000;0.7359;2.2049;
-147.0000;0.7350;2.2072;
-146.7000;0.7342;2.2049;
-146.4000;0.7375;2.1956;
-146.1000;0.7424;2.2049;
-145.8000;0.7367;2.2049;
-145.5000;0.7334;2.2026;
-145.2000;0.7342;2.1980;
-144.9000;0.7350;2.2003;
-144.6000;0.7350;2.1956;
-144.3000;0.7481;2.2373;
-144.0000;0.7367;2.2072;
-143.7000;0.7367;2.2003;
-143.4000;0.7375;2.1933;
-143.1000;0.7334;2.1980;
-142.8000;0.7424;2.2188;
-142.5000;0.7375;2.2165;
-142.2000;0.7277;2.1956;
-141.9000;0.7350;2.2118;
-141.6000;0.7342;2.2118;
-141.3000;0.7440;2.2465;
-141.0000;0.7359;2.2234;
-140.7000;0.7342;2.2165;
-140.4000;0.7334;2.2072;
-140.1000;0.7326;2.2072;
-139.8000;0.7383;2.2165;
-139.5000;0.7326;2.2003;
-139.2000;0.7350;2.1933;
-138.9000;0.7334;2.1910;
-138.6000;0.7391;2.2026;
-138.3000;0.7342;2.1956;
-138.0000;0.7326;2.1980;
-137.7000;0.7350;2.2049;
-137.4000;0.7440;2.2188;
-137.1000;0.7359;2.2026;
-136.8000;0.7350;2.1980;
-136.5000;0.7350;2.1910;
-136.2000;0.7350;2.1910;
-135.9000;0.7367;2.1980;
-135.6000;0.7399;2.2118;
-135.3000;0.7342;2.2003;
-135.0000;0.7350;2.1956;
-134.7000;0.7367;2.1980;
-134.4000;0.7342;2.1841;
-134.1000;0.7342;2.1818;
-133.8000;0.7342;2.1933;
-133.5000;0.7367;2.1910;
-133.2000;0.7342;2.1910;
-132.9000;0.7334;2.1864;
-132.6000;0.7350;2.1933;
-132.3000;0.7342;2.1864;
-132.0000;0.7350;2.1794;
-131.7000;0.7350;2.1771;
-131.4000;0.7334;2.1794;
-131.1000;0.7342;2.1794;
-130.8000;0.7367;2.1841;
-130.5000;0.7359;2.1933;
-130.2000;0.7359;2.2003;
-129.9000;0.7359;2.2072;
-129.6000;0.7350;2.2072;
-129.3000;0.7416;2.2303;
-129.0000;0.7334;2.2072;
-128.7000;0.7342;2.2049;
-128.4000;0.7334;2.1933;
-128.1000;0.7359;2.2049;
-127.8000;0.7334;2.1910;
-127.5000;0.7326;2.1980;
-127.2000;0.7350;2.1956;
-126.9000;0.7350;2.2026;
-126.6000;0.7350;2.1980;
-126.3000;0.7367;2.2049;
-126.0000;0.7350;2.2026;
-125.7000;0.7342;2.2095;
-125.4000;0.7326;2.2003;
-125.1000;0.7359;2.1980;
-124.8000;0.7350;2.1980;
-124.5000;0.7293;2.1841;
-124.2000;0.7350;2.1956;
-123.9000;0.7326;2.1956;
-123.6000;0.7350;2.2049;
-123.3000;0.7350;2.2049;
-123.0000;0.7359;2.1956;
-122.7000;0.7342;2.1702;
-122.4000;0.7334;2.1702;
-122.1000;0.7359;2.1748;
-121.8000;0.7334;2.1748;
-121.5000;0.7359;2.1794;
-121.2000;0.7318;2.1725;
-120.9000;0.7375;2.1956;
-120.6000;0.7318;2.1818;
-120.3000;0.7391;2.1933;
-120.0000;0.7318;2.1818;
-119.7000;0.7342;2.1864;
-119.4000;0.7350;2.1818;
-119.1000;0.7342;2.1794;
-118.8000;0.7342;2.1864;
-118.5000;0.7334;2.1933;
-118.2000;0.7334;2.2003;
-117.9000;0.7359;2.2049;
-117.6000;0.7350;2.1910;
-117.3000;0.7350;2.1887;
-117.0000;0.7342;2.1910;
-116.7000;0.7350;2.1933;
-116.4000;0.7334;2.1887;
-116.1000;0.7342;2.1841;
-115.8000;0.7302;2.1771;
-115.5000;0.7350;2.1818;
-115.2000;0.7359;2.1818;
-114.9000;0.7326;2.1702;
-114.6000;0.7334;2.1748;
-114.3000;0.7350;2.1841;
-114.0000;0.7367;2.1841;
-113.7000;0.7359;2.1794;
-113.4000;0.7342;2.1771;
-113.1000;0.7391;2.1841;
-112.8000;0.7334;2.1818;
-112.5000;0.7383;2.1980;
-112.2000;0.7359;2.2049;
-111.9000;0.7334;2.1887;
-111.6000;0.7391;2.1933;
-111.3000;0.7342;2.1818;
-111.0000;0.7302;2.1818;
-110.7000;0.7375;2.2072;
-110.4000;0.7342;2.2049;
-110.1000;0.7359;2.2026;
-109.8000;0.7326;2.1887;
-109.5000;0.7350;2.1864;
-109.2000;0.7334;2.1956;
-108.9000;0.7367;2.2072;
-108.6000;0.7326;2.2003;
-108.3000;0.7334;2.2095;
-108.0000;0.7359;2.2118;
-107.7000;0.7359;2.2142;
-107.4000;0.7350;2.2118;
-107.1000;0.7367;2.1980;
-106.8000;0.7342;2.1841;
-106.5000;0.7367;2.1910;
-106.2000;0.7334;2.1910;
-105.9000;0.7342;2.1980;
-105.6000;0.7342;2.2003;
-105.3000;0.7391;2.2072;
-105.0000;0.7334;2.2095;
-104.7000;0.7342;2.2072;
-104.4000;0.7375;2.2142;
-104.1000;0.7342;2.2049;
-103.8000;0.7350;2.1956;
-103.5000;0.7407;2.2072;
-103.2000;0.7342;2.1956;
-102.9000;0.7367;2.2026;
-102.6000;0.7383;2.2095;
-102.3000;0.7359;2.2049;
-102.0000;0.7350;2.2003;
-101.7000;0.7359;2.2049;
-101.4000;0.7367;2.2095;
-101.1000;0.7367;2.2026;
-100.8000;0.7350;2.1933;
-100.5000;0.7367;2.1841;
-100.2000;0.7375;2.1864;
-99.9000;0.7416;2.2072;
-99.6000;0.7342;2.1841;
-99.3000;0.7334;2.1794;
-99.0000;0.7367;2.1956;
-98.7000;0.7350;2.1910;
-98.4000;0.7334;2.1864;
-98.1000;0.7342;2.2003;
-97.8000;0.7359;2.2049;
-97.5000;0.7375;2.2142;
-97.2000;0.7350;2.2095;
-96.9000;0.7359;2.2165;
-96.6000;0.7367;2.2118;
-96.3000;0.7350;2.2072;
-96.0000;0.7359;2.2049;
-95.7000;0.7359;2.2003;
-95.4000;0.7318;2.1933;
-95.1000;0.7375;2.2003;
-94.8000;0.7350;2.1956;
-94.5000;0.7326;2.1841;
-94.2000;0.7424;2.2026;
-93.9000;0.7350;2.1841;
-93.6000;0.7359;2.1864;
-93.3000;0.7342;2.1887;
-93.0000;0.7269;2.1794;
-92.7000;0.7334;2.1980;
-92.4000;0.7342;2.1980;
-92.1000;0.7334;2.1980;
-91.8000;0.7334;2.1910;
-91.5000;0.7350;2.1956;
-91.2000;0.7350;2.1887;
-90.9000;0.7350;2.1933;
-90.6000;0.7416;2.2003;
-90.3000;0.7359;2.1933;
-90.0000;0.7359;2.1887;
-89.7000;0.7342;2.1771;
-89.4000;0.7367;2.1864;
-89.1000;0.7342;2.1956;
-88.8000;0.7342;2.2026;
-88.5000;0.7367;2.2095;
-88.2000;0.7342;2.2026;
-87.9000;0.7350;2.2072;
-87.6000;0.7310;2.2026;
-87.3000;0.7359;2.2142;
-87.0000;0.7245;2.1910;
-86.7000;0.7342;2.2142;
-86.4000;0.7342;2.2072;
-86.1000;0.7334;2.1980;
-85.8000;0.7350;2.1980;
-85.5000;0.7367;2.2072;
-85.2000;0.7342;2.2049;
-84.9000;0.7399;2.2165;
-84.6000;0.7367;2.2118;
-84.3000;0.7350;2.2142;
-84.0000;0.7350;2.2118;
-83.7000;0.7334;2.2026;
-83.4000;0.7334;2.1933;
-83.1000;0.7359;2.2026;
-82.8000;0.7342;2.2049;
-82.5000;0.7367;2.2095;
-82.2000;0.7359;2.2095;
-81.9000;0.7359;2.2165;
-81.6000;0.7334;2.2142;
-81.3000;0.7318;2.2142;
-81.0000;0.7367;2.2257;
-80.7000;0.7350;2.2280;
-80.4000;0.7334;2.2234;
-80.1000;0.7367;2.2234;
-79.8000;0.7359;2.2280;
-79.5000;0.7350;2.2211;
-79.2000;0.7367;2.2257;
-78.9000;0.7359;2.2234;
-78.6000;0.7350;2.2257;
-78.3000;0.7359;2.2303;
-78.0000;0.7350;2.2280;
-77.7000;0.7350;2.2257;
-77.4000;0.7318;2.2211;
-77.1000;0.7359;2.2211;
-76.8000;0.7359;2.2350;
-76.5000;0.7424;2.2396;
-76.2000;0.7359;2.2234;
-75.9000;0.7342;2.2234;
-75.6000;0.7342;2.2211;
-75.3000;0.7350;2.2234;
-75.0000;0.7342;2.2188;
-74.7000;0.7350;2.2188;
-74.4000;0.7310;2.2049;
-74.1000;0.7326;2.2026;
-73.8000;0.7350;2.2072;
-73.5000;0.7367;2.2118;
-73.2000;0.7350;2.2188;
-72.9000;0.7310;2.2049;
-72.6000;0.7350;2.2142;
-72.3000;0.7326;2.2095;
-72.0000;0.7367;2.2118;
-71.7000;0.7367;2.2142;
-71.4000;0.7367;2.2118;
-71.1000;0.7367;2.2118;
-70.8000;0.7350;2.1956;
-70.5000;0.7326;2.1771;
-70.2000;0.7350;2.1864;
-69.9000;0.7334;2.1887;
-69.6000;0.7350;2.1980;
-69.3000;0.7342;2.2003;
-69.0000;0.7334;2.2026;
-68.7000;0.7334;2.2095;
-68.4000;0.7342;2.2072;
-68.1000;0.7342;2.2095;
-67.8000;0.7342;2.2118;
-67.5000;0.7342;2.2118;
-67.2000;0.7342;2.2188;
-66.9000;0.7367;2.2188;
-66.6000;0.7391;2.2327;
-66.3000;0.7342;2.2188;
-66.0000;0.7342;2.2142;
-65.7000;0.7334;2.2142;
-65.4000;0.7293;2.2072;
-65.1000;0.7367;2.2188;
-64.8000;0.7350;2.2165;
-64.5000;0.7367;2.2211;
-64.2000;0.7359;2.2234;
-63.9000;0.7326;2.2118;
-63.6000;0.7350;2.2142;
-63.3000;0.7350;2.2188;
-63.0000;0.7375;2.2188;
-62.7000;0.7334;2.2003;
-62.4000;0.7334;2.2049;
-62.1000;0.7350;2.2188;
-61.8000;0.7342;2.2142;
-61.5000;0.7367;2.2118;
-61.2000;0.7326;2.1980;
-60.9000;0.7334;2.2095;
-60.6000;0.7367;2.2072;
-60.3000;0.7359;2.1933;
-60.0000;0.7359;2.1910;
-59.7000;0.7391;2.2026;
-59.4000;0.7326;2.1910;
-59.1000;0.7350;2.2026;
-58.8000;0.7285;2.1887;
-58.5000;0.7383;2.2095;
-58.2000;0.7334;2.1980;
-57.9000;0.7350;2.2072;
-57.6000;0.7350;2.1980;
-57.3000;0.7334;2.1910;
-57.0000;0.7326;2.1841;
-56.7000;0.7350;2.1910;
-56.4000;0.7318;2.1910;
-56.1000;0.7342;2.2003;
-55.8000;0.7375;2.2095;
-55.5000;0.7367;2.2095;
-55.2000;0.7350;2.2003;
-54.9000;0.7367;2.2095;
-54.6000;0.7342;2.2072;
-54.3000;0.7342;2.2095;
-54.0000;0.7350;2.2072;
-53.7000;0.7277;2.1887;
-53.4000;0.7350;2.2049;
-53.1000;0.7350;2.2095;
-52.8000;0.7334;2.2142;
-52.5000;0.7342;2.2142;
-52.2000;0.7342;2.2049;
-51.9000;0.7350;2.2049;
-51.6000;0.7342;2.1887;
-51.3000;0.7342;2.1887;
-51.0000;0.7350;2.1864;
-50.7000;0.7350;2.1864;
-50.4000;0.7310;2.1702;
-50.1000;0.7334;2.1841;
-49.8000;0.7326;2.1818;
-49.5000;0.7302;2.1748;
-49.2000;0.7310;2.1771;
-48.9000;0.7367;2.1910;
-48.6000;0.7285;2.1725;
-48.3000;0.7359;2.1933;
-48.0000;0.7367;2.1956;
-47.7000;0.7350;2.1864;
-47.4000;0.7342;2.1818;
-47.1000;0.7326;2.1818;
-46.8000;0.7326;2.1841;
-46.5000;0.7350;2.1887;
-46.2000;0.7342;2.1887;
-45.9000;0.7310;2.1725;
-45.6000;0.7350;2.1818;
-45.3000;0.7367;2.1864;
-45.0000;0.7367;2.1748;
-44.7000;0.7391;2.1887;
-44.4000;0.7367;2.1818;
-44.1000;0.7342;2.1864;
-43.8000;0.7342;2.1933;
-43.5000;0.7350;2.1956;
-43.2000;0.7350;2.2049;
-42.9000;0.7350;2.2095;
-42.6000;0.7399;2.2142;
-42.3000;0.7367;2.2072;
-42.0000;0.7383;2.2142;
-41.7000;0.7318;2.1980;
-41.4000;0.7424;2.2327;
-41.1000;0.7432;2.2188;
-40.8000;0.7407;2.2188;
-40.5000;0.7293;2.1933;
-40.2000;0.7367;2.2026;
-39.9000;0.7416;2.2257;
-39.6000;0.7326;2.2026;
-39.3000;0.7350;2.2003;
-39.0000;0.7359;2.2026;
-38.7000;0.7383;2.2142;
-38.4000;0.7375;2.2118;
-38.1000;0.7350;2.2118;
-37.8000;0.7367;2.2095;
-37.5000;0.7342;2.2072;
-37.2000;0.7359;2.2072;
-36.9000;0.7342;2.1956;
-36.6000;0.7342;2.2003;
-36.3000;0.7375;2.1933;
-36.0000;0.7359;2.1956;
-35.7000;0.7277;2.1771;
-35.4000;0.7350;2.1910;
-35.1000;0.7342;2.1933;
-34.8000;0.7326;2.1910;
-34.5000;0.7310;2.1887;
-34.2000;0.7359;2.2026;
-33.9000;0.7350;2.2142;
-33.6000;0.7383;2.2211;
-33.3000;0.7367;2.2142;
-33.0000;0.7350;2.2095;
-32.7000;0.7350;2.2142;
-32.4000;0.7350;2.2118;
-32.1000;0.7342;2.2072;
-31.8000;0.7391;2.2118;
-31.5000;0.7350;2.1933;
-31.2000;0.7342;2.1956;
-30.9000;0.7342;2.2003;
-30.6000;0.7359;2.2003;
-30.3000;0.7375;2.2049;
-30.0000;0.7350;2.2118;
-29.7000;0.7359;2.2165;
-29.4000;0.7350;2.2211;
-29.1000;0.7350;2.2188;
-28.8000;0.7367;2.2188;
-28.5000;0.7350;2.2142;
-28.2000;0.7375;2.2234;
-27.9000;0.7326;2.2118;
-27.6000;0.7359;2.2165;
-27.3000;0.7367;2.2072;
-27.0000;0.7350;2.2072;
-26.7000;0.7399;2.2095;
-26.4000;0.7285;2.1794;
-26.1000;0.7342;2.1933;
-25.8000;0.7359;2.1956;
-25.5000;0.7326;2.1864;
-25.2000;0.7228;2.1794;
-24.9000;0.7350;2.2095;
-24.6000;0.7424;2.2327;
-24.3000;0.7407;2.2303;
-24.0000;0.7342;2.2072;
-23.7000;0.7367;2.2188;
-23.4000;0.7326;2.2095;
-23.1000;0.7350;2.2142;
-22.8000;0.7342;2.2142;
-22.5000;0.7334;2.2072;
-22.2000;0.7350;2.2165;
-21.9000;0.7367;2.2188;
-21.6000;0.7334;2.2072;
-21.3000;0.7334;2.1980;
-21.0000;0.7350;2.1980;
-20.7000;0.7334;2.2003;
-20.4000;0.7350;2.2049;
-20.1000;0.7334;2.1956;
-19.8000;0.7334;2.1980;
-19.5000;0.7359;2.2095;
-19.2000;0.7359;2.2142;
-18.9000;0.7375;2.2234;
-18.6000;0.7424;2.2234;
-18.3000;0.7359;2.2072;
-18.0000;0.7350;2.2026;
-17.7000;0.7318;2.2026;
-17.4000;0.7342;2.2211;
-17.1000;0.7359;2.2211;
-16.8000;0.7342;2.2165;
-16.5000;0.7375;2.2234;
-16.2000;0.7334;2.2095;
-15.9000;0.7342;2.2095;
-15.6000;0.7350;2.2118;
-15.3000;0.7318;2.2095;
-15.0000;0.7359;2.2165;
-14.7000;0.7367;2.2234;
-14.4000;0.7350;2.2188;
-14.1000;0.7359;2.2142;
-13.8000;0.7350;2.2118;
-13.5000;0.7318;2.2049;
-13.2000;0.7334;2.2049;
-12.9000;0.7399;2.2118;
-12.6000;0.7359;2.2095;
-12.3000;0.7334;2.2118;
-12.0000;0.7383;2.2188;
-11.7000;0.7350;2.2142;
-11.4000;0.7334;2.2118;
-11.1000;0.7310;2.2072;
-10.8000;0.7334;2.1980;
-10.5000;0.7318;2.1956;
-10.2000;0.7359;2.2072;
-9.9000;0.7350;2.2095;
-9.6000;0.7350;2.2095;
-9.3000;0.7359;2.2142;
-9.0000;0.7359;2.2118;
-8.7000;0.7334;2.2165;
-8.4000;0.7359;2.2188;
-8.1000;0.7359;2.2142;
-7.8000;0.7293;2.2026;
-7.5000;0.7318;2.2072;
-7.2000;0.7367;2.2188;
-6.9000;0.7350;2.2165;
-6.6000;0.7310;2.2095;
-6.3000;0.7367;2.2257;
-6.0000;0.7302;2.2049;
-5.7000;0.7342;2.2118;
-5.4000;0.7318;2.2003;
-5.1000;0.7350;2.2049;
-4.8000;0.7350;2.2165;
-4.5000;0.7350;2.2188;
-4.2000;0.7342;2.2118;
-3.9000;0.7350;2.2188;
-3.6000;0.7302;2.1933;
-3.3000;0.7407;2.2188;
-3.0000;0.7359;2.2049;
-2.7000;0.7310;2.2026;
-2.4000;0.7326;2.2095;
-2.1000;0.7350;2.2165;
-1.8000;0.7318;2.2118;
-1.5000;0.7367;2.2188;
-1.2000;0.7334;2.2095;
-0.9000;0.7342;2.2142;
-0.6000;0.7350;2.2188;
-0.3000;0.7350;2.2211;
0.0000;0.7350;2.2211;
0.3000;0.7367;2.2072;
0.6000;0.7416;2.2165;
0.9000;0.7489;2.2350;
1.2000;0.7513;2.2442;
1.5000;0.7513;2.2558;
1.8000;0.7586;2.2859;
2.1000;0.7643;2.3021;
2.4000;0.7668;2.3067;
2.7000;0.7611;2.2928;
3.0000;0.7635;2.3113;
3.3000;0.7652;2.3160;
3.6000;0.7684;2.3229;
3.9000;0.7643;2.3206;
4.2000;0.7652;2.3275;
4.5000;0.7676;2.3321;
4.8000;0.7684;2.3345;
5.1000;0.7692;2.3345;
5.4000;0.7619;2.3206;
5.7000;0.7709;2.3576;
6.0000;0.7741;2.3715;
6.3000;0.7725;2.3645;
6.6000;0.7741;2.3807;
6.9000;0.7766;2.3854;
7.2000;0.7741;2.3692;
7.5000;0.7676;2.3530;
7.8000;0.7717;2.3692;
8.1000;0.7766;2.3761;
8.4000;0.7782;2.3738;
8.7000;0.7790;2.3715;
9.0000;0.7766;2.3645;
9.3000;0.7774;2.3669;
9.6000;0.7774;2.3669;
9.9000;0.7806;2.3807;
10.2000;0.7806;2.3761;
10.5000;0.7741;2.3599;
10.8000;0.7814;2.3738;
11.1000;0.7823;2.3669;
11.4000;0.7814;2.3599;
11.7000;0.7806;2.3599;
12.0000;0.7814;2.3669;
12.3000;0.7847;2.3692;
12.6000;0.7823;2.3553;
12.9000;0.7855;2.3669;
13.2000;0.7839;2.3622;
13.5000;0.7782;2.3437;
13.8000;0.7839;2.3576;
14.1000;0.7831;2.3553;
14.4000;0.7847;2.3507;
14.7000;0.7847;2.3530;
15.0000;0.7839;2.3622;
15.3000;0.7839;2.3645;
15.6000;0.7871;2.3692;
15.9000;0.7855;2.3761;
16.2000;0.7871;2.3877;
16.5000;0.7880;2.3761;
16.8000;0.7896;2.3784;
17.1000;0.7880;2.3715;
17.4000;0.7871;2.3738;
17.7000;0.7904;2.3807;
18.0000;0.7904;2.3784;
18.3000;0.7896;2.3761;
18.6000;0.7896;2.3807;
18.9000;0.7904;2.3784;
19.2000;0.7896;2.3692;
19.5000;0.7896;2.3738;
19.8000;0.7904;2.3761;
20.1000;0.7863;2.3669;
20.4000;0.7798;2.3553;
20.7000;0.7912;2.3761;
21.0000;0.7912;2.3692;
21.3000;0.7863;2.3530;
21.6000;0.7937;2.3784;
21.9000;0.7912;2.3645;
22.2000;0.7912;2.3692;
22.5000;0.7945;2.3830;
22.8000;0.7928;2.3877;
23.1000;0.7912;2.3715;
23.4000;0.7912;2.3784;
23.7000;0.7912;2.3946;
24.0000;0.7928;2.4016;
24.3000;0.7912;2.4016;
24.6000;0.7937;2.3946;
24.9000;0.7937;2.3877;
25.2000;0.7937;2.3946;
25.5000;0.7928;2.3992;
25.8000;0.7920;2.4062;
26.1000;0.7920;2.3946;
26.4000;0.7928;2.3900;
26.7000;0.7928;2.3854;
27.0000;0.7937;2.3807;
27.3000;0.7953;2.3830;
27.6000;0.7937;2.3807;
27.9000;0.7945;2.3738;
28.2000;0.7961;2.3738;
28.5000;0.7945;2.3692;
28.8000;0.7953;2.3807;
29.1000;0.7961;2.3807;
29.4000;0.7977;2.3807;
29.7000;0.7985;2.3900;
30.0000;0.7977;2.3854;
30.3000;0.7977;2.3830;
30.6000;0.7977;2.3830;
30.9000;0.7953;2.3830;
31.2000;0.7961;2.3854;
31.5000;0.7969;2.3877;
31.8000;0.7953;2.3807;
32.1000;0.7953;2.3807;
32.4000;0.7953;2.3738;
32.7000;0.7969;2.3784;
33.0000;0.7977;2.3854;
33.3000;0.7953;2.3877;
33.6000;0.7953;2.3923;
33.9000;0.7953;2.3900;
34.2000;0.7985;2.4016;
34.5000;0.8034;2.4108;
34.8000;0.8010;2.3992;
35.1000;0.7977;2.3877;
35.4000;0.7969;2.3946;
35.7000;0.7969;2.3900;
36.0000;0.7961;2.3946;
36.3000;0.7953;2.3946;
36.6000;0.7937;2.3830;
36.9000;0.7993;2.3854;
37.2000;0.7993;2.3854;
37.5000;0.8067;2.4131;
37.8000;0.7977;2.3854;
38.1000;0.7977;2.3854;
38.4000;0.7969;2.3946;
38.7000;0.7977;2.4016;
39.0000;0.7953;2.3807;
39.3000;0.7985;2.3830;
39.6000;0.7977;2.3715;
39.9000;0.7985;2.3669;
40.2000;0.7969;2.3669;
40.5000;0.8002;2.3830;
40.8000;0.8002;2.3830;
41.1000;0.7985;2.3807;
41.4000;0.8010;2.3854;
41.7000;0.8002;2.3830;
42.0000;0.7977;2.3738;
42.3000;0.8002;2.3784;
42.6000;0.7985;2.3715;
42.9000;0.7977;2.3830;
43.2000;0.7985;2.3900;
43.5000;0.7993;2.4016;
43.8000;0.7969;2.3877;
44.1000;0.7977;2.3877;
44.4000;0.7961;2.3784;
44.7000;0.7977;2.3854;
45.0000;0.7985;2.3900;
45.3000;0.7969;2.3854;
45.6000;0.8010;2.3923;
45.9000;0.7993;2.3900;
46.2000;0.7977;2.3854;
46.5000;0.7993;2.3900;
46.8000;0.7993;2.3877;
47.1000;0.8034;2.4016;
47.4000;0.7969;2.3830;
47.7000;0.7977;2.3830;
48.0000;0.7977;2.3807;
48.3000;0.7985;2.3900;
48.6000;0.7985;2.3900;
48.9000;0.7977;2.3854;
49.2000;0.8002;2.3877;
49.5000;0.7961;2.3830;
49.8000;0.7993;2.3830;
50.1000;0.8042;2.3830;
50.4000;0.7985;2.3576;
50.7000;0.7977;2.3599;
51.0000;0.7993;2.3599;
51.3000;0.8075;2.3807;
51.6000;0.8002;2.3576;
51.9000;0.7977;2.3599;
52.2000;0.7985;2.3669;
52.5000;0.7977;2.3669;
52.8000;0.7977;2.3622;
53.1000;0.7985;2.3738;
53.4000;0.8010;2.3830;
53.7000;0.7969;2.3761;
54.0000;0.7977;2.3807;
54.3000;0.7977;2.3830;
54.6000;0.7993;2.3923;
54.9000;0.8010;2.3969;
55.2000;0.8002;2.3946;
55.5000;0.7993;2.3946;
55.8000;0.8010;2.3946;
56.1000;0.8026;2.3877;
56.4000;0.7985;2.3830;
56.7000;0.7993;2.3877;
57.0000;0.7993;2.3877;
57.3000;0.8002;2.3900;
57.6000;0.7985;2.3807;
57.9000;0.7969;2.3761;
58.2000;0.7937;2.3715;
58.5000;0.8002;2.3830;
58.8000;0.8034;2.3877;
59.1000;0.8010;2.3830;
59.4000;0.7985;2.3854;
59.7000;0.8026;2.3900;
60.0000;0.8010;2.3923;
60.3000;0.8002;2.3946;
60.6000;0.7937;2.3854;
60.9000;0.7993;2.3923;
61.2000;0.7937;2.3784;
61.5000;0.7993;2.3854;
61.8000;0.7985;2.3784;
62.1000;0.8010;2.3900;
62.4000;0.8010;2.3900;
62.7000;0.8010;2.3900;
63.0000;0.8002;2.3992;
63.3000;0.8002;2.4039;
63.6000;0.8018;2.4039;
63.9000;0.8002;2.4016;
64.2000;0.7977;2.3946;
64.5000;0.7961;2.3923;
64.8000;0.7993;2.3946;
65.1000;0.7993;2.3877;
65.4000;0.7953;2.3715;
65.7000;0.8010;2.3854;
66.0000;0.7985;2.3877;
66.3000;0.8026;2.3946;
66.6000;0.7937;2.3738;
66.9000;0.7993;2.3923;
67.2000;0.7985;2.3877;
67.5000;0.7985;2.3877;
67.8000;0.8026;2.3969;
68.1000;0.8002;2.3923;
68.4000;0.8018;2.3969;
68.7000;0.7985;2.3900;
69.0000;0.7993;2.3900;
69.3000;0.8026;2.4085;
69.6000;0.8002;2.3946;
69.9000;0.7993;2.3946;
70.2000;0.7977;2.3946;
70.5000;0.7993;2.3923;
70.8000;0.7985;2.3877;
71.1000;0.8034;2.4016;
71.4000;0.8002;2.3992;
71.7000;0.8002;2.4085;
72.0000;0.7969;2.4039;
72.3000;0.7993;2.3992;
72.6000;0.7985;2.3946;
72.9000;0.7985;2.3900;
73.2000;0.7993;2.4039;
73.5000;0.7953;2.3969;
73.8000;0.7977;2.3946;
74.1000;0.8026;2.3992;
74.4000;0.7985;2.3900;
74.7000;0.8002;2.3969;
75.0000;0.7993;2.3992;
75.3000;0.8002;2.4016;
75.6000;0.7977;2.3946;
75.9000;0.7993;2.3923;
76.2000;0.8067;2.4108;
76.5000;0.8002;2.4016;
76.8000;0.7977;2.3900;
77.1000;0.8018;2.3900;
77.4000;0.7985;2.3854;
77.7000;0.8002;2.3969;
78.0000;0.8010;2.3992;
78.3000;0.7977;2.3946;
78.6000;0.8002;2.4062;
78.9000;0.8010;2.4108;
79.2000;0.7985;2.3992;
79.5000;0.7993;2.3992;
79.8000;0.8002;2.4016;
80.1000;0.7993;2.4016;
80.4000;0.8002;2.4085;
80.7000;0.7985;2.3992;
81.0000;0.7993;2.3969;
81.3000;0.7969;2.3854;
81.6000;0.7993;2.3969;
81.9000;0.7993;2.3946;
82.2000;0.7985;2.3877;
82.5000;0.7969;2.3900;
82.8000;0.7993;2.3923;
83.1000;0.8002;2.4085;
83.4000;0.7993;2.4085;
83.7000;0.8010;2.4131;
84.0000;0.8010;2.4085;
84.3000;0.7993;2.4016;
84.6000;0.7993;2.4085;
84.9000;0.8002;2.4154;
85.2000;0.8010;2.4201;
85.5000;0.8010;2.4154;
85.8000;0.7993;2.4085;
86.1000;0.8026;2.4131;
86.4000;0.8034;2.4201;
86.7000;0.8034;2.4154;
87.0000;0.8010;2.4016;
87.3000;0.7985;2.3969;
87.6000;0.7977;2.3992;
87.9000;0.7969;2.4062;
88.2000;0.7953;2.3969;
88.5000;0.7945;2.3923;
88.8000;0.7977;2.3923;
89.1000;0.8002;2.3900;
89.4000;0.8010;2.4016;
89.7000;0.8010;2.3969;
90.0000;0.7969;2.3900;
90.3000;0.7993;2.4039;
90.6000;0.8034;2.4154;
90.9000;0.8002;2.3992;
91.2000;0.7993;2.3923;
91.5000;0.7985;2.3946;
91.8000;0.8018;2.3946;
92.1000;0.7993;2.3992;
92.4000;0.7993;2.3992;
92.7000;0.7904;2.3784;
93.0000;0.8010;2.4085;
93.3000;0.8010;2.4108;
93.6000;0.7961;2.4131;
93.9000;0.7969;2.4108;
94.2000;0.7953;2.4154;
94.5000;0.7977;2.4154;
94.8000;0.7985;2.4108;
95.1000;0.7969;2.4085;
95.4000;0.7985;2.4108;
95.7000;0.7993;2.4201;
96.0000;0.7993;2.4224;
96.3000;0.8010;2.4247;
96.6000;0.8010;2.4201;
96.9000;0.7993;2.4085;
97.2000;0.8059;2.4131;
97.5000;0.7993;2.3992;
97.8000;0.7985;2.3992;
98.1000;0.7985;2.4016;
98.4000;0.7920;2.3877;
98.7000;0.8002;2.4016;
99.0000;0.7985;2.3877;
99.3000;0.7993;2.3969;
99.6000;0.8018;2.3946;
99.9000;0.7969;2.3761;
100.2000;0.8002;2.3854;
100.5000;0.7993;2.3854;
100.8000;0.7993;2.3946;
101.1000;0.8002;2.3992;
101.4000;0.8002;2.4016;
101.7000;0.7977;2.3992;
102.0000;0.7993;2.3969;
102.3000;0.8010;2.3900;
102.6000;0.8018;2.4016;
102.9000;0.7993;2.3992;
103.2000;0.8010;2.3969;
103.5000;0.7993;2.3969;
103.8000;0.7993;2.3923;
104.1000;0.8002;2.3900;
104.4000;0.7985;2.3877;
104.7000;0.8002;2.3946;
105.0000;0.8010;2.3992;
105.3000;0.7993;2.3923;
105.6000;0.8107;2.4224;
105.9000;0.8067;2.4154;
106.2000;0.8010;2.4016;
106.5000;0.7977;2.3854;
106.8000;0.7945;2.3738;
107.1000;0.8034;2.3946;
107.4000;0.8010;2.3900;
107.7000;0.7977;2.3830;
108.0000;0.8010;2.3946;
108.3000;0.7993;2.4016;
108.6000;0.7993;2.3969;
108.9000;0.8059;2.4039;
109.2000;0.7993;2.3877;
109.5000;0.8002;2.3946;
109.8000;0.8018;2.3946;
110.1000;0.8042;2.3992;
110.4000;0.7977;2.3854;
110.7000;0.8010;2.3807;
111.0000;0.8002;2.3784;
111.3000;0.8002;2.3784;
111.6000;0.7928;2.3715;
111.9000;0.7993;2.3854;
112.2000;0.7993;2.3830;
112.5000;0.8018;2.3900;
112.8000;0.7993;2.3877;
113.1000;0.7953;2.3784;
113.4000;0.8002;2.3877;
113.7000;0.8050;2.4039;
114.0000;0.8010;2.3969;
114.3000;0.7969;2.3923;
114.6000;0.7977;2.3900;
114.9000;0.7993;2.3923;
115.2000;0.7993;2.3946;
115.5000;0.8002;2.4016;
115.8000;0.8002;2.3992;
116.1000;0.8042;2.4131;
116.4000;0.8067;2.4178;
116.7000;0.8042;2.4108;
117.0000;0.8002;2.4062;
117.3000;0.7977;2.4016;
117.6000;0.8010;2.4085;
117.9000;0.8010;2.3923;
118.2000;0.7993;2.3807;
118.5000;0.8010;2.3854;
118.8000;0.8018;2.3900;
119.1000;0.7985;2.3830;
119.4000;0.7985;2.3946;
119.7000;0.8010;2.4062;
120.0000;0.8002;2.4131;
120.3000;0.8010;2.4108;
120.6000;0.7993;2.4131;
120.9000;0.8026;2.4108;
121.2000;0.8026;2.4062;
121.5000;0.8010;2.4108;
121.8000;0.8018;2.4085;
122.1000;0.8010;2.4201;
122.4000;0.8002;2.4201;
122.7000;0.7993;2.4154;
123.0000;0.8010;2.4131;
123.3000;0.7985;2.4178;
123.6000;0.8010;2.4224;
123.9000;0.8034;2.4293;
124.2000;0.7985;2.4293;
124.5000;0.7985;2.4154;
124.8000;0.7985;2.4108;
125.1000;0.7961;2.4085;
125.4000;0.7985;2.4178;
125.7000;0.7985;2.4085;
126.0000;0.7977;2.4108;
126.3000;0.7993;2.4201;
126.6000;0.7985;2.4154;
126.9000;0.7977;2.4154;
127.2000;0.7985;2.4247;
127.5000;0.7977;2.4201;
127.8000;0.8026;2.4316;
128.1000;0.7985;2.4224;
128.4000;0.7985;2.4201;
128.7000;0.8042;2.4339;
129.0000;0.8002;2.4247;
129.3000;0.7985;2.4178;
129.6000;0.8010;2.4154;
129.9000;0.7985;2.4085;
130.2000;0.7977;2.4085;
130.5000;0.7953;2.4016;
130.8000;0.7993;2.4016;
131.1000;0.8002;2.4062;
131.4000;0.7977;2.4085;
131.7000;0.8018;2.4247;
132.0000;0.8026;2.4293;
132.3000;0.7969;2.4178;
132.6000;0.7993;2.4201;
132.9000;0.8002;2.4201;
133.2000;0.8002;2.4247;
133.5000;0.7985;2.4224;
133.8000;0.7985;2.4178;
134.1000;0.7993;2.4224;
134.4000;0.7993;2.4201;
134.7000;0.8002;2.4224;
135.0000;0.7953;2.4016;
135.3000;0.7993;2.4085;
135.6000;0.7888;2.3854;
135.9000;0.8002;2.4085;
136.2000;0.7993;2.4131;
136.5000;0.8042;2.4131;
136.8000;0.8002;2.4016;
137.1000;0.8010;2.4085;
137.4000;0.7985;2.4085;
137.7000;0.8002;2.4131;
138.0000;0.7993;2.4154;
138.3000;0.7880;2.3877;
138.6000;0.8010;2.4108;
138.9000;0.7993;2.4062;
139.2000;0.7985;2.4039;
139.5000;0.8002;2.4016;
139.8000;0.7993;2.3946;
140.1000;0.8075;2.4201;
140.4000;0.8002;2.3946;
140.7000;0.7993;2.3923;
141.0000;0.8026;2.3992;
141.3000;0.8075;2.4085;
141.6000;0.7985;2.3946;
141.9000;0.8010;2.4154;
142.2000;0.8010;2.4224;
142.5000;0.8002;2.4201;
142.8000;0.7985;2.4154;
143.1000;0.7993;2.4039;
143.4000;0.8002;2.4039;
143.7000;0.7993;2.3992;
144.0000;0.7977;2.3992;
144.3000;0.8002;2.3992;
144.6000;0.8050;2.4131;
144.9000;0.8026;2.4039;
145.2000;0.7993;2.3992;
145.5000;0.7985;2.3992;
145.8000;0.8010;2.4016;
146.1000;0.7969;2.3946;
146.4000;0.7977;2.3900;
146.7000;0.8002;2.4016;
147.0000;0.7945;2.3877;
147.3000;0.8002;2.4039;
147.6000;0.7969;2.3923;
147.9000;0.8002;2.3946;
148.2000;0.7961;2.3877;
148.5000;0.7985;2.4016;
148.8000;0.7993;2.4108;
149.1000;0.8002;2.4016;
149.4000;0.7920;2.3761;
149.7000;0.8042;2.4039;
150.0000;0.8010;2.3946;
150.3000;0.8002;2.3946;
150.6000;0.8002;2.3969;
150.9000;0.7993;2.4016;
151.2000;0.8002;2.3923;
151.5000;0.7993;2.3923;
151.8000;0.8002;2.4039;
152.1000;0.8010;2.4062;
152.4000;0.7993;2.3992;
152.7000;0.8050;2.4154;
153.0000;0.7993;2.3992;
153.3000;0.7985;2.3946;
153.6000;0.8002;2.3946;
153.9000;0.8010;2.3946;
154.2000;0.8002;2.3923;
154.5000;0.8002;2.3923;
154.8000;0.8002;2.3900;
155.1000;0.7993;2.3923;
155.4000;0.8002;2.3900;
155.7000;0.7928;2.3738;
156.0000;0.7985;2.3807;
156.3000;0.7993;2.3900;
156.6000;0.7961;2.3854;
156.9000;0.7961;2.3900;
157.2000;0.7993;2.3946;
157.5000;0.7977;2.3923;
157.8000;0.7985;2.3969;
158.1000;0.8010;2.3923;
158.4000;0.7993;2.3877;
158.7000;0.7993;2.3784;
159.0000;0.7937;2.3599;
159.3000;0.8026;2.3877;
159.6000;0.8002;2.3877;
159.9000;0.8034;2.3854;
160.2000;0.7953;2.3738;
160.5000;0.7977;2.3923;
160.8000;0.8002;2.4039;
161.1000;0.8018;2.4154;
161.4000;0.8026;2.4178;
161.7000;0.7993;2.4178;
162.0000;0.7993;2.4224;
162.3000;0.8010;2.4247;
162.6000;0.7977;2.4154;
162.9000;0.8018;2.4108;
163.2000;0.7993;2.3969;
163.5000;0.7961;2.3969;
163.8000;0.7993;2.4062;
164.1000;0.8002;2.4016;
164.4000;0.8002;2.4016;
164.7000;0.8018;2.4131;
165.0000;0.8018;2.4131;
165.3000;0.7977;2.3992;
165.6000;0.8002;2.4062;
165.9000;0.8002;2.4131;
166.2000;0.8010;2.4201;
166.5000;0.7977;2.4178;
166.8000;0.7985;2.4224;
167.1000;0.8002;2.4201;
167.4000;0.7985;2.4178;
167.7000;0.8002;2.4201;
168.0000;0.7977;2.4178;
168.3000;0.7977;2.4154;
168.6000;0.8034;2.4293;
168.9000;0.8002;2.4293;
169.2000;0.8026;2.4270;
169.5000;0.7977;2.4062;
169.8000;0.8010;2.4039;
170.1000;0.7993;2.4039;
170.4000;0.8002;2.4085;
170.7000;0.8018;2.3923;
171.0000;0.8010;2.3807;
171.3000;0.8059;2.3946;
171.6000;0.8026;2.3877;
171.9000;0.7977;2.3761;
172.2000;0.8010;2.3807;
172.5000;0.8002;2.3923;
172.8000;0.7977;2.3854;
173.1000;0.8002;2.3854;
173.4000;0.8002;2.3900;
173.7000;0.8010;2.3877;
174.0000;0.8010;2.3946;
174.3000;0.8042;2.4039;
174.6000;0.8002;2.3877;
174.9000;0.8002;2.3877;
175.2000;0.8010;2.3946;
175.5000;0.8010;2.3969;
175.8000;0.8018;2.4039;
176.1000;0.8002;2.4016;
176.4000;0.7993;2.4016;
176.7000;0.8010;2.4108;
177.0000;0.7993;2.4016;
177.3000;0.7969;2.3992;
177.6000;0.7993;2.4016;
177.9000;0.7977;2.4039;
178.2000;0.7928;2.3854;
178.5000;0.7871;2.3715;
178.8000;0.8002;2.4085;
179.1000;0.8002;2.4085;
179.4000;0.7969;2.4016;
179.7000;0.7993;2.4039;
180.0000;0.8002;2.4016;
180.3000;0.7896;2.3807;
180.6000;0.8002;2.4039;
180.9000;0.7985;2.3854;
181.2000;0.7977;2.3738;
181.5000;0.7993;2.3877;
181.8000;0.7977;2.3807;
182.1000;0.7993;2.3854;
182.4000;0.7993;2.3992;
182.7000;0.7985;2.3992;
183.0000;0.7985;2.3969;
183.3000;0.7985;2.4039;
183.6000;0.7920;2.3946;
183.9000;0.7985;2.4108;
184.2000;0.7985;2.4178;
184.5000;0.7969;2.4016;
184.8000;0.7977;2.3923;
185.1000;0.8002;2.3923;
185.4000;0.8010;2.3946;
185.7000;0.7928;2.3669;
186.0000;0.7977;2.3784;
186.3000;0.7937;2.3715;
186.6000;0.8116;2.4154;
186.9000;0.7985;2.3854;
187.2000;0.8010;2.3830;
187.5000;0.8034;2.3992;
187.8000;0.7937;2.3692;
188.1000;0.8010;2.3854;
188.4000;0.7985;2.3830;
188.7000;0.8002;2.3900;
189.0000;0.8067;2.4131;
189.3000;0.7969;2.3946;
189.6000;0.7985;2.4016;
189.9000;0.7977;2.3992;
190.2000;0.7993;2.4016;
190.5000;0.8002;2.3946;
190.8000;0.8010;2.4039;
191.1000;0.7961;2.3807;
191.4000;0.7985;2.3923;
191.7000;0.8002;2.3969;
192.0000;0.7993;2.3946;
192.3000;0.7993;2.3923;
192.6000;0.7977;2.3923;
192.9000;0.7985;2.3946;
193.2000;0.8010;2.3969;
193.5000;0.8002;2.3946;
193.8000;0.7985;2.3877;
194.1000;0.7977;2.3854;
194.4000;0.8002;2.3969;
194.7000;0.7993;2.3946;
195.0000;0.7993;2.3923;
195.3000;0.7993;2.3969;
195.6000;0.7977;2.3969;
195.9000;0.8010;2.4062;
196.2000;0.8010;2.4108;
196.5000;0.8002;2.4108;
196.8000;0.8010;2.4085;
197.1000;0.8075;2.4178;
197.4000;0.7985;2.3877;
197.7000;0.7969;2.3877;
198.0000;0.7993;2.3969;
198.3000;0.8010;2.3923;
198.6000;0.7985;2.3877;
198.9000;0.7969;2.3854;
199.2000;0.7985;2.3992;
199.5000;0.8002;2.4108;
199.8000;0.7977;2.4016;
200.1000;0.7953;2.3900;
200.4000;0.8010;2.4016;
200.7000;0.7920;2.3900;
201.0000;0.7985;2.4108;
201.3000;0.8091;2.4316;
201.6000;0.8002;2.4224;
201.9000;0.7985;2.4247;
202.2000;0.7961;2.4085;
202.5000;0.7969;2.4201;
202.8000;0.7985;2.4247;
203.1000;0.7993;2.4316;
203.4000;0.7985;2.4316;
203.7000;0.7977;2.4224;
204.0000;0.7985;2.4178;
204.3000;0.7977;2.4085;
204.6000;0.8026;2.4154;
204.9000;0.7993;2.4039;
205.2000;0.8018;2.4085;
205.5000;0.8018;2.4039;
205.8000;0.7985;2.3969;
206.1000;0.8002;2.3946;
206.4000;0.7969;2.3946;
206.7000;0.7945;2.3969;
207.0000;0.8002;2.4108;
207.3000;0.8002;2.4131;
207.6000;0.8018;2.4085;
207.9000;0.8002;2.4016;
208.2000;0.7985;2.3992;
208.5000;0.7985;2.3969;
208.8000;0.8010;2.3992;
209.1000;0.7985;2.3946;
209.4000;0.7961;2.3900;
209.7000;0.7961;2.3969;
210.0000;0.8002;2.4062;
210.3000;0.7993;2.3969;
210.6000;0.8099;2.4131;
210.9000;0.8002;2.3877;
211.2000;0.8002;2.3900;
211.5000;0.7961;2.3900;
211.8000;0.8018;2.4108;
212.1000;0.8010;2.4085;
212.4000;0.8018;2.4039;
212.7000;0.7993;2.3992;
213.0000;0.7985;2.4085;
213.3000;0.8010;2.4108;
213.6000;0.8018;2.4131;
213.9000;0.7993;2.4039;
214.2000;0.8034;2.4062;
214.5000;0.7977;2.4016;
214.8000;0.8010;2.3969;
215.1000;0.7969;2.3946;
215.4000;0.7961;2.3992;
215.7000;0.7993;2.4062;
216.0000;0.7969;2.4062;
216.3000;0.7993;2.4108;
216.6000;0.7985;2.4154;
216.9000;0.7985;2.4131;
217.2000;0.7985;2.4178;
217.5000;0.7993;2.4131;
217.8000;0.7993;2.4085;
218.1000;0.7977;2.4085;
218.4000;0.7993;2.4178;
218.7000;0.8002;2.4154;
219.0000;0.7985;2.4178;
219.3000;0.7993;2.4131;
219.6000;0.8018;2.4224;
219.9000;0.7985;2.4039;
220.2000;0.7993;2.4131;
220.5000;0.7993;2.4154;
220.8000;0.7985;2.4108;
221.1000;0.7969;2.4108;
221.4000;0.8018;2.4224;
221.7000;0.8018;2.4154;
222.0000;0.8010;2.4131;
222.3000;0.7977;2.4131;
222.6000;0.7985;2.4085;
222.9000;0.8026;2.4201;
223.2000;0.7920;2.3992;
223.5000;0.8018;2.4178;
223.8000;0.7993;2.4062;
224.1000;0.8018;2.4247;
224.4000;0.7961;2.4039;
224.7000;0.7871;2.3761;
225.0000;0.7928;2.3807;
225.3000;0.8026;2.3969;
225.6000;0.7993;2.3830;
225.9000;0.8034;2.3992;
226.2000;0.7969;2.3900;
226.5000;0.7977;2.3900;
226.8000;0.7993;2.3969;
227.1000;0.7985;2.3969;
227.4000;0.7977;2.4039;
227.7000;0.7969;2.3923;
228.0000;0.7977;2.3923;
228.3000;0.8018;2.3923;
228.6000;0.8002;2.3877;
228.9000;0.7985;2.3807;
229.2000;0.7985;2.3877;
229.5000;0.7977;2.3807;
229.8000;0.7969;2.3807;
230.1000;0.8010;2.4039;
230.4000;0.8034;2.4108;
230.7000;0.7993;2.4016;
231.0000;0.7985;2.4016;
231.3000;0.8026;2.4108;
231.6000;0.8010;2.4108;
231.9000;0.7985;2.4108;
232.2000;0.7993;2.4154;
232.5000;0.7985;2.4108;
232.8000;0.7993;2.4154;
233.1000;0.7928;2.4016;
233.4000;0.7985;2.4131;
233.7000;0.7985;2.4131;
234.0000;0.7985;2.4154;
234.3000;0.7977;2.4131;
234.6000;0.7969;2.3992;
234.9000;0.7993;2.4108;
235.2000;0.7993;2.4178;
235.5000;0.7993;2.4154;
235.8000;0.7985;2.4108;
236.1000;0.7993;2.4062;
236.4000;0.8034;2.4224;
236.7000;0.7993;2.4085;
237.0000;0.7993;2.4062;
237.3000;0.7969;2.3946;
237.6000;0.7985;2.3923;
237.9000;0.7993;2.3969;
238.2000;0.7977;2.3992;
238.5000;0.7969;2.3969;
238.8000;0.8002;2.3992;
239.1000;0.7969;2.3946;
239.4000;0.7985;2.4062;
239.7000;0.8002;2.4224;
240.0000;0.7977;2.4178;
240.3000;0.7985;2.4131;
240.6000;0.7912;2.3854;
240.9000;0.7985;2.4039;
241.2000;0.7993;2.3992;
241.5000;0.7993;2.3969;
241.8000;0.8010;2.4062;
242.1000;0.7993;2.4131;
242.4000;0.7985;2.4178;
242.7000;0.7993;2.4224;
243.0000;0.7969;2.4154;
243.3000;0.7985;2.4178;
243.6000;0.8026;2.4201;
243.9000;0.7993;2.4154;
244.2000;0.7993;2.4247;
244.5000;0.7969;2.4201;
244.8000;0.8050;2.4270;
245.1000;0.7977;2.4201;
245.4000;0.7993;2.4270;
245.7000;0.7977;2.4154;
246.0000;0.7993;2.4247;
246.3000;0.7985;2.4178;
246.6000;0.8042;2.4224;
246.9000;0.7993;2.4201;
247.2000;0.8002;2.4270;
247.5000;0.8010;2.4363;
247.8000;0.8083;2.4455;
248.1000;0.7993;2.4247;
248.4000;0.7977;2.4154;
248.7000;0.7961;2.4039;
249.0000;0.8018;2.4016;
249.3000;0.7993;2.3877;
249.6000;0.8002;2.3923;
249.9000;0.7993;2.3877;
250.2000;0.7977;2.3854;
250.5000;0.7993;2.3807;
250.8000;0.8002;2.3877;
251.1000;0.7993;2.3830;
251.4000;0.7993;2.3830;
251.7000;0.8010;2.3830;
252.0000;0.8002;2.3854;
252.3000;0.7985;2.3877;
252.6000;0.7985;2.3807;
252.9000;0.8010;2.3877;
253.2000;0.8002;2.3854;
253.5000;0.7993;2.3807;
253.8000;0.7985;2.3715;
254.1000;0.8002;2.3807;
254.4000;0.7969;2.3807;
254.7000;0.7993;2.3923;
255.0000;0.7977;2.3854;
255.3000;0.8050;2.4039;
255.6000;0.7985;2.3830;
255.9000;0.7993;2.3854;
256.2000;0.7977;2.3946;
256.5000;0.8002;2.3946;
256.8000;0.7993;2.3992;
257.1000;0.7993;2.4062;
257.4000;0.7985;2.4154;
257.7000;0.7977;2.4085;
258.0000;0.7977;2.4016;
258.3000;0.7993;2.4039;
258.6000;0.8018;2.4108;
258.9000;0.7977;2.3992;
259.2000;0.8002;2.4085;
259.5000;0.7985;2.4039;
259.8000;0.7969;2.3900;
260.1000;0.7969;2.3877;
260.4000;0.7993;2.4016;
260.7000;0.7985;2.4016;
261.0000;0.7993;2.4016;
261.3000;0.7985;2.4016;
261.6000;0.8026;2.4131;
261.9000;0.7985;2.4039;
262.2000;0.8018;2.4085;
262.5000;0.8026;2.4085;
262.8000;0.8010;2.3969;
263.1000;0.7985;2.3923;
263.4000;0.7977;2.3807;
263.7000;0.8002;2.3877;
264.0000;0.7985;2.3854;
264.3000;0.7993;2.3877;
264.6000;0.7993;2.3854;
264.9000;0.7993;2.3900;
265.2000;0.8002;2.3969;
265.5000;0.7985;2.3900;
265.8000;0.7993;2.3923;
266.1000;0.8010;2.3923;
266.4000;0.7953;2.3807;
266.7000;0.7985;2.3854;
267.0000;0.7928;2.3807;
267.3000;0.7985;2.4016;
267.6000;0.7880;2.3830;
267.9000;0.8002;2.3992;
268.2000;0.7993;2.3923;
268.5000;0.7993;2.3923;
268.8000;0.8002;2.3923;
269.1000;0.8002;2.4016;
269.4000;0.8002;2.3969;
269.7000;0.7977;2.3900;
270.0000;0.8018;2.3969;
270.3000;0.7985;2.3969;
270.6000;0.8002;2.4039;
270.9000;0.8002;2.4131;
271.2000;0.8010;2.4178;
271.5000;0.8002;2.4131;
271.8000;0.8002;2.4085;
272.1000;0.7993;2.3969;
272.4000;0.8002;2.3854;
272.7000;0.7969;2.3854;
273.0000;0.8002;2.3923;
273.3000;0.7985;2.3923;
273.6000;0.7985;2.3923;
273.9000;0.7985;2.3923;
274.2000;0.7985;2.3992;
274.5000;0.7993;2.4062;
274.8000;0.7985;2.4039;
275.1000;0.7993;2.4108;
275.4000;0.7977;2.4062;
275.7000;0.7969;2.4108;
276.0000;0.7977;2.4085;
276.3000;0.7961;2.4154;
276.6000;0.7977;2.4339;
276.9000;0.7977;2.4363;
277.2000;0.7985;2.4270;
277.5000;0.7977;2.4154;
277.8000;0.7977;2.4131;
278.1000;0.8026;2.4201;
278.4000;0.7953;2.4154;
278.7000;0.8010;2.4178;
279.0000;0.8002;2.4178;
279.3000;0.8010;2.4224;
279.6000;0.8002;2.4270;
279.9000;0.8002;2.4293;
280.2000;0.8002;2.4178;
280.5000;0.7977;2.4039;
280.8000;0.7985;2.4085;
281.1000;0.8002;2.4131;
281.4000;0.7961;2.4085;
281.7000;0.7977;2.4131;
282.0000;0.7985;2.4154;
282.3000;0.7912;2.4039;
282.6000;0.7985;2.4108;
282.9000;0.7993;2.4039;
283.2000;0.7993;2.4016;
283.5000;0.7969;2.3992;
283.8000;0.8002;2.4062;
284.1000;0.8010;2.4062;
284.4000;0.7993;2.3969;
284.7000;0.7977;2.3946;
285.0000;0.7993;2.3923;
285.3000;0.7977;2.3923;
285.6000;0.8002;2.3946;
285.9000;0.7985;2.3807;
286.2000;0.7993;2.3923;
286.5000;0.7961;2.3738;
286.8000;0.8002;2.3854;
287.1000;0.7993;2.3923;
287.4000;0.8002;2.3877;
287.7000;0.8018;2.3992;
288.0000;0.7977;2.3900;
288.3000;0.7993;2.4039;
288.6000;0.7993;2.4016;
288.9000;0.7985;2.4039;
289.2000;0.8034;2.4178;
289.5000;0.8002;2.4085;
289.8000;0.8010;2.4039;
290.1000;0.8002;2.4016;
290.4000;0.7985;2.4016;
290.7000;0.7985;2.4108;
291.0000;0.7977;2.4131;
291.3000;0.7977;2.4154;
291.6000;0.8002;2.4154;
291.9000;0.7985;2.4178;
292.2000;0.7985;2.4131;
292.5000;0.7985;2.4108;
292.8000;0.8010;2.4201;
293.1000;0.8010;2.4224;
293.4000;0.8010;2.4293;
293.7000;0.8002;2.4224;
294.0000;0.7985;2.4201;
294.3000;0.8010;2.4224;
294.6000;0.7993;2.4247;
294.9000;0.7977;2.4154;
295.2000;0.7993;2.4178;
295.5000;0.8002;2.4224;
295.8000;0.7969;2.4201;
296.1000;0.7977;2.4131;
296.4000;0.7953;2.4154;
296.7000;0.7985;2.4108;
297.0000;0.7977;2.4108;
297.3000;0.7977;2.4131;
297.6000;0.7969;2.4062;
297.9000;0.7993;2.4062;
298.2000;0.7977;2.3969;
298.5000;0.7977;2.3969;
298.8000;0.7977;2.3969;
299.1000;0.8034;2.4062;
299.4000;0.8002;2.4062;
299.7000;0.8034;2.4247;
300.0000;0.8002;2.4247;
300.3000;0.8002;2.4224;
300.6000;0.7993;2.4224;
300.9000;0.7993;2.4201;
301.2000;0.7969;2.4108;
301.5000;0.7953;2.4062;
301.8000;0.7977;2.4016;
302.1000;0.7961;2.4016;
302.4000;0.8018;2.4085;
302.7000;0.8002;2.4085;
303.0000;0.7993;2.4039;
303.3000;0.7977;2.3992;
303.6000;0.8002;2.3992;
303.9000;0.7977;2.3946;
304.2000;0.7977;2.4039;
304.5000;0.7961;2.3969;
304.8000;0.7985;2.4016;
305.1000;0.7985;2.4039;
305.4000;0.7993;2.4085;
305.7000;0.7993;2.4039;
306.0000;0.7977;2.4039;
306.3000;0.7985;2.4062;
306.6000;0.7953;2.4016;
306.9000;0.7985;2.3969;
307.2000;0.7985;2.3992;
307.5000;0.7993;2.4039;
307.8000;0.8010;2.4154;
308.1000;0.8002;2.4154;
308.4000;0.7993;2.4154;
308.7000;0.7969;2.4131;
309.0000;0.7985;2.4131;
309.3000;0.7969;2.4085;
309.6000;0.8034;2.4247;
309.9000;0.7985;2.4178;
310.2000;0.8034;2.4316;
310.5000;0.7993;2.4270;
310.8000;0.7993;2.4270;
311.1000;0.7969;2.4224;
311.4000;0.7985;2.4085;
311.7000;0.7953;2.4016;
312.0000;0.7985;2.4039;
312.3000;0.7993;2.4085;
312.6000;0.8034;2.4178;
312.9000;0.7969;2.4062;
313.2000;0.7977;2.4085;
313.5000;0.7977;2.4247;
313.8000;0.7985;2.4316;
314.1000;0.7993;2.4386;
314.4000;0.7985;2.4363;
314.7000;0.8002;2.4339;
315.0000;0.8010;2.4270;
315.3000;0.7993;2.4178;
315.6000;0.7985;2.4224;
315.9000;0.8002;2.4178;
316.2000;0.7993;2.4062;
316.5000;0.8042;2.4131;
316.8000;0.7969;2.4085;
317.1000;0.8010;2.4154;
317.4000;0.7985;2.4108;
317.7000;0.7977;2.4154;
318.0000;0.8002;2.4224;
318.3000;0.8010;2.4293;
318.6000;0.7977;2.4224;
318.9000;0.7863;2.3923;
319.2000;0.7985;2.4201;
319.5000;0.7977;2.4131;
319.8000;0.7993;2.4247;
320.1000;0.8059;2.4316;
320.4000;0.8002;2.4085;
320.7000;0.8018;2.4062;
321.0000;0.7993;2.4085;
321.3000;0.7993;2.4154;
321.6000;0.7961;2.4108;
321.9000;0.7993;2.4039;
322.2000;0.7985;2.4039;
322.5000;0.7977;2.4016;
322.8000;0.7977;2.4016;
323.1000;0.7969;2.4039;
323.4000;0.7985;2.3992;
323.7000;0.7977;2.3946;
324.0000;0.7985;2.3900;
324.3000;0.8018;2.3992;
324.6000;0.8010;2.3946;
324.9000;0.7993;2.3923;
325.2000;0.7953;2.3900;
325.5000;0.8010;2.4108;
325.8000;0.7985;2.4085;
326.1000;0.7985;2.4108;
326.4000;0.7993;2.4247;
326.7000;0.7977;2.4201;
327.0000;0.7953;2.4201;
327.3000;0.7985;2.4270;
327.6000;0.7977;2.4293;
327.9000;0.7977;2.4270;
328.2000;0.7969;2.4316;
328.5000;0.7953;2.4224;
328.8000;0.7961;2.4178;
329.1000;0.7985;2.4131;
329.4000;0.7945;2.4016;
329.7000;0.7977;2.4108;
330.0000;0.7993;2.4062;
330.3000;0.7977;2.4108;
330.6000;0.8002;2.4178;
330.9000;0.7969;2.4085;
331.2000;0.7993;2.4108;
331.5000;0.8002;2.4154;
331.8000;0.7977;2.4131;
332.1000;0.7977;2.4039;
332.4000;0.8018;2.4247;
332.7000;0.8002;2.4201;
333.0000;0.7993;2.4154;
333.3000;0.7977;2.4085;
333.6000;0.7985;2.4085;
333.9000;0.7985;2.3946;
334.2000;0.7993;2.3877;
334.5000;0.7961;2.3830;
334.8000;0.7961;2.3900;
335.1000;0.8002;2.3969;
335.4000;0.8091;2.4201;
335.7000;0.7993;2.4085;
336.0000;0.7993;2.4178;
336.3000;0.8010;2.4201;
336.6000;0.8010;2.4154;
336.9000;0.8018;2.4178;
337.2000;0.7961;2.3992;
337.5000;0.7993;2.4085;
337.8000;0.8042;2.4178;
338.1000;0.8002;2.4062;
338.4000;0.8010;2.3969;
338.7000;0.8026;2.4062;
339.0000;0.7985;2.4085;
339.3000;0.7985;2.4178;
339.6000;0.7993;2.4201;
339.9000;0.8010;2.4108;
340.2000;0.7993;2.4085;
340.5000;0.8067;2.4270;
340.8000;0.7937;2.4016;
341.1000;0.8026;2.4108;
341.4000;0.8010;2.4085;
341.7000;0.7928;2.3877;
342.0000;0.7977;2.3969;
342.3000;0.7969;2.3900;
342.6000;0.7945;2.3854;
342.9000;0.8002;2.3946;
343.2000;0.8026;2.4062;
343.5000;0.7993;2.3923;
343.8000;0.7985;2.3946;
344.1000;0.7977;2.3946;
344.4000;0.7993;2.3969;
344.7000;0.7993;2.4085;
345.0000;0.7969;2.4062;
345.3000;0.7977;2.4178;
345.6000;0.7985;2.4131;
345.9000;0.7985;2.4085;
346.2000;0.7993;2.4154;
346.5000;0.7985;2.4131;
346.8000;0.7985;2.4247;
347.1000;0.8002;2.4224;
347.4000;0.7993;2.4131;
347.7000;0.8010;2.4154;
348.0000;0.8002;2.4108;
348.3000;0.8018;2.4085;
348.6000;0.7977;2.4016;
348.9000;0.7977;2.3992;
349.2000;0.7985;2.4131;
349.5000;0.8026;2.4154;
349.8000;0.7977;2.4016;
350.1000;0.7977;2.4016;
350.4000;0.7985;2.3946;
350.7000;0.7977;2.4016;
351.0000;0.7985;2.4062;
351.3000;0.7977;2.3992;
351.6000;0.7985;2.3969;
351.9000;0.8010;2.3900;
352.2000;0.7993;2.3807;
352.5000;0.8002;2.3992;
352.8000;0.7985;2.3969;
353.1000;0.7993;2.3992;
353.4000;0.7977;2.3900;
353.7000;0.8002;2.3969;
354.0000;0.7985;2.3969;
354.3000;0.7993;2.3923;
354.6000;0.7945;2.3807;
354.9000;0.7993;2.3946;
355.2000;0.7969;2.3784;
355.5000;0.8010;2.3830;
355.8000;0.8002;2.3784;
356.1000;0.8010;2.3830;
356.4000;0.7961;2.3738;
356.7000;0.8067;2.3992;
357.0000;0.7993;2.3877;
357.3000;0.7977;2.3946;
357.6000;0.7977;2.3969;
357.9000;0.7985;2.3946;
358.2000;0.7961;2.3923;
358.5000;0.7977;2.4016;
358.8000;0.7969;2.4016;
359.1000;0.7977;2.4108;
359.4000;0.8034;2.4339;
359.7000;0.8018;2.4363;
360.0000;0.7977;2.4224;
360.3000;0.7993;2.4201;
360.6000;0.8010;2.4178;
360.9000;0.8002;2.4247;
361.2000;0.8018;2.4247;
361.5000;0.8002;2.4293;
361.8000;0.7985;2.4293;
362.1000;0.7993;2.4293;
362.4000;0.8002;2.4293;
362.7000;0.7977;2.4270;
363.0000;0.7953;2.4154;
363.3000;0.7985;2.4224;
363.6000;0.8002;2.4154;
363.9000;0.7977;2.4062;
364.2000;0.7969;2.4039;
364.5000;0.7961;2.4039;
364.8000;0.7977;2.4039;
365.1000;0.8010;2.4062;
365.4000;0.7985;2.4131;
365.7000;0.7985;2.4154;
366.0000;0.8002;2.4154;
366.3000;0.8002;2.4178;
366.6000;0.7993;2.4108;
366.9000;0.7993;2.4085;
367.2000;0.8034;2.4154;
367.5000;0.8002;2.4154;
367.8000;0.8010;2.4154;
368.1000;0.7993;2.4108;
368.4000;0.8002;2.4108;
368.7000;0.7993;2.4085;
369.0000;0.7993;2.4108;
369.3000;0.7969;2.3992;
369.6000;0.7977;2.3969;
369.9000;0.8010;2.4062;
370.2000;0.7993;2.3946;
370.5000;0.7985;2.3877;
370.8000;0.7993;2.3900;
371.1000;0.7985;2.3854;
371.4000;0.7993;2.3877;
371.7000;0.7977;2.3923;
372.0000;0.7993;2.3969;
372.3000;0.8002;2.3946;
372.6000;0.8018;2.3946;
372.9000;0.7985;2.4016;
373.2000;0.7993;2.4062;
373.5000;0.8059;2.4247;
373.8000;0.7985;2.4085;
374.1000;0.7969;2.3969;
374.4000;0.7961;2.3900;
374.7000;0.8010;2.4016;
375.0000;0.7977;2.3969;
375.3000;0.7993;2.4062;
375.6000;0.7977;2.3969;
375.9000;0.7977;2.3900;
376.2000;0.7985;2.3969;
376.5000;0.7993;2.3946;
376.8000;0.7993;2.3969;
377.1000;0.7977;2.3969;
377.4000;0.7985;2.3946;
377.7000;0.7969;2.3923;
378.0000;0.7993;2.4131;
378.3000;0.7993;2.4154;
378.6000;0.8018;2.4201;
378.9000;0.8010;2.4201;
379.2000;0.8002;2.4201;
379.5000;0.7985;2.4062;
379.8000;0.7993;2.4062;
380.1000;0.8002;2.4154;
380.4000;0.8042;2.4339;
380.7000;0.7985;2.4178;
381.0000;0.8026;2.4247;
381.3000;0.8026;2.4108;
381.6000;0.8002;2.4039;
381.9000;0.7985;2.4039;
382.2000;0.8010;2.4201;
382.5000;0.7945;2.4085;
382.8000;0.7985;2.4154;
383.1000;0.8010;2.4154;
383.4000;0.7993;2.4201;
383.7000;0.7985;2.4154;
384.0000;0.7993;2.4178;
384.3000;0.7993;2.4062;
384.6000;0.7985;2.4108;
384.9000;0.8010;2.4201;
385.2000;0.7977;2.4201;
385.5000;0.7977;2.4062;
385.8000;0.8010;2.4108;
386.1000;0.7920;2.3923;
386.4000;0.7993;2.4062;
386.7000;0.7985;2.4085;
387.0000;0.7945;2.3969;
387.3000;0.7969;2.3992;
387.6000;0.7993;2.4039;
387.9000;0.8002;2.4108;
388.2000;0.8018;2.4131;
388.5000;0.7969;2.4039;
388.8000;0.7985;2.4062;
389.1000;0.8002;2.4039;
389.4000;0.7969;2.3923;
389.7000;0.7961;2.3946;
390.0000;0.7953;2.3969;
390.3000;0.7977;2.4062;
390.6000;0.7953;2.3946;
390.9000;0.7969;2.3877;
391.2000;0.7961;2.3877;
391.5000;0.7985;2.4016;
391.8000;0.7977;2.4039;
392.1000;0.7977;2.4039;
392.4000;0.8018;2.4062;
392.7000;0.7977;2.4085;
393.0000;0.8002;2.4108;
393.3000;0.7985;2.4131;
393.6000;0.7969;2.4178;
393.9000;0.7977;2.4201;
394.2000;0.7993;2.4201;
394.5000;0.8042;2.4386;
394.8000;0.7985;2.4270;
395.1000;0.7993;2.4247;
395.4000;0.8002;2.4201;
395.7000;0.8010;2.4108;
396.0000;0.7985;2.4085;
396.3000;0.8002;2.4062;
396.6000;0.7977;2.4039;
396.9000;0.7985;2.4016;
397.2000;0.7985;2.4062;
397.5000;0.8002;2.4039;
397.8000;0.7969;2.3969;
398.1000;0.7985;2.4016;
398.4000;0.7993;2.3992;
398.7000;0.7985;2.4039;
399.0000;0.7977;2.4062;
399.3000;0.7961;2.4062;
399.6000;0.8002;2.4062;
399.9000;0.7993;2.4085;
400.2000;0.8002;2.4131;
400.5000;0.7993;2.4154;
400.8000;0.7985;2.4039;
401.1000;0.7937;2.3923;
401.4000;0.7985;2.3969;
401.7000;0.7985;2.4039;
402.0000;0.7977;2.4131;
402.3000;0.7945;2.4085;
402.6000;0.7953;2.4016;
402.9000;0.7985;2.4016;
403.2000;0.8002;2.3946;
403.5000;0.7985;2.3946;
403.8000;0.7977;2.3900;
404.1000;0.7977;2.3877;
404.4000;0.7993;2.3877;
404.7000;0.7961;2.3830;
405.0000;0.7985;2.3830;
405.3000;0.7977;2.3854;
405.6000;0.7969;2.3900;
405.9000;0.7961;2.3992;
406.2000;0.7953;2.4062;
406.5000;0.7977;2.4062;
406.8000;0.7993;2.4016;
407.1000;0.7977;2.3946;
407.4000;0.7961;2.3992;
407.7000;0.7985;2.3992;
408.0000;0.8010;2.4085;
408.3000;0.7993;2.4085;
408.6000;0.7993;2.4016;
408.9000;0.7977;2.4016;
409.2000;0.7993;2.4062;
409.5000;0.8002;2.4016;
409.8000;0.7985;2.3992;
410.1000;0.7920;2.3854;
410.4000;0.7977;2.4016;
410.7000;0.7969;2.3992;
411.0000;0.7977;2.4062;
411.3000;0.8026;2.4085;
411.6000;0.8018;2.4085;
411.9000;0.7985;2.4062;
412.2000;0.8002;2.4085;
412.5000;0.7937;2.3923;
412.8000;0.7993;2.4062;
413.1000;0.7985;2.4108;
413.4000;0.7945;2.3854;
413.7000;0.7977;2.4039;
414.0000;0.7977;2.4039;
414.3000;0.7993;2.4062;
414.6000;0.8002;2.4085;
414.9000;0.7985;2.4178;
415.2000;0.7977;2.4131;
415.5000;0.8050;2.4247;
415.8000;0.7993;2.4131;
416.1000;0.7993;2.4201;
416.4000;0.7993;2.4201;
416.7000;0.7969;2.4154;
417.0000;0.7985;2.4154;
417.3000;0.8002;2.4178;
417.6000;0.7977;2.4131;
417.9000;0.8002;2.4108;
418.2000;0.7993;2.4108;
418.5000;0.7953;2.4085;
418.8000;0.7993;2.4016;
419.1000;0.7985;2.4016;
419.4000;0.7993;2.4039;
419.7000;0.8018;2.4085;
420.0000;0.7993;2.3923;
420.3000;0.7863;2.3692;
420.6000;0.7993;2.3992;
420.9000;0.7993;2.4039;
421.2000;0.7985;2.3992;
421.5000;0.7985;2.3969;
421.8000;0.7937;2.3969;
422.1000;0.8067;2.4293;
422.4000;0.7969;2.4062;
422.7000;0.7977;2.4085;
423.0000;0.7985;2.4131;
423.3000;0.7945;2.3992;
423.6000;0.7993;2.4108;
423.9000;0.7993;2.4085;
424.2000;0.7977;2.4108;
424.5000;0.7993;2.4085;
424.8000;0.7945;2.4016;
425.1000;0.7977;2.4039;
425.4000;0.7969;2.4085;
425.7000;0.7985;2.4108;
426.0000;0.7977;2.3969;
426.3000;0.7993;2.4016;
426.6000;0.7969;2.3969;
426.9000;0.7993;2.4062;
427.2000;0.7977;2.4016;
427.5000;0.7993;2.3992;
427.8000;0.7985;2.4039;
428.1000;0.7985;2.4016;
428.4000;0.7912;2.3854;
428.7000;0.8018;2.4085;
429.0000;0.7985;2.3900;
429.3000;0.7961;2.3807;
429.6000;0.8099;2.4154;
429.9000;0.7993;2.3807;
430.2000;0.7985;2.3807;
430.5000;0.7969;2.3900;
430.8000;0.7993;2.4016;
431.1000;0.7985;2.4016;
431.4000;0.7937;2.3946;
431.7000;0.7896;2.3830;
432.0000;0.7928;2.3923;
432.3000;0.7969;2.3992;
432.6000;0.7961;2.4039;
432.9000;0.7961;2.4062;
433.2000;0.7953;2.4085;
433.5000;0.7969;2.4016;
433.8000;0.7993;2.4154;
434.1000;0.7977;2.4154;
434.4000;0.8010;2.4131;
434.7000;0.8002;2.3992;
435.0000;0.7993;2.3946;
435.3000;0.7993;2.3992;
435.6000;0.7977;2.4085;
435.9000;0.7945;2.3946;
436.2000;0.7969;2.4016;
436.5000;0.7880;2.3830;
436.8000;0.7977;2.4016;
437.1000;0.7928;2.3854;
437.4000;0.8002;2.4016;
437.7000;0.7977;2.3992;
438.0000;0.7977;2.3923;
438.3000;0.7993;2.3923;
438.6000;0.7993;2.3830;
438.9000;0.7985;2.3830;
439.2000;0.7920;2.3576;
439.5000;0.7945;2.3599;
439.8000;0.7969;2.3622;
440.1000;0.8010;2.3784;
440.4000;0.8034;2.3923;
440.7000;0.7993;2.3854;
441.0000;0.7993;2.3738;
441.3000;0.8002;2.3645;
441.6000;0.7993;2.3645;
441.9000;0.7985;2.3645;
442.2000;0.8010;2.3761;
442.5000;0.7969;2.3645;
442.8000;0.7993;2.3692;
443.1000;0.7969;2.3645;
443.4000;0.7961;2.3692;
443.7000;0.7977;2.3784;
444.0000;0.7993;2.3900;
444.3000;0.7985;2.3877;
444.6000;0.8002;2.3923;
444.9000;0.7993;2.3992;
445.2000;0.7993;2.3877;
445.5000;0.8010;2.3946;
445.8000;0.7985;2.3877;
446.1000;0.7953;2.3830;
446.4000;0.7977;2.3830;
446.7000;0.7993;2.3900;
447.0000;0.7985;2.3854;
447.3000;0.7969;2.3807;
447.6000;0.7961;2.3807;
447.9000;0.7977;2.3923;
448.2000;0.8018;2.3946;
448.5000;0.7985;2.3877;
448.8000;0.7977;2.3854;
449.1000;0.8002;2.3900;
449.4000;0.7937;2.3738;
449.7000;0.7993;2.3900;
450.0000;0.7977;2.3877;
450.3000;0.8010;2.3946;
450.6000;0.7969;2.3830;
450.9000;0.7985;2.3877;
451.2000;0.7993;2.3830;
451.5000;0.7993;2.3900;
451.8000;0.7969;2.3854;
452.1000;0.7993;2.3946;
452.4000;0.7863;2.3645;
452.7000;0.7928;2.3807;
453.0000;0.7993;2.4039;
453.3000;0.7977;2.4016;
453.6000;0.7977;2.4016;
453.9000;0.7977;2.4039;
454.2000;0.7985;2.4085;
454.5000;0.8010;2.4108;
454.8000;0.7993;2.4016;
455.1000;0.7985;2.4016;
455.4000;0.7920;2.3877;
455.7000;0.7977;2.3992;
456.0000;0.8018;2.4062;
456.3000;0.7928;2.3877;
456.6000;0.7993;2.4039;
456.9000;0.7977;2.4039;
457.2000;0.7969;2.4062;
457.5000;0.7985;2.4108;
457.8000;0.8034;2.4201;
458.1000;0.7993;2.4108;
458.4000;0.8059;2.4178;
458.7000;0.7945;2.3738;
459.0000;0.7985;2.3807;
459.3000;0.7985;2.3830;
459.6000;0.7985;2.3784;
459.9000;0.7977;2.3715;
460.2000;0.7977;2.3738;
460.5000;0.8010;2.3830;
460.8000;0.7985;2.3807;
461.1000;0.7977;2.3854;
461.4000;0.7961;2.3854;
461.7000;0.7969;2.3946;
462.0000;0.7985;2.3923;
462.3000;0.8002;2.3969;
462.6000;0.7969;2.3830;
462.9000;0.7977;2.3807;
463.2000;0.7985;2.3784;
463.5000;0.7985;2.3830;
463.8000;0.7969;2.3807;
464.1000;0.7993;2.3830;
464.4000;0.7993;2.3830;
464.7000;0.7977;2.3807;
465.0000;0.8018;2.3877;
465.3000;0.8002;2.3854;
465.6000;0.7969;2.3877;
465.9000;0.8034;2.3969;
466.2000;0.7985;2.3946;
466.5000;0.7969;2.3923;
466.8000;0.7985;2.3946;
467.1000;0.8002;2.3923;
467.4000;0.7977;2.3854;
467.7000;0.7977;2.3877;
468.0000;0.7969;2.3923;
468.3000;0.7985;2.3946;
468.6000;0.7977;2.3877;
468.9000;0.7977;2.3877;
469.2000;0.7977;2.3854;
469.5000;0.7961;2.3854;
469.8000;0.7993;2.3900;
470.1000;0.7969;2.3830;
470.4000;0.7985;2.3923;
470.7000;0.7977;2.3923;
471.0000;0.7985;2.3946;
471.3000;0.7985;2.3923;
471.6000;0.7993;2.3992;
471.9000;0.7977;2.3992;
472.2000;0.8002;2.4062;
472.5000;0.8002;2.3992;
472.8000;0.8067;2.4224;
473.1000;0.7953;2.3969;
473.4000;0.8010;2.4085;
473.7000;0.8026;2.4154;
474.0000;0.7985;2.3992;
474.3000;0.7912;2.3761;
474.6000;0.7945;2.3830;
474.9000;0.7985;2.4016;
475.2000;0.7985;2.3946;
475.5000;0.7993;2.3946;
475.8000;0.7977;2.4062;
476.1000;0.7985;2.4108;
476.4000;0.7985;2.4062;
476.7000;0.7993;2.3992;
477.0000;0.7969;2.3969;
477.3000;0.7993;2.4062;
477.6000;0.7985;2.4062;
477.9000;0.7977;2.4039;
478.2000;0.7977;2.4016;
478.5000;0.7985;2.4016;
478.8000;0.7969;2.4039;
479.1000;0.7977;2.4062;
479.4000;0.7985;2.4039;
479.7000;0.7969;2.3877;
480.0000;0.7961;2.3830;
480.3000;0.7985;2.3854;
480.6000;0.7977;2.3784;
480.9000;0.8010;2.3807;
481.2000;0.8002;2.3830;
481.5000;0.7985;2.3692;
481.8000;0.7977;2.3669;
482.1000;0.8002;2.3784;
482.4000;0.8018;2.3761;
482.7000;0.7977;2.3669;
483.0000;0.7912;2.3553;
483.3000;0.7920;2.3715;
483.6000;0.7977;2.3830;
483.9000;0.7985;2.3854;
484.2000;0.7969;2.3830;
484.5000;0.7969;2.3807;
484.8000;0.7977;2.3923;
485.1000;0.7928;2.3738;
485.4000;0.7969;2.3854;
485.7000;0.7969;2.3761;
486.0000;0.7985;2.3715;
486.3000;0.7985;2.3784;
486.6000;0.7985;2.3807;
486.9000;0.8010;2.3877;
487.2000;0.8050;2.3946;
487.5000;0.8010;2.3923;
487.8000;0.7977;2.3854;
488.1000;0.8002;2.3923;
488.4000;0.8026;2.3923;
488.7000;0.7985;2.3807;
489.0000;0.7969;2.3830;
489.3000;0.7953;2.3807;
489.6000;0.7969;2.3807;
489.9000;0.7961;2.3830;
490.2000;0.7969;2.3900;
490.5000;0.7920;2.3854;
490.8000;0.7977;2.3946;
491.1000;0.7961;2.3946;
491.4000;0.7985;2.3992;
491.7000;0.7985;2.3946;
492.0000;0.7969;2.3877;
492.3000;0.7969;2.3830;
492.6000;0.7993;2.3900;
492.9000;0.7961;2.3830;
493.2000;0.8010;2.3923;
493.5000;0.7977;2.3761;
493.8000;0.8018;2.3784;
494.1000;0.8010;2.3807;
494.4000;0.7985;2.3738;
494.7000;0.7993;2.3761;
495.0000;0.7985;2.3761;
495.3000;0.7993;2.3807;
495.6000;0.7993;2.3900;
495.9000;0.7993;2.3900;
496.2000;0.7985;2.3900;
496.5000;0.7993;2.3900;
496.8000;0.7993;2.3969;
497.1000;0.7969;2.3923;
497.4000;0.7977;2.4039;
497.7000;0.7985;2.4062;
498.0000;0.7977;2.4085;
498.3000;0.8026;2.4108;
498.6000;0.8042;2.4085;
498.9000;0.7993;2.3946;
499.2000;0.7977;2.3877;
499.5000;0.7969;2.3807;
499.8000;0.8010;2.3946;
500.1000;0.7945;2.3854;
500.4000;0.7969;2.3877;
500.7000;0.7977;2.3877;
501.0000;0.7961;2.3877;
501.3000;0.7961;2.3877;
501.6000;0.7969;2.3923;
501.9000;0.7977;2.3923;
502.2000;0.7977;2.3969;
502.5000;0.7969;2.4016;
502.8000;0.7961;2.3992;
503.1000;0.7977;2.4062;
503.4000;0.7985;2.4085;
503.7000;0.7953;2.3992;
504.0000;0.7969;2.4108;
504.3000;0.7985;2.4224;
504.6000;0.7977;2.4201;
504.9000;0.7985;2.4247;
505.2000;0.7985;2.4224;
505.5000;0.7977;2.4201;
505.8000;0.7961;2.4085;
506.1000;0.7888;2.3877;
506.4000;0.7920;2.4016;
506.7000;0.8099;2.4525;
507.0000;0.8050;2.4363;
507.3000;0.8107;2.4455;
507.6000;0.7969;2.4201;
507.9000;0.7977;2.4154;
508.2000;0.7977;2.4154;
508.5000;0.7961;2.4085;
508.8000;0.7977;2.4154;
509.1000;0.7969;2.4154;
509.4000;0.7969;2.4062;
509.7000;0.7985;2.4108;
510.0000;0.8002;2.4201;
510.3000;0.7977;2.4224;
510.6000;0.7977;2.4178;
510.9000;0.7977;2.4131;
511.2000;0.7953;2.4062;
511.5000;0.7953;2.4062;
511.8000;0.7977;2.4085;
512.1000;0.8002;2.4201;
512.4000;0.7912;2.3946;
512.7000;0.8002;2.4154;
513.0000;0.7985;2.4154;
513.3000;0.7937;2.4016;
513.6000;0.7985;2.4178;
513.9000;0.7969;2.4201;
514.2000;0.7977;2.4154;
514.5000;0.7993;2.4316;
514.8000;0.7961;2.4270;
515.1000;0.7953;2.4293;
515.4000;0.7912;2.4293;
515.7000;0.7961;2.4409;
516.0000;0.7969;2.4363;
516.3000;0.8002;2.4339;
516.6000;0.7969;2.4339;
516.9000;0.8002;2.4478;
517.2000;0.7977;2.4386;
517.5000;0.7993;2.4270;
517.8000;0.7969;2.4270;
518.1000;0.8002;2.4247;
518.4000;0.7993;2.4224;
518.7000;0.7985;2.4154;
519.0000;0.7969;2.4108;
519.3000;0.7993;2.4085;
519.6000;0.8002;2.4108;
519.9000;0.7985;2.4085;
520.2000;0.7961;2.4016;
520.5000;0.7985;2.4085;
520.8000;0.7969;2.4154;
521.1000;0.8002;2.4201;
521.4000;0.7977;2.4154;
521.7000;0.7969;2.4062;
522.0000;0.7985;2.4062;
522.3000;0.7985;2.4154;
522.6000;0.7953;2.4178;
522.9000;0.8002;2.4316;
523.2000;0.8034;2.4363;
523.5000;0.8018;2.4247;
523.8000;0.8026;2.4293;
524.1000;0.7993;2.4247;
524.4000;0.7961;2.4201;
524.7000;0.8002;2.4270;
525.0000;0.8026;2.4270;
525.3000;0.7977;2.4154;
525.6000;0.7977;2.4154;
525.9000;0.7953;2.4108;
526.2000;0.8026;2.4247;
526.5000;0.7961;2.4108;
526.8000;0.7961;2.3992;
527.1000;0.8002;2.4016;
527.4000;0.7969;2.3854;
527.7000;0.8010;2.4039;
528.0000;0.7920;2.3830;
528.3000;0.7977;2.3946;
528.6000;0.7993;2.4016;
528.9000;0.7985;2.4039;
529.2000;0.8018;2.4201;
529.5000;0.8018;2.4154;
529.8000;0.8002;2.4039;
530.1000;0.7993;2.3992;
530.4000;0.7961;2.3900;
530.7000;0.7839;2.3553;
531.0000;0.7993;2.3946;
531.3000;0.8034;2.4108;
531.6000;0.7985;2.3946;
531.9000;0.7953;2.3807;
532.2000;0.7985;2.3854;
532.5000;0.8018;2.3923;
532.8000;0.7961;2.3830;
533.1000;0.8010;2.3900;
533.4000;0.7977;2.3830;
533.7000;0.7953;2.3692;
534.0000;0.7945;2.3669;
534.3000;0.7993;2.3830;
534.6000;0.7961;2.3923;
534.9000;0.7993;2.3992;
535.2000;0.7977;2.4016;
535.5000;0.8059;2.4154;
535.8000;0.7969;2.4016;
536.1000;0.7985;2.4085;
536.4000;0.7985;2.4178;
536.7000;0.8002;2.4201;
537.0000;0.7977;2.4201;
537.3000;0.7945;2.4131;
537.6000;0.7977;2.4085;
537.9000;0.7937;2.4039;
538.2000;0.7985;2.4016;
538.5000;0.7961;2.4039;
538.8000;0.8010;2.4154;
539.1000;0.7993;2.4131;
539.4000;0.7961;2.4085;
539.7000;0.7985;2.4016;
540.0000;0.7961;2.3923;
540.3000;0.7985;2.3992;
540.6000;0.7977;2.3900;
540.9000;0.7977;2.3969;
541.2000;0.7961;2.4016;
541.5000;0.7961;2.4085;
541.8000;0.7961;2.4154;
542.1000;0.8042;2.4339;
542.4000;0.7961;2.4224;
542.7000;0.7977;2.4154;
543.0000;0.7961;2.4154;
543.3000;0.7969;2.4201;
543.6000;0.7977;2.4062;
543.9000;0.7977;2.4016;
544.2000;0.7985;2.4108;
544.5000;0.7985;2.4062;
544.8000;0.7985;2.4154;
545.1000;0.7977;2.4131;
545.4000;0.7961;2.4108;
545.7000;0.7961;2.4062;
546.0000;0.7977;2.4178;
546.3000;0.7961;2.4201;
546.6000;0.7993;2.4270;
546.9000;0.7961;2.4108;
547.2000;0.7969;2.4270;
547.5000;0.7993;2.4201;
547.8000;0.7985;2.4108;
548.1000;0.7961;2.4016;
548.4000;0.7977;2.4062;
548.7000;0.8018;2.4201;
549.0000;0.8002;2.4108;
549.3000;0.7993;2.4108;
549.6000;0.7961;2.4039;
549.9000;0.7969;2.3969;
550.2000;0.7953;2.3969;
550.5000;0.7904;2.3969;
550.8000;0.7985;2.4178;
551.1000;0.7993;2.4224;
551.4000;0.7961;2.4108;
551.7000;0.7977;2.4224;
552.0000;0.7985;2.4154;
552.3000;0.7937;2.4062;
552.6000;0.7985;2.4339;
552.9000;0.7985;2.4339;
553.2000;0.8042;2.4501;
553.5000;0.7977;2.4224;
553.8000;0.7993;2.4224;
554.1000;0.7961;2.4131;
554.4000;0.7985;2.4016;
554.7000;0.7961;2.3969;
555.0000;0.7993;2.3992;
555.3000;0.8091;2.4247;
555.6000;0.8010;2.3992;
555.9000;0.7961;2.3830;
556.2000;0.7985;2.3923;
556.5000;0.7985;2.3923;
556.8000;0.7969;2.3969;
557.1000;0.8034;2.4154;
557.4000;0.7977;2.4016;
557.7000;0.7977;2.4016;
558.0000;0.7993;2.4108;
558.3000;0.7977;2.4062;
558.6000;0.7985;2.4154;
558.9000;0.8034;2.4293;
559.2000;0.7985;2.4201;
559.5000;0.7985;2.4293;
559.8000;0.8059;2.4339;
560.1000;0.7993;2.4201;
560.4000;0.7993;2.4178;
560.7000;0.7993;2.4131;
561.0000;0.7928;2.3992;
561.3000;0.7969;2.4108;
561.6000;0.7977;2.4085;
561.9000;0.7945;2.4062;
562.2000;0.7969;2.4062;
562.5000;0.7961;2.4016;
562.8000;0.7985;2.4039;
563.1000;0.7969;2.3900;
563.4000;0.7969;2.3877;
563.7000;0.7969;2.3900;
564.0000;0.7920;2.3761;
564.3000;0.7993;2.3946;
564.6000;0.7993;2.3969;
564.9000;0.7977;2.3854;
565.2000;0.7969;2.3830;
565.5000;0.7977;2.3877;
565.8000;0.8002;2.3877;
566.1000;0.7985;2.3830;
566.4000;0.7993;2.3807;
566.7000;0.7961;2.3692;
567.0000;0.7985;2.3807;
567.3000;0.7985;2.3784;
567.6000;0.7928;2.3761;
567.9000;0.7953;2.3784;
568.2000;0.7985;2.3761;
568.5000;0.8010;2.3946;
568.8000;0.8067;2.4131;
569.1000;0.7993;2.4062;
569.4000;0.7953;2.4016;
569.7000;0.7985;2.4108;
570.0000;0.7985;2.4131;
570.3000;0.7953;2.4062;
570.6000;0.7953;2.4108;
570.9000;0.7961;2.4131;
571.2000;0.7969;2.4131;
571.5000;0.7937;2.4108;
571.8000;0.7937;2.4131;
572.1000;0.7993;2.4154;
572.4000;0.7961;2.4062;
572.7000;0.7969;2.4039;
573.0000;0.7969;2.4039;
573.3000;0.7945;2.4062;
573.6000;0.8002;2.4270;
573.9000;0.7985;2.4154;
574.2000;0.7904;2.3992;
574.5000;0.7977;2.4108;
574.8000;0.7977;2.4201;
575.1000;0.7977;2.4178;
575.4000;0.7985;2.4178;
575.7000;0.7969;2.4039;
576.0000;0.7969;2.3969;
576.3000;0.7961;2.3992;
576.6000;0.7961;2.4016;
576.9000;0.7977;2.4039;
577.2000;0.7961;2.4016;
577.5000;0.7969;2.3969;
577.8000;0.7945;2.3992;
578.1000;0.7961;2.4062;
578.4000;0.7977;2.4131;
578.7000;0.7961;2.4062;
579.0000;0.7953;2.4062;
579.3000;0.7912;2.3969;
579.6000;0.7953;2.4224;
579.9000;0.7977;2.4224;
580.2000;0.7977;2.4108;
580.5000;0.7985;2.4062;
580.8000;0.7977;2.4108;
581.1000;0.7977;2.4247;
581.4000;0.7969;2.4224;
581.7000;0.7953;2.4108;
582.0000;0.7977;2.4062;
582.3000;0.7920;2.3946;
582.6000;0.7961;2.4085;
582.9000;0.7945;2.4085;
583.2000;0.7961;2.4062;
583.5000;0.7977;2.4062;
583.8000;0.7969;2.4062;
584.1000;0.7961;2.4108;
584.4000;0.7977;2.4224;
584.7000;0.7985;2.4178;
585.0000;0.7985;2.4154;
585.3000;0.7871;2.3877;
585.6000;0.7961;2.4131;
585.9000;0.7961;2.4085;
586.2000;0.7977;2.4085;
586.5000;0.7969;2.4131;
586.8000;0.7977;2.4131;
587.1000;0.7945;2.4154;
587.4000;0.7945;2.4062;
587.7000;0.7977;2.4108;
588.0000;0.7961;2.4108;
588.3000;0.7953;2.4131;
588.6000;0.7985;2.4154;
588.9000;0.7977;2.4039;
589.2000;0.7961;2.3969;
589.5000;0.7969;2.3923;
589.8000;0.7985;2.4039;
590.1000;0.7985;2.4085;
590.4000;0.8075;2.4386;
590.7000;0.7977;2.4039;
591.0000;0.7977;2.4016;
591.3000;0.7993;2.3969;
591.6000;0.7969;2.3854;
591.9000;0.7961;2.3900;
592.2000;0.7969;2.3992;
592.5000;0.7937;2.3877;
592.8000;0.7969;2.3946;
593.1000;0.7969;2.3946;
593.4000;0.7953;2.3992;
593.7000;0.7969;2.3946;
594.0000;0.7961;2.3969;
594.3000;0.7961;2.3992;
594.6000;0.7969;2.3992;
594.9000;0.7953;2.4039;
595.2000;0.7985;2.4178;
595.5000;0.7969;2.4247;
595.8000;0.7985;2.4293;
596.1000;0.7985;2.4270;
596.4000;0.7977;2.4201;
596.7000;0.7953;2.4154;
597.0000;0.7969;2.4316;
597.3000;0.7977;2.4525;
597.6000;0.7977;2.4478;
597.9000;0.7961;2.4363;
598.2000;0.7969;2.4363;
598.5000;0.7969;2.4293;
598.8000;0.7993;2.4339;
599.1000;0.7969;2.4270;
599.4000;0.7953;2.4178;
599.7000;0.7993;2.4224;
600.0000;0.8010;2.4293;
600.3000;0.8026;2.4339;
600.6000;0.8010;2.4201;
600.9000;0.8034;2.4154;
601.2000;0.8002;2.3992;
601.5000;0.7961;2.3784;
601.8000;0.7920;2.3692;
602.1000;0.7863;2.3553;
602.4000;0.7814;2.3437;
602.7000;0.7782;2.3321;
603.0000;0.7757;2.3090;
603.3000;0.7692;2.2812;
603.6000;0.7627;2.2674;
603.9000;0.7603;2.2720;
604.2000;0.7570;2.2651;
604.5000;0.7521;2.2558;
604.8000;0.7497;2.2558;
605.1000;0.7464;2.2581;
605.4000;0.7407;2.2535;
605.7000;0.7407;2.2651;
606.0000;0.7359;2.2512;
606.3000;0.7399;2.2604;
606.6000;0.7318;2.2280;
606.9000;0.7285;2.2234;
607.2000;0.7245;2.2211;
607.5000;0.7261;2.2257;
607.8000;0.7220;2.2142;
608.1000;0.7196;2.2049;
608.4000;0.7147;2.1956;
608.7000;0.7139;2.1980;
609.0000;0.7123;2.1980;
609.3000;0.7139;2.2003;
609.6000;0.7057;2.1794;
609.9000;0.7057;2.1933;
610.2000;0.7033;2.1864;
610.5000;0.7017;2.1818;
610.8000;0.6919;2.1633;
611.1000;0.6943;2.1679;
611.4000;0.6935;2.1725;
611.7000;0.6919;2.1725;
612.0000;0.6895;2.1725;
612.3000;0.6878;2.1818;
612.6000;0.6878;2.1864;
612.9000;0.6862;2.1910;
613.2000;0.6854;2.1887;
613.5000;0.6838;2.1864;
613.8000;0.6829;2.1956;
614.1000;0.6797;2.1910;
614.4000;0.6829;2.2072;
614.7000;0.6756;2.2049;
615.0000;0.6724;2.2003;
615.3000;0.6724;2.2026;
615.6000;0.6724;2.2095;
615.9000;0.6707;2.2049;
616.2000;0.6683;2.1910;
616.5000;0.6667;2.1771;
616.8000;0.6699;2.1910;
617.1000;0.6585;2.1748;
617.4000;0.6650;2.1864;
617.7000;0.6626;2.1771;
618.0000;0.6626;2.1702;
618.3000;0.6602;2.1725;
618.6000;0.6593;2.1633;
618.9000;0.6577;2.1702;
619.2000;0.6520;2.1656;
619.5000;0.6520;2.1563;
619.8000;0.6593;2.1864;
620.1000;0.6496;2.1633;
620.4000;0.6520;2.1679;
620.7000;0.6488;2.1609;
621.0000;0.6488;2.1563;
621.3000;0.6463;2.1494;
621.6000;0.6463;2.1471;
621.9000;0.6455;2.1378;
622.2000;0.6488;2.1540;
622.5000;0.6439;2.1447;
622.8000;0.6431;2.1424;
623.1000;0.6390;2.1424;
623.4000;0.6422;2.1563;
623.7000;0.6325;2.1401;
624.0000;0.6398;2.1656;
624.3000;0.6341;2.1586;
624.6000;0.6382;2.1656;
624.9000;0.6374;2.1702;
625.2000;0.6333;2.1586;
625.5000;0.6341;2.1702;
625.8000;0.6357;2.1748;
626.1000;0.6333;2.1702;
626.4000;0.6292;2.1702;
626.7000;0.6317;2.1794;
627.0000;0.6317;2.1864;
627.3000;0.6325;2.1864;
627.6000;0.6268;2.1841;
627.9000;0.6276;2.1887;
628.2000;0.6268;2.1702;
628.5000;0.6268;2.1609;
628.8000;0.6243;2.1656;
629.1000;0.6235;2.1702;
629.4000;0.6243;2.1748;
629.7000;0.6243;2.1841;
630.0000;0.6219;2.1794;
630.3000;0.6211;2.1841;
630.6000;0.6203;2.1841;
630.9000;0.6195;2.1841;
631.2000;0.6203;2.1771;
631.5000;0.6211;2.1725;
631.8000;0.6186;2.1725;
632.1000;0.6195;2.1702;
632.4000;0.6186;2.1609;
632.7000;0.6154;2.1563;
633.0000;0.6146;2.1586;
633.3000;0.6195;2.1748;
633.6000;0.6146;2.1771;
633.9000;0.6170;2.1887;
634.2000;0.6129;2.1841;
634.5000;0.6129;2.1910;
634.8000;0.6138;2.1910;
635.1000;0.6129;2.1933;
635.4000;0.6162;2.2095;
635.7000;0.6097;2.1910;
636.0000;0.6097;2.1794;
636.3000;0.6089;2.1725;
636.6000;0.6081;2.1656;
636.9000;0.6040;2.1656;
637.2000;0.6105;2.1956;
637.5000;0.6064;2.1910;
637.8000;0.6064;2.1933;
638.1000;0.6072;2.1933;
638.4000;0.6056;2.1841;
638.7000;0.6056;2.1933;
639.0000;0.6113;2.2095;
639.3000;0.6024;2.1841;
639.6000;0.6015;2.1887;
639.9000;0.6015;2.1864;
640.2000;0.6007;2.1748;
640.5000;0.5999;2.1771;
640.8000;0.6015;2.1702;
641.1000;0.6015;2.1656;
641.4000;0.6007;2.1609;
641.7000;0.5967;2.1586;
642.0000;0.5991;2.1725;
642.3000;0.6032;2.1841;
642.6000;0.5983;2.1794;
642.9000;0.5991;2.1841;
643.2000;0.5958;2.1771;
643.5000;0.5967;2.1794;
643.8000;0.5983;2.1841;
644.1000;0.5950;2.1679;
644.4000;0.5958;2.1656;
644.7000;0.5999;2.1748;
645.0000;0.5950;2.1748;
645.3000;0.5910;2.1633;
645.6000;0.5950;2.1702;
645.9000;0.5942;2.1679;
646.2000;0.5910;2.1633;
646.5000;0.5958;2.1725;
646.8000;0.5934;2.1702;
647.1000;0.5910;2.1609;
647.4000;0.5918;2.1586;
647.7000;0.5861;2.1540;
648.0000;0.5910;2.1702;
648.3000;0.5893;2.1725;
648.6000;0.5902;2.1725;
648.9000;0.5918;2.1818;
649.2000;0.5885;2.1633;
649.5000;0.5861;2.1540;
649.8000;0.5836;2.1471;
650.1000;0.5877;2.1563;
650.4000;0.5869;2.1586;
650.7000;0.5812;2.1447;
651.0000;0.5877;2.1586;
651.3000;0.5853;2.1609;
651.6000;0.5853;2.1563;
651.9000;0.5836;2.1609;
652.2000;0.5828;2.1609;
652.5000;0.5853;2.1633;
652.8000;0.5845;2.1540;
653.1000;0.5836;2.1679;
653.4000;0.5828;2.1725;
653.7000;0.5845;2.1748;
654.0000;0.5828;2.1656;
654.3000;0.5853;2.1540;
654.6000;0.5869;2.1656;
654.9000;0.5796;2.1633;
655.2000;0.5845;2.1771;
655.5000;0.5779;2.1633;
655.8000;0.5804;2.1586;
656.1000;0.5796;2.1633;
656.4000;0.5788;2.1609;
656.7000;0.5828;2.1771;
657.0000;0.5763;2.1748;
657.3000;0.5804;2.1771;
657.6000;0.5804;2.1748;
657.9000;0.5779;2.1656;
658.2000;0.5779;2.1633;
658.5000;0.5779;2.1633;
658.8000;0.5771;2.1633;
659.1000;0.5804;2.1679;
659.4000;0.5747;2.1656;
659.7000;0.5796;2.1748;
660.0000;0.5828;2.1818;
660.3000;0.5771;2.1679;
660.6000;0.5698;2.1633;
660.9000;0.5731;2.1725;
661.2000;0.5747;2.1725;
661.5000;0.5779;2.1794;
661.8000;0.5779;2.1771;
662.1000;0.5747;2.1725;
662.4000;0.5755;2.1818;
662.7000;0.5641;2.1563;
663.0000;0.5722;2.1771;
663.3000;0.5796;2.1910;
663.6000;0.5739;2.1771;
663.9000;0.5845;2.2049;
664.2000;0.5706;2.1771;
664.5000;0.5763;2.1818;
664.8000;0.5706;2.1725;
665.1000;0.5771;2.1887;
665.4000;0.5722;2.1702;
665.7000;0.5731;2.1725;
666.0000;0.5682;2.1609;
666.3000;0.5706;2.1633;
666.6000;0.5682;2.1609;
666.9000;0.5649;2.1494;
667.2000;0.5690;2.1586;
667.5000;0.5698;2.1517;
667.8000;0.5698;2.1609;
668.1000;0.5698;2.1679;
668.4000;0.5690;2.1748;
668.7000;0.5739;2.1841;
669.0000;0.5674;2.1633;
669.3000;0.5641;2.1656;
669.6000;0.5682;2.1864;
669.9000;0.5690;2.1956;
670.2000;0.5633;2.1748;
670.5000;0.5657;2.1841;
670.8000;0.5698;2.1887;
671.1000;0.5665;2.1841;
671.4000;0.5657;2.1794;
671.7000;0.5690;2.1818;
672.0000;0.5690;2.1748;
672.3000;0.5641;2.1633;
672.6000;0.5657;2.1679;
672.9000;0.5633;2.1517;
673.2000;0.5657;2.1609;
673.5000;0.5633;2.1656;
673.8000;0.5649;2.1702;
674.1000;0.5674;2.1771;
674.4000;0.5649;2.1725;
674.7000;0.5649;2.1725;
675.0000;0.5633;2.1679;
675.3000;0.5633;2.1609;
675.6000;0.5641;2.1656;
675.9000;0.5600;2.1494;
676.2000;0.5633;2.1563;
676.5000;0.5633;2.1633;
676.8000;0.5625;2.1656;
677.1000;0.5625;2.1633;
677.4000;0.5617;2.1609;
677.7000;0.5665;2.1725;
678.0000;0.5543;2.1447;
678.3000;0.5657;2.1794;
678.6000;0.5633;2.1818;
678.9000;0.5608;2.1818;
679.2000;0.5625;2.1818;
679.5000;0.5633;2.1887;
679.8000;0.5592;2.1794;
680.1000;0.5600;2.1702;
680.4000;0.5576;2.1586;
680.7000;0.5592;2.1586;
681.0000;0.5584;2.1586;
681.3000;0.5608;2.1702;
681.6000;0.5592;2.1656;
681.9000;0.5543;2.1540;
682.2000;0.5608;2.1633;
682.5000;0.5568;2.1609;
682.8000;0.5519;2.1494;
683.1000;0.5584;2.1656;
683.4000;0.5543;2.1517;
683.7000;0.5560;2.1586;
684.0000;0.5584;2.1656;
684.3000;0.5592;2.1794;
684.6000;0.5625;2.1818;
684.9000;0.5576;2.1771;
685.2000;0.5568;2.1633;
685.5000;0.5584;2.1633;
685.8000;0.5551;2.1563;
686.1000;0.5551;2.1517;
686.4000;0.5519;2.1447;
686.7000;0.5576;2.1609;
687.0000;0.5584;2.1656;
687.3000;0.5560;2.1702;
687.6000;0.5608;2.1864;
687.9000;0.5560;2.1748;
688.2000;0.5560;2.1794;
688.5000;0.5551;2.1771;
688.8000;0.5543;2.1679;
689.1000;0.5576;2.1818;
689.4000;0.5560;2.1794;
689.7000;0.5576;2.1794;
690.0000;0.5535;2.1656;
690.3000;0.5592;2.1748;
690.6000;0.5576;2.1748;
690.9000;0.5551;2.1725;
691.2000;0.5560;2.1679;
691.5000;0.5560;2.1633;
691.8000;0.5560;2.1656;
692.1000;0.5551;2.1748;
692.4000;0.5560;2.1702;
692.7000;0.5600;2.1725;
693.0000;0.5511;2.1471;
693.3000;0.5560;2.1609;
693.6000;0.5543;2.1540;
693.9000;0.5535;2.1494;
694.2000;0.5527;2.1471;
694.5000;0.5519;2.1563;
694.8000;0.5503;2.1563;
695.1000;0.5519;2.1586;
695.4000;0.5519;2.1609;
695.7000;0.5535;2.1656;
696.0000;0.5519;2.1656;
696.3000;0.5503;2.1609;
696.6000;0.5495;2.1494;
696.9000;0.5519;2.1517;
697.2000;0.5519;2.1540;
697.5000;0.5511;2.1471;
697.8000;0.5495;2.1517;
698.1000;0.5511;2.1609;
698.4000;0.5511;2.1633;
698.7000;0.5503;2.1609;
699.0000;0.5625;2.1864;
699.3000;0.5503;2.1540;
699.6000;0.5511;2.1540;
699.9000;0.5543;2.1609;
700.2000;0.5543;2.1540;
700.5000;0.5429;2.1239;
700.8000;0.5503;2.1401;
701.1000;0.5503;2.1447;
701.4000;0.5543;2.1517;
701.7000;0.5511;2.1517;
702.0000;0.5495;2.1494;
702.3000;0.5470;2.1447;
702.6000;0.5454;2.1378;
702.9000;0.5495;2.1540;
703.2000;0.5495;2.1517;
703.5000;0.5511;2.1586;
703.8000;0.5478;2.1424;
704.1000;0.5503;2.1494;
704.4000;0.5486;2.1540;
704.7000;0.5495;2.1517;
705.0000;0.5486;2.1355;
705.3000;0.5486;2.1401;
705.6000;0.5495;2.1309;
705.9000;0.5503;2.1401;
706.2000;0.5470;2.1378;
706.5000;0.5470;2.1378;
706.8000;0.5470;2.1401;
707.1000;0.5454;2.1424;
707.4000;0.5495;2.1517;
707.7000;0.5503;2.1540;
708.0000;0.5495;2.1471;
708.3000;0.5486;2.1424;
708.6000;0.5478;2.1447;
708.9000;0.5462;2.1424;
709.2000;0.5470;2.1494;
709.5000;0.5438;2.1401;
709.8000;0.5462;2.1401;
710.1000;0.5470;2.1424;
710.4000;0.5478;2.1471;
710.7000;0.5446;2.1424;
711.0000;0.5478;2.1494;
711.3000;0.5470;2.1494;
711.6000;0.5462;2.1609;
711.9000;0.5486;2.1609;
712.2000;0.5397;2.1355;
712.5000;0.5446;2.1540;
712.8000;0.5511;2.1748;
713.1000;0.5462;2.1563;
713.4000;0.5486;2.1609;
713.7000;0.5470;2.1517;
714.0000;0.5454;2.1447;
714.3000;0.5438;2.1424;
714.6000;0.5438;2.1517;
714.9000;0.5429;2.1378;
715.2000;0.5462;2.1355;
715.5000;0.5454;2.1424;
715.8000;0.5495;2.1563;
716.1000;0.5446;2.1355;
716.4000;0.5503;2.1447;
716.7000;0.5421;2.1309;
717.0000;0.5543;2.1517;
717.3000;0.5495;2.1401;
717.6000;0.5454;2.1378;
717.9000;0.5446;2.1355;
718.2000;0.5454;2.1262;
718.5000;0.5470;2.1262;
718.8000;0.5429;2.1216;
719.1000;0.5446;2.1262;
719.4000;0.5381;2.1100;
719.7000;0.5478;2.1355;
720.0000;0.5511;2.1424;
720.3000;0.5405;2.1193;
720.6000;0.5413;2.1193;
720.9000;0.5429;2.1239;
721.2000;0.5454;2.1378;
721.5000;0.5381;2.1309;
721.8000;0.5470;2.1471;
722.1000;0.5421;2.1401;
722.4000;0.5429;2.1378;
722.7000;0.5372;2.1285;
723.0000;0.5470;2.1563;
723.3000;0.5429;2.1586;
723.6000;0.5429;2.1609;
723.9000;0.5421;2.1586;
724.2000;0.5429;2.1586;
724.5000;0.5421;2.1656;
724.8000;0.5397;2.1586;
725.1000;0.5429;2.1563;
725.4000;0.5356;2.1332;
725.7000;0.5438;2.1471;
726.0000;0.5397;2.1401;
726.3000;0.5405;2.1447;
726.6000;0.5413;2.1424;
726.9000;0.5348;2.1170;
727.2000;0.5413;2.1424;
727.5000;0.5421;2.1471;
727.8000;0.5413;2.1447;
728.1000;0.5421;2.1494;
728.4000;0.5413;2.1494;
728.7000;0.5405;2.1471;
729.0000;0.5389;2.1447;
729.3000;0.5413;2.1471;
729.6000;0.5421;2.1540;
729.9000;0.5397;2.1540;
730.2000;0.5405;2.1609;
730.5000;0.5405;2.1540;
730.8000;0.5389;2.1517;
731.1000;0.5438;2.1563;
731.4000;0.5405;2.1471;
731.7000;0.5397;2.1447;
732.0000;0.5405;2.1424;
732.3000;0.5397;2.1401;
732.6000;0.5397;2.1378;
732.9000;0.5389;2.1424;
733.2000;0.5405;2.1494;
733.5000;0.5389;2.1540;
733.8000;0.5372;2.1447;
734.1000;0.5405;2.1540;
734.4000;0.5397;2.1563;
734.7000;0.5413;2.1586;
735.0000;0.5381;2.1471;
735.3000;0.5356;2.1401;
735.6000;0.5389;2.1586;
735.9000;0.5381;2.1633;
736.2000;0.5421;2.1633;
736.5000;0.5372;2.1586;
736.8000;0.5405;2.1656;
737.1000;0.5429;2.1702;
737.4000;0.5405;2.1586;
737.7000;0.5372;2.1494;
738.0000;0.5405;2.1517;
738.3000;0.5397;2.1586;
738.6000;0.5397;2.1517;
738.9000;0.5356;2.1447;
739.2000;0.5405;2.1586;
739.5000;0.5389;2.1563;
739.8000;0.5454;2.1818;
740.1000;0.5405;2.1656;
740.4000;0.5372;2.1540;
740.7000;0.5413;2.1609;
741.0000;0.5405;2.1609;
741.3000;0.5421;2.1656;
741.6000;0.5364;2.1609;
741.9000;0.5356;2.1656;
742.2000;0.5405;2.1794;
742.5000;0.5421;2.1748;
742.8000;0.5413;2.1748;
743.1000;0.5389;2.1725;
743.4000;0.5413;2.1771;
743.7000;0.5389;2.1586;
744.0000;0.5372;2.1401;
744.3000;0.5356;2.1378;
744.6000;0.5372;2.1332;
744.9000;0.5389;2.1401;
745.2000;0.5372;2.1355;
745.5000;0.5348;2.1401;
745.8000;0.5381;2.1517;
746.1000;0.5405;2.1633;
746.4000;0.5421;2.1748;
746.7000;0.5381;2.1633;
747.0000;0.5364;2.1679;
747.3000;0.5364;2.1679;
747.6000;0.5381;2.1633;
747.9000;0.5356;2.1540;
748.2000;0.5364;2.1586;
748.5000;0.5291;2.1378;
748.8000;0.5340;2.1517;
749.1000;0.5372;2.1586;
749.4000;0.5372;2.1471;
749.7000;0.5364;2.1424;
750.0000;0.5372;2.1424;
750.3000;0.5356;2.1355;
750.6000;0.5356;2.1332;
750.9000;0.5389;2.1401;
751.2000;0.5348;2.1471;
751.5000;0.5340;2.1517;
751.8000;0.5381;2.1586;
752.1000;0.5364;2.1609;
752.4000;0.5332;2.1586;
752.7000;0.5372;2.1609;
753.0000;0.5340;2.1609;
753.3000;0.5348;2.1656;
753.6000;0.5332;2.1702;
753.9000;0.5356;2.1933;
754.2000;0.5348;2.1910;
754.5000;0.5324;2.1980;
754.8000;0.5332;2.1910;
755.1000;0.5364;2.1956;
755.4000;0.5348;2.1910;
755.7000;0.5356;2.1910;
756.0000;0.5364;2.1818;
756.3000;0.5381;2.1910;
756.6000;0.5356;2.1794;
756.9000;0.5356;2.1841;
757.2000;0.5372;2.1841;
757.5000;0.5267;2.1609;
757.8000;0.5462;2.2188;
758.1000;0.5397;2.2095;
758.4000;0.5324;2.1980;
758.7000;0.5340;2.2026;
759.0000;0.5340;2.1956;
759.3000;0.5340;2.1980;
759.6000;0.5364;2.2072;
759.9000;0.5348;2.2003;
760.2000;0.5364;2.2118;
760.5000;0.5372;2.1980;
760.8000;0.5348;2.1818;
761.1000;0.5340;2.1794;
761.4000;0.5364;2.1771;
761.7000;0.5348;2.1702;
762.0000;0.5348;2.1725;
762.3000;0.5332;2.1656;
762.6000;0.5348;2.1656;
762.9000;0.5348;2.1702;
763.2000;0.5348;2.1656;
763.5000;0.5324;2.1586;
763.8000;0.5348;2.1586;
764.1000;0.5356;2.1656;
764.4000;0.5348;2.1656;
764.7000;0.5315;2.1563;
765.0000;0.5340;2.1563;
765.3000;0.5340;2.1609;
765.6000;0.5356;2.1748;
765.9000;0.5340;2.1679;
766.2000;0.5332;2.1609;
766.5000;0.5348;2.1609;
766.8000;0.5348;2.1609;
767.1000;0.5332;2.1609;
767.4000;0.5332;2.1633;
767.7000;0.5324;2.1517;
768.0000;0.5340;2.1401;
768.3000;0.5356;2.1563;
768.6000;0.5348;2.1586;
768.9000;0.5356;2.1586;
769.2000;0.5324;2.1563;
769.5000;0.5364;2.1609;
769.8000;0.5332;2.1517;
770.1000;0.5324;2.1563;
770.4000;0.5348;2.1586;
770.7000;0.5283;2.1378;
771.0000;0.5340;2.1609;
771.3000;0.5315;2.1563;
771.6000;0.5332;2.1679;
771.9000;0.5291;2.1633;
772.2000;0.5332;2.1725;
772.5000;0.5324;2.1679;
772.8000;0.5315;2.1609;
773.1000;0.5356;2.1841;
773.4000;0.5356;2.1794;
773.7000;0.5315;2.1609;
774.0000;0.5348;2.1656;
774.3000;0.5332;2.1633;
774.6000;0.5324;2.1633;
774.9000;0.5315;2.1609;
775.2000;0.5332;2.1679;
775.5000;0.5315;2.1702;
775.8000;0.5356;2.1748;
776.1000;0.5332;2.1656;
776.4000;0.5315;2.1586;
776.7000;0.5315;2.1586;
777.0000;0.5405;2.1794;
777.3000;0.5332;2.1517;
777.6000;0.5258;2.1401;
777.9000;0.5210;2.1285;
778.2000;0.5307;2.1471;
778.5000;0.5275;2.1355;
778.8000;0.5307;2.1447;
779.1000;0.5340;2.1471;
779.4000;0.5299;2.1332;
779.7000;0.5315;2.1401;
780.0000;0.5340;2.1586;
780.3000;0.5315;2.1563;
780.6000;0.5275;2.1586;
780.9000;0.5315;2.1656;
781.2000;0.5324;2.1656;
781.5000;0.5340;2.1748;
781.8000;0.5381;2.1818;
782.1000;0.5364;2.1656;
782.4000;0.5356;2.1540;
782.7000;0.5332;2.1424;
783.0000;0.5315;2.1332;
783.3000;0.5324;2.1378;
783.6000;0.5299;2.1401;
783.9000;0.5315;2.1540;
784.2000;0.5315;2.1563;
784.5000;0.5340;2.1609;
784.8000;0.5315;2.1586;
785.1000;0.5299;2.1540;
785.4000;0.5389;2.1771;
785.7000;0.5307;2.1586;
786.0000;0.5307;2.1586;
786.3000;0.5291;2.1586;
786.6000;0.5307;2.1563;
786.9000;0.5356;2.1679;
787.2000;0.5324;2.1540;
787.5000;0.5324;2.1540;
787.8000;0.5161;2.1193;
788.1000;0.5258;2.1471;
788.4000;0.5307;2.1540;
788.7000;0.5324;2.1633;
789.0000;0.5299;2.1633;
789.3000;0.5315;2.1586;
789.6000;0.5324;2.1633;
789.9000;0.5299;2.1563;
790.2000;0.5405;2.1864;
790.5000;0.5299;2.1471;
790.8000;0.5299;2.1494;
791.1000;0.5307;2.1633;
791.4000;0.5283;2.1609;
791.7000;0.5324;2.1702;
792.0000;0.5291;2.1725;
792.3000;0.5324;2.1748;
792.6000;0.5315;2.1656;
792.9000;0.5307;2.1633;
793.2000;0.5315;2.1702;
793.5000;0.5315;2.1771;
793.8000;0.5283;2.1702;
794.1000;0.5291;2.1609;
794.4000;0.5299;2.1725;
794.7000;0.5258;2.1679;
795.0000;0.5291;2.1656;
795.3000;0.5307;2.1679;
795.6000;0.5258;2.1494;
795.9000;0.5324;2.1633;
796.2000;0.5315;2.1609;
796.5000;0.5405;2.1910;
796.8000;0.5291;2.1633;
797.1000;0.5315;2.1702;
797.4000;0.5283;2.1725;
797.7000;0.5299;2.1794;
798.0000;0.5307;2.1794;
798.3000;0.5283;2.1818;
798.6000;0.5307;2.1910;
798.9000;0.5250;2.1633;
799.2000;0.5291;2.1771;
799.5000;0.5495;2.2257;
799.8000;0.5275;2.1748;
800.1000;0.5307;2.1725;
800.4000;0.5291;2.1633;
800.7000;0.5307;2.1609;
801.0000;0.5307;2.1563;
801.3000;0.5291;2.1563;
801.6000;0.5283;2.1586;
801.9000;0.5299;2.1586;
802.2000;0.5291;2.1609;
802.5000;0.5291;2.1517;
802.8000;0.5299;2.1540;
803.1000;0.5291;2.1517;
803.4000;0.5258;2.1494;
803.7000;0.5299;2.1702;
804.0000;0.5356;2.1748;
804.3000;0.5291;2.1679;
804.6000;0.5283;2.1748;
804.9000;0.5291;2.1748;
805.2000;0.5291;2.1702;
805.5000;0.5291;2.1633;
805.8000;0.5291;2.1656;
806.1000;0.5250;2.1586;
806.4000;0.5299;2.1679;
806.7000;0.5291;2.1679;
807.0000;0.5275;2.1586;
807.3000;0.5291;2.1609;
807.6000;0.5324;2.1748;
807.9000;0.5307;2.1771;
808.2000;0.5340;2.1887;
808.5000;0.5275;2.1818;
808.8000;0.5307;2.1887;
809.1000;0.5389;2.2026;
809.4000;0.5283;2.1702;
809.7000;0.5275;2.1609;
810.0000;0.5275;2.1633;
810.3000;0.5275;2.1702;
810.6000;0.5299;2.1748;
810.9000;0.5275;2.1748;
811.2000;0.5299;2.1771;
811.5000;0.5291;2.1656;
811.8000;0.5267;2.1609;
812.1000;0.5307;2.1609;
812.4000;0.5315;2.1563;
812.7000;0.5291;2.1540;
813.0000;0.5291;2.1586;
813.3000;0.5275;2.1633;
813.6000;0.5275;2.1586;
813.9000;0.5283;2.1586;
814.2000;0.5267;2.1540;
814.5000;0.5299;2.1679;
814.8000;0.5291;2.1679;
815.1000;0.5307;2.1771;
815.4000;0.5291;2.1841;
815.7000;0.5315;2.1887;
816.0000;0.5283;2.1864;
816.3000;0.5307;2.1910;
816.6000;0.5283;2.1841;
816.9000;0.5275;2.1887;
817.2000;0.5283;2.1818;
817.5000;0.5291;2.1910;
817.8000;0.5201;2.1609;
818.1000;0.5275;2.1679;
818.4000;0.5324;2.1818;
818.7000;0.5267;2.1818;
819.0000;0.5283;2.1841;
819.3000;0.5234;2.1841;
819.6000;0.5299;2.2003;
819.9000;0.5267;2.1910;
820.2000;0.5283;2.1841;
820.5000;0.5201;2.1656;
820.8000;0.5275;2.1771;
821.1000;0.5250;2.1633;
821.4000;0.5242;2.1656;
821.7000;0.5275;2.1748;
822.0000;0.5267;2.1818;
822.3000;0.5275;2.1794;
822.6000;0.5275;2.1679;
822.9000;0.5275;2.1633;
823.2000;0.5275;2.1609;
823.5000;0.5258;2.1679;
823.8000;0.5267;2.1725;
824.1000;0.5275;2.1725;
824.4000;0.5275;2.1656;
824.7000;0.5348;2.1980;
825.0000;0.5275;2.1818;
825.3000;0.5283;2.1748;
825.6000;0.5275;2.1748;
825.9000;0.5275;2.1748;
826.2000;0.5291;2.1771;
826.5000;0.5283;2.1771;
826.8000;0.5291;2.1794;
827.1000;0.5267;2.1794;
827.4000;0.5267;2.1771;
827.7000;0.5275;2.1818;
828.0000;0.5307;2.1910;
828.3000;0.5283;2.1818;
828.6000;0.5275;2.1818;
828.9000;0.5267;2.1794;
829.2000;0.5258;2.1771;
829.5000;0.5267;2.1841;
829.8000;0.5275;2.1748;
830.1000;0.5267;2.1771;
830.4000;0.5267;2.1771;
830.7000;0.5267;2.1748;
831.0000;0.5275;2.1702;
831.3000;0.5250;2.1679;
831.6000;0.5283;2.1702;
831.9000;0.5275;2.1748;
832.2000;0.5332;2.1933;
832.5000;0.5234;2.1841;
832.8000;0.5250;2.1933;
833.1000;0.5283;2.1980;
833.4000;0.5299;2.1956;
833.7000;0.5258;2.1887;
834.0000;0.5267;2.1864;
834.3000;0.5291;2.1864;
834.6000;0.5267;2.1794;
834.9000;0.5250;2.1771;
835.2000;0.5275;2.1910;
835.5000;0.5275;2.2003;
835.8000;0.5267;2.2095;
836.1000;0.5275;2.2003;
836.4000;0.5283;2.1933;
836.7000;0.5275;2.1910;
837.0000;0.5267;2.1864;
837.3000;0.5283;2.1864;
837.6000;0.5234;2.1794;
837.9000;0.5258;2.1818;
838.2000;0.5275;2.1725;
838.5000;0.5275;2.1679;
838.8000;0.5258;2.1633;
839.1000;0.5250;2.1725;
839.4000;0.5283;2.1725;
839.7000;0.5275;2.1679;
840.0000;0.5258;2.1748;
840.3000;0.5250;2.1818;
840.6000;0.5283;2.1956;
840.9000;0.5275;2.1887;
841.2000;0.5267;2.1841;
841.5000;0.5250;2.1702;
841.8000;0.5201;2.1563;
842.1000;0.5275;2.1841;
842.4000;0.5258;2.1794;
842.7000;0.5283;2.1794;
843.0000;0.5258;2.1725;
843.3000;0.5267;2.1656;
843.6000;0.5169;2.1447;
843.9000;0.5250;2.1586;
844.2000;0.5250;2.1540;
844.5000;0.5283;2.1609;
844.8000;0.5275;2.1656;
845.1000;0.5258;2.1702;
845.4000;0.5283;2.1818;
845.7000;0.5275;2.1887;
846.0000;0.5275;2.1794;
846.3000;0.5283;2.1771;
846.6000;0.5275;2.1679;
846.9000;0.5250;2.1679;
847.2000;0.5275;2.1679;
847.5000;0.5275;2.1656;
847.8000;0.5250;2.1609;
848.1000;0.5267;2.1609;
848.4000;0.5242;2.1563;
848.7000;0.5242;2.1609;
849.0000;0.5242;2.1679;
849.3000;0.5267;2.1656;
849.6000;0.5275;2.1563;
849.9000;0.5275;2.1656;
850.2000;0.5267;2.1633;
850.5000;0.5267;2.1771;
850.8000;0.5250;2.1748;
851.1000;0.5283;2.1771;
851.4000;0.5267;2.1725;
851.7000;0.5250;2.1563;
852.0000;0.5250;2.1517;
852.3000;0.5234;2.1609;
852.6000;0.5267;2.1656;
852.9000;0.5242;2.1609;
853.2000;0.5267;2.1725;
853.5000;0.5258;2.1679;
853.8000;0.5250;2.1633;
854.1000;0.5324;2.1771;
854.4000;0.5234;2.1586;
854.7000;0.5242;2.1586;
855.0000;0.5258;2.1540;
855.3000;0.5250;2.1540;
855.6000;0.5250;2.1656;
855.9000;0.5250;2.1702;
856.2000;0.5267;2.1633;
856.5000;0.5267;2.1633;
856.8000;0.5356;2.1864;
857.1000;0.5250;2.1586;
857.4000;0.5267;2.1679;
857.7000;0.5275;2.1679;
858.0000;0.5242;2.1633;
858.3000;0.5226;2.1609;
858.6000;0.5258;2.1563;
858.9000;0.5283;2.1679;
859.2000;0.5267;2.1702;
859.5000;0.5242;2.1679;
859.8000;0.5242;2.1679;
860.1000;0.5250;2.1702;
860.4000;0.5234;2.1679;
860.7000;0.5250;2.1748;
861.0000;0.5250;2.1702;
861.3000;0.5250;2.1656;
861.6000;0.5258;2.1771;
861.9000;0.5307;2.1887;
862.2000;0.5250;2.1794;
862.5000;0.5250;2.1771;
862.8000;0.5242;2.1725;
863.1000;0.5234;2.1609;
863.4000;0.5258;2.1702;
863.7000;0.5258;2.1656;
864.0000;0.5226;2.1517;
864.3000;0.5250;2.1494;
864.6000;0.5250;2.1494;
864.9000;0.5218;2.1424;
865.2000;0.5267;2.1679;
865.5000;0.5201;2.1517;
865.8000;0.5242;2.1563;
866.1000;0.5267;2.1725;
866.4000;0.5258;2.1771;
866.7000;0.5267;2.1818;
867.0000;0.5283;2.1910;
867.3000;0.5242;2.1748;
867.6000;0.5324;2.1818;
867.9000;0.5250;2.1702;
868.2000;0.5242;2.1725;
868.5000;0.5250;2.1771;
868.8000;0.5267;2.1841;
869.1000;0.5258;2.1702;
869.4000;0.5275;2.1771;
869.7000;0.5267;2.1748;
870.0000;0.5242;2.1771;
870.3000;0.5267;2.1841;
870.6000;0.5242;2.1794;
870.9000;0.5299;2.1864;
871.2000;0.5267;2.1633;
871.5000;0.5218;2.1471;
871.8000;0.5226;2.1563;
872.1000;0.5283;2.1725;
872.4000;0.5177;2.1563;
872.7000;0.5226;2.1771;
873.0000;0.5250;2.1841;
873.3000;0.5226;2.1794;
873.6000;0.5201;2.1702;
873.9000;0.5307;2.1794;
874.2000;0.5210;2.1563;
874.5000;0.5210;2.1517;
874.8000;0.5250;2.1563;
875.1000;0.5315;2.1748;
875.4000;0.5283;2.1656;
875.7000;0.5332;2.1679;
876.0000;0.5250;2.1447;
876.3000;0.5258;2.1378;
876.6000;0.5283;2.1401;
876.9000;0.5210;2.1401;
877.2000;0.5185;2.1401;
877.5000;0.5242;2.1563;
877.8000;0.5250;2.1633;
878.1000;0.5299;2.1887;
878.4000;0.5250;2.1679;
878.7000;0.5226;2.1586;
879.0000;0.5250;2.1633;
879.3000;0.5242;2.1633;
879.6000;0.5169;2.1447;
879.9000;0.5234;2.1679;
880.2000;0.5226;2.1586;
880.5000;0.5258;2.1633;
880.8000;0.5324;2.1748;
881.1000;0.5250;2.1471;
881.4000;0.5242;2.1401;
881.7000;0.5242;2.1424;
882.0000;0.5218;2.1447;
882.3000;0.5250;2.1517;
882.6000;0.5218;2.1447;
882.9000;0.5250;2.1494;
883.2000;0.5315;2.1702;
883.5000;0.5267;2.1656;
883.8000;0.5242;2.1586;
884.1000;0.5242;2.1540;
884.4000;0.5250;2.1517;
884.7000;0.5267;2.1517;
885.0000;0.5250;2.1586;
885.3000;0.5226;2.1563;
885.6000;0.5275;2.1656;
885.9000;0.5234;2.1609;
886.2000;0.5242;2.1586;
886.5000;0.5226;2.1563;
886.8000;0.5218;2.1517;
887.1000;0.5242;2.1494;
887.4000;0.5242;2.1471;
887.7000;0.5275;2.1586;
888.0000;0.5242;2.1586;
888.3000;0.5234;2.1633;
888.6000;0.5242;2.1656;
888.9000;0.5234;2.1679;
889.2000;0.5234;2.1702;
889.5000;0.5242;2.1679;
889.8000;0.5226;2.1656;
890.1000;0.5210;2.1656;
890.4000;0.5283;2.1887;
890.7000;0.5234;2.1725;
891.0000;0.5201;2.1702;
891.3000;0.5226;2.1702;
891.6000;0.5250;2.1725;
891.9000;0.5250;2.1748;
892.2000;0.5250;2.1771;
892.5000;0.5258;2.1771;
892.8000;0.5242;2.1609;
893.1000;0.5250;2.1609;
893.4000;0.5267;2.1679;
893.7000;0.5242;2.1586;
894.0000;0.5218;2.1586;
894.3000;0.5250;2.1679;
894.6000;0.5210;2.1586;
894.9000;0.5210;2.1563;
895.2000;0.5226;2.1656;
895.5000;0.5242;2.1702;
895.8000;0.5267;2.1864;
896.1000;0.5234;2.1771;
896.4000;0.5267;2.1794;
896.7000;0.5267;2.1725;
897.0000;0.5242;2.1609;
897.3000;0.5226;2.1563;
897.6000;0.5210;2.1471;
897.9000;0.5234;2.1494;
898.2000;0.5250;2.1471;
898.5000;0.5291;2.1563;
898.8000;0.5299;2.1656;
899.1000;0.5250;2.1540;
899.4000;0.5250;2.1656;
899.7000;0.5267;2.1679;
900.0000;0.5242;2.1679;
900.3000;0.5267;2.1794;
900.6000;0.5226;2.1702;
900.9000;0.5234;2.1702;
901.2000;0.5210;2.1702;
901.5000;0.5226;2.1818;
901.8000;0.5234;2.1818;
902.1000;0.5250;2.1887;
902.4000;0.5226;2.1841;
902.7000;0.5258;2.1841;
903.0000;0.5242;2.1748;
903.3000;0.5234;2.1771;
903.6000;0.5250;2.1794;
903.9000;0.5210;2.1725;
904.2000;0.5267;2.1818;
904.5000;0.5226;2.1818;
904.8000;0.5258;2.1933;
905.1000;0.5210;2.1702;
905.4000;0.5234;2.1864;
905.7000;0.5307;2.2072;
906.0000;0.5218;2.1887;
906.3000;0.5210;2.1864;
906.6000;0.5218;2.1841;
906.9000;0.5234;2.1794;
907.2000;0.5234;2.1702;
907.5000;0.5234;2.1771;
907.8000;0.5161;2.1633;
908.1000;0.5193;2.1748;
908.4000;0.5218;2.1748;
908.7000;0.5242;2.1633;
909.0000;0.5250;2.1656;
909.3000;0.5201;2.1517;
909.6000;0.5226;2.1633;
909.9000;0.5218;2.1563;
910.2000;0.5226;2.1517;
910.5000;0.5226;2.1494;
910.8000;0.5193;2.1401;
911.1000;0.5242;2.1586;
911.4000;0.5250;2.1563;
911.7000;0.5226;2.1424;
912.0000;0.5242;2.1517;
912.3000;0.5258;2.1540;
912.6000;0.5250;2.1609;
912.9000;0.5258;2.1563;
913.2000;0.5234;2.1447;
913.5000;0.5242;2.1424;
913.8000;0.5242;2.1447;
914.1000;0.5250;2.1471;
914.4000;0.5218;2.1540;
914.7000;0.5275;2.1702;
915.0000;0.5234;2.1586;
915.3000;0.5234;2.1609;
915.6000;0.5226;2.1586;
915.9000;0.5218;2.1540;
916.2000;0.5218;2.1517;
916.5000;0.5210;2.1494;
916.8000;0.5218;2.1540;
917.1000;0.5226;2.1563;
917.4000;0.5250;2.1656;
917.7000;0.5218;2.1609;
918.0000;0.5242;2.1679;
918.3000;0.5226;2.1586;
918.6000;0.5218;2.1540;
918.9000;0.5226;2.1563;
919.2000;0.5258;2.1794;
919.5000;0.5226;2.1679;
919.8000;0.5226;2.1656;
920.1000;0.5226;2.1609;
920.4000;0.5226;2.1586;
920.7000;0.5226;2.1447;
921.0000;0.5210;2.1471;
921.3000;0.5234;2.1586;
921.6000;0.5250;2.1586;
921.9000;0.5218;2.1563;
922.2000;0.5332;2.1887;
922.5000;0.5258;2.1679;
922.8000;0.5234;2.1748;
923.1000;0.5275;2.1910;
923.4000;0.5226;2.1725;
923.7000;0.5226;2.1633;
924.0000;0.5234;2.1656;
924.3000;0.5234;2.1679;
924.6000;0.5226;2.1725;
924.9000;0.5250;2.1725;
925.2000;0.5226;2.1633;
925.5000;0.5218;2.1656;
925.8000;0.5226;2.1725;
926.1000;0.5210;2.1702;
926.4000;0.5210;2.1748;
926.7000;0.5226;2.1910;
927.0000;0.5226;2.1887;
927.3000;0.5218;2.1818;
927.6000;0.5226;2.1794;
927.9000;0.5218;2.1725;
928.2000;0.5234;2.1794;
928.5000;0.5185;2.1679;
928.8000;0.5201;2.1748;
929.1000;0.5226;2.1818;
929.4000;0.5226;2.1771;
929.7000;0.5226;2.1794;
930.0000;0.5226;2.1771;
930.3000;0.5218;2.1748;
930.6000;0.5218;2.1748;
930.9000;0.5201;2.1702;
931.2000;0.5136;2.1517;
931.5000;0.5242;2.1748;
931.8000;0.5234;2.1794;
932.1000;0.5218;2.1702;
932.4000;0.5226;2.1818;
932.7000;0.5210;2.1818;
933.0000;0.5153;2.1609;
933.3000;0.5307;2.1980;
933.6000;0.5226;2.1794;
933.9000;0.5226;2.1818;
934.2000;0.5234;2.1771;
934.5000;0.5234;2.1702;
934.8000;0.5218;2.1725;
935.1000;0.5242;2.1841;
935.4000;0.5210;2.1771;
935.7000;0.5210;2.1725;
936.0000;0.5250;2.1725;
936.3000;0.5193;2.1540;
936.6000;0.5210;2.1563;
936.9000;0.5144;2.1447;
937.2000;0.5226;2.1609;
937.5000;0.5201;2.1633;
937.8000;0.5226;2.1679;
938.1000;0.5201;2.1656;
938.4000;0.5234;2.1725;
938.7000;0.5218;2.1725;
939.0000;0.5226;2.1748;
939.3000;0.5210;2.1586;
939.6000;0.5218;2.1656;
939.9000;0.5218;2.1656;
940.2000;0.5218;2.1609;
940.5000;0.5193;2.1633;
940.8000;0.5210;2.1586;
941.1000;0.5201;2.1494;
941.4000;0.5201;2.1447;
941.7000;0.5218;2.1494;
942.0000;0.5226;2.1563;
942.3000;0.5193;2.1401;
942.6000;0.5201;2.1355;
942.9000;0.5218;2.1424;
943.2000;0.5226;2.1471;
943.5000;0.5226;2.1517;
943.8000;0.5210;2.1563;
944.1000;0.5234;2.1633;
944.4000;0.5226;2.1656;
944.7000;0.5218;2.1656;
945.0000;0.5234;2.1656;
945.3000;0.5242;2.1702;
945.6000;0.5226;2.1609;
945.9000;0.5210;2.1471;
946.2000;0.5210;2.1517;
946.5000;0.5226;2.1563;
946.8000;0.5226;2.1540;
947.1000;0.5177;2.1424;
947.4000;0.5218;2.1540;
947.7000;0.5234;2.1633;
948.0000;0.5210;2.1586;
948.3000;0.5210;2.1633;
948.6000;0.5193;2.1656;
948.9000;0.5258;2.1794;
949.2000;0.5234;2.1702;
949.5000;0.5218;2.1563;
949.8000;0.5234;2.1540;
950.1000;0.5210;2.1447;
950.4000;0.5234;2.1609;
950.7000;0.5210;2.1540;
951.0000;0.5218;2.1471;
951.3000;0.5218;2.1424;
951.6000;0.5177;2.1285;
951.9000;0.5210;2.1332;
952.2000;0.5218;2.1239;
952.5000;0.5218;2.1216;
952.8000;0.5193;2.1170;
953.1000;0.5226;2.1262;
953.4000;0.5096;2.1008;
953.7000;0.5218;2.1262;
954.0000;0.5210;2.1239;
954.3000;0.5210;2.1332;
954.6000;0.5218;2.1285;
954.9000;0.5218;2.1285;
955.2000;0.5218;2.1355;
955.5000;0.5201;2.1285;
955.8000;0.5258;2.1517;
956.1000;0.5218;2.1494;
956.4000;0.5201;2.1540;
956.7000;0.5201;2.1494;
957.0000;0.5193;2.1563;
957.3000;0.5242;2.1633;
957.6000;0.5201;2.1563;
957.9000;0.5193;2.1586;
958.2000;0.5226;2.1563;
958.5000;0.5226;2.1494;
958.8000;0.5218;2.1563;
959.1000;0.5226;2.1540;
959.4000;0.5218;2.1517;
959.7000;0.5201;2.1586;
960.0000;0.5201;2.1586;
960.3000;0.5193;2.1586;
960.6000;0.5218;2.1563;
960.9000;0.5234;2.1540;
961.2000;0.5218;2.1540;
961.5000;0.5218;2.1540;
961.8000;0.5234;2.1517;
962.1000;0.5193;2.1517;
962.4000;0.5201;2.1517;
962.7000;0.5234;2.1633;
963.0000;0.5185;2.1586;
963.3000;0.5193;2.1586;
963.6000;0.5210;2.1679;
963.9000;0.5218;2.1748;
964.2000;0.5201;2.1679;
964.5000;0.5201;2.1586;
964.8000;0.5210;2.1609;
965.1000;0.5210;2.1494;
965.4000;0.5185;2.1494;
965.7000;0.5250;2.1748;
966.0000;0.5210;2.1771;
966.3000;0.5218;2.1818;
966.6000;0.5201;2.1702;
966.9000;0.5250;2.1933;
967.2000;0.5201;2.1794;
967.5000;0.5201;2.1702;
967.8000;0.5144;2.1494;
968.1000;0.5201;2.1517;
968.4000;0.5226;2.1609;
968.7000;0.5242;2.1633;
969.0000;0.5242;2.1609;
969.3000;0.5177;2.1494;
969.6000;0.5201;2.1447;
969.9000;0.5201;2.1517;
970.2000;0.5250;2.1586;
970.5000;0.5218;2.1447;
970.8000;0.5210;2.1401;
971.1000;0.5144;2.1401;
971.4000;0.5226;2.1656;
971.7000;0.5218;2.1563;
972.0000;0.5250;2.1563;
972.3000;0.5242;2.1563;
972.6000;0.5226;2.1586;
972.9000;0.5234;2.1563;
973.2000;0.5153;2.1332;
973.5000;0.5201;2.1447;
973.8000;0.5234;2.1517;
974.1000;0.5226;2.1586;
974.4000;0.5267;2.1771;
974.7000;0.5234;2.1656;
975.0000;0.5218;2.1586;
975.3000;0.5226;2.1586;
975.6000;0.5218;2.1424;
975.9000;0.5226;2.1378;
976.2000;0.5218;2.1355;
976.5000;0.5169;2.1332;
976.8000;0.5218;2.1471;
977.1000;0.5210;2.1378;
977.4000;0.5218;2.1471;
977.7000;0.5226;2.1609;
978.0000;0.5226;2.1702;
978.3000;0.5210;2.1679;
978.6000;0.5210;2.1656;
978.9000;0.5201;2.1633;
979.2000;0.5193;2.1656;
979.5000;0.5201;2.1702;
979.8000;0.5201;2.1679;
980.1000;0.5201;2.1656;
980.4000;0.5210;2.1679;
980.7000;0.5242;2.1771;
981.0000;0.5218;2.1725;
981.3000;0.5218;2.1771;
981.6000;0.5234;2.1818;
981.9000;0.5201;2.1656;
982.2000;0.5210;2.1563;
982.5000;0.5218;2.1517;
982.8000;0.5210;2.1540;
983.1000;0.5193;2.1471;
983.4000;0.5193;2.1424;
983.7000;0.5210;2.1563;
984.0000;0.5226;2.1679;
984.3000;0.5112;2.1563;
984.6000;0.5201;2.1679;
984.9000;0.5218;2.1702;
985.2000;0.5185;2.1563;
985.5000;0.5218;2.1563;
985.8000;0.5218;2.1563;
986.1000;0.5226;2.1609;
986.4000;0.5226;2.1725;
986.7000;0.5234;2.1818;
987.0000;0.5218;2.1794;
987.3000;0.5324;2.2049;
987.6000;0.5210;2.1818;
987.9000;0.5226;2.1887;
988.2000;0.5193;2.1748;
988.5000;0.5193;2.1748;
988.8000;0.5218;2.1702;
989.1000;0.5169;2.1563;
989.4000;0.5193;2.1633;
989.7000;0.5201;2.1563;
990.0000;0.5201;2.1725;
990.3000;0.5201;2.1725;
990.6000;0.5201;2.1656;
990.9000;0.5234;2.1702;
991.2000;0.5185;2.1656;
991.5000;0.5210;2.1818;
991.8000;0.5161;2.1748;
992.1000;0.5218;2.1910;
992.4000;0.5218;2.1841;
992.7000;0.5250;2.1910;
993.0000;0.5210;2.1841;
993.3000;0.5201;2.1771;
993.6000;0.5210;2.1702;
993.9000;0.5177;2.1609;
994.2000;0.5201;2.1586;
994.5000;0.5218;2.1586;
994.8000;0.5201;2.1563;
995.1000;0.5234;2.1656;
995.4000;0.5218;2.1633;
995.7000;0.5226;2.1679;
996.0000;0.5161;2.1447;
996.3000;0.5144;2.1401;
996.6000;0.5210;2.1494;
996.9000;0.5210;2.1563;
997.2000;0.5201;2.1586;
997.5000;0.5201;2.1609;
997.8000;0.5210;2.1586;
998.1000;0.5210;2.1586;
998.4000;0.5201;2.1563;
998.7000;0.5193;2.1540;
999.0000;0.5193;2.1447;
999.3000;0.5185;2.1494;
999.6000;0.5193;2.1540;
999.9000;0.5218;2.1540;
1000.2000;0.5201;2.1517;
1000.5000;0.5210;2.1401;
1000.8000;0.5201;2.1401;
1001.1000;0.5201;2.1424;
1001.4000;0.5201;2.1540;
1001.7000;0.5210;2.1586;
1002.0000;0.5258;2.1748;
1002.3000;0.5226;2.1609;
1002.6000;0.5218;2.1586;
1002.9000;0.5226;2.1679;
1003.2000;0.5291;2.1864;
1003.5000;0.5218;2.1609;
1003.8000;0.5226;2.1656;
1004.1000;0.5210;2.1633;
1004.4000;0.5226;2.1702;
1004.7000;0.5226;2.1748;
1005.0000;0.5226;2.1748;
1005.3000;0.5267;2.1794;
1005.6000;0.5201;2.1586;
1005.9000;0.5226;2.1609;
1006.2000;0.5218;2.1586;
1006.5000;0.5210;2.1656;
1006.8000;0.5226;2.1702;
1007.1000;0.5201;2.1702;
1007.4000;0.5169;2.1679;
1007.7000;0.5234;2.1887;
1008.0000;0.5193;2.1794;
1008.3000;0.5210;2.1910;
1008.6000;0.5144;2.1771;
1008.9000;0.5201;2.1794;
1009.2000;0.5193;2.1771;
1009.5000;0.5201;2.1725;
1009.8000;0.5201;2.1702;
1010.1000;0.5193;2.1679;
1010.4000;0.5193;2.1725;
1010.7000;0.5201;2.1725;
1011.0000;0.5185;2.1771;
1011.3000;0.5210;2.1864;
1011.6000;0.5185;2.1841;
1011.9000;0.5210;2.1864;
1012.2000;0.5201;2.1933;
1012.5000;0.5185;2.1887;
1012.8000;0.5218;2.1841;
1013.1000;0.5210;2.1679;
1013.4000;0.5226;2.1794;
1013.7000;0.5210;2.1794;
1014.0000;0.5201;2.1794;
1014.3000;0.5201;2.1725;
1014.6000;0.5193;2.1679;
1014.9000;0.5185;2.1679;
1015.2000;0.5201;2.1702;
1015.5000;0.5177;2.1656;
1015.8000;0.5201;2.1702;
1016.1000;0.5210;2.1725;
1016.4000;0.5210;2.1656;
1016.7000;0.5210;2.1609;
1017.0000;0.5210;2.1702;
1017.3000;0.5185;2.1702;
1017.6000;0.5193;2.1748;
1017.9000;0.5210;2.1702;
1018.2000;0.5201;2.1586;
1018.5000;0.5218;2.1586;
1018.8000;0.5210;2.1656;
1019.1000;0.5193;2.1656;
1019.4000;0.5201;2.1702;
1019.7000;0.5201;2.1725;
1020.0000;0.5218;2.1679;
1020.3000;0.5201;2.1609;
1020.6000;0.5210;2.1679;
1020.9000;0.5210;2.1633;
1021.2000;0.5210;2.1656;
1021.5000;0.5193;2.1679;
1021.8000;0.5177;2.1633;
1022.1000;0.5201;2.1725;
1022.4000;0.5193;2.1679;
1022.7000;0.5185;2.1633;
1023.0000;0.5193;2.1563;
1023.3000;0.5169;2.1586;
1023.6000;0.5267;2.1841;
1023.9000;0.5185;2.1679;
1024.2000;0.5210;2.1702;
1024.5000;0.5177;2.1609;
1024.8000;0.5193;2.1679;
1025.1000;0.5210;2.1841;
1025.4000;0.5226;2.1841;
1025.7000;0.5242;2.1841;
1026.0000;0.5201;2.1818;
1026.3000;0.5242;2.1864;
1026.6000;0.5226;2.1841;
1026.9000;0.5193;2.1864;
1027.2000;0.5226;2.1887;
1027.5000;0.5177;2.1864;
1027.8000;0.5218;2.1980;
1028.1000;0.5201;2.1956;
1028.4000;0.5177;2.1864;
1028.7000;0.5185;2.1841;
1029.0000;0.5104;2.1517;
1029.3000;0.5185;2.1633;
1029.6000;0.5136;2.1563;
1029.9000;0.5193;2.1679;
1030.2000;0.5201;2.1771;
1030.5000;0.5185;2.1702;
1030.8000;0.5201;2.1679;
1031.1000;0.5185;2.1725;
1031.4000;0.5201;2.1748;
1031.7000;0.5234;2.1841;
1032.0000;0.5201;2.1725;
1032.3000;0.5169;2.1656;
1032.6000;0.5193;2.1748;
1032.9000;0.5210;2.1748;
1033.2000;0.5210;2.1679;
1033.5000;0.5210;2.1586;
1033.8000;0.5185;2.1517;
1034.1000;0.5234;2.1563;
1034.4000;0.5201;2.1633;
1034.7000;0.5185;2.1679;
1035.0000;0.5201;2.1748;
1035.3000;0.5201;2.1725;
1035.6000;0.5218;2.1818;
1035.9000;0.5218;2.1933;
1036.2000;0.5185;2.1841;
1036.5000;0.5201;2.1864;
1036.8000;0.5201;2.1841;
1037.1000;0.5201;2.1818;
1037.4000;0.5210;2.1748;
1037.7000;0.5161;2.1679;
1038.0000;0.5193;2.1818;
1038.3000;0.5210;2.1980;
1038.6000;0.5210;2.2003;
1038.9000;0.5201;2.1980;
1039.2000;0.5201;2.1980;
1039.5000;0.5201;2.1910;
1039.8000;0.5185;2.1771;
1040.1000;0.5201;2.1841;
1040.4000;0.5234;2.1887;
1040.7000;0.5193;2.1887;
1041.0000;0.5193;2.1841;
1041.3000;0.5193;2.1771;
1041.6000;0.5185;2.1794;
1041.9000;0.5201;2.1818;
1042.2000;0.5169;2.1702;
1042.5000;0.5185;2.1818;
1042.8000;0.5201;2.1794;
1043.1000;0.5267;2.1887;
1043.4000;0.5210;2.1725;
1043.7000;0.5226;2.1725;
1044.0000;0.5201;2.1725;
1044.3000;0.5193;2.1656;
1044.6000;0.5177;2.1609;
1044.9000;0.5161;2.1633;
1045.2000;0.5201;2.1633;
1045.5000;0.5161;2.1633;
1045.8000;0.5185;2.1679;
1046.1000;0.5193;2.1633;
1046.4000;0.5193;2.1679;
1046.7000;0.5193;2.1771;
1047.0000;0.5185;2.1748;
1047.3000;0.5193;2.1725;
1047.6000;0.5218;2.1656;
1047.9000;0.5218;2.1748;
1048.2000;0.5226;2.1818;
1048.5000;0.5218;2.1771;
1048.8000;0.5185;2.1679;
1049.1000;0.5185;2.1794;
1049.4000;0.5169;2.1818;
1049.7000;0.5185;2.1841;
1050.0000;0.5185;2.1841;
1050.3000;0.5144;2.1656;
1050.6000;0.5161;2.1702;
1050.9000;0.5193;2.1794;
1051.2000;0.5185;2.1818;
1051.5000;0.5210;2.1794;
1051.8000;0.5177;2.1771;
1052.1000;0.5193;2.1794;
1052.4000;0.5201;2.1702;
1052.7000;0.5185;2.1794;
1053.0000;0.5218;2.1864;
1053.3000;0.5218;2.1841;
1053.6000;0.5161;2.1656;
1053.9000;0.5210;2.1794;
1054.2000;0.5201;2.1818;
1054.5000;0.5201;2.1656;
1054.8000;0.5201;2.1563;
1055.1000;0.5193;2.1609;
1055.4000;0.5218;2.1656;
1055.7000;0.5169;2.1633;
1056.0000;0.5193;2.1656;
1056.3000;0.5201;2.1586;
1056.6000;0.5201;2.1633;
1056.9000;0.5193;2.1679;
1057.2000;0.5210;2.1771;
1057.5000;0.5193;2.1725;
1057.8000;0.5201;2.1679;
1058.1000;0.5201;2.1679;
1058.4000;0.5210;2.1656;
1058.7000;0.5210;2.1656;
1059.0000;0.5201;2.1679;
1059.3000;0.5169;2.1471;
1059.6000;0.5218;2.1540;
1059.9000;0.5201;2.1447;
1060.2000;0.5201;2.1540;
1060.5000;0.5185;2.1540;
1060.8000;0.5201;2.1586;
1061.1000;0.5210;2.1702;
1061.4000;0.5201;2.1679;
1061.7000;0.5185;2.1702;
1062.0000;0.5218;2.1841;
1062.3000;0.5185;2.1748;
1062.6000;0.5201;2.1702;
1062.9000;0.5177;2.1633;
1063.2000;0.5218;2.1771;
1063.5000;0.5201;2.1679;
1063.8000;0.5218;2.1702;
1064.1000;0.5153;2.1563;
1064.4000;0.5177;2.1679;
1064.7000;0.5201;2.1702;
1065.0000;0.5177;2.1656;
1065.3000;0.5218;2.1702;
1065.6000;0.5218;2.1748;
1065.9000;0.5201;2.1656;
1066.2000;0.5185;2.1679;
1066.5000;0.5193;2.1656;
1066.8000;0.5161;2.1563;
1067.1000;0.5193;2.1563;
1067.4000;0.5250;2.1748;
1067.7000;0.5177;2.1586;
1068.0000;0.5177;2.1540;
1068.3000;0.5193;2.1540;
1068.6000;0.5201;2.1633;
1068.9000;0.5201;2.1609;
1069.2000;0.5193;2.1633;
1069.5000;0.5096;2.1401;
1069.8000;0.5234;2.1725;
1070.1000;0.5226;2.1725;
1070.4000;0.5185;2.1540;
1070.7000;0.5185;2.1563;
1071.0000;0.5210;2.1609;
1071.3000;0.5193;2.1540;
1071.6000;0.5193;2.1563;
1071.9000;0.5185;2.1563;
1072.2000;0.5177;2.1447;
1072.5000;0.5201;2.1563;
1072.8000;0.5250;2.1702;
1073.1000;0.5169;2.1494;
1073.4000;0.5193;2.1494;
1073.7000;0.5218;2.1494;
1074.0000;0.5210;2.1517;
1074.3000;0.5201;2.1517;
1074.6000;0.5169;2.1378;
1074.9000;0.5201;2.1494;
1075.2000;0.5153;2.1447;
1075.5000;0.5226;2.1609;
1075.8000;0.5169;2.1494;
1076.1000;0.5201;2.1586;
1076.4000;0.5185;2.1609;
1076.7000;0.5169;2.1609;
1077.0000;0.5185;2.1586;
1077.3000;0.5185;2.1633;
1077.6000;0.5275;2.1818;
1077.9000;0.5161;2.1540;
1078.2000;0.5177;2.1609;
1078.5000;0.5218;2.1702;
1078.8000;0.5210;2.1656;
1079.1000;0.5169;2.1540;
1079.4000;0.5210;2.1586;
1079.7000;0.5136;2.1517;
1080.0000;0.5226;2.1725;
1080.3000;0.5218;2.1702;
1080.6000;0.5226;2.1702;
1080.9000;0.5193;2.1702;
1081.2000;0.5226;2.1679;
1081.5000;0.5210;2.1633;
1081.8000;0.5356;2.2095;
1082.1000;0.5201;2.1771;
1082.4000;0.5210;2.1794;
1082.7000;0.5210;2.1864;
1083.0000;0.5177;2.1794;
1083.3000;0.5193;2.1794;
1083.6000;0.5185;2.1725;
1083.9000;0.5193;2.1679;
1084.2000;0.5193;2.1702;
1084.5000;0.5185;2.1633;
1084.8000;0.5169;2.1563;
1085.1000;0.5193;2.1609;
1085.4000;0.5210;2.1563;
1085.7000;0.5201;2.1586;
1086.0000;0.5136;2.1424;
1086.3000;0.5185;2.1540;
1086.6000;0.5177;2.1586;
1086.9000;0.5258;2.1748;
1087.2000;0.5283;2.1864;
1087.5000;0.5193;2.1609;
1087.8000;0.5258;2.1794;
1088.1000;0.5193;2.1563;
1088.4000;0.5210;2.1656;
1088.7000;0.5193;2.1656;
1089.0000;0.5267;2.1794;
1089.3000;0.5120;2.1494;
1089.6000;0.5201;2.1725;
1089.9000;0.5185;2.1679;
1090.2000;0.5218;2.1725;
1090.5000;0.5210;2.1702;
1090.8000;0.5185;2.1725;
1091.1000;0.5177;2.1771;
1091.4000;0.5185;2.1864;
1091.7000;0.5193;2.1980;
1092.0000;0.5185;2.1841;
1092.3000;0.5177;2.1725;
1092.6000;0.5177;2.1679;
1092.9000;0.5177;2.1586;
1093.2000;0.5275;2.1818;
1093.5000;0.5177;2.1494;
1093.8000;0.5177;2.1494;
1094.1000;0.5210;2.1540;
1094.4000;0.5193;2.1494;
1094.7000;0.5169;2.1401;
1095.0000;0.5169;2.1378;
1095.3000;0.5185;2.1540;
1095.6000;0.5193;2.1656;
1095.9000;0.5185;2.1563;
1096.2000;0.5185;2.1586;
1096.5000;0.5185;2.1540;
1096.8000;0.5177;2.1540;
1097.1000;0.5177;2.1586;
1097.4000;0.5169;2.1633;
1097.7000;0.5201;2.1702;
1098.0000;0.5218;2.1725;
1098.3000;0.5185;2.1609;
1098.6000;0.5169;2.1517;
1098.9000;0.5193;2.1563;
1099.2000;0.5193;2.1609;
1099.5000;0.5177;2.1540;
1099.8000;0.5210;2.1563;
1100.1000;0.5201;2.1563;
1100.4000;0.5193;2.1586;
1100.7000;0.5258;2.1794;
1101.0000;0.5193;2.1586;
1101.3000;0.5177;2.1563;
1101.6000;0.5177;2.1563;
1101.9000;0.5153;2.1447;
1102.2000;0.5201;2.1517;
1102.5000;0.5193;2.1540;
1102.8000;0.5242;2.1656;
1103.1000;0.5210;2.1633;
1103.4000;0.5234;2.1702;
1103.7000;0.5201;2.1563;
1104.0000;0.5210;2.1633;
1104.3000;0.5193;2.1633;
1104.6000;0.5177;2.1517;
1104.9000;0.5201;2.1633;
1105.2000;0.5185;2.1633;
1105.5000;0.5201;2.1633;
1105.8000;0.5218;2.1633;
1106.1000;0.5193;2.1563;
1106.4000;0.5185;2.1563;
1106.7000;0.5226;2.1609;
1107.0000;0.5185;2.1447;
1107.3000;0.5193;2.1471;
1107.6000;0.5185;2.1471;
1107.9000;0.5177;2.1447;
1108.2000;0.5193;2.1586;
1108.5000;0.5193;2.1609;
1108.8000;0.5169;2.1517;
1109.1000;0.5193;2.1540;
1109.4000;0.5193;2.1609;
1109.7000;0.5177;2.1586;
1110.0000;0.5177;2.1609;
1110.3000;0.5193;2.1679;
1110.6000;0.5193;2.1702;
1110.9000;0.5185;2.1609;
1111.2000;0.5201;2.1633;
1111.5000;0.5193;2.1517;
1111.8000;0.5185;2.1355;
1112.1000;0.5226;2.1401;
1112.4000;0.5185;2.1355;
1112.7000;0.5193;2.1355;
1113.0000;0.5185;2.1239;
1113.3000;0.5201;2.1309;
1113.6000;0.5185;2.1332;
1113.9000;0.5161;2.1285;
1114.2000;0.5185;2.1355;
1114.5000;0.5267;2.1586;
1114.8000;0.5210;2.1471;
1115.1000;0.5234;2.1633;
1115.4000;0.5185;2.1563;
1115.7000;0.5185;2.1517;
1116.0000;0.5201;2.1563;
1116.3000;0.5153;2.1447;
1116.6000;0.5169;2.1447;
1116.9000;0.5193;2.1563;
1117.2000;0.5185;2.1656;
1117.5000;0.5201;2.1586;
1117.8000;0.5201;2.1540;
1118.1000;0.5161;2.1401;
1118.4000;0.5169;2.1447;
1118.7000;0.5185;2.1424;
1119.0000;0.5161;2.1447;
1119.3000;0.5096;2.1309;
1119.6000;0.5193;2.1563;
1119.9000;0.5193;2.1540;
1120.2000;0.5185;2.1517;
1120.5000;0.5169;2.1563;
1120.8000;0.5193;2.1586;
1121.1000;0.5193;2.1633;
1121.4000;0.5193;2.1609;
1121.7000;0.5283;2.1841;
1122.0000;0.5193;2.1494;
1122.3000;0.5201;2.1633;
1122.6000;0.5193;2.1563;
1122.9000;0.5161;2.1494;
1123.2000;0.5177;2.1424;
1123.5000;0.5193;2.1447;
1123.8000;0.5226;2.1586;
1124.1000;0.5210;2.1540;
1124.4000;0.5153;2.1424;
1124.7000;0.5088;2.1216;
1125.0000;0.5185;2.1401;
1125.3000;0.5185;2.1378;
1125.6000;0.5193;2.1447;
1125.9000;0.5185;2.1540;
1126.2000;0.5177;2.1586;
1126.5000;0.5193;2.1563;
1126.8000;0.5185;2.1517;
1127.1000;0.5185;2.1424;
1127.4000;0.5185;2.1517;
1127.7000;0.5112;2.1239;
1128.0000;0.5193;2.1378;
1128.3000;0.5210;2.1401;
1128.6000;0.5201;2.1447;
1128.9000;0.5201;2.1517;
1129.2000;0.5210;2.1494;
1129.5000;0.5177;2.1447;
1129.8000;0.5193;2.1586;
1130.1000;0.5201;2.1656;
1130.4000;0.5193;2.1609;
1130.7000;0.5201;2.1656;
1131.0000;0.5185;2.1633;
1131.3000;0.5193;2.1656;
1131.6000;0.5185;2.1586;
1131.9000;0.5201;2.1656;
1132.2000;0.5201;2.1609;
1132.5000;0.5185;2.1609;
1132.8000;0.5201;2.1563;
1133.1000;0.5193;2.1609;
1133.4000;0.5210;2.1679;
1133.7000;0.5185;2.1586;
1134.0000;0.5201;2.1563;
1134.3000;0.5193;2.1609;
1134.6000;0.5161;2.1656;
1134.9000;0.5185;2.1818;
1135.2000;0.5193;2.1771;
1135.5000;0.5193;2.1864;
1135.8000;0.5193;2.1794;
1136.1000;0.5193;2.1725;
1136.4000;0.5210;2.1725;
1136.7000;0.5193;2.1656;
1137.0000;0.5226;2.1794;
1137.3000;0.5153;2.1679;
1137.6000;0.5201;2.1725;
1137.9000;0.5218;2.1679;
1138.2000;0.5161;2.1424;
1138.5000;0.5218;2.1517;
1138.8000;0.5169;2.1447;
1139.1000;0.5201;2.1517;
1139.4000;0.5161;2.1401;
1139.7000;0.5185;2.1471;
1140.0000;0.5201;2.1494;
1140.3000;0.5185;2.1586;
1140.6000;0.5242;2.1609;
1140.9000;0.5193;2.1517;
1141.2000;0.5161;2.1424;
1141.5000;0.5201;2.1656;
1141.8000;0.5201;2.1656;
1142.1000;0.5193;2.1656;
1142.4000;0.5169;2.1702;
1142.7000;0.5193;2.1748;
1143.0000;0.5185;2.1725;
1143.3000;0.5169;2.1748;
1143.6000;0.5161;2.1725;
1143.9000;0.5177;2.1633;
1144.2000;0.5210;2.1725;
1144.5000;0.5120;2.1517;
1144.8000;0.5185;2.1679;
1145.1000;0.5169;2.1656;
1145.4000;0.5169;2.1586;
1145.7000;0.5201;2.1679;
1146.0000;0.5161;2.1609;
1146.3000;0.5210;2.1864;
1146.6000;0.5193;2.1956;
1146.9000;0.5193;2.1841;
1147.2000;0.5177;2.1725;
1147.5000;0.5185;2.1841;
1147.8000;0.5218;2.1910;
1148.1000;0.5185;2.1771;
1148.4000;0.5201;2.1725;
1148.7000;0.5193;2.1725;
1149.0000;0.5201;2.1656;
1149.3000;0.5177;2.1609;
1149.6000;0.5185;2.1679;
1149.9000;0.5177;2.1633;
1150.2000;0.5153;2.1586;
1150.5000;0.5185;2.1725;
1150.8000;0.5136;2.1656;
1151.1000;0.5185;2.1702;
1151.4000;0.5185;2.1633;
1151.7000;0.5193;2.1609;
1152.0000;0.5210;2.1586;
1152.3000;0.5177;2.1540;
1152.6000;0.5201;2.1540;
1152.9000;0.5201;2.1609;
1153.2000;0.5193;2.1656;
1153.5000;0.5193;2.1679;
1153.8000;0.5177;2.1633;
1154.1000;0.5177;2.1656;
1154.4000;0.5226;2.1748;
1154.7000;0.5185;2.1702;
1155.0000;0.5177;2.1656;
1155.3000;0.5193;2.1679;
1155.6000;0.5177;2.1563;
1155.9000;0.5177;2.1586;
1156.2000;0.5210;2.1679;
1156.5000;0.5185;2.1725;
1156.8000;0.5177;2.1725;
1157.1000;0.5193;2.1818;
1157.4000;0.5185;2.1818;
1157.7000;0.5193;2.1887;
1158.0000;0.5193;2.1887;
1158.3000;0.5218;2.1910;
1158.6000;0.5242;2.1956;
1158.9000;0.5193;2.1818;
1159.2000;0.5201;2.1771;
1159.5000;0.5177;2.1748;
1159.8000;0.5267;2.1956;
1160.1000;0.5088;2.1540;
1160.4000;0.5169;2.1702;
1160.7000;0.5185;2.1679;
1161.0000;0.5201;2.1633;
1161.3000;0.5283;2.1910;
1161.6000;0.5210;2.1748;
1161.9000;0.5185;2.1679;
1162.2000;0.5128;2.1563;
1162.5000;0.5210;2.1794;
1162.8000;0.5250;2.1887;
1163.1000;0.5201;2.1702;
1163.4000;0.5210;2.1702;
1163.7000;0.5193;2.1702;
1164.0000;0.5193;2.1725;
1164.3000;0.5169;2.1679;
1164.6000;0.5185;2.1771;
1164.9000;0.5169;2.1771;
1165.2000;0.5177;2.1725;
1165.5000;0.5177;2.1748;
1165.8000;0.5185;2.1679;
1166.1000;0.5177;2.1679;
1166.4000;0.5185;2.1633;
1166.7000;0.5177;2.1633;
1167.0000;0.5193;2.1609;
1167.3000;0.5169;2.1563;
1167.6000;0.5193;2.1656;
1167.9000;0.5169;2.1540;
1168.2000;0.5201;2.1586;
1168.5000;0.5153;2.1471;
1168.8000;0.5185;2.1586;
1169.1000;0.5193;2.1586;
1169.4000;0.5185;2.1563;
1169.7000;0.5169;2.1679;
1170.0000;0.5185;2.1794;
1170.3000;0.5193;2.1864;
1170.6000;0.5169;2.1794;
1170.9000;0.5177;2.1818;
1171.2000;0.5185;2.1725;
1171.5000;0.5177;2.1702;
1171.8000;0.5177;2.1725;
1172.1000;0.5185;2.1771;
1172.4000;0.5218;2.1748;
1172.7000;0.5201;2.1725;
1173.0000;0.5185;2.1725;
1173.3000;0.5193;2.1818;
1173.6000;0.5193;2.1818;
1173.9000;0.5250;2.1864;
1174.2000;0.5193;2.1702;
1174.5000;0.5193;2.1702;
1174.8000;0.5218;2.1771;
1175.1000;0.5177;2.1748;
1175.4000;0.5177;2.1679;
1175.7000;0.5185;2.1609;
1176.0000;0.5177;2.1563;
1176.3000;0.5201;2.1679;
1176.6000;0.5283;2.1910;
1176.9000;0.5177;2.1679;
1177.2000;0.5161;2.1771;
1177.5000;0.5201;2.1887;
1177.8000;0.5169;2.1794;
1178.1000;0.5144;2.1702;
1178.4000;0.5169;2.1702;
1178.7000;0.5161;2.1609;
1179.0000;0.5169;2.1633;
1179.3000;0.5201;2.1771;
1179.6000;0.5177;2.1702;
1179.9000;0.5201;2.1748;
1180.2000;0.5161;2.1679;
1180.5000;0.5177;2.1864;
1180.8000;0.5169;2.1887;
1181.1000;0.5128;2.1794;
1181.4000;0.5226;2.1980;
1181.7000;0.5193;2.1887;
1182.0000;0.5177;2.1771;
1182.3000;0.5201;2.1864;
1182.6000;0.5193;2.1818;
1182.9000;0.5291;2.2026;
1183.2000;0.5193;2.1841;
1183.5000;0.5201;2.1887;
1183.8000;0.5193;2.1864;
1184.1000;0.5185;2.1864;
1184.4000;0.5201;2.1748;
1184.7000;0.5177;2.1586;
1185.0000;0.5185;2.1494;
1185.3000;0.5218;2.1540;
1185.6000;0.5210;2.1609;
1185.9000;0.5169;2.1586;
1186.2000;0.5169;2.1633;
1186.5000;0.5177;2.1609;
1186.8000;0.5185;2.1609;
1187.1000;0.5161;2.1563;
1187.4000;0.5096;2.1424;
1187.7000;0.5193;2.1609;
1188.0000;0.5193;2.1540;
1188.3000;0.5177;2.1494;
1188.6000;0.5169;2.1517;
1188.9000;0.5193;2.1702;
1189.2000;0.5177;2.1609;
1189.5000;0.5201;2.1563;
1189.8000;0.5283;2.1748;
1190.1000;0.5185;2.1494;
1190.4000;0.5185;2.1471;
1190.7000;0.5169;2.1494;
1191.0000;0.5177;2.1471;
1191.3000;0.5169;2.1471;
1191.6000;0.5169;2.1517;
1191.9000;0.5177;2.1494;
1192.2000;0.5169;2.1517;
1192.5000;0.5185;2.1609;
1192.8000;0.5201;2.1609;
1193.1000;0.5193;2.1586;
1193.4000;0.5177;2.1563;
1193.7000;0.5169;2.1609;
1194.0000;0.5210;2.1794;
1194.3000;0.5193;2.1864;
1194.6000;0.5193;2.1910;
1194.9000;0.5193;2.1818;
1195.2000;0.5185;2.1841;
1195.5000;0.5210;2.1794;
1195.8000;0.5177;2.1725;
1196.1000;0.5177;2.1748;
1196.4000;0.5161;2.1748;
1196.7000;0.5242;2.1910;
1197.0000;0.5210;2.1771;
1197.3000;0.5185;2.1702;
1197.6000;0.5193;2.1679;
1197.9000;0.5153;2.1563;
1198.2000;0.5193;2.1656;
1198.5000;0.5193;2.1725;
1198.8000;0.5201;2.1748;
1199.1000;0.5193;2.1702;
1199.4000;0.5201;2.1725;
1199.7000;0.5226;2.1818;
1200.0000;0.5291;2.2049;
1200.3000;0.5201;2.1748;
1200.6000;0.5226;2.1794;
1200.9000;0.5210;2.1818;
1201.2000;0.5169;2.1702;
1201.5000;0.5193;2.1679;
1201.8000;0.5193;2.1748;
1202.1000;0.5185;2.1702;
1202.4000;0.5177;2.1771;
1202.7000;0.5014;2.1471;
1203.0000;0.5185;2.1841;
1203.3000;0.5177;2.1887;
1203.6000;0.5193;2.1864;
1203.9000;0.5185;2.1841;
1204.2000;0.5169;2.1748;
1204.5000;0.5193;2.1794;
1204.8000;0.5193;2.1771;
1205.1000;0.5193;2.1771;
1205.4000;0.5185;2.1679;
1205.7000;0.5185;2.1563;
1206.0000;0.5193;2.1609;
1206.3000;0.5218;2.1563;
1206.6000;0.5185;2.1447;
1206.9000;0.5177;2.1447;
1207.2000;0.5193;2.1517;
1207.5000;0.5226;2.1517;
1207.8000;0.5193;2.1424;
1208.1000;0.5201;2.1563;
1208.4000;0.5193;2.1609;
1208.7000;0.5210;2.1609;
1209.0000;0.5177;2.1401;
1209.3000;0.5177;2.1401;
1209.6000;0.5144;2.1355;
1209.9000;0.5185;2.1471;
1210.2000;0.5185;2.1494;
1210.5000;0.5169;2.1471;
1210.8000;0.5193;2.1586;
1211.1000;0.5177;2.1633;
1211.4000;0.5291;2.1910;
1211.7000;0.5177;2.1609;
1212.0000;0.5153;2.1609;
1212.3000;0.5177;2.1633;
1212.6000;0.5177;2.1656;
1212.9000;0.5201;2.1748;
1213.2000;0.5185;2.1702;
1213.5000;0.5193;2.1609;
1213.8000;0.5185;2.1609;
1214.1000;0.5177;2.1679;
1214.4000;0.5185;2.1748;
1214.7000;0.5193;2.1656;
1215.0000;0.5177;2.1748;
1215.3000;0.5169;2.1679;
1215.6000;0.5177;2.1771;
1215.9000;0.5201;2.1771;
1216.2000;0.5201;2.1818;
1216.5000;0.5136;2.1702;
1216.8000;0.5161;2.1794;
1217.1000;0.5291;2.2211;
1217.4000;0.5144;2.1910;
1217.7000;0.5201;2.1910;
1218.0000;0.5201;2.1933;
1218.3000;0.5250;2.2142;
1218.6000;0.5177;2.1864;
1218.9000;0.5185;2.1818;
1219.2000;0.5161;2.1841;
1219.5000;0.5201;2.1980;
1219.8000;0.5136;2.1818;
1220.1000;0.5250;2.1980;
1220.4000;0.5144;2.1702;
1220.7000;0.5201;2.1794;
1221.0000;0.5234;2.1864;
1221.3000;0.5193;2.1748;
1221.6000;0.5185;2.1818;
1221.9000;0.5201;2.1864;
1222.2000;0.5185;2.1818;
1222.5000;0.5169;2.1748;
1222.8000;0.5177;2.1771;
1223.1000;0.5177;2.1818;
1223.4000;0.5177;2.1841;
1223.7000;0.5161;2.1794;
1224.0000;0.5185;2.1887;
1224.3000;0.5193;2.1910;
1224.6000;0.5169;2.1887;
1224.9000;0.5177;2.1910;
1225.2000;0.5177;2.1887;
1225.5000;0.5210;2.1910;
1225.8000;0.5136;2.1771;
1226.1000;0.5210;2.1933;
1226.4000;0.5185;2.1956;
1226.7000;0.5169;2.1980;
1227.0000;0.5177;2.1933;
1227.3000;0.5226;2.2118;
1227.6000;0.5193;2.2049;
1227.9000;0.5169;2.2003;
1228.2000;0.5153;2.1887;
1228.5000;0.5177;2.1910;
1228.8000;0.5193;2.1933;
1229.1000;0.5185;2.1887;
1229.4000;0.5185;2.1933;
1229.7000;0.5177;2.1933;
1230.0000;0.5177;2.1864;
1230.3000;0.5177;2.1980;
1230.6000;0.5169;2.1933;
1230.9000;0.5185;2.2026;
1231.2000;0.5185;2.2026;
1231.5000;0.5185;2.2049;
1231.8000;0.5177;2.2026;
1232.1000;0.5185;2.1980;
1232.4000;0.5161;2.1980;
1232.7000;0.5177;2.2095;
1233.0000;0.5177;2.2095;
1233.3000;0.5120;2.1771;
1233.6000;0.5210;2.2049;
1233.9000;0.5185;2.1956;
1234.2000;0.5185;2.1980;
1234.5000;0.5201;2.1956;
1234.8000;0.5161;2.1818;
1235.1000;0.5201;2.1818;
1235.4000;0.5234;2.1956;
1235.7000;0.5218;2.1933;
1236.0000;0.5193;2.2049;
1236.3000;0.5185;2.2026;
1236.6000;0.5210;2.2072;
1236.9000;0.5201;2.2095;
1237.2000;0.5193;2.2072;
1237.5000;0.5226;2.2118;
1237.8000;0.5185;2.1910;
1238.1000;0.5177;2.1864;
1238.4000;0.5144;2.1841;
1238.7000;0.5267;2.2165;
1239.0000;0.5177;2.2003;
1239.3000;0.5185;2.1956;
1239.6000;0.5169;2.1910;
1239.9000;0.5185;2.1910;
1240.2000;0.5234;2.1933;
1240.5000;0.5242;2.2049;
1240.8000;0.5177;2.1980;
1241.1000;0.5185;2.2003;
1241.4000;0.5177;2.1980;
1241.7000;0.5193;2.2003;
1242.0000;0.5218;2.1933;
1242.3000;0.5210;2.1933;
1242.6000;0.5120;2.1702;
1242.9000;0.5193;2.1910;
1243.2000;0.5210;2.1980;
1243.5000;0.5201;2.2026;
1243.8000;0.5177;2.1887;
1244.1000;0.5193;2.1887;
1244.4000;0.5177;2.1841;
1244.7000;0.5193;2.1864;
1245.0000;0.5185;2.1771;
1245.3000;0.5210;2.1887;
1245.6000;0.5193;2.1841;
1245.9000;0.5185;2.1910;
1246.2000;0.5169;2.1933;
1246.5000;0.5201;2.1910;
1246.8000;0.5185;2.1887;
1247.1000;0.5136;2.1818;
1247.4000;0.5169;2.1841;
1247.7000;0.5242;2.1933;
1248.0000;0.5193;2.1841;
1248.3000;0.5169;2.1702;
1248.6000;0.5210;2.1864;
1248.9000;0.5177;2.1794;
1249.2000;0.5218;2.1818;
1249.5000;0.5185;2.1771;
1249.8000;0.5161;2.1702;
1250.1000;0.5185;2.1841;
1250.4000;0.5185;2.1841;
1250.7000;0.5136;2.1818;
1251.0000;0.5177;2.1980;
1251.3000;0.5128;2.1818;
1251.6000;0.5193;2.1818;
1251.9000;0.5177;2.1725;
1252.2000;0.5136;2.1656;
1252.5000;0.5177;2.1771;
1252.8000;0.5193;2.1748;
1253.1000;0.5177;2.1679;
1253.4000;0.5185;2.1563;
1253.7000;0.5177;2.1540;
1254.0000;0.5177;2.1471;
1254.3000;0.5112;2.1401;
1254.6000;0.5185;2.1633;
1254.9000;0.5185;2.1633;
1255.2000;0.5193;2.1771;
1255.5000;0.5161;2.1725;
1255.8000;0.5185;2.1725;
1256.1000;0.5169;2.1702;
1256.4000;0.5112;2.1586;
1256.7000;0.5201;2.1841;
1257.0000;0.5185;2.1702;
1257.3000;0.5185;2.1586;
1257.6000;0.5185;2.1540;
1257.9000;0.5193;2.1586;
1258.2000;0.5201;2.1633;
1258.5000;0.5177;2.1586;
1258.8000;0.5210;2.1725;
1259.1000;0.5185;2.1702;
1259.4000;0.5096;2.1540;
1259.7000;0.5218;2.1841;
1260.0000;0.5201;2.1864;
1260.3000;0.5193;2.1771;
1260.6000;0.5218;2.1794;
1260.9000;0.5193;2.1748;
1261.2000;0.5193;2.1702;
1261.5000;0.5193;2.1633;
1261.8000;0.5185;2.1609;
1262.1000;0.5185;2.1679;
1262.4000;0.5169;2.1563;
1262.7000;0.5177;2.1586;
1263.0000;0.5193;2.1633;
1263.3000;0.5201;2.1656;
1263.6000;0.5193;2.1563;
1263.9000;0.5177;2.1586;
1264.2000;0.5185;2.1725;
1264.5000;0.5185;2.1794;
1264.8000;0.5169;2.1748;
1265.1000;0.5169;2.1725;
1265.4000;0.5185;2.1771;
1265.7000;0.5267;2.1933;
1266.0000;0.5185;2.1725;
1266.3000;0.5201;2.1771;
1266.6000;0.5193;2.1702;
1266.9000;0.5201;2.1748;
1267.2000;0.5226;2.1887;
1267.5000;0.5161;2.1702;
1267.8000;0.5177;2.1609;
1268.1000;0.5185;2.1609;
1268.4000;0.5185;2.1540;
1268.7000;0.5234;2.1679;
1269.0000;0.5185;2.1609;
1269.3000;0.5218;2.1633;
1269.6000;0.5177;2.1586;
1269.9000;0.5193;2.1563;
1270.2000;0.5177;2.1633;
1270.5000;0.5177;2.1540;
1270.8000;0.5185;2.1471;
1271.1000;0.5210;2.1517;
1271.4000;0.5177;2.1471;
1271.7000;0.5193;2.1540;
1272.0000;0.5210;2.1586;
1272.3000;0.5185;2.1494;
1272.6000;0.5210;2.1494;
1272.9000;0.5177;2.1494;
1273.2000;0.5185;2.1563;
1273.5000;0.5169;2.1563;
1273.8000;0.5185;2.1609;
1274.1000;0.5136;2.1401;
1274.4000;0.5177;2.1540;
1274.7000;0.5250;2.1818;
1275.0000;0.5177;2.1725;
1275.3000;0.5169;2.1725;
1275.6000;0.5177;2.1864;
1275.9000;0.5185;2.1933;
1276.2000;0.5177;2.1702;
1276.5000;0.5201;2.1864;
1276.8000;0.5210;2.1794;
1277.1000;0.5161;2.1818;
1277.4000;0.5218;2.1910;
1277.7000;0.5193;2.1702;
1278.0000;0.5185;2.1748;
1278.3000;0.5161;2.1702;
1278.6000;0.5193;2.1748;
1278.9000;0.5193;2.1679;
1279.2000;0.5153;2.1656;
1279.5000;0.5177;2.1702;
1279.8000;0.5193;2.1794;
1280.1000;0.5185;2.1702;
1280.4000;0.5177;2.1679;
1280.7000;0.5193;2.1702;
1281.0000;0.5177;2.1748;
1281.3000;0.5193;2.1841;
1281.6000;0.5193;2.1864;
1281.9000;0.5185;2.1910;
1282.2000;0.5201;2.1841;
1282.5000;0.5234;2.1818;
1282.8000;0.5185;2.1702;
1283.1000;0.5177;2.1609;
1283.4000;0.5185;2.1633;
1283.7000;0.5193;2.1609;
1284.0000;0.5193;2.1540;
1284.3000;0.5193;2.1517;
1284.6000;0.5201;2.1633;
1284.9000;0.5193;2.1633;
1285.2000;0.5177;2.1679;
1285.5000;0.5161;2.1633;
1285.8000;0.5169;2.1517;
1286.1000;0.5193;2.1563;
1286.4000;0.5177;2.1494;
1286.7000;0.5177;2.1447;
1287.0000;0.5144;2.1401;
1287.3000;0.5177;2.1424;
1287.6000;0.5161;2.1424;
1287.9000;0.5185;2.1471;
1288.2000;0.5177;2.1424;
1288.5000;0.5201;2.1517;
1288.8000;0.5177;2.1494;
1289.1000;0.5136;2.1424;
1289.4000;0.5177;2.1563;
1289.7000;0.5169;2.1563;
1290.0000;0.5299;2.1794;
1290.3000;0.5169;2.1447;
1290.6000;0.5185;2.1494;
1290.9000;0.5185;2.1586;
1291.2000;0.5250;2.1679;
1291.5000;0.5210;2.1633;
1291.8000;0.5210;2.1540;
1292.1000;0.5193;2.1494;
1292.4000;0.5177;2.1447;
1292.7000;0.5210;2.1447;
1293.0000;0.5185;2.1378;
1293.3000;0.5177;2.1471;
1293.6000;0.5177;2.1586;
1293.9000;0.5201;2.1540;
1294.2000;0.5201;2.1540;
1294.5000;0.5185;2.1517;
1294.8000;0.5185;2.1586;
1295.1000;0.5079;2.1401;
1295.4000;0.5177;2.1702;
1295.7000;0.5210;2.1702;
1296.0000;0.5177;2.1471;
1296.3000;0.5161;2.1424;
1296.6000;0.5104;2.1309;
1296.9000;0.5177;2.1563;
1297.2000;0.5161;2.1540;
1297.5000;0.5177;2.1702;
1297.8000;0.5161;2.1563;
1298.1000;0.5177;2.1563;
1298.4000;0.5161;2.1609;
1298.7000;0.5161;2.1586;
1299.0000;0.5177;2.1540;
1299.3000;0.5177;2.1424;
1299.6000;0.5144;2.1332;
1299.9000;0.5169;2.1401;
1300.2000;0.5169;2.1424;
1300.5000;0.5161;2.1540;
1300.8000;0.5169;2.1517;
1301.1000;0.5136;2.1517;
1301.4000;0.5185;2.1586;
1301.7000;0.5169;2.1586;
1302.0000;0.5177;2.1725;
1302.3000;0.5226;2.1794;
1302.6000;0.5193;2.1748;
1302.9000;0.5210;2.1725;
1303.2000;0.5177;2.1656;
1303.5000;0.5193;2.1633;
1303.8000;0.5218;2.1656;
1304.1000;0.5193;2.1586;
1304.4000;0.5267;2.1679;
1304.7000;0.5144;2.1401;
1305.0000;0.5177;2.1424;
1305.3000;0.5210;2.1563;
1305.6000;0.5144;2.1447;
1305.9000;0.5193;2.1633;
1306.2000;0.5201;2.1656;
1306.5000;0.5185;2.1563;
1306.8000;0.5258;2.1748;
1307.1000;0.5193;2.1494;
1307.4000;0.5193;2.1401;
1307.7000;0.5234;2.1563;
1308.0000;0.5193;2.1471;
1308.3000;0.5177;2.1378;
1308.6000;0.5136;2.1285;
1308.9000;0.5185;2.1285;
1309.2000;0.5201;2.1355;
1309.5000;0.5234;2.1447;
1309.8000;0.5169;2.1262;
1310.1000;0.5201;2.1424;
1310.4000;0.5193;2.1424;
1310.7000;0.5242;2.1609;
1311.0000;0.5169;2.1586;
1311.3000;0.5169;2.1586;
1311.6000;0.5193;2.1609;
1311.9000;0.5185;2.1563;
1312.2000;0.5234;2.1656;
1312.5000;0.5161;2.1540;
1312.8000;0.5177;2.1563;
1313.1000;0.5267;2.1702;
1313.4000;0.5201;2.1540;
1313.7000;0.5210;2.1494;
1314.0000;0.5283;2.1656;
1314.3000;0.5201;2.1540;
1314.6000;0.5193;2.1586;
1314.9000;0.5185;2.1494;
1315.2000;0.5193;2.1401;
1315.5000;0.5161;2.1355;
1315.8000;0.5185;2.1447;
1316.1000;0.5161;2.1355;
1316.4000;0.5153;2.1239;
1316.7000;0.5210;2.1378;
1317.0000;0.5193;2.1355;
1317.3000;0.5161;2.1471;
1317.6000;0.5169;2.1609;
1317.9000;0.5177;2.1702;
1318.2000;0.5201;2.1725;
1318.5000;0.5193;2.1748;
1318.8000;0.5193;2.1771;
1319.1000;0.5136;2.1633;
1319.4000;0.5177;2.1586;
1319.7000;0.5201;2.1517;
1320.0000;0.5112;2.1262;
1320.3000;0.5177;2.1586;
1320.6000;0.5193;2.1679;
1320.9000;0.5201;2.1633;
1321.2000;0.5169;2.1563;
1321.5000;0.5169;2.1540;
1321.8000;0.5193;2.1563;
1322.1000;0.5250;2.1702;
1322.4000;0.5226;2.1563;
1322.7000;0.5177;2.1424;
1323.0000;0.5185;2.1355;
1323.3000;0.5120;2.1216;
1323.6000;0.5193;2.1401;
1323.9000;0.5153;2.1285;
1324.2000;0.5169;2.1401;
1324.5000;0.5193;2.1494;
1324.8000;0.5185;2.1494;
1325.1000;0.5185;2.1633;
1325.4000;0.5193;2.1633;
1325.7000;0.5193;2.1609;
1326.0000;0.5185;2.1563;
1326.3000;0.5177;2.1517;
1326.6000;0.5210;2.1586;
1326.9000;0.5193;2.1586;
1327.2000;0.5177;2.1633;
1327.5000;0.5193;2.1633;
1327.8000;0.5275;2.1864;
1328.1000;0.5177;2.1586;
1328.4000;0.5193;2.1563;
1328.7000;0.5185;2.1563;
1329.0000;0.5177;2.1656;
1329.3000;0.5185;2.1563;
1329.6000;0.5185;2.1609;
1329.9000;0.5210;2.1702;
1330.2000;0.5169;2.1540;
1330.5000;0.5169;2.1540;
1330.8000;0.5177;2.1517;
1331.1000;0.5193;2.1540;
1331.4000;0.5185;2.1563;
1331.7000;0.5218;2.1679;
1332.0000;0.5185;2.1656;
1332.3000;0.5169;2.1633;
1332.6000;0.5128;2.1471;
1332.9000;0.5185;2.1586;
1333.2000;0.5169;2.1656;
1333.5000;0.5291;2.1864;
1333.8000;0.5193;2.1517;
1334.1000;0.5267;2.1748;
1334.4000;0.5177;2.1563;
1334.7000;0.5210;2.1679;
1335.0000;0.5185;2.1633;
1335.3000;0.5193;2.1540;
1335.6000;0.5193;2.1447;
1335.9000;0.5193;2.1447;
1336.2000;0.5161;2.1309;
1336.5000;0.5193;2.1471;
1336.8000;0.5136;2.1378;
1337.1000;0.5185;2.1471;
1337.4000;0.5153;2.1309;
1337.7000;0.5185;2.1355;
1338.0000;0.5193;2.1424;
1338.3000;0.5177;2.1447;
1338.6000;0.5201;2.1494;
1338.9000;0.5193;2.1517;
1339.2000;0.5258;2.1656;
1339.5000;0.5177;2.1424;
1339.8000;0.5169;2.1447;
1340.1000;0.5185;2.1447;
1340.4000;0.5185;2.1471;
1340.7000;0.5177;2.1401;
1341.0000;0.5169;2.1424;
1341.3000;0.5185;2.1540;
1341.6000;0.5177;2.1609;
1341.9000;0.5177;2.1494;
1342.2000;0.5169;2.1424;
1342.5000;0.5144;2.1401;
1342.8000;0.5153;2.1447;
1343.1000;0.5226;2.1517;
1343.4000;0.5193;2.1332;
1343.7000;0.5177;2.1239;
1344.0000;0.5144;2.1262;
1344.3000;0.5177;2.1355;
1344.6000;0.5169;2.1355;
1344.9000;0.5193;2.1517;
1345.2000;0.5185;2.1494;
1345.5000;0.5185;2.1494;
1345.8000;0.5177;2.1494;
1346.1000;0.5193;2.1609;
1346.4000;0.5153;2.1586;
1346.7000;0.5185;2.1656;
1347.0000;0.5169;2.1586;
1347.3000;0.5177;2.1656;
1347.6000;0.5185;2.1725;
1347.9000;0.5177;2.1656;
1348.2000;0.5169;2.1656;
1348.5000;0.5161;2.1656;
1348.8000;0.5201;2.1771;
1349.1000;0.5193;2.1794;
1349.4000;0.5169;2.1702;
1349.7000;0.5185;2.1633;
1350.0000;0.5185;2.1609;
1350.3000;0.5169;2.1494;
1350.6000;0.5250;2.1633;
1350.9000;0.5185;2.1494;
1351.2000;0.5177;2.1494;
1351.5000;0.5169;2.1424;
1351.8000;0.5185;2.1494;
1352.1000;0.5161;2.1563;
1352.4000;0.5169;2.1586;
1352.7000;0.5177;2.1517;
1353.0000;0.5161;2.1424;
1353.3000;0.5185;2.1424;
1353.6000;0.5153;2.1355;
1353.9000;0.5169;2.1447;
1354.2000;0.5177;2.1517;
1354.5000;0.5177;2.1586;
1354.8000;0.5185;2.1633;
1355.1000;0.5185;2.1540;
1355.4000;0.5185;2.1586;
1355.7000;0.5185;2.1702;
1356.0000;0.5120;2.1471;
1356.3000;0.5169;2.1609;
1356.6000;0.5177;2.1725;
1356.9000;0.5177;2.1771;
1357.2000;0.5250;2.2003;
1357.5000;0.5185;2.1702;
1357.8000;0.5161;2.1679;
1358.1000;0.5177;2.1725;
1358.4000;0.5161;2.1702;
1358.7000;0.5267;2.1956;
1359.0000;0.5193;2.1679;
1359.3000;0.5177;2.1586;
1359.6000;0.5169;2.1633;
1359.9000;0.5169;2.1609;
1360.2000;0.5193;2.1633;
1360.5000;0.5185;2.1633;
1360.8000;0.5177;2.1633;
1361.1000;0.5193;2.1656;
1361.4000;0.5169;2.1563;
1361.7000;0.5193;2.1540;
1362.0000;0.5185;2.1563;
1362.3000;0.5185;2.1633;
1362.6000;0.5169;2.1586;
1362.9000;0.5193;2.1702;
1363.2000;0.5177;2.1656;
1363.5000;0.5218;2.1771;
1363.8000;0.5185;2.1841;
1364.1000;0.5193;2.1748;
1364.4000;0.5201;2.1818;
1364.7000;0.5177;2.1771;
1365.0000;0.5185;2.1679;
1365.3000;0.5210;2.1679;
1365.6000;0.5218;2.1702;
1365.9000;0.5153;2.1702;
1366.2000;0.5153;2.1725;
1366.5000;0.5185;2.1818;
1366.8000;0.5193;2.1748;
1367.1000;0.5112;2.1540;
1367.4000;0.5153;2.1586;
1367.7000;0.5201;2.1748;
1368.0000;0.5185;2.1656;
1368.3000;0.5169;2.1679;
1368.6000;0.5153;2.1679;
1368.9000;0.5161;2.1679;
1369.2000;0.5177;2.1679;
1369.5000;0.5153;2.1540;
1369.8000;0.5153;2.1517;
1370.1000;0.5210;2.1609;
1370.4000;0.5169;2.1494;
1370.7000;0.5201;2.1563;
1371.0000;0.5193;2.1517;
1371.3000;0.5193;2.1563;
1371.6000;0.5169;2.1517;
1371.9000;0.5169;2.1563;
1372.2000;0.5169;2.1609;
1372.5000;0.5169;2.1633;
1372.8000;0.5177;2.1748;
1373.1000;0.5185;2.1725;
1373.4000;0.5169;2.1679;
1373.7000;0.5185;2.1748;
1374.0000;0.5177;2.1702;
1374.3000;0.5177;2.1633;
1374.6000;0.5234;2.1910;
1374.9000;0.5185;2.1702;
1375.2000;0.5250;2.1841;
1375.5000;0.5185;2.1748;
1375.8000;0.5185;2.1794;
1376.1000;0.5193;2.1818;
1376.4000;0.5169;2.1725;
1376.7000;0.5193;2.1748;
1377.0000;0.5201;2.1702;
1377.3000;0.5193;2.1725;
1377.6000;0.5193;2.1771;
1377.9000;0.5234;2.2026;
1378.2000;0.5185;2.1980;
1378.5000;0.5185;2.2003;
1378.8000;0.5177;2.1910;
1379.1000;0.5169;2.1910;
1379.4000;0.5185;2.1887;
1379.7000;0.5128;2.1748;
1380.0000;0.5177;2.1841;
1380.3000;0.5185;2.1887;
1380.6000;0.5210;2.1864;
1380.9000;0.5185;2.1794;
1381.2000;0.5185;2.1748;
1381.5000;0.5169;2.1725;
1381.8000;0.5169;2.1771;
1382.1000;0.5193;2.1794;
1382.4000;0.5193;2.1748;
1382.7000;0.5201;2.1679;
1383.0000;0.5169;2.1633;
1383.3000;0.5201;2.1586;
1383.6000;0.5169;2.1494;
1383.9000;0.5161;2.1494;
1384.2000;0.5177;2.1517;
1384.5000;0.5177;2.1633;
1384.8000;0.5218;2.1679;
1385.1000;0.5185;2.1609;
1385.4000;0.5169;2.1609;
1385.7000;0.5185;2.1679;
1386.0000;0.5128;2.1517;
1386.3000;0.5161;2.1517;
1386.6000;0.5185;2.1563;
1386.9000;0.5169;2.1447;
1387.2000;0.5193;2.1471;
1387.5000;0.5120;2.1147;
1387.8000;0.5169;2.1239;
1388.1000;0.5177;2.1309;
1388.4000;0.5177;2.1309;
1388.7000;0.5169;2.1216;
1389.0000;0.5177;2.1124;
1389.3000;0.5169;2.1216;
1389.6000;0.5144;2.1216;
1389.9000;0.5193;2.1309;
1390.2000;0.5185;2.1355;
1390.5000;0.5193;2.1355;
1390.8000;0.5234;2.1447;
1391.1000;0.5161;2.1355;
1391.4000;0.5210;2.1447;
1391.7000;0.5193;2.1378;
1392.0000;0.5185;2.1378;
1392.3000;0.5177;2.1332;
1392.6000;0.5201;2.1355;
1392.9000;0.5161;2.1332;
1393.2000;0.5161;2.1424;
1393.5000;0.5169;2.1494;
1393.8000;0.5177;2.1586;
1394.1000;0.5177;2.1517;
1394.4000;0.5169;2.1540;
1394.7000;0.5169;2.1633;
1395.0000;0.5193;2.1633;
1395.3000;0.5201;2.1586;
1395.6000;0.5169;2.1401;
1395.9000;0.5177;2.1494;
1396.2000;0.5193;2.1517;
1396.5000;0.5210;2.1494;
1396.8000;0.5177;2.1424;
1397.1000;0.5185;2.1401;
1397.4000;0.5210;2.1447;
1397.7000;0.5201;2.1447;
1398.0000;0.5128;2.1309;
1398.3000;0.5201;2.1540;
1398.6000;0.5193;2.1494;
1398.9000;0.5153;2.1355;
1399.2000;0.5193;2.1494;
1399.5000;0.5161;2.1494;
1399.8000;0.5185;2.1517;
