time/ms;Fluo/V;P700 deltaI/I x10³;
-199.8000;0.6138;2.1054;
-199.5000;0.6072;2.0823;
-199.2000;0.6097;2.0800;
-198.9000;0.6081;2.0823;
-198.6000;0.6089;2.0869;
-198.3000;0.6097;2.0869;
-198.0000;0.6064;2.0846;
-197.7000;0.6072;2.0707;
-197.4000;0.6089;2.0730;
-197.1000;0.6089;2.0800;
-196.8000;0.6146;2.0962;
-196.5000;0.6089;2.0638;
-196.2000;0.6089;2.0661;
-195.9000;0.6113;2.0753;
-195.6000;0.6097;2.0730;
-195.3000;0.6072;2.0661;
-195.0000;0.6129;2.0776;
-194.7000;0.6081;2.0591;
-194.4000;0.6081;2.0568;
-194.1000;0.6072;2.0522;
-193.8000;0.6081;2.0522;
-193.5000;0.6097;2.0522;
-193.2000;0.6081;2.0453;
-192.9000;0.6081;2.0591;
-192.6000;0.6154;2.0661;
-192.3000;0.6113;2.0730;
-192.0000;0.6089;2.0753;
-191.7000;0.6113;2.0800;
-191.4000;0.6105;2.0800;
-191.1000;0.6129;2.0892;
-190.8000;0.6097;2.0846;
-190.5000;0.6072;2.0638;
-190.2000;0.6089;2.0661;
-189.9000;0.6097;2.0730;
-189.6000;0.6072;2.0591;
-189.3000;0.6089;2.0638;
-189.0000;0.6089;2.0707;
-188.7000;0.6154;2.0915;
-188.4000;0.6105;2.0800;
-188.1000;0.6105;2.0707;
-187.8000;0.6105;2.0730;
-187.5000;0.6072;2.0707;
-187.2000;0.6048;2.0638;
-186.9000;0.6081;2.0753;
-186.6000;0.6064;2.0823;
-186.3000;0.6089;2.0823;
-186.0000;0.6072;2.0753;
-185.7000;0.6048;2.0776;
-185.4000;0.6081;2.0800;
-185.1000;0.6072;2.0753;
-184.8000;0.6089;2.0776;
-184.5000;0.6081;2.0753;
-184.2000;0.6089;2.0800;
-183.9000;0.6105;2.0823;
-183.6000;0.6089;2.0800;
-183.3000;0.6081;2.0823;
-183.0000;0.6081;2.0846;
-182.7000;0.6072;2.0846;
-182.4000;0.6097;2.0823;
-182.1000;0.6105;2.0892;
-181.8000;0.6081;2.0823;
-181.5000;0.6081;2.0823;
-181.2000;0.6097;2.0800;
-180.9000;0.6113;2.0892;
-180.6000;0.6089;2.0730;
-180.3000;0.6081;2.0615;
-180.0000;0.6089;2.0522;
-179.7000;0.6105;2.0545;
-179.4000;0.6064;2.0429;
-179.1000;0.6064;2.0453;
-178.8000;0.6089;2.0499;
-178.5000;0.6129;2.0591;
-178.2000;0.6081;2.0476;
-177.9000;0.6105;2.0591;
-177.6000;0.6081;2.0499;
-177.3000;0.6072;2.0499;
-177.0000;0.6097;2.0568;
-176.7000;0.6089;2.0591;
-176.4000;0.6081;2.0545;
-176.1000;0.6064;2.0591;
-175.8000;0.6064;2.0684;
-175.5000;0.6064;2.0615;
-175.2000;0.6064;2.0591;
-174.9000;0.6072;2.0591;
-174.6000;0.6097;2.0661;
-174.3000;0.6064;2.0684;
-174.0000;0.6081;2.0707;
-173.7000;0.6048;2.0661;
-173.4000;0.6089;2.0753;
-173.1000;0.6097;2.0800;
-172.8000;0.6081;2.0684;
-172.5000;0.6113;2.0776;
-172.2000;0.6089;2.0707;
-171.9000;0.6089;2.0684;
-171.6000;0.6089;2.0568;
-171.3000;0.6081;2.0545;
-171.0000;0.6072;2.0568;
-170.7000;0.6089;2.0568;
-170.4000;0.6089;2.0545;
-170.1000;0.6089;2.0568;
-169.8000;0.6097;2.0568;
-169.5000;0.6097;2.0568;
-169.2000;0.6089;2.0615;
-168.9000;0.6097;2.0591;
-168.6000;0.6105;2.0661;
-168.3000;0.6064;2.0568;
-168.0000;0.6105;2.0707;
-167.7000;0.6072;2.0684;
-167.4000;0.6072;2.0776;
-167.1000;0.6105;2.0800;
-166.8000;0.6113;2.0776;
-166.5000;0.6072;2.0753;
-166.2000;0.6072;2.0707;
-165.9000;0.6097;2.0753;
-165.6000;0.6081;2.0776;
-165.3000;0.6089;2.0915;
-165.0000;0.6089;2.0823;
-164.7000;0.6081;2.0707;
-164.4000;0.6105;2.0707;
-164.1000;0.6097;2.0776;
-163.8000;0.6089;2.0823;
-163.5000;0.6081;2.0776;
-163.2000;0.6064;2.0730;
-162.9000;0.6089;2.0800;
-162.6000;0.6081;2.0776;
-162.3000;0.6081;2.0707;
-162.0000;0.6064;2.0661;
-161.7000;0.6081;2.0568;
-161.4000;0.6081;2.0499;
-161.1000;0.6072;2.0476;
-160.8000;0.6089;2.0522;
-160.5000;0.6081;2.0406;
-160.2000;0.6089;2.0383;
-159.9000;0.6089;2.0453;
-159.6000;0.6072;2.0453;
-159.3000;0.6081;2.0383;
-159.0000;0.6089;2.0337;
-158.7000;0.6081;2.0314;
-158.4000;0.6089;2.0337;
-158.1000;0.6097;2.0337;
-157.8000;0.6089;2.0337;
-157.5000;0.6121;2.0360;
-157.2000;0.6089;2.0291;
-156.9000;0.6089;2.0360;
-156.6000;0.6089;2.0337;
-156.3000;0.6089;2.0337;
-156.0000;0.6089;2.0453;
-155.7000;0.6089;2.0406;
-155.4000;0.6097;2.0337;
-155.1000;0.6105;2.0383;
-154.8000;0.6105;2.0406;
-154.5000;0.6089;2.0406;
-154.2000;0.6089;2.0429;
-153.9000;0.6105;2.0429;
-153.6000;0.6105;2.0406;
-153.3000;0.6081;2.0453;
-153.0000;0.6097;2.0476;
-152.7000;0.6105;2.0499;
-152.4000;0.6113;2.0453;
-152.1000;0.6113;2.0476;
-151.8000;0.6081;2.0406;
-151.5000;0.6105;2.0429;
-151.2000;0.6089;2.0360;
-150.9000;0.6089;2.0383;
-150.6000;0.6105;2.0453;
-150.3000;0.6064;2.0383;
-150.0000;0.6097;2.0453;
-149.7000;0.6105;2.0522;
-149.4000;0.6081;2.0568;
-149.1000;0.6097;2.0661;
-148.8000;0.6097;2.0684;
-148.5000;0.6105;2.0684;
-148.2000;0.6089;2.0684;
-147.9000;0.6097;2.0776;
-147.6000;0.6121;2.0846;
-147.3000;0.6113;2.0776;
-147.0000;0.6089;2.0800;
-146.7000;0.6081;2.0846;
-146.4000;0.6105;2.0776;
-146.1000;0.6097;2.0800;
-145.8000;0.6024;2.0661;
-145.5000;0.6081;2.0869;
-145.2000;0.6089;2.0869;
-144.9000;0.6089;2.0846;
-144.6000;0.6211;2.1100;
-144.3000;0.6097;2.0869;
-144.0000;0.6064;2.0753;
-143.7000;0.6113;2.0800;
-143.4000;0.6081;2.0753;
-143.1000;0.6056;2.0707;
-142.8000;0.6097;2.0753;
-142.5000;0.6097;2.0776;
-142.2000;0.6113;2.0776;
-141.9000;0.6081;2.0638;
-141.6000;0.6097;2.0615;
-141.3000;0.6072;2.0522;
-141.0000;0.6040;2.0453;
-140.7000;0.6064;2.0522;
-140.4000;0.6081;2.0591;
-140.1000;0.6081;2.0638;
-139.8000;0.6089;2.0684;
-139.5000;0.6097;2.0615;
-139.2000;0.6064;2.0568;
-138.9000;0.6081;2.0591;
-138.6000;0.6097;2.0684;
-138.3000;0.6105;2.0753;
-138.0000;0.6081;2.0776;
-137.7000;0.6089;2.0915;
-137.4000;0.6105;2.0962;
-137.1000;0.6097;2.0938;
-136.8000;0.6064;2.0823;
-136.5000;0.6064;2.0846;
-136.2000;0.6072;2.0846;
-135.9000;0.6072;2.0823;
-135.6000;0.6064;2.0753;
-135.3000;0.6072;2.0730;
-135.0000;0.6089;2.0800;
-134.7000;0.6089;2.0823;
-134.4000;0.6081;2.0753;
-134.1000;0.6089;2.0776;
-133.8000;0.6089;2.0823;
-133.5000;0.6089;2.0776;
-133.2000;0.6113;2.0730;
-132.9000;0.6097;2.0707;
-132.6000;0.6105;2.0753;
-132.3000;0.6105;2.0776;
-132.0000;0.6089;2.0707;
-131.7000;0.6089;2.0684;
-131.4000;0.6024;2.0522;
-131.1000;0.6081;2.0661;
-130.8000;0.6089;2.0661;
-130.5000;0.6089;2.0684;
-130.2000;0.6081;2.0707;
-129.9000;0.6081;2.0707;
-129.6000;0.6097;2.0730;
-129.3000;0.6081;2.0661;
-129.0000;0.6072;2.0638;
-128.7000;0.6089;2.0591;
-128.4000;0.6089;2.0591;
-128.1000;0.6097;2.0661;
-127.8000;0.6081;2.0638;
-127.5000;0.6113;2.0638;
-127.2000;0.6113;2.0615;
-126.9000;0.6113;2.0753;
-126.6000;0.6081;2.0591;
-126.3000;0.6097;2.0615;
-126.0000;0.6089;2.0545;
-125.7000;0.6089;2.0638;
-125.4000;0.6089;2.0661;
-125.1000;0.6056;2.0499;
-124.8000;0.6081;2.0638;
-124.5000;0.6105;2.0753;
-124.2000;0.6089;2.0776;
-123.9000;0.6072;2.0707;
-123.6000;0.6072;2.0776;
-123.3000;0.6097;2.0800;
-123.0000;0.6072;2.0638;
-122.7000;0.6081;2.0615;
-122.4000;0.6089;2.0522;
-122.1000;0.6089;2.0453;
-121.8000;0.6113;2.0476;
-121.5000;0.6097;2.0360;
-121.2000;0.6089;2.0314;
-120.9000;0.6113;2.0383;
-120.6000;0.6089;2.0453;
-120.3000;0.6072;2.0383;
-120.0000;0.6097;2.0360;
-119.7000;0.6072;2.0244;
-119.4000;0.6072;2.0291;
-119.1000;0.6081;2.0337;
-118.8000;0.6040;2.0314;
-118.5000;0.6081;2.0453;
-118.2000;0.6089;2.0522;
-117.9000;0.6097;2.0661;
-117.6000;0.6081;2.0684;
-117.3000;0.6097;2.0591;
-117.0000;0.6089;2.0568;
-116.7000;0.6089;2.0615;
-116.4000;0.6081;2.0638;
-116.1000;0.6089;2.0638;
-115.8000;0.6089;2.0684;
-115.5000;0.6072;2.0661;
-115.2000;0.6081;2.0684;
-114.9000;0.6081;2.0800;
-114.6000;0.6081;2.0753;
-114.3000;0.6105;2.0730;
-114.0000;0.6105;2.0869;
-113.7000;0.6064;2.0707;
-113.4000;0.6072;2.0707;
-113.1000;0.6081;2.0684;
-112.8000;0.6089;2.0869;
-112.5000;0.6105;2.0846;
-112.2000;0.6072;2.0684;
-111.9000;0.6089;2.0823;
-111.6000;0.6113;2.0892;
-111.3000;0.6097;2.0846;
-111.0000;0.6081;2.0684;
-110.7000;0.6105;2.0730;
-110.4000;0.6089;2.0707;
-110.1000;0.6097;2.0707;
-109.8000;0.6097;2.0753;
-109.5000;0.6089;2.0707;
-109.2000;0.6072;2.0615;
-108.9000;0.6097;2.0661;
-108.6000;0.6064;2.0591;
-108.3000;0.6081;2.0661;
-108.0000;0.6081;2.0568;
-107.7000;0.6072;2.0615;
-107.4000;0.6089;2.0684;
-107.1000;0.6081;2.0615;
-106.8000;0.6081;2.0638;
-106.5000;0.6056;2.0753;
-106.2000;0.6097;2.0846;
-105.9000;0.6081;2.0776;
-105.6000;0.6089;2.0707;
-105.3000;0.6064;2.0638;
-105.0000;0.6081;2.0753;
-104.7000;0.6089;2.0776;
-104.4000;0.6064;2.0568;
-104.1000;0.6129;2.0753;
-103.8000;0.6089;2.0684;
-103.5000;0.6105;2.0684;
-103.2000;0.6064;2.0661;
-102.9000;0.6064;2.0707;
-102.6000;0.6089;2.0892;
-102.3000;0.6081;2.0846;
-102.0000;0.6097;2.0823;
-101.7000;0.6195;2.1008;
-101.4000;0.6105;2.0707;
-101.1000;0.6032;2.0568;
-100.8000;0.6081;2.0615;
-100.5000;0.6072;2.0661;
-100.2000;0.6097;2.0707;
-99.9000;0.6081;2.0661;
-99.6000;0.6081;2.0499;
-99.3000;0.6040;2.0429;
-99.0000;0.6089;2.0406;
-98.7000;0.6089;2.0360;
-98.4000;0.6015;2.0314;
-98.1000;0.6081;2.0591;
-97.8000;0.6097;2.0638;
-97.5000;0.6056;2.0638;
-97.2000;0.6048;2.0568;
-96.9000;0.6081;2.0499;
-96.6000;0.6121;2.0638;
-96.3000;0.5991;2.0291;
-96.0000;0.6105;2.0499;
-95.7000;0.6064;2.0406;
-95.4000;0.6072;2.0453;
-95.1000;0.6072;2.0476;
-94.8000;0.6048;2.0453;
-94.5000;0.6097;2.0684;
-94.2000;0.6097;2.0707;
-93.9000;0.6081;2.0661;
-93.6000;0.6105;2.0707;
-93.3000;0.6064;2.0545;
-93.0000;0.6064;2.0522;
-92.7000;0.6097;2.0591;
-92.4000;0.6089;2.0522;
-92.1000;0.6089;2.0522;
-91.8000;0.6064;2.0568;
-91.5000;0.6097;2.0615;
-91.2000;0.6097;2.0661;
-90.9000;0.6048;2.0568;
-90.6000;0.6064;2.0591;
-90.3000;0.6056;2.0591;
-90.0000;0.6089;2.0591;
-89.7000;0.6081;2.0522;
-89.4000;0.6040;2.0476;
-89.1000;0.6089;2.0522;
-88.8000;0.6081;2.0545;
-88.5000;0.6089;2.0522;
-88.2000;0.6072;2.0476;
-87.9000;0.6105;2.0545;
-87.6000;0.6121;2.0615;
-87.3000;0.6007;2.0383;
-87.0000;0.6048;2.0499;
-86.7000;0.6121;2.0638;
-86.4000;0.6064;2.0453;
-86.1000;0.6097;2.0476;
-85.8000;0.6072;2.0406;
-85.5000;0.6064;2.0429;
-85.2000;0.6186;2.0753;
-84.9000;0.6081;2.0499;
-84.6000;0.6105;2.0476;
-84.3000;0.6064;2.0406;
-84.0000;0.6097;2.0476;
-83.7000;0.6072;2.0429;
-83.4000;0.6056;2.0453;
-83.1000;0.6064;2.0429;
-82.8000;0.6072;2.0591;
-82.5000;0.6064;2.0591;
-82.2000;0.6072;2.0638;
-81.9000;0.6121;2.0707;
-81.6000;0.6072;2.0730;
-81.3000;0.6048;2.0684;
-81.0000;0.6072;2.0684;
-80.7000;0.6089;2.0661;
-80.4000;0.6097;2.0615;
-80.1000;0.6138;2.0776;
-79.8000;0.6072;2.0568;
-79.5000;0.6097;2.0568;
-79.2000;0.6097;2.0522;
-78.9000;0.6064;2.0406;
-78.6000;0.6064;2.0522;
-78.3000;0.6089;2.0476;
-78.0000;0.6089;2.0453;
-77.7000;0.6146;2.0661;
-77.4000;0.6089;2.0638;
-77.1000;0.6097;2.0661;
-76.8000;0.6081;2.0591;
-76.5000;0.6089;2.0591;
-76.2000;0.6081;2.0522;
-75.9000;0.6072;2.0591;
-75.6000;0.6072;2.0568;
-75.3000;0.6072;2.0522;
-75.0000;0.6064;2.0545;
-74.7000;0.6048;2.0522;
-74.4000;0.6081;2.0545;
-74.1000;0.6072;2.0545;
-73.8000;0.6064;2.0568;
-73.5000;0.6064;2.0684;
-73.2000;0.6081;2.0661;
-72.9000;0.6081;2.0638;
-72.6000;0.6032;2.0429;
-72.3000;0.6072;2.0453;
-72.0000;0.6089;2.0522;
-71.7000;0.6048;2.0429;
-71.4000;0.6081;2.0499;
-71.1000;0.6072;2.0522;
-70.8000;0.6113;2.0638;
-70.5000;0.6113;2.0638;
-70.2000;0.6089;2.0638;
-69.9000;0.6089;2.0615;
-69.6000;0.6105;2.0684;
-69.3000;0.6072;2.0638;
-69.0000;0.6081;2.0661;
-68.7000;0.6072;2.0591;
-68.4000;0.6089;2.0568;
-68.1000;0.6121;2.0568;
-67.8000;0.6154;2.0684;
-67.5000;0.6072;2.0499;
-67.2000;0.6089;2.0453;
-66.9000;0.6097;2.0499;
-66.6000;0.6064;2.0429;
-66.3000;0.6072;2.0499;
-66.0000;0.6081;2.0453;
-65.7000;0.6072;2.0476;
-65.4000;0.6162;2.0730;
-65.1000;0.6089;2.0568;
-64.8000;0.6105;2.0476;
-64.5000;0.6081;2.0453;
-64.2000;0.6129;2.0568;
-63.9000;0.6097;2.0453;
-63.6000;0.6089;2.0476;
-63.3000;0.6138;2.0545;
-63.0000;0.6072;2.0429;
-62.7000;0.6048;2.0291;
-62.4000;0.6113;2.0291;
-62.1000;0.6089;2.0383;
-61.8000;0.6072;2.0499;
-61.5000;0.6072;2.0499;
-61.2000;0.6138;2.0591;
-60.9000;0.6097;2.0429;
-60.6000;0.6097;2.0337;
-60.3000;0.6081;2.0476;
-60.0000;0.6081;2.0545;
-59.7000;0.6089;2.0591;
-59.4000;0.6081;2.0591;
-59.1000;0.6162;2.0869;
-58.8000;0.6081;2.0661;
-58.5000;0.6089;2.0591;
-58.2000;0.6056;2.0453;
-57.9000;0.6081;2.0499;
-57.6000;0.6097;2.0476;
-57.3000;0.6097;2.0406;
-57.0000;0.6129;2.0499;
-56.7000;0.6032;2.0291;
-56.4000;0.6097;2.0476;
-56.1000;0.6089;2.0476;
-55.8000;0.6072;2.0476;
-55.5000;0.6081;2.0476;
-55.2000;0.6097;2.0522;
-54.9000;0.6081;2.0429;
-54.6000;0.6081;2.0522;
-54.3000;0.6089;2.0522;
-54.0000;0.6089;2.0568;
-53.7000;0.6154;2.0615;
-53.4000;0.6064;2.0476;
-53.1000;0.6097;2.0499;
-52.8000;0.6146;2.0568;
-52.5000;0.6089;2.0383;
-52.2000;0.6097;2.0383;
-51.9000;0.6072;2.0314;
-51.6000;0.6081;2.0337;
-51.3000;0.6097;2.0406;
-51.0000;0.6072;2.0267;
-50.7000;0.6064;2.0198;
-50.4000;0.6064;2.0175;
-50.1000;0.6072;2.0267;
-49.8000;0.6089;2.0337;
-49.5000;0.6072;2.0291;
-49.2000;0.6089;2.0337;
-48.9000;0.6089;2.0429;
-48.6000;0.6072;2.0429;
-48.3000;0.6097;2.0499;
-48.0000;0.6081;2.0429;
-47.7000;0.6072;2.0406;
-47.4000;0.6097;2.0406;
-47.1000;0.6072;2.0244;
-46.8000;0.6072;2.0244;
-46.5000;0.6048;2.0314;
-46.2000;0.6072;2.0337;
-45.9000;0.6097;2.0429;
-45.6000;0.6089;2.0406;
-45.3000;0.6032;2.0267;
-45.0000;0.6113;2.0453;
-44.7000;0.6097;2.0476;
-44.4000;0.6081;2.0406;
-44.1000;0.6032;2.0267;
-43.8000;0.6081;2.0429;
-43.5000;0.6064;2.0476;
-43.2000;0.6097;2.0499;
-42.9000;0.6121;2.0568;
-42.6000;0.6081;2.0429;
-42.3000;0.6097;2.0499;
-42.0000;0.6081;2.0429;
-41.7000;0.6056;2.0267;
-41.4000;0.6056;2.0314;
-41.1000;0.6089;2.0406;
-40.8000;0.6081;2.0476;
-40.5000;0.6138;2.0615;
-40.2000;0.6048;2.0545;
-39.9000;0.6121;2.0730;
-39.6000;0.6081;2.0591;
-39.3000;0.6056;2.0522;
-39.0000;0.6089;2.0545;
-38.7000;0.6097;2.0591;
-38.4000;0.6056;2.0545;
-38.1000;0.6081;2.0684;
-37.8000;0.6064;2.0707;
-37.5000;0.6089;2.0707;
-37.2000;0.6072;2.0684;
-36.9000;0.6089;2.0615;
-36.6000;0.6064;2.0453;
-36.3000;0.6032;2.0383;
-36.0000;0.6081;2.0499;
-35.7000;0.6072;2.0615;
-35.4000;0.6089;2.0615;
-35.1000;0.6089;2.0638;
-34.8000;0.6072;2.0568;
-34.5000;0.6072;2.0476;
-34.2000;0.6072;2.0476;
-33.9000;0.6089;2.0499;
-33.6000;0.6089;2.0522;
-33.3000;0.6081;2.0476;
-33.0000;0.6081;2.0476;
-32.7000;0.6072;2.0429;
-32.4000;0.6064;2.0406;
-32.1000;0.6072;2.0406;
-31.8000;0.6064;2.0383;
-31.5000;0.6072;2.0383;
-31.2000;0.6081;2.0453;
-30.9000;0.6072;2.0383;
-30.6000;0.6048;2.0476;
-30.3000;0.6064;2.0522;
-30.0000;0.6056;2.0499;
-29.7000;0.6056;2.0476;
-29.4000;0.6089;2.0499;
-29.1000;0.6040;2.0244;
-28.8000;0.6056;2.0337;
-28.5000;0.6089;2.0429;
-28.2000;0.6056;2.0360;
-27.9000;0.6081;2.0267;
-27.6000;0.6072;2.0221;
-27.3000;0.6097;2.0314;
-27.0000;0.6072;2.0244;
-26.7000;0.6056;2.0152;
-26.4000;0.6081;2.0175;
-26.1000;0.6064;2.0175;
-25.8000;0.6081;2.0221;
-25.5000;0.6072;2.0291;
-25.2000;0.6072;2.0267;
-24.9000;0.6056;2.0198;
-24.6000;0.6089;2.0198;
-24.3000;0.6178;2.0383;
-24.0000;0.6064;2.0129;
-23.7000;0.6089;2.0198;
-23.4000;0.6105;2.0244;
-23.1000;0.6072;2.0198;
-22.8000;0.6081;2.0198;
-22.5000;0.6048;2.0152;
-22.2000;0.6081;2.0198;
-21.9000;0.6072;2.0175;
-21.6000;0.6072;2.0244;
-21.3000;0.6064;2.0337;
-21.0000;0.6064;2.0337;
-20.7000;0.6072;2.0314;
-20.4000;0.6081;2.0383;
-20.1000;0.6089;2.0383;
-19.8000;0.6064;2.0360;
-19.5000;0.6064;2.0406;
-19.2000;0.6081;2.0429;
-18.9000;0.6072;2.0337;
-18.6000;0.6105;2.0429;
-18.3000;0.6097;2.0383;
-18.0000;0.6064;2.0383;
-17.7000;0.6081;2.0406;
-17.4000;0.6064;2.0291;
-17.1000;0.6048;2.0267;
-16.8000;0.6081;2.0337;
-16.5000;0.6072;2.0360;
-16.2000;0.6040;2.0221;
-15.9000;0.6097;2.0337;
-15.6000;0.6064;2.0291;
-15.3000;0.6072;2.0267;
-15.0000;0.6081;2.0291;
-14.7000;0.6081;2.0221;
-14.4000;0.6089;2.0244;
-14.1000;0.6081;2.0267;
-13.8000;0.6089;2.0291;
-13.5000;0.6064;2.0244;
-13.2000;0.6081;2.0291;
-12.9000;0.6089;2.0221;
-12.6000;0.6072;2.0360;
-12.3000;0.6072;2.0476;
-12.0000;0.6089;2.0453;
-11.7000;0.6081;2.0453;
-11.4000;0.6081;2.0429;
-11.1000;0.6089;2.0453;
-10.8000;0.6081;2.0568;
-10.5000;0.6072;2.0568;
-10.2000;0.6097;2.0615;
-9.9000;0.6056;2.0591;
-9.6000;0.6064;2.0615;
-9.3000;0.6081;2.0707;
-9.0000;0.6081;2.0684;
-8.7000;0.6056;2.0638;
-8.4000;0.6064;2.0684;
-8.1000;0.6072;2.0776;
-7.8000;0.6081;2.0800;
-7.5000;0.6032;2.0684;
-7.2000;0.6089;2.0730;
-6.9000;0.6072;2.0684;
-6.6000;0.6072;2.0661;
-6.3000;0.6072;2.0730;
-6.0000;0.6072;2.0661;
-5.7000;0.6089;2.0684;
-5.4000;0.6089;2.0661;
-5.1000;0.6089;2.0730;
-4.8000;0.6162;2.0823;
-4.5000;0.6105;2.0684;
-4.2000;0.6081;2.0684;
-3.9000;0.6089;2.0615;
-3.6000;0.6097;2.0522;
-3.3000;0.6007;2.0244;
-3.0000;0.6064;2.0360;
-2.7000;0.6072;2.0360;
-2.4000;0.6081;2.0360;
-2.1000;0.6072;2.0337;
-1.8000;0.6097;2.0429;
-1.5000;0.6072;2.0453;
-1.2000;0.6072;2.0337;
-0.9000;0.6081;2.0291;
-0.6000;0.6105;2.0244;
-0.3000;0.6105;2.0198;
0.0000;0.6105;2.0198;
0.3000;0.6276;2.0082;
0.6000;0.6545;2.0429;
0.9000;0.6781;2.0846;
1.2000;0.6919;2.0962;
1.5000;0.7066;2.1170;
1.8000;0.7171;2.1424;
2.1000;0.7228;2.1540;
2.4000;0.7326;2.1679;
2.7000;0.7407;2.1933;
3.0000;0.7440;2.1864;
3.3000;0.7505;2.2003;
3.6000;0.7521;2.2003;
3.9000;0.7586;2.2049;
4.2000;0.7603;2.2003;
4.5000;0.7652;2.2142;
4.8000;0.7684;2.2211;
5.1000;0.7725;2.2211;
5.4000;0.7725;2.2211;
5.7000;0.7757;2.2327;
6.0000;0.7766;2.2465;
6.3000;0.7880;2.2697;
6.6000;0.7798;2.2396;
6.9000;0.7782;2.2373;
7.2000;0.7863;2.2558;
7.5000;0.7904;2.2674;
7.8000;0.7953;2.2743;
8.1000;0.7920;2.2674;
8.4000;0.7928;2.2674;
8.7000;0.7945;2.2651;
9.0000;0.7969;2.2674;
9.3000;0.7993;2.2697;
9.6000;0.7993;2.2720;
9.9000;0.7977;2.2512;
10.2000;0.8034;2.2535;
10.5000;0.8042;2.2604;
10.8000;0.8059;2.2697;
11.1000;0.8059;2.2812;
11.4000;0.8083;2.2789;
11.7000;0.8099;2.2697;
12.0000;0.8124;2.2697;
12.3000;0.8124;2.2743;
12.6000;0.8148;2.2789;
12.9000;0.8140;2.2674;
13.2000;0.8148;2.2720;
13.5000;0.8164;2.2720;
13.8000;0.8173;2.2674;
14.1000;0.8173;2.2651;
14.4000;0.8189;2.2674;
14.7000;0.8213;2.2627;
15.0000;0.8254;2.2674;
15.3000;0.8287;2.2697;
15.6000;0.8238;2.2581;
15.9000;0.8262;2.2651;
16.2000;0.8335;2.2836;
16.5000;0.8270;2.2720;
16.8000;0.8278;2.2697;
17.1000;0.8287;2.2674;
17.4000;0.8295;2.2720;
17.7000;0.8287;2.2697;
18.0000;0.8327;2.2789;
18.3000;0.8417;2.2951;
18.6000;0.8327;2.2720;
18.9000;0.8344;2.2743;
19.2000;0.8303;2.2789;
19.5000;0.8352;2.2766;
19.8000;0.8352;2.2697;
20.1000;0.8303;2.2651;
20.4000;0.8360;2.2720;
20.7000;0.8368;2.2766;
21.0000;0.8376;2.2812;
21.3000;0.8384;2.2905;
21.6000;0.8384;2.2882;
21.9000;0.8417;2.2974;
22.2000;0.8376;2.2836;
22.5000;0.8303;2.2604;
22.8000;0.8457;2.2859;
23.1000;0.8409;2.2604;
23.4000;0.8409;2.2558;
23.7000;0.8400;2.2558;
24.0000;0.8409;2.2581;
24.3000;0.8531;2.2882;
24.6000;0.8425;2.2674;
24.9000;0.8441;2.2720;
25.2000;0.8449;2.2651;
25.5000;0.8457;2.2720;
25.8000;0.8457;2.2651;
26.1000;0.8449;2.2720;
26.4000;0.8506;2.2882;
26.7000;0.8449;2.2836;
27.0000;0.8474;2.2905;
27.3000;0.8457;2.2789;
27.6000;0.8474;2.2789;
27.9000;0.8449;2.2812;
28.2000;0.8449;2.2836;
28.5000;0.8498;2.2789;
28.8000;0.8449;2.2651;
29.1000;0.8531;2.2766;
29.4000;0.8490;2.2674;
29.7000;0.8506;2.2720;
30.0000;0.8474;2.2674;
30.3000;0.8482;2.2743;
30.6000;0.8523;2.2928;
30.9000;0.8490;2.2812;
31.2000;0.8506;2.2812;
31.5000;0.8523;2.2812;
31.8000;0.8490;2.2697;
32.1000;0.8563;2.2859;
32.4000;0.8498;2.2743;
32.7000;0.8563;2.2974;
33.0000;0.8571;2.2998;
33.3000;0.8539;2.2812;
33.6000;0.8531;2.2812;
33.9000;0.8596;2.2951;
34.2000;0.8563;2.2974;
34.5000;0.8563;2.3021;
34.8000;0.8523;2.2928;
35.1000;0.8506;2.2951;
35.4000;0.8580;2.3044;
35.7000;0.8539;2.2859;
36.0000;0.8539;2.2928;
36.3000;0.8539;2.2951;
36.6000;0.8547;2.2974;
36.9000;0.8539;2.3067;
37.2000;0.8571;2.3113;
37.5000;0.8531;2.2859;
37.8000;0.8563;2.2928;
38.1000;0.8547;2.2836;
38.4000;0.8563;2.2928;
38.7000;0.8555;2.2974;
39.0000;0.8531;2.2951;
39.3000;0.8555;2.2998;
39.6000;0.8563;2.2998;
39.9000;0.8563;2.2928;
40.2000;0.8523;2.2859;
40.5000;0.8571;2.2905;
40.8000;0.8563;2.2951;
41.1000;0.8620;2.2951;
41.4000;0.8571;2.2882;
41.7000;0.8588;2.2859;
42.0000;0.8604;2.2928;
42.3000;0.8563;2.2766;
42.6000;0.8580;2.2812;
42.9000;0.8571;2.2789;
43.2000;0.8588;2.2882;
43.5000;0.8571;2.2812;
43.8000;0.8604;2.2859;
44.1000;0.8588;2.2882;
44.4000;0.8596;2.2812;
44.7000;0.8604;2.2882;
45.0000;0.8588;2.2836;
45.3000;0.8531;2.2789;
45.6000;0.8588;2.2905;
45.9000;0.8571;2.2882;
46.2000;0.8580;2.2859;
46.5000;0.8580;2.2766;
46.8000;0.8612;2.2789;
47.1000;0.8604;2.2743;
47.4000;0.8588;2.2627;
47.7000;0.8555;2.2627;
48.0000;0.8604;2.2674;
48.3000;0.8571;2.2697;
48.6000;0.8604;2.2697;
48.9000;0.8628;2.2859;
49.2000;0.8620;2.2789;
49.5000;0.8620;2.2812;
49.8000;0.8612;2.2766;
50.1000;0.8604;2.2859;
50.4000;0.8604;2.2905;
50.7000;0.8604;2.2859;
51.0000;0.8694;2.3136;
51.3000;0.8596;2.2882;
51.6000;0.8612;2.2905;
51.9000;0.8604;2.2928;
52.2000;0.8612;2.2951;
52.5000;0.8604;2.3044;
52.8000;0.8580;2.2951;
53.1000;0.8604;2.2951;
53.4000;0.8604;2.2928;
53.7000;0.8588;2.2905;
54.0000;0.8620;2.2928;
54.3000;0.8547;2.2697;
54.6000;0.8620;2.2836;
54.9000;0.8645;2.2836;
55.2000;0.8661;2.2836;
55.5000;0.8637;2.2766;
55.8000;0.8677;2.2789;
56.1000;0.8628;2.2766;
56.4000;0.8612;2.2766;
56.7000;0.8588;2.2720;
57.0000;0.8628;2.2905;
57.3000;0.8620;2.2951;
57.6000;0.8604;2.2928;
57.9000;0.8612;2.2836;
58.2000;0.8620;2.2789;
58.5000;0.8620;2.2743;
58.8000;0.8653;2.2789;
59.1000;0.8620;2.2651;
59.4000;0.8637;2.2651;
59.7000;0.8620;2.2651;
60.0000;0.8653;2.2697;
60.3000;0.8628;2.2697;
60.6000;0.8637;2.2697;
60.9000;0.8628;2.2697;
61.2000;0.8645;2.2789;
61.5000;0.8637;2.2743;
61.8000;0.8628;2.2697;
62.1000;0.8645;2.2674;
62.4000;0.8645;2.2674;
62.7000;0.8669;2.2859;
63.0000;0.8547;2.2674;
63.3000;0.8628;2.2882;
63.6000;0.8653;2.2859;
63.9000;0.8620;2.2743;
64.2000;0.8637;2.2766;
64.5000;0.8620;2.2789;
64.8000;0.8645;2.2882;
65.1000;0.8653;2.2905;
65.4000;0.8645;2.2928;
65.7000;0.8628;2.2836;
66.0000;0.8637;2.2836;
66.3000;0.8645;2.2812;
66.6000;0.8653;2.2720;
66.9000;0.8645;2.2859;
67.2000;0.8628;2.2766;
67.5000;0.8669;2.2905;
67.8000;0.8653;2.2882;
68.1000;0.8620;2.2789;
68.4000;0.8620;2.2812;
68.7000;0.8694;2.2974;
69.0000;0.8637;2.2836;
69.3000;0.8628;2.2882;
69.6000;0.8612;2.2812;
69.9000;0.8653;2.2905;
70.2000;0.8653;2.2905;
70.5000;0.8645;2.2905;
70.8000;0.8612;2.2812;
71.1000;0.8653;2.2836;
71.4000;0.8685;2.2882;
71.7000;0.8694;2.2951;
72.0000;0.8661;2.2928;
72.3000;0.8596;2.2766;
72.6000;0.8661;2.2905;
72.9000;0.8669;2.2836;
73.2000;0.8604;2.2627;
73.5000;0.8596;2.2535;
73.8000;0.8604;2.2535;
74.1000;0.8661;2.2743;
74.4000;0.8612;2.2674;
74.7000;0.8669;2.2720;
75.0000;0.8661;2.2789;
75.3000;0.8637;2.2766;
75.6000;0.8669;2.2812;
75.9000;0.8653;2.2743;
76.2000;0.8612;2.2651;
76.5000;0.8669;2.2789;
76.8000;0.8661;2.2812;
77.1000;0.8661;2.2789;
77.4000;0.8661;2.2859;
77.7000;0.8653;2.2905;
78.0000;0.8661;2.2882;
78.3000;0.8628;2.2812;
78.6000;0.8645;2.2812;
78.9000;0.8661;2.2766;
79.2000;0.8669;2.2812;
79.5000;0.8645;2.2720;
79.8000;0.8645;2.2812;
80.1000;0.8661;2.2789;
80.4000;0.8661;2.2812;
80.7000;0.8645;2.2720;
81.0000;0.8661;2.2720;
81.3000;0.8669;2.2789;
81.6000;0.8653;2.2766;
81.9000;0.8653;2.2766;
82.2000;0.8677;2.2789;
82.5000;0.8645;2.2720;
82.8000;0.8710;2.2905;
83.1000;0.8637;2.2766;
83.4000;0.8661;2.2882;
83.7000;0.8653;2.2882;
84.0000;0.8645;2.2836;
84.3000;0.8653;2.2882;
84.6000;0.8661;2.2882;
84.9000;0.8669;2.2998;
85.2000;0.8677;2.3021;
85.5000;0.8661;2.2951;
85.8000;0.8677;2.2998;
86.1000;0.8661;2.2882;
86.4000;0.8669;2.2859;
86.7000;0.8669;2.2882;
87.0000;0.8661;2.2905;
87.3000;0.8661;2.2905;
87.6000;0.8620;2.2928;
87.9000;0.8677;2.2951;
88.2000;0.8677;2.2974;
88.5000;0.8669;2.2928;
88.8000;0.8645;2.2836;
89.1000;0.8669;2.2882;
89.4000;0.8669;2.2859;
89.7000;0.8653;2.2789;
90.0000;0.8653;2.2836;
90.3000;0.8661;2.2836;
90.6000;0.8669;2.2905;
90.9000;0.8726;2.3021;
91.2000;0.8661;2.2928;
91.5000;0.8702;2.3090;
91.8000;0.8677;2.3067;
92.1000;0.8661;2.2951;
92.4000;0.8637;2.2882;
92.7000;0.8612;2.2766;
93.0000;0.8588;2.2651;
93.3000;0.8685;2.2836;
93.6000;0.8653;2.2720;
93.9000;0.8645;2.2720;
94.2000;0.8661;2.2789;
94.5000;0.8653;2.2789;
94.8000;0.8669;2.2812;
95.1000;0.8661;2.2766;
95.4000;0.8645;2.2789;
95.7000;0.8767;2.2951;
96.0000;0.8685;2.2789;
96.3000;0.8669;2.2720;
96.6000;0.8661;2.2743;
96.9000;0.8694;2.2766;
97.2000;0.8669;2.2766;
97.5000;0.8661;2.2928;
97.8000;0.8669;2.2905;
98.1000;0.8661;2.2882;
98.4000;0.8669;2.2859;
98.7000;0.8653;2.2951;
99.0000;0.8661;2.2998;
99.3000;0.8653;2.3044;
99.6000;0.8669;2.3044;
99.9000;0.8702;2.3067;
100.2000;0.8669;2.2951;
100.5000;0.8645;2.2974;
100.8000;0.8653;2.2882;
101.1000;0.8669;2.2882;
101.4000;0.8669;2.2928;
101.7000;0.8661;2.2998;
102.0000;0.8653;2.2905;
102.3000;0.8669;2.2859;
102.6000;0.8669;2.2836;
102.9000;0.8677;2.2882;
103.2000;0.8677;2.2905;
103.5000;0.8685;2.2812;
103.8000;0.8677;2.2836;
104.1000;0.8677;2.2882;
104.4000;0.8669;2.2882;
104.7000;0.8677;2.2882;
105.0000;0.8669;2.2720;
105.3000;0.8677;2.2812;
105.6000;0.8645;2.2812;
105.9000;0.8669;2.2766;
106.2000;0.8661;2.2697;
106.5000;0.8645;2.2604;
106.8000;0.8637;2.2674;
107.1000;0.8653;2.2743;
107.4000;0.8661;2.2789;
107.7000;0.8653;2.2836;
108.0000;0.8726;2.3160;
108.3000;0.8653;2.2905;
108.6000;0.8661;2.2812;
108.9000;0.8669;2.2882;
109.2000;0.8669;2.2836;
109.5000;0.8685;2.2812;
109.8000;0.8669;2.2836;
110.1000;0.8661;2.2836;
110.4000;0.8612;2.2720;
110.7000;0.8669;2.2859;
111.0000;0.8661;2.2789;
111.3000;0.8653;2.2651;
111.6000;0.8653;2.2627;
111.9000;0.8661;2.2697;
112.2000;0.8677;2.2766;
112.5000;0.8685;2.2789;
112.8000;0.8685;2.2743;
113.1000;0.8677;2.2720;
113.4000;0.8669;2.2766;
113.7000;0.8685;2.2789;
114.0000;0.8685;2.2789;
114.3000;0.8620;2.2651;
114.6000;0.8661;2.2766;
114.9000;0.8604;2.2651;
115.2000;0.8628;2.2720;
115.5000;0.8563;2.2674;
115.8000;0.8620;2.2836;
116.1000;0.8661;2.2905;
116.4000;0.8669;2.2859;
116.7000;0.8718;2.2951;
117.0000;0.8669;2.2836;
117.3000;0.8685;2.2974;
117.6000;0.8661;2.2928;
117.9000;0.8669;2.3021;
118.2000;0.8677;2.2951;
118.5000;0.8685;2.2951;
118.8000;0.8685;2.2998;
119.1000;0.8677;2.2998;
119.4000;0.8661;2.2998;
119.7000;0.8669;2.2928;
120.0000;0.8669;2.2882;
120.3000;0.8669;2.2859;
120.6000;0.8669;2.2928;
120.9000;0.8783;2.3090;
121.2000;0.8653;2.2720;
121.5000;0.8677;2.2812;
121.8000;0.8685;2.2836;
122.1000;0.8661;2.2812;
122.4000;0.8620;2.2836;
122.7000;0.8799;2.3206;
123.0000;0.8685;2.2974;
123.3000;0.8677;2.2905;
123.6000;0.8661;2.2928;
123.9000;0.8661;2.2951;
124.2000;0.8677;2.3021;
124.5000;0.8669;2.2905;
124.8000;0.8588;2.2720;
125.1000;0.8685;2.2928;
125.4000;0.8669;2.2836;
125.7000;0.8596;2.2512;
126.0000;0.8669;2.2674;
126.3000;0.8710;2.2674;
126.6000;0.8694;2.2720;
126.9000;0.8685;2.2743;
127.2000;0.8669;2.2743;
127.5000;0.8694;2.2743;
127.8000;0.8702;2.2812;
128.1000;0.8702;2.2882;
128.4000;0.8677;2.2812;
128.7000;0.8669;2.2743;
129.0000;0.8685;2.2697;
129.3000;0.8661;2.2697;
129.6000;0.8677;2.2766;
129.9000;0.8669;2.2882;
130.2000;0.8759;2.3021;
130.5000;0.8685;2.2859;
130.8000;0.8661;2.2766;
131.1000;0.8661;2.2743;
131.4000;0.8685;2.2789;
131.7000;0.8685;2.2859;
132.0000;0.8661;2.2720;
132.3000;0.8677;2.2743;
132.6000;0.8685;2.2766;
132.9000;0.8694;2.2789;
133.2000;0.8669;2.2720;
133.5000;0.8710;2.2905;
133.8000;0.8685;2.2951;
134.1000;0.8742;2.3160;
134.4000;0.8661;2.2998;
134.7000;0.8669;2.2951;
135.0000;0.8588;2.2720;
135.3000;0.8677;2.2882;
135.6000;0.8645;2.2720;
135.9000;0.8751;2.3021;
136.2000;0.8751;2.3113;
136.5000;0.8677;2.2974;
136.8000;0.8702;2.3067;
137.1000;0.8685;2.3044;
137.4000;0.8677;2.2974;
137.7000;0.8685;2.2974;
138.0000;0.8694;2.2928;
138.3000;0.8669;2.2905;
138.6000;0.8677;2.3021;
138.9000;0.8718;2.3067;
139.2000;0.8669;2.3021;
139.5000;0.8685;2.3044;
139.8000;0.8718;2.3113;
140.1000;0.8677;2.2974;
140.4000;0.8694;2.3044;
140.7000;0.8685;2.2998;
141.0000;0.8669;2.2928;
141.3000;0.8661;2.2812;
141.6000;0.8677;2.2951;
141.9000;0.8677;2.2928;
142.2000;0.8677;2.2974;
142.5000;0.8685;2.2905;
142.8000;0.8677;2.2905;
143.1000;0.8694;2.2882;
143.4000;0.8726;2.2951;
143.7000;0.8669;2.2766;
144.0000;0.8710;2.2836;
144.3000;0.8685;2.2766;
144.6000;0.8661;2.2674;
144.9000;0.8677;2.2766;
145.2000;0.8677;2.2743;
145.5000;0.8563;2.2419;
145.8000;0.8653;2.2651;
146.1000;0.8685;2.2651;
146.4000;0.8669;2.2674;
146.7000;0.8669;2.2720;
147.0000;0.8645;2.2674;
147.3000;0.8661;2.2743;
147.6000;0.8710;2.2789;
147.9000;0.8669;2.2812;
148.2000;0.8685;2.2859;
148.5000;0.8677;2.2882;
148.8000;0.8718;2.2951;
149.1000;0.8661;2.2859;
149.4000;0.8685;2.2951;
149.7000;0.8677;2.2951;
150.0000;0.8661;2.2859;
150.3000;0.8677;2.2928;
150.6000;0.8677;2.2998;
150.9000;0.8677;2.2974;
151.2000;0.8685;2.2905;
151.5000;0.8661;2.2836;
151.8000;0.8677;2.2766;
152.1000;0.8669;2.2789;
152.4000;0.8783;2.3113;
152.7000;0.8718;2.3044;
153.0000;0.8677;2.2951;
153.3000;0.8726;2.2998;
153.6000;0.8685;2.2812;
153.9000;0.8710;2.2928;
154.2000;0.8612;2.2697;
154.5000;0.8677;2.2812;
154.8000;0.8694;2.2766;
155.1000;0.8661;2.2743;
155.4000;0.8685;2.2743;
155.7000;0.8702;2.2812;
156.0000;0.8685;2.2812;
156.3000;0.8661;2.2789;
156.6000;0.8694;2.2882;
156.9000;0.8669;2.2812;
157.2000;0.8645;2.2812;
157.5000;0.8694;2.2928;
157.8000;0.8685;2.2859;
158.1000;0.8702;2.2789;
158.4000;0.8685;2.2812;
158.7000;0.8685;2.2720;
159.0000;0.8702;2.2697;
159.3000;0.8661;2.2558;
159.6000;0.8669;2.2581;
159.9000;0.8734;2.2766;
160.2000;0.8685;2.2627;
160.5000;0.8661;2.2627;
160.8000;0.8661;2.2674;
161.1000;0.8661;2.2651;
161.4000;0.8669;2.2674;
161.7000;0.8637;2.2558;
162.0000;0.8669;2.2720;
162.3000;0.8637;2.2604;
162.6000;0.8669;2.2627;
162.9000;0.8669;2.2651;
163.2000;0.8677;2.2674;
163.5000;0.8685;2.2836;
163.8000;0.8685;2.2882;
164.1000;0.8726;2.3113;
164.4000;0.8677;2.3021;
164.7000;0.8685;2.3044;
165.0000;0.8702;2.3113;
165.3000;0.8685;2.3044;
165.6000;0.8677;2.2974;
165.9000;0.8685;2.3021;
166.2000;0.8677;2.2882;
166.5000;0.8710;2.2882;
166.8000;0.8685;2.2859;
167.1000;0.8702;2.2836;
167.4000;0.8661;2.2697;
167.7000;0.8694;2.2697;
168.0000;0.8685;2.2720;
168.3000;0.8628;2.2489;
168.6000;0.8702;2.2674;
168.9000;0.8685;2.2766;
169.2000;0.8645;2.2766;
169.5000;0.8555;2.2558;
169.8000;0.8824;2.3160;
170.1000;0.8677;2.2789;
170.4000;0.8669;2.2743;
170.7000;0.8677;2.2743;
171.0000;0.8669;2.2766;
171.3000;0.8669;2.2789;
171.6000;0.8669;2.2859;
171.9000;0.8669;2.2882;
172.2000;0.8645;2.2859;
172.5000;0.8677;2.2928;
172.8000;0.8612;2.2720;
173.1000;0.8661;2.2859;
173.4000;0.8677;2.2789;
173.7000;0.8685;2.2789;
174.0000;0.8669;2.2720;
174.3000;0.8669;2.2766;
174.6000;0.8677;2.2743;
174.9000;0.8677;2.2720;
175.2000;0.8685;2.2697;
175.5000;0.8685;2.2674;
175.8000;0.8694;2.2697;
176.1000;0.8669;2.2674;
176.4000;0.8669;2.2651;
176.7000;0.8669;2.2627;
177.0000;0.8685;2.2697;
177.3000;0.8669;2.2581;
177.6000;0.8669;2.2558;
177.9000;0.8702;2.2720;
178.2000;0.8677;2.2789;
178.5000;0.8661;2.2836;
178.8000;0.8685;2.2836;
179.1000;0.8685;2.2905;
179.4000;0.8677;2.2882;
179.7000;0.8677;2.2882;
180.0000;0.8661;2.2789;
180.3000;0.8685;2.2836;
180.6000;0.8669;2.2720;
180.9000;0.8685;2.2766;
181.2000;0.8702;2.2836;
181.5000;0.8669;2.2743;
181.8000;0.8677;2.2697;
182.1000;0.8669;2.2766;
182.4000;0.8669;2.2789;
182.7000;0.8694;2.2812;
183.0000;0.8677;2.2789;
183.3000;0.8661;2.2789;
183.6000;0.8677;2.2743;
183.9000;0.8685;2.2859;
184.2000;0.8685;2.2905;
184.5000;0.8702;2.2974;
184.8000;0.8653;2.2882;
185.1000;0.8685;2.2836;
185.4000;0.8661;2.2789;
185.7000;0.8759;2.2928;
186.0000;0.8685;2.2743;
186.3000;0.8677;2.2720;
186.6000;0.8685;2.2766;
186.9000;0.8742;2.2905;
187.2000;0.8685;2.2720;
187.5000;0.8661;2.2697;
187.8000;0.8677;2.2789;
188.1000;0.8710;2.2882;
188.4000;0.8677;2.2859;
188.7000;0.8694;2.2882;
189.0000;0.8677;2.2859;
189.3000;0.8710;2.2882;
189.6000;0.8685;2.2859;
189.9000;0.8677;2.2882;
190.2000;0.8677;2.2812;
190.5000;0.8685;2.2859;
190.8000;0.8685;2.2859;
191.1000;0.8685;2.2789;
191.4000;0.8734;2.2998;
191.7000;0.8694;2.2998;
192.0000;0.8694;2.2998;
192.3000;0.8685;2.2928;
192.6000;0.8685;2.2859;
192.9000;0.8694;2.2882;
193.2000;0.8685;2.2905;
193.5000;0.8702;2.2836;
193.8000;0.8677;2.2789;
194.1000;0.8710;2.2905;
194.4000;0.8694;2.2928;
194.7000;0.8694;2.2905;
195.0000;0.8669;2.2836;
195.3000;0.8694;2.2928;
195.6000;0.8685;2.2928;
195.9000;0.8694;2.2974;
196.2000;0.8669;2.2905;
196.5000;0.8685;2.2974;
196.8000;0.8702;2.3067;
197.1000;0.8653;2.2998;
197.4000;0.8669;2.3021;
197.7000;0.8677;2.2974;
198.0000;0.8669;2.2998;
198.3000;0.8669;2.3113;
198.6000;0.8661;2.3160;
198.9000;0.8661;2.3113;
199.2000;0.8685;2.3113;
199.5000;0.8677;2.3021;
199.8000;0.8685;2.3021;
200.1000;0.8685;2.2998;
200.4000;0.8718;2.3021;
200.7000;0.8677;2.2905;
201.0000;0.8694;2.2882;
201.3000;0.8685;2.2812;
201.6000;0.8669;2.2836;
201.9000;0.8669;2.2812;
202.2000;0.8685;2.2951;
202.5000;0.8685;2.2998;
202.8000;0.8653;2.2998;
203.1000;0.8702;2.3044;
203.4000;0.8669;2.2974;
203.7000;0.8669;2.2882;
204.0000;0.8677;2.2882;
204.3000;0.8677;2.2905;
204.6000;0.8702;2.3021;
204.9000;0.8677;2.2951;
205.2000;0.8669;2.2974;
205.5000;0.8653;2.2882;
205.8000;0.8694;2.2974;
206.1000;0.8685;2.2951;
206.4000;0.8685;2.2998;
206.7000;0.8694;2.2951;
207.0000;0.8685;2.2928;
207.3000;0.8677;2.2951;
207.6000;0.8718;2.2928;
207.9000;0.8677;2.2766;
208.2000;0.8694;2.2836;
208.5000;0.8726;2.2882;
208.8000;0.8685;2.2882;
209.1000;0.8685;2.2882;
209.4000;0.8694;2.2812;
209.7000;0.8645;2.2697;
210.0000;0.8702;2.2812;
210.3000;0.8685;2.2859;
210.6000;0.8702;2.2789;
210.9000;0.8685;2.2766;
211.2000;0.8694;2.2836;
211.5000;0.8685;2.2789;
211.8000;0.8718;2.2766;
212.1000;0.8694;2.2743;
212.4000;0.8767;2.2928;
212.7000;0.8677;2.2720;
213.0000;0.8685;2.2789;
213.3000;0.8661;2.2812;
213.6000;0.8702;2.2882;
213.9000;0.8677;2.2928;
214.2000;0.8677;2.2998;
214.5000;0.8685;2.2974;
214.8000;0.8677;2.2859;
215.1000;0.8685;2.2720;
215.4000;0.8685;2.2674;
215.7000;0.8685;2.2604;
216.0000;0.8661;2.2651;
216.3000;0.8694;2.2789;
216.6000;0.8677;2.2697;
216.9000;0.8685;2.2697;
217.2000;0.8694;2.2627;
217.5000;0.8628;2.2512;
217.8000;0.8677;2.2604;
218.1000;0.8677;2.2627;
218.4000;0.8661;2.2651;
218.7000;0.8726;2.2789;
219.0000;0.8669;2.2674;
219.3000;0.8669;2.2604;
219.6000;0.8661;2.2581;
219.9000;0.8694;2.2627;
220.2000;0.8677;2.2558;
220.5000;0.8694;2.2581;
220.8000;0.8677;2.2489;
221.1000;0.8677;2.2535;
221.4000;0.8661;2.2558;
221.7000;0.8677;2.2674;
222.0000;0.8669;2.2627;
222.3000;0.8710;2.2674;
222.6000;0.8694;2.2743;
222.9000;0.8694;2.2928;
223.2000;0.8685;2.2928;
223.5000;0.8694;2.2905;
223.8000;0.8685;2.2836;
224.1000;0.8677;2.2812;
224.4000;0.8677;2.2905;
224.7000;0.8677;2.2905;
225.0000;0.8694;2.2905;
225.3000;0.8677;2.2836;
225.6000;0.8645;2.2859;
225.9000;0.8669;2.2836;
226.2000;0.8669;2.2928;
226.5000;0.8677;2.2951;
226.8000;0.8637;2.2743;
227.1000;0.8677;2.2766;
227.4000;0.8694;2.2697;
227.7000;0.8685;2.2627;
228.0000;0.8677;2.2697;
228.3000;0.8677;2.2789;
228.6000;0.8645;2.2697;
228.9000;0.8645;2.2674;
229.2000;0.8677;2.2627;
229.5000;0.8661;2.2651;
229.8000;0.8661;2.2674;
230.1000;0.8694;2.2651;
230.4000;0.8669;2.2512;
230.7000;0.8661;2.2489;
231.0000;0.8710;2.2651;
231.3000;0.8726;2.2743;
231.6000;0.8669;2.2604;
231.9000;0.8702;2.2674;
232.2000;0.8637;2.2558;
232.5000;0.8653;2.2604;
232.8000;0.8653;2.2604;
233.1000;0.8734;2.2766;
233.4000;0.8702;2.2743;
233.7000;0.8702;2.2720;
234.0000;0.8694;2.2697;
234.3000;0.8702;2.2789;
234.6000;0.8710;2.2905;
234.9000;0.8759;2.3090;
235.2000;0.8685;2.2928;
235.5000;0.8677;2.2882;
235.8000;0.8685;2.2928;
236.1000;0.8702;2.2951;
236.4000;0.8685;2.2905;
236.7000;0.8767;2.3160;
237.0000;0.8694;2.3021;
237.3000;0.8702;2.2928;
237.6000;0.8685;2.2859;
237.9000;0.8702;2.2882;
238.2000;0.8677;2.2812;
238.5000;0.8702;2.2812;
238.8000;0.8620;2.2674;
239.1000;0.8669;2.2697;
239.4000;0.8669;2.2720;
239.7000;0.8669;2.2697;
240.0000;0.8742;2.2812;
240.3000;0.8637;2.2512;
240.6000;0.8685;2.2604;
240.9000;0.8694;2.2604;
241.2000;0.8661;2.2627;
241.5000;0.8694;2.2766;
241.8000;0.8751;2.3021;
242.1000;0.8677;2.2928;
242.4000;0.8694;2.2974;
242.7000;0.8677;2.2882;
243.0000;0.8718;2.2951;
243.3000;0.8612;2.2627;
243.6000;0.8734;2.3044;
243.9000;0.8628;2.2928;
244.2000;0.8751;2.3183;
244.5000;0.8685;2.3113;
244.8000;0.8580;2.2789;
245.1000;0.8669;2.2951;
245.4000;0.8669;2.3021;
245.7000;0.8694;2.2998;
246.0000;0.8710;2.2951;
246.3000;0.8677;2.2766;
246.6000;0.8694;2.2836;
246.9000;0.8694;2.2812;
247.2000;0.8669;2.2720;
247.5000;0.8661;2.2766;
247.8000;0.8685;2.2812;
248.1000;0.8669;2.2743;
248.4000;0.8694;2.2789;
248.7000;0.8669;2.2766;
249.0000;0.8596;2.2604;
249.3000;0.8685;2.2812;
249.6000;0.8685;2.2836;
249.9000;0.8677;2.2812;
250.2000;0.8702;2.2905;
250.5000;0.8677;2.2789;
250.8000;0.8677;2.2766;
251.1000;0.8710;2.2882;
251.4000;0.8677;2.2766;
251.7000;0.8669;2.2743;
252.0000;0.8694;2.2812;
252.3000;0.8710;2.2882;
252.6000;0.8694;2.2812;
252.9000;0.8661;2.2743;
253.2000;0.8799;2.3113;
253.5000;0.8710;2.2905;
253.8000;0.8677;2.2812;
254.1000;0.8677;2.2743;
254.4000;0.8694;2.2836;
254.7000;0.8718;2.2882;
255.0000;0.8685;2.2674;
255.3000;0.8685;2.2743;
255.6000;0.8694;2.2789;
255.9000;0.8694;2.2766;
256.2000;0.8694;2.2789;
256.5000;0.8694;2.2720;
256.8000;0.8677;2.2627;
257.1000;0.8702;2.2674;
257.4000;0.8718;2.2766;
257.7000;0.8702;2.2766;
258.0000;0.8685;2.2789;
258.3000;0.8685;2.2766;
258.6000;0.8661;2.2720;
258.9000;0.8694;2.2789;
259.2000;0.8661;2.2743;
259.5000;0.8694;2.2766;
259.8000;0.8677;2.2720;
260.1000;0.8751;2.2998;
260.4000;0.8669;2.2859;
260.7000;0.8685;2.2928;
261.0000;0.8694;2.2882;
261.3000;0.8677;2.2743;
261.6000;0.8677;2.2743;
261.9000;0.8694;2.2697;
262.2000;0.8702;2.2859;
262.5000;0.8677;2.2836;
262.8000;0.8685;2.2674;
263.1000;0.8653;2.2651;
263.4000;0.8726;2.2812;
263.7000;0.8702;2.2720;
264.0000;0.8718;2.2882;
264.3000;0.8588;2.2697;
264.6000;0.8661;2.2905;
264.9000;0.8694;2.2974;
265.2000;0.8734;2.2974;
265.5000;0.8694;2.2859;
265.8000;0.8669;2.2812;
266.1000;0.8694;2.2859;
266.4000;0.8677;2.2743;
266.7000;0.8685;2.2789;
267.0000;0.8751;2.2905;
267.3000;0.8669;2.2812;
267.6000;0.8677;2.2859;
267.9000;0.8685;2.2836;
268.2000;0.8742;2.2928;
268.5000;0.8694;2.2905;
268.8000;0.8685;2.2766;
269.1000;0.8661;2.2697;
269.4000;0.8710;2.2789;
269.7000;0.8694;2.2697;
270.0000;0.8694;2.2697;
270.3000;0.8677;2.2697;
270.6000;0.8694;2.2651;
270.9000;0.8694;2.2604;
271.2000;0.8685;2.2604;
271.5000;0.8694;2.2674;
271.8000;0.8694;2.2766;
272.1000;0.8694;2.2720;
272.4000;0.8694;2.2674;
272.7000;0.8677;2.2627;
273.0000;0.8677;2.2604;
273.3000;0.8702;2.2627;
273.6000;0.8685;2.2627;
273.9000;0.8669;2.2697;
274.2000;0.8645;2.2604;
274.5000;0.8669;2.2674;
274.8000;0.8677;2.2627;
275.1000;0.8710;2.2743;
275.4000;0.8677;2.2627;
275.7000;0.8677;2.2558;
276.0000;0.8694;2.2581;
276.3000;0.8677;2.2604;
276.6000;0.8685;2.2535;
276.9000;0.8694;2.2558;
277.2000;0.8677;2.2558;
277.5000;0.8718;2.2604;
277.8000;0.8677;2.2535;
278.1000;0.8694;2.2651;
278.4000;0.8661;2.2581;
278.7000;0.8685;2.2604;
279.0000;0.8702;2.2604;
279.3000;0.8677;2.2604;
279.6000;0.8620;2.2535;
279.9000;0.8580;2.2489;
280.2000;0.8685;2.2697;
280.5000;0.8677;2.2651;
280.8000;0.8694;2.2674;
281.1000;0.8677;2.2558;
281.4000;0.8677;2.2604;
281.7000;0.8661;2.2558;
282.0000;0.8677;2.2465;
282.3000;0.8710;2.2674;
282.6000;0.8653;2.2651;
282.9000;0.8734;2.2766;
283.2000;0.8775;2.2928;
283.5000;0.8677;2.2812;
283.8000;0.8628;2.2720;
284.1000;0.8669;2.2905;
284.4000;0.8677;2.2951;
284.7000;0.8669;2.2905;
285.0000;0.8669;2.2974;
285.3000;0.8742;2.3113;
285.6000;0.8685;2.2974;
285.9000;0.8718;2.2951;
286.2000;0.8685;2.2905;
286.5000;0.8628;2.2789;
286.8000;0.8677;2.2882;
287.1000;0.8685;2.2882;
287.4000;0.8685;2.2928;
287.7000;0.8677;2.2882;
288.0000;0.8685;2.2928;
288.3000;0.8710;2.2882;
288.6000;0.8661;2.2766;
288.9000;0.8694;2.2859;
289.2000;0.8694;2.2789;
289.5000;0.8685;2.2812;
289.8000;0.8685;2.2836;
290.1000;0.8685;2.2789;
290.4000;0.8710;2.2789;
290.7000;0.8694;2.2766;
291.0000;0.8685;2.2743;
291.3000;0.8685;2.2743;
291.6000;0.8694;2.2766;
291.9000;0.8661;2.2743;
292.2000;0.8677;2.2766;
292.5000;0.8685;2.2743;
292.8000;0.8677;2.2836;
293.1000;0.8694;2.2905;
293.4000;0.8694;2.2859;
293.7000;0.8694;2.2789;
294.0000;0.8694;2.2674;
294.3000;0.8685;2.2627;
294.6000;0.8694;2.2674;
294.9000;0.8677;2.2627;
295.2000;0.8685;2.2697;
295.5000;0.8702;2.2674;
295.8000;0.8677;2.2604;
296.1000;0.8653;2.2627;
296.4000;0.8645;2.2651;
296.7000;0.8694;2.2743;
297.0000;0.8637;2.2604;
297.3000;0.8685;2.2651;
297.6000;0.8677;2.2627;
297.9000;0.8669;2.2627;
298.2000;0.8702;2.2720;
298.5000;0.8685;2.2697;
298.8000;0.8661;2.2743;
299.1000;0.8677;2.2743;
299.4000;0.8685;2.2720;
299.7000;0.8726;2.2812;
300.0000;0.8702;2.2720;
300.3000;0.8710;2.2743;
300.6000;0.8645;2.2697;
300.9000;0.8694;2.2720;
301.2000;0.8734;2.2859;
301.5000;0.8726;2.2951;
301.8000;0.8669;2.2859;
302.1000;0.8677;2.2928;
302.4000;0.8645;2.2882;
302.7000;0.8685;2.3021;
303.0000;0.8685;2.3044;
303.3000;0.8694;2.3044;
303.6000;0.8710;2.3113;
303.9000;0.8661;2.2928;
304.2000;0.8718;2.3067;
304.5000;0.8628;2.2905;
304.8000;0.8685;2.3044;
305.1000;0.8694;2.2974;
305.4000;0.8685;2.2951;
305.7000;0.8645;2.2882;
306.0000;0.8685;2.2974;
306.3000;0.8685;2.2928;
306.6000;0.8677;2.2882;
306.9000;0.8620;2.2627;
307.2000;0.8669;2.2697;
307.5000;0.8645;2.2627;
307.8000;0.8751;2.2928;
308.1000;0.8694;2.2766;
308.4000;0.8702;2.2789;
308.7000;0.8677;2.2697;
309.0000;0.8677;2.2720;
309.3000;0.8702;2.2743;
309.6000;0.8685;2.2743;
309.9000;0.8653;2.2627;
310.2000;0.8685;2.2697;
310.5000;0.8694;2.2674;
310.8000;0.8694;2.2743;
311.1000;0.8702;2.2812;
311.4000;0.8685;2.2859;
311.7000;0.8685;2.2882;
312.0000;0.8669;2.2882;
312.3000;0.8645;2.2859;
312.6000;0.8677;2.2859;
312.9000;0.8653;2.2836;
313.2000;0.8669;2.2859;
313.5000;0.8661;2.2789;
313.8000;0.8661;2.2812;
314.1000;0.8677;2.2928;
314.4000;0.8685;2.2905;
314.7000;0.8661;2.2905;
315.0000;0.8653;2.2974;
315.3000;0.8694;2.2998;
315.6000;0.8685;2.2928;
315.9000;0.8702;2.3044;
316.2000;0.8702;2.2974;
316.5000;0.8661;2.2859;
316.8000;0.8669;2.2905;
317.1000;0.8685;2.2998;
317.4000;0.8677;2.2882;
317.7000;0.8669;2.2836;
318.0000;0.8661;2.2974;
318.3000;0.8653;2.3021;
318.6000;0.8685;2.3044;
318.9000;0.8694;2.2905;
319.2000;0.8685;2.2905;
319.5000;0.8702;2.2905;
319.8000;0.8702;2.2859;
320.1000;0.8685;2.2905;
320.4000;0.8669;2.2974;
320.7000;0.8645;2.2974;
321.0000;0.8694;2.3044;
321.3000;0.8702;2.3067;
321.6000;0.8677;2.3021;
321.9000;0.8685;2.3021;
322.2000;0.8685;2.2998;
322.5000;0.8702;2.3021;
322.8000;0.8653;2.2951;
323.1000;0.8645;2.2928;
323.4000;0.8669;2.3021;
323.7000;0.8694;2.2928;
324.0000;0.8677;2.2812;
324.3000;0.8653;2.2859;
324.6000;0.8759;2.3067;
324.9000;0.8685;2.3021;
325.2000;0.8702;2.3044;
325.5000;0.8694;2.3021;
325.8000;0.8685;2.2928;
326.1000;0.8694;2.2928;
326.4000;0.8734;2.2951;
326.7000;0.8653;2.2789;
327.0000;0.8669;2.2812;
327.3000;0.8751;2.2905;
327.6000;0.8751;2.2836;
327.9000;0.8742;2.2789;
328.2000;0.8685;2.2720;
328.5000;0.8645;2.2674;
328.8000;0.8685;2.2766;
329.1000;0.8694;2.2812;
329.4000;0.8685;2.2882;
329.7000;0.8661;2.2766;
330.0000;0.8694;2.2928;
330.3000;0.8702;2.2859;
330.6000;0.8685;2.2720;
330.9000;0.8677;2.2697;
331.2000;0.8677;2.2812;
331.5000;0.8669;2.2789;
331.8000;0.8685;2.2859;
332.1000;0.8685;2.2789;
332.4000;0.8645;2.2674;
332.7000;0.8694;2.2905;
333.0000;0.8702;2.2882;
333.3000;0.8653;2.2836;
333.6000;0.8677;2.2974;
333.9000;0.8677;2.2928;
334.2000;0.8694;2.3021;
334.5000;0.8669;2.2905;
334.8000;0.8677;2.2951;
335.1000;0.8685;2.3067;
335.4000;0.8669;2.3021;
335.7000;0.8685;2.3044;
336.0000;0.8726;2.3090;
336.3000;0.8677;2.2905;
336.6000;0.8669;2.2905;
336.9000;0.8669;2.2859;
337.2000;0.8661;2.2766;
337.5000;0.8669;2.2720;
337.8000;0.8694;2.2720;
338.1000;0.8669;2.2697;
338.4000;0.8685;2.2674;
338.7000;0.8685;2.2766;
339.0000;0.8685;2.2905;
339.3000;0.8702;2.2882;
339.6000;0.8694;2.2882;
339.9000;0.8661;2.2905;
340.2000;0.8677;2.2928;
340.5000;0.8718;2.2998;
340.8000;0.8734;2.3113;
341.1000;0.8677;2.2905;
341.4000;0.8677;2.2928;
341.7000;0.8669;2.3021;
342.0000;0.8685;2.2951;
342.3000;0.8694;2.2951;
342.6000;0.8661;2.2905;
342.9000;0.8702;2.2974;
343.2000;0.8677;2.2905;
343.5000;0.8669;2.2812;
343.8000;0.8694;2.2789;
344.1000;0.8751;2.3021;
344.4000;0.8677;2.2974;
344.7000;0.8685;2.2974;
345.0000;0.8694;2.3067;
345.3000;0.8718;2.3090;
345.6000;0.8677;2.2905;
345.9000;0.8677;2.2928;
346.2000;0.8685;2.2974;
346.5000;0.8661;2.2928;
346.8000;0.8694;2.2882;
347.1000;0.8685;2.2789;
347.4000;0.8677;2.2789;
347.7000;0.8694;2.2859;
348.0000;0.8669;2.2882;
348.3000;0.8669;2.2905;
348.6000;0.8661;2.2789;
348.9000;0.8677;2.2836;
349.2000;0.8661;2.2766;
349.5000;0.8620;2.2720;
349.8000;0.8669;2.2836;
350.1000;0.8685;2.2859;
350.4000;0.8677;2.3044;
350.7000;0.8645;2.3021;
351.0000;0.8702;2.3136;
351.3000;0.8702;2.3136;
351.6000;0.8637;2.2928;
351.9000;0.8702;2.2998;
352.2000;0.8677;2.2859;
352.5000;0.8677;2.2882;
352.8000;0.8694;2.2951;
353.1000;0.8702;2.2836;
353.4000;0.8694;2.2882;
353.7000;0.8702;2.2882;
354.0000;0.8694;2.2836;
354.3000;0.8694;2.2836;
354.6000;0.8677;2.2812;
354.9000;0.8677;2.2812;
355.2000;0.8677;2.2928;
355.5000;0.8677;2.2998;
355.8000;0.8685;2.3021;
356.1000;0.8718;2.3067;
356.4000;0.8661;2.2905;
356.7000;0.8669;2.2928;
357.0000;0.8685;2.2928;
357.3000;0.8677;2.2974;
357.6000;0.8669;2.2951;
357.9000;0.8702;2.2951;
358.2000;0.8694;2.2882;
358.5000;0.8677;2.2836;
358.8000;0.8694;2.2836;
359.1000;0.8685;2.2905;
359.4000;0.8653;2.2928;
359.7000;0.8685;2.2905;
360.0000;0.8637;2.2789;
360.3000;0.8685;2.2882;
360.6000;0.8702;2.2928;
360.9000;0.8677;2.2882;
361.2000;0.8734;2.2951;
361.5000;0.8677;2.2789;
361.8000;0.8694;2.2905;
362.1000;0.8742;2.2998;
362.4000;0.8685;2.2766;
362.7000;0.8694;2.2697;
363.0000;0.8710;2.2697;
363.3000;0.8685;2.2651;
363.6000;0.8685;2.2697;
363.9000;0.8685;2.2766;
364.2000;0.8677;2.2789;
364.5000;0.8677;2.2766;
364.8000;0.8685;2.2743;
365.1000;0.8653;2.2627;
365.4000;0.8718;2.2789;
365.7000;0.8694;2.2766;
366.0000;0.8685;2.2766;
366.3000;0.8685;2.2789;
366.6000;0.8677;2.2743;
366.9000;0.8694;2.2836;
367.2000;0.8702;2.2836;
367.5000;0.8694;2.2766;
367.8000;0.8685;2.2743;
368.1000;0.8718;2.2812;
368.4000;0.8702;2.2743;
368.7000;0.8694;2.2674;
369.0000;0.8710;2.2674;
369.3000;0.8677;2.2651;
369.6000;0.8702;2.2812;
369.9000;0.8734;2.2998;
370.2000;0.8685;2.2859;
370.5000;0.8702;2.2905;
370.8000;0.8702;2.2905;
371.1000;0.8694;2.2859;
371.4000;0.8677;2.2720;
371.7000;0.8685;2.2674;
372.0000;0.8669;2.2674;
372.3000;0.8677;2.2674;
372.6000;0.8685;2.2743;
372.9000;0.8694;2.2743;
373.2000;0.8694;2.2720;
373.5000;0.8677;2.2674;
373.8000;0.8628;2.2581;
374.1000;0.8702;2.2789;
374.4000;0.8669;2.2697;
374.7000;0.8685;2.2743;
375.0000;0.8702;2.2882;
375.3000;0.8677;2.2812;
375.6000;0.8661;2.2743;
375.9000;0.8677;2.2836;
376.2000;0.8661;2.2882;
376.5000;0.8677;2.2974;
376.8000;0.8645;2.2836;
377.1000;0.8669;2.2789;
377.4000;0.8734;2.2928;
377.7000;0.8694;2.2859;
378.0000;0.8710;2.2882;
378.3000;0.8694;2.2859;
378.6000;0.8702;2.2905;
378.9000;0.8734;2.3113;
379.2000;0.8694;2.2974;
379.5000;0.8718;2.3021;
379.8000;0.8710;2.2882;
380.1000;0.8612;2.2581;
380.4000;0.8742;2.2928;
380.7000;0.8685;2.2720;
381.0000;0.8694;2.2651;
381.3000;0.8677;2.2697;
381.6000;0.8677;2.2720;
381.9000;0.8628;2.2674;
382.2000;0.8661;2.2697;
382.5000;0.8694;2.2720;
382.8000;0.8694;2.2720;
383.1000;0.8685;2.2627;
383.4000;0.8702;2.2604;
383.7000;0.8710;2.2581;
384.0000;0.8726;2.2720;
384.3000;0.8694;2.2697;
384.6000;0.8685;2.2558;
384.9000;0.8702;2.2581;
385.2000;0.8685;2.2604;
385.5000;0.8694;2.2674;
385.8000;0.8661;2.2604;
386.1000;0.8661;2.2558;
386.4000;0.8702;2.2743;
386.7000;0.8685;2.2720;
387.0000;0.8751;2.2720;
387.3000;0.8685;2.2535;
387.6000;0.8710;2.2489;
387.9000;0.8702;2.2558;
388.2000;0.8677;2.2674;
388.5000;0.8694;2.2743;
388.8000;0.8661;2.2674;
389.1000;0.8694;2.2812;
389.4000;0.8694;2.2812;
389.7000;0.8694;2.2836;
390.0000;0.8685;2.2766;
390.3000;0.8702;2.2836;
390.6000;0.8669;2.2766;
390.9000;0.8669;2.2743;
391.2000;0.8669;2.2789;
391.5000;0.8677;2.2928;
391.8000;0.8685;2.2882;
392.1000;0.8694;2.2812;
392.4000;0.8677;2.2766;
392.7000;0.8685;2.2697;
393.0000;0.8702;2.2766;
393.3000;0.8710;2.2812;
393.6000;0.8677;2.2766;
393.9000;0.8702;2.2789;
394.2000;0.8694;2.2674;
394.5000;0.8694;2.2581;
394.8000;0.8653;2.2627;
395.1000;0.8588;2.2512;
395.4000;0.8669;2.2743;
395.7000;0.8783;2.3090;
396.0000;0.8685;2.2766;
396.3000;0.8685;2.2789;
396.6000;0.8661;2.2697;
396.9000;0.8677;2.2766;
397.2000;0.8726;2.2951;
397.5000;0.8791;2.3067;
397.8000;0.8685;2.2766;
398.1000;0.8669;2.2627;
398.4000;0.8702;2.2789;
398.7000;0.8694;2.2766;
399.0000;0.8604;2.2627;
399.3000;0.8604;2.2766;
399.6000;0.8710;2.2998;
399.9000;0.8702;2.2928;
400.2000;0.8669;2.2928;
400.5000;0.8685;2.2951;
400.8000;0.8685;2.2928;
401.1000;0.8751;2.2974;
401.4000;0.8685;2.2836;
401.7000;0.8669;2.2859;
402.0000;0.8685;2.2812;
402.3000;0.8685;2.2882;
402.6000;0.8685;2.2859;
402.9000;0.8677;2.2998;
403.2000;0.8661;2.3021;
403.5000;0.8669;2.3044;
403.8000;0.8669;2.3021;
404.1000;0.8694;2.3090;
404.4000;0.8685;2.3090;
404.7000;0.8677;2.3136;
405.0000;0.8677;2.3229;
405.3000;0.8685;2.3113;
405.6000;0.8677;2.3090;
405.9000;0.8669;2.3021;
406.2000;0.8685;2.3090;
406.5000;0.8677;2.3021;
406.8000;0.8685;2.2998;
407.1000;0.8685;2.2905;
407.4000;0.8685;2.2905;
407.7000;0.8685;2.2905;
408.0000;0.8694;2.2836;
408.3000;0.8677;2.2812;
408.6000;0.8694;2.2836;
408.9000;0.8669;2.2720;
409.2000;0.8710;2.2789;
409.5000;0.8669;2.2789;
409.8000;0.8718;2.2859;
410.1000;0.8677;2.2882;
410.4000;0.8669;2.2651;
410.7000;0.8685;2.2697;
411.0000;0.8637;2.2743;
411.3000;0.8661;2.2905;
411.6000;0.8685;2.2998;
411.9000;0.8677;2.2905;
412.2000;0.8677;2.2836;
412.5000;0.8694;2.2998;
412.8000;0.8653;2.2789;
413.1000;0.8710;2.2928;
413.4000;0.8694;2.2951;
413.7000;0.8685;2.2859;
414.0000;0.8677;2.2882;
414.3000;0.8685;2.2836;
414.6000;0.8702;2.2836;
414.9000;0.8685;2.2766;
415.2000;0.8702;2.2743;
415.5000;0.8710;2.2812;
415.8000;0.8677;2.2766;
416.1000;0.8677;2.2743;
416.4000;0.8669;2.2836;
416.7000;0.8685;2.2882;
417.0000;0.8677;2.2766;
417.3000;0.8726;2.2812;
417.6000;0.8685;2.2766;
417.9000;0.8685;2.2859;
418.2000;0.8604;2.2651;
418.5000;0.8702;2.2789;
418.8000;0.8694;2.2627;
419.1000;0.8653;2.2419;
419.4000;0.8653;2.2535;
419.7000;0.8677;2.2535;
420.0000;0.8685;2.2604;
420.3000;0.8759;2.2836;
420.6000;0.8685;2.2720;
420.9000;0.8694;2.2766;
421.2000;0.8653;2.2674;
421.5000;0.8620;2.2558;
421.8000;0.8710;2.2743;
422.1000;0.8694;2.2720;
422.4000;0.8685;2.2627;
422.7000;0.8694;2.2697;
423.0000;0.8685;2.2697;
423.3000;0.8669;2.2743;
423.6000;0.8685;2.2812;
423.9000;0.8694;2.2859;
424.2000;0.8685;2.2928;
424.5000;0.8669;2.2974;
424.8000;0.8506;2.2604;
425.1000;0.8694;2.3044;
425.4000;0.8637;2.2882;
425.7000;0.8702;2.2974;
426.0000;0.8694;2.2928;
426.3000;0.8702;2.3021;
426.6000;0.8669;2.2928;
426.9000;0.8685;2.2859;
427.2000;0.8694;2.2951;
427.5000;0.8677;2.2928;
427.8000;0.8677;2.2905;
428.1000;0.8677;2.2836;
428.4000;0.8702;2.2928;
428.7000;0.8694;2.2951;
429.0000;0.8694;2.2951;
429.3000;0.8685;2.2905;
429.6000;0.8685;2.2905;
429.9000;0.8694;2.2882;
430.2000;0.8702;2.2859;
430.5000;0.8645;2.2720;
430.8000;0.8604;2.2697;
431.1000;0.8677;2.2882;
431.4000;0.8694;2.2859;
431.7000;0.8702;2.2812;
432.0000;0.8661;2.2766;
432.3000;0.8694;2.2789;
432.6000;0.8702;2.2789;
432.9000;0.8685;2.2674;
433.2000;0.8661;2.2604;
433.5000;0.8661;2.2627;
433.8000;0.8685;2.2720;
434.1000;0.8685;2.2697;
434.4000;0.8742;2.2882;
434.7000;0.8726;2.2836;
435.0000;0.8620;2.2720;
435.3000;0.8677;2.2859;
435.6000;0.8685;2.2812;
435.9000;0.8694;2.2836;
436.2000;0.8685;2.2812;
436.5000;0.8710;2.2836;
436.8000;0.8759;2.2859;
437.1000;0.8685;2.2674;
437.4000;0.8645;2.2581;
437.7000;0.8694;2.2674;
438.0000;0.8710;2.2674;
438.3000;0.8694;2.2651;
438.6000;0.8694;2.2627;
438.9000;0.8694;2.2766;
439.2000;0.8694;2.2789;
439.5000;0.8685;2.2905;
439.8000;0.8685;2.2882;
440.1000;0.8742;2.2951;
440.4000;0.8694;2.2743;
440.7000;0.8710;2.2697;
441.0000;0.8677;2.2697;
441.3000;0.8751;2.2905;
441.6000;0.8702;2.2812;
441.9000;0.8677;2.2812;
442.2000;0.8677;2.2882;
442.5000;0.8718;2.2951;
442.8000;0.8685;2.2951;
443.1000;0.8669;2.2882;
443.4000;0.8685;2.2859;
443.7000;0.8702;2.2905;
444.0000;0.8677;2.2812;
444.3000;0.8759;2.2951;
444.6000;0.8661;2.2697;
444.9000;0.8677;2.2743;
445.2000;0.8685;2.2720;
445.5000;0.8710;2.2836;
445.8000;0.8685;2.2836;
446.1000;0.8694;2.2812;
446.4000;0.8694;2.2836;
446.7000;0.8677;2.2789;
447.0000;0.8677;2.2789;
447.3000;0.8702;2.2789;
447.6000;0.8685;2.2766;
447.9000;0.8807;2.3160;
448.2000;0.8694;2.2882;
448.5000;0.8685;2.2859;
448.8000;0.8759;2.3113;
449.1000;0.8661;2.2905;
449.4000;0.8685;2.2998;
449.7000;0.8669;2.2859;
450.0000;0.8677;2.2859;
450.3000;0.8669;2.2951;
450.6000;0.8694;2.3067;
450.9000;0.8694;2.2951;
451.2000;0.8669;2.2882;
451.5000;0.8645;2.2812;
451.8000;0.8702;2.2951;
452.1000;0.8685;2.2836;
452.4000;0.8694;2.2789;
452.7000;0.8685;2.2651;
453.0000;0.8685;2.2651;
453.3000;0.8628;2.2535;
453.6000;0.8669;2.2581;
453.9000;0.8669;2.2581;
454.2000;0.8685;2.2627;
454.5000;0.8710;2.2674;
454.8000;0.8694;2.2535;
455.1000;0.8685;2.2489;
455.4000;0.8702;2.2535;
455.7000;0.8702;2.2604;
456.0000;0.8685;2.2581;
456.3000;0.8694;2.2627;
456.6000;0.8653;2.2604;
456.9000;0.8677;2.2697;
457.2000;0.8685;2.2836;
457.5000;0.8685;2.2836;
457.8000;0.8661;2.2789;
458.1000;0.8661;2.2836;
458.4000;0.8685;2.2905;
458.7000;0.8685;2.2905;
459.0000;0.8685;2.2905;
459.3000;0.8702;2.2951;
459.6000;0.8702;2.2905;
459.9000;0.8685;2.2789;
460.2000;0.8702;2.2836;
460.5000;0.8694;2.2812;
460.8000;0.8775;2.3021;
461.1000;0.8702;2.2836;
461.4000;0.8718;2.2859;
461.7000;0.8694;2.2859;
462.0000;0.8580;2.2581;
462.3000;0.8751;2.3021;
462.6000;0.8685;2.2859;
462.9000;0.8685;2.2882;
463.2000;0.8669;2.2905;
463.5000;0.8661;2.2974;
463.8000;0.8669;2.2951;
464.1000;0.8669;2.2859;
464.4000;0.8702;2.2974;
464.7000;0.8685;2.2882;
465.0000;0.8596;2.2743;
465.3000;0.8685;2.2905;
465.6000;0.8702;2.2882;
465.9000;0.8702;2.3044;
466.2000;0.8669;2.3021;
466.5000;0.8628;2.2974;
466.8000;0.8685;2.3044;
467.1000;0.8669;2.2928;
467.4000;0.8718;2.3067;
467.7000;0.8669;2.2951;
468.0000;0.8685;2.2951;
468.3000;0.8702;2.2905;
468.6000;0.8751;2.3044;
468.9000;0.8677;2.2812;
469.2000;0.8661;2.2743;
469.5000;0.8702;2.2859;
469.8000;0.8702;2.2905;
470.1000;0.8563;2.2651;
470.4000;0.8694;2.3021;
470.7000;0.8702;2.3021;
471.0000;0.8710;2.2974;
471.3000;0.8726;2.3090;
471.6000;0.8702;2.3044;
471.9000;0.8694;2.3021;
472.2000;0.8734;2.3067;
472.5000;0.8759;2.3229;
472.8000;0.8702;2.3044;
473.1000;0.8702;2.2998;
473.4000;0.8702;2.3021;
473.7000;0.8669;2.2951;
474.0000;0.8694;2.3021;
474.3000;0.8677;2.2905;
474.6000;0.8677;2.2859;
474.9000;0.8677;2.2998;
475.2000;0.8718;2.3021;
475.5000;0.8628;2.2720;
475.8000;0.8694;2.2766;
476.1000;0.8677;2.2720;
476.4000;0.8694;2.2697;
476.7000;0.8710;2.2674;
477.0000;0.8694;2.2558;
477.3000;0.8694;2.2604;
477.6000;0.8702;2.2697;
477.9000;0.8726;2.2697;
478.2000;0.8677;2.2651;
478.5000;0.8718;2.2859;
478.8000;0.8694;2.2743;
479.1000;0.8694;2.2720;
479.4000;0.8685;2.2697;
479.7000;0.8661;2.2651;
480.0000;0.8702;2.2836;
480.3000;0.8677;2.2766;
480.6000;0.8685;2.2743;
480.9000;0.8726;2.2951;
481.2000;0.8734;2.2951;
481.5000;0.8694;2.2859;
481.8000;0.8710;2.2812;
482.1000;0.8726;2.2905;
482.4000;0.8677;2.2836;
482.7000;0.8694;2.2836;
483.0000;0.8702;2.2743;
483.3000;0.8685;2.2720;
483.6000;0.8677;2.2674;
483.9000;0.8694;2.2789;
484.2000;0.8604;2.2558;
484.5000;0.8694;2.2651;
484.8000;0.8775;2.2789;
485.1000;0.8710;2.2627;
485.4000;0.8702;2.2581;
485.7000;0.8669;2.2651;
486.0000;0.8694;2.2720;
486.3000;0.8669;2.2743;
486.6000;0.8685;2.2697;
486.9000;0.8685;2.2674;
487.2000;0.8694;2.2651;
487.5000;0.8694;2.2720;
487.8000;0.8685;2.2720;
488.1000;0.8661;2.2812;
488.4000;0.8669;2.2905;
488.7000;0.8677;2.2905;
489.0000;0.8710;2.2951;
489.3000;0.8661;2.2905;
489.6000;0.8669;2.2905;
489.9000;0.8677;2.2859;
490.2000;0.8628;2.2720;
490.5000;0.8669;2.2836;
490.8000;0.8685;2.2882;
491.1000;0.8685;2.2882;
491.4000;0.8694;2.2905;
491.7000;0.8694;2.2836;
492.0000;0.8669;2.2812;
492.3000;0.8637;2.2905;
492.6000;0.8653;2.2974;
492.9000;0.8685;2.3067;
493.2000;0.8669;2.2928;
493.5000;0.8685;2.2998;
493.8000;0.8775;2.3113;
494.1000;0.8694;2.2928;
494.4000;0.8645;2.2720;
494.7000;0.8669;2.2720;
495.0000;0.8685;2.2789;
495.3000;0.8685;2.2766;
495.6000;0.8694;2.2697;
495.9000;0.8669;2.2627;
496.2000;0.8685;2.2627;
496.5000;0.8620;2.2535;
496.8000;0.8694;2.2766;
497.1000;0.8694;2.2789;
497.4000;0.8661;2.2789;
497.7000;0.8685;2.2789;
498.0000;0.8653;2.2651;
498.3000;0.8677;2.2743;
498.6000;0.8677;2.2743;
498.9000;0.8718;2.2812;
499.2000;0.8661;2.2766;
499.5000;0.8685;2.2812;
499.8000;0.8677;2.2812;
500.1000;0.8637;2.2720;
500.4000;0.8677;2.2766;
500.7000;0.8677;2.2674;
501.0000;0.8702;2.2743;
501.3000;0.8694;2.2743;
501.6000;0.8685;2.2743;
501.9000;0.8710;2.2812;
502.2000;0.8726;2.2859;
502.5000;0.8669;2.2789;
502.8000;0.8677;2.2789;
503.1000;0.8694;2.2882;
503.4000;0.8685;2.2974;
503.7000;0.8669;2.2998;
504.0000;0.8694;2.3021;
504.3000;0.8694;2.3021;
504.6000;0.8685;2.3044;
504.9000;0.8685;2.3067;
505.2000;0.8685;2.2974;
505.5000;0.8677;2.2905;
505.8000;0.8685;2.2882;
506.1000;0.8661;2.2812;
506.4000;0.8677;2.2905;
506.7000;0.8685;2.2974;
507.0000;0.8694;2.2998;
507.3000;0.8694;2.2928;
507.6000;0.8702;2.3021;
507.9000;0.8710;2.3090;
508.2000;0.8702;2.3090;
508.5000;0.8677;2.3021;
508.8000;0.8702;2.2974;
509.1000;0.8677;2.2882;
509.4000;0.8694;2.2812;
509.7000;0.8637;2.2558;
510.0000;0.8685;2.2743;
510.3000;0.8685;2.2766;
510.6000;0.8685;2.2697;
510.9000;0.8685;2.2720;
511.2000;0.8677;2.2651;
511.5000;0.8783;2.2882;
511.8000;0.8653;2.2604;
512.1000;0.8685;2.2743;
512.4000;0.8677;2.2766;
512.7000;0.8620;2.2720;
513.0000;0.8734;2.3090;
513.3000;0.8694;2.2998;
513.6000;0.8726;2.3021;
513.9000;0.8669;2.3021;
514.2000;0.8685;2.2998;
514.5000;0.8694;2.2951;
514.8000;0.8677;2.2905;
515.1000;0.8677;2.2789;
515.4000;0.8645;2.2743;
515.7000;0.8669;2.2836;
516.0000;0.8677;2.2766;
516.3000;0.8661;2.2743;
516.6000;0.8685;2.2836;
516.9000;0.8669;2.2836;
517.2000;0.8677;2.2812;
517.5000;0.8685;2.2836;
517.8000;0.8669;2.2743;
518.1000;0.8685;2.2812;
518.4000;0.8685;2.2836;
518.7000;0.8661;2.2766;
519.0000;0.8685;2.2928;
519.3000;0.8628;2.2836;
519.6000;0.8669;2.2812;
519.9000;0.8694;2.2882;
520.2000;0.8685;2.2882;
520.5000;0.8669;2.2836;
520.8000;0.8685;2.2812;
521.1000;0.8685;2.2766;
521.4000;0.8661;2.2836;
521.7000;0.8677;2.2882;
522.0000;0.8694;2.2882;
522.3000;0.8685;2.2859;
522.6000;0.8677;2.2836;
522.9000;0.8702;2.2905;
523.2000;0.8685;2.2859;
523.5000;0.8767;2.3021;
523.8000;0.8685;2.2836;
524.1000;0.8685;2.2789;
524.4000;0.8645;2.2674;
524.7000;0.8677;2.2674;
525.0000;0.8669;2.2720;
525.3000;0.8734;2.2789;
525.6000;0.8685;2.2766;
525.9000;0.8669;2.2836;
526.2000;0.8702;2.2928;
526.5000;0.8677;2.2812;
526.8000;0.8702;2.2859;
527.1000;0.8694;2.2882;
527.4000;0.8685;2.2882;
527.7000;0.8677;2.2882;
528.0000;0.8677;2.2766;
528.3000;0.8677;2.2697;
528.6000;0.8685;2.2766;
528.9000;0.8694;2.2859;
529.2000;0.8669;2.2743;
529.5000;0.8677;2.2743;
529.8000;0.8685;2.2766;
530.1000;0.8702;2.2812;
530.4000;0.8694;2.2836;
530.7000;0.8694;2.2812;
531.0000;0.8685;2.2789;
531.3000;0.8751;2.2905;
531.6000;0.8669;2.2651;
531.9000;0.8710;2.2720;
532.2000;0.8718;2.2766;
532.5000;0.8710;2.2743;
532.8000;0.8677;2.2604;
533.1000;0.8702;2.2581;
533.4000;0.8702;2.2581;
533.7000;0.8677;2.2535;
534.0000;0.8637;2.2419;
534.3000;0.8677;2.2581;
534.6000;0.8604;2.2396;
534.9000;0.8685;2.2581;
535.2000;0.8710;2.2674;
535.5000;0.8685;2.2604;
535.8000;0.8677;2.2651;
536.1000;0.8677;2.2651;
536.4000;0.8677;2.2627;
536.7000;0.8734;2.2697;
537.0000;0.8645;2.2558;
537.3000;0.8620;2.2512;
537.6000;0.8669;2.2558;
537.9000;0.8669;2.2581;
538.2000;0.8759;2.2766;
538.5000;0.8677;2.2535;
538.8000;0.8694;2.2604;
539.1000;0.8694;2.2604;
539.4000;0.8498;2.2095;
539.7000;0.8685;2.2581;
540.0000;0.8694;2.2535;
540.3000;0.8677;2.2512;
540.6000;0.8799;2.2766;
540.9000;0.8677;2.2489;
541.2000;0.8685;2.2465;
541.5000;0.8726;2.2604;
541.8000;0.8661;2.2465;
542.1000;0.8669;2.2512;
542.4000;0.8694;2.2627;
542.7000;0.8685;2.2651;
543.0000;0.8694;2.2581;
543.3000;0.8677;2.2535;
543.6000;0.8677;2.2604;
543.9000;0.8694;2.2512;
544.2000;0.8685;2.2512;
544.5000;0.8661;2.2396;
544.8000;0.8685;2.2442;
545.1000;0.8685;2.2558;
545.4000;0.8702;2.2627;
545.7000;0.8710;2.2697;
546.0000;0.8677;2.2627;
546.3000;0.8677;2.2604;
546.6000;0.8669;2.2512;
546.9000;0.8669;2.2581;
547.2000;0.8669;2.2674;
547.5000;0.8677;2.2697;
547.8000;0.8677;2.2697;
548.1000;0.8710;2.2812;
548.4000;0.8677;2.2789;
548.7000;0.8669;2.2766;
549.0000;0.8677;2.2766;
549.3000;0.8718;2.2812;
549.6000;0.8677;2.2697;
549.9000;0.8669;2.2581;
550.2000;0.8685;2.2651;
550.5000;0.8767;2.2859;
550.8000;0.8685;2.2697;
551.1000;0.8677;2.2581;
551.4000;0.8685;2.2581;
551.7000;0.8702;2.2581;
552.0000;0.8685;2.2604;
552.3000;0.8702;2.2581;
552.6000;0.8694;2.2604;
552.9000;0.8669;2.2604;
553.2000;0.8669;2.2627;
553.5000;0.8685;2.2674;
553.8000;0.8637;2.2512;
554.1000;0.8685;2.2627;
554.4000;0.8702;2.2627;
554.7000;0.8685;2.2581;
555.0000;0.8677;2.2558;
555.3000;0.8694;2.2651;
555.6000;0.8702;2.2604;
555.9000;0.8807;2.2859;
556.2000;0.8694;2.2581;
556.5000;0.8685;2.2697;
556.8000;0.8694;2.2651;
557.1000;0.8694;2.2674;
557.4000;0.8685;2.2651;
557.7000;0.8677;2.2651;
558.0000;0.8694;2.2674;
558.3000;0.8685;2.2697;
558.6000;0.8702;2.2674;
558.9000;0.8677;2.2627;
559.2000;0.8685;2.2697;
559.5000;0.8677;2.2720;
559.8000;0.8685;2.2766;
560.1000;0.8677;2.2697;
560.4000;0.8669;2.2627;
560.7000;0.8669;2.2535;
561.0000;0.8669;2.2512;
561.3000;0.8685;2.2627;
561.6000;0.8628;2.2535;
561.9000;0.8710;2.2720;
562.2000;0.8702;2.2697;
562.5000;0.8677;2.2651;
562.8000;0.8677;2.2604;
563.1000;0.8685;2.2604;
563.4000;0.8677;2.2558;
563.7000;0.8726;2.2627;
564.0000;0.8694;2.2535;
564.3000;0.8694;2.2627;
564.6000;0.8702;2.2604;
564.9000;0.8759;2.2674;
565.2000;0.8694;2.2489;
565.5000;0.8685;2.2604;
565.8000;0.8702;2.2581;
566.1000;0.8702;2.2604;
566.4000;0.8791;2.2789;
566.7000;0.8677;2.2512;
567.0000;0.8677;2.2419;
567.3000;0.8783;2.2743;
567.6000;0.8669;2.2489;
567.9000;0.8685;2.2558;
568.2000;0.8694;2.2558;
568.5000;0.8637;2.2442;
568.8000;0.8677;2.2558;
569.1000;0.8669;2.2558;
569.4000;0.8685;2.2604;
569.7000;0.8694;2.2720;
570.0000;0.8685;2.2697;
570.3000;0.8685;2.2558;
570.6000;0.8710;2.2581;
570.9000;0.8694;2.2442;
571.2000;0.8694;2.2373;
571.5000;0.8718;2.2465;
571.8000;0.8677;2.2604;
572.1000;0.8637;2.2581;
572.4000;0.8685;2.2604;
572.7000;0.8669;2.2604;
573.0000;0.8661;2.2627;
573.3000;0.8685;2.2720;
573.6000;0.8677;2.2766;
573.9000;0.8685;2.2743;
574.2000;0.8669;2.2697;
574.5000;0.8694;2.2720;
574.8000;0.8718;2.2720;
575.1000;0.8694;2.2627;
575.4000;0.8694;2.2604;
575.7000;0.8685;2.2581;
576.0000;0.8702;2.2674;
576.3000;0.8685;2.2627;
576.6000;0.8669;2.2558;
576.9000;0.8702;2.2720;
577.2000;0.8677;2.2789;
577.5000;0.8694;2.2743;
577.8000;0.8799;2.3021;
578.1000;0.8685;2.2743;
578.4000;0.8694;2.2812;
578.7000;0.8694;2.2905;
579.0000;0.8685;2.2882;
579.3000;0.8677;2.2836;
579.6000;0.8677;2.2882;
579.9000;0.8710;2.2928;
580.2000;0.8677;2.2789;
580.5000;0.8702;2.2789;
580.8000;0.8694;2.2766;
581.1000;0.8710;2.2859;
581.4000;0.8677;2.2812;
581.7000;0.8710;2.2928;
582.0000;0.8645;2.2766;
582.3000;0.8694;2.2836;
582.6000;0.8702;2.2812;
582.9000;0.8677;2.2720;
583.2000;0.8653;2.2558;
583.5000;0.8685;2.2651;
583.8000;0.8685;2.2743;
584.1000;0.8702;2.2720;
584.4000;0.8718;2.2812;
584.7000;0.8694;2.2674;
585.0000;0.8694;2.2697;
585.3000;0.8775;2.2836;
585.6000;0.8694;2.2697;
585.9000;0.8669;2.2627;
586.2000;0.8694;2.2697;
586.5000;0.8710;2.2836;
586.8000;0.8628;2.2627;
587.1000;0.8702;2.2720;
587.4000;0.8702;2.2766;
587.7000;0.8685;2.2743;
588.0000;0.8759;2.2859;
588.3000;0.8685;2.2604;
588.6000;0.8685;2.2581;
588.9000;0.8563;2.2373;
589.2000;0.8694;2.2697;
589.5000;0.8694;2.2627;
589.8000;0.8685;2.2535;
590.1000;0.8694;2.2512;
590.4000;0.8685;2.2581;
590.7000;0.8694;2.2558;
591.0000;0.8685;2.2512;
591.3000;0.8694;2.2442;
591.6000;0.8677;2.2419;
591.9000;0.8677;2.2465;
592.2000;0.8669;2.2396;
592.5000;0.8791;2.2720;
592.8000;0.8702;2.2604;
593.1000;0.8677;2.2512;
593.4000;0.8653;2.2465;
593.7000;0.8685;2.2651;
594.0000;0.8661;2.2720;
594.3000;0.8653;2.2627;
594.6000;0.8661;2.2627;
594.9000;0.8694;2.2651;
595.2000;0.8677;2.2604;
595.5000;0.8742;2.2697;
595.8000;0.8694;2.2581;
596.1000;0.8718;2.2465;
596.4000;0.8653;2.2373;
596.7000;0.8694;2.2465;
597.0000;0.8694;2.2489;
597.3000;0.8685;2.2535;
597.6000;0.8710;2.2604;
597.9000;0.8710;2.2581;
598.2000;0.8767;2.2697;
598.5000;0.8718;2.2674;
598.8000;0.8694;2.2743;
599.1000;0.8710;2.2882;
599.4000;0.8751;2.2951;
599.7000;0.8710;2.2905;
600.0000;0.8677;2.2836;
600.3000;0.8751;2.2812;
600.6000;0.8783;2.2627;
600.9000;0.8759;2.2465;
601.2000;0.8628;2.2072;
601.5000;0.8734;2.2142;
601.8000;0.8645;2.1794;
602.1000;0.8514;2.1517;
602.4000;0.8580;2.1656;
602.7000;0.8474;2.1285;
603.0000;0.8523;2.1355;
603.3000;0.8457;2.1309;
603.6000;0.8376;2.1100;
603.9000;0.8376;2.1124;
604.2000;0.8344;2.1147;
604.5000;0.8254;2.1077;
604.8000;0.8230;2.1031;
605.1000;0.8254;2.0962;
605.4000;0.8181;2.0823;
605.7000;0.8034;2.0499;
606.0000;0.8116;2.0730;
606.3000;0.8099;2.0684;
606.6000;0.8059;2.0707;
606.9000;0.7985;2.0568;
607.2000;0.8034;2.0730;
607.5000;0.7985;2.0545;
607.8000;0.7969;2.0476;
608.1000;0.8002;2.0545;
608.4000;0.7920;2.0453;
608.7000;0.7985;2.0684;
609.0000;0.7880;2.0615;
609.3000;0.7855;2.0707;
609.6000;0.7749;2.0522;
609.9000;0.7831;2.0730;
610.2000;0.7839;2.0776;
610.5000;0.7806;2.0753;
610.8000;0.7766;2.0776;
611.1000;0.7749;2.0776;
611.4000;0.7749;2.0753;
611.7000;0.7717;2.0684;
612.0000;0.7700;2.0707;
612.3000;0.7692;2.0753;
612.6000;0.7635;2.0684;
612.9000;0.7700;2.0985;
613.2000;0.7652;2.0869;
613.5000;0.7611;2.0753;
613.8000;0.7611;2.0823;
614.1000;0.7578;2.0846;
614.4000;0.7578;2.0915;
614.7000;0.7554;2.0846;
615.0000;0.7595;2.0962;
615.3000;0.7530;2.0846;
615.6000;0.7521;2.0892;
615.9000;0.7497;2.0892;
616.2000;0.7489;2.0938;
616.5000;0.7481;2.1054;
616.8000;0.7399;2.0823;
617.1000;0.7440;2.0869;
617.4000;0.7448;2.0985;
617.7000;0.7424;2.1008;
618.0000;0.7432;2.1008;
618.3000;0.7399;2.0938;
618.6000;0.7407;2.0823;
618.9000;0.7399;2.0753;
619.2000;0.7359;2.0661;
619.5000;0.7359;2.0615;
619.8000;0.7350;2.0638;
620.1000;0.7342;2.0707;
620.4000;0.7318;2.0638;
620.7000;0.7293;2.0638;
621.0000;0.7350;2.0800;
621.3000;0.7293;2.0638;
621.6000;0.7269;2.0684;
621.9000;0.7293;2.0707;
622.2000;0.7220;2.0684;
622.5000;0.7285;2.0800;
622.8000;0.7236;2.0753;
623.1000;0.7236;2.0753;
623.4000;0.7220;2.0730;
623.7000;0.7236;2.0753;
624.0000;0.7188;2.0615;
624.3000;0.7212;2.0661;
624.6000;0.7196;2.0661;
624.9000;0.7188;2.0707;
625.2000;0.7155;2.0730;
625.5000;0.7147;2.0776;
625.8000;0.7155;2.0823;
626.1000;0.7147;2.0730;
626.4000;0.7114;2.0684;
626.7000;0.7090;2.0684;
627.0000;0.7131;2.0753;
627.3000;0.7123;2.0753;
627.6000;0.7114;2.0753;
627.9000;0.7114;2.0707;
628.2000;0.7082;2.0707;
628.5000;0.7082;2.0753;
628.8000;0.7074;2.0776;
629.1000;0.7057;2.0661;
629.4000;0.7041;2.0661;
629.7000;0.7066;2.0707;
630.0000;0.7049;2.0638;
630.3000;0.7025;2.0661;
630.6000;0.7033;2.0661;
630.9000;0.7017;2.0684;
631.2000;0.7025;2.0707;
631.5000;0.7033;2.0776;
631.8000;0.7009;2.0800;
632.1000;0.7017;2.0730;
632.4000;0.7033;2.0684;
632.7000;0.6992;2.0638;
633.0000;0.6976;2.0638;
633.3000;0.6976;2.0545;
633.6000;0.7009;2.0615;
633.9000;0.6960;2.0638;
634.2000;0.6952;2.0522;
634.5000;0.6943;2.0453;
634.8000;0.6943;2.0406;
635.1000;0.6919;2.0453;
635.4000;0.6919;2.0453;
635.7000;0.6895;2.0476;
636.0000;0.6911;2.0638;
636.3000;0.6927;2.0638;
636.6000;0.6927;2.0638;
636.9000;0.6927;2.0615;
637.2000;0.6903;2.0545;
637.5000;0.6895;2.0568;
637.8000;0.6911;2.0545;
638.1000;0.6854;2.0499;
638.4000;0.6878;2.0615;
638.7000;0.6854;2.0522;
639.0000;0.6878;2.0406;
639.3000;0.6846;2.0383;
639.6000;0.6854;2.0337;
639.9000;0.6838;2.0360;
640.2000;0.6854;2.0476;
640.5000;0.6838;2.0545;
640.8000;0.6813;2.0545;
641.1000;0.6829;2.0591;
641.4000;0.6813;2.0476;
641.7000;0.6829;2.0476;
642.0000;0.6813;2.0499;
642.3000;0.6813;2.0453;
642.6000;0.6813;2.0429;
642.9000;0.6797;2.0337;
643.2000;0.6789;2.0360;
643.5000;0.6789;2.0383;
643.8000;0.6813;2.0476;
644.1000;0.6781;2.0429;
644.4000;0.6781;2.0476;
644.7000;0.6797;2.0545;
645.0000;0.6781;2.0499;
645.3000;0.6764;2.0499;
645.6000;0.6748;2.0545;
645.9000;0.6756;2.0568;
646.2000;0.6724;2.0499;
646.5000;0.6724;2.0476;
646.8000;0.6732;2.0453;
647.1000;0.6716;2.0476;
647.4000;0.6740;2.0568;
647.7000;0.6732;2.0591;
648.0000;0.6716;2.0499;
648.3000;0.6724;2.0522;
648.6000;0.6724;2.0522;
648.9000;0.6716;2.0476;
649.2000;0.6699;2.0522;
649.5000;0.6699;2.0545;
649.8000;0.6691;2.0499;
650.1000;0.6699;2.0499;
650.4000;0.6691;2.0522;
650.7000;0.6667;2.0522;
651.0000;0.6683;2.0568;
651.3000;0.6675;2.0638;
651.6000;0.6659;2.0615;
651.9000;0.6667;2.0684;
652.2000;0.6675;2.0730;
652.5000;0.6667;2.0661;
652.8000;0.6667;2.0684;
653.1000;0.6675;2.0591;
653.4000;0.6659;2.0568;
653.7000;0.6650;2.0453;
654.0000;0.6659;2.0476;
654.3000;0.6659;2.0522;
654.6000;0.6667;2.0545;
654.9000;0.6642;2.0522;
655.2000;0.6642;2.0453;
655.5000;0.6650;2.0476;
655.8000;0.6626;2.0406;
656.1000;0.6626;2.0429;
656.4000;0.6626;2.0499;
656.7000;0.6667;2.0499;
657.0000;0.6626;2.0360;
657.3000;0.6602;2.0476;
657.6000;0.6667;2.0615;
657.9000;0.6593;2.0476;
658.2000;0.6593;2.0499;
658.5000;0.6593;2.0476;
658.8000;0.6602;2.0453;
659.1000;0.6545;2.0383;
659.4000;0.6602;2.0453;
659.7000;0.6602;2.0429;
660.0000;0.6602;2.0453;
660.3000;0.6577;2.0522;
660.6000;0.6618;2.0661;
660.9000;0.6569;2.0615;
661.2000;0.6577;2.0591;
661.5000;0.6553;2.0568;
661.8000;0.6504;2.0591;
662.1000;0.6553;2.0638;
662.4000;0.6561;2.0707;
662.7000;0.6593;2.0846;
663.0000;0.6569;2.0707;
663.3000;0.6561;2.0707;
663.6000;0.6536;2.0661;
663.9000;0.6650;2.1008;
664.2000;0.6561;2.0753;
664.5000;0.6545;2.0707;
664.8000;0.6577;2.0892;
665.1000;0.6520;2.0869;
665.4000;0.6528;2.0846;
665.7000;0.6520;2.0823;
666.0000;0.6528;2.0869;
666.3000;0.6545;2.0915;
666.6000;0.6504;2.0800;
666.9000;0.6520;2.0869;
667.2000;0.6471;2.0776;
667.5000;0.6479;2.0753;
667.8000;0.6528;2.0800;
668.1000;0.6520;2.0800;
668.4000;0.6520;2.0800;
668.7000;0.6455;2.0707;
669.0000;0.6512;2.0915;
669.3000;0.6512;2.0938;
669.6000;0.6520;2.0892;
669.9000;0.6471;2.0730;
670.2000;0.6471;2.0707;
670.5000;0.6463;2.0684;
670.8000;0.6471;2.0661;
671.1000;0.6463;2.0730;
671.4000;0.6463;2.0707;
671.7000;0.6520;2.0800;
672.0000;0.6471;2.0661;
672.3000;0.6479;2.0615;
672.6000;0.6455;2.0476;
672.9000;0.6528;2.0684;
673.2000;0.6463;2.0499;
673.5000;0.6488;2.0615;
673.8000;0.6463;2.0568;
674.1000;0.6463;2.0568;
674.4000;0.6488;2.0568;
674.7000;0.6455;2.0522;
675.0000;0.6455;2.0476;
675.3000;0.6398;2.0314;
675.6000;0.6439;2.0383;
675.9000;0.6439;2.0360;
676.2000;0.6463;2.0429;
676.5000;0.6439;2.0383;
676.8000;0.6447;2.0406;
677.1000;0.6455;2.0383;
677.4000;0.6447;2.0406;
677.7000;0.6439;2.0360;
678.0000;0.6447;2.0383;
678.3000;0.6447;2.0406;
678.6000;0.6447;2.0429;
678.9000;0.6349;2.0129;
679.2000;0.6422;2.0198;
679.5000;0.6455;2.0291;
679.8000;0.6414;2.0198;
680.1000;0.6447;2.0267;
680.4000;0.6422;2.0360;
680.7000;0.6447;2.0406;
681.0000;0.6422;2.0337;
681.3000;0.6390;2.0221;
681.6000;0.6374;2.0175;
681.9000;0.6390;2.0221;
682.2000;0.6447;2.0360;
682.5000;0.6406;2.0314;
682.8000;0.6406;2.0291;
683.1000;0.6422;2.0383;
683.4000;0.6512;2.0684;
683.7000;0.6479;2.0707;
684.0000;0.6414;2.0522;
684.3000;0.6406;2.0499;
684.6000;0.6374;2.0453;
684.9000;0.6406;2.0568;
685.2000;0.6398;2.0545;
685.5000;0.6398;2.0476;
685.8000;0.6365;2.0476;
686.1000;0.6414;2.0591;
686.4000;0.6406;2.0522;
686.7000;0.6382;2.0383;
687.0000;0.6382;2.0267;
687.3000;0.6382;2.0291;
687.6000;0.6341;2.0175;
687.9000;0.6382;2.0360;
688.2000;0.6349;2.0406;
688.5000;0.6422;2.0591;
688.8000;0.6406;2.0476;
689.1000;0.6398;2.0476;
689.4000;0.6382;2.0453;
689.7000;0.6496;2.0776;
690.0000;0.6382;2.0522;
690.3000;0.6390;2.0684;
690.6000;0.6398;2.0638;
690.9000;0.6333;2.0476;
691.2000;0.6365;2.0545;
691.5000;0.6365;2.0661;
691.8000;0.6382;2.0545;
692.1000;0.6382;2.0522;
692.4000;0.6365;2.0522;
692.7000;0.6398;2.0638;
693.0000;0.6374;2.0638;
693.3000;0.6325;2.0545;
693.6000;0.6309;2.0545;
693.9000;0.6447;2.0915;
694.2000;0.6341;2.0707;
694.5000;0.6333;2.0638;
694.8000;0.6374;2.0661;
695.1000;0.6357;2.0499;
695.4000;0.6374;2.0568;
695.7000;0.6341;2.0545;
696.0000;0.6341;2.0545;
696.3000;0.6292;2.0406;
696.6000;0.6309;2.0406;
696.9000;0.6252;2.0267;
697.2000;0.6341;2.0406;
697.5000;0.6349;2.0453;
697.8000;0.6333;2.0314;
698.1000;0.6300;2.0267;
698.4000;0.6219;2.0082;
698.7000;0.6333;2.0360;
699.0000;0.6325;2.0314;
699.3000;0.6276;2.0221;
699.6000;0.6333;2.0267;
699.9000;0.6170;1.9944;
700.2000;0.6309;2.0267;
700.5000;0.6333;2.0291;
700.8000;0.6309;2.0244;
701.1000;0.6300;2.0406;
701.4000;0.6325;2.0476;
701.7000;0.6317;2.0453;
702.0000;0.6341;2.0429;
702.3000;0.6333;2.0453;
702.6000;0.6325;2.0429;
702.9000;0.6317;2.0360;
703.2000;0.6300;2.0291;
703.5000;0.6284;2.0383;
703.8000;0.6325;2.0429;
704.1000;0.6317;2.0360;
704.4000;0.6284;2.0337;
704.7000;0.6300;2.0314;
705.0000;0.6276;2.0221;
705.3000;0.6382;2.0545;
705.6000;0.6300;2.0337;
705.9000;0.6235;2.0175;
706.2000;0.6300;2.0406;
706.5000;0.6292;2.0383;
706.8000;0.6252;2.0314;
707.1000;0.6268;2.0314;
707.4000;0.6276;2.0406;
707.7000;0.6300;2.0429;
708.0000;0.6276;2.0406;
708.3000;0.6276;2.0453;
708.6000;0.6284;2.0545;
708.9000;0.6292;2.0545;
709.2000;0.6227;2.0453;
709.5000;0.6325;2.0591;
709.8000;0.6268;2.0522;
710.1000;0.6300;2.0638;
710.4000;0.6268;2.0591;
710.7000;0.6276;2.0591;
711.0000;0.6300;2.0591;
711.3000;0.6276;2.0568;
711.6000;0.6284;2.0591;
711.9000;0.6268;2.0522;
712.2000;0.6268;2.0476;
712.5000;0.6235;2.0453;
712.8000;0.6268;2.0499;
713.1000;0.6341;2.0684;
713.4000;0.6333;2.0684;
713.7000;0.6292;2.0545;
714.0000;0.6284;2.0545;
714.3000;0.6219;2.0383;
714.6000;0.6268;2.0429;
714.9000;0.6211;2.0291;
715.2000;0.6260;2.0429;
715.5000;0.6365;2.0568;
715.8000;0.6211;2.0267;
716.1000;0.6243;2.0383;
716.4000;0.6284;2.0522;
716.7000;0.6276;2.0476;
717.0000;0.6268;2.0406;
717.3000;0.6292;2.0522;
717.6000;0.6260;2.0453;
717.9000;0.6300;2.0568;
718.2000;0.6260;2.0476;
718.5000;0.6260;2.0476;
718.8000;0.6252;2.0499;
719.1000;0.6260;2.0522;
719.4000;0.6300;2.0591;
719.7000;0.6252;2.0453;
720.0000;0.6243;2.0476;
720.3000;0.6227;2.0429;
720.6000;0.6260;2.0499;
720.9000;0.6333;2.0638;
721.2000;0.6243;2.0499;
721.5000;0.6227;2.0568;
721.8000;0.6203;2.0615;
722.1000;0.6235;2.0615;
722.4000;0.6243;2.0499;
722.7000;0.6235;2.0476;
723.0000;0.6211;2.0406;
723.3000;0.6252;2.0499;
723.6000;0.6227;2.0314;
723.9000;0.6219;2.0267;
724.2000;0.6243;2.0314;
724.5000;0.6170;2.0244;
724.8000;0.6252;2.0476;
725.1000;0.6219;2.0429;
725.4000;0.6227;2.0499;
725.7000;0.6260;2.0545;
726.0000;0.6260;2.0545;
726.3000;0.6252;2.0591;
726.6000;0.6235;2.0453;
726.9000;0.6227;2.0383;
727.2000;0.6243;2.0360;
727.5000;0.6235;2.0360;
727.8000;0.6235;2.0429;
728.1000;0.6219;2.0244;
728.4000;0.6227;2.0221;
728.7000;0.6219;2.0221;
729.0000;0.6219;2.0337;
729.3000;0.6235;2.0476;
729.6000;0.6243;2.0476;
729.9000;0.6203;2.0476;
730.2000;0.6235;2.0522;
730.5000;0.6178;2.0453;
730.8000;0.6243;2.0568;
731.1000;0.6227;2.0568;
731.4000;0.6203;2.0499;
731.7000;0.6219;2.0591;
732.0000;0.6219;2.0545;
732.3000;0.6203;2.0499;
732.6000;0.6211;2.0661;
732.9000;0.6203;2.0522;
733.2000;0.6219;2.0522;
733.5000;0.6227;2.0499;
733.8000;0.6219;2.0476;
734.1000;0.6211;2.0429;
734.4000;0.6219;2.0522;
734.7000;0.6219;2.0615;
735.0000;0.6211;2.0615;
735.3000;0.6219;2.0568;
735.6000;0.6195;2.0453;
735.9000;0.6203;2.0429;
736.2000;0.6203;2.0406;
736.5000;0.6219;2.0383;
736.8000;0.6219;2.0429;
737.1000;0.6211;2.0476;
737.4000;0.6203;2.0453;
737.7000;0.6203;2.0499;
738.0000;0.6203;2.0476;
738.3000;0.6195;2.0383;
738.6000;0.6235;2.0476;
738.9000;0.6203;2.0499;
739.2000;0.6203;2.0453;
739.5000;0.6203;2.0522;
739.8000;0.6211;2.0615;
740.1000;0.6195;2.0615;
740.4000;0.6219;2.0568;
740.7000;0.6203;2.0545;
741.0000;0.6203;2.0499;
741.3000;0.6211;2.0499;
741.6000;0.6211;2.0522;
741.9000;0.6203;2.0591;
742.2000;0.6211;2.0615;
742.5000;0.6219;2.0591;
742.8000;0.6203;2.0638;
743.1000;0.6203;2.0453;
743.4000;0.6195;2.0476;
743.7000;0.6219;2.0545;
744.0000;0.6227;2.0591;
744.3000;0.6211;2.0499;
744.6000;0.6195;2.0545;
744.9000;0.6186;2.0476;
745.2000;0.6219;2.0499;
745.5000;0.6211;2.0453;
745.8000;0.6186;2.0429;
746.1000;0.6195;2.0453;
746.4000;0.6195;2.0453;
746.7000;0.6195;2.0453;
747.0000;0.6211;2.0429;
747.3000;0.6195;2.0499;
747.6000;0.6195;2.0545;
747.9000;0.6211;2.0568;
748.2000;0.6195;2.0545;
748.5000;0.6195;2.0545;
748.8000;0.6203;2.0568;
749.1000;0.6211;2.0568;
749.4000;0.6170;2.0476;
749.7000;0.6186;2.0499;
750.0000;0.6186;2.0545;
750.3000;0.6195;2.0499;
750.6000;0.6211;2.0591;
750.9000;0.6178;2.0545;
751.2000;0.6195;2.0522;
751.5000;0.6203;2.0499;
751.8000;0.6203;2.0476;
752.1000;0.6195;2.0476;
752.4000;0.6203;2.0476;
752.7000;0.6203;2.0429;
753.0000;0.6186;2.0406;
753.3000;0.6195;2.0476;
753.6000;0.6195;2.0453;
753.9000;0.6195;2.0453;
754.2000;0.6186;2.0453;
754.5000;0.6146;2.0406;
754.8000;0.6178;2.0522;
755.1000;0.6178;2.0568;
755.4000;0.6186;2.0568;
755.7000;0.6170;2.0476;
756.0000;0.6154;2.0499;
756.3000;0.6170;2.0545;
756.6000;0.6178;2.0545;
756.9000;0.6162;2.0545;
757.2000;0.6170;2.0591;
757.5000;0.6178;2.0638;
757.8000;0.6178;2.0615;
758.1000;0.6178;2.0568;
758.4000;0.6178;2.0499;
758.7000;0.6162;2.0453;
759.0000;0.6162;2.0453;
759.3000;0.6170;2.0522;
759.6000;0.6154;2.0453;
759.9000;0.6186;2.0545;
760.2000;0.6178;2.0522;
760.5000;0.6186;2.0476;
760.8000;0.6170;2.0568;
761.1000;0.6186;2.0545;
761.4000;0.6186;2.0522;
761.7000;0.6178;2.0476;
762.0000;0.6195;2.0522;
762.3000;0.6186;2.0568;
762.6000;0.6195;2.0568;
762.9000;0.6178;2.0591;
763.2000;0.6186;2.0499;
763.5000;0.6170;2.0406;
763.8000;0.6154;2.0383;
764.1000;0.6178;2.0429;
764.4000;0.6178;2.0406;
764.7000;0.6146;2.0453;
765.0000;0.6178;2.0545;
765.3000;0.6162;2.0638;
765.6000;0.6162;2.0684;
765.9000;0.6162;2.0684;
766.2000;0.6162;2.0615;
766.5000;0.6170;2.0499;
766.8000;0.6195;2.0499;
767.1000;0.6162;2.0499;
767.4000;0.6162;2.0453;
767.7000;0.6178;2.0499;
768.0000;0.6195;2.0545;
768.3000;0.6170;2.0499;
768.6000;0.6162;2.0476;
768.9000;0.6162;2.0383;
769.2000;0.6170;2.0383;
769.5000;0.6154;2.0406;
769.8000;0.6146;2.0429;
770.1000;0.6154;2.0337;
770.4000;0.6162;2.0383;
770.7000;0.6048;2.0198;
771.0000;0.6154;2.0522;
771.3000;0.6154;2.0568;
771.6000;0.6170;2.0591;
771.9000;0.6162;2.0591;
772.2000;0.6154;2.0615;
772.5000;0.6154;2.0638;
772.8000;0.6178;2.0591;
773.1000;0.6154;2.0499;
773.4000;0.6162;2.0568;
773.7000;0.6162;2.0545;
774.0000;0.6154;2.0383;
774.3000;0.6170;2.0337;
774.6000;0.6170;2.0383;
774.9000;0.6162;2.0383;
775.2000;0.6154;2.0429;
775.5000;0.6170;2.0499;
775.8000;0.6170;2.0429;
776.1000;0.6154;2.0453;
776.4000;0.6162;2.0406;
776.7000;0.6146;2.0383;
777.0000;0.6170;2.0499;
777.3000;0.6154;2.0476;
777.6000;0.6154;2.0522;
777.9000;0.6170;2.0638;
778.2000;0.6146;2.0661;
778.5000;0.6154;2.0684;
778.8000;0.6146;2.0661;
779.1000;0.6186;2.0661;
779.4000;0.6170;2.0707;
779.7000;0.6162;2.0684;
780.0000;0.6138;2.0684;
780.3000;0.6154;2.0591;
780.6000;0.6154;2.0522;
780.9000;0.6162;2.0568;
781.2000;0.6146;2.0476;
781.5000;0.6146;2.0453;
781.8000;0.6170;2.0545;
782.1000;0.6170;2.0638;
782.4000;0.6154;2.0615;
782.7000;0.6178;2.0684;
783.0000;0.6162;2.0638;
783.3000;0.6162;2.0591;
783.6000;0.6170;2.0591;
783.9000;0.6154;2.0545;
784.2000;0.6154;2.0522;
784.5000;0.6162;2.0591;
784.8000;0.6146;2.0638;
785.1000;0.6162;2.0684;
785.4000;0.6146;2.0615;
785.7000;0.6138;2.0638;
786.0000;0.6138;2.0638;
786.3000;0.6138;2.0591;
786.6000;0.6129;2.0591;
786.9000;0.6170;2.0638;
787.2000;0.6129;2.0730;
787.5000;0.6146;2.0684;
787.8000;0.6129;2.0591;
788.1000;0.6129;2.0753;
788.4000;0.6138;2.0823;
788.7000;0.6154;2.0800;
789.0000;0.6178;2.0800;
789.3000;0.6146;2.0753;
789.6000;0.6146;2.0730;
789.9000;0.6154;2.0800;
790.2000;0.6138;2.0776;
790.5000;0.6154;2.0823;
790.8000;0.6146;2.0823;
791.1000;0.6170;2.0800;
791.4000;0.6129;2.0615;
791.7000;0.6121;2.0522;
792.0000;0.6121;2.0499;
792.3000;0.6138;2.0545;
792.6000;0.6138;2.0453;
792.9000;0.6138;2.0406;
793.2000;0.6138;2.0453;
793.5000;0.6146;2.0406;
793.8000;0.6170;2.0383;
794.1000;0.6138;2.0360;
794.4000;0.6154;2.0453;
794.7000;0.6178;2.0568;
795.0000;0.6170;2.0522;
795.3000;0.6146;2.0499;
795.6000;0.6146;2.0476;
795.9000;0.6138;2.0545;
796.2000;0.6129;2.0453;
796.5000;0.6138;2.0476;
796.8000;0.6129;2.0406;
797.1000;0.6365;2.0915;
797.4000;0.6146;2.0406;
797.7000;0.6154;2.0429;
798.0000;0.6129;2.0476;
798.3000;0.6138;2.0499;
798.6000;0.6146;2.0522;
798.9000;0.6138;2.0429;
799.2000;0.6121;2.0383;
799.5000;0.6129;2.0499;
799.8000;0.6146;2.0591;
800.1000;0.6129;2.0591;
800.4000;0.6138;2.0591;
800.7000;0.6162;2.0707;
801.0000;0.6138;2.0591;
801.3000;0.6260;2.0869;
801.6000;0.6138;2.0499;
801.9000;0.6121;2.0499;
802.2000;0.6292;2.0915;
802.5000;0.6154;2.0591;
802.8000;0.6146;2.0568;
803.1000;0.6170;2.0499;
803.4000;0.6121;2.0406;
803.7000;0.6138;2.0453;
804.0000;0.6121;2.0545;
804.3000;0.6146;2.0661;
804.6000;0.6129;2.0545;
804.9000;0.6154;2.0615;
805.2000;0.6113;2.0499;
805.5000;0.6129;2.0545;
805.8000;0.6138;2.0591;
806.1000;0.6154;2.0707;
806.4000;0.6121;2.0568;
806.7000;0.6146;2.0684;
807.0000;0.6113;2.0707;
807.3000;0.6121;2.0684;
807.6000;0.6121;2.0661;
807.9000;0.6113;2.0545;
808.2000;0.6081;2.0499;
808.5000;0.6154;2.0638;
808.8000;0.6113;2.0499;
809.1000;0.6121;2.0522;
809.4000;0.6089;2.0429;
809.7000;0.6146;2.0522;
810.0000;0.6138;2.0499;
810.3000;0.6186;2.0707;
810.6000;0.6113;2.0568;
810.9000;0.6113;2.0522;
811.2000;0.6227;2.0776;
811.5000;0.6154;2.0615;
811.8000;0.6162;2.0684;
812.1000;0.6138;2.0615;
812.4000;0.6129;2.0568;
812.7000;0.6195;2.0661;
813.0000;0.6129;2.0661;
813.3000;0.6138;2.0753;
813.6000;0.6146;2.0730;
813.9000;0.6154;2.0776;
814.2000;0.6113;2.0730;
814.5000;0.6186;2.0938;
814.8000;0.6121;2.0730;
815.1000;0.6146;2.0661;
815.4000;0.6121;2.0522;
815.7000;0.6138;2.0545;
816.0000;0.6138;2.0615;
816.3000;0.6146;2.0661;
816.6000;0.6113;2.0638;
816.9000;0.6121;2.0730;
817.2000;0.6105;2.0730;
817.5000;0.6113;2.0753;
817.8000;0.6097;2.0615;
818.1000;0.6121;2.0615;
818.4000;0.6089;2.0499;
818.7000;0.6113;2.0615;
819.0000;0.6129;2.0568;
819.3000;0.6105;2.0429;
819.6000;0.6113;2.0429;
819.9000;0.6113;2.0499;
820.2000;0.6089;2.0406;
820.5000;0.6138;2.0522;
820.8000;0.6097;2.0406;
821.1000;0.6056;2.0383;
821.4000;0.6121;2.0568;
821.7000;0.6121;2.0545;
822.0000;0.6162;2.0684;
822.3000;0.6113;2.0638;
822.6000;0.6113;2.0684;
822.9000;0.6138;2.0638;
823.2000;0.6129;2.0638;
823.5000;0.6105;2.0707;
823.8000;0.6162;2.0846;
824.1000;0.6121;2.0753;
824.4000;0.6113;2.0730;
824.7000;0.6113;2.0730;
825.0000;0.6162;2.0823;
825.3000;0.6113;2.0638;
825.6000;0.6121;2.0638;
825.9000;0.6113;2.0591;
826.2000;0.6162;2.0684;
826.5000;0.6129;2.0568;
826.8000;0.6113;2.0568;
827.1000;0.6121;2.0522;
827.4000;0.6105;2.0522;
827.7000;0.6113;2.0522;
828.0000;0.6203;2.0661;
828.3000;0.6121;2.0476;
828.6000;0.6097;2.0522;
828.9000;0.6129;2.0476;
829.2000;0.6072;2.0314;
829.5000;0.6121;2.0360;
829.8000;0.6162;2.0522;
830.1000;0.6129;2.0568;
830.4000;0.6105;2.0615;
830.7000;0.6121;2.0661;
831.0000;0.6097;2.0591;
831.3000;0.6089;2.0476;
831.6000;0.6121;2.0522;
831.9000;0.6121;2.0429;
832.2000;0.6105;2.0429;
832.5000;0.6105;2.0406;
832.8000;0.6097;2.0337;
833.1000;0.6129;2.0314;
833.4000;0.6064;2.0291;
833.7000;0.6129;2.0429;
834.0000;0.6113;2.0406;
834.3000;0.6048;2.0337;
834.6000;0.6105;2.0476;
834.9000;0.6138;2.0499;
835.2000;0.6121;2.0499;
835.5000;0.6121;2.0545;
835.8000;0.6178;2.0800;
836.1000;0.6129;2.0591;
836.4000;0.6138;2.0522;
836.7000;0.6097;2.0429;
837.0000;0.6121;2.0453;
837.3000;0.6121;2.0476;
837.6000;0.6081;2.0360;
837.9000;0.6162;2.0522;
838.2000;0.6113;2.0406;
838.5000;0.6089;2.0360;
838.8000;0.6105;2.0360;
839.1000;0.6146;2.0499;
839.4000;0.6121;2.0499;
839.7000;0.6129;2.0545;
840.0000;0.6105;2.0568;
840.3000;0.6113;2.0568;
840.6000;0.6105;2.0568;
840.9000;0.6121;2.0638;
841.2000;0.6089;2.0638;
841.5000;0.6146;2.0730;
841.8000;0.6138;2.0753;
842.1000;0.6203;2.0892;
842.4000;0.6089;2.0568;
842.7000;0.6105;2.0522;
843.0000;0.6129;2.0591;
843.3000;0.6089;2.0591;
843.6000;0.6113;2.0661;
843.9000;0.6170;2.0707;
844.2000;0.6105;2.0638;
844.5000;0.6162;2.0753;
844.8000;0.6154;2.0684;
845.1000;0.6097;2.0661;
845.4000;0.6113;2.0591;
845.7000;0.6097;2.0476;
846.0000;0.6154;2.0661;
846.3000;0.6113;2.0568;
846.6000;0.6072;2.0406;
846.9000;0.6097;2.0453;
847.2000;0.6113;2.0499;
847.5000;0.6113;2.0476;
847.8000;0.6089;2.0476;
848.1000;0.6097;2.0499;
848.4000;0.6113;2.0591;
848.7000;0.6138;2.0684;
849.0000;0.6105;2.0615;
849.3000;0.6089;2.0638;
849.6000;0.6097;2.0707;
849.9000;0.6097;2.0638;
850.2000;0.6105;2.0638;
850.5000;0.6105;2.0661;
850.8000;0.6219;2.1008;
851.1000;0.6129;2.0753;
851.4000;0.6146;2.0776;
851.7000;0.6097;2.0661;
852.0000;0.6121;2.0753;
852.3000;0.6097;2.0707;
852.6000;0.6081;2.0753;
852.9000;0.6105;2.0753;
853.2000;0.6121;2.0661;
853.5000;0.6121;2.0591;
853.8000;0.6121;2.0591;
854.1000;0.6097;2.0615;
854.4000;0.6089;2.0730;
854.7000;0.6105;2.0846;
855.0000;0.6121;2.0776;
855.3000;0.6089;2.0661;
855.6000;0.6146;2.0869;
855.9000;0.6113;2.0730;
856.2000;0.6113;2.0615;
856.5000;0.6113;2.0684;
856.8000;0.6097;2.0730;
857.1000;0.6097;2.0707;
857.4000;0.6113;2.0638;
857.7000;0.6154;2.0730;
858.0000;0.6089;2.0730;
858.3000;0.6113;2.0753;
858.6000;0.6089;2.0730;
858.9000;0.6097;2.0776;
859.2000;0.6081;2.0800;
859.5000;0.6089;2.0753;
859.8000;0.6105;2.0846;
860.1000;0.6105;2.0846;
860.4000;0.6081;2.0776;
860.7000;0.6105;2.0753;
861.0000;0.6105;2.0753;
861.3000;0.6113;2.0800;
861.6000;0.6105;2.0753;
861.9000;0.6089;2.0684;
862.2000;0.6138;2.0846;
862.5000;0.6105;2.0776;
862.8000;0.6097;2.0684;
863.1000;0.6081;2.0638;
863.4000;0.6089;2.0615;
863.7000;0.6081;2.0522;
864.0000;0.6097;2.0476;
864.3000;0.6097;2.0476;
864.6000;0.6113;2.0429;
864.9000;0.6072;2.0383;
865.2000;0.6089;2.0499;
865.5000;0.6105;2.0568;
865.8000;0.6121;2.0615;
866.1000;0.6105;2.0568;
866.4000;0.6081;2.0499;
866.7000;0.6097;2.0499;
867.0000;0.6081;2.0522;
867.3000;0.6113;2.0568;
867.6000;0.6105;2.0476;
867.9000;0.6097;2.0429;
868.2000;0.6105;2.0476;
868.5000;0.6089;2.0453;
868.8000;0.6097;2.0522;
869.1000;0.6097;2.0476;
869.4000;0.6081;2.0453;
869.7000;0.6113;2.0453;
870.0000;0.6081;2.0360;
870.3000;0.6081;2.0406;
870.6000;0.6129;2.0476;
870.9000;0.6121;2.0522;
871.2000;0.6097;2.0453;
871.5000;0.6113;2.0545;
871.8000;0.6105;2.0615;
872.1000;0.6097;2.0638;
872.4000;0.6121;2.0753;
872.7000;0.6105;2.0730;
873.0000;0.6089;2.0753;
873.3000;0.6089;2.0776;
873.6000;0.6105;2.0846;
873.9000;0.6121;2.0892;
874.2000;0.6097;2.0869;
874.5000;0.6105;2.0938;
874.8000;0.6081;2.0869;
875.1000;0.6089;2.0800;
875.4000;0.6113;2.0753;
875.7000;0.6105;2.0615;
876.0000;0.6089;2.0522;
876.3000;0.6081;2.0429;
876.6000;0.6105;2.0499;
876.9000;0.6097;2.0522;
877.2000;0.6097;2.0568;
877.5000;0.6089;2.0499;
877.8000;0.6097;2.0476;
878.1000;0.6105;2.0453;
878.4000;0.6097;2.0406;
878.7000;0.6105;2.0383;
879.0000;0.6097;2.0314;
879.3000;0.6097;2.0429;
879.6000;0.6097;2.0406;
879.9000;0.6089;2.0499;
880.2000;0.6113;2.0522;
880.5000;0.6089;2.0522;
880.8000;0.6097;2.0545;
881.1000;0.6097;2.0591;
881.4000;0.6097;2.0591;
881.7000;0.6105;2.0591;
882.0000;0.6105;2.0591;
882.3000;0.6105;2.0568;
882.6000;0.6113;2.0615;
882.9000;0.6105;2.0638;
883.2000;0.6089;2.0591;
883.5000;0.6097;2.0638;
883.8000;0.6105;2.0661;
884.1000;0.6113;2.0684;
884.4000;0.6097;2.0661;
884.7000;0.6105;2.0661;
885.0000;0.6097;2.0661;
885.3000;0.6089;2.0615;
885.6000;0.6089;2.0615;
885.9000;0.6081;2.0638;
886.2000;0.6081;2.0684;
886.5000;0.6113;2.0661;
886.8000;0.6089;2.0591;
887.1000;0.6056;2.0476;
887.4000;0.6089;2.0591;
887.7000;0.6097;2.0615;
888.0000;0.6089;2.0545;
888.3000;0.6089;2.0591;
888.6000;0.6089;2.0661;
888.9000;0.6081;2.0591;
889.2000;0.6089;2.0522;
889.5000;0.6097;2.0591;
889.8000;0.6081;2.0522;
890.1000;0.6089;2.0476;
890.4000;0.6089;2.0522;
890.7000;0.6081;2.0522;
891.0000;0.6089;2.0499;
891.3000;0.6081;2.0522;
891.6000;0.6081;2.0499;
891.9000;0.6089;2.0591;
892.2000;0.6105;2.0615;
892.5000;0.6089;2.0615;
892.8000;0.6072;2.0591;
893.1000;0.6015;2.0476;
893.4000;0.6097;2.0568;
893.7000;0.6072;2.0568;
894.0000;0.6089;2.0522;
894.3000;0.6072;2.0476;
894.6000;0.6097;2.0545;
894.9000;0.6089;2.0591;
895.2000;0.6105;2.0661;
895.5000;0.6081;2.0707;
895.8000;0.6105;2.0776;
896.1000;0.6097;2.0776;
896.4000;0.6089;2.0730;
896.7000;0.6105;2.0800;
897.0000;0.6089;2.0776;
897.3000;0.6097;2.0846;
897.6000;0.6081;2.0800;
897.9000;0.6072;2.0800;
898.2000;0.6089;2.0730;
898.5000;0.6097;2.0707;
898.8000;0.6097;2.0707;
899.1000;0.6081;2.0684;
899.4000;0.6081;2.0684;
899.7000;0.6097;2.0661;
900.0000;0.6081;2.0684;
900.3000;0.6097;2.0707;
900.6000;0.6113;2.0684;
900.9000;0.6097;2.0615;
901.2000;0.6138;2.0753;
901.5000;0.6097;2.0661;
901.8000;0.6097;2.0638;
902.1000;0.6072;2.0707;
902.4000;0.6089;2.0846;
902.7000;0.6056;2.0753;
903.0000;0.6105;2.0800;
903.3000;0.6089;2.0823;
903.6000;0.6081;2.0892;
903.9000;0.6072;2.0869;
904.2000;0.6081;2.0869;
904.5000;0.6089;2.0800;
904.8000;0.6097;2.0730;
905.1000;0.6081;2.0638;
905.4000;0.6072;2.0638;
905.7000;0.6064;2.0684;
906.0000;0.6097;2.0846;
906.3000;0.6089;2.0753;
906.6000;0.6105;2.0823;
906.9000;0.6097;2.0800;
907.2000;0.5999;2.0522;
907.5000;0.6097;2.0823;
907.8000;0.6064;2.0823;
908.1000;0.6015;2.0707;
908.4000;0.6089;2.0915;
908.7000;0.6081;2.0823;
909.0000;0.6146;2.0938;
909.3000;0.6081;2.0730;
909.6000;0.6072;2.0707;
909.9000;0.6097;2.0707;
910.2000;0.6154;2.0753;
910.5000;0.6081;2.0499;
910.8000;0.6097;2.0476;
911.1000;0.6081;2.0453;
911.4000;0.6081;2.0429;
911.7000;0.6081;2.0476;
912.0000;0.6097;2.0429;
912.3000;0.6040;2.0244;
912.6000;0.6081;2.0337;
912.9000;0.6089;2.0406;
913.2000;0.6081;2.0499;
913.5000;0.6072;2.0545;
913.8000;0.6072;2.0638;
914.1000;0.6089;2.0661;
914.4000;0.6081;2.0568;
914.7000;0.6081;2.0499;
915.0000;0.6089;2.0499;
915.3000;0.6089;2.0522;
915.6000;0.6081;2.0429;
915.9000;0.6072;2.0453;
916.2000;0.6072;2.0568;
916.5000;0.6072;2.0661;
916.8000;0.6072;2.0661;
917.1000;0.6072;2.0568;
917.4000;0.6081;2.0661;
917.7000;0.6089;2.0707;
918.0000;0.6105;2.0684;
918.3000;0.6081;2.0684;
918.6000;0.6081;2.0684;
918.9000;0.6089;2.0638;
919.2000;0.6064;2.0568;
919.5000;0.6072;2.0522;
919.8000;0.6072;2.0522;
920.1000;0.6089;2.0499;
920.4000;0.6064;2.0453;
920.7000;0.6056;2.0337;
921.0000;0.6072;2.0429;
921.3000;0.6105;2.0545;
921.6000;0.6072;2.0545;
921.9000;0.6097;2.0707;
922.2000;0.6081;2.0684;
922.5000;0.6089;2.0730;
922.8000;0.6097;2.0753;
923.1000;0.6032;2.0591;
923.4000;0.6081;2.0776;
923.7000;0.6072;2.0753;
924.0000;0.6064;2.0707;
924.3000;0.6121;2.0730;
924.6000;0.6089;2.0684;
924.9000;0.6072;2.0638;
925.2000;0.6064;2.0615;
925.5000;0.6081;2.0661;
925.8000;0.6089;2.0638;
926.1000;0.6056;2.0522;
926.4000;0.6089;2.0638;
926.7000;0.6081;2.0684;
927.0000;0.6056;2.0615;
927.3000;0.6056;2.0545;
927.6000;0.6097;2.0545;
927.9000;0.6089;2.0545;
928.2000;0.6048;2.0476;
928.5000;0.6064;2.0545;
928.8000;0.6121;2.0591;
929.1000;0.6056;2.0429;
929.4000;0.6056;2.0429;
929.7000;0.6097;2.0545;
930.0000;0.6064;2.0591;
930.3000;0.6097;2.0800;
930.6000;0.6097;2.0823;
930.9000;0.6072;2.0730;
931.2000;0.6072;2.0707;
931.5000;0.6089;2.0753;
931.8000;0.6072;2.0707;
932.1000;0.6081;2.0615;
932.4000;0.6056;2.0568;
932.7000;0.6072;2.0591;
933.0000;0.6089;2.0522;
933.3000;0.6056;2.0429;
933.6000;0.6081;2.0476;
933.9000;0.6081;2.0522;
934.2000;0.6048;2.0360;
934.5000;0.6105;2.0453;
934.8000;0.6081;2.0499;
935.1000;0.6081;2.0499;
935.4000;0.6105;2.0499;
935.7000;0.6081;2.0522;
936.0000;0.6081;2.0360;
936.3000;0.6072;2.0360;
936.6000;0.6097;2.0383;
936.9000;0.6081;2.0406;
937.2000;0.6129;2.0615;
937.5000;0.6081;2.0615;
937.8000;0.6072;2.0638;
938.1000;0.6072;2.0638;
938.4000;0.6048;2.0638;
938.7000;0.6072;2.0730;
939.0000;0.6081;2.0661;
939.3000;0.6097;2.0661;
939.6000;0.6121;2.0753;
939.9000;0.6081;2.0615;
940.2000;0.6040;2.0568;
940.5000;0.6089;2.0638;
940.8000;0.6097;2.0661;
941.1000;0.6072;2.0661;
941.4000;0.6105;2.0638;
941.7000;0.6064;2.0545;
942.0000;0.6105;2.0591;
942.3000;0.6064;2.0429;
942.6000;0.6072;2.0545;
942.9000;0.6129;2.0684;
943.2000;0.6089;2.0661;
943.5000;0.6089;2.0684;
943.8000;0.6072;2.0615;
944.1000;0.6064;2.0661;
944.4000;0.6024;2.0591;
944.7000;0.6081;2.0776;
945.0000;0.5967;2.0499;
945.3000;0.6113;2.0800;
945.6000;0.6138;2.0823;
945.9000;0.6186;2.0938;
946.2000;0.6081;2.0638;
946.5000;0.6121;2.0753;
946.8000;0.6064;2.0615;
947.1000;0.6064;2.0591;
947.4000;0.6081;2.0684;
947.7000;0.6081;2.0615;
948.0000;0.6056;2.0568;
948.3000;0.6146;2.0707;
948.6000;0.6097;2.0545;
948.9000;0.6056;2.0453;
949.2000;0.6064;2.0545;
949.5000;0.6064;2.0522;
949.8000;0.6113;2.0638;
950.1000;0.6089;2.0615;
950.4000;0.6072;2.0545;
950.7000;0.6072;2.0568;
951.0000;0.6064;2.0591;
951.3000;0.6056;2.0545;
951.6000;0.6113;2.0684;
951.9000;0.6040;2.0545;
952.2000;0.6081;2.0615;
952.5000;0.6056;2.0568;
952.8000;0.6081;2.0707;
953.1000;0.6081;2.0684;
953.4000;0.6056;2.0615;
953.7000;0.6089;2.0638;
954.0000;0.6081;2.0638;
954.3000;0.6072;2.0730;
954.6000;0.6105;2.0892;
954.9000;0.6089;2.0915;
955.2000;0.6064;2.0846;
955.5000;0.6032;2.0753;
955.8000;0.6081;2.0823;
956.1000;0.6064;2.0707;
956.4000;0.6015;2.0545;
956.7000;0.6121;2.0661;
957.0000;0.6048;2.0453;
957.3000;0.6040;2.0406;
957.6000;0.6154;2.0638;
957.9000;0.6056;2.0476;
958.2000;0.6081;2.0522;
958.5000;0.6072;2.0453;
958.8000;0.6081;2.0383;
959.1000;0.6089;2.0406;
959.4000;0.6105;2.0499;
959.7000;0.6064;2.0453;
960.0000;0.6056;2.0453;
960.3000;0.6072;2.0499;
960.6000;0.6064;2.0568;
960.9000;0.6081;2.0661;
961.2000;0.6081;2.0568;
961.5000;0.6072;2.0476;
961.8000;0.6064;2.0522;
962.1000;0.6089;2.0568;
962.4000;0.6056;2.0406;
962.7000;0.6072;2.0406;
963.0000;0.6072;2.0383;
963.3000;0.6056;2.0406;
963.6000;0.6032;2.0522;
963.9000;0.6097;2.0684;
964.2000;0.6064;2.0730;
964.5000;0.6056;2.0707;
964.8000;0.6048;2.0638;
965.1000;0.6081;2.0707;
965.4000;0.6081;2.0730;
965.7000;0.6097;2.0823;
966.0000;0.6097;2.0869;
966.3000;0.6072;2.0823;
966.6000;0.6064;2.0753;
966.9000;0.6097;2.0776;
967.2000;0.6064;2.0730;
967.5000;0.6089;2.0707;
967.8000;0.6056;2.0638;
968.1000;0.6007;2.0545;
968.4000;0.6056;2.0684;
968.7000;0.6081;2.0707;
969.0000;0.6089;2.0684;
969.3000;0.6064;2.0638;
969.6000;0.6007;2.0522;
969.9000;0.6089;2.0684;
970.2000;0.6081;2.0638;
970.5000;0.6089;2.0707;
970.8000;0.6024;2.0638;
971.1000;0.6072;2.0730;
971.4000;0.6072;2.0638;
971.7000;0.6081;2.0591;
972.0000;0.6064;2.0499;
972.3000;0.6105;2.0638;
972.6000;0.6081;2.0545;
972.9000;0.6072;2.0499;
973.2000;0.6072;2.0499;
973.5000;0.6072;2.0476;
973.8000;0.6056;2.0429;
974.1000;0.6072;2.0406;
974.4000;0.6064;2.0591;
974.7000;0.6064;2.0615;
975.0000;0.6081;2.0591;
975.3000;0.6072;2.0522;
975.6000;0.6072;2.0591;
975.9000;0.6064;2.0638;
976.2000;0.6064;2.0591;
976.5000;0.6064;2.0661;
976.8000;0.6089;2.0661;
977.1000;0.6064;2.0730;
977.4000;0.6072;2.0753;
977.7000;0.6056;2.0730;
978.0000;0.6089;2.0753;
978.3000;0.6040;2.0568;
978.6000;0.6064;2.0661;
978.9000;0.6056;2.0684;
979.2000;0.6072;2.0753;
979.5000;0.6048;2.0684;
979.8000;0.6064;2.0661;
980.1000;0.6064;2.0615;
980.4000;0.6081;2.0615;
980.7000;0.6048;2.0568;
981.0000;0.6072;2.0545;
981.3000;0.6081;2.0615;
981.6000;0.6072;2.0661;
981.9000;0.6081;2.0730;
982.2000;0.6056;2.0615;
982.5000;0.6048;2.0661;
982.8000;0.6064;2.0753;
983.1000;0.6064;2.0684;
983.4000;0.6072;2.0615;
983.7000;0.6040;2.0638;
984.0000;0.6064;2.0684;
984.3000;0.6064;2.0684;
984.6000;0.6056;2.0684;
984.9000;0.6048;2.0615;
985.2000;0.6081;2.0684;
985.5000;0.6081;2.0661;
985.8000;0.6081;2.0568;
986.1000;0.6081;2.0591;
986.4000;0.6072;2.0661;
986.7000;0.6097;2.0753;
987.0000;0.6056;2.0591;
987.3000;0.6064;2.0615;
987.6000;0.6056;2.0638;
987.9000;0.6072;2.0615;
988.2000;0.6056;2.0638;
988.5000;0.6072;2.0545;
988.8000;0.6056;2.0476;
989.1000;0.6056;2.0453;
989.4000;0.6056;2.0406;
989.7000;0.6056;2.0429;
990.0000;0.6081;2.0499;
990.3000;0.6081;2.0568;
990.6000;0.6129;2.0707;
990.9000;0.6064;2.0545;
991.2000;0.6064;2.0591;
991.5000;0.6048;2.0568;
991.8000;0.6064;2.0707;
992.1000;0.6064;2.0684;
992.4000;0.6056;2.0615;
992.7000;0.6056;2.0522;
993.0000;0.6097;2.0499;
993.3000;0.6072;2.0429;
993.6000;0.6072;2.0476;
993.9000;0.6048;2.0545;
994.2000;0.6072;2.0545;
994.5000;0.6064;2.0499;
994.8000;0.6072;2.0476;
995.1000;0.6064;2.0406;
995.4000;0.6056;2.0499;
995.7000;0.6072;2.0499;
996.0000;0.6056;2.0476;
996.3000;0.6048;2.0545;
996.6000;0.6064;2.0615;
996.9000;0.6072;2.0568;
997.2000;0.6056;2.0522;
997.5000;0.6064;2.0568;
997.8000;0.6072;2.0615;
998.1000;0.6048;2.0638;
998.4000;0.6056;2.0591;
998.7000;0.6056;2.0615;
999.0000;0.6056;2.0568;
999.3000;0.6072;2.0615;
999.6000;0.6064;2.0661;
999.9000;0.6056;2.0568;
1000.2000;0.6048;2.0591;
1000.5000;0.6056;2.0661;
1000.8000;0.6056;2.0684;
1001.1000;0.6089;2.0753;
1001.4000;0.6072;2.0684;
1001.7000;0.6064;2.0661;
1002.0000;0.6064;2.0707;
1002.3000;0.6064;2.0661;
1002.6000;0.6081;2.0638;
1002.9000;0.6081;2.0522;
1003.2000;0.6056;2.0476;
1003.5000;0.6056;2.0499;
1003.8000;0.6056;2.0591;
1004.1000;0.6064;2.0638;
1004.4000;0.6048;2.0591;
1004.7000;0.6048;2.0476;
1005.0000;0.6040;2.0499;
1005.3000;0.6072;2.0568;
1005.6000;0.6064;2.0591;
1005.9000;0.6081;2.0638;
1006.2000;0.6072;2.0615;
1006.5000;0.6072;2.0661;
1006.8000;0.6072;2.0707;
1007.1000;0.6072;2.0661;
1007.4000;0.6081;2.0638;
1007.7000;0.6072;2.0638;
1008.0000;0.6056;2.0615;
1008.3000;0.6072;2.0707;
1008.6000;0.6056;2.0753;
1008.9000;0.6064;2.0730;
1009.2000;0.6048;2.0776;
1009.5000;0.6048;2.0753;
1009.8000;0.6064;2.0753;
1010.1000;0.6040;2.0684;
1010.4000;0.6040;2.0684;
1010.7000;0.6064;2.0730;
1011.0000;0.6089;2.0661;
1011.3000;0.6072;2.0545;
1011.6000;0.6072;2.0661;
1011.9000;0.6056;2.0591;
1012.2000;0.6072;2.0684;
1012.5000;0.6072;2.0730;
1012.8000;0.6056;2.0684;
1013.1000;0.6056;2.0776;
1013.4000;0.6056;2.0823;
1013.7000;0.6056;2.0846;
1014.0000;0.6040;2.0846;
1014.3000;0.6056;2.0800;
1014.6000;0.6089;2.0776;
1014.9000;0.6048;2.0684;
1015.2000;0.5926;2.0522;
1015.5000;0.6064;2.0869;
1015.8000;0.6056;2.0776;
1016.1000;0.6056;2.0823;
1016.4000;0.6072;2.0776;
1016.7000;0.6056;2.0707;
1017.0000;0.6064;2.0800;
1017.3000;0.6040;2.0823;
1017.6000;0.6072;2.0869;
1017.9000;0.6056;2.0800;
1018.2000;0.6048;2.0776;
1018.5000;0.6072;2.0823;
1018.8000;0.6072;2.0800;
1019.1000;0.6089;2.0823;
1019.4000;0.6056;2.0823;
1019.7000;0.6121;2.0985;
1020.0000;0.6056;2.0846;
1020.3000;0.6056;2.0823;
1020.6000;0.6056;2.0823;
1020.9000;0.6056;2.0823;
1021.2000;0.6105;2.0869;
1021.5000;0.6056;2.0776;
1021.8000;0.6097;2.0869;
1022.1000;0.6064;2.0823;
1022.4000;0.6056;2.0800;
1022.7000;0.5999;2.0638;
1023.0000;0.6072;2.0823;
1023.3000;0.6064;2.0823;
1023.6000;0.6056;2.0823;
1023.9000;0.6064;2.0846;
1024.2000;0.6081;2.0823;
1024.5000;0.6048;2.0707;
1024.8000;0.6048;2.0684;
1025.1000;0.6072;2.0776;
1025.4000;0.6056;2.0753;
1025.7000;0.6032;2.0776;
1026.0000;0.6064;2.0823;
1026.3000;0.6056;2.0753;
1026.6000;0.6072;2.0730;
1026.9000;0.6048;2.0615;
1027.2000;0.6072;2.0661;
1027.5000;0.6072;2.0661;
1027.8000;0.6064;2.0707;
1028.1000;0.6072;2.0730;
1028.4000;0.6064;2.0707;
1028.7000;0.6072;2.0730;
1029.0000;0.6097;2.0823;
1029.3000;0.6081;2.0776;
1029.6000;0.6072;2.0684;
1029.9000;0.6064;2.0730;
1030.2000;0.6097;2.0823;
1030.5000;0.6072;2.0684;
1030.8000;0.6064;2.0707;
1031.1000;0.6040;2.0846;
1031.4000;0.6064;2.0823;
1031.7000;0.6081;2.0776;
1032.0000;0.6032;2.0615;
1032.3000;0.6048;2.0684;
1032.6000;0.6072;2.0753;
1032.9000;0.6056;2.0753;
1033.2000;0.6113;2.0846;
1033.5000;0.6064;2.0707;
1033.8000;0.6064;2.0730;
1034.1000;0.6064;2.0661;
1034.4000;0.6064;2.0638;
1034.7000;0.6056;2.0545;
1035.0000;0.5958;2.0244;
1035.3000;0.6064;2.0522;
1035.6000;0.6040;2.0522;
1035.9000;0.6048;2.0545;
1036.2000;0.6056;2.0545;
1036.5000;0.6048;2.0545;
1036.8000;0.6056;2.0568;
1037.1000;0.6032;2.0545;
1037.4000;0.6048;2.0591;
1037.7000;0.6048;2.0545;
1038.0000;0.6048;2.0568;
1038.3000;0.6064;2.0591;
1038.6000;0.6056;2.0591;
1038.9000;0.6064;2.0591;
1039.2000;0.6064;2.0638;
1039.5000;0.6032;2.0522;
1039.8000;0.6056;2.0591;
1040.1000;0.6032;2.0522;
1040.4000;0.6056;2.0568;
1040.7000;0.6121;2.0753;
1041.0000;0.6040;2.0522;
1041.3000;0.6040;2.0522;
1041.6000;0.6064;2.0661;
1041.9000;0.6048;2.0684;
1042.2000;0.6056;2.0776;
1042.5000;0.6081;2.0730;
1042.8000;0.6170;2.1031;
1043.1000;0.6064;2.0846;
1043.4000;0.5999;2.0568;
1043.7000;0.6024;2.0615;
1044.0000;0.6056;2.0661;
1044.3000;0.6024;2.0522;
1044.6000;0.6056;2.0661;
1044.9000;0.6105;2.0730;
1045.2000;0.6089;2.0638;
1045.5000;0.6064;2.0638;
1045.8000;0.6048;2.0591;
1046.1000;0.6048;2.0684;
1046.4000;0.6072;2.0684;
1046.7000;0.6064;2.0568;
1047.0000;0.6048;2.0476;
1047.3000;0.6048;2.0568;
1047.6000;0.6064;2.0615;
1047.9000;0.6048;2.0545;
1048.2000;0.6089;2.0638;
1048.5000;0.6048;2.0522;
1048.8000;0.6040;2.0522;
1049.1000;0.6064;2.0638;
1049.4000;0.6056;2.0591;
1049.7000;0.6048;2.0545;
1050.0000;0.6064;2.0545;
1050.3000;0.6048;2.0591;
1050.6000;0.6048;2.0684;
1050.9000;0.6081;2.0707;
1051.2000;0.6072;2.0615;
1051.5000;0.6056;2.0591;
1051.8000;0.6195;2.0962;
1052.1000;0.6015;2.0522;
1052.4000;0.6048;2.0568;
1052.7000;0.6056;2.0499;
1053.0000;0.6056;2.0522;
1053.3000;0.6097;2.0638;
1053.6000;0.6056;2.0545;
1053.9000;0.6040;2.0499;
1054.2000;0.6056;2.0545;
1054.5000;0.6178;2.0869;
1054.8000;0.6056;2.0615;
1055.1000;0.6048;2.0638;
1055.4000;0.6048;2.0545;
1055.7000;0.6064;2.0568;
1056.0000;0.6040;2.0499;
1056.3000;0.6032;2.0429;
1056.6000;0.6048;2.0360;
1056.9000;0.6048;2.0337;
1057.2000;0.6089;2.0453;
1057.5000;0.6048;2.0453;
1057.8000;0.6024;2.0429;
1058.1000;0.6040;2.0429;
1058.4000;0.6048;2.0476;
1058.7000;0.6048;2.0406;
1059.0000;0.6081;2.0499;
1059.3000;0.6048;2.0499;
1059.6000;0.6072;2.0568;
1059.9000;0.6048;2.0522;
1060.2000;0.6024;2.0429;
1060.5000;0.6048;2.0522;
1060.8000;0.6048;2.0568;
1061.1000;0.6072;2.0638;
1061.4000;0.6072;2.0684;
1061.7000;0.6064;2.0730;
1062.0000;0.6040;2.0707;
1062.3000;0.6056;2.0615;
1062.6000;0.6048;2.0615;
1062.9000;0.6032;2.0545;
1063.2000;0.6048;2.0476;
1063.5000;0.6089;2.0568;
1063.8000;0.6015;2.0522;
1064.1000;0.6056;2.0522;
1064.4000;0.6072;2.0591;
1064.7000;0.6146;2.0823;
1065.0000;0.6048;2.0568;
1065.3000;0.6040;2.0453;
1065.6000;0.6032;2.0453;
1065.9000;0.6064;2.0522;
1066.2000;0.6081;2.0591;
1066.5000;0.6024;2.0453;
1066.8000;0.6024;2.0499;
1067.1000;0.6048;2.0615;
1067.4000;0.6072;2.0638;
1067.7000;0.6056;2.0638;
1068.0000;0.6056;2.0615;
1068.3000;0.5999;2.0499;
1068.6000;0.6040;2.0615;
1068.9000;0.6072;2.0730;
1069.2000;0.6048;2.0707;
1069.5000;0.6064;2.0823;
1069.8000;0.6064;2.0730;
1070.1000;0.6064;2.0753;
1070.4000;0.6072;2.0730;
1070.7000;0.6048;2.0661;
1071.0000;0.6048;2.0684;
1071.3000;0.6064;2.0730;
1071.6000;0.6064;2.0753;
1071.9000;0.6056;2.0684;
1072.2000;0.6064;2.0707;
1072.5000;0.6081;2.0776;
1072.8000;0.6056;2.0800;
1073.1000;0.6048;2.0730;
1073.4000;0.6024;2.0591;
1073.7000;0.6040;2.0591;
1074.0000;0.6032;2.0591;
1074.3000;0.6113;2.0800;
1074.6000;0.6056;2.0615;
1074.9000;0.6048;2.0545;
1075.2000;0.6048;2.0545;
1075.5000;0.6064;2.0522;
1075.8000;0.6024;2.0453;
1076.1000;0.6040;2.0499;
1076.4000;0.6056;2.0522;
1076.7000;0.6032;2.0429;
1077.0000;0.6048;2.0429;
1077.3000;0.6081;2.0522;
1077.6000;0.6072;2.0591;
1077.9000;0.6056;2.0568;
1078.2000;0.6048;2.0568;
1078.5000;0.6072;2.0568;
1078.8000;0.6048;2.0522;
1079.1000;0.6048;2.0476;
1079.4000;0.6040;2.0383;
1079.7000;0.5991;2.0175;
1080.0000;0.6064;2.0314;
1080.3000;0.6056;2.0360;
1080.6000;0.6081;2.0337;
1080.9000;0.6040;2.0337;
1081.2000;0.6048;2.0360;
1081.5000;0.6048;2.0360;
1081.8000;0.6072;2.0429;
1082.1000;0.6048;2.0360;
1082.4000;0.6024;2.0453;
1082.7000;0.6056;2.0568;
1083.0000;0.6040;2.0499;
1083.3000;0.6040;2.0453;
1083.6000;0.6048;2.0476;
1083.9000;0.6072;2.0476;
1084.2000;0.6072;2.0383;
1084.5000;0.6048;2.0314;
1084.8000;0.6064;2.0383;
1085.1000;0.6056;2.0383;
1085.4000;0.6056;2.0429;
1085.7000;0.6032;2.0522;
1086.0000;0.6048;2.0638;
1086.3000;0.6040;2.0591;
1086.6000;0.6056;2.0591;
1086.9000;0.6040;2.0615;
1087.2000;0.6040;2.0661;
1087.5000;0.6056;2.0684;
1087.8000;0.6032;2.0707;
1088.1000;0.6048;2.0661;
1088.4000;0.6048;2.0661;
1088.7000;0.6048;2.0707;
1089.0000;0.6048;2.0753;
1089.3000;0.6056;2.0823;
1089.6000;0.6048;2.0846;
1089.9000;0.6040;2.0776;
1090.2000;0.6072;2.0823;
1090.5000;0.6056;2.0823;
1090.8000;0.6064;2.0776;
1091.1000;0.6056;2.0661;
1091.4000;0.6064;2.0730;
1091.7000;0.6056;2.0684;
1092.0000;0.6048;2.0753;
1092.3000;0.6048;2.0823;
1092.6000;0.6024;2.0776;
1092.9000;0.6024;2.0753;
1093.2000;0.6040;2.0753;
1093.5000;0.6056;2.0684;
1093.8000;0.6056;2.0545;
1094.1000;0.6048;2.0615;
1094.4000;0.6048;2.0638;
1094.7000;0.6040;2.0568;
1095.0000;0.6032;2.0522;
1095.3000;0.6129;2.0753;
1095.6000;0.6048;2.0545;
1095.9000;0.6056;2.0638;
1096.2000;0.6056;2.0730;
1096.5000;0.6024;2.0707;
1096.8000;0.6064;2.0684;
1097.1000;0.6040;2.0568;
1097.4000;0.6056;2.0545;
1097.7000;0.6048;2.0453;
1098.0000;0.6056;2.0429;
1098.3000;0.6056;2.0406;
1098.6000;0.6113;2.0615;
1098.9000;0.6032;2.0453;
1099.2000;0.6040;2.0453;
1099.5000;0.6040;2.0499;
1099.8000;0.6024;2.0429;
1100.1000;0.6048;2.0453;
1100.4000;0.6040;2.0453;
1100.7000;0.6040;2.0360;
1101.0000;0.6048;2.0383;
1101.3000;0.6040;2.0406;
1101.6000;0.6024;2.0360;
1101.9000;0.6056;2.0429;
1102.2000;0.6024;2.0406;
1102.5000;0.6040;2.0499;
1102.8000;0.6040;2.0591;
1103.1000;0.5983;2.0499;
1103.4000;0.6032;2.0591;
1103.7000;0.6032;2.0615;
1104.0000;0.6032;2.0476;
1104.3000;0.6072;2.0545;
1104.6000;0.6056;2.0545;
1104.9000;0.6048;2.0406;
1105.2000;0.6048;2.0314;
1105.5000;0.6056;2.0383;
1105.8000;0.6056;2.0453;
1106.1000;0.6048;2.0615;
1106.4000;0.6040;2.0591;
1106.7000;0.5999;2.0638;
1107.0000;0.6072;2.0776;
1107.3000;0.6064;2.0776;
1107.6000;0.6032;2.0707;
1107.9000;0.6040;2.0753;
1108.2000;0.6048;2.0730;
1108.5000;0.6024;2.0568;
1108.8000;0.6048;2.0476;
1109.1000;0.6024;2.0360;
1109.4000;0.6024;2.0429;
1109.7000;0.6015;2.0429;
1110.0000;0.6032;2.0545;
1110.3000;0.6040;2.0661;
1110.6000;0.6048;2.0568;
1110.9000;0.6024;2.0499;
1111.2000;0.6032;2.0522;
1111.5000;0.6056;2.0591;
1111.8000;0.6040;2.0615;
1112.1000;0.6056;2.0638;
1112.4000;0.6064;2.0638;
1112.7000;0.6032;2.0591;
1113.0000;0.6048;2.0591;
1113.3000;0.6048;2.0568;
1113.6000;0.6040;2.0661;
1113.9000;0.6056;2.0753;
1114.2000;0.6024;2.0707;
1114.5000;0.6024;2.0753;
1114.8000;0.6040;2.0869;
1115.1000;0.5991;2.0869;
1115.4000;0.6048;2.1031;
1115.7000;0.6056;2.1054;
1116.0000;0.6032;2.0869;
1116.3000;0.6048;2.0915;
1116.6000;0.6056;2.0915;
1116.9000;0.6048;2.0846;
1117.2000;0.6048;2.0892;
1117.5000;0.6121;2.1054;
1117.8000;0.6024;2.0869;
1118.1000;0.6032;2.0938;
1118.4000;0.6040;2.0846;
1118.7000;0.6097;2.0869;
1119.0000;0.6048;2.0707;
1119.3000;0.5999;2.0545;
1119.6000;0.6024;2.0638;
1119.9000;0.6040;2.0661;
1120.2000;0.6048;2.0730;
1120.5000;0.6024;2.0615;
1120.8000;0.6048;2.0753;
1121.1000;0.5950;2.0615;
1121.4000;0.6040;2.0846;
1121.7000;0.6048;2.0753;
1122.0000;0.6032;2.0661;
1122.3000;0.6032;2.0638;
1122.6000;0.6040;2.0684;
1122.9000;0.6015;2.0591;
1123.2000;0.6072;2.0776;
1123.5000;0.6089;2.0846;
1123.8000;0.6040;2.0730;
1124.1000;0.6007;2.0661;
1124.4000;0.6007;2.0800;
1124.7000;0.6040;2.0938;
1125.0000;0.6040;2.0869;
1125.3000;0.6007;2.0823;
1125.6000;0.6113;2.1031;
1125.9000;0.6056;2.0892;
1126.2000;0.6048;2.0776;
1126.5000;0.6056;2.0730;
1126.8000;0.6032;2.0638;
1127.1000;0.5950;2.0429;
1127.4000;0.6032;2.0776;
1127.7000;0.6040;2.0823;
1128.0000;0.6032;2.0846;
1128.3000;0.6121;2.1008;
1128.6000;0.6040;2.0776;
1128.9000;0.6032;2.0776;
1129.2000;0.6048;2.0753;
1129.5000;0.6040;2.0684;
1129.8000;0.6040;2.0684;
1130.1000;0.6024;2.0661;
1130.4000;0.6048;2.0638;
1130.7000;0.6040;2.0684;
1131.0000;0.6040;2.0684;
1131.3000;0.6056;2.0615;
1131.6000;0.6048;2.0591;
1131.9000;0.6032;2.0615;
1132.2000;0.6056;2.0730;
1132.5000;0.6040;2.0730;
1132.8000;0.6048;2.0846;
1133.1000;0.6032;2.0869;
1133.4000;0.6015;2.0892;
1133.7000;0.6032;2.0915;
1134.0000;0.6048;2.0915;
1134.3000;0.6015;2.0800;
1134.6000;0.6040;2.0753;
1134.9000;0.6032;2.0753;
1135.2000;0.6048;2.0823;
1135.5000;0.6048;2.0800;
1135.8000;0.6105;2.0869;
1136.1000;0.5999;2.0591;
1136.4000;0.6007;2.0638;
1136.7000;0.6024;2.0661;
1137.0000;0.6048;2.0638;
1137.3000;0.6048;2.0661;
1137.6000;0.6032;2.0638;
1137.9000;0.6032;2.0661;
1138.2000;0.6040;2.0684;
1138.5000;0.6007;2.0684;
1138.8000;0.6024;2.0730;
1139.1000;0.6056;2.0800;
1139.4000;0.5983;2.0638;
1139.7000;0.6040;2.0730;
1140.0000;0.6056;2.0707;
1140.3000;0.6048;2.0776;
1140.6000;0.6064;2.0800;
1140.9000;0.6048;2.0846;
1141.2000;0.6040;2.0823;
1141.5000;0.6048;2.0800;
1141.8000;0.6024;2.0661;
1142.1000;0.6146;2.1077;
1142.4000;0.6032;2.0846;
1142.7000;0.6048;2.0823;
1143.0000;0.6024;2.0753;
1143.3000;0.6097;2.0892;
1143.6000;0.6024;2.0776;
1143.9000;0.6024;2.0776;
1144.2000;0.6032;2.0730;
1144.5000;0.6048;2.0753;
1144.8000;0.6040;2.0684;
1145.1000;0.6040;2.0661;
1145.4000;0.6056;2.0684;
1145.7000;0.6048;2.0753;
1146.0000;0.6015;2.0776;
1146.3000;0.6040;2.0823;
1146.6000;0.6048;2.0753;
1146.9000;0.6048;2.0684;
1147.2000;0.6121;2.0823;
1147.5000;0.6032;2.0707;
1147.8000;0.6040;2.0776;
1148.1000;0.6072;2.0730;
1148.4000;0.6056;2.0568;
1148.7000;0.6032;2.0453;
1149.0000;0.6064;2.0545;
1149.3000;0.6040;2.0522;
1149.6000;0.6040;2.0591;
1149.9000;0.6048;2.0730;
1150.2000;0.6032;2.0730;
1150.5000;0.6064;2.0753;
1150.8000;0.6040;2.0638;
1151.1000;0.6007;2.0684;
1151.4000;0.5983;2.0707;
1151.7000;0.6056;2.0823;
1152.0000;0.6032;2.0800;
1152.3000;0.6138;2.0962;
1152.6000;0.6040;2.0707;
1152.9000;0.5999;2.0568;
1153.2000;0.6121;2.0892;
1153.5000;0.6032;2.0638;
1153.8000;0.6048;2.0591;
1154.1000;0.6040;2.0638;
1154.4000;0.6007;2.0568;
1154.7000;0.6048;2.0684;
1155.0000;0.6056;2.0638;
1155.3000;0.5991;2.0476;
1155.6000;0.6032;2.0684;
1155.9000;0.5991;2.0661;
1156.2000;0.6040;2.0776;
1156.5000;0.6032;2.0776;
1156.8000;0.6040;2.0800;
1157.1000;0.6072;2.0938;
1157.4000;0.6064;2.0892;
1157.7000;0.6056;2.0753;
1158.0000;0.6040;2.0730;
1158.3000;0.6015;2.0684;
1158.6000;0.6048;2.0776;
1158.9000;0.5999;2.0638;
1159.2000;0.6040;2.0730;
1159.5000;0.6048;2.0730;
1159.8000;0.6032;2.0615;
1160.1000;0.6064;2.0753;
1160.4000;0.6015;2.0684;
1160.7000;0.6048;2.0615;
1161.0000;0.6056;2.0615;
1161.3000;0.6040;2.0638;
1161.6000;0.6040;2.0615;
1161.9000;0.6040;2.0615;
1162.2000;0.5991;2.0476;
1162.5000;0.6040;2.0591;
1162.8000;0.6024;2.0615;
1163.1000;0.6040;2.0684;
1163.4000;0.6154;2.1077;
1163.7000;0.6032;2.0707;
1164.0000;0.6024;2.0684;
1164.3000;0.6024;2.0638;
1164.6000;0.5999;2.0545;
1164.9000;0.6056;2.0707;
1165.2000;0.6040;2.0730;
1165.5000;0.6024;2.0638;
1165.8000;0.6040;2.0615;
1166.1000;0.6032;2.0615;
1166.4000;0.5958;2.0383;
1166.7000;0.6056;2.0684;
1167.0000;0.6032;2.0684;
1167.3000;0.6064;2.0707;
1167.6000;0.6024;2.0545;
1167.9000;0.6032;2.0499;
1168.2000;0.6072;2.0522;
1168.5000;0.6105;2.0568;
1168.8000;0.6162;2.0823;
1169.1000;0.6024;2.0522;
1169.4000;0.6032;2.0522;
1169.7000;0.6056;2.0591;
1170.0000;0.6056;2.0545;
1170.3000;0.6024;2.0499;
1170.6000;0.6032;2.0453;
1170.9000;0.6072;2.0568;
1171.2000;0.6048;2.0453;
1171.5000;0.6048;2.0615;
1171.8000;0.6105;2.0753;
1172.1000;0.5967;2.0453;
1172.4000;0.6032;2.0591;
1172.7000;0.6040;2.0568;
1173.0000;0.6040;2.0638;
1173.3000;0.5991;2.0661;
1173.6000;0.6048;2.0776;
1173.9000;0.6015;2.0661;
1174.2000;0.6032;2.0684;
1174.5000;0.6032;2.0615;
1174.8000;0.6040;2.0568;
1175.1000;0.6032;2.0545;
1175.4000;0.6072;2.0684;
1175.7000;0.6056;2.0661;
1176.0000;0.6040;2.0684;
1176.3000;0.6007;2.0545;
1176.6000;0.6040;2.0591;
1176.9000;0.6040;2.0615;
1177.2000;0.6032;2.0476;
1177.5000;0.6032;2.0406;
1177.8000;0.6056;2.0476;
1178.1000;0.6056;2.0499;
1178.4000;0.6032;2.0545;
1178.7000;0.5983;2.0476;
1179.0000;0.6040;2.0591;
1179.3000;0.6015;2.0522;
1179.6000;0.6081;2.0661;
1179.9000;0.6040;2.0638;
1180.2000;0.6056;2.0684;
1180.5000;0.6024;2.0591;
1180.8000;0.6064;2.0707;
1181.1000;0.5999;2.0615;
1181.4000;0.6040;2.0591;
1181.7000;0.6032;2.0522;
1182.0000;0.6040;2.0522;
1182.3000;0.6024;2.0429;
1182.6000;0.6040;2.0499;
1182.9000;0.6064;2.0684;
1183.2000;0.6032;2.0591;
1183.5000;0.6048;2.0638;
1183.8000;0.6024;2.0476;
1184.1000;0.6040;2.0499;
1184.4000;0.6040;2.0545;
1184.7000;0.6032;2.0476;
1185.0000;0.6048;2.0453;
1185.3000;0.6032;2.0406;
1185.6000;0.6097;2.0568;
1185.9000;0.5999;2.0360;
1186.2000;0.6007;2.0429;
1186.5000;0.6048;2.0545;
1186.8000;0.6024;2.0522;
1187.1000;0.6032;2.0499;
1187.4000;0.5999;2.0453;
1187.7000;0.6064;2.0661;
1188.0000;0.6032;2.0730;
1188.3000;0.6024;2.0800;
1188.6000;0.6032;2.0869;
1188.9000;0.6040;2.0869;
1189.2000;0.6040;2.0753;
1189.5000;0.5999;2.0568;
1189.8000;0.6089;2.0707;
1190.1000;0.6040;2.0684;
1190.4000;0.6113;2.0823;
1190.7000;0.6040;2.0707;
1191.0000;0.6032;2.0823;
1191.3000;0.6032;2.0753;
1191.6000;0.5934;2.0476;
1191.9000;0.6007;2.0545;
1192.2000;0.6024;2.0591;
1192.5000;0.6056;2.0776;
1192.8000;0.6040;2.0753;
1193.1000;0.6032;2.0730;
1193.4000;0.6032;2.0776;
1193.7000;0.6024;2.0638;
1194.0000;0.6040;2.0776;
1194.3000;0.5975;2.0615;
1194.6000;0.6007;2.0707;
1194.9000;0.6024;2.0730;
1195.2000;0.6015;2.0591;
1195.5000;0.6032;2.0638;
1195.8000;0.6113;2.0776;
1196.1000;0.6024;2.0591;
1196.4000;0.6032;2.0638;
1196.7000;0.6032;2.0638;
1197.0000;0.6048;2.0591;
1197.3000;0.6032;2.0615;
1197.6000;0.6048;2.0707;
1197.9000;0.6056;2.0591;
1198.2000;0.6024;2.0661;
1198.5000;0.6032;2.0707;
1198.8000;0.6032;2.0661;
1199.1000;0.5942;2.0337;
1199.4000;0.6032;2.0568;
1199.7000;0.6024;2.0638;
1200.0000;0.6048;2.0661;
1200.3000;0.6048;2.0707;
1200.6000;0.6007;2.0522;
1200.9000;0.6015;2.0545;
1201.2000;0.6024;2.0453;
1201.5000;0.6048;2.0453;
1201.8000;0.6056;2.0429;
1202.1000;0.6040;2.0429;
1202.4000;0.6048;2.0383;
1202.7000;0.6024;2.0291;
1203.0000;0.6056;2.0406;
1203.3000;0.6032;2.0406;
1203.6000;0.6048;2.0499;
1203.9000;0.6048;2.0476;
1204.2000;0.6048;2.0522;
1204.5000;0.6040;2.0545;
1204.8000;0.6024;2.0545;
1205.1000;0.6024;2.0499;
1205.4000;0.6040;2.0499;
1205.7000;0.6007;2.0406;
1206.0000;0.6032;2.0545;
1206.3000;0.6048;2.0545;
1206.6000;0.6032;2.0453;
1206.9000;0.6048;2.0476;
1207.2000;0.6032;2.0476;
1207.5000;0.6024;2.0568;
1207.8000;0.5958;2.0522;
1208.1000;0.6048;2.0707;
1208.4000;0.6032;2.0753;
1208.7000;0.6056;2.0823;
1209.0000;0.6040;2.0800;
1209.3000;0.6015;2.0776;
1209.6000;0.6032;2.0776;
1209.9000;0.6040;2.0823;
1210.2000;0.6024;2.0823;
1210.5000;0.6032;2.0823;
1210.8000;0.6015;2.0753;
1211.1000;0.6024;2.0730;
1211.4000;0.6007;2.0730;
1211.7000;0.6024;2.0776;
1212.0000;0.6032;2.0753;
1212.3000;0.6007;2.0568;
1212.6000;0.6040;2.0591;
1212.9000;0.6048;2.0684;
1213.2000;0.5999;2.0615;
1213.5000;0.6048;2.0707;
1213.8000;0.6048;2.0753;
1214.1000;0.6048;2.0730;
1214.4000;0.6024;2.0661;
1214.7000;0.6048;2.0684;
1215.0000;0.6007;2.0661;
1215.3000;0.6040;2.0707;
1215.6000;0.6048;2.0823;
1215.9000;0.6024;2.0823;
1216.2000;0.6024;2.0915;
1216.5000;0.6032;2.0846;
1216.8000;0.6032;2.0869;
1217.1000;0.6015;2.0707;
1217.4000;0.6040;2.0753;
1217.7000;0.6024;2.0753;
1218.0000;0.6048;2.0915;
1218.3000;0.6040;2.0915;
1218.6000;0.6015;2.0800;
1218.9000;0.6032;2.0707;
1219.2000;0.6015;2.0615;
1219.5000;0.6024;2.0661;
1219.8000;0.6032;2.0661;
1220.1000;0.6024;2.0661;
1220.4000;0.6032;2.0638;
1220.7000;0.6007;2.0591;
1221.0000;0.6007;2.0522;
1221.3000;0.6024;2.0522;
1221.6000;0.6040;2.0522;
1221.9000;0.6024;2.0684;
1222.2000;0.6040;2.0638;
1222.5000;0.6056;2.0661;
1222.8000;0.6064;2.0707;
1223.1000;0.6089;2.0823;
1223.4000;0.6032;2.0730;
1223.7000;0.6032;2.0568;
1224.0000;0.6024;2.0591;
1224.3000;0.6040;2.0615;
1224.6000;0.6032;2.0684;
1224.9000;0.6040;2.0661;
1225.2000;0.6040;2.0753;
1225.5000;0.6032;2.0684;
1225.8000;0.6024;2.0684;
1226.1000;0.6040;2.0823;
1226.4000;0.6048;2.0892;
1226.7000;0.6048;2.0892;
1227.0000;0.6040;2.0823;
1227.3000;0.6048;2.0869;
1227.6000;0.6024;2.0892;
1227.9000;0.6032;2.0846;
1228.2000;0.6032;2.0962;
1228.5000;0.6032;2.1008;
1228.8000;0.6024;2.0938;
1229.1000;0.6007;2.0962;
1229.4000;0.6015;2.0892;
1229.7000;0.6056;2.0938;
1230.0000;0.6056;2.1008;
1230.3000;0.6040;2.0915;
1230.6000;0.5967;2.0730;
1230.9000;0.6032;2.1031;
1231.2000;0.6015;2.1008;
1231.5000;0.6024;2.0915;
1231.8000;0.6032;2.0892;
1232.1000;0.6048;2.0962;
1232.4000;0.6024;2.0869;
1232.7000;0.5991;2.0823;
1233.0000;0.6007;2.0800;
1233.3000;0.6015;2.0776;
1233.6000;0.6024;2.0823;
1233.9000;0.6015;2.0846;
1234.2000;0.6048;2.0962;
1234.5000;0.6032;2.0892;
1234.8000;0.6015;2.0892;
1235.1000;0.6032;2.0985;
1235.4000;0.6032;2.0915;
1235.7000;0.6024;2.0800;
1236.0000;0.6024;2.0823;
1236.3000;0.6032;2.0823;
1236.6000;0.6015;2.0823;
1236.9000;0.6032;2.0753;
1237.2000;0.5983;2.0591;
1237.5000;0.6024;2.0730;
1237.8000;0.6024;2.0707;
1238.1000;0.6015;2.0800;
1238.4000;0.6015;2.0869;
1238.7000;0.6040;2.0892;
1239.0000;0.6024;2.0892;
1239.3000;0.6032;2.0823;
1239.6000;0.6032;2.0730;
1239.9000;0.6032;2.0707;
1240.2000;0.6056;2.0800;
1240.5000;0.6024;2.0800;
1240.8000;0.6040;2.0869;
1241.1000;0.6032;2.0823;
1241.4000;0.6032;2.0869;
1241.7000;0.6032;2.0846;
1242.0000;0.6032;2.0846;
1242.3000;0.6032;2.0892;
1242.6000;0.6024;2.0915;
1242.9000;0.6015;2.0869;
1243.2000;0.6007;2.0776;
1243.5000;0.6040;2.0730;
1243.8000;0.6032;2.0707;
1244.1000;0.6015;2.0684;
1244.4000;0.6024;2.0776;
1244.7000;0.6032;2.0892;
1245.0000;0.6040;2.0776;
1245.3000;0.6048;2.0730;
1245.6000;0.6064;2.0823;
1245.9000;0.6040;2.0707;
1246.2000;0.6097;2.0962;
1246.5000;0.6170;2.1100;
1246.8000;0.6064;2.0869;
1247.1000;0.6056;2.0800;
1247.4000;0.6040;2.0823;
1247.7000;0.6015;2.0753;
1248.0000;0.6040;2.0730;
1248.3000;0.6015;2.0753;
1248.6000;0.6032;2.0800;
1248.9000;0.6121;2.0962;
1249.2000;0.6032;2.0684;
1249.5000;0.6048;2.0730;
1249.8000;0.6024;2.0661;
1250.1000;0.5926;2.0545;
1250.4000;0.6048;2.0776;
1250.7000;0.6024;2.0684;
1251.0000;0.6040;2.0684;
1251.3000;0.6007;2.0661;
1251.6000;0.6048;2.0707;
1251.9000;0.5934;2.0406;
1252.2000;0.6032;2.0707;
1252.5000;0.6040;2.0753;
1252.8000;0.6024;2.0661;
1253.1000;0.5999;2.0707;
1253.4000;0.6015;2.0776;
1253.7000;0.6024;2.0730;
1254.0000;0.6032;2.0776;
1254.3000;0.6032;2.0753;
1254.6000;0.6072;2.0869;
1254.9000;0.6032;2.0661;
1255.2000;0.6024;2.0615;
1255.5000;0.5999;2.0615;
1255.8000;0.6040;2.0707;
1256.1000;0.6032;2.0684;
1256.4000;0.6015;2.0684;
1256.7000;0.6040;2.0800;
1257.0000;0.5910;2.0476;
1257.3000;0.6015;2.0638;
1257.6000;0.6007;2.0661;
1257.9000;0.6024;2.0684;
1258.2000;0.6032;2.0661;
1258.5000;0.6138;2.0985;
1258.8000;0.6032;2.0776;
1259.1000;0.5967;2.0638;
1259.4000;0.6032;2.0869;
1259.7000;0.6024;2.0846;
1260.0000;0.6024;2.0730;
1260.3000;0.6032;2.0638;
1260.6000;0.6040;2.0684;
1260.9000;0.6024;2.0638;
1261.2000;0.6032;2.0684;
1261.5000;0.5991;2.0591;
1261.8000;0.6032;2.0684;
1262.1000;0.6032;2.0730;
1262.4000;0.6048;2.0753;
1262.7000;0.6024;2.0638;
1263.0000;0.6015;2.0638;
1263.3000;0.6040;2.0707;
1263.6000;0.6056;2.0730;
1263.9000;0.6024;2.0684;
1264.2000;0.6056;2.0823;
1264.5000;0.6015;2.0707;
1264.8000;0.6032;2.0753;
1265.1000;0.6048;2.0846;
1265.4000;0.6032;2.0684;
1265.7000;0.6032;2.0615;
1266.0000;0.6097;2.0661;
1266.3000;0.6032;2.0522;
1266.6000;0.6032;2.0545;
1266.9000;0.5967;2.0453;
1267.2000;0.6064;2.0800;
1267.5000;0.6048;2.0707;
1267.8000;0.6032;2.0661;
1268.1000;0.6081;2.0753;
1268.4000;0.6032;2.0661;
1268.7000;0.6015;2.0615;
1269.0000;0.6089;2.0730;
1269.3000;0.6040;2.0638;
1269.6000;0.6007;2.0638;
1269.9000;0.6032;2.0730;
1270.2000;0.6015;2.0684;
1270.5000;0.6015;2.0684;
1270.8000;0.6040;2.0684;
1271.1000;0.6040;2.0661;
1271.4000;0.6024;2.0638;
1271.7000;0.6015;2.0707;
1272.0000;0.6089;2.0869;
1272.3000;0.6007;2.0591;
1272.6000;0.6056;2.0591;
1272.9000;0.6024;2.0476;
1273.2000;0.5991;2.0360;
1273.5000;0.6024;2.0406;
1273.8000;0.6015;2.0360;
1274.1000;0.5991;2.0383;
1274.4000;0.6015;2.0499;
1274.7000;0.6024;2.0499;
1275.0000;0.5999;2.0476;
1275.3000;0.6056;2.0615;
1275.6000;0.6040;2.0568;
1275.9000;0.6056;2.0615;
1276.2000;0.6024;2.0522;
1276.5000;0.5983;2.0360;
1276.8000;0.6024;2.0591;
1277.1000;0.6048;2.0661;
1277.4000;0.6048;2.0615;
1277.7000;0.6032;2.0615;
1278.0000;0.6024;2.0661;
1278.3000;0.6056;2.0869;
1278.6000;0.6040;2.0823;
1278.9000;0.6040;2.0846;
1279.2000;0.6032;2.0753;
1279.5000;0.5958;2.0591;
1279.8000;0.6081;2.0892;
1280.1000;0.6007;2.0776;
1280.4000;0.6048;2.0823;
1280.7000;0.6015;2.0661;
1281.0000;0.6081;2.0776;
1281.3000;0.6064;2.0684;
1281.6000;0.6040;2.0615;
1281.9000;0.6097;2.0869;
1282.2000;0.5999;2.0638;
1282.5000;0.6024;2.0776;
1282.8000;0.6015;2.0753;
1283.1000;0.5991;2.0661;
1283.4000;0.6040;2.0869;
1283.7000;0.6040;2.0846;
1284.0000;0.6048;2.0892;
1284.3000;0.6072;2.0985;
1284.6000;0.6024;2.0800;
1284.9000;0.6007;2.0753;
1285.2000;0.5999;2.0661;
1285.5000;0.6024;2.0776;
1285.8000;0.6081;2.0962;
1286.1000;0.6048;2.0846;
1286.4000;0.6081;2.0869;
1286.7000;0.6032;2.0707;
1287.0000;0.6015;2.0707;
1287.3000;0.5942;2.0568;
1287.6000;0.6032;2.0707;
1287.9000;0.6024;2.0684;
1288.2000;0.6048;2.0661;
1288.5000;0.5958;2.0476;
1288.8000;0.6097;2.0776;
1289.1000;0.5975;2.0429;
1289.4000;0.6048;2.0591;
1289.7000;0.5967;2.0360;
1290.0000;0.6040;2.0545;
1290.3000;0.6032;2.0522;
1290.6000;0.6015;2.0429;
1290.9000;0.6015;2.0453;
1291.2000;0.6015;2.0453;
1291.5000;0.6032;2.0476;
1291.8000;0.6007;2.0522;
1292.1000;0.6015;2.0522;
1292.4000;0.6024;2.0615;
1292.7000;0.6040;2.0638;
1293.0000;0.6015;2.0661;
1293.3000;0.6024;2.0776;
1293.6000;0.6032;2.0753;
1293.9000;0.6032;2.0730;
1294.2000;0.6015;2.0730;
1294.5000;0.6015;2.0753;
1294.8000;0.6056;2.0823;
1295.1000;0.6032;2.0800;
1295.4000;0.6007;2.0730;
1295.7000;0.6015;2.0684;
1296.0000;0.6032;2.0776;
1296.3000;0.6040;2.0823;
1296.6000;0.6024;2.0800;
1296.9000;0.6024;2.0730;
1297.2000;0.6032;2.0753;
1297.5000;0.6048;2.0846;
1297.8000;0.6162;2.1100;
1298.1000;0.5999;2.0823;
1298.4000;0.6040;2.0823;
1298.7000;0.6064;2.0800;
1299.0000;0.6007;2.0661;
1299.3000;0.6024;2.0753;
1299.6000;0.6032;2.0800;
1299.9000;0.6007;2.0730;
1300.2000;0.6040;2.0846;
1300.5000;0.6024;2.0846;
1300.8000;0.5958;2.0684;
1301.1000;0.6015;2.0823;
1301.4000;0.6024;2.0869;
1301.7000;0.6032;2.0869;
1302.0000;0.5999;2.0753;
1302.3000;0.6024;2.0776;
1302.6000;0.6032;2.0776;
1302.9000;0.6072;2.0823;
1303.2000;0.6032;2.0661;
1303.5000;0.5999;2.0776;
1303.8000;0.5983;2.0638;
1304.1000;0.6032;2.0846;
1304.4000;0.6024;2.0800;
1304.7000;0.6015;2.0823;
1305.0000;0.6040;2.0915;
1305.3000;0.6040;2.0938;
1305.6000;0.6032;2.0985;
1305.9000;0.6024;2.0892;
1306.2000;0.6032;2.0846;
1306.5000;0.6015;2.0707;
1306.8000;0.6121;2.0846;
1307.1000;0.5999;2.0661;
1307.4000;0.6007;2.0684;
1307.7000;0.6048;2.0707;
1308.0000;0.6048;2.0776;
1308.3000;0.6007;2.0661;
1308.6000;0.6048;2.0730;
1308.9000;0.5999;2.0684;
1309.2000;0.6040;2.0753;
1309.5000;0.5975;2.0545;
1309.8000;0.5983;2.0615;
1310.1000;0.6024;2.0684;
1310.4000;0.6048;2.0800;
1310.7000;0.6024;2.0753;
1311.0000;0.6007;2.0661;
1311.3000;0.6015;2.0568;
1311.6000;0.5958;2.0476;
1311.9000;0.6007;2.0684;
1312.2000;0.6007;2.0823;
1312.5000;0.5983;2.0823;
1312.8000;0.5967;2.0823;
1313.1000;0.6024;2.0962;
1313.4000;0.6015;2.0962;
1313.7000;0.6032;2.0892;
1314.0000;0.6015;2.0915;
1314.3000;0.6015;2.0962;
1314.6000;0.6040;2.0892;
1314.9000;0.6015;2.0823;
1315.2000;0.6015;2.0892;
1315.5000;0.6024;2.0892;
1315.8000;0.6024;2.0938;
1316.1000;0.6097;2.1170;
1316.4000;0.6032;2.1054;
1316.7000;0.5991;2.0985;
1317.0000;0.6015;2.1100;
1317.3000;0.6015;2.1100;
1317.6000;0.6015;2.1077;
1317.9000;0.6048;2.1031;
1318.2000;0.6048;2.0869;
1318.5000;0.6048;2.0800;
1318.8000;0.6032;2.0684;
1319.1000;0.6032;2.0684;
1319.4000;0.6024;2.0730;
1319.7000;0.5999;2.0707;
1320.0000;0.6015;2.0823;
1320.3000;0.6024;2.0869;
1320.6000;0.6056;2.0846;
1320.9000;0.6024;2.0730;
1321.2000;0.6015;2.0730;
1321.5000;0.6015;2.0753;
1321.8000;0.6040;2.0869;
1322.1000;0.6032;2.0776;
1322.4000;0.6007;2.0753;
1322.7000;0.5967;2.0707;
1323.0000;0.6015;2.0730;
1323.3000;0.6007;2.0661;
1323.6000;0.6024;2.0684;
1323.9000;0.6032;2.0730;
1324.2000;0.6032;2.0707;
1324.5000;0.6032;2.0776;
1324.8000;0.6015;2.0800;
1325.1000;0.6015;2.0753;
1325.4000;0.6007;2.0753;
1325.7000;0.5934;2.0615;
1326.0000;0.6015;2.0846;
1326.3000;0.6032;2.0846;
1326.6000;0.6015;2.0823;
1326.9000;0.5983;2.0661;
1327.2000;0.6040;2.0846;
1327.5000;0.6024;2.0892;
1327.8000;0.6015;2.0938;
1328.1000;0.6024;2.0869;
1328.4000;0.6015;2.0915;
1328.7000;0.6032;2.0915;
1329.0000;0.5975;2.0800;
1329.3000;0.6015;2.0962;
1329.6000;0.6032;2.0869;
1329.9000;0.6015;2.0846;
1330.2000;0.6015;2.0776;
1330.5000;0.6024;2.0823;
1330.8000;0.6024;2.0846;
1331.1000;0.6032;2.0869;
1331.4000;0.6024;2.0869;
1331.7000;0.6015;2.0800;
1332.0000;0.5999;2.0707;
1332.3000;0.6015;2.0707;
1332.6000;0.5991;2.0661;
1332.9000;0.6015;2.0707;
1333.2000;0.6007;2.0730;
1333.5000;0.6007;2.0730;
1333.8000;0.6024;2.0753;
1334.1000;0.6032;2.0753;
1334.4000;0.6015;2.0684;
1334.7000;0.5999;2.0800;
1335.0000;0.5999;2.0823;
1335.3000;0.6015;2.0707;
1335.6000;0.5999;2.0661;
1335.9000;0.5991;2.0684;
1336.2000;0.6024;2.0753;
1336.5000;0.6015;2.0753;
1336.8000;0.6024;2.0776;
1337.1000;0.6024;2.0684;
1337.4000;0.6007;2.0638;
1337.7000;0.6024;2.0661;
1338.0000;0.6032;2.0591;
1338.3000;0.6024;2.0591;
1338.6000;0.6024;2.0615;
1338.9000;0.5967;2.0545;
1339.2000;0.6015;2.0707;
1339.5000;0.6007;2.0638;
1339.8000;0.6024;2.0661;
1340.1000;0.6015;2.0638;
1340.4000;0.6007;2.0661;
1340.7000;0.6015;2.0730;
1341.0000;0.6024;2.0800;
1341.3000;0.6015;2.0638;
1341.6000;0.6024;2.0615;
1341.9000;0.6015;2.0568;
1342.2000;0.6015;2.0615;
1342.5000;0.6024;2.0615;
1342.8000;0.6015;2.0615;
1343.1000;0.5999;2.0661;
1343.4000;0.6024;2.0776;
1343.7000;0.6032;2.0753;
1344.0000;0.6097;2.0915;
1344.3000;0.6032;2.0846;
1344.6000;0.6015;2.0800;
1344.9000;0.6089;2.0985;
1345.2000;0.6040;2.0869;
1345.5000;0.6040;2.0892;
1345.8000;0.6015;2.0846;
1346.1000;0.6015;2.0800;
1346.4000;0.6024;2.0869;
1346.7000;0.6015;2.0892;
1347.0000;0.5983;2.0800;
1347.3000;0.6007;2.0985;
1347.6000;0.6032;2.1100;
1347.9000;0.6007;2.1031;
1348.2000;0.5999;2.0938;
1348.5000;0.5983;2.0892;
1348.8000;0.6032;2.0938;
1349.1000;0.6007;2.0823;
1349.4000;0.6007;2.0776;
1349.7000;0.6007;2.0776;
1350.0000;0.6032;2.0823;
1350.3000;0.6015;2.0753;
1350.6000;0.5991;2.0753;
1350.9000;0.6089;2.0985;
1351.2000;0.6032;2.0823;
1351.5000;0.6024;2.0846;
1351.8000;0.6007;2.0892;
1352.1000;0.6040;2.0985;
1352.4000;0.5999;2.0892;
1352.7000;0.6032;2.0892;
1353.0000;0.5967;2.0846;
1353.3000;0.6007;2.0892;
1353.6000;0.6007;2.0776;
1353.9000;0.5958;2.0661;
1354.2000;0.6024;2.0730;
1354.5000;0.6015;2.0684;
1354.8000;0.6048;2.0730;
1355.1000;0.6015;2.0730;
1355.4000;0.6024;2.0776;
1355.7000;0.6007;2.0776;
1356.0000;0.6007;2.0846;
1356.3000;0.6024;2.0800;
1356.6000;0.6024;2.0730;
1356.9000;0.6024;2.0800;
1357.2000;0.6015;2.0823;
1357.5000;0.6032;2.0823;
1357.8000;0.6024;2.0823;
1358.1000;0.5950;2.0661;
1358.4000;0.6056;2.0938;
1358.7000;0.6048;2.0915;
1359.0000;0.6015;2.0800;
1359.3000;0.6024;2.0823;
1359.6000;0.6015;2.0730;
1359.9000;0.6015;2.0753;
1360.2000;0.6024;2.0684;
1360.5000;0.6032;2.0753;
1360.8000;0.6015;2.0707;
1361.1000;0.6024;2.0684;
1361.4000;0.6048;2.0776;
1361.7000;0.6015;2.0730;
1362.0000;0.6040;2.0846;
1362.3000;0.6024;2.0892;
1362.6000;0.6015;2.0823;
1362.9000;0.6015;2.0753;
1363.2000;0.6015;2.0892;
1363.5000;0.5942;2.0615;
1363.8000;0.5999;2.0800;
1364.1000;0.6015;2.0892;
1364.4000;0.6024;2.0823;
1364.7000;0.6024;2.0869;
1365.0000;0.6015;2.0892;
1365.3000;0.6032;2.0938;
1365.6000;0.6040;2.0892;
1365.9000;0.5991;2.0776;
1366.2000;0.6024;2.0753;
1366.5000;0.6015;2.0684;
1366.8000;0.6007;2.0638;
1367.1000;0.6015;2.0684;
1367.4000;0.5991;2.0753;
1367.7000;0.6007;2.0823;
1368.0000;0.6024;2.0915;
1368.3000;0.6007;2.0846;
1368.6000;0.6015;2.0753;
1368.9000;0.6032;2.0823;
1369.2000;0.6007;2.0776;
1369.5000;0.6024;2.0869;
1369.8000;0.6015;2.0846;
1370.1000;0.6015;2.0730;
1370.4000;0.6072;2.0823;
1370.7000;0.6032;2.0776;
1371.0000;0.6089;2.1008;
1371.3000;0.6007;2.0776;
1371.6000;0.6024;2.0776;
1371.9000;0.6032;2.0869;
1372.2000;0.6007;2.0892;
1372.5000;0.6015;2.0892;
1372.8000;0.6015;2.0869;
1373.1000;0.6007;2.0892;
1373.4000;0.5967;2.0776;
1373.7000;0.6007;2.0915;
1374.0000;0.6007;2.0962;
1374.3000;0.6032;2.0938;
1374.6000;0.6089;2.1147;
1374.9000;0.6024;2.0985;
1375.2000;0.5999;2.0869;
1375.5000;0.6007;2.0846;
1375.8000;0.6024;2.0869;
1376.1000;0.6032;2.0869;
1376.4000;0.6015;2.0753;
1376.7000;0.6048;2.0730;
1377.0000;0.6007;2.0638;
1377.3000;0.6024;2.0753;
1377.6000;0.6015;2.0753;
1377.9000;0.6032;2.0730;
1378.2000;0.5991;2.0638;
1378.5000;0.6024;2.0707;
1378.8000;0.6007;2.0661;
1379.1000;0.6040;2.0753;
1379.4000;0.5999;2.0684;
1379.7000;0.6032;2.0776;
1380.0000;0.5991;2.0684;
1380.3000;0.6024;2.0707;
1380.6000;0.6024;2.0661;
1380.9000;0.6032;2.0730;
1381.2000;0.6040;2.0753;
1381.5000;0.6007;2.0707;
1381.8000;0.6015;2.0684;
1382.1000;0.6040;2.0707;
1382.4000;0.6024;2.0661;
1382.7000;0.6015;2.0707;
1383.0000;0.6048;2.0800;
1383.3000;0.6040;2.0753;
1383.6000;0.6064;2.0892;
1383.9000;0.6032;2.0869;
1384.2000;0.6007;2.0707;
1384.5000;0.5999;2.0661;
1384.8000;0.6048;2.0800;
1385.1000;0.6040;2.0869;
1385.4000;0.6072;2.0915;
1385.7000;0.6024;2.0892;
1386.0000;0.6032;2.0869;
1386.3000;0.6024;2.0869;
1386.6000;0.6015;2.0661;
1386.9000;0.5999;2.0615;
1387.2000;0.5975;2.0476;
1387.5000;0.5999;2.0568;
1387.8000;0.6024;2.0707;
1388.1000;0.6154;2.1100;
1388.4000;0.6015;2.0753;
1388.7000;0.6015;2.0707;
1389.0000;0.5975;2.0707;
1389.3000;0.6015;2.0869;
1389.6000;0.6007;2.0938;
1389.9000;0.6048;2.1031;
1390.2000;0.6040;2.0985;
1390.5000;0.6064;2.1147;
1390.8000;0.5975;2.0846;
1391.1000;0.5983;2.0846;
1391.4000;0.6024;2.0869;
1391.7000;0.6007;2.0730;
1392.0000;0.5942;2.0568;
1392.3000;0.6015;2.0638;
1392.6000;0.5958;2.0591;
1392.9000;0.6015;2.0707;
1393.2000;0.6162;2.1124;
1393.5000;0.6015;2.0823;
1393.8000;0.6024;2.0846;
1394.1000;0.6024;2.0753;
1394.4000;0.6064;2.0846;
1394.7000;0.5999;2.0730;
1395.0000;0.6015;2.0707;
1395.3000;0.6024;2.0615;
1395.6000;0.6015;2.0522;
1395.9000;0.6007;2.0453;
1396.2000;0.6081;2.0661;
1396.5000;0.6015;2.0545;
1396.8000;0.6024;2.0499;
1397.1000;0.6032;2.0522;
1397.4000;0.6040;2.0453;
1397.7000;0.6040;2.0499;
1398.0000;0.6056;2.0545;
1398.3000;0.6040;2.0453;
1398.6000;0.5983;2.0337;
1398.9000;0.6048;2.0545;
1399.2000;0.6064;2.0638;
1399.5000;0.5999;2.0568;
1399.8000;0.6024;2.0684;
