time/ms;Fluo/V;P700 deltaI/I x10³;
-199.8000;0.3232;0.7161;
-199.5000;0.3232;0.7087;
-199.2000;0.3280;0.7062;
-198.9000;0.3248;0.7112;
-198.6000;0.3248;0.7062;
-198.3000;0.3248;0.7012;
-198.0000;0.3240;0.7062;
-197.7000;0.3240;0.7137;
-197.4000;0.3248;0.7112;
-197.1000;0.3272;0.7236;
-196.8000;0.3248;0.7161;
-196.5000;0.3240;0.7137;
-196.2000;0.3248;0.7186;
-195.9000;0.3248;0.7137;
-195.6000;0.3232;0.7137;
-195.3000;0.3240;0.7137;
-195.0000;0.3248;0.7137;
-194.7000;0.3232;0.7137;
-194.4000;0.3215;0.7012;
-194.1000;0.3215;0.7062;
-193.8000;0.3232;0.7211;
-193.5000;0.3256;0.7261;
-193.2000;0.3305;0.7335;
-192.9000;0.3240;0.7161;
-192.6000;0.3240;0.7211;
-192.3000;0.3264;0.7211;
-192.0000;0.3232;0.7137;
-191.7000;0.3240;0.7211;
-191.4000;0.3240;0.7311;
-191.1000;0.3256;0.7286;
-190.8000;0.3215;0.7236;
-190.5000;0.3256;0.7360;
-190.2000;0.3199;0.7236;
-189.9000;0.3232;0.7211;
-189.6000;0.3256;0.7335;
-189.3000;0.3240;0.7286;
-189.0000;0.3248;0.7261;
-188.7000;0.3240;0.7236;
-188.4000;0.3248;0.7236;
-188.1000;0.3264;0.7261;
-187.8000;0.3240;0.7211;
-187.5000;0.3232;0.7211;
-187.2000;0.3240;0.7261;
-186.9000;0.3240;0.7261;
-186.6000;0.3232;0.7211;
-186.3000;0.3232;0.7211;
-186.0000;0.3248;0.7211;
-185.7000;0.3248;0.7236;
-185.4000;0.3248;0.7236;
-185.1000;0.3248;0.7261;
-184.8000;0.3248;0.7360;
-184.5000;0.3256;0.7485;
-184.2000;0.3248;0.7410;
-183.9000;0.3256;0.7385;
-183.6000;0.3248;0.7410;
-183.3000;0.3256;0.7335;
-183.0000;0.3191;0.7062;
-182.7000;0.3240;0.7112;
-182.4000;0.3232;0.7236;
-182.1000;0.3223;0.7311;
-181.8000;0.3232;0.7311;
-181.5000;0.3248;0.7335;
-181.2000;0.3232;0.7286;
-180.9000;0.3272;0.7435;
-180.6000;0.3232;0.7286;
-180.3000;0.3248;0.7435;
-180.0000;0.3223;0.7385;
-179.7000;0.3232;0.7311;
-179.4000;0.3248;0.7385;
-179.1000;0.3248;0.7335;
-178.8000;0.3223;0.7261;
-178.5000;0.3240;0.7211;
-178.2000;0.3240;0.7261;
-177.9000;0.3248;0.7261;
-177.6000;0.3240;0.7360;
-177.3000;0.3248;0.7435;
-177.0000;0.3256;0.7311;
-176.7000;0.3240;0.7410;
-176.4000;0.3248;0.7385;
-176.1000;0.3232;0.7311;
-175.8000;0.3248;0.7385;
-175.5000;0.3240;0.7485;
-175.2000;0.3256;0.7435;
-174.9000;0.3240;0.7335;
-174.6000;0.3240;0.7311;
-174.3000;0.3248;0.7236;
-174.0000;0.3248;0.7261;
-173.7000;0.3248;0.7311;
-173.4000;0.3248;0.7360;
-173.1000;0.3248;0.7360;
-172.8000;0.3232;0.7335;
-172.5000;0.3232;0.7410;
-172.2000;0.3232;0.7410;
-171.9000;0.3240;0.7360;
-171.6000;0.3248;0.7311;
-171.3000;0.3142;0.7012;
-171.0000;0.3232;0.7311;
-170.7000;0.3232;0.7286;
-170.4000;0.3240;0.7360;
-170.1000;0.3256;0.7311;
-169.8000;0.3248;0.7360;
-169.5000;0.3289;0.7385;
-169.2000;0.3272;0.7311;
-168.9000;0.3240;0.7286;
-168.6000;0.3256;0.7311;
-168.3000;0.3264;0.7360;
-168.0000;0.3264;0.7385;
-167.7000;0.3232;0.7236;
-167.4000;0.3256;0.7311;
-167.1000;0.3248;0.7335;
-166.8000;0.3272;0.7360;
-166.5000;0.3248;0.7360;
-166.2000;0.3264;0.7385;
-165.9000;0.3207;0.7211;
-165.6000;0.3248;0.7286;
-165.3000;0.3248;0.7286;
-165.0000;0.3150;0.7012;
-164.7000;0.3175;0.7161;
-164.4000;0.3223;0.7286;
-164.1000;0.3256;0.7311;
-163.8000;0.3240;0.7261;
-163.5000;0.3207;0.7261;
-163.2000;0.3232;0.7435;
-162.9000;0.3248;0.7410;
-162.6000;0.3232;0.7261;
-162.3000;0.3248;0.7335;
-162.0000;0.3240;0.7360;
-161.7000;0.3248;0.7435;
-161.4000;0.3248;0.7410;
-161.1000;0.3232;0.7261;
-160.8000;0.3248;0.7286;
-160.5000;0.3240;0.7211;
-160.2000;0.3256;0.7211;
-159.9000;0.3240;0.7161;
-159.6000;0.3232;0.7062;
-159.3000;0.3232;0.7062;
-159.0000;0.3272;0.7137;
-158.7000;0.3289;0.7211;
-158.4000;0.3240;0.7112;
-158.1000;0.3215;0.7211;
-157.8000;0.3256;0.7360;
-157.5000;0.3240;0.7311;
-157.2000;0.3232;0.7261;
-156.9000;0.3329;0.7485;
-156.6000;0.3248;0.7311;
-156.3000;0.3240;0.7311;
-156.0000;0.3240;0.7236;
-155.7000;0.3240;0.7360;
-155.4000;0.3240;0.7311;
-155.1000;0.3232;0.7286;
-154.8000;0.3215;0.7236;
-154.5000;0.3207;0.7211;
-154.2000;0.3264;0.7311;
-153.9000;0.3240;0.7161;
-153.6000;0.3232;0.7137;
-153.3000;0.3248;0.7186;
-153.0000;0.3175;0.6963;
-152.7000;0.3207;0.7012;
-152.4000;0.3240;0.7161;
-152.1000;0.3289;0.7311;
-151.8000;0.3240;0.7261;
-151.5000;0.3215;0.7161;
-151.2000;0.3232;0.7261;
-150.9000;0.3240;0.7211;
-150.6000;0.3256;0.7261;
-150.3000;0.3256;0.7335;
-150.0000;0.3264;0.7335;
-149.7000;0.3272;0.7360;
-149.4000;0.3256;0.7360;
-149.1000;0.3256;0.7435;
-148.8000;0.3240;0.7335;
-148.5000;0.3256;0.7311;
-148.2000;0.3240;0.7261;
-147.9000;0.3240;0.7236;
-147.6000;0.3248;0.7211;
-147.3000;0.3240;0.7137;
-147.0000;0.3264;0.7261;
-146.7000;0.3248;0.7161;
-146.4000;0.3297;0.7311;
-146.1000;0.3232;0.7137;
-145.8000;0.3313;0.7335;
-145.5000;0.3232;0.7161;
-145.2000;0.3240;0.7286;
-144.9000;0.3232;0.7186;
-144.6000;0.3240;0.7261;
-144.3000;0.3248;0.7236;
-144.0000;0.3248;0.7311;
-143.7000;0.3166;0.7112;
-143.4000;0.3166;0.7087;
-143.1000;0.3256;0.7311;
-142.8000;0.3207;0.7161;
-142.5000;0.3280;0.7335;
-142.2000;0.3248;0.7311;
-141.9000;0.3215;0.7261;
-141.6000;0.3215;0.7311;
-141.3000;0.3264;0.7460;
-141.0000;0.3240;0.7435;
-140.7000;0.3248;0.7435;
-140.4000;0.3280;0.7584;
-140.1000;0.3232;0.7360;
-139.8000;0.3232;0.7435;
-139.5000;0.3232;0.7385;
-139.2000;0.3248;0.7435;
-138.9000;0.3232;0.7360;
-138.6000;0.3248;0.7311;
-138.3000;0.3240;0.7335;
-138.0000;0.3256;0.7410;
-137.7000;0.3256;0.7435;
-137.4000;0.3248;0.7360;
-137.1000;0.3232;0.7286;
-136.8000;0.3232;0.7261;
-136.5000;0.3256;0.7335;
-136.2000;0.3248;0.7385;
-135.9000;0.3248;0.7385;
-135.6000;0.3256;0.7485;
-135.3000;0.3223;0.7534;
-135.0000;0.3240;0.7510;
-134.7000;0.3248;0.7584;
-134.4000;0.3232;0.7510;
-134.1000;0.3248;0.7460;
-133.8000;0.3256;0.7584;
-133.5000;0.3256;0.7559;
-133.2000;0.3337;0.7808;
-132.9000;0.3256;0.7485;
-132.6000;0.3232;0.7460;
-132.3000;0.3223;0.7435;
-132.0000;0.3240;0.7435;
-131.7000;0.3240;0.7335;
-131.4000;0.3223;0.7335;
-131.1000;0.3240;0.7286;
-130.8000;0.3256;0.7360;
-130.5000;0.3264;0.7360;
-130.2000;0.3240;0.7435;
-129.9000;0.3232;0.7360;
-129.6000;0.3232;0.7410;
-129.3000;0.3240;0.7335;
-129.0000;0.3264;0.7485;
-128.7000;0.3264;0.7460;
-128.4000;0.3248;0.7335;
-128.1000;0.3240;0.7360;
-127.8000;0.3256;0.7385;
-127.5000;0.3256;0.7286;
-127.2000;0.3166;0.7062;
-126.9000;0.3264;0.7311;
-126.6000;0.3305;0.7584;
-126.3000;0.3264;0.7510;
-126.0000;0.3223;0.7410;
-125.7000;0.3264;0.7460;
-125.4000;0.3248;0.7510;
-125.1000;0.3191;0.7261;
-124.8000;0.3232;0.7410;
-124.5000;0.3256;0.7360;
-124.2000;0.3280;0.7410;
-123.9000;0.3223;0.7286;
-123.6000;0.3248;0.7261;
-123.3000;0.3215;0.7087;
-123.0000;0.3272;0.7236;
-122.7000;0.3248;0.7087;
-122.4000;0.3313;0.7261;
-122.1000;0.3256;0.7211;
-121.8000;0.3199;0.7012;
-121.5000;0.3240;0.7087;
-121.2000;0.3256;0.7112;
-120.9000;0.3248;0.7112;
-120.6000;0.3280;0.7261;
-120.3000;0.3240;0.7211;
-120.0000;0.3248;0.7261;
-119.7000;0.3272;0.7261;
-119.4000;0.3248;0.7236;
-119.1000;0.3223;0.7137;
-118.8000;0.3191;0.7112;
-118.5000;0.3240;0.7236;
-118.2000;0.3256;0.7186;
-117.9000;0.3240;0.7261;
-117.6000;0.3248;0.7311;
-117.3000;0.3256;0.7261;
-117.0000;0.3256;0.7311;
-116.7000;0.3240;0.7236;
-116.4000;0.3199;0.7087;
-116.1000;0.3223;0.7211;
-115.8000;0.3256;0.7311;
-115.5000;0.3240;0.7211;
-115.2000;0.3248;0.7261;
-114.9000;0.3240;0.7311;
-114.6000;0.3248;0.7236;
-114.3000;0.3280;0.7286;
-114.0000;0.3191;0.7112;
-113.7000;0.3256;0.7161;
-113.4000;0.3248;0.7087;
-113.1000;0.3240;0.7112;
-112.8000;0.3297;0.7311;
-112.5000;0.3240;0.7211;
-112.2000;0.3289;0.7385;
-111.9000;0.3264;0.7261;
-111.6000;0.3256;0.7311;
-111.3000;0.3248;0.7360;
-111.0000;0.3346;0.7559;
-110.7000;0.3248;0.7261;
-110.4000;0.3264;0.7286;
-110.1000;0.3248;0.7161;
-109.8000;0.3232;0.7186;
-109.5000;0.3232;0.7137;
-109.2000;0.3256;0.7112;
-108.9000;0.3232;0.7012;
-108.6000;0.3240;0.7186;
-108.3000;0.3240;0.7112;
-108.0000;0.3240;0.7161;
-107.7000;0.3240;0.7037;
-107.4000;0.3240;0.7137;
-107.1000;0.3248;0.7137;
-106.8000;0.3248;0.7087;
-106.5000;0.3232;0.7062;
-106.2000;0.3232;0.7037;
-105.9000;0.3240;0.7062;
-105.6000;0.3240;0.7087;
-105.3000;0.3240;0.7062;
-105.0000;0.3215;0.7161;
-104.7000;0.3240;0.7311;
-104.4000;0.3215;0.7335;
-104.1000;0.3240;0.7385;
-103.8000;0.3240;0.7360;
-103.5000;0.3240;0.7286;
-103.2000;0.3232;0.7137;
-102.9000;0.3240;0.7012;
-102.6000;0.3215;0.6963;
-102.3000;0.3223;0.7062;
-102.0000;0.3232;0.7137;
-101.7000;0.3305;0.7360;
-101.4000;0.3264;0.7360;
-101.1000;0.3232;0.7286;
-100.8000;0.3256;0.7335;
-100.5000;0.3240;0.7311;
-100.2000;0.3232;0.7261;
-99.9000;0.3248;0.7236;
-99.6000;0.3256;0.7311;
-99.3000;0.3240;0.7311;
-99.0000;0.3223;0.7286;
-98.7000;0.3232;0.7360;
-98.4000;0.3223;0.7360;
-98.1000;0.3256;0.7385;
-97.8000;0.3240;0.7335;
-97.5000;0.3232;0.7261;
-97.2000;0.3248;0.7186;
-96.9000;0.3256;0.7261;
-96.6000;0.3232;0.7161;
-96.3000;0.3223;0.7037;
-96.0000;0.3264;0.7161;
-95.7000;0.3240;0.7211;
-95.4000;0.3240;0.7236;
-95.1000;0.3248;0.7311;
-94.8000;0.3240;0.7286;
-94.5000;0.3240;0.7360;
-94.2000;0.3240;0.7311;
-93.9000;0.3256;0.7261;
-93.6000;0.3240;0.7286;
-93.3000;0.3223;0.7211;
-93.0000;0.3240;0.7261;
-92.7000;0.3256;0.7311;
-92.4000;0.3272;0.7261;
-92.1000;0.3264;0.7211;
-91.8000;0.3256;0.7186;
-91.5000;0.3272;0.7211;
-91.2000;0.3289;0.7211;
-90.9000;0.3256;0.7186;
-90.6000;0.3248;0.7211;
-90.3000;0.3256;0.7211;
-90.0000;0.3240;0.7112;
-89.7000;0.3256;0.7062;
-89.4000;0.3256;0.7112;
-89.1000;0.3280;0.7286;
-88.8000;0.3248;0.7286;
-88.5000;0.3232;0.7335;
-88.2000;0.3256;0.7311;
-87.9000;0.3256;0.7385;
-87.6000;0.3248;0.7435;
-87.3000;0.3280;0.7559;
-87.0000;0.3240;0.7460;
-86.7000;0.3240;0.7410;
-86.4000;0.3272;0.7385;
-86.1000;0.3248;0.7261;
-85.8000;0.3223;0.7311;
-85.5000;0.3232;0.7435;
-85.2000;0.3223;0.7335;
-84.9000;0.3256;0.7360;
-84.6000;0.3232;0.7236;
-84.3000;0.3191;0.7137;
-84.0000;0.3215;0.7286;
-83.7000;0.3264;0.7311;
-83.4000;0.3256;0.7261;
-83.1000;0.3240;0.7311;
-82.8000;0.3248;0.7236;
-82.5000;0.3272;0.7385;
-82.2000;0.3240;0.7311;
-81.9000;0.3272;0.7460;
-81.6000;0.3289;0.7460;
-81.3000;0.3256;0.7385;
-81.0000;0.3223;0.7360;
-80.7000;0.3232;0.7286;
-80.4000;0.3223;0.7261;
-80.1000;0.3256;0.7410;
-79.8000;0.3248;0.7410;
-79.5000;0.3232;0.7311;
-79.2000;0.3248;0.7435;
-78.9000;0.3256;0.7510;
-78.6000;0.3215;0.7360;
-78.3000;0.3280;0.7584;
-78.0000;0.3248;0.7485;
-77.7000;0.3264;0.7460;
-77.4000;0.3264;0.7435;
-77.1000;0.3232;0.7286;
-76.8000;0.3240;0.7286;
-76.5000;0.3248;0.7335;
-76.2000;0.3199;0.7161;
-75.9000;0.3232;0.7112;
-75.6000;0.3240;0.7012;
-75.3000;0.3232;0.7012;
-75.0000;0.3223;0.7037;
-74.7000;0.3256;0.7161;
-74.4000;0.3191;0.6963;
-74.1000;0.3321;0.7286;
-73.8000;0.3232;0.7186;
-73.5000;0.3232;0.7161;
-73.2000;0.3223;0.7211;
-72.9000;0.3232;0.7211;
-72.6000;0.3248;0.7236;
-72.3000;0.3248;0.7236;
-72.0000;0.3240;0.7261;
-71.7000;0.3240;0.7286;
-71.4000;0.3215;0.7161;
-71.1000;0.3289;0.7261;
-70.8000;0.3240;0.7112;
-70.5000;0.3223;0.7186;
-70.2000;0.3240;0.7286;
-69.9000;0.3248;0.7410;
-69.6000;0.3240;0.7385;
-69.3000;0.3223;0.7261;
-69.0000;0.3223;0.7261;
-68.7000;0.3232;0.7286;
-68.4000;0.3207;0.7186;
-68.1000;0.3232;0.7236;
-67.8000;0.3223;0.7236;
-67.5000;0.3272;0.7286;
-67.2000;0.3248;0.7161;
-66.9000;0.3248;0.7186;
-66.6000;0.3256;0.7112;
-66.3000;0.3272;0.7137;
-66.0000;0.3207;0.7112;
-65.7000;0.3232;0.7112;
-65.4000;0.3240;0.7137;
-65.1000;0.3272;0.7161;
-64.8000;0.3232;0.7087;
-64.5000;0.3248;0.7112;
-64.2000;0.3199;0.6987;
-63.9000;0.3232;0.7137;
-63.6000;0.3240;0.7211;
-63.3000;0.3232;0.7211;
-63.0000;0.3223;0.7137;
-62.7000;0.3232;0.7137;
-62.4000;0.3240;0.7087;
-62.1000;0.3264;0.7186;
-61.8000;0.3256;0.7112;
-61.5000;0.3256;0.7087;
-61.2000;0.3248;0.7112;
-60.9000;0.3256;0.7087;
-60.6000;0.3199;0.6938;
-60.3000;0.3272;0.7062;
-60.0000;0.3264;0.7161;
-59.7000;0.3272;0.7236;
-59.4000;0.3223;0.7087;
-59.1000;0.3240;0.7186;
-58.8000;0.3175;0.6888;
-58.5000;0.3240;0.7112;
-58.2000;0.3232;0.7062;
-57.9000;0.3346;0.7335;
-57.6000;0.3199;0.6863;
-57.3000;0.3248;0.7012;
-57.0000;0.3329;0.7211;
-56.7000;0.3166;0.6838;
-56.4000;0.3240;0.7062;
-56.1000;0.3256;0.7137;
-55.8000;0.3264;0.7037;
-55.5000;0.3256;0.7037;
-55.2000;0.3240;0.7087;
-54.9000;0.3264;0.7087;
-54.6000;0.3223;0.7112;
-54.3000;0.3240;0.7112;
-54.0000;0.3248;0.7112;
-53.7000;0.3256;0.7012;
-53.4000;0.3321;0.7335;
-53.1000;0.3223;0.7137;
-52.8000;0.3248;0.7211;
-52.5000;0.3272;0.7236;
-52.2000;0.3256;0.7236;
-51.9000;0.3248;0.7062;
-51.6000;0.3240;0.7087;
-51.3000;0.3232;0.7037;
-51.0000;0.3256;0.7037;
-50.7000;0.3248;0.6938;
-50.4000;0.3248;0.6963;
-50.1000;0.3207;0.6913;
-49.8000;0.3248;0.6963;
-49.5000;0.3264;0.7012;
-49.2000;0.3256;0.6913;
-48.9000;0.3232;0.6863;
-48.6000;0.3264;0.7062;
-48.3000;0.3248;0.7161;
-48.0000;0.3232;0.7236;
-47.7000;0.3256;0.7385;
-47.4000;0.3256;0.7385;
-47.1000;0.3256;0.7311;
-46.8000;0.3232;0.7211;
-46.5000;0.3256;0.7261;
-46.2000;0.3256;0.7236;
-45.9000;0.3264;0.7261;
-45.6000;0.3264;0.7236;
-45.3000;0.3248;0.7186;
-45.0000;0.3256;0.7286;
-44.7000;0.3240;0.7236;
-44.4000;0.3215;0.7161;
-44.1000;0.3248;0.7261;
-43.8000;0.3240;0.7261;
-43.5000;0.3256;0.7161;
-43.2000;0.3248;0.7186;
-42.9000;0.3256;0.7211;
-42.6000;0.3248;0.7137;
-42.3000;0.3272;0.7286;
-42.0000;0.3223;0.7087;
-41.7000;0.3248;0.7161;
-41.4000;0.3272;0.7161;
-41.1000;0.3248;0.7062;
-40.8000;0.3272;0.7087;
-40.5000;0.3240;0.6938;
-40.2000;0.3248;0.6913;
-39.9000;0.3215;0.6888;
-39.6000;0.3240;0.6963;
-39.3000;0.3272;0.7087;
-39.0000;0.3248;0.7062;
-38.7000;0.3256;0.7186;
-38.4000;0.3215;0.7137;
-38.1000;0.3256;0.7261;
-37.8000;0.3240;0.7211;
-37.5000;0.3248;0.7211;
-37.2000;0.3248;0.7261;
-36.9000;0.3264;0.7286;
-36.6000;0.3240;0.7236;
-36.3000;0.3232;0.7211;
-36.0000;0.3232;0.7211;
-35.7000;0.3223;0.7236;
-35.4000;0.3248;0.7360;
-35.1000;0.3240;0.7261;
-34.8000;0.3248;0.7311;
-34.5000;0.3232;0.7236;
-34.2000;0.3240;0.7137;
-33.9000;0.3240;0.7062;
-33.6000;0.3240;0.7012;
-33.3000;0.3264;0.7112;
-33.0000;0.3240;0.7087;
-32.7000;0.3248;0.7161;
-32.4000;0.3264;0.7286;
-32.1000;0.3256;0.7286;
-31.8000;0.3297;0.7335;
-31.5000;0.3297;0.7360;
-31.2000;0.3256;0.7261;
-30.9000;0.3256;0.7161;
-30.6000;0.3191;0.7062;
-30.3000;0.3256;0.7186;
-30.0000;0.3199;0.6963;
-29.7000;0.3248;0.7037;
-29.4000;0.3264;0.7087;
-29.1000;0.3248;0.7062;
-28.8000;0.3248;0.7087;
-28.5000;0.3248;0.7062;
-28.2000;0.3256;0.7137;
-27.9000;0.3264;0.7236;
-27.6000;0.3240;0.7161;
-27.3000;0.3240;0.7137;
-27.0000;0.3223;0.7186;
-26.7000;0.3248;0.7161;
-26.4000;0.3248;0.7161;
-26.1000;0.3199;0.7037;
-25.8000;0.3264;0.7211;
-25.5000;0.3232;0.7137;
-25.2000;0.3223;0.7112;
-24.9000;0.3232;0.7087;
-24.6000;0.3232;0.7137;
-24.3000;0.3232;0.7186;
-24.0000;0.3264;0.7186;
-23.7000;0.3232;0.7062;
-23.4000;0.3248;0.7037;
-23.1000;0.3264;0.7186;
-22.8000;0.3248;0.7186;
-22.5000;0.3223;0.7062;
-22.2000;0.3256;0.7186;
-21.9000;0.3248;0.7236;
-21.6000;0.3183;0.7062;
-21.3000;0.3264;0.7335;
-21.0000;0.3240;0.7261;
-20.7000;0.3232;0.7286;
-20.4000;0.3240;0.7335;
-20.1000;0.3240;0.7311;
-19.8000;0.3240;0.7211;
-19.5000;0.3240;0.7311;
-19.2000;0.3232;0.7286;
-18.9000;0.3232;0.7286;
-18.6000;0.3256;0.7286;
-18.3000;0.3240;0.7186;
-18.0000;0.3215;0.7112;
-17.7000;0.3232;0.7137;
-17.4000;0.3240;0.7236;
-17.1000;0.3248;0.7161;
-16.8000;0.3280;0.7236;
-16.5000;0.3256;0.7186;
-16.2000;0.3240;0.7087;
-15.9000;0.3223;0.7137;
-15.6000;0.3248;0.7236;
-15.3000;0.3248;0.7236;
-15.0000;0.3232;0.7112;
-14.7000;0.3240;0.7211;
-14.4000;0.3305;0.7261;
-14.1000;0.3248;0.7087;
-13.8000;0.3232;0.7112;
-13.5000;0.3256;0.7236;
-13.2000;0.3256;0.7261;
-12.9000;0.3272;0.7435;
-12.6000;0.3280;0.7435;
-12.3000;0.3264;0.7286;
-12.0000;0.3256;0.7211;
-11.7000;0.3240;0.7186;
-11.4000;0.3240;0.7211;
-11.1000;0.3256;0.7261;
-10.8000;0.3240;0.7261;
-10.5000;0.3240;0.7311;
-10.2000;0.3223;0.7286;
-9.9000;0.3215;0.7311;
-9.6000;0.3232;0.7435;
-9.3000;0.3232;0.7485;
-9.0000;0.3232;0.7510;
-8.7000;0.3256;0.7510;
-8.4000;0.3207;0.7286;
-8.1000;0.3248;0.7335;
-7.8000;0.3240;0.7286;
-7.5000;0.3240;0.7261;
-7.2000;0.3264;0.7286;
-6.9000;0.3256;0.7335;
-6.6000;0.3240;0.7236;
-6.3000;0.3248;0.7311;
-6.0000;0.3175;0.7161;
-5.7000;0.3223;0.7335;
-5.4000;0.3240;0.7186;
-5.1000;0.3248;0.7261;
-4.8000;0.3232;0.7286;
-4.5000;0.3240;0.7261;
-4.2000;0.3248;0.7186;
-3.9000;0.3232;0.7161;
-3.6000;0.3248;0.7087;
-3.3000;0.3280;0.7186;
-3.0000;0.3256;0.7186;
-2.7000;0.3256;0.7186;
-2.4000;0.3240;0.7186;
-2.1000;0.3256;0.7286;
-1.8000;0.3248;0.7286;
-1.5000;0.3256;0.7335;
-1.2000;0.3256;0.7360;
-0.9000;0.3207;0.7211;
-0.6000;0.3232;0.7211;
-0.3000;0.3248;0.7161;
0.0000;0.3248;0.7161;
0.3000;0.3362;0.6813;
0.6000;0.3573;0.7335;
0.9000;0.3736;0.7758;
1.2000;0.3940;0.8280;
1.5000;0.3964;0.8330;
1.8000;0.4021;0.8728;
2.1000;0.4086;0.8952;
2.4000;0.4135;0.9176;
2.7000;0.4160;0.9399;
3.0000;0.4184;0.9499;
3.3000;0.4217;0.9673;
3.6000;0.4249;0.9872;
3.9000;0.4274;0.9996;
4.2000;0.4274;0.9971;
4.5000;0.4298;1.0021;
4.8000;0.4298;1.0021;
5.1000;0.4314;1.0096;
5.4000;0.4314;1.0096;
5.7000;0.4290;1.0046;
6.0000;0.4339;1.0220;
6.3000;0.4339;1.0170;
6.6000;0.4347;1.0170;
6.9000;0.4379;1.0195;
7.2000;0.4396;1.0220;
7.5000;0.4387;1.0245;
7.8000;0.4371;1.0170;
8.1000;0.4412;1.0195;
8.4000;0.4396;1.0145;
8.7000;0.4371;1.0046;
9.0000;0.4330;0.9897;
9.3000;0.4461;1.0369;
9.6000;0.4444;1.0319;
9.9000;0.4420;1.0220;
10.2000;0.4469;1.0270;
10.5000;0.4469;1.0145;
10.8000;0.4428;1.0071;
11.1000;0.4469;1.0245;
11.4000;0.4518;1.0344;
11.7000;0.4501;1.0270;
12.0000;0.4501;1.0170;
12.3000;0.4534;1.0295;
12.6000;0.4518;1.0245;
12.9000;0.4526;1.0319;
13.2000;0.4526;1.0245;
13.5000;0.4428;0.9946;
13.8000;0.4526;1.0145;
14.1000;0.4542;1.0195;
14.4000;0.4558;1.0145;
14.7000;0.4558;1.0145;
15.0000;0.4558;1.0046;
15.3000;0.4567;1.0021;
15.6000;0.4583;1.0021;
15.9000;0.4558;1.0046;
16.2000;0.4591;1.0096;
16.5000;0.4567;0.9996;
16.8000;0.4583;1.0021;
17.1000;0.4599;1.0046;
17.4000;0.4599;0.9971;
17.7000;0.4615;1.0046;
18.0000;0.4599;1.0046;
18.3000;0.4632;1.0195;
18.6000;0.4615;1.0145;
18.9000;0.4607;1.0096;
19.2000;0.4624;1.0096;
19.5000;0.4607;1.0071;
19.8000;0.4640;1.0021;
20.1000;0.4648;1.0096;
20.4000;0.4624;1.0120;
20.7000;0.4624;1.0046;
21.0000;0.4599;0.9797;
21.3000;0.4656;0.9897;
21.6000;0.4648;0.9897;
21.9000;0.4664;1.0021;
22.2000;0.4648;0.9946;
22.5000;0.4737;1.0120;
22.8000;0.4721;0.9922;
23.1000;0.4672;0.9897;
23.4000;0.4705;1.0071;
23.7000;0.4689;1.0071;
24.0000;0.4672;0.9922;
24.3000;0.4672;0.9971;
24.6000;0.4681;0.9922;
24.9000;0.4689;0.9922;
25.2000;0.4697;0.9897;
25.5000;0.4697;0.9922;
25.8000;0.4705;0.9946;
26.1000;0.4705;0.9971;
26.4000;0.4721;1.0096;
26.7000;0.4721;1.0071;
27.0000;0.4721;0.9996;
27.3000;0.4705;0.9996;
27.6000;0.4729;1.0120;
27.9000;0.4721;1.0071;
28.2000;0.4729;1.0071;
28.5000;0.4697;0.9971;
28.8000;0.4721;0.9971;
29.1000;0.4713;1.0021;
29.4000;0.4721;0.9996;
29.7000;0.4729;0.9922;
30.0000;0.4705;0.9897;
30.3000;0.4705;0.9872;
30.6000;0.4729;0.9872;
30.9000;0.4737;0.9946;
31.2000;0.4770;1.0021;
31.5000;0.4737;0.9922;
31.8000;0.4713;0.9822;
32.1000;0.4762;0.9897;
32.4000;0.4721;0.9822;
32.7000;0.4811;1.0145;
33.0000;0.4835;1.0270;
33.3000;0.4754;1.0071;
33.6000;0.4762;1.0145;
33.9000;0.4778;1.0270;
34.2000;0.4794;1.0369;
34.5000;0.4770;1.0220;
34.8000;0.4778;1.0220;
35.1000;0.4786;1.0145;
35.4000;0.4778;1.0096;
35.7000;0.4786;1.0096;
36.0000;0.4778;1.0096;
36.3000;0.4778;1.0145;
36.6000;0.4770;1.0071;
36.9000;0.4786;1.0071;
37.2000;0.4778;1.0096;
37.5000;0.4827;1.0170;
37.8000;0.4811;1.0120;
38.1000;0.4794;1.0071;
38.4000;0.4778;1.0046;
38.7000;0.4843;1.0195;
39.0000;0.4778;0.9946;
39.3000;0.4803;0.9996;
39.6000;0.4786;0.9922;
39.9000;0.4778;0.9922;
40.2000;0.4786;0.9971;
40.5000;0.4786;0.9996;
40.8000;0.4762;0.9872;
41.1000;0.4770;0.9897;
41.4000;0.4811;0.9946;
41.7000;0.4786;0.9872;
42.0000;0.4754;0.9673;
42.3000;0.4762;0.9797;
42.6000;0.4827;0.9946;
42.9000;0.4843;0.9872;
43.2000;0.4803;0.9872;
43.5000;0.4835;0.9946;
43.8000;0.4811;0.9797;
44.1000;0.4811;0.9723;
44.4000;0.4794;0.9673;
44.7000;0.4794;0.9723;
45.0000;0.4811;0.9723;
45.3000;0.4811;0.9797;
45.6000;0.4827;0.9897;
45.9000;0.4827;0.9946;
46.2000;0.4794;0.9922;
46.5000;0.4827;0.9971;
46.8000;0.4819;0.9996;
47.1000;0.4843;0.9996;
47.4000;0.4803;0.9872;
47.7000;0.4819;0.9822;
48.0000;0.4778;0.9623;
48.3000;0.4843;0.9723;
48.6000;0.4851;0.9723;
48.9000;0.4843;0.9797;
49.2000;0.4835;0.9723;
49.5000;0.4860;0.9748;
49.8000;0.4843;0.9748;
50.1000;0.4827;0.9748;
50.4000;0.4851;0.9772;
50.7000;0.4868;0.9698;
51.0000;0.4843;0.9573;
51.3000;0.4860;0.9673;
51.6000;0.4868;0.9673;
51.9000;0.4868;0.9598;
52.2000;0.4868;0.9598;
52.5000;0.4843;0.9573;
52.8000;0.4860;0.9623;
53.1000;0.4884;0.9698;
53.4000;0.4892;0.9772;
53.7000;0.4908;0.9922;
54.0000;0.4811;0.9748;
54.3000;0.4868;0.9748;
54.6000;0.4876;0.9748;
54.9000;0.4868;0.9673;
55.2000;0.4835;0.9549;
55.5000;0.4892;0.9698;
55.8000;0.4908;0.9748;
56.1000;0.4876;0.9723;
56.4000;0.4884;0.9772;
56.7000;0.4892;0.9723;
57.0000;0.4868;0.9698;
57.3000;0.4892;0.9748;
57.6000;0.4908;0.9723;
57.9000;0.4900;0.9673;
58.2000;0.4884;0.9524;
58.5000;0.4925;0.9549;
58.8000;0.4900;0.9524;
59.1000;0.4892;0.9499;
59.4000;0.4876;0.9499;
59.7000;0.4884;0.9648;
60.0000;0.4908;0.9723;
60.3000;0.4892;0.9698;
60.6000;0.4892;0.9698;
60.9000;0.4900;0.9698;
61.2000;0.4900;0.9623;
61.5000;0.4900;0.9524;
61.8000;0.4949;0.9748;
62.1000;0.4933;0.9648;
62.4000;0.4925;0.9598;
62.7000;0.4900;0.9598;
63.0000;0.4941;0.9623;
63.3000;0.4908;0.9524;
63.6000;0.4941;0.9549;
63.9000;0.4925;0.9524;
64.2000;0.4933;0.9549;
64.5000;0.5006;0.9822;
64.8000;0.4933;0.9623;
65.1000;0.4957;0.9772;
65.4000;0.4908;0.9648;
65.7000;0.4933;0.9723;
66.0000;0.4933;0.9772;
66.3000;0.4933;0.9623;
66.6000;0.4949;0.9673;
66.9000;0.4925;0.9673;
67.2000;0.4949;0.9673;
67.5000;0.4965;0.9648;
67.8000;0.4949;0.9598;
68.1000;0.4933;0.9499;
68.4000;0.4982;0.9598;
68.7000;0.4965;0.9623;
69.0000;0.4949;0.9598;
69.3000;0.4941;0.9474;
69.6000;0.4990;0.9474;
69.9000;0.4957;0.9325;
70.2000;0.4949;0.9300;
70.5000;0.4900;0.9275;
70.8000;0.4941;0.9449;
71.1000;0.4965;0.9499;
71.4000;0.4982;0.9499;
71.7000;0.4974;0.9449;
72.0000;0.5022;0.9549;
72.3000;0.4990;0.9449;
72.6000;0.4949;0.9275;
72.9000;0.4982;0.9399;
73.2000;0.4982;0.9375;
73.5000;0.4982;0.9300;
73.8000;0.4990;0.9325;
74.1000;0.4974;0.9275;
74.4000;0.4974;0.9325;
74.7000;0.4990;0.9350;
75.0000;0.4982;0.9399;
75.3000;0.4982;0.9275;
75.6000;0.4965;0.9225;
75.9000;0.4974;0.9300;
76.2000;0.4982;0.9350;
76.5000;0.4974;0.9325;
76.8000;0.4982;0.9399;
77.1000;0.5014;0.9474;
77.4000;0.4990;0.9474;
77.7000;0.4990;0.9424;
78.0000;0.4982;0.9449;
78.3000;0.4974;0.9424;
78.6000;0.4990;0.9449;
78.9000;0.4974;0.9449;
79.2000;0.4965;0.9474;
79.5000;0.4990;0.9524;
79.8000;0.5006;0.9573;
80.1000;0.4982;0.9623;
80.4000;0.4990;0.9598;
80.7000;0.4998;0.9723;
81.0000;0.4974;0.9598;
81.3000;0.5031;0.9648;
81.6000;0.4982;0.9474;
81.9000;0.4998;0.9499;
82.2000;0.5022;0.9598;
82.5000;0.5055;0.9573;
82.8000;0.5031;0.9375;
83.1000;0.5014;0.9375;
83.4000;0.5055;0.9499;
83.7000;0.5014;0.9375;
84.0000;0.5039;0.9474;
84.3000;0.5031;0.9549;
84.6000;0.5055;0.9698;
84.9000;0.5031;0.9549;
85.2000;0.5031;0.9623;
85.5000;0.5071;0.9598;
85.8000;0.4982;0.9399;
86.1000;0.5039;0.9549;
86.4000;0.5006;0.9399;
86.7000;0.5039;0.9449;
87.0000;0.5022;0.9424;
87.3000;0.5039;0.9474;
87.6000;0.5039;0.9424;
87.9000;0.5022;0.9350;
88.2000;0.5022;0.9275;
88.5000;0.5031;0.9300;
88.8000;0.5039;0.9399;
89.1000;0.5022;0.9474;
89.4000;0.5022;0.9499;
89.7000;0.5031;0.9549;
90.0000;0.5047;0.9549;
90.3000;0.5047;0.9573;
90.6000;0.5047;0.9424;
90.9000;0.5031;0.9375;
91.2000;0.5039;0.9300;
91.5000;0.5047;0.9250;
91.8000;0.5047;0.9225;
92.1000;0.4990;0.9200;
92.4000;0.5047;0.9350;
92.7000;0.5022;0.9375;
93.0000;0.5063;0.9524;
93.3000;0.5039;0.9449;
93.6000;0.5047;0.9474;
93.9000;0.5047;0.9449;
94.2000;0.5063;0.9474;
94.5000;0.5055;0.9399;
94.8000;0.5047;0.9399;
95.1000;0.5071;0.9424;
95.4000;0.4974;0.9126;
95.7000;0.5055;0.9424;
96.0000;0.5039;0.9375;
96.3000;0.5055;0.9449;
96.6000;0.5071;0.9449;
96.9000;0.5063;0.9449;
97.2000;0.5055;0.9325;
97.5000;0.5071;0.9325;
97.8000;0.5071;0.9300;
98.1000;0.5071;0.9350;
98.4000;0.5071;0.9375;
98.7000;0.5055;0.9300;
99.0000;0.5079;0.9449;
99.3000;0.5079;0.9474;
99.6000;0.5055;0.9424;
99.9000;0.5071;0.9449;
100.2000;0.5047;0.9399;
100.5000;0.5047;0.9449;
100.8000;0.5088;0.9524;
101.1000;0.5079;0.9474;
101.4000;0.5055;0.9399;
101.7000;0.5022;0.9225;
102.0000;0.5071;0.9399;
102.3000;0.5088;0.9449;
102.6000;0.5063;0.9474;
102.9000;0.5112;0.9598;
103.2000;0.5079;0.9499;
103.5000;0.5088;0.9499;
103.8000;0.5128;0.9598;
104.1000;0.5088;0.9549;
104.4000;0.5088;0.9573;
104.7000;0.5120;0.9573;
105.0000;0.5088;0.9449;
105.3000;0.5088;0.9474;
105.6000;0.5096;0.9424;
105.9000;0.5055;0.9300;
106.2000;0.5153;0.9499;
106.5000;0.5112;0.9325;
106.8000;0.5071;0.9126;
107.1000;0.5079;0.9151;
107.4000;0.4998;0.8927;
107.7000;0.5088;0.9200;
108.0000;0.5088;0.9225;
108.3000;0.5104;0.9176;
108.6000;0.5079;0.9176;
108.9000;0.5096;0.9225;
109.2000;0.5079;0.9225;
109.5000;0.5079;0.9151;
109.8000;0.5096;0.9200;
110.1000;0.5096;0.9225;
110.4000;0.5039;0.9200;
110.7000;0.5096;0.9449;
111.0000;0.5079;0.9424;
111.3000;0.5079;0.9375;
111.6000;0.5096;0.9449;
111.9000;0.5104;0.9424;
112.2000;0.5104;0.9424;
112.5000;0.5088;0.9399;
112.8000;0.5128;0.9424;
113.1000;0.5104;0.9375;
113.4000;0.5104;0.9325;
113.7000;0.5104;0.9300;
114.0000;0.5104;0.9350;
114.3000;0.5104;0.9375;
114.6000;0.5096;0.9350;
114.9000;0.5096;0.9375;
115.2000;0.5104;0.9325;
115.5000;0.5096;0.9375;
115.8000;0.5096;0.9399;
116.1000;0.5096;0.9424;
116.4000;0.5079;0.9449;
116.7000;0.5096;0.9449;
117.0000;0.5120;0.9449;
117.3000;0.5079;0.9350;
117.6000;0.5096;0.9399;
117.9000;0.5088;0.9424;
118.2000;0.5112;0.9449;
118.5000;0.5104;0.9474;
118.8000;0.5096;0.9399;
119.1000;0.5112;0.9424;
119.4000;0.5055;0.9275;
119.7000;0.5063;0.9325;
120.0000;0.5096;0.9449;
120.3000;0.5104;0.9474;
120.6000;0.5112;0.9474;
120.9000;0.5088;0.9399;
121.2000;0.5128;0.9499;
121.5000;0.5112;0.9474;
121.8000;0.5120;0.9499;
122.1000;0.5079;0.9424;
122.4000;0.5096;0.9399;
122.7000;0.5104;0.9399;
123.0000;0.5112;0.9424;
123.3000;0.5169;0.9623;
123.6000;0.5169;0.9573;
123.9000;0.5144;0.9499;
124.2000;0.5104;0.9424;
124.5000;0.5112;0.9623;
124.8000;0.5104;0.9549;
125.1000;0.5104;0.9524;
125.4000;0.5096;0.9573;
125.7000;0.5112;0.9673;
126.0000;0.5104;0.9673;
126.3000;0.5120;0.9598;
126.6000;0.5071;0.9399;
126.9000;0.5079;0.9399;
127.2000;0.5193;0.9723;
127.5000;0.5120;0.9598;
127.8000;0.5104;0.9573;
128.1000;0.5096;0.9698;
128.4000;0.5112;0.9648;
128.7000;0.5088;0.9524;
129.0000;0.5079;0.9424;
129.3000;0.5088;0.9375;
129.6000;0.5112;0.9524;
129.9000;0.5096;0.9474;
130.2000;0.5169;0.9623;
130.5000;0.5161;0.9723;
130.8000;0.5096;0.9549;
131.1000;0.5120;0.9549;
131.4000;0.5193;0.9772;
131.7000;0.5104;0.9524;
132.0000;0.5128;0.9573;
132.3000;0.5104;0.9524;
132.6000;0.5136;0.9499;
132.9000;0.5161;0.9524;
133.2000;0.5120;0.9449;
133.5000;0.5128;0.9499;
133.8000;0.5128;0.9524;
134.1000;0.5144;0.9474;
134.4000;0.5120;0.9449;
134.7000;0.5153;0.9549;
135.0000;0.5104;0.9424;
135.3000;0.5104;0.9375;
135.6000;0.5128;0.9399;
135.9000;0.5112;0.9424;
136.2000;0.5112;0.9424;
136.5000;0.5104;0.9474;
136.8000;0.5104;0.9474;
137.1000;0.5144;0.9549;
137.4000;0.5112;0.9524;
137.7000;0.5161;0.9573;
138.0000;0.5112;0.9350;
138.3000;0.5112;0.9250;
138.6000;0.5112;0.9225;
138.9000;0.5104;0.9325;
139.2000;0.5088;0.9375;
139.5000;0.5128;0.9325;
139.8000;0.5161;0.9424;
140.1000;0.5112;0.9375;
140.4000;0.5112;0.9350;
140.7000;0.5079;0.9225;
141.0000;0.5096;0.9424;
141.3000;0.5112;0.9524;
141.6000;0.5096;0.9499;
141.9000;0.5136;0.9573;
142.2000;0.5128;0.9524;
142.5000;0.5104;0.9399;
142.8000;0.5096;0.9325;
143.1000;0.5144;0.9424;
143.4000;0.5120;0.9474;
143.7000;0.5128;0.9399;
144.0000;0.5063;0.9250;
144.3000;0.5136;0.9399;
144.6000;0.5144;0.9399;
144.9000;0.5112;0.9300;
145.2000;0.5136;0.9424;
145.5000;0.5136;0.9449;
145.8000;0.5120;0.9375;
146.1000;0.5153;0.9449;
146.4000;0.5120;0.9375;
146.7000;0.5120;0.9449;
147.0000;0.5104;0.9499;
147.3000;0.5120;0.9573;
147.6000;0.5128;0.9524;
147.9000;0.5112;0.9524;
148.2000;0.5104;0.9549;
148.5000;0.5112;0.9573;
148.8000;0.5169;0.9573;
149.1000;0.5055;0.9300;
149.4000;0.5079;0.9424;
149.7000;0.5071;0.9424;
150.0000;0.5136;0.9549;
150.3000;0.5104;0.9499;
150.6000;0.5120;0.9499;
150.9000;0.5104;0.9449;
151.2000;0.5104;0.9424;
151.5000;0.5120;0.9449;
151.8000;0.5112;0.9449;
152.1000;0.5120;0.9424;
152.4000;0.5120;0.9399;
152.7000;0.5128;0.9399;
153.0000;0.5112;0.9350;
153.3000;0.5153;0.9424;
153.6000;0.5088;0.9225;
153.9000;0.5120;0.9399;
154.2000;0.5128;0.9424;
154.5000;0.5104;0.9424;
154.8000;0.5161;0.9499;
155.1000;0.5104;0.9449;
155.4000;0.5096;0.9375;
155.7000;0.5112;0.9424;
156.0000;0.5120;0.9474;
156.3000;0.5128;0.9524;
156.6000;0.5144;0.9573;
156.9000;0.5120;0.9499;
157.2000;0.5120;0.9399;
157.5000;0.5144;0.9499;
157.8000;0.5275;0.9897;
158.1000;0.5136;0.9549;
158.4000;0.5120;0.9598;
158.7000;0.5112;0.9549;
159.0000;0.5136;0.9499;
159.3000;0.5112;0.9474;
159.6000;0.5128;0.9499;
159.9000;0.5153;0.9673;
160.2000;0.5128;0.9598;
160.5000;0.5104;0.9499;
160.8000;0.5104;0.9499;
161.1000;0.5096;0.9499;
161.4000;0.5104;0.9573;
161.7000;0.5112;0.9623;
162.0000;0.5088;0.9573;
162.3000;0.5104;0.9573;
162.6000;0.5153;0.9748;
162.9000;0.5088;0.9598;
163.2000;0.5136;0.9723;
163.5000;0.5112;0.9648;
163.8000;0.5096;0.9598;
164.1000;0.5096;0.9549;
164.4000;0.5096;0.9449;
164.7000;0.5063;0.9375;
165.0000;0.5079;0.9499;
165.3000;0.5120;0.9573;
165.6000;0.5079;0.9499;
165.9000;0.5096;0.9573;
166.2000;0.5112;0.9524;
166.5000;0.5071;0.9524;
166.8000;0.4998;0.9250;
167.1000;0.5079;0.9449;
167.4000;0.5104;0.9474;
167.7000;0.5104;0.9524;
168.0000;0.5112;0.9474;
168.3000;0.5088;0.9424;
168.6000;0.5144;0.9524;
168.9000;0.5169;0.9623;
169.2000;0.5120;0.9573;
169.5000;0.5112;0.9673;
169.8000;0.5096;0.9648;
170.1000;0.5112;0.9673;
170.4000;0.5120;0.9698;
170.7000;0.5112;0.9623;
171.0000;0.5104;0.9573;
171.3000;0.5128;0.9598;
171.6000;0.5079;0.9549;
171.9000;0.5112;0.9598;
172.2000;0.5088;0.9474;
172.5000;0.5039;0.9275;
172.8000;0.5104;0.9399;
173.1000;0.5112;0.9449;
173.4000;0.5079;0.9350;
173.7000;0.5128;0.9424;
174.0000;0.5104;0.9449;
174.3000;0.5096;0.9375;
174.6000;0.5063;0.9300;
174.9000;0.5112;0.9399;
175.2000;0.5120;0.9474;
175.5000;0.5120;0.9524;
175.8000;0.5144;0.9623;
176.1000;0.5112;0.9474;
176.4000;0.5136;0.9474;
176.7000;0.5088;0.9375;
177.0000;0.5136;0.9474;
177.3000;0.5104;0.9399;
177.6000;0.5120;0.9474;
177.9000;0.5120;0.9449;
178.2000;0.5136;0.9549;
178.5000;0.5136;0.9598;
178.8000;0.5096;0.9573;
179.1000;0.5120;0.9598;
179.4000;0.5153;0.9723;
179.7000;0.5096;0.9598;
180.0000;0.5120;0.9549;
180.3000;0.5144;0.9623;
180.6000;0.5071;0.9399;
180.9000;0.5104;0.9474;
181.2000;0.5096;0.9474;
181.5000;0.5096;0.9474;
181.8000;0.5088;0.9499;
182.1000;0.5104;0.9499;
182.4000;0.5112;0.9573;
182.7000;0.5120;0.9598;
183.0000;0.5128;0.9499;
183.3000;0.5120;0.9524;
183.6000;0.5128;0.9524;
183.9000;0.5120;0.9549;
184.2000;0.5144;0.9673;
184.5000;0.5088;0.9474;
184.8000;0.5088;0.9499;
185.1000;0.5096;0.9449;
185.4000;0.5104;0.9499;
185.7000;0.5104;0.9424;
186.0000;0.5112;0.9424;
186.3000;0.5071;0.9275;
186.6000;0.5104;0.9399;
186.9000;0.5104;0.9424;
187.2000;0.5104;0.9424;
187.5000;0.5112;0.9499;
187.8000;0.5112;0.9524;
188.1000;0.5112;0.9549;
188.4000;0.5096;0.9499;
188.7000;0.5104;0.9524;
189.0000;0.5104;0.9474;
189.3000;0.5112;0.9449;
189.6000;0.5088;0.9399;
189.9000;0.5047;0.9300;
190.2000;0.5079;0.9375;
190.5000;0.5055;0.9350;
190.8000;0.5071;0.9325;
191.1000;0.5071;0.9350;
191.4000;0.5088;0.9375;
191.7000;0.5104;0.9350;
192.0000;0.5112;0.9350;
192.3000;0.5096;0.9325;
192.6000;0.5088;0.9250;
192.9000;0.5104;0.9399;
193.2000;0.5096;0.9399;
193.5000;0.5096;0.9375;
193.8000;0.5096;0.9399;
194.1000;0.5120;0.9499;
194.4000;0.5104;0.9474;
194.7000;0.5104;0.9399;
195.0000;0.5071;0.9399;
195.3000;0.5079;0.9424;
195.6000;0.5088;0.9375;
195.9000;0.5088;0.9275;
196.2000;0.5088;0.9350;
196.5000;0.5047;0.9275;
196.8000;0.5096;0.9375;
197.1000;0.5104;0.9449;
197.4000;0.5120;0.9549;
197.7000;0.5055;0.9474;
198.0000;0.5112;0.9573;
198.3000;0.5112;0.9573;
198.6000;0.5104;0.9549;
198.9000;0.5071;0.9474;
199.2000;0.5096;0.9549;
199.5000;0.5047;0.9573;
199.8000;0.5079;0.9573;
200.1000;0.5112;0.9673;
200.4000;0.5128;0.9748;
200.7000;0.5104;0.9772;
201.0000;0.5071;0.9748;
201.3000;0.5079;0.9797;
201.6000;0.5071;0.9748;
201.9000;0.5136;0.9897;
202.2000;0.5088;0.9723;
202.5000;0.5047;0.9549;
202.8000;0.5063;0.9573;
203.1000;0.5144;0.9822;
203.4000;0.5104;0.9748;
203.7000;0.5104;0.9698;
204.0000;0.5039;0.9549;
204.3000;0.5096;0.9673;
204.6000;0.5088;0.9623;
204.9000;0.5071;0.9573;
205.2000;0.5096;0.9623;
205.5000;0.5088;0.9549;
205.8000;0.5104;0.9549;
206.1000;0.5088;0.9499;
206.4000;0.5071;0.9524;
206.7000;0.5088;0.9524;
207.0000;0.5096;0.9549;
207.3000;0.5096;0.9573;
207.6000;0.5096;0.9623;
207.9000;0.5079;0.9524;
208.2000;0.5112;0.9673;
208.5000;0.5112;0.9673;
208.8000;0.5104;0.9673;
209.1000;0.5088;0.9573;
209.4000;0.5104;0.9549;
209.7000;0.5096;0.9573;
210.0000;0.5088;0.9623;
210.3000;0.5071;0.9623;
210.6000;0.5088;0.9648;
210.9000;0.5079;0.9549;
211.2000;0.5079;0.9499;
211.5000;0.5079;0.9524;
211.8000;0.5063;0.9549;
212.1000;0.5079;0.9524;
212.4000;0.5096;0.9598;
212.7000;0.5112;0.9698;
213.0000;0.5071;0.9598;
213.3000;0.5088;0.9573;
213.6000;0.5063;0.9524;
213.9000;0.5071;0.9623;
214.2000;0.5112;0.9748;
214.5000;0.5096;0.9797;
214.8000;0.5096;0.9723;
215.1000;0.5088;0.9698;
215.4000;0.5071;0.9723;
215.7000;0.5096;0.9698;
216.0000;0.5096;0.9673;
216.3000;0.5112;0.9698;
216.6000;0.5088;0.9648;
216.9000;0.5128;0.9723;
217.2000;0.5120;0.9723;
217.5000;0.5096;0.9673;
217.8000;0.5112;0.9673;
218.1000;0.5047;0.9549;
218.4000;0.5096;0.9573;
218.7000;0.5079;0.9449;
219.0000;0.5079;0.9424;
219.3000;0.5063;0.9399;
219.6000;0.5088;0.9449;
219.9000;0.5088;0.9524;
220.2000;0.5079;0.9499;
220.5000;0.5096;0.9623;
220.8000;0.5112;0.9598;
221.1000;0.5071;0.9524;
221.4000;0.5079;0.9474;
221.7000;0.5031;0.9375;
222.0000;0.5071;0.9474;
222.3000;0.5088;0.9549;
222.6000;0.5063;0.9449;
222.9000;0.5079;0.9499;
223.2000;0.5079;0.9573;
223.5000;0.5088;0.9573;
223.8000;0.5161;0.9748;
224.1000;0.5177;0.9847;
224.4000;0.5088;0.9623;
224.7000;0.5096;0.9573;
225.0000;0.5096;0.9573;
225.3000;0.5079;0.9549;
225.6000;0.5063;0.9573;
225.9000;0.5079;0.9698;
226.2000;0.5096;0.9698;
226.5000;0.5079;0.9623;
226.8000;0.5079;0.9524;
227.1000;0.5088;0.9598;
227.4000;0.5088;0.9673;
227.7000;0.5088;0.9648;
228.0000;0.5096;0.9698;
228.3000;0.5096;0.9772;
228.6000;0.5136;0.9772;
228.9000;0.5063;0.9673;
229.2000;0.5088;0.9772;
229.5000;0.5096;0.9822;
229.8000;0.5055;0.9648;
230.1000;0.5079;0.9673;
230.4000;0.5071;0.9573;
230.7000;0.5079;0.9623;
231.0000;0.5079;0.9598;
231.3000;0.5096;0.9723;
231.6000;0.5055;0.9648;
231.9000;0.5071;0.9673;
232.2000;0.5047;0.9673;
232.5000;0.5039;0.9598;
232.8000;0.5079;0.9698;
233.1000;0.5071;0.9648;
233.4000;0.5079;0.9623;
233.7000;0.5079;0.9573;
234.0000;0.5071;0.9598;
234.3000;0.5063;0.9648;
234.6000;0.5088;0.9673;
234.9000;0.5088;0.9598;
235.2000;0.5055;0.9549;
235.5000;0.4982;0.9399;
235.8000;0.5063;0.9549;
236.1000;0.5071;0.9598;
236.4000;0.5071;0.9623;
236.7000;0.5161;0.9772;
237.0000;0.5071;0.9549;
237.3000;0.5088;0.9573;
237.6000;0.5071;0.9524;
237.9000;0.5088;0.9573;
238.2000;0.5071;0.9698;
238.5000;0.5071;0.9748;
238.8000;0.5022;0.9648;
239.1000;0.5088;0.9772;
239.4000;0.5088;0.9698;
239.7000;0.5071;0.9598;
240.0000;0.5088;0.9648;
240.3000;0.5088;0.9623;
240.6000;0.5088;0.9673;
240.9000;0.5079;0.9772;
241.2000;0.5128;0.9946;
241.5000;0.5063;0.9797;
241.8000;0.5071;0.9822;
242.1000;0.5079;0.9847;
242.4000;0.5079;0.9847;
242.7000;0.5136;0.9996;
243.0000;0.5104;0.9847;
243.3000;0.5079;0.9797;
243.6000;0.5169;0.9946;
243.9000;0.5047;0.9723;
244.2000;0.5039;0.9573;
244.5000;0.5088;0.9673;
244.8000;0.5071;0.9598;
245.1000;0.5031;0.9598;
245.4000;0.5063;0.9748;
245.7000;0.5055;0.9698;
246.0000;0.5055;0.9648;
246.3000;0.5063;0.9723;
246.6000;0.5079;0.9748;
246.9000;0.5022;0.9698;
247.2000;0.5079;0.9797;
247.5000;0.5096;0.9822;
247.8000;0.5047;0.9723;
248.1000;0.5096;0.9822;
248.4000;0.5063;0.9698;
248.7000;0.5088;0.9698;
249.0000;0.5104;0.9723;
249.3000;0.5079;0.9698;
249.6000;0.5071;0.9723;
249.9000;0.5014;0.9648;
250.2000;0.5071;0.9723;
250.5000;0.5071;0.9648;
250.8000;0.5096;0.9623;
251.1000;0.5096;0.9648;
251.4000;0.5079;0.9723;
251.7000;0.5079;0.9723;
252.0000;0.5071;0.9648;
252.3000;0.5071;0.9698;
252.6000;0.5071;0.9797;
252.9000;0.5079;0.9822;
253.2000;0.5071;0.9897;
253.5000;0.5079;0.9922;
253.8000;0.5088;0.9971;
254.1000;0.5088;0.9897;
254.4000;0.5104;0.9872;
254.7000;0.5055;0.9698;
255.0000;0.5088;0.9698;
255.3000;0.5096;0.9698;
255.6000;0.5022;0.9449;
255.9000;0.5055;0.9573;
256.2000;0.5055;0.9573;
256.5000;0.5071;0.9549;
256.8000;0.5079;0.9598;
257.1000;0.5063;0.9549;
257.4000;0.5096;0.9623;
257.7000;0.5031;0.9449;
258.0000;0.5063;0.9474;
258.3000;0.5079;0.9499;
258.6000;0.5014;0.9375;
258.9000;0.5071;0.9549;
259.2000;0.4998;0.9399;
259.5000;0.5144;0.9772;
259.8000;0.5063;0.9549;
260.1000;0.5071;0.9499;
260.4000;0.5063;0.9524;
260.7000;0.5055;0.9573;
261.0000;0.5079;0.9673;
261.3000;0.5055;0.9648;
261.6000;0.5079;0.9673;
261.9000;0.5063;0.9698;
262.2000;0.5063;0.9573;
262.5000;0.5055;0.9524;
262.8000;0.5047;0.9474;
263.1000;0.5071;0.9474;
263.4000;0.5063;0.9499;
263.7000;0.5071;0.9573;
264.0000;0.5079;0.9499;
264.3000;0.5079;0.9499;
264.6000;0.5063;0.9524;
264.9000;0.5071;0.9524;
265.2000;0.5104;0.9524;
265.5000;0.5071;0.9424;
265.8000;0.5079;0.9375;
266.1000;0.5104;0.9424;
266.4000;0.5063;0.9399;
266.7000;0.5022;0.9375;
267.0000;0.5104;0.9499;
267.3000;0.5071;0.9499;
267.6000;0.5063;0.9424;
267.9000;0.5055;0.9449;
268.2000;0.5071;0.9524;
268.5000;0.5071;0.9598;
268.8000;0.5096;0.9573;
269.1000;0.5071;0.9573;
269.4000;0.5088;0.9723;
269.7000;0.5055;0.9772;
270.0000;0.5039;0.9822;
270.3000;0.5055;0.9847;
270.6000;0.5088;0.9946;
270.9000;0.5047;0.9822;
271.2000;0.5055;0.9772;
271.5000;0.5055;0.9772;
271.8000;0.5047;0.9623;
272.1000;0.5006;0.9598;
272.4000;0.5079;0.9748;
272.7000;0.5055;0.9623;
273.0000;0.5185;0.9996;
273.3000;0.5055;0.9673;
273.6000;0.5055;0.9598;
273.9000;0.5055;0.9598;
274.2000;0.5071;0.9673;
274.5000;0.5063;0.9573;
274.8000;0.5039;0.9474;
275.1000;0.5047;0.9524;
275.4000;0.5071;0.9623;
275.7000;0.5047;0.9698;
276.0000;0.5047;0.9723;
276.3000;0.5063;0.9772;
276.6000;0.5047;0.9698;
276.9000;0.5071;0.9698;
277.2000;0.5079;0.9748;
277.5000;0.5047;0.9549;
277.8000;0.5047;0.9549;
278.1000;0.5039;0.9524;
278.4000;0.5063;0.9673;
278.7000;0.5071;0.9698;
279.0000;0.5071;0.9723;
279.3000;0.5055;0.9748;
279.6000;0.5071;0.9772;
279.9000;0.5088;0.9772;
280.2000;0.5079;0.9772;
280.5000;0.5079;0.9797;
280.8000;0.5063;0.9673;
281.1000;0.5022;0.9623;
281.4000;0.5039;0.9698;
281.7000;0.5128;0.9897;
282.0000;0.5063;0.9822;
282.3000;0.5039;0.9797;
282.6000;0.5104;0.9996;
282.9000;0.5039;0.9797;
283.2000;0.5031;0.9698;
283.5000;0.5047;0.9748;
283.8000;0.5039;0.9847;
284.1000;0.5031;0.9847;
284.4000;0.5055;0.9922;
284.7000;0.5039;0.9872;
285.0000;0.5031;0.9772;
285.3000;0.5022;0.9772;
285.6000;0.5039;0.9797;
285.9000;0.5047;0.9822;
286.2000;0.5047;0.9847;
286.5000;0.5055;0.9772;
286.8000;0.5047;0.9748;
287.1000;0.5063;0.9822;
287.4000;0.5047;0.9822;
287.7000;0.5039;0.9772;
288.0000;0.5039;0.9723;
288.3000;0.5063;0.9822;
288.6000;0.5047;0.9847;
288.9000;0.5055;0.9872;
289.2000;0.5039;0.9847;
289.5000;0.5039;0.9723;
289.8000;0.5055;0.9748;
290.1000;0.5047;0.9648;
290.4000;0.5055;0.9598;
290.7000;0.5096;0.9698;
291.0000;0.5031;0.9648;
291.3000;0.5031;0.9648;
291.6000;0.5031;0.9698;
291.9000;0.5063;0.9723;
292.2000;0.5055;0.9673;
292.5000;0.5047;0.9698;
292.8000;0.5047;0.9573;
293.1000;0.5104;0.9698;
293.4000;0.5071;0.9598;
293.7000;0.5055;0.9623;
294.0000;0.5039;0.9623;
294.3000;0.5047;0.9499;
294.6000;0.5047;0.9524;
294.9000;0.5055;0.9499;
295.2000;0.5022;0.9499;
295.5000;0.5014;0.9375;
295.8000;0.5047;0.9573;
296.1000;0.5031;0.9648;
296.4000;0.5022;0.9623;
296.7000;0.5047;0.9573;
297.0000;0.5055;0.9648;
297.3000;0.5055;0.9648;
297.6000;0.5120;0.9797;
297.9000;0.5079;0.9623;
298.2000;0.5055;0.9598;
298.5000;0.5047;0.9648;
298.8000;0.5071;0.9748;
299.1000;0.5063;0.9723;
299.4000;0.5071;0.9748;
299.7000;0.5079;0.9748;
300.0000;0.5055;0.9698;
300.3000;0.5071;0.9723;
300.6000;0.5055;0.9698;
300.9000;0.5047;0.9698;
301.2000;0.5039;0.9623;
301.5000;0.5055;0.9698;
301.8000;0.5047;0.9673;
302.1000;0.5047;0.9698;
302.4000;0.5063;0.9723;
302.7000;0.5055;0.9797;
303.0000;0.5039;0.9698;
303.3000;0.5039;0.9698;
303.6000;0.5047;0.9797;
303.9000;0.5055;0.9822;
304.2000;0.4990;0.9723;
304.5000;0.5047;0.9822;
304.8000;0.4974;0.9648;
305.1000;0.5031;0.9698;
305.4000;0.5031;0.9648;
305.7000;0.5031;0.9673;
306.0000;0.5039;0.9698;
306.3000;0.5055;0.9723;
306.6000;0.5047;0.9797;
306.9000;0.5031;0.9772;
307.2000;0.5047;0.9822;
307.5000;0.5039;0.9797;
307.8000;0.5055;0.9822;
308.1000;0.5055;0.9872;
308.4000;0.5047;0.9797;
308.7000;0.5055;0.9897;
309.0000;0.5063;0.9872;
309.3000;0.5063;0.9847;
309.6000;0.5055;0.9897;
309.9000;0.5031;0.9822;
310.2000;0.5055;0.9847;
310.5000;0.5055;0.9772;
310.8000;0.5063;0.9673;
311.1000;0.5047;0.9723;
311.4000;0.5047;0.9723;
311.7000;0.5047;0.9698;
312.0000;0.5022;0.9598;
312.3000;0.5047;0.9648;
312.6000;0.5047;0.9648;
312.9000;0.5039;0.9648;
313.2000;0.5039;0.9648;
313.5000;0.5031;0.9573;
313.8000;0.5039;0.9648;
314.1000;0.5031;0.9673;
314.4000;0.5039;0.9673;
314.7000;0.5031;0.9723;
315.0000;0.5031;0.9673;
315.3000;0.5039;0.9623;
315.6000;0.5039;0.9573;
315.9000;0.5006;0.9524;
316.2000;0.5063;0.9598;
316.5000;0.5088;0.9772;
316.8000;0.5039;0.9698;
317.1000;0.5014;0.9748;
317.4000;0.5047;0.9847;
317.7000;0.5006;0.9598;
318.0000;0.5039;0.9698;
318.3000;0.5047;0.9549;
318.6000;0.5079;0.9723;
318.9000;0.5039;0.9623;
319.2000;0.5047;0.9623;
319.5000;0.5039;0.9648;
319.8000;0.5039;0.9623;
320.1000;0.5063;0.9673;
320.4000;0.5031;0.9673;
320.7000;0.5047;0.9748;
321.0000;0.5031;0.9698;
321.3000;0.5039;0.9748;
321.6000;0.5022;0.9723;
321.9000;0.5031;0.9772;
322.2000;0.5031;0.9723;
322.5000;0.5039;0.9698;
322.8000;0.5039;0.9772;
323.1000;0.5031;0.9748;
323.4000;0.5022;0.9748;
323.7000;0.5031;0.9723;
324.0000;0.5055;0.9673;
324.3000;0.5055;0.9623;
324.6000;0.5031;0.9623;
324.9000;0.5031;0.9648;
325.2000;0.5039;0.9648;
325.5000;0.5014;0.9648;
325.8000;0.5022;0.9698;
326.1000;0.5022;0.9673;
326.4000;0.5006;0.9698;
326.7000;0.5079;0.9922;
327.0000;0.5047;0.9847;
327.3000;0.5022;0.9822;
327.6000;0.5031;0.9872;
327.9000;0.5022;0.9772;
328.2000;0.5014;0.9797;
328.5000;0.5031;0.9772;
328.8000;0.5031;0.9748;
329.1000;0.5047;0.9723;
329.4000;0.5022;0.9623;
329.7000;0.5022;0.9698;
330.0000;0.5022;0.9673;
330.3000;0.5022;0.9748;
330.6000;0.5022;0.9723;
330.9000;0.5055;0.9748;
331.2000;0.5022;0.9673;
331.5000;0.5039;0.9698;
331.8000;0.5039;0.9748;
332.1000;0.5031;0.9723;
332.4000;0.5031;0.9673;
332.7000;0.5055;0.9772;
333.0000;0.5039;0.9797;
333.3000;0.5014;0.9723;
333.6000;0.5022;0.9698;
333.9000;0.5039;0.9723;
334.2000;0.5039;0.9648;
334.5000;0.5039;0.9598;
334.8000;0.5047;0.9573;
335.1000;0.4998;0.9598;
335.4000;0.5047;0.9748;
335.7000;0.5047;0.9797;
336.0000;0.5031;0.9723;
336.3000;0.5039;0.9748;
336.6000;0.5039;0.9822;
336.9000;0.5022;0.9723;
337.2000;0.5079;0.9847;
337.5000;0.5022;0.9698;
337.8000;0.4965;0.9499;
338.1000;0.5022;0.9623;
338.4000;0.5071;0.9648;
338.7000;0.5014;0.9524;
339.0000;0.4941;0.9375;
339.3000;0.5022;0.9598;
339.6000;0.5022;0.9524;
339.9000;0.5039;0.9499;
340.2000;0.5047;0.9524;
340.5000;0.5031;0.9449;
340.8000;0.5039;0.9449;
341.1000;0.5014;0.9449;
341.4000;0.5022;0.9424;
341.7000;0.5006;0.9474;
342.0000;0.5022;0.9474;
342.3000;0.5031;0.9524;
342.6000;0.5022;0.9474;
342.9000;0.5031;0.9499;
343.2000;0.5047;0.9598;
343.5000;0.5006;0.9449;
343.8000;0.5031;0.9474;
344.1000;0.5022;0.9573;
344.4000;0.5039;0.9573;
344.7000;0.5031;0.9573;
345.0000;0.5022;0.9449;
345.3000;0.5022;0.9449;
345.6000;0.5079;0.9648;
345.9000;0.5047;0.9499;
346.2000;0.5022;0.9424;
346.5000;0.5039;0.9399;
346.8000;0.5022;0.9350;
347.1000;0.5039;0.9449;
347.4000;0.5022;0.9325;
347.7000;0.5022;0.9399;
348.0000;0.5031;0.9375;
348.3000;0.5039;0.9499;
348.6000;0.5014;0.9424;
348.9000;0.4998;0.9375;
349.2000;0.5014;0.9399;
349.5000;0.4982;0.9325;
349.8000;0.5014;0.9499;
350.1000;0.5022;0.9524;
350.4000;0.5022;0.9549;
350.7000;0.5022;0.9499;
351.0000;0.5031;0.9499;
351.3000;0.4965;0.9325;
351.6000;0.5014;0.9499;
351.9000;0.5031;0.9499;
352.2000;0.5006;0.9449;
352.5000;0.5031;0.9449;
352.8000;0.4990;0.9449;
353.1000;0.4998;0.9549;
353.4000;0.5128;0.9748;
353.7000;0.5047;0.9449;
354.0000;0.5104;0.9623;
354.3000;0.5047;0.9524;
354.6000;0.5022;0.9549;
354.9000;0.5031;0.9499;
355.2000;0.5022;0.9424;
355.5000;0.5022;0.9499;
355.8000;0.5039;0.9648;
356.1000;0.5014;0.9573;
356.4000;0.5022;0.9573;
356.7000;0.5039;0.9623;
357.0000;0.5031;0.9549;
357.3000;0.4998;0.9474;
357.6000;0.5006;0.9499;
357.9000;0.5014;0.9449;
358.2000;0.5031;0.9399;
358.5000;0.5055;0.9375;
358.8000;0.5014;0.9275;
359.1000;0.5031;0.9350;
359.4000;0.5039;0.9424;
359.7000;0.5031;0.9573;
360.0000;0.5014;0.9524;
360.3000;0.5022;0.9549;
360.6000;0.5104;0.9822;
360.9000;0.5014;0.9549;
361.2000;0.5039;0.9623;
361.5000;0.5022;0.9648;
361.8000;0.4998;0.9598;
362.1000;0.5014;0.9524;
362.4000;0.5014;0.9524;
362.7000;0.5014;0.9524;
363.0000;0.5006;0.9524;
363.3000;0.5022;0.9549;
363.6000;0.5022;0.9549;
363.9000;0.5006;0.9598;
364.2000;0.5031;0.9673;
364.5000;0.5047;0.9623;
364.8000;0.5022;0.9648;
365.1000;0.5006;0.9499;
365.4000;0.5039;0.9623;
365.7000;0.5014;0.9648;
366.0000;0.5031;0.9673;
366.3000;0.5039;0.9623;
366.6000;0.5022;0.9648;
366.9000;0.5022;0.9723;
367.2000;0.5022;0.9772;
367.5000;0.4925;0.9499;
367.8000;0.5014;0.9698;
368.1000;0.5022;0.9723;
368.4000;0.5022;0.9698;
368.7000;0.5006;0.9723;
369.0000;0.4998;0.9648;
369.3000;0.5006;0.9698;
369.6000;0.5031;0.9748;
369.9000;0.5022;0.9822;
370.2000;0.4990;0.9872;
370.5000;0.5022;0.9847;
370.8000;0.5022;0.9748;
371.1000;0.5014;0.9698;
371.4000;0.4990;0.9648;
371.7000;0.4998;0.9648;
372.0000;0.5031;0.9797;
372.3000;0.5022;0.9797;
372.6000;0.4982;0.9673;
372.9000;0.5006;0.9723;
373.2000;0.5014;0.9872;
373.5000;0.5039;0.9847;
373.8000;0.5014;0.9772;
374.1000;0.5014;0.9822;
374.4000;0.5014;0.9797;
374.7000;0.4933;0.9648;
375.0000;0.4998;0.9872;
375.3000;0.5006;0.9872;
375.6000;0.4965;0.9822;
375.9000;0.5006;0.9872;
376.2000;0.4908;0.9623;
376.5000;0.4998;0.9822;
376.8000;0.5014;0.9797;
377.1000;0.5022;0.9748;
377.4000;0.5006;0.9748;
377.7000;0.5031;0.9772;
378.0000;0.4990;0.9772;
378.3000;0.5014;0.9748;
378.6000;0.5031;0.9797;
378.9000;0.5022;0.9797;
379.2000;0.5006;0.9698;
379.5000;0.5006;0.9673;
379.8000;0.4990;0.9598;
380.1000;0.5006;0.9648;
380.4000;0.4965;0.9648;
380.7000;0.4998;0.9698;
381.0000;0.4998;0.9648;
381.3000;0.5014;0.9748;
381.6000;0.4998;0.9648;
381.9000;0.4990;0.9673;
382.2000;0.4965;0.9623;
382.5000;0.4998;0.9673;
382.8000;0.5022;0.9797;
383.1000;0.5088;0.9922;
383.4000;0.5006;0.9698;
383.7000;0.5014;0.9797;
384.0000;0.5055;0.9897;
384.3000;0.4982;0.9797;
384.6000;0.4990;0.9673;
384.9000;0.5014;0.9623;
385.2000;0.5022;0.9573;
385.5000;0.4990;0.9474;
385.8000;0.4990;0.9524;
386.1000;0.4990;0.9424;
386.4000;0.5031;0.9524;
386.7000;0.4982;0.9449;
387.0000;0.4974;0.9375;
387.3000;0.4974;0.9375;
387.6000;0.4998;0.9424;
387.9000;0.4998;0.9375;
388.2000;0.5006;0.9375;
388.5000;0.5039;0.9449;
388.8000;0.5014;0.9474;
389.1000;0.5112;0.9822;
389.4000;0.5047;0.9598;
389.7000;0.5006;0.9549;
390.0000;0.4990;0.9524;
390.3000;0.4998;0.9573;
390.6000;0.4965;0.9549;
390.9000;0.4974;0.9573;
391.2000;0.5006;0.9598;
391.5000;0.4998;0.9524;
391.8000;0.5006;0.9499;
392.1000;0.4998;0.9499;
392.4000;0.4990;0.9499;
392.7000;0.5014;0.9499;
393.0000;0.5006;0.9449;
393.3000;0.5014;0.9499;
393.6000;0.5039;0.9499;
393.9000;0.5031;0.9499;
394.2000;0.5014;0.9474;
394.5000;0.4965;0.9424;
394.8000;0.4941;0.9350;
395.1000;0.5022;0.9524;
395.4000;0.5014;0.9499;
395.7000;0.5014;0.9524;
396.0000;0.4990;0.9524;
396.3000;0.4982;0.9499;
396.6000;0.5006;0.9648;
396.9000;0.5088;0.9847;
397.2000;0.5014;0.9623;
397.5000;0.5006;0.9623;
397.8000;0.4998;0.9673;
398.1000;0.5006;0.9723;
398.4000;0.5006;0.9698;
398.7000;0.5006;0.9698;
399.0000;0.5022;0.9623;
399.3000;0.5006;0.9524;
399.6000;0.5039;0.9723;
399.9000;0.4998;0.9573;
400.2000;0.5006;0.9623;
400.5000;0.4998;0.9499;
400.8000;0.4998;0.9499;
401.1000;0.4998;0.9449;
401.4000;0.5006;0.9549;
401.7000;0.5014;0.9598;
402.0000;0.4974;0.9573;
402.3000;0.4974;0.9549;
402.6000;0.5047;0.9698;
402.9000;0.5006;0.9573;
403.2000;0.5006;0.9623;
403.5000;0.4998;0.9623;
403.8000;0.4998;0.9524;
404.1000;0.5014;0.9598;
404.4000;0.4982;0.9524;
404.7000;0.4998;0.9573;
405.0000;0.4998;0.9623;
405.3000;0.4998;0.9598;
405.6000;0.5031;0.9698;
405.9000;0.5031;0.9698;
406.2000;0.4998;0.9598;
406.5000;0.4949;0.9474;
406.8000;0.5006;0.9524;
407.1000;0.4998;0.9424;
407.4000;0.4982;0.9399;
407.7000;0.5014;0.9399;
408.0000;0.5022;0.9399;
408.3000;0.4982;0.9350;
408.6000;0.4957;0.9275;
408.9000;0.4982;0.9375;
409.2000;0.5006;0.9449;
409.5000;0.5022;0.9549;
409.8000;0.4998;0.9549;
410.1000;0.5014;0.9524;
410.4000;0.5055;0.9623;
410.7000;0.5014;0.9573;
411.0000;0.4982;0.9375;
411.3000;0.4998;0.9424;
411.6000;0.5031;0.9598;
411.9000;0.5088;0.9847;
412.2000;0.4990;0.9648;
412.5000;0.5006;0.9698;
412.8000;0.4998;0.9648;
413.1000;0.5006;0.9698;
413.4000;0.4949;0.9623;
413.7000;0.4998;0.9673;
414.0000;0.5022;0.9723;
414.3000;0.5014;0.9698;
414.6000;0.4965;0.9598;
414.9000;0.5006;0.9673;
415.2000;0.5006;0.9573;
415.5000;0.5006;0.9549;
415.8000;0.4982;0.9474;
416.1000;0.5006;0.9424;
416.4000;0.4998;0.9350;
416.7000;0.5006;0.9300;
417.0000;0.5006;0.9399;
417.3000;0.5031;0.9449;
417.6000;0.5006;0.9325;
417.9000;0.4990;0.9399;
418.2000;0.5006;0.9424;
418.5000;0.5006;0.9375;
418.8000;0.5055;0.9499;
419.1000;0.4998;0.9399;
419.4000;0.4998;0.9424;
419.7000;0.4974;0.9350;
420.0000;0.4998;0.9350;
420.3000;0.5014;0.9350;
420.6000;0.5031;0.9424;
420.9000;0.5006;0.9399;
421.2000;0.4990;0.9399;
421.5000;0.4982;0.9474;
421.8000;0.4974;0.9449;
422.1000;0.4990;0.9375;
422.4000;0.5022;0.9424;
422.7000;0.4974;0.9350;
423.0000;0.4998;0.9449;
423.3000;0.4990;0.9499;
423.6000;0.4998;0.9573;
423.9000;0.4998;0.9648;
424.2000;0.4990;0.9598;
424.5000;0.5006;0.9598;
424.8000;0.5006;0.9499;
425.1000;0.4982;0.9449;
425.4000;0.5014;0.9623;
425.7000;0.4974;0.9499;
426.0000;0.4998;0.9524;
426.3000;0.4998;0.9598;
426.6000;0.4998;0.9623;
426.9000;0.5014;0.9648;
427.2000;0.5006;0.9573;
427.5000;0.4990;0.9449;
427.8000;0.4998;0.9424;
428.1000;0.5006;0.9474;
428.4000;0.4965;0.9399;
428.7000;0.4982;0.9524;
429.0000;0.4982;0.9524;
429.3000;0.5022;0.9598;
429.6000;0.5006;0.9524;
429.9000;0.4990;0.9549;
430.2000;0.4998;0.9623;
430.5000;0.4982;0.9598;
430.8000;0.5006;0.9748;
431.1000;0.4990;0.9623;
431.4000;0.4998;0.9623;
431.7000;0.4974;0.9623;
432.0000;0.5006;0.9673;
432.3000;0.4941;0.9524;
432.6000;0.5006;0.9549;
432.9000;0.5006;0.9499;
433.2000;0.4925;0.9200;
433.5000;0.5031;0.9449;
433.8000;0.4982;0.9375;
434.1000;0.4998;0.9449;
434.4000;0.5055;0.9598;
434.7000;0.5006;0.9424;
435.0000;0.4974;0.9449;
435.3000;0.5047;0.9673;
435.6000;0.4957;0.9449;
435.9000;0.4982;0.9524;
436.2000;0.4990;0.9573;
436.5000;0.4982;0.9598;
436.8000;0.5014;0.9698;
437.1000;0.4974;0.9723;
437.4000;0.4990;0.9673;
437.7000;0.4949;0.9549;
438.0000;0.5006;0.9648;
438.3000;0.4998;0.9573;
438.6000;0.4990;0.9573;
438.9000;0.5039;0.9748;
439.2000;0.5022;0.9673;
439.5000;0.4998;0.9698;
439.8000;0.5006;0.9797;
440.1000;0.4990;0.9797;
440.4000;0.4982;0.9822;
440.7000;0.4982;0.9922;
441.0000;0.4982;0.9872;
441.3000;0.4990;0.9897;
441.6000;0.4949;0.9872;
441.9000;0.4998;0.9971;
442.2000;0.5006;0.9897;
442.5000;0.4998;0.9897;
442.8000;0.4974;0.9723;
443.1000;0.4990;0.9797;
443.4000;0.4974;0.9723;
443.7000;0.4990;0.9698;
444.0000;0.4990;0.9673;
444.3000;0.4990;0.9698;
444.6000;0.4990;0.9648;
444.9000;0.4998;0.9623;
445.2000;0.4990;0.9549;
445.5000;0.4990;0.9598;
445.8000;0.5022;0.9648;
446.1000;0.4990;0.9549;
446.4000;0.4998;0.9623;
446.7000;0.5006;0.9623;
447.0000;0.4998;0.9573;
447.3000;0.5006;0.9623;
447.6000;0.5006;0.9623;
447.9000;0.4982;0.9573;
448.2000;0.5006;0.9698;
448.5000;0.4982;0.9648;
448.8000;0.4998;0.9673;
449.1000;0.5022;0.9748;
449.4000;0.4998;0.9748;
449.7000;0.5006;0.9698;
450.0000;0.4990;0.9573;
450.3000;0.4982;0.9549;
450.6000;0.4990;0.9524;
450.9000;0.5014;0.9524;
451.2000;0.4990;0.9549;
451.5000;0.4974;0.9549;
451.8000;0.4998;0.9598;
452.1000;0.4990;0.9524;
452.4000;0.5006;0.9573;
452.7000;0.4990;0.9573;
453.0000;0.5014;0.9673;
453.3000;0.4990;0.9673;
453.6000;0.5006;0.9772;
453.9000;0.4990;0.9772;
454.2000;0.5071;0.9946;
454.5000;0.4982;0.9748;
454.8000;0.4990;0.9872;
455.1000;0.5022;0.9897;
455.4000;0.4982;0.9847;
455.7000;0.4982;0.9872;
456.0000;0.5031;0.9872;
456.3000;0.4965;0.9698;
456.6000;0.4982;0.9673;
456.9000;0.4990;0.9698;
457.2000;0.5006;0.9748;
457.5000;0.4933;0.9623;
457.8000;0.4982;0.9698;
458.1000;0.4990;0.9822;
458.4000;0.4982;0.9822;
458.7000;0.4982;0.9897;
459.0000;0.4974;0.9847;
459.3000;0.4982;0.9897;
459.6000;0.4982;0.9897;
459.9000;0.5006;0.9897;
460.2000;0.4990;0.9872;
460.5000;0.4998;0.9797;
460.8000;0.4982;0.9673;
461.1000;0.4998;0.9698;
461.4000;0.4998;0.9748;
461.7000;0.4974;0.9723;
462.0000;0.5079;1.0071;
462.3000;0.4982;0.9847;
462.6000;0.4998;0.9822;
462.9000;0.4982;0.9797;
463.2000;0.4965;0.9723;
463.5000;0.4982;0.9847;
463.8000;0.4998;0.9897;
464.1000;0.4982;0.9922;
464.4000;0.4982;0.9797;
464.7000;0.4974;0.9797;
465.0000;0.4974;0.9698;
465.3000;0.4982;0.9648;
465.6000;0.4974;0.9673;
465.9000;0.4990;0.9648;
466.2000;0.4998;0.9623;
466.5000;0.4949;0.9524;
466.8000;0.4982;0.9698;
467.1000;0.4990;0.9723;
467.4000;0.4917;0.9499;
467.7000;0.4982;0.9648;
468.0000;0.4982;0.9723;
468.3000;0.4982;0.9698;
468.6000;0.4990;0.9797;
468.9000;0.4990;0.9772;
469.2000;0.4982;0.9797;
469.5000;0.4982;0.9822;
469.8000;0.4990;0.9872;
470.1000;0.4982;0.9872;
470.4000;0.4941;0.9698;
470.7000;0.5014;0.9872;
471.0000;0.4982;0.9772;
471.3000;0.5055;1.0071;
471.6000;0.4990;0.9946;
471.9000;0.4982;0.9922;
472.2000;0.4982;0.9946;
472.5000;0.5006;0.9996;
472.8000;0.4998;1.0021;
473.1000;0.4965;0.9897;
473.4000;0.4982;0.9797;
473.7000;0.4982;0.9698;
474.0000;0.5022;0.9822;
474.3000;0.4990;0.9698;
474.6000;0.4998;0.9748;
474.9000;0.4957;0.9598;
475.2000;0.4965;0.9648;
475.5000;0.5006;0.9698;
475.8000;0.5039;0.9772;
476.1000;0.4949;0.9598;
476.4000;0.5022;0.9723;
476.7000;0.4974;0.9623;
477.0000;0.4982;0.9648;
477.3000;0.4949;0.9648;
477.6000;0.4982;0.9723;
477.9000;0.4998;0.9748;
478.2000;0.4998;0.9772;
478.5000;0.4965;0.9698;
478.8000;0.4990;0.9698;
479.1000;0.4957;0.9698;
479.4000;0.4925;0.9573;
479.7000;0.4982;0.9723;
480.0000;0.4933;0.9648;
480.3000;0.4990;0.9822;
480.6000;0.4982;0.9698;
480.9000;0.5063;0.9822;
481.2000;0.4982;0.9598;
481.5000;0.5039;0.9698;
481.8000;0.4982;0.9723;
482.1000;0.4990;0.9797;
482.4000;0.5031;0.9822;
482.7000;0.4990;0.9772;
483.0000;0.4933;0.9573;
483.3000;0.4982;0.9648;
483.6000;0.4998;0.9797;
483.9000;0.4957;0.9698;
484.2000;0.4990;0.9797;
484.5000;0.4908;0.9573;
484.8000;0.4998;0.9847;
485.1000;0.5031;0.9971;
485.4000;0.5112;1.0195;
485.7000;0.4990;0.9971;
486.0000;0.4982;0.9897;
486.3000;0.4990;0.9897;
486.6000;0.4998;0.9971;
486.9000;0.4974;0.9922;
487.2000;0.4974;0.9797;
487.5000;0.4982;0.9748;
487.8000;0.4990;0.9822;
488.1000;0.4998;0.9847;
488.4000;0.4990;0.9822;
488.7000;0.4990;0.9822;
489.0000;0.4990;0.9822;
489.3000;0.4974;0.9922;
489.6000;0.4990;0.9946;
489.9000;0.4974;0.9897;
490.2000;0.4982;0.9772;
490.5000;0.4990;0.9723;
490.8000;0.4917;0.9474;
491.1000;0.4982;0.9623;
491.4000;0.4965;0.9598;
491.7000;0.4925;0.9673;
492.0000;0.4974;0.9797;
492.3000;0.4965;0.9822;
492.6000;0.4974;0.9897;
492.9000;0.4957;0.9872;
493.2000;0.4998;0.9946;
493.5000;0.4957;0.9822;
493.8000;0.4974;0.9772;
494.1000;0.4982;0.9772;
494.4000;0.4965;0.9797;
494.7000;0.4998;0.9847;
495.0000;0.4965;0.9822;
495.3000;0.4982;0.9872;
495.6000;0.4965;0.9772;
495.9000;0.4982;0.9822;
496.2000;0.4965;0.9847;
496.5000;0.4982;0.9797;
496.8000;0.4982;0.9772;
497.1000;0.4982;0.9772;
497.4000;0.4998;0.9847;
497.7000;0.4974;0.9723;
498.0000;0.4982;0.9748;
498.3000;0.4974;0.9797;
498.6000;0.4990;0.9797;
498.9000;0.4998;0.9822;
499.2000;0.4990;0.9946;
499.5000;0.4990;0.9971;
499.8000;0.4941;0.9872;
500.1000;0.4998;1.0046;
500.4000;0.5006;1.0120;
500.7000;0.5014;1.0046;
501.0000;0.4982;1.0021;
501.3000;0.4949;0.9872;
501.6000;0.4974;0.9897;
501.9000;0.4965;0.9822;
502.2000;0.4965;0.9797;
502.5000;0.5039;1.0021;
502.8000;0.4965;0.9797;
503.1000;0.4965;0.9847;
503.4000;0.4974;0.9822;
503.7000;0.4982;0.9847;
504.0000;0.4974;0.9897;
504.3000;0.4974;0.9922;
504.6000;0.4974;0.9922;
504.9000;0.4974;0.9797;
505.2000;0.4965;0.9847;
505.5000;0.5039;0.9922;
505.8000;0.4917;0.9673;
506.1000;0.4998;0.9922;
506.4000;0.4990;0.9922;
506.7000;0.4965;0.9897;
507.0000;0.4949;0.9847;
507.3000;0.4957;0.9897;
507.6000;0.4982;0.9946;
507.9000;0.4965;0.9847;
508.2000;0.4982;0.9847;
508.5000;0.4974;0.9897;
508.8000;0.4965;0.9922;
509.1000;0.4917;0.9847;
509.4000;0.4982;0.9996;
509.7000;0.4884;0.9723;
510.0000;0.4957;0.9946;
510.3000;0.4974;0.9897;
510.6000;0.4965;0.9847;
510.9000;0.4957;0.9872;
511.2000;0.4965;0.9872;
511.5000;0.4974;0.9872;
511.8000;0.4949;0.9822;
512.1000;0.4965;0.9822;
512.4000;0.4957;0.9822;
512.7000;0.4982;0.9897;
513.0000;0.4941;0.9822;
513.3000;0.4965;0.9872;
513.6000;0.4965;0.9897;
513.9000;0.4974;0.9922;
514.2000;0.4965;0.9897;
514.5000;0.4965;0.9946;
514.8000;0.4957;0.9922;
515.1000;0.4982;1.0021;
515.4000;0.4965;0.9996;
515.7000;0.5022;1.0046;
516.0000;0.4974;0.9946;
516.3000;0.4998;1.0046;
516.6000;0.4965;0.9946;
516.9000;0.4974;1.0046;
517.2000;0.4965;1.0021;
517.5000;0.4957;0.9996;
517.8000;0.4982;1.0021;
518.1000;0.4957;0.9946;
518.4000;0.4982;0.9971;
518.7000;0.4982;0.9922;
519.0000;0.4957;0.9922;
519.3000;0.4957;0.9897;
519.6000;0.4974;0.9922;
519.9000;0.4949;0.9748;
520.2000;0.4982;0.9748;
520.5000;0.4957;0.9698;
520.8000;0.4933;0.9698;
521.1000;0.4974;0.9772;
521.4000;0.4965;0.9698;
521.7000;0.4933;0.9648;
522.0000;0.5014;0.9872;
522.3000;0.4965;0.9822;
522.6000;0.4974;0.9772;
522.9000;0.4982;0.9797;
523.2000;0.4965;0.9723;
523.5000;0.5014;0.9797;
523.8000;0.4974;0.9723;
524.1000;0.4990;0.9772;
524.4000;0.4949;0.9797;
524.7000;0.4998;0.9897;
525.0000;0.4982;0.9922;
525.3000;0.4925;0.9723;
525.6000;0.4957;0.9872;
525.9000;0.4982;0.9996;
526.2000;0.4957;1.0021;
526.5000;0.4990;1.0071;
526.8000;0.4965;1.0021;
527.1000;0.4982;1.0096;
527.4000;0.4982;1.0096;
527.7000;0.4982;1.0096;
528.0000;0.4957;1.0096;
528.3000;0.4982;1.0046;
528.6000;0.4982;0.9996;
528.9000;0.4965;0.9971;
529.2000;0.4982;0.9971;
529.5000;0.5006;0.9996;
529.8000;0.4974;0.9897;
530.1000;0.4974;0.9922;
530.4000;0.4974;0.9872;
530.7000;0.4974;0.9872;
531.0000;0.4957;0.9922;
531.3000;0.4990;0.9946;
531.6000;0.5071;1.0120;
531.9000;0.4974;0.9971;
532.2000;0.4974;0.9922;
532.5000;0.4917;0.9822;
532.8000;0.4957;0.9897;
533.1000;0.5031;1.0096;
533.4000;0.4982;1.0071;
533.7000;0.4974;1.0145;
534.0000;0.4965;1.0145;
534.3000;0.4974;1.0120;
534.6000;0.4974;1.0046;
534.9000;0.4982;0.9996;
535.2000;0.4941;0.9897;
535.5000;0.4974;0.9922;
535.8000;0.4974;0.9971;
536.1000;0.4982;1.0046;
536.4000;0.4925;0.9946;
536.7000;0.4965;0.9922;
537.0000;0.4957;0.9971;
537.3000;0.4965;1.0096;
537.6000;0.4982;1.0071;
537.9000;0.4982;1.0120;
538.2000;0.4974;1.0170;
538.5000;0.4982;1.0145;
538.8000;0.4982;1.0170;
539.1000;0.4982;1.0120;
539.4000;0.4949;0.9996;
539.7000;0.4974;1.0046;
540.0000;0.4974;0.9971;
540.3000;0.4974;0.9996;
540.6000;0.4941;0.9946;
540.9000;0.4957;0.9996;
541.2000;0.4965;0.9996;
541.5000;0.4965;0.9946;
541.8000;0.4965;0.9971;
542.1000;0.4957;0.9946;
542.4000;0.4982;0.9971;
542.7000;0.4965;0.9971;
543.0000;0.4965;0.9971;
543.3000;0.4974;0.9971;
543.6000;0.4933;0.9772;
543.9000;0.5014;0.9922;
544.2000;0.4990;0.9872;
544.5000;0.4949;0.9847;
544.8000;0.4990;0.9946;
545.1000;0.4974;0.9922;
545.4000;0.4982;0.9872;
545.7000;0.4982;0.9922;
546.0000;0.4957;0.9822;
546.3000;0.4957;0.9971;
546.6000;0.4974;1.0046;
546.9000;0.4974;1.0120;
547.2000;0.4908;0.9971;
547.5000;0.4974;1.0096;
547.8000;0.5022;1.0220;
548.1000;0.4974;1.0021;
548.4000;0.5014;1.0071;
548.7000;0.4974;0.9922;
549.0000;0.4957;0.9822;
549.3000;0.4998;1.0046;
549.6000;0.4990;1.0145;
549.9000;0.4965;0.9996;
550.2000;0.5047;1.0220;
550.5000;0.4941;0.9971;
550.8000;0.4949;1.0021;
551.1000;0.4933;0.9872;
551.4000;0.4949;0.9971;
551.7000;0.4949;0.9971;
552.0000;0.4957;0.9897;
552.3000;0.4949;0.9847;
552.6000;0.4965;0.9922;
552.9000;0.4949;0.9822;
553.2000;0.4957;0.9847;
553.5000;0.4957;0.9946;
553.8000;0.4957;0.9971;
554.1000;0.4974;0.9872;
554.4000;0.4917;0.9723;
554.7000;0.4965;0.9797;
555.0000;0.4965;0.9847;
555.3000;0.4957;0.9847;
555.6000;0.4974;0.9971;
555.9000;0.4957;0.9922;
556.2000;0.4949;0.9922;
556.5000;0.4974;0.9897;
556.8000;0.4965;0.9822;
557.1000;0.4957;0.9822;
557.4000;0.4965;0.9822;
557.7000;0.4998;0.9872;
558.0000;0.4974;0.9822;
558.3000;0.4965;0.9847;
558.6000;0.4982;0.9847;
558.9000;0.4965;0.9772;
559.2000;0.4965;0.9822;
559.5000;0.4974;0.9847;
559.8000;0.4965;0.9872;
560.1000;0.4982;0.9897;
560.4000;0.4982;0.9847;
560.7000;0.4957;0.9772;
561.0000;0.4974;0.9872;
561.3000;0.4957;0.9946;
561.6000;0.4974;0.9971;
561.9000;0.4949;1.0021;
562.2000;0.4941;1.0071;
562.5000;0.4965;1.0245;
562.8000;0.4957;1.0220;
563.1000;0.4949;1.0120;
563.4000;0.4933;0.9922;
563.7000;0.4957;0.9872;
564.0000;0.4957;0.9897;
564.3000;0.4949;0.9772;
564.6000;0.4941;0.9698;
564.9000;0.4908;0.9623;
565.2000;0.4957;0.9822;
565.5000;0.4957;0.9748;
565.8000;0.4965;0.9822;
566.1000;0.4957;0.9698;
566.4000;0.4949;0.9698;
566.7000;0.5039;0.9922;
567.0000;0.4982;0.9797;
567.3000;0.4965;0.9822;
567.6000;0.4949;0.9822;
567.9000;0.5031;0.9946;
568.2000;0.4965;0.9797;
568.5000;0.4965;0.9847;
568.8000;0.4965;0.9847;
569.1000;0.4941;0.9797;
569.4000;0.4957;0.9822;
569.7000;0.4982;0.9847;
570.0000;0.4974;0.9847;
570.3000;0.4982;0.9897;
570.6000;0.4965;0.9847;
570.9000;0.5031;1.0021;
571.2000;0.4990;0.9897;
571.5000;0.4957;0.9872;
571.8000;0.4957;0.9772;
572.1000;0.4965;0.9648;
572.4000;0.4925;0.9573;
572.7000;0.4974;0.9623;
573.0000;0.4933;0.9474;
573.3000;0.4941;0.9499;
573.6000;0.4941;0.9449;
573.9000;0.4965;0.9499;
574.2000;0.4949;0.9424;
574.5000;0.4957;0.9325;
574.8000;0.4957;0.9325;
575.1000;0.4957;0.9424;
575.4000;0.4965;0.9350;
575.7000;0.4965;0.9449;
576.0000;0.4957;0.9499;
576.3000;0.4957;0.9474;
576.6000;0.4941;0.9424;
576.9000;0.5031;0.9598;
577.2000;0.4941;0.9424;
577.5000;0.4957;0.9499;
577.8000;0.4933;0.9549;
578.1000;0.4974;0.9573;
578.4000;0.4974;0.9598;
578.7000;0.4965;0.9524;
579.0000;0.4957;0.9573;
579.3000;0.4990;0.9723;
579.6000;0.4982;0.9723;
579.9000;0.4965;0.9772;
580.2000;0.4957;0.9847;
580.5000;0.4974;0.9897;
580.8000;0.4965;0.9922;
581.1000;0.4974;0.9922;
581.4000;0.4949;0.9872;
581.7000;0.4957;0.9872;
582.0000;0.4982;0.9922;
582.3000;0.4965;0.9822;
582.6000;0.4965;0.9847;
582.9000;0.4965;0.9872;
583.2000;0.5014;0.9971;
583.5000;0.5047;1.0046;
583.8000;0.4974;0.9872;
584.1000;0.4957;0.9872;
584.4000;0.4990;0.9897;
584.7000;0.4965;0.9897;
585.0000;0.4965;0.9847;
585.3000;0.4982;0.9922;
585.6000;0.5006;1.0046;
585.9000;0.4957;0.9847;
586.2000;0.4949;0.9797;
586.5000;0.4941;0.9872;
586.8000;0.4949;0.9971;
587.1000;0.4965;1.0021;
587.4000;0.4949;0.9971;
587.7000;0.4982;0.9922;
588.0000;0.4965;0.9772;
588.3000;0.4974;0.9772;
588.6000;0.4949;0.9797;
588.9000;0.4949;0.9847;
589.2000;0.4965;0.9772;
589.5000;0.4965;0.9822;
589.8000;0.4974;0.9772;
590.1000;0.4965;0.9748;
590.4000;0.4965;0.9797;
590.7000;0.4965;0.9872;
591.0000;0.4957;0.9847;
591.3000;0.4949;0.9822;
591.6000;0.4957;0.9797;
591.9000;0.4949;0.9797;
592.2000;0.4965;0.9946;
592.5000;0.4949;0.9847;
592.8000;0.4941;0.9797;
593.1000;0.4990;0.9847;
593.4000;0.4974;0.9847;
593.7000;0.4957;0.9872;
594.0000;0.5022;1.0046;
594.3000;0.4965;0.9872;
594.6000;0.4965;0.9797;
594.9000;0.4957;0.9698;
595.2000;0.4965;0.9723;
595.5000;0.5006;0.9822;
595.8000;0.4965;0.9797;
596.1000;0.4957;0.9847;
596.4000;0.4974;0.9847;
596.7000;0.4965;0.9847;
597.0000;0.4941;0.9772;
597.3000;0.4957;0.9897;
597.6000;0.4990;0.9946;
597.9000;0.4957;0.9847;
598.2000;0.4974;0.9872;
598.5000;0.4965;0.9772;
598.8000;0.4957;0.9698;
599.1000;0.5014;0.9847;
599.4000;0.5014;0.9971;
599.7000;0.4900;0.9698;
600.0000;0.4949;0.9723;
600.3000;0.4957;0.9549;
600.6000;0.4974;0.9524;
600.9000;0.4941;0.9424;
601.2000;0.4843;0.9200;
601.5000;0.4803;0.9101;
601.8000;0.4721;0.8952;
602.1000;0.4640;0.8753;
602.4000;0.4591;0.8604;
602.7000;0.4534;0.8430;
603.0000;0.4444;0.8131;
603.3000;0.4404;0.8081;
603.6000;0.4396;0.8057;
603.9000;0.4339;0.7883;
604.2000;0.4306;0.7808;
604.5000;0.4265;0.7783;
604.8000;0.4249;0.7758;
605.1000;0.4233;0.7733;
605.4000;0.4168;0.7584;
605.7000;0.4176;0.7708;
606.0000;0.4111;0.7634;
606.3000;0.4070;0.7609;
606.6000;0.4070;0.7609;
606.9000;0.4037;0.7510;
607.2000;0.4037;0.7460;
607.5000;0.4029;0.7485;
607.8000;0.3997;0.7335;
608.1000;0.3980;0.7311;
608.4000;0.3972;0.7236;
608.7000;0.3883;0.7012;
609.0000;0.3948;0.7186;
609.3000;0.3923;0.7261;
609.6000;0.3923;0.7261;
609.9000;0.3907;0.7261;
610.2000;0.3883;0.7211;
610.5000;0.3858;0.7161;
610.8000;0.3867;0.7236;
611.1000;0.3858;0.7087;
611.4000;0.3842;0.7062;
611.7000;0.3842;0.7012;
612.0000;0.3850;0.7062;
612.3000;0.3818;0.6938;
612.6000;0.3810;0.6938;
612.9000;0.3810;0.6938;
613.2000;0.3801;0.6938;
613.5000;0.3801;0.6987;
613.8000;0.3777;0.6888;
614.1000;0.3793;0.6987;
614.4000;0.3801;0.6987;
614.7000;0.3769;0.6938;
615.0000;0.3801;0.7037;
615.3000;0.3769;0.6987;
615.6000;0.3761;0.6963;
615.9000;0.3720;0.6888;
616.2000;0.3728;0.6938;
616.5000;0.3761;0.6963;
616.8000;0.3753;0.7012;
617.1000;0.3720;0.6888;
617.4000;0.3704;0.6913;
617.7000;0.3573;0.6565;
618.0000;0.3704;0.6938;
618.3000;0.3720;0.6987;
618.6000;0.3712;0.6987;
618.9000;0.3687;0.6963;
619.2000;0.3687;0.7037;
619.5000;0.3720;0.7211;
619.8000;0.3679;0.7012;
620.1000;0.3720;0.7012;
620.4000;0.3769;0.7186;
620.7000;0.3671;0.6888;
621.0000;0.3622;0.6863;
621.3000;0.3663;0.6987;
621.6000;0.3679;0.7087;
621.9000;0.3801;0.7435;
622.2000;0.3655;0.7012;
622.5000;0.3655;0.7012;
622.8000;0.3671;0.7087;
623.1000;0.3655;0.6987;
623.4000;0.3671;0.6987;
623.7000;0.3655;0.7037;
624.0000;0.3639;0.6987;
624.3000;0.3663;0.7137;
624.6000;0.3647;0.7236;
624.9000;0.3639;0.7161;
625.2000;0.3663;0.7137;
625.5000;0.3647;0.7037;
625.8000;0.3630;0.6987;
626.1000;0.3622;0.7012;
626.4000;0.3614;0.6938;
626.7000;0.3614;0.7012;
627.0000;0.3614;0.7012;
627.3000;0.3614;0.6987;
627.6000;0.3606;0.6938;
627.9000;0.3647;0.7087;
628.2000;0.3590;0.6863;
628.5000;0.3606;0.6938;
628.8000;0.3598;0.6987;
629.1000;0.3590;0.6987;
629.4000;0.3582;0.6838;
629.7000;0.3590;0.6788;
630.0000;0.3590;0.6863;
630.3000;0.3606;0.6963;
630.6000;0.3573;0.6938;
630.9000;0.3582;0.6888;
631.2000;0.3590;0.6963;
631.5000;0.3590;0.6963;
631.8000;0.3606;0.7012;
632.1000;0.3590;0.6938;
632.4000;0.3622;0.7062;
632.7000;0.3573;0.6987;
633.0000;0.3573;0.7112;
633.3000;0.3573;0.7186;
633.6000;0.3573;0.7236;
633.9000;0.3541;0.7261;
634.2000;0.3541;0.7236;
634.5000;0.3573;0.7286;
634.8000;0.3573;0.7261;
635.1000;0.3565;0.7236;
635.4000;0.3565;0.7236;
635.7000;0.3573;0.7311;
636.0000;0.3541;0.7261;
636.3000;0.3541;0.7261;
636.6000;0.3541;0.7311;
636.9000;0.3533;0.7311;
637.2000;0.3525;0.7236;
637.5000;0.3525;0.7211;
637.8000;0.3500;0.7112;
638.1000;0.3541;0.7137;
638.4000;0.3516;0.6987;
638.7000;0.3541;0.6963;
639.0000;0.3516;0.6913;
639.3000;0.3541;0.6913;
639.6000;0.3525;0.6888;
639.9000;0.3451;0.6764;
640.2000;0.3525;0.6913;
640.5000;0.3508;0.6888;
640.8000;0.3525;0.6813;
641.1000;0.3508;0.6838;
641.4000;0.3533;0.6913;
641.7000;0.3476;0.6788;
642.0000;0.3508;0.6938;
642.3000;0.3492;0.6913;
642.6000;0.3516;0.6938;
642.9000;0.3500;0.6987;
643.2000;0.3500;0.6938;
643.5000;0.3516;0.6987;
643.8000;0.3508;0.6938;
644.1000;0.3516;0.6987;
644.4000;0.3525;0.6987;
644.7000;0.3508;0.6963;
645.0000;0.3476;0.6863;
645.3000;0.3484;0.6863;
645.6000;0.3508;0.6938;
645.9000;0.3500;0.6963;
646.2000;0.3492;0.7012;
646.5000;0.3476;0.6987;
646.8000;0.3492;0.6987;
647.1000;0.3468;0.6963;
647.4000;0.3468;0.6938;
647.7000;0.3468;0.6888;
648.0000;0.3500;0.7012;
648.3000;0.3476;0.6987;
648.6000;0.3468;0.6913;
648.9000;0.3411;0.6714;
649.2000;0.3484;0.6913;
649.5000;0.3476;0.6913;
649.8000;0.3460;0.6938;
650.1000;0.3468;0.6987;
650.4000;0.3476;0.7012;
650.7000;0.3492;0.6938;
651.0000;0.3476;0.6987;
651.3000;0.3468;0.6987;
651.6000;0.3443;0.6913;
651.9000;0.3476;0.6963;
652.2000;0.3468;0.6863;
652.5000;0.3460;0.6838;
652.8000;0.3468;0.6788;
653.1000;0.3460;0.6739;
653.4000;0.3500;0.6714;
653.7000;0.3443;0.6639;
654.0000;0.3460;0.6714;
654.3000;0.3468;0.6813;
654.6000;0.3443;0.6764;
654.9000;0.3451;0.6813;
655.2000;0.3492;0.6913;
655.5000;0.3443;0.6838;
655.8000;0.3460;0.6913;
656.1000;0.3443;0.6888;
656.4000;0.3443;0.6863;
656.7000;0.3460;0.6938;
657.0000;0.3443;0.6863;
657.3000;0.3443;0.6913;
657.6000;0.3435;0.6788;
657.9000;0.3460;0.6888;
658.2000;0.3435;0.6888;
658.5000;0.3443;0.6813;
658.8000;0.3411;0.6689;
659.1000;0.3435;0.6739;
659.4000;0.3443;0.6838;
659.7000;0.3460;0.6888;
660.0000;0.3435;0.6888;
660.3000;0.3492;0.6963;
660.6000;0.3484;0.6938;
660.9000;0.3451;0.6813;
661.2000;0.3435;0.6838;
661.5000;0.3443;0.6764;
661.8000;0.3451;0.6888;
662.1000;0.3435;0.6888;
662.4000;0.3427;0.6838;
662.7000;0.3427;0.6913;
663.0000;0.3427;0.6963;
663.3000;0.3427;0.7012;
663.6000;0.3411;0.6963;
663.9000;0.3394;0.6938;
664.2000;0.3419;0.6987;
664.5000;0.3419;0.7037;
664.8000;0.3451;0.7137;
665.1000;0.3419;0.7087;
665.4000;0.3427;0.7087;
665.7000;0.3403;0.6987;
666.0000;0.3419;0.7037;
666.3000;0.3419;0.7037;
666.6000;0.3403;0.7161;
666.9000;0.3419;0.7211;
667.2000;0.3411;0.7087;
667.5000;0.3394;0.6987;
667.8000;0.3378;0.6963;
668.1000;0.3411;0.6987;
668.4000;0.3403;0.6987;
668.7000;0.3460;0.7112;
669.0000;0.3403;0.7012;
669.3000;0.3468;0.7236;
669.6000;0.3386;0.7112;
669.9000;0.3419;0.7087;
670.2000;0.3403;0.7112;
670.5000;0.3468;0.7261;
670.8000;0.3419;0.7087;
671.1000;0.3394;0.7062;
671.4000;0.3411;0.7186;
671.7000;0.3386;0.7112;
672.0000;0.3354;0.7012;
672.3000;0.3394;0.7062;
672.6000;0.3386;0.7087;
672.9000;0.3411;0.7062;
673.2000;0.3394;0.7087;
673.5000;0.3378;0.6888;
673.8000;0.3378;0.6863;
674.1000;0.3386;0.6788;
674.4000;0.3394;0.6764;
674.7000;0.3403;0.6788;
675.0000;0.3394;0.6714;
675.3000;0.3378;0.6714;
675.6000;0.3370;0.6739;
675.9000;0.3378;0.6863;
676.2000;0.3386;0.6938;
676.5000;0.3378;0.6938;
676.8000;0.3394;0.6938;
677.1000;0.3394;0.6938;
677.4000;0.3370;0.6863;
677.7000;0.3394;0.6863;
678.0000;0.3362;0.6813;
678.3000;0.3329;0.6714;
678.6000;0.3378;0.6888;
678.9000;0.3386;0.6963;
679.2000;0.3354;0.6888;
679.5000;0.3378;0.6987;
679.8000;0.3378;0.7012;
680.1000;0.3378;0.6938;
680.4000;0.3378;0.6987;
680.7000;0.3378;0.7037;
681.0000;0.3394;0.6987;
681.3000;0.3386;0.7012;
681.6000;0.3354;0.6963;
681.9000;0.3370;0.6987;
682.2000;0.3378;0.6963;
682.5000;0.3370;0.6987;
682.8000;0.3386;0.7087;
683.1000;0.3386;0.7087;
683.4000;0.3354;0.7012;
683.7000;0.3386;0.6987;
684.0000;0.3370;0.7037;
684.3000;0.3362;0.7012;
684.6000;0.3362;0.6963;
684.9000;0.3354;0.6938;
685.2000;0.3370;0.7062;
685.5000;0.3378;0.6963;
685.8000;0.3362;0.6888;
686.1000;0.3362;0.6938;
686.4000;0.3378;0.6938;
686.7000;0.3403;0.6987;
687.0000;0.3321;0.6838;
687.3000;0.3362;0.7012;
687.6000;0.3370;0.7062;
687.9000;0.3354;0.7087;
688.2000;0.3289;0.6888;
688.5000;0.3337;0.6938;
688.8000;0.3362;0.6963;
689.1000;0.3354;0.6938;
689.4000;0.3346;0.6938;
689.7000;0.3370;0.7037;
690.0000;0.3346;0.6963;
690.3000;0.3289;0.6863;
690.6000;0.3370;0.7112;
690.9000;0.3346;0.7087;
691.2000;0.3362;0.7112;
691.5000;0.3370;0.7211;
691.8000;0.3362;0.7211;
692.1000;0.3403;0.7286;
692.4000;0.3354;0.7112;
692.7000;0.3329;0.7012;
693.0000;0.3370;0.7137;
693.3000;0.3378;0.7161;
693.6000;0.3354;0.7112;
693.9000;0.3411;0.7311;
694.2000;0.3370;0.7112;
694.5000;0.3362;0.7037;
694.8000;0.3378;0.7037;
695.1000;0.3305;0.6838;
695.4000;0.3362;0.7037;
695.7000;0.3337;0.7087;
696.0000;0.3370;0.7186;
696.3000;0.3476;0.7385;
696.6000;0.3297;0.6888;
696.9000;0.3370;0.7087;
697.2000;0.3346;0.6987;
697.5000;0.3346;0.6938;
697.8000;0.3337;0.6938;
698.1000;0.3354;0.6938;
698.4000;0.3337;0.6913;
698.7000;0.3329;0.6963;
699.0000;0.3329;0.7062;
699.3000;0.3321;0.6938;
699.6000;0.3321;0.7037;
699.9000;0.3337;0.7137;
700.2000;0.3337;0.7211;
700.5000;0.3346;0.7236;
700.8000;0.3346;0.7261;
701.1000;0.3321;0.7236;
701.4000;0.3362;0.7286;
701.7000;0.3346;0.7236;
702.0000;0.3337;0.7311;
702.3000;0.3337;0.7261;
702.6000;0.3337;0.7211;
702.9000;0.3337;0.7137;
703.2000;0.3337;0.7137;
703.5000;0.3329;0.7211;
703.8000;0.3321;0.7186;
704.1000;0.3329;0.7137;
704.4000;0.3354;0.7186;
704.7000;0.3289;0.6987;
705.0000;0.3321;0.7087;
705.3000;0.3346;0.7062;
705.6000;0.3337;0.7037;
705.9000;0.3305;0.7087;
706.2000;0.3337;0.7186;
706.5000;0.3346;0.7211;
706.8000;0.3354;0.7186;
707.1000;0.3337;0.7062;
707.4000;0.3354;0.7037;
707.7000;0.3337;0.7037;
708.0000;0.3337;0.6987;
708.3000;0.3362;0.7087;
708.6000;0.3321;0.7037;
708.9000;0.3337;0.7137;
709.2000;0.3264;0.6987;
709.5000;0.3321;0.7037;
709.8000;0.3337;0.7062;
710.1000;0.3313;0.6938;
710.4000;0.3313;0.6863;
710.7000;0.3403;0.7037;
711.0000;0.3354;0.6913;
711.3000;0.3305;0.6813;
711.6000;0.3321;0.6863;
711.9000;0.3329;0.6838;
712.2000;0.3321;0.6888;
712.5000;0.3321;0.6913;
712.8000;0.3321;0.6938;
713.1000;0.3313;0.6938;
713.4000;0.3297;0.6963;
713.7000;0.3297;0.7062;
714.0000;0.3305;0.7087;
714.3000;0.3346;0.7161;
714.6000;0.3321;0.7161;
714.9000;0.3297;0.7037;
715.2000;0.3346;0.7062;
715.5000;0.3386;0.7236;
715.8000;0.3321;0.7037;
716.1000;0.3329;0.7062;
716.4000;0.3321;0.7012;
716.7000;0.3337;0.7037;
717.0000;0.3313;0.7037;
717.3000;0.3321;0.7037;
717.6000;0.3305;0.7037;
717.9000;0.3313;0.7037;
718.2000;0.3321;0.6938;
718.5000;0.3297;0.6863;
718.8000;0.3394;0.7112;
719.1000;0.3289;0.6813;
719.4000;0.3329;0.6963;
719.7000;0.3313;0.6938;
720.0000;0.3321;0.7037;
720.3000;0.3313;0.7087;
720.6000;0.3313;0.7087;
720.9000;0.3321;0.7286;
721.2000;0.3313;0.7286;
721.5000;0.3313;0.7335;
721.8000;0.3321;0.7410;
722.1000;0.3305;0.7261;
722.4000;0.3305;0.7211;
722.7000;0.3297;0.7186;
723.0000;0.3313;0.7261;
723.3000;0.3313;0.7211;
723.6000;0.3280;0.7261;
723.9000;0.3313;0.7311;
724.2000;0.3313;0.7236;
724.5000;0.3297;0.7211;
724.8000;0.3329;0.7211;
725.1000;0.3297;0.7186;
725.4000;0.3289;0.7211;
725.7000;0.3329;0.7286;
726.0000;0.3313;0.7311;
726.3000;0.3313;0.7261;
726.6000;0.3321;0.7311;
726.9000;0.3313;0.7360;
727.2000;0.3289;0.7311;
727.5000;0.3313;0.7410;
727.8000;0.3264;0.7236;
728.1000;0.3280;0.7286;
728.4000;0.3337;0.7485;
728.7000;0.3321;0.7485;
729.0000;0.3305;0.7460;
729.3000;0.3313;0.7435;
729.6000;0.3289;0.7360;
729.9000;0.3289;0.7360;
730.2000;0.3305;0.7286;
730.5000;0.3305;0.7286;
730.8000;0.3272;0.7311;
731.1000;0.3289;0.7311;
731.4000;0.3289;0.7311;
731.7000;0.3297;0.7410;
732.0000;0.3280;0.7311;
732.3000;0.3289;0.7435;
732.6000;0.3305;0.7510;
732.9000;0.3280;0.7460;
733.2000;0.3297;0.7510;
733.5000;0.3297;0.7510;
733.8000;0.3223;0.7286;
734.1000;0.3297;0.7485;
734.4000;0.3289;0.7534;
734.7000;0.3297;0.7460;
735.0000;0.3199;0.7186;
735.3000;0.3297;0.7435;
735.6000;0.3289;0.7460;
735.9000;0.3289;0.7460;
736.2000;0.3264;0.7286;
736.5000;0.3280;0.7286;
736.8000;0.3289;0.7261;
737.1000;0.3305;0.7311;
737.4000;0.3280;0.7311;
737.7000;0.3264;0.7335;
738.0000;0.3280;0.7335;
738.3000;0.3289;0.7410;
738.6000;0.3346;0.7609;
738.9000;0.3280;0.7435;
739.2000;0.3280;0.7410;
739.5000;0.3264;0.7286;
739.8000;0.3240;0.7236;
740.1000;0.3280;0.7236;
740.4000;0.3272;0.7211;
740.7000;0.3223;0.7087;
741.0000;0.3297;0.7311;
741.3000;0.3280;0.7311;
741.6000;0.3264;0.7286;
741.9000;0.3272;0.7236;
742.2000;0.3313;0.7311;
742.5000;0.3272;0.7186;
742.8000;0.3264;0.7161;
743.1000;0.3289;0.7311;
743.4000;0.3272;0.7311;
743.7000;0.3207;0.7012;
744.0000;0.3272;0.7211;
744.3000;0.3256;0.7311;
744.6000;0.3297;0.7335;
744.9000;0.3215;0.7112;
745.2000;0.3289;0.7360;
745.5000;0.3305;0.7311;
745.8000;0.3272;0.7161;
746.1000;0.3280;0.7062;
746.4000;0.3305;0.7087;
746.7000;0.3289;0.7062;
747.0000;0.3297;0.7012;
747.3000;0.3289;0.7087;
747.6000;0.3272;0.6963;
747.9000;0.3280;0.6938;
748.2000;0.3329;0.7012;
748.5000;0.3297;0.6963;
748.8000;0.3280;0.7037;
749.1000;0.3264;0.7062;
749.4000;0.3280;0.7211;
749.7000;0.3289;0.7360;
750.0000;0.3289;0.7360;
750.3000;0.3280;0.7286;
750.6000;0.3289;0.7286;
750.9000;0.3321;0.7360;
751.2000;0.3272;0.7261;
751.5000;0.3264;0.7261;
751.8000;0.3289;0.7286;
752.1000;0.3289;0.7286;
752.4000;0.3272;0.7286;
752.7000;0.3272;0.7211;
753.0000;0.3280;0.7335;
753.3000;0.3280;0.7311;
753.6000;0.3305;0.7385;
753.9000;0.3289;0.7435;
754.2000;0.3289;0.7485;
754.5000;0.3289;0.7534;
754.8000;0.3337;0.7609;
755.1000;0.3280;0.7435;
755.4000;0.3280;0.7385;
755.7000;0.3280;0.7360;
756.0000;0.3346;0.7485;
756.3000;0.3272;0.7311;
756.6000;0.3272;0.7360;
756.9000;0.3264;0.7335;
757.2000;0.3337;0.7485;
757.5000;0.3256;0.7335;
757.8000;0.3232;0.7211;
758.1000;0.3272;0.7211;
758.4000;0.3264;0.7137;
758.7000;0.3264;0.7137;
759.0000;0.3272;0.7112;
759.3000;0.3264;0.7286;
759.6000;0.3280;0.7385;
759.9000;0.3248;0.7360;
760.2000;0.3248;0.7311;
760.5000;0.3264;0.7286;
760.8000;0.3272;0.7261;
761.1000;0.3272;0.7311;
761.4000;0.3280;0.7385;
761.7000;0.3272;0.7410;
762.0000;0.3264;0.7385;
762.3000;0.3264;0.7410;
762.6000;0.3272;0.7261;
762.9000;0.3272;0.7161;
763.2000;0.3272;0.7161;
763.5000;0.3289;0.7261;
763.8000;0.3272;0.7211;
764.1000;0.3280;0.7087;
764.4000;0.3272;0.7112;
764.7000;0.3272;0.7112;
765.0000;0.3280;0.7161;
765.3000;0.3272;0.7236;
765.6000;0.3215;0.7087;
765.9000;0.3264;0.7286;
766.2000;0.3272;0.7335;
766.5000;0.3272;0.7286;
766.8000;0.3264;0.7236;
767.1000;0.3264;0.7211;
767.4000;0.3280;0.7261;
767.7000;0.3272;0.7311;
768.0000;0.3232;0.7286;
768.3000;0.3248;0.7261;
768.6000;0.3280;0.7261;
768.9000;0.3280;0.7261;
769.2000;0.3256;0.7186;
769.5000;0.3248;0.7161;
769.8000;0.3223;0.7087;
770.1000;0.3264;0.7261;
770.4000;0.3256;0.7286;
770.7000;0.3256;0.7311;
771.0000;0.3272;0.7311;
771.3000;0.3264;0.7311;
771.6000;0.3248;0.7186;
771.9000;0.3289;0.7360;
772.2000;0.3256;0.7236;
772.5000;0.3256;0.7186;
772.8000;0.3256;0.7211;
773.1000;0.3248;0.7186;
773.4000;0.3199;0.7161;
773.7000;0.3248;0.7261;
774.0000;0.3264;0.7311;
774.3000;0.3264;0.7311;
774.6000;0.3248;0.7186;
774.9000;0.3256;0.7211;
775.2000;0.3272;0.7286;
775.5000;0.3272;0.7286;
775.8000;0.3264;0.7261;
776.1000;0.3272;0.7385;
776.4000;0.3248;0.7460;
776.7000;0.3272;0.7559;
777.0000;0.3248;0.7534;
777.3000;0.3264;0.7510;
777.6000;0.3272;0.7534;
777.9000;0.3240;0.7410;
778.2000;0.3248;0.7485;
778.5000;0.3248;0.7485;
778.8000;0.3264;0.7510;
779.1000;0.3256;0.7460;
779.4000;0.3248;0.7385;
779.7000;0.3248;0.7385;
780.0000;0.3183;0.7261;
780.3000;0.3272;0.7485;
780.6000;0.3248;0.7510;
780.9000;0.3240;0.7435;
781.2000;0.3240;0.7485;
781.5000;0.3256;0.7510;
781.8000;0.3280;0.7510;
782.1000;0.3240;0.7335;
782.4000;0.3272;0.7410;
782.7000;0.3264;0.7360;
783.0000;0.3248;0.7335;
783.3000;0.3232;0.7360;
783.6000;0.3248;0.7410;
783.9000;0.3232;0.7335;
784.2000;0.3240;0.7311;
784.5000;0.3223;0.7211;
784.8000;0.3223;0.7211;
785.1000;0.3240;0.7236;
785.4000;0.3256;0.7261;
785.7000;0.3223;0.7137;
786.0000;0.3191;0.7012;
786.3000;0.3240;0.7112;
786.6000;0.3248;0.7236;
786.9000;0.3175;0.7062;
787.2000;0.3240;0.7211;
787.5000;0.3264;0.7261;
787.8000;0.3248;0.7311;
788.1000;0.3256;0.7335;
788.4000;0.3191;0.7137;
788.7000;0.3256;0.7286;
789.0000;0.3256;0.7186;
789.3000;0.3256;0.7211;
789.6000;0.3280;0.7286;
789.9000;0.3256;0.7211;
790.2000;0.3256;0.7286;
790.5000;0.3256;0.7286;
790.8000;0.3232;0.7311;
791.1000;0.3248;0.7360;
791.4000;0.3248;0.7485;
791.7000;0.3232;0.7335;
792.0000;0.3256;0.7360;
792.3000;0.3240;0.7261;
792.6000;0.3232;0.7286;
792.9000;0.3232;0.7236;
793.2000;0.3232;0.7211;
793.5000;0.3240;0.7261;
793.8000;0.3240;0.7335;
794.1000;0.3248;0.7335;
794.4000;0.3248;0.7435;
794.7000;0.3248;0.7435;
795.0000;0.3232;0.7435;
795.3000;0.3232;0.7311;
795.6000;0.3223;0.7211;
795.9000;0.3232;0.7161;
796.2000;0.3240;0.7186;
796.5000;0.3256;0.7311;
796.8000;0.3240;0.7410;
797.1000;0.3232;0.7385;
797.4000;0.3297;0.7435;
797.7000;0.3248;0.7335;
798.0000;0.3232;0.7286;
798.3000;0.3232;0.7211;
798.6000;0.3272;0.7286;
798.9000;0.3256;0.7286;
799.2000;0.3240;0.7286;
799.5000;0.3248;0.7261;
799.8000;0.3256;0.7335;
800.1000;0.3264;0.7460;
800.4000;0.3240;0.7460;
800.7000;0.3240;0.7435;
801.0000;0.3248;0.7460;
801.3000;0.3232;0.7534;
801.6000;0.3232;0.7559;
801.9000;0.3321;0.7659;
802.2000;0.3280;0.7559;
802.5000;0.3264;0.7460;
802.8000;0.3272;0.7410;
803.1000;0.3191;0.7261;
803.4000;0.3240;0.7360;
803.7000;0.3256;0.7410;
804.0000;0.3240;0.7460;
804.3000;0.3256;0.7460;
804.6000;0.3248;0.7435;
804.9000;0.3232;0.7311;
805.2000;0.3280;0.7534;
805.5000;0.3223;0.7360;
805.8000;0.3223;0.7410;
806.1000;0.3240;0.7410;
806.4000;0.3240;0.7460;
806.7000;0.3240;0.7435;
807.0000;0.3256;0.7485;
807.3000;0.3256;0.7534;
807.6000;0.3215;0.7485;
807.9000;0.3118;0.7161;
808.2000;0.3240;0.7485;
808.5000;0.3232;0.7360;
808.8000;0.3248;0.7410;
809.1000;0.3207;0.7335;
809.4000;0.3232;0.7410;
809.7000;0.3232;0.7410;
810.0000;0.3223;0.7385;
810.3000;0.3215;0.7311;
810.6000;0.3256;0.7435;
810.9000;0.3183;0.7335;
811.2000;0.3248;0.7385;
811.5000;0.3248;0.7485;
811.8000;0.3256;0.7460;
812.1000;0.3223;0.7485;
812.4000;0.3248;0.7485;
812.7000;0.3199;0.7410;
813.0000;0.3191;0.7410;
813.3000;0.3232;0.7435;
813.6000;0.3256;0.7410;
813.9000;0.3248;0.7360;
814.2000;0.3240;0.7261;
814.5000;0.3256;0.7385;
814.8000;0.3264;0.7534;
815.1000;0.3256;0.7584;
815.4000;0.3248;0.7609;
815.7000;0.3256;0.7510;
816.0000;0.3232;0.7485;
816.3000;0.3199;0.7435;
816.6000;0.3240;0.7510;
816.9000;0.3207;0.7435;
817.2000;0.3248;0.7485;
817.5000;0.3232;0.7435;
817.8000;0.3232;0.7335;
818.1000;0.3223;0.7286;
818.4000;0.3232;0.7261;
818.7000;0.3313;0.7460;
819.0000;0.3199;0.7161;
819.3000;0.3240;0.7335;
819.6000;0.3232;0.7335;
819.9000;0.3305;0.7559;
820.2000;0.3191;0.7261;
820.5000;0.3232;0.7286;
820.8000;0.3248;0.7335;
821.1000;0.3240;0.7286;
821.4000;0.3321;0.7534;
821.7000;0.3232;0.7311;
822.0000;0.3232;0.7286;
822.3000;0.3232;0.7261;
822.6000;0.3240;0.7211;
822.9000;0.3215;0.7137;
823.2000;0.3248;0.7186;
823.5000;0.3248;0.7161;
823.8000;0.3280;0.7286;
824.1000;0.3248;0.7360;
824.4000;0.3264;0.7385;
824.7000;0.3248;0.7261;
825.0000;0.3240;0.7236;
825.3000;0.3240;0.7236;
825.6000;0.3240;0.7211;
825.9000;0.3256;0.7360;
826.2000;0.3264;0.7410;
826.5000;0.3207;0.7261;
826.8000;0.3215;0.7286;
827.1000;0.3240;0.7360;
827.4000;0.3207;0.7236;
827.7000;0.3240;0.7261;
828.0000;0.3223;0.7062;
828.3000;0.3264;0.7236;
828.6000;0.3223;0.7137;
828.9000;0.3289;0.7485;
829.2000;0.3223;0.7360;
829.5000;0.3240;0.7410;
829.8000;0.3215;0.7360;
830.1000;0.3215;0.7410;
830.4000;0.3240;0.7410;
830.7000;0.3215;0.7360;
831.0000;0.3223;0.7360;
831.3000;0.3240;0.7385;
831.6000;0.3223;0.7261;
831.9000;0.3240;0.7335;
832.2000;0.3232;0.7435;
832.5000;0.3329;0.7758;
832.8000;0.3215;0.7410;
833.1000;0.3240;0.7286;
833.4000;0.3232;0.7161;
833.7000;0.3321;0.7510;
834.0000;0.3232;0.7261;
834.3000;0.3240;0.7335;
834.6000;0.3240;0.7286;
834.9000;0.3223;0.7311;
835.2000;0.3223;0.7286;
835.5000;0.3240;0.7236;
835.8000;0.3232;0.7311;
836.1000;0.3223;0.7410;
836.4000;0.3232;0.7460;
836.7000;0.3166;0.7311;
837.0000;0.3223;0.7435;
837.3000;0.3223;0.7360;
837.6000;0.3256;0.7360;
837.9000;0.3215;0.7186;
838.2000;0.3240;0.7186;
838.5000;0.3215;0.7087;
838.8000;0.3264;0.7236;
839.1000;0.3223;0.7112;
839.4000;0.3207;0.7137;
839.7000;0.3223;0.7211;
840.0000;0.3232;0.7311;
840.3000;0.3240;0.7236;
840.6000;0.3223;0.7161;
840.9000;0.3240;0.7286;
841.2000;0.3232;0.7360;
841.5000;0.3232;0.7435;
841.8000;0.3207;0.7385;
842.1000;0.3215;0.7335;
842.4000;0.3264;0.7360;
842.7000;0.3223;0.7311;
843.0000;0.3215;0.7311;
843.3000;0.3223;0.7410;
843.6000;0.3223;0.7360;
843.9000;0.3240;0.7335;
844.2000;0.3232;0.7236;
844.5000;0.3215;0.7186;
844.8000;0.3240;0.7211;
845.1000;0.3223;0.7236;
845.4000;0.3215;0.7186;
845.7000;0.3207;0.7186;
846.0000;0.3248;0.7286;
846.3000;0.3232;0.7236;
846.6000;0.3232;0.7261;
846.9000;0.3256;0.7311;
847.2000;0.3215;0.7261;
847.5000;0.3223;0.7311;
847.8000;0.3175;0.7236;
848.1000;0.3109;0.7137;
848.4000;0.3215;0.7385;
848.7000;0.3199;0.7311;
849.0000;0.3158;0.7186;
849.3000;0.3223;0.7360;
849.6000;0.3232;0.7360;
849.9000;0.3183;0.7211;
850.2000;0.3158;0.7186;
850.5000;0.3223;0.7286;
850.8000;0.3248;0.7410;
851.1000;0.3223;0.7261;
851.4000;0.3207;0.7211;
851.7000;0.3223;0.7360;
852.0000;0.3223;0.7311;
852.3000;0.3215;0.7311;
852.6000;0.3223;0.7385;
852.9000;0.3232;0.7311;
853.2000;0.3223;0.7311;
853.5000;0.3207;0.7286;
853.8000;0.3215;0.7311;
854.1000;0.3223;0.7311;
854.4000;0.3207;0.7236;
854.7000;0.3215;0.7261;
855.0000;0.3215;0.7385;
855.3000;0.3215;0.7335;
855.6000;0.3215;0.7385;
855.9000;0.3240;0.7360;
856.2000;0.3232;0.7460;
856.5000;0.3248;0.7410;
856.8000;0.3232;0.7385;
857.1000;0.3215;0.7410;
857.4000;0.3289;0.7410;
857.7000;0.3232;0.7211;
858.0000;0.3207;0.7087;
858.3000;0.3199;0.7062;
858.6000;0.3199;0.7087;
858.9000;0.3232;0.7062;
859.2000;0.3223;0.7087;
859.5000;0.3199;0.7112;
859.8000;0.3232;0.7236;
860.1000;0.3232;0.7286;
860.4000;0.3199;0.7236;
860.7000;0.3199;0.7236;
861.0000;0.3215;0.7236;
861.3000;0.3215;0.7261;
861.6000;0.3264;0.7435;
861.9000;0.3207;0.7286;
862.2000;0.3199;0.7236;
862.5000;0.3207;0.7410;
862.8000;0.3207;0.7410;
863.1000;0.3215;0.7360;
863.4000;0.3199;0.7261;
863.7000;0.3150;0.7112;
864.0000;0.3223;0.7360;
864.3000;0.3175;0.7186;
864.6000;0.3223;0.7335;
864.9000;0.3207;0.7385;
865.2000;0.3215;0.7410;
865.5000;0.3215;0.7360;
865.8000;0.3215;0.7410;
866.1000;0.3215;0.7335;
866.4000;0.3207;0.7261;
866.7000;0.3142;0.7112;
867.0000;0.3215;0.7311;
867.3000;0.3191;0.7236;
867.6000;0.3215;0.7311;
867.9000;0.3215;0.7286;
868.2000;0.3223;0.7335;
868.5000;0.3223;0.7410;
868.8000;0.3223;0.7460;
869.1000;0.3223;0.7510;
869.4000;0.3215;0.7534;
869.7000;0.3215;0.7510;
870.0000;0.3232;0.7510;
870.3000;0.3215;0.7510;
870.6000;0.3191;0.7460;
870.9000;0.3207;0.7410;
871.2000;0.3232;0.7410;
871.5000;0.3215;0.7360;
871.8000;0.3248;0.7410;
872.1000;0.3175;0.7112;
872.4000;0.3207;0.7236;
872.7000;0.3207;0.7385;
873.0000;0.3240;0.7460;
873.3000;0.3207;0.7435;
873.6000;0.3207;0.7360;
873.9000;0.3215;0.7286;
874.2000;0.3223;0.7311;
874.5000;0.3191;0.7236;
874.8000;0.3232;0.7286;
875.1000;0.3256;0.7360;
875.4000;0.3215;0.7261;
875.7000;0.3207;0.7261;
876.0000;0.3207;0.7236;
876.3000;0.3199;0.7211;
876.6000;0.3223;0.7261;
876.9000;0.3232;0.7286;
877.2000;0.3207;0.7335;
877.5000;0.3191;0.7286;
877.8000;0.3191;0.7286;
878.1000;0.3191;0.7261;
878.4000;0.3199;0.7236;
878.7000;0.3207;0.7236;
879.0000;0.3207;0.7286;
879.3000;0.3191;0.7311;
879.6000;0.3183;0.7186;
879.9000;0.3215;0.7211;
880.2000;0.3215;0.7286;
880.5000;0.3223;0.7236;
880.8000;0.3207;0.7261;
881.1000;0.3272;0.7410;
881.4000;0.3150;0.7087;
881.7000;0.3207;0.7236;
882.0000;0.3199;0.7236;
882.3000;0.3191;0.7211;
882.6000;0.3191;0.7236;
882.9000;0.3223;0.7261;
883.2000;0.3223;0.7137;
883.5000;0.3248;0.7236;
883.8000;0.3175;0.7112;
884.1000;0.3207;0.7236;
884.4000;0.3223;0.7261;
884.7000;0.3207;0.7236;
885.0000;0.3207;0.7261;
885.3000;0.3207;0.7311;
885.6000;0.3215;0.7410;
885.9000;0.3264;0.7460;
886.2000;0.3240;0.7460;
886.5000;0.3223;0.7360;
886.8000;0.3215;0.7261;
887.1000;0.3223;0.7335;
887.4000;0.3166;0.7137;
887.7000;0.3223;0.7335;
888.0000;0.3199;0.7286;
888.3000;0.3232;0.7311;
888.6000;0.3191;0.7286;
888.9000;0.3215;0.7360;
889.2000;0.3126;0.7286;
889.5000;0.3215;0.7534;
889.8000;0.3175;0.7485;
890.1000;0.3183;0.7584;
890.4000;0.3215;0.7634;
890.7000;0.3207;0.7584;
891.0000;0.3223;0.7510;
891.3000;0.3215;0.7410;
891.6000;0.3207;0.7385;
891.9000;0.3207;0.7385;
892.2000;0.3191;0.7435;
892.5000;0.3199;0.7286;
892.8000;0.3183;0.7286;
893.1000;0.3199;0.7360;
893.4000;0.3215;0.7360;
893.7000;0.3207;0.7435;
894.0000;0.3215;0.7385;
894.3000;0.3215;0.7485;
894.6000;0.3207;0.7460;
894.9000;0.3215;0.7510;
895.2000;0.3199;0.7485;
895.5000;0.3199;0.7534;
895.8000;0.3232;0.7634;
896.1000;0.3215;0.7634;
896.4000;0.3207;0.7634;
896.7000;0.3191;0.7534;
897.0000;0.3175;0.7460;
897.3000;0.3223;0.7485;
897.6000;0.3191;0.7435;
897.9000;0.3183;0.7460;
898.2000;0.3199;0.7559;
898.5000;0.3232;0.7559;
898.8000;0.3215;0.7534;
899.1000;0.3232;0.7584;
899.4000;0.3232;0.7584;
899.7000;0.3223;0.7534;
900.0000;0.3207;0.7485;
900.3000;0.3207;0.7435;
900.6000;0.3223;0.7460;
900.9000;0.3150;0.7211;
901.2000;0.3215;0.7410;
901.5000;0.3183;0.7385;
901.8000;0.3232;0.7510;
902.1000;0.3215;0.7435;
902.4000;0.3207;0.7410;
902.7000;0.3207;0.7485;
903.0000;0.3207;0.7534;
903.3000;0.3199;0.7534;
903.6000;0.3207;0.7559;
903.9000;0.3166;0.7410;
904.2000;0.3215;0.7485;
904.5000;0.3223;0.7534;
904.8000;0.3223;0.7510;
905.1000;0.3191;0.7410;
905.4000;0.3207;0.7534;
905.7000;0.3215;0.7485;
906.0000;0.3321;0.7584;
906.3000;0.3223;0.7360;
906.6000;0.3199;0.7286;
906.9000;0.3223;0.7360;
907.2000;0.3232;0.7485;
907.5000;0.3223;0.7510;
907.8000;0.3191;0.7485;
908.1000;0.3215;0.7534;
908.4000;0.3207;0.7485;
908.7000;0.3199;0.7435;
909.0000;0.3199;0.7485;
909.3000;0.3207;0.7559;
909.6000;0.3199;0.7534;
909.9000;0.3191;0.7534;
910.2000;0.3191;0.7485;
910.5000;0.3199;0.7510;
910.8000;0.3215;0.7534;
911.1000;0.3207;0.7559;
911.4000;0.3207;0.7559;
911.7000;0.3215;0.7534;
912.0000;0.3207;0.7510;
912.3000;0.3264;0.7733;
912.6000;0.3150;0.7534;
912.9000;0.3199;0.7634;
913.2000;0.3191;0.7559;
913.5000;0.3199;0.7584;
913.8000;0.3191;0.7510;
914.1000;0.3215;0.7634;
914.4000;0.3256;0.7708;
914.7000;0.3183;0.7659;
915.0000;0.3199;0.7659;
915.3000;0.3207;0.7684;
915.6000;0.3175;0.7584;
915.9000;0.3223;0.7584;
916.2000;0.3215;0.7559;
916.5000;0.3215;0.7485;
916.8000;0.3207;0.7584;
917.1000;0.3207;0.7510;
917.4000;0.3215;0.7534;
917.7000;0.3207;0.7534;
918.0000;0.3183;0.7510;
918.3000;0.3207;0.7609;
918.6000;0.3215;0.7584;
918.9000;0.3305;0.7758;
919.2000;0.3215;0.7460;
919.5000;0.3256;0.7584;
919.8000;0.3183;0.7410;
920.1000;0.3126;0.7360;
920.4000;0.3207;0.7510;
920.7000;0.3215;0.7510;
921.0000;0.3175;0.7360;
921.3000;0.3215;0.7360;
921.6000;0.3256;0.7435;
921.9000;0.3199;0.7286;
922.2000;0.3207;0.7335;
922.5000;0.3215;0.7410;
922.8000;0.3248;0.7435;
923.1000;0.3191;0.7261;
923.4000;0.3191;0.7236;
923.7000;0.3215;0.7286;
924.0000;0.3215;0.7186;
924.3000;0.3191;0.7112;
924.6000;0.3183;0.7037;
924.9000;0.3207;0.7161;
925.2000;0.3207;0.7261;
925.5000;0.3199;0.7311;
925.8000;0.3191;0.7360;
926.1000;0.3207;0.7460;
926.4000;0.3215;0.7460;
926.7000;0.3199;0.7435;
927.0000;0.3223;0.7410;
927.3000;0.3207;0.7335;
927.6000;0.3207;0.7410;
927.9000;0.3199;0.7311;
928.2000;0.3183;0.7261;
928.5000;0.3166;0.7236;
928.8000;0.3199;0.7311;
929.1000;0.3191;0.7360;
929.4000;0.3207;0.7435;
929.7000;0.3199;0.7410;
930.0000;0.3280;0.7634;
930.3000;0.3199;0.7435;
930.6000;0.3207;0.7584;
930.9000;0.3191;0.7559;
931.2000;0.3207;0.7534;
931.5000;0.3215;0.7559;
931.8000;0.3215;0.7559;
932.1000;0.3215;0.7559;
932.4000;0.3232;0.7510;
932.7000;0.3256;0.7485;
933.0000;0.3232;0.7485;
933.3000;0.3191;0.7485;
933.6000;0.3191;0.7534;
933.9000;0.3232;0.7634;
934.2000;0.3215;0.7659;
934.5000;0.3175;0.7559;
934.8000;0.3183;0.7559;
935.1000;0.3215;0.7634;
935.4000;0.3191;0.7634;
935.7000;0.3183;0.7584;
936.0000;0.3199;0.7534;
936.3000;0.3199;0.7435;
936.6000;0.3223;0.7410;
936.9000;0.3199;0.7335;
937.2000;0.3191;0.7335;
937.5000;0.3199;0.7335;
937.8000;0.3207;0.7435;
938.1000;0.3199;0.7410;
938.4000;0.3183;0.7385;
938.7000;0.3207;0.7460;
939.0000;0.3215;0.7510;
939.3000;0.3207;0.7485;
939.6000;0.3199;0.7485;
939.9000;0.3223;0.7460;
940.2000;0.3232;0.7485;
940.5000;0.3199;0.7510;
940.8000;0.3207;0.7510;
941.1000;0.3207;0.7584;
941.4000;0.3191;0.7584;
941.7000;0.3199;0.7659;
942.0000;0.3215;0.7584;
942.3000;0.3191;0.7510;
942.6000;0.3207;0.7634;
942.9000;0.3240;0.7758;
943.2000;0.3199;0.7684;
943.5000;0.3207;0.7634;
943.8000;0.3191;0.7609;
944.1000;0.3191;0.7584;
944.4000;0.3199;0.7510;
944.7000;0.3191;0.7659;
945.0000;0.3191;0.7708;
945.3000;0.3191;0.7659;
945.6000;0.3191;0.7659;
945.9000;0.3207;0.7609;
946.2000;0.3199;0.7559;
946.5000;0.3207;0.7584;
946.8000;0.3199;0.7609;
947.1000;0.3191;0.7609;
947.4000;0.3191;0.7708;
947.7000;0.3191;0.7684;
948.0000;0.3191;0.7708;
948.3000;0.3191;0.7708;
948.6000;0.3175;0.7758;
948.9000;0.3191;0.7733;
949.2000;0.3207;0.7733;
949.5000;0.3207;0.7708;
949.8000;0.3191;0.7634;
950.1000;0.3199;0.7534;
950.4000;0.3215;0.7609;
950.7000;0.3215;0.7609;
951.0000;0.3207;0.7684;
951.3000;0.3191;0.7708;
951.6000;0.3207;0.7758;
951.9000;0.3199;0.7808;
952.2000;0.3207;0.7758;
952.5000;0.3166;0.7684;
952.8000;0.3215;0.7733;
953.1000;0.3199;0.7708;
953.4000;0.3175;0.7634;
953.7000;0.3191;0.7708;
954.0000;0.3207;0.7758;
954.3000;0.3207;0.7783;
954.6000;0.3207;0.7907;
954.9000;0.3215;0.7957;
955.2000;0.3199;0.7808;
955.5000;0.3207;0.7833;
955.8000;0.3215;0.7808;
956.1000;0.3191;0.7659;
956.4000;0.3207;0.7733;
956.7000;0.3256;0.7783;
957.0000;0.3207;0.7634;
957.3000;0.3191;0.7758;
957.6000;0.3191;0.7833;
957.9000;0.3207;0.7733;
958.2000;0.3199;0.7659;
958.5000;0.3199;0.7584;
958.8000;0.3199;0.7609;
959.1000;0.3215;0.7708;
959.4000;0.3264;0.7783;
959.7000;0.3215;0.7584;
960.0000;0.3207;0.7584;
960.3000;0.3207;0.7559;
960.6000;0.3191;0.7485;
960.9000;0.3199;0.7410;
961.2000;0.3191;0.7385;
961.5000;0.3199;0.7435;
961.8000;0.3272;0.7634;
962.1000;0.3199;0.7485;
962.4000;0.3199;0.7559;
962.7000;0.3280;0.7808;
963.0000;0.3223;0.7783;
963.3000;0.3207;0.7733;
963.6000;0.3199;0.7659;
963.9000;0.3175;0.7485;
964.2000;0.3207;0.7510;
964.5000;0.3207;0.7485;
964.8000;0.3207;0.7335;
965.1000;0.3199;0.7435;
965.4000;0.3191;0.7485;
965.7000;0.3191;0.7510;
966.0000;0.3223;0.7559;
966.3000;0.3191;0.7460;
966.6000;0.3166;0.7410;
966.9000;0.3199;0.7559;
967.2000;0.3199;0.7534;
967.5000;0.3175;0.7460;
967.8000;0.3215;0.7584;
968.1000;0.3215;0.7460;
968.4000;0.3199;0.7385;
968.7000;0.3191;0.7335;
969.0000;0.3199;0.7410;
969.3000;0.3199;0.7410;
969.6000;0.3191;0.7435;
969.9000;0.3191;0.7485;
970.2000;0.3183;0.7410;
970.5000;0.3199;0.7385;
970.8000;0.3199;0.7385;
971.1000;0.3207;0.7360;
971.4000;0.3199;0.7286;
971.7000;0.3199;0.7335;
972.0000;0.3199;0.7311;
972.3000;0.3207;0.7460;
972.6000;0.3191;0.7559;
972.9000;0.3175;0.7485;
973.2000;0.3191;0.7485;
973.5000;0.3199;0.7460;
973.8000;0.3240;0.7460;
974.1000;0.3183;0.7261;
974.4000;0.3191;0.7335;
974.7000;0.3199;0.7335;
975.0000;0.3199;0.7211;
975.3000;0.3199;0.7236;
975.6000;0.3232;0.7410;
975.9000;0.3199;0.7360;
976.2000;0.3207;0.7360;
976.5000;0.3223;0.7335;
976.8000;0.3215;0.7360;
977.1000;0.3199;0.7360;
977.4000;0.3207;0.7385;
977.7000;0.3232;0.7510;
978.0000;0.3183;0.7435;
978.3000;0.3191;0.7485;
978.6000;0.3183;0.7385;
978.9000;0.3199;0.7335;
979.2000;0.3199;0.7311;
979.5000;0.3183;0.7360;
979.8000;0.3232;0.7510;
980.1000;0.3207;0.7460;
980.4000;0.3232;0.7460;
980.7000;0.3199;0.7335;
981.0000;0.3215;0.7410;
981.3000;0.3207;0.7286;
981.6000;0.3199;0.7261;
981.9000;0.3207;0.7236;
982.2000;0.3232;0.7311;
982.5000;0.3199;0.7186;
982.8000;0.3101;0.6987;
983.1000;0.3199;0.7311;
983.4000;0.3240;0.7435;
983.7000;0.3248;0.7460;
984.0000;0.3175;0.7385;
984.3000;0.3207;0.7510;
984.6000;0.3215;0.7485;
984.9000;0.3240;0.7584;
985.2000;0.3199;0.7534;
985.5000;0.3191;0.7485;
985.8000;0.3207;0.7485;
986.1000;0.3248;0.7659;
986.4000;0.3199;0.7609;
986.7000;0.3183;0.7609;
987.0000;0.3191;0.7609;
987.3000;0.3199;0.7659;
987.6000;0.3199;0.7708;
987.9000;0.3191;0.7634;
988.2000;0.3158;0.7559;
988.5000;0.3191;0.7609;
988.8000;0.3199;0.7659;
989.1000;0.3166;0.7510;
989.4000;0.3280;0.7783;
989.7000;0.3191;0.7510;
990.0000;0.3248;0.7609;
990.3000;0.3207;0.7534;
990.6000;0.3175;0.7485;
990.9000;0.3215;0.7534;
991.2000;0.3215;0.7559;
991.5000;0.3215;0.7510;
991.8000;0.3191;0.7435;
992.1000;0.3199;0.7485;
992.4000;0.3199;0.7385;
992.7000;0.3215;0.7460;
993.0000;0.3207;0.7460;
993.3000;0.3207;0.7435;
993.6000;0.3191;0.7510;
993.9000;0.3215;0.7510;
994.2000;0.3166;0.7360;
994.5000;0.3191;0.7485;
994.8000;0.3207;0.7609;
995.1000;0.3199;0.7659;
995.4000;0.3215;0.7684;
995.7000;0.3223;0.7708;
996.0000;0.3207;0.7659;
996.3000;0.3199;0.7634;
996.6000;0.3191;0.7584;
996.9000;0.3191;0.7510;
997.2000;0.3199;0.7534;
997.5000;0.3183;0.7584;
997.8000;0.3191;0.7584;
998.1000;0.3207;0.7534;
998.4000;0.3191;0.7485;
998.7000;0.3175;0.7435;
999.0000;0.3199;0.7510;
999.3000;0.3215;0.7559;
999.6000;0.3199;0.7485;
999.9000;0.3183;0.7410;
1000.2000;0.3199;0.7385;
1000.5000;0.3215;0.7510;
1000.8000;0.3199;0.7609;
1001.1000;0.3199;0.7634;
1001.4000;0.3215;0.7708;
1001.7000;0.3223;0.7758;
1002.0000;0.3191;0.7708;
1002.3000;0.3207;0.7609;
1002.6000;0.3207;0.7609;
1002.9000;0.3183;0.7634;
1003.2000;0.3199;0.7684;
1003.5000;0.3199;0.7708;
1003.8000;0.3183;0.7708;
1004.1000;0.3191;0.7733;
1004.4000;0.3191;0.7609;
1004.7000;0.3175;0.7534;
1005.0000;0.3199;0.7559;
1005.3000;0.3207;0.7534;
1005.6000;0.3191;0.7435;
1005.9000;0.3199;0.7385;
1006.2000;0.3199;0.7485;
1006.5000;0.3199;0.7534;
1006.8000;0.3183;0.7435;
1007.1000;0.3191;0.7485;
1007.4000;0.3240;0.7534;
1007.7000;0.3215;0.7410;
1008.0000;0.3191;0.7410;
1008.3000;0.3109;0.7211;
1008.6000;0.3191;0.7485;
1008.9000;0.3191;0.7485;
1009.2000;0.3191;0.7559;
1009.5000;0.3166;0.7460;
1009.8000;0.3199;0.7485;
1010.1000;0.3207;0.7534;
1010.4000;0.3248;0.7534;
1010.7000;0.3191;0.7360;
1011.0000;0.3175;0.7335;
1011.3000;0.3207;0.7385;
1011.6000;0.3199;0.7311;
1011.9000;0.3199;0.7360;
1012.2000;0.3158;0.7311;
1012.5000;0.3191;0.7385;
1012.8000;0.3215;0.7485;
1013.1000;0.3191;0.7460;
1013.4000;0.3175;0.7435;
1013.7000;0.3166;0.7410;
1014.0000;0.3240;0.7584;
1014.3000;0.3199;0.7385;
1014.6000;0.3175;0.7311;
1014.9000;0.3199;0.7335;
1015.2000;0.3183;0.7311;
1015.5000;0.3183;0.7286;
1015.8000;0.3199;0.7211;
1016.1000;0.3207;0.7261;
1016.4000;0.3232;0.7385;
1016.7000;0.3199;0.7335;
1017.0000;0.3199;0.7335;
1017.3000;0.3199;0.7410;
1017.6000;0.3175;0.7286;
1017.9000;0.3223;0.7360;
1018.2000;0.3256;0.7410;
1018.5000;0.3199;0.7286;
1018.8000;0.3199;0.7311;
1019.1000;0.3191;0.7286;
1019.4000;0.3175;0.7385;
1019.7000;0.3223;0.7559;
1020.0000;0.3191;0.7460;
1020.3000;0.3215;0.7534;
1020.6000;0.3166;0.7435;
1020.9000;0.3199;0.7485;
1021.2000;0.3199;0.7559;
1021.5000;0.3223;0.7584;
1021.8000;0.3175;0.7510;
1022.1000;0.3183;0.7534;
1022.4000;0.3207;0.7559;
1022.7000;0.3199;0.7609;
1023.0000;0.3183;0.7559;
1023.3000;0.3183;0.7385;
1023.6000;0.3199;0.7410;
1023.9000;0.3199;0.7435;
1024.2000;0.3191;0.7410;
1024.5000;0.3280;0.7659;
1024.8000;0.3158;0.7360;
1025.1000;0.3199;0.7485;
1025.4000;0.3199;0.7485;
1025.7000;0.3215;0.7510;
1026.0000;0.3150;0.7311;
1026.3000;0.3199;0.7360;
1026.6000;0.3207;0.7335;
1026.9000;0.3158;0.7211;
1027.2000;0.3199;0.7261;
1027.5000;0.3215;0.7311;
1027.8000;0.3199;0.7335;
1028.1000;0.3199;0.7311;
1028.4000;0.3191;0.7335;
1028.7000;0.3191;0.7360;
1029.0000;0.3183;0.7410;
1029.3000;0.3191;0.7460;
1029.6000;0.3199;0.7584;
1029.9000;0.3223;0.7684;
1030.2000;0.3199;0.7460;
1030.5000;0.3207;0.7435;
1030.8000;0.3207;0.7435;
1031.1000;0.3191;0.7410;
1031.4000;0.3289;0.7684;
1031.7000;0.3215;0.7460;
1032.0000;0.3183;0.7385;
1032.3000;0.3207;0.7360;
1032.6000;0.3207;0.7360;
1032.9000;0.3248;0.7534;
1033.2000;0.3207;0.7435;
1033.5000;0.3207;0.7435;
1033.8000;0.3207;0.7460;
1034.1000;0.3207;0.7460;
1034.4000;0.3232;0.7559;
1034.7000;0.3215;0.7485;
1035.0000;0.3199;0.7534;
1035.3000;0.3191;0.7534;
1035.6000;0.3207;0.7534;
1035.9000;0.3191;0.7485;
1036.2000;0.3199;0.7485;
1036.5000;0.3191;0.7460;
1036.8000;0.3215;0.7460;
1037.1000;0.3223;0.7435;
1037.4000;0.3191;0.7410;
1037.7000;0.3191;0.7435;
1038.0000;0.3191;0.7410;
1038.3000;0.3207;0.7485;
1038.6000;0.3207;0.7460;
1038.9000;0.3199;0.7485;
1039.2000;0.3199;0.7485;
1039.5000;0.3191;0.7460;
1039.8000;0.3215;0.7485;
1040.1000;0.3191;0.7435;
1040.4000;0.3207;0.7335;
1040.7000;0.3199;0.7311;
1041.0000;0.3199;0.7286;
1041.3000;0.3232;0.7435;
1041.6000;0.3175;0.7211;
1041.9000;0.3207;0.7261;
1042.2000;0.3199;0.7286;
1042.5000;0.3199;0.7385;
1042.8000;0.3191;0.7435;
1043.1000;0.3199;0.7460;
1043.4000;0.3183;0.7311;
1043.7000;0.3199;0.7311;
1044.0000;0.3175;0.7311;
1044.3000;0.3183;0.7335;
1044.6000;0.3215;0.7435;
1044.9000;0.3191;0.7286;
1045.2000;0.3191;0.7311;
1045.5000;0.3207;0.7311;
1045.8000;0.3199;0.7286;
1046.1000;0.3215;0.7335;
1046.4000;0.3183;0.7311;
1046.7000;0.3199;0.7410;
1047.0000;0.3207;0.7311;
1047.3000;0.3207;0.7460;
1047.6000;0.3191;0.7360;
1047.9000;0.3191;0.7460;
1048.2000;0.3191;0.7460;
1048.5000;0.3175;0.7485;
1048.8000;0.3166;0.7460;
1049.1000;0.3183;0.7485;
1049.4000;0.3118;0.7261;
1049.7000;0.3191;0.7460;
1050.0000;0.3191;0.7460;
1050.3000;0.3191;0.7435;
1050.6000;0.3183;0.7460;
1050.9000;0.3134;0.7311;
1051.2000;0.3207;0.7510;
1051.5000;0.3166;0.7410;
1051.8000;0.3199;0.7460;
1052.1000;0.3199;0.7584;
1052.4000;0.3207;0.7708;
1052.7000;0.3207;0.7609;
1053.0000;0.3223;0.7733;
1053.3000;0.3183;0.7634;
1053.6000;0.3199;0.7684;
1053.9000;0.3215;0.7758;
1054.2000;0.3191;0.7733;
1054.5000;0.3166;0.7684;
1054.8000;0.3207;0.7708;
1055.1000;0.3199;0.7634;
1055.4000;0.3264;0.7783;
1055.7000;0.3207;0.7609;
1056.0000;0.3191;0.7559;
1056.3000;0.3183;0.7609;
1056.6000;0.3207;0.7584;
1056.9000;0.3199;0.7460;
1057.2000;0.3191;0.7485;
1057.5000;0.3175;0.7510;
1057.8000;0.3199;0.7485;
1058.1000;0.3191;0.7385;
1058.4000;0.3175;0.7385;
1058.7000;0.3199;0.7460;
1059.0000;0.3199;0.7460;
1059.3000;0.3183;0.7360;
1059.6000;0.3289;0.7684;
1059.9000;0.3248;0.7510;
1060.2000;0.3199;0.7460;
1060.5000;0.3183;0.7410;
1060.8000;0.3175;0.7510;
1061.1000;0.3199;0.7559;
1061.4000;0.3191;0.7534;
1061.7000;0.3199;0.7510;
1062.0000;0.3166;0.7435;
1062.3000;0.3215;0.7634;
1062.6000;0.3215;0.7609;
1062.9000;0.3191;0.7634;
1063.2000;0.3199;0.7684;
1063.5000;0.3215;0.7733;
1063.8000;0.3207;0.7634;
1064.1000;0.3191;0.7534;
1064.4000;0.3175;0.7460;
1064.7000;0.3191;0.7435;
1065.0000;0.3191;0.7435;
1065.3000;0.3199;0.7435;
1065.6000;0.3109;0.7087;
1065.9000;0.3158;0.7211;
1066.2000;0.3183;0.7311;
1066.5000;0.3191;0.7236;
1066.8000;0.3191;0.7186;
1067.1000;0.3199;0.7112;
1067.4000;0.3199;0.7211;
1067.7000;0.3191;0.7286;
1068.0000;0.3207;0.7311;
1068.3000;0.3191;0.7261;
1068.6000;0.3134;0.7186;
1068.9000;0.3207;0.7335;
1069.2000;0.3199;0.7385;
1069.5000;0.3256;0.7485;
1069.8000;0.3297;0.7684;
1070.1000;0.3191;0.7435;
1070.4000;0.3175;0.7385;
1070.7000;0.3191;0.7534;
1071.0000;0.3191;0.7559;
1071.3000;0.3191;0.7534;
1071.6000;0.3199;0.7534;
1071.9000;0.3175;0.7385;
1072.2000;0.3207;0.7485;
1072.5000;0.3199;0.7460;
1072.8000;0.3199;0.7460;
1073.1000;0.3183;0.7410;
1073.4000;0.3199;0.7485;
1073.7000;0.3183;0.7410;
1074.0000;0.3175;0.7410;
1074.3000;0.3191;0.7460;
1074.6000;0.3207;0.7510;
1074.9000;0.3199;0.7510;
1075.2000;0.3158;0.7360;
1075.5000;0.3175;0.7460;
1075.8000;0.3215;0.7634;
1076.1000;0.3199;0.7510;
1076.4000;0.3207;0.7559;
1076.7000;0.3158;0.7385;
1077.0000;0.3248;0.7584;
1077.3000;0.3199;0.7435;
1077.6000;0.3207;0.7510;
1077.9000;0.3158;0.7410;
1078.2000;0.3183;0.7410;
1078.5000;0.3183;0.7385;
1078.8000;0.3191;0.7460;
1079.1000;0.3166;0.7510;
1079.4000;0.3158;0.7609;
1079.7000;0.3158;0.7559;
1080.0000;0.3183;0.7659;
1080.3000;0.3191;0.7684;
1080.6000;0.3199;0.7634;
1080.9000;0.3183;0.7684;
1081.2000;0.3183;0.7733;
1081.5000;0.3183;0.7733;
1081.8000;0.3191;0.7808;
1082.1000;0.3183;0.7733;
1082.4000;0.3207;0.7733;
1082.7000;0.3191;0.7634;
1083.0000;0.3207;0.7659;
1083.3000;0.3183;0.7510;
1083.6000;0.3166;0.7584;
1083.9000;0.3166;0.7609;
1084.2000;0.3183;0.7708;
1084.5000;0.3183;0.7733;
1084.8000;0.3199;0.7758;
1085.1000;0.3191;0.7659;
1085.4000;0.3199;0.7584;
1085.7000;0.3183;0.7634;
1086.0000;0.3175;0.7659;
1086.3000;0.3199;0.7659;
1086.6000;0.3191;0.7534;
1086.9000;0.3199;0.7510;
1087.2000;0.3199;0.7510;
1087.5000;0.3207;0.7559;
1087.8000;0.3207;0.7634;
1088.1000;0.3191;0.7609;
1088.4000;0.3207;0.7684;
1088.7000;0.3150;0.7609;
1089.0000;0.3183;0.7609;
1089.3000;0.3191;0.7634;
1089.6000;0.3134;0.7435;
1089.9000;0.3199;0.7684;
1090.2000;0.3175;0.7659;
1090.5000;0.3199;0.7609;
1090.8000;0.3232;0.7609;
1091.1000;0.3191;0.7485;
1091.4000;0.3166;0.7385;
1091.7000;0.3223;0.7485;
1092.0000;0.3175;0.7410;
1092.3000;0.3175;0.7485;
1092.6000;0.3191;0.7510;
1092.9000;0.3175;0.7460;
1093.2000;0.3199;0.7510;
1093.5000;0.3183;0.7559;
1093.8000;0.3191;0.7534;
1094.1000;0.3207;0.7634;
1094.4000;0.3199;0.7634;
1094.7000;0.3183;0.7609;
1095.0000;0.3175;0.7584;
1095.3000;0.3191;0.7609;
1095.6000;0.3191;0.7584;
1095.9000;0.3175;0.7634;
1096.2000;0.3207;0.7634;
1096.5000;0.3199;0.7659;
1096.8000;0.3223;0.7634;
1097.1000;0.3207;0.7634;
1097.4000;0.3199;0.7634;
1097.7000;0.3207;0.7684;
1098.0000;0.3232;0.7684;
1098.3000;0.3166;0.7485;
1098.6000;0.3183;0.7460;
1098.9000;0.3191;0.7609;
1099.2000;0.3150;0.7510;
1099.5000;0.3191;0.7634;
1099.8000;0.3207;0.7659;
1100.1000;0.3134;0.7510;
1100.4000;0.3207;0.7684;
1100.7000;0.3215;0.7684;
1101.0000;0.3223;0.7733;
1101.3000;0.3134;0.7485;
1101.6000;0.3199;0.7534;
1101.9000;0.3199;0.7510;
1102.2000;0.3207;0.7410;
1102.5000;0.3191;0.7435;
1102.8000;0.3191;0.7360;
1103.1000;0.3215;0.7460;
1103.4000;0.3191;0.7435;
1103.7000;0.3175;0.7460;
1104.0000;0.3158;0.7410;
1104.3000;0.3166;0.7410;
1104.6000;0.3175;0.7460;
1104.9000;0.3183;0.7435;
1105.2000;0.3215;0.7410;
1105.5000;0.3199;0.7360;
1105.8000;0.3175;0.7410;
1106.1000;0.3183;0.7460;
1106.4000;0.3191;0.7485;
1106.7000;0.3183;0.7485;
1107.0000;0.3191;0.7510;
1107.3000;0.3191;0.7510;
1107.6000;0.3191;0.7559;
1107.9000;0.3175;0.7534;
1108.2000;0.3191;0.7584;
1108.5000;0.3183;0.7559;
1108.8000;0.3199;0.7584;
1109.1000;0.3199;0.7584;
1109.4000;0.3175;0.7559;
1109.7000;0.3158;0.7534;
1110.0000;0.3183;0.7609;
1110.3000;0.3191;0.7584;
1110.6000;0.3240;0.7733;
1110.9000;0.3191;0.7584;
1111.2000;0.3199;0.7609;
1111.5000;0.3207;0.7684;
1111.8000;0.3166;0.7659;
1112.1000;0.3183;0.7609;
1112.4000;0.3175;0.7510;
1112.7000;0.3183;0.7534;
1113.0000;0.3232;0.7634;
1113.3000;0.3166;0.7510;
1113.6000;0.3166;0.7584;
1113.9000;0.3183;0.7559;
1114.2000;0.3183;0.7485;
1114.5000;0.3191;0.7460;
1114.8000;0.3232;0.7609;
1115.1000;0.3183;0.7460;
1115.4000;0.3207;0.7435;
1115.7000;0.3183;0.7360;
1116.0000;0.3207;0.7460;
1116.3000;0.3183;0.7435;
1116.6000;0.3207;0.7485;
1116.9000;0.3207;0.7460;
1117.2000;0.3215;0.7534;
1117.5000;0.3199;0.7534;
1117.8000;0.3207;0.7559;
1118.1000;0.3199;0.7534;
1118.4000;0.3183;0.7485;
1118.7000;0.3183;0.7510;
1119.0000;0.3175;0.7559;
1119.3000;0.3199;0.7485;
1119.6000;0.3199;0.7485;
1119.9000;0.3191;0.7460;
1120.2000;0.3191;0.7510;
1120.5000;0.3207;0.7609;
1120.8000;0.3183;0.7584;
1121.1000;0.3191;0.7534;
1121.4000;0.3199;0.7659;
1121.7000;0.3207;0.7684;
1122.0000;0.3183;0.7659;
1122.3000;0.3191;0.7584;
1122.6000;0.3264;0.7684;
1122.9000;0.3183;0.7485;
1123.2000;0.3183;0.7435;
1123.5000;0.3199;0.7410;
1123.8000;0.3183;0.7360;
1124.1000;0.3191;0.7410;
1124.4000;0.3183;0.7385;
1124.7000;0.3191;0.7385;
1125.0000;0.3223;0.7534;
1125.3000;0.3158;0.7460;
1125.6000;0.3183;0.7534;
1125.9000;0.3191;0.7584;
1126.2000;0.3175;0.7534;
1126.5000;0.3183;0.7485;
1126.8000;0.3183;0.7410;
1127.1000;0.3199;0.7410;
1127.4000;0.3183;0.7385;
1127.7000;0.3199;0.7360;
1128.0000;0.3183;0.7335;
1128.3000;0.3207;0.7485;
1128.6000;0.3183;0.7485;
1128.9000;0.3191;0.7510;
1129.2000;0.3166;0.7510;
1129.5000;0.3175;0.7584;
1129.8000;0.3199;0.7559;
1130.1000;0.3199;0.7534;
1130.4000;0.3166;0.7534;
1130.7000;0.3191;0.7485;
1131.0000;0.3199;0.7534;
1131.3000;0.3175;0.7435;
1131.6000;0.3150;0.7360;
1131.9000;0.3191;0.7335;
1132.2000;0.3223;0.7534;
1132.5000;0.3191;0.7385;
1132.8000;0.3183;0.7385;
1133.1000;0.3175;0.7460;
1133.4000;0.3248;0.7733;
1133.7000;0.3183;0.7510;
1134.0000;0.3158;0.7410;
1134.3000;0.3215;0.7559;
1134.6000;0.3191;0.7460;
1134.9000;0.3183;0.7435;
1135.2000;0.3191;0.7435;
1135.5000;0.3183;0.7485;
1135.8000;0.3175;0.7460;
1136.1000;0.3199;0.7485;
1136.4000;0.3175;0.7534;
1136.7000;0.3199;0.7609;
1137.0000;0.3191;0.7659;
1137.3000;0.3175;0.7708;
1137.6000;0.3199;0.7758;
1137.9000;0.3175;0.7708;
1138.2000;0.3183;0.7659;
1138.5000;0.3183;0.7584;
1138.8000;0.3175;0.7684;
1139.1000;0.3191;0.7708;
1139.4000;0.3175;0.7733;
1139.7000;0.3158;0.7758;
1140.0000;0.3166;0.7758;
1140.3000;0.3183;0.7733;
1140.6000;0.3191;0.7659;
1140.9000;0.3175;0.7609;
1141.2000;0.3199;0.7584;
1141.5000;0.3183;0.7534;
1141.8000;0.3158;0.7410;
1142.1000;0.3199;0.7534;
1142.4000;0.3199;0.7559;
1142.7000;0.3183;0.7559;
1143.0000;0.3183;0.7609;
1143.3000;0.3191;0.7534;
1143.6000;0.3166;0.7534;
1143.9000;0.3126;0.7385;
1144.2000;0.3199;0.7510;
1144.5000;0.3166;0.7510;
1144.8000;0.3183;0.7534;
1145.1000;0.3175;0.7609;
1145.4000;0.3183;0.7609;
1145.7000;0.3191;0.7559;
1146.0000;0.3183;0.7609;
1146.3000;0.3191;0.7584;
1146.6000;0.3199;0.7659;
1146.9000;0.3199;0.7708;
1147.2000;0.3199;0.7659;
1147.5000;0.3199;0.7634;
1147.8000;0.3191;0.7609;
1148.1000;0.3199;0.7584;
1148.4000;0.3199;0.7609;
1148.7000;0.3207;0.7659;
1149.0000;0.3175;0.7708;
1149.3000;0.3183;0.7708;
1149.6000;0.3183;0.7733;
1149.9000;0.3175;0.7659;
1150.2000;0.3183;0.7708;
1150.5000;0.3232;0.7883;
1150.8000;0.3215;0.7783;
1151.1000;0.3175;0.7684;
1151.4000;0.3199;0.7733;
1151.7000;0.3199;0.7758;
1152.0000;0.3248;0.7957;
1152.3000;0.3183;0.7733;
1152.6000;0.3191;0.7708;
1152.9000;0.3183;0.7684;
1153.2000;0.3199;0.7758;
1153.5000;0.3175;0.7808;
1153.8000;0.3175;0.7833;
1154.1000;0.3199;0.7883;
1154.4000;0.3183;0.7808;
1154.7000;0.3109;0.7609;
1155.0000;0.3256;0.8007;
1155.3000;0.3240;0.7808;
1155.6000;0.3183;0.7684;
1155.9000;0.3199;0.7684;
1156.2000;0.3191;0.7659;
1156.5000;0.3175;0.7584;
1156.8000;0.3232;0.7634;
1157.1000;0.3183;0.7634;
1157.4000;0.3207;0.7708;
1157.7000;0.3191;0.7634;
1158.0000;0.3166;0.7634;
1158.3000;0.3175;0.7510;
1158.6000;0.3191;0.7485;
1158.9000;0.3183;0.7510;
1159.2000;0.3175;0.7534;
1159.5000;0.3191;0.7634;
1159.8000;0.3175;0.7534;
1160.1000;0.3166;0.7510;
1160.4000;0.3166;0.7510;
1160.7000;0.3175;0.7584;
1161.0000;0.3175;0.7659;
1161.3000;0.3199;0.7708;
1161.6000;0.3166;0.7584;
1161.9000;0.3223;0.7684;
1162.2000;0.3199;0.7634;
1162.5000;0.3183;0.7609;
1162.8000;0.3191;0.7609;
1163.1000;0.3175;0.7534;
1163.4000;0.3166;0.7510;
1163.7000;0.3142;0.7510;
1164.0000;0.3175;0.7534;
1164.3000;0.3191;0.7584;
1164.6000;0.3183;0.7485;
1164.9000;0.3158;0.7435;
1165.2000;0.3232;0.7733;
1165.5000;0.3126;0.7534;
1165.8000;0.3191;0.7783;
1166.1000;0.3150;0.7609;
1166.4000;0.3215;0.7708;
1166.7000;0.3175;0.7684;
1167.0000;0.3158;0.7684;
1167.3000;0.3183;0.7684;
1167.6000;0.3191;0.7708;
1167.9000;0.3085;0.7460;
1168.2000;0.3158;0.7684;
1168.5000;0.3158;0.7609;
1168.8000;0.3191;0.7609;
1169.1000;0.3175;0.7659;
1169.4000;0.3166;0.7684;
1169.7000;0.3166;0.7584;
1170.0000;0.3199;0.7684;
1170.3000;0.3183;0.7708;
1170.6000;0.3166;0.7634;
1170.9000;0.3256;0.7883;
1171.2000;0.3158;0.7733;
1171.5000;0.3166;0.7634;
1171.8000;0.3191;0.7609;
1172.1000;0.3191;0.7634;
1172.4000;0.3199;0.7659;
1172.7000;0.3199;0.7684;
1173.0000;0.3166;0.7584;
1173.3000;0.3199;0.7708;
1173.6000;0.3183;0.7659;
1173.9000;0.3183;0.7684;
1174.2000;0.3183;0.7634;
1174.5000;0.3166;0.7609;
1174.8000;0.3175;0.7534;
1175.1000;0.3183;0.7609;
1175.4000;0.3207;0.7733;
1175.7000;0.3199;0.7659;
1176.0000;0.3248;0.7858;
1176.3000;0.3150;0.7659;
1176.6000;0.3191;0.7808;
1176.9000;0.3175;0.7783;
1177.2000;0.3199;0.7783;
1177.5000;0.3191;0.7783;
1177.8000;0.3118;0.7584;
1178.1000;0.3166;0.7684;
1178.4000;0.3183;0.7708;
1178.7000;0.3175;0.7708;
1179.0000;0.3199;0.7659;
1179.3000;0.3199;0.7659;
1179.6000;0.3191;0.7708;
1179.9000;0.3183;0.7708;
1180.2000;0.3199;0.7733;
1180.5000;0.3289;0.7932;
1180.8000;0.3191;0.7708;
1181.1000;0.3191;0.7684;
1181.4000;0.3191;0.7659;
1181.7000;0.3191;0.7733;
1182.0000;0.3207;0.7684;
1182.3000;0.3199;0.7609;
1182.6000;0.3134;0.7510;
1182.9000;0.3199;0.7684;
1183.2000;0.3183;0.7659;
1183.5000;0.3085;0.7510;
1183.8000;0.3191;0.7733;
1184.1000;0.3183;0.7733;
1184.4000;0.3183;0.7783;
1184.7000;0.3158;0.7733;
1185.0000;0.3191;0.7808;
1185.3000;0.3175;0.7783;
1185.6000;0.3126;0.7708;
1185.9000;0.3207;0.7907;
1186.2000;0.3191;0.7858;
1186.5000;0.3207;0.7907;
1186.8000;0.3199;0.7833;
1187.1000;0.3158;0.7609;
1187.4000;0.3158;0.7634;
1187.7000;0.3223;0.7659;
1188.0000;0.3199;0.7609;
1188.3000;0.3183;0.7659;
1188.6000;0.3175;0.7609;
1188.9000;0.3166;0.7534;
1189.2000;0.3183;0.7634;
1189.5000;0.3175;0.7659;
1189.8000;0.3158;0.7708;
1190.1000;0.3150;0.7684;
1190.4000;0.3183;0.7733;
1190.7000;0.3175;0.7634;
1191.0000;0.3183;0.7609;
1191.3000;0.3183;0.7634;
1191.6000;0.3175;0.7584;
1191.9000;0.3240;0.7659;
1192.2000;0.3191;0.7485;
1192.5000;0.3175;0.7410;
1192.8000;0.3199;0.7559;
1193.1000;0.3183;0.7534;
1193.4000;0.3191;0.7460;
1193.7000;0.3175;0.7311;
1194.0000;0.3232;0.7534;
1194.3000;0.3191;0.7435;
1194.6000;0.3232;0.7510;
1194.9000;0.3166;0.7360;
1195.2000;0.3191;0.7485;
1195.5000;0.3199;0.7485;
1195.8000;0.3183;0.7460;
1196.1000;0.3191;0.7534;
1196.4000;0.3207;0.7684;
1196.7000;0.3109;0.7559;
1197.0000;0.3175;0.7733;
1197.3000;0.3191;0.7783;
1197.6000;0.3166;0.7659;
1197.9000;0.3183;0.7684;
1198.2000;0.3199;0.7758;
1198.5000;0.3175;0.7684;
1198.8000;0.3166;0.7783;
1199.1000;0.3175;0.7708;
1199.4000;0.3166;0.7684;
1199.7000;0.3191;0.7634;
1200.0000;0.3166;0.7584;
1200.3000;0.3183;0.7609;
1200.6000;0.3199;0.7609;
1200.9000;0.3191;0.7435;
1201.2000;0.3191;0.7360;
1201.5000;0.3183;0.7360;
1201.8000;0.3199;0.7435;
1202.1000;0.3191;0.7435;
1202.4000;0.3191;0.7435;
1202.7000;0.3191;0.7460;
1203.0000;0.3183;0.7460;
1203.3000;0.3191;0.7460;
1203.6000;0.3191;0.7485;
1203.9000;0.3191;0.7485;
1204.2000;0.3183;0.7460;
1204.5000;0.3199;0.7534;
1204.8000;0.3207;0.7634;
1205.1000;0.3166;0.7584;
1205.4000;0.3191;0.7534;
1205.7000;0.3166;0.7534;
1206.0000;0.3166;0.7510;
1206.3000;0.3175;0.7460;
1206.6000;0.3175;0.7485;
1206.9000;0.3199;0.7609;
1207.2000;0.3207;0.7584;
1207.5000;0.3158;0.7534;
1207.8000;0.3199;0.7609;
1208.1000;0.3199;0.7559;
1208.4000;0.3166;0.7510;
1208.7000;0.3215;0.7584;
1209.0000;0.3166;0.7435;
1209.3000;0.3166;0.7510;
1209.6000;0.3191;0.7684;
1209.9000;0.3175;0.7634;
1210.2000;0.3183;0.7659;
1210.5000;0.3191;0.7609;
1210.8000;0.3191;0.7510;
1211.1000;0.3191;0.7584;
1211.4000;0.3199;0.7534;
1211.7000;0.3207;0.7534;
1212.0000;0.3166;0.7385;
1212.3000;0.3183;0.7435;
1212.6000;0.3191;0.7360;
1212.9000;0.3191;0.7410;
1213.2000;0.3175;0.7460;
1213.5000;0.3223;0.7510;
1213.8000;0.3183;0.7335;
1214.1000;0.3183;0.7460;
1214.4000;0.3158;0.7485;
1214.7000;0.3191;0.7584;
1215.0000;0.3199;0.7634;
1215.3000;0.3166;0.7609;
1215.6000;0.3175;0.7634;
1215.9000;0.3175;0.7609;
1216.2000;0.3191;0.7559;
1216.5000;0.3183;0.7534;
1216.8000;0.3175;0.7534;
1217.1000;0.3207;0.7659;
1217.4000;0.3199;0.7634;
1217.7000;0.3199;0.7684;
1218.0000;0.3158;0.7559;
1218.3000;0.3183;0.7684;
1218.6000;0.3191;0.7634;
1218.9000;0.3183;0.7659;
1219.2000;0.3158;0.7634;
1219.5000;0.3232;0.7883;
1219.8000;0.3191;0.7708;
1220.1000;0.3191;0.7684;
1220.4000;0.3183;0.7684;
1220.7000;0.3175;0.7609;
1221.0000;0.3264;0.7833;
1221.3000;0.3191;0.7534;
1221.6000;0.3191;0.7534;
1221.9000;0.3175;0.7460;
1222.2000;0.3134;0.7435;
1222.5000;0.3175;0.7534;
1222.8000;0.3175;0.7485;
1223.1000;0.3191;0.7510;
1223.4000;0.3191;0.7485;
1223.7000;0.3183;0.7435;
1224.0000;0.3183;0.7410;
1224.3000;0.3183;0.7410;
1224.6000;0.3093;0.7112;
1224.9000;0.3183;0.7335;
1225.2000;0.3191;0.7360;
1225.5000;0.3166;0.7286;
1225.8000;0.3199;0.7360;
1226.1000;0.3175;0.7410;
1226.4000;0.3175;0.7410;
1226.7000;0.3175;0.7410;
1227.0000;0.3175;0.7435;
1227.3000;0.3183;0.7460;
1227.6000;0.3166;0.7460;
1227.9000;0.3183;0.7485;
1228.2000;0.3166;0.7435;
1228.5000;0.3183;0.7435;
1228.8000;0.3191;0.7410;
1229.1000;0.3158;0.7186;
1229.4000;0.3166;0.7161;
1229.7000;0.3183;0.7161;
1230.0000;0.3207;0.7186;
1230.3000;0.3191;0.7087;
1230.6000;0.3183;0.7137;
1230.9000;0.3207;0.7161;
1231.2000;0.3199;0.7112;
1231.5000;0.3207;0.7161;
1231.8000;0.3199;0.7112;
1232.1000;0.3191;0.7137;
1232.4000;0.3183;0.7236;
1232.7000;0.3199;0.7286;
1233.0000;0.3191;0.7360;
1233.3000;0.3191;0.7460;
1233.6000;0.3175;0.7360;
1233.9000;0.3183;0.7311;
1234.2000;0.3183;0.7286;
1234.5000;0.3199;0.7261;
1234.8000;0.3199;0.7286;
1235.1000;0.3199;0.7360;
1235.4000;0.3199;0.7311;
1235.7000;0.3191;0.7286;
1236.0000;0.3199;0.7286;
1236.3000;0.3191;0.7261;
1236.6000;0.3207;0.7335;
1236.9000;0.3191;0.7360;
1237.2000;0.3175;0.7261;
1237.5000;0.3183;0.7211;
1237.8000;0.3191;0.7286;
1238.1000;0.3191;0.7335;
1238.4000;0.3223;0.7385;
1238.7000;0.3175;0.7211;
1239.0000;0.3175;0.7236;
1239.3000;0.3207;0.7410;
1239.6000;0.3158;0.7286;
1239.9000;0.3118;0.7261;
1240.2000;0.3207;0.7360;
1240.5000;0.3183;0.7236;
1240.8000;0.3118;0.6963;
1241.1000;0.3191;0.7112;
1241.4000;0.3199;0.7112;
1241.7000;0.3199;0.7161;
1242.0000;0.3199;0.7112;
1242.3000;0.3272;0.7335;
1242.6000;0.3191;0.7012;
1242.9000;0.3207;0.6987;
1243.2000;0.3175;0.6987;
1243.5000;0.3191;0.7211;
1243.8000;0.3158;0.7211;
1244.1000;0.3248;0.7435;
1244.4000;0.3183;0.7360;
1244.7000;0.3191;0.7385;
1245.0000;0.3183;0.7410;
1245.3000;0.3175;0.7410;
1245.6000;0.3175;0.7435;
1245.9000;0.3240;0.7609;
1246.2000;0.3166;0.7360;
1246.5000;0.3191;0.7385;
1246.8000;0.3199;0.7286;
1247.1000;0.3183;0.7261;
1247.4000;0.3199;0.7335;
1247.7000;0.3183;0.7311;
1248.0000;0.3158;0.7236;
1248.3000;0.3215;0.7335;
1248.6000;0.3191;0.7311;
1248.9000;0.3175;0.7261;
1249.2000;0.3191;0.7360;
1249.5000;0.3183;0.7360;
1249.8000;0.3183;0.7435;
1250.1000;0.3191;0.7410;
1250.4000;0.3199;0.7460;
1250.7000;0.3175;0.7385;
1251.0000;0.3207;0.7410;
1251.3000;0.3207;0.7385;
1251.6000;0.3215;0.7286;
1251.9000;0.3191;0.7211;
1252.2000;0.3191;0.7186;
1252.5000;0.3223;0.7211;
1252.8000;0.3272;0.7311;
1253.1000;0.3199;0.7211;
1253.4000;0.3191;0.7236;
1253.7000;0.3158;0.7236;
1254.0000;0.3207;0.7236;
1254.3000;0.3207;0.7186;
1254.6000;0.3166;0.7062;
1254.9000;0.3191;0.7062;
1255.2000;0.3175;0.7112;
1255.5000;0.3183;0.7186;
1255.8000;0.3158;0.7161;
1256.1000;0.3158;0.7211;
1256.4000;0.3175;0.7311;
1256.7000;0.3207;0.7385;
1257.0000;0.3207;0.7335;
1257.3000;0.3207;0.7385;
1257.6000;0.3158;0.7335;
1257.9000;0.3199;0.7360;
1258.2000;0.3199;0.7311;
1258.5000;0.3191;0.7261;
1258.8000;0.3183;0.7435;
1259.1000;0.3240;0.7659;
1259.4000;0.3191;0.7534;
1259.7000;0.3191;0.7559;
1260.0000;0.3142;0.7460;
1260.3000;0.3175;0.7435;
1260.6000;0.3199;0.7510;
1260.9000;0.3175;0.7410;
1261.2000;0.3183;0.7385;
1261.5000;0.3191;0.7360;
1261.8000;0.3191;0.7410;
1262.1000;0.3207;0.7460;
1262.4000;0.3183;0.7410;
1262.7000;0.3232;0.7534;
1263.0000;0.3175;0.7460;
1263.3000;0.3199;0.7510;
1263.6000;0.3191;0.7510;
1263.9000;0.3199;0.7460;
1264.2000;0.3175;0.7410;
1264.5000;0.3175;0.7360;
1264.8000;0.3256;0.7659;
1265.1000;0.3175;0.7460;
1265.4000;0.3175;0.7410;
1265.7000;0.3183;0.7435;
1266.0000;0.3215;0.7485;
1266.3000;0.3191;0.7460;
1266.6000;0.3199;0.7485;
1266.9000;0.3223;0.7559;
1267.2000;0.3199;0.7435;
1267.5000;0.3191;0.7410;
1267.8000;0.3158;0.7236;
1268.1000;0.3183;0.7211;
1268.4000;0.3199;0.7261;
1268.7000;0.3199;0.7286;
1269.0000;0.3191;0.7335;
1269.3000;0.3175;0.7286;
1269.6000;0.3166;0.7311;
1269.9000;0.3183;0.7435;
1270.2000;0.3183;0.7485;
1270.5000;0.3191;0.7559;
1270.8000;0.3166;0.7584;
1271.1000;0.3183;0.7634;
1271.4000;0.3191;0.7659;
1271.7000;0.3191;0.7609;
1272.0000;0.3207;0.7684;
1272.3000;0.3191;0.7634;
1272.6000;0.3166;0.7510;
1272.9000;0.3183;0.7584;
1273.2000;0.3118;0.7385;
1273.5000;0.3183;0.7534;
1273.8000;0.3175;0.7510;
1274.1000;0.3191;0.7559;
1274.4000;0.3223;0.7609;
1274.7000;0.3183;0.7460;
1275.0000;0.3199;0.7510;
1275.3000;0.3199;0.7485;
1275.6000;0.3215;0.7485;
1275.9000;0.3191;0.7435;
1276.2000;0.3183;0.7385;
1276.5000;0.3223;0.7559;
1276.8000;0.3183;0.7286;
1277.1000;0.3199;0.7311;
1277.4000;0.3199;0.7311;
1277.7000;0.3191;0.7311;
1278.0000;0.3191;0.7261;
1278.3000;0.3142;0.7137;
1278.6000;0.3215;0.7360;
1278.9000;0.3199;0.7385;
1279.2000;0.3207;0.7485;
1279.5000;0.3175;0.7360;
1279.8000;0.3183;0.7360;
1280.1000;0.3183;0.7385;
1280.4000;0.3183;0.7311;
1280.7000;0.3166;0.7385;
1281.0000;0.3183;0.7311;
1281.3000;0.3166;0.7286;
1281.6000;0.3175;0.7261;
1281.9000;0.3183;0.7261;
1282.2000;0.3191;0.7286;
1282.5000;0.3191;0.7311;
1282.8000;0.3207;0.7311;
1283.1000;0.3134;0.7137;
1283.4000;0.3175;0.7236;
1283.7000;0.3142;0.7211;
1284.0000;0.3191;0.7311;
1284.3000;0.3175;0.7211;
1284.6000;0.3085;0.7012;
1284.9000;0.3191;0.7286;
1285.2000;0.3183;0.7261;
1285.5000;0.3175;0.7137;
1285.8000;0.3207;0.7286;
1286.1000;0.3175;0.7186;
1286.4000;0.3175;0.7137;
1286.7000;0.3126;0.7087;
1287.0000;0.3150;0.7186;
1287.3000;0.3223;0.7311;
1287.6000;0.3191;0.7211;
1287.9000;0.3183;0.7211;
1288.2000;0.3175;0.7261;
1288.5000;0.3191;0.7286;
1288.8000;0.3158;0.7311;
1289.1000;0.3175;0.7360;
1289.4000;0.3215;0.7460;
1289.7000;0.3207;0.7460;
1290.0000;0.3166;0.7311;
1290.3000;0.3036;0.6888;
1290.6000;0.3166;0.7286;
1290.9000;0.3207;0.7410;
1291.2000;0.3207;0.7510;
1291.5000;0.3191;0.7534;
1291.8000;0.3175;0.7534;
1292.1000;0.3183;0.7584;
1292.4000;0.3199;0.7634;
1292.7000;0.3183;0.7609;
1293.0000;0.3207;0.7584;
1293.3000;0.3175;0.7534;
1293.6000;0.3191;0.7435;
1293.9000;0.3175;0.7435;
1294.2000;0.3199;0.7460;
1294.5000;0.3183;0.7460;
1294.8000;0.3191;0.7485;
1295.1000;0.3183;0.7485;
1295.4000;0.3175;0.7460;
1295.7000;0.3199;0.7559;
1296.0000;0.3175;0.7634;
1296.3000;0.3199;0.7634;
1296.6000;0.3175;0.7534;
1296.9000;0.3199;0.7634;
1297.2000;0.3199;0.7609;
1297.5000;0.3207;0.7510;
1297.8000;0.3183;0.7435;
1298.1000;0.3166;0.7485;
1298.4000;0.3191;0.7510;
1298.7000;0.3191;0.7510;
1299.0000;0.3199;0.7385;
1299.3000;0.3191;0.7335;
1299.6000;0.3199;0.7335;
1299.9000;0.3183;0.7286;
1300.2000;0.3183;0.7360;
1300.5000;0.3191;0.7485;
1300.8000;0.3191;0.7510;
1301.1000;0.3175;0.7510;
1301.4000;0.3158;0.7360;
1301.7000;0.3191;0.7485;
1302.0000;0.3199;0.7609;
1302.3000;0.3183;0.7634;
1302.6000;0.3199;0.7659;
1302.9000;0.3183;0.7534;
1303.2000;0.3191;0.7510;
1303.5000;0.3199;0.7510;
1303.8000;0.3199;0.7510;
1304.1000;0.3183;0.7485;
1304.4000;0.3158;0.7410;
1304.7000;0.3248;0.7659;
1305.0000;0.3166;0.7435;
1305.3000;0.3166;0.7335;
1305.6000;0.3166;0.7435;
1305.9000;0.3232;0.7534;
1306.2000;0.3207;0.7460;
1306.5000;0.3183;0.7460;
1306.8000;0.3134;0.7286;
1307.1000;0.3207;0.7534;
1307.4000;0.3199;0.7485;
1307.7000;0.3166;0.7360;
1308.0000;0.3199;0.7485;
1308.3000;0.3191;0.7435;
1308.6000;0.3191;0.7360;
1308.9000;0.3183;0.7360;
1309.2000;0.3175;0.7360;
1309.5000;0.3166;0.7410;
1309.8000;0.3134;0.7211;
1310.1000;0.3207;0.7385;
1310.4000;0.3191;0.7360;
1310.7000;0.3150;0.7236;
1311.0000;0.3256;0.7510;
1311.3000;0.3191;0.7435;
1311.6000;0.3158;0.7410;
1311.9000;0.3199;0.7534;
1312.2000;0.3191;0.7584;
1312.5000;0.3199;0.7634;
1312.8000;0.3199;0.7634;
1313.1000;0.3199;0.7659;
1313.4000;0.3223;0.7758;
1313.7000;0.3215;0.7808;
1314.0000;0.3191;0.7708;
1314.3000;0.3158;0.7634;
1314.6000;0.3191;0.7833;
1314.9000;0.3199;0.7833;
1315.2000;0.3240;0.7907;
1315.5000;0.3191;0.7733;
1315.8000;0.3207;0.7708;
1316.1000;0.3232;0.7808;
1316.4000;0.3191;0.7708;
1316.7000;0.3199;0.7659;
1317.0000;0.3183;0.7609;
1317.3000;0.3183;0.7634;
1317.6000;0.3199;0.7708;
1317.9000;0.3175;0.7659;
1318.2000;0.3183;0.7609;
1318.5000;0.3175;0.7584;
1318.8000;0.3191;0.7584;
1319.1000;0.3199;0.7634;
1319.4000;0.3175;0.7584;
1319.7000;0.3166;0.7534;
1320.0000;0.3183;0.7659;
1320.3000;0.3175;0.7634;
1320.6000;0.3175;0.7634;
1320.9000;0.3183;0.7634;
1321.2000;0.3183;0.7609;
1321.5000;0.3199;0.7659;
1321.8000;0.3199;0.7584;
1322.1000;0.3199;0.7510;
1322.4000;0.3191;0.7634;
1322.7000;0.3232;0.7783;
1323.0000;0.3175;0.7609;
1323.3000;0.3175;0.7534;
1323.6000;0.3183;0.7634;
1323.9000;0.3191;0.7708;
1324.2000;0.3191;0.7708;
1324.5000;0.3183;0.7733;
1324.8000;0.3166;0.7659;
1325.1000;0.3199;0.7659;
1325.4000;0.3199;0.7684;
1325.7000;0.3199;0.7609;
1326.0000;0.3183;0.7584;
1326.3000;0.3199;0.7659;
1326.6000;0.3183;0.7634;
1326.9000;0.3199;0.7684;
1327.2000;0.3183;0.7609;
1327.5000;0.3166;0.7559;
1327.8000;0.3191;0.7634;
1328.1000;0.3199;0.7684;
1328.4000;0.3240;0.7833;
1328.7000;0.3142;0.7559;
1329.0000;0.3191;0.7708;
1329.3000;0.3158;0.7609;
1329.6000;0.3175;0.7659;
1329.9000;0.3191;0.7634;
1330.2000;0.3183;0.7584;
1330.5000;0.3183;0.7559;
1330.8000;0.3240;0.7634;
1331.1000;0.3207;0.7410;
1331.4000;0.3166;0.7460;
1331.7000;0.3207;0.7510;
1332.0000;0.3191;0.7460;
1332.3000;0.3183;0.7485;
1332.6000;0.3215;0.7485;
1332.9000;0.3191;0.7510;
1333.2000;0.3191;0.7534;
1333.5000;0.3223;0.7534;
1333.8000;0.3191;0.7385;
1334.1000;0.3232;0.7485;
1334.4000;0.3191;0.7435;
1334.7000;0.3199;0.7435;
1335.0000;0.3191;0.7385;
1335.3000;0.3215;0.7460;
1335.6000;0.3166;0.7360;
1335.9000;0.3183;0.7360;
1336.2000;0.3150;0.7261;
1336.5000;0.3199;0.7460;
1336.8000;0.3199;0.7460;
1337.1000;0.3191;0.7360;
1337.4000;0.3191;0.7261;
1337.7000;0.3109;0.7037;
1338.0000;0.3183;0.7087;
1338.3000;0.3183;0.7186;
1338.6000;0.3183;0.7261;
1338.9000;0.3175;0.7385;
1339.2000;0.3126;0.7137;
1339.5000;0.3183;0.7311;
1339.8000;0.3175;0.7311;
1340.1000;0.3232;0.7435;
1340.4000;0.3191;0.7335;
1340.7000;0.3199;0.7335;
1341.0000;0.3183;0.7385;
1341.3000;0.3183;0.7410;
1341.6000;0.3142;0.7360;
1341.9000;0.3183;0.7460;
1342.2000;0.3175;0.7410;
1342.5000;0.3175;0.7261;
1342.8000;0.3183;0.7360;
1343.1000;0.3199;0.7385;
1343.4000;0.3240;0.7510;
1343.7000;0.3183;0.7510;
1344.0000;0.3191;0.7559;
1344.3000;0.3191;0.7609;
1344.6000;0.3191;0.7584;
1344.9000;0.3191;0.7559;
1345.2000;0.3183;0.7534;
1345.5000;0.3207;0.7684;
1345.8000;0.3248;0.7758;
1346.1000;0.3191;0.7534;
1346.4000;0.3199;0.7510;
1346.7000;0.3215;0.7435;
1347.0000;0.3199;0.7311;
1347.3000;0.3215;0.7485;
1347.6000;0.3223;0.7435;
1347.9000;0.3142;0.7211;
1348.2000;0.3207;0.7385;
1348.5000;0.3191;0.7335;
1348.8000;0.3142;0.7236;
1349.1000;0.3199;0.7435;
1349.4000;0.3199;0.7435;
1349.7000;0.3199;0.7435;
1350.0000;0.3175;0.7286;
1350.3000;0.3191;0.7410;
1350.6000;0.3158;0.7385;
1350.9000;0.3183;0.7360;
1351.2000;0.3175;0.7385;
1351.5000;0.3175;0.7385;
1351.8000;0.3191;0.7385;
1352.1000;0.3191;0.7385;
1352.4000;0.3183;0.7360;
1352.7000;0.3175;0.7311;
1353.0000;0.3183;0.7385;
1353.3000;0.3166;0.7311;
1353.6000;0.3183;0.7335;
1353.9000;0.3215;0.7460;
1354.2000;0.3166;0.7460;
1354.5000;0.3207;0.7609;
1354.8000;0.3183;0.7584;
1355.1000;0.3183;0.7634;
1355.4000;0.3166;0.7584;
1355.7000;0.3134;0.7584;
1356.0000;0.3126;0.7584;
1356.3000;0.3183;0.7708;
1356.6000;0.3175;0.7659;
1356.9000;0.3207;0.7609;
1357.2000;0.3215;0.7559;
1357.5000;0.3199;0.7510;
1357.8000;0.3215;0.7510;
1358.1000;0.3191;0.7534;
1358.4000;0.3191;0.7534;
1358.7000;0.3191;0.7510;
1359.0000;0.3183;0.7534;
1359.3000;0.3183;0.7460;
1359.6000;0.3199;0.7485;
1359.9000;0.3199;0.7485;
1360.2000;0.3215;0.7609;
1360.5000;0.3142;0.7485;
1360.8000;0.3175;0.7510;
1361.1000;0.3158;0.7385;
1361.4000;0.3199;0.7435;
1361.7000;0.3166;0.7460;
1362.0000;0.3232;0.7609;
1362.3000;0.3207;0.7534;
1362.6000;0.3175;0.7485;
1362.9000;0.3175;0.7485;
1363.2000;0.3199;0.7609;
1363.5000;0.3175;0.7634;
1363.8000;0.3191;0.7708;
1364.1000;0.3109;0.7534;
1364.4000;0.3166;0.7684;
1364.7000;0.3175;0.7684;
1365.0000;0.3175;0.7708;
1365.3000;0.3175;0.7634;
1365.6000;0.3183;0.7634;
1365.9000;0.3191;0.7510;
1366.2000;0.3166;0.7385;
1366.5000;0.3126;0.7236;
1366.8000;0.3175;0.7360;
1367.1000;0.3175;0.7385;
1367.4000;0.3215;0.7485;
1367.7000;0.3199;0.7485;
1368.0000;0.3166;0.7385;
1368.3000;0.3183;0.7435;
1368.6000;0.3191;0.7460;
1368.9000;0.3191;0.7360;
1369.2000;0.3191;0.7211;
1369.5000;0.3158;0.7186;
1369.8000;0.3248;0.7385;
1370.1000;0.3207;0.7311;
1370.4000;0.3183;0.7261;
1370.7000;0.3207;0.7360;
1371.0000;0.3232;0.7410;
1371.3000;0.3191;0.7186;
1371.6000;0.3183;0.7335;
1371.9000;0.3118;0.7112;
1372.2000;0.3199;0.7360;
1372.5000;0.3191;0.7335;
1372.8000;0.3175;0.7385;
1373.1000;0.3183;0.7435;
1373.4000;0.3199;0.7510;
1373.7000;0.3199;0.7584;
1374.0000;0.3183;0.7634;
1374.3000;0.3158;0.7559;
1374.6000;0.3191;0.7609;
1374.9000;0.3191;0.7609;
1375.2000;0.3215;0.7659;
1375.5000;0.3183;0.7609;
1375.8000;0.3166;0.7534;
1376.1000;0.3223;0.7684;
1376.4000;0.3199;0.7684;
1376.7000;0.3191;0.7684;
1377.0000;0.3207;0.7808;
1377.3000;0.3183;0.7733;
1377.6000;0.3207;0.7733;
1377.9000;0.3158;0.7584;
1378.2000;0.3183;0.7659;
1378.5000;0.3199;0.7684;
1378.8000;0.3199;0.7758;
1379.1000;0.3183;0.7634;
1379.4000;0.3256;0.7758;
1379.7000;0.3191;0.7559;
1380.0000;0.3158;0.7460;
1380.3000;0.3207;0.7559;
1380.6000;0.3166;0.7559;
1380.9000;0.3232;0.7758;
1381.2000;0.3183;0.7634;
1381.5000;0.3191;0.7584;
1381.8000;0.3142;0.7559;
1382.1000;0.3199;0.7584;
1382.4000;0.3191;0.7659;
1382.7000;0.3175;0.7584;
1383.0000;0.3199;0.7584;
1383.3000;0.3183;0.7634;
1383.6000;0.3215;0.7634;
1383.9000;0.3183;0.7559;
1384.2000;0.3175;0.7510;
1384.5000;0.3166;0.7534;
1384.8000;0.3199;0.7584;
1385.1000;0.3191;0.7510;
1385.4000;0.3175;0.7584;
1385.7000;0.3166;0.7485;
1386.0000;0.3232;0.7659;
1386.3000;0.3183;0.7559;
1386.6000;0.3207;0.7485;
1386.9000;0.3199;0.7485;
1387.2000;0.3175;0.7460;
1387.5000;0.3183;0.7510;
1387.8000;0.3199;0.7485;
1388.1000;0.3126;0.7311;
1388.4000;0.3191;0.7435;
1388.7000;0.3175;0.7435;
1389.0000;0.3175;0.7435;
1389.3000;0.3134;0.7311;
1389.6000;0.3166;0.7460;
1389.9000;0.3199;0.7559;
1390.2000;0.3183;0.7510;
1390.5000;0.3183;0.7460;
1390.8000;0.3199;0.7360;
1391.1000;0.3199;0.7460;
1391.4000;0.3166;0.7410;
1391.7000;0.3248;0.7634;
1392.0000;0.3207;0.7584;
1392.3000;0.3215;0.7634;
1392.6000;0.3223;0.7659;
1392.9000;0.3215;0.7559;
1393.2000;0.3215;0.7584;
1393.5000;0.3199;0.7684;
1393.8000;0.3207;0.7783;
1394.1000;0.3183;0.7659;
1394.4000;0.3207;0.7833;
1394.7000;0.3158;0.7708;
1395.0000;0.3175;0.7758;
1395.3000;0.3191;0.7708;
1395.6000;0.3166;0.7510;
1395.9000;0.3207;0.7609;
1396.2000;0.3207;0.7609;
1396.5000;0.3199;0.7659;
1396.8000;0.3166;0.7609;
1397.1000;0.3150;0.7584;
1397.4000;0.3175;0.7584;
1397.7000;0.3248;0.7783;
1398.0000;0.3207;0.7684;
1398.3000;0.3223;0.7783;
1398.6000;0.3175;0.7708;
1398.9000;0.3191;0.7783;
1399.2000;0.3199;0.7833;
1399.5000;0.3183;0.7659;
1399.8000;0.3166;0.7609;
