time/ms;Fluo/V;P700 deltaI/I x10³;
-199.8000;0.3329;0.7435;
-199.5000;0.3329;0.7460;
-199.2000;0.3313;0.7385;
-198.9000;0.3329;0.7385;
-198.6000;0.3321;0.7559;
-198.3000;0.3329;0.7534;
-198.0000;0.3337;0.7634;
-197.7000;0.3329;0.7559;
-197.4000;0.3313;0.7634;
-197.1000;0.3313;0.7684;
-196.8000;0.3329;0.7609;
-196.5000;0.3321;0.7584;
-196.2000;0.3329;0.7659;
-195.9000;0.3337;0.7634;
-195.6000;0.3313;0.7659;
-195.3000;0.3321;0.7609;
-195.0000;0.3321;0.7659;
-194.7000;0.3321;0.7684;
-194.4000;0.3313;0.7684;
-194.1000;0.3305;0.7634;
-193.8000;0.3305;0.7659;
-193.5000;0.3313;0.7659;
-193.2000;0.3313;0.7659;
-192.9000;0.3313;0.7684;
-192.6000;0.3313;0.7609;
-192.3000;0.3313;0.7609;
-192.0000;0.3329;0.7659;
-191.7000;0.3321;0.7559;
-191.4000;0.3329;0.7634;
-191.1000;0.3329;0.7609;
-190.8000;0.3329;0.7584;
-190.5000;0.3321;0.7609;
-190.2000;0.3337;0.7659;
-189.9000;0.3346;0.7609;
-189.6000;0.3313;0.7609;
-189.3000;0.3297;0.7460;
-189.0000;0.3313;0.7534;
-188.7000;0.3321;0.7584;
-188.4000;0.3321;0.7609;
-188.1000;0.3329;0.7609;
-187.8000;0.3313;0.7659;
-187.5000;0.3321;0.7659;
-187.2000;0.3329;0.7708;
-186.9000;0.3313;0.7634;
-186.6000;0.3313;0.7708;
-186.3000;0.3272;0.7559;
-186.0000;0.3329;0.7634;
-185.7000;0.3321;0.7634;
-185.4000;0.3313;0.7609;
-185.1000;0.3370;0.7883;
-184.8000;0.3329;0.7783;
-184.5000;0.3313;0.7758;
-184.2000;0.3280;0.7634;
-183.9000;0.3329;0.7783;
-183.6000;0.3313;0.7808;
-183.3000;0.3313;0.7783;
-183.0000;0.3305;0.7733;
-182.7000;0.3321;0.7758;
-182.4000;0.3305;0.7708;
-182.1000;0.3321;0.7783;
-181.8000;0.3329;0.7833;
-181.5000;0.3362;0.7758;
-181.2000;0.3313;0.7584;
-180.9000;0.3337;0.7659;
-180.6000;0.3337;0.7609;
-180.3000;0.3346;0.7684;
-180.0000;0.3329;0.7659;
-179.7000;0.3329;0.7609;
-179.4000;0.3329;0.7659;
-179.1000;0.3305;0.7634;
-178.8000;0.3289;0.7584;
-178.5000;0.3337;0.7609;
-178.2000;0.3337;0.7609;
-177.9000;0.3329;0.7534;
-177.6000;0.3321;0.7510;
-177.3000;0.3321;0.7510;
-177.0000;0.3329;0.7584;
-176.7000;0.3329;0.7584;
-176.4000;0.3329;0.7510;
-176.1000;0.3321;0.7559;
-175.8000;0.3329;0.7584;
-175.5000;0.3329;0.7460;
-175.2000;0.3313;0.7435;
-174.9000;0.3337;0.7385;
-174.6000;0.3321;0.7435;
-174.3000;0.3321;0.7485;
-174.0000;0.3313;0.7385;
-173.7000;0.3329;0.7360;
-173.4000;0.3329;0.7410;
-173.1000;0.3329;0.7485;
-172.8000;0.3313;0.7534;
-172.5000;0.3289;0.7510;
-172.2000;0.3321;0.7659;
-171.9000;0.3337;0.7758;
-171.6000;0.3346;0.7758;
-171.3000;0.3297;0.7659;
-171.0000;0.3321;0.7783;
-170.7000;0.3313;0.7808;
-170.4000;0.3256;0.7659;
-170.1000;0.3297;0.7684;
-169.8000;0.3297;0.7708;
-169.5000;0.3297;0.7609;
-169.2000;0.3313;0.7659;
-168.9000;0.3411;0.7907;
-168.6000;0.3313;0.7609;
-168.3000;0.3337;0.7684;
-168.0000;0.3321;0.7659;
-167.7000;0.3313;0.7684;
-167.4000;0.3321;0.7708;
-167.1000;0.3313;0.7684;
-166.8000;0.3289;0.7609;
-166.5000;0.3329;0.7684;
-166.2000;0.3329;0.7708;
-165.9000;0.3321;0.7708;
-165.6000;0.3329;0.7634;
-165.3000;0.3394;0.7733;
-165.0000;0.3313;0.7435;
-164.7000;0.3321;0.7460;
-164.4000;0.3329;0.7559;
-164.1000;0.3305;0.7559;
-163.8000;0.3329;0.7609;
-163.5000;0.3313;0.7659;
-163.2000;0.3329;0.7783;
-162.9000;0.3329;0.7883;
-162.6000;0.3305;0.7758;
-162.3000;0.3329;0.7684;
-162.0000;0.3321;0.7659;
-161.7000;0.3321;0.7684;
-161.4000;0.3346;0.7783;
-161.1000;0.3313;0.7659;
-160.8000;0.3337;0.7758;
-160.5000;0.3313;0.7708;
-160.2000;0.3329;0.7659;
-159.9000;0.3313;0.7609;
-159.6000;0.3321;0.7534;
-159.3000;0.3305;0.7510;
-159.0000;0.3394;0.7659;
-158.7000;0.3313;0.7460;
-158.4000;0.3313;0.7460;
-158.1000;0.3329;0.7485;
-157.8000;0.3289;0.7385;
-157.5000;0.3313;0.7510;
-157.2000;0.3313;0.7559;
-156.9000;0.3337;0.7733;
-156.6000;0.3313;0.7708;
-156.3000;0.3313;0.7659;
-156.0000;0.3346;0.7708;
-155.7000;0.3329;0.7584;
-155.4000;0.3329;0.7559;
-155.1000;0.3321;0.7584;
-154.8000;0.3313;0.7534;
-154.5000;0.3313;0.7534;
-154.2000;0.3305;0.7534;
-153.9000;0.3329;0.7510;
-153.6000;0.3280;0.7335;
-153.3000;0.3337;0.7510;
-153.0000;0.3272;0.7435;
-152.7000;0.3337;0.7559;
-152.4000;0.3321;0.7634;
-152.1000;0.3346;0.7634;
-151.8000;0.3337;0.7634;
-151.5000;0.3264;0.7410;
-151.2000;0.3313;0.7609;
-150.9000;0.3321;0.7584;
-150.6000;0.3289;0.7460;
-150.3000;0.3321;0.7510;
-150.0000;0.3313;0.7460;
-149.7000;0.3321;0.7460;
-149.4000;0.3329;0.7435;
-149.1000;0.3329;0.7410;
-148.8000;0.3313;0.7385;
-148.5000;0.3370;0.7609;
-148.2000;0.3337;0.7609;
-147.9000;0.3280;0.7534;
-147.6000;0.3337;0.7659;
-147.3000;0.3313;0.7659;
-147.0000;0.3232;0.7460;
-146.7000;0.3337;0.7609;
-146.4000;0.3313;0.7584;
-146.1000;0.3337;0.7609;
-145.8000;0.3313;0.7634;
-145.5000;0.3362;0.7659;
-145.2000;0.3313;0.7584;
-144.9000;0.3329;0.7584;
-144.6000;0.3313;0.7485;
-144.3000;0.3289;0.7485;
-144.0000;0.3297;0.7435;
-143.7000;0.3305;0.7435;
-143.4000;0.3313;0.7435;
-143.1000;0.3289;0.7385;
-142.8000;0.3264;0.7360;
-142.5000;0.3313;0.7360;
-142.2000;0.3313;0.7435;
-141.9000;0.3256;0.7261;
-141.6000;0.3329;0.7485;
-141.3000;0.3297;0.7410;
-141.0000;0.3362;0.7460;
-140.7000;0.3313;0.7360;
-140.4000;0.3297;0.7311;
-140.1000;0.3329;0.7410;
-139.8000;0.3305;0.7360;
-139.5000;0.3297;0.7286;
-139.2000;0.3321;0.7335;
-138.9000;0.3329;0.7410;
-138.6000;0.3305;0.7261;
-138.3000;0.3321;0.7335;
-138.0000;0.3362;0.7534;
-137.7000;0.3305;0.7360;
-137.4000;0.3329;0.7410;
-137.1000;0.3321;0.7485;
-136.8000;0.3313;0.7435;
-136.5000;0.3321;0.7410;
-136.2000;0.3337;0.7435;
-135.9000;0.3329;0.7360;
-135.6000;0.3313;0.7360;
-135.3000;0.3297;0.7410;
-135.0000;0.3362;0.7584;
-134.7000;0.3297;0.7385;
-134.4000;0.3321;0.7460;
-134.1000;0.3321;0.7584;
-133.8000;0.3346;0.7485;
-133.5000;0.3321;0.7485;
-133.2000;0.3297;0.7385;
-132.9000;0.3354;0.7485;
-132.6000;0.3329;0.7485;
-132.3000;0.3321;0.7510;
-132.0000;0.3346;0.7634;
-131.7000;0.3321;0.7609;
-131.4000;0.3370;0.7833;
-131.1000;0.3321;0.7758;
-130.8000;0.3297;0.7758;
-130.5000;0.3280;0.7684;
-130.2000;0.3313;0.7659;
-129.9000;0.3329;0.7684;
-129.6000;0.3305;0.7659;
-129.3000;0.3305;0.7584;
-129.0000;0.3305;0.7559;
-128.7000;0.3354;0.7634;
-128.4000;0.3337;0.7485;
-128.1000;0.3337;0.7485;
-127.8000;0.3329;0.7435;
-127.5000;0.3346;0.7534;
-127.2000;0.3305;0.7485;
-126.9000;0.3329;0.7609;
-126.6000;0.3354;0.7684;
-126.3000;0.3321;0.7634;
-126.0000;0.3321;0.7733;
-125.7000;0.3321;0.7758;
-125.4000;0.3313;0.7684;
-125.1000;0.3329;0.7684;
-124.8000;0.3354;0.7684;
-124.5000;0.3313;0.7609;
-124.2000;0.3313;0.7609;
-123.9000;0.3289;0.7584;
-123.6000;0.3313;0.7659;
-123.3000;0.3411;0.7858;
-123.0000;0.3329;0.7708;
-122.7000;0.3305;0.7758;
-122.4000;0.3321;0.7659;
-122.1000;0.3313;0.7609;
-121.8000;0.3346;0.7684;
-121.5000;0.3313;0.7659;
-121.2000;0.3313;0.7659;
-120.9000;0.3370;0.7758;
-120.6000;0.3337;0.7584;
-120.3000;0.3305;0.7510;
-120.0000;0.3199;0.7360;
-119.7000;0.3313;0.7708;
-119.4000;0.3321;0.7708;
-119.1000;0.3313;0.7684;
-118.8000;0.3305;0.7609;
-118.5000;0.3313;0.7659;
-118.2000;0.3297;0.7534;
-117.9000;0.3321;0.7510;
-117.6000;0.3321;0.7559;
-117.3000;0.3346;0.7609;
-117.0000;0.3321;0.7534;
-116.7000;0.3313;0.7510;
-116.4000;0.3329;0.7534;
-116.1000;0.3321;0.7584;
-115.8000;0.3329;0.7584;
-115.5000;0.3305;0.7485;
-115.2000;0.3321;0.7510;
-114.9000;0.3321;0.7485;
-114.6000;0.3346;0.7609;
-114.3000;0.3313;0.7485;
-114.0000;0.3321;0.7460;
-113.7000;0.3329;0.7460;
-113.4000;0.3329;0.7435;
-113.1000;0.3321;0.7410;
-112.8000;0.3297;0.7385;
-112.5000;0.3305;0.7460;
-112.2000;0.3337;0.7584;
-111.9000;0.3321;0.7634;
-111.6000;0.3313;0.7584;
-111.3000;0.3313;0.7510;
-111.0000;0.3321;0.7485;
-110.7000;0.3313;0.7510;
-110.4000;0.3321;0.7485;
-110.1000;0.3321;0.7559;
-109.8000;0.3321;0.7584;
-109.5000;0.3329;0.7584;
-109.2000;0.3305;0.7684;
-108.9000;0.3305;0.7758;
-108.6000;0.3337;0.7833;
-108.3000;0.3313;0.7808;
-108.0000;0.3305;0.7808;
-107.7000;0.3337;0.7907;
-107.4000;0.3305;0.7733;
-107.1000;0.3313;0.7684;
-106.8000;0.3329;0.7659;
-106.5000;0.3329;0.7609;
-106.2000;0.3321;0.7634;
-105.9000;0.3321;0.7584;
-105.6000;0.3256;0.7410;
-105.3000;0.3329;0.7584;
-105.0000;0.3313;0.7584;
-104.7000;0.3321;0.7510;
-104.4000;0.3305;0.7485;
-104.1000;0.3329;0.7534;
-103.8000;0.3313;0.7534;
-103.5000;0.3313;0.7559;
-103.2000;0.3321;0.7609;
-102.9000;0.3272;0.7485;
-102.6000;0.3313;0.7510;
-102.3000;0.3321;0.7510;
-102.0000;0.3329;0.7534;
-101.7000;0.3329;0.7584;
-101.4000;0.3337;0.7584;
-101.1000;0.3346;0.7559;
-100.8000;0.3329;0.7584;
-100.5000;0.3321;0.7559;
-100.2000;0.3305;0.7559;
-99.9000;0.3321;0.7559;
-99.6000;0.3313;0.7584;
-99.3000;0.3305;0.7634;
-99.0000;0.3313;0.7733;
-98.7000;0.3297;0.7783;
-98.4000;0.3329;0.7808;
-98.1000;0.3329;0.7733;
-97.8000;0.3305;0.7684;
-97.5000;0.3297;0.7634;
-97.2000;0.3329;0.7833;
-96.9000;0.3305;0.7758;
-96.6000;0.3305;0.7634;
-96.3000;0.3313;0.7559;
-96.0000;0.3337;0.7559;
-95.7000;0.3297;0.7510;
-95.4000;0.3329;0.7609;
-95.1000;0.3329;0.7559;
-94.8000;0.3321;0.7559;
-94.5000;0.3346;0.7485;
-94.2000;0.3321;0.7485;
-93.9000;0.3289;0.7410;
-93.6000;0.3297;0.7410;
-93.3000;0.3329;0.7510;
-93.0000;0.3321;0.7485;
-92.7000;0.3321;0.7559;
-92.4000;0.3313;0.7534;
-92.1000;0.3313;0.7460;
-91.8000;0.3403;0.7733;
-91.5000;0.3337;0.7559;
-91.2000;0.3313;0.7559;
-90.9000;0.3329;0.7659;
-90.6000;0.3329;0.7684;
-90.3000;0.3305;0.7559;
-90.0000;0.3305;0.7534;
-89.7000;0.3289;0.7410;
-89.4000;0.3321;0.7460;
-89.1000;0.3329;0.7435;
-88.8000;0.3313;0.7410;
-88.5000;0.3346;0.7485;
-88.2000;0.3337;0.7510;
-87.9000;0.3321;0.7534;
-87.6000;0.3329;0.7485;
-87.3000;0.3313;0.7435;
-87.0000;0.3305;0.7460;
-86.7000;0.3370;0.7534;
-86.4000;0.3305;0.7485;
-86.1000;0.3289;0.7510;
-85.8000;0.3313;0.7609;
-85.5000;0.3289;0.7609;
-85.2000;0.3313;0.7684;
-84.9000;0.3313;0.7684;
-84.6000;0.3297;0.7659;
-84.3000;0.3321;0.7684;
-84.0000;0.3329;0.7684;
-83.7000;0.3297;0.7534;
-83.4000;0.3337;0.7609;
-83.1000;0.3313;0.7485;
-82.8000;0.3305;0.7485;
-82.5000;0.3305;0.7634;
-82.2000;0.3305;0.7609;
-81.9000;0.3329;0.7609;
-81.6000;0.3329;0.7534;
-81.3000;0.3386;0.7534;
-81.0000;0.3321;0.7286;
-80.7000;0.3329;0.7236;
-80.4000;0.3329;0.7211;
-80.1000;0.3321;0.7211;
-79.8000;0.3313;0.7261;
-79.5000;0.3289;0.7236;
-79.2000;0.3346;0.7360;
-78.9000;0.3321;0.7360;
-78.6000;0.3305;0.7286;
-78.3000;0.3329;0.7236;
-78.0000;0.3321;0.7311;
-77.7000;0.3321;0.7286;
-77.4000;0.3321;0.7211;
-77.1000;0.3313;0.7311;
-76.8000;0.3346;0.7410;
-76.5000;0.3329;0.7435;
-76.2000;0.3329;0.7485;
-75.9000;0.3313;0.7485;
-75.6000;0.3321;0.7534;
-75.3000;0.3337;0.7609;
-75.0000;0.3321;0.7684;
-74.7000;0.3329;0.7584;
-74.4000;0.3329;0.7559;
-74.1000;0.3313;0.7534;
-73.8000;0.3313;0.7534;
-73.5000;0.3313;0.7460;
-73.2000;0.3305;0.7435;
-72.9000;0.3419;0.7733;
-72.6000;0.3337;0.7485;
-72.3000;0.3394;0.7708;
-72.0000;0.3305;0.7584;
-71.7000;0.3321;0.7609;
-71.4000;0.3337;0.7659;
-71.1000;0.3321;0.7609;
-70.8000;0.3321;0.7584;
-70.5000;0.3321;0.7609;
-70.2000;0.3354;0.7708;
-69.9000;0.3313;0.7609;
-69.6000;0.3329;0.7684;
-69.3000;0.3321;0.7684;
-69.0000;0.3280;0.7559;
-68.7000;0.3321;0.7634;
-68.4000;0.3321;0.7609;
-68.1000;0.3272;0.7485;
-67.8000;0.3329;0.7584;
-67.5000;0.3354;0.7460;
-67.2000;0.3264;0.7236;
-66.9000;0.3321;0.7460;
-66.6000;0.3346;0.7534;
-66.3000;0.3337;0.7559;
-66.0000;0.3337;0.7609;
-65.7000;0.3329;0.7510;
-65.4000;0.3329;0.7385;
-65.1000;0.3346;0.7311;
-64.8000;0.3321;0.7261;
-64.5000;0.3313;0.7360;
-64.2000;0.3305;0.7485;
-63.9000;0.3321;0.7460;
-63.6000;0.3305;0.7485;
-63.3000;0.3305;0.7510;
-63.0000;0.3305;0.7460;
-62.7000;0.3321;0.7534;
-62.4000;0.3321;0.7485;
-62.1000;0.3313;0.7460;
-61.8000;0.3305;0.7460;
-61.5000;0.3354;0.7534;
-61.2000;0.3313;0.7435;
-60.9000;0.3313;0.7410;
-60.6000;0.3272;0.7360;
-60.3000;0.3321;0.7584;
-60.0000;0.3321;0.7559;
-59.7000;0.3321;0.7510;
-59.4000;0.3346;0.7534;
-59.1000;0.3329;0.7460;
-58.8000;0.3321;0.7410;
-58.5000;0.3329;0.7385;
-58.2000;0.3321;0.7236;
-57.9000;0.3321;0.7236;
-57.6000;0.3313;0.7360;
-57.3000;0.3329;0.7485;
-57.0000;0.3297;0.7485;
-56.7000;0.3337;0.7559;
-56.4000;0.3329;0.7559;
-56.1000;0.3329;0.7584;
-55.8000;0.3313;0.7559;
-55.5000;0.3321;0.7584;
-55.2000;0.3321;0.7659;
-54.9000;0.3321;0.7634;
-54.6000;0.3313;0.7534;
-54.3000;0.3313;0.7584;
-54.0000;0.3337;0.7559;
-53.7000;0.3346;0.7485;
-53.4000;0.3264;0.7311;
-53.1000;0.3305;0.7385;
-52.8000;0.3321;0.7460;
-52.5000;0.3337;0.7460;
-52.2000;0.3346;0.7460;
-51.9000;0.3321;0.7335;
-51.6000;0.3329;0.7360;
-51.3000;0.3248;0.7112;
-51.0000;0.3337;0.7286;
-50.7000;0.3313;0.7335;
-50.4000;0.3354;0.7510;
-50.1000;0.3329;0.7435;
-49.8000;0.3305;0.7410;
-49.5000;0.3362;0.7534;
-49.2000;0.3321;0.7460;
-48.9000;0.3329;0.7534;
-48.6000;0.3313;0.7435;
-48.3000;0.3305;0.7360;
-48.0000;0.3313;0.7335;
-47.7000;0.3321;0.7311;
-47.4000;0.3337;0.7410;
-47.1000;0.3305;0.7360;
-46.8000;0.3329;0.7485;
-46.5000;0.3313;0.7559;
-46.2000;0.3313;0.7584;
-45.9000;0.3321;0.7485;
-45.6000;0.3321;0.7460;
-45.3000;0.3329;0.7360;
-45.0000;0.3329;0.7435;
-44.7000;0.3370;0.7534;
-44.4000;0.3321;0.7385;
-44.1000;0.3313;0.7410;
-43.8000;0.3321;0.7460;
-43.5000;0.3346;0.7485;
-43.2000;0.3321;0.7460;
-42.9000;0.3337;0.7460;
-42.6000;0.3313;0.7385;
-42.3000;0.3329;0.7435;
-42.0000;0.3289;0.7286;
-41.7000;0.3321;0.7435;
-41.4000;0.3321;0.7410;
-41.1000;0.3329;0.7510;
-40.8000;0.3305;0.7460;
-40.5000;0.3329;0.7510;
-40.2000;0.3329;0.7609;
-39.9000;0.3337;0.7584;
-39.6000;0.3329;0.7534;
-39.3000;0.3329;0.7460;
-39.0000;0.3264;0.7311;
-38.7000;0.3386;0.7609;
-38.4000;0.3321;0.7360;
-38.1000;0.3321;0.7286;
-37.8000;0.3313;0.7236;
-37.5000;0.3305;0.7236;
-37.2000;0.3321;0.7385;
-36.9000;0.3337;0.7460;
-36.6000;0.3305;0.7360;
-36.3000;0.3337;0.7460;
-36.0000;0.3329;0.7534;
-35.7000;0.3305;0.7485;
-35.4000;0.3289;0.7311;
-35.1000;0.3321;0.7360;
-34.8000;0.3313;0.7335;
-34.5000;0.3329;0.7360;
-34.2000;0.3305;0.7410;
-33.9000;0.3313;0.7335;
-33.6000;0.3337;0.7261;
-33.3000;0.3329;0.7211;
-33.0000;0.3337;0.7311;
-32.7000;0.3305;0.7311;
-32.4000;0.3378;0.7659;
-32.1000;0.3329;0.7485;
-31.8000;0.3346;0.7510;
-31.5000;0.3329;0.7460;
-31.2000;0.3354;0.7609;
-30.9000;0.3354;0.7609;
-30.6000;0.3329;0.7460;
-30.3000;0.3297;0.7360;
-30.0000;0.3313;0.7460;
-29.7000;0.3321;0.7559;
-29.4000;0.3321;0.7634;
-29.1000;0.3321;0.7559;
-28.8000;0.3386;0.7659;
-28.5000;0.3329;0.7534;
-28.2000;0.3313;0.7534;
-27.9000;0.3305;0.7485;
-27.6000;0.3305;0.7534;
-27.3000;0.3313;0.7534;
-27.0000;0.3305;0.7634;
-26.7000;0.3305;0.7609;
-26.4000;0.3378;0.7758;
-26.1000;0.3321;0.7634;
-25.8000;0.3264;0.7435;
-25.5000;0.3321;0.7584;
-25.2000;0.3305;0.7485;
-24.9000;0.3337;0.7584;
-24.6000;0.3337;0.7634;
-24.3000;0.3321;0.7609;
-24.0000;0.3337;0.7684;
-23.7000;0.3305;0.7559;
-23.4000;0.3321;0.7559;
-23.1000;0.3313;0.7659;
-22.8000;0.3305;0.7634;
-22.5000;0.3329;0.7708;
-22.2000;0.3305;0.7684;
-21.9000;0.3370;0.7932;
-21.6000;0.3321;0.7808;
-21.3000;0.3321;0.7783;
-21.0000;0.3321;0.7733;
-20.7000;0.3378;0.7957;
-20.4000;0.3329;0.7858;
-20.1000;0.3378;0.7957;
-19.8000;0.3280;0.7659;
-19.5000;0.3280;0.7684;
-19.2000;0.3313;0.7733;
-18.9000;0.3337;0.7758;
-18.6000;0.3305;0.7559;
-18.3000;0.3329;0.7659;
-18.0000;0.3248;0.7410;
-17.7000;0.3280;0.7534;
-17.4000;0.3305;0.7584;
-17.1000;0.3321;0.7634;
-16.8000;0.3321;0.7659;
-16.5000;0.3305;0.7559;
-16.2000;0.3297;0.7584;
-15.9000;0.3313;0.7559;
-15.6000;0.3337;0.7684;
-15.3000;0.3297;0.7534;
-15.0000;0.3313;0.7460;
-14.7000;0.3346;0.7584;
-14.4000;0.3297;0.7410;
-14.1000;0.3321;0.7435;
-13.8000;0.3313;0.7385;
-13.5000;0.3362;0.7534;
-13.2000;0.3346;0.7559;
-12.9000;0.3321;0.7559;
-12.6000;0.3346;0.7559;
-12.3000;0.3321;0.7485;
-12.0000;0.3329;0.7460;
-11.7000;0.3337;0.7460;
-11.4000;0.3313;0.7435;
-11.1000;0.3297;0.7410;
-10.8000;0.3321;0.7510;
-10.5000;0.3346;0.7510;
-10.2000;0.3346;0.7534;
-9.9000;0.3329;0.7510;
-9.6000;0.3321;0.7435;
-9.3000;0.3321;0.7510;
-9.0000;0.3321;0.7510;
-8.7000;0.3272;0.7410;
-8.4000;0.3297;0.7410;
-8.1000;0.3321;0.7435;
-7.8000;0.3313;0.7286;
-7.5000;0.3305;0.7211;
-7.2000;0.3321;0.7261;
-6.9000;0.3305;0.7335;
-6.6000;0.3313;0.7435;
-6.3000;0.3313;0.7360;
-6.0000;0.3305;0.7311;
-5.7000;0.3313;0.7385;
-5.4000;0.3321;0.7385;
-5.1000;0.3321;0.7335;
-4.8000;0.3346;0.7410;
-4.5000;0.3394;0.7460;
-4.2000;0.3329;0.7385;
-3.9000;0.3337;0.7410;
-3.6000;0.3346;0.7360;
-3.3000;0.3313;0.7286;
-3.0000;0.3313;0.7335;
-2.7000;0.3313;0.7385;
-2.4000;0.3370;0.7510;
-2.1000;0.3321;0.7410;
-1.8000;0.3297;0.7360;
-1.5000;0.3321;0.7335;
-1.2000;0.3321;0.7410;
-0.9000;0.3321;0.7410;
-0.6000;0.3329;0.7534;
-0.3000;0.3346;0.7534;
0.0000;0.3346;0.7534;
0.3000;0.3451;0.7510;
0.6000;0.3606;0.7708;
0.9000;0.3769;0.8081;
1.2000;0.3867;0.8454;
1.5000;0.3997;0.8977;
1.8000;0.4021;0.9101;
2.1000;0.4086;0.9449;
2.4000;0.4135;0.9698;
2.7000;0.4143;0.9797;
3.0000;0.4184;0.9971;
3.3000;0.4217;1.0096;
3.6000;0.4233;1.0195;
3.9000;0.4233;1.0245;
4.2000;0.4184;1.0046;
4.5000;0.4265;1.0295;
4.8000;0.4306;1.0295;
5.1000;0.4420;1.0568;
5.4000;0.4322;1.0295;
5.7000;0.4347;1.0319;
6.0000;0.4330;1.0295;
6.3000;0.4330;1.0295;
6.6000;0.4379;1.0469;
6.9000;0.4387;1.0568;
7.2000;0.4363;1.0543;
7.5000;0.4363;1.0568;
7.8000;0.4347;1.0593;
8.1000;0.4339;1.0543;
8.4000;0.4339;1.0593;
8.7000;0.4396;1.0717;
9.0000;0.4396;1.0643;
9.3000;0.4428;1.0643;
9.6000;0.4436;1.0618;
9.9000;0.4493;1.0717;
10.2000;0.4420;1.0493;
10.5000;0.4428;1.0469;
10.8000;0.4436;1.0419;
11.1000;0.4444;1.0419;
11.4000;0.4436;1.0444;
11.7000;0.4428;1.0369;
12.0000;0.4453;1.0419;
12.3000;0.4477;1.0444;
12.6000;0.4461;1.0444;
12.9000;0.4477;1.0419;
13.2000;0.4501;1.0444;
13.5000;0.4501;1.0319;
13.8000;0.4518;1.0444;
14.1000;0.4510;1.0444;
14.4000;0.4510;1.0394;
14.7000;0.4485;1.0245;
15.0000;0.4534;1.0319;
15.3000;0.4518;1.0220;
15.6000;0.4518;1.0220;
15.9000;0.4558;1.0319;
16.2000;0.4567;1.0344;
16.5000;0.4518;1.0145;
16.8000;0.4567;1.0270;
17.1000;0.4575;1.0344;
17.4000;0.4599;1.0394;
17.7000;0.4534;1.0245;
18.0000;0.4550;1.0245;
18.3000;0.4607;1.0444;
18.6000;0.4607;1.0419;
18.9000;0.4607;1.0295;
19.2000;0.4591;1.0120;
19.5000;0.4583;1.0046;
19.8000;0.4591;1.0145;
20.1000;0.4583;1.0170;
20.4000;0.4599;1.0245;
20.7000;0.4599;1.0295;
21.0000;0.4607;1.0245;
21.3000;0.4575;1.0195;
21.6000;0.4607;1.0270;
21.9000;0.4607;1.0170;
22.2000;0.4632;1.0145;
22.5000;0.4615;1.0195;
22.8000;0.4615;1.0145;
23.1000;0.4624;1.0170;
23.4000;0.4632;1.0120;
23.7000;0.4632;1.0096;
24.0000;0.4624;1.0120;
24.3000;0.4632;1.0145;
24.6000;0.4648;1.0071;
24.9000;0.4624;1.0021;
25.2000;0.4640;1.0071;
25.5000;0.4648;1.0046;
25.8000;0.4648;1.0046;
26.1000;0.4648;1.0046;
26.4000;0.4648;1.0071;
26.7000;0.4640;1.0145;
27.0000;0.4648;1.0145;
27.3000;0.4648;1.0195;
27.6000;0.4640;1.0170;
27.9000;0.4672;1.0170;
28.2000;0.4656;1.0046;
28.5000;0.4656;1.0021;
28.8000;0.4672;1.0071;
29.1000;0.4672;1.0046;
29.4000;0.4762;1.0220;
29.7000;0.4672;0.9996;
30.0000;0.4681;0.9971;
30.3000;0.4689;0.9922;
30.6000;0.4681;0.9897;
30.9000;0.4640;0.9847;
31.2000;0.4672;0.9872;
31.5000;0.4681;0.9897;
31.8000;0.4681;0.9822;
32.1000;0.4672;0.9897;
32.4000;0.4713;0.9996;
32.7000;0.4689;0.9996;
33.0000;0.4697;1.0096;
33.3000;0.4689;1.0071;
33.6000;0.4681;1.0046;
33.9000;0.4705;1.0046;
34.2000;0.4705;1.0120;
34.5000;0.4705;1.0046;
34.8000;0.4713;1.0046;
35.1000;0.4713;1.0145;
35.4000;0.4689;1.0046;
35.7000;0.4697;0.9996;
36.0000;0.4713;0.9971;
36.3000;0.4713;0.9971;
36.6000;0.4737;0.9996;
36.9000;0.4713;0.9946;
37.2000;0.4705;0.9946;
37.5000;0.4697;0.9847;
37.8000;0.4705;0.9897;
38.1000;0.4737;0.9971;
38.4000;0.4697;0.9922;
38.7000;0.4746;0.9996;
39.0000;0.4713;0.9946;
39.3000;0.4729;0.9847;
39.6000;0.4713;0.9772;
39.9000;0.4737;0.9772;
40.2000;0.4729;0.9847;
40.5000;0.4762;0.9922;
40.8000;0.4721;0.9797;
41.1000;0.4737;0.9872;
41.4000;0.4729;0.9897;
41.7000;0.4762;0.9897;
42.0000;0.4729;0.9772;
42.3000;0.4672;0.9648;
42.6000;0.4705;0.9847;
42.9000;0.4746;0.9897;
43.2000;0.4737;0.9922;
43.5000;0.4729;0.9797;
43.8000;0.4762;0.9847;
44.1000;0.4746;0.9847;
44.4000;0.4746;0.9897;
44.7000;0.4762;0.9971;
45.0000;0.4762;0.9971;
45.3000;0.4770;0.9971;
45.6000;0.4762;0.9946;
45.9000;0.4770;0.9922;
46.2000;0.4770;0.9996;
46.5000;0.4803;1.0195;
46.8000;0.4762;1.0046;
47.1000;0.4770;0.9971;
47.4000;0.4770;0.9971;
47.7000;0.4762;0.9971;
48.0000;0.4770;0.9971;
48.3000;0.4770;0.9872;
48.6000;0.4770;0.9847;
48.9000;0.4762;0.9872;
49.2000;0.4778;0.9922;
49.5000;0.4786;0.9872;
49.8000;0.4786;0.9822;
50.1000;0.4786;0.9772;
50.4000;0.4803;0.9723;
50.7000;0.4770;0.9598;
51.0000;0.4754;0.9549;
51.3000;0.4786;0.9648;
51.6000;0.4778;0.9772;
51.9000;0.4786;0.9822;
52.2000;0.4786;0.9797;
52.5000;0.4770;0.9797;
52.8000;0.4786;0.9797;
53.1000;0.4811;0.9946;
53.4000;0.4794;0.9872;
53.7000;0.4786;0.9822;
54.0000;0.4737;0.9648;
54.3000;0.4803;0.9822;
54.6000;0.4803;0.9847;
54.9000;0.4794;0.9922;
55.2000;0.4811;0.9922;
55.5000;0.4762;0.9748;
55.8000;0.4786;0.9822;
56.1000;0.4794;0.9872;
56.4000;0.4737;0.9748;
56.7000;0.4803;0.9847;
57.0000;0.4811;0.9847;
57.3000;0.4794;0.9748;
57.6000;0.4843;0.9872;
57.9000;0.4794;0.9772;
58.2000;0.4827;0.9822;
58.5000;0.4746;0.9648;
58.8000;0.4811;0.9822;
59.1000;0.4819;0.9748;
59.4000;0.4884;0.9897;
59.7000;0.4835;0.9723;
60.0000;0.4835;0.9723;
60.3000;0.4827;0.9673;
60.6000;0.4835;0.9623;
60.9000;0.4851;0.9723;
61.2000;0.4860;0.9748;
61.5000;0.4819;0.9772;
61.8000;0.4851;0.9847;
62.1000;0.4843;0.9772;
62.4000;0.4835;0.9723;
62.7000;0.4803;0.9648;
63.0000;0.4851;0.9673;
63.3000;0.4876;0.9748;
63.6000;0.4851;0.9673;
63.9000;0.4843;0.9549;
64.2000;0.4811;0.9549;
64.5000;0.4908;0.9822;
64.8000;0.4851;0.9748;
65.1000;0.4843;0.9698;
65.4000;0.4835;0.9648;
65.7000;0.4860;0.9698;
66.0000;0.4949;1.0046;
66.3000;0.4843;0.9797;
66.6000;0.4851;0.9748;
66.9000;0.4851;0.9723;
67.2000;0.4843;0.9748;
67.5000;0.4851;0.9822;
67.8000;0.4835;0.9772;
68.1000;0.4786;0.9673;
68.4000;0.4843;0.9772;
68.7000;0.4860;0.9772;
69.0000;0.4876;0.9797;
69.3000;0.4957;1.0071;
69.6000;0.4851;0.9723;
69.9000;0.4908;0.9822;
70.2000;0.4851;0.9648;
70.5000;0.4868;0.9723;
70.8000;0.4868;0.9673;
71.1000;0.4876;0.9623;
71.4000;0.4860;0.9573;
71.7000;0.4851;0.9524;
72.0000;0.4860;0.9424;
72.3000;0.4794;0.9275;
72.6000;0.4884;0.9474;
72.9000;0.4876;0.9499;
73.2000;0.4908;0.9549;
73.5000;0.4868;0.9375;
73.8000;0.4876;0.9325;
74.1000;0.4868;0.9325;
74.4000;0.4884;0.9399;
74.7000;0.4892;0.9524;
75.0000;0.4892;0.9474;
75.3000;0.4860;0.9399;
75.6000;0.4892;0.9524;
75.9000;0.4892;0.9499;
76.2000;0.4884;0.9598;
76.5000;0.4884;0.9648;
76.8000;0.4892;0.9598;
77.1000;0.4819;0.9375;
77.4000;0.4900;0.9499;
77.7000;0.4884;0.9424;
78.0000;0.4892;0.9424;
78.3000;0.4900;0.9474;
78.6000;0.4925;0.9549;
78.9000;0.4884;0.9499;
79.2000;0.4860;0.9275;
79.5000;0.4900;0.9375;
79.8000;0.4900;0.9524;
80.1000;0.4998;0.9847;
80.4000;0.4900;0.9573;
80.7000;0.4917;0.9549;
81.0000;0.4917;0.9499;
81.3000;0.4908;0.9474;
81.6000;0.4917;0.9499;
81.9000;0.4917;0.9524;
82.2000;0.4908;0.9449;
82.5000;0.4843;0.9225;
82.8000;0.4868;0.9200;
83.1000;0.4908;0.9300;
83.4000;0.4900;0.9300;
83.7000;0.4892;0.9325;
84.0000;0.4949;0.9350;
84.3000;0.4925;0.9275;
84.6000;0.4908;0.9275;
84.9000;0.4917;0.9225;
85.2000;0.4941;0.9250;
85.5000;0.4941;0.9200;
85.8000;0.4917;0.9250;
86.1000;0.4933;0.9250;
86.4000;0.4917;0.9176;
86.7000;0.4925;0.9225;
87.0000;0.4917;0.9250;
87.3000;0.4941;0.9325;
87.6000;0.4908;0.9424;
87.9000;0.4982;0.9598;
88.2000;0.4933;0.9474;
88.5000;0.4941;0.9399;
88.8000;0.4933;0.9375;
89.1000;0.4941;0.9424;
89.4000;0.4933;0.9300;
89.7000;0.4941;0.9350;
90.0000;0.4957;0.9325;
90.3000;0.4941;0.9275;
90.6000;0.4941;0.9275;
90.9000;0.4933;0.9350;
91.2000;0.4941;0.9399;
91.5000;0.4925;0.9350;
91.8000;0.4933;0.9350;
92.1000;0.4933;0.9325;
92.4000;0.4949;0.9375;
92.7000;0.4949;0.9350;
93.0000;0.4982;0.9375;
93.3000;0.5047;0.9623;
93.6000;0.4957;0.9449;
93.9000;0.4949;0.9449;
94.2000;0.4925;0.9399;
94.5000;0.4941;0.9399;
94.8000;0.4949;0.9474;
95.1000;0.4908;0.9275;
95.4000;0.4941;0.9424;
95.7000;0.4957;0.9424;
96.0000;0.4925;0.9375;
96.3000;0.4957;0.9399;
96.6000;0.4957;0.9375;
96.9000;0.4900;0.9225;
97.2000;0.4917;0.9325;
97.5000;0.4949;0.9350;
97.8000;0.4941;0.9300;
98.1000;0.5047;0.9598;
98.4000;0.4949;0.9350;
98.7000;0.4957;0.9325;
99.0000;0.4933;0.9275;
99.3000;0.4974;0.9474;
99.6000;0.4965;0.9499;
99.9000;0.4982;0.9474;
100.2000;0.4998;0.9573;
100.5000;0.4949;0.9375;
100.8000;0.4957;0.9250;
101.1000;0.4908;0.9200;
101.4000;0.4974;0.9350;
101.7000;0.4957;0.9200;
102.0000;0.4957;0.9250;
102.3000;0.4990;0.9300;
102.6000;0.4974;0.9449;
102.9000;0.4990;0.9524;
103.2000;0.5014;0.9623;
103.5000;0.4990;0.9598;
103.8000;0.4974;0.9573;
104.1000;0.4965;0.9723;
104.4000;0.4949;0.9698;
104.7000;0.4974;0.9797;
105.0000;0.4949;0.9573;
105.3000;0.4974;0.9623;
105.6000;0.4974;0.9673;
105.9000;0.4965;0.9698;
106.2000;0.4974;0.9648;
106.5000;0.4974;0.9598;
106.8000;0.4998;0.9549;
107.1000;0.4974;0.9499;
107.4000;0.4965;0.9449;
107.7000;0.4982;0.9524;
108.0000;0.4974;0.9474;
108.3000;0.4982;0.9499;
108.6000;0.4982;0.9499;
108.9000;0.4974;0.9449;
109.2000;0.4982;0.9399;
109.5000;0.4982;0.9375;
109.8000;0.5055;0.9549;
110.1000;0.5006;0.9399;
110.4000;0.4998;0.9375;
110.7000;0.4949;0.9275;
111.0000;0.4990;0.9350;
111.3000;0.4965;0.9250;
111.6000;0.4990;0.9399;
111.9000;0.4990;0.9399;
112.2000;0.4982;0.9325;
112.5000;0.4998;0.9449;
112.8000;0.4998;0.9524;
113.1000;0.5006;0.9524;
113.4000;0.4998;0.9499;
113.7000;0.5039;0.9598;
114.0000;0.5022;0.9549;
114.3000;0.5014;0.9549;
114.6000;0.4982;0.9499;
114.9000;0.4998;0.9524;
115.2000;0.5006;0.9549;
115.5000;0.4998;0.9598;
115.8000;0.5006;0.9598;
116.1000;0.5014;0.9648;
116.4000;0.4974;0.9549;
116.7000;0.4990;0.9573;
117.0000;0.4990;0.9598;
117.3000;0.5022;0.9648;
117.6000;0.4982;0.9524;
117.9000;0.5006;0.9549;
118.2000;0.4965;0.9573;
118.5000;0.4990;0.9549;
118.8000;0.4990;0.9549;
119.1000;0.4998;0.9648;
119.4000;0.4990;0.9623;
119.7000;0.5006;0.9648;
120.0000;0.5006;0.9648;
120.3000;0.4949;0.9449;
120.6000;0.4998;0.9549;
120.9000;0.4982;0.9449;
121.2000;0.4998;0.9499;
121.5000;0.4998;0.9549;
121.8000;0.4982;0.9524;
122.1000;0.4998;0.9549;
122.4000;0.5022;0.9598;
122.7000;0.5014;0.9499;
123.0000;0.5006;0.9474;
123.3000;0.5014;0.9449;
123.6000;0.4998;0.9424;
123.9000;0.4990;0.9375;
124.2000;0.5014;0.9424;
124.5000;0.4998;0.9399;
124.8000;0.5006;0.9399;
125.1000;0.5014;0.9399;
125.4000;0.5006;0.9375;
125.7000;0.5014;0.9375;
126.0000;0.4998;0.9325;
126.3000;0.5006;0.9350;
126.6000;0.5006;0.9449;
126.9000;0.4957;0.9325;
127.2000;0.4990;0.9399;
127.5000;0.4998;0.9449;
127.8000;0.4990;0.9449;
128.1000;0.5006;0.9375;
128.4000;0.4998;0.9275;
128.7000;0.4998;0.9250;
129.0000;0.4982;0.9200;
129.3000;0.5006;0.9250;
129.6000;0.4998;0.9250;
129.9000;0.4982;0.9275;
130.2000;0.5022;0.9275;
130.5000;0.4998;0.9200;
130.8000;0.5006;0.9225;
131.1000;0.5022;0.9250;
131.4000;0.4982;0.9176;
131.7000;0.5031;0.9325;
132.0000;0.5055;0.9375;
132.3000;0.5031;0.9300;
132.6000;0.5006;0.9225;
132.9000;0.5014;0.9325;
133.2000;0.5014;0.9424;
133.5000;0.4998;0.9449;
133.8000;0.5006;0.9449;
134.1000;0.5006;0.9474;
134.4000;0.5031;0.9549;
134.7000;0.5079;0.9673;
135.0000;0.5014;0.9424;
135.3000;0.4982;0.9350;
135.6000;0.5006;0.9375;
135.9000;0.4974;0.9250;
136.2000;0.4990;0.9325;
136.5000;0.4998;0.9350;
136.8000;0.5006;0.9399;
137.1000;0.5014;0.9375;
137.4000;0.5006;0.9449;
137.7000;0.5022;0.9499;
138.0000;0.5014;0.9524;
138.3000;0.5022;0.9524;
138.6000;0.5006;0.9499;
138.9000;0.5022;0.9424;
139.2000;0.5014;0.9474;
139.5000;0.4998;0.9424;
139.8000;0.5006;0.9424;
140.1000;0.5006;0.9474;
140.4000;0.4998;0.9598;
140.7000;0.5006;0.9648;
141.0000;0.4998;0.9623;
141.3000;0.5006;0.9598;
141.6000;0.4998;0.9499;
141.9000;0.5006;0.9474;
142.2000;0.5022;0.9598;
142.5000;0.5022;0.9623;
142.8000;0.5022;0.9573;
143.1000;0.5006;0.9474;
143.4000;0.4998;0.9474;
143.7000;0.4998;0.9499;
144.0000;0.4990;0.9499;
144.3000;0.4998;0.9524;
144.6000;0.5006;0.9549;
144.9000;0.5006;0.9524;
145.2000;0.5006;0.9573;
145.5000;0.5014;0.9623;
145.8000;0.5022;0.9549;
146.1000;0.5006;0.9449;
146.4000;0.5006;0.9524;
146.7000;0.4998;0.9623;
147.0000;0.5006;0.9648;
147.3000;0.4982;0.9623;
147.6000;0.4998;0.9673;
147.9000;0.5006;0.9598;
148.2000;0.5006;0.9573;
148.5000;0.4998;0.9499;
148.8000;0.5071;0.9623;
149.1000;0.5014;0.9499;
149.4000;0.4990;0.9399;
149.7000;0.5014;0.9424;
150.0000;0.4998;0.9375;
150.3000;0.4990;0.9399;
150.6000;0.4965;0.9350;
150.9000;0.5006;0.9449;
151.2000;0.5006;0.9449;
151.5000;0.4974;0.9300;
151.8000;0.4982;0.9325;
152.1000;0.4998;0.9375;
152.4000;0.4941;0.9176;
152.7000;0.5014;0.9399;
153.0000;0.5006;0.9424;
153.3000;0.5022;0.9399;
153.6000;0.5014;0.9524;
153.9000;0.4990;0.9375;
154.2000;0.4998;0.9375;
154.5000;0.4998;0.9350;
154.8000;0.5006;0.9399;
155.1000;0.5006;0.9449;
155.4000;0.4998;0.9399;
155.7000;0.5014;0.9424;
156.0000;0.5014;0.9375;
156.3000;0.5006;0.9399;
156.6000;0.5014;0.9399;
156.9000;0.4990;0.9399;
157.2000;0.5014;0.9524;
157.5000;0.4998;0.9474;
157.8000;0.4982;0.9424;
158.1000;0.4998;0.9524;
158.4000;0.4998;0.9623;
158.7000;0.5022;0.9748;
159.0000;0.5006;0.9723;
159.3000;0.4990;0.9673;
159.6000;0.4957;0.9598;
159.9000;0.5006;0.9698;
160.2000;0.4998;0.9648;
160.5000;0.4965;0.9598;
160.8000;0.5014;0.9673;
161.1000;0.5014;0.9673;
161.4000;0.4990;0.9549;
161.7000;0.4998;0.9598;
162.0000;0.4990;0.9698;
162.3000;0.5014;0.9748;
162.6000;0.4982;0.9723;
162.9000;0.4998;0.9698;
163.2000;0.4998;0.9598;
163.5000;0.5022;0.9648;
163.8000;0.5006;0.9648;
164.1000;0.5014;0.9623;
164.4000;0.5014;0.9499;
164.7000;0.5006;0.9549;
165.0000;0.5006;0.9598;
165.3000;0.5014;0.9648;
165.6000;0.4990;0.9573;
165.9000;0.5006;0.9549;
166.2000;0.5006;0.9549;
166.5000;0.5063;0.9822;
166.8000;0.4982;0.9598;
167.1000;0.5006;0.9524;
167.4000;0.5006;0.9648;
167.7000;0.4990;0.9698;
168.0000;0.4982;0.9623;
168.3000;0.4990;0.9698;
168.6000;0.5006;0.9822;
168.9000;0.5006;0.9797;
169.2000;0.5006;0.9822;
169.5000;0.4990;0.9772;
169.8000;0.5022;0.9897;
170.1000;0.4974;0.9673;
170.4000;0.5006;0.9797;
170.7000;0.5006;0.9772;
171.0000;0.5006;0.9723;
171.3000;0.4998;0.9673;
171.6000;0.5006;0.9648;
171.9000;0.4998;0.9648;
172.2000;0.5014;0.9598;
172.5000;0.4998;0.9598;
172.8000;0.4998;0.9549;
173.1000;0.5006;0.9549;
173.4000;0.4998;0.9673;
173.7000;0.4982;0.9723;
174.0000;0.4990;0.9623;
174.3000;0.5006;0.9648;
174.6000;0.5022;0.9723;
174.9000;0.4974;0.9673;
175.2000;0.4982;0.9673;
175.5000;0.4957;0.9648;
175.8000;0.4998;0.9772;
176.1000;0.4990;0.9648;
176.4000;0.4957;0.9499;
176.7000;0.4998;0.9524;
177.0000;0.4990;0.9449;
177.3000;0.4965;0.9375;
177.6000;0.4982;0.9399;
177.9000;0.4917;0.9225;
178.2000;0.4990;0.9449;
178.5000;0.4990;0.9350;
178.8000;0.4990;0.9375;
179.1000;0.5014;0.9375;
179.4000;0.5006;0.9375;
179.7000;0.5006;0.9474;
180.0000;0.4998;0.9499;
180.3000;0.4965;0.9524;
180.6000;0.4990;0.9623;
180.9000;0.4990;0.9598;
181.2000;0.5006;0.9673;
181.5000;0.5014;0.9748;
181.8000;0.4982;0.9698;
182.1000;0.4974;0.9648;
182.4000;0.4982;0.9598;
182.7000;0.4998;0.9524;
183.0000;0.4974;0.9449;
183.3000;0.4982;0.9474;
183.6000;0.4998;0.9598;
183.9000;0.4998;0.9648;
184.2000;0.4998;0.9598;
184.5000;0.4998;0.9648;
184.8000;0.4982;0.9648;
185.1000;0.4965;0.9549;
185.4000;0.4917;0.9424;
185.7000;0.5006;0.9524;
186.0000;0.4998;0.9524;
186.3000;0.5014;0.9474;
186.6000;0.4982;0.9424;
186.9000;0.4982;0.9399;
187.2000;0.4982;0.9325;
187.5000;0.4998;0.9449;
187.8000;0.4998;0.9474;
188.1000;0.4990;0.9524;
188.4000;0.4974;0.9549;
188.7000;0.4990;0.9623;
189.0000;0.5006;0.9698;
189.3000;0.4990;0.9573;
189.6000;0.4990;0.9524;
189.9000;0.4982;0.9499;
190.2000;0.4990;0.9573;
190.5000;0.4998;0.9598;
190.8000;0.4998;0.9549;
191.1000;0.4998;0.9524;
191.4000;0.5006;0.9598;
191.7000;0.4998;0.9623;
192.0000;0.4998;0.9573;
192.3000;0.4990;0.9573;
192.6000;0.4990;0.9573;
192.9000;0.4990;0.9549;
193.2000;0.4982;0.9623;
193.5000;0.4990;0.9623;
193.8000;0.4982;0.9673;
194.1000;0.4998;0.9723;
194.4000;0.5014;0.9748;
194.7000;0.4998;0.9723;
195.0000;0.4990;0.9797;
195.3000;0.4998;0.9723;
195.6000;0.4990;0.9623;
195.9000;0.4982;0.9623;
196.2000;0.4982;0.9748;
196.5000;0.4982;0.9772;
196.8000;0.4982;0.9772;
197.1000;0.4982;0.9723;
197.4000;0.4974;0.9772;
197.7000;0.4982;0.9772;
198.0000;0.5031;0.9772;
198.3000;0.4974;0.9549;
198.6000;0.4974;0.9673;
198.9000;0.4974;0.9648;
199.2000;0.4998;0.9748;
199.5000;0.4965;0.9748;
199.8000;0.4965;0.9673;
200.1000;0.4982;0.9698;
200.4000;0.5006;0.9723;
200.7000;0.4974;0.9698;
201.0000;0.4990;0.9648;
201.3000;0.4990;0.9573;
201.6000;0.4982;0.9623;
201.9000;0.4990;0.9598;
202.2000;0.4974;0.9474;
202.5000;0.4974;0.9449;
202.8000;0.4982;0.9499;
203.1000;0.4982;0.9524;
203.4000;0.4990;0.9573;
203.7000;0.4990;0.9648;
204.0000;0.5014;0.9698;
204.3000;0.4941;0.9598;
204.6000;0.4982;0.9698;
204.9000;0.4982;0.9698;
205.2000;0.5006;0.9772;
205.5000;0.5006;0.9797;
205.8000;0.4990;0.9797;
206.1000;0.4974;0.9698;
206.4000;0.4917;0.9549;
206.7000;0.5014;0.9797;
207.0000;0.4982;0.9723;
207.3000;0.4982;0.9797;
207.6000;0.4974;0.9822;
207.9000;0.4990;0.9822;
208.2000;0.4982;0.9723;
208.5000;0.4982;0.9673;
208.8000;0.4982;0.9723;
209.1000;0.4974;0.9748;
209.4000;0.4949;0.9723;
209.7000;0.4982;0.9897;
210.0000;0.4982;0.9897;
210.3000;0.4982;0.9872;
210.6000;0.5006;0.9946;
210.9000;0.4982;0.9847;
211.2000;0.4990;0.9723;
211.5000;0.4965;0.9648;
211.8000;0.4982;0.9623;
212.1000;0.4990;0.9549;
212.4000;0.4974;0.9549;
212.7000;0.4965;0.9549;
213.0000;0.5047;0.9772;
213.3000;0.4982;0.9623;
213.6000;0.4974;0.9549;
213.9000;0.4982;0.9549;
214.2000;0.4982;0.9573;
214.5000;0.4974;0.9648;
214.8000;0.4965;0.9673;
215.1000;0.4974;0.9698;
215.4000;0.4982;0.9673;
215.7000;0.4998;0.9698;
216.0000;0.4957;0.9673;
216.3000;0.4974;0.9723;
216.6000;0.4974;0.9723;
216.9000;0.5022;0.9847;
217.2000;0.4982;0.9673;
217.5000;0.4974;0.9673;
217.8000;0.4974;0.9723;
218.1000;0.5014;0.9897;
218.4000;0.4957;0.9648;
218.7000;0.4974;0.9573;
219.0000;0.4941;0.9648;
219.3000;0.4965;0.9698;
219.6000;0.4933;0.9598;
219.9000;0.4974;0.9723;
220.2000;0.4925;0.9648;
220.5000;0.4974;0.9748;
220.8000;0.4998;0.9822;
221.1000;0.4957;0.9723;
221.4000;0.4949;0.9698;
221.7000;0.4974;0.9822;
222.0000;0.4957;0.9698;
222.3000;0.4982;0.9723;
222.6000;0.4965;0.9698;
222.9000;0.4965;0.9797;
223.2000;0.4974;0.9897;
223.5000;0.4974;0.9922;
223.8000;0.4957;0.9822;
224.1000;0.4957;0.9847;
224.4000;0.4965;0.9872;
224.7000;0.4965;0.9872;
225.0000;0.4965;0.9822;
225.3000;0.4974;0.9872;
225.6000;0.4982;0.9872;
225.9000;0.4982;0.9872;
226.2000;0.4998;0.9822;
226.5000;0.4957;0.9748;
226.8000;0.4974;0.9822;
227.1000;0.4965;0.9847;
227.4000;0.5055;1.0071;
227.7000;0.4998;0.9946;
228.0000;0.4957;0.9797;
228.3000;0.5039;0.9922;
228.6000;0.5022;0.9897;
228.9000;0.4917;0.9524;
229.2000;0.4925;0.9524;
229.5000;0.4925;0.9549;
229.8000;0.4974;0.9623;
230.1000;0.5022;0.9723;
230.4000;0.4941;0.9524;
230.7000;0.4974;0.9598;
231.0000;0.4974;0.9549;
231.3000;0.4965;0.9573;
231.6000;0.4974;0.9648;
231.9000;0.4982;0.9673;
232.2000;0.4974;0.9673;
232.5000;0.4974;0.9698;
232.8000;0.4965;0.9648;
233.1000;0.4957;0.9524;
233.4000;0.5006;0.9598;
233.7000;0.4974;0.9474;
234.0000;0.4957;0.9424;
234.3000;0.4925;0.9424;
234.6000;0.4941;0.9573;
234.9000;0.4990;0.9673;
235.2000;0.4957;0.9698;
235.5000;0.4965;0.9723;
235.8000;0.4990;0.9748;
236.1000;0.4982;0.9748;
236.4000;0.4974;0.9748;
236.7000;0.4965;0.9673;
237.0000;0.4965;0.9648;
237.3000;0.4990;0.9648;
237.6000;0.4965;0.9623;
237.9000;0.4949;0.9449;
238.2000;0.4957;0.9474;
238.5000;0.4965;0.9474;
238.8000;0.4957;0.9449;
239.1000;0.4965;0.9424;
239.4000;0.4974;0.9474;
239.7000;0.4982;0.9424;
240.0000;0.4974;0.9399;
240.3000;0.4965;0.9399;
240.6000;0.4957;0.9424;
240.9000;0.4965;0.9474;
241.2000;0.4974;0.9549;
241.5000;0.4974;0.9549;
241.8000;0.4884;0.9350;
242.1000;0.4949;0.9499;
242.4000;0.4949;0.9424;
242.7000;0.4941;0.9499;
243.0000;0.4957;0.9499;
243.3000;0.4941;0.9424;
243.6000;0.4965;0.9499;
243.9000;0.4957;0.9424;
244.2000;0.4974;0.9399;
244.5000;0.4957;0.9375;
244.8000;0.4957;0.9449;
245.1000;0.4949;0.9499;
245.4000;0.4941;0.9499;
245.7000;0.4941;0.9474;
246.0000;0.4949;0.9524;
246.3000;0.4949;0.9524;
246.6000;0.5006;0.9673;
246.9000;0.4941;0.9474;
247.2000;0.4957;0.9474;
247.5000;0.4957;0.9474;
247.8000;0.4949;0.9474;
248.1000;0.4949;0.9474;
248.4000;0.4965;0.9449;
248.7000;0.4965;0.9499;
249.0000;0.4949;0.9449;
249.3000;0.4957;0.9449;
249.6000;0.4965;0.9449;
249.9000;0.4965;0.9399;
250.2000;0.4957;0.9375;
250.5000;0.4941;0.9250;
250.8000;0.4949;0.9350;
251.1000;0.4949;0.9399;
251.4000;0.4949;0.9449;
251.7000;0.4982;0.9524;
252.0000;0.4941;0.9499;
252.3000;0.4925;0.9424;
252.6000;0.4941;0.9474;
252.9000;0.4957;0.9449;
253.2000;0.4925;0.9350;
253.5000;0.4957;0.9399;
253.8000;0.4974;0.9474;
254.1000;0.4974;0.9573;
254.4000;0.4941;0.9549;
254.7000;0.4965;0.9549;
255.0000;0.4974;0.9623;
255.3000;0.4982;0.9723;
255.6000;0.4957;0.9673;
255.9000;0.4949;0.9598;
256.2000;0.4957;0.9648;
256.5000;0.4974;0.9698;
256.8000;0.4949;0.9573;
257.1000;0.4941;0.9573;
257.4000;0.4949;0.9499;
257.7000;0.4957;0.9449;
258.0000;0.4933;0.9474;
258.3000;0.4933;0.9549;
258.6000;0.4933;0.9499;
258.9000;0.5006;0.9623;
259.2000;0.4957;0.9549;
259.5000;0.4957;0.9549;
259.8000;0.4949;0.9524;
260.1000;0.4941;0.9499;
260.4000;0.4965;0.9449;
260.7000;0.4941;0.9424;
261.0000;0.4974;0.9424;
261.3000;0.4941;0.9325;
261.6000;0.4949;0.9350;
261.9000;0.4941;0.9350;
262.2000;0.4949;0.9350;
262.5000;0.4949;0.9275;
262.8000;0.4957;0.9151;
263.1000;0.4949;0.9225;
263.4000;0.4917;0.9176;
263.7000;0.4941;0.9250;
264.0000;0.4965;0.9275;
264.3000;0.4957;0.9275;
264.6000;0.4957;0.9350;
264.9000;0.4908;0.9225;
265.2000;0.4949;0.9375;
265.5000;0.4982;0.9375;
265.8000;0.4949;0.9300;
266.1000;0.4982;0.9424;
266.4000;0.4965;0.9499;
266.7000;0.4933;0.9350;
267.0000;0.4941;0.9399;
267.3000;0.4933;0.9474;
267.6000;0.4990;0.9673;
267.9000;0.4933;0.9673;
268.2000;0.4933;0.9648;
268.5000;0.4925;0.9598;
268.8000;0.4917;0.9549;
269.1000;0.4949;0.9598;
269.4000;0.4965;0.9623;
269.7000;0.4949;0.9598;
270.0000;0.4982;0.9723;
270.3000;0.4957;0.9698;
270.6000;0.4965;0.9698;
270.9000;0.4957;0.9723;
271.2000;0.4957;0.9673;
271.5000;0.4941;0.9598;
271.8000;0.4949;0.9673;
272.1000;0.4949;0.9698;
272.4000;0.4941;0.9698;
272.7000;0.4949;0.9723;
273.0000;0.4884;0.9598;
273.3000;0.4933;0.9698;
273.6000;0.4925;0.9673;
273.9000;0.4941;0.9648;
274.2000;0.4941;0.9723;
274.5000;0.4900;0.9573;
274.8000;0.4949;0.9524;
275.1000;0.4933;0.9524;
275.4000;0.4965;0.9573;
275.7000;0.4974;0.9598;
276.0000;0.4957;0.9623;
276.3000;0.4925;0.9648;
276.6000;0.4957;0.9723;
276.9000;0.4949;0.9648;
277.2000;0.4933;0.9623;
277.5000;0.4925;0.9524;
277.8000;0.4941;0.9598;
278.1000;0.4925;0.9449;
278.4000;0.4925;0.9424;
278.7000;0.4925;0.9449;
279.0000;0.4933;0.9524;
279.3000;0.4949;0.9573;
279.6000;0.4941;0.9648;
279.9000;0.4949;0.9723;
280.2000;0.4941;0.9698;
280.5000;0.4957;0.9673;
280.8000;0.4941;0.9623;
281.1000;0.4957;0.9623;
281.4000;0.4925;0.9549;
281.7000;0.4949;0.9573;
282.0000;0.4933;0.9549;
282.3000;0.4925;0.9499;
282.6000;0.4933;0.9524;
282.9000;0.4941;0.9524;
283.2000;0.4949;0.9648;
283.5000;0.4965;0.9698;
283.8000;0.4941;0.9648;
284.1000;0.4941;0.9698;
284.4000;0.4982;0.9748;
284.7000;0.4941;0.9573;
285.0000;0.4941;0.9474;
285.3000;0.4974;0.9598;
285.6000;0.4949;0.9623;
285.9000;0.4949;0.9623;
286.2000;0.4925;0.9598;
286.5000;0.4949;0.9623;
286.8000;0.4957;0.9772;
287.1000;0.4941;0.9797;
287.4000;0.4933;0.9748;
287.7000;0.4949;0.9748;
288.0000;0.4933;0.9648;
288.3000;0.4933;0.9673;
288.6000;0.4925;0.9623;
288.9000;0.4933;0.9673;
289.2000;0.4941;0.9648;
289.5000;0.4933;0.9648;
289.8000;0.4941;0.9648;
290.1000;0.4925;0.9698;
290.4000;0.4908;0.9623;
290.7000;0.4949;0.9623;
291.0000;0.4933;0.9723;
291.3000;0.4941;0.9698;
291.6000;0.4900;0.9623;
291.9000;0.4957;0.9698;
292.2000;0.4925;0.9623;
292.5000;0.4843;0.9350;
292.8000;0.4925;0.9573;
293.1000;0.4949;0.9623;
293.4000;0.4933;0.9623;
293.7000;0.4917;0.9573;
294.0000;0.4933;0.9499;
294.3000;0.4933;0.9499;
294.6000;0.5006;0.9723;
294.9000;0.4917;0.9499;
295.2000;0.4925;0.9375;
295.5000;0.4957;0.9325;
295.8000;0.4949;0.9375;
296.1000;0.4933;0.9449;
296.4000;0.4941;0.9449;
296.7000;0.4957;0.9424;
297.0000;0.4933;0.9424;
297.3000;0.4941;0.9499;
297.6000;0.4908;0.9424;
297.9000;0.4933;0.9449;
298.2000;0.4925;0.9375;
298.5000;0.4941;0.9350;
298.8000;0.4933;0.9300;
299.1000;0.4925;0.9300;
299.4000;0.4941;0.9325;
299.7000;0.4949;0.9350;
300.0000;0.4949;0.9399;
300.3000;0.4908;0.9375;
300.6000;0.4957;0.9449;
300.9000;0.4941;0.9375;
301.2000;0.4917;0.9499;
301.5000;0.4941;0.9598;
301.8000;0.4925;0.9598;
302.1000;0.4933;0.9648;
302.4000;0.4917;0.9623;
302.7000;0.4917;0.9573;
303.0000;0.4908;0.9549;
303.3000;0.4925;0.9573;
303.6000;0.4941;0.9748;
303.9000;0.4900;0.9748;
304.2000;0.4925;0.9797;
304.5000;0.4949;0.9847;
304.8000;0.4933;0.9822;
305.1000;0.4990;0.9922;
305.4000;0.4884;0.9524;
305.7000;0.4941;0.9648;
306.0000;0.4933;0.9623;
306.3000;0.4892;0.9598;
306.6000;0.4925;0.9772;
306.9000;0.4941;0.9723;
307.2000;0.4933;0.9748;
307.5000;0.4917;0.9698;
307.8000;0.4925;0.9648;
308.1000;0.4941;0.9648;
308.4000;0.4908;0.9723;
308.7000;0.4900;0.9673;
309.0000;0.4925;0.9847;
309.3000;0.4982;0.9996;
309.6000;0.4949;0.9897;
309.9000;0.4949;0.9922;
310.2000;0.4941;0.9922;
310.5000;0.4917;1.0021;
310.8000;0.4933;0.9971;
311.1000;0.4949;0.9922;
311.4000;0.4925;0.9797;
311.7000;0.4917;0.9797;
312.0000;0.4917;0.9748;
312.3000;0.4917;0.9698;
312.6000;0.4941;0.9772;
312.9000;0.4925;0.9748;
313.2000;0.4917;0.9723;
313.5000;0.4933;0.9673;
313.8000;0.4925;0.9698;
314.1000;0.4876;0.9549;
314.4000;0.4925;0.9598;
314.7000;0.4974;0.9748;
315.0000;0.4884;0.9573;
315.3000;0.4917;0.9723;
315.6000;0.4933;0.9748;
315.9000;0.4933;0.9822;
316.2000;0.4941;0.9872;
316.5000;0.4933;0.9872;
316.8000;0.4868;0.9673;
317.1000;0.4941;0.9797;
317.4000;0.4900;0.9598;
317.7000;0.4933;0.9698;
318.0000;0.4933;0.9623;
318.3000;0.4941;0.9623;
318.6000;0.4933;0.9499;
318.9000;0.4925;0.9474;
319.2000;0.4933;0.9499;
319.5000;0.4917;0.9524;
319.8000;0.4949;0.9598;
320.1000;0.4957;0.9573;
320.4000;0.4974;0.9623;
320.7000;0.4925;0.9573;
321.0000;0.4917;0.9598;
321.3000;0.4941;0.9598;
321.6000;0.4957;0.9673;
321.9000;0.4925;0.9623;
322.2000;0.4917;0.9623;
322.5000;0.4908;0.9698;
322.8000;0.4917;0.9698;
323.1000;0.4957;0.9723;
323.4000;0.4900;0.9673;
323.7000;0.4925;0.9748;
324.0000;0.4917;0.9748;
324.3000;0.4949;0.9748;
324.6000;0.5014;0.9922;
324.9000;0.4933;0.9723;
325.2000;0.4900;0.9623;
325.5000;0.4892;0.9623;
325.8000;0.4925;0.9648;
326.1000;0.4933;0.9748;
326.4000;0.4917;0.9797;
326.7000;0.4917;0.9772;
327.0000;0.4900;0.9797;
327.3000;0.4925;0.9822;
327.6000;0.4925;0.9797;
327.9000;0.4900;0.9723;
328.2000;0.4917;0.9822;
328.5000;0.4908;0.9772;
328.8000;0.4917;0.9847;
329.1000;0.4941;0.9897;
329.4000;0.4900;0.9847;
329.7000;0.4900;0.9772;
330.0000;0.4908;0.9847;
330.3000;0.4900;0.9797;
330.6000;0.4917;0.9847;
330.9000;0.4900;0.9847;
331.2000;0.4925;0.9847;
331.5000;0.4917;0.9723;
331.8000;0.4908;0.9698;
332.1000;0.4892;0.9648;
332.4000;0.4933;0.9723;
332.7000;0.4917;0.9822;
333.0000;0.4917;0.9748;
333.3000;0.4908;0.9673;
333.6000;0.4908;0.9748;
333.9000;0.4925;0.9748;
334.2000;0.4908;0.9648;
334.5000;0.4908;0.9698;
334.8000;0.4917;0.9772;
335.1000;0.4941;0.9897;
335.4000;0.4925;0.9922;
335.7000;0.4917;0.9971;
336.0000;0.4941;1.0021;
336.3000;0.4900;0.9922;
336.6000;0.4925;0.9897;
336.9000;0.4900;0.9822;
337.2000;0.4925;0.9971;
337.5000;0.4908;0.9996;
337.8000;0.4900;0.9897;
338.1000;0.4860;0.9772;
338.4000;0.4892;0.9822;
338.7000;0.4917;0.9946;
339.0000;0.4908;0.9946;
339.3000;0.4941;0.9996;
339.6000;0.4933;0.9922;
339.9000;0.4892;0.9847;
340.2000;0.4917;0.9922;
340.5000;0.4917;0.9847;
340.8000;0.4925;0.9822;
341.1000;0.4949;0.9897;
341.4000;0.4957;0.9946;
341.7000;0.4908;0.9897;
342.0000;0.4998;1.0170;
342.3000;0.4925;0.9922;
342.6000;0.4933;0.9847;
342.9000;0.4933;0.9822;
343.2000;0.4957;0.9822;
343.5000;0.4892;0.9648;
343.8000;0.4925;0.9698;
344.1000;0.4917;0.9673;
344.4000;0.4990;0.9971;
344.7000;0.4917;0.9897;
345.0000;0.4925;0.9996;
345.3000;0.4917;0.9996;
345.6000;0.4917;0.9897;
345.9000;0.4908;0.9872;
346.2000;0.4868;0.9723;
346.5000;0.4884;0.9797;
346.8000;0.4925;0.9847;
347.1000;0.4908;0.9847;
347.4000;0.4908;0.9922;
347.7000;0.4892;0.9847;
348.0000;0.4982;1.0120;
348.3000;0.4900;1.0021;
348.6000;0.4917;1.0096;
348.9000;0.4917;1.0096;
349.2000;0.4990;1.0245;
349.5000;0.4900;1.0021;
349.8000;0.4892;0.9946;
350.1000;0.4917;0.9922;
350.4000;0.4917;0.9946;
350.7000;0.4900;0.9847;
351.0000;0.4860;0.9797;
351.3000;0.4892;0.9897;
351.6000;0.4892;0.9897;
351.9000;0.4900;0.9946;
352.2000;0.4900;0.9946;
352.5000;0.4892;0.9872;
352.8000;0.4892;0.9872;
353.1000;0.4908;0.9872;
353.4000;0.4884;0.9922;
353.7000;0.4892;0.9946;
354.0000;0.4900;0.9996;
354.3000;0.4892;0.9971;
354.6000;0.4917;0.9971;
354.9000;0.4900;0.9872;
355.2000;0.4908;0.9971;
355.5000;0.4900;1.0021;
355.8000;0.4892;0.9996;
356.1000;0.4908;1.0046;
356.4000;0.4900;1.0046;
356.7000;0.4876;0.9996;
357.0000;0.4917;1.0120;
357.3000;0.4925;1.0145;
357.6000;0.4917;1.0120;
357.9000;0.4917;1.0071;
358.2000;0.4917;1.0046;
358.5000;0.4917;1.0071;
358.8000;0.4900;1.0071;
359.1000;0.4917;1.0120;
359.4000;0.4917;1.0120;
359.7000;0.4900;1.0046;
360.0000;0.4900;1.0021;
360.3000;0.4933;1.0046;
360.6000;0.4974;1.0220;
360.9000;0.4941;1.0120;
361.2000;0.4908;1.0071;
361.5000;0.4933;1.0096;
361.8000;0.4941;1.0145;
362.1000;0.4900;0.9971;
362.4000;0.4917;0.9922;
362.7000;0.4900;0.9922;
363.0000;0.4900;0.9897;
363.3000;0.4908;0.9922;
363.6000;0.4860;0.9797;
363.9000;0.4900;0.9847;
364.2000;0.4876;0.9872;
364.5000;0.4925;0.9971;
364.8000;0.4908;0.9971;
365.1000;0.4900;0.9996;
365.4000;0.4900;1.0046;
365.7000;0.4917;1.0071;
366.0000;0.4917;1.0096;
366.3000;0.4908;1.0120;
366.6000;0.4908;0.9996;
366.9000;0.4892;0.9922;
367.2000;0.4900;0.9897;
367.5000;0.4908;0.9872;
367.8000;0.4900;0.9872;
368.1000;0.4908;0.9922;
368.4000;0.4941;1.0021;
368.7000;0.4900;0.9946;
369.0000;0.4908;1.0021;
369.3000;0.4892;1.0096;
369.6000;0.4892;1.0071;
369.9000;0.4900;1.0021;
370.2000;0.4908;1.0021;
370.5000;0.4876;0.9946;
370.8000;0.4908;1.0021;
371.1000;0.4892;0.9996;
371.4000;0.4925;1.0071;
371.7000;0.4892;0.9946;
372.0000;0.4957;1.0145;
372.3000;0.4917;1.0120;
372.6000;0.4900;1.0145;
372.9000;0.4900;1.0071;
373.2000;0.4925;1.0195;
373.5000;0.4900;1.0145;
373.8000;0.4908;1.0021;
374.1000;0.4884;1.0071;
374.4000;0.4900;1.0170;
374.7000;0.4917;1.0220;
375.0000;0.4900;1.0120;
375.3000;0.4892;1.0170;
375.6000;0.4884;1.0170;
375.9000;0.4908;1.0170;
376.2000;0.4908;1.0220;
376.5000;0.4925;1.0270;
376.8000;0.4900;1.0170;
377.1000;0.4908;1.0220;
377.4000;0.4925;1.0245;
377.7000;0.4949;1.0319;
378.0000;0.4900;1.0245;
378.3000;0.4908;1.0195;
378.6000;0.4933;1.0319;
378.9000;0.4900;1.0319;
379.2000;0.4900;1.0319;
379.5000;0.4917;1.0295;
379.8000;0.4917;1.0344;
380.1000;0.4949;1.0295;
380.4000;0.4908;1.0245;
380.7000;0.4917;1.0120;
381.0000;0.4925;1.0096;
381.3000;0.4884;1.0046;
381.6000;0.4917;1.0071;
381.9000;0.4900;1.0096;
382.2000;0.4892;1.0145;
382.5000;0.4917;1.0170;
382.8000;0.4933;1.0170;
383.1000;0.4884;1.0096;
383.4000;0.4941;1.0220;
383.7000;0.4876;0.9996;
384.0000;0.4884;1.0021;
384.3000;0.4908;1.0021;
384.6000;0.4876;0.9971;
384.9000;0.4900;1.0046;
385.2000;0.4908;1.0071;
385.5000;0.4868;0.9971;
385.8000;0.4908;0.9971;
386.1000;0.4908;0.9946;
386.4000;0.4965;1.0120;
386.7000;0.4892;0.9946;
387.0000;0.4908;1.0046;
387.3000;0.4900;1.0071;
387.6000;0.4933;1.0145;
387.9000;0.4900;1.0120;
388.2000;0.4868;1.0021;
388.5000;0.4900;1.0145;
388.8000;0.4917;1.0245;
389.1000;0.4900;1.0220;
389.4000;0.4884;1.0195;
389.7000;0.4892;1.0195;
390.0000;0.4892;1.0220;
390.3000;0.4868;1.0145;
390.6000;0.4900;1.0245;
390.9000;0.4900;1.0270;
391.2000;0.4917;1.0295;
391.5000;0.4884;1.0170;
391.8000;0.4876;1.0071;
392.1000;0.4892;1.0170;
392.4000;0.4917;1.0145;
392.7000;0.4908;1.0096;
393.0000;0.4892;1.0021;
393.3000;0.4884;1.0021;
393.6000;0.4900;0.9996;
393.9000;0.4892;0.9922;
394.2000;0.4876;0.9922;
394.5000;0.4892;1.0021;
394.8000;0.4892;0.9946;
395.1000;0.4900;0.9971;
395.4000;0.4884;0.9922;
395.7000;0.4876;0.9971;
396.0000;0.4982;1.0220;
396.3000;0.4884;1.0071;
396.6000;0.4892;0.9897;
396.9000;0.4900;0.9847;
397.2000;0.4835;0.9648;
397.5000;0.4884;0.9698;
397.8000;0.4892;0.9698;
398.1000;0.4908;0.9797;
398.4000;0.4860;0.9698;
398.7000;0.4917;0.9897;
399.0000;0.4908;0.9897;
399.3000;0.4900;0.9996;
399.6000;0.4908;0.9996;
399.9000;0.4908;0.9872;
400.2000;0.4908;0.9797;
400.5000;0.4900;0.9822;
400.8000;0.4892;0.9946;
401.1000;0.4892;1.0021;
401.4000;0.4884;0.9996;
401.7000;0.4884;0.9946;
402.0000;0.4876;0.9822;
402.3000;0.4900;0.9946;
402.6000;0.4900;0.9946;
402.9000;0.4900;0.9922;
403.2000;0.4892;0.9922;
403.5000;0.4884;0.9946;
403.8000;0.4900;0.9872;
404.1000;0.4876;0.9847;
404.4000;0.4908;0.9996;
404.7000;0.4900;1.0021;
405.0000;0.4884;0.9847;
405.3000;0.4900;0.9897;
405.6000;0.4868;0.9922;
405.9000;0.4884;0.9922;
406.2000;0.4908;1.0021;
406.5000;0.4892;0.9922;
406.8000;0.4835;0.9698;
407.1000;0.4925;0.9897;
407.4000;0.4892;0.9723;
407.7000;0.4892;0.9797;
408.0000;0.4884;0.9797;
408.3000;0.4876;0.9797;
408.6000;0.4892;0.9797;
408.9000;0.4868;0.9723;
409.2000;0.4868;0.9549;
409.5000;0.4876;0.9524;
409.8000;0.4876;0.9573;
410.1000;0.4884;0.9723;
410.4000;0.4876;0.9623;
410.7000;0.4876;0.9673;
411.0000;0.4876;0.9698;
411.3000;0.4884;0.9797;
411.6000;0.4892;0.9922;
411.9000;0.4876;0.9922;
412.2000;0.4892;0.9996;
412.5000;0.4876;0.9922;
412.8000;0.4900;0.9971;
413.1000;0.4941;1.0145;
413.4000;0.4876;1.0021;
413.7000;0.4876;1.0021;
414.0000;0.4892;1.0096;
414.3000;0.4900;1.0046;
414.6000;0.4884;1.0046;
414.9000;0.4884;1.0120;
415.2000;0.4908;1.0220;
415.5000;0.4900;1.0270;
415.8000;0.4876;1.0170;
416.1000;0.4892;1.0145;
416.4000;0.4925;1.0295;
416.7000;0.4892;1.0195;
417.0000;0.4900;1.0195;
417.3000;0.4876;1.0195;
417.6000;0.4884;1.0195;
417.9000;0.4908;1.0195;
418.2000;0.4884;1.0046;
418.5000;0.4884;0.9971;
418.8000;0.4876;1.0021;
419.1000;0.4884;1.0071;
419.4000;0.4843;0.9946;
419.7000;0.4868;1.0071;
420.0000;0.4876;1.0046;
420.3000;0.4876;1.0021;
420.6000;0.4892;1.0071;
420.9000;0.4868;1.0096;
421.2000;0.4786;0.9897;
421.5000;0.4892;1.0170;
421.8000;0.4892;1.0145;
422.1000;0.4892;1.0145;
422.4000;0.4868;1.0046;
422.7000;0.4884;1.0071;
423.0000;0.4860;0.9971;
423.3000;0.4876;0.9971;
423.6000;0.4860;0.9971;
423.9000;0.4876;0.9996;
424.2000;0.4876;0.9971;
424.5000;0.4868;0.9946;
424.8000;0.4876;0.9996;
425.1000;0.4868;0.9971;
425.4000;0.4868;1.0096;
425.7000;0.4884;1.0071;
426.0000;0.4876;1.0071;
426.3000;0.4884;1.0096;
426.6000;0.4892;1.0145;
426.9000;0.4908;1.0220;
427.2000;0.4860;1.0170;
427.5000;0.4868;1.0170;
427.8000;0.4876;1.0120;
428.1000;0.4892;1.0170;
428.4000;0.4884;1.0170;
428.7000;0.4851;1.0145;
429.0000;0.4892;1.0245;
429.3000;0.4900;1.0245;
429.6000;0.4908;1.0220;
429.9000;0.4892;1.0120;
430.2000;0.4925;1.0245;
430.5000;0.4892;1.0195;
430.8000;0.4884;1.0195;
431.1000;0.4925;1.0270;
431.4000;0.4892;1.0145;
431.7000;0.4892;1.0270;
432.0000;0.4884;1.0270;
432.3000;0.4892;1.0170;
432.6000;0.4892;1.0195;
432.9000;0.4917;1.0195;
433.2000;0.4892;1.0071;
433.5000;0.4884;0.9996;
433.8000;0.4933;1.0170;
434.1000;0.4917;1.0120;
434.4000;0.4884;1.0046;
434.7000;0.4892;0.9946;
435.0000;0.4884;0.9946;
435.3000;0.4892;0.9897;
435.6000;0.4884;0.9922;
435.9000;0.4876;0.9897;
436.2000;0.4868;0.9872;
436.5000;0.4868;0.9922;
436.8000;0.4884;1.0021;
437.1000;0.4876;0.9996;
437.4000;0.4990;1.0245;
437.7000;0.4892;1.0096;
438.0000;0.4892;1.0170;
438.3000;0.4868;1.0071;
438.6000;0.4860;1.0071;
438.9000;0.4876;1.0120;
439.2000;0.4949;1.0319;
439.5000;0.4827;0.9971;
439.8000;0.4876;1.0120;
440.1000;0.4884;1.0046;
440.4000;0.4843;0.9946;
440.7000;0.4851;1.0096;
441.0000;0.4851;1.0021;
441.3000;0.4876;1.0071;
441.6000;0.4884;1.0071;
441.9000;0.4868;1.0120;
442.2000;0.4868;1.0096;
442.5000;0.4892;1.0096;
442.8000;0.4884;1.0021;
443.1000;0.4892;1.0071;
443.4000;0.4900;1.0120;
443.7000;0.4876;1.0071;
444.0000;0.4778;0.9872;
444.3000;0.4851;1.0046;
444.6000;0.4868;1.0120;
444.9000;0.4876;1.0145;
445.2000;0.5006;1.0444;
445.5000;0.4884;1.0096;
445.8000;0.4892;1.0046;
446.1000;0.4876;1.0021;
446.4000;0.4900;1.0145;
446.7000;0.4900;1.0170;
447.0000;0.4900;1.0195;
447.3000;0.4884;1.0220;
447.6000;0.4892;1.0145;
447.9000;0.4868;1.0071;
448.2000;0.4884;1.0021;
448.5000;0.4892;1.0046;
448.8000;0.4868;0.9971;
449.1000;0.4876;0.9996;
449.4000;0.4884;0.9996;
449.7000;0.4884;0.9922;
450.0000;0.4876;0.9897;
450.3000;0.4851;0.9847;
450.6000;0.4843;0.9872;
450.9000;0.4860;0.9897;
451.2000;0.4868;0.9897;
451.5000;0.4892;1.0021;
451.8000;0.4868;0.9922;
452.1000;0.4892;1.0046;
452.4000;0.4860;1.0046;
452.7000;0.4884;1.0071;
453.0000;0.4868;1.0021;
453.3000;0.4868;0.9922;
453.6000;0.4876;0.9897;
453.9000;0.4876;0.9822;
454.2000;0.4876;0.9847;
454.5000;0.4884;0.9822;
454.8000;0.4876;0.9797;
455.1000;0.4876;0.9897;
455.4000;0.4908;0.9996;
455.7000;0.4876;0.9872;
456.0000;0.4827;0.9748;
456.3000;0.4851;0.9797;
456.6000;0.4900;0.9872;
456.9000;0.4933;1.0046;
457.2000;0.4900;1.0021;
457.5000;0.4876;0.9996;
457.8000;0.4908;1.0145;
458.1000;0.4917;1.0245;
458.4000;0.4884;1.0195;
458.7000;0.4876;1.0120;
459.0000;0.4892;1.0120;
459.3000;0.4876;1.0046;
459.6000;0.4892;1.0071;
459.9000;0.4843;0.9922;
460.2000;0.4892;0.9996;
460.5000;0.4843;1.0021;
460.8000;0.4876;0.9971;
461.1000;0.4860;0.9897;
461.4000;0.4876;0.9797;
461.7000;0.4876;0.9772;
462.0000;0.4925;0.9897;
462.3000;0.4876;0.9822;
462.6000;0.4892;0.9872;
462.9000;0.4860;0.9748;
463.2000;0.4917;0.9946;
463.5000;0.4835;0.9772;
463.8000;0.4868;0.9847;
464.1000;0.4843;0.9797;
464.4000;0.4868;0.9872;
464.7000;0.4819;0.9822;
465.0000;0.4868;0.9872;
465.3000;0.4860;0.9772;
465.6000;0.4925;0.9922;
465.9000;0.4868;0.9772;
466.2000;0.4868;0.9772;
466.5000;0.4851;0.9772;
466.8000;0.4860;0.9822;
467.1000;0.4868;0.9946;
467.4000;0.4884;0.9996;
467.7000;0.4876;0.9922;
468.0000;0.4884;0.9922;
468.3000;0.4876;0.9946;
468.6000;0.4860;0.9946;
468.9000;0.4868;0.9946;
469.2000;0.4876;1.0046;
469.5000;0.4868;1.0046;
469.8000;0.4860;1.0145;
470.1000;0.4868;1.0195;
470.4000;0.4868;1.0170;
470.7000;0.4884;1.0195;
471.0000;0.4876;1.0170;
471.3000;0.4819;1.0021;
471.6000;0.4851;1.0071;
471.9000;0.4868;1.0120;
472.2000;0.4860;1.0145;
472.5000;0.4884;1.0120;
472.8000;0.4868;1.0120;
473.1000;0.4860;1.0071;
473.4000;0.4868;0.9996;
473.7000;0.4860;0.9946;
474.0000;0.4860;1.0021;
474.3000;0.4860;0.9971;
474.6000;0.4884;0.9922;
474.9000;0.4892;0.9922;
475.2000;0.4884;0.9872;
475.5000;0.4868;0.9897;
475.8000;0.4860;0.9847;
476.1000;0.4843;0.9946;
476.4000;0.4876;1.0021;
476.7000;0.4876;1.0071;
477.0000;0.4851;1.0071;
477.3000;0.4892;1.0170;
477.6000;0.4860;0.9971;
477.9000;0.4876;0.9946;
478.2000;0.4868;0.9946;
478.5000;0.4827;0.9847;
478.8000;0.4900;1.0096;
479.1000;0.4860;1.0021;
479.4000;0.4851;1.0021;
479.7000;0.4835;0.9897;
480.0000;0.4876;0.9971;
480.3000;0.4965;1.0220;
480.6000;0.4965;1.0170;
480.9000;0.4860;0.9897;
481.2000;0.4900;1.0021;
481.5000;0.4892;1.0021;
481.8000;0.4860;1.0071;
482.1000;0.4851;1.0046;
482.4000;0.4876;1.0046;
482.7000;0.4860;0.9922;
483.0000;0.4876;0.9922;
483.3000;0.4860;0.9946;
483.6000;0.4860;0.9996;
483.9000;0.4860;0.9897;
484.2000;0.4843;0.9897;
484.5000;0.4851;0.9797;
484.8000;0.4860;0.9797;
485.1000;0.4860;0.9847;
485.4000;0.4860;0.9897;
485.7000;0.4851;0.9946;
486.0000;0.4860;0.9847;
486.3000;0.4860;0.9897;
486.6000;0.4876;0.9847;
486.9000;0.4876;0.9922;
487.2000;0.4868;1.0021;
487.5000;0.4876;1.0096;
487.8000;0.4860;1.0096;
488.1000;0.4868;1.0071;
488.4000;0.4925;1.0220;
488.7000;0.4868;1.0071;
489.0000;0.4876;1.0071;
489.3000;0.4884;1.0071;
489.6000;0.4868;0.9996;
489.9000;0.4851;0.9922;
490.2000;0.4868;0.9946;
490.5000;0.4860;0.9897;
490.8000;0.4884;0.9897;
491.1000;0.4876;0.9946;
491.4000;0.4868;0.9971;
491.7000;0.4860;0.9971;
492.0000;0.4884;1.0021;
492.3000;0.4868;0.9996;
492.6000;0.4851;0.9897;
492.9000;0.4860;0.9996;
493.2000;0.4835;0.9822;
493.5000;0.4843;0.9772;
493.8000;0.4868;0.9797;
494.1000;0.4860;0.9897;
494.4000;0.4876;0.9897;
494.7000;0.4851;0.9897;
495.0000;0.4860;0.9872;
495.3000;0.4778;0.9748;
495.6000;0.4876;1.0071;
495.9000;0.4860;1.0096;
496.2000;0.4851;1.0046;
496.5000;0.4876;1.0096;
496.8000;0.4868;1.0071;
497.1000;0.4803;0.9897;
497.4000;0.4900;1.0071;
497.7000;0.4851;0.9996;
498.0000;0.4868;1.0071;
498.3000;0.4884;1.0096;
498.6000;0.4868;0.9971;
498.9000;0.4851;0.9996;
499.2000;0.4868;0.9996;
499.5000;0.4884;1.0046;
499.8000;0.4851;0.9922;
500.1000;0.4843;0.9872;
500.4000;0.4860;0.9946;
500.7000;0.4835;0.9822;
501.0000;0.4835;0.9822;
501.3000;0.4876;0.9847;
501.6000;0.4892;0.9922;
501.9000;0.4876;0.9897;
502.2000;0.4868;0.9922;
502.5000;0.4843;0.9922;
502.8000;0.4892;0.9946;
503.1000;0.4876;0.9922;
503.4000;0.4827;0.9797;
503.7000;0.4868;0.9847;
504.0000;0.4884;0.9872;
504.3000;0.4876;0.9847;
504.6000;0.4860;0.9772;
504.9000;0.4868;0.9797;
505.2000;0.4884;0.9897;
505.5000;0.4851;0.9897;
505.8000;0.4868;0.9946;
506.1000;0.4860;0.9872;
506.4000;0.4851;0.9822;
506.7000;0.4876;0.9897;
507.0000;0.4892;0.9946;
507.3000;0.4884;0.9922;
507.6000;0.4860;0.9847;
507.9000;0.4868;0.9847;
508.2000;0.4908;0.9872;
508.5000;0.4860;0.9847;
508.8000;0.4860;0.9922;
509.1000;0.4868;0.9922;
509.4000;0.4860;0.9897;
509.7000;0.4851;0.9897;
510.0000;0.4843;0.9872;
510.3000;0.4860;0.9872;
510.6000;0.4860;0.9922;
510.9000;0.4860;0.9971;
511.2000;0.4803;0.9847;
511.5000;0.4892;1.0046;
511.8000;0.4868;0.9971;
512.1000;0.4860;0.9946;
512.4000;0.4876;0.9922;
512.7000;0.4876;0.9872;
513.0000;0.4876;0.9971;
513.3000;0.4860;1.0021;
513.6000;0.4843;0.9946;
513.9000;0.4835;0.9946;
514.2000;0.4851;0.9971;
514.5000;0.4860;0.9922;
514.8000;0.4851;0.9922;
515.1000;0.4860;1.0021;
515.4000;0.4868;1.0046;
515.7000;0.4876;0.9946;
516.0000;0.4868;0.9872;
516.3000;0.4868;0.9897;
516.6000;0.4876;0.9922;
516.9000;0.4884;0.9971;
517.2000;0.4868;0.9971;
517.5000;0.4860;0.9922;
517.8000;0.4860;0.9971;
518.1000;0.4860;0.9922;
518.4000;0.4835;0.9897;
518.7000;0.4851;0.9996;
519.0000;0.4843;0.9946;
519.3000;0.4811;0.9897;
519.6000;0.4827;1.0071;
519.9000;0.4884;1.0096;
520.2000;0.4851;1.0021;
520.5000;0.4851;1.0046;
520.8000;0.4860;0.9946;
521.1000;0.4835;0.9872;
521.4000;0.4843;0.9971;
521.7000;0.4908;1.0145;
522.0000;0.4803;0.9822;
522.3000;0.4860;1.0021;
522.6000;0.4851;0.9996;
522.9000;0.4786;0.9847;
523.2000;0.4843;1.0021;
523.5000;0.4843;0.9946;
523.8000;0.4835;0.9996;
524.1000;0.4851;1.0096;
524.4000;0.4876;1.0220;
524.7000;0.4860;1.0220;
525.0000;0.4851;1.0170;
525.3000;0.4843;1.0245;
525.6000;0.4925;1.0369;
525.9000;0.4851;1.0170;
526.2000;0.4803;0.9897;
526.5000;0.4835;0.9872;
526.8000;0.4884;0.9897;
527.1000;0.4884;0.9872;
527.4000;0.4860;0.9946;
527.7000;0.4860;0.9847;
528.0000;0.4860;0.9946;
528.3000;0.4860;0.9996;
528.6000;0.4860;1.0046;
528.9000;0.4827;1.0071;
529.2000;0.4860;0.9996;
529.5000;0.4868;0.9996;
529.8000;0.4860;1.0021;
530.1000;0.4851;0.9946;
530.4000;0.4843;0.9772;
530.7000;0.4851;0.9847;
531.0000;0.4835;0.9822;
531.3000;0.4868;0.9946;
531.6000;0.4868;0.9946;
531.9000;0.4860;0.9971;
532.2000;0.4908;1.0096;
532.5000;0.4868;0.9996;
532.8000;0.4851;0.9971;
533.1000;0.4851;1.0021;
533.4000;0.4860;1.0071;
533.7000;0.4835;1.0021;
534.0000;0.4851;1.0096;
534.3000;0.4851;1.0071;
534.6000;0.4843;0.9996;
534.9000;0.4843;1.0046;
535.2000;0.4835;0.9971;
535.5000;0.4827;0.9946;
535.8000;0.4860;1.0021;
536.1000;0.4811;0.9922;
536.4000;0.4843;0.9996;
536.7000;0.4868;1.0021;
537.0000;0.4868;1.0096;
537.3000;0.4868;1.0071;
537.6000;0.4860;0.9946;
537.9000;0.4900;1.0120;
538.2000;0.4851;1.0071;
538.5000;0.4843;1.0071;
538.8000;0.4868;1.0220;
539.1000;0.4851;1.0220;
539.4000;0.4794;1.0120;
539.7000;0.4868;1.0220;
540.0000;0.4843;1.0145;
540.3000;0.4860;1.0170;
540.6000;0.4851;1.0195;
540.9000;0.4860;1.0120;
541.2000;0.4860;1.0145;
541.5000;0.4843;1.0120;
541.8000;0.4851;1.0220;
542.1000;0.4892;1.0245;
542.4000;0.4860;1.0120;
542.7000;0.4876;1.0120;
543.0000;0.4868;1.0220;
543.3000;0.4860;1.0270;
543.6000;0.4876;1.0195;
543.9000;0.4925;1.0270;
544.2000;0.4892;1.0220;
544.5000;0.4843;1.0046;
544.8000;0.4835;0.9996;
545.1000;0.4843;1.0120;
545.4000;0.4835;1.0071;
545.7000;0.4851;1.0096;
546.0000;0.4851;1.0096;
546.3000;0.4868;1.0096;
546.6000;0.4851;1.0096;
546.9000;0.4851;1.0120;
547.2000;0.4860;1.0120;
547.5000;0.4892;1.0170;
547.8000;0.4860;1.0145;
548.1000;0.4843;1.0195;
548.4000;0.4843;1.0170;
548.7000;0.4860;1.0295;
549.0000;0.4860;1.0195;
549.3000;0.4843;1.0170;
549.6000;0.4851;1.0195;
549.9000;0.4851;1.0195;
550.2000;0.4851;1.0195;
550.5000;0.4843;1.0195;
550.8000;0.4843;1.0170;
551.1000;0.4843;1.0096;
551.4000;0.4884;1.0170;
551.7000;0.4851;1.0145;
552.0000;0.4851;1.0170;
552.3000;0.4843;1.0120;
552.6000;0.4843;1.0120;
552.9000;0.4803;0.9971;
553.2000;0.4843;0.9971;
553.5000;0.4884;1.0096;
553.8000;0.4884;1.0220;
554.1000;0.4900;1.0270;
554.4000;0.4851;1.0220;
554.7000;0.4843;1.0195;
555.0000;0.4900;1.0394;
555.3000;0.4843;1.0220;
555.6000;0.4851;1.0295;
555.9000;0.4827;1.0195;
556.2000;0.4835;1.0120;
556.5000;0.4843;1.0170;
556.8000;0.4843;1.0096;
557.1000;0.4835;1.0071;
557.4000;0.4827;1.0021;
557.7000;0.4835;1.0145;
558.0000;0.4794;1.0071;
558.3000;0.4786;1.0046;
558.6000;0.4835;1.0145;
558.9000;0.4851;1.0120;
559.2000;0.4860;1.0170;
559.5000;0.4843;1.0096;
559.8000;0.4851;1.0096;
560.1000;0.4860;1.0096;
560.4000;0.4843;1.0021;
560.7000;0.4843;0.9946;
561.0000;0.4860;1.0046;
561.3000;0.4851;0.9996;
561.6000;0.4860;1.0046;
561.9000;0.4835;0.9922;
562.2000;0.4851;0.9946;
562.5000;0.4851;0.9996;
562.8000;0.4851;0.9946;
563.1000;0.4851;0.9996;
563.4000;0.4835;1.0021;
563.7000;0.4827;0.9971;
564.0000;0.4851;0.9996;
564.3000;0.4843;1.0021;
564.6000;0.4868;1.0145;
564.9000;0.4843;1.0120;
565.2000;0.4868;1.0195;
565.5000;0.4851;1.0195;
565.8000;0.4851;1.0195;
566.1000;0.4819;1.0120;
566.4000;0.4868;1.0195;
566.7000;0.4868;1.0220;
567.0000;0.4827;1.0071;
567.3000;0.4819;1.0046;
567.6000;0.4851;1.0096;
567.9000;0.4851;1.0120;
568.2000;0.4868;1.0071;
568.5000;0.4860;1.0096;
568.8000;0.4851;1.0046;
569.1000;0.4851;1.0071;
569.4000;0.4843;1.0071;
569.7000;0.4794;0.9946;
570.0000;0.4851;1.0071;
570.3000;0.4860;1.0046;
570.6000;0.4843;1.0096;
570.9000;0.4860;1.0021;
571.2000;0.4876;1.0046;
571.5000;0.4803;0.9772;
571.8000;0.4819;0.9897;
572.1000;0.4884;1.0021;
572.4000;0.4843;0.9946;
572.7000;0.4860;1.0021;
573.0000;0.4876;0.9996;
573.3000;0.4868;0.9971;
573.6000;0.4835;0.9822;
573.9000;0.4827;0.9872;
574.2000;0.4835;0.9946;
574.5000;0.4811;0.9971;
574.8000;0.4843;1.0046;
575.1000;0.4819;0.9971;
575.4000;0.4827;0.9971;
575.7000;0.4835;1.0046;
576.0000;0.4868;1.0120;
576.3000;0.4860;0.9946;
576.6000;0.4851;0.9922;
576.9000;0.4851;0.9946;
577.2000;0.4851;0.9946;
577.5000;0.4860;0.9946;
577.8000;0.4860;0.9971;
578.1000;0.4803;0.9772;
578.4000;0.4851;0.9897;
578.7000;0.4843;1.0021;
579.0000;0.4860;1.0071;
579.3000;0.4860;1.0071;
579.6000;0.4843;1.0145;
579.9000;0.4851;1.0046;
580.2000;0.4835;0.9897;
580.5000;0.4851;0.9897;
580.8000;0.4843;0.9872;
581.1000;0.4835;0.9897;
581.4000;0.4843;1.0021;
581.7000;0.4843;1.0021;
582.0000;0.4851;1.0046;
582.3000;0.4851;0.9996;
582.6000;0.4843;1.0046;
582.9000;0.4851;1.0071;
583.2000;0.4851;0.9971;
583.5000;0.4827;0.9971;
583.8000;0.4851;0.9971;
584.1000;0.4851;0.9922;
584.4000;0.4884;0.9946;
584.7000;0.4827;0.9772;
585.0000;0.4851;0.9797;
585.3000;0.4843;0.9772;
585.6000;0.4900;0.9922;
585.9000;0.4835;0.9772;
586.2000;0.4835;0.9872;
586.5000;0.4876;1.0096;
586.8000;0.4851;1.0096;
587.1000;0.4851;1.0021;
587.4000;0.4851;1.0021;
587.7000;0.4811;0.9946;
588.0000;0.4843;1.0021;
588.3000;0.4876;0.9996;
588.6000;0.4786;0.9748;
588.9000;0.4827;0.9897;
589.2000;0.4835;0.9946;
589.5000;0.4868;1.0096;
589.8000;0.4827;0.9996;
590.1000;0.4876;1.0120;
590.4000;0.4794;0.9946;
590.7000;0.4851;1.0071;
591.0000;0.4851;1.0120;
591.3000;0.4843;1.0120;
591.6000;0.4843;1.0096;
591.9000;0.4843;0.9971;
592.2000;0.4843;0.9872;
592.5000;0.4860;0.9922;
592.8000;0.4843;0.9922;
593.1000;0.4851;0.9946;
593.4000;0.4908;1.0071;
593.7000;0.4811;0.9797;
594.0000;0.4803;0.9797;
594.3000;0.4835;0.9946;
594.6000;0.4868;1.0046;
594.9000;0.4835;0.9946;
595.2000;0.4835;1.0071;
595.5000;0.4835;1.0145;
595.8000;0.4868;1.0170;
596.1000;0.4746;0.9797;
596.4000;0.4851;1.0071;
596.7000;0.4860;1.0120;
597.0000;0.4851;1.0170;
597.3000;0.4917;1.0295;
597.6000;0.4835;1.0046;
597.9000;0.4860;1.0120;
598.2000;0.4860;1.0071;
598.5000;0.4819;1.0071;
598.8000;0.4827;1.0145;
599.1000;0.4835;1.0145;
599.4000;0.4835;1.0120;
599.7000;0.4851;1.0145;
600.0000;0.4851;1.0071;
600.3000;0.4843;0.9922;
600.6000;0.4835;0.9847;
600.9000;0.4762;0.9598;
601.2000;0.4705;0.9449;
601.5000;0.4656;0.9250;
601.8000;0.4583;0.9076;
602.1000;0.4534;0.9002;
602.4000;0.4444;0.8753;
602.7000;0.4379;0.8678;
603.0000;0.4355;0.8479;
603.3000;0.4298;0.8330;
603.6000;0.4249;0.8206;
603.9000;0.4192;0.8131;
604.2000;0.4168;0.8057;
604.5000;0.4135;0.7932;
604.8000;0.4094;0.7808;
605.1000;0.4062;0.7684;
605.4000;0.4013;0.7733;
605.7000;0.4021;0.7808;
606.0000;0.3980;0.7783;
606.3000;0.3972;0.7883;
606.6000;0.3940;0.7758;
606.9000;0.3940;0.7758;
607.2000;0.3915;0.7659;
607.5000;0.3940;0.7634;
607.8000;0.3883;0.7460;
608.1000;0.3875;0.7460;
608.4000;0.3850;0.7485;
608.7000;0.3826;0.7410;
609.0000;0.3826;0.7410;
609.3000;0.3818;0.7510;
609.6000;0.3801;0.7410;
609.9000;0.3785;0.7460;
610.2000;0.3769;0.7435;
610.5000;0.3769;0.7460;
610.8000;0.3753;0.7485;
611.1000;0.3736;0.7460;
611.4000;0.3720;0.7360;
611.7000;0.3614;0.7062;
612.0000;0.3744;0.7410;
612.3000;0.3655;0.7261;
612.6000;0.3696;0.7460;
612.9000;0.3761;0.7559;
613.2000;0.3704;0.7360;
613.5000;0.3696;0.7286;
613.8000;0.3679;0.7236;
614.1000;0.3687;0.7211;
614.4000;0.3671;0.7186;
614.7000;0.3663;0.7186;
615.0000;0.3647;0.7087;
615.3000;0.3655;0.7161;
615.6000;0.3679;0.7211;
615.9000;0.3639;0.7186;
616.2000;0.3639;0.7161;
616.5000;0.3614;0.7161;
616.8000;0.3639;0.7261;
617.1000;0.3630;0.7311;
617.4000;0.3606;0.7236;
617.7000;0.3606;0.7335;
618.0000;0.3606;0.7311;
618.3000;0.3630;0.7211;
618.6000;0.3598;0.7112;
618.9000;0.3598;0.7161;
619.2000;0.3573;0.7087;
619.5000;0.3598;0.7037;
619.8000;0.3565;0.6987;
620.1000;0.3573;0.7062;
620.4000;0.3590;0.7137;
620.7000;0.3582;0.7062;
621.0000;0.3663;0.7360;
621.3000;0.3573;0.7211;
621.6000;0.3541;0.7137;
621.9000;0.3565;0.7137;
622.2000;0.3565;0.7186;
622.5000;0.3573;0.7261;
622.8000;0.3557;0.7186;
623.1000;0.3541;0.7161;
623.4000;0.3557;0.7286;
623.7000;0.3549;0.7286;
624.0000;0.3549;0.7261;
624.3000;0.3582;0.7261;
624.6000;0.3533;0.7112;
624.9000;0.3541;0.7137;
625.2000;0.3549;0.7037;
625.5000;0.3525;0.6963;
625.8000;0.3590;0.7137;
626.1000;0.3541;0.6963;
626.4000;0.3525;0.6987;
626.7000;0.3516;0.7112;
627.0000;0.3500;0.7062;
627.3000;0.3533;0.7062;
627.6000;0.3614;0.7286;
627.9000;0.3516;0.6987;
628.2000;0.3525;0.6963;
628.5000;0.3500;0.6938;
628.8000;0.3500;0.6963;
629.1000;0.3525;0.7012;
629.4000;0.3492;0.7012;
629.7000;0.3443;0.6838;
630.0000;0.3508;0.7012;
630.3000;0.3492;0.7012;
630.6000;0.3476;0.6888;
630.9000;0.3492;0.6913;
631.2000;0.3500;0.6888;
631.5000;0.3525;0.6938;
631.8000;0.3508;0.6913;
632.1000;0.3492;0.6888;
632.4000;0.3451;0.6764;
632.7000;0.3565;0.7161;
633.0000;0.3460;0.6838;
633.3000;0.3492;0.6987;
633.6000;0.3484;0.6938;
633.9000;0.3476;0.6938;
634.2000;0.3476;0.6913;
634.5000;0.3508;0.7012;
634.8000;0.3476;0.7012;
635.1000;0.3484;0.6913;
635.4000;0.3468;0.6913;
635.7000;0.3468;0.6888;
636.0000;0.3468;0.6963;
636.3000;0.3476;0.6938;
636.6000;0.3468;0.6863;
636.9000;0.3451;0.6888;
637.2000;0.3460;0.6987;
637.5000;0.3460;0.6987;
637.8000;0.3460;0.7062;
638.1000;0.3427;0.6913;
638.4000;0.3451;0.6913;
638.7000;0.3451;0.6888;
639.0000;0.3443;0.6913;
639.3000;0.3435;0.6913;
639.6000;0.3435;0.6888;
639.9000;0.3435;0.6838;
640.2000;0.3451;0.6764;
640.5000;0.3435;0.6813;
640.8000;0.3427;0.6888;
641.1000;0.3419;0.6963;
641.4000;0.3435;0.7062;
641.7000;0.3443;0.7062;
642.0000;0.3435;0.7087;
642.3000;0.3435;0.7037;
642.6000;0.3443;0.7087;
642.9000;0.3427;0.7112;
643.2000;0.3419;0.7062;
643.5000;0.3435;0.7087;
643.8000;0.3411;0.7012;
644.1000;0.3427;0.7087;
644.4000;0.3427;0.7062;
644.7000;0.3443;0.7137;
645.0000;0.3394;0.7012;
645.3000;0.3394;0.6938;
645.6000;0.3394;0.6938;
645.9000;0.3394;0.6987;
646.2000;0.3403;0.6913;
646.5000;0.3411;0.6987;
646.8000;0.3419;0.6987;
647.1000;0.3354;0.6838;
647.4000;0.3403;0.6938;
647.7000;0.3419;0.6938;
648.0000;0.3443;0.6987;
648.3000;0.3354;0.6788;
648.6000;0.3394;0.6813;
648.9000;0.3394;0.6764;
649.2000;0.3411;0.6838;
649.5000;0.3394;0.6838;
649.8000;0.3321;0.6540;
650.1000;0.3394;0.6714;
650.4000;0.3362;0.6639;
650.7000;0.3386;0.6739;
651.0000;0.3403;0.6888;
651.3000;0.3297;0.6664;
651.6000;0.3386;0.6938;
651.9000;0.3346;0.6863;
652.2000;0.3476;0.7161;
652.5000;0.3411;0.7137;
652.8000;0.3451;0.7161;
653.1000;0.3403;0.6963;
653.4000;0.3403;0.6963;
653.7000;0.3394;0.6938;
654.0000;0.3386;0.6913;
654.3000;0.3427;0.7012;
654.6000;0.3386;0.6888;
654.9000;0.3378;0.6913;
655.2000;0.3403;0.6913;
655.5000;0.3386;0.6938;
655.8000;0.3362;0.6987;
656.1000;0.3370;0.7037;
656.4000;0.3370;0.6938;
656.7000;0.3419;0.7062;
657.0000;0.3378;0.7012;
657.3000;0.3378;0.6987;
657.6000;0.3370;0.6963;
657.9000;0.3362;0.6938;
658.2000;0.3370;0.6863;
658.5000;0.3354;0.6664;
658.8000;0.3354;0.6689;
659.1000;0.3346;0.6689;
659.4000;0.3443;0.6963;
659.7000;0.3386;0.6913;
660.0000;0.3337;0.6913;
660.3000;0.3362;0.7012;
660.6000;0.3362;0.6987;
660.9000;0.3370;0.6963;
661.2000;0.3403;0.7062;
661.5000;0.3370;0.7012;
661.8000;0.3370;0.7012;
662.1000;0.3354;0.6987;
662.4000;0.3337;0.6863;
662.7000;0.3362;0.6913;
663.0000;0.3370;0.6987;
663.3000;0.3346;0.6963;
663.6000;0.3346;0.7012;
663.9000;0.3362;0.7012;
664.2000;0.3370;0.6963;
664.5000;0.3346;0.6938;
664.8000;0.3346;0.6938;
665.1000;0.3354;0.6987;
665.4000;0.3346;0.6963;
665.7000;0.3362;0.6987;
666.0000;0.3411;0.7137;
666.3000;0.3329;0.6913;
666.6000;0.3378;0.7087;
666.9000;0.3354;0.6987;
667.2000;0.3362;0.6938;
667.5000;0.3346;0.6863;
667.8000;0.3337;0.6913;
668.1000;0.3378;0.6913;
668.4000;0.3305;0.6739;
668.7000;0.3329;0.6838;
669.0000;0.3321;0.6888;
669.3000;0.3337;0.7012;
669.6000;0.3305;0.6888;
669.9000;0.3362;0.7037;
670.2000;0.3337;0.6987;
670.5000;0.3346;0.6938;
670.8000;0.3337;0.6888;
671.1000;0.3313;0.6987;
671.4000;0.3370;0.7112;
671.7000;0.3346;0.7062;
672.0000;0.3321;0.6963;
672.3000;0.3370;0.7087;
672.6000;0.3321;0.6987;
672.9000;0.3337;0.6987;
673.2000;0.3354;0.7037;
673.5000;0.3354;0.7012;
673.8000;0.3337;0.7012;
674.1000;0.3354;0.7137;
674.4000;0.3337;0.7112;
674.7000;0.3329;0.7037;
675.0000;0.3329;0.7037;
675.3000;0.3329;0.7012;
675.6000;0.3337;0.7087;
675.9000;0.3321;0.6987;
676.2000;0.3329;0.6963;
676.5000;0.3329;0.6963;
676.8000;0.3329;0.6963;
677.1000;0.3321;0.6913;
677.4000;0.3321;0.6838;
677.7000;0.3321;0.6838;
678.0000;0.3329;0.6838;
678.3000;0.3337;0.6913;
678.6000;0.3337;0.6913;
678.9000;0.3337;0.6913;
679.2000;0.3321;0.7062;
679.5000;0.3337;0.7137;
679.8000;0.3313;0.7012;
680.1000;0.3329;0.6987;
680.4000;0.3313;0.6987;
680.7000;0.3264;0.6863;
681.0000;0.3313;0.7037;
681.3000;0.3305;0.7037;
681.6000;0.3313;0.7037;
681.9000;0.3337;0.7012;
682.2000;0.3329;0.6987;
682.5000;0.3321;0.6913;
682.8000;0.3329;0.6838;
683.1000;0.3321;0.6838;
683.4000;0.3305;0.6838;
683.7000;0.3321;0.6863;
684.0000;0.3297;0.6938;
684.3000;0.3321;0.7037;
684.6000;0.3305;0.6963;
684.9000;0.3305;0.6963;
685.2000;0.3280;0.6913;
685.5000;0.3289;0.6813;
685.8000;0.3305;0.6813;
686.1000;0.3297;0.6863;
686.4000;0.3280;0.6913;
686.7000;0.3297;0.6938;
687.0000;0.3248;0.6838;
687.3000;0.3289;0.6938;
687.6000;0.3272;0.6764;
687.9000;0.3297;0.6963;
688.2000;0.3248;0.6888;
688.5000;0.3354;0.7112;
688.8000;0.3289;0.6938;
689.1000;0.3297;0.6963;
689.4000;0.3280;0.6963;
689.7000;0.3272;0.6938;
690.0000;0.3289;0.6913;
690.3000;0.3289;0.6913;
690.6000;0.3272;0.6838;
690.9000;0.3313;0.7037;
691.2000;0.3321;0.7012;
691.5000;0.3272;0.6938;
691.8000;0.3272;0.7012;
692.1000;0.3280;0.6938;
692.4000;0.3313;0.6987;
692.7000;0.3297;0.7012;
693.0000;0.3289;0.7037;
693.3000;0.3305;0.7112;
693.6000;0.3289;0.7037;
693.9000;0.3289;0.6913;
694.2000;0.3280;0.6963;
694.5000;0.3305;0.7037;
694.8000;0.3289;0.7062;
695.1000;0.3297;0.7137;
695.4000;0.3289;0.7261;
695.7000;0.3280;0.7286;
696.0000;0.3346;0.7385;
696.3000;0.3280;0.7112;
696.6000;0.3297;0.7261;
696.9000;0.3289;0.7236;
697.2000;0.3280;0.7236;
697.5000;0.3289;0.7335;
697.8000;0.3289;0.7261;
698.1000;0.3280;0.7211;
698.4000;0.3240;0.7161;
698.7000;0.3305;0.7261;
699.0000;0.3280;0.7211;
699.3000;0.3264;0.7211;
699.6000;0.3280;0.7186;
699.9000;0.3280;0.7161;
700.2000;0.3289;0.7261;
700.5000;0.3313;0.7261;
700.8000;0.3289;0.7161;
701.1000;0.3280;0.7062;
701.4000;0.3289;0.7087;
701.7000;0.3289;0.7087;
702.0000;0.3272;0.7137;
702.3000;0.3272;0.7211;
702.6000;0.3272;0.7161;
702.9000;0.3321;0.7161;
703.2000;0.3289;0.7087;
703.5000;0.3280;0.7087;
703.8000;0.3289;0.7112;
704.1000;0.3264;0.7087;
704.4000;0.3256;0.7087;
704.7000;0.3272;0.7137;
705.0000;0.3248;0.7112;
705.3000;0.3272;0.7137;
705.6000;0.3264;0.7161;
705.9000;0.3264;0.7087;
706.2000;0.3264;0.7137;
706.5000;0.3354;0.7335;
706.8000;0.3264;0.7012;
707.1000;0.3297;0.7037;
707.4000;0.3272;0.6987;
707.7000;0.3280;0.6913;
708.0000;0.3223;0.6788;
708.3000;0.3248;0.6788;
708.6000;0.3264;0.6788;
708.9000;0.3264;0.6838;
709.2000;0.3232;0.6689;
709.5000;0.3223;0.6689;
709.8000;0.3248;0.6764;
710.1000;0.3248;0.6813;
710.4000;0.3248;0.6863;
710.7000;0.3256;0.6813;
711.0000;0.3289;0.6913;
711.3000;0.3264;0.6764;
711.6000;0.3346;0.7012;
711.9000;0.3272;0.6813;
712.2000;0.3297;0.6963;
712.5000;0.3272;0.6888;
712.8000;0.3313;0.7112;
713.1000;0.3264;0.7062;
713.4000;0.3264;0.7087;
713.7000;0.3264;0.7112;
714.0000;0.3297;0.7211;
714.3000;0.3256;0.7112;
714.6000;0.3207;0.6987;
714.9000;0.3264;0.7087;
715.2000;0.3256;0.7062;
715.5000;0.3256;0.7137;
715.8000;0.3240;0.7112;
716.1000;0.3256;0.7087;
716.4000;0.3232;0.7012;
716.7000;0.3256;0.7161;
717.0000;0.3256;0.7087;
717.3000;0.3264;0.7062;
717.6000;0.3240;0.6813;
717.9000;0.3256;0.6863;
718.2000;0.3256;0.6788;
718.5000;0.3223;0.6764;
718.8000;0.3264;0.6863;
719.1000;0.3248;0.6888;
719.4000;0.3240;0.6888;
719.7000;0.3240;0.7012;
720.0000;0.3248;0.7112;
720.3000;0.3256;0.7112;
720.6000;0.3264;0.7161;
720.9000;0.3248;0.7186;
721.2000;0.3280;0.7335;
721.5000;0.3232;0.7335;
721.8000;0.3264;0.7360;
722.1000;0.3240;0.7311;
722.4000;0.3248;0.7261;
722.7000;0.3272;0.7286;
723.0000;0.3248;0.7286;
723.3000;0.3248;0.7261;
723.6000;0.3272;0.7286;
723.9000;0.3248;0.7261;
724.2000;0.3240;0.7261;
724.5000;0.3256;0.7311;
724.8000;0.3248;0.7286;
725.1000;0.3240;0.7261;
725.4000;0.3248;0.7261;
725.7000;0.3248;0.7261;
726.0000;0.3256;0.7261;
726.3000;0.3223;0.7211;
726.6000;0.3305;0.7410;
726.9000;0.3248;0.7186;
727.2000;0.3248;0.7137;
727.5000;0.3256;0.7186;
727.8000;0.3264;0.7186;
728.1000;0.3256;0.7211;
728.4000;0.3183;0.7037;
728.7000;0.3248;0.7137;
729.0000;0.3256;0.7211;
729.3000;0.3240;0.7211;
729.6000;0.3215;0.7062;
729.9000;0.3240;0.7186;
730.2000;0.3256;0.7236;
730.5000;0.3280;0.7261;
730.8000;0.3248;0.7211;
731.1000;0.3240;0.6987;
731.4000;0.3264;0.7037;
731.7000;0.3256;0.6963;
732.0000;0.3248;0.6963;
732.3000;0.3232;0.6963;
732.6000;0.3256;0.7112;
732.9000;0.3240;0.7137;
733.2000;0.3248;0.7137;
733.5000;0.3232;0.7112;
733.8000;0.3232;0.7062;
734.1000;0.3183;0.6913;
734.4000;0.3240;0.7112;
734.7000;0.3240;0.7062;
735.0000;0.3248;0.7012;
735.3000;0.3232;0.7062;
735.6000;0.3232;0.7161;
735.9000;0.3223;0.7112;
736.2000;0.3232;0.7137;
736.5000;0.3223;0.7087;
736.8000;0.3280;0.7236;
737.1000;0.3240;0.7137;
737.4000;0.3223;0.7161;
737.7000;0.3223;0.7137;
738.0000;0.3248;0.7087;
738.3000;0.3223;0.7012;
738.6000;0.3240;0.7012;
738.9000;0.3232;0.6913;
739.2000;0.3240;0.7012;
739.5000;0.3215;0.6987;
739.8000;0.3223;0.6963;
740.1000;0.3207;0.7012;
740.4000;0.3215;0.7037;
740.7000;0.3223;0.7012;
741.0000;0.3207;0.7087;
741.3000;0.3223;0.7137;
741.6000;0.3232;0.7161;
741.9000;0.3248;0.7211;
742.2000;0.3272;0.7236;
742.5000;0.3240;0.7012;
742.8000;0.3232;0.7037;
743.1000;0.3223;0.7062;
743.4000;0.3264;0.7236;
743.7000;0.3240;0.7261;
744.0000;0.3223;0.7211;
744.3000;0.3264;0.7186;
744.6000;0.3248;0.7236;
744.9000;0.3232;0.7112;
745.2000;0.3223;0.7062;
745.5000;0.3199;0.6963;
745.8000;0.3232;0.7087;
746.1000;0.3232;0.7062;
746.4000;0.3223;0.6888;
746.7000;0.3232;0.6938;
747.0000;0.3232;0.7037;
747.3000;0.3248;0.7062;
747.6000;0.3248;0.7137;
747.9000;0.3240;0.7137;
748.2000;0.3215;0.6987;
748.5000;0.3191;0.6963;
748.8000;0.3240;0.7137;
749.1000;0.3223;0.7087;
749.4000;0.3305;0.7385;
749.7000;0.3240;0.7261;
750.0000;0.3223;0.7211;
750.3000;0.3240;0.7211;
750.6000;0.3240;0.7261;
750.9000;0.3223;0.7236;
751.2000;0.3232;0.7311;
751.5000;0.3264;0.7360;
751.8000;0.3232;0.7261;
752.1000;0.3240;0.7261;
752.4000;0.3158;0.7062;
752.7000;0.3215;0.7311;
753.0000;0.3223;0.7261;
753.3000;0.3215;0.7236;
753.6000;0.3223;0.7211;
753.9000;0.3223;0.7211;
754.2000;0.3207;0.7236;
754.5000;0.3215;0.7186;
754.8000;0.3223;0.7286;
755.1000;0.3191;0.7112;
755.4000;0.3215;0.7186;
755.7000;0.3215;0.7087;
756.0000;0.3215;0.7161;
756.3000;0.3240;0.7261;
756.6000;0.3215;0.7161;
756.9000;0.3199;0.7062;
757.2000;0.3223;0.7112;
757.5000;0.3232;0.7186;
757.8000;0.3215;0.7137;
758.1000;0.3256;0.7236;
758.4000;0.3215;0.7112;
758.7000;0.3215;0.7112;
759.0000;0.3199;0.7112;
759.3000;0.3199;0.7161;
759.6000;0.3223;0.7186;
759.9000;0.3215;0.7112;
760.2000;0.3199;0.7236;
760.5000;0.3215;0.7286;
760.8000;0.3215;0.7335;
761.1000;0.3232;0.7311;
761.4000;0.3232;0.7311;
761.7000;0.3207;0.7360;
762.0000;0.3207;0.7311;
762.3000;0.3223;0.7311;
762.6000;0.3215;0.7286;
762.9000;0.3183;0.7236;
763.2000;0.3207;0.7311;
763.5000;0.3223;0.7311;
763.8000;0.3215;0.7236;
764.1000;0.3183;0.7186;
764.4000;0.3232;0.7311;
764.7000;0.3207;0.7211;
765.0000;0.3199;0.7286;
765.3000;0.3191;0.7261;
765.6000;0.3199;0.7311;
765.9000;0.3289;0.7510;
766.2000;0.3240;0.7360;
766.5000;0.3232;0.7311;
766.8000;0.3191;0.7161;
767.1000;0.3223;0.7186;
767.4000;0.3215;0.7186;
767.7000;0.3207;0.7236;
768.0000;0.3215;0.7335;
768.3000;0.3199;0.7286;
768.6000;0.3207;0.7261;
768.9000;0.3223;0.7286;
769.2000;0.3207;0.7186;
769.5000;0.3199;0.7137;
769.8000;0.3191;0.7087;
770.1000;0.3199;0.7137;
770.4000;0.3207;0.7087;
770.7000;0.3232;0.7211;
771.0000;0.3207;0.7137;
771.3000;0.3199;0.7137;
771.6000;0.3232;0.7137;
771.9000;0.3215;0.7161;
772.2000;0.3223;0.7062;
772.5000;0.3223;0.7112;
772.8000;0.3207;0.7112;
773.1000;0.3207;0.7137;
773.4000;0.3166;0.7087;
773.7000;0.3199;0.7311;
774.0000;0.3199;0.7261;
774.3000;0.3215;0.7236;
774.6000;0.3199;0.7261;
774.9000;0.3215;0.7261;
775.2000;0.3183;0.7161;
775.5000;0.3191;0.7137;
775.8000;0.3191;0.7186;
776.1000;0.3207;0.7311;
776.4000;0.3207;0.7335;
776.7000;0.3215;0.7385;
777.0000;0.3199;0.7311;
777.3000;0.3191;0.7286;
777.6000;0.3134;0.7186;
777.9000;0.3215;0.7335;
778.2000;0.3183;0.7236;
778.5000;0.3207;0.7186;
778.8000;0.3207;0.7112;
779.1000;0.3264;0.7261;
779.4000;0.3207;0.7112;
779.7000;0.3199;0.7112;
780.0000;0.3207;0.7137;
780.3000;0.3183;0.7062;
780.6000;0.3215;0.7087;
780.9000;0.3215;0.7137;
781.2000;0.3207;0.7112;
781.5000;0.3248;0.7286;
781.8000;0.3199;0.7236;
782.1000;0.3240;0.7311;
782.4000;0.3183;0.7236;
782.7000;0.3199;0.7261;
783.0000;0.3191;0.7261;
783.3000;0.3199;0.7286;
783.6000;0.3264;0.7460;
783.9000;0.3215;0.7211;
784.2000;0.3134;0.6913;
784.5000;0.3142;0.6938;
784.8000;0.3150;0.7012;
785.1000;0.3207;0.7137;
785.4000;0.3215;0.7137;
785.7000;0.3199;0.7087;
786.0000;0.3207;0.7012;
786.3000;0.3199;0.6987;
786.6000;0.3199;0.6913;
786.9000;0.3232;0.7087;
787.2000;0.3199;0.7012;
787.5000;0.3215;0.7112;
787.8000;0.3223;0.7137;
788.1000;0.3158;0.6888;
788.4000;0.3215;0.6963;
788.7000;0.3207;0.7037;
789.0000;0.3199;0.6987;
789.3000;0.3175;0.6913;
789.6000;0.3183;0.6913;
789.9000;0.3272;0.7211;
790.2000;0.3183;0.6963;
790.5000;0.3199;0.7012;
790.8000;0.3289;0.7335;
791.1000;0.3199;0.7112;
791.4000;0.3215;0.7112;
791.7000;0.3191;0.7062;
792.0000;0.3199;0.6963;
792.3000;0.3240;0.7137;
792.6000;0.3215;0.7062;
792.9000;0.3199;0.7112;
793.2000;0.3215;0.7112;
793.5000;0.3191;0.7137;
793.8000;0.3191;0.7161;
794.1000;0.3223;0.7286;
794.4000;0.3199;0.7311;
794.7000;0.3175;0.7335;
795.0000;0.3215;0.7311;
795.3000;0.3191;0.7261;
795.6000;0.3175;0.7211;
795.9000;0.3142;0.7037;
796.2000;0.3175;0.7062;
796.5000;0.3199;0.7087;
796.8000;0.3207;0.7137;
797.1000;0.3175;0.7137;
797.4000;0.3199;0.7311;
797.7000;0.3183;0.7236;
798.0000;0.3232;0.7385;
798.3000;0.3183;0.7261;
798.6000;0.3158;0.7236;
798.9000;0.3191;0.7286;
799.2000;0.3175;0.7335;
799.5000;0.3191;0.7435;
799.8000;0.3199;0.7485;
800.1000;0.3191;0.7410;
800.4000;0.3199;0.7435;
800.7000;0.3191;0.7311;
801.0000;0.3183;0.7410;
801.3000;0.3199;0.7460;
801.6000;0.3199;0.7410;
801.9000;0.3199;0.7335;
802.2000;0.3175;0.7335;
802.5000;0.3207;0.7311;
802.8000;0.3199;0.7335;
803.1000;0.3215;0.7410;
803.4000;0.3166;0.7236;
803.7000;0.3191;0.7311;
804.0000;0.3150;0.7261;
804.3000;0.3232;0.7410;
804.6000;0.3191;0.7335;
804.9000;0.3199;0.7360;
805.2000;0.3191;0.7261;
805.5000;0.3191;0.7360;
805.8000;0.3175;0.7410;
806.1000;0.3191;0.7435;
806.4000;0.3158;0.7360;
806.7000;0.3101;0.7261;
807.0000;0.3199;0.7510;
807.3000;0.3191;0.7534;
807.6000;0.3142;0.7485;
807.9000;0.3215;0.7659;
808.2000;0.3199;0.7485;
808.5000;0.3264;0.7609;
808.8000;0.3191;0.7360;
809.1000;0.3134;0.7186;
809.4000;0.3183;0.7360;
809.7000;0.3166;0.7286;
810.0000;0.3191;0.7261;
810.3000;0.3191;0.7211;
810.6000;0.3191;0.7211;
810.9000;0.3175;0.7211;
811.2000;0.3166;0.7186;
811.5000;0.3191;0.7211;
811.8000;0.3158;0.7037;
812.1000;0.3183;0.7087;
812.4000;0.3183;0.7087;
812.7000;0.3191;0.7137;
813.0000;0.3191;0.7161;
813.3000;0.3166;0.7161;
813.6000;0.3183;0.7137;
813.9000;0.3215;0.7211;
814.2000;0.3191;0.7161;
814.5000;0.3166;0.7112;
814.8000;0.3207;0.7261;
815.1000;0.3158;0.7236;
815.4000;0.3199;0.7311;
815.7000;0.3199;0.7286;
816.0000;0.3183;0.7211;
816.3000;0.3191;0.7261;
816.6000;0.3183;0.7236;
816.9000;0.3183;0.7286;
817.2000;0.3199;0.7311;
817.5000;0.3150;0.7112;
817.8000;0.3158;0.7112;
818.1000;0.3191;0.7137;
818.4000;0.3191;0.7236;
818.7000;0.3191;0.7311;
819.0000;0.3183;0.7211;
819.3000;0.3183;0.7311;
819.6000;0.3150;0.7286;
819.9000;0.3207;0.7311;
820.2000;0.3175;0.7311;
820.5000;0.3175;0.7335;
820.8000;0.3199;0.7435;
821.1000;0.3199;0.7460;
821.4000;0.3215;0.7485;
821.7000;0.3199;0.7410;
822.0000;0.3191;0.7385;
822.3000;0.3207;0.7410;
822.6000;0.3183;0.7360;
822.9000;0.3256;0.7559;
823.2000;0.3183;0.7510;
823.5000;0.3207;0.7634;
823.8000;0.3175;0.7559;
824.1000;0.3183;0.7534;
824.4000;0.3240;0.7609;
824.7000;0.3183;0.7485;
825.0000;0.3126;0.7286;
825.3000;0.3134;0.7311;
825.6000;0.3158;0.7360;
825.9000;0.3199;0.7460;
826.2000;0.3223;0.7609;
826.5000;0.3166;0.7510;
826.8000;0.3142;0.7485;
827.1000;0.3158;0.7534;
827.4000;0.3183;0.7510;
827.7000;0.3166;0.7534;
828.0000;0.3199;0.7584;
828.3000;0.3175;0.7435;
828.6000;0.3183;0.7485;
828.9000;0.3166;0.7435;
829.2000;0.3183;0.7534;
829.5000;0.3175;0.7510;
829.8000;0.3158;0.7410;
830.1000;0.3207;0.7534;
830.4000;0.3158;0.7460;
830.7000;0.3183;0.7435;
831.0000;0.3175;0.7385;
831.3000;0.3175;0.7435;
831.6000;0.3166;0.7410;
831.9000;0.3175;0.7460;
832.2000;0.3191;0.7485;
832.5000;0.3183;0.7435;
832.8000;0.3183;0.7360;
833.1000;0.3166;0.7335;
833.4000;0.3183;0.7286;
833.7000;0.3183;0.7186;
834.0000;0.3158;0.7236;
834.3000;0.3175;0.7261;
834.6000;0.3191;0.7186;
834.9000;0.3166;0.7037;
835.2000;0.3183;0.7087;
835.5000;0.3158;0.7037;
835.8000;0.3166;0.7112;
836.1000;0.3158;0.7137;
836.4000;0.3248;0.7410;
836.7000;0.3158;0.7236;
837.0000;0.3175;0.7360;
837.3000;0.3166;0.7286;
837.6000;0.3183;0.7286;
837.9000;0.3183;0.7261;
838.2000;0.3199;0.7186;
838.5000;0.3183;0.7211;
838.8000;0.3126;0.7012;
839.1000;0.3158;0.7186;
839.4000;0.3166;0.7186;
839.7000;0.3175;0.7137;
840.0000;0.3150;0.7137;
840.3000;0.3142;0.7037;
840.6000;0.3158;0.7112;
840.9000;0.3191;0.7286;
841.2000;0.3150;0.7112;
841.5000;0.3166;0.7137;
841.8000;0.3134;0.7037;
842.1000;0.3166;0.7211;
842.4000;0.3191;0.7261;
842.7000;0.3150;0.7112;
843.0000;0.3158;0.7161;
843.3000;0.3142;0.7112;
843.6000;0.3150;0.7211;
843.9000;0.3158;0.7211;
844.2000;0.3166;0.7311;
844.5000;0.3191;0.7385;
844.8000;0.3199;0.7385;
845.1000;0.3183;0.7460;
845.4000;0.3166;0.7485;
845.7000;0.3150;0.7410;
846.0000;0.3150;0.7460;
846.3000;0.3150;0.7485;
846.6000;0.3166;0.7534;
846.9000;0.3166;0.7584;
847.2000;0.3175;0.7584;
847.5000;0.3166;0.7485;
847.8000;0.3175;0.7435;
848.1000;0.3166;0.7335;
848.4000;0.3175;0.7311;
848.7000;0.3175;0.7360;
849.0000;0.3093;0.7211;
849.3000;0.3150;0.7261;
849.6000;0.3199;0.7286;
849.9000;0.3166;0.7211;
850.2000;0.3134;0.7236;
850.5000;0.3158;0.7335;
850.8000;0.3158;0.7261;
851.1000;0.3150;0.7261;
851.4000;0.3150;0.7286;
851.7000;0.3183;0.7335;
852.0000;0.3158;0.7435;
852.3000;0.3175;0.7435;
852.6000;0.3175;0.7311;
852.9000;0.3191;0.7311;
853.2000;0.3175;0.7311;
853.5000;0.3183;0.7261;
853.8000;0.3175;0.7385;
854.1000;0.3175;0.7311;
854.4000;0.3150;0.7286;
854.7000;0.3183;0.7410;
855.0000;0.3166;0.7385;
855.3000;0.3183;0.7460;
855.6000;0.3158;0.7410;
855.9000;0.3166;0.7360;
856.2000;0.3166;0.7311;
856.5000;0.3150;0.7261;
856.8000;0.3150;0.7211;
857.1000;0.3191;0.7360;
857.4000;0.3175;0.7286;
857.7000;0.3166;0.7236;
858.0000;0.3183;0.7211;
858.3000;0.3118;0.7012;
858.6000;0.3175;0.7186;
858.9000;0.3183;0.7236;
859.2000;0.3272;0.7485;
859.5000;0.3175;0.7236;
859.8000;0.3158;0.7236;
860.1000;0.3166;0.7311;
860.4000;0.3126;0.7311;
860.7000;0.3166;0.7510;
861.0000;0.3199;0.7460;
861.3000;0.3166;0.7311;
861.6000;0.3166;0.7211;
861.9000;0.3158;0.7261;
862.2000;0.3166;0.7261;
862.5000;0.3199;0.7360;
862.8000;0.3175;0.7311;
863.1000;0.3175;0.7261;
863.4000;0.3183;0.7311;
863.7000;0.3191;0.7335;
864.0000;0.3175;0.7261;
864.3000;0.3158;0.7286;
864.6000;0.3166;0.7236;
864.9000;0.3093;0.7062;
865.2000;0.3158;0.7161;
865.5000;0.3158;0.7186;
865.8000;0.3175;0.7211;
866.1000;0.3150;0.7161;
866.4000;0.3158;0.7186;
866.7000;0.3166;0.7161;
867.0000;0.3166;0.7211;
867.3000;0.3142;0.7186;
867.6000;0.3207;0.7236;
867.9000;0.3183;0.7161;
868.2000;0.3175;0.7211;
868.5000;0.3175;0.7161;
868.8000;0.3134;0.7137;
869.1000;0.3199;0.7137;
869.4000;0.3207;0.7236;
869.7000;0.3183;0.7186;
870.0000;0.3166;0.7161;
870.3000;0.3240;0.7311;
870.6000;0.3134;0.7112;
870.9000;0.3158;0.7186;
871.2000;0.3191;0.7261;
871.5000;0.3175;0.7236;
871.8000;0.3158;0.7236;
872.1000;0.3158;0.7236;
872.4000;0.3166;0.7211;
872.7000;0.3175;0.7186;
873.0000;0.3175;0.7112;
873.3000;0.3158;0.7087;
873.6000;0.3215;0.7186;
873.9000;0.3166;0.6987;
874.2000;0.3223;0.7186;
874.5000;0.3150;0.7087;
874.8000;0.3150;0.7161;
875.1000;0.3158;0.7236;
875.4000;0.3158;0.7161;
875.7000;0.3118;0.7037;
876.0000;0.3150;0.7087;
876.3000;0.3191;0.7161;
876.6000;0.3158;0.6987;
876.9000;0.3191;0.7037;
877.2000;0.3158;0.6987;
877.5000;0.3166;0.7062;
877.8000;0.3183;0.7087;
878.1000;0.3150;0.7087;
878.4000;0.3166;0.7211;
878.7000;0.3166;0.7286;
879.0000;0.3175;0.7236;
879.3000;0.3166;0.7211;
879.6000;0.3150;0.7137;
879.9000;0.3183;0.7186;
880.2000;0.3215;0.7311;
880.5000;0.3166;0.7211;
880.8000;0.3166;0.7211;
881.1000;0.3175;0.7286;
881.4000;0.3158;0.7286;
881.7000;0.3166;0.7286;
882.0000;0.3166;0.7261;
882.3000;0.3175;0.7311;
882.6000;0.3183;0.7335;
882.9000;0.3175;0.7236;
883.2000;0.3158;0.7261;
883.5000;0.3158;0.7311;
883.8000;0.3158;0.7286;
884.1000;0.3150;0.7286;
884.4000;0.3207;0.7485;
884.7000;0.3166;0.7335;
885.0000;0.3158;0.7335;
885.3000;0.3166;0.7311;
885.6000;0.3118;0.7161;
885.9000;0.3150;0.7286;
886.2000;0.3199;0.7435;
886.5000;0.3166;0.7261;
886.8000;0.3158;0.7286;
887.1000;0.3134;0.7112;
887.4000;0.3166;0.7236;
887.7000;0.3183;0.7211;
888.0000;0.3175;0.7186;
888.3000;0.3175;0.7186;
888.6000;0.3175;0.7161;
888.9000;0.3118;0.7012;
889.2000;0.3183;0.7211;
889.5000;0.3166;0.7137;
889.8000;0.3158;0.6987;
890.1000;0.3175;0.7112;
890.4000;0.3166;0.7137;
890.7000;0.3166;0.7137;
891.0000;0.3142;0.7087;
891.3000;0.3150;0.7236;
891.6000;0.3175;0.7360;
891.9000;0.3158;0.7335;
892.2000;0.3183;0.7360;
892.5000;0.3166;0.7311;
892.8000;0.3199;0.7360;
893.1000;0.3199;0.7311;
893.4000;0.3166;0.7161;
893.7000;0.3150;0.7186;
894.0000;0.3223;0.7311;
894.3000;0.3166;0.7286;
894.6000;0.3150;0.7335;
894.9000;0.3166;0.7335;
895.2000;0.3142;0.7311;
895.5000;0.3142;0.7335;
895.8000;0.3166;0.7335;
896.1000;0.3166;0.7360;
896.4000;0.3142;0.7211;
896.7000;0.3166;0.7261;
897.0000;0.3126;0.7236;
897.3000;0.3142;0.7360;
897.6000;0.3142;0.7335;
897.9000;0.3158;0.7385;
898.2000;0.3166;0.7410;
898.5000;0.3175;0.7385;
898.8000;0.3175;0.7311;
899.1000;0.3142;0.7311;
899.4000;0.3150;0.7335;
899.7000;0.3150;0.7385;
900.0000;0.3134;0.7286;
900.3000;0.3166;0.7211;
900.6000;0.3142;0.7236;
900.9000;0.3158;0.7286;
901.2000;0.3134;0.7286;
901.5000;0.3150;0.7360;
901.8000;0.3150;0.7360;
902.1000;0.3166;0.7385;
902.4000;0.3142;0.7335;
902.7000;0.3142;0.7311;
903.0000;0.3166;0.7385;
903.3000;0.3142;0.7410;
903.6000;0.3175;0.7435;
903.9000;0.3175;0.7435;
904.2000;0.3175;0.7460;
904.5000;0.3175;0.7534;
904.8000;0.3150;0.7485;
905.1000;0.3158;0.7510;
905.4000;0.3166;0.7435;
905.7000;0.3150;0.7410;
906.0000;0.3142;0.7335;
906.3000;0.3166;0.7385;
906.6000;0.3126;0.7236;
906.9000;0.3183;0.7485;
907.2000;0.3166;0.7485;
907.5000;0.3109;0.7335;
907.8000;0.3166;0.7559;
908.1000;0.3183;0.7559;
908.4000;0.3166;0.7435;
908.7000;0.3158;0.7410;
909.0000;0.3158;0.7385;
909.3000;0.3142;0.7286;
909.6000;0.3158;0.7335;
909.9000;0.3150;0.7286;
910.2000;0.3158;0.7335;
910.5000;0.3166;0.7360;
910.8000;0.3166;0.7311;
911.1000;0.3142;0.7236;
911.4000;0.3134;0.7186;
911.7000;0.3150;0.7186;
912.0000;0.3199;0.7261;
912.3000;0.3175;0.7211;
912.6000;0.3158;0.7211;
912.9000;0.3158;0.7161;
913.2000;0.3166;0.7112;
913.5000;0.3142;0.7112;
913.8000;0.3240;0.7385;
914.1000;0.3175;0.7137;
914.4000;0.3150;0.7062;
914.7000;0.3240;0.7335;
915.0000;0.3118;0.7037;
915.3000;0.3134;0.7112;
915.6000;0.3150;0.7062;
915.9000;0.3223;0.7311;
916.2000;0.3142;0.7186;
916.5000;0.3191;0.7311;
916.8000;0.3150;0.7236;
917.1000;0.3223;0.7410;
917.4000;0.3199;0.7435;
917.7000;0.3150;0.7261;
918.0000;0.3158;0.7261;
918.3000;0.3158;0.7311;
918.6000;0.3175;0.7335;
918.9000;0.3199;0.7435;
919.2000;0.3118;0.7286;
919.5000;0.3150;0.7311;
919.8000;0.3191;0.7335;
920.1000;0.3166;0.7311;
920.4000;0.3134;0.7311;
920.7000;0.3142;0.7385;
921.0000;0.3142;0.7385;
921.3000;0.3158;0.7360;
921.6000;0.3142;0.7385;
921.9000;0.3150;0.7335;
922.2000;0.3150;0.7460;
922.5000;0.3183;0.7534;
922.8000;0.3142;0.7510;
923.1000;0.3150;0.7485;
923.4000;0.3150;0.7510;
923.7000;0.3142;0.7485;
924.0000;0.3166;0.7485;
924.3000;0.3142;0.7435;
924.6000;0.3158;0.7435;
924.9000;0.3158;0.7385;
925.2000;0.3134;0.7261;
925.5000;0.3150;0.7286;
925.8000;0.3158;0.7311;
926.1000;0.3150;0.7261;
926.4000;0.3158;0.7261;
926.7000;0.3142;0.7211;
927.0000;0.3158;0.7211;
927.3000;0.3158;0.7335;
927.6000;0.3166;0.7385;
927.9000;0.3134;0.7286;
928.2000;0.3158;0.7485;
928.5000;0.3158;0.7460;
928.8000;0.3166;0.7559;
929.1000;0.3158;0.7410;
929.4000;0.3142;0.7335;
929.7000;0.3150;0.7311;
930.0000;0.3134;0.7286;
930.3000;0.3166;0.7236;
930.6000;0.3166;0.7261;
930.9000;0.3118;0.7186;
931.2000;0.3134;0.7286;
931.5000;0.3109;0.7211;
931.8000;0.3150;0.7360;
932.1000;0.3166;0.7360;
932.4000;0.3134;0.7286;
932.7000;0.3158;0.7311;
933.0000;0.3150;0.7360;
933.3000;0.3158;0.7385;
933.6000;0.3166;0.7410;
933.9000;0.3142;0.7261;
934.2000;0.3150;0.7385;
934.5000;0.3166;0.7435;
934.8000;0.3175;0.7460;
935.1000;0.3215;0.7460;
935.4000;0.3134;0.7186;
935.7000;0.3134;0.7186;
936.0000;0.3134;0.7137;
936.3000;0.3093;0.7087;
936.6000;0.3150;0.7335;
936.9000;0.3134;0.7360;
937.2000;0.3150;0.7335;
937.5000;0.3150;0.7236;
937.8000;0.3175;0.7186;
938.1000;0.3150;0.7062;
938.4000;0.3150;0.7062;
938.7000;0.3142;0.7137;
939.0000;0.3093;0.7062;
939.3000;0.3126;0.7186;
939.6000;0.3232;0.7485;
939.9000;0.3158;0.7211;
940.2000;0.3158;0.7236;
940.5000;0.3109;0.7161;
940.8000;0.3150;0.7186;
941.1000;0.3126;0.7087;
941.4000;0.3150;0.7211;
941.7000;0.3126;0.7012;
942.0000;0.3175;0.7112;
942.3000;0.3142;0.7012;
942.6000;0.3166;0.7112;
942.9000;0.3175;0.7112;
943.2000;0.3150;0.7286;
943.5000;0.3158;0.7311;
943.8000;0.3142;0.7286;
944.1000;0.3069;0.7137;
944.4000;0.3150;0.7385;
944.7000;0.3150;0.7360;
945.0000;0.3166;0.7335;
945.3000;0.3175;0.7385;
945.6000;0.3126;0.7186;
945.9000;0.3142;0.7186;
946.2000;0.3150;0.7137;
946.5000;0.3142;0.7161;
946.8000;0.3158;0.7286;
947.1000;0.3077;0.7112;
947.4000;0.3166;0.7261;
947.7000;0.3166;0.7236;
948.0000;0.3142;0.7211;
948.3000;0.3158;0.7161;
948.6000;0.3093;0.6987;
948.9000;0.3142;0.7161;
949.2000;0.3150;0.7261;
949.5000;0.3134;0.7112;
949.8000;0.3150;0.7211;
950.1000;0.3142;0.7286;
950.4000;0.3183;0.7360;
950.7000;0.3150;0.7261;
951.0000;0.3126;0.7112;
951.3000;0.3150;0.7186;
951.6000;0.3142;0.7161;
951.9000;0.3150;0.7137;
952.2000;0.3158;0.7137;
952.5000;0.3142;0.7112;
952.8000;0.3158;0.7112;
953.1000;0.3158;0.7087;
953.4000;0.3142;0.7062;
953.7000;0.3134;0.7062;
954.0000;0.3183;0.7137;
954.3000;0.3109;0.6938;
954.6000;0.3118;0.7087;
954.9000;0.3126;0.7037;
955.2000;0.3126;0.6987;
955.5000;0.3142;0.7012;
955.8000;0.3142;0.7062;
956.1000;0.3134;0.7087;
956.4000;0.3134;0.7062;
956.7000;0.3166;0.7112;
957.0000;0.3207;0.7311;
957.3000;0.3126;0.7037;
957.6000;0.3044;0.6938;
957.9000;0.3166;0.7360;
958.2000;0.3158;0.7335;
958.5000;0.3118;0.7186;
958.8000;0.3166;0.7360;
959.1000;0.3158;0.7385;
959.4000;0.3166;0.7460;
959.7000;0.3175;0.7435;
960.0000;0.3158;0.7385;
960.3000;0.3158;0.7410;
960.6000;0.3142;0.7311;
960.9000;0.3126;0.7335;
961.2000;0.3158;0.7360;
961.5000;0.3150;0.7261;
961.8000;0.3158;0.7161;
962.1000;0.3166;0.7236;
962.4000;0.3118;0.7112;
962.7000;0.3109;0.7012;
963.0000;0.3175;0.7211;
963.3000;0.3150;0.7186;
963.6000;0.3150;0.7137;
963.9000;0.3158;0.7087;
964.2000;0.3158;0.7161;
964.5000;0.3175;0.7236;
964.8000;0.3166;0.7286;
965.1000;0.3207;0.7435;
965.4000;0.3142;0.7311;
965.7000;0.3175;0.7435;
966.0000;0.3142;0.7360;
966.3000;0.3142;0.7335;
966.6000;0.3142;0.7311;
966.9000;0.3158;0.7286;
967.2000;0.3150;0.7261;
967.5000;0.3150;0.7335;
967.8000;0.3134;0.7435;
968.1000;0.3175;0.7584;
968.4000;0.3150;0.7534;
968.7000;0.3158;0.7485;
969.0000;0.3142;0.7435;
969.3000;0.3183;0.7410;
969.6000;0.3158;0.7385;
969.9000;0.3109;0.7311;
970.2000;0.3109;0.7161;
970.5000;0.3158;0.7286;
970.8000;0.3175;0.7286;
971.1000;0.3150;0.7261;
971.4000;0.3150;0.7236;
971.7000;0.3158;0.7311;
972.0000;0.3150;0.7236;
972.3000;0.3109;0.7186;
972.6000;0.3150;0.7360;
972.9000;0.3150;0.7410;
973.2000;0.3077;0.7261;
973.5000;0.3142;0.7435;
973.8000;0.3166;0.7559;
974.1000;0.3142;0.7460;
974.4000;0.3166;0.7510;
974.7000;0.3158;0.7460;
975.0000;0.3142;0.7360;
975.3000;0.3134;0.7286;
975.6000;0.3150;0.7286;
975.9000;0.3150;0.7311;
976.2000;0.3134;0.7211;
976.5000;0.3158;0.7311;
976.8000;0.3158;0.7261;
977.1000;0.3134;0.7186;
977.4000;0.3150;0.7211;
977.7000;0.3191;0.7286;
978.0000;0.3142;0.7211;
978.3000;0.3101;0.7012;
978.6000;0.3175;0.7186;
978.9000;0.3150;0.7161;
979.2000;0.3134;0.7161;
979.5000;0.3150;0.7186;
979.8000;0.3134;0.7137;
980.1000;0.3142;0.7137;
980.4000;0.3150;0.7161;
980.7000;0.3158;0.7112;
981.0000;0.3142;0.7112;
981.3000;0.3150;0.7037;
981.6000;0.3134;0.7062;
981.9000;0.3158;0.7161;
982.2000;0.3175;0.7186;
982.5000;0.3109;0.7037;
982.8000;0.3150;0.7112;
983.1000;0.3142;0.7161;
983.4000;0.3150;0.7286;
983.7000;0.3142;0.7236;
984.0000;0.3142;0.7261;
984.3000;0.3158;0.7311;
984.6000;0.3166;0.7385;
984.9000;0.3175;0.7335;
985.2000;0.3142;0.7236;
985.5000;0.3150;0.7286;
985.8000;0.3150;0.7211;
986.1000;0.3150;0.7211;
986.4000;0.3158;0.7161;
986.7000;0.3118;0.7062;
987.0000;0.3126;0.7037;
987.3000;0.3150;0.7186;
987.6000;0.3150;0.7261;
987.9000;0.3126;0.7211;
988.2000;0.3175;0.7360;
988.5000;0.3158;0.7410;
988.8000;0.3142;0.7311;
989.1000;0.3142;0.7236;
989.4000;0.3150;0.7311;
989.7000;0.3093;0.7211;
990.0000;0.3109;0.7186;
990.3000;0.3158;0.7311;
990.6000;0.3166;0.7360;
990.9000;0.3166;0.7410;
991.2000;0.3175;0.7485;
991.5000;0.3142;0.7385;
991.8000;0.3166;0.7410;
992.1000;0.3207;0.7534;
992.4000;0.3134;0.7385;
992.7000;0.3142;0.7335;
993.0000;0.3150;0.7286;
993.3000;0.3142;0.7236;
993.6000;0.3166;0.7385;
993.9000;0.3150;0.7385;
994.2000;0.3150;0.7385;
994.5000;0.3142;0.7286;
994.8000;0.3126;0.7335;
995.1000;0.3118;0.7335;
995.4000;0.3142;0.7335;
995.7000;0.3134;0.7261;
996.0000;0.3134;0.7335;
996.3000;0.3142;0.7385;
996.6000;0.3101;0.7286;
996.9000;0.3061;0.7161;
997.2000;0.3085;0.7335;
997.5000;0.3134;0.7460;
997.8000;0.3134;0.7485;
998.1000;0.3142;0.7510;
998.4000;0.3150;0.7559;
998.7000;0.3126;0.7435;
999.0000;0.3150;0.7460;
999.3000;0.3134;0.7360;
999.6000;0.3150;0.7335;
999.9000;0.3150;0.7360;
1000.2000;0.3118;0.7261;
1000.5000;0.3093;0.7137;
1000.8000;0.3126;0.7236;
1001.1000;0.3150;0.7186;
1001.4000;0.3183;0.7236;
1001.7000;0.3134;0.7211;
1002.0000;0.3150;0.7211;
1002.3000;0.3150;0.7286;
1002.6000;0.3142;0.7236;
1002.9000;0.3142;0.7186;
1003.2000;0.3134;0.7211;
1003.5000;0.3150;0.7236;
1003.8000;0.3158;0.7360;
1004.1000;0.3150;0.7360;
1004.4000;0.3142;0.7311;
1004.7000;0.3077;0.7112;
1005.0000;0.3134;0.7286;
1005.3000;0.3142;0.7261;
1005.6000;0.3069;0.7012;
1005.9000;0.3134;0.7186;
1006.2000;0.3142;0.7236;
1006.5000;0.3126;0.7211;
1006.8000;0.3134;0.7286;
1007.1000;0.3118;0.7261;
1007.4000;0.3166;0.7385;
1007.7000;0.3134;0.7286;
1008.0000;0.3109;0.7236;
1008.3000;0.3093;0.7186;
1008.6000;0.3142;0.7286;
1008.9000;0.3134;0.7286;
1009.2000;0.3150;0.7236;
1009.5000;0.3158;0.7186;
1009.8000;0.3175;0.7335;
1010.1000;0.3166;0.7236;
1010.4000;0.3158;0.7211;
1010.7000;0.3142;0.7236;
1011.0000;0.3118;0.7286;
1011.3000;0.3142;0.7360;
1011.6000;0.3158;0.7335;
1011.9000;0.3126;0.7286;
1012.2000;0.3150;0.7335;
1012.5000;0.3142;0.7311;
1012.8000;0.3150;0.7335;
1013.1000;0.3142;0.7311;
1013.4000;0.3142;0.7311;
1013.7000;0.3069;0.7186;
1014.0000;0.3215;0.7510;
1014.3000;0.3142;0.7261;
1014.6000;0.3158;0.7311;
1014.9000;0.3118;0.7236;
1015.2000;0.3191;0.7485;
1015.5000;0.3150;0.7335;
1015.8000;0.3126;0.7286;
1016.1000;0.3158;0.7236;
1016.4000;0.3150;0.7261;
1016.7000;0.3142;0.7236;
1017.0000;0.3142;0.7236;
1017.3000;0.3101;0.7186;
1017.6000;0.3093;0.7161;
1017.9000;0.3183;0.7385;
1018.2000;0.3158;0.7286;
1018.5000;0.3126;0.7236;
1018.8000;0.3069;0.7037;
1019.1000;0.3150;0.7360;
1019.4000;0.3126;0.7286;
1019.7000;0.3118;0.7311;
1020.0000;0.3150;0.7435;
1020.3000;0.3142;0.7335;
1020.6000;0.3175;0.7410;
1020.9000;0.3150;0.7385;
1021.2000;0.3150;0.7335;
1021.5000;0.3134;0.7311;
1021.8000;0.3150;0.7360;
1022.1000;0.3183;0.7460;
1022.4000;0.3175;0.7485;
1022.7000;0.3166;0.7510;
1023.0000;0.3158;0.7410;
1023.3000;0.3158;0.7286;
1023.6000;0.3150;0.7311;
1023.9000;0.3109;0.7211;
1024.2000;0.3101;0.7161;
1024.5000;0.3175;0.7335;
1024.8000;0.3101;0.7161;
1025.1000;0.3150;0.7311;
1025.4000;0.3158;0.7335;
1025.7000;0.3134;0.7311;
1026.0000;0.3150;0.7335;
1026.3000;0.3142;0.7360;
1026.6000;0.3150;0.7435;
1026.9000;0.3142;0.7385;
1027.2000;0.3142;0.7410;
1027.5000;0.3175;0.7385;
1027.8000;0.3158;0.7385;
1028.1000;0.3166;0.7460;
1028.4000;0.3142;0.7335;
1028.7000;0.3126;0.7286;
1029.0000;0.3142;0.7460;
1029.3000;0.3053;0.7137;
1029.6000;0.3118;0.7360;
1029.9000;0.3118;0.7385;
1030.2000;0.3150;0.7534;
1030.5000;0.3126;0.7460;
1030.8000;0.3109;0.7510;
1031.1000;0.3118;0.7584;
1031.4000;0.3134;0.7584;
1031.7000;0.3118;0.7360;
1032.0000;0.3207;0.7584;
1032.3000;0.3158;0.7460;
1032.6000;0.3109;0.7311;
1032.9000;0.3150;0.7410;
1033.2000;0.3101;0.7335;
1033.5000;0.3118;0.7335;
1033.8000;0.3240;0.7758;
1034.1000;0.3118;0.7460;
1034.4000;0.3150;0.7485;
1034.7000;0.3142;0.7435;
1035.0000;0.3134;0.7460;
1035.3000;0.3134;0.7410;
1035.6000;0.3142;0.7360;
1035.9000;0.3109;0.7335;
1036.2000;0.3142;0.7460;
1036.5000;0.3142;0.7410;
1036.8000;0.3134;0.7360;
1037.1000;0.3126;0.7335;
1037.4000;0.3134;0.7335;
1037.7000;0.3118;0.7261;
1038.0000;0.3150;0.7186;
1038.3000;0.3240;0.7460;
1038.6000;0.3150;0.7261;
1038.9000;0.3134;0.7261;
1039.2000;0.3142;0.7385;
1039.5000;0.3142;0.7410;
1039.8000;0.3150;0.7236;
1040.1000;0.3134;0.7236;
1040.4000;0.3150;0.7161;
1040.7000;0.3134;0.7137;
1041.0000;0.3134;0.7261;
1041.3000;0.3118;0.7286;
1041.6000;0.3134;0.7360;
1041.9000;0.3142;0.7311;
1042.2000;0.3126;0.7311;
1042.5000;0.3126;0.7261;
1042.8000;0.3215;0.7460;
1043.1000;0.3134;0.7335;
1043.4000;0.3134;0.7311;
1043.7000;0.3134;0.7261;
1044.0000;0.3166;0.7186;
1044.3000;0.3150;0.7186;
1044.6000;0.3134;0.7112;
1044.9000;0.3199;0.7360;
1045.2000;0.3142;0.7261;
1045.5000;0.3150;0.7286;
1045.8000;0.3142;0.7186;
1046.1000;0.3126;0.7137;
1046.4000;0.3069;0.7037;
1046.7000;0.3134;0.7311;
1047.0000;0.3166;0.7335;
1047.3000;0.3126;0.7112;
1047.6000;0.3118;0.7087;
1047.9000;0.3126;0.7087;
1048.2000;0.3150;0.7137;
1048.5000;0.3142;0.7161;
1048.8000;0.3142;0.7161;
1049.1000;0.3126;0.7211;
1049.4000;0.3093;0.7211;
1049.7000;0.3126;0.7261;
1050.0000;0.3150;0.7335;
1050.3000;0.3118;0.7261;
1050.6000;0.3134;0.7311;
1050.9000;0.3158;0.7410;
1051.2000;0.3126;0.7385;
1051.5000;0.3134;0.7410;
1051.8000;0.3109;0.7360;
1052.1000;0.3142;0.7360;
1052.4000;0.3134;0.7360;
1052.7000;0.3118;0.7335;
1053.0000;0.3134;0.7435;
1053.3000;0.3109;0.7360;
1053.6000;0.3126;0.7385;
1053.9000;0.3053;0.7261;
1054.2000;0.3093;0.7335;
1054.5000;0.3118;0.7335;
1054.8000;0.3109;0.7311;
1055.1000;0.3134;0.7286;
1055.4000;0.3142;0.7311;
1055.7000;0.3158;0.7236;
1056.0000;0.3085;0.7112;
1056.3000;0.3142;0.7236;
1056.6000;0.3142;0.7236;
1056.9000;0.3150;0.7211;
1057.2000;0.3134;0.7137;
1057.5000;0.3150;0.7211;
1057.8000;0.3109;0.7186;
1058.1000;0.3134;0.7211;
1058.4000;0.3158;0.7211;
1058.7000;0.3142;0.7186;
1059.0000;0.3142;0.7161;
1059.3000;0.3142;0.7236;
1059.6000;0.3166;0.7360;
1059.9000;0.3166;0.7335;
1060.2000;0.3142;0.7311;
1060.5000;0.3142;0.7410;
1060.8000;0.3150;0.7460;
1061.1000;0.3158;0.7460;
1061.4000;0.3126;0.7360;
1061.7000;0.3142;0.7385;
1062.0000;0.3142;0.7460;
1062.3000;0.3109;0.7286;
1062.6000;0.3134;0.7360;
1062.9000;0.3134;0.7410;
1063.2000;0.3044;0.7236;
1063.5000;0.3158;0.7534;
1063.8000;0.3150;0.7435;
1064.1000;0.3134;0.7335;
1064.4000;0.3158;0.7385;
1064.7000;0.3150;0.7385;
1065.0000;0.3134;0.7385;
1065.3000;0.3134;0.7311;
1065.6000;0.3142;0.7261;
1065.9000;0.3142;0.7211;
1066.2000;0.3126;0.7037;
1066.5000;0.3109;0.7087;
1066.8000;0.3142;0.7137;
1067.1000;0.3134;0.7087;
1067.4000;0.3158;0.7112;
1067.7000;0.3142;0.7161;
1068.0000;0.3134;0.7211;
1068.3000;0.3150;0.7385;
1068.6000;0.3150;0.7286;
1068.9000;0.3142;0.7161;
1069.2000;0.3118;0.7037;
1069.5000;0.3166;0.7112;
1069.8000;0.3166;0.7186;
1070.1000;0.3150;0.7087;
1070.4000;0.3118;0.6938;
1070.7000;0.3150;0.7037;
1071.0000;0.3150;0.7161;
1071.3000;0.3142;0.7211;
1071.6000;0.3053;0.7012;
1071.9000;0.3118;0.7261;
1072.2000;0.3150;0.7311;
1072.5000;0.3142;0.7335;
1072.8000;0.3134;0.7360;
1073.1000;0.3142;0.7311;
1073.4000;0.3142;0.7460;
1073.7000;0.3199;0.7609;
1074.0000;0.3223;0.7584;
1074.3000;0.3150;0.7360;
1074.6000;0.3158;0.7410;
1074.9000;0.3150;0.7385;
1075.2000;0.3150;0.7460;
1075.5000;0.3183;0.7510;
1075.8000;0.3126;0.7360;
1076.1000;0.3142;0.7410;
1076.4000;0.3126;0.7435;
1076.7000;0.3101;0.7360;
1077.0000;0.3101;0.7311;
1077.3000;0.3118;0.7335;
1077.6000;0.3134;0.7360;
1077.9000;0.3134;0.7385;
1078.2000;0.3150;0.7311;
1078.5000;0.3093;0.7087;
1078.8000;0.3118;0.7161;
1079.1000;0.3142;0.7186;
1079.4000;0.3150;0.7286;
1079.7000;0.3077;0.7087;
1080.0000;0.3175;0.7335;
1080.3000;0.3134;0.7261;
1080.6000;0.3126;0.7186;
1080.9000;0.3175;0.7385;
1081.2000;0.3109;0.7211;
1081.5000;0.3150;0.7385;
1081.8000;0.3150;0.7485;
1082.1000;0.3134;0.7510;
1082.4000;0.3134;0.7534;
1082.7000;0.3134;0.7559;
1083.0000;0.3142;0.7534;
1083.3000;0.3142;0.7510;
1083.6000;0.3175;0.7559;
1083.9000;0.3158;0.7510;
1084.2000;0.3101;0.7335;
1084.5000;0.3166;0.7510;
1084.8000;0.3150;0.7460;
1085.1000;0.3134;0.7360;
1085.4000;0.3142;0.7410;
1085.7000;0.3126;0.7385;
1086.0000;0.3166;0.7435;
1086.3000;0.3150;0.7435;
1086.6000;0.3150;0.7410;
1086.9000;0.3158;0.7385;
1087.2000;0.3126;0.7236;
1087.5000;0.3150;0.7435;
1087.8000;0.3142;0.7385;
1088.1000;0.3069;0.7161;
1088.4000;0.3142;0.7311;
1088.7000;0.3150;0.7385;
1089.0000;0.3158;0.7335;
1089.3000;0.3199;0.7510;
1089.6000;0.3142;0.7460;
1089.9000;0.3158;0.7435;
1090.2000;0.3158;0.7360;
1090.5000;0.3142;0.7335;
1090.8000;0.3166;0.7286;
1091.1000;0.3150;0.7360;
1091.4000;0.3126;0.7335;
1091.7000;0.3118;0.7311;
1092.0000;0.3142;0.7335;
1092.3000;0.3126;0.7311;
1092.6000;0.3101;0.7137;
1092.9000;0.3150;0.7211;
1093.2000;0.3142;0.7186;
1093.5000;0.3142;0.7286;
1093.8000;0.3093;0.7112;
1094.1000;0.3142;0.7236;
1094.4000;0.3150;0.7137;
1094.7000;0.3215;0.7286;
1095.0000;0.3191;0.7286;
1095.3000;0.3150;0.7211;
1095.6000;0.3126;0.7211;
1095.9000;0.3118;0.7311;
1096.2000;0.3142;0.7311;
1096.5000;0.3118;0.7236;
1096.8000;0.3142;0.7261;
1097.1000;0.3150;0.7335;
1097.4000;0.3134;0.7335;
1097.7000;0.3126;0.7261;
1098.0000;0.3158;0.7311;
1098.3000;0.3150;0.7261;
1098.6000;0.3166;0.7335;
1098.9000;0.3150;0.7410;
1099.2000;0.3142;0.7435;
1099.5000;0.3142;0.7460;
1099.8000;0.3158;0.7485;
1100.1000;0.3142;0.7360;
1100.4000;0.3142;0.7311;
1100.7000;0.3150;0.7261;
1101.0000;0.3158;0.7311;
1101.3000;0.3142;0.7335;
1101.6000;0.3150;0.7261;
1101.9000;0.3142;0.7335;
1102.2000;0.3126;0.7360;
1102.5000;0.3142;0.7385;
1102.8000;0.3142;0.7385;
1103.1000;0.3183;0.7385;
1103.4000;0.3150;0.7236;
1103.7000;0.3134;0.7236;
1104.0000;0.3142;0.7211;
1104.3000;0.3150;0.7186;
1104.6000;0.3142;0.7286;
1104.9000;0.3134;0.7360;
1105.2000;0.3134;0.7460;
1105.5000;0.3101;0.7435;
1105.8000;0.3150;0.7485;
1106.1000;0.3134;0.7335;
1106.4000;0.3175;0.7385;
1106.7000;0.3240;0.7634;
1107.0000;0.3118;0.7360;
1107.3000;0.3134;0.7286;
1107.6000;0.3126;0.7311;
1107.9000;0.3158;0.7385;
1108.2000;0.3166;0.7460;
1108.5000;0.3150;0.7360;
1108.8000;0.3215;0.7559;
1109.1000;0.3126;0.7410;
1109.4000;0.3150;0.7385;
1109.7000;0.3126;0.7410;
1110.0000;0.3142;0.7385;
1110.3000;0.3142;0.7460;
1110.6000;0.3175;0.7534;
1110.9000;0.3126;0.7435;
1111.2000;0.3093;0.7261;
1111.5000;0.3126;0.7410;
1111.8000;0.3126;0.7385;
1112.1000;0.3109;0.7410;
1112.4000;0.3109;0.7410;
1112.7000;0.3126;0.7435;
1113.0000;0.3142;0.7460;
1113.3000;0.3085;0.7335;
1113.6000;0.3126;0.7460;
1113.9000;0.3134;0.7510;
1114.2000;0.3158;0.7534;
1114.5000;0.3150;0.7510;
1114.8000;0.3126;0.7360;
1115.1000;0.3134;0.7311;
1115.4000;0.3150;0.7311;
1115.7000;0.3134;0.7236;
1116.0000;0.3118;0.7261;
1116.3000;0.3142;0.7261;
1116.6000;0.3134;0.7286;
1116.9000;0.3126;0.7236;
1117.2000;0.3158;0.7236;
1117.5000;0.3109;0.7211;
1117.8000;0.3126;0.7261;
1118.1000;0.3142;0.7261;
1118.4000;0.3134;0.7161;
1118.7000;0.3142;0.7211;
1119.0000;0.3150;0.7335;
1119.3000;0.3158;0.7261;
1119.6000;0.3183;0.7360;
1119.9000;0.3118;0.7137;
1120.2000;0.3150;0.7186;
1120.5000;0.3158;0.7211;
1120.8000;0.3175;0.7236;
1121.1000;0.3150;0.7186;
1121.4000;0.3077;0.6987;
1121.7000;0.3215;0.7435;
1122.0000;0.3150;0.7286;
1122.3000;0.3118;0.7385;
1122.6000;0.3175;0.7510;
1122.9000;0.3142;0.7435;
1123.2000;0.3142;0.7385;
1123.5000;0.3150;0.7360;
1123.8000;0.3134;0.7286;
1124.1000;0.3150;0.7311;
1124.4000;0.3199;0.7510;
1124.7000;0.3134;0.7435;
1125.0000;0.3101;0.7410;
1125.3000;0.3183;0.7609;
1125.6000;0.3158;0.7609;
1125.9000;0.3166;0.7584;
1126.2000;0.3118;0.7435;
1126.5000;0.3166;0.7534;
1126.8000;0.3166;0.7510;
1127.1000;0.3134;0.7435;
1127.4000;0.3215;0.7584;
1127.7000;0.3118;0.7360;
1128.0000;0.3109;0.7385;
1128.3000;0.3150;0.7460;
1128.6000;0.3118;0.7335;
1128.9000;0.3085;0.7261;
1129.2000;0.3150;0.7311;
1129.5000;0.3166;0.7360;
1129.8000;0.3142;0.7360;
1130.1000;0.3069;0.7186;
1130.4000;0.3134;0.7311;
1130.7000;0.3150;0.7385;
1131.0000;0.3101;0.7211;
1131.3000;0.3118;0.7311;
1131.6000;0.3142;0.7410;
1131.9000;0.3134;0.7410;
1132.2000;0.3223;0.7534;
1132.5000;0.3150;0.7286;
1132.8000;0.3134;0.7211;
1133.1000;0.3118;0.7161;
1133.4000;0.3142;0.7236;
1133.7000;0.3126;0.7236;
1134.0000;0.3150;0.7286;
1134.3000;0.3134;0.7236;
1134.6000;0.3142;0.7385;
1134.9000;0.3142;0.7410;
1135.2000;0.3134;0.7410;
1135.5000;0.3134;0.7510;
1135.8000;0.3142;0.7485;
1136.1000;0.3150;0.7460;
1136.4000;0.3126;0.7534;
1136.7000;0.3150;0.7559;
1137.0000;0.3109;0.7410;
1137.3000;0.3150;0.7485;
1137.6000;0.3134;0.7485;
1137.9000;0.3142;0.7510;
1138.2000;0.3142;0.7460;
1138.5000;0.3158;0.7510;
1138.8000;0.3142;0.7510;
1139.1000;0.3134;0.7485;
1139.4000;0.3166;0.7534;
1139.7000;0.3158;0.7485;
1140.0000;0.3150;0.7485;
1140.3000;0.3150;0.7460;
1140.6000;0.3142;0.7385;
1140.9000;0.3158;0.7360;
1141.2000;0.3134;0.7335;
1141.5000;0.3150;0.7460;
1141.8000;0.3150;0.7410;
1142.1000;0.3085;0.7236;
1142.4000;0.3134;0.7460;
1142.7000;0.3126;0.7410;
1143.0000;0.3126;0.7410;
1143.3000;0.3142;0.7485;
1143.6000;0.3142;0.7460;
1143.9000;0.3166;0.7485;
1144.2000;0.3150;0.7360;
1144.5000;0.3085;0.7137;
1144.8000;0.3134;0.7236;
1145.1000;0.3142;0.7311;
1145.4000;0.3142;0.7137;
1145.7000;0.3150;0.7186;
1146.0000;0.3150;0.7161;
1146.3000;0.3126;0.7112;
1146.6000;0.3126;0.7137;
1146.9000;0.3158;0.7335;
1147.2000;0.3150;0.7385;
1147.5000;0.3109;0.7335;
1147.8000;0.3134;0.7311;
1148.1000;0.3134;0.7211;
1148.4000;0.3166;0.7360;
1148.7000;0.3150;0.7261;
1149.0000;0.3126;0.7236;
1149.3000;0.3150;0.7311;
1149.6000;0.3223;0.7485;
1149.9000;0.3142;0.7286;
1150.2000;0.3126;0.7261;
1150.5000;0.3134;0.7261;
1150.8000;0.3142;0.7360;
1151.1000;0.3134;0.7335;
1151.4000;0.3175;0.7385;
1151.7000;0.3101;0.7360;
1152.0000;0.3150;0.7460;
1152.3000;0.3142;0.7360;
1152.6000;0.3142;0.7335;
1152.9000;0.3158;0.7410;
1153.2000;0.3142;0.7410;
1153.5000;0.3150;0.7360;
1153.8000;0.3109;0.7186;
1154.1000;0.3142;0.7186;
1154.4000;0.3150;0.7161;
1154.7000;0.3191;0.7335;
1155.0000;0.3150;0.7211;
1155.3000;0.3134;0.7211;
1155.6000;0.3166;0.7335;
1155.9000;0.3126;0.7311;
1156.2000;0.3134;0.7286;
1156.5000;0.3158;0.7311;
1156.8000;0.3134;0.7385;
1157.1000;0.3134;0.7410;
1157.4000;0.3134;0.7335;
1157.7000;0.3158;0.7435;
1158.0000;0.3158;0.7385;
1158.3000;0.3166;0.7460;
1158.6000;0.3134;0.7385;
1158.9000;0.3109;0.7261;
1159.2000;0.3118;0.7211;
1159.5000;0.3126;0.7137;
1159.8000;0.3126;0.7161;
1160.1000;0.3126;0.7286;
1160.4000;0.3126;0.7286;
1160.7000;0.3118;0.7410;
1161.0000;0.3142;0.7460;
1161.3000;0.3126;0.7460;
1161.6000;0.3126;0.7534;
1161.9000;0.3118;0.7460;
1162.2000;0.3134;0.7435;
1162.5000;0.3175;0.7584;
1162.8000;0.3134;0.7460;
1163.1000;0.3142;0.7385;
1163.4000;0.3118;0.7286;
1163.7000;0.3158;0.7335;
1164.0000;0.3175;0.7335;
1164.3000;0.3183;0.7360;
1164.6000;0.3134;0.7186;
1164.9000;0.3175;0.7286;
1165.2000;0.3118;0.7161;
1165.5000;0.3134;0.7186;
1165.8000;0.3118;0.7112;
1166.1000;0.3069;0.7062;
1166.4000;0.3142;0.7261;
1166.7000;0.3126;0.7286;
1167.0000;0.3118;0.7311;
1167.3000;0.3158;0.7435;
1167.6000;0.3150;0.7335;
1167.9000;0.3150;0.7360;
1168.2000;0.3134;0.7410;
1168.5000;0.3109;0.7485;
1168.8000;0.3150;0.7534;
1169.1000;0.3166;0.7435;
1169.4000;0.3150;0.7335;
1169.7000;0.3142;0.7286;
1170.0000;0.3134;0.7261;
1170.3000;0.3126;0.7161;
1170.6000;0.3126;0.7186;
1170.9000;0.3134;0.7161;
1171.2000;0.3142;0.7161;
1171.5000;0.3118;0.7186;
1171.8000;0.3126;0.7161;
1172.1000;0.3126;0.7236;
1172.4000;0.3118;0.7161;
1172.7000;0.3142;0.7137;
1173.0000;0.3109;0.7012;
1173.3000;0.3134;0.7037;
1173.6000;0.3134;0.7112;
1173.9000;0.3142;0.7012;
1174.2000;0.3134;0.7037;
1174.5000;0.3142;0.6938;
1174.8000;0.3134;0.7012;
1175.1000;0.3142;0.7161;
1175.4000;0.3150;0.7236;
1175.7000;0.3150;0.7261;
1176.0000;0.3134;0.7261;
1176.3000;0.3142;0.7261;
1176.6000;0.3134;0.7211;
1176.9000;0.3150;0.7186;
1177.2000;0.3134;0.7211;
1177.5000;0.3175;0.7360;
1177.8000;0.3158;0.7311;
1178.1000;0.3134;0.7211;
1178.4000;0.3109;0.7112;
1178.7000;0.3118;0.7211;
1179.0000;0.3142;0.7311;
1179.3000;0.3223;0.7559;
1179.6000;0.3134;0.7410;
1179.9000;0.3150;0.7460;
1180.2000;0.3126;0.7410;
1180.5000;0.3069;0.7311;
1180.8000;0.3134;0.7435;
1181.1000;0.3142;0.7385;
1181.4000;0.3118;0.7311;
1181.7000;0.3134;0.7385;
1182.0000;0.3118;0.7460;
1182.3000;0.3199;0.7733;
1182.6000;0.3126;0.7534;
1182.9000;0.3134;0.7485;
1183.2000;0.3158;0.7510;
1183.5000;0.3126;0.7435;
1183.8000;0.3158;0.7460;
1184.1000;0.3134;0.7460;
1184.4000;0.3158;0.7460;
1184.7000;0.3134;0.7360;
1185.0000;0.3126;0.7335;
1185.3000;0.3142;0.7360;
1185.6000;0.3158;0.7360;
1185.9000;0.3142;0.7261;
1186.2000;0.3126;0.7286;
1186.5000;0.3150;0.7286;
1186.8000;0.3175;0.7335;
1187.1000;0.3134;0.7261;
1187.4000;0.3142;0.7186;
1187.7000;0.3158;0.7261;
1188.0000;0.3093;0.7087;
1188.3000;0.3109;0.7161;
1188.6000;0.3150;0.7161;
1188.9000;0.3093;0.7037;
1189.2000;0.3134;0.7211;
1189.5000;0.3199;0.7311;
1189.8000;0.3191;0.7311;
1190.1000;0.3142;0.7161;
1190.4000;0.3215;0.7385;
1190.7000;0.3142;0.7236;
1191.0000;0.3118;0.7236;
1191.3000;0.3134;0.7211;
1191.6000;0.3142;0.7161;
1191.9000;0.3134;0.7186;
1192.2000;0.3134;0.7012;
1192.5000;0.3142;0.7161;
1192.8000;0.3150;0.7261;
1193.1000;0.3215;0.7360;
1193.4000;0.3207;0.7360;
1193.7000;0.3142;0.7286;
1194.0000;0.3142;0.7311;
1194.3000;0.3150;0.7410;
1194.6000;0.3118;0.7335;
1194.9000;0.3126;0.7335;
1195.2000;0.3150;0.7485;
1195.5000;0.3134;0.7534;
1195.8000;0.3109;0.7460;
1196.1000;0.3118;0.7435;
1196.4000;0.3126;0.7410;
1196.7000;0.3126;0.7385;
1197.0000;0.3134;0.7460;
1197.3000;0.3126;0.7435;
1197.6000;0.3134;0.7435;
1197.9000;0.3158;0.7360;
1198.2000;0.3134;0.7335;
1198.5000;0.3134;0.7311;
1198.8000;0.3150;0.7311;
1199.1000;0.3150;0.7360;
1199.4000;0.3142;0.7335;
1199.7000;0.3150;0.7335;
1200.0000;0.3126;0.7311;
1200.3000;0.3150;0.7360;
1200.6000;0.3150;0.7385;
1200.9000;0.3150;0.7385;
1201.2000;0.3109;0.7335;
1201.5000;0.3142;0.7410;
1201.8000;0.3150;0.7435;
1202.1000;0.3142;0.7335;
1202.4000;0.3118;0.7286;
1202.7000;0.3142;0.7311;
1203.0000;0.3142;0.7385;
1203.3000;0.3175;0.7534;
1203.6000;0.3158;0.7410;
1203.9000;0.3150;0.7435;
1204.2000;0.3134;0.7335;
1204.5000;0.3134;0.7410;
1204.8000;0.3101;0.7286;
1205.1000;0.3109;0.7286;
1205.4000;0.3166;0.7360;
1205.7000;0.3142;0.7385;
1206.0000;0.3142;0.7286;
1206.3000;0.3134;0.7360;
1206.6000;0.3126;0.7385;
1206.9000;0.3134;0.7385;
1207.2000;0.3134;0.7360;
1207.5000;0.3142;0.7311;
1207.8000;0.3134;0.7335;
1208.1000;0.3126;0.7360;
1208.4000;0.3142;0.7360;
1208.7000;0.3158;0.7410;
1209.0000;0.3142;0.7360;
1209.3000;0.3142;0.7360;
1209.6000;0.3142;0.7261;
1209.9000;0.3134;0.7186;
1210.2000;0.3183;0.7360;
1210.5000;0.3142;0.7261;
1210.8000;0.3134;0.7261;
1211.1000;0.3109;0.7236;
1211.4000;0.3158;0.7360;
1211.7000;0.3183;0.7534;
1212.0000;0.3150;0.7335;
1212.3000;0.3142;0.7311;
1212.6000;0.3158;0.7335;
1212.9000;0.3150;0.7261;
1213.2000;0.3166;0.7335;
1213.5000;0.3142;0.7335;
1213.8000;0.3077;0.7137;
1214.1000;0.3134;0.7286;
1214.4000;0.3142;0.7335;
1214.7000;0.3134;0.7261;
1215.0000;0.3118;0.7286;
1215.3000;0.3150;0.7286;
1215.6000;0.3118;0.7186;
1215.9000;0.3150;0.7161;
1216.2000;0.3142;0.7211;
1216.5000;0.3134;0.7137;
1216.8000;0.3053;0.6913;
1217.1000;0.3109;0.7087;
1217.4000;0.3118;0.7037;
1217.7000;0.3134;0.7112;
1218.0000;0.3142;0.7286;
1218.3000;0.3158;0.7286;
1218.6000;0.3142;0.7236;
1218.9000;0.3134;0.7211;
1219.2000;0.3142;0.7211;
1219.5000;0.3118;0.7161;
1219.8000;0.3101;0.7062;
1220.1000;0.3109;0.7137;
1220.4000;0.3142;0.7236;
1220.7000;0.3126;0.7112;
1221.0000;0.3158;0.7137;
1221.3000;0.3142;0.7062;
1221.6000;0.3158;0.7087;
1221.9000;0.3134;0.7112;
1222.2000;0.3134;0.7062;
1222.5000;0.3142;0.7062;
1222.8000;0.3150;0.7211;
1223.1000;0.3191;0.7385;
1223.4000;0.3158;0.7410;
1223.7000;0.3150;0.7385;
1224.0000;0.3158;0.7460;
1224.3000;0.3118;0.7360;
1224.6000;0.3150;0.7435;
1224.9000;0.3150;0.7460;
1225.2000;0.3134;0.7410;
1225.5000;0.3175;0.7385;
1225.8000;0.3142;0.7335;
1226.1000;0.3126;0.7211;
1226.4000;0.3053;0.6987;
1226.7000;0.3150;0.7311;
1227.0000;0.3126;0.7261;
1227.3000;0.3142;0.7286;
1227.6000;0.3134;0.7261;
1227.9000;0.3142;0.7385;
1228.2000;0.3109;0.7311;
1228.5000;0.3142;0.7286;
1228.8000;0.3118;0.7286;
1229.1000;0.3126;0.7311;
1229.4000;0.3118;0.7335;
1229.7000;0.3134;0.7385;
1230.0000;0.3134;0.7335;
1230.3000;0.3134;0.7286;
1230.6000;0.3134;0.7286;
1230.9000;0.3134;0.7261;
1231.2000;0.3150;0.7286;
1231.5000;0.3118;0.7286;
1231.8000;0.3142;0.7311;
1232.1000;0.3142;0.7286;
1232.4000;0.3118;0.7161;
1232.7000;0.3134;0.7112;
1233.0000;0.3109;0.7037;
1233.3000;0.3118;0.7161;
1233.6000;0.3150;0.7311;
1233.9000;0.3166;0.7410;
1234.2000;0.3134;0.7311;
1234.5000;0.3142;0.7211;
1234.8000;0.3183;0.7311;
1235.1000;0.3150;0.7161;
1235.4000;0.3126;0.7062;
1235.7000;0.3126;0.7037;
1236.0000;0.3126;0.6963;
1236.3000;0.3142;0.6987;
1236.6000;0.3240;0.7186;
1236.9000;0.3142;0.6938;
1237.2000;0.3126;0.6863;
1237.5000;0.3166;0.7062;
1237.8000;0.3109;0.6938;
1238.1000;0.3142;0.7087;
1238.4000;0.3142;0.7112;
1238.7000;0.3118;0.7137;
1239.0000;0.3150;0.7236;
1239.3000;0.3142;0.7161;
1239.6000;0.3118;0.7062;
1239.9000;0.3175;0.7261;
1240.2000;0.3134;0.7161;
1240.5000;0.3118;0.7137;
1240.8000;0.3134;0.7137;
1241.1000;0.3158;0.7112;
1241.4000;0.3134;0.7012;
1241.7000;0.3093;0.6938;
1242.0000;0.3126;0.6913;
1242.3000;0.3126;0.6963;
1242.6000;0.3109;0.6963;
1242.9000;0.3150;0.7062;
1243.2000;0.3142;0.7012;
1243.5000;0.3142;0.7062;
1243.8000;0.3118;0.6963;
1244.1000;0.3142;0.6963;
1244.4000;0.3150;0.6987;
1244.7000;0.3142;0.6913;
1245.0000;0.3150;0.6938;
1245.3000;0.3150;0.6987;
1245.6000;0.3134;0.6963;
1245.9000;0.3134;0.6963;
1246.2000;0.3166;0.7062;
1246.5000;0.3134;0.7012;
1246.8000;0.3126;0.6913;
1247.1000;0.3175;0.7037;
1247.4000;0.3158;0.6987;
1247.7000;0.3134;0.6938;
1248.0000;0.3126;0.7062;
1248.3000;0.3126;0.7037;
1248.6000;0.3158;0.7161;
1248.9000;0.3126;0.7137;
1249.2000;0.3166;0.7186;
1249.5000;0.3150;0.7137;
1249.8000;0.3150;0.7211;
1250.1000;0.3175;0.7236;
1250.4000;0.3101;0.6963;
1250.7000;0.3150;0.7062;
1251.0000;0.3142;0.7087;
1251.3000;0.3199;0.7236;
1251.6000;0.3134;0.7161;
1251.9000;0.3118;0.7112;
1252.2000;0.3134;0.7137;
1252.5000;0.3126;0.7137;
1252.8000;0.3126;0.7037;
1253.1000;0.3126;0.7012;
1253.4000;0.3093;0.6888;
1253.7000;0.3126;0.7012;
1254.0000;0.3150;0.6963;
1254.3000;0.3126;0.6813;
1254.6000;0.3158;0.6863;
1254.9000;0.3109;0.6739;
1255.2000;0.3150;0.6863;
1255.5000;0.3134;0.6838;
1255.8000;0.3150;0.6888;
1256.1000;0.3150;0.6838;
1256.4000;0.3142;0.6913;
1256.7000;0.3134;0.6938;
1257.0000;0.3134;0.6938;
1257.3000;0.3134;0.6987;
1257.6000;0.3126;0.6963;
1257.9000;0.3134;0.6963;
1258.2000;0.3069;0.6764;
1258.5000;0.3101;0.6838;
1258.8000;0.3166;0.6938;
1259.1000;0.3126;0.6913;
1259.4000;0.3215;0.7137;
1259.7000;0.3150;0.6987;
1260.0000;0.3077;0.6788;
1260.3000;0.3150;0.6987;
1260.6000;0.3134;0.6888;
1260.9000;0.3142;0.6888;
1261.2000;0.3061;0.6590;
1261.5000;0.3118;0.6764;
1261.8000;0.3150;0.6739;
1262.1000;0.3150;0.6764;
1262.4000;0.3134;0.6739;
1262.7000;0.3142;0.6863;
1263.0000;0.3158;0.6987;
1263.3000;0.3150;0.6987;
1263.6000;0.3126;0.6888;
1263.9000;0.3109;0.6888;
1264.2000;0.3142;0.6987;
1264.5000;0.3150;0.6987;
1264.8000;0.3134;0.7087;
1265.1000;0.3150;0.7161;
1265.4000;0.3142;0.7186;
1265.7000;0.3134;0.7112;
1266.0000;0.3118;0.7137;
1266.3000;0.3134;0.7137;
1266.6000;0.3101;0.7062;
1266.9000;0.3109;0.7037;
1267.2000;0.3126;0.7087;
1267.5000;0.3134;0.7186;
1267.8000;0.3126;0.7087;
1268.1000;0.3134;0.7137;
1268.4000;0.3126;0.7062;
1268.7000;0.3109;0.6913;
1269.0000;0.3077;0.6913;
1269.3000;0.3134;0.7087;
1269.6000;0.3134;0.7137;
1269.9000;0.3126;0.7161;
1270.2000;0.3134;0.7062;
1270.5000;0.3150;0.7012;
1270.8000;0.3150;0.7062;
1271.1000;0.3134;0.7087;
1271.4000;0.3166;0.7211;
1271.7000;0.3142;0.7261;
1272.0000;0.3142;0.7236;
1272.3000;0.3142;0.7236;
1272.6000;0.3158;0.7261;
1272.9000;0.3134;0.7261;
1273.2000;0.3142;0.7186;
1273.5000;0.3126;0.7112;
1273.8000;0.3134;0.7087;
1274.1000;0.3134;0.7137;
1274.4000;0.3134;0.7137;
1274.7000;0.3126;0.7062;
1275.0000;0.3126;0.7012;
1275.3000;0.3134;0.7087;
1275.6000;0.3134;0.7137;
1275.9000;0.3134;0.7161;
1276.2000;0.3101;0.7087;
1276.5000;0.3109;0.7037;
1276.8000;0.3150;0.7112;
1277.1000;0.3101;0.6938;
1277.4000;0.3118;0.6987;
1277.7000;0.3118;0.6987;
1278.0000;0.3158;0.7137;
1278.3000;0.3118;0.7012;
1278.6000;0.3142;0.7037;
1278.9000;0.3142;0.7137;
1279.2000;0.3150;0.7286;
1279.5000;0.3142;0.7211;
1279.8000;0.3150;0.7087;
1280.1000;0.3101;0.7112;
1280.4000;0.3093;0.7137;
1280.7000;0.3134;0.7311;
1281.0000;0.3134;0.7335;
1281.3000;0.3101;0.7236;
1281.6000;0.3085;0.7137;
1281.9000;0.3126;0.7236;
1282.2000;0.3093;0.7137;
1282.5000;0.3158;0.7335;
1282.8000;0.3166;0.7261;
1283.1000;0.3150;0.7186;
1283.4000;0.3142;0.7161;
1283.7000;0.3142;0.7037;
1284.0000;0.3126;0.7087;
1284.3000;0.3150;0.7236;
1284.6000;0.3142;0.7186;
1284.9000;0.3183;0.7236;
1285.2000;0.3142;0.7137;
1285.5000;0.3150;0.7112;
1285.8000;0.3142;0.7087;
1286.1000;0.3150;0.7062;
1286.4000;0.3134;0.7087;
1286.7000;0.3142;0.7112;
1287.0000;0.3126;0.7137;
1287.3000;0.3118;0.7062;
1287.6000;0.3118;0.7087;
1287.9000;0.3134;0.7087;
1288.2000;0.3142;0.7161;
1288.5000;0.3126;0.7137;
1288.8000;0.3134;0.7112;
1289.1000;0.3077;0.6913;
1289.4000;0.3142;0.7062;
1289.7000;0.3142;0.7062;
1290.0000;0.3142;0.7112;
1290.3000;0.3126;0.7087;
1290.6000;0.3142;0.7037;
1290.9000;0.3126;0.7112;
1291.2000;0.3118;0.7137;
1291.5000;0.3158;0.7186;
1291.8000;0.3142;0.7112;
1292.1000;0.3166;0.7186;
1292.4000;0.3109;0.7037;
1292.7000;0.3150;0.7012;
1293.0000;0.3150;0.7037;
1293.3000;0.3150;0.7012;
1293.6000;0.3142;0.6987;
1293.9000;0.3134;0.6987;
1294.2000;0.3183;0.7012;
1294.5000;0.3109;0.6888;
1294.8000;0.3142;0.6987;
1295.1000;0.3053;0.6739;
1295.4000;0.3134;0.6963;
1295.7000;0.3134;0.6938;
1296.0000;0.3142;0.6987;
1296.3000;0.3093;0.6963;
1296.6000;0.3134;0.7012;
1296.9000;0.3118;0.6987;
1297.2000;0.3134;0.7087;
1297.5000;0.3134;0.7112;
1297.8000;0.3134;0.7137;
1298.1000;0.3109;0.7211;
1298.4000;0.3109;0.7261;
1298.7000;0.3142;0.7385;
1299.0000;0.3134;0.7435;
1299.3000;0.3118;0.7360;
1299.6000;0.3126;0.7460;
1299.9000;0.3150;0.7385;
1300.2000;0.3134;0.7311;
1300.5000;0.3126;0.7261;
1300.8000;0.3126;0.7311;
1301.1000;0.3093;0.7261;
1301.4000;0.3126;0.7311;
1301.7000;0.3118;0.7335;
1302.0000;0.3126;0.7335;
1302.3000;0.3101;0.7236;
1302.6000;0.3118;0.7236;
1302.9000;0.3126;0.7236;
1303.2000;0.3175;0.7311;
1303.5000;0.3142;0.7112;
1303.8000;0.3142;0.7087;
1304.1000;0.3166;0.7161;
1304.4000;0.3150;0.7137;
1304.7000;0.3142;0.7161;
1305.0000;0.3150;0.7161;
1305.3000;0.3134;0.7012;
1305.6000;0.3134;0.7087;
1305.9000;0.3118;0.7161;
1306.2000;0.3142;0.7186;
1306.5000;0.3142;0.7261;
1306.8000;0.3142;0.7161;
1307.1000;0.3093;0.7062;
1307.4000;0.3142;0.7062;
1307.7000;0.3142;0.7062;
1308.0000;0.3134;0.6987;
1308.3000;0.3142;0.7012;
1308.6000;0.3142;0.6987;
1308.9000;0.3142;0.6913;
1309.2000;0.3142;0.6987;
1309.5000;0.3166;0.7087;
1309.8000;0.3158;0.7137;
1310.1000;0.3175;0.7161;
1310.4000;0.3150;0.7137;
1310.7000;0.3142;0.7112;
1311.0000;0.3150;0.7311;
1311.3000;0.3126;0.7236;
1311.6000;0.3142;0.7137;
1311.9000;0.3142;0.7137;
1312.2000;0.3142;0.7161;
1312.5000;0.3134;0.7286;
1312.8000;0.3126;0.7286;
1313.1000;0.3142;0.7236;
1313.4000;0.3142;0.7087;
1313.7000;0.3142;0.7161;
1314.0000;0.3126;0.7062;
1314.3000;0.3150;0.7087;
1314.6000;0.3134;0.7112;
1314.9000;0.3142;0.7261;
1315.2000;0.3093;0.7186;
1315.5000;0.3126;0.7211;
1315.8000;0.3126;0.7161;
1316.1000;0.3126;0.7261;
1316.4000;0.3158;0.7286;
1316.7000;0.3142;0.7311;
1317.0000;0.3142;0.7410;
1317.3000;0.3150;0.7286;
1317.6000;0.3134;0.7261;
1317.9000;0.3134;0.7211;
1318.2000;0.3101;0.7137;
1318.5000;0.3166;0.7335;
1318.8000;0.3158;0.7311;
1319.1000;0.3077;0.7112;
1319.4000;0.3142;0.7211;
1319.7000;0.3150;0.7236;
1320.0000;0.3150;0.7360;
1320.3000;0.3207;0.7609;
1320.6000;0.3142;0.7510;
1320.9000;0.3134;0.7460;
1321.2000;0.3150;0.7485;
1321.5000;0.3134;0.7460;
1321.8000;0.3126;0.7435;
1322.1000;0.3142;0.7460;
1322.4000;0.3134;0.7460;
1322.7000;0.3134;0.7485;
1323.0000;0.3126;0.7534;
1323.3000;0.3134;0.7460;
1323.6000;0.3126;0.7360;
1323.9000;0.3150;0.7410;
1324.2000;0.3142;0.7311;
1324.5000;0.3134;0.7311;
1324.8000;0.3150;0.7410;
1325.1000;0.3142;0.7335;
1325.4000;0.3150;0.7410;
1325.7000;0.3166;0.7485;
1326.0000;0.3142;0.7385;
1326.3000;0.3150;0.7360;
1326.6000;0.3142;0.7335;
1326.9000;0.3134;0.7360;
1327.2000;0.3150;0.7435;
1327.5000;0.3142;0.7435;
1327.8000;0.3142;0.7435;
1328.1000;0.3142;0.7385;
1328.4000;0.3142;0.7261;
1328.7000;0.3150;0.7211;
1329.0000;0.3166;0.7161;
1329.3000;0.3134;0.7112;
1329.6000;0.3150;0.7062;
1329.9000;0.3158;0.7186;
1330.2000;0.3150;0.7261;
1330.5000;0.3142;0.7286;
1330.8000;0.3101;0.7087;
1331.1000;0.3134;0.7236;
1331.4000;0.3142;0.7236;
1331.7000;0.3175;0.7360;
1332.0000;0.3142;0.7211;
1332.3000;0.3134;0.7087;
1332.6000;0.3134;0.7112;
1332.9000;0.3126;0.7137;
1333.2000;0.3191;0.7186;
1333.5000;0.3142;0.7186;
1333.8000;0.3158;0.7335;
1334.1000;0.3126;0.7261;
1334.4000;0.3126;0.7286;
1334.7000;0.3150;0.7286;
1335.0000;0.3134;0.7286;
1335.3000;0.3118;0.7261;
1335.6000;0.3150;0.7236;
1335.9000;0.3134;0.7286;
1336.2000;0.3134;0.7311;
1336.5000;0.3142;0.7335;
1336.8000;0.3134;0.7335;
1337.1000;0.3166;0.7360;
1337.4000;0.3150;0.7385;
1337.7000;0.3199;0.7485;
1338.0000;0.3109;0.7161;
1338.3000;0.3134;0.7186;
1338.6000;0.3134;0.7161;
1338.9000;0.3134;0.7112;
1339.2000;0.3150;0.7211;
1339.5000;0.3126;0.7236;
1339.8000;0.3150;0.7261;
1340.1000;0.3150;0.7385;
1340.4000;0.3134;0.7435;
1340.7000;0.3150;0.7534;
1341.0000;0.3126;0.7460;
1341.3000;0.3142;0.7410;
1341.6000;0.3150;0.7435;
1341.9000;0.3150;0.7510;
1342.2000;0.3183;0.7510;
1342.5000;0.3158;0.7435;
1342.8000;0.3142;0.7485;
1343.1000;0.3142;0.7410;
1343.4000;0.3142;0.7435;
1343.7000;0.3134;0.7385;
1344.0000;0.3166;0.7435;
1344.3000;0.3109;0.7360;
1344.6000;0.3142;0.7385;
1344.9000;0.3158;0.7311;
1345.2000;0.3191;0.7311;
1345.5000;0.3134;0.7186;
1345.8000;0.3134;0.7286;
1346.1000;0.3126;0.7186;
1346.4000;0.3134;0.7236;
1346.7000;0.3134;0.7236;
1347.0000;0.3126;0.7186;
1347.3000;0.3126;0.7161;
1347.6000;0.3109;0.7037;
1347.9000;0.3142;0.7037;
1348.2000;0.3126;0.7087;
1348.5000;0.3118;0.7037;
1348.8000;0.3134;0.7137;
1349.1000;0.3134;0.7087;
1349.4000;0.3061;0.6938;
1349.7000;0.3134;0.7037;
1350.0000;0.3118;0.7012;
1350.3000;0.3126;0.7137;
1350.6000;0.3085;0.7087;
1350.9000;0.3126;0.7211;
1351.2000;0.3118;0.7211;
1351.5000;0.3069;0.7012;
1351.8000;0.3175;0.7236;
1352.1000;0.3134;0.7012;
1352.4000;0.3150;0.7137;
1352.7000;0.3126;0.7137;
1353.0000;0.3142;0.7236;
1353.3000;0.3109;0.7186;
1353.6000;0.3142;0.7211;
1353.9000;0.3183;0.7335;
1354.2000;0.3126;0.7137;
1354.5000;0.3134;0.7261;
1354.8000;0.3126;0.7335;
1355.1000;0.3142;0.7360;
1355.4000;0.3142;0.7311;
1355.7000;0.3142;0.7385;
1356.0000;0.3142;0.7360;
1356.3000;0.3134;0.7335;
1356.6000;0.3134;0.7286;
1356.9000;0.3134;0.7311;
1357.2000;0.3150;0.7261;
1357.5000;0.3118;0.7186;
1357.8000;0.3158;0.7211;
1358.1000;0.3134;0.7236;
1358.4000;0.3142;0.7236;
1358.7000;0.3134;0.7236;
1359.0000;0.3158;0.7286;
1359.3000;0.3158;0.7335;
1359.6000;0.3134;0.7385;
1359.9000;0.3175;0.7485;
1360.2000;0.3158;0.7485;
1360.5000;0.3199;0.7584;
1360.8000;0.3150;0.7360;
1361.1000;0.3150;0.7311;
1361.4000;0.3126;0.7261;
1361.7000;0.3118;0.7236;
1362.0000;0.3150;0.7311;
1362.3000;0.3175;0.7385;
1362.6000;0.3126;0.7286;
1362.9000;0.3126;0.7236;
1363.2000;0.3093;0.7137;
1363.5000;0.3175;0.7335;
1363.8000;0.3126;0.7311;
1364.1000;0.3126;0.7261;
1364.4000;0.3158;0.7335;
1364.7000;0.3183;0.7410;
1365.0000;0.3134;0.7261;
1365.3000;0.3126;0.7211;
1365.6000;0.3134;0.7236;
1365.9000;0.3134;0.7261;
1366.2000;0.3150;0.7261;
1366.5000;0.3142;0.7211;
1366.8000;0.3134;0.7236;
1367.1000;0.3118;0.7261;
1367.4000;0.3126;0.7311;
1367.7000;0.3118;0.7286;
1368.0000;0.3118;0.7360;
1368.3000;0.3118;0.7311;
1368.6000;0.3134;0.7485;
1368.9000;0.3126;0.7559;
1369.2000;0.3126;0.7584;
1369.5000;0.3093;0.7559;
1369.8000;0.3118;0.7460;
1370.1000;0.3158;0.7534;
1370.4000;0.3118;0.7410;
1370.7000;0.3118;0.7385;
1371.0000;0.3134;0.7435;
1371.3000;0.3142;0.7385;
1371.6000;0.3109;0.7360;
1371.9000;0.3134;0.7460;
1372.2000;0.3126;0.7410;
1372.5000;0.3134;0.7485;
1372.8000;0.3053;0.7261;
1373.1000;0.3126;0.7360;
1373.4000;0.3126;0.7311;
1373.7000;0.3150;0.7385;
1374.0000;0.3215;0.7634;
1374.3000;0.3126;0.7410;
1374.6000;0.3150;0.7510;
1374.9000;0.3134;0.7410;
1375.2000;0.3085;0.7236;
1375.5000;0.3142;0.7360;
1375.8000;0.3142;0.7360;
1376.1000;0.3150;0.7460;
1376.4000;0.3142;0.7460;
1376.7000;0.3134;0.7311;
1377.0000;0.3150;0.7311;
1377.3000;0.3150;0.7311;
1377.6000;0.3134;0.7335;
1377.9000;0.3166;0.7460;
1378.2000;0.3142;0.7435;
1378.5000;0.3126;0.7385;
1378.8000;0.3142;0.7435;
1379.1000;0.3142;0.7460;
1379.4000;0.3134;0.7485;
1379.7000;0.3134;0.7510;
1380.0000;0.3158;0.7559;
1380.3000;0.3109;0.7510;
1380.6000;0.3134;0.7634;
1380.9000;0.3142;0.7733;
1381.2000;0.3118;0.7733;
1381.5000;0.3142;0.7708;
1381.8000;0.3134;0.7584;
1382.1000;0.3150;0.7609;
1382.4000;0.3134;0.7534;
1382.7000;0.3118;0.7460;
1383.0000;0.3134;0.7510;
1383.3000;0.3126;0.7485;
1383.6000;0.3158;0.7609;
1383.9000;0.3142;0.7435;
1384.2000;0.3134;0.7510;
1384.5000;0.3134;0.7435;
1384.8000;0.3166;0.7534;
1385.1000;0.3126;0.7410;
1385.4000;0.3126;0.7510;
1385.7000;0.3134;0.7609;
1386.0000;0.3142;0.7634;
1386.3000;0.3142;0.7534;
1386.6000;0.3134;0.7460;
1386.9000;0.3126;0.7335;
1387.2000;0.3134;0.7335;
1387.5000;0.3142;0.7385;
1387.8000;0.3109;0.7360;
1388.1000;0.3142;0.7485;
1388.4000;0.3126;0.7485;
1388.7000;0.3175;0.7460;
1389.0000;0.3118;0.7311;
1389.3000;0.3134;0.7261;
1389.6000;0.3134;0.7286;
1389.9000;0.3142;0.7360;
1390.2000;0.3158;0.7435;
1390.5000;0.3142;0.7311;
1390.8000;0.3142;0.7311;
1391.1000;0.3134;0.7385;
1391.4000;0.3158;0.7385;
1391.7000;0.3142;0.7236;
1392.0000;0.3142;0.7236;
1392.3000;0.3150;0.7311;
1392.6000;0.3158;0.7410;
1392.9000;0.3142;0.7360;
1393.2000;0.3126;0.7286;
1393.5000;0.3150;0.7360;
1393.8000;0.3142;0.7335;
1394.1000;0.3142;0.7335;
1394.4000;0.3142;0.7286;
1394.7000;0.3134;0.7286;
1395.0000;0.3142;0.7335;
1395.3000;0.3118;0.7311;
1395.6000;0.3166;0.7311;
1395.9000;0.3134;0.7286;
1396.2000;0.3126;0.7360;
1396.5000;0.3126;0.7311;
1396.8000;0.3134;0.7385;
1397.1000;0.3166;0.7510;
1397.4000;0.3142;0.7435;
1397.7000;0.3126;0.7360;
1398.0000;0.3142;0.7435;
1398.3000;0.3142;0.7435;
1398.6000;0.3158;0.7410;
1398.9000;0.3126;0.7510;
1399.2000;0.3150;0.7410;
1399.5000;0.3142;0.7360;
1399.8000;0.3142;0.7385;
