time/ms;Fluo/V;P700 deltaI/I x10³;
-199.8000;0.3533;0.7708;
-199.5000;0.3541;0.7684;
-199.2000;0.3533;0.7634;
-198.9000;0.3516;0.7684;
-198.6000;0.3541;0.7808;
-198.3000;0.3541;0.7808;
-198.0000;0.3557;0.7783;
-197.7000;0.3549;0.7758;
-197.4000;0.3541;0.7808;
-197.1000;0.3565;0.7858;
-196.8000;0.3565;0.7758;
-196.5000;0.3541;0.7758;
-196.2000;0.3533;0.7708;
-195.9000;0.3533;0.7708;
-195.6000;0.3533;0.7684;
-195.3000;0.3565;0.7634;
-195.0000;0.3533;0.7584;
-194.7000;0.3516;0.7510;
-194.4000;0.3541;0.7534;
-194.1000;0.3557;0.7510;
-193.8000;0.3549;0.7460;
-193.5000;0.3541;0.7485;
-193.2000;0.3549;0.7584;
-192.9000;0.3533;0.7534;
-192.6000;0.3541;0.7609;
-192.3000;0.3541;0.7609;
-192.0000;0.3541;0.7634;
-191.7000;0.3533;0.7559;
-191.4000;0.3541;0.7559;
-191.1000;0.3549;0.7485;
-190.8000;0.3533;0.7460;
-190.5000;0.3533;0.7485;
-190.2000;0.3533;0.7534;
-189.9000;0.3549;0.7609;
-189.6000;0.3500;0.7659;
-189.3000;0.3533;0.7708;
-189.0000;0.3598;0.7858;
-188.7000;0.3533;0.7684;
-188.4000;0.3525;0.7659;
-188.1000;0.3573;0.7758;
-187.8000;0.3533;0.7733;
-187.5000;0.3541;0.7659;
-187.2000;0.3557;0.7708;
-186.9000;0.3525;0.7634;
-186.6000;0.3565;0.7708;
-186.3000;0.3549;0.7684;
-186.0000;0.3533;0.7684;
-185.7000;0.3549;0.7659;
-185.4000;0.3492;0.7534;
-185.1000;0.3549;0.7684;
-184.8000;0.3533;0.7659;
-184.5000;0.3590;0.7833;
-184.2000;0.3549;0.7783;
-183.9000;0.3549;0.7758;
-183.6000;0.3549;0.7708;
-183.3000;0.3541;0.7708;
-183.0000;0.3541;0.7733;
-182.7000;0.3549;0.7684;
-182.4000;0.3606;0.7808;
-182.1000;0.3557;0.7684;
-181.8000;0.3582;0.7708;
-181.5000;0.3541;0.7659;
-181.2000;0.3525;0.7609;
-180.9000;0.3508;0.7559;
-180.6000;0.3541;0.7534;
-180.3000;0.3541;0.7534;
-180.0000;0.3549;0.7708;
-179.7000;0.3533;0.7659;
-179.4000;0.3533;0.7758;
-179.1000;0.3533;0.7708;
-178.8000;0.3541;0.7659;
-178.5000;0.3541;0.7584;
-178.2000;0.3541;0.7708;
-177.9000;0.3557;0.7758;
-177.6000;0.3549;0.7783;
-177.3000;0.3557;0.7858;
-177.0000;0.3541;0.7858;
-176.7000;0.3541;0.7883;
-176.4000;0.3541;0.7858;
-176.1000;0.3533;0.7783;
-175.8000;0.3533;0.7758;
-175.5000;0.3565;0.7858;
-175.2000;0.3549;0.7883;
-174.9000;0.3533;0.7858;
-174.6000;0.3525;0.7808;
-174.3000;0.3516;0.7758;
-174.0000;0.3549;0.7858;
-173.7000;0.3533;0.7708;
-173.4000;0.3549;0.7684;
-173.1000;0.3549;0.7733;
-172.8000;0.3533;0.7659;
-172.5000;0.3541;0.7634;
-172.2000;0.3573;0.7758;
-171.9000;0.3541;0.7684;
-171.6000;0.3557;0.7783;
-171.3000;0.3582;0.7833;
-171.0000;0.3533;0.7708;
-170.7000;0.3541;0.7708;
-170.4000;0.3525;0.7708;
-170.1000;0.3500;0.7609;
-169.8000;0.3549;0.7708;
-169.5000;0.3533;0.7634;
-169.2000;0.3508;0.7584;
-168.9000;0.3557;0.7708;
-168.6000;0.3541;0.7708;
-168.3000;0.3533;0.7634;
-168.0000;0.3541;0.7684;
-167.7000;0.3533;0.7684;
-167.4000;0.3557;0.7783;
-167.1000;0.3565;0.7833;
-166.8000;0.3541;0.7758;
-166.5000;0.3533;0.7733;
-166.2000;0.3492;0.7534;
-165.9000;0.3516;0.7659;
-165.6000;0.3533;0.7758;
-165.3000;0.3500;0.7733;
-165.0000;0.3533;0.7733;
-164.7000;0.3549;0.7684;
-164.4000;0.3541;0.7659;
-164.1000;0.3533;0.7609;
-163.8000;0.3541;0.7584;
-163.5000;0.3565;0.7609;
-163.2000;0.3508;0.7559;
-162.9000;0.3557;0.7659;
-162.6000;0.3541;0.7684;
-162.3000;0.3541;0.7609;
-162.0000;0.3541;0.7559;
-161.7000;0.3598;0.7634;
-161.4000;0.3541;0.7485;
-161.1000;0.3549;0.7559;
-160.8000;0.3533;0.7510;
-160.5000;0.3516;0.7534;
-160.2000;0.3533;0.7634;
-159.9000;0.3541;0.7684;
-159.6000;0.3541;0.7758;
-159.3000;0.3573;0.7758;
-159.0000;0.3533;0.7708;
-158.7000;0.3533;0.7758;
-158.4000;0.3541;0.7758;
-158.1000;0.3573;0.7758;
-157.8000;0.3549;0.7634;
-157.5000;0.3541;0.7634;
-157.2000;0.3476;0.7410;
-156.9000;0.3541;0.7609;
-156.6000;0.3541;0.7584;
-156.3000;0.3582;0.7758;
-156.0000;0.3533;0.7659;
-155.7000;0.3525;0.7684;
-155.4000;0.3525;0.7684;
-155.1000;0.3541;0.7659;
-154.8000;0.3541;0.7659;
-154.5000;0.3525;0.7584;
-154.2000;0.3549;0.7733;
-153.9000;0.3541;0.7708;
-153.6000;0.3525;0.7708;
-153.3000;0.3533;0.7758;
-153.0000;0.3557;0.7833;
-152.7000;0.3549;0.7733;
-152.4000;0.3541;0.7609;
-152.1000;0.3549;0.7634;
-151.8000;0.3549;0.7684;
-151.5000;0.3541;0.7659;
-151.2000;0.3549;0.7733;
-150.9000;0.3541;0.7808;
-150.6000;0.3541;0.7758;
-150.3000;0.3516;0.7808;
-150.0000;0.3549;0.7783;
-149.7000;0.3549;0.7783;
-149.4000;0.3533;0.7783;
-149.1000;0.3582;0.7733;
-148.8000;0.3582;0.7808;
-148.5000;0.3516;0.7708;
-148.2000;0.3541;0.7758;
-147.9000;0.3533;0.7758;
-147.6000;0.3484;0.7684;
-147.3000;0.3516;0.7708;
-147.0000;0.3533;0.7758;
-146.7000;0.3533;0.7708;
-146.4000;0.3492;0.7559;
-146.1000;0.3541;0.7659;
-145.8000;0.3533;0.7584;
-145.5000;0.3533;0.7584;
-145.2000;0.3525;0.7534;
-144.9000;0.3541;0.7609;
-144.6000;0.3541;0.7684;
-144.3000;0.3533;0.7659;
-144.0000;0.3557;0.7783;
-143.7000;0.3533;0.7858;
-143.4000;0.3565;0.7907;
-143.1000;0.3557;0.7858;
-142.8000;0.3549;0.7833;
-142.5000;0.3533;0.7808;
-142.2000;0.3533;0.7733;
-141.9000;0.3541;0.7684;
-141.6000;0.3533;0.7634;
-141.3000;0.3557;0.7634;
-141.0000;0.3549;0.7609;
-140.7000;0.3549;0.7659;
-140.4000;0.3533;0.7609;
-140.1000;0.3541;0.7559;
-139.8000;0.3557;0.7733;
-139.5000;0.3541;0.7733;
-139.2000;0.3533;0.7659;
-138.9000;0.3533;0.7584;
-138.6000;0.3573;0.7733;
-138.3000;0.3533;0.7708;
-138.0000;0.3582;0.7783;
-137.7000;0.3525;0.7634;
-137.4000;0.3557;0.7733;
-137.1000;0.3541;0.7684;
-136.8000;0.3533;0.7634;
-136.5000;0.3500;0.7510;
-136.2000;0.3541;0.7584;
-135.9000;0.3533;0.7559;
-135.6000;0.3541;0.7634;
-135.3000;0.3549;0.7609;
-135.0000;0.3541;0.7534;
-134.7000;0.3557;0.7534;
-134.4000;0.3614;0.7758;
-134.1000;0.3541;0.7634;
-133.8000;0.3533;0.7609;
-133.5000;0.3541;0.7609;
-133.2000;0.3549;0.7584;
-132.9000;0.3541;0.7634;
-132.6000;0.3541;0.7684;
-132.3000;0.3614;0.7907;
-132.0000;0.3549;0.7659;
-131.7000;0.3565;0.7684;
-131.4000;0.3647;0.7858;
-131.1000;0.3533;0.7659;
-130.8000;0.3549;0.7634;
-130.5000;0.3557;0.7634;
-130.2000;0.3476;0.7435;
-129.9000;0.3533;0.7609;
-129.6000;0.3541;0.7684;
-129.3000;0.3541;0.7708;
-129.0000;0.3565;0.7808;
-128.7000;0.3533;0.7758;
-128.4000;0.3533;0.7783;
-128.1000;0.3525;0.7783;
-127.8000;0.3565;0.7783;
-127.5000;0.3492;0.7559;
-127.2000;0.3541;0.7634;
-126.9000;0.3508;0.7634;
-126.6000;0.3533;0.7708;
-126.3000;0.3533;0.7708;
-126.0000;0.3582;0.7758;
-125.7000;0.3508;0.7559;
-125.4000;0.3549;0.7584;
-125.1000;0.3533;0.7534;
-124.8000;0.3533;0.7559;
-124.5000;0.3533;0.7634;
-124.2000;0.3549;0.7634;
-123.9000;0.3549;0.7684;
-123.6000;0.3639;0.7932;
-123.3000;0.3557;0.7758;
-123.0000;0.3614;0.7957;
-122.7000;0.3533;0.7733;
-122.4000;0.3468;0.7609;
-122.1000;0.3541;0.7833;
-121.8000;0.3533;0.7808;
-121.5000;0.3541;0.7733;
-121.2000;0.3541;0.7758;
-120.9000;0.3541;0.7708;
-120.6000;0.3525;0.7684;
-120.3000;0.3549;0.7609;
-120.0000;0.3525;0.7584;
-119.7000;0.3557;0.7634;
-119.4000;0.3549;0.7609;
-119.1000;0.3541;0.7609;
-118.8000;0.3557;0.7584;
-118.5000;0.3573;0.7634;
-118.2000;0.3508;0.7460;
-117.9000;0.3533;0.7559;
-117.6000;0.3541;0.7609;
-117.3000;0.3541;0.7609;
-117.0000;0.3541;0.7534;
-116.7000;0.3582;0.7634;
-116.4000;0.3549;0.7559;
-116.1000;0.3541;0.7460;
-115.8000;0.3549;0.7510;
-115.5000;0.3443;0.7161;
-115.2000;0.3541;0.7360;
-114.9000;0.3525;0.7286;
-114.6000;0.3582;0.7460;
-114.3000;0.3549;0.7460;
-114.0000;0.3541;0.7485;
-113.7000;0.3541;0.7485;
-113.4000;0.3516;0.7385;
-113.1000;0.3549;0.7510;
-112.8000;0.3557;0.7559;
-112.5000;0.3541;0.7510;
-112.2000;0.3525;0.7485;
-111.9000;0.3557;0.7559;
-111.6000;0.3549;0.7684;
-111.3000;0.3590;0.7758;
-111.0000;0.3533;0.7584;
-110.7000;0.3541;0.7659;
-110.4000;0.3541;0.7659;
-110.1000;0.3533;0.7534;
-109.8000;0.3533;0.7510;
-109.5000;0.3541;0.7485;
-109.2000;0.3549;0.7584;
-108.9000;0.3549;0.7659;
-108.6000;0.3541;0.7659;
-108.3000;0.3508;0.7559;
-108.0000;0.3549;0.7559;
-107.7000;0.3557;0.7559;
-107.4000;0.3533;0.7584;
-107.1000;0.3557;0.7708;
-106.8000;0.3549;0.7708;
-106.5000;0.3565;0.7758;
-106.2000;0.3549;0.7684;
-105.9000;0.3541;0.7634;
-105.6000;0.3541;0.7534;
-105.3000;0.3541;0.7460;
-105.0000;0.3541;0.7385;
-104.7000;0.3541;0.7485;
-104.4000;0.3557;0.7510;
-104.1000;0.3508;0.7485;
-103.8000;0.3533;0.7510;
-103.5000;0.3541;0.7584;
-103.2000;0.3549;0.7534;
-102.9000;0.3606;0.7609;
-102.6000;0.3533;0.7385;
-102.3000;0.3492;0.7360;
-102.0000;0.3541;0.7510;
-101.7000;0.3598;0.7684;
-101.4000;0.3541;0.7634;
-101.1000;0.3508;0.7559;
-100.8000;0.3541;0.7584;
-100.5000;0.3516;0.7609;
-100.2000;0.3557;0.7609;
-99.9000;0.3557;0.7634;
-99.6000;0.3541;0.7659;
-99.3000;0.3541;0.7659;
-99.0000;0.3541;0.7708;
-98.7000;0.3525;0.7708;
-98.4000;0.3565;0.7858;
-98.1000;0.3468;0.7634;
-97.8000;0.3541;0.7783;
-97.5000;0.3549;0.7733;
-97.2000;0.3557;0.7708;
-96.9000;0.3508;0.7584;
-96.6000;0.3525;0.7659;
-96.3000;0.3500;0.7584;
-96.0000;0.3525;0.7634;
-95.7000;0.3468;0.7534;
-95.4000;0.3516;0.7609;
-95.1000;0.3525;0.7534;
-94.8000;0.3541;0.7634;
-94.5000;0.3557;0.7659;
-94.2000;0.3541;0.7684;
-93.9000;0.3541;0.7684;
-93.6000;0.3516;0.7559;
-93.3000;0.3541;0.7733;
-93.0000;0.3557;0.7708;
-92.7000;0.3484;0.7559;
-92.4000;0.3468;0.7534;
-92.1000;0.3582;0.7883;
-91.8000;0.3549;0.7708;
-91.5000;0.3500;0.7534;
-91.2000;0.3598;0.7733;
-90.9000;0.3533;0.7584;
-90.6000;0.3500;0.7584;
-90.3000;0.3533;0.7708;
-90.0000;0.3549;0.7733;
-89.7000;0.3549;0.7659;
-89.4000;0.3525;0.7559;
-89.1000;0.3541;0.7584;
-88.8000;0.3533;0.7534;
-88.5000;0.3557;0.7559;
-88.2000;0.3541;0.7460;
-87.9000;0.3533;0.7510;
-87.6000;0.3541;0.7534;
-87.3000;0.3541;0.7609;
-87.0000;0.3525;0.7584;
-86.7000;0.3525;0.7634;
-86.4000;0.3549;0.7684;
-86.1000;0.3541;0.7684;
-85.8000;0.3533;0.7534;
-85.5000;0.3508;0.7534;
-85.2000;0.3533;0.7609;
-84.9000;0.3516;0.7584;
-84.6000;0.3533;0.7485;
-84.3000;0.3533;0.7584;
-84.0000;0.3565;0.7559;
-83.7000;0.3541;0.7609;
-83.4000;0.3549;0.7609;
-83.1000;0.3557;0.7708;
-82.8000;0.3525;0.7609;
-82.5000;0.3557;0.7708;
-82.2000;0.3500;0.7510;
-81.9000;0.3533;0.7609;
-81.6000;0.3516;0.7584;
-81.3000;0.3541;0.7609;
-81.0000;0.3549;0.7609;
-80.7000;0.3533;0.7510;
-80.4000;0.3573;0.7584;
-80.1000;0.3525;0.7460;
-79.8000;0.3525;0.7460;
-79.5000;0.3541;0.7559;
-79.2000;0.3516;0.7510;
-78.9000;0.3500;0.7534;
-78.6000;0.3516;0.7559;
-78.3000;0.3549;0.7609;
-78.0000;0.3557;0.7634;
-77.7000;0.3508;0.7584;
-77.4000;0.3525;0.7659;
-77.1000;0.3557;0.7783;
-76.8000;0.3500;0.7659;
-76.5000;0.3541;0.7708;
-76.2000;0.3541;0.7708;
-75.9000;0.3525;0.7708;
-75.6000;0.3500;0.7708;
-75.3000;0.3525;0.7708;
-75.0000;0.3533;0.7659;
-74.7000;0.3549;0.7634;
-74.4000;0.3525;0.7559;
-74.1000;0.3525;0.7584;
-73.8000;0.3533;0.7659;
-73.5000;0.3541;0.7659;
-73.2000;0.3533;0.7733;
-72.9000;0.3549;0.7783;
-72.6000;0.3557;0.7783;
-72.3000;0.3541;0.7833;
-72.0000;0.3533;0.7808;
-71.7000;0.3541;0.7833;
-71.4000;0.3541;0.7907;
-71.1000;0.3541;0.7808;
-70.8000;0.3573;0.7808;
-70.5000;0.3549;0.7758;
-70.2000;0.3541;0.7758;
-69.9000;0.3525;0.7783;
-69.6000;0.3541;0.7733;
-69.3000;0.3533;0.7609;
-69.0000;0.3460;0.7435;
-68.7000;0.3516;0.7534;
-68.4000;0.3549;0.7559;
-68.1000;0.3533;0.7559;
-67.8000;0.3533;0.7634;
-67.5000;0.3565;0.7733;
-67.2000;0.3533;0.7559;
-66.9000;0.3516;0.7559;
-66.6000;0.3533;0.7609;
-66.3000;0.3541;0.7634;
-66.0000;0.3533;0.7460;
-65.7000;0.3533;0.7385;
-65.4000;0.3516;0.7410;
-65.1000;0.3565;0.7534;
-64.8000;0.3541;0.7410;
-64.5000;0.3533;0.7410;
-64.2000;0.3525;0.7435;
-63.9000;0.3533;0.7460;
-63.6000;0.3557;0.7534;
-63.3000;0.3557;0.7584;
-63.0000;0.3533;0.7584;
-62.7000;0.3525;0.7584;
-62.4000;0.3557;0.7634;
-62.1000;0.3557;0.7733;
-61.8000;0.3541;0.7634;
-61.5000;0.3541;0.7609;
-61.2000;0.3565;0.7684;
-60.9000;0.3549;0.7584;
-60.6000;0.3549;0.7559;
-60.3000;0.3598;0.7684;
-60.0000;0.3541;0.7510;
-59.7000;0.3549;0.7485;
-59.4000;0.3533;0.7485;
-59.1000;0.3492;0.7385;
-58.8000;0.3549;0.7435;
-58.5000;0.3549;0.7435;
-58.2000;0.3516;0.7335;
-57.9000;0.3533;0.7385;
-57.6000;0.3533;0.7311;
-57.3000;0.3557;0.7385;
-57.0000;0.3549;0.7460;
-56.7000;0.3541;0.7485;
-56.4000;0.3549;0.7584;
-56.1000;0.3541;0.7634;
-55.8000;0.3525;0.7634;
-55.5000;0.3525;0.7634;
-55.2000;0.3533;0.7609;
-54.9000;0.3565;0.7634;
-54.6000;0.3541;0.7510;
-54.3000;0.3533;0.7435;
-54.0000;0.3533;0.7435;
-53.7000;0.3533;0.7410;
-53.4000;0.3549;0.7385;
-53.1000;0.3516;0.7335;
-52.8000;0.3541;0.7335;
-52.5000;0.3541;0.7435;
-52.2000;0.3549;0.7435;
-51.9000;0.3582;0.7534;
-51.6000;0.3525;0.7510;
-51.3000;0.3541;0.7609;
-51.0000;0.3549;0.7659;
-50.7000;0.3541;0.7609;
-50.4000;0.3549;0.7559;
-50.1000;0.3492;0.7410;
-49.8000;0.3516;0.7460;
-49.5000;0.3541;0.7485;
-49.2000;0.3533;0.7435;
-48.9000;0.3533;0.7335;
-48.6000;0.3533;0.7410;
-48.3000;0.3500;0.7311;
-48.0000;0.3533;0.7435;
-47.7000;0.3525;0.7385;
-47.4000;0.3541;0.7385;
-47.1000;0.3549;0.7385;
-46.8000;0.3565;0.7385;
-46.5000;0.3525;0.7311;
-46.2000;0.3541;0.7435;
-45.9000;0.3525;0.7460;
-45.6000;0.3541;0.7559;
-45.3000;0.3541;0.7609;
-45.0000;0.3516;0.7584;
-44.7000;0.3533;0.7559;
-44.4000;0.3533;0.7634;
-44.1000;0.3541;0.7609;
-43.8000;0.3541;0.7584;
-43.5000;0.3541;0.7559;
-43.2000;0.3533;0.7510;
-42.9000;0.3533;0.7485;
-42.6000;0.3533;0.7435;
-42.3000;0.3492;0.7360;
-42.0000;0.3549;0.7534;
-41.7000;0.3557;0.7559;
-41.4000;0.3533;0.7485;
-41.1000;0.3549;0.7460;
-40.8000;0.3541;0.7510;
-40.5000;0.3541;0.7559;
-40.2000;0.3508;0.7385;
-39.9000;0.3541;0.7460;
-39.6000;0.3557;0.7485;
-39.3000;0.3516;0.7460;
-39.0000;0.3541;0.7510;
-38.7000;0.3590;0.7534;
-38.4000;0.3549;0.7460;
-38.1000;0.3557;0.7485;
-37.8000;0.3541;0.7460;
-37.5000;0.3533;0.7435;
-37.2000;0.3533;0.7485;
-36.9000;0.3557;0.7460;
-36.6000;0.3606;0.7584;
-36.3000;0.3565;0.7485;
-36.0000;0.3525;0.7410;
-35.7000;0.3533;0.7460;
-35.4000;0.3533;0.7485;
-35.1000;0.3549;0.7534;
-34.8000;0.3541;0.7534;
-34.5000;0.3525;0.7485;
-34.2000;0.3533;0.7534;
-33.9000;0.3533;0.7559;
-33.6000;0.3565;0.7659;
-33.3000;0.3533;0.7634;
-33.0000;0.3533;0.7559;
-32.7000;0.3533;0.7510;
-32.4000;0.3533;0.7510;
-32.1000;0.3549;0.7559;
-31.8000;0.3541;0.7460;
-31.5000;0.3549;0.7460;
-31.2000;0.3549;0.7435;
-30.9000;0.3533;0.7410;
-30.6000;0.3525;0.7385;
-30.3000;0.3533;0.7485;
-30.0000;0.3525;0.7485;
-29.7000;0.3516;0.7584;
-29.4000;0.3606;0.7883;
-29.1000;0.3549;0.7684;
-28.8000;0.3533;0.7634;
-28.5000;0.3516;0.7609;
-28.2000;0.3541;0.7684;
-27.9000;0.3525;0.7609;
-27.6000;0.3541;0.7684;
-27.3000;0.3549;0.7659;
-27.0000;0.3549;0.7584;
-26.7000;0.3565;0.7659;
-26.4000;0.3573;0.7634;
-26.1000;0.3525;0.7534;
-25.8000;0.3541;0.7435;
-25.5000;0.3533;0.7485;
-25.2000;0.3525;0.7510;
-24.9000;0.3525;0.7584;
-24.6000;0.3533;0.7435;
-24.3000;0.3557;0.7534;
-24.0000;0.3516;0.7510;
-23.7000;0.3516;0.7485;
-23.4000;0.3525;0.7460;
-23.1000;0.3533;0.7460;
-22.8000;0.3549;0.7485;
-22.5000;0.3549;0.7559;
-22.2000;0.3525;0.7510;
-21.9000;0.3533;0.7410;
-21.6000;0.3541;0.7435;
-21.3000;0.3549;0.7435;
-21.0000;0.3533;0.7510;
-20.7000;0.3525;0.7360;
-20.4000;0.3516;0.7311;
-20.1000;0.3533;0.7410;
-19.8000;0.3525;0.7335;
-19.5000;0.3516;0.7236;
-19.2000;0.3525;0.7261;
-18.9000;0.3541;0.7360;
-18.6000;0.3500;0.7385;
-18.3000;0.3492;0.7236;
-18.0000;0.3516;0.7385;
-17.7000;0.3533;0.7435;
-17.4000;0.3590;0.7559;
-17.1000;0.3541;0.7460;
-16.8000;0.3533;0.7510;
-16.5000;0.3525;0.7460;
-16.2000;0.3606;0.7659;
-15.9000;0.3541;0.7460;
-15.6000;0.3549;0.7510;
-15.3000;0.3541;0.7410;
-15.0000;0.3541;0.7435;
-14.7000;0.3549;0.7510;
-14.4000;0.3516;0.7460;
-14.1000;0.3525;0.7485;
-13.8000;0.3525;0.7559;
-13.5000;0.3533;0.7559;
-13.2000;0.3533;0.7460;
-12.9000;0.3541;0.7559;
-12.6000;0.3541;0.7659;
-12.3000;0.3525;0.7559;
-12.0000;0.3525;0.7534;
-11.7000;0.3516;0.7559;
-11.4000;0.3557;0.7559;
-11.1000;0.3500;0.7460;
-10.8000;0.3525;0.7410;
-10.5000;0.3533;0.7410;
-10.2000;0.3533;0.7385;
-9.9000;0.3557;0.7485;
-9.6000;0.3525;0.7410;
-9.3000;0.3549;0.7435;
-9.0000;0.3533;0.7360;
-8.7000;0.3565;0.7385;
-8.4000;0.3573;0.7410;
-8.1000;0.3533;0.7360;
-7.8000;0.3541;0.7360;
-7.5000;0.3516;0.7311;
-7.2000;0.3508;0.7261;
-6.9000;0.3557;0.7385;
-6.6000;0.3549;0.7410;
-6.3000;0.3549;0.7360;
-6.0000;0.3549;0.7435;
-5.7000;0.3525;0.7335;
-5.4000;0.3516;0.7335;
-5.1000;0.3516;0.7286;
-4.8000;0.3557;0.7435;
-4.5000;0.3533;0.7385;
-4.2000;0.3525;0.7460;
-3.9000;0.3533;0.7485;
-3.6000;0.3525;0.7485;
-3.3000;0.3533;0.7410;
-3.0000;0.3508;0.7311;
-2.7000;0.3533;0.7335;
-2.4000;0.3590;0.7485;
-2.1000;0.3541;0.7485;
-1.8000;0.3549;0.7485;
-1.5000;0.3557;0.7485;
-1.2000;0.3598;0.7559;
-0.9000;0.3533;0.7261;
-0.6000;0.3492;0.7112;
-0.3000;0.3492;0.7087;
0.0000;0.3492;0.7087;
0.3000;0.3622;0.7236;
0.6000;0.3777;0.7584;
0.9000;0.3948;0.8032;
1.2000;0.4021;0.8231;
1.5000;0.4111;0.8529;
1.8000;0.4111;0.8653;
2.1000;0.4176;0.8852;
2.4000;0.4233;0.9051;
2.7000;0.4265;0.9176;
3.0000;0.4274;0.9300;
3.3000;0.4306;0.9474;
3.6000;0.4330;0.9499;
3.9000;0.4347;0.9549;
4.2000;0.4339;0.9524;
4.5000;0.4355;0.9573;
4.8000;0.4379;0.9698;
5.1000;0.4387;0.9748;
5.4000;0.4436;0.9897;
5.7000;0.4404;0.9847;
6.0000;0.4404;0.9822;
6.3000;0.4428;0.9872;
6.6000;0.4396;0.9847;
6.9000;0.4444;0.9897;
7.2000;0.4444;0.9996;
7.5000;0.4444;1.0071;
7.8000;0.4485;1.0120;
8.1000;0.4461;1.0071;
8.4000;0.4461;1.0071;
8.7000;0.4526;1.0344;
9.0000;0.4493;1.0195;
9.3000;0.4485;1.0195;
9.6000;0.4493;1.0170;
9.9000;0.4469;1.0195;
10.2000;0.4493;1.0170;
10.5000;0.4493;1.0195;
10.8000;0.4510;1.0295;
11.1000;0.4404;0.9996;
11.4000;0.4534;1.0319;
11.7000;0.4510;1.0319;
12.0000;0.4510;1.0394;
12.3000;0.4534;1.0419;
12.6000;0.4567;1.0444;
12.9000;0.4526;1.0319;
13.2000;0.4575;1.0369;
13.5000;0.4542;1.0245;
13.8000;0.4550;1.0295;
14.1000;0.4558;1.0319;
14.4000;0.4542;1.0245;
14.7000;0.4542;1.0270;
15.0000;0.4542;1.0270;
15.3000;0.4550;1.0295;
15.6000;0.4591;1.0245;
15.9000;0.4575;1.0120;
16.2000;0.4607;1.0220;
16.5000;0.4607;1.0220;
16.8000;0.4624;1.0319;
17.1000;0.4689;1.0518;
17.4000;0.4591;1.0195;
17.7000;0.4591;1.0096;
18.0000;0.4599;1.0195;
18.3000;0.4656;1.0369;
18.6000;0.4599;1.0270;
18.9000;0.4624;1.0270;
19.2000;0.4624;1.0220;
19.5000;0.4640;1.0270;
19.8000;0.4615;1.0195;
20.1000;0.4624;1.0319;
20.4000;0.4599;1.0195;
20.7000;0.4632;1.0295;
21.0000;0.4624;1.0220;
21.3000;0.4615;1.0220;
21.6000;0.4632;1.0195;
21.9000;0.4640;1.0220;
22.2000;0.4656;1.0295;
22.5000;0.4713;1.0419;
22.8000;0.4681;1.0319;
23.1000;0.4648;1.0270;
23.4000;0.4624;1.0195;
23.7000;0.4640;1.0245;
24.0000;0.4624;1.0369;
24.3000;0.4640;1.0543;
24.6000;0.4640;1.0469;
24.9000;0.4640;1.0444;
25.2000;0.4656;1.0469;
25.5000;0.4681;1.0394;
25.8000;0.4640;1.0270;
26.1000;0.4656;1.0295;
26.4000;0.4672;1.0195;
26.7000;0.4681;1.0245;
27.0000;0.4656;1.0245;
27.3000;0.4664;1.0419;
27.6000;0.4672;1.0518;
27.9000;0.4689;1.0518;
28.2000;0.4697;1.0568;
28.5000;0.4672;1.0518;
28.8000;0.4689;1.0518;
29.1000;0.4681;1.0593;
29.4000;0.4697;1.0618;
29.7000;0.4689;1.0543;
30.0000;0.4681;1.0493;
30.3000;0.4705;1.0543;
30.6000;0.4721;1.0543;
30.9000;0.4705;1.0444;
31.2000;0.4697;1.0469;
31.5000;0.4689;1.0344;
31.8000;0.4681;1.0344;
32.1000;0.4705;1.0493;
32.4000;0.4705;1.0444;
32.7000;0.4705;1.0469;
33.0000;0.4713;1.0469;
33.3000;0.4705;1.0469;
33.6000;0.4721;1.0444;
33.9000;0.4705;1.0469;
34.2000;0.4713;1.0444;
34.5000;0.4713;1.0493;
34.8000;0.4713;1.0419;
35.1000;0.4713;1.0394;
35.4000;0.4697;1.0295;
35.7000;0.4705;1.0344;
36.0000;0.4721;1.0270;
36.3000;0.4705;1.0145;
36.6000;0.4721;1.0120;
36.9000;0.4721;1.0170;
37.2000;0.4729;1.0245;
37.5000;0.4721;1.0170;
37.8000;0.4729;1.0220;
38.1000;0.4770;1.0319;
38.4000;0.4721;1.0145;
38.7000;0.4746;1.0295;
39.0000;0.4729;1.0220;
39.3000;0.4721;1.0270;
39.6000;0.4737;1.0369;
39.9000;0.4640;1.0046;
40.2000;0.4705;1.0220;
40.5000;0.4786;1.0295;
40.8000;0.4737;1.0096;
41.1000;0.4689;0.9996;
41.4000;0.4746;1.0195;
41.7000;0.4729;1.0170;
42.0000;0.4819;1.0419;
42.3000;0.4754;1.0295;
42.6000;0.4721;1.0245;
42.9000;0.4737;1.0270;
43.2000;0.4721;1.0120;
43.5000;0.4713;1.0145;
43.8000;0.4746;1.0170;
44.1000;0.4729;1.0096;
44.4000;0.4721;1.0071;
44.7000;0.4746;1.0120;
45.0000;0.4746;1.0145;
45.3000;0.4746;1.0046;
45.6000;0.4737;0.9996;
45.9000;0.4721;0.9946;
46.2000;0.4762;1.0145;
46.5000;0.4778;1.0170;
46.8000;0.4762;1.0120;
47.1000;0.4770;1.0195;
47.4000;0.4729;1.0120;
47.7000;0.4762;1.0245;
48.0000;0.4729;1.0195;
48.3000;0.4737;1.0120;
48.6000;0.4770;1.0145;
48.9000;0.4754;1.0120;
49.2000;0.4778;1.0195;
49.5000;0.4746;1.0170;
49.8000;0.4754;1.0170;
50.1000;0.4786;1.0195;
50.4000;0.4762;1.0120;
50.7000;0.4794;1.0120;
51.0000;0.4794;1.0046;
51.3000;0.4778;1.0071;
51.6000;0.4778;1.0071;
51.9000;0.4803;1.0170;
52.2000;0.4803;1.0245;
52.5000;0.4794;1.0245;
52.8000;0.4794;1.0220;
53.1000;0.4778;1.0195;
53.4000;0.4794;1.0270;
53.7000;0.4786;1.0270;
54.0000;0.4778;1.0270;
54.3000;0.4778;1.0270;
54.6000;0.4803;1.0319;
54.9000;0.4794;1.0220;
55.2000;0.4762;1.0096;
55.5000;0.4770;1.0071;
55.8000;0.4794;1.0120;
56.1000;0.4770;1.0145;
56.4000;0.4811;1.0220;
56.7000;0.4770;1.0021;
57.0000;0.4794;1.0170;
57.3000;0.4803;1.0220;
57.6000;0.4843;1.0220;
57.9000;0.4786;1.0046;
58.2000;0.4803;1.0046;
58.5000;0.4770;0.9996;
58.8000;0.4835;1.0145;
59.1000;0.4811;1.0096;
59.4000;0.4770;0.9897;
59.7000;0.4770;0.9847;
60.0000;0.4794;0.9996;
60.3000;0.4778;0.9946;
60.6000;0.4794;1.0021;
60.9000;0.4794;1.0046;
61.2000;0.4819;1.0021;
61.5000;0.4803;0.9971;
61.8000;0.4803;0.9946;
62.1000;0.4811;1.0046;
62.4000;0.4819;1.0071;
62.7000;0.4794;0.9946;
63.0000;0.4803;0.9946;
63.3000;0.4819;0.9872;
63.6000;0.4827;0.9897;
63.9000;0.4819;1.0021;
64.2000;0.4803;0.9971;
64.5000;0.4835;1.0021;
64.8000;0.4827;1.0145;
65.1000;0.4835;1.0170;
65.4000;0.4819;1.0021;
65.7000;0.4843;1.0046;
66.0000;0.4835;1.0071;
66.3000;0.4819;1.0021;
66.6000;0.4827;0.9971;
66.9000;0.4851;0.9946;
67.2000;0.4827;0.9897;
67.5000;0.4843;0.9922;
67.8000;0.4827;0.9946;
68.1000;0.4868;0.9971;
68.4000;0.4835;0.9922;
68.7000;0.4876;1.0071;
69.0000;0.4851;0.9946;
69.3000;0.4835;0.9897;
69.6000;0.4835;0.9897;
69.9000;0.4843;0.9872;
70.2000;0.4843;0.9946;
70.5000;0.4819;0.9897;
70.8000;0.4827;0.9946;
71.1000;0.4908;1.0145;
71.4000;0.4835;0.9971;
71.7000;0.4794;0.9822;
72.0000;0.4917;1.0195;
72.3000;0.4843;1.0021;
72.6000;0.4868;1.0021;
72.9000;0.4843;0.9847;
73.2000;0.4908;0.9897;
73.5000;0.4860;0.9797;
73.8000;0.4843;0.9822;
74.1000;0.4851;0.9922;
74.4000;0.4851;0.9971;
74.7000;0.4868;1.0021;
75.0000;0.4860;0.9996;
75.3000;0.4851;0.9971;
75.6000;0.4827;0.9897;
75.9000;0.4835;0.9897;
76.2000;0.4860;0.9872;
76.5000;0.4860;0.9847;
76.8000;0.4868;0.9897;
77.1000;0.4860;0.9847;
77.4000;0.4860;0.9847;
77.7000;0.4851;0.9772;
78.0000;0.4860;0.9822;
78.3000;0.4851;0.9772;
78.6000;0.4819;0.9748;
78.9000;0.4868;0.9946;
79.2000;0.4860;0.9946;
79.5000;0.4851;0.9946;
79.8000;0.4794;0.9772;
80.1000;0.4860;0.9946;
80.4000;0.4868;0.9946;
80.7000;0.4868;0.9922;
81.0000;0.4868;0.9847;
81.3000;0.4860;0.9772;
81.6000;0.4851;0.9673;
81.9000;0.4860;0.9673;
82.2000;0.4868;0.9748;
82.5000;0.4876;0.9847;
82.8000;0.4908;0.9922;
83.1000;0.4868;0.9822;
83.4000;0.4860;0.9772;
83.7000;0.4868;0.9822;
84.0000;0.4868;0.9723;
84.3000;0.4876;0.9723;
84.6000;0.4908;0.9797;
84.9000;0.4876;0.9673;
85.2000;0.4884;0.9598;
85.5000;0.4892;0.9623;
85.8000;0.4868;0.9623;
86.1000;0.4892;0.9698;
86.4000;0.4843;0.9573;
86.7000;0.4860;0.9673;
87.0000;0.4876;0.9822;
87.3000;0.4876;0.9897;
87.6000;0.4908;0.9922;
87.9000;0.4900;0.9971;
88.2000;0.4868;0.9897;
88.5000;0.4884;0.9946;
88.8000;0.4892;0.9897;
89.1000;0.4884;0.9847;
89.4000;0.4835;0.9698;
89.7000;0.4900;0.9822;
90.0000;0.4884;0.9723;
90.3000;0.4860;0.9673;
90.6000;0.4876;0.9748;
90.9000;0.4884;0.9797;
91.2000;0.4892;0.9797;
91.5000;0.4900;0.9822;
91.8000;0.4900;0.9847;
92.1000;0.4892;0.9723;
92.4000;0.4892;0.9723;
92.7000;0.4908;0.9772;
93.0000;0.4949;0.9946;
93.3000;0.4892;0.9723;
93.6000;0.4868;0.9648;
93.9000;0.4908;0.9772;
94.2000;0.4900;0.9922;
94.5000;0.4925;0.9922;
94.8000;0.4900;0.9748;
95.1000;0.4925;0.9822;
95.4000;0.4892;0.9822;
95.7000;0.4900;0.9847;
96.0000;0.4892;0.9847;
96.3000;0.4884;0.9847;
96.6000;0.4900;0.9922;
96.9000;0.4892;0.9797;
97.2000;0.4925;0.9847;
97.5000;0.4974;0.9971;
97.8000;0.4892;0.9822;
98.1000;0.4917;0.9797;
98.4000;0.4892;0.9698;
98.7000;0.4917;0.9698;
99.0000;0.4900;0.9698;
99.3000;0.4908;0.9797;
99.6000;0.4900;0.9822;
99.9000;0.4908;0.9748;
100.2000;0.4900;0.9673;
100.5000;0.4933;0.9748;
100.8000;0.4917;0.9648;
101.1000;0.4908;0.9623;
101.4000;0.4974;0.9847;
101.7000;0.4908;0.9723;
102.0000;0.4925;0.9748;
102.3000;0.4917;0.9797;
102.6000;0.4908;0.9748;
102.9000;0.4933;0.9748;
103.2000;0.4892;0.9648;
103.5000;0.4917;0.9698;
103.8000;0.4925;0.9772;
104.1000;0.4933;0.9847;
104.4000;0.4933;0.9872;
104.7000;0.4900;0.9797;
105.0000;0.4917;0.9723;
105.3000;0.4892;0.9673;
105.6000;0.4925;0.9723;
105.9000;0.4925;0.9648;
106.2000;0.4925;0.9748;
106.5000;0.4957;0.9797;
106.8000;0.4933;0.9772;
107.1000;0.4917;0.9847;
107.4000;0.4925;0.9797;
107.7000;0.4917;0.9797;
108.0000;0.4941;0.9797;
108.3000;0.5014;1.0046;
108.6000;0.4917;0.9797;
108.9000;0.4925;0.9772;
109.2000;0.4941;0.9872;
109.5000;0.4949;0.9872;
109.8000;0.4917;0.9847;
110.1000;0.4908;0.9797;
110.4000;0.4917;0.9748;
110.7000;0.4868;0.9524;
111.0000;0.4925;0.9573;
111.3000;0.4925;0.9524;
111.6000;0.4917;0.9524;
111.9000;0.4941;0.9623;
112.2000;0.4884;0.9424;
112.5000;0.4917;0.9524;
112.8000;0.4933;0.9549;
113.1000;0.4949;0.9573;
113.4000;0.4933;0.9424;
113.7000;0.4917;0.9474;
114.0000;0.4925;0.9449;
114.3000;0.4917;0.9499;
114.6000;0.4876;0.9375;
114.9000;0.4933;0.9499;
115.2000;0.4876;0.9375;
115.5000;0.4925;0.9474;
115.8000;0.4933;0.9549;
116.1000;0.4908;0.9573;
116.4000;0.4949;0.9673;
116.7000;0.4933;0.9623;
117.0000;0.4949;0.9673;
117.3000;0.4933;0.9673;
117.6000;0.4941;0.9723;
117.9000;0.4925;0.9698;
118.2000;0.4949;0.9797;
118.5000;0.4998;0.9971;
118.8000;0.4957;0.9872;
119.1000;0.4941;0.9822;
119.4000;0.4933;0.9822;
119.7000;0.4941;0.9772;
120.0000;0.4925;0.9772;
120.3000;0.4876;0.9648;
120.6000;0.4933;0.9698;
120.9000;0.4933;0.9673;
121.2000;0.4933;0.9797;
121.5000;0.4941;0.9822;
121.8000;0.4998;0.9946;
122.1000;0.4925;0.9748;
122.4000;0.4941;0.9748;
122.7000;0.4917;0.9797;
123.0000;0.4925;0.9822;
123.3000;0.4957;0.9897;
123.6000;0.4917;0.9797;
123.9000;0.4957;0.9922;
124.2000;0.4941;0.9946;
124.5000;0.4941;0.9971;
124.8000;0.4884;0.9748;
125.1000;0.4933;0.9797;
125.4000;0.4941;0.9822;
125.7000;0.4949;0.9822;
126.0000;0.4941;0.9748;
126.3000;0.4917;0.9748;
126.6000;0.5039;0.9946;
126.9000;0.4941;0.9723;
127.2000;0.4941;0.9797;
127.5000;0.4941;0.9797;
127.8000;0.4941;0.9922;
128.1000;0.4933;0.9872;
128.4000;0.4974;0.9897;
128.7000;0.4965;0.9723;
129.0000;0.4949;0.9673;
129.3000;0.4949;0.9673;
129.6000;0.4933;0.9698;
129.9000;0.4933;0.9698;
130.2000;0.4908;0.9573;
130.5000;0.4933;0.9598;
130.8000;0.4925;0.9549;
131.1000;0.4949;0.9673;
131.4000;0.4925;0.9673;
131.7000;0.4982;0.9847;
132.0000;0.4941;0.9772;
132.3000;0.4925;0.9797;
132.6000;0.4965;0.9897;
132.9000;0.4974;0.9922;
133.2000;0.4949;0.9822;
133.5000;0.4876;0.9772;
133.8000;0.4917;0.9922;
134.1000;0.4941;0.9946;
134.4000;0.4925;0.9996;
134.7000;0.4933;0.9946;
135.0000;0.4949;0.9872;
135.3000;0.4933;0.9897;
135.6000;0.4957;0.9822;
135.9000;0.4941;0.9847;
136.2000;0.4949;0.9897;
136.5000;0.4925;0.9872;
136.8000;0.4925;0.9822;
137.1000;0.4957;0.9847;
137.4000;0.4900;0.9797;
137.7000;0.4933;0.9897;
138.0000;0.4965;0.9922;
138.3000;0.4957;0.9897;
138.6000;0.5006;0.9996;
138.9000;0.4965;0.9996;
139.2000;0.4949;0.9971;
139.5000;0.4990;1.0021;
139.8000;0.4949;0.9971;
140.1000;0.4965;0.9922;
140.4000;0.4933;0.9872;
140.7000;0.5006;1.0021;
141.0000;0.4933;0.9872;
141.3000;0.4949;0.9946;
141.6000;0.4957;0.9996;
141.9000;0.4908;0.9772;
142.2000;0.4965;0.9897;
142.5000;0.4949;0.9822;
142.8000;0.4949;0.9847;
143.1000;0.4941;0.9822;
143.4000;0.4933;0.9872;
143.7000;0.4965;0.9946;
144.0000;0.4941;0.9897;
144.3000;0.4933;0.9897;
144.6000;0.4949;0.9847;
144.9000;0.4965;0.9822;
145.2000;0.4965;0.9822;
145.5000;0.4941;0.9772;
145.8000;0.4925;0.9772;
146.1000;0.4941;0.9847;
146.4000;0.4941;0.9946;
146.7000;0.4900;0.9822;
147.0000;0.4933;0.9872;
147.3000;0.4949;0.9897;
147.6000;0.4949;0.9897;
147.9000;0.4957;0.9946;
148.2000;0.4949;0.9922;
148.5000;0.4941;0.9922;
148.8000;0.4957;0.9971;
149.1000;0.4957;1.0021;
149.4000;0.4933;0.9847;
149.7000;0.4908;0.9772;
150.0000;0.4957;0.9922;
150.3000;0.4933;0.9946;
150.6000;0.4925;0.9872;
150.9000;0.4917;0.9797;
151.2000;0.4957;0.9847;
151.5000;0.4957;0.9922;
151.8000;0.4933;0.9922;
152.1000;0.4908;0.9872;
152.4000;0.4941;0.9946;
152.7000;0.4965;0.9946;
153.0000;0.4949;0.9872;
153.3000;0.4925;0.9822;
153.6000;0.4941;0.9748;
153.9000;0.4941;0.9723;
154.2000;0.4917;0.9598;
154.5000;0.4974;0.9673;
154.8000;0.4933;0.9549;
155.1000;0.4917;0.9399;
155.4000;0.4974;0.9598;
155.7000;0.4925;0.9499;
156.0000;0.4941;0.9573;
156.3000;0.4965;0.9648;
156.6000;0.4900;0.9524;
156.9000;0.4917;0.9499;
157.2000;0.4925;0.9648;
157.5000;0.4933;0.9623;
157.8000;0.4949;0.9673;
158.1000;0.4941;0.9748;
158.4000;0.4941;0.9748;
158.7000;0.4941;0.9847;
159.0000;0.4933;0.9872;
159.3000;0.4949;0.9822;
159.6000;0.4957;0.9772;
159.9000;0.4941;0.9698;
160.2000;0.4949;0.9723;
160.5000;0.4892;0.9549;
160.8000;0.4949;0.9598;
161.1000;0.4933;0.9598;
161.4000;0.4941;0.9673;
161.7000;0.4917;0.9673;
162.0000;0.4933;0.9698;
162.3000;0.4941;0.9698;
162.6000;0.4941;0.9673;
162.9000;0.4957;0.9723;
163.2000;0.4941;0.9797;
163.5000;0.4949;0.9847;
163.8000;0.4941;0.9897;
164.1000;0.4949;0.9971;
164.4000;0.4949;1.0021;
164.7000;0.4933;0.9971;
165.0000;0.4965;0.9971;
165.3000;0.4941;0.9996;
165.6000;0.4941;0.9922;
165.9000;0.4908;0.9797;
166.2000;0.4933;0.9922;
166.5000;0.4949;0.9996;
166.8000;0.4957;0.9897;
167.1000;0.4941;0.9872;
167.4000;0.4941;0.9822;
167.7000;0.4949;0.9822;
168.0000;0.4933;0.9797;
168.3000;0.4933;0.9872;
168.6000;0.4933;0.9847;
168.9000;0.4990;1.0021;
169.2000;0.4949;0.9946;
169.5000;0.4949;0.9996;
169.8000;0.4917;0.9946;
170.1000;0.4949;0.9946;
170.4000;0.4965;0.9996;
170.7000;0.4933;0.9847;
171.0000;0.4965;0.9946;
171.3000;0.4949;0.9897;
171.6000;0.4949;0.9971;
171.9000;0.4990;1.0096;
172.2000;0.4949;0.9897;
172.5000;0.4965;0.9971;
172.8000;0.4941;0.9897;
173.1000;0.4941;0.9946;
173.4000;0.4941;0.9946;
173.7000;0.4965;1.0021;
174.0000;0.4941;0.9946;
174.3000;0.4949;0.9996;
174.6000;0.4974;0.9996;
174.9000;0.4965;0.9922;
175.2000;0.4949;0.9847;
175.5000;0.4941;0.9922;
175.8000;0.4925;0.9872;
176.1000;0.4949;0.9922;
176.4000;0.4908;0.9872;
176.7000;0.4949;1.0096;
177.0000;0.4941;1.0195;
177.3000;0.4965;1.0270;
177.6000;0.4941;1.0120;
177.9000;0.4941;1.0096;
178.2000;0.4941;1.0021;
178.5000;0.4949;0.9971;
178.8000;0.4941;0.9872;
179.1000;0.4949;0.9797;
179.4000;0.4892;0.9673;
179.7000;0.4925;0.9822;
180.0000;0.4925;0.9847;
180.3000;0.4933;0.9847;
180.6000;0.4941;0.9847;
180.9000;0.4941;0.9922;
181.2000;0.4868;0.9797;
181.5000;0.4917;0.9922;
181.8000;0.4949;1.0021;
182.1000;0.4941;1.0021;
182.4000;0.4925;0.9971;
182.7000;0.4917;0.9946;
183.0000;0.4925;0.9996;
183.3000;0.4941;0.9971;
183.6000;0.4941;0.9996;
183.9000;0.4917;0.9922;
184.2000;0.4908;0.9872;
184.5000;0.4933;0.9946;
184.8000;0.4917;0.9922;
185.1000;0.4925;0.9922;
185.4000;0.4941;0.9897;
185.7000;0.4900;0.9797;
186.0000;0.4933;0.9872;
186.3000;0.4917;0.9897;
186.6000;0.4965;1.0071;
186.9000;0.4941;0.9996;
187.2000;0.4933;1.0046;
187.5000;0.4925;1.0071;
187.8000;0.4941;1.0071;
188.1000;0.4949;1.0046;
188.4000;0.4941;0.9897;
188.7000;0.4957;0.9822;
189.0000;0.4941;0.9897;
189.3000;0.4949;0.9946;
189.6000;0.4949;0.9922;
189.9000;0.4941;0.9922;
190.2000;0.4949;0.9996;
190.5000;0.4949;1.0021;
190.8000;0.4990;0.9971;
191.1000;0.4949;0.9897;
191.4000;0.4949;0.9872;
191.7000;0.4925;0.9847;
192.0000;0.4925;0.9772;
192.3000;0.4933;0.9748;
192.6000;0.4949;0.9772;
192.9000;0.4925;0.9673;
193.2000;0.4965;0.9847;
193.5000;0.4933;0.9748;
193.8000;0.4908;0.9797;
194.1000;0.4941;0.9872;
194.4000;0.4917;0.9971;
194.7000;0.4965;1.0021;
195.0000;0.4974;1.0046;
195.3000;0.4908;0.9897;
195.6000;0.4941;0.9872;
195.9000;0.4884;0.9748;
196.2000;0.4925;0.9797;
196.5000;0.4917;0.9673;
196.8000;0.4925;0.9748;
197.1000;0.4941;0.9797;
197.4000;0.4933;0.9723;
197.7000;0.4933;0.9822;
198.0000;0.4933;0.9797;
198.3000;0.4933;0.9797;
198.6000;0.4933;0.9822;
198.9000;0.4917;0.9748;
199.2000;0.4941;0.9723;
199.5000;0.4965;0.9847;
199.8000;0.4917;0.9748;
200.1000;0.4917;0.9872;
200.4000;0.4900;0.9822;
200.7000;0.4917;0.9822;
201.0000;0.4933;0.9847;
201.3000;0.4925;0.9872;
201.6000;0.4933;0.9922;
201.9000;0.4925;0.9847;
202.2000;0.4941;0.9822;
202.5000;0.4949;0.9772;
202.8000;0.4933;0.9673;
203.1000;0.4933;0.9573;
203.4000;0.4949;0.9673;
203.7000;0.4949;0.9723;
204.0000;0.4933;0.9748;
204.3000;0.4933;0.9698;
204.6000;0.5031;0.9996;
204.9000;0.4917;0.9723;
205.2000;0.4941;0.9797;
205.5000;0.4941;0.9897;
205.8000;0.4917;0.9822;
206.1000;0.4925;0.9797;
206.4000;0.4933;0.9872;
206.7000;0.4917;0.9922;
207.0000;0.4900;0.9847;
207.3000;0.4917;0.9847;
207.6000;0.4949;0.9971;
207.9000;0.4925;0.9946;
208.2000;0.4982;1.0220;
208.5000;0.4933;1.0071;
208.8000;0.4933;1.0046;
209.1000;0.4925;0.9971;
209.4000;0.4925;0.9897;
209.7000;0.4933;0.9847;
210.0000;0.4949;0.9847;
210.3000;0.4925;0.9772;
210.6000;0.4949;0.9922;
210.9000;0.4917;0.9847;
211.2000;0.4908;0.9847;
211.5000;0.4900;0.9822;
211.8000;0.4876;0.9822;
212.1000;0.4908;0.9971;
212.4000;0.4908;0.9922;
212.7000;0.4900;0.9822;
213.0000;0.4925;0.9922;
213.3000;0.4900;0.9922;
213.6000;0.4941;0.9897;
213.9000;0.4941;0.9946;
214.2000;0.4925;0.9922;
214.5000;0.4917;0.9946;
214.8000;0.4974;1.0021;
215.1000;0.4892;0.9822;
215.4000;0.4908;0.9847;
215.7000;0.4925;0.9847;
216.0000;0.4900;0.9772;
216.3000;0.4925;0.9723;
216.6000;0.4925;0.9723;
216.9000;0.4917;0.9748;
217.2000;0.4917;0.9723;
217.5000;0.4933;0.9723;
217.8000;0.4925;0.9698;
218.1000;0.4925;0.9673;
218.4000;0.4925;0.9598;
218.7000;0.4933;0.9748;
219.0000;0.4941;0.9847;
219.3000;0.4925;0.9872;
219.6000;0.4908;0.9922;
219.9000;0.4917;0.9922;
220.2000;0.4917;0.9872;
220.5000;0.4917;0.9946;
220.8000;0.4917;0.9897;
221.1000;0.4933;0.9996;
221.4000;0.4892;0.9996;
221.7000;0.4925;1.0096;
222.0000;0.4917;1.0021;
222.3000;0.4941;1.0096;
222.6000;0.4949;1.0120;
222.9000;0.4917;1.0046;
223.2000;0.4917;0.9847;
223.5000;0.4941;0.9872;
223.8000;0.4925;0.9797;
224.1000;0.4908;0.9797;
224.4000;0.4868;0.9748;
224.7000;0.4868;0.9772;
225.0000;0.4917;0.9922;
225.3000;0.4925;0.9996;
225.6000;0.4917;0.9897;
225.9000;0.4917;0.9872;
226.2000;0.4900;0.9971;
226.5000;0.4941;0.9946;
226.8000;0.4908;0.9971;
227.1000;0.4908;0.9946;
227.4000;0.4908;0.9971;
227.7000;0.5006;1.0195;
228.0000;0.4908;0.9872;
228.3000;0.4900;0.9872;
228.6000;0.4941;1.0046;
228.9000;0.4917;0.9946;
229.2000;0.4900;0.9922;
229.5000;0.4949;1.0071;
229.8000;0.4908;0.9996;
230.1000;0.4917;0.9872;
230.4000;0.4933;0.9872;
230.7000;0.4917;0.9822;
231.0000;0.4917;0.9673;
231.3000;0.4925;0.9797;
231.6000;0.4917;0.9772;
231.9000;0.4908;0.9748;
232.2000;0.4876;0.9723;
232.5000;0.4957;1.0046;
232.8000;0.4933;0.9922;
233.1000;0.4925;0.9971;
233.4000;0.4917;1.0021;
233.7000;0.4908;1.0021;
234.0000;0.4941;1.0120;
234.3000;0.4925;1.0120;
234.6000;0.4908;1.0046;
234.9000;0.4917;1.0046;
235.2000;0.4900;1.0021;
235.5000;0.4933;1.0145;
235.8000;0.4900;1.0021;
236.1000;0.4876;0.9897;
236.4000;0.4908;0.9922;
236.7000;0.4900;0.9971;
237.0000;0.4925;1.0021;
237.3000;0.4908;1.0021;
237.6000;0.4908;1.0071;
237.9000;0.4982;1.0245;
238.2000;0.4908;1.0170;
238.5000;0.4917;1.0170;
238.8000;0.4925;1.0220;
239.1000;0.4982;1.0270;
239.4000;0.4933;1.0120;
239.7000;0.4925;1.0120;
240.0000;0.4900;1.0071;
240.3000;0.4908;1.0071;
240.6000;0.4917;1.0096;
240.9000;0.4900;1.0021;
241.2000;0.4933;0.9971;
241.5000;0.4892;0.9847;
241.8000;0.4908;0.9822;
242.1000;0.4917;0.9772;
242.4000;0.4892;0.9673;
242.7000;0.4941;0.9748;
243.0000;0.4900;0.9698;
243.3000;0.4908;0.9748;
243.6000;0.4925;0.9797;
243.9000;0.4925;0.9822;
244.2000;0.4925;0.9897;
244.5000;0.4917;0.9996;
244.8000;0.4900;1.0046;
245.1000;0.4892;1.0120;
245.4000;0.4925;1.0071;
245.7000;0.4900;0.9897;
246.0000;0.4908;0.9872;
246.3000;0.4917;0.9847;
246.6000;0.4917;0.9847;
246.9000;0.4908;0.9822;
247.2000;0.4917;0.9797;
247.5000;0.4843;0.9623;
247.8000;0.4884;0.9723;
248.1000;0.4974;0.9996;
248.4000;0.4925;0.9822;
248.7000;0.4892;0.9872;
249.0000;0.4908;1.0021;
249.3000;0.4925;1.0120;
249.6000;0.4900;1.0046;
249.9000;0.4933;1.0145;
250.2000;0.4900;1.0096;
250.5000;0.4811;0.9822;
250.8000;0.4860;0.9996;
251.1000;0.4892;1.0021;
251.4000;0.4908;1.0046;
251.7000;0.4917;1.0071;
252.0000;0.4908;1.0071;
252.3000;0.4900;1.0071;
252.6000;0.4908;1.0046;
252.9000;0.4908;0.9971;
253.2000;0.4908;0.9922;
253.5000;0.4900;0.9946;
253.8000;0.4892;0.9971;
254.1000;0.4892;0.9971;
254.4000;0.4892;0.9971;
254.7000;0.4908;0.9971;
255.0000;0.4884;0.9872;
255.3000;0.4851;0.9748;
255.6000;0.4900;0.9772;
255.9000;0.4908;0.9822;
256.2000;0.4892;0.9847;
256.5000;0.4941;0.9996;
256.8000;0.4917;0.9971;
257.1000;0.4868;0.9847;
257.4000;0.4900;0.9897;
257.7000;0.4900;0.9971;
258.0000;0.4908;0.9996;
258.3000;0.4925;0.9971;
258.6000;0.4900;0.9922;
258.9000;0.4900;0.9946;
259.2000;0.4908;1.0046;
259.5000;0.4900;0.9897;
259.8000;0.4892;0.9922;
260.1000;0.4908;0.9946;
260.4000;0.4908;0.9971;
260.7000;0.4900;0.9897;
261.0000;0.4876;0.9897;
261.3000;0.4884;0.9946;
261.6000;0.4884;0.9872;
261.9000;0.4892;0.9946;
262.2000;0.4900;1.0046;
262.5000;0.4884;1.0021;
262.8000;0.4884;0.9922;
263.1000;0.4900;0.9922;
263.4000;0.4925;0.9996;
263.7000;0.4900;0.9922;
264.0000;0.4900;0.9946;
264.3000;0.4933;0.9971;
264.6000;0.4868;0.9872;
264.9000;0.4941;1.0071;
265.2000;0.4892;1.0021;
265.5000;0.4965;1.0195;
265.8000;0.4941;1.0120;
266.1000;0.4900;1.0071;
266.4000;0.4900;1.0096;
266.7000;0.4908;1.0046;
267.0000;0.4917;1.0096;
267.3000;0.4917;1.0021;
267.6000;0.4884;0.9946;
267.9000;0.4908;0.9996;
268.2000;0.4925;1.0021;
268.5000;0.4917;0.9971;
268.8000;0.4900;1.0071;
269.1000;0.4900;1.0120;
269.4000;0.4933;1.0170;
269.7000;0.4884;1.0071;
270.0000;0.4900;1.0046;
270.3000;0.4900;1.0071;
270.6000;0.4908;1.0145;
270.9000;0.4868;0.9996;
271.2000;0.4900;1.0071;
271.5000;0.4876;0.9996;
271.8000;0.4957;1.0145;
272.1000;0.4892;0.9897;
272.4000;0.4900;0.9922;
272.7000;0.4876;0.9922;
273.0000;0.4892;0.9897;
273.3000;0.4892;0.9946;
273.6000;0.4917;1.0046;
273.9000;0.4908;1.0046;
274.2000;0.4892;1.0096;
274.5000;0.4900;1.0220;
274.8000;0.4933;1.0344;
275.1000;0.4892;1.0170;
275.4000;0.4892;1.0071;
275.7000;0.4892;1.0046;
276.0000;0.4925;1.0071;
276.3000;0.4900;0.9971;
276.6000;0.4892;0.9897;
276.9000;0.4900;0.9872;
277.2000;0.4900;0.9847;
277.5000;0.4957;1.0021;
277.8000;0.4884;0.9872;
278.1000;0.4908;0.9996;
278.4000;0.4884;0.9996;
278.7000;0.4917;1.0071;
279.0000;0.4884;1.0046;
279.3000;0.4900;1.0021;
279.6000;0.4908;0.9897;
279.9000;0.4917;0.9872;
280.2000;0.4900;0.9822;
280.5000;0.4860;0.9648;
280.8000;0.4892;0.9797;
281.1000;0.4917;0.9772;
281.4000;0.4892;0.9822;
281.7000;0.4925;0.9946;
282.0000;0.4925;0.9946;
282.3000;0.4884;0.9847;
282.6000;0.4884;0.9847;
282.9000;0.4908;0.9946;
283.2000;0.4884;0.9872;
283.5000;0.4892;1.0021;
283.8000;0.4900;1.0071;
284.1000;0.4884;1.0096;
284.4000;0.4868;1.0145;
284.7000;0.4884;1.0270;
285.0000;0.4884;1.0295;
285.3000;0.4884;1.0295;
285.6000;0.4876;1.0344;
285.9000;0.4876;1.0319;
286.2000;0.4876;1.0145;
286.5000;0.4884;1.0120;
286.8000;0.4860;1.0046;
287.1000;0.4884;1.0046;
287.4000;0.4884;1.0046;
287.7000;0.4876;1.0071;
288.0000;0.4819;0.9897;
288.3000;0.4892;1.0046;
288.6000;0.4900;1.0071;
288.9000;0.4925;1.0145;
289.2000;0.4908;0.9996;
289.5000;0.4892;0.9897;
289.8000;0.4892;0.9822;
290.1000;0.4892;0.9872;
290.4000;0.4860;0.9748;
290.7000;0.4941;0.9971;
291.0000;0.4884;0.9847;
291.3000;0.4884;0.9847;
291.6000;0.4892;0.9897;
291.9000;0.4876;0.9922;
292.2000;0.4884;0.9897;
292.5000;0.4892;0.9897;
292.8000;0.4908;0.9772;
293.1000;0.4892;0.9698;
293.4000;0.4900;0.9648;
293.7000;0.4892;0.9623;
294.0000;0.4892;0.9698;
294.3000;0.4900;0.9797;
294.6000;0.4908;0.9872;
294.9000;0.4900;0.9922;
295.2000;0.4900;0.9897;
295.5000;0.4868;0.9772;
295.8000;0.4900;0.9946;
296.1000;0.4892;0.9996;
296.4000;0.4941;0.9996;
296.7000;0.4884;0.9872;
297.0000;0.4876;0.9847;
297.3000;0.4925;1.0021;
297.6000;0.4860;0.9922;
297.9000;0.4819;0.9797;
298.2000;0.4884;0.9996;
298.5000;0.4884;0.9996;
298.8000;0.4884;1.0021;
299.1000;0.4884;1.0046;
299.4000;0.4835;0.9897;
299.7000;0.4900;0.9996;
300.0000;0.4892;0.9922;
300.3000;0.4884;0.9897;
300.6000;0.4892;0.9946;
300.9000;0.4876;0.9847;
301.2000;0.4892;0.9847;
301.5000;0.4990;0.9996;
301.8000;0.4884;0.9748;
302.1000;0.4868;0.9748;
302.4000;0.4892;0.9897;
302.7000;0.4892;0.9897;
303.0000;0.4884;0.9897;
303.3000;0.4876;0.9897;
303.6000;0.4900;0.9996;
303.9000;0.4884;0.9996;
304.2000;0.4892;1.0071;
304.5000;0.4884;1.0145;
304.8000;0.4884;1.0071;
305.1000;0.4892;1.0071;
305.4000;0.4892;1.0071;
305.7000;0.4868;0.9872;
306.0000;0.4851;0.9922;
306.3000;0.4868;0.9897;
306.6000;0.4876;0.9847;
306.9000;0.4876;0.9822;
307.2000;0.4884;0.9946;
307.5000;0.4868;0.9897;
307.8000;0.4900;0.9996;
308.1000;0.4876;0.9946;
308.4000;0.4868;0.9872;
308.7000;0.4868;0.9872;
309.0000;0.4876;0.9922;
309.3000;0.4876;0.9996;
309.6000;0.4860;1.0021;
309.9000;0.4876;1.0021;
310.2000;0.4876;1.0021;
310.5000;0.4884;1.0096;
310.8000;0.4843;1.0021;
311.1000;0.4860;0.9996;
311.4000;0.4868;1.0021;
311.7000;0.4860;0.9946;
312.0000;0.4868;0.9946;
312.3000;0.4868;0.9922;
312.6000;0.4884;0.9922;
312.9000;0.4892;0.9922;
313.2000;0.4884;0.9996;
313.5000;0.4876;0.9922;
313.8000;0.4884;0.9897;
314.1000;0.4884;0.9872;
314.4000;0.4868;0.9822;
314.7000;0.4876;0.9748;
315.0000;0.4884;0.9772;
315.3000;0.4884;0.9797;
315.6000;0.4892;0.9922;
315.9000;0.4884;0.9847;
316.2000;0.4868;0.9872;
316.5000;0.4876;0.9946;
316.8000;0.4876;0.9922;
317.1000;0.4868;0.9897;
317.4000;0.4843;0.9797;
317.7000;0.4876;0.9897;
318.0000;0.4884;1.0021;
318.3000;0.4868;0.9946;
318.6000;0.4908;1.0046;
318.9000;0.4876;0.9971;
319.2000;0.4868;0.9946;
319.5000;0.4876;1.0021;
319.8000;0.4876;1.0021;
320.1000;0.4908;1.0120;
320.4000;0.4884;1.0071;
320.7000;0.4868;0.9996;
321.0000;0.4868;1.0021;
321.3000;0.4868;1.0046;
321.6000;0.4884;1.0096;
321.9000;0.4949;1.0295;
322.2000;0.4868;1.0046;
322.5000;0.4835;1.0071;
322.8000;0.4876;1.0145;
323.1000;0.4884;1.0220;
323.4000;0.4941;1.0394;
323.7000;0.4876;1.0220;
324.0000;0.4884;1.0145;
324.3000;0.4884;1.0120;
324.6000;0.4884;1.0046;
324.9000;0.4884;1.0145;
325.2000;0.4884;1.0021;
325.5000;0.4876;1.0021;
325.8000;0.4884;1.0046;
326.1000;0.4876;1.0096;
326.4000;0.4860;0.9996;
326.7000;0.4811;0.9797;
327.0000;0.4868;0.9971;
327.3000;0.4876;1.0071;
327.6000;0.4868;1.0120;
327.9000;0.4876;1.0096;
328.2000;0.4884;1.0096;
328.5000;0.4884;1.0046;
328.8000;0.4876;1.0046;
329.1000;0.4884;1.0071;
329.4000;0.4900;1.0120;
329.7000;0.4876;1.0071;
330.0000;0.4884;0.9996;
330.3000;0.4884;0.9971;
330.6000;0.4892;0.9946;
330.9000;0.4892;0.9946;
331.2000;0.4868;0.9872;
331.5000;0.4868;0.9946;
331.8000;0.4843;0.9922;
332.1000;0.4876;0.9897;
332.4000;0.4851;0.9847;
332.7000;0.4860;0.9922;
333.0000;0.4900;1.0120;
333.3000;0.4876;0.9971;
333.6000;0.4860;0.9946;
333.9000;0.4827;0.9922;
334.2000;0.4843;0.9946;
334.5000;0.4884;1.0071;
334.8000;0.4851;0.9996;
335.1000;0.4860;1.0096;
335.4000;0.4876;1.0120;
335.7000;0.4868;1.0071;
336.0000;0.4876;1.0096;
336.3000;0.4900;1.0170;
336.6000;0.4819;0.9946;
336.9000;0.4892;1.0120;
337.2000;0.4933;1.0195;
337.5000;0.4851;1.0071;
337.8000;0.4868;1.0071;
338.1000;0.4860;1.0021;
338.4000;0.4819;0.9872;
338.7000;0.4876;1.0021;
339.0000;0.4868;0.9922;
339.3000;0.4860;0.9946;
339.6000;0.4860;0.9996;
339.9000;0.4843;1.0021;
340.2000;0.4835;0.9971;
340.5000;0.4786;0.9872;
340.8000;0.4892;1.0046;
341.1000;0.4892;1.0021;
341.4000;0.4876;0.9971;
341.7000;0.4868;1.0046;
342.0000;0.4868;1.0046;
342.3000;0.4876;1.0021;
342.6000;0.4884;1.0145;
342.9000;0.4868;1.0096;
343.2000;0.4876;1.0096;
343.5000;0.4803;0.9996;
343.8000;0.4803;1.0046;
344.1000;0.4851;1.0270;
344.4000;0.4892;1.0295;
344.7000;0.4900;1.0419;
345.0000;0.4851;1.0319;
345.3000;0.4860;1.0319;
345.6000;0.4900;1.0419;
345.9000;0.4843;1.0245;
346.2000;0.4860;1.0245;
346.5000;0.4851;1.0195;
346.8000;0.4843;1.0145;
347.1000;0.4900;1.0195;
347.4000;0.4884;1.0071;
347.7000;0.4794;0.9797;
348.0000;0.4843;0.9847;
348.3000;0.4835;0.9847;
348.6000;0.4843;0.9897;
348.9000;0.4860;1.0021;
349.2000;0.4876;1.0120;
349.5000;0.4884;1.0120;
349.8000;0.4876;1.0245;
350.1000;0.4884;1.0170;
350.4000;0.4827;1.0021;
350.7000;0.4860;1.0195;
351.0000;0.4884;1.0245;
351.3000;0.4884;1.0220;
351.6000;0.4868;1.0220;
351.9000;0.4868;1.0195;
352.2000;0.4884;1.0170;
352.5000;0.4851;1.0046;
352.8000;0.4868;1.0145;
353.1000;0.4892;1.0170;
353.4000;0.4876;1.0170;
353.7000;0.4941;1.0369;
354.0000;0.4860;1.0145;
354.3000;0.4957;1.0394;
354.6000;0.4868;1.0096;
354.9000;0.4900;1.0120;
355.2000;0.4892;1.0170;
355.5000;0.4876;1.0120;
355.8000;0.4900;1.0220;
356.1000;0.4843;1.0071;
356.4000;0.4851;1.0145;
356.7000;0.4900;1.0295;
357.0000;0.4860;1.0245;
357.3000;0.4868;1.0394;
357.6000;0.4868;1.0394;
357.9000;0.4851;1.0220;
358.2000;0.4868;1.0220;
358.5000;0.4843;1.0170;
358.8000;0.4786;0.9996;
359.1000;0.4794;1.0071;
359.4000;0.4900;1.0220;
359.7000;0.4778;0.9922;
360.0000;0.4957;1.0394;
360.3000;0.4884;1.0120;
360.6000;0.4851;1.0120;
360.9000;0.4851;1.0120;
361.2000;0.4851;1.0170;
361.5000;0.4908;1.0319;
361.8000;0.4876;1.0120;
362.1000;0.4794;0.9872;
362.4000;0.4851;1.0021;
362.7000;0.4892;1.0071;
363.0000;0.4900;1.0071;
363.3000;0.4860;0.9946;
363.6000;0.4860;0.9971;
363.9000;0.4851;0.9872;
364.2000;0.4876;0.9946;
364.5000;0.4860;0.9922;
364.8000;0.4876;0.9971;
365.1000;0.4843;0.9822;
365.4000;0.4860;0.9922;
365.7000;0.4851;0.9996;
366.0000;0.4860;0.9996;
366.3000;0.4851;0.9996;
366.6000;0.4860;0.9971;
366.9000;0.4860;0.9971;
367.2000;0.4860;0.9996;
367.5000;0.4860;1.0120;
367.8000;0.4803;0.9971;
368.1000;0.4851;1.0021;
368.4000;0.4843;0.9946;
368.7000;0.4925;1.0120;
369.0000;0.4876;0.9996;
369.3000;0.4860;0.9996;
369.6000;0.4884;1.0096;
369.9000;0.4860;1.0046;
370.2000;0.4851;0.9971;
370.5000;0.4851;1.0071;
370.8000;0.4843;0.9996;
371.1000;0.4876;1.0096;
371.4000;0.4835;0.9922;
371.7000;0.4835;0.9946;
372.0000;0.4860;1.0046;
372.3000;0.4868;1.0021;
372.6000;0.4868;1.0046;
372.9000;0.4868;1.0096;
373.2000;0.4860;1.0170;
373.5000;0.4868;1.0170;
373.8000;0.4917;1.0369;
374.1000;0.4843;1.0170;
374.4000;0.4851;1.0195;
374.7000;0.4884;1.0220;
375.0000;0.4868;1.0120;
375.3000;0.4843;1.0021;
375.6000;0.4860;1.0071;
375.9000;0.4860;1.0071;
376.2000;0.4835;1.0071;
376.5000;0.4835;1.0021;
376.8000;0.4860;1.0046;
377.1000;0.4876;1.0096;
377.4000;0.4851;1.0120;
377.7000;0.4860;1.0145;
378.0000;0.4851;1.0096;
378.3000;0.4843;0.9971;
378.6000;0.4868;1.0021;
378.9000;0.4851;0.9946;
379.2000;0.4868;0.9996;
379.5000;0.4851;1.0071;
379.8000;0.4860;1.0046;
380.1000;0.4868;1.0021;
380.4000;0.4876;1.0021;
380.7000;0.4827;0.9946;
381.0000;0.4892;1.0245;
381.3000;0.4860;1.0220;
381.6000;0.4835;1.0120;
381.9000;0.4860;1.0096;
382.2000;0.4786;0.9872;
382.5000;0.4860;1.0021;
382.8000;0.4900;1.0195;
383.1000;0.4851;1.0096;
383.4000;0.4835;1.0145;
383.7000;0.4941;1.0444;
384.0000;0.4860;1.0120;
384.3000;0.4851;1.0071;
384.6000;0.4851;0.9971;
384.9000;0.4868;0.9971;
385.2000;0.4851;0.9922;
385.5000;0.4851;0.9996;
385.8000;0.4851;1.0021;
386.1000;0.4835;0.9996;
386.4000;0.4851;1.0021;
386.7000;0.4835;1.0071;
387.0000;0.4843;1.0120;
387.3000;0.4851;1.0046;
387.6000;0.4851;1.0021;
387.9000;0.4851;0.9996;
388.2000;0.4851;0.9971;
388.5000;0.4860;0.9946;
388.8000;0.4860;0.9946;
389.1000;0.4876;0.9996;
389.4000;0.4851;1.0021;
389.7000;0.4860;0.9996;
390.0000;0.4933;1.0195;
390.3000;0.4860;0.9996;
390.6000;0.4860;0.9971;
390.9000;0.4835;1.0021;
391.2000;0.4949;1.0195;
391.5000;0.4843;0.9897;
391.8000;0.4827;0.9897;
392.1000;0.4843;0.9922;
392.4000;0.4835;0.9946;
392.7000;0.4843;0.9922;
393.0000;0.4843;0.9872;
393.3000;0.4827;0.9897;
393.6000;0.4827;0.9996;
393.9000;0.4835;0.9946;
394.2000;0.4843;0.9946;
394.5000;0.4843;0.9996;
394.8000;0.4851;1.0046;
395.1000;0.4851;1.0046;
395.4000;0.4843;1.0096;
395.7000;0.4843;1.0046;
396.0000;0.4819;1.0046;
396.3000;0.4851;1.0021;
396.6000;0.4860;1.0046;
396.9000;0.4843;0.9996;
397.2000;0.4843;1.0021;
397.5000;0.4843;1.0046;
397.8000;0.4851;1.0071;
398.1000;0.4851;1.0096;
398.4000;0.4835;1.0071;
398.7000;0.4770;0.9922;
399.0000;0.4860;1.0145;
399.3000;0.4843;1.0120;
399.6000;0.4827;1.0096;
399.9000;0.4827;1.0021;
400.2000;0.4827;1.0120;
400.5000;0.4860;1.0270;
400.8000;0.4835;1.0319;
401.1000;0.4794;1.0220;
401.4000;0.4843;1.0220;
401.7000;0.4868;1.0295;
402.0000;0.4827;1.0220;
402.3000;0.4835;1.0220;
402.6000;0.4811;1.0145;
402.9000;0.4835;1.0170;
403.2000;0.4843;1.0170;
403.5000;0.4803;1.0046;
403.8000;0.4892;1.0195;
404.1000;0.4835;1.0071;
404.4000;0.4860;1.0096;
404.7000;0.4835;1.0096;
405.0000;0.4843;1.0096;
405.3000;0.4851;1.0071;
405.6000;0.4851;1.0170;
405.9000;0.4851;1.0145;
406.2000;0.4835;1.0170;
406.5000;0.4827;1.0195;
406.8000;0.4778;0.9971;
407.1000;0.4843;1.0145;
407.4000;0.4835;1.0096;
407.7000;0.4827;1.0071;
408.0000;0.4876;1.0145;
408.3000;0.4860;1.0120;
408.6000;0.4843;1.0021;
408.9000;0.4860;1.0120;
409.2000;0.4851;1.0021;
409.5000;0.4851;0.9996;
409.8000;0.4860;1.0145;
410.1000;0.4851;1.0220;
410.4000;0.4827;1.0220;
410.7000;0.4860;1.0295;
411.0000;0.4843;1.0270;
411.3000;0.4835;1.0245;
411.6000;0.4860;1.0270;
411.9000;0.4843;1.0270;
412.2000;0.4851;1.0270;
412.5000;0.4827;1.0145;
412.8000;0.4835;1.0170;
413.1000;0.4835;1.0145;
413.4000;0.4827;1.0245;
413.7000;0.4851;1.0270;
414.0000;0.4794;1.0096;
414.3000;0.4843;1.0220;
414.6000;0.4778;0.9971;
414.9000;0.4860;1.0096;
415.2000;0.4835;0.9996;
415.5000;0.4851;1.0021;
415.8000;0.4843;1.0021;
416.1000;0.4851;1.0021;
416.4000;0.4835;1.0021;
416.7000;0.4843;1.0145;
417.0000;0.4835;1.0120;
417.3000;0.4851;1.0195;
417.6000;0.4843;1.0096;
417.9000;0.4835;1.0170;
418.2000;0.4835;1.0245;
418.5000;0.4835;1.0295;
418.8000;0.4835;1.0220;
419.1000;0.4827;1.0295;
419.4000;0.4851;1.0369;
419.7000;0.4851;1.0245;
420.0000;0.4835;1.0220;
420.3000;0.4843;1.0195;
420.6000;0.4884;1.0295;
420.9000;0.4851;1.0245;
421.2000;0.4843;1.0170;
421.5000;0.4851;1.0120;
421.8000;0.4860;1.0120;
422.1000;0.4819;1.0021;
422.4000;0.4860;1.0120;
422.7000;0.4843;1.0096;
423.0000;0.4851;1.0046;
423.3000;0.4851;1.0096;
423.6000;0.4843;1.0245;
423.9000;0.4843;1.0295;
424.2000;0.4843;1.0319;
424.5000;0.4860;1.0419;
424.8000;0.4843;1.0270;
425.1000;0.4827;1.0170;
425.4000;0.4835;1.0195;
425.7000;0.4843;1.0145;
426.0000;0.4843;1.0120;
426.3000;0.4827;1.0145;
426.6000;0.4835;1.0145;
426.9000;0.4819;1.0220;
427.2000;0.4843;1.0195;
427.5000;0.4835;1.0170;
427.8000;0.4835;1.0270;
428.1000;0.4835;1.0220;
428.4000;0.4851;1.0319;
428.7000;0.4843;1.0369;
429.0000;0.4827;1.0295;
429.3000;0.4835;1.0344;
429.6000;0.4835;1.0245;
429.9000;0.4835;1.0195;
430.2000;0.4827;1.0220;
430.5000;0.4860;1.0195;
430.8000;0.4746;0.9872;
431.1000;0.4762;0.9922;
431.4000;0.4843;1.0170;
431.7000;0.4827;1.0145;
432.0000;0.4843;1.0145;
432.3000;0.4876;1.0245;
432.6000;0.4827;1.0120;
432.9000;0.4868;1.0195;
433.2000;0.4827;1.0145;
433.5000;0.4819;1.0170;
433.8000;0.4843;1.0245;
434.1000;0.4827;1.0245;
434.4000;0.4819;1.0270;
434.7000;0.4843;1.0344;
435.0000;0.4851;1.0419;
435.3000;0.4835;1.0394;
435.6000;0.4778;1.0220;
435.9000;0.4860;1.0394;
436.2000;0.4851;1.0270;
436.5000;0.4811;1.0220;
436.8000;0.4827;1.0270;
437.1000;0.4835;1.0195;
437.4000;0.4843;1.0220;
437.7000;0.4827;1.0195;
438.0000;0.4851;1.0195;
438.3000;0.4835;1.0295;
438.6000;0.4835;1.0295;
438.9000;0.4851;1.0319;
439.2000;0.4843;1.0270;
439.5000;0.4851;1.0270;
439.8000;0.4851;1.0245;
440.1000;0.4843;1.0270;
440.4000;0.4835;1.0220;
440.7000;0.4835;1.0195;
441.0000;0.4819;1.0195;
441.3000;0.4835;1.0319;
441.6000;0.4843;1.0295;
441.9000;0.4819;1.0245;
442.2000;0.4835;1.0344;
442.5000;0.4843;1.0369;
442.8000;0.4843;1.0319;
443.1000;0.4843;1.0344;
443.4000;0.4827;1.0344;
443.7000;0.4851;1.0469;
444.0000;0.4851;1.0493;
444.3000;0.4835;1.0444;
444.6000;0.4794;1.0319;
444.9000;0.4860;1.0444;
445.2000;0.4827;1.0369;
445.5000;0.4827;1.0394;
445.8000;0.4827;1.0319;
446.1000;0.4843;1.0295;
446.4000;0.4835;1.0220;
446.7000;0.4819;1.0071;
447.0000;0.4811;1.0046;
447.3000;0.4835;1.0170;
447.6000;0.4819;1.0220;
447.9000;0.4827;1.0245;
448.2000;0.4843;1.0145;
448.5000;0.4843;1.0245;
448.8000;0.4851;1.0220;
449.1000;0.4884;1.0245;
449.4000;0.4819;1.0046;
449.7000;0.4835;1.0145;
450.0000;0.4843;1.0195;
450.3000;0.4843;1.0270;
450.6000;0.4851;1.0319;
450.9000;0.4835;1.0270;
451.2000;0.4835;1.0220;
451.5000;0.4835;1.0096;
451.8000;0.4843;1.0145;
452.1000;0.4835;1.0096;
452.4000;0.4860;1.0220;
452.7000;0.4835;1.0195;
453.0000;0.4811;1.0120;
453.3000;0.4843;1.0120;
453.6000;0.4819;1.0071;
453.9000;0.4827;1.0071;
454.2000;0.4835;1.0096;
454.5000;0.4819;1.0120;
454.8000;0.4835;1.0195;
455.1000;0.4835;1.0220;
455.4000;0.4835;1.0295;
455.7000;0.4835;1.0245;
456.0000;0.4860;1.0245;
456.3000;0.4786;1.0021;
456.6000;0.4819;1.0120;
456.9000;0.4827;1.0096;
457.2000;0.4827;1.0071;
457.5000;0.4884;1.0295;
457.8000;0.4827;1.0170;
458.1000;0.4843;1.0170;
458.4000;0.4827;1.0145;
458.7000;0.4835;1.0245;
459.0000;0.4819;1.0344;
459.3000;0.4876;1.0444;
459.6000;0.4843;1.0344;
459.9000;0.4827;1.0220;
460.2000;0.4827;1.0245;
460.5000;0.4884;1.0419;
460.8000;0.4835;1.0295;
461.1000;0.4811;1.0270;
461.4000;0.4868;1.0419;
461.7000;0.4843;1.0469;
462.0000;0.4851;1.0419;
462.3000;0.4843;1.0394;
462.6000;0.4835;1.0195;
462.9000;0.4827;1.0220;
463.2000;0.4811;1.0145;
463.5000;0.4835;1.0120;
463.8000;0.4827;1.0120;
464.1000;0.4819;1.0096;
464.4000;0.4835;1.0120;
464.7000;0.4835;1.0170;
465.0000;0.4835;1.0245;
465.3000;0.4827;1.0120;
465.6000;0.4835;1.0145;
465.9000;0.4835;1.0120;
466.2000;0.4827;1.0071;
466.5000;0.4827;0.9996;
466.8000;0.4835;1.0071;
467.1000;0.4827;1.0170;
467.4000;0.4819;1.0120;
467.7000;0.4835;1.0145;
468.0000;0.4843;1.0145;
468.3000;0.4835;1.0170;
468.6000;0.4843;1.0170;
468.9000;0.4794;1.0071;
469.2000;0.4843;1.0195;
469.5000;0.4860;1.0245;
469.8000;0.4860;1.0245;
470.1000;0.4851;1.0220;
470.4000;0.4860;1.0245;
470.7000;0.4811;1.0195;
471.0000;0.4811;1.0145;
471.3000;0.4860;1.0220;
471.6000;0.4835;1.0195;
471.9000;0.4860;1.0245;
472.2000;0.4803;1.0170;
472.5000;0.4827;1.0245;
472.8000;0.4819;1.0220;
473.1000;0.4786;1.0170;
473.4000;0.4843;1.0295;
473.7000;0.4843;1.0394;
474.0000;0.4835;1.0344;
474.3000;0.4835;1.0319;
474.6000;0.4843;1.0295;
474.9000;0.4843;1.0319;
475.2000;0.4827;1.0270;
475.5000;0.4851;1.0344;
475.8000;0.4933;1.0518;
476.1000;0.4876;1.0394;
476.4000;0.4843;1.0245;
476.7000;0.4851;1.0145;
477.0000;0.4803;1.0120;
477.3000;0.4860;1.0195;
477.6000;0.4843;1.0096;
477.9000;0.4835;1.0120;
478.2000;0.4835;1.0195;
478.5000;0.4827;1.0195;
478.8000;0.4811;1.0195;
479.1000;0.4827;1.0245;
479.4000;0.4884;1.0344;
479.7000;0.4851;1.0145;
480.0000;0.4843;1.0120;
480.3000;0.4835;1.0120;
480.6000;0.4843;1.0220;
480.9000;0.4851;1.0245;
481.2000;0.4827;1.0195;
481.5000;0.4868;1.0369;
481.8000;0.4843;1.0344;
482.1000;0.4843;1.0344;
482.4000;0.4843;1.0344;
482.7000;0.4835;1.0344;
483.0000;0.4860;1.0419;
483.3000;0.4835;1.0319;
483.6000;0.4851;1.0369;
483.9000;0.4827;1.0344;
484.2000;0.4851;1.0295;
484.5000;0.4843;1.0220;
484.8000;0.4835;1.0220;
485.1000;0.4835;1.0170;
485.4000;0.4819;1.0096;
485.7000;0.4851;1.0170;
486.0000;0.4843;1.0245;
486.3000;0.4819;1.0195;
486.6000;0.4827;1.0245;
486.9000;0.4843;1.0319;
487.2000;0.4794;1.0120;
487.5000;0.4803;1.0295;
487.8000;0.4819;1.0319;
488.1000;0.4827;1.0344;
488.4000;0.4811;1.0369;
488.7000;0.4794;1.0270;
489.0000;0.4819;1.0319;
489.3000;0.4843;1.0369;
489.6000;0.4827;1.0419;
489.9000;0.4835;1.0493;
490.2000;0.4925;1.0717;
490.5000;0.4843;1.0444;
490.8000;0.4811;1.0295;
491.1000;0.4843;1.0419;
491.4000;0.4835;1.0319;
491.7000;0.4819;1.0270;
492.0000;0.4827;1.0220;
492.3000;0.4827;1.0195;
492.6000;0.4762;0.9996;
492.9000;0.4827;1.0071;
493.2000;0.4827;1.0096;
493.5000;0.4868;1.0245;
493.8000;0.4819;1.0145;
494.1000;0.4835;1.0170;
494.4000;0.4851;1.0245;
494.7000;0.4835;1.0096;
495.0000;0.4819;0.9996;
495.3000;0.4851;1.0120;
495.6000;0.4827;0.9996;
495.9000;0.4835;1.0046;
496.2000;0.4835;1.0046;
496.5000;0.4819;1.0071;
496.8000;0.4835;1.0170;
497.1000;0.4819;1.0096;
497.4000;0.4835;1.0096;
497.7000;0.4819;1.0170;
498.0000;0.4835;1.0195;
498.3000;0.4827;1.0145;
498.6000;0.4868;1.0170;
498.9000;0.4835;1.0170;
499.2000;0.4860;1.0145;
499.5000;0.4827;1.0120;
499.8000;0.4811;1.0120;
500.1000;0.4827;1.0245;
500.4000;0.4835;1.0344;
500.7000;0.4827;1.0145;
501.0000;0.4892;1.0344;
501.3000;0.4762;0.9971;
501.6000;0.4835;1.0195;
501.9000;0.4835;1.0245;
502.2000;0.4868;1.0245;
502.5000;0.4803;1.0096;
502.8000;0.4819;1.0021;
503.1000;0.4819;1.0046;
503.4000;0.4835;1.0096;
503.7000;0.4835;1.0096;
504.0000;0.4811;1.0046;
504.3000;0.4819;1.0096;
504.6000;0.4876;1.0195;
504.9000;0.4835;1.0021;
505.2000;0.4811;0.9971;
505.5000;0.4811;0.9946;
505.8000;0.4835;1.0021;
506.1000;0.4762;0.9797;
506.4000;0.4819;1.0021;
506.7000;0.4819;1.0071;
507.0000;0.4819;1.0071;
507.3000;0.4851;1.0170;
507.6000;0.4811;1.0046;
507.9000;0.4811;1.0021;
508.2000;0.4827;1.0046;
508.5000;0.4851;0.9996;
508.8000;0.4811;0.9971;
509.1000;0.4827;0.9996;
509.4000;0.4835;1.0046;
509.7000;0.4835;1.0071;
510.0000;0.4811;1.0096;
510.3000;0.4746;0.9922;
510.6000;0.4819;1.0170;
510.9000;0.4819;1.0096;
511.2000;0.4835;1.0071;
511.5000;0.4811;1.0071;
511.8000;0.4819;1.0071;
512.1000;0.4819;1.0096;
512.4000;0.4868;1.0170;
512.7000;0.4803;0.9996;
513.0000;0.4819;0.9897;
513.3000;0.4827;0.9872;
513.6000;0.4843;0.9922;
513.9000;0.4835;0.9872;
514.2000;0.4827;0.9872;
514.5000;0.4835;0.9872;
514.8000;0.4876;0.9897;
515.1000;0.4835;0.9822;
515.4000;0.4843;0.9797;
515.7000;0.4835;0.9698;
516.0000;0.4835;0.9748;
516.3000;0.4908;1.0071;
516.6000;0.4827;0.9822;
516.9000;0.4835;0.9847;
517.2000;0.4819;0.9872;
517.5000;0.4835;0.9946;
517.8000;0.4811;0.9946;
518.1000;0.4770;0.9797;
518.4000;0.4819;0.9897;
518.7000;0.4803;0.9872;
519.0000;0.4819;0.9847;
519.3000;0.4811;0.9822;
519.6000;0.4803;0.9847;
519.9000;0.4827;0.9847;
520.2000;0.4835;0.9872;
520.5000;0.4811;0.9922;
520.8000;0.4786;0.9847;
521.1000;0.4819;0.9872;
521.4000;0.4835;0.9872;
521.7000;0.4819;0.9847;
522.0000;0.4803;0.9822;
522.3000;0.4819;0.9946;
522.6000;0.4827;0.9996;
522.9000;0.4819;0.9971;
523.2000;0.4819;0.9922;
523.5000;0.4835;0.9897;
523.8000;0.4819;0.9946;
524.1000;0.4811;0.9946;
524.4000;0.4819;0.9922;
524.7000;0.4835;0.9897;
525.0000;0.4884;0.9971;
525.3000;0.4794;0.9797;
525.6000;0.4819;0.9847;
525.9000;0.4819;0.9872;
526.2000;0.4819;0.9872;
526.5000;0.4811;0.9922;
526.8000;0.4811;0.9922;
527.1000;0.4827;0.9946;
527.4000;0.4762;0.9847;
527.7000;0.4811;0.9946;
528.0000;0.4762;0.9772;
528.3000;0.4811;0.9822;
528.6000;0.4827;0.9847;
528.9000;0.4819;0.9872;
529.2000;0.4819;0.9946;
529.5000;0.4819;0.9996;
529.8000;0.4835;0.9946;
530.1000;0.4827;0.9996;
530.4000;0.4811;0.9996;
530.7000;0.4811;0.9996;
531.0000;0.4803;0.9847;
531.3000;0.4835;0.9946;
531.6000;0.4819;0.9946;
531.9000;0.4827;0.9971;
532.2000;0.4819;0.9897;
532.5000;0.4803;0.9897;
532.8000;0.4843;0.9897;
533.1000;0.4827;0.9797;
533.4000;0.4827;0.9772;
533.7000;0.4843;0.9847;
534.0000;0.4754;0.9648;
534.3000;0.4803;0.9897;
534.6000;0.4835;0.9946;
534.9000;0.4762;0.9748;
535.2000;0.4819;0.9847;
535.5000;0.4835;0.9872;
535.8000;0.4803;0.9797;
536.1000;0.4794;0.9698;
536.4000;0.4819;0.9698;
536.7000;0.4819;0.9772;
537.0000;0.4827;0.9847;
537.3000;0.4737;0.9673;
537.6000;0.4794;0.9748;
537.9000;0.4819;0.9822;
538.2000;0.4803;0.9847;
538.5000;0.4811;0.9847;
538.8000;0.4811;0.9772;
539.1000;0.4770;0.9698;
539.4000;0.4803;0.9897;
539.7000;0.4811;0.9872;
540.0000;0.4811;0.9946;
540.3000;0.4876;1.0120;
540.6000;0.4786;0.9946;
540.9000;0.4819;1.0021;
541.2000;0.4819;0.9996;
541.5000;0.4819;1.0096;
541.8000;0.4819;1.0046;
542.1000;0.4868;1.0220;
542.4000;0.4811;1.0046;
542.7000;0.4819;1.0145;
543.0000;0.4827;1.0170;
543.3000;0.4803;1.0021;
543.6000;0.4794;1.0046;
543.9000;0.4819;1.0170;
544.2000;0.4803;1.0170;
544.5000;0.4811;1.0220;
544.8000;0.4811;1.0245;
545.1000;0.4860;1.0394;
545.4000;0.4819;1.0245;
545.7000;0.4803;1.0195;
546.0000;0.4827;1.0170;
546.3000;0.4819;1.0145;
546.6000;0.4819;1.0170;
546.9000;0.4803;1.0120;
547.2000;0.4827;1.0195;
547.5000;0.4819;1.0195;
547.8000;0.4794;1.0195;
548.1000;0.4876;1.0319;
548.4000;0.4811;1.0096;
548.7000;0.4794;0.9996;
549.0000;0.4819;1.0071;
549.3000;0.4860;1.0220;
549.6000;0.4851;1.0245;
549.9000;0.4803;1.0096;
550.2000;0.4811;1.0145;
550.5000;0.4811;1.0145;
550.8000;0.4811;1.0120;
551.1000;0.4819;0.9996;
551.4000;0.4835;1.0096;
551.7000;0.4803;1.0046;
552.0000;0.4803;1.0071;
552.3000;0.4803;1.0096;
552.6000;0.4860;1.0170;
552.9000;0.4819;0.9996;
553.2000;0.4811;0.9996;
553.5000;0.4819;1.0046;
553.8000;0.4819;1.0071;
554.1000;0.4811;1.0071;
554.4000;0.4811;1.0145;
554.7000;0.4794;1.0120;
555.0000;0.4803;1.0120;
555.3000;0.4794;1.0046;
555.6000;0.4827;1.0096;
555.9000;0.4827;1.0021;
556.2000;0.4827;0.9971;
556.5000;0.4835;0.9996;
556.8000;0.4835;1.0021;
557.1000;0.4794;0.9996;
557.4000;0.4794;1.0120;
557.7000;0.4786;1.0071;
558.0000;0.4811;0.9996;
558.3000;0.4778;0.9946;
558.6000;0.4754;0.9872;
558.9000;0.4803;0.9897;
559.2000;0.4803;0.9847;
559.5000;0.4819;0.9872;
559.8000;0.4851;1.0096;
560.1000;0.4754;0.9922;
560.4000;0.4827;1.0145;
560.7000;0.4786;1.0195;
561.0000;0.4803;1.0270;
561.3000;0.4794;1.0220;
561.6000;0.4827;1.0145;
561.9000;0.4811;1.0170;
562.2000;0.4786;1.0145;
562.5000;0.4778;0.9996;
562.8000;0.4803;0.9946;
563.1000;0.4827;0.9996;
563.4000;0.4803;1.0046;
563.7000;0.4794;1.0046;
564.0000;0.4762;0.9996;
564.3000;0.4811;1.0046;
564.6000;0.4827;1.0096;
564.9000;0.4803;1.0046;
565.2000;0.4794;1.0021;
565.5000;0.4851;1.0071;
565.8000;0.4811;0.9946;
566.1000;0.4794;0.9946;
566.4000;0.4819;0.9946;
566.7000;0.4803;0.9922;
567.0000;0.4811;1.0046;
567.3000;0.4819;1.0120;
567.6000;0.4762;0.9897;
567.9000;0.4876;1.0170;
568.2000;0.4811;1.0046;
568.5000;0.4794;1.0021;
568.8000;0.4811;0.9897;
569.1000;0.4811;0.9971;
569.4000;0.4827;0.9922;
569.7000;0.4843;0.9971;
570.0000;0.4827;0.9971;
570.3000;0.4794;0.9971;
570.6000;0.4737;0.9797;
570.9000;0.4819;0.9946;
571.2000;0.4835;0.9872;
571.5000;0.4811;0.9897;
571.8000;0.4851;0.9971;
572.1000;0.4803;0.9897;
572.4000;0.4803;0.9847;
572.7000;0.4827;0.9996;
573.0000;0.4803;0.9996;
573.3000;0.4811;1.0096;
573.6000;0.4803;1.0120;
573.9000;0.4811;1.0096;
574.2000;0.4811;1.0046;
574.5000;0.4811;0.9971;
574.8000;0.4811;0.9946;
575.1000;0.4811;1.0071;
575.4000;0.4811;1.0046;
575.7000;0.4803;1.0021;
576.0000;0.4794;0.9971;
576.3000;0.4827;1.0195;
576.6000;0.4803;1.0170;
576.9000;0.4811;1.0145;
577.2000;0.4819;1.0071;
577.5000;0.4803;1.0071;
577.8000;0.4811;1.0046;
578.1000;0.4811;1.0046;
578.4000;0.4811;1.0170;
578.7000;0.4827;1.0220;
579.0000;0.4827;1.0220;
579.3000;0.4811;1.0220;
579.6000;0.4827;1.0295;
579.9000;0.4827;1.0319;
580.2000;0.4827;1.0170;
580.5000;0.4827;1.0145;
580.8000;0.4827;1.0145;
581.1000;0.4843;1.0145;
581.4000;0.4908;1.0295;
581.7000;0.4811;1.0021;
582.0000;0.4827;1.0021;
582.3000;0.4827;1.0021;
582.6000;0.4803;1.0021;
582.9000;0.4811;1.0046;
583.2000;0.4811;1.0021;
583.5000;0.4819;1.0046;
583.8000;0.4827;1.0096;
584.1000;0.4803;1.0096;
584.4000;0.4803;1.0120;
584.7000;0.4827;1.0170;
585.0000;0.4819;1.0145;
585.3000;0.4819;1.0195;
585.6000;0.4803;1.0145;
585.9000;0.4811;1.0170;
586.2000;0.4851;1.0245;
586.5000;0.4819;1.0245;
586.8000;0.4819;1.0195;
587.1000;0.4811;1.0170;
587.4000;0.4819;1.0195;
587.7000;0.4803;1.0096;
588.0000;0.4803;1.0120;
588.3000;0.4794;1.0145;
588.6000;0.4819;1.0245;
588.9000;0.4803;1.0120;
589.2000;0.4803;1.0021;
589.5000;0.4811;1.0021;
589.8000;0.4811;0.9996;
590.1000;0.4803;0.9946;
590.4000;0.4786;0.9922;
590.7000;0.4794;0.9872;
591.0000;0.4835;0.9971;
591.3000;0.4786;0.9872;
591.6000;0.4900;1.0170;
591.9000;0.4803;0.9946;
592.2000;0.4778;0.9847;
592.5000;0.4819;0.9922;
592.8000;0.4803;0.9971;
593.1000;0.4811;0.9971;
593.4000;0.4786;0.9922;
593.7000;0.4819;1.0046;
594.0000;0.4819;1.0120;
594.3000;0.4786;1.0071;
594.6000;0.4786;1.0071;
594.9000;0.4843;1.0220;
595.2000;0.4827;1.0195;
595.5000;0.4851;1.0145;
595.8000;0.4811;1.0021;
596.1000;0.4803;1.0145;
596.4000;0.4803;1.0145;
596.7000;0.4819;1.0145;
597.0000;0.4803;1.0046;
597.3000;0.4803;1.0046;
597.6000;0.4811;1.0096;
597.9000;0.4819;1.0145;
598.2000;0.4803;1.0046;
598.5000;0.4794;1.0046;
598.8000;0.4819;1.0071;
599.1000;0.4803;1.0046;
599.4000;0.4786;1.0021;
599.7000;0.4803;1.0046;
600.0000;0.4811;1.0071;
600.3000;0.4827;0.9922;
600.6000;0.4778;0.9797;
600.9000;0.4737;0.9598;
601.2000;0.4681;0.9474;
601.5000;0.4615;0.9275;
601.8000;0.4542;0.9101;
602.1000;0.4493;0.8927;
602.4000;0.4453;0.8803;
602.7000;0.4396;0.8703;
603.0000;0.4306;0.8405;
603.3000;0.4265;0.8355;
603.6000;0.4233;0.8206;
603.9000;0.4176;0.8057;
604.2000;0.4160;0.7907;
604.5000;0.4127;0.7708;
604.8000;0.4111;0.7684;
605.1000;0.4054;0.7559;
605.4000;0.4013;0.7609;
605.7000;0.4005;0.7634;
606.0000;0.3980;0.7510;
606.3000;0.3972;0.7534;
606.6000;0.3948;0.7460;
606.9000;0.3915;0.7311;
607.2000;0.3923;0.7360;
607.5000;0.3867;0.7236;
607.8000;0.3858;0.7137;
608.1000;0.3858;0.7211;
608.4000;0.3842;0.7087;
608.7000;0.3842;0.7037;
609.0000;0.3801;0.7112;
609.3000;0.3810;0.7137;
609.6000;0.3777;0.7062;
609.9000;0.3769;0.6987;
610.2000;0.3753;0.6938;
610.5000;0.3769;0.7062;
610.8000;0.3777;0.7137;
611.1000;0.3761;0.7012;
611.4000;0.3769;0.7087;
611.7000;0.3761;0.7186;
612.0000;0.3728;0.7161;
612.3000;0.3687;0.7087;
612.6000;0.3744;0.7186;
612.9000;0.3712;0.7211;
613.2000;0.3687;0.7087;
613.5000;0.3704;0.7211;
613.8000;0.3687;0.7186;
614.1000;0.3647;0.7062;
614.4000;0.3704;0.7186;
614.7000;0.3655;0.7037;
615.0000;0.3655;0.7012;
615.3000;0.3647;0.7037;
615.6000;0.3647;0.7062;
615.9000;0.3663;0.7087;
616.2000;0.3639;0.7062;
616.5000;0.3622;0.7037;
616.8000;0.3573;0.6963;
617.1000;0.3622;0.7137;
617.4000;0.3614;0.7062;
617.7000;0.3622;0.7137;
618.0000;0.3614;0.7161;
618.3000;0.3573;0.7037;
618.6000;0.3606;0.6987;
618.9000;0.3598;0.6987;
619.2000;0.3622;0.7062;
619.5000;0.3590;0.6987;
619.8000;0.3590;0.7012;
620.1000;0.3590;0.7087;
620.4000;0.3606;0.6963;
620.7000;0.3573;0.6888;
621.0000;0.3598;0.6938;
621.3000;0.3573;0.6888;
621.6000;0.3582;0.6863;
621.9000;0.3582;0.6963;
622.2000;0.3582;0.6987;
622.5000;0.3565;0.6963;
622.8000;0.3557;0.6913;
623.1000;0.3549;0.6863;
623.4000;0.3565;0.6913;
623.7000;0.3557;0.6863;
624.0000;0.3549;0.6838;
624.3000;0.3573;0.6888;
624.6000;0.3541;0.6838;
624.9000;0.3541;0.6813;
625.2000;0.3557;0.6838;
625.5000;0.3541;0.6788;
625.8000;0.3508;0.6788;
626.1000;0.3541;0.6963;
626.4000;0.3525;0.6888;
626.7000;0.3565;0.7037;
627.0000;0.3516;0.6888;
627.3000;0.3533;0.6963;
627.6000;0.3525;0.6913;
627.9000;0.3541;0.6913;
628.2000;0.3508;0.6863;
628.5000;0.3516;0.6888;
628.8000;0.3500;0.6788;
629.1000;0.3525;0.6788;
629.4000;0.3508;0.6838;
629.7000;0.3525;0.6863;
630.0000;0.3500;0.6813;
630.3000;0.3549;0.6963;
630.6000;0.3516;0.6888;
630.9000;0.3525;0.6913;
631.2000;0.3516;0.6838;
631.5000;0.3492;0.6714;
631.8000;0.3492;0.6764;
632.1000;0.3476;0.6888;
632.4000;0.3460;0.6714;
632.7000;0.3468;0.6838;
633.0000;0.3451;0.6838;
633.3000;0.3476;0.6838;
633.6000;0.3500;0.6888;
633.9000;0.3476;0.6788;
634.2000;0.3468;0.6739;
634.5000;0.3476;0.6689;
634.8000;0.3460;0.6639;
635.1000;0.3476;0.6565;
635.4000;0.3492;0.6664;
635.7000;0.3460;0.6714;
636.0000;0.3541;0.7012;
636.3000;0.3460;0.6888;
636.6000;0.3451;0.6913;
636.9000;0.3468;0.6913;
637.2000;0.3451;0.6938;
637.5000;0.3443;0.7037;
637.8000;0.3468;0.7112;
638.1000;0.3460;0.7087;
638.4000;0.3443;0.7012;
638.7000;0.3468;0.7112;
639.0000;0.3443;0.7037;
639.3000;0.3460;0.7137;
639.6000;0.3451;0.7112;
639.9000;0.3443;0.7137;
640.2000;0.3460;0.7261;
640.5000;0.3451;0.7186;
640.8000;0.3443;0.7161;
641.1000;0.3403;0.7012;
641.4000;0.3451;0.7112;
641.7000;0.3443;0.7112;
642.0000;0.3427;0.7087;
642.3000;0.3394;0.6938;
642.6000;0.3427;0.7037;
642.9000;0.3419;0.6963;
643.2000;0.3427;0.6938;
643.5000;0.3460;0.7137;
643.8000;0.3427;0.7087;
644.1000;0.3427;0.7012;
644.4000;0.3460;0.7161;
644.7000;0.3403;0.7037;
645.0000;0.3411;0.7062;
645.3000;0.3403;0.6987;
645.6000;0.3411;0.6987;
645.9000;0.3403;0.6963;
646.2000;0.3427;0.6963;
646.5000;0.3370;0.6863;
646.8000;0.3411;0.7062;
647.1000;0.3403;0.6963;
647.4000;0.3443;0.7037;
647.7000;0.3419;0.6938;
648.0000;0.3411;0.6938;
648.3000;0.3427;0.6987;
648.6000;0.3435;0.6963;
648.9000;0.3411;0.6963;
649.2000;0.3403;0.6963;
649.5000;0.3427;0.7062;
649.8000;0.3443;0.7137;
650.1000;0.3427;0.7037;
650.4000;0.3394;0.7037;
650.7000;0.3419;0.7037;
651.0000;0.3403;0.7012;
651.3000;0.3386;0.6938;
651.6000;0.3394;0.6913;
651.9000;0.3386;0.6963;
652.2000;0.3427;0.7012;
652.5000;0.3403;0.6987;
652.8000;0.3370;0.6913;
653.1000;0.3403;0.7062;
653.4000;0.3411;0.7186;
653.7000;0.3386;0.7112;
654.0000;0.3403;0.7112;
654.3000;0.3394;0.6938;
654.6000;0.3419;0.6963;
654.9000;0.3394;0.6963;
655.2000;0.3378;0.6963;
655.5000;0.3378;0.6963;
655.8000;0.3403;0.7037;
656.1000;0.3305;0.6764;
656.4000;0.3394;0.7012;
656.7000;0.3362;0.6938;
657.0000;0.3386;0.6987;
657.3000;0.3386;0.7012;
657.6000;0.3386;0.7037;
657.9000;0.3362;0.7062;
658.2000;0.3403;0.7112;
658.5000;0.3378;0.7012;
658.8000;0.3394;0.7087;
659.1000;0.3370;0.7012;
659.4000;0.3386;0.6987;
659.7000;0.3403;0.7062;
660.0000;0.3394;0.7062;
660.3000;0.3346;0.6938;
660.6000;0.3378;0.7087;
660.9000;0.3378;0.7037;
661.2000;0.3386;0.7087;
661.5000;0.3370;0.7037;
661.8000;0.3394;0.7037;
662.1000;0.3386;0.6938;
662.4000;0.3403;0.7012;
662.7000;0.3370;0.6938;
663.0000;0.3378;0.7012;
663.3000;0.3403;0.7087;
663.6000;0.3386;0.6938;
663.9000;0.3386;0.6987;
664.2000;0.3378;0.7037;
664.5000;0.3378;0.7062;
664.8000;0.3394;0.7037;
665.1000;0.3370;0.7137;
665.4000;0.3370;0.7211;
665.7000;0.3394;0.7261;
666.0000;0.3370;0.7161;
666.3000;0.3337;0.6987;
666.6000;0.3370;0.7211;
666.9000;0.3362;0.7186;
667.2000;0.3378;0.7186;
667.5000;0.3370;0.7137;
667.8000;0.3378;0.7161;
668.1000;0.3297;0.6913;
668.4000;0.3297;0.6838;
668.7000;0.3337;0.6938;
669.0000;0.3354;0.7062;
669.3000;0.3370;0.7112;
669.6000;0.3329;0.7062;
669.9000;0.3354;0.7112;
670.2000;0.3329;0.7012;
670.5000;0.3321;0.6888;
670.8000;0.3280;0.6788;
671.1000;0.3346;0.6888;
671.4000;0.3346;0.6863;
671.7000;0.3346;0.6788;
672.0000;0.3354;0.6863;
672.3000;0.3337;0.6838;
672.6000;0.3313;0.6788;
672.9000;0.3321;0.6813;
673.2000;0.3337;0.6838;
673.5000;0.3289;0.6664;
673.8000;0.3346;0.6813;
674.1000;0.3346;0.6813;
674.4000;0.3337;0.6838;
674.7000;0.3329;0.6913;
675.0000;0.3264;0.6813;
675.3000;0.3337;0.7012;
675.6000;0.3329;0.7012;
675.9000;0.3337;0.7062;
676.2000;0.3337;0.7161;
676.5000;0.3346;0.7211;
676.8000;0.3386;0.7286;
677.1000;0.3354;0.7137;
677.4000;0.3346;0.7112;
677.7000;0.3313;0.7037;
678.0000;0.3313;0.6963;
678.3000;0.3329;0.7012;
678.6000;0.3337;0.7087;
678.9000;0.3329;0.7037;
679.2000;0.3329;0.7012;
679.5000;0.3346;0.6963;
679.8000;0.3354;0.6938;
680.1000;0.3354;0.6987;
680.4000;0.3337;0.7062;
680.7000;0.3329;0.7012;
681.0000;0.3329;0.6987;
681.3000;0.3289;0.6938;
681.6000;0.3280;0.6987;
681.9000;0.3321;0.7112;
682.2000;0.3305;0.6987;
682.5000;0.3329;0.6987;
682.8000;0.3223;0.6739;
683.1000;0.3280;0.6863;
683.4000;0.3313;0.6987;
683.7000;0.3321;0.7037;
684.0000;0.3329;0.6987;
684.3000;0.3329;0.6963;
684.6000;0.3305;0.6963;
684.9000;0.3329;0.6987;
685.2000;0.3337;0.6963;
685.5000;0.3321;0.6963;
685.8000;0.3329;0.6987;
686.1000;0.3289;0.6888;
686.4000;0.3313;0.6963;
686.7000;0.3272;0.6838;
687.0000;0.3313;0.6913;
687.3000;0.3337;0.7037;
687.6000;0.3346;0.7062;
687.9000;0.3305;0.6913;
688.2000;0.3321;0.6963;
688.5000;0.3321;0.6913;
688.8000;0.3329;0.6938;
689.1000;0.3256;0.6863;
689.4000;0.3297;0.7062;
689.7000;0.3313;0.7186;
690.0000;0.3305;0.7261;
690.3000;0.3346;0.7360;
690.6000;0.3305;0.7236;
690.9000;0.3289;0.7137;
691.2000;0.3297;0.7211;
691.5000;0.3329;0.7161;
691.8000;0.3329;0.7112;
692.1000;0.3305;0.7062;
692.4000;0.3289;0.7137;
692.7000;0.3321;0.7161;
693.0000;0.3240;0.6863;
693.3000;0.3321;0.7012;
693.6000;0.3305;0.7087;
693.9000;0.3313;0.7112;
694.2000;0.3305;0.7137;
694.5000;0.3280;0.6963;
694.8000;0.3272;0.6963;
695.1000;0.3297;0.7087;
695.4000;0.3321;0.7161;
695.7000;0.3305;0.7112;
696.0000;0.3313;0.7062;
696.3000;0.3305;0.7012;
696.6000;0.3280;0.7062;
696.9000;0.3297;0.7161;
697.2000;0.3297;0.7186;
697.5000;0.3329;0.7211;
697.8000;0.3297;0.7137;
698.1000;0.3272;0.7087;
698.4000;0.3272;0.6987;
698.7000;0.3256;0.7037;
699.0000;0.3297;0.7062;
699.3000;0.3321;0.7087;
699.6000;0.3289;0.7062;
699.9000;0.3280;0.7112;
700.2000;0.3297;0.7137;
700.5000;0.3297;0.7186;
700.8000;0.3305;0.7211;
701.1000;0.3289;0.7112;
701.4000;0.3297;0.7037;
701.7000;0.3297;0.6963;
702.0000;0.3297;0.6987;
702.3000;0.3280;0.6963;
702.6000;0.3337;0.7236;
702.9000;0.3313;0.7211;
703.2000;0.3329;0.7161;
703.5000;0.3362;0.7311;
703.8000;0.3305;0.7261;
704.1000;0.3289;0.7186;
704.4000;0.3280;0.7236;
704.7000;0.3264;0.7261;
705.0000;0.3280;0.7211;
705.3000;0.3289;0.7261;
705.6000;0.3256;0.7137;
705.9000;0.3289;0.7236;
706.2000;0.3256;0.7186;
706.5000;0.3248;0.7137;
706.8000;0.3264;0.7137;
707.1000;0.3297;0.7211;
707.4000;0.3280;0.7236;
707.7000;0.3280;0.7186;
708.0000;0.3280;0.7236;
708.3000;0.3280;0.7211;
708.6000;0.3297;0.7261;
708.9000;0.3313;0.7311;
709.2000;0.3272;0.7236;
709.5000;0.3256;0.7236;
709.8000;0.3240;0.7087;
710.1000;0.3264;0.7112;
710.4000;0.3297;0.7161;
710.7000;0.3207;0.7037;
711.0000;0.3264;0.7186;
711.3000;0.3289;0.7186;
711.6000;0.3297;0.7236;
711.9000;0.3289;0.7211;
712.2000;0.3272;0.7236;
712.5000;0.3280;0.7112;
712.8000;0.3280;0.7012;
713.1000;0.3248;0.7012;
713.4000;0.3289;0.7087;
713.7000;0.3272;0.7112;
714.0000;0.3289;0.7161;
714.3000;0.3215;0.7037;
714.6000;0.3272;0.7211;
714.9000;0.3280;0.7211;
715.2000;0.3264;0.7211;
715.5000;0.3215;0.7137;
715.8000;0.3280;0.7311;
716.1000;0.3264;0.7261;
716.4000;0.3297;0.7261;
716.7000;0.3289;0.7186;
717.0000;0.3264;0.7186;
717.3000;0.3280;0.7211;
717.6000;0.3272;0.7236;
717.9000;0.3272;0.7186;
718.2000;0.3256;0.7137;
718.5000;0.3321;0.7311;
718.8000;0.3264;0.7186;
719.1000;0.3280;0.7186;
719.4000;0.3362;0.7311;
719.7000;0.3289;0.7186;
720.0000;0.3280;0.7261;
720.3000;0.3272;0.7236;
720.6000;0.3264;0.7335;
720.9000;0.3240;0.7335;
721.2000;0.3272;0.7385;
721.5000;0.3289;0.7360;
721.8000;0.3272;0.7360;
722.1000;0.3264;0.7286;
722.4000;0.3297;0.7385;
722.7000;0.3264;0.7236;
723.0000;0.3264;0.7161;
723.3000;0.3264;0.7137;
723.6000;0.3199;0.7012;
723.9000;0.3289;0.7186;
724.2000;0.3248;0.7161;
724.5000;0.3264;0.7087;
724.8000;0.3289;0.7161;
725.1000;0.3264;0.7186;
725.4000;0.3272;0.7236;
725.7000;0.3248;0.7186;
726.0000;0.3305;0.7360;
726.3000;0.3280;0.7286;
726.6000;0.3362;0.7510;
726.9000;0.3264;0.7261;
727.2000;0.3256;0.7335;
727.5000;0.3280;0.7385;
727.8000;0.3289;0.7335;
728.1000;0.3256;0.7186;
728.4000;0.3256;0.7211;
728.7000;0.3248;0.7186;
729.0000;0.3256;0.7186;
729.3000;0.3256;0.7311;
729.6000;0.3329;0.7385;
729.9000;0.3264;0.7286;
730.2000;0.3280;0.7286;
730.5000;0.3280;0.7385;
730.8000;0.3272;0.7335;
731.1000;0.3264;0.7360;
731.4000;0.3272;0.7311;
731.7000;0.3264;0.7261;
732.0000;0.3256;0.7161;
732.3000;0.3264;0.7261;
732.6000;0.3264;0.7186;
732.9000;0.3248;0.7161;
733.2000;0.3264;0.7186;
733.5000;0.3264;0.7161;
733.8000;0.3256;0.7137;
734.1000;0.3248;0.7112;
734.4000;0.3256;0.7211;
734.7000;0.3272;0.7286;
735.0000;0.3272;0.7236;
735.3000;0.3240;0.7186;
735.6000;0.3264;0.7261;
735.9000;0.3256;0.7186;
736.2000;0.3256;0.7261;
736.5000;0.3223;0.7161;
736.8000;0.3248;0.7261;
737.1000;0.3264;0.7261;
737.4000;0.3272;0.7261;
737.7000;0.3248;0.7186;
738.0000;0.3240;0.7161;
738.3000;0.3248;0.7211;
738.6000;0.3207;0.7137;
738.9000;0.3272;0.7186;
739.2000;0.3248;0.7137;
739.5000;0.3256;0.7137;
739.8000;0.3248;0.7161;
740.1000;0.3248;0.7186;
740.4000;0.3256;0.7261;
740.7000;0.3248;0.7311;
741.0000;0.3256;0.7360;
741.3000;0.3232;0.7335;
741.6000;0.3232;0.7186;
741.9000;0.3256;0.7186;
742.2000;0.3256;0.7236;
742.5000;0.3256;0.7186;
742.8000;0.3264;0.7286;
743.1000;0.3272;0.7286;
743.4000;0.3232;0.7261;
743.7000;0.3248;0.7236;
744.0000;0.3240;0.7236;
744.3000;0.3240;0.7236;
744.6000;0.3264;0.7311;
744.9000;0.3280;0.7360;
745.2000;0.3256;0.7335;
745.5000;0.3264;0.7360;
745.8000;0.3264;0.7360;
746.1000;0.3215;0.7236;
746.4000;0.3264;0.7261;
746.7000;0.3240;0.7137;
747.0000;0.3256;0.7161;
747.3000;0.3256;0.7062;
747.6000;0.3337;0.7335;
747.9000;0.3248;0.6987;
748.2000;0.3289;0.7186;
748.5000;0.3240;0.7037;
748.8000;0.3248;0.7087;
749.1000;0.3232;0.7137;
749.4000;0.3223;0.7112;
749.7000;0.3272;0.7236;
750.0000;0.3248;0.7211;
750.3000;0.3232;0.7186;
750.6000;0.3248;0.7261;
750.9000;0.3256;0.7211;
751.2000;0.3256;0.7211;
751.5000;0.3240;0.7186;
751.8000;0.3248;0.7211;
752.1000;0.3248;0.7211;
752.4000;0.3248;0.7087;
752.7000;0.3240;0.7112;
753.0000;0.3240;0.7137;
753.3000;0.3223;0.7112;
753.6000;0.3256;0.7311;
753.9000;0.3232;0.7286;
754.2000;0.3240;0.7286;
754.5000;0.3215;0.7186;
754.8000;0.3240;0.7261;
755.1000;0.3264;0.7286;
755.4000;0.3240;0.7311;
755.7000;0.3248;0.7311;
756.0000;0.3248;0.7335;
756.3000;0.3264;0.7460;
756.6000;0.3240;0.7360;
756.9000;0.3354;0.7634;
757.2000;0.3264;0.7460;
757.5000;0.3215;0.7261;
757.8000;0.3248;0.7335;
758.1000;0.3232;0.7335;
758.4000;0.3191;0.7161;
758.7000;0.3248;0.7360;
759.0000;0.3297;0.7510;
759.3000;0.3256;0.7410;
759.6000;0.3215;0.7286;
759.9000;0.3240;0.7286;
760.2000;0.3232;0.7385;
760.5000;0.3248;0.7485;
760.8000;0.3223;0.7460;
761.1000;0.3232;0.7385;
761.4000;0.3240;0.7410;
761.7000;0.3248;0.7435;
762.0000;0.3240;0.7360;
762.3000;0.3215;0.7385;
762.6000;0.3256;0.7385;
762.9000;0.3248;0.7311;
763.2000;0.3223;0.7211;
763.5000;0.3199;0.7186;
763.8000;0.3232;0.7311;
764.1000;0.3240;0.7335;
764.4000;0.3248;0.7286;
764.7000;0.3232;0.7286;
765.0000;0.3232;0.7186;
765.3000;0.3232;0.7161;
765.6000;0.3256;0.7161;
765.9000;0.3248;0.7087;
766.2000;0.3240;0.7137;
766.5000;0.3232;0.7062;
766.8000;0.3248;0.7137;
767.1000;0.3248;0.7112;
767.4000;0.3240;0.7087;
767.7000;0.3232;0.7037;
768.0000;0.3248;0.7211;
768.3000;0.3232;0.7137;
768.6000;0.3207;0.7186;
768.9000;0.3215;0.7211;
769.2000;0.3223;0.7286;
769.5000;0.3232;0.7286;
769.8000;0.3215;0.7236;
770.1000;0.3232;0.7286;
770.4000;0.3248;0.7360;
770.7000;0.3321;0.7659;
771.0000;0.3232;0.7460;
771.3000;0.3240;0.7460;
771.6000;0.3248;0.7510;
771.9000;0.3248;0.7485;
772.2000;0.3248;0.7534;
772.5000;0.3215;0.7311;
772.8000;0.3199;0.7385;
773.1000;0.3150;0.7261;
773.4000;0.3199;0.7335;
773.7000;0.3223;0.7385;
774.0000;0.3223;0.7385;
774.3000;0.3264;0.7410;
774.6000;0.3223;0.7335;
774.9000;0.3232;0.7311;
775.2000;0.3223;0.7385;
775.5000;0.3232;0.7385;
775.8000;0.3240;0.7360;
776.1000;0.3142;0.7137;
776.4000;0.3240;0.7311;
776.7000;0.3248;0.7311;
777.0000;0.3215;0.7186;
777.3000;0.3232;0.7261;
777.6000;0.3215;0.7137;
777.9000;0.3256;0.7137;
778.2000;0.3232;0.6963;
778.5000;0.3215;0.6863;
778.8000;0.3191;0.6764;
779.1000;0.3256;0.6913;
779.4000;0.3256;0.6888;
779.7000;0.3207;0.6888;
780.0000;0.3215;0.6987;
780.3000;0.3215;0.6963;
780.6000;0.3240;0.6987;
780.9000;0.3207;0.6888;
781.2000;0.3232;0.6863;
781.5000;0.3183;0.6863;
781.8000;0.3223;0.7062;
782.1000;0.3223;0.7161;
782.4000;0.3215;0.7211;
782.7000;0.3240;0.7335;
783.0000;0.3248;0.7360;
783.3000;0.3240;0.7286;
783.6000;0.3215;0.7311;
783.9000;0.3223;0.7335;
784.2000;0.3199;0.7311;
784.5000;0.3199;0.7261;
784.8000;0.3223;0.7261;
785.1000;0.3207;0.7137;
785.4000;0.3232;0.7236;
785.7000;0.3223;0.7236;
786.0000;0.3223;0.7211;
786.3000;0.3232;0.7335;
786.6000;0.3240;0.7335;
786.9000;0.3223;0.7311;
787.2000;0.3223;0.7360;
787.5000;0.3240;0.7311;
787.8000;0.3232;0.7186;
788.1000;0.3215;0.7137;
788.4000;0.3166;0.7012;
788.7000;0.3248;0.7112;
789.0000;0.3215;0.7161;
789.3000;0.3223;0.7311;
789.6000;0.3289;0.7485;
789.9000;0.3256;0.7335;
790.2000;0.3183;0.7236;
790.5000;0.3232;0.7311;
790.8000;0.3248;0.7311;
791.1000;0.3199;0.7261;
791.4000;0.3215;0.7286;
791.7000;0.3215;0.7161;
792.0000;0.3207;0.7211;
792.3000;0.3223;0.7211;
792.6000;0.3223;0.7261;
792.9000;0.3232;0.7261;
793.2000;0.3223;0.7286;
793.5000;0.3175;0.7137;
793.8000;0.3223;0.7161;
794.1000;0.3207;0.7112;
794.4000;0.3191;0.7087;
794.7000;0.3223;0.7211;
795.0000;0.3215;0.7161;
795.3000;0.3207;0.7186;
795.6000;0.3232;0.7211;
795.9000;0.3232;0.7261;
796.2000;0.3199;0.7261;
796.5000;0.3232;0.7385;
796.8000;0.3223;0.7335;
797.1000;0.3158;0.7186;
797.4000;0.3191;0.7286;
797.7000;0.3199;0.7261;
798.0000;0.3223;0.7311;
798.3000;0.3223;0.7286;
798.6000;0.3207;0.7311;
798.9000;0.3232;0.7335;
799.2000;0.3207;0.7211;
799.5000;0.3223;0.7236;
799.8000;0.3215;0.7161;
800.1000;0.3232;0.7186;
800.4000;0.3223;0.7360;
800.7000;0.3223;0.7385;
801.0000;0.3207;0.7385;
801.3000;0.3215;0.7410;
801.6000;0.3199;0.7385;
801.9000;0.3215;0.7385;
802.2000;0.3232;0.7385;
802.5000;0.3215;0.7286;
802.8000;0.3207;0.7360;
803.1000;0.3215;0.7460;
803.4000;0.3215;0.7460;
803.7000;0.3215;0.7360;
804.0000;0.3207;0.7261;
804.3000;0.3207;0.7186;
804.6000;0.3223;0.7335;
804.9000;0.3215;0.7286;
805.2000;0.3191;0.7311;
805.5000;0.3215;0.7311;
805.8000;0.3142;0.7087;
806.1000;0.3199;0.7286;
806.4000;0.3199;0.7286;
806.7000;0.3207;0.7435;
807.0000;0.3118;0.7211;
807.3000;0.3199;0.7460;
807.6000;0.3207;0.7460;
807.9000;0.3207;0.7385;
808.2000;0.3223;0.7360;
808.5000;0.3280;0.7410;
808.8000;0.3207;0.7211;
809.1000;0.3199;0.7261;
809.4000;0.3215;0.7286;
809.7000;0.3199;0.7410;
810.0000;0.3207;0.7410;
810.3000;0.3207;0.7335;
810.6000;0.3199;0.7286;
810.9000;0.3207;0.7261;
811.2000;0.3232;0.7236;
811.5000;0.3223;0.7261;
811.8000;0.3191;0.7211;
812.1000;0.3232;0.7286;
812.4000;0.3215;0.7311;
812.7000;0.3215;0.7335;
813.0000;0.3191;0.7261;
813.3000;0.3207;0.7286;
813.6000;0.3207;0.7236;
813.9000;0.3215;0.7261;
814.2000;0.3183;0.7236;
814.5000;0.3207;0.7385;
814.8000;0.3223;0.7335;
815.1000;0.3207;0.7286;
815.4000;0.3215;0.7311;
815.7000;0.3223;0.7435;
816.0000;0.3215;0.7485;
816.3000;0.3215;0.7435;
816.6000;0.3215;0.7360;
816.9000;0.3215;0.7311;
817.2000;0.3207;0.7286;
817.5000;0.3207;0.7311;
817.8000;0.3199;0.7186;
818.1000;0.3199;0.7286;
818.4000;0.3232;0.7335;
818.7000;0.3207;0.7335;
819.0000;0.3191;0.7360;
819.3000;0.3215;0.7410;
819.6000;0.3166;0.7335;
819.9000;0.3199;0.7435;
820.2000;0.3207;0.7410;
820.5000;0.3175;0.7286;
820.8000;0.3183;0.7236;
821.1000;0.3199;0.7385;
821.4000;0.3240;0.7385;
821.7000;0.3207;0.7261;
822.0000;0.3223;0.7335;
822.3000;0.3223;0.7435;
822.6000;0.3215;0.7385;
822.9000;0.3207;0.7311;
823.2000;0.3223;0.7360;
823.5000;0.3207;0.7311;
823.8000;0.3215;0.7335;
824.1000;0.3191;0.7385;
824.4000;0.3199;0.7335;
824.7000;0.3215;0.7385;
825.0000;0.3207;0.7236;
825.3000;0.3199;0.7261;
825.6000;0.3207;0.7261;
825.9000;0.3199;0.7211;
826.2000;0.3191;0.7112;
826.5000;0.3215;0.7236;
826.8000;0.3207;0.7186;
827.1000;0.3256;0.7311;
827.4000;0.3215;0.7236;
827.7000;0.3191;0.7261;
828.0000;0.3199;0.7286;
828.3000;0.3223;0.7385;
828.6000;0.3207;0.7335;
828.9000;0.3175;0.7236;
829.2000;0.3191;0.7261;
829.5000;0.3175;0.7236;
829.8000;0.3183;0.7186;
830.1000;0.3256;0.7385;
830.4000;0.3199;0.7186;
830.7000;0.3199;0.7236;
831.0000;0.3232;0.7311;
831.3000;0.3207;0.7236;
831.6000;0.3207;0.7211;
831.9000;0.3207;0.7236;
832.2000;0.3215;0.7261;
832.5000;0.3223;0.7236;
832.8000;0.3199;0.7236;
833.1000;0.3134;0.7037;
833.4000;0.3207;0.7236;
833.7000;0.3215;0.7211;
834.0000;0.3207;0.7261;
834.3000;0.3191;0.7161;
834.6000;0.3166;0.7062;
834.9000;0.3207;0.7112;
835.2000;0.3207;0.7062;
835.5000;0.3166;0.6913;
835.8000;0.3199;0.7137;
836.1000;0.3215;0.7211;
836.4000;0.3223;0.7236;
836.7000;0.3215;0.7236;
837.0000;0.3207;0.7286;
837.3000;0.3199;0.7236;
837.6000;0.3215;0.7286;
837.9000;0.3191;0.7311;
838.2000;0.3223;0.7435;
838.5000;0.3223;0.7435;
838.8000;0.3215;0.7435;
839.1000;0.3232;0.7460;
839.4000;0.3207;0.7335;
839.7000;0.3215;0.7335;
840.0000;0.3183;0.7261;
840.3000;0.3175;0.7286;
840.6000;0.3256;0.7435;
840.9000;0.3199;0.7236;
841.2000;0.3240;0.7286;
841.5000;0.3207;0.7186;
841.8000;0.3207;0.7186;
842.1000;0.3199;0.7261;
842.4000;0.3199;0.7211;
842.7000;0.3183;0.7112;
843.0000;0.3199;0.7161;
843.3000;0.3134;0.7037;
843.6000;0.3207;0.7186;
843.9000;0.3215;0.7137;
844.2000;0.3191;0.6963;
844.5000;0.3199;0.7062;
844.8000;0.3191;0.7037;
845.1000;0.3183;0.7112;
845.4000;0.3175;0.7112;
845.7000;0.3191;0.7161;
846.0000;0.3223;0.7236;
846.3000;0.3199;0.7186;
846.6000;0.3215;0.7261;
846.9000;0.3199;0.7261;
847.2000;0.3191;0.7186;
847.5000;0.3207;0.7186;
847.8000;0.3199;0.7186;
848.1000;0.3199;0.7087;
848.4000;0.3199;0.7186;
848.7000;0.3191;0.7261;
849.0000;0.3215;0.7286;
849.3000;0.3191;0.7261;
849.6000;0.3166;0.7161;
849.9000;0.3134;0.7087;
850.2000;0.3142;0.7112;
850.5000;0.3207;0.7211;
850.8000;0.3191;0.7236;
851.1000;0.3207;0.7335;
851.4000;0.3207;0.7335;
851.7000;0.3223;0.7311;
852.0000;0.3240;0.7286;
852.3000;0.3215;0.7286;
852.6000;0.3199;0.7360;
852.9000;0.3199;0.7335;
853.2000;0.3191;0.7335;
853.5000;0.3175;0.7211;
853.8000;0.3191;0.7236;
854.1000;0.3199;0.7186;
854.4000;0.3232;0.7286;
854.7000;0.3199;0.7360;
855.0000;0.3199;0.7410;
855.3000;0.3158;0.7286;
855.6000;0.3183;0.7460;
855.9000;0.3199;0.7510;
856.2000;0.3215;0.7485;
856.5000;0.3207;0.7510;
856.8000;0.3199;0.7460;
857.1000;0.3199;0.7460;
857.4000;0.3199;0.7385;
857.7000;0.3280;0.7534;
858.0000;0.3191;0.7335;
858.3000;0.3191;0.7360;
858.6000;0.3191;0.7410;
858.9000;0.3175;0.7410;
859.2000;0.3199;0.7460;
859.5000;0.3232;0.7559;
859.8000;0.3199;0.7360;
860.1000;0.3207;0.7435;
860.4000;0.3215;0.7410;
860.7000;0.3207;0.7435;
861.0000;0.3207;0.7485;
861.3000;0.3199;0.7460;
861.6000;0.3134;0.7286;
861.9000;0.3223;0.7534;
862.2000;0.3191;0.7559;
862.5000;0.3207;0.7634;
862.8000;0.3199;0.7634;
863.1000;0.3175;0.7584;
863.4000;0.3207;0.7609;
863.7000;0.3207;0.7559;
864.0000;0.3199;0.7485;
864.3000;0.3207;0.7485;
864.6000;0.3199;0.7510;
864.9000;0.3264;0.7609;
865.2000;0.3199;0.7460;
865.5000;0.3207;0.7609;
865.8000;0.3199;0.7659;
866.1000;0.3183;0.7559;
866.4000;0.3158;0.7559;
866.7000;0.3199;0.7659;
867.0000;0.3175;0.7609;
867.3000;0.3166;0.7634;
867.6000;0.3191;0.7684;
867.9000;0.3183;0.7609;
868.2000;0.3199;0.7584;
868.5000;0.3166;0.7584;
868.8000;0.3199;0.7584;
869.1000;0.3191;0.7634;
869.4000;0.3191;0.7684;
869.7000;0.3199;0.7733;
870.0000;0.3199;0.7733;
870.3000;0.3207;0.7684;
870.6000;0.3223;0.7584;
870.9000;0.3207;0.7559;
871.2000;0.3183;0.7584;
871.5000;0.3199;0.7559;
871.8000;0.3109;0.7261;
872.1000;0.3199;0.7534;
872.4000;0.3191;0.7385;
872.7000;0.3199;0.7311;
873.0000;0.3183;0.7286;
873.3000;0.3199;0.7335;
873.6000;0.3175;0.7261;
873.9000;0.3183;0.7335;
874.2000;0.3199;0.7410;
874.5000;0.3199;0.7485;
874.8000;0.3199;0.7559;
875.1000;0.3183;0.7460;
875.4000;0.3175;0.7435;
875.7000;0.3215;0.7534;
876.0000;0.3207;0.7510;
876.3000;0.3191;0.7335;
876.6000;0.3199;0.7311;
876.9000;0.3183;0.7236;
877.2000;0.3191;0.7311;
877.5000;0.3126;0.7211;
877.8000;0.3183;0.7360;
878.1000;0.3199;0.7460;
878.4000;0.3191;0.7410;
878.7000;0.3175;0.7385;
879.0000;0.3166;0.7385;
879.3000;0.3215;0.7609;
879.6000;0.3191;0.7534;
879.9000;0.3166;0.7435;
880.2000;0.3199;0.7609;
880.5000;0.3191;0.7534;
880.8000;0.3232;0.7659;
881.1000;0.3199;0.7534;
881.4000;0.3199;0.7435;
881.7000;0.3175;0.7460;
882.0000;0.3199;0.7460;
882.3000;0.3191;0.7460;
882.6000;0.3272;0.7659;
882.9000;0.3248;0.7609;
883.2000;0.3183;0.7485;
883.5000;0.3215;0.7485;
883.8000;0.3207;0.7460;
884.1000;0.3191;0.7385;
884.4000;0.3191;0.7510;
884.7000;0.3199;0.7534;
885.0000;0.3199;0.7510;
885.3000;0.3191;0.7534;
885.6000;0.3175;0.7584;
885.9000;0.3215;0.7609;
886.2000;0.3183;0.7435;
886.5000;0.3175;0.7435;
886.8000;0.3223;0.7534;
887.1000;0.3199;0.7510;
887.4000;0.3175;0.7410;
887.7000;0.3215;0.7460;
888.0000;0.3166;0.7410;
888.3000;0.3199;0.7510;
888.6000;0.3191;0.7510;
888.9000;0.3232;0.7609;
889.2000;0.3199;0.7485;
889.5000;0.3191;0.7485;
889.8000;0.3191;0.7485;
890.1000;0.3183;0.7559;
890.4000;0.3175;0.7559;
890.7000;0.3199;0.7559;
891.0000;0.3207;0.7510;
891.3000;0.3191;0.7360;
891.6000;0.3183;0.7435;
891.9000;0.3183;0.7534;
892.2000;0.3191;0.7485;
892.5000;0.3166;0.7435;
892.8000;0.3183;0.7510;
893.1000;0.3175;0.7609;
893.4000;0.3199;0.7634;
893.7000;0.3191;0.7534;
894.0000;0.3207;0.7510;
894.3000;0.3191;0.7485;
894.6000;0.3199;0.7410;
894.9000;0.3199;0.7311;
895.2000;0.3199;0.7261;
895.5000;0.3199;0.7360;
895.8000;0.3207;0.7410;
896.1000;0.3223;0.7534;
896.4000;0.3215;0.7485;
896.7000;0.3183;0.7485;
897.0000;0.3223;0.7584;
897.3000;0.3191;0.7534;
897.6000;0.3207;0.7460;
897.9000;0.3175;0.7410;
898.2000;0.3207;0.7510;
898.5000;0.3183;0.7510;
898.8000;0.3191;0.7510;
899.1000;0.3158;0.7460;
899.4000;0.3207;0.7485;
899.7000;0.3183;0.7311;
900.0000;0.3183;0.7311;
900.3000;0.3175;0.7261;
900.6000;0.3199;0.7385;
900.9000;0.3175;0.7410;
901.2000;0.3175;0.7485;
901.5000;0.3199;0.7559;
901.8000;0.3183;0.7460;
902.1000;0.3183;0.7435;
902.4000;0.3215;0.7410;
902.7000;0.3199;0.7460;
903.0000;0.3142;0.7385;
903.3000;0.3166;0.7460;
903.6000;0.3175;0.7510;
903.9000;0.3158;0.7634;
904.2000;0.3175;0.7708;
904.5000;0.3175;0.7733;
904.8000;0.3142;0.7634;
905.1000;0.3166;0.7659;
905.4000;0.3183;0.7559;
905.7000;0.3199;0.7510;
906.0000;0.3199;0.7510;
906.3000;0.3199;0.7510;
906.6000;0.3183;0.7460;
906.9000;0.3215;0.7510;
907.2000;0.3199;0.7460;
907.5000;0.3199;0.7485;
907.8000;0.3264;0.7708;
908.1000;0.3199;0.7510;
908.4000;0.3183;0.7510;
908.7000;0.3199;0.7634;
909.0000;0.3191;0.7584;
909.3000;0.3191;0.7534;
909.6000;0.3175;0.7410;
909.9000;0.3183;0.7559;
910.2000;0.3183;0.7534;
910.5000;0.3191;0.7510;
910.8000;0.3158;0.7460;
911.1000;0.3191;0.7485;
911.4000;0.3207;0.7559;
911.7000;0.3150;0.7559;
912.0000;0.3215;0.7733;
912.3000;0.3199;0.7684;
912.6000;0.3207;0.7684;
912.9000;0.3191;0.7559;
913.2000;0.3207;0.7510;
913.5000;0.3183;0.7510;
913.8000;0.3191;0.7534;
914.1000;0.3191;0.7584;
914.4000;0.3166;0.7534;
914.7000;0.3191;0.7534;
915.0000;0.3175;0.7485;
915.3000;0.3191;0.7385;
915.6000;0.3175;0.7385;
915.9000;0.3199;0.7435;
916.2000;0.3175;0.7410;
916.5000;0.3191;0.7460;
916.8000;0.3183;0.7435;
917.1000;0.3199;0.7559;
917.4000;0.3183;0.7510;
917.7000;0.3207;0.7609;
918.0000;0.3166;0.7559;
918.3000;0.3175;0.7485;
918.6000;0.3183;0.7410;
918.9000;0.3191;0.7335;
919.2000;0.3191;0.7311;
919.5000;0.3191;0.7286;
919.8000;0.3232;0.7435;
920.1000;0.3175;0.7286;
920.4000;0.3199;0.7335;
920.7000;0.3199;0.7410;
921.0000;0.3191;0.7435;
921.3000;0.3232;0.7510;
921.6000;0.3240;0.7510;
921.9000;0.3199;0.7410;
922.2000;0.3150;0.7335;
922.5000;0.3207;0.7510;
922.8000;0.3175;0.7385;
923.1000;0.3183;0.7311;
923.4000;0.3166;0.7211;
923.7000;0.3166;0.7211;
924.0000;0.3150;0.7186;
924.3000;0.3175;0.7311;
924.6000;0.3166;0.7261;
924.9000;0.3175;0.7286;
925.2000;0.3199;0.7311;
925.5000;0.3199;0.7335;
925.8000;0.3191;0.7311;
926.1000;0.3199;0.7410;
926.4000;0.3199;0.7460;
926.7000;0.3134;0.7261;
927.0000;0.3191;0.7410;
927.3000;0.3175;0.7385;
927.6000;0.3199;0.7435;
927.9000;0.3232;0.7460;
928.2000;0.3166;0.7311;
928.5000;0.3126;0.7286;
928.8000;0.3150;0.7311;
929.1000;0.3175;0.7360;
929.4000;0.3215;0.7485;
929.7000;0.3166;0.7360;
930.0000;0.3175;0.7435;
930.3000;0.3191;0.7410;
930.6000;0.3158;0.7311;
930.9000;0.3191;0.7410;
931.2000;0.3183;0.7385;
931.5000;0.3183;0.7385;
931.8000;0.3183;0.7460;
932.1000;0.3166;0.7385;
932.4000;0.3150;0.7385;
932.7000;0.3175;0.7435;
933.0000;0.3183;0.7385;
933.3000;0.3175;0.7385;
933.6000;0.3183;0.7410;
933.9000;0.3166;0.7385;
934.2000;0.3166;0.7360;
934.5000;0.3232;0.7510;
934.8000;0.3175;0.7460;
935.1000;0.3215;0.7460;
935.4000;0.3223;0.7435;
935.7000;0.3142;0.7236;
936.0000;0.3183;0.7410;
936.3000;0.3175;0.7435;
936.6000;0.3191;0.7510;
936.9000;0.3191;0.7485;
937.2000;0.3166;0.7435;
937.5000;0.3215;0.7435;
937.8000;0.3191;0.7435;
938.1000;0.3175;0.7460;
938.4000;0.3199;0.7435;
938.7000;0.3199;0.7460;
939.0000;0.3166;0.7261;
939.3000;0.3199;0.7211;
939.6000;0.3175;0.7112;
939.9000;0.3183;0.7186;
940.2000;0.3199;0.7286;
940.5000;0.3207;0.7460;
940.8000;0.3166;0.7311;
941.1000;0.3166;0.7311;
941.4000;0.3199;0.7335;
941.7000;0.3191;0.7385;
942.0000;0.3191;0.7385;
942.3000;0.3183;0.7311;
942.6000;0.3175;0.7311;
942.9000;0.3207;0.7460;
943.2000;0.3191;0.7410;
943.5000;0.3166;0.7485;
943.8000;0.3183;0.7460;
944.1000;0.3215;0.7510;
944.4000;0.3199;0.7485;
944.7000;0.3175;0.7410;
945.0000;0.3199;0.7485;
945.3000;0.3199;0.7534;
945.6000;0.3215;0.7559;
945.9000;0.3183;0.7559;
946.2000;0.3199;0.7634;
946.5000;0.3183;0.7534;
946.8000;0.3183;0.7534;
947.1000;0.3191;0.7534;
947.4000;0.3142;0.7485;
947.7000;0.3183;0.7485;
948.0000;0.3256;0.7659;
948.3000;0.3215;0.7584;
948.6000;0.3166;0.7534;
948.9000;0.3166;0.7634;
949.2000;0.3142;0.7559;
949.5000;0.3183;0.7634;
949.8000;0.3142;0.7559;
950.1000;0.3166;0.7510;
950.4000;0.3215;0.7559;
950.7000;0.3199;0.7510;
951.0000;0.3191;0.7485;
951.3000;0.3175;0.7510;
951.6000;0.3158;0.7435;
951.9000;0.3166;0.7485;
952.2000;0.3175;0.7534;
952.5000;0.3158;0.7559;
952.8000;0.3183;0.7559;
953.1000;0.3142;0.7485;
953.4000;0.3175;0.7534;
953.7000;0.3158;0.7534;
954.0000;0.3183;0.7634;
954.3000;0.3183;0.7584;
954.6000;0.3183;0.7510;
954.9000;0.3166;0.7460;
955.2000;0.3191;0.7510;
955.5000;0.3191;0.7410;
955.8000;0.3191;0.7460;
956.1000;0.3183;0.7510;
956.4000;0.3199;0.7485;
956.7000;0.3150;0.7360;
957.0000;0.3150;0.7335;
957.3000;0.3166;0.7385;
957.6000;0.3248;0.7609;
957.9000;0.3158;0.7460;
958.2000;0.3256;0.7708;
958.5000;0.3175;0.7435;
958.8000;0.3175;0.7410;
959.1000;0.3150;0.7460;
959.4000;0.3150;0.7435;
959.7000;0.3150;0.7510;
960.0000;0.3158;0.7559;
960.3000;0.3150;0.7435;
960.6000;0.3158;0.7460;
960.9000;0.3077;0.7236;
961.2000;0.3150;0.7460;
961.5000;0.3158;0.7510;
961.8000;0.3142;0.7435;
962.1000;0.3158;0.7435;
962.4000;0.3199;0.7510;
962.7000;0.3158;0.7435;
963.0000;0.3166;0.7460;
963.3000;0.3166;0.7410;
963.6000;0.3175;0.7460;
963.9000;0.3207;0.7534;
964.2000;0.3191;0.7510;
964.5000;0.3175;0.7460;
964.8000;0.3183;0.7460;
965.1000;0.3166;0.7534;
965.4000;0.3166;0.7609;
965.7000;0.3175;0.7684;
966.0000;0.3183;0.7708;
966.3000;0.3183;0.7708;
966.6000;0.3191;0.7708;
966.9000;0.3183;0.7708;
967.2000;0.3191;0.7659;
967.5000;0.3199;0.7510;
967.8000;0.3175;0.7460;
968.1000;0.3183;0.7534;
968.4000;0.3175;0.7584;
968.7000;0.3191;0.7684;
969.0000;0.3166;0.7708;
969.3000;0.3158;0.7684;
969.6000;0.3175;0.7684;
969.9000;0.3199;0.7634;
970.2000;0.3166;0.7584;
970.5000;0.3158;0.7510;
970.8000;0.3175;0.7584;
971.1000;0.3199;0.7659;
971.4000;0.3191;0.7684;
971.7000;0.3215;0.7708;
972.0000;0.3175;0.7634;
972.3000;0.3118;0.7485;
972.6000;0.3183;0.7609;
972.9000;0.3166;0.7510;
973.2000;0.3166;0.7460;
973.5000;0.3175;0.7360;
973.8000;0.3183;0.7460;
974.1000;0.3166;0.7410;
974.4000;0.3126;0.7261;
974.7000;0.3085;0.7286;
975.0000;0.3175;0.7534;
975.3000;0.3166;0.7510;
975.6000;0.3166;0.7485;
975.9000;0.3166;0.7510;
976.2000;0.3175;0.7510;
976.5000;0.3175;0.7435;
976.8000;0.3191;0.7460;
977.1000;0.3166;0.7360;
977.4000;0.3191;0.7485;
977.7000;0.3183;0.7460;
978.0000;0.3175;0.7485;
978.3000;0.3191;0.7485;
978.6000;0.3175;0.7410;
978.9000;0.3207;0.7460;
979.2000;0.3175;0.7311;
979.5000;0.3183;0.7360;
979.8000;0.3158;0.7360;
980.1000;0.3183;0.7460;
980.4000;0.3142;0.7435;
980.7000;0.3191;0.7534;
981.0000;0.3183;0.7559;
981.3000;0.3191;0.7559;
981.6000;0.3166;0.7435;
981.9000;0.3134;0.7335;
982.2000;0.3199;0.7534;
982.5000;0.3183;0.7510;
982.8000;0.3166;0.7534;
983.1000;0.3158;0.7559;
983.4000;0.3150;0.7609;
983.7000;0.3166;0.7559;
984.0000;0.3158;0.7534;
984.3000;0.3158;0.7534;
984.6000;0.3183;0.7559;
984.9000;0.3175;0.7460;
985.2000;0.3183;0.7460;
985.5000;0.3175;0.7460;
985.8000;0.3191;0.7559;
986.1000;0.3183;0.7534;
986.4000;0.3183;0.7534;
986.7000;0.3175;0.7510;
987.0000;0.3183;0.7584;
987.3000;0.3166;0.7609;
987.6000;0.3166;0.7584;
987.9000;0.3175;0.7659;
988.2000;0.3166;0.7659;
988.5000;0.3158;0.7609;
988.8000;0.3191;0.7708;
989.1000;0.3175;0.7609;
989.4000;0.3093;0.7385;
989.7000;0.3166;0.7534;
990.0000;0.3175;0.7534;
990.3000;0.3166;0.7485;
990.6000;0.3183;0.7609;
990.9000;0.3183;0.7684;
991.2000;0.3166;0.7659;
991.5000;0.3183;0.7634;
991.8000;0.3175;0.7609;
992.1000;0.3191;0.7584;
992.4000;0.3118;0.7385;
992.7000;0.3183;0.7485;
993.0000;0.3191;0.7485;
993.3000;0.3150;0.7335;
993.6000;0.3166;0.7410;
993.9000;0.3166;0.7335;
994.2000;0.3175;0.7410;
994.5000;0.3240;0.7559;
994.8000;0.3158;0.7485;
995.1000;0.3175;0.7534;
995.4000;0.3175;0.7584;
995.7000;0.3183;0.7659;
996.0000;0.3166;0.7659;
996.3000;0.3183;0.7684;
996.6000;0.3175;0.7584;
996.9000;0.3166;0.7609;
997.2000;0.3150;0.7534;
997.5000;0.3158;0.7510;
997.8000;0.3175;0.7584;
998.1000;0.3175;0.7609;
998.4000;0.3158;0.7559;
998.7000;0.3158;0.7485;
999.0000;0.3256;0.7733;
999.3000;0.3150;0.7559;
999.6000;0.3126;0.7385;
999.9000;0.3215;0.7708;
1000.2000;0.3166;0.7534;
1000.5000;0.3183;0.7485;
1000.8000;0.3175;0.7485;
1001.1000;0.3183;0.7460;
1001.4000;0.3183;0.7485;
1001.7000;0.3175;0.7460;
1002.0000;0.3183;0.7559;
1002.3000;0.3191;0.7559;
1002.6000;0.3183;0.7534;
1002.9000;0.3191;0.7534;
1003.2000;0.3199;0.7559;
1003.5000;0.3166;0.7485;
1003.8000;0.3199;0.7559;
1004.1000;0.3199;0.7584;
1004.4000;0.3191;0.7659;
1004.7000;0.3191;0.7609;
1005.0000;0.3183;0.7559;
1005.3000;0.3183;0.7559;
1005.6000;0.3207;0.7584;
1005.9000;0.3175;0.7485;
1006.2000;0.3166;0.7485;
1006.5000;0.3183;0.7559;
1006.8000;0.3207;0.7559;
1007.1000;0.3199;0.7559;
1007.4000;0.3175;0.7510;
1007.7000;0.3191;0.7559;
1008.0000;0.3191;0.7609;
1008.3000;0.3158;0.7609;
1008.6000;0.3166;0.7634;
1008.9000;0.3158;0.7584;
1009.2000;0.3175;0.7559;
1009.5000;0.3158;0.7534;
1009.8000;0.3166;0.7634;
1010.1000;0.3158;0.7584;
1010.4000;0.3191;0.7609;
1010.7000;0.3191;0.7659;
1011.0000;0.3134;0.7559;
1011.3000;0.3158;0.7684;
1011.6000;0.3264;0.7957;
1011.9000;0.3126;0.7634;
1012.2000;0.3158;0.7684;
1012.5000;0.3166;0.7634;
1012.8000;0.3183;0.7584;
1013.1000;0.3183;0.7609;
1013.4000;0.3158;0.7510;
1013.7000;0.3150;0.7485;
1014.0000;0.3158;0.7609;
1014.3000;0.3142;0.7609;
1014.6000;0.3158;0.7584;
1014.9000;0.3191;0.7584;
1015.2000;0.3134;0.7485;
1015.5000;0.3175;0.7609;
1015.8000;0.3199;0.7733;
1016.1000;0.3158;0.7659;
1016.4000;0.3223;0.7733;
1016.7000;0.3166;0.7609;
1017.0000;0.3158;0.7609;
1017.3000;0.3142;0.7634;
1017.6000;0.3142;0.7559;
1017.9000;0.3158;0.7609;
1018.2000;0.3158;0.7485;
1018.5000;0.3150;0.7385;
1018.8000;0.3142;0.7385;
1019.1000;0.3175;0.7485;
1019.4000;0.3166;0.7510;
1019.7000;0.3142;0.7460;
1020.0000;0.3158;0.7510;
1020.3000;0.3166;0.7510;
1020.6000;0.3240;0.7684;
1020.9000;0.3166;0.7510;
1021.2000;0.3166;0.7485;
1021.5000;0.3158;0.7385;
1021.8000;0.3158;0.7584;
1022.1000;0.3150;0.7485;
1022.4000;0.3175;0.7609;
1022.7000;0.3158;0.7609;
1023.0000;0.3150;0.7634;
1023.3000;0.3158;0.7684;
1023.6000;0.3142;0.7634;
1023.9000;0.3175;0.7733;
1024.2000;0.3158;0.7684;
1024.5000;0.3166;0.7783;
1024.8000;0.3166;0.7684;
1025.1000;0.3158;0.7634;
1025.4000;0.3158;0.7684;
1025.7000;0.3272;0.7932;
1026.0000;0.3199;0.7758;
1026.3000;0.3166;0.7758;
1026.6000;0.3191;0.7758;
1026.9000;0.3191;0.7708;
1027.2000;0.3191;0.7684;
1027.5000;0.3118;0.7485;
1027.8000;0.3166;0.7609;
1028.1000;0.3183;0.7609;
1028.4000;0.3223;0.7783;
1028.7000;0.3101;0.7485;
1029.0000;0.3158;0.7559;
1029.3000;0.3175;0.7534;
1029.6000;0.3134;0.7584;
1029.9000;0.3142;0.7584;
1030.2000;0.3166;0.7708;
1030.5000;0.3101;0.7460;
1030.8000;0.3183;0.7733;
1031.1000;0.3166;0.7659;
1031.4000;0.3191;0.7733;
1031.7000;0.3183;0.7659;
1032.0000;0.3175;0.7684;
1032.3000;0.3215;0.7808;
1032.6000;0.3166;0.7659;
1032.9000;0.3142;0.7634;
1033.2000;0.3166;0.7659;
1033.5000;0.3175;0.7684;
1033.8000;0.3134;0.7609;
1034.1000;0.3150;0.7435;
1034.4000;0.3158;0.7385;
1034.7000;0.3175;0.7460;
1035.0000;0.3150;0.7485;
1035.3000;0.3134;0.7435;
1035.6000;0.3166;0.7460;
1035.9000;0.3166;0.7385;
1036.2000;0.3199;0.7510;
1036.5000;0.3175;0.7385;
1036.8000;0.3183;0.7460;
1037.1000;0.3126;0.7261;
1037.4000;0.3166;0.7410;
1037.7000;0.3166;0.7410;
1038.0000;0.3175;0.7485;
1038.3000;0.3175;0.7485;
1038.6000;0.3166;0.7385;
1038.9000;0.3158;0.7385;
1039.2000;0.3191;0.7510;
1039.5000;0.3166;0.7335;
1039.8000;0.3166;0.7311;
1040.1000;0.3126;0.7186;
1040.4000;0.3150;0.7311;
1040.7000;0.3158;0.7261;
1041.0000;0.3183;0.7360;
1041.3000;0.3175;0.7460;
1041.6000;0.3158;0.7360;
1041.9000;0.3175;0.7286;
1042.2000;0.3199;0.7360;
1042.5000;0.3183;0.7335;
1042.8000;0.3166;0.7335;
1043.1000;0.3126;0.7335;
1043.4000;0.3280;0.7883;
1043.7000;0.3158;0.7584;
1044.0000;0.3150;0.7510;
1044.3000;0.3158;0.7485;
1044.6000;0.3118;0.7410;
1044.9000;0.3126;0.7435;
1045.2000;0.3150;0.7559;
1045.5000;0.3158;0.7609;
1045.8000;0.3166;0.7559;
1046.1000;0.3199;0.7584;
1046.4000;0.3191;0.7510;
1046.7000;0.3150;0.7385;
1047.0000;0.3183;0.7385;
1047.3000;0.3183;0.7485;
1047.6000;0.3166;0.7460;
1047.9000;0.3150;0.7360;
1048.2000;0.3158;0.7360;
1048.5000;0.3183;0.7360;
1048.8000;0.3248;0.7584;
1049.1000;0.3150;0.7360;
1049.4000;0.3191;0.7435;
1049.7000;0.3150;0.7435;
1050.0000;0.3142;0.7360;
1050.3000;0.3126;0.7360;
1050.6000;0.3158;0.7584;
1050.9000;0.3183;0.7634;
1051.2000;0.3150;0.7609;
1051.5000;0.3207;0.7659;
1051.8000;0.3158;0.7559;
1052.1000;0.3175;0.7584;
1052.4000;0.3175;0.7659;
1052.7000;0.3126;0.7559;
1053.0000;0.3150;0.7559;
1053.3000;0.3183;0.7559;
1053.6000;0.3158;0.7510;
1053.9000;0.3142;0.7385;
1054.2000;0.3126;0.7335;
1054.5000;0.3232;0.7584;
1054.8000;0.3175;0.7485;
1055.1000;0.3183;0.7435;
1055.4000;0.3158;0.7385;
1055.7000;0.3166;0.7286;
1056.0000;0.3158;0.7286;
1056.3000;0.3175;0.7261;
1056.6000;0.3166;0.7311;
1056.9000;0.3158;0.7236;
1057.2000;0.3175;0.7261;
1057.5000;0.3158;0.7335;
1057.8000;0.3150;0.7435;
1058.1000;0.3175;0.7485;
1058.4000;0.3166;0.7435;
1058.7000;0.3175;0.7485;
1059.0000;0.3158;0.7510;
1059.3000;0.3150;0.7584;
1059.6000;0.3158;0.7609;
1059.9000;0.3158;0.7534;
1060.2000;0.3183;0.7510;
1060.5000;0.3175;0.7335;
1060.8000;0.3175;0.7360;
1061.1000;0.3175;0.7410;
1061.4000;0.3109;0.7161;
1061.7000;0.3158;0.7211;
1062.0000;0.3183;0.7186;
1062.3000;0.3183;0.7236;
1062.6000;0.3191;0.7286;
1062.9000;0.3175;0.7261;
1063.2000;0.3183;0.7261;
1063.5000;0.3134;0.7087;
1063.8000;0.3175;0.7211;
1064.1000;0.3183;0.7236;
1064.4000;0.3191;0.7261;
1064.7000;0.3166;0.7286;
1065.0000;0.3183;0.7286;
1065.3000;0.3175;0.7286;
1065.6000;0.3166;0.7311;
1065.9000;0.3134;0.7211;
1066.2000;0.3175;0.7286;
1066.5000;0.3215;0.7385;
1066.8000;0.3158;0.7311;
1067.1000;0.3183;0.7385;
1067.4000;0.3175;0.7335;
1067.7000;0.3175;0.7286;
1068.0000;0.3126;0.7161;
1068.3000;0.3150;0.7087;
1068.6000;0.3036;0.6838;
1068.9000;0.3134;0.7062;
1069.2000;0.3150;0.7161;
1069.5000;0.3158;0.7236;
1069.8000;0.3166;0.7311;
1070.1000;0.3256;0.7634;
1070.4000;0.3166;0.7335;
1070.7000;0.3166;0.7286;
1071.0000;0.3158;0.7311;
1071.3000;0.3166;0.7360;
1071.6000;0.3183;0.7385;
1071.9000;0.3183;0.7385;
1072.2000;0.3175;0.7360;
1072.5000;0.3175;0.7335;
1072.8000;0.3175;0.7311;
1073.1000;0.3166;0.7385;
1073.4000;0.3150;0.7410;
1073.7000;0.3150;0.7410;
1074.0000;0.3175;0.7510;
1074.3000;0.3150;0.7435;
1074.6000;0.3150;0.7460;
1074.9000;0.3207;0.7559;
1075.2000;0.3183;0.7410;
1075.5000;0.3142;0.7385;
1075.8000;0.3101;0.7335;
1076.1000;0.3158;0.7609;
1076.4000;0.3175;0.7609;
1076.7000;0.3191;0.7534;
1077.0000;0.3175;0.7460;
1077.3000;0.3158;0.7410;
1077.6000;0.3166;0.7385;
1077.9000;0.3150;0.7311;
1078.2000;0.3183;0.7385;
1078.5000;0.3166;0.7460;
1078.8000;0.3207;0.7609;
1079.1000;0.3175;0.7460;
1079.4000;0.3183;0.7460;
1079.7000;0.3142;0.7410;
1080.0000;0.3158;0.7485;
1080.3000;0.3150;0.7510;
1080.6000;0.3175;0.7485;
1080.9000;0.3166;0.7460;
1081.2000;0.3142;0.7410;
1081.5000;0.3166;0.7335;
1081.8000;0.3166;0.7335;
1082.1000;0.3191;0.7311;
1082.4000;0.3166;0.7286;
1082.7000;0.3183;0.7410;
1083.0000;0.3183;0.7335;
1083.3000;0.3142;0.7211;
1083.6000;0.3175;0.7261;
1083.9000;0.3166;0.7236;
1084.2000;0.3191;0.7286;
1084.5000;0.3158;0.7211;
1084.8000;0.3175;0.7311;
1085.1000;0.3166;0.7261;
1085.4000;0.3166;0.7236;
1085.7000;0.3175;0.7311;
1086.0000;0.3158;0.7261;
1086.3000;0.3158;0.7460;
1086.6000;0.3142;0.7510;
1086.9000;0.3175;0.7510;
1087.2000;0.3158;0.7435;
1087.5000;0.3158;0.7460;
1087.8000;0.3150;0.7435;
1088.1000;0.3158;0.7410;
1088.4000;0.3126;0.7335;
1088.7000;0.3150;0.7435;
1089.0000;0.3126;0.7435;
1089.3000;0.3166;0.7584;
1089.6000;0.3183;0.7634;
1089.9000;0.3158;0.7634;
1090.2000;0.3142;0.7559;
1090.5000;0.3175;0.7634;
1090.8000;0.3150;0.7485;
1091.1000;0.3142;0.7460;
1091.4000;0.3150;0.7435;
1091.7000;0.3166;0.7485;
1092.0000;0.3175;0.7410;
1092.3000;0.3142;0.7286;
1092.6000;0.3175;0.7385;
1092.9000;0.3166;0.7435;
1093.2000;0.3166;0.7335;
1093.5000;0.3175;0.7335;
1093.8000;0.3175;0.7360;
1094.1000;0.3158;0.7311;
1094.4000;0.3158;0.7335;
1094.7000;0.3175;0.7335;
1095.0000;0.3166;0.7261;
1095.3000;0.3175;0.7335;
1095.6000;0.3150;0.7261;
1095.9000;0.3248;0.7510;
1096.2000;0.3166;0.7211;
1096.5000;0.3166;0.7186;
1096.8000;0.3126;0.7087;
1097.1000;0.3166;0.7261;
1097.4000;0.3199;0.7311;
1097.7000;0.3093;0.7012;
1098.0000;0.3166;0.7311;
1098.3000;0.3134;0.7261;
1098.6000;0.3175;0.7385;
1098.9000;0.3183;0.7435;
1099.2000;0.3166;0.7435;
1099.5000;0.3166;0.7385;
1099.8000;0.3183;0.7460;
1100.1000;0.3150;0.7335;
1100.4000;0.3126;0.7311;
1100.7000;0.3191;0.7335;
1101.0000;0.3166;0.7211;
1101.3000;0.3166;0.7161;
1101.6000;0.3158;0.7161;
1101.9000;0.3166;0.7236;
1102.2000;0.3166;0.7137;
1102.5000;0.3158;0.7137;
1102.8000;0.3175;0.7186;
1103.1000;0.3158;0.7186;
1103.4000;0.3175;0.7211;
1103.7000;0.3166;0.7261;
1104.0000;0.3166;0.7286;
1104.3000;0.3166;0.7335;
1104.6000;0.3166;0.7335;
1104.9000;0.3183;0.7460;
1105.2000;0.3158;0.7435;
1105.5000;0.3150;0.7385;
1105.8000;0.3191;0.7460;
1106.1000;0.3175;0.7410;
1106.4000;0.3175;0.7335;
1106.7000;0.3256;0.7659;
1107.0000;0.3175;0.7485;
1107.3000;0.3183;0.7485;
1107.6000;0.3166;0.7460;
1107.9000;0.3150;0.7460;
1108.2000;0.3158;0.7435;
1108.5000;0.3158;0.7435;
1108.8000;0.3118;0.7311;
1109.1000;0.3158;0.7360;
1109.4000;0.3158;0.7435;
1109.7000;0.3109;0.7335;
1110.0000;0.3126;0.7460;
1110.3000;0.3109;0.7286;
1110.6000;0.3150;0.7485;
1110.9000;0.3158;0.7485;
1111.2000;0.3158;0.7435;
1111.5000;0.3158;0.7510;
1111.8000;0.3150;0.7584;
1112.1000;0.3126;0.7510;
1112.4000;0.3085;0.7360;
1112.7000;0.3166;0.7534;
1113.0000;0.3166;0.7435;
1113.3000;0.3158;0.7435;
1113.6000;0.3175;0.7360;
1113.9000;0.3158;0.7311;
1114.2000;0.3150;0.7286;
1114.5000;0.3158;0.7261;
1114.8000;0.3215;0.7385;
1115.1000;0.3142;0.7211;
1115.4000;0.3150;0.7236;
1115.7000;0.3158;0.7286;
1116.0000;0.3175;0.7311;
1116.3000;0.3183;0.7360;
1116.6000;0.3166;0.7360;
1116.9000;0.3183;0.7460;
1117.2000;0.3183;0.7460;
1117.5000;0.3166;0.7510;
1117.8000;0.3118;0.7410;
1118.1000;0.3158;0.7460;
1118.4000;0.3158;0.7460;
1118.7000;0.3150;0.7385;
1119.0000;0.3150;0.7410;
1119.3000;0.3134;0.7410;
1119.6000;0.3175;0.7385;
1119.9000;0.3158;0.7360;
1120.2000;0.3150;0.7236;
1120.5000;0.3166;0.7261;
1120.8000;0.3175;0.7286;
1121.1000;0.3175;0.7236;
1121.4000;0.3207;0.7311;
1121.7000;0.3158;0.7286;
1122.0000;0.3166;0.7311;
1122.3000;0.3183;0.7410;
1122.6000;0.3175;0.7435;
1122.9000;0.3134;0.7236;
1123.2000;0.3158;0.7360;
1123.5000;0.3166;0.7335;
1123.8000;0.3118;0.7261;
1124.1000;0.3158;0.7286;
1124.4000;0.3150;0.7286;
1124.7000;0.3158;0.7137;
1125.0000;0.3158;0.7161;
1125.3000;0.3134;0.7161;
1125.6000;0.3166;0.7261;
1125.9000;0.3183;0.7335;
1126.2000;0.3191;0.7335;
1126.5000;0.3166;0.7385;
1126.8000;0.3158;0.7410;
1127.1000;0.3183;0.7485;
1127.4000;0.3175;0.7510;
1127.7000;0.3191;0.7534;
1128.0000;0.3166;0.7360;
1128.3000;0.3158;0.7435;
1128.6000;0.3199;0.7584;
1128.9000;0.3166;0.7609;
1129.2000;0.3215;0.7684;
1129.5000;0.3150;0.7435;
1129.8000;0.3240;0.7684;
1130.1000;0.3158;0.7460;
1130.4000;0.3158;0.7485;
1130.7000;0.3166;0.7510;
1131.0000;0.3166;0.7534;
1131.3000;0.3126;0.7534;
1131.6000;0.3166;0.7534;
1131.9000;0.3150;0.7609;
1132.2000;0.3150;0.7659;
1132.5000;0.3150;0.7684;
1132.8000;0.3158;0.7783;
1133.1000;0.3150;0.7708;
1133.4000;0.3150;0.7733;
1133.7000;0.3109;0.7684;
1134.0000;0.3134;0.7733;
1134.3000;0.3158;0.7684;
1134.6000;0.3166;0.7634;
1134.9000;0.3158;0.7708;
1135.2000;0.3101;0.7485;
1135.5000;0.3166;0.7609;
1135.8000;0.3183;0.7659;
1136.1000;0.3166;0.7534;
1136.4000;0.3215;0.7609;
1136.7000;0.3175;0.7485;
1137.0000;0.3150;0.7385;
1137.3000;0.3158;0.7360;
1137.6000;0.3175;0.7360;
1137.9000;0.3142;0.7335;
1138.2000;0.3142;0.7335;
1138.5000;0.3166;0.7335;
1138.8000;0.3150;0.7261;
1139.1000;0.3158;0.7311;
1139.4000;0.3158;0.7311;
1139.7000;0.3166;0.7460;
1140.0000;0.3069;0.7211;
1140.3000;0.3183;0.7584;
1140.6000;0.3158;0.7485;
1140.9000;0.3166;0.7534;
1141.2000;0.3158;0.7609;
1141.5000;0.3166;0.7584;
1141.8000;0.3183;0.7559;
1142.1000;0.3183;0.7534;
1142.4000;0.3175;0.7510;
1142.7000;0.3183;0.7485;
1143.0000;0.3158;0.7385;
1143.3000;0.3183;0.7485;
1143.6000;0.3142;0.7410;
1143.9000;0.3175;0.7510;
1144.2000;0.3158;0.7460;
1144.5000;0.3166;0.7485;
1144.8000;0.3166;0.7510;
1145.1000;0.3175;0.7485;
1145.4000;0.3207;0.7684;
1145.7000;0.3142;0.7559;
1146.0000;0.3183;0.7609;
1146.3000;0.3166;0.7485;
1146.6000;0.3126;0.7460;
1146.9000;0.3158;0.7534;
1147.2000;0.3134;0.7485;
1147.5000;0.3175;0.7559;
1147.8000;0.3175;0.7534;
1148.1000;0.3150;0.7534;
1148.4000;0.3158;0.7559;
1148.7000;0.3183;0.7609;
1149.0000;0.3191;0.7584;
1149.3000;0.3158;0.7435;
1149.6000;0.3166;0.7435;
1149.9000;0.3150;0.7410;
1150.2000;0.3142;0.7460;
1150.5000;0.3158;0.7510;
1150.8000;0.3126;0.7485;
1151.1000;0.3191;0.7659;
1151.4000;0.3166;0.7708;
1151.7000;0.3166;0.7659;
1152.0000;0.3166;0.7510;
1152.3000;0.3158;0.7360;
1152.6000;0.3183;0.7460;
1152.9000;0.3183;0.7435;
1153.2000;0.3183;0.7485;
1153.5000;0.3158;0.7534;
1153.8000;0.3166;0.7534;
1154.1000;0.3166;0.7485;
1154.4000;0.3158;0.7410;
1154.7000;0.3158;0.7335;
1155.0000;0.3134;0.7186;
1155.3000;0.3142;0.7211;
1155.6000;0.3175;0.7286;
1155.9000;0.3158;0.7261;
1156.2000;0.3158;0.7286;
1156.5000;0.3150;0.7360;
1156.8000;0.3166;0.7460;
1157.1000;0.3166;0.7435;
1157.4000;0.3126;0.7286;
1157.7000;0.3191;0.7385;
1158.0000;0.3158;0.7286;
1158.3000;0.3166;0.7286;
1158.6000;0.3109;0.7137;
1158.9000;0.3134;0.7211;
1159.2000;0.3175;0.7261;
1159.5000;0.3166;0.7261;
1159.8000;0.3150;0.7211;
1160.1000;0.3118;0.7137;
1160.4000;0.3118;0.7087;
1160.7000;0.3150;0.7211;
1161.0000;0.3199;0.7335;
1161.3000;0.3158;0.7335;
1161.6000;0.3142;0.7261;
1161.9000;0.3199;0.7485;
1162.2000;0.3166;0.7360;
1162.5000;0.3158;0.7311;
1162.8000;0.3166;0.7335;
1163.1000;0.3142;0.7311;
1163.4000;0.3150;0.7435;
1163.7000;0.3175;0.7485;
1164.0000;0.3142;0.7335;
1164.3000;0.3175;0.7236;
1164.6000;0.3166;0.7286;
1164.9000;0.3166;0.7410;
1165.2000;0.3158;0.7460;
1165.5000;0.3158;0.7460;
1165.8000;0.3175;0.7485;
1166.1000;0.3158;0.7510;
1166.4000;0.3158;0.7460;
1166.7000;0.3215;0.7634;
1167.0000;0.3183;0.7485;
1167.3000;0.3158;0.7360;
1167.6000;0.3248;0.7460;
1167.9000;0.3158;0.7186;
1168.2000;0.3166;0.7211;
1168.5000;0.3166;0.7236;
1168.8000;0.3166;0.7335;
1169.1000;0.3150;0.7311;
1169.4000;0.3158;0.7385;
1169.7000;0.3166;0.7460;
1170.0000;0.3142;0.7410;
1170.3000;0.3158;0.7360;
1170.6000;0.3158;0.7335;
1170.9000;0.3134;0.7286;
1171.2000;0.3150;0.7335;
1171.5000;0.3150;0.7360;
1171.8000;0.3166;0.7385;
1172.1000;0.3166;0.7360;
1172.4000;0.3183;0.7311;
1172.7000;0.3158;0.7311;
1173.0000;0.3166;0.7335;
1173.3000;0.3134;0.7311;
1173.6000;0.3158;0.7385;
1173.9000;0.3166;0.7385;
1174.2000;0.3142;0.7385;
1174.5000;0.3166;0.7385;
1174.8000;0.3158;0.7261;
1175.1000;0.3150;0.7311;
1175.4000;0.3166;0.7360;
1175.7000;0.3191;0.7410;
1176.0000;0.3175;0.7410;
1176.3000;0.3150;0.7286;
1176.6000;0.3199;0.7485;
1176.9000;0.3175;0.7485;
1177.2000;0.3150;0.7460;
1177.5000;0.3199;0.7609;
1177.8000;0.3150;0.7559;
1178.1000;0.3150;0.7534;
1178.4000;0.3175;0.7510;
1178.7000;0.3101;0.7435;
1179.0000;0.3166;0.7609;
1179.3000;0.3142;0.7559;
1179.6000;0.3093;0.7485;
1179.9000;0.3166;0.7609;
1180.2000;0.3166;0.7584;
1180.5000;0.3175;0.7559;
1180.8000;0.3150;0.7559;
1181.1000;0.3166;0.7609;
1181.4000;0.3158;0.7559;
1181.7000;0.3158;0.7609;
1182.0000;0.3150;0.7609;
1182.3000;0.3215;0.7808;
1182.6000;0.3118;0.7609;
1182.9000;0.3166;0.7684;
1183.2000;0.3175;0.7684;
1183.5000;0.3085;0.7460;
1183.8000;0.3150;0.7584;
1184.1000;0.3142;0.7534;
1184.4000;0.3175;0.7559;
1184.7000;0.3158;0.7559;
1185.0000;0.3175;0.7584;
1185.3000;0.3142;0.7460;
1185.6000;0.3175;0.7485;
1185.9000;0.3183;0.7584;
1186.2000;0.3142;0.7510;
1186.5000;0.3134;0.7435;
1186.8000;0.3166;0.7410;
1187.1000;0.3158;0.7410;
1187.4000;0.3142;0.7435;
1187.7000;0.3158;0.7534;
1188.0000;0.3175;0.7584;
1188.3000;0.3166;0.7534;
1188.6000;0.3183;0.7534;
1188.9000;0.3158;0.7534;
1189.2000;0.3150;0.7534;
1189.5000;0.3166;0.7510;
1189.8000;0.3158;0.7584;
1190.1000;0.3150;0.7534;
1190.4000;0.3142;0.7510;
1190.7000;0.3150;0.7510;
1191.0000;0.3175;0.7534;
1191.3000;0.3215;0.7584;
1191.6000;0.3150;0.7510;
1191.9000;0.3150;0.7609;
1192.2000;0.3126;0.7559;
1192.5000;0.3166;0.7659;
1192.8000;0.3158;0.7559;
1193.1000;0.3158;0.7510;
1193.4000;0.3215;0.7534;
1193.7000;0.3166;0.7385;
1194.0000;0.3158;0.7360;
1194.3000;0.3207;0.7435;
1194.6000;0.3232;0.7460;
1194.9000;0.3158;0.7335;
1195.2000;0.3150;0.7385;
1195.5000;0.3150;0.7385;
1195.8000;0.3166;0.7385;
1196.1000;0.3166;0.7435;
1196.4000;0.3158;0.7435;
1196.7000;0.3150;0.7435;
1197.0000;0.3166;0.7559;
1197.3000;0.3223;0.7634;
1197.6000;0.3158;0.7485;
1197.9000;0.3166;0.7559;
1198.2000;0.3150;0.7559;
1198.5000;0.3175;0.7584;
1198.8000;0.3166;0.7510;
1199.1000;0.3109;0.7261;
1199.4000;0.3183;0.7335;
1199.7000;0.3191;0.7435;
1200.0000;0.3207;0.7534;
1200.3000;0.3175;0.7460;
1200.6000;0.3166;0.7311;
1200.9000;0.3166;0.7460;
1201.2000;0.3158;0.7360;
1201.5000;0.3158;0.7360;
1201.8000;0.3175;0.7286;
1202.1000;0.3264;0.7634;
1202.4000;0.3166;0.7410;
1202.7000;0.3175;0.7435;
1203.0000;0.3175;0.7385;
1203.3000;0.3175;0.7286;
1203.6000;0.3175;0.7211;
1203.9000;0.3158;0.7161;
1204.2000;0.3158;0.7062;
1204.5000;0.3158;0.7012;
1204.8000;0.3158;0.7062;
1205.1000;0.3166;0.7161;
1205.4000;0.3166;0.7186;
1205.7000;0.3166;0.7211;
1206.0000;0.3175;0.7311;
1206.3000;0.3142;0.7335;
1206.6000;0.3158;0.7286;
1206.9000;0.3134;0.7186;
1207.2000;0.3150;0.7186;
1207.5000;0.3215;0.7261;
1207.8000;0.3142;0.7087;
1208.1000;0.3150;0.7137;
1208.4000;0.3134;0.7087;
1208.7000;0.3166;0.7161;
1209.0000;0.3150;0.7087;
1209.3000;0.3175;0.7087;
1209.6000;0.3175;0.7186;
1209.9000;0.3166;0.7186;
1210.2000;0.3166;0.7236;
1210.5000;0.3158;0.7186;
1210.8000;0.3191;0.7286;
1211.1000;0.3150;0.7236;
1211.4000;0.3175;0.7286;
1211.7000;0.3199;0.7360;
1212.0000;0.3150;0.7236;
1212.3000;0.3158;0.7211;
1212.6000;0.3183;0.7186;
1212.9000;0.3183;0.7087;
1213.2000;0.3158;0.7037;
1213.5000;0.3158;0.7087;
1213.8000;0.3166;0.7261;
1214.1000;0.3158;0.7087;
1214.4000;0.3150;0.7112;
1214.7000;0.3142;0.7112;
1215.0000;0.3175;0.7211;
1215.3000;0.3142;0.7236;
1215.6000;0.3166;0.7360;
1215.9000;0.3150;0.7360;
1216.2000;0.3183;0.7410;
1216.5000;0.3158;0.7385;
1216.8000;0.3150;0.7410;
1217.1000;0.3183;0.7435;
1217.4000;0.3175;0.7435;
1217.7000;0.3175;0.7460;
1218.0000;0.3166;0.7385;
1218.3000;0.3166;0.7360;
1218.6000;0.3175;0.7460;
1218.9000;0.3158;0.7460;
1219.2000;0.3166;0.7385;
1219.5000;0.3166;0.7286;
1219.8000;0.3158;0.7236;
1220.1000;0.3175;0.7286;
1220.4000;0.3158;0.7261;
1220.7000;0.3166;0.7335;
1221.0000;0.3166;0.7410;
1221.3000;0.3150;0.7385;
1221.6000;0.3166;0.7410;
1221.9000;0.3158;0.7335;
1222.2000;0.3150;0.7385;
1222.5000;0.3158;0.7410;
1222.8000;0.3166;0.7410;
1223.1000;0.3158;0.7410;
1223.4000;0.3166;0.7435;
1223.7000;0.3061;0.7236;
1224.0000;0.3158;0.7460;
1224.3000;0.3166;0.7385;
1224.6000;0.3142;0.7236;
1224.9000;0.3142;0.7311;
1225.2000;0.3223;0.7534;
1225.5000;0.3150;0.7435;
1225.8000;0.3142;0.7510;
1226.1000;0.3158;0.7634;
1226.4000;0.3158;0.7609;
1226.7000;0.3142;0.7559;
1227.0000;0.3158;0.7609;
1227.3000;0.3158;0.7584;
1227.6000;0.3158;0.7634;
1227.9000;0.3166;0.7534;
1228.2000;0.3183;0.7559;
1228.5000;0.3069;0.7261;
1228.8000;0.3166;0.7435;
1229.1000;0.3158;0.7360;
1229.4000;0.3158;0.7335;
1229.7000;0.3150;0.7311;
1230.0000;0.3158;0.7211;
1230.3000;0.3166;0.7236;
1230.6000;0.3166;0.7261;
1230.9000;0.3199;0.7335;
1231.2000;0.3175;0.7311;
1231.5000;0.3175;0.7261;
1231.8000;0.3175;0.7236;
1232.1000;0.3142;0.7161;
1232.4000;0.3150;0.7137;
1232.7000;0.3158;0.7112;
1233.0000;0.3150;0.7062;
1233.3000;0.3158;0.7062;
1233.6000;0.3166;0.7236;
1233.9000;0.3207;0.7435;
1234.2000;0.3166;0.7360;
1234.5000;0.3166;0.7385;
1234.8000;0.3134;0.7335;
1235.1000;0.3150;0.7360;
1235.4000;0.3175;0.7410;
1235.7000;0.3166;0.7435;
1236.0000;0.3166;0.7460;
1236.3000;0.3183;0.7460;
1236.6000;0.3150;0.7360;
1236.9000;0.3166;0.7385;
1237.2000;0.3150;0.7435;
1237.5000;0.3166;0.7510;
1237.8000;0.3158;0.7460;
1238.1000;0.3166;0.7485;
1238.4000;0.3207;0.7609;
1238.7000;0.3134;0.7435;
1239.0000;0.3183;0.7360;
1239.3000;0.3175;0.7286;
1239.6000;0.3158;0.7211;
1239.9000;0.3183;0.7335;
1240.2000;0.3142;0.7211;
1240.5000;0.3142;0.7286;
1240.8000;0.3158;0.7335;
1241.1000;0.3158;0.7435;
1241.4000;0.3166;0.7460;
1241.7000;0.3158;0.7510;
1242.0000;0.3183;0.7485;
1242.3000;0.3158;0.7435;
1242.6000;0.3183;0.7460;
1242.9000;0.3199;0.7534;
1243.2000;0.3158;0.7485;
1243.5000;0.3158;0.7485;
1243.8000;0.3134;0.7311;
1244.1000;0.3158;0.7410;
1244.4000;0.3166;0.7385;
1244.7000;0.3191;0.7385;
1245.0000;0.3150;0.7410;
1245.3000;0.3166;0.7485;
1245.6000;0.3183;0.7510;
1245.9000;0.3150;0.7485;
1246.2000;0.3150;0.7460;
1246.5000;0.3166;0.7510;
1246.8000;0.3166;0.7485;
1247.1000;0.3150;0.7534;
1247.4000;0.3166;0.7485;
1247.7000;0.3175;0.7435;
1248.0000;0.3158;0.7360;
1248.3000;0.3183;0.7410;
1248.6000;0.3158;0.7385;
1248.9000;0.3166;0.7410;
1249.2000;0.3166;0.7485;
1249.5000;0.3109;0.7311;
1249.8000;0.3134;0.7286;
1250.1000;0.3158;0.7360;
1250.4000;0.3183;0.7510;
1250.7000;0.3166;0.7460;
1251.0000;0.3166;0.7410;
1251.3000;0.3101;0.7112;
1251.6000;0.3166;0.7335;
1251.9000;0.3166;0.7286;
1252.2000;0.3166;0.7311;
1252.5000;0.3158;0.7385;
1252.8000;0.3183;0.7410;
1253.1000;0.3166;0.7360;
1253.4000;0.3191;0.7410;
1253.7000;0.3166;0.7360;
1254.0000;0.3150;0.7335;
1254.3000;0.3175;0.7335;
1254.6000;0.3109;0.7087;
1254.9000;0.3142;0.7211;
1255.2000;0.3134;0.7161;
1255.5000;0.3166;0.7112;
1255.8000;0.3158;0.6963;
1256.1000;0.3085;0.6739;
1256.4000;0.3215;0.7112;
1256.7000;0.3158;0.7062;
1257.0000;0.3150;0.7087;
1257.3000;0.3175;0.7161;
1257.6000;0.3166;0.7236;
1257.9000;0.3166;0.7286;
1258.2000;0.3150;0.7261;
1258.5000;0.3166;0.7286;
1258.8000;0.3150;0.7236;
1259.1000;0.3142;0.7311;
1259.4000;0.3158;0.7410;
1259.7000;0.3166;0.7435;
1260.0000;0.3158;0.7360;
1260.3000;0.3166;0.7435;
1260.6000;0.3158;0.7510;
1260.9000;0.3166;0.7485;
1261.2000;0.3183;0.7510;
1261.5000;0.3223;0.7659;
1261.8000;0.3150;0.7534;
1262.1000;0.3158;0.7460;
1262.4000;0.3158;0.7335;
1262.7000;0.3166;0.7311;
1263.0000;0.3142;0.7311;
1263.3000;0.3158;0.7335;
1263.6000;0.3191;0.7435;
1263.9000;0.3093;0.7311;
1264.2000;0.3166;0.7435;
1264.5000;0.3183;0.7410;
1264.8000;0.3175;0.7286;
1265.1000;0.3158;0.7261;
1265.4000;0.3191;0.7236;
1265.7000;0.3134;0.7211;
1266.0000;0.3134;0.7186;
1266.3000;0.3150;0.7161;
1266.6000;0.3142;0.7062;
1266.9000;0.3150;0.7087;
1267.2000;0.3166;0.7112;
1267.5000;0.3158;0.7137;
1267.8000;0.3199;0.7236;
1268.1000;0.3142;0.7087;
1268.4000;0.3142;0.7012;
1268.7000;0.3142;0.7062;
1269.0000;0.3101;0.7037;
1269.3000;0.3142;0.7161;
1269.6000;0.3150;0.7161;
1269.9000;0.3158;0.7161;
1270.2000;0.3142;0.7012;
1270.5000;0.3142;0.7037;
1270.8000;0.3150;0.7012;
1271.1000;0.3158;0.6963;
1271.4000;0.3142;0.6987;
1271.7000;0.3150;0.6987;
1272.0000;0.3232;0.7236;
1272.3000;0.3175;0.7112;
1272.6000;0.3166;0.7161;
1272.9000;0.3118;0.7112;
1273.2000;0.3183;0.7161;
1273.5000;0.3158;0.7062;
1273.8000;0.3175;0.7087;
1274.1000;0.3158;0.7087;
1274.4000;0.3158;0.7037;
1274.7000;0.3166;0.7062;
1275.0000;0.3166;0.7112;
1275.3000;0.3150;0.7062;
1275.6000;0.3166;0.7137;
1275.9000;0.3142;0.7112;
1276.2000;0.3183;0.7286;
1276.5000;0.3215;0.7410;
1276.8000;0.3166;0.7261;
1277.1000;0.3175;0.7311;
1277.4000;0.3175;0.7311;
1277.7000;0.3150;0.7335;
1278.0000;0.3215;0.7410;
1278.3000;0.3158;0.7385;
1278.6000;0.3191;0.7510;
1278.9000;0.3134;0.7410;
1279.2000;0.3150;0.7435;
1279.5000;0.3264;0.7808;
1279.8000;0.3142;0.7485;
1280.1000;0.3142;0.7460;
1280.4000;0.3191;0.7460;
1280.7000;0.3166;0.7286;
1281.0000;0.3158;0.7311;
1281.3000;0.3158;0.7286;
1281.6000;0.3166;0.7385;
1281.9000;0.3142;0.7286;
1282.2000;0.3166;0.7236;
1282.5000;0.3166;0.7261;
1282.8000;0.3150;0.7286;
1283.1000;0.3150;0.7186;
1283.4000;0.3175;0.7261;
1283.7000;0.3175;0.7236;
1284.0000;0.3158;0.7261;
1284.3000;0.3175;0.7236;
1284.6000;0.3166;0.7261;
1284.9000;0.3166;0.7360;
1285.2000;0.3158;0.7410;
1285.5000;0.3134;0.7335;
1285.8000;0.3158;0.7261;
1286.1000;0.3158;0.7410;
1286.4000;0.3166;0.7385;
1286.7000;0.3166;0.7360;
1287.0000;0.3158;0.7286;
1287.3000;0.3166;0.7311;
1287.6000;0.3175;0.7335;
1287.9000;0.3183;0.7360;
1288.2000;0.3158;0.7261;
1288.5000;0.3175;0.7385;
1288.8000;0.3175;0.7335;
1289.1000;0.3150;0.7311;
1289.4000;0.3142;0.7311;
1289.7000;0.3166;0.7311;
1290.0000;0.3175;0.7385;
1290.3000;0.3166;0.7335;
1290.6000;0.3166;0.7385;
1290.9000;0.3175;0.7435;
1291.2000;0.3166;0.7435;
1291.5000;0.3158;0.7385;
1291.8000;0.3158;0.7335;
1292.1000;0.3183;0.7385;
1292.4000;0.3191;0.7410;
1292.7000;0.3166;0.7286;
1293.0000;0.3118;0.7186;
1293.3000;0.3158;0.7311;
1293.6000;0.3158;0.7236;
1293.9000;0.3142;0.7261;
1294.2000;0.3158;0.7385;
1294.5000;0.3158;0.7261;
1294.8000;0.3158;0.7211;
1295.1000;0.3175;0.7410;
1295.4000;0.3175;0.7385;
1295.7000;0.3175;0.7435;
1296.0000;0.3158;0.7435;
1296.3000;0.3183;0.7485;
1296.6000;0.3166;0.7485;
1296.9000;0.3199;0.7510;
1297.2000;0.3175;0.7485;
1297.5000;0.3109;0.7410;
1297.8000;0.3142;0.7485;
1298.1000;0.3158;0.7510;
1298.4000;0.3150;0.7559;
1298.7000;0.3142;0.7534;
1299.0000;0.3158;0.7609;
1299.3000;0.3158;0.7559;
1299.6000;0.3183;0.7634;
1299.9000;0.3183;0.7584;
1300.2000;0.3150;0.7485;
1300.5000;0.3158;0.7410;
1300.8000;0.3166;0.7460;
1301.1000;0.3191;0.7485;
1301.4000;0.3166;0.7485;
1301.7000;0.3166;0.7460;
1302.0000;0.3166;0.7435;
1302.3000;0.3142;0.7335;
1302.6000;0.3175;0.7460;
1302.9000;0.3158;0.7609;
1303.2000;0.3158;0.7609;
1303.5000;0.3166;0.7609;
1303.8000;0.3158;0.7634;
1304.1000;0.3158;0.7584;
1304.4000;0.3142;0.7534;
1304.7000;0.3150;0.7559;
1305.0000;0.3158;0.7559;
1305.3000;0.3175;0.7609;
1305.6000;0.3158;0.7485;
1305.9000;0.3142;0.7435;
1306.2000;0.3150;0.7410;
1306.5000;0.3158;0.7410;
1306.8000;0.3175;0.7460;
1307.1000;0.3183;0.7534;
1307.4000;0.3142;0.7510;
1307.7000;0.3191;0.7510;
1308.0000;0.3166;0.7534;
1308.3000;0.3158;0.7510;
1308.6000;0.3142;0.7584;
1308.9000;0.3166;0.7634;
1309.2000;0.3199;0.7634;
1309.5000;0.3142;0.7410;
1309.8000;0.3142;0.7460;
1310.1000;0.3158;0.7410;
1310.4000;0.3126;0.7385;
1310.7000;0.3158;0.7510;
1311.0000;0.3166;0.7559;
1311.3000;0.3175;0.7534;
1311.6000;0.3175;0.7534;
1311.9000;0.3175;0.7510;
1312.2000;0.3191;0.7485;
1312.5000;0.3142;0.7261;
1312.8000;0.3175;0.7236;
1313.1000;0.3166;0.7311;
1313.4000;0.3158;0.7335;
1313.7000;0.3158;0.7286;
1314.0000;0.3158;0.7311;
1314.3000;0.3150;0.7335;
1314.6000;0.3142;0.7385;
1314.9000;0.3158;0.7311;
1315.2000;0.3158;0.7410;
1315.5000;0.3175;0.7385;
1315.8000;0.3166;0.7286;
1316.1000;0.3215;0.7435;
1316.4000;0.3183;0.7286;
1316.7000;0.3191;0.7385;
1317.0000;0.3101;0.7161;
1317.3000;0.3166;0.7360;
1317.6000;0.3183;0.7410;
1317.9000;0.3166;0.7385;
1318.2000;0.3199;0.7385;
1318.5000;0.3207;0.7335;
1318.8000;0.3085;0.6987;
1319.1000;0.3150;0.7261;
1319.4000;0.3142;0.7335;
1319.7000;0.3134;0.7311;
1320.0000;0.3150;0.7360;
1320.3000;0.3166;0.7435;
1320.6000;0.3150;0.7385;
1320.9000;0.3126;0.7311;
1321.2000;0.3158;0.7360;
1321.5000;0.3166;0.7410;
1321.8000;0.3166;0.7385;
1322.1000;0.3158;0.7460;
1322.4000;0.3175;0.7460;
1322.7000;0.3150;0.7410;
1323.0000;0.3166;0.7510;
1323.3000;0.3150;0.7435;
1323.6000;0.3134;0.7510;
1323.9000;0.3142;0.7510;
1324.2000;0.3158;0.7559;
1324.5000;0.3150;0.7534;
1324.8000;0.3085;0.7335;
1325.1000;0.3142;0.7534;
1325.4000;0.3158;0.7609;
1325.7000;0.3150;0.7609;
1326.0000;0.3150;0.7559;
1326.3000;0.3150;0.7435;
1326.6000;0.3191;0.7435;
1326.9000;0.3166;0.7385;
1327.2000;0.3166;0.7385;
1327.5000;0.3158;0.7460;
1327.8000;0.3175;0.7534;
1328.1000;0.3158;0.7659;
1328.4000;0.3166;0.7659;
1328.7000;0.3158;0.7485;
1329.0000;0.3150;0.7360;
1329.3000;0.3223;0.7584;
1329.6000;0.3166;0.7410;
1329.9000;0.3142;0.7485;
1330.2000;0.3142;0.7485;
1330.5000;0.3150;0.7385;
1330.8000;0.3158;0.7410;
1331.1000;0.3126;0.7410;
1331.4000;0.3166;0.7534;
1331.7000;0.3158;0.7460;
1332.0000;0.3166;0.7485;
1332.3000;0.3158;0.7460;
1332.6000;0.3158;0.7460;
1332.9000;0.3142;0.7410;
1333.2000;0.3166;0.7485;
1333.5000;0.3158;0.7460;
1333.8000;0.3150;0.7460;
1334.1000;0.3158;0.7360;
1334.4000;0.3150;0.7186;
1334.7000;0.3158;0.7137;
1335.0000;0.3158;0.7087;
1335.3000;0.3126;0.7062;
1335.6000;0.3158;0.7186;
1335.9000;0.3166;0.7137;
1336.2000;0.3150;0.7062;
1336.5000;0.3199;0.7186;
1336.8000;0.3150;0.7087;
1337.1000;0.3175;0.7161;
1337.4000;0.3158;0.7137;
1337.7000;0.3175;0.7161;
1338.0000;0.3158;0.7186;
1338.3000;0.3166;0.7236;
1338.6000;0.3158;0.7211;
1338.9000;0.3150;0.7161;
1339.2000;0.3191;0.7286;
1339.5000;0.3175;0.7236;
1339.8000;0.3158;0.7087;
1340.1000;0.3142;0.7112;
1340.4000;0.3150;0.7062;
1340.7000;0.3158;0.7112;
1341.0000;0.3118;0.7087;
1341.3000;0.3158;0.7286;
1341.6000;0.3158;0.7261;
1341.9000;0.3158;0.7211;
1342.2000;0.3150;0.7186;
1342.5000;0.3166;0.7211;
1342.8000;0.3191;0.7335;
1343.1000;0.3166;0.7286;
1343.4000;0.3183;0.7385;
1343.7000;0.3158;0.7236;
1344.0000;0.3158;0.7236;
1344.3000;0.3183;0.7261;
1344.6000;0.3158;0.7186;
1344.9000;0.3183;0.7211;
1345.2000;0.3183;0.7286;
1345.5000;0.3142;0.7137;
1345.8000;0.3183;0.7261;
1346.1000;0.3166;0.7236;
1346.4000;0.3175;0.7360;
1346.7000;0.3150;0.7286;
1347.0000;0.3183;0.7335;
1347.3000;0.3158;0.7286;
1347.6000;0.3134;0.7137;
1347.9000;0.3166;0.7261;
1348.2000;0.3166;0.7360;
1348.5000;0.3158;0.7360;
1348.8000;0.3150;0.7311;
1349.1000;0.3150;0.7286;
1349.4000;0.3109;0.7186;
1349.7000;0.3150;0.7286;
1350.0000;0.3118;0.7286;
1350.3000;0.3134;0.7360;
1350.6000;0.3191;0.7435;
1350.9000;0.3150;0.7410;
1351.2000;0.3142;0.7385;
1351.5000;0.3158;0.7435;
1351.8000;0.3166;0.7385;
1352.1000;0.3175;0.7410;
1352.4000;0.3191;0.7360;
1352.7000;0.3166;0.7335;
1353.0000;0.3166;0.7261;
1353.3000;0.3175;0.7261;
1353.6000;0.3215;0.7335;
1353.9000;0.3150;0.7186;
1354.2000;0.3158;0.7137;
1354.5000;0.3142;0.7112;
1354.8000;0.3150;0.7137;
1355.1000;0.3166;0.7137;
1355.4000;0.3191;0.7335;
1355.7000;0.3191;0.7410;
1356.0000;0.3166;0.7385;
1356.3000;0.3175;0.7335;
1356.6000;0.3150;0.7286;
1356.9000;0.3158;0.7335;
1357.2000;0.3175;0.7360;
1357.5000;0.3093;0.7161;
1357.8000;0.3150;0.7211;
1358.1000;0.3166;0.7311;
1358.4000;0.3150;0.7236;
1358.7000;0.3142;0.7211;
1359.0000;0.3142;0.7286;
1359.3000;0.3142;0.7211;
1359.6000;0.3166;0.7335;
1359.9000;0.3150;0.7261;
1360.2000;0.3134;0.7360;
1360.5000;0.3142;0.7360;
1360.8000;0.3166;0.7311;
1361.1000;0.3150;0.7261;
1361.4000;0.3166;0.7311;
1361.7000;0.3175;0.7360;
1362.0000;0.3175;0.7435;
1362.3000;0.3166;0.7410;
1362.6000;0.3175;0.7335;
1362.9000;0.3240;0.7435;
1363.2000;0.3118;0.7062;
1363.5000;0.3166;0.7286;
1363.8000;0.3175;0.7286;
1364.1000;0.3077;0.7037;
1364.4000;0.3158;0.7286;
1364.7000;0.3158;0.7236;
1365.0000;0.3175;0.7286;
1365.3000;0.3150;0.7211;
1365.6000;0.3158;0.7186;
1365.9000;0.3166;0.7211;
1366.2000;0.3191;0.7335;
1366.5000;0.3158;0.7211;
1366.8000;0.3183;0.7236;
1367.1000;0.3183;0.7335;
1367.4000;0.3256;0.7534;
1367.7000;0.3158;0.7211;
1368.0000;0.3150;0.7286;
1368.3000;0.3150;0.7286;
1368.6000;0.3142;0.7311;
1368.9000;0.3199;0.7460;
1369.2000;0.3166;0.7410;
1369.5000;0.3150;0.7286;
1369.8000;0.3175;0.7360;
1370.1000;0.3175;0.7510;
1370.4000;0.3207;0.7559;
1370.7000;0.3158;0.7435;
1371.0000;0.3150;0.7385;
1371.3000;0.3166;0.7385;
1371.6000;0.3126;0.7261;
1371.9000;0.3044;0.7062;
1372.2000;0.3150;0.7460;
1372.5000;0.3142;0.7510;
1372.8000;0.3126;0.7311;
1373.1000;0.3109;0.7236;
1373.4000;0.3118;0.7211;
1373.7000;0.3191;0.7460;
1374.0000;0.3101;0.7311;
1374.3000;0.3142;0.7360;
1374.6000;0.3142;0.7410;
1374.9000;0.3150;0.7410;
1375.2000;0.3158;0.7410;
1375.5000;0.3142;0.7360;
1375.8000;0.3158;0.7335;
1376.1000;0.3158;0.7360;
1376.4000;0.3158;0.7385;
1376.7000;0.3142;0.7261;
1377.0000;0.3166;0.7261;
1377.3000;0.3142;0.7137;
1377.6000;0.3215;0.7410;
1377.9000;0.3166;0.7311;
1378.2000;0.3158;0.7360;
1378.5000;0.3175;0.7360;
1378.8000;0.3150;0.7286;
1379.1000;0.3175;0.7286;
1379.4000;0.3158;0.7311;
1379.7000;0.3150;0.7335;
1380.0000;0.3158;0.7311;
1380.3000;0.3175;0.7311;
1380.6000;0.3142;0.7236;
1380.9000;0.3158;0.7286;
1381.2000;0.3142;0.7211;
1381.5000;0.3158;0.7261;
1381.8000;0.3150;0.7211;
1382.1000;0.3166;0.7236;
1382.4000;0.3191;0.7261;
1382.7000;0.3175;0.7261;
1383.0000;0.3142;0.7112;
1383.3000;0.3175;0.7186;
1383.6000;0.3158;0.7037;
1383.9000;0.3207;0.7137;
1384.2000;0.3134;0.7012;
1384.5000;0.3126;0.7062;
1384.8000;0.3175;0.7261;
1385.1000;0.3134;0.7112;
1385.4000;0.3069;0.6963;
1385.7000;0.3158;0.7137;
1386.0000;0.3158;0.7186;
1386.3000;0.3150;0.7236;
1386.6000;0.3158;0.7236;
1386.9000;0.3158;0.7236;
1387.2000;0.3166;0.7236;
1387.5000;0.3142;0.7186;
1387.8000;0.3093;0.7037;
1388.1000;0.3150;0.7211;
1388.4000;0.3150;0.7261;
1388.7000;0.3158;0.7161;
1389.0000;0.3134;0.7062;
1389.3000;0.3158;0.7137;
1389.6000;0.3166;0.7161;
1389.9000;0.3166;0.7112;
1390.2000;0.3175;0.7112;
1390.5000;0.3142;0.7137;
1390.8000;0.3183;0.7236;
1391.1000;0.3166;0.7261;
1391.4000;0.3166;0.7311;
1391.7000;0.3183;0.7335;
1392.0000;0.3166;0.7311;
1392.3000;0.3134;0.7161;
1392.6000;0.3150;0.7137;
1392.9000;0.3142;0.7186;
1393.2000;0.3158;0.7286;
1393.5000;0.3191;0.7385;
1393.8000;0.3126;0.7410;
1394.1000;0.3175;0.7485;
1394.4000;0.3232;0.7534;
1394.7000;0.3150;0.7286;
1395.0000;0.3142;0.7261;
1395.3000;0.3150;0.7335;
1395.6000;0.3150;0.7385;
1395.9000;0.3109;0.7311;
1396.2000;0.3126;0.7261;
1396.5000;0.3150;0.7286;
1396.8000;0.3158;0.7286;
1397.1000;0.3158;0.7211;
1397.4000;0.3150;0.7087;
1397.7000;0.3166;0.7062;
1398.0000;0.3166;0.7062;
1398.3000;0.3166;0.7037;
1398.6000;0.3158;0.7062;
1398.9000;0.3166;0.7062;
1399.2000;0.3175;0.7112;
1399.5000;0.3166;0.7236;
1399.8000;0.3142;0.7161;
