time/ms;Fluo/V;P700 deltaI/I x10³;
-199.8000;0.3223;0.7311;
-199.5000;0.3248;0.7335;
-199.2000;0.3223;0.7261;
-198.9000;0.3289;0.7410;
-198.6000;0.3232;0.7286;
-198.3000;0.3223;0.7335;
-198.0000;0.3280;0.7435;
-197.7000;0.3223;0.7261;
-197.4000;0.3240;0.7261;
-197.1000;0.3248;0.7311;
-196.8000;0.3232;0.7261;
-196.5000;0.3232;0.7311;
-196.2000;0.3232;0.7311;
-195.9000;0.3248;0.7460;
-195.6000;0.3248;0.7460;
-195.3000;0.3240;0.7435;
-195.0000;0.3215;0.7435;
-194.7000;0.3207;0.7360;
-194.4000;0.3232;0.7435;
-194.1000;0.3232;0.7435;
-193.8000;0.3215;0.7385;
-193.5000;0.3223;0.7435;
-193.2000;0.3264;0.7559;
-192.9000;0.3215;0.7460;
-192.6000;0.3232;0.7410;
-192.3000;0.3223;0.7360;
-192.0000;0.3223;0.7211;
-191.7000;0.3223;0.7236;
-191.4000;0.3240;0.7311;
-191.1000;0.3207;0.7286;
-190.8000;0.3337;0.7634;
-190.5000;0.3232;0.7410;
-190.2000;0.3215;0.7410;
-189.9000;0.3232;0.7335;
-189.6000;0.3215;0.7335;
-189.3000;0.3232;0.7360;
-189.0000;0.3232;0.7335;
-188.7000;0.3223;0.7335;
-188.4000;0.3158;0.7062;
-188.1000;0.3215;0.7211;
-187.8000;0.3232;0.7286;
-187.5000;0.3215;0.7186;
-187.2000;0.3329;0.7286;
-186.9000;0.3248;0.7112;
-186.6000;0.3215;0.7012;
-186.3000;0.3215;0.7012;
-186.0000;0.3264;0.7062;
-185.7000;0.3240;0.7037;
-185.4000;0.3232;0.7087;
-185.1000;0.3215;0.7161;
-184.8000;0.3223;0.7137;
-184.5000;0.3215;0.7211;
-184.2000;0.3223;0.7385;
-183.9000;0.3215;0.7410;
-183.6000;0.3207;0.7335;
-183.3000;0.3232;0.7385;
-183.0000;0.3313;0.7609;
-182.7000;0.3232;0.7410;
-182.4000;0.3248;0.7460;
-182.1000;0.3232;0.7460;
-181.8000;0.3240;0.7510;
-181.5000;0.3240;0.7510;
-181.2000;0.3240;0.7485;
-180.9000;0.3240;0.7460;
-180.6000;0.3232;0.7435;
-180.3000;0.3232;0.7311;
-180.0000;0.3232;0.7311;
-179.7000;0.3215;0.7311;
-179.4000;0.3240;0.7410;
-179.1000;0.3256;0.7460;
-178.8000;0.3232;0.7410;
-178.5000;0.3215;0.7360;
-178.2000;0.3199;0.7286;
-177.9000;0.3175;0.7211;
-177.6000;0.3223;0.7360;
-177.3000;0.3215;0.7311;
-177.0000;0.3240;0.7335;
-176.7000;0.3199;0.7261;
-176.4000;0.3240;0.7385;
-176.1000;0.3223;0.7261;
-175.8000;0.3240;0.7211;
-175.5000;0.3240;0.7161;
-175.2000;0.3215;0.7037;
-174.9000;0.3240;0.7137;
-174.6000;0.3223;0.7186;
-174.3000;0.3223;0.7211;
-174.0000;0.3232;0.7211;
-173.7000;0.3215;0.7211;
-173.4000;0.3256;0.7311;
-173.1000;0.3223;0.7236;
-172.8000;0.3207;0.7161;
-172.5000;0.3199;0.7087;
-172.2000;0.3183;0.7037;
-171.9000;0.3232;0.7137;
-171.6000;0.3232;0.7236;
-171.3000;0.3232;0.7261;
-171.0000;0.3223;0.7335;
-170.7000;0.3215;0.7335;
-170.4000;0.3223;0.7385;
-170.1000;0.3248;0.7385;
-169.8000;0.3215;0.7137;
-169.5000;0.3223;0.7236;
-169.2000;0.3305;0.7460;
-168.9000;0.3215;0.7236;
-168.6000;0.3207;0.7286;
-168.3000;0.3215;0.7236;
-168.0000;0.3256;0.7311;
-167.7000;0.3207;0.7161;
-167.4000;0.3223;0.7236;
-167.1000;0.3215;0.7161;
-166.8000;0.3232;0.7211;
-166.5000;0.3223;0.7211;
-166.2000;0.3240;0.7211;
-165.9000;0.3199;0.7062;
-165.6000;0.3215;0.7137;
-165.3000;0.3232;0.7261;
-165.0000;0.3240;0.7360;
-164.7000;0.3207;0.7236;
-164.4000;0.3207;0.7236;
-164.1000;0.3215;0.7161;
-163.8000;0.3280;0.7261;
-163.5000;0.3215;0.7062;
-163.2000;0.3223;0.7186;
-162.9000;0.3223;0.7137;
-162.6000;0.3215;0.7062;
-162.3000;0.3240;0.7186;
-162.0000;0.3215;0.7161;
-161.7000;0.3264;0.7335;
-161.4000;0.3223;0.7286;
-161.1000;0.3272;0.7510;
-160.8000;0.3183;0.7261;
-160.5000;0.3240;0.7510;
-160.2000;0.3289;0.7609;
-159.9000;0.3223;0.7485;
-159.6000;0.3166;0.7261;
-159.3000;0.3215;0.7385;
-159.0000;0.3248;0.7485;
-158.7000;0.3166;0.7261;
-158.4000;0.3223;0.7335;
-158.1000;0.3240;0.7360;
-157.8000;0.3150;0.7161;
-157.5000;0.3272;0.7534;
-157.2000;0.3264;0.7435;
-156.9000;0.3232;0.7211;
-156.6000;0.3248;0.7186;
-156.3000;0.3207;0.7261;
-156.0000;0.3223;0.7335;
-155.7000;0.3215;0.7335;
-155.4000;0.3215;0.7261;
-155.1000;0.3223;0.7261;
-154.8000;0.3248;0.7311;
-154.5000;0.3215;0.7261;
-154.2000;0.3232;0.7335;
-153.9000;0.3232;0.7261;
-153.6000;0.3215;0.7236;
-153.3000;0.3223;0.7286;
-153.0000;0.3264;0.7360;
-152.7000;0.3223;0.7211;
-152.4000;0.3223;0.7211;
-152.1000;0.3232;0.7186;
-151.8000;0.3215;0.7137;
-151.5000;0.3240;0.7261;
-151.2000;0.3223;0.7137;
-150.9000;0.3223;0.7112;
-150.6000;0.3232;0.7137;
-150.3000;0.3215;0.7186;
-150.0000;0.3223;0.7261;
-149.7000;0.3215;0.7211;
-149.4000;0.3207;0.7236;
-149.1000;0.3223;0.7311;
-148.8000;0.3256;0.7460;
-148.5000;0.3223;0.7360;
-148.2000;0.3183;0.7385;
-147.9000;0.3215;0.7385;
-147.6000;0.3248;0.7360;
-147.3000;0.3297;0.7534;
-147.0000;0.3232;0.7360;
-146.7000;0.3223;0.7335;
-146.4000;0.3223;0.7335;
-146.1000;0.3199;0.7261;
-145.8000;0.3248;0.7236;
-145.5000;0.3240;0.7236;
-145.2000;0.3240;0.7236;
-144.9000;0.3223;0.7062;
-144.6000;0.3240;0.6987;
-144.3000;0.3223;0.6888;
-144.0000;0.3232;0.6963;
-143.7000;0.3232;0.7037;
-143.4000;0.3232;0.7012;
-143.1000;0.3175;0.6838;
-142.8000;0.3191;0.6888;
-142.5000;0.3223;0.6987;
-142.2000;0.3248;0.7087;
-141.9000;0.3158;0.7012;
-141.6000;0.3232;0.7311;
-141.3000;0.3215;0.7360;
-141.0000;0.3191;0.7236;
-140.7000;0.3223;0.7236;
-140.4000;0.3207;0.7261;
-140.1000;0.3215;0.7385;
-139.8000;0.3191;0.7311;
-139.5000;0.3191;0.7261;
-139.2000;0.3223;0.7286;
-138.9000;0.3223;0.7311;
-138.6000;0.3240;0.7335;
-138.3000;0.3223;0.7385;
-138.0000;0.3215;0.7460;
-137.7000;0.3175;0.7410;
-137.4000;0.3240;0.7435;
-137.1000;0.3207;0.7286;
-136.8000;0.3166;0.7186;
-136.5000;0.3215;0.7236;
-136.2000;0.3240;0.7335;
-135.9000;0.3256;0.7311;
-135.6000;0.3223;0.7211;
-135.3000;0.3232;0.7161;
-135.0000;0.3166;0.7037;
-134.7000;0.3183;0.7062;
-134.4000;0.3191;0.7137;
-134.1000;0.3232;0.7261;
-133.8000;0.3223;0.7211;
-133.5000;0.3207;0.7112;
-133.2000;0.3207;0.7161;
-132.9000;0.3240;0.7112;
-132.6000;0.3223;0.6987;
-132.3000;0.3232;0.6963;
-132.0000;0.3248;0.7012;
-131.7000;0.3215;0.6963;
-131.4000;0.3223;0.7112;
-131.1000;0.3223;0.7186;
-130.8000;0.3232;0.7186;
-130.5000;0.3199;0.7211;
-130.2000;0.3207;0.7211;
-129.9000;0.3232;0.7261;
-129.6000;0.3232;0.7261;
-129.3000;0.3215;0.7236;
-129.0000;0.3223;0.7311;
-128.7000;0.3223;0.7236;
-128.4000;0.3223;0.7360;
-128.1000;0.3232;0.7335;
-127.8000;0.3223;0.7261;
-127.5000;0.3207;0.7211;
-127.2000;0.3232;0.7360;
-126.9000;0.3240;0.7286;
-126.6000;0.3256;0.7385;
-126.3000;0.3248;0.7360;
-126.0000;0.3248;0.7286;
-125.7000;0.3207;0.7211;
-125.4000;0.3150;0.7037;
-125.1000;0.3175;0.7012;
-124.8000;0.3240;0.7186;
-124.5000;0.3215;0.7161;
-124.2000;0.3223;0.7112;
-123.9000;0.3232;0.7211;
-123.6000;0.3223;0.7186;
-123.3000;0.3223;0.7161;
-123.0000;0.3240;0.7186;
-122.7000;0.3223;0.7112;
-122.4000;0.3223;0.7112;
-122.1000;0.3232;0.7161;
-121.8000;0.3248;0.7261;
-121.5000;0.3223;0.7211;
-121.2000;0.3240;0.7311;
-120.9000;0.3215;0.7236;
-120.6000;0.3248;0.7261;
-120.3000;0.3232;0.7236;
-120.0000;0.3223;0.7311;
-119.7000;0.3256;0.7385;
-119.4000;0.3240;0.7261;
-119.1000;0.3183;0.7087;
-118.8000;0.3232;0.7186;
-118.5000;0.3223;0.7211;
-118.2000;0.3223;0.7261;
-117.9000;0.3215;0.7236;
-117.6000;0.3215;0.7261;
-117.3000;0.3175;0.7186;
-117.0000;0.3240;0.7360;
-116.7000;0.3207;0.7137;
-116.4000;0.3215;0.7137;
-116.1000;0.3223;0.7236;
-115.8000;0.3207;0.7186;
-115.5000;0.3223;0.7286;
-115.2000;0.3207;0.7236;
-114.9000;0.3232;0.7236;
-114.6000;0.3207;0.7211;
-114.3000;0.3240;0.7335;
-114.0000;0.3223;0.7211;
-113.7000;0.3223;0.7286;
-113.4000;0.3215;0.7211;
-113.1000;0.3240;0.7236;
-112.8000;0.3264;0.7311;
-112.5000;0.3223;0.7186;
-112.2000;0.3223;0.7186;
-111.9000;0.3248;0.7286;
-111.6000;0.3215;0.7211;
-111.3000;0.3240;0.7261;
-111.0000;0.3240;0.7161;
-110.7000;0.3248;0.7161;
-110.4000;0.3223;0.7161;
-110.1000;0.3248;0.7161;
-109.8000;0.3199;0.7062;
-109.5000;0.3232;0.7161;
-109.2000;0.3223;0.7137;
-108.9000;0.3232;0.7211;
-108.6000;0.3240;0.7211;
-108.3000;0.3215;0.7311;
-108.0000;0.3223;0.7335;
-107.7000;0.3207;0.7261;
-107.4000;0.3215;0.7286;
-107.1000;0.3223;0.7261;
-106.8000;0.3240;0.7261;
-106.5000;0.3232;0.7311;
-106.2000;0.3223;0.7261;
-105.9000;0.3191;0.7112;
-105.6000;0.3240;0.7211;
-105.3000;0.3199;0.7112;
-105.0000;0.3240;0.7261;
-104.7000;0.3248;0.7261;
-104.4000;0.3223;0.7261;
-104.1000;0.3215;0.7211;
-103.8000;0.3232;0.7161;
-103.5000;0.3232;0.7161;
-103.2000;0.3215;0.7112;
-102.9000;0.3223;0.7062;
-102.6000;0.3199;0.7062;
-102.3000;0.3199;0.7137;
-102.0000;0.3215;0.7236;
-101.7000;0.3223;0.7161;
-101.4000;0.3223;0.7161;
-101.1000;0.3207;0.7037;
-100.8000;0.3223;0.7112;
-100.5000;0.3248;0.7137;
-100.2000;0.3223;0.7062;
-99.9000;0.3248;0.7112;
-99.6000;0.3223;0.7087;
-99.3000;0.3199;0.7112;
-99.0000;0.3199;0.7186;
-98.7000;0.3166;0.7112;
-98.4000;0.3256;0.7360;
-98.1000;0.3256;0.7360;
-97.8000;0.3223;0.7261;
-97.5000;0.3280;0.7460;
-97.2000;0.3158;0.7261;
-96.9000;0.3232;0.7485;
-96.6000;0.3223;0.7460;
-96.3000;0.3223;0.7460;
-96.0000;0.3215;0.7360;
-95.7000;0.3232;0.7360;
-95.4000;0.3232;0.7311;
-95.1000;0.3240;0.7286;
-94.8000;0.3207;0.7211;
-94.5000;0.3232;0.7286;
-94.2000;0.3215;0.7335;
-93.9000;0.3207;0.7311;
-93.6000;0.3240;0.7335;
-93.3000;0.3215;0.7286;
-93.0000;0.3199;0.7211;
-92.7000;0.3232;0.7360;
-92.4000;0.3223;0.7261;
-92.1000;0.3199;0.7211;
-91.8000;0.3223;0.7311;
-91.5000;0.3240;0.7311;
-91.2000;0.3223;0.7211;
-90.9000;0.3223;0.7211;
-90.6000;0.3232;0.7137;
-90.3000;0.3240;0.7335;
-90.0000;0.3232;0.7335;
-89.7000;0.3232;0.7335;
-89.4000;0.3215;0.7261;
-89.1000;0.3223;0.7335;
-88.8000;0.3240;0.7435;
-88.5000;0.3223;0.7360;
-88.2000;0.3215;0.7435;
-87.9000;0.3207;0.7335;
-87.6000;0.3223;0.7311;
-87.3000;0.3223;0.7261;
-87.0000;0.3215;0.7286;
-86.7000;0.3240;0.7335;
-86.4000;0.3223;0.7286;
-86.1000;0.3232;0.7335;
-85.8000;0.3280;0.7460;
-85.5000;0.3215;0.7335;
-85.2000;0.3248;0.7311;
-84.9000;0.3272;0.7311;
-84.6000;0.3215;0.7236;
-84.3000;0.3232;0.7236;
-84.0000;0.3215;0.7335;
-83.7000;0.3232;0.7385;
-83.4000;0.3215;0.7311;
-83.1000;0.3223;0.7385;
-82.8000;0.3232;0.7311;
-82.5000;0.3240;0.7360;
-82.2000;0.3199;0.7335;
-81.9000;0.3207;0.7311;
-81.6000;0.3232;0.7460;
-81.3000;0.3232;0.7435;
-81.0000;0.3248;0.7534;
-80.7000;0.3207;0.7460;
-80.4000;0.3223;0.7460;
-80.1000;0.3240;0.7410;
-79.8000;0.3223;0.7435;
-79.5000;0.3223;0.7510;
-79.2000;0.3223;0.7460;
-78.9000;0.3240;0.7534;
-78.6000;0.3223;0.7385;
-78.3000;0.3223;0.7360;
-78.0000;0.3223;0.7435;
-77.7000;0.3232;0.7385;
-77.4000;0.3256;0.7460;
-77.1000;0.3223;0.7335;
-76.8000;0.3232;0.7385;
-76.5000;0.3240;0.7435;
-76.2000;0.3232;0.7335;
-75.9000;0.3297;0.7410;
-75.6000;0.3223;0.7161;
-75.3000;0.3215;0.7186;
-75.0000;0.3223;0.7186;
-74.7000;0.3215;0.7211;
-74.4000;0.3248;0.7286;
-74.1000;0.3215;0.7211;
-73.8000;0.3223;0.7137;
-73.5000;0.3215;0.7137;
-73.2000;0.3240;0.7286;
-72.9000;0.3199;0.7261;
-72.6000;0.3280;0.7485;
-72.3000;0.3223;0.7311;
-72.0000;0.3207;0.7311;
-71.7000;0.3248;0.7335;
-71.4000;0.3207;0.7261;
-71.1000;0.3232;0.7236;
-70.8000;0.3215;0.7211;
-70.5000;0.3207;0.7335;
-70.2000;0.3223;0.7485;
-69.9000;0.3232;0.7460;
-69.6000;0.3215;0.7435;
-69.3000;0.3223;0.7485;
-69.0000;0.3223;0.7410;
-68.7000;0.3232;0.7335;
-68.4000;0.3223;0.7360;
-68.1000;0.3150;0.7137;
-67.8000;0.3215;0.7311;
-67.5000;0.3240;0.7385;
-67.2000;0.3248;0.7335;
-66.9000;0.3223;0.7261;
-66.6000;0.3248;0.7286;
-66.3000;0.3248;0.7311;
-66.0000;0.3215;0.7261;
-65.7000;0.3232;0.7286;
-65.4000;0.3215;0.7137;
-65.1000;0.3240;0.7286;
-64.8000;0.3223;0.7335;
-64.5000;0.3232;0.7460;
-64.2000;0.3232;0.7510;
-63.9000;0.3207;0.7385;
-63.6000;0.3232;0.7385;
-63.3000;0.3240;0.7311;
-63.0000;0.3215;0.7311;
-62.7000;0.3199;0.7335;
-62.4000;0.3223;0.7335;
-62.1000;0.3256;0.7485;
-61.8000;0.3280;0.7485;
-61.5000;0.3223;0.7360;
-61.2000;0.3223;0.7385;
-60.9000;0.3240;0.7410;
-60.6000;0.3264;0.7559;
-60.3000;0.3191;0.7410;
-60.0000;0.3240;0.7510;
-59.7000;0.3207;0.7385;
-59.4000;0.3223;0.7385;
-59.1000;0.3215;0.7360;
-58.8000;0.3232;0.7385;
-58.5000;0.3223;0.7435;
-58.2000;0.3256;0.7460;
-57.9000;0.3240;0.7460;
-57.6000;0.3232;0.7410;
-57.3000;0.3240;0.7559;
-57.0000;0.3215;0.7410;
-56.7000;0.3207;0.7360;
-56.4000;0.3223;0.7460;
-56.1000;0.3240;0.7510;
-55.8000;0.3232;0.7534;
-55.5000;0.3232;0.7609;
-55.2000;0.3272;0.7609;
-54.9000;0.3215;0.7435;
-54.6000;0.3256;0.7410;
-54.3000;0.3232;0.7385;
-54.0000;0.3240;0.7460;
-53.7000;0.3248;0.7510;
-53.4000;0.3223;0.7385;
-53.1000;0.3223;0.7385;
-52.8000;0.3215;0.7286;
-52.5000;0.3223;0.7311;
-52.2000;0.3223;0.7410;
-51.9000;0.3199;0.7435;
-51.6000;0.3215;0.7460;
-51.3000;0.3199;0.7460;
-51.0000;0.3223;0.7435;
-50.7000;0.3215;0.7335;
-50.4000;0.3240;0.7410;
-50.1000;0.3223;0.7335;
-49.8000;0.3215;0.7311;
-49.5000;0.3223;0.7335;
-49.2000;0.3223;0.7286;
-48.9000;0.3207;0.7261;
-48.6000;0.3191;0.7236;
-48.3000;0.3215;0.7360;
-48.0000;0.3215;0.7435;
-47.7000;0.3232;0.7485;
-47.4000;0.3207;0.7510;
-47.1000;0.3223;0.7460;
-46.8000;0.3232;0.7510;
-46.5000;0.3232;0.7460;
-46.2000;0.3158;0.7236;
-45.9000;0.3215;0.7485;
-45.6000;0.3223;0.7485;
-45.3000;0.3232;0.7534;
-45.0000;0.3215;0.7584;
-44.7000;0.3223;0.7609;
-44.4000;0.3248;0.7584;
-44.1000;0.3207;0.7510;
-43.8000;0.3321;0.7783;
-43.5000;0.3223;0.7559;
-43.2000;0.3215;0.7460;
-42.9000;0.3223;0.7510;
-42.6000;0.3191;0.7311;
-42.3000;0.3232;0.7435;
-42.0000;0.3232;0.7460;
-41.7000;0.3280;0.7534;
-41.4000;0.3207;0.7311;
-41.1000;0.3207;0.7286;
-40.8000;0.3240;0.7410;
-40.5000;0.3215;0.7360;
-40.2000;0.3223;0.7435;
-39.9000;0.3199;0.7435;
-39.6000;0.3166;0.7211;
-39.3000;0.3199;0.7311;
-39.0000;0.3207;0.7311;
-38.7000;0.3232;0.7385;
-38.4000;0.3240;0.7460;
-38.1000;0.3223;0.7460;
-37.8000;0.3232;0.7410;
-37.5000;0.3232;0.7385;
-37.2000;0.3223;0.7335;
-36.9000;0.3223;0.7485;
-36.6000;0.3215;0.7510;
-36.3000;0.3223;0.7534;
-36.0000;0.3223;0.7510;
-35.7000;0.3215;0.7534;
-35.4000;0.3232;0.7559;
-35.1000;0.3232;0.7534;
-34.8000;0.3223;0.7410;
-34.5000;0.3232;0.7360;
-34.2000;0.3191;0.7186;
-33.9000;0.3215;0.7311;
-33.6000;0.3240;0.7360;
-33.3000;0.3223;0.7410;
-33.0000;0.3240;0.7485;
-32.7000;0.3215;0.7510;
-32.4000;0.3223;0.7460;
-32.1000;0.3232;0.7510;
-31.8000;0.3240;0.7534;
-31.5000;0.3215;0.7485;
-31.2000;0.3215;0.7460;
-30.9000;0.3248;0.7385;
-30.6000;0.3240;0.7335;
-30.3000;0.3166;0.7161;
-30.0000;0.3272;0.7460;
-29.7000;0.3223;0.7360;
-29.4000;0.3215;0.7286;
-29.1000;0.3232;0.7385;
-28.8000;0.3215;0.7385;
-28.5000;0.3223;0.7435;
-28.2000;0.3223;0.7510;
-27.9000;0.3297;0.7783;
-27.6000;0.3223;0.7559;
-27.3000;0.3248;0.7534;
-27.0000;0.3232;0.7485;
-26.7000;0.3240;0.7510;
-26.4000;0.3223;0.7485;
-26.1000;0.3207;0.7410;
-25.8000;0.3215;0.7385;
-25.5000;0.3232;0.7460;
-25.2000;0.3232;0.7435;
-24.9000;0.3223;0.7335;
-24.6000;0.3223;0.7360;
-24.3000;0.3240;0.7435;
-24.0000;0.3223;0.7385;
-23.7000;0.3215;0.7360;
-23.4000;0.3215;0.7360;
-23.1000;0.3207;0.7311;
-22.8000;0.3223;0.7311;
-22.5000;0.3215;0.7311;
-22.2000;0.3199;0.7211;
-21.9000;0.3232;0.7311;
-21.6000;0.3240;0.7335;
-21.3000;0.3215;0.7311;
-21.0000;0.3207;0.7236;
-20.7000;0.3289;0.7410;
-20.4000;0.3232;0.7161;
-20.1000;0.3183;0.7037;
-19.8000;0.3207;0.7186;
-19.5000;0.3223;0.7211;
-19.2000;0.3223;0.7261;
-18.9000;0.3223;0.7261;
-18.6000;0.3207;0.7261;
-18.3000;0.3223;0.7335;
-18.0000;0.3215;0.7311;
-17.7000;0.3256;0.7385;
-17.4000;0.3240;0.7286;
-17.1000;0.3232;0.7311;
-16.8000;0.3223;0.7286;
-16.5000;0.3232;0.7311;
-16.2000;0.3248;0.7410;
-15.9000;0.3240;0.7286;
-15.6000;0.3223;0.7236;
-15.3000;0.3223;0.7261;
-15.0000;0.3207;0.7236;
-14.7000;0.3215;0.7311;
-14.4000;0.3207;0.7311;
-14.1000;0.3223;0.7311;
-13.8000;0.3215;0.7261;
-13.5000;0.3199;0.7137;
-13.2000;0.3223;0.7186;
-12.9000;0.3215;0.7161;
-12.6000;0.3215;0.7261;
-12.3000;0.3223;0.7311;
-12.0000;0.3223;0.7410;
-11.7000;0.3240;0.7385;
-11.4000;0.3240;0.7385;
-11.1000;0.3232;0.7460;
-10.8000;0.3223;0.7485;
-10.5000;0.3223;0.7410;
-10.2000;0.3207;0.7261;
-9.9000;0.3207;0.7186;
-9.6000;0.3207;0.7261;
-9.3000;0.3223;0.7286;
-9.0000;0.3223;0.7360;
-8.7000;0.3215;0.7311;
-8.4000;0.3207;0.7161;
-8.1000;0.3207;0.7112;
-7.8000;0.3232;0.7087;
-7.5000;0.3223;0.7112;
-7.2000;0.3215;0.7161;
-6.9000;0.3223;0.7236;
-6.6000;0.3232;0.7286;
-6.3000;0.3248;0.7286;
-6.0000;0.3223;0.7261;
-5.7000;0.3232;0.7311;
-5.4000;0.3232;0.7311;
-5.1000;0.3223;0.7311;
-4.8000;0.3232;0.7460;
-4.5000;0.3240;0.7385;
-4.2000;0.3232;0.7360;
-3.9000;0.3240;0.7335;
-3.6000;0.3240;0.7286;
-3.3000;0.3223;0.7311;
-3.0000;0.3223;0.7385;
-2.7000;0.3272;0.7385;
-2.4000;0.3232;0.7236;
-2.1000;0.3223;0.7186;
-1.8000;0.3215;0.7261;
-1.5000;0.3215;0.7161;
-1.2000;0.3232;0.7161;
-0.9000;0.3166;0.7062;
-0.6000;0.3223;0.7236;
-0.3000;0.3223;0.7236;
0.0000;0.3223;0.7236;
0.3000;0.3321;0.7137;
0.6000;0.3549;0.7534;
0.9000;0.3712;0.7982;
1.2000;0.3842;0.8355;
1.5000;0.3940;0.8579;
1.8000;0.4005;0.8803;
2.1000;0.4078;0.9002;
2.4000;0.4135;0.9076;
2.7000;0.4176;0.9300;
3.0000;0.4200;0.9449;
3.3000;0.4265;0.9648;
3.6000;0.4249;0.9673;
3.9000;0.4314;0.9847;
4.2000;0.4322;0.9897;
4.5000;0.4233;0.9772;
4.8000;0.4314;0.9897;
5.1000;0.4347;0.9996;
5.4000;0.4322;0.9946;
5.7000;0.4355;0.9897;
6.0000;0.4363;0.9971;
6.3000;0.4396;0.9946;
6.6000;0.4387;0.9996;
6.9000;0.4355;0.9922;
7.2000;0.4396;0.9996;
7.5000;0.4477;1.0245;
7.8000;0.4379;1.0096;
8.1000;0.4469;1.0270;
8.4000;0.4444;1.0195;
8.7000;0.4469;1.0220;
9.0000;0.4428;1.0145;
9.3000;0.4469;1.0120;
9.6000;0.4477;1.0170;
9.9000;0.4567;1.0394;
10.2000;0.4501;1.0245;
10.5000;0.4510;1.0270;
10.8000;0.4501;1.0120;
11.1000;0.4501;1.0145;
11.4000;0.4526;1.0195;
11.7000;0.4501;1.0170;
12.0000;0.4510;1.0145;
12.3000;0.4542;1.0195;
12.6000;0.4493;1.0096;
12.9000;0.4567;1.0220;
13.2000;0.4575;1.0145;
13.5000;0.4640;1.0319;
13.8000;0.4607;1.0245;
14.1000;0.4615;1.0295;
14.4000;0.4599;1.0245;
14.7000;0.4615;1.0220;
15.0000;0.4607;1.0220;
15.3000;0.4615;1.0195;
15.6000;0.4615;1.0145;
15.9000;0.4672;1.0295;
16.2000;0.4640;1.0220;
16.5000;0.4640;1.0295;
16.8000;0.4656;1.0220;
17.1000;0.4615;1.0021;
17.4000;0.4681;1.0120;
17.7000;0.4664;1.0120;
18.0000;0.4672;1.0120;
18.3000;0.4689;1.0096;
18.6000;0.4721;1.0096;
18.9000;0.4664;0.9946;
19.2000;0.4672;0.9971;
19.5000;0.4648;0.9971;
19.8000;0.4713;1.0046;
20.1000;0.4713;0.9946;
20.4000;0.4697;0.9971;
20.7000;0.4705;1.0021;
21.0000;0.4705;1.0021;
21.3000;0.4705;1.0046;
21.6000;0.4713;1.0071;
21.9000;0.4705;1.0021;
22.2000;0.4721;1.0046;
22.5000;0.4705;0.9971;
22.8000;0.4729;0.9996;
23.1000;0.4737;0.9996;
23.4000;0.4746;1.0071;
23.7000;0.4762;1.0170;
24.0000;0.4746;1.0245;
24.3000;0.4770;1.0295;
24.6000;0.4778;1.0145;
24.9000;0.4762;1.0021;
25.2000;0.4762;1.0021;
25.5000;0.4754;1.0046;
25.8000;0.4770;1.0046;
26.1000;0.4762;1.0021;
26.4000;0.4786;1.0096;
26.7000;0.4803;1.0145;
27.0000;0.4860;1.0270;
27.3000;0.4786;1.0145;
27.6000;0.4803;1.0145;
27.9000;0.4803;1.0195;
28.2000;0.4827;1.0270;
28.5000;0.4811;1.0195;
28.8000;0.4803;1.0145;
29.1000;0.4803;1.0046;
29.4000;0.4819;1.0270;
29.7000;0.4827;1.0245;
30.0000;0.4770;1.0120;
30.3000;0.4835;1.0270;
30.6000;0.4819;1.0295;
30.9000;0.4811;1.0245;
31.2000;0.4851;1.0295;
31.5000;0.4827;1.0220;
31.8000;0.4835;1.0195;
32.1000;0.4786;0.9971;
32.4000;0.4827;0.9971;
32.7000;0.4827;1.0021;
33.0000;0.4843;1.0046;
33.3000;0.4835;1.0021;
33.6000;0.4908;1.0071;
33.9000;0.4860;0.9922;
34.2000;0.4868;0.9996;
34.5000;0.4827;0.9946;
34.8000;0.4819;0.9897;
35.1000;0.4835;0.9847;
35.4000;0.4835;0.9897;
35.7000;0.4835;0.9872;
36.0000;0.4851;0.9847;
36.3000;0.4843;0.9822;
36.6000;0.4868;0.9822;
36.9000;0.4900;0.9922;
37.2000;0.4851;0.9847;
37.5000;0.4884;0.9996;
37.8000;0.4884;1.0021;
38.1000;0.4868;0.9946;
38.4000;0.4876;0.9996;
38.7000;0.4860;1.0021;
39.0000;0.4908;1.0046;
39.3000;0.4892;0.9996;
39.6000;0.4892;0.9971;
39.9000;0.4868;0.9797;
40.2000;0.4876;0.9748;
40.5000;0.4884;0.9772;
40.8000;0.4851;0.9698;
41.1000;0.4843;0.9673;
41.4000;0.4884;0.9723;
41.7000;0.4925;0.9822;
42.0000;0.4908;0.9772;
42.3000;0.4884;0.9772;
42.6000;0.4868;0.9673;
42.9000;0.4892;0.9723;
43.2000;0.4949;0.9922;
43.5000;0.4957;0.9897;
43.8000;0.4900;0.9822;
44.1000;0.4908;0.9772;
44.4000;0.4908;0.9822;
44.7000;0.4876;0.9772;
45.0000;0.4900;0.9897;
45.3000;0.4908;0.9946;
45.6000;0.4917;0.9872;
45.9000;0.4917;0.9897;
46.2000;0.4933;0.9897;
46.5000;0.4917;0.9822;
46.8000;0.4917;0.9797;
47.1000;0.4917;0.9897;
47.4000;0.4917;0.9922;
47.7000;0.4933;1.0021;
48.0000;0.4917;1.0120;
48.3000;0.4933;1.0170;
48.6000;0.4957;1.0071;
48.9000;0.4925;0.9971;
49.2000;0.4974;1.0096;
49.5000;0.4941;1.0071;
49.8000;0.4941;1.0071;
50.1000;0.4925;0.9946;
50.4000;0.4949;0.9996;
50.7000;0.4949;0.9922;
51.0000;0.4957;0.9847;
51.3000;0.4900;0.9698;
51.6000;0.4933;0.9748;
51.9000;0.4965;0.9847;
52.2000;0.4965;0.9797;
52.5000;0.4949;0.9822;
52.8000;0.4957;0.9748;
53.1000;0.4957;0.9797;
53.4000;0.4965;0.9797;
53.7000;0.4965;0.9822;
54.0000;0.5031;0.9946;
54.3000;0.4965;0.9847;
54.6000;0.4982;0.9772;
54.9000;0.4965;0.9723;
55.2000;0.4990;0.9723;
55.5000;0.4965;0.9673;
55.8000;0.4974;0.9648;
56.1000;0.4965;0.9623;
56.4000;0.4974;0.9623;
56.7000;0.4974;0.9673;
57.0000;0.4982;0.9723;
57.3000;0.4982;0.9723;
57.6000;0.5055;0.9872;
57.9000;0.4982;0.9698;
58.2000;0.5014;0.9797;
58.5000;0.5055;0.9822;
58.8000;0.5014;0.9772;
59.1000;0.5006;0.9797;
59.4000;0.4974;0.9698;
59.7000;0.5022;0.9748;
60.0000;0.5022;0.9698;
60.3000;0.5014;0.9623;
60.6000;0.5006;0.9598;
60.9000;0.5014;0.9698;
61.2000;0.5006;0.9648;
61.5000;0.5022;0.9623;
61.8000;0.5063;0.9698;
62.1000;0.5006;0.9573;
62.4000;0.5031;0.9598;
62.7000;0.5006;0.9573;
63.0000;0.5031;0.9673;
63.3000;0.5014;0.9723;
63.6000;0.5022;0.9772;
63.9000;0.5055;0.9797;
64.2000;0.5022;0.9698;
64.5000;0.4957;0.9524;
64.8000;0.5055;0.9723;
65.1000;0.5031;0.9549;
65.4000;0.5031;0.9524;
65.7000;0.5047;0.9499;
66.0000;0.5006;0.9375;
66.3000;0.5039;0.9474;
66.6000;0.5055;0.9499;
66.9000;0.5039;0.9449;
67.2000;0.5063;0.9573;
67.5000;0.5047;0.9549;
67.8000;0.5031;0.9424;
68.1000;0.5063;0.9424;
68.4000;0.5047;0.9399;
68.7000;0.5063;0.9449;
69.0000;0.5047;0.9399;
69.3000;0.5047;0.9424;
69.6000;0.5055;0.9424;
69.9000;0.5088;0.9499;
70.2000;0.5055;0.9350;
70.5000;0.5055;0.9375;
70.8000;0.5063;0.9350;
71.1000;0.5055;0.9399;
71.4000;0.5071;0.9449;
71.7000;0.5071;0.9375;
72.0000;0.5071;0.9325;
72.3000;0.5063;0.9325;
72.6000;0.5055;0.9300;
72.9000;0.5071;0.9300;
73.2000;0.5120;0.9375;
73.5000;0.5055;0.9250;
73.8000;0.5079;0.9325;
74.1000;0.5096;0.9424;
74.4000;0.5022;0.9275;
74.7000;0.5104;0.9449;
75.0000;0.5088;0.9499;
75.3000;0.5185;0.9673;
75.6000;0.5136;0.9549;
75.9000;0.5079;0.9399;
76.2000;0.5096;0.9399;
76.5000;0.5096;0.9499;
76.8000;0.5096;0.9524;
77.1000;0.5071;0.9399;
77.4000;0.5088;0.9474;
77.7000;0.5104;0.9399;
78.0000;0.5112;0.9424;
78.3000;0.5088;0.9424;
78.6000;0.5104;0.9375;
78.9000;0.5112;0.9499;
79.2000;0.5112;0.9499;
79.5000;0.5112;0.9474;
79.8000;0.5112;0.9474;
80.1000;0.5128;0.9524;
80.4000;0.5128;0.9573;
80.7000;0.5120;0.9623;
81.0000;0.5104;0.9524;
81.3000;0.5112;0.9573;
81.6000;0.5112;0.9524;
81.9000;0.5128;0.9524;
82.2000;0.5112;0.9474;
82.5000;0.5112;0.9499;
82.8000;0.5136;0.9573;
83.1000;0.5128;0.9549;
83.4000;0.5120;0.9474;
83.7000;0.5161;0.9573;
84.0000;0.5112;0.9499;
84.3000;0.5112;0.9449;
84.6000;0.5120;0.9524;
84.9000;0.5112;0.9424;
85.2000;0.5128;0.9524;
85.5000;0.5112;0.9474;
85.8000;0.5161;0.9598;
86.1000;0.5104;0.9549;
86.4000;0.5128;0.9549;
86.7000;0.5169;0.9623;
87.0000;0.5128;0.9524;
87.3000;0.5144;0.9524;
87.6000;0.5128;0.9499;
87.9000;0.5120;0.9549;
88.2000;0.5144;0.9648;
88.5000;0.5136;0.9598;
88.8000;0.5136;0.9524;
89.1000;0.5153;0.9573;
89.4000;0.5169;0.9499;
89.7000;0.5112;0.9275;
90.0000;0.5161;0.9399;
90.3000;0.5161;0.9350;
90.6000;0.5161;0.9325;
90.9000;0.5169;0.9350;
91.2000;0.5153;0.9325;
91.5000;0.5161;0.9399;
91.8000;0.5153;0.9449;
92.1000;0.5144;0.9424;
92.4000;0.5161;0.9499;
92.7000;0.5128;0.9424;
93.0000;0.5185;0.9524;
93.3000;0.5169;0.9499;
93.6000;0.5169;0.9573;
93.9000;0.5193;0.9573;
94.2000;0.5169;0.9524;
94.5000;0.5177;0.9449;
94.8000;0.5169;0.9399;
95.1000;0.5169;0.9424;
95.4000;0.5177;0.9449;
95.7000;0.5185;0.9524;
96.0000;0.5177;0.9573;
96.3000;0.5169;0.9524;
96.6000;0.5128;0.9474;
96.9000;0.5177;0.9598;
97.2000;0.5201;0.9698;
97.5000;0.5177;0.9573;
97.8000;0.5144;0.9474;
98.1000;0.5169;0.9524;
98.4000;0.5169;0.9524;
98.7000;0.5185;0.9549;
99.0000;0.5169;0.9474;
99.3000;0.5210;0.9598;
99.6000;0.5169;0.9350;
99.9000;0.5185;0.9449;
100.2000;0.5226;0.9598;
100.5000;0.5169;0.9598;
100.8000;0.5193;0.9698;
101.1000;0.5185;0.9698;
101.4000;0.5185;0.9723;
101.7000;0.5201;0.9772;
102.0000;0.5250;0.9946;
102.3000;0.5153;0.9623;
102.6000;0.5226;0.9872;
102.9000;0.5128;0.9573;
103.2000;0.5185;0.9524;
103.5000;0.5193;0.9573;
103.8000;0.5169;0.9499;
104.1000;0.5291;0.9772;
104.4000;0.5185;0.9549;
104.7000;0.5340;0.9922;
105.0000;0.5169;0.9549;
105.3000;0.5210;0.9648;
105.6000;0.5218;0.9723;
105.9000;0.5210;0.9698;
106.2000;0.5193;0.9673;
106.5000;0.5210;0.9648;
106.8000;0.5226;0.9673;
107.1000;0.5193;0.9648;
107.4000;0.5201;0.9698;
107.7000;0.5193;0.9648;
108.0000;0.5283;0.9822;
108.3000;0.5218;0.9598;
108.6000;0.5218;0.9549;
108.9000;0.5193;0.9499;
109.2000;0.5226;0.9474;
109.5000;0.5218;0.9549;
109.8000;0.5250;0.9648;
110.1000;0.5136;0.9300;
110.4000;0.5210;0.9474;
110.7000;0.5218;0.9424;
111.0000;0.5177;0.9350;
111.3000;0.5218;0.9573;
111.6000;0.5185;0.9549;
111.9000;0.5144;0.9499;
112.2000;0.5193;0.9648;
112.5000;0.5193;0.9648;
112.8000;0.5201;0.9623;
113.1000;0.5218;0.9623;
113.4000;0.5210;0.9648;
113.7000;0.5210;0.9524;
114.0000;0.5226;0.9449;
114.3000;0.5218;0.9549;
114.6000;0.5218;0.9573;
114.9000;0.5218;0.9573;
115.2000;0.5210;0.9598;
115.5000;0.5210;0.9549;
115.8000;0.5201;0.9598;
116.1000;0.5210;0.9673;
116.4000;0.5210;0.9598;
116.7000;0.5218;0.9573;
117.0000;0.5267;0.9748;
117.3000;0.5218;0.9648;
117.6000;0.5210;0.9648;
117.9000;0.5218;0.9623;
118.2000;0.5218;0.9648;
118.5000;0.5218;0.9698;
118.8000;0.5193;0.9673;
119.1000;0.5234;0.9748;
119.4000;0.5218;0.9698;
119.7000;0.5210;0.9673;
120.0000;0.5210;0.9673;
120.3000;0.5210;0.9648;
120.6000;0.5218;0.9723;
120.9000;0.5226;0.9698;
121.2000;0.5201;0.9673;
121.5000;0.5201;0.9623;
121.8000;0.5226;0.9648;
122.1000;0.5226;0.9772;
122.4000;0.5218;0.9872;
122.7000;0.5234;0.9822;
123.0000;0.5185;0.9772;
123.3000;0.5201;0.9822;
123.6000;0.5201;0.9748;
123.9000;0.5201;0.9748;
124.2000;0.5210;0.9648;
124.5000;0.5201;0.9648;
124.8000;0.5258;0.9772;
125.1000;0.5210;0.9623;
125.4000;0.5234;0.9698;
125.7000;0.5218;0.9673;
126.0000;0.5210;0.9648;
126.3000;0.5242;0.9698;
126.6000;0.5177;0.9598;
126.9000;0.5218;0.9648;
127.2000;0.5169;0.9598;
127.5000;0.5218;0.9648;
127.8000;0.5193;0.9549;
128.1000;0.5250;0.9598;
128.4000;0.5201;0.9424;
128.7000;0.5226;0.9399;
129.0000;0.5226;0.9300;
129.3000;0.5177;0.9350;
129.6000;0.5218;0.9424;
129.9000;0.5201;0.9424;
130.2000;0.5210;0.9524;
130.5000;0.5201;0.9549;
130.8000;0.5201;0.9648;
131.1000;0.5226;0.9723;
131.4000;0.5201;0.9549;
131.7000;0.5201;0.9598;
132.0000;0.5234;0.9748;
132.3000;0.5201;0.9598;
132.6000;0.5218;0.9499;
132.9000;0.5210;0.9375;
133.2000;0.5226;0.9449;
133.5000;0.5210;0.9474;
133.8000;0.5218;0.9573;
134.1000;0.5201;0.9573;
134.4000;0.5218;0.9573;
134.7000;0.5226;0.9723;
135.0000;0.5267;0.9723;
135.3000;0.5218;0.9573;
135.6000;0.5218;0.9499;
135.9000;0.5185;0.9449;
136.2000;0.5250;0.9524;
136.5000;0.5210;0.9499;
136.8000;0.5226;0.9524;
137.1000;0.5218;0.9474;
137.4000;0.5226;0.9524;
137.7000;0.5218;0.9623;
138.0000;0.5218;0.9598;
138.3000;0.5218;0.9549;
138.6000;0.5234;0.9598;
138.9000;0.5226;0.9573;
139.2000;0.5226;0.9549;
139.5000;0.5234;0.9623;
139.8000;0.5226;0.9549;
140.1000;0.5267;0.9698;
140.4000;0.5226;0.9598;
140.7000;0.5210;0.9549;
141.0000;0.5210;0.9573;
141.3000;0.5218;0.9573;
141.6000;0.5218;0.9499;
141.9000;0.5234;0.9474;
142.2000;0.5210;0.9499;
142.5000;0.5210;0.9549;
142.8000;0.5201;0.9573;
143.1000;0.5210;0.9499;
143.4000;0.5201;0.9499;
143.7000;0.5218;0.9499;
144.0000;0.5185;0.9350;
144.3000;0.5210;0.9449;
144.6000;0.5144;0.9250;
144.9000;0.5210;0.9350;
145.2000;0.5193;0.9325;
145.5000;0.5185;0.9325;
145.8000;0.5226;0.9300;
146.1000;0.5226;0.9350;
146.4000;0.5218;0.9399;
146.7000;0.5169;0.9325;
147.0000;0.5226;0.9449;
147.3000;0.5210;0.9375;
147.6000;0.5275;0.9673;
147.9000;0.5226;0.9449;
148.2000;0.5218;0.9499;
148.5000;0.5234;0.9573;
148.8000;0.5226;0.9499;
149.1000;0.5250;0.9524;
149.4000;0.5218;0.9499;
149.7000;0.5218;0.9499;
150.0000;0.5234;0.9549;
150.3000;0.5226;0.9524;
150.6000;0.5234;0.9524;
150.9000;0.5226;0.9474;
151.2000;0.5242;0.9573;
151.5000;0.5218;0.9449;
151.8000;0.5218;0.9449;
152.1000;0.5218;0.9474;
152.4000;0.5218;0.9474;
152.7000;0.5226;0.9499;
153.0000;0.5218;0.9449;
153.3000;0.5218;0.9524;
153.6000;0.5218;0.9549;
153.9000;0.5226;0.9524;
154.2000;0.5226;0.9499;
154.5000;0.5226;0.9549;
154.8000;0.5226;0.9573;
155.1000;0.5226;0.9648;
155.4000;0.5226;0.9648;
155.7000;0.5201;0.9524;
156.0000;0.5234;0.9623;
156.3000;0.5242;0.9573;
156.6000;0.5218;0.9524;
156.9000;0.5210;0.9399;
157.2000;0.5193;0.9325;
157.5000;0.5218;0.9300;
157.8000;0.5218;0.9300;
158.1000;0.5250;0.9375;
158.4000;0.5210;0.9250;
158.7000;0.5210;0.9375;
159.0000;0.5234;0.9499;
159.3000;0.5218;0.9549;
159.6000;0.5242;0.9698;
159.9000;0.5234;0.9723;
160.2000;0.5226;0.9748;
160.5000;0.5218;0.9822;
160.8000;0.5210;0.9822;
161.1000;0.5201;0.9797;
161.4000;0.5218;0.9772;
161.7000;0.5201;0.9673;
162.0000;0.5201;0.9573;
162.3000;0.5250;0.9723;
162.6000;0.5291;0.9723;
162.9000;0.5226;0.9623;
163.2000;0.5210;0.9524;
163.5000;0.5226;0.9549;
163.8000;0.5218;0.9524;
164.1000;0.5234;0.9549;
164.4000;0.5218;0.9499;
164.7000;0.5185;0.9424;
165.0000;0.5242;0.9399;
165.3000;0.5218;0.9325;
165.6000;0.5128;0.9101;
165.9000;0.5210;0.9325;
166.2000;0.5210;0.9300;
166.5000;0.5210;0.9350;
166.8000;0.5201;0.9350;
167.1000;0.5201;0.9449;
167.4000;0.5193;0.9424;
167.7000;0.5218;0.9424;
168.0000;0.5226;0.9474;
168.3000;0.5226;0.9524;
168.6000;0.5218;0.9524;
168.9000;0.5226;0.9549;
169.2000;0.5218;0.9474;
169.5000;0.5218;0.9424;
169.8000;0.5226;0.9474;
170.1000;0.5218;0.9449;
170.4000;0.5218;0.9449;
170.7000;0.5201;0.9399;
171.0000;0.5201;0.9375;
171.3000;0.5210;0.9449;
171.6000;0.5234;0.9449;
171.9000;0.5234;0.9499;
172.2000;0.5201;0.9424;
172.5000;0.5193;0.9424;
172.8000;0.5210;0.9499;
173.1000;0.5210;0.9449;
173.4000;0.5218;0.9549;
173.7000;0.5210;0.9524;
174.0000;0.5218;0.9549;
174.3000;0.5226;0.9549;
174.6000;0.5226;0.9474;
174.9000;0.5283;0.9623;
175.2000;0.5210;0.9474;
175.5000;0.5193;0.9449;
175.8000;0.5226;0.9499;
176.1000;0.5210;0.9499;
176.4000;0.5218;0.9449;
176.7000;0.5144;0.9300;
177.0000;0.5193;0.9424;
177.3000;0.5218;0.9474;
177.6000;0.5218;0.9474;
177.9000;0.5193;0.9474;
178.2000;0.5210;0.9474;
178.5000;0.5218;0.9573;
178.8000;0.5226;0.9598;
179.1000;0.5210;0.9598;
179.4000;0.5153;0.9399;
179.7000;0.5291;0.9698;
180.0000;0.5185;0.9350;
180.3000;0.5218;0.9474;
180.6000;0.5218;0.9573;
180.9000;0.5193;0.9573;
181.2000;0.5201;0.9598;
181.5000;0.5218;0.9698;
181.8000;0.5283;0.9847;
182.1000;0.5210;0.9698;
182.4000;0.5218;0.9748;
182.7000;0.5218;0.9648;
183.0000;0.5210;0.9524;
183.3000;0.5218;0.9424;
183.6000;0.5210;0.9399;
183.9000;0.5226;0.9524;
184.2000;0.5193;0.9449;
184.5000;0.5210;0.9350;
184.8000;0.5193;0.9325;
185.1000;0.5242;0.9524;
185.4000;0.5210;0.9474;
185.7000;0.5210;0.9499;
186.0000;0.5177;0.9350;
186.3000;0.5185;0.9350;
186.6000;0.5218;0.9399;
186.9000;0.5226;0.9424;
187.2000;0.5242;0.9499;
187.5000;0.5144;0.9250;
187.8000;0.5193;0.9399;
188.1000;0.5218;0.9399;
188.4000;0.5226;0.9474;
188.7000;0.5201;0.9424;
189.0000;0.5201;0.9524;
189.3000;0.5242;0.9673;
189.6000;0.5210;0.9474;
189.9000;0.5218;0.9474;
190.2000;0.5177;0.9424;
190.5000;0.5177;0.9524;
190.8000;0.5210;0.9573;
191.1000;0.5210;0.9549;
191.4000;0.5169;0.9424;
191.7000;0.5218;0.9449;
192.0000;0.5210;0.9499;
192.3000;0.5210;0.9474;
192.6000;0.5201;0.9524;
192.9000;0.5201;0.9549;
193.2000;0.5267;0.9797;
193.5000;0.5218;0.9748;
193.8000;0.5201;0.9748;
194.1000;0.5218;0.9748;
194.4000;0.5218;0.9723;
194.7000;0.5218;0.9723;
195.0000;0.5210;0.9648;
195.3000;0.5218;0.9573;
195.6000;0.5218;0.9549;
195.9000;0.5201;0.9474;
196.2000;0.5226;0.9474;
196.5000;0.5210;0.9449;
196.8000;0.5210;0.9524;
197.1000;0.5201;0.9549;
197.4000;0.5234;0.9598;
197.7000;0.5177;0.9424;
198.0000;0.5201;0.9449;
198.3000;0.5210;0.9350;
198.6000;0.5193;0.9300;
198.9000;0.5185;0.9225;
199.2000;0.5193;0.9250;
199.5000;0.5226;0.9375;
199.8000;0.5218;0.9474;
200.1000;0.5201;0.9449;
200.4000;0.5218;0.9424;
200.7000;0.5161;0.9200;
201.0000;0.5234;0.9399;
201.3000;0.5210;0.9424;
201.6000;0.5193;0.9499;
201.9000;0.5177;0.9449;
202.2000;0.5201;0.9474;
202.5000;0.5210;0.9524;
202.8000;0.5185;0.9474;
203.1000;0.5226;0.9573;
203.4000;0.5193;0.9474;
203.7000;0.5234;0.9648;
204.0000;0.5218;0.9598;
204.3000;0.5218;0.9573;
204.6000;0.5185;0.9499;
204.9000;0.5201;0.9449;
205.2000;0.5193;0.9449;
205.5000;0.5185;0.9325;
205.8000;0.5201;0.9375;
206.1000;0.5201;0.9325;
206.4000;0.5201;0.9350;
206.7000;0.5193;0.9399;
207.0000;0.5201;0.9424;
207.3000;0.5185;0.9375;
207.6000;0.5234;0.9549;
207.9000;0.5210;0.9449;
208.2000;0.5210;0.9474;
208.5000;0.5267;0.9648;
208.8000;0.5193;0.9524;
209.1000;0.5218;0.9573;
209.4000;0.5218;0.9598;
209.7000;0.5226;0.9623;
210.0000;0.5218;0.9648;
210.3000;0.5210;0.9573;
210.6000;0.5210;0.9648;
210.9000;0.5218;0.9723;
211.2000;0.5210;0.9748;
211.5000;0.5193;0.9673;
211.8000;0.5201;0.9673;
212.1000;0.5234;0.9772;
212.4000;0.5226;0.9748;
212.7000;0.5201;0.9698;
213.0000;0.5218;0.9698;
213.3000;0.5210;0.9797;
213.6000;0.5242;0.9922;
213.9000;0.5193;0.9922;
214.2000;0.5242;1.0120;
214.5000;0.5193;0.9996;
214.8000;0.5177;0.9847;
215.1000;0.5185;0.9872;
215.4000;0.5193;0.9822;
215.7000;0.5218;0.9872;
216.0000;0.5193;0.9847;
216.3000;0.5210;0.9847;
216.6000;0.5299;1.0071;
216.9000;0.5210;0.9847;
217.2000;0.5161;0.9698;
217.5000;0.5193;0.9723;
217.8000;0.5185;0.9698;
218.1000;0.5291;0.9922;
218.4000;0.5201;0.9698;
218.7000;0.5242;0.9797;
219.0000;0.5210;0.9723;
219.3000;0.5258;0.9797;
219.6000;0.5226;0.9648;
219.9000;0.5177;0.9449;
220.2000;0.5201;0.9499;
220.5000;0.5185;0.9449;
220.8000;0.5193;0.9499;
221.1000;0.5128;0.9300;
221.4000;0.5201;0.9474;
221.7000;0.5201;0.9524;
222.0000;0.5193;0.9573;
222.3000;0.5193;0.9474;
222.6000;0.5201;0.9474;
222.9000;0.5193;0.9399;
223.2000;0.5185;0.9399;
223.5000;0.5210;0.9474;
223.8000;0.5193;0.9499;
224.1000;0.5201;0.9499;
224.4000;0.5193;0.9524;
224.7000;0.5193;0.9549;
225.0000;0.5218;0.9573;
225.3000;0.5218;0.9648;
225.6000;0.5201;0.9698;
225.9000;0.5185;0.9673;
226.2000;0.5201;0.9698;
226.5000;0.5193;0.9648;
226.8000;0.5177;0.9623;
227.1000;0.5193;0.9623;
227.4000;0.5210;0.9598;
227.7000;0.5201;0.9549;
228.0000;0.5185;0.9549;
228.3000;0.5193;0.9573;
228.6000;0.5193;0.9648;
228.9000;0.5193;0.9822;
229.2000;0.5177;0.9797;
229.5000;0.5185;0.9797;
229.8000;0.5210;0.9847;
230.1000;0.5258;0.9971;
230.4000;0.5177;0.9822;
230.7000;0.5185;0.9797;
231.0000;0.5210;0.9748;
231.3000;0.5201;0.9598;
231.6000;0.5201;0.9598;
231.9000;0.5185;0.9673;
232.2000;0.5234;0.9797;
232.5000;0.5201;0.9822;
232.8000;0.5201;0.9872;
233.1000;0.5193;0.9822;
233.4000;0.5201;0.9872;
233.7000;0.5177;0.9748;
234.0000;0.5218;0.9797;
234.3000;0.5210;0.9723;
234.6000;0.5201;0.9723;
234.9000;0.5185;0.9673;
235.2000;0.5226;0.9822;
235.5000;0.5193;0.9723;
235.8000;0.5193;0.9723;
236.1000;0.5136;0.9598;
236.4000;0.5193;0.9673;
236.7000;0.5218;0.9723;
237.0000;0.5210;0.9748;
237.3000;0.5193;0.9772;
237.6000;0.5193;0.9673;
237.9000;0.5210;0.9673;
238.2000;0.5185;0.9698;
238.5000;0.5201;0.9748;
238.8000;0.5226;0.9897;
239.1000;0.5234;0.9922;
239.4000;0.5210;0.9847;
239.7000;0.5185;0.9797;
240.0000;0.5193;0.9673;
240.3000;0.5218;0.9723;
240.6000;0.5177;0.9573;
240.9000;0.5201;0.9648;
241.2000;0.5210;0.9797;
241.5000;0.5201;0.9822;
241.8000;0.5234;0.9748;
242.1000;0.5136;0.9499;
242.4000;0.5193;0.9549;
242.7000;0.5226;0.9698;
243.0000;0.5185;0.9673;
243.3000;0.5201;0.9648;
243.6000;0.5120;0.9449;
243.9000;0.5210;0.9623;
244.2000;0.5169;0.9573;
244.5000;0.5201;0.9748;
244.8000;0.5242;0.9748;
245.1000;0.5201;0.9748;
245.4000;0.5193;0.9648;
245.7000;0.5201;0.9623;
246.0000;0.5193;0.9623;
246.3000;0.5193;0.9698;
246.6000;0.5193;0.9772;
246.9000;0.5185;0.9797;
247.2000;0.5201;0.9748;
247.5000;0.5185;0.9549;
247.8000;0.5185;0.9499;
248.1000;0.5193;0.9598;
248.4000;0.5185;0.9474;
248.7000;0.5185;0.9573;
249.0000;0.5193;0.9598;
249.3000;0.5185;0.9673;
249.6000;0.5193;0.9723;
249.9000;0.5283;0.9946;
250.2000;0.5201;0.9648;
250.5000;0.5201;0.9623;
250.8000;0.5201;0.9549;
251.1000;0.5177;0.9499;
251.4000;0.5193;0.9573;
251.7000;0.5193;0.9549;
252.0000;0.5193;0.9499;
252.3000;0.5193;0.9399;
252.6000;0.5177;0.9449;
252.9000;0.5185;0.9424;
253.2000;0.5218;0.9549;
253.5000;0.5177;0.9499;
253.8000;0.5136;0.9399;
254.1000;0.5218;0.9623;
254.4000;0.5185;0.9648;
254.7000;0.5193;0.9698;
255.0000;0.5193;0.9623;
255.3000;0.5193;0.9598;
255.6000;0.5210;0.9673;
255.9000;0.5185;0.9623;
256.2000;0.5218;0.9723;
256.5000;0.5185;0.9673;
256.8000;0.5177;0.9573;
257.1000;0.5283;0.9822;
257.4000;0.5185;0.9598;
257.7000;0.5185;0.9623;
258.0000;0.5201;0.9648;
258.3000;0.5185;0.9549;
258.6000;0.5218;0.9598;
258.9000;0.5169;0.9549;
259.2000;0.5177;0.9549;
259.5000;0.5177;0.9648;
259.8000;0.5185;0.9598;
260.1000;0.5177;0.9598;
260.4000;0.5193;0.9549;
260.7000;0.5201;0.9573;
261.0000;0.5169;0.9524;
261.3000;0.5169;0.9499;
261.6000;0.5218;0.9698;
261.9000;0.5169;0.9573;
262.2000;0.5177;0.9549;
262.5000;0.5185;0.9573;
262.8000;0.5177;0.9573;
263.1000;0.5201;0.9573;
263.4000;0.5185;0.9524;
263.7000;0.5136;0.9424;
264.0000;0.5185;0.9549;
264.3000;0.5177;0.9598;
264.6000;0.5201;0.9673;
264.9000;0.5193;0.9648;
265.2000;0.5193;0.9549;
265.5000;0.5242;0.9623;
265.8000;0.5201;0.9598;
266.1000;0.5177;0.9573;
266.4000;0.5177;0.9648;
266.7000;0.5201;0.9748;
267.0000;0.5210;0.9772;
267.3000;0.5144;0.9673;
267.6000;0.5185;0.9897;
267.9000;0.5177;0.9897;
268.2000;0.5193;0.9872;
268.5000;0.5201;0.9822;
268.8000;0.5226;0.9872;
269.1000;0.5153;0.9673;
269.4000;0.5185;0.9723;
269.7000;0.5193;0.9698;
270.0000;0.5185;0.9648;
270.3000;0.5177;0.9598;
270.6000;0.5185;0.9623;
270.9000;0.5185;0.9598;
271.2000;0.5210;0.9623;
271.5000;0.5177;0.9474;
271.8000;0.5169;0.9474;
272.1000;0.5177;0.9474;
272.4000;0.5169;0.9424;
272.7000;0.5161;0.9399;
273.0000;0.5177;0.9524;
273.3000;0.5185;0.9573;
273.6000;0.5185;0.9573;
273.9000;0.5177;0.9524;
274.2000;0.5177;0.9474;
274.5000;0.5201;0.9549;
274.8000;0.5201;0.9623;
275.1000;0.5177;0.9573;
275.4000;0.5193;0.9598;
275.7000;0.5193;0.9623;
276.0000;0.5185;0.9499;
276.3000;0.5193;0.9524;
276.6000;0.5177;0.9524;
276.9000;0.5210;0.9598;
277.2000;0.5177;0.9549;
277.5000;0.5169;0.9549;
277.8000;0.5177;0.9499;
278.1000;0.5242;0.9698;
278.4000;0.5185;0.9623;
278.7000;0.5185;0.9673;
279.0000;0.5177;0.9623;
279.3000;0.5161;0.9623;
279.6000;0.5177;0.9598;
279.9000;0.5169;0.9524;
280.2000;0.5218;0.9573;
280.5000;0.5153;0.9424;
280.8000;0.5193;0.9648;
281.1000;0.5185;0.9698;
281.4000;0.5177;0.9673;
281.7000;0.5210;0.9772;
282.0000;0.5177;0.9723;
282.3000;0.5185;0.9797;
282.6000;0.5177;0.9847;
282.9000;0.5169;0.9847;
283.2000;0.5071;0.9673;
283.5000;0.5218;1.0021;
283.8000;0.5161;0.9872;
284.1000;0.5161;0.9922;
284.4000;0.5177;0.9996;
284.7000;0.5169;1.0046;
285.0000;0.5169;0.9946;
285.3000;0.5161;0.9847;
285.6000;0.5169;0.9748;
285.9000;0.5177;0.9748;
286.2000;0.5185;0.9698;
286.5000;0.5120;0.9598;
286.8000;0.5153;0.9772;
287.1000;0.5169;0.9847;
287.4000;0.5185;0.9971;
287.7000;0.5169;0.9797;
288.0000;0.5169;0.9847;
288.3000;0.5169;0.9847;
288.6000;0.5193;0.9847;
288.9000;0.5177;0.9797;
289.2000;0.5185;0.9797;
289.5000;0.5185;0.9723;
289.8000;0.5267;0.9872;
290.1000;0.5177;0.9748;
290.4000;0.5193;0.9723;
290.7000;0.5161;0.9648;
291.0000;0.5193;0.9748;
291.3000;0.5079;0.9474;
291.6000;0.5169;0.9748;
291.9000;0.5185;0.9723;
292.2000;0.5177;0.9673;
292.5000;0.5185;0.9698;
292.8000;0.5161;0.9723;
293.1000;0.5185;0.9748;
293.4000;0.5177;0.9673;
293.7000;0.5193;0.9772;
294.0000;0.5201;0.9797;
294.3000;0.5161;0.9772;
294.6000;0.5185;0.9897;
294.9000;0.5144;0.9748;
295.2000;0.5161;0.9748;
295.5000;0.5169;0.9648;
295.8000;0.5161;0.9573;
296.1000;0.5153;0.9549;
296.4000;0.5169;0.9524;
296.7000;0.5161;0.9449;
297.0000;0.5218;0.9673;
297.3000;0.5169;0.9524;
297.6000;0.5169;0.9549;
297.9000;0.5161;0.9424;
298.2000;0.5153;0.9549;
298.5000;0.5177;0.9723;
298.8000;0.5169;0.9723;
299.1000;0.5144;0.9549;
299.4000;0.5177;0.9623;
299.7000;0.5161;0.9598;
300.0000;0.5242;0.9847;
300.3000;0.5177;0.9748;
300.6000;0.5136;0.9698;
300.9000;0.5153;0.9723;
301.2000;0.5169;0.9822;
301.5000;0.5161;0.9772;
301.8000;0.5161;0.9822;
302.1000;0.5153;0.9822;
302.4000;0.5177;0.9872;
302.7000;0.5193;0.9922;
303.0000;0.5169;0.9847;
303.3000;0.5169;0.9772;
303.6000;0.5169;0.9723;
303.9000;0.5144;0.9797;
304.2000;0.5193;0.9872;
304.5000;0.5153;0.9723;
304.8000;0.5169;0.9797;
305.1000;0.5177;0.9748;
305.4000;0.5177;0.9748;
305.7000;0.5144;0.9648;
306.0000;0.5218;0.9723;
306.3000;0.5161;0.9573;
306.6000;0.5161;0.9549;
306.9000;0.5120;0.9474;
307.2000;0.5242;0.9922;
307.5000;0.5185;0.9772;
307.8000;0.5169;0.9772;
308.1000;0.5169;0.9748;
308.4000;0.5161;0.9723;
308.7000;0.5144;0.9723;
309.0000;0.5169;0.9772;
309.3000;0.5169;0.9772;
309.6000;0.5104;0.9499;
309.9000;0.5161;0.9648;
310.2000;0.5169;0.9748;
310.5000;0.5169;0.9797;
310.8000;0.5218;0.9847;
311.1000;0.5136;0.9573;
311.4000;0.5185;0.9573;
311.7000;0.5136;0.9449;
312.0000;0.5112;0.9375;
312.3000;0.5267;0.9847;
312.6000;0.5144;0.9673;
312.9000;0.5177;0.9772;
313.2000;0.5153;0.9723;
313.5000;0.5169;0.9723;
313.8000;0.5096;0.9399;
314.1000;0.5153;0.9623;
314.4000;0.5161;0.9723;
314.7000;0.5177;0.9797;
315.0000;0.5144;0.9748;
315.3000;0.5267;1.0071;
315.6000;0.5136;0.9797;
315.9000;0.5153;0.9797;
316.2000;0.5169;0.9897;
316.5000;0.5177;0.9922;
316.8000;0.5299;1.0195;
317.1000;0.5177;0.9698;
317.4000;0.5153;0.9673;
317.7000;0.5169;0.9623;
318.0000;0.5169;0.9698;
318.3000;0.5161;0.9623;
318.6000;0.5161;0.9673;
318.9000;0.5169;0.9673;
319.2000;0.5153;0.9623;
319.5000;0.5144;0.9549;
319.8000;0.5161;0.9549;
320.1000;0.5201;0.9673;
320.4000;0.5177;0.9524;
320.7000;0.5169;0.9424;
321.0000;0.5144;0.9375;
321.3000;0.5153;0.9449;
321.6000;0.5177;0.9549;
321.9000;0.5185;0.9549;
322.2000;0.5136;0.9474;
322.5000;0.5177;0.9449;
322.8000;0.5177;0.9499;
323.1000;0.5193;0.9549;
323.4000;0.5161;0.9449;
323.7000;0.5185;0.9499;
324.0000;0.5185;0.9474;
324.3000;0.5185;0.9474;
324.6000;0.5112;0.9275;
324.9000;0.5120;0.9399;
325.2000;0.5169;0.9474;
325.5000;0.5177;0.9499;
325.8000;0.5153;0.9524;
326.1000;0.5144;0.9449;
326.4000;0.5169;0.9499;
326.7000;0.5185;0.9524;
327.0000;0.5161;0.9424;
327.3000;0.5185;0.9474;
327.6000;0.5177;0.9499;
327.9000;0.5153;0.9424;
328.2000;0.5177;0.9449;
328.5000;0.5112;0.9350;
328.8000;0.5177;0.9499;
329.1000;0.5185;0.9524;
329.4000;0.5161;0.9449;
329.7000;0.5161;0.9424;
330.0000;0.5153;0.9350;
330.3000;0.5161;0.9424;
330.6000;0.5153;0.9449;
330.9000;0.5136;0.9449;
331.2000;0.5120;0.9375;
331.5000;0.5169;0.9623;
331.8000;0.5161;0.9698;
332.1000;0.5185;0.9748;
332.4000;0.5096;0.9474;
332.7000;0.5136;0.9623;
333.0000;0.5161;0.9772;
333.3000;0.5161;0.9797;
333.6000;0.5128;0.9648;
333.9000;0.5161;0.9698;
334.2000;0.5136;0.9723;
334.5000;0.5112;0.9698;
334.8000;0.5153;0.9723;
335.1000;0.5242;0.9897;
335.4000;0.5136;0.9698;
335.7000;0.5161;0.9723;
336.0000;0.5112;0.9623;
336.3000;0.5161;0.9648;
336.6000;0.5177;0.9623;
336.9000;0.5169;0.9648;
337.2000;0.5153;0.9598;
337.5000;0.5153;0.9573;
337.8000;0.5136;0.9549;
338.1000;0.5144;0.9573;
338.4000;0.5169;0.9723;
338.7000;0.5153;0.9723;
339.0000;0.5153;0.9748;
339.3000;0.5201;0.9748;
339.6000;0.5153;0.9648;
339.9000;0.5153;0.9598;
340.2000;0.5169;0.9723;
340.5000;0.5177;0.9772;
340.8000;0.5161;0.9698;
341.1000;0.5161;0.9748;
341.4000;0.5169;0.9673;
341.7000;0.5144;0.9598;
342.0000;0.5144;0.9598;
342.3000;0.5144;0.9623;
342.6000;0.5128;0.9573;
342.9000;0.5153;0.9573;
343.2000;0.5169;0.9673;
343.5000;0.5136;0.9598;
343.8000;0.5136;0.9573;
344.1000;0.5153;0.9623;
344.4000;0.5169;0.9623;
344.7000;0.5169;0.9598;
345.0000;0.5144;0.9623;
345.3000;0.5177;0.9748;
345.6000;0.5169;0.9822;
345.9000;0.5161;0.9797;
346.2000;0.5153;0.9673;
346.5000;0.5144;0.9573;
346.8000;0.5144;0.9524;
347.1000;0.5128;0.9474;
347.4000;0.5144;0.9499;
347.7000;0.5136;0.9474;
348.0000;0.5161;0.9598;
348.3000;0.5161;0.9648;
348.6000;0.5153;0.9723;
348.9000;0.5153;0.9698;
349.2000;0.5136;0.9698;
349.5000;0.5177;0.9847;
349.8000;0.5161;0.9748;
350.1000;0.5120;0.9623;
350.4000;0.5120;0.9573;
350.7000;0.5161;0.9748;
351.0000;0.5193;0.9922;
351.3000;0.5161;0.9797;
351.6000;0.5161;0.9648;
351.9000;0.5136;0.9524;
352.2000;0.5144;0.9573;
352.5000;0.5193;0.9648;
352.8000;0.5144;0.9449;
353.1000;0.5144;0.9449;
353.4000;0.5153;0.9524;
353.7000;0.5153;0.9524;
354.0000;0.5161;0.9549;
354.3000;0.5153;0.9598;
354.6000;0.5169;0.9549;
354.9000;0.5153;0.9549;
355.2000;0.5153;0.9648;
355.5000;0.5096;0.9474;
355.8000;0.5177;0.9698;
356.1000;0.5153;0.9723;
356.4000;0.5218;0.9822;
356.7000;0.5210;0.9822;
357.0000;0.5153;0.9673;
357.3000;0.5161;0.9723;
357.6000;0.5136;0.9623;
357.9000;0.5153;0.9698;
358.2000;0.5144;0.9723;
358.5000;0.5161;0.9748;
358.8000;0.5128;0.9673;
359.1000;0.5161;0.9648;
359.4000;0.5169;0.9698;
359.7000;0.5169;0.9772;
360.0000;0.5169;0.9723;
360.3000;0.5136;0.9772;
360.6000;0.5177;0.9897;
360.9000;0.5153;0.9822;
361.2000;0.5161;0.9723;
361.5000;0.5161;0.9698;
361.8000;0.5169;0.9748;
362.1000;0.5144;0.9797;
362.4000;0.5144;0.9772;
362.7000;0.5136;0.9748;
363.0000;0.5128;0.9847;
363.3000;0.5136;0.9847;
363.6000;0.5153;0.9847;
363.9000;0.5169;0.9872;
364.2000;0.5136;0.9748;
364.5000;0.5161;0.9772;
364.8000;0.5169;0.9922;
365.1000;0.5144;0.9922;
365.4000;0.5169;0.9922;
365.7000;0.5161;0.9922;
366.0000;0.5112;0.9673;
366.3000;0.5136;0.9772;
366.6000;0.5161;0.9847;
366.9000;0.5144;0.9822;
367.2000;0.5153;0.9822;
367.5000;0.5153;0.9772;
367.8000;0.5128;0.9772;
368.1000;0.5120;0.9723;
368.4000;0.5161;0.9723;
368.7000;0.5136;0.9797;
369.0000;0.5169;0.9797;
369.3000;0.5161;0.9748;
369.6000;0.5185;0.9797;
369.9000;0.5161;0.9748;
370.2000;0.5144;0.9623;
370.5000;0.5169;0.9598;
370.8000;0.5144;0.9698;
371.1000;0.5153;0.9748;
371.4000;0.5153;0.9797;
371.7000;0.5128;0.9772;
372.0000;0.5153;0.9673;
372.3000;0.5153;0.9673;
372.6000;0.5144;0.9723;
372.9000;0.5185;0.9748;
373.2000;0.5153;0.9573;
373.5000;0.5136;0.9648;
373.8000;0.5128;0.9748;
374.1000;0.5177;0.9897;
374.4000;0.5144;0.9872;
374.7000;0.5088;0.9847;
375.0000;0.5177;1.0021;
375.3000;0.5153;0.9822;
375.6000;0.5153;0.9723;
375.9000;0.5112;0.9698;
376.2000;0.5153;0.9872;
376.5000;0.5218;1.0046;
376.8000;0.5136;0.9822;
377.1000;0.5136;0.9897;
377.4000;0.5144;0.9897;
377.7000;0.5153;0.9847;
378.0000;0.5120;0.9673;
378.3000;0.5136;0.9822;
378.6000;0.5153;0.9822;
378.9000;0.5161;0.9797;
379.2000;0.5153;0.9748;
379.5000;0.5136;0.9698;
379.8000;0.5144;0.9748;
380.1000;0.5161;0.9698;
380.4000;0.5153;0.9723;
380.7000;0.5144;0.9648;
381.0000;0.5079;0.9524;
381.3000;0.5144;0.9673;
381.6000;0.5136;0.9723;
381.9000;0.5144;0.9822;
382.2000;0.5128;0.9723;
382.5000;0.5161;0.9723;
382.8000;0.5096;0.9623;
383.1000;0.5136;0.9723;
383.4000;0.5144;0.9772;
383.7000;0.5153;0.9723;
384.0000;0.5169;0.9698;
384.3000;0.5144;0.9772;
384.6000;0.5153;0.9723;
384.9000;0.5177;0.9698;
385.2000;0.5153;0.9748;
385.5000;0.5144;0.9723;
385.8000;0.5136;0.9723;
386.1000;0.5153;0.9723;
386.4000;0.5153;0.9698;
386.7000;0.5144;0.9673;
387.0000;0.5193;0.9847;
387.3000;0.5144;0.9698;
387.6000;0.5088;0.9623;
387.9000;0.5112;0.9748;
388.2000;0.5153;0.9847;
388.5000;0.5136;0.9822;
388.8000;0.5144;0.9797;
389.1000;0.5136;0.9847;
389.4000;0.5128;0.9872;
389.7000;0.5128;0.9822;
390.0000;0.5161;0.9822;
390.3000;0.5153;0.9648;
390.6000;0.5128;0.9598;
390.9000;0.5193;0.9772;
391.2000;0.5136;0.9598;
391.5000;0.5153;0.9549;
391.8000;0.5161;0.9524;
392.1000;0.5128;0.9474;
392.4000;0.5128;0.9474;
392.7000;0.5153;0.9524;
393.0000;0.5128;0.9524;
393.3000;0.5128;0.9598;
393.6000;0.5136;0.9623;
393.9000;0.5153;0.9673;
394.2000;0.5153;0.9673;
394.5000;0.5153;0.9797;
394.8000;0.5185;0.9847;
395.1000;0.5144;0.9698;
395.4000;0.5161;0.9723;
395.7000;0.5144;0.9698;
396.0000;0.5153;0.9847;
396.3000;0.5128;0.9797;
396.6000;0.5153;0.9822;
396.9000;0.5120;0.9698;
397.2000;0.5136;0.9797;
397.5000;0.5144;0.9847;
397.8000;0.5144;0.9822;
398.1000;0.5144;0.9723;
398.4000;0.5128;0.9623;
398.7000;0.5144;0.9748;
399.0000;0.5185;0.9946;
399.3000;0.5144;0.9723;
399.6000;0.5144;0.9797;
399.9000;0.5136;0.9822;
400.2000;0.5153;0.9872;
400.5000;0.5242;1.0046;
400.8000;0.5153;0.9797;
401.1000;0.5144;0.9648;
401.4000;0.5161;0.9698;
401.7000;0.5153;0.9723;
402.0000;0.5144;0.9748;
402.3000;0.5161;0.9797;
402.6000;0.5169;0.9797;
402.9000;0.5161;0.9723;
403.2000;0.5161;0.9598;
403.5000;0.5161;0.9648;
403.8000;0.5144;0.9772;
404.1000;0.5153;0.9772;
404.4000;0.5153;0.9723;
404.7000;0.5161;0.9673;
405.0000;0.5144;0.9623;
405.3000;0.5161;0.9648;
405.6000;0.5112;0.9573;
405.9000;0.5136;0.9698;
406.2000;0.5112;0.9573;
406.5000;0.5120;0.9623;
406.8000;0.5161;0.9748;
407.1000;0.5128;0.9673;
407.4000;0.5128;0.9748;
407.7000;0.5079;0.9524;
408.0000;0.5153;0.9698;
408.3000;0.5128;0.9673;
408.6000;0.5128;0.9623;
408.9000;0.5120;0.9748;
409.2000;0.5088;0.9723;
409.5000;0.5144;0.9872;
409.8000;0.5153;0.9872;
410.1000;0.5128;0.9748;
410.4000;0.5128;0.9623;
410.7000;0.5153;0.9673;
411.0000;0.5128;0.9623;
411.3000;0.5136;0.9623;
411.6000;0.5136;0.9598;
411.9000;0.5128;0.9673;
412.2000;0.5112;0.9623;
412.5000;0.5128;0.9598;
412.8000;0.5136;0.9573;
413.1000;0.5120;0.9424;
413.4000;0.5120;0.9300;
413.7000;0.5128;0.9275;
414.0000;0.5153;0.9375;
414.3000;0.5153;0.9399;
414.6000;0.5144;0.9449;
414.9000;0.5128;0.9474;
415.2000;0.5144;0.9424;
415.5000;0.5161;0.9474;
415.8000;0.5153;0.9499;
416.1000;0.5153;0.9623;
416.4000;0.5161;0.9698;
416.7000;0.5177;0.9797;
417.0000;0.5153;0.9698;
417.3000;0.5169;0.9797;
417.6000;0.5136;0.9772;
417.9000;0.5128;0.9822;
418.2000;0.5144;0.9772;
418.5000;0.5136;0.9673;
418.8000;0.5136;0.9673;
419.1000;0.5144;0.9748;
419.4000;0.5136;0.9772;
419.7000;0.5136;0.9797;
420.0000;0.5144;0.9797;
420.3000;0.5169;0.9872;
420.6000;0.5169;0.9847;
420.9000;0.5153;0.9847;
421.2000;0.5120;0.9748;
421.5000;0.5128;0.9698;
421.8000;0.5144;0.9723;
422.1000;0.5161;0.9748;
422.4000;0.5096;0.9499;
422.7000;0.5161;0.9573;
423.0000;0.5136;0.9573;
423.3000;0.5136;0.9623;
423.6000;0.5136;0.9723;
423.9000;0.5136;0.9723;
424.2000;0.5161;0.9772;
424.5000;0.5079;0.9598;
424.8000;0.5226;0.9996;
425.1000;0.5144;0.9847;
425.4000;0.5144;0.9847;
425.7000;0.5128;0.9822;
426.0000;0.5136;0.9797;
426.3000;0.5144;0.9772;
426.6000;0.5104;0.9623;
426.9000;0.5104;0.9549;
427.2000;0.5144;0.9598;
427.5000;0.5161;0.9549;
427.8000;0.5161;0.9549;
428.1000;0.5161;0.9573;
428.4000;0.5136;0.9524;
428.7000;0.5153;0.9549;
429.0000;0.5136;0.9598;
429.3000;0.5193;0.9797;
429.6000;0.5153;0.9748;
429.9000;0.5136;0.9822;
430.2000;0.5144;0.9797;
430.5000;0.5169;0.9822;
430.8000;0.5031;0.9474;
431.1000;0.5088;0.9573;
431.4000;0.5136;0.9772;
431.7000;0.5128;0.9872;
432.0000;0.5153;0.9847;
432.3000;0.5136;0.9723;
432.6000;0.5120;0.9772;
432.9000;0.5096;0.9723;
433.2000;0.5177;0.9847;
433.5000;0.5128;0.9748;
433.8000;0.5136;0.9797;
434.1000;0.5136;0.9822;
434.4000;0.5136;0.9897;
434.7000;0.5136;0.9897;
435.0000;0.5112;0.9897;
435.3000;0.5136;0.9922;
435.6000;0.5144;0.9822;
435.9000;0.5128;0.9822;
436.2000;0.5136;0.9872;
436.5000;0.5120;0.9847;
436.8000;0.5112;0.9847;
437.1000;0.5120;0.9723;
437.4000;0.5120;0.9524;
437.7000;0.5120;0.9474;
438.0000;0.5128;0.9549;
438.3000;0.5136;0.9598;
438.6000;0.5128;0.9648;
438.9000;0.5128;0.9698;
439.2000;0.5153;0.9797;
439.5000;0.5144;0.9623;
439.8000;0.5144;0.9673;
440.1000;0.5120;0.9723;
440.4000;0.5144;0.9847;
440.7000;0.5144;0.9822;
441.0000;0.5193;0.9971;
441.3000;0.5136;0.9822;
441.6000;0.5120;0.9847;
441.9000;0.5112;0.9797;
442.2000;0.5120;0.9797;
442.5000;0.5120;0.9797;
442.8000;0.5120;0.9797;
443.1000;0.5120;0.9698;
443.4000;0.5120;0.9748;
443.7000;0.5201;0.9971;
444.0000;0.5104;0.9648;
444.3000;0.5112;0.9573;
444.6000;0.5161;0.9797;
444.9000;0.5096;0.9573;
445.2000;0.5120;0.9648;
445.5000;0.5104;0.9549;
445.8000;0.5112;0.9598;
446.1000;0.5063;0.9350;
446.4000;0.5112;0.9598;
446.7000;0.5104;0.9648;
447.0000;0.5120;0.9673;
447.3000;0.5120;0.9673;
447.6000;0.5120;0.9623;
447.9000;0.5136;0.9673;
448.2000;0.5104;0.9673;
448.5000;0.5161;0.9723;
448.8000;0.5169;0.9797;
449.1000;0.5112;0.9648;
449.4000;0.5096;0.9499;
449.7000;0.5161;0.9723;
450.0000;0.5096;0.9598;
450.3000;0.5120;0.9648;
450.6000;0.5144;0.9623;
450.9000;0.5128;0.9598;
451.2000;0.5144;0.9623;
451.5000;0.5193;0.9797;
451.8000;0.5088;0.9499;
452.1000;0.5169;0.9673;
452.4000;0.5136;0.9549;
452.7000;0.5120;0.9499;
453.0000;0.5128;0.9449;
453.3000;0.5128;0.9350;
453.6000;0.5128;0.9275;
453.9000;0.5153;0.9399;
454.2000;0.5071;0.9350;
454.5000;0.5120;0.9524;
454.8000;0.5136;0.9623;
455.1000;0.5112;0.9623;
455.4000;0.5079;0.9623;
455.7000;0.5161;0.9897;
456.0000;0.5120;0.9723;
456.3000;0.5144;0.9847;
456.6000;0.5153;0.9872;
456.9000;0.5128;0.9748;
457.2000;0.5144;0.9797;
457.5000;0.5136;0.9822;
457.8000;0.5136;0.9797;
458.1000;0.5128;0.9748;
458.4000;0.5153;0.9673;
458.7000;0.5136;0.9623;
459.0000;0.5104;0.9549;
459.3000;0.5112;0.9549;
459.6000;0.5128;0.9524;
459.9000;0.5120;0.9573;
460.2000;0.5136;0.9673;
460.5000;0.5136;0.9648;
460.8000;0.5120;0.9648;
461.1000;0.5128;0.9648;
461.4000;0.5136;0.9673;
461.7000;0.5112;0.9648;
462.0000;0.5136;0.9648;
462.3000;0.5120;0.9623;
462.6000;0.5161;0.9723;
462.9000;0.5096;0.9573;
463.2000;0.5120;0.9673;
463.5000;0.5144;0.9673;
463.8000;0.5120;0.9673;
464.1000;0.5128;0.9698;
464.4000;0.5128;0.9748;
464.7000;0.5128;0.9822;
465.0000;0.5120;0.9698;
465.3000;0.5120;0.9623;
465.6000;0.5104;0.9648;
465.9000;0.5120;0.9648;
466.2000;0.5112;0.9772;
466.5000;0.5153;0.9872;
466.8000;0.5120;0.9772;
467.1000;0.5104;0.9698;
467.4000;0.5128;0.9698;
467.7000;0.5153;0.9748;
468.0000;0.5144;0.9723;
468.3000;0.5136;0.9723;
468.6000;0.5120;0.9648;
468.9000;0.5136;0.9573;
469.2000;0.5128;0.9573;
469.5000;0.5088;0.9549;
469.8000;0.5128;0.9698;
470.1000;0.5079;0.9623;
470.4000;0.5112;0.9772;
470.7000;0.5120;0.9748;
471.0000;0.5136;0.9698;
471.3000;0.5128;0.9673;
471.6000;0.5136;0.9748;
471.9000;0.5120;0.9847;
472.2000;0.5039;0.9573;
472.5000;0.5120;0.9748;
472.8000;0.5104;0.9673;
473.1000;0.5112;0.9698;
473.4000;0.5120;0.9623;
473.7000;0.5104;0.9598;
474.0000;0.5120;0.9623;
474.3000;0.5128;0.9748;
474.6000;0.5104;0.9623;
474.9000;0.5112;0.9573;
475.2000;0.5128;0.9598;
475.5000;0.5112;0.9573;
475.8000;0.5055;0.9549;
476.1000;0.5136;0.9723;
476.4000;0.5120;0.9623;
476.7000;0.5120;0.9573;
477.0000;0.5120;0.9598;
477.3000;0.5112;0.9573;
477.6000;0.5120;0.9673;
477.9000;0.5136;0.9748;
478.2000;0.5112;0.9772;
478.5000;0.5120;0.9797;
478.8000;0.5112;0.9748;
479.1000;0.5120;0.9698;
479.4000;0.5112;0.9673;
479.7000;0.5112;0.9598;
480.0000;0.5112;0.9648;
480.3000;0.5104;0.9698;
480.6000;0.5144;0.9748;
480.9000;0.5104;0.9598;
481.2000;0.5112;0.9698;
481.5000;0.5136;0.9698;
481.8000;0.5128;0.9748;
482.1000;0.5104;0.9723;
482.4000;0.5104;0.9648;
482.7000;0.5120;0.9648;
483.0000;0.5185;0.9797;
483.3000;0.5104;0.9648;
483.6000;0.5104;0.9698;
483.9000;0.5112;0.9723;
484.2000;0.5136;0.9847;
484.5000;0.5120;0.9822;
484.8000;0.5096;0.9847;
485.1000;0.5112;0.9772;
485.4000;0.5128;0.9772;
485.7000;0.5112;0.9623;
486.0000;0.5063;0.9399;
486.3000;0.5120;0.9648;
486.6000;0.5136;0.9797;
486.9000;0.5128;0.9748;
487.2000;0.5112;0.9673;
487.5000;0.5128;0.9748;
487.8000;0.5120;0.9872;
488.1000;0.5128;0.9922;
488.4000;0.5120;0.9772;
488.7000;0.5112;0.9797;
489.0000;0.5104;0.9772;
489.3000;0.5112;0.9797;
489.6000;0.5104;0.9698;
489.9000;0.5104;0.9772;
490.2000;0.5112;0.9797;
490.5000;0.5120;0.9723;
490.8000;0.5128;0.9673;
491.1000;0.5120;0.9673;
491.4000;0.5120;0.9623;
491.7000;0.5120;0.9573;
492.0000;0.5144;0.9499;
492.3000;0.5104;0.9449;
492.6000;0.5104;0.9573;
492.9000;0.5120;0.9648;
493.2000;0.5104;0.9524;
493.5000;0.5063;0.9449;
493.8000;0.5088;0.9399;
494.1000;0.5112;0.9623;
494.4000;0.5104;0.9698;
494.7000;0.5112;0.9872;
495.0000;0.5104;0.9797;
495.3000;0.5104;0.9797;
495.6000;0.5128;0.9872;
495.9000;0.5112;0.9772;
496.2000;0.5120;0.9673;
496.5000;0.5031;0.9474;
496.8000;0.5120;0.9847;
497.1000;0.5153;0.9922;
497.4000;0.5136;0.9922;
497.7000;0.5063;0.9772;
498.0000;0.5128;0.9822;
498.3000;0.5096;0.9748;
498.6000;0.5096;0.9772;
498.9000;0.5112;0.9772;
499.2000;0.5104;0.9698;
499.5000;0.5153;0.9797;
499.8000;0.5112;0.9673;
500.1000;0.5112;0.9648;
500.4000;0.5128;0.9748;
500.7000;0.5112;0.9723;
501.0000;0.5071;0.9524;
501.3000;0.5112;0.9623;
501.6000;0.5120;0.9723;
501.9000;0.5112;0.9772;
502.2000;0.5120;0.9822;
502.5000;0.5120;0.9847;
502.8000;0.5120;0.9698;
503.1000;0.5120;0.9673;
503.4000;0.5120;0.9698;
503.7000;0.5112;0.9723;
504.0000;0.5112;0.9772;
504.3000;0.5096;0.9723;
504.6000;0.5014;0.9499;
504.9000;0.5177;0.9922;
505.2000;0.5104;0.9598;
505.5000;0.5104;0.9549;
505.8000;0.5104;0.9598;
506.1000;0.5144;0.9723;
506.4000;0.5120;0.9673;
506.7000;0.5096;0.9573;
507.0000;0.5120;0.9648;
507.3000;0.5120;0.9623;
507.6000;0.5128;0.9573;
507.9000;0.5104;0.9549;
508.2000;0.5096;0.9598;
508.5000;0.5104;0.9598;
508.8000;0.5096;0.9673;
509.1000;0.5112;0.9772;
509.4000;0.5112;0.9847;
509.7000;0.5112;0.9872;
510.0000;0.5120;0.9872;
510.3000;0.5112;0.9872;
510.6000;0.5120;0.9797;
510.9000;0.5136;0.9822;
511.2000;0.5128;0.9822;
511.5000;0.5128;0.9797;
511.8000;0.5120;0.9623;
512.1000;0.5136;0.9648;
512.4000;0.5120;0.9499;
512.7000;0.5120;0.9573;
513.0000;0.5104;0.9648;
513.3000;0.5120;0.9623;
513.6000;0.5128;0.9499;
513.9000;0.5120;0.9573;
514.2000;0.5104;0.9598;
514.5000;0.5055;0.9399;
514.8000;0.5112;0.9573;
515.1000;0.5104;0.9598;
515.4000;0.5120;0.9524;
515.7000;0.5112;0.9573;
516.0000;0.5120;0.9598;
516.3000;0.5128;0.9598;
516.6000;0.5120;0.9573;
516.9000;0.5120;0.9598;
517.2000;0.5112;0.9598;
517.5000;0.5104;0.9573;
517.8000;0.5096;0.9549;
518.1000;0.5112;0.9623;
518.4000;0.5096;0.9524;
518.7000;0.5153;0.9698;
519.0000;0.5120;0.9748;
519.3000;0.5096;0.9772;
519.6000;0.5153;0.9822;
519.9000;0.5120;0.9698;
520.2000;0.5120;0.9797;
520.5000;0.5096;0.9723;
520.8000;0.5096;0.9623;
521.1000;0.5136;0.9723;
521.4000;0.5096;0.9598;
521.7000;0.5120;0.9524;
522.0000;0.5104;0.9623;
522.3000;0.5071;0.9598;
522.6000;0.5185;0.9847;
522.9000;0.5144;0.9748;
523.2000;0.5096;0.9573;
523.5000;0.5096;0.9598;
523.8000;0.5104;0.9673;
524.1000;0.5096;0.9549;
524.4000;0.5096;0.9549;
524.7000;0.5088;0.9524;
525.0000;0.5079;0.9449;
525.3000;0.5047;0.9399;
525.6000;0.5096;0.9524;
525.9000;0.5120;0.9549;
526.2000;0.5112;0.9474;
526.5000;0.5161;0.9573;
526.8000;0.5128;0.9698;
527.1000;0.5120;0.9723;
527.4000;0.5218;0.9872;
527.7000;0.5120;0.9648;
528.0000;0.5104;0.9549;
528.3000;0.5104;0.9499;
528.6000;0.5112;0.9424;
528.9000;0.5104;0.9499;
529.2000;0.5104;0.9524;
529.5000;0.5039;0.9375;
529.8000;0.5128;0.9598;
530.1000;0.5104;0.9573;
530.4000;0.5128;0.9673;
530.7000;0.5112;0.9623;
531.0000;0.5120;0.9598;
531.3000;0.5128;0.9598;
531.6000;0.5112;0.9499;
531.9000;0.5088;0.9524;
532.2000;0.5112;0.9549;
532.5000;0.5120;0.9598;
532.8000;0.5112;0.9573;
533.1000;0.5120;0.9573;
533.4000;0.5088;0.9499;
533.7000;0.5079;0.9524;
534.0000;0.5185;0.9872;
534.3000;0.5112;0.9748;
534.6000;0.5096;0.9772;
534.9000;0.5112;0.9822;
535.2000;0.5112;0.9797;
535.5000;0.5096;0.9723;
535.8000;0.5120;0.9772;
536.1000;0.5096;0.9673;
536.4000;0.5128;0.9698;
536.7000;0.5120;0.9648;
537.0000;0.5031;0.9399;
537.3000;0.5112;0.9648;
537.6000;0.5120;0.9748;
537.9000;0.5112;0.9748;
538.2000;0.5096;0.9748;
538.5000;0.5096;0.9698;
538.8000;0.5079;0.9648;
539.1000;0.5120;0.9723;
539.4000;0.5112;0.9623;
539.7000;0.5104;0.9573;
540.0000;0.5128;0.9598;
540.3000;0.5136;0.9748;
540.6000;0.5039;0.9499;
540.9000;0.5161;0.9797;
541.2000;0.5120;0.9723;
541.5000;0.5112;0.9723;
541.8000;0.5112;0.9648;
542.1000;0.5088;0.9598;
542.4000;0.5096;0.9573;
542.7000;0.5096;0.9573;
543.0000;0.5104;0.9623;
543.3000;0.5112;0.9623;
543.6000;0.5169;0.9797;
543.9000;0.5128;0.9673;
544.2000;0.5079;0.9598;
544.5000;0.5169;0.9822;
544.8000;0.5096;0.9648;
545.1000;0.5063;0.9648;
545.4000;0.5104;0.9748;
545.7000;0.5104;0.9698;
546.0000;0.5096;0.9673;
546.3000;0.5112;0.9723;
546.6000;0.5071;0.9474;
546.9000;0.5161;0.9748;
547.2000;0.5079;0.9549;
547.5000;0.5096;0.9524;
547.8000;0.5071;0.9573;
548.1000;0.5047;0.9549;
548.4000;0.5096;0.9673;
548.7000;0.5096;0.9698;
549.0000;0.5088;0.9623;
549.3000;0.5088;0.9623;
549.6000;0.5112;0.9698;
549.9000;0.5096;0.9698;
550.2000;0.5096;0.9723;
550.5000;0.5096;0.9748;
550.8000;0.5112;0.9847;
551.1000;0.5104;0.9822;
551.4000;0.5104;0.9797;
551.7000;0.5104;0.9797;
552.0000;0.5112;0.9822;
552.3000;0.5104;0.9822;
552.6000;0.5104;0.9648;
552.9000;0.5096;0.9623;
553.2000;0.5104;0.9598;
553.5000;0.5104;0.9673;
553.8000;0.5112;0.9748;
554.1000;0.5104;0.9698;
554.4000;0.5096;0.9772;
554.7000;0.5104;0.9648;
555.0000;0.5096;0.9598;
555.3000;0.5096;0.9573;
555.6000;0.5104;0.9648;
555.9000;0.5096;0.9573;
556.2000;0.5088;0.9598;
556.5000;0.5071;0.9598;
556.8000;0.5112;0.9822;
557.1000;0.5096;0.9772;
557.4000;0.5112;0.9772;
557.7000;0.5104;0.9673;
558.0000;0.5112;0.9723;
558.3000;0.5096;0.9673;
558.6000;0.5096;0.9648;
558.9000;0.5088;0.9698;
559.2000;0.5112;0.9797;
559.5000;0.5088;0.9698;
559.8000;0.5088;0.9698;
560.1000;0.5088;0.9673;
560.4000;0.5112;0.9723;
560.7000;0.5112;0.9797;
561.0000;0.5096;0.9822;
561.3000;0.5088;0.9772;
561.6000;0.5104;0.9822;
561.9000;0.5079;0.9723;
562.2000;0.5104;0.9723;
562.5000;0.5104;0.9673;
562.8000;0.5088;0.9648;
563.1000;0.5104;0.9748;
563.4000;0.5128;0.9797;
563.7000;0.5096;0.9723;
564.0000;0.5088;0.9772;
564.3000;0.5104;0.9748;
564.6000;0.5104;0.9797;
564.9000;0.5071;0.9797;
565.2000;0.5104;0.9847;
565.5000;0.5096;0.9772;
565.8000;0.5112;0.9822;
566.1000;0.5104;0.9772;
566.4000;0.5096;0.9673;
566.7000;0.5096;0.9698;
567.0000;0.5079;0.9673;
567.3000;0.5088;0.9698;
567.6000;0.5079;0.9797;
567.9000;0.5096;0.9772;
568.2000;0.5096;0.9797;
568.5000;0.5088;0.9673;
568.8000;0.5096;0.9698;
569.1000;0.5096;0.9748;
569.4000;0.5096;0.9748;
569.7000;0.5104;0.9748;
570.0000;0.5096;0.9748;
570.3000;0.5079;0.9648;
570.6000;0.5088;0.9648;
570.9000;0.5104;0.9598;
571.2000;0.5112;0.9549;
571.5000;0.5096;0.9598;
571.8000;0.5120;0.9698;
572.1000;0.5071;0.9648;
572.4000;0.5112;0.9797;
572.7000;0.5096;0.9673;
573.0000;0.5112;0.9772;
573.3000;0.5120;0.9772;
573.6000;0.5088;0.9573;
573.9000;0.5071;0.9524;
574.2000;0.5088;0.9499;
574.5000;0.5104;0.9499;
574.8000;0.5104;0.9524;
575.1000;0.5112;0.9524;
575.4000;0.5088;0.9424;
575.7000;0.5120;0.9598;
576.0000;0.5120;0.9623;
576.3000;0.5128;0.9549;
576.6000;0.5120;0.9549;
576.9000;0.5120;0.9648;
577.2000;0.5120;0.9698;
577.5000;0.5120;0.9723;
577.8000;0.5096;0.9698;
578.1000;0.5096;0.9797;
578.4000;0.5096;0.9748;
578.7000;0.5088;0.9797;
579.0000;0.5112;0.9872;
579.3000;0.5096;0.9847;
579.6000;0.5047;0.9698;
579.9000;0.5096;0.9748;
580.2000;0.5136;0.9797;
580.5000;0.5096;0.9748;
580.8000;0.5104;0.9897;
581.1000;0.5071;0.9872;
581.4000;0.5096;0.9847;
581.7000;0.5096;0.9847;
582.0000;0.5079;0.9723;
582.3000;0.5112;0.9772;
582.6000;0.5120;0.9897;
582.9000;0.5088;0.9723;
583.2000;0.5096;0.9822;
583.5000;0.5104;0.9847;
583.8000;0.5136;0.9847;
584.1000;0.5071;0.9698;
584.4000;0.5096;0.9698;
584.7000;0.5088;0.9673;
585.0000;0.5104;0.9723;
585.3000;0.5088;0.9698;
585.6000;0.5088;0.9698;
585.9000;0.5096;0.9648;
586.2000;0.5112;0.9673;
586.5000;0.5104;0.9772;
586.8000;0.5112;0.9822;
587.1000;0.5169;1.0021;
587.4000;0.5120;0.9847;
587.7000;0.5096;0.9822;
588.0000;0.5104;0.9847;
588.3000;0.5112;0.9847;
588.6000;0.5096;0.9772;
588.9000;0.5104;0.9748;
589.2000;0.5096;0.9748;
589.5000;0.5112;0.9847;
589.8000;0.5096;0.9872;
590.1000;0.5104;0.9897;
590.4000;0.5096;0.9946;
590.7000;0.5104;1.0021;
591.0000;0.5096;0.9996;
591.3000;0.5104;1.0021;
591.6000;0.5063;0.9847;
591.9000;0.5120;0.9897;
592.2000;0.5104;0.9847;
592.5000;0.5088;0.9897;
592.8000;0.5104;0.9971;
593.1000;0.5079;0.9872;
593.4000;0.5088;0.9847;
593.7000;0.5112;0.9897;
594.0000;0.5104;0.9872;
594.3000;0.5088;0.9772;
594.6000;0.5079;0.9822;
594.9000;0.5079;0.9797;
595.2000;0.5096;0.9748;
595.5000;0.5088;0.9772;
595.8000;0.5096;0.9797;
596.1000;0.5096;0.9822;
596.4000;0.5096;0.9897;
596.7000;0.5088;0.9897;
597.0000;0.5096;0.9847;
597.3000;0.5079;0.9872;
597.6000;0.5088;0.9847;
597.9000;0.5096;0.9847;
598.2000;0.5096;0.9922;
598.5000;0.5104;0.9946;
598.8000;0.5104;0.9971;
599.1000;0.5047;0.9872;
599.4000;0.5096;0.9922;
599.7000;0.5096;0.9922;
600.0000;0.5071;0.9872;
600.3000;0.5096;0.9772;
600.6000;0.5096;0.9673;
600.9000;0.5039;0.9549;
601.2000;0.4990;0.9499;
601.5000;0.4925;0.9350;
601.8000;0.4843;0.9026;
602.1000;0.4721;0.8629;
602.4000;0.4746;0.8703;
602.7000;0.4705;0.8529;
603.0000;0.4599;0.8405;
603.3000;0.4599;0.8380;
603.6000;0.4567;0.8280;
603.9000;0.4542;0.8181;
604.2000;0.4485;0.8081;
604.5000;0.4428;0.7907;
604.8000;0.4412;0.7858;
605.1000;0.4379;0.7858;
605.4000;0.4420;0.7932;
605.7000;0.4330;0.7634;
606.0000;0.4314;0.7609;
606.3000;0.4282;0.7584;
606.6000;0.4241;0.7510;
606.9000;0.4249;0.7559;
607.2000;0.4217;0.7534;
607.5000;0.4208;0.7510;
607.8000;0.4217;0.7534;
608.1000;0.4176;0.7435;
608.4000;0.4160;0.7311;
608.7000;0.4135;0.7311;
609.0000;0.4143;0.7311;
609.3000;0.4103;0.7286;
609.6000;0.4094;0.7261;
609.9000;0.4037;0.7261;
610.2000;0.4062;0.7385;
610.5000;0.4086;0.7435;
610.8000;0.4054;0.7410;
611.1000;0.4062;0.7385;
611.4000;0.4046;0.7360;
611.7000;0.4021;0.7236;
612.0000;0.4013;0.7062;
612.3000;0.4021;0.7161;
612.6000;0.4021;0.7211;
612.9000;0.3948;0.7037;
613.2000;0.3980;0.7037;
613.5000;0.3989;0.6987;
613.8000;0.3989;0.6963;
614.1000;0.3980;0.6913;
614.4000;0.3948;0.6863;
614.7000;0.3956;0.6913;
615.0000;0.3940;0.6888;
615.3000;0.3940;0.6813;
615.6000;0.3923;0.6813;
615.9000;0.3907;0.6764;
616.2000;0.3923;0.6813;
616.5000;0.3923;0.6987;
616.8000;0.3875;0.6863;
617.1000;0.3915;0.6913;
617.4000;0.3867;0.6764;
617.7000;0.3883;0.6838;
618.0000;0.3899;0.6987;
618.3000;0.3883;0.6938;
618.6000;0.3883;0.6963;
618.9000;0.3875;0.6938;
619.2000;0.3867;0.6888;
619.5000;0.3842;0.6987;
619.8000;0.3842;0.7087;
620.1000;0.3842;0.6963;
620.4000;0.3883;0.7037;
620.7000;0.3834;0.6913;
621.0000;0.3818;0.6888;
621.3000;0.3769;0.6739;
621.6000;0.3793;0.6764;
621.9000;0.3834;0.6888;
622.2000;0.3834;0.6863;
622.5000;0.3818;0.6888;
622.8000;0.3818;0.6913;
623.1000;0.3834;0.6888;
623.4000;0.3793;0.6888;
623.7000;0.3801;0.7012;
624.0000;0.3744;0.6764;
624.3000;0.3793;0.6764;
624.6000;0.3777;0.6764;
624.9000;0.3769;0.6788;
625.2000;0.3785;0.6813;
625.5000;0.3761;0.6863;
625.8000;0.3785;0.6913;
626.1000;0.3769;0.6888;
626.4000;0.3769;0.6963;
626.7000;0.3793;0.7012;
627.0000;0.3769;0.6963;
627.3000;0.3769;0.6963;
627.6000;0.3736;0.6913;
627.9000;0.3785;0.6938;
628.2000;0.3761;0.6913;
628.5000;0.3753;0.7012;
628.8000;0.3761;0.7161;
629.1000;0.3753;0.7112;
629.4000;0.3744;0.7161;
629.7000;0.3720;0.7087;
630.0000;0.3744;0.7137;
630.3000;0.3712;0.7236;
630.6000;0.3728;0.7311;
630.9000;0.3736;0.7335;
631.2000;0.3663;0.7087;
631.5000;0.3728;0.7112;
631.8000;0.3744;0.7112;
632.1000;0.3655;0.6788;
632.4000;0.3720;0.6963;
632.7000;0.3712;0.6938;
633.0000;0.3712;0.6963;
633.3000;0.3712;0.7012;
633.6000;0.3696;0.6987;
633.9000;0.3720;0.7062;
634.2000;0.3704;0.6987;
634.5000;0.3720;0.7012;
634.8000;0.3712;0.6987;
635.1000;0.3696;0.7062;
635.4000;0.3769;0.7261;
635.7000;0.3679;0.7012;
636.0000;0.3687;0.7037;
636.3000;0.3687;0.7087;
636.6000;0.3671;0.7012;
636.9000;0.3679;0.7037;
637.2000;0.3736;0.7161;
637.5000;0.3663;0.6913;
637.8000;0.3639;0.6863;
638.1000;0.3696;0.7037;
638.4000;0.3671;0.7012;
638.7000;0.3663;0.6987;
639.0000;0.3647;0.7012;
639.3000;0.3663;0.7112;
639.6000;0.3655;0.7062;
639.9000;0.3663;0.7062;
640.2000;0.3663;0.7112;
640.5000;0.3655;0.7037;
640.8000;0.3647;0.7012;
641.1000;0.3639;0.6963;
641.4000;0.3630;0.6863;
641.7000;0.3647;0.6938;
642.0000;0.3639;0.7012;
642.3000;0.3639;0.7012;
642.6000;0.3647;0.7062;
642.9000;0.3655;0.7037;
643.2000;0.3622;0.6987;
643.5000;0.3630;0.7037;
643.8000;0.3622;0.6987;
644.1000;0.3655;0.7012;
644.4000;0.3606;0.6888;
644.7000;0.3614;0.6888;
645.0000;0.3614;0.6863;
645.3000;0.3606;0.6838;
645.6000;0.3630;0.6863;
645.9000;0.3630;0.6938;
646.2000;0.3606;0.6938;
646.5000;0.3606;0.7012;
646.8000;0.3622;0.7037;
647.1000;0.3565;0.6938;
647.4000;0.3622;0.7087;
647.7000;0.3622;0.7037;
648.0000;0.3582;0.6963;
648.3000;0.3582;0.6987;
648.6000;0.3565;0.6938;
648.9000;0.3582;0.7012;
649.2000;0.3622;0.7161;
649.5000;0.3606;0.7112;
649.8000;0.3606;0.7037;
650.1000;0.3598;0.7012;
650.4000;0.3598;0.7062;
650.7000;0.3582;0.7062;
651.0000;0.3630;0.7112;
651.3000;0.3590;0.7112;
651.6000;0.3614;0.7037;
651.9000;0.3614;0.7087;
652.2000;0.3622;0.7211;
652.5000;0.3590;0.7087;
652.8000;0.3573;0.6963;
653.1000;0.3598;0.7087;
653.4000;0.3582;0.7062;
653.7000;0.3590;0.7112;
654.0000;0.3565;0.7087;
654.3000;0.3565;0.7112;
654.6000;0.3557;0.7087;
654.9000;0.3590;0.7211;
655.2000;0.3557;0.7087;
655.5000;0.3590;0.7161;
655.8000;0.3622;0.7236;
656.1000;0.3565;0.7112;
656.4000;0.3590;0.7137;
656.7000;0.3565;0.7161;
657.0000;0.3582;0.7161;
657.3000;0.3582;0.7137;
657.6000;0.3549;0.7186;
657.9000;0.3549;0.7236;
658.2000;0.3557;0.7236;
658.5000;0.3533;0.7087;
658.8000;0.3557;0.7211;
659.1000;0.3557;0.7186;
659.4000;0.3549;0.7161;
659.7000;0.3582;0.7286;
660.0000;0.3549;0.7261;
660.3000;0.3582;0.7311;
660.6000;0.3590;0.7311;
660.9000;0.3549;0.7137;
661.2000;0.3557;0.7112;
661.5000;0.3492;0.6987;
661.8000;0.3598;0.7335;
662.1000;0.3557;0.7186;
662.4000;0.3541;0.7161;
662.7000;0.3647;0.7410;
663.0000;0.3582;0.7161;
663.3000;0.3533;0.7087;
663.6000;0.3533;0.7062;
663.9000;0.3549;0.7037;
664.2000;0.3516;0.6938;
664.5000;0.3557;0.6963;
664.8000;0.3533;0.6963;
665.1000;0.3533;0.7012;
665.4000;0.3549;0.7112;
665.7000;0.3525;0.7062;
666.0000;0.3533;0.7137;
666.3000;0.3533;0.7161;
666.6000;0.3525;0.7186;
666.9000;0.3508;0.7261;
667.2000;0.3549;0.7335;
667.5000;0.3525;0.7335;
667.8000;0.3533;0.7311;
668.1000;0.3508;0.7286;
668.4000;0.3533;0.7211;
668.7000;0.3516;0.7137;
669.0000;0.3516;0.7186;
669.3000;0.3500;0.7236;
669.6000;0.3516;0.7311;
669.9000;0.3525;0.7311;
670.2000;0.3492;0.7261;
670.5000;0.3492;0.7211;
670.8000;0.3508;0.7335;
671.1000;0.3508;0.7360;
671.4000;0.3508;0.7236;
671.7000;0.3500;0.7062;
672.0000;0.3492;0.6987;
672.3000;0.3516;0.6987;
672.6000;0.3468;0.6838;
672.9000;0.3468;0.6863;
673.2000;0.3492;0.6987;
673.5000;0.3525;0.7161;
673.8000;0.3500;0.7037;
674.1000;0.3476;0.6987;
674.4000;0.3500;0.7137;
674.7000;0.3476;0.7087;
675.0000;0.3500;0.7236;
675.3000;0.3476;0.7211;
675.6000;0.3484;0.7261;
675.9000;0.3508;0.7261;
676.2000;0.3492;0.7186;
676.5000;0.3484;0.7161;
676.8000;0.3460;0.7137;
677.1000;0.3500;0.7261;
677.4000;0.3476;0.7186;
677.7000;0.3492;0.7211;
678.0000;0.3516;0.7311;
678.3000;0.3460;0.7062;
678.6000;0.3533;0.7311;
678.9000;0.3411;0.7112;
679.2000;0.3476;0.7236;
679.5000;0.3468;0.7211;
679.8000;0.3484;0.7186;
680.1000;0.3500;0.7186;
680.4000;0.3468;0.7037;
680.7000;0.3484;0.7087;
681.0000;0.3484;0.7087;
681.3000;0.3492;0.7112;
681.6000;0.3468;0.7112;
681.9000;0.3516;0.7211;
682.2000;0.3484;0.7261;
682.5000;0.3468;0.7236;
682.8000;0.3460;0.7186;
683.1000;0.3468;0.7211;
683.4000;0.3476;0.7211;
683.7000;0.3468;0.7186;
684.0000;0.3451;0.7062;
684.3000;0.3451;0.6987;
684.6000;0.3468;0.6987;
684.9000;0.3492;0.7062;
685.2000;0.3419;0.6913;
685.5000;0.3435;0.6863;
685.8000;0.3451;0.6888;
686.1000;0.3460;0.6938;
686.4000;0.3484;0.7012;
686.7000;0.3460;0.7087;
687.0000;0.3435;0.7012;
687.3000;0.3476;0.7211;
687.6000;0.3492;0.7211;
687.9000;0.3492;0.7161;
688.2000;0.3492;0.7112;
688.5000;0.3460;0.7037;
688.8000;0.3443;0.6938;
689.1000;0.3468;0.7012;
689.4000;0.3443;0.6963;
689.7000;0.3435;0.6788;
690.0000;0.3451;0.6714;
690.3000;0.3451;0.6863;
690.6000;0.3435;0.6913;
690.9000;0.3427;0.6963;
691.2000;0.3443;0.7087;
691.5000;0.3468;0.7211;
691.8000;0.3435;0.7137;
692.1000;0.3435;0.7087;
692.4000;0.3468;0.7087;
692.7000;0.3451;0.7062;
693.0000;0.3468;0.6963;
693.3000;0.3443;0.6888;
693.6000;0.3468;0.7012;
693.9000;0.3411;0.6888;
694.2000;0.3500;0.7137;
694.5000;0.3435;0.6987;
694.8000;0.3419;0.7062;
695.1000;0.3329;0.6788;
695.4000;0.3451;0.7186;
695.7000;0.3451;0.7137;
696.0000;0.3386;0.6938;
696.3000;0.3468;0.7186;
696.6000;0.3435;0.7137;
696.9000;0.3386;0.7012;
697.2000;0.3427;0.7012;
697.5000;0.3435;0.7037;
697.8000;0.3460;0.7186;
698.1000;0.3435;0.7087;
698.4000;0.3435;0.7186;
698.7000;0.3460;0.7261;
699.0000;0.3419;0.7087;
699.3000;0.3411;0.7186;
699.6000;0.3370;0.7087;
699.9000;0.3394;0.7161;
700.2000;0.3411;0.7211;
700.5000;0.3419;0.7137;
700.8000;0.3411;0.7012;
701.1000;0.3427;0.7087;
701.4000;0.3411;0.7161;
701.7000;0.3460;0.7286;
702.0000;0.3411;0.7161;
702.3000;0.3419;0.7261;
702.6000;0.3411;0.7286;
702.9000;0.3419;0.7236;
703.2000;0.3386;0.7186;
703.5000;0.3419;0.7261;
703.8000;0.3435;0.7236;
704.1000;0.3443;0.7286;
704.4000;0.3443;0.7211;
704.7000;0.3362;0.6838;
705.0000;0.3419;0.6987;
705.3000;0.3427;0.6987;
705.6000;0.3411;0.6987;
705.9000;0.3419;0.7037;
706.2000;0.3419;0.7161;
706.5000;0.3419;0.7186;
706.8000;0.3427;0.7286;
707.1000;0.3427;0.7186;
707.4000;0.3403;0.7112;
707.7000;0.3386;0.7087;
708.0000;0.3443;0.7211;
708.3000;0.3403;0.7186;
708.6000;0.3411;0.7236;
708.9000;0.3403;0.7211;
709.2000;0.3419;0.7211;
709.5000;0.3403;0.7286;
709.8000;0.3403;0.7335;
710.1000;0.3394;0.7261;
710.4000;0.3411;0.7286;
710.7000;0.3403;0.7286;
711.0000;0.3411;0.7311;
711.3000;0.3411;0.7335;
711.6000;0.3419;0.7335;
711.9000;0.3419;0.7261;
712.2000;0.3411;0.7137;
712.5000;0.3386;0.7186;
712.8000;0.3435;0.7385;
713.1000;0.3427;0.7360;
713.4000;0.3386;0.7311;
713.7000;0.3386;0.7385;
714.0000;0.3403;0.7435;
714.3000;0.3394;0.7410;
714.6000;0.3411;0.7460;
714.9000;0.3386;0.7435;
715.2000;0.3386;0.7311;
715.5000;0.3370;0.7311;
715.8000;0.3411;0.7360;
716.1000;0.3378;0.7335;
716.4000;0.3394;0.7360;
716.7000;0.3411;0.7385;
717.0000;0.3411;0.7410;
717.3000;0.3419;0.7410;
717.6000;0.3370;0.7286;
717.9000;0.3386;0.7311;
718.2000;0.3378;0.7236;
718.5000;0.3394;0.7360;
718.8000;0.3378;0.7311;
719.1000;0.3362;0.7410;
719.4000;0.3370;0.7559;
719.7000;0.3394;0.7559;
720.0000;0.3394;0.7559;
720.3000;0.3394;0.7510;
720.6000;0.3394;0.7510;
720.9000;0.3419;0.7609;
721.2000;0.3403;0.7460;
721.5000;0.3403;0.7460;
721.8000;0.3403;0.7460;
722.1000;0.3394;0.7435;
722.4000;0.3337;0.7286;
722.7000;0.3419;0.7385;
723.0000;0.3394;0.7410;
723.3000;0.3394;0.7360;
723.6000;0.3378;0.7335;
723.9000;0.3370;0.7261;
724.2000;0.3386;0.7335;
724.5000;0.3403;0.7335;
724.8000;0.3378;0.7335;
725.1000;0.3394;0.7335;
725.4000;0.3378;0.7286;
725.7000;0.3386;0.7286;
726.0000;0.3394;0.7186;
726.3000;0.3394;0.7112;
726.6000;0.3394;0.7211;
726.9000;0.3403;0.7261;
727.2000;0.3394;0.7286;
727.5000;0.3386;0.7311;
727.8000;0.3378;0.7410;
728.1000;0.3403;0.7460;
728.4000;0.3370;0.7385;
728.7000;0.3378;0.7460;
729.0000;0.3337;0.7335;
729.3000;0.3370;0.7534;
729.6000;0.3386;0.7559;
729.9000;0.3362;0.7485;
730.2000;0.3403;0.7559;
730.5000;0.3403;0.7510;
730.8000;0.3386;0.7534;
731.1000;0.3378;0.7485;
731.4000;0.3378;0.7435;
731.7000;0.3411;0.7510;
732.0000;0.3378;0.7410;
732.3000;0.3354;0.7360;
732.6000;0.3370;0.7460;
732.9000;0.3362;0.7510;
733.2000;0.3394;0.7584;
733.5000;0.3370;0.7435;
733.8000;0.3329;0.7261;
734.1000;0.3346;0.7236;
734.4000;0.3354;0.7261;
734.7000;0.3370;0.7261;
735.0000;0.3289;0.7087;
735.3000;0.3362;0.7311;
735.6000;0.3354;0.7410;
735.9000;0.3337;0.7311;
736.2000;0.3354;0.7286;
736.5000;0.3362;0.7236;
736.8000;0.3394;0.7335;
737.1000;0.3378;0.7335;
737.4000;0.3354;0.7335;
737.7000;0.3354;0.7261;
738.0000;0.3354;0.7261;
738.3000;0.3329;0.7261;
738.6000;0.3435;0.7534;
738.9000;0.3337;0.7261;
739.2000;0.3329;0.7261;
739.5000;0.3346;0.7236;
739.8000;0.3378;0.7360;
740.1000;0.3346;0.7311;
740.4000;0.3337;0.7261;
740.7000;0.3354;0.7261;
741.0000;0.3403;0.7335;
741.3000;0.3346;0.7286;
741.6000;0.3411;0.7460;
741.9000;0.3354;0.7360;
742.2000;0.3378;0.7410;
742.5000;0.3362;0.7385;
742.8000;0.3346;0.7435;
743.1000;0.3354;0.7485;
743.4000;0.3354;0.7435;
743.7000;0.3354;0.7385;
744.0000;0.3346;0.7311;
744.3000;0.3337;0.7410;
744.6000;0.3370;0.7435;
744.9000;0.3313;0.7261;
745.2000;0.3354;0.7335;
745.5000;0.3329;0.7360;
745.8000;0.3354;0.7460;
746.1000;0.3354;0.7510;
746.4000;0.3354;0.7534;
746.7000;0.3378;0.7584;
747.0000;0.3354;0.7460;
747.3000;0.3354;0.7460;
747.6000;0.3354;0.7435;
747.9000;0.3313;0.7211;
748.2000;0.3362;0.7286;
748.5000;0.3346;0.7335;
748.8000;0.3354;0.7335;
749.1000;0.3329;0.7410;
749.4000;0.3329;0.7435;
749.7000;0.3362;0.7435;
750.0000;0.3329;0.7261;
750.3000;0.3346;0.7261;
750.6000;0.3329;0.7261;
750.9000;0.3321;0.7261;
751.2000;0.3305;0.7286;
751.5000;0.3346;0.7335;
751.8000;0.3337;0.7385;
752.1000;0.3427;0.7609;
752.4000;0.3346;0.7435;
752.7000;0.3370;0.7435;
753.0000;0.3321;0.7335;
753.3000;0.3337;0.7410;
753.6000;0.3386;0.7559;
753.9000;0.3337;0.7410;
754.2000;0.3346;0.7410;
754.5000;0.3337;0.7410;
754.8000;0.3313;0.7335;
755.1000;0.3362;0.7460;
755.4000;0.3337;0.7435;
755.7000;0.3403;0.7733;
756.0000;0.3313;0.7385;
756.3000;0.3354;0.7435;
756.6000;0.3329;0.7385;
756.9000;0.3280;0.7261;
757.2000;0.3337;0.7410;
757.5000;0.3346;0.7534;
757.8000;0.3240;0.7335;
758.1000;0.3313;0.7584;
758.4000;0.3337;0.7609;
758.7000;0.3329;0.7534;
759.0000;0.3329;0.7534;
759.3000;0.3321;0.7485;
759.6000;0.3329;0.7609;
759.9000;0.3313;0.7609;
760.2000;0.3313;0.7559;
760.5000;0.3321;0.7510;
760.8000;0.3313;0.7485;
761.1000;0.3305;0.7360;
761.4000;0.3313;0.7385;
761.7000;0.3346;0.7485;
762.0000;0.3354;0.7534;
762.3000;0.3337;0.7460;
762.6000;0.3337;0.7460;
762.9000;0.3337;0.7510;
763.2000;0.3329;0.7460;
763.5000;0.3305;0.7485;
763.8000;0.3313;0.7510;
764.1000;0.3354;0.7559;
764.4000;0.3329;0.7559;
764.7000;0.3321;0.7485;
765.0000;0.3329;0.7510;
765.3000;0.3321;0.7485;
765.6000;0.3337;0.7534;
765.9000;0.3321;0.7485;
766.2000;0.3346;0.7534;
766.5000;0.3337;0.7485;
766.8000;0.3354;0.7534;
767.1000;0.3321;0.7510;
767.4000;0.3321;0.7534;
767.7000;0.3329;0.7559;
768.0000;0.3329;0.7510;
768.3000;0.3329;0.7485;
768.6000;0.3313;0.7460;
768.9000;0.3321;0.7559;
769.2000;0.3337;0.7559;
769.5000;0.3321;0.7634;
769.8000;0.3240;0.7360;
770.1000;0.3321;0.7659;
770.4000;0.3313;0.7634;
770.7000;0.3346;0.7634;
771.0000;0.3313;0.7460;
771.3000;0.3329;0.7510;
771.6000;0.3329;0.7534;
771.9000;0.3337;0.7584;
772.2000;0.3321;0.7510;
772.5000;0.3329;0.7559;
772.8000;0.3321;0.7410;
773.1000;0.3289;0.7435;
773.4000;0.3321;0.7510;
773.7000;0.3297;0.7485;
774.0000;0.3411;0.7808;
774.3000;0.3321;0.7634;
774.6000;0.3321;0.7534;
774.9000;0.3321;0.7534;
775.2000;0.3346;0.7559;
775.5000;0.3297;0.7510;
775.8000;0.3329;0.7634;
776.1000;0.3313;0.7634;
776.4000;0.3329;0.7659;
776.7000;0.3321;0.7659;
777.0000;0.3329;0.7634;
777.3000;0.3321;0.7684;
777.6000;0.3305;0.7609;
777.9000;0.3313;0.7609;
778.2000;0.3313;0.7584;
778.5000;0.3280;0.7485;
778.8000;0.3313;0.7534;
779.1000;0.3321;0.7584;
779.4000;0.3321;0.7559;
779.7000;0.3354;0.7634;
780.0000;0.3313;0.7584;
780.3000;0.3337;0.7684;
780.6000;0.3321;0.7634;
780.9000;0.3337;0.7609;
781.2000;0.3305;0.7534;
781.5000;0.3329;0.7609;
781.8000;0.3329;0.7609;
782.1000;0.3313;0.7659;
782.4000;0.3313;0.7510;
782.7000;0.3313;0.7510;
783.0000;0.3297;0.7485;
783.3000;0.3313;0.7534;
783.6000;0.3297;0.7510;
783.9000;0.3337;0.7534;
784.2000;0.3346;0.7534;
784.5000;0.3321;0.7510;
784.8000;0.3313;0.7360;
785.1000;0.3297;0.7286;
785.4000;0.3329;0.7311;
785.7000;0.3305;0.7236;
786.0000;0.3305;0.7186;
786.3000;0.3297;0.7211;
786.6000;0.3346;0.7286;
786.9000;0.3280;0.7211;
787.2000;0.3313;0.7311;
787.5000;0.3289;0.7286;
787.8000;0.3329;0.7360;
788.1000;0.3289;0.7335;
788.4000;0.3313;0.7311;
788.7000;0.3337;0.7335;
789.0000;0.3321;0.7360;
789.3000;0.3256;0.7236;
789.6000;0.3313;0.7360;
789.9000;0.3297;0.7286;
790.2000;0.3313;0.7335;
790.5000;0.3272;0.7385;
790.8000;0.3321;0.7510;
791.1000;0.3313;0.7534;
791.4000;0.3313;0.7534;
791.7000;0.3280;0.7460;
792.0000;0.3305;0.7435;
792.3000;0.3280;0.7335;
792.6000;0.3313;0.7360;
792.9000;0.3297;0.7360;
793.2000;0.3297;0.7311;
793.5000;0.3305;0.7311;
793.8000;0.3272;0.7236;
794.1000;0.3313;0.7311;
794.4000;0.3305;0.7286;
794.7000;0.3378;0.7510;
795.0000;0.3313;0.7335;
795.3000;0.3321;0.7435;
795.6000;0.3329;0.7435;
795.9000;0.3305;0.7435;
796.2000;0.3321;0.7435;
796.5000;0.3297;0.7410;
796.8000;0.3313;0.7335;
797.1000;0.3297;0.7335;
797.4000;0.3289;0.7360;
797.7000;0.3313;0.7360;
798.0000;0.3321;0.7360;
798.3000;0.3289;0.7311;
798.6000;0.3297;0.7311;
798.9000;0.3289;0.7410;
799.2000;0.3280;0.7485;
799.5000;0.3297;0.7510;
799.8000;0.3297;0.7510;
800.1000;0.3289;0.7485;
800.4000;0.3313;0.7534;
800.7000;0.3321;0.7559;
801.0000;0.3313;0.7534;
801.3000;0.3289;0.7510;
801.6000;0.3305;0.7559;
801.9000;0.3329;0.7584;
802.2000;0.3297;0.7485;
802.5000;0.3289;0.7534;
802.8000;0.3264;0.7534;
803.1000;0.3305;0.7534;
803.4000;0.3297;0.7559;
803.7000;0.3297;0.7534;
804.0000;0.3297;0.7510;
804.3000;0.3346;0.7634;
804.6000;0.3321;0.7534;
804.9000;0.3337;0.7534;
805.2000;0.3289;0.7460;
805.5000;0.3321;0.7534;
805.8000;0.3256;0.7385;
806.1000;0.3305;0.7510;
806.4000;0.3289;0.7485;
806.7000;0.3280;0.7485;
807.0000;0.3305;0.7534;
807.3000;0.3297;0.7534;
807.6000;0.3305;0.7510;
807.9000;0.3297;0.7559;
808.2000;0.3305;0.7584;
808.5000;0.3289;0.7460;
808.8000;0.3313;0.7485;
809.1000;0.3297;0.7460;
809.4000;0.3313;0.7559;
809.7000;0.3280;0.7435;
810.0000;0.3289;0.7485;
810.3000;0.3289;0.7335;
810.6000;0.3305;0.7335;
810.9000;0.3321;0.7360;
811.2000;0.3289;0.7311;
811.5000;0.3313;0.7410;
811.8000;0.3305;0.7435;
812.1000;0.3297;0.7485;
812.4000;0.3280;0.7435;
812.7000;0.3337;0.7510;
813.0000;0.3280;0.7311;
813.3000;0.3313;0.7410;
813.6000;0.3280;0.7335;
813.9000;0.3321;0.7460;
814.2000;0.3297;0.7460;
814.5000;0.3272;0.7534;
814.8000;0.3362;0.7733;
815.1000;0.3280;0.7460;
815.4000;0.3370;0.7659;
815.7000;0.3191;0.7236;
816.0000;0.3272;0.7435;
816.3000;0.3289;0.7410;
816.6000;0.3280;0.7385;
816.9000;0.3289;0.7410;
817.2000;0.3305;0.7485;
817.5000;0.3289;0.7510;
817.8000;0.3280;0.7335;
818.1000;0.3289;0.7360;
818.4000;0.3289;0.7410;
818.7000;0.3297;0.7360;
819.0000;0.3297;0.7360;
819.3000;0.3289;0.7410;
819.6000;0.3297;0.7485;
819.9000;0.3280;0.7510;
820.2000;0.3256;0.7460;
820.5000;0.3256;0.7435;
820.8000;0.3289;0.7634;
821.1000;0.3297;0.7634;
821.4000;0.3289;0.7534;
821.7000;0.3272;0.7460;
822.0000;0.3272;0.7460;
822.3000;0.3289;0.7559;
822.6000;0.3313;0.7634;
822.9000;0.3280;0.7485;
823.2000;0.3280;0.7460;
823.5000;0.3289;0.7485;
823.8000;0.3305;0.7534;
824.1000;0.3297;0.7510;
824.4000;0.3280;0.7559;
824.7000;0.3272;0.7584;
825.0000;0.3289;0.7659;
825.3000;0.3289;0.7659;
825.6000;0.3280;0.7659;
825.9000;0.3329;0.7659;
826.2000;0.3272;0.7435;
826.5000;0.3264;0.7410;
826.8000;0.3280;0.7460;
827.1000;0.3280;0.7460;
827.4000;0.3313;0.7460;
827.7000;0.3289;0.7485;
828.0000;0.3289;0.7460;
828.3000;0.3240;0.7360;
828.6000;0.3297;0.7534;
828.9000;0.3280;0.7385;
829.2000;0.3289;0.7410;
829.5000;0.3223;0.7360;
829.8000;0.3280;0.7510;
830.1000;0.3248;0.7485;
830.4000;0.3256;0.7534;
830.7000;0.3280;0.7559;
831.0000;0.3264;0.7435;
831.3000;0.3272;0.7510;
831.6000;0.3297;0.7584;
831.9000;0.3280;0.7510;
832.2000;0.3289;0.7559;
832.5000;0.3280;0.7534;
832.8000;0.3280;0.7534;
833.1000;0.3297;0.7534;
833.4000;0.3289;0.7510;
833.7000;0.3297;0.7559;
834.0000;0.3313;0.7584;
834.3000;0.3256;0.7510;
834.6000;0.3280;0.7534;
834.9000;0.3280;0.7609;
835.2000;0.3280;0.7684;
835.5000;0.3280;0.7684;
835.8000;0.3264;0.7609;
836.1000;0.3272;0.7659;
836.4000;0.3313;0.7808;
836.7000;0.3289;0.7659;
837.0000;0.3305;0.7609;
837.3000;0.3289;0.7534;
837.6000;0.3297;0.7559;
837.9000;0.3264;0.7435;
838.2000;0.3264;0.7485;
838.5000;0.3297;0.7435;
838.8000;0.3305;0.7435;
839.1000;0.3305;0.7360;
839.4000;0.3297;0.7410;
839.7000;0.3337;0.7485;
840.0000;0.3280;0.7410;
840.3000;0.3264;0.7485;
840.6000;0.3232;0.7385;
840.9000;0.3289;0.7510;
841.2000;0.3280;0.7510;
841.5000;0.3272;0.7584;
841.8000;0.3272;0.7559;
842.1000;0.3264;0.7584;
842.4000;0.3280;0.7559;
842.7000;0.3305;0.7584;
843.0000;0.3280;0.7534;
843.3000;0.3256;0.7534;
843.6000;0.3264;0.7559;
843.9000;0.3191;0.7335;
844.2000;0.3264;0.7609;
844.5000;0.3321;0.7708;
844.8000;0.3256;0.7510;
845.1000;0.3248;0.7460;
845.4000;0.3272;0.7510;
845.7000;0.3215;0.7286;
846.0000;0.3280;0.7410;
846.3000;0.3297;0.7460;
846.6000;0.3337;0.7534;
846.9000;0.3272;0.7435;
847.2000;0.3272;0.7460;
847.5000;0.3313;0.7659;
847.8000;0.3264;0.7609;
848.1000;0.3240;0.7510;
848.4000;0.3272;0.7485;
848.7000;0.3272;0.7435;
849.0000;0.3264;0.7311;
849.3000;0.3272;0.7236;
849.6000;0.3256;0.7311;
849.9000;0.3289;0.7435;
850.2000;0.3272;0.7510;
850.5000;0.3280;0.7584;
850.8000;0.3272;0.7510;
851.1000;0.3272;0.7559;
851.4000;0.3305;0.7684;
851.7000;0.3264;0.7659;
852.0000;0.3272;0.7659;
852.3000;0.3264;0.7510;
852.6000;0.3272;0.7559;
852.9000;0.3223;0.7485;
853.2000;0.3272;0.7559;
853.5000;0.3256;0.7485;
853.8000;0.3272;0.7534;
854.1000;0.3264;0.7485;
854.4000;0.3223;0.7410;
854.7000;0.3272;0.7460;
855.0000;0.3248;0.7360;
855.3000;0.3280;0.7435;
855.6000;0.3272;0.7435;
855.9000;0.3305;0.7485;
856.2000;0.3166;0.7137;
856.5000;0.3264;0.7261;
856.8000;0.3256;0.7186;
857.1000;0.3264;0.7261;
857.4000;0.3370;0.7584;
857.7000;0.3289;0.7360;
858.0000;0.3280;0.7410;
858.3000;0.3240;0.7311;
858.6000;0.3256;0.7335;
858.9000;0.3280;0.7460;
859.2000;0.3272;0.7435;
859.5000;0.3297;0.7385;
859.8000;0.3248;0.7286;
860.1000;0.3256;0.7360;
860.4000;0.3280;0.7385;
860.7000;0.3321;0.7435;
861.0000;0.3256;0.7311;
861.3000;0.3272;0.7360;
861.6000;0.3223;0.7137;
861.9000;0.3280;0.7236;
862.2000;0.3280;0.7236;
862.5000;0.3264;0.7236;
862.8000;0.3272;0.7211;
863.1000;0.3264;0.7236;
863.4000;0.3272;0.7286;
863.7000;0.3264;0.7236;
864.0000;0.3297;0.7286;
864.3000;0.3240;0.7236;
864.6000;0.3329;0.7460;
864.9000;0.3264;0.7460;
865.2000;0.3264;0.7460;
865.5000;0.3248;0.7460;
865.8000;0.3289;0.7534;
866.1000;0.3297;0.7584;
866.4000;0.3256;0.7385;
866.7000;0.3289;0.7534;
867.0000;0.3337;0.7659;
867.3000;0.3248;0.7435;
867.6000;0.3280;0.7510;
867.9000;0.3272;0.7485;
868.2000;0.3272;0.7360;
868.5000;0.3305;0.7385;
868.8000;0.3264;0.7410;
869.1000;0.3297;0.7510;
869.4000;0.3264;0.7510;
869.7000;0.3305;0.7584;
870.0000;0.3272;0.7559;
870.3000;0.3248;0.7485;
870.6000;0.3240;0.7335;
870.9000;0.3272;0.7435;
871.2000;0.3264;0.7335;
871.5000;0.3248;0.7261;
871.8000;0.3272;0.7385;
872.1000;0.3272;0.7385;
872.4000;0.3280;0.7485;
872.7000;0.3264;0.7360;
873.0000;0.3280;0.7410;
873.3000;0.3297;0.7385;
873.6000;0.3248;0.7211;
873.9000;0.3289;0.7286;
874.2000;0.3280;0.7236;
874.5000;0.3256;0.7261;
874.8000;0.3264;0.7261;
875.1000;0.3272;0.7211;
875.4000;0.3272;0.7137;
875.7000;0.3264;0.7211;
876.0000;0.3256;0.7211;
876.3000;0.3272;0.7286;
876.6000;0.3280;0.7311;
876.9000;0.3346;0.7435;
877.2000;0.3280;0.7311;
877.5000;0.3264;0.7311;
877.8000;0.3280;0.7335;
878.1000;0.3280;0.7435;
878.4000;0.3272;0.7410;
878.7000;0.3240;0.7410;
879.0000;0.3223;0.7385;
879.3000;0.3264;0.7410;
879.6000;0.3248;0.7385;
879.9000;0.3232;0.7435;
880.2000;0.3272;0.7485;
880.5000;0.3264;0.7485;
880.8000;0.3256;0.7460;
881.1000;0.3240;0.7335;
881.4000;0.3305;0.7410;
881.7000;0.3272;0.7335;
882.0000;0.3272;0.7311;
882.3000;0.3272;0.7261;
882.6000;0.3264;0.7286;
882.9000;0.3272;0.7360;
883.2000;0.3289;0.7435;
883.5000;0.3248;0.7385;
883.8000;0.3289;0.7460;
884.1000;0.3240;0.7410;
884.4000;0.3248;0.7435;
884.7000;0.3248;0.7410;
885.0000;0.3256;0.7510;
885.3000;0.3264;0.7485;
885.6000;0.3272;0.7460;
885.9000;0.3248;0.7311;
886.2000;0.3256;0.7311;
886.5000;0.3248;0.7286;
886.8000;0.3272;0.7410;
887.1000;0.3232;0.7335;
887.4000;0.3264;0.7534;
887.7000;0.3248;0.7435;
888.0000;0.3297;0.7534;
888.3000;0.3248;0.7460;
888.6000;0.3264;0.7460;
888.9000;0.3256;0.7485;
889.2000;0.3256;0.7559;
889.5000;0.3248;0.7534;
889.8000;0.3199;0.7435;
890.1000;0.3207;0.7460;
890.4000;0.3256;0.7534;
890.7000;0.3264;0.7584;
891.0000;0.3272;0.7659;
891.3000;0.3248;0.7634;
891.6000;0.3256;0.7609;
891.9000;0.3280;0.7634;
892.2000;0.3272;0.7559;
892.5000;0.3280;0.7534;
892.8000;0.3215;0.7460;
893.1000;0.3272;0.7634;
893.4000;0.3280;0.7708;
893.7000;0.3289;0.7733;
894.0000;0.3289;0.7708;
894.3000;0.3264;0.7758;
894.6000;0.3264;0.7708;
894.9000;0.3256;0.7733;
895.2000;0.3264;0.7659;
895.5000;0.3232;0.7559;
895.8000;0.3272;0.7584;
896.1000;0.3264;0.7460;
896.4000;0.3248;0.7460;
896.7000;0.3256;0.7385;
897.0000;0.3256;0.7360;
897.3000;0.3256;0.7385;
897.6000;0.3264;0.7410;
897.9000;0.3280;0.7435;
898.2000;0.3272;0.7410;
898.5000;0.3264;0.7410;
898.8000;0.3280;0.7510;
899.1000;0.3256;0.7435;
899.4000;0.3256;0.7534;
899.7000;0.3264;0.7510;
900.0000;0.3223;0.7460;
900.3000;0.3264;0.7485;
900.6000;0.3248;0.7485;
900.9000;0.3264;0.7510;
901.2000;0.3289;0.7559;
901.5000;0.3289;0.7559;
901.8000;0.3248;0.7534;
902.1000;0.3264;0.7609;
902.4000;0.3232;0.7510;
902.7000;0.3264;0.7534;
903.0000;0.3240;0.7534;
903.3000;0.3264;0.7559;
903.6000;0.3280;0.7559;
903.9000;0.3256;0.7534;
904.2000;0.3256;0.7534;
904.5000;0.3215;0.7360;
904.8000;0.3256;0.7634;
905.1000;0.3256;0.7684;
905.4000;0.3240;0.7634;
905.7000;0.3240;0.7634;
906.0000;0.3297;0.7733;
906.3000;0.3223;0.7510;
906.6000;0.3207;0.7435;
906.9000;0.3256;0.7559;
907.2000;0.3264;0.7559;
907.5000;0.3346;0.7808;
907.8000;0.3272;0.7559;
908.1000;0.3256;0.7485;
908.4000;0.3280;0.7584;
908.7000;0.3248;0.7485;
909.0000;0.3256;0.7460;
909.3000;0.3289;0.7510;
909.6000;0.3207;0.7261;
909.9000;0.3280;0.7510;
910.2000;0.3232;0.7485;
910.5000;0.3232;0.7385;
910.8000;0.3313;0.7510;
911.1000;0.3215;0.7311;
911.4000;0.3248;0.7335;
911.7000;0.3223;0.7335;
912.0000;0.3248;0.7385;
912.3000;0.3248;0.7311;
912.6000;0.3240;0.7286;
912.9000;0.3256;0.7460;
913.2000;0.3337;0.7758;
913.5000;0.3256;0.7510;
913.8000;0.3272;0.7460;
914.1000;0.3240;0.7335;
914.4000;0.3256;0.7410;
914.7000;0.3256;0.7385;
915.0000;0.3272;0.7410;
915.3000;0.3256;0.7360;
915.6000;0.3248;0.7360;
915.9000;0.3232;0.7335;
916.2000;0.3240;0.7335;
916.5000;0.3256;0.7460;
916.8000;0.3256;0.7559;
917.1000;0.3232;0.7534;
917.4000;0.3256;0.7584;
917.7000;0.3248;0.7609;
918.0000;0.3240;0.7559;
918.3000;0.3256;0.7559;
918.6000;0.3264;0.7584;
918.9000;0.3256;0.7634;
919.2000;0.3248;0.7534;
919.5000;0.3240;0.7584;
919.8000;0.3248;0.7609;
920.1000;0.3240;0.7510;
920.4000;0.3240;0.7510;
920.7000;0.3248;0.7410;
921.0000;0.3248;0.7286;
921.3000;0.3240;0.7236;
921.6000;0.3240;0.7360;
921.9000;0.3248;0.7410;
922.2000;0.3134;0.7037;
922.5000;0.3248;0.7435;
922.8000;0.3280;0.7510;
923.1000;0.3248;0.7435;
923.4000;0.3232;0.7435;
923.7000;0.3256;0.7435;
924.0000;0.3256;0.7410;
924.3000;0.3256;0.7385;
924.6000;0.3207;0.7360;
924.9000;0.3248;0.7435;
925.2000;0.3256;0.7460;
925.5000;0.3240;0.7385;
925.8000;0.3256;0.7385;
926.1000;0.3240;0.7410;
926.4000;0.3240;0.7460;
926.7000;0.3256;0.7485;
927.0000;0.3175;0.7211;
927.3000;0.3240;0.7435;
927.6000;0.3256;0.7510;
927.9000;0.3248;0.7485;
928.2000;0.3256;0.7385;
928.5000;0.3232;0.7410;
928.8000;0.3280;0.7460;
929.1000;0.3264;0.7435;
929.4000;0.3223;0.7385;
929.7000;0.3264;0.7485;
930.0000;0.3248;0.7460;
930.3000;0.3240;0.7460;
930.6000;0.3215;0.7410;
930.9000;0.3207;0.7311;
931.2000;0.3232;0.7460;
931.5000;0.3264;0.7485;
931.8000;0.3264;0.7534;
932.1000;0.3240;0.7510;
932.4000;0.3248;0.7510;
932.7000;0.3256;0.7609;
933.0000;0.3248;0.7659;
933.3000;0.3313;0.7808;
933.6000;0.3240;0.7609;
933.9000;0.3248;0.7659;
934.2000;0.3248;0.7634;
934.5000;0.3256;0.7510;
934.8000;0.3248;0.7510;
935.1000;0.3240;0.7584;
935.4000;0.3256;0.7634;
935.7000;0.3199;0.7510;
936.0000;0.3240;0.7485;
936.3000;0.3289;0.7684;
936.6000;0.3264;0.7634;
936.9000;0.3264;0.7559;
937.2000;0.3240;0.7485;
937.5000;0.3240;0.7559;
937.8000;0.3248;0.7534;
938.1000;0.3256;0.7559;
938.4000;0.3264;0.7609;
938.7000;0.3321;0.7708;
939.0000;0.3207;0.7510;
939.3000;0.3264;0.7559;
939.6000;0.3256;0.7534;
939.9000;0.3256;0.7534;
940.2000;0.3240;0.7485;
940.5000;0.3240;0.7435;
940.8000;0.3248;0.7460;
941.1000;0.3240;0.7510;
941.4000;0.3223;0.7435;
941.7000;0.3248;0.7385;
942.0000;0.3232;0.7385;
942.3000;0.3248;0.7360;
942.6000;0.3256;0.7410;
942.9000;0.3256;0.7559;
943.2000;0.3240;0.7534;
943.5000;0.3248;0.7534;
943.8000;0.3264;0.7659;
944.1000;0.3232;0.7634;
944.4000;0.3256;0.7684;
944.7000;0.3232;0.7659;
945.0000;0.3240;0.7634;
945.3000;0.3248;0.7659;
945.6000;0.3232;0.7634;
945.9000;0.3232;0.7584;
946.2000;0.3297;0.7733;
946.5000;0.3232;0.7609;
946.8000;0.3232;0.7460;
947.1000;0.3248;0.7510;
947.4000;0.3248;0.7584;
947.7000;0.3232;0.7510;
948.0000;0.3248;0.7460;
948.3000;0.3240;0.7485;
948.6000;0.3232;0.7435;
948.9000;0.3329;0.7733;
949.2000;0.3248;0.7460;
949.5000;0.3248;0.7534;
949.8000;0.3248;0.7584;
950.1000;0.3223;0.7510;
950.4000;0.3248;0.7460;
950.7000;0.3240;0.7435;
951.0000;0.3248;0.7435;
951.3000;0.3256;0.7534;
951.6000;0.3240;0.7460;
951.9000;0.3248;0.7534;
952.2000;0.3264;0.7534;
952.5000;0.3223;0.7460;
952.8000;0.3256;0.7559;
953.1000;0.3256;0.7534;
953.4000;0.3232;0.7435;
953.7000;0.3232;0.7534;
954.0000;0.3232;0.7609;
954.3000;0.3256;0.7659;
954.6000;0.3289;0.7684;
954.9000;0.3256;0.7584;
955.2000;0.3240;0.7559;
955.5000;0.3264;0.7584;
955.8000;0.3264;0.7634;
956.1000;0.3240;0.7609;
956.4000;0.3223;0.7534;
956.7000;0.3232;0.7559;
957.0000;0.3264;0.7609;
957.3000;0.3248;0.7534;
957.6000;0.3183;0.7460;
957.9000;0.3256;0.7659;
958.2000;0.3248;0.7684;
958.5000;0.3232;0.7659;
958.8000;0.3289;0.7808;
959.1000;0.3215;0.7708;
959.4000;0.3223;0.7609;
959.7000;0.3240;0.7609;
960.0000;0.3232;0.7609;
960.3000;0.3240;0.7659;
960.6000;0.3240;0.7684;
960.9000;0.3256;0.7634;
961.2000;0.3232;0.7584;
961.5000;0.3215;0.7634;
961.8000;0.3240;0.7634;
962.1000;0.3264;0.7659;
962.4000;0.3264;0.7584;
962.7000;0.3232;0.7534;
963.0000;0.3240;0.7534;
963.3000;0.3240;0.7510;
963.6000;0.3240;0.7510;
963.9000;0.3248;0.7534;
964.2000;0.3191;0.7286;
964.5000;0.3248;0.7460;
964.8000;0.3240;0.7485;
965.1000;0.3305;0.7634;
965.4000;0.3256;0.7410;
965.7000;0.3329;0.7609;
966.0000;0.3305;0.7609;
966.3000;0.3240;0.7460;
966.6000;0.3207;0.7286;
966.9000;0.3248;0.7360;
967.2000;0.3240;0.7410;
967.5000;0.3256;0.7460;
967.8000;0.3232;0.7385;
968.1000;0.3223;0.7335;
968.4000;0.3240;0.7335;
968.7000;0.3272;0.7460;
969.0000;0.3248;0.7410;
969.3000;0.3223;0.7410;
969.6000;0.3256;0.7385;
969.9000;0.3256;0.7360;
970.2000;0.3240;0.7286;
970.5000;0.3240;0.7311;
970.8000;0.3248;0.7286;
971.1000;0.3240;0.7236;
971.4000;0.3280;0.7335;
971.7000;0.3240;0.7261;
972.0000;0.3240;0.7286;
972.3000;0.3329;0.7485;
972.6000;0.3248;0.7435;
972.9000;0.3223;0.7335;
973.2000;0.3240;0.7410;
973.5000;0.3248;0.7460;
973.8000;0.3248;0.7460;
974.1000;0.3232;0.7261;
974.4000;0.3232;0.7186;
974.7000;0.3248;0.7236;
975.0000;0.3256;0.7261;
975.3000;0.3248;0.7286;
975.6000;0.3232;0.7261;
975.9000;0.3223;0.7236;
976.2000;0.3248;0.7311;
976.5000;0.3240;0.7286;
976.8000;0.3215;0.7286;
977.1000;0.3223;0.7311;
977.4000;0.3248;0.7410;
977.7000;0.3232;0.7335;
978.0000;0.3232;0.7335;
978.3000;0.3240;0.7335;
978.6000;0.3248;0.7435;
978.9000;0.3248;0.7410;
979.2000;0.3232;0.7311;
979.5000;0.3248;0.7311;
979.8000;0.3248;0.7410;
980.1000;0.3256;0.7435;
980.4000;0.3240;0.7435;
980.7000;0.3248;0.7485;
981.0000;0.3240;0.7510;
981.3000;0.3256;0.7460;
981.6000;0.3248;0.7460;
981.9000;0.3248;0.7510;
982.2000;0.3240;0.7559;
982.5000;0.3272;0.7609;
982.8000;0.3280;0.7634;
983.1000;0.3248;0.7534;
983.4000;0.3256;0.7534;
983.7000;0.3240;0.7534;
984.0000;0.3248;0.7510;
984.3000;0.3240;0.7435;
984.6000;0.3223;0.7460;
984.9000;0.3289;0.7609;
985.2000;0.3223;0.7485;
985.5000;0.3207;0.7460;
985.8000;0.3232;0.7534;
986.1000;0.3232;0.7559;
986.4000;0.3232;0.7559;
986.7000;0.3232;0.7584;
987.0000;0.3232;0.7584;
987.3000;0.3215;0.7460;
987.6000;0.3240;0.7609;
987.9000;0.3256;0.7559;
988.2000;0.3272;0.7534;
988.5000;0.3223;0.7435;
988.8000;0.3232;0.7559;
989.1000;0.3264;0.7634;
989.4000;0.3272;0.7634;
989.7000;0.3280;0.7634;
990.0000;0.3248;0.7510;
990.3000;0.3280;0.7559;
990.6000;0.3166;0.7335;
990.9000;0.3232;0.7460;
991.2000;0.3223;0.7410;
991.5000;0.3223;0.7410;
991.8000;0.3223;0.7510;
992.1000;0.3329;0.7783;
992.4000;0.3183;0.7460;
992.7000;0.3207;0.7584;
993.0000;0.3240;0.7559;
993.3000;0.3223;0.7584;
993.6000;0.3248;0.7634;
993.9000;0.3232;0.7559;
994.2000;0.3232;0.7559;
994.5000;0.3240;0.7634;
994.8000;0.3232;0.7534;
995.1000;0.3207;0.7460;
995.4000;0.3223;0.7435;
995.7000;0.3215;0.7460;
996.0000;0.3215;0.7460;
996.3000;0.3232;0.7385;
996.6000;0.3248;0.7410;
996.9000;0.3215;0.7385;
997.2000;0.3240;0.7410;
997.5000;0.3183;0.7236;
997.8000;0.3240;0.7335;
998.1000;0.3207;0.7311;
998.4000;0.3264;0.7460;
998.7000;0.3207;0.7360;
999.0000;0.3264;0.7485;
999.3000;0.3240;0.7385;
999.6000;0.3264;0.7510;
999.9000;0.3240;0.7460;
1000.2000;0.3232;0.7435;
1000.5000;0.3248;0.7485;
1000.8000;0.3232;0.7460;
1001.1000;0.3215;0.7485;
1001.4000;0.3240;0.7460;
1001.7000;0.3223;0.7385;
1002.0000;0.3232;0.7485;
1002.3000;0.3248;0.7510;
1002.6000;0.3232;0.7485;
1002.9000;0.3232;0.7510;
1003.2000;0.3232;0.7485;
1003.5000;0.3256;0.7460;
1003.8000;0.3289;0.7534;
1004.1000;0.3223;0.7410;
1004.4000;0.3240;0.7385;
1004.7000;0.3223;0.7311;
1005.0000;0.3256;0.7385;
1005.3000;0.3248;0.7335;
1005.6000;0.3248;0.7385;
1005.9000;0.3264;0.7360;
1006.2000;0.3240;0.7311;
1006.5000;0.3264;0.7385;
1006.8000;0.3223;0.7360;
1007.1000;0.3223;0.7435;
1007.4000;0.3207;0.7435;
1007.7000;0.3215;0.7410;
1008.0000;0.3232;0.7485;
1008.3000;0.3199;0.7360;
1008.6000;0.3232;0.7460;
1008.9000;0.3223;0.7510;
1009.2000;0.3215;0.7559;
1009.5000;0.3232;0.7659;
1009.8000;0.3232;0.7634;
1010.1000;0.3223;0.7609;
1010.4000;0.3223;0.7584;
1010.7000;0.3232;0.7584;
1011.0000;0.3240;0.7609;
1011.3000;0.3240;0.7534;
1011.6000;0.3248;0.7485;
1011.9000;0.3248;0.7510;
1012.2000;0.3232;0.7410;
1012.5000;0.3240;0.7435;
1012.8000;0.3240;0.7360;
1013.1000;0.3223;0.7335;
1013.4000;0.3240;0.7410;
1013.7000;0.3223;0.7385;
1014.0000;0.3191;0.7335;
1014.3000;0.3272;0.7460;
1014.6000;0.3264;0.7460;
1014.9000;0.3248;0.7410;
1015.2000;0.3240;0.7410;
1015.5000;0.3264;0.7435;
1015.8000;0.3240;0.7485;
1016.1000;0.3256;0.7534;
1016.4000;0.3240;0.7510;
1016.7000;0.3297;0.7634;
1017.0000;0.3142;0.7261;
1017.3000;0.3280;0.7534;
1017.6000;0.3223;0.7510;
1017.9000;0.3240;0.7634;
1018.2000;0.3248;0.7684;
1018.5000;0.3248;0.7634;
1018.8000;0.3232;0.7684;
1019.1000;0.3232;0.7684;
1019.4000;0.3232;0.7684;
1019.7000;0.3199;0.7733;
1020.0000;0.3215;0.7783;
1020.3000;0.3207;0.7733;
1020.6000;0.3305;0.7957;
1020.9000;0.3223;0.7708;
1021.2000;0.3223;0.7634;
1021.5000;0.3232;0.7634;
1021.8000;0.3240;0.7584;
1022.1000;0.3256;0.7634;
1022.4000;0.3215;0.7584;
1022.7000;0.3232;0.7684;
1023.0000;0.3264;0.7634;
1023.3000;0.3240;0.7559;
1023.6000;0.3118;0.7236;
1023.9000;0.3232;0.7485;
1024.2000;0.3232;0.7559;
1024.5000;0.3232;0.7559;
1024.8000;0.3240;0.7435;
1025.1000;0.3223;0.7311;
1025.4000;0.3248;0.7360;
1025.7000;0.3240;0.7335;
1026.0000;0.3223;0.7311;
1026.3000;0.3199;0.7236;
1026.6000;0.3215;0.7360;
1026.9000;0.3215;0.7435;
1027.2000;0.3215;0.7435;
1027.5000;0.3248;0.7460;
1027.8000;0.3215;0.7435;
1028.1000;0.3223;0.7460;
1028.4000;0.3232;0.7435;
1028.7000;0.3223;0.7335;
1029.0000;0.3223;0.7335;
1029.3000;0.3264;0.7460;
1029.6000;0.3240;0.7460;
1029.9000;0.3232;0.7485;
1030.2000;0.3223;0.7410;
1030.5000;0.3232;0.7460;
1030.8000;0.3223;0.7460;
1031.1000;0.3223;0.7360;
1031.4000;0.3215;0.7385;
1031.7000;0.3232;0.7460;
1032.0000;0.3240;0.7435;
1032.3000;0.3240;0.7510;
1032.6000;0.3232;0.7534;
1032.9000;0.3223;0.7410;
1033.2000;0.3223;0.7360;
1033.5000;0.3240;0.7385;
1033.8000;0.3215;0.7435;
1034.1000;0.3215;0.7360;
1034.4000;0.3240;0.7385;
1034.7000;0.3256;0.7286;
1035.0000;0.3223;0.7186;
1035.3000;0.3207;0.7211;
1035.6000;0.3223;0.7261;
1035.9000;0.3232;0.7335;
1036.2000;0.3223;0.7311;
1036.5000;0.3223;0.7286;
1036.8000;0.3240;0.7410;
1037.1000;0.3232;0.7460;
1037.4000;0.3223;0.7460;
1037.7000;0.3232;0.7559;
1038.0000;0.3223;0.7510;
1038.3000;0.3223;0.7485;
1038.6000;0.3232;0.7435;
1038.9000;0.3223;0.7435;
1039.2000;0.3215;0.7286;
1039.5000;0.3232;0.7335;
1039.8000;0.3240;0.7435;
1040.1000;0.3232;0.7435;
1040.4000;0.3232;0.7435;
1040.7000;0.3232;0.7485;
1041.0000;0.3223;0.7485;
1041.3000;0.3232;0.7534;
1041.6000;0.3248;0.7634;
1041.9000;0.3215;0.7534;
1042.2000;0.3223;0.7460;
1042.5000;0.3248;0.7485;
1042.8000;0.3223;0.7385;
1043.1000;0.3215;0.7435;
1043.4000;0.3240;0.7510;
1043.7000;0.3223;0.7485;
1044.0000;0.3223;0.7485;
1044.3000;0.3240;0.7510;
1044.6000;0.3248;0.7510;
1044.9000;0.3256;0.7609;
1045.2000;0.3240;0.7684;
1045.5000;0.3232;0.7634;
1045.8000;0.3232;0.7534;
1046.1000;0.3183;0.7385;
1046.4000;0.3280;0.7634;
1046.7000;0.3223;0.7485;
1047.0000;0.3223;0.7510;
1047.3000;0.3232;0.7435;
1047.6000;0.3223;0.7410;
1047.9000;0.3248;0.7485;
1048.2000;0.3240;0.7485;
1048.5000;0.3256;0.7559;
1048.8000;0.3240;0.7460;
1049.1000;0.3232;0.7335;
1049.4000;0.3215;0.7286;
1049.7000;0.3240;0.7261;
1050.0000;0.3240;0.7335;
1050.3000;0.3264;0.7485;
1050.6000;0.3223;0.7385;
1050.9000;0.3256;0.7460;
1051.2000;0.3256;0.7360;
1051.5000;0.3207;0.7335;
1051.8000;0.3240;0.7385;
1052.1000;0.3232;0.7360;
1052.4000;0.3289;0.7534;
1052.7000;0.3240;0.7435;
1053.0000;0.3223;0.7435;
1053.3000;0.3256;0.7460;
1053.6000;0.3248;0.7360;
1053.9000;0.3264;0.7435;
1054.2000;0.3223;0.7335;
1054.5000;0.3215;0.7385;
1054.8000;0.3207;0.7435;
1055.1000;0.3223;0.7559;
1055.4000;0.3232;0.7609;
1055.7000;0.3215;0.7534;
1056.0000;0.3223;0.7534;
1056.3000;0.3240;0.7584;
1056.6000;0.3223;0.7534;
1056.9000;0.3191;0.7435;
1057.2000;0.3223;0.7410;
1057.5000;0.3240;0.7435;
1057.8000;0.3232;0.7435;
1058.1000;0.3240;0.7435;
1058.4000;0.3248;0.7510;
1058.7000;0.3223;0.7534;
1059.0000;0.3232;0.7559;
1059.3000;0.3232;0.7534;
1059.6000;0.3240;0.7534;
1059.9000;0.3289;0.7634;
1060.2000;0.3248;0.7510;
1060.5000;0.3207;0.7435;
1060.8000;0.3199;0.7485;
1061.1000;0.3232;0.7559;
1061.4000;0.3240;0.7510;
1061.7000;0.3207;0.7385;
1062.0000;0.3215;0.7335;
1062.3000;0.3256;0.7460;
1062.6000;0.3223;0.7460;
1062.9000;0.3215;0.7360;
1063.2000;0.3232;0.7435;
1063.5000;0.3223;0.7385;
1063.8000;0.3223;0.7360;
1064.1000;0.3272;0.7460;
1064.4000;0.3207;0.7360;
1064.7000;0.3264;0.7485;
1065.0000;0.3232;0.7435;
1065.3000;0.3183;0.7335;
1065.6000;0.3215;0.7485;
1065.9000;0.3207;0.7510;
1066.2000;0.3215;0.7534;
1066.5000;0.3232;0.7559;
1066.8000;0.3215;0.7534;
1067.1000;0.3232;0.7510;
1067.4000;0.3223;0.7435;
1067.7000;0.3232;0.7534;
1068.0000;0.3223;0.7659;
1068.3000;0.3232;0.7684;
1068.6000;0.3215;0.7634;
1068.9000;0.3199;0.7559;
1069.2000;0.3232;0.7609;
1069.5000;0.3240;0.7584;
1069.8000;0.3248;0.7708;
1070.1000;0.3256;0.7559;
1070.4000;0.3272;0.7609;
1070.7000;0.3199;0.7534;
1071.0000;0.3223;0.7584;
1071.3000;0.3240;0.7684;
1071.6000;0.3240;0.7634;
1071.9000;0.3240;0.7534;
1072.2000;0.3223;0.7534;
1072.5000;0.3223;0.7584;
1072.8000;0.3240;0.7659;
1073.1000;0.3240;0.7659;
1073.4000;0.3232;0.7684;
1073.7000;0.3232;0.7708;
1074.0000;0.3240;0.7684;
1074.3000;0.3240;0.7659;
1074.6000;0.3240;0.7634;
1074.9000;0.3232;0.7634;
1075.2000;0.3223;0.7584;
1075.5000;0.3240;0.7609;
1075.8000;0.3223;0.7708;
1076.1000;0.3223;0.7659;
1076.4000;0.3207;0.7659;
1076.7000;0.3223;0.7684;
1077.0000;0.3223;0.7659;
1077.3000;0.3232;0.7634;
1077.6000;0.3223;0.7609;
1077.9000;0.3232;0.7708;
1078.2000;0.3207;0.7609;
1078.5000;0.3223;0.7684;
1078.8000;0.3232;0.7708;
1079.1000;0.3248;0.7634;
1079.4000;0.3232;0.7634;
1079.7000;0.3232;0.7634;
1080.0000;0.3248;0.7708;
1080.3000;0.3256;0.7808;
1080.6000;0.3248;0.7833;
1080.9000;0.3248;0.7883;
1081.2000;0.3223;0.7883;
1081.5000;0.3240;0.7883;
1081.8000;0.3232;0.7907;
1082.1000;0.3223;0.7808;
1082.4000;0.3215;0.7808;
1082.7000;0.3248;0.7833;
1083.0000;0.3248;0.7833;
1083.3000;0.3240;0.7758;
1083.6000;0.3272;0.7783;
1083.9000;0.3256;0.7733;
1084.2000;0.3248;0.7758;
1084.5000;0.3232;0.7708;
1084.8000;0.3223;0.7684;
1085.1000;0.3248;0.7634;
1085.4000;0.3240;0.7510;
1085.7000;0.3240;0.7485;
1086.0000;0.3223;0.7510;
1086.3000;0.3223;0.7510;
1086.6000;0.3240;0.7634;
1086.9000;0.3248;0.7684;
1087.2000;0.3215;0.7659;
1087.5000;0.3215;0.7684;
1087.8000;0.3248;0.7758;
1088.1000;0.3240;0.7708;
1088.4000;0.3232;0.7708;
1088.7000;0.3215;0.7708;
1089.0000;0.3223;0.7733;
1089.3000;0.3232;0.7808;
1089.6000;0.3207;0.7758;
1089.9000;0.3240;0.7783;
1090.2000;0.3240;0.7758;
1090.5000;0.3207;0.7684;
1090.8000;0.3207;0.7708;
1091.1000;0.3305;0.7883;
1091.4000;0.3191;0.7534;
1091.7000;0.3199;0.7485;
1092.0000;0.3256;0.7609;
1092.3000;0.3207;0.7435;
1092.6000;0.3207;0.7460;
1092.9000;0.3240;0.7485;
1093.2000;0.3232;0.7410;
1093.5000;0.3248;0.7485;
1093.8000;0.3256;0.7584;
1094.1000;0.3215;0.7534;
1094.4000;0.3232;0.7559;
1094.7000;0.3223;0.7510;
1095.0000;0.3223;0.7510;
1095.3000;0.3207;0.7510;
1095.6000;0.3191;0.7485;
1095.9000;0.3240;0.7609;
1096.2000;0.3223;0.7609;
1096.5000;0.3232;0.7510;
1096.8000;0.3240;0.7534;
1097.1000;0.3272;0.7634;
1097.4000;0.3223;0.7460;
1097.7000;0.3215;0.7485;
1098.0000;0.3232;0.7410;
1098.3000;0.3232;0.7286;
1098.6000;0.3240;0.7335;
1098.9000;0.3215;0.7286;
1099.2000;0.3248;0.7286;
1099.5000;0.3248;0.7286;
1099.8000;0.3223;0.7261;
1100.1000;0.3223;0.7286;
1100.4000;0.3232;0.7335;
1100.7000;0.3223;0.7311;
1101.0000;0.3215;0.7286;
1101.3000;0.3215;0.7186;
1101.6000;0.3207;0.7261;
1101.9000;0.3248;0.7360;
1102.2000;0.3215;0.7311;
1102.5000;0.3215;0.7335;
1102.8000;0.3215;0.7460;
1103.1000;0.3215;0.7360;
1103.4000;0.3223;0.7360;
1103.7000;0.3248;0.7485;
1104.0000;0.3215;0.7460;
1104.3000;0.3215;0.7460;
1104.6000;0.3223;0.7485;
1104.9000;0.3199;0.7559;
1105.2000;0.3207;0.7609;
1105.5000;0.3232;0.7758;
1105.8000;0.3240;0.7733;
1106.1000;0.3215;0.7634;
1106.4000;0.3240;0.7684;
1106.7000;0.3223;0.7659;
1107.0000;0.3223;0.7684;
1107.3000;0.3248;0.7733;
1107.6000;0.3207;0.7584;
1107.9000;0.3232;0.7684;
1108.2000;0.3232;0.7684;
1108.5000;0.3223;0.7609;
1108.8000;0.3175;0.7485;
1109.1000;0.3240;0.7609;
1109.4000;0.3215;0.7584;
1109.7000;0.3207;0.7460;
1110.0000;0.3297;0.7659;
1110.3000;0.3232;0.7485;
1110.6000;0.3256;0.7609;
1110.9000;0.3240;0.7559;
1111.2000;0.3223;0.7485;
1111.5000;0.3280;0.7584;
1111.8000;0.3240;0.7435;
1112.1000;0.3223;0.7410;
1112.4000;0.3232;0.7435;
1112.7000;0.3232;0.7435;
1113.0000;0.3240;0.7510;
1113.3000;0.3223;0.7435;
1113.6000;0.3175;0.7261;
1113.9000;0.3240;0.7435;
1114.2000;0.3232;0.7435;
1114.5000;0.3248;0.7435;
1114.8000;0.3240;0.7435;
1115.1000;0.3232;0.7485;
1115.4000;0.3223;0.7460;
1115.7000;0.3215;0.7460;
1116.0000;0.3191;0.7410;
1116.3000;0.3223;0.7485;
1116.6000;0.3223;0.7460;
1116.9000;0.3240;0.7410;
1117.2000;0.3280;0.7510;
1117.5000;0.3207;0.7410;
1117.8000;0.3240;0.7485;
1118.1000;0.3240;0.7435;
1118.4000;0.3207;0.7485;
1118.7000;0.3240;0.7584;
1119.0000;0.3223;0.7609;
1119.3000;0.3215;0.7510;
1119.6000;0.3215;0.7584;
1119.9000;0.3232;0.7684;
1120.2000;0.3223;0.7634;
1120.5000;0.3215;0.7584;
1120.8000;0.3232;0.7659;
1121.1000;0.3232;0.7684;
1121.4000;0.3223;0.7584;
1121.7000;0.3232;0.7609;
1122.0000;0.3232;0.7634;
1122.3000;0.3223;0.7609;
1122.6000;0.3223;0.7708;
1122.9000;0.3207;0.7634;
1123.2000;0.3207;0.7634;
1123.5000;0.3248;0.7684;
1123.8000;0.3240;0.7534;
1124.1000;0.3232;0.7534;
1124.4000;0.3232;0.7584;
1124.7000;0.3240;0.7584;
1125.0000;0.3215;0.7510;
1125.3000;0.3223;0.7510;
1125.6000;0.3232;0.7485;
1125.9000;0.3215;0.7510;
1126.2000;0.3248;0.7609;
1126.5000;0.3215;0.7460;
1126.8000;0.3207;0.7311;
1127.1000;0.3232;0.7385;
1127.4000;0.3240;0.7385;
1127.7000;0.3223;0.7311;
1128.0000;0.3248;0.7460;
1128.3000;0.3232;0.7460;
1128.6000;0.3248;0.7559;
1128.9000;0.3240;0.7609;
1129.2000;0.3191;0.7559;
1129.5000;0.3223;0.7684;
1129.8000;0.3280;0.7808;
1130.1000;0.3232;0.7808;
1130.4000;0.3223;0.7783;
1130.7000;0.3215;0.7708;
1131.0000;0.3175;0.7659;
1131.3000;0.3207;0.7758;
1131.6000;0.3175;0.7634;
1131.9000;0.3232;0.7758;
1132.2000;0.3223;0.7708;
1132.5000;0.3232;0.7684;
1132.8000;0.3215;0.7659;
1133.1000;0.3215;0.7634;
1133.4000;0.3223;0.7584;
1133.7000;0.3232;0.7684;
1134.0000;0.3240;0.7634;
1134.3000;0.3280;0.7659;
1134.6000;0.3289;0.7584;
1134.9000;0.3207;0.7385;
1135.2000;0.3223;0.7435;
1135.5000;0.3223;0.7435;
1135.8000;0.3191;0.7460;
1136.1000;0.3248;0.7510;
1136.4000;0.3215;0.7460;
1136.7000;0.3232;0.7510;
1137.0000;0.3240;0.7510;
1137.3000;0.3232;0.7510;
1137.6000;0.3223;0.7485;
1137.9000;0.3264;0.7609;
1138.2000;0.3272;0.7659;
1138.5000;0.3166;0.7510;
1138.8000;0.3223;0.7684;
1139.1000;0.3215;0.7659;
1139.4000;0.3223;0.7684;
1139.7000;0.3248;0.7758;
1140.0000;0.3232;0.7733;
1140.3000;0.3232;0.7708;
1140.6000;0.3248;0.7659;
1140.9000;0.3280;0.7733;
1141.2000;0.3223;0.7634;
1141.5000;0.3232;0.7634;
1141.8000;0.3207;0.7609;
1142.1000;0.3223;0.7559;
1142.4000;0.3166;0.7435;
1142.7000;0.3240;0.7634;
1143.0000;0.3272;0.7758;
1143.3000;0.3232;0.7733;
1143.6000;0.3223;0.7634;
1143.9000;0.3232;0.7708;
1144.2000;0.3232;0.7684;
1144.5000;0.3240;0.7733;
1144.8000;0.3215;0.7609;
1145.1000;0.3232;0.7659;
1145.4000;0.3223;0.7584;
1145.7000;0.3166;0.7360;
1146.0000;0.3223;0.7684;
1146.3000;0.3215;0.7609;
1146.6000;0.3223;0.7708;
1146.9000;0.3199;0.7584;
1147.2000;0.3223;0.7534;
1147.5000;0.3215;0.7435;
1147.8000;0.3223;0.7410;
1148.1000;0.3232;0.7584;
1148.4000;0.3199;0.7559;
1148.7000;0.3215;0.7584;
1149.0000;0.3215;0.7659;
1149.3000;0.3232;0.7659;
1149.6000;0.3232;0.7684;
1149.9000;0.3215;0.7783;
1150.2000;0.3248;0.7858;
1150.5000;0.3240;0.7883;
1150.8000;0.3232;0.7833;
1151.1000;0.3240;0.7783;
1151.4000;0.3240;0.7808;
1151.7000;0.3240;0.7758;
1152.0000;0.3191;0.7758;
1152.3000;0.3191;0.7808;
1152.6000;0.3232;0.7858;
1152.9000;0.3232;0.7783;
1153.2000;0.3223;0.7758;
1153.5000;0.3223;0.7659;
1153.8000;0.3240;0.7708;
1154.1000;0.3256;0.7708;
1154.4000;0.3232;0.7634;
1154.7000;0.3191;0.7534;
1155.0000;0.3223;0.7559;
1155.3000;0.3223;0.7609;
1155.6000;0.3207;0.7584;
1155.9000;0.3199;0.7534;
1156.2000;0.3175;0.7460;
1156.5000;0.3223;0.7659;
1156.8000;0.3215;0.7659;
1157.1000;0.3232;0.7758;
1157.4000;0.3207;0.7659;
1157.7000;0.3223;0.7634;
1158.0000;0.3215;0.7534;
1158.3000;0.3215;0.7510;
1158.6000;0.3215;0.7510;
1158.9000;0.3215;0.7559;
1159.2000;0.3223;0.7485;
1159.5000;0.3232;0.7460;
1159.8000;0.3232;0.7559;
1160.1000;0.3223;0.7510;
1160.4000;0.3223;0.7485;
1160.7000;0.3232;0.7534;
1161.0000;0.3207;0.7435;
1161.3000;0.3232;0.7510;
1161.6000;0.3207;0.7485;
1161.9000;0.3215;0.7460;
1162.2000;0.3207;0.7460;
1162.5000;0.3223;0.7460;
1162.8000;0.3256;0.7634;
1163.1000;0.3297;0.7634;
1163.4000;0.3232;0.7510;
1163.7000;0.3232;0.7559;
1164.0000;0.3232;0.7485;
1164.3000;0.3264;0.7708;
1164.6000;0.3215;0.7534;
1164.9000;0.3207;0.7510;
1165.2000;0.3240;0.7659;
1165.5000;0.3183;0.7584;
1165.8000;0.3240;0.7609;
1166.1000;0.3232;0.7559;
1166.4000;0.3240;0.7609;
1166.7000;0.3240;0.7584;
1167.0000;0.3248;0.7634;
1167.3000;0.3232;0.7684;
1167.6000;0.3223;0.7659;
1167.9000;0.3272;0.7758;
1168.2000;0.3215;0.7609;
1168.5000;0.3256;0.7733;
1168.8000;0.3199;0.7609;
1169.1000;0.3223;0.7708;
1169.4000;0.3223;0.7659;
1169.7000;0.3232;0.7634;
1170.0000;0.3232;0.7609;
1170.3000;0.3313;0.7783;
1170.6000;0.3223;0.7534;
1170.9000;0.3142;0.7311;
1171.2000;0.3199;0.7534;
1171.5000;0.3199;0.7559;
1171.8000;0.3305;0.7758;
1172.1000;0.3191;0.7534;
1172.4000;0.3199;0.7634;
1172.7000;0.3240;0.7783;
1173.0000;0.3223;0.7907;
1173.3000;0.3240;0.7858;
1173.6000;0.3223;0.7733;
1173.9000;0.3223;0.7708;
1174.2000;0.3232;0.7708;
1174.5000;0.3223;0.7634;
1174.8000;0.3240;0.7733;
1175.1000;0.3215;0.7758;
1175.4000;0.3223;0.7708;
1175.7000;0.3264;0.7758;
1176.0000;0.3264;0.7708;
1176.3000;0.3240;0.7634;
1176.6000;0.3240;0.7584;
1176.9000;0.3248;0.7584;
1177.2000;0.3232;0.7584;
1177.5000;0.3232;0.7559;
1177.8000;0.3175;0.7485;
1178.1000;0.3248;0.7684;
1178.4000;0.3232;0.7609;
1178.7000;0.3158;0.7360;
1179.0000;0.3248;0.7485;
1179.3000;0.3248;0.7460;
1179.6000;0.3232;0.7435;
1179.9000;0.3215;0.7534;
1180.2000;0.3272;0.7733;
1180.5000;0.3215;0.7634;
1180.8000;0.3223;0.7584;
1181.1000;0.3215;0.7634;
1181.4000;0.3207;0.7584;
1181.7000;0.3207;0.7609;
1182.0000;0.3232;0.7684;
1182.3000;0.3191;0.7708;
1182.6000;0.3215;0.7833;
1182.9000;0.3215;0.7758;
1183.2000;0.3223;0.7708;
1183.5000;0.3240;0.7559;
1183.8000;0.3256;0.7609;
1184.1000;0.3272;0.7609;
1184.4000;0.3232;0.7609;
1184.7000;0.3240;0.7634;
1185.0000;0.3223;0.7510;
1185.3000;0.3215;0.7584;
1185.6000;0.3240;0.7634;
1185.9000;0.3232;0.7684;
1186.2000;0.3207;0.7559;
1186.5000;0.3223;0.7510;
1186.8000;0.3158;0.7335;
1187.1000;0.3232;0.7634;
1187.4000;0.3215;0.7708;
1187.7000;0.3240;0.7808;
1188.0000;0.3232;0.7733;
1188.3000;0.3207;0.7634;
1188.6000;0.3240;0.7684;
1188.9000;0.3150;0.7460;
1189.2000;0.3264;0.7733;
1189.5000;0.3248;0.7634;
1189.8000;0.3240;0.7634;
1190.1000;0.3240;0.7485;
1190.4000;0.3223;0.7534;
1190.7000;0.3191;0.7460;
1191.0000;0.3223;0.7559;
1191.3000;0.3223;0.7559;
1191.6000;0.3280;0.7708;
1191.9000;0.3232;0.7534;
1192.2000;0.3223;0.7559;
1192.5000;0.3199;0.7435;
1192.8000;0.3215;0.7435;
1193.1000;0.3223;0.7485;
1193.4000;0.3223;0.7534;
1193.7000;0.3191;0.7460;
1194.0000;0.3215;0.7385;
1194.3000;0.3240;0.7385;
1194.6000;0.3223;0.7435;
1194.9000;0.3223;0.7460;
1195.2000;0.3289;0.7684;
1195.5000;0.3215;0.7510;
1195.8000;0.3223;0.7534;
1196.1000;0.3223;0.7584;
1196.4000;0.3199;0.7634;
1196.7000;0.3256;0.7684;
1197.0000;0.3240;0.7659;
1197.3000;0.3223;0.7584;
1197.6000;0.3215;0.7510;
1197.9000;0.3232;0.7460;
1198.2000;0.3240;0.7435;
1198.5000;0.3223;0.7410;
1198.8000;0.3223;0.7559;
1199.1000;0.3223;0.7609;
1199.4000;0.3232;0.7460;
1199.7000;0.3223;0.7485;
1200.0000;0.3223;0.7485;
1200.3000;0.3199;0.7435;
1200.6000;0.3240;0.7609;
1200.9000;0.3207;0.7559;
1201.2000;0.3232;0.7510;
1201.5000;0.3223;0.7460;
1201.8000;0.3232;0.7510;
1202.1000;0.3240;0.7584;
1202.4000;0.3232;0.7559;
1202.7000;0.3215;0.7510;
1203.0000;0.3223;0.7559;
1203.3000;0.3207;0.7534;
1203.6000;0.3256;0.7659;
1203.9000;0.3240;0.7659;
1204.2000;0.3240;0.7634;
1204.5000;0.3240;0.7634;
1204.8000;0.3240;0.7559;
1205.1000;0.3183;0.7385;
1205.4000;0.3199;0.7510;
1205.7000;0.3223;0.7584;
1206.0000;0.3223;0.7485;
1206.3000;0.3207;0.7460;
1206.6000;0.3207;0.7435;
1206.9000;0.3321;0.7858;
1207.2000;0.3215;0.7609;
1207.5000;0.3191;0.7510;
1207.8000;0.3215;0.7559;
1208.1000;0.3183;0.7485;
1208.4000;0.3166;0.7485;
1208.7000;0.3223;0.7659;
1209.0000;0.3215;0.7634;
1209.3000;0.3240;0.7733;
1209.6000;0.3280;0.7833;
1209.9000;0.3183;0.7609;
1210.2000;0.3248;0.7783;
1210.5000;0.3223;0.7634;
1210.8000;0.3215;0.7510;
1211.1000;0.3248;0.7485;
1211.4000;0.3191;0.7410;
1211.7000;0.3223;0.7510;
1212.0000;0.3232;0.7609;
1212.3000;0.3240;0.7634;
1212.6000;0.3207;0.7584;
1212.9000;0.3207;0.7584;
1213.2000;0.3223;0.7609;
1213.5000;0.3223;0.7534;
1213.8000;0.3166;0.7435;
1214.1000;0.3207;0.7485;
1214.4000;0.3215;0.7435;
1214.7000;0.3223;0.7460;
1215.0000;0.3207;0.7485;
1215.3000;0.3248;0.7534;
1215.6000;0.3223;0.7510;
1215.9000;0.3240;0.7485;
1216.2000;0.3232;0.7510;
1216.5000;0.3232;0.7534;
1216.8000;0.3191;0.7485;
1217.1000;0.3215;0.7385;
1217.4000;0.3272;0.7559;
1217.7000;0.3215;0.7609;
1218.0000;0.3215;0.7609;
1218.3000;0.3215;0.7510;
1218.6000;0.3207;0.7460;
1218.9000;0.3215;0.7559;
1219.2000;0.3215;0.7510;
1219.5000;0.3240;0.7534;
1219.8000;0.3240;0.7584;
1220.1000;0.3215;0.7510;
1220.4000;0.3232;0.7559;
1220.7000;0.3232;0.7510;
1221.0000;0.3248;0.7460;
1221.3000;0.3280;0.7410;
1221.6000;0.3264;0.7410;
1221.9000;0.3207;0.7311;
1222.2000;0.3240;0.7559;
1222.5000;0.3248;0.7534;
1222.8000;0.3329;0.7733;
1223.1000;0.3248;0.7460;
1223.4000;0.3223;0.7335;
1223.7000;0.3215;0.7286;
1224.0000;0.3240;0.7410;
1224.3000;0.3248;0.7534;
1224.6000;0.3240;0.7534;
1224.9000;0.3223;0.7510;
1225.2000;0.3256;0.7510;
1225.5000;0.3240;0.7460;
1225.8000;0.3223;0.7311;
1226.1000;0.3215;0.7286;
1226.4000;0.3297;0.7485;
1226.7000;0.3313;0.7510;
1227.0000;0.3215;0.7261;
1227.3000;0.3150;0.7062;
1227.6000;0.3223;0.7211;
1227.9000;0.3215;0.7261;
1228.2000;0.3199;0.7236;
1228.5000;0.3232;0.7360;
1228.8000;0.3223;0.7460;
1229.1000;0.3175;0.7261;
1229.4000;0.3215;0.7360;
1229.7000;0.3223;0.7335;
1230.0000;0.3223;0.7385;
1230.3000;0.3223;0.7410;
1230.6000;0.3223;0.7385;
1230.9000;0.3256;0.7460;
1231.2000;0.3223;0.7360;
1231.5000;0.3191;0.7311;
1231.8000;0.3207;0.7335;
1232.1000;0.3215;0.7360;
1232.4000;0.3215;0.7460;
1232.7000;0.3199;0.7435;
1233.0000;0.3223;0.7510;
1233.3000;0.3215;0.7435;
1233.6000;0.3175;0.7385;
1233.9000;0.3321;0.7708;
1234.2000;0.3240;0.7485;
1234.5000;0.3240;0.7559;
1234.8000;0.3223;0.7460;
1235.1000;0.3232;0.7410;
1235.4000;0.3166;0.7335;
1235.7000;0.3223;0.7435;
1236.0000;0.3223;0.7460;
1236.3000;0.3256;0.7584;
1236.6000;0.3232;0.7534;
1236.9000;0.3223;0.7534;
1237.2000;0.3215;0.7485;
1237.5000;0.3240;0.7360;
1237.8000;0.3158;0.7161;
1238.1000;0.3240;0.7410;
1238.4000;0.3223;0.7335;
1238.7000;0.3240;0.7460;
1239.0000;0.3240;0.7534;
1239.3000;0.3215;0.7510;
1239.6000;0.3175;0.7335;
1239.9000;0.3207;0.7360;
1240.2000;0.3232;0.7385;
1240.5000;0.3215;0.7286;
1240.8000;0.3223;0.7335;
1241.1000;0.3240;0.7335;
1241.4000;0.3223;0.7311;
1241.7000;0.3256;0.7360;
1242.0000;0.3199;0.7261;
1242.3000;0.3215;0.7286;
1242.6000;0.3223;0.7335;
1242.9000;0.3232;0.7385;
1243.2000;0.3240;0.7385;
1243.5000;0.3223;0.7485;
1243.8000;0.3232;0.7460;
1244.1000;0.3232;0.7510;
1244.4000;0.3264;0.7534;
1244.7000;0.3256;0.7559;
1245.0000;0.3223;0.7460;
1245.3000;0.3240;0.7510;
1245.6000;0.3256;0.7460;
1245.9000;0.3280;0.7559;
1246.2000;0.3232;0.7485;
1246.5000;0.3240;0.7485;
1246.8000;0.3289;0.7584;
1247.1000;0.3248;0.7485;
1247.4000;0.3215;0.7410;
1247.7000;0.3240;0.7360;
1248.0000;0.3191;0.7286;
1248.3000;0.3175;0.7335;
1248.6000;0.3248;0.7460;
1248.9000;0.3215;0.7286;
1249.2000;0.3248;0.7360;
1249.5000;0.3280;0.7485;
1249.8000;0.3232;0.7335;
1250.1000;0.3240;0.7261;
1250.4000;0.3248;0.7261;
1250.7000;0.3272;0.7311;
1251.0000;0.3199;0.7137;
1251.3000;0.3215;0.7236;
1251.6000;0.3232;0.7385;
1251.9000;0.3215;0.7360;
1252.2000;0.3215;0.7335;
1252.5000;0.3223;0.7485;
1252.8000;0.3232;0.7559;
1253.1000;0.3223;0.7534;
1253.4000;0.3240;0.7510;
1253.7000;0.3223;0.7460;
1254.0000;0.3223;0.7360;
1254.3000;0.3215;0.7261;
1254.6000;0.3215;0.7335;
1254.9000;0.3223;0.7410;
1255.2000;0.3223;0.7485;
1255.5000;0.3232;0.7485;
1255.8000;0.3232;0.7460;
1256.1000;0.3207;0.7360;
1256.4000;0.3248;0.7435;
1256.7000;0.3223;0.7435;
1257.0000;0.3232;0.7510;
1257.3000;0.3199;0.7410;
1257.6000;0.3215;0.7510;
1257.9000;0.3223;0.7584;
1258.2000;0.3232;0.7534;
1258.5000;0.3223;0.7485;
1258.8000;0.3215;0.7435;
1259.1000;0.3223;0.7485;
1259.4000;0.3232;0.7435;
1259.7000;0.3223;0.7485;
1260.0000;0.3232;0.7559;
1260.3000;0.3223;0.7659;
1260.6000;0.3223;0.7634;
1260.9000;0.3223;0.7534;
1261.2000;0.3199;0.7410;
1261.5000;0.3207;0.7435;
1261.8000;0.3207;0.7410;
1262.1000;0.3215;0.7410;
1262.4000;0.3232;0.7485;
1262.7000;0.3223;0.7360;
1263.0000;0.3240;0.7385;
1263.3000;0.3240;0.7435;
1263.6000;0.3232;0.7435;
1263.9000;0.3191;0.7335;
1264.2000;0.3223;0.7460;
1264.5000;0.3232;0.7410;
1264.8000;0.3215;0.7311;
1265.1000;0.3232;0.7335;
1265.4000;0.3215;0.7211;
1265.7000;0.3232;0.7236;
1266.0000;0.3232;0.7261;
1266.3000;0.3223;0.7286;
1266.6000;0.3240;0.7335;
1266.9000;0.3240;0.7385;
1267.2000;0.3264;0.7534;
1267.5000;0.3223;0.7410;
1267.8000;0.3232;0.7385;
1268.1000;0.3248;0.7360;
1268.4000;0.3207;0.7186;
1268.7000;0.3321;0.7485;
1269.0000;0.3240;0.7385;
1269.3000;0.3240;0.7360;
1269.6000;0.3289;0.7460;
1269.9000;0.3289;0.7385;
1270.2000;0.3223;0.7186;
1270.5000;0.3207;0.7161;
1270.8000;0.3232;0.7261;
1271.1000;0.3256;0.7360;
1271.4000;0.3256;0.7385;
1271.7000;0.3248;0.7410;
1272.0000;0.3240;0.7410;
1272.3000;0.3248;0.7385;
1272.6000;0.3272;0.7410;
1272.9000;0.3240;0.7311;
1273.2000;0.3232;0.7410;
1273.5000;0.3232;0.7460;
1273.8000;0.3215;0.7385;
1274.1000;0.3223;0.7385;
1274.4000;0.3223;0.7485;
1274.7000;0.3223;0.7360;
1275.0000;0.3223;0.7311;
1275.3000;0.3215;0.7236;
1275.6000;0.3223;0.7360;
1275.9000;0.3223;0.7435;
1276.2000;0.3215;0.7410;
1276.5000;0.3207;0.7286;
1276.8000;0.3215;0.7311;
1277.1000;0.3248;0.7385;
1277.4000;0.3240;0.7435;
1277.7000;0.3215;0.7410;
1278.0000;0.3232;0.7534;
1278.3000;0.3232;0.7659;
1278.6000;0.3215;0.7684;
1278.9000;0.3199;0.7659;
1279.2000;0.3232;0.7684;
1279.5000;0.3232;0.7684;
1279.8000;0.3240;0.7659;
1280.1000;0.3232;0.7684;
1280.4000;0.3223;0.7659;
1280.7000;0.3232;0.7733;
1281.0000;0.3232;0.7659;
1281.3000;0.3207;0.7460;
1281.6000;0.3207;0.7360;
1281.9000;0.3207;0.7360;
1282.2000;0.3232;0.7410;
1282.5000;0.3215;0.7385;
1282.8000;0.3232;0.7460;
1283.1000;0.3240;0.7385;
1283.4000;0.3240;0.7435;
1283.7000;0.3199;0.7385;
1284.0000;0.3232;0.7460;
1284.3000;0.3280;0.7534;
1284.6000;0.3232;0.7410;
1284.9000;0.3240;0.7410;
1285.2000;0.3240;0.7435;
1285.5000;0.3232;0.7435;
1285.8000;0.3183;0.7311;
1286.1000;0.3240;0.7534;
1286.4000;0.3232;0.7510;
1286.7000;0.3248;0.7534;
1287.0000;0.3223;0.7460;
1287.3000;0.3223;0.7485;
1287.6000;0.3232;0.7534;
1287.9000;0.3232;0.7584;
1288.2000;0.3223;0.7510;
1288.5000;0.3248;0.7510;
1288.8000;0.3223;0.7510;
1289.1000;0.3232;0.7534;
1289.4000;0.3215;0.7510;
1289.7000;0.3240;0.7584;
1290.0000;0.3232;0.7684;
1290.3000;0.3207;0.7634;
1290.6000;0.3232;0.7684;
1290.9000;0.3232;0.7733;
1291.2000;0.3207;0.7634;
1291.5000;0.3232;0.7634;
1291.8000;0.3223;0.7534;
1292.1000;0.3223;0.7559;
1292.4000;0.3191;0.7460;
1292.7000;0.3223;0.7534;
1293.0000;0.3248;0.7609;
1293.3000;0.3232;0.7634;
1293.6000;0.3215;0.7559;
1293.9000;0.3232;0.7410;
1294.2000;0.3232;0.7385;
1294.5000;0.3215;0.7410;
1294.8000;0.3223;0.7385;
1295.1000;0.3240;0.7385;
1295.4000;0.3232;0.7335;
1295.7000;0.3215;0.7311;
1296.0000;0.3232;0.7335;
1296.3000;0.3207;0.7335;
1296.6000;0.3223;0.7460;
1296.9000;0.3321;0.7733;
1297.2000;0.3232;0.7510;
1297.5000;0.3248;0.7584;
1297.8000;0.3232;0.7510;
1298.1000;0.3166;0.7286;
1298.4000;0.3223;0.7460;
1298.7000;0.3232;0.7460;
1299.0000;0.3150;0.7211;
1299.3000;0.3232;0.7460;
1299.6000;0.3232;0.7510;
1299.9000;0.3232;0.7435;
1300.2000;0.3232;0.7485;
1300.5000;0.3223;0.7410;
1300.8000;0.3232;0.7385;
1301.1000;0.3199;0.7261;
1301.4000;0.3248;0.7385;
1301.7000;0.3223;0.7410;
1302.0000;0.3232;0.7435;
1302.3000;0.3207;0.7286;
1302.6000;0.3223;0.7286;
1302.9000;0.3223;0.7286;
1303.2000;0.3223;0.7236;
1303.5000;0.3240;0.7186;
1303.8000;0.3223;0.7161;
1304.1000;0.3232;0.7261;
1304.4000;0.3248;0.7211;
1304.7000;0.3240;0.7186;
1305.0000;0.3248;0.7211;
1305.3000;0.3305;0.7335;
1305.6000;0.3232;0.7236;
1305.9000;0.3240;0.7261;
1306.2000;0.3215;0.7286;
1306.5000;0.3223;0.7385;
1306.8000;0.3175;0.7286;
1307.1000;0.3223;0.7435;
1307.4000;0.3215;0.7485;
1307.7000;0.3142;0.7261;
1308.0000;0.3215;0.7410;
1308.3000;0.3215;0.7460;
1308.6000;0.3215;0.7410;
1308.9000;0.3232;0.7485;
1309.2000;0.3183;0.7335;
1309.5000;0.3215;0.7410;
1309.8000;0.3191;0.7335;
1310.1000;0.3264;0.7534;
1310.4000;0.3134;0.7186;
1310.7000;0.3223;0.7435;
1311.0000;0.3191;0.7311;
1311.3000;0.3280;0.7485;
1311.6000;0.3223;0.7335;
1311.9000;0.3191;0.7236;
1312.2000;0.3199;0.7186;
1312.5000;0.3223;0.7211;
1312.8000;0.3215;0.7211;
1313.1000;0.3256;0.7335;
1313.4000;0.3223;0.7186;
1313.7000;0.3256;0.7360;
1314.0000;0.3215;0.7385;
1314.3000;0.3215;0.7360;
1314.6000;0.3240;0.7335;
1314.9000;0.3223;0.7335;
1315.2000;0.3264;0.7385;
1315.5000;0.3240;0.7435;
1315.8000;0.3240;0.7410;
1316.1000;0.3223;0.7410;
1316.4000;0.3223;0.7360;
1316.7000;0.3232;0.7236;
1317.0000;0.3264;0.7385;
1317.3000;0.3223;0.7286;
1317.6000;0.3215;0.7261;
1317.9000;0.3199;0.7335;
1318.2000;0.3264;0.7360;
1318.5000;0.3223;0.7286;
1318.8000;0.3207;0.7211;
1319.1000;0.3240;0.7236;
1319.4000;0.3240;0.7211;
1319.7000;0.3199;0.7087;
1320.0000;0.3240;0.7161;
1320.3000;0.3240;0.7211;
1320.6000;0.3297;0.7410;
1320.9000;0.3175;0.7137;
1321.2000;0.3207;0.7286;
1321.5000;0.3223;0.7360;
1321.8000;0.3223;0.7360;
1322.1000;0.3240;0.7435;
1322.4000;0.3215;0.7410;
1322.7000;0.3207;0.7311;
1323.0000;0.3223;0.7385;
1323.3000;0.3223;0.7385;
1323.6000;0.3223;0.7410;
1323.9000;0.3256;0.7435;
1324.2000;0.3240;0.7460;
1324.5000;0.3223;0.7335;
1324.8000;0.3215;0.7311;
1325.1000;0.3223;0.7236;
1325.4000;0.3223;0.7261;
1325.7000;0.3272;0.7435;
1326.0000;0.3223;0.7311;
1326.3000;0.3223;0.7261;
1326.6000;0.3272;0.7410;
1326.9000;0.3240;0.7335;
1327.2000;0.3223;0.7360;
1327.5000;0.3199;0.7410;
1327.8000;0.3158;0.7311;
1328.1000;0.3240;0.7385;
1328.4000;0.3232;0.7460;
1328.7000;0.3232;0.7410;
1329.0000;0.3256;0.7385;
1329.3000;0.3240;0.7286;
1329.6000;0.3215;0.7311;
1329.9000;0.3248;0.7385;
1330.2000;0.3207;0.7186;
1330.5000;0.3232;0.7186;
1330.8000;0.3183;0.7062;
1331.1000;0.3232;0.7137;
1331.4000;0.3223;0.7161;
1331.7000;0.3240;0.7236;
1332.0000;0.3232;0.7112;
1332.3000;0.3232;0.7137;
1332.6000;0.3223;0.7137;
1332.9000;0.3240;0.7211;
1333.2000;0.3248;0.7286;
1333.5000;0.3207;0.7112;
1333.8000;0.3232;0.7137;
1334.1000;0.3232;0.7087;
1334.4000;0.3240;0.7112;
1334.7000;0.3256;0.7236;
1335.0000;0.3232;0.7261;
1335.3000;0.3223;0.7311;
1335.6000;0.3240;0.7311;
1335.9000;0.3232;0.7286;
1336.2000;0.3191;0.7161;
1336.5000;0.3215;0.7236;
1336.8000;0.3199;0.7186;
1337.1000;0.3232;0.7286;
1337.4000;0.3215;0.7286;
1337.7000;0.3199;0.7286;
1338.0000;0.3240;0.7435;
1338.3000;0.3223;0.7410;
1338.6000;0.3215;0.7360;
1338.9000;0.3207;0.7311;
1339.2000;0.3240;0.7311;
1339.5000;0.3215;0.7211;
1339.8000;0.3264;0.7261;
1340.1000;0.3240;0.7286;
1340.4000;0.3232;0.7311;
1340.7000;0.3232;0.7311;
1341.0000;0.3264;0.7410;
1341.3000;0.3248;0.7360;
1341.6000;0.3256;0.7435;
1341.9000;0.3240;0.7435;
1342.2000;0.3240;0.7460;
1342.5000;0.3223;0.7335;
1342.8000;0.3240;0.7385;
1343.1000;0.3223;0.7385;
1343.4000;0.3248;0.7410;
1343.7000;0.3223;0.7360;
1344.0000;0.3223;0.7385;
1344.3000;0.3256;0.7460;
1344.6000;0.3248;0.7335;
1344.9000;0.3232;0.7236;
1345.2000;0.3223;0.7335;
1345.5000;0.3240;0.7485;
1345.8000;0.3248;0.7534;
1346.1000;0.3248;0.7510;
1346.4000;0.3215;0.7385;
1346.7000;0.3215;0.7485;
1347.0000;0.3199;0.7360;
1347.3000;0.3207;0.7286;
1347.6000;0.3232;0.7360;
1347.9000;0.3199;0.7335;
1348.2000;0.3191;0.7360;
1348.5000;0.3223;0.7460;
1348.8000;0.3223;0.7311;
1349.1000;0.3215;0.7311;
1349.4000;0.3256;0.7410;
1349.7000;0.3232;0.7435;
1350.0000;0.3223;0.7435;
1350.3000;0.3280;0.7485;
1350.6000;0.3232;0.7335;
1350.9000;0.3240;0.7410;
1351.2000;0.3232;0.7335;
1351.5000;0.3215;0.7311;
1351.8000;0.3256;0.7335;
1352.1000;0.3248;0.7385;
1352.4000;0.3248;0.7460;
1352.7000;0.3232;0.7360;
1353.0000;0.3223;0.7236;
1353.3000;0.3256;0.7286;
1353.6000;0.3223;0.7186;
1353.9000;0.3248;0.7211;
1354.2000;0.3207;0.7186;
1354.5000;0.3248;0.7460;
1354.8000;0.3215;0.7360;
1355.1000;0.3215;0.7286;
1355.4000;0.3215;0.7311;
1355.7000;0.3240;0.7311;
1356.0000;0.3232;0.7311;
1356.3000;0.3240;0.7286;
1356.6000;0.3215;0.7211;
1356.9000;0.3207;0.7112;
1357.2000;0.3256;0.7186;
1357.5000;0.3207;0.6987;
1357.8000;0.3248;0.7137;
1358.1000;0.3223;0.7186;
1358.4000;0.3215;0.7161;
1358.7000;0.3232;0.7211;
1359.0000;0.3240;0.7286;
1359.3000;0.3215;0.7286;
1359.6000;0.3232;0.7360;
1359.9000;0.3256;0.7460;
1360.2000;0.3223;0.7435;
1360.5000;0.3207;0.7385;
1360.8000;0.3215;0.7460;
1361.1000;0.3240;0.7534;
1361.4000;0.3232;0.7435;
1361.7000;0.3199;0.7335;
1362.0000;0.3223;0.7311;
1362.3000;0.3223;0.7236;
1362.6000;0.3223;0.7211;
1362.9000;0.3223;0.7211;
1363.2000;0.3232;0.7112;
1363.5000;0.3248;0.7087;
1363.8000;0.3240;0.7062;
1364.1000;0.3232;0.7012;
1364.4000;0.3248;0.7087;
1364.7000;0.3240;0.7087;
1365.0000;0.3232;0.7236;
1365.3000;0.3232;0.7186;
1365.6000;0.3232;0.7236;
1365.9000;0.3232;0.7137;
1366.2000;0.3232;0.7037;
1366.5000;0.3223;0.6963;
1366.8000;0.3240;0.7012;
1367.1000;0.3248;0.7012;
1367.4000;0.3232;0.7012;
1367.7000;0.3223;0.7087;
1368.0000;0.3223;0.7087;
1368.3000;0.3207;0.7087;
1368.6000;0.3232;0.7062;
1368.9000;0.3240;0.6987;
1369.2000;0.3240;0.6963;
1369.5000;0.3232;0.6938;
1369.8000;0.3232;0.7012;
1370.1000;0.3256;0.6938;
1370.4000;0.3223;0.6938;
1370.7000;0.3240;0.6963;
1371.0000;0.3223;0.7012;
1371.3000;0.3240;0.7012;
1371.6000;0.3215;0.6963;
1371.9000;0.3223;0.6938;
1372.2000;0.3232;0.7037;
1372.5000;0.3240;0.7137;
1372.8000;0.3223;0.7137;
1373.1000;0.3232;0.7137;
1373.4000;0.3264;0.7236;
1373.7000;0.3248;0.7087;
1374.0000;0.3240;0.7062;
1374.3000;0.3175;0.6963;
1374.6000;0.3223;0.7137;
1374.9000;0.3248;0.7211;
1375.2000;0.3223;0.7186;
1375.5000;0.3191;0.7137;
1375.8000;0.3272;0.7286;
1376.1000;0.3223;0.7311;
1376.4000;0.3215;0.7385;
1376.7000;0.3215;0.7360;
1377.0000;0.3118;0.7161;
1377.3000;0.3215;0.7435;
1377.6000;0.3248;0.7510;
1377.9000;0.3215;0.7335;
1378.2000;0.3313;0.7534;
1378.5000;0.3223;0.7236;
1378.8000;0.3232;0.7261;
1379.1000;0.3191;0.7186;
1379.4000;0.3215;0.7161;
1379.7000;0.3223;0.7286;
1380.0000;0.3256;0.7360;
1380.3000;0.3223;0.7236;
1380.6000;0.3232;0.7236;
1380.9000;0.3215;0.7236;
1381.2000;0.3240;0.7410;
1381.5000;0.3215;0.7435;
1381.8000;0.3321;0.7609;
1382.1000;0.3232;0.7435;
1382.4000;0.3223;0.7360;
1382.7000;0.3223;0.7360;
1383.0000;0.3158;0.7211;
1383.3000;0.3223;0.7385;
1383.6000;0.3215;0.7410;
1383.9000;0.3232;0.7485;
1384.2000;0.3183;0.7236;
1384.5000;0.3223;0.7311;
1384.8000;0.3240;0.7311;
1385.1000;0.3199;0.7137;
1385.4000;0.3223;0.7335;
1385.7000;0.3240;0.7335;
1386.0000;0.3215;0.7410;
1386.3000;0.3240;0.7410;
1386.6000;0.3240;0.7410;
1386.9000;0.3232;0.7410;
1387.2000;0.3223;0.7435;
1387.5000;0.3215;0.7410;
1387.8000;0.3232;0.7360;
1388.1000;0.3240;0.7410;
1388.4000;0.3223;0.7460;
1388.7000;0.3232;0.7435;
1389.0000;0.3223;0.7385;
1389.3000;0.3232;0.7435;
1389.6000;0.3232;0.7534;
1389.9000;0.3232;0.7534;
1390.2000;0.3240;0.7609;
1390.5000;0.3232;0.7534;
1390.8000;0.3248;0.7559;
1391.1000;0.3232;0.7534;
1391.4000;0.3215;0.7609;
1391.7000;0.3232;0.7609;
1392.0000;0.3232;0.7559;
1392.3000;0.3232;0.7534;
1392.6000;0.3223;0.7534;
1392.9000;0.3223;0.7385;
1393.2000;0.3207;0.7286;
1393.5000;0.3232;0.7385;
1393.8000;0.3215;0.7435;
1394.1000;0.3191;0.7335;
1394.4000;0.3240;0.7435;
1394.7000;0.3232;0.7435;
1395.0000;0.3223;0.7485;
1395.3000;0.3248;0.7559;
1395.6000;0.3232;0.7534;
1395.9000;0.3240;0.7485;
1396.2000;0.3240;0.7485;
1396.5000;0.3223;0.7510;
1396.8000;0.3272;0.7733;
1397.1000;0.3223;0.7584;
1397.4000;0.3223;0.7559;
1397.7000;0.3240;0.7534;
1398.0000;0.3191;0.7311;
1398.3000;0.3313;0.7609;
1398.6000;0.3232;0.7286;
1398.9000;0.3223;0.7236;
1399.2000;0.3232;0.7236;
1399.5000;0.3232;0.7211;
1399.8000;0.3240;0.7335;
