time/ms;Fluo/V;P700 deltaI/I x10³;
-199.8000;0.3305;0.7659;
-199.5000;0.3289;0.7634;
-199.2000;0.3297;0.7534;
-198.9000;0.3329;0.7534;
-198.6000;0.3297;0.7410;
-198.3000;0.3297;0.7435;
-198.0000;0.3289;0.7460;
-197.7000;0.3297;0.7410;
-197.4000;0.3321;0.7485;
-197.1000;0.3264;0.7510;
-196.8000;0.3289;0.7510;
-196.5000;0.3289;0.7385;
-196.2000;0.3313;0.7460;
-195.9000;0.3280;0.7410;
-195.6000;0.3289;0.7460;
-195.3000;0.3297;0.7435;
-195.0000;0.3313;0.7385;
-194.7000;0.3354;0.7534;
-194.4000;0.3297;0.7435;
-194.1000;0.3313;0.7485;
-193.8000;0.3289;0.7385;
-193.5000;0.3280;0.7410;
-193.2000;0.3305;0.7460;
-192.9000;0.3313;0.7385;
-192.6000;0.3289;0.7236;
-192.3000;0.3289;0.7211;
-192.0000;0.3289;0.7261;
-191.7000;0.3354;0.7485;
-191.4000;0.3313;0.7286;
-191.1000;0.3305;0.7261;
-190.8000;0.3313;0.7261;
-190.5000;0.3313;0.7211;
-190.2000;0.3240;0.7062;
-189.9000;0.3321;0.7261;
-189.6000;0.3272;0.7186;
-189.3000;0.3305;0.7211;
-189.0000;0.3305;0.7236;
-188.7000;0.3272;0.7037;
-188.4000;0.3297;0.7087;
-188.1000;0.3280;0.7112;
-187.8000;0.3248;0.7037;
-187.5000;0.3297;0.7211;
-187.2000;0.3313;0.7286;
-186.9000;0.3297;0.7211;
-186.6000;0.3297;0.7236;
-186.3000;0.3313;0.7311;
-186.0000;0.3313;0.7410;
-185.7000;0.3280;0.7311;
-185.4000;0.3297;0.7385;
-185.1000;0.3305;0.7335;
-184.8000;0.3297;0.7360;
-184.5000;0.3289;0.7286;
-184.2000;0.3329;0.7335;
-183.9000;0.3297;0.7261;
-183.6000;0.3321;0.7385;
-183.3000;0.3289;0.7335;
-183.0000;0.3297;0.7311;
-182.7000;0.3337;0.7311;
-182.4000;0.3313;0.7211;
-182.1000;0.3297;0.7161;
-181.8000;0.3313;0.7261;
-181.5000;0.3297;0.7236;
-181.2000;0.3305;0.7261;
-180.9000;0.3313;0.7311;
-180.6000;0.3297;0.7311;
-180.3000;0.3297;0.7435;
-180.0000;0.3297;0.7410;
-179.7000;0.3394;0.7584;
-179.4000;0.3305;0.7360;
-179.1000;0.3289;0.7335;
-178.8000;0.3305;0.7311;
-178.5000;0.3305;0.7335;
-178.2000;0.3289;0.7311;
-177.9000;0.3280;0.7311;
-177.6000;0.3297;0.7335;
-177.3000;0.3305;0.7435;
-177.0000;0.3297;0.7460;
-176.7000;0.3305;0.7510;
-176.4000;0.3289;0.7435;
-176.1000;0.3272;0.7385;
-175.8000;0.3297;0.7410;
-175.5000;0.3289;0.7485;
-175.2000;0.3297;0.7559;
-174.9000;0.3297;0.7559;
-174.6000;0.3297;0.7510;
-174.3000;0.3264;0.7410;
-174.0000;0.3289;0.7460;
-173.7000;0.3297;0.7510;
-173.4000;0.3297;0.7510;
-173.1000;0.3289;0.7435;
-172.8000;0.3289;0.7410;
-172.5000;0.3297;0.7335;
-172.2000;0.3289;0.7385;
-171.9000;0.3289;0.7360;
-171.6000;0.3280;0.7385;
-171.3000;0.3297;0.7410;
-171.0000;0.3305;0.7385;
-170.7000;0.3321;0.7360;
-170.4000;0.3297;0.7360;
-170.1000;0.3297;0.7385;
-169.8000;0.3289;0.7460;
-169.5000;0.3321;0.7534;
-169.2000;0.3280;0.7485;
-168.9000;0.3280;0.7485;
-168.6000;0.3297;0.7510;
-168.3000;0.3272;0.7435;
-168.0000;0.3313;0.7534;
-167.7000;0.3289;0.7435;
-167.4000;0.3305;0.7435;
-167.1000;0.3313;0.7460;
-166.8000;0.3297;0.7485;
-166.5000;0.3280;0.7460;
-166.2000;0.3305;0.7510;
-165.9000;0.3305;0.7435;
-165.6000;0.3305;0.7485;
-165.3000;0.3297;0.7485;
-165.0000;0.3297;0.7410;
-164.7000;0.3289;0.7385;
-164.4000;0.3289;0.7385;
-164.1000;0.3264;0.7335;
-163.8000;0.3256;0.7261;
-163.5000;0.3321;0.7485;
-163.2000;0.3297;0.7410;
-162.9000;0.3289;0.7410;
-162.6000;0.3297;0.7460;
-162.3000;0.3289;0.7435;
-162.0000;0.3313;0.7385;
-161.7000;0.3313;0.7360;
-161.4000;0.3264;0.7261;
-161.1000;0.3313;0.7559;
-160.8000;0.3256;0.7485;
-160.5000;0.3313;0.7708;
-160.2000;0.3297;0.7559;
-159.9000;0.3297;0.7534;
-159.6000;0.3321;0.7559;
-159.3000;0.3313;0.7534;
-159.0000;0.3280;0.7435;
-158.7000;0.3297;0.7534;
-158.4000;0.3297;0.7534;
-158.1000;0.3256;0.7435;
-157.8000;0.3321;0.7559;
-157.5000;0.3337;0.7584;
-157.2000;0.3305;0.7460;
-156.9000;0.3313;0.7435;
-156.6000;0.3321;0.7311;
-156.3000;0.3305;0.7236;
-156.0000;0.3256;0.7186;
-155.7000;0.3297;0.7385;
-155.4000;0.3346;0.7385;
-155.1000;0.3297;0.7286;
-154.8000;0.3321;0.7360;
-154.5000;0.3289;0.7360;
-154.2000;0.3329;0.7435;
-153.9000;0.3297;0.7360;
-153.6000;0.3305;0.7311;
-153.3000;0.3305;0.7410;
-153.0000;0.3289;0.7435;
-152.7000;0.3272;0.7435;
-152.4000;0.3297;0.7510;
-152.1000;0.3313;0.7510;
-151.8000;0.3289;0.7485;
-151.5000;0.3272;0.7510;
-151.2000;0.3289;0.7534;
-150.9000;0.3313;0.7534;
-150.6000;0.3305;0.7410;
-150.3000;0.3305;0.7360;
-150.0000;0.3280;0.7286;
-149.7000;0.3289;0.7311;
-149.4000;0.3313;0.7385;
-149.1000;0.3256;0.7236;
-148.8000;0.3297;0.7435;
-148.5000;0.3248;0.7286;
-148.2000;0.3346;0.7510;
-147.9000;0.3305;0.7485;
-147.6000;0.3321;0.7485;
-147.3000;0.3305;0.7485;
-147.0000;0.3313;0.7559;
-146.7000;0.3321;0.7534;
-146.4000;0.3297;0.7510;
-146.1000;0.3305;0.7510;
-145.8000;0.3305;0.7510;
-145.5000;0.3305;0.7534;
-145.2000;0.3305;0.7559;
-144.9000;0.3305;0.7534;
-144.6000;0.3289;0.7460;
-144.3000;0.3305;0.7510;
-144.0000;0.3272;0.7410;
-143.7000;0.3297;0.7485;
-143.4000;0.3313;0.7609;
-143.1000;0.3305;0.7559;
-142.8000;0.3305;0.7510;
-142.5000;0.3305;0.7485;
-142.2000;0.3280;0.7510;
-141.9000;0.3297;0.7559;
-141.6000;0.3321;0.7559;
-141.3000;0.3297;0.7559;
-141.0000;0.3289;0.7410;
-140.7000;0.3297;0.7510;
-140.4000;0.3289;0.7559;
-140.1000;0.3280;0.7559;
-139.8000;0.3289;0.7534;
-139.5000;0.3272;0.7460;
-139.2000;0.3297;0.7584;
-138.9000;0.3297;0.7684;
-138.6000;0.3289;0.7659;
-138.3000;0.3280;0.7634;
-138.0000;0.3272;0.7510;
-137.7000;0.3313;0.7659;
-137.4000;0.3305;0.7733;
-137.1000;0.3280;0.7708;
-136.8000;0.3297;0.7733;
-136.5000;0.3313;0.7783;
-136.2000;0.3313;0.7659;
-135.9000;0.3280;0.7510;
-135.6000;0.3378;0.7684;
-135.3000;0.3321;0.7584;
-135.0000;0.3313;0.7559;
-134.7000;0.3305;0.7485;
-134.4000;0.3289;0.7435;
-134.1000;0.3280;0.7385;
-133.8000;0.3289;0.7460;
-133.5000;0.3272;0.7510;
-133.2000;0.3289;0.7584;
-132.9000;0.3305;0.7659;
-132.6000;0.3329;0.7684;
-132.3000;0.3289;0.7460;
-132.0000;0.3297;0.7510;
-131.7000;0.3346;0.7584;
-131.4000;0.3313;0.7510;
-131.1000;0.3313;0.7485;
-130.8000;0.3305;0.7335;
-130.5000;0.3264;0.7137;
-130.2000;0.3289;0.7286;
-129.9000;0.3321;0.7360;
-129.6000;0.3289;0.7410;
-129.3000;0.3289;0.7534;
-129.0000;0.3280;0.7460;
-128.7000;0.3297;0.7435;
-128.4000;0.3272;0.7360;
-128.1000;0.3280;0.7435;
-127.8000;0.3289;0.7435;
-127.5000;0.3297;0.7510;
-127.2000;0.3305;0.7435;
-126.9000;0.3297;0.7435;
-126.6000;0.3321;0.7435;
-126.3000;0.3305;0.7460;
-126.0000;0.3313;0.7435;
-125.7000;0.3297;0.7311;
-125.4000;0.3297;0.7335;
-125.1000;0.3207;0.6963;
-124.8000;0.3280;0.7062;
-124.5000;0.3305;0.7112;
-124.2000;0.3313;0.7186;
-123.9000;0.3289;0.7161;
-123.6000;0.3305;0.7211;
-123.3000;0.3297;0.7261;
-123.0000;0.3297;0.7236;
-122.7000;0.3305;0.7261;
-122.4000;0.3313;0.7335;
-122.1000;0.3289;0.7385;
-121.8000;0.3297;0.7385;
-121.5000;0.3289;0.7385;
-121.2000;0.3297;0.7460;
-120.9000;0.3280;0.7435;
-120.6000;0.3297;0.7485;
-120.3000;0.3297;0.7510;
-120.0000;0.3297;0.7485;
-119.7000;0.3305;0.7460;
-119.4000;0.3297;0.7460;
-119.1000;0.3305;0.7485;
-118.8000;0.3297;0.7435;
-118.5000;0.3305;0.7460;
-118.2000;0.3280;0.7335;
-117.9000;0.3289;0.7410;
-117.6000;0.3289;0.7510;
-117.3000;0.3305;0.7584;
-117.0000;0.3280;0.7659;
-116.7000;0.3313;0.7708;
-116.4000;0.3297;0.7708;
-116.1000;0.3313;0.7858;
-115.8000;0.3386;0.7982;
-115.5000;0.3280;0.7733;
-115.2000;0.3272;0.7833;
-114.9000;0.3305;0.7783;
-114.6000;0.3305;0.7733;
-114.3000;0.3272;0.7534;
-114.0000;0.3248;0.7385;
-113.7000;0.3321;0.7584;
-113.4000;0.3289;0.7485;
-113.1000;0.3289;0.7485;
-112.8000;0.3305;0.7510;
-112.5000;0.3297;0.7460;
-112.2000;0.3337;0.7559;
-111.9000;0.3313;0.7510;
-111.6000;0.3289;0.7485;
-111.3000;0.3289;0.7510;
-111.0000;0.3321;0.7584;
-110.7000;0.3280;0.7510;
-110.4000;0.3272;0.7360;
-110.1000;0.3289;0.7385;
-109.8000;0.3289;0.7385;
-109.5000;0.3305;0.7435;
-109.2000;0.3280;0.7335;
-108.9000;0.3289;0.7410;
-108.6000;0.3289;0.7410;
-108.3000;0.3272;0.7261;
-108.0000;0.3272;0.7335;
-107.7000;0.3289;0.7460;
-107.4000;0.3305;0.7510;
-107.1000;0.3297;0.7460;
-106.8000;0.3313;0.7485;
-106.5000;0.3289;0.7534;
-106.2000;0.3313;0.7559;
-105.9000;0.3289;0.7510;
-105.6000;0.3305;0.7410;
-105.3000;0.3305;0.7460;
-105.0000;0.3313;0.7385;
-104.7000;0.3297;0.7335;
-104.4000;0.3305;0.7360;
-104.1000;0.3305;0.7360;
-103.8000;0.3248;0.7161;
-103.5000;0.3313;0.7311;
-103.2000;0.3297;0.7335;
-102.9000;0.3297;0.7286;
-102.6000;0.3289;0.7360;
-102.3000;0.3305;0.7460;
-102.0000;0.3289;0.7286;
-101.7000;0.3313;0.7435;
-101.4000;0.3297;0.7460;
-101.1000;0.3305;0.7460;
-100.8000;0.3305;0.7435;
-100.5000;0.3297;0.7485;
-100.2000;0.3272;0.7435;
-99.9000;0.3280;0.7385;
-99.6000;0.3297;0.7460;
-99.3000;0.3280;0.7460;
-99.0000;0.3272;0.7410;
-98.7000;0.3256;0.7286;
-98.4000;0.3313;0.7435;
-98.1000;0.3394;0.7559;
-97.8000;0.3264;0.7211;
-97.5000;0.3297;0.7360;
-97.2000;0.3305;0.7435;
-96.9000;0.3297;0.7460;
-96.6000;0.3297;0.7311;
-96.3000;0.3297;0.7286;
-96.0000;0.3321;0.7435;
-95.7000;0.3313;0.7385;
-95.4000;0.3305;0.7385;
-95.1000;0.3297;0.7410;
-94.8000;0.3297;0.7435;
-94.5000;0.3280;0.7435;
-94.2000;0.3297;0.7460;
-93.9000;0.3289;0.7460;
-93.6000;0.3280;0.7485;
-93.3000;0.3313;0.7460;
-93.0000;0.3305;0.7385;
-92.7000;0.3289;0.7410;
-92.4000;0.3289;0.7360;
-92.1000;0.3337;0.7559;
-91.8000;0.3297;0.7485;
-91.5000;0.3289;0.7510;
-91.2000;0.3305;0.7534;
-90.9000;0.3280;0.7510;
-90.6000;0.3280;0.7534;
-90.3000;0.3280;0.7510;
-90.0000;0.3297;0.7460;
-89.7000;0.3289;0.7410;
-89.4000;0.3215;0.7261;
-89.1000;0.3280;0.7360;
-88.8000;0.3305;0.7360;
-88.5000;0.3280;0.7360;
-88.2000;0.3313;0.7510;
-87.9000;0.3280;0.7534;
-87.6000;0.3289;0.7559;
-87.3000;0.3313;0.7634;
-87.0000;0.3321;0.7584;
-86.7000;0.3305;0.7559;
-86.4000;0.3346;0.7708;
-86.1000;0.3272;0.7559;
-85.8000;0.3289;0.7584;
-85.5000;0.3313;0.7559;
-85.2000;0.3297;0.7510;
-84.9000;0.3280;0.7510;
-84.6000;0.3264;0.7460;
-84.3000;0.3280;0.7534;
-84.0000;0.3289;0.7559;
-83.7000;0.3280;0.7510;
-83.4000;0.3305;0.7584;
-83.1000;0.3346;0.7684;
-82.8000;0.3305;0.7559;
-82.5000;0.3313;0.7534;
-82.2000;0.3313;0.7510;
-81.9000;0.3305;0.7559;
-81.6000;0.3313;0.7559;
-81.3000;0.3321;0.7559;
-81.0000;0.3305;0.7559;
-80.7000;0.3337;0.7609;
-80.4000;0.3272;0.7410;
-80.1000;0.3305;0.7510;
-79.8000;0.3305;0.7534;
-79.5000;0.3297;0.7510;
-79.2000;0.3313;0.7584;
-78.9000;0.3289;0.7485;
-78.6000;0.3289;0.7460;
-78.3000;0.3313;0.7485;
-78.0000;0.3305;0.7510;
-77.7000;0.3321;0.7609;
-77.4000;0.3297;0.7460;
-77.1000;0.3305;0.7485;
-76.8000;0.3313;0.7435;
-76.5000;0.3305;0.7360;
-76.2000;0.3321;0.7485;
-75.9000;0.3305;0.7335;
-75.6000;0.3321;0.7236;
-75.3000;0.3305;0.7236;
-75.0000;0.3305;0.7186;
-74.7000;0.3289;0.7236;
-74.4000;0.3289;0.7311;
-74.1000;0.3313;0.7435;
-73.8000;0.3305;0.7385;
-73.5000;0.3305;0.7360;
-73.2000;0.3305;0.7335;
-72.9000;0.3289;0.7385;
-72.6000;0.3289;0.7485;
-72.3000;0.3297;0.7609;
-72.0000;0.3305;0.7559;
-71.7000;0.3289;0.7584;
-71.4000;0.3305;0.7510;
-71.1000;0.3297;0.7559;
-70.8000;0.3305;0.7510;
-70.5000;0.3289;0.7410;
-70.2000;0.3305;0.7510;
-69.9000;0.3297;0.7510;
-69.6000;0.3297;0.7534;
-69.3000;0.3321;0.7559;
-69.0000;0.3280;0.7510;
-68.7000;0.3297;0.7485;
-68.4000;0.3297;0.7485;
-68.1000;0.3280;0.7485;
-67.8000;0.3297;0.7510;
-67.5000;0.3313;0.7510;
-67.2000;0.3297;0.7559;
-66.9000;0.3289;0.7659;
-66.6000;0.3280;0.7584;
-66.3000;0.3248;0.7510;
-66.0000;0.3297;0.7534;
-65.7000;0.3297;0.7584;
-65.4000;0.3305;0.7534;
-65.1000;0.3305;0.7559;
-64.8000;0.3305;0.7559;
-64.5000;0.3297;0.7584;
-64.2000;0.3313;0.7584;
-63.9000;0.3256;0.7460;
-63.6000;0.3297;0.7534;
-63.3000;0.3289;0.7510;
-63.0000;0.3280;0.7534;
-62.7000;0.3313;0.7559;
-62.4000;0.3297;0.7410;
-62.1000;0.3289;0.7335;
-61.8000;0.3289;0.7286;
-61.5000;0.3289;0.7360;
-61.2000;0.3305;0.7435;
-60.9000;0.3329;0.7410;
-60.6000;0.3272;0.7360;
-60.3000;0.3305;0.7460;
-60.0000;0.3289;0.7460;
-59.7000;0.3289;0.7410;
-59.4000;0.3329;0.7510;
-59.1000;0.3305;0.7485;
-58.8000;0.3305;0.7510;
-58.5000;0.3329;0.7609;
-58.2000;0.3305;0.7584;
-57.9000;0.3321;0.7609;
-57.6000;0.3289;0.7534;
-57.3000;0.3289;0.7460;
-57.0000;0.3313;0.7559;
-56.7000;0.3272;0.7410;
-56.4000;0.3215;0.7236;
-56.1000;0.3272;0.7385;
-55.8000;0.3305;0.7385;
-55.5000;0.3321;0.7510;
-55.2000;0.3321;0.7659;
-54.9000;0.3297;0.7559;
-54.6000;0.3297;0.7559;
-54.3000;0.3289;0.7485;
-54.0000;0.3305;0.7485;
-53.7000;0.3289;0.7435;
-53.4000;0.3280;0.7460;
-53.1000;0.3280;0.7385;
-52.8000;0.3280;0.7385;
-52.5000;0.3272;0.7460;
-52.2000;0.3248;0.7485;
-51.9000;0.3305;0.7634;
-51.6000;0.3297;0.7609;
-51.3000;0.3297;0.7534;
-51.0000;0.3337;0.7634;
-50.7000;0.3272;0.7410;
-50.4000;0.3297;0.7485;
-50.1000;0.3305;0.7534;
-49.8000;0.3280;0.7485;
-49.5000;0.3289;0.7609;
-49.2000;0.3289;0.7584;
-48.9000;0.3305;0.7634;
-48.6000;0.3297;0.7534;
-48.3000;0.3289;0.7559;
-48.0000;0.3289;0.7510;
-47.7000;0.3305;0.7584;
-47.4000;0.3297;0.7485;
-47.1000;0.3280;0.7510;
-46.8000;0.3305;0.7534;
-46.5000;0.3289;0.7534;
-46.2000;0.3305;0.7609;
-45.9000;0.3207;0.7360;
-45.6000;0.3297;0.7634;
-45.3000;0.3305;0.7708;
-45.0000;0.3321;0.7758;
-44.7000;0.3297;0.7684;
-44.4000;0.3313;0.7684;
-44.1000;0.3321;0.7684;
-43.8000;0.3289;0.7659;
-43.5000;0.3321;0.7758;
-43.2000;0.3289;0.7634;
-42.9000;0.3297;0.7609;
-42.6000;0.3313;0.7684;
-42.3000;0.3313;0.7684;
-42.0000;0.3313;0.7634;
-41.7000;0.3297;0.7634;
-41.4000;0.3272;0.7634;
-41.1000;0.3289;0.7733;
-40.8000;0.3280;0.7708;
-40.5000;0.3223;0.7559;
-40.2000;0.3272;0.7584;
-39.9000;0.3264;0.7634;
-39.6000;0.3272;0.7609;
-39.3000;0.3280;0.7659;
-39.0000;0.3289;0.7659;
-38.7000;0.3289;0.7609;
-38.4000;0.3289;0.7634;
-38.1000;0.3321;0.7684;
-37.8000;0.3264;0.7584;
-37.5000;0.3272;0.7609;
-37.2000;0.3329;0.7634;
-36.9000;0.3280;0.7460;
-36.6000;0.3272;0.7435;
-36.3000;0.3297;0.7435;
-36.0000;0.3305;0.7460;
-35.7000;0.3289;0.7460;
-35.4000;0.3313;0.7510;
-35.1000;0.3272;0.7485;
-34.8000;0.3297;0.7534;
-34.5000;0.3370;0.7883;
-34.2000;0.3289;0.7708;
-33.9000;0.3297;0.7659;
-33.6000;0.3289;0.7659;
-33.3000;0.3337;0.7684;
-33.0000;0.3297;0.7510;
-32.7000;0.3297;0.7460;
-32.4000;0.3305;0.7485;
-32.1000;0.3305;0.7510;
-31.8000;0.3223;0.7286;
-31.5000;0.3289;0.7485;
-31.2000;0.3280;0.7510;
-30.9000;0.3272;0.7410;
-30.6000;0.3289;0.7460;
-30.3000;0.3297;0.7559;
-30.0000;0.3305;0.7584;
-29.7000;0.3297;0.7510;
-29.4000;0.3280;0.7559;
-29.1000;0.3297;0.7559;
-28.8000;0.3280;0.7534;
-28.5000;0.3313;0.7485;
-28.2000;0.3289;0.7435;
-27.9000;0.3289;0.7435;
-27.6000;0.3289;0.7360;
-27.3000;0.3289;0.7410;
-27.0000;0.3272;0.7485;
-26.7000;0.3280;0.7559;
-26.4000;0.3313;0.7634;
-26.1000;0.3305;0.7609;
-25.8000;0.3280;0.7559;
-25.5000;0.3321;0.7659;
-25.2000;0.3297;0.7559;
-24.9000;0.3313;0.7609;
-24.6000;0.3313;0.7559;
-24.3000;0.3321;0.7609;
-24.0000;0.3280;0.7559;
-23.7000;0.3272;0.7485;
-23.4000;0.3305;0.7510;
-23.1000;0.3289;0.7534;
-22.8000;0.3289;0.7559;
-22.5000;0.3272;0.7534;
-22.2000;0.3297;0.7634;
-21.9000;0.3362;0.7758;
-21.6000;0.3305;0.7634;
-21.3000;0.3297;0.7634;
-21.0000;0.3305;0.7684;
-20.7000;0.3289;0.7584;
-20.4000;0.3289;0.7634;
-20.1000;0.3305;0.7609;
-19.8000;0.3305;0.7584;
-19.5000;0.3313;0.7534;
-19.2000;0.3329;0.7534;
-18.9000;0.3297;0.7485;
-18.6000;0.3297;0.7510;
-18.3000;0.3321;0.7460;
-18.0000;0.3297;0.7510;
-17.7000;0.3305;0.7510;
-17.4000;0.3305;0.7510;
-17.1000;0.3183;0.7286;
-16.8000;0.3305;0.7584;
-16.5000;0.3280;0.7485;
-16.2000;0.3240;0.7435;
-15.9000;0.3297;0.7584;
-15.6000;0.3297;0.7609;
-15.3000;0.3248;0.7460;
-15.0000;0.3297;0.7584;
-14.7000;0.3313;0.7559;
-14.4000;0.3289;0.7510;
-14.1000;0.3329;0.7584;
-13.8000;0.3272;0.7460;
-13.5000;0.3329;0.7634;
-13.2000;0.3305;0.7559;
-12.9000;0.3297;0.7534;
-12.6000;0.3305;0.7510;
-12.3000;0.3305;0.7435;
-12.0000;0.3321;0.7485;
-11.7000;0.3305;0.7485;
-11.4000;0.3305;0.7634;
-11.1000;0.3297;0.7609;
-10.8000;0.3305;0.7559;
-10.5000;0.3305;0.7584;
-10.2000;0.3297;0.7460;
-9.9000;0.3289;0.7385;
-9.6000;0.3240;0.7261;
-9.3000;0.3305;0.7510;
-9.0000;0.3223;0.7286;
-8.7000;0.3289;0.7485;
-8.4000;0.3297;0.7485;
-8.1000;0.3297;0.7460;
-7.8000;0.3289;0.7286;
-7.5000;0.3272;0.7211;
-7.2000;0.3297;0.7261;
-6.9000;0.3280;0.7261;
-6.6000;0.3297;0.7261;
-6.3000;0.3280;0.7236;
-6.0000;0.3289;0.7286;
-5.7000;0.3297;0.7335;
-5.4000;0.3313;0.7410;
-5.1000;0.3280;0.7311;
-4.8000;0.3305;0.7385;
-4.5000;0.3289;0.7460;
-4.2000;0.3305;0.7584;
-3.9000;0.3272;0.7460;
-3.6000;0.3280;0.7460;
-3.3000;0.3297;0.7559;
-3.0000;0.3289;0.7534;
-2.7000;0.3280;0.7435;
-2.4000;0.3280;0.7335;
-2.1000;0.3280;0.7286;
-1.8000;0.3289;0.7286;
-1.5000;0.3313;0.7261;
-1.2000;0.3289;0.7286;
-0.9000;0.3272;0.7360;
-0.6000;0.3313;0.7460;
-0.3000;0.3297;0.7460;
0.0000;0.3297;0.7460;
0.3000;0.3419;0.7559;
0.6000;0.3630;0.7808;
0.9000;0.3769;0.8156;
1.2000;0.3850;0.8430;
1.5000;0.3956;0.8753;
1.8000;0.4054;0.9051;
2.1000;0.4111;0.9225;
2.4000;0.4143;0.9375;
2.7000;0.4176;0.9623;
3.0000;0.4192;0.9772;
3.3000;0.4225;0.9847;
3.6000;0.4249;0.9847;
3.9000;0.4257;0.9971;
4.2000;0.4339;1.0096;
4.5000;0.4274;0.9922;
4.8000;0.4274;0.9897;
5.1000;0.4306;1.0046;
5.4000;0.4330;1.0046;
5.7000;0.4265;0.9748;
6.0000;0.4428;1.0195;
6.3000;0.4371;1.0096;
6.6000;0.4396;1.0220;
6.9000;0.4469;1.0543;
7.2000;0.4379;1.0344;
7.5000;0.4396;1.0419;
7.8000;0.4379;1.0394;
8.1000;0.4396;1.0419;
8.4000;0.4420;1.0419;
8.7000;0.4412;1.0295;
9.0000;0.4420;1.0344;
9.3000;0.4436;1.0369;
9.6000;0.4469;1.0394;
9.9000;0.4461;1.0394;
10.2000;0.4461;1.0369;
10.5000;0.4526;1.0493;
10.8000;0.4501;1.0394;
11.1000;0.4518;1.0419;
11.4000;0.4510;1.0270;
11.7000;0.4501;1.0270;
12.0000;0.4518;1.0270;
12.3000;0.4510;1.0295;
12.6000;0.4518;1.0295;
12.9000;0.4510;1.0319;
13.2000;0.4534;1.0419;
13.5000;0.4542;1.0469;
13.8000;0.4534;1.0419;
14.1000;0.4534;1.0344;
14.4000;0.4567;1.0469;
14.7000;0.4567;1.0419;
15.0000;0.4542;1.0344;
15.3000;0.4501;1.0319;
15.6000;0.4567;1.0518;
15.9000;0.4575;1.0419;
16.2000;0.4591;1.0444;
16.5000;0.4567;1.0344;
16.8000;0.4575;1.0295;
17.1000;0.4599;1.0295;
17.4000;0.4591;1.0270;
17.7000;0.4591;1.0270;
18.0000;0.4583;1.0195;
18.3000;0.4624;1.0245;
18.6000;0.4648;1.0270;
18.9000;0.4632;1.0170;
19.2000;0.4640;1.0195;
19.5000;0.4624;1.0195;
19.8000;0.4640;1.0195;
20.1000;0.4640;1.0071;
20.4000;0.4624;1.0096;
20.7000;0.4632;1.0096;
21.0000;0.4624;1.0195;
21.3000;0.4648;1.0220;
21.6000;0.4632;1.0195;
21.9000;0.4648;1.0319;
22.2000;0.4624;1.0170;
22.5000;0.4656;1.0295;
22.8000;0.4648;1.0245;
23.1000;0.4713;1.0295;
23.4000;0.4681;1.0344;
23.7000;0.4681;1.0245;
24.0000;0.4681;1.0120;
24.3000;0.4697;1.0170;
24.6000;0.4681;1.0170;
24.9000;0.4721;1.0270;
25.2000;0.4689;1.0245;
25.5000;0.4697;1.0270;
25.8000;0.4681;1.0170;
26.1000;0.4689;1.0245;
26.4000;0.4681;1.0245;
26.7000;0.4656;1.0245;
27.0000;0.4689;1.0319;
27.3000;0.4705;1.0394;
27.6000;0.4697;1.0319;
27.9000;0.4664;1.0245;
28.2000;0.4689;1.0394;
28.5000;0.4697;1.0394;
28.8000;0.4705;1.0245;
29.1000;0.4721;1.0170;
29.4000;0.4705;1.0071;
29.7000;0.4681;0.9996;
30.0000;0.4705;1.0071;
30.3000;0.4705;1.0096;
30.6000;0.4754;1.0195;
30.9000;0.4721;1.0145;
31.2000;0.4729;1.0170;
31.5000;0.4729;1.0120;
31.8000;0.4746;1.0071;
32.1000;0.4729;1.0120;
32.4000;0.4721;1.0046;
32.7000;0.4729;1.0096;
33.0000;0.4729;1.0021;
33.3000;0.4746;1.0071;
33.6000;0.4737;1.0071;
33.9000;0.4762;1.0170;
34.2000;0.4754;1.0120;
34.5000;0.4721;0.9971;
34.8000;0.4762;1.0120;
35.1000;0.4803;1.0319;
35.4000;0.4778;1.0245;
35.7000;0.4754;1.0270;
36.0000;0.4770;1.0369;
36.3000;0.4794;1.0493;
36.6000;0.4754;1.0444;
36.9000;0.4746;1.0319;
37.2000;0.4770;1.0369;
37.5000;0.4770;1.0344;
37.8000;0.4746;1.0270;
38.1000;0.4746;1.0195;
38.4000;0.4770;1.0220;
38.7000;0.4770;1.0245;
39.0000;0.4786;1.0170;
39.3000;0.4794;1.0220;
39.6000;0.4876;1.0444;
39.9000;0.4819;1.0295;
40.2000;0.4778;1.0270;
40.5000;0.4778;1.0270;
40.8000;0.4754;1.0120;
41.1000;0.4778;1.0145;
41.4000;0.4778;1.0120;
41.7000;0.4803;1.0096;
42.0000;0.4786;1.0096;
42.3000;0.4762;0.9971;
42.6000;0.4794;1.0046;
42.9000;0.4803;1.0096;
43.2000;0.4778;1.0021;
43.5000;0.4786;1.0046;
43.8000;0.4778;1.0120;
44.1000;0.4786;1.0220;
44.4000;0.4811;1.0195;
44.7000;0.4819;1.0145;
45.0000;0.4827;1.0170;
45.3000;0.4794;1.0145;
45.6000;0.4811;1.0145;
45.9000;0.4794;1.0096;
46.2000;0.4803;1.0120;
46.5000;0.4827;1.0145;
46.8000;0.4811;0.9996;
47.1000;0.4819;1.0046;
47.4000;0.4819;1.0046;
47.7000;0.4827;1.0021;
48.0000;0.4843;1.0021;
48.3000;0.4851;1.0071;
48.6000;0.4811;0.9946;
48.9000;0.4827;0.9922;
49.2000;0.4794;0.9872;
49.5000;0.4876;0.9971;
49.8000;0.4827;0.9822;
50.1000;0.4843;0.9872;
50.4000;0.4827;0.9946;
50.7000;0.4835;0.9847;
51.0000;0.4819;0.9922;
51.3000;0.4843;0.9996;
51.6000;0.4835;0.9996;
51.9000;0.4933;1.0220;
52.2000;0.4819;0.9797;
52.5000;0.4794;0.9748;
52.8000;0.4843;0.9922;
53.1000;0.4868;0.9897;
53.4000;0.4843;0.9922;
53.7000;0.4827;0.9922;
54.0000;0.4843;1.0021;
54.3000;0.4868;1.0096;
54.6000;0.4876;1.0096;
54.9000;0.4851;1.0021;
55.2000;0.4908;1.0170;
55.5000;0.4843;1.0021;
55.8000;0.4860;1.0096;
56.1000;0.4843;1.0096;
56.4000;0.4835;1.0170;
56.7000;0.4884;1.0145;
57.0000;0.4860;1.0046;
57.3000;0.4851;1.0096;
57.6000;0.4876;1.0120;
57.9000;0.4860;1.0096;
58.2000;0.4868;1.0096;
58.5000;0.4908;1.0195;
58.8000;0.4860;1.0071;
59.1000;0.4860;0.9971;
59.4000;0.4876;0.9996;
59.7000;0.4933;1.0195;
60.0000;0.4868;1.0021;
60.3000;0.4851;0.9996;
60.6000;0.4884;1.0071;
60.9000;0.4876;1.0046;
61.2000;0.4884;1.0021;
61.5000;0.4949;1.0120;
61.8000;0.4876;0.9996;
62.1000;0.4868;0.9996;
62.4000;0.4884;0.9946;
62.7000;0.4884;0.9971;
63.0000;0.4908;1.0021;
63.3000;0.4900;0.9922;
63.6000;0.4876;0.9822;
63.9000;0.4933;0.9922;
64.2000;0.4892;0.9897;
64.5000;0.4998;1.0145;
64.8000;0.4900;0.9922;
65.1000;0.4860;0.9822;
65.4000;0.4900;0.9922;
65.7000;0.4900;0.9847;
66.0000;0.4900;0.9897;
66.3000;0.4908;0.9847;
66.6000;0.4884;0.9897;
66.9000;0.4908;0.9922;
67.2000;0.4949;0.9922;
67.5000;0.4892;0.9822;
67.8000;0.4892;0.9922;
68.1000;0.4917;1.0021;
68.4000;0.4917;1.0071;
68.7000;0.4917;1.0071;
69.0000;0.4949;1.0096;
69.3000;0.4917;1.0021;
69.6000;0.4933;1.0046;
69.9000;0.4925;1.0021;
70.2000;0.4925;1.0046;
70.5000;0.4917;1.0021;
70.8000;0.4933;0.9996;
71.1000;0.4949;0.9996;
71.4000;0.4925;0.9996;
71.7000;0.4949;0.9922;
72.0000;0.4949;0.9922;
72.3000;0.4941;0.9946;
72.6000;0.4949;0.9946;
72.9000;0.4933;0.9946;
73.2000;0.5014;1.0220;
73.5000;0.4949;1.0071;
73.8000;0.4884;0.9872;
74.1000;0.4957;1.0071;
74.4000;0.4965;1.0071;
74.7000;0.4908;0.9872;
75.0000;0.4941;0.9971;
75.3000;0.4949;0.9996;
75.6000;0.4982;1.0046;
75.9000;0.4917;0.9872;
76.2000;0.4917;0.9822;
76.5000;0.4876;0.9598;
76.8000;0.4941;0.9772;
77.1000;0.4949;0.9797;
77.4000;0.5031;0.9946;
77.7000;0.4933;0.9673;
78.0000;0.4965;0.9847;
78.3000;0.4925;0.9822;
78.6000;0.4990;0.9971;
78.9000;0.4965;0.9897;
79.2000;0.4974;0.9922;
79.5000;0.4974;1.0046;
79.8000;0.4965;1.0046;
80.1000;0.4974;1.0046;
80.4000;0.4982;1.0096;
80.7000;0.4974;1.0071;
81.0000;0.4965;0.9996;
81.3000;0.4965;0.9971;
81.6000;0.4974;0.9897;
81.9000;0.4982;0.9946;
82.2000;0.4998;0.9996;
82.5000;0.4974;0.9897;
82.8000;0.4974;0.9822;
83.1000;0.4990;0.9847;
83.4000;0.4982;0.9748;
83.7000;0.4990;0.9698;
84.0000;0.5006;0.9723;
84.3000;0.4998;0.9673;
84.6000;0.4998;0.9573;
84.9000;0.4990;0.9549;
85.2000;0.4990;0.9499;
85.5000;0.4965;0.9499;
85.8000;0.4990;0.9474;
86.1000;0.4990;0.9549;
86.4000;0.4990;0.9524;
86.7000;0.4982;0.9573;
87.0000;0.4990;0.9623;
87.3000;0.4998;0.9573;
87.6000;0.4998;0.9573;
87.9000;0.4990;0.9623;
88.2000;0.4998;0.9673;
88.5000;0.5006;0.9698;
88.8000;0.4990;0.9598;
89.1000;0.4990;0.9573;
89.4000;0.5022;0.9648;
89.7000;0.5014;0.9797;
90.0000;0.5006;0.9772;
90.3000;0.4990;0.9698;
90.6000;0.4990;0.9698;
90.9000;0.5014;0.9748;
91.2000;0.5014;0.9623;
91.5000;0.5006;0.9598;
91.8000;0.5006;0.9549;
92.1000;0.4990;0.9573;
92.4000;0.5047;0.9673;
92.7000;0.5014;0.9673;
93.0000;0.5022;0.9748;
93.3000;0.5022;0.9822;
93.6000;0.5006;0.9847;
93.9000;0.5022;0.9797;
94.2000;0.5039;0.9872;
94.5000;0.5031;0.9822;
94.8000;0.5014;0.9847;
95.1000;0.4998;0.9698;
95.4000;0.5014;0.9723;
95.7000;0.5006;0.9698;
96.0000;0.5022;0.9673;
96.3000;0.5039;0.9698;
96.6000;0.5096;0.9822;
96.9000;0.5022;0.9648;
97.2000;0.5022;0.9648;
97.5000;0.5022;0.9698;
97.8000;0.5047;0.9698;
98.1000;0.5031;0.9698;
98.4000;0.5022;0.9673;
98.7000;0.5022;0.9723;
99.0000;0.5022;0.9673;
99.3000;0.4982;0.9549;
99.6000;0.5006;0.9623;
99.9000;0.5031;0.9648;
100.2000;0.4957;0.9449;
100.5000;0.5063;0.9673;
100.8000;0.5055;0.9623;
101.1000;0.5006;0.9474;
101.4000;0.5031;0.9524;
101.7000;0.5022;0.9474;
102.0000;0.5047;0.9499;
102.3000;0.4982;0.9350;
102.6000;0.5039;0.9474;
102.9000;0.5055;0.9524;
103.2000;0.5022;0.9449;
103.5000;0.5136;0.9872;
103.8000;0.5047;0.9648;
104.1000;0.5039;0.9648;
104.4000;0.5039;0.9623;
104.7000;0.5031;0.9474;
105.0000;0.5047;0.9623;
105.3000;0.5047;0.9573;
105.6000;0.5047;0.9648;
105.9000;0.5039;0.9698;
106.2000;0.5047;0.9698;
106.5000;0.5031;0.9623;
106.8000;0.5039;0.9573;
107.1000;0.5014;0.9449;
107.4000;0.5063;0.9499;
107.7000;0.5096;0.9598;
108.0000;0.5039;0.9375;
108.3000;0.5039;0.9399;
108.6000;0.5039;0.9424;
108.9000;0.5055;0.9424;
109.2000;0.5047;0.9499;
109.5000;0.5039;0.9474;
109.8000;0.5047;0.9524;
110.1000;0.5047;0.9499;
110.4000;0.5055;0.9449;
110.7000;0.5047;0.9524;
111.0000;0.5063;0.9598;
111.3000;0.5063;0.9648;
111.6000;0.5071;0.9673;
111.9000;0.5039;0.9623;
112.2000;0.5047;0.9648;
112.5000;0.5063;0.9673;
112.8000;0.5055;0.9673;
113.1000;0.5047;0.9573;
113.4000;0.5039;0.9573;
113.7000;0.5088;0.9698;
114.0000;0.5071;0.9623;
114.3000;0.5063;0.9573;
114.6000;0.5071;0.9573;
114.9000;0.5063;0.9549;
115.2000;0.5079;0.9499;
115.5000;0.5071;0.9449;
115.8000;0.5055;0.9449;
116.1000;0.5047;0.9449;
116.4000;0.5071;0.9474;
116.7000;0.5063;0.9399;
117.0000;0.5055;0.9399;
117.3000;0.5096;0.9474;
117.6000;0.5071;0.9474;
117.9000;0.5055;0.9499;
118.2000;0.5104;0.9648;
118.5000;0.5063;0.9549;
118.8000;0.5071;0.9474;
119.1000;0.5063;0.9424;
119.4000;0.5071;0.9499;
119.7000;0.5071;0.9474;
120.0000;0.5063;0.9375;
120.3000;0.5047;0.9375;
120.6000;0.5055;0.9424;
120.9000;0.5039;0.9449;
121.2000;0.5071;0.9499;
121.5000;0.5031;0.9499;
121.8000;0.5079;0.9623;
122.1000;0.5006;0.9474;
122.4000;0.4998;0.9499;
122.7000;0.5079;0.9623;
123.0000;0.5071;0.9598;
123.3000;0.5071;0.9573;
123.6000;0.5063;0.9549;
123.9000;0.5063;0.9499;
124.2000;0.5055;0.9499;
124.5000;0.5063;0.9549;
124.8000;0.5063;0.9549;
125.1000;0.5079;0.9573;
125.4000;0.5071;0.9474;
125.7000;0.5063;0.9499;
126.0000;0.5022;0.9424;
126.3000;0.5079;0.9573;
126.6000;0.5096;0.9623;
126.9000;0.5063;0.9499;
127.2000;0.5055;0.9474;
127.5000;0.5096;0.9598;
127.8000;0.5055;0.9648;
128.1000;0.5047;0.9573;
128.4000;0.5055;0.9698;
128.7000;0.5063;0.9748;
129.0000;0.5112;0.9872;
129.3000;0.5079;0.9822;
129.6000;0.5047;0.9748;
129.9000;0.5055;0.9723;
130.2000;0.5071;0.9723;
130.5000;0.5088;0.9723;
130.8000;0.5063;0.9598;
131.1000;0.5071;0.9623;
131.4000;0.5079;0.9598;
131.7000;0.5071;0.9598;
132.0000;0.5136;0.9797;
132.3000;0.5096;0.9723;
132.6000;0.5055;0.9698;
132.9000;0.5088;0.9723;
133.2000;0.5071;0.9772;
133.5000;0.5071;0.9698;
133.8000;0.5079;0.9723;
134.1000;0.5088;0.9748;
134.4000;0.5112;0.9748;
134.7000;0.5071;0.9549;
135.0000;0.5047;0.9449;
135.3000;0.5063;0.9549;
135.6000;0.5071;0.9673;
135.9000;0.5063;0.9673;
136.2000;0.5047;0.9623;
136.5000;0.5071;0.9673;
136.8000;0.5022;0.9499;
137.1000;0.5096;0.9673;
137.4000;0.5071;0.9598;
137.7000;0.5071;0.9598;
138.0000;0.5120;0.9772;
138.3000;0.5096;0.9748;
138.6000;0.5055;0.9549;
138.9000;0.5047;0.9499;
139.2000;0.5079;0.9573;
139.5000;0.4974;0.9275;
139.8000;0.5047;0.9549;
140.1000;0.5039;0.9499;
140.4000;0.5096;0.9723;
140.7000;0.5055;0.9648;
141.0000;0.5047;0.9623;
141.3000;0.5063;0.9598;
141.6000;0.5088;0.9598;
141.9000;0.5079;0.9474;
142.2000;0.5071;0.9499;
142.5000;0.5063;0.9424;
142.8000;0.5047;0.9474;
143.1000;0.5079;0.9499;
143.4000;0.5079;0.9623;
143.7000;0.5079;0.9648;
144.0000;0.5022;0.9673;
144.3000;0.5063;0.9772;
144.6000;0.5079;0.9822;
144.9000;0.5063;0.9847;
145.2000;0.5055;0.9698;
145.5000;0.5071;0.9648;
145.8000;0.5071;0.9549;
146.1000;0.5071;0.9499;
146.4000;0.5055;0.9549;
146.7000;0.5006;0.9474;
147.0000;0.5071;0.9623;
147.3000;0.5071;0.9573;
147.6000;0.5071;0.9549;
147.9000;0.5055;0.9499;
148.2000;0.5079;0.9598;
148.5000;0.5088;0.9573;
148.8000;0.5088;0.9499;
149.1000;0.5088;0.9449;
149.4000;0.5071;0.9424;
149.7000;0.5047;0.9424;
150.0000;0.5071;0.9499;
150.3000;0.5063;0.9524;
150.6000;0.5104;0.9598;
150.9000;0.5079;0.9598;
151.2000;0.5071;0.9573;
151.5000;0.5063;0.9623;
151.8000;0.5063;0.9673;
152.1000;0.5047;0.9598;
152.4000;0.5079;0.9598;
152.7000;0.5047;0.9598;
153.0000;0.5063;0.9549;
153.3000;0.5088;0.9573;
153.6000;0.5063;0.9474;
153.9000;0.5079;0.9474;
154.2000;0.5047;0.9474;
154.5000;0.5088;0.9449;
154.8000;0.5104;0.9549;
155.1000;0.5096;0.9573;
155.4000;0.5088;0.9598;
155.7000;0.5088;0.9499;
156.0000;0.5071;0.9399;
156.3000;0.5063;0.9399;
156.6000;0.5039;0.9424;
156.9000;0.5071;0.9623;
157.2000;0.5063;0.9499;
157.5000;0.5039;0.9424;
157.8000;0.5096;0.9573;
158.1000;0.4998;0.9325;
158.4000;0.5039;0.9375;
158.7000;0.5055;0.9499;
159.0000;0.5063;0.9474;
159.3000;0.5055;0.9375;
159.6000;0.5088;0.9499;
159.9000;0.5079;0.9474;
160.2000;0.5063;0.9499;
160.5000;0.5071;0.9524;
160.8000;0.5128;0.9748;
161.1000;0.5079;0.9673;
161.4000;0.5055;0.9648;
161.7000;0.5055;0.9648;
162.0000;0.5169;0.9946;
162.3000;0.5071;0.9698;
162.6000;0.5063;0.9673;
162.9000;0.5079;0.9748;
163.2000;0.5055;0.9723;
163.5000;0.5055;0.9822;
163.8000;0.5047;0.9772;
164.1000;0.5063;0.9748;
164.4000;0.5079;0.9847;
164.7000;0.5071;0.9872;
165.0000;0.5096;0.9946;
165.3000;0.5071;0.9822;
165.6000;0.5055;0.9822;
165.9000;0.5063;0.9822;
166.2000;0.5039;0.9673;
166.5000;0.5039;0.9748;
166.8000;0.5055;0.9772;
167.1000;0.4998;0.9598;
167.4000;0.5063;0.9748;
167.7000;0.5063;0.9748;
168.0000;0.5071;0.9573;
168.3000;0.5022;0.9499;
168.6000;0.5096;0.9598;
168.9000;0.4990;0.9424;
169.2000;0.5039;0.9573;
169.5000;0.5047;0.9598;
169.8000;0.5088;0.9573;
170.1000;0.5104;0.9623;
170.4000;0.5079;0.9549;
170.7000;0.5031;0.9474;
171.0000;0.5047;0.9499;
171.3000;0.5039;0.9499;
171.6000;0.5096;0.9698;
171.9000;0.5055;0.9623;
172.2000;0.5063;0.9598;
172.5000;0.5088;0.9598;
172.8000;0.5071;0.9648;
173.1000;0.5071;0.9524;
173.4000;0.5071;0.9598;
173.7000;0.5128;0.9723;
174.0000;0.5055;0.9449;
174.3000;0.5071;0.9499;
174.6000;0.5079;0.9598;
174.9000;0.5071;0.9673;
175.2000;0.5071;0.9648;
175.5000;0.5014;0.9399;
175.8000;0.5071;0.9573;
176.1000;0.5071;0.9573;
176.4000;0.5079;0.9573;
176.7000;0.5055;0.9573;
177.0000;0.5079;0.9673;
177.3000;0.5071;0.9648;
177.6000;0.5055;0.9698;
177.9000;0.5055;0.9623;
178.2000;0.5071;0.9573;
178.5000;0.5079;0.9623;
178.8000;0.5088;0.9648;
179.1000;0.5096;0.9723;
179.4000;0.5071;0.9648;
179.7000;0.5055;0.9623;
180.0000;0.5063;0.9648;
180.3000;0.5079;0.9772;
180.6000;0.5079;0.9797;
180.9000;0.5079;0.9772;
181.2000;0.5088;0.9748;
181.5000;0.5079;0.9748;
181.8000;0.5055;0.9698;
182.1000;0.5063;0.9748;
182.4000;0.5071;0.9623;
182.7000;0.5071;0.9623;
183.0000;0.5063;0.9549;
183.3000;0.5055;0.9573;
183.6000;0.5055;0.9474;
183.9000;0.5088;0.9573;
184.2000;0.5071;0.9474;
184.5000;0.5088;0.9499;
184.8000;0.5063;0.9424;
185.1000;0.5063;0.9524;
185.4000;0.5071;0.9524;
185.7000;0.5079;0.9524;
186.0000;0.5120;0.9598;
186.3000;0.5063;0.9499;
186.6000;0.5063;0.9449;
186.9000;0.5063;0.9325;
187.2000;0.5079;0.9350;
187.5000;0.5055;0.9275;
187.8000;0.5071;0.9325;
188.1000;0.5055;0.9300;
188.4000;0.5055;0.9325;
188.7000;0.5071;0.9325;
189.0000;0.5055;0.9300;
189.3000;0.5031;0.9275;
189.6000;0.5071;0.9474;
189.9000;0.5039;0.9474;
190.2000;0.5096;0.9598;
190.5000;0.5104;0.9748;
190.8000;0.5071;0.9698;
191.1000;0.5039;0.9748;
191.4000;0.5079;0.9797;
191.7000;0.5079;0.9772;
192.0000;0.5055;0.9772;
192.3000;0.5047;0.9748;
192.6000;0.5006;0.9623;
192.9000;0.5022;0.9698;
193.2000;0.5047;0.9772;
193.5000;0.5047;0.9797;
193.8000;0.5055;0.9723;
194.1000;0.5063;0.9723;
194.4000;0.5055;0.9648;
194.7000;0.5063;0.9673;
195.0000;0.5071;0.9623;
195.3000;0.5071;0.9673;
195.6000;0.5063;0.9499;
195.9000;0.5039;0.9424;
196.2000;0.5063;0.9474;
196.5000;0.5055;0.9449;
196.8000;0.5063;0.9474;
197.1000;0.5055;0.9399;
197.4000;0.5055;0.9573;
197.7000;0.5055;0.9598;
198.0000;0.5063;0.9648;
198.3000;0.5047;0.9573;
198.6000;0.5055;0.9549;
198.9000;0.5055;0.9524;
199.2000;0.5079;0.9573;
199.5000;0.5063;0.9524;
199.8000;0.5071;0.9499;
200.1000;0.5071;0.9474;
200.4000;0.5079;0.9399;
200.7000;0.5055;0.9300;
201.0000;0.5039;0.9250;
201.3000;0.5047;0.9300;
201.6000;0.5063;0.9399;
201.9000;0.5055;0.9449;
202.2000;0.5039;0.9375;
202.5000;0.5055;0.9399;
202.8000;0.5047;0.9449;
203.1000;0.5039;0.9449;
203.4000;0.5039;0.9375;
203.7000;0.5071;0.9499;
204.0000;0.5014;0.9424;
204.3000;0.5055;0.9474;
204.6000;0.5055;0.9350;
204.9000;0.5071;0.9399;
205.2000;0.5071;0.9499;
205.5000;0.5063;0.9573;
205.8000;0.5047;0.9499;
206.1000;0.5071;0.9549;
206.4000;0.5039;0.9474;
206.7000;0.5055;0.9499;
207.0000;0.5055;0.9623;
207.3000;0.5039;0.9524;
207.6000;0.5047;0.9474;
207.9000;0.5039;0.9474;
208.2000;0.5047;0.9549;
208.5000;0.5063;0.9499;
208.8000;0.5047;0.9474;
209.1000;0.5063;0.9499;
209.4000;0.5071;0.9399;
209.7000;0.5063;0.9350;
210.0000;0.5063;0.9375;
210.3000;0.5063;0.9549;
210.6000;0.5063;0.9623;
210.9000;0.5055;0.9549;
211.2000;0.5055;0.9474;
211.5000;0.5047;0.9424;
211.8000;0.5047;0.9449;
212.1000;0.5047;0.9350;
212.4000;0.5031;0.9300;
212.7000;0.5063;0.9399;
213.0000;0.5063;0.9499;
213.3000;0.5047;0.9499;
213.6000;0.5047;0.9449;
213.9000;0.5063;0.9524;
214.2000;0.5063;0.9499;
214.5000;0.4990;0.9325;
214.8000;0.5055;0.9449;
215.1000;0.5047;0.9474;
215.4000;0.5047;0.9350;
215.7000;0.5063;0.9325;
216.0000;0.5047;0.9250;
216.3000;0.5022;0.9275;
216.6000;0.5088;0.9399;
216.9000;0.5047;0.9350;
217.2000;0.5022;0.9449;
217.5000;0.5047;0.9549;
217.8000;0.5104;0.9772;
218.1000;0.5031;0.9573;
218.4000;0.5039;0.9573;
218.7000;0.4990;0.9424;
219.0000;0.5031;0.9549;
219.3000;0.5047;0.9524;
219.6000;0.5055;0.9598;
219.9000;0.5031;0.9623;
220.2000;0.5031;0.9648;
220.5000;0.5071;0.9673;
220.8000;0.5047;0.9573;
221.1000;0.5047;0.9549;
221.4000;0.5039;0.9549;
221.7000;0.4990;0.9375;
222.0000;0.5022;0.9499;
222.3000;0.5039;0.9499;
222.6000;0.5031;0.9499;
222.9000;0.5039;0.9499;
223.2000;0.5022;0.9499;
223.5000;0.5014;0.9424;
223.8000;0.5047;0.9549;
224.1000;0.5063;0.9573;
224.4000;0.5039;0.9449;
224.7000;0.5047;0.9449;
225.0000;0.5039;0.9424;
225.3000;0.5071;0.9424;
225.6000;0.5031;0.9474;
225.9000;0.5014;0.9499;
226.2000;0.4965;0.9399;
226.5000;0.5039;0.9623;
226.8000;0.5088;0.9723;
227.1000;0.5039;0.9598;
227.4000;0.5014;0.9573;
227.7000;0.5055;0.9648;
228.0000;0.5039;0.9673;
228.3000;0.5039;0.9698;
228.6000;0.5031;0.9648;
228.9000;0.5014;0.9698;
229.2000;0.5055;0.9772;
229.5000;0.5079;0.9723;
229.8000;0.4974;0.9449;
230.1000;0.5039;0.9648;
230.4000;0.5022;0.9623;
230.7000;0.5112;0.9847;
231.0000;0.5047;0.9673;
231.3000;0.5031;0.9598;
231.6000;0.4974;0.9449;
231.9000;0.5031;0.9623;
232.2000;0.5022;0.9524;
232.5000;0.5022;0.9449;
232.8000;0.5039;0.9474;
233.1000;0.5039;0.9424;
233.4000;0.5047;0.9524;
233.7000;0.5055;0.9474;
234.0000;0.5031;0.9424;
234.3000;0.5031;0.9350;
234.6000;0.5039;0.9350;
234.9000;0.5039;0.9325;
235.2000;0.5022;0.9325;
235.5000;0.5047;0.9399;
235.8000;0.5047;0.9300;
236.1000;0.5047;0.9300;
236.4000;0.4998;0.9176;
236.7000;0.5022;0.9250;
237.0000;0.5031;0.9200;
237.3000;0.4998;0.9126;
237.6000;0.5071;0.9375;
237.9000;0.5031;0.9250;
238.2000;0.5006;0.9225;
238.5000;0.5039;0.9275;
238.8000;0.5063;0.9375;
239.1000;0.4982;0.9176;
239.4000;0.5039;0.9399;
239.7000;0.5055;0.9399;
240.0000;0.5063;0.9375;
240.3000;0.5071;0.9375;
240.6000;0.5055;0.9499;
240.9000;0.5055;0.9573;
241.2000;0.4998;0.9474;
241.5000;0.5047;0.9598;
241.8000;0.5006;0.9449;
242.1000;0.5022;0.9524;
242.4000;0.5031;0.9573;
242.7000;0.5022;0.9524;
243.0000;0.5022;0.9499;
243.3000;0.4974;0.9375;
243.6000;0.5014;0.9549;
243.9000;0.5031;0.9524;
244.2000;0.5039;0.9573;
244.5000;0.5047;0.9549;
244.8000;0.5031;0.9449;
245.1000;0.5039;0.9499;
245.4000;0.5039;0.9499;
245.7000;0.4998;0.9449;
246.0000;0.5079;0.9623;
246.3000;0.5039;0.9499;
246.6000;0.5022;0.9524;
246.9000;0.5055;0.9598;
247.2000;0.5047;0.9573;
247.5000;0.4990;0.9375;
247.8000;0.5039;0.9549;
248.1000;0.5079;0.9648;
248.4000;0.5063;0.9723;
248.7000;0.5063;0.9723;
249.0000;0.5031;0.9623;
249.3000;0.5031;0.9648;
249.6000;0.5014;0.9623;
249.9000;0.5039;0.9772;
250.2000;0.5039;0.9698;
250.5000;0.5006;0.9573;
250.8000;0.5031;0.9648;
251.1000;0.5014;0.9549;
251.4000;0.5022;0.9524;
251.7000;0.5014;0.9350;
252.0000;0.5022;0.9399;
252.3000;0.5014;0.9524;
252.6000;0.5031;0.9673;
252.9000;0.5047;0.9723;
253.2000;0.5022;0.9698;
253.5000;0.5022;0.9698;
253.8000;0.4998;0.9673;
254.1000;0.5039;0.9822;
254.4000;0.5022;0.9872;
254.7000;0.5022;0.9946;
255.0000;0.5112;1.0170;
255.3000;0.5022;0.9897;
255.6000;0.5014;0.9872;
255.9000;0.5031;0.9897;
256.2000;0.5022;0.9797;
256.5000;0.5031;0.9872;
256.8000;0.5022;0.9897;
257.1000;0.5031;0.9822;
257.4000;0.5039;0.9822;
257.7000;0.5022;0.9748;
258.0000;0.4998;0.9648;
258.3000;0.5014;0.9698;
258.6000;0.5047;0.9772;
258.9000;0.5047;0.9797;
259.2000;0.5031;0.9872;
259.5000;0.5022;0.9996;
259.8000;0.5031;0.9946;
260.1000;0.5031;0.9946;
260.4000;0.5055;1.0046;
260.7000;0.5022;1.0021;
261.0000;0.5006;0.9971;
261.3000;0.4965;0.9847;
261.6000;0.5014;0.9946;
261.9000;0.5006;0.9897;
262.2000;0.5014;0.9872;
262.5000;0.5022;0.9897;
262.8000;0.4965;0.9723;
263.1000;0.5006;0.9872;
263.4000;0.4990;0.9772;
263.7000;0.5031;0.9723;
264.0000;0.5014;0.9623;
264.3000;0.5022;0.9673;
264.6000;0.5022;0.9648;
264.9000;0.5031;0.9648;
265.2000;0.5022;0.9623;
265.5000;0.5022;0.9598;
265.8000;0.5079;0.9822;
266.1000;0.5022;0.9822;
266.4000;0.5022;0.9847;
266.7000;0.5022;0.9872;
267.0000;0.5039;0.9847;
267.3000;0.5022;0.9822;
267.6000;0.5006;0.9797;
267.9000;0.5022;0.9847;
268.2000;0.4998;0.9822;
268.5000;0.5088;1.0120;
268.8000;0.5031;0.9946;
269.1000;0.5014;0.9847;
269.4000;0.5014;0.9897;
269.7000;0.5022;0.9872;
270.0000;0.5039;0.9847;
270.3000;0.5031;0.9822;
270.6000;0.5014;0.9723;
270.9000;0.5031;0.9673;
271.2000;0.5039;0.9673;
271.5000;0.5014;0.9723;
271.8000;0.5022;0.9748;
272.1000;0.5031;0.9698;
272.4000;0.5022;0.9648;
272.7000;0.5022;0.9648;
273.0000;0.5039;0.9673;
273.3000;0.5022;0.9673;
273.6000;0.5014;0.9698;
273.9000;0.5014;0.9748;
274.2000;0.5014;0.9623;
274.5000;0.5006;0.9623;
274.8000;0.5022;0.9698;
275.1000;0.5031;0.9673;
275.4000;0.5055;0.9698;
275.7000;0.5006;0.9623;
276.0000;0.5022;0.9623;
276.3000;0.5047;0.9698;
276.6000;0.5039;0.9748;
276.9000;0.5014;0.9772;
277.2000;0.5031;0.9673;
277.5000;0.5047;0.9772;
277.8000;0.5031;0.9623;
278.1000;0.5006;0.9524;
278.4000;0.4982;0.9499;
278.7000;0.5022;0.9549;
279.0000;0.5014;0.9573;
279.3000;0.5071;0.9723;
279.6000;0.5039;0.9648;
279.9000;0.5014;0.9648;
280.2000;0.5006;0.9648;
280.5000;0.4990;0.9698;
280.8000;0.4990;0.9648;
281.1000;0.5079;0.9847;
281.4000;0.5022;0.9748;
281.7000;0.5006;0.9648;
282.0000;0.5022;0.9698;
282.3000;0.4990;0.9623;
282.6000;0.5022;0.9623;
282.9000;0.5063;0.9723;
283.2000;0.4998;0.9598;
283.5000;0.5022;0.9648;
283.8000;0.4990;0.9549;
284.1000;0.5022;0.9598;
284.4000;0.4957;0.9449;
284.7000;0.5071;0.9847;
285.0000;0.5031;0.9772;
285.3000;0.5055;0.9822;
285.6000;0.5104;0.9996;
285.9000;0.5022;0.9748;
286.2000;0.4990;0.9772;
286.5000;0.5039;0.9922;
286.8000;0.5014;0.9822;
287.1000;0.5014;0.9748;
287.4000;0.5039;0.9797;
287.7000;0.5022;0.9772;
288.0000;0.5014;0.9748;
288.3000;0.5014;0.9698;
288.6000;0.4982;0.9573;
288.9000;0.5014;0.9723;
289.2000;0.5022;0.9748;
289.5000;0.5014;0.9847;
289.8000;0.4982;0.9897;
290.1000;0.5014;0.9897;
290.4000;0.4990;0.9797;
290.7000;0.5014;0.9797;
291.0000;0.4982;0.9723;
291.3000;0.5063;0.9897;
291.6000;0.5014;0.9872;
291.9000;0.5006;0.9797;
292.2000;0.5022;0.9723;
292.5000;0.4990;0.9673;
292.8000;0.5014;0.9723;
293.1000;0.4998;0.9748;
293.4000;0.4998;0.9797;
293.7000;0.5006;0.9797;
294.0000;0.5006;0.9723;
294.3000;0.5022;0.9748;
294.6000;0.5014;0.9698;
294.9000;0.4998;0.9673;
295.2000;0.5022;0.9772;
295.5000;0.5022;0.9797;
295.8000;0.5014;0.9748;
296.1000;0.4990;0.9698;
296.4000;0.5014;0.9723;
296.7000;0.5014;0.9673;
297.0000;0.5014;0.9673;
297.3000;0.5006;0.9598;
297.6000;0.4974;0.9549;
297.9000;0.4990;0.9549;
298.2000;0.5014;0.9698;
298.5000;0.4998;0.9648;
298.8000;0.5006;0.9623;
299.1000;0.5039;0.9772;
299.4000;0.4990;0.9623;
299.7000;0.4990;0.9673;
300.0000;0.4990;0.9772;
300.3000;0.5014;0.9797;
300.6000;0.5014;0.9847;
300.9000;0.5031;0.9822;
301.2000;0.4998;0.9623;
301.5000;0.4974;0.9549;
301.8000;0.4990;0.9524;
302.1000;0.5006;0.9474;
302.4000;0.4990;0.9424;
302.7000;0.4974;0.9549;
303.0000;0.4990;0.9549;
303.3000;0.4965;0.9524;
303.6000;0.4990;0.9524;
303.9000;0.5022;0.9648;
304.2000;0.5014;0.9698;
304.5000;0.5006;0.9698;
304.8000;0.5031;0.9748;
305.1000;0.5014;0.9723;
305.4000;0.4949;0.9673;
305.7000;0.5031;0.9748;
306.0000;0.5006;0.9648;
306.3000;0.5006;0.9623;
306.6000;0.4990;0.9549;
306.9000;0.4990;0.9474;
307.2000;0.5006;0.9524;
307.5000;0.5006;0.9524;
307.8000;0.5022;0.9673;
308.1000;0.4933;0.9524;
308.4000;0.4982;0.9623;
308.7000;0.4925;0.9424;
309.0000;0.4974;0.9474;
309.3000;0.4998;0.9524;
309.6000;0.5031;0.9673;
309.9000;0.5047;0.9772;
310.2000;0.5006;0.9623;
310.5000;0.4990;0.9549;
310.8000;0.5014;0.9698;
311.1000;0.5006;0.9748;
311.4000;0.4998;0.9748;
311.7000;0.4990;0.9748;
312.0000;0.5014;0.9847;
312.3000;0.5006;0.9772;
312.6000;0.5071;0.9847;
312.9000;0.4990;0.9623;
313.2000;0.5014;0.9673;
313.5000;0.5006;0.9598;
313.8000;0.4998;0.9623;
314.1000;0.4998;0.9648;
314.4000;0.5006;0.9673;
314.7000;0.5039;0.9698;
315.0000;0.5014;0.9648;
315.3000;0.5006;0.9673;
315.6000;0.4990;0.9648;
315.9000;0.4990;0.9673;
316.2000;0.4990;0.9648;
316.5000;0.4933;0.9499;
316.8000;0.5006;0.9772;
317.1000;0.4998;0.9797;
317.4000;0.4998;0.9723;
317.7000;0.4990;0.9772;
318.0000;0.4974;0.9698;
318.3000;0.5031;0.9872;
318.6000;0.5006;0.9822;
318.9000;0.4982;0.9797;
319.2000;0.5055;0.9971;
319.5000;0.5006;0.9872;
319.8000;0.5006;0.9922;
320.1000;0.4974;0.9822;
320.4000;0.4998;0.9897;
320.7000;0.4990;0.9897;
321.0000;0.5006;1.0021;
321.3000;0.4949;0.9822;
321.6000;0.4990;0.9872;
321.9000;0.4990;0.9897;
322.2000;0.4957;0.9698;
322.5000;0.5047;0.9946;
322.8000;0.4974;0.9673;
323.1000;0.4974;0.9673;
323.4000;0.5006;0.9797;
323.7000;0.4982;0.9673;
324.0000;0.4990;0.9698;
324.3000;0.4982;0.9673;
324.6000;0.4982;0.9623;
324.9000;0.4998;0.9772;
325.2000;0.4965;0.9797;
325.5000;0.4941;0.9797;
325.8000;0.4974;0.9946;
326.1000;0.4998;1.0046;
326.4000;0.5055;1.0145;
326.7000;0.4974;0.9946;
327.0000;0.4990;0.9872;
327.3000;0.4908;0.9698;
327.6000;0.4974;0.9822;
327.9000;0.4990;0.9872;
328.2000;0.4990;0.9872;
328.5000;0.4957;0.9822;
328.8000;0.5006;0.9872;
329.1000;0.4998;0.9847;
329.4000;0.4957;0.9698;
329.7000;0.5006;0.9897;
330.0000;0.4990;0.9922;
330.3000;0.4990;0.9897;
330.6000;0.4974;0.9922;
330.9000;0.4990;0.9946;
331.2000;0.4998;0.9946;
331.5000;0.4990;0.9922;
331.8000;0.5031;0.9946;
332.1000;0.4974;0.9847;
332.4000;0.4974;0.9772;
332.7000;0.5014;0.9847;
333.0000;0.4965;0.9748;
333.3000;0.4974;0.9797;
333.6000;0.4974;0.9822;
333.9000;0.4990;0.9797;
334.2000;0.4982;0.9748;
334.5000;0.4974;0.9723;
334.8000;0.4982;0.9673;
335.1000;0.4974;0.9723;
335.4000;0.5006;0.9822;
335.7000;0.4982;0.9847;
336.0000;0.4974;0.9822;
336.3000;0.4998;0.9872;
336.6000;0.5006;0.9847;
336.9000;0.5022;0.9872;
337.2000;0.4990;0.9797;
337.5000;0.4957;0.9698;
337.8000;0.4982;0.9723;
338.1000;0.4982;0.9723;
338.4000;0.4965;0.9723;
338.7000;0.4974;0.9673;
339.0000;0.4974;0.9748;
339.3000;0.4974;0.9673;
339.6000;0.5031;0.9772;
339.9000;0.4957;0.9598;
340.2000;0.4990;0.9673;
340.5000;0.4990;0.9648;
340.8000;0.4982;0.9549;
341.1000;0.4990;0.9673;
341.4000;0.5031;0.9822;
341.7000;0.5039;0.9946;
342.0000;0.4974;0.9872;
342.3000;0.4990;0.9996;
342.6000;0.4974;0.9872;
342.9000;0.5006;0.9996;
343.2000;0.4974;0.9872;
343.5000;0.4982;0.9872;
343.8000;0.4982;0.9872;
344.1000;0.4982;0.9847;
344.4000;0.4982;0.9797;
344.7000;0.4974;0.9822;
345.0000;0.4974;0.9797;
345.3000;0.4990;0.9748;
345.6000;0.4990;0.9698;
345.9000;0.4990;0.9648;
346.2000;0.4982;0.9623;
346.5000;0.4982;0.9698;
346.8000;0.4957;0.9598;
347.1000;0.5006;0.9648;
347.4000;0.4982;0.9549;
347.7000;0.4982;0.9499;
348.0000;0.4982;0.9573;
348.3000;0.4925;0.9399;
348.6000;0.4982;0.9573;
348.9000;0.4998;0.9772;
349.2000;0.4990;0.9748;
349.5000;0.4982;0.9673;
349.8000;0.4990;0.9698;
350.1000;0.4990;0.9673;
350.4000;0.4982;0.9648;
350.7000;0.4990;0.9623;
351.0000;0.4982;0.9598;
351.3000;0.4957;0.9524;
351.6000;0.5006;0.9648;
351.9000;0.4974;0.9648;
352.2000;0.4965;0.9723;
352.5000;0.4990;0.9797;
352.8000;0.4982;0.9673;
353.1000;0.4965;0.9648;
353.4000;0.4974;0.9623;
353.7000;0.4965;0.9623;
354.0000;0.4990;0.9648;
354.3000;0.4990;0.9573;
354.6000;0.4974;0.9449;
354.9000;0.4974;0.9499;
355.2000;0.4982;0.9474;
355.5000;0.4982;0.9524;
355.8000;0.4990;0.9573;
356.1000;0.4974;0.9598;
356.4000;0.4982;0.9723;
356.7000;0.4949;0.9772;
357.0000;0.4957;0.9723;
357.3000;0.4982;0.9822;
357.6000;0.4957;0.9822;
357.9000;0.4990;0.9797;
358.2000;0.4974;0.9723;
358.5000;0.4974;0.9797;
358.8000;0.4982;0.9822;
359.1000;0.4982;0.9872;
359.4000;0.4990;0.9897;
359.7000;0.4998;0.9922;
360.0000;0.4974;0.9946;
360.3000;0.4990;0.9996;
360.6000;0.5014;1.0071;
360.9000;0.4990;0.9946;
361.2000;0.4965;0.9847;
361.5000;0.4982;0.9872;
361.8000;0.4982;0.9797;
362.1000;0.4982;0.9797;
362.4000;0.4965;0.9822;
362.7000;0.5014;0.9797;
363.0000;0.4941;0.9648;
363.3000;0.4957;0.9698;
363.6000;0.4957;0.9698;
363.9000;0.4957;0.9772;
364.2000;0.4998;0.9922;
364.5000;0.4990;0.9922;
364.8000;0.4982;0.9996;
365.1000;0.4982;1.0046;
365.4000;0.4990;1.0071;
365.7000;0.4965;0.9971;
366.0000;0.4974;0.9996;
366.3000;0.4974;1.0046;
366.6000;0.5006;1.0071;
366.9000;0.4990;1.0021;
367.2000;0.4990;0.9971;
367.5000;0.4982;1.0021;
367.8000;0.4982;1.0046;
368.1000;0.4982;1.0021;
368.4000;0.4957;0.9897;
368.7000;0.4965;0.9822;
369.0000;0.4974;0.9847;
369.3000;0.4974;0.9822;
369.6000;0.4965;0.9822;
369.9000;0.4957;0.9772;
370.2000;0.4982;0.9797;
370.5000;0.4957;0.9723;
370.8000;0.4917;0.9573;
371.1000;0.5063;0.9946;
371.4000;0.4941;0.9673;
371.7000;0.4965;0.9797;
372.0000;0.4982;0.9772;
372.3000;0.4965;0.9748;
372.6000;0.4965;0.9698;
372.9000;0.4974;0.9772;
373.2000;0.4965;0.9822;
373.5000;0.4949;0.9872;
373.8000;0.4949;0.9772;
374.1000;0.4892;0.9748;
374.4000;0.4974;0.9946;
374.7000;0.4957;0.9822;
375.0000;0.4949;0.9822;
375.3000;0.4982;0.9922;
375.6000;0.4990;0.9872;
375.9000;0.4957;0.9797;
376.2000;0.4965;0.9797;
376.5000;0.4982;0.9772;
376.8000;0.4998;0.9872;
377.1000;0.4990;0.9847;
377.4000;0.4892;0.9673;
377.7000;0.4957;0.9797;
378.0000;0.4982;0.9897;
378.3000;0.4925;0.9598;
378.6000;0.4998;0.9797;
378.9000;0.4965;0.9797;
379.2000;0.4949;0.9822;
379.5000;0.4965;0.9772;
379.8000;0.5022;0.9946;
380.1000;0.4974;0.9797;
380.4000;0.5063;0.9922;
380.7000;0.4941;0.9573;
381.0000;0.4990;0.9673;
381.3000;0.4982;0.9673;
381.6000;0.5006;0.9698;
381.9000;0.4965;0.9673;
382.2000;0.4990;0.9723;
382.5000;0.4974;0.9673;
382.8000;0.4965;0.9648;
383.1000;0.4982;0.9698;
383.4000;0.4917;0.9474;
383.7000;0.4957;0.9598;
384.0000;0.4957;0.9698;
384.3000;0.4974;0.9623;
384.6000;0.4990;0.9648;
384.9000;0.4974;0.9748;
385.2000;0.4974;0.9748;
385.5000;0.4957;0.9723;
385.8000;0.4974;0.9872;
386.1000;0.4974;0.9922;
386.4000;0.4965;0.9797;
386.7000;0.4998;0.9946;
387.0000;0.4974;0.9847;
387.3000;0.4957;0.9772;
387.6000;0.4957;0.9723;
387.9000;0.4957;0.9698;
388.2000;0.4957;0.9723;
388.5000;0.4933;0.9648;
388.8000;0.4957;0.9673;
389.1000;0.4941;0.9573;
389.4000;0.4965;0.9623;
389.7000;0.4974;0.9623;
390.0000;0.4965;0.9648;
390.3000;0.4982;0.9698;
390.6000;0.4982;0.9698;
390.9000;0.4965;0.9698;
391.2000;0.4982;0.9772;
391.5000;0.4957;0.9772;
391.8000;0.4941;0.9648;
392.1000;0.4925;0.9474;
392.4000;0.4957;0.9573;
392.7000;0.4949;0.9524;
393.0000;0.4957;0.9549;
393.3000;0.4974;0.9673;
393.6000;0.4974;0.9698;
393.9000;0.4941;0.9623;
394.2000;0.4941;0.9598;
394.5000;0.4957;0.9673;
394.8000;0.4965;0.9723;
395.1000;0.4990;0.9772;
395.4000;0.4982;0.9723;
395.7000;0.4957;0.9723;
396.0000;0.4917;0.9648;
396.3000;0.4957;0.9723;
396.6000;0.4974;0.9723;
396.9000;0.4965;0.9723;
397.2000;0.4957;0.9748;
397.5000;0.4949;0.9698;
397.8000;0.4949;0.9623;
398.1000;0.4965;0.9623;
398.4000;0.4990;0.9748;
398.7000;0.4957;0.9723;
399.0000;0.4965;0.9772;
399.3000;0.4957;0.9772;
399.6000;0.4965;0.9772;
399.9000;0.4982;0.9797;
400.2000;0.4965;0.9772;
400.5000;0.4965;0.9723;
400.8000;0.4982;0.9797;
401.1000;0.4965;0.9847;
401.4000;0.5014;0.9897;
401.7000;0.4982;0.9772;
402.0000;0.4974;0.9772;
402.3000;0.4941;0.9748;
402.6000;0.4949;0.9748;
402.9000;0.4965;0.9822;
403.2000;0.4949;0.9847;
403.5000;0.4965;0.9847;
403.8000;0.4990;1.0021;
404.1000;0.4949;0.9946;
404.4000;0.4974;0.9897;
404.7000;0.4965;0.9822;
405.0000;0.4965;0.9797;
405.3000;0.4949;0.9723;
405.6000;0.5079;1.0046;
405.9000;0.4974;0.9797;
406.2000;0.4957;0.9797;
406.5000;0.4957;0.9748;
406.8000;0.4974;0.9723;
407.1000;0.4990;0.9797;
407.4000;0.4949;0.9573;
407.7000;0.4965;0.9698;
408.0000;0.4949;0.9598;
408.3000;0.4949;0.9623;
408.6000;0.4965;0.9723;
408.9000;0.4949;0.9698;
409.2000;0.4949;0.9748;
409.5000;0.4949;0.9723;
409.8000;0.4957;0.9673;
410.1000;0.4860;0.9499;
410.4000;0.4965;0.9723;
410.7000;0.4941;0.9772;
411.0000;0.4941;0.9772;
411.3000;0.4965;0.9723;
411.6000;0.4933;0.9673;
411.9000;0.4949;0.9673;
412.2000;0.4982;0.9673;
412.5000;0.4982;0.9673;
412.8000;0.4965;0.9648;
413.1000;0.4957;0.9673;
413.4000;0.4965;0.9673;
413.7000;0.4957;0.9748;
414.0000;0.4982;0.9822;
414.3000;0.4974;0.9922;
414.6000;0.5014;1.0021;
414.9000;0.4982;0.9797;
415.2000;0.4982;0.9723;
415.5000;0.4965;0.9673;
415.8000;0.4974;0.9698;
416.1000;0.4925;0.9598;
416.4000;0.4974;0.9723;
416.7000;0.4982;0.9847;
417.0000;0.4941;0.9698;
417.3000;0.4957;0.9847;
417.6000;0.4965;0.9946;
417.9000;0.4965;1.0021;
418.2000;0.4933;0.9996;
418.5000;0.4982;1.0145;
418.8000;0.4974;1.0145;
419.1000;0.4900;0.9872;
419.4000;0.4957;0.9971;
419.7000;0.4965;0.9996;
420.0000;0.4990;0.9971;
420.3000;0.4982;0.9872;
420.6000;0.4965;0.9822;
420.9000;0.4998;0.9872;
421.2000;0.4965;0.9872;
421.5000;0.4974;0.9872;
421.8000;0.4965;0.9772;
422.1000;0.4974;0.9822;
422.4000;0.4965;0.9822;
422.7000;0.4957;0.9872;
423.0000;0.4957;0.9797;
423.3000;0.4957;0.9822;
423.6000;0.4949;0.9847;
423.9000;0.4974;0.9922;
424.2000;0.4965;0.9922;
424.5000;0.4957;0.9847;
424.8000;0.4949;0.9897;
425.1000;0.4974;0.9922;
425.4000;0.4974;0.9946;
425.7000;0.4957;0.9996;
426.0000;0.4974;1.0021;
426.3000;0.4949;1.0046;
426.6000;0.4957;1.0096;
426.9000;0.4957;1.0021;
427.2000;0.4965;0.9996;
427.5000;0.4974;1.0046;
427.8000;0.5014;1.0096;
428.1000;0.4965;0.9971;
428.4000;0.4933;0.9897;
428.7000;0.4965;0.9996;
429.0000;0.4941;0.9971;
429.3000;0.4949;0.9996;
429.6000;0.4933;0.9971;
429.9000;0.4949;0.9946;
430.2000;0.4957;0.9872;
430.5000;0.4957;0.9872;
430.8000;0.4965;0.9748;
431.1000;0.4941;0.9723;
431.4000;0.4949;0.9723;
431.7000;0.4933;0.9648;
432.0000;0.4949;0.9698;
432.3000;0.4957;0.9797;
432.6000;0.4941;0.9822;
432.9000;0.4925;0.9772;
433.2000;0.4933;0.9822;
433.5000;0.4974;0.9897;
433.8000;0.4957;0.9847;
434.1000;0.4965;0.9872;
434.4000;0.4949;0.9847;
434.7000;0.4892;0.9623;
435.0000;0.4949;0.9698;
435.3000;0.4957;0.9698;
435.6000;0.5031;0.9971;
435.9000;0.4941;0.9772;
436.2000;0.4957;0.9822;
436.5000;0.4941;0.9822;
436.8000;0.4949;0.9897;
437.1000;0.4965;0.9971;
437.4000;0.4957;0.9996;
437.7000;0.4933;0.9897;
438.0000;0.4957;0.9922;
438.3000;0.4933;0.9822;
438.6000;0.4917;0.9797;
438.9000;0.4884;0.9748;
439.2000;0.4949;0.9897;
439.5000;0.4925;0.9822;
439.8000;0.4990;0.9971;
440.1000;0.4990;1.0071;
440.4000;0.4965;0.9946;
440.7000;0.4933;0.9772;
441.0000;0.4957;0.9822;
441.3000;0.4941;0.9872;
441.6000;0.5063;1.0220;
441.9000;0.4965;0.9996;
442.2000;0.4949;0.9971;
442.5000;0.4900;0.9822;
442.8000;0.4917;0.9922;
443.1000;0.4974;1.0021;
443.4000;0.4949;0.9946;
443.7000;0.4949;0.9971;
444.0000;0.4949;0.9971;
444.3000;0.4949;0.9996;
444.6000;0.4941;0.9996;
444.9000;0.4957;0.9971;
445.2000;0.4957;0.9996;
445.5000;0.4965;0.9922;
445.8000;0.4933;0.9897;
446.1000;0.4957;0.9922;
446.4000;0.4965;1.0046;
446.7000;0.4974;1.0046;
447.0000;0.4974;1.0071;
447.3000;0.4957;1.0046;
447.6000;0.4941;0.9971;
447.9000;0.4949;0.9996;
448.2000;0.4957;0.9922;
448.5000;0.4957;0.9971;
448.8000;0.4949;1.0021;
449.1000;0.4933;0.9922;
449.4000;0.5014;1.0096;
449.7000;0.4957;0.9946;
450.0000;0.4957;0.9996;
450.3000;0.4965;0.9996;
450.6000;0.4884;0.9723;
450.9000;0.4974;0.9922;
451.2000;0.4949;0.9847;
451.5000;0.4965;0.9922;
451.8000;0.4957;0.9946;
452.1000;0.4957;1.0021;
452.4000;0.4941;1.0046;
452.7000;0.4908;0.9996;
453.0000;0.4933;1.0021;
453.3000;0.4941;1.0046;
453.6000;0.4908;0.9946;
453.9000;0.4941;0.9971;
454.2000;0.4949;0.9971;
454.5000;0.4941;0.9897;
454.8000;0.4949;0.9897;
455.1000;0.4949;0.9971;
455.4000;0.4933;0.9971;
455.7000;0.4949;1.0021;
456.0000;0.4974;0.9996;
456.3000;0.4949;0.9946;
456.6000;0.4941;1.0021;
456.9000;0.4957;1.0120;
457.2000;0.4941;1.0170;
457.5000;0.4941;1.0170;
457.8000;0.4949;1.0145;
458.1000;0.4957;1.0195;
458.4000;0.4957;1.0245;
458.7000;0.4957;1.0245;
459.0000;0.4949;1.0120;
459.3000;0.4949;1.0120;
459.6000;0.4949;1.0170;
459.9000;0.4957;1.0046;
460.2000;0.4957;1.0046;
460.5000;0.4933;1.0021;
460.8000;0.4965;0.9996;
461.1000;0.4957;0.9922;
461.4000;0.4957;0.9922;
461.7000;0.4957;0.9922;
462.0000;0.4957;0.9971;
462.3000;0.4933;0.9897;
462.6000;0.4941;0.9847;
462.9000;0.4941;0.9872;
463.2000;0.4941;0.9872;
463.5000;0.4957;0.9897;
463.8000;0.4941;0.9897;
464.1000;0.4933;0.9922;
464.4000;0.4941;0.9922;
464.7000;0.4998;1.0120;
465.0000;0.4925;0.9922;
465.3000;0.4933;0.9946;
465.6000;0.4949;0.9971;
465.9000;0.4941;0.9971;
466.2000;0.4957;0.9996;
466.5000;0.4917;0.9897;
466.8000;0.4957;0.9971;
467.1000;0.4949;0.9922;
467.4000;0.5039;1.0195;
467.7000;0.4941;0.9922;
468.0000;0.4941;0.9922;
468.3000;0.4941;0.9971;
468.6000;0.4949;0.9996;
468.9000;0.4917;0.9946;
469.2000;0.4957;1.0021;
469.5000;0.4908;0.9847;
469.8000;0.4941;0.9872;
470.1000;0.4965;0.9946;
470.4000;0.4941;0.9946;
470.7000;0.4941;0.9922;
471.0000;0.4949;0.9872;
471.3000;0.4941;0.9946;
471.6000;0.4949;0.9971;
471.9000;0.4974;1.0021;
472.2000;0.4949;0.9922;
472.5000;0.4933;0.9922;
472.8000;0.4941;0.9897;
473.1000;0.5039;1.0120;
473.4000;0.4941;0.9872;
473.7000;0.4949;0.9872;
474.0000;0.4941;0.9872;
474.3000;0.4941;0.9847;
474.6000;0.4941;0.9897;
474.9000;0.4941;0.9971;
475.2000;0.4933;0.9872;
475.5000;0.4933;0.9897;
475.8000;0.4949;0.9946;
476.1000;0.4957;0.9872;
476.4000;0.4949;0.9971;
476.7000;0.4917;0.9971;
477.0000;0.4957;0.9996;
477.3000;0.4957;1.0021;
477.6000;0.5039;1.0245;
477.9000;0.4925;0.9946;
478.2000;0.4933;0.9922;
478.5000;0.4925;0.9971;
478.8000;0.4974;1.0120;
479.1000;0.4941;1.0096;
479.4000;0.4941;1.0096;
479.7000;0.4949;1.0120;
480.0000;0.4949;1.0096;
480.3000;0.4949;1.0021;
480.6000;0.4876;0.9897;
480.9000;0.4949;0.9996;
481.2000;0.4941;0.9996;
481.5000;0.4957;0.9971;
481.8000;0.4933;0.9922;
482.1000;0.4949;0.9897;
482.4000;0.4965;0.9946;
482.7000;0.4949;0.9897;
483.0000;0.4965;0.9946;
483.3000;0.4941;0.9996;
483.6000;0.4957;1.0071;
483.9000;0.4949;1.0071;
484.2000;0.4933;1.0096;
484.5000;0.4957;1.0096;
484.8000;0.4941;1.0021;
485.1000;0.4949;1.0071;
485.4000;0.4933;1.0021;
485.7000;0.4949;1.0071;
486.0000;0.4941;1.0120;
486.3000;0.4949;1.0046;
486.6000;0.4941;1.0071;
486.9000;0.4868;0.9872;
487.2000;0.4917;1.0071;
487.5000;0.4933;1.0120;
487.8000;0.4957;1.0170;
488.1000;0.4949;1.0170;
488.4000;0.4917;0.9996;
488.7000;0.4941;0.9971;
489.0000;0.5014;1.0220;
489.3000;0.4974;1.0096;
489.6000;0.4917;0.9897;
489.9000;0.4941;0.9922;
490.2000;0.4941;0.9922;
490.5000;0.4917;0.9847;
490.8000;0.4925;0.9872;
491.1000;0.4908;0.9897;
491.4000;0.4925;0.9996;
491.7000;0.4957;1.0021;
492.0000;0.4933;1.0021;
492.3000;0.4933;0.9922;
492.6000;0.4941;0.9847;
492.9000;0.4941;0.9922;
493.2000;0.4933;0.9996;
493.5000;0.4892;0.9922;
493.8000;0.4957;0.9996;
494.1000;0.4925;1.0021;
494.4000;0.4941;1.0021;
494.7000;0.4941;1.0021;
495.0000;0.4933;0.9996;
495.3000;0.4949;1.0071;
495.6000;0.4957;1.0096;
495.9000;0.4933;0.9996;
496.2000;0.4917;1.0071;
496.5000;0.4965;1.0071;
496.8000;0.4941;0.9996;
497.1000;0.4957;1.0021;
497.4000;0.4933;0.9971;
497.7000;0.4941;0.9946;
498.0000;0.4933;0.9946;
498.3000;0.4941;0.9996;
498.6000;0.4949;0.9971;
498.9000;0.4941;0.9971;
499.2000;0.4949;1.0046;
499.5000;0.4933;1.0096;
499.8000;0.4884;0.9971;
500.1000;0.4957;1.0120;
500.4000;0.4974;1.0046;
500.7000;0.4957;0.9971;
501.0000;0.4933;1.0021;
501.3000;0.4925;0.9971;
501.6000;0.4941;1.0046;
501.9000;0.4925;1.0021;
502.2000;0.4884;0.9872;
502.5000;0.4925;1.0021;
502.8000;0.4941;1.0096;
503.1000;0.4933;1.0120;
503.4000;0.4933;1.0071;
503.7000;0.4925;1.0071;
504.0000;0.4941;1.0195;
504.3000;0.4941;1.0220;
504.6000;0.4925;1.0120;
504.9000;0.4933;1.0145;
505.2000;0.4949;1.0071;
505.5000;0.4949;1.0071;
505.8000;0.4925;1.0021;
506.1000;0.4908;0.9971;
506.4000;0.4917;0.9996;
506.7000;0.4941;1.0170;
507.0000;0.4949;1.0245;
507.3000;0.4925;1.0195;
507.6000;0.4933;1.0270;
507.9000;0.4949;1.0195;
508.2000;0.4925;1.0145;
508.5000;0.5006;1.0295;
508.8000;0.4933;1.0071;
509.1000;0.4908;1.0021;
509.4000;0.4949;1.0145;
509.7000;0.4925;1.0195;
510.0000;0.4957;1.0295;
510.3000;0.4982;1.0270;
510.6000;0.4941;1.0170;
510.9000;0.4941;1.0120;
511.2000;0.4908;1.0195;
511.5000;0.4965;1.0344;
511.8000;0.4941;1.0344;
512.1000;0.4941;1.0270;
512.4000;0.5022;1.0493;
512.7000;0.4933;1.0170;
513.0000;0.4941;1.0220;
513.3000;0.4933;1.0170;
513.6000;0.4917;1.0096;
513.9000;0.4917;1.0021;
514.2000;0.4941;1.0071;
514.5000;0.4925;1.0096;
514.8000;0.4957;1.0145;
515.1000;0.4892;0.9996;
515.4000;0.4933;1.0096;
515.7000;0.4933;1.0096;
516.0000;0.4933;1.0170;
516.3000;0.4925;1.0096;
516.6000;0.4900;1.0046;
516.9000;0.4949;1.0195;
517.2000;0.4933;1.0096;
517.5000;0.4925;1.0145;
517.8000;0.4933;1.0170;
518.1000;0.4933;1.0170;
518.4000;0.4933;1.0220;
518.7000;0.4925;1.0220;
519.0000;0.4949;1.0270;
519.3000;0.4925;1.0170;
519.6000;0.4917;1.0145;
519.9000;0.4998;1.0270;
520.2000;0.4892;1.0096;
520.5000;0.4941;1.0220;
520.8000;0.4974;1.0270;
521.1000;0.4917;1.0096;
521.4000;0.4908;1.0046;
521.7000;0.4965;1.0145;
522.0000;0.4925;1.0021;
522.3000;0.4925;0.9996;
522.6000;0.4941;0.9946;
522.9000;0.4941;0.9872;
523.2000;0.4933;0.9922;
523.5000;0.4933;0.9971;
523.8000;0.4941;1.0071;
524.1000;0.4933;1.0021;
524.4000;0.4917;1.0071;
524.7000;0.4941;1.0021;
525.0000;0.4917;0.9971;
525.3000;0.4917;0.9946;
525.6000;0.4925;0.9996;
525.9000;0.4933;0.9897;
526.2000;0.4933;1.0021;
526.5000;0.4917;0.9946;
526.8000;0.4917;1.0046;
527.1000;0.4933;1.0145;
527.4000;0.4941;1.0245;
527.7000;0.4900;1.0170;
528.0000;0.4925;1.0170;
528.3000;0.4925;1.0220;
528.6000;0.4933;1.0145;
528.9000;0.4925;1.0145;
529.2000;0.4892;1.0096;
529.5000;0.4900;1.0220;
529.8000;0.4925;1.0220;
530.1000;0.4965;1.0319;
530.4000;0.4925;1.0245;
530.7000;0.4925;1.0295;
531.0000;0.4925;1.0319;
531.3000;0.4925;1.0344;
531.6000;0.4917;1.0245;
531.9000;0.4949;1.0220;
532.2000;0.4908;1.0096;
532.5000;0.4908;1.0096;
532.8000;0.4925;1.0170;
533.1000;0.4917;1.0096;
533.4000;0.4933;1.0270;
533.7000;0.4933;1.0270;
534.0000;0.4917;1.0245;
534.3000;0.4957;1.0344;
534.6000;0.4925;1.0295;
534.9000;0.4941;1.0344;
535.2000;0.4925;1.0245;
535.5000;0.4917;1.0170;
535.8000;0.4949;1.0270;
536.1000;0.4900;1.0195;
536.4000;0.4925;1.0295;
536.7000;0.4933;1.0394;
537.0000;0.4949;1.0444;
537.3000;0.4957;1.0369;
537.6000;0.4925;1.0369;
537.9000;0.4949;1.0419;
538.2000;0.4933;1.0369;
538.5000;0.4941;1.0369;
538.8000;0.4941;1.0319;
539.1000;0.4925;1.0245;
539.4000;0.4917;1.0270;
539.7000;0.4933;1.0270;
540.0000;0.4949;1.0220;
540.3000;0.4941;1.0245;
540.6000;0.4925;1.0145;
540.9000;0.4933;1.0120;
541.2000;0.4974;1.0220;
541.5000;0.4917;1.0120;
541.8000;0.4892;1.0170;
542.1000;0.4933;1.0270;
542.4000;0.4941;1.0245;
542.7000;0.4917;1.0220;
543.0000;0.4925;1.0270;
543.3000;0.4925;1.0319;
543.6000;0.4925;1.0344;
543.9000;0.4917;1.0394;
544.2000;0.4925;1.0369;
544.5000;0.4917;1.0245;
544.8000;0.4925;1.0270;
545.1000;0.4933;1.0245;
545.4000;0.4933;1.0195;
545.7000;0.4925;1.0195;
546.0000;0.4949;1.0344;
546.3000;0.4941;1.0344;
546.6000;0.4933;1.0295;
546.9000;0.4957;1.0295;
547.2000;0.4892;1.0170;
547.5000;0.4933;1.0270;
547.8000;0.4933;1.0295;
548.1000;0.4925;1.0295;
548.4000;0.4884;1.0220;
548.7000;0.4868;1.0096;
549.0000;0.4925;1.0170;
549.3000;0.4957;1.0220;
549.6000;0.4917;1.0071;
549.9000;0.4908;1.0145;
550.2000;0.4925;1.0170;
550.5000;0.4925;1.0145;
550.8000;0.4917;1.0145;
551.1000;0.4933;1.0145;
551.4000;0.4925;1.0046;
551.7000;0.4933;1.0120;
552.0000;0.4925;1.0046;
552.3000;0.4949;1.0120;
552.6000;0.4933;1.0120;
552.9000;0.4908;1.0046;
553.2000;0.4941;1.0071;
553.5000;0.4925;1.0071;
553.8000;0.4925;1.0071;
554.1000;0.4925;1.0195;
554.4000;0.4860;1.0046;
554.7000;0.4908;1.0096;
555.0000;0.4933;1.0120;
555.3000;0.4925;1.0220;
555.6000;0.4917;1.0195;
555.9000;0.4925;1.0170;
556.2000;0.4925;1.0195;
556.5000;0.4941;1.0145;
556.8000;0.4925;1.0120;
557.1000;0.4933;1.0195;
557.4000;0.4917;1.0120;
557.7000;0.4933;1.0245;
558.0000;0.4908;1.0220;
558.3000;0.4925;1.0319;
558.6000;0.4941;1.0295;
558.9000;0.4917;1.0145;
559.2000;0.4933;1.0170;
559.5000;0.4908;1.0096;
559.8000;0.4925;0.9996;
560.1000;0.4949;1.0071;
560.4000;0.4925;1.0021;
560.7000;0.4908;0.9971;
561.0000;0.4933;1.0096;
561.3000;0.4925;1.0071;
561.6000;0.4925;1.0120;
561.9000;0.4925;1.0120;
562.2000;0.4917;1.0170;
562.5000;0.4949;1.0220;
562.8000;0.4908;1.0170;
563.1000;0.4908;1.0071;
563.4000;0.4933;1.0096;
563.7000;0.4925;1.0120;
564.0000;0.4917;1.0096;
564.3000;0.4933;1.0145;
564.6000;0.4949;1.0195;
564.9000;0.4908;1.0220;
565.2000;0.4933;1.0220;
565.5000;0.4941;1.0270;
565.8000;0.4843;0.9971;
566.1000;0.4917;1.0220;
566.4000;0.4933;1.0220;
566.7000;0.4925;1.0220;
567.0000;0.4925;1.0245;
567.3000;0.4925;1.0220;
567.6000;0.4900;1.0170;
567.9000;0.4925;1.0245;
568.2000;0.4941;1.0319;
568.5000;0.4933;1.0295;
568.8000;0.4925;1.0195;
569.1000;0.4908;1.0170;
569.4000;0.4925;1.0270;
569.7000;0.4917;1.0245;
570.0000;0.4925;1.0195;
570.3000;0.4941;1.0220;
570.6000;0.4908;1.0195;
570.9000;0.4892;1.0145;
571.2000;0.4933;1.0195;
571.5000;0.4925;1.0170;
571.8000;0.4917;1.0096;
572.1000;0.4908;1.0046;
572.4000;0.4949;1.0170;
572.7000;0.4982;1.0145;
573.0000;0.4908;0.9996;
573.3000;0.4868;0.9996;
573.6000;0.4925;1.0145;
573.9000;0.4925;1.0071;
574.2000;0.4892;0.9996;
574.5000;0.4819;0.9847;
574.8000;0.4900;1.0096;
575.1000;0.4917;1.0096;
575.4000;0.4900;1.0071;
575.7000;0.4917;1.0096;
576.0000;0.4917;1.0071;
576.3000;0.4925;1.0096;
576.6000;0.4908;0.9971;
576.9000;0.4917;0.9946;
577.2000;0.4917;1.0071;
577.5000;0.4933;1.0071;
577.8000;0.4933;1.0120;
578.1000;0.4941;1.0120;
578.4000;0.4933;0.9996;
578.7000;0.4941;1.0096;
579.0000;0.4941;1.0096;
579.3000;0.4998;1.0270;
579.6000;0.4941;1.0120;
579.9000;0.4941;1.0071;
580.2000;0.4965;1.0245;
580.5000;0.4990;1.0295;
580.8000;0.4925;1.0195;
581.1000;0.4925;1.0220;
581.4000;0.4900;1.0195;
581.7000;0.4925;1.0145;
582.0000;0.4925;1.0195;
582.3000;0.4925;1.0120;
582.6000;0.4917;1.0120;
582.9000;0.4917;1.0071;
583.2000;0.4868;0.9897;
583.5000;0.4917;1.0046;
583.8000;0.4900;0.9971;
584.1000;0.4908;1.0021;
584.4000;0.4908;1.0021;
584.7000;0.4900;1.0021;
585.0000;0.4876;0.9946;
585.3000;0.4917;0.9996;
585.6000;0.4908;1.0046;
585.9000;0.4908;1.0096;
586.2000;0.4917;1.0145;
586.5000;0.4900;1.0046;
586.8000;0.4908;1.0046;
587.1000;0.4917;1.0096;
587.4000;0.4908;1.0071;
587.7000;0.4917;0.9996;
588.0000;0.4917;0.9971;
588.3000;0.4900;1.0021;
588.6000;0.4900;0.9996;
588.9000;0.4908;1.0046;
589.2000;0.4908;1.0021;
589.5000;0.4925;1.0021;
589.8000;0.4917;0.9971;
590.1000;0.4949;1.0021;
590.4000;0.4933;1.0120;
590.7000;0.4917;1.0120;
591.0000;0.4908;1.0096;
591.3000;0.4917;1.0071;
591.6000;0.4917;1.0071;
591.9000;0.4933;1.0046;
592.2000;0.4982;1.0170;
592.5000;0.4892;0.9946;
592.8000;0.4908;0.9971;
593.1000;0.4908;0.9897;
593.4000;0.4917;0.9971;
593.7000;0.4908;1.0021;
594.0000;0.4933;1.0021;
594.3000;0.4933;1.0021;
594.6000;0.4868;0.9971;
594.9000;0.4949;1.0071;
595.2000;0.4892;1.0021;
595.5000;0.4933;1.0145;
595.8000;0.4933;1.0195;
596.1000;0.4917;1.0096;
596.4000;0.4900;0.9946;
596.7000;0.4933;1.0046;
597.0000;0.4917;1.0096;
597.3000;0.4933;1.0195;
597.6000;0.4900;1.0295;
597.9000;0.4925;1.0469;
598.2000;0.4941;1.0469;
598.5000;0.4925;1.0295;
598.8000;0.4908;1.0295;
599.1000;0.4925;1.0369;
599.4000;0.4957;1.0493;
599.7000;0.4908;1.0419;
600.0000;0.4908;1.0444;
600.3000;0.4917;1.0319;
600.6000;0.4900;1.0195;
600.9000;0.4835;0.9996;
601.2000;0.4794;0.9922;
601.5000;0.4746;0.9598;
601.8000;0.4558;0.9151;
602.1000;0.4583;0.9225;
602.4000;0.4542;0.9076;
602.7000;0.4461;0.8852;
603.0000;0.4420;0.8678;
603.3000;0.4379;0.8604;
603.6000;0.4314;0.8454;
603.9000;0.4274;0.8355;
604.2000;0.4241;0.8280;
604.5000;0.4200;0.8231;
604.8000;0.4192;0.8256;
605.1000;0.4151;0.8156;
605.4000;0.4119;0.8106;
605.7000;0.4062;0.7932;
606.0000;0.4062;0.7957;
606.3000;0.4005;0.7883;
606.6000;0.4021;0.7833;
606.9000;0.4046;0.7957;
607.2000;0.3989;0.7907;
607.5000;0.3956;0.7808;
607.8000;0.3964;0.7733;
608.1000;0.3964;0.7733;
608.4000;0.3907;0.7559;
608.7000;0.3899;0.7584;
609.0000;0.3867;0.7510;
609.3000;0.3875;0.7584;
609.6000;0.3875;0.7584;
609.9000;0.3810;0.7435;
610.2000;0.3842;0.7435;
610.5000;0.3826;0.7410;
610.8000;0.3834;0.7485;
611.1000;0.3818;0.7435;
611.4000;0.3801;0.7385;
611.7000;0.3785;0.7286;
612.0000;0.3810;0.7435;
612.3000;0.3818;0.7410;
612.6000;0.3793;0.7435;
612.9000;0.3785;0.7360;
613.2000;0.3769;0.7311;
613.5000;0.3753;0.7261;
613.8000;0.3769;0.7286;
614.1000;0.3753;0.7261;
614.4000;0.3736;0.7311;
614.7000;0.3753;0.7460;
615.0000;0.3720;0.7335;
615.3000;0.3720;0.7385;
615.6000;0.3696;0.7286;
615.9000;0.3712;0.7385;
616.2000;0.3704;0.7311;
616.5000;0.3712;0.7261;
616.8000;0.3801;0.7534;
617.1000;0.3696;0.7311;
617.4000;0.3696;0.7311;
617.7000;0.3720;0.7410;
618.0000;0.3671;0.7335;
618.3000;0.3679;0.7311;
618.6000;0.3696;0.7360;
618.9000;0.3663;0.7360;
619.2000;0.3655;0.7335;
619.5000;0.3655;0.7410;
619.8000;0.3663;0.7510;
620.1000;0.3639;0.7435;
620.4000;0.3647;0.7385;
620.7000;0.3655;0.7460;
621.0000;0.3655;0.7435;
621.3000;0.3655;0.7410;
621.6000;0.3622;0.7261;
621.9000;0.3630;0.7385;
622.2000;0.3639;0.7410;
622.5000;0.3622;0.7360;
622.8000;0.3606;0.7435;
623.1000;0.3598;0.7435;
623.4000;0.3598;0.7485;
623.7000;0.3622;0.7510;
624.0000;0.3606;0.7410;
624.3000;0.3606;0.7485;
624.6000;0.3590;0.7485;
624.9000;0.3614;0.7510;
625.2000;0.3590;0.7460;
625.5000;0.3590;0.7360;
625.8000;0.3590;0.7335;
626.1000;0.3590;0.7335;
626.4000;0.3598;0.7261;
626.7000;0.3557;0.7311;
627.0000;0.3639;0.7559;
627.3000;0.3598;0.7410;
627.6000;0.3582;0.7335;
627.9000;0.3590;0.7335;
628.2000;0.3541;0.7360;
628.5000;0.3549;0.7335;
628.8000;0.3582;0.7385;
629.1000;0.3541;0.7311;
629.4000;0.3549;0.7236;
629.7000;0.3557;0.7410;
630.0000;0.3557;0.7485;
630.3000;0.3606;0.7584;
630.6000;0.3541;0.7485;
630.9000;0.3549;0.7460;
631.2000;0.3516;0.7410;
631.5000;0.3549;0.7460;
631.8000;0.3557;0.7534;
632.1000;0.3557;0.7485;
632.4000;0.3516;0.7385;
632.7000;0.3549;0.7510;
633.0000;0.3541;0.7485;
633.3000;0.3500;0.7435;
633.6000;0.3525;0.7485;
633.9000;0.3508;0.7435;
634.2000;0.3525;0.7385;
634.5000;0.3516;0.7335;
634.8000;0.3516;0.7360;
635.1000;0.3492;0.7286;
635.4000;0.3508;0.7335;
635.7000;0.3508;0.7410;
636.0000;0.3541;0.7435;
636.3000;0.3533;0.7335;
636.6000;0.3525;0.7286;
636.9000;0.3500;0.7286;
637.2000;0.3533;0.7286;
637.5000;0.3525;0.7360;
637.8000;0.3516;0.7311;
638.1000;0.3525;0.7435;
638.4000;0.3476;0.7385;
638.7000;0.3492;0.7360;
639.0000;0.3508;0.7410;
639.3000;0.3500;0.7360;
639.6000;0.3492;0.7311;
639.9000;0.3516;0.7435;
640.2000;0.3492;0.7435;
640.5000;0.3476;0.7360;
640.8000;0.3492;0.7385;
641.1000;0.3476;0.7460;
641.4000;0.3492;0.7559;
641.7000;0.3492;0.7485;
642.0000;0.3508;0.7510;
642.3000;0.3500;0.7485;
642.6000;0.3468;0.7435;
642.9000;0.3468;0.7460;
643.2000;0.3468;0.7485;
643.5000;0.3468;0.7485;
643.8000;0.3468;0.7510;
644.1000;0.3476;0.7485;
644.4000;0.3451;0.7335;
644.7000;0.3443;0.7261;
645.0000;0.3468;0.7311;
645.3000;0.3451;0.7236;
645.6000;0.3460;0.7236;
645.9000;0.3468;0.7261;
646.2000;0.3468;0.7360;
646.5000;0.3492;0.7485;
646.8000;0.3468;0.7435;
647.1000;0.3468;0.7385;
647.4000;0.3476;0.7410;
647.7000;0.3468;0.7311;
648.0000;0.3460;0.7311;
648.3000;0.3468;0.7360;
648.6000;0.3468;0.7435;
648.9000;0.3484;0.7485;
649.2000;0.3460;0.7311;
649.5000;0.3460;0.7335;
649.8000;0.3460;0.7286;
650.1000;0.3476;0.7410;
650.4000;0.3451;0.7286;
650.7000;0.3378;0.7137;
651.0000;0.3451;0.7311;
651.3000;0.3443;0.7360;
651.6000;0.3435;0.7435;
651.9000;0.3443;0.7335;
652.2000;0.3419;0.7311;
652.5000;0.3443;0.7385;
652.8000;0.3435;0.7286;
653.1000;0.3443;0.7360;
653.4000;0.3443;0.7385;
653.7000;0.3443;0.7460;
654.0000;0.3419;0.7385;
654.3000;0.3443;0.7410;
654.6000;0.3411;0.7286;
654.9000;0.3411;0.7286;
655.2000;0.3443;0.7335;
655.5000;0.3427;0.7311;
655.8000;0.3435;0.7335;
656.1000;0.3411;0.7211;
656.4000;0.3435;0.7236;
656.7000;0.3443;0.7261;
657.0000;0.3362;0.7037;
657.3000;0.3427;0.7236;
657.6000;0.3435;0.7360;
657.9000;0.3419;0.7335;
658.2000;0.3403;0.7236;
658.5000;0.3435;0.7385;
658.8000;0.3419;0.7435;
659.1000;0.3460;0.7634;
659.4000;0.3427;0.7584;
659.7000;0.3419;0.7559;
660.0000;0.3419;0.7460;
660.3000;0.3403;0.7485;
660.6000;0.3411;0.7385;
660.9000;0.3411;0.7410;
661.2000;0.3427;0.7385;
661.5000;0.3411;0.7410;
661.8000;0.3427;0.7510;
662.1000;0.3419;0.7435;
662.4000;0.3403;0.7385;
662.7000;0.3419;0.7435;
663.0000;0.3411;0.7410;
663.3000;0.3411;0.7311;
663.6000;0.3370;0.7211;
663.9000;0.3411;0.7410;
664.2000;0.3386;0.7360;
664.5000;0.3411;0.7335;
664.8000;0.3403;0.7335;
665.1000;0.3419;0.7510;
665.4000;0.3427;0.7460;
665.7000;0.3468;0.7609;
666.0000;0.3403;0.7385;
666.3000;0.3394;0.7485;
666.6000;0.3443;0.7584;
666.9000;0.3386;0.7510;
667.2000;0.3394;0.7460;
667.5000;0.3394;0.7460;
667.8000;0.3394;0.7485;
668.1000;0.3386;0.7311;
668.4000;0.3354;0.7286;
668.7000;0.3403;0.7435;
669.0000;0.3370;0.7460;
669.3000;0.3362;0.7435;
669.6000;0.3386;0.7460;
669.9000;0.3394;0.7510;
670.2000;0.3411;0.7510;
670.5000;0.3419;0.7510;
670.8000;0.3394;0.7584;
671.1000;0.3394;0.7584;
671.4000;0.3321;0.7559;
671.7000;0.3394;0.7659;
672.0000;0.3386;0.7609;
672.3000;0.3394;0.7659;
672.6000;0.3386;0.7684;
672.9000;0.3394;0.7659;
673.2000;0.3386;0.7559;
673.5000;0.3370;0.7559;
673.8000;0.3370;0.7584;
674.1000;0.3386;0.7609;
674.4000;0.3354;0.7609;
674.7000;0.3362;0.7634;
675.0000;0.3419;0.7783;
675.3000;0.3378;0.7708;
675.6000;0.3370;0.7684;
675.9000;0.3362;0.7684;
676.2000;0.3370;0.7659;
676.5000;0.3362;0.7634;
676.8000;0.3394;0.7783;
677.1000;0.3394;0.7733;
677.4000;0.3378;0.7559;
677.7000;0.3370;0.7534;
678.0000;0.3378;0.7559;
678.3000;0.3370;0.7510;
678.6000;0.3354;0.7460;
678.9000;0.3346;0.7435;
679.2000;0.3378;0.7485;
679.5000;0.3378;0.7485;
679.8000;0.3378;0.7559;
680.1000;0.3378;0.7510;
680.4000;0.3354;0.7385;
680.7000;0.3362;0.7311;
681.0000;0.3354;0.7286;
681.3000;0.3370;0.7510;
681.6000;0.3362;0.7435;
681.9000;0.3362;0.7385;
682.2000;0.3394;0.7360;
682.5000;0.3370;0.7261;
682.8000;0.3370;0.7236;
683.1000;0.3403;0.7261;
683.4000;0.3419;0.7286;
683.7000;0.3362;0.7261;
684.0000;0.3362;0.7211;
684.3000;0.3370;0.7261;
684.6000;0.3386;0.7335;
684.9000;0.3362;0.7236;
685.2000;0.3362;0.7286;
685.5000;0.3354;0.7286;
685.8000;0.3370;0.7211;
686.1000;0.3362;0.7335;
686.4000;0.3346;0.7311;
686.7000;0.3370;0.7410;
687.0000;0.3378;0.7485;
687.3000;0.3370;0.7435;
687.6000;0.3362;0.7510;
687.9000;0.3337;0.7385;
688.2000;0.3346;0.7385;
688.5000;0.3337;0.7435;
688.8000;0.3337;0.7460;
689.1000;0.3346;0.7485;
689.4000;0.3337;0.7460;
689.7000;0.3354;0.7460;
690.0000;0.3354;0.7435;
690.3000;0.3337;0.7311;
690.6000;0.3354;0.7360;
690.9000;0.3289;0.7236;
691.2000;0.3362;0.7410;
691.5000;0.3362;0.7510;
691.8000;0.3346;0.7460;
692.1000;0.3305;0.7410;
692.4000;0.3346;0.7534;
692.7000;0.3362;0.7510;
693.0000;0.3370;0.7584;
693.3000;0.3272;0.7311;
693.6000;0.3337;0.7485;
693.9000;0.3329;0.7360;
694.2000;0.3321;0.7286;
694.5000;0.3354;0.7335;
694.8000;0.3346;0.7360;
695.1000;0.3329;0.7311;
695.4000;0.3289;0.7236;
695.7000;0.3337;0.7460;
696.0000;0.3337;0.7510;
696.3000;0.3337;0.7485;
696.6000;0.3337;0.7460;
696.9000;0.3329;0.7460;
697.2000;0.3337;0.7460;
697.5000;0.3386;0.7584;
697.8000;0.3321;0.7460;
698.1000;0.3337;0.7410;
698.4000;0.3354;0.7485;
698.7000;0.3329;0.7385;
699.0000;0.3321;0.7410;
699.3000;0.3313;0.7286;
699.6000;0.3321;0.7360;
699.9000;0.3321;0.7460;
700.2000;0.3321;0.7460;
700.5000;0.3354;0.7485;
700.8000;0.3313;0.7435;
701.1000;0.3337;0.7410;
701.4000;0.3329;0.7435;
701.7000;0.3313;0.7485;
702.0000;0.3370;0.7584;
702.3000;0.3337;0.7410;
702.6000;0.3321;0.7435;
702.9000;0.3321;0.7410;
703.2000;0.3370;0.7510;
703.5000;0.3289;0.7261;
703.8000;0.3329;0.7360;
704.1000;0.3337;0.7435;
704.4000;0.3313;0.7335;
704.7000;0.3313;0.7385;
705.0000;0.3321;0.7485;
705.3000;0.3297;0.7435;
705.6000;0.3297;0.7410;
705.9000;0.3305;0.7410;
706.2000;0.3337;0.7385;
706.5000;0.3329;0.7385;
706.8000;0.3313;0.7410;
707.1000;0.3329;0.7534;
707.4000;0.3329;0.7534;
707.7000;0.3427;0.7708;
708.0000;0.3280;0.7311;
708.3000;0.3337;0.7460;
708.6000;0.3346;0.7460;
708.9000;0.3305;0.7435;
709.2000;0.3313;0.7510;
709.5000;0.3313;0.7485;
709.8000;0.3248;0.7311;
710.1000;0.3337;0.7510;
710.4000;0.3346;0.7584;
710.7000;0.3329;0.7534;
711.0000;0.3321;0.7485;
711.3000;0.3329;0.7510;
711.6000;0.3313;0.7510;
711.9000;0.3305;0.7510;
712.2000;0.3313;0.7460;
712.5000;0.3329;0.7460;
712.8000;0.3289;0.7360;
713.1000;0.3297;0.7385;
713.4000;0.3305;0.7410;
713.7000;0.3329;0.7510;
714.0000;0.3329;0.7485;
714.3000;0.3297;0.7385;
714.6000;0.3305;0.7335;
714.9000;0.3321;0.7311;
715.2000;0.3346;0.7510;
715.5000;0.3297;0.7435;
715.8000;0.3297;0.7360;
716.1000;0.3305;0.7311;
716.4000;0.3321;0.7335;
716.7000;0.3313;0.7286;
717.0000;0.3313;0.7311;
717.3000;0.3321;0.7311;
717.6000;0.3321;0.7385;
717.9000;0.3305;0.7435;
718.2000;0.3313;0.7559;
718.5000;0.3297;0.7460;
718.8000;0.3313;0.7435;
719.1000;0.3289;0.7360;
719.4000;0.3313;0.7435;
719.7000;0.3313;0.7485;
720.0000;0.3313;0.7609;
720.3000;0.3240;0.7485;
720.6000;0.3297;0.7684;
720.9000;0.3297;0.7634;
721.2000;0.3289;0.7510;
721.5000;0.3305;0.7510;
721.8000;0.3289;0.7534;
722.1000;0.3313;0.7609;
722.4000;0.3305;0.7684;
722.7000;0.3280;0.7659;
723.0000;0.3280;0.7609;
723.3000;0.3313;0.7634;
723.6000;0.3297;0.7584;
723.9000;0.3313;0.7584;
724.2000;0.3280;0.7534;
724.5000;0.3305;0.7510;
724.8000;0.3280;0.7410;
725.1000;0.3289;0.7360;
725.4000;0.3264;0.7385;
725.7000;0.3289;0.7385;
726.0000;0.3272;0.7286;
726.3000;0.3313;0.7261;
726.6000;0.3313;0.7261;
726.9000;0.3280;0.7311;
727.2000;0.3354;0.7435;
727.5000;0.3378;0.7435;
727.8000;0.3370;0.7435;
728.1000;0.3297;0.7236;
728.4000;0.3297;0.7286;
728.7000;0.3313;0.7335;
729.0000;0.3305;0.7261;
729.3000;0.3305;0.7186;
729.6000;0.3305;0.7335;
729.9000;0.3297;0.7360;
730.2000;0.3280;0.7460;
730.5000;0.3215;0.7311;
730.8000;0.3272;0.7485;
731.1000;0.3272;0.7435;
731.4000;0.3289;0.7485;
731.7000;0.3329;0.7609;
732.0000;0.3280;0.7510;
732.3000;0.3272;0.7485;
732.6000;0.3313;0.7634;
732.9000;0.3248;0.7485;
733.2000;0.3272;0.7559;
733.5000;0.3289;0.7609;
733.8000;0.3289;0.7684;
734.1000;0.3280;0.7708;
734.4000;0.3256;0.7584;
734.7000;0.3280;0.7534;
735.0000;0.3280;0.7460;
735.3000;0.3297;0.7510;
735.6000;0.3329;0.7559;
735.9000;0.3272;0.7410;
736.2000;0.3321;0.7559;
736.5000;0.3280;0.7460;
736.8000;0.3280;0.7534;
737.1000;0.3256;0.7485;
737.4000;0.3264;0.7510;
737.7000;0.3248;0.7485;
738.0000;0.3289;0.7634;
738.3000;0.3240;0.7460;
738.6000;0.3240;0.7435;
738.9000;0.3280;0.7510;
739.2000;0.3289;0.7534;
739.5000;0.3289;0.7485;
739.8000;0.3264;0.7534;
740.1000;0.3248;0.7460;
740.4000;0.3289;0.7534;
740.7000;0.3272;0.7460;
741.0000;0.3272;0.7360;
741.3000;0.3289;0.7435;
741.6000;0.3305;0.7609;
741.9000;0.3297;0.7559;
742.2000;0.3305;0.7584;
742.5000;0.3272;0.7534;
742.8000;0.3280;0.7485;
743.1000;0.3354;0.7733;
743.4000;0.3256;0.7460;
743.7000;0.3297;0.7485;
744.0000;0.3297;0.7485;
744.3000;0.3321;0.7584;
744.6000;0.3289;0.7410;
744.9000;0.3280;0.7335;
745.2000;0.3264;0.7311;
745.5000;0.3272;0.7385;
745.8000;0.3280;0.7485;
746.1000;0.3199;0.7186;
746.4000;0.3240;0.7236;
746.7000;0.3256;0.7286;
747.0000;0.3272;0.7311;
747.3000;0.3248;0.7137;
747.6000;0.3264;0.7236;
747.9000;0.3264;0.7261;
748.2000;0.3264;0.7385;
748.5000;0.3272;0.7335;
748.8000;0.3264;0.7360;
749.1000;0.3264;0.7435;
749.4000;0.3264;0.7460;
749.7000;0.3264;0.7485;
750.0000;0.3272;0.7485;
750.3000;0.3272;0.7534;
750.6000;0.3280;0.7510;
750.9000;0.3264;0.7485;
751.2000;0.3256;0.7485;
751.5000;0.3248;0.7485;
751.8000;0.3313;0.7708;
752.1000;0.3280;0.7584;
752.4000;0.3272;0.7609;
752.7000;0.3297;0.7684;
753.0000;0.3280;0.7609;
753.3000;0.3280;0.7485;
753.6000;0.3264;0.7360;
753.9000;0.3264;0.7360;
754.2000;0.3280;0.7410;
754.5000;0.3289;0.7510;
754.8000;0.3272;0.7485;
755.1000;0.3272;0.7510;
755.4000;0.3305;0.7485;
755.7000;0.3264;0.7460;
756.0000;0.3256;0.7410;
756.3000;0.3248;0.7360;
756.6000;0.3280;0.7410;
756.9000;0.3215;0.7137;
757.2000;0.3248;0.7211;
757.5000;0.3256;0.7261;
757.8000;0.3272;0.7311;
758.1000;0.3272;0.7435;
758.4000;0.3264;0.7335;
758.7000;0.3289;0.7360;
759.0000;0.3240;0.7236;
759.3000;0.3256;0.7335;
759.6000;0.3256;0.7360;
759.9000;0.3240;0.7385;
760.2000;0.3215;0.7311;
760.5000;0.3256;0.7286;
760.8000;0.3272;0.7311;
761.1000;0.3223;0.7161;
761.4000;0.3280;0.7211;
761.7000;0.3264;0.7137;
762.0000;0.3256;0.7186;
762.3000;0.3272;0.7236;
762.6000;0.3272;0.7236;
762.9000;0.3272;0.7261;
763.2000;0.3264;0.7211;
763.5000;0.3305;0.7360;
763.8000;0.3264;0.7335;
764.1000;0.3240;0.7211;
764.4000;0.3280;0.7335;
764.7000;0.3264;0.7311;
765.0000;0.3248;0.7286;
765.3000;0.3240;0.7286;
765.6000;0.3248;0.7360;
765.9000;0.3248;0.7435;
766.2000;0.3256;0.7460;
766.5000;0.3248;0.7410;
766.8000;0.3256;0.7335;
767.1000;0.3240;0.7360;
767.4000;0.3272;0.7435;
767.7000;0.3256;0.7335;
768.0000;0.3232;0.7311;
768.3000;0.3264;0.7385;
768.6000;0.3272;0.7460;
768.9000;0.3248;0.7485;
769.2000;0.3232;0.7460;
769.5000;0.3248;0.7534;
769.8000;0.3232;0.7510;
770.1000;0.3240;0.7510;
770.4000;0.3264;0.7708;
770.7000;0.3248;0.7684;
771.0000;0.3248;0.7634;
771.3000;0.3232;0.7708;
771.6000;0.3232;0.7684;
771.9000;0.3264;0.7733;
772.2000;0.3256;0.7733;
772.5000;0.3272;0.7758;
772.8000;0.3264;0.7708;
773.1000;0.3256;0.7733;
773.4000;0.3264;0.7883;
773.7000;0.3256;0.7833;
774.0000;0.3264;0.7733;
774.3000;0.3256;0.7708;
774.6000;0.3240;0.7684;
774.9000;0.3240;0.7684;
775.2000;0.3240;0.7534;
775.5000;0.3240;0.7534;
775.8000;0.3248;0.7485;
776.1000;0.3280;0.7435;
776.4000;0.3256;0.7460;
776.7000;0.3240;0.7410;
777.0000;0.3248;0.7460;
777.3000;0.3248;0.7435;
777.6000;0.3256;0.7485;
777.9000;0.3248;0.7510;
778.2000;0.3256;0.7584;
778.5000;0.3280;0.7584;
778.8000;0.3248;0.7410;
779.1000;0.3248;0.7311;
779.4000;0.3272;0.7435;
779.7000;0.3248;0.7460;
780.0000;0.3232;0.7460;
780.3000;0.3232;0.7510;
780.6000;0.3223;0.7510;
780.9000;0.3223;0.7534;
781.2000;0.3248;0.7584;
781.5000;0.3248;0.7534;
781.8000;0.3223;0.7534;
782.1000;0.3232;0.7584;
782.4000;0.3256;0.7659;
782.7000;0.3289;0.7659;
783.0000;0.3248;0.7559;
783.3000;0.3256;0.7584;
783.6000;0.3256;0.7609;
783.9000;0.3248;0.7584;
784.2000;0.3134;0.7286;
784.5000;0.3199;0.7360;
784.8000;0.3232;0.7435;
785.1000;0.3232;0.7360;
785.4000;0.3232;0.7485;
785.7000;0.3248;0.7485;
786.0000;0.3248;0.7510;
786.3000;0.3256;0.7559;
786.6000;0.3232;0.7460;
786.9000;0.3223;0.7360;
787.2000;0.3232;0.7435;
787.5000;0.3240;0.7435;
787.8000;0.3248;0.7410;
788.1000;0.3240;0.7435;
788.4000;0.3232;0.7460;
788.7000;0.3256;0.7559;
789.0000;0.3264;0.7510;
789.3000;0.3232;0.7460;
789.6000;0.3240;0.7435;
789.9000;0.3248;0.7485;
790.2000;0.3248;0.7510;
790.5000;0.3289;0.7708;
790.8000;0.3248;0.7584;
791.1000;0.3248;0.7584;
791.4000;0.3256;0.7534;
791.7000;0.3240;0.7460;
792.0000;0.3232;0.7435;
792.3000;0.3248;0.7410;
792.6000;0.3248;0.7410;
792.9000;0.3232;0.7261;
793.2000;0.3240;0.7311;
793.5000;0.3264;0.7385;
793.8000;0.3240;0.7410;
794.1000;0.3256;0.7510;
794.4000;0.3256;0.7559;
794.7000;0.3240;0.7559;
795.0000;0.3248;0.7584;
795.3000;0.3232;0.7634;
795.6000;0.3223;0.7609;
795.9000;0.3232;0.7559;
796.2000;0.3232;0.7634;
796.5000;0.3248;0.7634;
796.8000;0.3240;0.7609;
797.1000;0.3264;0.7634;
797.4000;0.3240;0.7584;
797.7000;0.3215;0.7534;
798.0000;0.3223;0.7609;
798.3000;0.3223;0.7534;
798.6000;0.3272;0.7609;
798.9000;0.3240;0.7584;
799.2000;0.3248;0.7534;
799.5000;0.3232;0.7435;
799.8000;0.3223;0.7485;
800.1000;0.3232;0.7510;
800.4000;0.3240;0.7510;
800.7000;0.3232;0.7460;
801.0000;0.3313;0.7758;
801.3000;0.3248;0.7684;
801.6000;0.3240;0.7708;
801.9000;0.3215;0.7609;
802.2000;0.3223;0.7634;
802.5000;0.3232;0.7609;
802.8000;0.3240;0.7684;
803.1000;0.3240;0.7634;
803.4000;0.3199;0.7584;
803.7000;0.3223;0.7609;
804.0000;0.3240;0.7684;
804.3000;0.3215;0.7609;
804.6000;0.3223;0.7659;
804.9000;0.3215;0.7659;
805.2000;0.3240;0.7634;
805.5000;0.3256;0.7609;
805.8000;0.3215;0.7559;
806.1000;0.3223;0.7559;
806.4000;0.3223;0.7609;
806.7000;0.3223;0.7609;
807.0000;0.3215;0.7584;
807.3000;0.3232;0.7584;
807.6000;0.3240;0.7559;
807.9000;0.3232;0.7584;
808.2000;0.3240;0.7684;
808.5000;0.3215;0.7684;
808.8000;0.3240;0.7783;
809.1000;0.3215;0.7684;
809.4000;0.3240;0.7659;
809.7000;0.3199;0.7559;
810.0000;0.3232;0.7609;
810.3000;0.3223;0.7559;
810.6000;0.3232;0.7510;
810.9000;0.3232;0.7485;
811.2000;0.3223;0.7534;
811.5000;0.3215;0.7559;
811.8000;0.3248;0.7559;
812.1000;0.3207;0.7435;
812.4000;0.3232;0.7460;
812.7000;0.3232;0.7485;
813.0000;0.3240;0.7510;
813.3000;0.3223;0.7534;
813.6000;0.3223;0.7510;
813.9000;0.3215;0.7534;
814.2000;0.3232;0.7584;
814.5000;0.3215;0.7510;
814.8000;0.3215;0.7534;
815.1000;0.3232;0.7634;
815.4000;0.3223;0.7510;
815.7000;0.3215;0.7435;
816.0000;0.3223;0.7335;
816.3000;0.3166;0.7161;
816.6000;0.3240;0.7286;
816.9000;0.3232;0.7211;
817.2000;0.3232;0.7311;
817.5000;0.3223;0.7236;
817.8000;0.3232;0.7311;
818.1000;0.3207;0.7335;
818.4000;0.3232;0.7286;
818.7000;0.3232;0.7211;
819.0000;0.3223;0.7286;
819.3000;0.3223;0.7335;
819.6000;0.3223;0.7510;
819.9000;0.3223;0.7460;
820.2000;0.3223;0.7485;
820.5000;0.3256;0.7559;
820.8000;0.3223;0.7485;
821.1000;0.3183;0.7435;
821.4000;0.3264;0.7659;
821.7000;0.3232;0.7609;
822.0000;0.3199;0.7485;
822.3000;0.3223;0.7385;
822.6000;0.3215;0.7435;
822.9000;0.3223;0.7360;
823.2000;0.3232;0.7311;
823.5000;0.3199;0.7261;
823.8000;0.3223;0.7261;
824.1000;0.3207;0.7161;
824.4000;0.3248;0.7161;
824.7000;0.3240;0.7137;
825.0000;0.3207;0.7112;
825.3000;0.3240;0.7236;
825.6000;0.3232;0.7211;
825.9000;0.3223;0.7236;
826.2000;0.3215;0.7286;
826.5000;0.3215;0.7286;
826.8000;0.3232;0.7311;
827.1000;0.3158;0.7186;
827.4000;0.3248;0.7286;
827.7000;0.3248;0.7286;
828.0000;0.3223;0.7261;
828.3000;0.3232;0.7311;
828.6000;0.3215;0.7335;
828.9000;0.3207;0.7335;
829.2000;0.3215;0.7311;
829.5000;0.3199;0.7335;
829.8000;0.3232;0.7335;
830.1000;0.3166;0.7261;
830.4000;0.3223;0.7385;
830.7000;0.3215;0.7435;
831.0000;0.3232;0.7534;
831.3000;0.3199;0.7510;
831.6000;0.3207;0.7460;
831.9000;0.3223;0.7485;
832.2000;0.3223;0.7385;
832.5000;0.3223;0.7360;
832.8000;0.3223;0.7360;
833.1000;0.3223;0.7360;
833.4000;0.3215;0.7385;
833.7000;0.3215;0.7410;
834.0000;0.3207;0.7385;
834.3000;0.3215;0.7460;
834.6000;0.3248;0.7534;
834.9000;0.3215;0.7460;
835.2000;0.3101;0.7211;
835.5000;0.3215;0.7435;
835.8000;0.3223;0.7385;
836.1000;0.3166;0.7211;
836.4000;0.3240;0.7360;
836.7000;0.3207;0.7286;
837.0000;0.3158;0.7137;
837.3000;0.3264;0.7385;
837.6000;0.3215;0.7385;
837.9000;0.3232;0.7385;
838.2000;0.3223;0.7460;
838.5000;0.3199;0.7311;
838.8000;0.3215;0.7360;
839.1000;0.3232;0.7435;
839.4000;0.3240;0.7460;
839.7000;0.3215;0.7335;
840.0000;0.3207;0.7236;
840.3000;0.3199;0.7186;
840.6000;0.3215;0.7186;
840.9000;0.3199;0.7161;
841.2000;0.3199;0.7311;
841.5000;0.3207;0.7360;
841.8000;0.3215;0.7534;
842.1000;0.3215;0.7559;
842.4000;0.3207;0.7534;
842.7000;0.3215;0.7634;
843.0000;0.3215;0.7609;
843.3000;0.3215;0.7534;
843.6000;0.3232;0.7584;
843.9000;0.3223;0.7584;
844.2000;0.3207;0.7559;
844.5000;0.3191;0.7609;
844.8000;0.3215;0.7609;
845.1000;0.3207;0.7534;
845.4000;0.3207;0.7410;
845.7000;0.3207;0.7385;
846.0000;0.3175;0.7286;
846.3000;0.3166;0.7360;
846.6000;0.3191;0.7385;
846.9000;0.3256;0.7609;
847.2000;0.3191;0.7410;
847.5000;0.3232;0.7435;
847.8000;0.3272;0.7485;
848.1000;0.3207;0.7286;
848.4000;0.3215;0.7286;
848.7000;0.3207;0.7236;
849.0000;0.3264;0.7360;
849.3000;0.3199;0.7360;
849.6000;0.3199;0.7385;
849.9000;0.3223;0.7460;
850.2000;0.3166;0.7286;
850.5000;0.3215;0.7485;
850.8000;0.3280;0.7559;
851.1000;0.3240;0.7485;
851.4000;0.3199;0.7435;
851.7000;0.3232;0.7559;
852.0000;0.3232;0.7510;
852.3000;0.3223;0.7410;
852.6000;0.3183;0.7410;
852.9000;0.3248;0.7510;
853.2000;0.3248;0.7534;
853.5000;0.3207;0.7385;
853.8000;0.3232;0.7510;
854.1000;0.3166;0.7385;
854.4000;0.3215;0.7410;
854.7000;0.3199;0.7410;
855.0000;0.3215;0.7435;
855.3000;0.3199;0.7286;
855.6000;0.3199;0.7161;
855.9000;0.3183;0.7186;
856.2000;0.3191;0.7211;
856.5000;0.3199;0.7261;
856.8000;0.3232;0.7311;
857.1000;0.3215;0.7335;
857.4000;0.3215;0.7360;
857.7000;0.3207;0.7360;
858.0000;0.3215;0.7311;
858.3000;0.3191;0.7261;
858.6000;0.3223;0.7286;
858.9000;0.3215;0.7236;
859.2000;0.3207;0.7236;
859.5000;0.3199;0.7211;
859.8000;0.3215;0.7161;
860.1000;0.3215;0.7161;
860.4000;0.3223;0.7161;
860.7000;0.3207;0.7112;
861.0000;0.3223;0.7137;
861.3000;0.3223;0.7186;
861.6000;0.3223;0.7062;
861.9000;0.3215;0.7037;
862.2000;0.3223;0.7012;
862.5000;0.3248;0.7062;
862.8000;0.3199;0.7037;
863.1000;0.3215;0.7286;
863.4000;0.3215;0.7261;
863.7000;0.3207;0.7286;
864.0000;0.3232;0.7385;
864.3000;0.3207;0.7360;
864.6000;0.3191;0.7410;
864.9000;0.3207;0.7360;
865.2000;0.3199;0.7311;
865.5000;0.3207;0.7261;
865.8000;0.3240;0.7335;
866.1000;0.3215;0.7186;
866.4000;0.3232;0.7236;
866.7000;0.3232;0.7261;
867.0000;0.3240;0.7335;
867.3000;0.3199;0.7311;
867.6000;0.3232;0.7410;
867.9000;0.3223;0.7435;
868.2000;0.3223;0.7385;
868.5000;0.3215;0.7460;
868.8000;0.3207;0.7435;
869.1000;0.3207;0.7335;
869.4000;0.3207;0.7435;
869.7000;0.3215;0.7435;
870.0000;0.3223;0.7510;
870.3000;0.3191;0.7510;
870.6000;0.3215;0.7460;
870.9000;0.3191;0.7435;
871.2000;0.3191;0.7410;
871.5000;0.3191;0.7385;
871.8000;0.3199;0.7335;
872.1000;0.3199;0.7236;
872.4000;0.3207;0.7335;
872.7000;0.3232;0.7410;
873.0000;0.3215;0.7311;
873.3000;0.3175;0.7261;
873.6000;0.3191;0.7360;
873.9000;0.3256;0.7584;
874.2000;0.3207;0.7460;
874.5000;0.3215;0.7460;
874.8000;0.3199;0.7311;
875.1000;0.3199;0.7410;
875.4000;0.3215;0.7435;
875.7000;0.3207;0.7435;
876.0000;0.3215;0.7460;
876.3000;0.3215;0.7460;
876.6000;0.3248;0.7485;
876.9000;0.3248;0.7534;
877.2000;0.3240;0.7534;
877.5000;0.3191;0.7460;
877.8000;0.3215;0.7584;
878.1000;0.3183;0.7485;
878.4000;0.3256;0.7634;
878.7000;0.3191;0.7534;
879.0000;0.3272;0.7584;
879.3000;0.3175;0.7385;
879.6000;0.3199;0.7410;
879.9000;0.3207;0.7485;
880.2000;0.3215;0.7435;
880.5000;0.3215;0.7335;
880.8000;0.3207;0.7435;
881.1000;0.3207;0.7460;
881.4000;0.3207;0.7510;
881.7000;0.3207;0.7410;
882.0000;0.3199;0.7460;
882.3000;0.3191;0.7435;
882.6000;0.3223;0.7460;
882.9000;0.3223;0.7485;
883.2000;0.3207;0.7460;
883.5000;0.3199;0.7385;
883.8000;0.3199;0.7385;
884.1000;0.3215;0.7335;
884.4000;0.3215;0.7311;
884.7000;0.3191;0.7335;
885.0000;0.3207;0.7435;
885.3000;0.3207;0.7534;
885.6000;0.3199;0.7559;
885.9000;0.3215;0.7534;
886.2000;0.3223;0.7584;
886.5000;0.3289;0.7758;
886.8000;0.3215;0.7559;
887.1000;0.3207;0.7609;
887.4000;0.3223;0.7708;
887.7000;0.3207;0.7634;
888.0000;0.3207;0.7609;
888.3000;0.3199;0.7559;
888.6000;0.3207;0.7584;
888.9000;0.3207;0.7510;
889.2000;0.3248;0.7559;
889.5000;0.3207;0.7534;
889.8000;0.3191;0.7510;
890.1000;0.3199;0.7559;
890.4000;0.3199;0.7534;
890.7000;0.3183;0.7534;
891.0000;0.3215;0.7559;
891.3000;0.3166;0.7584;
891.6000;0.3175;0.7659;
891.9000;0.3223;0.7659;
892.2000;0.3248;0.7708;
892.5000;0.3248;0.7808;
892.8000;0.3215;0.7758;
893.1000;0.3134;0.7510;
893.4000;0.3191;0.7559;
893.7000;0.3207;0.7485;
894.0000;0.3183;0.7410;
894.3000;0.3175;0.7385;
894.6000;0.3199;0.7385;
894.9000;0.3215;0.7360;
895.2000;0.3199;0.7286;
895.5000;0.3207;0.7311;
895.8000;0.3223;0.7311;
896.1000;0.3207;0.7311;
896.4000;0.3207;0.7261;
896.7000;0.3232;0.7261;
897.0000;0.3264;0.7410;
897.3000;0.3199;0.7311;
897.6000;0.3191;0.7335;
897.9000;0.3199;0.7335;
898.2000;0.3232;0.7534;
898.5000;0.3199;0.7559;
898.8000;0.3207;0.7510;
899.1000;0.3207;0.7510;
899.4000;0.3223;0.7584;
899.7000;0.3199;0.7534;
900.0000;0.3183;0.7559;
900.3000;0.3199;0.7684;
900.6000;0.3215;0.7758;
900.9000;0.3183;0.7758;
901.2000;0.3207;0.7833;
901.5000;0.3150;0.7708;
901.8000;0.3207;0.7883;
902.1000;0.3158;0.7783;
902.4000;0.3223;0.7883;
902.7000;0.3256;0.8057;
903.0000;0.3215;0.7883;
903.3000;0.3191;0.7808;
903.6000;0.3191;0.7708;
903.9000;0.3191;0.7708;
904.2000;0.3199;0.7833;
904.5000;0.3207;0.7808;
904.8000;0.3199;0.7708;
905.1000;0.3183;0.7609;
905.4000;0.3232;0.7659;
905.7000;0.3215;0.7609;
906.0000;0.3199;0.7559;
906.3000;0.3191;0.7534;
906.6000;0.3199;0.7559;
906.9000;0.3215;0.7534;
907.2000;0.3223;0.7559;
907.5000;0.3183;0.7534;
907.8000;0.3207;0.7609;
908.1000;0.3215;0.7758;
908.4000;0.3248;0.7833;
908.7000;0.3199;0.7684;
909.0000;0.3191;0.7684;
909.3000;0.3142;0.7534;
909.6000;0.3215;0.7733;
909.9000;0.3199;0.7609;
910.2000;0.3183;0.7584;
910.5000;0.3118;0.7485;
910.8000;0.3175;0.7708;
911.1000;0.3191;0.7684;
911.4000;0.3207;0.7733;
911.7000;0.3207;0.7634;
912.0000;0.3207;0.7634;
912.3000;0.3199;0.7609;
912.6000;0.3223;0.7708;
912.9000;0.3215;0.7684;
913.2000;0.3215;0.7733;
913.5000;0.3199;0.7659;
913.8000;0.3191;0.7659;
914.1000;0.3183;0.7659;
914.4000;0.3199;0.7758;
914.7000;0.3207;0.7833;
915.0000;0.3183;0.7833;
915.3000;0.3207;0.7858;
915.6000;0.3199;0.7858;
915.9000;0.3199;0.7808;
916.2000;0.3191;0.7758;
916.5000;0.3183;0.7708;
916.8000;0.3207;0.7659;
917.1000;0.3191;0.7510;
917.4000;0.3175;0.7534;
917.7000;0.3207;0.7634;
918.0000;0.3215;0.7758;
918.3000;0.3232;0.7708;
918.6000;0.3215;0.7634;
918.9000;0.3191;0.7510;
919.2000;0.3207;0.7534;
919.5000;0.3215;0.7634;
919.8000;0.3199;0.7534;
920.1000;0.3215;0.7584;
920.4000;0.3199;0.7510;
920.7000;0.3207;0.7510;
921.0000;0.3215;0.7534;
921.3000;0.3183;0.7510;
921.6000;0.3207;0.7634;
921.9000;0.3207;0.7634;
922.2000;0.3207;0.7534;
922.5000;0.3215;0.7634;
922.8000;0.3183;0.7758;
923.1000;0.3207;0.7858;
923.4000;0.3215;0.7883;
923.7000;0.3158;0.7758;
924.0000;0.3223;0.7758;
924.3000;0.3199;0.7758;
924.6000;0.3199;0.7783;
924.9000;0.3199;0.7833;
925.2000;0.3199;0.7783;
925.5000;0.3183;0.7733;
925.8000;0.3191;0.7783;
926.1000;0.3207;0.7783;
926.4000;0.3183;0.7733;
926.7000;0.3191;0.7808;
927.0000;0.3199;0.7783;
927.3000;0.3207;0.7858;
927.6000;0.3199;0.7858;
927.9000;0.3191;0.7907;
928.2000;0.3199;0.7758;
928.5000;0.3215;0.7783;
928.8000;0.3199;0.7758;
929.1000;0.3207;0.7684;
929.4000;0.3207;0.7708;
929.7000;0.3207;0.7733;
930.0000;0.3199;0.7684;
930.3000;0.3183;0.7659;
930.6000;0.3183;0.7733;
930.9000;0.3191;0.7758;
931.2000;0.3199;0.7758;
931.5000;0.3207;0.7659;
931.8000;0.3199;0.7584;
932.1000;0.3191;0.7584;
932.4000;0.3183;0.7534;
932.7000;0.3199;0.7584;
933.0000;0.3207;0.7534;
933.3000;0.3191;0.7460;
933.6000;0.3223;0.7534;
933.9000;0.3199;0.7510;
934.2000;0.3199;0.7460;
934.5000;0.3175;0.7335;
934.8000;0.3199;0.7385;
935.1000;0.3207;0.7410;
935.4000;0.3199;0.7410;
935.7000;0.3166;0.7311;
936.0000;0.3199;0.7435;
936.3000;0.3183;0.7534;
936.6000;0.3199;0.7584;
936.9000;0.3183;0.7634;
937.2000;0.3183;0.7708;
937.5000;0.3175;0.7783;
937.8000;0.3191;0.7708;
938.1000;0.3183;0.7659;
938.4000;0.3175;0.7609;
938.7000;0.3175;0.7609;
939.0000;0.3191;0.7534;
939.3000;0.3191;0.7460;
939.6000;0.3207;0.7534;
939.9000;0.3207;0.7534;
940.2000;0.3199;0.7534;
940.5000;0.3215;0.7485;
940.8000;0.3199;0.7460;
941.1000;0.3207;0.7485;
941.4000;0.3207;0.7510;
941.7000;0.3199;0.7510;
942.0000;0.3223;0.7534;
942.3000;0.3215;0.7584;
942.6000;0.3215;0.7634;
942.9000;0.3199;0.7684;
943.2000;0.3191;0.7659;
943.5000;0.3199;0.7609;
943.8000;0.3191;0.7534;
944.1000;0.3199;0.7534;
944.4000;0.3191;0.7534;
944.7000;0.3199;0.7460;
945.0000;0.3175;0.7460;
945.3000;0.3207;0.7559;
945.6000;0.3191;0.7460;
945.9000;0.3199;0.7559;
946.2000;0.3207;0.7634;
946.5000;0.3280;0.7907;
946.8000;0.3191;0.7609;
947.1000;0.3199;0.7609;
947.4000;0.3183;0.7584;
947.7000;0.3215;0.7584;
948.0000;0.3199;0.7435;
948.3000;0.3142;0.7261;
948.6000;0.3199;0.7460;
948.9000;0.3207;0.7485;
949.2000;0.3313;0.7758;
949.5000;0.3215;0.7485;
949.8000;0.3199;0.7559;
950.1000;0.3199;0.7435;
950.4000;0.3199;0.7460;
950.7000;0.3199;0.7460;
951.0000;0.3134;0.7410;
951.3000;0.3191;0.7584;
951.6000;0.3207;0.7584;
951.9000;0.3207;0.7534;
952.2000;0.3199;0.7584;
952.5000;0.3191;0.7609;
952.8000;0.3207;0.7684;
953.1000;0.3215;0.7609;
953.4000;0.3199;0.7634;
953.7000;0.3199;0.7609;
954.0000;0.3207;0.7609;
954.3000;0.3158;0.7460;
954.6000;0.3207;0.7559;
954.9000;0.3199;0.7584;
955.2000;0.3191;0.7684;
955.5000;0.3223;0.7808;
955.8000;0.3207;0.7758;
956.1000;0.3191;0.7708;
956.4000;0.3207;0.7733;
956.7000;0.3199;0.7659;
957.0000;0.3166;0.7634;
957.3000;0.3264;0.7858;
957.6000;0.3199;0.7708;
957.9000;0.3191;0.7733;
958.2000;0.3183;0.7708;
958.5000;0.3207;0.7708;
958.8000;0.3199;0.7659;
959.1000;0.3207;0.7609;
959.4000;0.3199;0.7534;
959.7000;0.3191;0.7510;
960.0000;0.3207;0.7559;
960.3000;0.3199;0.7534;
960.6000;0.3191;0.7584;
960.9000;0.3166;0.7510;
961.2000;0.3191;0.7534;
961.5000;0.3183;0.7559;
961.8000;0.3199;0.7659;
962.1000;0.3199;0.7659;
962.4000;0.3199;0.7758;
962.7000;0.3207;0.7783;
963.0000;0.3215;0.7684;
963.3000;0.3183;0.7783;
963.6000;0.3175;0.7758;
963.9000;0.3183;0.7783;
964.2000;0.3207;0.7808;
964.5000;0.3215;0.7733;
964.8000;0.3183;0.7634;
965.1000;0.3199;0.7684;
965.4000;0.3207;0.7634;
965.7000;0.3191;0.7510;
966.0000;0.3232;0.7559;
966.3000;0.3199;0.7410;
966.6000;0.3223;0.7485;
966.9000;0.3256;0.7659;
967.2000;0.3215;0.7609;
967.5000;0.3166;0.7485;
967.8000;0.3232;0.7559;
968.1000;0.3207;0.7435;
968.4000;0.3215;0.7311;
968.7000;0.3183;0.7261;
969.0000;0.3272;0.7485;
969.3000;0.3256;0.7435;
969.6000;0.3166;0.7286;
969.9000;0.3183;0.7385;
970.2000;0.3158;0.7211;
970.5000;0.3240;0.7485;
970.8000;0.3191;0.7360;
971.1000;0.3191;0.7410;
971.4000;0.3191;0.7435;
971.7000;0.3183;0.7410;
972.0000;0.3183;0.7410;
972.3000;0.3240;0.7584;
972.6000;0.3232;0.7534;
972.9000;0.3207;0.7584;
973.2000;0.3207;0.7609;
973.5000;0.3215;0.7634;
973.8000;0.3134;0.7410;
974.1000;0.3175;0.7460;
974.4000;0.3207;0.7460;
974.7000;0.3183;0.7510;
975.0000;0.3199;0.7559;
975.3000;0.3232;0.7634;
975.6000;0.3191;0.7510;
975.9000;0.3166;0.7435;
976.2000;0.3183;0.7410;
976.5000;0.3158;0.7385;
976.8000;0.3175;0.7435;
977.1000;0.3175;0.7435;
977.4000;0.3191;0.7410;
977.7000;0.3223;0.7485;
978.0000;0.3207;0.7435;
978.3000;0.3183;0.7435;
978.6000;0.3191;0.7460;
978.9000;0.3199;0.7460;
979.2000;0.3183;0.7510;
979.5000;0.3199;0.7485;
979.8000;0.3215;0.7534;
980.1000;0.3183;0.7460;
980.4000;0.3191;0.7435;
980.7000;0.3166;0.7360;
981.0000;0.3166;0.7410;
981.3000;0.3158;0.7510;
981.6000;0.3191;0.7559;
981.9000;0.3191;0.7559;
982.2000;0.3199;0.7609;
982.5000;0.3191;0.7584;
982.8000;0.3183;0.7534;
983.1000;0.3207;0.7460;
983.4000;0.3158;0.7261;
983.7000;0.3150;0.7186;
984.0000;0.3166;0.7161;
984.3000;0.3215;0.7236;
984.6000;0.3199;0.7186;
984.9000;0.3191;0.7186;
985.2000;0.3183;0.7186;
985.5000;0.3223;0.7360;
985.8000;0.3199;0.7385;
986.1000;0.3150;0.7236;
986.4000;0.3166;0.7311;
986.7000;0.3183;0.7460;
987.0000;0.3207;0.7485;
987.3000;0.3183;0.7410;
987.6000;0.3207;0.7510;
987.9000;0.3183;0.7559;
988.2000;0.3248;0.7733;
988.5000;0.3183;0.7634;
988.8000;0.3199;0.7634;
989.1000;0.3175;0.7510;
989.4000;0.3207;0.7485;
989.7000;0.3191;0.7385;
990.0000;0.3223;0.7385;
990.3000;0.3175;0.7211;
990.6000;0.3183;0.7211;
990.9000;0.3256;0.7485;
991.2000;0.3191;0.7286;
991.5000;0.3297;0.7634;
991.8000;0.3142;0.7186;
992.1000;0.3207;0.7360;
992.4000;0.3207;0.7360;
992.7000;0.3191;0.7435;
993.0000;0.3232;0.7609;
993.3000;0.3223;0.7609;
993.6000;0.3248;0.7634;
993.9000;0.3199;0.7534;
994.2000;0.3199;0.7534;
994.5000;0.3199;0.7609;
994.8000;0.3199;0.7584;
995.1000;0.3166;0.7510;
995.4000;0.3183;0.7559;
995.7000;0.3199;0.7510;
996.0000;0.3183;0.7485;
996.3000;0.3199;0.7485;
996.6000;0.3256;0.7684;
996.9000;0.3183;0.7435;
997.2000;0.3191;0.7435;
997.5000;0.3199;0.7410;
997.8000;0.3175;0.7335;
998.1000;0.3199;0.7335;
998.4000;0.3191;0.7360;
998.7000;0.3207;0.7435;
999.0000;0.3207;0.7385;
999.3000;0.3199;0.7410;
999.6000;0.3191;0.7335;
999.9000;0.3183;0.7335;
1000.2000;0.3191;0.7286;
1000.5000;0.3183;0.7211;
1000.8000;0.3183;0.7236;
1001.1000;0.3183;0.7236;
1001.4000;0.3191;0.7311;
1001.7000;0.3142;0.7211;
1002.0000;0.3191;0.7286;
1002.3000;0.3183;0.7311;
1002.6000;0.3207;0.7435;
1002.9000;0.3166;0.7385;
1003.2000;0.3191;0.7460;
1003.5000;0.3191;0.7385;
1003.8000;0.3215;0.7335;
1004.1000;0.3199;0.7385;
1004.4000;0.3264;0.7609;
1004.7000;0.3207;0.7559;
1005.0000;0.3199;0.7584;
1005.3000;0.3166;0.7510;
1005.6000;0.3183;0.7485;
1005.9000;0.3183;0.7485;
1006.2000;0.3207;0.7534;
1006.5000;0.3175;0.7435;
1006.8000;0.3183;0.7584;
1007.1000;0.3191;0.7559;
1007.4000;0.3150;0.7385;
1007.7000;0.3175;0.7385;
1008.0000;0.3175;0.7385;
1008.3000;0.3199;0.7410;
1008.6000;0.3191;0.7385;
1008.9000;0.3207;0.7435;
1009.2000;0.3183;0.7410;
1009.5000;0.3150;0.7360;
1009.8000;0.3183;0.7410;
1010.1000;0.3183;0.7410;
1010.4000;0.3101;0.7137;
1010.7000;0.3183;0.7335;
1011.0000;0.3134;0.7211;
1011.3000;0.3207;0.7360;
1011.6000;0.3158;0.7261;
1011.9000;0.3166;0.7311;
1012.2000;0.3199;0.7385;
1012.5000;0.3207;0.7410;
1012.8000;0.3183;0.7435;
1013.1000;0.3183;0.7335;
1013.4000;0.3191;0.7286;
1013.7000;0.3199;0.7385;
1014.0000;0.3183;0.7360;
1014.3000;0.3199;0.7410;
1014.6000;0.3183;0.7460;
1014.9000;0.3199;0.7510;
1015.2000;0.3183;0.7485;
1015.5000;0.3183;0.7435;
1015.8000;0.3191;0.7435;
1016.1000;0.3191;0.7435;
1016.4000;0.3183;0.7435;
1016.7000;0.3191;0.7385;
1017.0000;0.3183;0.7360;
1017.3000;0.3191;0.7335;
1017.6000;0.3183;0.7311;
1017.9000;0.3191;0.7360;
1018.2000;0.3199;0.7410;
1018.5000;0.3199;0.7460;
1018.8000;0.3215;0.7460;
1019.1000;0.3199;0.7410;
1019.4000;0.3215;0.7534;
1019.7000;0.3191;0.7510;
1020.0000;0.3183;0.7510;
1020.3000;0.3175;0.7435;
1020.6000;0.3175;0.7435;
1020.9000;0.3175;0.7360;
1021.2000;0.3191;0.7335;
1021.5000;0.3199;0.7211;
1021.8000;0.3175;0.7161;
1022.1000;0.3175;0.7211;
1022.4000;0.3215;0.7236;
1022.7000;0.3207;0.7211;
1023.0000;0.3207;0.7161;
1023.3000;0.3264;0.7360;
1023.6000;0.3199;0.7186;
1023.9000;0.3223;0.7286;
1024.2000;0.3207;0.7211;
1024.5000;0.3215;0.7236;
1024.8000;0.3199;0.7161;
1025.1000;0.3207;0.7236;
1025.4000;0.3199;0.7236;
1025.7000;0.3183;0.7261;
1026.0000;0.3183;0.7261;
1026.3000;0.3191;0.7261;
1026.6000;0.3191;0.7311;
1026.9000;0.3207;0.7311;
1027.2000;0.3199;0.7385;
1027.5000;0.3215;0.7410;
1027.8000;0.3223;0.7510;
1028.1000;0.3183;0.7335;
1028.4000;0.3215;0.7485;
1028.7000;0.3191;0.7485;
1029.0000;0.3207;0.7485;
1029.3000;0.3232;0.7510;
1029.6000;0.3223;0.7534;
1029.9000;0.3191;0.7460;
1030.2000;0.3191;0.7460;
1030.5000;0.3191;0.7335;
1030.8000;0.3175;0.7311;
1031.1000;0.3183;0.7385;
1031.4000;0.3191;0.7410;
1031.7000;0.3150;0.7385;
1032.0000;0.3199;0.7460;
1032.3000;0.3199;0.7335;
1032.6000;0.3183;0.7261;
1032.9000;0.3207;0.7261;
1033.2000;0.3199;0.7286;
1033.5000;0.3191;0.7335;
1033.8000;0.3183;0.7385;
1034.1000;0.3240;0.7534;
1034.4000;0.3191;0.7385;
1034.7000;0.3191;0.7435;
1035.0000;0.3134;0.7286;
1035.3000;0.3191;0.7435;
1035.6000;0.3175;0.7485;
1035.9000;0.3150;0.7410;
1036.2000;0.3175;0.7435;
1036.5000;0.3166;0.7335;
1036.8000;0.3191;0.7410;
1037.1000;0.3199;0.7460;
1037.4000;0.3199;0.7360;
1037.7000;0.3199;0.7385;
1038.0000;0.3199;0.7435;
1038.3000;0.3199;0.7360;
1038.6000;0.3207;0.7360;
1038.9000;0.3207;0.7385;
1039.2000;0.3191;0.7311;
1039.5000;0.3223;0.7360;
1039.8000;0.3191;0.7335;
1040.1000;0.3191;0.7311;
1040.4000;0.3223;0.7460;
1040.7000;0.3183;0.7286;
1041.0000;0.3183;0.7286;
1041.3000;0.3175;0.7261;
1041.6000;0.3175;0.7186;
1041.9000;0.3191;0.7211;
1042.2000;0.3150;0.7137;
1042.5000;0.3191;0.7360;
1042.8000;0.3207;0.7385;
1043.1000;0.3280;0.7584;
1043.4000;0.3207;0.7286;
1043.7000;0.3150;0.7161;
1044.0000;0.3183;0.7311;
1044.3000;0.3175;0.7360;
1044.6000;0.3191;0.7311;
1044.9000;0.3175;0.7311;
1045.2000;0.3183;0.7311;
1045.5000;0.3256;0.7485;
1045.8000;0.3199;0.7360;
1046.1000;0.3199;0.7335;
1046.4000;0.3199;0.7335;
1046.7000;0.3199;0.7410;
1047.0000;0.3183;0.7385;
1047.3000;0.3191;0.7261;
1047.6000;0.3183;0.7236;
1047.9000;0.3199;0.7261;
1048.2000;0.3183;0.7186;
1048.5000;0.3215;0.7311;
1048.8000;0.3191;0.7211;
1049.1000;0.3199;0.7236;
1049.4000;0.3126;0.7087;
1049.7000;0.3199;0.7410;
1050.0000;0.3183;0.7385;
1050.3000;0.3199;0.7410;
1050.6000;0.3183;0.7261;
1050.9000;0.3191;0.7261;
1051.2000;0.3175;0.7186;
1051.5000;0.3199;0.7261;
1051.8000;0.3183;0.7286;
1052.1000;0.3199;0.7286;
1052.4000;0.3175;0.7112;
1052.7000;0.3183;0.7112;
1053.0000;0.3191;0.7186;
1053.3000;0.3199;0.7236;
1053.6000;0.3191;0.7410;
1053.9000;0.3215;0.7485;
1054.2000;0.3142;0.7385;
1054.5000;0.3191;0.7510;
1054.8000;0.3191;0.7534;
1055.1000;0.3150;0.7335;
1055.4000;0.3175;0.7385;
1055.7000;0.3183;0.7460;
1056.0000;0.3183;0.7460;
1056.3000;0.3175;0.7460;
1056.6000;0.3191;0.7510;
1056.9000;0.3215;0.7534;
1057.2000;0.3134;0.7286;
1057.5000;0.3199;0.7335;
1057.8000;0.3183;0.7236;
1058.1000;0.3207;0.7435;
1058.4000;0.3175;0.7410;
1058.7000;0.3166;0.7435;
1059.0000;0.3272;0.7708;
1059.3000;0.3199;0.7609;
1059.6000;0.3183;0.7609;
1059.9000;0.3175;0.7559;
1060.2000;0.3166;0.7460;
1060.5000;0.3158;0.7385;
1060.8000;0.3183;0.7410;
1061.1000;0.3166;0.7311;
1061.4000;0.3175;0.7385;
1061.7000;0.3183;0.7261;
1062.0000;0.3207;0.7360;
1062.3000;0.3215;0.7460;
1062.6000;0.3223;0.7534;
1062.9000;0.3207;0.7559;
1063.2000;0.3215;0.7460;
1063.5000;0.3199;0.7410;
1063.8000;0.3183;0.7286;
1064.1000;0.3150;0.7186;
1064.4000;0.3215;0.7410;
1064.7000;0.3215;0.7410;
1065.0000;0.3240;0.7435;
1065.3000;0.3183;0.7360;
1065.6000;0.3191;0.7435;
1065.9000;0.3207;0.7534;
1066.2000;0.3272;0.7634;
1066.5000;0.3191;0.7385;
1066.8000;0.3199;0.7435;
1067.1000;0.3215;0.7435;
1067.4000;0.3175;0.7261;
1067.7000;0.3240;0.7510;
1068.0000;0.3150;0.7385;
1068.3000;0.3175;0.7460;
1068.6000;0.3199;0.7510;
1068.9000;0.3223;0.7485;
1069.2000;0.3199;0.7335;
1069.5000;0.3199;0.7410;
1069.8000;0.3175;0.7435;
1070.1000;0.3183;0.7485;
1070.4000;0.3166;0.7435;
1070.7000;0.3175;0.7534;
1071.0000;0.3183;0.7435;
1071.3000;0.3199;0.7385;
1071.6000;0.3183;0.7360;
1071.9000;0.3175;0.7460;
1072.2000;0.3199;0.7584;
1072.5000;0.3175;0.7534;
1072.8000;0.3199;0.7460;
1073.1000;0.3175;0.7410;
1073.4000;0.3199;0.7460;
1073.7000;0.3183;0.7360;
1074.0000;0.3183;0.7286;
1074.3000;0.3199;0.7335;
1074.6000;0.3207;0.7360;
1074.9000;0.3223;0.7435;
1075.2000;0.3207;0.7360;
1075.5000;0.3183;0.7286;
1075.8000;0.3207;0.7335;
1076.1000;0.3199;0.7410;
1076.4000;0.3191;0.7261;
1076.7000;0.3191;0.7360;
1077.0000;0.3191;0.7360;
1077.3000;0.3199;0.7385;
1077.6000;0.3175;0.7236;
1077.9000;0.3191;0.7311;
1078.2000;0.3175;0.7211;
1078.5000;0.3134;0.7087;
1078.8000;0.3199;0.7236;
1079.1000;0.3175;0.7311;
1079.4000;0.3183;0.7410;
1079.7000;0.3191;0.7311;
1080.0000;0.3134;0.7335;
1080.3000;0.3158;0.7410;
1080.6000;0.3175;0.7485;
1080.9000;0.3191;0.7410;
1081.2000;0.3207;0.7435;
1081.5000;0.3207;0.7435;
1081.8000;0.3183;0.7435;
1082.1000;0.3183;0.7311;
1082.4000;0.3191;0.7335;
1082.7000;0.3215;0.7460;
1083.0000;0.3223;0.7460;
1083.3000;0.3183;0.7311;
1083.6000;0.3215;0.7385;
1083.9000;0.3248;0.7510;
1084.2000;0.3240;0.7460;
1084.5000;0.3215;0.7385;
1084.8000;0.3183;0.7311;
1085.1000;0.3150;0.7261;
1085.4000;0.3240;0.7485;
1085.7000;0.3142;0.7385;
1086.0000;0.3101;0.7261;
1086.3000;0.3199;0.7460;
1086.6000;0.3207;0.7385;
1086.9000;0.3191;0.7385;
1087.2000;0.3199;0.7435;
1087.5000;0.3191;0.7485;
1087.8000;0.3199;0.7559;
1088.1000;0.3158;0.7460;
1088.4000;0.3191;0.7559;
1088.7000;0.3175;0.7534;
1089.0000;0.3118;0.7311;
1089.3000;0.3183;0.7485;
1089.6000;0.3183;0.7460;
1089.9000;0.3175;0.7435;
1090.2000;0.3232;0.7534;
1090.5000;0.3175;0.7435;
1090.8000;0.3191;0.7485;
1091.1000;0.3199;0.7510;
1091.4000;0.3175;0.7534;
1091.7000;0.3183;0.7634;
1092.0000;0.3183;0.7634;
1092.3000;0.3215;0.7684;
1092.6000;0.3158;0.7559;
1092.9000;0.3191;0.7485;
1093.2000;0.3183;0.7460;
1093.5000;0.3142;0.7435;
1093.8000;0.3175;0.7534;
1094.1000;0.3183;0.7534;
1094.4000;0.3175;0.7510;
1094.7000;0.3175;0.7510;
1095.0000;0.3166;0.7534;
1095.3000;0.3183;0.7584;
1095.6000;0.3199;0.7559;
1095.9000;0.3166;0.7510;
1096.2000;0.3191;0.7510;
1096.5000;0.3183;0.7385;
1096.8000;0.3183;0.7360;
1097.1000;0.3191;0.7410;
1097.4000;0.3191;0.7460;
1097.7000;0.3199;0.7460;
1098.0000;0.3191;0.7460;
1098.3000;0.3166;0.7360;
1098.6000;0.3191;0.7460;
1098.9000;0.3191;0.7485;
1099.2000;0.3166;0.7385;
1099.5000;0.3175;0.7460;
1099.8000;0.3191;0.7559;
1100.1000;0.3223;0.7584;
1100.4000;0.3207;0.7634;
1100.7000;0.3183;0.7485;
1101.0000;0.3199;0.7534;
1101.3000;0.3191;0.7534;
1101.6000;0.3240;0.7559;
1101.9000;0.3183;0.7460;
1102.2000;0.3175;0.7460;
1102.5000;0.3134;0.7360;
1102.8000;0.3199;0.7559;
1103.1000;0.3166;0.7485;
1103.4000;0.3175;0.7510;
1103.7000;0.3191;0.7609;
1104.0000;0.3199;0.7609;
1104.3000;0.3191;0.7609;
1104.6000;0.3150;0.7435;
1104.9000;0.3207;0.7609;
1105.2000;0.3158;0.7559;
1105.5000;0.3150;0.7584;
1105.8000;0.3183;0.7609;
1106.1000;0.3191;0.7659;
1106.4000;0.3191;0.7584;
1106.7000;0.3199;0.7559;
1107.0000;0.3191;0.7559;
1107.3000;0.3191;0.7584;
1107.6000;0.3191;0.7559;
1107.9000;0.3199;0.7609;
1108.2000;0.3183;0.7559;
1108.5000;0.3199;0.7609;
1108.8000;0.3191;0.7584;
1109.1000;0.3166;0.7485;
1109.4000;0.3166;0.7559;
1109.7000;0.3158;0.7609;
1110.0000;0.3199;0.7634;
1110.3000;0.3191;0.7659;
1110.6000;0.3175;0.7584;
1110.9000;0.3166;0.7485;
1111.2000;0.3118;0.7460;
1111.5000;0.3183;0.7609;
1111.8000;0.3191;0.7634;
1112.1000;0.3175;0.7609;
1112.4000;0.3166;0.7559;
1112.7000;0.3223;0.7783;
1113.0000;0.3175;0.7609;
1113.3000;0.3175;0.7534;
1113.6000;0.3175;0.7485;
1113.9000;0.3166;0.7460;
1114.2000;0.3191;0.7584;
1114.5000;0.3150;0.7510;
1114.8000;0.3175;0.7435;
1115.1000;0.3166;0.7534;
1115.4000;0.3183;0.7584;
1115.7000;0.3166;0.7634;
1116.0000;0.3183;0.7634;
1116.3000;0.3183;0.7534;
1116.6000;0.3166;0.7510;
1116.9000;0.3175;0.7510;
1117.2000;0.3175;0.7485;
1117.5000;0.3175;0.7485;
1117.8000;0.3175;0.7435;
1118.1000;0.3183;0.7485;
1118.4000;0.3183;0.7510;
1118.7000;0.3191;0.7559;
1119.0000;0.3199;0.7609;
1119.3000;0.3183;0.7510;
1119.6000;0.3166;0.7460;
1119.9000;0.3175;0.7510;
1120.2000;0.3158;0.7559;
1120.5000;0.3215;0.7684;
1120.8000;0.3166;0.7534;
1121.1000;0.3183;0.7460;
1121.4000;0.3175;0.7435;
1121.7000;0.3191;0.7460;
1122.0000;0.3191;0.7360;
1122.3000;0.3191;0.7335;
1122.6000;0.3175;0.7286;
1122.9000;0.3191;0.7410;
1123.2000;0.3183;0.7335;
1123.5000;0.3183;0.7335;
1123.8000;0.3183;0.7311;
1124.1000;0.3191;0.7335;
1124.4000;0.3191;0.7311;
1124.7000;0.3191;0.7286;
1125.0000;0.3191;0.7335;
1125.3000;0.3175;0.7335;
1125.6000;0.3191;0.7360;
1125.9000;0.3126;0.7211;
1126.2000;0.3175;0.7335;
1126.5000;0.3183;0.7311;
1126.8000;0.3191;0.7460;
1127.1000;0.3175;0.7410;
1127.4000;0.3183;0.7485;
1127.7000;0.3142;0.7335;
1128.0000;0.3183;0.7435;
1128.3000;0.3191;0.7485;
1128.6000;0.3191;0.7510;
1128.9000;0.3175;0.7435;
1129.2000;0.3264;0.7684;
1129.5000;0.3183;0.7534;
1129.8000;0.3207;0.7510;
1130.1000;0.3191;0.7460;
1130.4000;0.3199;0.7485;
1130.7000;0.3207;0.7435;
1131.0000;0.3191;0.7460;
1131.3000;0.3183;0.7385;
1131.6000;0.3191;0.7435;
1131.9000;0.3175;0.7410;
1132.2000;0.3191;0.7435;
1132.5000;0.3166;0.7410;
1132.8000;0.3191;0.7435;
1133.1000;0.3199;0.7435;
1133.4000;0.3272;0.7609;
1133.7000;0.3199;0.7460;
1134.0000;0.3207;0.7485;
1134.3000;0.3191;0.7460;
1134.6000;0.3175;0.7360;
1134.9000;0.3191;0.7360;
1135.2000;0.3191;0.7435;
1135.5000;0.3199;0.7410;
1135.8000;0.3191;0.7485;
1136.1000;0.3207;0.7584;
1136.4000;0.3191;0.7584;
1136.7000;0.3191;0.7659;
1137.0000;0.3191;0.7659;
1137.3000;0.3215;0.7534;
1137.6000;0.3191;0.7385;
1137.9000;0.3207;0.7410;
1138.2000;0.3199;0.7360;
1138.5000;0.3199;0.7485;
1138.8000;0.3158;0.7286;
1139.1000;0.3199;0.7385;
1139.4000;0.3175;0.7385;
1139.7000;0.3191;0.7435;
1140.0000;0.3191;0.7435;
1140.3000;0.3175;0.7335;
1140.6000;0.3191;0.7286;
1140.9000;0.3183;0.7335;
1141.2000;0.3175;0.7360;
1141.5000;0.3199;0.7485;
1141.8000;0.3199;0.7460;
1142.1000;0.3183;0.7460;
1142.4000;0.3118;0.7261;
1142.7000;0.3175;0.7485;
1143.0000;0.3191;0.7534;
1143.3000;0.3166;0.7534;
1143.6000;0.3093;0.7286;
1143.9000;0.3175;0.7510;
1144.2000;0.3158;0.7410;
1144.5000;0.3199;0.7485;
1144.8000;0.3191;0.7510;
1145.1000;0.3191;0.7510;
1145.4000;0.3232;0.7634;
1145.7000;0.3191;0.7534;
1146.0000;0.3183;0.7460;
1146.3000;0.3191;0.7485;
1146.6000;0.3183;0.7485;
1146.9000;0.3191;0.7485;
1147.2000;0.3175;0.7559;
1147.5000;0.3191;0.7609;
1147.8000;0.3175;0.7584;
1148.1000;0.3191;0.7534;
1148.4000;0.3150;0.7435;
1148.7000;0.3199;0.7485;
1149.0000;0.3191;0.7559;
1149.3000;0.3207;0.7534;
1149.6000;0.3223;0.7609;
1149.9000;0.3166;0.7460;
1150.2000;0.3207;0.7460;
1150.5000;0.3166;0.7311;
1150.8000;0.3207;0.7435;
1151.1000;0.3223;0.7460;
1151.4000;0.3264;0.7634;
1151.7000;0.3191;0.7510;
1152.0000;0.3183;0.7584;
1152.3000;0.3175;0.7485;
1152.6000;0.3175;0.7460;
1152.9000;0.3280;0.7733;
1153.2000;0.3199;0.7410;
1153.5000;0.3207;0.7410;
1153.8000;0.3207;0.7335;
1154.1000;0.3183;0.7335;
1154.4000;0.3175;0.7311;
1154.7000;0.3191;0.7261;
1155.0000;0.3256;0.7410;
1155.3000;0.3199;0.7435;
1155.6000;0.3183;0.7460;
1155.9000;0.3175;0.7485;
1156.2000;0.3183;0.7485;
1156.5000;0.3199;0.7410;
1156.8000;0.3166;0.7311;
1157.1000;0.3183;0.7311;
1157.4000;0.3166;0.7286;
1157.7000;0.3191;0.7385;
1158.0000;0.3175;0.7360;
1158.3000;0.3199;0.7435;
1158.6000;0.3183;0.7385;
1158.9000;0.3183;0.7286;
1159.2000;0.3191;0.7311;
1159.5000;0.3175;0.7236;
1159.8000;0.3166;0.7211;
1160.1000;0.3199;0.7236;
1160.4000;0.3183;0.7261;
1160.7000;0.3183;0.7261;
1161.0000;0.3199;0.7335;
1161.3000;0.3215;0.7311;
1161.6000;0.3166;0.7261;
1161.9000;0.3183;0.7335;
1162.2000;0.3199;0.7410;
1162.5000;0.3183;0.7360;
1162.8000;0.3199;0.7360;
1163.1000;0.3191;0.7385;
1163.4000;0.3183;0.7435;
1163.7000;0.3199;0.7485;
1164.0000;0.3191;0.7460;
1164.3000;0.3215;0.7534;
1164.6000;0.3166;0.7385;
1164.9000;0.3191;0.7435;
1165.2000;0.3183;0.7410;
1165.5000;0.3191;0.7510;
1165.8000;0.3191;0.7435;
1166.1000;0.3191;0.7435;
1166.4000;0.3223;0.7510;
1166.7000;0.3191;0.7485;
1167.0000;0.3166;0.7435;
1167.3000;0.3232;0.7659;
1167.6000;0.3199;0.7510;
1167.9000;0.3199;0.7385;
1168.2000;0.3158;0.7286;
1168.5000;0.3175;0.7435;
1168.8000;0.3207;0.7435;
1169.1000;0.3142;0.7335;
1169.4000;0.3191;0.7485;
1169.7000;0.3175;0.7435;
1170.0000;0.3175;0.7360;
1170.3000;0.3183;0.7335;
1170.6000;0.3183;0.7360;
1170.9000;0.3175;0.7286;
1171.2000;0.3183;0.7286;
1171.5000;0.3166;0.7335;
1171.8000;0.3175;0.7410;
1172.1000;0.3207;0.7410;
1172.4000;0.3166;0.7286;
1172.7000;0.3191;0.7311;
1173.0000;0.3207;0.7335;
1173.3000;0.3199;0.7385;
1173.6000;0.3191;0.7410;
1173.9000;0.3215;0.7534;
1174.2000;0.3191;0.7410;
1174.5000;0.3199;0.7335;
1174.8000;0.3191;0.7261;
1175.1000;0.3232;0.7385;
1175.4000;0.3183;0.7236;
1175.7000;0.3207;0.7410;
1176.0000;0.3191;0.7385;
1176.3000;0.3207;0.7435;
1176.6000;0.3199;0.7385;
1176.9000;0.3207;0.7335;
1177.2000;0.3183;0.7410;
1177.5000;0.3183;0.7510;
1177.8000;0.3215;0.7584;
1178.1000;0.3183;0.7510;
1178.4000;0.3183;0.7485;
1178.7000;0.3207;0.7510;
1179.0000;0.3191;0.7435;
1179.3000;0.3207;0.7435;
1179.6000;0.3199;0.7435;
1179.9000;0.3191;0.7410;
1180.2000;0.3264;0.7559;
1180.5000;0.3207;0.7485;
1180.8000;0.3199;0.7510;
1181.1000;0.3199;0.7534;
1181.4000;0.3101;0.7286;
1181.7000;0.3191;0.7510;
1182.0000;0.3183;0.7485;
1182.3000;0.3183;0.7435;
1182.6000;0.3183;0.7410;
1182.9000;0.3199;0.7460;
1183.2000;0.3183;0.7435;
1183.5000;0.3175;0.7335;
1183.8000;0.3183;0.7385;
1184.1000;0.3199;0.7460;
1184.4000;0.3183;0.7435;
1184.7000;0.3191;0.7410;
1185.0000;0.3183;0.7335;
1185.3000;0.3207;0.7360;
1185.6000;0.3191;0.7286;
1185.9000;0.3166;0.7311;
1186.2000;0.3183;0.7435;
1186.5000;0.3223;0.7634;
1186.8000;0.3207;0.7485;
1187.1000;0.3183;0.7460;
1187.4000;0.3199;0.7460;
1187.7000;0.3183;0.7335;
1188.0000;0.3191;0.7311;
1188.3000;0.3207;0.7211;
1188.6000;0.3183;0.7112;
1188.9000;0.3207;0.7236;
1189.2000;0.3175;0.7211;
1189.5000;0.3191;0.7286;
1189.8000;0.3183;0.7211;
1190.1000;0.3215;0.7311;
1190.4000;0.3207;0.7286;
1190.7000;0.3191;0.7261;
1191.0000;0.3232;0.7410;
1191.3000;0.3191;0.7236;
1191.6000;0.3175;0.7161;
1191.9000;0.3150;0.7087;
1192.2000;0.3199;0.7286;
1192.5000;0.3183;0.7186;
1192.8000;0.3183;0.7137;
1193.1000;0.3191;0.7062;
1193.4000;0.3191;0.7012;
1193.7000;0.3272;0.7335;
1194.0000;0.3199;0.7186;
1194.3000;0.3199;0.7211;
1194.6000;0.3199;0.7261;
1194.9000;0.3215;0.7311;
1195.2000;0.3191;0.7286;
1195.5000;0.3199;0.7311;
1195.8000;0.3191;0.7335;
1196.1000;0.3142;0.7261;
1196.4000;0.3191;0.7435;
1196.7000;0.3175;0.7311;
1197.0000;0.3158;0.7161;
1197.3000;0.3101;0.7012;
1197.6000;0.3215;0.7211;
1197.9000;0.3166;0.7012;
1198.2000;0.3191;0.7112;
1198.5000;0.3077;0.6838;
1198.8000;0.3183;0.7087;
1199.1000;0.3215;0.7261;
1199.4000;0.3191;0.7311;
1199.7000;0.3199;0.7311;
1200.0000;0.3175;0.7311;
1200.3000;0.3199;0.7435;
1200.6000;0.3199;0.7435;
1200.9000;0.3150;0.7311;
1201.2000;0.3183;0.7385;
1201.5000;0.3166;0.7385;
1201.8000;0.3150;0.7335;
1202.1000;0.3191;0.7435;
1202.4000;0.3142;0.7286;
1202.7000;0.3272;0.7534;
1203.0000;0.3175;0.7335;
1203.3000;0.3191;0.7385;
1203.6000;0.3175;0.7335;
1203.9000;0.3183;0.7360;
1204.2000;0.3183;0.7360;
1204.5000;0.3191;0.7360;
1204.8000;0.3183;0.7485;
1205.1000;0.3199;0.7485;
1205.4000;0.3191;0.7410;
1205.7000;0.3232;0.7460;
1206.0000;0.3166;0.7385;
1206.3000;0.3175;0.7335;
1206.6000;0.3207;0.7335;
1206.9000;0.3166;0.7161;
1207.2000;0.3183;0.7112;
1207.5000;0.3199;0.7186;
1207.8000;0.3199;0.7161;
1208.1000;0.3166;0.7037;
1208.4000;0.3175;0.7186;
1208.7000;0.3191;0.7211;
1209.0000;0.3183;0.7236;
1209.3000;0.3199;0.7311;
1209.6000;0.3199;0.7261;
1209.9000;0.3175;0.7186;
1210.2000;0.3191;0.7161;
1210.5000;0.3183;0.7186;
1210.8000;0.3215;0.7261;
1211.1000;0.3183;0.7236;
1211.4000;0.3199;0.7286;
1211.7000;0.3199;0.7161;
1212.0000;0.3166;0.6963;
1212.3000;0.3191;0.6913;
1212.6000;0.3191;0.6938;
1212.9000;0.3191;0.6987;
1213.2000;0.3183;0.6987;
1213.5000;0.3183;0.7037;
1213.8000;0.3183;0.6987;
1214.1000;0.3215;0.7112;
1214.4000;0.3191;0.7112;
1214.7000;0.3191;0.7137;
1215.0000;0.3166;0.7012;
1215.3000;0.3175;0.7012;
1215.6000;0.3150;0.7012;
1215.9000;0.3175;0.7037;
1216.2000;0.3150;0.7062;
1216.5000;0.3175;0.7087;
1216.8000;0.3207;0.7261;
1217.1000;0.3207;0.7311;
1217.4000;0.3183;0.7211;
1217.7000;0.3183;0.7137;
1218.0000;0.3191;0.7186;
1218.3000;0.3175;0.7261;
1218.6000;0.3199;0.7335;
1218.9000;0.3183;0.7286;
1219.2000;0.3207;0.7435;
1219.5000;0.3199;0.7360;
1219.8000;0.3199;0.7385;
1220.1000;0.3191;0.7311;
1220.4000;0.3118;0.7112;
1220.7000;0.3183;0.7261;
1221.0000;0.3223;0.7286;
1221.3000;0.3175;0.7186;
1221.6000;0.3223;0.7286;
1221.9000;0.3183;0.7236;
1222.2000;0.3175;0.7186;
1222.5000;0.3183;0.7161;
1222.8000;0.3183;0.7137;
1223.1000;0.3183;0.7112;
1223.4000;0.3199;0.7087;
1223.7000;0.3150;0.6963;
1224.0000;0.3191;0.7087;
1224.3000;0.3175;0.7186;
1224.6000;0.3207;0.7236;
1224.9000;0.3191;0.7087;
1225.2000;0.3191;0.7037;
1225.5000;0.3175;0.7112;
1225.8000;0.3191;0.7161;
1226.1000;0.3199;0.7161;
1226.4000;0.3183;0.7112;
1226.7000;0.3183;0.7161;
1227.0000;0.3183;0.7087;
1227.3000;0.3183;0.7137;
1227.6000;0.3199;0.7261;
1227.9000;0.3166;0.7112;
1228.2000;0.3191;0.7186;
1228.5000;0.3175;0.7037;
1228.8000;0.3199;0.7112;
1229.1000;0.3199;0.7261;
1229.4000;0.3191;0.7286;
1229.7000;0.3191;0.7311;
1230.0000;0.3199;0.7335;
1230.3000;0.3183;0.7360;
1230.6000;0.3158;0.7335;
1230.9000;0.3183;0.7385;
1231.2000;0.3191;0.7410;
1231.5000;0.3175;0.7286;
1231.8000;0.3183;0.7261;
1232.1000;0.3175;0.7286;
1232.4000;0.3183;0.7286;
1232.7000;0.3183;0.7286;
1233.0000;0.3166;0.7236;
1233.3000;0.3134;0.7161;
1233.6000;0.3183;0.7161;
1233.9000;0.3183;0.7087;
1234.2000;0.3199;0.7062;
1234.5000;0.3158;0.7012;
1234.8000;0.3183;0.7087;
1235.1000;0.3175;0.7161;
1235.4000;0.3158;0.7112;
1235.7000;0.3175;0.7161;
1236.0000;0.3158;0.7161;
1236.3000;0.3240;0.7311;
1236.6000;0.3175;0.7161;
1236.9000;0.3175;0.7137;
1237.2000;0.3142;0.7087;
1237.5000;0.3191;0.7186;
1237.8000;0.3191;0.7236;
1238.1000;0.3183;0.7211;
1238.4000;0.3199;0.7236;
1238.7000;0.3248;0.7236;
1239.0000;0.3207;0.7186;
1239.3000;0.3166;0.7112;
1239.6000;0.3175;0.7236;
1239.9000;0.3183;0.7236;
1240.2000;0.3191;0.7261;
1240.5000;0.3183;0.7261;
1240.8000;0.3175;0.7286;
1241.1000;0.3150;0.7211;
1241.4000;0.3183;0.7335;
1241.7000;0.3175;0.7286;
1242.0000;0.3166;0.7236;
1242.3000;0.3207;0.7186;
1242.6000;0.3191;0.7261;
1242.9000;0.3199;0.7286;
1243.2000;0.3183;0.7286;
1243.5000;0.3126;0.7236;
1243.8000;0.3199;0.7360;
1244.1000;0.3199;0.7360;
1244.4000;0.3183;0.7311;
1244.7000;0.3199;0.7311;
1245.0000;0.3158;0.7186;
1245.3000;0.3223;0.7410;
1245.6000;0.3207;0.7460;
1245.9000;0.3191;0.7485;
1246.2000;0.3183;0.7485;
1246.5000;0.3175;0.7485;
1246.8000;0.3150;0.7435;
1247.1000;0.3166;0.7435;
1247.4000;0.3134;0.7385;
1247.7000;0.3158;0.7410;
1248.0000;0.3166;0.7460;
1248.3000;0.3158;0.7460;
1248.6000;0.3158;0.7410;
1248.9000;0.3183;0.7435;
1249.2000;0.3183;0.7410;
1249.5000;0.3191;0.7410;
1249.8000;0.3175;0.7385;
1250.1000;0.3175;0.7360;
1250.4000;0.3183;0.7311;
1250.7000;0.3183;0.7261;
1251.0000;0.3166;0.7236;
1251.3000;0.3199;0.7311;
1251.6000;0.3191;0.7286;
1251.9000;0.3166;0.7137;
1252.2000;0.3223;0.7236;
1252.5000;0.3175;0.7137;
1252.8000;0.3191;0.7186;
1253.1000;0.3191;0.7087;
1253.4000;0.3175;0.7087;
1253.7000;0.3232;0.7211;
1254.0000;0.3191;0.7037;
1254.3000;0.3199;0.7087;
1254.6000;0.3191;0.7087;
1254.9000;0.3175;0.7062;
1255.2000;0.3183;0.7037;
1255.5000;0.3183;0.6938;
1255.8000;0.3175;0.6938;
1256.1000;0.3199;0.7112;
1256.4000;0.3175;0.7137;
1256.7000;0.3134;0.7087;
1257.0000;0.3183;0.7261;
1257.3000;0.3126;0.7012;
1257.6000;0.3191;0.7236;
1257.9000;0.3191;0.7286;
1258.2000;0.3158;0.7186;
1258.5000;0.3191;0.7161;
1258.8000;0.3199;0.7112;
1259.1000;0.3175;0.7012;
1259.4000;0.3183;0.7037;
1259.7000;0.3166;0.6963;
1260.0000;0.3166;0.6987;
1260.3000;0.3199;0.7112;
1260.6000;0.3175;0.6987;
1260.9000;0.3166;0.6938;
1261.2000;0.3166;0.6913;
1261.5000;0.3183;0.7012;
1261.8000;0.3175;0.7062;
1262.1000;0.3166;0.6938;
1262.4000;0.3150;0.6913;
1262.7000;0.3191;0.6987;
1263.0000;0.3175;0.7037;
1263.3000;0.3183;0.7012;
1263.6000;0.3175;0.7112;
1263.9000;0.3183;0.7186;
1264.2000;0.3191;0.7186;
1264.5000;0.3166;0.7161;
1264.8000;0.3183;0.7236;
1265.1000;0.3191;0.7211;
1265.4000;0.3183;0.7236;
1265.7000;0.3166;0.7261;
1266.0000;0.3191;0.7360;
1266.3000;0.3126;0.7261;
1266.6000;0.3191;0.7435;
1266.9000;0.3166;0.7410;
1267.2000;0.3191;0.7410;
1267.5000;0.3175;0.7286;
1267.8000;0.3191;0.7286;
1268.1000;0.3183;0.7261;
1268.4000;0.3207;0.7286;
1268.7000;0.3183;0.7236;
1269.0000;0.3175;0.7261;
1269.3000;0.3158;0.7311;
1269.6000;0.3191;0.7286;
1269.9000;0.3118;0.7087;
1270.2000;0.3183;0.7236;
1270.5000;0.3183;0.7186;
1270.8000;0.3175;0.7087;
1271.1000;0.3020;0.6614;
1271.4000;0.3207;0.7037;
1271.7000;0.3183;0.7062;
1272.0000;0.3158;0.7112;
1272.3000;0.3150;0.7062;
1272.6000;0.3191;0.7087;
1272.9000;0.3166;0.7087;
1273.2000;0.3142;0.7087;
1273.5000;0.3199;0.7311;
1273.8000;0.3175;0.7385;
1274.1000;0.3175;0.7360;
1274.4000;0.3215;0.7485;
1274.7000;0.3166;0.7360;
1275.0000;0.3191;0.7360;
1275.3000;0.3175;0.7286;
1275.6000;0.3199;0.7286;
1275.9000;0.3183;0.7137;
1276.2000;0.3191;0.7186;
1276.5000;0.3166;0.7211;
1276.8000;0.3191;0.7311;
1277.1000;0.3183;0.7360;
1277.4000;0.3158;0.7261;
1277.7000;0.3215;0.7435;
1278.0000;0.3191;0.7385;
1278.3000;0.3191;0.7460;
1278.6000;0.3175;0.7510;
1278.9000;0.3183;0.7510;
1279.2000;0.3126;0.7311;
1279.5000;0.3183;0.7385;
1279.8000;0.3207;0.7360;
1280.1000;0.3183;0.7385;
1280.4000;0.3175;0.7460;
1280.7000;0.3199;0.7485;
1281.0000;0.3150;0.7311;
1281.3000;0.3142;0.7137;
1281.6000;0.3215;0.7286;
1281.9000;0.3175;0.7161;
1282.2000;0.3166;0.7186;
1282.5000;0.3158;0.7186;
1282.8000;0.3199;0.7236;
1283.1000;0.3207;0.7335;
1283.4000;0.3183;0.7261;
1283.7000;0.3134;0.7137;
1284.0000;0.3191;0.7286;
1284.3000;0.3191;0.7385;
1284.6000;0.3183;0.7410;
1284.9000;0.3175;0.7360;
1285.2000;0.3191;0.7385;
1285.5000;0.3191;0.7261;
1285.8000;0.3183;0.7261;
1286.1000;0.3101;0.7062;
1286.4000;0.3150;0.7186;
1286.7000;0.3199;0.7311;
1287.0000;0.3240;0.7485;
1287.3000;0.3175;0.7385;
1287.6000;0.3175;0.7360;
1287.9000;0.3175;0.7435;
1288.2000;0.3142;0.7311;
1288.5000;0.3223;0.7460;
1288.8000;0.3183;0.7385;
1289.1000;0.3240;0.7485;
1289.4000;0.3199;0.7410;
1289.7000;0.3199;0.7410;
1290.0000;0.3158;0.7360;
1290.3000;0.3183;0.7485;
1290.6000;0.3183;0.7510;
1290.9000;0.3158;0.7410;
1291.2000;0.3175;0.7311;
1291.5000;0.3183;0.7286;
1291.8000;0.3183;0.7236;
1292.1000;0.3175;0.7261;
1292.4000;0.3166;0.7261;
1292.7000;0.3199;0.7311;
1293.0000;0.3158;0.7236;
1293.3000;0.3199;0.7410;
1293.6000;0.3191;0.7435;
1293.9000;0.3191;0.7385;
1294.2000;0.3183;0.7311;
1294.5000;0.3191;0.7335;
1294.8000;0.3175;0.7286;
1295.1000;0.3183;0.7360;
1295.4000;0.3191;0.7460;
1295.7000;0.3183;0.7385;
1296.0000;0.3109;0.7137;
1296.3000;0.3166;0.7410;
1296.6000;0.3183;0.7435;
1296.9000;0.3166;0.7485;
1297.2000;0.3150;0.7460;
1297.5000;0.3166;0.7385;
1297.8000;0.3166;0.7286;
1298.1000;0.3158;0.7261;
1298.4000;0.3158;0.7335;
1298.7000;0.3191;0.7435;
1299.0000;0.3191;0.7460;
1299.3000;0.3183;0.7410;
1299.6000;0.3207;0.7460;
1299.9000;0.3215;0.7460;
1300.2000;0.3183;0.7360;
1300.5000;0.3191;0.7385;
1300.8000;0.3191;0.7360;
1301.1000;0.3191;0.7385;
1301.4000;0.3175;0.7236;
1301.7000;0.3175;0.7261;
1302.0000;0.3191;0.7311;
1302.3000;0.3183;0.7261;
1302.6000;0.3158;0.7236;
1302.9000;0.3183;0.7261;
1303.2000;0.3175;0.7236;
1303.5000;0.3199;0.7360;
1303.8000;0.3199;0.7360;
1304.1000;0.3175;0.7286;
1304.4000;0.3199;0.7335;
1304.7000;0.3175;0.7211;
1305.0000;0.3199;0.7211;
1305.3000;0.3191;0.7236;
1305.6000;0.3223;0.7311;
1305.9000;0.3175;0.7261;
1306.2000;0.3183;0.7261;
1306.5000;0.3166;0.7211;
1306.8000;0.3183;0.7137;
1307.1000;0.3166;0.7112;
1307.4000;0.3191;0.7161;
1307.7000;0.3150;0.7137;
1308.0000;0.3207;0.7286;
1308.3000;0.3158;0.7186;
1308.6000;0.3183;0.7261;
1308.9000;0.3183;0.7261;
1309.2000;0.3175;0.7311;
1309.5000;0.3191;0.7261;
1309.8000;0.3199;0.7311;
1310.1000;0.3166;0.7186;
1310.4000;0.3183;0.7087;
1310.7000;0.3191;0.7062;
1311.0000;0.3223;0.7161;
1311.3000;0.3248;0.7261;
1311.6000;0.3175;0.7112;
1311.9000;0.3207;0.7211;
1312.2000;0.3183;0.7236;
1312.5000;0.3223;0.7360;
1312.8000;0.3183;0.7236;
1313.1000;0.3158;0.7112;
1313.4000;0.3232;0.7311;
1313.7000;0.3207;0.7236;
1314.0000;0.3199;0.7286;
1314.3000;0.3126;0.7087;
1314.6000;0.3166;0.7161;
1314.9000;0.3199;0.7186;
1315.2000;0.3183;0.7236;
1315.5000;0.3183;0.7161;
1315.8000;0.3166;0.7112;
1316.1000;0.3223;0.7261;
1316.4000;0.3248;0.7261;
1316.7000;0.3150;0.6963;
1317.0000;0.3207;0.7112;
1317.3000;0.3175;0.7012;
1317.6000;0.3158;0.7062;
1317.9000;0.3134;0.7037;
1318.2000;0.3175;0.7211;
1318.5000;0.3166;0.7236;
1318.8000;0.3175;0.7311;
1319.1000;0.3175;0.7286;
1319.4000;0.3248;0.7435;
1319.7000;0.3191;0.7186;
1320.0000;0.3175;0.7112;
1320.3000;0.3175;0.7112;
1320.6000;0.3175;0.7186;
1320.9000;0.3183;0.7261;
1321.2000;0.3191;0.7311;
1321.5000;0.3183;0.7286;
1321.8000;0.3175;0.7261;
1322.1000;0.3183;0.7286;
1322.4000;0.3191;0.7211;
1322.7000;0.3199;0.7211;
1323.0000;0.3183;0.7211;
1323.3000;0.3191;0.7261;
1323.6000;0.3175;0.7236;
1323.9000;0.3199;0.7286;
1324.2000;0.3183;0.7286;
1324.5000;0.3183;0.7236;
1324.8000;0.3183;0.7186;
1325.1000;0.3199;0.7261;
1325.4000;0.3199;0.7286;
1325.7000;0.3158;0.7236;
1326.0000;0.3191;0.7286;
1326.3000;0.3158;0.7236;
1326.6000;0.3142;0.7211;
1326.9000;0.3183;0.7360;
1327.2000;0.3183;0.7311;
1327.5000;0.3175;0.7311;
1327.8000;0.3175;0.7261;
1328.1000;0.3175;0.7186;
1328.4000;0.3248;0.7286;
1328.7000;0.3183;0.7012;
1329.0000;0.3183;0.6913;
1329.3000;0.3175;0.6913;
1329.6000;0.3150;0.6963;
1329.9000;0.3191;0.7012;
1330.2000;0.3199;0.7037;
1330.5000;0.3166;0.6987;
1330.8000;0.3215;0.7137;
1331.1000;0.3223;0.7186;
1331.4000;0.3215;0.7186;
1331.7000;0.3175;0.7112;
1332.0000;0.3191;0.7112;
1332.3000;0.3199;0.7037;
1332.6000;0.3175;0.6963;
1332.9000;0.3191;0.7161;
1333.2000;0.3191;0.7161;
1333.5000;0.3199;0.7236;
1333.8000;0.3191;0.7211;
1334.1000;0.3093;0.6938;
1334.4000;0.3199;0.7261;
1334.7000;0.3166;0.7137;
1335.0000;0.3199;0.7161;
1335.3000;0.3199;0.7186;
1335.6000;0.3183;0.7211;
1335.9000;0.3183;0.7236;
1336.2000;0.3134;0.7112;
1336.5000;0.3191;0.7137;
1336.8000;0.3191;0.7137;
1337.1000;0.3191;0.7062;
1337.4000;0.3191;0.7211;
1337.7000;0.3175;0.7037;
1338.0000;0.3175;0.7236;
1338.3000;0.3158;0.7161;
1338.6000;0.3183;0.7186;
1338.9000;0.3183;0.7211;
1339.2000;0.3166;0.7186;
1339.5000;0.3166;0.7137;
1339.8000;0.3175;0.7112;
1340.1000;0.3166;0.7087;
1340.4000;0.3199;0.7211;
1340.7000;0.3183;0.7211;
1341.0000;0.3199;0.7137;
1341.3000;0.3183;0.7211;
1341.6000;0.3191;0.7261;
1341.9000;0.3166;0.7161;
1342.2000;0.3175;0.7186;
1342.5000;0.3175;0.7211;
1342.8000;0.3175;0.7211;
1343.1000;0.3183;0.7335;
1343.4000;0.3183;0.7335;
1343.7000;0.3183;0.7236;
1344.0000;0.3191;0.7112;
1344.3000;0.3191;0.7211;
1344.6000;0.3191;0.7261;
1344.9000;0.3191;0.7211;
1345.2000;0.3175;0.7186;
1345.5000;0.3175;0.7137;
1345.8000;0.3215;0.7286;
1346.1000;0.3175;0.7186;
1346.4000;0.3158;0.7161;
1346.7000;0.3175;0.7211;
1347.0000;0.3166;0.7236;
1347.3000;0.3207;0.7311;
1347.6000;0.3175;0.7236;
1347.9000;0.3191;0.7261;
1348.2000;0.3191;0.7261;
1348.5000;0.3175;0.7311;
1348.8000;0.3183;0.7385;
1349.1000;0.3199;0.7485;
1349.4000;0.3199;0.7510;
1349.7000;0.3166;0.7485;
1350.0000;0.3175;0.7410;
1350.3000;0.3166;0.7311;
1350.6000;0.3183;0.7311;
1350.9000;0.3175;0.7186;
1351.2000;0.3183;0.7261;
1351.5000;0.3158;0.7186;
1351.8000;0.3183;0.7137;
1352.1000;0.3191;0.7236;
1352.4000;0.3158;0.7186;
1352.7000;0.3175;0.7161;
1353.0000;0.3134;0.7186;
1353.3000;0.3150;0.7186;
1353.6000;0.3215;0.7261;
1353.9000;0.3191;0.7211;
1354.2000;0.3166;0.7112;
1354.5000;0.3183;0.7161;
1354.8000;0.3183;0.7087;
1355.1000;0.3175;0.7087;
1355.4000;0.3207;0.7087;
1355.7000;0.3183;0.7137;
1356.0000;0.3183;0.7211;
1356.3000;0.3166;0.7186;
1356.6000;0.3183;0.7261;
1356.9000;0.3183;0.7286;
1357.2000;0.3183;0.7311;
1357.5000;0.3199;0.7335;
1357.8000;0.3134;0.7236;
1358.1000;0.3264;0.7559;
1358.4000;0.3183;0.7410;
1358.7000;0.3166;0.7335;
1359.0000;0.3166;0.7335;
1359.3000;0.3183;0.7360;
1359.6000;0.3150;0.7311;
1359.9000;0.3191;0.7510;
1360.2000;0.3126;0.7311;
1360.5000;0.3166;0.7510;
1360.8000;0.3175;0.7485;
1361.1000;0.3166;0.7410;
1361.4000;0.3175;0.7360;
1361.7000;0.3166;0.7335;
1362.0000;0.3183;0.7360;
1362.3000;0.3158;0.7360;
1362.6000;0.3191;0.7410;
1362.9000;0.3183;0.7385;
1363.2000;0.3158;0.7286;
1363.5000;0.3166;0.7236;
1363.8000;0.3150;0.7062;
1364.1000;0.3183;0.7161;
1364.4000;0.3183;0.7087;
1364.7000;0.3232;0.7261;
1365.0000;0.3158;0.7062;
1365.3000;0.3175;0.7137;
1365.6000;0.3191;0.7236;
1365.9000;0.3191;0.7236;
1366.2000;0.3199;0.7186;
1366.5000;0.3191;0.7211;
1366.8000;0.3183;0.7236;
1367.1000;0.3183;0.7211;
1367.4000;0.3166;0.7311;
1367.7000;0.3199;0.7360;
1368.0000;0.3191;0.7311;
1368.3000;0.3134;0.7261;
1368.6000;0.3183;0.7286;
1368.9000;0.3158;0.7261;
1369.2000;0.3150;0.7137;
1369.5000;0.3191;0.7236;
1369.8000;0.3199;0.7236;
1370.1000;0.3175;0.7211;
1370.4000;0.3134;0.7161;
1370.7000;0.3158;0.7161;
1371.0000;0.3175;0.7211;
1371.3000;0.3175;0.7211;
1371.6000;0.3183;0.7161;
1371.9000;0.3142;0.7062;
1372.2000;0.3199;0.7261;
1372.5000;0.3142;0.7211;
1372.8000;0.3191;0.7211;
1373.1000;0.3175;0.7211;
1373.4000;0.3183;0.7261;
1373.7000;0.3158;0.7286;
1374.0000;0.3166;0.7286;
1374.3000;0.3183;0.7286;
1374.6000;0.3158;0.7335;
1374.9000;0.3175;0.7335;
1375.2000;0.3175;0.7286;
1375.5000;0.3183;0.7360;
1375.8000;0.3199;0.7311;
1376.1000;0.3166;0.7236;
1376.4000;0.3166;0.7261;
1376.7000;0.3166;0.7335;
1377.0000;0.3183;0.7385;
1377.3000;0.3158;0.7385;
1377.6000;0.3183;0.7261;
1377.9000;0.3158;0.7186;
1378.2000;0.3272;0.7435;
1378.5000;0.3191;0.7161;
1378.8000;0.3215;0.7087;
1379.1000;0.3142;0.6963;
1379.4000;0.3183;0.7112;
1379.7000;0.3191;0.7311;
1380.0000;0.3232;0.7385;
1380.3000;0.3158;0.7261;
1380.6000;0.3175;0.7236;
1380.9000;0.3199;0.7211;
1381.2000;0.3191;0.7161;
1381.5000;0.3183;0.7112;
1381.8000;0.3183;0.7037;
1382.1000;0.3280;0.7385;
1382.4000;0.3191;0.7112;
1382.7000;0.3191;0.7062;
1383.0000;0.3199;0.7211;
1383.3000;0.3158;0.7161;
1383.6000;0.3191;0.7261;
1383.9000;0.3166;0.7236;
1384.2000;0.3175;0.7335;
1384.5000;0.3183;0.7335;
1384.8000;0.3150;0.7236;
1385.1000;0.3166;0.7335;
1385.4000;0.3191;0.7385;
1385.7000;0.3191;0.7435;
1386.0000;0.3199;0.7410;
1386.3000;0.3183;0.7385;
1386.6000;0.3061;0.7137;
1386.9000;0.3142;0.7360;
1387.2000;0.3191;0.7534;
1387.5000;0.3199;0.7510;
1387.8000;0.3175;0.7485;
1388.1000;0.3134;0.7385;
1388.4000;0.3166;0.7435;
1388.7000;0.3183;0.7410;
1389.0000;0.3093;0.7236;
1389.3000;0.3175;0.7410;
1389.6000;0.3199;0.7410;
1389.9000;0.3289;0.7659;
1390.2000;0.3166;0.7286;
1390.5000;0.3166;0.7286;
1390.8000;0.3191;0.7335;
1391.1000;0.3191;0.7385;
1391.4000;0.3175;0.7311;
1391.7000;0.3150;0.7236;
1392.0000;0.3166;0.7286;
1392.3000;0.3175;0.7385;
1392.6000;0.3158;0.7311;
1392.9000;0.3118;0.7137;
1393.2000;0.3183;0.7261;
1393.5000;0.3166;0.7186;
1393.8000;0.3240;0.7261;
1394.1000;0.3166;0.7037;
1394.4000;0.3183;0.6987;
1394.7000;0.3199;0.7012;
1395.0000;0.3199;0.7037;
1395.3000;0.3183;0.6987;
1395.6000;0.3191;0.7012;
1395.9000;0.3183;0.7012;
1396.2000;0.3207;0.7137;
1396.5000;0.3199;0.7112;
1396.8000;0.3183;0.7211;
1397.1000;0.3215;0.7286;
1397.4000;0.3085;0.6987;
1397.7000;0.3175;0.7211;
1398.0000;0.3175;0.7261;
1398.3000;0.3166;0.7236;
1398.6000;0.3183;0.7161;
1398.9000;0.3166;0.7112;
1399.2000;0.3175;0.7161;
1399.5000;0.3175;0.7062;
1399.8000;0.3191;0.7137;
