time/ms;Fluo/V;P700 deltaI/I x10³;
-199.8000;0.6170;1.5103;
-199.5000;0.6186;1.5079;
-199.2000;0.6162;1.5103;
-198.9000;0.6154;1.5054;
-198.6000;0.6170;1.5079;
-198.3000;0.6195;1.5152;
-198.0000;0.6170;1.5176;
-197.7000;0.6219;1.5346;
-197.4000;0.6146;1.5176;
-197.1000;0.6170;1.5224;
-196.8000;0.6170;1.5224;
-196.5000;0.6178;1.5224;
-196.2000;0.6178;1.5249;
-195.9000;0.6178;1.5419;
-195.6000;0.6170;1.5467;
-195.3000;0.6178;1.5443;
-195.0000;0.6186;1.5467;
-194.7000;0.6186;1.5516;
-194.4000;0.6186;1.5516;
-194.1000;0.6162;1.5394;
-193.8000;0.6162;1.5297;
-193.5000;0.6178;1.5322;
-193.2000;0.6154;1.5273;
-192.9000;0.6195;1.5394;
-192.6000;0.6186;1.5419;
-192.3000;0.6195;1.5516;
-192.0000;0.6170;1.5492;
-191.7000;0.6235;1.5564;
-191.4000;0.6178;1.5467;
-191.1000;0.6178;1.5443;
-190.8000;0.6178;1.5419;
-190.5000;0.6178;1.5443;
-190.2000;0.6146;1.5370;
-189.9000;0.6195;1.5419;
-189.6000;0.6170;1.5443;
-189.3000;0.6178;1.5443;
-189.0000;0.6178;1.5467;
-188.7000;0.6170;1.5443;
-188.4000;0.6162;1.5419;
-188.1000;0.6170;1.5394;
-187.8000;0.6178;1.5443;
-187.5000;0.6178;1.5443;
-187.2000;0.6195;1.5394;
-186.9000;0.6170;1.5346;
-186.6000;0.6186;1.5443;
-186.3000;0.6195;1.5370;
-186.0000;0.6178;1.5224;
-185.7000;0.6170;1.5176;
-185.4000;0.6178;1.5176;
-185.1000;0.6178;1.5200;
-184.8000;0.6170;1.5152;
-184.5000;0.6154;1.5152;
-184.2000;0.6178;1.5152;
-183.9000;0.6178;1.5152;
-183.6000;0.6162;1.5127;
-183.3000;0.6170;1.5103;
-183.0000;0.6170;1.5127;
-182.7000;0.6178;1.5127;
-182.4000;0.6170;1.5176;
-182.1000;0.6186;1.5273;
-181.8000;0.6186;1.5297;
-181.5000;0.6186;1.5297;
-181.2000;0.6186;1.5127;
-180.9000;0.6170;1.5030;
-180.6000;0.6186;1.5054;
-180.3000;0.6186;1.5103;
-180.0000;0.6170;1.5079;
-179.7000;0.6154;1.5030;
-179.4000;0.6129;1.4982;
-179.1000;0.6170;1.5200;
-178.8000;0.6186;1.5176;
-178.5000;0.6170;1.5127;
-178.2000;0.6186;1.5103;
-177.9000;0.6162;1.4957;
-177.6000;0.6178;1.4982;
-177.3000;0.6170;1.5054;
-177.0000;0.6170;1.5030;
-176.7000;0.6178;1.5079;
-176.4000;0.6170;1.5103;
-176.1000;0.6178;1.5079;
-175.8000;0.6170;1.5079;
-175.5000;0.6170;1.5103;
-175.2000;0.6162;1.5103;
-174.9000;0.6178;1.5079;
-174.6000;0.6178;1.5079;
-174.3000;0.6154;1.5103;
-174.0000;0.6178;1.5127;
-173.7000;0.6162;1.5200;
-173.4000;0.6178;1.5273;
-173.1000;0.6170;1.5200;
-172.8000;0.6170;1.5103;
-172.5000;0.6170;1.5127;
-172.2000;0.6186;1.5152;
-171.9000;0.6178;1.5152;
-171.6000;0.6178;1.5200;
-171.3000;0.6195;1.5176;
-171.0000;0.6195;1.5297;
-170.7000;0.6170;1.5224;
-170.4000;0.6195;1.5249;
-170.1000;0.6178;1.5249;
-169.8000;0.6178;1.5249;
-169.5000;0.6162;1.5224;
-169.2000;0.6178;1.5297;
-168.9000;0.6178;1.5370;
-168.6000;0.6186;1.5297;
-168.3000;0.6162;1.5273;
-168.0000;0.6178;1.5273;
-167.7000;0.6154;1.5224;
-167.4000;0.6170;1.5249;
-167.1000;0.6178;1.5224;
-166.8000;0.6170;1.5127;
-166.5000;0.6178;1.5200;
-166.2000;0.6186;1.5224;
-165.9000;0.6186;1.5249;
-165.6000;0.6178;1.5273;
-165.3000;0.6186;1.5224;
-165.0000;0.6178;1.5249;
-164.7000;0.6178;1.5322;
-164.4000;0.6178;1.5346;
-164.1000;0.6178;1.5346;
-163.8000;0.6170;1.5273;
-163.5000;0.6186;1.5394;
-163.2000;0.6178;1.5419;
-162.9000;0.6203;1.5492;
-162.6000;0.6162;1.5443;
-162.3000;0.6162;1.5516;
-162.0000;0.6178;1.5443;
-161.7000;0.6170;1.5394;
-161.4000;0.6178;1.5443;
-161.1000;0.6186;1.5589;
-160.8000;0.6195;1.5613;
-160.5000;0.6178;1.5589;
-160.2000;0.6170;1.5589;
-159.9000;0.6195;1.5589;
-159.6000;0.6113;1.5419;
-159.3000;0.6121;1.5467;
-159.0000;0.6162;1.5589;
-158.7000;0.6178;1.5540;
-158.4000;0.6081;1.5273;
-158.1000;0.6162;1.5564;
-157.8000;0.6162;1.5540;
-157.5000;0.6170;1.5564;
-157.2000;0.6178;1.5637;
-156.9000;0.6105;1.5419;
-156.6000;0.6154;1.5564;
-156.3000;0.6162;1.5540;
-156.0000;0.6138;1.5467;
-155.7000;0.6178;1.5564;
-155.4000;0.6178;1.5564;
-155.1000;0.6178;1.5613;
-154.8000;0.6186;1.5613;
-154.5000;0.6162;1.5492;
-154.2000;0.6178;1.5394;
-153.9000;0.6186;1.5346;
-153.6000;0.6146;1.5394;
-153.3000;0.6178;1.5419;
-153.0000;0.6154;1.5419;
-152.7000;0.6170;1.5419;
-152.4000;0.6162;1.5394;
-152.1000;0.6154;1.5322;
-151.8000;0.6178;1.5249;
-151.5000;0.6162;1.5224;
-151.2000;0.6178;1.5322;
-150.9000;0.6162;1.5322;
-150.6000;0.6178;1.5394;
-150.3000;0.6170;1.5419;
-150.0000;0.6186;1.5492;
-149.7000;0.6195;1.5467;
-149.4000;0.6162;1.5443;
-149.1000;0.6178;1.5516;
-148.8000;0.6178;1.5492;
-148.5000;0.6170;1.5492;
-148.2000;0.6195;1.5516;
-147.9000;0.6178;1.5540;
-147.6000;0.6170;1.5589;
-147.3000;0.6203;1.5710;
-147.0000;0.6146;1.5613;
-146.7000;0.6170;1.5759;
-146.4000;0.6170;1.5734;
-146.1000;0.6170;1.5637;
-145.8000;0.6162;1.5661;
-145.5000;0.6195;1.5686;
-145.2000;0.6178;1.5637;
-144.9000;0.6186;1.5637;
-144.6000;0.6186;1.5661;
-144.3000;0.6186;1.5661;
-144.0000;0.6178;1.5734;
-143.7000;0.6162;1.5759;
-143.4000;0.6154;1.5686;
-143.1000;0.6178;1.5686;
-142.8000;0.6154;1.5589;
-142.5000;0.6170;1.5613;
-142.2000;0.6162;1.5637;
-141.9000;0.6170;1.5710;
-141.6000;0.6178;1.5686;
-141.3000;0.6170;1.5637;
-141.0000;0.6170;1.5710;
-140.7000;0.6154;1.5710;
-140.4000;0.6178;1.5734;
-140.1000;0.6146;1.5637;
-139.8000;0.6178;1.5613;
-139.5000;0.6178;1.5589;
-139.2000;0.6162;1.5564;
-138.9000;0.6146;1.5516;
-138.6000;0.6186;1.5637;
-138.3000;0.6178;1.5564;
-138.0000;0.6186;1.5637;
-137.7000;0.6178;1.5710;
-137.4000;0.6178;1.5759;
-137.1000;0.6260;1.5977;
-136.8000;0.6170;1.5734;
-136.5000;0.6195;1.5807;
-136.2000;0.6178;1.5734;
-135.9000;0.6186;1.5686;
-135.6000;0.6178;1.5661;
-135.3000;0.6195;1.5613;
-135.0000;0.6219;1.5686;
-134.7000;0.6195;1.5540;
-134.4000;0.6170;1.5516;
-134.1000;0.6146;1.5443;
-133.8000;0.6186;1.5564;
-133.5000;0.6178;1.5613;
-133.2000;0.6178;1.5467;
-132.9000;0.6170;1.5394;
-132.6000;0.6195;1.5322;
-132.3000;0.6186;1.5322;
-132.0000;0.6146;1.5127;
-131.7000;0.6186;1.5152;
-131.4000;0.6170;1.5079;
-131.1000;0.6178;1.5152;
-130.8000;0.6178;1.5249;
-130.5000;0.6178;1.5249;
-130.2000;0.6186;1.5297;
-129.9000;0.6154;1.5249;
-129.6000;0.6178;1.5322;
-129.3000;0.6243;1.5564;
-129.0000;0.6170;1.5419;
-128.7000;0.6300;1.5856;
-128.4000;0.6162;1.5540;
-128.1000;0.6170;1.5589;
-127.8000;0.6178;1.5589;
-127.5000;0.6170;1.5540;
-127.2000;0.6178;1.5516;
-126.9000;0.6170;1.5516;
-126.6000;0.6162;1.5564;
-126.3000;0.6178;1.5564;
-126.0000;0.6186;1.5613;
-125.7000;0.6146;1.5516;
-125.4000;0.6170;1.5589;
-125.1000;0.6186;1.5661;
-124.8000;0.6227;1.5637;
-124.5000;0.6178;1.5540;
-124.2000;0.6162;1.5637;
-123.9000;0.6186;1.5686;
-123.6000;0.6178;1.5564;
-123.3000;0.6170;1.5516;
-123.0000;0.6162;1.5516;
-122.7000;0.6170;1.5516;
-122.4000;0.6195;1.5540;
-122.1000;0.6154;1.5467;
-121.8000;0.6162;1.5443;
-121.5000;0.6178;1.5492;
-121.2000;0.6170;1.5516;
-120.9000;0.6170;1.5467;
-120.6000;0.6178;1.5467;
-120.3000;0.6195;1.5443;
-120.0000;0.6203;1.5516;
-119.7000;0.6146;1.5273;
-119.4000;0.6178;1.5297;
-119.1000;0.6170;1.5273;
-118.8000;0.6162;1.5346;
-118.5000;0.6203;1.5419;
-118.2000;0.6178;1.5297;
-117.9000;0.6195;1.5322;
-117.6000;0.6178;1.5370;
-117.3000;0.6178;1.5492;
-117.0000;0.6186;1.5564;
-116.7000;0.6170;1.5516;
-116.4000;0.6162;1.5516;
-116.1000;0.6186;1.5540;
-115.8000;0.6186;1.5589;
-115.5000;0.6154;1.5564;
-115.2000;0.6170;1.5516;
-114.9000;0.6170;1.5516;
-114.6000;0.6162;1.5540;
-114.3000;0.6162;1.5492;
-114.0000;0.6170;1.5516;
-113.7000;0.6186;1.5613;
-113.4000;0.6146;1.5564;
-113.1000;0.6186;1.5661;
-112.8000;0.6089;1.5516;
-112.5000;0.6170;1.5613;
-112.2000;0.6170;1.5589;
-111.9000;0.6170;1.5564;
-111.6000;0.6178;1.5516;
-111.3000;0.6154;1.5443;
-111.0000;0.6170;1.5467;
-110.7000;0.6162;1.5589;
-110.4000;0.6170;1.5589;
-110.1000;0.6178;1.5637;
-109.8000;0.6162;1.5613;
-109.5000;0.6170;1.5613;
-109.2000;0.6170;1.5589;
-108.9000;0.6162;1.5564;
-108.6000;0.6178;1.5613;
-108.3000;0.6170;1.5564;
-108.0000;0.6154;1.5564;
-107.7000;0.6178;1.5564;
-107.4000;0.6186;1.5564;
-107.1000;0.6227;1.5686;
-106.8000;0.6178;1.5516;
-106.5000;0.6186;1.5564;
-106.2000;0.6186;1.5564;
-105.9000;0.6170;1.5492;
-105.6000;0.6219;1.5564;
-105.3000;0.6162;1.5419;
-105.0000;0.6162;1.5540;
-104.7000;0.6178;1.5613;
-104.4000;0.6178;1.5589;
-104.1000;0.6162;1.5589;
-103.8000;0.6211;1.5661;
-103.5000;0.6154;1.5613;
-103.2000;0.6138;1.5540;
-102.9000;0.6195;1.5661;
-102.6000;0.6211;1.5734;
-102.3000;0.6178;1.5710;
-102.0000;0.6178;1.5637;
-101.7000;0.6178;1.5686;
-101.4000;0.6170;1.5759;
-101.1000;0.6162;1.5637;
-100.8000;0.6162;1.5540;
-100.5000;0.6154;1.5492;
-100.2000;0.6162;1.5467;
-99.9000;0.6170;1.5467;
-99.6000;0.6178;1.5443;
-99.3000;0.6186;1.5492;
-99.0000;0.6170;1.5394;
-98.7000;0.6121;1.5273;
-98.4000;0.6170;1.5346;
-98.1000;0.6178;1.5370;
-97.8000;0.6170;1.5273;
-97.5000;0.6162;1.5224;
-97.2000;0.6154;1.5249;
-96.9000;0.6186;1.5249;
-96.6000;0.6178;1.5176;
-96.3000;0.6186;1.5127;
-96.0000;0.6178;1.5103;
-95.7000;0.6162;1.5054;
-95.4000;0.6211;1.5224;
-95.1000;0.6162;1.5176;
-94.8000;0.6113;1.5103;
-94.5000;0.6178;1.5322;
-94.2000;0.6178;1.5273;
-93.9000;0.6178;1.5176;
-93.6000;0.6178;1.5103;
-93.3000;0.6178;1.5249;
-93.0000;0.6162;1.5273;
-92.7000;0.6178;1.5346;
-92.4000;0.6178;1.5370;
-92.1000;0.6178;1.5297;
-91.8000;0.6211;1.5370;
-91.5000;0.6211;1.5419;
-91.2000;0.6154;1.5273;
-90.9000;0.6170;1.5273;
-90.6000;0.6186;1.5370;
-90.3000;0.6178;1.5419;
-90.0000;0.6243;1.5540;
-89.7000;0.6162;1.5419;
-89.4000;0.6162;1.5394;
-89.1000;0.6178;1.5443;
-88.8000;0.6170;1.5467;
-88.5000;0.6162;1.5540;
-88.2000;0.6146;1.5564;
-87.9000;0.6162;1.5564;
-87.6000;0.6178;1.5613;
-87.3000;0.6203;1.5661;
-87.0000;0.6178;1.5540;
-86.7000;0.6162;1.5516;
-86.4000;0.6138;1.5443;
-86.1000;0.6146;1.5443;
-85.8000;0.6186;1.5516;
-85.5000;0.6162;1.5419;
-85.2000;0.6178;1.5467;
-84.9000;0.6162;1.5370;
-84.6000;0.6170;1.5297;
-84.3000;0.6162;1.5249;
-84.0000;0.6170;1.5322;
-83.7000;0.6154;1.5249;
-83.4000;0.6162;1.5273;
-83.1000;0.6138;1.5249;
-82.8000;0.6186;1.5273;
-82.5000;0.6162;1.5297;
-82.2000;0.6195;1.5346;
-81.9000;0.6162;1.5322;
-81.6000;0.6219;1.5467;
-81.3000;0.6186;1.5492;
-81.0000;0.6097;1.5297;
-80.7000;0.6170;1.5492;
-80.4000;0.6170;1.5516;
-80.1000;0.6081;1.5249;
-79.8000;0.6162;1.5443;
-79.5000;0.6129;1.5370;
-79.2000;0.6162;1.5516;
-78.9000;0.6170;1.5492;
-78.6000;0.6170;1.5419;
-78.3000;0.6154;1.5394;
-78.0000;0.6178;1.5370;
-77.7000;0.6170;1.5370;
-77.4000;0.6178;1.5443;
-77.1000;0.6178;1.5419;
-76.8000;0.6195;1.5394;
-76.5000;0.6178;1.5346;
-76.2000;0.6186;1.5443;
-75.9000;0.6203;1.5443;
-75.6000;0.6186;1.5419;
-75.3000;0.6170;1.5346;
-75.0000;0.6170;1.5297;
-74.7000;0.6170;1.5322;
-74.4000;0.6162;1.5370;
-74.1000;0.6178;1.5443;
-73.8000;0.6178;1.5443;
-73.5000;0.6178;1.5370;
-73.2000;0.6178;1.5394;
-72.9000;0.6178;1.5419;
-72.6000;0.6154;1.5370;
-72.3000;0.6170;1.5419;
-72.0000;0.6170;1.5492;
-71.7000;0.6178;1.5443;
-71.4000;0.6186;1.5564;
-71.1000;0.6178;1.5564;
-70.8000;0.6178;1.5613;
-70.5000;0.6170;1.5637;
-70.2000;0.6162;1.5564;
-69.9000;0.6154;1.5540;
-69.6000;0.6178;1.5540;
-69.3000;0.6186;1.5589;
-69.0000;0.6170;1.5540;
-68.7000;0.6162;1.5492;
-68.4000;0.6178;1.5443;
-68.1000;0.6178;1.5443;
-67.8000;0.6170;1.5394;
-67.5000;0.6186;1.5516;
-67.2000;0.6178;1.5419;
-66.9000;0.6186;1.5443;
-66.6000;0.6203;1.5540;
-66.3000;0.6178;1.5492;
-66.0000;0.6178;1.5492;
-65.7000;0.6162;1.5443;
-65.4000;0.6186;1.5516;
-65.1000;0.6170;1.5540;
-64.8000;0.6178;1.5516;
-64.5000;0.6178;1.5370;
-64.2000;0.6178;1.5443;
-63.9000;0.6162;1.5346;
-63.6000;0.6146;1.5322;
-63.3000;0.6162;1.5322;
-63.0000;0.6162;1.5443;
-62.7000;0.6170;1.5467;
-62.4000;0.6178;1.5467;
-62.1000;0.6170;1.5516;
-61.8000;0.6186;1.5492;
-61.5000;0.6170;1.5492;
-61.2000;0.6162;1.5443;
-60.9000;0.6170;1.5637;
-60.6000;0.6186;1.5589;
-60.3000;0.6089;1.5419;
-60.0000;0.6170;1.5637;
-59.7000;0.6178;1.5637;
-59.4000;0.6162;1.5516;
-59.1000;0.6219;1.5637;
-58.8000;0.6170;1.5492;
-58.5000;0.6186;1.5394;
-58.2000;0.6178;1.5419;
-57.9000;0.6154;1.5322;
-57.6000;0.6162;1.5370;
-57.3000;0.6186;1.5394;
-57.0000;0.6162;1.5419;
-56.7000;0.6162;1.5443;
-56.4000;0.6170;1.5540;
-56.1000;0.6186;1.5637;
-55.8000;0.6178;1.5564;
-55.5000;0.6162;1.5516;
-55.2000;0.6170;1.5492;
-54.9000;0.6154;1.5467;
-54.6000;0.6186;1.5589;
-54.3000;0.6186;1.5589;
-54.0000;0.6186;1.5540;
-53.7000;0.6186;1.5492;
-53.4000;0.6195;1.5516;
-53.1000;0.6186;1.5564;
-52.8000;0.6186;1.5637;
-52.5000;0.6186;1.5686;
-52.2000;0.6195;1.5710;
-51.9000;0.6178;1.5710;
-51.6000;0.6178;1.5734;
-51.3000;0.6178;1.5783;
-51.0000;0.6178;1.5831;
-50.7000;0.6186;1.5807;
-50.4000;0.6243;1.5783;
-50.1000;0.6170;1.5661;
-49.8000;0.6186;1.5734;
-49.5000;0.6195;1.5759;
-49.2000;0.6268;1.5929;
-48.9000;0.6195;1.5637;
-48.6000;0.6186;1.5661;
-48.3000;0.6195;1.5759;
-48.0000;0.6178;1.5661;
-47.7000;0.6178;1.5613;
-47.4000;0.6162;1.5637;
-47.1000;0.6178;1.5564;
-46.8000;0.6162;1.5467;
-46.5000;0.6186;1.5370;
-46.2000;0.6170;1.5297;
-45.9000;0.6186;1.5297;
-45.6000;0.6178;1.5273;
-45.3000;0.6195;1.5297;
-45.0000;0.6178;1.5322;
-44.7000;0.6195;1.5297;
-44.4000;0.6178;1.5200;
-44.1000;0.6105;1.5030;
-43.8000;0.6170;1.5176;
-43.5000;0.6154;1.5079;
-43.2000;0.6178;1.5200;
-42.9000;0.6170;1.5224;
-42.6000;0.6154;1.5127;
-42.3000;0.6162;1.5176;
-42.0000;0.6178;1.5103;
-41.7000;0.6178;1.5079;
-41.4000;0.6195;1.5054;
-41.1000;0.6162;1.4933;
-40.8000;0.6162;1.4933;
-40.5000;0.6097;1.4763;
-40.2000;0.6170;1.4884;
-39.9000;0.6186;1.4957;
-39.6000;0.6178;1.5079;
-39.3000;0.6186;1.5224;
-39.0000;0.6081;1.4957;
-38.7000;0.6178;1.5127;
-38.4000;0.6170;1.5103;
-38.1000;0.6211;1.5224;
-37.8000;0.6170;1.5176;
-37.5000;0.6186;1.5273;
-37.2000;0.6195;1.5346;
-36.9000;0.6178;1.5297;
-36.6000;0.6186;1.5394;
-36.3000;0.6178;1.5370;
-36.0000;0.6154;1.5297;
-35.7000;0.6170;1.5322;
-35.4000;0.6170;1.5322;
-35.1000;0.6178;1.5322;
-34.8000;0.6138;1.5273;
-34.5000;0.6162;1.5273;
-34.2000;0.6178;1.5297;
-33.9000;0.6162;1.5152;
-33.6000;0.6162;1.5127;
-33.3000;0.6162;1.5054;
-33.0000;0.6170;1.4982;
-32.7000;0.6186;1.5103;
-32.4000;0.6154;1.5152;
-32.1000;0.6162;1.5224;
-31.8000;0.6170;1.5273;
-31.5000;0.6170;1.5249;
-31.2000;0.6162;1.5224;
-30.9000;0.6154;1.5200;
-30.6000;0.6162;1.5176;
-30.3000;0.6170;1.5176;
-30.0000;0.6178;1.5127;
-29.7000;0.6154;1.5176;
-29.4000;0.6178;1.5224;
-29.1000;0.6186;1.5249;
-28.8000;0.6162;1.5273;
-28.5000;0.6170;1.5152;
-28.2000;0.6170;1.5127;
-27.9000;0.6195;1.5249;
-27.6000;0.6195;1.5224;
-27.3000;0.6186;1.5297;
-27.0000;0.6170;1.5224;
-26.7000;0.6170;1.5249;
-26.4000;0.6186;1.5249;
-26.1000;0.6154;1.5224;
-25.8000;0.6162;1.5249;
-25.5000;0.6162;1.5176;
-25.2000;0.6186;1.5176;
-24.9000;0.6211;1.5224;
-24.6000;0.6170;1.5030;
-24.3000;0.6162;1.4982;
-24.0000;0.6170;1.5054;
-23.7000;0.6186;1.5030;
-23.4000;0.6186;1.5054;
-23.1000;0.6162;1.5006;
-22.8000;0.6178;1.5079;
-22.5000;0.6203;1.5152;
-22.2000;0.6186;1.5152;
-21.9000;0.6162;1.5224;
-21.6000;0.6170;1.5297;
-21.3000;0.6170;1.5370;
-21.0000;0.6154;1.5370;
-20.7000;0.6170;1.5322;
-20.4000;0.6178;1.5273;
-20.1000;0.6162;1.5127;
-19.8000;0.6186;1.5127;
-19.5000;0.6186;1.5103;
-19.2000;0.6178;1.5152;
-18.9000;0.6195;1.5249;
-18.6000;0.6154;1.5127;
-18.3000;0.6178;1.5224;
-18.0000;0.6170;1.5224;
-17.7000;0.6178;1.5224;
-17.4000;0.6186;1.5346;
-17.1000;0.6178;1.5297;
-16.8000;0.6219;1.5492;
-16.5000;0.6170;1.5297;
-16.2000;0.6178;1.5346;
-15.9000;0.6162;1.5249;
-15.6000;0.6186;1.5394;
-15.3000;0.6170;1.5394;
-15.0000;0.6186;1.5419;
-14.7000;0.6178;1.5346;
-14.4000;0.6178;1.5322;
-14.1000;0.6178;1.5249;
-13.8000;0.6186;1.5297;
-13.5000;0.6186;1.5249;
-13.2000;0.6195;1.5249;
-12.9000;0.6235;1.5370;
-12.6000;0.6178;1.5224;
-12.3000;0.6203;1.5273;
-12.0000;0.6186;1.5297;
-11.7000;0.6178;1.5297;
-11.4000;0.6170;1.5273;
-11.1000;0.6162;1.5297;
-10.8000;0.6178;1.5297;
-10.5000;0.6170;1.5322;
-10.2000;0.6154;1.5273;
-9.9000;0.6178;1.5394;
-9.6000;0.6178;1.5297;
-9.3000;0.6170;1.5200;
-9.0000;0.6203;1.5273;
-8.7000;0.6178;1.5297;
-8.4000;0.6186;1.5322;
-8.1000;0.6170;1.5346;
-7.8000;0.6170;1.5322;
-7.5000;0.6178;1.5370;
-7.2000;0.6178;1.5394;
-6.9000;0.6186;1.5322;
-6.6000;0.6178;1.5297;
-6.3000;0.6170;1.5322;
-6.0000;0.6195;1.5443;
-5.7000;0.6178;1.5516;
-5.4000;0.6178;1.5492;
-5.1000;0.6154;1.5419;
-4.8000;0.6162;1.5419;
-4.5000;0.6170;1.5322;
-4.2000;0.6186;1.5273;
-3.9000;0.6178;1.5224;
-3.6000;0.6235;1.5273;
-3.3000;0.6195;1.5127;
-3.0000;0.6178;1.5079;
-2.7000;0.6186;1.5054;
-2.4000;0.6146;1.5030;
-2.1000;0.6178;1.5079;
-1.8000;0.6178;1.5127;
-1.5000;0.6219;1.5297;
-1.2000;0.6154;1.5200;
-0.9000;0.6178;1.5273;
-0.6000;0.6170;1.5394;
-0.3000;0.6178;1.5443;
0.0000;0.6178;1.5443;
0.3000;0.6455;1.5734;
0.6000;0.6870;1.6244;
0.9000;0.7179;1.6730;
1.2000;0.7473;1.7288;
1.5000;0.7700;1.7774;
1.8000;0.7880;1.8162;
2.1000;0.8010;1.8430;
2.4000;0.8107;1.8575;
2.7000;0.8221;1.8867;
3.0000;0.8238;1.8818;
3.3000;0.8376;1.9134;
3.6000;0.8425;1.9231;
3.9000;0.8498;1.9401;
4.2000;0.8563;1.9498;
4.5000;0.8604;1.9522;
4.8000;0.8653;1.9546;
5.1000;0.8702;1.9595;
5.4000;0.8734;1.9619;
5.7000;0.8791;1.9716;
6.0000;0.8824;1.9692;
6.3000;0.8791;1.9571;
6.6000;0.8807;1.9498;
6.9000;0.8962;1.9814;
7.2000;0.8962;1.9789;
7.5000;0.8995;1.9765;
7.8000;0.8978;1.9716;
8.1000;0.9035;1.9741;
8.4000;0.9084;1.9838;
8.7000;0.9092;1.9741;
9.0000;0.9109;1.9716;
9.3000;0.9166;1.9741;
9.6000;0.9182;1.9741;
9.9000;0.9190;1.9716;
10.2000;0.9280;1.9959;
10.5000;0.9239;1.9716;
10.8000;0.9214;1.9571;
11.1000;0.9263;1.9644;
11.4000;0.9296;1.9741;
11.7000;0.9288;1.9668;
12.0000;0.9361;1.9765;
12.3000;0.9345;1.9741;
12.6000;0.9377;1.9789;
12.9000;0.9385;1.9741;
13.2000;0.9418;1.9765;
13.5000;0.9426;1.9741;
13.8000;0.9410;1.9619;
14.1000;0.9459;1.9789;
14.4000;0.9467;1.9765;
14.7000;0.9459;1.9765;
15.0000;0.9483;1.9741;
15.3000;0.9491;1.9668;
15.6000;0.9508;1.9789;
15.9000;0.9540;1.9789;
16.2000;0.9540;1.9814;
16.5000;0.9540;1.9765;
16.8000;0.9573;1.9838;
17.1000;0.9597;1.9911;
17.4000;0.9621;1.9886;
17.7000;0.9630;1.9911;
18.0000;0.9638;1.9911;
18.3000;0.9613;1.9765;
18.6000;0.9638;1.9741;
18.9000;0.9630;1.9692;
19.2000;0.9654;1.9814;
19.5000;0.9662;1.9789;
19.8000;0.9670;1.9765;
20.1000;0.9678;1.9716;
20.4000;0.9687;1.9814;
20.7000;0.9687;1.9789;
21.0000;0.9678;1.9668;
21.3000;0.9719;1.9716;
21.6000;0.9711;1.9716;
21.9000;0.9719;1.9692;
22.2000;0.9719;1.9692;
22.5000;0.9744;1.9814;
22.8000;0.9776;1.9886;
23.1000;0.9752;1.9838;
23.4000;0.9776;1.9886;
23.7000;0.9776;1.9838;
24.0000;0.9760;1.9741;
24.3000;0.9792;1.9668;
24.6000;0.9760;1.9571;
24.9000;0.9801;1.9546;
25.2000;0.9784;1.9546;
25.5000;0.9776;1.9498;
25.8000;0.9792;1.9644;
26.1000;0.9801;1.9546;
26.4000;0.9833;1.9595;
26.7000;0.9817;1.9595;
27.0000;0.9833;1.9644;
27.3000;0.9841;1.9716;
27.6000;0.9882;1.9814;
27.9000;0.9833;1.9644;
28.2000;0.9809;1.9716;
28.5000;0.9833;1.9789;
28.8000;0.9866;1.9814;
29.1000;0.9841;1.9716;
29.4000;0.9833;1.9692;
29.7000;0.9874;1.9789;
30.0000;0.9882;1.9716;
30.3000;0.9849;1.9716;
30.6000;0.9858;1.9765;
30.9000;0.9874;1.9765;
31.2000;0.9833;1.9668;
31.5000;0.9858;1.9765;
31.8000;0.9849;1.9692;
32.1000;0.9874;1.9741;
32.4000;0.9874;1.9668;
32.7000;0.9874;1.9644;
33.0000;0.9882;1.9765;
33.3000;0.9874;1.9814;
33.6000;0.9898;1.9886;
33.9000;0.9898;1.9862;
34.2000;0.9890;1.9814;
34.5000;0.9898;1.9789;
34.8000;0.9882;1.9741;
35.1000;0.9939;1.9789;
35.4000;0.9923;1.9716;
35.7000;0.9906;1.9619;
36.0000;0.9866;1.9474;
36.3000;0.9923;1.9692;
36.6000;0.9931;1.9716;
36.9000;0.9923;1.9741;
37.2000;0.9915;1.9716;
37.5000;0.9939;1.9789;
37.8000;0.9939;1.9765;
38.1000;0.9931;1.9716;
38.4000;0.9931;1.9668;
38.7000;0.9931;1.9619;
39.0000;0.9931;1.9595;
39.3000;0.9939;1.9595;
39.6000;0.9947;1.9716;
39.9000;0.9947;1.9741;
40.2000;0.9947;1.9644;
40.5000;0.9963;1.9692;
40.8000;0.9931;1.9668;
41.1000;0.9972;1.9668;
41.4000;0.9963;1.9619;
41.7000;0.9947;1.9571;
42.0000;0.9939;1.9522;
42.3000;0.9955;1.9571;
42.6000;0.9947;1.9571;
42.9000;0.9955;1.9546;
43.2000;0.9931;1.9546;
43.5000;0.9939;1.9571;
43.8000;0.9955;1.9668;
44.1000;0.9963;1.9595;
44.4000;0.9963;1.9668;
44.7000;0.9955;1.9595;
45.0000;0.9972;1.9644;
45.3000;0.9947;1.9644;
45.6000;0.9931;1.9595;
45.9000;0.9955;1.9595;
46.2000;0.9955;1.9619;
46.5000;0.9980;1.9644;
46.8000;0.9963;1.9644;
47.1000;0.9980;1.9741;
47.4000;0.9980;1.9716;
47.7000;0.9996;1.9741;
48.0000;0.9988;1.9692;
48.3000;1.0012;1.9716;
48.6000;0.9972;1.9644;
48.9000;0.9963;1.9716;
49.2000;0.9980;1.9716;
49.5000;0.9972;1.9716;
49.8000;0.9955;1.9644;
50.1000;0.9980;1.9668;
50.4000;0.9988;1.9619;
50.7000;0.9988;1.9644;
51.0000;0.9996;1.9619;
51.3000;0.9996;1.9644;
51.6000;1.0020;1.9668;
51.9000;0.9972;1.9644;
52.2000;0.9996;1.9668;
52.5000;0.9988;1.9595;
52.8000;0.9931;1.9425;
53.1000;0.9988;1.9474;
53.4000;1.0069;1.9619;
53.7000;0.9996;1.9522;
54.0000;0.9955;1.9474;
54.3000;0.9980;1.9595;
54.6000;1.0004;1.9619;
54.9000;0.9963;1.9449;
55.2000;1.0012;1.9522;
55.5000;1.0004;1.9522;
55.8000;1.0004;1.9619;
56.1000;0.9988;1.9571;
56.4000;0.9996;1.9522;
56.7000;0.9988;1.9571;
57.0000;1.0004;1.9498;
57.3000;0.9972;1.9498;
57.6000;0.9996;1.9546;
57.9000;0.9963;1.9401;
58.2000;1.0012;1.9498;
58.5000;0.9988;1.9377;
58.8000;1.0012;1.9425;
59.1000;1.0012;1.9449;
59.4000;1.0037;1.9449;
59.7000;1.0020;1.9474;
60.0000;1.0004;1.9474;
60.3000;1.0012;1.9498;
60.6000;1.0020;1.9498;
60.9000;1.0045;1.9546;
61.2000;1.0028;1.9546;
61.5000;0.9996;1.9571;
61.8000;1.0028;1.9692;
62.1000;1.0045;1.9765;
62.4000;1.0012;1.9668;
62.7000;1.0012;1.9741;
63.0000;1.0012;1.9765;
63.3000;1.0004;1.9741;
63.6000;1.0028;1.9789;
63.9000;1.0020;1.9716;
64.2000;1.0020;1.9692;
64.5000;1.0037;1.9741;
64.8000;1.0045;1.9668;
65.1000;1.0028;1.9644;
65.4000;1.0028;1.9668;
65.7000;1.0004;1.9619;
66.0000;1.0028;1.9546;
66.3000;1.0028;1.9522;
66.6000;1.0012;1.9546;
66.9000;1.0012;1.9571;
67.2000;1.0037;1.9644;
67.5000;0.9988;1.9522;
67.8000;1.0020;1.9644;
68.1000;1.0004;1.9595;
68.4000;1.0020;1.9522;
68.7000;1.0028;1.9474;
69.0000;1.0061;1.9546;
69.3000;1.0004;1.9425;
69.6000;1.0020;1.9474;
69.9000;1.0028;1.9546;
70.2000;1.0004;1.9401;
70.5000;1.0020;1.9449;
70.8000;1.0037;1.9425;
71.1000;1.0020;1.9474;
71.4000;0.9996;1.9449;
71.7000;1.0004;1.9449;
72.0000;1.0020;1.9522;
72.3000;1.0020;1.9474;
72.6000;1.0020;1.9425;
72.9000;0.9996;1.9279;
73.2000;0.9996;1.9207;
73.5000;1.0028;1.9377;
73.8000;1.0053;1.9498;
74.1000;1.0045;1.9449;
74.4000;1.0037;1.9449;
74.7000;1.0037;1.9546;
75.0000;1.0037;1.9571;
75.3000;1.0061;1.9595;
75.6000;1.0020;1.9595;
75.9000;1.0053;1.9644;
76.2000;1.0053;1.9692;
76.5000;1.0053;1.9716;
76.8000;1.0028;1.9716;
77.1000;1.0037;1.9741;
77.4000;1.0045;1.9741;
77.7000;1.0045;1.9789;
78.0000;1.0037;1.9789;
78.3000;1.0053;1.9814;
78.6000;1.0037;1.9716;
78.9000;1.0037;1.9741;
79.2000;1.0045;1.9741;
79.5000;1.0053;1.9765;
79.8000;1.0053;1.9716;
80.1000;1.0061;1.9789;
80.4000;1.0053;1.9716;
80.7000;1.0045;1.9692;
81.0000;1.0045;1.9716;
81.3000;1.0053;1.9668;
81.6000;1.0045;1.9668;
81.9000;1.0053;1.9619;
82.2000;1.0061;1.9668;
82.5000;1.0045;1.9571;
82.8000;1.0037;1.9522;
83.1000;1.0053;1.9498;
83.4000;1.0045;1.9449;
83.7000;1.0037;1.9546;
84.0000;1.0061;1.9644;
84.3000;1.0045;1.9571;
84.6000;1.0037;1.9619;
84.9000;1.0061;1.9716;
85.2000;1.0045;1.9692;
85.5000;1.0037;1.9619;
85.8000;1.0037;1.9522;
86.1000;1.0045;1.9571;
86.4000;1.0037;1.9644;
86.7000;1.0028;1.9716;
87.0000;1.0053;1.9789;
87.3000;1.0028;1.9741;
87.6000;1.0037;1.9765;
87.9000;1.0053;1.9789;
88.2000;1.0045;1.9692;
88.5000;1.0045;1.9716;
88.8000;1.0045;1.9644;
89.1000;1.0037;1.9595;
89.4000;1.0061;1.9546;
89.7000;1.0020;1.9498;
90.0000;1.0085;1.9741;
90.3000;1.0061;1.9741;
90.6000;1.0045;1.9765;
90.9000;1.0053;1.9692;
91.2000;1.0053;1.9741;
91.5000;1.0037;1.9619;
91.8000;1.0069;1.9692;
92.1000;1.0053;1.9644;
92.4000;1.0053;1.9692;
92.7000;1.0061;1.9789;
93.0000;1.0037;1.9789;
93.3000;1.0077;1.9862;
93.6000;1.0045;1.9668;
93.9000;1.0012;1.9546;
94.2000;1.0069;1.9716;
94.5000;1.0061;1.9765;
94.8000;1.0053;1.9716;
95.1000;1.0037;1.9595;
95.4000;1.0069;1.9668;
95.7000;1.0061;1.9522;
96.0000;1.0045;1.9377;
96.3000;1.0020;1.9328;
96.6000;1.0053;1.9474;
96.9000;1.0061;1.9522;
97.2000;1.0061;1.9522;
97.5000;1.0061;1.9522;
97.8000;1.0061;1.9546;
98.1000;1.0061;1.9595;
98.4000;1.0053;1.9474;
98.7000;1.0053;1.9498;
99.0000;1.0053;1.9401;
99.3000;1.0037;1.9401;
99.6000;1.0045;1.9498;
99.9000;1.0061;1.9546;
100.2000;1.0053;1.9498;
100.5000;1.0053;1.9401;
100.8000;1.0053;1.9474;
101.1000;1.0045;1.9522;
101.4000;1.0045;1.9449;
101.7000;1.0061;1.9619;
102.0000;1.0053;1.9619;
102.3000;1.0045;1.9546;
102.6000;1.0045;1.9571;
102.9000;0.9996;1.9425;
103.2000;1.0069;1.9498;
103.5000;1.0069;1.9522;
103.8000;1.0061;1.9474;
104.1000;0.9980;1.9328;
104.4000;1.0069;1.9498;
104.7000;1.0045;1.9522;
105.0000;1.0053;1.9425;
105.3000;1.0069;1.9498;
105.6000;1.0061;1.9546;
105.9000;1.0061;1.9595;
106.2000;1.0069;1.9546;
106.5000;1.0053;1.9546;
106.8000;1.0069;1.9595;
107.1000;1.0061;1.9546;
107.4000;1.0061;1.9522;
107.7000;1.0053;1.9522;
108.0000;1.0077;1.9571;
108.3000;1.0053;1.9449;
108.6000;1.0053;1.9522;
108.9000;1.0020;1.9474;
109.2000;1.0045;1.9474;
109.5000;1.0053;1.9425;
109.8000;1.0053;1.9449;
110.1000;1.0045;1.9401;
110.4000;1.0045;1.9425;
110.7000;1.0053;1.9498;
111.0000;1.0061;1.9619;
111.3000;1.0045;1.9546;
111.6000;1.0069;1.9692;
111.9000;1.0069;1.9741;
112.2000;1.0085;1.9765;
112.5000;1.0069;1.9716;
112.8000;1.0045;1.9716;
113.1000;1.0061;1.9838;
113.4000;1.0053;1.9741;
113.7000;1.0061;1.9716;
114.0000;1.0077;1.9741;
114.3000;1.0069;1.9741;
114.6000;1.0069;1.9668;
114.9000;1.0061;1.9692;
115.2000;1.0061;1.9668;
115.5000;0.9980;1.9449;
115.8000;1.0037;1.9522;
116.1000;1.0142;1.9765;
116.4000;1.0077;1.9644;
116.7000;1.0045;1.9619;
117.0000;1.0053;1.9644;
117.3000;1.0053;1.9765;
117.6000;1.0053;1.9765;
117.9000;1.0126;1.9984;
118.2000;1.0045;1.9789;
118.5000;1.0069;1.9814;
118.8000;1.0061;1.9765;
119.1000;1.0045;1.9765;
119.4000;1.0037;1.9692;
119.7000;1.0061;1.9716;
120.0000;1.0028;1.9668;
120.3000;1.0053;1.9741;
120.6000;1.0045;1.9741;
120.9000;1.0085;1.9814;
121.2000;1.0077;1.9765;
121.5000;1.0061;1.9692;
121.8000;1.0069;1.9668;
122.1000;1.0053;1.9619;
122.4000;1.0069;1.9546;
122.7000;1.0085;1.9571;
123.0000;1.0069;1.9522;
123.3000;1.0061;1.9644;
123.6000;1.0085;1.9716;
123.9000;1.0061;1.9692;
124.2000;1.0077;1.9716;
124.5000;1.0061;1.9619;
124.8000;1.0061;1.9668;
125.1000;1.0053;1.9668;
125.4000;1.0110;1.9789;
125.7000;1.0069;1.9595;
126.0000;1.0053;1.9546;
126.3000;1.0045;1.9546;
126.6000;1.0069;1.9522;
126.9000;1.0085;1.9571;
127.2000;1.0069;1.9595;
127.5000;1.0085;1.9644;
127.8000;1.0134;1.9838;
128.1000;1.0077;1.9765;
128.4000;1.0085;1.9692;
128.7000;1.0126;1.9814;
129.0000;1.0077;1.9741;
129.3000;1.0045;1.9619;
129.6000;1.0069;1.9644;
129.9000;1.0077;1.9692;
130.2000;1.0085;1.9692;
130.5000;1.0061;1.9571;
130.8000;1.0053;1.9546;
131.1000;1.0045;1.9619;
131.4000;1.0077;1.9644;
131.7000;1.0053;1.9692;
132.0000;1.0061;1.9789;
132.3000;1.0094;1.9814;
132.6000;1.0085;1.9886;
132.9000;1.0069;1.9984;
133.2000;1.0077;1.9935;
133.5000;1.0077;1.9814;
133.8000;1.0094;1.9741;
134.1000;1.0094;1.9716;
134.4000;1.0053;1.9692;
134.7000;1.0069;1.9765;
135.0000;1.0077;1.9814;
135.3000;1.0077;1.9765;
135.6000;1.0077;1.9741;
135.9000;1.0053;1.9741;
136.2000;1.0069;1.9716;
136.5000;1.0069;1.9765;
136.8000;1.0102;1.9789;
137.1000;1.0053;1.9741;
137.4000;1.0037;1.9692;
137.7000;1.0061;1.9692;
138.0000;1.0077;1.9692;
138.3000;1.0061;1.9546;
138.6000;1.0061;1.9522;
138.9000;1.0077;1.9546;
139.2000;1.0175;1.9814;
139.5000;1.0037;1.9522;
139.8000;1.0053;1.9522;
140.1000;1.0085;1.9595;
140.4000;1.0069;1.9595;
140.7000;1.0069;1.9546;
141.0000;1.0061;1.9595;
141.3000;1.0077;1.9668;
141.6000;1.0061;1.9619;
141.9000;1.0061;1.9668;
142.2000;1.0061;1.9595;
142.5000;1.0069;1.9595;
142.8000;1.0077;1.9571;
143.1000;1.0085;1.9619;
143.4000;1.0061;1.9595;
143.7000;1.0069;1.9619;
144.0000;1.0094;1.9668;
144.3000;1.0151;1.9765;
144.6000;1.0077;1.9644;
144.9000;1.0126;1.9644;
145.2000;1.0069;1.9401;
145.5000;1.0102;1.9449;
145.8000;1.0085;1.9474;
146.1000;1.0069;1.9522;
146.4000;1.0028;1.9522;
146.7000;1.0069;1.9668;
147.0000;1.0061;1.9498;
147.3000;1.0085;1.9352;
147.6000;1.0061;1.9182;
147.9000;1.0069;1.9207;
148.2000;1.0077;1.9279;
148.5000;1.0069;1.9255;
148.8000;1.0061;1.9279;
149.1000;1.0069;1.9377;
149.4000;1.0053;1.9401;
149.7000;1.0085;1.9522;
150.0000;1.0061;1.9474;
150.3000;1.0045;1.9401;
150.6000;1.0077;1.9401;
150.9000;1.0045;1.9352;
151.2000;1.0069;1.9449;
151.5000;1.0061;1.9401;
151.8000;1.0077;1.9449;
152.1000;1.0037;1.9304;
152.4000;1.0077;1.9352;
152.7000;1.0053;1.9328;
153.0000;1.0045;1.9352;
153.3000;1.0077;1.9498;
153.6000;1.0069;1.9595;
153.9000;1.0069;1.9571;
154.2000;1.0085;1.9595;
154.5000;1.0069;1.9498;
154.8000;1.0045;1.9328;
155.1000;1.0061;1.9304;
155.4000;1.0077;1.9328;
155.7000;1.0069;1.9401;
156.0000;1.0077;1.9425;
156.3000;1.0069;1.9401;
156.6000;1.0061;1.9352;
156.9000;1.0053;1.9401;
157.2000;1.0085;1.9377;
157.5000;1.0061;1.9304;
157.8000;1.0069;1.9231;
158.1000;1.0077;1.9279;
158.4000;1.0053;1.9231;
158.7000;1.0037;1.9109;
159.0000;1.0077;1.9182;
159.3000;1.0045;1.9231;
159.6000;1.0077;1.9352;
159.9000;1.0061;1.9304;
160.2000;1.0053;1.9231;
160.5000;1.0069;1.9328;
160.8000;1.0085;1.9352;
161.1000;1.0069;1.9304;
161.4000;1.0061;1.9279;
161.7000;0.9988;1.9085;
162.0000;1.0077;1.9352;
162.3000;1.0045;1.9304;
162.6000;1.0037;1.9255;
162.9000;1.0077;1.9279;
163.2000;1.0061;1.9279;
163.5000;1.0094;1.9352;
163.8000;1.0012;1.9134;
164.1000;1.0069;1.9231;
164.4000;1.0085;1.9255;
164.7000;1.0085;1.9231;
165.0000;1.0085;1.9304;
165.3000;1.0061;1.9207;
165.6000;1.0069;1.9279;
165.9000;1.0085;1.9231;
166.2000;1.0069;1.9304;
166.5000;1.0069;1.9279;
166.8000;1.0102;1.9425;
167.1000;1.0069;1.9401;
167.4000;1.0069;1.9474;
167.7000;1.0077;1.9425;
168.0000;1.0061;1.9328;
168.3000;1.0077;1.9377;
168.6000;1.0175;1.9595;
168.9000;1.0077;1.9425;
169.2000;1.0094;1.9474;
169.5000;1.0094;1.9546;
169.8000;1.0077;1.9571;
170.1000;1.0077;1.9595;
170.4000;1.0028;1.9401;
170.7000;1.0069;1.9474;
171.0000;1.0085;1.9449;
171.3000;1.0085;1.9425;
171.6000;1.0069;1.9328;
171.9000;1.0061;1.9231;
172.2000;1.0077;1.9401;
172.5000;1.0085;1.9425;
172.8000;1.0085;1.9474;
173.1000;1.0061;1.9522;
173.4000;1.0085;1.9522;
173.7000;1.0061;1.9425;
174.0000;1.0061;1.9449;
174.3000;1.0077;1.9595;
174.6000;1.0069;1.9619;
174.9000;1.0094;1.9692;
175.2000;1.0094;1.9595;
175.5000;1.0085;1.9546;
175.8000;1.0077;1.9546;
176.1000;1.0085;1.9522;
176.4000;1.0069;1.9546;
176.7000;1.0094;1.9571;
177.0000;1.0085;1.9546;
177.3000;1.0077;1.9522;
177.6000;1.0077;1.9595;
177.9000;1.0069;1.9571;
178.2000;1.0061;1.9546;
178.5000;1.0069;1.9498;
178.8000;1.0069;1.9474;
179.1000;1.0069;1.9425;
179.4000;1.0077;1.9401;
179.7000;1.0061;1.9425;
180.0000;1.0077;1.9474;
180.3000;1.0110;1.9546;
180.6000;1.0069;1.9522;
180.9000;1.0085;1.9571;
181.2000;1.0085;1.9498;
181.5000;1.0077;1.9546;
181.8000;1.0069;1.9546;
182.1000;1.0061;1.9546;
182.4000;1.0061;1.9595;
182.7000;1.0061;1.9522;
183.0000;1.0061;1.9522;
183.3000;1.0053;1.9498;
183.6000;1.0037;1.9401;
183.9000;1.0077;1.9377;
184.2000;1.0069;1.9474;
184.5000;1.0061;1.9449;
184.8000;1.0053;1.9449;
185.1000;1.0069;1.9498;
185.4000;1.0077;1.9498;
185.7000;1.0061;1.9522;
186.0000;1.0061;1.9571;
186.3000;1.0061;1.9716;
186.6000;1.0028;1.9668;
186.9000;1.0077;1.9716;
187.2000;1.0085;1.9716;
187.5000;1.0077;1.9716;
187.8000;1.0134;1.9911;
188.1000;1.0061;1.9765;
188.4000;1.0085;1.9838;
188.7000;1.0102;1.9886;
189.0000;1.0061;1.9716;
189.3000;1.0061;1.9668;
189.6000;1.0061;1.9668;
189.9000;1.0061;1.9644;
190.2000;1.0053;1.9644;
190.5000;1.0085;1.9668;
190.8000;1.0053;1.9498;
191.1000;1.0061;1.9522;
191.4000;1.0020;1.9449;
191.7000;1.0085;1.9546;
192.0000;1.0069;1.9498;
192.3000;1.0069;1.9498;
192.6000;1.0077;1.9498;
192.9000;1.0085;1.9522;
193.2000;1.0077;1.9498;
193.5000;1.0045;1.9522;
193.8000;1.0061;1.9522;
194.1000;1.0069;1.9522;
194.4000;1.0142;1.9644;
194.7000;1.0053;1.9449;
195.0000;1.0061;1.9498;
195.3000;1.0069;1.9498;
195.6000;1.0077;1.9522;
195.9000;1.0061;1.9449;
196.2000;1.0061;1.9498;
196.5000;1.0085;1.9571;
196.8000;1.0069;1.9522;
197.1000;1.0069;1.9571;
197.4000;1.0077;1.9498;
197.7000;1.0077;1.9498;
198.0000;1.0020;1.9352;
198.3000;1.0061;1.9498;
198.6000;1.0069;1.9522;
198.9000;1.0061;1.9546;
199.2000;1.0077;1.9644;
199.5000;1.0077;1.9619;
199.8000;1.0077;1.9571;
200.1000;1.0085;1.9668;
200.4000;1.0085;1.9644;
200.7000;1.0085;1.9668;
201.0000;1.0085;1.9692;
201.3000;1.0094;1.9692;
201.6000;1.0094;1.9644;
201.9000;1.0094;1.9692;
202.2000;1.0085;1.9765;
202.5000;1.0085;1.9668;
202.8000;1.0077;1.9546;
203.1000;1.0085;1.9595;
203.4000;1.0085;1.9644;
203.7000;1.0077;1.9571;
204.0000;1.0069;1.9474;
204.3000;1.0094;1.9498;
204.6000;1.0077;1.9401;
204.9000;1.0061;1.9304;
205.2000;1.0053;1.9328;
205.5000;1.0045;1.9377;
205.8000;1.0061;1.9522;
206.1000;1.0077;1.9474;
206.4000;1.0045;1.9522;
206.7000;1.0045;1.9498;
207.0000;1.0069;1.9498;
207.3000;1.0077;1.9546;
207.6000;1.0126;1.9668;
207.9000;1.0061;1.9546;
208.2000;1.0085;1.9571;
208.5000;1.0061;1.9595;
208.8000;1.0085;1.9595;
209.1000;1.0037;1.9449;
209.4000;1.0077;1.9546;
209.7000;1.0061;1.9522;
210.0000;1.0053;1.9546;
210.3000;1.0061;1.9498;
210.6000;1.0077;1.9522;
210.9000;1.0061;1.9498;
211.2000;1.0053;1.9328;
211.5000;1.0175;1.9644;
211.8000;1.0118;1.9474;
212.1000;1.0077;1.9352;
212.4000;1.0077;1.9304;
212.7000;1.0069;1.9255;
213.0000;1.0061;1.9304;
213.3000;0.9996;1.9109;
213.6000;1.0094;1.9352;
213.9000;1.0077;1.9377;
214.2000;1.0053;1.9304;
214.5000;1.0053;1.9231;
214.8000;1.0077;1.9279;
215.1000;1.0077;1.9304;
215.4000;1.0037;1.9207;
215.7000;1.0077;1.9328;
216.0000;1.0069;1.9352;
216.3000;1.0069;1.9377;
216.6000;1.0094;1.9474;
216.9000;1.0061;1.9377;
217.2000;1.0085;1.9401;
217.5000;1.0077;1.9401;
217.8000;1.0045;1.9304;
218.1000;1.0094;1.9425;
218.4000;1.0061;1.9304;
218.7000;1.0102;1.9328;
219.0000;1.0061;1.9255;
219.3000;1.0069;1.9255;
219.6000;1.0053;1.9207;
219.9000;1.0045;1.9231;
220.2000;1.0053;1.9304;
220.5000;1.0053;1.9352;
220.8000;1.0045;1.9401;
221.1000;1.0061;1.9474;
221.4000;1.0069;1.9522;
221.7000;1.0126;1.9692;
222.0000;1.0061;1.9619;
222.3000;1.0085;1.9571;
222.6000;1.0085;1.9546;
222.9000;1.0053;1.9571;
223.2000;1.0069;1.9619;
223.5000;1.0069;1.9595;
223.8000;1.0037;1.9522;
224.1000;1.0061;1.9668;
224.4000;1.0061;1.9716;
224.7000;1.0069;1.9741;
225.0000;1.0085;1.9814;
225.3000;1.0061;1.9741;
225.6000;1.0053;1.9789;
225.9000;1.0077;1.9765;
226.2000;1.0061;1.9862;
226.5000;1.0069;1.9886;
226.8000;1.0061;1.9814;
227.1000;1.0061;1.9765;
227.4000;1.0061;1.9814;
227.7000;1.0061;1.9789;
228.0000;1.0077;1.9765;
228.3000;1.0061;1.9692;
228.6000;1.0085;1.9716;
228.9000;1.0053;1.9619;
229.2000;1.0037;1.9571;
229.5000;1.0045;1.9595;
229.8000;1.0077;1.9522;
230.1000;1.0061;1.9449;
230.4000;1.0069;1.9498;
230.7000;1.0094;1.9522;
231.0000;1.0069;1.9546;
231.3000;1.0077;1.9522;
231.6000;1.0077;1.9546;
231.9000;1.0061;1.9474;
232.2000;1.0077;1.9595;
232.5000;1.0077;1.9571;
232.8000;1.0094;1.9619;
233.1000;1.0118;1.9741;
233.4000;1.0069;1.9741;
233.7000;1.0077;1.9741;
234.0000;1.0085;1.9741;
234.3000;1.0077;1.9668;
234.6000;1.0077;1.9692;
234.9000;1.0077;1.9668;
235.2000;1.0126;1.9789;
235.5000;1.0094;1.9741;
235.8000;1.0045;1.9571;
236.1000;1.0061;1.9522;
236.4000;1.0061;1.9595;
236.7000;1.0061;1.9619;
237.0000;1.0069;1.9619;
237.3000;1.0094;1.9595;
237.6000;1.0077;1.9595;
237.9000;1.0077;1.9571;
238.2000;1.0053;1.9498;
238.5000;1.0077;1.9546;
238.8000;1.0020;1.9425;
239.1000;1.0077;1.9546;
239.4000;1.0028;1.9474;
239.7000;1.0094;1.9741;
240.0000;1.0069;1.9644;
240.3000;0.9972;1.9352;
240.6000;1.0069;1.9571;
240.9000;1.0069;1.9595;
241.2000;1.0077;1.9571;
241.5000;1.0020;1.9449;
241.8000;1.0037;1.9474;
242.1000;1.0061;1.9449;
242.4000;1.0053;1.9352;
242.7000;1.0053;1.9474;
243.0000;1.0110;1.9595;
243.3000;1.0061;1.9619;
243.6000;1.0053;1.9692;
243.9000;1.0061;1.9668;
244.2000;1.0045;1.9595;
244.5000;1.0053;1.9546;
244.8000;1.0053;1.9595;
245.1000;1.0061;1.9668;
245.4000;1.0102;1.9716;
245.7000;1.0077;1.9595;
246.0000;1.0045;1.9546;
246.3000;1.0045;1.9474;
246.6000;1.0077;1.9619;
246.9000;1.0053;1.9595;
247.2000;1.0061;1.9595;
247.5000;1.0053;1.9546;
247.8000;1.0061;1.9546;
248.1000;1.0069;1.9619;
248.4000;1.0069;1.9474;
248.7000;1.0061;1.9449;
249.0000;1.0077;1.9522;
249.3000;1.0069;1.9498;
249.6000;1.0069;1.9571;
249.9000;1.0053;1.9571;
250.2000;1.0077;1.9644;
250.5000;1.0085;1.9644;
250.8000;1.0077;1.9692;
251.1000;1.0061;1.9741;
251.4000;1.0069;1.9741;
251.7000;1.0077;1.9692;
252.0000;1.0085;1.9741;
252.3000;1.0094;1.9765;
252.6000;1.0069;1.9692;
252.9000;1.0061;1.9692;
253.2000;1.0110;1.9741;
253.5000;1.0069;1.9644;
253.8000;1.0053;1.9619;
254.1000;1.0061;1.9644;
254.4000;1.0077;1.9741;
254.7000;1.0102;1.9814;
255.0000;1.0053;1.9741;
255.3000;1.0061;1.9765;
255.6000;1.0069;1.9716;
255.9000;1.0061;1.9716;
256.2000;1.0053;1.9619;
256.5000;1.0061;1.9692;
256.8000;1.0061;1.9741;
257.1000;1.0053;1.9668;
257.4000;1.0085;1.9668;
257.7000;1.0004;1.9498;
258.0000;1.0069;1.9644;
258.3000;1.0061;1.9692;
258.6000;1.0061;1.9619;
258.9000;1.0069;1.9644;
259.2000;1.0069;1.9595;
259.5000;1.0061;1.9571;
259.8000;1.0094;1.9765;
260.1000;1.0061;1.9716;
260.4000;1.0069;1.9692;
260.7000;1.0020;1.9595;
261.0000;1.0069;1.9595;
261.3000;1.0053;1.9522;
261.6000;1.0077;1.9546;
261.9000;1.0061;1.9619;
262.2000;1.0094;1.9692;
262.5000;1.0077;1.9692;
262.8000;1.0077;1.9644;
263.1000;1.0069;1.9668;
263.4000;1.0012;1.9571;
263.7000;1.0061;1.9716;
264.0000;1.0077;1.9692;
264.3000;1.0053;1.9716;
264.6000;1.0069;1.9741;
264.9000;1.0102;1.9716;
265.2000;1.0077;1.9619;
265.5000;1.0085;1.9644;
265.8000;1.0077;1.9619;
266.1000;1.0061;1.9595;
266.4000;1.0077;1.9692;
266.7000;1.0069;1.9644;
267.0000;1.0085;1.9668;
267.3000;1.0094;1.9716;
267.6000;1.0069;1.9692;
267.9000;1.0061;1.9595;
268.2000;1.0069;1.9644;
268.5000;1.0069;1.9716;
268.8000;1.0077;1.9814;
269.1000;1.0053;1.9765;
269.4000;1.0077;1.9789;
269.7000;1.0077;1.9692;
270.0000;1.0037;1.9546;
270.3000;1.0069;1.9474;
270.6000;1.0061;1.9498;
270.9000;1.0077;1.9644;
271.2000;1.0085;1.9668;
271.5000;1.0077;1.9741;
271.8000;1.0069;1.9741;
272.1000;1.0077;1.9741;
272.4000;1.0061;1.9716;
272.7000;1.0094;1.9692;
273.0000;1.0069;1.9644;
273.3000;1.0069;1.9619;
273.6000;1.0061;1.9668;
273.9000;1.0085;1.9741;
274.2000;1.0069;1.9668;
274.5000;1.0053;1.9619;
274.8000;1.0069;1.9619;
275.1000;1.0077;1.9571;
275.4000;1.0045;1.9449;
275.7000;1.0053;1.9449;
276.0000;1.0069;1.9449;
276.3000;1.0053;1.9425;
276.6000;1.0053;1.9498;
276.9000;1.0069;1.9546;
277.2000;1.0053;1.9546;
277.5000;1.0077;1.9619;
277.8000;1.0094;1.9595;
278.1000;1.0094;1.9692;
278.4000;1.0061;1.9644;
278.7000;1.0118;1.9716;
279.0000;1.0061;1.9644;
279.3000;1.0004;1.9498;
279.6000;1.0045;1.9474;
279.9000;1.0053;1.9522;
280.2000;1.0085;1.9571;
280.5000;1.0094;1.9571;
280.8000;1.0053;1.9522;
281.1000;1.0069;1.9644;
281.4000;1.0126;1.9838;
281.7000;1.0102;1.9814;
282.0000;1.0061;1.9741;
282.3000;1.0077;1.9765;
282.6000;1.0061;1.9765;
282.9000;1.0069;1.9692;
283.2000;1.0061;1.9644;
283.5000;1.0094;1.9692;
283.8000;1.0085;1.9644;
284.1000;1.0118;1.9644;
284.4000;1.0085;1.9522;
284.7000;1.0077;1.9522;
285.0000;1.0061;1.9498;
285.3000;1.0069;1.9644;
285.6000;1.0069;1.9619;
285.9000;1.0077;1.9668;
286.2000;1.0085;1.9644;
286.5000;1.0069;1.9692;
286.8000;1.0077;1.9668;
287.1000;1.0085;1.9644;
287.4000;1.0053;1.9619;
287.7000;1.0061;1.9644;
288.0000;1.0118;1.9716;
288.3000;1.0069;1.9644;
288.6000;1.0061;1.9668;
288.9000;1.0069;1.9692;
289.2000;1.0069;1.9692;
289.5000;1.0061;1.9692;
289.8000;1.0045;1.9644;
290.1000;1.0061;1.9716;
290.4000;1.0077;1.9741;
290.7000;1.0061;1.9741;
291.0000;1.0061;1.9692;
291.3000;1.0053;1.9644;
291.6000;1.0077;1.9619;
291.9000;1.0069;1.9571;
292.2000;1.0053;1.9571;
292.5000;1.0077;1.9571;
292.8000;1.0077;1.9595;
293.1000;1.0085;1.9571;
293.4000;1.0061;1.9449;
293.7000;1.0061;1.9425;
294.0000;1.0151;1.9668;
294.3000;1.0069;1.9425;
294.6000;1.0069;1.9474;
294.9000;1.0061;1.9449;
295.2000;1.0085;1.9522;
295.5000;1.0085;1.9498;
295.8000;1.0077;1.9498;
296.1000;1.0077;1.9668;
296.4000;1.0077;1.9716;
296.7000;1.0077;1.9644;
297.0000;1.0037;1.9546;
297.3000;1.0061;1.9595;
297.6000;1.0045;1.9546;
297.9000;1.0069;1.9644;
298.2000;1.0069;1.9644;
298.5000;1.0020;1.9474;
298.8000;1.0061;1.9449;
299.1000;1.0020;1.9279;
299.4000;1.0053;1.9474;
299.7000;1.0053;1.9425;
300.0000;1.0037;1.9474;
300.3000;1.0077;1.9668;
300.6000;1.0061;1.9595;
300.9000;1.0045;1.9474;
301.2000;1.0053;1.9522;
301.5000;1.0012;1.9449;
301.8000;1.0053;1.9449;
302.1000;1.0045;1.9498;
302.4000;1.0004;1.9401;
302.7000;1.0094;1.9571;
303.0000;1.0061;1.9449;
303.3000;1.0085;1.9522;
303.6000;0.9939;1.9158;
303.9000;1.0053;1.9474;
304.2000;1.0045;1.9425;
304.5000;1.0045;1.9522;
304.8000;1.0118;1.9619;
305.1000;1.0069;1.9498;
305.4000;1.0061;1.9449;
305.7000;1.0004;1.9279;
306.0000;1.0061;1.9498;
306.3000;1.0053;1.9498;
306.6000;1.0012;1.9546;
306.9000;1.0069;1.9546;
307.2000;1.0077;1.9595;
307.5000;1.0061;1.9522;
307.8000;1.0061;1.9474;
308.1000;1.0061;1.9546;
308.4000;1.0069;1.9692;
308.7000;1.0077;1.9692;
309.0000;1.0053;1.9692;
309.3000;1.0061;1.9644;
309.6000;1.0020;1.9474;
309.9000;1.0069;1.9668;
310.2000;1.0061;1.9668;
310.5000;1.0069;1.9668;
310.8000;1.0085;1.9716;
311.1000;1.0077;1.9716;
311.4000;1.0077;1.9692;
311.7000;1.0077;1.9692;
312.0000;1.0085;1.9692;
312.3000;1.0069;1.9644;
312.6000;1.0069;1.9692;
312.9000;1.0069;1.9644;
313.2000;1.0053;1.9619;
313.5000;1.0037;1.9668;
313.8000;1.0053;1.9571;
314.1000;1.0061;1.9498;
314.4000;1.0053;1.9401;
314.7000;1.0053;1.9474;
315.0000;1.0061;1.9449;
315.3000;1.0053;1.9498;
315.6000;1.0053;1.9522;
315.9000;1.0061;1.9571;
316.2000;1.0069;1.9692;
316.5000;1.0061;1.9644;
316.8000;1.0061;1.9619;
317.1000;1.0037;1.9522;
317.4000;1.0077;1.9595;
317.7000;1.0077;1.9546;
318.0000;1.0053;1.9546;
318.3000;1.0069;1.9546;
318.6000;1.0077;1.9571;
318.9000;1.0061;1.9522;
319.2000;1.0053;1.9522;
319.5000;1.0069;1.9571;
319.8000;1.0077;1.9522;
320.1000;1.0069;1.9619;
320.4000;1.0053;1.9571;
320.7000;1.0053;1.9546;
321.0000;1.0061;1.9571;
321.3000;1.0069;1.9619;
321.6000;1.0061;1.9522;
321.9000;1.0061;1.9546;
322.2000;1.0077;1.9571;
322.5000;1.0077;1.9595;
322.8000;1.0077;1.9546;
323.1000;1.0085;1.9595;
323.4000;1.0061;1.9498;
323.7000;1.0094;1.9595;
324.0000;1.0077;1.9571;
324.3000;1.0069;1.9522;
324.6000;1.0053;1.9449;
324.9000;1.0061;1.9498;
325.2000;1.0061;1.9546;
325.5000;1.0028;1.9522;
325.8000;1.0053;1.9619;
326.1000;1.0069;1.9619;
326.4000;1.0085;1.9765;
326.7000;1.0069;1.9716;
327.0000;1.0069;1.9716;
327.3000;1.0077;1.9716;
327.6000;1.0077;1.9716;
327.9000;1.0094;1.9814;
328.2000;1.0053;1.9692;
328.5000;1.0069;1.9765;
328.8000;1.0037;1.9668;
329.1000;1.0085;1.9692;
329.4000;1.0061;1.9668;
329.7000;1.0061;1.9692;
330.0000;1.0020;1.9595;
330.3000;1.0045;1.9668;
330.6000;1.0045;1.9595;
330.9000;1.0053;1.9498;
331.2000;1.0061;1.9546;
331.5000;1.0102;1.9668;
331.8000;1.0053;1.9522;
332.1000;1.0053;1.9619;
332.4000;0.9996;1.9425;
332.7000;1.0061;1.9546;
333.0000;1.0061;1.9619;
333.3000;1.0069;1.9571;
333.6000;1.0020;1.9498;
333.9000;1.0069;1.9619;
334.2000;1.0045;1.9474;
334.5000;1.0069;1.9449;
334.8000;1.0061;1.9425;
335.1000;1.0028;1.9352;
335.4000;1.0053;1.9449;
335.7000;1.0061;1.9522;
336.0000;1.0045;1.9498;
336.3000;1.0069;1.9692;
336.6000;1.0061;1.9716;
336.9000;1.0045;1.9716;
337.2000;1.0045;1.9644;
337.5000;1.0053;1.9692;
337.8000;1.0037;1.9644;
338.1000;1.0069;1.9741;
338.4000;1.0061;1.9814;
338.7000;1.0053;1.9789;
339.0000;1.0085;1.9886;
339.3000;1.0069;1.9789;
339.6000;1.0061;1.9741;
339.9000;1.0045;1.9716;
340.2000;1.0061;1.9692;
340.5000;1.0069;1.9644;
340.8000;1.0061;1.9595;
341.1000;1.0077;1.9668;
341.4000;1.0028;1.9644;
341.7000;1.0053;1.9668;
342.0000;1.0053;1.9668;
342.3000;1.0061;1.9716;
342.6000;1.0061;1.9765;
342.9000;1.0069;1.9862;
343.2000;1.0053;1.9814;
343.5000;1.0061;1.9765;
343.8000;1.0061;1.9789;
344.1000;1.0069;1.9741;
344.4000;1.0110;1.9838;
344.7000;1.0069;1.9814;
345.0000;1.0069;1.9838;
345.3000;1.0077;1.9814;
345.6000;1.0069;1.9765;
345.9000;1.0045;1.9692;
346.2000;1.0045;1.9668;
346.5000;1.0028;1.9668;
346.8000;1.0045;1.9668;
347.1000;1.0167;1.9984;
347.4000;1.0045;1.9716;
347.7000;1.0053;1.9716;
348.0000;1.0045;1.9765;
348.3000;1.0045;1.9789;
348.6000;1.0053;1.9862;
348.9000;1.0061;1.9862;
349.2000;1.0053;1.9814;
349.5000;1.0028;1.9741;
349.8000;1.0037;1.9741;
350.1000;0.9996;1.9595;
350.4000;1.0069;1.9789;
350.7000;1.0053;1.9765;
351.0000;1.0045;1.9741;
351.3000;1.0077;1.9716;
351.6000;1.0037;1.9692;
351.9000;1.0061;1.9741;
352.2000;1.0053;1.9716;
352.5000;1.0045;1.9644;
352.8000;1.0045;1.9595;
353.1000;1.0012;1.9546;
353.4000;0.9963;1.9425;
353.7000;1.0045;1.9644;
354.0000;1.0020;1.9692;
354.3000;1.0053;1.9741;
354.6000;1.0085;1.9814;
354.9000;1.0077;1.9741;
355.2000;1.0069;1.9741;
355.5000;1.0053;1.9668;
355.8000;1.0061;1.9595;
356.1000;1.0045;1.9571;
356.4000;1.0061;1.9644;
356.7000;1.0037;1.9644;
357.0000;1.0061;1.9692;
357.3000;1.0053;1.9765;
357.6000;1.0085;1.9862;
357.9000;1.0045;1.9692;
358.2000;1.0045;1.9595;
358.5000;1.0069;1.9644;
358.8000;1.0053;1.9571;
359.1000;1.0053;1.9595;
359.4000;1.0069;1.9692;
359.7000;1.0061;1.9692;
360.0000;1.0142;1.9886;
360.3000;1.0069;1.9765;
360.6000;1.0053;1.9716;
360.9000;1.0069;1.9741;
361.2000;1.0061;1.9789;
361.5000;1.0061;1.9716;
361.8000;1.0053;1.9619;
362.1000;1.0069;1.9619;
362.4000;1.0053;1.9571;
362.7000;1.0053;1.9571;
363.0000;1.0053;1.9619;
363.3000;1.0094;1.9789;
363.6000;1.0069;1.9911;
363.9000;1.0012;1.9741;
364.2000;0.9963;1.9619;
364.5000;1.0061;1.9765;
364.8000;1.0045;1.9692;
365.1000;1.0045;1.9668;
365.4000;1.0061;1.9741;
365.7000;1.0069;1.9765;
366.0000;1.0061;1.9765;
366.3000;1.0069;1.9741;
366.6000;1.0061;1.9692;
366.9000;1.0069;1.9716;
367.2000;1.0077;1.9741;
367.5000;1.0053;1.9692;
367.8000;1.0053;1.9765;
368.1000;1.0053;1.9692;
368.4000;1.0053;1.9741;
368.7000;1.0053;1.9741;
369.0000;1.0085;1.9741;
369.3000;1.0053;1.9692;
369.6000;1.0053;1.9716;
369.9000;1.0069;1.9741;
370.2000;1.0069;1.9741;
370.5000;1.0045;1.9716;
370.8000;1.0151;1.9911;
371.1000;1.0077;1.9716;
371.4000;1.0004;1.9571;
371.7000;1.0142;2.0081;
372.0000;1.0069;1.9935;
372.3000;1.0037;1.9814;
372.6000;1.0037;1.9814;
372.9000;0.9988;1.9668;
373.2000;1.0037;1.9716;
373.5000;1.0020;1.9668;
373.8000;1.0110;1.9862;
374.1000;1.0094;1.9838;
374.4000;1.0061;1.9814;
374.7000;1.0110;1.9935;
375.0000;1.0053;1.9789;
375.3000;1.0053;1.9668;
375.6000;1.0061;1.9692;
375.9000;1.0045;1.9716;
376.2000;1.0061;1.9716;
376.5000;1.0020;1.9571;
376.8000;1.0037;1.9619;
377.1000;1.0094;1.9668;
377.4000;0.9955;1.9304;
377.7000;1.0069;1.9595;
378.0000;1.0061;1.9571;
378.3000;1.0053;1.9619;
378.6000;1.0102;1.9668;
378.9000;1.0020;1.9449;
379.2000;1.0053;1.9498;
379.5000;1.0077;1.9571;
379.8000;1.0069;1.9571;
380.1000;1.0077;1.9668;
380.4000;1.0020;1.9692;
380.7000;1.0045;1.9741;
381.0000;1.0053;1.9765;
381.3000;1.0053;1.9765;
381.6000;1.0012;1.9668;
381.9000;1.0053;1.9789;
382.2000;1.0045;1.9765;
382.5000;1.0069;1.9814;
382.8000;1.0061;1.9789;
383.1000;1.0045;1.9789;
383.4000;1.0037;1.9765;
383.7000;1.0037;1.9765;
384.0000;1.0045;1.9668;
384.3000;1.0037;1.9619;
384.6000;1.0045;1.9716;
384.9000;1.0045;1.9692;
385.2000;1.0045;1.9595;
385.5000;1.0061;1.9741;
385.8000;1.0028;1.9644;
386.1000;1.0053;1.9668;
386.4000;1.0061;1.9692;
386.7000;1.0045;1.9741;
387.0000;1.0061;1.9838;
387.3000;1.0061;1.9838;
387.6000;1.0069;1.9814;
387.9000;1.0069;1.9814;
388.2000;1.0053;1.9911;
388.5000;1.0045;1.9935;
388.8000;1.0045;1.9886;
389.1000;1.0069;1.9984;
389.4000;1.0053;1.9959;
389.7000;1.0077;1.9959;
390.0000;1.0061;1.9959;
390.3000;1.0085;2.0081;
390.6000;1.0053;1.9959;
390.9000;1.0053;1.9984;
391.2000;1.0053;1.9984;
391.5000;1.0069;1.9959;
391.8000;1.0061;1.9911;
392.1000;1.0053;1.9911;
392.4000;1.0028;1.9838;
392.7000;1.0045;1.9789;
393.0000;1.0045;1.9814;
393.3000;1.0037;1.9789;
393.6000;1.0069;1.9911;
393.9000;1.0061;1.9838;
394.2000;1.0069;1.9935;
394.5000;1.0053;1.9838;
394.8000;1.0028;1.9741;
395.1000;1.0077;1.9716;
395.4000;1.0069;1.9619;
395.7000;1.0069;1.9668;
396.0000;1.0037;1.9595;
396.3000;1.0012;1.9522;
396.6000;1.0053;1.9668;
396.9000;1.0037;1.9716;
397.2000;1.0037;1.9789;
397.5000;1.0077;1.9814;
397.8000;1.0069;1.9789;
398.1000;1.0118;1.9886;
398.4000;1.0061;1.9838;
398.7000;1.0037;1.9862;
399.0000;1.0053;1.9862;
399.3000;1.0061;1.9935;
399.6000;1.0037;1.9862;
399.9000;1.0053;1.9911;
400.2000;1.0061;1.9911;
400.5000;1.0102;1.9886;
400.8000;1.0069;1.9789;
401.1000;1.0053;1.9765;
401.4000;1.0110;1.9959;
401.7000;1.0053;1.9862;
402.0000;1.0061;1.9959;
402.3000;1.0061;1.9984;
402.6000;1.0069;1.9959;
402.9000;1.0045;1.9911;
403.2000;1.0077;1.9886;
403.5000;1.0069;1.9886;
403.8000;1.0053;1.9959;
404.1000;1.0053;2.0008;
404.4000;1.0053;2.0032;
404.7000;1.0061;2.0008;
405.0000;1.0053;1.9935;
405.3000;1.0045;1.9862;
405.6000;1.0053;1.9911;
405.9000;1.0069;1.9984;
406.2000;1.0061;1.9935;
406.5000;1.0053;1.9886;
406.8000;1.0045;1.9886;
407.1000;1.0053;1.9886;
407.4000;1.0037;1.9862;
407.7000;1.0045;1.9838;
408.0000;1.0053;1.9886;
408.3000;1.0069;1.9935;
408.6000;1.0061;1.9765;
408.9000;1.0045;1.9716;
409.2000;1.0045;1.9692;
409.5000;1.0069;1.9789;
409.8000;1.0061;1.9741;
410.1000;1.0037;1.9692;
410.4000;1.0110;1.9911;
410.7000;1.0004;1.9741;
411.0000;1.0053;1.9789;
411.3000;1.0061;1.9741;
411.6000;1.0069;1.9814;
411.9000;1.0061;1.9765;
412.2000;1.0077;1.9814;
412.5000;1.0045;1.9862;
412.8000;1.0085;1.9959;
413.1000;1.0053;1.9886;
413.4000;1.0045;1.9862;
413.7000;1.0069;1.9886;
414.0000;1.0053;1.9765;
414.3000;1.0045;1.9838;
414.6000;1.0061;1.9838;
414.9000;1.0053;1.9765;
415.2000;1.0028;1.9789;
415.5000;1.0061;1.9862;
415.8000;1.0053;1.9814;
416.1000;1.0061;1.9765;
416.4000;1.0053;1.9838;
416.7000;1.0037;1.9814;
417.0000;1.0045;1.9862;
417.3000;1.0061;1.9935;
417.6000;1.0069;1.9911;
417.9000;1.0061;1.9862;
418.2000;1.0077;1.9838;
418.5000;1.0045;1.9814;
418.8000;1.0053;1.9814;
419.1000;1.0045;1.9716;
419.4000;1.0020;1.9619;
419.7000;1.0020;1.9619;
420.0000;1.0061;1.9716;
420.3000;1.0037;1.9789;
420.6000;1.0094;1.9984;
420.9000;1.0053;1.9814;
421.2000;1.0077;1.9862;
421.5000;1.0037;1.9789;
421.8000;1.0045;1.9765;
422.1000;1.0061;1.9838;
422.4000;1.0053;1.9741;
422.7000;1.0061;1.9765;
423.0000;1.0045;1.9692;
423.3000;1.0045;1.9716;
423.6000;1.0069;1.9644;
423.9000;1.0061;1.9692;
424.2000;1.0053;1.9692;
424.5000;0.9988;1.9425;
424.8000;1.0053;1.9595;
425.1000;1.0037;1.9716;
425.4000;1.0053;1.9838;
425.7000;1.0045;1.9741;
426.0000;1.0045;1.9814;
426.3000;1.0053;1.9886;
426.6000;1.0053;1.9959;
426.9000;1.0045;1.9935;
427.2000;1.0045;1.9935;
427.5000;1.0053;1.9959;
427.8000;1.0069;1.9911;
428.1000;1.0028;1.9789;
428.4000;1.0053;1.9765;
428.7000;1.0053;1.9862;
429.0000;1.0069;1.9911;
429.3000;1.0053;1.9862;
429.6000;1.0045;1.9765;
429.9000;1.0028;1.9668;
430.2000;1.0045;1.9741;
430.5000;1.0037;1.9741;
430.8000;0.9996;1.9595;
431.1000;1.0045;1.9716;
431.4000;1.0053;1.9741;
431.7000;1.0037;1.9789;
432.0000;1.0037;1.9741;
432.3000;1.0037;1.9716;
432.6000;1.0053;1.9692;
432.9000;1.0069;1.9716;
433.2000;1.0053;1.9668;
433.5000;1.0037;1.9644;
433.8000;1.0045;1.9741;
434.1000;1.0061;1.9838;
434.4000;1.0053;1.9862;
434.7000;1.0045;1.9838;
435.0000;1.0053;1.9838;
435.3000;1.0045;1.9814;
435.6000;1.0037;1.9765;
435.9000;1.0028;1.9765;
436.2000;1.0045;1.9789;
436.5000;1.0053;1.9789;
436.8000;1.0045;1.9692;
437.1000;1.0028;1.9692;
437.4000;1.0061;1.9692;
437.7000;1.0069;1.9668;
438.0000;1.0053;1.9619;
438.3000;1.0061;1.9644;
438.6000;1.0045;1.9595;
438.9000;1.0069;1.9619;
439.2000;1.0069;1.9546;
439.5000;1.0061;1.9595;
439.8000;1.0061;1.9546;
440.1000;1.0053;1.9595;
440.4000;1.0045;1.9619;
440.7000;1.0045;1.9619;
441.0000;1.0028;1.9668;
441.3000;1.0045;1.9692;
441.6000;1.0053;1.9765;
441.9000;1.0028;1.9741;
442.2000;1.0045;1.9886;
442.5000;1.0069;2.0008;
442.8000;1.0053;1.9984;
443.1000;1.0061;2.0081;
443.4000;1.0118;2.0178;
443.7000;1.0053;1.9959;
444.0000;1.0045;1.9911;
444.3000;1.0061;2.0008;
444.6000;1.0045;1.9959;
444.9000;1.0028;1.9984;
445.2000;1.0037;1.9935;
445.5000;0.9996;1.9886;
445.8000;1.0045;1.9984;
446.1000;1.0028;1.9862;
446.4000;1.0037;1.9814;
446.7000;1.0053;1.9911;
447.0000;1.0037;1.9959;
447.3000;1.0045;1.9984;
447.6000;1.0037;1.9959;
447.9000;1.0012;1.9886;
448.2000;1.0045;2.0008;
448.5000;1.0061;2.0081;
448.8000;1.0053;2.0081;
449.1000;1.0037;2.0105;
449.4000;1.0037;2.0129;
449.7000;1.0053;2.0178;
450.0000;1.0045;2.0129;
450.3000;1.0037;2.0081;
450.6000;1.0061;2.0081;
450.9000;1.0028;1.9984;
451.2000;1.0037;1.9959;
451.5000;1.0053;1.9935;
451.8000;1.0045;1.9838;
452.1000;1.0045;1.9838;
452.4000;1.0053;1.9838;
452.7000;1.0045;1.9862;
453.0000;1.0053;1.9984;
453.3000;1.0053;2.0129;
453.6000;1.0053;2.0081;
453.9000;1.0061;2.0129;
454.2000;1.0045;2.0129;
454.5000;1.0069;2.0202;
454.8000;1.0061;2.0081;
455.1000;1.0028;1.9984;
455.4000;1.0045;2.0129;
455.7000;1.0053;2.0129;
456.0000;1.0045;2.0129;
456.3000;1.0004;1.9959;
456.6000;1.0045;1.9959;
456.9000;1.0045;1.9886;
457.2000;1.0061;1.9935;
457.5000;1.0053;1.9886;
457.8000;1.0045;1.9862;
458.1000;1.0053;1.9935;
458.4000;1.0110;2.0154;
458.7000;1.0061;1.9984;
459.0000;1.0037;1.9814;
459.3000;1.0053;1.9814;
459.6000;1.0037;1.9838;
459.9000;1.0045;1.9789;
460.2000;1.0045;1.9692;
460.5000;1.0020;1.9692;
460.8000;1.0037;1.9765;
461.1000;1.0037;1.9765;
461.4000;1.0053;1.9814;
461.7000;1.0061;1.9838;
462.0000;1.0020;1.9838;
462.3000;1.0045;1.9862;
462.6000;1.0053;1.9789;
462.9000;1.0028;1.9838;
463.2000;1.0045;1.9886;
463.5000;1.0012;1.9814;
463.8000;1.0045;1.9862;
464.1000;1.0053;1.9862;
464.4000;1.0053;1.9862;
464.7000;1.0061;1.9935;
465.0000;1.0061;1.9959;
465.3000;1.0077;2.0032;
465.6000;1.0045;2.0008;
465.9000;1.0085;2.0081;
466.2000;1.0061;2.0008;
466.5000;1.0012;1.9911;
466.8000;1.0077;2.0105;
467.1000;1.0037;1.9959;
467.4000;1.0045;1.9984;
467.7000;1.0045;2.0032;
468.0000;1.0045;2.0032;
468.3000;1.0045;1.9959;
468.6000;1.0053;1.9862;
468.9000;1.0045;1.9814;
469.2000;0.9988;1.9692;
469.5000;1.0053;1.9814;
469.8000;1.0053;1.9862;
470.1000;1.0069;1.9935;
470.4000;1.0061;1.9862;
470.7000;1.0045;1.9862;
471.0000;1.0037;1.9789;
471.3000;1.0045;1.9838;
471.6000;1.0045;1.9862;
471.9000;1.0028;1.9789;
472.2000;1.0045;1.9814;
472.5000;1.0077;1.9886;
472.8000;1.0045;1.9814;
473.1000;1.0020;1.9765;
473.4000;1.0077;1.9959;
473.7000;1.0037;1.9911;
474.0000;1.0028;1.9838;
474.3000;1.0045;1.9838;
474.6000;1.0004;1.9716;
474.9000;1.0020;1.9765;
475.2000;1.0077;1.9911;
475.5000;1.0069;1.9814;
475.8000;1.0045;1.9716;
476.1000;1.0045;1.9716;
476.4000;1.0053;1.9741;
476.7000;1.0037;1.9741;
477.0000;1.0045;1.9668;
477.3000;1.0037;1.9571;
477.6000;1.0053;1.9692;
477.9000;1.0069;1.9741;
478.2000;1.0053;1.9716;
478.5000;1.0028;1.9716;
478.8000;1.0053;1.9789;
479.1000;1.0053;1.9716;
479.4000;1.0085;1.9789;
479.7000;1.0037;1.9668;
480.0000;1.0004;1.9668;
480.3000;1.0037;1.9765;
480.6000;1.0037;1.9741;
480.9000;1.0037;1.9765;
481.2000;1.0053;1.9716;
481.5000;1.0061;1.9668;
481.8000;1.0037;1.9789;
482.1000;1.0037;1.9765;
482.4000;1.0053;1.9862;
482.7000;1.0037;1.9886;
483.0000;1.0037;1.9935;
483.3000;1.0037;1.9886;
483.6000;1.0037;1.9911;
483.9000;1.0053;1.9959;
484.2000;1.0045;1.9862;
484.5000;1.0053;1.9959;
484.8000;1.0037;1.9886;
485.1000;1.0020;1.9862;
485.4000;1.0020;1.9886;
485.7000;1.0061;1.9984;
486.0000;1.0037;1.9959;
486.3000;1.0085;2.0129;
486.6000;0.9980;1.9886;
486.9000;1.0045;2.0008;
487.2000;1.0020;1.9862;
487.5000;1.0110;2.0081;
487.8000;1.0077;2.0105;
488.1000;1.0061;2.0154;
488.4000;1.0045;2.0008;
488.7000;1.0045;2.0032;
489.0000;1.0045;1.9935;
489.3000;1.0061;1.9984;
489.6000;1.0012;1.9789;
489.9000;1.0053;1.9838;
490.2000;0.9996;1.9716;
490.5000;1.0094;2.0008;
490.8000;1.0037;1.9959;
491.1000;1.0004;1.9862;
491.4000;1.0037;1.9886;
491.7000;0.9988;1.9789;
492.0000;1.0020;1.9984;
492.3000;1.0004;1.9838;
492.6000;1.0037;1.9886;
492.9000;1.0037;1.9789;
493.2000;1.0012;1.9716;
493.5000;0.9955;1.9474;
493.8000;1.0045;1.9595;
494.1000;1.0037;1.9522;
494.4000;1.0045;1.9595;
494.7000;1.0037;1.9595;
495.0000;1.0045;1.9668;
495.3000;1.0028;1.9668;
495.6000;1.0037;1.9619;
495.9000;1.0037;1.9644;
496.2000;1.0037;1.9765;
496.5000;1.0037;1.9716;
496.8000;1.0037;1.9692;
497.1000;1.0037;1.9692;
497.4000;1.0037;1.9741;
497.7000;1.0045;1.9716;
498.0000;1.0004;1.9619;
498.3000;1.0037;1.9716;
498.6000;1.0037;1.9692;
498.9000;1.0020;1.9741;
499.2000;1.0037;1.9741;
499.5000;1.0037;1.9716;
499.8000;1.0012;1.9692;
500.1000;1.0028;1.9789;
500.4000;1.0045;1.9886;
500.7000;1.0037;1.9886;
501.0000;1.0061;1.9959;
501.3000;1.0028;1.9838;
501.6000;1.0045;1.9814;
501.9000;1.0069;1.9741;
502.2000;1.0020;1.9522;
502.5000;1.0037;1.9571;
502.8000;1.0004;1.9619;
503.1000;1.0045;1.9765;
503.4000;1.0020;1.9838;
503.7000;1.0020;1.9838;
504.0000;1.0037;1.9814;
504.3000;0.9980;1.9692;
504.6000;1.0053;1.9692;
504.9000;1.0004;1.9449;
505.2000;1.0061;1.9546;
505.5000;1.0020;1.9522;
505.8000;1.0028;1.9546;
506.1000;1.0045;1.9595;
506.4000;1.0045;1.9595;
506.7000;1.0037;1.9546;
507.0000;1.0045;1.9619;
507.3000;1.0028;1.9644;
507.6000;1.0037;1.9741;
507.9000;1.0037;1.9838;
508.2000;1.0037;1.9935;
508.5000;1.0061;2.0081;
508.8000;1.0037;1.9911;
509.1000;1.0004;1.9838;
509.4000;1.0061;1.9886;
509.7000;1.0045;1.9911;
510.0000;1.0037;1.9911;
510.3000;1.0053;1.9935;
510.6000;0.9996;1.9692;
510.9000;1.0037;1.9789;
511.2000;1.0077;1.9935;
511.5000;1.0085;1.9959;
511.8000;1.0045;1.9862;
512.1000;1.0045;2.0008;
512.4000;1.0053;1.9959;
512.7000;1.0061;2.0008;
513.0000;1.0028;1.9862;
513.3000;1.0012;1.9862;
513.6000;1.0053;1.9984;
513.9000;1.0045;1.9838;
514.2000;1.0037;1.9765;
514.5000;0.9963;1.9571;
514.8000;1.0028;1.9765;
515.1000;1.0037;1.9741;
515.4000;1.0069;1.9789;
515.7000;0.9996;1.9668;
516.0000;1.0037;1.9765;
516.3000;1.0020;1.9765;
516.6000;1.0037;1.9789;
516.9000;1.0037;1.9789;
517.2000;1.0028;1.9789;
517.5000;1.0028;1.9911;
517.8000;1.0020;1.9911;
518.1000;1.0045;1.9886;
518.4000;1.0037;1.9886;
518.7000;1.0045;1.9886;
519.0000;1.0053;1.9886;
519.3000;1.0037;1.9814;
519.6000;1.0037;1.9814;
519.9000;1.0053;1.9789;
520.2000;1.0045;1.9838;
520.5000;1.0037;1.9814;
520.8000;1.0037;1.9789;
521.1000;1.0061;1.9814;
521.4000;1.0012;1.9741;
521.7000;1.0053;1.9789;
522.0000;1.0045;1.9789;
522.3000;1.0045;1.9765;
522.6000;1.0045;1.9716;
522.9000;1.0045;1.9716;
523.2000;1.0028;1.9716;
523.5000;1.0028;1.9741;
523.8000;1.0037;1.9789;
524.1000;1.0061;1.9862;
524.4000;1.0004;1.9692;
524.7000;1.0020;1.9668;
525.0000;1.0012;1.9595;
525.3000;1.0028;1.9619;
525.6000;0.9988;1.9644;
525.9000;0.9996;1.9619;
526.2000;1.0020;1.9716;
526.5000;1.0037;1.9862;
526.8000;1.0020;1.9838;
527.1000;1.0028;1.9862;
527.4000;0.9988;1.9741;
527.7000;1.0045;1.9838;
528.0000;1.0053;1.9716;
528.3000;1.0004;1.9619;
528.6000;1.0037;1.9716;
528.9000;1.0028;1.9692;
529.2000;1.0004;1.9619;
529.5000;1.0020;1.9644;
529.8000;1.0020;1.9716;
530.1000;1.0053;1.9911;
530.4000;1.0037;1.9838;
530.7000;1.0004;1.9862;
531.0000;1.0045;1.9984;
531.3000;1.0028;1.9959;
531.6000;1.0053;1.9935;
531.9000;1.0045;1.9838;
532.2000;1.0037;1.9886;
532.5000;1.0020;2.0008;
532.8000;1.0020;2.0032;
533.1000;1.0110;2.0154;
533.4000;1.0045;1.9984;
533.7000;1.0053;1.9984;
534.0000;1.0028;1.9984;
534.3000;1.0045;1.9862;
534.6000;1.0028;1.9789;
534.9000;1.0028;1.9814;
535.2000;1.0061;1.9935;
535.5000;1.0045;1.9935;
535.8000;1.0037;1.9886;
536.1000;1.0028;1.9886;
536.4000;1.0028;1.9935;
536.7000;1.0004;1.9838;
537.0000;1.0028;1.9886;
537.3000;1.0028;1.9935;
537.6000;1.0045;1.9959;
537.9000;1.0045;1.9959;
538.2000;1.0037;1.9935;
538.5000;1.0037;1.9959;
538.8000;1.0077;2.0129;
539.1000;1.0028;1.9959;
539.4000;1.0028;2.0008;
539.7000;1.0028;2.0008;
540.0000;1.0037;1.9935;
540.3000;1.0028;1.9984;
540.6000;1.0045;2.0008;
540.9000;1.0053;2.0032;
541.2000;1.0004;1.9935;
541.5000;1.0053;2.0032;
541.8000;1.0045;1.9984;
542.1000;1.0045;2.0032;
542.4000;1.0004;1.9959;
542.7000;1.0045;2.0032;
543.0000;1.0061;2.0008;
543.3000;1.0037;1.9911;
543.6000;1.0085;1.9935;
543.9000;1.0069;1.9959;
544.2000;1.0028;1.9838;
544.5000;1.0061;1.9886;
544.8000;1.0028;1.9741;
545.1000;1.0028;1.9716;
545.4000;1.0085;1.9911;
545.7000;1.0045;1.9765;
546.0000;1.0028;1.9838;
546.3000;1.0037;1.9862;
546.6000;1.0020;1.9838;
546.9000;1.0045;1.9911;
547.2000;1.0028;1.9984;
547.5000;1.0028;1.9911;
547.8000;1.0020;1.9959;
548.1000;1.0028;2.0056;
548.4000;1.0037;2.0105;
548.7000;1.0028;2.0105;
549.0000;1.0028;2.0105;
549.3000;1.0028;2.0032;
549.6000;1.0028;1.9984;
549.9000;1.0020;1.9935;
550.2000;1.0053;1.9935;
550.5000;1.0037;1.9935;
550.8000;1.0037;1.9911;
551.1000;1.0045;1.9886;
551.4000;1.0020;1.9911;
551.7000;1.0028;1.9862;
552.0000;0.9996;1.9814;
552.3000;0.9988;1.9741;
552.6000;1.0037;1.9862;
552.9000;1.0028;1.9862;
553.2000;1.0028;1.9935;
553.5000;1.0045;1.9984;
553.8000;1.0045;2.0056;
554.1000;1.0004;1.9911;
554.4000;1.0028;2.0008;
554.7000;1.0028;1.9984;
555.0000;1.0020;1.9935;
555.3000;1.0028;1.9886;
555.6000;1.0037;1.9838;
555.9000;1.0037;1.9862;
556.2000;1.0037;1.9886;
556.5000;1.0037;1.9911;
556.8000;1.0053;1.9862;
557.1000;1.0053;1.9935;
557.4000;1.0037;1.9935;
557.7000;1.0053;1.9814;
558.0000;1.0045;1.9838;
558.3000;1.0012;1.9716;
558.6000;1.0045;1.9765;
558.9000;1.0045;1.9765;
559.2000;1.0053;1.9716;
559.5000;1.0045;1.9741;
559.8000;1.0110;1.9911;
560.1000;1.0045;1.9765;
560.4000;0.9996;1.9716;
560.7000;1.0045;1.9789;
561.0000;1.0037;1.9814;
561.3000;1.0004;1.9862;
561.6000;1.0028;1.9959;
561.9000;1.0004;1.9886;
562.2000;1.0020;1.9935;
562.5000;1.0020;2.0032;
562.8000;1.0020;2.0056;
563.1000;1.0020;2.0081;
563.4000;1.0037;2.0154;
563.7000;1.0037;2.0105;
564.0000;1.0037;2.0129;
564.3000;1.0028;2.0056;
564.6000;1.0045;2.0056;
564.9000;1.0045;1.9984;
565.2000;1.0028;2.0008;
565.5000;1.0061;2.0081;
565.8000;1.0045;2.0105;
566.1000;1.0028;2.0154;
566.4000;1.0045;2.0154;
566.7000;1.0028;2.0056;
567.0000;1.0037;2.0056;
567.3000;1.0012;1.9959;
567.6000;1.0045;1.9984;
567.9000;1.0020;1.9911;
568.2000;1.0028;1.9935;
568.5000;1.0020;2.0008;
568.8000;1.0028;2.0008;
569.1000;1.0020;1.9911;
569.4000;1.0037;1.9984;
569.7000;1.0020;1.9959;
570.0000;1.0037;1.9959;
570.3000;1.0061;1.9984;
570.6000;1.0028;1.9984;
570.9000;1.0028;2.0008;
571.2000;1.0037;2.0008;
571.5000;1.0028;1.9911;
571.8000;1.0004;1.9716;
572.1000;0.9972;1.9716;
572.4000;1.0020;1.9862;
572.7000;1.0020;1.9789;
573.0000;1.0004;1.9814;
573.3000;0.9988;1.9935;
573.6000;1.0020;2.0056;
573.9000;1.0004;1.9984;
574.2000;1.0012;2.0008;
574.5000;1.0004;1.9911;
574.8000;1.0020;1.9959;
575.1000;1.0053;2.0032;
575.4000;1.0045;1.9886;
575.7000;1.0028;1.9814;
576.0000;1.0004;1.9765;
576.3000;1.0028;1.9814;
576.6000;1.0028;1.9789;
576.9000;1.0045;1.9765;
577.2000;1.0004;1.9716;
577.5000;1.0028;1.9765;
577.8000;1.0012;1.9765;
578.1000;1.0045;1.9814;
578.4000;1.0020;1.9765;
578.7000;1.0028;1.9886;
579.0000;0.9972;1.9765;
579.3000;1.0012;1.9886;
579.6000;1.0028;1.9911;
579.9000;1.0020;1.9911;
580.2000;1.0028;1.9984;
580.5000;1.0037;1.9935;
580.8000;1.0012;1.9959;
581.1000;1.0020;1.9911;
581.4000;0.9988;1.9838;
581.7000;1.0037;2.0008;
582.0000;1.0028;1.9911;
582.3000;1.0045;1.9911;
582.6000;1.0012;1.9862;
582.9000;1.0037;1.9911;
583.2000;1.0012;1.9814;
583.5000;1.0020;1.9838;
583.8000;1.0045;1.9886;
584.1000;1.0012;1.9911;
584.4000;1.0045;1.9959;
584.7000;1.0142;2.0178;
585.0000;1.0037;1.9838;
585.3000;1.0028;1.9886;
585.6000;1.0004;1.9838;
585.9000;1.0028;1.9862;
586.2000;1.0037;1.9935;
586.5000;1.0020;1.9886;
586.8000;0.9996;1.9789;
587.1000;0.9996;1.9765;
587.4000;1.0012;1.9789;
587.7000;1.0085;1.9911;
588.0000;1.0045;1.9862;
588.3000;1.0004;1.9716;
588.6000;1.0004;1.9765;
588.9000;1.0037;1.9789;
589.2000;1.0020;1.9814;
589.5000;1.0012;1.9838;
589.8000;1.0020;1.9886;
590.1000;1.0004;1.9765;
590.4000;1.0020;1.9741;
590.7000;1.0077;1.9862;
591.0000;1.0037;1.9838;
591.3000;1.0012;1.9789;
591.6000;1.0020;1.9789;
591.9000;1.0012;1.9814;
592.2000;1.0028;1.9838;
592.5000;1.0028;1.9765;
592.8000;1.0037;1.9814;
593.1000;1.0037;1.9862;
593.4000;1.0126;2.0032;
593.7000;1.0012;1.9741;
594.0000;1.0020;1.9741;
594.3000;1.0037;1.9644;
594.6000;1.0037;1.9668;
594.9000;1.0037;1.9692;
595.2000;1.0020;1.9619;
595.5000;1.0020;1.9668;
595.8000;1.0020;1.9716;
596.1000;1.0020;1.9814;
596.4000;1.0037;1.9886;
596.7000;0.9996;1.9741;
597.0000;1.0012;1.9716;
597.3000;1.0012;1.9692;
597.6000;1.0012;1.9644;
597.9000;1.0020;1.9716;
598.2000;1.0012;1.9644;
598.5000;1.0020;1.9692;
598.8000;1.0020;1.9668;
599.1000;1.0004;1.9644;
599.4000;1.0020;1.9644;
599.7000;1.0037;1.9692;
600.0000;1.0085;1.9765;
600.3000;1.0069;1.9546;
600.6000;1.0085;1.9449;
600.9000;1.0020;1.9255;
601.2000;0.9972;1.9109;
601.5000;0.9890;1.8794;
601.8000;0.9841;1.8745;
602.1000;0.9776;1.8600;
602.4000;0.9695;1.8357;
602.7000;0.9605;1.8090;
603.0000;0.9540;1.7871;
603.3000;0.9524;1.7847;
603.6000;0.9402;1.7701;
603.9000;0.9328;1.7483;
604.2000;0.9239;1.7264;
604.5000;0.9206;1.7240;
604.8000;0.9158;1.7118;
605.1000;0.9125;1.7070;
605.4000;0.9060;1.7046;
605.7000;0.9011;1.6948;
606.0000;0.8970;1.6924;
606.3000;0.8946;1.6924;
606.6000;0.8856;1.6754;
606.9000;0.8824;1.6706;
607.2000;0.8767;1.6657;
607.5000;0.8628;1.6366;
607.8000;0.8685;1.6463;
608.1000;0.8637;1.6414;
608.4000;0.8604;1.6390;
608.7000;0.8580;1.6269;
609.0000;0.8539;1.6269;
609.3000;0.8490;1.6196;
609.6000;0.8490;1.6147;
609.9000;0.8409;1.6001;
610.2000;0.8384;1.6026;
610.5000;0.8392;1.6099;
610.8000;0.8352;1.6050;
611.1000;0.8311;1.5977;
611.4000;0.8246;1.5759;
611.7000;0.8238;1.5759;
612.0000;0.8181;1.5637;
612.3000;0.8156;1.5710;
612.6000;0.8197;1.5759;
612.9000;0.8075;1.5540;
613.2000;0.8067;1.5613;
613.5000;0.8034;1.5613;
613.8000;0.8010;1.5613;
614.1000;0.7977;1.5540;
614.4000;0.7953;1.5492;
614.7000;0.7928;1.5467;
615.0000;0.7912;1.5492;
615.3000;0.7847;1.5492;
615.6000;0.7839;1.5492;
615.9000;0.7790;1.5492;
616.2000;0.7806;1.5492;
616.5000;0.7774;1.5492;
616.8000;0.7741;1.5394;
617.1000;0.7725;1.5419;
617.4000;0.7692;1.5419;
617.7000;0.7652;1.5443;
618.0000;0.7635;1.5492;
618.3000;0.7611;1.5492;
618.6000;0.7595;1.5492;
618.9000;0.7578;1.5516;
619.2000;0.7513;1.5370;
619.5000;0.7505;1.5322;
619.8000;0.7505;1.5346;
620.1000;0.7521;1.5370;
620.4000;0.7399;1.5054;
620.7000;0.7448;1.5200;
621.0000;0.7464;1.5249;
621.3000;0.7407;1.5079;
621.6000;0.7375;1.5030;
621.9000;0.7367;1.5006;
622.2000;0.7293;1.4933;
622.5000;0.7326;1.5079;
622.8000;0.7318;1.5127;
623.1000;0.7334;1.5273;
623.4000;0.7277;1.5152;
623.7000;0.7277;1.5103;
624.0000;0.7261;1.5030;
624.3000;0.7236;1.5030;
624.6000;0.7220;1.4982;
624.9000;0.7204;1.4933;
625.2000;0.7106;1.4739;
625.5000;0.7155;1.4933;
625.8000;0.7139;1.4909;
626.1000;0.7131;1.4933;
626.4000;0.7090;1.4957;
626.7000;0.7106;1.5030;
627.0000;0.7098;1.5006;
627.3000;0.7082;1.5054;
627.6000;0.7066;1.5103;
627.9000;0.7049;1.5054;
628.2000;0.7033;1.4982;
628.5000;0.7025;1.4982;
628.8000;0.7082;1.5103;
629.1000;0.6984;1.4909;
629.4000;0.6976;1.5006;
629.7000;0.6960;1.4933;
630.0000;0.6935;1.4957;
630.3000;0.6935;1.4933;
630.6000;0.6911;1.4957;
630.9000;0.6903;1.5006;
631.2000;0.6878;1.4909;
631.5000;0.6911;1.5054;
631.8000;0.6878;1.4982;
632.1000;0.6862;1.4909;
632.4000;0.6838;1.4909;
632.7000;0.6838;1.5006;
633.0000;0.6821;1.4836;
633.3000;0.6829;1.4860;
633.6000;0.6781;1.4812;
633.9000;0.6772;1.4836;
634.2000;0.6772;1.4787;
634.5000;0.6772;1.4787;
634.8000;0.6740;1.4860;
635.1000;0.6756;1.4884;
635.4000;0.6740;1.4860;
635.7000;0.6732;1.4860;
636.0000;0.6716;1.4909;
636.3000;0.6716;1.4957;
636.6000;0.6805;1.5079;
636.9000;0.6691;1.4763;
637.2000;0.6699;1.4787;
637.5000;0.6659;1.4666;
637.8000;0.6659;1.4763;
638.1000;0.6642;1.4763;
638.4000;0.6667;1.4836;
638.7000;0.6642;1.4739;
639.0000;0.6642;1.4739;
639.3000;0.6626;1.4690;
639.6000;0.6618;1.4714;
639.9000;0.6610;1.4787;
640.2000;0.6593;1.4812;
640.5000;0.6634;1.4982;
640.8000;0.6561;1.4763;
641.1000;0.6569;1.4812;
641.4000;0.6545;1.4787;
641.7000;0.6553;1.4739;
642.0000;0.6536;1.4739;
642.3000;0.6536;1.4690;
642.6000;0.6504;1.4617;
642.9000;0.6520;1.4617;
643.2000;0.6479;1.4520;
643.5000;0.6504;1.4520;
643.8000;0.6545;1.4617;
644.1000;0.6471;1.4593;
644.4000;0.6496;1.4666;
644.7000;0.6488;1.4642;
645.0000;0.6447;1.4593;
645.3000;0.6479;1.4666;
645.6000;0.6447;1.4642;
645.9000;0.6447;1.4642;
646.2000;0.6431;1.4569;
646.5000;0.6422;1.4545;
646.8000;0.6390;1.4447;
647.1000;0.6422;1.4569;
647.4000;0.6455;1.4714;
647.7000;0.6455;1.4666;
648.0000;0.6414;1.4569;
648.3000;0.6406;1.4569;
648.6000;0.6382;1.4569;
648.9000;0.6317;1.4472;
649.2000;0.6390;1.4593;
649.5000;0.6374;1.4617;
649.8000;0.6374;1.4642;
650.1000;0.6365;1.4666;
650.4000;0.6341;1.4593;
650.7000;0.6357;1.4593;
651.0000;0.6349;1.4642;
651.3000;0.6325;1.4666;
651.6000;0.6333;1.4714;
651.9000;0.6341;1.4666;
652.2000;0.6333;1.4690;
652.5000;0.6325;1.4642;
652.8000;0.6300;1.4617;
653.1000;0.6309;1.4714;
653.4000;0.6317;1.4714;
653.7000;0.6292;1.4666;
654.0000;0.6276;1.4642;
654.3000;0.6292;1.4763;
654.6000;0.6300;1.4739;
654.9000;0.6235;1.4569;
655.2000;0.6292;1.4642;
655.5000;0.6162;1.4375;
655.8000;0.6260;1.4545;
656.1000;0.6252;1.4545;
656.4000;0.6227;1.4593;
656.7000;0.6243;1.4714;
657.0000;0.6227;1.4642;
657.3000;0.6195;1.4569;
657.6000;0.6219;1.4666;
657.9000;0.6227;1.4714;
658.2000;0.6243;1.4690;
658.5000;0.6219;1.4642;
658.8000;0.6227;1.4690;
659.1000;0.6211;1.4617;
659.4000;0.6170;1.4496;
659.7000;0.6203;1.4593;
660.0000;0.6178;1.4739;
660.3000;0.6203;1.4836;
660.6000;0.6178;1.4739;
660.9000;0.6203;1.4763;
661.2000;0.6186;1.4787;
661.5000;0.6170;1.4787;
661.8000;0.6162;1.4739;
662.1000;0.6162;1.4739;
662.4000;0.6178;1.4763;
662.7000;0.6154;1.4690;
663.0000;0.6170;1.4763;
663.3000;0.6146;1.4666;
663.6000;0.6162;1.4739;
663.9000;0.6162;1.4714;
664.2000;0.6138;1.4593;
664.5000;0.6129;1.4642;
664.8000;0.6146;1.4690;
665.1000;0.6129;1.4545;
665.4000;0.6121;1.4496;
665.7000;0.6138;1.4545;
666.0000;0.6146;1.4545;
666.3000;0.6113;1.4569;
666.6000;0.6089;1.4569;
666.9000;0.6081;1.4569;
667.2000;0.6097;1.4617;
667.5000;0.6089;1.4593;
667.8000;0.6072;1.4545;
668.1000;0.6089;1.4617;
668.4000;0.6089;1.4714;
668.7000;0.6105;1.4714;
669.0000;0.6081;1.4690;
669.3000;0.6064;1.4787;
669.6000;0.6056;1.4812;
669.9000;0.6040;1.4714;
670.2000;0.6081;1.4739;
670.5000;0.6072;1.4617;
670.8000;0.6048;1.4520;
671.1000;0.6056;1.4447;
671.4000;0.6056;1.4520;
671.7000;0.6056;1.4520;
672.0000;0.6032;1.4520;
672.3000;0.6056;1.4496;
672.6000;0.6032;1.4447;
672.9000;0.6040;1.4472;
673.2000;0.6024;1.4375;
673.5000;0.6032;1.4399;
673.8000;0.6007;1.4375;
674.1000;0.6032;1.4472;
674.4000;0.6040;1.4496;
674.7000;0.6024;1.4472;
675.0000;0.6032;1.4569;
675.3000;0.6081;1.4690;
675.6000;0.6032;1.4642;
675.9000;0.6024;1.4593;
676.2000;0.6032;1.4593;
676.5000;0.5999;1.4666;
676.8000;0.6015;1.4739;
677.1000;0.6007;1.4787;
677.4000;0.5991;1.4666;
677.7000;0.5967;1.4642;
678.0000;0.6007;1.4690;
678.3000;0.5991;1.4496;
678.6000;0.6097;1.4812;
678.9000;0.5999;1.4520;
679.2000;0.5983;1.4496;
679.5000;0.5934;1.4447;
679.8000;0.5967;1.4520;
680.1000;0.5983;1.4593;
680.4000;0.5967;1.4569;
680.7000;0.5967;1.4593;
681.0000;0.5958;1.4569;
681.3000;0.5967;1.4593;
681.6000;0.5958;1.4642;
681.9000;0.5958;1.4714;
682.2000;0.5950;1.4763;
682.5000;0.5950;1.4812;
682.8000;0.5958;1.4739;
683.1000;0.5942;1.4739;
683.4000;0.5991;1.4884;
683.7000;0.5950;1.4714;
684.0000;0.5958;1.4642;
684.3000;0.5942;1.4593;
684.6000;0.5975;1.4714;
684.9000;0.5918;1.4642;
685.2000;0.5926;1.4787;
685.5000;0.5934;1.4787;
685.8000;0.5942;1.4763;
686.1000;0.5934;1.4666;
686.4000;0.5934;1.4666;
686.7000;0.5934;1.4666;
687.0000;0.5950;1.4666;
687.3000;0.5918;1.4642;
687.6000;0.5910;1.4690;
687.9000;0.5926;1.4763;
688.2000;0.5942;1.4884;
688.5000;0.5918;1.4836;
688.8000;0.5902;1.4836;
689.1000;0.5934;1.4812;
689.4000;0.5926;1.4860;
689.7000;0.5910;1.4739;
690.0000;0.5910;1.4812;
690.3000;0.5885;1.4884;
690.6000;0.5910;1.4860;
690.9000;0.5869;1.4739;
691.2000;0.5918;1.4836;
691.5000;0.5885;1.4739;
691.8000;0.5910;1.4714;
692.1000;0.5902;1.4714;
692.4000;0.5869;1.4617;
692.7000;0.5861;1.4569;
693.0000;0.5861;1.4642;
693.3000;0.5918;1.4812;
693.6000;0.5877;1.4739;
693.9000;0.5877;1.4860;
694.2000;0.5893;1.4957;
694.5000;0.5861;1.4812;
694.8000;0.5877;1.4763;
695.1000;0.5861;1.4666;
695.4000;0.5877;1.4714;
695.7000;0.5853;1.4642;
696.0000;0.5934;1.4884;
696.3000;0.5845;1.4666;
696.6000;0.5845;1.4714;
696.9000;0.5853;1.4714;
697.2000;0.5853;1.4690;
697.5000;0.5853;1.4690;
697.8000;0.5861;1.4690;
698.1000;0.5796;1.4545;
698.4000;0.5861;1.4763;
698.7000;0.5845;1.4739;
699.0000;0.5820;1.4666;
699.3000;0.5885;1.4860;
699.6000;0.5836;1.4763;
699.9000;0.5836;1.4666;
700.2000;0.5845;1.4617;
700.5000;0.5902;1.4787;
700.8000;0.5845;1.4666;
701.1000;0.5812;1.4642;
701.4000;0.5812;1.4617;
701.7000;0.5820;1.4666;
702.0000;0.5820;1.4763;
702.3000;0.5796;1.4763;
702.6000;0.5812;1.4836;
702.9000;0.5812;1.4836;
703.2000;0.5828;1.4884;
703.5000;0.5747;1.4739;
703.8000;0.5820;1.4982;
704.1000;0.5820;1.4982;
704.4000;0.5828;1.4982;
704.7000;0.5828;1.5006;
705.0000;0.5828;1.5006;
705.3000;0.5836;1.5030;
705.6000;0.5804;1.4957;
705.9000;0.5820;1.5030;
706.2000;0.5812;1.5079;
706.5000;0.5796;1.5054;
706.8000;0.5812;1.5006;
707.1000;0.5804;1.4957;
707.4000;0.5788;1.4909;
707.7000;0.5804;1.4933;
708.0000;0.5796;1.4860;
708.3000;0.5714;1.4593;
708.6000;0.5853;1.5006;
708.9000;0.5804;1.4909;
709.2000;0.5771;1.4836;
709.5000;0.5796;1.4860;
709.8000;0.5796;1.4884;
710.1000;0.5812;1.4860;
710.4000;0.5796;1.4763;
710.7000;0.5796;1.4666;
711.0000;0.5812;1.4690;
711.3000;0.5771;1.4617;
711.6000;0.5788;1.4593;
711.9000;0.5779;1.4617;
712.2000;0.5796;1.4666;
712.5000;0.5788;1.4690;
712.8000;0.5788;1.4714;
713.1000;0.5763;1.4714;
713.4000;0.5788;1.4884;
713.7000;0.5755;1.4812;
714.0000;0.5731;1.4617;
714.3000;0.5796;1.4739;
714.6000;0.5779;1.4763;
714.9000;0.5771;1.4860;
715.2000;0.5812;1.4933;
715.5000;0.5779;1.4884;
715.8000;0.5763;1.4836;
716.1000;0.5747;1.4884;
716.4000;0.5747;1.4884;
716.7000;0.5763;1.4884;
717.0000;0.5763;1.4860;
717.3000;0.5788;1.4957;
717.6000;0.5763;1.4884;
717.9000;0.5755;1.4812;
718.2000;0.5755;1.4690;
718.5000;0.5771;1.4763;
718.8000;0.5763;1.4763;
719.1000;0.5779;1.4666;
719.4000;0.5755;1.4593;
719.7000;0.5755;1.4690;
720.0000;0.5755;1.4812;
720.3000;0.5755;1.4787;
720.6000;0.5747;1.4812;
720.9000;0.5706;1.4714;
721.2000;0.5747;1.4787;
721.5000;0.5763;1.4812;
721.8000;0.5763;1.4860;
722.1000;0.5763;1.4884;
722.4000;0.5796;1.4909;
722.7000;0.5763;1.4860;
723.0000;0.5755;1.4812;
723.3000;0.5731;1.4787;
723.6000;0.5747;1.4933;
723.9000;0.5763;1.4982;
724.2000;0.5755;1.4957;
724.5000;0.5739;1.4860;
724.8000;0.5747;1.4884;
725.1000;0.5739;1.4860;
725.4000;0.5706;1.4763;
725.7000;0.5796;1.4957;
726.0000;0.5747;1.4884;
726.3000;0.5739;1.4909;
726.6000;0.5674;1.4739;
726.9000;0.5722;1.4933;
727.2000;0.5739;1.4836;
727.5000;0.5747;1.4787;
727.8000;0.5739;1.4812;
728.1000;0.5722;1.4763;
728.4000;0.5722;1.4860;
728.7000;0.5714;1.4812;
729.0000;0.5722;1.4836;
729.3000;0.5755;1.4860;
729.6000;0.5714;1.4763;
729.9000;0.5731;1.4787;
730.2000;0.5755;1.4714;
730.5000;0.5722;1.4617;
730.8000;0.5731;1.4739;
731.1000;0.5706;1.4763;
731.4000;0.5722;1.4884;
731.7000;0.5731;1.4957;
732.0000;0.5714;1.4957;
732.3000;0.5714;1.5006;
732.6000;0.5714;1.5006;
732.9000;0.5641;1.4812;
733.2000;0.5731;1.4957;
733.5000;0.5812;1.5152;
733.8000;0.5731;1.4957;
734.1000;0.5739;1.4933;
734.4000;0.5706;1.4957;
734.7000;0.5714;1.5079;
735.0000;0.5665;1.4982;
735.3000;0.5714;1.5030;
735.6000;0.5706;1.4909;
735.9000;0.5690;1.4933;
736.2000;0.5674;1.4933;
736.5000;0.5706;1.4933;
736.8000;0.5731;1.4982;
737.1000;0.5722;1.4933;
737.4000;0.5706;1.4957;
737.7000;0.5714;1.4957;
738.0000;0.5714;1.4982;
738.3000;0.5714;1.4933;
738.6000;0.5690;1.4836;
738.9000;0.5690;1.4787;
739.2000;0.5706;1.4763;
739.5000;0.5698;1.4617;
739.8000;0.5698;1.4690;
740.1000;0.5657;1.4569;
740.4000;0.5674;1.4666;
740.7000;0.5690;1.4642;
741.0000;0.5706;1.4714;
741.3000;0.5698;1.4642;
741.6000;0.5706;1.4714;
741.9000;0.5706;1.4787;
742.2000;0.5690;1.4666;
742.5000;0.5682;1.4666;
742.8000;0.5690;1.4714;
743.1000;0.5690;1.4836;
743.4000;0.5722;1.4909;
743.7000;0.5722;1.4763;
744.0000;0.5690;1.4739;
744.3000;0.5698;1.4860;
744.6000;0.5690;1.4860;
744.9000;0.5682;1.4884;
745.2000;0.5690;1.5006;
745.5000;0.5682;1.5006;
745.8000;0.5665;1.4933;
746.1000;0.5682;1.4836;
746.4000;0.5682;1.4812;
746.7000;0.5657;1.4739;
747.0000;0.5698;1.4909;
747.3000;0.5682;1.4909;
747.6000;0.5682;1.4982;
747.9000;0.5706;1.5103;
748.2000;0.5698;1.5030;
748.5000;0.5682;1.4982;
748.8000;0.5682;1.4909;
749.1000;0.5674;1.4933;
749.4000;0.5674;1.4909;
749.7000;0.5641;1.4763;
750.0000;0.5665;1.4836;
750.3000;0.5665;1.4812;
750.6000;0.5690;1.4860;
750.9000;0.5674;1.4812;
751.2000;0.5690;1.4909;
751.5000;0.5722;1.4909;
751.8000;0.5682;1.4860;
752.1000;0.5674;1.4909;
752.4000;0.5722;1.5103;
752.7000;0.5665;1.5006;
753.0000;0.5682;1.5006;
753.3000;0.5682;1.5006;
753.6000;0.5674;1.4982;
753.9000;0.5641;1.4884;
754.2000;0.5665;1.4933;
754.5000;0.5682;1.5079;
754.8000;0.5682;1.5030;
755.1000;0.5657;1.5030;
755.4000;0.5682;1.5127;
755.7000;0.5674;1.5127;
756.0000;0.5665;1.5103;
756.3000;0.5657;1.5152;
756.6000;0.5706;1.5200;
756.9000;0.5665;1.5054;
757.2000;0.5657;1.4933;
757.5000;0.5682;1.4909;
757.8000;0.5665;1.4909;
758.1000;0.5657;1.4909;
758.4000;0.5674;1.4933;
758.7000;0.5682;1.5030;
759.0000;0.5649;1.4933;
759.3000;0.5657;1.4909;
759.6000;0.5641;1.4787;
759.9000;0.5649;1.4812;
760.2000;0.5649;1.4860;
760.5000;0.5657;1.4787;
760.8000;0.5649;1.4763;
761.1000;0.5657;1.4812;
761.4000;0.5657;1.4739;
761.7000;0.5625;1.4690;
762.0000;0.5657;1.4812;
762.3000;0.5665;1.4860;
762.6000;0.5641;1.4860;
762.9000;0.5657;1.4933;
763.2000;0.5641;1.5006;
763.5000;0.5665;1.5030;
763.8000;0.5649;1.4982;
764.1000;0.5641;1.4933;
764.4000;0.5649;1.4836;
764.7000;0.5649;1.4812;
765.0000;0.5649;1.4763;
765.3000;0.5641;1.4666;
765.6000;0.5649;1.4666;
765.9000;0.5617;1.4617;
766.2000;0.5641;1.4666;
766.5000;0.5649;1.4714;
766.8000;0.5641;1.4739;
767.1000;0.5633;1.4739;
767.4000;0.5641;1.4739;
767.7000;0.5682;1.4836;
768.0000;0.5649;1.4739;
768.3000;0.5625;1.4714;
768.6000;0.5649;1.4836;
768.9000;0.5641;1.4812;
769.2000;0.5657;1.4787;
769.5000;0.5674;1.4836;
769.8000;0.5649;1.4812;
770.1000;0.5665;1.4812;
770.4000;0.5649;1.4787;
770.7000;0.5641;1.4787;
771.0000;0.5608;1.4739;
771.3000;0.5657;1.4884;
771.6000;0.5641;1.4836;
771.9000;0.5633;1.4812;
772.2000;0.5633;1.4787;
772.5000;0.5649;1.4763;
772.8000;0.5649;1.4812;
773.1000;0.5641;1.4812;
773.4000;0.5641;1.4836;
773.7000;0.5633;1.4933;
774.0000;0.5649;1.4909;
774.3000;0.5641;1.4884;
774.6000;0.5657;1.4884;
774.9000;0.5641;1.4812;
775.2000;0.5641;1.4836;
775.5000;0.5641;1.4860;
775.8000;0.5641;1.4884;
776.1000;0.5649;1.4933;
776.4000;0.5625;1.4787;
776.7000;0.5625;1.4884;
777.0000;0.5617;1.4933;
777.3000;0.5600;1.4884;
777.6000;0.5568;1.4812;
777.9000;0.5608;1.4836;
778.2000;0.5608;1.4812;
778.5000;0.5633;1.4787;
778.8000;0.5649;1.4763;
779.1000;0.5698;1.4812;
779.4000;0.5706;1.4860;
779.7000;0.5641;1.4739;
780.0000;0.5641;1.4714;
780.3000;0.5625;1.4642;
780.6000;0.5641;1.4617;
780.9000;0.5625;1.4545;
781.2000;0.5617;1.4520;
781.5000;0.5649;1.4520;
781.8000;0.5600;1.4423;
782.1000;0.5633;1.4496;
782.4000;0.5600;1.4447;
782.7000;0.5625;1.4593;
783.0000;0.5641;1.4617;
783.3000;0.5633;1.4593;
783.6000;0.5617;1.4617;
783.9000;0.5641;1.4690;
784.2000;0.5625;1.4666;
784.5000;0.5641;1.4690;
784.8000;0.5625;1.4714;
785.1000;0.5617;1.4836;
785.4000;0.5625;1.4812;
785.7000;0.5641;1.4812;
786.0000;0.5617;1.4666;
786.3000;0.5633;1.4690;
786.6000;0.5633;1.4714;
786.9000;0.5617;1.4714;
787.2000;0.5625;1.4666;
787.5000;0.5608;1.4666;
787.8000;0.5608;1.4617;
788.1000;0.5625;1.4787;
788.4000;0.5617;1.4642;
788.7000;0.5617;1.4690;
789.0000;0.5625;1.4787;
789.3000;0.5625;1.4739;
789.6000;0.5625;1.4714;
789.9000;0.5625;1.4690;
790.2000;0.5641;1.4812;
790.5000;0.5608;1.4836;
790.8000;0.5625;1.4812;
791.1000;0.5706;1.5006;
791.4000;0.5584;1.4666;
791.7000;0.5617;1.4690;
792.0000;0.5625;1.4617;
792.3000;0.5608;1.4666;
792.6000;0.5617;1.4617;
792.9000;0.5617;1.4569;
793.2000;0.5633;1.4617;
793.5000;0.5617;1.4520;
793.8000;0.5649;1.4569;
794.1000;0.5617;1.4593;
794.4000;0.5576;1.4642;
794.7000;0.5568;1.4569;
795.0000;0.5617;1.4714;
795.3000;0.5608;1.4666;
795.6000;0.5592;1.4593;
795.9000;0.5608;1.4666;
796.2000;0.5617;1.4642;
796.5000;0.5600;1.4666;
796.8000;0.5608;1.4690;
797.1000;0.5608;1.4666;
797.4000;0.5592;1.4593;
797.7000;0.5600;1.4593;
798.0000;0.5600;1.4690;
798.3000;0.5608;1.4787;
798.6000;0.5625;1.4836;
798.9000;0.5576;1.4714;
799.2000;0.5617;1.4836;
799.5000;0.5600;1.4836;
799.8000;0.5625;1.4909;
800.1000;0.5608;1.4933;
800.4000;0.5608;1.4933;
800.7000;0.5608;1.4909;
801.0000;0.5600;1.4982;
801.3000;0.5617;1.4982;
801.6000;0.5617;1.5030;
801.9000;0.5617;1.5079;
802.2000;0.5600;1.5079;
802.5000;0.5633;1.5079;
802.8000;0.5600;1.5006;
803.1000;0.5608;1.5030;
803.4000;0.5608;1.4957;
803.7000;0.5584;1.4860;
804.0000;0.5600;1.4860;
804.3000;0.5625;1.4884;
804.6000;0.5608;1.4836;
804.9000;0.5649;1.4982;
805.2000;0.5617;1.4957;
805.5000;0.5617;1.4982;
805.8000;0.5625;1.5054;
806.1000;0.5608;1.4982;
806.4000;0.5584;1.4836;
806.7000;0.5608;1.4836;
807.0000;0.5592;1.4884;
807.3000;0.5600;1.4884;
807.6000;0.5600;1.4836;
807.9000;0.5584;1.4909;
808.2000;0.5617;1.4957;
808.5000;0.5617;1.4982;
808.8000;0.5592;1.4957;
809.1000;0.5625;1.5006;
809.4000;0.5608;1.4957;
809.7000;0.5600;1.4884;
810.0000;0.5592;1.4812;
810.3000;0.5608;1.4836;
810.6000;0.5608;1.4836;
810.9000;0.5600;1.4787;
811.2000;0.5625;1.4836;
811.5000;0.5600;1.4787;
811.8000;0.5592;1.4812;
812.1000;0.5584;1.4860;
812.4000;0.5600;1.4860;
812.7000;0.5600;1.4909;
813.0000;0.5641;1.4957;
813.3000;0.5608;1.4909;
813.6000;0.5592;1.4909;
813.9000;0.5584;1.4787;
814.2000;0.5600;1.4812;
814.5000;0.5608;1.4836;
814.8000;0.5617;1.4836;
815.1000;0.5633;1.4787;
815.4000;0.5633;1.4836;
815.7000;0.5600;1.4787;
816.0000;0.5617;1.4763;
816.3000;0.5617;1.4714;
816.6000;0.5584;1.4617;
816.9000;0.5592;1.4690;
817.2000;0.5600;1.4666;
817.5000;0.5584;1.4617;
817.8000;0.5608;1.4690;
818.1000;0.5592;1.4617;
818.4000;0.5617;1.4690;
818.7000;0.5617;1.4690;
819.0000;0.5576;1.4593;
819.3000;0.5568;1.4496;
819.6000;0.5527;1.4423;
819.9000;0.5584;1.4593;
820.2000;0.5592;1.4666;
820.5000;0.5592;1.4690;
820.8000;0.5584;1.4812;
821.1000;0.5600;1.4909;
821.4000;0.5592;1.4836;
821.7000;0.5584;1.4836;
822.0000;0.5584;1.4836;
822.3000;0.5584;1.4884;
822.6000;0.5600;1.4982;
822.9000;0.5584;1.4860;
823.2000;0.5535;1.4787;
823.5000;0.5560;1.4884;
823.8000;0.5608;1.5006;
824.1000;0.5576;1.5030;
824.4000;0.5576;1.5006;
824.7000;0.5592;1.4957;
825.0000;0.5584;1.4933;
825.3000;0.5600;1.4982;
825.6000;0.5527;1.4739;
825.9000;0.5576;1.4909;
826.2000;0.5600;1.5006;
826.5000;0.5674;1.5200;
826.8000;0.5600;1.5006;
827.1000;0.5568;1.4982;
827.4000;0.5592;1.4909;
827.7000;0.5584;1.5006;
828.0000;0.5600;1.5030;
828.3000;0.5592;1.5006;
828.6000;0.5543;1.4860;
828.9000;0.5600;1.5030;
829.2000;0.5584;1.5054;
829.5000;0.5617;1.5103;
829.8000;0.5551;1.5054;
830.1000;0.5600;1.5152;
830.4000;0.5592;1.5127;
830.7000;0.5576;1.4982;
831.0000;0.5576;1.4982;
831.3000;0.5625;1.5176;
831.6000;0.5608;1.5103;
831.9000;0.5576;1.4909;
832.2000;0.5495;1.4739;
832.5000;0.5600;1.5103;
832.8000;0.5576;1.4982;
833.1000;0.5576;1.4957;
833.4000;0.5584;1.5030;
833.7000;0.5551;1.4909;
834.0000;0.5535;1.4836;
834.3000;0.5519;1.4812;
834.6000;0.5568;1.4860;
834.9000;0.5560;1.4860;
835.2000;0.5600;1.4909;
835.5000;0.5576;1.4933;
835.8000;0.5551;1.4860;
836.1000;0.5576;1.4860;
836.4000;0.5576;1.4763;
836.7000;0.5576;1.4787;
837.0000;0.5592;1.4836;
837.3000;0.5617;1.4933;
837.6000;0.5568;1.4957;
837.9000;0.5592;1.5006;
838.2000;0.5600;1.4957;
838.5000;0.5592;1.4957;
838.8000;0.5592;1.4909;
839.1000;0.5576;1.4860;
839.4000;0.5568;1.4884;
839.7000;0.5576;1.4860;
840.0000;0.5568;1.4763;
840.3000;0.5592;1.4860;
840.6000;0.5584;1.4836;
840.9000;0.5584;1.4957;
841.2000;0.5592;1.5006;
841.5000;0.5592;1.5006;
841.8000;0.5592;1.5006;
842.1000;0.5584;1.5006;
842.4000;0.5568;1.4982;
842.7000;0.5592;1.5030;
843.0000;0.5608;1.5054;
843.3000;0.5576;1.5103;
843.6000;0.5576;1.5030;
843.9000;0.5576;1.5054;
844.2000;0.5560;1.4933;
844.5000;0.5617;1.4982;
844.8000;0.5560;1.4836;
845.1000;0.5592;1.4933;
845.4000;0.5535;1.4812;
845.7000;0.5560;1.4933;
846.0000;0.5576;1.4957;
846.3000;0.5576;1.4884;
846.6000;0.5608;1.5030;
846.9000;0.5600;1.5006;
847.2000;0.5600;1.5079;
847.5000;0.5535;1.4982;
847.8000;0.5576;1.5054;
848.1000;0.5543;1.5006;
848.4000;0.5568;1.5079;
848.7000;0.5576;1.5054;
849.0000;0.5600;1.5152;
849.3000;0.5592;1.5127;
849.6000;0.5584;1.5054;
849.9000;0.5576;1.5079;
850.2000;0.5551;1.5006;
850.5000;0.5576;1.5054;
850.8000;0.5568;1.5079;
851.1000;0.5625;1.5249;
851.4000;0.5560;1.5079;
851.7000;0.5584;1.5127;
852.0000;0.5592;1.5200;
852.3000;0.5576;1.5176;
852.6000;0.5576;1.5176;
852.9000;0.5584;1.5176;
853.2000;0.5584;1.5127;
853.5000;0.5576;1.5030;
853.8000;0.5568;1.4982;
854.1000;0.5568;1.4933;
854.4000;0.5600;1.4957;
854.7000;0.5576;1.4982;
855.0000;0.5600;1.4982;
855.3000;0.5560;1.4909;
855.6000;0.5584;1.4957;
855.9000;0.5568;1.4933;
856.2000;0.5535;1.4812;
856.5000;0.5560;1.4957;
856.8000;0.5568;1.4933;
857.1000;0.5568;1.5006;
857.4000;0.5543;1.4933;
857.7000;0.5584;1.5006;
858.0000;0.5576;1.5030;
858.3000;0.5551;1.4957;
858.6000;0.5560;1.5006;
858.9000;0.5576;1.5006;
859.2000;0.5560;1.5006;
859.5000;0.5568;1.5054;
859.8000;0.5576;1.5127;
860.1000;0.5568;1.5054;
860.4000;0.5592;1.5103;
860.7000;0.5568;1.5152;
861.0000;0.5568;1.5200;
861.3000;0.5592;1.5297;
861.6000;0.5527;1.5152;
861.9000;0.5576;1.5273;
862.2000;0.5576;1.5297;
862.5000;0.5576;1.5273;
862.8000;0.5568;1.5297;
863.1000;0.5584;1.5249;
863.4000;0.5592;1.5176;
863.7000;0.5584;1.5176;
864.0000;0.5576;1.5249;
864.3000;0.5592;1.5322;
864.6000;0.5560;1.5200;
864.9000;0.5625;1.5322;
865.2000;0.5584;1.5297;
865.5000;0.5568;1.5273;
865.8000;0.5576;1.5297;
866.1000;0.5576;1.5322;
866.4000;0.5568;1.5224;
866.7000;0.5592;1.5224;
867.0000;0.5576;1.5152;
867.3000;0.5560;1.5127;
867.6000;0.5568;1.5127;
867.9000;0.5535;1.5079;
868.2000;0.5584;1.5152;
868.5000;0.5551;1.5152;
868.8000;0.5568;1.5152;
869.1000;0.5543;1.5079;
869.4000;0.5543;1.5006;
869.7000;0.5560;1.5079;
870.0000;0.5592;1.5200;
870.3000;0.5560;1.5200;
870.6000;0.5592;1.5273;
870.9000;0.5584;1.5200;
871.2000;0.5527;1.5030;
871.5000;0.5576;1.5054;
871.8000;0.5551;1.4909;
872.1000;0.5551;1.4860;
872.4000;0.5592;1.4982;
872.7000;0.5568;1.4909;
873.0000;0.5568;1.4909;
873.3000;0.5535;1.4787;
873.6000;0.5576;1.5030;
873.9000;0.5568;1.4933;
874.2000;0.5560;1.4909;
874.5000;0.5576;1.4884;
874.8000;0.5560;1.4884;
875.1000;0.5568;1.4909;
875.4000;0.5560;1.4933;
875.7000;0.5568;1.4982;
876.0000;0.5551;1.4982;
876.3000;0.5568;1.5006;
876.6000;0.5568;1.4933;
876.9000;0.5543;1.4909;
877.2000;0.5568;1.5006;
877.5000;0.5576;1.5006;
877.8000;0.5576;1.5103;
878.1000;0.5551;1.5152;
878.4000;0.5560;1.5152;
878.7000;0.5560;1.5176;
879.0000;0.5568;1.5152;
879.3000;0.5568;1.5079;
879.6000;0.5543;1.5006;
879.9000;0.5543;1.4982;
880.2000;0.5568;1.4982;
880.5000;0.5551;1.4982;
880.8000;0.5495;1.4860;
881.1000;0.5543;1.4982;
881.4000;0.5592;1.5127;
881.7000;0.5551;1.5006;
882.0000;0.5560;1.4957;
882.3000;0.5560;1.5006;
882.6000;0.5551;1.4982;
882.9000;0.5560;1.5030;
883.2000;0.5551;1.5054;
883.5000;0.5543;1.5054;
883.8000;0.5568;1.5127;
884.1000;0.5568;1.5176;
884.4000;0.5551;1.5127;
884.7000;0.5543;1.5127;
885.0000;0.5543;1.5103;
885.3000;0.5551;1.5054;
885.6000;0.5568;1.5030;
885.9000;0.5551;1.4884;
886.2000;0.5551;1.4884;
886.5000;0.5568;1.4909;
886.8000;0.5560;1.4884;
887.1000;0.5568;1.4933;
887.4000;0.5535;1.4860;
887.7000;0.5560;1.4884;
888.0000;0.5584;1.5054;
888.3000;0.5625;1.5176;
888.6000;0.5568;1.5030;
888.9000;0.5551;1.5030;
889.2000;0.5568;1.5103;
889.5000;0.5576;1.5200;
889.8000;0.5568;1.5200;
890.1000;0.5551;1.5152;
890.4000;0.5584;1.5249;
890.7000;0.5551;1.5176;
891.0000;0.5560;1.5200;
891.3000;0.5543;1.5127;
891.6000;0.5535;1.5127;
891.9000;0.5535;1.5054;
892.2000;0.5560;1.5054;
892.5000;0.5551;1.4957;
892.8000;0.5584;1.5030;
893.1000;0.5568;1.4957;
893.4000;0.5511;1.4787;
893.7000;0.5551;1.4763;
894.0000;0.5551;1.4836;
894.3000;0.5470;1.4690;
894.6000;0.5584;1.5030;
894.9000;0.5551;1.4982;
895.2000;0.5568;1.5127;
895.5000;0.5560;1.5079;
895.8000;0.5568;1.5079;
896.1000;0.5543;1.5079;
896.4000;0.5551;1.5103;
896.7000;0.5568;1.5176;
897.0000;0.5560;1.5127;
897.3000;0.5560;1.5127;
897.6000;0.5543;1.5006;
897.9000;0.5543;1.5030;
898.2000;0.5551;1.5103;
898.5000;0.5560;1.5079;
898.8000;0.5568;1.5152;
899.1000;0.5543;1.5079;
899.4000;0.5560;1.5176;
899.7000;0.5560;1.5176;
900.0000;0.5560;1.5127;
900.3000;0.5560;1.5176;
900.6000;0.5568;1.5103;
900.9000;0.5568;1.5079;
901.2000;0.5543;1.5054;
901.5000;0.5551;1.5079;
901.8000;0.5543;1.5054;
902.1000;0.5543;1.5127;
902.4000;0.5535;1.5127;
902.7000;0.5543;1.5030;
903.0000;0.5543;1.5054;
903.3000;0.5551;1.5030;
903.6000;0.5543;1.5006;
903.9000;0.5543;1.4957;
904.2000;0.5576;1.5054;
904.5000;0.5576;1.5054;
904.8000;0.5560;1.5030;
905.1000;0.5608;1.5152;
905.4000;0.5519;1.4884;
905.7000;0.5560;1.4909;
906.0000;0.5543;1.4909;
906.3000;0.5543;1.4933;
906.6000;0.5535;1.4933;
906.9000;0.5551;1.4909;
907.2000;0.5560;1.4909;
907.5000;0.5584;1.5006;
907.8000;0.5535;1.4884;
908.1000;0.5543;1.4933;
908.4000;0.5625;1.5152;
908.7000;0.5560;1.4957;
909.0000;0.5551;1.4982;
909.3000;0.5543;1.5006;
909.6000;0.5568;1.5103;
909.9000;0.5486;1.4933;
910.2000;0.5551;1.5054;
910.5000;0.5527;1.4957;
910.8000;0.5560;1.5054;
911.1000;0.5560;1.5030;
911.4000;0.5560;1.5054;
911.7000;0.5551;1.5054;
912.0000;0.5535;1.5103;
912.3000;0.5543;1.5079;
912.6000;0.5543;1.5103;
912.9000;0.5527;1.5103;
913.2000;0.5527;1.5079;
913.5000;0.5486;1.5054;
913.8000;0.5560;1.5224;
914.1000;0.5535;1.5176;
914.4000;0.5535;1.5054;
914.7000;0.5551;1.5030;
915.0000;0.5551;1.5054;
915.3000;0.5535;1.4957;
915.6000;0.5560;1.5103;
915.9000;0.5568;1.5103;
916.2000;0.5543;1.5030;
916.5000;0.5551;1.5030;
916.8000;0.5551;1.5079;
917.1000;0.5551;1.5054;
917.4000;0.5568;1.5152;
917.7000;0.5560;1.5054;
918.0000;0.5535;1.5054;
918.3000;0.5543;1.5006;
918.6000;0.5560;1.5030;
918.9000;0.5560;1.4957;
919.2000;0.5551;1.4957;
919.5000;0.5551;1.5006;
919.8000;0.5551;1.4982;
920.1000;0.5568;1.4933;
920.4000;0.5543;1.4884;
920.7000;0.5568;1.4957;
921.0000;0.5519;1.4933;
921.3000;0.5551;1.4933;
921.6000;0.5543;1.4860;
921.9000;0.5560;1.4933;
922.2000;0.5568;1.4982;
922.5000;0.5568;1.4982;
922.8000;0.5560;1.5006;
923.1000;0.5519;1.4787;
923.4000;0.5551;1.4739;
923.7000;0.5551;1.4812;
924.0000;0.5592;1.4836;
924.3000;0.5560;1.4812;
924.6000;0.5543;1.4763;
924.9000;0.5560;1.4860;
925.2000;0.5560;1.4860;
925.5000;0.5560;1.4860;
925.8000;0.5543;1.4884;
926.1000;0.5503;1.4787;
926.4000;0.5543;1.4884;
926.7000;0.5543;1.4860;
927.0000;0.5592;1.5054;
927.3000;0.5543;1.4957;
927.6000;0.5551;1.5079;
927.9000;0.5551;1.5103;
928.2000;0.5617;1.5200;
928.5000;0.5535;1.5006;
928.8000;0.5551;1.5054;
929.1000;0.5568;1.5030;
929.4000;0.5551;1.5006;
929.7000;0.5511;1.4884;
930.0000;0.5527;1.4884;
930.3000;0.5543;1.4933;
930.6000;0.5560;1.4933;
930.9000;0.5551;1.4909;
931.2000;0.5560;1.4933;
931.5000;0.5543;1.4957;
931.8000;0.5543;1.4982;
932.1000;0.5543;1.5030;
932.4000;0.5551;1.5152;
932.7000;0.5560;1.5079;
933.0000;0.5495;1.5030;
933.3000;0.5535;1.5054;
933.6000;0.5527;1.5103;
933.9000;0.5495;1.4957;
934.2000;0.5560;1.4982;
934.5000;0.5535;1.4957;
934.8000;0.5495;1.4884;
935.1000;0.5527;1.5006;
935.4000;0.5592;1.5103;
935.7000;0.5600;1.5127;
936.0000;0.5543;1.5006;
936.3000;0.5551;1.4982;
936.6000;0.5551;1.4982;
936.9000;0.5543;1.4957;
937.2000;0.5568;1.4982;
937.5000;0.5503;1.4909;
937.8000;0.5551;1.5030;
938.1000;0.5568;1.5030;
938.4000;0.5551;1.5006;
938.7000;0.5495;1.4812;
939.0000;0.5543;1.4860;
939.3000;0.5543;1.4836;
939.6000;0.5584;1.4909;
939.9000;0.5495;1.4666;
940.2000;0.5568;1.4836;
940.5000;0.5551;1.4812;
940.8000;0.5486;1.4617;
941.1000;0.5543;1.4763;
941.4000;0.5543;1.4884;
941.7000;0.5551;1.4933;
942.0000;0.5568;1.5006;
942.3000;0.5551;1.5006;
942.6000;0.5470;1.4836;
942.9000;0.5519;1.4982;
943.2000;0.5617;1.5249;
943.5000;0.5543;1.5030;
943.8000;0.5551;1.5054;
944.1000;0.5511;1.5030;
944.4000;0.5568;1.5079;
944.7000;0.5543;1.5006;
945.0000;0.5503;1.4957;
945.3000;0.5584;1.5103;
945.6000;0.5535;1.5030;
945.9000;0.5543;1.5054;
946.2000;0.5560;1.5152;
946.5000;0.5543;1.5030;
946.8000;0.5527;1.5054;
947.1000;0.5503;1.5030;
947.4000;0.5495;1.5006;
947.7000;0.5535;1.5127;
948.0000;0.5543;1.5152;
948.3000;0.5551;1.5273;
948.6000;0.5543;1.5127;
948.9000;0.5551;1.5249;
949.2000;0.5527;1.5176;
949.5000;0.5543;1.5224;
949.8000;0.5568;1.5297;
950.1000;0.5495;1.5103;
950.4000;0.5551;1.5224;
950.7000;0.5535;1.5273;
951.0000;0.5551;1.5224;
951.3000;0.5600;1.5419;
951.6000;0.5527;1.5224;
951.9000;0.5535;1.5127;
952.2000;0.5584;1.5249;
952.5000;0.5551;1.5200;
952.8000;0.5560;1.5200;
953.1000;0.5543;1.5054;
953.4000;0.5486;1.4909;
953.7000;0.5551;1.5054;
954.0000;0.5543;1.4982;
954.3000;0.5551;1.5006;
954.6000;0.5560;1.5127;
954.9000;0.5511;1.5030;
955.2000;0.5535;1.5030;
955.5000;0.5527;1.4982;
955.8000;0.5551;1.5079;
956.1000;0.5576;1.5103;
956.4000;0.5584;1.5127;
956.7000;0.5551;1.5079;
957.0000;0.5543;1.5079;
957.3000;0.5576;1.5273;
957.6000;0.5535;1.5224;
957.9000;0.5527;1.5249;
958.2000;0.5551;1.5346;
958.5000;0.5551;1.5346;
958.8000;0.5535;1.5297;
959.1000;0.5551;1.5273;
959.4000;0.5503;1.5127;
959.7000;0.5543;1.5273;
960.0000;0.5551;1.5224;
960.3000;0.5535;1.5176;
960.6000;0.5519;1.5297;
960.9000;0.5519;1.5249;
961.2000;0.5543;1.5322;
961.5000;0.5519;1.5249;
961.8000;0.5527;1.5297;
962.1000;0.5543;1.5273;
962.4000;0.5527;1.5224;
962.7000;0.5527;1.5200;
963.0000;0.5568;1.5273;
963.3000;0.5527;1.5224;
963.6000;0.5543;1.5297;
963.9000;0.5568;1.5273;
964.2000;0.5535;1.5176;
964.5000;0.5560;1.5224;
964.8000;0.5519;1.5127;
965.1000;0.5551;1.5273;
965.4000;0.5584;1.5322;
965.7000;0.5527;1.5103;
966.0000;0.5511;1.5079;
966.3000;0.5600;1.5370;
966.6000;0.5560;1.5273;
966.9000;0.5543;1.5224;
967.2000;0.5543;1.5297;
967.5000;0.5535;1.5273;
967.8000;0.5551;1.5322;
968.1000;0.5551;1.5297;
968.4000;0.5543;1.5224;
968.7000;0.5560;1.5249;
969.0000;0.5584;1.5370;
969.3000;0.5535;1.5273;
969.6000;0.5551;1.5297;
969.9000;0.5551;1.5394;
970.2000;0.5560;1.5394;
970.5000;0.5551;1.5443;
970.8000;0.5535;1.5200;
971.1000;0.5543;1.5103;
971.4000;0.5527;1.5127;
971.7000;0.5551;1.5200;
972.0000;0.5511;1.5079;
972.3000;0.5535;1.5152;
972.6000;0.5551;1.5176;
972.9000;0.5560;1.5152;
973.2000;0.5503;1.4957;
973.5000;0.5543;1.5030;
973.8000;0.5543;1.5103;
974.1000;0.5551;1.5249;
974.4000;0.5543;1.5322;
974.7000;0.5535;1.5370;
975.0000;0.5535;1.5394;
975.3000;0.5543;1.5419;
975.6000;0.5535;1.5443;
975.9000;0.5527;1.5419;
976.2000;0.5535;1.5443;
976.5000;0.5535;1.5443;
976.8000;0.5543;1.5419;
977.1000;0.5543;1.5467;
977.4000;0.5543;1.5443;
977.7000;0.5535;1.5322;
978.0000;0.5543;1.5346;
978.3000;0.5543;1.5297;
978.6000;0.5543;1.5322;
978.9000;0.5519;1.5297;
979.2000;0.5527;1.5297;
979.5000;0.5519;1.5370;
979.8000;0.5527;1.5297;
980.1000;0.5560;1.5370;
980.4000;0.5551;1.5346;
980.7000;0.5527;1.5273;
981.0000;0.5535;1.5224;
981.3000;0.5535;1.5249;
981.6000;0.5551;1.5297;
981.9000;0.5551;1.5370;
982.2000;0.5543;1.5322;
982.5000;0.5503;1.5200;
982.8000;0.5551;1.5273;
983.1000;0.5543;1.5370;
983.4000;0.5527;1.5346;
983.7000;0.5543;1.5346;
984.0000;0.5543;1.5249;
984.3000;0.5560;1.5370;
984.6000;0.5543;1.5346;
984.9000;0.5551;1.5297;
985.2000;0.5527;1.5273;
985.5000;0.5470;1.5103;
985.8000;0.5535;1.5200;
986.1000;0.5495;1.5079;
986.4000;0.5551;1.5322;
986.7000;0.5551;1.5297;
987.0000;0.5543;1.5273;
987.3000;0.5527;1.5273;
987.6000;0.5527;1.5200;
987.9000;0.5543;1.5224;
988.2000;0.5543;1.5200;
988.5000;0.5527;1.5200;
988.8000;0.5519;1.5224;
989.1000;0.5470;1.5079;
989.4000;0.5519;1.5152;
989.7000;0.5527;1.5224;
990.0000;0.5470;1.4982;
990.3000;0.5527;1.5079;
990.6000;0.5551;1.5079;
990.9000;0.5519;1.4957;
991.2000;0.5527;1.4933;
991.5000;0.5535;1.4909;
991.8000;0.5543;1.4982;
992.1000;0.5543;1.4982;
992.4000;0.5527;1.4909;
992.7000;0.5535;1.4982;
993.0000;0.5560;1.4982;
993.3000;0.5551;1.5054;
993.6000;0.5519;1.5006;
993.9000;0.5511;1.5054;
994.2000;0.5527;1.5103;
994.5000;0.5551;1.5103;
994.8000;0.5551;1.5079;
995.1000;0.5535;1.5103;
995.4000;0.5511;1.5079;
995.7000;0.5535;1.5152;
996.0000;0.5519;1.5127;
996.3000;0.5527;1.5103;
996.6000;0.5519;1.5176;
996.9000;0.5543;1.5273;
997.2000;0.5527;1.5224;
997.5000;0.5519;1.5200;
997.8000;0.5543;1.5200;
998.1000;0.5543;1.5152;
998.4000;0.5535;1.5200;
998.7000;0.5535;1.5224;
999.0000;0.5527;1.5249;
999.3000;0.5535;1.5224;
999.6000;0.5535;1.5176;
999.9000;0.5527;1.5152;
1000.2000;0.5519;1.5176;
1000.5000;0.5535;1.5152;
1000.8000;0.5551;1.5079;
1001.1000;0.5527;1.4909;
1001.4000;0.5527;1.4884;
1001.7000;0.5519;1.4812;
1002.0000;0.5535;1.4884;
1002.3000;0.5551;1.5030;
1002.6000;0.5560;1.4982;
1002.9000;0.5519;1.4933;
1003.2000;0.5519;1.4957;
1003.5000;0.5519;1.4909;
1003.8000;0.5543;1.4957;
1004.1000;0.5527;1.4933;
1004.4000;0.5503;1.4836;
1004.7000;0.5543;1.4836;
1005.0000;0.5527;1.4812;
1005.3000;0.5543;1.4933;
1005.6000;0.5543;1.5030;
1005.9000;0.5543;1.5079;
1006.2000;0.5551;1.5103;
1006.5000;0.5617;1.5297;
1006.8000;0.5511;1.5006;
1007.1000;0.5535;1.5054;
1007.4000;0.5535;1.5152;
1007.7000;0.5535;1.5127;
1008.0000;0.5519;1.5079;
1008.3000;0.5486;1.4982;
1008.6000;0.5527;1.5079;
1008.9000;0.5527;1.5103;
1009.2000;0.5535;1.5152;
1009.5000;0.5592;1.5370;
1009.8000;0.5543;1.5103;
1010.1000;0.5584;1.5224;
1010.4000;0.5568;1.5152;
1010.7000;0.5527;1.5079;
1011.0000;0.5535;1.5103;
1011.3000;0.5535;1.5079;
1011.6000;0.5535;1.5030;
1011.9000;0.5543;1.5030;
1012.2000;0.5535;1.5079;
1012.5000;0.5543;1.5030;
1012.8000;0.5535;1.5006;
1013.1000;0.5551;1.4982;
1013.4000;0.5535;1.4982;
1013.7000;0.5543;1.5103;
1014.0000;0.5527;1.5103;
1014.3000;0.5543;1.5273;
1014.6000;0.5551;1.5127;
1014.9000;0.5551;1.5103;
1015.2000;0.5511;1.5079;
1015.5000;0.5543;1.5127;
1015.8000;0.5543;1.4957;
1016.1000;0.5543;1.4957;
1016.4000;0.5543;1.4957;
1016.7000;0.5535;1.5054;
1017.0000;0.5633;1.5322;
1017.3000;0.5527;1.5127;
1017.6000;0.5543;1.5152;
1017.9000;0.5535;1.5054;
1018.2000;0.5535;1.4884;
1018.5000;0.5527;1.4763;
1018.8000;0.5543;1.4787;
1019.1000;0.5535;1.4763;
1019.4000;0.5568;1.4836;
1019.7000;0.5535;1.4812;
1020.0000;0.5543;1.4860;
1020.3000;0.5462;1.4642;
1020.6000;0.5535;1.4860;
1020.9000;0.5543;1.4763;
1021.2000;0.5527;1.4763;
1021.5000;0.5543;1.4812;
1021.8000;0.5543;1.4884;
1022.1000;0.5535;1.4909;
1022.4000;0.5535;1.4860;
1022.7000;0.5543;1.4860;
1023.0000;0.5535;1.4909;
1023.3000;0.5527;1.4933;
1023.6000;0.5519;1.4957;
1023.9000;0.5543;1.5006;
1024.2000;0.5551;1.5006;
1024.5000;0.5543;1.5006;
1024.8000;0.5527;1.5054;
1025.1000;0.5527;1.5079;
1025.4000;0.5543;1.5127;
1025.7000;0.5511;1.5127;
1026.0000;0.5535;1.5176;
1026.3000;0.5495;1.5006;
1026.6000;0.5551;1.5103;
1026.9000;0.5535;1.5079;
1027.2000;0.5454;1.4836;
1027.5000;0.5568;1.5200;
1027.8000;0.5519;1.5103;
1028.1000;0.5495;1.5054;
1028.4000;0.5527;1.5152;
1028.7000;0.5560;1.5273;
1029.0000;0.5511;1.5079;
1029.3000;0.5527;1.5176;
1029.6000;0.5543;1.5200;
1029.9000;0.5535;1.5297;
1030.2000;0.5543;1.5322;
1030.5000;0.5535;1.5224;
1030.8000;0.5568;1.5224;
1031.1000;0.5543;1.5127;
1031.4000;0.5560;1.5224;
1031.7000;0.5560;1.5176;
1032.0000;0.5551;1.5103;
1032.3000;0.5535;1.5054;
1032.6000;0.5527;1.5030;
1032.9000;0.5535;1.5030;
1033.2000;0.5535;1.5079;
1033.5000;0.5535;1.5103;
1033.8000;0.5511;1.5030;
1034.1000;0.5535;1.5054;
1034.4000;0.5551;1.5103;
1034.7000;0.5519;1.5054;
1035.0000;0.5600;1.5370;
1035.3000;0.5535;1.5176;
1035.6000;0.5495;1.5127;
1035.9000;0.5519;1.5152;
1036.2000;0.5543;1.5176;
1036.5000;0.5535;1.5224;
1036.8000;0.5535;1.5249;
1037.1000;0.5511;1.5200;
1037.4000;0.5527;1.5152;
1037.7000;0.5527;1.5152;
1038.0000;0.5519;1.5152;
1038.3000;0.5535;1.5054;
1038.6000;0.5543;1.5054;
1038.9000;0.5592;1.5176;
1039.2000;0.5535;1.5030;
1039.5000;0.5543;1.5054;
1039.8000;0.5519;1.4933;
1040.1000;0.5495;1.4933;
1040.4000;0.5527;1.5054;
1040.7000;0.5543;1.5079;
1041.0000;0.5527;1.5103;
1041.3000;0.5495;1.5030;
1041.6000;0.5535;1.5127;
1041.9000;0.5551;1.5176;
1042.2000;0.5527;1.5200;
1042.5000;0.5527;1.5273;
1042.8000;0.5503;1.5127;
1043.1000;0.5543;1.5224;
1043.4000;0.5486;1.5127;
1043.7000;0.5527;1.5200;
1044.0000;0.5527;1.5249;
1044.3000;0.5503;1.5224;
1044.6000;0.5527;1.5224;
1044.9000;0.5511;1.5176;
1045.2000;0.5511;1.5103;
1045.5000;0.5600;1.5322;
1045.8000;0.5535;1.5152;
1046.1000;0.5511;1.5176;
1046.4000;0.5535;1.5127;
1046.7000;0.5527;1.5054;
1047.0000;0.5551;1.5127;
1047.3000;0.5527;1.5054;
1047.6000;0.5535;1.5054;
1047.9000;0.5527;1.5152;
1048.2000;0.5527;1.5103;
1048.5000;0.5495;1.5030;
1048.8000;0.5527;1.5079;
1049.1000;0.5543;1.5176;
1049.4000;0.5527;1.5127;
1049.7000;0.5527;1.5127;
1050.0000;0.5527;1.5079;
1050.3000;0.5535;1.5127;
1050.6000;0.5535;1.5127;
1050.9000;0.5527;1.5079;
1051.2000;0.5568;1.5249;
1051.5000;0.5519;1.5200;
1051.8000;0.5511;1.5200;
1052.1000;0.5535;1.5152;
1052.4000;0.5527;1.5127;
1052.7000;0.5535;1.5152;
1053.0000;0.5478;1.4933;
1053.3000;0.5527;1.5127;
1053.6000;0.5503;1.5079;
1053.9000;0.5519;1.5103;
1054.2000;0.5495;1.4909;
1054.5000;0.5503;1.4884;
1054.8000;0.5462;1.4812;
1055.1000;0.5551;1.5079;
1055.4000;0.5495;1.4884;
1055.7000;0.5495;1.4884;
1056.0000;0.5462;1.4812;
1056.3000;0.5503;1.4884;
1056.6000;0.5486;1.4884;
1056.9000;0.5503;1.5054;
1057.2000;0.5527;1.5152;
1057.5000;0.5503;1.5079;
1057.8000;0.5519;1.5152;
1058.1000;0.5503;1.5030;
1058.4000;0.5527;1.5103;
1058.7000;0.5543;1.5054;
1059.0000;0.5511;1.5030;
1059.3000;0.5527;1.5054;
1059.6000;0.5592;1.5176;
1059.9000;0.5519;1.5079;
1060.2000;0.5535;1.5054;
1060.5000;0.5608;1.5176;
1060.8000;0.5527;1.5103;
1061.1000;0.5600;1.5249;
1061.4000;0.5543;1.5127;
1061.7000;0.5519;1.5054;
1062.0000;0.5568;1.5103;
1062.3000;0.5543;1.5079;
1062.6000;0.5543;1.5152;
1062.9000;0.5527;1.5127;
1063.2000;0.5535;1.5127;
1063.5000;0.5535;1.5152;
1063.8000;0.5527;1.5273;
1064.1000;0.5535;1.5273;
1064.4000;0.5519;1.5224;
1064.7000;0.5511;1.5176;
1065.0000;0.5511;1.5054;
1065.3000;0.5519;1.5079;
1065.6000;0.5519;1.5127;
1065.9000;0.5535;1.5079;
1066.2000;0.5519;1.5006;
1066.5000;0.5519;1.4884;
1066.8000;0.5495;1.4787;
1067.1000;0.5535;1.4982;
1067.4000;0.5470;1.4933;
1067.7000;0.5519;1.5127;
1068.0000;0.5551;1.5200;
1068.3000;0.5511;1.5127;
1068.6000;0.5551;1.5224;
1068.9000;0.5519;1.5224;
1069.2000;0.5527;1.5103;
1069.5000;0.5551;1.5054;
1069.8000;0.5527;1.4909;
1070.1000;0.5535;1.4982;
1070.4000;0.5527;1.5006;
1070.7000;0.5543;1.5079;
1071.0000;0.5535;1.5103;
1071.3000;0.5535;1.5030;
1071.6000;0.5543;1.5030;
1071.9000;0.5543;1.5030;
1072.2000;0.5519;1.5006;
1072.5000;0.5503;1.4933;
1072.8000;0.5535;1.5079;
1073.1000;0.5519;1.5030;
1073.4000;0.5519;1.5127;
1073.7000;0.5527;1.5152;
1074.0000;0.5495;1.5103;
1074.3000;0.5511;1.5176;
1074.6000;0.5527;1.5249;
1074.9000;0.5527;1.5176;
1075.2000;0.5560;1.5176;
1075.5000;0.5551;1.5079;
1075.8000;0.5495;1.5030;
1076.1000;0.5527;1.5054;
1076.4000;0.5527;1.5079;
1076.7000;0.5519;1.5006;
1077.0000;0.5519;1.5006;
1077.3000;0.5535;1.4982;
1077.6000;0.5527;1.4933;
1077.9000;0.5543;1.4982;
1078.2000;0.5511;1.4812;
1078.5000;0.5519;1.4860;
1078.8000;0.5486;1.4909;
1079.1000;0.5470;1.4836;
1079.4000;0.5519;1.4957;
1079.7000;0.5527;1.5006;
1080.0000;0.5600;1.5176;
1080.3000;0.5486;1.4860;
1080.6000;0.5503;1.4933;
1080.9000;0.5511;1.5030;
1081.2000;0.5535;1.5127;
1081.5000;0.5535;1.5127;
1081.8000;0.5543;1.5079;
1082.1000;0.5511;1.5079;
1082.4000;0.5470;1.4933;
1082.7000;0.5503;1.5054;
1083.0000;0.5511;1.5030;
1083.3000;0.5470;1.4909;
1083.6000;0.5470;1.4909;
1083.9000;0.5560;1.5103;
1084.2000;0.5560;1.5127;
1084.5000;0.5592;1.5249;
1084.8000;0.5527;1.5103;
1085.1000;0.5560;1.5200;
1085.4000;0.5568;1.5273;
1085.7000;0.5535;1.5224;
1086.0000;0.5519;1.5224;
1086.3000;0.5511;1.5176;
1086.6000;0.5527;1.5200;
1086.9000;0.5535;1.5103;
1087.2000;0.5527;1.5054;
1087.5000;0.5519;1.4982;
1087.8000;0.5511;1.5054;
1088.1000;0.5535;1.5127;
1088.4000;0.5551;1.5103;
1088.7000;0.5503;1.4957;
1089.0000;0.5543;1.5030;
1089.3000;0.5511;1.5006;
1089.6000;0.5527;1.5054;
1089.9000;0.5535;1.5103;
1090.2000;0.5511;1.5079;
1090.5000;0.5535;1.5030;
1090.8000;0.5551;1.4982;
1091.1000;0.5535;1.4909;
1091.4000;0.5535;1.4909;
1091.7000;0.5511;1.4957;
1092.0000;0.5511;1.5006;
1092.3000;0.5535;1.5127;
1092.6000;0.5503;1.5079;
1092.9000;0.5486;1.5079;
1093.2000;0.5519;1.5176;
1093.5000;0.5519;1.5176;
1093.8000;0.5503;1.5103;
1094.1000;0.5519;1.5103;
1094.4000;0.5527;1.5079;
1094.7000;0.5511;1.5079;
1095.0000;0.5551;1.5079;
1095.3000;0.5560;1.5079;
1095.6000;0.5535;1.5030;
1095.9000;0.5511;1.5006;
1096.2000;0.5527;1.5079;
1096.5000;0.5527;1.5127;
1096.8000;0.5503;1.5176;
1097.1000;0.5519;1.5127;
1097.4000;0.5535;1.5127;
1097.7000;0.5527;1.5006;
1098.0000;0.5478;1.4933;
1098.3000;0.5535;1.4933;
1098.6000;0.5535;1.4982;
1098.9000;0.5519;1.4982;
1099.2000;0.5527;1.4982;
1099.5000;0.5535;1.5030;
1099.8000;0.5535;1.5030;
1100.1000;0.5535;1.5030;
1100.4000;0.5535;1.5054;
1100.7000;0.5584;1.5200;
1101.0000;0.5454;1.4909;
1101.3000;0.5519;1.5030;
1101.6000;0.5519;1.5079;
1101.9000;0.5592;1.5273;
1102.2000;0.5527;1.5176;
1102.5000;0.5495;1.5176;
1102.8000;0.5560;1.5200;
1103.1000;0.5535;1.5103;
1103.4000;0.5527;1.5079;
1103.7000;0.5535;1.5152;
1104.0000;0.5527;1.5103;
1104.3000;0.5519;1.5127;
1104.6000;0.5543;1.5200;
1104.9000;0.5511;1.5030;
1105.2000;0.5543;1.4909;
1105.5000;0.5527;1.4884;
1105.8000;0.5503;1.4860;
1106.1000;0.5527;1.5006;
1106.4000;0.5519;1.5079;
1106.7000;0.5519;1.5103;
1107.0000;0.5486;1.4957;
1107.3000;0.5511;1.5103;
1107.6000;0.5527;1.5030;
1107.9000;0.5527;1.5054;
1108.2000;0.5543;1.5054;
1108.5000;0.5519;1.5079;
1108.8000;0.5527;1.5103;
1109.1000;0.5535;1.5079;
1109.4000;0.5519;1.5079;
1109.7000;0.5535;1.5006;
1110.0000;0.5551;1.5030;
1110.3000;0.5495;1.4933;
1110.6000;0.5519;1.5006;
1110.9000;0.5543;1.5079;
1111.2000;0.5543;1.5103;
1111.5000;0.5486;1.4982;
1111.8000;0.5535;1.5054;
1112.1000;0.5503;1.4957;
1112.4000;0.5551;1.4957;
1112.7000;0.5519;1.4860;
1113.0000;0.5519;1.4884;
1113.3000;0.5503;1.4933;
1113.6000;0.5511;1.4933;
1113.9000;0.5535;1.5006;
1114.2000;0.5486;1.4933;
1114.5000;0.5527;1.5054;
1114.8000;0.5551;1.5176;
1115.1000;0.5535;1.5152;
1115.4000;0.5543;1.5079;
1115.7000;0.5519;1.5127;
1116.0000;0.5486;1.5054;
1116.3000;0.5527;1.5127;
1116.6000;0.5527;1.5200;
1116.9000;0.5503;1.5224;
1117.2000;0.5568;1.5370;
1117.5000;0.5519;1.5152;
1117.8000;0.5543;1.5249;
1118.1000;0.5519;1.5224;
1118.4000;0.5511;1.5200;
1118.7000;0.5519;1.5297;
1119.0000;0.5495;1.5200;
1119.3000;0.5511;1.5224;
1119.6000;0.5519;1.5152;
1119.9000;0.5519;1.5152;
1120.2000;0.5519;1.5103;
1120.5000;0.5519;1.5103;
1120.8000;0.5535;1.5079;
1121.1000;0.5519;1.5127;
1121.4000;0.5519;1.5224;
1121.7000;0.5503;1.5249;
1122.0000;0.5527;1.5322;
1122.3000;0.5511;1.5346;
1122.6000;0.5511;1.5394;
1122.9000;0.5527;1.5394;
1123.2000;0.5527;1.5467;
1123.5000;0.5535;1.5443;
1123.8000;0.5551;1.5492;
1124.1000;0.5543;1.5492;
1124.4000;0.5527;1.5370;
1124.7000;0.5527;1.5273;
1125.0000;0.5478;1.5200;
1125.3000;0.5503;1.5224;
1125.6000;0.5535;1.5249;
1125.9000;0.5519;1.5224;
1126.2000;0.5519;1.5200;
1126.5000;0.5535;1.5200;
1126.8000;0.5535;1.5200;
1127.1000;0.5519;1.5127;
1127.4000;0.5535;1.5152;
1127.7000;0.5576;1.5273;
1128.0000;0.5511;1.5079;
1128.3000;0.5543;1.5103;
1128.6000;0.5519;1.5030;
1128.9000;0.5511;1.5006;
1129.2000;0.5511;1.4982;
1129.5000;0.5527;1.5054;
1129.8000;0.5543;1.5030;
1130.1000;0.5519;1.5006;
1130.4000;0.5543;1.5103;
1130.7000;0.5560;1.5200;
1131.0000;0.5511;1.5054;
1131.3000;0.5519;1.5079;
1131.6000;0.5527;1.5200;
1131.9000;0.5543;1.5152;
1132.2000;0.5519;1.5152;
1132.5000;0.5519;1.5152;
1132.8000;0.5535;1.5079;
1133.1000;0.5511;1.5030;
1133.4000;0.5519;1.5103;
1133.7000;0.5503;1.5006;
1134.0000;0.5503;1.4957;
1134.3000;0.5551;1.4982;
1134.6000;0.5511;1.4884;
1134.9000;0.5511;1.4884;
1135.2000;0.5535;1.4957;
1135.5000;0.5527;1.5006;
1135.8000;0.5543;1.5006;
1136.1000;0.5511;1.4933;
1136.4000;0.5511;1.4957;
1136.7000;0.5519;1.4982;
1137.0000;0.5503;1.4957;
1137.3000;0.5478;1.4957;
1137.6000;0.5519;1.5079;
1137.9000;0.5535;1.5054;
1138.2000;0.5511;1.5030;
1138.5000;0.5470;1.4909;
1138.8000;0.5495;1.5030;
1139.1000;0.5527;1.5127;
1139.4000;0.5560;1.5176;
1139.7000;0.5511;1.5030;
1140.0000;0.5551;1.5079;
1140.3000;0.5535;1.5030;
1140.6000;0.5519;1.5006;
1140.9000;0.5527;1.4957;
1141.2000;0.5503;1.4884;
1141.5000;0.5527;1.4957;
1141.8000;0.5535;1.5030;
1142.1000;0.5527;1.5127;
1142.4000;0.5503;1.5079;
1142.7000;0.5519;1.5030;
1143.0000;0.5535;1.5079;
1143.3000;0.5519;1.5030;
1143.6000;0.5519;1.5079;
1143.9000;0.5511;1.5030;
1144.2000;0.5527;1.5079;
1144.5000;0.5503;1.5103;
1144.8000;0.5519;1.5127;
1145.1000;0.5495;1.5079;
1145.4000;0.5503;1.5006;
1145.7000;0.5495;1.4884;
1146.0000;0.5535;1.4982;
1146.3000;0.5519;1.4957;
1146.6000;0.5511;1.4957;
1146.9000;0.5519;1.4982;
1147.2000;0.5511;1.4933;
1147.5000;0.5511;1.4884;
1147.8000;0.5511;1.4909;
1148.1000;0.5511;1.4787;
1148.4000;0.5519;1.4860;
1148.7000;0.5511;1.4884;
1149.0000;0.5576;1.5152;
1149.3000;0.5527;1.4982;
1149.6000;0.5535;1.5079;
1149.9000;0.5527;1.4982;
1150.2000;0.5527;1.5006;
1150.5000;0.5560;1.5054;
1150.8000;0.5511;1.5030;
1151.1000;0.5527;1.5103;
1151.4000;0.5527;1.5127;
1151.7000;0.5527;1.5103;
1152.0000;0.5519;1.5030;
1152.3000;0.5527;1.5030;
1152.6000;0.5527;1.5054;
1152.9000;0.5511;1.5030;
1153.2000;0.5470;1.4909;
1153.5000;0.5438;1.4909;
1153.8000;0.5519;1.5249;
1154.1000;0.5486;1.5054;
1154.4000;0.5478;1.5054;
1154.7000;0.5519;1.5200;
1155.0000;0.5511;1.5176;
1155.3000;0.5519;1.5322;
1155.6000;0.5527;1.5297;
1155.9000;0.5511;1.5370;
1156.2000;0.5503;1.5370;
1156.5000;0.5503;1.5297;
1156.8000;0.5519;1.5297;
1157.1000;0.5495;1.5249;
1157.4000;0.5503;1.5322;
1157.7000;0.5511;1.5297;
1158.0000;0.5527;1.5322;
1158.3000;0.5543;1.5370;
1158.6000;0.5527;1.5394;
1158.9000;0.5511;1.5322;
1159.2000;0.5511;1.5297;
1159.5000;0.5511;1.5273;
1159.8000;0.5543;1.5322;
1160.1000;0.5527;1.5297;
1160.4000;0.5519;1.5346;
1160.7000;0.5495;1.5297;
1161.0000;0.5519;1.5346;
1161.3000;0.5527;1.5273;
1161.6000;0.5486;1.5249;
1161.9000;0.5527;1.5273;
1162.2000;0.5519;1.5297;
1162.5000;0.5527;1.5419;
1162.8000;0.5519;1.5419;
1163.1000;0.5519;1.5394;
1163.4000;0.5503;1.5224;
1163.7000;0.5535;1.5273;
1164.0000;0.5511;1.5152;
1164.3000;0.5519;1.5224;
1164.6000;0.5519;1.5200;
1164.9000;0.5495;1.5030;
1165.2000;0.5519;1.5152;
1165.5000;0.5503;1.5152;
1165.8000;0.5495;1.5224;
1166.1000;0.5519;1.5322;
1166.4000;0.5519;1.5249;
1166.7000;0.5511;1.5224;
1167.0000;0.5503;1.5200;
1167.3000;0.5495;1.5127;
1167.6000;0.5495;1.5127;
1167.9000;0.5527;1.5200;
1168.2000;0.5527;1.5103;
1168.5000;0.5503;1.5176;
1168.8000;0.5551;1.5346;
1169.1000;0.5495;1.5249;
1169.4000;0.5495;1.5200;
1169.7000;0.5486;1.5152;
1170.0000;0.5503;1.5200;
1170.3000;0.5511;1.5249;
1170.6000;0.5495;1.5176;
1170.9000;0.5511;1.5200;
1171.2000;0.5519;1.5297;
1171.5000;0.5511;1.5249;
1171.8000;0.5511;1.5176;
1172.1000;0.5511;1.5127;
1172.4000;0.5486;1.5103;
1172.7000;0.5527;1.5273;
1173.0000;0.5519;1.5273;
1173.3000;0.5503;1.5249;
1173.6000;0.5511;1.5273;
1173.9000;0.5568;1.5467;
1174.2000;0.5519;1.5273;
1174.5000;0.5535;1.5370;
1174.8000;0.5470;1.5176;
1175.1000;0.5535;1.5346;
1175.4000;0.5551;1.5419;
1175.7000;0.5519;1.5200;
1176.0000;0.5519;1.5200;
1176.3000;0.5511;1.5273;
1176.6000;0.5438;1.5103;
1176.9000;0.5543;1.5249;
1177.2000;0.5527;1.5152;
1177.5000;0.5511;1.5079;
1177.8000;0.5527;1.5127;
1178.1000;0.5535;1.5127;
1178.4000;0.5511;1.5054;
1178.7000;0.5511;1.5054;
1179.0000;0.5511;1.5127;
1179.3000;0.5486;1.5103;
1179.6000;0.5511;1.5103;
1179.9000;0.5503;1.5079;
1180.2000;0.5511;1.5006;
1180.5000;0.5519;1.4982;
1180.8000;0.5527;1.4982;
1181.1000;0.5478;1.4884;
1181.4000;0.5535;1.5054;
1181.7000;0.5503;1.5054;
1182.0000;0.5535;1.5030;
1182.3000;0.5568;1.5200;
1182.6000;0.5519;1.5127;
1182.9000;0.5535;1.5224;
1183.2000;0.5535;1.5249;
1183.5000;0.5511;1.5176;
1183.8000;0.5527;1.5200;
1184.1000;0.5511;1.5176;
1184.4000;0.5454;1.5127;
1184.7000;0.5486;1.5273;
1185.0000;0.5527;1.5346;
1185.3000;0.5519;1.5200;
1185.6000;0.5527;1.5200;
1185.9000;0.5519;1.5249;
1186.2000;0.5503;1.5200;
1186.5000;0.5527;1.5224;
1186.8000;0.5511;1.5200;
1187.1000;0.5527;1.5103;
1187.4000;0.5519;1.5176;
1187.7000;0.5519;1.5200;
1188.0000;0.5503;1.5030;
1188.3000;0.5543;1.5152;
1188.6000;0.5511;1.5079;
1188.9000;0.5503;1.5030;
1189.2000;0.5511;1.5030;
1189.5000;0.5535;1.5030;
1189.8000;0.5527;1.5079;
1190.1000;0.5519;1.5127;
1190.4000;0.5519;1.5176;
1190.7000;0.5551;1.5346;
1191.0000;0.5486;1.5224;
1191.3000;0.5511;1.5200;
1191.6000;0.5511;1.5152;
1191.9000;0.5527;1.5200;
1192.2000;0.5454;1.5176;
1192.5000;0.5438;1.5103;
1192.8000;0.5511;1.5224;
1193.1000;0.5527;1.5152;
1193.4000;0.5519;1.5127;
1193.7000;0.5495;1.5103;
1194.0000;0.5511;1.5127;
1194.3000;0.5519;1.5152;
1194.6000;0.5519;1.5127;
1194.9000;0.5551;1.5200;
1195.2000;0.5527;1.5176;
1195.5000;0.5486;1.5006;
1195.8000;0.5511;1.5054;
1196.1000;0.5503;1.4982;
1196.4000;0.5503;1.4909;
1196.7000;0.5519;1.4982;
1197.0000;0.5511;1.5030;
1197.3000;0.5470;1.4957;
1197.6000;0.5511;1.5006;
1197.9000;0.5617;1.5200;
1198.2000;0.5519;1.4957;
1198.5000;0.5560;1.4982;
1198.8000;0.5519;1.4933;
1199.1000;0.5535;1.4982;
1199.4000;0.5527;1.5006;
1199.7000;0.5511;1.5006;
1200.0000;0.5495;1.4933;
1200.3000;0.5511;1.5103;
1200.6000;0.5535;1.5224;
1200.9000;0.5519;1.5224;
1201.2000;0.5511;1.5273;
1201.5000;0.5527;1.5370;
1201.8000;0.5511;1.5322;
1202.1000;0.5519;1.5249;
1202.4000;0.5503;1.5249;
1202.7000;0.5470;1.5200;
1203.0000;0.5470;1.5224;
1203.3000;0.5511;1.5273;
1203.6000;0.5535;1.5297;
1203.9000;0.5519;1.5370;
1204.2000;0.5519;1.5346;
1204.5000;0.5527;1.5273;
1204.8000;0.5535;1.5322;
1205.1000;0.5527;1.5273;
1205.4000;0.5527;1.5200;
1205.7000;0.5511;1.5152;
1206.0000;0.5527;1.5249;
1206.3000;0.5527;1.5249;
1206.6000;0.5511;1.5200;
1206.9000;0.5511;1.5200;
1207.2000;0.5551;1.5322;
1207.5000;0.5527;1.5176;
1207.8000;0.5519;1.5224;
1208.1000;0.5503;1.5127;
1208.4000;0.5495;1.5127;
1208.7000;0.5543;1.5249;
1209.0000;0.5519;1.5127;
1209.3000;0.5470;1.5030;
1209.6000;0.5527;1.5103;
1209.9000;0.5535;1.5176;
1210.2000;0.5527;1.5127;
1210.5000;0.5519;1.4982;
1210.8000;0.5495;1.5030;
1211.1000;0.5519;1.5006;
1211.4000;0.5519;1.5030;
1211.7000;0.5519;1.5103;
1212.0000;0.5543;1.5176;
1212.3000;0.5503;1.5127;
1212.6000;0.5527;1.5103;
1212.9000;0.5527;1.5054;
1213.2000;0.5519;1.5030;
1213.5000;0.5511;1.5103;
1213.8000;0.5527;1.5176;
1214.1000;0.5527;1.5152;
1214.4000;0.5519;1.5054;
1214.7000;0.5535;1.5054;
1215.0000;0.5470;1.5006;
1215.3000;0.5478;1.5127;
1215.6000;0.5511;1.5176;
1215.9000;0.5527;1.5127;
1216.2000;0.5486;1.5127;
1216.5000;0.5454;1.5079;
1216.8000;0.5495;1.5249;
1217.1000;0.5478;1.5249;
1217.4000;0.5511;1.5322;
1217.7000;0.5519;1.5297;
1218.0000;0.5511;1.5273;
1218.3000;0.5519;1.5273;
1218.6000;0.5519;1.5224;
1218.9000;0.5560;1.5224;
1219.2000;0.5543;1.5224;
1219.5000;0.5527;1.5176;
1219.8000;0.5519;1.5152;
1220.1000;0.5519;1.5103;
1220.4000;0.5511;1.5006;
1220.7000;0.5511;1.5079;
1221.0000;0.5503;1.5127;
1221.3000;0.5551;1.5127;
1221.6000;0.5511;1.5054;
1221.9000;0.5511;1.5054;
1222.2000;0.5446;1.4909;
1222.5000;0.5527;1.5079;
1222.8000;0.5503;1.5006;
1223.1000;0.5503;1.5054;
1223.4000;0.5519;1.5054;
1223.7000;0.5486;1.5030;
1224.0000;0.5519;1.5152;
1224.3000;0.5560;1.5297;
1224.6000;0.5527;1.5224;
1224.9000;0.5519;1.5176;
1225.2000;0.5470;1.5103;
1225.5000;0.5527;1.5249;
1225.8000;0.5511;1.5224;
1226.1000;0.5519;1.5224;
1226.4000;0.5503;1.5249;
1226.7000;0.5511;1.5297;
1227.0000;0.5527;1.5273;
1227.3000;0.5511;1.5249;
1227.6000;0.5519;1.5127;
1227.9000;0.5519;1.5079;
1228.2000;0.5511;1.5006;
1228.5000;0.5519;1.5030;
1228.8000;0.5511;1.5030;
1229.1000;0.5519;1.5103;
1229.4000;0.5576;1.5200;
1229.7000;0.5527;1.5030;
1230.0000;0.5519;1.5103;
1230.3000;0.5560;1.5127;
1230.6000;0.5519;1.5006;
1230.9000;0.5503;1.4957;
1231.2000;0.5438;1.4812;
1231.5000;0.5495;1.4909;
1231.8000;0.5519;1.4957;
1232.1000;0.5511;1.4933;
1232.4000;0.5543;1.5054;
1232.7000;0.5495;1.5054;
1233.0000;0.5511;1.5103;
1233.3000;0.5495;1.5103;
1233.6000;0.5511;1.5127;
1233.9000;0.5495;1.5079;
1234.2000;0.5503;1.5127;
1234.5000;0.5511;1.5176;
1234.8000;0.5503;1.5200;
1235.1000;0.5535;1.5152;
1235.4000;0.5503;1.5079;
1235.7000;0.5511;1.5103;
1236.0000;0.5503;1.5079;
1236.3000;0.5503;1.5006;
1236.6000;0.5511;1.4957;
1236.9000;0.5519;1.5030;
1237.2000;0.5486;1.5054;
1237.5000;0.5503;1.5006;
1237.8000;0.5503;1.4982;
1238.1000;0.5495;1.5006;
1238.4000;0.5503;1.5079;
1238.7000;0.5486;1.5030;
1239.0000;0.5527;1.5103;
1239.3000;0.5495;1.5030;
1239.6000;0.5511;1.5079;
1239.9000;0.5511;1.5176;
1240.2000;0.5527;1.5224;
1240.5000;0.5511;1.5249;
1240.8000;0.5462;1.5079;
1241.1000;0.5527;1.5273;
1241.4000;0.5503;1.5273;
1241.7000;0.5600;1.5443;
1242.0000;0.5511;1.5200;
1242.3000;0.5511;1.5200;
1242.6000;0.5511;1.5249;
1242.9000;0.5511;1.5249;
1243.2000;0.5503;1.5224;
1243.5000;0.5495;1.5224;
1243.8000;0.5511;1.5249;
1244.1000;0.5511;1.5273;
1244.4000;0.5503;1.5249;
1244.7000;0.5495;1.5176;
1245.0000;0.5511;1.5127;
1245.3000;0.5527;1.5127;
1245.6000;0.5462;1.4933;
1245.9000;0.5511;1.5103;
1246.2000;0.5503;1.5200;
1246.5000;0.5511;1.5273;
1246.8000;0.5527;1.5273;
1247.1000;0.5535;1.5249;
1247.4000;0.5535;1.5273;
1247.7000;0.5519;1.5224;
1248.0000;0.5527;1.5176;
1248.3000;0.5527;1.5249;
1248.6000;0.5503;1.5224;
1248.9000;0.5511;1.5200;
1249.2000;0.5470;1.5079;
1249.5000;0.5527;1.5103;
1249.8000;0.5519;1.5054;
1250.1000;0.5527;1.5054;
1250.4000;0.5527;1.4982;
1250.7000;0.5527;1.4982;
1251.0000;0.5527;1.5006;
1251.3000;0.5478;1.4933;
1251.6000;0.5511;1.4982;
1251.9000;0.5495;1.5127;
1252.2000;0.5486;1.5103;
1252.5000;0.5503;1.5079;
1252.8000;0.5519;1.5030;
1253.1000;0.5519;1.4982;
1253.4000;0.5503;1.4982;
1253.7000;0.5543;1.5103;
1254.0000;0.5551;1.5103;
1254.3000;0.5543;1.5127;
1254.6000;0.5543;1.5127;
1254.9000;0.5519;1.5103;
1255.2000;0.5511;1.5079;
1255.5000;0.5503;1.5030;
1255.8000;0.5511;1.5006;
1256.1000;0.5519;1.4982;
1256.4000;0.5503;1.4933;
1256.7000;0.5511;1.4933;
1257.0000;0.5519;1.4982;
1257.3000;0.5551;1.5079;
1257.6000;0.5511;1.4909;
1257.9000;0.5527;1.4957;
1258.2000;0.5519;1.4957;
1258.5000;0.5519;1.4884;
1258.8000;0.5503;1.4836;
1259.1000;0.5543;1.4812;
1259.4000;0.5511;1.4787;
1259.7000;0.5527;1.4909;
1260.0000;0.5503;1.4957;
1260.3000;0.5495;1.5006;
1260.6000;0.5519;1.5006;
1260.9000;0.5519;1.5103;
1261.2000;0.5519;1.5079;
1261.5000;0.5535;1.5079;
1261.8000;0.5511;1.5079;
1262.1000;0.5527;1.5079;
1262.4000;0.5511;1.5054;
1262.7000;0.5511;1.5054;
1263.0000;0.5584;1.5152;
1263.3000;0.5527;1.4957;
1263.6000;0.5519;1.4957;
1263.9000;0.5568;1.5127;
1264.2000;0.5495;1.4933;
1264.5000;0.5519;1.5030;
1264.8000;0.5503;1.4982;
1265.1000;0.5478;1.4884;
1265.4000;0.5486;1.4884;
1265.7000;0.5495;1.4957;
1266.0000;0.5503;1.4957;
1266.3000;0.5495;1.5054;
1266.6000;0.5503;1.5054;
1266.9000;0.5511;1.5127;
1267.2000;0.5503;1.5054;
1267.5000;0.5527;1.5200;
1267.8000;0.5519;1.5176;
1268.1000;0.5511;1.5127;
1268.4000;0.5519;1.5103;
1268.7000;0.5527;1.5030;
1269.0000;0.5495;1.4982;
1269.3000;0.5511;1.5030;
1269.6000;0.5527;1.5079;
1269.9000;0.5503;1.4957;
1270.2000;0.5519;1.5030;
1270.5000;0.5478;1.4982;
1270.8000;0.5503;1.5103;
1271.1000;0.5560;1.5322;
1271.4000;0.5478;1.5200;
1271.7000;0.5527;1.5297;
1272.0000;0.5511;1.5249;
1272.3000;0.5527;1.5419;
1272.6000;0.5519;1.5297;
1272.9000;0.5511;1.5176;
1273.2000;0.5511;1.5127;
1273.5000;0.5511;1.5054;
1273.8000;0.5486;1.4909;
1274.1000;0.5511;1.5006;
1274.4000;0.5495;1.4957;
1274.7000;0.5495;1.4957;
1275.0000;0.5495;1.4957;
1275.3000;0.5511;1.5054;
1275.6000;0.5519;1.5079;
1275.9000;0.5543;1.5200;
1276.2000;0.5527;1.5127;
1276.5000;0.5495;1.5079;
1276.8000;0.5527;1.5079;
1277.1000;0.5519;1.5079;
1277.4000;0.5535;1.5103;
1277.7000;0.5527;1.5152;
1278.0000;0.5519;1.5200;
1278.3000;0.5527;1.5273;
1278.6000;0.5527;1.5224;
1278.9000;0.5503;1.5224;
1279.2000;0.5519;1.5152;
1279.5000;0.5511;1.5152;
1279.8000;0.5511;1.5030;
1280.1000;0.5495;1.4957;
1280.4000;0.5503;1.4933;
1280.7000;0.5495;1.4860;
1281.0000;0.5535;1.4982;
1281.3000;0.5511;1.5054;
1281.6000;0.5519;1.5103;
1281.9000;0.5495;1.5079;
1282.2000;0.5454;1.4933;
1282.5000;0.5486;1.4982;
1282.8000;0.5511;1.5054;
1283.1000;0.5503;1.5006;
1283.4000;0.5535;1.5054;
1283.7000;0.5503;1.5054;
1284.0000;0.5511;1.5054;
1284.3000;0.5454;1.4909;
1284.6000;0.5551;1.5152;
1284.9000;0.5519;1.5079;
1285.2000;0.5495;1.5006;
1285.5000;0.5519;1.5079;
1285.8000;0.5511;1.5079;
1286.1000;0.5429;1.4836;
1286.4000;0.5527;1.5103;
1286.7000;0.5511;1.5079;
1287.0000;0.5568;1.5176;
1287.3000;0.5519;1.5054;
1287.6000;0.5519;1.4982;
1287.9000;0.5519;1.4933;
1288.2000;0.5527;1.4982;
1288.5000;0.5527;1.5030;
1288.8000;0.5519;1.4957;
1289.1000;0.5608;1.5054;
1289.4000;0.5486;1.4739;
1289.7000;0.5527;1.4884;
1290.0000;0.5486;1.4884;
1290.3000;0.5511;1.4933;
1290.6000;0.5495;1.4884;
1290.9000;0.5519;1.5054;
1291.2000;0.5495;1.5079;
1291.5000;0.5560;1.5224;
1291.8000;0.5503;1.5176;
1292.1000;0.5478;1.5152;
1292.4000;0.5535;1.5176;
1292.7000;0.5486;1.5079;
1293.0000;0.5511;1.5079;
1293.3000;0.5535;1.5152;
1293.6000;0.5535;1.5152;
1293.9000;0.5519;1.5127;
1294.2000;0.5503;1.5079;
1294.5000;0.5454;1.4909;
1294.8000;0.5503;1.5006;
1295.1000;0.5495;1.4933;
1295.4000;0.5495;1.4933;
1295.7000;0.5543;1.5103;
1296.0000;0.5503;1.4957;
1296.3000;0.5503;1.4982;
1296.6000;0.5511;1.4982;
1296.9000;0.5560;1.5176;
1297.2000;0.5584;1.5176;
1297.5000;0.5503;1.5006;
1297.8000;0.5511;1.5006;
1298.1000;0.5511;1.5006;
1298.4000;0.5503;1.4933;
1298.7000;0.5519;1.4933;
1299.0000;0.5511;1.4884;
1299.3000;0.5519;1.4957;
1299.6000;0.5527;1.4909;
1299.9000;0.5527;1.4884;
1300.2000;0.5519;1.4884;
1300.5000;0.5527;1.4909;
1300.8000;0.5519;1.4909;
1301.1000;0.5511;1.4982;
1301.4000;0.5511;1.5006;
1301.7000;0.5495;1.5103;
1302.0000;0.5543;1.5127;
1302.3000;0.5495;1.5054;
1302.6000;0.5519;1.5103;
1302.9000;0.5486;1.4982;
1303.2000;0.5495;1.4909;
1303.5000;0.5535;1.5054;
1303.8000;0.5519;1.5054;
1304.1000;0.5503;1.4982;
1304.4000;0.5495;1.4957;
1304.7000;0.5519;1.4982;
1305.0000;0.5495;1.4909;
1305.3000;0.5576;1.5054;
1305.6000;0.5495;1.4884;
1305.9000;0.5495;1.4909;
1306.2000;0.5503;1.5006;
1306.5000;0.5462;1.4982;
1306.8000;0.5511;1.5054;
1307.1000;0.5519;1.5152;
1307.4000;0.5568;1.5249;
1307.7000;0.5478;1.4884;
1308.0000;0.5511;1.5054;
1308.3000;0.5511;1.4982;
1308.6000;0.5519;1.4982;
1308.9000;0.5511;1.4957;
1309.2000;0.5503;1.4909;
1309.5000;0.5519;1.5006;
1309.8000;0.5543;1.5030;
1310.1000;0.5535;1.5006;
1310.4000;0.5576;1.5103;
1310.7000;0.5519;1.4982;
1311.0000;0.5527;1.5054;
1311.3000;0.5519;1.5006;
1311.6000;0.5511;1.5103;
1311.9000;0.5511;1.5030;
1312.2000;0.5511;1.5054;
1312.5000;0.5519;1.5030;
1312.8000;0.5511;1.5054;
1313.1000;0.5519;1.5152;
1313.4000;0.5511;1.5079;
1313.7000;0.5527;1.5152;
1314.0000;0.5478;1.5006;
1314.3000;0.5519;1.5079;
1314.6000;0.5511;1.5079;
1314.9000;0.5495;1.5054;
1315.2000;0.5535;1.5176;
1315.5000;0.5527;1.5127;
1315.8000;0.5511;1.5103;
1316.1000;0.5503;1.5103;
1316.4000;0.5511;1.5127;
1316.7000;0.5511;1.5054;
1317.0000;0.5503;1.5030;
1317.3000;0.5527;1.5127;
1317.6000;0.5519;1.5054;
1317.9000;0.5503;1.5006;
1318.2000;0.5519;1.5079;
1318.5000;0.5503;1.4957;
1318.8000;0.5519;1.4982;
1319.1000;0.5511;1.4982;
1319.4000;0.5511;1.4982;
1319.7000;0.5495;1.5030;
1320.0000;0.5519;1.5103;
1320.3000;0.5511;1.5030;
1320.6000;0.5503;1.5030;
1320.9000;0.5519;1.5054;
1321.2000;0.5511;1.5006;
1321.5000;0.5511;1.5030;
1321.8000;0.5503;1.4957;
1322.1000;0.5503;1.4957;
1322.4000;0.5454;1.4836;
1322.7000;0.5511;1.4933;
1323.0000;0.5511;1.5030;
1323.3000;0.5519;1.5030;
1323.6000;0.5527;1.5030;
1323.9000;0.5527;1.5103;
1324.2000;0.5519;1.5103;
1324.5000;0.5503;1.5030;
1324.8000;0.5511;1.5006;
1325.1000;0.5535;1.5030;
1325.4000;0.5454;1.4860;
1325.7000;0.5503;1.4957;
1326.0000;0.5495;1.5006;
1326.3000;0.5576;1.5249;
1326.6000;0.5519;1.5103;
1326.9000;0.5503;1.5079;
1327.2000;0.5527;1.5103;
1327.5000;0.5519;1.5079;
1327.8000;0.5495;1.5006;
1328.1000;0.5519;1.5152;
1328.4000;0.5503;1.5176;
1328.7000;0.5478;1.5030;
1329.0000;0.5503;1.4982;
1329.3000;0.5511;1.4982;
1329.6000;0.5503;1.4933;
1329.9000;0.5527;1.4957;
1330.2000;0.5503;1.4860;
1330.5000;0.5470;1.4812;
1330.8000;0.5486;1.4884;
1331.1000;0.5519;1.4909;
1331.4000;0.5519;1.4933;
1331.7000;0.5535;1.5006;
1332.0000;0.5503;1.4957;
1332.3000;0.5503;1.4860;
1332.6000;0.5511;1.4982;
1332.9000;0.5527;1.5079;
1333.2000;0.5511;1.5030;
1333.5000;0.5486;1.5006;
1333.8000;0.5511;1.5030;
1334.1000;0.5503;1.5054;
1334.4000;0.5527;1.5054;
1334.7000;0.5519;1.4982;
1335.0000;0.5527;1.5152;
1335.3000;0.5527;1.5152;
1335.6000;0.5535;1.5176;
1335.9000;0.5519;1.5079;
1336.2000;0.5519;1.5127;
1336.5000;0.5503;1.5079;
1336.8000;0.5519;1.5079;
1337.1000;0.5519;1.5103;
1337.4000;0.5511;1.5152;
1337.7000;0.5478;1.5103;
1338.0000;0.5503;1.5152;
1338.3000;0.5511;1.5127;
1338.6000;0.5511;1.5152;
1338.9000;0.5519;1.5176;
1339.2000;0.5470;1.5030;
1339.5000;0.5511;1.5176;
1339.8000;0.5519;1.5152;
1340.1000;0.5511;1.5054;
1340.4000;0.5511;1.5079;
1340.7000;0.5527;1.5054;
1341.0000;0.5519;1.5030;
1341.3000;0.5446;1.4909;
1341.6000;0.5519;1.5103;
1341.9000;0.5511;1.5079;
1342.2000;0.5503;1.5054;
1342.5000;0.5503;1.5030;
1342.8000;0.5503;1.5006;
1343.1000;0.5511;1.5054;
1343.4000;0.5503;1.5103;
1343.7000;0.5519;1.5079;
1344.0000;0.5511;1.5030;
1344.3000;0.5519;1.5127;
1344.6000;0.5519;1.5152;
1344.9000;0.5519;1.5079;
1345.2000;0.5519;1.5079;
1345.5000;0.5519;1.5030;
1345.8000;0.5511;1.4884;
1346.1000;0.5503;1.4933;
1346.4000;0.5511;1.5030;
1346.7000;0.5503;1.5054;
1347.0000;0.5519;1.5152;
1347.3000;0.5503;1.5200;
1347.6000;0.5495;1.5200;
1347.9000;0.5503;1.5127;
1348.2000;0.5495;1.5030;
1348.5000;0.5511;1.5030;
1348.8000;0.5519;1.5152;
1349.1000;0.5511;1.5127;
1349.4000;0.5503;1.5103;
1349.7000;0.5527;1.5079;
1350.0000;0.5535;1.5224;
1350.3000;0.5511;1.5152;
1350.6000;0.5527;1.5079;
1350.9000;0.5527;1.5127;
1351.2000;0.5519;1.5152;
1351.5000;0.5519;1.5054;
1351.8000;0.5511;1.5030;
1352.1000;0.5511;1.5079;
1352.4000;0.5511;1.5176;
1352.7000;0.5503;1.5079;
1353.0000;0.5503;1.5103;
1353.3000;0.5527;1.5176;
1353.6000;0.5511;1.5103;
1353.9000;0.5511;1.5079;
1354.2000;0.5495;1.5079;
1354.5000;0.5503;1.5030;
1354.8000;0.5519;1.5006;
1355.1000;0.5519;1.5054;
1355.4000;0.5495;1.4982;
1355.7000;0.5519;1.5079;
1356.0000;0.5535;1.5079;
1356.3000;0.5535;1.5176;
1356.6000;0.5527;1.5103;
1356.9000;0.5511;1.5127;
1357.2000;0.5560;1.5273;
1357.5000;0.5503;1.5054;
1357.8000;0.5511;1.5030;
1358.1000;0.5503;1.4982;
1358.4000;0.5511;1.5030;
1358.7000;0.5503;1.5054;
1359.0000;0.5527;1.5030;
1359.3000;0.5503;1.5054;
1359.6000;0.5519;1.5054;
1359.9000;0.5503;1.5030;
1360.2000;0.5527;1.4982;
1360.5000;0.5495;1.4957;
1360.8000;0.5503;1.5006;
1361.1000;0.5527;1.5152;
1361.4000;0.5519;1.5103;
1361.7000;0.5576;1.5200;
1362.0000;0.5503;1.4982;
1362.3000;0.5511;1.4982;
1362.6000;0.5486;1.4982;
1362.9000;0.5503;1.5054;
1363.2000;0.5527;1.5103;
1363.5000;0.5462;1.4836;
1363.8000;0.5495;1.4909;
1364.1000;0.5429;1.4642;
1364.4000;0.5495;1.4787;
1364.7000;0.5495;1.4909;
1365.0000;0.5503;1.5030;
1365.3000;0.5495;1.5006;
1365.6000;0.5495;1.5006;
1365.9000;0.5503;1.5054;
1366.2000;0.5519;1.4957;
1366.5000;0.5511;1.4884;
1366.8000;0.5503;1.4860;
1367.1000;0.5511;1.4860;
1367.4000;0.5511;1.4714;
1367.7000;0.5503;1.4763;
1368.0000;0.5527;1.4860;
1368.3000;0.5495;1.4836;
1368.6000;0.5511;1.4933;
1368.9000;0.5527;1.4957;
1369.2000;0.5503;1.4909;
1369.5000;0.5503;1.4982;
1369.8000;0.5495;1.4982;
1370.1000;0.5527;1.5054;
1370.4000;0.5511;1.4957;
1370.7000;0.5511;1.4909;
1371.0000;0.5511;1.4982;
1371.3000;0.5519;1.5054;
1371.6000;0.5519;1.5079;
1371.9000;0.5511;1.5054;
1372.2000;0.5495;1.4982;
1372.5000;0.5511;1.5030;
1372.8000;0.5519;1.5079;
1373.1000;0.5503;1.5006;
1373.4000;0.5486;1.5079;
1373.7000;0.5519;1.5200;
1374.0000;0.5527;1.5224;
1374.3000;0.5519;1.5152;
1374.6000;0.5527;1.5079;
1374.9000;0.5519;1.5006;
1375.2000;0.5535;1.5054;
1375.5000;0.5543;1.5054;
1375.8000;0.5503;1.4909;
1376.1000;0.5495;1.4836;
1376.4000;0.5527;1.4982;
1376.7000;0.5519;1.5030;
1377.0000;0.5527;1.4982;
1377.3000;0.5495;1.4909;
1377.6000;0.5519;1.4933;
1377.9000;0.5527;1.4836;
1378.2000;0.5527;1.4836;
1378.5000;0.5519;1.4836;
1378.8000;0.5486;1.4812;
1379.1000;0.5527;1.4884;
1379.4000;0.5511;1.4787;
1379.7000;0.5503;1.4714;
1380.0000;0.5535;1.4739;
1380.3000;0.5592;1.5006;
1380.6000;0.5527;1.4812;
1380.9000;0.5503;1.4763;
1381.2000;0.5511;1.4739;
1381.5000;0.5560;1.4860;
1381.8000;0.5462;1.4690;
1382.1000;0.5503;1.4812;
1382.4000;0.5503;1.4860;
1382.7000;0.5535;1.4982;
1383.0000;0.5551;1.5079;
1383.3000;0.5503;1.4982;
1383.6000;0.5511;1.4982;
1383.9000;0.5495;1.4982;
1384.2000;0.5478;1.4933;
1384.5000;0.5503;1.4860;
1384.8000;0.5503;1.4884;
1385.1000;0.5478;1.4860;
1385.4000;0.5535;1.5030;
1385.7000;0.5503;1.4909;
1386.0000;0.5519;1.4909;
1386.3000;0.5519;1.4982;
1386.6000;0.5503;1.5006;
1386.9000;0.5495;1.4982;
1387.2000;0.5495;1.4933;
1387.5000;0.5535;1.5054;
1387.8000;0.5519;1.4982;
1388.1000;0.5519;1.4884;
1388.4000;0.5503;1.4787;
1388.7000;0.5519;1.4787;
1389.0000;0.5503;1.4812;
1389.3000;0.5503;1.4763;
1389.6000;0.5503;1.4763;
1389.9000;0.5454;1.4642;
1390.2000;0.5503;1.4739;
1390.5000;0.5560;1.4787;
1390.8000;0.5527;1.4763;
1391.1000;0.5535;1.4812;
1391.4000;0.5446;1.4690;
1391.7000;0.5503;1.4860;
1392.0000;0.5495;1.4884;
1392.3000;0.5535;1.4957;
1392.6000;0.5503;1.4860;
1392.9000;0.5495;1.4884;
1393.2000;0.5511;1.4933;
1393.5000;0.5511;1.4884;
1393.8000;0.5511;1.4957;
1394.1000;0.5519;1.5030;
1394.4000;0.5543;1.5103;
1394.7000;0.5576;1.5200;
1395.0000;0.5511;1.5030;
1395.3000;0.5511;1.5054;
1395.6000;0.5511;1.4982;
1395.9000;0.5519;1.5030;
1396.2000;0.5478;1.4909;
1396.5000;0.5495;1.4836;
1396.8000;0.5527;1.4909;
1397.1000;0.5511;1.4812;
1397.4000;0.5527;1.4909;
1397.7000;0.5511;1.4909;
1398.0000;0.5519;1.4884;
1398.3000;0.5527;1.4909;
1398.6000;0.5511;1.4860;
1398.9000;0.5503;1.4812;
1399.2000;0.5511;1.4836;
1399.5000;0.5527;1.4909;
1399.8000;0.5511;1.4909;
