time/ms;Fluo/V;P700 deltaI/I x10³;
-199.8000;0.5625;3.0193;
-199.5000;0.5608;3.0193;
-199.2000;0.5608;3.0145;
-198.9000;0.5592;3.0050;
-198.6000;0.5633;3.0169;
-198.3000;0.5665;3.0313;
-198.0000;0.5600;3.0217;
-197.7000;0.5608;3.0193;
-197.4000;0.5592;3.0122;
-197.1000;0.5592;3.0145;
-196.8000;0.5617;3.0098;
-196.5000;0.5551;2.9978;
-196.2000;0.5625;3.0169;
-195.9000;0.5706;3.0408;
-195.6000;0.5617;3.0241;
-195.3000;0.5608;3.0313;
-195.0000;0.5535;3.0098;
-194.7000;0.5633;3.0336;
-194.4000;0.5674;3.0408;
-194.1000;0.5617;3.0265;
-193.8000;0.5617;3.0265;
-193.5000;0.5633;3.0122;
-193.2000;0.5592;3.0074;
-192.9000;0.5690;3.0265;
-192.6000;0.5625;3.0169;
-192.3000;0.5617;3.0169;
-192.0000;0.5625;3.0193;
-191.7000;0.5633;3.0193;
-191.4000;0.5641;3.0217;
-191.1000;0.5625;3.0145;
-190.8000;0.5674;3.0313;
-190.5000;0.5641;3.0265;
-190.2000;0.5625;3.0265;
-189.9000;0.5633;3.0336;
-189.6000;0.5633;3.0336;
-189.3000;0.5625;3.0360;
-189.0000;0.5617;3.0360;
-188.7000;0.5617;3.0360;
-188.4000;0.5608;3.0360;
-188.1000;0.5665;3.0360;
-187.8000;0.5625;3.0217;
-187.5000;0.5690;3.0408;
-187.2000;0.5641;3.0241;
-186.9000;0.5698;3.0289;
-186.6000;0.5608;3.0050;
-186.3000;0.5608;3.0002;
-186.0000;0.5714;3.0360;
-185.7000;0.5641;3.0193;
-185.4000;0.5682;3.0313;
-185.1000;0.5657;3.0241;
-184.8000;0.5706;3.0360;
-184.5000;0.5641;3.0169;
-184.2000;0.5633;3.0169;
-183.9000;0.5608;3.0169;
-183.6000;0.5657;3.0241;
-183.3000;0.5633;3.0169;
-183.0000;0.5633;3.0193;
-182.7000;0.5633;3.0241;
-182.4000;0.5641;3.0336;
-182.1000;0.5633;3.0336;
-181.8000;0.5617;3.0336;
-181.5000;0.5625;3.0241;
-181.2000;0.5641;3.0289;
-180.9000;0.5641;3.0265;
-180.6000;0.5633;3.0313;
-180.3000;0.5592;3.0217;
-180.0000;0.5608;3.0241;
-179.7000;0.5608;3.0169;
-179.4000;0.5608;3.0169;
-179.1000;0.5657;3.0265;
-178.8000;0.5608;3.0169;
-178.5000;0.5600;3.0169;
-178.2000;0.5560;3.0050;
-177.9000;0.5641;3.0241;
-177.6000;0.5714;3.0408;
-177.3000;0.5608;3.0122;
-177.0000;0.5617;3.0098;
-176.7000;0.5633;3.0145;
-176.4000;0.5584;3.0074;
-176.1000;0.5608;3.0098;
-175.8000;0.5633;3.0145;
-175.5000;0.5617;3.0098;
-175.2000;0.5600;3.0098;
-174.9000;0.5608;2.9978;
-174.6000;0.5625;3.0074;
-174.3000;0.5608;3.0145;
-174.0000;0.5674;3.0241;
-173.7000;0.5657;3.0169;
-173.4000;0.5617;3.0122;
-173.1000;0.5633;3.0122;
-172.8000;0.5592;3.0074;
-172.5000;0.5641;3.0193;
-172.2000;0.5633;3.0241;
-171.9000;0.5633;3.0241;
-171.6000;0.5625;3.0122;
-171.3000;0.5576;2.9978;
-171.0000;0.5617;3.0026;
-170.7000;0.5625;3.0050;
-170.4000;0.5641;3.0145;
-170.1000;0.5657;3.0193;
-169.8000;0.5617;3.0122;
-169.5000;0.5633;3.0241;
-169.2000;0.5617;3.0122;
-168.9000;0.5617;3.0098;
-168.6000;0.5600;3.0074;
-168.3000;0.5608;3.0145;
-168.0000;0.5617;3.0193;
-167.7000;0.5608;3.0169;
-167.4000;0.5600;3.0145;
-167.1000;0.5617;3.0145;
-166.8000;0.5625;3.0098;
-166.5000;0.5649;3.0098;
-166.2000;0.5633;3.0074;
-165.9000;0.5641;3.0169;
-165.6000;0.5600;3.0241;
-165.3000;0.5649;3.0336;
-165.0000;0.5674;3.0313;
-164.7000;0.5617;3.0122;
-164.4000;0.5625;3.0217;
-164.1000;0.5600;3.0169;
-163.8000;0.5600;3.0074;
-163.5000;0.5592;3.0002;
-163.2000;0.5625;3.0050;
-162.9000;0.5608;2.9955;
-162.6000;0.5641;3.0122;
-162.3000;0.5600;3.0169;
-162.0000;0.5625;3.0169;
-161.7000;0.5608;3.0169;
-161.4000;0.5625;3.0193;
-161.1000;0.5617;3.0169;
-160.8000;0.5592;3.0074;
-160.5000;0.5608;3.0122;
-160.2000;0.5633;3.0145;
-159.9000;0.5608;3.0145;
-159.6000;0.5608;3.0241;
-159.3000;0.5641;3.0336;
-159.0000;0.5633;3.0360;
-158.7000;0.5608;3.0265;
-158.4000;0.5576;3.0145;
-158.1000;0.5633;3.0336;
-157.8000;0.5625;3.0313;
-157.5000;0.5641;3.0360;
-157.2000;0.5592;3.0217;
-156.9000;0.5608;3.0265;
-156.6000;0.5633;3.0265;
-156.3000;0.5633;3.0265;
-156.0000;0.5617;3.0241;
-155.7000;0.5608;3.0169;
-155.4000;0.5608;3.0193;
-155.1000;0.5617;3.0169;
-154.8000;0.5600;3.0122;
-154.5000;0.5649;3.0169;
-154.2000;0.5617;3.0098;
-153.9000;0.5617;3.0145;
-153.6000;0.5608;3.0193;
-153.3000;0.5600;3.0217;
-153.0000;0.5584;3.0193;
-152.7000;0.5608;3.0265;
-152.4000;0.5600;3.0241;
-152.1000;0.5633;3.0265;
-151.8000;0.5617;3.0360;
-151.5000;0.5625;3.0384;
-151.2000;0.5617;3.0408;
-150.9000;0.5608;3.0289;
-150.6000;0.5608;3.0098;
-150.3000;0.5633;3.0026;
-150.0000;0.5625;3.0050;
-149.7000;0.5641;3.0098;
-149.4000;0.5617;3.0050;
-149.1000;0.5617;3.0074;
-148.8000;0.5625;3.0145;
-148.5000;0.5617;3.0122;
-148.2000;0.5600;3.0122;
-147.9000;0.5608;3.0145;
-147.6000;0.5608;3.0217;
-147.3000;0.5633;3.0265;
-147.0000;0.5633;3.0265;
-146.7000;0.5600;3.0050;
-146.4000;0.5657;3.0050;
-146.1000;0.5633;3.0026;
-145.8000;0.5625;3.0050;
-145.5000;0.5617;3.0050;
-145.2000;0.5633;3.0026;
-144.9000;0.5625;3.0122;
-144.6000;0.5617;3.0169;
-144.3000;0.5625;3.0169;
-144.0000;0.5625;3.0122;
-143.7000;0.5608;3.0002;
-143.4000;0.5674;3.0098;
-143.1000;0.5641;3.0050;
-142.8000;0.5617;2.9978;
-142.5000;0.5600;2.9907;
-142.2000;0.5625;2.9907;
-141.9000;0.5665;2.9978;
-141.6000;0.5641;3.0002;
-141.3000;0.5641;3.0002;
-141.0000;0.5633;2.9955;
-140.7000;0.5633;2.9859;
-140.4000;0.5584;2.9835;
-140.1000;0.5608;3.0002;
-139.8000;0.5625;3.0050;
-139.5000;0.5625;2.9931;
-139.2000;0.5600;2.9907;
-138.9000;0.5608;2.9859;
-138.6000;0.5625;3.0026;
-138.3000;0.5617;2.9955;
-138.0000;0.5608;3.0026;
-137.7000;0.5617;3.0002;
-137.4000;0.5657;3.0050;
-137.1000;0.5576;2.9859;
-136.8000;0.5617;3.0002;
-136.5000;0.5625;3.0026;
-136.2000;0.5625;3.0002;
-135.9000;0.5625;3.0050;
-135.6000;0.5682;3.0193;
-135.3000;0.5617;2.9978;
-135.0000;0.5633;3.0026;
-134.7000;0.5617;2.9955;
-134.4000;0.5665;3.0074;
-134.1000;0.5633;3.0050;
-133.8000;0.5608;3.0169;
-133.5000;0.5625;3.0145;
-133.2000;0.5608;3.0074;
-132.9000;0.5608;3.0074;
-132.6000;0.5617;3.0145;
-132.3000;0.5617;3.0217;
-132.0000;0.5633;3.0193;
-131.7000;0.5608;3.0098;
-131.4000;0.5625;3.0098;
-131.1000;0.5608;3.0122;
-130.8000;0.5617;3.0241;
-130.5000;0.5617;3.0217;
-130.2000;0.5625;3.0193;
-129.9000;0.5617;3.0145;
-129.6000;0.5625;3.0241;
-129.3000;0.5617;3.0217;
-129.0000;0.5608;3.0217;
-128.7000;0.5608;3.0193;
-128.4000;0.5641;3.0265;
-128.1000;0.5617;3.0265;
-127.8000;0.5600;3.0241;
-127.5000;0.5682;3.0217;
-127.2000;0.5617;3.0026;
-126.9000;0.5617;3.0026;
-126.6000;0.5625;3.0122;
-126.3000;0.5625;3.0169;
-126.0000;0.5617;3.0169;
-125.7000;0.5633;3.0169;
-125.4000;0.5633;3.0193;
-125.1000;0.5600;3.0145;
-124.8000;0.5625;3.0145;
-124.5000;0.5617;3.0074;
-124.2000;0.5608;3.0050;
-123.9000;0.5592;3.0002;
-123.6000;0.5600;3.0002;
-123.3000;0.5633;3.0074;
-123.0000;0.5592;3.0002;
-122.7000;0.5600;3.0026;
-122.4000;0.5617;3.0026;
-122.1000;0.5641;3.0122;
-121.8000;0.5633;3.0098;
-121.5000;0.5633;3.0145;
-121.2000;0.5568;2.9978;
-120.9000;0.5625;3.0122;
-120.6000;0.5617;3.0217;
-120.3000;0.5625;3.0265;
-120.0000;0.5608;3.0217;
-119.7000;0.5592;3.0265;
-119.4000;0.5600;3.0265;
-119.1000;0.5600;3.0145;
-118.8000;0.5608;3.0145;
-118.5000;0.5617;3.0169;
-118.2000;0.5674;3.0241;
-117.9000;0.5608;3.0098;
-117.6000;0.5617;3.0098;
-117.3000;0.5706;3.0313;
-117.0000;0.5617;3.0169;
-116.7000;0.5608;3.0265;
-116.4000;0.5617;3.0169;
-116.1000;0.5608;3.0241;
-115.8000;0.5625;3.0360;
-115.5000;0.5592;3.0313;
-115.2000;0.5608;3.0313;
-114.9000;0.5633;3.0265;
-114.6000;0.5641;3.0265;
-114.3000;0.5617;3.0265;
-114.0000;0.5641;3.0313;
-113.7000;0.5600;3.0289;
-113.4000;0.5592;3.0241;
-113.1000;0.5625;3.0336;
-112.8000;0.5600;3.0289;
-112.5000;0.5617;3.0336;
-112.2000;0.5625;3.0432;
-111.9000;0.5641;3.0456;
-111.6000;0.5617;3.0360;
-111.3000;0.5608;3.0336;
-111.0000;0.5600;3.0265;
-110.7000;0.5617;3.0336;
-110.4000;0.5600;3.0313;
-110.1000;0.5608;3.0360;
-109.8000;0.5657;3.0432;
-109.5000;0.5617;3.0360;
-109.2000;0.5633;3.0360;
-108.9000;0.5625;3.0360;
-108.6000;0.5625;3.0384;
-108.3000;0.5608;3.0551;
-108.0000;0.5625;3.0623;
-107.7000;0.5665;3.0623;
-107.4000;0.5608;3.0503;
-107.1000;0.5633;3.0480;
-106.8000;0.5617;3.0313;
-106.5000;0.5617;3.0336;
-106.2000;0.5641;3.0408;
-105.9000;0.5617;3.0408;
-105.6000;0.5633;3.0432;
-105.3000;0.5608;3.0265;
-105.0000;0.5584;3.0145;
-104.7000;0.5617;3.0241;
-104.4000;0.5625;3.0265;
-104.1000;0.5617;3.0193;
-103.8000;0.5608;3.0122;
-103.5000;0.5649;3.0098;
-103.2000;0.5608;3.0074;
-102.9000;0.5633;3.0169;
-102.6000;0.5657;3.0313;
-102.3000;0.5608;3.0289;
-102.0000;0.5625;3.0384;
-101.7000;0.5625;3.0336;
-101.4000;0.5617;3.0313;
-101.1000;0.5584;3.0217;
-100.8000;0.5617;3.0265;
-100.5000;0.5625;3.0217;
-100.2000;0.5617;3.0145;
-99.9000;0.5592;3.0098;
-99.6000;0.5617;3.0241;
-99.3000;0.5600;3.0313;
-99.0000;0.5617;3.0313;
-98.7000;0.5617;3.0265;
-98.4000;0.5592;3.0122;
-98.1000;0.5608;3.0145;
-97.8000;0.5617;3.0098;
-97.5000;0.5592;3.0098;
-97.2000;0.5584;3.0098;
-96.9000;0.5592;3.0145;
-96.6000;0.5617;3.0193;
-96.3000;0.5617;3.0193;
-96.0000;0.5608;3.0169;
-95.7000;0.5617;3.0193;
-95.4000;0.5608;3.0217;
-95.1000;0.5608;3.0265;
-94.8000;0.5600;3.0193;
-94.5000;0.5608;3.0289;
-94.2000;0.5592;3.0169;
-93.9000;0.5617;3.0145;
-93.6000;0.5617;3.0074;
-93.3000;0.5608;3.0098;
-93.0000;0.5633;3.0241;
-92.7000;0.5625;3.0169;
-92.4000;0.5633;3.0241;
-92.1000;0.5568;3.0145;
-91.8000;0.5617;3.0313;
-91.5000;0.5625;3.0360;
-91.2000;0.5633;3.0384;
-90.9000;0.5625;3.0336;
-90.6000;0.5633;3.0456;
-90.3000;0.5641;3.0480;
-90.0000;0.5633;3.0408;
-89.7000;0.5617;3.0384;
-89.4000;0.5608;3.0384;
-89.1000;0.5600;3.0265;
-88.8000;0.5608;3.0241;
-88.5000;0.5608;3.0169;
-88.2000;0.5608;3.0265;
-87.9000;0.5608;3.0336;
-87.6000;0.5617;3.0408;
-87.3000;0.5649;3.0456;
-87.0000;0.5625;3.0360;
-86.7000;0.5608;3.0193;
-86.4000;0.5617;3.0241;
-86.1000;0.5592;3.0241;
-85.8000;0.5617;3.0289;
-85.5000;0.5608;3.0289;
-85.2000;0.5625;3.0265;
-84.9000;0.5608;3.0193;
-84.6000;0.5617;3.0193;
-84.3000;0.5649;3.0241;
-84.0000;0.5608;3.0193;
-83.7000;0.5608;3.0217;
-83.4000;0.5633;3.0241;
-83.1000;0.5592;3.0217;
-82.8000;0.5625;3.0313;
-82.5000;0.5625;3.0313;
-82.2000;0.5617;3.0241;
-81.9000;0.5600;3.0241;
-81.6000;0.5617;3.0408;
-81.3000;0.5625;3.0456;
-81.0000;0.5617;3.0360;
-80.7000;0.5633;3.0432;
-80.4000;0.5633;3.0360;
-80.1000;0.5617;3.0313;
-79.8000;0.5617;3.0408;
-79.5000;0.5617;3.0408;
-79.2000;0.5608;3.0432;
-78.9000;0.5608;3.0408;
-78.6000;0.5584;3.0313;
-78.3000;0.5625;3.0360;
-78.0000;0.5600;3.0241;
-77.7000;0.5608;3.0313;
-77.4000;0.5592;3.0193;
-77.1000;0.5608;3.0169;
-76.8000;0.5608;3.0169;
-76.5000;0.5543;3.0026;
-76.2000;0.5625;3.0289;
-75.9000;0.5625;3.0265;
-75.6000;0.5617;3.0265;
-75.3000;0.5706;3.0432;
-75.0000;0.5608;3.0122;
-74.7000;0.5625;3.0217;
-74.4000;0.5617;3.0265;
-74.1000;0.5625;3.0360;
-73.8000;0.5625;3.0432;
-73.5000;0.5617;3.0456;
-73.2000;0.5543;3.0265;
-72.9000;0.5584;3.0313;
-72.6000;0.5608;3.0289;
-72.3000;0.5592;3.0265;
-72.0000;0.5617;3.0241;
-71.7000;0.5608;3.0265;
-71.4000;0.5617;3.0313;
-71.1000;0.5657;3.0432;
-70.8000;0.5633;3.0336;
-70.5000;0.5625;3.0360;
-70.2000;0.5641;3.0432;
-69.9000;0.5625;3.0456;
-69.6000;0.5600;3.0313;
-69.3000;0.5625;3.0336;
-69.0000;0.5592;3.0217;
-68.7000;0.5641;3.0289;
-68.4000;0.5576;3.0241;
-68.1000;0.5617;3.0336;
-67.8000;0.5608;3.0313;
-67.5000;0.5617;3.0384;
-67.2000;0.5641;3.0408;
-66.9000;0.5625;3.0360;
-66.6000;0.5633;3.0336;
-66.3000;0.5600;3.0360;
-66.0000;0.5633;3.0336;
-65.7000;0.5625;3.0265;
-65.4000;0.5682;3.0432;
-65.1000;0.5722;3.0527;
-64.8000;0.5641;3.0289;
-64.5000;0.5633;3.0289;
-64.2000;0.5625;3.0360;
-63.9000;0.5617;3.0360;
-63.6000;0.5625;3.0336;
-63.3000;0.5633;3.0313;
-63.0000;0.5674;3.0480;
-62.7000;0.5633;3.0360;
-62.4000;0.5608;3.0289;
-62.1000;0.5608;3.0360;
-61.8000;0.5608;3.0289;
-61.5000;0.5608;3.0241;
-61.2000;0.5608;3.0217;
-60.9000;0.5617;3.0193;
-60.6000;0.5625;3.0241;
-60.3000;0.5617;3.0241;
-60.0000;0.5617;3.0289;
-59.7000;0.5641;3.0313;
-59.4000;0.5617;3.0289;
-59.1000;0.5617;3.0336;
-58.8000;0.5625;3.0408;
-58.5000;0.5592;3.0313;
-58.2000;0.5608;3.0408;
-57.9000;0.5625;3.0384;
-57.6000;0.5608;3.0313;
-57.3000;0.5617;3.0289;
-57.0000;0.5608;3.0313;
-56.7000;0.5617;3.0432;
-56.4000;0.5617;3.0527;
-56.1000;0.5617;3.0527;
-55.8000;0.5625;3.0503;
-55.5000;0.5617;3.0408;
-55.2000;0.5617;3.0336;
-54.9000;0.5625;3.0384;
-54.6000;0.5625;3.0289;
-54.3000;0.5608;3.0217;
-54.0000;0.5617;3.0217;
-53.7000;0.5551;3.0050;
-53.4000;0.5592;3.0122;
-53.1000;0.5600;3.0193;
-52.8000;0.5584;3.0169;
-52.5000;0.5600;3.0169;
-52.2000;0.5641;3.0360;
-51.9000;0.5617;3.0289;
-51.6000;0.5617;3.0313;
-51.3000;0.5625;3.0313;
-51.0000;0.5617;3.0265;
-50.7000;0.5608;3.0265;
-50.4000;0.5617;3.0289;
-50.1000;0.5592;3.0289;
-49.8000;0.5617;3.0384;
-49.5000;0.5608;3.0408;
-49.2000;0.5592;3.0456;
-48.9000;0.5600;3.0480;
-48.6000;0.5641;3.0480;
-48.3000;0.5633;3.0408;
-48.0000;0.5633;3.0384;
-47.7000;0.5625;3.0384;
-47.4000;0.5608;3.0313;
-47.1000;0.5600;3.0384;
-46.8000;0.5617;3.0408;
-46.5000;0.5641;3.0456;
-46.2000;0.5560;3.0265;
-45.9000;0.5617;3.0503;
-45.6000;0.5617;3.0503;
-45.3000;0.5617;3.0503;
-45.0000;0.5608;3.0432;
-44.7000;0.5617;3.0456;
-44.4000;0.5608;3.0480;
-44.1000;0.5608;3.0432;
-43.8000;0.5649;3.0623;
-43.5000;0.5625;3.0551;
-43.2000;0.5641;3.0527;
-42.9000;0.5617;3.0384;
-42.6000;0.5608;3.0336;
-42.3000;0.5592;3.0289;
-42.0000;0.5617;3.0289;
-41.7000;0.5617;3.0265;
-41.4000;0.5543;3.0098;
-41.1000;0.5617;3.0265;
-40.8000;0.5617;3.0241;
-40.5000;0.5600;3.0241;
-40.2000;0.5633;3.0336;
-39.9000;0.5641;3.0408;
-39.6000;0.5608;3.0265;
-39.3000;0.5600;3.0241;
-39.0000;0.5617;3.0241;
-38.7000;0.5600;3.0193;
-38.4000;0.5633;3.0241;
-38.1000;0.5608;3.0217;
-37.8000;0.5617;3.0265;
-37.5000;0.5608;3.0336;
-37.2000;0.5608;3.0456;
-36.9000;0.5633;3.0551;
-36.6000;0.5625;3.0480;
-36.3000;0.5608;3.0432;
-36.0000;0.5608;3.0408;
-35.7000;0.5617;3.0432;
-35.4000;0.5608;3.0432;
-35.1000;0.5625;3.0408;
-34.8000;0.5625;3.0360;
-34.5000;0.5625;3.0313;
-34.2000;0.5617;3.0289;
-33.9000;0.5576;3.0050;
-33.6000;0.5641;3.0169;
-33.3000;0.5625;3.0217;
-33.0000;0.5633;3.0193;
-32.7000;0.5625;3.0241;
-32.4000;0.5576;3.0145;
-32.1000;0.5617;3.0336;
-31.8000;0.5617;3.0265;
-31.5000;0.5608;3.0241;
-31.2000;0.5625;3.0169;
-30.9000;0.5633;3.0217;
-30.6000;0.5641;3.0384;
-30.3000;0.5617;3.0313;
-30.0000;0.5625;3.0360;
-29.7000;0.5617;3.0432;
-29.4000;0.5617;3.0432;
-29.1000;0.5617;3.0289;
-28.8000;0.5600;3.0217;
-28.5000;0.5592;3.0336;
-28.2000;0.5535;3.0193;
-27.9000;0.5617;3.0360;
-27.6000;0.5617;3.0384;
-27.3000;0.5600;3.0384;
-27.0000;0.5617;3.0313;
-26.7000;0.5617;3.0313;
-26.4000;0.5617;3.0313;
-26.1000;0.5617;3.0289;
-25.8000;0.5608;3.0265;
-25.5000;0.5600;3.0265;
-25.2000;0.5592;3.0241;
-24.9000;0.5617;3.0289;
-24.6000;0.5617;3.0289;
-24.3000;0.5608;3.0169;
-24.0000;0.5608;3.0169;
-23.7000;0.5641;3.0384;
-23.4000;0.5608;3.0313;
-23.1000;0.5633;3.0360;
-22.8000;0.5600;3.0265;
-22.5000;0.5617;3.0289;
-22.2000;0.5682;3.0408;
-21.9000;0.5649;3.0360;
-21.6000;0.5568;3.0074;
-21.3000;0.5625;3.0313;
-21.0000;0.5617;3.0336;
-20.7000;0.5617;3.0336;
-20.4000;0.5608;3.0336;
-20.1000;0.5617;3.0313;
-19.8000;0.5633;3.0408;
-19.5000;0.5592;3.0336;
-19.2000;0.5617;3.0360;
-18.9000;0.5592;3.0289;
-18.6000;0.5600;3.0241;
-18.3000;0.5592;3.0360;
-18.0000;0.5617;3.0384;
-17.7000;0.5625;3.0336;
-17.4000;0.5625;3.0289;
-17.1000;0.5600;3.0217;
-16.8000;0.5633;3.0313;
-16.5000;0.5625;3.0336;
-16.2000;0.5600;3.0265;
-15.9000;0.5625;3.0289;
-15.6000;0.5625;3.0241;
-15.3000;0.5625;3.0241;
-15.0000;0.5649;3.0313;
-14.7000;0.5625;3.0289;
-14.4000;0.5617;3.0241;
-14.1000;0.5625;3.0265;
-13.8000;0.5641;3.0265;
-13.5000;0.5600;3.0217;
-13.2000;0.5600;3.0265;
-12.9000;0.5633;3.0313;
-12.6000;0.5608;3.0241;
-12.3000;0.5617;3.0265;
-12.0000;0.5625;3.0193;
-11.7000;0.5600;3.0193;
-11.4000;0.5617;3.0193;
-11.1000;0.5633;3.0241;
-10.8000;0.5600;3.0217;
-10.5000;0.5649;3.0360;
-10.2000;0.5641;3.0217;
-9.9000;0.5608;3.0169;
-9.6000;0.5649;3.0336;
-9.3000;0.5600;3.0265;
-9.0000;0.5625;3.0313;
-8.7000;0.5617;3.0289;
-8.4000;0.5617;3.0265;
-8.1000;0.5600;3.0241;
-7.8000;0.5625;3.0241;
-7.5000;0.5576;3.0122;
-7.2000;0.5592;3.0074;
-6.9000;0.5600;3.0122;
-6.6000;0.5617;3.0122;
-6.3000;0.5641;3.0217;
-6.0000;0.5600;3.0098;
-5.7000;0.5674;3.0265;
-5.4000;0.5608;3.0169;
-5.1000;0.5617;3.0145;
-4.8000;0.5625;3.0169;
-4.5000;0.5608;3.0050;
-4.2000;0.5600;3.0050;
-3.9000;0.5600;3.0098;
-3.6000;0.5617;3.0145;
-3.3000;0.5584;3.0145;
-3.0000;0.5617;3.0193;
-2.7000;0.5592;3.0145;
-2.4000;0.5617;3.0217;
-2.1000;0.5600;3.0193;
-1.8000;0.5592;3.0193;
-1.5000;0.5617;3.0193;
-1.2000;0.5657;3.0313;
-0.9000;0.5617;3.0265;
-0.6000;0.5608;3.0289;
-0.3000;0.5617;3.0289;
0.0000;0.5617;3.0289;
0.3000;0.5845;3.0313;
0.6000;0.6300;3.0861;
0.9000;0.6610;3.1196;
1.2000;0.6895;3.1649;
1.5000;0.7082;3.1888;
1.8000;0.7228;3.2055;
2.1000;0.7350;3.2294;
2.4000;0.7456;3.2580;
2.7000;0.7546;3.2699;
3.0000;0.7611;3.2819;
3.3000;0.7684;3.2938;
3.6000;0.7774;3.3105;
3.9000;0.7814;3.3153;
4.2000;0.7847;3.3248;
4.5000;0.7904;3.3344;
4.8000;0.7977;3.3535;
5.1000;0.7977;3.3415;
5.4000;0.8034;3.3439;
5.7000;0.8059;3.3487;
6.0000;0.8018;3.3344;
6.3000;0.8164;3.3559;
6.6000;0.8173;3.3439;
6.9000;0.8205;3.3368;
7.2000;0.8246;3.3368;
7.5000;0.8278;3.3296;
7.8000;0.8311;3.3248;
8.1000;0.8335;3.3248;
8.4000;0.8352;3.3224;
8.7000;0.8409;3.3296;
9.0000;0.8449;3.3415;
9.3000;0.8457;3.3439;
9.6000;0.8474;3.3368;
9.9000;0.8514;3.3439;
10.2000;0.8523;3.3392;
10.5000;0.8555;3.3439;
10.8000;0.8555;3.3415;
11.1000;0.8563;3.3320;
11.4000;0.8612;3.3392;
11.7000;0.8661;3.3487;
12.0000;0.8645;3.3439;
12.3000;0.8661;3.3344;
12.6000;0.8694;3.3392;
12.9000;0.8710;3.3535;
13.2000;0.8726;3.3559;
13.5000;0.8759;3.3582;
13.8000;0.8824;3.3606;
14.1000;0.8775;3.3415;
14.4000;0.8807;3.3368;
14.7000;0.8824;3.3392;
15.0000;0.8881;3.3511;
15.3000;0.8889;3.3559;
15.6000;0.8913;3.3582;
15.9000;0.8897;3.3535;
16.2000;0.8913;3.3559;
16.5000;0.8938;3.3582;
16.8000;0.8938;3.3559;
17.1000;0.8946;3.3559;
17.4000;0.8970;3.3582;
17.7000;0.9019;3.3726;
18.0000;0.9011;3.3678;
18.3000;0.9027;3.3630;
18.6000;0.8978;3.3535;
18.9000;0.9044;3.3654;
19.2000;0.9027;3.3535;
19.5000;0.9068;3.3535;
19.8000;0.9052;3.3630;
20.1000;0.9084;3.3678;
20.4000;0.9084;3.3702;
20.7000;0.9084;3.3678;
21.0000;0.9076;3.3678;
21.3000;0.9101;3.3702;
21.6000;0.9117;3.3678;
21.9000;0.9141;3.3702;
22.2000;0.9141;3.3654;
22.5000;0.9158;3.3678;
22.8000;0.9141;3.3678;
23.1000;0.9182;3.3702;
23.4000;0.9182;3.3630;
23.7000;0.9158;3.3559;
24.0000;0.9190;3.3559;
24.3000;0.9206;3.3535;
24.6000;0.9198;3.3463;
24.9000;0.9198;3.3487;
25.2000;0.9223;3.3535;
25.5000;0.9158;3.3415;
25.8000;0.9223;3.3582;
26.1000;0.9223;3.3582;
26.4000;0.9280;3.3606;
26.7000;0.9223;3.3511;
27.0000;0.9239;3.3487;
27.3000;0.9206;3.3368;
27.6000;0.9247;3.3463;
27.9000;0.9247;3.3463;
28.2000;0.9271;3.3559;
28.5000;0.9345;3.3654;
28.8000;0.9288;3.3392;
29.1000;0.9288;3.3439;
29.4000;0.9304;3.3439;
29.7000;0.9271;3.3487;
30.0000;0.9280;3.3606;
30.3000;0.9296;3.3750;
30.6000;0.9296;3.3726;
30.9000;0.9296;3.3702;
31.2000;0.9304;3.3606;
31.5000;0.9304;3.3606;
31.8000;0.9353;3.3654;
32.1000;0.9328;3.3439;
32.4000;0.9320;3.3535;
32.7000;0.9345;3.3535;
33.0000;0.9353;3.3415;
33.3000;0.9328;3.3368;
33.6000;0.9361;3.3439;
33.9000;0.9345;3.3415;
34.2000;0.9361;3.3415;
34.5000;0.9377;3.3463;
34.8000;0.9361;3.3392;
35.1000;0.9361;3.3368;
35.4000;0.9369;3.3392;
35.7000;0.9394;3.3392;
36.0000;0.9369;3.3344;
36.3000;0.9369;3.3296;
36.6000;0.9377;3.3272;
36.9000;0.9377;3.3224;
37.2000;0.9385;3.3201;
37.5000;0.9377;3.3153;
37.8000;0.9385;3.3177;
38.1000;0.9361;3.3177;
38.4000;0.9402;3.3272;
38.7000;0.9361;3.3201;
39.0000;0.9418;3.3344;
39.3000;0.9402;3.3296;
39.6000;0.9410;3.3344;
39.9000;0.9418;3.3320;
40.2000;0.9402;3.3368;
40.5000;0.9385;3.3392;
40.8000;0.9426;3.3368;
41.1000;0.9385;3.3201;
41.4000;0.9410;3.3320;
41.7000;0.9410;3.3248;
42.0000;0.9426;3.3201;
42.3000;0.9434;3.3272;
42.6000;0.9451;3.3272;
42.9000;0.9394;3.3129;
43.2000;0.9410;3.3248;
43.5000;0.9434;3.3344;
43.8000;0.9410;3.3344;
44.1000;0.9426;3.3415;
44.4000;0.9426;3.3511;
44.7000;0.9402;3.3392;
45.0000;0.9459;3.3368;
45.3000;0.9426;3.3272;
45.6000;0.9394;3.3177;
45.9000;0.9410;3.3296;
46.2000;0.9467;3.3392;
46.5000;0.9451;3.3368;
46.8000;0.9442;3.3296;
47.1000;0.9459;3.3392;
47.4000;0.9467;3.3535;
47.7000;0.9467;3.3606;
48.0000;0.9451;3.3439;
48.3000;0.9442;3.3415;
48.6000;0.9475;3.3511;
48.9000;0.9434;3.3463;
49.2000;0.9459;3.3559;
49.5000;0.9475;3.3630;
49.8000;0.9442;3.3606;
50.1000;0.9475;3.3726;
50.4000;0.9434;3.3559;
50.7000;0.9475;3.3582;
51.0000;0.9451;3.3511;
51.3000;0.9467;3.3535;
51.6000;0.9475;3.3511;
51.9000;0.9459;3.3439;
52.2000;0.9467;3.3392;
52.5000;0.9491;3.3415;
52.8000;0.9442;3.3248;
53.1000;0.9475;3.3296;
53.4000;0.9483;3.3320;
53.7000;0.9491;3.3344;
54.0000;0.9475;3.3272;
54.3000;0.9475;3.3296;
54.6000;0.9491;3.3272;
54.9000;0.9394;3.3129;
55.2000;0.9483;3.3320;
55.5000;0.9483;3.3368;
55.8000;0.9483;3.3392;
56.1000;0.9483;3.3272;
56.4000;0.9508;3.3201;
56.7000;0.9499;3.3129;
57.0000;0.9491;3.3129;
57.3000;0.9556;3.3320;
57.6000;0.9499;3.3129;
57.9000;0.9491;3.3057;
58.2000;0.9499;3.3177;
58.5000;0.9499;3.3129;
58.8000;0.9499;3.3248;
59.1000;0.9516;3.3344;
59.4000;0.9475;3.3272;
59.7000;0.9508;3.3320;
60.0000;0.9516;3.3320;
60.3000;0.9491;3.3296;
60.6000;0.9508;3.3272;
60.9000;0.9467;3.3129;
61.2000;0.9499;3.3201;
61.5000;0.9508;3.3320;
61.8000;0.9499;3.3201;
62.1000;0.9491;3.3010;
62.4000;0.9442;3.2866;
62.7000;0.9508;3.3081;
63.0000;0.9573;3.3368;
63.3000;0.9516;3.3248;
63.6000;0.9565;3.3344;
63.9000;0.9548;3.3344;
64.2000;0.9483;3.3153;
64.5000;0.9516;3.3296;
64.8000;0.9516;3.3296;
65.1000;0.9508;3.3248;
65.4000;0.9524;3.3248;
65.7000;0.9508;3.3320;
66.0000;0.9524;3.3344;
66.3000;0.9532;3.3392;
66.6000;0.9475;3.3344;
66.9000;0.9508;3.3320;
67.2000;0.9516;3.3344;
67.5000;0.9516;3.3320;
67.8000;0.9524;3.3320;
68.1000;0.9532;3.3248;
68.4000;0.9540;3.3248;
68.7000;0.9556;3.3296;
69.0000;0.9532;3.3248;
69.3000;0.9540;3.3296;
69.6000;0.9548;3.3344;
69.9000;0.9556;3.3320;
70.2000;0.9532;3.3224;
70.5000;0.9524;3.3201;
70.8000;0.9540;3.3224;
71.1000;0.9532;3.3153;
71.4000;0.9516;3.3153;
71.7000;0.9508;3.3153;
72.0000;0.9524;3.3153;
72.3000;0.9516;3.3105;
72.6000;0.9573;3.3177;
72.9000;0.9540;3.3105;
73.2000;0.9540;3.3057;
73.5000;0.9524;3.2986;
73.8000;0.9532;3.3033;
74.1000;0.9516;3.3033;
74.4000;0.9508;3.3057;
74.7000;0.9516;3.3105;
75.0000;0.9524;3.3153;
75.3000;0.9540;3.3177;
75.6000;0.9524;3.3201;
75.9000;0.9508;3.3129;
76.2000;0.9565;3.3320;
76.5000;0.9524;3.3320;
76.8000;0.9532;3.3320;
77.1000;0.9532;3.3272;
77.4000;0.9532;3.3224;
77.7000;0.9524;3.3153;
78.0000;0.9516;3.3129;
78.3000;0.9573;3.3201;
78.6000;0.9532;3.3177;
78.9000;0.9524;3.3272;
79.2000;0.9540;3.3272;
79.5000;0.9548;3.3248;
79.8000;0.9532;3.3129;
80.1000;0.9532;3.3105;
80.4000;0.9556;3.3177;
80.7000;0.9548;3.3224;
81.0000;0.9548;3.3248;
81.3000;0.9548;3.3320;
81.6000;0.9556;3.3368;
81.9000;0.9532;3.3511;
82.2000;0.9540;3.3511;
82.5000;0.9548;3.3463;
82.8000;0.9524;3.3368;
83.1000;0.9597;3.3535;
83.4000;0.9540;3.3487;
83.7000;0.9556;3.3535;
84.0000;0.9548;3.3559;
84.3000;0.9605;3.3606;
84.6000;0.9532;3.3439;
84.9000;0.9556;3.3415;
85.2000;0.9548;3.3344;
85.5000;0.9532;3.3272;
85.8000;0.9540;3.3201;
86.1000;0.9548;3.3224;
86.4000;0.9524;3.3272;
86.7000;0.9483;3.3057;
87.0000;0.9540;3.3057;
87.3000;0.9483;3.2914;
87.6000;0.9548;3.3153;
87.9000;0.9483;3.3057;
88.2000;0.9532;3.3177;
88.5000;0.9540;3.3081;
88.8000;0.9556;3.3153;
89.1000;0.9565;3.3057;
89.4000;0.9556;3.3010;
89.7000;0.9548;3.3010;
90.0000;0.9565;3.3105;
90.3000;0.9573;3.3129;
90.6000;0.9556;3.3177;
90.9000;0.9548;3.3201;
91.2000;0.9556;3.3129;
91.5000;0.9548;3.3153;
91.8000;0.9524;3.3153;
92.1000;0.9556;3.3201;
92.4000;0.9556;3.3177;
92.7000;0.9556;3.3177;
93.0000;0.9565;3.3105;
93.3000;0.9532;3.3081;
93.6000;0.9556;3.3105;
93.9000;0.9556;3.3129;
94.2000;0.9548;3.3129;
94.5000;0.9548;3.3081;
94.8000;0.9597;3.3248;
95.1000;0.9565;3.3201;
95.4000;0.9556;3.3129;
95.7000;0.9573;3.3081;
96.0000;0.9556;3.3081;
96.3000;0.9565;3.3057;
96.6000;0.9581;3.3105;
96.9000;0.9565;3.3010;
97.2000;0.9548;3.3033;
97.5000;0.9548;3.2914;
97.8000;0.9565;3.2914;
98.1000;0.9540;3.2914;
98.4000;0.9556;3.3010;
98.7000;0.9565;3.3081;
99.0000;0.9565;3.3129;
99.3000;0.9565;3.3201;
99.6000;0.9556;3.3129;
99.9000;0.9524;3.3057;
100.2000;0.9556;3.3153;
100.5000;0.9573;3.3248;
100.8000;0.9556;3.3224;
101.1000;0.9565;3.3248;
101.4000;0.9556;3.3296;
101.7000;0.9589;3.3392;
102.0000;0.9565;3.3248;
102.3000;0.9581;3.3272;
102.6000;0.9556;3.3272;
102.9000;0.9556;3.3272;
103.2000;0.9565;3.3248;
103.5000;0.9565;3.3153;
103.8000;0.9573;3.3224;
104.1000;0.9565;3.3105;
104.4000;0.9556;3.3129;
104.7000;0.9548;3.3153;
105.0000;0.9556;3.3177;
105.3000;0.9565;3.3201;
105.6000;0.9573;3.3177;
105.9000;0.9556;3.3129;
106.2000;0.9565;3.3177;
106.5000;0.9605;3.3201;
106.8000;0.9621;3.3272;
107.1000;0.9556;3.3224;
107.4000;0.9565;3.3272;
107.7000;0.9565;3.3296;
108.0000;0.9556;3.3272;
108.3000;0.9540;3.3153;
108.6000;0.9573;3.3177;
108.9000;0.9573;3.3248;
109.2000;0.9581;3.3272;
109.5000;0.9491;3.3081;
109.8000;0.9565;3.3272;
110.1000;0.9565;3.3320;
110.4000;0.9516;3.3248;
110.7000;0.9581;3.3392;
111.0000;0.9565;3.3320;
111.3000;0.9581;3.3248;
111.6000;0.9581;3.3272;
111.9000;0.9589;3.3224;
112.2000;0.9573;3.3153;
112.5000;0.9540;3.3177;
112.8000;0.9548;3.3177;
113.1000;0.9565;3.3105;
113.4000;0.9581;3.3177;
113.7000;0.9532;3.3010;
114.0000;0.9524;3.3033;
114.3000;0.9556;3.3129;
114.6000;0.9540;3.2986;
114.9000;0.9540;3.2938;
115.2000;0.9516;3.2890;
115.5000;0.9581;3.3105;
115.8000;0.9573;3.3201;
116.1000;0.9581;3.3224;
116.4000;0.9565;3.3105;
116.7000;0.9573;3.3177;
117.0000;0.9711;3.3559;
117.3000;0.9565;3.3153;
117.6000;0.9573;3.3105;
117.9000;0.9565;3.3010;
118.2000;0.9565;3.3057;
118.5000;0.9597;3.3105;
118.8000;0.9581;3.3129;
119.1000;0.9573;3.3177;
119.4000;0.9573;3.3153;
119.7000;0.9589;3.3177;
120.0000;0.9605;3.3224;
120.3000;0.9581;3.3129;
120.6000;0.9581;3.3129;
120.9000;0.9597;3.3320;
121.2000;0.9597;3.3296;
121.5000;0.9589;3.3248;
121.8000;0.9532;3.3177;
122.1000;0.9646;3.3463;
122.4000;0.9597;3.3296;
122.7000;0.9621;3.3320;
123.0000;0.9589;3.3248;
123.3000;0.9589;3.3129;
123.6000;0.9565;3.3129;
123.9000;0.9565;3.3129;
124.2000;0.9589;3.3224;
124.5000;0.9597;3.3177;
124.8000;0.9573;3.3105;
125.1000;0.9646;3.3296;
125.4000;0.9581;3.3177;
125.7000;0.9621;3.3248;
126.0000;0.9581;3.3129;
126.3000;0.9573;3.3153;
126.6000;0.9548;3.3201;
126.9000;0.9565;3.3248;
127.2000;0.9581;3.3296;
127.5000;0.9565;3.3320;
127.8000;0.9581;3.3392;
128.1000;0.9556;3.3344;
128.4000;0.9573;3.3344;
128.7000;0.9565;3.3248;
129.0000;0.9589;3.3344;
129.3000;0.9573;3.3296;
129.6000;0.9589;3.3296;
129.9000;0.9573;3.3248;
130.2000;0.9613;3.3224;
130.5000;0.9638;3.3344;
130.8000;0.9605;3.3320;
131.1000;0.9597;3.3248;
131.4000;0.9589;3.3153;
131.7000;0.9516;3.3057;
132.0000;0.9589;3.3272;
132.3000;0.9573;3.3248;
132.6000;0.9589;3.3320;
132.9000;0.9581;3.3320;
133.2000;0.9605;3.3368;
133.5000;0.9597;3.3344;
133.8000;0.9573;3.3344;
134.1000;0.9565;3.3272;
134.4000;0.9573;3.3153;
134.7000;0.9597;3.3248;
135.0000;0.9589;3.3224;
135.3000;0.9573;3.3201;
135.6000;0.9540;3.3153;
135.9000;0.9581;3.3224;
136.2000;0.9581;3.3248;
136.5000;0.9540;3.3177;
136.8000;0.9540;3.3272;
137.1000;0.9597;3.3463;
137.4000;0.9581;3.3368;
137.7000;0.9573;3.3344;
138.0000;0.9565;3.3344;
138.3000;0.9556;3.3368;
138.6000;0.9565;3.3368;
138.9000;0.9573;3.3296;
139.2000;0.9581;3.3439;
139.5000;0.9540;3.3320;
139.8000;0.9581;3.3344;
140.1000;0.9573;3.3296;
140.4000;0.9565;3.3177;
140.7000;0.9678;3.3559;
141.0000;0.9581;3.3344;
141.3000;0.9597;3.3344;
141.6000;0.9613;3.3344;
141.9000;0.9630;3.3439;
142.2000;0.9589;3.3296;
142.5000;0.9678;3.3487;
142.8000;0.9573;3.3272;
143.1000;0.9589;3.3272;
143.4000;0.9605;3.3415;
143.7000;0.9605;3.3392;
144.0000;0.9589;3.3344;
144.3000;0.9581;3.3296;
144.6000;0.9565;3.3368;
144.9000;0.9605;3.3439;
145.2000;0.9597;3.3439;
145.5000;0.9605;3.3439;
145.8000;0.9556;3.3248;
146.1000;0.9581;3.3344;
146.4000;0.9581;3.3320;
146.7000;0.9597;3.3368;
147.0000;0.9565;3.3320;
147.3000;0.9573;3.3320;
147.6000;0.9589;3.3415;
147.9000;0.9581;3.3368;
148.2000;0.9565;3.3320;
148.5000;0.9581;3.3415;
148.8000;0.9589;3.3487;
149.1000;0.9597;3.3368;
149.4000;0.9565;3.3368;
149.7000;0.9573;3.3344;
150.0000;0.9573;3.3344;
150.3000;0.9581;3.3296;
150.6000;0.9597;3.3272;
150.9000;0.9573;3.3177;
151.2000;0.9573;3.3129;
151.5000;0.9597;3.3177;
151.8000;0.9548;3.3081;
152.1000;0.9556;3.3057;
152.4000;0.9581;3.3105;
152.7000;0.9589;3.3081;
153.0000;0.9573;3.3129;
153.3000;0.9589;3.3105;
153.6000;0.9581;3.3201;
153.9000;0.9589;3.3272;
154.2000;0.9573;3.3177;
154.5000;0.9589;3.3248;
154.8000;0.9581;3.3224;
155.1000;0.9589;3.3248;
155.4000;0.9605;3.3272;
155.7000;0.9475;3.2962;
156.0000;0.9573;3.3177;
156.3000;0.9589;3.3320;
156.6000;0.9581;3.3392;
156.9000;0.9589;3.3463;
157.2000;0.9589;3.3368;
157.5000;0.9589;3.3320;
157.8000;0.9556;3.3248;
158.1000;0.9573;3.3272;
158.4000;0.9573;3.3320;
158.7000;0.9565;3.3320;
159.0000;0.9532;3.3153;
159.3000;0.9556;3.3153;
159.6000;0.9613;3.3320;
159.9000;0.9573;3.3224;
160.2000;0.9581;3.3272;
160.5000;0.9605;3.3415;
160.8000;0.9621;3.3535;
161.1000;0.9565;3.3392;
161.4000;0.9589;3.3392;
161.7000;0.9548;3.3320;
162.0000;0.9589;3.3535;
162.3000;0.9581;3.3415;
162.6000;0.9524;3.3248;
162.9000;0.9613;3.3439;
163.2000;0.9565;3.3248;
163.5000;0.9581;3.3296;
163.8000;0.9581;3.3320;
164.1000;0.9581;3.3392;
164.4000;0.9573;3.3320;
164.7000;0.9581;3.3392;
165.0000;0.9565;3.3248;
165.3000;0.9597;3.3248;
165.6000;0.9565;3.3224;
165.9000;0.9589;3.3248;
166.2000;0.9597;3.3224;
166.5000;0.9638;3.3248;
166.8000;0.9597;3.3201;
167.1000;0.9613;3.3224;
167.4000;0.9573;3.3177;
167.7000;0.9638;3.3415;
168.0000;0.9597;3.3296;
168.3000;0.9589;3.3272;
168.6000;0.9581;3.3296;
168.9000;0.9589;3.3201;
169.2000;0.9589;3.3224;
169.5000;0.9581;3.3153;
169.8000;0.9540;3.3129;
170.1000;0.9605;3.3248;
170.4000;0.9573;3.3201;
170.7000;0.9573;3.3177;
171.0000;0.9573;3.3129;
171.3000;0.9565;3.3081;
171.6000;0.9581;3.3129;
171.9000;0.9597;3.3201;
172.2000;0.9597;3.3272;
172.5000;0.9589;3.3224;
172.8000;0.9589;3.3201;
173.1000;0.9630;3.3224;
173.4000;0.9621;3.3224;
173.7000;0.9597;3.3201;
174.0000;0.9581;3.3105;
174.3000;0.9597;3.3033;
174.6000;0.9605;3.3057;
174.9000;0.9630;3.3201;
175.2000;0.9597;3.3153;
175.5000;0.9589;3.3153;
175.8000;0.9589;3.3153;
176.1000;0.9597;3.3153;
176.4000;0.9613;3.3177;
176.7000;0.9597;3.3224;
177.0000;0.9589;3.3320;
177.3000;0.9524;3.3153;
177.6000;0.9573;3.3296;
177.9000;0.9605;3.3248;
178.2000;0.9597;3.3320;
178.5000;0.9540;3.3153;
178.8000;0.9581;3.3201;
179.1000;0.9573;3.3224;
179.4000;0.9605;3.3296;
179.7000;0.9556;3.3153;
180.0000;0.9589;3.3272;
180.3000;0.9589;3.3320;
180.6000;0.9613;3.3392;
180.9000;0.9597;3.3296;
181.2000;0.9597;3.3177;
181.5000;0.9573;3.3081;
181.8000;0.9589;3.3105;
182.1000;0.9605;3.3129;
182.4000;0.9597;3.3177;
182.7000;0.9646;3.3272;
183.0000;0.9556;3.3057;
183.3000;0.9581;3.3081;
183.6000;0.9581;3.3033;
183.9000;0.9565;3.3057;
184.2000;0.9621;3.3177;
184.5000;0.9589;3.3129;
184.8000;0.9589;3.3057;
185.1000;0.9581;3.2986;
185.4000;0.9581;3.3033;
185.7000;0.9589;3.3153;
186.0000;0.9589;3.3105;
186.3000;0.9532;3.2890;
186.6000;0.9613;3.3129;
186.9000;0.9589;3.3153;
187.2000;0.9589;3.3201;
187.5000;0.9589;3.3105;
187.8000;0.9597;3.3105;
188.1000;0.9630;3.3248;
188.4000;0.9581;3.3105;
188.7000;0.9597;3.3057;
189.0000;0.9565;3.2938;
189.3000;0.9597;3.3057;
189.6000;0.9613;3.3081;
189.9000;0.9589;3.2938;
190.2000;0.9589;3.2914;
190.5000;0.9581;3.3033;
190.8000;0.9589;3.3057;
191.1000;0.9589;3.3105;
191.4000;0.9597;3.3177;
191.7000;0.9581;3.3177;
192.0000;0.9597;3.3272;
192.3000;0.9589;3.3272;
192.6000;0.9589;3.3368;
192.9000;0.9548;3.3296;
193.2000;0.9581;3.3344;
193.5000;0.9589;3.3344;
193.8000;0.9565;3.3224;
194.1000;0.9573;3.3248;
194.4000;0.9581;3.3224;
194.7000;0.9662;3.3248;
195.0000;0.9597;3.3057;
195.3000;0.9589;3.2938;
195.6000;0.9581;3.3010;
195.9000;0.9589;3.3010;
196.2000;0.9573;3.2962;
196.5000;0.9565;3.3010;
196.8000;0.9532;3.2914;
197.1000;0.9589;3.2986;
197.4000;0.9589;3.2962;
197.7000;0.9556;3.2890;
198.0000;0.9581;3.2914;
198.3000;0.9613;3.3057;
198.6000;0.9573;3.2962;
198.9000;0.9581;3.2938;
199.2000;0.9589;3.2866;
199.5000;0.9565;3.2819;
199.8000;0.9597;3.2962;
200.1000;0.9581;3.2938;
200.4000;0.9532;3.2843;
200.7000;0.9573;3.3010;
201.0000;0.9654;3.3153;
201.3000;0.9605;3.3081;
201.6000;0.9581;3.3081;
201.9000;0.9597;3.3081;
202.2000;0.9621;3.3153;
202.5000;0.9662;3.3201;
202.8000;0.9597;3.3010;
203.1000;0.9589;3.3033;
203.4000;0.9589;3.2986;
203.7000;0.9597;3.3010;
204.0000;0.9621;3.3081;
204.3000;0.9581;3.2938;
204.6000;0.9581;3.2962;
204.9000;0.9605;3.3129;
205.2000;0.9597;3.3081;
205.5000;0.9524;3.2890;
205.8000;0.9573;3.3010;
206.1000;0.9573;3.3033;
206.4000;0.9573;3.2938;
206.7000;0.9589;3.3010;
207.0000;0.9589;3.2986;
207.3000;0.9548;3.2914;
207.6000;0.9573;3.3033;
207.9000;0.9589;3.3057;
208.2000;0.9621;3.3081;
208.5000;0.9589;3.2962;
208.8000;0.9565;3.2866;
209.1000;0.9597;3.2986;
209.4000;0.9581;3.2938;
209.7000;0.9516;3.2747;
210.0000;0.9597;3.3033;
210.3000;0.9589;3.2986;
210.6000;0.9589;3.3057;
210.9000;0.9597;3.3129;
211.2000;0.9597;3.3105;
211.5000;0.9589;3.3129;
211.8000;0.9581;3.3057;
212.1000;0.9581;3.3105;
212.4000;0.9581;3.3081;
212.7000;0.9581;3.3010;
213.0000;0.9573;3.3057;
213.3000;0.9565;3.3129;
213.6000;0.9589;3.3201;
213.9000;0.9589;3.3224;
214.2000;0.9597;3.3129;
214.5000;0.9589;3.3057;
214.8000;0.9605;3.3081;
215.1000;0.9605;3.3177;
215.4000;0.9597;3.3201;
215.7000;0.9589;3.3224;
216.0000;0.9597;3.3224;
216.3000;0.9605;3.3248;
216.6000;0.9581;3.3153;
216.9000;0.9605;3.3105;
217.2000;0.9573;3.3010;
217.5000;0.9589;3.3105;
217.8000;0.9483;3.2819;
218.1000;0.9605;3.3057;
218.4000;0.9581;3.2986;
218.7000;0.9573;3.3010;
219.0000;0.9573;3.3010;
219.3000;0.9573;3.2986;
219.6000;0.9573;3.2938;
219.9000;0.9589;3.2938;
220.2000;0.9573;3.2938;
220.5000;0.9581;3.3081;
220.8000;0.9589;3.3177;
221.1000;0.9581;3.3201;
221.4000;0.9589;3.3248;
221.7000;0.9573;3.3153;
222.0000;0.9646;3.3296;
222.3000;0.9613;3.3248;
222.6000;0.9581;3.3248;
222.9000;0.9589;3.3153;
223.2000;0.9581;3.3177;
223.5000;0.9573;3.3129;
223.8000;0.9581;3.3224;
224.1000;0.9573;3.3201;
224.4000;0.9556;3.3153;
224.7000;0.9573;3.3248;
225.0000;0.9597;3.3344;
225.3000;0.9556;3.3296;
225.6000;0.9573;3.3415;
225.9000;0.9573;3.3392;
226.2000;0.9573;3.3320;
226.5000;0.9597;3.3344;
226.8000;0.9573;3.3201;
227.1000;0.9573;3.3248;
227.4000;0.9565;3.3177;
227.7000;0.9589;3.3224;
228.0000;0.9597;3.3248;
228.3000;0.9613;3.3272;
228.6000;0.9565;3.3105;
228.9000;0.9589;3.3129;
229.2000;0.9565;3.3105;
229.5000;0.9573;3.3105;
229.8000;0.9589;3.3105;
230.1000;0.9556;3.2890;
230.4000;0.9573;3.2890;
230.7000;0.9565;3.2771;
231.0000;0.9573;3.2843;
231.3000;0.9581;3.2795;
231.6000;0.9597;3.2866;
231.9000;0.9597;3.2890;
232.2000;0.9540;3.2747;
232.5000;0.9597;3.2962;
232.8000;0.9597;3.3010;
233.1000;0.9597;3.3057;
233.4000;0.9613;3.3033;
233.7000;0.9589;3.3057;
234.0000;0.9613;3.3105;
234.3000;0.9589;3.3033;
234.6000;0.9589;3.3105;
234.9000;0.9581;3.3057;
235.2000;0.9589;3.3057;
235.5000;0.9589;3.3033;
235.8000;0.9581;3.3081;
236.1000;0.9573;3.2986;
236.4000;0.9581;3.3081;
236.7000;0.9573;3.3033;
237.0000;0.9597;3.3033;
237.3000;0.9597;3.2962;
237.6000;0.9597;3.3010;
237.9000;0.9597;3.3057;
238.2000;0.9589;3.3081;
238.5000;0.9581;3.3033;
238.8000;0.9589;3.3033;
239.1000;0.9597;3.3081;
239.4000;0.9589;3.3033;
239.7000;0.9573;3.2986;
240.0000;0.9573;3.2866;
240.3000;0.9573;3.2843;
240.6000;0.9589;3.2914;
240.9000;0.9548;3.2771;
241.2000;0.9581;3.2890;
241.5000;0.9589;3.2962;
241.8000;0.9589;3.3057;
242.1000;0.9589;3.3081;
242.4000;0.9573;3.3057;
242.7000;0.9573;3.3105;
243.0000;0.9597;3.3177;
243.3000;0.9589;3.3105;
243.6000;0.9548;3.2986;
243.9000;0.9605;3.3081;
244.2000;0.9613;3.3105;
244.5000;0.9597;3.2962;
244.8000;0.9589;3.2962;
245.1000;0.9573;3.3010;
245.4000;0.9565;3.2938;
245.7000;0.9589;3.2986;
246.0000;0.9565;3.3010;
246.3000;0.9581;3.2962;
246.6000;0.9597;3.2914;
246.9000;0.9638;3.2962;
247.2000;0.9548;3.2723;
247.5000;0.9597;3.2938;
247.8000;0.9581;3.2962;
248.1000;0.9605;3.3057;
248.4000;0.9565;3.2914;
248.7000;0.9573;3.2890;
249.0000;0.9597;3.2986;
249.3000;0.9581;3.2986;
249.6000;0.9589;3.2914;
249.9000;0.9597;3.3010;
250.2000;0.9597;3.3057;
250.5000;0.9589;3.3081;
250.8000;0.9678;3.3368;
251.1000;0.9613;3.3129;
251.4000;0.9573;3.3033;
251.7000;0.9589;3.3105;
252.0000;0.9613;3.3105;
252.3000;0.9605;3.2986;
252.6000;0.9613;3.3033;
252.9000;0.9597;3.3010;
253.2000;0.9605;3.3033;
253.5000;0.9589;3.2938;
253.8000;0.9638;3.3057;
254.1000;0.9548;3.2890;
254.4000;0.9589;3.3057;
254.7000;0.9581;3.3033;
255.0000;0.9589;3.3033;
255.3000;0.9581;3.3057;
255.6000;0.9589;3.3105;
255.9000;0.9589;3.3105;
256.2000;0.9638;3.3177;
256.5000;0.9605;3.3057;
256.8000;0.9581;3.2986;
257.1000;0.9662;3.3129;
257.4000;0.9597;3.3033;
257.7000;0.9524;3.2866;
258.0000;0.9589;3.3033;
258.3000;0.9613;3.3224;
258.6000;0.9589;3.3320;
258.9000;0.9581;3.3320;
259.2000;0.9589;3.3344;
259.5000;0.9605;3.3272;
259.8000;0.9654;3.3392;
260.1000;0.9589;3.3201;
260.4000;0.9573;3.3224;
260.7000;0.9589;3.3296;
261.0000;0.9597;3.3320;
261.3000;0.9573;3.3248;
261.6000;0.9581;3.3248;
261.9000;0.9589;3.3320;
262.2000;0.9605;3.3296;
262.5000;0.9581;3.3201;
262.8000;0.9524;3.2938;
263.1000;0.9581;3.3057;
263.4000;0.9597;3.3129;
263.7000;0.9589;3.3129;
264.0000;0.9573;3.3201;
264.3000;0.9589;3.3153;
264.6000;0.9589;3.3177;
264.9000;0.9540;3.3081;
265.2000;0.9597;3.3248;
265.5000;0.9589;3.3248;
265.8000;0.9597;3.3248;
266.1000;0.9597;3.3081;
266.4000;0.9605;3.3081;
266.7000;0.9597;3.3153;
267.0000;0.9621;3.3296;
267.3000;0.9605;3.3320;
267.6000;0.9548;3.3201;
267.9000;0.9613;3.3248;
268.2000;0.9581;3.3153;
268.5000;0.9597;3.3177;
268.8000;0.9589;3.3129;
269.1000;0.9597;3.3129;
269.4000;0.9573;3.3177;
269.7000;0.9589;3.3272;
270.0000;0.9581;3.3248;
270.3000;0.9573;3.3415;
270.6000;0.9573;3.3439;
270.9000;0.9589;3.3487;
271.2000;0.9581;3.3392;
271.5000;0.9597;3.3392;
271.8000;0.9597;3.3368;
272.1000;0.9605;3.3344;
272.4000;0.9597;3.3296;
272.7000;0.9597;3.3296;
273.0000;0.9581;3.3320;
273.3000;0.9589;3.3224;
273.6000;0.9573;3.3153;
273.9000;0.9589;3.3272;
274.2000;0.9573;3.3248;
274.5000;0.9532;3.3224;
274.8000;0.9581;3.3320;
275.1000;0.9573;3.3296;
275.4000;0.9508;3.3129;
275.7000;0.9573;3.3344;
276.0000;0.9573;3.3248;
276.3000;0.9605;3.3368;
276.6000;0.9573;3.3368;
276.9000;0.9589;3.3344;
277.2000;0.9589;3.3392;
277.5000;0.9589;3.3368;
277.8000;0.9662;3.3511;
278.1000;0.9548;3.3248;
278.4000;0.9597;3.3368;
278.7000;0.9662;3.3439;
279.0000;0.9589;3.3296;
279.3000;0.9565;3.3224;
279.6000;0.9589;3.3272;
279.9000;0.9540;3.3129;
280.2000;0.9581;3.3296;
280.5000;0.9581;3.3296;
280.8000;0.9581;3.3272;
281.1000;0.9565;3.3153;
281.4000;0.9597;3.3177;
281.7000;0.9589;3.3201;
282.0000;0.9613;3.3272;
282.3000;0.9605;3.3392;
282.6000;0.9613;3.3487;
282.9000;0.9589;3.3439;
283.2000;0.9581;3.3368;
283.5000;0.9597;3.3439;
283.8000;0.9548;3.3296;
284.1000;0.9573;3.3320;
284.4000;0.9573;3.3320;
284.7000;0.9565;3.3296;
285.0000;0.9605;3.3344;
285.3000;0.9573;3.3248;
285.6000;0.9589;3.3224;
285.9000;0.9589;3.3224;
286.2000;0.9605;3.3272;
286.5000;0.9540;3.3201;
286.8000;0.9548;3.3177;
287.1000;0.9605;3.3248;
287.4000;0.9556;3.3105;
287.7000;0.9687;3.3415;
288.0000;0.9589;3.3201;
288.3000;0.9581;3.3201;
288.6000;0.9573;3.3153;
288.9000;0.9597;3.3153;
289.2000;0.9565;3.3010;
289.5000;0.9565;3.2938;
289.8000;0.9573;3.3033;
290.1000;0.9565;3.3105;
290.4000;0.9581;3.3201;
290.7000;0.9581;3.3177;
291.0000;0.9565;3.3272;
291.3000;0.9581;3.3344;
291.6000;0.9630;3.3535;
291.9000;0.9589;3.3415;
292.2000;0.9581;3.3415;
292.5000;0.9581;3.3368;
292.8000;0.9581;3.3296;
293.1000;0.9573;3.3272;
293.4000;0.9638;3.3439;
293.7000;0.9597;3.3344;
294.0000;0.9646;3.3368;
294.3000;0.9711;3.3439;
294.6000;0.9589;3.3129;
294.9000;0.9589;3.3129;
295.2000;0.9581;3.3129;
295.5000;0.9556;3.3153;
295.8000;0.9573;3.3201;
296.1000;0.9573;3.3177;
296.4000;0.9499;3.2986;
296.7000;0.9565;3.3153;
297.0000;0.9573;3.3201;
297.3000;0.9556;3.3201;
297.6000;0.9613;3.3320;
297.9000;0.9589;3.3224;
298.2000;0.9532;3.3081;
298.5000;0.9540;3.3153;
298.8000;0.9581;3.3296;
299.1000;0.9597;3.3320;
299.4000;0.9581;3.3224;
299.7000;0.9573;3.3201;
300.0000;0.9581;3.3177;
300.3000;0.9581;3.3129;
300.6000;0.9565;3.3129;
300.9000;0.9581;3.3129;
301.2000;0.9573;3.3177;
301.5000;0.9654;3.3392;
301.8000;0.9638;3.3344;
302.1000;0.9597;3.3272;
302.4000;0.9597;3.3201;
302.7000;0.9630;3.3248;
303.0000;0.9589;3.3177;
303.3000;0.9589;3.3153;
303.6000;0.9589;3.3177;
303.9000;0.9589;3.3201;
304.2000;0.9581;3.3177;
304.5000;0.9589;3.3224;
304.8000;0.9565;3.3248;
305.1000;0.9581;3.3272;
305.4000;0.9581;3.3344;
305.7000;0.9605;3.3392;
306.0000;0.9621;3.3463;
306.3000;0.9581;3.3296;
306.6000;0.9597;3.3320;
306.9000;0.9597;3.3248;
307.2000;0.9556;3.3081;
307.5000;0.9573;3.3224;
307.8000;0.9589;3.3248;
308.1000;0.9581;3.3296;
308.4000;0.9565;3.3248;
308.7000;0.9573;3.3296;
309.0000;0.9581;3.3296;
309.3000;0.9589;3.3415;
309.6000;0.9581;3.3368;
309.9000;0.9589;3.3368;
310.2000;0.9581;3.3177;
310.5000;0.9581;3.3105;
310.8000;0.9573;3.3248;
311.1000;0.9573;3.3129;
311.4000;0.9540;3.3057;
311.7000;0.9589;3.3224;
312.0000;0.9581;3.3224;
312.3000;0.9581;3.3248;
312.6000;0.9581;3.3201;
312.9000;0.9581;3.3224;
313.2000;0.9581;3.3201;
313.5000;0.9540;3.3081;
313.8000;0.9573;3.3177;
314.1000;0.9589;3.3224;
314.4000;0.9589;3.3081;
314.7000;0.9573;3.3153;
315.0000;0.9581;3.3081;
315.3000;0.9581;3.3153;
315.6000;0.9556;3.3105;
315.9000;0.9573;3.3129;
316.2000;0.9573;3.3153;
316.5000;0.9556;3.3105;
316.8000;0.9573;3.3129;
317.1000;0.9581;3.3153;
317.4000;0.9597;3.3248;
317.7000;0.9589;3.3153;
318.0000;0.9589;3.3201;
318.3000;0.9605;3.3248;
318.6000;0.9621;3.3224;
318.9000;0.9597;3.3129;
319.2000;0.9597;3.3081;
319.5000;0.9589;3.3010;
319.8000;0.9597;3.3010;
320.1000;0.9589;3.3057;
320.4000;0.9597;3.3081;
320.7000;0.9654;3.3201;
321.0000;0.9597;3.3177;
321.3000;0.9499;3.3033;
321.6000;0.9573;3.3224;
321.9000;0.9597;3.3272;
322.2000;0.9605;3.3320;
322.5000;0.9581;3.3320;
322.8000;0.9597;3.3392;
323.1000;0.9630;3.3511;
323.4000;0.9605;3.3415;
323.7000;0.9581;3.3344;
324.0000;0.9597;3.3296;
324.3000;0.9597;3.3320;
324.6000;0.9597;3.3368;
324.9000;0.9589;3.3272;
325.2000;0.9589;3.3272;
325.5000;0.9597;3.3272;
325.8000;0.9589;3.3177;
326.1000;0.9573;3.3177;
326.4000;0.9581;3.3272;
326.7000;0.9556;3.3201;
327.0000;0.9573;3.3272;
327.3000;0.9556;3.3201;
327.6000;0.9581;3.3248;
327.9000;0.9581;3.3296;
328.2000;0.9646;3.3487;
328.5000;0.9589;3.3320;
328.8000;0.9548;3.3248;
329.1000;0.9573;3.3296;
329.4000;0.9565;3.3224;
329.7000;0.9597;3.3272;
330.0000;0.9573;3.3224;
330.3000;0.9581;3.3248;
330.6000;0.9565;3.3201;
330.9000;0.9589;3.3344;
331.2000;0.9581;3.3392;
331.5000;0.9581;3.3344;
331.8000;0.9597;3.3463;
332.1000;0.9540;3.3344;
332.4000;0.9556;3.3296;
332.7000;0.9573;3.3320;
333.0000;0.9589;3.3296;
333.3000;0.9605;3.3296;
333.6000;0.9613;3.3272;
333.9000;0.9573;3.3248;
334.2000;0.9581;3.3177;
334.5000;0.9556;3.3129;
334.8000;0.9565;3.3224;
335.1000;0.9573;3.3177;
335.4000;0.9556;3.3105;
335.7000;0.9581;3.3105;
336.0000;0.9573;3.3105;
336.3000;0.9597;3.3105;
336.6000;0.9565;3.3129;
336.9000;0.9638;3.3368;
337.2000;0.9573;3.3201;
337.5000;0.9573;3.3129;
337.8000;0.9597;3.3153;
338.1000;0.9589;3.3153;
338.4000;0.9581;3.3201;
338.7000;0.9581;3.3153;
339.0000;0.9589;3.3177;
339.3000;0.9589;3.3105;
339.6000;0.9581;3.3153;
339.9000;0.9597;3.3105;
340.2000;0.9597;3.3129;
340.5000;0.9581;3.3105;
340.8000;0.9581;3.2986;
341.1000;0.9532;3.2938;
341.4000;0.9605;3.3081;
341.7000;0.9581;3.2962;
342.0000;0.9573;3.2962;
342.3000;0.9573;3.2866;
342.6000;0.9565;3.2866;
342.9000;0.9589;3.3010;
343.2000;0.9556;3.2962;
343.5000;0.9589;3.3057;
343.8000;0.9581;3.3010;
344.1000;0.9589;3.3105;
344.4000;0.9573;3.3153;
344.7000;0.9581;3.3224;
345.0000;0.9581;3.3392;
345.3000;0.9573;3.3368;
345.6000;0.9711;3.3678;
345.9000;0.9589;3.3392;
346.2000;0.9565;3.3368;
346.5000;0.9581;3.3368;
346.8000;0.9581;3.3392;
347.1000;0.9581;3.3463;
347.4000;0.9589;3.3487;
347.7000;0.9597;3.3439;
348.0000;0.9581;3.3415;
348.3000;0.9556;3.3320;
348.6000;0.9638;3.3535;
348.9000;0.9581;3.3439;
349.2000;0.9540;3.3296;
349.5000;0.9597;3.3439;
349.8000;0.9589;3.3296;
350.1000;0.9621;3.3392;
350.4000;0.9573;3.3296;
350.7000;0.9638;3.3415;
351.0000;0.9581;3.3272;
351.3000;0.9597;3.3272;
351.6000;0.9581;3.3248;
351.9000;0.9597;3.3248;
352.2000;0.9597;3.3248;
352.5000;0.9613;3.3248;
352.8000;0.9589;3.3201;
353.1000;0.9581;3.3129;
353.4000;0.9613;3.3248;
353.7000;0.9589;3.3248;
354.0000;0.9589;3.3153;
354.3000;0.9581;3.3129;
354.6000;0.9589;3.3201;
354.9000;0.9581;3.3177;
355.2000;0.9581;3.3129;
355.5000;0.9573;3.3153;
355.8000;0.9573;3.3129;
356.1000;0.9589;3.3153;
356.4000;0.9581;3.3177;
356.7000;0.9581;3.3153;
357.0000;0.9548;3.3129;
357.3000;0.9597;3.3296;
357.6000;0.9499;3.3129;
357.9000;0.9581;3.3344;
358.2000;0.9589;3.3248;
358.5000;0.9605;3.3201;
358.8000;0.9589;3.3201;
359.1000;0.9597;3.3224;
359.4000;0.9565;3.3224;
359.7000;0.9573;3.3272;
360.0000;0.9581;3.3296;
360.3000;0.9556;3.3177;
360.6000;0.9524;3.3129;
360.9000;0.9581;3.3320;
361.2000;0.9597;3.3368;
361.5000;0.9565;3.3272;
361.8000;0.9589;3.3344;
362.1000;0.9597;3.3392;
362.4000;0.9565;3.3368;
362.7000;0.9589;3.3439;
363.0000;0.9508;3.3129;
363.3000;0.9581;3.3248;
363.6000;0.9597;3.3344;
363.9000;0.9565;3.3296;
364.2000;0.9573;3.3392;
364.5000;0.9556;3.3392;
364.8000;0.9646;3.3606;
365.1000;0.9573;3.3368;
365.4000;0.9581;3.3320;
365.7000;0.9597;3.3368;
366.0000;0.9621;3.3415;
366.3000;0.9581;3.3368;
366.6000;0.9581;3.3344;
366.9000;0.9695;3.3630;
367.2000;0.9581;3.3368;
367.5000;0.9662;3.3630;
367.8000;0.9597;3.3415;
368.1000;0.9597;3.3463;
368.4000;0.9589;3.3439;
368.7000;0.9597;3.3392;
369.0000;0.9573;3.3177;
369.3000;0.9581;3.3177;
369.6000;0.9589;3.3296;
369.9000;0.9589;3.3296;
370.2000;0.9573;3.3177;
370.5000;0.9573;3.3201;
370.8000;0.9532;3.3153;
371.1000;0.9605;3.3320;
371.4000;0.9589;3.3320;
371.7000;0.9548;3.3177;
372.0000;0.9573;3.3248;
372.3000;0.9646;3.3368;
372.6000;0.9589;3.3320;
372.9000;0.9597;3.3344;
373.2000;0.9589;3.3368;
373.5000;0.9581;3.3320;
373.8000;0.9581;3.3344;
374.1000;0.9548;3.3224;
374.4000;0.9581;3.3296;
374.7000;0.9573;3.3272;
375.0000;0.9573;3.3296;
375.3000;0.9589;3.3344;
375.6000;0.9565;3.3320;
375.9000;0.9573;3.3392;
376.2000;0.9581;3.3368;
376.5000;0.9556;3.3320;
376.8000;0.9597;3.3320;
377.1000;0.9589;3.3344;
377.4000;0.9548;3.3296;
377.7000;0.9597;3.3344;
378.0000;0.9589;3.3296;
378.3000;0.9597;3.3320;
378.6000;0.9589;3.3296;
378.9000;0.9605;3.3296;
379.2000;0.9565;3.3248;
379.5000;0.9613;3.3344;
379.8000;0.9613;3.3344;
380.1000;0.9581;3.3296;
380.4000;0.9589;3.3392;
380.7000;0.9565;3.3320;
381.0000;0.9573;3.3272;
381.3000;0.9589;3.3224;
381.6000;0.9556;3.3177;
381.9000;0.9581;3.3272;
382.2000;0.9589;3.3320;
382.5000;0.9646;3.3415;
382.8000;0.9573;3.3272;
383.1000;0.9581;3.3368;
383.4000;0.9589;3.3344;
383.7000;0.9565;3.3296;
384.0000;0.9589;3.3344;
384.3000;0.9581;3.3344;
384.6000;0.9589;3.3344;
384.9000;0.9581;3.3392;
385.2000;0.9597;3.3344;
385.5000;0.9589;3.3320;
385.8000;0.9581;3.3368;
386.1000;0.9565;3.3368;
386.4000;0.9581;3.3392;
386.7000;0.9589;3.3415;
387.0000;0.9573;3.3272;
387.3000;0.9573;3.3272;
387.6000;0.9589;3.3248;
387.9000;0.9630;3.3392;
388.2000;0.9581;3.3272;
388.5000;0.9573;3.3248;
388.8000;0.9548;3.3105;
389.1000;0.9597;3.3201;
389.4000;0.9589;3.3177;
389.7000;0.9581;3.3224;
390.0000;0.9573;3.3201;
390.3000;0.9638;3.3392;
390.6000;0.9597;3.3272;
390.9000;0.9573;3.3272;
391.2000;0.9565;3.3344;
391.5000;0.9581;3.3368;
391.8000;0.9565;3.3320;
392.1000;0.9589;3.3296;
392.4000;0.9605;3.3296;
392.7000;0.9613;3.3392;
393.0000;0.9605;3.3344;
393.3000;0.9597;3.3320;
393.6000;0.9589;3.3368;
393.9000;0.9573;3.3320;
394.2000;0.9581;3.3296;
394.5000;0.9581;3.3320;
394.8000;0.9581;3.3296;
395.1000;0.9605;3.3248;
395.4000;0.9589;3.3201;
395.7000;0.9548;3.3153;
396.0000;0.9548;3.3105;
396.3000;0.9573;3.3081;
396.6000;0.9597;3.3105;
396.9000;0.9613;3.3105;
397.2000;0.9589;3.3105;
397.5000;0.9573;3.3033;
397.8000;0.9508;3.2914;
398.1000;0.9589;3.3105;
398.4000;0.9581;3.3105;
398.7000;0.9565;3.3081;
399.0000;0.9573;3.3153;
399.3000;0.9589;3.3224;
399.6000;0.9589;3.3201;
399.9000;0.9630;3.3344;
400.2000;0.9581;3.3272;
400.5000;0.9581;3.3272;
400.8000;0.9605;3.3368;
401.1000;0.9565;3.3272;
401.4000;0.9573;3.3368;
401.7000;0.9589;3.3368;
402.0000;0.9597;3.3415;
402.3000;0.9581;3.3392;
402.6000;0.9605;3.3463;
402.9000;0.9581;3.3224;
403.2000;0.9589;3.3224;
403.5000;0.9613;3.3272;
403.8000;0.9581;3.3272;
404.1000;0.9589;3.3344;
404.4000;0.9581;3.3344;
404.7000;0.9605;3.3368;
405.0000;0.9589;3.3344;
405.3000;0.9581;3.3296;
405.6000;0.9605;3.3344;
405.9000;0.9605;3.3296;
406.2000;0.9581;3.3248;
406.5000;0.9589;3.3153;
406.8000;0.9581;3.3248;
407.1000;0.9565;3.3272;
407.4000;0.9565;3.3296;
407.7000;0.9589;3.3368;
408.0000;0.9589;3.3415;
408.3000;0.9589;3.3463;
408.6000;0.9581;3.3463;
408.9000;0.9581;3.3463;
409.2000;0.9589;3.3344;
409.5000;0.9605;3.3344;
409.8000;0.9581;3.3272;
410.1000;0.9573;3.3272;
410.4000;0.9532;3.3248;
410.7000;0.9613;3.3368;
411.0000;0.9581;3.3368;
411.3000;0.9597;3.3415;
411.6000;0.9581;3.3392;
411.9000;0.9581;3.3415;
412.2000;0.9573;3.3392;
412.5000;0.9621;3.3535;
412.8000;0.9573;3.3368;
413.1000;0.9597;3.3344;
413.4000;0.9597;3.3344;
413.7000;0.9556;3.3296;
414.0000;0.9581;3.3296;
414.3000;0.9589;3.3296;
414.6000;0.9605;3.3296;
414.9000;0.9589;3.3344;
415.2000;0.9687;3.3654;
415.5000;0.9565;3.3368;
415.8000;0.9573;3.3344;
416.1000;0.9581;3.3296;
416.4000;0.9573;3.3201;
416.7000;0.9548;3.3201;
417.0000;0.9589;3.3344;
417.3000;0.9573;3.3224;
417.6000;0.9565;3.3201;
417.9000;0.9589;3.3272;
418.2000;0.9573;3.3248;
418.5000;0.9597;3.3296;
418.8000;0.9565;3.3129;
419.1000;0.9573;3.3201;
419.4000;0.9589;3.3177;
419.7000;0.9605;3.3272;
420.0000;0.9597;3.3296;
420.3000;0.9638;3.3439;
420.6000;0.9589;3.3415;
420.9000;0.9589;3.3392;
421.2000;0.9581;3.3368;
421.5000;0.9573;3.3344;
421.8000;0.9581;3.3368;
422.1000;0.9548;3.3344;
422.4000;0.9589;3.3582;
422.7000;0.9573;3.3511;
423.0000;0.9589;3.3439;
423.3000;0.9597;3.3439;
423.6000;0.9597;3.3392;
423.9000;0.9589;3.3368;
424.2000;0.9565;3.3224;
424.5000;0.9597;3.3296;
424.8000;0.9573;3.3320;
425.1000;0.9581;3.3415;
425.4000;0.9581;3.3463;
425.7000;0.9573;3.3344;
426.0000;0.9573;3.3392;
426.3000;0.9573;3.3392;
426.6000;0.9565;3.3344;
426.9000;0.9573;3.3320;
427.2000;0.9573;3.3248;
427.5000;0.9597;3.3344;
427.8000;0.9589;3.3368;
428.1000;0.9573;3.3344;
428.4000;0.9605;3.3415;
428.7000;0.9605;3.3487;
429.0000;0.9565;3.3296;
429.3000;0.9581;3.3415;
429.6000;0.9589;3.3463;
429.9000;0.9589;3.3463;
430.2000;0.9589;3.3392;
430.5000;0.9630;3.3415;
430.8000;0.9573;3.3320;
431.1000;0.9581;3.3415;
431.4000;0.9597;3.3463;
431.7000;0.9589;3.3392;
432.0000;0.9581;3.3368;
432.3000;0.9638;3.3511;
432.6000;0.9589;3.3415;
432.9000;0.9581;3.3320;
433.2000;0.9597;3.3368;
433.5000;0.9613;3.3487;
433.8000;0.9605;3.3463;
434.1000;0.9573;3.3439;
434.4000;0.9565;3.3296;
434.7000;0.9573;3.3296;
435.0000;0.9597;3.3344;
435.3000;0.9573;3.3296;
435.6000;0.9565;3.3272;
435.9000;0.9565;3.3344;
436.2000;0.9581;3.3511;
436.5000;0.9565;3.3463;
436.8000;0.9573;3.3439;
437.1000;0.9581;3.3439;
437.4000;0.9670;3.3678;
437.7000;0.9613;3.3463;
438.0000;0.9581;3.3320;
438.3000;0.9573;3.3320;
438.6000;0.9589;3.3392;
438.9000;0.9581;3.3487;
439.2000;0.9589;3.3487;
439.5000;0.9581;3.3487;
439.8000;0.9589;3.3487;
440.1000;0.9621;3.3487;
440.4000;0.9573;3.3368;
440.7000;0.9491;3.3272;
441.0000;0.9565;3.3439;
441.3000;0.9565;3.3415;
441.6000;0.9556;3.3368;
441.9000;0.9581;3.3439;
442.2000;0.9491;3.3224;
442.5000;0.9565;3.3392;
442.8000;0.9573;3.3439;
443.1000;0.9565;3.3439;
443.4000;0.9556;3.3415;
443.7000;0.9581;3.3392;
444.0000;0.9581;3.3439;
444.3000;0.9548;3.3415;
444.6000;0.9605;3.3463;
444.9000;0.9581;3.3463;
445.2000;0.9491;3.3463;
445.5000;0.9589;3.3630;
445.8000;0.9581;3.3606;
446.1000;0.9581;3.3559;
446.4000;0.9581;3.3487;
446.7000;0.9605;3.3487;
447.0000;0.9573;3.3248;
447.3000;0.9605;3.3272;
447.6000;0.9589;3.3296;
447.9000;0.9597;3.3368;
448.2000;0.9581;3.3320;
448.5000;0.9581;3.3392;
448.8000;0.9573;3.3248;
449.1000;0.9605;3.3272;
449.4000;0.9548;3.3081;
449.7000;0.9589;3.3153;
450.0000;0.9597;3.3201;
450.3000;0.9605;3.3201;
450.6000;0.9573;3.3177;
450.9000;0.9581;3.3177;
451.2000;0.9565;3.3248;
451.5000;0.9589;3.3344;
451.8000;0.9589;3.3320;
452.1000;0.9532;3.3129;
452.4000;0.9573;3.3248;
452.7000;0.9556;3.3248;
453.0000;0.9573;3.3224;
453.3000;0.9565;3.3201;
453.6000;0.9581;3.3248;
453.9000;0.9556;3.3248;
454.2000;0.9573;3.3201;
454.5000;0.9565;3.3177;
454.8000;0.9573;3.3081;
455.1000;0.9581;3.3057;
455.4000;0.9573;3.3105;
455.7000;0.9532;3.3033;
456.0000;0.9573;3.3105;
456.3000;0.9589;3.3129;
456.6000;0.9573;3.3081;
456.9000;0.9556;3.3153;
457.2000;0.9548;3.3057;
457.5000;0.9581;3.3272;
457.8000;0.9589;3.3248;
458.1000;0.9589;3.3201;
458.4000;0.9565;3.3153;
458.7000;0.9556;3.3129;
459.0000;0.9532;3.3081;
459.3000;0.9573;3.3153;
459.6000;0.9581;3.3177;
459.9000;0.9573;3.3272;
460.2000;0.9532;3.3153;
460.5000;0.9581;3.3248;
460.8000;0.9581;3.3224;
461.1000;0.9573;3.3177;
461.4000;0.9573;3.3224;
461.7000;0.9605;3.3344;
462.0000;0.9573;3.3344;
462.3000;0.9499;3.3296;
462.6000;0.9613;3.3463;
462.9000;0.9581;3.3344;
463.2000;0.9573;3.3272;
463.5000;0.9646;3.3439;
463.8000;0.9581;3.3248;
464.1000;0.9589;3.3248;
464.4000;0.9589;3.3296;
464.7000;0.9532;3.3153;
465.0000;0.9565;3.3320;
465.3000;0.9565;3.3392;
465.6000;0.9597;3.3535;
465.9000;0.9565;3.3535;
466.2000;0.9565;3.3511;
466.5000;0.9573;3.3535;
466.8000;0.9573;3.3630;
467.1000;0.9565;3.3511;
467.4000;0.9573;3.3415;
467.7000;0.9573;3.3439;
468.0000;0.9565;3.3248;
468.3000;0.9565;3.3320;
468.6000;0.9581;3.3320;
468.9000;0.9573;3.3248;
469.2000;0.9565;3.3201;
469.5000;0.9605;3.3368;
469.8000;0.9581;3.3368;
470.1000;0.9589;3.3344;
470.4000;0.9589;3.3320;
470.7000;0.9589;3.3153;
471.0000;0.9589;3.3201;
471.3000;0.9573;3.3177;
471.6000;0.9565;3.3272;
471.9000;0.9581;3.3320;
472.2000;0.9565;3.3224;
472.5000;0.9565;3.3201;
472.8000;0.9581;3.3153;
473.1000;0.9597;3.3201;
473.4000;0.9589;3.3177;
473.7000;0.9581;3.3129;
474.0000;0.9581;3.3105;
474.3000;0.9589;3.3153;
474.6000;0.9589;3.3248;
474.9000;0.9630;3.3392;
475.2000;0.9597;3.3296;
475.5000;0.9581;3.3248;
475.8000;0.9581;3.3224;
476.1000;0.9581;3.3224;
476.4000;0.9573;3.3272;
476.7000;0.9581;3.3272;
477.0000;0.9589;3.3248;
477.3000;0.9581;3.3177;
477.6000;0.9565;3.3105;
477.9000;0.9581;3.3081;
478.2000;0.9581;3.3057;
478.5000;0.9573;3.3010;
478.8000;0.9581;3.3081;
479.1000;0.9581;3.2986;
479.4000;0.9589;3.3105;
479.7000;0.9589;3.3105;
480.0000;0.9573;3.3057;
480.3000;0.9589;3.3081;
480.6000;0.9565;3.3105;
480.9000;0.9565;3.3033;
481.2000;0.9573;3.3010;
481.5000;0.9573;3.3105;
481.8000;0.9565;3.3081;
482.1000;0.9589;3.3224;
482.4000;0.9589;3.3248;
482.7000;0.9556;3.3129;
483.0000;0.9589;3.3201;
483.3000;0.9573;3.3129;
483.6000;0.9540;3.3033;
483.9000;0.9573;3.3201;
484.2000;0.9581;3.3224;
484.5000;0.9589;3.3248;
484.8000;0.9605;3.3248;
485.1000;0.9581;3.3224;
485.4000;0.9565;3.3224;
485.7000;0.9565;3.3272;
486.0000;0.9597;3.3272;
486.3000;0.9589;3.3296;
486.6000;0.9581;3.3320;
486.9000;0.9662;3.3559;
487.2000;0.9532;3.3296;
487.5000;0.9573;3.3344;
487.8000;0.9565;3.3296;
488.1000;0.9573;3.3368;
488.4000;0.9589;3.3415;
488.7000;0.9589;3.3439;
489.0000;0.9573;3.3463;
489.3000;0.9565;3.3511;
489.6000;0.9597;3.3559;
489.9000;0.9565;3.3487;
490.2000;0.9508;3.3344;
490.5000;0.9556;3.3344;
490.8000;0.9670;3.3535;
491.1000;0.9589;3.3296;
491.4000;0.9556;3.3320;
491.7000;0.9516;3.3296;
492.0000;0.9556;3.3344;
492.3000;0.9573;3.3320;
492.6000;0.9573;3.3296;
492.9000;0.9581;3.3272;
493.2000;0.9597;3.3224;
493.5000;0.9581;3.3153;
493.8000;0.9621;3.3105;
494.1000;0.9573;3.3057;
494.4000;0.9573;3.3153;
494.7000;0.9565;3.3224;
495.0000;0.9581;3.3201;
495.3000;0.9573;3.3201;
495.6000;0.9581;3.3201;
495.9000;0.9565;3.3177;
496.2000;0.9573;3.3177;
496.5000;0.9581;3.3177;
496.8000;0.9540;3.3057;
497.1000;0.9573;3.3201;
497.4000;0.9597;3.3272;
497.7000;0.9589;3.3224;
498.0000;0.9565;3.3153;
498.3000;0.9581;3.3153;
498.6000;0.9581;3.3177;
498.9000;0.9540;3.3105;
499.2000;0.9565;3.3105;
499.5000;0.9597;3.3177;
499.8000;0.9556;3.3033;
500.1000;0.9581;3.3105;
500.4000;0.9565;3.3057;
500.7000;0.9573;3.3057;
501.0000;0.9556;3.2938;
501.3000;0.9597;3.2986;
501.6000;0.9565;3.2938;
501.9000;0.9540;3.2914;
502.2000;0.9573;3.2890;
502.5000;0.9556;3.2795;
502.8000;0.9638;3.3010;
503.1000;0.9573;3.2843;
503.4000;0.9605;3.2866;
503.7000;0.9589;3.2938;
504.0000;0.9565;3.2962;
504.3000;0.9589;3.3033;
504.6000;0.9540;3.2938;
504.9000;0.9573;3.3081;
505.2000;0.9589;3.3105;
505.5000;0.9508;3.2938;
505.8000;0.9581;3.3033;
506.1000;0.9589;3.3033;
506.4000;0.9597;3.3081;
506.7000;0.9613;3.3105;
507.0000;0.9589;3.3010;
507.3000;0.9589;3.3010;
507.6000;0.9589;3.2986;
507.9000;0.9589;3.2962;
508.2000;0.9646;3.3201;
508.5000;0.9581;3.3224;
508.8000;0.9597;3.3248;
509.1000;0.9605;3.3272;
509.4000;0.9589;3.3224;
509.7000;0.9589;3.3129;
510.0000;0.9565;3.3105;
510.3000;0.9565;3.3201;
510.6000;0.9581;3.3272;
510.9000;0.9565;3.3153;
511.2000;0.9556;3.3081;
511.5000;0.9573;3.3129;
511.8000;0.9548;3.3105;
512.1000;0.9499;3.2938;
512.4000;0.9556;3.3153;
512.7000;0.9508;3.3033;
513.0000;0.9499;3.3033;
513.3000;0.9548;3.3153;
513.6000;0.9573;3.3201;
513.9000;0.9597;3.3344;
514.2000;0.9556;3.3272;
514.5000;0.9556;3.3248;
514.8000;0.9556;3.3248;
515.1000;0.9630;3.3439;
515.4000;0.9581;3.3272;
515.7000;0.9556;3.3153;
516.0000;0.9589;3.3177;
516.3000;0.9646;3.3392;
516.6000;0.9565;3.3105;
516.9000;0.9581;3.3153;
517.2000;0.9581;3.3153;
517.5000;0.9581;3.3177;
517.8000;0.9581;3.3272;
518.1000;0.9589;3.3320;
518.4000;0.9573;3.3272;
518.7000;0.9581;3.3272;
519.0000;0.9556;3.3201;
519.3000;0.9565;3.3296;
519.6000;0.9581;3.3368;
519.9000;0.9516;3.3272;
520.2000;0.9573;3.3463;
520.5000;0.9565;3.3439;
520.8000;0.9573;3.3368;
521.1000;0.9573;3.3344;
521.4000;0.9532;3.3201;
521.7000;0.9581;3.3248;
522.0000;0.9565;3.3224;
522.3000;0.9565;3.3201;
522.6000;0.9532;3.3057;
522.9000;0.9540;3.3081;
523.2000;0.9556;3.3105;
523.5000;0.9556;3.3033;
523.8000;0.9573;3.3081;
524.1000;0.9573;3.3057;
524.4000;0.9581;3.3081;
524.7000;0.9573;3.3057;
525.0000;0.9589;3.3129;
525.3000;0.9589;3.3105;
525.6000;0.9573;3.3081;
525.9000;0.9573;3.3105;
526.2000;0.9540;3.3057;
526.5000;0.9565;3.3153;
526.8000;0.9573;3.3201;
527.1000;0.9556;3.3153;
527.4000;0.9548;3.3153;
527.7000;0.9573;3.3224;
528.0000;0.9605;3.3320;
528.3000;0.9548;3.3272;
528.6000;0.9548;3.3248;
528.9000;0.9581;3.3224;
529.2000;0.9638;3.3392;
529.5000;0.9565;3.3177;
529.8000;0.9573;3.3153;
530.1000;0.9621;3.3296;
530.4000;0.9573;3.3201;
530.7000;0.9589;3.3224;
531.0000;0.9548;3.3105;
531.3000;0.9573;3.3105;
531.6000;0.9491;3.2986;
531.9000;0.9581;3.3153;
532.2000;0.9459;3.2914;
532.5000;0.9605;3.3248;
532.8000;0.9589;3.3248;
533.1000;0.9589;3.3344;
533.4000;0.9565;3.3320;
533.7000;0.9581;3.3368;
534.0000;0.9581;3.3368;
534.3000;0.9581;3.3272;
534.6000;0.9573;3.3201;
534.9000;0.9654;3.3439;
535.2000;0.9581;3.3272;
535.5000;0.9581;3.3201;
535.8000;0.9540;3.3105;
536.1000;0.9565;3.3105;
536.4000;0.9581;3.3272;
536.7000;0.9532;3.3105;
537.0000;0.9573;3.3224;
537.3000;0.9565;3.3201;
537.6000;0.9573;3.3248;
537.9000;0.9573;3.3224;
538.2000;0.9597;3.3201;
538.5000;0.9573;3.3105;
538.8000;0.9565;3.3105;
539.1000;0.9565;3.3129;
539.4000;0.9565;3.3129;
539.7000;0.9524;3.3010;
540.0000;0.9565;3.3129;
540.3000;0.9589;3.3177;
540.6000;0.9581;3.3201;
540.9000;0.9589;3.3296;
541.2000;0.9565;3.3248;
541.5000;0.9589;3.3248;
541.8000;0.9597;3.3272;
542.1000;0.9565;3.3272;
542.4000;0.9565;3.3272;
542.7000;0.9573;3.3296;
543.0000;0.9581;3.3320;
543.3000;0.9597;3.3344;
543.6000;0.9565;3.3272;
543.9000;0.9581;3.3344;
544.2000;0.9565;3.3272;
544.5000;0.9540;3.3129;
544.8000;0.9573;3.3177;
545.1000;0.9573;3.3201;
545.4000;0.9565;3.3224;
545.7000;0.9605;3.3344;
546.0000;0.9565;3.3248;
546.3000;0.9581;3.3224;
546.6000;0.9565;3.3081;
546.9000;0.9573;3.3105;
547.2000;0.9565;3.3081;
547.5000;0.9556;3.3081;
547.8000;0.9556;3.3010;
548.1000;0.9556;3.3033;
548.4000;0.9573;3.3057;
548.7000;0.9565;3.3010;
549.0000;0.9548;3.2986;
549.3000;0.9573;3.2986;
549.6000;0.9573;3.3057;
549.9000;0.9565;3.2986;
550.2000;0.9573;3.3033;
550.5000;0.9556;3.3010;
550.8000;0.9556;3.3033;
551.1000;0.9556;3.3033;
551.4000;0.9565;3.3129;
551.7000;0.9556;3.2986;
552.0000;0.9565;3.3010;
552.3000;0.9524;3.2914;
552.6000;0.9565;3.3033;
552.9000;0.9565;3.3033;
553.2000;0.9532;3.2962;
553.5000;0.9589;3.3129;
553.8000;0.9589;3.3105;
554.1000;0.9556;3.3057;
554.4000;0.9581;3.3129;
554.7000;0.9573;3.3010;
555.0000;0.9556;3.2962;
555.3000;0.9556;3.3033;
555.6000;0.9532;3.3010;
555.9000;0.9565;3.3105;
556.2000;0.9597;3.3224;
556.5000;0.9565;3.2962;
556.8000;0.9581;3.2962;
557.1000;0.9581;3.3057;
557.4000;0.9581;3.3105;
557.7000;0.9573;3.3057;
558.0000;0.9540;3.3010;
558.3000;0.9630;3.3129;
558.6000;0.9581;3.2986;
558.9000;0.9573;3.2962;
559.2000;0.9613;3.3153;
559.5000;0.9573;3.3129;
559.8000;0.9548;3.3129;
560.1000;0.9605;3.3201;
560.4000;0.9565;3.3105;
560.7000;0.9573;3.3177;
561.0000;0.9565;3.3177;
561.3000;0.9605;3.3320;
561.6000;0.9556;3.3248;
561.9000;0.9573;3.3177;
562.2000;0.9581;3.3129;
562.5000;0.9532;3.3033;
562.8000;0.9581;3.3081;
563.1000;0.9565;3.3010;
563.4000;0.9581;3.3105;
563.7000;0.9556;3.3105;
564.0000;0.9565;3.3105;
564.3000;0.9597;3.3129;
564.6000;0.9589;3.3129;
564.9000;0.9589;3.3153;
565.2000;0.9589;3.3129;
565.5000;0.9540;3.2962;
565.8000;0.9581;3.3010;
566.1000;0.9581;3.3010;
566.4000;0.9613;3.3057;
566.7000;0.9565;3.2986;
567.0000;0.9581;3.3057;
567.3000;0.9589;3.3033;
567.6000;0.9621;3.3129;
567.9000;0.9565;3.2986;
568.2000;0.9556;3.2962;
568.5000;0.9548;3.2986;
568.8000;0.9565;3.3033;
569.1000;0.9573;3.3033;
569.4000;0.9589;3.3105;
569.7000;0.9556;3.3010;
570.0000;0.9573;3.3010;
570.3000;0.9540;3.2938;
570.6000;0.9573;3.3033;
570.9000;0.9573;3.3010;
571.2000;0.9565;3.3010;
571.5000;0.9573;3.3010;
571.8000;0.9573;3.3033;
572.1000;0.9573;3.3010;
572.4000;0.9556;3.3010;
572.7000;0.9565;3.3057;
573.0000;0.9548;3.3010;
573.3000;0.9573;3.3033;
573.6000;0.9573;3.3081;
573.9000;0.9573;3.3081;
574.2000;0.9565;3.3057;
574.5000;0.9565;3.2986;
574.8000;0.9573;3.3010;
575.1000;0.9581;3.3033;
575.4000;0.9565;3.3010;
575.7000;0.9565;3.2962;
576.0000;0.9565;3.2890;
576.3000;0.9565;3.2938;
576.6000;0.9565;3.2914;
576.9000;0.9573;3.2890;
577.2000;0.9581;3.2938;
577.5000;0.9581;3.2914;
577.8000;0.9573;3.2938;
578.1000;0.9532;3.2890;
578.4000;0.9565;3.3010;
578.7000;0.9540;3.3010;
579.0000;0.9589;3.3105;
579.3000;0.9556;3.3081;
579.6000;0.9581;3.3201;
579.9000;0.9565;3.3296;
580.2000;0.9483;3.3129;
580.5000;0.9467;3.3105;
580.8000;0.9581;3.3296;
581.1000;0.9621;3.3439;
581.4000;0.9573;3.3320;
581.7000;0.9548;3.3296;
582.0000;0.9508;3.3320;
582.3000;0.9565;3.3511;
582.6000;0.9581;3.3511;
582.9000;0.9573;3.3487;
583.2000;0.9548;3.3415;
583.5000;0.9556;3.3344;
583.8000;0.9516;3.3224;
584.1000;0.9573;3.3368;
584.4000;0.9565;3.3177;
584.7000;0.9556;3.3033;
585.0000;0.9573;3.2962;
585.3000;0.9581;3.2938;
585.6000;0.9556;3.2843;
585.9000;0.9565;3.2914;
586.2000;0.9573;3.2890;
586.5000;0.9573;3.2866;
586.8000;0.9565;3.2843;
587.1000;0.9581;3.2938;
587.4000;0.9581;3.3010;
587.7000;0.9565;3.3129;
588.0000;0.9565;3.3129;
588.3000;0.9581;3.3057;
588.6000;0.9573;3.2962;
588.9000;0.9589;3.3057;
589.2000;0.9573;3.2986;
589.5000;0.9548;3.2986;
589.8000;0.9662;3.3224;
590.1000;0.9548;3.3010;
590.4000;0.9581;3.3081;
590.7000;0.9573;3.3081;
591.0000;0.9540;3.3033;
591.3000;0.9565;3.3105;
591.6000;0.9573;3.3129;
591.9000;0.9532;3.2962;
592.2000;0.9548;3.3010;
592.5000;0.9548;3.3081;
592.8000;0.9565;3.3010;
593.1000;0.9556;3.3057;
593.4000;0.9556;3.3033;
593.7000;0.9556;3.3105;
594.0000;0.9630;3.3224;
594.3000;0.9556;3.3010;
594.6000;0.9573;3.3081;
594.9000;0.9565;3.3033;
595.2000;0.9573;3.3057;
595.5000;0.9524;3.2986;
595.8000;0.9556;3.3081;
596.1000;0.9556;3.3105;
596.4000;0.9565;3.3010;
596.7000;0.9565;3.3010;
597.0000;0.9540;3.2938;
597.3000;0.9565;3.2986;
597.6000;0.9581;3.3033;
597.9000;0.9573;3.3010;
598.2000;0.9670;3.3224;
598.5000;0.9565;3.3010;
598.8000;0.9581;3.3081;
599.1000;0.9565;3.3081;
599.4000;0.9589;3.3201;
599.7000;0.9573;3.3224;
600.0000;0.9548;3.3224;
600.3000;0.9597;3.3201;
600.6000;0.9613;3.3105;
600.9000;0.9581;3.2795;
601.2000;0.9630;3.2819;
601.5000;0.9475;3.2389;
601.8000;0.9434;3.2222;
602.1000;0.9345;3.2007;
602.4000;0.9231;3.1745;
602.7000;0.9255;3.1816;
603.0000;0.9141;3.1578;
603.3000;0.9084;3.1482;
603.6000;0.9003;3.1410;
603.9000;0.8962;3.1339;
604.2000;0.8913;3.1387;
604.5000;0.8848;3.1267;
604.8000;0.8832;3.1339;
605.1000;0.8824;3.1387;
605.4000;0.8734;3.1291;
605.7000;0.8685;3.1291;
606.0000;0.8637;3.1172;
606.3000;0.8580;3.1076;
606.6000;0.8555;3.0981;
606.9000;0.8506;3.0861;
607.2000;0.8474;3.0790;
607.5000;0.8433;3.0694;
607.8000;0.8417;3.0694;
608.1000;0.8384;3.0623;
608.4000;0.8319;3.0527;
608.7000;0.8295;3.0551;
609.0000;0.8278;3.0527;
609.3000;0.8262;3.0503;
609.6000;0.8221;3.0503;
609.9000;0.8173;3.0527;
610.2000;0.8148;3.0503;
610.5000;0.8148;3.0432;
610.8000;0.8091;3.0289;
611.1000;0.8067;3.0289;
611.4000;0.8034;3.0384;
611.7000;0.8018;3.0336;
612.0000;0.7985;3.0265;
612.3000;0.7945;3.0217;
612.6000;0.7896;3.0265;
612.9000;0.7863;3.0241;
613.2000;0.7896;3.0384;
613.5000;0.7855;3.0432;
613.8000;0.7831;3.0432;
614.1000;0.7823;3.0384;
614.4000;0.7766;3.0360;
614.7000;0.7774;3.0313;
615.0000;0.7725;3.0217;
615.3000;0.7700;3.0217;
615.6000;0.7692;3.0241;
615.9000;0.7611;3.0074;
616.2000;0.7643;3.0217;
616.5000;0.7627;3.0169;
616.8000;0.7619;3.0169;
617.1000;0.7595;3.0098;
617.4000;0.7570;3.0098;
617.7000;0.7546;2.9978;
618.0000;0.7513;2.9907;
618.3000;0.7513;3.0050;
618.6000;0.7489;3.0122;
618.9000;0.7473;3.0122;
619.2000;0.7448;3.0050;
619.5000;0.7448;3.0098;
619.8000;0.7448;3.0169;
620.1000;0.7416;3.0098;
620.4000;0.7407;3.0098;
620.7000;0.7424;3.0098;
621.0000;0.7375;3.0122;
621.3000;0.7350;3.0169;
621.6000;0.7350;3.0217;
621.9000;0.7350;3.0336;
622.2000;0.7318;3.0289;
622.5000;0.7302;3.0169;
622.8000;0.7302;3.0193;
623.1000;0.7293;3.0169;
623.4000;0.7269;3.0193;
623.7000;0.7236;3.0169;
624.0000;0.7269;3.0313;
624.3000;0.7245;3.0408;
624.6000;0.7196;3.0336;
624.9000;0.7188;3.0384;
625.2000;0.7179;3.0408;
625.5000;0.7196;3.0408;
625.8000;0.7163;3.0313;
626.1000;0.7139;3.0289;
626.4000;0.7139;3.0336;
626.7000;0.7114;3.0193;
627.0000;0.7131;3.0313;
627.3000;0.7090;3.0313;
627.6000;0.7025;3.0289;
627.9000;0.7074;3.0456;
628.2000;0.7057;3.0456;
628.5000;0.7017;3.0432;
628.8000;0.7017;3.0384;
629.1000;0.7009;3.0336;
629.4000;0.7017;3.0360;
629.7000;0.7017;3.0336;
630.0000;0.7009;3.0265;
630.3000;0.6976;3.0289;
630.6000;0.6976;3.0289;
630.9000;0.6992;3.0360;
631.2000;0.6952;3.0289;
631.5000;0.6943;3.0313;
631.8000;0.6919;3.0265;
632.1000;0.6927;3.0289;
632.4000;0.6911;3.0265;
632.7000;0.6895;3.0169;
633.0000;0.6895;3.0265;
633.3000;0.6870;3.0193;
633.6000;0.6878;3.0193;
633.9000;0.6854;3.0122;
634.2000;0.6838;3.0122;
634.5000;0.6854;3.0122;
634.8000;0.6854;3.0169;
635.1000;0.6813;3.0145;
635.4000;0.6805;3.0122;
635.7000;0.6813;3.0241;
636.0000;0.6846;3.0289;
636.3000;0.6781;3.0122;
636.6000;0.6756;2.9978;
636.9000;0.6764;3.0002;
637.2000;0.6772;3.0050;
637.5000;0.6748;3.0050;
637.8000;0.6748;3.0050;
638.1000;0.6732;3.0050;
638.4000;0.6748;3.0050;
638.7000;0.6732;3.0002;
639.0000;0.6716;2.9931;
639.3000;0.6707;2.9978;
639.6000;0.6724;3.0050;
639.9000;0.6699;2.9978;
640.2000;0.6716;3.0026;
640.5000;0.6732;3.0145;
640.8000;0.6675;2.9955;
641.1000;0.6642;2.9835;
641.4000;0.6675;2.9931;
641.7000;0.6650;2.9955;
642.0000;0.6659;2.9883;
642.3000;0.6667;2.9883;
642.6000;0.6569;2.9764;
642.9000;0.6610;2.9883;
643.2000;0.6618;2.9907;
643.5000;0.6602;2.9931;
643.8000;0.6642;3.0026;
644.1000;0.6593;2.9978;
644.4000;0.6593;3.0002;
644.7000;0.6577;3.0002;
645.0000;0.6618;3.0122;
645.3000;0.6593;3.0050;
645.6000;0.6593;3.0050;
645.9000;0.6585;2.9931;
646.2000;0.6610;2.9978;
646.5000;0.6577;2.9883;
646.8000;0.6577;2.9978;
647.1000;0.6545;3.0002;
647.4000;0.6545;3.0026;
647.7000;0.6536;3.0050;
648.0000;0.6602;3.0169;
648.3000;0.6447;2.9835;
648.6000;0.6520;3.0050;
648.9000;0.6618;3.0313;
649.2000;0.6536;3.0145;
649.5000;0.6520;3.0145;
649.8000;0.6536;3.0122;
650.1000;0.6512;3.0050;
650.4000;0.6488;3.0026;
650.7000;0.6496;2.9955;
651.0000;0.6553;3.0193;
651.3000;0.6455;2.9978;
651.6000;0.6471;3.0050;
651.9000;0.6422;2.9907;
652.2000;0.6455;2.9907;
652.5000;0.6455;2.9931;
652.8000;0.6447;2.9955;
653.1000;0.6439;2.9907;
653.4000;0.6439;2.9835;
653.7000;0.6447;2.9883;
654.0000;0.6455;2.9883;
654.3000;0.6431;2.9883;
654.6000;0.6447;2.9907;
654.9000;0.6439;2.9955;
655.2000;0.6455;3.0026;
655.5000;0.6422;2.9907;
655.8000;0.6398;2.9859;
656.1000;0.6398;2.9907;
656.4000;0.6390;2.9907;
656.7000;0.6390;2.9907;
657.0000;0.6382;2.9907;
657.3000;0.6390;2.9835;
657.6000;0.6398;2.9859;
657.9000;0.6382;2.9811;
658.2000;0.6365;2.9883;
658.5000;0.6349;2.9931;
658.8000;0.6357;3.0002;
659.1000;0.6357;3.0050;
659.4000;0.6349;3.0098;
659.7000;0.6349;3.0074;
660.0000;0.6365;3.0122;
660.3000;0.6349;3.0050;
660.6000;0.6300;2.9931;
660.9000;0.6333;2.9978;
661.2000;0.6349;2.9978;
661.5000;0.6374;2.9883;
661.8000;0.6333;2.9787;
662.1000;0.6325;2.9764;
662.4000;0.6252;2.9573;
662.7000;0.6317;2.9811;
663.0000;0.6300;2.9811;
663.3000;0.6309;2.9859;
663.6000;0.6317;2.9859;
663.9000;0.6260;2.9787;
664.2000;0.6309;2.9811;
664.5000;0.6268;2.9811;
664.8000;0.6276;2.9764;
665.1000;0.6309;2.9811;
665.4000;0.6309;2.9883;
665.7000;0.6276;2.9811;
666.0000;0.6260;2.9883;
666.3000;0.6276;2.9955;
666.6000;0.6284;3.0026;
666.9000;0.6268;3.0050;
667.2000;0.6235;2.9978;
667.5000;0.6243;3.0050;
667.8000;0.6243;3.0193;
668.1000;0.6243;3.0217;
668.4000;0.6235;3.0265;
668.7000;0.6227;3.0193;
669.0000;0.6260;3.0169;
669.3000;0.6195;3.0050;
669.6000;0.6235;3.0193;
669.9000;0.6260;3.0217;
670.2000;0.6325;3.0360;
670.5000;0.6203;3.0098;
670.8000;0.6195;2.9931;
671.1000;0.6211;3.0026;
671.4000;0.6243;3.0074;
671.7000;0.6260;3.0002;
672.0000;0.6203;2.9907;
672.3000;0.6203;2.9955;
672.6000;0.6195;2.9907;
672.9000;0.6195;2.9787;
673.2000;0.6203;2.9716;
673.5000;0.6162;2.9668;
673.8000;0.6178;2.9716;
674.1000;0.6121;2.9620;
674.4000;0.6186;2.9764;
674.7000;0.6252;2.9978;
675.0000;0.6186;2.9835;
675.3000;0.6211;2.9978;
675.6000;0.6203;2.9931;
675.9000;0.6170;2.9859;
676.2000;0.6170;2.9907;
676.5000;0.6162;3.0026;
676.8000;0.6154;3.0002;
677.1000;0.6170;3.0074;
677.4000;0.6138;2.9931;
677.7000;0.6146;3.0026;
678.0000;0.6154;2.9955;
678.3000;0.6097;2.9835;
678.6000;0.6129;2.9859;
678.9000;0.6146;2.9835;
679.2000;0.6146;2.9883;
679.5000;0.6170;2.9931;
679.8000;0.6170;2.9907;
680.1000;0.6146;2.9931;
680.4000;0.6154;2.9955;
680.7000;0.6154;2.9931;
681.0000;0.6138;2.9835;
681.3000;0.6121;2.9859;
681.6000;0.6105;2.9716;
681.9000;0.6129;2.9716;
682.2000;0.6121;2.9740;
682.5000;0.6105;2.9764;
682.8000;0.6129;2.9859;
683.1000;0.6129;2.9931;
683.4000;0.6105;2.9907;
683.7000;0.6081;2.9835;
684.0000;0.6105;2.9883;
684.3000;0.6113;2.9883;
684.6000;0.6089;2.9883;
684.9000;0.6081;2.9955;
685.2000;0.6089;3.0074;
685.5000;0.6105;3.0122;
685.8000;0.6089;3.0074;
686.1000;0.6097;3.0026;
686.4000;0.6064;3.0050;
686.7000;0.6081;3.0026;
687.0000;0.6089;2.9931;
687.3000;0.6064;2.9787;
687.6000;0.6097;2.9859;
687.9000;0.6081;2.9835;
688.2000;0.6089;2.9883;
688.5000;0.6056;2.9787;
688.8000;0.6056;2.9835;
689.1000;0.6072;2.9835;
689.4000;0.6048;2.9907;
689.7000;0.6072;3.0050;
690.0000;0.6040;3.0002;
690.3000;0.6064;3.0098;
690.6000;0.6056;3.0122;
690.9000;0.6072;3.0122;
691.2000;0.6072;3.0169;
691.5000;0.6032;3.0002;
691.8000;0.6040;3.0002;
692.1000;0.6040;3.0002;
692.4000;0.6040;3.0122;
692.7000;0.5999;3.0002;
693.0000;0.5958;2.9811;
693.3000;0.6048;3.0026;
693.6000;0.6015;2.9978;
693.9000;0.6032;3.0026;
694.2000;0.6040;3.0026;
694.5000;0.6032;3.0026;
694.8000;0.6032;2.9955;
695.1000;0.6032;2.9907;
695.4000;0.6040;2.9931;
695.7000;0.6056;2.9931;
696.0000;0.6024;2.9931;
696.3000;0.6032;2.9931;
696.6000;0.6024;3.0002;
696.9000;0.5991;2.9931;
697.2000;0.5999;2.9978;
697.5000;0.5983;2.9931;
697.8000;0.5983;3.0002;
698.1000;0.5958;2.9883;
698.4000;0.6024;3.0002;
698.7000;0.6007;2.9931;
699.0000;0.5999;2.9978;
699.3000;0.6007;3.0002;
699.6000;0.6007;2.9907;
699.9000;0.6007;2.9883;
700.2000;0.5999;2.9978;
700.5000;0.5999;3.0026;
700.8000;0.6007;3.0074;
701.1000;0.5999;3.0050;
701.4000;0.5991;3.0145;
701.7000;0.5983;3.0145;
702.0000;0.5983;3.0169;
702.3000;0.5983;3.0145;
702.6000;0.5975;3.0122;
702.9000;0.5918;2.9931;
703.2000;0.6007;3.0026;
703.5000;0.5983;2.9931;
703.8000;0.5958;2.9931;
704.1000;0.5975;2.9978;
704.4000;0.5975;2.9931;
704.7000;0.5975;2.9907;
705.0000;0.5983;2.9787;
705.3000;0.5975;2.9787;
705.6000;0.5991;2.9811;
705.9000;0.5983;2.9907;
706.2000;0.5967;2.9883;
706.5000;0.5975;2.9931;
706.8000;0.5967;2.9978;
707.1000;0.5967;2.9955;
707.4000;0.5950;2.9907;
707.7000;0.5975;3.0002;
708.0000;0.5950;2.9955;
708.3000;0.5950;2.9931;
708.6000;0.5902;2.9883;
708.9000;0.5958;3.0002;
709.2000;0.5950;3.0050;
709.5000;0.5958;3.0002;
709.8000;0.5942;2.9931;
710.1000;0.5950;2.9907;
710.4000;0.5950;2.9883;
710.7000;0.5934;2.9883;
711.0000;0.5942;2.9931;
711.3000;0.5950;2.9859;
711.6000;0.5958;2.9907;
711.9000;0.5934;2.9955;
712.2000;0.5950;3.0026;
712.5000;0.5942;3.0002;
712.8000;0.5934;2.9978;
713.1000;0.5918;2.9907;
713.4000;0.5942;2.9907;
713.7000;0.5942;2.9883;
714.0000;0.5926;2.9883;
714.3000;0.5926;2.9955;
714.6000;0.5934;2.9955;
714.9000;0.5934;2.9955;
715.2000;0.5950;2.9978;
715.5000;0.5934;2.9859;
715.8000;0.5934;2.9883;
716.1000;0.5958;2.9978;
716.4000;0.5893;2.9787;
716.7000;0.5942;2.9907;
717.0000;0.5910;2.9835;
717.3000;0.5934;2.9835;
717.6000;0.5902;2.9835;
717.9000;0.5958;2.9907;
718.2000;0.5950;2.9811;
718.5000;0.5910;2.9716;
718.8000;0.5918;2.9835;
719.1000;0.5902;2.9835;
719.4000;0.5918;2.9931;
719.7000;0.5796;2.9764;
720.0000;0.5918;3.0098;
720.3000;0.6015;3.0408;
720.6000;0.5877;3.0098;
720.9000;0.5902;3.0122;
721.2000;0.5926;3.0145;
721.5000;0.5926;3.0193;
721.8000;0.5950;3.0241;
722.1000;0.5893;3.0122;
722.4000;0.5902;3.0074;
722.7000;0.5861;2.9955;
723.0000;0.5877;3.0050;
723.3000;0.5885;3.0098;
723.6000;0.5893;3.0050;
723.9000;0.5893;3.0074;
724.2000;0.5869;3.0050;
724.5000;0.5893;3.0026;
724.8000;0.5885;2.9978;
725.1000;0.5893;3.0002;
725.4000;0.5861;2.9907;
725.7000;0.5893;2.9907;
726.0000;0.5918;2.9978;
726.3000;0.5893;2.9955;
726.6000;0.5910;3.0026;
726.9000;0.5893;3.0050;
727.2000;0.5893;3.0050;
727.5000;0.5877;2.9955;
727.8000;0.5885;3.0026;
728.1000;0.5861;2.9978;
728.4000;0.5885;3.0098;
728.7000;0.5893;3.0145;
729.0000;0.5877;3.0145;
729.3000;0.5885;3.0193;
729.6000;0.5902;3.0313;
729.9000;0.5877;3.0193;
730.2000;0.5885;3.0169;
730.5000;0.5885;3.0122;
730.8000;0.5893;3.0169;
731.1000;0.5877;3.0169;
731.4000;0.5885;3.0241;
731.7000;0.5869;3.0289;
732.0000;0.5853;3.0169;
732.3000;0.5820;3.0193;
732.6000;0.5885;3.0313;
732.9000;0.5926;3.0432;
733.2000;0.5861;3.0217;
733.5000;0.5845;3.0217;
733.8000;0.5910;3.0313;
734.1000;0.5853;3.0265;
734.4000;0.5845;3.0193;
734.7000;0.5845;3.0193;
735.0000;0.5853;3.0241;
735.3000;0.5861;3.0265;
735.6000;0.5845;3.0289;
735.9000;0.5853;3.0360;
736.2000;0.5828;3.0313;
736.5000;0.5869;3.0289;
736.8000;0.5861;3.0265;
737.1000;0.5845;3.0145;
737.4000;0.5845;3.0050;
737.7000;0.5877;3.0074;
738.0000;0.5902;3.0241;
738.3000;0.5869;3.0122;
738.6000;0.5836;3.0098;
738.9000;0.5845;3.0122;
739.2000;0.5885;3.0336;
739.5000;0.5853;3.0265;
739.8000;0.5796;3.0098;
740.1000;0.5861;3.0289;
740.4000;0.5934;3.0527;
740.7000;0.5853;3.0289;
741.0000;0.5910;3.0408;
741.3000;0.5853;3.0313;
741.6000;0.5853;3.0265;
741.9000;0.5820;3.0241;
742.2000;0.5885;3.0313;
742.5000;0.5828;3.0122;
742.8000;0.5828;3.0145;
743.1000;0.5828;3.0241;
743.4000;0.5853;3.0360;
743.7000;0.5853;3.0217;
744.0000;0.5771;3.0002;
744.3000;0.5845;3.0074;
744.6000;0.5820;3.0074;
744.9000;0.5845;3.0098;
745.2000;0.5836;3.0002;
745.5000;0.5820;2.9907;
745.8000;0.5804;2.9859;
746.1000;0.5828;2.9978;
746.4000;0.5836;2.9978;
746.7000;0.5861;3.0098;
747.0000;0.5812;2.9955;
747.3000;0.5755;2.9716;
747.6000;0.5820;2.9883;
747.9000;0.5812;2.9931;
748.2000;0.5812;2.9931;
748.5000;0.5820;2.9883;
748.8000;0.5853;2.9955;
749.1000;0.5796;2.9859;
749.4000;0.5812;2.9811;
749.7000;0.5828;2.9859;
750.0000;0.5804;2.9859;
750.3000;0.5804;2.9883;
750.6000;0.5845;2.9907;
750.9000;0.5804;2.9787;
751.2000;0.5812;2.9787;
751.5000;0.5812;2.9859;
751.8000;0.5812;2.9883;
752.1000;0.5796;2.9907;
752.4000;0.5779;2.9883;
752.7000;0.5820;3.0074;
753.0000;0.5820;3.0050;
753.3000;0.5812;3.0050;
753.6000;0.5804;3.0002;
753.9000;0.5804;2.9978;
754.2000;0.5812;3.0098;
754.5000;0.5836;3.0193;
754.8000;0.5812;3.0169;
755.1000;0.5722;2.9883;
755.4000;0.5812;3.0122;
755.7000;0.5812;3.0122;
756.0000;0.5820;3.0265;
756.3000;0.5788;3.0169;
756.6000;0.5812;3.0217;
756.9000;0.5804;3.0217;
757.2000;0.5796;3.0145;
757.5000;0.5788;3.0145;
757.8000;0.5731;3.0002;
758.1000;0.5771;3.0098;
758.4000;0.5804;3.0241;
758.7000;0.5771;3.0241;
759.0000;0.5763;3.0193;
759.3000;0.5804;3.0265;
759.6000;0.5796;3.0169;
759.9000;0.5788;3.0145;
760.2000;0.5796;3.0193;
760.5000;0.5796;3.0169;
760.8000;0.5788;3.0145;
761.1000;0.5820;3.0098;
761.4000;0.5779;3.0074;
761.7000;0.5779;3.0098;
762.0000;0.5779;3.0098;
762.3000;0.5812;3.0122;
762.6000;0.5779;2.9978;
762.9000;0.5812;2.9931;
763.2000;0.5779;2.9931;
763.5000;0.5796;3.0002;
763.8000;0.5796;3.0002;
764.1000;0.5796;2.9931;
764.4000;0.5796;2.9859;
764.7000;0.5796;2.9859;
765.0000;0.5779;2.9859;
765.3000;0.5779;2.9883;
765.6000;0.5763;2.9764;
765.9000;0.5788;2.9859;
766.2000;0.5788;2.9955;
766.5000;0.5755;3.0050;
766.8000;0.5747;3.0098;
767.1000;0.5763;3.0050;
767.4000;0.5747;3.0002;
767.7000;0.5722;2.9907;
768.0000;0.5755;2.9978;
768.3000;0.5796;3.0026;
768.6000;0.5836;3.0145;
768.9000;0.5771;3.0026;
769.2000;0.5845;3.0265;
769.5000;0.5804;3.0098;
769.8000;0.5763;3.0050;
770.1000;0.5763;3.0050;
770.4000;0.5771;3.0050;
770.7000;0.5755;3.0026;
771.0000;0.5763;3.0050;
771.3000;0.5739;2.9931;
771.6000;0.5779;3.0050;
771.9000;0.5771;3.0026;
772.2000;0.5788;3.0122;
772.5000;0.5763;3.0050;
772.8000;0.5771;3.0026;
773.1000;0.5779;3.0050;
773.4000;0.5779;2.9978;
773.7000;0.5747;2.9883;
774.0000;0.5763;2.9811;
774.3000;0.5763;2.9787;
774.6000;0.5796;2.9907;
774.9000;0.5796;2.9978;
775.2000;0.5788;2.9955;
775.5000;0.5771;2.9978;
775.8000;0.5747;2.9907;
776.1000;0.5779;2.9955;
776.4000;0.5779;2.9978;
776.7000;0.5779;3.0002;
777.0000;0.5763;2.9931;
777.3000;0.5771;3.0122;
777.6000;0.5788;3.0169;
777.9000;0.5796;3.0217;
778.2000;0.5763;3.0098;
778.5000;0.5763;3.0193;
778.8000;0.5771;3.0169;
779.1000;0.5755;3.0122;
779.4000;0.5731;3.0026;
779.7000;0.5763;3.0098;
780.0000;0.5763;3.0026;
780.3000;0.5739;3.0050;
780.6000;0.5755;3.0026;
780.9000;0.5755;3.0050;
781.2000;0.5747;2.9931;
781.5000;0.5755;3.0002;
781.8000;0.5747;3.0026;
782.1000;0.5739;3.0122;
782.4000;0.5747;3.0169;
782.7000;0.5722;3.0050;
783.0000;0.5747;3.0098;
783.3000;0.5747;3.0074;
783.6000;0.5747;2.9978;
783.9000;0.5755;2.9978;
784.2000;0.5731;2.9907;
784.5000;0.5722;2.9931;
784.8000;0.5747;2.9931;
785.1000;0.5739;2.9811;
785.4000;0.5747;2.9883;
785.7000;0.5771;2.9931;
786.0000;0.5682;2.9740;
786.3000;0.5731;2.9931;
786.6000;0.5731;2.9931;
786.9000;0.5755;2.9955;
787.2000;0.5755;2.9955;
787.5000;0.5714;2.9835;
787.8000;0.5739;2.9883;
788.1000;0.5755;3.0002;
788.4000;0.5755;3.0002;
788.7000;0.5747;3.0002;
789.0000;0.5706;2.9978;
789.3000;0.5739;3.0098;
789.6000;0.5788;3.0217;
789.9000;0.5747;3.0217;
790.2000;0.5739;3.0265;
790.5000;0.5739;3.0193;
790.8000;0.5747;3.0265;
791.1000;0.5755;3.0145;
791.4000;0.5739;3.0098;
791.7000;0.5763;3.0122;
792.0000;0.5739;3.0074;
792.3000;0.5747;3.0145;
792.6000;0.5739;3.0122;
792.9000;0.5739;3.0122;
793.2000;0.5739;3.0098;
793.5000;0.5731;2.9978;
793.8000;0.5739;3.0002;
794.1000;0.5706;2.9978;
794.4000;0.5731;3.0026;
794.7000;0.5747;3.0026;
795.0000;0.5747;2.9978;
795.3000;0.5755;3.0002;
795.6000;0.5739;3.0002;
795.9000;0.5771;3.0122;
796.2000;0.5747;3.0145;
796.5000;0.5747;3.0098;
796.8000;0.5755;3.0098;
797.1000;0.5731;3.0050;
797.4000;0.5739;3.0050;
797.7000;0.5755;3.0050;
798.0000;0.5739;3.0074;
798.3000;0.5747;3.0145;
798.6000;0.5731;3.0050;
798.9000;0.5739;2.9978;
799.2000;0.5714;2.9883;
799.5000;0.5731;2.9883;
799.8000;0.5722;2.9835;
800.1000;0.5739;2.9907;
800.4000;0.5747;3.0002;
800.7000;0.5722;3.0002;
801.0000;0.5763;3.0026;
801.3000;0.5731;3.0050;
801.6000;0.5625;2.9787;
801.9000;0.5739;3.0026;
802.2000;0.5731;2.9955;
802.5000;0.5722;2.9835;
802.8000;0.5731;2.9740;
803.1000;0.5722;2.9835;
803.4000;0.5714;2.9859;
803.7000;0.5739;2.9978;
804.0000;0.5690;2.9907;
804.3000;0.5714;3.0074;
804.6000;0.5714;3.0002;
804.9000;0.5633;2.9787;
805.2000;0.5714;3.0002;
805.5000;0.5722;3.0002;
805.8000;0.5722;3.0098;
806.1000;0.5739;3.0098;
806.4000;0.5722;2.9931;
806.7000;0.5796;3.0050;
807.0000;0.5665;2.9811;
807.3000;0.5731;2.9955;
807.6000;0.5812;3.0145;
807.9000;0.5739;3.0026;
808.2000;0.5706;3.0026;
808.5000;0.5722;3.0050;
808.8000;0.5731;3.0026;
809.1000;0.5731;2.9955;
809.4000;0.5714;2.9955;
809.7000;0.5698;3.0002;
810.0000;0.5722;3.0074;
810.3000;0.5706;3.0074;
810.6000;0.5690;3.0050;
810.9000;0.5690;3.0002;
811.2000;0.5779;3.0217;
811.5000;0.5698;2.9978;
811.8000;0.5731;2.9978;
812.1000;0.5763;3.0098;
812.4000;0.5731;3.0074;
812.7000;0.5828;3.0313;
813.0000;0.5698;3.0026;
813.3000;0.5706;3.0026;
813.6000;0.5682;2.9978;
813.9000;0.5714;3.0050;
814.2000;0.5739;3.0098;
814.5000;0.5722;3.0098;
814.8000;0.5698;2.9955;
815.1000;0.5706;3.0002;
815.4000;0.5731;3.0026;
815.7000;0.5706;2.9931;
816.0000;0.5698;3.0026;
816.3000;0.5731;3.0098;
816.6000;0.5722;2.9955;
816.9000;0.5682;2.9835;
817.2000;0.5674;2.9692;
817.5000;0.5698;2.9716;
817.8000;0.5747;2.9859;
818.1000;0.5698;2.9692;
818.4000;0.5690;2.9716;
818.7000;0.5714;2.9764;
819.0000;0.5714;2.9811;
819.3000;0.5698;2.9811;
819.6000;0.5722;2.9811;
819.9000;0.5674;2.9740;
820.2000;0.5714;2.9835;
820.5000;0.5722;2.9835;
820.8000;0.5714;2.9931;
821.1000;0.5706;2.9907;
821.4000;0.5714;2.9955;
821.7000;0.5714;2.9907;
822.0000;0.5722;2.9931;
822.3000;0.5706;2.9931;
822.6000;0.5698;2.9955;
822.9000;0.5722;2.9955;
823.2000;0.5722;3.0098;
823.5000;0.5690;3.0145;
823.8000;0.5674;3.0217;
824.1000;0.5674;3.0193;
824.4000;0.5682;3.0098;
824.7000;0.5698;3.0145;
825.0000;0.5690;3.0193;
825.3000;0.5682;3.0074;
825.6000;0.5714;3.0074;
825.9000;0.5747;3.0169;
826.2000;0.5690;2.9978;
826.5000;0.5641;2.9859;
826.8000;0.5682;2.9978;
827.1000;0.5698;3.0026;
827.4000;0.5706;2.9978;
827.7000;0.5690;2.9931;
828.0000;0.5706;3.0050;
828.3000;0.5706;3.0026;
828.6000;0.5698;3.0050;
828.9000;0.5690;3.0050;
829.2000;0.5682;3.0026;
829.5000;0.5722;3.0122;
829.8000;0.5674;3.0002;
830.1000;0.5657;2.9978;
830.4000;0.5722;3.0074;
830.7000;0.5706;2.9978;
831.0000;0.5690;2.9978;
831.3000;0.5690;2.9978;
831.6000;0.5706;3.0050;
831.9000;0.5804;3.0217;
832.2000;0.5698;3.0002;
832.5000;0.5698;2.9978;
832.8000;0.5690;2.9907;
833.1000;0.5698;2.9978;
833.4000;0.5771;3.0145;
833.7000;0.5665;2.9907;
834.0000;0.5763;3.0050;
834.3000;0.5665;2.9787;
834.6000;0.5690;2.9811;
834.9000;0.5698;2.9955;
835.2000;0.5698;2.9978;
835.5000;0.5698;3.0050;
835.8000;0.5706;3.0074;
836.1000;0.5690;3.0074;
836.4000;0.5608;2.9907;
836.7000;0.5714;3.0145;
837.0000;0.5698;3.0122;
837.3000;0.5788;3.0313;
837.6000;0.5690;3.0002;
837.9000;0.5763;3.0217;
838.2000;0.5706;3.0074;
838.5000;0.5682;2.9978;
838.8000;0.5714;3.0098;
839.1000;0.5682;3.0098;
839.4000;0.5698;3.0074;
839.7000;0.5690;2.9955;
840.0000;0.5722;3.0050;
840.3000;0.5731;3.0122;
840.6000;0.5706;3.0169;
840.9000;0.5625;2.9883;
841.2000;0.5682;3.0074;
841.5000;0.5690;3.0050;
841.8000;0.5682;3.0074;
842.1000;0.5682;3.0098;
842.4000;0.5690;3.0050;
842.7000;0.5714;3.0074;
843.0000;0.5682;2.9978;
843.3000;0.5698;3.0074;
843.6000;0.5690;3.0145;
843.9000;0.5698;3.0241;
844.2000;0.5690;3.0241;
844.5000;0.5690;3.0241;
844.8000;0.5690;3.0265;
845.1000;0.5682;3.0193;
845.4000;0.5674;3.0145;
845.7000;0.5722;3.0265;
846.0000;0.5714;3.0145;
846.3000;0.5682;3.0098;
846.6000;0.5576;2.9859;
846.9000;0.5674;3.0074;
847.2000;0.5690;2.9978;
847.5000;0.5690;3.0026;
847.8000;0.5698;3.0074;
848.1000;0.5665;3.0050;
848.4000;0.5641;2.9907;
848.7000;0.5665;3.0050;
849.0000;0.5682;3.0026;
849.3000;0.5665;3.0026;
849.6000;0.5617;2.9955;
849.9000;0.5682;3.0169;
850.2000;0.5657;3.0122;
850.5000;0.5649;3.0098;
850.8000;0.5657;3.0169;
851.1000;0.5657;3.0002;
851.4000;0.5682;3.0098;
851.7000;0.5690;3.0074;
852.0000;0.5682;3.0122;
852.3000;0.5682;3.0074;
852.6000;0.5649;3.0050;
852.9000;0.5674;3.0145;
853.2000;0.5625;2.9955;
853.5000;0.5690;3.0026;
853.8000;0.5682;3.0074;
854.1000;0.5657;3.0098;
854.4000;0.5698;3.0193;
854.7000;0.5665;3.0193;
855.0000;0.5690;3.0098;
855.3000;0.5657;3.0026;
855.6000;0.5665;3.0050;
855.9000;0.5682;3.0074;
856.2000;0.5674;2.9955;
856.5000;0.5665;2.9883;
856.8000;0.5682;2.9931;
857.1000;0.5665;3.0002;
857.4000;0.5690;3.0098;
857.7000;0.5665;3.0026;
858.0000;0.5682;3.0074;
858.3000;0.5657;3.0050;
858.6000;0.5674;3.0122;
858.9000;0.5665;3.0122;
859.2000;0.5665;3.0145;
859.5000;0.5690;3.0241;
859.8000;0.5657;3.0145;
860.1000;0.5714;3.0289;
860.4000;0.5657;3.0050;
860.7000;0.5665;3.0122;
861.0000;0.5674;3.0193;
861.3000;0.5657;3.0193;
861.6000;0.5649;3.0098;
861.9000;0.5682;3.0122;
862.2000;0.5674;3.0193;
862.5000;0.5657;3.0145;
862.8000;0.5682;3.0193;
863.1000;0.5657;3.0026;
863.4000;0.5657;3.0050;
863.7000;0.5674;3.0145;
864.0000;0.5633;3.0098;
864.3000;0.5665;3.0122;
864.6000;0.5674;3.0217;
864.9000;0.5706;3.0313;
865.2000;0.5763;3.0432;
865.5000;0.5682;3.0241;
865.8000;0.5682;3.0169;
866.1000;0.5674;3.0098;
866.4000;0.5682;3.0145;
866.7000;0.5633;3.0074;
867.0000;0.5674;3.0169;
867.3000;0.5674;3.0217;
867.6000;0.5674;3.0241;
867.9000;0.5698;3.0313;
868.2000;0.5674;3.0217;
868.5000;0.5665;3.0265;
868.8000;0.5674;3.0289;
869.1000;0.5674;3.0241;
869.4000;0.5674;3.0145;
869.7000;0.5625;3.0050;
870.0000;0.5657;3.0074;
870.3000;0.5649;3.0122;
870.6000;0.5600;3.0002;
870.9000;0.5665;3.0169;
871.2000;0.5682;3.0193;
871.5000;0.5714;3.0336;
871.8000;0.5690;3.0265;
872.1000;0.5682;3.0145;
872.4000;0.5657;3.0217;
872.7000;0.5625;3.0098;
873.0000;0.5682;3.0217;
873.3000;0.5674;3.0169;
873.6000;0.5657;3.0169;
873.9000;0.5682;3.0241;
874.2000;0.5674;3.0145;
874.5000;0.5682;3.0169;
874.8000;0.5665;3.0098;
875.1000;0.5682;3.0169;
875.4000;0.5633;3.0098;
875.7000;0.5649;3.0193;
876.0000;0.5665;3.0241;
876.3000;0.5674;3.0289;
876.6000;0.5674;3.0289;
876.9000;0.5641;3.0313;
877.2000;0.5649;3.0313;
877.5000;0.5649;3.0336;
877.8000;0.5665;3.0384;
878.1000;0.5665;3.0265;
878.4000;0.5657;3.0217;
878.7000;0.5657;3.0241;
879.0000;0.5584;3.0002;
879.3000;0.5665;3.0145;
879.6000;0.5665;3.0074;
879.9000;0.5674;3.0050;
880.2000;0.5674;3.0050;
880.5000;0.5665;3.0074;
880.8000;0.5690;3.0098;
881.1000;0.5682;3.0026;
881.4000;0.5674;2.9978;
881.7000;0.5665;3.0026;
882.0000;0.5674;3.0050;
882.3000;0.5633;2.9931;
882.6000;0.5657;2.9978;
882.9000;0.5665;3.0002;
883.2000;0.5649;2.9955;
883.5000;0.5649;2.9955;
883.8000;0.5665;2.9955;
884.1000;0.5682;3.0050;
884.4000;0.5649;2.9955;
884.7000;0.5617;2.9883;
885.0000;0.5633;2.9883;
885.3000;0.5665;2.9883;
885.6000;0.5657;2.9811;
885.9000;0.5682;2.9859;
886.2000;0.5625;2.9764;
886.5000;0.5657;2.9764;
886.8000;0.5657;2.9764;
887.1000;0.5649;2.9811;
887.4000;0.5649;2.9787;
887.7000;0.5649;2.9859;
888.0000;0.5665;2.9883;
888.3000;0.5641;2.9835;
888.6000;0.5633;2.9835;
888.9000;0.5665;2.9883;
889.2000;0.5657;2.9931;
889.5000;0.5649;2.9811;
889.8000;0.5641;2.9883;
890.1000;0.5649;2.9907;
890.4000;0.5649;2.9859;
890.7000;0.5649;2.9764;
891.0000;0.5657;2.9787;
891.3000;0.5641;2.9907;
891.6000;0.5665;3.0050;
891.9000;0.5657;3.0002;
892.2000;0.5649;2.9835;
892.5000;0.5641;2.9764;
892.8000;0.5665;2.9907;
893.1000;0.5657;2.9931;
893.4000;0.5657;3.0074;
893.7000;0.5649;3.0050;
894.0000;0.5633;3.0122;
894.3000;0.5682;3.0289;
894.6000;0.5633;3.0145;
894.9000;0.5633;3.0193;
895.2000;0.5633;3.0241;
895.5000;0.5608;3.0026;
895.8000;0.5576;2.9955;
896.1000;0.5682;3.0193;
896.4000;0.5649;3.0074;
896.7000;0.5657;3.0217;
897.0000;0.5657;3.0169;
897.3000;0.5633;3.0145;
897.6000;0.5641;3.0145;
897.9000;0.5657;3.0122;
898.2000;0.5657;3.0074;
898.5000;0.5649;3.0122;
898.8000;0.5657;3.0122;
899.1000;0.5657;3.0193;
899.4000;0.5633;3.0145;
899.7000;0.5641;3.0169;
900.0000;0.5739;3.0336;
900.3000;0.5665;3.0122;
900.6000;0.5657;3.0026;
900.9000;0.5665;3.0002;
901.2000;0.5665;2.9978;
901.5000;0.5657;2.9978;
901.8000;0.5665;3.0122;
902.1000;0.5641;3.0122;
902.4000;0.5657;3.0193;
902.7000;0.5657;3.0265;
903.0000;0.5576;3.0026;
903.3000;0.5674;3.0217;
903.6000;0.5641;3.0241;
903.9000;0.5657;3.0265;
904.2000;0.5649;3.0265;
904.5000;0.5649;3.0289;
904.8000;0.5625;3.0241;
905.1000;0.5625;3.0145;
905.4000;0.5649;3.0217;
905.7000;0.5657;3.0169;
906.0000;0.5641;3.0074;
906.3000;0.5641;3.0050;
906.6000;0.5649;3.0098;
906.9000;0.5657;3.0098;
907.2000;0.5641;3.0050;
907.5000;0.5649;3.0098;
907.8000;0.5665;3.0169;
908.1000;0.5641;3.0145;
908.4000;0.5641;3.0145;
908.7000;0.5641;3.0145;
909.0000;0.5665;3.0193;
909.3000;0.5592;2.9978;
909.6000;0.5682;3.0169;
909.9000;0.5633;3.0098;
910.2000;0.5706;3.0265;
910.5000;0.5674;3.0169;
910.8000;0.5641;3.0122;
911.1000;0.5617;3.0098;
911.4000;0.5641;3.0193;
911.7000;0.5641;3.0145;
912.0000;0.5633;3.0145;
912.3000;0.5649;3.0145;
912.6000;0.5657;3.0145;
912.9000;0.5617;3.0145;
913.2000;0.5649;3.0217;
913.5000;0.5633;3.0193;
913.8000;0.5633;3.0145;
914.1000;0.5633;3.0145;
914.4000;0.5641;3.0098;
914.7000;0.5641;3.0145;
915.0000;0.5617;3.0002;
915.3000;0.5641;3.0026;
915.6000;0.5657;3.0098;
915.9000;0.5617;3.0002;
916.2000;0.5641;3.0050;
916.5000;0.5649;3.0050;
916.8000;0.5657;3.0026;
917.1000;0.5665;3.0122;
917.4000;0.5657;3.0026;
917.7000;0.5641;2.9978;
918.0000;0.5641;2.9955;
918.3000;0.5641;3.0026;
918.6000;0.5633;3.0074;
918.9000;0.5649;3.0145;
919.2000;0.5641;3.0122;
919.5000;0.5633;3.0098;
919.8000;0.5633;3.0098;
920.1000;0.5649;3.0217;
920.4000;0.5649;3.0265;
920.7000;0.5625;3.0265;
921.0000;0.5600;3.0193;
921.3000;0.5625;3.0241;
921.6000;0.5649;3.0313;
921.9000;0.5633;3.0313;
922.2000;0.5633;3.0265;
922.5000;0.5633;3.0289;
922.8000;0.5633;3.0241;
923.1000;0.5641;3.0193;
923.4000;0.5641;3.0122;
923.7000;0.5633;3.0074;
924.0000;0.5633;2.9978;
924.3000;0.5576;2.9764;
924.6000;0.5633;2.9859;
924.9000;0.5617;2.9859;
925.2000;0.5641;3.0026;
925.5000;0.5641;3.0074;
925.8000;0.5633;3.0098;
926.1000;0.5551;2.9931;
926.4000;0.5633;3.0122;
926.7000;0.5617;3.0122;
927.0000;0.5617;3.0169;
927.3000;0.5649;3.0241;
927.6000;0.5592;3.0074;
927.9000;0.5625;3.0193;
928.2000;0.5690;3.0241;
928.5000;0.5649;3.0169;
928.8000;0.5625;3.0145;
929.1000;0.5625;3.0193;
929.4000;0.5641;3.0217;
929.7000;0.5633;3.0241;
930.0000;0.5633;3.0241;
930.3000;0.5617;3.0265;
930.6000;0.5641;3.0360;
930.9000;0.5649;3.0360;
931.2000;0.5641;3.0313;
931.5000;0.5641;3.0313;
931.8000;0.5641;3.0336;
932.1000;0.5641;3.0313;
932.4000;0.5657;3.0313;
932.7000;0.5649;3.0360;
933.0000;0.5641;3.0313;
933.3000;0.5633;3.0336;
933.6000;0.5633;3.0360;
933.9000;0.5617;3.0313;
934.2000;0.5633;3.0289;
934.5000;0.5625;3.0217;
934.8000;0.5633;3.0169;
935.1000;0.5617;3.0050;
935.4000;0.5617;2.9955;
935.7000;0.5608;3.0002;
936.0000;0.5600;3.0074;
936.3000;0.5625;3.0122;
936.6000;0.5625;3.0145;
936.9000;0.5625;3.0145;
937.2000;0.5625;3.0241;
937.5000;0.5649;3.0289;
937.8000;0.5625;3.0289;
938.1000;0.5600;3.0193;
938.4000;0.5617;3.0169;
938.7000;0.5641;3.0050;
939.0000;0.5600;2.9955;
939.3000;0.5625;2.9955;
939.6000;0.5625;2.9907;
939.9000;0.5633;2.9883;
940.2000;0.5633;2.9978;
940.5000;0.5625;3.0074;
940.8000;0.5584;3.0002;
941.1000;0.5665;3.0169;
941.4000;0.5608;3.0002;
941.7000;0.5641;3.0074;
942.0000;0.5600;3.0026;
942.3000;0.5633;3.0098;
942.6000;0.5617;3.0050;
942.9000;0.5617;3.0074;
943.2000;0.5641;3.0169;
943.5000;0.5641;3.0098;
943.8000;0.5641;3.0122;
944.1000;0.5641;3.0193;
944.4000;0.5617;3.0217;
944.7000;0.5617;3.0193;
945.0000;0.5608;3.0265;
945.3000;0.5633;3.0193;
945.6000;0.5625;3.0217;
945.9000;0.5641;3.0289;
946.2000;0.5649;3.0241;
946.5000;0.5625;3.0241;
946.8000;0.5617;3.0217;
947.1000;0.5608;3.0169;
947.4000;0.5625;3.0265;
947.7000;0.5641;3.0289;
948.0000;0.5617;3.0217;
948.3000;0.5617;3.0241;
948.6000;0.5633;3.0336;
948.9000;0.5625;3.0313;
949.2000;0.5617;3.0241;
949.5000;0.5625;3.0217;
949.8000;0.5633;3.0265;
950.1000;0.5584;3.0193;
950.4000;0.5617;3.0289;
950.7000;0.5633;3.0241;
951.0000;0.5706;3.0360;
951.3000;0.5633;3.0145;
951.6000;0.5633;3.0122;
951.9000;0.5633;3.0145;
952.2000;0.5633;3.0145;
952.5000;0.5633;3.0193;
952.8000;0.5641;3.0265;
953.1000;0.5617;3.0193;
953.4000;0.5625;3.0241;
953.7000;0.5674;3.0265;
954.0000;0.5625;3.0241;
954.3000;0.5633;3.0289;
954.6000;0.5608;3.0098;
954.9000;0.5617;3.0074;
955.2000;0.5657;3.0098;
955.5000;0.5633;3.0026;
955.8000;0.5617;2.9931;
956.1000;0.5625;3.0002;
956.4000;0.5641;3.0074;
956.7000;0.5698;3.0217;
957.0000;0.5592;3.0026;
957.3000;0.5625;3.0145;
957.6000;0.5657;3.0360;
957.9000;0.5633;3.0265;
958.2000;0.5625;3.0217;
958.5000;0.5633;3.0193;
958.8000;0.5625;3.0241;
959.1000;0.5641;3.0313;
959.4000;0.5617;3.0265;
959.7000;0.5633;3.0313;
960.0000;0.5543;3.0145;
960.3000;0.5641;3.0289;
960.6000;0.5617;3.0217;
960.9000;0.5641;3.0265;
961.2000;0.5625;3.0145;
961.5000;0.5625;3.0217;
961.8000;0.5625;3.0145;
962.1000;0.5617;3.0169;
962.4000;0.5600;3.0074;
962.7000;0.5608;3.0026;
963.0000;0.5617;3.0122;
963.3000;0.5617;3.0169;
963.6000;0.5608;3.0169;
963.9000;0.5617;3.0241;
964.2000;0.5625;3.0241;
964.5000;0.5625;3.0169;
964.8000;0.5625;3.0217;
965.1000;0.5584;3.0145;
965.4000;0.5592;3.0241;
965.7000;0.5625;3.0313;
966.0000;0.5633;3.0313;
966.3000;0.5625;3.0169;
966.6000;0.5600;3.0074;
966.9000;0.5633;3.0026;
967.2000;0.5617;2.9931;
967.5000;0.5633;3.0026;
967.8000;0.5641;3.0193;
968.1000;0.5649;3.0145;
968.4000;0.5625;3.0098;
968.7000;0.5674;3.0265;
969.0000;0.5649;3.0217;
969.3000;0.5633;3.0145;
969.6000;0.5625;3.0122;
969.9000;0.5641;3.0169;
970.2000;0.5625;3.0241;
970.5000;0.5617;3.0241;
970.8000;0.5617;3.0289;
971.1000;0.5592;3.0241;
971.4000;0.5625;3.0289;
971.7000;0.5625;3.0289;
972.0000;0.5600;3.0193;
972.3000;0.5625;3.0241;
972.6000;0.5617;3.0193;
972.9000;0.5608;3.0122;
973.2000;0.5674;3.0289;
973.5000;0.5633;3.0169;
973.8000;0.5576;3.0050;
974.1000;0.5617;3.0265;
974.4000;0.5633;3.0265;
974.7000;0.5600;3.0241;
975.0000;0.5617;3.0217;
975.3000;0.5617;3.0169;
975.6000;0.5690;3.0408;
975.9000;0.5600;3.0289;
976.2000;0.5690;3.0527;
976.5000;0.5617;3.0336;
976.8000;0.5617;3.0289;
977.1000;0.5633;3.0313;
977.4000;0.5633;3.0217;
977.7000;0.5608;3.0098;
978.0000;0.5576;3.0026;
978.3000;0.5625;3.0122;
978.6000;0.5625;3.0026;
978.9000;0.5649;2.9955;
979.2000;0.5682;2.9907;
979.5000;0.5617;2.9692;
979.8000;0.5690;2.9883;
980.1000;0.5641;2.9907;
980.4000;0.5625;2.9931;
980.7000;0.5641;2.9931;
981.0000;0.5608;2.9907;
981.3000;0.5608;2.9978;
981.6000;0.5625;3.0026;
981.9000;0.5560;2.9883;
982.2000;0.5625;3.0026;
982.5000;0.5625;3.0002;
982.8000;0.5617;2.9978;
983.1000;0.5625;3.0026;
983.4000;0.5608;3.0026;
983.7000;0.5625;3.0122;
984.0000;0.5706;3.0289;
984.3000;0.5617;3.0074;
984.6000;0.5641;3.0145;
984.9000;0.5592;3.0122;
985.2000;0.5617;3.0074;
985.5000;0.5617;3.0074;
985.8000;0.5641;3.0074;
986.1000;0.5641;3.0002;
986.4000;0.5576;2.9931;
986.7000;0.5600;2.9955;
987.0000;0.5633;2.9978;
987.3000;0.5633;2.9931;
987.6000;0.5625;2.9931;
987.9000;0.5625;3.0026;
988.2000;0.5617;3.0074;
988.5000;0.5625;3.0050;
988.8000;0.5584;2.9955;
989.1000;0.5617;3.0098;
989.4000;0.5625;3.0122;
989.7000;0.5617;3.0122;
990.0000;0.5600;3.0050;
990.3000;0.5617;3.0193;
990.6000;0.5682;3.0360;
990.9000;0.5617;3.0241;
991.2000;0.5600;3.0169;
991.5000;0.5600;3.0169;
991.8000;0.5600;3.0169;
992.1000;0.5608;3.0241;
992.4000;0.5608;3.0336;
992.7000;0.5633;3.0360;
993.0000;0.5641;3.0313;
993.3000;0.5592;3.0241;
993.6000;0.5625;3.0360;
993.9000;0.5608;3.0313;
994.2000;0.5600;3.0265;
994.5000;0.5617;3.0241;
994.8000;0.5617;3.0145;
995.1000;0.5617;3.0145;
995.4000;0.5617;3.0122;
995.7000;0.5633;3.0217;
996.0000;0.5633;3.0289;
996.3000;0.5641;3.0289;
996.6000;0.5625;3.0313;
996.9000;0.5641;3.0313;
997.2000;0.5633;3.0265;
997.5000;0.5560;3.0026;
997.8000;0.5625;3.0145;
998.1000;0.5690;3.0265;
998.4000;0.5560;2.9907;
998.7000;0.5633;3.0002;
999.0000;0.5633;3.0026;
999.3000;0.5625;3.0098;
999.6000;0.5633;3.0193;
999.9000;0.5625;3.0169;
1000.2000;0.5608;3.0098;
1000.5000;0.5608;2.9955;
1000.8000;0.5608;3.0026;
1001.1000;0.5682;3.0122;
1001.4000;0.5608;3.0074;
1001.7000;0.5625;3.0122;
1002.0000;0.5633;3.0098;
1002.3000;0.5625;3.0145;
1002.6000;0.5608;2.9978;
1002.9000;0.5608;3.0050;
1003.2000;0.5649;3.0098;
1003.5000;0.5633;3.0145;
1003.8000;0.5608;3.0122;
1004.1000;0.5600;3.0122;
1004.4000;0.5608;3.0241;
1004.7000;0.5576;3.0169;
1005.0000;0.5731;3.0432;
1005.3000;0.5600;3.0050;
1005.6000;0.5600;3.0074;
1005.9000;0.5608;3.0074;
1006.2000;0.5641;3.0193;
1006.5000;0.5600;3.0169;
1006.8000;0.5608;3.0026;
1007.1000;0.5617;2.9955;
1007.4000;0.5608;2.9931;
1007.7000;0.5608;2.9907;
1008.0000;0.5600;2.9883;
1008.3000;0.5608;2.9883;
1008.6000;0.5633;2.9883;
1008.9000;0.5617;2.9955;
1009.2000;0.5592;3.0026;
1009.5000;0.5560;2.9931;
1009.8000;0.5617;3.0122;
1010.1000;0.5617;3.0169;
1010.4000;0.5600;3.0241;
1010.7000;0.5617;3.0289;
1011.0000;0.5617;3.0313;
1011.3000;0.5600;3.0241;
1011.6000;0.5633;3.0265;
1011.9000;0.5625;3.0265;
1012.2000;0.5608;3.0241;
1012.5000;0.5584;3.0169;
1012.8000;0.5584;3.0169;
1013.1000;0.5617;3.0193;
1013.4000;0.5617;3.0217;
1013.7000;0.5617;3.0265;
1014.0000;0.5617;3.0241;
1014.3000;0.5617;3.0241;
1014.6000;0.5592;3.0169;
1014.9000;0.5617;3.0169;
1015.2000;0.5633;3.0241;
1015.5000;0.5633;3.0217;
1015.8000;0.5600;3.0169;
1016.1000;0.5600;3.0241;
1016.4000;0.5625;3.0289;
1016.7000;0.5608;3.0193;
1017.0000;0.5600;3.0193;
1017.3000;0.5600;3.0145;
1017.6000;0.5617;3.0265;
1017.9000;0.5633;3.0313;
1018.2000;0.5706;3.0480;
1018.5000;0.5625;3.0241;
1018.8000;0.5617;3.0241;
1019.1000;0.5576;3.0122;
1019.4000;0.5600;3.0145;
1019.7000;0.5608;3.0193;
1020.0000;0.5576;3.0145;
1020.3000;0.5600;3.0169;
1020.6000;0.5592;3.0098;
1020.9000;0.5584;3.0074;
1021.2000;0.5600;3.0169;
1021.5000;0.5617;3.0241;
1021.8000;0.5633;3.0193;
1022.1000;0.5617;3.0098;
1022.4000;0.5617;3.0002;
1022.7000;0.5625;2.9907;
1023.0000;0.5625;2.9931;
1023.3000;0.5617;2.9907;
1023.6000;0.5617;2.9907;
1023.9000;0.5633;2.9978;
1024.2000;0.5617;3.0050;
1024.5000;0.5617;2.9978;
1024.8000;0.5617;3.0002;
1025.1000;0.5617;3.0074;
1025.4000;0.5592;2.9978;
1025.7000;0.5617;3.0026;
1026.0000;0.5600;2.9955;
1026.3000;0.5617;3.0050;
1026.6000;0.5600;3.0098;
1026.9000;0.5600;3.0050;
1027.2000;0.5600;3.0026;
1027.5000;0.5617;3.0002;
1027.8000;0.5657;3.0074;
1028.1000;0.5625;3.0026;
1028.4000;0.5600;3.0026;
1028.7000;0.5600;3.0050;
1029.0000;0.5617;3.0169;
1029.3000;0.5608;3.0169;
1029.6000;0.5584;3.0122;
1029.9000;0.5600;3.0074;
1030.2000;0.5584;3.0002;
1030.5000;0.5600;3.0002;
1030.8000;0.5600;3.0074;
1031.1000;0.5608;3.0098;
1031.4000;0.5600;3.0122;
1031.7000;0.5608;3.0217;
1032.0000;0.5625;3.0193;
1032.3000;0.5608;3.0122;
1032.6000;0.5617;3.0074;
1032.9000;0.5625;3.0026;
1033.2000;0.5625;3.0026;
1033.5000;0.5608;2.9978;
1033.8000;0.5600;3.0026;
1034.1000;0.5617;3.0145;
1034.4000;0.5592;3.0145;
1034.7000;0.5600;3.0098;
1035.0000;0.5649;3.0193;
1035.3000;0.5608;3.0169;
1035.6000;0.5625;3.0241;
1035.9000;0.5608;3.0098;
1036.2000;0.5600;3.0074;
1036.5000;0.5617;3.0193;
1036.8000;0.5576;3.0145;
1037.1000;0.5608;3.0289;
1037.4000;0.5649;3.0456;
1037.7000;0.5608;3.0360;
1038.0000;0.5617;3.0408;
1038.3000;0.5600;3.0336;
1038.6000;0.5600;3.0336;
1038.9000;0.5617;3.0408;
1039.2000;0.5617;3.0313;
1039.5000;0.5608;3.0217;
1039.8000;0.5584;3.0193;
1040.1000;0.5600;3.0217;
1040.4000;0.5600;3.0217;
1040.7000;0.5625;3.0336;
1041.0000;0.5617;3.0313;
1041.3000;0.5698;3.0503;
1041.6000;0.5600;3.0265;
1041.9000;0.5617;3.0265;
1042.2000;0.5649;3.0360;
1042.5000;0.5600;3.0265;
1042.8000;0.5608;3.0265;
1043.1000;0.5592;3.0241;
1043.4000;0.5690;3.0432;
1043.7000;0.5600;3.0193;
1044.0000;0.5600;3.0193;
1044.3000;0.5568;3.0169;
1044.6000;0.5617;3.0241;
1044.9000;0.5617;3.0193;
1045.2000;0.5600;3.0169;
1045.5000;0.5608;3.0169;
1045.8000;0.5617;3.0217;
1046.1000;0.5608;3.0169;
1046.4000;0.5625;3.0241;
1046.7000;0.5600;3.0122;
1047.0000;0.5617;3.0122;
1047.3000;0.5617;3.0050;
1047.6000;0.5625;3.0050;
1047.9000;0.5625;3.0098;
1048.2000;0.5600;3.0098;
1048.5000;0.5600;3.0098;
1048.8000;0.5592;3.0122;
1049.1000;0.5617;3.0193;
1049.4000;0.5617;3.0169;
1049.7000;0.5608;3.0098;
1050.0000;0.5608;3.0074;
1050.3000;0.5608;3.0026;
1050.6000;0.5584;3.0002;
1050.9000;0.5617;3.0050;
1051.2000;0.5592;3.0002;
1051.5000;0.5592;3.0169;
1051.8000;0.5600;3.0217;
1052.1000;0.5543;3.0002;
1052.4000;0.5633;3.0265;
1052.7000;0.5511;3.0026;
1053.0000;0.5608;3.0313;
1053.3000;0.5617;3.0289;
1053.6000;0.5608;3.0265;
1053.9000;0.5608;3.0289;
1054.2000;0.5608;3.0193;
1054.5000;0.5608;3.0241;
1054.8000;0.5592;3.0145;
1055.1000;0.5617;3.0145;
1055.4000;0.5600;3.0122;
1055.7000;0.5576;3.0074;
1056.0000;0.5617;3.0098;
1056.3000;0.5584;3.0002;
1056.6000;0.5600;3.0026;
1056.9000;0.5608;3.0002;
1057.2000;0.5600;3.0026;
1057.5000;0.5568;3.0026;
1057.8000;0.5608;3.0122;
1058.1000;0.5625;3.0241;
1058.4000;0.5617;3.0265;
1058.7000;0.5551;3.0145;
1059.0000;0.5543;3.0098;
1059.3000;0.5625;3.0241;
1059.6000;0.5511;3.0026;
1059.9000;0.5641;3.0313;
1060.2000;0.5600;3.0217;
1060.5000;0.5617;3.0265;
1060.8000;0.5657;3.0289;
1061.1000;0.5617;3.0145;
1061.4000;0.5592;3.0050;
1061.7000;0.5560;3.0074;
1062.0000;0.5608;3.0193;
1062.3000;0.5617;3.0241;
1062.6000;0.5592;3.0169;
1062.9000;0.5608;3.0145;
1063.2000;0.5617;3.0217;
1063.5000;0.5608;3.0265;
1063.8000;0.5592;3.0289;
1064.1000;0.5592;3.0289;
1064.4000;0.5592;3.0336;
1064.7000;0.5600;3.0480;
1065.0000;0.5584;3.0432;
1065.3000;0.5617;3.0384;
1065.6000;0.5657;3.0575;
1065.9000;0.5608;3.0384;
1066.2000;0.5543;3.0360;
1066.5000;0.5617;3.0503;
1066.8000;0.5527;3.0169;
1067.1000;0.5584;3.0241;
1067.4000;0.5584;3.0169;
1067.7000;0.5592;3.0241;
1068.0000;0.5584;3.0265;
1068.3000;0.5633;3.0289;
1068.6000;0.5625;3.0289;
1068.9000;0.5592;3.0241;
1069.2000;0.5600;3.0289;
1069.5000;0.5600;3.0360;
1069.8000;0.5608;3.0265;
1070.1000;0.5576;3.0217;
1070.4000;0.5608;3.0265;
1070.7000;0.5600;3.0265;
1071.0000;0.5617;3.0265;
1071.3000;0.5608;3.0217;
1071.6000;0.5600;3.0217;
1071.9000;0.5625;3.0265;
1072.2000;0.5608;3.0265;
1072.5000;0.5608;3.0265;
1072.8000;0.5625;3.0241;
1073.1000;0.5560;3.0122;
1073.4000;0.5608;3.0289;
1073.7000;0.5625;3.0241;
1074.0000;0.5576;3.0098;
1074.3000;0.5592;3.0098;
1074.6000;0.5625;3.0193;
1074.9000;0.5551;3.0026;
1075.2000;0.5600;3.0122;
1075.5000;0.5608;3.0122;
1075.8000;0.5568;3.0050;
1076.1000;0.5714;3.0432;
1076.4000;0.5617;3.0145;
1076.7000;0.5625;3.0289;
1077.0000;0.5600;3.0169;
1077.3000;0.5617;3.0241;
1077.6000;0.5592;3.0169;
1077.9000;0.5617;3.0122;
1078.2000;0.5608;3.0122;
1078.5000;0.5617;3.0217;
1078.8000;0.5617;3.0265;
1079.1000;0.5608;3.0241;
1079.4000;0.5608;3.0193;
1079.7000;0.5625;3.0313;
1080.0000;0.5600;3.0265;
1080.3000;0.5592;3.0193;
1080.6000;0.5584;3.0193;
1080.9000;0.5641;3.0384;
1081.2000;0.5592;3.0265;
1081.5000;0.5600;3.0169;
1081.8000;0.5584;3.0098;
1082.1000;0.5617;3.0217;
1082.4000;0.5608;3.0145;
1082.7000;0.5665;3.0217;
1083.0000;0.5608;3.0122;
1083.3000;0.5617;3.0098;
1083.6000;0.5674;3.0193;
1083.9000;0.5617;3.0026;
1084.2000;0.5608;3.0098;
1084.5000;0.5600;3.0050;
1084.8000;0.5608;3.0122;
1085.1000;0.5633;3.0241;
1085.4000;0.5617;3.0265;
1085.7000;0.5625;3.0265;
1086.0000;0.5608;3.0289;
1086.3000;0.5608;3.0313;
1086.6000;0.5560;3.0193;
1086.9000;0.5592;3.0169;
1087.2000;0.5543;3.0122;
1087.5000;0.5617;3.0289;
1087.8000;0.5608;3.0193;
1088.1000;0.5576;3.0098;
1088.4000;0.5584;3.0169;
1088.7000;0.5657;3.0313;
1089.0000;0.5600;3.0289;
1089.3000;0.5568;3.0145;
1089.6000;0.5568;3.0145;
1089.9000;0.5600;3.0193;
1090.2000;0.5665;3.0265;
1090.5000;0.5535;3.0002;
1090.8000;0.5576;3.0122;
1091.1000;0.5535;3.0026;
1091.4000;0.5592;3.0145;
1091.7000;0.5608;3.0193;
1092.0000;0.5535;2.9955;
1092.3000;0.5608;3.0074;
1092.6000;0.5600;2.9978;
1092.9000;0.5600;3.0002;
1093.2000;0.5592;2.9955;
1093.5000;0.5600;3.0050;
1093.8000;0.5625;3.0122;
1094.1000;0.5600;3.0074;
1094.4000;0.5600;3.0026;
1094.7000;0.5600;3.0098;
1095.0000;0.5625;3.0217;
1095.3000;0.5657;3.0265;
1095.6000;0.5608;3.0145;
1095.9000;0.5592;3.0122;
1096.2000;0.5600;3.0145;
1096.5000;0.5592;3.0217;
1096.8000;0.5600;3.0193;
1097.1000;0.5625;3.0265;
1097.4000;0.5600;3.0145;
1097.7000;0.5592;3.0217;
1098.0000;0.5649;3.0336;
1098.3000;0.5568;3.0122;
1098.6000;0.5592;3.0122;
1098.9000;0.5592;3.0098;
1099.2000;0.5657;3.0241;
1099.5000;0.5608;3.0122;
1099.8000;0.5543;2.9955;
1100.1000;0.5641;3.0169;
1100.4000;0.5600;3.0098;
1100.7000;0.5592;3.0026;
1101.0000;0.5568;3.0074;
1101.3000;0.5592;3.0217;
1101.6000;0.5592;3.0145;
1101.9000;0.5592;3.0122;
1102.2000;0.5617;3.0193;
1102.5000;0.5608;3.0169;
1102.8000;0.5576;2.9978;
1103.1000;0.5617;3.0074;
1103.4000;0.5617;3.0122;
1103.7000;0.5600;3.0193;
1104.0000;0.5608;3.0265;
1104.3000;0.5617;3.0169;
1104.6000;0.5568;3.0074;
1104.9000;0.5649;3.0241;
1105.2000;0.5608;3.0169;
1105.5000;0.5592;3.0074;
1105.8000;0.5592;3.0169;
1106.1000;0.5527;2.9978;
1106.4000;0.5649;3.0169;
1106.7000;0.5576;3.0026;
1107.0000;0.5600;3.0050;
1107.3000;0.5584;2.9955;
1107.6000;0.5600;3.0050;
1107.9000;0.5617;3.0098;
1108.2000;0.5608;3.0074;
1108.5000;0.5600;3.0074;
1108.8000;0.5600;3.0145;
1109.1000;0.5584;3.0122;
1109.4000;0.5592;3.0145;
1109.7000;0.5608;3.0217;
1110.0000;0.5592;3.0098;
1110.3000;0.5600;3.0169;
1110.6000;0.5527;3.0050;
1110.9000;0.5600;3.0169;
1111.2000;0.5747;3.0551;
1111.5000;0.5617;3.0265;
1111.8000;0.5674;3.0456;
1112.1000;0.5608;3.0265;
1112.4000;0.5592;3.0193;
1112.7000;0.5600;3.0145;
1113.0000;0.5608;3.0145;
1113.3000;0.5608;3.0098;
1113.6000;0.5592;3.0026;
1113.9000;0.5617;3.0074;
1114.2000;0.5478;2.9811;
1114.5000;0.5608;3.0145;
1114.8000;0.5617;3.0241;
1115.1000;0.5584;3.0193;
1115.4000;0.5617;3.0265;
1115.7000;0.5535;2.9978;
1116.0000;0.5551;3.0145;
1116.3000;0.5592;3.0289;
1116.6000;0.5608;3.0313;
1116.9000;0.5625;3.0360;
1117.2000;0.5600;3.0336;
1117.5000;0.5625;3.0289;
1117.8000;0.5600;3.0265;
1118.1000;0.5641;3.0360;
1118.4000;0.5617;3.0217;
1118.7000;0.5617;3.0169;
1119.0000;0.5608;3.0265;
1119.3000;0.5649;3.0384;
1119.6000;0.5592;3.0241;
1119.9000;0.5592;3.0241;
1120.2000;0.5608;3.0336;
1120.5000;0.5608;3.0432;
1120.8000;0.5576;3.0360;
1121.1000;0.5600;3.0456;
1121.4000;0.5592;3.0432;
1121.7000;0.5584;3.0360;
1122.0000;0.5576;3.0313;
1122.3000;0.5584;3.0336;
1122.6000;0.5608;3.0360;
1122.9000;0.5592;3.0289;
1123.2000;0.5600;3.0360;
1123.5000;0.5576;3.0313;
1123.8000;0.5519;3.0098;
1124.1000;0.5617;3.0289;
1124.4000;0.5592;3.0217;
1124.7000;0.5568;3.0145;
1125.0000;0.5600;3.0265;
1125.3000;0.5584;3.0265;
1125.6000;0.5535;3.0122;
1125.9000;0.5527;3.0098;
1126.2000;0.5584;3.0193;
1126.5000;0.5560;3.0265;
1126.8000;0.5584;3.0313;
1127.1000;0.5617;3.0336;
1127.4000;0.5576;3.0169;
1127.7000;0.5584;3.0217;
1128.0000;0.5592;3.0289;
1128.3000;0.5608;3.0384;
1128.6000;0.5576;3.0336;
1128.9000;0.5600;3.0360;
1129.2000;0.5625;3.0432;
1129.5000;0.5617;3.0408;
1129.8000;0.5600;3.0384;
1130.1000;0.5592;3.0360;
1130.4000;0.5625;3.0384;
1130.7000;0.5625;3.0360;
1131.0000;0.5608;3.0313;
1131.3000;0.5584;3.0336;
1131.6000;0.5600;3.0408;
1131.9000;0.5584;3.0360;
1132.2000;0.5584;3.0313;
1132.5000;0.5625;3.0289;
1132.8000;0.5584;3.0169;
1133.1000;0.5617;3.0193;
1133.4000;0.5600;3.0265;
1133.7000;0.5600;3.0241;
1134.0000;0.5608;3.0217;
1134.3000;0.5600;3.0145;
1134.6000;0.5600;3.0169;
1134.9000;0.5592;3.0145;
1135.2000;0.5592;3.0074;
1135.5000;0.5600;3.0145;
1135.8000;0.5617;3.0217;
1136.1000;0.5592;3.0265;
1136.4000;0.5584;3.0289;
1136.7000;0.5608;3.0456;
1137.0000;0.5584;3.0289;
1137.3000;0.5576;3.0289;
1137.6000;0.5608;3.0336;
1137.9000;0.5592;3.0289;
1138.2000;0.5665;3.0432;
1138.5000;0.5600;3.0265;
1138.8000;0.5600;3.0193;
1139.1000;0.5633;3.0289;
1139.4000;0.5625;3.0193;
1139.7000;0.5608;3.0241;
1140.0000;0.5592;3.0313;
1140.3000;0.5592;3.0360;
1140.6000;0.5584;3.0360;
1140.9000;0.5600;3.0336;
1141.2000;0.5584;3.0313;
1141.5000;0.5568;3.0336;
1141.8000;0.5608;3.0432;
1142.1000;0.5584;3.0408;
1142.4000;0.5592;3.0384;
1142.7000;0.5543;3.0145;
1143.0000;0.5633;3.0360;
1143.3000;0.5608;3.0336;
1143.6000;0.5617;3.0313;
1143.9000;0.5592;3.0265;
1144.2000;0.5600;3.0289;
1144.5000;0.5600;3.0265;
1144.8000;0.5600;3.0289;
1145.1000;0.5568;3.0289;
1145.4000;0.5584;3.0241;
1145.7000;0.5568;3.0193;
1146.0000;0.5600;3.0265;
1146.3000;0.5576;3.0241;
1146.6000;0.5592;3.0241;
1146.9000;0.5584;3.0217;
1147.2000;0.5592;3.0241;
1147.5000;0.5592;3.0241;
1147.8000;0.5592;3.0265;
1148.1000;0.5600;3.0265;
1148.4000;0.5608;3.0217;
1148.7000;0.5608;3.0217;
1149.0000;0.5551;3.0169;
1149.3000;0.5568;3.0313;
1149.6000;0.5600;3.0408;
1149.9000;0.5625;3.0313;
1150.2000;0.5576;3.0265;
1150.5000;0.5600;3.0265;
1150.8000;0.5600;3.0241;
1151.1000;0.5674;3.0480;
1151.4000;0.5592;3.0217;
1151.7000;0.5584;3.0169;
1152.0000;0.5592;3.0241;
1152.3000;0.5600;3.0241;
1152.6000;0.5600;3.0217;
1152.9000;0.5690;3.0384;
1153.2000;0.5600;3.0145;
1153.5000;0.5625;3.0241;
1153.8000;0.5592;3.0241;
1154.1000;0.5584;3.0074;
1154.4000;0.5608;3.0098;
1154.7000;0.5617;3.0265;
1155.0000;0.5617;3.0241;
1155.3000;0.5576;3.0098;
1155.6000;0.5600;3.0193;
1155.9000;0.5592;3.0265;
1156.2000;0.5617;3.0265;
1156.5000;0.5608;3.0241;
1156.8000;0.5584;3.0265;
1157.1000;0.5592;3.0289;
1157.4000;0.5608;3.0360;
1157.7000;0.5592;3.0193;
1158.0000;0.5584;3.0169;
1158.3000;0.5592;3.0241;
1158.6000;0.5600;3.0336;
1158.9000;0.5592;3.0313;
1159.2000;0.5592;3.0289;
1159.5000;0.5600;3.0289;
1159.8000;0.5568;3.0241;
1160.1000;0.5584;3.0289;
1160.4000;0.5576;3.0241;
1160.7000;0.5584;3.0265;
1161.0000;0.5584;3.0241;
1161.3000;0.5592;3.0217;
1161.6000;0.5576;3.0145;
1161.9000;0.5576;3.0217;
1162.2000;0.5592;3.0217;
1162.5000;0.5584;3.0193;
1162.8000;0.5600;3.0193;
1163.1000;0.5600;3.0145;
1163.4000;0.5511;3.0002;
1163.7000;0.5600;3.0241;
1164.0000;0.5560;3.0145;
1164.3000;0.5600;3.0169;
1164.6000;0.5600;3.0122;
1164.9000;0.5592;3.0074;
1165.2000;0.5600;3.0050;
1165.5000;0.5592;3.0074;
1165.8000;0.5592;3.0050;
1166.1000;0.5576;2.9931;
1166.4000;0.5592;3.0050;
1166.7000;0.5584;3.0002;
1167.0000;0.5576;2.9978;
1167.3000;0.5600;3.0026;
1167.6000;0.5600;3.0074;
1167.9000;0.5543;2.9955;
1168.2000;0.5641;3.0098;
1168.5000;0.5592;3.0026;
1168.8000;0.5576;3.0002;
1169.1000;0.5600;3.0122;
1169.4000;0.5584;3.0026;
1169.7000;0.5600;3.0122;
1170.0000;0.5608;3.0193;
1170.3000;0.5592;3.0122;
1170.6000;0.5592;3.0074;
1170.9000;0.5592;3.0145;
1171.2000;0.5584;3.0098;
1171.5000;0.5600;3.0098;
1171.8000;0.5584;3.0169;
1172.1000;0.5592;3.0217;
1172.4000;0.5584;3.0145;
1172.7000;0.5600;3.0122;
1173.0000;0.5584;3.0122;
1173.3000;0.5576;3.0050;
1173.6000;0.5568;3.0122;
1173.9000;0.5633;3.0289;
1174.2000;0.5584;3.0217;
1174.5000;0.5617;3.0313;
1174.8000;0.5592;3.0241;
1175.1000;0.5511;3.0002;
1175.4000;0.5584;3.0122;
1175.7000;0.5617;3.0217;
1176.0000;0.5633;3.0241;
1176.3000;0.5576;3.0122;
1176.6000;0.5584;3.0169;
1176.9000;0.5608;3.0217;
1177.2000;0.5576;3.0169;
1177.5000;0.5576;3.0169;
1177.8000;0.5600;3.0145;
1178.1000;0.5600;3.0145;
1178.4000;0.5568;3.0074;
1178.7000;0.5584;3.0241;
1179.0000;0.5600;3.0193;
1179.3000;0.5608;3.0193;
1179.6000;0.5600;3.0145;
1179.9000;0.5600;3.0145;
1180.2000;0.5600;3.0074;
1180.5000;0.5592;3.0169;
1180.8000;0.5576;3.0193;
1181.1000;0.5608;3.0336;
1181.4000;0.5608;3.0289;
1181.7000;0.5600;3.0241;
1182.0000;0.5649;3.0432;
1182.3000;0.5592;3.0241;
1182.6000;0.5600;3.0289;
1182.9000;0.5576;3.0336;
1183.2000;0.5584;3.0336;
1183.5000;0.5600;3.0313;
1183.8000;0.5600;3.0313;
1184.1000;0.5617;3.0384;
1184.4000;0.5495;3.0098;
1184.7000;0.5649;3.0408;
1185.0000;0.5592;3.0289;
1185.3000;0.5592;3.0241;
1185.6000;0.5503;2.9978;
1185.9000;0.5600;3.0217;
1186.2000;0.5584;3.0098;
1186.5000;0.5617;3.0122;
1186.8000;0.5584;3.0122;
1187.1000;0.5592;3.0193;
1187.4000;0.5592;3.0193;
1187.7000;0.5608;3.0289;
1188.0000;0.5543;2.9978;
1188.3000;0.5576;3.0169;
1188.6000;0.5608;3.0241;
1188.9000;0.5600;3.0360;
1189.2000;0.5625;3.0360;
1189.5000;0.5592;3.0193;
1189.8000;0.5600;3.0122;
1190.1000;0.5551;3.0002;
1190.4000;0.5584;3.0169;
1190.7000;0.5568;3.0050;
1191.0000;0.5560;3.0026;
1191.3000;0.5641;3.0313;
1191.6000;0.5576;3.0074;
1191.9000;0.5584;3.0026;
1192.2000;0.5560;2.9978;
1192.5000;0.5584;3.0050;
1192.8000;0.5592;3.0122;
1193.1000;0.5600;3.0241;
1193.4000;0.5584;3.0145;
1193.7000;0.5608;3.0074;
1194.0000;0.5576;2.9955;
1194.3000;0.5592;2.9907;
1194.6000;0.5592;2.9955;
1194.9000;0.5576;2.9955;
1195.2000;0.5592;2.9955;
1195.5000;0.5592;2.9931;
1195.8000;0.5617;3.0050;
1196.1000;0.5600;3.0002;
1196.4000;0.5592;2.9978;
1196.7000;0.5608;3.0074;
1197.0000;0.5608;3.0074;
1197.3000;0.5592;3.0026;
1197.6000;0.5625;3.0050;
1197.9000;0.5600;2.9883;
1198.2000;0.5600;3.0002;
1198.5000;0.5608;3.0122;
1198.8000;0.5600;3.0074;
1199.1000;0.5535;2.9955;
1199.4000;0.5600;3.0122;
1199.7000;0.5551;3.0002;
1200.0000;0.5600;3.0026;
1200.3000;0.5592;3.0002;
1200.6000;0.5495;2.9883;
1200.9000;0.5592;3.0098;
1201.2000;0.5568;3.0050;
1201.5000;0.5592;3.0098;
1201.8000;0.5592;3.0098;
1202.1000;0.5592;3.0074;
1202.4000;0.5568;3.0002;
1202.7000;0.5511;2.9811;
1203.0000;0.5608;3.0074;
1203.3000;0.5543;2.9883;
1203.6000;0.5608;3.0002;
1203.9000;0.5592;2.9978;
1204.2000;0.5608;3.0026;
1204.5000;0.5608;3.0098;
1204.8000;0.5527;2.9978;
1205.1000;0.5560;3.0026;
1205.4000;0.5560;3.0145;
1205.7000;0.5551;3.0169;
1206.0000;0.5584;3.0217;
1206.3000;0.5543;3.0050;
1206.6000;0.5592;3.0193;
1206.9000;0.5608;3.0217;
1207.2000;0.5568;3.0074;
1207.5000;0.5617;3.0217;
1207.8000;0.5576;3.0145;
1208.1000;0.5535;3.0145;
1208.4000;0.5576;3.0241;
1208.7000;0.5551;3.0169;
1209.0000;0.5608;3.0217;
1209.3000;0.5600;3.0145;
1209.6000;0.5592;3.0098;
1209.9000;0.5600;3.0193;
1210.2000;0.5633;3.0241;
1210.5000;0.5600;3.0098;
1210.8000;0.5543;3.0002;
1211.1000;0.5584;3.0098;
1211.4000;0.5600;3.0074;
1211.7000;0.5592;3.0098;
1212.0000;0.5600;3.0074;
1212.3000;0.5625;3.0002;
1212.6000;0.5592;2.9835;
1212.9000;0.5600;2.9835;
1213.2000;0.5633;2.9859;
1213.5000;0.5608;2.9907;
1213.8000;0.5568;2.9859;
1214.1000;0.5576;2.9907;
1214.4000;0.5600;3.0002;
1214.7000;0.5535;2.9811;
1215.0000;0.5617;3.0074;
1215.3000;0.5592;3.0026;
1215.6000;0.5584;3.0050;
1215.9000;0.5625;3.0098;
1216.2000;0.5576;2.9955;
1216.5000;0.5592;3.0026;
1216.8000;0.5584;3.0098;
1217.1000;0.5576;3.0074;
1217.4000;0.5584;3.0026;
1217.7000;0.5584;3.0169;
1218.0000;0.5600;3.0241;
1218.3000;0.5608;3.0241;
1218.6000;0.5592;3.0217;
1218.9000;0.5551;3.0098;
1219.2000;0.5608;3.0145;
1219.5000;0.5576;3.0074;
1219.8000;0.5600;3.0169;
1220.1000;0.5600;3.0217;
1220.4000;0.5576;3.0145;
1220.7000;0.5592;3.0074;
1221.0000;0.5600;3.0050;
1221.3000;0.5576;2.9931;
1221.6000;0.5543;2.9883;
1221.9000;0.5584;2.9955;
1222.2000;0.5608;3.0002;
1222.5000;0.5617;2.9955;
1222.8000;0.5608;2.9931;
1223.1000;0.5600;3.0050;
1223.4000;0.5600;3.0050;
1223.7000;0.5576;2.9907;
1224.0000;0.5543;2.9811;
1224.3000;0.5608;3.0002;
1224.6000;0.5600;2.9931;
1224.9000;0.5592;2.9978;
1225.2000;0.5600;2.9978;
1225.5000;0.5584;2.9931;
1225.8000;0.5608;3.0002;
1226.1000;0.5592;2.9978;
1226.4000;0.5592;2.9931;
1226.7000;0.5649;3.0026;
1227.0000;0.5568;2.9835;
1227.3000;0.5576;2.9835;
1227.6000;0.5560;2.9811;
1227.9000;0.5584;3.0050;
1228.2000;0.5592;3.0122;
1228.5000;0.5592;3.0098;
1228.8000;0.5608;3.0193;
1229.1000;0.5543;3.0026;
1229.4000;0.5584;3.0122;
1229.7000;0.5560;3.0002;
1230.0000;0.5633;3.0122;
1230.3000;0.5592;3.0002;
1230.6000;0.5584;2.9978;
1230.9000;0.5592;2.9978;
1231.2000;0.5568;2.9955;
1231.5000;0.5568;3.0002;
1231.8000;0.5560;3.0002;
1232.1000;0.5584;3.0050;
1232.4000;0.5576;3.0002;
1232.7000;0.5495;2.9764;
1233.0000;0.5576;2.9978;
1233.3000;0.5600;3.0145;
1233.6000;0.5584;3.0217;
1233.9000;0.5576;3.0265;
1234.2000;0.5600;3.0408;
1234.5000;0.5576;3.0289;
1234.8000;0.5576;3.0313;
1235.1000;0.5592;3.0313;
1235.4000;0.5576;3.0336;
1235.7000;0.5576;3.0336;
1236.0000;0.5592;3.0408;
1236.3000;0.5584;3.0336;
1236.6000;0.5600;3.0360;
1236.9000;0.5568;3.0265;
1237.2000;0.5600;3.0313;
1237.5000;0.5592;3.0265;
1237.8000;0.5600;3.0122;
1238.1000;0.5560;3.0050;
1238.4000;0.5576;3.0074;
1238.7000;0.5649;3.0217;
1239.0000;0.5576;3.0217;
1239.3000;0.5576;3.0289;
1239.6000;0.5584;3.0265;
1239.9000;0.5511;3.0026;
1240.2000;0.5592;3.0241;
1240.5000;0.5592;3.0313;
1240.8000;0.5584;3.0193;
1241.1000;0.5592;3.0145;
1241.4000;0.5584;3.0193;
1241.7000;0.5568;3.0098;
1242.0000;0.5576;3.0169;
1242.3000;0.5584;3.0169;
1242.6000;0.5584;3.0193;
1242.9000;0.5543;3.0145;
1243.2000;0.5576;3.0193;
1243.5000;0.5576;3.0169;
1243.8000;0.5592;3.0193;
1244.1000;0.5600;3.0169;
1244.4000;0.5600;3.0217;
1244.7000;0.5592;3.0217;
1245.0000;0.5584;3.0289;
1245.3000;0.5600;3.0289;
1245.6000;0.5592;3.0217;
1245.9000;0.5568;3.0122;
1246.2000;0.5600;3.0169;
1246.5000;0.5584;3.0050;
1246.8000;0.5600;3.0074;
1247.1000;0.5600;3.0122;
1247.4000;0.5584;3.0122;
1247.7000;0.5584;3.0098;
1248.0000;0.5600;3.0074;
1248.3000;0.5617;3.0169;
1248.6000;0.5600;3.0145;
1248.9000;0.5625;3.0193;
1249.2000;0.5617;3.0217;
1249.5000;0.5608;3.0336;
1249.8000;0.5600;3.0408;
1250.1000;0.5608;3.0408;
1250.4000;0.5600;3.0313;
1250.7000;0.5600;3.0336;
1251.0000;0.5617;3.0265;
1251.3000;0.5633;3.0408;
1251.6000;0.5674;3.0456;
1251.9000;0.5592;3.0217;
1252.2000;0.5576;3.0217;
1252.5000;0.5576;3.0313;
1252.8000;0.5576;3.0265;
1253.1000;0.5584;3.0193;
1253.4000;0.5584;3.0169;
1253.7000;0.5592;3.0122;
1254.0000;0.5592;3.0098;
1254.3000;0.5608;3.0122;
1254.6000;0.5576;3.0050;
1254.9000;0.5617;3.0098;
1255.2000;0.5592;3.0145;
1255.5000;0.5608;3.0193;
1255.8000;0.5592;3.0169;
1256.1000;0.5600;3.0265;
1256.4000;0.5600;3.0360;
1256.7000;0.5568;3.0289;
1257.0000;0.5608;3.0384;
1257.3000;0.5592;3.0336;
1257.6000;0.5600;3.0313;
1257.9000;0.5592;3.0313;
1258.2000;0.5600;3.0408;
1258.5000;0.5592;3.0360;
1258.8000;0.5535;3.0193;
1259.1000;0.5617;3.0384;
1259.4000;0.5600;3.0336;
1259.7000;0.5608;3.0432;
1260.0000;0.5584;3.0408;
1260.3000;0.5592;3.0336;
1260.6000;0.5608;3.0289;
1260.9000;0.5600;3.0217;
1261.2000;0.5584;3.0169;
1261.5000;0.5608;3.0265;
1261.8000;0.5592;3.0289;
1262.1000;0.5617;3.0384;
1262.4000;0.5576;3.0336;
1262.7000;0.5592;3.0313;
1263.0000;0.5600;3.0336;
1263.3000;0.5592;3.0313;
1263.6000;0.5592;3.0265;
1263.9000;0.5592;3.0241;
1264.2000;0.5600;3.0217;
1264.5000;0.5600;3.0265;
1264.8000;0.5600;3.0289;
1265.1000;0.5592;3.0265;
1265.4000;0.5584;3.0289;
1265.7000;0.5592;3.0313;
1266.0000;0.5576;3.0289;
1266.3000;0.5576;3.0313;
1266.6000;0.5600;3.0313;
1266.9000;0.5608;3.0313;
1267.2000;0.5608;3.0336;
1267.5000;0.5584;3.0241;
1267.8000;0.5592;3.0289;
1268.1000;0.5625;3.0456;
1268.4000;0.5584;3.0289;
1268.7000;0.5600;3.0241;
1269.0000;0.5633;3.0408;
1269.3000;0.5592;3.0193;
1269.6000;0.5584;3.0145;
1269.9000;0.5649;3.0313;
1270.2000;0.5592;3.0145;
1270.5000;0.5592;3.0145;
1270.8000;0.5584;3.0122;
1271.1000;0.5584;3.0074;
1271.4000;0.5584;3.0145;
1271.7000;0.5592;3.0145;
1272.0000;0.5551;3.0074;
1272.3000;0.5592;3.0217;
1272.6000;0.5511;2.9955;
1272.9000;0.5568;3.0050;
1273.2000;0.5600;3.0169;
1273.5000;0.5592;3.0193;
1273.8000;0.5576;3.0217;
1274.1000;0.5584;3.0265;
1274.4000;0.5584;3.0313;
1274.7000;0.5592;3.0336;
1275.0000;0.5592;3.0265;
1275.3000;0.5584;3.0169;
1275.6000;0.5608;3.0169;
1275.9000;0.5617;3.0265;
1276.2000;0.5568;3.0289;
1276.5000;0.5600;3.0265;
1276.8000;0.5576;3.0217;
1277.1000;0.5584;3.0217;
1277.4000;0.5600;3.0145;
1277.7000;0.5592;3.0169;
1278.0000;0.5600;3.0241;
1278.3000;0.5584;3.0145;
1278.6000;0.5584;3.0122;
1278.9000;0.5584;3.0193;
1279.2000;0.5584;3.0169;
1279.5000;0.5600;3.0241;
1279.8000;0.5568;3.0169;
1280.1000;0.5584;3.0193;
1280.4000;0.5584;3.0217;
1280.7000;0.5608;3.0265;
1281.0000;0.5592;3.0265;
1281.3000;0.5592;3.0241;
1281.6000;0.5584;3.0289;
1281.9000;0.5584;3.0360;
1282.2000;0.5592;3.0384;
1282.5000;0.5568;3.0289;
1282.8000;0.5649;3.0599;
1283.1000;0.5584;3.0456;
1283.4000;0.5608;3.0503;
1283.7000;0.5576;3.0456;
1284.0000;0.5576;3.0408;
1284.3000;0.5527;3.0217;
1284.6000;0.5600;3.0384;
1284.9000;0.5576;3.0265;
1285.2000;0.5592;3.0217;
1285.5000;0.5600;3.0336;
1285.8000;0.5600;3.0384;
1286.1000;0.5592;3.0360;
1286.4000;0.5592;3.0336;
1286.7000;0.5576;3.0360;
1287.0000;0.5584;3.0408;
1287.3000;0.5584;3.0432;
1287.6000;0.5560;3.0384;
1287.9000;0.5568;3.0336;
1288.2000;0.5576;3.0265;
1288.5000;0.5584;3.0289;
1288.8000;0.5592;3.0336;
1289.1000;0.5527;3.0217;
1289.4000;0.5568;3.0289;
1289.7000;0.5543;3.0193;
1290.0000;0.5576;3.0265;
1290.3000;0.5649;3.0456;
1290.6000;0.5617;3.0313;
1290.9000;0.5584;3.0169;
1291.2000;0.5657;3.0313;
1291.5000;0.5576;3.0122;
1291.8000;0.5568;3.0122;
1292.1000;0.5584;3.0193;
1292.4000;0.5584;3.0169;
1292.7000;0.5584;3.0122;
1293.0000;0.5543;3.0026;
1293.3000;0.5592;3.0145;
1293.6000;0.5608;3.0169;
1293.9000;0.5600;3.0193;
1294.2000;0.5576;3.0145;
1294.5000;0.5576;3.0098;
1294.8000;0.5600;3.0193;
1295.1000;0.5584;3.0241;
1295.4000;0.5592;3.0265;
1295.7000;0.5584;3.0217;
1296.0000;0.5600;3.0265;
1296.3000;0.5600;3.0313;
1296.6000;0.5600;3.0313;
1296.9000;0.5592;3.0360;
1297.2000;0.5584;3.0360;
1297.5000;0.5576;3.0336;
1297.8000;0.5584;3.0408;
1298.1000;0.5568;3.0384;
1298.4000;0.5617;3.0503;
1298.7000;0.5592;3.0456;
1299.0000;0.5600;3.0408;
1299.3000;0.5641;3.0432;
1299.6000;0.5560;3.0265;
1299.9000;0.5600;3.0289;
1300.2000;0.5592;3.0289;
1300.5000;0.5592;3.0265;
1300.8000;0.5584;3.0241;
1301.1000;0.5584;3.0217;
1301.4000;0.5568;3.0145;
1301.7000;0.5576;3.0122;
1302.0000;0.5560;3.0074;
1302.3000;0.5551;3.0050;
1302.6000;0.5568;3.0122;
1302.9000;0.5584;3.0098;
1303.2000;0.5576;3.0098;
1303.5000;0.5592;3.0217;
1303.8000;0.5576;3.0265;
1304.1000;0.5527;3.0098;
1304.4000;0.5576;3.0336;
1304.7000;0.5592;3.0408;
1305.0000;0.5608;3.0360;
1305.3000;0.5608;3.0360;
1305.6000;0.5576;3.0336;
1305.9000;0.5608;3.0408;
1306.2000;0.5592;3.0360;
1306.5000;0.5600;3.0384;
1306.8000;0.5592;3.0408;
1307.1000;0.5600;3.0432;
1307.4000;0.5584;3.0432;
1307.7000;0.5592;3.0432;
1308.0000;0.5568;3.0480;
1308.3000;0.5560;3.0456;
1308.6000;0.5576;3.0503;
1308.9000;0.5617;3.0503;
1309.2000;0.5608;3.0336;
1309.5000;0.5592;3.0289;
1309.8000;0.5600;3.0384;
1310.1000;0.5600;3.0408;
1310.4000;0.5584;3.0408;
1310.7000;0.5592;3.0360;
1311.0000;0.5608;3.0384;
1311.3000;0.5657;3.0480;
1311.6000;0.5592;3.0265;
1311.9000;0.5592;3.0241;
1312.2000;0.5600;3.0265;
1312.5000;0.5576;3.0169;
1312.8000;0.5568;3.0050;
1313.1000;0.5576;3.0002;
1313.4000;0.5592;3.0026;
1313.7000;0.5568;2.9955;
1314.0000;0.5560;2.9955;
1314.3000;0.5486;2.9716;
1314.6000;0.5584;2.9907;
1314.9000;0.5600;2.9931;
1315.2000;0.5584;2.9931;
1315.5000;0.5584;2.9955;
1315.8000;0.5608;3.0098;
1316.1000;0.5584;3.0074;
1316.4000;0.5600;3.0026;
1316.7000;0.5592;3.0026;
1317.0000;0.5592;3.0050;
1317.3000;0.5551;2.9955;
1317.6000;0.5576;2.9883;
1317.9000;0.5592;2.9883;
1318.2000;0.5568;2.9883;
1318.5000;0.5543;2.9787;
1318.8000;0.5600;2.9883;
1319.1000;0.5592;2.9859;
1319.4000;0.5592;2.9978;
1319.7000;0.5584;3.0002;
1320.0000;0.5584;3.0026;
1320.3000;0.5625;3.0193;
1320.6000;0.5584;3.0122;
1320.9000;0.5560;3.0074;
1321.2000;0.5576;3.0145;
1321.5000;0.5576;3.0193;
1321.8000;0.5592;3.0217;
1322.1000;0.5551;3.0098;
1322.4000;0.5617;3.0265;
1322.7000;0.5568;3.0193;
1323.0000;0.5535;3.0098;
1323.3000;0.5551;3.0241;
1323.6000;0.5584;3.0193;
1323.9000;0.5584;3.0193;
1324.2000;0.5592;3.0169;
1324.5000;0.5560;3.0074;
1324.8000;0.5584;3.0217;
1325.1000;0.5576;3.0217;
1325.4000;0.5592;3.0193;
1325.7000;0.5592;3.0098;
1326.0000;0.5584;3.0193;
1326.3000;0.5584;3.0241;
1326.6000;0.5543;3.0098;
1326.9000;0.5592;3.0241;
1327.2000;0.5592;3.0169;
1327.5000;0.5576;3.0098;
1327.8000;0.5592;3.0193;
1328.1000;0.5576;3.0145;
1328.4000;0.5576;3.0074;
1328.7000;0.5568;2.9931;
1329.0000;0.5543;2.9835;
1329.3000;0.5600;3.0002;
1329.6000;0.5592;3.0002;
1329.9000;0.5641;3.0193;
1330.2000;0.5600;3.0050;
1330.5000;0.5600;3.0050;
1330.8000;0.5543;2.9955;
1331.1000;0.5592;3.0050;
1331.4000;0.5592;3.0122;
1331.7000;0.5608;3.0241;
1332.0000;0.5576;3.0145;
1332.3000;0.5576;3.0265;
1332.6000;0.5584;3.0241;
1332.9000;0.5592;3.0193;
1333.2000;0.5584;3.0217;
1333.5000;0.5584;3.0217;
1333.8000;0.5625;3.0265;
1334.1000;0.5576;3.0217;
1334.4000;0.5592;3.0289;
1334.7000;0.5592;3.0217;
1335.0000;0.5608;3.0241;
1335.3000;0.5543;3.0074;
1335.6000;0.5592;3.0217;
1335.9000;0.5576;3.0169;
1336.2000;0.5584;3.0169;
1336.5000;0.5600;3.0098;
1336.8000;0.5608;3.0074;
1337.1000;0.5584;2.9978;
1337.4000;0.5600;3.0074;
1337.7000;0.5584;2.9955;
1338.0000;0.5568;2.9978;
1338.3000;0.5568;2.9978;
1338.6000;0.5568;3.0026;
1338.9000;0.5568;2.9907;
1339.2000;0.5568;2.9883;
1339.5000;0.5592;2.9859;
1339.8000;0.5608;2.9859;
1340.1000;0.5576;2.9787;
1340.4000;0.5608;2.9907;
1340.7000;0.5592;2.9787;
1341.0000;0.5584;2.9835;
1341.3000;0.5600;2.9907;
1341.6000;0.5592;3.0002;
1341.9000;0.5617;3.0122;
1342.2000;0.5576;2.9978;
1342.5000;0.5592;2.9978;
1342.8000;0.5592;3.0026;
1343.1000;0.5617;3.0002;
1343.4000;0.5576;2.9931;
1343.7000;0.5568;3.0026;
1344.0000;0.5617;3.0122;
1344.3000;0.5584;3.0026;
1344.6000;0.5600;3.0002;
1344.9000;0.5592;3.0074;
1345.2000;0.5576;3.0026;
1345.5000;0.5600;3.0002;
1345.8000;0.5633;3.0074;
1346.1000;0.5511;2.9883;
1346.4000;0.5551;3.0026;
1346.7000;0.5519;2.9883;
1347.0000;0.5568;2.9931;
1347.3000;0.5576;2.9907;
1347.6000;0.5584;2.9931;
1347.9000;0.5560;2.9883;
1348.2000;0.5592;2.9978;
1348.5000;0.5592;3.0002;
1348.8000;0.5568;2.9955;
1349.1000;0.5568;2.9883;
1349.4000;0.5560;2.9859;
1349.7000;0.5568;2.9931;
1350.0000;0.5576;2.9931;
1350.3000;0.5576;2.9931;
1350.6000;0.5584;2.9955;
1350.9000;0.5576;2.9978;
1351.2000;0.5568;2.9883;
1351.5000;0.5519;2.9764;
1351.8000;0.5674;3.0026;
1352.1000;0.5568;2.9787;
1352.4000;0.5584;2.9907;
1352.7000;0.5592;2.9955;
1353.0000;0.5592;2.9931;
1353.3000;0.5600;2.9978;
1353.6000;0.5584;2.9978;
1353.9000;0.5600;2.9978;
1354.2000;0.5576;2.9931;
1354.5000;0.5584;3.0002;
1354.8000;0.5617;3.0026;
1355.1000;0.5584;2.9931;
1355.4000;0.5592;2.9955;
1355.7000;0.5584;2.9978;
1356.0000;0.5592;3.0074;
1356.3000;0.5576;3.0002;
1356.6000;0.5600;2.9978;
1356.9000;0.5560;2.9835;
1357.2000;0.5592;2.9907;
1357.5000;0.5592;2.9931;
1357.8000;0.5584;2.9931;
1358.1000;0.5592;2.9907;
1358.4000;0.5600;2.9907;
1358.7000;0.5576;2.9883;
1359.0000;0.5576;2.9883;
1359.3000;0.5600;2.9907;
1359.6000;0.5584;2.9859;
1359.9000;0.5592;2.9955;
1360.2000;0.5600;2.9931;
1360.5000;0.5584;2.9907;
1360.8000;0.5674;3.0098;
1361.1000;0.5641;2.9955;
1361.4000;0.5592;2.9907;
1361.7000;0.5600;2.9978;
1362.0000;0.5649;3.0145;
1362.3000;0.5600;3.0050;
1362.6000;0.5584;2.9978;
1362.9000;0.5551;2.9883;
1363.2000;0.5527;2.9811;
1363.5000;0.5560;2.9811;
1363.8000;0.5592;2.9859;
1364.1000;0.5617;2.9978;
1364.4000;0.5568;2.9907;
1364.7000;0.5592;3.0050;
1365.0000;0.5600;3.0122;
1365.3000;0.5592;3.0074;
1365.6000;0.5592;3.0098;
1365.9000;0.5608;3.0169;
1366.2000;0.5560;3.0098;
1366.5000;0.5584;3.0145;
1366.8000;0.5584;3.0169;
1367.1000;0.5584;3.0145;
1367.4000;0.5600;3.0145;
1367.7000;0.5576;3.0050;
1368.0000;0.5592;3.0026;
1368.3000;0.5600;3.0074;
1368.6000;0.5592;3.0026;
1368.9000;0.5592;3.0122;
1369.2000;0.5568;3.0050;
1369.5000;0.5584;3.0074;
1369.8000;0.5543;2.9978;
1370.1000;0.5568;3.0002;
1370.4000;0.5584;3.0002;
1370.7000;0.5576;3.0026;
1371.0000;0.5584;3.0098;
1371.3000;0.5600;3.0193;
1371.6000;0.5608;3.0217;
1371.9000;0.5600;3.0169;
1372.2000;0.5592;3.0145;
1372.5000;0.5600;3.0241;
1372.8000;0.5617;3.0265;
1373.1000;0.5568;3.0145;
1373.4000;0.5576;3.0217;
1373.7000;0.5576;3.0193;
1374.0000;0.5576;3.0145;
1374.3000;0.5576;3.0145;
1374.6000;0.5576;3.0145;
1374.9000;0.5560;3.0122;
1375.2000;0.5576;3.0145;
1375.5000;0.5560;3.0050;
1375.8000;0.5576;3.0002;
1376.1000;0.5584;2.9978;
1376.4000;0.5584;3.0074;
1376.7000;0.5592;3.0122;
1377.0000;0.5576;3.0050;
1377.3000;0.5584;3.0122;
1377.6000;0.5592;3.0169;
1377.9000;0.5576;3.0217;
1378.2000;0.5576;3.0122;
1378.5000;0.5584;3.0098;
1378.8000;0.5600;3.0074;
1379.1000;0.5584;3.0098;
1379.4000;0.5576;3.0122;
1379.7000;0.5584;3.0122;
1380.0000;0.5592;3.0074;
1380.3000;0.5592;2.9978;
1380.6000;0.5568;2.9883;
1380.9000;0.5584;3.0002;
1381.2000;0.5592;3.0050;
1381.5000;0.5560;3.0074;
1381.8000;0.5576;3.0098;
1382.1000;0.5576;3.0098;
1382.4000;0.5592;3.0002;
1382.7000;0.5584;3.0002;
1383.0000;0.5568;2.9978;
1383.3000;0.5543;3.0026;
1383.6000;0.5584;3.0098;
1383.9000;0.5568;3.0050;
1384.2000;0.5568;3.0050;
1384.5000;0.5568;3.0050;
1384.8000;0.5576;3.0050;
1385.1000;0.5527;2.9859;
1385.4000;0.5584;3.0026;
1385.7000;0.5560;2.9931;
1386.0000;0.5478;2.9740;
1386.3000;0.5584;3.0050;
1386.6000;0.5633;3.0193;
1386.9000;0.5576;3.0145;
1387.2000;0.5600;3.0289;
1387.5000;0.5568;3.0265;
1387.8000;0.5584;3.0289;
1388.1000;0.5543;3.0193;
1388.4000;0.5576;3.0217;
1388.7000;0.5592;3.0122;
1389.0000;0.5584;3.0098;
1389.3000;0.5560;3.0122;
1389.6000;0.5584;3.0193;
1389.9000;0.5600;3.0241;
1390.2000;0.5600;3.0193;
1390.5000;0.5600;3.0217;
1390.8000;0.5543;3.0122;
1391.1000;0.5592;3.0336;
1391.4000;0.5576;3.0217;
1391.7000;0.5576;3.0145;
1392.0000;0.5592;3.0193;
1392.3000;0.5584;3.0289;
1392.6000;0.5584;3.0241;
1392.9000;0.5592;3.0289;
1393.2000;0.5576;3.0217;
1393.5000;0.5584;3.0217;
1393.8000;0.5608;3.0265;
1394.1000;0.5560;3.0145;
1394.4000;0.5568;3.0169;
1394.7000;0.5560;3.0193;
1395.0000;0.5568;3.0265;
1395.3000;0.5657;3.0503;
1395.6000;0.5584;3.0265;
1395.9000;0.5560;3.0336;
1396.2000;0.5519;3.0241;
1396.5000;0.5584;3.0313;
1396.8000;0.5568;3.0217;
1397.1000;0.5560;3.0122;
1397.4000;0.5576;3.0145;
1397.7000;0.5584;3.0122;
1398.0000;0.5592;3.0217;
1398.3000;0.5560;3.0145;
1398.6000;0.5568;3.0193;
1398.9000;0.5584;3.0241;
1399.2000;0.5535;3.0193;
1399.5000;0.5584;3.0217;
1399.8000;0.5633;3.0360;
