time/ms;Fluo/V;P700 deltaI/I x10³;
-199.8000;0.5983;3.0861;
-199.5000;0.6015;3.0981;
-199.2000;0.6007;3.0885;
-198.9000;0.6015;3.0885;
-198.6000;0.6024;3.0861;
-198.3000;0.6024;3.0885;
-198.0000;0.6015;3.0814;
-197.7000;0.5975;3.0742;
-197.4000;0.6007;3.0838;
-197.1000;0.6015;3.0885;
-196.8000;0.6024;3.0885;
-196.5000;0.6081;3.1076;
-196.2000;0.5991;3.0790;
-195.9000;0.6007;3.0838;
-195.6000;0.6007;3.0790;
-195.3000;0.5999;3.0814;
-195.0000;0.6024;3.0838;
-194.7000;0.5991;3.0694;
-194.4000;0.5991;3.0718;
-194.1000;0.6007;3.0766;
-193.8000;0.5983;3.0694;
-193.5000;0.5975;3.0694;
-193.2000;0.6064;3.0957;
-192.9000;0.5975;3.0766;
-192.6000;0.6007;3.0814;
-192.3000;0.6097;3.0933;
-192.0000;0.6024;3.0671;
-191.7000;0.5967;3.0599;
-191.4000;0.6015;3.0671;
-191.1000;0.5991;3.0575;
-190.8000;0.5967;3.0480;
-190.5000;0.6015;3.0575;
-190.2000;0.5983;3.0480;
-189.9000;0.6015;3.0671;
-189.6000;0.5950;3.0527;
-189.3000;0.6024;3.0742;
-189.0000;0.6032;3.0790;
-188.7000;0.5983;3.0766;
-188.4000;0.6007;3.0790;
-188.1000;0.6007;3.0790;
-187.8000;0.6007;3.0766;
-187.5000;0.6007;3.0814;
-187.2000;0.6015;3.0861;
-186.9000;0.6024;3.0814;
-186.6000;0.5975;3.0671;
-186.3000;0.6015;3.0861;
-186.0000;0.5983;3.0838;
-185.7000;0.6024;3.0981;
-185.4000;0.5999;3.0861;
-185.1000;0.6007;3.0838;
-184.8000;0.6007;3.0766;
-184.5000;0.6015;3.0933;
-184.2000;0.5991;3.0909;
-183.9000;0.5975;3.0885;
-183.6000;0.5983;3.0933;
-183.3000;0.5999;3.0933;
-183.0000;0.6024;3.1100;
-182.7000;0.6007;3.1100;
-182.4000;0.6007;3.1124;
-182.1000;0.6007;3.1052;
-181.8000;0.6015;3.1029;
-181.5000;0.6007;3.0861;
-181.2000;0.5999;3.0766;
-180.9000;0.6015;3.0909;
-180.6000;0.5999;3.0885;
-180.3000;0.6007;3.0838;
-180.0000;0.6024;3.0885;
-179.7000;0.6056;3.0957;
-179.4000;0.6007;3.0981;
-179.1000;0.5999;3.0933;
-178.8000;0.5983;3.0933;
-178.5000;0.5975;3.0933;
-178.2000;0.6007;3.1005;
-177.9000;0.6007;3.0981;
-177.6000;0.6024;3.1005;
-177.3000;0.6015;3.1005;
-177.0000;0.5999;3.0957;
-176.7000;0.6048;3.1005;
-176.4000;0.6024;3.1005;
-176.1000;0.5991;3.0957;
-175.8000;0.5991;3.0957;
-175.5000;0.6024;3.1005;
-175.2000;0.6056;3.1148;
-174.9000;0.6007;3.1029;
-174.6000;0.6007;3.1076;
-174.3000;0.5999;3.1052;
-174.0000;0.6007;3.0933;
-173.7000;0.5991;3.0814;
-173.4000;0.5999;3.0790;
-173.1000;0.6007;3.0814;
-172.8000;0.5999;3.0694;
-172.5000;0.6015;3.0623;
-172.2000;0.6015;3.0647;
-171.9000;0.6007;3.0671;
-171.6000;0.6024;3.0742;
-171.3000;0.6007;3.0814;
-171.0000;0.6007;3.0790;
-170.7000;0.6015;3.0694;
-170.4000;0.5991;3.0599;
-170.1000;0.6007;3.0599;
-169.8000;0.5999;3.0623;
-169.5000;0.6007;3.0623;
-169.2000;0.5991;3.0599;
-168.9000;0.5991;3.0671;
-168.6000;0.6007;3.0742;
-168.3000;0.6048;3.0885;
-168.0000;0.6007;3.0790;
-167.7000;0.6024;3.0790;
-167.4000;0.6007;3.0790;
-167.1000;0.5999;3.0694;
-166.8000;0.6015;3.0647;
-166.5000;0.6007;3.0718;
-166.2000;0.6024;3.0766;
-165.9000;0.6015;3.0742;
-165.6000;0.6007;3.0718;
-165.3000;0.6007;3.0766;
-165.0000;0.5999;3.0861;
-164.7000;0.5999;3.0933;
-164.4000;0.6007;3.1029;
-164.1000;0.6032;3.1052;
-163.8000;0.6007;3.0981;
-163.5000;0.6015;3.0933;
-163.2000;0.5991;3.0909;
-162.9000;0.5999;3.0909;
-162.6000;0.6015;3.0861;
-162.3000;0.6064;3.0790;
-162.0000;0.6015;3.0671;
-161.7000;0.6024;3.0694;
-161.4000;0.6032;3.0766;
-161.1000;0.5999;3.0718;
-160.8000;0.6007;3.0790;
-160.5000;0.6015;3.0814;
-160.2000;0.6015;3.0766;
-159.9000;0.5991;3.0694;
-159.6000;0.5999;3.0766;
-159.3000;0.5983;3.0790;
-159.0000;0.5999;3.0838;
-158.7000;0.5999;3.0909;
-158.4000;0.6015;3.0933;
-158.1000;0.6040;3.0957;
-157.8000;0.5999;3.0933;
-157.5000;0.5950;3.0766;
-157.2000;0.6007;3.0909;
-156.9000;0.6024;3.0885;
-156.6000;0.5918;3.0575;
-156.3000;0.6015;3.0885;
-156.0000;0.6032;3.0861;
-155.7000;0.6007;3.0814;
-155.4000;0.6015;3.0766;
-155.1000;0.6040;3.0742;
-154.8000;0.6007;3.0671;
-154.5000;0.5999;3.0718;
-154.2000;0.6024;3.0814;
-153.9000;0.5999;3.0814;
-153.6000;0.5999;3.0814;
-153.3000;0.6015;3.0861;
-153.0000;0.5991;3.0861;
-152.7000;0.5999;3.0742;
-152.4000;0.6024;3.0838;
-152.1000;0.5967;3.0671;
-151.8000;0.6032;3.0885;
-151.5000;0.6007;3.0838;
-151.2000;0.6015;3.0838;
-150.9000;0.6015;3.0861;
-150.6000;0.6024;3.0861;
-150.3000;0.6015;3.0885;
-150.0000;0.6015;3.0909;
-149.7000;0.5999;3.0885;
-149.4000;0.5999;3.0861;
-149.1000;0.6056;3.0981;
-148.8000;0.6007;3.0885;
-148.5000;0.6007;3.0933;
-148.2000;0.6007;3.0933;
-147.9000;0.6015;3.1029;
-147.6000;0.6015;3.1005;
-147.3000;0.6007;3.1005;
-147.0000;0.5991;3.1005;
-146.7000;0.6007;3.1029;
-146.4000;0.6024;3.1124;
-146.1000;0.6007;3.1100;
-145.8000;0.6007;3.1076;
-145.5000;0.5999;3.1124;
-145.2000;0.5991;3.1076;
-144.9000;0.5991;3.0933;
-144.6000;0.6015;3.0957;
-144.3000;0.5991;3.0885;
-144.0000;0.5991;3.0933;
-143.7000;0.6015;3.0957;
-143.4000;0.6015;3.0909;
-143.1000;0.5991;3.0861;
-142.8000;0.6024;3.0933;
-142.5000;0.6024;3.0981;
-142.2000;0.5999;3.0933;
-141.9000;0.6007;3.1076;
-141.6000;0.6007;3.1029;
-141.3000;0.6024;3.0957;
-141.0000;0.5991;3.0909;
-140.7000;0.5999;3.0885;
-140.4000;0.6015;3.0861;
-140.1000;0.6007;3.0909;
-139.8000;0.6007;3.0909;
-139.5000;0.6024;3.0933;
-139.2000;0.5991;3.0885;
-138.9000;0.6007;3.0933;
-138.6000;0.6015;3.0957;
-138.3000;0.6040;3.0981;
-138.0000;0.6015;3.0957;
-137.7000;0.6015;3.1005;
-137.4000;0.6007;3.0885;
-137.1000;0.6015;3.0957;
-136.8000;0.5999;3.0933;
-136.5000;0.6007;3.0933;
-136.2000;0.6032;3.1029;
-135.9000;0.6007;3.0981;
-135.6000;0.6064;3.1052;
-135.3000;0.5999;3.0909;
-135.0000;0.6007;3.1005;
-134.7000;0.6007;3.1076;
-134.4000;0.6032;3.1100;
-134.1000;0.6007;3.1005;
-133.8000;0.5999;3.1005;
-133.5000;0.6007;3.0933;
-133.2000;0.5999;3.0957;
-132.9000;0.5934;3.0742;
-132.6000;0.5999;3.1005;
-132.3000;0.6007;3.1029;
-132.0000;0.5967;3.0909;
-131.7000;0.6007;3.0909;
-131.4000;0.6024;3.0861;
-131.1000;0.5999;3.0885;
-130.8000;0.5967;3.0814;
-130.5000;0.6007;3.1052;
-130.2000;0.6024;3.1100;
-129.9000;0.6113;3.1363;
-129.6000;0.5999;3.1100;
-129.3000;0.5999;3.1076;
-129.0000;0.6007;3.1005;
-128.7000;0.6007;3.1100;
-128.4000;0.5999;3.1076;
-128.1000;0.6024;3.1076;
-127.8000;0.5999;3.1029;
-127.5000;0.5999;3.1005;
-127.2000;0.5999;3.1005;
-126.9000;0.6007;3.1100;
-126.6000;0.6007;3.1052;
-126.3000;0.5991;3.1005;
-126.0000;0.6032;3.1005;
-125.7000;0.5967;3.0814;
-125.4000;0.5999;3.0909;
-125.1000;0.6007;3.0861;
-124.8000;0.6015;3.0861;
-124.5000;0.6015;3.0885;
-124.2000;0.5991;3.0838;
-123.9000;0.5991;3.0885;
-123.6000;0.6024;3.0933;
-123.3000;0.6015;3.0838;
-123.0000;0.6007;3.0790;
-122.7000;0.6007;3.0766;
-122.4000;0.5999;3.0671;
-122.1000;0.5991;3.0647;
-121.8000;0.6007;3.0671;
-121.5000;0.5991;3.0671;
-121.2000;0.5999;3.0766;
-120.9000;0.6007;3.0814;
-120.6000;0.5999;3.0790;
-120.3000;0.6007;3.0790;
-120.0000;0.6024;3.0814;
-119.7000;0.6007;3.0814;
-119.4000;0.5991;3.0838;
-119.1000;0.5999;3.0790;
-118.8000;0.6072;3.0933;
-118.5000;0.6015;3.0790;
-118.2000;0.6007;3.0766;
-117.9000;0.5991;3.0814;
-117.6000;0.6024;3.0981;
-117.3000;0.6024;3.0933;
-117.0000;0.6007;3.0861;
-116.7000;0.6007;3.0742;
-116.4000;0.5975;3.0599;
-116.1000;0.6024;3.0742;
-115.8000;0.6015;3.0671;
-115.5000;0.6007;3.0575;
-115.2000;0.6007;3.0718;
-114.9000;0.6048;3.0814;
-114.6000;0.6015;3.0814;
-114.3000;0.6015;3.0790;
-114.0000;0.5999;3.0718;
-113.7000;0.5999;3.0599;
-113.4000;0.5999;3.0647;
-113.1000;0.6007;3.0742;
-112.8000;0.5942;3.0647;
-112.5000;0.6015;3.0814;
-112.2000;0.5983;3.0766;
-111.9000;0.5991;3.0790;
-111.6000;0.5999;3.0838;
-111.3000;0.5999;3.0861;
-111.0000;0.5975;3.0838;
-110.7000;0.6015;3.0861;
-110.4000;0.5999;3.0790;
-110.1000;0.5991;3.0718;
-109.8000;0.6015;3.0742;
-109.5000;0.5999;3.0790;
-109.2000;0.6007;3.0766;
-108.9000;0.6007;3.0766;
-108.6000;0.5999;3.0790;
-108.3000;0.6015;3.0742;
-108.0000;0.6056;3.0814;
-107.7000;0.6007;3.0718;
-107.4000;0.5983;3.0694;
-107.1000;0.6007;3.0766;
-106.8000;0.6015;3.0790;
-106.5000;0.6015;3.0742;
-106.2000;0.5999;3.0718;
-105.9000;0.5983;3.0647;
-105.6000;0.6015;3.0694;
-105.3000;0.5999;3.0742;
-105.0000;0.5999;3.0742;
-104.7000;0.6007;3.0790;
-104.4000;0.6007;3.0814;
-104.1000;0.5967;3.0671;
-103.8000;0.5950;3.0623;
-103.5000;0.6007;3.0694;
-103.2000;0.5991;3.0718;
-102.9000;0.6056;3.0885;
-102.6000;0.6024;3.0790;
-102.3000;0.5991;3.0742;
-102.0000;0.6007;3.0742;
-101.7000;0.5958;3.0694;
-101.4000;0.6007;3.0766;
-101.1000;0.6007;3.0790;
-100.8000;0.6015;3.0957;
-100.5000;0.6015;3.0885;
-100.2000;0.5999;3.0957;
-99.9000;0.6024;3.0933;
-99.6000;0.6007;3.0933;
-99.3000;0.6015;3.0766;
-99.0000;0.6007;3.0790;
-98.7000;0.6007;3.0790;
-98.4000;0.6007;3.0718;
-98.1000;0.6081;3.0957;
-97.8000;0.5999;3.0766;
-97.5000;0.6015;3.0694;
-97.2000;0.5999;3.0742;
-96.9000;0.5967;3.0671;
-96.6000;0.6040;3.0885;
-96.3000;0.5983;3.0742;
-96.0000;0.6007;3.0838;
-95.7000;0.5918;3.0647;
-95.4000;0.6097;3.1124;
-95.1000;0.5999;3.1005;
-94.8000;0.6015;3.1005;
-94.5000;0.6024;3.1029;
-94.2000;0.6056;3.1124;
-93.9000;0.6113;3.1315;
-93.6000;0.6015;3.1076;
-93.3000;0.5999;3.1029;
-93.0000;0.6015;3.1029;
-92.7000;0.5958;3.0861;
-92.4000;0.5975;3.0861;
-92.1000;0.5991;3.0909;
-91.8000;0.6015;3.0861;
-91.5000;0.5999;3.0742;
-91.2000;0.6064;3.0885;
-90.9000;0.5918;3.0599;
-90.6000;0.6040;3.0885;
-90.3000;0.6007;3.0766;
-90.0000;0.6007;3.0694;
-89.7000;0.5991;3.0671;
-89.4000;0.6007;3.0647;
-89.1000;0.6007;3.0694;
-88.8000;0.6007;3.0647;
-88.5000;0.5999;3.0623;
-88.2000;0.6015;3.0671;
-87.9000;0.6015;3.0718;
-87.6000;0.6007;3.0694;
-87.3000;0.5983;3.0623;
-87.0000;0.5999;3.0623;
-86.7000;0.6007;3.0575;
-86.4000;0.6015;3.0575;
-86.1000;0.6007;3.0647;
-85.8000;0.6040;3.0790;
-85.5000;0.5975;3.0647;
-85.2000;0.5999;3.0647;
-84.9000;0.6015;3.0694;
-84.6000;0.6007;3.0766;
-84.3000;0.5999;3.0790;
-84.0000;0.6007;3.0814;
-83.7000;0.6015;3.0861;
-83.4000;0.5991;3.0909;
-83.1000;0.6032;3.1052;
-82.8000;0.6015;3.0909;
-82.5000;0.6015;3.0814;
-82.2000;0.5991;3.0742;
-81.9000;0.6032;3.0861;
-81.6000;0.6032;3.0814;
-81.3000;0.6007;3.0814;
-81.0000;0.6007;3.0861;
-80.7000;0.6015;3.0933;
-80.4000;0.6015;3.0885;
-80.1000;0.6015;3.0885;
-79.8000;0.5999;3.0814;
-79.5000;0.6024;3.0861;
-79.2000;0.5975;3.0814;
-78.9000;0.6007;3.0885;
-78.6000;0.5983;3.0861;
-78.3000;0.6007;3.1005;
-78.0000;0.6007;3.1005;
-77.7000;0.5975;3.0885;
-77.4000;0.6015;3.0885;
-77.1000;0.6105;3.1148;
-76.8000;0.6007;3.0885;
-76.5000;0.6032;3.0933;
-76.2000;0.6015;3.0933;
-75.9000;0.6015;3.0838;
-75.6000;0.6015;3.0861;
-75.3000;0.5999;3.0838;
-75.0000;0.6024;3.0909;
-74.7000;0.5991;3.0814;
-74.4000;0.6007;3.0933;
-74.1000;0.5999;3.0957;
-73.8000;0.6024;3.1005;
-73.5000;0.5991;3.0909;
-73.2000;0.5991;3.0885;
-72.9000;0.6015;3.0981;
-72.6000;0.6015;3.0981;
-72.3000;0.6007;3.0981;
-72.0000;0.6015;3.0885;
-71.7000;0.6007;3.0838;
-71.4000;0.6048;3.0957;
-71.1000;0.6007;3.0981;
-70.8000;0.6007;3.1076;
-70.5000;0.6015;3.1172;
-70.2000;0.6032;3.1172;
-69.9000;0.6015;3.1100;
-69.6000;0.5999;3.0981;
-69.3000;0.6024;3.0981;
-69.0000;0.5999;3.0766;
-68.7000;0.6048;3.0909;
-68.4000;0.6056;3.0957;
-68.1000;0.5999;3.0790;
-67.8000;0.5991;3.0766;
-67.5000;0.6024;3.0861;
-67.2000;0.6015;3.0933;
-66.9000;0.5991;3.0885;
-66.6000;0.6015;3.0933;
-66.3000;0.6064;3.1124;
-66.0000;0.6040;3.1052;
-65.7000;0.5991;3.0957;
-65.4000;0.6007;3.1029;
-65.1000;0.5999;3.0981;
-64.8000;0.6007;3.0981;
-64.5000;0.6032;3.1029;
-64.2000;0.5999;3.0909;
-63.9000;0.6007;3.0885;
-63.6000;0.6007;3.0885;
-63.3000;0.6007;3.0885;
-63.0000;0.5999;3.0957;
-62.7000;0.5934;3.0718;
-62.4000;0.6007;3.0790;
-62.1000;0.6007;3.0790;
-61.8000;0.6040;3.0885;
-61.5000;0.5983;3.0718;
-61.2000;0.5999;3.0909;
-60.9000;0.6015;3.0885;
-60.6000;0.5991;3.0814;
-60.3000;0.6007;3.0933;
-60.0000;0.5999;3.0957;
-59.7000;0.6015;3.1052;
-59.4000;0.5999;3.1005;
-59.1000;0.5991;3.0861;
-58.8000;0.6024;3.1005;
-58.5000;0.6024;3.1100;
-58.2000;0.6007;3.1076;
-57.9000;0.5991;3.1029;
-57.6000;0.5983;3.0981;
-57.3000;0.5975;3.0957;
-57.0000;0.5999;3.0957;
-56.7000;0.5999;3.0981;
-56.4000;0.5991;3.0981;
-56.1000;0.6056;3.1076;
-55.8000;0.6024;3.0981;
-55.5000;0.6056;3.1076;
-55.2000;0.5999;3.1005;
-54.9000;0.6024;3.1100;
-54.6000;0.6007;3.1100;
-54.3000;0.6007;3.1124;
-54.0000;0.6015;3.1076;
-53.7000;0.6032;3.1076;
-53.4000;0.6007;3.0981;
-53.1000;0.6015;3.1005;
-52.8000;0.6007;3.0909;
-52.5000;0.6007;3.0861;
-52.2000;0.6024;3.0885;
-51.9000;0.6024;3.0861;
-51.6000;0.6032;3.0981;
-51.3000;0.6024;3.0981;
-51.0000;0.6007;3.0861;
-50.7000;0.6007;3.0861;
-50.4000;0.6015;3.0885;
-50.1000;0.6007;3.0861;
-49.8000;0.6048;3.1005;
-49.5000;0.6007;3.0981;
-49.2000;0.6007;3.0909;
-48.9000;0.5999;3.0957;
-48.6000;0.6007;3.0957;
-48.3000;0.5991;3.0909;
-48.0000;0.6007;3.0909;
-47.7000;0.5999;3.0909;
-47.4000;0.6015;3.0933;
-47.1000;0.6007;3.0885;
-46.8000;0.5926;3.0623;
-46.5000;0.6015;3.0885;
-46.2000;0.6040;3.0933;
-45.9000;0.6032;3.0861;
-45.6000;0.6007;3.0814;
-45.3000;0.6015;3.0933;
-45.0000;0.6007;3.0909;
-44.7000;0.5999;3.0838;
-44.4000;0.6015;3.0838;
-44.1000;0.5991;3.0694;
-43.8000;0.5999;3.0790;
-43.5000;0.5999;3.0790;
-43.2000;0.6015;3.0861;
-42.9000;0.6007;3.0909;
-42.6000;0.5983;3.0766;
-42.3000;0.5942;3.0694;
-42.0000;0.5991;3.0718;
-41.7000;0.6007;3.0742;
-41.4000;0.5991;3.0694;
-41.1000;0.5999;3.0790;
-40.8000;0.6024;3.0885;
-40.5000;0.6007;3.0814;
-40.2000;0.6015;3.0814;
-39.9000;0.5999;3.0838;
-39.6000;0.5942;3.0742;
-39.3000;0.5999;3.0885;
-39.0000;0.5999;3.0861;
-38.7000;0.5934;3.0742;
-38.4000;0.5958;3.0838;
-38.1000;0.5999;3.0933;
-37.8000;0.5999;3.0909;
-37.5000;0.6081;3.1124;
-37.2000;0.6024;3.0981;
-36.9000;0.6007;3.0909;
-36.6000;0.6007;3.1005;
-36.3000;0.5999;3.0981;
-36.0000;0.6015;3.1005;
-35.7000;0.5999;3.0861;
-35.4000;0.6032;3.0909;
-35.1000;0.5967;3.0838;
-34.8000;0.5999;3.0957;
-34.5000;0.6024;3.0957;
-34.2000;0.5983;3.0838;
-33.9000;0.5999;3.0885;
-33.6000;0.5975;3.0885;
-33.3000;0.6007;3.0909;
-33.0000;0.5999;3.0861;
-32.7000;0.5999;3.0838;
-32.4000;0.6015;3.0861;
-32.1000;0.6007;3.0838;
-31.8000;0.6007;3.0861;
-31.5000;0.6024;3.0814;
-31.2000;0.5999;3.0718;
-30.9000;0.5991;3.0718;
-30.6000;0.6015;3.0861;
-30.3000;0.5999;3.0814;
-30.0000;0.5999;3.0790;
-29.7000;0.5983;3.0790;
-29.4000;0.6007;3.0790;
-29.1000;0.5999;3.0694;
-28.8000;0.5967;3.0503;
-28.5000;0.5999;3.0599;
-28.2000;0.6007;3.0694;
-27.9000;0.5991;3.0647;
-27.6000;0.5999;3.0742;
-27.3000;0.5999;3.0718;
-27.0000;0.6015;3.0766;
-26.7000;0.5991;3.0790;
-26.4000;0.5991;3.0790;
-26.1000;0.5926;3.0671;
-25.8000;0.6015;3.0933;
-25.5000;0.6024;3.0933;
-25.2000;0.5999;3.0885;
-24.9000;0.6007;3.0766;
-24.6000;0.6048;3.0790;
-24.3000;0.5926;3.0456;
-24.0000;0.5999;3.0694;
-23.7000;0.5983;3.0694;
-23.4000;0.5999;3.0671;
-23.1000;0.5983;3.0694;
-22.8000;0.6007;3.0742;
-22.5000;0.5999;3.0694;
-22.2000;0.5991;3.0718;
-21.9000;0.6015;3.0694;
-21.6000;0.6024;3.0742;
-21.3000;0.5999;3.0766;
-21.0000;0.5991;3.0790;
-20.7000;0.6015;3.0909;
-20.4000;0.6015;3.0909;
-20.1000;0.5967;3.0838;
-19.8000;0.5967;3.0909;
-19.5000;0.6015;3.1005;
-19.2000;0.6007;3.0838;
-18.9000;0.5999;3.0790;
-18.6000;0.5950;3.0647;
-18.3000;0.6015;3.0790;
-18.0000;0.6015;3.0814;
-17.7000;0.6007;3.0790;
-17.4000;0.5983;3.0790;
-17.1000;0.6007;3.0766;
-16.8000;0.6040;3.0838;
-16.5000;0.5983;3.0623;
-16.2000;0.6007;3.0599;
-15.9000;0.5991;3.0599;
-15.6000;0.6072;3.0766;
-15.3000;0.6024;3.0647;
-15.0000;0.6007;3.0671;
-14.7000;0.6007;3.0766;
-14.4000;0.5999;3.0790;
-14.1000;0.6015;3.0814;
-13.8000;0.5999;3.0814;
-13.5000;0.6105;3.1076;
-13.2000;0.6007;3.0838;
-12.9000;0.6015;3.0814;
-12.6000;0.6015;3.0742;
-12.3000;0.6015;3.0718;
-12.0000;0.5999;3.0694;
-11.7000;0.6032;3.0718;
-11.4000;0.6007;3.0647;
-11.1000;0.6007;3.0599;
-10.8000;0.6015;3.0671;
-10.5000;0.6015;3.0671;
-10.2000;0.6007;3.0671;
-9.9000;0.5999;3.0671;
-9.6000;0.5999;3.0790;
-9.3000;0.6015;3.0766;
-9.0000;0.6007;3.0790;
-8.7000;0.5983;3.0694;
-8.4000;0.5991;3.0718;
-8.1000;0.6007;3.0742;
-7.8000;0.6032;3.0909;
-7.5000;0.6007;3.0861;
-7.2000;0.6015;3.0909;
-6.9000;0.5958;3.0814;
-6.6000;0.6024;3.0981;
-6.3000;0.5999;3.0933;
-6.0000;0.5999;3.1005;
-5.7000;0.6007;3.1076;
-5.4000;0.5967;3.0981;
-5.1000;0.6007;3.0981;
-4.8000;0.6015;3.1005;
-4.5000;0.6015;3.0981;
-4.2000;0.6024;3.0957;
-3.9000;0.6007;3.0838;
-3.6000;0.5991;3.0885;
-3.3000;0.5983;3.0885;
-3.0000;0.6024;3.1076;
-2.7000;0.6015;3.1029;
-2.4000;0.6024;3.1029;
-2.1000;0.6040;3.1005;
-1.8000;0.6007;3.1029;
-1.5000;0.6024;3.0957;
-1.2000;0.6007;3.0885;
-0.9000;0.6007;3.0957;
-0.6000;0.6024;3.1029;
-0.3000;0.6032;3.1076;
0.0000;0.6032;3.1076;
0.3000;0.6219;3.1052;
0.6000;0.6667;3.1697;
0.9000;0.6878;3.1912;
1.2000;0.7098;3.2222;
1.5000;0.7277;3.2556;
1.8000;0.7367;3.2652;
2.1000;0.7611;3.3224;
2.4000;0.7619;3.3248;
2.7000;0.7700;3.3368;
3.0000;0.7733;3.3368;
3.3000;0.7814;3.3511;
3.6000;0.7863;3.3630;
3.9000;0.7912;3.3750;
4.2000;0.7945;3.3773;
4.5000;0.7993;3.3678;
4.8000;0.8034;3.3678;
5.1000;0.8050;3.3678;
5.4000;0.8140;3.3845;
5.7000;0.8124;3.3821;
6.0000;0.8156;3.3845;
6.3000;0.8197;3.3869;
6.6000;0.8221;3.3917;
6.9000;0.8238;3.3917;
7.2000;0.8230;3.3797;
7.5000;0.8295;3.3821;
7.8000;0.8327;3.3773;
8.1000;0.8295;3.3606;
8.4000;0.8368;3.3702;
8.7000;0.8417;3.3869;
9.0000;0.8457;3.4012;
9.3000;0.8466;3.3988;
9.6000;0.8482;3.4036;
9.9000;0.8498;3.4012;
10.2000;0.8588;3.4275;
10.5000;0.8539;3.4084;
10.8000;0.8563;3.4131;
11.1000;0.8531;3.3917;
11.4000;0.8596;3.4060;
11.7000;0.8620;3.4036;
12.0000;0.8637;3.3964;
12.3000;0.8637;3.3893;
12.6000;0.8653;3.3917;
12.9000;0.8669;3.3964;
13.2000;0.8710;3.4108;
13.5000;0.8710;3.4108;
13.8000;0.8734;3.4179;
14.1000;0.8742;3.4179;
14.4000;0.8767;3.4227;
14.7000;0.8775;3.4251;
15.0000;0.8718;3.4179;
15.3000;0.8799;3.4275;
15.6000;0.8807;3.4131;
15.9000;0.8816;3.4155;
16.2000;0.8840;3.4179;
16.5000;0.8840;3.4155;
16.8000;0.8856;3.4131;
17.1000;0.8897;3.4275;
17.4000;0.8873;3.4155;
17.7000;0.8897;3.4131;
18.0000;0.8905;3.4084;
18.3000;0.8930;3.4060;
18.6000;0.8913;3.3917;
18.9000;0.8954;3.3964;
19.2000;0.8938;3.3940;
19.5000;0.8962;3.4060;
19.8000;0.8978;3.4012;
20.1000;0.8978;3.3988;
20.4000;0.8978;3.3869;
20.7000;0.8995;3.3893;
21.0000;0.8995;3.3917;
21.3000;0.9027;3.4084;
21.6000;0.9019;3.3964;
21.9000;0.9003;3.3869;
22.2000;0.9019;3.3869;
22.5000;0.9060;3.3988;
22.8000;0.9084;3.4108;
23.1000;0.9044;3.4060;
23.4000;0.9166;3.4299;
23.7000;0.9060;3.4012;
24.0000;0.9076;3.4012;
24.3000;0.9076;3.4012;
24.6000;0.9084;3.4060;
24.9000;0.9084;3.4036;
25.2000;0.9092;3.4108;
25.5000;0.9076;3.4108;
25.8000;0.9101;3.4084;
26.1000;0.9109;3.4108;
26.4000;0.9133;3.4155;
26.7000;0.9125;3.4155;
27.0000;0.9125;3.4036;
27.3000;0.9133;3.4084;
27.6000;0.9149;3.4131;
27.9000;0.9149;3.4060;
28.2000;0.9141;3.4108;
28.5000;0.9149;3.4227;
28.8000;0.9166;3.4227;
29.1000;0.9174;3.4155;
29.4000;0.9174;3.4012;
29.7000;0.9158;3.3893;
30.0000;0.9149;3.3988;
30.3000;0.9174;3.3964;
30.6000;0.9182;3.3940;
30.9000;0.9166;3.3940;
31.2000;0.9101;3.3869;
31.5000;0.9255;3.4227;
31.8000;0.9190;3.4060;
32.1000;0.9223;3.4131;
32.4000;0.9182;3.3940;
32.7000;0.9166;3.3893;
33.0000;0.9206;3.3988;
33.3000;0.9182;3.3988;
33.6000;0.9206;3.4108;
33.9000;0.9214;3.3964;
34.2000;0.9223;3.3940;
34.5000;0.9223;3.3893;
34.8000;0.9206;3.3821;
35.1000;0.9214;3.3750;
35.4000;0.9231;3.3845;
35.7000;0.9141;3.3750;
36.0000;0.9223;3.3917;
36.3000;0.9223;3.3940;
36.6000;0.9255;3.3964;
36.9000;0.9239;3.3964;
37.2000;0.9231;3.4012;
37.5000;0.9247;3.3988;
37.8000;0.9247;3.3940;
38.1000;0.9255;3.3821;
38.4000;0.9263;3.3750;
38.7000;0.9255;3.3702;
39.0000;0.9263;3.3678;
39.3000;0.9263;3.3726;
39.6000;0.9247;3.3726;
39.9000;0.9271;3.3678;
40.2000;0.9239;3.3630;
40.5000;0.9255;3.3726;
40.8000;0.9271;3.3678;
41.1000;0.9255;3.3678;
41.4000;0.9271;3.3630;
41.7000;0.9223;3.3630;
42.0000;0.9320;3.3893;
42.3000;0.9263;3.3750;
42.6000;0.9263;3.3797;
42.9000;0.9206;3.3678;
43.2000;0.9280;3.3845;
43.5000;0.9263;3.3797;
43.8000;0.9271;3.3893;
44.1000;0.9271;3.3917;
44.4000;0.9361;3.4108;
44.7000;0.9288;3.3988;
45.0000;0.9296;3.3988;
45.3000;0.9304;3.4036;
45.6000;0.9304;3.3988;
45.9000;0.9304;3.4108;
46.2000;0.9328;3.4155;
46.5000;0.9255;3.4012;
46.8000;0.9296;3.4084;
47.1000;0.9296;3.4084;
47.4000;0.9312;3.4131;
47.7000;0.9288;3.4131;
48.0000;0.9312;3.4084;
48.3000;0.9288;3.4084;
48.6000;0.9296;3.4084;
48.9000;0.9337;3.4131;
49.2000;0.9304;3.4084;
49.5000;0.9304;3.4060;
49.8000;0.9385;3.4227;
50.1000;0.9345;3.4131;
50.4000;0.9280;3.4012;
50.7000;0.9320;3.4131;
51.0000;0.9328;3.4131;
51.3000;0.9288;3.4036;
51.6000;0.9255;3.3964;
51.9000;0.9312;3.4084;
52.2000;0.9369;3.4179;
52.5000;0.9288;3.3964;
52.8000;0.9328;3.4084;
53.1000;0.9320;3.4108;
53.4000;0.9247;3.3917;
53.7000;0.9296;3.4036;
54.0000;0.9288;3.4060;
54.3000;0.9337;3.4227;
54.6000;0.9320;3.4275;
54.9000;0.9328;3.4203;
55.2000;0.9328;3.4131;
55.5000;0.9353;3.4155;
55.8000;0.9353;3.4108;
56.1000;0.9353;3.3988;
56.4000;0.9345;3.3988;
56.7000;0.9394;3.4012;
57.0000;0.9337;3.3917;
57.3000;0.9337;3.3940;
57.6000;0.9337;3.3988;
57.9000;0.9361;3.3988;
58.2000;0.9337;3.3917;
58.5000;0.9320;3.3940;
58.8000;0.9320;3.3988;
59.1000;0.9312;3.3893;
59.4000;0.9353;3.3917;
59.7000;0.9328;3.3893;
60.0000;0.9337;3.3821;
60.3000;0.9328;3.3797;
60.6000;0.9353;3.3821;
60.9000;0.9353;3.3750;
61.2000;0.9353;3.3845;
61.5000;0.9320;3.3678;
61.8000;0.9328;3.3702;
62.1000;0.9337;3.3750;
62.4000;0.9345;3.3726;
62.7000;0.9337;3.3821;
63.0000;0.9337;3.3893;
63.3000;0.9369;3.3988;
63.6000;0.9353;3.3917;
63.9000;0.9353;3.3893;
64.2000;0.9337;3.3893;
64.5000;0.9353;3.3988;
64.8000;0.9353;3.4084;
65.1000;0.9353;3.4084;
65.4000;0.9345;3.3988;
65.7000;0.9361;3.3940;
66.0000;0.9369;3.3893;
66.3000;0.9369;3.3821;
66.6000;0.9328;3.3797;
66.9000;0.9345;3.3797;
67.2000;0.9353;3.3750;
67.5000;0.9312;3.3654;
67.8000;0.9353;3.3750;
68.1000;0.9369;3.3726;
68.4000;0.9377;3.3773;
68.7000;0.9402;3.3845;
69.0000;0.9369;3.3773;
69.3000;0.9377;3.3773;
69.6000;0.9377;3.3750;
69.9000;0.9361;3.3797;
70.2000;0.9361;3.3821;
70.5000;0.9369;3.3869;
70.8000;0.9361;3.3821;
71.1000;0.9377;3.3893;
71.4000;0.9377;3.3869;
71.7000;0.9475;3.3988;
72.0000;0.9385;3.3917;
72.3000;0.9369;3.3893;
72.6000;0.9377;3.3845;
72.9000;0.9361;3.3821;
73.2000;0.9369;3.3893;
73.5000;0.9377;3.3964;
73.8000;0.9361;3.3964;
74.1000;0.9361;3.3964;
74.4000;0.9353;3.3988;
74.7000;0.9385;3.4036;
75.0000;0.9361;3.3917;
75.3000;0.9345;3.3845;
75.6000;0.9312;3.3726;
75.9000;0.9369;3.3869;
76.2000;0.9328;3.3750;
76.5000;0.9377;3.3845;
76.8000;0.9377;3.3750;
77.1000;0.9361;3.3726;
77.4000;0.9328;3.3654;
77.7000;0.9361;3.3726;
78.0000;0.9369;3.3702;
78.3000;0.9361;3.3678;
78.6000;0.9434;3.3964;
78.9000;0.9377;3.3845;
79.2000;0.9385;3.3940;
79.5000;0.9385;3.3940;
79.8000;0.9369;3.3964;
80.1000;0.9385;3.4060;
80.4000;0.9353;3.3964;
80.7000;0.9377;3.3917;
81.0000;0.9377;3.3869;
81.3000;0.9369;3.3893;
81.6000;0.9369;3.3893;
81.9000;0.9369;3.3964;
82.2000;0.9361;3.3940;
82.5000;0.9385;3.3964;
82.8000;0.9320;3.3726;
83.1000;0.9361;3.3917;
83.4000;0.9361;3.3917;
83.7000;0.9442;3.4084;
84.0000;0.9361;3.3893;
84.3000;0.9377;3.3988;
84.6000;0.9369;3.3940;
84.9000;0.9377;3.3845;
85.2000;0.9385;3.3797;
85.5000;0.9369;3.3702;
85.8000;0.9312;3.3511;
86.1000;0.9369;3.3702;
86.4000;0.9385;3.3726;
86.7000;0.9385;3.3750;
87.0000;0.9369;3.3750;
87.3000;0.9385;3.3630;
87.6000;0.9377;3.3678;
87.9000;0.9377;3.3750;
88.2000;0.9385;3.3678;
88.5000;0.9402;3.3654;
88.8000;0.9402;3.3702;
89.1000;0.9385;3.3702;
89.4000;0.9394;3.3726;
89.7000;0.9337;3.3678;
90.0000;0.9402;3.3845;
90.3000;0.9385;3.3845;
90.6000;0.9394;3.3821;
90.9000;0.9394;3.3821;
91.2000;0.9394;3.4012;
91.5000;0.9394;3.3988;
91.8000;0.9328;3.3773;
92.1000;0.9377;3.3940;
92.4000;0.9394;3.3988;
92.7000;0.9385;3.3988;
93.0000;0.9369;3.3845;
93.3000;0.9377;3.3845;
93.6000;0.9385;3.3893;
93.9000;0.9320;3.3678;
94.2000;0.9385;3.3845;
94.5000;0.9369;3.3750;
94.8000;0.9304;3.3535;
95.1000;0.9402;3.3726;
95.4000;0.9369;3.3654;
95.7000;0.9385;3.3654;
96.0000;0.9394;3.3702;
96.3000;0.9402;3.3726;
96.6000;0.9402;3.3726;
96.9000;0.9426;3.3797;
97.2000;0.9394;3.3726;
97.5000;0.9402;3.3678;
97.8000;0.9402;3.3678;
98.1000;0.9410;3.3630;
98.4000;0.9385;3.3559;
98.7000;0.9385;3.3582;
99.0000;0.9385;3.3582;
99.3000;0.9385;3.3606;
99.6000;0.9410;3.3630;
99.9000;0.9402;3.3606;
100.2000;0.9402;3.3654;
100.5000;0.9410;3.3678;
100.8000;0.9402;3.3726;
101.1000;0.9426;3.3702;
101.4000;0.9385;3.3630;
101.7000;0.9394;3.3606;
102.0000;0.9385;3.3582;
102.3000;0.9369;3.3702;
102.6000;0.9385;3.3654;
102.9000;0.9369;3.3606;
103.2000;0.9402;3.3630;
103.5000;0.9369;3.3702;
103.8000;0.9385;3.3797;
104.1000;0.9394;3.3773;
104.4000;0.9385;3.3750;
104.7000;0.9385;3.3702;
105.0000;0.9385;3.3726;
105.3000;0.9394;3.3726;
105.6000;0.9394;3.3797;
105.9000;0.9377;3.3821;
106.2000;0.9442;3.3821;
106.5000;0.9394;3.3654;
106.8000;0.9394;3.3678;
107.1000;0.9394;3.3750;
107.4000;0.9394;3.3726;
107.7000;0.9385;3.3773;
108.0000;0.9361;3.3726;
108.3000;0.9385;3.3750;
108.6000;0.9394;3.3821;
108.9000;0.9394;3.3750;
109.2000;0.9394;3.3750;
109.5000;0.9402;3.3773;
109.8000;0.9402;3.3821;
110.1000;0.9394;3.3845;
110.4000;0.9410;3.3940;
110.7000;0.9402;3.3893;
111.0000;0.9394;3.3893;
111.3000;0.9402;3.3821;
111.6000;0.9385;3.3797;
111.9000;0.9337;3.3702;
112.2000;0.9385;3.3797;
112.5000;0.9385;3.3797;
112.8000;0.9377;3.3726;
113.1000;0.9402;3.3773;
113.4000;0.9369;3.3702;
113.7000;0.9369;3.3630;
114.0000;0.9361;3.3630;
114.3000;0.9402;3.3678;
114.6000;0.9385;3.3559;
114.9000;0.9394;3.3678;
115.2000;0.9385;3.3702;
115.5000;0.9410;3.3773;
115.8000;0.9402;3.3773;
116.1000;0.9394;3.3821;
116.4000;0.9377;3.3773;
116.7000;0.9394;3.3869;
117.0000;0.9369;3.3869;
117.3000;0.9312;3.3702;
117.6000;0.9394;3.3917;
117.9000;0.9377;3.4036;
118.2000;0.9402;3.4084;
118.5000;0.9394;3.4108;
118.8000;0.9369;3.3964;
119.1000;0.9377;3.3988;
119.4000;0.9410;3.3917;
119.7000;0.9475;3.4108;
120.0000;0.9394;3.3964;
120.3000;0.9385;3.3893;
120.6000;0.9394;3.3893;
120.9000;0.9402;3.3869;
121.2000;0.9369;3.3750;
121.5000;0.9410;3.3869;
121.8000;0.9402;3.3869;
122.1000;0.9385;3.3821;
122.4000;0.9402;3.3821;
122.7000;0.9394;3.3845;
123.0000;0.9410;3.3869;
123.3000;0.9402;3.3869;
123.6000;0.9385;3.3821;
123.9000;0.9394;3.3773;
124.2000;0.9394;3.3726;
124.5000;0.9385;3.3678;
124.8000;0.9394;3.3702;
125.1000;0.9442;3.3797;
125.4000;0.9418;3.3750;
125.7000;0.9418;3.3773;
126.0000;0.9402;3.3821;
126.3000;0.9402;3.3845;
126.6000;0.9394;3.3797;
126.9000;0.9361;3.3773;
127.2000;0.9394;3.3821;
127.5000;0.9385;3.3773;
127.8000;0.9499;3.4060;
128.1000;0.9361;3.3797;
128.4000;0.9402;3.3940;
128.7000;0.9377;3.3893;
129.0000;0.9377;3.3726;
129.3000;0.9402;3.3726;
129.6000;0.9385;3.3773;
129.9000;0.9402;3.3821;
130.2000;0.9459;3.4012;
130.5000;0.9402;3.3773;
130.8000;0.9369;3.3606;
131.1000;0.9402;3.3678;
131.4000;0.9385;3.3702;
131.7000;0.9410;3.3750;
132.0000;0.9328;3.3582;
132.3000;0.9394;3.3797;
132.6000;0.9385;3.3750;
132.9000;0.9394;3.3702;
133.2000;0.9394;3.3702;
133.5000;0.9402;3.3630;
133.8000;0.9385;3.3582;
134.1000;0.9426;3.3702;
134.4000;0.9385;3.3630;
134.7000;0.9410;3.3606;
135.0000;0.9402;3.3606;
135.3000;0.9394;3.3630;
135.6000;0.9410;3.3702;
135.9000;0.9410;3.3773;
136.2000;0.9394;3.3797;
136.5000;0.9394;3.3797;
136.8000;0.9394;3.3797;
137.1000;0.9402;3.3845;
137.4000;0.9402;3.3893;
137.7000;0.9377;3.3845;
138.0000;0.9377;3.3726;
138.3000;0.9394;3.3654;
138.6000;0.9402;3.3630;
138.9000;0.9410;3.3630;
139.2000;0.9394;3.3606;
139.5000;0.9402;3.3702;
139.8000;0.9483;3.3845;
140.1000;0.9402;3.3702;
140.4000;0.9410;3.3750;
140.7000;0.9410;3.3797;
141.0000;0.9377;3.3654;
141.3000;0.9410;3.3773;
141.6000;0.9385;3.3702;
141.9000;0.9410;3.3726;
142.2000;0.9402;3.3773;
142.5000;0.9402;3.3893;
142.8000;0.9410;3.3893;
143.1000;0.9402;3.3750;
143.4000;0.9402;3.3797;
143.7000;0.9385;3.3821;
144.0000;0.9451;3.3940;
144.3000;0.9418;3.3797;
144.6000;0.9394;3.3797;
144.9000;0.9410;3.3797;
145.2000;0.9410;3.3845;
145.5000;0.9451;3.4012;
145.8000;0.9410;3.3869;
146.1000;0.9418;3.3797;
146.4000;0.9377;3.3726;
146.7000;0.9402;3.3678;
147.0000;0.9402;3.3750;
147.3000;0.9410;3.3845;
147.6000;0.9410;3.3773;
147.9000;0.9385;3.3678;
148.2000;0.9402;3.3630;
148.5000;0.9418;3.3654;
148.8000;0.9394;3.3606;
149.1000;0.9402;3.3606;
149.4000;0.9377;3.3582;
149.7000;0.9402;3.3750;
150.0000;0.9394;3.3797;
150.3000;0.9426;3.3917;
150.6000;0.9410;3.3821;
150.9000;0.9532;3.4131;
151.2000;0.9377;3.3773;
151.5000;0.9385;3.3702;
151.8000;0.9459;3.3869;
152.1000;0.9410;3.3702;
152.4000;0.9442;3.3750;
152.7000;0.9394;3.3702;
153.0000;0.9418;3.3821;
153.3000;0.9394;3.3726;
153.6000;0.9410;3.3726;
153.9000;0.9394;3.3750;
154.2000;0.9402;3.3869;
154.5000;0.9410;3.3917;
154.8000;0.9418;3.3917;
155.1000;0.9394;3.3821;
155.4000;0.9394;3.3869;
155.7000;0.9377;3.3869;
156.0000;0.9369;3.3845;
156.3000;0.9434;3.3917;
156.6000;0.9402;3.3869;
156.9000;0.9385;3.3821;
157.2000;0.9394;3.3773;
157.5000;0.9402;3.3773;
157.8000;0.9394;3.3726;
158.1000;0.9377;3.3606;
158.4000;0.9385;3.3726;
158.7000;0.9394;3.3773;
159.0000;0.9410;3.3917;
159.3000;0.9418;3.3940;
159.6000;0.9410;3.3917;
159.9000;0.9402;3.3940;
160.2000;0.9434;3.3988;
160.5000;0.9491;3.3988;
160.8000;0.9394;3.3750;
161.1000;0.9402;3.3821;
161.4000;0.9410;3.3845;
161.7000;0.9377;3.3893;
162.0000;0.9410;3.3964;
162.3000;0.9394;3.4012;
162.6000;0.9402;3.4084;
162.9000;0.9394;3.3893;
163.2000;0.9337;3.3845;
163.5000;0.9426;3.3869;
163.8000;0.9410;3.3821;
164.1000;0.9377;3.3678;
164.4000;0.9377;3.3797;
164.7000;0.9377;3.3726;
165.0000;0.9377;3.3821;
165.3000;0.9402;3.3869;
165.6000;0.9394;3.3773;
165.9000;0.9394;3.3702;
166.2000;0.9394;3.3750;
166.5000;0.9451;3.3893;
166.8000;0.9361;3.3630;
167.1000;0.9353;3.3582;
167.4000;0.9394;3.3654;
167.7000;0.9394;3.3630;
168.0000;0.9369;3.3511;
168.3000;0.9345;3.3487;
168.6000;0.9377;3.3582;
168.9000;0.9402;3.3582;
169.2000;0.9508;3.3726;
169.5000;0.9337;3.3463;
169.8000;0.9394;3.3702;
170.1000;0.9394;3.3702;
170.4000;0.9394;3.3654;
170.7000;0.9385;3.3726;
171.0000;0.9402;3.3750;
171.3000;0.9402;3.3678;
171.6000;0.9394;3.3678;
171.9000;0.9377;3.3606;
172.2000;0.9385;3.3726;
172.5000;0.9361;3.3702;
172.8000;0.9385;3.3750;
173.1000;0.9394;3.3797;
173.4000;0.9402;3.3821;
173.7000;0.9377;3.3821;
174.0000;0.9402;3.3869;
174.3000;0.9394;3.3869;
174.6000;0.9394;3.3797;
174.9000;0.9410;3.3797;
175.2000;0.9385;3.3821;
175.5000;0.9402;3.3869;
175.8000;0.9361;3.3678;
176.1000;0.9410;3.3726;
176.4000;0.9394;3.3678;
176.7000;0.9369;3.3654;
177.0000;0.9369;3.3678;
177.3000;0.9402;3.3630;
177.6000;0.9402;3.3678;
177.9000;0.9385;3.3678;
178.2000;0.9394;3.3654;
178.5000;0.9402;3.3630;
178.8000;0.9402;3.3630;
179.1000;0.9410;3.3654;
179.4000;0.9385;3.3559;
179.7000;0.9402;3.3678;
180.0000;0.9402;3.3654;
180.3000;0.9426;3.3630;
180.6000;0.9426;3.3654;
180.9000;0.9394;3.3606;
181.2000;0.9402;3.3582;
181.5000;0.9402;3.3678;
181.8000;0.9394;3.3702;
182.1000;0.9394;3.3702;
182.4000;0.9410;3.3702;
182.7000;0.9426;3.3797;
183.0000;0.9410;3.3678;
183.3000;0.9345;3.3487;
183.6000;0.9385;3.3559;
183.9000;0.9385;3.3511;
184.2000;0.9426;3.3582;
184.5000;0.9467;3.3606;
184.8000;0.9394;3.3439;
185.1000;0.9418;3.3535;
185.4000;0.9410;3.3559;
185.7000;0.9394;3.3582;
186.0000;0.9402;3.3654;
186.3000;0.9426;3.3630;
186.6000;0.9337;3.3439;
186.9000;0.9410;3.3606;
187.2000;0.9353;3.3535;
187.5000;0.9271;3.3368;
187.8000;0.9385;3.3678;
188.1000;0.9394;3.3678;
188.4000;0.9353;3.3582;
188.7000;0.9369;3.3606;
189.0000;0.9410;3.3702;
189.3000;0.9402;3.3702;
189.6000;0.9385;3.3654;
189.9000;0.9394;3.3630;
190.2000;0.9369;3.3559;
190.5000;0.9402;3.3606;
190.8000;0.9394;3.3511;
191.1000;0.9394;3.3559;
191.4000;0.9394;3.3559;
191.7000;0.9410;3.3630;
192.0000;0.9402;3.3535;
192.3000;0.9410;3.3511;
192.6000;0.9402;3.3582;
192.9000;0.9410;3.3654;
193.2000;0.9426;3.3773;
193.5000;0.9426;3.3750;
193.8000;0.9394;3.3678;
194.1000;0.9410;3.3606;
194.4000;0.9410;3.3535;
194.7000;0.9418;3.3535;
195.0000;0.9418;3.3702;
195.3000;0.9418;3.3654;
195.6000;0.9418;3.3702;
195.9000;0.9410;3.3773;
196.2000;0.9426;3.3821;
196.5000;0.9402;3.3750;
196.8000;0.9418;3.3773;
197.1000;0.9394;3.3702;
197.4000;0.9394;3.3678;
197.7000;0.9369;3.3630;
198.0000;0.9353;3.3511;
198.3000;0.9402;3.3606;
198.6000;0.9385;3.3606;
198.9000;0.9402;3.3702;
199.2000;0.9385;3.3702;
199.5000;0.9377;3.3654;
199.8000;0.9385;3.3606;
200.1000;0.9385;3.3630;
200.4000;0.9394;3.3606;
200.7000;0.9418;3.3606;
201.0000;0.9402;3.3606;
201.3000;0.9402;3.3702;
201.6000;0.9402;3.3726;
201.9000;0.9394;3.3750;
202.2000;0.9410;3.3893;
202.5000;0.9385;3.3821;
202.8000;0.9402;3.3845;
203.1000;0.9410;3.3797;
203.4000;0.9402;3.3821;
203.7000;0.9402;3.3750;
204.0000;0.9394;3.3750;
204.3000;0.9385;3.3750;
204.6000;0.9402;3.3726;
204.9000;0.9385;3.3726;
205.2000;0.9394;3.3773;
205.5000;0.9385;3.3654;
205.8000;0.9402;3.3678;
206.1000;0.9442;3.3845;
206.4000;0.9394;3.3821;
206.7000;0.9394;3.3821;
207.0000;0.9434;3.3940;
207.3000;0.9361;3.3750;
207.6000;0.9394;3.3869;
207.9000;0.9410;3.3917;
208.2000;0.9345;3.3702;
208.5000;0.9394;3.3988;
208.8000;0.9353;3.3917;
209.1000;0.9312;3.3726;
209.4000;0.9385;3.3940;
209.7000;0.9459;3.4084;
210.0000;0.9394;3.3917;
210.3000;0.9361;3.3797;
210.6000;0.9394;3.3893;
210.9000;0.9402;3.3869;
211.2000;0.9369;3.3702;
211.5000;0.9459;3.3964;
211.8000;0.9361;3.3773;
212.1000;0.9385;3.3869;
212.4000;0.9434;3.3988;
212.7000;0.9385;3.3869;
213.0000;0.9385;3.3893;
213.3000;0.9385;3.3893;
213.6000;0.9394;3.3893;
213.9000;0.9402;3.3917;
214.2000;0.9385;3.3869;
214.5000;0.9385;3.3821;
214.8000;0.9410;3.3869;
215.1000;0.9394;3.3845;
215.4000;0.9426;3.3797;
215.7000;0.9402;3.3773;
216.0000;0.9402;3.3773;
216.3000;0.9402;3.3726;
216.6000;0.9451;3.3869;
216.9000;0.9418;3.3845;
217.2000;0.9418;3.3893;
217.5000;0.9385;3.3869;
217.8000;0.9394;3.3964;
218.1000;0.9394;3.4036;
218.4000;0.9402;3.4060;
218.7000;0.9402;3.3988;
219.0000;0.9394;3.3940;
219.3000;0.9402;3.3964;
219.6000;0.9459;3.4155;
219.9000;0.9410;3.3988;
220.2000;0.9410;3.4012;
220.5000;0.9394;3.3964;
220.8000;0.9394;3.4012;
221.1000;0.9402;3.4060;
221.4000;0.9394;3.4012;
221.7000;0.9385;3.3893;
222.0000;0.9394;3.3893;
222.3000;0.9385;3.3964;
222.6000;0.9410;3.3917;
222.9000;0.9434;3.3988;
223.2000;0.9385;3.3821;
223.5000;0.9394;3.3893;
223.8000;0.9377;3.3821;
224.1000;0.9385;3.3893;
224.4000;0.9385;3.3869;
224.7000;0.9402;3.3940;
225.0000;0.9385;3.3869;
225.3000;0.9394;3.3940;
225.6000;0.9402;3.3917;
225.9000;0.9418;3.3869;
226.2000;0.9434;3.3964;
226.5000;0.9385;3.3821;
226.8000;0.9394;3.3869;
227.1000;0.9410;3.3988;
227.4000;0.9434;3.4036;
227.7000;0.9394;3.3964;
228.0000;0.9402;3.3964;
228.3000;0.9418;3.4012;
228.6000;0.9394;3.3988;
228.9000;0.9402;3.3940;
229.2000;0.9426;3.4060;
229.5000;0.9369;3.3964;
229.8000;0.9410;3.4012;
230.1000;0.9410;3.4012;
230.4000;0.9426;3.4012;
230.7000;0.9402;3.4012;
231.0000;0.9402;3.4012;
231.3000;0.9434;3.3964;
231.6000;0.9394;3.3917;
231.9000;0.9402;3.3964;
232.2000;0.9385;3.3869;
232.5000;0.9442;3.4012;
232.8000;0.9394;3.3869;
233.1000;0.9394;3.3845;
233.4000;0.9385;3.3821;
233.7000;0.9394;3.3845;
234.0000;0.9434;3.4060;
234.3000;0.9361;3.3869;
234.6000;0.9410;3.3869;
234.9000;0.9369;3.3869;
235.2000;0.9442;3.4012;
235.5000;0.9369;3.3678;
235.8000;0.9377;3.3750;
236.1000;0.9385;3.3726;
236.4000;0.9402;3.3750;
236.7000;0.9402;3.3821;
237.0000;0.9394;3.3797;
237.3000;0.9410;3.3726;
237.6000;0.9410;3.3726;
237.9000;0.9418;3.3845;
238.2000;0.9385;3.3821;
238.5000;0.9394;3.3750;
238.8000;0.9410;3.3750;
239.1000;0.9402;3.3726;
239.4000;0.9402;3.3750;
239.7000;0.9394;3.3821;
240.0000;0.9402;3.3869;
240.3000;0.9402;3.3940;
240.6000;0.9394;3.3940;
240.9000;0.9402;3.3988;
241.2000;0.9402;3.4012;
241.5000;0.9402;3.4012;
241.8000;0.9385;3.3917;
242.1000;0.9410;3.3964;
242.4000;0.9394;3.3797;
242.7000;0.9369;3.3750;
243.0000;0.9402;3.3869;
243.3000;0.9385;3.3869;
243.6000;0.9377;3.3869;
243.9000;0.9385;3.3988;
244.2000;0.9402;3.3964;
244.5000;0.9385;3.3893;
244.8000;0.9320;3.3630;
245.1000;0.9410;3.3869;
245.4000;0.9410;3.3845;
245.7000;0.9459;3.3940;
246.0000;0.9328;3.3773;
246.3000;0.9385;3.3917;
246.6000;0.9394;3.3893;
246.9000;0.9434;3.4036;
247.2000;0.9385;3.3893;
247.5000;0.9402;3.3845;
247.8000;0.9377;3.3845;
248.1000;0.9410;3.3940;
248.4000;0.9402;3.3917;
248.7000;0.9410;3.3917;
249.0000;0.9410;3.3917;
249.3000;0.9402;3.3988;
249.6000;0.9402;3.3845;
249.9000;0.9394;3.3869;
250.2000;0.9345;3.3773;
250.5000;0.9394;3.3917;
250.8000;0.9483;3.4131;
251.1000;0.9394;3.3893;
251.4000;0.9394;3.3964;
251.7000;0.9434;3.4036;
252.0000;0.9410;3.4060;
252.3000;0.9410;3.4084;
252.6000;0.9402;3.4012;
252.9000;0.9394;3.3940;
253.2000;0.9402;3.3940;
253.5000;0.9385;3.3917;
253.8000;0.9377;3.3893;
254.1000;0.9385;3.3893;
254.4000;0.9410;3.3940;
254.7000;0.9402;3.3845;
255.0000;0.9402;3.3821;
255.3000;0.9394;3.3750;
255.6000;0.9402;3.3797;
255.9000;0.9377;3.3821;
256.2000;0.9394;3.3869;
256.5000;0.9402;3.3821;
256.8000;0.9402;3.3773;
257.1000;0.9451;3.3869;
257.4000;0.9385;3.3726;
257.7000;0.9361;3.3702;
258.0000;0.9385;3.3821;
258.3000;0.9402;3.3821;
258.6000;0.9377;3.3773;
258.9000;0.9377;3.3797;
259.2000;0.9394;3.3773;
259.5000;0.9394;3.3654;
259.8000;0.9385;3.3582;
260.1000;0.9361;3.3606;
260.4000;0.9402;3.3654;
260.7000;0.9394;3.3582;
261.0000;0.9434;3.3750;
261.3000;0.9377;3.3630;
261.6000;0.9394;3.3702;
261.9000;0.9402;3.3917;
262.2000;0.9402;3.3845;
262.5000;0.9402;3.3869;
262.8000;0.9410;3.3893;
263.1000;0.9410;3.3893;
263.4000;0.9483;3.4060;
263.7000;0.9385;3.3845;
264.0000;0.9385;3.3773;
264.3000;0.9442;3.3964;
264.6000;0.9304;3.3702;
264.9000;0.9418;3.3940;
265.2000;0.9442;3.3917;
265.5000;0.9418;3.3773;
265.8000;0.9451;3.3845;
266.1000;0.9402;3.3702;
266.4000;0.9394;3.3678;
266.7000;0.9353;3.3654;
267.0000;0.9402;3.3702;
267.3000;0.9402;3.3750;
267.6000;0.9385;3.3797;
267.9000;0.9434;3.3988;
268.2000;0.9418;3.4012;
268.5000;0.9394;3.4012;
268.8000;0.9369;3.3940;
269.1000;0.9377;3.3940;
269.4000;0.9402;3.3964;
269.7000;0.9394;3.3940;
270.0000;0.9385;3.3869;
270.3000;0.9402;3.3821;
270.6000;0.9394;3.3750;
270.9000;0.9377;3.3702;
271.2000;0.9394;3.3726;
271.5000;0.9426;3.3797;
271.8000;0.9410;3.3726;
272.1000;0.9402;3.3845;
272.4000;0.9394;3.3797;
272.7000;0.9402;3.3773;
273.0000;0.9402;3.3702;
273.3000;0.9418;3.3750;
273.6000;0.9410;3.3702;
273.9000;0.9402;3.3702;
274.2000;0.9410;3.3654;
274.5000;0.9402;3.3750;
274.8000;0.9402;3.3726;
275.1000;0.9410;3.3678;
275.4000;0.9402;3.3559;
275.7000;0.9394;3.3582;
276.0000;0.9402;3.3678;
276.3000;0.9394;3.3750;
276.6000;0.9402;3.3750;
276.9000;0.9410;3.3750;
277.2000;0.9418;3.3821;
277.5000;0.9361;3.3654;
277.8000;0.9385;3.3750;
278.1000;0.9418;3.3773;
278.4000;0.9394;3.3678;
278.7000;0.9451;3.3869;
279.0000;0.9394;3.3678;
279.3000;0.9402;3.3702;
279.6000;0.9394;3.3773;
279.9000;0.9394;3.3797;
280.2000;0.9394;3.3702;
280.5000;0.9361;3.3678;
280.8000;0.9410;3.3797;
281.1000;0.9459;3.3964;
281.4000;0.9418;3.3917;
281.7000;0.9402;3.3940;
282.0000;0.9402;3.3893;
282.3000;0.9516;3.4131;
282.6000;0.9410;3.3821;
282.9000;0.9377;3.3678;
283.2000;0.9410;3.3678;
283.5000;0.9418;3.3773;
283.8000;0.9394;3.3821;
284.1000;0.9385;3.3750;
284.4000;0.9459;3.4012;
284.7000;0.9402;3.3940;
285.0000;0.9394;3.3869;
285.3000;0.9353;3.3821;
285.6000;0.9385;3.3797;
285.9000;0.9402;3.3893;
286.2000;0.9402;3.3869;
286.5000;0.9394;3.3773;
286.8000;0.9402;3.3726;
287.1000;0.9377;3.3726;
287.4000;0.9402;3.3845;
287.7000;0.9402;3.3869;
288.0000;0.9394;3.3773;
288.3000;0.9394;3.3702;
288.6000;0.9410;3.3726;
288.9000;0.9394;3.3702;
289.2000;0.9369;3.3630;
289.5000;0.9394;3.3726;
289.8000;0.9402;3.3773;
290.1000;0.9385;3.3821;
290.4000;0.9377;3.3821;
290.7000;0.9385;3.3845;
291.0000;0.9426;3.4012;
291.3000;0.9410;3.3964;
291.6000;0.9385;3.3988;
291.9000;0.9442;3.4036;
292.2000;0.9402;3.3893;
292.5000;0.9394;3.3845;
292.8000;0.9418;3.3845;
293.1000;0.9394;3.3773;
293.4000;0.9394;3.3726;
293.7000;0.9410;3.3726;
294.0000;0.9402;3.3678;
294.3000;0.9394;3.3750;
294.6000;0.9394;3.3750;
294.9000;0.9394;3.3726;
295.2000;0.9385;3.3773;
295.5000;0.9394;3.3821;
295.8000;0.9394;3.3773;
296.1000;0.9410;3.3893;
296.4000;0.9402;3.3821;
296.7000;0.9402;3.3845;
297.0000;0.9410;3.3893;
297.3000;0.9402;3.3893;
297.6000;0.9410;3.3845;
297.9000;0.9410;3.3893;
298.2000;0.9394;3.3893;
298.5000;0.9385;3.3845;
298.8000;0.9402;3.3821;
299.1000;0.9377;3.3797;
299.4000;0.9377;3.3726;
299.7000;0.9402;3.3702;
300.0000;0.9377;3.3654;
300.3000;0.9402;3.3582;
300.6000;0.9369;3.3559;
300.9000;0.9385;3.3630;
301.2000;0.9418;3.3726;
301.5000;0.9402;3.3702;
301.8000;0.9410;3.3726;
302.1000;0.9410;3.3773;
302.4000;0.9394;3.3797;
302.7000;0.9426;3.3917;
303.0000;0.9402;3.3893;
303.3000;0.9377;3.3893;
303.6000;0.9434;3.4060;
303.9000;0.9385;3.3845;
304.2000;0.9353;3.3773;
304.5000;0.9394;3.3845;
304.8000;0.9271;3.3582;
305.1000;0.9369;3.3869;
305.4000;0.9377;3.3821;
305.7000;0.9377;3.3845;
306.0000;0.9361;3.3726;
306.3000;0.9271;3.3630;
306.6000;0.9377;3.3797;
306.9000;0.9377;3.3773;
307.2000;0.9377;3.3893;
307.5000;0.9402;3.4012;
307.8000;0.9394;3.3917;
308.1000;0.9369;3.3893;
308.4000;0.9353;3.3773;
308.7000;0.9394;3.3821;
309.0000;0.9402;3.3893;
309.3000;0.9402;3.3917;
309.6000;0.9418;3.3964;
309.9000;0.9402;3.3940;
310.2000;0.9394;3.3797;
310.5000;0.9410;3.3821;
310.8000;0.9361;3.3845;
311.1000;0.9402;3.3917;
311.4000;0.9369;3.3869;
311.7000;0.9394;3.3988;
312.0000;0.9385;3.3988;
312.3000;0.9377;3.4012;
312.6000;0.9402;3.3964;
312.9000;0.9402;3.3964;
313.2000;0.9402;3.4060;
313.5000;0.9394;3.3917;
313.8000;0.9394;3.3940;
314.1000;0.9402;3.3869;
314.4000;0.9402;3.3797;
314.7000;0.9394;3.3678;
315.0000;0.9394;3.3654;
315.3000;0.9426;3.3654;
315.6000;0.9426;3.3678;
315.9000;0.9402;3.3702;
316.2000;0.9418;3.3678;
316.5000;0.9394;3.3630;
316.8000;0.9418;3.3702;
317.1000;0.9426;3.3773;
317.4000;0.9394;3.3702;
317.7000;0.9418;3.3678;
318.0000;0.9426;3.3678;
318.3000;0.9418;3.3726;
318.6000;0.9418;3.3750;
318.9000;0.9410;3.3726;
319.2000;0.9418;3.3678;
319.5000;0.9410;3.3535;
319.8000;0.9394;3.3559;
320.1000;0.9402;3.3559;
320.4000;0.9410;3.3606;
320.7000;0.9385;3.3487;
321.0000;0.9394;3.3606;
321.3000;0.9377;3.3630;
321.6000;0.9402;3.3678;
321.9000;0.9418;3.3773;
322.2000;0.9410;3.3821;
322.5000;0.9402;3.3797;
322.8000;0.9410;3.3797;
323.1000;0.9402;3.3750;
323.4000;0.9377;3.3726;
323.7000;0.9410;3.3773;
324.0000;0.9369;3.3678;
324.3000;0.9434;3.3773;
324.6000;0.9337;3.3559;
324.9000;0.9353;3.3582;
325.2000;0.9369;3.3702;
325.5000;0.9337;3.3606;
325.8000;0.9369;3.3726;
326.1000;0.9377;3.3654;
326.4000;0.9377;3.3654;
326.7000;0.9385;3.3630;
327.0000;0.9394;3.3630;
327.3000;0.9369;3.3606;
327.6000;0.9320;3.3582;
327.9000;0.9377;3.3773;
328.2000;0.9434;3.3821;
328.5000;0.9320;3.3606;
328.8000;0.9320;3.3559;
329.1000;0.9337;3.3654;
329.4000;0.9385;3.3702;
329.7000;0.9475;3.3917;
330.0000;0.9385;3.3726;
330.3000;0.9288;3.3535;
330.6000;0.9361;3.3678;
330.9000;0.9385;3.3702;
331.2000;0.9394;3.3702;
331.5000;0.9377;3.3678;
331.8000;0.9394;3.3630;
332.1000;0.9410;3.3678;
332.4000;0.9402;3.3654;
332.7000;0.9418;3.3750;
333.0000;0.9328;3.3511;
333.3000;0.9410;3.3702;
333.6000;0.9402;3.3678;
333.9000;0.9394;3.3750;
334.2000;0.9394;3.3630;
334.5000;0.9394;3.3535;
334.8000;0.9394;3.3559;
335.1000;0.9377;3.3439;
335.4000;0.9402;3.3368;
335.7000;0.9402;3.3463;
336.0000;0.9385;3.3344;
336.3000;0.9394;3.3392;
336.6000;0.9385;3.3535;
336.9000;0.9410;3.3630;
337.2000;0.9402;3.3654;
337.5000;0.9385;3.3630;
337.8000;0.9385;3.3582;
338.1000;0.9402;3.3535;
338.4000;0.9402;3.3606;
338.7000;0.9394;3.3606;
339.0000;0.9377;3.3606;
339.3000;0.9410;3.3678;
339.6000;0.9410;3.3654;
339.9000;0.9394;3.3487;
340.2000;0.9394;3.3535;
340.5000;0.9402;3.3582;
340.8000;0.9385;3.3511;
341.1000;0.9385;3.3463;
341.4000;0.9385;3.3439;
341.7000;0.9394;3.3511;
342.0000;0.9385;3.3511;
342.3000;0.9394;3.3559;
342.6000;0.9377;3.3535;
342.9000;0.9394;3.3511;
343.2000;0.9418;3.3606;
343.5000;0.9377;3.3511;
343.8000;0.9394;3.3559;
344.1000;0.9394;3.3559;
344.4000;0.9394;3.3582;
344.7000;0.9385;3.3535;
345.0000;0.9394;3.3606;
345.3000;0.9394;3.3678;
345.6000;0.9385;3.3678;
345.9000;0.9394;3.3702;
346.2000;0.9402;3.3726;
346.5000;0.9345;3.3654;
346.8000;0.9369;3.3773;
347.1000;0.9369;3.3797;
347.4000;0.9385;3.3845;
347.7000;0.9410;3.3821;
348.0000;0.9394;3.3750;
348.3000;0.9410;3.3821;
348.6000;0.9369;3.3797;
348.9000;0.9377;3.3750;
349.2000;0.9377;3.3702;
349.5000;0.9394;3.3750;
349.8000;0.9377;3.3582;
350.1000;0.9377;3.3606;
350.4000;0.9410;3.3702;
350.7000;0.9394;3.3535;
351.0000;0.9385;3.3559;
351.3000;0.9385;3.3606;
351.6000;0.9385;3.3582;
351.9000;0.9377;3.3654;
352.2000;0.9451;3.3797;
352.5000;0.9385;3.3606;
352.8000;0.9385;3.3678;
353.1000;0.9394;3.3654;
353.4000;0.9394;3.3582;
353.7000;0.9426;3.3702;
354.0000;0.9385;3.3559;
354.3000;0.9394;3.3535;
354.6000;0.9385;3.3535;
354.9000;0.9442;3.3559;
355.2000;0.9385;3.3344;
355.5000;0.9402;3.3368;
355.8000;0.9369;3.3272;
356.1000;0.9377;3.3248;
356.4000;0.9377;3.3344;
356.7000;0.9394;3.3344;
357.0000;0.9410;3.3439;
357.3000;0.9410;3.3368;
357.6000;0.9394;3.3344;
357.9000;0.9394;3.3320;
358.2000;0.9394;3.3392;
358.5000;0.9377;3.3368;
358.8000;0.9402;3.3511;
359.1000;0.9377;3.3463;
359.4000;0.9402;3.3511;
359.7000;0.9385;3.3511;
360.0000;0.9402;3.3606;
360.3000;0.9361;3.3535;
360.6000;0.9377;3.3582;
360.9000;0.9394;3.3654;
361.2000;0.9361;3.3559;
361.5000;0.9394;3.3606;
361.8000;0.9402;3.3511;
362.1000;0.9394;3.3535;
362.4000;0.9377;3.3582;
362.7000;0.9394;3.3630;
363.0000;0.9394;3.3726;
363.3000;0.9369;3.3678;
363.6000;0.9394;3.3702;
363.9000;0.9385;3.3678;
364.2000;0.9451;3.3893;
364.5000;0.9394;3.3750;
364.8000;0.9418;3.3797;
365.1000;0.9410;3.3750;
365.4000;0.9394;3.3678;
365.7000;0.9394;3.3630;
366.0000;0.9410;3.3726;
366.3000;0.9394;3.3678;
366.6000;0.9402;3.3606;
366.9000;0.9394;3.3606;
367.2000;0.9385;3.3582;
367.5000;0.9385;3.3726;
367.8000;0.9394;3.3821;
368.1000;0.9361;3.3654;
368.4000;0.9402;3.3773;
368.7000;0.9402;3.3750;
369.0000;0.9394;3.3702;
369.3000;0.9394;3.3606;
369.6000;0.9394;3.3559;
369.9000;0.9385;3.3511;
370.2000;0.9426;3.3606;
370.5000;0.9385;3.3535;
370.8000;0.9385;3.3487;
371.1000;0.9361;3.3368;
371.4000;0.9451;3.3654;
371.7000;0.9385;3.3463;
372.0000;0.9394;3.3511;
372.3000;0.9394;3.3511;
372.6000;0.9410;3.3606;
372.9000;0.9426;3.3702;
373.2000;0.9377;3.3630;
373.5000;0.9385;3.3606;
373.8000;0.9402;3.3678;
374.1000;0.9410;3.3726;
374.4000;0.9385;3.3654;
374.7000;0.9402;3.3773;
375.0000;0.9402;3.3797;
375.3000;0.9434;3.3893;
375.6000;0.9385;3.3821;
375.9000;0.9385;3.3702;
376.2000;0.9426;3.3750;
376.5000;0.9418;3.3797;
376.8000;0.9385;3.3726;
377.1000;0.9402;3.3845;
377.4000;0.9385;3.3750;
377.7000;0.9377;3.3726;
378.0000;0.9385;3.3773;
378.3000;0.9394;3.3654;
378.6000;0.9418;3.3797;
378.9000;0.9410;3.3845;
379.2000;0.9426;3.3845;
379.5000;0.9377;3.3750;
379.8000;0.9394;3.3750;
380.1000;0.9402;3.3773;
380.4000;0.9418;3.3654;
380.7000;0.9410;3.3606;
381.0000;0.9377;3.3630;
381.3000;0.9402;3.3797;
381.6000;0.9394;3.3797;
381.9000;0.9418;3.3845;
382.2000;0.9394;3.3821;
382.5000;0.9369;3.3750;
382.8000;0.9385;3.3726;
383.1000;0.9385;3.3702;
383.4000;0.9369;3.3606;
383.7000;0.9377;3.3582;
384.0000;0.9410;3.3630;
384.3000;0.9394;3.3559;
384.6000;0.9394;3.3559;
384.9000;0.9394;3.3606;
385.2000;0.9385;3.3559;
385.5000;0.9385;3.3582;
385.8000;0.9377;3.3559;
386.1000;0.9394;3.3582;
386.4000;0.9394;3.3582;
386.7000;0.9385;3.3606;
387.0000;0.9394;3.3630;
387.3000;0.9426;3.3678;
387.6000;0.9394;3.3750;
387.9000;0.9418;3.3869;
388.2000;0.9377;3.3726;
388.5000;0.9385;3.3702;
388.8000;0.9369;3.3845;
389.1000;0.9385;3.3917;
389.4000;0.9385;3.3917;
389.7000;0.9385;3.3893;
390.0000;0.9394;3.3917;
390.3000;0.9394;3.3869;
390.6000;0.9402;3.3893;
390.9000;0.9361;3.3773;
391.2000;0.9394;3.3797;
391.5000;0.9369;3.3773;
391.8000;0.9394;3.3797;
392.1000;0.9377;3.3726;
392.4000;0.9385;3.3678;
392.7000;0.9402;3.3750;
393.0000;0.9402;3.3797;
393.3000;0.9385;3.3750;
393.6000;0.9385;3.3750;
393.9000;0.9402;3.3750;
394.2000;0.9426;3.3797;
394.5000;0.9410;3.3702;
394.8000;0.9385;3.3630;
395.1000;0.9337;3.3559;
395.4000;0.9410;3.3869;
395.7000;0.9345;3.3750;
396.0000;0.9402;3.3869;
396.3000;0.9353;3.3797;
396.6000;0.9475;3.4131;
396.9000;0.9394;3.3940;
397.2000;0.9361;3.3821;
397.5000;0.9385;3.3845;
397.8000;0.9377;3.3797;
398.1000;0.9394;3.3773;
398.4000;0.9394;3.3702;
398.7000;0.9434;3.3869;
399.0000;0.9402;3.3773;
399.3000;0.9459;3.3845;
399.6000;0.9418;3.3797;
399.9000;0.9377;3.3702;
400.2000;0.9394;3.3726;
400.5000;0.9402;3.3773;
400.8000;0.9394;3.3654;
401.1000;0.9410;3.3726;
401.4000;0.9410;3.3750;
401.7000;0.9345;3.3702;
402.0000;0.9377;3.3702;
402.3000;0.9385;3.3726;
402.6000;0.9394;3.3750;
402.9000;0.9377;3.3797;
403.2000;0.9394;3.3869;
403.5000;0.9418;3.3845;
403.8000;0.9410;3.3750;
404.1000;0.9410;3.3750;
404.4000;0.9385;3.3797;
404.7000;0.9402;3.3821;
405.0000;0.9418;3.3845;
405.3000;0.9385;3.3773;
405.6000;0.9377;3.3773;
405.9000;0.9385;3.3821;
406.2000;0.9369;3.3797;
406.5000;0.9385;3.3773;
406.8000;0.9377;3.3845;
407.1000;0.9377;3.3845;
407.4000;0.9402;3.3750;
407.7000;0.9385;3.3606;
408.0000;0.9369;3.3511;
408.3000;0.9402;3.3511;
408.6000;0.9377;3.3463;
408.9000;0.9394;3.3511;
409.2000;0.9394;3.3582;
409.5000;0.9410;3.3582;
409.8000;0.9402;3.3582;
410.1000;0.9394;3.3582;
410.4000;0.9377;3.3630;
410.7000;0.9385;3.3606;
411.0000;0.9434;3.3654;
411.3000;0.9394;3.3606;
411.6000;0.9402;3.3606;
411.9000;0.9385;3.3535;
412.2000;0.9402;3.3582;
412.5000;0.9353;3.3463;
412.8000;0.9394;3.3535;
413.1000;0.9418;3.3582;
413.4000;0.9418;3.3606;
413.7000;0.9410;3.3559;
414.0000;0.9394;3.3463;
414.3000;0.9402;3.3487;
414.6000;0.9394;3.3487;
414.9000;0.9385;3.3535;
415.2000;0.9369;3.3535;
415.5000;0.9385;3.3582;
415.8000;0.9369;3.3487;
416.1000;0.9426;3.3559;
416.4000;0.9377;3.3439;
416.7000;0.9369;3.3415;
417.0000;0.9394;3.3511;
417.3000;0.9394;3.3535;
417.6000;0.9369;3.3439;
417.9000;0.9361;3.3463;
418.2000;0.9402;3.3559;
418.5000;0.9434;3.3487;
418.8000;0.9369;3.3344;
419.1000;0.9402;3.3415;
419.4000;0.9402;3.3439;
419.7000;0.9418;3.3463;
420.0000;0.9385;3.3368;
420.3000;0.9304;3.3129;
420.6000;0.9402;3.3415;
420.9000;0.9402;3.3487;
421.2000;0.9385;3.3463;
421.5000;0.9475;3.3702;
421.8000;0.9394;3.3535;
422.1000;0.9394;3.3535;
422.4000;0.9385;3.3559;
422.7000;0.9385;3.3582;
423.0000;0.9377;3.3511;
423.3000;0.9402;3.3582;
423.6000;0.9451;3.3726;
423.9000;0.9394;3.3606;
424.2000;0.9402;3.3678;
424.5000;0.9442;3.3797;
424.8000;0.9410;3.3750;
425.1000;0.9377;3.3726;
425.4000;0.9385;3.3678;
425.7000;0.9402;3.3678;
426.0000;0.9385;3.3750;
426.3000;0.9394;3.3845;
426.6000;0.9377;3.3821;
426.9000;0.9385;3.3821;
427.2000;0.9402;3.3917;
427.5000;0.9402;3.3917;
427.8000;0.9410;3.3893;
428.1000;0.9369;3.3726;
428.4000;0.9377;3.3726;
428.7000;0.9402;3.3678;
429.0000;0.9361;3.3559;
429.3000;0.9385;3.3559;
429.6000;0.9377;3.3582;
429.9000;0.9385;3.3582;
430.2000;0.9361;3.3535;
430.5000;0.9385;3.3582;
430.8000;0.9385;3.3702;
431.1000;0.9394;3.3678;
431.4000;0.9394;3.3678;
431.7000;0.9385;3.3582;
432.0000;0.9377;3.3559;
432.3000;0.9418;3.3630;
432.6000;0.9402;3.3582;
432.9000;0.9394;3.3559;
433.2000;0.9377;3.3511;
433.5000;0.9377;3.3439;
433.8000;0.9418;3.3606;
434.1000;0.9402;3.3582;
434.4000;0.9402;3.3559;
434.7000;0.9385;3.3487;
435.0000;0.9394;3.3415;
435.3000;0.9353;3.3344;
435.6000;0.9369;3.3415;
435.9000;0.9394;3.3415;
436.2000;0.9353;3.3320;
436.5000;0.9361;3.3320;
436.8000;0.9394;3.3392;
437.1000;0.9402;3.3415;
437.4000;0.9394;3.3320;
437.7000;0.9394;3.3296;
438.0000;0.9434;3.3392;
438.3000;0.9434;3.3368;
438.6000;0.9402;3.3392;
438.9000;0.9418;3.3535;
439.2000;0.9394;3.3463;
439.5000;0.9410;3.3535;
439.8000;0.9385;3.3487;
440.1000;0.9385;3.3463;
440.4000;0.9377;3.3392;
440.7000;0.9361;3.3463;
441.0000;0.9369;3.3487;
441.3000;0.9385;3.3511;
441.6000;0.9369;3.3535;
441.9000;0.9377;3.3535;
442.2000;0.9394;3.3559;
442.5000;0.9361;3.3511;
442.8000;0.9394;3.3535;
443.1000;0.9394;3.3582;
443.4000;0.9394;3.3606;
443.7000;0.9337;3.3511;
444.0000;0.9385;3.3535;
444.3000;0.9369;3.3511;
444.6000;0.9369;3.3463;
444.9000;0.9377;3.3535;
445.2000;0.9385;3.3654;
445.5000;0.9361;3.3630;
445.8000;0.9353;3.3678;
446.1000;0.9385;3.3702;
446.4000;0.9394;3.3702;
446.7000;0.9361;3.3702;
447.0000;0.9345;3.3702;
447.3000;0.9377;3.3845;
447.6000;0.9377;3.3797;
447.9000;0.9385;3.3917;
448.2000;0.9402;3.3845;
448.5000;0.9394;3.3773;
448.8000;0.9402;3.3702;
449.1000;0.9410;3.3750;
449.4000;0.9377;3.3630;
449.7000;0.9377;3.3559;
450.0000;0.9353;3.3511;
450.3000;0.9385;3.3535;
450.6000;0.9369;3.3535;
450.9000;0.9385;3.3654;
451.2000;0.9377;3.3606;
451.5000;0.9402;3.3678;
451.8000;0.9394;3.3630;
452.1000;0.9402;3.3678;
452.4000;0.9385;3.3678;
452.7000;0.9320;3.3463;
453.0000;0.9394;3.3678;
453.3000;0.9377;3.3582;
453.6000;0.9377;3.3559;
453.9000;0.9385;3.3630;
454.2000;0.9394;3.3630;
454.5000;0.9385;3.3630;
454.8000;0.9402;3.3582;
455.1000;0.9402;3.3559;
455.4000;0.9402;3.3559;
455.7000;0.9369;3.3368;
456.0000;0.9394;3.3415;
456.3000;0.9377;3.3344;
456.6000;0.9377;3.3368;
456.9000;0.9369;3.3392;
457.2000;0.9328;3.3368;
457.5000;0.9394;3.3606;
457.8000;0.9345;3.3463;
458.1000;0.9377;3.3511;
458.4000;0.9377;3.3511;
458.7000;0.9385;3.3487;
459.0000;0.9394;3.3535;
459.3000;0.9394;3.3487;
459.6000;0.9377;3.3487;
459.9000;0.9394;3.3511;
460.2000;0.9361;3.3415;
460.5000;0.9402;3.3511;
460.8000;0.9402;3.3559;
461.1000;0.9369;3.3487;
461.4000;0.9385;3.3582;
461.7000;0.9385;3.3535;
462.0000;0.9353;3.3415;
462.3000;0.9394;3.3487;
462.6000;0.9385;3.3559;
462.9000;0.9369;3.3678;
463.2000;0.9385;3.3750;
463.5000;0.9377;3.3797;
463.8000;0.9418;3.3821;
464.1000;0.9385;3.3726;
464.4000;0.9394;3.3678;
464.7000;0.9385;3.3654;
465.0000;0.9394;3.3678;
465.3000;0.9402;3.3678;
465.6000;0.9402;3.3678;
465.9000;0.9369;3.3630;
466.2000;0.9377;3.3559;
466.5000;0.9418;3.3702;
466.8000;0.9394;3.3630;
467.1000;0.9377;3.3606;
467.4000;0.9402;3.3606;
467.7000;0.9385;3.3487;
468.0000;0.9402;3.3487;
468.3000;0.9394;3.3535;
468.6000;0.9385;3.3582;
468.9000;0.9377;3.3582;
469.2000;0.9402;3.3678;
469.5000;0.9385;3.3654;
469.8000;0.9377;3.3559;
470.1000;0.9377;3.3511;
470.4000;0.9377;3.3439;
470.7000;0.9377;3.3415;
471.0000;0.9369;3.3392;
471.3000;0.9377;3.3368;
471.6000;0.9402;3.3392;
471.9000;0.9385;3.3415;
472.2000;0.9385;3.3415;
472.5000;0.9369;3.3368;
472.8000;0.9442;3.3559;
473.1000;0.9402;3.3463;
473.4000;0.9467;3.3654;
473.7000;0.9353;3.3320;
474.0000;0.9385;3.3439;
474.3000;0.9394;3.3487;
474.6000;0.9394;3.3463;
474.9000;0.9385;3.3511;
475.2000;0.9385;3.3535;
475.5000;0.9288;3.3368;
475.8000;0.9385;3.3606;
476.1000;0.9369;3.3630;
476.4000;0.9353;3.3559;
476.7000;0.9394;3.3606;
477.0000;0.9377;3.3606;
477.3000;0.9402;3.3702;
477.6000;0.9385;3.3582;
477.9000;0.9385;3.3606;
478.2000;0.9402;3.3654;
478.5000;0.9394;3.3630;
478.8000;0.9394;3.3582;
479.1000;0.9377;3.3487;
479.4000;0.9402;3.3415;
479.7000;0.9410;3.3368;
480.0000;0.9385;3.3487;
480.3000;0.9385;3.3511;
480.6000;0.9385;3.3535;
480.9000;0.9369;3.3582;
481.2000;0.9369;3.3559;
481.5000;0.9369;3.3678;
481.8000;0.9377;3.3702;
482.1000;0.9377;3.3654;
482.4000;0.9385;3.3630;
482.7000;0.9369;3.3582;
483.0000;0.9337;3.3511;
483.3000;0.9353;3.3606;
483.6000;0.9361;3.3582;
483.9000;0.9459;3.3821;
484.2000;0.9402;3.3773;
484.5000;0.9369;3.3773;
484.8000;0.9361;3.3726;
485.1000;0.9377;3.3750;
485.4000;0.9377;3.3678;
485.7000;0.9345;3.3630;
486.0000;0.9361;3.3678;
486.3000;0.9369;3.3702;
486.6000;0.9377;3.3773;
486.9000;0.9353;3.3797;
487.2000;0.9385;3.3869;
487.5000;0.9361;3.3773;
487.8000;0.9385;3.3821;
488.1000;0.9369;3.3797;
488.4000;0.9402;3.3797;
488.7000;0.9394;3.3726;
489.0000;0.9402;3.3845;
489.3000;0.9402;3.3773;
489.6000;0.9385;3.3726;
489.9000;0.9377;3.3702;
490.2000;0.9377;3.3702;
490.5000;0.9377;3.3726;
490.8000;0.9369;3.3726;
491.1000;0.9328;3.3582;
491.4000;0.9377;3.3702;
491.7000;0.9369;3.3702;
492.0000;0.9394;3.3678;
492.3000;0.9385;3.3654;
492.6000;0.9353;3.3559;
492.9000;0.9377;3.3559;
493.2000;0.9369;3.3559;
493.5000;0.9402;3.3678;
493.8000;0.9361;3.3702;
494.1000;0.9385;3.3821;
494.4000;0.9377;3.3750;
494.7000;0.9394;3.3750;
495.0000;0.9394;3.3726;
495.3000;0.9361;3.3654;
495.6000;0.9345;3.3630;
495.9000;0.9377;3.3726;
496.2000;0.9377;3.3678;
496.5000;0.9361;3.3630;
496.8000;0.9361;3.3606;
497.1000;0.9369;3.3678;
497.4000;0.9377;3.3702;
497.7000;0.9377;3.3678;
498.0000;0.9369;3.3750;
498.3000;0.9377;3.3750;
498.6000;0.9394;3.3750;
498.9000;0.9394;3.3726;
499.2000;0.9377;3.3726;
499.5000;0.9402;3.3750;
499.8000;0.9402;3.3750;
500.1000;0.9394;3.3797;
500.4000;0.9402;3.3773;
500.7000;0.9377;3.3702;
501.0000;0.9394;3.3750;
501.3000;0.9353;3.3606;
501.6000;0.9377;3.3654;
501.9000;0.9467;3.3893;
502.2000;0.9361;3.3773;
502.5000;0.9385;3.3750;
502.8000;0.9361;3.3654;
503.1000;0.9361;3.3678;
503.4000;0.9345;3.3654;
503.7000;0.9377;3.3726;
504.0000;0.9337;3.3630;
504.3000;0.9337;3.3678;
504.6000;0.9369;3.3654;
504.9000;0.9304;3.3463;
505.2000;0.9385;3.3678;
505.5000;0.9361;3.3535;
505.8000;0.9328;3.3439;
506.1000;0.9369;3.3487;
506.4000;0.9377;3.3535;
506.7000;0.9385;3.3630;
507.0000;0.9377;3.3606;
507.3000;0.9377;3.3702;
507.6000;0.9402;3.3726;
507.9000;0.9312;3.3535;
508.2000;0.9394;3.3750;
508.5000;0.9394;3.3773;
508.8000;0.9385;3.3726;
509.1000;0.9385;3.3702;
509.4000;0.9369;3.3630;
509.7000;0.9377;3.3630;
510.0000;0.9385;3.3630;
510.3000;0.9385;3.3630;
510.6000;0.9353;3.3487;
510.9000;0.9467;3.3750;
511.2000;0.9369;3.3582;
511.5000;0.9369;3.3606;
511.8000;0.9426;3.3773;
512.1000;0.9402;3.3702;
512.4000;0.9442;3.3750;
512.7000;0.9353;3.3511;
513.0000;0.9361;3.3511;
513.3000;0.9377;3.3487;
513.6000;0.9385;3.3439;
513.9000;0.9377;3.3368;
514.2000;0.9328;3.3272;
514.5000;0.9377;3.3463;
514.8000;0.9394;3.3535;
515.1000;0.9394;3.3606;
515.4000;0.9369;3.3559;
515.7000;0.9475;3.3821;
516.0000;0.9369;3.3606;
516.3000;0.9377;3.3630;
516.6000;0.9402;3.3702;
516.9000;0.9394;3.3702;
517.2000;0.9353;3.3630;
517.5000;0.9377;3.3630;
517.8000;0.9369;3.3726;
518.1000;0.9353;3.3678;
518.4000;0.9353;3.3678;
518.7000;0.9296;3.3511;
519.0000;0.9361;3.3702;
519.3000;0.9377;3.3702;
519.6000;0.9369;3.3702;
519.9000;0.9369;3.3678;
520.2000;0.9385;3.3678;
520.5000;0.9377;3.3582;
520.8000;0.9377;3.3630;
521.1000;0.9402;3.3797;
521.4000;0.9361;3.3821;
521.7000;0.9394;3.3821;
522.0000;0.9369;3.3773;
522.3000;0.9369;3.3773;
522.6000;0.9385;3.3821;
522.9000;0.9337;3.3821;
523.2000;0.9394;3.3940;
523.5000;0.9385;3.3917;
523.8000;0.9385;3.3964;
524.1000;0.9377;3.3940;
524.4000;0.9369;3.3893;
524.7000;0.9361;3.3845;
525.0000;0.9377;3.3773;
525.3000;0.9385;3.3797;
525.6000;0.9361;3.3702;
525.9000;0.9377;3.3773;
526.2000;0.9361;3.3702;
526.5000;0.9385;3.3678;
526.8000;0.9385;3.3726;
527.1000;0.9377;3.3654;
527.4000;0.9377;3.3773;
527.7000;0.9377;3.3821;
528.0000;0.9394;3.3964;
528.3000;0.9410;3.4036;
528.6000;0.9377;3.3988;
528.9000;0.9337;3.3893;
529.2000;0.9345;3.3845;
529.5000;0.9377;3.3845;
529.8000;0.9345;3.3821;
530.1000;0.9385;3.3940;
530.4000;0.9402;3.3988;
530.7000;0.9377;3.3964;
531.0000;0.9361;3.4012;
531.3000;0.9369;3.4084;
531.6000;0.9369;3.4060;
531.9000;0.9369;3.3940;
532.2000;0.9385;3.3917;
532.5000;0.9394;3.3964;
532.8000;0.9410;3.3988;
533.1000;0.9369;3.4036;
533.4000;0.9394;3.4084;
533.7000;0.9394;3.4060;
534.0000;0.9434;3.4108;
534.3000;0.9377;3.4012;
534.6000;0.9410;3.3988;
534.9000;0.9345;3.3845;
535.2000;0.9377;3.3940;
535.5000;0.9385;3.3917;
535.8000;0.9369;3.3845;
536.1000;0.9369;3.3869;
536.4000;0.9418;3.4012;
536.7000;0.9312;3.3750;
537.0000;0.9377;3.3917;
537.3000;0.9426;3.4036;
537.6000;0.9377;3.3940;
537.9000;0.9394;3.3964;
538.2000;0.9328;3.3964;
538.5000;0.9320;3.3845;
538.8000;0.9353;3.3893;
539.1000;0.9369;3.3869;
539.4000;0.9353;3.3869;
539.7000;0.9394;3.3940;
540.0000;0.9361;3.3893;
540.3000;0.9345;3.3821;
540.6000;0.9361;3.3726;
540.9000;0.9345;3.3678;
541.2000;0.9353;3.3630;
541.5000;0.9361;3.3630;
541.8000;0.9369;3.3678;
542.1000;0.9377;3.3726;
542.4000;0.9328;3.3726;
542.7000;0.9353;3.3773;
543.0000;0.9377;3.3821;
543.3000;0.9369;3.3821;
543.6000;0.9361;3.3821;
543.9000;0.9288;3.3606;
544.2000;0.9377;3.3869;
544.5000;0.9320;3.3726;
544.8000;0.9369;3.3821;
545.1000;0.9369;3.3773;
545.4000;0.9385;3.3797;
545.7000;0.9394;3.3797;
546.0000;0.9402;3.3750;
546.3000;0.9353;3.3726;
546.6000;0.9361;3.3773;
546.9000;0.9361;3.3845;
547.2000;0.9345;3.3821;
547.5000;0.9385;3.3917;
547.8000;0.9353;3.3821;
548.1000;0.9361;3.3797;
548.4000;0.9394;3.3845;
548.7000;0.9361;3.3726;
549.0000;0.9361;3.3773;
549.3000;0.9361;3.3821;
549.6000;0.9385;3.3893;
549.9000;0.9377;3.3821;
550.2000;0.9353;3.3726;
550.5000;0.9377;3.3821;
550.8000;0.9442;3.3917;
551.1000;0.9377;3.3821;
551.4000;0.9353;3.3773;
551.7000;0.9385;3.3893;
552.0000;0.9394;3.3988;
552.3000;0.9369;3.3940;
552.6000;0.9353;3.3869;
552.9000;0.9296;3.3845;
553.2000;0.9377;3.3988;
553.5000;0.9361;3.3917;
553.8000;0.9369;3.3988;
554.1000;0.9328;3.4012;
554.4000;0.9377;3.4084;
554.7000;0.9385;3.4108;
555.0000;0.9361;3.4084;
555.3000;0.9369;3.4108;
555.6000;0.9369;3.4036;
555.9000;0.9345;3.3940;
556.2000;0.9353;3.3964;
556.5000;0.9361;3.3940;
556.8000;0.9353;3.3964;
557.1000;0.9361;3.3964;
557.4000;0.9345;3.3988;
557.7000;0.9361;3.4084;
558.0000;0.9353;3.4036;
558.3000;0.9385;3.4060;
558.6000;0.9369;3.3988;
558.9000;0.9328;3.3940;
559.2000;0.9377;3.4108;
559.5000;0.9345;3.3988;
559.8000;0.9369;3.4012;
560.1000;0.9369;3.3917;
560.4000;0.9296;3.3726;
560.7000;0.9377;3.3988;
561.0000;0.9369;3.4012;
561.3000;0.9353;3.3940;
561.6000;0.9361;3.3988;
561.9000;0.9361;3.4012;
562.2000;0.9369;3.4060;
562.5000;0.9394;3.4084;
562.8000;0.9361;3.3964;
563.1000;0.9337;3.3940;
563.4000;0.9353;3.3940;
563.7000;0.9361;3.3869;
564.0000;0.9353;3.3893;
564.3000;0.9369;3.3917;
564.6000;0.9353;3.3964;
564.9000;0.9337;3.4012;
565.2000;0.9345;3.4060;
565.5000;0.9361;3.4060;
565.8000;0.9345;3.4012;
566.1000;0.9385;3.4060;
566.4000;0.9402;3.4060;
566.7000;0.9361;3.3917;
567.0000;0.9353;3.3893;
567.3000;0.9353;3.3869;
567.6000;0.9410;3.3917;
567.9000;0.9369;3.3845;
568.2000;0.9385;3.3869;
568.5000;0.9369;3.3845;
568.8000;0.9361;3.3845;
569.1000;0.9394;3.3893;
569.4000;0.9377;3.3821;
569.7000;0.9394;3.3869;
570.0000;0.9377;3.3893;
570.3000;0.9385;3.3869;
570.6000;0.9385;3.3869;
570.9000;0.9394;3.3917;
571.2000;0.9410;3.3988;
571.5000;0.9369;3.3940;
571.8000;0.9353;3.3893;
572.1000;0.9369;3.3917;
572.4000;0.9353;3.3869;
572.7000;0.9377;3.3940;
573.0000;0.9337;3.3797;
573.3000;0.9361;3.3869;
573.6000;0.9377;3.3940;
573.9000;0.9377;3.3940;
574.2000;0.9345;3.3940;
574.5000;0.9377;3.3917;
574.8000;0.9377;3.3917;
575.1000;0.9377;3.3988;
575.4000;0.9377;3.3988;
575.7000;0.9369;3.3917;
576.0000;0.9353;3.3845;
576.3000;0.9369;3.3940;
576.6000;0.9353;3.3964;
576.9000;0.9369;3.4012;
577.2000;0.9377;3.4060;
577.5000;0.9353;3.3988;
577.8000;0.9345;3.3917;
578.1000;0.9353;3.3940;
578.4000;0.9451;3.4251;
578.7000;0.9353;3.4036;
579.0000;0.9377;3.4108;
579.3000;0.9377;3.4060;
579.6000;0.9353;3.3917;
579.9000;0.9369;3.4012;
580.2000;0.9385;3.3988;
580.5000;0.9369;3.3964;
580.8000;0.9369;3.3940;
581.1000;0.9377;3.3893;
581.4000;0.9377;3.3917;
581.7000;0.9377;3.3940;
582.0000;0.9385;3.3964;
582.3000;0.9377;3.3964;
582.6000;0.9402;3.3988;
582.9000;0.9385;3.4012;
583.2000;0.9377;3.4060;
583.5000;0.9353;3.4012;
583.8000;0.9377;3.4108;
584.1000;0.9385;3.4203;
584.4000;0.9434;3.4418;
584.7000;0.9377;3.4203;
585.0000;0.9377;3.4227;
585.3000;0.9369;3.4179;
585.6000;0.9369;3.4227;
585.9000;0.9369;3.4203;
586.2000;0.9361;3.4203;
586.5000;0.9361;3.4084;
586.8000;0.9369;3.4084;
587.1000;0.9361;3.4108;
587.4000;0.9361;3.4060;
587.7000;0.9361;3.3964;
588.0000;0.9353;3.3940;
588.3000;0.9337;3.3845;
588.6000;0.9337;3.3869;
588.9000;0.9345;3.3940;
589.2000;0.9353;3.4012;
589.5000;0.9361;3.3988;
589.8000;0.9345;3.3917;
590.1000;0.9337;3.3773;
590.4000;0.9369;3.3773;
590.7000;0.9434;3.3917;
591.0000;0.9361;3.3821;
591.3000;0.9361;3.3845;
591.6000;0.9337;3.3845;
591.9000;0.9353;3.3940;
592.2000;0.9345;3.3917;
592.5000;0.9377;3.3893;
592.8000;0.9353;3.3869;
593.1000;0.9353;3.3940;
593.4000;0.9353;3.4084;
593.7000;0.9369;3.4060;
594.0000;0.9377;3.4155;
594.3000;0.9369;3.4060;
594.6000;0.9369;3.4036;
594.9000;0.9394;3.4060;
595.2000;0.9361;3.4012;
595.5000;0.9361;3.3988;
595.8000;0.9345;3.4012;
596.1000;0.9377;3.4084;
596.4000;0.9385;3.4131;
596.7000;0.9369;3.4060;
597.0000;0.9312;3.3917;
597.3000;0.9353;3.3964;
597.6000;0.9353;3.4060;
597.9000;0.9410;3.4155;
598.2000;0.9369;3.3988;
598.5000;0.9353;3.3917;
598.8000;0.9345;3.4060;
599.1000;0.9385;3.4036;
599.4000;0.9345;3.4036;
599.7000;0.9328;3.3988;
600.0000;0.9361;3.3940;
600.3000;0.9394;3.4012;
600.6000;0.9385;3.3940;
600.9000;0.9353;3.3750;
601.2000;0.9304;3.3654;
601.5000;0.9247;3.3392;
601.8000;0.9182;3.3177;
602.1000;0.9117;3.3033;
602.4000;0.9092;3.2962;
602.7000;0.8978;3.2628;
603.0000;0.8921;3.2508;
603.3000;0.8864;3.2413;
603.6000;0.8799;3.2198;
603.9000;0.8734;3.2055;
604.2000;0.8685;3.1936;
604.5000;0.8637;3.1936;
604.8000;0.8588;3.1864;
605.1000;0.8563;3.1912;
605.4000;0.8506;3.1816;
605.7000;0.8457;3.1816;
606.0000;0.8417;3.1697;
606.3000;0.8400;3.1697;
606.6000;0.8327;3.1530;
606.9000;0.8295;3.1458;
607.2000;0.8295;3.1530;
607.5000;0.8213;3.1291;
607.8000;0.8197;3.1363;
608.1000;0.8230;3.1530;
608.4000;0.8050;3.1196;
608.7000;0.8107;3.1339;
609.0000;0.8067;3.1243;
609.3000;0.8002;3.1196;
609.6000;0.7977;3.1172;
609.9000;0.7969;3.1291;
610.2000;0.7953;3.1339;
610.5000;0.7904;3.1243;
610.8000;0.7928;3.1315;
611.1000;0.7831;3.1124;
611.4000;0.7798;3.1029;
611.7000;0.7814;3.1100;
612.0000;0.7749;3.0909;
612.3000;0.7717;3.0814;
612.6000;0.7700;3.0718;
612.9000;0.7676;3.0694;
613.2000;0.7627;3.0718;
613.5000;0.7684;3.0909;
613.8000;0.7595;3.0790;
614.1000;0.7586;3.0790;
614.4000;0.7603;3.0909;
614.7000;0.7530;3.0766;
615.0000;0.7530;3.0766;
615.3000;0.7489;3.0671;
615.6000;0.7464;3.0623;
615.9000;0.7530;3.0766;
616.2000;0.7416;3.0599;
616.5000;0.7399;3.0647;
616.8000;0.7391;3.0694;
617.1000;0.7375;3.0599;
617.4000;0.7350;3.0599;
617.7000;0.7334;3.0647;
618.0000;0.7293;3.0599;
618.3000;0.7293;3.0599;
618.6000;0.7261;3.0551;
618.9000;0.7253;3.0694;
619.2000;0.7261;3.0694;
619.5000;0.7220;3.0718;
619.8000;0.7196;3.0671;
620.1000;0.7188;3.0623;
620.4000;0.7171;3.0647;
620.7000;0.7171;3.0694;
621.0000;0.7147;3.0647;
621.3000;0.7114;3.0647;
621.6000;0.7090;3.0742;
621.9000;0.7074;3.0742;
622.2000;0.7066;3.0599;
622.5000;0.7033;3.0599;
622.8000;0.7049;3.0694;
623.1000;0.7009;3.0694;
623.4000;0.7009;3.0647;
623.7000;0.7049;3.0766;
624.0000;0.6992;3.0718;
624.3000;0.6976;3.0671;
624.6000;0.6968;3.0694;
624.9000;0.6952;3.0718;
625.2000;0.6919;3.0718;
625.5000;0.6919;3.0647;
625.8000;0.6862;3.0503;
626.1000;0.6903;3.0551;
626.4000;0.6862;3.0432;
626.7000;0.6878;3.0480;
627.0000;0.6854;3.0336;
627.3000;0.6813;3.0217;
627.6000;0.6805;3.0313;
627.9000;0.6805;3.0336;
628.2000;0.6797;3.0289;
628.5000;0.6821;3.0241;
628.8000;0.6772;3.0265;
629.1000;0.6821;3.0456;
629.4000;0.6772;3.0313;
629.7000;0.6756;3.0360;
630.0000;0.6732;3.0360;
630.3000;0.6740;3.0503;
630.6000;0.6724;3.0503;
630.9000;0.6740;3.0647;
631.2000;0.6659;3.0503;
631.5000;0.6675;3.0527;
631.8000;0.6683;3.0432;
632.1000;0.6659;3.0313;
632.4000;0.6634;3.0336;
632.7000;0.6683;3.0551;
633.0000;0.6618;3.0384;
633.3000;0.6634;3.0432;
633.6000;0.6602;3.0408;
633.9000;0.6610;3.0456;
634.2000;0.6602;3.0456;
634.5000;0.6585;3.0527;
634.8000;0.6593;3.0551;
635.1000;0.6569;3.0480;
635.4000;0.6577;3.0480;
635.7000;0.6569;3.0527;
636.0000;0.6561;3.0551;
636.3000;0.6528;3.0503;
636.6000;0.6536;3.0480;
636.9000;0.6536;3.0527;
637.2000;0.6528;3.0480;
637.5000;0.6577;3.0527;
637.8000;0.6504;3.0241;
638.1000;0.6512;3.0265;
638.4000;0.6431;3.0026;
638.7000;0.6528;3.0313;
639.0000;0.6463;3.0098;
639.3000;0.6479;3.0122;
639.6000;0.6471;3.0193;
639.9000;0.6439;3.0241;
640.2000;0.6455;3.0241;
640.5000;0.6455;3.0193;
640.8000;0.6422;3.0193;
641.1000;0.6422;3.0145;
641.4000;0.6398;3.0098;
641.7000;0.6382;3.0145;
642.0000;0.6390;3.0145;
642.3000;0.6390;3.0122;
642.6000;0.6365;3.0098;
642.9000;0.6374;3.0098;
643.2000;0.6414;3.0265;
643.5000;0.6382;3.0193;
643.8000;0.6382;3.0313;
644.1000;0.6341;3.0336;
644.4000;0.6374;3.0480;
644.7000;0.6333;3.0456;
645.0000;0.6292;3.0360;
645.3000;0.6365;3.0456;
645.6000;0.6333;3.0384;
645.9000;0.6357;3.0360;
646.2000;0.6341;3.0217;
646.5000;0.6309;3.0217;
646.8000;0.6284;3.0265;
647.1000;0.6235;3.0265;
647.4000;0.6276;3.0360;
647.7000;0.6292;3.0408;
648.0000;0.6260;3.0360;
648.3000;0.6276;3.0360;
648.6000;0.6252;3.0241;
648.9000;0.6268;3.0193;
649.2000;0.6243;3.0193;
649.5000;0.6243;3.0122;
649.8000;0.6260;3.0193;
650.1000;0.6235;3.0169;
650.4000;0.6203;3.0217;
650.7000;0.6219;3.0241;
651.0000;0.6227;3.0265;
651.3000;0.6227;3.0265;
651.6000;0.6227;3.0313;
651.9000;0.6195;3.0241;
652.2000;0.6211;3.0217;
652.5000;0.6203;3.0145;
652.8000;0.6178;3.0098;
653.1000;0.6178;3.0145;
653.4000;0.6211;3.0217;
653.7000;0.6195;3.0289;
654.0000;0.6170;3.0289;
654.3000;0.6154;3.0289;
654.6000;0.6162;3.0217;
654.9000;0.6170;3.0122;
655.2000;0.6162;3.0193;
655.5000;0.6146;3.0217;
655.8000;0.6170;3.0289;
656.1000;0.6138;3.0145;
656.4000;0.6129;3.0122;
656.7000;0.6154;3.0074;
657.0000;0.6121;2.9955;
657.3000;0.6138;2.9955;
657.6000;0.6129;2.9859;
657.9000;0.6105;2.9883;
658.2000;0.6089;2.9978;
658.5000;0.6056;2.9931;
658.8000;0.6105;3.0074;
659.1000;0.6113;3.0145;
659.4000;0.6081;3.0026;
659.7000;0.6081;2.9883;
660.0000;0.6081;3.0050;
660.3000;0.6089;2.9955;
660.6000;0.6007;2.9811;
660.9000;0.6064;3.0002;
661.2000;0.6064;3.0145;
661.5000;0.6040;3.0122;
661.8000;0.6064;3.0241;
662.1000;0.6072;3.0241;
662.4000;0.5983;2.9907;
662.7000;0.6040;3.0098;
663.0000;0.6040;3.0098;
663.3000;0.6040;3.0122;
663.6000;0.6113;3.0217;
663.9000;0.5958;2.9835;
664.2000;0.6015;3.0002;
664.5000;0.6032;3.0050;
664.8000;0.5999;2.9931;
665.1000;0.5999;2.9931;
665.4000;0.5991;3.0002;
665.7000;0.6015;3.0026;
666.0000;0.6015;3.0074;
666.3000;0.6024;3.0122;
666.6000;0.5999;3.0074;
666.9000;0.6007;3.0169;
667.2000;0.6015;3.0098;
667.5000;0.5991;3.0074;
667.8000;0.6015;3.0074;
668.1000;0.5910;2.9883;
668.4000;0.6024;3.0169;
668.7000;0.5999;3.0122;
669.0000;0.5975;3.0074;
669.3000;0.5950;2.9955;
669.6000;0.5958;2.9907;
669.9000;0.5926;2.9883;
670.2000;0.5950;2.9955;
670.5000;0.5950;3.0074;
670.8000;0.6015;3.0169;
671.1000;0.5958;3.0098;
671.4000;0.5958;3.0122;
671.7000;0.5967;3.0145;
672.0000;0.5967;3.0050;
672.3000;0.5934;2.9955;
672.6000;0.5934;2.9931;
672.9000;0.5958;3.0002;
673.2000;0.5934;2.9931;
673.5000;0.5950;3.0026;
673.8000;0.5934;3.0050;
674.1000;0.5918;3.0002;
674.4000;0.5942;3.0074;
674.7000;0.5934;3.0098;
675.0000;0.5902;3.0098;
675.3000;0.5950;3.0145;
675.6000;0.5910;3.0169;
675.9000;0.5926;3.0241;
676.2000;0.5918;3.0265;
676.5000;0.5934;3.0241;
676.8000;0.5918;3.0289;
677.1000;0.5893;3.0313;
677.4000;0.5893;3.0384;
677.7000;0.5893;3.0360;
678.0000;0.5902;3.0265;
678.3000;0.5885;3.0265;
678.6000;0.5869;3.0122;
678.9000;0.5885;3.0169;
679.2000;0.5877;3.0217;
679.5000;0.5836;3.0169;
679.8000;0.5869;3.0169;
680.1000;0.5869;3.0193;
680.4000;0.5885;3.0265;
680.7000;0.5853;3.0217;
681.0000;0.5877;3.0265;
681.3000;0.5861;3.0289;
681.6000;0.5869;3.0360;
681.9000;0.5853;3.0289;
682.2000;0.5836;3.0241;
682.5000;0.5828;3.0122;
682.8000;0.5845;3.0193;
683.1000;0.5845;3.0193;
683.4000;0.5885;3.0336;
683.7000;0.5836;3.0289;
684.0000;0.5836;3.0408;
684.3000;0.5828;3.0360;
684.6000;0.5836;3.0408;
684.9000;0.5812;3.0265;
685.2000;0.5853;3.0193;
685.5000;0.5877;3.0169;
685.8000;0.5877;3.0169;
686.1000;0.5845;3.0002;
686.4000;0.5820;2.9978;
686.7000;0.5779;3.0026;
687.0000;0.5828;3.0122;
687.3000;0.5812;3.0074;
687.6000;0.5861;3.0122;
687.9000;0.5820;3.0241;
688.2000;0.5796;3.0336;
688.5000;0.5804;3.0313;
688.8000;0.5861;3.0456;
689.1000;0.5788;3.0241;
689.4000;0.5788;3.0313;
689.7000;0.5796;3.0217;
690.0000;0.5796;3.0265;
690.3000;0.5796;3.0265;
690.6000;0.5796;3.0265;
690.9000;0.5836;3.0432;
691.2000;0.5788;3.0241;
691.5000;0.5796;3.0289;
691.8000;0.5804;3.0289;
692.1000;0.5771;3.0193;
692.4000;0.5796;3.0193;
692.7000;0.5779;3.0145;
693.0000;0.5779;3.0193;
693.3000;0.5771;3.0169;
693.6000;0.5763;3.0122;
693.9000;0.5771;3.0193;
694.2000;0.5739;2.9978;
694.5000;0.5779;3.0145;
694.8000;0.5788;3.0217;
695.1000;0.5739;3.0074;
695.4000;0.5771;3.0122;
695.7000;0.5755;3.0169;
696.0000;0.5755;3.0193;
696.3000;0.5771;3.0217;
696.6000;0.5755;3.0193;
696.9000;0.5771;3.0217;
697.2000;0.5771;3.0122;
697.5000;0.5771;3.0098;
697.8000;0.5763;3.0074;
698.1000;0.5763;3.0002;
698.4000;0.5739;2.9955;
698.7000;0.5739;3.0050;
699.0000;0.5747;3.0145;
699.3000;0.5755;3.0241;
699.6000;0.5739;3.0193;
699.9000;0.5698;3.0122;
700.2000;0.5722;3.0098;
700.5000;0.5771;3.0265;
700.8000;0.5755;3.0217;
701.1000;0.5722;3.0193;
701.4000;0.5722;3.0169;
701.7000;0.5747;3.0145;
702.0000;0.5722;3.0122;
702.3000;0.5706;3.0026;
702.6000;0.5845;3.0360;
702.9000;0.5722;3.0122;
703.2000;0.5739;3.0169;
703.5000;0.5739;3.0169;
703.8000;0.5674;3.0074;
704.1000;0.5722;3.0193;
704.4000;0.5714;3.0169;
704.7000;0.5788;3.0432;
705.0000;0.5714;3.0241;
705.3000;0.5698;3.0217;
705.6000;0.5722;3.0265;
705.9000;0.5714;3.0217;
706.2000;0.5698;3.0193;
706.5000;0.5706;3.0169;
706.8000;0.5698;3.0169;
707.1000;0.5714;3.0241;
707.4000;0.5690;3.0193;
707.7000;0.5698;3.0193;
708.0000;0.5690;3.0169;
708.3000;0.5690;3.0217;
708.6000;0.5698;3.0217;
708.9000;0.5698;3.0265;
709.2000;0.5714;3.0241;
709.5000;0.5779;3.0456;
709.8000;0.5682;3.0169;
710.1000;0.5714;3.0217;
710.4000;0.5617;2.9955;
710.7000;0.5690;3.0122;
711.0000;0.5698;3.0145;
711.3000;0.5698;3.0145;
711.6000;0.5682;3.0050;
711.9000;0.5674;3.0002;
712.2000;0.5722;3.0074;
712.5000;0.5698;3.0026;
712.8000;0.5674;3.0002;
713.1000;0.5674;2.9978;
713.4000;0.5706;3.0074;
713.7000;0.5690;3.0169;
714.0000;0.5665;3.0074;
714.3000;0.5665;3.0050;
714.6000;0.5690;3.0074;
714.9000;0.5682;3.0122;
715.2000;0.5714;3.0241;
715.5000;0.5665;3.0169;
715.8000;0.5674;3.0169;
716.1000;0.5665;3.0074;
716.4000;0.5665;3.0050;
716.7000;0.5665;3.0098;
717.0000;0.5641;3.0169;
717.3000;0.5665;3.0313;
717.6000;0.5674;3.0408;
717.9000;0.5690;3.0432;
718.2000;0.5731;3.0671;
718.5000;0.5665;3.0432;
718.8000;0.5641;3.0408;
719.1000;0.5649;3.0408;
719.4000;0.5600;3.0265;
719.7000;0.5641;3.0313;
720.0000;0.5641;3.0313;
720.3000;0.5641;3.0313;
720.6000;0.5641;3.0336;
720.9000;0.5576;3.0241;
721.2000;0.5649;3.0360;
721.5000;0.5617;3.0360;
721.8000;0.5633;3.0360;
722.1000;0.5617;3.0360;
722.4000;0.5641;3.0408;
722.7000;0.5641;3.0456;
723.0000;0.5625;3.0480;
723.3000;0.5633;3.0480;
723.6000;0.5625;3.0456;
723.9000;0.5641;3.0432;
724.2000;0.5641;3.0432;
724.5000;0.5625;3.0432;
724.8000;0.5633;3.0456;
725.1000;0.5617;3.0336;
725.4000;0.5617;3.0336;
725.7000;0.5617;3.0313;
726.0000;0.5608;3.0241;
726.3000;0.5617;3.0241;
726.6000;0.5625;3.0217;
726.9000;0.5608;3.0193;
727.2000;0.5625;3.0193;
727.5000;0.5560;2.9955;
727.8000;0.5584;3.0074;
728.1000;0.5633;3.0217;
728.4000;0.5633;3.0193;
728.7000;0.5625;3.0265;
729.0000;0.5617;3.0265;
729.3000;0.5608;3.0241;
729.6000;0.5617;3.0193;
729.9000;0.5608;3.0217;
730.2000;0.5625;3.0265;
730.5000;0.5608;3.0241;
730.8000;0.5608;3.0289;
731.1000;0.5625;3.0336;
731.4000;0.5584;3.0241;
731.7000;0.5600;3.0289;
732.0000;0.5600;3.0289;
732.3000;0.5576;3.0241;
732.6000;0.5608;3.0336;
732.9000;0.5608;3.0289;
733.2000;0.5617;3.0336;
733.5000;0.5617;3.0313;
733.8000;0.5600;3.0193;
734.1000;0.5592;3.0217;
734.4000;0.5584;3.0360;
734.7000;0.5600;3.0456;
735.0000;0.5608;3.0432;
735.3000;0.5608;3.0360;
735.6000;0.5584;3.0241;
735.9000;0.5617;3.0289;
736.2000;0.5568;3.0169;
736.5000;0.5617;3.0289;
736.8000;0.5584;3.0193;
737.1000;0.5584;3.0241;
737.4000;0.5584;3.0265;
737.7000;0.5625;3.0384;
738.0000;0.5584;3.0336;
738.3000;0.5568;3.0241;
738.6000;0.5576;3.0193;
738.9000;0.5584;3.0313;
739.2000;0.5608;3.0336;
739.5000;0.5584;3.0265;
739.8000;0.5584;3.0289;
740.1000;0.5641;3.0360;
740.4000;0.5592;3.0145;
740.7000;0.5584;3.0193;
741.0000;0.5560;3.0145;
741.3000;0.5592;3.0265;
741.6000;0.5584;3.0241;
741.9000;0.5584;3.0241;
742.2000;0.5600;3.0217;
742.5000;0.5560;3.0098;
742.8000;0.5576;3.0098;
743.1000;0.5576;3.0145;
743.4000;0.5584;3.0217;
743.7000;0.5584;3.0289;
744.0000;0.5600;3.0360;
744.3000;0.5584;3.0313;
744.6000;0.5568;3.0241;
744.9000;0.5584;3.0289;
745.2000;0.5592;3.0360;
745.5000;0.5617;3.0360;
745.8000;0.5560;3.0241;
746.1000;0.5576;3.0193;
746.4000;0.5576;3.0241;
746.7000;0.5568;3.0217;
747.0000;0.5568;3.0265;
747.3000;0.5560;3.0336;
747.6000;0.5560;3.0336;
747.9000;0.5568;3.0408;
748.2000;0.5560;3.0480;
748.5000;0.5600;3.0551;
748.8000;0.5560;3.0336;
749.1000;0.5568;3.0432;
749.4000;0.5543;3.0480;
749.7000;0.5543;3.0480;
750.0000;0.5551;3.0432;
750.3000;0.5551;3.0408;
750.6000;0.5511;3.0241;
750.9000;0.5543;3.0408;
751.2000;0.5511;3.0360;
751.5000;0.5543;3.0360;
751.8000;0.5551;3.0360;
752.1000;0.5551;3.0360;
752.4000;0.5535;3.0360;
752.7000;0.5560;3.0480;
753.0000;0.5551;3.0432;
753.3000;0.5478;3.0265;
753.6000;0.5519;3.0480;
753.9000;0.5543;3.0575;
754.2000;0.5551;3.0575;
754.5000;0.5617;3.0790;
754.8000;0.5543;3.0671;
755.1000;0.5551;3.0718;
755.4000;0.5568;3.0742;
755.7000;0.5568;3.0742;
756.0000;0.5535;3.0647;
756.3000;0.5551;3.0599;
756.6000;0.5543;3.0623;
756.9000;0.5560;3.0599;
757.2000;0.5511;3.0575;
757.5000;0.5527;3.0647;
757.8000;0.5551;3.0599;
758.1000;0.5543;3.0575;
758.4000;0.5560;3.0599;
758.7000;0.5519;3.0503;
759.0000;0.5568;3.0599;
759.3000;0.5511;3.0527;
759.6000;0.5527;3.0551;
759.9000;0.5519;3.0575;
760.2000;0.5511;3.0551;
760.5000;0.5519;3.0575;
760.8000;0.5527;3.0599;
761.1000;0.5503;3.0575;
761.4000;0.5543;3.0647;
761.7000;0.5478;3.0527;
762.0000;0.5511;3.0647;
762.3000;0.5543;3.0671;
762.6000;0.5527;3.0623;
762.9000;0.5535;3.0647;
763.2000;0.5495;3.0503;
763.5000;0.5543;3.0647;
763.8000;0.5503;3.0551;
764.1000;0.5527;3.0551;
764.4000;0.5535;3.0575;
764.7000;0.5511;3.0599;
765.0000;0.5478;3.0456;
765.3000;0.5478;3.0527;
765.6000;0.5495;3.0575;
765.9000;0.5543;3.0766;
766.2000;0.5495;3.0694;
766.5000;0.5535;3.0790;
766.8000;0.5543;3.0742;
767.1000;0.5543;3.0671;
767.4000;0.5535;3.0575;
767.7000;0.5519;3.0503;
768.0000;0.5600;3.0647;
768.3000;0.5495;3.0456;
768.6000;0.5519;3.0527;
768.9000;0.5511;3.0480;
769.2000;0.5511;3.0408;
769.5000;0.5495;3.0456;
769.8000;0.5503;3.0408;
770.1000;0.5495;3.0456;
770.4000;0.5511;3.0575;
770.7000;0.5527;3.0647;
771.0000;0.5511;3.0599;
771.3000;0.5519;3.0575;
771.6000;0.5551;3.0623;
771.9000;0.5519;3.0456;
772.2000;0.5503;3.0432;
772.5000;0.5438;3.0241;
772.8000;0.5511;3.0503;
773.1000;0.5511;3.0480;
773.4000;0.5486;3.0456;
773.7000;0.5511;3.0551;
774.0000;0.5495;3.0480;
774.3000;0.5454;3.0265;
774.6000;0.5503;3.0408;
774.9000;0.5495;3.0313;
775.2000;0.5495;3.0456;
775.5000;0.5543;3.0671;
775.8000;0.5454;3.0313;
776.1000;0.5527;3.0408;
776.4000;0.5503;3.0408;
776.7000;0.5495;3.0527;
777.0000;0.5413;3.0336;
777.3000;0.5511;3.0671;
777.6000;0.5527;3.0694;
777.9000;0.5503;3.0647;
778.2000;0.5511;3.0742;
778.5000;0.5495;3.0623;
778.8000;0.5511;3.0599;
779.1000;0.5511;3.0527;
779.4000;0.5486;3.0432;
779.7000;0.5503;3.0456;
780.0000;0.5511;3.0480;
780.3000;0.5429;3.0336;
780.6000;0.5568;3.0694;
780.9000;0.5511;3.0527;
781.2000;0.5503;3.0503;
781.5000;0.5527;3.0575;
781.8000;0.5495;3.0527;
782.1000;0.5503;3.0551;
782.4000;0.5495;3.0599;
782.7000;0.5503;3.0671;
783.0000;0.5495;3.0575;
783.3000;0.5503;3.0551;
783.6000;0.5495;3.0575;
783.9000;0.5503;3.0575;
784.2000;0.5486;3.0575;
784.5000;0.5511;3.0718;
784.8000;0.5486;3.0623;
785.1000;0.5495;3.0599;
785.4000;0.5495;3.0527;
785.7000;0.5478;3.0480;
786.0000;0.5438;3.0503;
786.3000;0.5486;3.0599;
786.6000;0.5495;3.0742;
786.9000;0.5486;3.0790;
787.2000;0.5478;3.0814;
787.5000;0.5486;3.0790;
787.8000;0.5478;3.0718;
788.1000;0.5470;3.0599;
788.4000;0.5495;3.0694;
788.7000;0.5478;3.0623;
789.0000;0.5462;3.0527;
789.3000;0.5462;3.0432;
789.6000;0.5511;3.0456;
789.9000;0.5486;3.0480;
790.2000;0.5478;3.0456;
790.5000;0.5495;3.0432;
790.8000;0.5503;3.0456;
791.1000;0.5486;3.0575;
791.4000;0.5478;3.0527;
791.7000;0.5486;3.0503;
792.0000;0.5462;3.0313;
792.3000;0.5527;3.0432;
792.6000;0.5470;3.0313;
792.9000;0.5478;3.0360;
793.2000;0.5495;3.0432;
793.5000;0.5486;3.0432;
793.8000;0.5470;3.0456;
794.1000;0.5486;3.0313;
794.4000;0.5478;3.0313;
794.7000;0.5486;3.0432;
795.0000;0.5478;3.0384;
795.3000;0.5551;3.0527;
795.6000;0.5462;3.0313;
795.9000;0.5486;3.0360;
796.2000;0.5478;3.0336;
796.5000;0.5470;3.0432;
796.8000;0.5478;3.0456;
797.1000;0.5462;3.0408;
797.4000;0.5462;3.0360;
797.7000;0.5478;3.0384;
798.0000;0.5454;3.0384;
798.3000;0.5470;3.0599;
798.6000;0.5478;3.0694;
798.9000;0.5470;3.0671;
799.2000;0.5462;3.0671;
799.5000;0.5454;3.0623;
799.8000;0.5470;3.0575;
800.1000;0.5470;3.0599;
800.4000;0.5421;3.0456;
800.7000;0.5470;3.0503;
801.0000;0.5470;3.0503;
801.3000;0.5454;3.0480;
801.6000;0.5438;3.0527;
801.9000;0.5454;3.0551;
802.2000;0.5397;3.0456;
802.5000;0.5470;3.0599;
802.8000;0.5446;3.0432;
803.1000;0.5446;3.0384;
803.4000;0.5405;3.0313;
803.7000;0.5470;3.0480;
804.0000;0.5503;3.0575;
804.3000;0.5462;3.0480;
804.6000;0.5462;3.0432;
804.9000;0.5470;3.0575;
805.2000;0.5478;3.0599;
805.5000;0.5478;3.0599;
805.8000;0.5446;3.0599;
806.1000;0.5454;3.0623;
806.4000;0.5462;3.0623;
806.7000;0.5454;3.0623;
807.0000;0.5462;3.0671;
807.3000;0.5486;3.0742;
807.6000;0.5462;3.0694;
807.9000;0.5454;3.0599;
808.2000;0.5454;3.0575;
808.5000;0.5470;3.0503;
808.8000;0.5454;3.0480;
809.1000;0.5446;3.0480;
809.4000;0.5462;3.0432;
809.7000;0.5470;3.0456;
810.0000;0.5462;3.0480;
810.3000;0.5454;3.0503;
810.6000;0.5438;3.0503;
810.9000;0.5429;3.0527;
811.2000;0.5429;3.0456;
811.5000;0.5438;3.0480;
811.8000;0.5495;3.0599;
812.1000;0.5470;3.0527;
812.4000;0.5446;3.0623;
812.7000;0.5478;3.0647;
813.0000;0.5462;3.0503;
813.3000;0.5446;3.0384;
813.6000;0.5446;3.0456;
813.9000;0.5446;3.0456;
814.2000;0.5405;3.0360;
814.5000;0.5454;3.0432;
814.8000;0.5446;3.0456;
815.1000;0.5470;3.0503;
815.4000;0.5421;3.0360;
815.7000;0.5438;3.0384;
816.0000;0.5397;3.0217;
816.3000;0.5438;3.0289;
816.6000;0.5454;3.0408;
816.9000;0.5429;3.0360;
817.2000;0.5462;3.0432;
817.5000;0.5438;3.0384;
817.8000;0.5462;3.0432;
818.1000;0.5438;3.0336;
818.4000;0.5486;3.0360;
818.7000;0.5381;3.0050;
819.0000;0.5454;3.0313;
819.3000;0.5397;3.0241;
819.6000;0.5438;3.0336;
819.9000;0.5429;3.0313;
820.2000;0.5438;3.0289;
820.5000;0.5381;3.0217;
820.8000;0.5446;3.0432;
821.1000;0.5446;3.0527;
821.4000;0.5438;3.0551;
821.7000;0.5446;3.0480;
822.0000;0.5454;3.0456;
822.3000;0.5421;3.0432;
822.6000;0.5438;3.0575;
822.9000;0.5421;3.0599;
823.2000;0.5446;3.0671;
823.5000;0.5413;3.0575;
823.8000;0.5454;3.0647;
824.1000;0.5397;3.0503;
824.4000;0.5429;3.0599;
824.7000;0.5446;3.0551;
825.0000;0.5438;3.0551;
825.3000;0.5446;3.0527;
825.6000;0.5438;3.0456;
825.9000;0.5438;3.0527;
826.2000;0.5446;3.0599;
826.5000;0.5429;3.0575;
826.8000;0.5446;3.0671;
827.1000;0.5397;3.0551;
827.4000;0.5429;3.0527;
827.7000;0.5438;3.0599;
828.0000;0.5462;3.0647;
828.3000;0.5429;3.0551;
828.6000;0.5454;3.0575;
828.9000;0.5446;3.0623;
829.2000;0.5446;3.0527;
829.5000;0.5454;3.0527;
829.8000;0.5454;3.0599;
830.1000;0.5438;3.0647;
830.4000;0.5446;3.0742;
830.7000;0.5454;3.0742;
831.0000;0.5438;3.0742;
831.3000;0.5429;3.0694;
831.6000;0.5446;3.0838;
831.9000;0.5438;3.0814;
832.2000;0.5462;3.0814;
832.5000;0.5438;3.0790;
832.8000;0.5438;3.0766;
833.1000;0.5454;3.0814;
833.4000;0.5438;3.0671;
833.7000;0.5421;3.0742;
834.0000;0.5495;3.0861;
834.3000;0.5486;3.0909;
834.6000;0.5446;3.0838;
834.9000;0.5421;3.0790;
835.2000;0.5429;3.0838;
835.5000;0.5405;3.0814;
835.8000;0.5454;3.0790;
836.1000;0.5429;3.0790;
836.4000;0.5438;3.0742;
836.7000;0.5454;3.0766;
837.0000;0.5372;3.0575;
837.3000;0.5381;3.0671;
837.6000;0.5421;3.0718;
837.9000;0.5413;3.0647;
838.2000;0.5503;3.0814;
838.5000;0.5389;3.0599;
838.8000;0.5470;3.0766;
839.1000;0.5438;3.0694;
839.4000;0.5429;3.0647;
839.7000;0.5429;3.0599;
840.0000;0.5397;3.0551;
840.3000;0.5429;3.0599;
840.6000;0.5462;3.0694;
840.9000;0.5421;3.0647;
841.2000;0.5421;3.0718;
841.5000;0.5454;3.0885;
841.8000;0.5438;3.0885;
842.1000;0.5429;3.0838;
842.4000;0.5503;3.0909;
842.7000;0.5454;3.0647;
843.0000;0.5438;3.0575;
843.3000;0.5405;3.0503;
843.6000;0.5446;3.0623;
843.9000;0.5413;3.0551;
844.2000;0.5421;3.0599;
844.5000;0.5389;3.0384;
844.8000;0.5429;3.0456;
845.1000;0.5421;3.0384;
845.4000;0.5421;3.0360;
845.7000;0.5332;3.0217;
846.0000;0.5421;3.0432;
846.3000;0.5413;3.0408;
846.6000;0.5438;3.0480;
846.9000;0.5413;3.0551;
847.2000;0.5446;3.0623;
847.5000;0.5421;3.0527;
847.8000;0.5405;3.0480;
848.1000;0.5438;3.0527;
848.4000;0.5372;3.0360;
848.7000;0.5413;3.0503;
849.0000;0.5397;3.0432;
849.3000;0.5389;3.0313;
849.6000;0.5413;3.0432;
849.9000;0.5413;3.0432;
850.2000;0.5397;3.0384;
850.5000;0.5381;3.0360;
850.8000;0.5438;3.0456;
851.1000;0.5413;3.0456;
851.4000;0.5421;3.0527;
851.7000;0.5429;3.0503;
852.0000;0.5438;3.0503;
852.3000;0.5397;3.0456;
852.6000;0.5429;3.0503;
852.9000;0.5397;3.0408;
853.2000;0.5446;3.0527;
853.5000;0.5429;3.0575;
853.8000;0.5421;3.0647;
854.1000;0.5421;3.0671;
854.4000;0.5405;3.0647;
854.7000;0.5405;3.0647;
855.0000;0.5478;3.0766;
855.3000;0.5446;3.0647;
855.6000;0.5405;3.0503;
855.9000;0.5421;3.0527;
856.2000;0.5389;3.0336;
856.5000;0.5413;3.0480;
856.8000;0.5421;3.0551;
857.1000;0.5332;3.0289;
857.4000;0.5413;3.0623;
857.7000;0.5413;3.0599;
858.0000;0.5413;3.0456;
858.3000;0.5340;3.0241;
858.6000;0.5429;3.0527;
858.9000;0.5454;3.0575;
859.2000;0.5470;3.0623;
859.5000;0.5413;3.0503;
859.8000;0.5454;3.0575;
860.1000;0.5389;3.0456;
860.4000;0.5413;3.0551;
860.7000;0.5397;3.0575;
861.0000;0.5421;3.0575;
861.3000;0.5413;3.0527;
861.6000;0.5389;3.0551;
861.9000;0.5421;3.0503;
862.2000;0.5413;3.0503;
862.5000;0.5421;3.0527;
862.8000;0.5405;3.0527;
863.1000;0.5405;3.0480;
863.4000;0.5397;3.0551;
863.7000;0.5372;3.0551;
864.0000;0.5405;3.0623;
864.3000;0.5413;3.0694;
864.6000;0.5446;3.0718;
864.9000;0.5446;3.0694;
865.2000;0.5429;3.0671;
865.5000;0.5372;3.0527;
865.8000;0.5397;3.0599;
866.1000;0.5405;3.0671;
866.4000;0.5397;3.0623;
866.7000;0.5405;3.0647;
867.0000;0.5421;3.0694;
867.3000;0.5421;3.0575;
867.6000;0.5348;3.0432;
867.9000;0.5381;3.0480;
868.2000;0.5413;3.0551;
868.5000;0.5470;3.0671;
868.8000;0.5421;3.0551;
869.1000;0.5405;3.0647;
869.4000;0.5397;3.0742;
869.7000;0.5405;3.0694;
870.0000;0.5405;3.0742;
870.3000;0.5405;3.0718;
870.6000;0.5421;3.0742;
870.9000;0.5405;3.0742;
871.2000;0.5340;3.0647;
871.5000;0.5421;3.0885;
871.8000;0.5397;3.0814;
872.1000;0.5397;3.0790;
872.4000;0.5405;3.0742;
872.7000;0.5397;3.0671;
873.0000;0.5421;3.0694;
873.3000;0.5405;3.0742;
873.6000;0.5405;3.0599;
873.9000;0.5462;3.0647;
874.2000;0.5405;3.0527;
874.5000;0.5381;3.0527;
874.8000;0.5413;3.0575;
875.1000;0.5413;3.0527;
875.4000;0.5413;3.0599;
875.7000;0.5397;3.0623;
876.0000;0.5413;3.0671;
876.3000;0.5421;3.0623;
876.6000;0.5405;3.0575;
876.9000;0.5405;3.0551;
877.2000;0.5421;3.0551;
877.5000;0.5413;3.0503;
877.8000;0.5405;3.0551;
878.1000;0.5421;3.0480;
878.4000;0.5405;3.0456;
878.7000;0.5421;3.0503;
879.0000;0.5454;3.0575;
879.3000;0.5405;3.0599;
879.6000;0.5405;3.0694;
879.9000;0.5397;3.0694;
880.2000;0.5397;3.0718;
880.5000;0.5381;3.0671;
880.8000;0.5389;3.0575;
881.1000;0.5381;3.0599;
881.4000;0.5389;3.0647;
881.7000;0.5381;3.0527;
882.0000;0.5438;3.0694;
882.3000;0.5397;3.0742;
882.6000;0.5405;3.0814;
882.9000;0.5389;3.0766;
883.2000;0.5389;3.0647;
883.5000;0.5405;3.0647;
883.8000;0.5397;3.0647;
884.1000;0.5405;3.0575;
884.4000;0.5381;3.0456;
884.7000;0.5389;3.0456;
885.0000;0.5405;3.0527;
885.3000;0.5372;3.0480;
885.6000;0.5405;3.0503;
885.9000;0.5397;3.0456;
886.2000;0.5372;3.0432;
886.5000;0.5389;3.0480;
886.8000;0.5405;3.0480;
887.1000;0.5405;3.0360;
887.4000;0.5405;3.0408;
887.7000;0.5405;3.0360;
888.0000;0.5397;3.0408;
888.3000;0.5381;3.0289;
888.6000;0.5389;3.0360;
888.9000;0.5381;3.0456;
889.2000;0.5389;3.0432;
889.5000;0.5397;3.0384;
889.8000;0.5381;3.0336;
890.1000;0.5397;3.0336;
890.4000;0.5372;3.0313;
890.7000;0.5397;3.0336;
891.0000;0.5389;3.0360;
891.3000;0.5397;3.0384;
891.6000;0.5405;3.0432;
891.9000;0.5397;3.0432;
892.2000;0.5405;3.0408;
892.5000;0.5421;3.0551;
892.8000;0.5397;3.0527;
893.1000;0.5421;3.0599;
893.4000;0.5397;3.0551;
893.7000;0.5389;3.0575;
894.0000;0.5397;3.0718;
894.3000;0.5381;3.0551;
894.6000;0.5381;3.0480;
894.9000;0.5429;3.0623;
895.2000;0.5356;3.0408;
895.5000;0.5356;3.0408;
895.8000;0.5372;3.0408;
896.1000;0.5372;3.0432;
896.4000;0.5389;3.0551;
896.7000;0.5421;3.0671;
897.0000;0.5389;3.0599;
897.3000;0.5389;3.0527;
897.6000;0.5397;3.0527;
897.9000;0.5299;3.0313;
898.2000;0.5397;3.0599;
898.5000;0.5324;3.0456;
898.8000;0.5389;3.0575;
899.1000;0.5389;3.0647;
899.4000;0.5405;3.0694;
899.7000;0.5299;3.0456;
900.0000;0.5397;3.0718;
900.3000;0.5405;3.0718;
900.6000;0.5462;3.0861;
900.9000;0.5372;3.0671;
901.2000;0.5438;3.0814;
901.5000;0.5389;3.0742;
901.8000;0.5413;3.0766;
902.1000;0.5389;3.0718;
902.4000;0.5381;3.0694;
902.7000;0.5389;3.0718;
903.0000;0.5397;3.0742;
903.3000;0.5397;3.0790;
903.6000;0.5372;3.0694;
903.9000;0.5462;3.0885;
904.2000;0.5454;3.0861;
904.5000;0.5389;3.0766;
904.8000;0.5389;3.0718;
905.1000;0.5372;3.0599;
905.4000;0.5381;3.0647;
905.7000;0.5405;3.0647;
906.0000;0.5397;3.0647;
906.3000;0.5389;3.0647;
906.6000;0.5389;3.0575;
906.9000;0.5413;3.0623;
907.2000;0.5405;3.0623;
907.5000;0.5389;3.0575;
907.8000;0.5429;3.0575;
908.1000;0.5381;3.0456;
908.4000;0.5356;3.0432;
908.7000;0.5389;3.0432;
909.0000;0.5372;3.0503;
909.3000;0.5372;3.0527;
909.6000;0.5405;3.0623;
909.9000;0.5372;3.0623;
910.2000;0.5389;3.0694;
910.5000;0.5389;3.0694;
910.8000;0.5389;3.0766;
911.1000;0.5389;3.0718;
911.4000;0.5413;3.0742;
911.7000;0.5389;3.0742;
912.0000;0.5397;3.0861;
912.3000;0.5429;3.0885;
912.6000;0.5381;3.0814;
912.9000;0.5405;3.0718;
913.2000;0.5413;3.0861;
913.5000;0.5389;3.0790;
913.8000;0.5405;3.0885;
914.1000;0.5381;3.0814;
914.4000;0.5413;3.0838;
914.7000;0.5389;3.0742;
915.0000;0.5372;3.0766;
915.3000;0.5372;3.0742;
915.6000;0.5340;3.0718;
915.9000;0.5389;3.0861;
916.2000;0.5348;3.0623;
916.5000;0.5389;3.0671;
916.8000;0.5389;3.0647;
917.1000;0.5405;3.0671;
917.4000;0.5421;3.0718;
917.7000;0.5381;3.0718;
918.0000;0.5372;3.0671;
918.3000;0.5389;3.0718;
918.6000;0.5381;3.0766;
918.9000;0.5381;3.0718;
919.2000;0.5389;3.0647;
919.5000;0.5381;3.0694;
919.8000;0.5381;3.0623;
920.1000;0.5381;3.0671;
920.4000;0.5429;3.0838;
920.7000;0.5372;3.0718;
921.0000;0.5381;3.0766;
921.3000;0.5381;3.0671;
921.6000;0.5372;3.0599;
921.9000;0.5381;3.0623;
922.2000;0.5381;3.0599;
922.5000;0.5372;3.0623;
922.8000;0.5381;3.0623;
923.1000;0.5389;3.0694;
923.4000;0.5389;3.0694;
923.7000;0.5389;3.0742;
924.0000;0.5389;3.0742;
924.3000;0.5372;3.0694;
924.6000;0.5372;3.0790;
924.9000;0.5348;3.0718;
925.2000;0.5372;3.0790;
925.5000;0.5372;3.0718;
925.8000;0.5364;3.0718;
926.1000;0.5372;3.0766;
926.4000;0.5364;3.0694;
926.7000;0.5381;3.0718;
927.0000;0.5397;3.0742;
927.3000;0.5438;3.0790;
927.6000;0.5372;3.0671;
927.9000;0.5364;3.0647;
928.2000;0.5364;3.0623;
928.5000;0.5372;3.0671;
928.8000;0.5381;3.0671;
929.1000;0.5364;3.0647;
929.4000;0.5397;3.0694;
929.7000;0.5381;3.0647;
930.0000;0.5364;3.0599;
930.3000;0.5364;3.0718;
930.6000;0.5364;3.0766;
930.9000;0.5356;3.0718;
931.2000;0.5364;3.0694;
931.5000;0.5315;3.0527;
931.8000;0.5389;3.0647;
932.1000;0.5364;3.0575;
932.4000;0.5381;3.0599;
932.7000;0.5348;3.0527;
933.0000;0.5372;3.0599;
933.3000;0.5372;3.0718;
933.6000;0.5372;3.0790;
933.9000;0.5372;3.0790;
934.2000;0.5348;3.0742;
934.5000;0.5364;3.0766;
934.8000;0.5381;3.0885;
935.1000;0.5389;3.0885;
935.4000;0.5462;3.1029;
935.7000;0.5381;3.0814;
936.0000;0.5381;3.0766;
936.3000;0.5364;3.0694;
936.6000;0.5340;3.0599;
936.9000;0.5372;3.0623;
937.2000;0.5381;3.0718;
937.5000;0.5372;3.0694;
937.8000;0.5381;3.0647;
938.1000;0.5364;3.0623;
938.4000;0.5324;3.0575;
938.7000;0.5397;3.0766;
939.0000;0.5364;3.0694;
939.3000;0.5356;3.0694;
939.6000;0.5364;3.0790;
939.9000;0.5307;3.0671;
940.2000;0.5356;3.0718;
940.5000;0.5348;3.0575;
940.8000;0.5364;3.0623;
941.1000;0.5429;3.0766;
941.4000;0.5372;3.0647;
941.7000;0.5356;3.0599;
942.0000;0.5381;3.0623;
942.3000;0.5389;3.0575;
942.6000;0.5372;3.0551;
942.9000;0.5258;3.0265;
943.2000;0.5372;3.0527;
943.5000;0.5372;3.0551;
943.8000;0.5372;3.0551;
944.1000;0.5356;3.0527;
944.4000;0.5381;3.0575;
944.7000;0.5340;3.0480;
945.0000;0.5381;3.0527;
945.3000;0.5348;3.0456;
945.6000;0.5364;3.0456;
945.9000;0.5364;3.0432;
946.2000;0.5381;3.0551;
946.5000;0.5356;3.0456;
946.8000;0.5364;3.0503;
947.1000;0.5356;3.0575;
947.4000;0.5356;3.0527;
947.7000;0.5372;3.0599;
948.0000;0.5381;3.0623;
948.3000;0.5397;3.0671;
948.6000;0.5372;3.0599;
948.9000;0.5462;3.0885;
949.2000;0.5332;3.0575;
949.5000;0.5324;3.0503;
949.8000;0.5356;3.0480;
950.1000;0.5348;3.0456;
950.4000;0.5348;3.0480;
950.7000;0.5356;3.0623;
951.0000;0.5470;3.0885;
951.3000;0.5405;3.0718;
951.6000;0.5364;3.0694;
951.9000;0.5381;3.0694;
952.2000;0.5446;3.0814;
952.5000;0.5381;3.0623;
952.8000;0.5364;3.0527;
953.1000;0.5356;3.0480;
953.4000;0.5381;3.0527;
953.7000;0.5405;3.0671;
954.0000;0.5324;3.0575;
954.3000;0.5348;3.0575;
954.6000;0.5348;3.0647;
954.9000;0.5348;3.0647;
955.2000;0.5381;3.0814;
955.5000;0.5364;3.0790;
955.8000;0.5405;3.0909;
956.1000;0.5364;3.0838;
956.4000;0.5372;3.0838;
956.7000;0.5348;3.0814;
957.0000;0.5348;3.0861;
957.3000;0.5364;3.0814;
957.6000;0.5364;3.0933;
957.9000;0.5356;3.0814;
958.2000;0.5364;3.0814;
958.5000;0.5381;3.0909;
958.8000;0.5372;3.0885;
959.1000;0.5372;3.0885;
959.4000;0.5356;3.0814;
959.7000;0.5324;3.0766;
960.0000;0.5332;3.0838;
960.3000;0.5364;3.0885;
960.6000;0.5258;3.0647;
960.9000;0.5348;3.0790;
961.2000;0.5364;3.0814;
961.5000;0.5381;3.0766;
961.8000;0.5372;3.0647;
962.1000;0.5372;3.0718;
962.4000;0.5356;3.0647;
962.7000;0.5356;3.0623;
963.0000;0.5356;3.0551;
963.3000;0.5364;3.0599;
963.6000;0.5348;3.0623;
963.9000;0.5315;3.0503;
964.2000;0.5315;3.0551;
964.5000;0.5372;3.0790;
964.8000;0.5364;3.0790;
965.1000;0.5340;3.0718;
965.4000;0.5421;3.0909;
965.7000;0.5356;3.0814;
966.0000;0.5372;3.0814;
966.3000;0.5332;3.0742;
966.6000;0.5348;3.0742;
966.9000;0.5348;3.0718;
967.2000;0.5356;3.0766;
967.5000;0.5372;3.0885;
967.8000;0.5348;3.0838;
968.1000;0.5364;3.0885;
968.4000;0.5364;3.0885;
968.7000;0.5372;3.0885;
969.0000;0.5381;3.0885;
969.3000;0.5389;3.0885;
969.6000;0.5372;3.0885;
969.9000;0.5397;3.1052;
970.2000;0.5429;3.1076;
970.5000;0.5356;3.0957;
970.8000;0.5356;3.1029;
971.1000;0.5340;3.1029;
971.4000;0.5315;3.0981;
971.7000;0.5381;3.1005;
972.0000;0.5405;3.1029;
972.3000;0.5307;3.0790;
972.6000;0.5372;3.1029;
972.9000;0.5389;3.1005;
973.2000;0.5340;3.0838;
973.5000;0.5356;3.0885;
973.8000;0.5348;3.0814;
974.1000;0.5372;3.0885;
974.4000;0.5372;3.0933;
974.7000;0.5364;3.0933;
975.0000;0.5372;3.0957;
975.3000;0.5364;3.0933;
975.6000;0.5356;3.0909;
975.9000;0.5332;3.0885;
976.2000;0.5340;3.0885;
976.5000;0.5356;3.0933;
976.8000;0.5356;3.0838;
977.1000;0.5372;3.0933;
977.4000;0.5381;3.0790;
977.7000;0.5372;3.0838;
978.0000;0.5381;3.0885;
978.3000;0.5413;3.0981;
978.6000;0.5372;3.0909;
978.9000;0.5381;3.0861;
979.2000;0.5372;3.0814;
979.5000;0.5372;3.0861;
979.8000;0.5348;3.0790;
980.1000;0.5356;3.0933;
980.4000;0.5372;3.1100;
980.7000;0.5364;3.1076;
981.0000;0.5356;3.1029;
981.3000;0.5381;3.1052;
981.6000;0.5356;3.0981;
981.9000;0.5381;3.0981;
982.2000;0.5356;3.0981;
982.5000;0.5356;3.1005;
982.8000;0.5348;3.0909;
983.1000;0.5356;3.0957;
983.4000;0.5364;3.0981;
983.7000;0.5332;3.0909;
984.0000;0.5348;3.0909;
984.3000;0.5364;3.0909;
984.6000;0.5356;3.0909;
984.9000;0.5356;3.0909;
985.2000;0.5332;3.0861;
985.5000;0.5372;3.0885;
985.8000;0.5364;3.0885;
986.1000;0.5348;3.0861;
986.4000;0.5348;3.0861;
986.7000;0.5356;3.0766;
987.0000;0.5299;3.0718;
987.3000;0.5397;3.1005;
987.6000;0.5389;3.0957;
987.9000;0.5364;3.0933;
988.2000;0.5364;3.0957;
988.5000;0.5397;3.1076;
988.8000;0.5356;3.0981;
989.1000;0.5372;3.1005;
989.4000;0.5275;3.0671;
989.7000;0.5348;3.0861;
990.0000;0.5340;3.0790;
990.3000;0.5332;3.0766;
990.6000;0.5348;3.0861;
990.9000;0.5356;3.0909;
991.2000;0.5364;3.0957;
991.5000;0.5356;3.0909;
991.8000;0.5364;3.0933;
992.1000;0.5364;3.0909;
992.4000;0.5372;3.1052;
992.7000;0.5348;3.1029;
993.0000;0.5356;3.1029;
993.3000;0.5315;3.0981;
993.6000;0.5356;3.1005;
993.9000;0.5324;3.0957;
994.2000;0.5356;3.1005;
994.5000;0.5356;3.0861;
994.8000;0.5364;3.0814;
995.1000;0.5364;3.0742;
995.4000;0.5364;3.0766;
995.7000;0.5356;3.0814;
996.0000;0.5381;3.0838;
996.3000;0.5364;3.0838;
996.6000;0.5372;3.0909;
996.9000;0.5372;3.0885;
997.2000;0.5348;3.0861;
997.5000;0.5348;3.0838;
997.8000;0.5356;3.0885;
998.1000;0.5372;3.0933;
998.4000;0.5389;3.0885;
998.7000;0.5372;3.0861;
999.0000;0.5381;3.0838;
999.3000;0.5348;3.0861;
999.6000;0.5364;3.0885;
999.9000;0.5348;3.0742;
1000.2000;0.5364;3.0814;
1000.5000;0.5340;3.0766;
1000.8000;0.5356;3.0814;
1001.1000;0.5348;3.0790;
1001.4000;0.5356;3.0814;
1001.7000;0.5356;3.0742;
1002.0000;0.5372;3.0814;
1002.3000;0.5348;3.0742;
1002.6000;0.5348;3.0766;
1002.9000;0.5364;3.0766;
1003.2000;0.5372;3.0766;
1003.5000;0.5348;3.0766;
1003.8000;0.5372;3.0838;
1004.1000;0.5364;3.0766;
1004.4000;0.5340;3.0766;
1004.7000;0.5364;3.0766;
1005.0000;0.5364;3.0742;
1005.3000;0.5356;3.0694;
1005.6000;0.5340;3.0694;
1005.9000;0.5356;3.0694;
1006.2000;0.5364;3.0623;
1006.5000;0.5364;3.0503;
1006.8000;0.5315;3.0456;
1007.1000;0.5340;3.0575;
1007.4000;0.5364;3.0671;
1007.7000;0.5356;3.0766;
1008.0000;0.5372;3.0742;
1008.3000;0.5332;3.0647;
1008.6000;0.5348;3.0766;
1008.9000;0.5372;3.0766;
1009.2000;0.5348;3.0623;
1009.5000;0.5324;3.0527;
1009.8000;0.5364;3.0647;
1010.1000;0.5364;3.0599;
1010.4000;0.5421;3.0766;
1010.7000;0.5348;3.0623;
1011.0000;0.5364;3.0623;
1011.3000;0.5340;3.0527;
1011.6000;0.5372;3.0599;
1011.9000;0.5356;3.0575;
1012.2000;0.5356;3.0671;
1012.5000;0.5356;3.0671;
1012.8000;0.5340;3.0503;
1013.1000;0.5364;3.0623;
1013.4000;0.5381;3.0671;
1013.7000;0.5356;3.0742;
1014.0000;0.5372;3.0742;
1014.3000;0.5356;3.0790;
1014.6000;0.5348;3.0742;
1014.9000;0.5348;3.0694;
1015.2000;0.5348;3.0718;
1015.5000;0.5340;3.0623;
1015.8000;0.5356;3.0623;
1016.1000;0.5364;3.0671;
1016.4000;0.5397;3.0814;
1016.7000;0.5356;3.0790;
1017.0000;0.5348;3.0766;
1017.3000;0.5364;3.0814;
1017.6000;0.5364;3.0861;
1017.9000;0.5356;3.0838;
1018.2000;0.5356;3.0933;
1018.5000;0.5364;3.0909;
1018.8000;0.5364;3.0885;
1019.1000;0.5381;3.0909;
1019.4000;0.5324;3.0838;
1019.7000;0.5364;3.0885;
1020.0000;0.5364;3.0861;
1020.3000;0.5332;3.0742;
1020.6000;0.5332;3.0814;
1020.9000;0.5356;3.0885;
1021.2000;0.5372;3.0933;
1021.5000;0.5348;3.0909;
1021.8000;0.5356;3.0861;
1022.1000;0.5364;3.0838;
1022.4000;0.5364;3.0885;
1022.7000;0.5348;3.0861;
1023.0000;0.5356;3.0861;
1023.3000;0.5356;3.0861;
1023.6000;0.5348;3.0790;
1023.9000;0.5364;3.0766;
1024.2000;0.5356;3.0671;
1024.5000;0.5356;3.0647;
1024.8000;0.5364;3.0742;
1025.1000;0.5364;3.0742;
1025.4000;0.5372;3.0766;
1025.7000;0.5381;3.0838;
1026.0000;0.5340;3.0742;
1026.3000;0.5348;3.0838;
1026.6000;0.5340;3.0838;
1026.9000;0.5348;3.0838;
1027.2000;0.5324;3.0790;
1027.5000;0.5389;3.0885;
1027.8000;0.5372;3.0861;
1028.1000;0.5340;3.0814;
1028.4000;0.5258;3.0599;
1028.7000;0.5348;3.0814;
1029.0000;0.5372;3.0909;
1029.3000;0.5438;3.1148;
1029.6000;0.5340;3.0933;
1029.9000;0.5356;3.0957;
1030.2000;0.5356;3.0909;
1030.5000;0.5389;3.0957;
1030.8000;0.5389;3.0957;
1031.1000;0.5364;3.0957;
1031.4000;0.5340;3.1005;
1031.7000;0.5356;3.1005;
1032.0000;0.5340;3.0981;
1032.3000;0.5356;3.1029;
1032.6000;0.5348;3.0981;
1032.9000;0.5356;3.1029;
1033.2000;0.5348;3.0981;
1033.5000;0.5348;3.0957;
1033.8000;0.5340;3.0957;
1034.1000;0.5348;3.1005;
1034.4000;0.5340;3.0838;
1034.7000;0.5364;3.0909;
1035.0000;0.5356;3.0790;
1035.3000;0.5356;3.0742;
1035.6000;0.5348;3.0838;
1035.9000;0.5283;3.0647;
1036.2000;0.5332;3.0718;
1036.5000;0.5364;3.0790;
1036.8000;0.5356;3.0766;
1037.1000;0.5332;3.0766;
1037.4000;0.5364;3.0885;
1037.7000;0.5356;3.0885;
1038.0000;0.5364;3.0861;
1038.3000;0.5364;3.0861;
1038.6000;0.5348;3.0933;
1038.9000;0.5364;3.0885;
1039.2000;0.5348;3.0838;
1039.5000;0.5356;3.0838;
1039.8000;0.5332;3.0861;
1040.1000;0.5356;3.0957;
1040.4000;0.5356;3.0981;
1040.7000;0.5364;3.1005;
1041.0000;0.5348;3.0933;
1041.3000;0.5348;3.0981;
1041.6000;0.5372;3.1029;
1041.9000;0.5364;3.0885;
1042.2000;0.5340;3.0838;
1042.5000;0.5364;3.0790;
1042.8000;0.5356;3.0814;
1043.1000;0.5356;3.0861;
1043.4000;0.5324;3.0909;
1043.7000;0.5348;3.0861;
1044.0000;0.5356;3.0981;
1044.3000;0.5258;3.0694;
1044.6000;0.5348;3.0861;
1044.9000;0.5324;3.0861;
1045.2000;0.5348;3.0814;
1045.5000;0.5381;3.0957;
1045.8000;0.5307;3.0838;
1046.1000;0.5348;3.1005;
1046.4000;0.5381;3.1076;
1046.7000;0.5348;3.1052;
1047.0000;0.5340;3.1029;
1047.3000;0.5340;3.0957;
1047.6000;0.5356;3.0933;
1047.9000;0.5356;3.1052;
1048.2000;0.5348;3.1076;
1048.5000;0.5340;3.0957;
1048.8000;0.5324;3.1052;
1049.1000;0.5356;3.1029;
1049.4000;0.5356;3.0981;
1049.7000;0.5364;3.1029;
1050.0000;0.5340;3.0957;
1050.3000;0.5356;3.1029;
1050.6000;0.5332;3.1029;
1050.9000;0.5315;3.1029;
1051.2000;0.5340;3.1100;
1051.5000;0.5348;3.1100;
1051.8000;0.5356;3.1148;
1052.1000;0.5315;3.1052;
1052.4000;0.5356;3.1124;
1052.7000;0.5356;3.1076;
1053.0000;0.5356;3.1124;
1053.3000;0.5356;3.1196;
1053.6000;0.5348;3.1220;
1053.9000;0.5332;3.1148;
1054.2000;0.5340;3.1052;
1054.5000;0.5315;3.1005;
1054.8000;0.5348;3.1076;
1055.1000;0.5348;3.1005;
1055.4000;0.5348;3.1005;
1055.7000;0.5348;3.0957;
1056.0000;0.5315;3.0838;
1056.3000;0.5372;3.0957;
1056.6000;0.5340;3.0861;
1056.9000;0.5364;3.0981;
1057.2000;0.5389;3.1029;
1057.5000;0.5340;3.0933;
1057.8000;0.5315;3.0885;
1058.1000;0.5381;3.0933;
1058.4000;0.5356;3.0957;
1058.7000;0.5340;3.0838;
1059.0000;0.5291;3.0718;
1059.3000;0.5267;3.0694;
1059.6000;0.5348;3.0838;
1059.9000;0.5348;3.0814;
1060.2000;0.5348;3.0790;
1060.5000;0.5340;3.0861;
1060.8000;0.5348;3.0838;
1061.1000;0.5348;3.0885;
1061.4000;0.5340;3.0957;
1061.7000;0.5332;3.0957;
1062.0000;0.5324;3.0933;
1062.3000;0.5340;3.0981;
1062.6000;0.5332;3.1029;
1062.9000;0.5332;3.0981;
1063.2000;0.5364;3.0957;
1063.5000;0.5348;3.1005;
1063.8000;0.5348;3.1052;
1064.1000;0.5348;3.1100;
1064.4000;0.5348;3.1076;
1064.7000;0.5340;3.0933;
1065.0000;0.5340;3.0885;
1065.3000;0.5332;3.0838;
1065.6000;0.5348;3.0885;
1065.9000;0.5340;3.0838;
1066.2000;0.5332;3.0933;
1066.5000;0.5340;3.0957;
1066.8000;0.5356;3.1052;
1067.1000;0.5332;3.1029;
1067.4000;0.5258;3.0742;
1067.7000;0.5340;3.0957;
1068.0000;0.5348;3.0933;
1068.3000;0.5348;3.0933;
1068.6000;0.5348;3.0957;
1068.9000;0.5348;3.1005;
1069.2000;0.5364;3.0933;
1069.5000;0.5348;3.0885;
1069.8000;0.5340;3.0838;
1070.1000;0.5332;3.0885;
1070.4000;0.5348;3.1029;
1070.7000;0.5356;3.1100;
1071.0000;0.5372;3.1124;
1071.3000;0.5324;3.1005;
1071.6000;0.5340;3.0957;
1071.9000;0.5315;3.0861;
1072.2000;0.5340;3.0838;
1072.5000;0.5340;3.0838;
1072.8000;0.5348;3.0957;
1073.1000;0.5307;3.0861;
1073.4000;0.5356;3.0981;
1073.7000;0.5364;3.0981;
1074.0000;0.5356;3.0981;
1074.3000;0.5348;3.0957;
1074.6000;0.5356;3.0933;
1074.9000;0.5356;3.0909;
1075.2000;0.5332;3.0885;
1075.5000;0.5348;3.0861;
1075.8000;0.5348;3.0861;
1076.1000;0.5340;3.0909;
1076.4000;0.5332;3.0933;
1076.7000;0.5324;3.1005;
1077.0000;0.5340;3.1029;
1077.3000;0.5332;3.1076;
1077.6000;0.5340;3.1124;
1077.9000;0.5324;3.1052;
1078.2000;0.5315;3.1029;
1078.5000;0.5364;3.1052;
1078.8000;0.5356;3.1076;
1079.1000;0.5356;3.1005;
1079.4000;0.5340;3.0981;
1079.7000;0.5421;3.1243;
1080.0000;0.5381;3.1052;
1080.3000;0.5397;3.1052;
1080.6000;0.5299;3.0742;
1080.9000;0.5372;3.0885;
1081.2000;0.5324;3.0814;
1081.5000;0.5381;3.0885;
1081.8000;0.5356;3.0814;
1082.1000;0.5356;3.0861;
1082.4000;0.5340;3.0790;
1082.7000;0.5324;3.0766;
1083.0000;0.5389;3.1052;
1083.3000;0.5283;3.0861;
1083.6000;0.5356;3.1029;
1083.9000;0.5348;3.0909;
1084.2000;0.5381;3.0957;
1084.5000;0.5429;3.1052;
1084.8000;0.5356;3.0933;
1085.1000;0.5340;3.0957;
1085.4000;0.5340;3.0885;
1085.7000;0.5340;3.0957;
1086.0000;0.5291;3.0814;
1086.3000;0.5299;3.0861;
1086.6000;0.5324;3.0957;
1086.9000;0.5324;3.0814;
1087.2000;0.5340;3.0885;
1087.5000;0.5324;3.0885;
1087.8000;0.5324;3.0957;
1088.1000;0.5315;3.0957;
1088.4000;0.5340;3.0933;
1088.7000;0.5348;3.1052;
1089.0000;0.5356;3.1172;
1089.3000;0.5332;3.1100;
1089.6000;0.5348;3.1029;
1089.9000;0.5364;3.1052;
1090.2000;0.5340;3.0909;
1090.5000;0.5348;3.0981;
1090.8000;0.5356;3.0933;
1091.1000;0.5364;3.0981;
1091.4000;0.5315;3.0861;
1091.7000;0.5340;3.0933;
1092.0000;0.5356;3.0933;
1092.3000;0.5340;3.0933;
1092.6000;0.5340;3.0981;
1092.9000;0.5348;3.0933;
1093.2000;0.5332;3.1005;
1093.5000;0.5372;3.1148;
1093.8000;0.5307;3.0933;
1094.1000;0.5340;3.1076;
1094.4000;0.5332;3.0981;
1094.7000;0.5315;3.0885;
1095.0000;0.5275;3.0766;
1095.3000;0.5332;3.0957;
1095.6000;0.5324;3.0933;
1095.9000;0.5324;3.0933;
1096.2000;0.5381;3.1124;
1096.5000;0.5332;3.0957;
1096.8000;0.5340;3.0885;
1097.1000;0.5372;3.0933;
1097.4000;0.5348;3.0909;
1097.7000;0.5324;3.0909;
1098.0000;0.5307;3.0909;
1098.3000;0.5340;3.0981;
1098.6000;0.5340;3.0909;
1098.9000;0.5324;3.0933;
1099.2000;0.5332;3.0838;
1099.5000;0.5389;3.1100;
1099.8000;0.5299;3.0933;
1100.1000;0.5356;3.1029;
1100.4000;0.5364;3.0981;
1100.7000;0.5340;3.0861;
1101.0000;0.5340;3.0790;
1101.3000;0.5324;3.0718;
1101.6000;0.5340;3.0790;
1101.9000;0.5348;3.0814;
1102.2000;0.5356;3.0861;
1102.5000;0.5348;3.0766;
1102.8000;0.5348;3.0838;
1103.1000;0.5340;3.0814;
1103.4000;0.5299;3.0742;
1103.7000;0.5307;3.0718;
1104.0000;0.5283;3.0623;
1104.3000;0.5340;3.0718;
1104.6000;0.5372;3.0790;
1104.9000;0.5372;3.0766;
1105.2000;0.5348;3.0647;
1105.5000;0.5397;3.0742;
1105.8000;0.5332;3.0694;
1106.1000;0.5307;3.0623;
1106.4000;0.5348;3.0718;
1106.7000;0.5348;3.0742;
1107.0000;0.5315;3.0694;
1107.3000;0.5340;3.0742;
1107.6000;0.5332;3.0742;
1107.9000;0.5348;3.0814;
1108.2000;0.5340;3.0885;
1108.5000;0.5340;3.0909;
1108.8000;0.5340;3.0909;
1109.1000;0.5340;3.0981;
1109.4000;0.5315;3.0909;
1109.7000;0.5332;3.0957;
1110.0000;0.5324;3.0909;
1110.3000;0.5332;3.0838;
1110.6000;0.5324;3.0718;
1110.9000;0.5315;3.0671;
1111.2000;0.5332;3.0647;
1111.5000;0.5340;3.0742;
1111.8000;0.5356;3.0742;
1112.1000;0.5332;3.0718;
1112.4000;0.5405;3.0814;
1112.7000;0.5340;3.0718;
1113.0000;0.5340;3.0766;
1113.3000;0.5348;3.0694;
1113.6000;0.5340;3.0718;
1113.9000;0.5364;3.0742;
1114.2000;0.5324;3.0742;
1114.5000;0.5324;3.0814;
1114.8000;0.5315;3.0742;
1115.1000;0.5348;3.0838;
1115.4000;0.5348;3.0814;
1115.7000;0.5332;3.0814;
1116.0000;0.5324;3.0838;
1116.3000;0.5324;3.0933;
1116.6000;0.5340;3.1005;
1116.9000;0.5348;3.1029;
1117.2000;0.5356;3.1052;
1117.5000;0.5364;3.1029;
1117.8000;0.5315;3.0861;
1118.1000;0.5332;3.0790;
1118.4000;0.5348;3.0814;
1118.7000;0.5324;3.0790;
1119.0000;0.5340;3.0790;
1119.3000;0.5340;3.0790;
1119.6000;0.5332;3.0790;
1119.9000;0.5332;3.0742;
1120.2000;0.5348;3.0861;
1120.5000;0.5429;3.1005;
1120.8000;0.5340;3.0838;
1121.1000;0.5258;3.0599;
1121.4000;0.5340;3.0694;
1121.7000;0.5340;3.0623;
1122.0000;0.5340;3.0599;
1122.3000;0.5324;3.0503;
1122.6000;0.5340;3.0527;
1122.9000;0.5315;3.0599;
1123.2000;0.5324;3.0623;
1123.5000;0.5340;3.0623;
1123.8000;0.5364;3.0718;
1124.1000;0.5332;3.0599;
1124.4000;0.5348;3.0575;
1124.7000;0.5340;3.0623;
1125.0000;0.5372;3.0599;
1125.3000;0.5324;3.0456;
1125.6000;0.5340;3.0527;
1125.9000;0.5315;3.0551;
1126.2000;0.5381;3.0647;
1126.5000;0.5332;3.0599;
1126.8000;0.5324;3.0575;
1127.1000;0.5340;3.0766;
1127.4000;0.5340;3.0861;
1127.7000;0.5340;3.0838;
1128.0000;0.5381;3.0981;
1128.3000;0.5340;3.0838;
1128.6000;0.5332;3.0885;
1128.9000;0.5332;3.0909;
1129.2000;0.5381;3.0957;
1129.5000;0.5340;3.0814;
1129.8000;0.5332;3.0766;
1130.1000;0.5332;3.0790;
1130.4000;0.5340;3.0742;
1130.7000;0.5315;3.0671;
1131.0000;0.5307;3.0551;
1131.3000;0.5348;3.0623;
1131.6000;0.5324;3.0599;
1131.9000;0.5307;3.0480;
1132.2000;0.5324;3.0551;
1132.5000;0.5381;3.0790;
1132.8000;0.5324;3.0766;
1133.1000;0.5356;3.0933;
1133.4000;0.5340;3.1005;
1133.7000;0.5315;3.0885;
1134.0000;0.5332;3.0814;
1134.3000;0.5340;3.0790;
1134.6000;0.5340;3.0861;
1134.9000;0.5332;3.0885;
1135.2000;0.5324;3.0957;
1135.5000;0.5324;3.0909;
1135.8000;0.5307;3.0766;
1136.1000;0.5324;3.0694;
1136.4000;0.5324;3.0694;
1136.7000;0.5332;3.0838;
1137.0000;0.5340;3.0790;
1137.3000;0.5324;3.0599;
1137.6000;0.5324;3.0527;
1137.9000;0.5307;3.0527;
1138.2000;0.5372;3.0718;
1138.5000;0.5332;3.0623;
1138.8000;0.5324;3.0742;
1139.1000;0.5315;3.0742;
1139.4000;0.5315;3.0814;
1139.7000;0.5332;3.0814;
1140.0000;0.5340;3.0861;
1140.3000;0.5348;3.0909;
1140.6000;0.5340;3.0933;
1140.9000;0.5332;3.0838;
1141.2000;0.5332;3.0790;
1141.5000;0.5332;3.0671;
1141.8000;0.5340;3.0599;
1142.1000;0.5324;3.0694;
1142.4000;0.5332;3.0623;
1142.7000;0.5340;3.0647;
1143.0000;0.5372;3.0766;
1143.3000;0.5340;3.0718;
1143.6000;0.5340;3.0599;
1143.9000;0.5356;3.0599;
1144.2000;0.5356;3.0623;
1144.5000;0.5389;3.0766;
1144.8000;0.5356;3.0718;
1145.1000;0.5340;3.0647;
1145.4000;0.5356;3.0647;
1145.7000;0.5283;3.0480;
1146.0000;0.5332;3.0623;
1146.3000;0.5324;3.0647;
1146.6000;0.5324;3.0647;
1146.9000;0.5421;3.0861;
1147.2000;0.5324;3.0718;
1147.5000;0.5340;3.0671;
1147.8000;0.5364;3.0718;
1148.1000;0.5332;3.0718;
1148.4000;0.5348;3.0790;
1148.7000;0.5348;3.0790;
1149.0000;0.5340;3.0838;
1149.3000;0.5340;3.0838;
1149.6000;0.5356;3.0861;
1149.9000;0.5332;3.0766;
1150.2000;0.5315;3.0766;
1150.5000;0.5372;3.0838;
1150.8000;0.5324;3.0718;
1151.1000;0.5340;3.0718;
1151.4000;0.5315;3.0623;
1151.7000;0.5332;3.0647;
1152.0000;0.5332;3.0718;
1152.3000;0.5364;3.0861;
1152.6000;0.5324;3.0790;
1152.9000;0.5324;3.0814;
1153.2000;0.5315;3.0814;
1153.5000;0.5340;3.0838;
1153.8000;0.5332;3.0766;
1154.1000;0.5324;3.0766;
1154.4000;0.5315;3.0790;
1154.7000;0.5332;3.0838;
1155.0000;0.5324;3.0861;
1155.3000;0.5324;3.0838;
1155.6000;0.5340;3.0909;
1155.9000;0.5340;3.0981;
1156.2000;0.5348;3.1005;
1156.5000;0.5348;3.0957;
1156.8000;0.5348;3.0981;
1157.1000;0.5340;3.0981;
1157.4000;0.5299;3.0909;
1157.7000;0.5348;3.1005;
1158.0000;0.5348;3.0933;
1158.3000;0.5356;3.0981;
1158.6000;0.5332;3.0981;
1158.9000;0.5364;3.0981;
1159.2000;0.5283;3.0718;
1159.5000;0.5332;3.0933;
1159.8000;0.5324;3.0933;
1160.1000;0.5332;3.0909;
1160.4000;0.5340;3.0957;
1160.7000;0.5283;3.0790;
1161.0000;0.5315;3.0861;
1161.3000;0.5275;3.0814;
1161.6000;0.5332;3.0885;
1161.9000;0.5307;3.0790;
1162.2000;0.5389;3.0981;
1162.5000;0.5332;3.0838;
1162.8000;0.5324;3.0766;
1163.1000;0.5340;3.0814;
1163.4000;0.5324;3.0814;
1163.7000;0.5340;3.0838;
1164.0000;0.5340;3.0814;
1164.3000;0.5315;3.0766;
1164.6000;0.5340;3.0838;
1164.9000;0.5340;3.0742;
1165.2000;0.5340;3.0766;
1165.5000;0.5340;3.0742;
1165.8000;0.5332;3.0742;
1166.1000;0.5324;3.0742;
1166.4000;0.5332;3.0671;
1166.7000;0.5332;3.0694;
1167.0000;0.5291;3.0694;
1167.3000;0.5332;3.0766;
1167.6000;0.5332;3.0766;
1167.9000;0.5332;3.0838;
1168.2000;0.5315;3.0885;
1168.5000;0.5340;3.1005;
1168.8000;0.5324;3.0909;
1169.1000;0.5340;3.0981;
1169.4000;0.5332;3.0981;
1169.7000;0.5332;3.1029;
1170.0000;0.5340;3.1052;
1170.3000;0.5372;3.1029;
1170.6000;0.5315;3.0885;
1170.9000;0.5324;3.0885;
1171.2000;0.5348;3.0885;
1171.5000;0.5348;3.0861;
1171.8000;0.5332;3.0909;
1172.1000;0.5324;3.0790;
1172.4000;0.5307;3.0694;
1172.7000;0.5299;3.0694;
1173.0000;0.5340;3.0766;
1173.3000;0.5324;3.0814;
1173.6000;0.5348;3.0838;
1173.9000;0.5324;3.0909;
1174.2000;0.5324;3.0861;
1174.5000;0.5291;3.0814;
1174.8000;0.5315;3.0957;
1175.1000;0.5332;3.1005;
1175.4000;0.5324;3.0933;
1175.7000;0.5324;3.0838;
1176.0000;0.5250;3.0671;
1176.3000;0.5324;3.0838;
1176.6000;0.5307;3.0766;
1176.9000;0.5389;3.0790;
1177.2000;0.5307;3.0623;
1177.5000;0.5324;3.0718;
1177.8000;0.5324;3.0742;
1178.1000;0.5340;3.0814;
1178.4000;0.5324;3.0790;
1178.7000;0.5332;3.0814;
1179.0000;0.5332;3.0838;
1179.3000;0.5356;3.0885;
1179.6000;0.5324;3.0742;
1179.9000;0.5291;3.0575;
1180.2000;0.5372;3.0694;
1180.5000;0.5340;3.0647;
1180.8000;0.5307;3.0527;
1181.1000;0.5340;3.0623;
1181.4000;0.5348;3.0647;
1181.7000;0.5356;3.0742;
1182.0000;0.5348;3.0694;
1182.3000;0.5324;3.0671;
1182.6000;0.5324;3.0647;
1182.9000;0.5324;3.0694;
1183.2000;0.5307;3.0623;
1183.5000;0.5315;3.0671;
1183.8000;0.5340;3.0694;
1184.1000;0.5356;3.0790;
1184.4000;0.5332;3.0814;
1184.7000;0.5340;3.0909;
1185.0000;0.5340;3.0885;
1185.3000;0.5381;3.0909;
1185.6000;0.5324;3.0766;
1185.9000;0.5340;3.0742;
1186.2000;0.5340;3.0766;
1186.5000;0.5356;3.0742;
1186.8000;0.5315;3.0623;
1187.1000;0.5307;3.0599;
1187.4000;0.5340;3.0647;
1187.7000;0.5332;3.0599;
1188.0000;0.5324;3.0694;
1188.3000;0.5299;3.0694;
1188.6000;0.5315;3.0718;
1188.9000;0.5299;3.0671;
1189.2000;0.5299;3.0671;
1189.5000;0.5307;3.0790;
1189.8000;0.5364;3.0981;
1190.1000;0.5299;3.0861;
1190.4000;0.5315;3.0933;
1190.7000;0.5324;3.0957;
1191.0000;0.5307;3.0885;
1191.3000;0.5372;3.1029;
1191.6000;0.5348;3.0861;
1191.9000;0.5332;3.0742;
1192.2000;0.5315;3.0814;
1192.5000;0.5340;3.0909;
1192.8000;0.5356;3.0981;
1193.1000;0.5340;3.0814;
1193.4000;0.5324;3.0790;
1193.7000;0.5332;3.0790;
1194.0000;0.5307;3.0790;
1194.3000;0.5299;3.0838;
1194.6000;0.5315;3.0838;
1194.9000;0.5356;3.0933;
1195.2000;0.5324;3.0838;
1195.5000;0.5364;3.0933;
1195.8000;0.5340;3.0838;
1196.1000;0.5340;3.0790;
1196.4000;0.5283;3.0551;
1196.7000;0.5332;3.0599;
1197.0000;0.5364;3.0694;
1197.3000;0.5405;3.0933;
1197.6000;0.5340;3.0814;
1197.9000;0.5340;3.0838;
1198.2000;0.5307;3.0814;
1198.5000;0.5340;3.0838;
1198.8000;0.5324;3.0766;
1199.1000;0.5381;3.0885;
1199.4000;0.5332;3.0742;
1199.7000;0.5332;3.0742;
1200.0000;0.5291;3.0647;
1200.3000;0.5283;3.0694;
1200.6000;0.5324;3.0933;
1200.9000;0.5332;3.0885;
1201.2000;0.5364;3.1005;
1201.5000;0.5307;3.0933;
1201.8000;0.5332;3.0981;
1202.1000;0.5275;3.0933;
1202.4000;0.5324;3.1052;
1202.7000;0.5315;3.0885;
1203.0000;0.5340;3.0933;
1203.3000;0.5307;3.0957;
1203.6000;0.5340;3.1029;
1203.9000;0.5332;3.0981;
1204.2000;0.5381;3.1076;
1204.5000;0.5340;3.0933;
1204.8000;0.5324;3.0981;
1205.1000;0.5332;3.0981;
1205.4000;0.5332;3.0909;
1205.7000;0.5421;3.1100;
1206.0000;0.5324;3.0981;
1206.3000;0.5340;3.1029;
1206.6000;0.5315;3.1029;
1206.9000;0.5332;3.1124;
1207.2000;0.5340;3.1076;
1207.5000;0.5324;3.0957;
1207.8000;0.5332;3.1029;
1208.1000;0.5348;3.1076;
1208.4000;0.5307;3.0981;
1208.7000;0.5307;3.0933;
1209.0000;0.5324;3.0957;
1209.3000;0.5315;3.0885;
1209.6000;0.5315;3.0861;
1209.9000;0.5348;3.0957;
1210.2000;0.5332;3.0838;
1210.5000;0.5324;3.0838;
1210.8000;0.5332;3.0957;
1211.1000;0.5332;3.0933;
1211.4000;0.5348;3.0885;
1211.7000;0.5307;3.0814;
1212.0000;0.5275;3.0814;
1212.3000;0.5340;3.0909;
1212.6000;0.5315;3.0909;
1212.9000;0.5364;3.1100;
1213.2000;0.5340;3.1029;
1213.5000;0.5275;3.0909;
1213.8000;0.5348;3.1005;
1214.1000;0.5356;3.0981;
1214.4000;0.5356;3.1029;
1214.7000;0.5340;3.0981;
1215.0000;0.5299;3.0861;
1215.3000;0.5332;3.0861;
1215.6000;0.5340;3.0933;
1215.9000;0.5332;3.0957;
1216.2000;0.5332;3.1076;
1216.5000;0.5332;3.0981;
1216.8000;0.5348;3.1100;
1217.1000;0.5348;3.1100;
1217.4000;0.5340;3.1100;
1217.7000;0.5348;3.1100;
1218.0000;0.5242;3.0742;
1218.3000;0.5307;3.0814;
1218.6000;0.5332;3.0861;
1218.9000;0.5348;3.0861;
1219.2000;0.5348;3.0814;
1219.5000;0.5348;3.0933;
1219.8000;0.5340;3.0933;
1220.1000;0.5307;3.0909;
1220.4000;0.5324;3.0933;
1220.7000;0.5315;3.0885;
1221.0000;0.5332;3.0909;
1221.3000;0.5307;3.0814;
1221.6000;0.5364;3.0861;
1221.9000;0.5421;3.0957;
1222.2000;0.5340;3.0861;
1222.5000;0.5315;3.0766;
1222.8000;0.5332;3.0790;
1223.1000;0.5356;3.0909;
1223.4000;0.5324;3.0909;
1223.7000;0.5348;3.0861;
1224.0000;0.5389;3.0933;
1224.3000;0.5324;3.0766;
1224.6000;0.5364;3.0814;
1224.9000;0.5307;3.0814;
1225.2000;0.5332;3.0790;
1225.5000;0.5372;3.0814;
1225.8000;0.5332;3.0671;
1226.1000;0.5307;3.0623;
1226.4000;0.5315;3.0647;
1226.7000;0.5307;3.0766;
1227.0000;0.5332;3.0885;
1227.3000;0.5340;3.0909;
1227.6000;0.5348;3.0957;
1227.9000;0.5324;3.0861;
1228.2000;0.5364;3.0933;
1228.5000;0.5332;3.0885;
1228.8000;0.5332;3.0933;
1229.1000;0.5340;3.0981;
1229.4000;0.5332;3.0957;
1229.7000;0.5332;3.0981;
1230.0000;0.5340;3.1029;
1230.3000;0.5315;3.0933;
1230.6000;0.5348;3.1052;
1230.9000;0.5348;3.1029;
1231.2000;0.5340;3.0909;
1231.5000;0.5348;3.0909;
1231.8000;0.5340;3.0909;
1232.1000;0.5332;3.0885;
1232.4000;0.5356;3.1100;
1232.7000;0.5348;3.1005;
1233.0000;0.5324;3.1029;
1233.3000;0.5340;3.1029;
1233.6000;0.5340;3.1005;
1233.9000;0.5332;3.1148;
1234.2000;0.5299;3.1005;
1234.5000;0.5340;3.1148;
1234.8000;0.5340;3.1124;
1235.1000;0.5324;3.1052;
1235.4000;0.5299;3.1005;
1235.7000;0.5315;3.1148;
1236.0000;0.5340;3.1267;
1236.3000;0.5324;3.1267;
1236.6000;0.5348;3.1220;
1236.9000;0.5299;3.1100;
1237.2000;0.5332;3.1148;
1237.5000;0.5381;3.1148;
1237.8000;0.5324;3.0909;
1238.1000;0.5307;3.0861;
1238.4000;0.5315;3.0861;
1238.7000;0.5315;3.0885;
1239.0000;0.5315;3.0885;
1239.3000;0.5283;3.0790;
1239.6000;0.5307;3.0838;
1239.9000;0.5421;3.1029;
1240.2000;0.5340;3.0790;
1240.5000;0.5332;3.0694;
1240.8000;0.5348;3.0623;
1241.1000;0.5324;3.0623;
1241.4000;0.5332;3.0694;
1241.7000;0.5299;3.0671;
1242.0000;0.5340;3.0694;
1242.3000;0.5324;3.0694;
1242.6000;0.5324;3.0718;
1242.9000;0.5332;3.0814;
1243.2000;0.5356;3.0885;
1243.5000;0.5356;3.0909;
1243.8000;0.5356;3.0861;
1244.1000;0.5332;3.0814;
1244.4000;0.5340;3.0694;
1244.7000;0.5340;3.0718;
1245.0000;0.5348;3.0838;
1245.3000;0.5315;3.0790;
1245.6000;0.5315;3.0838;
1245.9000;0.5324;3.0838;
1246.2000;0.5324;3.0814;
1246.5000;0.5283;3.0766;
1246.8000;0.5324;3.0909;
1247.1000;0.5307;3.0838;
1247.4000;0.5307;3.0957;
1247.7000;0.5340;3.0909;
1248.0000;0.5324;3.0933;
1248.3000;0.5315;3.0861;
1248.6000;0.5315;3.0909;
1248.9000;0.5324;3.0861;
1249.2000;0.5340;3.0861;
1249.5000;0.5324;3.0838;
1249.8000;0.5389;3.0981;
1250.1000;0.5332;3.0814;
1250.4000;0.5356;3.0933;
1250.7000;0.5307;3.0814;
1251.0000;0.5307;3.0838;
1251.3000;0.5307;3.0861;
1251.6000;0.5307;3.0814;
1251.9000;0.5299;3.0814;
1252.2000;0.5324;3.0885;
1252.5000;0.5324;3.0885;
1252.8000;0.5324;3.0838;
1253.1000;0.5307;3.0766;
1253.4000;0.5332;3.0766;
1253.7000;0.5332;3.0838;
1254.0000;0.5348;3.1005;
1254.3000;0.5299;3.0814;
1254.6000;0.5332;3.0861;
1254.9000;0.5348;3.0933;
1255.2000;0.5324;3.0933;
1255.5000;0.5332;3.0981;
1255.8000;0.5340;3.0838;
1256.1000;0.5315;3.0718;
1256.4000;0.5348;3.0814;
1256.7000;0.5324;3.0766;
1257.0000;0.5340;3.0790;
1257.3000;0.5299;3.0814;
1257.6000;0.5348;3.0885;
1257.9000;0.5332;3.0909;
1258.2000;0.5348;3.0909;
1258.5000;0.5324;3.0838;
1258.8000;0.5340;3.0861;
1259.1000;0.5324;3.0838;
1259.4000;0.5315;3.0838;
1259.7000;0.5315;3.0838;
1260.0000;0.5324;3.0814;
1260.3000;0.5332;3.0790;
1260.6000;0.5324;3.0742;
1260.9000;0.5372;3.0885;
1261.2000;0.5340;3.0718;
1261.5000;0.5372;3.0909;
1261.8000;0.5340;3.0861;
1262.1000;0.5324;3.0885;
1262.4000;0.5307;3.0861;
1262.7000;0.5324;3.0838;
1263.0000;0.5348;3.0885;
1263.3000;0.5324;3.0861;
1263.6000;0.5340;3.0838;
1263.9000;0.5340;3.0814;
1264.2000;0.5348;3.0790;
1264.5000;0.5348;3.0814;
1264.8000;0.5340;3.0885;
1265.1000;0.5332;3.0957;
1265.4000;0.5356;3.0885;
1265.7000;0.5356;3.0861;
1266.0000;0.5332;3.0861;
1266.3000;0.5324;3.0885;
1266.6000;0.5332;3.0861;
1266.9000;0.5348;3.0885;
1267.2000;0.5315;3.0838;
1267.5000;0.5332;3.0957;
1267.8000;0.5332;3.0957;
1268.1000;0.5299;3.0838;
1268.4000;0.5315;3.0981;
1268.7000;0.5332;3.0981;
1269.0000;0.5340;3.0933;
1269.3000;0.5275;3.0694;
1269.6000;0.5332;3.0742;
1269.9000;0.5381;3.0909;
1270.2000;0.5413;3.1029;
1270.5000;0.5283;3.0623;
1270.8000;0.5332;3.0718;
1271.1000;0.5324;3.0814;
1271.4000;0.5315;3.0861;
1271.7000;0.5299;3.0814;
1272.0000;0.5324;3.0909;
1272.3000;0.5340;3.0885;
1272.6000;0.5324;3.0909;
1272.9000;0.5324;3.0861;
1273.2000;0.5324;3.0861;
1273.5000;0.5299;3.0838;
1273.8000;0.5340;3.0957;
1274.1000;0.5340;3.0957;
1274.4000;0.5307;3.0981;
1274.7000;0.5332;3.1005;
1275.0000;0.5332;3.0909;
1275.3000;0.5340;3.0790;
1275.6000;0.5332;3.0766;
1275.9000;0.5307;3.0742;
1276.2000;0.5324;3.0647;
1276.5000;0.5324;3.0647;
1276.8000;0.5324;3.0647;
1277.1000;0.5340;3.0790;
1277.4000;0.5332;3.0814;
1277.7000;0.5315;3.0814;
1278.0000;0.5340;3.0838;
1278.3000;0.5315;3.0885;
1278.6000;0.5324;3.0885;
1278.9000;0.5315;3.0790;
1279.2000;0.5340;3.0838;
1279.5000;0.5332;3.0814;
1279.8000;0.5315;3.0838;
1280.1000;0.5332;3.0814;
1280.4000;0.5332;3.0814;
1280.7000;0.5356;3.0790;
1281.0000;0.5340;3.0790;
1281.3000;0.5307;3.0838;
1281.6000;0.5315;3.0861;
1281.9000;0.5356;3.0909;
1282.2000;0.5348;3.0838;
1282.5000;0.5307;3.0790;
1282.8000;0.5324;3.0909;
1283.1000;0.5315;3.0909;
1283.4000;0.5324;3.0885;
1283.7000;0.5258;3.0742;
1284.0000;0.5324;3.0790;
1284.3000;0.5315;3.0790;
1284.6000;0.5332;3.0814;
1284.9000;0.5332;3.0861;
1285.2000;0.5307;3.0766;
1285.5000;0.5324;3.0814;
1285.8000;0.5340;3.0885;
1286.1000;0.5340;3.0814;
1286.4000;0.5258;3.0647;
1286.7000;0.5340;3.0861;
1287.0000;0.5299;3.0790;
1287.3000;0.5332;3.0790;
1287.6000;0.5307;3.0742;
1287.9000;0.5332;3.0790;
1288.2000;0.5324;3.0694;
1288.5000;0.5324;3.0742;
1288.8000;0.5332;3.0838;
1289.1000;0.5299;3.0742;
1289.4000;0.5348;3.0861;
1289.7000;0.5307;3.0861;
1290.0000;0.5307;3.0838;
1290.3000;0.5315;3.0790;
1290.6000;0.5315;3.0814;
1290.9000;0.5324;3.0790;
1291.2000;0.5348;3.0885;
1291.5000;0.5283;3.0742;
1291.8000;0.5315;3.0742;
1292.1000;0.5283;3.0694;
1292.4000;0.5332;3.0766;
1292.7000;0.5324;3.0861;
1293.0000;0.5364;3.0909;
1293.3000;0.5324;3.0766;
1293.6000;0.5242;3.0647;
1293.9000;0.5258;3.0718;
1294.2000;0.5356;3.0933;
1294.5000;0.5307;3.0838;
1294.8000;0.5291;3.0814;
1295.1000;0.5340;3.0933;
1295.4000;0.5332;3.0861;
1295.7000;0.5348;3.0933;
1296.0000;0.5340;3.0957;
1296.3000;0.5332;3.0838;
1296.6000;0.5356;3.0981;
1296.9000;0.5348;3.0957;
1297.2000;0.5315;3.0838;
1297.5000;0.5275;3.0766;
1297.8000;0.5315;3.0766;
1298.1000;0.5307;3.0671;
1298.4000;0.5324;3.0790;
1298.7000;0.5324;3.0909;
1299.0000;0.5315;3.0885;
1299.3000;0.5356;3.0909;
1299.6000;0.5340;3.0933;
1299.9000;0.5348;3.0981;
1300.2000;0.5332;3.0981;
1300.5000;0.5332;3.1052;
1300.8000;0.5315;3.0933;
1301.1000;0.5332;3.0933;
1301.4000;0.5324;3.0861;
1301.7000;0.5315;3.0885;
1302.0000;0.5324;3.0909;
1302.3000;0.5315;3.0885;
1302.6000;0.5324;3.0909;
1302.9000;0.5291;3.0838;
1303.2000;0.5315;3.0790;
1303.5000;0.5315;3.0790;
1303.8000;0.5324;3.0838;
1304.1000;0.5324;3.0790;
1304.4000;0.5324;3.0814;
1304.7000;0.5324;3.0909;
1305.0000;0.5315;3.0861;
1305.3000;0.5332;3.0790;
1305.6000;0.5307;3.0742;
1305.9000;0.5315;3.0790;
1306.2000;0.5315;3.0742;
1306.5000;0.5315;3.0575;
1306.8000;0.5291;3.0527;
1307.1000;0.5332;3.0742;
1307.4000;0.5291;3.0718;
1307.7000;0.5315;3.0814;
1308.0000;0.5307;3.0718;
1308.3000;0.5315;3.0742;
1308.6000;0.5332;3.0766;
1308.9000;0.5348;3.0861;
1309.2000;0.5307;3.0742;
1309.5000;0.5324;3.0814;
1309.8000;0.5389;3.1076;
1310.1000;0.5332;3.0957;
1310.4000;0.5340;3.0838;
1310.7000;0.5315;3.0814;
1311.0000;0.5340;3.0861;
1311.3000;0.5348;3.0885;
1311.6000;0.5324;3.0861;
1311.9000;0.5340;3.0933;
1312.2000;0.5332;3.0885;
1312.5000;0.5315;3.0861;
1312.8000;0.5332;3.0933;
1313.1000;0.5275;3.0766;
1313.4000;0.5291;3.0766;
1313.7000;0.5332;3.0909;
1314.0000;0.5332;3.0909;
1314.3000;0.5332;3.0909;
1314.6000;0.5315;3.0909;
1314.9000;0.5372;3.1005;
1315.2000;0.5332;3.0861;
1315.5000;0.5315;3.0861;
1315.8000;0.5324;3.0909;
1316.1000;0.5218;3.0742;
1316.4000;0.5283;3.0885;
1316.7000;0.5324;3.0981;
1317.0000;0.5258;3.0814;
1317.3000;0.5315;3.0957;
1317.6000;0.5307;3.0981;
1317.9000;0.5307;3.0933;
1318.2000;0.5332;3.0981;
1318.5000;0.5332;3.0981;
1318.8000;0.5340;3.0885;
1319.1000;0.5307;3.0814;
1319.4000;0.5332;3.0909;
1319.7000;0.5340;3.0838;
1320.0000;0.5340;3.0838;
1320.3000;0.5332;3.0861;
1320.6000;0.5348;3.0861;
1320.9000;0.5340;3.0718;
1321.2000;0.5332;3.0647;
1321.5000;0.5332;3.0766;
1321.8000;0.5324;3.0790;
1322.1000;0.5348;3.0814;
1322.4000;0.5332;3.0766;
1322.7000;0.5324;3.0718;
1323.0000;0.5348;3.0766;
1323.3000;0.5324;3.0742;
1323.6000;0.5324;3.0838;
1323.9000;0.5372;3.1005;
1324.2000;0.5356;3.1029;
1324.5000;0.5324;3.0885;
1324.8000;0.5332;3.0933;
1325.1000;0.5348;3.0909;
1325.4000;0.5429;3.1148;
1325.7000;0.5381;3.0981;
1326.0000;0.5348;3.0933;
1326.3000;0.5413;3.0981;
1326.6000;0.5348;3.0766;
1326.9000;0.5307;3.0647;
1327.2000;0.5332;3.0671;
1327.5000;0.5315;3.0647;
1327.8000;0.5324;3.0671;
1328.1000;0.5348;3.0694;
1328.4000;0.5364;3.0766;
1328.7000;0.5340;3.0766;
1329.0000;0.5397;3.0861;
1329.3000;0.5405;3.0933;
1329.6000;0.5340;3.0814;
1329.9000;0.5307;3.0814;
1330.2000;0.5372;3.0885;
1330.5000;0.5315;3.0838;
1330.8000;0.5324;3.0909;
1331.1000;0.5332;3.0861;
1331.4000;0.5340;3.0885;
1331.7000;0.5324;3.0861;
1332.0000;0.5324;3.0909;
1332.3000;0.5307;3.0861;
1332.6000;0.5315;3.0766;
1332.9000;0.5340;3.0838;
1333.2000;0.5332;3.0838;
1333.5000;0.5372;3.0885;
1333.8000;0.5315;3.0718;
1334.1000;0.5299;3.0694;
1334.4000;0.5315;3.0671;
1334.7000;0.5315;3.0647;
1335.0000;0.5340;3.0694;
1335.3000;0.5332;3.0742;
1335.6000;0.5340;3.0838;
1335.9000;0.5291;3.0647;
1336.2000;0.5291;3.0671;
1336.5000;0.5307;3.0575;
1336.8000;0.5307;3.0551;
1337.1000;0.5307;3.0647;
1337.4000;0.5307;3.0694;
1337.7000;0.5324;3.0814;
1338.0000;0.5315;3.0838;
1338.3000;0.5340;3.0861;
1338.6000;0.5324;3.0814;
1338.9000;0.5348;3.0814;
1339.2000;0.5332;3.0742;
1339.5000;0.5324;3.0766;
1339.8000;0.5332;3.0766;
1340.1000;0.5332;3.0766;
1340.4000;0.5340;3.0718;
1340.7000;0.5340;3.0766;
1341.0000;0.5332;3.0671;
1341.3000;0.5307;3.0671;
1341.6000;0.5324;3.0766;
1341.9000;0.5332;3.0718;
1342.2000;0.5324;3.0718;
1342.5000;0.5324;3.0647;
1342.8000;0.5332;3.0671;
1343.1000;0.5307;3.0647;
1343.4000;0.5340;3.0647;
1343.7000;0.5315;3.0647;
1344.0000;0.5332;3.0671;
1344.3000;0.5315;3.0623;
1344.6000;0.5315;3.0647;
1344.9000;0.5324;3.0671;
1345.2000;0.5364;3.0647;
1345.5000;0.5332;3.0456;
1345.8000;0.5315;3.0408;
1346.1000;0.5315;3.0480;
1346.4000;0.5324;3.0480;
1346.7000;0.5332;3.0575;
1347.0000;0.5324;3.0503;
1347.3000;0.5307;3.0336;
1347.6000;0.5315;3.0408;
1347.9000;0.5340;3.0551;
1348.2000;0.5348;3.0503;
1348.5000;0.5372;3.0503;
1348.8000;0.5332;3.0503;
1349.1000;0.5299;3.0456;
1349.4000;0.5315;3.0527;
1349.7000;0.5315;3.0551;
1350.0000;0.5315;3.0503;
1350.3000;0.5324;3.0647;
1350.6000;0.5315;3.0599;
1350.9000;0.5340;3.0599;
1351.2000;0.5291;3.0551;
1351.5000;0.5275;3.0599;
1351.8000;0.5324;3.0671;
1352.1000;0.5348;3.0766;
1352.4000;0.5275;3.0647;
1352.7000;0.5315;3.0647;
1353.0000;0.5299;3.0647;
1353.3000;0.5307;3.0623;
1353.6000;0.5315;3.0527;
1353.9000;0.5315;3.0503;
1354.2000;0.5324;3.0551;
1354.5000;0.5332;3.0551;
1354.8000;0.5324;3.0527;
1355.1000;0.5332;3.0456;
1355.4000;0.5242;3.0360;
1355.7000;0.5307;3.0551;
1356.0000;0.5291;3.0527;
1356.3000;0.5348;3.0718;
1356.6000;0.5324;3.0551;
1356.9000;0.5332;3.0551;
1357.2000;0.5332;3.0551;
1357.5000;0.5332;3.0599;
1357.8000;0.5332;3.0599;
1358.1000;0.5267;3.0551;
1358.4000;0.5307;3.0718;
1358.7000;0.5315;3.0766;
1359.0000;0.5315;3.0790;
1359.3000;0.5340;3.0861;
1359.6000;0.5348;3.0861;
1359.9000;0.5340;3.0790;
1360.2000;0.5291;3.0647;
1360.5000;0.5307;3.0718;
1360.8000;0.5332;3.0671;
1361.1000;0.5324;3.0671;
1361.4000;0.5324;3.0599;
1361.7000;0.5340;3.0647;
1362.0000;0.5315;3.0647;
1362.3000;0.5324;3.0599;
1362.6000;0.5324;3.0694;
1362.9000;0.5315;3.0671;
1363.2000;0.5332;3.0790;
1363.5000;0.5324;3.0742;
1363.8000;0.5332;3.0861;
1364.1000;0.5315;3.0814;
1364.4000;0.5348;3.0838;
1364.7000;0.5340;3.0694;
1365.0000;0.5315;3.0575;
1365.3000;0.5324;3.0503;
1365.6000;0.5315;3.0480;
1365.9000;0.5324;3.0551;
1366.2000;0.5332;3.0599;
1366.5000;0.5315;3.0599;
1366.8000;0.5324;3.0647;
1367.1000;0.5324;3.0671;
1367.4000;0.5324;3.0671;
1367.7000;0.5315;3.0599;
1368.0000;0.5315;3.0694;
1368.3000;0.5307;3.0599;
1368.6000;0.5332;3.0623;
1368.9000;0.5340;3.0742;
1369.2000;0.5340;3.0790;
1369.5000;0.5324;3.0694;
1369.8000;0.5332;3.0790;
1370.1000;0.5315;3.0766;
1370.4000;0.5307;3.0647;
1370.7000;0.5324;3.0647;
1371.0000;0.5332;3.0694;
1371.3000;0.5397;3.0766;
1371.6000;0.5315;3.0575;
1371.9000;0.5315;3.0575;
1372.2000;0.5348;3.0694;
1372.5000;0.5324;3.0742;
1372.8000;0.5299;3.0742;
1373.1000;0.5315;3.0766;
1373.4000;0.5372;3.0957;
1373.7000;0.5324;3.0742;
1374.0000;0.5315;3.0647;
1374.3000;0.5299;3.0647;
1374.6000;0.5324;3.0742;
1374.9000;0.5332;3.0861;
1375.2000;0.5348;3.0909;
1375.5000;0.5332;3.0814;
1375.8000;0.5332;3.0838;
1376.1000;0.5348;3.0861;
1376.4000;0.5332;3.0742;
1376.7000;0.5315;3.0742;
1377.0000;0.5307;3.0838;
1377.3000;0.5324;3.0814;
1377.6000;0.5315;3.0861;
1377.9000;0.5340;3.0909;
1378.2000;0.5307;3.0790;
1378.5000;0.5332;3.0814;
1378.8000;0.5315;3.0671;
1379.1000;0.5324;3.0623;
1379.4000;0.5324;3.0623;
1379.7000;0.5324;3.0647;
1380.0000;0.5307;3.0480;
1380.3000;0.5315;3.0503;
1380.6000;0.5324;3.0503;
1380.9000;0.5324;3.0527;
1381.2000;0.5332;3.0527;
1381.5000;0.5324;3.0480;
1381.8000;0.5315;3.0503;
1382.1000;0.5299;3.0503;
1382.4000;0.5324;3.0527;
1382.7000;0.5332;3.0575;
1383.0000;0.5332;3.0503;
1383.3000;0.5234;3.0289;
1383.6000;0.5340;3.0527;
1383.9000;0.5332;3.0503;
1384.2000;0.5332;3.0551;
1384.5000;0.5340;3.0671;
1384.8000;0.5340;3.0671;
1385.1000;0.5315;3.0575;
1385.4000;0.5381;3.0718;
1385.7000;0.5315;3.0599;
1386.0000;0.5315;3.0647;
1386.3000;0.5275;3.0408;
1386.6000;0.5348;3.0575;
1386.9000;0.5340;3.0527;
1387.2000;0.5332;3.0503;
1387.5000;0.5332;3.0503;
1387.8000;0.5356;3.0599;
1388.1000;0.5324;3.0503;
1388.4000;0.5324;3.0503;
1388.7000;0.5324;3.0551;
1389.0000;0.5340;3.0575;
1389.3000;0.5324;3.0527;
1389.6000;0.5315;3.0575;
1389.9000;0.5315;3.0671;
1390.2000;0.5340;3.0742;
1390.5000;0.5315;3.0647;
1390.8000;0.5258;3.0575;
1391.1000;0.5348;3.0742;
1391.4000;0.5291;3.0599;
1391.7000;0.5332;3.0742;
1392.0000;0.5332;3.0694;
1392.3000;0.5299;3.0694;
1392.6000;0.5332;3.0885;
1392.9000;0.5332;3.0838;
1393.2000;0.5315;3.0718;
1393.5000;0.5307;3.0694;
1393.8000;0.5348;3.0742;
1394.1000;0.5299;3.0718;
1394.4000;0.5324;3.0694;
1394.7000;0.5324;3.0599;
1395.0000;0.5348;3.0623;
1395.3000;0.5324;3.0575;
1395.6000;0.5324;3.0551;
1395.9000;0.5315;3.0456;
1396.2000;0.5332;3.0480;
1396.5000;0.5348;3.0527;
1396.8000;0.5381;3.0647;
1397.1000;0.5356;3.0647;
1397.4000;0.5291;3.0432;
1397.7000;0.5307;3.0360;
1398.0000;0.5324;3.0336;
1398.3000;0.5381;3.0480;
1398.6000;0.5332;3.0360;
1398.9000;0.5340;3.0336;
1399.2000;0.5340;3.0408;
1399.5000;0.5307;3.0456;
1399.8000;0.5324;3.0575;
