time/ms;Fluo/V;P700 deltaI/I x10³;
-199.8000;0.6048;2.9835;
-199.5000;0.6105;2.9978;
-199.2000;0.6081;2.9859;
-198.9000;0.6056;2.9740;
-198.6000;0.6064;2.9764;
-198.3000;0.6024;2.9644;
-198.0000;0.6072;2.9740;
-197.7000;0.6032;2.9668;
-197.4000;0.6040;2.9668;
-197.1000;0.6048;2.9668;
-196.8000;0.6056;2.9811;
-196.5000;0.6024;2.9764;
-196.2000;0.6056;2.9955;
-195.9000;0.6024;2.9978;
-195.6000;0.6040;3.0122;
-195.3000;0.6064;3.0122;
-195.0000;0.6024;3.0122;
-194.7000;0.6024;3.0193;
-194.4000;0.6032;3.0169;
-194.1000;0.6056;3.0169;
-193.8000;0.6064;3.0145;
-193.5000;0.6056;3.0098;
-193.2000;0.6056;3.0145;
-192.9000;0.6064;3.0169;
-192.6000;0.6072;3.0122;
-192.3000;0.6064;3.0098;
-192.0000;0.6040;3.0050;
-191.7000;0.6064;3.0002;
-191.4000;0.6048;2.9955;
-191.1000;0.6048;2.9978;
-190.8000;0.6056;3.0074;
-190.5000;0.6097;3.0217;
-190.2000;0.6056;3.0074;
-189.9000;0.6024;3.0002;
-189.6000;0.6081;3.0050;
-189.3000;0.6007;2.9859;
-189.0000;0.6032;2.9907;
-188.7000;0.6015;2.9931;
-188.4000;0.6032;3.0002;
-188.1000;0.5999;2.9883;
-187.8000;0.5967;2.9787;
-187.5000;0.6056;2.9931;
-187.2000;0.6056;2.9859;
-186.9000;0.6024;2.9764;
-186.6000;0.6113;3.0026;
-186.3000;0.6064;2.9955;
-186.0000;0.6048;2.9883;
-185.7000;0.6064;2.9931;
-185.4000;0.6040;2.9907;
-185.1000;0.6048;2.9883;
-184.8000;0.6040;2.9835;
-184.5000;0.6032;2.9787;
-184.2000;0.5999;2.9692;
-183.9000;0.6064;2.9811;
-183.6000;0.6040;2.9764;
-183.3000;0.6056;2.9811;
-183.0000;0.6048;2.9859;
-182.7000;0.6040;2.9883;
-182.4000;0.6056;2.9978;
-182.1000;0.6048;3.0002;
-181.8000;0.6056;2.9978;
-181.5000;0.6048;2.9883;
-181.2000;0.6032;2.9883;
-180.9000;0.6048;2.9931;
-180.6000;0.6040;2.9883;
-180.3000;0.6040;2.9931;
-180.0000;0.6040;2.9955;
-179.7000;0.6048;2.9978;
-179.4000;0.6032;2.9978;
-179.1000;0.6048;3.0074;
-178.8000;0.6056;3.0050;
-178.5000;0.6040;3.0074;
-178.2000;0.6048;3.0050;
-177.9000;0.6064;3.0074;
-177.6000;0.6048;3.0074;
-177.3000;0.6056;3.0050;
-177.0000;0.6040;2.9883;
-176.7000;0.6048;2.9955;
-176.4000;0.6032;2.9907;
-176.1000;0.6048;2.9955;
-175.8000;0.6040;2.9978;
-175.5000;0.6032;2.9931;
-175.2000;0.6056;2.9931;
-174.9000;0.6040;2.9978;
-174.6000;0.6015;2.9955;
-174.3000;0.6032;2.9931;
-174.0000;0.6056;3.0002;
-173.7000;0.6048;2.9955;
-173.4000;0.6024;2.9859;
-173.1000;0.6056;3.0002;
-172.8000;0.6032;3.0026;
-172.5000;0.6032;3.0074;
-172.2000;0.6015;3.0050;
-171.9000;0.6024;3.0074;
-171.6000;0.6056;3.0074;
-171.3000;0.6056;3.0026;
-171.0000;0.6081;3.0050;
-170.7000;0.6040;3.0002;
-170.4000;0.6056;3.0026;
-170.1000;0.6048;3.0026;
-169.8000;0.6048;2.9931;
-169.5000;0.6040;2.9859;
-169.2000;0.6032;2.9835;
-168.9000;0.6040;2.9859;
-168.6000;0.6040;2.9835;
-168.3000;0.6048;2.9955;
-168.0000;0.6032;2.9907;
-167.7000;0.6064;3.0050;
-167.4000;0.6064;3.0002;
-167.1000;0.6040;2.9883;
-166.8000;0.6048;2.9859;
-166.5000;0.6048;2.9883;
-166.2000;0.6048;2.9835;
-165.9000;0.6032;2.9859;
-165.6000;0.6048;2.9859;
-165.3000;0.6032;2.9883;
-165.0000;0.6032;2.9835;
-164.7000;0.6032;2.9859;
-164.4000;0.6032;2.9907;
-164.1000;0.6056;2.9883;
-163.8000;0.6048;2.9955;
-163.5000;0.6056;2.9955;
-163.2000;0.6056;3.0002;
-162.9000;0.6015;2.9811;
-162.6000;0.6048;2.9835;
-162.3000;0.6064;2.9931;
-162.0000;0.6040;2.9883;
-161.7000;0.6040;2.9955;
-161.4000;0.6056;3.0002;
-161.1000;0.6064;2.9955;
-160.8000;0.6048;2.9859;
-160.5000;0.6040;2.9787;
-160.2000;0.6024;2.9764;
-159.9000;0.6129;3.0098;
-159.6000;0.6048;2.9978;
-159.3000;0.6032;2.9883;
-159.0000;0.6040;2.9907;
-158.7000;0.6064;3.0050;
-158.4000;0.6048;3.0002;
-158.1000;0.6032;2.9955;
-157.8000;0.6048;2.9978;
-157.5000;0.6032;3.0026;
-157.2000;0.6056;3.0002;
-156.9000;0.6056;2.9931;
-156.6000;0.6056;2.9978;
-156.3000;0.6040;2.9955;
-156.0000;0.6064;2.9955;
-155.7000;0.6032;2.9811;
-155.4000;0.6048;2.9716;
-155.1000;0.6032;2.9740;
-154.8000;0.6048;2.9835;
-154.5000;0.6032;2.9835;
-154.2000;0.6024;2.9859;
-153.9000;0.6040;2.9978;
-153.6000;0.6056;3.0026;
-153.3000;0.6072;3.0074;
-153.0000;0.6032;2.9883;
-152.7000;0.6056;2.9859;
-152.4000;0.6048;2.9907;
-152.1000;0.6040;3.0002;
-151.8000;0.6048;3.0050;
-151.5000;0.6040;3.0050;
-151.2000;0.6040;2.9955;
-150.9000;0.6048;2.9883;
-150.6000;0.6040;2.9811;
-150.3000;0.6056;2.9764;
-150.0000;0.6040;2.9811;
-149.7000;0.6048;2.9835;
-149.4000;0.6024;2.9787;
-149.1000;0.6024;2.9764;
-148.8000;0.6048;2.9859;
-148.5000;0.6048;2.9859;
-148.2000;0.6040;2.9764;
-147.9000;0.6032;2.9716;
-147.6000;0.6048;2.9740;
-147.3000;0.5999;2.9644;
-147.0000;0.6064;2.9859;
-146.7000;0.6040;2.9883;
-146.4000;0.6056;2.9811;
-146.1000;0.6056;2.9835;
-145.8000;0.6040;2.9859;
-145.5000;0.6040;3.0002;
-145.2000;0.6032;2.9978;
-144.9000;0.6048;3.0074;
-144.6000;0.6048;3.0098;
-144.3000;0.6032;3.0074;
-144.0000;0.6032;3.0074;
-143.7000;0.6089;3.0169;
-143.4000;0.6024;3.0002;
-143.1000;0.6040;3.0074;
-142.8000;0.6015;2.9978;
-142.5000;0.6121;3.0169;
-142.2000;0.6056;3.0026;
-141.9000;0.6048;2.9978;
-141.6000;0.6032;2.9931;
-141.3000;0.6048;2.9907;
-141.0000;0.6064;2.9955;
-140.7000;0.6064;2.9978;
-140.4000;0.6072;2.9955;
-140.1000;0.6040;2.9978;
-139.8000;0.6040;2.9907;
-139.5000;0.6121;3.0098;
-139.2000;0.6040;2.9883;
-138.9000;0.6048;2.9883;
-138.6000;0.6040;2.9883;
-138.3000;0.6040;2.9787;
-138.0000;0.6048;2.9740;
-137.7000;0.6048;2.9764;
-137.4000;0.6056;2.9811;
-137.1000;0.6048;2.9883;
-136.8000;0.6048;3.0026;
-136.5000;0.6040;3.0050;
-136.2000;0.6032;3.0074;
-135.9000;0.6040;2.9978;
-135.6000;0.6056;3.0026;
-135.3000;0.6072;2.9978;
-135.0000;0.6056;3.0050;
-134.7000;0.6048;3.0026;
-134.4000;0.6056;3.0074;
-134.1000;0.6040;3.0026;
-133.8000;0.6040;2.9978;
-133.5000;0.6048;2.9931;
-133.2000;0.6064;2.9907;
-132.9000;0.6056;2.9955;
-132.6000;0.6032;2.9907;
-132.3000;0.6064;3.0050;
-132.0000;0.6048;3.0098;
-131.7000;0.6072;3.0074;
-131.4000;0.6048;3.0002;
-131.1000;0.6048;2.9955;
-130.8000;0.6040;2.9978;
-130.5000;0.6064;3.0026;
-130.2000;0.6024;2.9883;
-129.9000;0.6040;2.9883;
-129.6000;0.6048;2.9859;
-129.3000;0.5975;2.9787;
-129.0000;0.6048;2.9907;
-128.7000;0.6024;2.9859;
-128.4000;0.6048;3.0026;
-128.1000;0.6056;3.0122;
-127.8000;0.6032;3.0050;
-127.5000;0.6032;3.0122;
-127.2000;0.6089;3.0193;
-126.9000;0.6064;3.0074;
-126.6000;0.6048;3.0074;
-126.3000;0.6048;3.0050;
-126.0000;0.6032;3.0026;
-125.7000;0.6032;2.9955;
-125.4000;0.6032;3.0026;
-125.1000;0.6040;3.0074;
-124.8000;0.6032;3.0026;
-124.5000;0.6024;3.0002;
-124.2000;0.6056;3.0074;
-123.9000;0.6024;3.0050;
-123.6000;0.6056;2.9931;
-123.3000;0.6048;2.9859;
-123.0000;0.6048;2.9978;
-122.7000;0.6121;3.0217;
-122.4000;0.6032;2.9955;
-122.1000;0.6040;3.0002;
-121.8000;0.6056;3.0122;
-121.5000;0.6007;3.0050;
-121.2000;0.6056;3.0169;
-120.9000;0.6048;3.0098;
-120.6000;0.6056;3.0098;
-120.3000;0.6056;3.0026;
-120.0000;0.6072;3.0169;
-119.7000;0.5975;2.9931;
-119.4000;0.6024;3.0122;
-119.1000;0.6089;3.0193;
-118.8000;0.6048;3.0145;
-118.5000;0.6040;3.0169;
-118.2000;0.6048;3.0241;
-117.9000;0.6056;3.0169;
-117.6000;0.6048;3.0169;
-117.3000;0.6056;3.0145;
-117.0000;0.6040;3.0074;
-116.7000;0.6048;3.0074;
-116.4000;0.6040;3.0026;
-116.1000;0.6040;2.9955;
-115.8000;0.6056;2.9955;
-115.5000;0.6032;2.9811;
-115.2000;0.6048;2.9907;
-114.9000;0.6024;2.9931;
-114.6000;0.6032;2.9978;
-114.3000;0.6072;3.0074;
-114.0000;0.6040;3.0026;
-113.7000;0.6089;3.0169;
-113.4000;0.6015;2.9955;
-113.1000;0.6048;3.0026;
-112.8000;0.6048;3.0002;
-112.5000;0.6056;2.9955;
-112.2000;0.6040;2.9931;
-111.9000;0.5983;2.9883;
-111.6000;0.6048;3.0002;
-111.3000;0.6048;2.9955;
-111.0000;0.6048;3.0026;
-110.7000;0.6072;3.0074;
-110.4000;0.6064;3.0122;
-110.1000;0.6048;3.0074;
-109.8000;0.6032;3.0002;
-109.5000;0.6032;2.9955;
-109.2000;0.6032;3.0002;
-108.9000;0.6056;3.0002;
-108.6000;0.6048;2.9978;
-108.3000;0.6072;3.0002;
-108.0000;0.6032;2.9978;
-107.7000;0.6032;2.9955;
-107.4000;0.6048;2.9955;
-107.1000;0.6097;3.0074;
-106.8000;0.5983;2.9859;
-106.5000;0.6024;2.9955;
-106.2000;0.6129;3.0217;
-105.9000;0.6056;3.0050;
-105.6000;0.6040;3.0026;
-105.3000;0.6048;3.0098;
-105.0000;0.6048;3.0098;
-104.7000;0.6048;3.0050;
-104.4000;0.6015;3.0002;
-104.1000;0.6040;2.9955;
-103.8000;0.6056;3.0026;
-103.5000;0.6056;3.0122;
-103.2000;0.6048;3.0122;
-102.9000;0.6064;3.0169;
-102.6000;0.6056;3.0074;
-102.3000;0.6048;3.0050;
-102.0000;0.6040;3.0074;
-101.7000;0.6040;3.0050;
-101.4000;0.6072;3.0074;
-101.1000;0.6048;2.9978;
-100.8000;0.6040;3.0002;
-100.5000;0.6015;3.0026;
-100.2000;0.6064;3.0122;
-99.9000;0.6048;3.0145;
-99.6000;0.6040;3.0145;
-99.3000;0.6032;3.0169;
-99.0000;0.6032;3.0145;
-98.7000;0.6040;3.0193;
-98.4000;0.6024;3.0145;
-98.1000;0.6015;3.0145;
-97.8000;0.6040;3.0169;
-97.5000;0.6040;3.0050;
-97.2000;0.6056;2.9907;
-96.9000;0.6040;2.9716;
-96.6000;0.6015;2.9692;
-96.3000;0.6138;2.9955;
-96.0000;0.6040;2.9787;
-95.7000;0.6040;2.9883;
-95.4000;0.6072;2.9978;
-95.1000;0.6113;3.0074;
-94.8000;0.6056;2.9907;
-94.5000;0.6048;2.9787;
-94.2000;0.6015;2.9764;
-93.9000;0.6048;2.9835;
-93.6000;0.6048;2.9835;
-93.3000;0.6024;2.9740;
-93.0000;0.6024;2.9692;
-92.7000;0.6040;2.9787;
-92.4000;0.6024;2.9668;
-92.1000;0.6032;2.9740;
-91.8000;0.5991;2.9716;
-91.5000;0.6024;2.9764;
-91.2000;0.6040;2.9764;
-90.9000;0.6040;2.9740;
-90.6000;0.6032;2.9787;
-90.3000;0.6089;3.0002;
-90.0000;0.6056;2.9764;
-89.7000;0.6015;2.9692;
-89.4000;0.5942;2.9477;
-89.1000;0.6032;2.9668;
-88.8000;0.6056;2.9644;
-88.5000;0.6072;2.9620;
-88.2000;0.6040;2.9573;
-87.9000;0.6007;2.9549;
-87.6000;0.6040;2.9620;
-87.3000;0.6048;2.9644;
-87.0000;0.6056;2.9644;
-86.7000;0.6056;2.9644;
-86.4000;0.6048;2.9668;
-86.1000;0.6048;2.9692;
-85.8000;0.6040;2.9716;
-85.5000;0.6032;2.9764;
-85.2000;0.6032;2.9811;
-84.9000;0.6015;2.9978;
-84.6000;0.6040;3.0098;
-84.3000;0.6015;3.0098;
-84.0000;0.6081;3.0169;
-83.7000;0.6007;3.0074;
-83.4000;0.6048;3.0098;
-83.1000;0.6007;3.0002;
-82.8000;0.6056;3.0050;
-82.5000;0.6040;3.0074;
-82.2000;0.6081;3.0193;
-81.9000;0.6040;3.0098;
-81.6000;0.6040;3.0169;
-81.3000;0.6015;2.9931;
-81.0000;0.6024;2.9978;
-80.7000;0.6015;3.0002;
-80.4000;0.6040;3.0074;
-80.1000;0.6032;3.0122;
-79.8000;0.6032;3.0169;
-79.5000;0.6024;3.0098;
-79.2000;0.6040;3.0122;
-78.9000;0.6048;3.0145;
-78.6000;0.6048;3.0145;
-78.3000;0.6040;3.0098;
-78.0000;0.6032;3.0098;
-77.7000;0.6056;3.0169;
-77.4000;0.6040;3.0122;
-77.1000;0.6024;3.0026;
-76.8000;0.6032;3.0050;
-76.5000;0.5983;2.9931;
-76.2000;0.6032;2.9955;
-75.9000;0.6048;2.9907;
-75.6000;0.6024;2.9883;
-75.3000;0.6032;2.9978;
-75.0000;0.6032;3.0026;
-74.7000;0.5999;3.0002;
-74.4000;0.6024;3.0169;
-74.1000;0.6048;3.0241;
-73.8000;0.6064;3.0217;
-73.5000;0.6040;3.0122;
-73.2000;0.6064;3.0098;
-72.9000;0.6048;3.0050;
-72.6000;0.6032;2.9978;
-72.3000;0.6040;3.0026;
-72.0000;0.6040;3.0026;
-71.7000;0.6024;2.9859;
-71.4000;0.6032;2.9811;
-71.1000;0.6040;2.9764;
-70.8000;0.6081;2.9907;
-70.5000;0.6032;2.9716;
-70.2000;0.6048;2.9764;
-69.9000;0.6032;2.9764;
-69.6000;0.6040;2.9787;
-69.3000;0.6064;2.9811;
-69.0000;0.6032;2.9764;
-68.7000;0.5934;2.9477;
-68.4000;0.6032;2.9835;
-68.1000;0.6032;2.9811;
-67.8000;0.6040;2.9764;
-67.5000;0.6048;2.9859;
-67.2000;0.6056;2.9978;
-66.9000;0.6056;2.9907;
-66.6000;0.6024;2.9811;
-66.3000;0.6032;2.9907;
-66.0000;0.6015;2.9931;
-65.7000;0.6015;2.9931;
-65.4000;0.6015;2.9787;
-65.1000;0.5967;2.9596;
-64.8000;0.6040;2.9787;
-64.5000;0.6048;2.9859;
-64.2000;0.6032;2.9835;
-63.9000;0.6032;2.9859;
-63.6000;0.6048;2.9811;
-63.3000;0.6032;2.9716;
-63.0000;0.6048;2.9764;
-62.7000;0.6032;2.9787;
-62.4000;0.6056;2.9859;
-62.1000;0.6072;2.9931;
-61.8000;0.6048;2.9859;
-61.5000;0.6032;2.9955;
-61.2000;0.6048;3.0050;
-60.9000;0.6040;2.9955;
-60.6000;0.6040;2.9978;
-60.3000;0.6056;3.0002;
-60.0000;0.6024;2.9978;
-59.7000;0.6040;2.9978;
-59.4000;0.6056;2.9978;
-59.1000;0.6072;2.9931;
-58.8000;0.6048;2.9931;
-58.5000;0.6024;2.9859;
-58.2000;0.6048;2.9931;
-57.9000;0.6064;2.9931;
-57.6000;0.6056;2.9907;
-57.3000;0.6048;2.9931;
-57.0000;0.6081;2.9978;
-56.7000;0.6089;3.0026;
-56.4000;0.6056;2.9931;
-56.1000;0.6040;3.0002;
-55.8000;0.6040;2.9931;
-55.5000;0.6056;3.0026;
-55.2000;0.6089;3.0098;
-54.9000;0.6040;3.0002;
-54.6000;0.6032;2.9978;
-54.3000;0.6024;2.9978;
-54.0000;0.6024;3.0098;
-53.7000;0.6032;3.0169;
-53.4000;0.6032;3.0145;
-53.1000;0.6032;3.0074;
-52.8000;0.6040;3.0098;
-52.5000;0.6040;2.9978;
-52.2000;0.6072;3.0074;
-51.9000;0.6048;3.0026;
-51.6000;0.6032;2.9955;
-51.3000;0.6024;2.9931;
-51.0000;0.6007;2.9931;
-50.7000;0.6040;3.0026;
-50.4000;0.6064;3.0145;
-50.1000;0.5991;2.9931;
-49.8000;0.6007;2.9907;
-49.5000;0.6040;2.9883;
-49.2000;0.6032;2.9859;
-48.9000;0.6032;2.9883;
-48.6000;0.6015;2.9907;
-48.3000;0.6040;2.9931;
-48.0000;0.6024;2.9955;
-47.7000;0.6032;3.0002;
-47.4000;0.6032;3.0026;
-47.1000;0.6040;3.0122;
-46.8000;0.6040;3.0169;
-46.5000;0.6040;3.0169;
-46.2000;0.6040;3.0145;
-45.9000;0.6024;3.0050;
-45.6000;0.6056;3.0145;
-45.3000;0.6040;3.0122;
-45.0000;0.6032;3.0098;
-44.7000;0.6040;3.0050;
-44.4000;0.6024;3.0050;
-44.1000;0.6007;3.0002;
-43.8000;0.6040;3.0050;
-43.5000;0.6040;3.0098;
-43.2000;0.6032;3.0122;
-42.9000;0.6040;3.0122;
-42.6000;0.6032;3.0098;
-42.3000;0.6048;3.0050;
-42.0000;0.6048;3.0098;
-41.7000;0.6040;3.0122;
-41.4000;0.6040;3.0002;
-41.1000;0.6048;2.9978;
-40.8000;0.6040;3.0050;
-40.5000;0.6040;3.0026;
-40.2000;0.6032;3.0122;
-39.9000;0.6056;3.0122;
-39.6000;0.6015;3.0169;
-39.3000;0.6048;3.0169;
-39.0000;0.6048;3.0169;
-38.7000;0.6040;3.0122;
-38.4000;0.6040;3.0145;
-38.1000;0.6056;3.0074;
-37.8000;0.6064;2.9955;
-37.5000;0.6024;2.9859;
-37.2000;0.6048;2.9955;
-36.9000;0.6048;2.9955;
-36.6000;0.6048;2.9978;
-36.3000;0.5967;2.9835;
-36.0000;0.6032;3.0074;
-35.7000;0.6032;3.0098;
-35.4000;0.6007;3.0026;
-35.1000;0.6040;3.0074;
-34.8000;0.6048;3.0050;
-34.5000;0.6015;2.9955;
-34.2000;0.6056;3.0002;
-33.9000;0.6056;2.9931;
-33.6000;0.6048;2.9907;
-33.3000;0.6015;2.9907;
-33.0000;0.6024;3.0002;
-32.7000;0.6097;3.0145;
-32.4000;0.6056;2.9955;
-32.1000;0.6048;3.0074;
-31.8000;0.6056;3.0050;
-31.5000;0.5991;2.9859;
-31.2000;0.6048;3.0098;
-30.9000;0.6040;3.0026;
-30.6000;0.6048;2.9955;
-30.3000;0.5999;2.9883;
-30.0000;0.6081;2.9978;
-29.7000;0.6024;2.9859;
-29.4000;0.6040;2.9931;
-29.1000;0.6056;3.0074;
-28.8000;0.6040;3.0098;
-28.5000;0.6048;3.0122;
-28.2000;0.6032;3.0050;
-27.9000;0.6048;3.0074;
-27.6000;0.6048;3.0002;
-27.3000;0.6072;3.0074;
-27.0000;0.6056;3.0050;
-26.7000;0.6048;3.0122;
-26.4000;0.6048;3.0122;
-26.1000;0.6064;3.0145;
-25.8000;0.6048;3.0145;
-25.5000;0.6064;3.0122;
-25.2000;0.6040;3.0050;
-24.9000;0.6032;3.0122;
-24.6000;0.6032;3.0050;
-24.3000;0.6024;2.9978;
-24.0000;0.6056;3.0050;
-23.7000;0.6056;3.0002;
-23.4000;0.6048;3.0002;
-23.1000;0.6056;3.0050;
-22.8000;0.6056;3.0026;
-22.5000;0.6056;3.0074;
-22.2000;0.6056;3.0074;
-21.9000;0.6048;3.0050;
-21.6000;0.6048;3.0074;
-21.3000;0.6007;2.9978;
-21.0000;0.6040;3.0002;
-20.7000;0.6040;3.0074;
-20.4000;0.6032;3.0145;
-20.1000;0.6024;3.0098;
-19.8000;0.6040;3.0145;
-19.5000;0.6056;3.0098;
-19.2000;0.6024;3.0002;
-18.9000;0.6040;2.9931;
-18.6000;0.6048;2.9907;
-18.3000;0.6056;2.9883;
-18.0000;0.6072;2.9978;
-17.7000;0.6056;2.9955;
-17.4000;0.6121;3.0050;
-17.1000;0.6024;2.9883;
-16.8000;0.6007;2.9811;
-16.5000;0.6040;2.9907;
-16.2000;0.6048;2.9931;
-15.9000;0.6056;3.0002;
-15.6000;0.6064;2.9955;
-15.3000;0.6040;2.9907;
-15.0000;0.6040;2.9859;
-14.7000;0.6015;2.9883;
-14.4000;0.5999;2.9835;
-14.1000;0.6040;2.9931;
-13.8000;0.6064;3.0050;
-13.5000;0.6015;3.0002;
-13.2000;0.6048;3.0098;
-12.9000;0.6056;3.0098;
-12.6000;0.6024;2.9978;
-12.3000;0.6024;2.9931;
-12.0000;0.6015;2.9978;
-11.7000;0.6040;2.9883;
-11.4000;0.6048;2.9883;
-11.1000;0.6040;2.9955;
-10.8000;0.6007;3.0002;
-10.5000;0.6015;2.9931;
-10.2000;0.6032;2.9931;
-9.9000;0.6089;3.0169;
-9.6000;0.6056;3.0050;
-9.3000;0.6048;2.9931;
-9.0000;0.5999;2.9811;
-8.7000;0.5975;2.9740;
-8.4000;0.6048;2.9978;
-8.1000;0.6048;3.0026;
-7.8000;0.6064;3.0050;
-7.5000;0.5991;2.9907;
-7.2000;0.6032;3.0002;
-6.9000;0.6024;3.0026;
-6.6000;0.6024;3.0050;
-6.3000;0.6024;3.0098;
-6.0000;0.6081;3.0169;
-5.7000;0.6048;3.0002;
-5.4000;0.6056;3.0074;
-5.1000;0.6040;3.0074;
-4.8000;0.6064;3.0050;
-4.5000;0.5999;2.9859;
-4.2000;0.6048;2.9931;
-3.9000;0.6040;2.9859;
-3.6000;0.6056;2.9955;
-3.3000;0.6032;2.9955;
-3.0000;0.6048;3.0050;
-2.7000;0.6048;3.0122;
-2.4000;0.6056;3.0122;
-2.1000;0.6048;3.0098;
-1.8000;0.6056;3.0098;
-1.5000;0.6032;3.0074;
-1.2000;0.6040;3.0098;
-0.9000;0.6032;3.0026;
-0.6000;0.6113;3.0265;
-0.3000;0.6032;3.0002;
0.0000;0.6032;3.0002;
0.3000;0.6325;3.0265;
0.6000;0.6707;3.0599;
0.9000;0.7098;3.1243;
1.2000;0.7228;3.1315;
1.5000;0.7530;3.1840;
1.8000;0.7578;3.1864;
2.1000;0.7700;3.1983;
2.4000;0.7863;3.2222;
2.7000;0.7855;3.2079;
3.0000;0.7961;3.2294;
3.3000;0.8034;3.2508;
3.6000;0.8067;3.2556;
3.9000;0.8148;3.2747;
4.2000;0.8189;3.2747;
4.5000;0.8230;3.2843;
4.8000;0.8278;3.2866;
5.1000;0.8303;3.2819;
5.4000;0.8368;3.2866;
5.7000;0.8425;3.2866;
6.0000;0.8425;3.2843;
6.3000;0.8457;3.2866;
6.6000;0.8498;3.2914;
6.9000;0.8555;3.2962;
7.2000;0.8588;3.2914;
7.5000;0.8580;3.2914;
7.8000;0.8620;3.2914;
8.1000;0.8661;3.2866;
8.4000;0.8702;3.2986;
8.7000;0.8653;3.2843;
9.0000;0.8734;3.3010;
9.3000;0.8751;3.3010;
9.6000;0.8767;3.2986;
9.9000;0.8799;3.3010;
10.2000;0.8832;3.3081;
10.5000;0.8840;3.3129;
10.8000;0.8848;3.3153;
11.1000;0.8881;3.3201;
11.4000;0.8881;3.3081;
11.7000;0.8938;3.3177;
12.0000;0.8946;3.3224;
12.3000;0.8954;3.3248;
12.6000;0.8987;3.3224;
12.9000;0.9011;3.3320;
13.2000;0.9035;3.3272;
13.5000;0.9044;3.3248;
13.8000;0.9060;3.3201;
14.1000;0.9076;3.3224;
14.4000;0.9084;3.3201;
14.7000;0.9101;3.3153;
15.0000;0.9109;3.3224;
15.3000;0.9133;3.3296;
15.6000;0.9166;3.3272;
15.9000;0.9149;3.3153;
16.2000;0.9158;3.3105;
16.5000;0.9182;3.3129;
16.8000;0.9182;3.3153;
17.1000;0.9206;3.3224;
17.4000;0.9247;3.3272;
17.7000;0.9320;3.3415;
18.0000;0.9239;3.3081;
18.3000;0.9247;3.3081;
18.6000;0.9271;3.3105;
18.9000;0.9255;3.3105;
19.2000;0.9263;3.3081;
19.5000;0.9320;3.3081;
19.8000;0.9328;3.3105;
20.1000;0.9304;3.3057;
20.4000;0.9304;3.3105;
20.7000;0.9296;3.2986;
21.0000;0.9337;3.3081;
21.3000;0.9280;3.2866;
21.6000;0.9361;3.3033;
21.9000;0.9345;3.2962;
22.2000;0.9467;3.3153;
22.5000;0.9353;3.2914;
22.8000;0.9361;3.2962;
23.1000;0.9369;3.3057;
23.4000;0.9353;3.3010;
23.7000;0.9369;3.2914;
24.0000;0.9394;3.2986;
24.3000;0.9426;3.3010;
24.6000;0.9467;3.2962;
24.9000;0.9426;3.2938;
25.2000;0.9377;3.2819;
25.5000;0.9418;3.2843;
25.8000;0.9410;3.2819;
26.1000;0.9442;3.2938;
26.4000;0.9508;3.3129;
26.7000;0.9459;3.3010;
27.0000;0.9467;3.2938;
27.3000;0.9475;3.2962;
27.6000;0.9483;3.3033;
27.9000;0.9483;3.3033;
28.2000;0.9491;3.3081;
28.5000;0.9491;3.3153;
28.8000;0.9524;3.3224;
29.1000;0.9499;3.3248;
29.4000;0.9499;3.3272;
29.7000;0.9516;3.3224;
30.0000;0.9516;3.3224;
30.3000;0.9508;3.3224;
30.6000;0.9516;3.3177;
30.9000;0.9483;3.3081;
31.2000;0.9516;3.3057;
31.5000;0.9516;3.3105;
31.8000;0.9532;3.3105;
32.1000;0.9540;3.3153;
32.4000;0.9508;3.2986;
32.7000;0.9524;3.2914;
33.0000;0.9516;3.2843;
33.3000;0.9540;3.2914;
33.6000;0.9540;3.2866;
33.9000;0.9548;3.2866;
34.2000;0.9548;3.2866;
34.5000;0.9573;3.2890;
34.8000;0.9548;3.2938;
35.1000;0.9556;3.2890;
35.4000;0.9548;3.2866;
35.7000;0.9540;3.2819;
36.0000;0.9565;3.2795;
36.3000;0.9597;3.2866;
36.6000;0.9565;3.2747;
36.9000;0.9581;3.2843;
37.2000;0.9459;3.2628;
37.5000;0.9581;3.3010;
37.8000;0.9597;3.3057;
38.1000;0.9573;3.3010;
38.4000;0.9540;3.2914;
38.7000;0.9581;3.3081;
39.0000;0.9581;3.3105;
39.3000;0.9532;3.3033;
39.6000;0.9581;3.3081;
39.9000;0.9638;3.3177;
40.2000;0.9597;3.2962;
40.5000;0.9581;3.2962;
40.8000;0.9581;3.2914;
41.1000;0.9605;3.2914;
41.4000;0.9613;3.2962;
41.7000;0.9548;3.2819;
42.0000;0.9605;3.2986;
42.3000;0.9621;3.3081;
42.6000;0.9670;3.3248;
42.9000;0.9597;3.3081;
43.2000;0.9613;3.3010;
43.5000;0.9573;3.3010;
43.8000;0.9727;3.3392;
44.1000;0.9621;3.3153;
44.4000;0.9605;3.3081;
44.7000;0.9678;3.3201;
45.0000;0.9621;3.3153;
45.3000;0.9630;3.3201;
45.6000;0.9613;3.3177;
45.9000;0.9613;3.3129;
46.2000;0.9621;3.3081;
46.5000;0.9605;3.2914;
46.8000;0.9605;3.2914;
47.1000;0.9630;3.2986;
47.4000;0.9630;3.2914;
47.7000;0.9654;3.2962;
48.0000;0.9613;3.2866;
48.3000;0.9630;3.2914;
48.6000;0.9630;3.2866;
48.9000;0.9662;3.2843;
49.2000;0.9646;3.2843;
49.5000;0.9638;3.2890;
49.8000;0.9646;3.2938;
50.1000;0.9654;3.2890;
50.4000;0.9646;3.2723;
50.7000;0.9646;3.2819;
51.0000;0.9630;3.2819;
51.3000;0.9654;3.2914;
51.6000;0.9654;3.2986;
51.9000;0.9646;3.3057;
52.2000;0.9646;3.3129;
52.5000;0.9646;3.3153;
52.8000;0.9638;3.3105;
53.1000;0.9654;3.3129;
53.4000;0.9662;3.3129;
53.7000;0.9654;3.3153;
54.0000;0.9654;3.3177;
54.3000;0.9662;3.3129;
54.6000;0.9662;3.3081;
54.9000;0.9670;3.3105;
55.2000;0.9695;3.3201;
55.5000;0.9654;3.3105;
55.8000;0.9630;3.2962;
56.1000;0.9646;3.2962;
56.4000;0.9670;3.3010;
56.7000;0.9662;3.3010;
57.0000;0.9630;3.2986;
57.3000;0.9662;3.3105;
57.6000;0.9662;3.3177;
57.9000;0.9662;3.3057;
58.2000;0.9646;3.3033;
58.5000;0.9670;3.3057;
58.8000;0.9687;3.3105;
59.1000;0.9638;3.2986;
59.4000;0.9670;3.3081;
59.7000;0.9638;3.3010;
60.0000;0.9670;3.3033;
60.3000;0.9662;3.2986;
60.6000;0.9670;3.2986;
60.9000;0.9687;3.3057;
61.2000;0.9703;3.3153;
61.5000;0.9621;3.3010;
61.8000;0.9687;3.3201;
62.1000;0.9670;3.3248;
62.4000;0.9646;3.3177;
62.7000;0.9654;3.3224;
63.0000;0.9678;3.3320;
63.3000;0.9646;3.3272;
63.6000;0.9654;3.3177;
63.9000;0.9670;3.3153;
64.2000;0.9678;3.3105;
64.5000;0.9678;3.3153;
64.8000;0.9638;3.3081;
65.1000;0.9687;3.3248;
65.4000;0.9670;3.3296;
65.7000;0.9678;3.3296;
66.0000;0.9662;3.3296;
66.3000;0.9678;3.3272;
66.6000;0.9589;3.2986;
66.9000;0.9662;3.3129;
67.2000;0.9662;3.3129;
67.5000;0.9662;3.3248;
67.8000;0.9703;3.3368;
68.1000;0.9678;3.3320;
68.4000;0.9678;3.3201;
68.7000;0.9678;3.3129;
69.0000;0.9695;3.3201;
69.3000;0.9695;3.3201;
69.6000;0.9687;3.3224;
69.9000;0.9687;3.3177;
70.2000;0.9678;3.3129;
70.5000;0.9687;3.3129;
70.8000;0.9678;3.3177;
71.1000;0.9678;3.3177;
71.4000;0.9687;3.3153;
71.7000;0.9687;3.3224;
72.0000;0.9687;3.3177;
72.3000;0.9670;3.3010;
72.6000;0.9687;3.2938;
72.9000;0.9695;3.3010;
73.2000;0.9695;3.2986;
73.5000;0.9687;3.3057;
73.8000;0.9687;3.3033;
74.1000;0.9678;3.3010;
74.4000;0.9703;3.3033;
74.7000;0.9654;3.2843;
75.0000;0.9735;3.3057;
75.3000;0.9695;3.2962;
75.6000;0.9678;3.2962;
75.9000;0.9687;3.3033;
76.2000;0.9670;3.2986;
76.5000;0.9744;3.3129;
76.8000;0.9695;3.2962;
77.1000;0.9662;3.2914;
77.4000;0.9678;3.2986;
77.7000;0.9695;3.3033;
78.0000;0.9711;3.3081;
78.3000;0.9719;3.3201;
78.6000;0.9678;3.3057;
78.9000;0.9703;3.3177;
79.2000;0.9670;3.3129;
79.5000;0.9687;3.3081;
79.8000;0.9662;3.2962;
80.1000;0.9646;3.2866;
80.4000;0.9711;3.3057;
80.7000;0.9703;3.2938;
81.0000;0.9687;3.2914;
81.3000;0.9735;3.3129;
81.6000;0.9727;3.3129;
81.9000;0.9695;3.2986;
82.2000;0.9695;3.2986;
82.5000;0.9703;3.3010;
82.8000;0.9760;3.3153;
83.1000;0.9687;3.2986;
83.4000;0.9719;3.3105;
83.7000;0.9695;3.3057;
84.0000;0.9711;3.3057;
84.3000;0.9711;3.3081;
84.6000;0.9678;3.3010;
84.9000;0.9711;3.2986;
85.2000;0.9687;3.2962;
85.5000;0.9727;3.3057;
85.8000;0.9703;3.3033;
86.1000;0.9711;3.3033;
86.4000;0.9703;3.2914;
86.7000;0.9703;3.2938;
87.0000;0.9703;3.2890;
87.3000;0.9695;3.2843;
87.6000;0.9719;3.2819;
87.9000;0.9727;3.2795;
88.2000;0.9711;3.2819;
88.5000;0.9711;3.2795;
88.8000;0.9719;3.2771;
89.1000;0.9711;3.2866;
89.4000;0.9711;3.2938;
89.7000;0.9695;3.2890;
90.0000;0.9711;3.2843;
90.3000;0.9703;3.2819;
90.6000;0.9727;3.2914;
90.9000;0.9711;3.2866;
91.2000;0.9703;3.2819;
91.5000;0.9735;3.2890;
91.8000;0.9703;3.2914;
92.1000;0.9719;3.2938;
92.4000;0.9670;3.2795;
92.7000;0.9719;3.2914;
93.0000;0.9687;3.2795;
93.3000;0.9703;3.2747;
93.6000;0.9695;3.2699;
93.9000;0.9703;3.2628;
94.2000;0.9719;3.2699;
94.5000;0.9678;3.2675;
94.8000;0.9719;3.2699;
95.1000;0.9719;3.2723;
95.4000;0.9735;3.2819;
95.7000;0.9719;3.2890;
96.0000;0.9735;3.2914;
96.3000;0.9711;3.2747;
96.6000;0.9703;3.2675;
96.9000;0.9719;3.2675;
97.2000;0.9727;3.2675;
97.5000;0.9695;3.2628;
97.8000;0.9711;3.2699;
98.1000;0.9711;3.2699;
98.4000;0.9711;3.2723;
98.7000;0.9695;3.2795;
99.0000;0.9695;3.2890;
99.3000;0.9703;3.2795;
99.6000;0.9719;3.2843;
99.9000;0.9719;3.2819;
100.2000;0.9695;3.2771;
100.5000;0.9711;3.2723;
100.8000;0.9719;3.2843;
101.1000;0.9727;3.2938;
101.4000;0.9711;3.2890;
101.7000;0.9727;3.2890;
102.0000;0.9703;3.2843;
102.3000;0.9719;3.2962;
102.6000;0.9719;3.2866;
102.9000;0.9711;3.2819;
103.2000;0.9621;3.2580;
103.5000;0.9711;3.2795;
103.8000;0.9735;3.2866;
104.1000;0.9719;3.2747;
104.4000;0.9711;3.2819;
104.7000;0.9744;3.2914;
105.0000;0.9719;3.2866;
105.3000;0.9662;3.2747;
105.6000;0.9711;3.2843;
105.9000;0.9727;3.2986;
106.2000;0.9711;3.2986;
106.5000;0.9703;3.2914;
106.8000;0.9784;3.3033;
107.1000;0.9719;3.2890;
107.4000;0.9727;3.2962;
107.7000;0.9719;3.3010;
108.0000;0.9719;3.2986;
108.3000;0.9727;3.2914;
108.6000;0.9727;3.2819;
108.9000;0.9711;3.2819;
109.2000;0.9719;3.2723;
109.5000;0.9695;3.2723;
109.8000;0.9735;3.2819;
110.1000;0.9711;3.2890;
110.4000;0.9727;3.2819;
110.7000;0.9711;3.2747;
111.0000;0.9719;3.2795;
111.3000;0.9711;3.2819;
111.6000;0.9703;3.2795;
111.9000;0.9687;3.2795;
112.2000;0.9687;3.2771;
112.5000;0.9711;3.2747;
112.8000;0.9719;3.2747;
113.1000;0.9727;3.2795;
113.4000;0.9719;3.2699;
113.7000;0.9719;3.2795;
114.0000;0.9735;3.2866;
114.3000;0.9703;3.2771;
114.6000;0.9735;3.2866;
114.9000;0.9719;3.2795;
115.2000;0.9735;3.2771;
115.5000;0.9711;3.2771;
115.8000;0.9703;3.2771;
116.1000;0.9719;3.2723;
116.4000;0.9654;3.2556;
116.7000;0.9695;3.2699;
117.0000;0.9727;3.2819;
117.3000;0.9760;3.2962;
117.6000;0.9760;3.2962;
117.9000;0.9719;3.2938;
118.2000;0.9809;3.3201;
118.5000;0.9719;3.2986;
118.8000;0.9727;3.2938;
119.1000;0.9711;3.2890;
119.4000;0.9719;3.2866;
119.7000;0.9727;3.2890;
120.0000;0.9735;3.2986;
120.3000;0.9719;3.2938;
120.6000;0.9711;3.2795;
120.9000;0.9719;3.2819;
121.2000;0.9735;3.2795;
121.5000;0.9809;3.3033;
121.8000;0.9711;3.2795;
122.1000;0.9727;3.2843;
122.4000;0.9719;3.2866;
122.7000;0.9727;3.2890;
123.0000;0.9687;3.2723;
123.3000;0.9719;3.2771;
123.6000;0.9727;3.2890;
123.9000;0.9727;3.2866;
124.2000;0.9711;3.2819;
124.5000;0.9727;3.2819;
124.8000;0.9735;3.2771;
125.1000;0.9727;3.2747;
125.4000;0.9695;3.2675;
125.7000;0.9719;3.2747;
126.0000;0.9744;3.2795;
126.3000;0.9727;3.2795;
126.6000;0.9719;3.2771;
126.9000;0.9727;3.2819;
127.2000;0.9776;3.2914;
127.5000;0.9711;3.2699;
127.8000;0.9719;3.2675;
128.1000;0.9662;3.2675;
128.4000;0.9670;3.2699;
128.7000;0.9711;3.2890;
129.0000;0.9719;3.2938;
129.3000;0.9719;3.2866;
129.6000;0.9801;3.3057;
129.9000;0.9719;3.2866;
130.2000;0.9727;3.2938;
130.5000;0.9711;3.2938;
130.8000;0.9719;3.2914;
131.1000;0.9735;3.2962;
131.4000;0.9727;3.2986;
131.7000;0.9744;3.2986;
132.0000;0.9719;3.2914;
132.3000;0.9792;3.3129;
132.6000;0.9727;3.3105;
132.9000;0.9752;3.3177;
133.2000;0.9719;3.3057;
133.5000;0.9784;3.3129;
133.8000;0.9735;3.2890;
134.1000;0.9678;3.2866;
134.4000;0.9841;3.3296;
134.7000;0.9735;3.3010;
135.0000;0.9776;3.3177;
135.3000;0.9719;3.3081;
135.6000;0.9735;3.3201;
135.9000;0.9719;3.3153;
136.2000;0.9719;3.3105;
136.5000;0.9727;3.3010;
136.8000;0.9719;3.2890;
137.1000;0.9735;3.2962;
137.4000;0.9768;3.3057;
137.7000;0.9752;3.3033;
138.0000;0.9735;3.2986;
138.3000;0.9752;3.3033;
138.6000;0.9768;3.3033;
138.9000;0.9735;3.2914;
139.2000;0.9752;3.2914;
139.5000;0.9735;3.2938;
139.8000;0.9735;3.2962;
140.1000;0.9744;3.2938;
140.4000;0.9703;3.2938;
140.7000;0.9687;3.2890;
141.0000;0.9735;3.3033;
141.3000;0.9695;3.3010;
141.6000;0.9687;3.2914;
141.9000;0.9744;3.2962;
142.2000;0.9687;3.2843;
142.5000;0.9735;3.2938;
142.8000;0.9719;3.2938;
143.1000;0.9744;3.2890;
143.4000;0.9711;3.2819;
143.7000;0.9752;3.3081;
144.0000;0.9752;3.3129;
144.3000;0.9727;3.3057;
144.6000;0.9752;3.3033;
144.9000;0.9752;3.2938;
145.2000;0.9768;3.2914;
145.5000;0.9760;3.2938;
145.8000;0.9760;3.2962;
146.1000;0.9735;3.2866;
146.4000;0.9719;3.2771;
146.7000;0.9711;3.2795;
147.0000;0.9719;3.2843;
147.3000;0.9719;3.2866;
147.6000;0.9711;3.2843;
147.9000;0.9719;3.2819;
148.2000;0.9719;3.2866;
148.5000;0.9735;3.2914;
148.8000;0.9687;3.2771;
149.1000;0.9711;3.2819;
149.4000;0.9711;3.2771;
149.7000;0.9744;3.2747;
150.0000;0.9695;3.2580;
150.3000;0.9711;3.2723;
150.6000;0.9817;3.2986;
150.9000;0.9719;3.2747;
151.2000;0.9768;3.2866;
151.5000;0.9727;3.2771;
151.8000;0.9670;3.2580;
152.1000;0.9744;3.2747;
152.4000;0.9711;3.2699;
152.7000;0.9727;3.2723;
153.0000;0.9735;3.2771;
153.3000;0.9744;3.2819;
153.6000;0.9719;3.2819;
153.9000;0.9727;3.2723;
154.2000;0.9744;3.2819;
154.5000;0.9817;3.2986;
154.8000;0.9719;3.2795;
155.1000;0.9735;3.2771;
155.4000;0.9727;3.2675;
155.7000;0.9768;3.2771;
156.0000;0.9711;3.2675;
156.3000;0.9719;3.2699;
156.6000;0.9735;3.2771;
156.9000;0.9727;3.2771;
157.2000;0.9760;3.2819;
157.5000;0.9719;3.2747;
157.8000;0.9727;3.2795;
158.1000;0.9727;3.2795;
158.4000;0.9711;3.2771;
158.7000;0.9744;3.2843;
159.0000;0.9744;3.2723;
159.3000;0.9735;3.2580;
159.6000;0.9703;3.2461;
159.9000;0.9735;3.2628;
160.2000;0.9735;3.2604;
160.5000;0.9735;3.2747;
160.8000;0.9744;3.2723;
161.1000;0.9735;3.2771;
161.4000;0.9809;3.2986;
161.7000;0.9711;3.2675;
162.0000;0.9744;3.2723;
162.3000;0.9735;3.2723;
162.6000;0.9752;3.2723;
162.9000;0.9735;3.2723;
163.2000;0.9744;3.2771;
163.5000;0.9735;3.2699;
163.8000;0.9719;3.2699;
164.1000;0.9711;3.2604;
164.4000;0.9744;3.2771;
164.7000;0.9752;3.2771;
165.0000;0.9646;3.2508;
165.3000;0.9744;3.2699;
165.6000;0.9744;3.2771;
165.9000;0.9744;3.2819;
166.2000;0.9744;3.2747;
166.5000;0.9727;3.2628;
166.8000;0.9719;3.2604;
167.1000;0.9744;3.2723;
167.4000;0.9719;3.2723;
167.7000;0.9760;3.2771;
168.0000;0.9727;3.2652;
168.3000;0.9744;3.2723;
168.6000;0.9735;3.2843;
168.9000;0.9744;3.2819;
169.2000;0.9768;3.2962;
169.5000;0.9727;3.2962;
169.8000;0.9744;3.3033;
170.1000;0.9727;3.2938;
170.4000;0.9727;3.2819;
170.7000;0.9776;3.2938;
171.0000;0.9744;3.2914;
171.3000;0.9735;3.2890;
171.6000;0.9735;3.2890;
171.9000;0.9711;3.2866;
172.2000;0.9711;3.2795;
172.5000;0.9703;3.2723;
172.8000;0.9776;3.2866;
173.1000;0.9719;3.2723;
173.4000;0.9735;3.2747;
173.7000;0.9760;3.2890;
174.0000;0.9735;3.2795;
174.3000;0.9711;3.2723;
174.6000;0.9687;3.2723;
174.9000;0.9727;3.2866;
175.2000;0.9727;3.2938;
175.5000;0.9735;3.2866;
175.8000;0.9638;3.2675;
176.1000;0.9703;3.2914;
176.4000;0.9703;3.2938;
176.7000;0.9711;3.2890;
177.0000;0.9711;3.2819;
177.3000;0.9768;3.2866;
177.6000;0.9776;3.2747;
177.9000;0.9719;3.2508;
178.2000;0.9703;3.2389;
178.5000;0.9646;3.2246;
178.8000;0.9727;3.2461;
179.1000;0.9719;3.2461;
179.4000;0.9695;3.2389;
179.7000;0.9744;3.2580;
180.0000;0.9744;3.2628;
180.3000;0.9744;3.2699;
180.6000;0.9727;3.2699;
180.9000;0.9752;3.2747;
181.2000;0.9735;3.2866;
181.5000;0.9735;3.2843;
181.8000;0.9735;3.2795;
182.1000;0.9735;3.2843;
182.4000;0.9703;3.2819;
182.7000;0.9719;3.2819;
183.0000;0.9719;3.2747;
183.3000;0.9735;3.2747;
183.6000;0.9744;3.2866;
183.9000;0.9744;3.2795;
184.2000;0.9719;3.2771;
184.5000;0.9744;3.2819;
184.8000;0.9744;3.2771;
185.1000;0.9752;3.2747;
185.4000;0.9735;3.2795;
185.7000;0.9727;3.2771;
186.0000;0.9727;3.2675;
186.3000;0.9727;3.2580;
186.6000;0.9711;3.2532;
186.9000;0.9711;3.2580;
187.2000;0.9735;3.2699;
187.5000;0.9727;3.2604;
187.8000;0.9719;3.2604;
188.1000;0.9719;3.2604;
188.4000;0.9760;3.2747;
188.7000;0.9719;3.2747;
189.0000;0.9735;3.2843;
189.3000;0.9719;3.2795;
189.6000;0.9744;3.2771;
189.9000;0.9735;3.2771;
190.2000;0.9752;3.2723;
190.5000;0.9727;3.2771;
190.8000;0.9719;3.2771;
191.1000;0.9727;3.2747;
191.4000;0.9760;3.2747;
191.7000;0.9752;3.2795;
192.0000;0.9711;3.2747;
192.3000;0.9744;3.2795;
192.6000;0.9752;3.2890;
192.9000;0.9752;3.2914;
193.2000;0.9760;3.2986;
193.5000;0.9735;3.2843;
193.8000;0.9744;3.2843;
194.1000;0.9735;3.2866;
194.4000;0.9727;3.2866;
194.7000;0.9744;3.2986;
195.0000;0.9735;3.2914;
195.3000;0.9776;3.2938;
195.6000;0.9744;3.2890;
195.9000;0.9727;3.2914;
196.2000;0.9727;3.2914;
196.5000;0.9727;3.2986;
196.8000;0.9719;3.2938;
197.1000;0.9654;3.2843;
197.4000;0.9752;3.3057;
197.7000;0.9768;3.2986;
198.0000;0.9735;3.2866;
198.3000;0.9776;3.2890;
198.6000;0.9719;3.2866;
198.9000;0.9727;3.3010;
199.2000;0.9744;3.2938;
199.5000;0.9727;3.2914;
199.8000;0.9752;3.2962;
200.1000;0.9760;3.2986;
200.4000;0.9719;3.2819;
200.7000;0.9735;3.2795;
201.0000;0.9735;3.2795;
201.3000;0.9744;3.2795;
201.6000;0.9744;3.2914;
201.9000;0.9792;3.3105;
202.2000;0.9735;3.2938;
202.5000;0.9687;3.2747;
202.8000;0.9752;3.2866;
203.1000;0.9711;3.2747;
203.4000;0.9727;3.2795;
203.7000;0.9735;3.2914;
204.0000;0.9744;3.2914;
204.3000;0.9727;3.2795;
204.6000;0.9711;3.2723;
204.9000;0.9735;3.2723;
205.2000;0.9744;3.2747;
205.5000;0.9833;3.2986;
205.8000;0.9727;3.2699;
206.1000;0.9735;3.2675;
206.4000;0.9735;3.2628;
206.7000;0.9735;3.2723;
207.0000;0.9752;3.2771;
207.3000;0.9727;3.2699;
207.6000;0.9670;3.2628;
207.9000;0.9719;3.2795;
208.2000;0.9744;3.2843;
208.5000;0.9760;3.2890;
208.8000;0.9735;3.2795;
209.1000;0.9744;3.2866;
209.4000;0.9752;3.2938;
209.7000;0.9735;3.2890;
210.0000;0.9662;3.2675;
210.3000;0.9735;3.2843;
210.6000;0.9768;3.2962;
210.9000;0.9727;3.2843;
211.2000;0.9719;3.2866;
211.5000;0.9776;3.3081;
211.8000;0.9719;3.3057;
212.1000;0.9711;3.3033;
212.4000;0.9703;3.2962;
212.7000;0.9727;3.3010;
213.0000;0.9727;3.3057;
213.3000;0.9719;3.3010;
213.6000;0.9768;3.3201;
213.9000;0.9735;3.3153;
214.2000;0.9703;3.3081;
214.5000;0.9744;3.3177;
214.8000;0.9727;3.3057;
215.1000;0.9735;3.3105;
215.4000;0.9744;3.3153;
215.7000;0.9719;3.3057;
216.0000;0.9752;3.3010;
216.3000;0.9735;3.2938;
216.6000;0.9752;3.2866;
216.9000;0.9744;3.2819;
217.2000;0.9727;3.2866;
217.5000;0.9735;3.2890;
217.8000;0.9760;3.2962;
218.1000;0.9760;3.3033;
218.4000;0.9744;3.2986;
218.7000;0.9727;3.2962;
219.0000;0.9735;3.2986;
219.3000;0.9744;3.3010;
219.6000;0.9711;3.2962;
219.9000;0.9719;3.2843;
220.2000;0.9735;3.2914;
220.5000;0.9719;3.2938;
220.8000;0.9719;3.2914;
221.1000;0.9727;3.2962;
221.4000;0.9727;3.3010;
221.7000;0.9687;3.2843;
222.0000;0.9727;3.2890;
222.3000;0.9744;3.2771;
222.6000;0.9727;3.2675;
222.9000;0.9727;3.2699;
223.2000;0.9703;3.2652;
223.5000;0.9744;3.2723;
223.8000;0.9711;3.2628;
224.1000;0.9752;3.2699;
224.4000;0.9744;3.2604;
224.7000;0.9727;3.2532;
225.0000;0.9768;3.2628;
225.3000;0.9776;3.2675;
225.6000;0.9727;3.2628;
225.9000;0.9744;3.2675;
226.2000;0.9744;3.2675;
226.5000;0.9735;3.2723;
226.8000;0.9735;3.2747;
227.1000;0.9735;3.2699;
227.4000;0.9735;3.2675;
227.7000;0.9735;3.2652;
228.0000;0.9760;3.2652;
228.3000;0.9727;3.2604;
228.6000;0.9752;3.2556;
228.9000;0.9752;3.2604;
229.2000;0.9727;3.2556;
229.5000;0.9727;3.2461;
229.8000;0.9727;3.2508;
230.1000;0.9727;3.2508;
230.4000;0.9719;3.2532;
230.7000;0.9719;3.2652;
231.0000;0.9727;3.2675;
231.3000;0.9727;3.2604;
231.6000;0.9711;3.2556;
231.9000;0.9752;3.2652;
232.2000;0.9735;3.2675;
232.5000;0.9744;3.2747;
232.8000;0.9744;3.2747;
233.1000;0.9744;3.2747;
233.4000;0.9744;3.2843;
233.7000;0.9760;3.2819;
234.0000;0.9752;3.2866;
234.3000;0.9711;3.2819;
234.6000;0.9735;3.2986;
234.9000;0.9752;3.3057;
235.2000;0.9735;3.2986;
235.5000;0.9760;3.3081;
235.8000;0.9719;3.2986;
236.1000;0.9727;3.2986;
236.4000;0.9711;3.2938;
236.7000;0.9727;3.3057;
237.0000;0.9744;3.3057;
237.3000;0.9744;3.3081;
237.6000;0.9735;3.3033;
237.9000;0.9760;3.3057;
238.2000;0.9719;3.2986;
238.5000;0.9727;3.2962;
238.8000;0.9727;3.2962;
239.1000;0.9727;3.2986;
239.4000;0.9719;3.2914;
239.7000;0.9735;3.2914;
240.0000;0.9687;3.2747;
240.3000;0.9744;3.2866;
240.6000;0.9744;3.2795;
240.9000;0.9744;3.2890;
241.2000;0.9744;3.2938;
241.5000;0.9711;3.2866;
241.8000;0.9719;3.2866;
242.1000;0.9744;3.2890;
242.4000;0.9752;3.2914;
242.7000;0.9711;3.2771;
243.0000;0.9630;3.2628;
243.3000;0.9735;3.2866;
243.6000;0.9735;3.2795;
243.9000;0.9735;3.2819;
244.2000;0.9711;3.2747;
244.5000;0.9760;3.2890;
244.8000;0.9719;3.2890;
245.1000;0.9727;3.2866;
245.4000;0.9727;3.2890;
245.7000;0.9735;3.2914;
246.0000;0.9784;3.3057;
246.3000;0.9744;3.2962;
246.6000;0.9735;3.2938;
246.9000;0.9727;3.2914;
247.2000;0.9744;3.2914;
247.5000;0.9727;3.2771;
247.8000;0.9727;3.2747;
248.1000;0.9735;3.2795;
248.4000;0.9711;3.2675;
248.7000;0.9687;3.2580;
249.0000;0.9735;3.2747;
249.3000;0.9727;3.2747;
249.6000;0.9727;3.2795;
249.9000;0.9727;3.2747;
250.2000;0.9735;3.2723;
250.5000;0.9735;3.2771;
250.8000;0.9760;3.2723;
251.1000;0.9719;3.2699;
251.4000;0.9784;3.2938;
251.7000;0.9727;3.2771;
252.0000;0.9727;3.2843;
252.3000;0.9744;3.2890;
252.6000;0.9727;3.2819;
252.9000;0.9727;3.2866;
253.2000;0.9719;3.2843;
253.5000;0.9768;3.2962;
253.8000;0.9719;3.2795;
254.1000;0.9760;3.2866;
254.4000;0.9776;3.2914;
254.7000;0.9735;3.2890;
255.0000;0.9735;3.2819;
255.3000;0.9727;3.2795;
255.6000;0.9719;3.2771;
255.9000;0.9801;3.2890;
256.2000;0.9744;3.2795;
256.5000;0.9727;3.2723;
256.8000;0.9727;3.2890;
257.1000;0.9735;3.2962;
257.4000;0.9760;3.3033;
257.7000;0.9703;3.2962;
258.0000;0.9727;3.3057;
258.3000;0.9711;3.3033;
258.6000;0.9719;3.3010;
258.9000;0.9719;3.3057;
259.2000;0.9711;3.3057;
259.5000;0.9752;3.3177;
259.8000;0.9752;3.3153;
260.1000;0.9735;3.3105;
260.4000;0.9760;3.3129;
260.7000;0.9744;3.3057;
261.0000;0.9744;3.3081;
261.3000;0.9744;3.3081;
261.6000;0.9727;3.3057;
261.9000;0.9719;3.3033;
262.2000;0.9784;3.3248;
262.5000;0.9752;3.3081;
262.8000;0.9727;3.3033;
263.1000;0.9719;3.2986;
263.4000;0.9727;3.3010;
263.7000;0.9744;3.3081;
264.0000;0.9711;3.2938;
264.3000;0.9727;3.2890;
264.6000;0.9727;3.2890;
264.9000;0.9760;3.2986;
265.2000;0.9735;3.2962;
265.5000;0.9735;3.2962;
265.8000;0.9711;3.2938;
266.1000;0.9695;3.3033;
266.4000;0.9744;3.3010;
266.7000;0.9735;3.2986;
267.0000;0.9776;3.3033;
267.3000;0.9776;3.3105;
267.6000;0.9752;3.3105;
267.9000;0.9735;3.3033;
268.2000;0.9719;3.2938;
268.5000;0.9711;3.2890;
268.8000;0.9735;3.2938;
269.1000;0.9752;3.2986;
269.4000;0.9752;3.2914;
269.7000;0.9735;3.2795;
270.0000;0.9735;3.2819;
270.3000;0.9687;3.2628;
270.6000;0.9752;3.2723;
270.9000;0.9735;3.2675;
271.2000;0.9735;3.2771;
271.5000;0.9727;3.2866;
271.8000;0.9744;3.2962;
272.1000;0.9719;3.2866;
272.4000;0.9727;3.2819;
272.7000;0.9817;3.3010;
273.0000;0.9711;3.2795;
273.3000;0.9719;3.2843;
273.6000;0.9752;3.3033;
273.9000;0.9727;3.3010;
274.2000;0.9735;3.2938;
274.5000;0.9727;3.2819;
274.8000;0.9727;3.2795;
275.1000;0.9711;3.2723;
275.4000;0.9719;3.2628;
275.7000;0.9841;3.2938;
276.0000;0.9744;3.2675;
276.3000;0.9735;3.2675;
276.6000;0.9752;3.2699;
276.9000;0.9719;3.2604;
277.2000;0.9727;3.2580;
277.5000;0.9735;3.2652;
277.8000;0.9744;3.2747;
278.1000;0.9727;3.2747;
278.4000;0.9687;3.2723;
278.7000;0.9711;3.2819;
279.0000;0.9719;3.2843;
279.3000;0.9703;3.2843;
279.6000;0.9711;3.2819;
279.9000;0.9727;3.2771;
280.2000;0.9719;3.2747;
280.5000;0.9687;3.2747;
280.8000;0.9727;3.2843;
281.1000;0.9727;3.2795;
281.4000;0.9727;3.2795;
281.7000;0.9752;3.2890;
282.0000;0.9711;3.2890;
282.3000;0.9727;3.2938;
282.6000;0.9727;3.2914;
282.9000;0.9768;3.2938;
283.2000;0.9801;3.3010;
283.5000;0.9646;3.2580;
283.8000;0.9727;3.2866;
284.1000;0.9719;3.2890;
284.4000;0.9727;3.2890;
284.7000;0.9687;3.2819;
285.0000;0.9727;3.2890;
285.3000;0.9711;3.2819;
285.6000;0.9809;3.3105;
285.9000;0.9727;3.2890;
286.2000;0.9727;3.2938;
286.5000;0.9711;3.2890;
286.8000;0.9703;3.2866;
287.1000;0.9711;3.2819;
287.4000;0.9719;3.2866;
287.7000;0.9744;3.2890;
288.0000;0.9735;3.2914;
288.3000;0.9719;3.2890;
288.6000;0.9727;3.2890;
288.9000;0.9727;3.2866;
289.2000;0.9727;3.2914;
289.5000;0.9727;3.2866;
289.8000;0.9695;3.2795;
290.1000;0.9687;3.2795;
290.4000;0.9735;3.2890;
290.7000;0.9735;3.2795;
291.0000;0.9784;3.2938;
291.3000;0.9695;3.2747;
291.6000;0.9695;3.2771;
291.9000;0.9744;3.2843;
292.2000;0.9719;3.2795;
292.5000;0.9727;3.2843;
292.8000;0.9719;3.2914;
293.1000;0.9687;3.2890;
293.4000;0.9678;3.2914;
293.7000;0.9711;3.2986;
294.0000;0.9727;3.2890;
294.3000;0.9727;3.2843;
294.6000;0.9727;3.2914;
294.9000;0.9744;3.2938;
295.2000;0.9719;3.2914;
295.5000;0.9735;3.2938;
295.8000;0.9744;3.2890;
296.1000;0.9719;3.2819;
296.4000;0.9711;3.2771;
296.7000;0.9744;3.2914;
297.0000;0.9727;3.2890;
297.3000;0.9703;3.2843;
297.6000;0.9760;3.2914;
297.9000;0.9727;3.2866;
298.2000;0.9719;3.2866;
298.5000;0.9711;3.2890;
298.8000;0.9711;3.2771;
299.1000;0.9719;3.2819;
299.4000;0.9703;3.2843;
299.7000;0.9719;3.2914;
300.0000;0.9735;3.2938;
300.3000;0.9735;3.3010;
300.6000;0.9727;3.3010;
300.9000;0.9768;3.3153;
301.2000;0.9711;3.2914;
301.5000;0.9727;3.2962;
301.8000;0.9735;3.2986;
302.1000;0.9711;3.2890;
302.4000;0.9727;3.2866;
302.7000;0.9695;3.2795;
303.0000;0.9727;3.2890;
303.3000;0.9711;3.2819;
303.6000;0.9711;3.2771;
303.9000;0.9735;3.2723;
304.2000;0.9727;3.2675;
304.5000;0.9727;3.2675;
304.8000;0.9735;3.2747;
305.1000;0.9752;3.2795;
305.4000;0.9719;3.2771;
305.7000;0.9752;3.2771;
306.0000;0.9752;3.2843;
306.3000;0.9678;3.2652;
306.6000;0.9735;3.2795;
306.9000;0.9735;3.2843;
307.2000;0.9752;3.2914;
307.5000;0.9735;3.2866;
307.8000;0.9719;3.2890;
308.1000;0.9727;3.2890;
308.4000;0.9719;3.2795;
308.7000;0.9695;3.2723;
309.0000;0.9727;3.2795;
309.3000;0.9678;3.2795;
309.6000;0.9719;3.2914;
309.9000;0.9727;3.3010;
310.2000;0.9711;3.2986;
310.5000;0.9719;3.2962;
310.8000;0.9662;3.2843;
311.1000;0.9735;3.3081;
311.4000;0.9744;3.3081;
311.7000;0.9703;3.3081;
312.0000;0.9735;3.3153;
312.3000;0.9735;3.3177;
312.6000;0.9727;3.3153;
312.9000;0.9727;3.3105;
313.2000;0.9727;3.2986;
313.5000;0.9711;3.2866;
313.8000;0.9768;3.2914;
314.1000;0.9727;3.2843;
314.4000;0.9735;3.2890;
314.7000;0.9703;3.2795;
315.0000;0.9727;3.2795;
315.3000;0.9744;3.2795;
315.6000;0.9687;3.2604;
315.9000;0.9735;3.2723;
316.2000;0.9752;3.2795;
316.5000;0.9735;3.2795;
316.8000;0.9711;3.2890;
317.1000;0.9744;3.2986;
317.4000;0.9744;3.2986;
317.7000;0.9727;3.2986;
318.0000;0.9776;3.3153;
318.3000;0.9711;3.2986;
318.6000;0.9727;3.2986;
318.9000;0.9768;3.3081;
319.2000;0.9711;3.2866;
319.5000;0.9760;3.2986;
319.8000;0.9735;3.2938;
320.1000;0.9727;3.2938;
320.4000;0.9735;3.3010;
320.7000;0.9744;3.3033;
321.0000;0.9727;3.3033;
321.3000;0.9735;3.2962;
321.6000;0.9727;3.3010;
321.9000;0.9719;3.2986;
322.2000;0.9727;3.3033;
322.5000;0.9719;3.3057;
322.8000;0.9711;3.2938;
323.1000;0.9711;3.2914;
323.4000;0.9719;3.2938;
323.7000;0.9719;3.2795;
324.0000;0.9703;3.2771;
324.3000;0.9719;3.2795;
324.6000;0.9670;3.2747;
324.9000;0.9768;3.2986;
325.2000;0.9727;3.2962;
325.5000;0.9719;3.2843;
325.8000;0.9654;3.2675;
326.1000;0.9727;3.2914;
326.4000;0.9727;3.2914;
326.7000;0.9752;3.2914;
327.0000;0.9752;3.2938;
327.3000;0.9744;3.2962;
327.6000;0.9719;3.2890;
327.9000;0.9792;3.2986;
328.2000;0.9727;3.2890;
328.5000;0.9727;3.2986;
328.8000;0.9744;3.2986;
329.1000;0.9727;3.2938;
329.4000;0.9711;3.2914;
329.7000;0.9703;3.2938;
330.0000;0.9744;3.3057;
330.3000;0.9768;3.3177;
330.6000;0.9735;3.3153;
330.9000;0.9744;3.3177;
331.2000;0.9744;3.3081;
331.5000;0.9744;3.2986;
331.8000;0.9695;3.2890;
332.1000;0.9719;3.2938;
332.4000;0.9744;3.3033;
332.7000;0.9727;3.3010;
333.0000;0.9719;3.2962;
333.3000;0.9735;3.2962;
333.6000;0.9735;3.2986;
333.9000;0.9719;3.3010;
334.2000;0.9719;3.2986;
334.5000;0.9727;3.2986;
334.8000;0.9744;3.3033;
335.1000;0.9711;3.3010;
335.4000;0.9719;3.3010;
335.7000;0.9719;3.2962;
336.0000;0.9662;3.2819;
336.3000;0.9727;3.2962;
336.6000;0.9735;3.3057;
336.9000;0.9719;3.3010;
337.2000;0.9744;3.3033;
337.5000;0.9727;3.2962;
337.8000;0.9711;3.2914;
338.1000;0.9703;3.2890;
338.4000;0.9744;3.2938;
338.7000;0.9719;3.2843;
339.0000;0.9727;3.2843;
339.3000;0.9711;3.2795;
339.6000;0.9719;3.2795;
339.9000;0.9711;3.2795;
340.2000;0.9752;3.2962;
340.5000;0.9719;3.2914;
340.8000;0.9719;3.2914;
341.1000;0.9825;3.3129;
341.4000;0.9744;3.2914;
341.7000;0.9711;3.2866;
342.0000;0.9703;3.2819;
342.3000;0.9727;3.2938;
342.6000;0.9727;3.2938;
342.9000;0.9703;3.2914;
343.2000;0.9727;3.2986;
343.5000;0.9727;3.3033;
343.8000;0.9727;3.3033;
344.1000;0.9735;3.3057;
344.4000;0.9727;3.2962;
344.7000;0.9719;3.2986;
345.0000;0.9719;3.2986;
345.3000;0.9719;3.2962;
345.6000;0.9735;3.2986;
345.9000;0.9719;3.2938;
346.2000;0.9735;3.2986;
346.5000;0.9727;3.2986;
346.8000;0.9752;3.3033;
347.1000;0.9727;3.2986;
347.4000;0.9719;3.2938;
347.7000;0.9678;3.2771;
348.0000;0.9744;3.2938;
348.3000;0.9735;3.2771;
348.6000;0.9711;3.2747;
348.9000;0.9744;3.2771;
349.2000;0.9719;3.2843;
349.5000;0.9711;3.2866;
349.8000;0.9711;3.2890;
350.1000;0.9719;3.2938;
350.4000;0.9719;3.2890;
350.7000;0.9727;3.2914;
351.0000;0.9719;3.3010;
351.3000;0.9735;3.3010;
351.6000;0.9735;3.2986;
351.9000;0.9727;3.2986;
352.2000;0.9687;3.2866;
352.5000;0.9719;3.2890;
352.8000;0.9752;3.2986;
353.1000;0.9719;3.2938;
353.4000;0.9735;3.2986;
353.7000;0.9719;3.2962;
354.0000;0.9727;3.2938;
354.3000;0.9719;3.2938;
354.6000;0.9719;3.3010;
354.9000;0.9735;3.2962;
355.2000;0.9735;3.2914;
355.5000;0.9744;3.2938;
355.8000;0.9727;3.2866;
356.1000;0.9752;3.2819;
356.4000;0.9727;3.2795;
356.7000;0.9801;3.2938;
357.0000;0.9735;3.2843;
357.3000;0.9735;3.2819;
357.6000;0.9719;3.2819;
357.9000;0.9727;3.2890;
358.2000;0.9727;3.2819;
358.5000;0.9727;3.2771;
358.8000;0.9711;3.2747;
359.1000;0.9711;3.2771;
359.4000;0.9711;3.2795;
359.7000;0.9719;3.2819;
360.0000;0.9727;3.2795;
360.3000;0.9744;3.2914;
360.6000;0.9678;3.2819;
360.9000;0.9727;3.2914;
361.2000;0.9695;3.2890;
361.5000;0.9703;3.2843;
361.8000;0.9711;3.2914;
362.1000;0.9719;3.2890;
362.4000;0.9711;3.2771;
362.7000;0.9711;3.2723;
363.0000;0.9719;3.2771;
363.3000;0.9703;3.2699;
363.6000;0.9711;3.2723;
363.9000;0.9662;3.2699;
364.2000;0.9735;3.2866;
364.5000;0.9744;3.2843;
364.8000;0.9719;3.2795;
365.1000;0.9735;3.2771;
365.4000;0.9735;3.2747;
365.7000;0.9735;3.2771;
366.0000;0.9719;3.2699;
366.3000;0.9752;3.2795;
366.6000;0.9727;3.2699;
366.9000;0.9735;3.2675;
367.2000;0.9735;3.2723;
367.5000;0.9662;3.2604;
367.8000;0.9744;3.2699;
368.1000;0.9735;3.2723;
368.4000;0.9735;3.2771;
368.7000;0.9719;3.2723;
369.0000;0.9735;3.2747;
369.3000;0.9719;3.2771;
369.6000;0.9768;3.2914;
369.9000;0.9727;3.2795;
370.2000;0.9711;3.2938;
370.5000;0.9711;3.2938;
370.8000;0.9727;3.2986;
371.1000;0.9719;3.2986;
371.4000;0.9760;3.2986;
371.7000;0.9735;3.2866;
372.0000;0.9735;3.2938;
372.3000;0.9711;3.2986;
372.6000;0.9711;3.2914;
372.9000;0.9735;3.2914;
373.2000;0.9719;3.2795;
373.5000;0.9727;3.2795;
373.8000;0.9711;3.2795;
374.1000;0.9719;3.2866;
374.4000;0.9727;3.2771;
374.7000;0.9735;3.2699;
375.0000;0.9727;3.2747;
375.3000;0.9711;3.2699;
375.6000;0.9711;3.2723;
375.9000;0.9735;3.2747;
376.2000;0.9727;3.2723;
376.5000;0.9695;3.2604;
376.8000;0.9752;3.2747;
377.1000;0.9744;3.2771;
377.4000;0.9719;3.2675;
377.7000;0.9711;3.2652;
378.0000;0.9711;3.2580;
378.3000;0.9687;3.2532;
378.6000;0.9727;3.2652;
378.9000;0.9711;3.2580;
379.2000;0.9719;3.2675;
379.5000;0.9752;3.2866;
379.8000;0.9727;3.2962;
380.1000;0.9703;3.2914;
380.4000;0.9703;3.2890;
380.7000;0.9695;3.2866;
381.0000;0.9727;3.2986;
381.3000;0.9711;3.2890;
381.6000;0.9727;3.2938;
381.9000;0.9695;3.2866;
382.2000;0.9752;3.2962;
382.5000;0.9727;3.2890;
382.8000;0.9695;3.2795;
383.1000;0.9678;3.2771;
383.4000;0.9727;3.2914;
383.7000;0.9760;3.3057;
384.0000;0.9711;3.2914;
384.3000;0.9760;3.2938;
384.6000;0.9744;3.2938;
384.9000;0.9735;3.2866;
385.2000;0.9768;3.2914;
385.5000;0.9744;3.2795;
385.8000;0.9646;3.2604;
386.1000;0.9719;3.2747;
386.4000;0.9719;3.2723;
386.7000;0.9695;3.2675;
387.0000;0.9727;3.2652;
387.3000;0.9727;3.2604;
387.6000;0.9711;3.2485;
387.9000;0.9735;3.2532;
388.2000;0.9711;3.2437;
388.5000;0.9719;3.2365;
388.8000;0.9719;3.2437;
389.1000;0.9719;3.2485;
389.4000;0.9727;3.2604;
389.7000;0.9744;3.2675;
390.0000;0.9760;3.2747;
390.3000;0.9695;3.2604;
390.6000;0.9719;3.2771;
390.9000;0.9711;3.2723;
391.2000;0.9719;3.2747;
391.5000;0.9752;3.2723;
391.8000;0.9719;3.2556;
392.1000;0.9727;3.2628;
392.4000;0.9678;3.2485;
392.7000;0.9695;3.2508;
393.0000;0.9703;3.2580;
393.3000;0.9703;3.2675;
393.6000;0.9695;3.2604;
393.9000;0.9727;3.2652;
394.2000;0.9719;3.2675;
394.5000;0.9719;3.2747;
394.8000;0.9727;3.2699;
395.1000;0.9735;3.2723;
395.4000;0.9711;3.2771;
395.7000;0.9735;3.2819;
396.0000;0.9727;3.2843;
396.3000;0.9735;3.2866;
396.6000;0.9760;3.2938;
396.9000;0.9727;3.2890;
397.2000;0.9719;3.2962;
397.5000;0.9719;3.2914;
397.8000;0.9719;3.2962;
398.1000;0.9719;3.3033;
398.4000;0.9719;3.3010;
398.7000;0.9711;3.2986;
399.0000;0.9719;3.2962;
399.3000;0.9744;3.3057;
399.6000;0.9760;3.3081;
399.9000;0.9727;3.2938;
400.2000;0.9703;3.2938;
400.5000;0.9711;3.2962;
400.8000;0.9719;3.2890;
401.1000;0.9711;3.2819;
401.4000;0.9719;3.2819;
401.7000;0.9703;3.2747;
402.0000;0.9727;3.2771;
402.3000;0.9727;3.2747;
402.6000;0.9727;3.2699;
402.9000;0.9711;3.2723;
403.2000;0.9719;3.2747;
403.5000;0.9719;3.2747;
403.8000;0.9752;3.2890;
404.1000;0.9735;3.2914;
404.4000;0.9711;3.2795;
404.7000;0.9719;3.2795;
405.0000;0.9735;3.2819;
405.3000;0.9703;3.2723;
405.6000;0.9735;3.2771;
405.9000;0.9678;3.2723;
406.2000;0.9760;3.2890;
406.5000;0.9719;3.2866;
406.8000;0.9752;3.2914;
407.1000;0.9687;3.2866;
407.4000;0.9711;3.2843;
407.7000;0.9719;3.2819;
408.0000;0.9727;3.2866;
408.3000;0.9703;3.2843;
408.6000;0.9711;3.2890;
408.9000;0.9719;3.2890;
409.2000;0.9711;3.2938;
409.5000;0.9727;3.2938;
409.8000;0.9711;3.2986;
410.1000;0.9801;3.3129;
410.4000;0.9719;3.2962;
410.7000;0.9752;3.2938;
411.0000;0.9727;3.2819;
411.3000;0.9744;3.2890;
411.6000;0.9719;3.2747;
411.9000;0.9711;3.2771;
412.2000;0.9703;3.2890;
412.5000;0.9703;3.2819;
412.8000;0.9711;3.2795;
413.1000;0.9719;3.2890;
413.4000;0.9662;3.2699;
413.7000;0.9703;3.2843;
414.0000;0.9735;3.2843;
414.3000;0.9719;3.2866;
414.6000;0.9711;3.2771;
414.9000;0.9695;3.2747;
415.2000;0.9719;3.2771;
415.5000;0.9760;3.2890;
415.8000;0.9711;3.2866;
416.1000;0.9727;3.2866;
416.4000;0.9735;3.2866;
416.7000;0.9841;3.3129;
417.0000;0.9727;3.2962;
417.3000;0.9719;3.2914;
417.6000;0.9719;3.2843;
417.9000;0.9727;3.2795;
418.2000;0.9727;3.2819;
418.5000;0.9719;3.2938;
418.8000;0.9817;3.3177;
419.1000;0.9727;3.2795;
419.4000;0.9703;3.2771;
419.7000;0.9719;3.2771;
420.0000;0.9678;3.2771;
420.3000;0.9727;3.2795;
420.6000;0.9719;3.2747;
420.9000;0.9711;3.2747;
421.2000;0.9719;3.2747;
421.5000;0.9711;3.2699;
421.8000;0.9719;3.2819;
422.1000;0.9735;3.2866;
422.4000;0.9695;3.2771;
422.7000;0.9703;3.2890;
423.0000;0.9727;3.3010;
423.3000;0.9719;3.3033;
423.6000;0.9727;3.3057;
423.9000;0.9719;3.2986;
424.2000;0.9719;3.2962;
424.5000;0.9727;3.2938;
424.8000;0.9703;3.2914;
425.1000;0.9719;3.2890;
425.4000;0.9719;3.2890;
425.7000;0.9613;3.2628;
426.0000;0.9711;3.2866;
426.3000;0.9719;3.2938;
426.6000;0.9687;3.2890;
426.9000;0.9711;3.3010;
427.2000;0.9703;3.2986;
427.5000;0.9744;3.2986;
427.8000;0.9727;3.3010;
428.1000;0.9711;3.3010;
428.4000;0.9719;3.3033;
428.7000;0.9735;3.3010;
429.0000;0.9744;3.2938;
429.3000;0.9703;3.2866;
429.6000;0.9719;3.2843;
429.9000;0.9719;3.2819;
430.2000;0.9711;3.2699;
430.5000;0.9744;3.2747;
430.8000;0.9678;3.2604;
431.1000;0.9711;3.2675;
431.4000;0.9711;3.2747;
431.7000;0.9727;3.2723;
432.0000;0.9727;3.2723;
432.3000;0.9727;3.2747;
432.6000;0.9703;3.2723;
432.9000;0.9703;3.2819;
433.2000;0.9752;3.3010;
433.5000;0.9719;3.2795;
433.8000;0.9711;3.2795;
434.1000;0.9703;3.2819;
434.4000;0.9760;3.2914;
434.7000;0.9695;3.2747;
435.0000;0.9711;3.2843;
435.3000;0.9727;3.2914;
435.6000;0.9719;3.2962;
435.9000;0.9727;3.2866;
436.2000;0.9711;3.2843;
436.5000;0.9809;3.3105;
436.8000;0.9735;3.2938;
437.1000;0.9744;3.2938;
437.4000;0.9719;3.2914;
437.7000;0.9719;3.2938;
438.0000;0.9711;3.3010;
438.3000;0.9719;3.3057;
438.6000;0.9703;3.2938;
438.9000;0.9760;3.3081;
439.2000;0.9695;3.2890;
439.5000;0.9638;3.2747;
439.8000;0.9744;3.3033;
440.1000;0.9703;3.2914;
440.4000;0.9711;3.2866;
440.7000;0.9719;3.2914;
441.0000;0.9711;3.2914;
441.3000;0.9703;3.2866;
441.6000;0.9630;3.2675;
441.9000;0.9711;3.2771;
442.2000;0.9695;3.2819;
442.5000;0.9711;3.2795;
442.8000;0.9792;3.3033;
443.1000;0.9711;3.2819;
443.4000;0.9719;3.2866;
443.7000;0.9703;3.2795;
444.0000;0.9752;3.2843;
444.3000;0.9711;3.2747;
444.6000;0.9776;3.2962;
444.9000;0.9711;3.2819;
445.2000;0.9695;3.2795;
445.5000;0.9678;3.2723;
445.8000;0.9711;3.2795;
446.1000;0.9719;3.2771;
446.4000;0.9719;3.2771;
446.7000;0.9703;3.2723;
447.0000;0.9727;3.2795;
447.3000;0.9711;3.2699;
447.6000;0.9687;3.2675;
447.9000;0.9703;3.2771;
448.2000;0.9744;3.2843;
448.5000;0.9776;3.2843;
448.8000;0.9719;3.2723;
449.1000;0.9695;3.2723;
449.4000;0.9711;3.2747;
449.7000;0.9711;3.2747;
450.0000;0.9744;3.2866;
450.3000;0.9711;3.2771;
450.6000;0.9727;3.2866;
450.9000;0.9719;3.2890;
451.2000;0.9703;3.2819;
451.5000;0.9711;3.2795;
451.8000;0.9719;3.2843;
452.1000;0.9727;3.2843;
452.4000;0.9727;3.2890;
452.7000;0.9719;3.2890;
453.0000;0.9719;3.2866;
453.3000;0.9735;3.2914;
453.6000;0.9719;3.2866;
453.9000;0.9727;3.2723;
454.2000;0.9711;3.2652;
454.5000;0.9695;3.2580;
454.8000;0.9727;3.2723;
455.1000;0.9727;3.2747;
455.4000;0.9719;3.2723;
455.7000;0.9695;3.2699;
456.0000;0.9719;3.2771;
456.3000;0.9735;3.2866;
456.6000;0.9687;3.2747;
456.9000;0.9735;3.2843;
457.2000;0.9719;3.2843;
457.5000;0.9727;3.2771;
457.8000;0.9719;3.2771;
458.1000;0.9727;3.2747;
458.4000;0.9752;3.2795;
458.7000;0.9760;3.2795;
459.0000;0.9711;3.2628;
459.3000;0.9703;3.2580;
459.6000;0.9695;3.2652;
459.9000;0.9695;3.2699;
460.2000;0.9703;3.2723;
460.5000;0.9687;3.2580;
460.8000;0.9735;3.2628;
461.1000;0.9744;3.2604;
461.4000;0.9703;3.2485;
461.7000;0.9711;3.2604;
462.0000;0.9744;3.2699;
462.3000;0.9735;3.2723;
462.6000;0.9727;3.2723;
462.9000;0.9735;3.2747;
463.2000;0.9703;3.2771;
463.5000;0.9703;3.2819;
463.8000;0.9719;3.2866;
464.1000;0.9711;3.2890;
464.4000;0.9711;3.2986;
464.7000;0.9703;3.3105;
465.0000;0.9719;3.3201;
465.3000;0.9711;3.3248;
465.6000;0.9703;3.3153;
465.9000;0.9719;3.3153;
466.2000;0.9719;3.3129;
466.5000;0.9703;3.3081;
466.8000;0.9695;3.3081;
467.1000;0.9719;3.3057;
467.4000;0.9719;3.3033;
467.7000;0.9719;3.3057;
468.0000;0.9711;3.3033;
468.3000;0.9719;3.2986;
468.6000;0.9703;3.2938;
468.9000;0.9719;3.2938;
469.2000;0.9678;3.2914;
469.5000;0.9752;3.2962;
469.8000;0.9719;3.2795;
470.1000;0.9744;3.2771;
470.4000;0.9719;3.2675;
470.7000;0.9703;3.2723;
471.0000;0.9687;3.2675;
471.3000;0.9719;3.2771;
471.6000;0.9719;3.2819;
471.9000;0.9711;3.2795;
472.2000;0.9735;3.2843;
472.5000;0.9711;3.2914;
472.8000;0.9727;3.3033;
473.1000;0.9703;3.2962;
473.4000;0.9597;3.2652;
473.7000;0.9735;3.3081;
474.0000;0.9703;3.3057;
474.3000;0.9719;3.3105;
474.6000;0.9784;3.3153;
474.9000;0.9719;3.2986;
475.2000;0.9703;3.2938;
475.5000;0.9719;3.3010;
475.8000;0.9703;3.2962;
476.1000;0.9727;3.2962;
476.4000;0.9719;3.2914;
476.7000;0.9727;3.2890;
477.0000;0.9711;3.2962;
477.3000;0.9744;3.3010;
477.6000;0.9735;3.2914;
477.9000;0.9735;3.2938;
478.2000;0.9711;3.2986;
478.5000;0.9687;3.2986;
478.8000;0.9744;3.3105;
479.1000;0.9711;3.2986;
479.4000;0.9727;3.3010;
479.7000;0.9735;3.3033;
480.0000;0.9711;3.2962;
480.3000;0.9760;3.3081;
480.6000;0.9654;3.2819;
480.9000;0.9703;3.2938;
481.2000;0.9687;3.2962;
481.5000;0.9727;3.3057;
481.8000;0.9695;3.3033;
482.1000;0.9695;3.2962;
482.4000;0.9744;3.3033;
482.7000;0.9719;3.2938;
483.0000;0.9719;3.2914;
483.3000;0.9735;3.3033;
483.6000;0.9687;3.2866;
483.9000;0.9727;3.2938;
484.2000;0.9678;3.2819;
484.5000;0.9719;3.2914;
484.8000;0.9727;3.2986;
485.1000;0.9711;3.2986;
485.4000;0.9711;3.3010;
485.7000;0.9695;3.3010;
486.0000;0.9695;3.3033;
486.3000;0.9735;3.3010;
486.6000;0.9727;3.3081;
486.9000;0.9695;3.3010;
487.2000;0.9719;3.3129;
487.5000;0.9711;3.3201;
487.8000;0.9719;3.3272;
488.1000;0.9752;3.3272;
488.4000;0.9719;3.3129;
488.7000;0.9711;3.3081;
489.0000;0.9719;3.3010;
489.3000;0.9727;3.2986;
489.6000;0.9711;3.2962;
489.9000;0.9711;3.3010;
490.2000;0.9727;3.2986;
490.5000;0.9703;3.2866;
490.8000;0.9711;3.2771;
491.1000;0.9695;3.2699;
491.4000;0.9711;3.2771;
491.7000;0.9735;3.2747;
492.0000;0.9719;3.2652;
492.3000;0.9695;3.2652;
492.6000;0.9703;3.2747;
492.9000;0.9719;3.2819;
493.2000;0.9719;3.2771;
493.5000;0.9719;3.2795;
493.8000;0.9727;3.2771;
494.1000;0.9719;3.2795;
494.4000;0.9695;3.2819;
494.7000;0.9719;3.2890;
495.0000;0.9703;3.2819;
495.3000;0.9719;3.2843;
495.6000;0.9589;3.2580;
495.9000;0.9703;3.2890;
496.2000;0.9687;3.2843;
496.5000;0.9687;3.2843;
496.8000;0.9703;3.2914;
497.1000;0.9711;3.2962;
497.4000;0.9703;3.2914;
497.7000;0.9768;3.3010;
498.0000;0.9711;3.2962;
498.3000;0.9703;3.2914;
498.6000;0.9687;3.2866;
498.9000;0.9711;3.2938;
499.2000;0.9711;3.2866;
499.5000;0.9711;3.2866;
499.8000;0.9711;3.2843;
500.1000;0.9703;3.2843;
500.4000;0.9703;3.2890;
500.7000;0.9711;3.2914;
501.0000;0.9703;3.2890;
501.3000;0.9695;3.2914;
501.6000;0.9687;3.2843;
501.9000;0.9703;3.2938;
502.2000;0.9678;3.2843;
502.5000;0.9695;3.2723;
502.8000;0.9735;3.2771;
503.1000;0.9735;3.2819;
503.4000;0.9719;3.2723;
503.7000;0.9719;3.2723;
504.0000;0.9760;3.2866;
504.3000;0.9727;3.2795;
504.6000;0.9719;3.2747;
504.9000;0.9711;3.2652;
505.2000;0.9711;3.2723;
505.5000;0.9703;3.2723;
505.8000;0.9711;3.2771;
506.1000;0.9638;3.2652;
506.4000;0.9670;3.2675;
506.7000;0.9711;3.2795;
507.0000;0.9670;3.2747;
507.3000;0.9703;3.2890;
507.6000;0.9727;3.2914;
507.9000;0.9719;3.2843;
508.2000;0.9801;3.3057;
508.5000;0.9662;3.2843;
508.8000;0.9678;3.2843;
509.1000;0.9703;3.2914;
509.4000;0.9703;3.2819;
509.7000;0.9711;3.2747;
510.0000;0.9703;3.2723;
510.3000;0.9703;3.2723;
510.6000;0.9678;3.2628;
510.9000;0.9719;3.2747;
511.2000;0.9727;3.2771;
511.5000;0.9744;3.2747;
511.8000;0.9727;3.2628;
512.1000;0.9727;3.2652;
512.4000;0.9711;3.2652;
512.7000;0.9695;3.2508;
513.0000;0.9711;3.2532;
513.3000;0.9695;3.2532;
513.6000;0.9703;3.2580;
513.9000;0.9695;3.2532;
514.2000;0.9719;3.2604;
514.5000;0.9687;3.2532;
514.8000;0.9703;3.2628;
515.1000;0.9703;3.2628;
515.4000;0.9711;3.2699;
515.7000;0.9735;3.2747;
516.0000;0.9703;3.2628;
516.3000;0.9695;3.2628;
516.6000;0.9727;3.2723;
516.9000;0.9752;3.2747;
517.2000;0.9695;3.2604;
517.5000;0.9719;3.2628;
517.8000;0.9695;3.2556;
518.1000;0.9703;3.2675;
518.4000;0.9711;3.2747;
518.7000;0.9670;3.2652;
519.0000;0.9719;3.2771;
519.3000;0.9695;3.2628;
519.6000;0.9744;3.2843;
519.9000;0.9711;3.2795;
520.2000;0.9711;3.2771;
520.5000;0.9752;3.2914;
520.8000;0.9703;3.2747;
521.1000;0.9727;3.2723;
521.4000;0.9695;3.2652;
521.7000;0.9703;3.2675;
522.0000;0.9703;3.2652;
522.3000;0.9711;3.2628;
522.6000;0.9711;3.2699;
522.9000;0.9711;3.2699;
523.2000;0.9703;3.2723;
523.5000;0.9719;3.2771;
523.8000;0.9719;3.2747;
524.1000;0.9703;3.2771;
524.4000;0.9687;3.2747;
524.7000;0.9711;3.2723;
525.0000;0.9703;3.2699;
525.3000;0.9687;3.2628;
525.6000;0.9687;3.2652;
525.9000;0.9703;3.2652;
526.2000;0.9703;3.2723;
526.5000;0.9695;3.2699;
526.8000;0.9695;3.2652;
527.1000;0.9752;3.2819;
527.4000;0.9719;3.2843;
527.7000;0.9703;3.2747;
528.0000;0.9678;3.2699;
528.3000;0.9711;3.2771;
528.6000;0.9703;3.2914;
528.9000;0.9695;3.2890;
529.2000;0.9670;3.2866;
529.5000;0.9695;3.2938;
529.8000;0.9662;3.2866;
530.1000;0.9678;3.2866;
530.4000;0.9719;3.2843;
530.7000;0.9703;3.2747;
531.0000;0.9719;3.2866;
531.3000;0.9703;3.2843;
531.6000;0.9687;3.2843;
531.9000;0.9760;3.2962;
532.2000;0.9711;3.2986;
532.5000;0.9711;3.2938;
532.8000;0.9727;3.2890;
533.1000;0.9719;3.2819;
533.4000;0.9711;3.2843;
533.7000;0.9695;3.2771;
534.0000;0.9703;3.2843;
534.3000;0.9711;3.2890;
534.6000;0.9630;3.2675;
534.9000;0.9695;3.2699;
535.2000;0.9695;3.2675;
535.5000;0.9727;3.2795;
535.8000;0.9703;3.2723;
536.1000;0.9695;3.2771;
536.4000;0.9711;3.2866;
536.7000;0.9687;3.2843;
537.0000;0.9711;3.2890;
537.3000;0.9719;3.2890;
537.6000;0.9719;3.2914;
537.9000;0.9703;3.2843;
538.2000;0.9687;3.2843;
538.5000;0.9662;3.2771;
538.8000;0.9630;3.2675;
539.1000;0.9711;3.2819;
539.4000;0.9703;3.2914;
539.7000;0.9727;3.2890;
540.0000;0.9711;3.2843;
540.3000;0.9719;3.2866;
540.6000;0.9711;3.2795;
540.9000;0.9687;3.2747;
541.2000;0.9638;3.2580;
541.5000;0.9711;3.2819;
541.8000;0.9703;3.2819;
542.1000;0.9662;3.2723;
542.4000;0.9654;3.2652;
542.7000;0.9719;3.2771;
543.0000;0.9695;3.2675;
543.3000;0.9735;3.2771;
543.6000;0.9768;3.2890;
543.9000;0.9719;3.2819;
544.2000;0.9711;3.2795;
544.5000;0.9735;3.2795;
544.8000;0.9703;3.2699;
545.1000;0.9703;3.2675;
545.4000;0.9711;3.2675;
545.7000;0.9727;3.2699;
546.0000;0.9695;3.2652;
546.3000;0.9727;3.2819;
546.6000;0.9711;3.2771;
546.9000;0.9719;3.2795;
547.2000;0.9711;3.2795;
547.5000;0.9719;3.2819;
547.8000;0.9711;3.2771;
548.1000;0.9711;3.2771;
548.4000;0.9719;3.2866;
548.7000;0.9727;3.2795;
549.0000;0.9727;3.2819;
549.3000;0.9711;3.2795;
549.6000;0.9711;3.2843;
549.9000;0.9711;3.2843;
550.2000;0.9711;3.2890;
550.5000;0.9711;3.2866;
550.8000;0.9703;3.2914;
551.1000;0.9695;3.2914;
551.4000;0.9687;3.2914;
551.7000;0.9711;3.2938;
552.0000;0.9695;3.2962;
552.3000;0.9703;3.2938;
552.6000;0.9711;3.2866;
552.9000;0.9727;3.2890;
553.2000;0.9695;3.2771;
553.5000;0.9678;3.2675;
553.8000;0.9711;3.2866;
554.1000;0.9711;3.2819;
554.4000;0.9711;3.2723;
554.7000;0.9695;3.2628;
555.0000;0.9752;3.2723;
555.3000;0.9703;3.2652;
555.6000;0.9760;3.2747;
555.9000;0.9760;3.2843;
556.2000;0.9719;3.2795;
556.5000;0.9719;3.2771;
556.8000;0.9703;3.2795;
557.1000;0.9744;3.2890;
557.4000;0.9703;3.2795;
557.7000;0.9719;3.2866;
558.0000;0.9776;3.3033;
558.3000;0.9711;3.2914;
558.6000;0.9703;3.2938;
558.9000;0.9711;3.2914;
559.2000;0.9711;3.2938;
559.5000;0.9711;3.2938;
559.8000;0.9760;3.3010;
560.1000;0.9735;3.2962;
560.4000;0.9703;3.2962;
560.7000;0.9711;3.3081;
561.0000;0.9703;3.3105;
561.3000;0.9711;3.3081;
561.6000;0.9678;3.3033;
561.9000;0.9695;3.3057;
562.2000;0.9719;3.2986;
562.5000;0.9695;3.2938;
562.8000;0.9703;3.2962;
563.1000;0.9695;3.2986;
563.4000;0.9670;3.3010;
563.7000;0.9695;3.3057;
564.0000;0.9703;3.3010;
564.3000;0.9711;3.3081;
564.6000;0.9711;3.3105;
564.9000;0.9695;3.3129;
565.2000;0.9711;3.3153;
565.5000;0.9711;3.3224;
565.8000;0.9695;3.3177;
566.1000;0.9711;3.3153;
566.4000;0.9703;3.3081;
566.7000;0.9703;3.3010;
567.0000;0.9719;3.3081;
567.3000;0.9687;3.2986;
567.6000;0.9687;3.2986;
567.9000;0.9703;3.2962;
568.2000;0.9711;3.2914;
568.5000;0.9687;3.2795;
568.8000;0.9711;3.2938;
569.1000;0.9711;3.2914;
569.4000;0.9735;3.2938;
569.7000;0.9711;3.2914;
570.0000;0.9719;3.2962;
570.3000;0.9711;3.2938;
570.6000;0.9711;3.2795;
570.9000;0.9703;3.2795;
571.2000;0.9703;3.2843;
571.5000;0.9711;3.2890;
571.8000;0.9695;3.2938;
572.1000;0.9711;3.3033;
572.4000;0.9711;3.2962;
572.7000;0.9719;3.2890;
573.0000;0.9687;3.2843;
573.3000;0.9703;3.2866;
573.6000;0.9719;3.2890;
573.9000;0.9711;3.2962;
574.2000;0.9727;3.2962;
574.5000;0.9703;3.2843;
574.8000;0.9695;3.2938;
575.1000;0.9687;3.2890;
575.4000;0.9662;3.2866;
575.7000;0.9711;3.2986;
576.0000;0.9719;3.2962;
576.3000;0.9678;3.2843;
576.6000;0.9638;3.2652;
576.9000;0.9727;3.2914;
577.2000;0.9768;3.3033;
577.5000;0.9719;3.3057;
577.8000;0.9695;3.3033;
578.1000;0.9703;3.3057;
578.4000;0.9719;3.3033;
578.7000;0.9711;3.3081;
579.0000;0.9687;3.3033;
579.3000;0.9776;3.3224;
579.6000;0.9735;3.3010;
579.9000;0.9703;3.2986;
580.2000;0.9687;3.2938;
580.5000;0.9678;3.2914;
580.8000;0.9711;3.2866;
581.1000;0.9695;3.2819;
581.4000;0.9719;3.2866;
581.7000;0.9711;3.2819;
582.0000;0.9703;3.2819;
582.3000;0.9703;3.2771;
582.6000;0.9711;3.2890;
582.9000;0.9695;3.2890;
583.2000;0.9727;3.2962;
583.5000;0.9719;3.2938;
583.8000;0.9654;3.2843;
584.1000;0.9711;3.3057;
584.4000;0.9711;3.2962;
584.7000;0.9711;3.2914;
585.0000;0.9703;3.2843;
585.3000;0.9695;3.2699;
585.6000;0.9678;3.2628;
585.9000;0.9695;3.2628;
586.2000;0.9719;3.2699;
586.5000;0.9695;3.2628;
586.8000;0.9703;3.2604;
587.1000;0.9687;3.2652;
587.4000;0.9638;3.2532;
587.7000;0.9711;3.2747;
588.0000;0.9695;3.2771;
588.3000;0.9695;3.2795;
588.6000;0.9695;3.2771;
588.9000;0.9695;3.2795;
589.2000;0.9719;3.2843;
589.5000;0.9613;3.2723;
589.8000;0.9687;3.2938;
590.1000;0.9687;3.2819;
590.4000;0.9792;3.3081;
590.7000;0.9703;3.2866;
591.0000;0.9711;3.2866;
591.3000;0.9687;3.2723;
591.6000;0.9703;3.2795;
591.9000;0.9703;3.2795;
592.2000;0.9695;3.2866;
592.5000;0.9711;3.2866;
592.8000;0.9695;3.2866;
593.1000;0.9703;3.2819;
593.4000;0.9703;3.2819;
593.7000;0.9711;3.2819;
594.0000;0.9703;3.2819;
594.3000;0.9719;3.2747;
594.6000;0.9719;3.2771;
594.9000;0.9719;3.2771;
595.2000;0.9703;3.2699;
595.5000;0.9719;3.2723;
595.8000;0.9744;3.2795;
596.1000;0.9687;3.2747;
596.4000;0.9662;3.2747;
596.7000;0.9687;3.2819;
597.0000;0.9678;3.2819;
597.3000;0.9670;3.2747;
597.6000;0.9695;3.2699;
597.9000;0.9703;3.2723;
598.2000;0.9687;3.2675;
598.5000;0.9711;3.2771;
598.8000;0.9719;3.2747;
599.1000;0.9703;3.2699;
599.4000;0.9703;3.2747;
599.7000;0.9703;3.2771;
600.0000;0.9735;3.2795;
600.3000;0.9735;3.2675;
600.6000;0.9735;3.2604;
600.9000;0.9727;3.2532;
601.2000;0.9687;3.2365;
601.5000;0.9613;3.2103;
601.8000;0.9573;3.1912;
602.1000;0.9573;3.1888;
602.4000;0.9434;3.1578;
602.7000;0.9385;3.1387;
603.0000;0.9337;3.1243;
603.3000;0.9271;3.1052;
603.6000;0.9223;3.0981;
603.9000;0.9174;3.0909;
604.2000;0.9109;3.0790;
604.5000;0.9084;3.0718;
604.8000;0.9011;3.0599;
605.1000;0.8987;3.0575;
605.4000;0.8930;3.0456;
605.7000;0.8881;3.0456;
606.0000;0.8848;3.0480;
606.3000;0.8799;3.0480;
606.6000;0.8767;3.0480;
606.9000;0.8677;3.0313;
607.2000;0.8710;3.0408;
607.5000;0.8685;3.0289;
607.8000;0.8661;3.0265;
608.1000;0.8620;3.0217;
608.4000;0.8580;3.0265;
608.7000;0.8547;3.0098;
609.0000;0.8506;3.0098;
609.3000;0.8490;3.0145;
609.6000;0.8466;3.0217;
609.9000;0.8376;3.0026;
610.2000;0.8400;3.0193;
610.5000;0.8433;3.0313;
610.8000;0.8344;3.0217;
611.1000;0.8344;3.0217;
611.4000;0.8352;3.0289;
611.7000;0.8246;3.0050;
612.0000;0.8262;3.0145;
612.3000;0.8254;3.0169;
612.6000;0.8107;2.9859;
612.9000;0.8189;3.0193;
613.2000;0.8059;2.9883;
613.5000;0.8148;3.0002;
613.8000;0.8140;3.0074;
614.1000;0.8107;3.0026;
614.4000;0.7993;2.9859;
614.7000;0.8067;3.0050;
615.0000;0.8034;2.9955;
615.3000;0.8026;2.9978;
615.6000;0.8010;3.0002;
615.9000;0.7969;2.9978;
616.2000;0.7969;3.0074;
616.5000;0.7937;3.0050;
616.8000;0.7937;3.0050;
617.1000;0.7904;3.0026;
617.4000;0.7896;3.0026;
617.7000;0.7871;2.9931;
618.0000;0.7880;3.0026;
618.3000;0.7839;2.9907;
618.6000;0.7839;2.9859;
618.9000;0.7823;2.9907;
619.2000;0.7774;2.9811;
619.5000;0.7774;2.9859;
619.8000;0.7782;2.9883;
620.1000;0.7782;3.0002;
620.4000;0.7709;2.9811;
620.7000;0.7733;2.9883;
621.0000;0.7684;2.9787;
621.3000;0.7692;2.9859;
621.6000;0.7668;2.9931;
621.9000;0.7603;2.9764;
622.2000;0.7660;2.9859;
622.5000;0.7611;2.9835;
622.8000;0.7627;2.9835;
623.1000;0.7586;2.9716;
623.4000;0.7578;2.9764;
623.7000;0.7578;2.9764;
624.0000;0.7570;2.9764;
624.3000;0.7554;2.9740;
624.6000;0.7546;2.9764;
624.9000;0.7546;2.9811;
625.2000;0.7530;2.9859;
625.5000;0.7538;2.9883;
625.8000;0.7546;2.9931;
626.1000;0.7473;2.9787;
626.4000;0.7497;2.9811;
626.7000;0.7440;2.9716;
627.0000;0.7432;2.9716;
627.3000;0.7440;2.9764;
627.6000;0.7448;2.9764;
627.9000;0.7440;2.9811;
628.2000;0.7424;2.9835;
628.5000;0.7399;2.9811;
628.8000;0.7391;2.9883;
629.1000;0.7375;2.9859;
629.4000;0.7350;2.9787;
629.7000;0.7367;2.9811;
630.0000;0.7375;2.9740;
630.3000;0.7334;2.9764;
630.6000;0.7326;2.9716;
630.9000;0.7318;2.9668;
631.2000;0.7326;2.9620;
631.5000;0.7293;2.9620;
631.8000;0.7293;2.9620;
632.1000;0.7277;2.9692;
632.4000;0.7253;2.9740;
632.7000;0.7253;2.9859;
633.0000;0.7253;2.9883;
633.3000;0.7253;2.9978;
633.6000;0.7179;2.9764;
633.9000;0.7236;2.9859;
634.2000;0.7220;2.9764;
634.5000;0.7188;2.9764;
634.8000;0.7204;2.9764;
635.1000;0.7188;2.9764;
635.4000;0.7171;2.9716;
635.7000;0.7082;2.9477;
636.0000;0.7171;2.9692;
636.3000;0.7163;2.9716;
636.6000;0.7171;2.9668;
636.9000;0.7171;2.9692;
637.2000;0.7131;2.9644;
637.5000;0.7155;2.9716;
637.8000;0.7188;2.9859;
638.1000;0.7114;2.9740;
638.4000;0.7123;2.9811;
638.7000;0.7114;2.9955;
639.0000;0.7106;2.9883;
639.3000;0.7114;2.9907;
639.6000;0.7082;2.9859;
639.9000;0.7066;2.9835;
640.2000;0.7057;2.9740;
640.5000;0.7049;2.9692;
640.8000;0.7057;2.9764;
641.1000;0.7033;2.9787;
641.4000;0.7025;2.9764;
641.7000;0.7041;2.9764;
642.0000;0.7009;2.9692;
642.3000;0.7000;2.9644;
642.6000;0.7017;2.9716;
642.9000;0.7041;2.9859;
643.2000;0.7000;2.9716;
643.5000;0.6984;2.9644;
643.8000;0.6992;2.9740;
644.1000;0.7009;2.9716;
644.4000;0.7025;2.9787;
644.7000;0.6984;2.9740;
645.0000;0.6960;2.9668;
645.3000;0.6968;2.9668;
645.6000;0.6960;2.9692;
645.9000;0.6935;2.9740;
646.2000;0.6943;2.9692;
646.5000;0.6935;2.9740;
646.8000;0.6935;2.9740;
647.1000;0.6911;2.9668;
647.4000;0.6919;2.9740;
647.7000;0.6886;2.9644;
648.0000;0.6919;2.9644;
648.3000;0.6911;2.9620;
648.6000;0.6878;2.9596;
648.9000;0.6878;2.9573;
649.2000;0.6911;2.9644;
649.5000;0.6911;2.9620;
649.8000;0.6895;2.9549;
650.1000;0.6919;2.9596;
650.4000;0.6870;2.9501;
650.7000;0.6886;2.9596;
651.0000;0.6862;2.9596;
651.3000;0.6854;2.9549;
651.6000;0.6862;2.9573;
651.9000;0.6935;2.9740;
652.2000;0.6854;2.9596;
652.5000;0.6854;2.9692;
652.8000;0.6772;2.9573;
653.1000;0.6829;2.9644;
653.4000;0.6821;2.9573;
653.7000;0.6821;2.9573;
654.0000;0.6805;2.9644;
654.3000;0.6821;2.9668;
654.6000;0.6805;2.9620;
654.9000;0.6772;2.9549;
655.2000;0.6805;2.9620;
655.5000;0.6789;2.9692;
655.8000;0.6781;2.9644;
656.1000;0.6789;2.9644;
656.4000;0.6707;2.9549;
656.7000;0.6772;2.9644;
657.0000;0.6772;2.9692;
657.3000;0.6764;2.9740;
657.6000;0.6748;2.9716;
657.9000;0.6756;2.9787;
658.2000;0.6764;2.9859;
658.5000;0.6748;2.9883;
658.8000;0.6699;2.9811;
659.1000;0.6732;2.9883;
659.4000;0.6748;2.9883;
659.7000;0.6724;2.9859;
660.0000;0.6756;2.9955;
660.3000;0.6707;2.9787;
660.6000;0.6740;2.9811;
660.9000;0.6716;2.9716;
661.2000;0.6707;2.9668;
661.5000;0.6707;2.9740;
661.8000;0.6716;2.9692;
662.1000;0.6707;2.9692;
662.4000;0.6707;2.9620;
662.7000;0.6707;2.9692;
663.0000;0.6732;2.9740;
663.3000;0.6691;2.9668;
663.6000;0.6691;2.9716;
663.9000;0.6691;2.9668;
664.2000;0.6626;2.9596;
664.5000;0.6683;2.9764;
664.8000;0.6659;2.9740;
665.1000;0.6675;2.9716;
665.4000;0.6667;2.9740;
665.7000;0.6675;2.9740;
666.0000;0.6634;2.9668;
666.3000;0.6642;2.9692;
666.6000;0.6650;2.9692;
666.9000;0.6667;2.9764;
667.2000;0.6634;2.9740;
667.5000;0.6610;2.9620;
667.8000;0.6650;2.9668;
668.1000;0.6634;2.9668;
668.4000;0.6634;2.9644;
668.7000;0.6561;2.9525;
669.0000;0.6618;2.9644;
669.3000;0.6618;2.9668;
669.6000;0.6634;2.9716;
669.9000;0.6602;2.9764;
670.2000;0.6602;2.9764;
670.5000;0.6642;2.9716;
670.8000;0.6642;2.9764;
671.1000;0.6610;2.9740;
671.4000;0.6439;2.9334;
671.7000;0.6618;2.9644;
672.0000;0.6634;2.9764;
672.3000;0.6602;2.9668;
672.6000;0.6618;2.9716;
672.9000;0.6626;2.9716;
673.2000;0.6585;2.9740;
673.5000;0.6593;2.9835;
673.8000;0.6642;2.9955;
674.1000;0.6593;2.9811;
674.4000;0.6528;2.9620;
674.7000;0.6577;2.9692;
675.0000;0.6577;2.9740;
675.3000;0.6577;2.9668;
675.6000;0.6642;2.9787;
675.9000;0.6577;2.9668;
676.2000;0.6553;2.9620;
676.5000;0.6553;2.9620;
676.8000;0.6553;2.9644;
677.1000;0.6553;2.9644;
677.4000;0.6536;2.9668;
677.7000;0.6553;2.9764;
678.0000;0.6536;2.9716;
678.3000;0.6545;2.9764;
678.6000;0.6520;2.9716;
678.9000;0.6569;2.9740;
679.2000;0.6553;2.9644;
679.5000;0.6528;2.9644;
679.8000;0.6528;2.9596;
680.1000;0.6504;2.9644;
680.4000;0.6528;2.9740;
680.7000;0.6504;2.9668;
681.0000;0.6536;2.9787;
681.3000;0.6512;2.9787;
681.6000;0.6520;2.9883;
681.9000;0.6496;2.9811;
682.2000;0.6471;2.9764;
682.5000;0.6528;2.9835;
682.8000;0.6496;2.9764;
683.1000;0.6496;2.9716;
683.4000;0.6488;2.9740;
683.7000;0.6496;2.9644;
684.0000;0.6479;2.9644;
684.3000;0.6479;2.9740;
684.6000;0.6545;2.9859;
684.9000;0.6479;2.9716;
685.2000;0.6471;2.9692;
685.5000;0.6471;2.9692;
685.8000;0.6479;2.9692;
686.1000;0.6479;2.9692;
686.4000;0.6463;2.9692;
686.7000;0.6488;2.9740;
687.0000;0.6447;2.9668;
687.3000;0.6496;2.9644;
687.6000;0.6479;2.9620;
687.9000;0.6488;2.9596;
688.2000;0.6463;2.9644;
688.5000;0.6504;2.9740;
688.8000;0.6439;2.9668;
689.1000;0.6488;2.9740;
689.4000;0.6455;2.9692;
689.7000;0.6463;2.9716;
690.0000;0.6512;2.9835;
690.3000;0.6471;2.9764;
690.6000;0.6422;2.9620;
690.9000;0.6422;2.9644;
691.2000;0.6528;2.9835;
691.5000;0.6447;2.9716;
691.8000;0.6374;2.9644;
692.1000;0.6447;2.9859;
692.4000;0.6431;2.9883;
692.7000;0.6439;2.9835;
693.0000;0.6422;2.9811;
693.3000;0.6398;2.9692;
693.6000;0.6406;2.9740;
693.9000;0.6422;2.9740;
694.2000;0.6406;2.9740;
694.5000;0.6398;2.9716;
694.8000;0.6414;2.9811;
695.1000;0.6414;2.9764;
695.4000;0.6382;2.9644;
695.7000;0.6447;2.9787;
696.0000;0.6317;2.9573;
696.3000;0.6422;2.9668;
696.6000;0.6447;2.9859;
696.9000;0.6398;2.9692;
697.2000;0.6390;2.9668;
697.5000;0.6406;2.9716;
697.8000;0.6398;2.9668;
698.1000;0.6382;2.9668;
698.4000;0.6398;2.9716;
698.7000;0.6398;2.9716;
699.0000;0.6398;2.9692;
699.3000;0.6390;2.9668;
699.6000;0.6398;2.9668;
699.9000;0.6382;2.9716;
700.2000;0.6406;2.9787;
700.5000;0.6406;2.9787;
700.8000;0.6390;2.9811;
701.1000;0.6390;3.0002;
701.4000;0.6390;3.0074;
701.7000;0.6374;3.0074;
702.0000;0.6374;3.0002;
702.3000;0.6374;2.9907;
702.6000;0.6374;2.9931;
702.9000;0.6357;2.9811;
703.2000;0.6374;2.9787;
703.5000;0.6390;2.9859;
703.8000;0.6390;2.9835;
704.1000;0.6382;2.9835;
704.4000;0.6374;2.9859;
704.7000;0.6455;3.0026;
705.0000;0.6382;2.9811;
705.3000;0.6382;2.9692;
705.6000;0.6422;2.9811;
705.9000;0.6357;2.9716;
706.2000;0.6365;2.9692;
706.5000;0.6422;2.9787;
706.8000;0.6292;2.9573;
707.1000;0.6357;2.9716;
707.4000;0.6317;2.9668;
707.7000;0.6341;2.9668;
708.0000;0.6341;2.9716;
708.3000;0.6349;2.9764;
708.6000;0.6357;2.9787;
708.9000;0.6317;2.9740;
709.2000;0.6341;2.9787;
709.5000;0.6365;2.9764;
709.8000;0.6382;2.9835;
710.1000;0.6333;2.9716;
710.4000;0.6357;2.9787;
710.7000;0.6333;2.9692;
711.0000;0.6349;2.9716;
711.3000;0.6349;2.9692;
711.6000;0.6349;2.9668;
711.9000;0.6325;2.9740;
712.2000;0.6333;2.9764;
712.5000;0.6317;2.9787;
712.8000;0.6317;2.9811;
713.1000;0.6292;2.9692;
713.4000;0.6333;2.9764;
713.7000;0.6317;2.9644;
714.0000;0.6333;2.9740;
714.3000;0.6317;2.9764;
714.6000;0.6317;2.9740;
714.9000;0.6341;2.9811;
715.2000;0.6333;2.9787;
715.5000;0.6333;2.9811;
715.8000;0.6276;2.9716;
716.1000;0.6292;2.9668;
716.4000;0.6317;2.9644;
716.7000;0.6317;2.9692;
717.0000;0.6309;2.9716;
717.3000;0.6284;2.9716;
717.6000;0.6317;2.9859;
717.9000;0.6309;2.9859;
718.2000;0.6317;2.9955;
718.5000;0.6219;2.9740;
718.8000;0.6292;2.9955;
719.1000;0.6300;2.9883;
719.4000;0.6309;2.9907;
719.7000;0.6349;2.9931;
720.0000;0.6317;2.9811;
720.3000;0.6309;2.9716;
720.6000;0.6276;2.9573;
720.9000;0.6284;2.9668;
721.2000;0.6284;2.9668;
721.5000;0.6284;2.9644;
721.8000;0.6317;2.9668;
722.1000;0.6300;2.9620;
722.4000;0.6284;2.9644;
722.7000;0.6284;2.9596;
723.0000;0.6300;2.9716;
723.3000;0.6284;2.9716;
723.6000;0.6276;2.9764;
723.9000;0.6300;2.9931;
724.2000;0.6284;2.9883;
724.5000;0.6292;2.9859;
724.8000;0.6292;2.9764;
725.1000;0.6284;2.9740;
725.4000;0.6284;2.9787;
725.7000;0.6268;2.9883;
726.0000;0.6243;2.9787;
726.3000;0.6227;2.9811;
726.6000;0.6292;2.9978;
726.9000;0.6260;3.0002;
727.2000;0.6284;3.0098;
727.5000;0.6268;3.0074;
727.8000;0.6252;3.0026;
728.1000;0.6292;3.0122;
728.4000;0.6243;3.0074;
728.7000;0.6260;3.0050;
729.0000;0.6252;3.0026;
729.3000;0.6284;2.9955;
729.6000;0.6276;2.9835;
729.9000;0.6235;2.9764;
730.2000;0.6243;2.9764;
730.5000;0.6260;2.9716;
730.8000;0.6260;2.9668;
731.1000;0.6252;2.9596;
731.4000;0.6252;2.9644;
731.7000;0.6268;2.9692;
732.0000;0.6235;2.9668;
732.3000;0.6276;2.9716;
732.6000;0.6268;2.9668;
732.9000;0.6252;2.9668;
733.2000;0.6235;2.9740;
733.5000;0.6268;2.9811;
733.8000;0.6252;2.9835;
734.1000;0.6260;2.9859;
734.4000;0.6276;2.9907;
734.7000;0.6260;2.9931;
735.0000;0.6260;2.9931;
735.3000;0.6260;2.9931;
735.6000;0.6260;2.9931;
735.9000;0.6219;2.9883;
736.2000;0.6243;3.0050;
736.5000;0.6235;3.0122;
736.8000;0.6235;3.0050;
737.1000;0.6276;3.0098;
737.4000;0.6243;2.9931;
737.7000;0.6227;2.9787;
738.0000;0.6235;2.9764;
738.3000;0.6243;2.9740;
738.6000;0.6227;2.9692;
738.9000;0.6243;2.9620;
739.2000;0.6227;2.9620;
739.5000;0.6243;2.9740;
739.8000;0.6162;2.9620;
740.1000;0.6219;2.9740;
740.4000;0.6243;2.9883;
740.7000;0.6243;2.9859;
741.0000;0.6260;2.9787;
741.3000;0.6219;2.9716;
741.6000;0.6227;2.9764;
741.9000;0.6203;2.9692;
742.2000;0.6227;2.9740;
742.5000;0.6243;2.9787;
742.8000;0.6186;2.9764;
743.1000;0.6227;2.9787;
743.4000;0.6235;2.9907;
743.7000;0.6227;2.9835;
744.0000;0.6203;2.9740;
744.3000;0.6235;2.9787;
744.6000;0.6235;2.9811;
744.9000;0.6195;2.9787;
745.2000;0.6243;2.9835;
745.5000;0.6227;2.9811;
745.8000;0.6219;2.9859;
746.1000;0.6235;2.9907;
746.4000;0.6219;2.9835;
746.7000;0.6219;2.9859;
747.0000;0.6227;2.9883;
747.3000;0.6211;2.9859;
747.6000;0.6203;2.9859;
747.9000;0.6211;2.9835;
748.2000;0.6219;2.9883;
748.5000;0.6211;2.9931;
748.8000;0.6211;3.0026;
749.1000;0.6195;2.9907;
749.4000;0.6211;2.9931;
749.7000;0.6227;2.9978;
750.0000;0.6211;2.9931;
750.3000;0.6211;2.9859;
750.6000;0.6195;2.9859;
750.9000;0.6211;2.9907;
751.2000;0.6203;2.9931;
751.5000;0.6203;3.0002;
751.8000;0.6203;3.0050;
752.1000;0.6211;3.0050;
752.4000;0.6195;2.9955;
752.7000;0.6219;2.9978;
753.0000;0.6203;2.9883;
753.3000;0.6178;2.9811;
753.6000;0.6211;2.9955;
753.9000;0.6186;2.9931;
754.2000;0.6186;2.9978;
754.5000;0.6203;3.0002;
754.8000;0.6186;3.0026;
755.1000;0.6178;2.9955;
755.4000;0.6203;2.9955;
755.7000;0.6227;3.0050;
756.0000;0.6195;3.0050;
756.3000;0.6178;2.9978;
756.6000;0.6195;3.0026;
756.9000;0.6162;3.0002;
757.2000;0.6186;3.0026;
757.5000;0.6178;3.0074;
757.8000;0.6178;3.0074;
758.1000;0.6170;3.0002;
758.4000;0.6195;3.0074;
758.7000;0.6195;3.0145;
759.0000;0.6121;2.9978;
759.3000;0.6170;2.9978;
759.6000;0.6162;2.9931;
759.9000;0.6219;2.9955;
760.2000;0.6186;2.9859;
760.5000;0.6178;2.9883;
760.8000;0.6170;2.9859;
761.1000;0.6162;2.9859;
761.4000;0.6170;2.9740;
761.7000;0.6162;2.9811;
762.0000;0.6178;2.9859;
762.3000;0.6195;2.9931;
762.6000;0.6211;2.9978;
762.9000;0.6170;2.9859;
763.2000;0.6138;2.9931;
763.5000;0.6162;2.9978;
763.8000;0.6170;2.9931;
764.1000;0.6154;2.9931;
764.4000;0.6170;2.9931;
764.7000;0.6186;2.9931;
765.0000;0.6170;2.9931;
765.3000;0.6170;3.0026;
765.6000;0.6162;2.9978;
765.9000;0.6235;3.0122;
766.2000;0.6162;3.0050;
766.5000;0.6227;3.0050;
766.8000;0.6138;2.9883;
767.1000;0.6089;2.9787;
767.4000;0.6178;3.0002;
767.7000;0.6195;3.0074;
768.0000;0.6154;2.9978;
768.3000;0.6121;2.9907;
768.6000;0.6162;3.0098;
768.9000;0.6195;3.0002;
769.2000;0.6162;2.9907;
769.5000;0.6186;2.9859;
769.8000;0.6186;2.9955;
770.1000;0.6162;2.9931;
770.4000;0.6178;2.9978;
770.7000;0.6170;2.9955;
771.0000;0.6162;2.9931;
771.3000;0.6154;2.9883;
771.6000;0.6154;2.9931;
771.9000;0.6170;2.9955;
772.2000;0.6162;2.9955;
772.5000;0.6154;2.9978;
772.8000;0.6162;3.0002;
773.1000;0.6162;3.0074;
773.4000;0.6162;3.0050;
773.7000;0.6146;3.0026;
774.0000;0.6162;3.0050;
774.3000;0.6203;3.0145;
774.6000;0.6154;3.0002;
774.9000;0.6154;2.9978;
775.2000;0.6170;2.9978;
775.5000;0.6138;2.9883;
775.8000;0.6203;2.9978;
776.1000;0.6146;2.9835;
776.4000;0.6154;2.9811;
776.7000;0.6162;2.9859;
777.0000;0.6154;2.9859;
777.3000;0.6162;2.9835;
777.6000;0.6146;2.9787;
777.9000;0.6154;2.9787;
778.2000;0.6146;2.9764;
778.5000;0.6154;2.9883;
778.8000;0.6162;2.9883;
779.1000;0.6154;2.9955;
779.4000;0.6138;2.9931;
779.7000;0.6146;2.9907;
780.0000;0.6146;2.9907;
780.3000;0.6170;3.0026;
780.6000;0.6178;2.9955;
780.9000;0.6138;2.9955;
781.2000;0.6154;3.0050;
781.5000;0.6170;3.0122;
781.8000;0.6138;3.0050;
782.1000;0.6138;3.0074;
782.4000;0.6138;3.0098;
782.7000;0.6186;3.0098;
783.0000;0.6154;2.9978;
783.3000;0.6121;2.9835;
783.6000;0.6138;2.9835;
783.9000;0.6121;2.9764;
784.2000;0.6154;2.9787;
784.5000;0.6162;2.9859;
784.8000;0.6121;2.9859;
785.1000;0.6129;2.9835;
785.4000;0.6113;2.9740;
785.7000;0.6121;2.9716;
786.0000;0.6138;2.9692;
786.3000;0.6154;2.9907;
786.6000;0.6162;2.9907;
786.9000;0.6138;2.9931;
787.2000;0.6138;2.9883;
787.5000;0.6113;2.9764;
787.8000;0.6138;2.9740;
788.1000;0.6138;2.9787;
788.4000;0.6113;2.9811;
788.7000;0.6121;2.9859;
789.0000;0.6154;2.9907;
789.3000;0.6219;3.0098;
789.6000;0.6138;2.9835;
789.9000;0.6121;2.9835;
790.2000;0.6146;2.9978;
790.5000;0.6154;2.9955;
790.8000;0.6138;2.9835;
791.1000;0.6146;2.9764;
791.4000;0.6121;2.9740;
791.7000;0.6138;2.9740;
792.0000;0.6129;2.9692;
792.3000;0.6129;2.9716;
792.6000;0.6121;2.9811;
792.9000;0.6146;2.9835;
793.2000;0.6138;2.9811;
793.5000;0.6121;2.9716;
793.8000;0.6129;2.9716;
794.1000;0.6146;2.9811;
794.4000;0.6162;2.9859;
794.7000;0.6129;2.9764;
795.0000;0.6129;2.9787;
795.3000;0.6129;2.9764;
795.6000;0.6138;2.9787;
795.9000;0.6129;2.9787;
796.2000;0.6121;2.9740;
796.5000;0.6138;2.9740;
796.8000;0.6146;2.9811;
797.1000;0.6121;2.9859;
797.4000;0.6105;2.9859;
797.7000;0.6121;2.9955;
798.0000;0.6121;2.9883;
798.3000;0.6105;2.9859;
798.6000;0.6121;2.9931;
798.9000;0.6121;2.9859;
799.2000;0.6121;2.9859;
799.5000;0.6129;2.9907;
799.8000;0.6121;2.9907;
800.1000;0.6121;2.9883;
800.4000;0.6113;2.9787;
800.7000;0.6129;2.9883;
801.0000;0.6113;2.9907;
801.3000;0.6121;2.9931;
801.6000;0.6032;2.9740;
801.9000;0.6121;2.9955;
802.2000;0.6113;2.9907;
802.5000;0.6097;2.9835;
802.8000;0.6121;2.9787;
803.1000;0.6129;2.9787;
803.4000;0.6105;2.9787;
803.7000;0.6113;2.9787;
804.0000;0.6170;2.9931;
804.3000;0.6105;2.9835;
804.6000;0.6129;2.9883;
804.9000;0.6138;2.9835;
805.2000;0.6129;2.9859;
805.5000;0.6121;2.9907;
805.8000;0.6170;2.9931;
806.1000;0.6138;2.9835;
806.4000;0.6105;2.9859;
806.7000;0.6129;2.9931;
807.0000;0.6064;2.9835;
807.3000;0.6121;2.9931;
807.6000;0.6105;2.9859;
807.9000;0.6121;2.9931;
808.2000;0.6129;2.9931;
808.5000;0.6121;2.9955;
808.8000;0.6048;2.9764;
809.1000;0.6048;2.9740;
809.4000;0.6113;2.9859;
809.7000;0.6203;3.0050;
810.0000;0.6121;2.9978;
810.3000;0.6089;2.9907;
810.6000;0.6113;2.9883;
810.9000;0.6105;2.9883;
811.2000;0.6097;2.9787;
811.5000;0.6097;2.9859;
811.8000;0.6081;2.9811;
812.1000;0.6113;2.9835;
812.4000;0.6097;2.9835;
812.7000;0.6113;2.9811;
813.0000;0.6081;2.9811;
813.3000;0.6105;2.9907;
813.6000;0.6113;2.9955;
813.9000;0.6121;2.9978;
814.2000;0.6105;2.9931;
814.5000;0.6097;2.9883;
814.8000;0.6097;2.9859;
815.1000;0.6105;2.9931;
815.4000;0.6121;3.0002;
815.7000;0.6032;2.9764;
816.0000;0.6113;2.9883;
816.3000;0.6113;2.9955;
816.6000;0.6097;2.9907;
816.9000;0.6097;2.9883;
817.2000;0.6097;2.9859;
817.5000;0.6113;2.9907;
817.8000;0.6121;3.0026;
818.1000;0.6121;2.9955;
818.4000;0.6129;2.9883;
818.7000;0.6113;2.9811;
819.0000;0.6097;2.9787;
819.3000;0.6105;2.9835;
819.6000;0.6081;2.9811;
819.9000;0.6105;2.9883;
820.2000;0.6097;2.9955;
820.5000;0.6113;2.9931;
820.8000;0.6089;2.9835;
821.1000;0.6113;2.9931;
821.4000;0.6089;2.9883;
821.7000;0.6072;2.9811;
822.0000;0.6113;2.9835;
822.3000;0.6121;2.9835;
822.6000;0.6081;2.9835;
822.9000;0.6097;2.9883;
823.2000;0.6203;3.0169;
823.5000;0.6113;2.9931;
823.8000;0.6081;2.9907;
824.1000;0.6081;2.9907;
824.4000;0.6105;2.9931;
824.7000;0.6154;3.0074;
825.0000;0.6113;2.9883;
825.3000;0.6097;2.9835;
825.6000;0.6105;2.9883;
825.9000;0.6129;2.9978;
826.2000;0.6089;3.0002;
826.5000;0.6121;3.0050;
826.8000;0.6081;2.9978;
827.1000;0.6105;2.9955;
827.4000;0.6097;2.9883;
827.7000;0.6097;2.9835;
828.0000;0.6097;2.9787;
828.3000;0.6089;2.9835;
828.6000;0.6097;2.9787;
828.9000;0.6113;2.9811;
829.2000;0.6072;2.9692;
829.5000;0.6097;2.9787;
829.8000;0.6048;2.9740;
830.1000;0.6121;3.0002;
830.4000;0.6081;2.9978;
830.7000;0.6089;3.0002;
831.0000;0.6146;3.0145;
831.3000;0.6097;2.9978;
831.6000;0.6081;2.9955;
831.9000;0.6121;2.9955;
832.2000;0.6081;2.9907;
832.5000;0.6089;2.9883;
832.8000;0.6105;2.9883;
833.1000;0.6032;2.9740;
833.4000;0.6097;2.9955;
833.7000;0.6081;2.9907;
834.0000;0.6072;2.9859;
834.3000;0.6081;2.9811;
834.6000;0.6032;2.9740;
834.9000;0.6105;2.9883;
835.2000;0.6081;2.9883;
835.5000;0.6072;2.9883;
835.8000;0.6081;2.9955;
836.1000;0.6081;3.0026;
836.4000;0.6048;2.9955;
836.7000;0.6064;2.9931;
837.0000;0.6089;3.0074;
837.3000;0.6081;2.9955;
837.6000;0.6064;2.9931;
837.9000;0.6032;2.9859;
838.2000;0.6056;2.9955;
838.5000;0.6040;2.9955;
838.8000;0.6081;3.0002;
839.1000;0.6113;3.0074;
839.4000;0.6072;2.9907;
839.7000;0.6072;2.9978;
840.0000;0.6081;2.9931;
840.3000;0.6097;2.9978;
840.6000;0.6064;2.9955;
840.9000;0.6064;2.9931;
841.2000;0.6105;2.9955;
841.5000;0.6081;2.9835;
841.8000;0.6072;2.9811;
842.1000;0.6072;2.9859;
842.4000;0.6105;2.9978;
842.7000;0.6081;2.9859;
843.0000;0.6056;2.9787;
843.3000;0.6081;2.9740;
843.6000;0.6072;2.9716;
843.9000;0.6072;2.9740;
844.2000;0.6064;2.9716;
844.5000;0.6064;2.9716;
844.8000;0.6089;2.9859;
845.1000;0.6097;2.9931;
845.4000;0.6081;2.9955;
845.7000;0.6064;2.9907;
846.0000;0.6081;2.9931;
846.3000;0.6024;2.9811;
846.6000;0.6089;2.9883;
846.9000;0.6081;2.9931;
847.2000;0.6121;2.9978;
847.5000;0.6081;2.9835;
847.8000;0.6081;2.9931;
848.1000;0.6064;2.9907;
848.4000;0.6072;2.9931;
848.7000;0.6089;2.9931;
849.0000;0.6072;2.9978;
849.3000;0.6072;2.9931;
849.6000;0.6081;3.0002;
849.9000;0.6089;3.0002;
850.2000;0.6097;3.0026;
850.5000;0.6105;3.0002;
850.8000;0.6081;2.9883;
851.1000;0.6072;2.9955;
851.4000;0.6089;3.0122;
851.7000;0.6072;3.0122;
852.0000;0.6081;3.0241;
852.3000;0.6056;3.0241;
852.6000;0.6081;3.0241;
852.9000;0.6129;3.0289;
853.2000;0.6048;3.0098;
853.5000;0.6048;3.0098;
853.8000;0.6064;3.0074;
854.1000;0.6072;3.0122;
854.4000;0.6081;3.0074;
854.7000;0.6064;2.9955;
855.0000;0.6064;2.9931;
855.3000;0.6113;3.0026;
855.6000;0.6048;2.9835;
855.9000;0.6081;3.0002;
856.2000;0.6072;3.0002;
856.5000;0.6007;2.9859;
856.8000;0.6081;2.9955;
857.1000;0.6064;2.9835;
857.4000;0.6105;2.9907;
857.7000;0.6097;2.9859;
858.0000;0.6081;2.9811;
858.3000;0.6064;2.9787;
858.6000;0.6048;2.9716;
858.9000;0.6048;2.9692;
859.2000;0.6064;2.9644;
859.5000;0.6146;2.9787;
859.8000;0.6072;2.9620;
860.1000;0.6097;2.9620;
860.4000;0.6105;2.9620;
860.7000;0.6089;2.9573;
861.0000;0.6081;2.9620;
861.3000;0.6097;2.9692;
861.6000;0.6097;2.9692;
861.9000;0.6064;2.9692;
862.2000;0.6064;2.9740;
862.5000;0.6089;2.9811;
862.8000;0.6056;2.9716;
863.1000;0.6081;2.9883;
863.4000;0.6072;2.9811;
863.7000;0.6113;2.9978;
864.0000;0.6072;2.9835;
864.3000;0.6064;2.9787;
864.6000;0.6064;2.9811;
864.9000;0.6081;2.9787;
865.2000;0.6072;2.9740;
865.5000;0.6081;2.9859;
865.8000;0.6064;2.9811;
866.1000;0.6056;2.9835;
866.4000;0.6064;2.9883;
866.7000;0.6105;3.0026;
867.0000;0.6072;2.9883;
867.3000;0.6056;2.9907;
867.6000;0.6056;2.9883;
867.9000;0.6056;2.9859;
868.2000;0.6064;2.9835;
868.5000;0.6072;2.9931;
868.8000;0.6048;2.9955;
869.1000;0.6081;2.9955;
869.4000;0.6072;3.0026;
869.7000;0.6072;3.0122;
870.0000;0.6081;3.0169;
870.3000;0.6040;3.0026;
870.6000;0.6064;3.0074;
870.9000;0.6072;2.9978;
871.2000;0.6040;2.9931;
871.5000;0.6056;3.0002;
871.8000;0.6072;3.0145;
872.1000;0.6056;3.0098;
872.4000;0.6072;3.0098;
872.7000;0.6097;3.0265;
873.0000;0.6056;3.0193;
873.3000;0.6081;3.0169;
873.6000;0.6081;3.0074;
873.9000;0.6007;2.9955;
874.2000;0.6064;3.0098;
874.5000;0.6048;3.0050;
874.8000;0.6064;3.0122;
875.1000;0.6072;3.0193;
875.4000;0.6048;3.0122;
875.7000;0.6089;3.0145;
876.0000;0.6064;3.0002;
876.3000;0.6072;2.9978;
876.6000;0.6081;3.0002;
876.9000;0.6056;2.9978;
877.2000;0.6048;3.0026;
877.5000;0.6072;3.0026;
877.8000;0.6064;2.9955;
878.1000;0.6072;2.9978;
878.4000;0.6081;2.9907;
878.7000;0.6032;2.9859;
879.0000;0.6064;3.0026;
879.3000;0.6056;3.0002;
879.6000;0.6048;3.0002;
879.9000;0.6089;3.0050;
880.2000;0.6064;2.9955;
880.5000;0.6056;2.9931;
880.8000;0.6048;2.9931;
881.1000;0.6056;3.0050;
881.4000;0.5983;2.9907;
881.7000;0.6048;3.0002;
882.0000;0.6081;3.0050;
882.3000;0.6089;3.0122;
882.6000;0.6040;3.0026;
882.9000;0.6056;3.0122;
883.2000;0.6072;3.0145;
883.5000;0.6024;3.0050;
883.8000;0.6048;3.0122;
884.1000;0.6032;3.0098;
884.4000;0.6064;3.0169;
884.7000;0.6032;3.0002;
885.0000;0.6024;2.9978;
885.3000;0.6048;3.0122;
885.6000;0.6072;3.0241;
885.9000;0.6040;3.0169;
886.2000;0.6056;3.0145;
886.5000;0.6048;3.0074;
886.8000;0.6048;3.0026;
887.1000;0.6032;2.9978;
887.4000;0.6056;3.0026;
887.7000;0.6032;2.9883;
888.0000;0.6040;2.9907;
888.3000;0.6081;2.9978;
888.6000;0.6032;2.9883;
888.9000;0.6032;2.9835;
889.2000;0.6024;2.9978;
889.5000;0.6056;3.0002;
889.8000;0.6048;2.9955;
890.1000;0.6048;2.9907;
890.4000;0.6097;2.9978;
890.7000;0.6032;2.9907;
891.0000;0.6048;3.0050;
891.3000;0.6032;3.0002;
891.6000;0.6040;2.9978;
891.9000;0.6048;2.9931;
892.2000;0.6048;2.9859;
892.5000;0.6048;2.9811;
892.8000;0.6040;2.9907;
893.1000;0.6040;2.9955;
893.4000;0.6048;2.9931;
893.7000;0.6105;3.0026;
894.0000;0.6024;2.9931;
894.3000;0.6048;3.0026;
894.6000;0.6048;3.0026;
894.9000;0.6064;3.0098;
895.2000;0.6048;3.0098;
895.5000;0.6056;3.0169;
895.8000;0.6048;3.0193;
896.1000;0.6056;3.0265;
896.4000;0.6081;3.0289;
896.7000;0.6072;3.0289;
897.0000;0.6056;3.0098;
897.3000;0.6056;3.0002;
897.6000;0.6048;2.9978;
897.9000;0.6048;2.9907;
898.2000;0.6040;2.9883;
898.5000;0.6048;3.0002;
898.8000;0.6015;2.9978;
899.1000;0.6032;3.0002;
899.4000;0.6064;3.0026;
899.7000;0.6056;2.9955;
900.0000;0.6113;3.0098;
900.3000;0.6032;2.9907;
900.6000;0.6032;2.9907;
900.9000;0.6007;2.9811;
901.2000;0.6064;3.0002;
901.5000;0.6024;2.9978;
901.8000;0.6024;3.0026;
902.1000;0.6081;3.0169;
902.4000;0.6064;3.0098;
902.7000;0.6048;3.0217;
903.0000;0.6024;3.0241;
903.3000;0.6081;3.0384;
903.6000;0.6056;3.0313;
903.9000;0.6056;3.0336;
904.2000;0.6040;3.0217;
904.5000;0.6056;3.0217;
904.8000;0.6056;3.0169;
905.1000;0.6064;3.0098;
905.4000;0.6040;3.0122;
905.7000;0.6089;3.0145;
906.0000;0.6056;3.0074;
906.3000;0.6072;3.0002;
906.6000;0.6032;2.9955;
906.9000;0.6064;3.0145;
907.2000;0.6064;3.0265;
907.5000;0.6056;3.0074;
907.8000;0.6056;3.0050;
908.1000;0.6048;3.0050;
908.4000;0.6064;3.0050;
908.7000;0.6056;3.0002;
909.0000;0.6024;2.9859;
909.3000;0.6048;2.9716;
909.6000;0.6040;2.9716;
909.9000;0.6048;2.9764;
910.2000;0.6081;2.9859;
910.5000;0.6040;2.9764;
910.8000;0.6056;2.9907;
911.1000;0.6056;3.0050;
911.4000;0.6072;3.0050;
911.7000;0.6048;3.0026;
912.0000;0.6048;2.9931;
912.3000;0.6040;2.9883;
912.6000;0.6056;2.9931;
912.9000;0.6040;2.9835;
913.2000;0.6032;2.9931;
913.5000;0.6040;2.9978;
913.8000;0.6032;2.9978;
914.1000;0.6032;3.0050;
914.4000;0.5934;2.9811;
914.7000;0.6040;3.0050;
915.0000;0.6032;2.9931;
915.3000;0.6032;3.0026;
915.6000;0.6064;3.0002;
915.9000;0.6007;2.9811;
916.2000;0.6048;2.9955;
916.5000;0.6040;3.0074;
916.8000;0.6072;3.0098;
917.1000;0.6024;2.9931;
917.4000;0.6015;2.9859;
917.7000;0.6040;2.9931;
918.0000;0.6007;2.9859;
918.3000;0.6040;2.9907;
918.6000;0.6040;2.9907;
918.9000;0.6040;2.9907;
919.2000;0.6040;3.0002;
919.5000;0.6146;3.0336;
919.8000;0.6040;3.0050;
920.1000;0.6024;2.9835;
920.4000;0.6056;2.9883;
920.7000;0.6129;3.0122;
921.0000;0.6024;2.9883;
921.3000;0.6040;2.9931;
921.6000;0.6064;2.9907;
921.9000;0.6048;2.9955;
922.2000;0.6040;2.9883;
922.5000;0.6048;2.9931;
922.8000;0.6048;2.9883;
923.1000;0.6048;2.9978;
923.4000;0.6032;3.0074;
923.7000;0.6040;3.0074;
924.0000;0.6040;3.0002;
924.3000;0.6040;2.9835;
924.6000;0.6024;2.9716;
924.9000;0.6032;2.9740;
925.2000;0.5958;2.9596;
925.5000;0.5991;2.9668;
925.8000;0.5942;2.9501;
926.1000;0.6048;2.9716;
926.4000;0.6040;2.9764;
926.7000;0.6048;2.9859;
927.0000;0.6040;2.9835;
927.3000;0.6048;2.9811;
927.6000;0.6032;2.9740;
927.9000;0.6048;2.9787;
928.2000;0.6040;2.9716;
928.5000;0.6040;2.9811;
928.8000;0.6032;2.9859;
929.1000;0.6032;2.9907;
929.4000;0.6032;2.9907;
929.7000;0.6040;2.9907;
930.0000;0.6040;2.9883;
930.3000;0.6056;2.9883;
930.6000;0.6040;2.9835;
930.9000;0.6040;2.9835;
931.2000;0.6056;2.9883;
931.5000;0.6048;2.9955;
931.8000;0.6064;3.0074;
932.1000;0.6040;3.0074;
932.4000;0.6048;3.0074;
932.7000;0.6040;3.0098;
933.0000;0.6064;3.0122;
933.3000;0.6048;3.0050;
933.6000;0.6024;3.0098;
933.9000;0.6032;3.0145;
934.2000;0.6032;3.0098;
934.5000;0.6032;3.0002;
934.8000;0.6040;2.9978;
935.1000;0.6032;2.9931;
935.4000;0.6048;2.9931;
935.7000;0.6040;2.9955;
936.0000;0.6056;2.9978;
936.3000;0.6032;2.9978;
936.6000;0.6024;2.9907;
936.9000;0.6048;2.9931;
937.2000;0.6015;2.9907;
937.5000;0.6024;2.9931;
937.8000;0.6024;2.9931;
938.1000;0.6024;2.9907;
938.4000;0.6056;2.9955;
938.7000;0.5999;2.9907;
939.0000;0.6024;2.9931;
939.3000;0.6032;2.9883;
939.6000;0.6015;2.9811;
939.9000;0.6048;2.9859;
940.2000;0.6032;2.9859;
940.5000;0.6170;3.0145;
940.8000;0.6015;2.9835;
941.1000;0.6048;2.9859;
941.4000;0.6089;3.0002;
941.7000;0.6040;2.9931;
942.0000;0.6024;3.0026;
942.3000;0.6032;3.0050;
942.6000;0.6048;3.0050;
942.9000;0.6032;3.0026;
943.2000;0.6048;3.0074;
943.5000;0.6024;3.0002;
943.8000;0.6032;2.9907;
944.1000;0.6024;2.9883;
944.4000;0.6015;2.9859;
944.7000;0.6024;2.9931;
945.0000;0.6024;3.0026;
945.3000;0.6040;3.0026;
945.6000;0.6024;3.0074;
945.9000;0.6048;3.0169;
946.2000;0.6024;3.0074;
946.5000;0.6015;3.0098;
946.8000;0.6048;3.0217;
947.1000;0.6040;3.0098;
947.4000;0.6097;3.0241;
947.7000;0.6040;3.0145;
948.0000;0.6048;3.0241;
948.3000;0.6048;3.0241;
948.6000;0.6040;3.0217;
948.9000;0.6024;3.0074;
949.2000;0.6032;3.0074;
949.5000;0.6024;3.0050;
949.8000;0.6024;3.0050;
950.1000;0.6032;3.0098;
950.4000;0.6105;3.0336;
950.7000;0.6024;3.0169;
951.0000;0.6024;3.0217;
951.3000;0.6081;3.0360;
951.6000;0.6040;3.0122;
951.9000;0.5983;3.0050;
952.2000;0.6024;3.0098;
952.5000;0.5999;3.0074;
952.8000;0.6064;3.0241;
953.1000;0.5999;3.0122;
953.4000;0.6032;3.0217;
953.7000;0.6040;3.0217;
954.0000;0.6024;3.0122;
954.3000;0.6024;3.0122;
954.6000;0.5991;3.0002;
954.9000;0.6015;2.9955;
955.2000;0.6015;2.9931;
955.5000;0.6032;3.0002;
955.8000;0.6064;3.0098;
956.1000;0.6024;2.9907;
956.4000;0.6040;2.9931;
956.7000;0.6048;3.0002;
957.0000;0.6072;3.0217;
957.3000;0.6015;3.0193;
957.6000;0.6024;3.0193;
957.9000;0.6024;3.0265;
958.2000;0.6015;3.0145;
958.5000;0.6024;3.0145;
958.8000;0.6015;3.0169;
959.1000;0.6015;3.0217;
959.4000;0.5991;3.0241;
959.7000;0.6015;3.0289;
960.0000;0.5999;3.0241;
960.3000;0.6007;3.0122;
960.6000;0.6040;3.0145;
960.9000;0.6015;3.0074;
961.2000;0.6032;3.0098;
961.5000;0.6024;3.0074;
961.8000;0.6024;3.0145;
962.1000;0.6040;3.0193;
962.4000;0.6024;3.0098;
962.7000;0.6024;3.0145;
963.0000;0.6024;3.0145;
963.3000;0.6032;3.0074;
963.6000;0.6040;3.0050;
963.9000;0.6007;3.0002;
964.2000;0.6015;2.9978;
964.5000;0.6024;2.9931;
964.8000;0.6007;2.9907;
965.1000;0.5999;2.9931;
965.4000;0.6040;3.0098;
965.7000;0.6024;3.0122;
966.0000;0.6024;3.0050;
966.3000;0.6024;3.0050;
966.6000;0.6040;3.0002;
966.9000;0.5999;2.9907;
967.2000;0.6032;2.9931;
967.5000;0.6040;3.0002;
967.8000;0.5999;2.9955;
968.1000;0.6032;3.0145;
968.4000;0.6015;3.0074;
968.7000;0.6024;2.9955;
969.0000;0.6007;2.9835;
969.3000;0.6024;2.9883;
969.6000;0.6015;2.9883;
969.9000;0.6032;2.9978;
970.2000;0.6015;2.9931;
970.5000;0.6064;2.9978;
970.8000;0.6032;2.9907;
971.1000;0.6024;2.9883;
971.4000;0.6032;2.9883;
971.7000;0.6007;2.9835;
972.0000;0.6032;2.9907;
972.3000;0.6024;2.9883;
972.6000;0.6007;2.9835;
972.9000;0.6007;2.9835;
973.2000;0.6024;2.9931;
973.5000;0.6097;3.0217;
973.8000;0.6024;3.0002;
974.1000;0.5999;2.9835;
974.4000;0.6024;2.9907;
974.7000;0.6024;2.9883;
975.0000;0.5975;2.9787;
975.3000;0.5999;2.9907;
975.6000;0.6024;3.0074;
975.9000;0.5999;2.9978;
976.2000;0.6024;3.0026;
976.5000;0.6040;2.9931;
976.8000;0.6032;2.9978;
977.1000;0.6072;3.0050;
977.4000;0.6032;3.0026;
977.7000;0.6024;3.0050;
978.0000;0.6007;3.0026;
978.3000;0.6024;3.0026;
978.6000;0.6032;3.0098;
978.9000;0.6040;3.0122;
979.2000;0.6007;3.0098;
979.5000;0.6024;3.0145;
979.8000;0.6024;3.0169;
980.1000;0.6040;3.0193;
980.4000;0.6032;3.0122;
980.7000;0.6007;3.0122;
981.0000;0.6032;3.0098;
981.3000;0.6024;3.0074;
981.6000;0.6024;3.0002;
981.9000;0.6032;2.9907;
982.2000;0.6015;2.9883;
982.5000;0.6032;2.9955;
982.8000;0.6048;3.0050;
983.1000;0.6015;3.0026;
983.4000;0.6024;3.0050;
983.7000;0.6081;3.0122;
984.0000;0.6007;3.0002;
984.3000;0.6015;3.0002;
984.6000;0.6007;2.9931;
984.9000;0.6024;3.0026;
985.2000;0.6015;2.9931;
985.5000;0.6015;2.9955;
985.8000;0.6032;3.0074;
986.1000;0.6056;3.0145;
986.4000;0.6032;3.0050;
986.7000;0.6032;3.0002;
987.0000;0.6032;3.0002;
987.3000;0.6032;3.0050;
987.6000;0.6048;3.0122;
987.9000;0.6015;3.0002;
988.2000;0.6032;3.0002;
988.5000;0.6015;3.0002;
988.8000;0.6015;3.0002;
989.1000;0.6024;3.0050;
989.4000;0.5999;2.9978;
989.7000;0.5991;2.9883;
990.0000;0.5975;2.9787;
990.3000;0.6032;2.9931;
990.6000;0.6032;2.9978;
990.9000;0.6032;2.9978;
991.2000;0.6024;2.9931;
991.5000;0.6007;2.9883;
991.8000;0.6056;3.0026;
992.1000;0.5958;2.9907;
992.4000;0.6015;3.0098;
992.7000;0.6040;3.0169;
993.0000;0.6064;3.0169;
993.3000;0.6024;3.0050;
993.6000;0.6007;3.0074;
993.9000;0.5975;3.0050;
994.2000;0.5991;3.0074;
994.5000;0.5991;3.0098;
994.8000;0.5999;3.0026;
995.1000;0.6072;3.0169;
995.4000;0.6024;2.9931;
995.7000;0.6024;2.9955;
996.0000;0.6007;3.0002;
996.3000;0.6015;2.9955;
996.6000;0.6024;2.9955;
996.9000;0.6015;2.9859;
997.2000;0.6024;2.9787;
997.5000;0.5975;2.9740;
997.8000;0.6024;2.9931;
998.1000;0.6024;2.9883;
998.4000;0.5958;2.9787;
998.7000;0.5999;2.9883;
999.0000;0.6007;2.9883;
999.3000;0.6007;2.9907;
999.6000;0.6024;2.9955;
999.9000;0.5991;2.9883;
1000.2000;0.6007;2.9978;
1000.5000;0.6007;3.0026;
1000.8000;0.5991;2.9978;
1001.1000;0.6007;3.0074;
1001.4000;0.6024;3.0074;
1001.7000;0.5975;2.9955;
1002.0000;0.6007;2.9931;
1002.3000;0.6007;2.9907;
1002.6000;0.6007;2.9859;
1002.9000;0.6015;2.9931;
1003.2000;0.6024;2.9931;
1003.5000;0.6024;2.9931;
1003.8000;0.6007;2.9859;
1004.1000;0.5999;2.9907;
1004.4000;0.5999;2.9811;
1004.7000;0.6040;2.9811;
1005.0000;0.6024;2.9716;
1005.3000;0.6015;2.9716;
1005.6000;0.5999;2.9692;
1005.9000;0.5999;2.9740;
1006.2000;0.6015;2.9811;
1006.5000;0.6007;2.9740;
1006.8000;0.6024;2.9811;
1007.1000;0.6015;2.9811;
1007.4000;0.5999;2.9787;
1007.7000;0.6015;2.9811;
1008.0000;0.6015;2.9835;
1008.3000;0.6015;2.9811;
1008.6000;0.6015;2.9716;
1008.9000;0.6007;2.9716;
1009.2000;0.6032;2.9716;
1009.5000;0.6007;2.9692;
1009.8000;0.5999;2.9716;
1010.1000;0.6007;2.9787;
1010.4000;0.6015;2.9835;
1010.7000;0.6097;3.0002;
1011.0000;0.5999;2.9764;
1011.3000;0.6015;2.9811;
1011.6000;0.6064;2.9907;
1011.9000;0.6015;2.9716;
1012.2000;0.6032;2.9716;
1012.5000;0.5999;2.9668;
1012.8000;0.5999;2.9740;
1013.1000;0.6024;2.9764;
1013.4000;0.6024;2.9716;
1013.7000;0.6015;2.9811;
1014.0000;0.5983;2.9740;
1014.3000;0.6032;2.9811;
1014.6000;0.6097;3.0050;
1014.9000;0.6024;2.9835;
1015.2000;0.6007;2.9859;
1015.5000;0.6032;2.9978;
1015.8000;0.5999;2.9978;
1016.1000;0.6032;3.0122;
1016.4000;0.6024;3.0050;
1016.7000;0.5999;2.9955;
1017.0000;0.6032;3.0050;
1017.3000;0.6015;3.0074;
1017.6000;0.6064;3.0169;
1017.9000;0.5975;2.9931;
1018.2000;0.6007;2.9907;
1018.5000;0.6007;2.9859;
1018.8000;0.6015;2.9883;
1019.1000;0.6024;2.9883;
1019.4000;0.6081;3.0074;
1019.7000;0.6015;2.9931;
1020.0000;0.5999;2.9907;
1020.3000;0.5999;2.9955;
1020.6000;0.6015;2.9955;
1020.9000;0.5950;2.9859;
1021.2000;0.6024;2.9978;
1021.5000;0.6015;2.9931;
1021.8000;0.6007;2.9883;
1022.1000;0.6007;2.9835;
1022.4000;0.5934;2.9668;
1022.7000;0.6007;2.9907;
1023.0000;0.6015;2.9883;
1023.3000;0.6015;2.9907;
1023.6000;0.5991;2.9859;
1023.9000;0.6015;2.9955;
1024.2000;0.6015;2.9931;
1024.5000;0.6032;2.9955;
1024.8000;0.6024;2.9978;
1025.1000;0.5999;2.9907;
1025.4000;0.6007;2.9907;
1025.7000;0.6048;2.9931;
1026.0000;0.6032;2.9883;
1026.3000;0.6024;2.9835;
1026.6000;0.5991;2.9859;
1026.9000;0.6040;2.9931;
1027.2000;0.6024;2.9955;
1027.5000;0.5991;2.9931;
1027.8000;0.6007;2.9978;
1028.1000;0.6024;3.0026;
1028.4000;0.6024;3.0098;
1028.7000;0.6015;3.0050;
1029.0000;0.5991;3.0002;
1029.3000;0.6024;3.0122;
1029.6000;0.6024;3.0098;
1029.9000;0.5999;3.0050;
1030.2000;0.6024;3.0145;
1030.5000;0.5999;3.0122;
1030.8000;0.6007;3.0026;
1031.1000;0.6032;3.0050;
1031.4000;0.6015;3.0002;
1031.7000;0.6024;2.9883;
1032.0000;0.6024;2.9907;
1032.3000;0.6056;3.0074;
1032.6000;0.6015;3.0026;
1032.9000;0.6007;3.0098;
1033.2000;0.6007;3.0050;
1033.5000;0.6015;3.0098;
1033.8000;0.5999;3.0098;
1034.1000;0.5934;2.9907;
1034.4000;0.5991;2.9955;
1034.7000;0.6024;3.0074;
1035.0000;0.6015;3.0074;
1035.3000;0.5999;2.9931;
1035.6000;0.6024;2.9955;
1035.9000;0.6032;3.0074;
1036.2000;0.5999;2.9978;
1036.5000;0.6007;2.9955;
1036.8000;0.5999;2.9978;
1037.1000;0.6015;3.0050;
1037.4000;0.6015;3.0002;
1037.7000;0.6007;3.0002;
1038.0000;0.6007;3.0026;
1038.3000;0.6007;3.0145;
1038.6000;0.5999;3.0074;
1038.9000;0.6015;3.0050;
1039.2000;0.6007;2.9955;
1039.5000;0.5999;3.0026;
1039.8000;0.5991;3.0122;
1040.1000;0.5999;3.0193;
1040.4000;0.5999;3.0145;
1040.7000;0.5999;3.0145;
1041.0000;0.6007;3.0217;
1041.3000;0.5991;3.0122;
1041.6000;0.5975;3.0026;
1041.9000;0.5991;2.9955;
1042.2000;0.5999;2.9978;
1042.5000;0.5999;3.0050;
1042.8000;0.5991;3.0002;
1043.1000;0.5999;3.0002;
1043.4000;0.5983;3.0002;
1043.7000;0.6007;3.0098;
1044.0000;0.6024;3.0098;
1044.3000;0.6040;3.0122;
1044.6000;0.5991;2.9955;
1044.9000;0.6015;3.0026;
1045.2000;0.6007;3.0002;
1045.5000;0.6007;3.0002;
1045.8000;0.6015;3.0122;
1046.1000;0.6007;3.0026;
1046.4000;0.5991;3.0002;
1046.7000;0.5999;3.0098;
1047.0000;0.5967;2.9978;
1047.3000;0.6015;3.0050;
1047.6000;0.6032;3.0026;
1047.9000;0.6015;3.0002;
1048.2000;0.5999;2.9978;
1048.5000;0.5918;2.9859;
1048.8000;0.5999;3.0050;
1049.1000;0.5999;3.0002;
1049.4000;0.5975;2.9907;
1049.7000;0.5983;2.9931;
1050.0000;0.5999;3.0074;
1050.3000;0.5991;3.0026;
1050.6000;0.5991;3.0002;
1050.9000;0.6032;3.0074;
1051.2000;0.6015;3.0074;
1051.5000;0.6007;3.0074;
1051.8000;0.5999;2.9978;
1052.1000;0.6007;3.0074;
1052.4000;0.6015;3.0074;
1052.7000;0.6015;3.0074;
1053.0000;0.6015;3.0050;
1053.3000;0.5967;2.9907;
1053.6000;0.6024;3.0002;
1053.9000;0.6007;2.9978;
1054.2000;0.5991;2.9955;
1054.5000;0.5975;2.9931;
1054.8000;0.6048;3.0193;
1055.1000;0.5991;2.9978;
1055.4000;0.6007;3.0002;
1055.7000;0.6097;3.0313;
1056.0000;0.6007;3.0074;
1056.3000;0.6032;3.0074;
1056.6000;0.6007;3.0026;
1056.9000;0.5999;2.9978;
1057.2000;0.6007;3.0002;
1057.5000;0.6015;3.0050;
1057.8000;0.6024;3.0074;
1058.1000;0.6007;3.0122;
1058.4000;0.5958;2.9907;
1058.7000;0.5999;2.9907;
1059.0000;0.5999;2.9883;
1059.3000;0.6007;2.9859;
1059.6000;0.5958;2.9764;
1059.9000;0.6007;2.9931;
1060.2000;0.6007;2.9907;
1060.5000;0.5991;2.9835;
1060.8000;0.5999;2.9835;
1061.1000;0.6015;2.9883;
1061.4000;0.6040;3.0050;
1061.7000;0.6015;2.9955;
1062.0000;0.6024;3.0026;
1062.3000;0.6007;3.0074;
1062.6000;0.5950;2.9811;
1062.9000;0.5991;2.9907;
1063.2000;0.6015;2.9883;
1063.5000;0.6007;2.9907;
1063.8000;0.5983;2.9907;
1064.1000;0.6015;3.0074;
1064.4000;0.6105;3.0193;
1064.7000;0.5999;3.0002;
1065.0000;0.6056;3.0193;
1065.3000;0.6007;3.0050;
1065.6000;0.5983;3.0002;
1065.9000;0.5975;2.9931;
1066.2000;0.6007;2.9955;
1066.5000;0.6007;2.9955;
1066.8000;0.6007;2.9978;
1067.1000;0.5983;2.9978;
1067.4000;0.5942;2.9955;
1067.7000;0.6007;3.0122;
1068.0000;0.6040;3.0098;
1068.3000;0.6007;2.9907;
1068.6000;0.5999;2.9907;
1068.9000;0.5999;3.0002;
1069.2000;0.5999;3.0050;
1069.5000;0.5991;3.0026;
1069.8000;0.6007;3.0050;
1070.1000;0.6032;3.0074;
1070.4000;0.5991;2.9883;
1070.7000;0.5999;2.9907;
1071.0000;0.6040;3.0026;
1071.3000;0.5999;2.9883;
1071.6000;0.6007;2.9859;
1071.9000;0.6097;3.0122;
1072.2000;0.5991;2.9931;
1072.5000;0.6015;3.0026;
1072.8000;0.6007;2.9978;
1073.1000;0.6015;3.0026;
1073.4000;0.5991;3.0026;
1073.7000;0.5991;3.0026;
1074.0000;0.5999;3.0002;
1074.3000;0.6007;2.9955;
1074.6000;0.5991;2.9883;
1074.9000;0.5999;2.9931;
1075.2000;0.6007;2.9931;
1075.5000;0.5983;2.9978;
1075.8000;0.6007;3.0026;
1076.1000;0.5983;3.0074;
1076.4000;0.6007;3.0122;
1076.7000;0.6105;3.0408;
1077.0000;0.6007;3.0169;
1077.3000;0.5999;3.0074;
1077.6000;0.5999;3.0050;
1077.9000;0.5999;3.0002;
1078.2000;0.5999;3.0122;
1078.5000;0.5999;3.0145;
1078.8000;0.5926;2.9883;
1079.1000;0.5999;2.9978;
1079.4000;0.6015;2.9955;
1079.7000;0.6015;3.0026;
1080.0000;0.6007;3.0122;
1080.3000;0.6072;3.0336;
1080.6000;0.5991;3.0050;
1080.9000;0.5999;3.0050;
1081.2000;0.5991;2.9955;
1081.5000;0.5991;2.9978;
1081.8000;0.5999;3.0074;
1082.1000;0.5991;2.9955;
1082.4000;0.5999;2.9978;
1082.7000;0.6032;2.9955;
1083.0000;0.5983;2.9811;
1083.3000;0.5999;2.9883;
1083.6000;0.5999;2.9859;
1083.9000;0.5983;2.9859;
1084.2000;0.6040;2.9955;
1084.5000;0.6024;2.9955;
1084.8000;0.6007;2.9955;
1085.1000;0.5983;2.9955;
1085.4000;0.5991;3.0026;
1085.7000;0.5991;3.0098;
1086.0000;0.6007;3.0145;
1086.3000;0.5999;3.0122;
1086.6000;0.6007;3.0026;
1086.9000;0.6015;3.0026;
1087.2000;0.5999;2.9978;
1087.5000;0.5975;2.9955;
1087.8000;0.5999;2.9978;
1088.1000;0.5999;3.0050;
1088.4000;0.5975;2.9955;
1088.7000;0.5983;3.0002;
1089.0000;0.6015;3.0050;
1089.3000;0.5999;3.0050;
1089.6000;0.5950;2.9955;
1089.9000;0.5999;3.0074;
1090.2000;0.5999;3.0026;
1090.5000;0.5999;3.0026;
1090.8000;0.5991;2.9931;
1091.1000;0.5991;2.9907;
1091.4000;0.5999;2.9907;
1091.7000;0.6007;2.9883;
1092.0000;0.5991;2.9835;
1092.3000;0.5983;2.9740;
1092.6000;0.5999;2.9811;
1092.9000;0.5999;2.9859;
1093.2000;0.6024;2.9787;
1093.5000;0.5999;2.9716;
1093.8000;0.5991;2.9787;
1094.1000;0.5999;2.9764;
1094.4000;0.5999;2.9716;
1094.7000;0.5999;2.9716;
1095.0000;0.5991;2.9764;
1095.3000;0.5999;2.9835;
1095.6000;0.5999;2.9787;
1095.9000;0.5991;2.9716;
1096.2000;0.5991;2.9716;
1096.5000;0.5991;2.9764;
1096.8000;0.6015;2.9907;
1097.1000;0.5999;2.9978;
1097.4000;0.5991;2.9955;
1097.7000;0.5983;2.9835;
1098.0000;0.6007;2.9883;
1098.3000;0.5999;2.9883;
1098.6000;0.6007;2.9859;
1098.9000;0.5991;2.9811;
1099.2000;0.5975;2.9716;
1099.5000;0.5999;2.9740;
1099.8000;0.5999;2.9740;
1100.1000;0.5991;2.9764;
1100.4000;0.6007;2.9883;
1100.7000;0.6007;2.9955;
1101.0000;0.5983;2.9907;
1101.3000;0.5991;2.9978;
1101.6000;0.5999;3.0002;
1101.9000;0.5991;3.0002;
1102.2000;0.6007;3.0026;
1102.5000;0.5991;2.9955;
1102.8000;0.5999;2.9978;
1103.1000;0.6007;2.9955;
1103.4000;0.6024;2.9978;
1103.7000;0.6007;2.9883;
1104.0000;0.6007;2.9859;
1104.3000;0.6007;2.9859;
1104.6000;0.6007;2.9883;
1104.9000;0.5999;2.9764;
1105.2000;0.5967;2.9692;
1105.5000;0.5991;2.9764;
1105.8000;0.6007;2.9740;
1106.1000;0.5999;2.9764;
1106.4000;0.6015;2.9764;
1106.7000;0.5999;2.9764;
1107.0000;0.5999;2.9835;
1107.3000;0.5999;2.9835;
1107.6000;0.5910;2.9573;
1107.9000;0.5991;2.9764;
1108.2000;0.5999;2.9740;
1108.5000;0.5999;2.9668;
1108.8000;0.5999;2.9668;
1109.1000;0.6015;2.9716;
1109.4000;0.5991;2.9716;
1109.7000;0.5999;2.9692;
1110.0000;0.5934;2.9573;
1110.3000;0.5999;2.9644;
1110.6000;0.6015;2.9644;
1110.9000;0.6081;2.9835;
1111.2000;0.6007;2.9692;
1111.5000;0.6015;2.9764;
1111.8000;0.6007;2.9716;
1112.1000;0.6007;2.9716;
1112.4000;0.6007;2.9692;
1112.7000;0.6024;2.9692;
1113.0000;0.6007;2.9644;
1113.3000;0.5991;2.9573;
1113.6000;0.5991;2.9549;
1113.9000;0.5999;2.9620;
1114.2000;0.5983;2.9668;
1114.5000;0.5999;2.9692;
1114.8000;0.5975;2.9716;
1115.1000;0.5999;2.9811;
1115.4000;0.5983;2.9835;
1115.7000;0.6007;2.9835;
1116.0000;0.5999;2.9835;
1116.3000;0.5991;2.9764;
1116.6000;0.5942;2.9596;
1116.9000;0.5999;2.9740;
1117.2000;0.6007;2.9835;
1117.5000;0.5958;2.9787;
1117.8000;0.5983;2.9883;
1118.1000;0.5975;2.9931;
1118.4000;0.5991;2.9978;
1118.7000;0.6024;2.9978;
1119.0000;0.5975;2.9955;
1119.3000;0.5991;2.9931;
1119.6000;0.5999;2.9883;
1119.9000;0.5999;2.9859;
1120.2000;0.5983;2.9835;
1120.5000;0.5967;2.9883;
1120.8000;0.5967;2.9907;
1121.1000;0.5967;2.9955;
1121.4000;0.5967;2.9931;
1121.7000;0.5999;3.0074;
1122.0000;0.5999;3.0169;
1122.3000;0.6015;3.0122;
1122.6000;0.6007;3.0026;
1122.9000;0.5967;2.9955;
1123.2000;0.5991;2.9931;
1123.5000;0.5991;2.9955;
1123.8000;0.6032;3.0098;
1124.1000;0.5983;3.0002;
1124.4000;0.5991;3.0026;
1124.7000;0.5983;3.0026;
1125.0000;0.5991;3.0050;
1125.3000;0.6015;3.0026;
1125.6000;0.5975;2.9907;
1125.9000;0.5877;2.9668;
1126.2000;0.5999;2.9931;
1126.5000;0.6015;2.9955;
1126.8000;0.5983;2.9978;
1127.1000;0.5991;3.0026;
1127.4000;0.6007;3.0002;
1127.7000;0.5958;2.9883;
1128.0000;0.5999;3.0074;
1128.3000;0.5991;2.9978;
1128.6000;0.5991;2.9883;
1128.9000;0.5999;2.9907;
1129.2000;0.5991;2.9859;
1129.5000;0.5991;2.9955;
1129.8000;0.5983;2.9931;
1130.1000;0.5999;3.0074;
1130.4000;0.5975;3.0002;
1130.7000;0.5975;3.0002;
1131.0000;0.6024;3.0074;
1131.3000;0.6007;3.0002;
1131.6000;0.5983;2.9883;
1131.9000;0.5991;2.9859;
1132.2000;0.5999;2.9835;
1132.5000;0.5999;2.9835;
1132.8000;0.6007;2.9811;
1133.1000;0.5967;2.9764;
1133.4000;0.5991;2.9835;
1133.7000;0.6007;2.9955;
1134.0000;0.5983;2.9978;
1134.3000;0.6015;3.0002;
1134.6000;0.5991;2.9931;
1134.9000;0.5999;3.0026;
1135.2000;0.5983;3.0050;
1135.5000;0.5983;2.9978;
1135.8000;0.5967;3.0026;
1136.1000;0.5991;3.0050;
1136.4000;0.5991;3.0098;
1136.7000;0.5983;2.9978;
1137.0000;0.5999;2.9931;
1137.3000;0.5991;2.9931;
1137.6000;0.6064;3.0122;
1137.9000;0.6015;3.0050;
1138.2000;0.5999;3.0026;
1138.5000;0.6015;3.0050;
1138.8000;0.6024;3.0074;
1139.1000;0.5999;2.9978;
1139.4000;0.5975;2.9931;
1139.7000;0.6015;2.9955;
1140.0000;0.6032;2.9859;
1140.3000;0.6007;2.9931;
1140.6000;0.5991;2.9978;
1140.9000;0.5975;3.0002;
1141.2000;0.5999;2.9978;
1141.5000;0.5975;3.0026;
1141.8000;0.5934;2.9931;
1142.1000;0.5983;2.9907;
1142.4000;0.5991;2.9978;
1142.7000;0.6024;3.0098;
1143.0000;0.5950;2.9931;
1143.3000;0.5983;2.9978;
1143.6000;0.5983;3.0026;
1143.9000;0.5999;3.0098;
1144.2000;0.5999;3.0074;
1144.5000;0.5991;3.0050;
1144.8000;0.5975;3.0026;
1145.1000;0.5975;3.0098;
1145.4000;0.5991;3.0074;
1145.7000;0.6024;3.0122;
1146.0000;0.5975;3.0122;
1146.3000;0.5958;3.0074;
1146.6000;0.6007;3.0169;
1146.9000;0.5991;3.0098;
1147.2000;0.5934;2.9978;
1147.5000;0.5967;3.0098;
1147.8000;0.5983;3.0217;
1148.1000;0.5999;3.0313;
1148.4000;0.5975;3.0265;
1148.7000;0.5991;3.0265;
1149.0000;0.5975;3.0265;
1149.3000;0.5999;3.0336;
1149.6000;0.5999;3.0265;
1149.9000;0.6015;3.0336;
1150.2000;0.5926;3.0098;
1150.5000;0.5983;3.0193;
1150.8000;0.5950;3.0169;
1151.1000;0.5958;3.0265;
1151.4000;0.6032;3.0265;
1151.7000;0.6007;3.0098;
1152.0000;0.5983;3.0026;
1152.3000;0.6024;3.0122;
1152.6000;0.5983;3.0050;
1152.9000;0.5991;3.0074;
1153.2000;0.5975;2.9978;
1153.5000;0.6007;3.0074;
1153.8000;0.5983;3.0026;
1154.1000;0.5991;3.0145;
1154.4000;0.5934;3.0026;
1154.7000;0.5999;3.0145;
1155.0000;0.5983;3.0074;
1155.3000;0.5991;3.0074;
1155.6000;0.6007;3.0122;
1155.9000;0.5983;3.0050;
1156.2000;0.5983;3.0074;
1156.5000;0.5991;3.0002;
1156.8000;0.5958;2.9955;
1157.1000;0.5999;3.0026;
1157.4000;0.5991;3.0026;
1157.7000;0.5975;2.9955;
1158.0000;0.5983;3.0026;
1158.3000;0.6007;3.0074;
1158.6000;0.5983;3.0074;
1158.9000;0.6040;3.0145;
1159.2000;0.6007;3.0122;
1159.5000;0.5999;3.0145;
1159.8000;0.6007;3.0169;
1160.1000;0.5991;3.0122;
1160.4000;0.6015;3.0145;
1160.7000;0.6007;3.0145;
1161.0000;0.5967;3.0098;
1161.3000;0.5999;3.0122;
1161.6000;0.5983;3.0050;
1161.9000;0.5991;3.0098;
1162.2000;0.5999;3.0145;
1162.5000;0.6007;3.0122;
1162.8000;0.6024;3.0169;
1163.1000;0.5967;3.0074;
1163.4000;0.5991;3.0098;
1163.7000;0.5999;3.0050;
1164.0000;0.6040;3.0098;
1164.3000;0.5991;2.9859;
1164.6000;0.5926;2.9692;
1164.9000;0.5975;2.9859;
1165.2000;0.5991;2.9859;
1165.5000;0.5975;2.9835;
1165.8000;0.5999;2.9859;
1166.1000;0.5983;2.9883;
1166.4000;0.5983;2.9955;
1166.7000;0.5999;3.0026;
1167.0000;0.5991;3.0002;
1167.3000;0.5983;3.0002;
1167.6000;0.5934;2.9931;
1167.9000;0.5983;3.0002;
1168.2000;0.5983;3.0122;
1168.5000;0.5958;3.0098;
1168.8000;0.5910;3.0002;
1169.1000;0.5991;3.0122;
1169.4000;0.5999;3.0169;
1169.7000;0.5975;3.0193;
1170.0000;0.5967;3.0145;
1170.3000;0.5983;3.0098;
1170.6000;0.5975;3.0098;
1170.9000;0.6007;3.0098;
1171.2000;0.5967;2.9955;
1171.5000;0.5975;3.0050;
1171.8000;0.5991;3.0098;
1172.1000;0.5983;3.0026;
1172.4000;0.6040;3.0169;
1172.7000;0.5975;3.0098;
1173.0000;0.5975;3.0098;
1173.3000;0.6007;3.0169;
1173.6000;0.5983;3.0074;
1173.9000;0.5991;3.0098;
1174.2000;0.5991;3.0098;
1174.5000;0.5999;3.0122;
1174.8000;0.5991;3.0026;
1175.1000;0.5975;3.0050;
1175.4000;0.5991;3.0002;
1175.7000;0.5991;3.0050;
1176.0000;0.5999;3.0050;
1176.3000;0.5975;3.0050;
1176.6000;0.5983;3.0145;
1176.9000;0.5983;3.0193;
1177.2000;0.6032;3.0265;
1177.5000;0.5999;3.0313;
1177.8000;0.5975;3.0265;
1178.1000;0.6032;3.0408;
1178.4000;0.5975;3.0193;
1178.7000;0.5999;3.0289;
1179.0000;0.6032;3.0265;
1179.3000;0.5983;3.0265;
1179.6000;0.6024;3.0360;
1179.9000;0.5910;3.0074;
1180.2000;0.5983;3.0217;
1180.5000;0.5983;3.0217;
1180.8000;0.5958;3.0050;
1181.1000;0.5999;3.0074;
1181.4000;0.5999;3.0169;
1181.7000;0.5999;3.0169;
1182.0000;0.5983;3.0122;
1182.3000;0.5999;3.0050;
1182.6000;0.5934;3.0026;
1182.9000;0.5991;3.0145;
1183.2000;0.5991;3.0122;
1183.5000;0.6064;3.0265;
1183.8000;0.5967;2.9883;
1184.1000;0.6007;2.9907;
1184.4000;0.6007;2.9955;
1184.7000;0.5999;2.9955;
1185.0000;0.6024;2.9955;
1185.3000;0.5991;2.9978;
1185.6000;0.5983;3.0026;
1185.9000;0.6048;3.0265;
1186.2000;0.5983;3.0169;
1186.5000;0.5983;3.0145;
1186.8000;0.5991;3.0098;
1187.1000;0.6032;3.0265;
1187.4000;0.6097;3.0456;
1187.7000;0.5991;3.0169;
1188.0000;0.5958;3.0122;
1188.3000;0.5934;3.0026;
1188.6000;0.5983;3.0217;
1188.9000;0.5991;3.0265;
1189.2000;0.5999;3.0217;
1189.5000;0.5991;3.0169;
1189.8000;0.6015;3.0193;
1190.1000;0.6007;3.0193;
1190.4000;0.6015;3.0217;
1190.7000;0.5918;3.0098;
1191.0000;0.6007;3.0289;
1191.3000;0.5991;3.0193;
1191.6000;0.5999;3.0193;
1191.9000;0.6007;3.0217;
1192.2000;0.5999;3.0265;
1192.5000;0.6015;3.0265;
1192.8000;0.5999;3.0217;
1193.1000;0.5983;3.0169;
1193.4000;0.6007;3.0122;
1193.7000;0.6007;3.0050;
1194.0000;0.5991;2.9931;
1194.3000;0.5975;2.9835;
1194.6000;0.5991;2.9859;
1194.9000;0.5967;2.9835;
1195.2000;0.5983;2.9931;
1195.5000;0.5983;2.9955;
1195.8000;0.5975;2.9978;
1196.1000;0.5991;3.0122;
1196.4000;0.5958;3.0026;
1196.7000;0.5967;3.0074;
1197.0000;0.5958;3.0098;
1197.3000;0.6064;3.0313;
1197.6000;0.5991;3.0122;
1197.9000;0.5975;3.0098;
1198.2000;0.5975;3.0050;
1198.5000;0.5991;3.0145;
1198.8000;0.6015;3.0217;
1199.1000;0.5967;3.0122;
1199.4000;0.5991;3.0169;
1199.7000;0.5991;3.0145;
1200.0000;0.6015;3.0050;
1200.3000;0.5967;2.9835;
1200.6000;0.6007;2.9955;
1200.9000;0.5991;2.9931;
1201.2000;0.5967;2.9859;
1201.5000;0.5983;2.9907;
1201.8000;0.5999;2.9955;
1202.1000;0.5991;2.9931;
1202.4000;0.5991;3.0026;
1202.7000;0.5991;3.0122;
1203.0000;0.5926;2.9955;
1203.3000;0.5991;3.0026;
1203.6000;0.5967;2.9955;
1203.9000;0.5910;2.9835;
1204.2000;0.5967;3.0050;
1204.5000;0.5975;3.0145;
1204.8000;0.6032;3.0241;
1205.1000;0.5999;3.0265;
1205.4000;0.5983;3.0217;
1205.7000;0.5991;3.0193;
1206.0000;0.5991;3.0241;
1206.3000;0.5975;3.0193;
1206.6000;0.5983;3.0193;
1206.9000;0.5983;3.0193;
1207.2000;0.5991;3.0217;
1207.5000;0.5999;3.0169;
1207.8000;0.5983;3.0193;
1208.1000;0.6007;3.0289;
1208.4000;0.5983;3.0289;
1208.7000;0.5975;3.0265;
1209.0000;0.5983;3.0241;
1209.3000;0.5983;3.0241;
1209.6000;0.5975;3.0169;
1209.9000;0.5991;3.0241;
1210.2000;0.5991;3.0241;
1210.5000;0.5983;3.0241;
1210.8000;0.6007;3.0289;
1211.1000;0.5975;3.0145;
1211.4000;0.5975;3.0122;
1211.7000;0.6024;3.0289;
1212.0000;0.5975;3.0122;
1212.3000;0.5975;3.0145;
1212.6000;0.5942;2.9978;
1212.9000;0.5999;3.0122;
1213.2000;0.5999;3.0169;
1213.5000;0.5975;3.0193;
1213.8000;0.6007;3.0241;
1214.1000;0.5983;3.0098;
1214.4000;0.5991;3.0026;
1214.7000;0.5991;3.0074;
1215.0000;0.5991;3.0098;
1215.3000;0.6007;3.0074;
1215.6000;0.5991;3.0002;
1215.9000;0.5983;2.9907;
1216.2000;0.5991;2.9883;
1216.5000;0.6032;3.0074;
1216.8000;0.6007;3.0002;
1217.1000;0.5975;2.9931;
1217.4000;0.5991;2.9978;
1217.7000;0.6007;3.0098;
1218.0000;0.5967;3.0050;
1218.3000;0.5991;3.0098;
1218.6000;0.5967;3.0074;
1218.9000;0.5983;3.0050;
1219.2000;0.5983;2.9931;
1219.5000;0.5991;2.9931;
1219.8000;0.5999;2.9955;
1220.1000;0.5983;3.0002;
1220.4000;0.5975;3.0050;
1220.7000;0.5999;3.0145;
1221.0000;0.6007;3.0265;
1221.3000;0.5991;3.0217;
1221.6000;0.5950;3.0098;
1221.9000;0.5983;3.0074;
1222.2000;0.6007;3.0098;
1222.5000;0.5967;3.0050;
1222.8000;0.5975;3.0050;
1223.1000;0.5991;3.0002;
1223.4000;0.6024;3.0026;
1223.7000;0.5967;2.9883;
1224.0000;0.5975;2.9883;
1224.3000;0.5991;2.9955;
1224.6000;0.5983;2.9931;
1224.9000;0.5983;2.9907;
1225.2000;0.6007;2.9978;
1225.5000;0.5991;2.9978;
1225.8000;0.5910;2.9764;
1226.1000;0.5967;2.9907;
1226.4000;0.5999;3.0026;
1226.7000;0.5999;3.0050;
1227.0000;0.5983;3.0074;
1227.3000;0.5975;3.0026;
1227.6000;0.5991;3.0074;
1227.9000;0.6015;3.0169;
1228.2000;0.5991;3.0122;
1228.5000;0.5983;3.0074;
1228.8000;0.5983;3.0026;
1229.1000;0.6048;3.0098;
1229.4000;0.5983;2.9931;
1229.7000;0.5958;2.9883;
1230.0000;0.5983;2.9978;
1230.3000;0.5999;2.9955;
1230.6000;0.6040;3.0002;
1230.9000;0.5975;2.9907;
1231.2000;0.5958;2.9859;
1231.5000;0.5983;2.9955;
1231.8000;0.5975;3.0002;
1232.1000;0.5983;3.0098;
1232.4000;0.5967;3.0098;
1232.7000;0.6024;3.0145;
1233.0000;0.5983;3.0050;
1233.3000;0.5967;3.0050;
1233.6000;0.5983;3.0050;
1233.9000;0.5975;2.9931;
1234.2000;0.5983;2.9978;
1234.5000;0.5991;2.9978;
1234.8000;0.5975;3.0122;
1235.1000;0.5983;3.0122;
1235.4000;0.5967;3.0074;
1235.7000;0.6072;3.0336;
1236.0000;0.5967;3.0122;
1236.3000;0.5958;3.0145;
1236.6000;0.6081;3.0432;
1236.9000;0.5975;3.0169;
1237.2000;0.5983;3.0074;
1237.5000;0.5958;2.9955;
1237.8000;0.5991;3.0050;
1238.1000;0.5983;3.0122;
1238.4000;0.5991;3.0122;
1238.7000;0.5983;3.0074;
1239.0000;0.5999;3.0002;
1239.3000;0.6007;2.9931;
1239.6000;0.5999;2.9883;
1239.9000;0.6032;3.0050;
1240.2000;0.5950;2.9835;
1240.5000;0.5983;2.9883;
1240.8000;0.5975;2.9883;
1241.1000;0.5975;2.9883;
1241.4000;0.5967;2.9883;
1241.7000;0.5958;2.9883;
1242.0000;0.5983;2.9955;
1242.3000;0.5975;2.9931;
1242.6000;0.5983;2.9835;
1242.9000;0.5983;2.9883;
1243.2000;0.5967;2.9835;
1243.5000;0.5999;2.9955;
1243.8000;0.5983;2.9955;
1244.1000;0.5983;2.9859;
1244.4000;0.6032;2.9931;
1244.7000;0.5999;2.9907;
1245.0000;0.5991;2.9835;
1245.3000;0.5926;2.9620;
1245.6000;0.5975;2.9740;
1245.9000;0.5983;2.9764;
1246.2000;0.5967;2.9716;
1246.5000;0.5958;2.9764;
1246.8000;0.5983;2.9859;
1247.1000;0.6032;3.0050;
1247.4000;0.5967;2.9811;
1247.7000;0.5991;2.9931;
1248.0000;0.5983;3.0002;
1248.3000;0.5999;3.0050;
1248.6000;0.5958;2.9931;
1248.9000;0.5958;2.9883;
1249.2000;0.5991;3.0026;
1249.5000;0.5999;3.0026;
1249.8000;0.5975;2.9955;
1250.1000;0.5991;3.0026;
1250.4000;0.5958;2.9907;
1250.7000;0.5999;2.9955;
1251.0000;0.5934;2.9859;
1251.3000;0.5991;2.9907;
1251.6000;0.5918;2.9644;
1251.9000;0.6007;2.9859;
1252.2000;0.5991;2.9931;
1252.5000;0.5967;2.9907;
1252.8000;0.5958;2.9931;
1253.1000;0.5975;3.0026;
1253.4000;0.5983;3.0122;
1253.7000;0.5967;3.0002;
1254.0000;0.5991;3.0074;
1254.3000;0.5991;3.0050;
1254.6000;0.6007;3.0026;
1254.9000;0.5991;3.0074;
1255.2000;0.5967;3.0026;
1255.5000;0.5999;3.0098;
1255.8000;0.6032;3.0217;
1256.1000;0.5983;3.0098;
1256.4000;0.5967;3.0050;
1256.7000;0.5991;3.0002;
1257.0000;0.5975;3.0050;
1257.3000;0.5999;3.0002;
1257.6000;0.5983;2.9978;
1257.9000;0.5942;2.9907;
1258.2000;0.5975;2.9859;
1258.5000;0.5983;2.9883;
1258.8000;0.5991;2.9955;
1259.1000;0.5950;2.9835;
1259.4000;0.5975;2.9883;
1259.7000;0.6040;3.0050;
1260.0000;0.5983;2.9931;
1260.3000;0.5991;2.9955;
1260.6000;0.5991;2.9907;
1260.9000;0.5975;2.9883;
1261.2000;0.5983;2.9859;
1261.5000;0.5999;2.9811;
1261.8000;0.5967;2.9787;
1262.1000;0.5934;2.9740;
1262.4000;0.5975;2.9907;
1262.7000;0.5983;3.0026;
1263.0000;0.5975;3.0002;
1263.3000;0.5983;2.9978;
1263.6000;0.5975;2.9955;
1263.9000;0.5983;3.0098;
1264.2000;0.5958;2.9907;
1264.5000;0.5983;3.0002;
1264.8000;0.5975;2.9907;
1265.1000;0.5942;2.9787;
1265.4000;0.5991;2.9978;
1265.7000;0.5950;2.9907;
1266.0000;0.5967;3.0026;
1266.3000;0.5999;3.0074;
1266.6000;0.5991;2.9955;
1266.9000;0.5967;2.9978;
1267.2000;0.5958;3.0026;
1267.5000;0.5950;2.9883;
1267.8000;0.5975;2.9859;
1268.1000;0.5975;2.9859;
1268.4000;0.5975;2.9811;
1268.7000;0.5999;2.9907;
1269.0000;0.5983;2.9931;
1269.3000;0.5975;2.9978;
1269.6000;0.5975;2.9955;
1269.9000;0.5958;2.9883;
1270.2000;0.5999;2.9978;
1270.5000;0.5967;2.9883;
1270.8000;0.5975;2.9907;
1271.1000;0.5983;3.0050;
1271.4000;0.5967;3.0050;
1271.7000;0.5967;3.0002;
1272.0000;0.6024;3.0074;
1272.3000;0.5983;2.9978;
1272.6000;0.6007;3.0050;
1272.9000;0.5991;3.0074;
1273.2000;0.5942;2.9907;
1273.5000;0.5975;2.9931;
1273.8000;0.5991;2.9883;
1274.1000;0.5999;2.9883;
1274.4000;0.5983;2.9931;
1274.7000;0.5983;2.9955;
1275.0000;0.5999;2.9978;
1275.3000;0.5991;3.0026;
1275.6000;0.5983;3.0098;
1275.9000;0.5983;3.0122;
1276.2000;0.5975;3.0098;
1276.5000;0.5975;3.0122;
1276.8000;0.5942;3.0050;
1277.1000;0.5950;2.9978;
1277.4000;0.5983;2.9955;
1277.7000;0.5983;2.9907;
1278.0000;0.5983;2.9859;
1278.3000;0.5967;2.9835;
1278.6000;0.6015;3.0002;
1278.9000;0.5991;2.9931;
1279.2000;0.5967;2.9931;
1279.5000;0.5983;3.0002;
1279.8000;0.6024;3.0098;
1280.1000;0.5991;2.9955;
1280.4000;0.5958;2.9859;
1280.7000;0.5991;2.9883;
1281.0000;0.5975;2.9883;
1281.3000;0.5999;2.9955;
1281.6000;0.5975;2.9907;
1281.9000;0.5967;2.9859;
1282.2000;0.5975;2.9811;
1282.5000;0.6048;3.0002;
1282.8000;0.5975;2.9883;
1283.1000;0.5967;2.9811;
1283.4000;0.5910;2.9692;
1283.7000;0.5999;2.9883;
1284.0000;0.5983;2.9883;
1284.3000;0.6007;2.9978;
1284.6000;0.5991;2.9978;
1284.9000;0.5991;2.9931;
1285.2000;0.5999;2.9978;
1285.5000;0.5991;3.0026;
1285.8000;0.5983;3.0002;
1286.1000;0.5983;2.9907;
1286.4000;0.5991;2.9883;
1286.7000;0.5999;2.9883;
1287.0000;0.5958;2.9835;
1287.3000;0.5967;2.9835;
1287.6000;0.5967;2.9907;
1287.9000;0.5975;2.9883;
1288.2000;0.5967;2.9883;
1288.5000;0.5975;2.9931;
1288.8000;0.6007;2.9931;
1289.1000;0.5999;2.9907;
1289.4000;0.5983;3.0002;
1289.7000;0.5967;3.0050;
1290.0000;0.5975;3.0074;
1290.3000;0.5975;3.0145;
1290.6000;0.5975;3.0074;
1290.9000;0.5975;2.9978;
1291.2000;0.5967;3.0050;
1291.5000;0.5967;3.0074;
1291.8000;0.5942;3.0026;
1292.1000;0.5991;3.0074;
1292.4000;0.5958;3.0002;
1292.7000;0.5967;3.0026;
1293.0000;0.5983;3.0074;
1293.3000;0.5975;2.9955;
1293.6000;0.5983;2.9931;
1293.9000;0.5983;2.9883;
1294.2000;0.5975;2.9835;
1294.5000;0.5975;2.9907;
1294.8000;0.6072;3.0169;
1295.1000;0.5983;2.9883;
1295.4000;0.6032;2.9978;
1295.7000;0.5983;2.9883;
1296.0000;0.5999;2.9907;
1296.3000;0.5950;2.9883;
1296.6000;0.5991;2.9955;
1296.9000;0.5983;2.9859;
1297.2000;0.5967;2.9883;
1297.5000;0.5991;2.9955;
1297.8000;0.6007;3.0050;
1298.1000;0.5991;3.0145;
1298.4000;0.5983;3.0217;
1298.7000;0.5991;3.0217;
1299.0000;0.5999;3.0145;
1299.3000;0.5975;3.0050;
1299.6000;0.5958;3.0026;
1299.9000;0.5991;3.0122;
1300.2000;0.5975;3.0098;
1300.5000;0.5975;3.0122;
1300.8000;0.5893;2.9955;
1301.1000;0.5967;3.0122;
1301.4000;0.5983;3.0098;
1301.7000;0.5967;3.0074;
1302.0000;0.5967;3.0122;
1302.3000;0.5950;3.0122;
1302.6000;0.5975;3.0122;
1302.9000;0.5967;3.0050;
1303.2000;0.5975;3.0050;
1303.5000;0.5991;3.0074;
1303.8000;0.5942;2.9955;
1304.1000;0.5983;3.0122;
1304.4000;0.5991;3.0098;
1304.7000;0.5958;3.0098;
1305.0000;0.5950;2.9955;
1305.3000;0.5975;2.9978;
1305.6000;0.5983;2.9907;
1305.9000;0.5967;2.9811;
1306.2000;0.5991;2.9787;
1306.5000;0.6064;2.9978;
1306.8000;0.5983;2.9740;
1307.1000;0.5983;2.9740;
1307.4000;0.5934;2.9644;
1307.7000;0.5967;2.9644;
1308.0000;0.5999;2.9644;
1308.3000;0.5975;2.9740;
1308.6000;0.6048;2.9907;
1308.9000;0.6007;2.9883;
1309.2000;0.5975;2.9764;
1309.5000;0.6007;2.9859;
1309.8000;0.5975;2.9716;
1310.1000;0.5975;2.9716;
1310.4000;0.5958;2.9716;
1310.7000;0.5975;2.9835;
1311.0000;0.5983;2.9883;
1311.3000;0.5950;2.9835;
1311.6000;0.5967;2.9835;
1311.9000;0.6024;2.9978;
1312.2000;0.5958;2.9907;
1312.5000;0.5991;2.9955;
1312.8000;0.5958;2.9859;
1313.1000;0.6015;3.0098;
1313.4000;0.5983;3.0002;
1313.7000;0.5967;2.9931;
1314.0000;0.5983;2.9978;
1314.3000;0.5967;2.9955;
1314.6000;0.6007;3.0050;
1314.9000;0.5983;3.0074;
1315.2000;0.5967;3.0026;
1315.5000;0.5983;3.0026;
1315.8000;0.5975;3.0050;
1316.1000;0.5942;3.0098;
1316.4000;0.5967;3.0098;
1316.7000;0.5999;3.0169;
1317.0000;0.5983;3.0050;
1317.3000;0.5991;3.0145;
1317.6000;0.5975;3.0098;
1317.9000;0.5999;3.0145;
1318.2000;0.5975;3.0026;
1318.5000;0.5983;3.0026;
1318.8000;0.6007;3.0050;
1319.1000;0.5991;2.9907;
1319.4000;0.5983;2.9859;
1319.7000;0.5999;2.9859;
1320.0000;0.5983;2.9883;
1320.3000;0.5950;2.9835;
1320.6000;0.5983;2.9907;
1320.9000;0.5991;2.9931;
1321.2000;0.5975;2.9907;
1321.5000;0.5983;2.9931;
1321.8000;0.5999;2.9931;
1322.1000;0.5967;2.9835;
1322.4000;0.5967;2.9907;
1322.7000;0.5991;3.0026;
1323.0000;0.5983;3.0074;
1323.3000;0.5975;3.0098;
1323.6000;0.5991;3.0122;
1323.9000;0.5967;3.0026;
1324.2000;0.5975;2.9955;
1324.5000;0.5991;3.0098;
1324.8000;0.6007;3.0169;
1325.1000;0.5975;3.0122;
1325.4000;0.5983;3.0074;
1325.7000;0.5975;3.0098;
1326.0000;0.5983;3.0098;
1326.3000;0.5950;2.9955;
1326.6000;0.5942;2.9859;
1326.9000;0.5967;2.9978;
1327.2000;0.5926;2.9883;
1327.5000;0.5967;2.9931;
1327.8000;0.5958;2.9859;
1328.1000;0.5991;3.0002;
1328.4000;0.5991;3.0026;
1328.7000;0.5975;3.0026;
1329.0000;0.5958;3.0026;
1329.3000;0.5975;3.0002;
1329.6000;0.5991;3.0050;
1329.9000;0.5991;3.0050;
1330.2000;0.5967;3.0050;
1330.5000;0.5950;2.9978;
1330.8000;0.5983;3.0050;
1331.1000;0.5975;3.0122;
1331.4000;0.5983;3.0122;
1331.7000;0.5975;3.0002;
1332.0000;0.5999;3.0050;
1332.3000;0.5975;3.0122;
1332.6000;0.5983;3.0122;
1332.9000;0.5983;3.0145;
1333.2000;0.5991;3.0145;
1333.5000;0.6015;3.0122;
1333.8000;0.6081;3.0360;
1334.1000;0.5983;3.0217;
1334.4000;0.5950;3.0122;
1334.7000;0.5950;3.0074;
1335.0000;0.5942;3.0026;
1335.3000;0.5975;3.0074;
1335.6000;0.5983;3.0098;
1335.9000;0.5942;3.0002;
1336.2000;0.5991;3.0002;
1336.5000;0.5967;2.9835;
1336.8000;0.6007;2.9931;
1337.1000;0.5967;2.9907;
1337.4000;0.5975;2.9955;
1337.7000;0.5967;3.0002;
1338.0000;0.5950;3.0074;
1338.3000;0.5958;3.0026;
1338.6000;0.5991;3.0026;
1338.9000;0.5950;2.9955;
1339.2000;0.5950;2.9883;
1339.5000;0.6040;3.0098;
1339.8000;0.5950;2.9931;
1340.1000;0.5975;3.0002;
1340.4000;0.5983;3.0002;
1340.7000;0.6032;3.0145;
1341.0000;0.5983;3.0122;
1341.3000;0.5958;3.0074;
1341.6000;0.5958;3.0050;
1341.9000;0.5958;3.0050;
1342.2000;0.5975;3.0026;
1342.5000;0.5983;3.0122;
1342.8000;0.5942;3.0026;
1343.1000;0.5967;3.0145;
1343.4000;0.5967;3.0122;
1343.7000;0.6007;3.0217;
1344.0000;0.5983;3.0050;
1344.3000;0.5983;3.0074;
1344.6000;0.5983;3.0002;
1344.9000;0.5983;2.9955;
1345.2000;0.5885;2.9740;
1345.5000;0.5999;2.9955;
1345.8000;0.5975;2.9955;
1346.1000;0.5983;3.0002;
1346.4000;0.5983;3.0002;
1346.7000;0.5975;3.0050;
1347.0000;0.5967;3.0002;
1347.3000;0.5967;3.0074;
1347.6000;0.5950;3.0193;
1347.9000;0.5942;3.0193;
1348.2000;0.5958;3.0241;
1348.5000;0.5958;3.0217;
1348.8000;0.5975;3.0217;
1349.1000;0.5958;3.0122;
1349.4000;0.5975;3.0193;
1349.7000;0.5967;3.0145;
1350.0000;0.5991;3.0145;
1350.3000;0.5967;3.0145;
1350.6000;0.5999;3.0241;
1350.9000;0.5967;3.0217;
1351.2000;0.5967;3.0169;
1351.5000;0.5975;3.0193;
1351.8000;0.5983;3.0265;
1352.1000;0.5975;3.0265;
1352.4000;0.5975;3.0265;
1352.7000;0.5975;3.0193;
1353.0000;0.6007;3.0241;
1353.3000;0.5950;3.0122;
1353.6000;0.5918;3.0098;
1353.9000;0.5975;3.0217;
1354.2000;0.5967;3.0169;
1354.5000;0.5975;3.0241;
1354.8000;0.6015;3.0313;
1355.1000;0.5999;3.0289;
1355.4000;0.5975;3.0289;
1355.7000;0.5983;3.0241;
1356.0000;0.5967;3.0193;
1356.3000;0.5967;3.0169;
1356.6000;0.5983;3.0145;
1356.9000;0.5958;3.0050;
1357.2000;0.5983;3.0122;
1357.5000;0.5991;3.0217;
1357.8000;0.5983;3.0217;
1358.1000;0.5991;3.0265;
1358.4000;0.5991;3.0193;
1358.7000;0.6015;3.0265;
1359.0000;0.5934;3.0265;
1359.3000;0.5975;3.0360;
1359.6000;0.5967;3.0384;
1359.9000;0.5975;3.0384;
1360.2000;0.5958;3.0384;
1360.5000;0.5975;3.0336;
1360.8000;0.5975;3.0265;
1361.1000;0.5967;3.0122;
1361.4000;0.5967;3.0217;
1361.7000;0.5983;3.0217;
1362.0000;0.5975;3.0145;
1362.3000;0.5983;3.0122;
1362.6000;0.5967;3.0074;
1362.9000;0.5975;3.0145;
1363.2000;0.5967;3.0145;
1363.5000;0.5869;2.9859;
1363.8000;0.5967;3.0122;
1364.1000;0.5991;3.0145;
1364.4000;0.5893;2.9859;
1364.7000;0.6032;3.0098;
1365.0000;0.5967;2.9955;
1365.3000;0.5999;2.9978;
1365.6000;0.5983;2.9907;
1365.9000;0.5983;2.9859;
1366.2000;0.5983;2.9907;
1366.5000;0.5967;2.9978;
1366.8000;0.5975;3.0074;
1367.1000;0.5991;3.0193;
1367.4000;0.5958;3.0026;
1367.7000;0.5950;3.0002;
1368.0000;0.5967;3.0026;
1368.3000;0.5958;2.9931;
1368.6000;0.5983;2.9931;
1368.9000;0.5967;3.0050;
1369.2000;0.6032;3.0265;
1369.5000;0.5967;3.0074;
1369.8000;0.5983;3.0050;
1370.1000;0.5991;3.0050;
1370.4000;0.5967;3.0002;
1370.7000;0.5967;3.0026;
1371.0000;0.5975;2.9978;
1371.3000;0.5975;3.0002;
1371.6000;0.5991;3.0074;
1371.9000;0.5958;3.0026;
1372.2000;0.5958;3.0145;
1372.5000;0.6007;3.0289;
1372.8000;0.5975;3.0241;
1373.1000;0.5967;3.0193;
1373.4000;0.5950;3.0241;
1373.7000;0.5967;3.0193;
1374.0000;0.5975;3.0145;
1374.3000;0.5983;3.0193;
1374.6000;0.5983;3.0265;
1374.9000;0.5975;3.0122;
1375.2000;0.6007;3.0289;
1375.5000;0.5999;3.0193;
1375.8000;0.5975;3.0098;
1376.1000;0.5958;2.9931;
1376.4000;0.5975;3.0050;
1376.7000;0.5958;3.0050;
1377.0000;0.5999;3.0145;
1377.3000;0.5967;3.0050;
1377.6000;0.5967;2.9955;
1377.9000;0.5991;2.9955;
1378.2000;0.5975;3.0002;
1378.5000;0.5983;3.0074;
1378.8000;0.5975;3.0074;
1379.1000;0.5975;3.0074;
1379.4000;0.5983;3.0026;
1379.7000;0.5983;2.9978;
1380.0000;0.6024;3.0050;
1380.3000;0.5975;2.9931;
1380.6000;0.5991;2.9931;
1380.9000;0.5983;2.9907;
1381.2000;0.5999;3.0074;
1381.5000;0.5991;3.0098;
1381.8000;0.5967;3.0026;
1382.1000;0.5918;2.9978;
1382.4000;0.5967;3.0098;
1382.7000;0.5967;3.0050;
1383.0000;0.5983;3.0074;
1383.3000;0.5950;3.0050;
1383.6000;0.5967;3.0169;
1383.9000;0.5999;3.0336;
1384.2000;0.5999;3.0360;
1384.5000;0.5967;3.0265;
1384.8000;0.5958;3.0145;
1385.1000;0.5967;3.0098;
1385.4000;0.5983;3.0098;
1385.7000;0.6007;3.0145;
1386.0000;0.5983;3.0002;
1386.3000;0.5975;2.9978;
1386.6000;0.5991;2.9978;
1386.9000;0.5999;3.0002;
1387.2000;0.5999;3.0002;
1387.5000;0.5958;2.9955;
1387.8000;0.5942;2.9907;
1388.1000;0.5958;3.0026;
1388.4000;0.5958;3.0074;
1388.7000;0.5975;3.0122;
1389.0000;0.5942;3.0026;
1389.3000;0.5967;3.0098;
1389.6000;0.5958;3.0122;
1389.9000;0.5950;3.0002;
1390.2000;0.5967;3.0002;
1390.5000;0.5975;3.0002;
1390.8000;0.5934;3.0002;
1391.1000;0.5983;3.0074;
1391.4000;0.5975;3.0122;
1391.7000;0.5975;3.0122;
1392.0000;0.5999;3.0193;
1392.3000;0.5967;3.0098;
1392.6000;0.5983;3.0217;
1392.9000;0.5967;3.0217;
1393.2000;0.5967;3.0217;
1393.5000;0.5975;3.0193;
1393.8000;0.5991;3.0217;
1394.1000;0.5975;3.0193;
1394.4000;0.5983;3.0169;
1394.7000;0.5958;3.0145;
1395.0000;0.5991;3.0193;
1395.3000;0.5975;3.0122;
1395.6000;0.5991;3.0122;
1395.9000;0.5967;3.0074;
1396.2000;0.5983;3.0145;
1396.5000;0.5975;3.0145;
1396.8000;0.5999;3.0098;
1397.1000;0.5950;3.0050;
1397.4000;0.5983;3.0122;
1397.7000;0.5958;3.0026;
1398.0000;0.6007;3.0098;
1398.3000;0.5967;3.0050;
1398.6000;0.5958;3.0050;
1398.9000;0.6048;3.0289;
1399.2000;0.5983;3.0074;
1399.5000;0.5975;3.0074;
1399.8000;0.5999;3.0122;
