time/ms;Fluo/V;P700 deltaI/I x10³;
-199.8000;0.7521;3.1482;
-199.5000;0.7513;3.1410;
-199.2000;0.7505;3.1363;
-198.9000;0.7538;3.1434;
-198.6000;0.7570;3.1530;
-198.3000;0.7513;3.1387;
-198.0000;0.7521;3.1387;
-197.7000;0.7546;3.1434;
-197.4000;0.7546;3.1387;
-197.1000;0.7521;3.1339;
-196.8000;0.7530;3.1506;
-196.5000;0.7513;3.1410;
-196.2000;0.7538;3.1482;
-195.9000;0.7521;3.1434;
-195.6000;0.7513;3.1410;
-195.3000;0.7546;3.1458;
-195.0000;0.7521;3.1410;
-194.7000;0.7513;3.1458;
-194.4000;0.7521;3.1458;
-194.1000;0.7538;3.1482;
-193.8000;0.7530;3.1434;
-193.5000;0.7513;3.1387;
-193.2000;0.7513;3.1387;
-192.9000;0.7530;3.1363;
-192.6000;0.7530;3.1387;
-192.3000;0.7521;3.1315;
-192.0000;0.7530;3.1315;
-191.7000;0.7530;3.1339;
-191.4000;0.7546;3.1410;
-191.1000;0.7530;3.1339;
-190.8000;0.7521;3.1339;
-190.5000;0.7554;3.1482;
-190.2000;0.7521;3.1554;
-189.9000;0.7521;3.1506;
-189.6000;0.7521;3.1530;
-189.3000;0.7521;3.1554;
-189.0000;0.7530;3.1530;
-188.7000;0.7530;3.1410;
-188.4000;0.7521;3.1387;
-188.1000;0.7546;3.1458;
-187.8000;0.7530;3.1434;
-187.5000;0.7538;3.1434;
-187.2000;0.7530;3.1458;
-186.9000;0.7538;3.1482;
-186.6000;0.7521;3.1458;
-186.3000;0.7530;3.1530;
-186.0000;0.7530;3.1506;
-185.7000;0.7505;3.1458;
-185.4000;0.7521;3.1482;
-185.1000;0.7521;3.1530;
-184.8000;0.7521;3.1530;
-184.5000;0.7513;3.1554;
-184.2000;0.7521;3.1578;
-183.9000;0.7481;3.1434;
-183.6000;0.7530;3.1649;
-183.3000;0.7530;3.1601;
-183.0000;0.7513;3.1601;
-182.7000;0.7570;3.1673;
-182.4000;0.7521;3.1458;
-182.1000;0.7521;3.1506;
-181.8000;0.7530;3.1625;
-181.5000;0.7521;3.1578;
-181.2000;0.7521;3.1578;
-180.9000;0.7521;3.1506;
-180.6000;0.7513;3.1410;
-180.3000;0.7513;3.1458;
-180.0000;0.7513;3.1530;
-179.7000;0.7538;3.1482;
-179.4000;0.7521;3.1506;
-179.1000;0.7521;3.1506;
-178.8000;0.7513;3.1434;
-178.5000;0.7521;3.1434;
-178.2000;0.7521;3.1458;
-177.9000;0.7530;3.1482;
-177.6000;0.7505;3.1458;
-177.3000;0.7538;3.1363;
-177.0000;0.7586;3.1458;
-176.7000;0.7562;3.1387;
-176.4000;0.7578;3.1482;
-176.1000;0.7546;3.1434;
-175.8000;0.7538;3.1387;
-175.5000;0.7513;3.1363;
-175.2000;0.7513;3.1410;
-174.9000;0.7530;3.1434;
-174.6000;0.7440;3.1220;
-174.3000;0.7521;3.1410;
-174.0000;0.7570;3.1530;
-173.7000;0.7586;3.1601;
-173.4000;0.7513;3.1363;
-173.1000;0.7521;3.1410;
-172.8000;0.7538;3.1387;
-172.5000;0.7530;3.1458;
-172.2000;0.7538;3.1506;
-171.9000;0.7521;3.1601;
-171.6000;0.7513;3.1554;
-171.3000;0.7521;3.1554;
-171.0000;0.7538;3.1554;
-170.7000;0.7521;3.1530;
-170.4000;0.7513;3.1482;
-170.1000;0.7513;3.1506;
-169.8000;0.7521;3.1625;
-169.5000;0.7530;3.1649;
-169.2000;0.7513;3.1625;
-168.9000;0.7521;3.1578;
-168.6000;0.7530;3.1649;
-168.3000;0.7530;3.1578;
-168.0000;0.7521;3.1506;
-167.7000;0.7521;3.1530;
-167.4000;0.7513;3.1578;
-167.1000;0.7521;3.1649;
-166.8000;0.7521;3.1625;
-166.5000;0.7513;3.1578;
-166.2000;0.7530;3.1649;
-165.9000;0.7538;3.1649;
-165.6000;0.7505;3.1601;
-165.3000;0.7513;3.1530;
-165.0000;0.7513;3.1482;
-164.7000;0.7530;3.1434;
-164.4000;0.7521;3.1434;
-164.1000;0.7538;3.1506;
-163.8000;0.7513;3.1578;
-163.5000;0.7562;3.1697;
-163.2000;0.7530;3.1601;
-162.9000;0.7546;3.1530;
-162.6000;0.7513;3.1434;
-162.3000;0.7513;3.1410;
-162.0000;0.7586;3.1458;
-161.7000;0.7546;3.1339;
-161.4000;0.7586;3.1410;
-161.1000;0.7530;3.1267;
-160.8000;0.7554;3.1196;
-160.5000;0.7513;3.1124;
-160.2000;0.7513;3.1172;
-159.9000;0.7513;3.1267;
-159.6000;0.7546;3.1291;
-159.3000;0.7473;3.1172;
-159.0000;0.7521;3.1387;
-158.7000;0.7586;3.1601;
-158.4000;0.7473;3.1363;
-158.1000;0.7513;3.1387;
-157.8000;0.7497;3.1291;
-157.5000;0.7513;3.1291;
-157.2000;0.7521;3.1243;
-156.9000;0.7513;3.1315;
-156.6000;0.7513;3.1339;
-156.3000;0.7521;3.1410;
-156.0000;0.7521;3.1530;
-155.7000;0.7513;3.1482;
-155.4000;0.7513;3.1506;
-155.1000;0.7521;3.1578;
-154.8000;0.7473;3.1458;
-154.5000;0.7505;3.1410;
-154.2000;0.7513;3.1434;
-153.9000;0.7513;3.1458;
-153.6000;0.7554;3.1649;
-153.3000;0.7546;3.1578;
-153.0000;0.7521;3.1578;
-152.7000;0.7530;3.1530;
-152.4000;0.7521;3.1482;
-152.1000;0.7530;3.1506;
-151.8000;0.7538;3.1530;
-151.5000;0.7530;3.1410;
-151.2000;0.7586;3.1506;
-150.9000;0.7521;3.1363;
-150.6000;0.7554;3.1434;
-150.3000;0.7521;3.1363;
-150.0000;0.7505;3.1339;
-149.7000;0.7513;3.1410;
-149.4000;0.7521;3.1482;
-149.1000;0.7530;3.1458;
-148.8000;0.7513;3.1482;
-148.5000;0.7521;3.1458;
-148.2000;0.7530;3.1506;
-147.9000;0.7521;3.1387;
-147.6000;0.7521;3.1339;
-147.3000;0.7513;3.1291;
-147.0000;0.7530;3.1363;
-146.7000;0.7497;3.1220;
-146.4000;0.7513;3.1243;
-146.1000;0.7513;3.1291;
-145.8000;0.7513;3.1315;
-145.5000;0.7521;3.1315;
-145.2000;0.7497;3.1220;
-144.9000;0.7456;3.1124;
-144.6000;0.7530;3.1339;
-144.3000;0.7513;3.1291;
-144.0000;0.7505;3.1291;
-143.7000;0.7530;3.1339;
-143.4000;0.7505;3.1291;
-143.1000;0.7530;3.1339;
-142.8000;0.7562;3.1506;
-142.5000;0.7546;3.1506;
-142.2000;0.7521;3.1410;
-141.9000;0.7530;3.1434;
-141.6000;0.7505;3.1410;
-141.3000;0.7538;3.1482;
-141.0000;0.7546;3.1554;
-140.7000;0.7578;3.1578;
-140.4000;0.7538;3.1434;
-140.1000;0.7521;3.1363;
-139.8000;0.7505;3.1387;
-139.5000;0.7489;3.1291;
-139.2000;0.7513;3.1339;
-138.9000;0.7481;3.1291;
-138.6000;0.7505;3.1387;
-138.3000;0.7521;3.1387;
-138.0000;0.7530;3.1410;
-137.7000;0.7530;3.1410;
-137.4000;0.7521;3.1434;
-137.1000;0.7546;3.1482;
-136.8000;0.7464;3.1387;
-136.5000;0.7530;3.1506;
-136.2000;0.7505;3.1410;
-135.9000;0.7505;3.1339;
-135.6000;0.7530;3.1339;
-135.3000;0.7521;3.1339;
-135.0000;0.7521;3.1267;
-134.7000;0.7505;3.1267;
-134.4000;0.7497;3.1220;
-134.1000;0.7521;3.1315;
-133.8000;0.7530;3.1267;
-133.5000;0.7521;3.1243;
-133.2000;0.7521;3.1172;
-132.9000;0.7521;3.1196;
-132.6000;0.7530;3.1220;
-132.3000;0.7513;3.1243;
-132.0000;0.7513;3.1196;
-131.7000;0.7538;3.1172;
-131.4000;0.7521;3.1172;
-131.1000;0.7546;3.1315;
-130.8000;0.7521;3.1291;
-130.5000;0.7530;3.1387;
-130.2000;0.7530;3.1387;
-129.9000;0.7513;3.1339;
-129.6000;0.7497;3.1387;
-129.3000;0.7521;3.1506;
-129.0000;0.7473;3.1339;
-128.7000;0.7513;3.1530;
-128.4000;0.7513;3.1601;
-128.1000;0.7546;3.1625;
-127.8000;0.7530;3.1601;
-127.5000;0.7562;3.1601;
-127.2000;0.7473;3.1363;
-126.9000;0.7521;3.1601;
-126.6000;0.7521;3.1601;
-126.3000;0.7538;3.1625;
-126.0000;0.7595;3.1721;
-125.7000;0.7513;3.1410;
-125.4000;0.7530;3.1434;
-125.1000;0.7521;3.1434;
-124.8000;0.7562;3.1578;
-124.5000;0.7538;3.1482;
-124.2000;0.7513;3.1482;
-123.9000;0.7562;3.1506;
-123.6000;0.7513;3.1434;
-123.3000;0.7530;3.1434;
-123.0000;0.7611;3.1578;
-122.7000;0.7530;3.1387;
-122.4000;0.7521;3.1410;
-122.1000;0.7546;3.1387;
-121.8000;0.7521;3.1363;
-121.5000;0.7538;3.1458;
-121.2000;0.7530;3.1434;
-120.9000;0.7570;3.1530;
-120.6000;0.7497;3.1458;
-120.3000;0.7513;3.1506;
-120.0000;0.7521;3.1554;
-119.7000;0.7481;3.1410;
-119.4000;0.7505;3.1530;
-119.1000;0.7530;3.1506;
-118.8000;0.7513;3.1458;
-118.5000;0.7521;3.1506;
-118.2000;0.7505;3.1506;
-117.9000;0.7521;3.1482;
-117.6000;0.7521;3.1434;
-117.3000;0.7562;3.1506;
-117.0000;0.7521;3.1458;
-116.7000;0.7521;3.1506;
-116.4000;0.7497;3.1458;
-116.1000;0.7513;3.1482;
-115.8000;0.7513;3.1530;
-115.5000;0.7595;3.1697;
-115.2000;0.7481;3.1363;
-114.9000;0.7546;3.1434;
-114.6000;0.7521;3.1363;
-114.3000;0.7521;3.1363;
-114.0000;0.7521;3.1315;
-113.7000;0.7538;3.1363;
-113.4000;0.7521;3.1291;
-113.1000;0.7513;3.1267;
-112.8000;0.7521;3.1291;
-112.5000;0.7505;3.1243;
-112.2000;0.7530;3.1315;
-111.9000;0.7546;3.1363;
-111.6000;0.7530;3.1363;
-111.3000;0.7513;3.1315;
-111.0000;0.7530;3.1410;
-110.7000;0.7473;3.1220;
-110.4000;0.7489;3.1220;
-110.1000;0.7521;3.1339;
-109.8000;0.7513;3.1482;
-109.5000;0.7521;3.1482;
-109.2000;0.7513;3.1434;
-108.9000;0.7513;3.1410;
-108.6000;0.7521;3.1387;
-108.3000;0.7521;3.1363;
-108.0000;0.7538;3.1434;
-107.7000;0.7530;3.1482;
-107.4000;0.7595;3.1697;
-107.1000;0.7513;3.1434;
-106.8000;0.7538;3.1434;
-106.5000;0.7521;3.1434;
-106.2000;0.7497;3.1363;
-105.9000;0.7505;3.1315;
-105.6000;0.7521;3.1363;
-105.3000;0.7530;3.1339;
-105.0000;0.7643;3.1768;
-104.7000;0.7505;3.1458;
-104.4000;0.7562;3.1434;
-104.1000;0.7481;3.1196;
-103.8000;0.7456;3.1100;
-103.5000;0.7513;3.1291;
-103.2000;0.7521;3.1291;
-102.9000;0.7473;3.1291;
-102.6000;0.7546;3.1482;
-102.3000;0.7521;3.1410;
-102.0000;0.7578;3.1482;
-101.7000;0.7530;3.1363;
-101.4000;0.7513;3.1315;
-101.1000;0.7505;3.1291;
-100.8000;0.7513;3.1410;
-100.5000;0.7521;3.1410;
-100.2000;0.7521;3.1339;
-99.9000;0.7440;3.1243;
-99.6000;0.7513;3.1291;
-99.3000;0.7530;3.1291;
-99.0000;0.7530;3.1410;
-98.7000;0.7521;3.1387;
-98.4000;0.7530;3.1363;
-98.1000;0.7530;3.1339;
-97.8000;0.7546;3.1387;
-97.5000;0.7530;3.1291;
-97.2000;0.7538;3.1315;
-96.9000;0.7538;3.1267;
-96.6000;0.7538;3.1291;
-96.3000;0.7538;3.1410;
-96.0000;0.7538;3.1578;
-95.7000;0.7497;3.1506;
-95.4000;0.7489;3.1434;
-95.1000;0.7530;3.1554;
-94.8000;0.7546;3.1625;
-94.5000;0.7505;3.1578;
-94.2000;0.7530;3.1530;
-93.9000;0.7513;3.1315;
-93.6000;0.7562;3.1363;
-93.3000;0.7505;3.1172;
-93.0000;0.7521;3.1196;
-92.7000;0.7538;3.1220;
-92.4000;0.7521;3.1172;
-92.1000;0.7538;3.1243;
-91.8000;0.7546;3.1291;
-91.5000;0.7554;3.1315;
-91.2000;0.7481;3.1124;
-90.9000;0.7538;3.1172;
-90.6000;0.7530;3.1196;
-90.3000;0.7505;3.1005;
-90.0000;0.7521;3.1005;
-89.7000;0.7546;3.1029;
-89.4000;0.7521;3.1005;
-89.1000;0.7464;3.0766;
-88.8000;0.7521;3.0909;
-88.5000;0.7513;3.0909;
-88.2000;0.7530;3.1005;
-87.9000;0.7521;3.1100;
-87.6000;0.7513;3.1076;
-87.3000;0.7513;3.1076;
-87.0000;0.7530;3.1076;
-86.7000;0.7513;3.1100;
-86.4000;0.7570;3.1243;
-86.1000;0.7513;3.1052;
-85.8000;0.7513;3.0981;
-85.5000;0.7505;3.0957;
-85.2000;0.7530;3.1029;
-84.9000;0.7505;3.1005;
-84.6000;0.7521;3.1029;
-84.3000;0.7513;3.1029;
-84.0000;0.7505;3.0933;
-83.7000;0.7513;3.0885;
-83.4000;0.7546;3.0957;
-83.1000;0.7530;3.0885;
-82.8000;0.7464;3.0718;
-82.5000;0.7521;3.0838;
-82.2000;0.7538;3.0909;
-81.9000;0.7513;3.0838;
-81.6000;0.7538;3.0838;
-81.3000;0.7505;3.0885;
-81.0000;0.7627;3.1243;
-80.7000;0.7530;3.1100;
-80.4000;0.7521;3.1076;
-80.1000;0.7530;3.1100;
-79.8000;0.7521;3.1172;
-79.5000;0.7521;3.1196;
-79.2000;0.7521;3.1196;
-78.9000;0.7538;3.1196;
-78.6000;0.7505;3.1148;
-78.3000;0.7513;3.1076;
-78.0000;0.7538;3.1100;
-77.7000;0.7505;3.1100;
-77.4000;0.7521;3.1052;
-77.1000;0.7521;3.1052;
-76.8000;0.7538;3.1052;
-76.5000;0.7530;3.1076;
-76.2000;0.7521;3.1100;
-75.9000;0.7521;3.1100;
-75.6000;0.7521;3.1196;
-75.3000;0.7521;3.1220;
-75.0000;0.7456;3.1052;
-74.7000;0.7497;3.1124;
-74.4000;0.7521;3.1148;
-74.1000;0.7521;3.1148;
-73.8000;0.7521;3.1196;
-73.5000;0.7521;3.1243;
-73.2000;0.7530;3.1267;
-72.9000;0.7538;3.1339;
-72.6000;0.7546;3.1410;
-72.3000;0.7513;3.1363;
-72.0000;0.7521;3.1410;
-71.7000;0.7538;3.1554;
-71.4000;0.7513;3.1601;
-71.1000;0.7530;3.1530;
-70.8000;0.7530;3.1410;
-70.5000;0.7538;3.1410;
-70.2000;0.7521;3.1363;
-69.9000;0.7570;3.1482;
-69.6000;0.7521;3.1410;
-69.3000;0.7481;3.1339;
-69.0000;0.7530;3.1458;
-68.7000;0.7538;3.1458;
-68.4000;0.7521;3.1387;
-68.1000;0.7530;3.1315;
-67.8000;0.7521;3.1339;
-67.5000;0.7578;3.1434;
-67.2000;0.7521;3.1363;
-66.9000;0.7546;3.1339;
-66.6000;0.7538;3.1363;
-66.3000;0.7513;3.1291;
-66.0000;0.7521;3.1387;
-65.7000;0.7530;3.1387;
-65.4000;0.7513;3.1387;
-65.1000;0.7481;3.1363;
-64.8000;0.7513;3.1339;
-64.5000;0.7505;3.1387;
-64.2000;0.7530;3.1482;
-63.9000;0.7538;3.1482;
-63.6000;0.7570;3.1578;
-63.3000;0.7530;3.1506;
-63.0000;0.7521;3.1363;
-62.7000;0.7521;3.1267;
-62.4000;0.7505;3.1243;
-62.1000;0.7530;3.1387;
-61.8000;0.7546;3.1315;
-61.5000;0.7538;3.1410;
-61.2000;0.7513;3.1410;
-60.9000;0.7530;3.1410;
-60.6000;0.7521;3.1434;
-60.3000;0.7513;3.1434;
-60.0000;0.7513;3.1315;
-59.7000;0.7521;3.1291;
-59.4000;0.7538;3.1243;
-59.1000;0.7578;3.1410;
-58.8000;0.7521;3.1339;
-58.5000;0.7521;3.1410;
-58.2000;0.7521;3.1458;
-57.9000;0.7521;3.1458;
-57.6000;0.7530;3.1315;
-57.3000;0.7603;3.1458;
-57.0000;0.7521;3.1267;
-56.7000;0.7538;3.1363;
-56.4000;0.7538;3.1363;
-56.1000;0.7521;3.1315;
-55.8000;0.7521;3.1315;
-55.5000;0.7530;3.1339;
-55.2000;0.7513;3.1363;
-54.9000;0.7513;3.1315;
-54.6000;0.7521;3.1339;
-54.3000;0.7530;3.1410;
-54.0000;0.7513;3.1458;
-53.7000;0.7521;3.1530;
-53.4000;0.7538;3.1506;
-53.1000;0.7456;3.1315;
-52.8000;0.7530;3.1410;
-52.5000;0.7505;3.1434;
-52.2000;0.7521;3.1434;
-51.9000;0.7538;3.1458;
-51.6000;0.7505;3.1434;
-51.3000;0.7530;3.1530;
-51.0000;0.7530;3.1410;
-50.7000;0.7513;3.1363;
-50.4000;0.7513;3.1410;
-50.1000;0.7554;3.1578;
-49.8000;0.7538;3.1434;
-49.5000;0.7554;3.1363;
-49.2000;0.7521;3.1339;
-48.9000;0.7530;3.1434;
-48.6000;0.7578;3.1506;
-48.3000;0.7513;3.1434;
-48.0000;0.7513;3.1458;
-47.7000;0.7530;3.1410;
-47.4000;0.7562;3.1530;
-47.1000;0.7530;3.1434;
-46.8000;0.7521;3.1434;
-46.5000;0.7530;3.1410;
-46.2000;0.7554;3.1530;
-45.9000;0.7530;3.1434;
-45.6000;0.7513;3.1339;
-45.3000;0.7554;3.1458;
-45.0000;0.7546;3.1482;
-44.7000;0.7538;3.1554;
-44.4000;0.7505;3.1387;
-44.1000;0.7586;3.1578;
-43.8000;0.7530;3.1434;
-43.5000;0.7505;3.1434;
-43.2000;0.7513;3.1434;
-42.9000;0.7538;3.1506;
-42.6000;0.7546;3.1458;
-42.3000;0.7570;3.1506;
-42.0000;0.7530;3.1363;
-41.7000;0.7611;3.1601;
-41.4000;0.7538;3.1458;
-41.1000;0.7530;3.1387;
-40.8000;0.7489;3.1315;
-40.5000;0.7554;3.1482;
-40.2000;0.7546;3.1434;
-39.9000;0.7546;3.1315;
-39.6000;0.7521;3.1363;
-39.3000;0.7513;3.1434;
-39.0000;0.7505;3.1482;
-38.7000;0.7538;3.1554;
-38.4000;0.7530;3.1530;
-38.1000;0.7562;3.1601;
-37.8000;0.7521;3.1601;
-37.5000;0.7521;3.1506;
-37.2000;0.7530;3.1530;
-36.9000;0.7538;3.1506;
-36.6000;0.7521;3.1506;
-36.3000;0.7554;3.1554;
-36.0000;0.7562;3.1649;
-35.7000;0.7521;3.1482;
-35.4000;0.7521;3.1458;
-35.1000;0.7530;3.1458;
-34.8000;0.7546;3.1530;
-34.5000;0.7521;3.1482;
-34.2000;0.7530;3.1387;
-33.9000;0.7562;3.1434;
-33.6000;0.7530;3.1482;
-33.3000;0.7538;3.1434;
-33.0000;0.7513;3.1339;
-32.7000;0.7521;3.1410;
-32.4000;0.7521;3.1434;
-32.1000;0.7530;3.1482;
-31.8000;0.7505;3.1482;
-31.5000;0.7497;3.1387;
-31.2000;0.7521;3.1434;
-30.9000;0.7497;3.1387;
-30.6000;0.7456;3.1243;
-30.3000;0.7513;3.1339;
-30.0000;0.7530;3.1363;
-29.7000;0.7530;3.1291;
-29.4000;0.7513;3.1243;
-29.1000;0.7530;3.1243;
-28.8000;0.7456;3.1100;
-28.5000;0.7497;3.1267;
-28.2000;0.7530;3.1363;
-27.9000;0.7562;3.1506;
-27.6000;0.7521;3.1458;
-27.3000;0.7530;3.1482;
-27.0000;0.7530;3.1434;
-26.7000;0.7513;3.1482;
-26.4000;0.7505;3.1458;
-26.1000;0.7521;3.1434;
-25.8000;0.7530;3.1434;
-25.5000;0.7481;3.1291;
-25.2000;0.7530;3.1410;
-24.9000;0.7530;3.1363;
-24.6000;0.7586;3.1482;
-24.3000;0.7521;3.1315;
-24.0000;0.7505;3.1363;
-23.7000;0.7513;3.1363;
-23.4000;0.7489;3.1410;
-23.1000;0.7530;3.1458;
-22.8000;0.7497;3.1410;
-22.5000;0.7513;3.1554;
-22.2000;0.7530;3.1554;
-21.9000;0.7521;3.1649;
-21.6000;0.7530;3.1697;
-21.3000;0.7521;3.1721;
-21.0000;0.7513;3.1697;
-20.7000;0.7530;3.1697;
-20.4000;0.7489;3.1625;
-20.1000;0.7521;3.1601;
-19.8000;0.7521;3.1649;
-19.5000;0.7489;3.1601;
-19.2000;0.7513;3.1578;
-18.9000;0.7521;3.1482;
-18.6000;0.7546;3.1530;
-18.3000;0.7562;3.1625;
-18.0000;0.7530;3.1530;
-17.7000;0.7505;3.1458;
-17.4000;0.7570;3.1554;
-17.1000;0.7513;3.1387;
-16.8000;0.7513;3.1291;
-16.5000;0.7513;3.1243;
-16.2000;0.7513;3.1196;
-15.9000;0.7530;3.1339;
-15.6000;0.7521;3.1339;
-15.3000;0.7489;3.1410;
-15.0000;0.7513;3.1434;
-14.7000;0.7521;3.1387;
-14.4000;0.7530;3.1363;
-14.1000;0.7513;3.1291;
-13.8000;0.7530;3.1387;
-13.5000;0.7530;3.1410;
-13.2000;0.7497;3.1315;
-12.9000;0.7513;3.1434;
-12.6000;0.7505;3.1458;
-12.3000;0.7521;3.1434;
-12.0000;0.7530;3.1482;
-11.7000;0.7513;3.1410;
-11.4000;0.7505;3.1410;
-11.1000;0.7505;3.1387;
-10.8000;0.7530;3.1482;
-10.5000;0.7505;3.1410;
-10.2000;0.7497;3.1291;
-9.9000;0.7505;3.1363;
-9.6000;0.7521;3.1387;
-9.3000;0.7530;3.1387;
-9.0000;0.7538;3.1530;
-8.7000;0.7505;3.1482;
-8.4000;0.7513;3.1530;
-8.1000;0.7538;3.1601;
-7.8000;0.7521;3.1482;
-7.5000;0.7530;3.1434;
-7.2000;0.7538;3.1482;
-6.9000;0.7497;3.1363;
-6.6000;0.7521;3.1458;
-6.3000;0.7521;3.1458;
-6.0000;0.7521;3.1554;
-5.7000;0.7586;3.1697;
-5.4000;0.7513;3.1482;
-5.1000;0.7538;3.1482;
-4.8000;0.7530;3.1554;
-4.5000;0.7521;3.1482;
-4.2000;0.7530;3.1530;
-3.9000;0.7505;3.1410;
-3.6000;0.7521;3.1458;
-3.3000;0.7521;3.1458;
-3.0000;0.7538;3.1530;
-2.7000;0.7513;3.1506;
-2.4000;0.7521;3.1530;
-2.1000;0.7530;3.1506;
-1.8000;0.7530;3.1554;
-1.5000;0.7489;3.1530;
-1.2000;0.7513;3.1601;
-0.9000;0.7440;3.1339;
-0.6000;0.7530;3.1530;
-0.3000;0.7521;3.1506;
0.0000;0.7521;3.1506;
0.3000;0.7619;3.1673;
0.6000;0.7782;3.1912;
0.9000;0.7855;3.2007;
1.2000;0.8018;3.2437;
1.5000;0.8091;3.2652;
1.8000;0.8164;3.2914;
2.1000;0.8230;3.3033;
2.4000;0.8262;3.3081;
2.7000;0.8303;3.3201;
3.0000;0.8344;3.3320;
3.3000;0.8392;3.3511;
3.6000;0.8409;3.3463;
3.9000;0.8441;3.3511;
4.2000;0.8457;3.3559;
4.5000;0.8466;3.3702;
4.8000;0.8490;3.3797;
5.1000;0.8514;3.3845;
5.4000;0.8531;3.3845;
5.7000;0.8539;3.3869;
6.0000;0.8555;3.3917;
6.3000;0.8571;3.3845;
6.6000;0.8604;3.3940;
6.9000;0.8628;3.4060;
7.2000;0.8612;3.4108;
7.5000;0.8628;3.4084;
7.8000;0.8685;3.4179;
8.1000;0.8669;3.4084;
8.4000;0.8669;3.4108;
8.7000;0.8726;3.4227;
9.0000;0.8677;3.4179;
9.3000;0.8694;3.4155;
9.6000;0.8718;3.4108;
9.9000;0.8718;3.4108;
10.2000;0.8718;3.3988;
10.5000;0.8734;3.3988;
10.8000;0.8742;3.4084;
11.1000;0.8726;3.4108;
11.4000;0.8759;3.4179;
11.7000;0.8791;3.4227;
12.0000;0.8897;3.4513;
12.3000;0.8799;3.4299;
12.6000;0.8791;3.4108;
12.9000;0.8864;3.4203;
13.2000;0.8816;3.4084;
13.5000;0.8840;3.4108;
13.8000;0.8799;3.3964;
14.1000;0.8824;3.4084;
14.4000;0.8848;3.4131;
14.7000;0.8832;3.4131;
15.0000;0.8840;3.4012;
15.3000;0.8856;3.3964;
15.6000;0.8873;3.3964;
15.9000;0.8864;3.4012;
16.2000;0.8873;3.4036;
16.5000;0.8864;3.4036;
16.8000;0.8864;3.3940;
17.1000;0.8921;3.4036;
17.4000;0.8889;3.3940;
17.7000;0.8897;3.3917;
18.0000;0.8889;3.3964;
18.3000;0.8905;3.4060;
18.6000;0.8897;3.4012;
18.9000;0.8864;3.4012;
19.2000;0.8864;3.4012;
19.5000;0.8913;3.4036;
19.8000;0.8921;3.4084;
20.1000;0.8913;3.4131;
20.4000;0.8930;3.4108;
20.7000;0.8913;3.4060;
21.0000;0.8930;3.4060;
21.3000;0.8946;3.4084;
21.6000;0.8921;3.3988;
21.9000;0.8938;3.3988;
22.2000;0.8954;3.3988;
22.5000;0.8889;3.3845;
22.8000;0.8978;3.4060;
23.1000;0.8954;3.3940;
23.4000;0.8987;3.4012;
23.7000;0.8938;3.3964;
24.0000;0.8987;3.4060;
24.3000;0.8987;3.4012;
24.6000;0.9027;3.4179;
24.9000;0.8970;3.4131;
25.2000;0.8954;3.4084;
25.5000;0.8954;3.4036;
25.8000;0.8995;3.4060;
26.1000;0.8970;3.4060;
26.4000;0.8987;3.4155;
26.7000;0.8889;3.3821;
27.0000;0.9003;3.3988;
27.3000;0.9003;3.3988;
27.6000;0.9035;3.4155;
27.9000;0.9011;3.4060;
28.2000;0.8995;3.4060;
28.5000;0.9011;3.4108;
28.8000;0.9011;3.4084;
29.1000;0.9019;3.3988;
29.4000;0.9011;3.4012;
29.7000;0.8987;3.4012;
30.0000;0.9003;3.4084;
30.3000;0.9011;3.4036;
30.6000;0.9027;3.4131;
30.9000;0.9011;3.4084;
31.2000;0.9019;3.4060;
31.5000;0.9027;3.4108;
31.8000;0.9003;3.4108;
32.1000;0.9035;3.4155;
32.4000;0.9035;3.4179;
32.7000;0.9044;3.4227;
33.0000;0.9076;3.4275;
33.3000;0.9027;3.4251;
33.6000;0.9035;3.4179;
33.9000;0.9027;3.4155;
34.2000;0.9035;3.4131;
34.5000;0.9035;3.4131;
34.8000;0.9044;3.4179;
35.1000;0.9044;3.4251;
35.4000;0.9027;3.4203;
35.7000;0.9052;3.4251;
36.0000;0.9035;3.4108;
36.3000;0.9052;3.4131;
36.6000;0.9035;3.4131;
36.9000;0.9035;3.4131;
37.2000;0.9027;3.4084;
37.5000;0.9044;3.4108;
37.8000;0.9044;3.4227;
38.1000;0.9044;3.4251;
38.4000;0.9044;3.4203;
38.7000;0.9035;3.4179;
39.0000;0.9052;3.4179;
39.3000;0.9044;3.4155;
39.6000;0.9027;3.4131;
39.9000;0.9060;3.4203;
40.2000;0.9068;3.4251;
40.5000;0.9044;3.4203;
40.8000;0.9035;3.4084;
41.1000;0.9133;3.4275;
41.4000;0.9060;3.4131;
41.7000;0.9084;3.4203;
42.0000;0.9060;3.4131;
42.3000;0.9060;3.4155;
42.6000;0.9052;3.4108;
42.9000;0.9060;3.4131;
43.2000;0.9076;3.4203;
43.5000;0.9068;3.4131;
43.8000;0.9060;3.4084;
44.1000;0.9076;3.4084;
44.4000;0.9076;3.4155;
44.7000;0.9052;3.4203;
45.0000;0.9092;3.4299;
45.3000;0.9101;3.4275;
45.6000;0.9133;3.4275;
45.9000;0.9109;3.4179;
46.2000;0.9068;3.4036;
46.5000;0.9092;3.4179;
46.8000;0.9060;3.4155;
47.1000;0.9060;3.4251;
47.4000;0.9060;3.4179;
47.7000;0.9060;3.4108;
48.0000;0.9068;3.4084;
48.3000;0.9068;3.4108;
48.6000;0.9068;3.4012;
48.9000;0.8995;3.3917;
49.2000;0.9076;3.4131;
49.5000;0.9076;3.4227;
49.8000;0.9060;3.4322;
50.1000;0.9068;3.4322;
50.4000;0.9068;3.4346;
50.7000;0.9068;3.4418;
51.0000;0.9117;3.4489;
51.3000;0.9044;3.4275;
51.6000;0.9141;3.4418;
51.9000;0.9076;3.4251;
52.2000;0.9060;3.4179;
52.5000;0.9068;3.4131;
52.8000;0.9068;3.4203;
53.1000;0.9076;3.4131;
53.4000;0.9068;3.4131;
53.7000;0.9068;3.4108;
54.0000;0.9068;3.4155;
54.3000;0.9068;3.4203;
54.6000;0.9068;3.4227;
54.9000;0.9068;3.4275;
55.2000;0.9068;3.4346;
55.5000;0.9076;3.4394;
55.8000;0.9076;3.4299;
56.1000;0.9068;3.4155;
56.4000;0.9027;3.4084;
56.7000;0.9068;3.4227;
57.0000;0.9076;3.4203;
57.3000;0.9060;3.4203;
57.6000;0.9052;3.4203;
57.9000;0.9060;3.4251;
58.2000;0.9052;3.4275;
58.5000;0.9052;3.4299;
58.8000;0.9084;3.4346;
59.1000;0.9076;3.4227;
59.4000;0.9052;3.4131;
59.7000;0.9092;3.4203;
60.0000;0.9068;3.4299;
60.3000;0.9068;3.4203;
60.6000;0.9084;3.4299;
60.9000;0.9068;3.4251;
61.2000;0.9060;3.4179;
61.5000;0.9060;3.4131;
61.8000;0.9035;3.4060;
62.1000;0.9060;3.4108;
62.4000;0.9035;3.4036;
62.7000;0.9060;3.4131;
63.0000;0.9060;3.4084;
63.3000;0.9068;3.4108;
63.6000;0.9068;3.4108;
63.9000;0.9076;3.4203;
64.2000;0.9068;3.4322;
64.5000;0.9092;3.4299;
64.8000;0.9068;3.4251;
65.1000;0.9076;3.4155;
65.4000;0.9076;3.4155;
65.7000;0.9068;3.4155;
66.0000;0.9060;3.4131;
66.3000;0.9060;3.4108;
66.6000;0.9044;3.4155;
66.9000;0.9068;3.4084;
67.2000;0.9076;3.4108;
67.5000;0.9027;3.3988;
67.8000;0.9068;3.4084;
68.1000;0.9084;3.4179;
68.4000;0.9092;3.4108;
68.7000;0.9101;3.4131;
69.0000;0.9076;3.4131;
69.3000;0.9084;3.4108;
69.6000;0.9101;3.4131;
69.9000;0.9076;3.4084;
70.2000;0.9084;3.4131;
70.5000;0.9133;3.4227;
70.8000;0.9092;3.4155;
71.1000;0.9092;3.4108;
71.4000;0.9076;3.4060;
71.7000;0.9084;3.4227;
72.0000;0.9076;3.4203;
72.3000;0.9076;3.4131;
72.6000;0.9035;3.3988;
72.9000;0.9076;3.4108;
73.2000;0.9092;3.4131;
73.5000;0.9084;3.4131;
73.8000;0.9092;3.4155;
74.1000;0.9068;3.4060;
74.4000;0.9092;3.4084;
74.7000;0.9092;3.4084;
75.0000;0.9076;3.4060;
75.3000;0.9092;3.4060;
75.6000;0.9101;3.4060;
75.9000;0.9092;3.4084;
76.2000;0.9076;3.4060;
76.5000;0.9076;3.4036;
76.8000;0.9084;3.4012;
77.1000;0.9076;3.3893;
77.4000;0.9092;3.3940;
77.7000;0.9068;3.3964;
78.0000;0.9084;3.3964;
78.3000;0.9076;3.4036;
78.6000;0.9060;3.3988;
78.9000;0.9084;3.4060;
79.2000;0.8995;3.3869;
79.5000;0.9101;3.4036;
79.8000;0.9084;3.3988;
80.1000;0.9076;3.3988;
80.4000;0.9068;3.3940;
80.7000;0.9068;3.3940;
81.0000;0.9076;3.4036;
81.3000;0.9060;3.3988;
81.6000;0.9068;3.3940;
81.9000;0.9076;3.3917;
82.2000;0.9076;3.3988;
82.5000;0.9052;3.4012;
82.8000;0.9068;3.3988;
83.1000;0.9076;3.3869;
83.4000;0.9158;3.4108;
83.7000;0.9068;3.3917;
84.0000;0.9060;3.4012;
84.3000;0.9084;3.4060;
84.6000;0.9092;3.4179;
84.9000;0.9092;3.4275;
85.2000;0.9076;3.4275;
85.5000;0.9117;3.4322;
85.8000;0.9092;3.4179;
86.1000;0.9068;3.4060;
86.4000;0.9060;3.4131;
86.7000;0.9060;3.4060;
87.0000;0.9092;3.4203;
87.3000;0.9133;3.4394;
87.6000;0.9068;3.4275;
87.9000;0.9035;3.4155;
88.2000;0.9076;3.4155;
88.5000;0.9076;3.4084;
88.8000;0.9084;3.4084;
89.1000;0.9011;3.3869;
89.4000;0.9084;3.3893;
89.7000;0.9052;3.3845;
90.0000;0.9084;3.3869;
90.3000;0.9076;3.3821;
90.6000;0.9084;3.3964;
90.9000;0.9101;3.4084;
91.2000;0.9092;3.4060;
91.5000;0.9084;3.4060;
91.8000;0.9084;3.3988;
92.1000;0.9092;3.3988;
92.4000;0.9117;3.4012;
92.7000;0.9076;3.3917;
93.0000;0.9101;3.4036;
93.3000;0.9084;3.3940;
93.6000;0.9109;3.4012;
93.9000;0.9101;3.3964;
94.2000;0.9068;3.3869;
94.5000;0.9076;3.3845;
94.8000;0.9084;3.3964;
95.1000;0.9092;3.4036;
95.4000;0.9133;3.4060;
95.7000;0.9052;3.3821;
96.0000;0.9092;3.3964;
96.3000;0.9101;3.3988;
96.6000;0.9011;3.3845;
96.9000;0.9076;3.3869;
97.2000;0.9035;3.3845;
97.5000;0.9076;3.3940;
97.8000;0.9060;3.3964;
98.1000;0.9068;3.4060;
98.4000;0.9076;3.4036;
98.7000;0.9011;3.3821;
99.0000;0.9068;3.3940;
99.3000;0.9068;3.3869;
99.6000;0.9101;3.4036;
99.9000;0.9092;3.3988;
100.2000;0.9084;3.4012;
100.5000;0.9084;3.4084;
100.8000;0.9076;3.4012;
101.1000;0.9092;3.3964;
101.4000;0.9084;3.3964;
101.7000;0.9035;3.3869;
102.0000;0.9076;3.3917;
102.3000;0.9084;3.3893;
102.6000;0.9068;3.3773;
102.9000;0.9092;3.3869;
103.2000;0.9084;3.3869;
103.5000;0.9101;3.3917;
103.8000;0.9076;3.3845;
104.1000;0.9084;3.3917;
104.4000;0.9084;3.3845;
104.7000;0.9019;3.3726;
105.0000;0.9052;3.3702;
105.3000;0.9076;3.3797;
105.6000;0.9101;3.3845;
105.9000;0.9060;3.3845;
106.2000;0.9076;3.3917;
106.5000;0.9035;3.3869;
106.8000;0.9117;3.4012;
107.1000;0.9092;3.3869;
107.4000;0.9084;3.3750;
107.7000;0.9084;3.3773;
108.0000;0.9076;3.3869;
108.3000;0.9117;3.4131;
108.6000;0.9076;3.4060;
108.9000;0.9068;3.3964;
109.2000;0.9068;3.3917;
109.5000;0.9084;3.4060;
109.8000;0.9133;3.4275;
110.1000;0.9052;3.4084;
110.4000;0.9084;3.4131;
110.7000;0.9084;3.4108;
111.0000;0.9117;3.4012;
111.3000;0.9166;3.4036;
111.6000;0.9076;3.3821;
111.9000;0.9052;3.3702;
112.2000;0.9076;3.3750;
112.5000;0.9076;3.3678;
112.8000;0.9092;3.3773;
113.1000;0.9084;3.3821;
113.4000;0.9068;3.3869;
113.7000;0.9092;3.3940;
114.0000;0.9117;3.3964;
114.3000;0.9076;3.3917;
114.6000;0.9060;3.3821;
114.9000;0.9084;3.3869;
115.2000;0.9092;3.3821;
115.5000;0.9060;3.3750;
115.8000;0.9044;3.3750;
116.1000;0.9068;3.3750;
116.4000;0.9084;3.3821;
116.7000;0.9076;3.3797;
117.0000;0.9076;3.3821;
117.3000;0.9084;3.3917;
117.6000;0.9068;3.3893;
117.9000;0.9076;3.3940;
118.2000;0.9068;3.3917;
118.5000;0.9133;3.4084;
118.8000;0.9076;3.3988;
119.1000;0.9084;3.4084;
119.4000;0.9076;3.4036;
119.7000;0.9076;3.4131;
120.0000;0.9060;3.4036;
120.3000;0.9068;3.4131;
120.6000;0.9076;3.4036;
120.9000;0.9060;3.3917;
121.2000;0.9076;3.3988;
121.5000;0.9044;3.3964;
121.8000;0.9084;3.4036;
122.1000;0.9068;3.3964;
122.4000;0.9044;3.3988;
122.7000;0.9052;3.4012;
123.0000;0.9076;3.4108;
123.3000;0.9084;3.4131;
123.6000;0.9101;3.4203;
123.9000;0.9092;3.4203;
124.2000;0.9076;3.4108;
124.5000;0.9076;3.4012;
124.8000;0.9027;3.3988;
125.1000;0.9092;3.4084;
125.4000;0.9084;3.3893;
125.7000;0.9101;3.3940;
126.0000;0.9019;3.3845;
126.3000;0.9076;3.3988;
126.6000;0.9133;3.4108;
126.9000;0.9076;3.3988;
127.2000;0.9060;3.3940;
127.5000;0.9117;3.4036;
127.8000;0.9052;3.3917;
128.1000;0.9076;3.3893;
128.4000;0.9084;3.3917;
128.7000;0.9035;3.3797;
129.0000;0.9092;3.4012;
129.3000;0.9101;3.3940;
129.6000;0.9084;3.3964;
129.9000;0.9125;3.4060;
130.2000;0.9092;3.4036;
130.5000;0.9092;3.3964;
130.8000;0.9068;3.3893;
131.1000;0.9084;3.3893;
131.4000;0.9084;3.3821;
131.7000;0.9084;3.3940;
132.0000;0.9068;3.3940;
132.3000;0.9084;3.3964;
132.6000;0.9068;3.3917;
132.9000;0.9084;3.3940;
133.2000;0.9068;3.3940;
133.5000;0.9125;3.4060;
133.8000;0.9092;3.3940;
134.1000;0.9076;3.3988;
134.4000;0.9092;3.3964;
134.7000;0.9068;3.3917;
135.0000;0.9068;3.3940;
135.3000;0.9109;3.4084;
135.6000;0.9068;3.4012;
135.9000;0.9092;3.4060;
136.2000;0.9068;3.4012;
136.5000;0.9084;3.4060;
136.8000;0.9101;3.4012;
137.1000;0.9092;3.3988;
137.4000;0.9101;3.3964;
137.7000;0.9076;3.3869;
138.0000;0.9076;3.3988;
138.3000;0.9052;3.3917;
138.6000;0.9084;3.4036;
138.9000;0.9060;3.3964;
139.2000;0.9084;3.4060;
139.5000;0.9101;3.4155;
139.8000;0.9101;3.4155;
140.1000;0.9076;3.4084;
140.4000;0.9076;3.4060;
140.7000;0.9068;3.4060;
141.0000;0.9084;3.4084;
141.3000;0.9060;3.4036;
141.6000;0.9035;3.3940;
141.9000;0.9084;3.3964;
142.2000;0.9092;3.3964;
142.5000;0.9133;3.4108;
142.8000;0.9068;3.4012;
143.1000;0.9060;3.4036;
143.4000;0.9068;3.4084;
143.7000;0.9035;3.3940;
144.0000;0.9052;3.4036;
144.3000;0.9092;3.4012;
144.6000;0.9084;3.4036;
144.9000;0.9076;3.4131;
145.2000;0.9084;3.4131;
145.5000;0.9092;3.4155;
145.8000;0.9084;3.4155;
146.1000;0.9084;3.4108;
146.4000;0.9076;3.4084;
146.7000;0.9076;3.4060;
147.0000;0.9109;3.4179;
147.3000;0.9092;3.4179;
147.6000;0.9084;3.4108;
147.9000;0.9101;3.4108;
148.2000;0.9076;3.4060;
148.5000;0.9068;3.3988;
148.8000;0.9068;3.3988;
149.1000;0.9076;3.4131;
149.4000;0.9068;3.4012;
149.7000;0.9084;3.3940;
150.0000;0.9084;3.4012;
150.3000;0.9076;3.4036;
150.6000;0.9084;3.4060;
150.9000;0.9076;3.4060;
151.2000;0.9092;3.4012;
151.5000;0.9052;3.3964;
151.8000;0.9060;3.4060;
152.1000;0.9076;3.4084;
152.4000;0.9044;3.4012;
152.7000;0.9076;3.4060;
153.0000;0.9068;3.4108;
153.3000;0.9166;3.4322;
153.6000;0.9060;3.4084;
153.9000;0.9076;3.4060;
154.2000;0.9092;3.4108;
154.5000;0.9076;3.4060;
154.8000;0.9084;3.4108;
155.1000;0.9060;3.3988;
155.4000;0.9076;3.4012;
155.7000;0.9084;3.3964;
156.0000;0.9076;3.3940;
156.3000;0.9076;3.3940;
156.6000;0.9076;3.3917;
156.9000;0.9084;3.3869;
157.2000;0.9149;3.4036;
157.5000;0.9068;3.3917;
157.8000;0.9076;3.3797;
158.1000;0.9052;3.3750;
158.4000;0.9076;3.3893;
158.7000;0.9101;3.4060;
159.0000;0.9019;3.3845;
159.3000;0.9060;3.3964;
159.6000;0.9109;3.4131;
159.9000;0.8978;3.3797;
160.2000;0.9076;3.4036;
160.5000;0.9044;3.3917;
160.8000;0.9109;3.4084;
161.1000;0.9084;3.3940;
161.4000;0.9076;3.3940;
161.7000;0.9068;3.3940;
162.0000;0.9060;3.3940;
162.3000;0.9052;3.3940;
162.6000;0.9182;3.4275;
162.9000;0.9060;3.4060;
163.2000;0.9076;3.4036;
163.5000;0.9019;3.3845;
163.8000;0.9092;3.4084;
164.1000;0.9084;3.4012;
164.4000;0.9092;3.4084;
164.7000;0.9092;3.3988;
165.0000;0.9076;3.4060;
165.3000;0.9076;3.4012;
165.6000;0.9068;3.3917;
165.9000;0.9076;3.3917;
166.2000;0.9092;3.4012;
166.5000;0.9101;3.3964;
166.8000;0.9084;3.3893;
167.1000;0.9068;3.3869;
167.4000;0.9092;3.3940;
167.7000;0.9019;3.3821;
168.0000;0.9060;3.4036;
168.3000;0.9076;3.4036;
168.6000;0.9084;3.3917;
168.9000;0.9084;3.3869;
169.2000;0.9084;3.3893;
169.5000;0.9068;3.3869;
169.8000;0.9068;3.3869;
170.1000;0.9076;3.3940;
170.4000;0.9084;3.3964;
170.7000;0.9084;3.3964;
171.0000;0.9076;3.3893;
171.3000;0.9084;3.3917;
171.6000;0.9076;3.3869;
171.9000;0.9076;3.3893;
172.2000;0.9076;3.3940;
172.5000;0.9076;3.4012;
172.8000;0.9027;3.3845;
173.1000;0.9076;3.4060;
173.4000;0.9076;3.4203;
173.7000;0.9084;3.4203;
174.0000;0.9076;3.4179;
174.3000;0.9076;3.4131;
174.6000;0.9068;3.4084;
174.9000;0.9101;3.4108;
175.2000;0.9068;3.3964;
175.5000;0.9076;3.4012;
175.8000;0.9125;3.4179;
176.1000;0.9084;3.4012;
176.4000;0.9052;3.3869;
176.7000;0.9068;3.3821;
177.0000;0.9084;3.3869;
177.3000;0.9149;3.4036;
177.6000;0.9060;3.3702;
177.9000;0.9035;3.3702;
178.2000;0.9052;3.3678;
178.5000;0.9101;3.3821;
178.8000;0.9084;3.3893;
179.1000;0.9060;3.3893;
179.4000;0.9076;3.3869;
179.7000;0.9068;3.3797;
180.0000;0.9060;3.3797;
180.3000;0.9084;3.3797;
180.6000;0.9060;3.3797;
180.9000;0.9109;3.3917;
181.2000;0.9084;3.3917;
181.5000;0.9060;3.3893;
181.8000;0.9076;3.3821;
182.1000;0.9068;3.3845;
182.4000;0.9084;3.3940;
182.7000;0.9101;3.3940;
183.0000;0.9068;3.4060;
183.3000;0.9060;3.4108;
183.6000;0.9076;3.4131;
183.9000;0.9060;3.4108;
184.2000;0.9076;3.4060;
184.5000;0.9068;3.3988;
184.8000;0.9084;3.3988;
185.1000;0.9092;3.3988;
185.4000;0.9084;3.4084;
185.7000;0.9084;3.4155;
186.0000;0.9101;3.4203;
186.3000;0.9076;3.4203;
186.6000;0.9092;3.4251;
186.9000;0.9052;3.4131;
187.2000;0.9060;3.4036;
187.5000;0.9076;3.3964;
187.8000;0.9084;3.3964;
188.1000;0.9084;3.3893;
188.4000;0.9092;3.3917;
188.7000;0.9117;3.3988;
189.0000;0.9133;3.4108;
189.3000;0.9092;3.3988;
189.6000;0.9084;3.4012;
189.9000;0.9068;3.3988;
190.2000;0.9092;3.4060;
190.5000;0.9044;3.4060;
190.8000;0.9060;3.4108;
191.1000;0.9060;3.4084;
191.4000;0.9084;3.4155;
191.7000;0.9060;3.4060;
192.0000;0.9117;3.4155;
192.3000;0.9060;3.4060;
192.6000;0.9068;3.4036;
192.9000;0.9076;3.4036;
193.2000;0.9052;3.4084;
193.5000;0.9027;3.3869;
193.8000;0.9133;3.4203;
194.1000;0.9076;3.4012;
194.4000;0.9092;3.3988;
194.7000;0.9068;3.4036;
195.0000;0.9117;3.4131;
195.3000;0.9092;3.3988;
195.6000;0.9092;3.4012;
195.9000;0.9117;3.4036;
196.2000;0.9092;3.3940;
196.5000;0.9109;3.3964;
196.8000;0.9092;3.3964;
197.1000;0.9101;3.3988;
197.4000;0.9068;3.3988;
197.7000;0.9076;3.4060;
198.0000;0.9076;3.4084;
198.3000;0.9076;3.4036;
198.6000;0.9076;3.4131;
198.9000;0.8995;3.3988;
199.2000;0.9060;3.4036;
199.5000;0.9060;3.4060;
199.8000;0.9076;3.4108;
200.1000;0.9101;3.4155;
200.4000;0.9125;3.4251;
200.7000;0.9076;3.4036;
201.0000;0.9076;3.4036;
201.3000;0.9076;3.3917;
201.6000;0.9084;3.3940;
201.9000;0.9068;3.3893;
202.2000;0.9068;3.3893;
202.5000;0.9068;3.3988;
202.8000;0.9068;3.3964;
203.1000;0.9076;3.4036;
203.4000;0.9052;3.4012;
203.7000;0.9060;3.4012;
204.0000;0.9068;3.4060;
204.3000;0.9068;3.4060;
204.6000;0.9068;3.4036;
204.9000;0.9052;3.4012;
205.2000;0.9035;3.4012;
205.5000;0.9076;3.4060;
205.8000;0.9068;3.4060;
206.1000;0.9068;3.3964;
206.4000;0.9068;3.3940;
206.7000;0.9084;3.3917;
207.0000;0.9076;3.3869;
207.3000;0.9068;3.3940;
207.6000;0.9076;3.3964;
207.9000;0.9141;3.3988;
208.2000;0.9076;3.3917;
208.5000;0.9044;3.3893;
208.8000;0.9052;3.3964;
209.1000;0.9084;3.3964;
209.4000;0.9044;3.3940;
209.7000;0.9084;3.4012;
210.0000;0.9092;3.4060;
210.3000;0.9101;3.4108;
210.6000;0.9076;3.3988;
210.9000;0.9076;3.3893;
211.2000;0.9076;3.3917;
211.5000;0.9076;3.3940;
211.8000;0.9076;3.3869;
212.1000;0.9068;3.3821;
212.4000;0.9060;3.3797;
212.7000;0.9068;3.3869;
213.0000;0.9052;3.3845;
213.3000;0.9076;3.4012;
213.6000;0.9076;3.4036;
213.9000;0.9084;3.4012;
214.2000;0.9076;3.4036;
214.5000;0.9068;3.4036;
214.8000;0.9076;3.4012;
215.1000;0.9044;3.3964;
215.4000;0.9068;3.4036;
215.7000;0.9060;3.4084;
216.0000;0.9044;3.3988;
216.3000;0.9076;3.4084;
216.6000;0.9076;3.4060;
216.9000;0.9084;3.4084;
217.2000;0.9076;3.4060;
217.5000;0.9060;3.4036;
217.8000;0.9084;3.4060;
218.1000;0.9068;3.3940;
218.4000;0.9068;3.3988;
218.7000;0.9076;3.4036;
219.0000;0.9076;3.4036;
219.3000;0.9084;3.4131;
219.6000;0.9076;3.4108;
219.9000;0.9084;3.4108;
220.2000;0.9076;3.4012;
220.5000;0.9068;3.3964;
220.8000;0.8995;3.3797;
221.1000;0.9084;3.4084;
221.4000;0.9068;3.4131;
221.7000;0.9068;3.4084;
222.0000;0.9068;3.4084;
222.3000;0.9044;3.4060;
222.6000;0.9084;3.4131;
222.9000;0.9133;3.4203;
223.2000;0.9068;3.3964;
223.5000;0.9060;3.3940;
223.8000;0.9052;3.3893;
224.1000;0.9068;3.3845;
224.4000;0.9068;3.3845;
224.7000;0.9092;3.3940;
225.0000;0.9076;3.3917;
225.3000;0.9076;3.3964;
225.6000;0.9084;3.4060;
225.9000;0.9092;3.4036;
226.2000;0.9084;3.4036;
226.5000;0.9084;3.4108;
226.8000;0.9076;3.4108;
227.1000;0.9125;3.4227;
227.4000;0.9084;3.4084;
227.7000;0.9068;3.4060;
228.0000;0.9060;3.4036;
228.3000;0.9084;3.3964;
228.6000;0.9084;3.3893;
228.9000;0.9084;3.3893;
229.2000;0.9076;3.3940;
229.5000;0.9068;3.3940;
229.8000;0.9076;3.4012;
230.1000;0.9068;3.4060;
230.4000;0.9076;3.4131;
230.7000;0.9084;3.4203;
231.0000;0.9101;3.4251;
231.3000;0.9076;3.4060;
231.6000;0.9092;3.4036;
231.9000;0.9068;3.3893;
232.2000;0.9084;3.3940;
232.5000;0.9076;3.4012;
232.8000;0.9060;3.3964;
233.1000;0.9068;3.3964;
233.4000;0.9092;3.4060;
233.7000;0.9068;3.4108;
234.0000;0.9052;3.4060;
234.3000;0.9092;3.4179;
234.6000;0.9084;3.4131;
234.9000;0.9149;3.4275;
235.2000;0.9076;3.4108;
235.5000;0.9060;3.4060;
235.8000;0.9076;3.4108;
236.1000;0.9133;3.4203;
236.4000;0.9076;3.4036;
236.7000;0.9141;3.4203;
237.0000;0.9084;3.3988;
237.3000;0.9084;3.4012;
237.6000;0.9027;3.3893;
237.9000;0.9060;3.4084;
238.2000;0.9109;3.4155;
238.5000;0.9084;3.4108;
238.8000;0.9076;3.4084;
239.1000;0.9060;3.4084;
239.4000;0.9076;3.4108;
239.7000;0.9076;3.4012;
240.0000;0.9019;3.3845;
240.3000;0.9068;3.4012;
240.6000;0.9060;3.3917;
240.9000;0.9076;3.3917;
241.2000;0.9076;3.3940;
241.5000;0.9044;3.3917;
241.8000;0.9076;3.4084;
242.1000;0.9060;3.4084;
242.4000;0.9076;3.4036;
242.7000;0.9060;3.4012;
243.0000;0.9076;3.3964;
243.3000;0.9019;3.3869;
243.6000;0.9060;3.4060;
243.9000;0.9084;3.4179;
244.2000;0.9060;3.4108;
244.5000;0.9068;3.4155;
244.8000;0.9084;3.4275;
245.1000;0.9076;3.4299;
245.4000;0.9076;3.4299;
245.7000;0.9060;3.4227;
246.0000;0.9076;3.4275;
246.3000;0.9076;3.4299;
246.6000;0.9060;3.4275;
246.9000;0.9068;3.4251;
247.2000;0.9035;3.4084;
247.5000;0.9052;3.4084;
247.8000;0.9060;3.4084;
248.1000;0.9060;3.4060;
248.4000;0.9076;3.3940;
248.7000;0.9076;3.3964;
249.0000;0.9060;3.3917;
249.3000;0.9052;3.3821;
249.6000;0.9076;3.3917;
249.9000;0.9076;3.3917;
250.2000;0.9068;3.3893;
250.5000;0.9060;3.3893;
250.8000;0.9068;3.3940;
251.1000;0.9060;3.3869;
251.4000;0.9076;3.3917;
251.7000;0.9068;3.3940;
252.0000;0.9060;3.4084;
252.3000;0.9052;3.4131;
252.6000;0.8962;3.3917;
252.9000;0.9060;3.4275;
253.2000;0.9060;3.4155;
253.5000;0.9117;3.4346;
253.8000;0.9076;3.4275;
254.1000;0.9060;3.4227;
254.4000;0.9019;3.4179;
254.7000;0.9052;3.4203;
255.0000;0.9076;3.4227;
255.3000;0.9092;3.4155;
255.6000;0.9101;3.4179;
255.9000;0.9060;3.4036;
256.2000;0.9076;3.4012;
256.5000;0.9149;3.4131;
256.8000;0.9076;3.4012;
257.1000;0.9076;3.4012;
257.4000;0.9060;3.4060;
257.7000;0.9076;3.4108;
258.0000;0.9084;3.4060;
258.3000;0.9052;3.3964;
258.6000;0.9084;3.3940;
258.9000;0.9003;3.3750;
259.2000;0.9076;3.3893;
259.5000;0.9084;3.3917;
259.8000;0.9060;3.3988;
260.1000;0.9060;3.4084;
260.4000;0.9068;3.4084;
260.7000;0.9052;3.3988;
261.0000;0.9068;3.4131;
261.3000;0.9092;3.4084;
261.6000;0.9141;3.4251;
261.9000;0.9060;3.4084;
262.2000;0.9060;3.4131;
262.5000;0.9068;3.4012;
262.8000;0.9068;3.4060;
263.1000;0.9019;3.3940;
263.4000;0.9044;3.4036;
263.7000;0.9068;3.4060;
264.0000;0.9060;3.4108;
264.3000;0.9092;3.4131;
264.6000;0.9060;3.4036;
264.9000;0.9068;3.4036;
265.2000;0.9068;3.4060;
265.5000;0.9076;3.4131;
265.8000;0.9068;3.4131;
266.1000;0.9076;3.4108;
266.4000;0.9092;3.4060;
266.7000;0.9076;3.4084;
267.0000;0.9044;3.4084;
267.3000;0.9076;3.4227;
267.6000;0.9076;3.4203;
267.9000;0.9084;3.4227;
268.2000;0.9076;3.4203;
268.5000;0.9068;3.4108;
268.8000;0.9068;3.4060;
269.1000;0.9092;3.4155;
269.4000;0.9076;3.4203;
269.7000;0.8995;3.4060;
270.0000;0.9019;3.4203;
270.3000;0.9125;3.4442;
270.6000;0.9068;3.4203;
270.9000;0.9060;3.4155;
271.2000;0.9076;3.4179;
271.5000;0.9068;3.4227;
271.8000;0.9060;3.4251;
272.1000;0.9068;3.4179;
272.4000;0.9044;3.4203;
272.7000;0.9076;3.4322;
273.0000;0.9060;3.4275;
273.3000;0.9060;3.4131;
273.6000;0.9076;3.4012;
273.9000;0.9052;3.3940;
274.2000;0.9060;3.3893;
274.5000;0.9076;3.3845;
274.8000;0.9060;3.3845;
275.1000;0.9027;3.3702;
275.4000;0.9092;3.3964;
275.7000;0.9092;3.4084;
276.0000;0.9084;3.4203;
276.3000;0.9003;3.4084;
276.6000;0.9052;3.4108;
276.9000;0.9052;3.4084;
277.2000;0.9052;3.3964;
277.5000;0.9092;3.4084;
277.8000;0.9027;3.3988;
278.1000;0.9092;3.4203;
278.4000;0.9068;3.4036;
278.7000;0.9060;3.3940;
279.0000;0.9084;3.3917;
279.3000;0.9068;3.3869;
279.6000;0.9158;3.4108;
279.9000;0.9060;3.3893;
280.2000;0.9003;3.3678;
280.5000;0.8978;3.3702;
280.8000;0.9084;3.4036;
281.1000;0.9060;3.4012;
281.4000;0.9060;3.4131;
281.7000;0.9060;3.4227;
282.0000;0.9060;3.4227;
282.3000;0.9068;3.4179;
282.6000;0.9060;3.4179;
282.9000;0.9076;3.4179;
283.2000;0.9109;3.4179;
283.5000;0.9068;3.4131;
283.8000;0.9060;3.4131;
284.1000;0.9125;3.4275;
284.4000;0.9068;3.4060;
284.7000;0.9076;3.4036;
285.0000;0.9060;3.3940;
285.3000;0.9084;3.4012;
285.6000;0.9076;3.3964;
285.9000;0.9125;3.4108;
286.2000;0.9068;3.3964;
286.5000;0.9068;3.4108;
286.8000;0.9076;3.4131;
287.1000;0.9076;3.4155;
287.4000;0.9076;3.4155;
287.7000;0.9076;3.4155;
288.0000;0.9076;3.4131;
288.3000;0.9052;3.4084;
288.6000;0.9076;3.4155;
288.9000;0.9052;3.4108;
289.2000;0.9060;3.4227;
289.5000;0.9052;3.4251;
289.8000;0.9076;3.4275;
290.1000;0.9052;3.4203;
290.4000;0.9068;3.4203;
290.7000;0.9076;3.4322;
291.0000;0.9060;3.4227;
291.3000;0.9060;3.4131;
291.6000;0.9060;3.4203;
291.9000;0.9068;3.4203;
292.2000;0.9076;3.4155;
292.5000;0.9060;3.4108;
292.8000;0.9068;3.4084;
293.1000;0.9076;3.4155;
293.4000;0.9068;3.4251;
293.7000;0.9060;3.4275;
294.0000;0.9060;3.4251;
294.3000;0.9092;3.4227;
294.6000;0.9068;3.4275;
294.9000;0.9084;3.4299;
295.2000;0.9068;3.4322;
295.5000;0.9076;3.4299;
295.8000;0.9076;3.4394;
296.1000;0.9068;3.4275;
296.4000;0.9044;3.4155;
296.7000;0.9052;3.4179;
297.0000;0.9076;3.4299;
297.3000;0.9076;3.4299;
297.6000;0.9060;3.4179;
297.9000;0.9068;3.4203;
298.2000;0.9052;3.4155;
298.5000;0.9068;3.4131;
298.8000;0.9035;3.4060;
299.1000;0.9060;3.4155;
299.4000;0.9060;3.4179;
299.7000;0.9076;3.4251;
300.0000;0.9044;3.4251;
300.3000;0.9052;3.4227;
300.6000;0.9060;3.4275;
300.9000;0.9076;3.4322;
301.2000;0.9060;3.4418;
301.5000;0.9060;3.4322;
301.8000;0.9101;3.4251;
302.1000;0.9076;3.4131;
302.4000;0.9109;3.4203;
302.7000;0.9076;3.4155;
303.0000;0.9060;3.4179;
303.3000;0.9052;3.4108;
303.6000;0.9003;3.3964;
303.9000;0.9052;3.4012;
304.2000;0.9035;3.4036;
304.5000;0.9060;3.4108;
304.8000;0.9060;3.4036;
305.1000;0.9060;3.4108;
305.4000;0.9052;3.4060;
305.7000;0.9076;3.4084;
306.0000;0.9052;3.4036;
306.3000;0.9027;3.3988;
306.6000;0.9068;3.4108;
306.9000;0.9027;3.4036;
307.2000;0.9068;3.4108;
307.5000;0.9068;3.4155;
307.8000;0.9060;3.4155;
308.1000;0.8978;3.3940;
308.4000;0.9068;3.4131;
308.7000;0.9011;3.4036;
309.0000;0.9060;3.4251;
309.3000;0.9052;3.4227;
309.6000;0.9052;3.4251;
309.9000;0.9060;3.4203;
310.2000;0.9052;3.4155;
310.5000;0.9035;3.4131;
310.8000;0.9101;3.4346;
311.1000;0.9060;3.4322;
311.4000;0.9060;3.4275;
311.7000;0.9060;3.4203;
312.0000;0.9149;3.4418;
312.3000;0.9068;3.4275;
312.6000;0.9068;3.4203;
312.9000;0.9149;3.4466;
313.2000;0.9076;3.4155;
313.5000;0.9084;3.4179;
313.8000;0.9060;3.4179;
314.1000;0.9060;3.4227;
314.4000;0.9092;3.4227;
314.7000;0.9060;3.4131;
315.0000;0.9060;3.4179;
315.3000;0.9052;3.4179;
315.6000;0.9052;3.4155;
315.9000;0.9076;3.4275;
316.2000;0.9068;3.4227;
316.5000;0.9011;3.4131;
316.8000;0.9068;3.4203;
317.1000;0.9092;3.4275;
317.4000;0.9076;3.4251;
317.7000;0.9068;3.4251;
318.0000;0.9052;3.4179;
318.3000;0.9068;3.4227;
318.6000;0.9052;3.4227;
318.9000;0.9035;3.4155;
319.2000;0.9035;3.4012;
319.5000;0.9052;3.4012;
319.8000;0.9060;3.3893;
320.1000;0.9060;3.3821;
320.4000;0.9068;3.3869;
320.7000;0.9060;3.3869;
321.0000;0.9035;3.3893;
321.3000;0.9068;3.3940;
321.6000;0.9068;3.4036;
321.9000;0.9060;3.3964;
322.2000;0.9060;3.3988;
322.5000;0.9060;3.4012;
322.8000;0.9084;3.4155;
323.1000;0.9052;3.4179;
323.4000;0.9052;3.4251;
323.7000;0.9052;3.4179;
324.0000;0.9084;3.4251;
324.3000;0.9060;3.4179;
324.6000;0.9044;3.4179;
324.9000;0.9060;3.4299;
325.2000;0.9076;3.4418;
325.5000;0.9060;3.4275;
325.8000;0.9052;3.4227;
326.1000;0.9068;3.4155;
326.4000;0.9068;3.4131;
326.7000;0.9068;3.4155;
327.0000;0.9068;3.4203;
327.3000;0.9027;3.4155;
327.6000;0.9011;3.4203;
327.9000;0.9035;3.4179;
328.2000;0.9076;3.4251;
328.5000;0.9060;3.4108;
328.8000;0.9052;3.4155;
329.1000;0.9068;3.4155;
329.4000;0.9101;3.4203;
329.7000;0.9060;3.4155;
330.0000;0.9060;3.4108;
330.3000;0.9068;3.4179;
330.6000;0.9060;3.4179;
330.9000;0.9092;3.4203;
331.2000;0.9084;3.4131;
331.5000;0.9068;3.4155;
331.8000;0.9068;3.4179;
332.1000;0.9060;3.4155;
332.4000;0.9076;3.4227;
332.7000;0.9052;3.4179;
333.0000;0.9060;3.4155;
333.3000;0.9052;3.4131;
333.6000;0.9060;3.4179;
333.9000;0.9019;3.4155;
334.2000;0.9060;3.4251;
334.5000;0.9076;3.4299;
334.8000;0.9044;3.4251;
335.1000;0.9068;3.4322;
335.4000;0.9052;3.4203;
335.7000;0.9060;3.4131;
336.0000;0.9101;3.4203;
336.3000;0.9068;3.4131;
336.6000;0.9092;3.4131;
336.9000;0.9092;3.4179;
337.2000;0.9076;3.4060;
337.5000;0.9068;3.4084;
337.8000;0.9035;3.4108;
338.1000;0.9068;3.4084;
338.4000;0.9068;3.4084;
338.7000;0.9076;3.4108;
339.0000;0.9198;3.4418;
339.3000;0.9076;3.4179;
339.6000;0.9076;3.4131;
339.9000;0.9076;3.4131;
340.2000;0.9092;3.4155;
340.5000;0.9060;3.4108;
340.8000;0.9052;3.4108;
341.1000;0.9068;3.4131;
341.4000;0.9076;3.4108;
341.7000;0.9068;3.4084;
342.0000;0.9076;3.4108;
342.3000;0.9060;3.4131;
342.6000;0.9092;3.4179;
342.9000;0.9076;3.4251;
343.2000;0.9060;3.4251;
343.5000;0.9060;3.4227;
343.8000;0.9068;3.4227;
344.1000;0.9060;3.4179;
344.4000;0.9068;3.4108;
344.7000;0.9068;3.4084;
345.0000;0.9101;3.4203;
345.3000;0.9060;3.4108;
345.6000;0.9076;3.4155;
345.9000;0.9060;3.4036;
346.2000;0.9068;3.4060;
346.5000;0.9068;3.4060;
346.8000;0.9076;3.4084;
347.1000;0.9125;3.4227;
347.4000;0.9084;3.4036;
347.7000;0.9052;3.4131;
348.0000;0.9068;3.4108;
348.3000;0.9076;3.4108;
348.6000;0.9068;3.4155;
348.9000;0.9068;3.4322;
349.2000;0.9084;3.4251;
349.5000;0.9141;3.4370;
349.8000;0.9060;3.4012;
350.1000;0.9052;3.3940;
350.4000;0.9068;3.4060;
350.7000;0.9035;3.4012;
351.0000;0.9052;3.3988;
351.3000;0.9052;3.4036;
351.6000;0.9060;3.4155;
351.9000;0.9027;3.4012;
352.2000;0.9068;3.4155;
352.5000;0.9076;3.4155;
352.8000;0.9052;3.4108;
353.1000;0.9076;3.4203;
353.4000;0.9060;3.4227;
353.7000;0.9060;3.4084;
354.0000;0.9044;3.4084;
354.3000;0.9019;3.4012;
354.6000;0.9052;3.4108;
354.9000;0.9027;3.4060;
355.2000;0.9052;3.4060;
355.5000;0.9044;3.4060;
355.8000;0.9092;3.4131;
356.1000;0.9076;3.4131;
356.4000;0.9060;3.4155;
356.7000;0.9068;3.4227;
357.0000;0.9076;3.4179;
357.3000;0.9060;3.4131;
357.6000;0.9068;3.4131;
357.9000;0.9060;3.4203;
358.2000;0.9084;3.4179;
358.5000;0.9060;3.4060;
358.8000;0.9092;3.4155;
359.1000;0.9060;3.4060;
359.4000;0.9060;3.4012;
359.7000;0.9076;3.4036;
360.0000;0.9044;3.3917;
360.3000;0.9117;3.4060;
360.6000;0.9060;3.3893;
360.9000;0.9076;3.4036;
361.2000;0.9052;3.3988;
361.5000;0.9060;3.4036;
361.8000;0.9076;3.4060;
362.1000;0.9068;3.3988;
362.4000;0.9084;3.3988;
362.7000;0.9084;3.3988;
363.0000;0.9117;3.4084;
363.3000;0.9060;3.4012;
363.6000;0.9052;3.4060;
363.9000;0.9052;3.3988;
364.2000;0.9068;3.4036;
364.5000;0.9060;3.4012;
364.8000;0.9060;3.3988;
365.1000;0.9060;3.4084;
365.4000;0.9035;3.4036;
365.7000;0.9076;3.4108;
366.0000;0.9011;3.3988;
366.3000;0.9068;3.4108;
366.6000;0.9092;3.4155;
366.9000;0.9060;3.4179;
367.2000;0.9068;3.4227;
367.5000;0.9068;3.4155;
367.8000;0.9141;3.4275;
368.1000;0.9060;3.4060;
368.4000;0.9060;3.4036;
368.7000;0.9052;3.3917;
369.0000;0.9044;3.3940;
369.3000;0.9052;3.4036;
369.6000;0.9044;3.4084;
369.9000;0.9052;3.4131;
370.2000;0.9044;3.4084;
370.5000;0.9019;3.4084;
370.8000;0.9068;3.4108;
371.1000;0.9068;3.4131;
371.4000;0.9035;3.4012;
371.7000;0.9068;3.4108;
372.0000;0.9068;3.4084;
372.3000;0.9068;3.4060;
372.6000;0.9125;3.4179;
372.9000;0.9003;3.3893;
373.2000;0.9068;3.4131;
373.5000;0.9044;3.4036;
373.8000;0.9109;3.4203;
374.1000;0.9044;3.4060;
374.4000;0.9052;3.4060;
374.7000;0.9044;3.3940;
375.0000;0.9060;3.3988;
375.3000;0.9101;3.4108;
375.6000;0.9068;3.4084;
375.9000;0.9060;3.4131;
376.2000;0.9068;3.4108;
376.5000;0.9052;3.4084;
376.8000;0.9060;3.4179;
377.1000;0.9060;3.4203;
377.4000;0.9044;3.4084;
377.7000;0.9060;3.4084;
378.0000;0.9044;3.3964;
378.3000;0.9044;3.4036;
378.6000;0.9027;3.4084;
378.9000;0.9052;3.4108;
379.2000;0.9044;3.4179;
379.5000;0.9044;3.4155;
379.8000;0.9060;3.4251;
380.1000;0.9052;3.4227;
380.4000;0.9052;3.4203;
380.7000;0.9044;3.4155;
381.0000;0.9068;3.4155;
381.3000;0.9060;3.4084;
381.6000;0.9044;3.4036;
381.9000;0.9044;3.4060;
382.2000;0.9052;3.4084;
382.5000;0.9035;3.3988;
382.8000;0.9101;3.4179;
383.1000;0.9035;3.3988;
383.4000;0.9060;3.4060;
383.7000;0.9052;3.4084;
384.0000;0.9052;3.3964;
384.3000;0.9011;3.3893;
384.6000;0.9044;3.4060;
384.9000;0.9133;3.4299;
385.2000;0.9035;3.4084;
385.5000;0.9035;3.4012;
385.8000;0.9052;3.4036;
386.1000;0.9060;3.4036;
386.4000;0.9092;3.4131;
386.7000;0.9060;3.4060;
387.0000;0.9052;3.4084;
387.3000;0.9109;3.4203;
387.6000;0.9052;3.4012;
387.9000;0.9044;3.3940;
388.2000;0.9044;3.3988;
388.5000;0.9035;3.4012;
388.8000;0.9044;3.3964;
389.1000;0.9068;3.3988;
389.4000;0.9052;3.3917;
389.7000;0.9035;3.3940;
390.0000;0.9060;3.3964;
390.3000;0.9068;3.3988;
390.6000;0.9019;3.3964;
390.9000;0.9068;3.4084;
391.2000;0.9092;3.4131;
391.5000;0.9076;3.4155;
391.8000;0.9101;3.4179;
392.1000;0.9068;3.4131;
392.4000;0.9068;3.4155;
392.7000;0.9109;3.4131;
393.0000;0.9052;3.4036;
393.3000;0.9052;3.4060;
393.6000;0.9027;3.3964;
393.9000;0.9068;3.4155;
394.2000;0.9060;3.4203;
394.5000;0.9068;3.4275;
394.8000;0.9060;3.4275;
395.1000;0.9117;3.4322;
395.4000;0.9068;3.4155;
395.7000;0.9076;3.4179;
396.0000;0.9060;3.4155;
396.3000;0.9076;3.4227;
396.6000;0.9084;3.4227;
396.9000;0.9068;3.4203;
397.2000;0.9068;3.4227;
397.5000;0.9125;3.4346;
397.8000;0.9068;3.4084;
398.1000;0.9060;3.4012;
398.4000;0.9044;3.4036;
398.7000;0.9068;3.4060;
399.0000;0.9060;3.4084;
399.3000;0.9052;3.4012;
399.6000;0.9092;3.4084;
399.9000;0.9044;3.4012;
400.2000;0.9052;3.4108;
400.5000;0.9044;3.4036;
400.8000;0.9076;3.4036;
401.1000;0.9044;3.3988;
401.4000;0.9068;3.4012;
401.7000;0.9068;3.4012;
402.0000;0.9068;3.3964;
402.3000;0.9068;3.3845;
402.6000;0.9076;3.3869;
402.9000;0.9068;3.3893;
403.2000;0.9044;3.3821;
403.5000;0.9052;3.3845;
403.8000;0.9068;3.3821;
404.1000;0.9068;3.3845;
404.4000;0.9044;3.3797;
404.7000;0.9076;3.3893;
405.0000;0.9060;3.3821;
405.3000;0.9052;3.3773;
405.6000;0.9052;3.3917;
405.9000;0.9060;3.3917;
406.2000;0.9060;3.3940;
406.5000;0.9044;3.3893;
406.8000;0.9133;3.4012;
407.1000;0.9060;3.3845;
407.4000;0.9052;3.3845;
407.7000;0.9068;3.3845;
408.0000;0.9060;3.3893;
408.3000;0.9060;3.3917;
408.6000;0.9052;3.3845;
408.9000;0.9060;3.3869;
409.2000;0.9060;3.3917;
409.5000;0.9035;3.3845;
409.8000;0.9052;3.3893;
410.1000;0.9068;3.3964;
410.4000;0.9052;3.3893;
410.7000;0.9060;3.3869;
411.0000;0.9068;3.3869;
411.3000;0.9060;3.3869;
411.6000;0.9076;3.3869;
411.9000;0.9068;3.3821;
412.2000;0.9052;3.3726;
412.5000;0.9060;3.3773;
412.8000;0.9109;3.3869;
413.1000;0.9044;3.3845;
413.4000;0.9060;3.3845;
413.7000;0.9060;3.3821;
414.0000;0.9060;3.3940;
414.3000;0.9052;3.4012;
414.6000;0.9044;3.3988;
414.9000;0.9035;3.3940;
415.2000;0.9060;3.3964;
415.5000;0.9060;3.3940;
415.8000;0.9035;3.3893;
416.1000;0.9052;3.3869;
416.4000;0.9044;3.3821;
416.7000;0.9052;3.3869;
417.0000;0.9060;3.3964;
417.3000;0.9060;3.3893;
417.6000;0.9052;3.3845;
417.9000;0.9060;3.3940;
418.2000;0.9060;3.3964;
418.5000;0.9060;3.3964;
418.8000;0.9044;3.3917;
419.1000;0.9052;3.3869;
419.4000;0.9068;3.3845;
419.7000;0.9035;3.3773;
420.0000;0.9027;3.3773;
420.3000;0.9052;3.3821;
420.6000;0.9068;3.3750;
420.9000;0.9044;3.3750;
421.2000;0.9060;3.3726;
421.5000;0.9060;3.3726;
421.8000;0.9060;3.3869;
422.1000;0.9060;3.3845;
422.4000;0.9068;3.3845;
422.7000;0.9035;3.3797;
423.0000;0.9052;3.3893;
423.3000;0.9068;3.3917;
423.6000;0.9052;3.3869;
423.9000;0.9035;3.3821;
424.2000;0.9044;3.3893;
424.5000;0.9060;3.3940;
424.8000;0.9133;3.4131;
425.1000;0.9052;3.3917;
425.4000;0.9060;3.4036;
425.7000;0.9011;3.3917;
426.0000;0.9060;3.4131;
426.3000;0.9092;3.4227;
426.6000;0.9044;3.4155;
426.9000;0.9125;3.4346;
427.2000;0.9044;3.4131;
427.5000;0.9044;3.4131;
427.8000;0.9035;3.4084;
428.1000;0.9052;3.4084;
428.4000;0.9035;3.3988;
428.7000;0.9044;3.3988;
429.0000;0.9019;3.3940;
429.3000;0.9035;3.3940;
429.6000;0.9060;3.3917;
429.9000;0.9076;3.3821;
430.2000;0.9060;3.3821;
430.5000;0.9027;3.3869;
430.8000;0.9068;3.4036;
431.1000;0.9035;3.3917;
431.4000;0.9084;3.3988;
431.7000;0.9060;3.3940;
432.0000;0.9044;3.4036;
432.3000;0.9052;3.4060;
432.6000;0.9035;3.4084;
432.9000;0.9019;3.4012;
433.2000;0.9052;3.4108;
433.5000;0.9076;3.4108;
433.8000;0.9035;3.4036;
434.1000;0.9068;3.4084;
434.4000;0.9084;3.4179;
434.7000;0.9084;3.4179;
435.0000;0.9068;3.4084;
435.3000;0.9011;3.4036;
435.6000;0.9068;3.4131;
435.9000;0.9027;3.3988;
436.2000;0.9060;3.4084;
436.5000;0.9052;3.4012;
436.8000;0.9044;3.4084;
437.1000;0.9035;3.4108;
437.4000;0.9060;3.4084;
437.7000;0.9068;3.4012;
438.0000;0.9052;3.3988;
438.3000;0.9084;3.4012;
438.6000;0.9060;3.3917;
438.9000;0.9052;3.3893;
439.2000;0.9052;3.4012;
439.5000;0.9052;3.4155;
439.8000;0.9019;3.4060;
440.1000;0.9084;3.4227;
440.4000;0.9035;3.4108;
440.7000;0.9035;3.4179;
441.0000;0.8938;3.3988;
441.3000;0.9044;3.4179;
441.6000;0.9092;3.4227;
441.9000;0.9044;3.4131;
442.2000;0.9060;3.4179;
442.5000;0.9092;3.4155;
442.8000;0.9027;3.4036;
443.1000;0.9133;3.4322;
443.4000;0.9068;3.4155;
443.7000;0.9052;3.4131;
444.0000;0.9060;3.4131;
444.3000;0.9060;3.4084;
444.6000;0.9052;3.4012;
444.9000;0.9052;3.4060;
445.2000;0.9044;3.4131;
445.5000;0.9044;3.4131;
445.8000;0.9052;3.4108;
446.1000;0.9052;3.4131;
446.4000;0.9060;3.4108;
446.7000;0.9035;3.3988;
447.0000;0.9060;3.4060;
447.3000;0.9060;3.4060;
447.6000;0.8995;3.3821;
447.9000;0.9035;3.3917;
448.2000;0.9044;3.3988;
448.5000;0.9011;3.3940;
448.8000;0.9076;3.4131;
449.1000;0.8995;3.3964;
449.4000;0.9044;3.4012;
449.7000;0.9092;3.4155;
450.0000;0.9035;3.4060;
450.3000;0.9044;3.4131;
450.6000;0.9035;3.4179;
450.9000;0.9044;3.4251;
451.2000;0.9035;3.4203;
451.5000;0.9044;3.4179;
451.8000;0.9044;3.4155;
452.1000;0.9035;3.4155;
452.4000;0.9068;3.4227;
452.7000;0.9068;3.4155;
453.0000;0.9035;3.4155;
453.3000;0.9035;3.4131;
453.6000;0.9060;3.4227;
453.9000;0.9060;3.4203;
454.2000;0.9052;3.4203;
454.5000;0.9060;3.4203;
454.8000;0.9060;3.4155;
455.1000;0.9052;3.4108;
455.4000;0.9044;3.4084;
455.7000;0.9060;3.4155;
456.0000;0.9035;3.4179;
456.3000;0.9052;3.4251;
456.6000;0.9044;3.4227;
456.9000;0.9044;3.4275;
457.2000;0.9044;3.4346;
457.5000;0.9035;3.4299;
457.8000;0.9060;3.4155;
458.1000;0.9125;3.4299;
458.4000;0.9052;3.4275;
458.7000;0.9044;3.4346;
459.0000;0.9044;3.4322;
459.3000;0.9060;3.4299;
459.6000;0.9052;3.4299;
459.9000;0.9060;3.4251;
460.2000;0.9035;3.4227;
460.5000;0.9044;3.4203;
460.8000;0.9068;3.4275;
461.1000;0.9019;3.4227;
461.4000;0.9035;3.4227;
461.7000;0.9027;3.4251;
462.0000;0.9044;3.4227;
462.3000;0.9060;3.4275;
462.6000;0.8970;3.4108;
462.9000;0.9117;3.4513;
463.2000;0.9044;3.4370;
463.5000;0.9044;3.4346;
463.8000;0.9092;3.4346;
464.1000;0.9084;3.4394;
464.4000;0.9035;3.4251;
464.7000;0.9044;3.4179;
465.0000;0.9044;3.4203;
465.3000;0.9052;3.4179;
465.6000;0.9011;3.4131;
465.9000;0.9027;3.4084;
466.2000;0.9060;3.4251;
466.5000;0.9068;3.4203;
466.8000;0.9035;3.4155;
467.1000;0.9109;3.4251;
467.4000;0.9084;3.4251;
467.7000;0.9019;3.4131;
468.0000;0.9044;3.4179;
468.3000;0.9060;3.4108;
468.6000;0.8954;3.3893;
468.9000;0.9052;3.4131;
469.2000;0.9068;3.4155;
469.5000;0.9068;3.4131;
469.8000;0.9052;3.4084;
470.1000;0.9068;3.4084;
470.4000;0.9052;3.4060;
470.7000;0.9003;3.3893;
471.0000;0.9044;3.4012;
471.3000;0.9044;3.4060;
471.6000;0.9035;3.4060;
471.9000;0.9052;3.4036;
472.2000;0.9060;3.4060;
472.5000;0.9044;3.3988;
472.8000;0.9019;3.3917;
473.1000;0.9044;3.3845;
473.4000;0.9044;3.3869;
473.7000;0.9068;3.4084;
474.0000;0.9084;3.4108;
474.3000;0.9052;3.4084;
474.6000;0.9044;3.4036;
474.9000;0.9068;3.4084;
475.2000;0.9052;3.4084;
475.5000;0.9035;3.4084;
475.8000;0.9044;3.4060;
476.1000;0.9044;3.4060;
476.4000;0.9060;3.4108;
476.7000;0.9052;3.4060;
477.0000;0.9068;3.4155;
477.3000;0.9060;3.4131;
477.6000;0.9060;3.4108;
477.9000;0.9052;3.4108;
478.2000;0.9035;3.4108;
478.5000;0.9044;3.4131;
478.8000;0.9044;3.4108;
479.1000;0.9035;3.4108;
479.4000;0.9052;3.4203;
479.7000;0.9044;3.4203;
480.0000;0.9011;3.4012;
480.3000;0.9052;3.4060;
480.6000;0.9060;3.3988;
480.9000;0.9027;3.3964;
481.2000;0.9044;3.4012;
481.5000;0.9052;3.3988;
481.8000;0.9052;3.3988;
482.1000;0.9060;3.4108;
482.4000;0.9027;3.4084;
482.7000;0.9060;3.4084;
483.0000;0.9060;3.4108;
483.3000;0.9044;3.4084;
483.6000;0.9035;3.4084;
483.9000;0.9035;3.4060;
484.2000;0.9052;3.4060;
484.5000;0.9052;3.4155;
484.8000;0.9060;3.4275;
485.1000;0.9068;3.4275;
485.4000;0.9011;3.4155;
485.7000;0.9076;3.4227;
486.0000;0.9076;3.4227;
486.3000;0.8970;3.4012;
486.6000;0.9044;3.4131;
486.9000;0.9052;3.4203;
487.2000;0.9060;3.4108;
487.5000;0.9027;3.4012;
487.8000;0.9052;3.4108;
488.1000;0.9052;3.4060;
488.4000;0.9011;3.3893;
488.7000;0.9060;3.4131;
489.0000;0.9060;3.4179;
489.3000;0.9060;3.4108;
489.6000;0.9019;3.3917;
489.9000;0.9052;3.3964;
490.2000;0.9027;3.3940;
490.5000;0.9044;3.3988;
490.8000;0.9019;3.4060;
491.1000;0.9027;3.3964;
491.4000;0.9044;3.3964;
491.7000;0.9044;3.4084;
492.0000;0.9052;3.4131;
492.3000;0.9035;3.4155;
492.6000;0.9044;3.4179;
492.9000;0.9060;3.4179;
493.2000;0.9052;3.4227;
493.5000;0.9044;3.4155;
493.8000;0.9052;3.4155;
494.1000;0.9101;3.4275;
494.4000;0.9068;3.4275;
494.7000;0.9011;3.4155;
495.0000;0.9052;3.4275;
495.3000;0.9035;3.4203;
495.6000;0.9052;3.4251;
495.9000;0.8978;3.4036;
496.2000;0.9044;3.4131;
496.5000;0.9044;3.4203;
496.8000;0.9052;3.4251;
497.1000;0.9027;3.4299;
497.4000;0.9019;3.4322;
497.7000;0.9011;3.4322;
498.0000;0.8970;3.4155;
498.3000;0.9052;3.4299;
498.6000;0.9044;3.4203;
498.9000;0.9019;3.4155;
499.2000;0.9035;3.4179;
499.5000;0.9060;3.4203;
499.8000;0.9060;3.4203;
500.1000;0.9027;3.4179;
500.4000;0.9068;3.4346;
500.7000;0.9052;3.4346;
501.0000;0.9060;3.4418;
501.3000;0.9052;3.4466;
501.6000;0.9076;3.4418;
501.9000;0.9060;3.4299;
502.2000;0.9060;3.4370;
502.5000;0.9044;3.4275;
502.8000;0.9060;3.4203;
503.1000;0.9044;3.4203;
503.4000;0.9060;3.4179;
503.7000;0.9035;3.4203;
504.0000;0.9052;3.4275;
504.3000;0.9044;3.4203;
504.6000;0.9044;3.4179;
504.9000;0.9027;3.4036;
505.2000;0.9044;3.4060;
505.5000;0.9035;3.4060;
505.8000;0.9044;3.4084;
506.1000;0.9044;3.4131;
506.4000;0.9035;3.4155;
506.7000;0.9052;3.4251;
507.0000;0.9019;3.4227;
507.3000;0.9068;3.4251;
507.6000;0.9092;3.4322;
507.9000;0.9044;3.4179;
508.2000;0.9060;3.4251;
508.5000;0.9060;3.4203;
508.8000;0.9060;3.4155;
509.1000;0.9044;3.4179;
509.4000;0.9060;3.4299;
509.7000;0.9044;3.4251;
510.0000;0.9052;3.4251;
510.3000;0.9068;3.4203;
510.6000;0.9052;3.4322;
510.9000;0.9052;3.4299;
511.2000;0.9052;3.4299;
511.5000;0.9027;3.4322;
511.8000;0.9019;3.4346;
512.1000;0.9035;3.4322;
512.4000;0.9052;3.4275;
512.7000;0.9052;3.4299;
513.0000;0.9035;3.4251;
513.3000;0.9044;3.4227;
513.6000;0.9076;3.4322;
513.9000;0.9027;3.4227;
514.2000;0.9044;3.4203;
514.5000;0.9011;3.4131;
514.8000;0.9092;3.4466;
515.1000;0.9044;3.4346;
515.4000;0.9052;3.4227;
515.7000;0.9060;3.4203;
516.0000;0.9076;3.4203;
516.3000;0.9052;3.4155;
516.6000;0.9060;3.4203;
516.9000;0.9068;3.4179;
517.2000;0.9060;3.4131;
517.5000;0.9068;3.4203;
517.8000;0.9027;3.4131;
518.1000;0.9027;3.4155;
518.4000;0.9027;3.4155;
518.7000;0.9011;3.4084;
519.0000;0.9044;3.4155;
519.3000;0.8995;3.4060;
519.6000;0.9044;3.4155;
519.9000;0.9035;3.4084;
520.2000;0.9035;3.4060;
520.5000;0.9027;3.4060;
520.8000;0.9044;3.4036;
521.1000;0.9052;3.4108;
521.4000;0.9044;3.4084;
521.7000;0.9035;3.4108;
522.0000;0.9027;3.4179;
522.3000;0.9076;3.4322;
522.6000;0.9035;3.4299;
522.9000;0.9044;3.4251;
523.2000;0.9044;3.4251;
523.5000;0.9044;3.4227;
523.8000;0.9044;3.4227;
524.1000;0.9027;3.4203;
524.4000;0.9052;3.4275;
524.7000;0.9060;3.4299;
525.0000;0.9035;3.4155;
525.3000;0.9052;3.4155;
525.6000;0.9011;3.4131;
525.9000;0.9035;3.4203;
526.2000;0.9052;3.4179;
526.5000;0.9052;3.4203;
526.8000;0.9044;3.4084;
527.1000;0.9076;3.4060;
527.4000;0.9060;3.4012;
527.7000;0.9052;3.3964;
528.0000;0.9060;3.3940;
528.3000;0.9044;3.3964;
528.6000;0.9044;3.4036;
528.9000;0.9044;3.4131;
529.2000;0.9060;3.4155;
529.5000;0.9052;3.4131;
529.8000;0.9060;3.4203;
530.1000;0.9068;3.4203;
530.4000;0.9044;3.4179;
530.7000;0.9068;3.4370;
531.0000;0.8978;3.4227;
531.3000;0.9027;3.4322;
531.6000;0.9003;3.4203;
531.9000;0.9019;3.4131;
532.2000;0.9060;3.4155;
532.5000;0.9052;3.4131;
532.8000;0.9035;3.4060;
533.1000;0.8987;3.4012;
533.4000;0.9027;3.4179;
533.7000;0.9044;3.4179;
534.0000;0.9035;3.4179;
534.3000;0.9044;3.4155;
534.6000;0.9052;3.4155;
534.9000;0.9044;3.4155;
535.2000;0.9060;3.4322;
535.5000;0.9060;3.4299;
535.8000;0.9035;3.4203;
536.1000;0.9044;3.4251;
536.4000;0.9052;3.4322;
536.7000;0.9052;3.4275;
537.0000;0.9044;3.4179;
537.3000;0.9044;3.4108;
537.6000;0.9052;3.4155;
537.9000;0.9035;3.4108;
538.2000;0.9052;3.4131;
538.5000;0.9003;3.4131;
538.8000;0.9092;3.4322;
539.1000;0.9044;3.4203;
539.4000;0.9035;3.4179;
539.7000;0.9117;3.4346;
540.0000;0.9141;3.4299;
540.3000;0.9027;3.4060;
540.6000;0.9035;3.4060;
540.9000;0.9044;3.4060;
541.2000;0.9052;3.4108;
541.5000;0.9052;3.4155;
541.8000;0.9052;3.4203;
542.1000;0.9035;3.4155;
542.4000;0.9060;3.4131;
542.7000;0.9052;3.4108;
543.0000;0.9060;3.4108;
543.3000;0.9044;3.4036;
543.6000;0.9060;3.4131;
543.9000;0.9052;3.4108;
544.2000;0.9052;3.4108;
544.5000;0.9068;3.4155;
544.8000;0.9052;3.4060;
545.1000;0.9060;3.4179;
545.4000;0.9044;3.4155;
545.7000;0.9092;3.4299;
546.0000;0.8995;3.4060;
546.3000;0.9052;3.4203;
546.6000;0.9035;3.4155;
546.9000;0.9027;3.4084;
547.2000;0.9035;3.4084;
547.5000;0.9076;3.4251;
547.8000;0.9052;3.4227;
548.1000;0.9027;3.4203;
548.4000;0.9044;3.4275;
548.7000;0.9060;3.4275;
549.0000;0.9060;3.4370;
549.3000;0.9011;3.4251;
549.6000;0.9035;3.4322;
549.9000;0.9027;3.4227;
550.2000;0.9035;3.4155;
550.5000;0.9019;3.4131;
550.8000;0.9035;3.4084;
551.1000;0.9035;3.4108;
551.4000;0.9060;3.4155;
551.7000;0.9044;3.4084;
552.0000;0.9019;3.4036;
552.3000;0.9019;3.4036;
552.6000;0.9052;3.4036;
552.9000;0.9027;3.4060;
553.2000;0.9027;3.4060;
553.5000;0.9101;3.4251;
553.8000;0.9052;3.4179;
554.1000;0.9052;3.4203;
554.4000;0.9035;3.4155;
554.7000;0.9027;3.4131;
555.0000;0.9044;3.4155;
555.3000;0.9035;3.4155;
555.6000;0.9035;3.4060;
555.9000;0.9035;3.4084;
556.2000;0.9019;3.4036;
556.5000;0.9044;3.4036;
556.8000;0.9035;3.4036;
557.1000;0.9052;3.4012;
557.4000;0.9011;3.3917;
557.7000;0.9011;3.3893;
558.0000;0.8970;3.3773;
558.3000;0.9035;3.3940;
558.6000;0.9060;3.3988;
558.9000;0.9019;3.3893;
559.2000;0.9044;3.3917;
559.5000;0.9076;3.4012;
559.8000;0.9044;3.3988;
560.1000;0.9052;3.4036;
560.4000;0.9092;3.4131;
560.7000;0.9035;3.3964;
561.0000;0.9044;3.3940;
561.3000;0.9044;3.3988;
561.6000;0.9027;3.4012;
561.9000;0.9052;3.4036;
562.2000;0.9019;3.3940;
562.5000;0.9011;3.3940;
562.8000;0.9044;3.4060;
563.1000;0.9101;3.4131;
563.4000;0.9035;3.3988;
563.7000;0.9027;3.3893;
564.0000;0.9044;3.3893;
564.3000;0.9084;3.3940;
564.6000;0.9044;3.3988;
564.9000;0.9035;3.4108;
565.2000;0.9035;3.4131;
565.5000;0.9052;3.4179;
565.8000;0.9035;3.4084;
566.1000;0.9044;3.4155;
566.4000;0.9027;3.4084;
566.7000;0.9044;3.4108;
567.0000;0.9035;3.4108;
567.3000;0.9027;3.4179;
567.6000;0.9035;3.4108;
567.9000;0.9092;3.4227;
568.2000;0.9044;3.4108;
568.5000;0.9052;3.4084;
568.8000;0.9052;3.4131;
569.1000;0.9052;3.4179;
569.4000;0.9052;3.4179;
569.7000;0.9027;3.4155;
570.0000;0.9044;3.4131;
570.3000;0.9052;3.4179;
570.6000;0.9052;3.4179;
570.9000;0.9044;3.4155;
571.2000;0.9052;3.4179;
571.5000;0.9027;3.4203;
571.8000;0.9044;3.4275;
572.1000;0.9060;3.4346;
572.4000;0.9060;3.4275;
572.7000;0.9052;3.4108;
573.0000;0.9060;3.4108;
573.3000;0.9044;3.4084;
573.6000;0.9092;3.4203;
573.9000;0.9027;3.4012;
574.2000;0.9052;3.4131;
574.5000;0.9035;3.4155;
574.8000;0.9027;3.4203;
575.1000;0.9019;3.4155;
575.4000;0.9044;3.4251;
575.7000;0.9027;3.4179;
576.0000;0.9044;3.4084;
576.3000;0.9027;3.3964;
576.6000;0.9019;3.3917;
576.9000;0.9019;3.3917;
577.2000;0.9027;3.3917;
577.5000;0.9035;3.4012;
577.8000;0.9003;3.4060;
578.1000;0.9044;3.4108;
578.4000;0.9052;3.4155;
578.7000;0.9068;3.4155;
579.0000;0.9044;3.4108;
579.3000;0.9052;3.4203;
579.6000;0.9076;3.4275;
579.9000;0.9052;3.4203;
580.2000;0.9035;3.4251;
580.5000;0.9060;3.4322;
580.8000;0.9052;3.4322;
581.1000;0.9035;3.4203;
581.4000;0.9060;3.4346;
581.7000;0.9117;3.4585;
582.0000;0.9011;3.4394;
582.3000;0.9044;3.4346;
582.6000;0.9035;3.4299;
582.9000;0.9027;3.4227;
583.2000;0.9044;3.4179;
583.5000;0.9109;3.4299;
583.8000;0.9044;3.4179;
584.1000;0.9044;3.4131;
584.4000;0.9068;3.4251;
584.7000;0.9035;3.4155;
585.0000;0.9035;3.4131;
585.3000;0.9011;3.4108;
585.6000;0.9035;3.4060;
585.9000;0.9044;3.4084;
586.2000;0.9019;3.4084;
586.5000;0.9035;3.4131;
586.8000;0.9027;3.4131;
587.1000;0.9035;3.4036;
587.4000;0.9044;3.4060;
587.7000;0.9052;3.4036;
588.0000;0.9060;3.3964;
588.3000;0.9052;3.4060;
588.6000;0.9027;3.4060;
588.9000;0.9035;3.4155;
589.2000;0.9044;3.4203;
589.5000;0.9052;3.4179;
589.8000;0.9052;3.4155;
590.1000;0.9141;3.4275;
590.4000;0.9035;3.4131;
590.7000;0.9052;3.4203;
591.0000;0.9044;3.4251;
591.3000;0.9019;3.4179;
591.6000;0.9052;3.4275;
591.9000;0.9027;3.4299;
592.2000;0.9084;3.4466;
592.5000;0.9035;3.4251;
592.8000;0.9044;3.4251;
593.1000;0.9035;3.4227;
593.4000;0.9027;3.4203;
593.7000;0.9068;3.4275;
594.0000;0.9035;3.4203;
594.3000;0.9003;3.4131;
594.6000;0.9035;3.4251;
594.9000;0.9027;3.4227;
595.2000;0.9019;3.4179;
595.5000;0.9027;3.4155;
595.8000;0.9027;3.4060;
596.1000;0.9044;3.4012;
596.4000;0.9011;3.3893;
596.7000;0.9044;3.4036;
597.0000;0.9035;3.4036;
597.3000;0.9035;3.4060;
597.6000;0.9092;3.4227;
597.9000;0.9044;3.4084;
598.2000;0.9035;3.4155;
598.5000;0.9052;3.4155;
598.8000;0.9068;3.4227;
599.1000;0.9035;3.4251;
599.4000;0.9011;3.4251;
599.7000;0.9011;3.4227;
600.0000;0.9044;3.4299;
600.3000;0.9052;3.4203;
600.6000;0.9092;3.4227;
600.9000;0.9019;3.3988;
601.2000;0.8913;3.3773;
601.5000;0.8921;3.3702;
601.8000;0.8856;3.3511;
602.1000;0.8832;3.3392;
602.4000;0.8710;3.3010;
602.7000;0.8661;3.2819;
603.0000;0.8596;3.2604;
603.3000;0.8539;3.2437;
603.6000;0.8506;3.2294;
603.9000;0.8417;3.2127;
604.2000;0.8319;3.1936;
604.5000;0.8327;3.1983;
604.8000;0.8303;3.1936;
605.1000;0.8246;3.1745;
605.4000;0.8181;3.1482;
605.7000;0.8148;3.1434;
606.0000;0.8124;3.1554;
606.3000;0.8050;3.1506;
606.6000;0.8059;3.1530;
606.9000;0.7985;3.1363;
607.2000;0.7937;3.1267;
607.5000;0.7920;3.1220;
607.8000;0.7928;3.1315;
608.1000;0.7871;3.1339;
608.4000;0.7798;3.1196;
608.7000;0.7782;3.1243;
609.0000;0.7757;3.1243;
609.3000;0.7725;3.1267;
609.6000;0.7692;3.1220;
609.9000;0.7668;3.1220;
610.2000;0.7652;3.1243;
610.5000;0.7603;3.1148;
610.8000;0.7521;3.0957;
611.1000;0.7546;3.0981;
611.4000;0.7530;3.0933;
611.7000;0.7513;3.0981;
612.0000;0.7473;3.0909;
612.3000;0.7448;3.0814;
612.6000;0.7432;3.0861;
612.9000;0.7416;3.0885;
613.2000;0.7375;3.0790;
613.5000;0.7350;3.0861;
613.8000;0.7326;3.0885;
614.1000;0.7310;3.0814;
614.4000;0.7293;3.0838;
614.7000;0.7253;3.0909;
615.0000;0.7245;3.0933;
615.3000;0.7228;3.0861;
615.6000;0.7196;3.0814;
615.9000;0.7179;3.0718;
616.2000;0.7163;3.0742;
616.5000;0.7139;3.0790;
616.8000;0.7147;3.0861;
617.1000;0.7106;3.0790;
617.4000;0.7074;3.0814;
617.7000;0.7066;3.0790;
618.0000;0.7057;3.0838;
618.3000;0.7033;3.0790;
618.6000;0.7009;3.0814;
618.9000;0.7017;3.0981;
619.2000;0.6992;3.0957;
619.5000;0.6968;3.0885;
619.8000;0.6952;3.0885;
620.1000;0.6927;3.0718;
620.4000;0.6927;3.0766;
620.7000;0.6895;3.0694;
621.0000;0.6886;3.0718;
621.3000;0.6878;3.0694;
621.6000;0.6846;3.0718;
621.9000;0.6862;3.0718;
622.2000;0.6829;3.0623;
622.5000;0.6805;3.0623;
622.8000;0.6805;3.0742;
623.1000;0.6781;3.0694;
623.4000;0.6764;3.0599;
623.7000;0.6740;3.0480;
624.0000;0.6740;3.0623;
624.3000;0.6748;3.0718;
624.6000;0.6724;3.0766;
624.9000;0.6707;3.0742;
625.2000;0.6699;3.0814;
625.5000;0.6691;3.0766;
625.8000;0.6667;3.0742;
626.1000;0.6642;3.0814;
626.4000;0.6650;3.0861;
626.7000;0.6642;3.0838;
627.0000;0.6634;3.0742;
627.3000;0.6602;3.0671;
627.6000;0.6618;3.0694;
627.9000;0.6577;3.0694;
628.2000;0.6585;3.0742;
628.5000;0.6577;3.0742;
628.8000;0.6561;3.0718;
629.1000;0.6569;3.0647;
629.4000;0.6561;3.0671;
629.7000;0.6520;3.0694;
630.0000;0.6504;3.0718;
630.3000;0.6512;3.0671;
630.6000;0.6488;3.0623;
630.9000;0.6479;3.0480;
631.2000;0.6463;3.0456;
631.5000;0.6463;3.0503;
631.8000;0.6439;3.0480;
632.1000;0.6439;3.0503;
632.4000;0.6431;3.0527;
632.7000;0.6447;3.0623;
633.0000;0.6406;3.0599;
633.3000;0.6414;3.0623;
633.6000;0.6414;3.0647;
633.9000;0.6398;3.0599;
634.2000;0.6406;3.0575;
634.5000;0.6382;3.0575;
634.8000;0.6341;3.0408;
635.1000;0.6365;3.0480;
635.4000;0.6365;3.0384;
635.7000;0.6365;3.0432;
636.0000;0.6365;3.0480;
636.3000;0.6325;3.0480;
636.6000;0.6317;3.0480;
636.9000;0.6309;3.0456;
637.2000;0.6284;3.0456;
637.5000;0.6300;3.0623;
637.8000;0.6284;3.0575;
638.1000;0.6309;3.0623;
638.4000;0.6300;3.0647;
638.7000;0.6252;3.0671;
639.0000;0.6268;3.0838;
639.3000;0.6268;3.0838;
639.6000;0.6235;3.0718;
639.9000;0.6235;3.0671;
640.2000;0.6227;3.0647;
640.5000;0.6227;3.0599;
640.8000;0.6203;3.0551;
641.1000;0.6219;3.0671;
641.4000;0.6268;3.0766;
641.7000;0.6195;3.0599;
642.0000;0.6235;3.0647;
642.3000;0.6252;3.0599;
642.6000;0.6203;3.0527;
642.9000;0.6195;3.0551;
643.2000;0.6178;3.0623;
643.5000;0.6178;3.0647;
643.8000;0.6162;3.0575;
644.1000;0.6170;3.0647;
644.4000;0.6154;3.0575;
644.7000;0.6129;3.0503;
645.0000;0.6162;3.0503;
645.3000;0.6138;3.0480;
645.6000;0.6146;3.0503;
645.9000;0.6129;3.0599;
646.2000;0.6121;3.0671;
646.5000;0.6097;3.0718;
646.8000;0.6097;3.0742;
647.1000;0.6097;3.0671;
647.4000;0.6113;3.0551;
647.7000;0.5991;3.0217;
648.0000;0.6113;3.0551;
648.3000;0.6089;3.0599;
648.6000;0.6072;3.0527;
648.9000;0.6089;3.0527;
649.2000;0.6064;3.0480;
649.5000;0.6097;3.0527;
649.8000;0.6056;3.0503;
650.1000;0.6056;3.0551;
650.4000;0.6048;3.0575;
650.7000;0.6056;3.0647;
651.0000;0.6048;3.0551;
651.3000;0.6040;3.0671;
651.6000;0.6024;3.0599;
651.9000;0.6015;3.0623;
652.2000;0.6015;3.0551;
652.5000;0.6007;3.0527;
652.8000;0.5991;3.0575;
653.1000;0.6007;3.0647;
653.4000;0.5999;3.0623;
653.7000;0.5983;3.0647;
654.0000;0.5958;3.0647;
654.3000;0.5975;3.0671;
654.6000;0.6024;3.0766;
654.9000;0.5967;3.0599;
655.2000;0.5983;3.0575;
655.5000;0.5967;3.0551;
655.8000;0.5958;3.0575;
656.1000;0.5967;3.0599;
656.4000;0.5950;3.0503;
656.7000;0.5942;3.0480;
657.0000;0.5942;3.0480;
657.3000;0.5958;3.0527;
657.6000;0.5934;3.0575;
657.9000;0.5893;3.0456;
658.2000;0.5918;3.0647;
658.5000;0.5902;3.0527;
658.8000;0.5918;3.0527;
659.1000;0.5910;3.0551;
659.4000;0.5910;3.0599;
659.7000;0.5885;3.0432;
660.0000;0.5893;3.0480;
660.3000;0.5885;3.0527;
660.6000;0.5893;3.0503;
660.9000;0.5975;3.0766;
661.2000;0.5902;3.0718;
661.5000;0.5885;3.0671;
661.8000;0.5893;3.0694;
662.1000;0.5910;3.0742;
662.4000;0.5885;3.0647;
662.7000;0.5885;3.0623;
663.0000;0.5893;3.0694;
663.3000;0.5869;3.0623;
663.6000;0.5869;3.0647;
663.9000;0.5861;3.0623;
664.2000;0.5845;3.0599;
664.5000;0.5836;3.0599;
664.8000;0.5877;3.0623;
665.1000;0.5845;3.0527;
665.4000;0.5869;3.0599;
665.7000;0.5845;3.0599;
666.0000;0.5804;3.0480;
666.3000;0.5828;3.0503;
666.6000;0.5820;3.0432;
666.9000;0.5747;3.0265;
667.2000;0.5853;3.0599;
667.5000;0.5853;3.0623;
667.8000;0.5869;3.0647;
668.1000;0.5861;3.0766;
668.4000;0.5820;3.0742;
668.7000;0.5812;3.0694;
669.0000;0.5812;3.0742;
669.3000;0.5828;3.0766;
669.6000;0.5812;3.0742;
669.9000;0.5812;3.0790;
670.2000;0.5788;3.0694;
670.5000;0.5804;3.0647;
670.8000;0.5804;3.0623;
671.1000;0.5804;3.0694;
671.4000;0.5796;3.0694;
671.7000;0.5796;3.0718;
672.0000;0.5796;3.0671;
672.3000;0.5779;3.0647;
672.6000;0.5788;3.0718;
672.9000;0.5779;3.0694;
673.2000;0.5682;3.0527;
673.5000;0.5771;3.0766;
673.8000;0.5804;3.0909;
674.1000;0.5739;3.0718;
674.4000;0.5763;3.0814;
674.7000;0.5682;3.0623;
675.0000;0.5763;3.0814;
675.3000;0.5747;3.0766;
675.6000;0.5804;3.0885;
675.9000;0.5763;3.0790;
676.2000;0.5763;3.0766;
676.5000;0.5828;3.0981;
676.8000;0.5747;3.0838;
677.1000;0.5739;3.0671;
677.4000;0.5771;3.0790;
677.7000;0.5731;3.0742;
678.0000;0.5690;3.0623;
678.3000;0.5714;3.0671;
678.6000;0.5779;3.0885;
678.9000;0.5755;3.0742;
679.2000;0.5722;3.0718;
679.5000;0.5747;3.0718;
679.8000;0.5674;3.0599;
680.1000;0.5714;3.0647;
680.4000;0.5755;3.0623;
680.7000;0.5690;3.0527;
681.0000;0.5698;3.0551;
681.3000;0.5706;3.0551;
681.6000;0.5731;3.0599;
681.9000;0.5706;3.0671;
682.2000;0.5682;3.0599;
682.5000;0.5706;3.0599;
682.8000;0.5665;3.0503;
683.1000;0.5690;3.0551;
683.4000;0.5674;3.0503;
683.7000;0.5674;3.0527;
684.0000;0.5674;3.0527;
684.3000;0.5665;3.0623;
684.6000;0.5674;3.0551;
684.9000;0.5665;3.0480;
685.2000;0.5665;3.0527;
685.5000;0.5674;3.0575;
685.8000;0.5674;3.0694;
686.1000;0.5657;3.0623;
686.4000;0.5649;3.0503;
686.7000;0.5674;3.0527;
687.0000;0.5576;3.0265;
687.3000;0.5665;3.0527;
687.6000;0.5665;3.0599;
687.9000;0.5617;3.0336;
688.2000;0.5649;3.0408;
688.5000;0.5625;3.0456;
688.8000;0.5641;3.0384;
689.1000;0.5633;3.0432;
689.4000;0.5641;3.0480;
689.7000;0.5714;3.0838;
690.0000;0.5633;3.0623;
690.3000;0.5641;3.0694;
690.6000;0.5665;3.0766;
690.9000;0.5641;3.0647;
691.2000;0.5633;3.0647;
691.5000;0.5649;3.0647;
691.8000;0.5633;3.0599;
692.1000;0.5592;3.0432;
692.4000;0.5633;3.0647;
692.7000;0.5617;3.0599;
693.0000;0.5592;3.0503;
693.3000;0.5625;3.0551;
693.6000;0.5617;3.0551;
693.9000;0.5592;3.0551;
694.2000;0.5625;3.0742;
694.5000;0.5617;3.0861;
694.8000;0.5657;3.0957;
695.1000;0.5600;3.0861;
695.4000;0.5617;3.0861;
695.7000;0.5617;3.0814;
696.0000;0.5608;3.0742;
696.3000;0.5600;3.0718;
696.6000;0.5592;3.0766;
696.9000;0.5608;3.0766;
697.2000;0.5592;3.0694;
697.5000;0.5600;3.0599;
697.8000;0.5543;3.0456;
698.1000;0.5592;3.0480;
698.4000;0.5576;3.0503;
698.7000;0.5608;3.0575;
699.0000;0.5584;3.0599;
699.3000;0.5584;3.0623;
699.6000;0.5584;3.0623;
699.9000;0.5568;3.0671;
700.2000;0.5592;3.0718;
700.5000;0.5592;3.0694;
700.8000;0.5584;3.0623;
701.1000;0.5584;3.0503;
701.4000;0.5568;3.0456;
701.7000;0.5584;3.0527;
702.0000;0.5576;3.0480;
702.3000;0.5560;3.0480;
702.6000;0.5568;3.0480;
702.9000;0.5568;3.0456;
703.2000;0.5568;3.0503;
703.5000;0.5584;3.0527;
703.8000;0.5551;3.0551;
704.1000;0.5543;3.0503;
704.4000;0.5576;3.0551;
704.7000;0.5560;3.0575;
705.0000;0.5551;3.0599;
705.3000;0.5560;3.0623;
705.6000;0.5568;3.0647;
705.9000;0.5560;3.0647;
706.2000;0.5560;3.0623;
706.5000;0.5551;3.0575;
706.8000;0.5584;3.0671;
707.1000;0.5560;3.0647;
707.4000;0.5551;3.0718;
707.7000;0.5543;3.0671;
708.0000;0.5576;3.0718;
708.3000;0.5560;3.0742;
708.6000;0.5551;3.0671;
708.9000;0.5576;3.0694;
709.2000;0.5551;3.0623;
709.5000;0.5551;3.0575;
709.8000;0.5535;3.0623;
710.1000;0.5527;3.0623;
710.4000;0.5560;3.0718;
710.7000;0.5543;3.0647;
711.0000;0.5429;3.0360;
711.3000;0.5543;3.0527;
711.6000;0.5519;3.0456;
711.9000;0.5592;3.0647;
712.2000;0.5535;3.0503;
712.5000;0.5503;3.0503;
712.8000;0.5511;3.0480;
713.1000;0.5503;3.0456;
713.4000;0.5511;3.0503;
713.7000;0.5511;3.0480;
714.0000;0.5511;3.0551;
714.3000;0.5446;3.0480;
714.6000;0.5560;3.0694;
714.9000;0.5495;3.0551;
715.2000;0.5527;3.0599;
715.5000;0.5608;3.0861;
715.8000;0.5519;3.0623;
716.1000;0.5519;3.0647;
716.4000;0.5503;3.0575;
716.7000;0.5462;3.0503;
717.0000;0.5495;3.0671;
717.3000;0.5495;3.0790;
717.6000;0.5535;3.0933;
717.9000;0.5519;3.0790;
718.2000;0.5511;3.0742;
718.5000;0.5486;3.0623;
718.8000;0.5543;3.0694;
719.1000;0.5503;3.0647;
719.4000;0.5486;3.0599;
719.7000;0.5503;3.0647;
720.0000;0.5519;3.0671;
720.3000;0.5486;3.0575;
720.6000;0.5560;3.0694;
720.9000;0.5495;3.0551;
721.2000;0.5486;3.0503;
721.5000;0.5478;3.0480;
721.8000;0.5495;3.0456;
722.1000;0.5551;3.0647;
722.4000;0.5503;3.0503;
722.7000;0.5486;3.0480;
723.0000;0.5478;3.0527;
723.3000;0.5470;3.0575;
723.6000;0.5478;3.0551;
723.9000;0.5486;3.0527;
724.2000;0.5486;3.0599;
724.5000;0.5470;3.0551;
724.8000;0.5462;3.0599;
725.1000;0.5478;3.0599;
725.4000;0.5470;3.0551;
725.7000;0.5462;3.0527;
726.0000;0.5470;3.0503;
726.3000;0.5470;3.0527;
726.6000;0.5470;3.0527;
726.9000;0.5478;3.0503;
727.2000;0.5470;3.0408;
727.5000;0.5438;3.0432;
727.8000;0.5462;3.0527;
728.1000;0.5462;3.0551;
728.4000;0.5470;3.0551;
728.7000;0.5503;3.0694;
729.0000;0.5470;3.0623;
729.3000;0.5470;3.0647;
729.6000;0.5470;3.0671;
729.9000;0.5470;3.0742;
730.2000;0.5470;3.0647;
730.5000;0.5446;3.0575;
730.8000;0.5470;3.0551;
731.1000;0.5462;3.0623;
731.4000;0.5462;3.0647;
731.7000;0.5446;3.0575;
732.0000;0.5462;3.0575;
732.3000;0.5462;3.0503;
732.6000;0.5438;3.0527;
732.9000;0.5438;3.0480;
733.2000;0.5462;3.0623;
733.5000;0.5446;3.0575;
733.8000;0.5429;3.0527;
734.1000;0.5438;3.0527;
734.4000;0.5429;3.0456;
734.7000;0.5454;3.0599;
735.0000;0.5446;3.0551;
735.3000;0.5438;3.0503;
735.6000;0.5462;3.0527;
735.9000;0.5397;3.0456;
736.2000;0.5389;3.0480;
736.5000;0.5462;3.0766;
736.8000;0.5421;3.0718;
737.1000;0.5421;3.0671;
737.4000;0.5470;3.0766;
737.7000;0.5429;3.0671;
738.0000;0.5429;3.0742;
738.3000;0.5429;3.0742;
738.6000;0.5438;3.0671;
738.9000;0.5429;3.0694;
739.2000;0.5527;3.0957;
739.5000;0.5446;3.0742;
739.8000;0.5429;3.0671;
740.1000;0.5429;3.0718;
740.4000;0.5421;3.0694;
740.7000;0.5421;3.0694;
741.0000;0.5413;3.0694;
741.3000;0.5429;3.0814;
741.6000;0.5429;3.0790;
741.9000;0.5429;3.0790;
742.2000;0.5397;3.0671;
742.5000;0.5438;3.0766;
742.8000;0.5429;3.0742;
743.1000;0.5429;3.0766;
743.4000;0.5454;3.0838;
743.7000;0.5421;3.0694;
744.0000;0.5429;3.0694;
744.3000;0.5413;3.0694;
744.6000;0.5438;3.0694;
744.9000;0.5413;3.0647;
745.2000;0.5421;3.0694;
745.5000;0.5348;3.0551;
745.8000;0.5413;3.0647;
746.1000;0.5405;3.0647;
746.4000;0.5413;3.0742;
746.7000;0.5397;3.0623;
747.0000;0.5356;3.0551;
747.3000;0.5405;3.0718;
747.6000;0.5413;3.0694;
747.9000;0.5397;3.0480;
748.2000;0.5397;3.0503;
748.5000;0.5421;3.0575;
748.8000;0.5413;3.0551;
749.1000;0.5397;3.0503;
749.4000;0.5429;3.0647;
749.7000;0.5405;3.0647;
750.0000;0.5405;3.0718;
750.3000;0.5413;3.0766;
750.6000;0.5405;3.0766;
750.9000;0.5397;3.0742;
751.2000;0.5413;3.0694;
751.5000;0.5397;3.0718;
751.8000;0.5381;3.0766;
752.1000;0.5372;3.0742;
752.4000;0.5389;3.0814;
752.7000;0.5405;3.0742;
753.0000;0.5381;3.0647;
753.3000;0.5405;3.0718;
753.6000;0.5405;3.0671;
753.9000;0.5397;3.0694;
754.2000;0.5397;3.0742;
754.5000;0.5413;3.0671;
754.8000;0.5405;3.0647;
755.1000;0.5421;3.0766;
755.4000;0.5405;3.0671;
755.7000;0.5397;3.0766;
756.0000;0.5397;3.0718;
756.3000;0.5389;3.0790;
756.6000;0.5389;3.0742;
756.9000;0.5381;3.0671;
757.2000;0.5381;3.0694;
757.5000;0.5389;3.0694;
757.8000;0.5381;3.0671;
758.1000;0.5389;3.0718;
758.4000;0.5389;3.0694;
758.7000;0.5397;3.0694;
759.0000;0.5397;3.0718;
759.3000;0.5340;3.0623;
759.6000;0.5397;3.0766;
759.9000;0.5397;3.0718;
760.2000;0.5389;3.0790;
760.5000;0.5348;3.0718;
760.8000;0.5315;3.0599;
761.1000;0.5397;3.0790;
761.4000;0.5340;3.0694;
761.7000;0.5315;3.0647;
762.0000;0.5364;3.0790;
762.3000;0.5381;3.0814;
762.6000;0.5372;3.0838;
762.9000;0.5381;3.0861;
763.2000;0.5413;3.0885;
763.5000;0.5356;3.0766;
763.8000;0.5381;3.0742;
764.1000;0.5372;3.0671;
764.4000;0.5364;3.0647;
764.7000;0.5372;3.0599;
765.0000;0.5389;3.0623;
765.3000;0.5381;3.0527;
765.6000;0.5397;3.0527;
765.9000;0.5364;3.0503;
766.2000;0.5372;3.0527;
766.5000;0.5381;3.0647;
766.8000;0.5372;3.0694;
767.1000;0.5348;3.0623;
767.4000;0.5372;3.0718;
767.7000;0.5413;3.0861;
768.0000;0.5364;3.0694;
768.3000;0.5348;3.0551;
768.6000;0.5372;3.0551;
768.9000;0.5267;3.0336;
769.2000;0.5364;3.0671;
769.5000;0.5405;3.0718;
769.8000;0.5258;3.0336;
770.1000;0.5364;3.0694;
770.4000;0.5429;3.0718;
770.7000;0.5348;3.0527;
771.0000;0.5364;3.0647;
771.3000;0.5364;3.0623;
771.6000;0.5364;3.0551;
771.9000;0.5364;3.0480;
772.2000;0.5348;3.0480;
772.5000;0.5397;3.0694;
772.8000;0.5340;3.0551;
773.1000;0.5356;3.0647;
773.4000;0.5364;3.0718;
773.7000;0.5356;3.0814;
774.0000;0.5364;3.0861;
774.3000;0.5372;3.0933;
774.6000;0.5356;3.0909;
774.9000;0.5356;3.0909;
775.2000;0.5372;3.0861;
775.5000;0.5372;3.0861;
775.8000;0.5356;3.0790;
776.1000;0.5364;3.0861;
776.4000;0.5356;3.0885;
776.7000;0.5348;3.0790;
777.0000;0.5348;3.0718;
777.3000;0.5356;3.0766;
777.6000;0.5348;3.0790;
777.9000;0.5283;3.0575;
778.2000;0.5356;3.0742;
778.5000;0.5364;3.0742;
778.8000;0.5315;3.0718;
779.1000;0.5315;3.0671;
779.4000;0.5348;3.0790;
779.7000;0.5324;3.0718;
780.0000;0.5348;3.0790;
780.3000;0.5340;3.0861;
780.6000;0.5364;3.0981;
780.9000;0.5332;3.0933;
781.2000;0.5307;3.0838;
781.5000;0.5348;3.0814;
781.8000;0.5356;3.0838;
782.1000;0.5381;3.0814;
782.4000;0.5348;3.0742;
782.7000;0.5315;3.0694;
783.0000;0.5324;3.0742;
783.3000;0.5315;3.0671;
783.6000;0.5324;3.0671;
783.9000;0.5364;3.0718;
784.2000;0.5283;3.0503;
784.5000;0.5315;3.0599;
784.8000;0.5315;3.0623;
785.1000;0.5397;3.0838;
785.4000;0.5340;3.0599;
785.7000;0.5421;3.0790;
786.0000;0.5356;3.0694;
786.3000;0.5364;3.0694;
786.6000;0.5372;3.0790;
786.9000;0.5348;3.0647;
787.2000;0.5324;3.0575;
787.5000;0.5324;3.0599;
787.8000;0.5315;3.0551;
788.1000;0.5340;3.0647;
788.4000;0.5356;3.0623;
788.7000;0.5258;3.0432;
789.0000;0.5332;3.0527;
789.3000;0.5332;3.0527;
789.6000;0.5364;3.0623;
789.9000;0.5364;3.0647;
790.2000;0.5283;3.0480;
790.5000;0.5340;3.0647;
790.8000;0.5332;3.0647;
791.1000;0.5315;3.0575;
791.4000;0.5324;3.0575;
791.7000;0.5299;3.0599;
792.0000;0.5307;3.0599;
792.3000;0.5332;3.0647;
792.6000;0.5299;3.0551;
792.9000;0.5324;3.0718;
793.2000;0.5340;3.0718;
793.5000;0.5340;3.0718;
793.8000;0.5307;3.0694;
794.1000;0.5307;3.0814;
794.4000;0.5315;3.0790;
794.7000;0.5324;3.0742;
795.0000;0.5324;3.0742;
795.3000;0.5324;3.0647;
795.6000;0.5307;3.0623;
795.9000;0.5340;3.0718;
796.2000;0.5299;3.0647;
796.5000;0.5291;3.0623;
796.8000;0.5307;3.0527;
797.1000;0.5315;3.0575;
797.4000;0.5324;3.0647;
797.7000;0.5307;3.0671;
798.0000;0.5324;3.0671;
798.3000;0.5307;3.0647;
798.6000;0.5324;3.0671;
798.9000;0.5315;3.0647;
799.2000;0.5307;3.0575;
799.5000;0.5315;3.0623;
799.8000;0.5348;3.0694;
800.1000;0.5307;3.0647;
800.4000;0.5315;3.0718;
800.7000;0.5307;3.0718;
801.0000;0.5324;3.0766;
801.3000;0.5299;3.0718;
801.6000;0.5291;3.0766;
801.9000;0.5299;3.0838;
802.2000;0.5324;3.0909;
802.5000;0.5291;3.0885;
802.8000;0.5307;3.1005;
803.1000;0.5299;3.0981;
803.4000;0.5283;3.0838;
803.7000;0.5299;3.0790;
804.0000;0.5340;3.0933;
804.3000;0.5340;3.1005;
804.6000;0.5324;3.0957;
804.9000;0.5258;3.0742;
805.2000;0.5307;3.0814;
805.5000;0.5332;3.0933;
805.8000;0.5307;3.0814;
806.1000;0.5381;3.0933;
806.4000;0.5340;3.0790;
806.7000;0.5332;3.0718;
807.0000;0.5340;3.0742;
807.3000;0.5242;3.0456;
807.6000;0.5315;3.0575;
807.9000;0.5307;3.0647;
808.2000;0.5307;3.0718;
808.5000;0.5315;3.0742;
808.8000;0.5291;3.0671;
809.1000;0.5283;3.0742;
809.4000;0.5307;3.0838;
809.7000;0.5307;3.0838;
810.0000;0.5299;3.0742;
810.3000;0.5307;3.0790;
810.6000;0.5275;3.0718;
810.9000;0.5299;3.0694;
811.2000;0.5299;3.0694;
811.5000;0.5307;3.0694;
811.8000;0.5299;3.0671;
812.1000;0.5258;3.0599;
812.4000;0.5299;3.0671;
812.7000;0.5315;3.0766;
813.0000;0.5299;3.0694;
813.3000;0.5340;3.0718;
813.6000;0.5299;3.0671;
813.9000;0.5291;3.0671;
814.2000;0.5283;3.0742;
814.5000;0.5307;3.0790;
814.8000;0.5299;3.0742;
815.1000;0.5315;3.0766;
815.4000;0.5291;3.0742;
815.7000;0.5307;3.0742;
816.0000;0.5315;3.0838;
816.3000;0.5324;3.0814;
816.6000;0.5283;3.0671;
816.9000;0.5315;3.0742;
817.2000;0.5291;3.0718;
817.5000;0.5307;3.0790;
817.8000;0.5291;3.0718;
818.1000;0.5299;3.0718;
818.4000;0.5283;3.0694;
818.7000;0.5307;3.0718;
819.0000;0.5291;3.0671;
819.3000;0.5291;3.0742;
819.6000;0.5315;3.0766;
819.9000;0.5324;3.0718;
820.2000;0.5283;3.0503;
820.5000;0.5299;3.0551;
820.8000;0.5291;3.0480;
821.1000;0.5299;3.0527;
821.4000;0.5315;3.0647;
821.7000;0.5291;3.0718;
822.0000;0.5275;3.0790;
822.3000;0.5291;3.0885;
822.6000;0.5291;3.0885;
822.9000;0.5299;3.0885;
823.2000;0.5299;3.0838;
823.5000;0.5283;3.0790;
823.8000;0.5275;3.0742;
824.1000;0.5299;3.0742;
824.4000;0.5291;3.0718;
824.7000;0.5299;3.0718;
825.0000;0.5299;3.0742;
825.3000;0.5283;3.0718;
825.6000;0.5307;3.0742;
825.9000;0.5299;3.0718;
826.2000;0.5291;3.0742;
826.5000;0.5291;3.0766;
826.8000;0.5283;3.0671;
827.1000;0.5283;3.0718;
827.4000;0.5299;3.0718;
827.7000;0.5340;3.0814;
828.0000;0.5332;3.0838;
828.3000;0.5291;3.0694;
828.6000;0.5267;3.0694;
828.9000;0.5307;3.0814;
829.2000;0.5291;3.0814;
829.5000;0.5275;3.0790;
829.8000;0.5283;3.0861;
830.1000;0.5291;3.0861;
830.4000;0.5201;3.0623;
830.7000;0.5307;3.0861;
831.0000;0.5275;3.0790;
831.3000;0.5381;3.0933;
831.6000;0.5291;3.0718;
831.9000;0.5283;3.0647;
832.2000;0.5258;3.0623;
832.5000;0.5340;3.0885;
832.8000;0.5283;3.0766;
833.1000;0.5267;3.0671;
833.4000;0.5275;3.0766;
833.7000;0.5332;3.0814;
834.0000;0.5291;3.0671;
834.3000;0.5283;3.0623;
834.6000;0.5299;3.0671;
834.9000;0.5283;3.0694;
835.2000;0.5267;3.0718;
835.5000;0.5275;3.0694;
835.8000;0.5291;3.0790;
836.1000;0.5291;3.0814;
836.4000;0.5291;3.0838;
836.7000;0.5275;3.0742;
837.0000;0.5258;3.0718;
837.3000;0.5275;3.0814;
837.6000;0.5283;3.0742;
837.9000;0.5267;3.0790;
838.2000;0.5267;3.0838;
838.5000;0.5275;3.0814;
838.8000;0.5340;3.0885;
839.1000;0.5275;3.0718;
839.4000;0.5275;3.0599;
839.7000;0.5283;3.0694;
840.0000;0.5307;3.0790;
840.3000;0.5283;3.0766;
840.6000;0.5283;3.0838;
840.9000;0.5267;3.0838;
841.2000;0.5291;3.0838;
841.5000;0.5275;3.0885;
841.8000;0.5267;3.0933;
842.1000;0.5258;3.0885;
842.4000;0.5267;3.1029;
842.7000;0.5283;3.0957;
843.0000;0.5283;3.0909;
843.3000;0.5250;3.0766;
843.6000;0.5275;3.0766;
843.9000;0.5283;3.0766;
844.2000;0.5291;3.0838;
844.5000;0.5250;3.0575;
844.8000;0.5267;3.0671;
845.1000;0.5275;3.0694;
845.4000;0.5299;3.0647;
845.7000;0.5258;3.0527;
846.0000;0.5275;3.0599;
846.3000;0.5275;3.0694;
846.6000;0.5275;3.0718;
846.9000;0.5267;3.0742;
847.2000;0.5283;3.0838;
847.5000;0.5258;3.0790;
847.8000;0.5250;3.0766;
848.1000;0.5267;3.0790;
848.4000;0.5250;3.0694;
848.7000;0.5250;3.0694;
849.0000;0.5242;3.0694;
849.3000;0.5267;3.0694;
849.6000;0.5234;3.0671;
849.9000;0.5258;3.0694;
850.2000;0.5258;3.0742;
850.5000;0.5291;3.0838;
850.8000;0.5275;3.0766;
851.1000;0.5283;3.0838;
851.4000;0.5234;3.0718;
851.7000;0.5291;3.0909;
852.0000;0.5283;3.0838;
852.3000;0.5332;3.0933;
852.6000;0.5283;3.0861;
852.9000;0.5275;3.0861;
853.2000;0.5283;3.0909;
853.5000;0.5250;3.0909;
853.8000;0.5250;3.0885;
854.1000;0.5250;3.0838;
854.4000;0.5275;3.0814;
854.7000;0.5258;3.0671;
855.0000;0.5242;3.0551;
855.3000;0.5169;3.0336;
855.6000;0.5275;3.0551;
855.9000;0.5267;3.0575;
856.2000;0.5267;3.0718;
856.5000;0.5250;3.0742;
856.8000;0.5267;3.0861;
857.1000;0.5258;3.0885;
857.4000;0.5242;3.0909;
857.7000;0.5250;3.0909;
858.0000;0.5275;3.0957;
858.3000;0.5226;3.0933;
858.6000;0.5267;3.0957;
858.9000;0.5267;3.0957;
859.2000;0.5275;3.0981;
859.5000;0.5267;3.0885;
859.8000;0.5275;3.0885;
860.1000;0.5258;3.0885;
860.4000;0.5275;3.0981;
860.7000;0.5267;3.0885;
861.0000;0.5267;3.0933;
861.3000;0.5267;3.0909;
861.6000;0.5201;3.0623;
861.9000;0.5258;3.0766;
862.2000;0.5267;3.0766;
862.5000;0.5250;3.0718;
862.8000;0.5267;3.0790;
863.1000;0.5250;3.0790;
863.4000;0.5234;3.0742;
863.7000;0.5242;3.0861;
864.0000;0.5234;3.0909;
864.3000;0.5258;3.0909;
864.6000;0.5250;3.0885;
864.9000;0.5234;3.0885;
865.2000;0.5234;3.0838;
865.5000;0.5267;3.0838;
865.8000;0.5250;3.0909;
866.1000;0.5242;3.0957;
866.4000;0.5242;3.0933;
866.7000;0.5242;3.0981;
867.0000;0.5250;3.0957;
867.3000;0.5258;3.1005;
867.6000;0.5267;3.1005;
867.9000;0.5250;3.0838;
868.2000;0.5283;3.0861;
868.5000;0.5242;3.0790;
868.8000;0.5250;3.0718;
869.1000;0.5210;3.0694;
869.4000;0.5242;3.0742;
869.7000;0.5242;3.0790;
870.0000;0.5250;3.0790;
870.3000;0.5226;3.0742;
870.6000;0.5250;3.0742;
870.9000;0.5242;3.0814;
871.2000;0.5242;3.0766;
871.5000;0.5234;3.0790;
871.8000;0.5234;3.0718;
872.1000;0.5267;3.0885;
872.4000;0.5242;3.0790;
872.7000;0.5226;3.0766;
873.0000;0.5226;3.0766;
873.3000;0.5226;3.0861;
873.6000;0.5250;3.0885;
873.9000;0.5234;3.0838;
874.2000;0.5218;3.0742;
874.5000;0.5234;3.0838;
874.8000;0.5258;3.0885;
875.1000;0.5218;3.0790;
875.4000;0.5234;3.0814;
875.7000;0.5234;3.0718;
876.0000;0.5267;3.0814;
876.3000;0.5250;3.0814;
876.6000;0.5250;3.0838;
876.9000;0.5283;3.0957;
877.2000;0.5258;3.0885;
877.5000;0.5250;3.0861;
877.8000;0.5250;3.0790;
878.1000;0.5258;3.0814;
878.4000;0.5258;3.0838;
878.7000;0.5307;3.0933;
879.0000;0.5242;3.0814;
879.3000;0.5177;3.0623;
879.6000;0.5267;3.0766;
879.9000;0.5283;3.0838;
880.2000;0.5234;3.0647;
880.5000;0.5250;3.0599;
880.8000;0.5250;3.0694;
881.1000;0.5250;3.0742;
881.4000;0.5258;3.0790;
881.7000;0.5226;3.0742;
882.0000;0.5250;3.0814;
882.3000;0.5250;3.0694;
882.6000;0.5299;3.0838;
882.9000;0.5242;3.0694;
883.2000;0.5193;3.0575;
883.5000;0.5250;3.0742;
883.8000;0.5226;3.0718;
884.1000;0.5234;3.0814;
884.4000;0.5234;3.0838;
884.7000;0.5242;3.0909;
885.0000;0.5234;3.0885;
885.3000;0.5258;3.0885;
885.6000;0.5210;3.0814;
885.9000;0.5242;3.0885;
886.2000;0.5250;3.1029;
886.5000;0.5267;3.1124;
886.8000;0.5258;3.1052;
887.1000;0.5250;3.1052;
887.4000;0.5250;3.0909;
887.7000;0.5258;3.0838;
888.0000;0.5226;3.0766;
888.3000;0.5234;3.0742;
888.6000;0.5218;3.0694;
888.9000;0.5275;3.0861;
889.2000;0.5242;3.0766;
889.5000;0.5242;3.0742;
889.8000;0.5226;3.0742;
890.1000;0.5234;3.0742;
890.4000;0.5242;3.0814;
890.7000;0.5250;3.0814;
891.0000;0.5177;3.0647;
891.3000;0.5250;3.0885;
891.6000;0.5226;3.0909;
891.9000;0.5234;3.0957;
892.2000;0.5234;3.0885;
892.5000;0.5234;3.0933;
892.8000;0.5307;3.1172;
893.1000;0.5234;3.0885;
893.4000;0.5177;3.0742;
893.7000;0.5258;3.0981;
894.0000;0.5250;3.0933;
894.3000;0.5226;3.0861;
894.6000;0.5242;3.0909;
894.9000;0.5242;3.0933;
895.2000;0.5226;3.0861;
895.5000;0.5250;3.0838;
895.8000;0.5250;3.0933;
896.1000;0.5242;3.0861;
896.4000;0.5250;3.0790;
896.7000;0.5250;3.0838;
897.0000;0.5267;3.0981;
897.3000;0.5242;3.0933;
897.6000;0.5234;3.0933;
897.9000;0.5234;3.0933;
898.2000;0.5242;3.0933;
898.5000;0.5242;3.0957;
898.8000;0.5258;3.0933;
899.1000;0.5242;3.0909;
899.4000;0.5242;3.0909;
899.7000;0.5234;3.0933;
900.0000;0.5258;3.1005;
900.3000;0.5218;3.1029;
900.6000;0.5242;3.1076;
900.9000;0.5242;3.1052;
901.2000;0.5242;3.1052;
901.5000;0.5234;3.0981;
901.8000;0.5210;3.0790;
902.1000;0.5210;3.0838;
902.4000;0.5234;3.0766;
902.7000;0.5226;3.0861;
903.0000;0.5258;3.0909;
903.3000;0.5250;3.0957;
903.6000;0.5234;3.0957;
903.9000;0.5250;3.0957;
904.2000;0.5161;3.0718;
904.5000;0.5226;3.0933;
904.8000;0.5258;3.1005;
905.1000;0.5234;3.0933;
905.4000;0.5242;3.0957;
905.7000;0.5307;3.1076;
906.0000;0.5218;3.0838;
906.3000;0.5210;3.0838;
906.6000;0.5234;3.0861;
906.9000;0.5201;3.0861;
907.2000;0.5218;3.1005;
907.5000;0.5242;3.1005;
907.8000;0.5161;3.0790;
908.1000;0.5226;3.0933;
908.4000;0.5218;3.0861;
908.7000;0.5242;3.0909;
909.0000;0.5242;3.0838;
909.3000;0.5226;3.0790;
909.6000;0.5218;3.0694;
909.9000;0.5242;3.0694;
910.2000;0.5242;3.0647;
910.5000;0.5226;3.0671;
910.8000;0.5234;3.0838;
911.1000;0.5226;3.0766;
911.4000;0.5234;3.0694;
911.7000;0.5250;3.0623;
912.0000;0.5275;3.0551;
912.3000;0.5218;3.0432;
912.6000;0.5226;3.0503;
912.9000;0.5250;3.0671;
913.2000;0.5218;3.0742;
913.5000;0.5250;3.0790;
913.8000;0.5185;3.0671;
914.1000;0.5234;3.0766;
914.4000;0.5226;3.0718;
914.7000;0.5218;3.0718;
915.0000;0.5218;3.0814;
915.3000;0.5250;3.0814;
915.6000;0.5201;3.0694;
915.9000;0.5226;3.0718;
916.2000;0.5226;3.0623;
916.5000;0.5226;3.0647;
916.8000;0.5242;3.0647;
917.1000;0.5218;3.0742;
917.4000;0.5218;3.0790;
917.7000;0.5250;3.0838;
918.0000;0.5242;3.0790;
918.3000;0.5218;3.0766;
918.6000;0.5218;3.0790;
918.9000;0.5242;3.0909;
919.2000;0.5242;3.0861;
919.5000;0.5242;3.0838;
919.8000;0.5193;3.0814;
920.1000;0.5177;3.0671;
920.4000;0.5250;3.0861;
920.7000;0.5234;3.0885;
921.0000;0.5226;3.0885;
921.3000;0.5218;3.0885;
921.6000;0.5234;3.0957;
921.9000;0.5283;3.1029;
922.2000;0.5210;3.0790;
922.5000;0.5161;3.0671;
922.8000;0.5234;3.0909;
923.1000;0.5234;3.0909;
923.4000;0.5218;3.0885;
923.7000;0.5250;3.0885;
924.0000;0.5234;3.0814;
924.3000;0.5315;3.1100;
924.6000;0.5258;3.0957;
924.9000;0.5201;3.0957;
925.2000;0.5234;3.0957;
925.5000;0.5242;3.0957;
925.8000;0.5250;3.0909;
926.1000;0.5226;3.0814;
926.4000;0.5332;3.1100;
926.7000;0.5201;3.0861;
927.0000;0.5226;3.1029;
927.3000;0.5226;3.1076;
927.6000;0.5193;3.0933;
927.9000;0.5226;3.0933;
928.2000;0.5169;3.0766;
928.5000;0.5267;3.1100;
928.8000;0.5218;3.0957;
929.1000;0.5267;3.1005;
929.4000;0.5234;3.0861;
929.7000;0.5234;3.0814;
930.0000;0.5210;3.0742;
930.3000;0.5226;3.0814;
930.6000;0.5234;3.0766;
930.9000;0.5226;3.0694;
931.2000;0.5250;3.0909;
931.5000;0.5234;3.0814;
931.8000;0.5234;3.0861;
932.1000;0.5193;3.0838;
932.4000;0.5250;3.1029;
932.7000;0.5210;3.0861;
933.0000;0.5250;3.0957;
933.3000;0.5218;3.0790;
933.6000;0.5218;3.0742;
933.9000;0.5226;3.0766;
934.2000;0.5234;3.0838;
934.5000;0.5210;3.0838;
934.8000;0.5226;3.0933;
935.1000;0.5193;3.0814;
935.4000;0.5226;3.0885;
935.7000;0.5226;3.0909;
936.0000;0.5242;3.0838;
936.3000;0.5210;3.0718;
936.6000;0.5193;3.0623;
936.9000;0.5226;3.0742;
937.2000;0.5218;3.0742;
937.5000;0.5242;3.0838;
937.8000;0.5218;3.0814;
938.1000;0.5210;3.0885;
938.4000;0.5210;3.0909;
938.7000;0.5201;3.0861;
939.0000;0.5218;3.0814;
939.3000;0.5234;3.0885;
939.6000;0.5185;3.0861;
939.9000;0.5201;3.0933;
940.2000;0.5218;3.1005;
940.5000;0.5218;3.1005;
940.8000;0.5226;3.1076;
941.1000;0.5218;3.0981;
941.4000;0.5226;3.0981;
941.7000;0.5226;3.0957;
942.0000;0.5242;3.1076;
942.3000;0.5242;3.1148;
942.6000;0.5242;3.1172;
942.9000;0.5218;3.1029;
943.2000;0.5201;3.0838;
943.5000;0.5234;3.0909;
943.8000;0.5218;3.0861;
944.1000;0.5226;3.0909;
944.4000;0.5242;3.1076;
944.7000;0.5218;3.0957;
945.0000;0.5177;3.0742;
945.3000;0.5218;3.0790;
945.6000;0.5218;3.0838;
945.9000;0.5193;3.0718;
946.2000;0.5193;3.0742;
946.5000;0.5218;3.0861;
946.8000;0.5218;3.0909;
947.1000;0.5226;3.0909;
947.4000;0.5144;3.0671;
947.7000;0.5193;3.0861;
948.0000;0.5201;3.0885;
948.3000;0.5267;3.1005;
948.6000;0.5210;3.0909;
948.9000;0.5210;3.0885;
949.2000;0.5210;3.0909;
949.5000;0.5226;3.0909;
949.8000;0.5234;3.0933;
950.1000;0.5185;3.0838;
950.4000;0.5226;3.0909;
950.7000;0.5234;3.1005;
951.0000;0.5226;3.0981;
951.3000;0.5226;3.1029;
951.6000;0.5234;3.1148;
951.9000;0.5234;3.1196;
952.2000;0.5258;3.1124;
952.5000;0.5218;3.1052;
952.8000;0.5218;3.1029;
953.1000;0.5250;3.1124;
953.4000;0.5218;3.1052;
953.7000;0.5210;3.0933;
954.0000;0.5201;3.0909;
954.3000;0.5210;3.0861;
954.6000;0.5250;3.0957;
954.9000;0.5218;3.0909;
955.2000;0.5193;3.0885;
955.5000;0.5234;3.0957;
955.8000;0.5226;3.0933;
956.1000;0.5234;3.0957;
956.4000;0.5234;3.0885;
956.7000;0.5250;3.0909;
957.0000;0.5226;3.0814;
957.3000;0.5226;3.0694;
957.6000;0.5201;3.0647;
957.9000;0.5169;3.0599;
958.2000;0.5218;3.0694;
958.5000;0.5218;3.0718;
958.8000;0.5210;3.0623;
959.1000;0.5234;3.0599;
959.4000;0.5201;3.0599;
959.7000;0.5210;3.0694;
960.0000;0.5218;3.0814;
960.3000;0.5218;3.0909;
960.6000;0.5242;3.0933;
960.9000;0.5226;3.0933;
961.2000;0.5210;3.0909;
961.5000;0.5153;3.0742;
961.8000;0.5218;3.0981;
962.1000;0.5234;3.1076;
962.4000;0.5153;3.0933;
962.7000;0.5234;3.1100;
963.0000;0.5201;3.0981;
963.3000;0.5193;3.0885;
963.6000;0.5218;3.1029;
963.9000;0.5210;3.1005;
964.2000;0.5201;3.1005;
964.5000;0.5201;3.0957;
964.8000;0.5218;3.0957;
965.1000;0.5218;3.1005;
965.4000;0.5201;3.0981;
965.7000;0.5218;3.1029;
966.0000;0.5226;3.0909;
966.3000;0.5193;3.0885;
966.6000;0.5226;3.0861;
966.9000;0.5210;3.0742;
967.2000;0.5234;3.0814;
967.5000;0.5226;3.0790;
967.8000;0.5226;3.0766;
968.1000;0.5153;3.0623;
968.4000;0.5201;3.0694;
968.7000;0.5226;3.0647;
969.0000;0.5226;3.0623;
969.3000;0.5185;3.0647;
969.6000;0.5226;3.0694;
969.9000;0.5226;3.0623;
970.2000;0.5218;3.0647;
970.5000;0.5201;3.0599;
970.8000;0.5201;3.0623;
971.1000;0.5218;3.0599;
971.4000;0.5234;3.0575;
971.7000;0.5201;3.0575;
972.0000;0.5201;3.0671;
972.3000;0.5218;3.0694;
972.6000;0.5234;3.0766;
972.9000;0.5226;3.0790;
973.2000;0.5218;3.0790;
973.5000;0.5210;3.0814;
973.8000;0.5218;3.0861;
974.1000;0.5291;3.1052;
974.4000;0.5234;3.0790;
974.7000;0.5218;3.0766;
975.0000;0.5242;3.0909;
975.3000;0.5210;3.0909;
975.6000;0.5218;3.0885;
975.9000;0.5234;3.0838;
976.2000;0.5234;3.0790;
976.5000;0.5242;3.0742;
976.8000;0.5210;3.0742;
977.1000;0.5218;3.0671;
977.4000;0.5210;3.0623;
977.7000;0.5226;3.0742;
978.0000;0.5315;3.1029;
978.3000;0.5169;3.0718;
978.6000;0.5210;3.0790;
978.9000;0.5234;3.0838;
979.2000;0.5267;3.0909;
979.5000;0.5210;3.0766;
979.8000;0.5210;3.0766;
980.1000;0.5210;3.0838;
980.4000;0.5226;3.0814;
980.7000;0.5250;3.0861;
981.0000;0.5226;3.0909;
981.3000;0.5201;3.0814;
981.6000;0.5218;3.0885;
981.9000;0.5210;3.0981;
982.2000;0.5210;3.1005;
982.5000;0.5210;3.1005;
982.8000;0.5226;3.0957;
983.1000;0.5226;3.0909;
983.4000;0.5177;3.0742;
983.7000;0.5193;3.0718;
984.0000;0.5218;3.0718;
984.3000;0.5226;3.0742;
984.6000;0.5210;3.0671;
984.9000;0.5193;3.0671;
985.2000;0.5193;3.0671;
985.5000;0.5177;3.0623;
985.8000;0.5193;3.0742;
986.1000;0.5226;3.0814;
986.4000;0.5128;3.0623;
986.7000;0.5218;3.0909;
987.0000;0.5210;3.0909;
987.3000;0.5193;3.0814;
987.6000;0.5210;3.0885;
987.9000;0.5161;3.0671;
988.2000;0.5210;3.0718;
988.5000;0.5201;3.0766;
988.8000;0.5210;3.0742;
989.1000;0.5185;3.0814;
989.4000;0.5275;3.1100;
989.7000;0.5161;3.0885;
990.0000;0.5201;3.1029;
990.3000;0.5210;3.1052;
990.6000;0.5177;3.1005;
990.9000;0.5144;3.0933;
991.2000;0.5242;3.1052;
991.5000;0.5210;3.0909;
991.8000;0.5210;3.0885;
992.1000;0.5193;3.0838;
992.4000;0.5210;3.0909;
992.7000;0.5185;3.0766;
993.0000;0.5258;3.0957;
993.3000;0.5201;3.0933;
993.6000;0.5250;3.1052;
993.9000;0.5210;3.0981;
994.2000;0.5177;3.0814;
994.5000;0.5210;3.0814;
994.8000;0.5193;3.0694;
995.1000;0.5201;3.0814;
995.4000;0.5210;3.0981;
995.7000;0.5193;3.0933;
996.0000;0.5185;3.0766;
996.3000;0.5234;3.0790;
996.6000;0.5218;3.0742;
996.9000;0.5234;3.0766;
997.2000;0.5185;3.0790;
997.5000;0.5234;3.0861;
997.8000;0.5218;3.0861;
998.1000;0.5177;3.0694;
998.4000;0.5201;3.0671;
998.7000;0.5185;3.0718;
999.0000;0.5210;3.0790;
999.3000;0.5258;3.0790;
999.6000;0.5210;3.0790;
999.9000;0.5210;3.0861;
1000.2000;0.5144;3.0766;
1000.5000;0.5177;3.0742;
1000.8000;0.5210;3.0790;
1001.1000;0.5226;3.0814;
1001.4000;0.5201;3.0861;
1001.7000;0.5201;3.0885;
1002.0000;0.5210;3.0861;
1002.3000;0.5177;3.0718;
1002.6000;0.5201;3.0766;
1002.9000;0.5258;3.0909;
1003.2000;0.5210;3.0814;
1003.5000;0.5193;3.0742;
1003.8000;0.5201;3.0742;
1004.1000;0.5218;3.0790;
1004.4000;0.5234;3.0885;
1004.7000;0.5210;3.0838;
1005.0000;0.5193;3.0838;
1005.3000;0.5201;3.0766;
1005.6000;0.5210;3.0838;
1005.9000;0.5193;3.0694;
1006.2000;0.5218;3.0790;
1006.5000;0.5201;3.0766;
1006.8000;0.5153;3.0647;
1007.1000;0.5210;3.0766;
1007.4000;0.5193;3.0790;
1007.7000;0.5201;3.0790;
1008.0000;0.5218;3.0814;
1008.3000;0.5210;3.0790;
1008.6000;0.5201;3.0814;
1008.9000;0.5250;3.0933;
1009.2000;0.5185;3.0838;
1009.5000;0.5136;3.0671;
1009.8000;0.5104;3.0551;
1010.1000;0.5193;3.0766;
1010.4000;0.5201;3.0790;
1010.7000;0.5193;3.0814;
1011.0000;0.5210;3.0885;
1011.3000;0.5193;3.0885;
1011.6000;0.5201;3.0957;
1011.9000;0.5177;3.0814;
1012.2000;0.5210;3.0838;
1012.5000;0.5185;3.0790;
1012.8000;0.5201;3.0838;
1013.1000;0.5201;3.0885;
1013.4000;0.5201;3.0957;
1013.7000;0.5210;3.0814;
1014.0000;0.5177;3.0718;
1014.3000;0.5169;3.0647;
1014.6000;0.5193;3.0647;
1014.9000;0.5185;3.0647;
1015.2000;0.5161;3.0599;
1015.5000;0.5185;3.0623;
1015.8000;0.5201;3.0718;
1016.1000;0.5275;3.0933;
1016.4000;0.5193;3.0766;
1016.7000;0.5218;3.0790;
1017.0000;0.5201;3.0790;
1017.3000;0.5210;3.0766;
1017.6000;0.5210;3.0885;
1017.9000;0.5193;3.0814;
1018.2000;0.5153;3.0694;
1018.5000;0.5185;3.0718;
1018.8000;0.5193;3.0718;
1019.1000;0.5201;3.0790;
1019.4000;0.5193;3.0838;
1019.7000;0.5299;3.1052;
1020.0000;0.5169;3.0766;
1020.3000;0.5201;3.0790;
1020.6000;0.5258;3.0981;
1020.9000;0.5291;3.1029;
1021.2000;0.5144;3.0623;
1021.5000;0.5185;3.0742;
1021.8000;0.5185;3.0742;
1022.1000;0.5210;3.0838;
1022.4000;0.5226;3.0981;
1022.7000;0.5267;3.1052;
1023.0000;0.5210;3.0981;
1023.3000;0.5234;3.1029;
1023.6000;0.5177;3.0838;
1023.9000;0.5185;3.0790;
1024.2000;0.5258;3.0909;
1024.5000;0.5193;3.0838;
1024.8000;0.5210;3.0909;
1025.1000;0.5177;3.0838;
1025.4000;0.5185;3.0885;
1025.7000;0.5185;3.0885;
1026.0000;0.5201;3.0885;
1026.3000;0.5201;3.0885;
1026.6000;0.5185;3.0909;
1026.9000;0.5201;3.0981;
1027.2000;0.5177;3.0933;
1027.5000;0.5185;3.0957;
1027.8000;0.5210;3.0981;
1028.1000;0.5177;3.0957;
1028.4000;0.5185;3.1005;
1028.7000;0.5218;3.1100;
1029.0000;0.5193;3.1029;
1029.3000;0.5185;3.0957;
1029.6000;0.5258;3.1076;
1029.9000;0.5201;3.0885;
1030.2000;0.5185;3.0838;
1030.5000;0.5136;3.0599;
1030.8000;0.5177;3.0647;
1031.1000;0.5210;3.0790;
1031.4000;0.5226;3.0957;
1031.7000;0.5226;3.0909;
1032.0000;0.5210;3.1005;
1032.3000;0.5201;3.1029;
1032.6000;0.5218;3.0981;
1032.9000;0.5193;3.0957;
1033.2000;0.5177;3.0981;
1033.5000;0.5218;3.1029;
1033.8000;0.5153;3.0885;
1034.1000;0.5210;3.0981;
1034.4000;0.5185;3.0909;
1034.7000;0.5193;3.0957;
1035.0000;0.5144;3.0885;
1035.3000;0.5169;3.1005;
1035.6000;0.5169;3.0981;
1035.9000;0.5177;3.0981;
1036.2000;0.5177;3.0933;
1036.5000;0.5201;3.1029;
1036.8000;0.5177;3.0981;
1037.1000;0.5185;3.1005;
1037.4000;0.5177;3.1005;
1037.7000;0.5185;3.1005;
1038.0000;0.5185;3.1005;
1038.3000;0.5096;3.0694;
1038.6000;0.5218;3.1005;
1038.9000;0.5234;3.1029;
1039.2000;0.5153;3.0885;
1039.5000;0.5218;3.1052;
1039.8000;0.5177;3.0957;
1040.1000;0.5177;3.0957;
1040.4000;0.5112;3.0790;
1040.7000;0.5177;3.0981;
1041.0000;0.5258;3.1220;
1041.3000;0.5185;3.0957;
1041.6000;0.5201;3.0885;
1041.9000;0.5242;3.0909;
1042.2000;0.5169;3.0718;
1042.5000;0.5201;3.0861;
1042.8000;0.5210;3.0957;
1043.1000;0.5201;3.1005;
1043.4000;0.5177;3.0957;
1043.7000;0.5193;3.0981;
1044.0000;0.5169;3.0909;
1044.3000;0.5185;3.0957;
1044.6000;0.5128;3.0814;
1044.9000;0.5177;3.0861;
1045.2000;0.5185;3.0933;
1045.5000;0.5193;3.0885;
1045.8000;0.5161;3.0814;
1046.1000;0.5177;3.0861;
1046.4000;0.5193;3.0933;
1046.7000;0.5193;3.0909;
1047.0000;0.5169;3.0814;
1047.3000;0.5185;3.0909;
1047.6000;0.5193;3.0981;
1047.9000;0.5185;3.0957;
1048.2000;0.5185;3.0885;
1048.5000;0.5169;3.0838;
1048.8000;0.5169;3.0885;
1049.1000;0.5210;3.0981;
1049.4000;0.5185;3.0885;
1049.7000;0.5185;3.0861;
1050.0000;0.5185;3.0885;
1050.3000;0.5193;3.0933;
1050.6000;0.5153;3.0694;
1050.9000;0.5169;3.0647;
1051.2000;0.5185;3.0790;
1051.5000;0.5193;3.0861;
1051.8000;0.5185;3.0933;
1052.1000;0.5177;3.0909;
1052.4000;0.5185;3.0885;
1052.7000;0.5201;3.0933;
1053.0000;0.5210;3.0981;
1053.3000;0.5193;3.1029;
1053.6000;0.5201;3.1100;
1053.9000;0.5193;3.1052;
1054.2000;0.5210;3.1029;
1054.5000;0.5242;3.1076;
1054.8000;0.5177;3.0838;
1055.1000;0.5185;3.0933;
1055.4000;0.5201;3.0981;
1055.7000;0.5153;3.0885;
1056.0000;0.5226;3.1029;
1056.3000;0.5218;3.0957;
1056.6000;0.5161;3.0790;
1056.9000;0.5201;3.0814;
1057.2000;0.5201;3.0766;
1057.5000;0.5161;3.0694;
1057.8000;0.5161;3.0718;
1058.1000;0.5177;3.0838;
1058.4000;0.5144;3.0742;
1058.7000;0.5169;3.0766;
1059.0000;0.5185;3.0885;
1059.3000;0.5193;3.0861;
1059.6000;0.5193;3.0885;
1059.9000;0.5201;3.0838;
1060.2000;0.5185;3.0766;
1060.5000;0.5169;3.0623;
1060.8000;0.5177;3.0599;
1061.1000;0.5193;3.0647;
1061.4000;0.5185;3.0647;
1061.7000;0.5210;3.0766;
1062.0000;0.5234;3.0933;
1062.3000;0.5136;3.0718;
1062.6000;0.5201;3.0838;
1062.9000;0.5218;3.0885;
1063.2000;0.5193;3.1005;
1063.5000;0.5185;3.1029;
1063.8000;0.5201;3.1052;
1064.1000;0.5234;3.1076;
1064.4000;0.5185;3.0838;
1064.7000;0.5193;3.0909;
1065.0000;0.5210;3.0909;
1065.3000;0.5201;3.0861;
1065.6000;0.5144;3.0694;
1065.9000;0.5185;3.0742;
1066.2000;0.5185;3.0766;
1066.5000;0.5177;3.0838;
1066.8000;0.5218;3.0885;
1067.1000;0.5185;3.0742;
1067.4000;0.5193;3.0742;
1067.7000;0.5201;3.0742;
1068.0000;0.5185;3.0790;
1068.3000;0.5169;3.0742;
1068.6000;0.5185;3.0766;
1068.9000;0.5201;3.0814;
1069.2000;0.5201;3.0766;
1069.5000;0.5185;3.0718;
1069.8000;0.5193;3.0766;
1070.1000;0.5193;3.0838;
1070.4000;0.5201;3.0814;
1070.7000;0.5177;3.0742;
1071.0000;0.5193;3.0909;
1071.3000;0.5193;3.0909;
1071.6000;0.5193;3.0885;
1071.9000;0.5201;3.0909;
1072.2000;0.5193;3.0933;
1072.5000;0.5193;3.0861;
1072.8000;0.5177;3.0933;
1073.1000;0.5185;3.0885;
1073.4000;0.5177;3.0861;
1073.7000;0.5177;3.0909;
1074.0000;0.5193;3.0933;
1074.3000;0.5185;3.0957;
1074.6000;0.5210;3.0957;
1074.9000;0.5193;3.0861;
1075.2000;0.5193;3.0909;
1075.5000;0.5210;3.0957;
1075.8000;0.5218;3.0885;
1076.1000;0.5185;3.0861;
1076.4000;0.5201;3.0885;
1076.7000;0.5193;3.0909;
1077.0000;0.5177;3.0933;
1077.3000;0.5185;3.0981;
1077.6000;0.5193;3.1005;
1077.9000;0.5193;3.0933;
1078.2000;0.5193;3.0861;
1078.5000;0.5177;3.0861;
1078.8000;0.5193;3.0766;
1079.1000;0.5177;3.0766;
1079.4000;0.5201;3.0861;
1079.7000;0.5185;3.0838;
1080.0000;0.5201;3.0838;
1080.3000;0.5193;3.0814;
1080.6000;0.5185;3.0885;
1080.9000;0.5185;3.0790;
1081.2000;0.5177;3.0838;
1081.5000;0.5161;3.0933;
1081.8000;0.5185;3.1005;
1082.1000;0.5193;3.0933;
1082.4000;0.5201;3.0909;
1082.7000;0.5185;3.0933;
1083.0000;0.5169;3.0909;
1083.3000;0.5201;3.0981;
1083.6000;0.5185;3.0885;
1083.9000;0.5169;3.0790;
1084.2000;0.5210;3.0814;
1084.5000;0.5177;3.0790;
1084.8000;0.5144;3.0742;
1085.1000;0.5201;3.0933;
1085.4000;0.5201;3.0933;
1085.7000;0.5096;3.0671;
1086.0000;0.5177;3.0885;
1086.3000;0.5177;3.0981;
1086.6000;0.5193;3.0933;
1086.9000;0.5177;3.0838;
1087.2000;0.5136;3.0694;
1087.5000;0.5193;3.0742;
1087.8000;0.5201;3.0790;
1088.1000;0.5201;3.0814;
1088.4000;0.5210;3.0838;
1088.7000;0.5193;3.0766;
1089.0000;0.5185;3.0742;
1089.3000;0.5169;3.0694;
1089.6000;0.5169;3.0718;
1089.9000;0.5177;3.0671;
1090.2000;0.5250;3.0766;
1090.5000;0.5193;3.0623;
1090.8000;0.5185;3.0694;
1091.1000;0.5234;3.0814;
1091.4000;0.5193;3.0718;
1091.7000;0.5193;3.0790;
1092.0000;0.5185;3.0766;
1092.3000;0.5258;3.0981;
1092.6000;0.5185;3.0742;
1092.9000;0.5193;3.0718;
1093.2000;0.5242;3.0790;
1093.5000;0.5193;3.0694;
1093.8000;0.5177;3.0647;
1094.1000;0.5185;3.0742;
1094.4000;0.5177;3.0647;
1094.7000;0.5177;3.0694;
1095.0000;0.5169;3.0671;
1095.3000;0.5177;3.0718;
1095.6000;0.5153;3.0718;
1095.9000;0.5226;3.0814;
1096.2000;0.5201;3.0694;
1096.5000;0.5185;3.0718;
1096.8000;0.5193;3.0838;
1097.1000;0.5193;3.0909;
1097.4000;0.5201;3.0885;
1097.7000;0.5201;3.0838;
1098.0000;0.5185;3.0814;
1098.3000;0.5201;3.0861;
1098.6000;0.5177;3.0766;
1098.9000;0.5193;3.0861;
1099.2000;0.5193;3.0838;
1099.5000;0.5210;3.0814;
1099.8000;0.5185;3.0742;
1100.1000;0.5169;3.0671;
1100.4000;0.5177;3.0742;
1100.7000;0.5201;3.0861;
1101.0000;0.5250;3.1029;
1101.3000;0.5201;3.1029;
1101.6000;0.5193;3.0933;
1101.9000;0.5177;3.0885;
1102.2000;0.5193;3.0933;
1102.5000;0.5153;3.0885;
1102.8000;0.5177;3.0933;
1103.1000;0.5185;3.1005;
1103.4000;0.5185;3.1005;
1103.7000;0.5193;3.1100;
1104.0000;0.5161;3.1005;
1104.3000;0.5169;3.1029;
1104.6000;0.5169;3.1029;
1104.9000;0.5185;3.1005;
1105.2000;0.5201;3.1076;
1105.5000;0.5177;3.1029;
1105.8000;0.5250;3.1172;
1106.1000;0.5210;3.1052;
1106.4000;0.5177;3.1052;
1106.7000;0.5185;3.1052;
1107.0000;0.5177;3.1029;
1107.3000;0.5218;3.1076;
1107.6000;0.5185;3.0909;
1107.9000;0.5185;3.0957;
1108.2000;0.5185;3.0957;
1108.5000;0.5193;3.0981;
1108.8000;0.5291;3.1148;
1109.1000;0.5185;3.0861;
1109.4000;0.5185;3.0838;
1109.7000;0.5144;3.0718;
1110.0000;0.5169;3.0814;
1110.3000;0.5193;3.0981;
1110.6000;0.5185;3.1029;
1110.9000;0.5185;3.0981;
1111.2000;0.5185;3.0957;
1111.5000;0.5161;3.0838;
1111.8000;0.5169;3.0838;
1112.1000;0.5177;3.0814;
1112.4000;0.5169;3.0766;
1112.7000;0.5169;3.0790;
1113.0000;0.5161;3.0885;
1113.3000;0.5177;3.0933;
1113.6000;0.5161;3.0981;
1113.9000;0.5210;3.1196;
1114.2000;0.5291;3.1458;
1114.5000;0.5169;3.0981;
1114.8000;0.5193;3.0981;
1115.1000;0.5275;3.1124;
1115.4000;0.5185;3.0933;
1115.7000;0.5161;3.0861;
1116.0000;0.5185;3.0981;
1116.3000;0.5234;3.1172;
1116.6000;0.5177;3.1005;
1116.9000;0.5185;3.0981;
1117.2000;0.5169;3.0933;
1117.5000;0.5185;3.0981;
1117.8000;0.5185;3.1052;
1118.1000;0.5193;3.1172;
1118.4000;0.5201;3.1124;
1118.7000;0.5128;3.0957;
1119.0000;0.5185;3.1005;
1119.3000;0.5185;3.1005;
1119.6000;0.5210;3.0957;
1119.9000;0.5193;3.1005;
1120.2000;0.5193;3.0957;
1120.5000;0.5177;3.0957;
1120.8000;0.5177;3.0957;
1121.1000;0.5250;3.1100;
1121.4000;0.5185;3.0933;
1121.7000;0.5169;3.0885;
1122.0000;0.5177;3.0981;
1122.3000;0.5177;3.1076;
1122.6000;0.5218;3.1196;
1122.9000;0.5161;3.0957;
1123.2000;0.5161;3.0933;
1123.5000;0.5177;3.0957;
1123.8000;0.5169;3.1029;
1124.1000;0.5161;3.0933;
1124.4000;0.5177;3.0981;
1124.7000;0.5185;3.0981;
1125.0000;0.5193;3.1005;
1125.3000;0.5201;3.1005;
1125.6000;0.5128;3.0861;
1125.9000;0.5136;3.0909;
1126.2000;0.5185;3.1052;
1126.5000;0.5161;3.1029;
1126.8000;0.5177;3.1100;
1127.1000;0.5161;3.1076;
1127.4000;0.5201;3.1196;
1127.7000;0.5169;3.1148;
1128.0000;0.5210;3.1172;
1128.3000;0.5169;3.0981;
1128.6000;0.5161;3.0885;
1128.9000;0.5185;3.0909;
1129.2000;0.5169;3.0838;
1129.5000;0.5161;3.0694;
1129.8000;0.5201;3.0766;
1130.1000;0.5201;3.0838;
1130.4000;0.5201;3.0814;
1130.7000;0.5193;3.0790;
1131.0000;0.5169;3.0694;
1131.3000;0.5218;3.0909;
1131.6000;0.5177;3.0838;
1131.9000;0.5120;3.0742;
1132.2000;0.5169;3.0814;
1132.5000;0.5136;3.0766;
1132.8000;0.5169;3.0814;
1133.1000;0.5201;3.0861;
1133.4000;0.5169;3.0838;
1133.7000;0.5177;3.0885;
1134.0000;0.5242;3.1052;
1134.3000;0.5226;3.0933;
1134.6000;0.5169;3.0838;
1134.9000;0.5193;3.0909;
1135.2000;0.5201;3.0885;
1135.5000;0.5136;3.0766;
1135.8000;0.5153;3.0814;
1136.1000;0.5177;3.0885;
1136.4000;0.5193;3.1029;
1136.7000;0.5250;3.1148;
1137.0000;0.5177;3.0933;
1137.3000;0.5201;3.0933;
1137.6000;0.5161;3.0861;
1137.9000;0.5234;3.1076;
1138.2000;0.5201;3.1052;
1138.5000;0.5210;3.1100;
1138.8000;0.5169;3.1029;
1139.1000;0.5185;3.1029;
1139.4000;0.5201;3.1052;
1139.7000;0.5218;3.1196;
1140.0000;0.5185;3.1148;
1140.3000;0.5185;3.1076;
1140.6000;0.5169;3.0957;
1140.9000;0.5161;3.0861;
1141.2000;0.5169;3.0790;
1141.5000;0.5193;3.0933;
1141.8000;0.5193;3.1005;
1142.1000;0.5185;3.0957;
1142.4000;0.5169;3.0981;
1142.7000;0.5201;3.1100;
1143.0000;0.5177;3.1052;
1143.3000;0.5177;3.1052;
1143.6000;0.5185;3.1052;
1143.9000;0.5185;3.1005;
1144.2000;0.5193;3.1029;
1144.5000;0.5177;3.0957;
1144.8000;0.5177;3.0909;
1145.1000;0.5169;3.0981;
1145.4000;0.5193;3.0957;
1145.7000;0.5169;3.0861;
1146.0000;0.5169;3.0766;
1146.3000;0.5185;3.0933;
1146.6000;0.5201;3.0933;
1146.9000;0.5169;3.0885;
1147.2000;0.5177;3.1052;
1147.5000;0.5169;3.1029;
1147.8000;0.5193;3.1076;
1148.1000;0.5193;3.1076;
1148.4000;0.5201;3.1124;
1148.7000;0.5185;3.1029;
1149.0000;0.5128;3.0861;
1149.3000;0.5185;3.1052;
1149.6000;0.5177;3.1076;
1149.9000;0.5185;3.1172;
1150.2000;0.5185;3.1363;
1150.5000;0.5169;3.1315;
1150.8000;0.5185;3.1243;
1151.1000;0.5177;3.1172;
1151.4000;0.5169;3.1220;
1151.7000;0.5226;3.1387;
1152.0000;0.5177;3.1315;
1152.3000;0.5177;3.1291;
1152.6000;0.5185;3.1243;
1152.9000;0.5153;3.1100;
1153.2000;0.5177;3.1052;
1153.5000;0.5169;3.1029;
1153.8000;0.5177;3.1076;
1154.1000;0.5161;3.1076;
1154.4000;0.5177;3.1029;
1154.7000;0.5201;3.1148;
1155.0000;0.5234;3.1220;
1155.3000;0.5193;3.1076;
1155.6000;0.5210;3.1076;
1155.9000;0.5226;3.1220;
1156.2000;0.5136;3.1029;
1156.5000;0.5161;3.1172;
1156.8000;0.5136;3.1076;
1157.1000;0.5218;3.1148;
1157.4000;0.5144;3.0933;
1157.7000;0.5177;3.1029;
1158.0000;0.5291;3.1148;
1158.3000;0.5234;3.1052;
1158.6000;0.5193;3.0909;
1158.9000;0.5193;3.1076;
1159.2000;0.5201;3.1005;
1159.5000;0.5201;3.1029;
1159.8000;0.5185;3.1100;
1160.1000;0.5169;3.1076;
1160.4000;0.5242;3.1243;
1160.7000;0.5185;3.1005;
1161.0000;0.5177;3.1029;
1161.3000;0.5177;3.1005;
1161.6000;0.5177;3.1076;
1161.9000;0.5185;3.1005;
1162.2000;0.5226;3.1029;
1162.5000;0.5210;3.1005;
1162.8000;0.5193;3.0933;
1163.1000;0.5218;3.1005;
1163.4000;0.5185;3.0885;
1163.7000;0.5177;3.1005;
1164.0000;0.5177;3.1124;
1164.3000;0.5169;3.1076;
1164.6000;0.5177;3.1124;
1164.9000;0.5185;3.1172;
1165.2000;0.5177;3.1220;
1165.5000;0.5161;3.1291;
1165.8000;0.5185;3.1315;
1166.1000;0.5185;3.1196;
1166.4000;0.5169;3.1148;
1166.7000;0.5185;3.1220;
1167.0000;0.5169;3.1196;
1167.3000;0.5193;3.1148;
1167.6000;0.5185;3.1100;
1167.9000;0.5193;3.1052;
1168.2000;0.5185;3.1076;
1168.5000;0.5210;3.1148;
1168.8000;0.5177;3.1076;
1169.1000;0.5177;3.1196;
1169.4000;0.5193;3.1220;
1169.7000;0.5185;3.1196;
1170.0000;0.5177;3.1220;
1170.3000;0.5185;3.1172;
1170.6000;0.5136;3.1005;
1170.9000;0.5210;3.1076;
1171.2000;0.5201;3.1052;
1171.5000;0.5153;3.0933;
1171.8000;0.5177;3.1005;
1172.1000;0.5193;3.1005;
1172.4000;0.5169;3.1052;
1172.7000;0.5169;3.1052;
1173.0000;0.5193;3.1005;
1173.3000;0.5185;3.1005;
1173.6000;0.5177;3.1100;
1173.9000;0.5177;3.1052;
1174.2000;0.5177;3.1005;
1174.5000;0.5169;3.1005;
1174.8000;0.5169;3.0981;
1175.1000;0.5177;3.0957;
1175.4000;0.5161;3.0909;
1175.7000;0.5177;3.0933;
1176.0000;0.5161;3.0861;
1176.3000;0.5201;3.0933;
1176.6000;0.5153;3.0814;
1176.9000;0.5161;3.0909;
1177.2000;0.5161;3.1076;
1177.5000;0.5193;3.1148;
1177.8000;0.5177;3.1124;
1178.1000;0.5193;3.1196;
1178.4000;0.5169;3.1172;
1178.7000;0.5185;3.1052;
1179.0000;0.5120;3.0933;
1179.3000;0.5153;3.1005;
1179.6000;0.5169;3.1005;
1179.9000;0.5177;3.0957;
1180.2000;0.5153;3.0885;
1180.5000;0.5161;3.0909;
1180.8000;0.5169;3.1029;
1181.1000;0.5185;3.1005;
1181.4000;0.5267;3.1243;
1181.7000;0.5161;3.0909;
1182.0000;0.5185;3.0885;
1182.3000;0.5177;3.0814;
1182.6000;0.5185;3.0838;
1182.9000;0.5177;3.0981;
1183.2000;0.5185;3.1005;
1183.5000;0.5185;3.1052;
1183.8000;0.5185;3.0909;
1184.1000;0.5153;3.0766;
1184.4000;0.5169;3.0814;
1184.7000;0.5177;3.0790;
1185.0000;0.5177;3.0814;
1185.3000;0.5161;3.0814;
1185.6000;0.5161;3.0742;
1185.9000;0.5169;3.0838;
1186.2000;0.5185;3.0838;
1186.5000;0.5161;3.0909;
1186.8000;0.5161;3.0885;
1187.1000;0.5169;3.0957;
1187.4000;0.5161;3.0981;
1187.7000;0.5177;3.1052;
1188.0000;0.5161;3.0981;
1188.3000;0.5161;3.0957;
1188.6000;0.5177;3.1005;
1188.9000;0.5177;3.1005;
1189.2000;0.5193;3.0957;
1189.5000;0.5153;3.0909;
1189.8000;0.5177;3.1029;
1190.1000;0.5185;3.1052;
1190.4000;0.5185;3.0957;
1190.7000;0.5177;3.0766;
1191.0000;0.5161;3.0766;
1191.3000;0.5210;3.0933;
1191.6000;0.5201;3.0933;
1191.9000;0.5120;3.0718;
1192.2000;0.5169;3.0790;
1192.5000;0.5193;3.0909;
1192.8000;0.5193;3.0909;
1193.1000;0.5193;3.0933;
1193.4000;0.5201;3.0957;
1193.7000;0.5201;3.0861;
1194.0000;0.5185;3.0885;
1194.3000;0.5218;3.0957;
1194.6000;0.5177;3.0909;
1194.9000;0.5177;3.0957;
1195.2000;0.5193;3.0885;
1195.5000;0.5169;3.0790;
1195.8000;0.5258;3.1029;
1196.1000;0.5177;3.0814;
1196.4000;0.5201;3.0790;
1196.7000;0.5169;3.0790;
1197.0000;0.5185;3.0718;
1197.3000;0.5185;3.0814;
1197.6000;0.5226;3.0957;
1197.9000;0.5177;3.0861;
1198.2000;0.5177;3.0885;
1198.5000;0.5185;3.0885;
1198.8000;0.5193;3.0909;
1199.1000;0.5177;3.0861;
1199.4000;0.5169;3.0790;
1199.7000;0.5161;3.0790;
1200.0000;0.5161;3.0861;
1200.3000;0.5153;3.0909;
1200.6000;0.5169;3.0933;
1200.9000;0.5169;3.0909;
1201.2000;0.5218;3.1029;
1201.5000;0.5177;3.0957;
1201.8000;0.5169;3.0861;
1202.1000;0.5169;3.0838;
1202.4000;0.5169;3.0838;
1202.7000;0.5096;3.0647;
1203.0000;0.5210;3.0909;
1203.3000;0.5185;3.0885;
1203.6000;0.5210;3.0861;
1203.9000;0.5169;3.0814;
1204.2000;0.5185;3.0814;
1204.5000;0.5201;3.0790;
1204.8000;0.5185;3.0647;
1205.1000;0.5201;3.0623;
1205.4000;0.5177;3.0575;
1205.7000;0.5234;3.0838;
1206.0000;0.5136;3.0671;
1206.3000;0.5177;3.0718;
1206.6000;0.5161;3.0647;
1206.9000;0.5177;3.0718;
1207.2000;0.5201;3.0766;
1207.5000;0.5177;3.0671;
1207.8000;0.5144;3.0551;
1208.1000;0.5169;3.0599;
1208.4000;0.5169;3.0694;
1208.7000;0.5185;3.0647;
1209.0000;0.5169;3.0623;
1209.3000;0.5218;3.0838;
1209.6000;0.5177;3.0790;
1209.9000;0.5169;3.0766;
1210.2000;0.5136;3.0742;
1210.5000;0.5226;3.1052;
1210.8000;0.5128;3.0814;
1211.1000;0.5104;3.0718;
1211.4000;0.5144;3.0861;
1211.7000;0.5177;3.0957;
1212.0000;0.5161;3.0909;
1212.3000;0.5161;3.0909;
1212.6000;0.5169;3.0838;
1212.9000;0.5185;3.0957;
1213.2000;0.5177;3.0957;
1213.5000;0.5177;3.1005;
1213.8000;0.5177;3.1052;
1214.1000;0.5185;3.1124;
1214.4000;0.5177;3.1052;
1214.7000;0.5161;3.0885;
1215.0000;0.5161;3.0838;
1215.3000;0.5193;3.0909;
1215.6000;0.5242;3.1029;
1215.9000;0.5169;3.0909;
1216.2000;0.5161;3.0909;
1216.5000;0.5161;3.0957;
1216.8000;0.5193;3.1052;
1217.1000;0.5161;3.0885;
1217.4000;0.5177;3.0814;
1217.7000;0.5185;3.0814;
1218.0000;0.5185;3.0814;
1218.3000;0.5169;3.0885;
1218.6000;0.5218;3.0957;
1218.9000;0.5185;3.0861;
1219.2000;0.5201;3.0933;
1219.5000;0.5185;3.0933;
1219.8000;0.5193;3.0885;
1220.1000;0.5193;3.0957;
1220.4000;0.5177;3.0909;
1220.7000;0.5161;3.0861;
1221.0000;0.5201;3.0814;
1221.3000;0.5177;3.0766;
1221.6000;0.5153;3.0766;
1221.9000;0.5112;3.0647;
1222.2000;0.5177;3.0981;
1222.5000;0.5169;3.0933;
1222.8000;0.5193;3.1029;
1223.1000;0.5201;3.1029;
1223.4000;0.5193;3.0981;
1223.7000;0.5201;3.0957;
1224.0000;0.5201;3.0933;
1224.3000;0.5177;3.0957;
1224.6000;0.5185;3.1029;
1224.9000;0.5169;3.0957;
1225.2000;0.5161;3.0885;
1225.5000;0.5185;3.0933;
1225.8000;0.5104;3.0718;
1226.1000;0.5201;3.0909;
1226.4000;0.5177;3.0861;
1226.7000;0.5201;3.0885;
1227.0000;0.5185;3.0790;
1227.3000;0.5177;3.0718;
1227.6000;0.5193;3.0671;
1227.9000;0.5185;3.0694;
1228.2000;0.5185;3.0838;
1228.5000;0.5185;3.0861;
1228.8000;0.5169;3.0861;
1229.1000;0.5169;3.0814;
1229.4000;0.5193;3.0885;
1229.7000;0.5169;3.0838;
1230.0000;0.5169;3.0718;
1230.3000;0.5177;3.0694;
1230.6000;0.5177;3.0694;
1230.9000;0.5185;3.0766;
1231.2000;0.5185;3.0742;
1231.5000;0.5161;3.0671;
1231.8000;0.5104;3.0527;
1232.1000;0.5177;3.0742;
1232.4000;0.5185;3.0838;
1232.7000;0.5177;3.0838;
1233.0000;0.5169;3.0814;
1233.3000;0.5169;3.0814;
1233.6000;0.5185;3.0814;
1233.9000;0.5177;3.0766;
1234.2000;0.5193;3.0909;
1234.5000;0.5177;3.0861;
1234.8000;0.5185;3.0909;
1235.1000;0.5169;3.0885;
1235.4000;0.5193;3.1005;
1235.7000;0.5258;3.1172;
1236.0000;0.5177;3.0981;
1236.3000;0.5161;3.0861;
1236.6000;0.5169;3.0933;
1236.9000;0.5169;3.0957;
1237.2000;0.5177;3.0885;
1237.5000;0.5193;3.0957;
1237.8000;0.5177;3.0909;
1238.1000;0.5161;3.0861;
1238.4000;0.5153;3.0909;
1238.7000;0.5169;3.0933;
1239.0000;0.5169;3.0933;
1239.3000;0.5185;3.0981;
1239.6000;0.5210;3.1005;
1239.9000;0.5193;3.1005;
1240.2000;0.5169;3.1005;
1240.5000;0.5177;3.0957;
1240.8000;0.5201;3.1029;
1241.1000;0.5169;3.0981;
1241.4000;0.5201;3.1052;
1241.7000;0.5210;3.1100;
1242.0000;0.5169;3.1076;
1242.3000;0.5169;3.1005;
1242.6000;0.5177;3.1052;
1242.9000;0.5218;3.1148;
1243.2000;0.5177;3.1052;
1243.5000;0.5177;3.1052;
1243.8000;0.5185;3.0981;
1244.1000;0.5185;3.0885;
1244.4000;0.5169;3.0838;
1244.7000;0.5169;3.0838;
1245.0000;0.5169;3.0861;
1245.3000;0.5185;3.0838;
1245.6000;0.5210;3.0861;
1245.9000;0.5177;3.0790;
1246.2000;0.5201;3.0814;
1246.5000;0.5193;3.0885;
1246.8000;0.5185;3.0957;
1247.1000;0.5177;3.0981;
1247.4000;0.5169;3.1029;
1247.7000;0.5169;3.1076;
1248.0000;0.5177;3.1100;
1248.3000;0.5185;3.1220;
1248.6000;0.5185;3.1148;
1248.9000;0.5185;3.1029;
1249.2000;0.5169;3.1029;
1249.5000;0.5177;3.1052;
1249.8000;0.5177;3.1052;
1250.1000;0.5193;3.1029;
1250.4000;0.5177;3.1029;
1250.7000;0.5177;3.1005;
1251.0000;0.5201;3.1076;
1251.3000;0.5218;3.1076;
1251.6000;0.5153;3.0981;
1251.9000;0.5177;3.1052;
1252.2000;0.5161;3.1100;
1252.5000;0.5169;3.1076;
1252.8000;0.5185;3.1052;
1253.1000;0.5153;3.1052;
1253.4000;0.5169;3.1029;
1253.7000;0.5161;3.1052;
1254.0000;0.5144;3.1029;
1254.3000;0.5210;3.1124;
1254.6000;0.5161;3.0981;
1254.9000;0.5226;3.1196;
1255.2000;0.5185;3.1148;
1255.5000;0.5153;3.1148;
1255.8000;0.5201;3.1243;
1256.1000;0.5185;3.1124;
1256.4000;0.5185;3.1100;
1256.7000;0.5169;3.1005;
1257.0000;0.5144;3.0981;
1257.3000;0.5153;3.0933;
1257.6000;0.5185;3.1005;
1257.9000;0.5112;3.0885;
1258.2000;0.5185;3.1005;
1258.5000;0.5169;3.0957;
1258.8000;0.5136;3.0909;
1259.1000;0.5201;3.1124;
1259.4000;0.5185;3.1029;
1259.7000;0.5169;3.1076;
1260.0000;0.5177;3.1029;
1260.3000;0.5177;3.1029;
1260.6000;0.5169;3.1005;
1260.9000;0.5177;3.1052;
1261.2000;0.5185;3.0933;
1261.5000;0.5177;3.0814;
1261.8000;0.5153;3.0814;
1262.1000;0.5177;3.0933;
1262.4000;0.5161;3.0909;
1262.7000;0.5185;3.0909;
1263.0000;0.5153;3.0909;
1263.3000;0.5169;3.0885;
1263.6000;0.5210;3.0933;
1263.9000;0.5210;3.0885;
1264.2000;0.5193;3.0909;
1264.5000;0.5234;3.1100;
1264.8000;0.5169;3.0933;
1265.1000;0.5177;3.0885;
1265.4000;0.5185;3.0885;
1265.7000;0.5185;3.0838;
1266.0000;0.5250;3.1100;
1266.3000;0.5201;3.1052;
1266.6000;0.5185;3.0933;
1266.9000;0.5161;3.0909;
1267.2000;0.5193;3.0981;
1267.5000;0.5185;3.0957;
1267.8000;0.5169;3.0957;
1268.1000;0.5169;3.0909;
1268.4000;0.5169;3.1005;
1268.7000;0.5169;3.1052;
1269.0000;0.5177;3.0957;
1269.3000;0.5169;3.0957;
1269.6000;0.5177;3.0957;
1269.9000;0.5250;3.1076;
1270.2000;0.5161;3.0885;
1270.5000;0.5169;3.0885;
1270.8000;0.5169;3.0861;
1271.1000;0.5153;3.0838;
1271.4000;0.5193;3.0933;
1271.7000;0.5169;3.0885;
1272.0000;0.5210;3.0981;
1272.3000;0.5201;3.0957;
1272.6000;0.5185;3.0933;
1272.9000;0.5169;3.0981;
1273.2000;0.5226;3.1124;
1273.5000;0.5177;3.1052;
1273.8000;0.5185;3.1124;
1274.1000;0.5185;3.1076;
1274.4000;0.5193;3.1052;
1274.7000;0.5226;3.1124;
1275.0000;0.5185;3.1052;
1275.3000;0.5177;3.1005;
1275.6000;0.5185;3.1005;
1275.9000;0.5177;3.1076;
1276.2000;0.5177;3.0981;
1276.5000;0.5193;3.1029;
1276.8000;0.5161;3.0957;
1277.1000;0.5169;3.0861;
1277.4000;0.5185;3.0861;
1277.7000;0.5242;3.1029;
1278.0000;0.5185;3.0838;
1278.3000;0.5144;3.0742;
1278.6000;0.5185;3.0814;
1278.9000;0.5185;3.0814;
1279.2000;0.5169;3.0814;
1279.5000;0.5234;3.1005;
1279.8000;0.5177;3.0981;
1280.1000;0.5161;3.1124;
1280.4000;0.5193;3.1220;
1280.7000;0.5161;3.1100;
1281.0000;0.5177;3.1124;
1281.3000;0.5161;3.1029;
1281.6000;0.5169;3.1052;
1281.9000;0.5177;3.1124;
1282.2000;0.5096;3.0981;
1282.5000;0.5136;3.1052;
1282.8000;0.5169;3.1052;
1283.1000;0.5169;3.1052;
1283.4000;0.5161;3.1029;
1283.7000;0.5169;3.0981;
1284.0000;0.5193;3.1076;
1284.3000;0.5193;3.1076;
1284.6000;0.5267;3.1363;
1284.9000;0.5161;3.1052;
1285.2000;0.5161;3.0933;
1285.5000;0.5185;3.0957;
1285.8000;0.5169;3.0861;
1286.1000;0.5177;3.0861;
1286.4000;0.5161;3.0742;
1286.7000;0.5185;3.0790;
1287.0000;0.5120;3.0671;
1287.3000;0.5161;3.0838;
1287.6000;0.5161;3.0885;
1287.9000;0.5177;3.0933;
1288.2000;0.5169;3.0909;
1288.5000;0.5177;3.0957;
1288.8000;0.5169;3.0957;
1289.1000;0.5193;3.0909;
1289.4000;0.5185;3.0957;
1289.7000;0.5177;3.0981;
1290.0000;0.5161;3.0885;
1290.3000;0.5169;3.0933;
1290.6000;0.5177;3.0933;
1290.9000;0.5185;3.0957;
1291.2000;0.5169;3.0957;
1291.5000;0.5177;3.0885;
1291.8000;0.5169;3.0838;
1292.1000;0.5210;3.0957;
1292.4000;0.5161;3.0981;
1292.7000;0.5177;3.1005;
1293.0000;0.5079;3.0885;
1293.3000;0.5185;3.1124;
1293.6000;0.5185;3.1100;
1293.9000;0.5153;3.1029;
1294.2000;0.5210;3.1148;
1294.5000;0.5177;3.1196;
1294.8000;0.5161;3.1172;
1295.1000;0.5177;3.1052;
1295.4000;0.5185;3.0957;
1295.7000;0.5185;3.0981;
1296.0000;0.5161;3.1005;
1296.3000;0.5153;3.0981;
1296.6000;0.5177;3.1005;
1296.9000;0.5193;3.1100;
1297.2000;0.5234;3.1124;
1297.5000;0.5177;3.0981;
1297.8000;0.5177;3.0861;
1298.1000;0.5193;3.0838;
1298.4000;0.5193;3.0814;
1298.7000;0.5177;3.0885;
1299.0000;0.5185;3.0933;
1299.3000;0.5161;3.0838;
1299.6000;0.5161;3.0838;
1299.9000;0.5177;3.0861;
1300.2000;0.5218;3.0957;
1300.5000;0.5185;3.0885;
1300.8000;0.5185;3.0909;
1301.1000;0.5169;3.0885;
1301.4000;0.5169;3.0909;
1301.7000;0.5144;3.0766;
1302.0000;0.5193;3.0933;
1302.3000;0.5161;3.0861;
1302.6000;0.5177;3.0885;
1302.9000;0.5169;3.0838;
1303.2000;0.5177;3.0861;
1303.5000;0.5153;3.0814;
1303.8000;0.5161;3.0885;
1304.1000;0.5153;3.0861;
1304.4000;0.5177;3.0933;
1304.7000;0.5177;3.0933;
1305.0000;0.5144;3.0957;
1305.3000;0.5169;3.1005;
1305.6000;0.5169;3.1005;
1305.9000;0.5177;3.0981;
1306.2000;0.5177;3.1005;
1306.5000;0.5169;3.0957;
1306.8000;0.5169;3.1029;
1307.1000;0.5177;3.1052;
1307.4000;0.5169;3.1005;
1307.7000;0.5153;3.0957;
1308.0000;0.5185;3.0957;
1308.3000;0.5169;3.0957;
1308.6000;0.5161;3.0933;
1308.9000;0.5169;3.1029;
1309.2000;0.5177;3.1029;
1309.5000;0.5193;3.1100;
1309.8000;0.5193;3.1052;
1310.1000;0.5169;3.1005;
1310.4000;0.5193;3.1076;
1310.7000;0.5185;3.1076;
1311.0000;0.5193;3.1076;
1311.3000;0.5161;3.0981;
1311.6000;0.5144;3.0885;
1311.9000;0.5177;3.1005;
1312.2000;0.5169;3.1005;
1312.5000;0.5088;3.0742;
1312.8000;0.5177;3.0981;
1313.1000;0.5177;3.0885;
1313.4000;0.5169;3.0909;
1313.7000;0.5177;3.0909;
1314.0000;0.5161;3.0838;
1314.3000;0.5177;3.0814;
1314.6000;0.5169;3.0814;
1314.9000;0.5169;3.0718;
1315.2000;0.5161;3.0671;
1315.5000;0.5169;3.0718;
1315.8000;0.5177;3.0790;
1316.1000;0.5177;3.0885;
1316.4000;0.5161;3.0933;
1316.7000;0.5169;3.0861;
1317.0000;0.5169;3.0814;
1317.3000;0.5177;3.0861;
1317.6000;0.5161;3.0742;
1317.9000;0.5169;3.0814;
1318.2000;0.5169;3.0814;
1318.5000;0.5161;3.0814;
1318.8000;0.5177;3.0838;
1319.1000;0.5210;3.0861;
1319.4000;0.5177;3.0718;
1319.7000;0.5193;3.0790;
1320.0000;0.5185;3.0742;
1320.3000;0.5177;3.0790;
1320.6000;0.5169;3.0790;
1320.9000;0.5177;3.0814;
1321.2000;0.5161;3.0790;
1321.5000;0.5153;3.0766;
1321.8000;0.5161;3.0790;
1322.1000;0.5177;3.0838;
1322.4000;0.5177;3.0861;
1322.7000;0.5177;3.0838;
1323.0000;0.5177;3.0838;
1323.3000;0.5169;3.0861;
1323.6000;0.5177;3.0909;
1323.9000;0.5177;3.0933;
1324.2000;0.5193;3.0957;
1324.5000;0.5169;3.0909;
1324.8000;0.5169;3.0957;
1325.1000;0.5144;3.1005;
1325.4000;0.5153;3.0957;
1325.7000;0.5169;3.1029;
1326.0000;0.5161;3.1005;
1326.3000;0.5210;3.1052;
1326.6000;0.5185;3.0957;
1326.9000;0.5169;3.0957;
1327.2000;0.5153;3.0957;
1327.5000;0.5161;3.1005;
1327.8000;0.5161;3.0981;
1328.1000;0.5185;3.1005;
1328.4000;0.5169;3.1005;
1328.7000;0.5112;3.0814;
1329.0000;0.5177;3.0957;
1329.3000;0.5161;3.0933;
1329.6000;0.5161;3.0885;
1329.9000;0.5185;3.0909;
1330.2000;0.5169;3.0909;
1330.5000;0.5185;3.0861;
1330.8000;0.5169;3.0885;
1331.1000;0.5169;3.0933;
1331.4000;0.5201;3.1005;
1331.7000;0.5161;3.0909;
1332.0000;0.5063;3.0718;
1332.3000;0.5161;3.0933;
1332.6000;0.5193;3.0981;
1332.9000;0.5177;3.1005;
1333.2000;0.5177;3.1005;
1333.5000;0.5193;3.1029;
1333.8000;0.5169;3.0933;
1334.1000;0.5177;3.0909;
1334.4000;0.5128;3.0742;
1334.7000;0.5185;3.0861;
1335.0000;0.5153;3.0814;
1335.3000;0.5161;3.0838;
1335.6000;0.5153;3.0861;
1335.9000;0.5153;3.0909;
1336.2000;0.5161;3.0909;
1336.5000;0.5161;3.0909;
1336.8000;0.5177;3.0885;
1337.1000;0.5177;3.0933;
1337.4000;0.5185;3.0885;
1337.7000;0.5185;3.0838;
1338.0000;0.5218;3.0933;
1338.3000;0.5161;3.0838;
1338.6000;0.5161;3.0861;
1338.9000;0.5169;3.0861;
1339.2000;0.5177;3.0909;
1339.5000;0.5169;3.0909;
1339.8000;0.5177;3.0957;
1340.1000;0.5177;3.0885;
1340.4000;0.5169;3.0838;
1340.7000;0.5161;3.0838;
1341.0000;0.5193;3.0885;
1341.3000;0.5185;3.0861;
1341.6000;0.5153;3.0790;
1341.9000;0.5161;3.0814;
1342.2000;0.5193;3.0909;
1342.5000;0.5193;3.0909;
1342.8000;0.5242;3.0981;
1343.1000;0.5185;3.0790;
1343.4000;0.5185;3.0790;
1343.7000;0.5185;3.0790;
1344.0000;0.5153;3.0742;
1344.3000;0.5161;3.0838;
1344.6000;0.5177;3.0909;
1344.9000;0.5161;3.0814;
1345.2000;0.5218;3.0981;
1345.5000;0.5169;3.0838;
1345.8000;0.5161;3.0790;
1346.1000;0.5177;3.0814;
1346.4000;0.5169;3.0814;
1346.7000;0.5201;3.0838;
1347.0000;0.5185;3.0861;
1347.3000;0.5169;3.0838;
1347.6000;0.5169;3.0838;
1347.9000;0.5136;3.0814;
1348.2000;0.5161;3.0861;
1348.5000;0.5144;3.0861;
1348.8000;0.5153;3.0981;
1349.1000;0.5177;3.1005;
1349.4000;0.5169;3.0957;
1349.7000;0.5144;3.0981;
1350.0000;0.5144;3.1029;
1350.3000;0.5177;3.1052;
1350.6000;0.5144;3.0957;
1350.9000;0.5144;3.1005;
1351.2000;0.5128;3.0981;
1351.5000;0.5177;3.1124;
1351.8000;0.5153;3.1124;
1352.1000;0.5234;3.1363;
1352.4000;0.5169;3.1124;
1352.7000;0.5177;3.1220;
1353.0000;0.5161;3.1172;
1353.3000;0.5169;3.1052;
1353.6000;0.5193;3.1052;
1353.9000;0.5161;3.0885;
1354.2000;0.5193;3.0933;
1354.5000;0.5169;3.0885;
1354.8000;0.5169;3.0814;
1355.1000;0.5161;3.0790;
1355.4000;0.5177;3.0838;
1355.7000;0.5177;3.0885;
1356.0000;0.5161;3.0885;
1356.3000;0.5177;3.0838;
1356.6000;0.5136;3.0694;
1356.9000;0.5185;3.0861;
1357.2000;0.5177;3.0861;
1357.5000;0.5161;3.0766;
1357.8000;0.5177;3.0790;
1358.1000;0.5169;3.0861;
1358.4000;0.5161;3.0933;
1358.7000;0.5226;3.1076;
1359.0000;0.5112;3.0718;
1359.3000;0.5185;3.0838;
1359.6000;0.5161;3.0838;
1359.9000;0.5144;3.0909;
1360.2000;0.5169;3.0957;
1360.5000;0.5153;3.0838;
1360.8000;0.5169;3.0861;
1361.1000;0.5169;3.0861;
1361.4000;0.5161;3.0885;
1361.7000;0.5218;3.1052;
1362.0000;0.5169;3.0933;
1362.3000;0.5185;3.0909;
1362.6000;0.5153;3.0909;
1362.9000;0.5210;3.1052;
1363.2000;0.5226;3.1148;
1363.5000;0.5177;3.1100;
1363.8000;0.5226;3.1148;
1364.1000;0.5185;3.1052;
1364.4000;0.5177;3.1005;
1364.7000;0.5177;3.1005;
1365.0000;0.5210;3.1052;
1365.3000;0.5185;3.0909;
1365.6000;0.5177;3.0933;
1365.9000;0.5177;3.0957;
1366.2000;0.5177;3.1005;
1366.5000;0.5185;3.1052;
1366.8000;0.5169;3.1029;
1367.1000;0.5210;3.1052;
1367.4000;0.5169;3.1100;
1367.7000;0.5193;3.1124;
1368.0000;0.5210;3.1148;
1368.3000;0.5210;3.1148;
1368.6000;0.5169;3.1052;
1368.9000;0.5177;3.1005;
1369.2000;0.5169;3.1005;
1369.5000;0.5144;3.0909;
1369.8000;0.5153;3.0933;
1370.1000;0.5153;3.0957;
1370.4000;0.5177;3.0909;
1370.7000;0.5144;3.0814;
1371.0000;0.5161;3.0861;
1371.3000;0.5153;3.0838;
1371.6000;0.5153;3.0790;
1371.9000;0.5161;3.0838;
1372.2000;0.5104;3.0671;
1372.5000;0.5177;3.0790;
1372.8000;0.5153;3.0790;
1373.1000;0.5185;3.0766;
1373.4000;0.5169;3.0742;
1373.7000;0.5169;3.0814;
1374.0000;0.5177;3.0861;
1374.3000;0.5201;3.0909;
1374.6000;0.5193;3.0838;
1374.9000;0.5177;3.0814;
1375.2000;0.5258;3.1029;
1375.5000;0.5185;3.0838;
1375.8000;0.5185;3.0838;
1376.1000;0.5169;3.0742;
1376.4000;0.5161;3.0838;
1376.7000;0.5161;3.0885;
1377.0000;0.5169;3.0933;
1377.3000;0.5161;3.0838;
1377.6000;0.5169;3.0790;
1377.9000;0.5128;3.0694;
1378.2000;0.5177;3.0814;
1378.5000;0.5177;3.0814;
1378.8000;0.5169;3.0814;
1379.1000;0.5177;3.0814;
1379.4000;0.5201;3.0909;
1379.7000;0.5250;3.1052;
1380.0000;0.5177;3.0885;
1380.3000;0.5161;3.0885;
1380.6000;0.5169;3.0957;
1380.9000;0.5177;3.0957;
1381.2000;0.5185;3.0981;
1381.5000;0.5161;3.0861;
1381.8000;0.5169;3.0933;
1382.1000;0.5161;3.0861;
1382.4000;0.5169;3.0838;
1382.7000;0.5161;3.0790;
1383.0000;0.5169;3.0838;
1383.3000;0.5177;3.0885;
1383.6000;0.5177;3.0909;
1383.9000;0.5177;3.1005;
1384.2000;0.5169;3.1029;
1384.5000;0.5193;3.1029;
1384.8000;0.5177;3.1029;
1385.1000;0.5169;3.0933;
1385.4000;0.5177;3.1005;
1385.7000;0.5193;3.1005;
1386.0000;0.5185;3.0981;
1386.3000;0.5193;3.0933;
1386.6000;0.5161;3.0933;
1386.9000;0.5169;3.1052;
1387.2000;0.5161;3.1005;
1387.5000;0.5161;3.1076;
1387.8000;0.5193;3.1196;
1388.1000;0.5177;3.1124;
1388.4000;0.5169;3.1196;
1388.7000;0.5185;3.1172;
1389.0000;0.5185;3.1148;
1389.3000;0.5193;3.1172;
1389.6000;0.5193;3.1196;
1389.9000;0.5177;3.1148;
1390.2000;0.5193;3.1100;
1390.5000;0.5161;3.1076;
1390.8000;0.5185;3.1100;
1391.1000;0.5185;3.1148;
1391.4000;0.5169;3.1029;
1391.7000;0.5177;3.1029;
1392.0000;0.5169;3.1052;
1392.3000;0.5169;3.0981;
1392.6000;0.5169;3.0981;
1392.9000;0.5169;3.1005;
1393.2000;0.5153;3.1005;
1393.5000;0.5185;3.1076;
1393.8000;0.5177;3.1029;
1394.1000;0.5177;3.0957;
1394.4000;0.5169;3.0957;
1394.7000;0.5193;3.1100;
1395.0000;0.5185;3.1172;
1395.3000;0.5177;3.1196;
1395.6000;0.5193;3.1148;
1395.9000;0.5177;3.1076;
1396.2000;0.5177;3.1076;
1396.5000;0.5161;3.1029;
1396.8000;0.5161;3.1100;
1397.1000;0.5185;3.1148;
1397.4000;0.5169;3.1076;
1397.7000;0.5153;3.0933;
1398.0000;0.5144;3.0933;
1398.3000;0.5169;3.0957;
1398.6000;0.5169;3.0933;
1398.9000;0.5193;3.1005;
1399.2000;0.5153;3.0909;
1399.5000;0.5169;3.0957;
1399.8000;0.5177;3.0957;
