time/ms;Fluo/V;P700 deltaI/I x10³;
-199.8000;0.6203;3.0790;
-199.5000;0.6203;3.0814;
-199.2000;0.6211;3.0814;
-198.9000;0.6219;3.0766;
-198.6000;0.6170;3.0694;
-198.3000;0.6219;3.0885;
-198.0000;0.6211;3.0790;
-197.7000;0.6195;3.0814;
-197.4000;0.6195;3.0742;
-197.1000;0.6219;3.0838;
-196.8000;0.6219;3.0861;
-196.5000;0.6219;3.0885;
-196.2000;0.6227;3.0838;
-195.9000;0.6195;3.0718;
-195.6000;0.6219;3.0742;
-195.3000;0.6227;3.0861;
-195.0000;0.6211;3.0885;
-194.7000;0.6195;3.1005;
-194.4000;0.6195;3.1029;
-194.1000;0.6219;3.1052;
-193.8000;0.6211;3.1052;
-193.5000;0.6219;3.1124;
-193.2000;0.6203;3.1100;
-192.9000;0.6195;3.1100;
-192.6000;0.6235;3.1100;
-192.3000;0.6235;3.1005;
-192.0000;0.6219;3.0838;
-191.7000;0.6219;3.0838;
-191.4000;0.6219;3.0838;
-191.1000;0.6219;3.0861;
-190.8000;0.6211;3.0861;
-190.5000;0.6203;3.0766;
-190.2000;0.6235;3.0838;
-189.9000;0.6219;3.0838;
-189.6000;0.6195;3.0861;
-189.3000;0.6211;3.0885;
-189.0000;0.6211;3.0885;
-188.7000;0.6219;3.0861;
-188.4000;0.6227;3.0957;
-188.1000;0.6219;3.0909;
-187.8000;0.6211;3.0861;
-187.5000;0.6235;3.0909;
-187.2000;0.6227;3.0814;
-186.9000;0.6195;3.0671;
-186.6000;0.6203;3.0671;
-186.3000;0.6211;3.0647;
-186.0000;0.6162;3.0527;
-185.7000;0.6203;3.0671;
-185.4000;0.6203;3.0694;
-185.1000;0.6211;3.0742;
-184.8000;0.6203;3.0718;
-184.5000;0.6203;3.0718;
-184.2000;0.6195;3.0551;
-183.9000;0.6219;3.0647;
-183.6000;0.6227;3.0647;
-183.3000;0.6211;3.0575;
-183.0000;0.6211;3.0480;
-182.7000;0.6227;3.0575;
-182.4000;0.6195;3.0623;
-182.1000;0.6129;3.0527;
-181.8000;0.6203;3.0671;
-181.5000;0.6211;3.0742;
-181.2000;0.6178;3.0742;
-180.9000;0.6243;3.0909;
-180.6000;0.6211;3.0814;
-180.3000;0.6203;3.0671;
-180.0000;0.6195;3.0575;
-179.7000;0.6235;3.0575;
-179.4000;0.6195;3.0503;
-179.1000;0.6195;3.0480;
-178.8000;0.6113;3.0432;
-178.5000;0.6211;3.0671;
-178.2000;0.6178;3.0671;
-177.9000;0.6235;3.0838;
-177.6000;0.6219;3.0790;
-177.3000;0.6203;3.0647;
-177.0000;0.6211;3.0694;
-176.7000;0.6211;3.0742;
-176.4000;0.6284;3.1005;
-176.1000;0.6235;3.0861;
-175.8000;0.6211;3.0861;
-175.5000;0.6203;3.0814;
-175.2000;0.6211;3.0766;
-174.9000;0.6195;3.0647;
-174.6000;0.6195;3.0671;
-174.3000;0.6219;3.0742;
-174.0000;0.6211;3.0838;
-173.7000;0.6219;3.0814;
-173.4000;0.6203;3.0909;
-173.1000;0.6211;3.0933;
-172.8000;0.6219;3.0909;
-172.5000;0.6211;3.0909;
-172.2000;0.6219;3.0814;
-171.9000;0.6219;3.0838;
-171.6000;0.6219;3.0861;
-171.3000;0.6227;3.0742;
-171.0000;0.6219;3.0671;
-170.7000;0.6211;3.0718;
-170.4000;0.6211;3.0623;
-170.1000;0.6252;3.0671;
-169.8000;0.6243;3.0671;
-169.5000;0.6211;3.0623;
-169.2000;0.6195;3.0623;
-168.9000;0.6170;3.0551;
-168.6000;0.6219;3.0718;
-168.3000;0.6227;3.0742;
-168.0000;0.6235;3.0694;
-167.7000;0.6219;3.0671;
-167.4000;0.6227;3.0742;
-167.1000;0.6219;3.0790;
-166.8000;0.6211;3.0766;
-166.5000;0.6219;3.0838;
-166.2000;0.6219;3.0838;
-165.9000;0.6186;3.0718;
-165.6000;0.6219;3.0790;
-165.3000;0.6195;3.0814;
-165.0000;0.6219;3.0933;
-164.7000;0.6227;3.0909;
-164.4000;0.6243;3.0909;
-164.1000;0.6219;3.0838;
-163.8000;0.6203;3.0790;
-163.5000;0.6211;3.0838;
-163.2000;0.6195;3.0814;
-162.9000;0.6227;3.0957;
-162.6000;0.6186;3.0861;
-162.3000;0.6203;3.0885;
-162.0000;0.6292;3.1124;
-161.7000;0.6211;3.0957;
-161.4000;0.6154;3.0742;
-161.1000;0.6227;3.0861;
-160.8000;0.6235;3.1005;
-160.5000;0.6227;3.0861;
-160.2000;0.6219;3.0909;
-159.9000;0.6195;3.0766;
-159.6000;0.6211;3.0766;
-159.3000;0.6219;3.0766;
-159.0000;0.6211;3.0694;
-158.7000;0.6203;3.0647;
-158.4000;0.6252;3.0790;
-158.1000;0.6219;3.0694;
-157.8000;0.6252;3.0718;
-157.5000;0.6276;3.0790;
-157.2000;0.6276;3.0838;
-156.9000;0.6219;3.0790;
-156.6000;0.6203;3.0766;
-156.3000;0.6178;3.0671;
-156.0000;0.6121;3.0551;
-155.7000;0.6227;3.0718;
-155.4000;0.6219;3.0647;
-155.1000;0.6235;3.0766;
-154.8000;0.6219;3.0742;
-154.5000;0.6203;3.0766;
-154.2000;0.6203;3.0742;
-153.9000;0.6203;3.0671;
-153.6000;0.6203;3.0671;
-153.3000;0.6211;3.0623;
-153.0000;0.6227;3.0718;
-152.7000;0.6219;3.0742;
-152.4000;0.6219;3.0814;
-152.1000;0.6211;3.0957;
-151.8000;0.6211;3.0981;
-151.5000;0.6219;3.0933;
-151.2000;0.6219;3.0909;
-150.9000;0.6284;3.1052;
-150.6000;0.6227;3.0838;
-150.3000;0.6219;3.0790;
-150.0000;0.6227;3.0671;
-149.7000;0.6219;3.0718;
-149.4000;0.6227;3.0742;
-149.1000;0.6195;3.0527;
-148.8000;0.6219;3.0575;
-148.5000;0.6211;3.0503;
-148.2000;0.6219;3.0503;
-147.9000;0.6219;3.0503;
-147.6000;0.6268;3.0623;
-147.3000;0.6219;3.0480;
-147.0000;0.6186;3.0575;
-146.7000;0.6227;3.0838;
-146.4000;0.6211;3.0718;
-146.1000;0.6268;3.0838;
-145.8000;0.6195;3.0599;
-145.5000;0.6203;3.0599;
-145.2000;0.6203;3.0599;
-144.9000;0.6219;3.0694;
-144.6000;0.6211;3.0694;
-144.3000;0.6211;3.0671;
-144.0000;0.6219;3.0742;
-143.7000;0.6195;3.0694;
-143.4000;0.6203;3.0623;
-143.1000;0.6203;3.0671;
-142.8000;0.6219;3.0623;
-142.5000;0.6154;3.0527;
-142.2000;0.6203;3.0647;
-141.9000;0.6211;3.0718;
-141.6000;0.6219;3.0718;
-141.3000;0.6211;3.0694;
-141.0000;0.6219;3.0718;
-140.7000;0.6219;3.0766;
-140.4000;0.6235;3.0742;
-140.1000;0.6219;3.0742;
-139.8000;0.6186;3.0718;
-139.5000;0.6235;3.0909;
-139.2000;0.6219;3.0861;
-138.9000;0.6252;3.0861;
-138.6000;0.6227;3.0814;
-138.3000;0.6227;3.0742;
-138.0000;0.6227;3.0718;
-137.7000;0.6243;3.0742;
-137.4000;0.6211;3.0790;
-137.1000;0.6203;3.0742;
-136.8000;0.6235;3.0671;
-136.5000;0.6170;3.0527;
-136.2000;0.6211;3.0671;
-135.9000;0.6178;3.0575;
-135.6000;0.6195;3.0623;
-135.3000;0.6203;3.0647;
-135.0000;0.6243;3.0861;
-134.7000;0.6203;3.0694;
-134.4000;0.6252;3.0838;
-134.1000;0.6162;3.0623;
-133.8000;0.6219;3.0742;
-133.5000;0.6203;3.0647;
-133.2000;0.6186;3.0575;
-132.9000;0.6211;3.0623;
-132.6000;0.6219;3.0647;
-132.3000;0.6219;3.0599;
-132.0000;0.6219;3.0599;
-131.7000;0.6235;3.0575;
-131.4000;0.6235;3.0527;
-131.1000;0.6219;3.0503;
-130.8000;0.6211;3.0575;
-130.5000;0.6227;3.0623;
-130.2000;0.6243;3.0647;
-129.9000;0.6219;3.0623;
-129.6000;0.6203;3.0718;
-129.3000;0.6203;3.0766;
-129.0000;0.6243;3.0861;
-128.7000;0.6219;3.0790;
-128.4000;0.6203;3.0766;
-128.1000;0.6219;3.0742;
-127.8000;0.6243;3.0766;
-127.5000;0.6227;3.0742;
-127.2000;0.6235;3.0671;
-126.9000;0.6276;3.0718;
-126.6000;0.6227;3.0694;
-126.3000;0.6227;3.0718;
-126.0000;0.6211;3.0694;
-125.7000;0.6219;3.0671;
-125.4000;0.6211;3.0694;
-125.1000;0.6195;3.0599;
-124.8000;0.6195;3.0551;
-124.5000;0.6211;3.0623;
-124.2000;0.6219;3.0671;
-123.9000;0.6121;3.0456;
-123.6000;0.6211;3.0718;
-123.3000;0.6195;3.0718;
-123.0000;0.6284;3.0861;
-122.7000;0.6203;3.0527;
-122.4000;0.6195;3.0527;
-122.1000;0.6219;3.0623;
-121.8000;0.6211;3.0694;
-121.5000;0.6219;3.0694;
-121.2000;0.6227;3.0671;
-120.9000;0.6203;3.0623;
-120.6000;0.6203;3.0647;
-120.3000;0.6235;3.0694;
-120.0000;0.6162;3.0456;
-119.7000;0.6195;3.0551;
-119.4000;0.6186;3.0575;
-119.1000;0.6219;3.0671;
-118.8000;0.6227;3.0599;
-118.5000;0.6186;3.0575;
-118.2000;0.6203;3.0551;
-117.9000;0.6211;3.0599;
-117.6000;0.6227;3.0647;
-117.3000;0.6227;3.0671;
-117.0000;0.6178;3.0671;
-116.7000;0.6219;3.0814;
-116.4000;0.6195;3.0647;
-116.1000;0.6211;3.0647;
-115.8000;0.6170;3.0551;
-115.5000;0.6170;3.0623;
-115.2000;0.6195;3.0694;
-114.9000;0.6227;3.0742;
-114.6000;0.6203;3.0718;
-114.3000;0.6195;3.0694;
-114.0000;0.6203;3.0647;
-113.7000;0.6211;3.0694;
-113.4000;0.6211;3.0718;
-113.1000;0.6227;3.0671;
-112.8000;0.6203;3.0694;
-112.5000;0.6227;3.0838;
-112.2000;0.6219;3.0814;
-111.9000;0.6211;3.0861;
-111.6000;0.6203;3.0981;
-111.3000;0.6227;3.0909;
-111.0000;0.6211;3.0838;
-110.7000;0.6211;3.0814;
-110.4000;0.6178;3.0766;
-110.1000;0.6154;3.0671;
-109.8000;0.6227;3.0718;
-109.5000;0.6219;3.0647;
-109.2000;0.6186;3.0623;
-108.9000;0.6219;3.0647;
-108.6000;0.6203;3.0671;
-108.3000;0.6211;3.0790;
-108.0000;0.6227;3.0790;
-107.7000;0.6300;3.0933;
-107.4000;0.6284;3.0909;
-107.1000;0.6260;3.0814;
-106.8000;0.6268;3.0861;
-106.5000;0.6211;3.0838;
-106.2000;0.6211;3.0814;
-105.9000;0.6203;3.0694;
-105.6000;0.6203;3.0694;
-105.3000;0.6203;3.0623;
-105.0000;0.6211;3.0599;
-104.7000;0.6235;3.0623;
-104.4000;0.6260;3.0742;
-104.1000;0.6227;3.0718;
-103.8000;0.6203;3.0694;
-103.5000;0.6211;3.0551;
-103.2000;0.6186;3.0503;
-102.9000;0.6203;3.0718;
-102.6000;0.6374;3.1124;
-102.3000;0.6219;3.0766;
-102.0000;0.6211;3.0838;
-101.7000;0.6195;3.0814;
-101.4000;0.6211;3.0909;
-101.1000;0.6219;3.0981;
-100.8000;0.6211;3.0933;
-100.5000;0.6203;3.0861;
-100.2000;0.6203;3.0838;
-99.9000;0.6227;3.0790;
-99.6000;0.6186;3.0718;
-99.3000;0.6203;3.0671;
-99.0000;0.6186;3.0647;
-98.7000;0.6195;3.0694;
-98.4000;0.6211;3.0790;
-98.1000;0.6211;3.0623;
-97.8000;0.6211;3.0599;
-97.5000;0.6219;3.0671;
-97.2000;0.6227;3.0694;
-96.9000;0.6219;3.0647;
-96.6000;0.6243;3.0694;
-96.3000;0.6211;3.0671;
-96.0000;0.6219;3.0671;
-95.7000;0.6227;3.0742;
-95.4000;0.6227;3.0742;
-95.1000;0.6219;3.0647;
-94.8000;0.6227;3.0647;
-94.5000;0.6235;3.0647;
-94.2000;0.6211;3.0671;
-93.9000;0.6219;3.0671;
-93.6000;0.6203;3.0671;
-93.3000;0.6203;3.0718;
-93.0000;0.6211;3.0623;
-92.7000;0.6211;3.0671;
-92.4000;0.6203;3.0647;
-92.1000;0.6211;3.0671;
-91.8000;0.6203;3.0623;
-91.5000;0.6235;3.0623;
-91.2000;0.6203;3.0599;
-90.9000;0.6186;3.0599;
-90.6000;0.6227;3.0671;
-90.3000;0.6243;3.0742;
-90.0000;0.6203;3.0671;
-89.7000;0.6195;3.0575;
-89.4000;0.6170;3.0551;
-89.1000;0.6195;3.0647;
-88.8000;0.6203;3.0671;
-88.5000;0.6211;3.0742;
-88.2000;0.6195;3.0647;
-87.9000;0.6203;3.0551;
-87.6000;0.6203;3.0575;
-87.3000;0.6219;3.0671;
-87.0000;0.6195;3.0647;
-86.7000;0.6243;3.0671;
-86.4000;0.6227;3.0599;
-86.1000;0.6186;3.0575;
-85.8000;0.6243;3.0671;
-85.5000;0.6195;3.0599;
-85.2000;0.6170;3.0456;
-84.9000;0.6284;3.0790;
-84.6000;0.6195;3.0623;
-84.3000;0.6219;3.0647;
-84.0000;0.6227;3.0742;
-83.7000;0.6227;3.0718;
-83.4000;0.6178;3.0551;
-83.1000;0.6243;3.0718;
-82.8000;0.6219;3.0671;
-82.5000;0.6219;3.0694;
-82.2000;0.6203;3.0671;
-81.9000;0.6219;3.0718;
-81.6000;0.6203;3.0671;
-81.3000;0.6211;3.0647;
-81.0000;0.6227;3.0694;
-80.7000;0.6235;3.0742;
-80.4000;0.6211;3.0718;
-80.1000;0.6219;3.0838;
-79.8000;0.6211;3.0790;
-79.5000;0.6203;3.0838;
-79.2000;0.6211;3.0814;
-78.9000;0.6203;3.0814;
-78.6000;0.6211;3.0838;
-78.3000;0.6219;3.0814;
-78.0000;0.6219;3.0766;
-77.7000;0.6219;3.0671;
-77.4000;0.6235;3.0671;
-77.1000;0.6276;3.0742;
-76.8000;0.6211;3.0599;
-76.5000;0.6211;3.0647;
-76.2000;0.6219;3.0766;
-75.9000;0.6211;3.0694;
-75.6000;0.6219;3.0623;
-75.3000;0.6211;3.0623;
-75.0000;0.6203;3.0575;
-74.7000;0.6186;3.0551;
-74.4000;0.6243;3.0694;
-74.1000;0.6219;3.0671;
-73.8000;0.6211;3.0671;
-73.5000;0.6195;3.0671;
-73.2000;0.6211;3.0694;
-72.9000;0.6235;3.0742;
-72.6000;0.6243;3.0718;
-72.3000;0.6211;3.0671;
-72.0000;0.6243;3.0694;
-71.7000;0.6227;3.0671;
-71.4000;0.6252;3.0694;
-71.1000;0.6211;3.0623;
-70.8000;0.6235;3.0766;
-70.5000;0.6219;3.0742;
-70.2000;0.6211;3.0766;
-69.9000;0.6211;3.0766;
-69.6000;0.6227;3.0838;
-69.3000;0.6243;3.0909;
-69.0000;0.6195;3.0790;
-68.7000;0.6227;3.0861;
-68.4000;0.6195;3.0742;
-68.1000;0.6211;3.0742;
-67.8000;0.6235;3.0790;
-67.5000;0.6186;3.0623;
-67.2000;0.6146;3.0575;
-66.9000;0.6211;3.0742;
-66.6000;0.6211;3.0718;
-66.3000;0.6178;3.0671;
-66.0000;0.6195;3.0599;
-65.7000;0.6211;3.0551;
-65.4000;0.6300;3.0861;
-65.1000;0.6154;3.0408;
-64.8000;0.6186;3.0480;
-64.5000;0.6227;3.0647;
-64.2000;0.6211;3.0694;
-63.9000;0.6211;3.0718;
-63.6000;0.6211;3.0742;
-63.3000;0.6235;3.0861;
-63.0000;0.6211;3.0790;
-62.7000;0.6211;3.0766;
-62.4000;0.6203;3.0790;
-62.1000;0.6154;3.0623;
-61.8000;0.6146;3.0647;
-61.5000;0.6186;3.0718;
-61.2000;0.6154;3.0551;
-60.9000;0.6219;3.0718;
-60.6000;0.6211;3.0694;
-60.3000;0.6219;3.0694;
-60.0000;0.6211;3.0551;
-59.7000;0.6203;3.0623;
-59.4000;0.6211;3.0742;
-59.1000;0.6211;3.0766;
-58.8000;0.6203;3.0790;
-58.5000;0.6211;3.0861;
-58.2000;0.6243;3.0838;
-57.9000;0.6235;3.0861;
-57.6000;0.6219;3.0814;
-57.3000;0.6219;3.0838;
-57.0000;0.6219;3.0790;
-56.7000;0.6219;3.0766;
-56.4000;0.6219;3.0742;
-56.1000;0.6186;3.0694;
-55.8000;0.6195;3.0694;
-55.5000;0.6203;3.0694;
-55.2000;0.6227;3.0766;
-54.9000;0.6203;3.0742;
-54.6000;0.6211;3.0718;
-54.3000;0.6186;3.0647;
-54.0000;0.6211;3.0694;
-53.7000;0.6219;3.0671;
-53.4000;0.6203;3.0599;
-53.1000;0.6211;3.0551;
-52.8000;0.6227;3.0671;
-52.5000;0.6227;3.0623;
-52.2000;0.6227;3.0527;
-51.9000;0.6178;3.0503;
-51.6000;0.6219;3.0575;
-51.3000;0.6235;3.0527;
-51.0000;0.6211;3.0551;
-50.7000;0.6203;3.0503;
-50.4000;0.6219;3.0551;
-50.1000;0.6243;3.0575;
-49.8000;0.6252;3.0623;
-49.5000;0.6154;3.0408;
-49.2000;0.6219;3.0599;
-48.9000;0.6219;3.0575;
-48.6000;0.6178;3.0408;
-48.3000;0.6211;3.0527;
-48.0000;0.6203;3.0503;
-47.7000;0.6227;3.0623;
-47.4000;0.6219;3.0694;
-47.1000;0.6170;3.0527;
-46.8000;0.6235;3.0623;
-46.5000;0.6211;3.0575;
-46.2000;0.6203;3.0599;
-45.9000;0.6154;3.0480;
-45.6000;0.6227;3.0671;
-45.3000;0.6178;3.0599;
-45.0000;0.6227;3.0718;
-44.7000;0.6186;3.0647;
-44.4000;0.6235;3.0861;
-44.1000;0.6219;3.0742;
-43.8000;0.6219;3.0647;
-43.5000;0.6203;3.0575;
-43.2000;0.6211;3.0551;
-42.9000;0.6178;3.0503;
-42.6000;0.6162;3.0503;
-42.3000;0.6211;3.0599;
-42.0000;0.6211;3.0623;
-41.7000;0.6170;3.0575;
-41.4000;0.6203;3.0623;
-41.1000;0.6219;3.0694;
-40.8000;0.6178;3.0575;
-40.5000;0.6211;3.0694;
-40.2000;0.6268;3.0766;
-39.9000;0.6211;3.0718;
-39.6000;0.6219;3.0790;
-39.3000;0.6211;3.0671;
-39.0000;0.6178;3.0599;
-38.7000;0.6227;3.0814;
-38.4000;0.6211;3.0790;
-38.1000;0.6203;3.0766;
-37.8000;0.6170;3.0599;
-37.5000;0.6211;3.0599;
-37.2000;0.6219;3.0671;
-36.9000;0.6211;3.0671;
-36.6000;0.6186;3.0623;
-36.3000;0.6211;3.0671;
-36.0000;0.6186;3.0575;
-35.7000;0.6154;3.0480;
-35.4000;0.6203;3.0671;
-35.1000;0.6235;3.0694;
-34.8000;0.6219;3.0623;
-34.5000;0.6211;3.0647;
-34.2000;0.6211;3.0623;
-33.9000;0.6211;3.0647;
-33.6000;0.6203;3.0599;
-33.3000;0.6211;3.0551;
-33.0000;0.6211;3.0527;
-32.7000;0.6292;3.0790;
-32.4000;0.6227;3.0742;
-32.1000;0.6252;3.0814;
-31.8000;0.6284;3.0957;
-31.5000;0.6227;3.0838;
-31.2000;0.6203;3.0766;
-30.9000;0.6219;3.0718;
-30.6000;0.6211;3.0671;
-30.3000;0.6195;3.0623;
-30.0000;0.6170;3.0551;
-29.7000;0.6235;3.0551;
-29.4000;0.6186;3.0313;
-29.1000;0.6195;3.0313;
-28.8000;0.6219;3.0217;
-28.5000;0.6219;3.0265;
-28.2000;0.6219;3.0384;
-27.9000;0.6227;3.0384;
-27.6000;0.6235;3.0408;
-27.3000;0.6219;3.0432;
-27.0000;0.6235;3.0456;
-26.7000;0.6219;3.0456;
-26.4000;0.6219;3.0384;
-26.1000;0.6227;3.0360;
-25.8000;0.6195;3.0265;
-25.5000;0.6219;3.0336;
-25.2000;0.6203;3.0336;
-24.9000;0.6260;3.0384;
-24.6000;0.6227;3.0408;
-24.3000;0.6260;3.0503;
-24.0000;0.6260;3.0432;
-23.7000;0.6211;3.0480;
-23.4000;0.6203;3.0480;
-23.1000;0.6300;3.0742;
-22.8000;0.6203;3.0527;
-22.5000;0.6211;3.0575;
-22.2000;0.6146;3.0384;
-21.9000;0.6195;3.0432;
-21.6000;0.6219;3.0384;
-21.3000;0.6219;3.0408;
-21.0000;0.6203;3.0432;
-20.7000;0.6203;3.0432;
-20.4000;0.6203;3.0384;
-20.1000;0.6203;3.0384;
-19.8000;0.6227;3.0503;
-19.5000;0.6211;3.0480;
-19.2000;0.6203;3.0503;
-18.9000;0.6252;3.0599;
-18.6000;0.6186;3.0527;
-18.3000;0.6195;3.0599;
-18.0000;0.6203;3.0599;
-17.7000;0.6195;3.0575;
-17.4000;0.6219;3.0671;
-17.1000;0.6219;3.0766;
-16.8000;0.6235;3.0838;
-16.5000;0.6219;3.0790;
-16.2000;0.6162;3.0647;
-15.9000;0.6227;3.0742;
-15.6000;0.6211;3.0742;
-15.3000;0.6219;3.0671;
-15.0000;0.6219;3.0647;
-14.7000;0.6211;3.0599;
-14.4000;0.6235;3.0718;
-14.1000;0.6219;3.0694;
-13.8000;0.6195;3.0623;
-13.5000;0.6203;3.0551;
-13.2000;0.6219;3.0694;
-12.9000;0.6195;3.0694;
-12.6000;0.6203;3.0718;
-12.3000;0.6235;3.0766;
-12.0000;0.6227;3.0814;
-11.7000;0.6203;3.0718;
-11.4000;0.6146;3.0671;
-11.1000;0.6203;3.0909;
-10.8000;0.6211;3.0933;
-10.5000;0.6203;3.0885;
-10.2000;0.6219;3.0790;
-9.9000;0.6219;3.0623;
-9.6000;0.6219;3.0623;
-9.3000;0.6211;3.0671;
-9.0000;0.6243;3.0742;
-8.7000;0.6203;3.0671;
-8.4000;0.6211;3.0671;
-8.1000;0.6178;3.0480;
-7.8000;0.6195;3.0575;
-7.5000;0.6203;3.0551;
-7.2000;0.6219;3.0671;
-6.9000;0.6325;3.0909;
-6.6000;0.6219;3.0599;
-6.3000;0.6219;3.0575;
-6.0000;0.6195;3.0551;
-5.7000;0.6211;3.0671;
-5.4000;0.6325;3.0933;
-5.1000;0.6300;3.0838;
-4.8000;0.6227;3.0647;
-4.5000;0.6235;3.0647;
-4.2000;0.6227;3.0647;
-3.9000;0.6260;3.0790;
-3.6000;0.6211;3.0694;
-3.3000;0.6227;3.0718;
-3.0000;0.6219;3.0742;
-2.7000;0.6227;3.0766;
-2.4000;0.6211;3.0790;
-2.1000;0.6186;3.0742;
-1.8000;0.6227;3.0861;
-1.5000;0.6219;3.0885;
-1.2000;0.6260;3.0838;
-0.9000;0.6219;3.0718;
-0.6000;0.6219;3.0742;
-0.3000;0.6227;3.0790;
0.0000;0.6227;3.0790;
0.3000;0.6406;3.0814;
0.6000;0.6740;3.1220;
0.9000;0.6992;3.1506;
1.2000;0.7196;3.1888;
1.5000;0.7456;3.2389;
1.8000;0.7489;3.2365;
2.1000;0.7562;3.2556;
2.4000;0.7676;3.2795;
2.7000;0.7717;3.2914;
3.0000;0.7790;3.2962;
3.3000;0.7855;3.3129;
3.6000;0.7953;3.3296;
3.9000;0.7945;3.3272;
4.2000;0.7985;3.3415;
4.5000;0.8010;3.3463;
4.8000;0.8050;3.3487;
5.1000;0.8091;3.3606;
5.4000;0.8116;3.3535;
5.7000;0.8059;3.3392;
6.0000;0.8181;3.3678;
6.3000;0.8221;3.3726;
6.6000;0.8230;3.3773;
6.9000;0.8311;3.3940;
7.2000;0.8327;3.3869;
7.5000;0.8327;3.3797;
7.8000;0.8335;3.3726;
8.1000;0.8360;3.3678;
8.4000;0.8384;3.3654;
8.7000;0.8400;3.3630;
9.0000;0.8409;3.3630;
9.3000;0.8449;3.3582;
9.6000;0.8571;3.3797;
9.9000;0.8482;3.3463;
10.2000;0.8506;3.3392;
10.5000;0.8539;3.3511;
10.8000;0.8563;3.3606;
11.1000;0.8547;3.3678;
11.4000;0.8563;3.3630;
11.7000;0.8588;3.3654;
12.0000;0.8580;3.3582;
12.3000;0.8620;3.3654;
12.6000;0.8620;3.3630;
12.9000;0.8669;3.3654;
13.2000;0.8669;3.3559;
13.5000;0.8685;3.3582;
13.8000;0.8694;3.3535;
14.1000;0.8710;3.3582;
14.4000;0.8718;3.3606;
14.7000;0.8751;3.3654;
15.0000;0.8734;3.3559;
15.3000;0.8751;3.3535;
15.6000;0.8783;3.3559;
15.9000;0.8881;3.3726;
16.2000;0.8824;3.3582;
16.5000;0.8816;3.3559;
16.8000;0.8824;3.3487;
17.1000;0.8848;3.3511;
17.4000;0.8807;3.3415;
17.7000;0.8824;3.3463;
18.0000;0.8856;3.3511;
18.3000;0.8856;3.3463;
18.6000;0.8856;3.3463;
18.9000;0.8897;3.3535;
19.2000;0.8897;3.3511;
19.5000;0.8913;3.3582;
19.8000;0.8938;3.3678;
20.1000;0.8913;3.3702;
20.4000;0.8938;3.3678;
20.7000;0.8930;3.3654;
21.0000;0.8946;3.3678;
21.3000;0.8946;3.3678;
21.6000;0.8946;3.3678;
21.9000;0.8962;3.3702;
22.2000;0.8938;3.3702;
22.5000;0.8978;3.3821;
22.8000;0.9027;3.3893;
23.1000;0.8987;3.3750;
23.4000;0.8995;3.3750;
23.7000;0.9019;3.3678;
24.0000;0.9027;3.3678;
24.3000;0.9019;3.3678;
24.6000;0.9084;3.3797;
24.9000;0.9019;3.3702;
25.2000;0.9044;3.3773;
25.5000;0.9052;3.3821;
25.8000;0.9044;3.3821;
26.1000;0.9060;3.3821;
26.4000;0.9052;3.3821;
26.7000;0.9101;3.3821;
27.0000;0.9044;3.3678;
27.3000;0.9068;3.3702;
27.6000;0.9084;3.3702;
27.9000;0.9060;3.3582;
28.2000;0.9076;3.3654;
28.5000;0.9060;3.3654;
28.8000;0.9092;3.3702;
29.1000;0.9084;3.3559;
29.4000;0.9084;3.3582;
29.7000;0.9052;3.3535;
30.0000;0.9117;3.3726;
30.3000;0.9101;3.3654;
30.6000;0.9125;3.3702;
30.9000;0.9101;3.3702;
31.2000;0.9101;3.3797;
31.5000;0.9117;3.3726;
31.8000;0.9084;3.3678;
32.1000;0.9133;3.3726;
32.4000;0.9125;3.3726;
32.7000;0.9166;3.3726;
33.0000;0.9141;3.3630;
33.3000;0.9117;3.3582;
33.6000;0.9158;3.3606;
33.9000;0.9149;3.3559;
34.2000;0.9149;3.3559;
34.5000;0.9125;3.3487;
34.8000;0.9141;3.3559;
35.1000;0.9149;3.3702;
35.4000;0.9174;3.3797;
35.7000;0.9141;3.3702;
36.0000;0.9109;3.3654;
36.3000;0.9149;3.3702;
36.6000;0.9149;3.3726;
36.9000;0.9133;3.3726;
37.2000;0.9141;3.3582;
37.5000;0.9166;3.3582;
37.8000;0.9166;3.3630;
38.1000;0.9158;3.3630;
38.4000;0.9174;3.3654;
38.7000;0.9166;3.3678;
39.0000;0.9166;3.3773;
39.3000;0.9166;3.3726;
39.6000;0.9182;3.3750;
39.9000;0.9174;3.3678;
40.2000;0.9182;3.3559;
40.5000;0.9182;3.3582;
40.8000;0.9174;3.3606;
41.1000;0.9190;3.3726;
41.4000;0.9182;3.3726;
41.7000;0.9166;3.3750;
42.0000;0.9174;3.3773;
42.3000;0.9182;3.3797;
42.6000;0.9190;3.3750;
42.9000;0.9182;3.3821;
43.2000;0.9182;3.3845;
43.5000;0.9206;3.3821;
43.8000;0.9206;3.3893;
44.1000;0.9263;3.3964;
44.4000;0.9214;3.3821;
44.7000;0.9206;3.3726;
45.0000;0.9198;3.3654;
45.3000;0.9198;3.3630;
45.6000;0.9190;3.3678;
45.9000;0.9214;3.3773;
46.2000;0.9158;3.3654;
46.5000;0.9214;3.3845;
46.8000;0.9190;3.3654;
47.1000;0.9190;3.3630;
47.4000;0.9198;3.3606;
47.7000;0.9271;3.3797;
48.0000;0.9280;3.3797;
48.3000;0.9206;3.3654;
48.6000;0.9231;3.3678;
48.9000;0.9231;3.3750;
49.2000;0.9280;3.3750;
49.5000;0.9214;3.3630;
49.8000;0.9223;3.3606;
50.1000;0.9231;3.3606;
50.4000;0.9239;3.3606;
50.7000;0.9247;3.3606;
51.0000;0.9214;3.3630;
51.3000;0.9231;3.3678;
51.6000;0.9117;3.3272;
51.9000;0.9214;3.3511;
52.2000;0.9223;3.3606;
52.5000;0.9198;3.3582;
52.8000;0.9239;3.3750;
53.1000;0.9247;3.3773;
53.4000;0.9231;3.3654;
53.7000;0.9214;3.3582;
54.0000;0.9206;3.3463;
54.3000;0.9214;3.3463;
54.6000;0.9223;3.3439;
54.9000;0.9231;3.3487;
55.2000;0.9231;3.3559;
55.5000;0.9223;3.3487;
55.8000;0.9231;3.3535;
56.1000;0.9239;3.3511;
56.4000;0.9263;3.3606;
56.7000;0.9255;3.3582;
57.0000;0.9296;3.3678;
57.3000;0.9239;3.3654;
57.6000;0.9239;3.3582;
57.9000;0.9255;3.3678;
58.2000;0.9239;3.3606;
58.5000;0.9206;3.3582;
58.8000;0.9255;3.3678;
59.1000;0.9247;3.3606;
59.4000;0.9255;3.3582;
59.7000;0.9247;3.3535;
60.0000;0.9255;3.3630;
60.3000;0.9239;3.3606;
60.6000;0.9206;3.3582;
60.9000;0.9247;3.3630;
61.2000;0.9182;3.3487;
61.5000;0.9255;3.3630;
61.8000;0.9255;3.3559;
62.1000;0.9223;3.3559;
62.4000;0.9247;3.3606;
62.7000;0.9263;3.3702;
63.0000;0.9304;3.3845;
63.3000;0.9247;3.3726;
63.6000;0.9239;3.3582;
63.9000;0.9223;3.3606;
64.2000;0.9247;3.3702;
64.5000;0.9239;3.3678;
64.8000;0.9231;3.3702;
65.1000;0.9271;3.3797;
65.4000;0.9263;3.3773;
65.7000;0.9255;3.3773;
66.0000;0.9255;3.3702;
66.3000;0.9263;3.3678;
66.6000;0.9255;3.3726;
66.9000;0.9263;3.3797;
67.2000;0.9239;3.3678;
67.5000;0.9263;3.3726;
67.8000;0.9263;3.3678;
68.1000;0.9280;3.3750;
68.4000;0.9280;3.3726;
68.7000;0.9263;3.3702;
69.0000;0.9271;3.3773;
69.3000;0.9280;3.3797;
69.6000;0.9271;3.3773;
69.9000;0.9247;3.3654;
70.2000;0.9312;3.3726;
70.5000;0.9223;3.3559;
70.8000;0.9263;3.3582;
71.1000;0.9353;3.3869;
71.4000;0.9223;3.3582;
71.7000;0.9231;3.3535;
72.0000;0.9223;3.3511;
72.3000;0.9247;3.3559;
72.6000;0.9182;3.3392;
72.9000;0.9255;3.3535;
73.2000;0.9280;3.3559;
73.5000;0.9296;3.3606;
73.8000;0.9288;3.3559;
74.1000;0.9288;3.3654;
74.4000;0.9198;3.3511;
74.7000;0.9239;3.3559;
75.0000;0.9239;3.3559;
75.3000;0.9247;3.3535;
75.6000;0.9263;3.3535;
75.9000;0.9280;3.3582;
76.2000;0.9312;3.3630;
76.5000;0.9263;3.3535;
76.8000;0.9255;3.3606;
77.1000;0.9271;3.3630;
77.4000;0.9271;3.3678;
77.7000;0.9271;3.3654;
78.0000;0.9263;3.3750;
78.3000;0.9280;3.3797;
78.6000;0.9280;3.3773;
78.9000;0.9288;3.3726;
79.2000;0.9288;3.3750;
79.5000;0.9296;3.3726;
79.8000;0.9296;3.3773;
80.1000;0.9288;3.3750;
80.4000;0.9280;3.3726;
80.7000;0.9280;3.3678;
81.0000;0.9271;3.3582;
81.3000;0.9271;3.3606;
81.6000;0.9255;3.3582;
81.9000;0.9263;3.3487;
82.2000;0.9288;3.3606;
82.5000;0.9263;3.3535;
82.8000;0.9280;3.3535;
83.1000;0.9271;3.3487;
83.4000;0.9280;3.3487;
83.7000;0.9280;3.3559;
84.0000;0.9271;3.3535;
84.3000;0.9263;3.3606;
84.6000;0.9280;3.3630;
84.9000;0.9271;3.3535;
85.2000;0.9280;3.3511;
85.5000;0.9263;3.3511;
85.8000;0.9271;3.3487;
86.1000;0.9255;3.3392;
86.4000;0.9280;3.3535;
86.7000;0.9263;3.3463;
87.0000;0.9280;3.3535;
87.3000;0.9288;3.3630;
87.6000;0.9271;3.3559;
87.9000;0.9271;3.3582;
88.2000;0.9296;3.3702;
88.5000;0.9288;3.3702;
88.8000;0.9288;3.3750;
89.1000;0.9280;3.3702;
89.4000;0.9255;3.3630;
89.7000;0.9280;3.3702;
90.0000;0.9263;3.3630;
90.3000;0.9271;3.3654;
90.6000;0.9280;3.3630;
90.9000;0.9271;3.3630;
91.2000;0.9263;3.3678;
91.5000;0.9280;3.3630;
91.8000;0.9255;3.3559;
92.1000;0.9280;3.3630;
92.4000;0.9271;3.3654;
92.7000;0.9239;3.3487;
93.0000;0.9271;3.3535;
93.3000;0.9271;3.3606;
93.6000;0.9263;3.3630;
93.9000;0.9280;3.3559;
94.2000;0.9271;3.3559;
94.5000;0.9263;3.3606;
94.8000;0.9271;3.3606;
95.1000;0.9255;3.3654;
95.4000;0.9280;3.3726;
95.7000;0.9280;3.3630;
96.0000;0.9296;3.3630;
96.3000;0.9271;3.3582;
96.6000;0.9263;3.3630;
96.9000;0.9231;3.3559;
97.2000;0.9280;3.3678;
97.5000;0.9288;3.3654;
97.8000;0.9288;3.3678;
98.1000;0.9280;3.3773;
98.4000;0.9271;3.3773;
98.7000;0.9271;3.3750;
99.0000;0.9280;3.3702;
99.3000;0.9288;3.3726;
99.6000;0.9280;3.3797;
99.9000;0.9271;3.3702;
100.2000;0.9223;3.3582;
100.5000;0.9271;3.3630;
100.8000;0.9304;3.3582;
101.1000;0.9296;3.3606;
101.4000;0.9304;3.3678;
101.7000;0.9280;3.3559;
102.0000;0.9288;3.3654;
102.3000;0.9288;3.3654;
102.6000;0.9296;3.3630;
102.9000;0.9296;3.3702;
103.2000;0.9328;3.3773;
103.5000;0.9288;3.3750;
103.8000;0.9296;3.3773;
104.1000;0.9280;3.3726;
104.4000;0.9280;3.3678;
104.7000;0.9280;3.3630;
105.0000;0.9255;3.3535;
105.3000;0.9288;3.3487;
105.6000;0.9280;3.3535;
105.9000;0.9263;3.3582;
106.2000;0.9288;3.3559;
106.5000;0.9280;3.3535;
106.8000;0.9288;3.3511;
107.1000;0.9271;3.3535;
107.4000;0.9345;3.3606;
107.7000;0.9288;3.3511;
108.0000;0.9304;3.3511;
108.3000;0.9271;3.3439;
108.6000;0.9255;3.3511;
108.9000;0.9296;3.3654;
109.2000;0.9296;3.3630;
109.5000;0.9304;3.3750;
109.8000;0.9296;3.3750;
110.1000;0.9296;3.3845;
110.4000;0.9263;3.3773;
110.7000;0.9296;3.3750;
111.0000;0.9296;3.3821;
111.3000;0.9296;3.3773;
111.6000;0.9296;3.3726;
111.9000;0.9288;3.3702;
112.2000;0.9239;3.3630;
112.5000;0.9280;3.3654;
112.8000;0.9288;3.3702;
113.1000;0.9312;3.3702;
113.4000;0.9288;3.3559;
113.7000;0.9288;3.3606;
114.0000;0.9288;3.3630;
114.3000;0.9271;3.3630;
114.6000;0.9288;3.3702;
114.9000;0.9296;3.3702;
115.2000;0.9271;3.3654;
115.5000;0.9296;3.3726;
115.8000;0.9288;3.3750;
116.1000;0.9288;3.3726;
116.4000;0.9288;3.3678;
116.7000;0.9320;3.3630;
117.0000;0.9288;3.3511;
117.3000;0.9280;3.3511;
117.6000;0.9280;3.3535;
117.9000;0.9271;3.3630;
118.2000;0.9271;3.3606;
118.5000;0.9288;3.3511;
118.8000;0.9288;3.3535;
119.1000;0.9288;3.3487;
119.4000;0.9280;3.3487;
119.7000;0.9271;3.3511;
120.0000;0.9288;3.3535;
120.3000;0.9280;3.3559;
120.6000;0.9385;3.3797;
120.9000;0.9296;3.3606;
121.2000;0.9239;3.3439;
121.5000;0.9288;3.3559;
121.8000;0.9328;3.3606;
122.1000;0.9320;3.3582;
122.4000;0.9288;3.3559;
122.7000;0.9288;3.3559;
123.0000;0.9320;3.3630;
123.3000;0.9263;3.3511;
123.6000;0.9263;3.3535;
123.9000;0.9328;3.3726;
124.2000;0.9345;3.3797;
124.5000;0.9296;3.3678;
124.8000;0.9263;3.3630;
125.1000;0.9263;3.3559;
125.4000;0.9304;3.3678;
125.7000;0.9377;3.3821;
126.0000;0.9280;3.3582;
126.3000;0.9288;3.3678;
126.6000;0.9296;3.3702;
126.9000;0.9288;3.3797;
127.2000;0.9239;3.3630;
127.5000;0.9288;3.3750;
127.8000;0.9288;3.3773;
128.1000;0.9280;3.3678;
128.4000;0.9280;3.3773;
128.7000;0.9239;3.3630;
129.0000;0.9280;3.3630;
129.3000;0.9288;3.3702;
129.6000;0.9247;3.3678;
129.9000;0.9280;3.3654;
130.2000;0.9288;3.3678;
130.5000;0.9288;3.3678;
130.8000;0.9271;3.3654;
131.1000;0.9271;3.3654;
131.4000;0.9263;3.3702;
131.7000;0.9288;3.3797;
132.0000;0.9288;3.3678;
132.3000;0.9296;3.3750;
132.6000;0.9288;3.3702;
132.9000;0.9288;3.3726;
133.2000;0.9271;3.3678;
133.5000;0.9296;3.3797;
133.8000;0.9296;3.3773;
134.1000;0.9296;3.3773;
134.4000;0.9288;3.3726;
134.7000;0.9312;3.3773;
135.0000;0.9296;3.3773;
135.3000;0.9312;3.3797;
135.6000;0.9304;3.3797;
135.9000;0.9288;3.3678;
136.2000;0.9304;3.3702;
136.5000;0.9304;3.3726;
136.8000;0.9312;3.3702;
137.1000;0.9296;3.3726;
137.4000;0.9190;3.3487;
137.7000;0.9280;3.3678;
138.0000;0.9296;3.3702;
138.3000;0.9280;3.3726;
138.6000;0.9255;3.3654;
138.9000;0.9288;3.3654;
139.2000;0.9296;3.3630;
139.5000;0.9304;3.3702;
139.8000;0.9328;3.3773;
140.1000;0.9280;3.3726;
140.4000;0.9190;3.3487;
140.7000;0.9304;3.3750;
141.0000;0.9271;3.3654;
141.3000;0.9288;3.3630;
141.6000;0.9312;3.3726;
141.9000;0.9304;3.3678;
142.2000;0.9296;3.3678;
142.5000;0.9271;3.3606;
142.8000;0.9271;3.3630;
143.1000;0.9296;3.3797;
143.4000;0.9288;3.3821;
143.7000;0.9345;3.3964;
144.0000;0.9288;3.3893;
144.3000;0.9304;3.3964;
144.6000;0.9353;3.4084;
144.9000;0.9296;3.3869;
145.2000;0.9288;3.3654;
145.5000;0.9304;3.3606;
145.8000;0.9288;3.3535;
146.1000;0.9296;3.3535;
146.4000;0.9288;3.3535;
146.7000;0.9320;3.3582;
147.0000;0.9288;3.3559;
147.3000;0.9296;3.3535;
147.6000;0.9247;3.3415;
147.9000;0.9353;3.3773;
148.2000;0.9288;3.3726;
148.5000;0.9304;3.3702;
148.8000;0.9231;3.3582;
149.1000;0.9296;3.3678;
149.4000;0.9288;3.3726;
149.7000;0.9328;3.3773;
150.0000;0.9280;3.3702;
150.3000;0.9288;3.3702;
150.6000;0.9288;3.3654;
150.9000;0.9312;3.3606;
151.2000;0.9312;3.3535;
151.5000;0.9288;3.3439;
151.8000;0.9296;3.3487;
152.1000;0.9312;3.3535;
152.4000;0.9304;3.3535;
152.7000;0.9296;3.3511;
153.0000;0.9288;3.3511;
153.3000;0.9288;3.3559;
153.6000;0.9280;3.3559;
153.9000;0.9288;3.3582;
154.2000;0.9271;3.3606;
154.5000;0.9288;3.3582;
154.8000;0.9304;3.3630;
155.1000;0.9304;3.3654;
155.4000;0.9288;3.3678;
155.7000;0.9288;3.3654;
156.0000;0.9312;3.3726;
156.3000;0.9304;3.3630;
156.6000;0.9288;3.3582;
156.9000;0.9296;3.3630;
157.2000;0.9271;3.3559;
157.5000;0.9296;3.3487;
157.8000;0.9280;3.3511;
158.1000;0.9271;3.3487;
158.4000;0.9304;3.3582;
158.7000;0.9288;3.3535;
159.0000;0.9320;3.3630;
159.3000;0.9304;3.3630;
159.6000;0.9296;3.3678;
159.9000;0.9320;3.3630;
160.2000;0.9304;3.3678;
160.5000;0.9296;3.3630;
160.8000;0.9296;3.3654;
161.1000;0.9296;3.3606;
161.4000;0.9296;3.3654;
161.7000;0.9402;3.3893;
162.0000;0.9296;3.3702;
162.3000;0.9288;3.3702;
162.6000;0.9296;3.3654;
162.9000;0.9288;3.3559;
163.2000;0.9328;3.3797;
163.5000;0.9288;3.3726;
163.8000;0.9280;3.3630;
164.1000;0.9345;3.3750;
164.4000;0.9312;3.3606;
164.7000;0.9320;3.3630;
165.0000;0.9304;3.3559;
165.3000;0.9304;3.3511;
165.6000;0.9296;3.3511;
165.9000;0.9280;3.3463;
166.2000;0.9304;3.3535;
166.5000;0.9328;3.3559;
166.8000;0.9271;3.3559;
167.1000;0.9288;3.3654;
167.4000;0.9271;3.3654;
167.7000;0.9263;3.3702;
168.0000;0.9288;3.3702;
168.3000;0.9247;3.3630;
168.6000;0.9280;3.3726;
168.9000;0.9320;3.3750;
169.2000;0.9320;3.3678;
169.5000;0.9296;3.3630;
169.8000;0.9231;3.3582;
170.1000;0.9280;3.3773;
170.4000;0.9271;3.3750;
170.7000;0.9296;3.3773;
171.0000;0.9304;3.3750;
171.3000;0.9263;3.3654;
171.6000;0.9304;3.3678;
171.9000;0.9320;3.3726;
172.2000;0.9255;3.3654;
172.5000;0.9280;3.3630;
172.8000;0.9280;3.3678;
173.1000;0.9280;3.3654;
173.4000;0.9280;3.3511;
173.7000;0.9288;3.3535;
174.0000;0.9263;3.3559;
174.3000;0.9288;3.3654;
174.6000;0.9320;3.3678;
174.9000;0.9337;3.3726;
175.2000;0.9328;3.3678;
175.5000;0.9304;3.3702;
175.8000;0.9296;3.3702;
176.1000;0.9328;3.3773;
176.4000;0.9304;3.3702;
176.7000;0.9288;3.3702;
177.0000;0.9280;3.3606;
177.3000;0.9312;3.3678;
177.6000;0.9328;3.3702;
177.9000;0.9288;3.3630;
178.2000;0.9320;3.3678;
178.5000;0.9288;3.3511;
178.8000;0.9280;3.3487;
179.1000;0.9328;3.3630;
179.4000;0.9320;3.3559;
179.7000;0.9280;3.3511;
180.0000;0.9288;3.3511;
180.3000;0.9296;3.3606;
180.6000;0.9296;3.3559;
180.9000;0.9320;3.3606;
181.2000;0.9296;3.3582;
181.5000;0.9296;3.3535;
181.8000;0.9296;3.3535;
182.1000;0.9312;3.3606;
182.4000;0.9280;3.3702;
182.7000;0.9263;3.3606;
183.0000;0.9288;3.3750;
183.3000;0.9271;3.3797;
183.6000;0.9280;3.3821;
183.9000;0.9312;3.3797;
184.2000;0.9296;3.3773;
184.5000;0.9280;3.3750;
184.8000;0.9304;3.3797;
185.1000;0.9304;3.3773;
185.4000;0.9280;3.3773;
185.7000;0.9296;3.3678;
186.0000;0.9328;3.3750;
186.3000;0.9296;3.3726;
186.6000;0.9296;3.3773;
186.9000;0.9271;3.3750;
187.2000;0.9288;3.3773;
187.5000;0.9304;3.3821;
187.8000;0.9271;3.3773;
188.1000;0.9271;3.3750;
188.4000;0.9263;3.3726;
188.7000;0.9296;3.3654;
189.0000;0.9320;3.3606;
189.3000;0.9312;3.3559;
189.6000;0.9312;3.3535;
189.9000;0.9312;3.3559;
190.2000;0.9304;3.3630;
190.5000;0.9296;3.3535;
190.8000;0.9288;3.3582;
191.1000;0.9296;3.3606;
191.4000;0.9337;3.3654;
191.7000;0.9288;3.3582;
192.0000;0.9280;3.3582;
192.3000;0.9296;3.3726;
192.6000;0.9304;3.3702;
192.9000;0.9280;3.3630;
193.2000;0.9288;3.3654;
193.5000;0.9280;3.3606;
193.8000;0.9280;3.3606;
194.1000;0.9304;3.3654;
194.4000;0.9296;3.3630;
194.7000;0.9271;3.3559;
195.0000;0.9304;3.3630;
195.3000;0.9369;3.3773;
195.6000;0.9296;3.3559;
195.9000;0.9288;3.3559;
196.2000;0.9296;3.3630;
196.5000;0.9296;3.3678;
196.8000;0.9296;3.3654;
197.1000;0.9280;3.3678;
197.4000;0.9304;3.3726;
197.7000;0.9288;3.3726;
198.0000;0.9288;3.3702;
198.3000;0.9320;3.3797;
198.6000;0.9280;3.3726;
198.9000;0.9288;3.3773;
199.2000;0.9337;3.3797;
199.5000;0.9288;3.3702;
199.8000;0.9280;3.3654;
200.1000;0.9280;3.3606;
200.4000;0.9296;3.3511;
200.7000;0.9296;3.3511;
201.0000;0.9271;3.3535;
201.3000;0.9296;3.3559;
201.6000;0.9304;3.3726;
201.9000;0.9263;3.3606;
202.2000;0.9296;3.3678;
202.5000;0.9304;3.3654;
202.8000;0.9296;3.3559;
203.1000;0.9280;3.3439;
203.4000;0.9337;3.3487;
203.7000;0.9296;3.3320;
204.0000;0.9263;3.3272;
204.3000;0.9304;3.3344;
204.6000;0.9296;3.3368;
204.9000;0.9337;3.3463;
205.2000;0.9304;3.3487;
205.5000;0.9304;3.3511;
205.8000;0.9296;3.3559;
206.1000;0.9296;3.3582;
206.4000;0.9280;3.3582;
206.7000;0.9288;3.3630;
207.0000;0.9304;3.3678;
207.3000;0.9288;3.3606;
207.6000;0.9280;3.3654;
207.9000;0.9280;3.3582;
208.2000;0.9288;3.3511;
208.5000;0.9296;3.3535;
208.8000;0.9280;3.3487;
209.1000;0.9280;3.3487;
209.4000;0.9304;3.3535;
209.7000;0.9377;3.3702;
210.0000;0.9288;3.3511;
210.3000;0.9304;3.3559;
210.6000;0.9304;3.3582;
210.9000;0.9296;3.3630;
211.2000;0.9288;3.3606;
211.5000;0.9280;3.3630;
211.8000;0.9288;3.3582;
212.1000;0.9296;3.3582;
212.4000;0.9271;3.3487;
212.7000;0.9255;3.3439;
213.0000;0.9280;3.3606;
213.3000;0.9280;3.3630;
213.6000;0.9320;3.3702;
213.9000;0.9288;3.3654;
214.2000;0.9288;3.3606;
214.5000;0.9296;3.3702;
214.8000;0.9304;3.3726;
215.1000;0.9280;3.3630;
215.4000;0.9296;3.3559;
215.7000;0.9312;3.3487;
216.0000;0.9296;3.3511;
216.3000;0.9304;3.3606;
216.6000;0.9288;3.3630;
216.9000;0.9288;3.3678;
217.2000;0.9288;3.3630;
217.5000;0.9288;3.3559;
217.8000;0.9296;3.3511;
218.1000;0.9280;3.3392;
218.4000;0.9280;3.3392;
218.7000;0.9288;3.3439;
219.0000;0.9288;3.3392;
219.3000;0.9296;3.3415;
219.6000;0.9320;3.3487;
219.9000;0.9271;3.3368;
220.2000;0.9280;3.3487;
220.5000;0.9296;3.3487;
220.8000;0.9288;3.3559;
221.1000;0.9288;3.3582;
221.4000;0.9296;3.3582;
221.7000;0.9304;3.3582;
222.0000;0.9312;3.3630;
222.3000;0.9296;3.3582;
222.6000;0.9312;3.3654;
222.9000;0.9304;3.3678;
223.2000;0.9296;3.3606;
223.5000;0.9288;3.3654;
223.8000;0.9304;3.3702;
224.1000;0.9288;3.3678;
224.4000;0.9312;3.3678;
224.7000;0.9312;3.3606;
225.0000;0.9296;3.3654;
225.3000;0.9304;3.3678;
225.6000;0.9320;3.3750;
225.9000;0.9280;3.3726;
226.2000;0.9296;3.3773;
226.5000;0.9312;3.3750;
226.8000;0.9288;3.3630;
227.1000;0.9288;3.3606;
227.4000;0.9231;3.3463;
227.7000;0.9288;3.3654;
228.0000;0.9280;3.3678;
228.3000;0.9288;3.3654;
228.6000;0.9288;3.3582;
228.9000;0.9328;3.3630;
229.2000;0.9288;3.3487;
229.5000;0.9304;3.3535;
229.8000;0.9328;3.3654;
230.1000;0.9288;3.3630;
230.4000;0.9280;3.3726;
230.7000;0.9353;3.3773;
231.0000;0.9288;3.3582;
231.3000;0.9288;3.3606;
231.6000;0.9296;3.3654;
231.9000;0.9296;3.3702;
232.2000;0.9263;3.3606;
232.5000;0.9296;3.3726;
232.8000;0.9288;3.3750;
233.1000;0.9288;3.3773;
233.4000;0.9296;3.3678;
233.7000;0.9296;3.3630;
234.0000;0.9271;3.3582;
234.3000;0.9280;3.3678;
234.6000;0.9271;3.3726;
234.9000;0.9288;3.3702;
235.2000;0.9271;3.3726;
235.5000;0.9280;3.3750;
235.8000;0.9288;3.3750;
236.1000;0.9288;3.3750;
236.4000;0.9369;3.3917;
236.7000;0.9223;3.3559;
237.0000;0.9271;3.3726;
237.3000;0.9280;3.3726;
237.6000;0.9280;3.3726;
237.9000;0.9304;3.3726;
238.2000;0.9271;3.3678;
238.5000;0.9361;3.3821;
238.8000;0.9255;3.3630;
239.1000;0.9288;3.3678;
239.4000;0.9263;3.3582;
239.7000;0.9239;3.3606;
240.0000;0.9328;3.3726;
240.3000;0.9296;3.3606;
240.6000;0.9288;3.3606;
240.9000;0.9304;3.3630;
241.2000;0.9296;3.3606;
241.5000;0.9280;3.3630;
241.8000;0.9296;3.3582;
242.1000;0.9288;3.3511;
242.4000;0.9280;3.3630;
242.7000;0.9288;3.3630;
243.0000;0.9263;3.3511;
243.3000;0.9288;3.3559;
243.6000;0.9280;3.3535;
243.9000;0.9280;3.3535;
244.2000;0.9296;3.3559;
244.5000;0.9304;3.3678;
244.8000;0.9255;3.3487;
245.1000;0.9288;3.3630;
245.4000;0.9296;3.3559;
245.7000;0.9296;3.3487;
246.0000;0.9304;3.3511;
246.3000;0.9296;3.3487;
246.6000;0.9304;3.3559;
246.9000;0.9296;3.3582;
247.2000;0.9296;3.3559;
247.5000;0.9312;3.3559;
247.8000;0.9288;3.3344;
248.1000;0.9288;3.3392;
248.4000;0.9271;3.3415;
248.7000;0.9288;3.3511;
249.0000;0.9280;3.3439;
249.3000;0.9288;3.3511;
249.6000;0.9280;3.3392;
249.9000;0.9280;3.3415;
250.2000;0.9271;3.3368;
250.5000;0.9288;3.3392;
250.8000;0.9296;3.3463;
251.1000;0.9296;3.3559;
251.4000;0.9304;3.3630;
251.7000;0.9280;3.3582;
252.0000;0.9271;3.3630;
252.3000;0.9288;3.3606;
252.6000;0.9288;3.3582;
252.9000;0.9288;3.3511;
253.2000;0.9288;3.3630;
253.5000;0.9280;3.3654;
253.8000;0.9296;3.3678;
254.1000;0.9304;3.3654;
254.4000;0.9280;3.3582;
254.7000;0.9304;3.3726;
255.0000;0.9288;3.3702;
255.3000;0.9304;3.3678;
255.6000;0.9271;3.3606;
255.9000;0.9296;3.3630;
256.2000;0.9247;3.3415;
256.5000;0.9312;3.3535;
256.8000;0.9288;3.3630;
257.1000;0.9280;3.3606;
257.4000;0.9288;3.3630;
257.7000;0.9328;3.3797;
258.0000;0.9239;3.3559;
258.3000;0.9280;3.3726;
258.6000;0.9255;3.3678;
258.9000;0.9296;3.3678;
259.2000;0.9288;3.3606;
259.5000;0.9214;3.3368;
259.8000;0.9296;3.3559;
260.1000;0.9280;3.3606;
260.4000;0.9280;3.3654;
260.7000;0.9288;3.3678;
261.0000;0.9280;3.3582;
261.3000;0.9296;3.3582;
261.6000;0.9296;3.3654;
261.9000;0.9296;3.3726;
262.2000;0.9280;3.3750;
262.5000;0.9263;3.3797;
262.8000;0.9288;3.3869;
263.1000;0.9288;3.3797;
263.4000;0.9296;3.3726;
263.7000;0.9353;3.4012;
264.0000;0.9345;3.3964;
264.3000;0.9296;3.3797;
264.6000;0.9239;3.3630;
264.9000;0.9296;3.3750;
265.2000;0.9288;3.3750;
265.5000;0.9280;3.3702;
265.8000;0.9288;3.3702;
266.1000;0.9288;3.3630;
266.4000;0.9288;3.3630;
266.7000;0.9296;3.3678;
267.0000;0.9280;3.3750;
267.3000;0.9280;3.3773;
267.6000;0.9271;3.3773;
267.9000;0.9255;3.3702;
268.2000;0.9288;3.3678;
268.5000;0.9280;3.3726;
268.8000;0.9280;3.3678;
269.1000;0.9288;3.3797;
269.4000;0.9280;3.3821;
269.7000;0.9263;3.3821;
270.0000;0.9271;3.3821;
270.3000;0.9255;3.3797;
270.6000;0.9280;3.3821;
270.9000;0.9280;3.3845;
271.2000;0.9263;3.3750;
271.5000;0.9337;3.3893;
271.8000;0.9280;3.3845;
272.1000;0.9255;3.3750;
272.4000;0.9271;3.3750;
272.7000;0.9255;3.3702;
273.0000;0.9296;3.3726;
273.3000;0.9280;3.3678;
273.6000;0.9328;3.3773;
273.9000;0.9263;3.3678;
274.2000;0.9271;3.3750;
274.5000;0.9288;3.3750;
274.8000;0.9280;3.3773;
275.1000;0.9263;3.3750;
275.4000;0.9320;3.3821;
275.7000;0.9328;3.3750;
276.0000;0.9296;3.3726;
276.3000;0.9288;3.3726;
276.6000;0.9280;3.3702;
276.9000;0.9288;3.3702;
277.2000;0.9288;3.3606;
277.5000;0.9271;3.3511;
277.8000;0.9369;3.3606;
278.1000;0.9280;3.3415;
278.4000;0.9280;3.3582;
278.7000;0.9280;3.3582;
279.0000;0.9288;3.3463;
279.3000;0.9280;3.3392;
279.6000;0.9304;3.3463;
279.9000;0.9288;3.3487;
280.2000;0.9288;3.3511;
280.5000;0.9304;3.3654;
280.8000;0.9280;3.3678;
281.1000;0.9288;3.3750;
281.4000;0.9288;3.3845;
281.7000;0.9263;3.3797;
282.0000;0.9271;3.3797;
282.3000;0.9304;3.3917;
282.6000;0.9263;3.3893;
282.9000;0.9296;3.3940;
283.2000;0.9288;3.3917;
283.5000;0.9263;3.3797;
283.8000;0.9255;3.3845;
284.1000;0.9263;3.3702;
284.4000;0.9255;3.3702;
284.7000;0.9255;3.3726;
285.0000;0.9271;3.3702;
285.3000;0.9255;3.3726;
285.6000;0.9239;3.3797;
285.9000;0.9255;3.3797;
286.2000;0.9271;3.3845;
286.5000;0.9280;3.3773;
286.8000;0.9280;3.3726;
287.1000;0.9239;3.3582;
287.4000;0.9247;3.3702;
287.7000;0.9280;3.3797;
288.0000;0.9280;3.3750;
288.3000;0.9361;3.3893;
288.6000;0.9271;3.3797;
288.9000;0.9280;3.3773;
289.2000;0.9288;3.3773;
289.5000;0.9280;3.3773;
289.8000;0.9296;3.3750;
290.1000;0.9280;3.3702;
290.4000;0.9296;3.3750;
290.7000;0.9304;3.3797;
291.0000;0.9312;3.3845;
291.3000;0.9337;3.3940;
291.6000;0.9263;3.3702;
291.9000;0.9320;3.3821;
292.2000;0.9304;3.3750;
292.5000;0.9288;3.3750;
292.8000;0.9271;3.3773;
293.1000;0.9288;3.3893;
293.4000;0.9280;3.3726;
293.7000;0.9271;3.3702;
294.0000;0.9231;3.3559;
294.3000;0.9288;3.3750;
294.6000;0.9288;3.3654;
294.9000;0.9296;3.3702;
295.2000;0.9304;3.3750;
295.5000;0.9239;3.3654;
295.8000;0.9304;3.3797;
296.1000;0.9271;3.3702;
296.4000;0.9271;3.3678;
296.7000;0.9312;3.3702;
297.0000;0.9280;3.3582;
297.3000;0.9280;3.3535;
297.6000;0.9231;3.3439;
297.9000;0.9337;3.3726;
298.2000;0.9280;3.3511;
298.5000;0.9271;3.3511;
298.8000;0.9337;3.3582;
299.1000;0.9271;3.3392;
299.4000;0.9190;3.3224;
299.7000;0.9255;3.3487;
300.0000;0.9271;3.3582;
300.3000;0.9280;3.3630;
300.6000;0.9280;3.3654;
300.9000;0.9288;3.3678;
301.2000;0.9271;3.3606;
301.5000;0.9271;3.3630;
301.8000;0.9345;3.3821;
302.1000;0.9271;3.3678;
302.4000;0.9280;3.3630;
302.7000;0.9247;3.3702;
303.0000;0.9280;3.3797;
303.3000;0.9288;3.3797;
303.6000;0.9296;3.3654;
303.9000;0.9271;3.3582;
304.2000;0.9280;3.3606;
304.5000;0.9288;3.3726;
304.8000;0.9304;3.3750;
305.1000;0.9280;3.3654;
305.4000;0.9271;3.3463;
305.7000;0.9296;3.3511;
306.0000;0.9255;3.3511;
306.3000;0.9263;3.3606;
306.6000;0.9271;3.3702;
306.9000;0.9263;3.3750;
307.2000;0.9288;3.3750;
307.5000;0.9304;3.3654;
307.8000;0.9280;3.3606;
308.1000;0.9280;3.3559;
308.4000;0.9280;3.3582;
308.7000;0.9263;3.3559;
309.0000;0.9280;3.3582;
309.3000;0.9296;3.3702;
309.6000;0.9288;3.3750;
309.9000;0.9328;3.3750;
310.2000;0.9296;3.3678;
310.5000;0.9288;3.3630;
310.8000;0.9288;3.3702;
311.1000;0.9296;3.3750;
311.4000;0.9296;3.3678;
311.7000;0.9280;3.3582;
312.0000;0.9320;3.3582;
312.3000;0.9288;3.3439;
312.6000;0.9271;3.3392;
312.9000;0.9247;3.3392;
313.2000;0.9263;3.3487;
313.5000;0.9288;3.3606;
313.8000;0.9280;3.3630;
314.1000;0.9271;3.3630;
314.4000;0.9288;3.3726;
314.7000;0.9271;3.3726;
315.0000;0.9280;3.3630;
315.3000;0.9280;3.3654;
315.6000;0.9255;3.3630;
315.9000;0.9288;3.3678;
316.2000;0.9239;3.3559;
316.5000;0.9271;3.3654;
316.8000;0.9280;3.3582;
317.1000;0.9288;3.3606;
317.4000;0.9296;3.3606;
317.7000;0.9280;3.3559;
318.0000;0.9377;3.3821;
318.3000;0.9271;3.3559;
318.6000;0.9280;3.3582;
318.9000;0.9280;3.3654;
319.2000;0.9296;3.3678;
319.5000;0.9247;3.3487;
319.8000;0.9280;3.3511;
320.1000;0.9214;3.3487;
320.4000;0.9239;3.3582;
320.7000;0.9280;3.3582;
321.0000;0.9271;3.3606;
321.3000;0.9296;3.3630;
321.6000;0.9255;3.3535;
321.9000;0.9271;3.3559;
322.2000;0.9271;3.3559;
322.5000;0.9280;3.3630;
322.8000;0.9312;3.3678;
323.1000;0.9288;3.3630;
323.4000;0.9296;3.3678;
323.7000;0.9214;3.3559;
324.0000;0.9271;3.3654;
324.3000;0.9280;3.3726;
324.6000;0.9271;3.3726;
324.9000;0.9280;3.3750;
325.2000;0.9304;3.3797;
325.5000;0.9271;3.3678;
325.8000;0.9247;3.3559;
326.1000;0.9288;3.3678;
326.4000;0.9296;3.3678;
326.7000;0.9296;3.3606;
327.0000;0.9296;3.3582;
327.3000;0.9280;3.3630;
327.6000;0.9280;3.3630;
327.9000;0.9304;3.3559;
328.2000;0.9271;3.3463;
328.5000;0.9304;3.3559;
328.8000;0.9296;3.3630;
329.1000;0.9296;3.3654;
329.4000;0.9271;3.3606;
329.7000;0.9271;3.3535;
330.0000;0.9296;3.3582;
330.3000;0.9280;3.3559;
330.6000;0.9353;3.3702;
330.9000;0.9288;3.3606;
331.2000;0.9280;3.3630;
331.5000;0.9231;3.3606;
331.8000;0.9263;3.3678;
332.1000;0.9280;3.3726;
332.4000;0.9271;3.3773;
332.7000;0.9296;3.3797;
333.0000;0.9280;3.3773;
333.3000;0.9247;3.3654;
333.6000;0.9263;3.3702;
333.9000;0.9280;3.3726;
334.2000;0.9263;3.3726;
334.5000;0.9271;3.3678;
334.8000;0.9271;3.3702;
335.1000;0.9271;3.3726;
335.4000;0.9280;3.3726;
335.7000;0.9280;3.3773;
336.0000;0.9263;3.3773;
336.3000;0.9288;3.3845;
336.6000;0.9296;3.3845;
336.9000;0.9271;3.3773;
337.2000;0.9255;3.3654;
337.5000;0.9280;3.3606;
337.8000;0.9304;3.3606;
338.1000;0.9320;3.3702;
338.4000;0.9312;3.3654;
338.7000;0.9280;3.3630;
339.0000;0.9288;3.3726;
339.3000;0.9271;3.3750;
339.6000;0.9263;3.3726;
339.9000;0.9263;3.3678;
340.2000;0.9263;3.3702;
340.5000;0.9263;3.3678;
340.8000;0.9255;3.3654;
341.1000;0.9280;3.3726;
341.4000;0.9271;3.3750;
341.7000;0.9280;3.3845;
342.0000;0.9288;3.3797;
342.3000;0.9271;3.3797;
342.6000;0.9288;3.3869;
342.9000;0.9288;3.3869;
343.2000;0.9280;3.3821;
343.5000;0.9288;3.3821;
343.8000;0.9288;3.3821;
344.1000;0.9320;3.3821;
344.4000;0.9231;3.3630;
344.7000;0.9271;3.3773;
345.0000;0.9271;3.3821;
345.3000;0.9263;3.3869;
345.6000;0.9280;3.3869;
345.9000;0.9271;3.3750;
346.2000;0.9288;3.3678;
346.5000;0.9304;3.3606;
346.8000;0.9320;3.3678;
347.1000;0.9280;3.3559;
347.4000;0.9304;3.3582;
347.7000;0.9263;3.3582;
348.0000;0.9280;3.3630;
348.3000;0.9280;3.3654;
348.6000;0.9320;3.3821;
348.9000;0.9271;3.3797;
349.2000;0.9239;3.3821;
349.5000;0.9280;3.3845;
349.8000;0.9271;3.3726;
350.1000;0.9247;3.3702;
350.4000;0.9271;3.3750;
350.7000;0.9345;3.3845;
351.0000;0.9247;3.3559;
351.3000;0.9271;3.3654;
351.6000;0.9288;3.3702;
351.9000;0.9296;3.3726;
352.2000;0.9328;3.3821;
352.5000;0.9288;3.3678;
352.8000;0.9271;3.3654;
353.1000;0.9231;3.3415;
353.4000;0.9280;3.3582;
353.7000;0.9280;3.3582;
354.0000;0.9304;3.3654;
354.3000;0.9280;3.3702;
354.6000;0.9214;3.3582;
354.9000;0.9263;3.3726;
355.2000;0.9271;3.3702;
355.5000;0.9337;3.3821;
355.8000;0.9288;3.3654;
356.1000;0.9271;3.3654;
356.4000;0.9288;3.3678;
356.7000;0.9271;3.3678;
357.0000;0.9271;3.3750;
357.3000;0.9288;3.3750;
357.6000;0.9288;3.3750;
357.9000;0.9239;3.3582;
358.2000;0.9280;3.3630;
358.5000;0.9304;3.3726;
358.8000;0.9271;3.3678;
359.1000;0.9288;3.3678;
359.4000;0.9288;3.3702;
359.7000;0.9280;3.3678;
360.0000;0.9337;3.3797;
360.3000;0.9280;3.3654;
360.6000;0.9271;3.3630;
360.9000;0.9280;3.3630;
361.2000;0.9271;3.3773;
361.5000;0.9271;3.3773;
361.8000;0.9271;3.3750;
362.1000;0.9280;3.3750;
362.4000;0.9280;3.3702;
362.7000;0.9255;3.3702;
363.0000;0.9271;3.3702;
363.3000;0.9280;3.3750;
363.6000;0.9288;3.3678;
363.9000;0.9271;3.3726;
364.2000;0.9271;3.3869;
364.5000;0.9280;3.3773;
364.8000;0.9206;3.3630;
365.1000;0.9247;3.3654;
365.4000;0.9320;3.3773;
365.7000;0.9288;3.3678;
366.0000;0.9271;3.3654;
366.3000;0.9271;3.3630;
366.6000;0.9271;3.3678;
366.9000;0.9337;3.3869;
367.2000;0.9271;3.3654;
367.5000;0.9288;3.3606;
367.8000;0.9312;3.3630;
368.1000;0.9345;3.3678;
368.4000;0.9271;3.3582;
368.7000;0.9288;3.3678;
369.0000;0.9280;3.3726;
369.3000;0.9271;3.3678;
369.6000;0.9263;3.3702;
369.9000;0.9280;3.3678;
370.2000;0.9263;3.3582;
370.5000;0.9271;3.3535;
370.8000;0.9255;3.3606;
371.1000;0.9263;3.3582;
371.4000;0.9288;3.3606;
371.7000;0.9304;3.3606;
372.0000;0.9288;3.3654;
372.3000;0.9288;3.3678;
372.6000;0.9271;3.3702;
372.9000;0.9288;3.3726;
373.2000;0.9288;3.3726;
373.5000;0.9288;3.3702;
373.8000;0.9263;3.3654;
374.1000;0.9271;3.3511;
374.4000;0.9271;3.3392;
374.7000;0.9369;3.3535;
375.0000;0.9271;3.3368;
375.3000;0.9263;3.3392;
375.6000;0.9271;3.3463;
375.9000;0.9271;3.3535;
376.2000;0.9271;3.3511;
376.5000;0.9288;3.3535;
376.8000;0.9255;3.3415;
377.1000;0.9271;3.3535;
377.4000;0.9271;3.3535;
377.7000;0.9312;3.3606;
378.0000;0.9255;3.3511;
378.3000;0.9271;3.3630;
378.6000;0.9247;3.3559;
378.9000;0.9280;3.3702;
379.2000;0.9280;3.3821;
379.5000;0.9280;3.3797;
379.8000;0.9271;3.3750;
380.1000;0.9296;3.3773;
380.4000;0.9263;3.3678;
380.7000;0.9271;3.3702;
381.0000;0.9280;3.3750;
381.3000;0.9263;3.3678;
381.6000;0.9263;3.3678;
381.9000;0.9263;3.3630;
382.2000;0.9263;3.3630;
382.5000;0.9296;3.3678;
382.8000;0.9280;3.3726;
383.1000;0.9280;3.3726;
383.4000;0.9296;3.3726;
383.7000;0.9280;3.3821;
384.0000;0.9280;3.3797;
384.3000;0.9280;3.3845;
384.6000;0.9296;3.3845;
384.9000;0.9296;3.3869;
385.2000;0.9304;3.4012;
385.5000;0.9296;3.3917;
385.8000;0.9271;3.3893;
386.1000;0.9296;3.3940;
386.4000;0.9320;3.3964;
386.7000;0.9263;3.3821;
387.0000;0.9263;3.3797;
387.3000;0.9263;3.3821;
387.6000;0.9288;3.3940;
387.9000;0.9263;3.3893;
388.2000;0.9263;3.3893;
388.5000;0.9271;3.3893;
388.8000;0.9223;3.3678;
389.1000;0.9288;3.3773;
389.4000;0.9271;3.3797;
389.7000;0.9288;3.3821;
390.0000;0.9231;3.3582;
390.3000;0.9271;3.3606;
390.6000;0.9304;3.3630;
390.9000;0.9288;3.3559;
391.2000;0.9263;3.3487;
391.5000;0.9345;3.3654;
391.8000;0.9263;3.3487;
392.1000;0.9280;3.3487;
392.4000;0.9271;3.3511;
392.7000;0.9320;3.3654;
393.0000;0.9288;3.3654;
393.3000;0.9280;3.3678;
393.6000;0.9320;3.3821;
393.9000;0.9263;3.3726;
394.2000;0.9206;3.3630;
394.5000;0.9271;3.3678;
394.8000;0.9280;3.3630;
395.1000;0.9296;3.3606;
395.4000;0.9271;3.3582;
395.7000;0.9320;3.3630;
396.0000;0.9280;3.3487;
396.3000;0.9296;3.3535;
396.6000;0.9280;3.3606;
396.9000;0.9263;3.3606;
397.2000;0.9337;3.3750;
397.5000;0.9288;3.3606;
397.8000;0.9320;3.3678;
398.1000;0.9296;3.3726;
398.4000;0.9280;3.3702;
398.7000;0.9288;3.3797;
399.0000;0.9263;3.3654;
399.3000;0.9263;3.3702;
399.6000;0.9280;3.3678;
399.9000;0.9271;3.3750;
400.2000;0.9271;3.3726;
400.5000;0.9271;3.3678;
400.8000;0.9263;3.3678;
401.1000;0.9280;3.3678;
401.4000;0.9304;3.3726;
401.7000;0.9280;3.3678;
402.0000;0.9280;3.3678;
402.3000;0.9280;3.3773;
402.6000;0.9288;3.3773;
402.9000;0.9280;3.3654;
403.2000;0.9263;3.3582;
403.5000;0.9263;3.3582;
403.8000;0.9271;3.3630;
404.1000;0.9271;3.3606;
404.4000;0.9271;3.3582;
404.7000;0.9239;3.3487;
405.0000;0.9255;3.3654;
405.3000;0.9255;3.3654;
405.6000;0.9239;3.3630;
405.9000;0.9280;3.3797;
406.2000;0.9312;3.3797;
406.5000;0.9263;3.3678;
406.8000;0.9288;3.3678;
407.1000;0.9247;3.3582;
407.4000;0.9280;3.3678;
407.7000;0.9288;3.3726;
408.0000;0.9296;3.3726;
408.3000;0.9312;3.3726;
408.6000;0.9271;3.3654;
408.9000;0.9271;3.3678;
409.2000;0.9288;3.3702;
409.5000;0.9296;3.3702;
409.8000;0.9271;3.3678;
410.1000;0.9263;3.3606;
410.4000;0.9263;3.3654;
410.7000;0.9263;3.3702;
411.0000;0.9288;3.3702;
411.3000;0.9263;3.3606;
411.6000;0.9320;3.3750;
411.9000;0.9312;3.3750;
412.2000;0.9247;3.3702;
412.5000;0.9271;3.3702;
412.8000;0.9280;3.3702;
413.1000;0.9255;3.3654;
413.4000;0.9280;3.3726;
413.7000;0.9271;3.3726;
414.0000;0.9247;3.3726;
414.3000;0.9263;3.3726;
414.6000;0.9223;3.3702;
414.9000;0.9263;3.3750;
415.2000;0.9263;3.3702;
415.5000;0.9304;3.3726;
415.8000;0.9280;3.3702;
416.1000;0.9271;3.3630;
416.4000;0.9304;3.3773;
416.7000;0.9280;3.3702;
417.0000;0.9280;3.3702;
417.3000;0.9280;3.3654;
417.6000;0.9271;3.3678;
417.9000;0.9271;3.3869;
418.2000;0.9263;3.3797;
418.5000;0.9288;3.3773;
418.8000;0.9320;3.3773;
419.1000;0.9263;3.3702;
419.4000;0.9271;3.3797;
419.7000;0.9255;3.3821;
420.0000;0.9263;3.3869;
420.3000;0.9271;3.3917;
420.6000;0.9271;3.3845;
420.9000;0.9263;3.3750;
421.2000;0.9239;3.3606;
421.5000;0.9280;3.3750;
421.8000;0.9271;3.3678;
422.1000;0.9296;3.3702;
422.4000;0.9271;3.3702;
422.7000;0.9280;3.3726;
423.0000;0.9280;3.3726;
423.3000;0.9247;3.3559;
423.6000;0.9271;3.3654;
423.9000;0.9304;3.3678;
424.2000;0.9296;3.3630;
424.5000;0.9296;3.3654;
424.8000;0.9280;3.3630;
425.1000;0.9263;3.3559;
425.4000;0.9280;3.3582;
425.7000;0.9271;3.3582;
426.0000;0.9280;3.3630;
426.3000;0.9271;3.3559;
426.6000;0.9263;3.3487;
426.9000;0.9206;3.3272;
427.2000;0.9280;3.3463;
427.5000;0.9263;3.3511;
427.8000;0.9280;3.3606;
428.1000;0.9280;3.3678;
428.4000;0.9271;3.3797;
428.7000;0.9296;3.3845;
429.0000;0.9255;3.3750;
429.3000;0.9296;3.3845;
429.6000;0.9280;3.3773;
429.9000;0.9190;3.3630;
430.2000;0.9239;3.3702;
430.5000;0.9296;3.3821;
430.8000;0.9280;3.3773;
431.1000;0.9271;3.3773;
431.4000;0.9263;3.3678;
431.7000;0.9263;3.3702;
432.0000;0.9280;3.3702;
432.3000;0.9271;3.3726;
432.6000;0.9280;3.3773;
432.9000;0.9280;3.3630;
433.2000;0.9263;3.3678;
433.5000;0.9271;3.3630;
433.8000;0.9271;3.3726;
434.1000;0.9271;3.3821;
434.4000;0.9280;3.3845;
434.7000;0.9263;3.3750;
435.0000;0.9223;3.3654;
435.3000;0.9288;3.3869;
435.6000;0.9280;3.3797;
435.9000;0.9263;3.3773;
436.2000;0.9280;3.3726;
436.5000;0.9271;3.3750;
436.8000;0.9271;3.3702;
437.1000;0.9263;3.3702;
437.4000;0.9214;3.3582;
437.7000;0.9288;3.3750;
438.0000;0.9288;3.3726;
438.3000;0.9280;3.3797;
438.6000;0.9271;3.3726;
438.9000;0.9271;3.3678;
439.2000;0.9255;3.3726;
439.5000;0.9280;3.3726;
439.8000;0.9247;3.3750;
440.1000;0.9304;3.3726;
440.4000;0.9320;3.3726;
440.7000;0.9280;3.3726;
441.0000;0.9361;3.3964;
441.3000;0.9280;3.3750;
441.6000;0.9271;3.3678;
441.9000;0.9328;3.3869;
442.2000;0.9280;3.3845;
442.5000;0.9271;3.3797;
442.8000;0.9255;3.3750;
443.1000;0.9353;3.3917;
443.4000;0.9280;3.3773;
443.7000;0.9271;3.3750;
444.0000;0.9255;3.3750;
444.3000;0.9263;3.3845;
444.6000;0.9198;3.3726;
444.9000;0.9255;3.3702;
445.2000;0.9320;3.3821;
445.5000;0.9239;3.3630;
445.8000;0.9247;3.3678;
446.1000;0.9288;3.3750;
446.4000;0.9263;3.3773;
446.7000;0.9198;3.3606;
447.0000;0.9280;3.3773;
447.3000;0.9247;3.3630;
447.6000;0.9296;3.3773;
447.9000;0.9280;3.3702;
448.2000;0.9271;3.3726;
448.5000;0.9304;3.3750;
448.8000;0.9304;3.3773;
449.1000;0.9312;3.3750;
449.4000;0.9255;3.3630;
449.7000;0.9174;3.3439;
450.0000;0.9231;3.3582;
450.3000;0.9263;3.3606;
450.6000;0.9255;3.3606;
450.9000;0.9271;3.3606;
451.2000;0.9182;3.3368;
451.5000;0.9280;3.3606;
451.8000;0.9239;3.3511;
452.1000;0.9239;3.3487;
452.4000;0.9353;3.3726;
452.7000;0.9263;3.3511;
453.0000;0.9263;3.3582;
453.3000;0.9271;3.3654;
453.6000;0.9280;3.3654;
453.9000;0.9255;3.3535;
454.2000;0.9296;3.3535;
454.5000;0.9263;3.3511;
454.8000;0.9280;3.3606;
455.1000;0.9337;3.3797;
455.4000;0.9296;3.3750;
455.7000;0.9271;3.3726;
456.0000;0.9280;3.3750;
456.3000;0.9271;3.3821;
456.6000;0.9255;3.3773;
456.9000;0.9263;3.3773;
457.2000;0.9263;3.3797;
457.5000;0.9271;3.3821;
457.8000;0.9271;3.3845;
458.1000;0.9263;3.3773;
458.4000;0.9263;3.3702;
458.7000;0.9280;3.3797;
459.0000;0.9280;3.3678;
459.3000;0.9280;3.3654;
459.6000;0.9271;3.3750;
459.9000;0.9263;3.3869;
460.2000;0.9296;3.3893;
460.5000;0.9280;3.3821;
460.8000;0.9271;3.3797;
461.1000;0.9320;3.3821;
461.4000;0.9312;3.3869;
461.7000;0.9271;3.3845;
462.0000;0.9263;3.3821;
462.3000;0.9288;3.3869;
462.6000;0.9288;3.3869;
462.9000;0.9288;3.3750;
463.2000;0.9296;3.3797;
463.5000;0.9263;3.3726;
463.8000;0.9271;3.3678;
464.1000;0.9304;3.3606;
464.4000;0.9271;3.3535;
464.7000;0.9271;3.3582;
465.0000;0.9280;3.3582;
465.3000;0.9263;3.3368;
465.6000;0.9280;3.3392;
465.9000;0.9280;3.3368;
466.2000;0.9377;3.3726;
466.5000;0.9247;3.3320;
466.8000;0.9263;3.3344;
467.1000;0.9304;3.3487;
467.4000;0.9271;3.3439;
467.7000;0.9174;3.3248;
468.0000;0.9263;3.3511;
468.3000;0.9263;3.3535;
468.6000;0.9255;3.3582;
468.9000;0.9353;3.3821;
469.2000;0.9280;3.3654;
469.5000;0.9206;3.3535;
469.8000;0.9263;3.3654;
470.1000;0.9320;3.3702;
470.4000;0.9255;3.3535;
470.7000;0.9304;3.3726;
471.0000;0.9263;3.3630;
471.3000;0.9304;3.3559;
471.6000;0.9223;3.3415;
471.9000;0.9271;3.3463;
472.2000;0.9214;3.3344;
472.5000;0.9271;3.3487;
472.8000;0.9255;3.3606;
473.1000;0.9280;3.3582;
473.4000;0.9280;3.3654;
473.7000;0.9296;3.3726;
474.0000;0.9320;3.3726;
474.3000;0.9280;3.3582;
474.6000;0.9271;3.3559;
474.9000;0.9296;3.3630;
475.2000;0.9255;3.3654;
475.5000;0.9263;3.3630;
475.8000;0.9288;3.3702;
476.1000;0.9271;3.3654;
476.4000;0.9255;3.3630;
476.7000;0.9280;3.3654;
477.0000;0.9231;3.3463;
477.3000;0.9255;3.3559;
477.6000;0.9263;3.3582;
477.9000;0.9263;3.3773;
478.2000;0.9280;3.3845;
478.5000;0.9263;3.3797;
478.8000;0.9280;3.3750;
479.1000;0.9255;3.3750;
479.4000;0.9296;3.3845;
479.7000;0.9271;3.3773;
480.0000;0.9288;3.3750;
480.3000;0.9288;3.3750;
480.6000;0.9304;3.3702;
480.9000;0.9280;3.3582;
481.2000;0.9263;3.3559;
481.5000;0.9263;3.3678;
481.8000;0.9280;3.3702;
482.1000;0.9255;3.3654;
482.4000;0.9353;3.3845;
482.7000;0.9239;3.3654;
483.0000;0.9271;3.3797;
483.3000;0.9247;3.3630;
483.6000;0.9288;3.3678;
483.9000;0.9263;3.3630;
484.2000;0.9247;3.3606;
484.5000;0.9263;3.3606;
484.8000;0.9271;3.3535;
485.1000;0.9263;3.3582;
485.4000;0.9190;3.3439;
485.7000;0.9231;3.3535;
486.0000;0.9255;3.3654;
486.3000;0.9247;3.3487;
486.6000;0.9320;3.3630;
486.9000;0.9263;3.3535;
487.2000;0.9255;3.3559;
487.5000;0.9271;3.3511;
487.8000;0.9255;3.3511;
488.1000;0.9271;3.3535;
488.4000;0.9255;3.3606;
488.7000;0.9255;3.3511;
489.0000;0.9271;3.3535;
489.3000;0.9320;3.3654;
489.6000;0.9263;3.3535;
489.9000;0.9239;3.3463;
490.2000;0.9255;3.3606;
490.5000;0.9255;3.3582;
490.8000;0.9263;3.3487;
491.1000;0.9247;3.3535;
491.4000;0.9263;3.3582;
491.7000;0.9239;3.3511;
492.0000;0.9377;3.3773;
492.3000;0.9271;3.3535;
492.6000;0.9263;3.3654;
492.9000;0.9288;3.3797;
493.2000;0.9345;3.3964;
493.5000;0.9280;3.3797;
493.8000;0.9280;3.3678;
494.1000;0.9271;3.3654;
494.4000;0.9280;3.3702;
494.7000;0.9255;3.3559;
495.0000;0.9263;3.3582;
495.3000;0.9280;3.3606;
495.6000;0.9271;3.3606;
495.9000;0.9271;3.3606;
496.2000;0.9255;3.3606;
496.5000;0.9255;3.3582;
496.8000;0.9263;3.3559;
497.1000;0.9255;3.3630;
497.4000;0.9247;3.3535;
497.7000;0.9271;3.3559;
498.0000;0.9206;3.3368;
498.3000;0.9263;3.3559;
498.6000;0.9247;3.3654;
498.9000;0.9247;3.3702;
499.2000;0.9288;3.3773;
499.5000;0.9271;3.3750;
499.8000;0.9271;3.3702;
500.1000;0.9255;3.3726;
500.4000;0.9280;3.3797;
500.7000;0.9263;3.3678;
501.0000;0.9271;3.3654;
501.3000;0.9255;3.3678;
501.6000;0.9271;3.3702;
501.9000;0.9271;3.3630;
502.2000;0.9255;3.3606;
502.5000;0.9247;3.3654;
502.8000;0.9263;3.3582;
503.1000;0.9280;3.3582;
503.4000;0.9255;3.3582;
503.7000;0.9247;3.3559;
504.0000;0.9263;3.3582;
504.3000;0.9255;3.3702;
504.6000;0.9255;3.3630;
504.9000;0.9247;3.3535;
505.2000;0.9271;3.3654;
505.5000;0.9296;3.3845;
505.8000;0.9263;3.3678;
506.1000;0.9320;3.3797;
506.4000;0.9426;3.3988;
506.7000;0.9271;3.3630;
507.0000;0.9247;3.3630;
507.3000;0.9255;3.3654;
507.6000;0.9263;3.3654;
507.9000;0.9263;3.3702;
508.2000;0.9255;3.3654;
508.5000;0.9320;3.3726;
508.8000;0.9255;3.3654;
509.1000;0.9263;3.3702;
509.4000;0.9271;3.3702;
509.7000;0.9255;3.3678;
510.0000;0.9255;3.3726;
510.3000;0.9328;3.3917;
510.6000;0.9296;3.3869;
510.9000;0.9239;3.3630;
511.2000;0.9255;3.3654;
511.5000;0.9263;3.3535;
511.8000;0.9239;3.3487;
512.1000;0.9255;3.3535;
512.4000;0.9271;3.3535;
512.7000;0.9263;3.3511;
513.0000;0.9271;3.3582;
513.3000;0.9345;3.3773;
513.6000;0.9280;3.3439;
513.9000;0.9263;3.3415;
514.2000;0.9271;3.3392;
514.5000;0.9271;3.3463;
514.8000;0.9280;3.3511;
515.1000;0.9328;3.3702;
515.4000;0.9271;3.3582;
515.7000;0.9271;3.3582;
516.0000;0.9280;3.3582;
516.3000;0.9247;3.3630;
516.6000;0.9255;3.3678;
516.9000;0.9231;3.3702;
517.2000;0.9271;3.3750;
517.5000;0.9280;3.3821;
517.8000;0.9255;3.3821;
518.1000;0.9271;3.3821;
518.4000;0.9271;3.3869;
518.7000;0.9263;3.3940;
519.0000;0.9271;3.3940;
519.3000;0.9280;3.3964;
519.6000;0.9288;3.3988;
519.9000;0.9255;3.3917;
520.2000;0.9247;3.3821;
520.5000;0.9247;3.3773;
520.8000;0.9247;3.3702;
521.1000;0.9271;3.3654;
521.4000;0.9263;3.3726;
521.7000;0.9263;3.3726;
522.0000;0.9255;3.3726;
522.3000;0.9288;3.3821;
522.6000;0.9271;3.3797;
522.9000;0.9263;3.3797;
523.2000;0.9263;3.3797;
523.5000;0.9255;3.3750;
523.8000;0.9288;3.3821;
524.1000;0.9271;3.3726;
524.4000;0.9263;3.3678;
524.7000;0.9280;3.3726;
525.0000;0.9263;3.3773;
525.3000;0.9247;3.3654;
525.6000;0.9263;3.3654;
525.9000;0.9271;3.3654;
526.2000;0.9247;3.3630;
526.5000;0.9247;3.3678;
526.8000;0.9247;3.3654;
527.1000;0.9255;3.3702;
527.4000;0.9263;3.3750;
527.7000;0.9263;3.3821;
528.0000;0.9255;3.3797;
528.3000;0.9263;3.3821;
528.6000;0.9280;3.3869;
528.9000;0.9263;3.3797;
529.2000;0.9271;3.3893;
529.5000;0.9312;3.3964;
529.8000;0.9263;3.3845;
530.1000;0.9263;3.3917;
530.4000;0.9255;3.3893;
530.7000;0.9255;3.3940;
531.0000;0.9247;3.3940;
531.3000;0.9304;3.4012;
531.6000;0.9239;3.3869;
531.9000;0.9263;3.3869;
532.2000;0.9247;3.3678;
532.5000;0.9271;3.3750;
532.8000;0.9271;3.3702;
533.1000;0.9263;3.3630;
533.4000;0.9255;3.3582;
533.7000;0.9247;3.3582;
534.0000;0.9263;3.3678;
534.3000;0.9263;3.3654;
534.6000;0.9255;3.3678;
534.9000;0.9263;3.3726;
535.2000;0.9345;3.3821;
535.5000;0.9239;3.3750;
535.8000;0.9263;3.3726;
536.1000;0.9312;3.3845;
536.4000;0.9263;3.3845;
536.7000;0.9280;3.3917;
537.0000;0.9247;3.3893;
537.3000;0.9263;3.3940;
537.6000;0.9255;3.3845;
537.9000;0.9263;3.3845;
538.2000;0.9280;3.3917;
538.5000;0.9280;3.3964;
538.8000;0.9271;3.3893;
539.1000;0.9263;3.3869;
539.4000;0.9263;3.3917;
539.7000;0.9271;3.3917;
540.0000;0.9280;3.3893;
540.3000;0.9280;3.3797;
540.6000;0.9263;3.3821;
540.9000;0.9198;3.3726;
541.2000;0.9263;3.3917;
541.5000;0.9263;3.3917;
541.8000;0.9247;3.3988;
542.1000;0.9280;3.3964;
542.4000;0.9263;3.3917;
542.7000;0.9271;3.3940;
543.0000;0.9271;3.4012;
543.3000;0.9255;3.3940;
543.6000;0.9255;3.4036;
543.9000;0.9263;3.4084;
544.2000;0.9263;3.4084;
544.5000;0.9263;3.4084;
544.8000;0.9288;3.4227;
545.1000;0.9271;3.4131;
545.4000;0.9263;3.4084;
545.7000;0.9255;3.4084;
546.0000;0.9206;3.4012;
546.3000;0.9271;3.4131;
546.6000;0.9255;3.4036;
546.9000;0.9263;3.4012;
547.2000;0.9255;3.4012;
547.5000;0.9263;3.4036;
547.8000;0.9271;3.3988;
548.1000;0.9271;3.3893;
548.4000;0.9255;3.3917;
548.7000;0.9271;3.3917;
549.0000;0.9247;3.3917;
549.3000;0.9190;3.3821;
549.6000;0.9239;3.4036;
549.9000;0.9263;3.4036;
550.2000;0.9337;3.4275;
550.5000;0.9271;3.4155;
550.8000;0.9271;3.4179;
551.1000;0.9247;3.4179;
551.4000;0.9263;3.4155;
551.7000;0.9247;3.4108;
552.0000;0.9255;3.3988;
552.3000;0.9263;3.4012;
552.6000;0.9263;3.4036;
552.9000;0.9296;3.4084;
553.2000;0.9271;3.4036;
553.5000;0.9263;3.3964;
553.8000;0.9271;3.3893;
554.1000;0.9271;3.3893;
554.4000;0.9280;3.3869;
554.7000;0.9255;3.3845;
555.0000;0.9263;3.3917;
555.3000;0.9271;3.3988;
555.6000;0.9247;3.3940;
555.9000;0.9239;3.3964;
556.2000;0.9255;3.3917;
556.5000;0.9271;3.3773;
556.8000;0.9263;3.3702;
557.1000;0.9239;3.3678;
557.4000;0.9271;3.3726;
557.7000;0.9280;3.3702;
558.0000;0.9263;3.3750;
558.3000;0.9247;3.3750;
558.6000;0.9263;3.3821;
558.9000;0.9255;3.3845;
559.2000;0.9263;3.3869;
559.5000;0.9255;3.3940;
559.8000;0.9312;3.4012;
560.1000;0.9263;3.3940;
560.4000;0.9263;3.3869;
560.7000;0.9296;3.3893;
561.0000;0.9255;3.3869;
561.3000;0.9280;3.3940;
561.6000;0.9263;3.3893;
561.9000;0.9263;3.3869;
562.2000;0.9247;3.3797;
562.5000;0.9280;3.3821;
562.8000;0.9280;3.3821;
563.1000;0.9263;3.3797;
563.4000;0.9247;3.3702;
563.7000;0.9255;3.3702;
564.0000;0.9345;3.3917;
564.3000;0.9263;3.3821;
564.6000;0.9271;3.3845;
564.9000;0.9328;3.3988;
565.2000;0.9271;3.3893;
565.5000;0.9271;3.3917;
565.8000;0.9223;3.3630;
566.1000;0.9247;3.3678;
566.4000;0.9255;3.3678;
566.7000;0.9337;3.3893;
567.0000;0.9263;3.3702;
567.3000;0.9247;3.3750;
567.6000;0.9255;3.3726;
567.9000;0.9263;3.3654;
568.2000;0.9271;3.3726;
568.5000;0.9255;3.3726;
568.8000;0.9263;3.3773;
569.1000;0.9247;3.3678;
569.4000;0.9255;3.3702;
569.7000;0.9263;3.3702;
570.0000;0.9263;3.3750;
570.3000;0.9280;3.3678;
570.6000;0.9271;3.3678;
570.9000;0.9280;3.3678;
571.2000;0.9247;3.3606;
571.5000;0.9247;3.3559;
571.8000;0.9271;3.3678;
572.1000;0.9263;3.3773;
572.4000;0.9255;3.3797;
572.7000;0.9247;3.3797;
573.0000;0.9271;3.3893;
573.3000;0.9223;3.3726;
573.6000;0.9255;3.3773;
573.9000;0.9271;3.3773;
574.2000;0.9263;3.3797;
574.5000;0.9271;3.3750;
574.8000;0.9271;3.3750;
575.1000;0.9271;3.3773;
575.4000;0.9263;3.3869;
575.7000;0.9255;3.3869;
576.0000;0.9247;3.3869;
576.3000;0.9263;3.3893;
576.6000;0.9271;3.3917;
576.9000;0.9271;3.3964;
577.2000;0.9263;3.3988;
577.5000;0.9263;3.3917;
577.8000;0.9271;3.3893;
578.1000;0.9280;3.3869;
578.4000;0.9263;3.3821;
578.7000;0.9239;3.3678;
579.0000;0.9271;3.3750;
579.3000;0.9239;3.3678;
579.6000;0.9231;3.3654;
579.9000;0.9271;3.3773;
580.2000;0.9271;3.3797;
580.5000;0.9271;3.3773;
580.8000;0.9263;3.3750;
581.1000;0.9255;3.3821;
581.4000;0.9263;3.3797;
581.7000;0.9271;3.3797;
582.0000;0.9280;3.3869;
582.3000;0.9271;3.3869;
582.6000;0.9206;3.3821;
582.9000;0.9247;3.3893;
583.2000;0.9271;3.4012;
583.5000;0.9280;3.3964;
583.8000;0.9271;3.3893;
584.1000;0.9271;3.3869;
584.4000;0.9263;3.3964;
584.7000;0.9263;3.3893;
585.0000;0.9231;3.3845;
585.3000;0.9247;3.3917;
585.6000;0.9247;3.3940;
585.9000;0.9239;3.3988;
586.2000;0.9345;3.4227;
586.5000;0.9255;3.4012;
586.8000;0.9247;3.4036;
587.1000;0.9223;3.3940;
587.4000;0.9271;3.4012;
587.7000;0.9239;3.3964;
588.0000;0.9231;3.3964;
588.3000;0.9280;3.4155;
588.6000;0.9263;3.4131;
588.9000;0.9255;3.4084;
589.2000;0.9271;3.4084;
589.5000;0.9280;3.4060;
589.8000;0.9247;3.4036;
590.1000;0.9263;3.4060;
590.4000;0.9255;3.4060;
590.7000;0.9263;3.4060;
591.0000;0.9255;3.4036;
591.3000;0.9263;3.4084;
591.6000;0.9255;3.4084;
591.9000;0.9247;3.3940;
592.2000;0.9247;3.3893;
592.5000;0.9182;3.3750;
592.8000;0.9239;3.3869;
593.1000;0.9271;3.3917;
593.4000;0.9271;3.3964;
593.7000;0.9263;3.3917;
594.0000;0.9255;3.3917;
594.3000;0.9255;3.3869;
594.6000;0.9280;3.3917;
594.9000;0.9280;3.3893;
595.2000;0.9280;3.3893;
595.5000;0.9263;3.3869;
595.8000;0.9247;3.3821;
596.1000;0.9255;3.3893;
596.4000;0.9271;3.3917;
596.7000;0.9223;3.3702;
597.0000;0.9255;3.3702;
597.3000;0.9247;3.3702;
597.6000;0.9247;3.3750;
597.9000;0.9239;3.3702;
598.2000;0.9271;3.3750;
598.5000;0.9223;3.3654;
598.8000;0.9255;3.3821;
599.1000;0.9255;3.3821;
599.4000;0.9345;3.4036;
599.7000;0.9280;3.3845;
600.0000;0.9255;3.3869;
600.3000;0.9271;3.3726;
600.6000;0.9263;3.3654;
600.9000;0.9247;3.3630;
601.2000;0.9206;3.3511;
601.5000;0.9117;3.3153;
601.8000;0.9084;3.3081;
602.1000;0.9035;3.2938;
602.4000;0.8946;3.2652;
602.7000;0.8889;3.2485;
603.0000;0.8816;3.2413;
603.3000;0.8791;3.2389;
603.6000;0.8718;3.2174;
603.9000;0.8677;3.2031;
604.2000;0.8555;3.1912;
604.5000;0.8531;3.1959;
604.8000;0.8498;3.1888;
605.1000;0.8466;3.1912;
605.4000;0.8417;3.1888;
605.7000;0.8352;3.1792;
606.0000;0.8295;3.1697;
606.3000;0.8278;3.1649;
606.6000;0.8246;3.1530;
606.9000;0.8189;3.1410;
607.2000;0.8132;3.1148;
607.5000;0.8132;3.1196;
607.8000;0.8067;3.1100;
608.1000;0.8059;3.1267;
608.4000;0.8018;3.1267;
608.7000;0.7985;3.1243;
609.0000;0.7953;3.1220;
609.3000;0.7961;3.1291;
609.6000;0.7871;3.1100;
609.9000;0.7847;3.1076;
610.2000;0.7831;3.1076;
610.5000;0.7806;3.1029;
610.8000;0.7766;3.1005;
611.1000;0.7725;3.0957;
611.4000;0.7700;3.0909;
611.7000;0.7692;3.0909;
612.0000;0.7652;3.0814;
612.3000;0.7619;3.0814;
612.6000;0.7611;3.0814;
612.9000;0.7603;3.0766;
613.2000;0.7538;3.0647;
613.5000;0.7546;3.0671;
613.8000;0.7546;3.0766;
614.1000;0.7497;3.0742;
614.4000;0.7481;3.0694;
614.7000;0.7464;3.0694;
615.0000;0.7407;3.0599;
615.3000;0.7399;3.0671;
615.6000;0.7399;3.0671;
615.9000;0.7383;3.0599;
616.2000;0.7350;3.0480;
616.5000;0.7302;3.0456;
616.8000;0.7253;3.0408;
617.1000;0.7253;3.0432;
617.4000;0.7261;3.0456;
617.7000;0.7245;3.0480;
618.0000;0.7220;3.0456;
618.3000;0.7204;3.0408;
618.6000;0.7163;3.0384;
618.9000;0.7171;3.0480;
619.2000;0.7147;3.0456;
619.5000;0.7139;3.0408;
619.8000;0.7114;3.0408;
620.1000;0.7090;3.0408;
620.4000;0.7090;3.0408;
620.7000;0.7074;3.0408;
621.0000;0.7041;3.0432;
621.3000;0.7017;3.0456;
621.6000;0.7009;3.0503;
621.9000;0.7000;3.0480;
622.2000;0.6976;3.0432;
622.5000;0.6992;3.0480;
622.8000;0.6952;3.0384;
623.1000;0.6927;3.0360;
623.4000;0.7000;3.0623;
623.7000;0.6935;3.0527;
624.0000;0.6903;3.0527;
624.3000;0.6886;3.0575;
624.6000;0.6862;3.0551;
624.9000;0.6854;3.0575;
625.2000;0.6862;3.0527;
625.5000;0.6838;3.0503;
625.8000;0.6813;3.0503;
626.1000;0.6789;3.0408;
626.4000;0.6870;3.0766;
626.7000;0.6764;3.0551;
627.0000;0.6716;3.0432;
627.3000;0.6764;3.0503;
627.6000;0.6748;3.0432;
627.9000;0.6732;3.0432;
628.2000;0.6781;3.0694;
628.5000;0.6683;3.0432;
628.8000;0.6699;3.0480;
629.1000;0.6699;3.0527;
629.4000;0.6691;3.0480;
629.7000;0.6634;3.0336;
630.0000;0.6642;3.0313;
630.3000;0.6536;3.0074;
630.6000;0.6667;3.0432;
630.9000;0.6618;3.0384;
631.2000;0.6618;3.0408;
631.5000;0.6610;3.0384;
631.8000;0.6699;3.0623;
632.1000;0.6585;3.0289;
632.4000;0.6569;3.0313;
632.7000;0.6569;3.0384;
633.0000;0.6569;3.0384;
633.3000;0.6561;3.0313;
633.6000;0.6569;3.0456;
633.9000;0.6528;3.0408;
634.2000;0.6479;3.0265;
634.5000;0.6528;3.0336;
634.8000;0.6512;3.0289;
635.1000;0.6512;3.0289;
635.4000;0.6488;3.0265;
635.7000;0.6504;3.0289;
636.0000;0.6431;3.0265;
636.3000;0.6471;3.0456;
636.6000;0.6447;3.0408;
636.9000;0.6357;3.0289;
637.2000;0.6406;3.0432;
637.5000;0.6431;3.0480;
637.8000;0.6471;3.0575;
638.1000;0.6406;3.0432;
638.4000;0.6414;3.0432;
638.7000;0.6431;3.0575;
639.0000;0.6398;3.0623;
639.3000;0.6382;3.0599;
639.6000;0.6390;3.0575;
639.9000;0.6390;3.0623;
640.2000;0.6390;3.0599;
640.5000;0.6439;3.0766;
640.8000;0.6349;3.0551;
641.1000;0.6333;3.0503;
641.4000;0.6325;3.0456;
641.7000;0.6341;3.0527;
642.0000;0.6325;3.0456;
642.3000;0.6333;3.0551;
642.6000;0.6317;3.0456;
642.9000;0.6300;3.0456;
643.2000;0.6300;3.0456;
643.5000;0.6292;3.0456;
643.8000;0.6325;3.0551;
644.1000;0.6300;3.0503;
644.4000;0.6292;3.0527;
644.7000;0.6268;3.0480;
645.0000;0.6292;3.0503;
645.3000;0.6260;3.0313;
645.6000;0.6243;3.0217;
645.9000;0.6252;3.0193;
646.2000;0.6235;3.0193;
646.5000;0.6186;3.0074;
646.8000;0.6227;3.0193;
647.1000;0.6227;3.0217;
647.4000;0.6252;3.0408;
647.7000;0.6211;3.0360;
648.0000;0.6195;3.0432;
648.3000;0.6227;3.0480;
648.6000;0.6195;3.0384;
648.9000;0.6178;3.0336;
649.2000;0.6162;3.0384;
649.5000;0.6178;3.0456;
649.8000;0.6186;3.0408;
650.1000;0.6146;3.0408;
650.4000;0.6162;3.0384;
650.7000;0.6138;3.0265;
651.0000;0.6146;3.0289;
651.3000;0.6162;3.0336;
651.6000;0.6211;3.0480;
651.9000;0.6154;3.0408;
652.2000;0.6129;3.0408;
652.5000;0.6113;3.0289;
652.8000;0.6097;3.0241;
653.1000;0.6089;3.0265;
653.4000;0.6138;3.0456;
653.7000;0.6105;3.0432;
654.0000;0.6089;3.0384;
654.3000;0.6129;3.0480;
654.6000;0.6105;3.0384;
654.9000;0.6097;3.0408;
655.2000;0.6072;3.0408;
655.5000;0.6072;3.0408;
655.8000;0.6064;3.0336;
656.1000;0.6072;3.0360;
656.4000;0.6072;3.0432;
656.7000;0.6146;3.0718;
657.0000;0.6040;3.0408;
657.3000;0.6056;3.0384;
657.6000;0.6048;3.0336;
657.9000;0.6032;3.0241;
658.2000;0.6048;3.0336;
658.5000;0.6032;3.0480;
658.8000;0.6024;3.0408;
659.1000;0.5967;3.0289;
659.4000;0.6015;3.0432;
659.7000;0.6015;3.0408;
660.0000;0.6024;3.0456;
660.3000;0.6007;3.0456;
660.6000;0.6007;3.0432;
660.9000;0.6015;3.0360;
661.2000;0.6024;3.0360;
661.5000;0.5991;3.0313;
661.8000;0.5991;3.0384;
662.1000;0.6015;3.0432;
662.4000;0.5991;3.0456;
662.7000;0.5910;3.0265;
663.0000;0.5967;3.0384;
663.3000;0.5991;3.0360;
663.6000;0.5975;3.0313;
663.9000;0.5958;3.0289;
664.2000;0.5950;3.0313;
664.5000;0.5942;3.0265;
664.8000;0.5950;3.0336;
665.1000;0.5942;3.0289;
665.4000;0.5950;3.0241;
665.7000;0.5950;3.0265;
666.0000;0.6015;3.0265;
666.3000;0.5934;3.0122;
666.6000;0.5918;3.0193;
666.9000;0.5991;3.0456;
667.2000;0.5910;3.0241;
667.5000;0.5926;3.0336;
667.8000;0.5942;3.0313;
668.1000;0.5918;3.0289;
668.4000;0.5902;3.0265;
668.7000;0.5861;3.0193;
669.0000;0.5902;3.0241;
669.3000;0.5877;3.0193;
669.6000;0.5934;3.0336;
669.9000;0.5893;3.0217;
670.2000;0.5845;3.0122;
670.5000;0.5902;3.0217;
670.8000;0.5893;3.0145;
671.1000;0.5934;3.0265;
671.4000;0.5877;3.0145;
671.7000;0.5893;3.0169;
672.0000;0.5861;3.0193;
672.3000;0.5885;3.0217;
672.6000;0.5820;3.0145;
672.9000;0.5820;3.0098;
673.2000;0.5869;3.0193;
673.5000;0.5934;3.0384;
673.8000;0.5877;3.0193;
674.1000;0.5958;3.0384;
674.4000;0.5853;3.0050;
674.7000;0.5861;3.0122;
675.0000;0.5861;3.0098;
675.3000;0.5828;3.0026;
675.6000;0.5820;3.0122;
675.9000;0.5796;3.0074;
676.2000;0.5869;3.0217;
676.5000;0.5828;3.0098;
676.8000;0.5812;3.0026;
677.1000;0.5820;2.9978;
677.4000;0.5828;2.9907;
677.7000;0.5739;2.9716;
678.0000;0.5739;2.9811;
678.3000;0.5861;3.0145;
678.6000;0.5820;3.0098;
678.9000;0.5804;3.0122;
679.2000;0.5804;3.0098;
679.5000;0.5820;3.0122;
679.8000;0.5812;3.0098;
680.1000;0.5812;3.0074;
680.4000;0.5796;3.0122;
680.7000;0.5788;3.0169;
681.0000;0.5796;3.0313;
681.3000;0.5788;3.0289;
681.6000;0.5788;3.0313;
681.9000;0.5779;3.0313;
682.2000;0.5788;3.0313;
682.5000;0.5788;3.0313;
682.8000;0.5779;3.0336;
683.1000;0.5771;3.0384;
683.4000;0.5779;3.0360;
683.7000;0.5771;3.0336;
684.0000;0.5820;3.0480;
684.3000;0.5755;3.0360;
684.6000;0.5779;3.0432;
684.9000;0.5804;3.0503;
685.2000;0.5763;3.0432;
685.5000;0.5755;3.0360;
685.8000;0.5731;3.0313;
686.1000;0.5763;3.0456;
686.4000;0.5771;3.0503;
686.7000;0.5771;3.0456;
687.0000;0.5739;3.0480;
687.3000;0.5763;3.0503;
687.6000;0.5747;3.0480;
687.9000;0.5755;3.0480;
688.2000;0.5714;3.0408;
688.5000;0.5739;3.0456;
688.8000;0.5755;3.0408;
689.1000;0.5739;3.0408;
689.4000;0.5739;3.0360;
689.7000;0.5747;3.0456;
690.0000;0.5739;3.0408;
690.3000;0.5739;3.0265;
690.6000;0.5739;3.0289;
690.9000;0.5714;3.0313;
691.2000;0.5722;3.0313;
691.5000;0.5722;3.0313;
691.8000;0.5698;3.0313;
692.1000;0.5674;3.0289;
692.4000;0.5698;3.0336;
692.7000;0.5698;3.0360;
693.0000;0.5690;3.0336;
693.3000;0.5714;3.0503;
693.6000;0.5706;3.0503;
693.9000;0.5722;3.0599;
694.2000;0.5714;3.0599;
694.5000;0.5690;3.0551;
694.8000;0.5706;3.0503;
695.1000;0.5706;3.0480;
695.4000;0.5706;3.0527;
695.7000;0.5690;3.0527;
696.0000;0.5690;3.0551;
696.3000;0.5633;3.0432;
696.6000;0.5674;3.0527;
696.9000;0.5682;3.0456;
697.2000;0.5625;3.0265;
697.5000;0.5665;3.0360;
697.8000;0.5690;3.0408;
698.1000;0.5731;3.0551;
698.4000;0.5771;3.0647;
698.7000;0.5617;3.0289;
699.0000;0.5682;3.0480;
699.3000;0.5682;3.0503;
699.6000;0.5682;3.0575;
699.9000;0.5698;3.0551;
700.2000;0.5633;3.0408;
700.5000;0.5665;3.0551;
700.8000;0.5657;3.0480;
701.1000;0.5665;3.0480;
701.4000;0.5665;3.0503;
701.7000;0.5608;3.0313;
702.0000;0.5649;3.0432;
702.3000;0.5641;3.0456;
702.6000;0.5649;3.0408;
702.9000;0.5633;3.0336;
703.2000;0.5649;3.0336;
703.5000;0.5633;3.0265;
703.8000;0.5641;3.0384;
704.1000;0.5657;3.0456;
704.4000;0.5641;3.0408;
704.7000;0.5657;3.0503;
705.0000;0.5641;3.0432;
705.3000;0.5665;3.0480;
705.6000;0.5641;3.0432;
705.9000;0.5657;3.0480;
706.2000;0.5625;3.0503;
706.5000;0.5649;3.0551;
706.8000;0.5682;3.0623;
707.1000;0.5625;3.0503;
707.4000;0.5633;3.0480;
707.7000;0.5641;3.0623;
708.0000;0.5633;3.0599;
708.3000;0.5633;3.0503;
708.6000;0.5617;3.0503;
708.9000;0.5633;3.0551;
709.2000;0.5633;3.0551;
709.5000;0.5600;3.0480;
709.8000;0.5617;3.0503;
710.1000;0.5608;3.0456;
710.4000;0.5633;3.0551;
710.7000;0.5633;3.0503;
711.0000;0.5617;3.0503;
711.3000;0.5617;3.0480;
711.6000;0.5592;3.0480;
711.9000;0.5617;3.0551;
712.2000;0.5657;3.0599;
712.5000;0.5600;3.0480;
712.8000;0.5600;3.0456;
713.1000;0.5592;3.0432;
713.4000;0.5568;3.0408;
713.7000;0.5568;3.0527;
714.0000;0.5592;3.0599;
714.3000;0.5584;3.0503;
714.6000;0.5617;3.0480;
714.9000;0.5617;3.0551;
715.2000;0.5592;3.0480;
715.5000;0.5568;3.0336;
715.8000;0.5608;3.0336;
716.1000;0.5584;3.0384;
716.4000;0.5576;3.0408;
716.7000;0.5560;3.0360;
717.0000;0.5584;3.0384;
717.3000;0.5608;3.0432;
717.6000;0.5584;3.0408;
717.9000;0.5584;3.0408;
718.2000;0.5560;3.0360;
718.5000;0.5560;3.0336;
718.8000;0.5600;3.0456;
719.1000;0.5584;3.0503;
719.4000;0.5657;3.0671;
719.7000;0.5608;3.0503;
720.0000;0.5576;3.0480;
720.3000;0.5633;3.0623;
720.6000;0.5600;3.0599;
720.9000;0.5576;3.0551;
721.2000;0.5576;3.0527;
721.5000;0.5584;3.0599;
721.8000;0.5560;3.0599;
722.1000;0.5551;3.0647;
722.4000;0.5584;3.0647;
722.7000;0.5486;3.0480;
723.0000;0.5568;3.0575;
723.3000;0.5617;3.0647;
723.6000;0.5535;3.0456;
723.9000;0.5551;3.0551;
724.2000;0.5543;3.0503;
724.5000;0.5576;3.0551;
724.8000;0.5568;3.0456;
725.1000;0.5560;3.0432;
725.4000;0.5576;3.0503;
725.7000;0.5633;3.0671;
726.0000;0.5560;3.0503;
726.3000;0.5576;3.0503;
726.6000;0.5560;3.0480;
726.9000;0.5543;3.0432;
727.2000;0.5568;3.0575;
727.5000;0.5551;3.0599;
727.8000;0.5543;3.0599;
728.1000;0.5551;3.0527;
728.4000;0.5551;3.0503;
728.7000;0.5600;3.0599;
729.0000;0.5543;3.0456;
729.3000;0.5568;3.0503;
729.6000;0.5527;3.0527;
729.9000;0.5511;3.0480;
730.2000;0.5543;3.0503;
730.5000;0.5535;3.0551;
730.8000;0.5560;3.0575;
731.1000;0.5551;3.0527;
731.4000;0.5551;3.0527;
731.7000;0.5535;3.0503;
732.0000;0.5551;3.0527;
732.3000;0.5535;3.0551;
732.6000;0.5543;3.0503;
732.9000;0.5511;3.0456;
733.2000;0.5543;3.0551;
733.5000;0.5576;3.0623;
733.8000;0.5527;3.0599;
734.1000;0.5527;3.0694;
734.4000;0.5543;3.0766;
734.7000;0.5551;3.0766;
735.0000;0.5535;3.0790;
735.3000;0.5527;3.0790;
735.6000;0.5527;3.0742;
735.9000;0.5527;3.0647;
736.2000;0.5511;3.0647;
736.5000;0.5543;3.0742;
736.8000;0.5527;3.0694;
737.1000;0.5527;3.0551;
737.4000;0.5486;3.0527;
737.7000;0.5495;3.0599;
738.0000;0.5511;3.0599;
738.3000;0.5519;3.0647;
738.6000;0.5576;3.0766;
738.9000;0.5543;3.0623;
739.2000;0.5527;3.0503;
739.5000;0.5462;3.0360;
739.8000;0.5478;3.0336;
740.1000;0.5519;3.0456;
740.4000;0.5519;3.0527;
740.7000;0.5503;3.0480;
741.0000;0.5511;3.0503;
741.3000;0.5503;3.0551;
741.6000;0.5470;3.0503;
741.9000;0.5511;3.0599;
742.2000;0.5486;3.0527;
742.5000;0.5462;3.0432;
742.8000;0.5503;3.0599;
743.1000;0.5511;3.0575;
743.4000;0.5568;3.0694;
743.7000;0.5503;3.0503;
744.0000;0.5486;3.0480;
744.3000;0.5486;3.0480;
744.6000;0.5511;3.0599;
744.9000;0.5511;3.0671;
745.2000;0.5519;3.0623;
745.5000;0.5495;3.0503;
745.8000;0.5495;3.0456;
746.1000;0.5527;3.0599;
746.4000;0.5486;3.0456;
746.7000;0.5478;3.0336;
747.0000;0.5511;3.0360;
747.3000;0.5478;3.0384;
747.6000;0.5495;3.0432;
747.9000;0.5551;3.0623;
748.2000;0.5470;3.0456;
748.5000;0.5511;3.0527;
748.8000;0.5405;3.0217;
749.1000;0.5478;3.0384;
749.4000;0.5495;3.0408;
749.7000;0.5486;3.0313;
750.0000;0.5478;3.0336;
750.3000;0.5478;3.0432;
750.6000;0.5495;3.0527;
750.9000;0.5470;3.0503;
751.2000;0.5486;3.0599;
751.5000;0.5486;3.0671;
751.8000;0.5486;3.0647;
752.1000;0.5413;3.0456;
752.4000;0.5486;3.0623;
752.7000;0.5470;3.0647;
753.0000;0.5478;3.0694;
753.3000;0.5462;3.0599;
753.6000;0.5486;3.0575;
753.9000;0.5462;3.0623;
754.2000;0.5446;3.0551;
754.5000;0.5429;3.0480;
754.8000;0.5478;3.0599;
755.1000;0.5486;3.0671;
755.4000;0.5470;3.0671;
755.7000;0.5478;3.0694;
756.0000;0.5478;3.0575;
756.3000;0.5478;3.0551;
756.6000;0.5495;3.0551;
756.9000;0.5462;3.0527;
757.2000;0.5470;3.0503;
757.5000;0.5486;3.0480;
757.8000;0.5478;3.0408;
758.1000;0.5438;3.0336;
758.4000;0.5429;3.0384;
758.7000;0.5462;3.0480;
759.0000;0.5454;3.0503;
759.3000;0.5446;3.0456;
759.6000;0.5462;3.0456;
759.9000;0.5462;3.0503;
760.2000;0.5462;3.0456;
760.5000;0.5470;3.0456;
760.8000;0.5446;3.0432;
761.1000;0.5478;3.0575;
761.4000;0.5470;3.0551;
761.7000;0.5446;3.0503;
762.0000;0.5397;3.0432;
762.3000;0.5470;3.0599;
762.6000;0.5454;3.0503;
762.9000;0.5470;3.0384;
763.2000;0.5446;3.0336;
763.5000;0.5462;3.0432;
763.8000;0.5454;3.0456;
764.1000;0.5470;3.0480;
764.4000;0.5438;3.0432;
764.7000;0.5421;3.0408;
765.0000;0.5462;3.0551;
765.3000;0.5454;3.0384;
765.6000;0.5470;3.0480;
765.9000;0.5446;3.0384;
766.2000;0.5470;3.0456;
766.5000;0.5413;3.0313;
766.8000;0.5438;3.0360;
767.1000;0.5381;3.0241;
767.4000;0.5429;3.0336;
767.7000;0.5454;3.0432;
768.0000;0.5438;3.0336;
768.3000;0.5446;3.0360;
768.6000;0.5446;3.0456;
768.9000;0.5519;3.0671;
769.2000;0.5397;3.0408;
769.5000;0.5429;3.0456;
769.8000;0.5543;3.0671;
770.1000;0.5429;3.0480;
770.4000;0.5470;3.0480;
770.7000;0.5454;3.0432;
771.0000;0.5421;3.0503;
771.3000;0.5429;3.0551;
771.6000;0.5446;3.0551;
771.9000;0.5413;3.0456;
772.2000;0.5438;3.0480;
772.5000;0.5438;3.0527;
772.8000;0.5405;3.0527;
773.1000;0.5446;3.0647;
773.4000;0.5397;3.0551;
773.7000;0.5446;3.0575;
774.0000;0.5470;3.0575;
774.3000;0.5446;3.0503;
774.6000;0.5454;3.0527;
774.9000;0.5454;3.0599;
775.2000;0.5429;3.0551;
775.5000;0.5478;3.0527;
775.8000;0.5421;3.0480;
776.1000;0.5438;3.0575;
776.4000;0.5462;3.0647;
776.7000;0.5438;3.0671;
777.0000;0.5405;3.0599;
777.3000;0.5429;3.0647;
777.6000;0.5405;3.0599;
777.9000;0.5446;3.0647;
778.2000;0.5454;3.0742;
778.5000;0.5421;3.0814;
778.8000;0.5405;3.0694;
779.1000;0.5397;3.0671;
779.4000;0.5438;3.0694;
779.7000;0.5421;3.0694;
780.0000;0.5421;3.0742;
780.3000;0.5421;3.0885;
780.6000;0.5429;3.0838;
780.9000;0.5397;3.0742;
781.2000;0.5405;3.0742;
781.5000;0.5413;3.0647;
781.8000;0.5413;3.0551;
782.1000;0.5413;3.0527;
782.4000;0.5421;3.0575;
782.7000;0.5421;3.0599;
783.0000;0.5397;3.0503;
783.3000;0.5421;3.0527;
783.6000;0.5421;3.0647;
783.9000;0.5413;3.0623;
784.2000;0.5413;3.0575;
784.5000;0.5421;3.0503;
784.8000;0.5397;3.0384;
785.1000;0.5421;3.0408;
785.4000;0.5421;3.0336;
785.7000;0.5438;3.0336;
786.0000;0.5405;3.0313;
786.3000;0.5348;3.0241;
786.6000;0.5421;3.0456;
786.9000;0.5413;3.0503;
787.2000;0.5421;3.0551;
787.5000;0.5397;3.0527;
787.8000;0.5389;3.0432;
788.1000;0.5454;3.0527;
788.4000;0.5413;3.0360;
788.7000;0.5429;3.0336;
789.0000;0.5413;3.0360;
789.3000;0.5429;3.0480;
789.6000;0.5413;3.0480;
789.9000;0.5332;3.0313;
790.2000;0.5413;3.0527;
790.5000;0.5429;3.0527;
790.8000;0.5381;3.0384;
791.1000;0.5389;3.0480;
791.4000;0.5389;3.0503;
791.7000;0.5413;3.0575;
792.0000;0.5397;3.0599;
792.3000;0.5405;3.0671;
792.6000;0.5413;3.0671;
792.9000;0.5421;3.0599;
793.2000;0.5421;3.0575;
793.5000;0.5389;3.0432;
793.8000;0.5446;3.0503;
794.1000;0.5413;3.0384;
794.4000;0.5348;3.0241;
794.7000;0.5389;3.0336;
795.0000;0.5397;3.0289;
795.3000;0.5405;3.0313;
795.6000;0.5405;3.0384;
795.9000;0.5389;3.0384;
796.2000;0.5397;3.0313;
796.5000;0.5405;3.0289;
796.8000;0.5405;3.0313;
797.1000;0.5397;3.0360;
797.4000;0.5397;3.0360;
797.7000;0.5372;3.0384;
798.0000;0.5389;3.0360;
798.3000;0.5405;3.0336;
798.6000;0.5381;3.0313;
798.9000;0.5405;3.0408;
799.2000;0.5389;3.0313;
799.5000;0.5413;3.0265;
799.8000;0.5381;3.0265;
800.1000;0.5405;3.0384;
800.4000;0.5405;3.0456;
800.7000;0.5364;3.0336;
801.0000;0.5381;3.0384;
801.3000;0.5413;3.0384;
801.6000;0.5438;3.0480;
801.9000;0.5405;3.0384;
802.2000;0.5372;3.0360;
802.5000;0.5372;3.0360;
802.8000;0.5389;3.0384;
803.1000;0.5389;3.0360;
803.4000;0.5389;3.0408;
803.7000;0.5389;3.0408;
804.0000;0.5397;3.0456;
804.3000;0.5413;3.0456;
804.6000;0.5397;3.0480;
804.9000;0.5372;3.0384;
805.2000;0.5364;3.0336;
805.5000;0.5389;3.0480;
805.8000;0.5389;3.0503;
806.1000;0.5381;3.0456;
806.4000;0.5389;3.0480;
806.7000;0.5389;3.0408;
807.0000;0.5381;3.0456;
807.3000;0.5389;3.0360;
807.6000;0.5372;3.0360;
807.9000;0.5421;3.0384;
808.2000;0.5397;3.0313;
808.5000;0.5397;3.0384;
808.8000;0.5389;3.0384;
809.1000;0.5405;3.0432;
809.4000;0.5364;3.0503;
809.7000;0.5381;3.0480;
810.0000;0.5348;3.0360;
810.3000;0.5381;3.0360;
810.6000;0.5381;3.0432;
810.9000;0.5381;3.0408;
811.2000;0.5364;3.0456;
811.5000;0.5364;3.0503;
811.8000;0.5364;3.0456;
812.1000;0.5372;3.0456;
812.4000;0.5364;3.0408;
812.7000;0.5364;3.0313;
813.0000;0.5332;3.0241;
813.3000;0.5381;3.0336;
813.6000;0.5413;3.0432;
813.9000;0.5332;3.0313;
814.2000;0.5372;3.0384;
814.5000;0.5462;3.0575;
814.8000;0.5438;3.0527;
815.1000;0.5381;3.0289;
815.4000;0.5372;3.0289;
815.7000;0.5348;3.0265;
816.0000;0.5389;3.0432;
816.3000;0.5413;3.0480;
816.6000;0.5364;3.0336;
816.9000;0.5389;3.0313;
817.2000;0.5389;3.0313;
817.5000;0.5364;3.0289;
817.8000;0.5405;3.0503;
818.1000;0.5372;3.0503;
818.4000;0.5372;3.0575;
818.7000;0.5364;3.0503;
819.0000;0.5372;3.0503;
819.3000;0.5364;3.0480;
819.6000;0.5372;3.0551;
819.9000;0.5389;3.0551;
820.2000;0.5364;3.0575;
820.5000;0.5364;3.0647;
820.8000;0.5389;3.0599;
821.1000;0.5364;3.0551;
821.4000;0.5356;3.0575;
821.7000;0.5356;3.0527;
822.0000;0.5381;3.0551;
822.3000;0.5364;3.0527;
822.6000;0.5364;3.0527;
822.9000;0.5364;3.0503;
823.2000;0.5372;3.0575;
823.5000;0.5381;3.0623;
823.8000;0.5356;3.0575;
824.1000;0.5364;3.0671;
824.4000;0.5364;3.0694;
824.7000;0.5315;3.0456;
825.0000;0.5372;3.0551;
825.3000;0.5389;3.0575;
825.6000;0.5372;3.0503;
825.9000;0.5381;3.0503;
826.2000;0.5372;3.0456;
826.5000;0.5381;3.0432;
826.8000;0.5364;3.0336;
827.1000;0.5364;3.0360;
827.4000;0.5356;3.0313;
827.7000;0.5356;3.0241;
828.0000;0.5372;3.0169;
828.3000;0.5372;3.0241;
828.6000;0.5364;3.0313;
828.9000;0.5372;3.0384;
829.2000;0.5364;3.0360;
829.5000;0.5364;3.0360;
829.8000;0.5381;3.0527;
830.1000;0.5381;3.0432;
830.4000;0.5356;3.0408;
830.7000;0.5372;3.0456;
831.0000;0.5381;3.0408;
831.3000;0.5381;3.0527;
831.6000;0.5356;3.0432;
831.9000;0.5364;3.0432;
832.2000;0.5372;3.0432;
832.5000;0.5364;3.0456;
832.8000;0.5364;3.0551;
833.1000;0.5348;3.0527;
833.4000;0.5324;3.0480;
833.7000;0.5364;3.0575;
834.0000;0.5421;3.0742;
834.3000;0.5438;3.0814;
834.6000;0.5389;3.0647;
834.9000;0.5372;3.0623;
835.2000;0.5364;3.0671;
835.5000;0.5389;3.0599;
835.8000;0.5372;3.0456;
836.1000;0.5324;3.0480;
836.4000;0.5372;3.0599;
836.7000;0.5413;3.0742;
837.0000;0.5356;3.0503;
837.3000;0.5348;3.0480;
837.6000;0.5340;3.0384;
837.9000;0.5364;3.0384;
838.2000;0.5364;3.0480;
838.5000;0.5364;3.0527;
838.8000;0.5389;3.0575;
839.1000;0.5356;3.0480;
839.4000;0.5372;3.0432;
839.7000;0.5364;3.0432;
840.0000;0.5364;3.0480;
840.3000;0.5356;3.0503;
840.6000;0.5356;3.0503;
840.9000;0.5356;3.0575;
841.2000;0.5413;3.0718;
841.5000;0.5364;3.0623;
841.8000;0.5364;3.0503;
842.1000;0.5372;3.0432;
842.4000;0.5364;3.0384;
842.7000;0.5372;3.0408;
843.0000;0.5340;3.0480;
843.3000;0.5348;3.0575;
843.6000;0.5356;3.0599;
843.9000;0.5348;3.0551;
844.2000;0.5372;3.0575;
844.5000;0.5356;3.0503;
844.8000;0.5356;3.0456;
845.1000;0.5372;3.0503;
845.4000;0.5348;3.0480;
845.7000;0.5356;3.0527;
846.0000;0.5356;3.0527;
846.3000;0.5340;3.0551;
846.6000;0.5348;3.0575;
846.9000;0.5364;3.0623;
847.2000;0.5356;3.0623;
847.5000;0.5348;3.0527;
847.8000;0.5356;3.0408;
848.1000;0.5348;3.0384;
848.4000;0.5340;3.0432;
848.7000;0.5315;3.0289;
849.0000;0.5397;3.0432;
849.3000;0.5348;3.0313;
849.6000;0.5356;3.0336;
849.9000;0.5356;3.0384;
850.2000;0.5364;3.0432;
850.5000;0.5356;3.0503;
850.8000;0.5348;3.0432;
851.1000;0.5364;3.0480;
851.4000;0.5356;3.0360;
851.7000;0.5356;3.0313;
852.0000;0.5332;3.0265;
852.3000;0.5340;3.0289;
852.6000;0.5348;3.0360;
852.9000;0.5364;3.0408;
853.2000;0.5364;3.0432;
853.5000;0.5340;3.0408;
853.8000;0.5340;3.0408;
854.1000;0.5348;3.0456;
854.4000;0.5340;3.0384;
854.7000;0.5348;3.0408;
855.0000;0.5348;3.0360;
855.3000;0.5381;3.0432;
855.6000;0.5340;3.0432;
855.9000;0.5340;3.0384;
856.2000;0.5332;3.0408;
856.5000;0.5356;3.0503;
856.8000;0.5340;3.0480;
857.1000;0.5340;3.0575;
857.4000;0.5324;3.0480;
857.7000;0.5356;3.0432;
858.0000;0.5332;3.0408;
858.3000;0.5332;3.0313;
858.6000;0.5332;3.0265;
858.9000;0.5307;3.0336;
859.2000;0.5324;3.0265;
859.5000;0.5324;3.0265;
859.8000;0.5372;3.0408;
860.1000;0.5348;3.0432;
860.4000;0.5324;3.0384;
860.7000;0.5364;3.0575;
861.0000;0.5340;3.0527;
861.3000;0.5470;3.0814;
861.6000;0.5315;3.0408;
861.9000;0.5356;3.0551;
862.2000;0.5348;3.0503;
862.5000;0.5332;3.0480;
862.8000;0.5299;3.0384;
863.1000;0.5356;3.0527;
863.4000;0.5356;3.0432;
863.7000;0.5332;3.0289;
864.0000;0.5348;3.0360;
864.3000;0.5307;3.0265;
864.6000;0.5332;3.0241;
864.9000;0.5332;3.0289;
865.2000;0.5299;3.0241;
865.5000;0.5324;3.0289;
865.8000;0.5291;3.0169;
866.1000;0.5332;3.0265;
866.4000;0.5340;3.0289;
866.7000;0.5356;3.0384;
867.0000;0.5348;3.0241;
867.3000;0.5340;3.0241;
867.6000;0.5348;3.0289;
867.9000;0.5340;3.0265;
868.2000;0.5356;3.0408;
868.5000;0.5348;3.0360;
868.8000;0.5324;3.0384;
869.1000;0.5348;3.0432;
869.4000;0.5307;3.0456;
869.7000;0.5348;3.0575;
870.0000;0.5348;3.0527;
870.3000;0.5356;3.0456;
870.6000;0.5340;3.0360;
870.9000;0.5340;3.0360;
871.2000;0.5348;3.0241;
871.5000;0.5299;3.0217;
871.8000;0.5348;3.0360;
872.1000;0.5348;3.0360;
872.4000;0.5315;3.0313;
872.7000;0.5324;3.0360;
873.0000;0.5340;3.0384;
873.3000;0.5340;3.0480;
873.6000;0.5299;3.0432;
873.9000;0.5332;3.0623;
874.2000;0.5348;3.0742;
874.5000;0.5332;3.0623;
874.8000;0.5332;3.0742;
875.1000;0.5348;3.0694;
875.4000;0.5315;3.0551;
875.7000;0.5340;3.0575;
876.0000;0.5340;3.0599;
876.3000;0.5348;3.0647;
876.6000;0.5356;3.0623;
876.9000;0.5340;3.0575;
877.2000;0.5340;3.0575;
877.5000;0.5340;3.0551;
877.8000;0.5348;3.0623;
878.1000;0.5332;3.0575;
878.4000;0.5324;3.0503;
878.7000;0.5332;3.0480;
879.0000;0.5332;3.0432;
879.3000;0.5307;3.0360;
879.6000;0.5332;3.0384;
879.9000;0.5332;3.0432;
880.2000;0.5315;3.0456;
880.5000;0.5340;3.0432;
880.8000;0.5332;3.0551;
881.1000;0.5324;3.0623;
881.4000;0.5307;3.0551;
881.7000;0.5315;3.0527;
882.0000;0.5324;3.0575;
882.3000;0.5332;3.0599;
882.6000;0.5291;3.0456;
882.9000;0.5315;3.0575;
883.2000;0.5299;3.0599;
883.5000;0.5340;3.0599;
883.8000;0.5332;3.0647;
884.1000;0.5348;3.0694;
884.4000;0.5332;3.0694;
884.7000;0.5332;3.0647;
885.0000;0.5340;3.0623;
885.3000;0.5332;3.0551;
885.6000;0.5429;3.0742;
885.9000;0.5315;3.0384;
886.2000;0.5332;3.0456;
886.5000;0.5348;3.0432;
886.8000;0.5332;3.0384;
887.1000;0.5348;3.0408;
887.4000;0.5332;3.0384;
887.7000;0.5324;3.0360;
888.0000;0.5332;3.0384;
888.3000;0.5307;3.0384;
888.6000;0.5397;3.0671;
888.9000;0.5324;3.0432;
889.2000;0.5340;3.0456;
889.5000;0.5332;3.0408;
889.8000;0.5307;3.0313;
890.1000;0.5324;3.0360;
890.4000;0.5340;3.0408;
890.7000;0.5315;3.0384;
891.0000;0.5324;3.0265;
891.3000;0.5324;3.0241;
891.6000;0.5332;3.0360;
891.9000;0.5340;3.0408;
892.2000;0.5348;3.0408;
892.5000;0.5283;3.0265;
892.8000;0.5307;3.0360;
893.1000;0.5307;3.0360;
893.4000;0.5324;3.0456;
893.7000;0.5356;3.0527;
894.0000;0.5315;3.0456;
894.3000;0.5307;3.0480;
894.6000;0.5324;3.0527;
894.9000;0.5315;3.0503;
895.2000;0.5307;3.0527;
895.5000;0.5307;3.0480;
895.8000;0.5340;3.0432;
896.1000;0.5332;3.0408;
896.4000;0.5315;3.0456;
896.7000;0.5332;3.0503;
897.0000;0.5324;3.0456;
897.3000;0.5340;3.0384;
897.6000;0.5332;3.0384;
897.9000;0.5315;3.0384;
898.2000;0.5340;3.0527;
898.5000;0.5315;3.0527;
898.8000;0.5332;3.0623;
899.1000;0.5315;3.0599;
899.4000;0.5315;3.0671;
899.7000;0.5307;3.0647;
900.0000;0.5275;3.0551;
900.3000;0.5299;3.0742;
900.6000;0.5315;3.0623;
900.9000;0.5315;3.0527;
901.2000;0.5324;3.0456;
901.5000;0.5315;3.0384;
901.8000;0.5332;3.0456;
902.1000;0.5307;3.0551;
902.4000;0.5315;3.0647;
902.7000;0.5315;3.0575;
903.0000;0.5332;3.0575;
903.3000;0.5307;3.0527;
903.6000;0.5324;3.0527;
903.9000;0.5340;3.0623;
904.2000;0.5324;3.0694;
904.5000;0.5315;3.0647;
904.8000;0.5307;3.0694;
905.1000;0.5315;3.0623;
905.4000;0.5315;3.0575;
905.7000;0.5283;3.0480;
906.0000;0.5324;3.0551;
906.3000;0.5332;3.0575;
906.6000;0.5299;3.0456;
906.9000;0.5275;3.0432;
907.2000;0.5299;3.0480;
907.5000;0.5348;3.0647;
907.8000;0.5315;3.0694;
908.1000;0.5291;3.0671;
908.4000;0.5283;3.0623;
908.7000;0.5307;3.0575;
909.0000;0.5283;3.0480;
909.3000;0.5275;3.0551;
909.6000;0.5307;3.0551;
909.9000;0.5332;3.0623;
910.2000;0.5332;3.0575;
910.5000;0.5315;3.0527;
910.8000;0.5332;3.0527;
911.1000;0.5307;3.0503;
911.4000;0.5332;3.0480;
911.7000;0.5307;3.0527;
912.0000;0.5299;3.0575;
912.3000;0.5315;3.0551;
912.6000;0.5315;3.0456;
912.9000;0.5307;3.0480;
913.2000;0.5324;3.0456;
913.5000;0.5299;3.0503;
913.8000;0.5315;3.0527;
914.1000;0.5332;3.0551;
914.4000;0.5299;3.0408;
914.7000;0.5324;3.0527;
915.0000;0.5307;3.0551;
915.3000;0.5340;3.0647;
915.6000;0.5291;3.0551;
915.9000;0.5291;3.0527;
916.2000;0.5307;3.0551;
916.5000;0.5315;3.0599;
916.8000;0.5307;3.0551;
917.1000;0.5307;3.0551;
917.4000;0.5299;3.0623;
917.7000;0.5315;3.0694;
918.0000;0.5332;3.0718;
918.3000;0.5315;3.0647;
918.6000;0.5389;3.0885;
918.9000;0.5315;3.0694;
919.2000;0.5315;3.0647;
919.5000;0.5307;3.0527;
919.8000;0.5324;3.0694;
920.1000;0.5307;3.0694;
920.4000;0.5258;3.0527;
920.7000;0.5315;3.0742;
921.0000;0.5299;3.0694;
921.3000;0.5315;3.0694;
921.6000;0.5324;3.0694;
921.9000;0.5291;3.0599;
922.2000;0.5307;3.0671;
922.5000;0.5307;3.0718;
922.8000;0.5340;3.0790;
923.1000;0.5299;3.0742;
923.4000;0.5291;3.0671;
923.7000;0.5291;3.0718;
924.0000;0.5299;3.0742;
924.3000;0.5307;3.0742;
924.6000;0.5299;3.0671;
924.9000;0.5315;3.0694;
925.2000;0.5307;3.0647;
925.5000;0.5307;3.0647;
925.8000;0.5307;3.0718;
926.1000;0.5291;3.0718;
926.4000;0.5307;3.0766;
926.7000;0.5307;3.0861;
927.0000;0.5267;3.0766;
927.3000;0.5267;3.0718;
927.6000;0.5283;3.0718;
927.9000;0.5234;3.0551;
928.2000;0.5291;3.0575;
928.5000;0.5356;3.0671;
928.8000;0.5315;3.0599;
929.1000;0.5324;3.0647;
929.4000;0.5307;3.0623;
929.7000;0.5283;3.0551;
930.0000;0.5356;3.0671;
930.3000;0.5307;3.0575;
930.6000;0.5307;3.0503;
930.9000;0.5299;3.0575;
931.2000;0.5307;3.0551;
931.5000;0.5315;3.0527;
931.8000;0.5299;3.0503;
932.1000;0.5307;3.0551;
932.4000;0.5389;3.0718;
932.7000;0.5291;3.0575;
933.0000;0.5242;3.0432;
933.3000;0.5291;3.0599;
933.6000;0.5291;3.0551;
933.9000;0.5372;3.0790;
934.2000;0.5315;3.0694;
934.5000;0.5283;3.0718;
934.8000;0.5307;3.0671;
935.1000;0.5307;3.0766;
935.4000;0.5291;3.0814;
935.7000;0.5315;3.0909;
936.0000;0.5315;3.0814;
936.3000;0.5315;3.0790;
936.6000;0.5315;3.0814;
936.9000;0.5267;3.0671;
937.2000;0.5299;3.0671;
937.5000;0.5299;3.0671;
937.8000;0.5299;3.0527;
938.1000;0.5315;3.0503;
938.4000;0.5291;3.0480;
938.7000;0.5283;3.0551;
939.0000;0.5283;3.0647;
939.3000;0.5299;3.0623;
939.6000;0.5291;3.0575;
939.9000;0.5299;3.0623;
940.2000;0.5291;3.0647;
940.5000;0.5307;3.0623;
940.8000;0.5299;3.0623;
941.1000;0.5315;3.0623;
941.4000;0.5299;3.0575;
941.7000;0.5283;3.0575;
942.0000;0.5307;3.0671;
942.3000;0.5299;3.0694;
942.6000;0.5307;3.0671;
942.9000;0.5315;3.0694;
943.2000;0.5372;3.0838;
943.5000;0.5307;3.0718;
943.8000;0.5307;3.0718;
944.1000;0.5299;3.0718;
944.4000;0.5291;3.0861;
944.7000;0.5242;3.0599;
945.0000;0.5291;3.0694;
945.3000;0.5299;3.0647;
945.6000;0.5299;3.0623;
945.9000;0.5307;3.0671;
946.2000;0.5275;3.0623;
946.5000;0.5307;3.0742;
946.8000;0.5299;3.0694;
947.1000;0.5364;3.0766;
947.4000;0.5299;3.0718;
947.7000;0.5283;3.0694;
948.0000;0.5307;3.0766;
948.3000;0.5348;3.0814;
948.6000;0.5299;3.0671;
948.9000;0.5299;3.0694;
949.2000;0.5299;3.0647;
949.5000;0.5356;3.0718;
949.8000;0.5307;3.0647;
950.1000;0.5258;3.0527;
950.4000;0.5307;3.0623;
950.7000;0.5299;3.0623;
951.0000;0.5315;3.0671;
951.3000;0.5307;3.0671;
951.6000;0.5283;3.0694;
951.9000;0.5307;3.0694;
952.2000;0.5307;3.0647;
952.5000;0.5267;3.0456;
952.8000;0.5299;3.0503;
953.1000;0.5324;3.0527;
953.4000;0.5283;3.0480;
953.7000;0.5340;3.0575;
954.0000;0.5283;3.0432;
954.3000;0.5348;3.0551;
954.6000;0.5324;3.0480;
954.9000;0.5291;3.0432;
955.2000;0.5299;3.0432;
955.5000;0.5315;3.0503;
955.8000;0.5315;3.0551;
956.1000;0.5291;3.0480;
956.4000;0.5299;3.0456;
956.7000;0.5267;3.0432;
957.0000;0.5315;3.0480;
957.3000;0.5283;3.0432;
957.6000;0.5299;3.0527;
957.9000;0.5315;3.0503;
958.2000;0.5291;3.0480;
958.5000;0.5307;3.0527;
958.8000;0.5307;3.0551;
959.1000;0.5299;3.0503;
959.4000;0.5299;3.0551;
959.7000;0.5307;3.0575;
960.0000;0.5291;3.0575;
960.3000;0.5324;3.0551;
960.6000;0.5315;3.0551;
960.9000;0.5324;3.0575;
961.2000;0.5283;3.0551;
961.5000;0.5299;3.0575;
961.8000;0.5291;3.0599;
962.1000;0.5283;3.0575;
962.4000;0.5283;3.0575;
962.7000;0.5291;3.0527;
963.0000;0.5291;3.0527;
963.3000;0.5275;3.0480;
963.6000;0.5356;3.0647;
963.9000;0.5307;3.0551;
964.2000;0.5299;3.0480;
964.5000;0.5299;3.0527;
964.8000;0.5307;3.0551;
965.1000;0.5291;3.0527;
965.4000;0.5291;3.0575;
965.7000;0.5332;3.0671;
966.0000;0.5291;3.0718;
966.3000;0.5275;3.0694;
966.6000;0.5340;3.0909;
966.9000;0.5258;3.0766;
967.2000;0.5299;3.0933;
967.5000;0.5299;3.0861;
967.8000;0.5275;3.0790;
968.1000;0.5291;3.0694;
968.4000;0.5315;3.0766;
968.7000;0.5291;3.0766;
969.0000;0.5275;3.0790;
969.3000;0.5307;3.0838;
969.6000;0.5307;3.0814;
969.9000;0.5299;3.0838;
970.2000;0.5275;3.0718;
970.5000;0.5283;3.0718;
970.8000;0.5299;3.0838;
971.1000;0.5324;3.0814;
971.4000;0.5299;3.0814;
971.7000;0.5307;3.0790;
972.0000;0.5291;3.0694;
972.3000;0.5332;3.0718;
972.6000;0.5299;3.0599;
972.9000;0.5275;3.0599;
973.2000;0.5307;3.0647;
973.5000;0.5250;3.0551;
973.8000;0.5291;3.0671;
974.1000;0.5299;3.0671;
974.4000;0.5299;3.0647;
974.7000;0.5275;3.0647;
975.0000;0.5324;3.0790;
975.3000;0.5299;3.0647;
975.6000;0.5275;3.0551;
975.9000;0.5283;3.0503;
976.2000;0.5291;3.0575;
976.5000;0.5275;3.0480;
976.8000;0.5307;3.0503;
977.1000;0.5299;3.0456;
977.4000;0.5291;3.0456;
977.7000;0.5234;3.0336;
978.0000;0.5291;3.0599;
978.3000;0.5283;3.0599;
978.6000;0.5193;3.0456;
978.9000;0.5291;3.0742;
979.2000;0.5307;3.0814;
979.5000;0.5283;3.0742;
979.8000;0.5283;3.0718;
980.1000;0.5250;3.0623;
980.4000;0.5283;3.0694;
980.7000;0.5267;3.0647;
981.0000;0.5283;3.0623;
981.3000;0.5299;3.0575;
981.6000;0.5299;3.0575;
981.9000;0.5275;3.0480;
982.2000;0.5299;3.0575;
982.5000;0.5299;3.0623;
982.8000;0.5340;3.0694;
983.1000;0.5299;3.0647;
983.4000;0.5340;3.0766;
983.7000;0.5275;3.0575;
984.0000;0.5315;3.0671;
984.3000;0.5315;3.0671;
984.6000;0.5291;3.0551;
984.9000;0.5299;3.0575;
985.2000;0.5283;3.0456;
985.5000;0.5291;3.0503;
985.8000;0.5283;3.0408;
986.1000;0.5275;3.0384;
986.4000;0.5291;3.0503;
986.7000;0.5283;3.0527;
987.0000;0.5250;3.0480;
987.3000;0.5283;3.0456;
987.6000;0.5307;3.0527;
987.9000;0.5299;3.0527;
988.2000;0.5267;3.0432;
988.5000;0.5283;3.0503;
988.8000;0.5275;3.0408;
989.1000;0.5291;3.0503;
989.4000;0.5283;3.0551;
989.7000;0.5242;3.0503;
990.0000;0.5275;3.0599;
990.3000;0.5283;3.0551;
990.6000;0.5283;3.0551;
990.9000;0.5242;3.0527;
991.2000;0.5275;3.0599;
991.5000;0.5283;3.0575;
991.8000;0.5315;3.0575;
992.1000;0.5275;3.0527;
992.4000;0.5299;3.0599;
992.7000;0.5258;3.0575;
993.0000;0.5283;3.0694;
993.3000;0.5275;3.0647;
993.6000;0.5283;3.0599;
993.9000;0.5250;3.0575;
994.2000;0.5267;3.0647;
994.5000;0.5275;3.0647;
994.8000;0.5283;3.0647;
995.1000;0.5291;3.0694;
995.4000;0.5283;3.0718;
995.7000;0.5291;3.0718;
996.0000;0.5291;3.0742;
996.3000;0.5283;3.0742;
996.6000;0.5258;3.0671;
996.9000;0.5283;3.0694;
997.2000;0.5258;3.0551;
997.5000;0.5283;3.0551;
997.8000;0.5299;3.0575;
998.1000;0.5275;3.0456;
998.4000;0.5283;3.0503;
998.7000;0.5307;3.0527;
999.0000;0.5283;3.0456;
999.3000;0.5283;3.0551;
999.6000;0.5242;3.0503;
999.9000;0.5267;3.0551;
1000.2000;0.5275;3.0527;
1000.5000;0.5291;3.0623;
1000.8000;0.5275;3.0647;
1001.1000;0.5275;3.0742;
1001.4000;0.5258;3.0742;
1001.7000;0.5291;3.0814;
1002.0000;0.5275;3.0742;
1002.3000;0.5210;3.0575;
1002.6000;0.5267;3.0623;
1002.9000;0.5315;3.0766;
1003.2000;0.5283;3.0694;
1003.5000;0.5291;3.0766;
1003.8000;0.5283;3.0742;
1004.1000;0.5299;3.0766;
1004.4000;0.5283;3.0790;
1004.7000;0.5275;3.0814;
1005.0000;0.5275;3.0790;
1005.3000;0.5283;3.0766;
1005.6000;0.5307;3.0766;
1005.9000;0.5267;3.0671;
1006.2000;0.5299;3.0694;
1006.5000;0.5291;3.0742;
1006.8000;0.5283;3.0647;
1007.1000;0.5275;3.0599;
1007.4000;0.5283;3.0647;
1007.7000;0.5307;3.0623;
1008.0000;0.5291;3.0623;
1008.3000;0.5291;3.0694;
1008.6000;0.5283;3.0671;
1008.9000;0.5291;3.0623;
1009.2000;0.5291;3.0647;
1009.5000;0.5275;3.0671;
1009.8000;0.5291;3.0647;
1010.1000;0.5275;3.0599;
1010.4000;0.5275;3.0599;
1010.7000;0.5283;3.0599;
1011.0000;0.5267;3.0575;
1011.3000;0.5258;3.0599;
1011.6000;0.5275;3.0742;
1011.9000;0.5283;3.0814;
1012.2000;0.5283;3.0814;
1012.5000;0.5291;3.0838;
1012.8000;0.5267;3.0718;
1013.1000;0.5291;3.0814;
1013.4000;0.5275;3.0790;
1013.7000;0.5283;3.0718;
1014.0000;0.5299;3.0766;
1014.3000;0.5283;3.0694;
1014.6000;0.5267;3.0647;
1014.9000;0.5275;3.0742;
1015.2000;0.5299;3.0766;
1015.5000;0.5275;3.0718;
1015.8000;0.5193;3.0575;
1016.1000;0.5275;3.0838;
1016.4000;0.5291;3.0909;
1016.7000;0.5267;3.0766;
1017.0000;0.5283;3.0718;
1017.3000;0.5267;3.0671;
1017.6000;0.5258;3.0694;
1017.9000;0.5291;3.0766;
1018.2000;0.5250;3.0623;
1018.5000;0.5275;3.0742;
1018.8000;0.5258;3.0718;
1019.1000;0.5267;3.0766;
1019.4000;0.5283;3.0814;
1019.7000;0.5275;3.0694;
1020.0000;0.5291;3.0623;
1020.3000;0.5315;3.0671;
1020.6000;0.5250;3.0527;
1020.9000;0.5283;3.0503;
1021.2000;0.5226;3.0408;
1021.5000;0.5267;3.0551;
1021.8000;0.5267;3.0551;
1022.1000;0.5258;3.0551;
1022.4000;0.5267;3.0527;
1022.7000;0.5267;3.0527;
1023.0000;0.5210;3.0384;
1023.3000;0.5299;3.0694;
1023.6000;0.5193;3.0480;
1023.9000;0.5250;3.0694;
1024.2000;0.5258;3.0742;
1024.5000;0.5275;3.0742;
1024.8000;0.5258;3.0671;
1025.1000;0.5250;3.0623;
1025.4000;0.5275;3.0623;
1025.7000;0.5299;3.0694;
1026.0000;0.5299;3.0742;
1026.3000;0.5258;3.0742;
1026.6000;0.5283;3.0838;
1026.9000;0.5324;3.0909;
1027.2000;0.5291;3.0766;
1027.5000;0.5275;3.0766;
1027.8000;0.5291;3.0742;
1028.1000;0.5299;3.0790;
1028.4000;0.5299;3.0885;
1028.7000;0.5275;3.0742;
1029.0000;0.5332;3.0766;
1029.3000;0.5283;3.0694;
1029.6000;0.5275;3.0647;
1029.9000;0.5275;3.0575;
1030.2000;0.5275;3.0575;
1030.5000;0.5267;3.0503;
1030.8000;0.5275;3.0575;
1031.1000;0.5299;3.0647;
1031.4000;0.5275;3.0623;
1031.7000;0.5291;3.0742;
1032.0000;0.5267;3.0790;
1032.3000;0.5291;3.0766;
1032.6000;0.5267;3.0718;
1032.9000;0.5258;3.0790;
1033.2000;0.5258;3.0838;
1033.5000;0.5267;3.0885;
1033.8000;0.5275;3.0861;
1034.1000;0.5258;3.0742;
1034.4000;0.5258;3.0790;
1034.7000;0.5250;3.0766;
1035.0000;0.5210;3.0575;
1035.3000;0.5283;3.0647;
1035.6000;0.5275;3.0647;
1035.9000;0.5275;3.0551;
1036.2000;0.5283;3.0575;
1036.5000;0.5242;3.0503;
1036.8000;0.5291;3.0623;
1037.1000;0.5283;3.0694;
1037.4000;0.5291;3.0623;
1037.7000;0.5267;3.0623;
1038.0000;0.5283;3.0671;
1038.3000;0.5283;3.0742;
1038.6000;0.5258;3.0599;
1038.9000;0.5258;3.0503;
1039.2000;0.5291;3.0575;
1039.5000;0.5283;3.0575;
1039.8000;0.5307;3.0599;
1040.1000;0.5258;3.0527;
1040.4000;0.5258;3.0527;
1040.7000;0.5283;3.0647;
1041.0000;0.5275;3.0623;
1041.3000;0.5283;3.0647;
1041.6000;0.5291;3.0694;
1041.9000;0.5234;3.0599;
1042.2000;0.5307;3.0742;
1042.5000;0.5291;3.0647;
1042.8000;0.5291;3.0599;
1043.1000;0.5324;3.0742;
1043.4000;0.5275;3.0647;
1043.7000;0.5299;3.0694;
1044.0000;0.5283;3.0575;
1044.3000;0.5258;3.0503;
1044.6000;0.5267;3.0503;
1044.9000;0.5275;3.0575;
1045.2000;0.5299;3.0599;
1045.5000;0.5307;3.0694;
1045.8000;0.5283;3.0623;
1046.1000;0.5283;3.0694;
1046.4000;0.5250;3.0527;
1046.7000;0.5193;3.0313;
1047.0000;0.5340;3.0551;
1047.3000;0.5275;3.0480;
1047.6000;0.5275;3.0503;
1047.9000;0.5258;3.0551;
1048.2000;0.5267;3.0599;
1048.5000;0.5340;3.0861;
1048.8000;0.5283;3.0694;
1049.1000;0.5275;3.0718;
1049.4000;0.5267;3.0718;
1049.7000;0.5258;3.0694;
1050.0000;0.5307;3.0814;
1050.3000;0.5283;3.0790;
1050.6000;0.5267;3.0742;
1050.9000;0.5299;3.0718;
1051.2000;0.5283;3.0766;
1051.5000;0.5283;3.0742;
1051.8000;0.5250;3.0742;
1052.1000;0.5275;3.0766;
1052.4000;0.5275;3.0766;
1052.7000;0.5283;3.0742;
1053.0000;0.5267;3.0718;
1053.3000;0.5275;3.0766;
1053.6000;0.5275;3.0671;
1053.9000;0.5275;3.0599;
1054.2000;0.5258;3.0527;
1054.5000;0.5283;3.0575;
1054.8000;0.5267;3.0551;
1055.1000;0.5267;3.0575;
1055.4000;0.5275;3.0671;
1055.7000;0.5258;3.0694;
1056.0000;0.5275;3.0742;
1056.3000;0.5356;3.0909;
1056.6000;0.5267;3.0623;
1056.9000;0.5210;3.0527;
1057.2000;0.5275;3.0742;
1057.5000;0.5283;3.0742;
1057.8000;0.5291;3.0742;
1058.1000;0.5267;3.0647;
1058.4000;0.5267;3.0623;
1058.7000;0.5267;3.0623;
1059.0000;0.5258;3.0671;
1059.3000;0.5250;3.0647;
1059.6000;0.5242;3.0599;
1059.9000;0.5324;3.0790;
1060.2000;0.5275;3.0623;
1060.5000;0.5250;3.0623;
1060.8000;0.5250;3.0551;
1061.1000;0.5275;3.0623;
1061.4000;0.5291;3.0694;
1061.7000;0.5283;3.0647;
1062.0000;0.5267;3.0623;
1062.3000;0.5283;3.0575;
1062.6000;0.5218;3.0432;
1062.9000;0.5258;3.0599;
1063.2000;0.5258;3.0599;
1063.5000;0.5267;3.0575;
1063.8000;0.5275;3.0503;
1064.1000;0.5267;3.0456;
1064.4000;0.5275;3.0551;
1064.7000;0.5250;3.0623;
1065.0000;0.5275;3.0599;
1065.3000;0.5291;3.0694;
1065.6000;0.5267;3.0718;
1065.9000;0.5267;3.0623;
1066.2000;0.5267;3.0599;
1066.5000;0.5258;3.0575;
1066.8000;0.5258;3.0623;
1067.1000;0.5267;3.0623;
1067.4000;0.5291;3.0671;
1067.7000;0.5283;3.0671;
1068.0000;0.5267;3.0575;
1068.3000;0.5315;3.0623;
1068.6000;0.5283;3.0527;
1068.9000;0.5275;3.0551;
1069.2000;0.5275;3.0503;
1069.5000;0.5275;3.0575;
1069.8000;0.5283;3.0503;
1070.1000;0.5267;3.0503;
1070.4000;0.5267;3.0503;
1070.7000;0.5315;3.0599;
1071.0000;0.5275;3.0551;
1071.3000;0.5315;3.0599;
1071.6000;0.5283;3.0480;
1071.9000;0.5283;3.0480;
1072.2000;0.5258;3.0336;
1072.5000;0.5258;3.0336;
1072.8000;0.5332;3.0503;
1073.1000;0.5283;3.0384;
1073.4000;0.5283;3.0456;
1073.7000;0.5267;3.0456;
1074.0000;0.5283;3.0503;
1074.3000;0.5332;3.0647;
1074.6000;0.5275;3.0551;
1074.9000;0.5258;3.0432;
1075.2000;0.5283;3.0527;
1075.5000;0.5267;3.0527;
1075.8000;0.5267;3.0647;
1076.1000;0.5258;3.0671;
1076.4000;0.5267;3.0694;
1076.7000;0.5267;3.0790;
1077.0000;0.5283;3.0838;
1077.3000;0.5267;3.0861;
1077.6000;0.5267;3.0814;
1077.9000;0.5291;3.0694;
1078.2000;0.5275;3.0647;
1078.5000;0.5267;3.0694;
1078.8000;0.5250;3.0718;
1079.1000;0.5275;3.0742;
1079.4000;0.5250;3.0694;
1079.7000;0.5250;3.0671;
1080.0000;0.5267;3.0718;
1080.3000;0.5250;3.0742;
1080.6000;0.5275;3.0718;
1080.9000;0.5275;3.0766;
1081.2000;0.5275;3.0742;
1081.5000;0.5283;3.0694;
1081.8000;0.5291;3.0671;
1082.1000;0.5275;3.0623;
1082.4000;0.5267;3.0623;
1082.7000;0.5299;3.0694;
1083.0000;0.5267;3.0718;
1083.3000;0.5258;3.0694;
1083.6000;0.5234;3.0623;
1083.9000;0.5283;3.0694;
1084.2000;0.5267;3.0623;
1084.5000;0.5275;3.0551;
1084.8000;0.5258;3.0527;
1085.1000;0.5275;3.0480;
1085.4000;0.5275;3.0503;
1085.7000;0.5258;3.0527;
1086.0000;0.5267;3.0599;
1086.3000;0.5258;3.0647;
1086.6000;0.5258;3.0599;
1086.9000;0.5250;3.0599;
1087.2000;0.5267;3.0671;
1087.5000;0.5258;3.0718;
1087.8000;0.5267;3.0766;
1088.1000;0.5291;3.0790;
1088.4000;0.5275;3.0694;
1088.7000;0.5275;3.0694;
1089.0000;0.5258;3.0742;
1089.3000;0.5275;3.0790;
1089.6000;0.5267;3.0814;
1089.9000;0.5267;3.0814;
1090.2000;0.5267;3.0838;
1090.5000;0.5258;3.0742;
1090.8000;0.5242;3.0766;
1091.1000;0.5275;3.0814;
1091.4000;0.5250;3.0766;
1091.7000;0.5250;3.0718;
1092.0000;0.5258;3.0766;
1092.3000;0.5250;3.0718;
1092.6000;0.5291;3.0766;
1092.9000;0.5267;3.0671;
1093.2000;0.5258;3.0766;
1093.5000;0.5250;3.0838;
1093.8000;0.5258;3.0933;
1094.1000;0.5250;3.0957;
1094.4000;0.5267;3.1005;
1094.7000;0.5226;3.0838;
1095.0000;0.5258;3.0838;
1095.3000;0.5267;3.0766;
1095.6000;0.5258;3.0671;
1095.9000;0.5250;3.0671;
1096.2000;0.5258;3.0647;
1096.5000;0.5267;3.0647;
1096.8000;0.5267;3.0647;
1097.1000;0.5291;3.0671;
1097.4000;0.5275;3.0599;
1097.7000;0.5275;3.0503;
1098.0000;0.5275;3.0647;
1098.3000;0.5242;3.0599;
1098.6000;0.5275;3.0694;
1098.9000;0.5267;3.0671;
1099.2000;0.5258;3.0647;
1099.5000;0.5283;3.0790;
1099.8000;0.5267;3.0790;
1100.1000;0.5258;3.0694;
1100.4000;0.5267;3.0647;
1100.7000;0.5324;3.0718;
1101.0000;0.5258;3.0527;
1101.3000;0.5275;3.0527;
1101.6000;0.5258;3.0503;
1101.9000;0.5258;3.0456;
1102.2000;0.5275;3.0623;
1102.5000;0.5275;3.0647;
1102.8000;0.5250;3.0718;
1103.1000;0.5275;3.0742;
1103.4000;0.5258;3.0718;
1103.7000;0.5258;3.0718;
1104.0000;0.5267;3.0790;
1104.3000;0.5275;3.0766;
1104.6000;0.5275;3.0790;
1104.9000;0.5275;3.0766;
1105.2000;0.5258;3.0718;
1105.5000;0.5267;3.0671;
1105.8000;0.5275;3.0742;
1106.1000;0.5267;3.0814;
1106.4000;0.5267;3.0838;
1106.7000;0.5218;3.0766;
1107.0000;0.5324;3.1052;
1107.3000;0.5275;3.1005;
1107.6000;0.5258;3.1005;
1107.9000;0.5258;3.0957;
1108.2000;0.5234;3.0933;
1108.5000;0.5201;3.0790;
1108.8000;0.5275;3.0957;
1109.1000;0.5324;3.1076;
1109.4000;0.5267;3.0838;
1109.7000;0.5267;3.0861;
1110.0000;0.5250;3.0766;
1110.3000;0.5299;3.0814;
1110.6000;0.5258;3.0766;
1110.9000;0.5234;3.0742;
1111.2000;0.5258;3.0790;
1111.5000;0.5267;3.0838;
1111.8000;0.5267;3.0838;
1112.1000;0.5291;3.0838;
1112.4000;0.5258;3.0694;
1112.7000;0.5242;3.0647;
1113.0000;0.5242;3.0742;
1113.3000;0.5299;3.0861;
1113.6000;0.5267;3.0885;
1113.9000;0.5275;3.0981;
1114.2000;0.5242;3.0933;
1114.5000;0.5267;3.0933;
1114.8000;0.5275;3.0909;
1115.1000;0.5258;3.0885;
1115.4000;0.5242;3.0909;
1115.7000;0.5226;3.0909;
1116.0000;0.5250;3.1005;
1116.3000;0.5283;3.1029;
1116.6000;0.5258;3.0981;
1116.9000;0.5226;3.0957;
1117.2000;0.5267;3.1196;
1117.5000;0.5267;3.1172;
1117.8000;0.5258;3.1029;
1118.1000;0.5267;3.1005;
1118.4000;0.5267;3.0957;
1118.7000;0.5275;3.0885;
1119.0000;0.5307;3.0933;
1119.3000;0.5258;3.0742;
1119.6000;0.5250;3.0718;
1119.9000;0.5275;3.0766;
1120.2000;0.5267;3.0742;
1120.5000;0.5275;3.0742;
1120.8000;0.5283;3.0766;
1121.1000;0.5258;3.0814;
1121.4000;0.5275;3.0885;
1121.7000;0.5267;3.0814;
1122.0000;0.5275;3.0814;
1122.3000;0.5307;3.0861;
1122.6000;0.5258;3.0718;
1122.9000;0.5258;3.0718;
1123.2000;0.5275;3.0718;
1123.5000;0.5267;3.0718;
1123.8000;0.5258;3.0694;
1124.1000;0.5258;3.0694;
1124.4000;0.5267;3.0766;
1124.7000;0.5291;3.0766;
1125.0000;0.5275;3.0766;
1125.3000;0.5242;3.0718;
1125.6000;0.5283;3.0790;
1125.9000;0.5218;3.0694;
1126.2000;0.5283;3.0838;
1126.5000;0.5250;3.0694;
1126.8000;0.5250;3.0671;
1127.1000;0.5234;3.0623;
1127.4000;0.5250;3.0671;
1127.7000;0.5226;3.0671;
1128.0000;0.5258;3.0790;
1128.3000;0.5242;3.0671;
1128.6000;0.5242;3.0623;
1128.9000;0.5226;3.0551;
1129.2000;0.5242;3.0599;
1129.5000;0.5242;3.0575;
1129.8000;0.5250;3.0527;
1130.1000;0.5242;3.0551;
1130.4000;0.5242;3.0551;
1130.7000;0.5291;3.0694;
1131.0000;0.5267;3.0671;
1131.3000;0.5258;3.0623;
1131.6000;0.5242;3.0623;
1131.9000;0.5250;3.0551;
1132.2000;0.5250;3.0623;
1132.5000;0.5267;3.0647;
1132.8000;0.5267;3.0599;
1133.1000;0.5242;3.0575;
1133.4000;0.5258;3.0623;
1133.7000;0.5250;3.0599;
1134.0000;0.5258;3.0575;
1134.3000;0.5242;3.0456;
1134.6000;0.5242;3.0408;
1134.9000;0.5258;3.0360;
1135.2000;0.5307;3.0599;
1135.5000;0.5258;3.0503;
1135.8000;0.5201;3.0432;
1136.1000;0.5242;3.0503;
1136.4000;0.5250;3.0503;
1136.7000;0.5210;3.0480;
1137.0000;0.5258;3.0623;
1137.3000;0.5218;3.0456;
1137.6000;0.5258;3.0503;
1137.9000;0.5258;3.0480;
1138.2000;0.5275;3.0360;
1138.5000;0.5283;3.0384;
1138.8000;0.5291;3.0432;
1139.1000;0.5267;3.0384;
1139.4000;0.5258;3.0289;
1139.7000;0.5258;3.0336;
1140.0000;0.5250;3.0456;
1140.3000;0.5258;3.0503;
1140.6000;0.5258;3.0551;
1140.9000;0.5258;3.0551;
1141.2000;0.5210;3.0384;
1141.5000;0.5258;3.0503;
1141.8000;0.5299;3.0671;
1142.1000;0.5242;3.0599;
1142.4000;0.5258;3.0647;
1142.7000;0.5258;3.0647;
1143.0000;0.5267;3.0647;
1143.3000;0.5267;3.0623;
1143.6000;0.5250;3.0671;
1143.9000;0.5267;3.0718;
1144.2000;0.5275;3.0647;
1144.5000;0.5267;3.0694;
1144.8000;0.5291;3.0718;
1145.1000;0.5299;3.0742;
1145.4000;0.5258;3.0551;
1145.7000;0.5258;3.0527;
1146.0000;0.5226;3.0408;
1146.3000;0.5283;3.0527;
1146.6000;0.5275;3.0551;
1146.9000;0.5332;3.0694;
1147.2000;0.5258;3.0503;
1147.5000;0.5267;3.0456;
1147.8000;0.5332;3.0647;
1148.1000;0.5283;3.0551;
1148.4000;0.5275;3.0551;
1148.7000;0.5250;3.0480;
1149.0000;0.5291;3.0551;
1149.3000;0.5283;3.0527;
1149.6000;0.5242;3.0456;
1149.9000;0.5250;3.0456;
1150.2000;0.5250;3.0432;
1150.5000;0.5201;3.0336;
1150.8000;0.5226;3.0456;
1151.1000;0.5250;3.0503;
1151.4000;0.5258;3.0599;
1151.7000;0.5242;3.0671;
1152.0000;0.5267;3.0694;
1152.3000;0.5267;3.0647;
1152.6000;0.5258;3.0599;
1152.9000;0.5242;3.0599;
1153.2000;0.5242;3.0575;
1153.5000;0.5267;3.0647;
1153.8000;0.5250;3.0647;
1154.1000;0.5242;3.0671;
1154.4000;0.5267;3.0742;
1154.7000;0.5234;3.0647;
1155.0000;0.5242;3.0599;
1155.3000;0.5242;3.0575;
1155.6000;0.5258;3.0551;
1155.9000;0.5242;3.0551;
1156.2000;0.5250;3.0647;
1156.5000;0.5267;3.0647;
1156.8000;0.5291;3.0671;
1157.1000;0.5307;3.0766;
1157.4000;0.5267;3.0671;
1157.7000;0.5275;3.0647;
1158.0000;0.5267;3.0718;
1158.3000;0.5283;3.0718;
1158.6000;0.5275;3.0647;
1158.9000;0.5283;3.0694;
1159.2000;0.5258;3.0527;
1159.5000;0.5283;3.0647;
1159.8000;0.5234;3.0575;
1160.1000;0.5250;3.0623;
1160.4000;0.5250;3.0551;
1160.7000;0.5267;3.0694;
1161.0000;0.5226;3.0551;
1161.3000;0.5226;3.0551;
1161.6000;0.5250;3.0527;
1161.9000;0.5250;3.0575;
1162.2000;0.5258;3.0575;
1162.5000;0.5275;3.0647;
1162.8000;0.5210;3.0503;
1163.1000;0.5258;3.0694;
1163.4000;0.5234;3.0575;
1163.7000;0.5242;3.0551;
1164.0000;0.5242;3.0623;
1164.3000;0.5258;3.0647;
1164.6000;0.5250;3.0647;
1164.9000;0.5258;3.0647;
1165.2000;0.5250;3.0575;
1165.5000;0.5218;3.0551;
1165.8000;0.5275;3.0742;
1166.1000;0.5258;3.0742;
1166.4000;0.5193;3.0623;
1166.7000;0.5356;3.1052;
1167.0000;0.5258;3.0814;
1167.3000;0.5242;3.0790;
1167.6000;0.5258;3.0790;
1167.9000;0.5242;3.0766;
1168.2000;0.5267;3.0718;
1168.5000;0.5258;3.0599;
1168.8000;0.5250;3.0527;
1169.1000;0.5258;3.0456;
1169.4000;0.5267;3.0456;
1169.7000;0.5242;3.0384;
1170.0000;0.5226;3.0265;
1170.3000;0.5258;3.0408;
1170.6000;0.5250;3.0456;
1170.9000;0.5242;3.0456;
1171.2000;0.5267;3.0527;
1171.5000;0.5258;3.0623;
1171.8000;0.5340;3.0694;
1172.1000;0.5291;3.0503;
1172.4000;0.5242;3.0456;
1172.7000;0.5242;3.0480;
1173.0000;0.5250;3.0408;
1173.3000;0.5258;3.0241;
1173.6000;0.5250;3.0289;
1173.9000;0.5258;3.0313;
1174.2000;0.5242;3.0289;
1174.5000;0.5242;3.0336;
1174.8000;0.5250;3.0336;
1175.1000;0.5258;3.0336;
1175.4000;0.5250;3.0336;
1175.7000;0.5267;3.0408;
1176.0000;0.5210;3.0265;
1176.3000;0.5250;3.0384;
1176.6000;0.5299;3.0384;
1176.9000;0.5258;3.0360;
1177.2000;0.5234;3.0408;
1177.5000;0.5250;3.0432;
1177.8000;0.5250;3.0408;
1178.1000;0.5275;3.0456;
1178.4000;0.5250;3.0432;
1178.7000;0.5324;3.0718;
1179.0000;0.5275;3.0551;
1179.3000;0.5267;3.0527;
1179.6000;0.5267;3.0503;
1179.9000;0.5258;3.0408;
1180.2000;0.5258;3.0384;
1180.5000;0.5315;3.0575;
1180.8000;0.5242;3.0408;
1181.1000;0.5258;3.0551;
1181.4000;0.5258;3.0527;
1181.7000;0.5250;3.0527;
1182.0000;0.5242;3.0503;
1182.3000;0.5283;3.0599;
1182.6000;0.5258;3.0551;
1182.9000;0.5267;3.0527;
1183.2000;0.5242;3.0432;
1183.5000;0.5275;3.0503;
1183.8000;0.5258;3.0456;
1184.1000;0.5242;3.0480;
1184.4000;0.5267;3.0503;
1184.7000;0.5364;3.0814;
1185.0000;0.5258;3.0718;
1185.3000;0.5258;3.0718;
1185.6000;0.5250;3.0718;
1185.9000;0.5267;3.0718;
1186.2000;0.5250;3.0742;
1186.5000;0.5234;3.0647;
1186.8000;0.5242;3.0694;
1187.1000;0.5250;3.0766;
1187.4000;0.5267;3.0814;
1187.7000;0.5210;3.0647;
1188.0000;0.5258;3.0766;
1188.3000;0.5234;3.0718;
1188.6000;0.5275;3.0766;
1188.9000;0.5250;3.0694;
1189.2000;0.5291;3.0766;
1189.5000;0.5267;3.0766;
1189.8000;0.5258;3.0790;
1190.1000;0.5267;3.0790;
1190.4000;0.5218;3.0623;
1190.7000;0.5258;3.0742;
1191.0000;0.5250;3.0766;
1191.3000;0.5258;3.0814;
1191.6000;0.5258;3.0790;
1191.9000;0.5258;3.0814;
1192.2000;0.5177;3.0599;
1192.5000;0.5267;3.0790;
1192.8000;0.5283;3.0694;
1193.1000;0.5242;3.0575;
1193.4000;0.5275;3.0599;
1193.7000;0.5267;3.0671;
1194.0000;0.5226;3.0647;
1194.3000;0.5242;3.0647;
1194.6000;0.5275;3.0790;
1194.9000;0.5258;3.0766;
1195.2000;0.5250;3.0694;
1195.5000;0.5267;3.0718;
1195.8000;0.5267;3.0742;
1196.1000;0.5242;3.0623;
1196.4000;0.5267;3.0694;
1196.7000;0.5250;3.0623;
1197.0000;0.5275;3.0694;
1197.3000;0.5275;3.0742;
1197.6000;0.5267;3.0671;
1197.9000;0.5242;3.0575;
1198.2000;0.5234;3.0599;
1198.5000;0.5267;3.0671;
1198.8000;0.5250;3.0623;
1199.1000;0.5250;3.0694;
1199.4000;0.5242;3.0718;
1199.7000;0.5291;3.0838;
1200.0000;0.5250;3.0694;
1200.3000;0.5267;3.0694;
1200.6000;0.5250;3.0671;
1200.9000;0.5340;3.0933;
1201.2000;0.5324;3.0909;
1201.5000;0.5267;3.0766;
1201.8000;0.5258;3.0814;
1202.1000;0.5242;3.0814;
1202.4000;0.5234;3.0790;
1202.7000;0.5258;3.0790;
1203.0000;0.5275;3.0814;
1203.3000;0.5250;3.0742;
1203.6000;0.5258;3.0766;
1203.9000;0.5267;3.0671;
1204.2000;0.5258;3.0671;
1204.5000;0.5234;3.0671;
1204.8000;0.5258;3.0742;
1205.1000;0.5267;3.0766;
1205.4000;0.5250;3.0718;
1205.7000;0.5242;3.0671;
1206.0000;0.5258;3.0766;
1206.3000;0.5218;3.0742;
1206.6000;0.5250;3.0742;
1206.9000;0.5250;3.0647;
1207.2000;0.5267;3.0694;
1207.5000;0.5250;3.0647;
1207.8000;0.5234;3.0599;
1208.1000;0.5250;3.0694;
1208.4000;0.5250;3.0766;
1208.7000;0.5210;3.0647;
1209.0000;0.5283;3.0790;
1209.3000;0.5250;3.0742;
1209.6000;0.5242;3.0742;
1209.9000;0.5234;3.0838;
1210.2000;0.5258;3.0933;
1210.5000;0.5250;3.0933;
1210.8000;0.5258;3.0981;
1211.1000;0.5218;3.0885;
1211.4000;0.5267;3.0909;
1211.7000;0.5250;3.0838;
1212.0000;0.5258;3.0838;
1212.3000;0.5242;3.0671;
1212.6000;0.5283;3.0742;
1212.9000;0.5315;3.0838;
1213.2000;0.5267;3.0718;
1213.5000;0.5275;3.0671;
1213.8000;0.5267;3.0599;
1214.1000;0.5250;3.0599;
1214.4000;0.5267;3.0647;
1214.7000;0.5275;3.0647;
1215.0000;0.5258;3.0623;
1215.3000;0.5275;3.0694;
1215.6000;0.5267;3.0647;
1215.9000;0.5250;3.0623;
1216.2000;0.5267;3.0671;
1216.5000;0.5267;3.0718;
1216.8000;0.5267;3.0671;
1217.1000;0.5258;3.0694;
1217.4000;0.5291;3.0790;
1217.7000;0.5258;3.0718;
1218.0000;0.5291;3.0742;
1218.3000;0.5250;3.0575;
1218.6000;0.5258;3.0599;
1218.9000;0.5258;3.0623;
1219.2000;0.5275;3.0647;
1219.5000;0.5258;3.0551;
1219.8000;0.5226;3.0575;
1220.1000;0.5234;3.0647;
1220.4000;0.5250;3.0647;
1220.7000;0.5258;3.0647;
1221.0000;0.5267;3.0694;
1221.3000;0.5275;3.0766;
1221.6000;0.5250;3.0694;
1221.9000;0.5267;3.0790;
1222.2000;0.5267;3.0790;
1222.5000;0.5348;3.0957;
1222.8000;0.5234;3.0647;
1223.1000;0.5258;3.0623;
1223.4000;0.5267;3.0599;
1223.7000;0.5258;3.0647;
1224.0000;0.5267;3.0671;
1224.3000;0.5267;3.0671;
1224.6000;0.5250;3.0575;
1224.9000;0.5275;3.0671;
1225.2000;0.5258;3.0623;
1225.5000;0.5258;3.0575;
1225.8000;0.5258;3.0623;
1226.1000;0.5226;3.0575;
1226.4000;0.5258;3.0551;
1226.7000;0.5258;3.0551;
1227.0000;0.5267;3.0623;
1227.3000;0.5250;3.0671;
1227.6000;0.5258;3.0671;
1227.9000;0.5267;3.0694;
1228.2000;0.5226;3.0599;
1228.5000;0.5250;3.0623;
1228.8000;0.5258;3.0551;
1229.1000;0.5250;3.0551;
1229.4000;0.5258;3.0647;
1229.7000;0.5267;3.0647;
1230.0000;0.5258;3.0575;
1230.3000;0.5242;3.0623;
1230.6000;0.5250;3.0647;
1230.9000;0.5234;3.0671;
1231.2000;0.5250;3.0742;
1231.5000;0.5234;3.0718;
1231.8000;0.5258;3.0790;
1232.1000;0.5242;3.0742;
1232.4000;0.5242;3.0694;
1232.7000;0.5242;3.0718;
1233.0000;0.5250;3.0790;
1233.3000;0.5275;3.0838;
1233.6000;0.5258;3.0838;
1233.9000;0.5267;3.0790;
1234.2000;0.5267;3.0790;
1234.5000;0.5250;3.0647;
1234.8000;0.5258;3.0503;
1235.1000;0.5258;3.0575;
1235.4000;0.5258;3.0647;
1235.7000;0.5250;3.0575;
1236.0000;0.5267;3.0575;
1236.3000;0.5242;3.0480;
1236.6000;0.5250;3.0480;
1236.9000;0.5258;3.0503;
1237.2000;0.5242;3.0527;
1237.5000;0.5250;3.0599;
1237.8000;0.5283;3.0718;
1238.1000;0.5258;3.0742;
1238.4000;0.5226;3.0766;
1238.7000;0.5258;3.0814;
1239.0000;0.5267;3.0861;
1239.3000;0.5267;3.0814;
1239.6000;0.5267;3.0694;
1239.9000;0.5250;3.0694;
1240.2000;0.5250;3.0694;
1240.5000;0.5250;3.0647;
1240.8000;0.5242;3.0647;
1241.1000;0.5267;3.0838;
1241.4000;0.5258;3.0838;
1241.7000;0.5234;3.0885;
1242.0000;0.5193;3.0814;
1242.3000;0.5267;3.0957;
1242.6000;0.5267;3.0838;
1242.9000;0.5267;3.0742;
1243.2000;0.5332;3.0909;
1243.5000;0.5275;3.0790;
1243.8000;0.5275;3.0718;
1244.1000;0.5250;3.0742;
1244.4000;0.5258;3.0861;
1244.7000;0.5193;3.0694;
1245.0000;0.5242;3.0790;
1245.3000;0.5234;3.0790;
1245.6000;0.5299;3.0909;
1245.9000;0.5242;3.0718;
1246.2000;0.5291;3.0766;
1246.5000;0.5242;3.0623;
1246.8000;0.5250;3.0647;
1247.1000;0.5234;3.0575;
1247.4000;0.5242;3.0647;
1247.7000;0.5193;3.0575;
1248.0000;0.5250;3.0718;
1248.3000;0.5250;3.0599;
1248.6000;0.5169;3.0408;
1248.9000;0.5234;3.0575;
1249.2000;0.5258;3.0623;
1249.5000;0.5258;3.0599;
1249.8000;0.5275;3.0671;
1250.1000;0.5234;3.0599;
1250.4000;0.5242;3.0623;
1250.7000;0.5242;3.0671;
1251.0000;0.5258;3.0742;
1251.3000;0.5258;3.0742;
1251.6000;0.5242;3.0838;
1251.9000;0.5283;3.0957;
1252.2000;0.5258;3.0766;
1252.5000;0.5242;3.0623;
1252.8000;0.5226;3.0623;
1253.1000;0.5258;3.0790;
1253.4000;0.5258;3.0790;
1253.7000;0.5250;3.0790;
1254.0000;0.5242;3.0694;
1254.3000;0.5210;3.0599;
1254.6000;0.5242;3.0623;
1254.9000;0.5258;3.0671;
1255.2000;0.5226;3.0647;
1255.5000;0.5234;3.0647;
1255.8000;0.5234;3.0599;
1256.1000;0.5242;3.0647;
1256.4000;0.5258;3.0623;
1256.7000;0.5250;3.0527;
1257.0000;0.5299;3.0671;
1257.3000;0.5250;3.0575;
1257.6000;0.5250;3.0527;
1257.9000;0.5226;3.0527;
1258.2000;0.5267;3.0742;
1258.5000;0.5267;3.0766;
1258.8000;0.5250;3.0766;
1259.1000;0.5258;3.0814;
1259.4000;0.5258;3.0814;
1259.7000;0.5283;3.0909;
1260.0000;0.5250;3.0790;
1260.3000;0.5250;3.0838;
1260.6000;0.5250;3.0909;
1260.9000;0.5267;3.0909;
1261.2000;0.5218;3.0814;
1261.5000;0.5250;3.0861;
1261.8000;0.5234;3.0838;
1262.1000;0.5258;3.0861;
1262.4000;0.5258;3.0885;
1262.7000;0.5250;3.0885;
1263.0000;0.5210;3.0742;
1263.3000;0.5283;3.0814;
1263.6000;0.5267;3.0790;
1263.9000;0.5258;3.0718;
1264.2000;0.5242;3.0647;
1264.5000;0.5250;3.0623;
1264.8000;0.5267;3.0575;
1265.1000;0.5250;3.0456;
1265.4000;0.5250;3.0456;
1265.7000;0.5242;3.0527;
1266.0000;0.5283;3.0575;
1266.3000;0.5242;3.0503;
1266.6000;0.5226;3.0360;
1266.9000;0.5258;3.0480;
1267.2000;0.5267;3.0503;
1267.5000;0.5267;3.0575;
1267.8000;0.5250;3.0480;
1268.1000;0.5258;3.0575;
1268.4000;0.5258;3.0647;
1268.7000;0.5291;3.0694;
1269.0000;0.5258;3.0623;
1269.3000;0.5242;3.0647;
1269.6000;0.5291;3.0718;
1269.9000;0.5250;3.0647;
1270.2000;0.5193;3.0480;
1270.5000;0.5242;3.0599;
1270.8000;0.5250;3.0480;
1271.1000;0.5267;3.0503;
1271.4000;0.5250;3.0432;
1271.7000;0.5291;3.0575;
1272.0000;0.5234;3.0503;
1272.3000;0.5250;3.0527;
1272.6000;0.5307;3.0671;
1272.9000;0.5275;3.0599;
1273.2000;0.5250;3.0527;
1273.5000;0.5258;3.0503;
1273.8000;0.5250;3.0527;
1274.1000;0.5169;3.0408;
1274.4000;0.5258;3.0647;
1274.7000;0.5258;3.0599;
1275.0000;0.5250;3.0575;
1275.3000;0.5250;3.0551;
1275.6000;0.5250;3.0551;
1275.9000;0.5250;3.0575;
1276.2000;0.5299;3.0718;
1276.5000;0.5234;3.0503;
1276.8000;0.5258;3.0551;
1277.1000;0.5250;3.0456;
1277.4000;0.5258;3.0527;
1277.7000;0.5250;3.0480;
1278.0000;0.5258;3.0384;
1278.3000;0.5258;3.0384;
1278.6000;0.5283;3.0480;
1278.9000;0.5250;3.0408;
1279.2000;0.5242;3.0480;
1279.5000;0.5267;3.0503;
1279.8000;0.5275;3.0527;
1280.1000;0.5275;3.0551;
1280.4000;0.5275;3.0599;
1280.7000;0.5258;3.0551;
1281.0000;0.5267;3.0527;
1281.3000;0.5267;3.0527;
1281.6000;0.5267;3.0575;
1281.9000;0.5258;3.0599;
1282.2000;0.5258;3.0599;
1282.5000;0.5267;3.0718;
1282.8000;0.5267;3.0647;
1283.1000;0.5258;3.0647;
1283.4000;0.5348;3.0742;
1283.7000;0.5283;3.0456;
1284.0000;0.5242;3.0384;
1284.3000;0.5218;3.0241;
1284.6000;0.5258;3.0336;
1284.9000;0.5242;3.0289;
1285.2000;0.5250;3.0289;
1285.5000;0.5250;3.0336;
1285.8000;0.5242;3.0480;
1286.1000;0.5258;3.0456;
1286.4000;0.5258;3.0527;
1286.7000;0.5267;3.0623;
1287.0000;0.5250;3.0671;
1287.3000;0.5258;3.0647;
1287.6000;0.5258;3.0599;
1287.9000;0.5250;3.0623;
1288.2000;0.5267;3.0647;
1288.5000;0.5267;3.0694;
1288.8000;0.5275;3.0647;
1289.1000;0.5267;3.0599;
1289.4000;0.5250;3.0480;
1289.7000;0.5242;3.0456;
1290.0000;0.5234;3.0432;
1290.3000;0.5258;3.0480;
1290.6000;0.5258;3.0503;
1290.9000;0.5242;3.0480;
1291.2000;0.5267;3.0503;
1291.5000;0.5258;3.0503;
1291.8000;0.5250;3.0503;
1292.1000;0.5258;3.0527;
1292.4000;0.5250;3.0480;
1292.7000;0.5299;3.0551;
1293.0000;0.5267;3.0480;
1293.3000;0.5234;3.0384;
1293.6000;0.5218;3.0408;
1293.9000;0.5242;3.0432;
1294.2000;0.5258;3.0432;
1294.5000;0.5242;3.0408;
1294.8000;0.5242;3.0480;
1295.1000;0.5242;3.0551;
1295.4000;0.5258;3.0527;
1295.7000;0.5275;3.0456;
1296.0000;0.5258;3.0480;
1296.3000;0.5226;3.0384;
1296.6000;0.5275;3.0527;
1296.9000;0.5267;3.0503;
1297.2000;0.5324;3.0694;
1297.5000;0.5267;3.0527;
1297.8000;0.5258;3.0480;
1298.1000;0.5258;3.0623;
1298.4000;0.5250;3.0575;
1298.7000;0.5242;3.0551;
1299.0000;0.5258;3.0575;
1299.3000;0.5185;3.0384;
1299.6000;0.5250;3.0718;
1299.9000;0.5226;3.0575;
1300.2000;0.5218;3.0480;
1300.5000;0.5267;3.0599;
1300.8000;0.5258;3.0551;
1301.1000;0.5193;3.0432;
1301.4000;0.5161;3.0217;
1301.7000;0.5185;3.0265;
1302.0000;0.5250;3.0456;
1302.3000;0.5250;3.0599;
1302.6000;0.5258;3.0599;
1302.9000;0.5234;3.0551;
1303.2000;0.5250;3.0623;
1303.5000;0.5250;3.0647;
1303.8000;0.5250;3.0599;
1304.1000;0.5275;3.0671;
1304.4000;0.5283;3.0742;
1304.7000;0.5250;3.0623;
1305.0000;0.5275;3.0718;
1305.3000;0.5299;3.0790;
1305.6000;0.5267;3.0647;
1305.9000;0.5242;3.0647;
1306.2000;0.5250;3.0694;
1306.5000;0.5250;3.0694;
1306.8000;0.5291;3.0671;
1307.1000;0.5258;3.0671;
1307.4000;0.5291;3.0718;
1307.7000;0.5242;3.0694;
1308.0000;0.5250;3.0742;
1308.3000;0.5234;3.0742;
1308.6000;0.5258;3.0838;
1308.9000;0.5258;3.0838;
1309.2000;0.5258;3.0790;
1309.5000;0.5258;3.0814;
1309.8000;0.5267;3.0814;
1310.1000;0.5250;3.0742;
1310.4000;0.5275;3.0766;
1310.7000;0.5234;3.0671;
1311.0000;0.5250;3.0718;
1311.3000;0.5226;3.0671;
1311.6000;0.5250;3.0766;
1311.9000;0.5234;3.0718;
1312.2000;0.5218;3.0790;
1312.5000;0.5242;3.0766;
1312.8000;0.5234;3.0766;
1313.1000;0.5250;3.0838;
1313.4000;0.5250;3.0814;
1313.7000;0.5242;3.0814;
1314.0000;0.5226;3.0694;
1314.3000;0.5258;3.0718;
1314.6000;0.5250;3.0718;
1314.9000;0.5267;3.0790;
1315.2000;0.5258;3.0814;
1315.5000;0.5258;3.0957;
1315.8000;0.5234;3.0861;
1316.1000;0.5201;3.0766;
1316.4000;0.5242;3.0814;
1316.7000;0.5242;3.0838;
1317.0000;0.5250;3.0885;
1317.3000;0.5250;3.0933;
1317.6000;0.5234;3.0790;
1317.9000;0.5153;3.0551;
1318.2000;0.5283;3.0790;
1318.5000;0.5250;3.0718;
1318.8000;0.5250;3.0671;
1319.1000;0.5250;3.0671;
1319.4000;0.5267;3.0742;
1319.7000;0.5258;3.0694;
1320.0000;0.5250;3.0671;
1320.3000;0.5242;3.0671;
1320.6000;0.5258;3.0671;
1320.9000;0.5291;3.0718;
1321.2000;0.5267;3.0718;
1321.5000;0.5275;3.0718;
1321.8000;0.5250;3.0694;
1322.1000;0.5185;3.0527;
1322.4000;0.5283;3.0838;
1322.7000;0.5234;3.0647;
1323.0000;0.5234;3.0742;
1323.3000;0.5201;3.0647;
1323.6000;0.5218;3.0671;
1323.9000;0.5218;3.0694;
1324.2000;0.5242;3.0718;
1324.5000;0.5348;3.1005;
1324.8000;0.5283;3.0861;
1325.1000;0.5242;3.0861;
1325.4000;0.5226;3.0861;
1325.7000;0.5234;3.0885;
1326.0000;0.5234;3.0909;
1326.3000;0.5250;3.0885;
1326.6000;0.5234;3.0861;
1326.9000;0.5234;3.0933;
1327.2000;0.5250;3.1052;
1327.5000;0.5234;3.1052;
1327.8000;0.5242;3.1052;
1328.1000;0.5250;3.0981;
1328.4000;0.5250;3.0933;
1328.7000;0.5242;3.0909;
1329.0000;0.5226;3.0957;
1329.3000;0.5234;3.0838;
1329.6000;0.5210;3.0838;
1329.9000;0.5234;3.0885;
1330.2000;0.5267;3.0838;
1330.5000;0.5250;3.0790;
1330.8000;0.5234;3.0742;
1331.1000;0.5250;3.0885;
1331.4000;0.5250;3.0885;
1331.7000;0.5226;3.0838;
1332.0000;0.5258;3.0909;
1332.3000;0.5267;3.0933;
1332.6000;0.5250;3.0790;
1332.9000;0.5242;3.0671;
1333.2000;0.5258;3.0766;
1333.5000;0.5275;3.0790;
1333.8000;0.5267;3.0814;
1334.1000;0.5242;3.0790;
1334.4000;0.5234;3.0814;
1334.7000;0.5250;3.0814;
1335.0000;0.5283;3.0885;
1335.3000;0.5250;3.0742;
1335.6000;0.5258;3.0790;
1335.9000;0.5234;3.0694;
1336.2000;0.5250;3.0718;
1336.5000;0.5234;3.0766;
1336.8000;0.5242;3.0742;
1337.1000;0.5242;3.0694;
1337.4000;0.5234;3.0718;
1337.7000;0.5218;3.0742;
1338.0000;0.5234;3.0790;
1338.3000;0.5226;3.0790;
1338.6000;0.5242;3.0838;
1338.9000;0.5258;3.0814;
1339.2000;0.5250;3.0766;
1339.5000;0.5234;3.0814;
1339.8000;0.5258;3.0790;
1340.1000;0.5283;3.0718;
1340.4000;0.5267;3.0647;
1340.7000;0.5250;3.0551;
1341.0000;0.5242;3.0551;
1341.3000;0.5275;3.0623;
1341.6000;0.5258;3.0623;
1341.9000;0.5258;3.0671;
1342.2000;0.5234;3.0623;
1342.5000;0.5275;3.0694;
1342.8000;0.5267;3.0718;
1343.1000;0.5250;3.0694;
1343.4000;0.5258;3.0718;
1343.7000;0.5258;3.0766;
1344.0000;0.5275;3.0814;
1344.3000;0.5242;3.0742;
1344.6000;0.5267;3.0838;
1344.9000;0.5258;3.0766;
1345.2000;0.5275;3.0742;
1345.5000;0.5267;3.0694;
1345.8000;0.5234;3.0742;
1346.1000;0.5193;3.0623;
1346.4000;0.5283;3.0861;
1346.7000;0.5242;3.0838;
1347.0000;0.5250;3.0766;
1347.3000;0.5250;3.0838;
1347.6000;0.5250;3.0885;
1347.9000;0.5242;3.0861;
1348.2000;0.5250;3.0885;
1348.5000;0.5226;3.0766;
1348.8000;0.5250;3.0766;
1349.1000;0.5258;3.0694;
1349.4000;0.5234;3.0575;
1349.7000;0.5242;3.0551;
1350.0000;0.5275;3.0647;
1350.3000;0.5242;3.0575;
1350.6000;0.5267;3.0599;
1350.9000;0.5234;3.0599;
1351.2000;0.5242;3.0671;
1351.5000;0.5234;3.0718;
1351.8000;0.5258;3.0790;
1352.1000;0.5226;3.0766;
1352.4000;0.5258;3.0909;
1352.7000;0.5242;3.0909;
1353.0000;0.5267;3.0957;
1353.3000;0.5267;3.0885;
1353.6000;0.5258;3.0838;
1353.9000;0.5283;3.0861;
1354.2000;0.5275;3.0814;
1354.5000;0.5242;3.0766;
1354.8000;0.5275;3.0838;
1355.1000;0.5291;3.0885;
1355.4000;0.5267;3.0718;
1355.7000;0.5267;3.0694;
1356.0000;0.5250;3.0671;
1356.3000;0.5258;3.0599;
1356.6000;0.5258;3.0527;
1356.9000;0.5340;3.0718;
1357.2000;0.5250;3.0480;
1357.5000;0.5250;3.0551;
1357.8000;0.5258;3.0623;
1358.1000;0.5275;3.0671;
1358.4000;0.5234;3.0551;
1358.7000;0.5226;3.0527;
1359.0000;0.5250;3.0551;
1359.3000;0.5258;3.0527;
1359.6000;0.5242;3.0456;
1359.9000;0.5258;3.0503;
1360.2000;0.5242;3.0384;
1360.5000;0.5250;3.0360;
1360.8000;0.5226;3.0336;
1361.1000;0.5210;3.0313;
1361.4000;0.5234;3.0408;
1361.7000;0.5307;3.0599;
1362.0000;0.5242;3.0503;
1362.3000;0.5234;3.0527;
1362.6000;0.5218;3.0456;
1362.9000;0.5258;3.0408;
1363.2000;0.5267;3.0527;
1363.5000;0.5258;3.0503;
1363.8000;0.5258;3.0384;
1364.1000;0.5267;3.0503;
1364.4000;0.5242;3.0503;
1364.7000;0.5234;3.0551;
1365.0000;0.5250;3.0575;
1365.3000;0.5242;3.0599;
1365.6000;0.5250;3.0623;
1365.9000;0.5234;3.0647;
1366.2000;0.5250;3.0718;
1366.5000;0.5267;3.0838;
1366.8000;0.5267;3.0885;
1367.1000;0.5218;3.0742;
1367.4000;0.5267;3.0909;
1367.7000;0.5258;3.0909;
1368.0000;0.5258;3.0861;
1368.3000;0.5275;3.0861;
1368.6000;0.5267;3.0790;
1368.9000;0.5242;3.0742;
1369.2000;0.5258;3.0718;
1369.5000;0.5267;3.0790;
1369.8000;0.5234;3.0742;
1370.1000;0.5267;3.0885;
1370.4000;0.5250;3.0766;
1370.7000;0.5283;3.0885;
1371.0000;0.5234;3.0766;
1371.3000;0.5193;3.0599;
1371.6000;0.5250;3.0671;
1371.9000;0.5226;3.0694;
1372.2000;0.5242;3.0718;
1372.5000;0.5242;3.0671;
1372.8000;0.5201;3.0551;
1373.1000;0.5210;3.0503;
1373.4000;0.5234;3.0647;
1373.7000;0.5218;3.0671;
1374.0000;0.5226;3.0623;
1374.3000;0.5250;3.0694;
1374.6000;0.5234;3.0647;
1374.9000;0.5242;3.0599;
1375.2000;0.5234;3.0599;
1375.5000;0.5275;3.0647;
1375.8000;0.5201;3.0456;
1376.1000;0.5210;3.0432;
1376.4000;0.5185;3.0408;
1376.7000;0.5258;3.0599;
1377.0000;0.5291;3.0671;
1377.3000;0.5242;3.0503;
1377.6000;0.5218;3.0480;
1377.9000;0.5242;3.0575;
1378.2000;0.5250;3.0623;
1378.5000;0.5258;3.0671;
1378.8000;0.5250;3.0647;
1379.1000;0.5267;3.0718;
1379.4000;0.5258;3.0694;
1379.7000;0.5275;3.0647;
1380.0000;0.5242;3.0623;
1380.3000;0.5250;3.0647;
1380.6000;0.5258;3.0623;
1380.9000;0.5250;3.0599;
1381.2000;0.5250;3.0527;
1381.5000;0.5267;3.0599;
1381.8000;0.5250;3.0527;
1382.1000;0.5258;3.0408;
1382.4000;0.5258;3.0527;
1382.7000;0.5267;3.0647;
1383.0000;0.5250;3.0599;
1383.3000;0.5267;3.0599;
1383.6000;0.5210;3.0408;
1383.9000;0.5234;3.0480;
1384.2000;0.5242;3.0480;
1384.5000;0.5250;3.0456;
1384.8000;0.5307;3.0599;
1385.1000;0.5242;3.0503;
1385.4000;0.5242;3.0575;
1385.7000;0.5250;3.0599;
1386.0000;0.5201;3.0456;
1386.3000;0.5258;3.0575;
1386.6000;0.5185;3.0408;
1386.9000;0.5267;3.0527;
1387.2000;0.5258;3.0503;
1387.5000;0.5218;3.0456;
1387.8000;0.5250;3.0575;
1388.1000;0.5275;3.0623;
1388.4000;0.5258;3.0551;
1388.7000;0.5242;3.0599;
1389.0000;0.5218;3.0551;
1389.3000;0.5242;3.0623;
1389.6000;0.5242;3.0551;
1389.9000;0.5283;3.0575;
1390.2000;0.5258;3.0503;
1390.5000;0.5234;3.0551;
1390.8000;0.5242;3.0575;
1391.1000;0.5226;3.0694;
1391.4000;0.5226;3.0694;
1391.7000;0.5201;3.0623;
1392.0000;0.5234;3.0718;
1392.3000;0.5258;3.0742;
1392.6000;0.5283;3.0742;
1392.9000;0.5250;3.0742;
1393.2000;0.5283;3.0838;
1393.5000;0.5250;3.0861;
1393.8000;0.5275;3.0885;
1394.1000;0.5242;3.0790;
1394.4000;0.5258;3.0742;
1394.7000;0.5234;3.0671;
1395.0000;0.5242;3.0718;
1395.3000;0.5299;3.0885;
1395.6000;0.5242;3.0718;
1395.9000;0.5275;3.0671;
1396.2000;0.5242;3.0623;
1396.5000;0.5242;3.0575;
1396.8000;0.5242;3.0551;
1397.1000;0.5242;3.0527;
1397.4000;0.5242;3.0503;
1397.7000;0.5210;3.0408;
1398.0000;0.5234;3.0432;
1398.3000;0.5275;3.0480;
1398.6000;0.5242;3.0432;
1398.9000;0.5250;3.0456;
1399.2000;0.5250;3.0503;
1399.5000;0.5242;3.0480;
1399.8000;0.5267;3.0527;
