time/ms;Fluo/V;P700 deltaI/I x10³;
-199.8000;0.5804;3.0575;
-199.5000;0.5796;3.0575;
-199.2000;0.5796;3.0551;
-198.9000;0.5796;3.0671;
-198.6000;0.5788;3.0647;
-198.3000;0.5771;3.0647;
-198.0000;0.5788;3.0647;
-197.7000;0.5812;3.0623;
-197.4000;0.5796;3.0575;
-197.1000;0.5788;3.0623;
-196.8000;0.5796;3.0623;
-196.5000;0.5779;3.0527;
-196.2000;0.5763;3.0432;
-195.9000;0.5771;3.0623;
-195.6000;0.5788;3.0718;
-195.3000;0.5779;3.0742;
-195.0000;0.5804;3.0766;
-194.7000;0.5779;3.0766;
-194.4000;0.5796;3.0766;
-194.1000;0.5771;3.0647;
-193.8000;0.5796;3.0814;
-193.5000;0.5812;3.0861;
-193.2000;0.5804;3.0814;
-192.9000;0.5804;3.0790;
-192.6000;0.5788;3.0671;
-192.3000;0.5804;3.0694;
-192.0000;0.5788;3.0599;
-191.7000;0.5836;3.0694;
-191.4000;0.5796;3.0647;
-191.1000;0.5788;3.0671;
-190.8000;0.5763;3.0575;
-190.5000;0.5796;3.0623;
-190.2000;0.5804;3.0623;
-189.9000;0.5804;3.0623;
-189.6000;0.5788;3.0575;
-189.3000;0.5779;3.0599;
-189.0000;0.5788;3.0647;
-188.7000;0.5771;3.0647;
-188.4000;0.5779;3.0623;
-188.1000;0.5788;3.0647;
-187.8000;0.5796;3.0647;
-187.5000;0.5828;3.0694;
-187.2000;0.5796;3.0647;
-186.9000;0.5804;3.0623;
-186.6000;0.5796;3.0623;
-186.3000;0.5812;3.0599;
-186.0000;0.5820;3.0623;
-185.7000;0.5804;3.0671;
-185.4000;0.5869;3.0790;
-185.1000;0.5796;3.0551;
-184.8000;0.5804;3.0527;
-184.5000;0.5812;3.0671;
-184.2000;0.5804;3.0647;
-183.9000;0.5779;3.0694;
-183.6000;0.5788;3.0647;
-183.3000;0.5804;3.0647;
-183.0000;0.5771;3.0575;
-182.7000;0.5755;3.0551;
-182.4000;0.5788;3.0647;
-182.1000;0.5788;3.0671;
-181.8000;0.5771;3.0575;
-181.5000;0.5804;3.0551;
-181.2000;0.5804;3.0623;
-180.9000;0.5804;3.0623;
-180.6000;0.5804;3.0527;
-180.3000;0.5804;3.0551;
-180.0000;0.5779;3.0456;
-179.7000;0.5796;3.0527;
-179.4000;0.5788;3.0527;
-179.1000;0.5771;3.0480;
-178.8000;0.5714;3.0336;
-178.5000;0.5739;3.0432;
-178.2000;0.5788;3.0527;
-177.9000;0.5796;3.0575;
-177.6000;0.5788;3.0408;
-177.3000;0.5788;3.0456;
-177.0000;0.5788;3.0480;
-176.7000;0.5796;3.0503;
-176.4000;0.5788;3.0503;
-176.1000;0.5820;3.0551;
-175.8000;0.5763;3.0360;
-175.5000;0.5804;3.0503;
-175.2000;0.5722;3.0408;
-174.9000;0.5779;3.0599;
-174.6000;0.5788;3.0623;
-174.3000;0.5796;3.0599;
-174.0000;0.5796;3.0623;
-173.7000;0.5796;3.0694;
-173.4000;0.5804;3.0647;
-173.1000;0.5788;3.0647;
-172.8000;0.5788;3.0551;
-172.5000;0.5788;3.0503;
-172.2000;0.5796;3.0480;
-171.9000;0.5804;3.0527;
-171.6000;0.5804;3.0527;
-171.3000;0.5804;3.0623;
-171.0000;0.5788;3.0575;
-170.7000;0.5828;3.0766;
-170.4000;0.5763;3.0527;
-170.1000;0.5779;3.0551;
-169.8000;0.5779;3.0575;
-169.5000;0.5796;3.0647;
-169.2000;0.5771;3.0718;
-168.9000;0.5779;3.0718;
-168.6000;0.5788;3.0623;
-168.3000;0.5796;3.0647;
-168.0000;0.5788;3.0551;
-167.7000;0.5788;3.0599;
-167.4000;0.5788;3.0647;
-167.1000;0.5755;3.0599;
-166.8000;0.5788;3.0647;
-166.5000;0.5812;3.0742;
-166.2000;0.5788;3.0742;
-165.9000;0.5779;3.0790;
-165.6000;0.5788;3.0790;
-165.3000;0.5779;3.0766;
-165.0000;0.5779;3.0742;
-164.7000;0.5820;3.0766;
-164.4000;0.5820;3.0718;
-164.1000;0.5788;3.0694;
-163.8000;0.5796;3.0671;
-163.5000;0.5771;3.0647;
-163.2000;0.5788;3.0694;
-162.9000;0.5722;3.0575;
-162.6000;0.5836;3.0838;
-162.3000;0.5796;3.0671;
-162.0000;0.5804;3.0647;
-161.7000;0.5812;3.0814;
-161.4000;0.5796;3.0814;
-161.1000;0.5885;3.1005;
-160.8000;0.5788;3.0838;
-160.5000;0.5812;3.0885;
-160.2000;0.5796;3.0814;
-159.9000;0.5779;3.0766;
-159.6000;0.5796;3.0742;
-159.3000;0.5779;3.0742;
-159.0000;0.5763;3.0694;
-158.7000;0.5779;3.0814;
-158.4000;0.5804;3.0861;
-158.1000;0.5812;3.0838;
-157.8000;0.5828;3.0814;
-157.5000;0.5763;3.0623;
-157.2000;0.5796;3.0671;
-156.9000;0.5755;3.0575;
-156.6000;0.5796;3.0647;
-156.3000;0.5763;3.0527;
-156.0000;0.5788;3.0480;
-155.7000;0.5763;3.0480;
-155.4000;0.5796;3.0694;
-155.1000;0.5804;3.0694;
-154.8000;0.5788;3.0623;
-154.5000;0.5804;3.0623;
-154.2000;0.5812;3.0647;
-153.9000;0.5804;3.0647;
-153.6000;0.5804;3.0551;
-153.3000;0.5812;3.0575;
-153.0000;0.5812;3.0527;
-152.7000;0.5812;3.0551;
-152.4000;0.5804;3.0527;
-152.1000;0.5788;3.0527;
-151.8000;0.5796;3.0551;
-151.5000;0.5788;3.0480;
-151.2000;0.5706;3.0313;
-150.9000;0.5779;3.0480;
-150.6000;0.5788;3.0456;
-150.3000;0.5804;3.0480;
-150.0000;0.5788;3.0503;
-149.7000;0.5771;3.0456;
-149.4000;0.5788;3.0456;
-149.1000;0.5796;3.0480;
-148.8000;0.5788;3.0527;
-148.5000;0.5820;3.0671;
-148.2000;0.5812;3.0647;
-147.9000;0.5820;3.0671;
-147.6000;0.5804;3.0647;
-147.3000;0.5796;3.0623;
-147.0000;0.5771;3.0527;
-146.7000;0.5804;3.0623;
-146.4000;0.5796;3.0527;
-146.1000;0.5804;3.0575;
-145.8000;0.5788;3.0527;
-145.5000;0.5812;3.0575;
-145.2000;0.5804;3.0551;
-144.9000;0.5779;3.0503;
-144.6000;0.5788;3.0527;
-144.3000;0.5796;3.0551;
-144.0000;0.5812;3.0551;
-143.7000;0.5771;3.0456;
-143.4000;0.5812;3.0432;
-143.1000;0.5779;3.0360;
-142.8000;0.5812;3.0432;
-142.5000;0.5788;3.0408;
-142.2000;0.5788;3.0480;
-141.9000;0.5771;3.0575;
-141.6000;0.5796;3.0551;
-141.3000;0.5812;3.0575;
-141.0000;0.5731;3.0241;
-140.7000;0.5771;3.0313;
-140.4000;0.5788;3.0336;
-140.1000;0.5804;3.0289;
-139.8000;0.5747;3.0122;
-139.5000;0.5820;3.0336;
-139.2000;0.5804;3.0289;
-138.9000;0.5763;3.0145;
-138.6000;0.5747;3.0145;
-138.3000;0.5804;3.0289;
-138.0000;0.5796;3.0360;
-137.7000;0.5796;3.0432;
-137.4000;0.5763;3.0408;
-137.1000;0.5779;3.0432;
-136.8000;0.5739;3.0313;
-136.5000;0.5788;3.0408;
-136.2000;0.5796;3.0432;
-135.9000;0.5804;3.0408;
-135.6000;0.5763;3.0408;
-135.3000;0.5828;3.0623;
-135.0000;0.5796;3.0623;
-134.7000;0.5779;3.0575;
-134.4000;0.5779;3.0551;
-134.1000;0.5771;3.0480;
-133.8000;0.5747;3.0408;
-133.5000;0.5779;3.0456;
-133.2000;0.5788;3.0480;
-132.9000;0.5836;3.0694;
-132.6000;0.5788;3.0527;
-132.3000;0.5796;3.0503;
-132.0000;0.5779;3.0456;
-131.7000;0.5796;3.0456;
-131.4000;0.5804;3.0503;
-131.1000;0.5796;3.0551;
-130.8000;0.5804;3.0503;
-130.5000;0.5771;3.0384;
-130.2000;0.5796;3.0384;
-129.9000;0.5779;3.0360;
-129.6000;0.5804;3.0432;
-129.3000;0.5788;3.0456;
-129.0000;0.5779;3.0551;
-128.7000;0.5820;3.0575;
-128.4000;0.5812;3.0623;
-128.1000;0.5788;3.0551;
-127.8000;0.5763;3.0432;
-127.5000;0.5796;3.0527;
-127.2000;0.5812;3.0456;
-126.9000;0.5788;3.0408;
-126.6000;0.5796;3.0384;
-126.3000;0.5779;3.0408;
-126.0000;0.5796;3.0456;
-125.7000;0.5812;3.0503;
-125.4000;0.5788;3.0456;
-125.1000;0.5804;3.0480;
-124.8000;0.5779;3.0408;
-124.5000;0.5796;3.0503;
-124.2000;0.5788;3.0456;
-123.9000;0.5796;3.0599;
-123.6000;0.5804;3.0718;
-123.3000;0.5796;3.0671;
-123.0000;0.5820;3.0766;
-122.7000;0.5804;3.0742;
-122.4000;0.5788;3.0742;
-122.1000;0.5796;3.0623;
-121.8000;0.5804;3.0599;
-121.5000;0.5796;3.0575;
-121.2000;0.5820;3.0718;
-120.9000;0.5796;3.0647;
-120.6000;0.5796;3.0599;
-120.3000;0.5796;3.0647;
-120.0000;0.5788;3.0599;
-119.7000;0.5804;3.0599;
-119.4000;0.5788;3.0527;
-119.1000;0.5812;3.0599;
-118.8000;0.5828;3.0575;
-118.5000;0.5820;3.0432;
-118.2000;0.5853;3.0503;
-117.9000;0.5820;3.0527;
-117.6000;0.5820;3.0503;
-117.3000;0.5747;3.0336;
-117.0000;0.5788;3.0408;
-116.7000;0.5812;3.0456;
-116.4000;0.5812;3.0456;
-116.1000;0.5812;3.0480;
-115.8000;0.5779;3.0408;
-115.5000;0.5796;3.0551;
-115.2000;0.5788;3.0599;
-114.9000;0.5804;3.0694;
-114.6000;0.5804;3.0694;
-114.3000;0.5804;3.0718;
-114.0000;0.5804;3.0718;
-113.7000;0.5812;3.0742;
-113.4000;0.5804;3.0742;
-113.1000;0.5853;3.0909;
-112.8000;0.5804;3.0838;
-112.5000;0.5812;3.0838;
-112.2000;0.5796;3.0766;
-111.9000;0.5779;3.0790;
-111.6000;0.5796;3.0742;
-111.3000;0.5788;3.0694;
-111.0000;0.5796;3.0647;
-110.7000;0.5796;3.0599;
-110.4000;0.5796;3.0575;
-110.1000;0.5779;3.0503;
-109.8000;0.5845;3.0551;
-109.5000;0.5804;3.0527;
-109.2000;0.5804;3.0671;
-108.9000;0.5812;3.0671;
-108.6000;0.5812;3.0838;
-108.3000;0.5796;3.0933;
-108.0000;0.5796;3.0957;
-107.7000;0.5804;3.1029;
-107.4000;0.5796;3.0957;
-107.1000;0.5779;3.0885;
-106.8000;0.5796;3.1005;
-106.5000;0.5796;3.1029;
-106.2000;0.5796;3.0957;
-105.9000;0.5804;3.0909;
-105.6000;0.5796;3.0838;
-105.3000;0.5796;3.0814;
-105.0000;0.5788;3.0790;
-104.7000;0.5796;3.0885;
-104.4000;0.5804;3.1005;
-104.1000;0.5812;3.0933;
-103.8000;0.5804;3.0909;
-103.5000;0.5788;3.0885;
-103.2000;0.5845;3.0909;
-102.9000;0.5804;3.0742;
-102.6000;0.5779;3.0766;
-102.3000;0.5788;3.0718;
-102.0000;0.5747;3.0599;
-101.7000;0.5755;3.0623;
-101.4000;0.5796;3.0814;
-101.1000;0.5796;3.0909;
-100.8000;0.5828;3.1005;
-100.5000;0.5779;3.0933;
-100.2000;0.5812;3.0957;
-99.9000;0.5804;3.0861;
-99.6000;0.5812;3.0838;
-99.3000;0.5804;3.0790;
-99.0000;0.5796;3.0718;
-98.7000;0.5796;3.0647;
-98.4000;0.5812;3.0694;
-98.1000;0.5796;3.0575;
-97.8000;0.5771;3.0503;
-97.5000;0.5779;3.0527;
-97.2000;0.5796;3.0647;
-96.9000;0.5788;3.0623;
-96.6000;0.5788;3.0671;
-96.3000;0.5812;3.0790;
-96.0000;0.5788;3.0766;
-95.7000;0.5804;3.0838;
-95.4000;0.5796;3.0718;
-95.1000;0.5788;3.0718;
-94.8000;0.5796;3.0694;
-94.5000;0.5804;3.0694;
-94.2000;0.5739;3.0599;
-93.9000;0.5771;3.0647;
-93.6000;0.5796;3.0814;
-93.3000;0.5698;3.0599;
-93.0000;0.5812;3.0766;
-92.7000;0.5804;3.0599;
-92.4000;0.5763;3.0527;
-92.1000;0.5812;3.0647;
-91.8000;0.5788;3.0551;
-91.5000;0.5796;3.0503;
-91.2000;0.5788;3.0527;
-90.9000;0.5820;3.0623;
-90.6000;0.5893;3.0790;
-90.3000;0.5788;3.0551;
-90.0000;0.5755;3.0456;
-89.7000;0.5796;3.0623;
-89.4000;0.5861;3.0766;
-89.1000;0.5836;3.0790;
-88.8000;0.5796;3.0671;
-88.5000;0.5747;3.0599;
-88.2000;0.5804;3.0671;
-87.9000;0.5771;3.0623;
-87.6000;0.5804;3.0647;
-87.3000;0.5796;3.0694;
-87.0000;0.5804;3.0766;
-86.7000;0.5804;3.0766;
-86.4000;0.5788;3.0623;
-86.1000;0.5812;3.0718;
-85.8000;0.5788;3.0599;
-85.5000;0.5755;3.0527;
-85.2000;0.5779;3.0694;
-84.9000;0.5779;3.0766;
-84.6000;0.5796;3.0790;
-84.3000;0.5779;3.0790;
-84.0000;0.5804;3.0838;
-83.7000;0.5779;3.0718;
-83.4000;0.5796;3.0647;
-83.1000;0.5804;3.0623;
-82.8000;0.5788;3.0503;
-82.5000;0.5779;3.0575;
-82.2000;0.5788;3.0647;
-81.9000;0.5788;3.0790;
-81.6000;0.5804;3.0838;
-81.3000;0.5796;3.0838;
-81.0000;0.5788;3.0742;
-80.7000;0.5788;3.0742;
-80.4000;0.5788;3.0718;
-80.1000;0.5804;3.0694;
-79.8000;0.5779;3.0599;
-79.5000;0.5812;3.0694;
-79.2000;0.5812;3.0718;
-78.9000;0.5836;3.0766;
-78.6000;0.5812;3.0671;
-78.3000;0.5812;3.0694;
-78.0000;0.5804;3.0694;
-77.7000;0.5796;3.0599;
-77.4000;0.5779;3.0480;
-77.1000;0.5788;3.0408;
-76.8000;0.5771;3.0408;
-76.5000;0.5804;3.0527;
-76.2000;0.5788;3.0503;
-75.9000;0.5788;3.0480;
-75.6000;0.5755;3.0408;
-75.3000;0.5820;3.0551;
-75.0000;0.5812;3.0551;
-74.7000;0.5771;3.0480;
-74.4000;0.5796;3.0599;
-74.1000;0.5788;3.0599;
-73.8000;0.5796;3.0718;
-73.5000;0.5804;3.0838;
-73.2000;0.5788;3.0742;
-72.9000;0.5796;3.0790;
-72.6000;0.5804;3.0814;
-72.3000;0.5755;3.0623;
-72.0000;0.5788;3.0575;
-71.7000;0.5796;3.0623;
-71.4000;0.5788;3.0599;
-71.1000;0.5788;3.0647;
-70.8000;0.5771;3.0599;
-70.5000;0.5812;3.0814;
-70.2000;0.5804;3.0861;
-69.9000;0.5804;3.0909;
-69.6000;0.5788;3.0909;
-69.3000;0.5788;3.0861;
-69.0000;0.5788;3.0909;
-68.7000;0.5771;3.0838;
-68.4000;0.5796;3.0885;
-68.1000;0.5885;3.1029;
-67.8000;0.5804;3.0790;
-67.5000;0.5796;3.0766;
-67.2000;0.5820;3.0909;
-66.9000;0.5804;3.0790;
-66.6000;0.5788;3.0790;
-66.3000;0.5796;3.0790;
-66.0000;0.5755;3.0599;
-65.7000;0.5796;3.0694;
-65.4000;0.5836;3.0861;
-65.1000;0.5828;3.0790;
-64.8000;0.5812;3.0814;
-64.5000;0.5714;3.0647;
-64.2000;0.5788;3.0861;
-63.9000;0.5779;3.0814;
-63.6000;0.5796;3.0814;
-63.3000;0.5804;3.0742;
-63.0000;0.5755;3.0575;
-62.7000;0.5804;3.0647;
-62.4000;0.5796;3.0718;
-62.1000;0.5804;3.0671;
-61.8000;0.5788;3.0742;
-61.5000;0.5796;3.0790;
-61.2000;0.5788;3.0814;
-60.9000;0.5771;3.0766;
-60.6000;0.5796;3.0790;
-60.3000;0.5796;3.0814;
-60.0000;0.5796;3.0838;
-59.7000;0.5796;3.0790;
-59.4000;0.5804;3.0814;
-59.1000;0.5812;3.0790;
-58.8000;0.5788;3.0694;
-58.5000;0.5796;3.0647;
-58.2000;0.5788;3.0742;
-57.9000;0.5796;3.0766;
-57.6000;0.5804;3.0790;
-57.3000;0.5804;3.0766;
-57.0000;0.5788;3.0790;
-56.7000;0.5788;3.0718;
-56.4000;0.5779;3.0623;
-56.1000;0.5804;3.0503;
-55.8000;0.5788;3.0480;
-55.5000;0.5779;3.0480;
-55.2000;0.5796;3.0623;
-54.9000;0.5812;3.0503;
-54.6000;0.5796;3.0456;
-54.3000;0.5804;3.0551;
-54.0000;0.5796;3.0599;
-53.7000;0.5779;3.0480;
-53.4000;0.5796;3.0503;
-53.1000;0.5779;3.0432;
-52.8000;0.5779;3.0456;
-52.5000;0.5796;3.0623;
-52.2000;0.5779;3.0647;
-51.9000;0.5771;3.0575;
-51.6000;0.5771;3.0647;
-51.3000;0.5779;3.0671;
-51.0000;0.5788;3.0599;
-50.7000;0.5779;3.0503;
-50.4000;0.5779;3.0575;
-50.1000;0.5779;3.0599;
-49.8000;0.5836;3.0647;
-49.5000;0.5722;3.0503;
-49.2000;0.5804;3.0671;
-48.9000;0.5804;3.0671;
-48.6000;0.5779;3.0671;
-48.3000;0.5796;3.0790;
-48.0000;0.5788;3.0790;
-47.7000;0.5771;3.0742;
-47.4000;0.5796;3.0742;
-47.1000;0.5779;3.0742;
-46.8000;0.5755;3.0671;
-46.5000;0.5788;3.0742;
-46.2000;0.5788;3.0790;
-45.9000;0.5796;3.0838;
-45.6000;0.5788;3.0838;
-45.3000;0.5788;3.0814;
-45.0000;0.5804;3.0838;
-44.7000;0.5763;3.0838;
-44.4000;0.5812;3.0933;
-44.1000;0.5722;3.0671;
-43.8000;0.5804;3.0838;
-43.5000;0.5796;3.0766;
-43.2000;0.5804;3.0742;
-42.9000;0.5804;3.0694;
-42.6000;0.5788;3.0671;
-42.3000;0.5812;3.0718;
-42.0000;0.5796;3.0790;
-41.7000;0.5788;3.0838;
-41.4000;0.5788;3.0861;
-41.1000;0.5779;3.0885;
-40.8000;0.5853;3.1100;
-40.5000;0.5828;3.1076;
-40.2000;0.5779;3.1052;
-39.9000;0.5763;3.1029;
-39.6000;0.5771;3.1124;
-39.3000;0.5763;3.1148;
-39.0000;0.5747;3.1100;
-38.7000;0.5836;3.1267;
-38.4000;0.5845;3.1220;
-38.1000;0.5796;3.1076;
-37.8000;0.5796;3.1029;
-37.5000;0.5820;3.1029;
-37.2000;0.5796;3.1029;
-36.9000;0.5804;3.1005;
-36.6000;0.5779;3.0909;
-36.3000;0.5804;3.0885;
-36.0000;0.5796;3.0885;
-35.7000;0.5804;3.0838;
-35.4000;0.5788;3.0909;
-35.1000;0.5779;3.0790;
-34.8000;0.5820;3.0838;
-34.5000;0.5804;3.0838;
-34.2000;0.5804;3.0742;
-33.9000;0.5812;3.0766;
-33.6000;0.5820;3.0790;
-33.3000;0.5796;3.0718;
-33.0000;0.5828;3.0814;
-32.7000;0.5804;3.0671;
-32.4000;0.5796;3.0671;
-32.1000;0.5828;3.0814;
-31.8000;0.5812;3.0742;
-31.5000;0.5788;3.0694;
-31.2000;0.5763;3.0671;
-30.9000;0.5804;3.0742;
-30.6000;0.5796;3.0694;
-30.3000;0.5812;3.0671;
-30.0000;0.5804;3.0694;
-29.7000;0.5836;3.0718;
-29.4000;0.5804;3.0647;
-29.1000;0.5788;3.0551;
-28.8000;0.5804;3.0575;
-28.5000;0.5779;3.0575;
-28.2000;0.5771;3.0575;
-27.9000;0.5796;3.0599;
-27.6000;0.5788;3.0527;
-27.3000;0.5804;3.0480;
-27.0000;0.5796;3.0456;
-26.7000;0.5828;3.0456;
-26.4000;0.5796;3.0432;
-26.1000;0.5804;3.0456;
-25.8000;0.5771;3.0432;
-25.5000;0.5796;3.0551;
-25.2000;0.5812;3.0647;
-24.9000;0.5771;3.0480;
-24.6000;0.5763;3.0432;
-24.3000;0.5779;3.0456;
-24.0000;0.5771;3.0384;
-23.7000;0.5796;3.0432;
-23.4000;0.5755;3.0456;
-23.1000;0.5779;3.0551;
-22.8000;0.5796;3.0551;
-22.5000;0.5804;3.0599;
-22.2000;0.5771;3.0527;
-21.9000;0.5820;3.0647;
-21.6000;0.5796;3.0551;
-21.3000;0.5788;3.0551;
-21.0000;0.5779;3.0599;
-20.7000;0.5836;3.0742;
-20.4000;0.5788;3.0623;
-20.1000;0.5788;3.0527;
-19.8000;0.5682;3.0289;
-19.5000;0.5836;3.0551;
-19.2000;0.5804;3.0480;
-18.9000;0.5796;3.0456;
-18.6000;0.5796;3.0503;
-18.3000;0.5796;3.0480;
-18.0000;0.5763;3.0360;
-17.7000;0.5796;3.0384;
-17.4000;0.5763;3.0360;
-17.1000;0.5788;3.0336;
-16.8000;0.5820;3.0456;
-16.5000;0.5812;3.0384;
-16.2000;0.5796;3.0313;
-15.9000;0.5796;3.0360;
-15.6000;0.5788;3.0360;
-15.3000;0.5796;3.0336;
-15.0000;0.5788;3.0360;
-14.7000;0.5788;3.0336;
-14.4000;0.5796;3.0360;
-14.1000;0.5804;3.0360;
-13.8000;0.5812;3.0336;
-13.5000;0.5796;3.0289;
-13.2000;0.5804;3.0193;
-12.9000;0.5804;3.0193;
-12.6000;0.5788;3.0217;
-12.3000;0.5779;3.0122;
-12.0000;0.5788;3.0145;
-11.7000;0.5812;3.0122;
-11.4000;0.5796;3.0050;
-11.1000;0.5788;3.0050;
-10.8000;0.5796;3.0193;
-10.5000;0.5804;3.0217;
-10.2000;0.5804;3.0122;
-9.9000;0.5812;3.0074;
-9.6000;0.5812;3.0169;
-9.3000;0.5788;3.0217;
-9.0000;0.5788;3.0336;
-8.7000;0.5796;3.0456;
-8.4000;0.5779;3.0503;
-8.1000;0.5796;3.0503;
-7.8000;0.5812;3.0456;
-7.5000;0.5820;3.0432;
-7.2000;0.5804;3.0408;
-6.9000;0.5828;3.0480;
-6.6000;0.5812;3.0432;
-6.3000;0.5804;3.0360;
-6.0000;0.5796;3.0336;
-5.7000;0.5731;3.0169;
-5.4000;0.5788;3.0384;
-5.1000;0.5812;3.0480;
-4.8000;0.5796;3.0503;
-4.5000;0.5804;3.0551;
-4.2000;0.5820;3.0599;
-3.9000;0.5804;3.0551;
-3.6000;0.5804;3.0456;
-3.3000;0.5796;3.0384;
-3.0000;0.5788;3.0456;
-2.7000;0.5796;3.0384;
-2.4000;0.5763;3.0432;
-2.1000;0.5788;3.0480;
-1.8000;0.5796;3.0503;
-1.5000;0.5755;3.0456;
-1.2000;0.5804;3.0456;
-0.9000;0.5804;3.0360;
-0.6000;0.5771;3.0265;
-0.3000;0.5739;3.0145;
0.0000;0.5739;3.0145;
0.3000;0.6056;3.0718;
0.6000;0.6455;3.1267;
0.9000;0.6740;3.1601;
1.2000;0.6976;3.1888;
1.5000;0.7163;3.2198;
1.8000;0.7269;3.2341;
2.1000;0.7456;3.2771;
2.4000;0.7554;3.2890;
2.7000;0.7603;3.2914;
3.0000;0.7692;3.3081;
3.3000;0.7725;3.3010;
3.6000;0.7863;3.3224;
3.9000;0.7912;3.3248;
4.2000;0.7880;3.3129;
4.5000;0.7928;3.3153;
4.8000;0.7969;3.3344;
5.1000;0.7969;3.3272;
5.4000;0.8059;3.3582;
5.7000;0.8099;3.3606;
6.0000;0.8132;3.3582;
6.3000;0.8173;3.3606;
6.6000;0.8189;3.3630;
6.9000;0.8205;3.3630;
7.2000;0.8344;3.3893;
7.5000;0.8295;3.3630;
7.8000;0.8303;3.3511;
8.1000;0.8335;3.3511;
8.4000;0.8360;3.3582;
8.7000;0.8392;3.3654;
9.0000;0.8417;3.3582;
9.3000;0.8457;3.3654;
9.6000;0.8466;3.3654;
9.9000;0.8490;3.3606;
10.2000;0.8514;3.3654;
10.5000;0.8539;3.3654;
10.8000;0.8531;3.3630;
11.1000;0.8555;3.3582;
11.4000;0.8604;3.3582;
11.7000;0.8628;3.3559;
12.0000;0.8637;3.3463;
12.3000;0.8677;3.3511;
12.6000;0.8685;3.3559;
12.9000;0.8751;3.3606;
13.2000;0.8767;3.3654;
13.5000;0.8742;3.3630;
13.8000;0.8759;3.3654;
14.1000;0.8791;3.3726;
14.4000;0.8799;3.3678;
14.7000;0.8824;3.3678;
15.0000;0.8832;3.3559;
15.3000;0.8824;3.3487;
15.6000;0.8856;3.3439;
15.9000;0.8873;3.3344;
16.2000;0.8873;3.3320;
16.5000;0.8905;3.3344;
16.8000;0.8897;3.3320;
17.1000;0.8921;3.3368;
17.4000;0.8946;3.3439;
17.7000;0.8930;3.3368;
18.0000;0.8938;3.3392;
18.3000;0.8938;3.3415;
18.6000;0.8954;3.3439;
18.9000;0.8987;3.3582;
19.2000;0.8995;3.3630;
19.5000;0.8995;3.3582;
19.8000;0.9019;3.3582;
20.1000;0.9027;3.3535;
20.4000;0.9027;3.3463;
20.7000;0.9027;3.3511;
21.0000;0.9125;3.3750;
21.3000;0.9044;3.3487;
21.6000;0.9084;3.3535;
21.9000;0.9076;3.3463;
22.2000;0.9076;3.3415;
22.5000;0.8995;3.3320;
22.8000;0.9125;3.3678;
23.1000;0.9109;3.3678;
23.4000;0.9109;3.3606;
23.7000;0.9109;3.3606;
24.0000;0.9125;3.3678;
24.3000;0.9125;3.3582;
24.6000;0.9133;3.3487;
24.9000;0.9158;3.3511;
25.2000;0.9198;3.3606;
25.5000;0.9141;3.3511;
25.8000;0.9182;3.3559;
26.1000;0.9182;3.3582;
26.4000;0.9182;3.3535;
26.7000;0.9182;3.3511;
27.0000;0.9174;3.3535;
27.3000;0.9166;3.3535;
27.6000;0.9198;3.3582;
27.9000;0.9190;3.3511;
28.2000;0.9206;3.3463;
28.5000;0.9206;3.3463;
28.8000;0.9214;3.3439;
29.1000;0.9182;3.3392;
29.4000;0.9214;3.3439;
29.7000;0.9271;3.3582;
30.0000;0.9231;3.3487;
30.3000;0.9214;3.3535;
30.6000;0.9223;3.3606;
30.9000;0.9223;3.3582;
31.2000;0.9239;3.3559;
31.5000;0.9255;3.3559;
31.8000;0.9255;3.3535;
32.1000;0.9255;3.3535;
32.4000;0.9255;3.3559;
32.7000;0.9271;3.3582;
33.0000;0.9296;3.3535;
33.3000;0.9231;3.3344;
33.6000;0.9271;3.3463;
33.9000;0.9263;3.3487;
34.2000;0.9263;3.3535;
34.5000;0.9255;3.3511;
34.8000;0.9239;3.3392;
35.1000;0.9271;3.3392;
35.4000;0.9280;3.3463;
35.7000;0.9280;3.3439;
36.0000;0.9328;3.3535;
36.3000;0.9288;3.3463;
36.6000;0.9296;3.3415;
36.9000;0.9288;3.3272;
37.2000;0.9312;3.3296;
37.5000;0.9288;3.3248;
37.8000;0.9296;3.3272;
38.1000;0.9296;3.3248;
38.4000;0.9312;3.3153;
38.7000;0.9312;3.3248;
39.0000;0.9320;3.3320;
39.3000;0.9320;3.3439;
39.6000;0.9304;3.3415;
39.9000;0.9320;3.3439;
40.2000;0.9328;3.3487;
40.5000;0.9312;3.3463;
40.8000;0.9337;3.3487;
41.1000;0.9337;3.3439;
41.4000;0.9337;3.3487;
41.7000;0.9369;3.3463;
42.0000;0.9361;3.3415;
42.3000;0.9345;3.3368;
42.6000;0.9385;3.3368;
42.9000;0.9361;3.3272;
43.2000;0.9377;3.3344;
43.5000;0.9345;3.3320;
43.8000;0.9353;3.3344;
44.1000;0.9369;3.3392;
44.4000;0.9312;3.3224;
44.7000;0.9345;3.3392;
45.0000;0.9361;3.3344;
45.3000;0.9361;3.3392;
45.6000;0.9377;3.3415;
45.9000;0.9345;3.3368;
46.2000;0.9353;3.3320;
46.5000;0.9345;3.3344;
46.8000;0.9369;3.3320;
47.1000;0.9377;3.3368;
47.4000;0.9402;3.3463;
47.7000;0.9369;3.3392;
48.0000;0.9394;3.3487;
48.3000;0.9394;3.3535;
48.6000;0.9377;3.3392;
48.9000;0.9377;3.3439;
49.2000;0.9377;3.3487;
49.5000;0.9304;3.3272;
49.8000;0.9385;3.3439;
50.1000;0.9385;3.3344;
50.4000;0.9377;3.3392;
50.7000;0.9475;3.3654;
51.0000;0.9410;3.3487;
51.3000;0.9402;3.3511;
51.6000;0.9394;3.3535;
51.9000;0.9394;3.3559;
52.2000;0.9385;3.3606;
52.5000;0.9377;3.3654;
52.8000;0.9377;3.3606;
53.1000;0.9434;3.3678;
53.4000;0.9402;3.3559;
53.7000;0.9377;3.3487;
54.0000;0.9426;3.3630;
54.3000;0.9345;3.3487;
54.6000;0.9394;3.3582;
54.9000;0.9377;3.3702;
55.2000;0.9394;3.3726;
55.5000;0.9369;3.3654;
55.8000;0.9385;3.3726;
56.1000;0.9385;3.3678;
56.4000;0.9377;3.3606;
56.7000;0.9385;3.3678;
57.0000;0.9418;3.3678;
57.3000;0.9337;3.3415;
57.6000;0.9385;3.3535;
57.9000;0.9402;3.3535;
58.2000;0.9410;3.3582;
58.5000;0.9385;3.3606;
58.8000;0.9377;3.3582;
59.1000;0.9426;3.3535;
59.4000;0.9410;3.3535;
59.7000;0.9418;3.3559;
60.0000;0.9394;3.3463;
60.3000;0.9394;3.3392;
60.6000;0.9418;3.3415;
60.9000;0.9426;3.3368;
61.2000;0.9426;3.3368;
61.5000;0.9434;3.3368;
61.8000;0.9434;3.3415;
62.1000;0.9451;3.3344;
62.4000;0.9451;3.3368;
62.7000;0.9418;3.3463;
63.0000;0.9410;3.3487;
63.3000;0.9434;3.3487;
63.6000;0.9426;3.3559;
63.9000;0.9434;3.3535;
64.2000;0.9434;3.3439;
64.5000;0.9426;3.3511;
64.8000;0.9418;3.3487;
65.1000;0.9418;3.3463;
65.4000;0.9426;3.3511;
65.7000;0.9442;3.3535;
66.0000;0.9442;3.3487;
66.3000;0.9434;3.3392;
66.6000;0.9434;3.3344;
66.9000;0.9434;3.3392;
67.2000;0.9442;3.3368;
67.5000;0.9434;3.3296;
67.8000;0.9410;3.3296;
68.1000;0.9402;3.3320;
68.4000;0.9426;3.3511;
68.7000;0.9426;3.3511;
69.0000;0.9426;3.3463;
69.3000;0.9426;3.3487;
69.6000;0.9451;3.3582;
69.9000;0.9418;3.3535;
70.2000;0.9394;3.3487;
70.5000;0.9434;3.3559;
70.8000;0.9442;3.3487;
71.1000;0.9442;3.3511;
71.4000;0.9434;3.3439;
71.7000;0.9434;3.3368;
72.0000;0.9451;3.3392;
72.3000;0.9410;3.3296;
72.6000;0.9434;3.3320;
72.9000;0.9540;3.3582;
73.2000;0.9442;3.3392;
73.5000;0.9459;3.3415;
73.8000;0.9467;3.3415;
74.1000;0.9451;3.3320;
74.4000;0.9475;3.3415;
74.7000;0.9475;3.3296;
75.0000;0.9451;3.3320;
75.3000;0.9451;3.3368;
75.6000;0.9442;3.3415;
75.9000;0.9451;3.3487;
76.2000;0.9442;3.3368;
76.5000;0.9410;3.3320;
76.8000;0.9442;3.3296;
77.1000;0.9451;3.3392;
77.4000;0.9475;3.3392;
77.7000;0.9459;3.3344;
78.0000;0.9459;3.3296;
78.3000;0.9467;3.3248;
78.6000;0.9459;3.3272;
78.9000;0.9451;3.3272;
79.2000;0.9451;3.3272;
79.5000;0.9442;3.3296;
79.8000;0.9459;3.3344;
80.1000;0.9451;3.3368;
80.4000;0.9451;3.3320;
80.7000;0.9451;3.3320;
81.0000;0.9451;3.3392;
81.3000;0.9459;3.3487;
81.6000;0.9459;3.3559;
81.9000;0.9426;3.3392;
82.2000;0.9451;3.3320;
82.5000;0.9475;3.3344;
82.8000;0.9467;3.3296;
83.1000;0.9475;3.3296;
83.4000;0.9467;3.3320;
83.7000;0.9467;3.3368;
84.0000;0.9459;3.3344;
84.3000;0.9459;3.3344;
84.6000;0.9434;3.3344;
84.9000;0.9385;3.3177;
85.2000;0.9451;3.3296;
85.5000;0.9459;3.3320;
85.8000;0.9459;3.3320;
86.1000;0.9459;3.3224;
86.4000;0.9467;3.3201;
86.7000;0.9442;3.3177;
87.0000;0.9442;3.3224;
87.3000;0.9467;3.3344;
87.6000;0.9467;3.3392;
87.9000;0.9475;3.3415;
88.2000;0.9475;3.3368;
88.5000;0.9451;3.3368;
88.8000;0.9385;3.3201;
89.1000;0.9459;3.3320;
89.4000;0.9442;3.3224;
89.7000;0.9451;3.3248;
90.0000;0.9475;3.3272;
90.3000;0.9459;3.3320;
90.6000;0.9467;3.3344;
90.9000;0.9459;3.3415;
91.2000;0.9459;3.3415;
91.5000;0.9459;3.3392;
91.8000;0.9475;3.3392;
92.1000;0.9467;3.3368;
92.4000;0.9434;3.3224;
92.7000;0.9467;3.3344;
93.0000;0.9475;3.3392;
93.3000;0.9467;3.3320;
93.6000;0.9491;3.3487;
93.9000;0.9377;3.3296;
94.2000;0.9467;3.3439;
94.5000;0.9418;3.3392;
94.8000;0.9451;3.3511;
95.1000;0.9483;3.3630;
95.4000;0.9491;3.3726;
95.7000;0.9467;3.3678;
96.0000;0.9434;3.3511;
96.3000;0.9475;3.3559;
96.6000;0.9467;3.3559;
96.9000;0.9475;3.3582;
97.2000;0.9508;3.3678;
97.5000;0.9483;3.3606;
97.8000;0.9483;3.3654;
98.1000;0.9475;3.3630;
98.4000;0.9467;3.3606;
98.7000;0.9475;3.3559;
99.0000;0.9467;3.3463;
99.3000;0.9459;3.3392;
99.6000;0.9459;3.3392;
99.9000;0.9467;3.3344;
100.2000;0.9467;3.3344;
100.5000;0.9467;3.3296;
100.8000;0.9475;3.3368;
101.1000;0.9459;3.3344;
101.4000;0.9459;3.3368;
101.7000;0.9459;3.3344;
102.0000;0.9467;3.3368;
102.3000;0.9475;3.3344;
102.6000;0.9475;3.3392;
102.9000;0.9475;3.3368;
103.2000;0.9483;3.3320;
103.5000;0.9459;3.3320;
103.8000;0.9483;3.3439;
104.1000;0.9475;3.3511;
104.4000;0.9467;3.3463;
104.7000;0.9467;3.3487;
105.0000;0.9499;3.3630;
105.3000;0.9475;3.3654;
105.6000;0.9467;3.3559;
105.9000;0.9475;3.3582;
106.2000;0.9483;3.3582;
106.5000;0.9499;3.3702;
106.8000;0.9467;3.3654;
107.1000;0.9467;3.3559;
107.4000;0.9467;3.3535;
107.7000;0.9475;3.3582;
108.0000;0.9532;3.3726;
108.3000;0.9475;3.3535;
108.6000;0.9459;3.3415;
108.9000;0.9499;3.3511;
109.2000;0.9475;3.3463;
109.5000;0.9467;3.3415;
109.8000;0.9459;3.3463;
110.1000;0.9491;3.3487;
110.4000;0.9483;3.3439;
110.7000;0.9483;3.3463;
111.0000;0.9467;3.3415;
111.3000;0.9475;3.3463;
111.6000;0.9491;3.3559;
111.9000;0.9491;3.3630;
112.2000;0.9467;3.3606;
112.5000;0.9475;3.3630;
112.8000;0.9483;3.3535;
113.1000;0.9499;3.3463;
113.4000;0.9524;3.3559;
113.7000;0.9475;3.3582;
114.0000;0.9475;3.3630;
114.3000;0.9483;3.3750;
114.6000;0.9475;3.3726;
114.9000;0.9459;3.3702;
115.2000;0.9467;3.3606;
115.5000;0.9467;3.3559;
115.8000;0.9475;3.3511;
116.1000;0.9434;3.3487;
116.4000;0.9532;3.3654;
116.7000;0.9483;3.3487;
117.0000;0.9459;3.3392;
117.3000;0.9377;3.3177;
117.6000;0.9467;3.3392;
117.9000;0.9475;3.3344;
118.2000;0.9475;3.3415;
118.5000;0.9467;3.3487;
118.8000;0.9475;3.3582;
119.1000;0.9475;3.3511;
119.4000;0.9491;3.3511;
119.7000;0.9483;3.3463;
120.0000;0.9467;3.3463;
120.3000;0.9483;3.3487;
120.6000;0.9475;3.3487;
120.9000;0.9475;3.3487;
121.2000;0.9475;3.3463;
121.5000;0.9491;3.3487;
121.8000;0.9491;3.3511;
122.1000;0.9483;3.3487;
122.4000;0.9483;3.3392;
122.7000;0.9459;3.3439;
123.0000;0.9565;3.3678;
123.3000;0.9467;3.3511;
123.6000;0.9475;3.3559;
123.9000;0.9475;3.3606;
124.2000;0.9475;3.3606;
124.5000;0.9597;3.3821;
124.8000;0.9483;3.3487;
125.1000;0.9483;3.3463;
125.4000;0.9475;3.3487;
125.7000;0.9459;3.3463;
126.0000;0.9491;3.3559;
126.3000;0.9475;3.3535;
126.6000;0.9475;3.3535;
126.9000;0.9499;3.3559;
127.2000;0.9475;3.3535;
127.5000;0.9475;3.3439;
127.8000;0.9475;3.3439;
128.1000;0.9483;3.3439;
128.4000;0.9499;3.3559;
128.7000;0.9475;3.3535;
129.0000;0.9475;3.3511;
129.3000;0.9483;3.3392;
129.6000;0.9467;3.3320;
129.9000;0.9459;3.3224;
130.2000;0.9483;3.3248;
130.5000;0.9483;3.3344;
130.8000;0.9467;3.3296;
131.1000;0.9491;3.3368;
131.4000;0.9483;3.3296;
131.7000;0.9483;3.3344;
132.0000;0.9385;3.3057;
132.3000;0.9491;3.3272;
132.6000;0.9499;3.3368;
132.9000;0.9491;3.3463;
133.2000;0.9434;3.3272;
133.5000;0.9499;3.3463;
133.8000;0.9491;3.3439;
134.1000;0.9532;3.3606;
134.4000;0.9499;3.3535;
134.7000;0.9483;3.3439;
135.0000;0.9475;3.3368;
135.3000;0.9483;3.3415;
135.6000;0.9483;3.3344;
135.9000;0.9499;3.3344;
136.2000;0.9369;3.3129;
136.5000;0.9491;3.3487;
136.8000;0.9483;3.3487;
137.1000;0.9499;3.3559;
137.4000;0.9499;3.3535;
137.7000;0.9499;3.3606;
138.0000;0.9483;3.3630;
138.3000;0.9475;3.3606;
138.6000;0.9491;3.3559;
138.9000;0.9483;3.3630;
139.2000;0.9483;3.3654;
139.5000;0.9451;3.3606;
139.8000;0.9475;3.3535;
140.1000;0.9459;3.3463;
140.4000;0.9467;3.3415;
140.7000;0.9475;3.3511;
141.0000;0.9451;3.3487;
141.3000;0.9459;3.3559;
141.6000;0.9426;3.3487;
141.9000;0.9483;3.3606;
142.2000;0.9508;3.3654;
142.5000;0.9467;3.3606;
142.8000;0.9483;3.3606;
143.1000;0.9459;3.3582;
143.4000;0.9467;3.3535;
143.7000;0.9483;3.3582;
144.0000;0.9499;3.3511;
144.3000;0.9532;3.3559;
144.6000;0.9434;3.3320;
144.9000;0.9491;3.3463;
145.2000;0.9483;3.3439;
145.5000;0.9418;3.3272;
145.8000;0.9459;3.3415;
146.1000;0.9483;3.3535;
146.4000;0.9467;3.3630;
146.7000;0.9459;3.3606;
147.0000;0.9475;3.3582;
147.3000;0.9483;3.3511;
147.6000;0.9483;3.3582;
147.9000;0.9459;3.3606;
148.2000;0.9483;3.3606;
148.5000;0.9475;3.3606;
148.8000;0.9475;3.3606;
149.1000;0.9475;3.3582;
149.4000;0.9475;3.3511;
149.7000;0.9475;3.3535;
150.0000;0.9483;3.3535;
150.3000;0.9475;3.3535;
150.6000;0.9483;3.3535;
150.9000;0.9475;3.3511;
151.2000;0.9451;3.3582;
151.5000;0.9573;3.3773;
151.8000;0.9475;3.3535;
152.1000;0.9483;3.3654;
152.4000;0.9483;3.3702;
152.7000;0.9483;3.3702;
153.0000;0.9483;3.3654;
153.3000;0.9499;3.3606;
153.6000;0.9499;3.3630;
153.9000;0.9540;3.3797;
154.2000;0.9483;3.3606;
154.5000;0.9483;3.3630;
154.8000;0.9491;3.3559;
155.1000;0.9483;3.3511;
155.4000;0.9467;3.3415;
155.7000;0.9459;3.3463;
156.0000;0.9483;3.3439;
156.3000;0.9499;3.3487;
156.6000;0.9491;3.3415;
156.9000;0.9508;3.3415;
157.2000;0.9499;3.3368;
157.5000;0.9451;3.3320;
157.8000;0.9491;3.3487;
158.1000;0.9451;3.3439;
158.4000;0.9491;3.3606;
158.7000;0.9508;3.3559;
159.0000;0.9491;3.3511;
159.3000;0.9483;3.3439;
159.6000;0.9451;3.3392;
159.9000;0.9499;3.3487;
160.2000;0.9483;3.3559;
160.5000;0.9499;3.3654;
160.8000;0.9467;3.3606;
161.1000;0.9459;3.3654;
161.4000;0.9491;3.3678;
161.7000;0.9475;3.3678;
162.0000;0.9475;3.3773;
162.3000;0.9508;3.3893;
162.6000;0.9451;3.3678;
162.9000;0.9459;3.3726;
163.2000;0.9475;3.3654;
163.5000;0.9491;3.3678;
163.8000;0.9491;3.3726;
164.1000;0.9491;3.3797;
164.4000;0.9491;3.3702;
164.7000;0.9483;3.3606;
165.0000;0.9434;3.3415;
165.3000;0.9483;3.3559;
165.6000;0.9467;3.3511;
165.9000;0.9418;3.3368;
166.2000;0.9508;3.3559;
166.5000;0.9475;3.3487;
166.8000;0.9491;3.3463;
167.1000;0.9540;3.3630;
167.4000;0.9491;3.3535;
167.7000;0.9491;3.3487;
168.0000;0.9483;3.3511;
168.3000;0.9483;3.3463;
168.6000;0.9508;3.3535;
168.9000;0.9491;3.3535;
169.2000;0.9499;3.3511;
169.5000;0.9491;3.3487;
169.8000;0.9499;3.3606;
170.1000;0.9491;3.3559;
170.4000;0.9499;3.3678;
170.7000;0.9508;3.3797;
171.0000;0.9499;3.3702;
171.3000;0.9475;3.3654;
171.6000;0.9499;3.3582;
171.9000;0.9483;3.3535;
172.2000;0.9467;3.3463;
172.5000;0.9475;3.3535;
172.8000;0.9475;3.3439;
173.1000;0.9540;3.3535;
173.4000;0.9467;3.3344;
173.7000;0.9475;3.3368;
174.0000;0.9483;3.3463;
174.3000;0.9491;3.3559;
174.6000;0.9483;3.3511;
174.9000;0.9491;3.3559;
175.2000;0.9483;3.3535;
175.5000;0.9491;3.3535;
175.8000;0.9475;3.3511;
176.1000;0.9475;3.3511;
176.4000;0.9499;3.3606;
176.7000;0.9483;3.3535;
177.0000;0.9499;3.3463;
177.3000;0.9491;3.3392;
177.6000;0.9483;3.3439;
177.9000;0.9499;3.3487;
178.2000;0.9475;3.3463;
178.5000;0.9499;3.3559;
178.8000;0.9467;3.3511;
179.1000;0.9491;3.3511;
179.4000;0.9426;3.3344;
179.7000;0.9467;3.3487;
180.0000;0.9491;3.3415;
180.3000;0.9508;3.3415;
180.6000;0.9475;3.3463;
180.9000;0.9556;3.3726;
181.2000;0.9459;3.3606;
181.5000;0.9483;3.3606;
181.8000;0.9508;3.3606;
182.1000;0.9467;3.3463;
182.4000;0.9475;3.3392;
182.7000;0.9499;3.3439;
183.0000;0.9491;3.3511;
183.3000;0.9508;3.3511;
183.6000;0.9499;3.3535;
183.9000;0.9475;3.3559;
184.2000;0.9499;3.3559;
184.5000;0.9524;3.3630;
184.8000;0.9491;3.3630;
185.1000;0.9475;3.3535;
185.4000;0.9491;3.3511;
185.7000;0.9483;3.3559;
186.0000;0.9451;3.3439;
186.3000;0.9467;3.3439;
186.6000;0.9589;3.3773;
186.9000;0.9483;3.3487;
187.2000;0.9467;3.3392;
187.5000;0.9467;3.3368;
187.8000;0.9475;3.3392;
188.1000;0.9548;3.3559;
188.4000;0.9459;3.3320;
188.7000;0.9491;3.3344;
189.0000;0.9483;3.3368;
189.3000;0.9475;3.3392;
189.6000;0.9385;3.3248;
189.9000;0.9491;3.3511;
190.2000;0.9499;3.3511;
190.5000;0.9516;3.3678;
190.8000;0.9491;3.3702;
191.1000;0.9483;3.3654;
191.4000;0.9467;3.3630;
191.7000;0.9499;3.3702;
192.0000;0.9508;3.3750;
192.3000;0.9467;3.3702;
192.6000;0.9459;3.3559;
192.9000;0.9491;3.3678;
193.2000;0.9516;3.3654;
193.5000;0.9491;3.3606;
193.8000;0.9475;3.3654;
194.1000;0.9499;3.3702;
194.4000;0.9565;3.3845;
194.7000;0.9491;3.3654;
195.0000;0.9483;3.3559;
195.3000;0.9499;3.3582;
195.6000;0.9483;3.3559;
195.9000;0.9475;3.3487;
196.2000;0.9475;3.3487;
196.5000;0.9467;3.3392;
196.8000;0.9491;3.3392;
197.1000;0.9508;3.3392;
197.4000;0.9459;3.3272;
197.7000;0.9475;3.3439;
198.0000;0.9483;3.3535;
198.3000;0.9532;3.3678;
198.6000;0.9483;3.3511;
198.9000;0.9475;3.3535;
199.2000;0.9483;3.3582;
199.5000;0.9499;3.3654;
199.8000;0.9483;3.3582;
200.1000;0.9499;3.3606;
200.4000;0.9524;3.3750;
200.7000;0.9499;3.3654;
201.0000;0.9475;3.3606;
201.3000;0.9467;3.3606;
201.6000;0.9475;3.3582;
201.9000;0.9491;3.3654;
202.2000;0.9524;3.3726;
202.5000;0.9483;3.3678;
202.8000;0.9499;3.3702;
203.1000;0.9516;3.3726;
203.4000;0.9499;3.3702;
203.7000;0.9499;3.3750;
204.0000;0.9491;3.3654;
204.3000;0.9475;3.3702;
204.6000;0.9524;3.3750;
204.9000;0.9491;3.3582;
205.2000;0.9475;3.3535;
205.5000;0.9491;3.3630;
205.8000;0.9475;3.3630;
206.1000;0.9483;3.3559;
206.4000;0.9483;3.3511;
206.7000;0.9475;3.3487;
207.0000;0.9467;3.3559;
207.3000;0.9499;3.3511;
207.6000;0.9426;3.3368;
207.9000;0.9483;3.3535;
208.2000;0.9540;3.3630;
208.5000;0.9483;3.3559;
208.8000;0.9499;3.3630;
209.1000;0.9499;3.3750;
209.4000;0.9483;3.3726;
209.7000;0.9442;3.3582;
210.0000;0.9499;3.3821;
210.3000;0.9483;3.3750;
210.6000;0.9597;3.4012;
210.9000;0.9499;3.3821;
211.2000;0.9491;3.3845;
211.5000;0.9475;3.3797;
211.8000;0.9467;3.3726;
212.1000;0.9483;3.3773;
212.4000;0.9483;3.3726;
212.7000;0.9483;3.3797;
213.0000;0.9467;3.3726;
213.3000;0.9499;3.3678;
213.6000;0.9483;3.3654;
213.9000;0.9475;3.3630;
214.2000;0.9483;3.3726;
214.5000;0.9499;3.3750;
214.8000;0.9483;3.3821;
215.1000;0.9491;3.3773;
215.4000;0.9483;3.3726;
215.7000;0.9475;3.3678;
216.0000;0.9499;3.3702;
216.3000;0.9483;3.3678;
216.6000;0.9483;3.3654;
216.9000;0.9475;3.3630;
217.2000;0.9491;3.3606;
217.5000;0.9483;3.3606;
217.8000;0.9483;3.3582;
218.1000;0.9483;3.3582;
218.4000;0.9508;3.3654;
218.7000;0.9491;3.3606;
219.0000;0.9426;3.3415;
219.3000;0.9483;3.3559;
219.6000;0.9475;3.3511;
219.9000;0.9483;3.3582;
220.2000;0.9483;3.3606;
220.5000;0.9467;3.3559;
220.8000;0.9467;3.3559;
221.1000;0.9467;3.3559;
221.4000;0.9467;3.3606;
221.7000;0.9467;3.3606;
222.0000;0.9426;3.3630;
222.3000;0.9508;3.3773;
222.6000;0.9483;3.3702;
222.9000;0.9565;3.3845;
223.2000;0.9491;3.3630;
223.5000;0.9499;3.3702;
223.8000;0.9491;3.3726;
224.1000;0.9499;3.3702;
224.4000;0.9459;3.3606;
224.7000;0.9499;3.3702;
225.0000;0.9451;3.3654;
225.3000;0.9508;3.3869;
225.6000;0.9508;3.3773;
225.9000;0.9475;3.3678;
226.2000;0.9499;3.3606;
226.5000;0.9491;3.3559;
226.8000;0.9483;3.3511;
227.1000;0.9491;3.3535;
227.4000;0.9491;3.3582;
227.7000;0.9483;3.3415;
228.0000;0.9491;3.3320;
228.3000;0.9491;3.3392;
228.6000;0.9426;3.3272;
228.9000;0.9499;3.3439;
229.2000;0.9508;3.3463;
229.5000;0.9483;3.3439;
229.8000;0.9508;3.3535;
230.1000;0.9491;3.3559;
230.4000;0.9491;3.3606;
230.7000;0.9467;3.3559;
231.0000;0.9459;3.3535;
231.3000;0.9467;3.3559;
231.6000;0.9573;3.3821;
231.9000;0.9483;3.3582;
232.2000;0.9475;3.3535;
232.5000;0.9491;3.3487;
232.8000;0.9475;3.3487;
233.1000;0.9499;3.3415;
233.4000;0.9483;3.3463;
233.7000;0.9467;3.3463;
234.0000;0.9499;3.3535;
234.3000;0.9491;3.3582;
234.6000;0.9491;3.3630;
234.9000;0.9499;3.3559;
235.2000;0.9475;3.3487;
235.5000;0.9467;3.3439;
235.8000;0.9483;3.3535;
236.1000;0.9467;3.3511;
236.4000;0.9483;3.3535;
236.7000;0.9483;3.3487;
237.0000;0.9491;3.3559;
237.3000;0.9467;3.3439;
237.6000;0.9516;3.3439;
237.9000;0.9483;3.3368;
238.2000;0.9467;3.3344;
238.5000;0.9499;3.3439;
238.8000;0.9491;3.3392;
239.1000;0.9483;3.3463;
239.4000;0.9499;3.3535;
239.7000;0.9491;3.3439;
240.0000;0.9516;3.3511;
240.3000;0.9499;3.3559;
240.6000;0.9573;3.3821;
240.9000;0.9475;3.3559;
241.2000;0.9459;3.3559;
241.5000;0.9475;3.3630;
241.8000;0.9475;3.3582;
242.1000;0.9467;3.3606;
242.4000;0.9499;3.3654;
242.7000;0.9491;3.3511;
243.0000;0.9483;3.3535;
243.3000;0.9483;3.3582;
243.6000;0.9491;3.3606;
243.9000;0.9483;3.3582;
244.2000;0.9491;3.3582;
244.5000;0.9483;3.3535;
244.8000;0.9491;3.3582;
245.1000;0.9475;3.3654;
245.4000;0.9491;3.3750;
245.7000;0.9483;3.3630;
246.0000;0.9434;3.3511;
246.3000;0.9475;3.3559;
246.6000;0.9491;3.3535;
246.9000;0.9483;3.3606;
247.2000;0.9475;3.3582;
247.5000;0.9475;3.3487;
247.8000;0.9499;3.3511;
248.1000;0.9483;3.3368;
248.4000;0.9499;3.3415;
248.7000;0.9491;3.3487;
249.0000;0.9499;3.3606;
249.3000;0.9499;3.3654;
249.6000;0.9508;3.3630;
249.9000;0.9475;3.3511;
250.2000;0.9483;3.3463;
250.5000;0.9499;3.3582;
250.8000;0.9475;3.3582;
251.1000;0.9459;3.3487;
251.4000;0.9499;3.3606;
251.7000;0.9499;3.3678;
252.0000;0.9499;3.3606;
252.3000;0.9467;3.3487;
252.6000;0.9491;3.3559;
252.9000;0.9524;3.3582;
253.2000;0.9459;3.3392;
253.5000;0.9475;3.3511;
253.8000;0.9483;3.3630;
254.1000;0.9508;3.3678;
254.4000;0.9499;3.3654;
254.7000;0.9475;3.3702;
255.0000;0.9475;3.3630;
255.3000;0.9483;3.3702;
255.6000;0.9491;3.3726;
255.9000;0.9483;3.3702;
256.2000;0.9467;3.3606;
256.5000;0.9483;3.3654;
256.8000;0.9467;3.3726;
257.1000;0.9483;3.3678;
257.4000;0.9491;3.3678;
257.7000;0.9467;3.3678;
258.0000;0.9345;3.3368;
258.3000;0.9508;3.3678;
258.6000;0.9483;3.3606;
258.9000;0.9499;3.3726;
259.2000;0.9508;3.3726;
259.5000;0.9467;3.3654;
259.8000;0.9516;3.3821;
260.1000;0.9491;3.3797;
260.4000;0.9483;3.3797;
260.7000;0.9442;3.3726;
261.0000;0.9491;3.3893;
261.3000;0.9483;3.3940;
261.6000;0.9548;3.4036;
261.9000;0.9548;3.3988;
262.2000;0.9491;3.3893;
262.5000;0.9508;3.3869;
262.8000;0.9459;3.3678;
263.1000;0.9499;3.3726;
263.4000;0.9508;3.3750;
263.7000;0.9426;3.3606;
264.0000;0.9483;3.3702;
264.3000;0.9499;3.3750;
264.6000;0.9483;3.3630;
264.9000;0.9499;3.3678;
265.2000;0.9483;3.3630;
265.5000;0.9548;3.3845;
265.8000;0.9508;3.3821;
266.1000;0.9483;3.3917;
266.4000;0.9475;3.3845;
266.7000;0.9483;3.3797;
267.0000;0.9491;3.3797;
267.3000;0.9483;3.3797;
267.6000;0.9499;3.3797;
267.9000;0.9491;3.3773;
268.2000;0.9491;3.3797;
268.5000;0.9491;3.3750;
268.8000;0.9467;3.3678;
269.1000;0.9499;3.3773;
269.4000;0.9491;3.3750;
269.7000;0.9475;3.3678;
270.0000;0.9499;3.3630;
270.3000;0.9491;3.3630;
270.6000;0.9491;3.3702;
270.9000;0.9475;3.3678;
271.2000;0.9483;3.3678;
271.5000;0.9483;3.3654;
271.8000;0.9483;3.3606;
272.1000;0.9556;3.3821;
272.4000;0.9402;3.3511;
272.7000;0.9483;3.3773;
273.0000;0.9475;3.3773;
273.3000;0.9483;3.3726;
273.6000;0.9491;3.3678;
273.9000;0.9475;3.3559;
274.2000;0.9402;3.3392;
274.5000;0.9459;3.3559;
274.8000;0.9483;3.3630;
275.1000;0.9483;3.3654;
275.4000;0.9459;3.3702;
275.7000;0.9491;3.3678;
276.0000;0.9491;3.3678;
276.3000;0.9491;3.3654;
276.6000;0.9475;3.3606;
276.9000;0.9475;3.3582;
277.2000;0.9475;3.3582;
277.5000;0.9499;3.3606;
277.8000;0.9483;3.3487;
278.1000;0.9483;3.3559;
278.4000;0.9410;3.3463;
278.7000;0.9467;3.3630;
279.0000;0.9475;3.3678;
279.3000;0.9483;3.3750;
279.6000;0.9499;3.3773;
279.9000;0.9459;3.3702;
280.2000;0.9475;3.3702;
280.5000;0.9483;3.3726;
280.8000;0.9483;3.3654;
281.1000;0.9483;3.3606;
281.4000;0.9467;3.3630;
281.7000;0.9475;3.3582;
282.0000;0.9524;3.3654;
282.3000;0.9483;3.3535;
282.6000;0.9459;3.3511;
282.9000;0.9402;3.3320;
283.2000;0.9475;3.3463;
283.5000;0.9451;3.3463;
283.8000;0.9483;3.3487;
284.1000;0.9467;3.3535;
284.4000;0.9483;3.3606;
284.7000;0.9524;3.3726;
285.0000;0.9499;3.3678;
285.3000;0.9491;3.3678;
285.6000;0.9491;3.3702;
285.9000;0.9499;3.3726;
286.2000;0.9467;3.3630;
286.5000;0.9475;3.3630;
286.8000;0.9475;3.3702;
287.1000;0.9491;3.3678;
287.4000;0.9483;3.3654;
287.7000;0.9483;3.3606;
288.0000;0.9491;3.3582;
288.3000;0.9516;3.3678;
288.6000;0.9491;3.3726;
288.9000;0.9491;3.3726;
289.2000;0.9491;3.3750;
289.5000;0.9475;3.3702;
289.8000;0.9491;3.3678;
290.1000;0.9532;3.3678;
290.4000;0.9459;3.3487;
290.7000;0.9483;3.3606;
291.0000;0.9483;3.3630;
291.3000;0.9459;3.3606;
291.6000;0.9467;3.3630;
291.9000;0.9467;3.3535;
292.2000;0.9491;3.3606;
292.5000;0.9402;3.3415;
292.8000;0.9467;3.3606;
293.1000;0.9467;3.3654;
293.4000;0.9491;3.3797;
293.7000;0.9483;3.3726;
294.0000;0.9475;3.3630;
294.3000;0.9459;3.3535;
294.6000;0.9499;3.3726;
294.9000;0.9491;3.3702;
295.2000;0.9508;3.3750;
295.5000;0.9475;3.3582;
295.8000;0.9483;3.3582;
296.1000;0.9467;3.3487;
296.4000;0.9475;3.3511;
296.7000;0.9499;3.3511;
297.0000;0.9491;3.3535;
297.3000;0.9491;3.3511;
297.6000;0.9475;3.3463;
297.9000;0.9483;3.3463;
298.2000;0.9483;3.3463;
298.5000;0.9459;3.3439;
298.8000;0.9483;3.3535;
299.1000;0.9467;3.3415;
299.4000;0.9491;3.3511;
299.7000;0.9532;3.3678;
300.0000;0.9491;3.3630;
300.3000;0.9491;3.3678;
300.6000;0.9508;3.3678;
300.9000;0.9483;3.3606;
301.2000;0.9483;3.3487;
301.5000;0.9508;3.3678;
301.8000;0.9418;3.3535;
302.1000;0.9483;3.3630;
302.4000;0.9475;3.3606;
302.7000;0.9540;3.3750;
303.0000;0.9459;3.3559;
303.3000;0.9475;3.3559;
303.6000;0.9467;3.3511;
303.9000;0.9491;3.3559;
304.2000;0.9483;3.3559;
304.5000;0.9483;3.3582;
304.8000;0.9483;3.3559;
305.1000;0.9483;3.3511;
305.4000;0.9442;3.3439;
305.7000;0.9491;3.3463;
306.0000;0.9516;3.3535;
306.3000;0.9508;3.3511;
306.6000;0.9475;3.3392;
306.9000;0.9451;3.3368;
307.2000;0.9491;3.3463;
307.5000;0.9483;3.3463;
307.8000;0.9483;3.3582;
308.1000;0.9475;3.3606;
308.4000;0.9483;3.3630;
308.7000;0.9491;3.3582;
309.0000;0.9483;3.3582;
309.3000;0.9451;3.3535;
309.6000;0.9483;3.3535;
309.9000;0.9483;3.3487;
310.2000;0.9508;3.3559;
310.5000;0.9499;3.3511;
310.8000;0.9483;3.3368;
311.1000;0.9467;3.3487;
311.4000;0.9475;3.3582;
311.7000;0.9483;3.3463;
312.0000;0.9459;3.3344;
312.3000;0.9499;3.3439;
312.6000;0.9483;3.3415;
312.9000;0.9499;3.3463;
313.2000;0.9475;3.3368;
313.5000;0.9483;3.3368;
313.8000;0.9483;3.3439;
314.1000;0.9499;3.3415;
314.4000;0.9467;3.3368;
314.7000;0.9475;3.3439;
315.0000;0.9483;3.3415;
315.3000;0.9426;3.3296;
315.6000;0.9483;3.3392;
315.9000;0.9540;3.3415;
316.2000;0.9442;3.3224;
316.5000;0.9459;3.3272;
316.8000;0.9491;3.3296;
317.1000;0.9467;3.3368;
317.4000;0.9499;3.3415;
317.7000;0.9499;3.3368;
318.0000;0.9410;3.3081;
318.3000;0.9483;3.3344;
318.6000;0.9475;3.3320;
318.9000;0.9475;3.3344;
319.2000;0.9483;3.3368;
319.5000;0.9516;3.3415;
319.8000;0.9475;3.3296;
320.1000;0.9499;3.3415;
320.4000;0.9483;3.3415;
320.7000;0.9475;3.3392;
321.0000;0.9491;3.3511;
321.3000;0.9442;3.3415;
321.6000;0.9483;3.3535;
321.9000;0.9491;3.3654;
322.2000;0.9451;3.3630;
322.5000;0.9483;3.3702;
322.8000;0.9499;3.3726;
323.1000;0.9418;3.3606;
323.4000;0.9467;3.3845;
323.7000;0.9459;3.3821;
324.0000;0.9483;3.3773;
324.3000;0.9442;3.3726;
324.6000;0.9410;3.3606;
324.9000;0.9475;3.3702;
325.2000;0.9499;3.3702;
325.5000;0.9475;3.3654;
325.8000;0.9483;3.3606;
326.1000;0.9475;3.3702;
326.4000;0.9508;3.3773;
326.7000;0.9483;3.3678;
327.0000;0.9475;3.3678;
327.3000;0.9516;3.3797;
327.6000;0.9483;3.3702;
327.9000;0.9491;3.3750;
328.2000;0.9475;3.3702;
328.5000;0.9491;3.3702;
328.8000;0.9483;3.3630;
329.1000;0.9499;3.3702;
329.4000;0.9475;3.3654;
329.7000;0.9483;3.3559;
330.0000;0.9516;3.3582;
330.3000;0.9499;3.3535;
330.6000;0.9499;3.3463;
330.9000;0.9491;3.3439;
331.2000;0.9508;3.3511;
331.5000;0.9491;3.3559;
331.8000;0.9499;3.3487;
332.1000;0.9491;3.3511;
332.4000;0.9459;3.3415;
332.7000;0.9475;3.3392;
333.0000;0.9491;3.3320;
333.3000;0.9475;3.3224;
333.6000;0.9442;3.3320;
333.9000;0.9459;3.3344;
334.2000;0.9394;3.3129;
334.5000;0.9475;3.3201;
334.8000;0.9475;3.3272;
335.1000;0.9385;3.3153;
335.4000;0.9483;3.3415;
335.7000;0.9491;3.3463;
336.0000;0.9475;3.3463;
336.3000;0.9459;3.3487;
336.6000;0.9475;3.3511;
336.9000;0.9491;3.3487;
337.2000;0.9426;3.3392;
337.5000;0.9483;3.3511;
337.8000;0.9491;3.3535;
338.1000;0.9483;3.3535;
338.4000;0.9491;3.3606;
338.7000;0.9483;3.3559;
339.0000;0.9499;3.3606;
339.3000;0.9483;3.3606;
339.6000;0.9475;3.3487;
339.9000;0.9483;3.3487;
340.2000;0.9483;3.3392;
340.5000;0.9475;3.3559;
340.8000;0.9475;3.3415;
341.1000;0.9491;3.3415;
341.4000;0.9508;3.3559;
341.7000;0.9491;3.3606;
342.0000;0.9451;3.3559;
342.3000;0.9540;3.3797;
342.6000;0.9475;3.3630;
342.9000;0.9483;3.3606;
343.2000;0.9499;3.3559;
343.5000;0.9499;3.3559;
343.8000;0.9483;3.3487;
344.1000;0.9483;3.3559;
344.4000;0.9483;3.3582;
344.7000;0.9475;3.3535;
345.0000;0.9467;3.3559;
345.3000;0.9483;3.3630;
345.6000;0.9483;3.3559;
345.9000;0.9483;3.3582;
346.2000;0.9418;3.3415;
346.5000;0.9516;3.3654;
346.8000;0.9475;3.3654;
347.1000;0.9459;3.3582;
347.4000;0.9459;3.3582;
347.7000;0.9418;3.3487;
348.0000;0.9475;3.3630;
348.3000;0.9483;3.3797;
348.6000;0.9410;3.3582;
348.9000;0.9459;3.3678;
349.2000;0.9508;3.3726;
349.5000;0.9467;3.3582;
349.8000;0.9499;3.3630;
350.1000;0.9491;3.3630;
350.4000;0.9483;3.3678;
350.7000;0.9483;3.3654;
351.0000;0.9483;3.3654;
351.3000;0.9499;3.3773;
351.6000;0.9499;3.3797;
351.9000;0.9475;3.3726;
352.2000;0.9499;3.3821;
352.5000;0.9483;3.3821;
352.8000;0.9475;3.3821;
353.1000;0.9483;3.3797;
353.4000;0.9540;3.3917;
353.7000;0.9508;3.3797;
354.0000;0.9491;3.3750;
354.3000;0.9475;3.3702;
354.6000;0.9418;3.3511;
354.9000;0.9467;3.3630;
355.2000;0.9467;3.3559;
355.5000;0.9451;3.3511;
355.8000;0.9499;3.3678;
356.1000;0.9516;3.3654;
356.4000;0.9491;3.3582;
356.7000;0.9402;3.3296;
357.0000;0.9491;3.3415;
357.3000;0.9491;3.3439;
357.6000;0.9467;3.3415;
357.9000;0.9499;3.3511;
358.2000;0.9459;3.3511;
358.5000;0.9499;3.3702;
358.8000;0.9475;3.3678;
359.1000;0.9467;3.3750;
359.4000;0.9483;3.3773;
359.7000;0.9491;3.3797;
360.0000;0.9499;3.3773;
360.3000;0.9483;3.3726;
360.6000;0.9483;3.3702;
360.9000;0.9475;3.3654;
361.2000;0.9491;3.3606;
361.5000;0.9475;3.3606;
361.8000;0.9475;3.3606;
362.1000;0.9418;3.3415;
362.4000;0.9467;3.3511;
362.7000;0.9475;3.3511;
363.0000;0.9475;3.3606;
363.3000;0.9451;3.3630;
363.6000;0.9483;3.3702;
363.9000;0.9475;3.3678;
364.2000;0.9524;3.3797;
364.5000;0.9491;3.3702;
364.8000;0.9475;3.3702;
365.1000;0.9459;3.3726;
365.4000;0.9475;3.3726;
365.7000;0.9467;3.3654;
366.0000;0.9467;3.3654;
366.3000;0.9508;3.3726;
366.6000;0.9467;3.3797;
366.9000;0.9483;3.3750;
367.2000;0.9483;3.3654;
367.5000;0.9483;3.3630;
367.8000;0.9451;3.3654;
368.1000;0.9475;3.3821;
368.4000;0.9483;3.3845;
368.7000;0.9516;3.3893;
369.0000;0.9475;3.3869;
369.3000;0.9467;3.3821;
369.6000;0.9475;3.3893;
369.9000;0.9499;3.3940;
370.2000;0.9475;3.3940;
370.5000;0.9483;3.3845;
370.8000;0.9483;3.3797;
371.1000;0.9499;3.3773;
371.4000;0.9475;3.3773;
371.7000;0.9459;3.3750;
372.0000;0.9451;3.3821;
372.3000;0.9483;3.3869;
372.6000;0.9434;3.3773;
372.9000;0.9516;3.3917;
373.2000;0.9467;3.3845;
373.5000;0.9475;3.3940;
373.8000;0.9377;3.3654;
374.1000;0.9475;3.3869;
374.4000;0.9459;3.3893;
374.7000;0.9475;3.3821;
375.0000;0.9467;3.3797;
375.3000;0.9491;3.3726;
375.6000;0.9491;3.3630;
375.9000;0.9475;3.3606;
376.2000;0.9499;3.3702;
376.5000;0.9451;3.3726;
376.8000;0.9475;3.3773;
377.1000;0.9475;3.3821;
377.4000;0.9475;3.3821;
377.7000;0.9475;3.3869;
378.0000;0.9475;3.3893;
378.3000;0.9467;3.3845;
378.6000;0.9524;3.3988;
378.9000;0.9491;3.3940;
379.2000;0.9491;3.3845;
379.5000;0.9483;3.3869;
379.8000;0.9491;3.3797;
380.1000;0.9483;3.3702;
380.4000;0.9483;3.3726;
380.7000;0.9451;3.3582;
381.0000;0.9483;3.3654;
381.3000;0.9565;3.3869;
381.6000;0.9508;3.3726;
381.9000;0.9499;3.3678;
382.2000;0.9483;3.3630;
382.5000;0.9499;3.3678;
382.8000;0.9475;3.3773;
383.1000;0.9467;3.3821;
383.4000;0.9483;3.3869;
383.7000;0.9491;3.3940;
384.0000;0.9459;3.3988;
384.3000;0.9483;3.4036;
384.6000;0.9483;3.3940;
384.9000;0.9499;3.3988;
385.2000;0.9491;3.3988;
385.5000;0.9483;3.3940;
385.8000;0.9475;3.3821;
386.1000;0.9475;3.3726;
386.4000;0.9548;3.3917;
386.7000;0.9491;3.3821;
387.0000;0.9483;3.3773;
387.3000;0.9459;3.3773;
387.6000;0.9499;3.3797;
387.9000;0.9491;3.3750;
388.2000;0.9467;3.3678;
388.5000;0.9475;3.3630;
388.8000;0.9475;3.3606;
389.1000;0.9467;3.3726;
389.4000;0.9418;3.3559;
389.7000;0.9467;3.3678;
390.0000;0.9467;3.3702;
390.3000;0.9483;3.3750;
390.6000;0.9475;3.3702;
390.9000;0.9475;3.3726;
391.2000;0.9491;3.3797;
391.5000;0.9475;3.3750;
391.8000;0.9483;3.3845;
392.1000;0.9467;3.3773;
392.4000;0.9394;3.3654;
392.7000;0.9491;3.3869;
393.0000;0.9483;3.3797;
393.3000;0.9524;3.3797;
393.6000;0.9508;3.3821;
393.9000;0.9483;3.3869;
394.2000;0.9483;3.3893;
394.5000;0.9508;3.3964;
394.8000;0.9565;3.4131;
395.1000;0.9491;3.3940;
395.4000;0.9467;3.3893;
395.7000;0.9516;3.3845;
396.0000;0.9475;3.3773;
396.3000;0.9475;3.3702;
396.6000;0.9556;3.4060;
396.9000;0.9483;3.3797;
397.2000;0.9483;3.3702;
397.5000;0.9491;3.3773;
397.8000;0.9499;3.3797;
398.1000;0.9491;3.3750;
398.4000;0.9467;3.3654;
398.7000;0.9451;3.3559;
399.0000;0.9491;3.3678;
399.3000;0.9467;3.3702;
399.6000;0.9483;3.3773;
399.9000;0.9467;3.3654;
400.2000;0.9475;3.3630;
400.5000;0.9467;3.3606;
400.8000;0.9491;3.3606;
401.1000;0.9483;3.3582;
401.4000;0.9467;3.3630;
401.7000;0.9483;3.3702;
402.0000;0.9491;3.3750;
402.3000;0.9467;3.3750;
402.6000;0.9475;3.3678;
402.9000;0.9475;3.3582;
403.2000;0.9459;3.3582;
403.5000;0.9475;3.3654;
403.8000;0.9483;3.3630;
404.1000;0.9483;3.3678;
404.4000;0.9459;3.3582;
404.7000;0.9508;3.3654;
405.0000;0.9467;3.3654;
405.3000;0.9483;3.3726;
405.6000;0.9483;3.3869;
405.9000;0.9483;3.3845;
406.2000;0.9467;3.3773;
406.5000;0.9483;3.3750;
406.8000;0.9491;3.3654;
407.1000;0.9475;3.3606;
407.4000;0.9467;3.3654;
407.7000;0.9475;3.3630;
408.0000;0.9475;3.3702;
408.3000;0.9426;3.3582;
408.6000;0.9459;3.3702;
408.9000;0.9483;3.3726;
409.2000;0.9475;3.3678;
409.5000;0.9483;3.3654;
409.8000;0.9483;3.3606;
410.1000;0.9491;3.3582;
410.4000;0.9467;3.3511;
410.7000;0.9475;3.3559;
411.0000;0.9442;3.3487;
411.3000;0.9402;3.3296;
411.6000;0.9475;3.3415;
411.9000;0.9467;3.3487;
412.2000;0.9499;3.3511;
412.5000;0.9459;3.3535;
412.8000;0.9491;3.3654;
413.1000;0.9499;3.3726;
413.4000;0.9442;3.3582;
413.7000;0.9451;3.3606;
414.0000;0.9467;3.3654;
414.3000;0.9475;3.3654;
414.6000;0.9491;3.3678;
414.9000;0.9459;3.3559;
415.2000;0.9442;3.3463;
415.5000;0.9483;3.3487;
415.8000;0.9491;3.3582;
416.1000;0.9475;3.3606;
416.4000;0.9467;3.3630;
416.7000;0.9483;3.3702;
417.0000;0.9475;3.3726;
417.3000;0.9459;3.3654;
417.6000;0.9483;3.3726;
417.9000;0.9467;3.3702;
418.2000;0.9499;3.3702;
418.5000;0.9467;3.3654;
418.8000;0.9467;3.3702;
419.1000;0.9475;3.3654;
419.4000;0.9459;3.3582;
419.7000;0.9483;3.3582;
420.0000;0.9467;3.3535;
420.3000;0.9434;3.3439;
420.6000;0.9491;3.3559;
420.9000;0.9491;3.3535;
421.2000;0.9491;3.3463;
421.5000;0.9475;3.3487;
421.8000;0.9491;3.3582;
422.1000;0.9508;3.3582;
422.4000;0.9459;3.3535;
422.7000;0.9483;3.3487;
423.0000;0.9483;3.3463;
423.3000;0.9516;3.3582;
423.6000;0.9483;3.3439;
423.9000;0.9475;3.3344;
424.2000;0.9516;3.3392;
424.5000;0.9467;3.3392;
424.8000;0.9475;3.3368;
425.1000;0.9418;3.3177;
425.4000;0.9442;3.3296;
425.7000;0.9467;3.3392;
426.0000;0.9467;3.3463;
426.3000;0.9483;3.3439;
426.6000;0.9459;3.3392;
426.9000;0.9483;3.3487;
427.2000;0.9459;3.3463;
427.5000;0.9475;3.3487;
427.8000;0.9459;3.3415;
428.1000;0.9467;3.3344;
428.4000;0.9483;3.3392;
428.7000;0.9459;3.3463;
429.0000;0.9451;3.3463;
429.3000;0.9442;3.3368;
429.6000;0.9475;3.3487;
429.9000;0.9475;3.3582;
430.2000;0.9483;3.3559;
430.5000;0.9451;3.3487;
430.8000;0.9483;3.3559;
431.1000;0.9467;3.3535;
431.4000;0.9467;3.3487;
431.7000;0.9467;3.3487;
432.0000;0.9475;3.3487;
432.3000;0.9508;3.3678;
432.6000;0.9475;3.3606;
432.9000;0.9467;3.3678;
433.2000;0.9475;3.3630;
433.5000;0.9491;3.3654;
433.8000;0.9434;3.3535;
434.1000;0.9532;3.3845;
434.4000;0.9483;3.3726;
434.7000;0.9499;3.3773;
435.0000;0.9491;3.3702;
435.3000;0.9451;3.3582;
435.6000;0.9459;3.3726;
435.9000;0.9459;3.3630;
436.2000;0.9475;3.3606;
436.5000;0.9483;3.3559;
436.8000;0.9475;3.3630;
437.1000;0.9483;3.3726;
437.4000;0.9467;3.3678;
437.7000;0.9459;3.3630;
438.0000;0.9475;3.3678;
438.3000;0.9459;3.3630;
438.6000;0.9483;3.3630;
438.9000;0.9459;3.3654;
439.2000;0.9475;3.3702;
439.5000;0.9467;3.3678;
439.8000;0.9459;3.3678;
440.1000;0.9475;3.3678;
440.4000;0.9532;3.3773;
440.7000;0.9467;3.3606;
441.0000;0.9467;3.3630;
441.3000;0.9475;3.3630;
441.6000;0.9442;3.3630;
441.9000;0.9467;3.3654;
442.2000;0.9475;3.3582;
442.5000;0.9418;3.3463;
442.8000;0.9361;3.3368;
443.1000;0.9459;3.3559;
443.4000;0.9451;3.3582;
443.7000;0.9467;3.3606;
444.0000;0.9442;3.3606;
444.3000;0.9451;3.3559;
444.6000;0.9459;3.3559;
444.9000;0.9467;3.3654;
445.2000;0.9459;3.3630;
445.5000;0.9451;3.3559;
445.8000;0.9524;3.3750;
446.1000;0.9475;3.3606;
446.4000;0.9459;3.3606;
446.7000;0.9467;3.3606;
447.0000;0.9467;3.3582;
447.3000;0.9418;3.3415;
447.6000;0.9475;3.3606;
447.9000;0.9467;3.3654;
448.2000;0.9516;3.3750;
448.5000;0.9475;3.3654;
448.8000;0.9475;3.3630;
449.1000;0.9467;3.3630;
449.4000;0.9467;3.3702;
449.7000;0.9475;3.3702;
450.0000;0.9483;3.3654;
450.3000;0.9451;3.3487;
450.6000;0.9475;3.3439;
450.9000;0.9467;3.3415;
451.2000;0.9475;3.3511;
451.5000;0.9483;3.3511;
451.8000;0.9467;3.3535;
452.1000;0.9475;3.3582;
452.4000;0.9483;3.3654;
452.7000;0.9467;3.3678;
453.0000;0.9451;3.3678;
453.3000;0.9467;3.3654;
453.6000;0.9459;3.3606;
453.9000;0.9483;3.3654;
454.2000;0.9459;3.3630;
454.5000;0.9467;3.3582;
454.8000;0.9467;3.3582;
455.1000;0.9475;3.3559;
455.4000;0.9475;3.3535;
455.7000;0.9442;3.3487;
456.0000;0.9475;3.3463;
456.3000;0.9475;3.3463;
456.6000;0.9459;3.3439;
456.9000;0.9442;3.3415;
457.2000;0.9467;3.3487;
457.5000;0.9483;3.3582;
457.8000;0.9475;3.3606;
458.1000;0.9483;3.3654;
458.4000;0.9459;3.3487;
458.7000;0.9467;3.3511;
459.0000;0.9483;3.3559;
459.3000;0.9459;3.3511;
459.6000;0.9475;3.3535;
459.9000;0.9491;3.3606;
460.2000;0.9483;3.3654;
460.5000;0.9483;3.3582;
460.8000;0.9475;3.3582;
461.1000;0.9459;3.3535;
461.4000;0.9459;3.3606;
461.7000;0.9467;3.3678;
462.0000;0.9499;3.3678;
462.3000;0.9459;3.3606;
462.6000;0.9459;3.3582;
462.9000;0.9459;3.3535;
463.2000;0.9442;3.3559;
463.5000;0.9451;3.3606;
463.8000;0.9459;3.3582;
464.1000;0.9483;3.3750;
464.4000;0.9475;3.3678;
464.7000;0.9459;3.3606;
465.0000;0.9459;3.3559;
465.3000;0.9491;3.3535;
465.6000;0.9475;3.3582;
465.9000;0.9475;3.3630;
466.2000;0.9467;3.3630;
466.5000;0.9524;3.3845;
466.8000;0.9426;3.3582;
467.1000;0.9459;3.3678;
467.4000;0.9467;3.3630;
467.7000;0.9475;3.3654;
468.0000;0.9483;3.3773;
468.3000;0.9475;3.3797;
468.6000;0.9467;3.3726;
468.9000;0.9524;3.3797;
469.2000;0.9475;3.3726;
469.5000;0.9483;3.3702;
469.8000;0.9467;3.3678;
470.1000;0.9459;3.3678;
470.4000;0.9483;3.3630;
470.7000;0.9475;3.3559;
471.0000;0.9459;3.3582;
471.3000;0.9459;3.3582;
471.6000;0.9475;3.3559;
471.9000;0.9467;3.3582;
472.2000;0.9467;3.3582;
472.5000;0.9491;3.3678;
472.8000;0.9483;3.3678;
473.1000;0.9459;3.3582;
473.4000;0.9491;3.3702;
473.7000;0.9451;3.3654;
474.0000;0.9467;3.3678;
474.3000;0.9581;3.3988;
474.6000;0.9483;3.3750;
474.9000;0.9451;3.3630;
475.2000;0.9499;3.3654;
475.5000;0.9475;3.3582;
475.8000;0.9451;3.3535;
476.1000;0.9459;3.3535;
476.4000;0.9475;3.3606;
476.7000;0.9499;3.3726;
477.0000;0.9467;3.3678;
477.3000;0.9475;3.3726;
477.6000;0.9475;3.3678;
477.9000;0.9475;3.3750;
478.2000;0.9467;3.3726;
478.5000;0.9467;3.3726;
478.8000;0.9434;3.3702;
479.1000;0.9459;3.3726;
479.4000;0.9467;3.3750;
479.7000;0.9459;3.3678;
480.0000;0.9467;3.3750;
480.3000;0.9483;3.3797;
480.6000;0.9475;3.3797;
480.9000;0.9459;3.3750;
481.2000;0.9467;3.3726;
481.5000;0.9451;3.3726;
481.8000;0.9467;3.3750;
482.1000;0.9459;3.3821;
482.4000;0.9475;3.3964;
482.7000;0.9459;3.3940;
483.0000;0.9475;3.4012;
483.3000;0.9459;3.3869;
483.6000;0.9475;3.3797;
483.9000;0.9451;3.3797;
484.2000;0.9475;3.3797;
484.5000;0.9483;3.3750;
484.8000;0.9459;3.3654;
485.1000;0.9516;3.3702;
485.4000;0.9475;3.3559;
485.7000;0.9467;3.3582;
486.0000;0.9442;3.3654;
486.3000;0.9467;3.3678;
486.6000;0.9418;3.3559;
486.9000;0.9475;3.3702;
487.2000;0.9491;3.3773;
487.5000;0.9475;3.3678;
487.8000;0.9475;3.3582;
488.1000;0.9467;3.3654;
488.4000;0.9442;3.3654;
488.7000;0.9434;3.3678;
489.0000;0.9467;3.3773;
489.3000;0.9475;3.3750;
489.6000;0.9475;3.3797;
489.9000;0.9467;3.3821;
490.2000;0.9451;3.3678;
490.5000;0.9475;3.3845;
490.8000;0.9475;3.3845;
491.1000;0.9475;3.3773;
491.4000;0.9475;3.3750;
491.7000;0.9467;3.3726;
492.0000;0.9467;3.3678;
492.3000;0.9459;3.3582;
492.6000;0.9459;3.3535;
492.9000;0.9459;3.3606;
493.2000;0.9451;3.3630;
493.5000;0.9467;3.3630;
493.8000;0.9467;3.3511;
494.1000;0.9434;3.3392;
494.4000;0.9459;3.3535;
494.7000;0.9467;3.3511;
495.0000;0.9451;3.3535;
495.3000;0.9467;3.3606;
495.6000;0.9467;3.3678;
495.9000;0.9475;3.3750;
496.2000;0.9483;3.3773;
496.5000;0.9459;3.3750;
496.8000;0.9459;3.3773;
497.1000;0.9475;3.3797;
497.4000;0.9467;3.3797;
497.7000;0.9475;3.3773;
498.0000;0.9483;3.3821;
498.3000;0.9475;3.3821;
498.6000;0.9483;3.3893;
498.9000;0.9475;3.3917;
499.2000;0.9475;3.3869;
499.5000;0.9475;3.3869;
499.8000;0.9467;3.3869;
500.1000;0.9483;3.3845;
500.4000;0.9459;3.3773;
500.7000;0.9475;3.3750;
501.0000;0.9467;3.3869;
501.3000;0.9459;3.3869;
501.6000;0.9467;3.3869;
501.9000;0.9434;3.3845;
502.2000;0.9467;3.3845;
502.5000;0.9459;3.3821;
502.8000;0.9467;3.3773;
503.1000;0.9467;3.3773;
503.4000;0.9434;3.3678;
503.7000;0.9467;3.3797;
504.0000;0.9508;3.3821;
504.3000;0.9459;3.3630;
504.6000;0.9540;3.3821;
504.9000;0.9467;3.3654;
505.2000;0.9459;3.3654;
505.5000;0.9459;3.3630;
505.8000;0.9451;3.3511;
506.1000;0.9475;3.3582;
506.4000;0.9451;3.3511;
506.7000;0.9483;3.3559;
507.0000;0.9426;3.3511;
507.3000;0.9459;3.3678;
507.6000;0.9499;3.3750;
507.9000;0.9394;3.3559;
508.2000;0.9459;3.3750;
508.5000;0.9467;3.3750;
508.8000;0.9434;3.3726;
509.1000;0.9459;3.3773;
509.4000;0.9475;3.3821;
509.7000;0.9434;3.3773;
510.0000;0.9475;3.3726;
510.3000;0.9467;3.3773;
510.6000;0.9516;3.3869;
510.9000;0.9459;3.3678;
511.2000;0.9483;3.3726;
511.5000;0.9459;3.3750;
511.8000;0.9459;3.3726;
512.1000;0.9459;3.3750;
512.4000;0.9442;3.3630;
512.7000;0.9467;3.3654;
513.0000;0.9467;3.3678;
513.3000;0.9491;3.3654;
513.6000;0.9483;3.3845;
513.9000;0.9491;3.3797;
514.2000;0.9467;3.3773;
514.5000;0.9467;3.3773;
514.8000;0.9467;3.3726;
515.1000;0.9410;3.3582;
515.4000;0.9475;3.3630;
515.7000;0.9467;3.3654;
516.0000;0.9475;3.3606;
516.3000;0.9475;3.3606;
516.6000;0.9459;3.3511;
516.9000;0.9451;3.3559;
517.2000;0.9532;3.3726;
517.5000;0.9532;3.3750;
517.8000;0.9467;3.3630;
518.1000;0.9434;3.3559;
518.4000;0.9459;3.3630;
518.7000;0.9475;3.3726;
519.0000;0.9459;3.3630;
519.3000;0.9475;3.3726;
519.6000;0.9459;3.3702;
519.9000;0.9475;3.3750;
520.2000;0.9499;3.3726;
520.5000;0.9475;3.3678;
520.8000;0.9475;3.3678;
521.1000;0.9418;3.3487;
521.4000;0.9540;3.3750;
521.7000;0.9475;3.3582;
522.0000;0.9451;3.3606;
522.3000;0.9434;3.3535;
522.6000;0.9491;3.3606;
522.9000;0.9499;3.3582;
523.2000;0.9459;3.3511;
523.5000;0.9467;3.3535;
523.8000;0.9475;3.3559;
524.1000;0.9385;3.3415;
524.4000;0.9475;3.3630;
524.7000;0.9483;3.3654;
525.0000;0.9467;3.3606;
525.3000;0.9475;3.3654;
525.6000;0.9483;3.3582;
525.9000;0.9459;3.3511;
526.2000;0.9475;3.3535;
526.5000;0.9418;3.3463;
526.8000;0.9499;3.3582;
527.1000;0.9467;3.3511;
527.4000;0.9451;3.3511;
527.7000;0.9467;3.3630;
528.0000;0.9459;3.3606;
528.3000;0.9467;3.3487;
528.6000;0.9532;3.3726;
528.9000;0.9467;3.3535;
529.2000;0.9467;3.3511;
529.5000;0.9459;3.3511;
529.8000;0.9442;3.3439;
530.1000;0.9483;3.3630;
530.4000;0.9475;3.3678;
530.7000;0.9483;3.3606;
531.0000;0.9475;3.3654;
531.3000;0.9483;3.3606;
531.6000;0.9491;3.3678;
531.9000;0.9475;3.3654;
532.2000;0.9459;3.3606;
532.5000;0.9483;3.3726;
532.8000;0.9475;3.3678;
533.1000;0.9467;3.3606;
533.4000;0.9459;3.3582;
533.7000;0.9467;3.3654;
534.0000;0.9467;3.3630;
534.3000;0.9475;3.3630;
534.6000;0.9491;3.3726;
534.9000;0.9467;3.3678;
535.2000;0.9475;3.3750;
535.5000;0.9467;3.3750;
535.8000;0.9410;3.3606;
536.1000;0.9475;3.3726;
536.4000;0.9451;3.3726;
536.7000;0.9532;3.3869;
537.0000;0.9483;3.3726;
537.3000;0.9394;3.3582;
537.6000;0.9532;3.3917;
537.9000;0.9475;3.3845;
538.2000;0.9459;3.3797;
538.5000;0.9459;3.3773;
538.8000;0.9467;3.3845;
539.1000;0.9434;3.3702;
539.4000;0.9467;3.3750;
539.7000;0.9451;3.3750;
540.0000;0.9467;3.3773;
540.3000;0.9467;3.3845;
540.6000;0.9483;3.3797;
540.9000;0.9467;3.3797;
541.2000;0.9475;3.3702;
541.5000;0.9499;3.3654;
541.8000;0.9467;3.3582;
542.1000;0.9451;3.3559;
542.4000;0.9459;3.3463;
542.7000;0.9483;3.3368;
543.0000;0.9475;3.3272;
543.3000;0.9394;3.3033;
543.6000;0.9467;3.3296;
543.9000;0.9467;3.3344;
544.2000;0.9508;3.3582;
544.5000;0.9467;3.3535;
544.8000;0.9467;3.3606;
545.1000;0.9459;3.3582;
545.4000;0.9508;3.3702;
545.7000;0.9491;3.3630;
546.0000;0.9451;3.3559;
546.3000;0.9483;3.3606;
546.6000;0.9491;3.3582;
546.9000;0.9475;3.3487;
547.2000;0.9532;3.3582;
547.5000;0.9451;3.3415;
547.8000;0.9451;3.3392;
548.1000;0.9532;3.3559;
548.4000;0.9434;3.3368;
548.7000;0.9451;3.3415;
549.0000;0.9451;3.3463;
549.3000;0.9459;3.3559;
549.6000;0.9434;3.3463;
549.9000;0.9459;3.3368;
550.2000;0.9459;3.3344;
550.5000;0.9434;3.3368;
550.8000;0.9483;3.3511;
551.1000;0.9459;3.3511;
551.4000;0.9353;3.3296;
551.7000;0.9434;3.3511;
552.0000;0.9467;3.3559;
552.3000;0.9451;3.3535;
552.6000;0.9459;3.3582;
552.9000;0.9467;3.3559;
553.2000;0.9483;3.3654;
553.5000;0.9467;3.3582;
553.8000;0.9532;3.3654;
554.1000;0.9475;3.3582;
554.4000;0.9459;3.3582;
554.7000;0.9459;3.3582;
555.0000;0.9442;3.3511;
555.3000;0.9459;3.3463;
555.6000;0.9467;3.3511;
555.9000;0.9451;3.3511;
556.2000;0.9459;3.3487;
556.5000;0.9442;3.3439;
556.8000;0.9467;3.3511;
557.1000;0.9459;3.3439;
557.4000;0.9475;3.3368;
557.7000;0.9491;3.3463;
558.0000;0.9467;3.3368;
558.3000;0.9467;3.3368;
558.6000;0.9467;3.3344;
558.9000;0.9459;3.3415;
559.2000;0.9475;3.3463;
559.5000;0.9459;3.3439;
559.8000;0.9442;3.3415;
560.1000;0.9459;3.3415;
560.4000;0.9459;3.3392;
560.7000;0.9467;3.3415;
561.0000;0.9475;3.3415;
561.3000;0.9467;3.3511;
561.6000;0.9467;3.3439;
561.9000;0.9475;3.3463;
562.2000;0.9491;3.3606;
562.5000;0.9459;3.3463;
562.8000;0.9459;3.3463;
563.1000;0.9475;3.3487;
563.4000;0.9442;3.3487;
563.7000;0.9442;3.3463;
564.0000;0.9459;3.3487;
564.3000;0.9467;3.3439;
564.6000;0.9467;3.3463;
564.9000;0.9459;3.3439;
565.2000;0.9467;3.3559;
565.5000;0.9467;3.3606;
565.8000;0.9459;3.3630;
566.1000;0.9467;3.3654;
566.4000;0.9467;3.3630;
566.7000;0.9475;3.3606;
567.0000;0.9459;3.3559;
567.3000;0.9483;3.3487;
567.6000;0.9475;3.3368;
567.9000;0.9459;3.3320;
568.2000;0.9451;3.3344;
568.5000;0.9475;3.3511;
568.8000;0.9451;3.3415;
569.1000;0.9418;3.3272;
569.4000;0.9434;3.3272;
569.7000;0.9451;3.3272;
570.0000;0.9459;3.3344;
570.3000;0.9442;3.3344;
570.6000;0.9467;3.3296;
570.9000;0.9467;3.3296;
571.2000;0.9451;3.3344;
571.5000;0.9499;3.3415;
571.8000;0.9475;3.3272;
572.1000;0.9467;3.3177;
572.4000;0.9499;3.3344;
572.7000;0.9442;3.3201;
573.0000;0.9451;3.3081;
573.3000;0.9459;3.3081;
573.6000;0.9451;3.3129;
573.9000;0.9442;3.3153;
574.2000;0.9467;3.3224;
574.5000;0.9459;3.3248;
574.8000;0.9459;3.3368;
575.1000;0.9483;3.3439;
575.4000;0.9475;3.3511;
575.7000;0.9516;3.3630;
576.0000;0.9475;3.3559;
576.3000;0.9467;3.3535;
576.6000;0.9475;3.3511;
576.9000;0.9451;3.3487;
577.2000;0.9483;3.3535;
577.5000;0.9426;3.3439;
577.8000;0.9467;3.3487;
578.1000;0.9410;3.3296;
578.4000;0.9475;3.3463;
578.7000;0.9459;3.3415;
579.0000;0.9508;3.3487;
579.3000;0.9451;3.3392;
579.6000;0.9442;3.3392;
579.9000;0.9442;3.3320;
580.2000;0.9442;3.3296;
580.5000;0.9459;3.3248;
580.8000;0.9508;3.3368;
581.1000;0.9467;3.3320;
581.4000;0.9467;3.3368;
581.7000;0.9565;3.3582;
582.0000;0.9459;3.3344;
582.3000;0.9451;3.3368;
582.6000;0.9524;3.3511;
582.9000;0.9451;3.3368;
583.2000;0.9459;3.3368;
583.5000;0.9483;3.3463;
583.8000;0.9410;3.3296;
584.1000;0.9475;3.3439;
584.4000;0.9442;3.3368;
584.7000;0.9459;3.3439;
585.0000;0.9451;3.3439;
585.3000;0.9467;3.3463;
585.6000;0.9475;3.3535;
585.9000;0.9459;3.3487;
586.2000;0.9418;3.3415;
586.5000;0.9475;3.3630;
586.8000;0.9442;3.3535;
587.1000;0.9410;3.3511;
587.4000;0.9475;3.3559;
587.7000;0.9459;3.3606;
588.0000;0.9451;3.3535;
588.3000;0.9467;3.3678;
588.6000;0.9434;3.3415;
588.9000;0.9459;3.3320;
589.2000;0.9434;3.3248;
589.5000;0.9426;3.3201;
589.8000;0.9442;3.3248;
590.1000;0.9483;3.3392;
590.4000;0.9442;3.3296;
590.7000;0.9434;3.3320;
591.0000;0.9442;3.3415;
591.3000;0.9451;3.3320;
591.6000;0.9467;3.3415;
591.9000;0.9451;3.3368;
592.2000;0.9499;3.3582;
592.5000;0.9434;3.3535;
592.8000;0.9451;3.3582;
593.1000;0.9451;3.3559;
593.4000;0.9475;3.3463;
593.7000;0.9467;3.3392;
594.0000;0.9467;3.3392;
594.3000;0.9459;3.3368;
594.6000;0.9459;3.3344;
594.9000;0.9459;3.3415;
595.2000;0.9451;3.3392;
595.5000;0.9451;3.3368;
595.8000;0.9467;3.3368;
596.1000;0.9459;3.3463;
596.4000;0.9475;3.3511;
596.7000;0.9459;3.3463;
597.0000;0.9459;3.3439;
597.3000;0.9475;3.3439;
597.6000;0.9467;3.3296;
597.9000;0.9467;3.3415;
598.2000;0.9459;3.3415;
598.5000;0.9467;3.3511;
598.8000;0.9459;3.3392;
599.1000;0.9467;3.3535;
599.4000;0.9467;3.3535;
599.7000;0.9442;3.3415;
600.0000;0.9418;3.3415;
600.3000;0.9451;3.3320;
600.6000;0.9499;3.3248;
600.9000;0.9459;3.3177;
601.2000;0.9402;3.2986;
601.5000;0.9328;3.2866;
601.8000;0.9280;3.2771;
602.1000;0.9223;3.2485;
602.4000;0.9133;3.2246;
602.7000;0.9101;3.2127;
603.0000;0.9035;3.1912;
603.3000;0.8962;3.1792;
603.6000;0.8946;3.1792;
603.9000;0.8864;3.1625;
604.2000;0.8783;3.1458;
604.5000;0.8661;3.1339;
604.8000;0.8710;3.1506;
605.1000;0.8661;3.1363;
605.4000;0.8612;3.1363;
605.7000;0.8555;3.1243;
606.0000;0.8523;3.1196;
606.3000;0.8466;3.1100;
606.6000;0.8409;3.0933;
606.9000;0.8384;3.0981;
607.2000;0.8344;3.1005;
607.5000;0.8360;3.1124;
607.8000;0.8303;3.1005;
608.1000;0.8254;3.0861;
608.4000;0.8197;3.0861;
608.7000;0.8173;3.0766;
609.0000;0.8132;3.0671;
609.3000;0.8107;3.0647;
609.6000;0.7985;3.0432;
609.9000;0.8034;3.0671;
610.2000;0.7985;3.0575;
610.5000;0.7985;3.0647;
610.8000;0.7945;3.0599;
611.1000;0.7920;3.0527;
611.4000;0.7904;3.0599;
611.7000;0.7888;3.0575;
612.0000;0.7831;3.0551;
612.3000;0.7814;3.0623;
612.6000;0.7798;3.0623;
612.9000;0.7774;3.0599;
613.2000;0.7749;3.0623;
613.5000;0.7733;3.0694;
613.8000;0.7692;3.0599;
614.1000;0.7652;3.0575;
614.4000;0.7652;3.0503;
614.7000;0.7627;3.0408;
615.0000;0.7660;3.0527;
615.3000;0.7586;3.0432;
615.6000;0.7578;3.0527;
615.9000;0.7538;3.0456;
616.2000;0.7448;3.0336;
616.5000;0.7513;3.0551;
616.8000;0.7497;3.0551;
617.1000;0.7448;3.0503;
617.4000;0.7440;3.0527;
617.7000;0.7424;3.0527;
618.0000;0.7416;3.0456;
618.3000;0.7391;3.0480;
618.6000;0.7359;3.0432;
618.9000;0.7350;3.0480;
619.2000;0.7326;3.0456;
619.5000;0.7293;3.0480;
619.8000;0.7293;3.0527;
620.1000;0.7245;3.0384;
620.4000;0.7269;3.0575;
620.7000;0.7261;3.0527;
621.0000;0.7228;3.0527;
621.3000;0.7204;3.0503;
621.6000;0.7204;3.0527;
621.9000;0.7188;3.0575;
622.2000;0.7155;3.0527;
622.5000;0.7139;3.0527;
622.8000;0.7131;3.0599;
623.1000;0.7106;3.0480;
623.4000;0.7098;3.0432;
623.7000;0.7114;3.0503;
624.0000;0.7098;3.0480;
624.3000;0.7066;3.0456;
624.6000;0.7082;3.0480;
624.9000;0.6952;3.0169;
625.2000;0.7000;3.0384;
625.5000;0.6943;3.0265;
625.8000;0.6992;3.0289;
626.1000;0.6984;3.0265;
626.4000;0.6919;3.0074;
626.7000;0.6968;3.0193;
627.0000;0.6943;3.0193;
627.3000;0.6927;3.0122;
627.6000;0.6919;3.0074;
627.9000;0.6903;3.0074;
628.2000;0.6895;3.0074;
628.5000;0.6895;3.0145;
628.8000;0.6878;3.0074;
629.1000;0.6846;3.0026;
629.4000;0.6854;3.0074;
629.7000;0.6846;3.0002;
630.0000;0.6821;3.0074;
630.3000;0.6919;3.0384;
630.6000;0.6838;3.0145;
630.9000;0.6797;3.0145;
631.2000;0.6797;3.0193;
631.5000;0.6781;3.0193;
631.8000;0.6789;3.0145;
632.1000;0.6781;3.0145;
632.4000;0.6748;3.0122;
632.7000;0.6748;3.0074;
633.0000;0.6797;3.0193;
633.3000;0.6764;3.0217;
633.6000;0.6732;3.0193;
633.9000;0.6716;3.0122;
634.2000;0.6707;3.0074;
634.5000;0.6716;3.0026;
634.8000;0.6691;2.9978;
635.1000;0.6683;2.9955;
635.4000;0.6675;3.0050;
635.7000;0.6667;3.0169;
636.0000;0.6724;3.0193;
636.3000;0.6634;2.9978;
636.6000;0.6626;2.9907;
636.9000;0.6634;2.9883;
637.2000;0.6626;2.9931;
637.5000;0.6577;2.9764;
637.8000;0.6602;2.9811;
638.1000;0.6602;2.9859;
638.4000;0.6610;2.9907;
638.7000;0.6585;2.9978;
639.0000;0.6561;3.0074;
639.3000;0.6585;3.0193;
639.6000;0.6569;3.0193;
639.9000;0.6561;3.0074;
640.2000;0.6536;3.0002;
640.5000;0.6536;3.0002;
640.8000;0.6545;3.0122;
641.1000;0.6536;3.0122;
641.4000;0.6520;3.0098;
641.7000;0.6504;3.0074;
642.0000;0.6512;3.0050;
642.3000;0.6496;3.0050;
642.6000;0.6553;3.0265;
642.9000;0.6496;3.0074;
643.2000;0.6520;3.0193;
643.5000;0.6455;3.0145;
643.8000;0.6471;3.0217;
644.1000;0.6528;3.0360;
644.4000;0.6382;2.9978;
644.7000;0.6455;3.0193;
645.0000;0.6431;3.0241;
645.3000;0.6406;3.0336;
645.6000;0.6422;3.0360;
645.9000;0.6496;3.0599;
646.2000;0.6439;3.0527;
646.5000;0.6406;3.0336;
646.8000;0.6398;3.0217;
647.1000;0.6406;3.0145;
647.4000;0.6374;3.0074;
647.7000;0.6390;3.0002;
648.0000;0.6390;2.9907;
648.3000;0.6365;2.9811;
648.6000;0.6374;2.9931;
648.9000;0.6357;2.9931;
649.2000;0.6357;3.0002;
649.5000;0.6357;3.0050;
649.8000;0.6349;3.0074;
650.1000;0.6357;2.9978;
650.4000;0.6309;2.9907;
650.7000;0.6374;3.0002;
651.0000;0.6357;2.9978;
651.3000;0.6333;3.0026;
651.6000;0.6276;2.9883;
651.9000;0.6292;2.9883;
652.2000;0.6309;2.9978;
652.5000;0.6292;2.9955;
652.8000;0.6325;2.9978;
653.1000;0.6268;2.9883;
653.4000;0.6268;2.9859;
653.7000;0.6186;2.9668;
654.0000;0.6341;3.0026;
654.3000;0.6276;2.9955;
654.6000;0.6260;2.9883;
654.9000;0.6300;2.9978;
655.2000;0.6252;2.9907;
655.5000;0.6219;2.9978;
655.8000;0.6235;2.9978;
656.1000;0.6300;3.0193;
656.4000;0.6284;3.0217;
656.7000;0.6235;3.0122;
657.0000;0.6219;3.0145;
657.3000;0.6235;3.0122;
657.6000;0.6227;3.0050;
657.9000;0.6186;3.0026;
658.2000;0.6219;3.0122;
658.5000;0.6211;3.0122;
658.8000;0.6186;3.0074;
659.1000;0.6178;3.0002;
659.4000;0.6195;3.0074;
659.7000;0.6211;3.0169;
660.0000;0.6186;3.0122;
660.3000;0.6162;3.0122;
660.6000;0.6162;3.0169;
660.9000;0.6162;3.0074;
661.2000;0.6227;3.0289;
661.5000;0.6170;3.0217;
661.8000;0.6170;3.0145;
662.1000;0.6162;3.0193;
662.4000;0.6211;3.0384;
662.7000;0.6154;3.0265;
663.0000;0.6154;3.0241;
663.3000;0.6129;3.0217;
663.6000;0.6154;3.0193;
663.9000;0.6146;3.0193;
664.2000;0.6162;3.0289;
664.5000;0.6146;3.0193;
664.8000;0.6129;3.0193;
665.1000;0.6146;3.0217;
665.4000;0.6113;3.0122;
665.7000;0.6121;3.0050;
666.0000;0.6113;2.9955;
666.3000;0.6121;3.0002;
666.6000;0.6097;2.9978;
666.9000;0.6138;3.0145;
667.2000;0.6105;3.0074;
667.5000;0.6129;3.0193;
667.8000;0.6113;3.0193;
668.1000;0.6072;3.0193;
668.4000;0.6048;3.0145;
668.7000;0.6097;3.0313;
669.0000;0.6056;3.0289;
669.3000;0.6089;3.0289;
669.6000;0.6072;3.0193;
669.9000;0.6040;3.0145;
670.2000;0.6081;3.0336;
670.5000;0.6064;3.0336;
670.8000;0.6056;3.0313;
671.1000;0.6048;3.0265;
671.4000;0.6048;3.0193;
671.7000;0.6048;3.0193;
672.0000;0.6048;3.0217;
672.3000;0.6056;3.0169;
672.6000;0.6040;3.0241;
672.9000;0.5999;3.0122;
673.2000;0.5991;3.0050;
673.5000;0.6048;3.0241;
673.8000;0.6032;3.0217;
674.1000;0.6040;3.0265;
674.4000;0.6064;3.0289;
674.7000;0.6015;3.0217;
675.0000;0.5999;3.0169;
675.3000;0.6024;3.0289;
675.6000;0.5999;3.0265;
675.9000;0.5999;3.0241;
676.2000;0.5950;3.0145;
676.5000;0.6007;3.0265;
676.8000;0.5991;3.0289;
677.1000;0.5991;3.0313;
677.4000;0.6048;3.0360;
677.7000;0.6032;3.0384;
678.0000;0.5991;3.0313;
678.3000;0.5950;3.0169;
678.6000;0.5983;3.0241;
678.9000;0.5983;3.0313;
679.2000;0.5983;3.0289;
679.5000;0.5991;3.0313;
679.8000;0.5958;3.0241;
680.1000;0.5967;3.0169;
680.4000;0.5991;3.0169;
680.7000;0.5991;3.0145;
681.0000;0.5958;3.0122;
681.3000;0.5967;3.0145;
681.6000;0.5983;3.0241;
681.9000;0.5958;3.0217;
682.2000;0.5942;3.0145;
682.5000;0.5975;3.0193;
682.8000;0.5975;3.0193;
683.1000;0.5958;3.0122;
683.4000;0.5967;3.0098;
683.7000;0.5958;3.0169;
684.0000;0.5942;3.0122;
684.3000;0.5967;3.0074;
684.6000;0.5934;3.0002;
684.9000;0.5934;3.0098;
685.2000;0.5942;3.0098;
685.5000;0.5926;3.0145;
685.8000;0.5934;3.0122;
686.1000;0.5926;3.0026;
686.4000;0.5942;3.0050;
686.7000;0.5942;3.0026;
687.0000;0.5934;2.9978;
687.3000;0.5942;2.9931;
687.6000;0.5918;2.9955;
687.9000;0.5934;2.9955;
688.2000;0.5934;3.0002;
688.5000;0.5910;2.9955;
688.8000;0.5910;2.9955;
689.1000;0.5910;3.0050;
689.4000;0.5910;3.0050;
689.7000;0.5926;3.0169;
690.0000;0.5902;3.0098;
690.3000;0.5902;3.0169;
690.6000;0.5910;3.0265;
690.9000;0.5926;3.0384;
691.2000;0.5902;3.0313;
691.5000;0.5877;3.0265;
691.8000;0.5877;3.0241;
692.1000;0.5861;3.0217;
692.4000;0.5893;3.0265;
692.7000;0.5845;3.0098;
693.0000;0.5877;3.0241;
693.3000;0.5910;3.0217;
693.6000;0.5877;3.0145;
693.9000;0.5853;3.0026;
694.2000;0.5877;3.0122;
694.5000;0.5893;3.0122;
694.8000;0.5869;3.0074;
695.1000;0.5861;3.0074;
695.4000;0.5877;3.0217;
695.7000;0.5877;3.0265;
696.0000;0.5861;3.0313;
696.3000;0.5845;3.0265;
696.6000;0.5877;3.0265;
696.9000;0.5853;3.0265;
697.2000;0.5828;3.0217;
697.5000;0.5836;3.0193;
697.8000;0.5853;3.0169;
698.1000;0.5861;3.0169;
698.4000;0.5861;3.0122;
698.7000;0.5877;3.0217;
699.0000;0.5877;3.0289;
699.3000;0.5853;3.0193;
699.6000;0.5902;3.0336;
699.9000;0.5853;3.0217;
700.2000;0.5845;3.0145;
700.5000;0.5869;3.0241;
700.8000;0.5836;3.0289;
701.1000;0.5820;3.0241;
701.4000;0.5861;3.0360;
701.7000;0.5836;3.0313;
702.0000;0.5796;3.0169;
702.3000;0.5836;3.0217;
702.6000;0.5836;3.0169;
702.9000;0.5902;3.0360;
703.2000;0.5804;3.0145;
703.5000;0.5812;3.0122;
703.8000;0.5812;3.0074;
704.1000;0.5828;3.0145;
704.4000;0.5828;3.0098;
704.7000;0.5836;3.0122;
705.0000;0.5820;3.0193;
705.3000;0.5812;3.0289;
705.6000;0.5804;3.0336;
705.9000;0.5812;3.0384;
706.2000;0.5763;3.0360;
706.5000;0.5788;3.0360;
706.8000;0.5812;3.0313;
707.1000;0.5804;3.0193;
707.4000;0.5804;3.0241;
707.7000;0.5796;3.0241;
708.0000;0.5779;3.0169;
708.3000;0.5869;3.0360;
708.6000;0.5788;3.0193;
708.9000;0.5812;3.0265;
709.2000;0.5828;3.0289;
709.5000;0.5804;3.0217;
709.8000;0.5836;3.0265;
710.1000;0.5788;3.0241;
710.4000;0.5788;3.0217;
710.7000;0.5804;3.0336;
711.0000;0.5796;3.0336;
711.3000;0.5771;3.0265;
711.6000;0.5779;3.0217;
711.9000;0.5788;3.0241;
712.2000;0.5698;3.0002;
712.5000;0.5853;3.0289;
712.8000;0.5779;3.0050;
713.1000;0.5771;3.0002;
713.4000;0.5796;3.0026;
713.7000;0.5739;2.9978;
714.0000;0.5755;2.9978;
714.3000;0.5779;3.0050;
714.6000;0.5714;3.0002;
714.9000;0.5739;3.0074;
715.2000;0.5739;3.0026;
715.5000;0.5779;3.0050;
715.8000;0.5755;3.0074;
716.1000;0.5706;2.9955;
716.4000;0.5763;3.0169;
716.7000;0.5755;3.0169;
717.0000;0.5739;3.0145;
717.3000;0.5771;3.0193;
717.6000;0.5763;3.0193;
717.9000;0.5771;3.0169;
718.2000;0.5665;2.9883;
718.5000;0.5763;3.0122;
718.8000;0.5739;3.0050;
719.1000;0.5722;3.0050;
719.4000;0.5755;3.0074;
719.7000;0.5731;2.9978;
720.0000;0.5755;3.0026;
720.3000;0.5731;3.0002;
720.6000;0.5731;3.0074;
720.9000;0.5739;3.0098;
721.2000;0.5763;3.0098;
721.5000;0.5731;3.0026;
721.8000;0.5739;3.0074;
722.1000;0.5722;3.0026;
722.4000;0.5731;3.0098;
722.7000;0.5739;3.0098;
723.0000;0.5739;3.0002;
723.3000;0.5739;3.0074;
723.6000;0.5731;3.0050;
723.9000;0.5739;3.0026;
724.2000;0.5722;3.0026;
724.5000;0.5779;3.0050;
724.8000;0.5739;2.9907;
725.1000;0.5674;2.9787;
725.4000;0.5731;2.9907;
725.7000;0.5747;2.9907;
726.0000;0.5739;2.9955;
726.3000;0.5731;2.9978;
726.6000;0.5739;3.0026;
726.9000;0.5755;3.0217;
727.2000;0.5714;3.0169;
727.5000;0.5739;3.0217;
727.8000;0.5722;3.0169;
728.1000;0.5698;3.0145;
728.4000;0.5731;3.0217;
728.7000;0.5690;3.0193;
729.0000;0.5698;3.0289;
729.3000;0.5698;3.0384;
729.6000;0.5714;3.0408;
729.9000;0.5690;3.0360;
730.2000;0.5674;3.0384;
730.5000;0.5682;3.0456;
730.8000;0.5690;3.0503;
731.1000;0.5698;3.0480;
731.4000;0.5722;3.0527;
731.7000;0.5698;3.0384;
732.0000;0.5698;3.0384;
732.3000;0.5698;3.0408;
732.6000;0.5714;3.0408;
732.9000;0.5722;3.0384;
733.2000;0.5698;3.0241;
733.5000;0.5698;3.0265;
733.8000;0.5722;3.0313;
734.1000;0.5698;3.0313;
734.4000;0.5698;3.0360;
734.7000;0.5706;3.0384;
735.0000;0.5690;3.0408;
735.3000;0.5739;3.0503;
735.6000;0.5698;3.0384;
735.9000;0.5674;3.0360;
736.2000;0.5706;3.0480;
736.5000;0.5690;3.0408;
736.8000;0.5682;3.0456;
737.1000;0.5682;3.0408;
737.4000;0.5698;3.0384;
737.7000;0.5682;3.0289;
738.0000;0.5665;3.0313;
738.3000;0.5649;3.0265;
738.6000;0.5698;3.0432;
738.9000;0.5625;3.0241;
739.2000;0.5682;3.0408;
739.5000;0.5682;3.0384;
739.8000;0.5600;3.0098;
740.1000;0.5682;3.0336;
740.4000;0.5674;3.0336;
740.7000;0.5625;3.0241;
741.0000;0.5665;3.0360;
741.3000;0.5755;3.0527;
741.6000;0.5682;3.0384;
741.9000;0.5641;3.0241;
742.2000;0.5674;3.0384;
742.5000;0.5665;3.0408;
742.8000;0.5674;3.0432;
743.1000;0.5674;3.0384;
743.4000;0.5674;3.0384;
743.7000;0.5674;3.0408;
744.0000;0.5674;3.0289;
744.3000;0.5690;3.0217;
744.6000;0.5584;2.9859;
744.9000;0.5649;3.0050;
745.2000;0.5682;3.0074;
745.5000;0.5665;3.0026;
745.8000;0.5674;3.0122;
746.1000;0.5674;3.0169;
746.4000;0.5649;3.0122;
746.7000;0.5665;3.0122;
747.0000;0.5674;3.0074;
747.3000;0.5674;3.0002;
747.6000;0.5665;2.9907;
747.9000;0.5657;2.9883;
748.2000;0.5657;2.9931;
748.5000;0.5657;2.9978;
748.8000;0.5682;3.0002;
749.1000;0.5674;2.9978;
749.4000;0.5641;2.9978;
749.7000;0.5657;3.0074;
750.0000;0.5674;3.0169;
750.3000;0.5649;3.0098;
750.6000;0.5641;3.0050;
750.9000;0.5649;3.0026;
751.2000;0.5641;3.0050;
751.5000;0.5641;3.0002;
751.8000;0.5641;3.0026;
752.1000;0.5625;2.9931;
752.4000;0.5641;3.0074;
752.7000;0.5633;3.0026;
753.0000;0.5633;3.0074;
753.3000;0.5665;3.0122;
753.6000;0.5633;3.0098;
753.9000;0.5641;3.0074;
754.2000;0.5649;3.0050;
754.5000;0.5641;3.0002;
754.8000;0.5641;3.0026;
755.1000;0.5633;2.9978;
755.4000;0.5649;3.0026;
755.7000;0.5625;3.0026;
756.0000;0.5600;2.9955;
756.3000;0.5641;3.0098;
756.6000;0.5657;3.0169;
756.9000;0.5665;3.0193;
757.2000;0.5649;3.0169;
757.5000;0.5657;3.0265;
757.8000;0.5649;3.0289;
758.1000;0.5625;3.0241;
758.4000;0.5649;3.0289;
758.7000;0.5641;3.0289;
759.0000;0.5633;3.0313;
759.3000;0.5641;3.0289;
759.6000;0.5657;3.0313;
759.9000;0.5641;3.0241;
760.2000;0.5625;3.0193;
760.5000;0.5625;3.0193;
760.8000;0.5617;3.0145;
761.1000;0.5617;3.0122;
761.4000;0.5633;3.0169;
761.7000;0.5617;3.0145;
762.0000;0.5568;3.0193;
762.3000;0.5560;3.0241;
762.6000;0.5617;3.0408;
762.9000;0.5674;3.0503;
763.2000;0.5633;3.0408;
763.5000;0.5608;3.0313;
763.8000;0.5682;3.0575;
764.1000;0.5641;3.0503;
764.4000;0.5625;3.0527;
764.7000;0.5649;3.0599;
765.0000;0.5608;3.0432;
765.3000;0.5608;3.0432;
765.6000;0.5617;3.0384;
765.9000;0.5551;3.0169;
766.2000;0.5608;3.0241;
766.5000;0.5600;3.0169;
766.8000;0.5633;3.0193;
767.1000;0.5600;3.0098;
767.4000;0.5625;3.0050;
767.7000;0.5617;3.0074;
768.0000;0.5625;3.0026;
768.3000;0.5617;3.0050;
768.6000;0.5617;3.0074;
768.9000;0.5600;2.9955;
769.2000;0.5600;2.9978;
769.5000;0.5617;3.0050;
769.8000;0.5617;3.0145;
770.1000;0.5608;3.0193;
770.4000;0.5641;3.0241;
770.7000;0.5625;3.0169;
771.0000;0.5600;3.0145;
771.3000;0.5600;3.0241;
771.6000;0.5600;3.0289;
771.9000;0.5617;3.0360;
772.2000;0.5608;3.0336;
772.5000;0.5600;3.0265;
772.8000;0.5608;3.0289;
773.1000;0.5608;3.0289;
773.4000;0.5625;3.0313;
773.7000;0.5608;3.0241;
774.0000;0.5600;3.0169;
774.3000;0.5576;3.0074;
774.6000;0.5576;3.0098;
774.9000;0.5625;3.0265;
775.2000;0.5592;3.0241;
775.5000;0.5592;3.0265;
775.8000;0.5608;3.0313;
776.1000;0.5608;3.0360;
776.4000;0.5600;3.0289;
776.7000;0.5608;3.0360;
777.0000;0.5608;3.0313;
777.3000;0.5576;3.0265;
777.6000;0.5600;3.0313;
777.9000;0.5608;3.0289;
778.2000;0.5649;3.0503;
778.5000;0.5617;3.0480;
778.8000;0.5600;3.0432;
779.1000;0.5551;3.0289;
779.4000;0.5665;3.0527;
779.7000;0.5600;3.0480;
780.0000;0.5576;3.0456;
780.3000;0.5592;3.0480;
780.6000;0.5592;3.0456;
780.9000;0.5608;3.0527;
781.2000;0.5584;3.0503;
781.5000;0.5608;3.0527;
781.8000;0.5584;3.0408;
782.1000;0.5600;3.0408;
782.4000;0.5657;3.0623;
782.7000;0.5608;3.0456;
783.0000;0.5600;3.0408;
783.3000;0.5600;3.0432;
783.6000;0.5592;3.0432;
783.9000;0.5568;3.0408;
784.2000;0.5608;3.0503;
784.5000;0.5608;3.0503;
784.8000;0.5576;3.0384;
785.1000;0.5576;3.0289;
785.4000;0.5543;3.0265;
785.7000;0.5560;3.0217;
786.0000;0.5576;3.0217;
786.3000;0.5592;3.0241;
786.6000;0.5576;3.0193;
786.9000;0.5560;3.0289;
787.2000;0.5584;3.0289;
787.5000;0.5576;3.0289;
787.8000;0.5543;3.0193;
788.1000;0.5600;3.0289;
788.4000;0.5600;3.0122;
788.7000;0.5576;2.9931;
789.0000;0.5568;2.9955;
789.3000;0.5584;3.0122;
789.6000;0.5592;3.0098;
789.9000;0.5568;2.9931;
790.2000;0.5576;3.0098;
790.5000;0.5568;3.0145;
790.8000;0.5568;3.0169;
791.1000;0.5576;3.0217;
791.4000;0.5576;3.0241;
791.7000;0.5608;3.0241;
792.0000;0.5568;3.0169;
792.3000;0.5584;3.0217;
792.6000;0.5584;3.0145;
792.9000;0.5584;3.0217;
793.2000;0.5576;3.0265;
793.5000;0.5584;3.0217;
793.8000;0.5568;3.0241;
794.1000;0.5568;3.0265;
794.4000;0.5592;3.0265;
794.7000;0.5592;3.0384;
795.0000;0.5584;3.0289;
795.3000;0.5576;3.0289;
795.6000;0.5568;3.0408;
795.9000;0.5600;3.0456;
796.2000;0.5592;3.0456;
796.5000;0.5568;3.0289;
796.8000;0.5576;3.0145;
797.1000;0.5568;3.0098;
797.4000;0.5576;3.0074;
797.7000;0.5551;3.0098;
798.0000;0.5568;3.0074;
798.3000;0.5576;3.0145;
798.6000;0.5592;3.0169;
798.9000;0.5584;3.0122;
799.2000;0.5568;3.0169;
799.5000;0.5576;3.0217;
799.8000;0.5568;3.0193;
800.1000;0.5560;3.0313;
800.4000;0.5560;3.0265;
800.7000;0.5551;3.0265;
801.0000;0.5568;3.0289;
801.3000;0.5511;3.0145;
801.6000;0.5551;3.0265;
801.9000;0.5568;3.0408;
802.2000;0.5560;3.0408;
802.5000;0.5568;3.0456;
802.8000;0.5551;3.0408;
803.1000;0.5568;3.0408;
803.4000;0.5568;3.0336;
803.7000;0.5568;3.0360;
804.0000;0.5568;3.0265;
804.3000;0.5560;3.0145;
804.6000;0.5535;3.0145;
804.9000;0.5568;3.0193;
805.2000;0.5560;3.0098;
805.5000;0.5568;3.0026;
805.8000;0.5560;3.0050;
806.1000;0.5560;3.0145;
806.4000;0.5560;3.0241;
806.7000;0.5576;3.0289;
807.0000;0.5576;3.0336;
807.3000;0.5535;3.0289;
807.6000;0.5576;3.0503;
807.9000;0.5551;3.0456;
808.2000;0.5535;3.0456;
808.5000;0.5608;3.0480;
808.8000;0.5527;3.0313;
809.1000;0.5560;3.0408;
809.4000;0.5527;3.0336;
809.7000;0.5519;3.0360;
810.0000;0.5527;3.0336;
810.3000;0.5560;3.0313;
810.6000;0.5551;3.0265;
810.9000;0.5543;3.0336;
811.2000;0.5551;3.0432;
811.5000;0.5551;3.0360;
811.8000;0.5535;3.0313;
812.1000;0.5560;3.0336;
812.4000;0.5576;3.0289;
812.7000;0.5576;3.0217;
813.0000;0.5551;3.0074;
813.3000;0.5551;3.0074;
813.6000;0.5535;3.0050;
813.9000;0.5560;3.0169;
814.2000;0.5633;3.0313;
814.5000;0.5560;3.0241;
814.8000;0.5600;3.0289;
815.1000;0.5633;3.0360;
815.4000;0.5535;3.0074;
815.7000;0.5503;2.9907;
816.0000;0.5568;3.0050;
816.3000;0.5535;3.0026;
816.6000;0.5576;3.0241;
816.9000;0.5543;3.0169;
817.2000;0.5535;3.0145;
817.5000;0.5551;3.0241;
817.8000;0.5560;3.0265;
818.1000;0.5560;3.0217;
818.4000;0.5560;3.0265;
818.7000;0.5551;3.0313;
819.0000;0.5511;3.0241;
819.3000;0.5551;3.0336;
819.6000;0.5592;3.0384;
819.9000;0.5511;3.0193;
820.2000;0.5560;3.0336;
820.5000;0.5584;3.0289;
820.8000;0.5568;3.0241;
821.1000;0.5551;3.0193;
821.4000;0.5535;3.0169;
821.7000;0.5560;3.0193;
822.0000;0.5527;3.0145;
822.3000;0.5527;3.0122;
822.6000;0.5560;3.0217;
822.9000;0.5551;3.0217;
823.2000;0.5560;3.0217;
823.5000;0.5478;3.0002;
823.8000;0.5535;3.0217;
824.1000;0.5535;3.0265;
824.4000;0.5519;3.0289;
824.7000;0.5543;3.0360;
825.0000;0.5535;3.0384;
825.3000;0.5543;3.0384;
825.6000;0.5543;3.0313;
825.9000;0.5519;3.0360;
826.2000;0.5519;3.0289;
826.5000;0.5535;3.0360;
826.8000;0.5527;3.0408;
827.1000;0.5511;3.0408;
827.4000;0.5543;3.0575;
827.7000;0.5543;3.0599;
828.0000;0.5535;3.0503;
828.3000;0.5543;3.0527;
828.6000;0.5543;3.0480;
828.9000;0.5527;3.0432;
829.2000;0.5543;3.0384;
829.5000;0.5535;3.0336;
829.8000;0.5535;3.0289;
830.1000;0.5535;3.0313;
830.4000;0.5584;3.0360;
830.7000;0.5535;3.0145;
831.0000;0.5535;3.0241;
831.3000;0.5543;3.0313;
831.6000;0.5495;3.0265;
831.9000;0.5535;3.0384;
832.2000;0.5551;3.0503;
832.5000;0.5470;3.0313;
832.8000;0.5519;3.0503;
833.1000;0.5543;3.0647;
833.4000;0.5535;3.0599;
833.7000;0.5543;3.0599;
834.0000;0.5503;3.0432;
834.3000;0.5543;3.0456;
834.6000;0.5527;3.0384;
834.9000;0.5535;3.0265;
835.2000;0.5486;3.0145;
835.5000;0.5519;3.0193;
835.8000;0.5503;3.0145;
836.1000;0.5470;3.0050;
836.4000;0.5527;3.0193;
836.7000;0.5560;3.0241;
837.0000;0.5535;3.0169;
837.3000;0.5535;3.0289;
837.6000;0.5584;3.0408;
837.9000;0.5560;3.0360;
838.2000;0.5551;3.0336;
838.5000;0.5543;3.0289;
838.8000;0.5527;3.0289;
839.1000;0.5527;3.0265;
839.4000;0.5519;3.0241;
839.7000;0.5478;3.0098;
840.0000;0.5503;3.0193;
840.3000;0.5543;3.0265;
840.6000;0.5543;3.0169;
840.9000;0.5519;3.0122;
841.2000;0.5560;3.0217;
841.5000;0.5535;3.0217;
841.8000;0.5535;3.0241;
842.1000;0.5511;3.0169;
842.4000;0.5527;3.0241;
842.7000;0.5527;3.0289;
843.0000;0.5535;3.0432;
843.3000;0.5551;3.0527;
843.6000;0.5560;3.0527;
843.9000;0.5495;3.0384;
844.2000;0.5535;3.0480;
844.5000;0.5592;3.0551;
844.8000;0.5511;3.0360;
845.1000;0.5511;3.0241;
845.4000;0.5527;3.0241;
845.7000;0.5470;3.0145;
846.0000;0.5535;3.0265;
846.3000;0.5527;3.0217;
846.6000;0.5519;3.0145;
846.9000;0.5535;3.0050;
847.2000;0.5503;2.9931;
847.5000;0.5511;2.9931;
847.8000;0.5519;2.9955;
848.1000;0.5511;3.0050;
848.4000;0.5527;3.0074;
848.7000;0.5503;3.0026;
849.0000;0.5503;2.9931;
849.3000;0.5462;2.9931;
849.6000;0.5535;3.0098;
849.9000;0.5519;3.0050;
850.2000;0.5511;3.0098;
850.5000;0.5527;3.0169;
850.8000;0.5527;3.0193;
851.1000;0.5535;3.0145;
851.4000;0.5511;3.0145;
851.7000;0.5543;3.0241;
852.0000;0.5551;3.0169;
852.3000;0.5470;3.0026;
852.6000;0.5511;3.0122;
852.9000;0.5535;3.0169;
853.2000;0.5519;3.0217;
853.5000;0.5503;3.0217;
853.8000;0.5519;3.0289;
854.1000;0.5535;3.0289;
854.4000;0.5535;3.0336;
854.7000;0.5503;3.0313;
855.0000;0.5503;3.0289;
855.3000;0.5454;3.0169;
855.6000;0.5495;3.0217;
855.9000;0.5535;3.0336;
856.2000;0.5511;3.0265;
856.5000;0.5495;3.0289;
856.8000;0.5511;3.0265;
857.1000;0.5511;3.0241;
857.4000;0.5519;3.0265;
857.7000;0.5527;3.0336;
858.0000;0.5511;3.0241;
858.3000;0.5551;3.0313;
858.6000;0.5495;3.0169;
858.9000;0.5527;3.0289;
859.2000;0.5519;3.0241;
859.5000;0.5503;3.0336;
859.8000;0.5519;3.0360;
860.1000;0.5519;3.0432;
860.4000;0.5519;3.0456;
860.7000;0.5511;3.0432;
861.0000;0.5511;3.0384;
861.3000;0.5495;3.0336;
861.6000;0.5495;3.0336;
861.9000;0.5495;3.0289;
862.2000;0.5454;3.0074;
862.5000;0.5478;3.0002;
862.8000;0.5478;3.0050;
863.1000;0.5519;3.0241;
863.4000;0.5511;3.0265;
863.7000;0.5511;3.0265;
864.0000;0.5462;3.0122;
864.3000;0.5584;3.0456;
864.6000;0.5519;3.0360;
864.9000;0.5511;3.0360;
865.2000;0.5519;3.0313;
865.5000;0.5511;3.0265;
865.8000;0.5503;3.0169;
866.1000;0.5535;3.0217;
866.4000;0.5470;3.0074;
866.7000;0.5511;3.0145;
867.0000;0.5495;3.0145;
867.3000;0.5511;3.0193;
867.6000;0.5503;3.0098;
867.9000;0.5454;2.9955;
868.2000;0.5478;2.9883;
868.5000;0.5519;3.0050;
868.8000;0.5486;3.0050;
869.1000;0.5495;3.0074;
869.4000;0.5511;3.0074;
869.7000;0.5527;3.0145;
870.0000;0.5535;3.0241;
870.3000;0.5503;3.0145;
870.6000;0.5495;3.0169;
870.9000;0.5470;3.0098;
871.2000;0.5495;3.0074;
871.5000;0.5495;3.0074;
871.8000;0.5503;3.0145;
872.1000;0.5486;3.0098;
872.4000;0.5511;3.0193;
872.7000;0.5495;3.0122;
873.0000;0.5446;2.9978;
873.3000;0.5486;3.0145;
873.6000;0.5495;3.0145;
873.9000;0.5503;3.0193;
874.2000;0.5486;3.0193;
874.5000;0.5511;3.0217;
874.8000;0.5486;3.0193;
875.1000;0.5495;3.0122;
875.4000;0.5495;3.0122;
875.7000;0.5486;3.0098;
876.0000;0.5495;3.0098;
876.3000;0.5503;3.0169;
876.6000;0.5470;3.0145;
876.9000;0.5495;3.0193;
877.2000;0.5495;3.0169;
877.5000;0.5478;3.0169;
877.8000;0.5495;3.0217;
878.1000;0.5486;3.0241;
878.4000;0.5495;3.0217;
878.7000;0.5486;3.0145;
879.0000;0.5486;3.0098;
879.3000;0.5478;3.0145;
879.6000;0.5495;3.0217;
879.9000;0.5511;3.0169;
880.2000;0.5462;2.9978;
880.5000;0.5462;2.9978;
880.8000;0.5495;3.0145;
881.1000;0.5503;3.0169;
881.4000;0.5486;3.0169;
881.7000;0.5486;3.0241;
882.0000;0.5470;3.0217;
882.3000;0.5495;3.0313;
882.6000;0.5495;3.0360;
882.9000;0.5478;3.0336;
883.2000;0.5486;3.0360;
883.5000;0.5503;3.0313;
883.8000;0.5511;3.0265;
884.1000;0.5486;3.0241;
884.4000;0.5503;3.0360;
884.7000;0.5495;3.0432;
885.0000;0.5519;3.0408;
885.3000;0.5503;3.0432;
885.6000;0.5495;3.0432;
885.9000;0.5421;3.0217;
886.2000;0.5495;3.0336;
886.5000;0.5478;3.0336;
886.8000;0.5486;3.0384;
887.1000;0.5511;3.0480;
887.4000;0.5511;3.0503;
887.7000;0.5495;3.0432;
888.0000;0.5495;3.0360;
888.3000;0.5486;3.0336;
888.6000;0.5462;3.0360;
888.9000;0.5486;3.0527;
889.2000;0.5568;3.0671;
889.5000;0.5470;3.0551;
889.8000;0.5486;3.0432;
890.1000;0.5511;3.0456;
890.4000;0.5454;3.0408;
890.7000;0.5478;3.0384;
891.0000;0.5495;3.0384;
891.3000;0.5462;3.0265;
891.6000;0.5486;3.0384;
891.9000;0.5454;3.0336;
892.2000;0.5495;3.0456;
892.5000;0.5381;3.0122;
892.8000;0.5495;3.0432;
893.1000;0.5486;3.0527;
893.4000;0.5495;3.0623;
893.7000;0.5495;3.0599;
894.0000;0.5503;3.0623;
894.3000;0.5503;3.0623;
894.6000;0.5478;3.0575;
894.9000;0.5495;3.0623;
895.2000;0.5519;3.0599;
895.5000;0.5503;3.0503;
895.8000;0.5584;3.0694;
896.1000;0.5462;3.0456;
896.4000;0.5470;3.0480;
896.7000;0.5478;3.0456;
897.0000;0.5495;3.0480;
897.3000;0.5478;3.0527;
897.6000;0.5478;3.0432;
897.9000;0.5503;3.0527;
898.2000;0.5478;3.0527;
898.5000;0.5503;3.0575;
898.8000;0.5495;3.0671;
899.1000;0.5486;3.0671;
899.4000;0.5495;3.0575;
899.7000;0.5560;3.0718;
900.0000;0.5389;3.0217;
900.3000;0.5495;3.0456;
900.6000;0.5535;3.0575;
900.9000;0.5438;3.0313;
901.2000;0.5495;3.0360;
901.5000;0.5511;3.0408;
901.8000;0.5454;3.0241;
902.1000;0.5478;3.0217;
902.4000;0.5478;3.0384;
902.7000;0.5568;3.0718;
903.0000;0.5397;3.0289;
903.3000;0.5486;3.0408;
903.6000;0.5478;3.0408;
903.9000;0.5495;3.0384;
904.2000;0.5495;3.0408;
904.5000;0.5495;3.0408;
904.8000;0.5478;3.0336;
905.1000;0.5503;3.0336;
905.4000;0.5421;3.0145;
905.7000;0.5462;3.0241;
906.0000;0.5486;3.0313;
906.3000;0.5486;3.0241;
906.6000;0.5454;3.0145;
906.9000;0.5495;3.0289;
907.2000;0.5503;3.0289;
907.5000;0.5478;3.0241;
907.8000;0.5495;3.0169;
908.1000;0.5454;3.0074;
908.4000;0.5462;3.0145;
908.7000;0.5462;3.0122;
909.0000;0.5495;3.0265;
909.3000;0.5486;3.0265;
909.6000;0.5495;3.0432;
909.9000;0.5478;3.0480;
910.2000;0.5478;3.0551;
910.5000;0.5495;3.0503;
910.8000;0.5486;3.0480;
911.1000;0.5478;3.0503;
911.4000;0.5486;3.0575;
911.7000;0.5495;3.0360;
912.0000;0.5470;3.0336;
912.3000;0.5454;3.0313;
912.6000;0.5470;3.0241;
912.9000;0.5470;3.0193;
913.2000;0.5495;3.0145;
913.5000;0.5478;3.0169;
913.8000;0.5486;3.0145;
914.1000;0.5470;3.0026;
914.4000;0.5486;3.0050;
914.7000;0.5486;3.0074;
915.0000;0.5503;3.0193;
915.3000;0.5486;3.0145;
915.6000;0.5503;3.0145;
915.9000;0.5470;3.0169;
916.2000;0.5495;3.0193;
916.5000;0.5446;3.0098;
916.8000;0.5462;3.0145;
917.1000;0.5478;3.0241;
917.4000;0.5470;3.0145;
917.7000;0.5470;3.0169;
918.0000;0.5486;3.0169;
918.3000;0.5478;3.0098;
918.6000;0.5495;3.0241;
918.9000;0.5478;3.0241;
919.2000;0.5486;3.0217;
919.5000;0.5486;3.0313;
919.8000;0.5478;3.0360;
920.1000;0.5470;3.0289;
920.4000;0.5478;3.0336;
920.7000;0.5478;3.0360;
921.0000;0.5462;3.0217;
921.3000;0.5470;3.0145;
921.6000;0.5478;3.0169;
921.9000;0.5478;3.0193;
922.2000;0.5462;3.0122;
922.5000;0.5454;3.0145;
922.8000;0.5454;3.0169;
923.1000;0.5543;3.0408;
923.4000;0.5438;3.0074;
923.7000;0.5486;3.0026;
924.0000;0.5519;3.0169;
924.3000;0.5462;3.0122;
924.6000;0.5486;3.0265;
924.9000;0.5462;3.0217;
925.2000;0.5421;3.0122;
925.5000;0.5462;3.0241;
925.8000;0.5478;3.0193;
926.1000;0.5470;3.0169;
926.4000;0.5470;3.0289;
926.7000;0.5462;3.0265;
927.0000;0.5535;3.0432;
927.3000;0.5478;3.0241;
927.6000;0.5478;3.0193;
927.9000;0.5462;3.0169;
928.2000;0.5478;3.0217;
928.5000;0.5486;3.0217;
928.8000;0.5503;3.0265;
929.1000;0.5519;3.0360;
929.4000;0.5478;3.0169;
929.7000;0.5535;3.0241;
930.0000;0.5462;3.0098;
930.3000;0.5470;3.0098;
930.6000;0.5495;3.0050;
930.9000;0.5470;3.0169;
931.2000;0.5503;3.0241;
931.5000;0.5438;3.0122;
931.8000;0.5486;3.0289;
932.1000;0.5470;3.0384;
932.4000;0.5462;3.0408;
932.7000;0.5470;3.0289;
933.0000;0.5462;3.0432;
933.3000;0.5454;3.0480;
933.6000;0.5462;3.0480;
933.9000;0.5486;3.0432;
934.2000;0.5470;3.0336;
934.5000;0.5486;3.0241;
934.8000;0.5454;3.0169;
935.1000;0.5429;3.0122;
935.4000;0.5470;3.0217;
935.7000;0.5478;3.0313;
936.0000;0.5486;3.0313;
936.3000;0.5462;3.0241;
936.6000;0.5486;3.0360;
936.9000;0.5470;3.0408;
937.2000;0.5470;3.0336;
937.5000;0.5478;3.0265;
937.8000;0.5470;3.0289;
938.1000;0.5454;3.0217;
938.4000;0.5454;3.0241;
938.7000;0.5478;3.0289;
939.0000;0.5454;3.0241;
939.3000;0.5470;3.0122;
939.6000;0.5454;3.0122;
939.9000;0.5470;3.0145;
940.2000;0.5470;3.0145;
940.5000;0.5446;3.0098;
940.8000;0.5462;3.0217;
941.1000;0.5454;3.0169;
941.4000;0.5446;3.0241;
941.7000;0.5462;3.0265;
942.0000;0.5446;3.0265;
942.3000;0.5478;3.0336;
942.6000;0.5470;3.0313;
942.9000;0.5405;3.0145;
943.2000;0.5454;3.0265;
943.5000;0.5470;3.0384;
943.8000;0.5454;3.0241;
944.1000;0.5470;3.0289;
944.4000;0.5462;3.0193;
944.7000;0.5462;3.0289;
945.0000;0.5486;3.0313;
945.3000;0.5478;3.0265;
945.6000;0.5470;3.0217;
945.9000;0.5462;3.0265;
946.2000;0.5470;3.0217;
946.5000;0.5454;3.0241;
946.8000;0.5495;3.0336;
947.1000;0.5454;3.0145;
947.4000;0.5478;3.0193;
947.7000;0.5446;3.0074;
948.0000;0.5486;3.0122;
948.3000;0.5454;3.0169;
948.6000;0.5429;3.0169;
948.9000;0.5478;3.0289;
949.2000;0.5462;3.0265;
949.5000;0.5495;3.0432;
949.8000;0.5446;3.0313;
950.1000;0.5478;3.0289;
950.4000;0.5462;3.0289;
950.7000;0.5462;3.0217;
951.0000;0.5446;3.0050;
951.3000;0.5462;3.0050;
951.6000;0.5470;3.0074;
951.9000;0.5470;3.0122;
952.2000;0.5446;3.0122;
952.5000;0.5470;3.0217;
952.8000;0.5454;3.0193;
953.1000;0.5470;3.0145;
953.4000;0.5470;3.0122;
953.7000;0.5470;3.0074;
954.0000;0.5470;3.0074;
954.3000;0.5478;3.0122;
954.6000;0.5462;3.0122;
954.9000;0.5478;3.0217;
955.2000;0.5462;3.0241;
955.5000;0.5470;3.0336;
955.8000;0.5446;3.0313;
956.1000;0.5438;3.0241;
956.4000;0.5470;3.0313;
956.7000;0.5462;3.0289;
957.0000;0.5446;3.0241;
957.3000;0.5454;3.0265;
957.6000;0.5438;3.0313;
957.9000;0.5438;3.0241;
958.2000;0.5478;3.0289;
958.5000;0.5462;3.0289;
958.8000;0.5462;3.0408;
959.1000;0.5470;3.0503;
959.4000;0.5454;3.0432;
959.7000;0.5446;3.0456;
960.0000;0.5470;3.0527;
960.3000;0.5470;3.0456;
960.6000;0.5470;3.0408;
960.9000;0.5462;3.0408;
961.2000;0.5470;3.0384;
961.5000;0.5470;3.0408;
961.8000;0.5462;3.0384;
962.1000;0.5454;3.0336;
962.4000;0.5446;3.0313;
962.7000;0.5462;3.0408;
963.0000;0.5454;3.0313;
963.3000;0.5511;3.0503;
963.6000;0.5462;3.0456;
963.9000;0.5470;3.0456;
964.2000;0.5389;3.0289;
964.5000;0.5454;3.0503;
964.8000;0.5454;3.0432;
965.1000;0.5470;3.0408;
965.4000;0.5454;3.0384;
965.7000;0.5454;3.0336;
966.0000;0.5454;3.0313;
966.3000;0.5478;3.0456;
966.6000;0.5486;3.0551;
966.9000;0.5462;3.0480;
967.2000;0.5446;3.0456;
967.5000;0.5462;3.0432;
967.8000;0.5470;3.0480;
968.1000;0.5462;3.0408;
968.4000;0.5486;3.0456;
968.7000;0.5470;3.0289;
969.0000;0.5462;3.0313;
969.3000;0.5462;3.0265;
969.6000;0.5454;3.0217;
969.9000;0.5470;3.0289;
970.2000;0.5454;3.0265;
970.5000;0.5486;3.0313;
970.8000;0.5405;3.0193;
971.1000;0.5454;3.0336;
971.4000;0.5454;3.0384;
971.7000;0.5568;3.0623;
972.0000;0.5405;3.0217;
972.3000;0.5372;3.0122;
972.6000;0.5462;3.0313;
972.9000;0.5462;3.0360;
973.2000;0.5470;3.0503;
973.5000;0.5429;3.0408;
973.8000;0.5446;3.0408;
974.1000;0.5462;3.0480;
974.4000;0.5462;3.0551;
974.7000;0.5454;3.0575;
975.0000;0.5470;3.0599;
975.3000;0.5454;3.0575;
975.6000;0.5446;3.0599;
975.9000;0.5446;3.0599;
976.2000;0.5454;3.0527;
976.5000;0.5462;3.0480;
976.8000;0.5446;3.0456;
977.1000;0.5462;3.0480;
977.4000;0.5446;3.0336;
977.7000;0.5454;3.0360;
978.0000;0.5462;3.0456;
978.3000;0.5511;3.0551;
978.6000;0.5438;3.0432;
978.9000;0.5470;3.0527;
979.2000;0.5470;3.0527;
979.5000;0.5454;3.0503;
979.8000;0.5389;3.0217;
980.1000;0.5462;3.0384;
980.4000;0.5478;3.0336;
980.7000;0.5348;3.0050;
981.0000;0.5454;3.0289;
981.3000;0.5495;3.0384;
981.6000;0.5462;3.0408;
981.9000;0.5462;3.0456;
982.2000;0.5462;3.0432;
982.5000;0.5446;3.0408;
982.8000;0.5454;3.0360;
983.1000;0.5486;3.0408;
983.4000;0.5454;3.0336;
983.7000;0.5446;3.0456;
984.0000;0.5462;3.0480;
984.3000;0.5495;3.0480;
984.6000;0.5462;3.0551;
984.9000;0.5438;3.0503;
985.2000;0.5470;3.0623;
985.5000;0.5462;3.0575;
985.8000;0.5462;3.0503;
986.1000;0.5454;3.0408;
986.4000;0.5462;3.0480;
986.7000;0.5478;3.0599;
987.0000;0.5478;3.0551;
987.3000;0.5446;3.0384;
987.6000;0.5470;3.0432;
987.9000;0.5454;3.0527;
988.2000;0.5454;3.0527;
988.5000;0.5454;3.0503;
988.8000;0.5462;3.0551;
989.1000;0.5486;3.0503;
989.4000;0.5478;3.0527;
989.7000;0.5462;3.0384;
990.0000;0.5446;3.0408;
990.3000;0.5454;3.0456;
990.6000;0.5454;3.0456;
990.9000;0.5454;3.0551;
991.2000;0.5438;3.0456;
991.5000;0.5462;3.0456;
991.8000;0.5454;3.0432;
992.1000;0.5454;3.0360;
992.4000;0.5454;3.0336;
992.7000;0.5454;3.0360;
993.0000;0.5446;3.0432;
993.3000;0.5446;3.0480;
993.6000;0.5470;3.0623;
993.9000;0.5519;3.0694;
994.2000;0.5470;3.0575;
994.5000;0.5462;3.0551;
994.8000;0.5462;3.0408;
995.1000;0.5462;3.0432;
995.4000;0.5462;3.0360;
995.7000;0.5454;3.0408;
996.0000;0.5462;3.0432;
996.3000;0.5462;3.0432;
996.6000;0.5454;3.0575;
996.9000;0.5446;3.0527;
997.2000;0.5470;3.0623;
997.5000;0.5446;3.0599;
997.8000;0.5413;3.0480;
998.1000;0.5511;3.0766;
998.4000;0.5429;3.0551;
998.7000;0.5438;3.0551;
999.0000;0.5405;3.0456;
999.3000;0.5429;3.0503;
999.6000;0.5438;3.0432;
999.9000;0.5438;3.0384;
1000.2000;0.5446;3.0408;
1000.5000;0.5446;3.0384;
1000.8000;0.5421;3.0265;
1001.1000;0.5446;3.0313;
1001.4000;0.5446;3.0313;
1001.7000;0.5551;3.0527;
1002.0000;0.5486;3.0360;
1002.3000;0.5405;3.0241;
1002.6000;0.5413;3.0193;
1002.9000;0.5454;3.0289;
1003.2000;0.5348;2.9955;
1003.5000;0.5462;3.0241;
1003.8000;0.5364;3.0098;
1004.1000;0.5421;3.0193;
1004.4000;0.5462;3.0169;
1004.7000;0.5421;3.0074;
1005.0000;0.5462;3.0145;
1005.3000;0.5446;3.0145;
1005.6000;0.5446;3.0169;
1005.9000;0.5470;3.0241;
1006.2000;0.5495;3.0289;
1006.5000;0.5462;3.0217;
1006.8000;0.5446;3.0241;
1007.1000;0.5454;3.0289;
1007.4000;0.5446;3.0217;
1007.7000;0.5454;3.0217;
1008.0000;0.5462;3.0265;
1008.3000;0.5446;3.0241;
1008.6000;0.5478;3.0408;
1008.9000;0.5446;3.0408;
1009.2000;0.5421;3.0360;
1009.5000;0.5454;3.0408;
1009.8000;0.5438;3.0408;
1010.1000;0.5429;3.0360;
1010.4000;0.5372;3.0169;
1010.7000;0.5446;3.0265;
1011.0000;0.5478;3.0265;
1011.3000;0.5446;3.0193;
1011.6000;0.5478;3.0313;
1011.9000;0.5446;3.0336;
1012.2000;0.5454;3.0336;
1012.5000;0.5470;3.0360;
1012.8000;0.5454;3.0313;
1013.1000;0.5462;3.0336;
1013.4000;0.5405;3.0145;
1013.7000;0.5454;3.0408;
1014.0000;0.5421;3.0360;
1014.3000;0.5454;3.0456;
1014.6000;0.5486;3.0527;
1014.9000;0.5454;3.0456;
1015.2000;0.5438;3.0336;
1015.5000;0.5454;3.0313;
1015.8000;0.5429;3.0241;
1016.1000;0.5438;3.0265;
1016.4000;0.5438;3.0217;
1016.7000;0.5551;3.0503;
1017.0000;0.5438;3.0289;
1017.3000;0.5462;3.0384;
1017.6000;0.5446;3.0384;
1017.9000;0.5462;3.0360;
1018.2000;0.5454;3.0336;
1018.5000;0.5446;3.0384;
1018.8000;0.5462;3.0432;
1019.1000;0.5438;3.0336;
1019.4000;0.5446;3.0384;
1019.7000;0.5438;3.0503;
1020.0000;0.5462;3.0575;
1020.3000;0.5446;3.0480;
1020.6000;0.5446;3.0503;
1020.9000;0.5446;3.0384;
1021.2000;0.5446;3.0408;
1021.5000;0.5438;3.0408;
1021.8000;0.5438;3.0408;
1022.1000;0.5454;3.0384;
1022.4000;0.5470;3.0408;
1022.7000;0.5446;3.0265;
1023.0000;0.5454;3.0313;
1023.3000;0.5446;3.0289;
1023.6000;0.5446;3.0217;
1023.9000;0.5462;3.0313;
1024.2000;0.5397;3.0122;
1024.5000;0.5446;3.0193;
1024.8000;0.5503;3.0408;
1025.1000;0.5438;3.0217;
1025.4000;0.5438;3.0217;
1025.7000;0.5454;3.0217;
1026.0000;0.5438;3.0169;
1026.3000;0.5429;3.0050;
1026.6000;0.5372;2.9978;
1026.9000;0.5438;3.0169;
1027.2000;0.5429;3.0122;
1027.5000;0.5454;3.0241;
1027.8000;0.5454;3.0289;
1028.1000;0.5454;3.0265;
1028.4000;0.5462;3.0336;
1028.7000;0.5486;3.0408;
1029.0000;0.5446;3.0384;
1029.3000;0.5454;3.0384;
1029.6000;0.5438;3.0408;
1029.9000;0.5429;3.0384;
1030.2000;0.5421;3.0313;
1030.5000;0.5446;3.0265;
1030.8000;0.5438;3.0217;
1031.1000;0.5381;3.0122;
1031.4000;0.5486;3.0265;
1031.7000;0.5438;3.0098;
1032.0000;0.5462;3.0169;
1032.3000;0.5429;3.0193;
1032.6000;0.5454;3.0169;
1032.9000;0.5438;3.0217;
1033.2000;0.5478;3.0313;
1033.5000;0.5454;3.0336;
1033.8000;0.5454;3.0360;
1034.1000;0.5454;3.0336;
1034.4000;0.5446;3.0313;
1034.7000;0.5429;3.0360;
1035.0000;0.5454;3.0408;
1035.3000;0.5446;3.0432;
1035.6000;0.5446;3.0480;
1035.9000;0.5446;3.0456;
1036.2000;0.5438;3.0408;
1036.5000;0.5446;3.0432;
1036.8000;0.5429;3.0432;
1037.1000;0.5438;3.0384;
1037.4000;0.5438;3.0360;
1037.7000;0.5438;3.0360;
1038.0000;0.5429;3.0336;
1038.3000;0.5446;3.0336;
1038.6000;0.5413;3.0241;
1038.9000;0.5438;3.0336;
1039.2000;0.5527;3.0575;
1039.5000;0.5438;3.0384;
1039.8000;0.5446;3.0384;
1040.1000;0.5486;3.0527;
1040.4000;0.5519;3.0527;
1040.7000;0.5495;3.0384;
1041.0000;0.5446;3.0265;
1041.3000;0.5438;3.0408;
1041.6000;0.5446;3.0480;
1041.9000;0.5421;3.0527;
1042.2000;0.5421;3.0503;
1042.5000;0.5340;3.0241;
1042.8000;0.5478;3.0551;
1043.1000;0.5446;3.0503;
1043.4000;0.5438;3.0527;
1043.7000;0.5421;3.0408;
1044.0000;0.5429;3.0408;
1044.3000;0.5446;3.0480;
1044.6000;0.5438;3.0551;
1044.9000;0.5438;3.0432;
1045.2000;0.5397;3.0360;
1045.5000;0.5429;3.0432;
1045.8000;0.5478;3.0527;
1046.1000;0.5478;3.0575;
1046.4000;0.5429;3.0527;
1046.7000;0.5413;3.0432;
1047.0000;0.5446;3.0503;
1047.3000;0.5446;3.0480;
1047.6000;0.5454;3.0527;
1047.9000;0.5454;3.0599;
1048.2000;0.5429;3.0480;
1048.5000;0.5429;3.0336;
1048.8000;0.5405;3.0313;
1049.1000;0.5438;3.0527;
1049.4000;0.5438;3.0527;
1049.7000;0.5421;3.0432;
1050.0000;0.5438;3.0432;
1050.3000;0.5421;3.0360;
1050.6000;0.5486;3.0384;
1050.9000;0.5438;3.0313;
1051.2000;0.5438;3.0289;
1051.5000;0.5446;3.0313;
1051.8000;0.5438;3.0265;
1052.1000;0.5446;3.0289;
1052.4000;0.5438;3.0289;
1052.7000;0.5454;3.0289;
1053.0000;0.5454;3.0360;
1053.3000;0.5429;3.0384;
1053.6000;0.5438;3.0384;
1053.9000;0.5421;3.0432;
1054.2000;0.5470;3.0503;
1054.5000;0.5478;3.0551;
1054.8000;0.5438;3.0527;
1055.1000;0.5454;3.0480;
1055.4000;0.5429;3.0336;
1055.7000;0.5462;3.0384;
1056.0000;0.5454;3.0289;
1056.3000;0.5454;3.0265;
1056.6000;0.5454;3.0241;
1056.9000;0.5438;3.0241;
1057.2000;0.5470;3.0193;
1057.5000;0.5462;3.0145;
1057.8000;0.5511;3.0336;
1058.1000;0.5446;3.0169;
1058.4000;0.5454;3.0098;
1058.7000;0.5438;3.0098;
1059.0000;0.5429;3.0122;
1059.3000;0.5454;3.0265;
1059.6000;0.5462;3.0336;
1059.9000;0.5454;3.0360;
1060.2000;0.5454;3.0384;
1060.5000;0.5446;3.0336;
1060.8000;0.5438;3.0265;
1061.1000;0.5446;3.0313;
1061.4000;0.5405;3.0241;
1061.7000;0.5413;3.0217;
1062.0000;0.5446;3.0336;
1062.3000;0.5429;3.0193;
1062.6000;0.5446;3.0313;
1062.9000;0.5454;3.0313;
1063.2000;0.5446;3.0408;
1063.5000;0.5478;3.0480;
1063.8000;0.5438;3.0313;
1064.1000;0.5438;3.0241;
1064.4000;0.5429;3.0265;
1064.7000;0.5462;3.0360;
1065.0000;0.5446;3.0336;
1065.3000;0.5454;3.0480;
1065.6000;0.5421;3.0480;
1065.9000;0.5429;3.0623;
1066.2000;0.5446;3.0575;
1066.5000;0.5454;3.0432;
1066.8000;0.5454;3.0432;
1067.1000;0.5478;3.0456;
1067.4000;0.5429;3.0408;
1067.7000;0.5413;3.0289;
1068.0000;0.5446;3.0336;
1068.3000;0.5438;3.0336;
1068.6000;0.5462;3.0289;
1068.9000;0.5462;3.0289;
1069.2000;0.5438;3.0313;
1069.5000;0.5454;3.0313;
1069.8000;0.5446;3.0313;
1070.1000;0.5421;3.0241;
1070.4000;0.5438;3.0241;
1070.7000;0.5470;3.0217;
1071.0000;0.5429;3.0169;
1071.3000;0.5421;3.0265;
1071.6000;0.5446;3.0217;
1071.9000;0.5454;3.0241;
1072.2000;0.5438;3.0169;
1072.5000;0.5438;3.0169;
1072.8000;0.5421;3.0169;
1073.1000;0.5397;3.0217;
1073.4000;0.5438;3.0313;
1073.7000;0.5438;3.0336;
1074.0000;0.5421;3.0336;
1074.3000;0.5340;3.0217;
1074.6000;0.5438;3.0527;
1074.9000;0.5446;3.0551;
1075.2000;0.5438;3.0480;
1075.5000;0.5446;3.0503;
1075.8000;0.5438;3.0456;
1076.1000;0.5446;3.0456;
1076.4000;0.5446;3.0456;
1076.7000;0.5413;3.0408;
1077.0000;0.5454;3.0503;
1077.3000;0.5413;3.0432;
1077.6000;0.5429;3.0527;
1077.9000;0.5413;3.0456;
1078.2000;0.5486;3.0527;
1078.5000;0.5438;3.0360;
1078.8000;0.5429;3.0241;
1079.1000;0.5438;3.0360;
1079.4000;0.5405;3.0336;
1079.7000;0.5429;3.0408;
1080.0000;0.5446;3.0360;
1080.3000;0.5486;3.0384;
1080.6000;0.5356;3.0074;
1080.9000;0.5462;3.0241;
1081.2000;0.5446;3.0193;
1081.5000;0.5438;3.0265;
1081.8000;0.5429;3.0313;
1082.1000;0.5438;3.0289;
1082.4000;0.5446;3.0313;
1082.7000;0.5446;3.0360;
1083.0000;0.5429;3.0336;
1083.3000;0.5429;3.0336;
1083.6000;0.5438;3.0360;
1083.9000;0.5429;3.0336;
1084.2000;0.5421;3.0313;
1084.5000;0.5429;3.0336;
1084.8000;0.5446;3.0432;
1085.1000;0.5438;3.0432;
1085.4000;0.5429;3.0503;
1085.7000;0.5446;3.0647;
1086.0000;0.5438;3.0647;
1086.3000;0.5446;3.0551;
1086.6000;0.5397;3.0432;
1086.9000;0.5429;3.0503;
1087.2000;0.5429;3.0527;
1087.5000;0.5405;3.0408;
1087.8000;0.5454;3.0456;
1088.1000;0.5454;3.0527;
1088.4000;0.5446;3.0527;
1088.7000;0.5446;3.0551;
1089.0000;0.5438;3.0503;
1089.3000;0.5421;3.0456;
1089.6000;0.5438;3.0503;
1089.9000;0.5446;3.0527;
1090.2000;0.5446;3.0527;
1090.5000;0.5429;3.0408;
1090.8000;0.5429;3.0336;
1091.1000;0.5527;3.0671;
1091.4000;0.5438;3.0527;
1091.7000;0.5438;3.0527;
1092.0000;0.5421;3.0527;
1092.3000;0.5421;3.0432;
1092.6000;0.5429;3.0456;
1092.9000;0.5413;3.0456;
1093.2000;0.5438;3.0527;
1093.5000;0.5446;3.0551;
1093.8000;0.5429;3.0456;
1094.1000;0.5421;3.0336;
1094.4000;0.5413;3.0241;
1094.7000;0.5381;3.0074;
1095.0000;0.5438;3.0217;
1095.3000;0.5446;3.0193;
1095.6000;0.5421;3.0193;
1095.9000;0.5438;3.0217;
1096.2000;0.5389;3.0122;
1096.5000;0.5421;3.0313;
1096.8000;0.5438;3.0313;
1097.1000;0.5421;3.0384;
1097.4000;0.5454;3.0456;
1097.7000;0.5340;3.0241;
1098.0000;0.5454;3.0480;
1098.3000;0.5413;3.0384;
1098.6000;0.5462;3.0408;
1098.9000;0.5429;3.0313;
1099.2000;0.5421;3.0313;
1099.5000;0.5429;3.0384;
1099.8000;0.5454;3.0384;
1100.1000;0.5446;3.0408;
1100.4000;0.5454;3.0480;
1100.7000;0.5429;3.0575;
1101.0000;0.5429;3.0623;
1101.3000;0.5438;3.0671;
1101.6000;0.5438;3.0766;
1101.9000;0.5446;3.0718;
1102.2000;0.5486;3.0742;
1102.5000;0.5462;3.0742;
1102.8000;0.5454;3.0742;
1103.1000;0.5438;3.0718;
1103.4000;0.5454;3.0671;
1103.7000;0.5438;3.0575;
1104.0000;0.5438;3.0647;
1104.3000;0.5446;3.0694;
1104.6000;0.5421;3.0671;
1104.9000;0.5364;3.0503;
1105.2000;0.5429;3.0551;
1105.5000;0.5446;3.0599;
1105.8000;0.5470;3.0647;
1106.1000;0.5421;3.0503;
1106.4000;0.5446;3.0503;
1106.7000;0.5438;3.0527;
1107.0000;0.5454;3.0575;
1107.3000;0.5421;3.0480;
1107.6000;0.5421;3.0527;
1107.9000;0.5470;3.0694;
1108.2000;0.5413;3.0503;
1108.5000;0.5438;3.0432;
1108.8000;0.5421;3.0480;
1109.1000;0.5438;3.0456;
1109.4000;0.5397;3.0384;
1109.7000;0.5438;3.0384;
1110.0000;0.5438;3.0456;
1110.3000;0.5421;3.0408;
1110.6000;0.5438;3.0432;
1110.9000;0.5429;3.0384;
1111.2000;0.5421;3.0527;
1111.5000;0.5429;3.0527;
1111.8000;0.5429;3.0599;
1112.1000;0.5438;3.0671;
1112.4000;0.5421;3.0623;
1112.7000;0.5413;3.0599;
1113.0000;0.5397;3.0456;
1113.3000;0.5429;3.0527;
1113.6000;0.5429;3.0480;
1113.9000;0.5429;3.0456;
1114.2000;0.5429;3.0480;
1114.5000;0.5421;3.0503;
1114.8000;0.5413;3.0527;
1115.1000;0.5438;3.0480;
1115.4000;0.5454;3.0503;
1115.7000;0.5429;3.0336;
1116.0000;0.5413;3.0241;
1116.3000;0.5429;3.0313;
1116.6000;0.5454;3.0456;
1116.9000;0.5446;3.0456;
1117.2000;0.5429;3.0408;
1117.5000;0.5389;3.0360;
1117.8000;0.5438;3.0480;
1118.1000;0.5454;3.0527;
1118.4000;0.5429;3.0527;
1118.7000;0.5413;3.0551;
1119.0000;0.5429;3.0599;
1119.3000;0.5421;3.0599;
1119.6000;0.5438;3.0503;
1119.9000;0.5438;3.0599;
1120.2000;0.5429;3.0503;
1120.5000;0.5429;3.0503;
1120.8000;0.5421;3.0503;
1121.1000;0.5421;3.0456;
1121.4000;0.5462;3.0551;
1121.7000;0.5454;3.0527;
1122.0000;0.5438;3.0432;
1122.3000;0.5429;3.0384;
1122.6000;0.5421;3.0432;
1122.9000;0.5429;3.0432;
1123.2000;0.5446;3.0384;
1123.5000;0.5511;3.0527;
1123.8000;0.5397;3.0265;
1124.1000;0.5438;3.0456;
1124.4000;0.5470;3.0551;
1124.7000;0.5397;3.0384;
1125.0000;0.5429;3.0575;
1125.3000;0.5429;3.0599;
1125.6000;0.5462;3.0527;
1125.9000;0.5446;3.0408;
1126.2000;0.5429;3.0289;
1126.5000;0.5429;3.0289;
1126.8000;0.5429;3.0336;
1127.1000;0.5421;3.0336;
1127.4000;0.5348;3.0074;
1127.7000;0.5438;3.0313;
1128.0000;0.5429;3.0289;
1128.3000;0.5429;3.0265;
1128.6000;0.5421;3.0289;
1128.9000;0.5446;3.0456;
1129.2000;0.5364;3.0336;
1129.5000;0.5429;3.0503;
1129.8000;0.5438;3.0432;
1130.1000;0.5421;3.0432;
1130.4000;0.5438;3.0480;
1130.7000;0.5438;3.0527;
1131.0000;0.5438;3.0503;
1131.3000;0.5413;3.0408;
1131.6000;0.5462;3.0432;
1131.9000;0.5446;3.0336;
1132.2000;0.5446;3.0384;
1132.5000;0.5438;3.0408;
1132.8000;0.5381;3.0289;
1133.1000;0.5429;3.0384;
1133.4000;0.5429;3.0289;
1133.7000;0.5429;3.0336;
1134.0000;0.5421;3.0360;
1134.3000;0.5446;3.0432;
1134.6000;0.5446;3.0384;
1134.9000;0.5478;3.0503;
1135.2000;0.5462;3.0503;
1135.5000;0.5438;3.0480;
1135.8000;0.5421;3.0527;
1136.1000;0.5446;3.0551;
1136.4000;0.5438;3.0599;
1136.7000;0.5421;3.0647;
1137.0000;0.5486;3.0861;
1137.3000;0.5421;3.0742;
1137.6000;0.5421;3.0718;
1137.9000;0.5421;3.0718;
1138.2000;0.5429;3.0623;
1138.5000;0.5421;3.0599;
1138.8000;0.5429;3.0551;
1139.1000;0.5446;3.0575;
1139.4000;0.5438;3.0503;
1139.7000;0.5462;3.0432;
1140.0000;0.5519;3.0551;
1140.3000;0.5446;3.0289;
1140.6000;0.5454;3.0336;
1140.9000;0.5421;3.0313;
1141.2000;0.5429;3.0384;
1141.5000;0.5446;3.0527;
1141.8000;0.5356;3.0336;
1142.1000;0.5446;3.0527;
1142.4000;0.5429;3.0456;
1142.7000;0.5429;3.0527;
1143.0000;0.5429;3.0527;
1143.3000;0.5438;3.0575;
1143.6000;0.5429;3.0432;
1143.9000;0.5454;3.0480;
1144.2000;0.5438;3.0456;
1144.5000;0.5438;3.0527;
1144.8000;0.5462;3.0551;
1145.1000;0.5438;3.0527;
1145.4000;0.5397;3.0527;
1145.7000;0.5438;3.0527;
1146.0000;0.5438;3.0575;
1146.3000;0.5429;3.0623;
1146.6000;0.5421;3.0599;
1146.9000;0.5462;3.0575;
1147.2000;0.5421;3.0527;
1147.5000;0.5429;3.0456;
1147.8000;0.5413;3.0480;
1148.1000;0.5421;3.0503;
1148.4000;0.5446;3.0551;
1148.7000;0.5421;3.0551;
1149.0000;0.5413;3.0432;
1149.3000;0.5421;3.0432;
1149.6000;0.5413;3.0384;
1149.9000;0.5438;3.0360;
1150.2000;0.5429;3.0384;
1150.5000;0.5446;3.0408;
1150.8000;0.5429;3.0336;
1151.1000;0.5438;3.0360;
1151.4000;0.5486;3.0527;
1151.7000;0.5429;3.0456;
1152.0000;0.5446;3.0551;
1152.3000;0.5429;3.0551;
1152.6000;0.5372;3.0360;
1152.9000;0.5438;3.0456;
1153.2000;0.5454;3.0480;
1153.5000;0.5438;3.0527;
1153.8000;0.5454;3.0647;
1154.1000;0.5421;3.0480;
1154.4000;0.5429;3.0503;
1154.7000;0.5429;3.0480;
1155.0000;0.5413;3.0456;
1155.3000;0.5438;3.0503;
1155.6000;0.5438;3.0432;
1155.9000;0.5429;3.0480;
1156.2000;0.5429;3.0503;
1156.5000;0.5429;3.0456;
1156.8000;0.5421;3.0480;
1157.1000;0.5454;3.0575;
1157.4000;0.5429;3.0503;
1157.7000;0.5421;3.0503;
1158.0000;0.5429;3.0551;
1158.3000;0.5413;3.0503;
1158.6000;0.5438;3.0527;
1158.9000;0.5413;3.0360;
1159.2000;0.5405;3.0384;
1159.5000;0.5438;3.0456;
1159.8000;0.5421;3.0432;
1160.1000;0.5454;3.0456;
1160.4000;0.5438;3.0384;
1160.7000;0.5438;3.0456;
1161.0000;0.5438;3.0432;
1161.3000;0.5421;3.0480;
1161.6000;0.5454;3.0575;
1161.9000;0.5462;3.0623;
1162.2000;0.5421;3.0623;
1162.5000;0.5438;3.0527;
1162.8000;0.5405;3.0384;
1163.1000;0.5421;3.0456;
1163.4000;0.5421;3.0456;
1163.7000;0.5413;3.0480;
1164.0000;0.5413;3.0480;
1164.3000;0.5429;3.0575;
1164.6000;0.5429;3.0623;
1164.9000;0.5413;3.0647;
1165.2000;0.5438;3.0599;
1165.5000;0.5438;3.0527;
1165.8000;0.5421;3.0551;
1166.1000;0.5413;3.0575;
1166.4000;0.5413;3.0551;
1166.7000;0.5446;3.0551;
1167.0000;0.5421;3.0456;
1167.3000;0.5421;3.0480;
1167.6000;0.5446;3.0551;
1167.9000;0.5421;3.0480;
1168.2000;0.5429;3.0480;
1168.5000;0.5438;3.0503;
1168.8000;0.5421;3.0456;
1169.1000;0.5429;3.0551;
1169.4000;0.5421;3.0575;
1169.7000;0.5438;3.0647;
1170.0000;0.5454;3.0623;
1170.3000;0.5429;3.0551;
1170.6000;0.5495;3.0766;
1170.9000;0.5429;3.0575;
1171.2000;0.5421;3.0599;
1171.5000;0.5438;3.0623;
1171.8000;0.5429;3.0671;
1172.1000;0.5446;3.0694;
1172.4000;0.5511;3.0838;
1172.7000;0.5438;3.0527;
1173.0000;0.5438;3.0575;
1173.3000;0.5413;3.0432;
1173.6000;0.5454;3.0551;
1173.9000;0.5429;3.0599;
1174.2000;0.5397;3.0456;
1174.5000;0.5389;3.0408;
1174.8000;0.5429;3.0599;
1175.1000;0.5446;3.0599;
1175.4000;0.5381;3.0503;
1175.7000;0.5389;3.0575;
1176.0000;0.5438;3.0623;
1176.3000;0.5438;3.0527;
1176.6000;0.5429;3.0527;
1176.9000;0.5438;3.0623;
1177.2000;0.5438;3.0575;
1177.5000;0.5429;3.0527;
1177.8000;0.5429;3.0647;
1178.1000;0.5429;3.0623;
1178.4000;0.5413;3.0575;
1178.7000;0.5413;3.0647;
1179.0000;0.5446;3.0838;
1179.3000;0.5421;3.0766;
1179.6000;0.5421;3.0718;
1179.9000;0.5413;3.0718;
1180.2000;0.5438;3.0742;
1180.5000;0.5405;3.0623;
1180.8000;0.5438;3.0671;
1181.1000;0.5429;3.0623;
1181.4000;0.5421;3.0647;
1181.7000;0.5454;3.0742;
1182.0000;0.5429;3.0671;
1182.3000;0.5429;3.0575;
1182.6000;0.5421;3.0671;
1182.9000;0.5429;3.0766;
1183.2000;0.5438;3.0790;
1183.5000;0.5413;3.0671;
1183.8000;0.5438;3.0718;
1184.1000;0.5429;3.0647;
1184.4000;0.5438;3.0742;
1184.7000;0.5446;3.0694;
1185.0000;0.5340;3.0408;
1185.3000;0.5438;3.0742;
1185.6000;0.5429;3.0766;
1185.9000;0.5429;3.0814;
1186.2000;0.5364;3.0599;
1186.5000;0.5413;3.0766;
1186.8000;0.5413;3.0766;
1187.1000;0.5413;3.0694;
1187.4000;0.5429;3.0742;
1187.7000;0.5446;3.0766;
1188.0000;0.5421;3.0838;
1188.3000;0.5413;3.0790;
1188.6000;0.5429;3.0790;
1188.9000;0.5421;3.0838;
1189.2000;0.5405;3.0694;
1189.5000;0.5421;3.0790;
1189.8000;0.5421;3.0861;
1190.1000;0.5429;3.1005;
1190.4000;0.5438;3.0957;
1190.7000;0.5389;3.0742;
1191.0000;0.5413;3.0790;
1191.3000;0.5438;3.0790;
1191.6000;0.5438;3.0694;
1191.9000;0.5421;3.0694;
1192.2000;0.5438;3.0694;
1192.5000;0.5446;3.0718;
1192.8000;0.5446;3.0742;
1193.1000;0.5511;3.0861;
1193.4000;0.5462;3.0742;
1193.7000;0.5438;3.0718;
1194.0000;0.5446;3.0766;
1194.3000;0.5438;3.0885;
1194.6000;0.5421;3.0885;
1194.9000;0.5421;3.0885;
1195.2000;0.5421;3.0933;
1195.5000;0.5372;3.0814;
1195.8000;0.5429;3.0957;
1196.1000;0.5438;3.0981;
1196.4000;0.5421;3.0885;
1196.7000;0.5446;3.0861;
1197.0000;0.5429;3.0790;
1197.3000;0.5413;3.0885;
1197.6000;0.5429;3.0909;
1197.9000;0.5421;3.0838;
1198.2000;0.5397;3.0766;
1198.5000;0.5364;3.0766;
1198.8000;0.5421;3.0933;
1199.1000;0.5421;3.0957;
1199.4000;0.5429;3.1005;
1199.7000;0.5421;3.0957;
1200.0000;0.5421;3.0814;
1200.3000;0.5413;3.0742;
1200.6000;0.5413;3.0838;
1200.9000;0.5421;3.0814;
1201.2000;0.5413;3.0814;
1201.5000;0.5454;3.0885;
1201.8000;0.5438;3.0861;
1202.1000;0.5389;3.0694;
1202.4000;0.5438;3.0790;
1202.7000;0.5438;3.0766;
1203.0000;0.5438;3.0718;
1203.3000;0.5429;3.0671;
1203.6000;0.5421;3.0766;
1203.9000;0.5389;3.0742;
1204.2000;0.5421;3.0742;
1204.5000;0.5429;3.0718;
1204.8000;0.5405;3.0814;
1205.1000;0.5421;3.0814;
1205.4000;0.5429;3.0790;
1205.7000;0.5421;3.0766;
1206.0000;0.5397;3.0742;
1206.3000;0.5446;3.0885;
1206.6000;0.5421;3.0838;
1206.9000;0.5446;3.0957;
1207.2000;0.5413;3.0838;
1207.5000;0.5438;3.0838;
1207.8000;0.5421;3.0838;
1208.1000;0.5438;3.0790;
1208.4000;0.5413;3.0671;
1208.7000;0.5421;3.0647;
1209.0000;0.5405;3.0527;
1209.3000;0.5421;3.0503;
1209.6000;0.5429;3.0503;
1209.9000;0.5421;3.0503;
1210.2000;0.5429;3.0575;
1210.5000;0.5438;3.0671;
1210.8000;0.5446;3.0718;
1211.1000;0.5340;3.0384;
1211.4000;0.5429;3.0694;
1211.7000;0.5372;3.0551;
1212.0000;0.5446;3.0742;
1212.3000;0.5446;3.0694;
1212.6000;0.5421;3.0742;
1212.9000;0.5438;3.0838;
1213.2000;0.5413;3.0742;
1213.5000;0.5429;3.0814;
1213.8000;0.5438;3.0885;
1214.1000;0.5495;3.1029;
1214.4000;0.5421;3.0790;
1214.7000;0.5421;3.0766;
1215.0000;0.5413;3.0814;
1215.3000;0.5446;3.0909;
1215.6000;0.5438;3.0885;
1215.9000;0.5454;3.0909;
1216.2000;0.5421;3.0814;
1216.5000;0.5429;3.0814;
1216.8000;0.5421;3.0861;
1217.1000;0.5421;3.0838;
1217.4000;0.5421;3.0790;
1217.7000;0.5397;3.0671;
1218.0000;0.5413;3.0766;
1218.3000;0.5421;3.0814;
1218.6000;0.5413;3.0766;
1218.9000;0.5413;3.0838;
1219.2000;0.5413;3.0885;
1219.5000;0.5421;3.0861;
1219.8000;0.5397;3.0766;
1220.1000;0.5421;3.0838;
1220.4000;0.5421;3.0742;
1220.7000;0.5421;3.0742;
1221.0000;0.5438;3.0861;
1221.3000;0.5421;3.0766;
1221.6000;0.5405;3.0694;
1221.9000;0.5421;3.0623;
1222.2000;0.5470;3.0694;
1222.5000;0.5438;3.0623;
1222.8000;0.5446;3.0671;
1223.1000;0.5421;3.0694;
1223.4000;0.5446;3.0742;
1223.7000;0.5454;3.0742;
1224.0000;0.5438;3.0671;
1224.3000;0.5421;3.0671;
1224.6000;0.5421;3.0575;
1224.9000;0.5511;3.0671;
1225.2000;0.5421;3.0551;
1225.5000;0.5421;3.0647;
1225.8000;0.5429;3.0742;
1226.1000;0.5421;3.0790;
1226.4000;0.5372;3.0599;
1226.7000;0.5429;3.0671;
1227.0000;0.5429;3.0766;
1227.3000;0.5438;3.0718;
1227.6000;0.5421;3.0671;
1227.9000;0.5438;3.0742;
1228.2000;0.5421;3.0742;
1228.5000;0.5438;3.0790;
1228.8000;0.5438;3.0838;
1229.1000;0.5413;3.0933;
1229.4000;0.5429;3.0933;
1229.7000;0.5405;3.0766;
1230.0000;0.5413;3.0766;
1230.3000;0.5438;3.0814;
1230.6000;0.5421;3.0814;
1230.9000;0.5413;3.0790;
1231.2000;0.5421;3.0718;
1231.5000;0.5438;3.0694;
1231.8000;0.5413;3.0575;
1232.1000;0.5413;3.0623;
1232.4000;0.5429;3.0623;
1232.7000;0.5413;3.0623;
1233.0000;0.5413;3.0647;
1233.3000;0.5438;3.0647;
1233.6000;0.5405;3.0599;
1233.9000;0.5421;3.0575;
1234.2000;0.5413;3.0599;
1234.5000;0.5405;3.0623;
1234.8000;0.5438;3.0647;
1235.1000;0.5478;3.0790;
1235.4000;0.5413;3.0647;
1235.7000;0.5429;3.0694;
1236.0000;0.5495;3.0742;
1236.3000;0.5405;3.0527;
1236.6000;0.5372;3.0408;
1236.9000;0.5421;3.0456;
1237.2000;0.5495;3.0623;
1237.5000;0.5462;3.0551;
1237.8000;0.5421;3.0408;
1238.1000;0.5421;3.0360;
1238.4000;0.5438;3.0408;
1238.7000;0.5421;3.0456;
1239.0000;0.5421;3.0503;
1239.3000;0.5405;3.0503;
1239.6000;0.5405;3.0527;
1239.9000;0.5421;3.0527;
1240.2000;0.5413;3.0503;
1240.5000;0.5405;3.0551;
1240.8000;0.5421;3.0671;
1241.1000;0.5413;3.0575;
1241.4000;0.5429;3.0527;
1241.7000;0.5486;3.0647;
1242.0000;0.5421;3.0599;
1242.3000;0.5438;3.0623;
1242.6000;0.5421;3.0503;
1242.9000;0.5429;3.0503;
1243.2000;0.5405;3.0599;
1243.5000;0.5429;3.0503;
1243.8000;0.5429;3.0408;
1244.1000;0.5389;3.0265;
1244.4000;0.5413;3.0289;
1244.7000;0.5421;3.0456;
1245.0000;0.5438;3.0503;
1245.3000;0.5405;3.0432;
1245.6000;0.5421;3.0503;
1245.9000;0.5421;3.0503;
1246.2000;0.5438;3.0527;
1246.5000;0.5446;3.0480;
1246.8000;0.5429;3.0527;
1247.1000;0.5421;3.0480;
1247.4000;0.5429;3.0503;
1247.7000;0.5470;3.0671;
1248.0000;0.5421;3.0551;
1248.3000;0.5421;3.0694;
1248.6000;0.5389;3.0623;
1248.9000;0.5429;3.0671;
1249.2000;0.5413;3.0575;
1249.5000;0.5470;3.0647;
1249.8000;0.5421;3.0527;
1250.1000;0.5413;3.0527;
1250.4000;0.5413;3.0503;
1250.7000;0.5421;3.0503;
1251.0000;0.5438;3.0527;
1251.3000;0.5429;3.0503;
1251.6000;0.5421;3.0551;
1251.9000;0.5454;3.0503;
1252.2000;0.5438;3.0527;
1252.5000;0.5429;3.0527;
1252.8000;0.5421;3.0480;
1253.1000;0.5446;3.0599;
1253.4000;0.5438;3.0432;
1253.7000;0.5421;3.0432;
1254.0000;0.5429;3.0456;
1254.3000;0.5429;3.0480;
1254.6000;0.5438;3.0480;
1254.9000;0.5405;3.0408;
1255.2000;0.5438;3.0527;
1255.5000;0.5405;3.0336;
1255.8000;0.5421;3.0384;
1256.1000;0.5348;3.0313;
1256.4000;0.5405;3.0384;
1256.7000;0.5429;3.0408;
1257.0000;0.5421;3.0313;
1257.3000;0.5421;3.0336;
1257.6000;0.5421;3.0408;
1257.9000;0.5429;3.0503;
1258.2000;0.5495;3.0671;
1258.5000;0.5429;3.0456;
1258.8000;0.5413;3.0551;
1259.1000;0.5381;3.0503;
1259.4000;0.5421;3.0623;
1259.7000;0.5340;3.0384;
1260.0000;0.5421;3.0623;
1260.3000;0.5429;3.0551;
1260.6000;0.5429;3.0575;
1260.9000;0.5405;3.0623;
1261.2000;0.5421;3.0742;
1261.5000;0.5495;3.0981;
1261.8000;0.5429;3.0694;
1262.1000;0.5405;3.0647;
1262.4000;0.5421;3.0718;
1262.7000;0.5413;3.0742;
1263.0000;0.5421;3.0718;
1263.3000;0.5413;3.0647;
1263.6000;0.5405;3.0647;
1263.9000;0.5381;3.0671;
1264.2000;0.5413;3.0671;
1264.5000;0.5364;3.0599;
1264.8000;0.5405;3.0647;
1265.1000;0.5421;3.0718;
1265.4000;0.5438;3.0718;
1265.7000;0.5429;3.0718;
1266.0000;0.5421;3.0671;
1266.3000;0.5405;3.0647;
1266.6000;0.5478;3.0790;
1266.9000;0.5421;3.0694;
1267.2000;0.5421;3.0718;
1267.5000;0.5429;3.0838;
1267.8000;0.5446;3.0814;
1268.1000;0.5438;3.0766;
1268.4000;0.5405;3.0647;
1268.7000;0.5429;3.0694;
1269.0000;0.5421;3.0718;
1269.3000;0.5381;3.0623;
1269.6000;0.5446;3.0790;
1269.9000;0.5364;3.0623;
1270.2000;0.5421;3.0599;
1270.5000;0.5405;3.0575;
1270.8000;0.5429;3.0647;
1271.1000;0.5421;3.0599;
1271.4000;0.5421;3.0623;
1271.7000;0.5462;3.0694;
1272.0000;0.5438;3.0694;
1272.3000;0.5413;3.0647;
1272.6000;0.5421;3.0647;
1272.9000;0.5519;3.0814;
1273.2000;0.5429;3.0742;
1273.5000;0.5421;3.0671;
1273.8000;0.5421;3.0599;
1274.1000;0.5413;3.0432;
1274.4000;0.5462;3.0503;
1274.7000;0.5454;3.0480;
1275.0000;0.5413;3.0456;
1275.3000;0.5421;3.0480;
1275.6000;0.5421;3.0480;
1275.9000;0.5421;3.0480;
1276.2000;0.5429;3.0456;
1276.5000;0.5438;3.0480;
1276.8000;0.5429;3.0503;
1277.1000;0.5429;3.0480;
1277.4000;0.5348;3.0289;
1277.7000;0.5454;3.0551;
1278.0000;0.5421;3.0575;
1278.3000;0.5421;3.0599;
1278.6000;0.5413;3.0599;
1278.9000;0.5413;3.0575;
1279.2000;0.5429;3.0599;
1279.5000;0.5413;3.0599;
1279.8000;0.5413;3.0503;
1280.1000;0.5446;3.0623;
1280.4000;0.5413;3.0575;
1280.7000;0.5446;3.0647;
1281.0000;0.5413;3.0599;
1281.3000;0.5397;3.0575;
1281.6000;0.5413;3.0742;
1281.9000;0.5429;3.0790;
1282.2000;0.5405;3.0623;
1282.5000;0.5429;3.0742;
1282.8000;0.5421;3.0694;
1283.1000;0.5438;3.0718;
1283.4000;0.5397;3.0671;
1283.7000;0.5405;3.0671;
1284.0000;0.5470;3.0814;
1284.3000;0.5429;3.0647;
1284.6000;0.5413;3.0503;
1284.9000;0.5413;3.0432;
1285.2000;0.5405;3.0384;
1285.5000;0.5413;3.0456;
1285.8000;0.5421;3.0527;
1286.1000;0.5438;3.0551;
1286.4000;0.5413;3.0599;
1286.7000;0.5429;3.0599;
1287.0000;0.5413;3.0599;
1287.3000;0.5405;3.0503;
1287.6000;0.5413;3.0527;
1287.9000;0.5413;3.0456;
1288.2000;0.5389;3.0456;
1288.5000;0.5381;3.0456;
1288.8000;0.5413;3.0623;
1289.1000;0.5405;3.0718;
1289.4000;0.5421;3.0718;
1289.7000;0.5405;3.0647;
1290.0000;0.5413;3.0551;
1290.3000;0.5389;3.0456;
1290.6000;0.5421;3.0551;
1290.9000;0.5421;3.0527;
1291.2000;0.5397;3.0480;
1291.5000;0.5486;3.0790;
1291.8000;0.5405;3.0503;
1292.1000;0.5438;3.0551;
1292.4000;0.5438;3.0527;
1292.7000;0.5438;3.0599;
1293.0000;0.5413;3.0599;
1293.3000;0.5421;3.0599;
1293.6000;0.5446;3.0718;
1293.9000;0.5413;3.0551;
1294.2000;0.5413;3.0456;
1294.5000;0.5429;3.0456;
1294.8000;0.5413;3.0384;
1295.1000;0.5438;3.0432;
1295.4000;0.5438;3.0384;
1295.7000;0.5429;3.0384;
1296.0000;0.5421;3.0408;
1296.3000;0.5429;3.0408;
1296.6000;0.5421;3.0408;
1296.9000;0.5446;3.0456;
1297.2000;0.5446;3.0480;
1297.5000;0.5438;3.0623;
1297.8000;0.5429;3.0599;
1298.1000;0.5405;3.0527;
1298.4000;0.5405;3.0527;
1298.7000;0.5446;3.0718;
1299.0000;0.5413;3.0623;
1299.3000;0.5421;3.0623;
1299.6000;0.5429;3.0694;
1299.9000;0.5381;3.0503;
1300.2000;0.5421;3.0599;
1300.5000;0.5421;3.0551;
1300.8000;0.5462;3.0671;
1301.1000;0.5438;3.0599;
1301.4000;0.5421;3.0647;
1301.7000;0.5429;3.0718;
1302.0000;0.5364;3.0480;
1302.3000;0.5405;3.0599;
1302.6000;0.5413;3.0623;
1302.9000;0.5421;3.0623;
1303.2000;0.5372;3.0551;
1303.5000;0.5429;3.0575;
1303.8000;0.5405;3.0503;
1304.1000;0.5438;3.0527;
1304.4000;0.5429;3.0575;
1304.7000;0.5413;3.0551;
1305.0000;0.5413;3.0623;
1305.3000;0.5421;3.0599;
1305.6000;0.5421;3.0575;
1305.9000;0.5421;3.0503;
1306.2000;0.5438;3.0575;
1306.5000;0.5421;3.0527;
1306.8000;0.5356;3.0336;
1307.1000;0.5446;3.0551;
1307.4000;0.5438;3.0456;
1307.7000;0.5364;3.0384;
1308.0000;0.5413;3.0503;
1308.3000;0.5381;3.0336;
1308.6000;0.5429;3.0503;
1308.9000;0.5389;3.0456;
1309.2000;0.5405;3.0527;
1309.5000;0.5421;3.0551;
1309.8000;0.5405;3.0599;
1310.1000;0.5421;3.0694;
1310.4000;0.5405;3.0742;
1310.7000;0.5413;3.0766;
1311.0000;0.5438;3.0718;
1311.3000;0.5446;3.0718;
1311.6000;0.5486;3.0861;
1311.9000;0.5413;3.0814;
1312.2000;0.5470;3.1029;
1312.5000;0.5462;3.0933;
1312.8000;0.5405;3.0766;
1313.1000;0.5470;3.0838;
1313.4000;0.5429;3.0647;
1313.7000;0.5429;3.0671;
1314.0000;0.5413;3.0671;
1314.3000;0.5372;3.0551;
1314.6000;0.5421;3.0623;
1314.9000;0.5413;3.0647;
1315.2000;0.5413;3.0718;
1315.5000;0.5421;3.0718;
1315.8000;0.5421;3.0814;
1316.1000;0.5429;3.0790;
1316.4000;0.5421;3.0742;
1316.7000;0.5389;3.0694;
1317.0000;0.5421;3.0671;
1317.3000;0.5413;3.0575;
1317.6000;0.5405;3.0527;
1317.9000;0.5438;3.0623;
1318.2000;0.5429;3.0623;
1318.5000;0.5446;3.0694;
1318.8000;0.5429;3.0647;
1319.1000;0.5405;3.0480;
1319.4000;0.5438;3.0456;
1319.7000;0.5405;3.0456;
1320.0000;0.5421;3.0527;
1320.3000;0.5421;3.0623;
1320.6000;0.5405;3.0527;
1320.9000;0.5438;3.0575;
1321.2000;0.5438;3.0623;
1321.5000;0.5413;3.0599;
1321.8000;0.5413;3.0599;
1322.1000;0.5413;3.0503;
1322.4000;0.5405;3.0575;
1322.7000;0.5421;3.0671;
1323.0000;0.5413;3.0718;
1323.3000;0.5429;3.0766;
1323.6000;0.5413;3.0647;
1323.9000;0.5421;3.0671;
1324.2000;0.5446;3.0623;
1324.5000;0.5405;3.0527;
1324.8000;0.5421;3.0575;
1325.1000;0.5438;3.0671;
1325.4000;0.5421;3.0671;
1325.7000;0.5421;3.0766;
1326.0000;0.5413;3.0718;
1326.3000;0.5438;3.0694;
1326.6000;0.5413;3.0575;
1326.9000;0.5421;3.0480;
1327.2000;0.5462;3.0647;
1327.5000;0.5421;3.0503;
1327.8000;0.5421;3.0456;
1328.1000;0.5421;3.0503;
1328.4000;0.5478;3.0647;
1328.7000;0.5413;3.0456;
1329.0000;0.5429;3.0551;
1329.3000;0.5429;3.0432;
1329.6000;0.5405;3.0432;
1329.9000;0.5389;3.0384;
1330.2000;0.5405;3.0408;
1330.5000;0.5519;3.0694;
1330.8000;0.5413;3.0527;
1331.1000;0.5405;3.0575;
1331.4000;0.5421;3.0575;
1331.7000;0.5413;3.0503;
1332.0000;0.5438;3.0480;
1332.3000;0.5413;3.0456;
1332.6000;0.5397;3.0456;
1332.9000;0.5429;3.0432;
1333.2000;0.5462;3.0480;
1333.5000;0.5421;3.0360;
1333.8000;0.5413;3.0360;
1334.1000;0.5421;3.0336;
1334.4000;0.5413;3.0336;
1334.7000;0.5348;3.0193;
1335.0000;0.5421;3.0384;
1335.3000;0.5429;3.0551;
1335.6000;0.5446;3.0647;
1335.9000;0.5446;3.0623;
1336.2000;0.5397;3.0480;
1336.5000;0.5389;3.0408;
1336.8000;0.5438;3.0480;
1337.1000;0.5446;3.0575;
1337.4000;0.5421;3.0551;
1337.7000;0.5421;3.0551;
1338.0000;0.5429;3.0647;
1338.3000;0.5413;3.0575;
1338.6000;0.5438;3.0671;
1338.9000;0.5421;3.0551;
1339.2000;0.5421;3.0480;
1339.5000;0.5421;3.0384;
1339.8000;0.5413;3.0432;
1340.1000;0.5405;3.0527;
1340.4000;0.5405;3.0647;
1340.7000;0.5413;3.0671;
1341.0000;0.5519;3.1029;
1341.3000;0.5429;3.0742;
1341.6000;0.5429;3.0647;
1341.9000;0.5438;3.0647;
1342.2000;0.5405;3.0647;
1342.5000;0.5405;3.0671;
1342.8000;0.5429;3.0766;
1343.1000;0.5421;3.0718;
1343.4000;0.5405;3.0647;
1343.7000;0.5405;3.0647;
1344.0000;0.5405;3.0575;
1344.3000;0.5413;3.0503;
1344.6000;0.5429;3.0551;
1344.9000;0.5413;3.0480;
1345.2000;0.5405;3.0480;
1345.5000;0.5405;3.0480;
1345.8000;0.5413;3.0480;
1346.1000;0.5421;3.0623;
1346.4000;0.5429;3.0694;
1346.7000;0.5413;3.0599;
1347.0000;0.5405;3.0623;
1347.3000;0.5413;3.0718;
1347.6000;0.5429;3.0718;
1347.9000;0.5446;3.0766;
1348.2000;0.5438;3.0814;
1348.5000;0.5454;3.0814;
1348.8000;0.5421;3.0718;
1349.1000;0.5429;3.0718;
1349.4000;0.5429;3.0718;
1349.7000;0.5413;3.0599;
1350.0000;0.5389;3.0503;
1350.3000;0.5381;3.0551;
1350.6000;0.5413;3.0671;
1350.9000;0.5381;3.0623;
1351.2000;0.5405;3.0623;
1351.5000;0.5405;3.0623;
1351.8000;0.5438;3.0671;
1352.1000;0.5421;3.0694;
1352.4000;0.5446;3.0694;
1352.7000;0.5405;3.0623;
1353.0000;0.5438;3.0623;
1353.3000;0.5446;3.0647;
1353.6000;0.5421;3.0647;
1353.9000;0.5372;3.0503;
1354.2000;0.5405;3.0575;
1354.5000;0.5438;3.0647;
1354.8000;0.5397;3.0527;
1355.1000;0.5413;3.0623;
1355.4000;0.5413;3.0527;
1355.7000;0.5397;3.0480;
1356.0000;0.5413;3.0575;
1356.3000;0.5429;3.0551;
1356.6000;0.5438;3.0623;
1356.9000;0.5438;3.0647;
1357.2000;0.5438;3.0671;
1357.5000;0.5421;3.0742;
1357.8000;0.5446;3.0838;
1358.1000;0.5438;3.0718;
1358.4000;0.5446;3.0742;
1358.7000;0.5446;3.0647;
1359.0000;0.5413;3.0551;
1359.3000;0.5421;3.0599;
1359.6000;0.5495;3.0766;
1359.9000;0.5413;3.0551;
1360.2000;0.5413;3.0647;
1360.5000;0.5421;3.0599;
1360.8000;0.5429;3.0551;
1361.1000;0.5429;3.0623;
1361.4000;0.5421;3.0623;
1361.7000;0.5413;3.0671;
1362.0000;0.5413;3.0623;
1362.3000;0.5413;3.0599;
1362.6000;0.5413;3.0551;
1362.9000;0.5429;3.0575;
1363.2000;0.5429;3.0647;
1363.5000;0.5421;3.0766;
1363.8000;0.5413;3.0694;
1364.1000;0.5421;3.0694;
1364.4000;0.5405;3.0718;
1364.7000;0.5413;3.0694;
1365.0000;0.5429;3.0694;
1365.3000;0.5486;3.0885;
1365.6000;0.5381;3.0623;
1365.9000;0.5397;3.0671;
1366.2000;0.5413;3.0671;
1366.5000;0.5405;3.0575;
1366.8000;0.5397;3.0647;
1367.1000;0.5405;3.0575;
1367.4000;0.5421;3.0551;
1367.7000;0.5446;3.0575;
1368.0000;0.5429;3.0623;
1368.3000;0.5429;3.0718;
1368.6000;0.5413;3.0742;
1368.9000;0.5429;3.0694;
1369.2000;0.5413;3.0599;
1369.5000;0.5421;3.0671;
1369.8000;0.5421;3.0647;
1370.1000;0.5421;3.0599;
1370.4000;0.5429;3.0623;
1370.7000;0.5413;3.0456;
1371.0000;0.5438;3.0456;
1371.3000;0.5429;3.0527;
1371.6000;0.5421;3.0551;
1371.9000;0.5413;3.0527;
1372.2000;0.5429;3.0647;
1372.5000;0.5438;3.0671;
1372.8000;0.5429;3.0694;
1373.1000;0.5446;3.0742;
1373.4000;0.5429;3.0694;
1373.7000;0.5421;3.0718;
1374.0000;0.5421;3.0838;
1374.3000;0.5413;3.0814;
1374.6000;0.5405;3.0742;
1374.9000;0.5438;3.0718;
1375.2000;0.5470;3.0718;
1375.5000;0.5438;3.0647;
1375.8000;0.5421;3.0599;
1376.1000;0.5429;3.0647;
1376.4000;0.5421;3.0575;
1376.7000;0.5413;3.0647;
1377.0000;0.5421;3.0647;
1377.3000;0.5413;3.0671;
1377.6000;0.5413;3.0623;
1377.9000;0.5413;3.0551;
1378.2000;0.5470;3.0671;
1378.5000;0.5438;3.0671;
1378.8000;0.5405;3.0671;
1379.1000;0.5405;3.0671;
1379.4000;0.5389;3.0718;
1379.7000;0.5462;3.0885;
1380.0000;0.5429;3.0885;
1380.3000;0.5389;3.0814;
1380.6000;0.5429;3.0814;
1380.9000;0.5421;3.0814;
1381.2000;0.5397;3.0790;
1381.5000;0.5413;3.0694;
1381.8000;0.5413;3.0694;
1382.1000;0.5405;3.0623;
1382.4000;0.5429;3.0599;
1382.7000;0.5381;3.0408;
1383.0000;0.5429;3.0551;
1383.3000;0.5421;3.0647;
1383.6000;0.5421;3.0718;
1383.9000;0.5413;3.0718;
1384.2000;0.5421;3.0671;
1384.5000;0.5413;3.0671;
1384.8000;0.5421;3.0671;
1385.1000;0.5413;3.0742;
1385.4000;0.5405;3.0766;
1385.7000;0.5397;3.0694;
1386.0000;0.5413;3.0671;
1386.3000;0.5405;3.0647;
1386.6000;0.5421;3.0647;
1386.9000;0.5340;3.0408;
1387.2000;0.5372;3.0599;
1387.5000;0.5405;3.0694;
1387.8000;0.5462;3.0790;
1388.1000;0.5421;3.0742;
1388.4000;0.5421;3.0814;
1388.7000;0.5421;3.0814;
1389.0000;0.5421;3.0909;
1389.3000;0.5405;3.0861;
1389.6000;0.5413;3.0861;
1389.9000;0.5381;3.0766;
1390.2000;0.5413;3.0790;
1390.5000;0.5421;3.0671;
1390.8000;0.5413;3.0647;
1391.1000;0.5397;3.0718;
1391.4000;0.5405;3.0718;
1391.7000;0.5429;3.0671;
1392.0000;0.5429;3.0623;
1392.3000;0.5429;3.0694;
1392.6000;0.5495;3.0933;
1392.9000;0.5421;3.0766;
1393.2000;0.5405;3.0623;
1393.5000;0.5446;3.0694;
1393.8000;0.5413;3.0647;
1394.1000;0.5413;3.0647;
1394.4000;0.5446;3.0718;
1394.7000;0.5405;3.0551;
1395.0000;0.5397;3.0527;
1395.3000;0.5429;3.0694;
1395.6000;0.5372;3.0527;
1395.9000;0.5454;3.0718;
1396.2000;0.5405;3.0623;
1396.5000;0.5405;3.0694;
1396.8000;0.5413;3.0718;
1397.1000;0.5421;3.0718;
1397.4000;0.5421;3.0694;
1397.7000;0.5421;3.0647;
1398.0000;0.5405;3.0503;
1398.3000;0.5421;3.0527;
1398.6000;0.5413;3.0480;
1398.9000;0.5421;3.0551;
1399.2000;0.5389;3.0432;
1399.5000;0.5413;3.0503;
1399.8000;0.5421;3.0480;
