time/ms;Fluo/V;P700 deltaI/I x10³;
-199.8000;0.7684;3.1625;
-199.5000;0.7700;3.1649;
-199.2000;0.7700;3.1649;
-198.9000;0.7684;3.1649;
-198.6000;0.7684;3.1601;
-198.3000;0.7709;3.1601;
-198.0000;0.7652;3.1578;
-197.7000;0.7700;3.1697;
-197.4000;0.7684;3.1673;
-197.1000;0.7700;3.1721;
-196.8000;0.7692;3.1649;
-196.5000;0.7717;3.1792;
-196.2000;0.7700;3.1745;
-195.9000;0.7709;3.1697;
-195.6000;0.7717;3.1745;
-195.3000;0.7717;3.1721;
-195.0000;0.7700;3.1745;
-194.7000;0.7700;3.1673;
-194.4000;0.7709;3.1697;
-194.1000;0.7692;3.1649;
-193.8000;0.7733;3.1745;
-193.5000;0.7741;3.1697;
-193.2000;0.7700;3.1625;
-192.9000;0.7733;3.1697;
-192.6000;0.7717;3.1601;
-192.3000;0.7709;3.1530;
-192.0000;0.7709;3.1554;
-191.7000;0.7741;3.1649;
-191.4000;0.7717;3.1601;
-191.1000;0.7700;3.1625;
-190.8000;0.7668;3.1578;
-190.5000;0.7709;3.1649;
-190.2000;0.7709;3.1673;
-189.9000;0.7660;3.1578;
-189.6000;0.7700;3.1697;
-189.3000;0.7700;3.1792;
-189.0000;0.7709;3.1768;
-188.7000;0.7700;3.1768;
-188.4000;0.7709;3.1840;
-188.1000;0.7717;3.1864;
-187.8000;0.7725;3.1864;
-187.5000;0.7700;3.1792;
-187.2000;0.7700;3.1840;
-186.9000;0.7717;3.1840;
-186.6000;0.7700;3.1816;
-186.3000;0.7709;3.1792;
-186.0000;0.7700;3.1912;
-185.7000;0.7668;3.1864;
-185.4000;0.7717;3.1983;
-185.1000;0.7692;3.1959;
-184.8000;0.7709;3.2055;
-184.5000;0.7717;3.1983;
-184.2000;0.7627;3.1792;
-183.9000;0.7709;3.1888;
-183.6000;0.7660;3.1768;
-183.3000;0.7643;3.1625;
-183.0000;0.7684;3.1864;
-182.7000;0.7717;3.1864;
-182.4000;0.7700;3.1792;
-182.1000;0.7700;3.1697;
-181.8000;0.7725;3.1792;
-181.5000;0.7717;3.1792;
-181.2000;0.7700;3.1625;
-180.9000;0.7709;3.1673;
-180.6000;0.7692;3.1673;
-180.3000;0.7700;3.1601;
-180.0000;0.7684;3.1649;
-179.7000;0.7676;3.1554;
-179.4000;0.7692;3.1601;
-179.1000;0.7692;3.1530;
-178.8000;0.7700;3.1530;
-178.5000;0.7717;3.1482;
-178.2000;0.7692;3.1387;
-177.9000;0.7700;3.1434;
-177.6000;0.7684;3.1458;
-177.3000;0.7709;3.1434;
-177.0000;0.7684;3.1339;
-176.7000;0.7725;3.1434;
-176.4000;0.7717;3.1434;
-176.1000;0.7717;3.1410;
-175.8000;0.7717;3.1506;
-175.5000;0.7700;3.1530;
-175.2000;0.7692;3.1506;
-174.9000;0.7717;3.1530;
-174.6000;0.7692;3.1578;
-174.3000;0.7700;3.1601;
-174.0000;0.7709;3.1625;
-173.7000;0.7709;3.1554;
-173.4000;0.7700;3.1506;
-173.1000;0.7684;3.1554;
-172.8000;0.7725;3.1673;
-172.5000;0.7700;3.1601;
-172.2000;0.7684;3.1625;
-171.9000;0.7700;3.1649;
-171.6000;0.7717;3.1721;
-171.3000;0.7643;3.1578;
-171.0000;0.7709;3.1673;
-170.7000;0.7676;3.1697;
-170.4000;0.7692;3.1745;
-170.1000;0.7717;3.1840;
-169.8000;0.7692;3.1816;
-169.5000;0.7692;3.1840;
-169.2000;0.7700;3.1840;
-168.9000;0.7700;3.1912;
-168.6000;0.7709;3.1840;
-168.3000;0.7684;3.1888;
-168.0000;0.7692;3.1864;
-167.7000;0.7700;3.1888;
-167.4000;0.7709;3.1936;
-167.1000;0.7709;3.1864;
-166.8000;0.7749;3.1864;
-166.5000;0.7709;3.1768;
-166.2000;0.7725;3.1816;
-165.9000;0.7709;3.1673;
-165.6000;0.7709;3.1697;
-165.3000;0.7709;3.1578;
-165.0000;0.7709;3.1601;
-164.7000;0.7684;3.1601;
-164.4000;0.7700;3.1601;
-164.1000;0.7676;3.1506;
-163.8000;0.7684;3.1506;
-163.5000;0.7709;3.1649;
-163.2000;0.7660;3.1482;
-162.9000;0.7684;3.1578;
-162.6000;0.7717;3.1601;
-162.3000;0.7700;3.1530;
-162.0000;0.7635;3.1315;
-161.7000;0.7717;3.1530;
-161.4000;0.7717;3.1554;
-161.1000;0.7709;3.1578;
-160.8000;0.7700;3.1554;
-160.5000;0.7709;3.1578;
-160.2000;0.7692;3.1601;
-159.9000;0.7709;3.1578;
-159.6000;0.7692;3.1530;
-159.3000;0.7749;3.1649;
-159.0000;0.7709;3.1554;
-158.7000;0.7700;3.1530;
-158.4000;0.7700;3.1578;
-158.1000;0.7709;3.1506;
-157.8000;0.7676;3.1458;
-157.5000;0.7692;3.1482;
-157.2000;0.7700;3.1458;
-156.9000;0.7692;3.1482;
-156.6000;0.7700;3.1387;
-156.3000;0.7717;3.1387;
-156.0000;0.7749;3.1434;
-155.7000;0.7709;3.1315;
-155.4000;0.7700;3.1339;
-155.1000;0.7676;3.1291;
-154.8000;0.7692;3.1291;
-154.5000;0.7700;3.1410;
-154.2000;0.7684;3.1387;
-153.9000;0.7700;3.1434;
-153.6000;0.7684;3.1410;
-153.3000;0.7700;3.1482;
-153.0000;0.7709;3.1578;
-152.7000;0.7676;3.1434;
-152.4000;0.7709;3.1387;
-152.1000;0.7700;3.1363;
-151.8000;0.7684;3.1410;
-151.5000;0.7709;3.1506;
-151.2000;0.7692;3.1530;
-150.9000;0.7684;3.1506;
-150.6000;0.7700;3.1506;
-150.3000;0.7684;3.1578;
-150.0000;0.7692;3.1554;
-149.7000;0.7717;3.1530;
-149.4000;0.7692;3.1458;
-149.1000;0.7692;3.1458;
-148.8000;0.7676;3.1434;
-148.5000;0.7692;3.1410;
-148.2000;0.7668;3.1458;
-147.9000;0.7684;3.1410;
-147.6000;0.7684;3.1363;
-147.3000;0.7700;3.1434;
-147.0000;0.7684;3.1506;
-146.7000;0.7692;3.1530;
-146.4000;0.7700;3.1506;
-146.1000;0.7717;3.1458;
-145.8000;0.7717;3.1506;
-145.5000;0.7692;3.1434;
-145.2000;0.7692;3.1434;
-144.9000;0.7692;3.1506;
-144.6000;0.7692;3.1482;
-144.3000;0.7684;3.1458;
-144.0000;0.7684;3.1482;
-143.7000;0.7700;3.1434;
-143.4000;0.7700;3.1530;
-143.1000;0.7692;3.1458;
-142.8000;0.7652;3.1482;
-142.5000;0.7684;3.1625;
-142.2000;0.7692;3.1673;
-141.9000;0.7700;3.1673;
-141.6000;0.7700;3.1649;
-141.3000;0.7692;3.1625;
-141.0000;0.7700;3.1649;
-140.7000;0.7692;3.1673;
-140.4000;0.7692;3.1697;
-140.1000;0.7684;3.1554;
-139.8000;0.7717;3.1601;
-139.5000;0.7700;3.1530;
-139.2000;0.7692;3.1530;
-138.9000;0.7782;3.1745;
-138.6000;0.7709;3.1578;
-138.3000;0.7700;3.1625;
-138.0000;0.7700;3.1578;
-137.7000;0.7692;3.1506;
-137.4000;0.7700;3.1554;
-137.1000;0.7717;3.1721;
-136.8000;0.7717;3.1816;
-136.5000;0.7684;3.1721;
-136.2000;0.7684;3.1721;
-135.9000;0.7709;3.1721;
-135.6000;0.7709;3.1673;
-135.3000;0.7700;3.1625;
-135.0000;0.7709;3.1601;
-134.7000;0.7692;3.1578;
-134.4000;0.7700;3.1554;
-134.1000;0.7692;3.1410;
-133.8000;0.7757;3.1601;
-133.5000;0.7709;3.1530;
-133.2000;0.7709;3.1578;
-132.9000;0.7709;3.1601;
-132.6000;0.7700;3.1530;
-132.3000;0.7709;3.1625;
-132.0000;0.7757;3.1768;
-131.7000;0.7700;3.1601;
-131.4000;0.7652;3.1578;
-131.1000;0.7700;3.1673;
-130.8000;0.7757;3.1816;
-130.5000;0.7709;3.1745;
-130.2000;0.7700;3.1673;
-129.9000;0.7749;3.1840;
-129.6000;0.7700;3.1745;
-129.3000;0.7717;3.1816;
-129.0000;0.7733;3.1912;
-128.7000;0.7684;3.1864;
-128.4000;0.7684;3.1888;
-128.1000;0.7709;3.1959;
-127.8000;0.7692;3.1936;
-127.5000;0.7709;3.1840;
-127.2000;0.7660;3.1530;
-126.9000;0.7717;3.1745;
-126.6000;0.7709;3.1601;
-126.3000;0.7692;3.1578;
-126.0000;0.7700;3.1673;
-125.7000;0.7709;3.1601;
-125.4000;0.7700;3.1625;
-125.1000;0.7652;3.1578;
-124.8000;0.7627;3.1506;
-124.5000;0.7692;3.1745;
-124.2000;0.7700;3.1673;
-123.9000;0.7700;3.1649;
-123.6000;0.7652;3.1554;
-123.3000;0.7684;3.1625;
-123.0000;0.7700;3.1697;
-122.7000;0.7692;3.1697;
-122.4000;0.7643;3.1458;
-122.1000;0.7725;3.1625;
-121.8000;0.7709;3.1554;
-121.5000;0.7700;3.1530;
-121.2000;0.7709;3.1530;
-120.9000;0.7700;3.1530;
-120.6000;0.7725;3.1506;
-120.3000;0.7757;3.1649;
-120.0000;0.7709;3.1482;
-119.7000;0.7709;3.1458;
-119.4000;0.7709;3.1530;
-119.1000;0.7684;3.1434;
-118.8000;0.7684;3.1458;
-118.5000;0.7676;3.1530;
-118.2000;0.7700;3.1649;
-117.9000;0.7692;3.1697;
-117.6000;0.7603;3.1506;
-117.3000;0.7692;3.1768;
-117.0000;0.7700;3.1673;
-116.7000;0.7700;3.1673;
-116.4000;0.7757;3.1721;
-116.1000;0.7725;3.1625;
-115.8000;0.7709;3.1625;
-115.5000;0.7749;3.1697;
-115.2000;0.7676;3.1530;
-114.9000;0.7700;3.1506;
-114.6000;0.7700;3.1506;
-114.3000;0.7652;3.1387;
-114.0000;0.7709;3.1578;
-113.7000;0.7700;3.1506;
-113.4000;0.7692;3.1434;
-113.1000;0.7692;3.1482;
-112.8000;0.7733;3.1530;
-112.5000;0.7692;3.1410;
-112.2000;0.7692;3.1482;
-111.9000;0.7709;3.1554;
-111.6000;0.7709;3.1506;
-111.3000;0.7806;3.1673;
-111.0000;0.7700;3.1410;
-110.7000;0.7692;3.1339;
-110.4000;0.7709;3.1363;
-110.1000;0.7709;3.1410;
-109.8000;0.7668;3.1339;
-109.5000;0.7676;3.1291;
-109.2000;0.7668;3.1315;
-108.9000;0.7700;3.1339;
-108.6000;0.7684;3.1315;
-108.3000;0.7709;3.1387;
-108.0000;0.7709;3.1530;
-107.7000;0.7709;3.1554;
-107.4000;0.7717;3.1554;
-107.1000;0.7749;3.1554;
-106.8000;0.7700;3.1554;
-106.5000;0.7798;3.1840;
-106.2000;0.7635;3.1482;
-105.9000;0.7709;3.1673;
-105.6000;0.7684;3.1792;
-105.3000;0.7700;3.1816;
-105.0000;0.7725;3.1816;
-104.7000;0.7757;3.1888;
-104.4000;0.7733;3.1768;
-104.1000;0.7717;3.1768;
-103.8000;0.7660;3.1625;
-103.5000;0.7676;3.1745;
-103.2000;0.7692;3.1721;
-102.9000;0.7798;3.1959;
-102.6000;0.7700;3.1816;
-102.3000;0.7700;3.1792;
-102.0000;0.7668;3.1673;
-101.7000;0.7709;3.1721;
-101.4000;0.7692;3.1745;
-101.1000;0.7676;3.1625;
-100.8000;0.7717;3.1601;
-100.5000;0.7684;3.1625;
-100.2000;0.7749;3.1697;
-99.9000;0.7709;3.1649;
-99.6000;0.7700;3.1697;
-99.3000;0.7733;3.1768;
-99.0000;0.7692;3.1768;
-98.7000;0.7692;3.1768;
-98.4000;0.7692;3.1768;
-98.1000;0.7692;3.1768;
-97.8000;0.7733;3.1792;
-97.5000;0.7725;3.1840;
-97.2000;0.7717;3.1864;
-96.9000;0.7717;3.1864;
-96.6000;0.7749;3.2007;
-96.3000;0.7643;3.1721;
-96.0000;0.7700;3.1864;
-95.7000;0.7700;3.1912;
-95.4000;0.7725;3.1983;
-95.1000;0.7676;3.1983;
-94.8000;0.7700;3.2031;
-94.5000;0.7692;3.1983;
-94.2000;0.7709;3.2031;
-93.9000;0.7700;3.2007;
-93.6000;0.7611;3.1816;
-93.3000;0.7627;3.1792;
-93.0000;0.7692;3.1864;
-92.7000;0.7757;3.1983;
-92.4000;0.7717;3.1816;
-92.1000;0.7700;3.1840;
-91.8000;0.7692;3.1864;
-91.5000;0.7749;3.1983;
-91.2000;0.7717;3.1864;
-90.9000;0.7684;3.1816;
-90.6000;0.7692;3.1745;
-90.3000;0.7709;3.1840;
-90.0000;0.7725;3.1936;
-89.7000;0.7700;3.1840;
-89.4000;0.7692;3.1768;
-89.1000;0.7709;3.1745;
-88.8000;0.7709;3.1745;
-88.5000;0.7692;3.1673;
-88.2000;0.7709;3.1649;
-87.9000;0.7684;3.1601;
-87.6000;0.7692;3.1673;
-87.3000;0.7692;3.1673;
-87.0000;0.7725;3.1745;
-86.7000;0.7635;3.1601;
-86.4000;0.7717;3.1768;
-86.1000;0.7709;3.1768;
-85.8000;0.7684;3.1721;
-85.5000;0.7692;3.1792;
-85.2000;0.7635;3.1625;
-84.9000;0.7709;3.1768;
-84.6000;0.7733;3.1816;
-84.3000;0.7700;3.1697;
-84.0000;0.7709;3.1721;
-83.7000;0.7717;3.1649;
-83.4000;0.7692;3.1554;
-83.1000;0.7717;3.1601;
-82.8000;0.7627;3.1458;
-82.5000;0.7676;3.1601;
-82.2000;0.7676;3.1554;
-81.9000;0.7692;3.1721;
-81.6000;0.7749;3.1888;
-81.3000;0.7709;3.1792;
-81.0000;0.7717;3.1864;
-80.7000;0.7692;3.1840;
-80.4000;0.7717;3.1792;
-80.1000;0.7709;3.1768;
-79.8000;0.7717;3.1721;
-79.5000;0.7692;3.1673;
-79.2000;0.7692;3.1625;
-78.9000;0.7692;3.1649;
-78.6000;0.7717;3.1649;
-78.3000;0.7709;3.1673;
-78.0000;0.7692;3.1601;
-77.7000;0.7700;3.1625;
-77.4000;0.7700;3.1506;
-77.1000;0.7709;3.1434;
-76.8000;0.7676;3.1387;
-76.5000;0.7676;3.1458;
-76.2000;0.7700;3.1554;
-75.9000;0.7709;3.1601;
-75.6000;0.7717;3.1625;
-75.3000;0.7700;3.1625;
-75.0000;0.7709;3.1649;
-74.7000;0.7717;3.1697;
-74.4000;0.7692;3.1673;
-74.1000;0.7700;3.1721;
-73.8000;0.7709;3.1792;
-73.5000;0.7717;3.1888;
-73.2000;0.7709;3.1888;
-72.9000;0.7692;3.1864;
-72.6000;0.7725;3.1816;
-72.3000;0.7692;3.1721;
-72.0000;0.7709;3.1649;
-71.7000;0.7676;3.1601;
-71.4000;0.7676;3.1649;
-71.1000;0.7692;3.1697;
-70.8000;0.7692;3.1649;
-70.5000;0.7717;3.1721;
-70.2000;0.7700;3.1697;
-69.9000;0.7700;3.1721;
-69.6000;0.7717;3.1816;
-69.3000;0.7684;3.1792;
-69.0000;0.7692;3.1721;
-68.7000;0.7700;3.1697;
-68.4000;0.7709;3.1673;
-68.1000;0.7684;3.1601;
-67.8000;0.7700;3.1601;
-67.5000;0.7717;3.1578;
-67.2000;0.7700;3.1601;
-66.9000;0.7709;3.1601;
-66.6000;0.7741;3.1554;
-66.3000;0.7668;3.1410;
-66.0000;0.7700;3.1530;
-65.7000;0.7709;3.1458;
-65.4000;0.7684;3.1363;
-65.1000;0.7725;3.1530;
-64.8000;0.7717;3.1482;
-64.5000;0.7692;3.1387;
-64.2000;0.7676;3.1363;
-63.9000;0.7676;3.1387;
-63.6000;0.7741;3.1625;
-63.3000;0.7676;3.1434;
-63.0000;0.7692;3.1506;
-62.7000;0.7676;3.1554;
-62.4000;0.7700;3.1601;
-62.1000;0.7692;3.1578;
-61.8000;0.7700;3.1625;
-61.5000;0.7660;3.1601;
-61.2000;0.7700;3.1649;
-60.9000;0.7692;3.1601;
-60.6000;0.7692;3.1625;
-60.3000;0.7709;3.1601;
-60.0000;0.7692;3.1554;
-59.7000;0.7692;3.1578;
-59.4000;0.7692;3.1625;
-59.1000;0.7709;3.1649;
-58.8000;0.7684;3.1697;
-58.5000;0.7733;3.1721;
-58.2000;0.7692;3.1625;
-57.9000;0.7684;3.1506;
-57.6000;0.7676;3.1410;
-57.3000;0.7692;3.1434;
-57.0000;0.7692;3.1434;
-56.7000;0.7709;3.1458;
-56.4000;0.7700;3.1410;
-56.1000;0.7700;3.1506;
-55.8000;0.7709;3.1482;
-55.5000;0.7709;3.1506;
-55.2000;0.7684;3.1458;
-54.9000;0.7700;3.1601;
-54.6000;0.7692;3.1554;
-54.3000;0.7692;3.1578;
-54.0000;0.7700;3.1649;
-53.7000;0.7692;3.1697;
-53.4000;0.7709;3.1816;
-53.1000;0.7692;3.1697;
-52.8000;0.7692;3.1673;
-52.5000;0.7692;3.1649;
-52.2000;0.7692;3.1745;
-51.9000;0.7700;3.1816;
-51.6000;0.7692;3.1840;
-51.3000;0.7700;3.1888;
-51.0000;0.7709;3.1816;
-50.7000;0.7700;3.1745;
-50.4000;0.7692;3.1768;
-50.1000;0.7725;3.1816;
-49.8000;0.7684;3.1697;
-49.5000;0.7700;3.1673;
-49.2000;0.7700;3.1721;
-48.9000;0.7700;3.1673;
-48.6000;0.7717;3.1697;
-48.3000;0.7692;3.1625;
-48.0000;0.7709;3.1673;
-47.7000;0.7676;3.1649;
-47.4000;0.7692;3.1697;
-47.1000;0.7700;3.1816;
-46.8000;0.7676;3.1768;
-46.5000;0.7668;3.1721;
-46.2000;0.7684;3.1816;
-45.9000;0.7692;3.1792;
-45.6000;0.7717;3.1840;
-45.3000;0.7717;3.1768;
-45.0000;0.7668;3.1697;
-44.7000;0.7709;3.1792;
-44.4000;0.7709;3.1888;
-44.1000;0.7684;3.1792;
-43.8000;0.7692;3.1768;
-43.5000;0.7684;3.1745;
-43.2000;0.7684;3.1816;
-42.9000;0.7709;3.1816;
-42.6000;0.7692;3.1768;
-42.3000;0.7692;3.1721;
-42.0000;0.7700;3.1745;
-41.7000;0.7692;3.1697;
-41.4000;0.7692;3.1625;
-41.1000;0.7652;3.1482;
-40.8000;0.7700;3.1554;
-40.5000;0.7700;3.1530;
-40.2000;0.7700;3.1434;
-39.9000;0.7692;3.1458;
-39.6000;0.7709;3.1506;
-39.3000;0.7700;3.1458;
-39.0000;0.7709;3.1434;
-38.7000;0.7700;3.1482;
-38.4000;0.7700;3.1578;
-38.1000;0.7709;3.1625;
-37.8000;0.7709;3.1697;
-37.5000;0.7684;3.1625;
-37.2000;0.7692;3.1578;
-36.9000;0.7709;3.1673;
-36.6000;0.7692;3.1697;
-36.3000;0.7692;3.1745;
-36.0000;0.7700;3.1816;
-35.7000;0.7684;3.1768;
-35.4000;0.7709;3.1792;
-35.1000;0.7700;3.1768;
-34.8000;0.7700;3.1697;
-34.5000;0.7717;3.1768;
-34.2000;0.7709;3.1768;
-33.9000;0.7692;3.1673;
-33.6000;0.7684;3.1673;
-33.3000;0.7700;3.1745;
-33.0000;0.7709;3.1888;
-32.7000;0.7692;3.1864;
-32.4000;0.7700;3.1864;
-32.1000;0.7692;3.1864;
-31.8000;0.7692;3.1792;
-31.5000;0.7717;3.1768;
-31.2000;0.7684;3.1745;
-30.9000;0.7692;3.1768;
-30.6000;0.7700;3.1816;
-30.3000;0.7700;3.1888;
-30.0000;0.7700;3.1912;
-29.7000;0.7692;3.1888;
-29.4000;0.7700;3.1888;
-29.1000;0.7709;3.1816;
-28.8000;0.7700;3.1721;
-28.5000;0.7692;3.1697;
-28.2000;0.7692;3.1697;
-27.9000;0.7709;3.1625;
-27.6000;0.7684;3.1578;
-27.3000;0.7676;3.1697;
-27.0000;0.7790;3.2079;
-26.7000;0.7676;3.1816;
-26.4000;0.7700;3.1768;
-26.1000;0.7717;3.1768;
-25.8000;0.7700;3.1745;
-25.5000;0.7692;3.1649;
-25.2000;0.7709;3.1745;
-24.9000;0.7660;3.1721;
-24.6000;0.7692;3.1840;
-24.3000;0.7692;3.1888;
-24.0000;0.7700;3.1840;
-23.7000;0.7692;3.1816;
-23.4000;0.7684;3.1745;
-23.1000;0.7692;3.1768;
-22.8000;0.7692;3.1721;
-22.5000;0.7684;3.1673;
-22.2000;0.7692;3.1745;
-21.9000;0.7684;3.1673;
-21.6000;0.7700;3.1673;
-21.3000;0.7619;3.1578;
-21.0000;0.7700;3.1673;
-20.7000;0.7700;3.1792;
-20.4000;0.7700;3.1768;
-20.1000;0.7700;3.1768;
-19.8000;0.7692;3.1721;
-19.5000;0.7692;3.1721;
-19.2000;0.7700;3.1792;
-18.9000;0.7709;3.1721;
-18.6000;0.7709;3.1745;
-18.3000;0.7709;3.1697;
-18.0000;0.7676;3.1625;
-17.7000;0.7700;3.1673;
-17.4000;0.7700;3.1721;
-17.1000;0.7684;3.1625;
-16.8000;0.7709;3.1721;
-16.5000;0.7806;3.2007;
-16.2000;0.7709;3.1768;
-15.9000;0.7684;3.1697;
-15.6000;0.7700;3.1792;
-15.3000;0.7700;3.1816;
-15.0000;0.7717;3.1816;
-14.7000;0.7700;3.1816;
-14.4000;0.7676;3.1768;
-14.1000;0.7692;3.1792;
-13.8000;0.7692;3.1864;
-13.5000;0.7684;3.1816;
-13.2000;0.7692;3.1912;
-12.9000;0.7684;3.1888;
-12.6000;0.7717;3.1959;
-12.3000;0.7692;3.1840;
-12.0000;0.7692;3.1840;
-11.7000;0.7692;3.1864;
-11.4000;0.7717;3.1888;
-11.1000;0.7717;3.1888;
-10.8000;0.7717;3.1888;
-10.5000;0.7692;3.1792;
-10.2000;0.7692;3.1792;
-9.9000;0.7709;3.1792;
-9.6000;0.7717;3.1864;
-9.3000;0.7692;3.1840;
-9.0000;0.7700;3.1840;
-8.7000;0.7692;3.1840;
-8.4000;0.7757;3.2031;
-8.1000;0.7676;3.1888;
-7.8000;0.7709;3.2007;
-7.5000;0.7700;3.1936;
-7.2000;0.7717;3.1959;
-6.9000;0.7717;3.1912;
-6.6000;0.7660;3.1792;
-6.3000;0.7676;3.1768;
-6.0000;0.7757;3.1959;
-5.7000;0.7692;3.1888;
-5.4000;0.7700;3.1888;
-5.1000;0.7700;3.1840;
-4.8000;0.7855;3.2103;
-4.5000;0.7717;3.1721;
-4.2000;0.7700;3.1673;
-3.9000;0.7692;3.1673;
-3.6000;0.7700;3.1697;
-3.3000;0.7700;3.1625;
-3.0000;0.7709;3.1649;
-2.7000;0.7700;3.1578;
-2.4000;0.7741;3.1721;
-2.1000;0.7676;3.1601;
-1.8000;0.7692;3.1649;
-1.5000;0.7652;3.1601;
-1.2000;0.7700;3.1721;
-0.9000;0.7692;3.1768;
-0.6000;0.7684;3.1721;
-0.3000;0.7643;3.1649;
0.0000;0.7643;3.1649;
0.3000;0.7774;3.1697;
0.6000;0.7896;3.1936;
0.9000;0.8026;3.2270;
1.2000;0.8091;3.2437;
1.5000;0.8181;3.2795;
1.8000;0.8221;3.3033;
2.1000;0.8254;3.3153;
2.4000;0.8295;3.3439;
2.7000;0.8344;3.3678;
3.0000;0.8376;3.3773;
3.3000;0.8392;3.3917;
3.6000;0.8409;3.3940;
3.9000;0.8433;3.4084;
4.2000;0.8490;3.4275;
4.5000;0.8490;3.4251;
4.8000;0.8482;3.4131;
5.1000;0.8490;3.4108;
5.4000;0.8523;3.4108;
5.7000;0.8523;3.4036;
6.0000;0.8482;3.3964;
6.3000;0.8547;3.4131;
6.6000;0.8514;3.3988;
6.9000;0.8563;3.3988;
7.2000;0.8563;3.3988;
7.5000;0.8588;3.3988;
7.8000;0.8539;3.3845;
8.1000;0.8620;3.4084;
8.4000;0.8596;3.3988;
8.7000;0.8645;3.4131;
9.0000;0.8661;3.4131;
9.3000;0.8653;3.4084;
9.6000;0.8669;3.4108;
9.9000;0.8661;3.4131;
10.2000;0.8710;3.4203;
10.5000;0.8677;3.4179;
10.8000;0.8677;3.4155;
11.1000;0.8694;3.4108;
11.4000;0.8734;3.4227;
11.7000;0.8718;3.4227;
12.0000;0.8685;3.4155;
12.3000;0.8685;3.4012;
12.6000;0.8718;3.4036;
12.9000;0.8726;3.3988;
13.2000;0.8751;3.3893;
13.5000;0.8742;3.3773;
13.8000;0.8848;3.4036;
14.1000;0.8759;3.3845;
14.4000;0.8775;3.3940;
14.7000;0.8759;3.3940;
15.0000;0.8791;3.4084;
15.3000;0.8775;3.3964;
15.6000;0.8799;3.4060;
15.9000;0.8767;3.3988;
16.2000;0.8807;3.4060;
16.5000;0.8791;3.4012;
16.8000;0.8816;3.4084;
17.1000;0.8807;3.3988;
17.4000;0.8889;3.4131;
17.7000;0.8807;3.4012;
18.0000;0.8840;3.4131;
18.3000;0.8840;3.4084;
18.6000;0.8848;3.4084;
18.9000;0.8832;3.4155;
19.2000;0.8824;3.4203;
19.5000;0.8832;3.4227;
19.8000;0.8840;3.4203;
20.1000;0.8848;3.4203;
20.4000;0.8791;3.4084;
20.7000;0.8856;3.4203;
21.0000;0.8856;3.4275;
21.3000;0.8775;3.4012;
21.6000;0.8848;3.4227;
21.9000;0.8856;3.4131;
22.2000;0.8816;3.4060;
22.5000;0.8962;3.4370;
22.8000;0.8864;3.4131;
23.1000;0.8889;3.4179;
23.4000;0.8864;3.4179;
23.7000;0.8873;3.4251;
24.0000;0.8881;3.4179;
24.3000;0.8881;3.4155;
24.6000;0.8889;3.4036;
24.9000;0.8921;3.4060;
25.2000;0.8873;3.4012;
25.5000;0.8873;3.3964;
25.8000;0.8881;3.3940;
26.1000;0.8889;3.4012;
26.4000;0.8881;3.3869;
26.7000;0.8905;3.3964;
27.0000;0.8905;3.3940;
27.3000;0.8905;3.3869;
27.6000;0.8897;3.3750;
27.9000;0.8889;3.3654;
28.2000;0.8897;3.3654;
28.5000;0.8938;3.3702;
28.8000;0.8873;3.3535;
29.1000;0.8913;3.3702;
29.4000;0.8930;3.3750;
29.7000;0.8913;3.3821;
30.0000;0.8905;3.3821;
30.3000;0.8921;3.3797;
30.6000;0.8864;3.3726;
30.9000;0.8913;3.3869;
31.2000;0.8930;3.3893;
31.5000;0.8897;3.3821;
31.8000;0.8889;3.3845;
32.1000;0.8954;3.3988;
32.4000;0.8921;3.3893;
32.7000;0.8897;3.3869;
33.0000;0.8897;3.3845;
33.3000;0.8913;3.3845;
33.6000;0.8921;3.3821;
33.9000;0.8930;3.3821;
34.2000;0.8905;3.3726;
34.5000;0.8930;3.3869;
34.8000;0.9027;3.4060;
35.1000;0.8897;3.3773;
35.4000;0.8897;3.3773;
35.7000;0.8946;3.3917;
36.0000;0.8921;3.3893;
36.3000;0.8921;3.3917;
36.6000;0.8930;3.3988;
36.9000;0.8938;3.4131;
37.2000;0.8946;3.4108;
37.5000;0.8938;3.4060;
37.8000;0.8938;3.4012;
38.1000;0.8962;3.4012;
38.4000;0.8954;3.4012;
38.7000;0.8938;3.3988;
39.0000;0.8938;3.3917;
39.3000;0.8954;3.3988;
39.6000;0.8946;3.3964;
39.9000;0.8954;3.4060;
40.2000;0.8930;3.3988;
40.5000;0.8946;3.3940;
40.8000;0.8913;3.3869;
41.1000;0.8921;3.3869;
41.4000;0.8962;3.3917;
41.7000;0.8946;3.3893;
42.0000;0.8930;3.3893;
42.3000;0.8897;3.3773;
42.6000;0.8938;3.3869;
42.9000;0.8897;3.3773;
43.2000;0.8913;3.3797;
43.5000;0.8946;3.3940;
43.8000;0.8938;3.3964;
44.1000;0.8978;3.4012;
44.4000;0.8970;3.3940;
44.7000;0.8938;3.3917;
45.0000;0.8962;3.3988;
45.3000;0.8970;3.4084;
45.6000;0.8938;3.3988;
45.9000;0.8946;3.3988;
46.2000;0.8905;3.3869;
46.5000;0.8938;3.3940;
46.8000;0.8938;3.3940;
47.1000;0.8962;3.4060;
47.4000;0.8970;3.4036;
47.7000;0.8946;3.4012;
48.0000;0.8946;3.4060;
48.3000;0.8946;3.4012;
48.6000;0.8913;3.3964;
48.9000;0.8873;3.3869;
49.2000;0.8954;3.4060;
49.5000;0.8970;3.4060;
49.8000;0.9011;3.4179;
50.1000;0.8954;3.3917;
50.4000;0.8946;3.3845;
50.7000;0.8954;3.3940;
51.0000;0.8954;3.3964;
51.3000;0.8954;3.3917;
51.6000;0.8938;3.4036;
51.9000;0.8864;3.3821;
52.2000;0.8987;3.4108;
52.5000;0.8962;3.4179;
52.8000;0.8962;3.4179;
53.1000;0.8962;3.4108;
53.4000;0.8938;3.4036;
53.7000;0.8978;3.4084;
54.0000;0.8897;3.3845;
54.3000;0.8962;3.4012;
54.6000;0.8954;3.4131;
54.9000;0.8962;3.4155;
55.2000;0.8962;3.4155;
55.5000;0.8978;3.4155;
55.8000;0.8946;3.3964;
56.1000;0.8954;3.3964;
56.4000;0.8962;3.3988;
56.7000;0.8962;3.3988;
57.0000;0.8954;3.3917;
57.3000;0.8954;3.3869;
57.6000;0.8962;3.3940;
57.9000;0.8930;3.3893;
58.2000;0.8954;3.3821;
58.5000;0.8954;3.3917;
58.8000;0.8962;3.3940;
59.1000;0.8946;3.3964;
59.4000;0.8954;3.3940;
59.7000;0.8962;3.4012;
60.0000;0.8954;3.4036;
60.3000;0.8946;3.4012;
60.6000;0.8954;3.3917;
60.9000;0.8946;3.3917;
61.2000;0.8954;3.3773;
61.5000;0.8954;3.3702;
61.8000;0.8954;3.3726;
62.1000;0.8954;3.3750;
62.4000;0.8962;3.3702;
62.7000;0.8962;3.3726;
63.0000;0.8962;3.3726;
63.3000;0.8962;3.3797;
63.6000;0.8962;3.3893;
63.9000;0.8987;3.3917;
64.2000;0.8962;3.3964;
64.5000;0.8946;3.3940;
64.8000;0.8954;3.3988;
65.1000;0.8978;3.4084;
65.4000;0.8962;3.4060;
65.7000;0.8938;3.4036;
66.0000;0.8921;3.3988;
66.3000;0.8954;3.3964;
66.6000;0.8962;3.3940;
66.9000;0.8938;3.3869;
67.2000;0.8946;3.3893;
67.5000;0.8954;3.3940;
67.8000;0.8938;3.3988;
68.1000;0.8930;3.3940;
68.4000;0.8946;3.3940;
68.7000;0.8962;3.4060;
69.0000;0.8962;3.4131;
69.3000;0.8970;3.4179;
69.6000;0.8962;3.4131;
69.9000;0.8962;3.4131;
70.2000;0.8962;3.4060;
70.5000;0.8970;3.3988;
70.8000;0.8946;3.4012;
71.1000;0.8938;3.4036;
71.4000;0.8970;3.4036;
71.7000;0.8962;3.4036;
72.0000;0.8978;3.4108;
72.3000;0.8970;3.4084;
72.6000;0.8978;3.4131;
72.9000;0.8978;3.4155;
73.2000;0.8962;3.4108;
73.5000;0.8962;3.4084;
73.8000;0.8978;3.4060;
74.1000;0.8995;3.4108;
74.4000;0.8954;3.4060;
74.7000;0.8962;3.4036;
75.0000;0.8970;3.4108;
75.3000;0.8970;3.4155;
75.6000;0.8962;3.4179;
75.9000;0.8930;3.4108;
76.2000;0.8970;3.4203;
76.5000;0.8962;3.4108;
76.8000;0.8978;3.4084;
77.1000;0.8954;3.4012;
77.4000;0.8962;3.4012;
77.7000;0.8970;3.4036;
78.0000;0.8930;3.3917;
78.3000;0.8946;3.3988;
78.6000;0.8954;3.3893;
78.9000;0.8987;3.3917;
79.2000;0.8962;3.3940;
79.5000;0.8962;3.3964;
79.8000;0.8954;3.3988;
80.1000;0.8962;3.4108;
80.4000;0.8970;3.4108;
80.7000;0.8962;3.4084;
81.0000;0.8954;3.4012;
81.3000;0.8962;3.4012;
81.6000;0.8970;3.3988;
81.9000;0.8962;3.4012;
82.2000;0.8954;3.4060;
82.5000;0.8970;3.4108;
82.8000;0.8962;3.4179;
83.1000;0.8962;3.4131;
83.4000;0.8946;3.4036;
83.7000;0.8962;3.4084;
84.0000;0.8970;3.4108;
84.3000;0.8962;3.4060;
84.6000;0.8962;3.4108;
84.9000;0.8962;3.4155;
85.2000;0.8970;3.4108;
85.5000;0.8978;3.4084;
85.8000;0.8962;3.4108;
86.1000;0.8938;3.4131;
86.4000;0.8954;3.4131;
86.7000;0.8962;3.4203;
87.0000;0.8946;3.4179;
87.3000;0.8946;3.4131;
87.6000;0.8954;3.4108;
87.9000;0.8970;3.4155;
88.2000;0.8962;3.4108;
88.5000;0.8962;3.4155;
88.8000;0.8970;3.4251;
89.1000;0.8970;3.4251;
89.4000;0.8970;3.4299;
89.7000;0.8954;3.4275;
90.0000;0.8978;3.4203;
90.3000;0.8995;3.4299;
90.6000;0.8987;3.4251;
90.9000;0.8970;3.4251;
91.2000;0.8978;3.4227;
91.5000;0.8930;3.4131;
91.8000;0.8970;3.4299;
92.1000;0.8970;3.4299;
92.4000;0.8946;3.4251;
92.7000;0.8978;3.4346;
93.0000;0.8970;3.4394;
93.3000;0.8954;3.4346;
93.6000;0.8954;3.4275;
93.9000;0.8954;3.4227;
94.2000;0.8970;3.4227;
94.5000;0.8978;3.4227;
94.8000;0.8970;3.4108;
95.1000;0.8962;3.4179;
95.4000;0.8954;3.4203;
95.7000;0.8987;3.4275;
96.0000;0.8962;3.4203;
96.3000;0.8881;3.4108;
96.6000;0.8962;3.4322;
96.9000;0.8970;3.4394;
97.2000;0.8946;3.4322;
97.5000;0.9011;3.4394;
97.8000;0.8954;3.4346;
98.1000;0.8946;3.4275;
98.4000;0.8946;3.4203;
98.7000;0.8954;3.4155;
99.0000;0.8970;3.4179;
99.3000;0.8970;3.4299;
99.6000;0.8905;3.4179;
99.9000;0.8970;3.4299;
100.2000;0.8970;3.4275;
100.5000;0.8970;3.4299;
100.8000;0.8962;3.4394;
101.1000;0.8970;3.4346;
101.4000;0.8962;3.4251;
101.7000;0.8978;3.4346;
102.0000;0.8987;3.4322;
102.3000;0.8954;3.4251;
102.6000;0.8954;3.4227;
102.9000;0.8954;3.4275;
103.2000;0.8962;3.4322;
103.5000;0.8987;3.4394;
103.8000;0.8962;3.4466;
104.1000;0.8954;3.4466;
104.4000;0.9019;3.4633;
104.7000;0.8970;3.4561;
105.0000;0.8946;3.4466;
105.3000;0.8905;3.4179;
105.6000;0.8954;3.4370;
105.9000;0.8962;3.4442;
106.2000;0.8962;3.4418;
106.5000;0.8930;3.4299;
106.8000;0.8962;3.4346;
107.1000;0.8970;3.4299;
107.4000;0.8946;3.4299;
107.7000;0.8954;3.4322;
108.0000;0.8970;3.4394;
108.3000;0.8962;3.4322;
108.6000;0.8954;3.4251;
108.9000;0.8970;3.4227;
109.2000;0.8946;3.4251;
109.5000;0.8978;3.4346;
109.8000;0.8954;3.4370;
110.1000;0.8938;3.4346;
110.4000;0.8970;3.4489;
110.7000;0.8954;3.4442;
111.0000;0.8995;3.4537;
111.3000;0.8954;3.4442;
111.6000;0.8962;3.4466;
111.9000;0.8962;3.4370;
112.2000;0.8978;3.4489;
112.5000;0.8962;3.4394;
112.8000;0.8954;3.4370;
113.1000;0.8954;3.4466;
113.4000;0.8987;3.4657;
113.7000;0.8970;3.4513;
114.0000;0.8954;3.4466;
114.3000;0.8987;3.4466;
114.6000;0.8978;3.4561;
114.9000;0.8962;3.4442;
115.2000;0.8970;3.4489;
115.5000;0.8995;3.4513;
115.8000;0.8978;3.4513;
116.1000;0.9052;3.4680;
116.4000;0.8946;3.4394;
116.7000;0.8970;3.4418;
117.0000;0.8962;3.4442;
117.3000;0.8962;3.4466;
117.6000;0.8881;3.4179;
117.9000;0.8970;3.4322;
118.2000;0.8987;3.4370;
118.5000;0.9060;3.4561;
118.8000;0.8954;3.4370;
119.1000;0.8970;3.4466;
119.4000;0.9027;3.4633;
119.7000;0.8970;3.4466;
120.0000;0.8978;3.4370;
120.3000;0.8962;3.4203;
120.6000;0.8946;3.4084;
120.9000;0.8970;3.4155;
121.2000;0.8970;3.4179;
121.5000;0.8930;3.4203;
121.8000;0.8954;3.4394;
122.1000;0.8970;3.4346;
122.4000;0.8987;3.4418;
122.7000;0.8856;3.4060;
123.0000;0.8930;3.4179;
123.3000;0.9011;3.4322;
123.6000;0.8987;3.4299;
123.9000;0.8946;3.4227;
124.2000;0.8954;3.4227;
124.5000;0.8978;3.4227;
124.8000;0.8962;3.4227;
125.1000;0.8995;3.4227;
125.4000;0.8954;3.4179;
125.7000;0.8938;3.4131;
126.0000;0.8978;3.4227;
126.3000;0.8962;3.4203;
126.6000;0.8962;3.4155;
126.9000;0.8962;3.4155;
127.2000;0.8962;3.4155;
127.5000;0.8946;3.4108;
127.8000;0.8938;3.4155;
128.1000;0.8938;3.4251;
128.4000;0.8970;3.4299;
128.7000;0.8978;3.4322;
129.0000;0.8946;3.4299;
129.3000;0.9003;3.4513;
129.6000;0.8913;3.4275;
129.9000;0.8962;3.4346;
130.2000;0.8970;3.4370;
130.5000;0.8978;3.4370;
130.8000;0.8962;3.4322;
131.1000;0.8946;3.4346;
131.4000;0.8938;3.4227;
131.7000;0.8970;3.4370;
132.0000;0.8995;3.4370;
132.3000;0.8946;3.4227;
132.6000;0.8962;3.4227;
132.9000;0.8962;3.4227;
133.2000;0.8978;3.4275;
133.5000;0.8921;3.4179;
133.8000;0.8962;3.4179;
134.1000;0.8970;3.4227;
134.4000;0.8962;3.4179;
134.7000;0.9019;3.4322;
135.0000;0.8962;3.4251;
135.3000;0.8962;3.4155;
135.6000;0.8938;3.4084;
135.9000;0.8930;3.3964;
136.2000;0.8987;3.4131;
136.5000;0.9011;3.4108;
136.8000;0.9060;3.4251;
137.1000;0.8954;3.4084;
137.4000;0.8921;3.4012;
137.7000;0.8930;3.4036;
138.0000;0.8921;3.4036;
138.3000;0.8970;3.4179;
138.6000;0.8954;3.4155;
138.9000;0.8970;3.4155;
139.2000;0.8954;3.4108;
139.5000;0.8970;3.4275;
139.8000;0.8995;3.4394;
140.1000;0.8995;3.4394;
140.4000;0.9052;3.4537;
140.7000;0.8962;3.4322;
141.0000;0.8987;3.4299;
141.3000;0.8987;3.4179;
141.6000;0.8962;3.4227;
141.9000;0.8962;3.4299;
142.2000;0.8987;3.4346;
142.5000;0.8962;3.4203;
142.8000;0.8987;3.4227;
143.1000;0.8987;3.4227;
143.4000;0.8978;3.4251;
143.7000;0.8938;3.4084;
144.0000;0.8954;3.4131;
144.3000;0.8970;3.4179;
144.6000;0.8987;3.4251;
144.9000;0.8978;3.4203;
145.2000;0.8978;3.4179;
145.5000;0.8913;3.4084;
145.8000;0.8970;3.4227;
146.1000;0.8921;3.4131;
146.4000;0.8978;3.4227;
146.7000;0.8978;3.4227;
147.0000;0.8962;3.4203;
147.3000;0.9027;3.4251;
147.6000;0.8954;3.4108;
147.9000;0.8970;3.4179;
148.2000;0.8897;3.3964;
148.5000;0.8954;3.4179;
148.8000;0.8962;3.4131;
149.1000;0.8913;3.4060;
149.4000;0.8962;3.4108;
149.7000;0.8954;3.3988;
150.0000;0.8905;3.3845;
150.3000;0.8954;3.3964;
150.6000;0.8897;3.3845;
150.9000;0.8970;3.4084;
151.2000;0.8987;3.4179;
151.5000;0.8962;3.4179;
151.8000;0.8962;3.4060;
152.1000;0.9003;3.4108;
152.4000;0.8946;3.4012;
152.7000;0.8970;3.4084;
153.0000;0.8970;3.4108;
153.3000;0.8954;3.4012;
153.6000;0.8978;3.3988;
153.9000;0.8962;3.3988;
154.2000;0.9011;3.4131;
154.5000;0.8987;3.4084;
154.8000;0.8970;3.4131;
155.1000;0.8848;3.3940;
155.4000;0.9003;3.4346;
155.7000;0.8962;3.4322;
156.0000;0.8897;3.4131;
156.3000;0.8946;3.4203;
156.6000;0.8954;3.4227;
156.9000;0.8946;3.4203;
157.2000;0.8987;3.4227;
157.5000;0.8954;3.4131;
157.8000;0.8962;3.4084;
158.1000;0.8962;3.4084;
158.4000;0.8995;3.4155;
158.7000;0.8946;3.4060;
159.0000;0.8978;3.4108;
159.3000;0.8987;3.4108;
159.6000;0.8987;3.4155;
159.9000;0.8930;3.4060;
160.2000;0.9076;3.4370;
160.5000;0.8995;3.4060;
160.8000;0.8954;3.3988;
161.1000;0.8978;3.4108;
161.4000;0.8995;3.4179;
161.7000;0.8978;3.4155;
162.0000;0.8970;3.4227;
162.3000;0.8930;3.4203;
162.6000;0.8970;3.4299;
162.9000;0.8946;3.4251;
163.2000;0.8954;3.4227;
163.5000;0.8938;3.4108;
163.8000;0.8970;3.4131;
164.1000;0.8962;3.4036;
164.4000;0.8921;3.3917;
164.7000;0.8930;3.3988;
165.0000;0.8889;3.3821;
165.3000;0.8970;3.3940;
165.6000;0.8946;3.3940;
165.9000;0.8978;3.3988;
166.2000;0.8954;3.3964;
166.5000;0.8962;3.4012;
166.8000;0.8954;3.4036;
167.1000;0.8954;3.3964;
167.4000;0.8970;3.3964;
167.7000;0.8881;3.3821;
168.0000;0.8970;3.4155;
168.3000;0.8970;3.4155;
168.6000;0.8938;3.4155;
168.9000;0.8954;3.4155;
169.2000;0.8954;3.4108;
169.5000;0.8954;3.4084;
169.8000;0.8978;3.4060;
170.1000;0.8930;3.4036;
170.4000;0.8946;3.4131;
170.7000;0.8921;3.4084;
171.0000;0.8946;3.4155;
171.3000;0.8962;3.4203;
171.6000;0.8970;3.4155;
171.9000;0.8970;3.4227;
172.2000;0.8962;3.4131;
172.5000;0.8946;3.4108;
172.8000;0.8970;3.4227;
173.1000;0.8954;3.4275;
173.4000;0.8946;3.4251;
173.7000;0.8938;3.4275;
174.0000;0.8946;3.4251;
174.3000;0.8954;3.4203;
174.6000;0.8987;3.4299;
174.9000;0.8962;3.4251;
175.2000;0.8954;3.4227;
175.5000;0.8962;3.4322;
175.8000;0.8962;3.4299;
176.1000;0.9011;3.4370;
176.4000;0.8970;3.4322;
176.7000;0.8970;3.4299;
177.0000;0.8978;3.4346;
177.3000;0.8962;3.4299;
177.6000;0.8946;3.4179;
177.9000;0.8962;3.4155;
178.2000;0.8962;3.4131;
178.5000;0.8954;3.4060;
178.8000;0.8946;3.4131;
179.1000;0.8946;3.4084;
179.4000;0.8962;3.4060;
179.7000;0.8970;3.4084;
180.0000;0.8954;3.4108;
180.3000;0.8938;3.4108;
180.6000;0.8954;3.4131;
180.9000;0.8970;3.4227;
181.2000;0.8962;3.4299;
181.5000;0.8962;3.4346;
181.8000;0.8978;3.4394;
182.1000;0.8946;3.4275;
182.4000;0.8970;3.4322;
182.7000;0.8954;3.4275;
183.0000;0.8938;3.4227;
183.3000;0.8962;3.4251;
183.6000;0.8954;3.4299;
183.9000;0.8970;3.4275;
184.2000;0.8946;3.4251;
184.5000;0.8962;3.4155;
184.8000;0.8962;3.4060;
185.1000;0.8954;3.3964;
185.4000;0.8970;3.4012;
185.7000;0.8987;3.4084;
186.0000;0.8954;3.3893;
186.3000;0.8954;3.3821;
186.6000;0.8946;3.3750;
186.9000;0.8962;3.3821;
187.2000;0.8962;3.3869;
187.5000;0.8954;3.3893;
187.8000;0.8954;3.3940;
188.1000;0.8962;3.3964;
188.4000;0.8962;3.3940;
188.7000;0.8930;3.3964;
189.0000;0.8954;3.4060;
189.3000;0.8946;3.4012;
189.6000;0.8954;3.3940;
189.9000;0.9011;3.4036;
190.2000;0.8954;3.3893;
190.5000;0.8946;3.3964;
190.8000;0.8987;3.4084;
191.1000;0.8970;3.3988;
191.4000;0.8946;3.3917;
191.7000;0.8889;3.3845;
192.0000;0.8954;3.4012;
192.3000;0.8938;3.4012;
192.6000;0.8954;3.4060;
192.9000;0.8962;3.4036;
193.2000;0.8938;3.4131;
193.5000;0.8938;3.4155;
193.8000;0.8938;3.3988;
194.1000;0.9035;3.4179;
194.4000;0.8946;3.3893;
194.7000;0.8962;3.3964;
195.0000;0.8954;3.3988;
195.3000;0.8946;3.3988;
195.6000;0.8954;3.3917;
195.9000;0.8970;3.3845;
196.2000;0.8962;3.3797;
196.5000;0.8946;3.3773;
196.8000;0.8946;3.3845;
197.1000;0.8962;3.3917;
197.4000;0.8970;3.3940;
197.7000;0.8954;3.3964;
198.0000;0.8954;3.4012;
198.3000;0.8954;3.3917;
198.6000;0.8970;3.3893;
198.9000;0.8954;3.3869;
199.2000;0.8954;3.3773;
199.5000;0.8970;3.3821;
199.8000;0.8970;3.3797;
200.1000;0.8938;3.3773;
200.4000;0.8946;3.3821;
200.7000;0.8962;3.3917;
201.0000;0.8970;3.3964;
201.3000;0.8962;3.3940;
201.6000;0.8970;3.3917;
201.9000;0.9011;3.4084;
202.2000;0.8946;3.3940;
202.5000;0.8946;3.3988;
202.8000;0.8930;3.4060;
203.1000;0.8954;3.4203;
203.4000;0.8954;3.4275;
203.7000;0.8954;3.4322;
204.0000;0.8946;3.4370;
204.3000;0.8938;3.4346;
204.6000;0.8946;3.4346;
204.9000;0.8930;3.4227;
205.2000;0.8946;3.4251;
205.5000;0.8913;3.4084;
205.8000;0.8938;3.4155;
206.1000;0.8962;3.4227;
206.4000;0.8954;3.4251;
206.7000;0.8946;3.4227;
207.0000;0.8946;3.4251;
207.3000;0.8962;3.4227;
207.6000;0.8938;3.4275;
207.9000;0.8946;3.4203;
208.2000;0.8938;3.4155;
208.5000;0.8946;3.4179;
208.8000;0.8954;3.4227;
209.1000;0.8962;3.4275;
209.4000;0.8946;3.4227;
209.7000;0.8954;3.4179;
210.0000;0.8873;3.3917;
210.3000;0.8954;3.4155;
210.6000;0.8930;3.4060;
210.9000;0.8946;3.4060;
211.2000;0.8946;3.4155;
211.5000;0.9003;3.4251;
211.8000;0.8938;3.4060;
212.1000;0.8913;3.3988;
212.4000;0.8946;3.4060;
212.7000;0.8962;3.4012;
213.0000;0.8930;3.3988;
213.3000;0.8946;3.4060;
213.6000;0.8905;3.3940;
213.9000;0.8946;3.4084;
214.2000;0.8938;3.4108;
214.5000;0.8938;3.4084;
214.8000;0.8946;3.4084;
215.1000;0.8954;3.4036;
215.4000;0.8946;3.4060;
215.7000;0.8962;3.4060;
216.0000;0.8946;3.4036;
216.3000;0.8970;3.4131;
216.6000;0.8946;3.4179;
216.9000;0.8946;3.4179;
217.2000;0.8946;3.4155;
217.5000;0.8946;3.4155;
217.8000;0.8946;3.4155;
218.1000;0.8930;3.4179;
218.4000;0.8930;3.4203;
218.7000;0.8954;3.4179;
219.0000;0.8970;3.4203;
219.3000;0.8954;3.4084;
219.6000;0.8954;3.4036;
219.9000;0.8954;3.4036;
220.2000;0.8954;3.4084;
220.5000;0.8946;3.4108;
220.8000;0.8938;3.4179;
221.1000;0.8946;3.4155;
221.4000;0.8970;3.4227;
221.7000;0.8970;3.4108;
222.0000;0.8946;3.4084;
222.3000;0.8938;3.4060;
222.6000;0.8946;3.4036;
222.9000;0.8938;3.4060;
223.2000;0.8938;3.4108;
223.5000;0.8921;3.4131;
223.8000;0.8954;3.4227;
224.1000;0.8930;3.4227;
224.4000;0.8946;3.4299;
224.7000;0.8954;3.4227;
225.0000;0.8962;3.4299;
225.3000;0.8938;3.4275;
225.6000;0.8913;3.4203;
225.9000;0.8930;3.4275;
226.2000;0.8946;3.4299;
226.5000;0.8905;3.4203;
226.8000;0.8962;3.4370;
227.1000;0.9027;3.4561;
227.4000;0.8889;3.4131;
227.7000;0.8930;3.4227;
228.0000;0.8954;3.4203;
228.3000;0.8962;3.4203;
228.6000;0.8954;3.4060;
228.9000;0.8962;3.4179;
229.2000;0.8954;3.4275;
229.5000;0.8954;3.4299;
229.8000;0.8962;3.4299;
230.1000;0.8954;3.4299;
230.4000;0.8946;3.4418;
230.7000;0.8938;3.4394;
231.0000;0.8946;3.4394;
231.3000;0.8970;3.4442;
231.6000;0.8962;3.4322;
231.9000;0.8930;3.4203;
232.2000;0.8946;3.4251;
232.5000;0.8873;3.4108;
232.8000;0.8921;3.4203;
233.1000;0.8978;3.4251;
233.4000;0.8807;3.3893;
233.7000;0.8970;3.4251;
234.0000;0.8978;3.4227;
234.3000;0.8938;3.4227;
234.6000;0.8954;3.4322;
234.9000;0.8938;3.4251;
235.2000;0.8946;3.4322;
235.5000;0.8954;3.4418;
235.8000;0.9011;3.4561;
236.1000;0.8930;3.4299;
236.4000;0.8962;3.4418;
236.7000;0.8946;3.4418;
237.0000;0.8946;3.4394;
237.3000;0.8930;3.4251;
237.6000;0.8946;3.4203;
237.9000;0.8921;3.4131;
238.2000;0.8954;3.4179;
238.5000;0.8970;3.4227;
238.8000;0.8962;3.4179;
239.1000;0.8954;3.4155;
239.4000;0.8978;3.4131;
239.7000;0.8962;3.4155;
240.0000;0.9019;3.4370;
240.3000;0.8938;3.4179;
240.6000;0.8962;3.4251;
240.9000;0.8954;3.4251;
241.2000;0.8946;3.4203;
241.5000;0.8864;3.4084;
241.8000;0.8954;3.4370;
242.1000;0.8913;3.4179;
242.4000;0.8905;3.4131;
242.7000;0.8962;3.4227;
243.0000;0.8938;3.4227;
243.3000;0.8921;3.4251;
243.6000;0.8962;3.4346;
243.9000;0.8938;3.4346;
244.2000;0.8962;3.4418;
244.5000;0.8962;3.4418;
244.8000;0.8921;3.4322;
245.1000;0.8962;3.4418;
245.4000;0.8938;3.4394;
245.7000;0.8921;3.4418;
246.0000;0.8962;3.4418;
246.3000;0.8946;3.4346;
246.6000;0.8954;3.4346;
246.9000;0.8970;3.4370;
247.2000;0.8873;3.4227;
247.5000;0.8938;3.4251;
247.8000;0.8946;3.4227;
248.1000;0.8962;3.4227;
248.4000;0.8970;3.4275;
248.7000;0.8946;3.4203;
249.0000;0.8946;3.4227;
249.3000;0.8978;3.4370;
249.6000;0.8848;3.4084;
249.9000;0.8930;3.4275;
250.2000;0.8946;3.4322;
250.5000;0.8978;3.4370;
250.8000;0.8946;3.4346;
251.1000;0.8978;3.4346;
251.4000;0.8938;3.4275;
251.7000;0.8978;3.4442;
252.0000;0.8970;3.4442;
252.3000;0.8913;3.4299;
252.6000;0.8938;3.4370;
252.9000;0.8938;3.4299;
253.2000;0.8954;3.4251;
253.5000;0.8970;3.4251;
253.8000;0.8954;3.4155;
254.1000;0.8938;3.4060;
254.4000;0.9003;3.4251;
254.7000;0.8978;3.4203;
255.0000;0.8987;3.4275;
255.3000;0.8987;3.4203;
255.6000;0.8954;3.4131;
255.9000;0.8962;3.4203;
256.2000;0.8889;3.4084;
256.5000;0.8938;3.4227;
256.8000;0.8954;3.4299;
257.1000;0.8962;3.4394;
257.4000;0.8864;3.4179;
257.7000;0.8978;3.4466;
258.0000;0.8930;3.4322;
258.3000;0.8938;3.4275;
258.6000;0.8930;3.4131;
258.9000;0.8938;3.4131;
259.2000;0.8938;3.4131;
259.5000;0.8954;3.4131;
259.8000;0.8946;3.4155;
260.1000;0.8946;3.4251;
260.4000;0.8946;3.4322;
260.7000;0.8987;3.4394;
261.0000;0.8938;3.4179;
261.3000;0.8946;3.4036;
261.6000;0.8954;3.4060;
261.9000;0.8930;3.4084;
262.2000;0.8930;3.4084;
262.5000;0.8946;3.4108;
262.8000;0.8938;3.4108;
263.1000;0.8970;3.4203;
263.4000;0.8946;3.4084;
263.7000;0.8970;3.4084;
264.0000;0.8962;3.4108;
264.3000;0.8921;3.4108;
264.6000;0.8897;3.4084;
264.9000;0.8921;3.4155;
265.2000;0.8946;3.4179;
265.5000;0.8946;3.4179;
265.8000;0.8970;3.4203;
266.1000;0.8954;3.4179;
266.4000;0.8946;3.4155;
266.7000;0.8938;3.4251;
267.0000;0.8954;3.4227;
267.3000;0.8995;3.4346;
267.6000;0.8970;3.4275;
267.9000;0.8962;3.4203;
268.2000;0.8978;3.4155;
268.5000;0.8954;3.4012;
268.8000;0.8938;3.3988;
269.1000;0.8962;3.3988;
269.4000;0.8938;3.3917;
269.7000;0.8938;3.4084;
270.0000;0.8938;3.4108;
270.3000;0.8978;3.4131;
270.6000;0.8995;3.4203;
270.9000;0.8921;3.4108;
271.2000;0.8946;3.4179;
271.5000;0.8954;3.4227;
271.8000;0.8962;3.4275;
272.1000;0.8938;3.4227;
272.4000;0.8946;3.4251;
272.7000;0.8938;3.4227;
273.0000;0.8946;3.4155;
273.3000;0.8946;3.4227;
273.6000;0.8954;3.4275;
273.9000;0.8962;3.4299;
274.2000;0.8921;3.4203;
274.5000;0.8938;3.4179;
274.8000;0.8962;3.4203;
275.1000;0.8970;3.4155;
275.4000;0.8954;3.4108;
275.7000;0.8954;3.4155;
276.0000;0.8962;3.4036;
276.3000;0.8987;3.4036;
276.6000;0.8970;3.4036;
276.9000;0.8946;3.4060;
277.2000;0.8921;3.3964;
277.5000;0.8938;3.4012;
277.8000;0.8946;3.3988;
278.1000;0.8946;3.3940;
278.4000;0.8987;3.4060;
278.7000;0.8913;3.3940;
279.0000;0.8938;3.4060;
279.3000;0.8921;3.4012;
279.6000;0.8946;3.4060;
279.9000;0.8938;3.4084;
280.2000;0.8921;3.3940;
280.5000;0.8938;3.3988;
280.8000;0.8946;3.4036;
281.1000;0.8954;3.4012;
281.4000;0.8930;3.4012;
281.7000;0.8962;3.4012;
282.0000;0.8938;3.3964;
282.3000;0.8921;3.3964;
282.6000;0.8962;3.4012;
282.9000;0.8946;3.3988;
283.2000;0.8938;3.3988;
283.5000;0.8954;3.4036;
283.8000;0.8954;3.4060;
284.1000;0.8938;3.4108;
284.4000;0.8946;3.4131;
284.7000;0.8987;3.4251;
285.0000;0.8946;3.4179;
285.3000;0.8946;3.4227;
285.6000;0.8938;3.4179;
285.9000;0.8938;3.4203;
286.2000;0.8856;3.3964;
286.5000;0.8946;3.4155;
286.8000;0.8938;3.4131;
287.1000;0.8946;3.4155;
287.4000;0.8938;3.4227;
287.7000;0.8954;3.4275;
288.0000;0.8938;3.4275;
288.3000;0.8930;3.4418;
288.6000;0.8946;3.4442;
288.9000;0.8938;3.4394;
289.2000;0.8913;3.4370;
289.5000;0.8938;3.4466;
289.8000;0.8938;3.4489;
290.1000;0.8962;3.4466;
290.4000;0.8930;3.4322;
290.7000;0.8954;3.4275;
291.0000;0.8938;3.4227;
291.3000;0.8954;3.4227;
291.6000;0.8938;3.4179;
291.9000;0.8930;3.4155;
292.2000;0.8954;3.4155;
292.5000;0.8930;3.4108;
292.8000;0.8946;3.4155;
293.1000;0.8930;3.4155;
293.4000;0.8905;3.4108;
293.7000;0.8938;3.4131;
294.0000;0.8946;3.4131;
294.3000;0.8946;3.4012;
294.6000;0.8938;3.3940;
294.9000;0.8938;3.3964;
295.2000;0.8962;3.4060;
295.5000;0.8954;3.4084;
295.8000;0.8946;3.4084;
296.1000;0.8954;3.4131;
296.4000;0.8962;3.4131;
296.7000;0.8946;3.4060;
297.0000;0.8930;3.4036;
297.3000;0.8938;3.4036;
297.6000;0.8946;3.3964;
297.9000;0.8938;3.4036;
298.2000;0.8938;3.4060;
298.5000;0.8938;3.4203;
298.8000;0.8881;3.4108;
299.1000;0.8938;3.4227;
299.4000;0.8946;3.4227;
299.7000;0.8954;3.4084;
300.0000;0.8938;3.4012;
300.3000;0.8954;3.4131;
300.6000;0.8938;3.4108;
300.9000;0.8930;3.4108;
301.2000;0.8938;3.4108;
301.5000;0.8938;3.4084;
301.8000;0.8938;3.4084;
302.1000;0.8946;3.4084;
302.4000;0.8954;3.4108;
302.7000;0.8954;3.4084;
303.0000;0.8946;3.4084;
303.3000;0.8938;3.4060;
303.6000;0.8938;3.3988;
303.9000;0.8946;3.3964;
304.2000;0.8970;3.3988;
304.5000;0.8938;3.3845;
304.8000;0.8938;3.3797;
305.1000;0.8954;3.3869;
305.4000;0.8946;3.3940;
305.7000;0.8930;3.3940;
306.0000;0.8930;3.3988;
306.3000;0.8905;3.3893;
306.6000;0.8938;3.4012;
306.9000;0.8946;3.4108;
307.2000;0.8938;3.4036;
307.5000;0.8946;3.4108;
307.8000;0.8954;3.4155;
308.1000;0.8938;3.4179;
308.4000;0.8930;3.4108;
308.7000;0.8930;3.4131;
309.0000;0.8930;3.4203;
309.3000;0.8938;3.4251;
309.6000;0.8938;3.4203;
309.9000;0.8938;3.4155;
310.2000;0.8930;3.3988;
310.5000;0.8946;3.4012;
310.8000;0.8954;3.3964;
311.1000;0.8970;3.4012;
311.4000;0.8938;3.3845;
311.7000;0.8946;3.3869;
312.0000;0.8946;3.3917;
312.3000;0.8881;3.3750;
312.6000;0.8938;3.3869;
312.9000;0.8954;3.3893;
313.2000;0.8938;3.3940;
313.5000;0.8938;3.3917;
313.8000;0.8938;3.3917;
314.1000;0.8938;3.3940;
314.4000;0.8946;3.4012;
314.7000;0.8938;3.3964;
315.0000;0.8938;3.3940;
315.3000;0.8946;3.3988;
315.6000;0.8946;3.4036;
315.9000;0.8946;3.3988;
316.2000;0.8946;3.3893;
316.5000;0.8954;3.3917;
316.8000;0.8873;3.3821;
317.1000;0.8946;3.4036;
317.4000;0.8954;3.4084;
317.7000;0.8946;3.4012;
318.0000;0.8938;3.4036;
318.3000;0.8938;3.3940;
318.6000;0.8921;3.3964;
318.9000;0.8930;3.4084;
319.2000;0.8946;3.4179;
319.5000;0.8930;3.4131;
319.8000;0.8954;3.4131;
320.1000;0.8962;3.4131;
320.4000;0.8946;3.4108;
320.7000;0.8954;3.4131;
321.0000;0.8954;3.4131;
321.3000;0.8938;3.4131;
321.6000;0.8930;3.4131;
321.9000;0.8913;3.4012;
322.2000;0.8954;3.4060;
322.5000;0.8938;3.4131;
322.8000;0.8970;3.4227;
323.1000;0.8946;3.4251;
323.4000;0.8938;3.4155;
323.7000;0.8978;3.4179;
324.0000;0.8970;3.4203;
324.3000;0.8930;3.4108;
324.6000;0.8946;3.4036;
324.9000;0.8864;3.3773;
325.2000;0.8938;3.3988;
325.5000;0.8946;3.4060;
325.8000;0.8978;3.4108;
326.1000;0.8946;3.3964;
326.4000;0.8921;3.3964;
326.7000;0.8938;3.3988;
327.0000;0.8962;3.4012;
327.3000;0.8987;3.4084;
327.6000;0.8954;3.3893;
327.9000;0.8930;3.3893;
328.2000;0.8930;3.3988;
328.5000;0.8938;3.4084;
328.8000;0.8938;3.4036;
329.1000;0.8913;3.3988;
329.4000;0.8954;3.3940;
329.7000;0.8946;3.3917;
330.0000;0.8913;3.3869;
330.3000;0.8954;3.3940;
330.6000;0.8930;3.3869;
330.9000;0.9011;3.4155;
331.2000;0.8954;3.4012;
331.5000;0.8946;3.3964;
331.8000;0.8946;3.3917;
332.1000;0.8995;3.4060;
332.4000;0.8954;3.3988;
332.7000;0.8938;3.4060;
333.0000;0.8938;3.4108;
333.3000;0.8954;3.4084;
333.6000;0.8938;3.4108;
333.9000;0.8946;3.4108;
334.2000;0.8938;3.4036;
334.5000;0.8938;3.4012;
334.8000;0.8938;3.4036;
335.1000;0.8954;3.4108;
335.4000;0.8954;3.4179;
335.7000;0.8938;3.4179;
336.0000;0.8938;3.4179;
336.3000;0.8946;3.4131;
336.6000;0.8946;3.4108;
336.9000;0.8946;3.4084;
337.2000;0.8962;3.4203;
337.5000;0.8938;3.4251;
337.8000;0.8954;3.4203;
338.1000;0.8946;3.4131;
338.4000;0.8938;3.4060;
338.7000;0.8946;3.4084;
339.0000;0.9003;3.4155;
339.3000;0.8946;3.4012;
339.6000;0.8946;3.4012;
339.9000;0.8946;3.3988;
340.2000;0.8954;3.3988;
340.5000;0.8881;3.3750;
340.8000;0.8905;3.3773;
341.1000;0.8938;3.3988;
341.4000;0.8954;3.4108;
341.7000;0.8946;3.4084;
342.0000;0.8978;3.4251;
342.3000;0.8946;3.4155;
342.6000;0.8954;3.4179;
342.9000;0.8938;3.4131;
343.2000;0.8938;3.4012;
343.5000;0.8978;3.4012;
343.8000;0.8938;3.3893;
344.1000;0.9044;3.4155;
344.4000;0.8938;3.3964;
344.7000;0.8938;3.4012;
345.0000;0.8970;3.4131;
345.3000;0.8954;3.4060;
345.6000;0.8921;3.3940;
345.9000;0.8946;3.3964;
346.2000;0.8930;3.3797;
346.5000;0.8946;3.3869;
346.8000;0.8946;3.3821;
347.1000;0.9003;3.3964;
347.4000;0.8930;3.3797;
347.7000;0.8930;3.3845;
348.0000;0.8930;3.3893;
348.3000;0.8995;3.4131;
348.6000;0.8913;3.3893;
348.9000;0.8946;3.3893;
349.2000;0.8938;3.3869;
349.5000;0.8930;3.3773;
349.8000;0.8930;3.3702;
350.1000;0.9044;3.3964;
350.4000;0.8930;3.3654;
350.7000;0.8921;3.3678;
351.0000;0.8946;3.3726;
351.3000;0.8978;3.3773;
351.6000;0.8913;3.3606;
351.9000;0.8889;3.3654;
352.2000;0.8946;3.3726;
352.5000;0.8954;3.3654;
352.8000;0.8856;3.3392;
353.1000;0.8921;3.3559;
353.4000;0.8938;3.3582;
353.7000;0.8930;3.3511;
354.0000;0.8864;3.3368;
354.3000;0.8913;3.3630;
354.6000;0.8938;3.3773;
354.9000;0.8938;3.3797;
355.2000;0.8970;3.3773;
355.5000;0.8946;3.3750;
355.8000;0.8897;3.3654;
356.1000;0.8905;3.3750;
356.4000;0.8881;3.3702;
356.7000;0.8946;3.3869;
357.0000;0.8946;3.3917;
357.3000;0.8938;3.3917;
357.6000;0.8970;3.3940;
357.9000;0.8938;3.3797;
358.2000;0.8930;3.3821;
358.5000;0.8881;3.3630;
358.8000;0.8938;3.3845;
359.1000;0.8938;3.3893;
359.4000;0.8930;3.3893;
359.7000;0.8930;3.3988;
360.0000;0.8938;3.3988;
360.3000;0.8938;3.3964;
360.6000;0.8938;3.3940;
360.9000;0.8913;3.3940;
361.2000;0.8930;3.3940;
361.5000;0.8946;3.3845;
361.8000;0.8962;3.3845;
362.1000;0.8905;3.3773;
362.4000;0.8913;3.3845;
362.7000;0.8938;3.3869;
363.0000;0.8921;3.3702;
363.3000;0.8913;3.3750;
363.6000;0.8930;3.3845;
363.9000;0.8954;3.3821;
364.2000;0.8921;3.3797;
364.5000;0.8913;3.3726;
364.8000;0.8938;3.3750;
365.1000;0.8938;3.3654;
365.4000;0.8913;3.3630;
365.7000;0.8946;3.3606;
366.0000;0.8938;3.3678;
366.3000;0.8946;3.3654;
366.6000;0.8962;3.3654;
366.9000;0.8938;3.3678;
367.2000;0.8889;3.3606;
367.5000;0.8930;3.3750;
367.8000;0.8946;3.3750;
368.1000;0.8946;3.3750;
368.4000;0.8930;3.3750;
368.7000;0.8921;3.3750;
369.0000;0.8946;3.3845;
369.3000;0.8954;3.3964;
369.6000;0.8938;3.4012;
369.9000;0.8930;3.4036;
370.2000;0.8913;3.4084;
370.5000;0.8930;3.4131;
370.8000;0.8938;3.4060;
371.1000;0.8978;3.4108;
371.4000;0.8954;3.3988;
371.7000;0.8881;3.3821;
372.0000;0.8930;3.3940;
372.3000;0.8930;3.3893;
372.6000;0.8938;3.3940;
372.9000;0.8930;3.3988;
373.2000;0.8946;3.3964;
373.5000;0.8946;3.3940;
373.8000;0.8897;3.3940;
374.1000;0.8946;3.4060;
374.4000;0.8930;3.4084;
374.7000;0.8946;3.4108;
375.0000;0.8938;3.4084;
375.3000;0.8938;3.4060;
375.6000;0.8946;3.4108;
375.9000;0.8938;3.4060;
376.2000;0.8938;3.4060;
376.5000;0.8946;3.4036;
376.8000;0.8938;3.3964;
377.1000;0.8930;3.3988;
377.4000;0.8930;3.3917;
377.7000;0.8938;3.3964;
378.0000;0.8921;3.3940;
378.3000;0.8946;3.3893;
378.6000;0.8962;3.3964;
378.9000;0.8930;3.3940;
379.2000;0.8905;3.3940;
379.5000;0.8930;3.4060;
379.8000;0.8930;3.4108;
380.1000;0.8930;3.4036;
380.4000;0.8946;3.4036;
380.7000;0.8978;3.4131;
381.0000;0.8905;3.3940;
381.3000;0.8930;3.3940;
381.6000;0.8962;3.3845;
381.9000;0.8954;3.3750;
382.2000;0.8913;3.3750;
382.5000;0.8913;3.3797;
382.8000;0.8946;3.3893;
383.1000;0.8930;3.3893;
383.4000;0.8930;3.3893;
383.7000;0.8905;3.3845;
384.0000;0.8930;3.3940;
384.3000;0.8970;3.4060;
384.6000;0.8930;3.3988;
384.9000;0.8913;3.3988;
385.2000;0.8889;3.3917;
385.5000;0.8962;3.4060;
385.8000;0.8938;3.3988;
386.1000;0.8930;3.3940;
386.4000;0.8938;3.4036;
386.7000;0.8938;3.4084;
387.0000;0.8938;3.4060;
387.3000;0.8930;3.4108;
387.6000;0.8946;3.4203;
387.9000;0.8946;3.4179;
388.2000;0.8938;3.4084;
388.5000;0.8913;3.3964;
388.8000;0.8946;3.4108;
389.1000;0.8938;3.4131;
389.4000;0.8938;3.4060;
389.7000;0.8938;3.4084;
390.0000;0.8930;3.4155;
390.3000;0.8930;3.4155;
390.6000;0.8938;3.4084;
390.9000;0.8930;3.4108;
391.2000;0.8930;3.4108;
391.5000;0.8930;3.4155;
391.8000;0.8938;3.4155;
392.1000;0.8946;3.4131;
392.4000;0.8995;3.4203;
392.7000;0.8946;3.4131;
393.0000;0.8938;3.4131;
393.3000;0.8938;3.4155;
393.6000;0.8921;3.4084;
393.9000;0.8913;3.4036;
394.2000;0.8913;3.4084;
394.5000;0.8921;3.4155;
394.8000;0.8897;3.4084;
395.1000;0.8938;3.4131;
395.4000;0.8921;3.4155;
395.7000;0.8930;3.4203;
396.0000;0.8905;3.4155;
396.3000;0.8930;3.4227;
396.6000;0.8921;3.4227;
396.9000;0.8946;3.4203;
397.2000;0.8946;3.4203;
397.5000;0.8930;3.4203;
397.8000;0.8938;3.4203;
398.1000;0.8938;3.4155;
398.4000;0.8938;3.4084;
398.7000;0.8938;3.4131;
399.0000;0.8921;3.4084;
399.3000;0.8930;3.4108;
399.6000;0.8938;3.4108;
399.9000;0.8930;3.4012;
400.2000;0.8946;3.4036;
400.5000;0.8946;3.4131;
400.8000;0.8930;3.4108;
401.1000;0.8921;3.4060;
401.4000;0.8930;3.4203;
401.7000;0.8938;3.4131;
402.0000;0.8938;3.4179;
402.3000;0.8938;3.4227;
402.6000;0.8930;3.4275;
402.9000;0.8930;3.4275;
403.2000;0.8913;3.4299;
403.5000;0.8921;3.4322;
403.8000;0.8930;3.4346;
404.1000;0.8905;3.4227;
404.4000;0.8921;3.4155;
404.7000;0.8905;3.4131;
405.0000;0.8913;3.4227;
405.3000;0.8930;3.4155;
405.6000;0.8913;3.4036;
405.9000;0.8946;3.4108;
406.2000;0.8921;3.4084;
406.5000;0.8921;3.4131;
406.8000;0.8889;3.4036;
407.1000;0.8946;3.4251;
407.4000;0.8938;3.4155;
407.7000;0.8921;3.4060;
408.0000;0.8938;3.4084;
408.3000;0.8930;3.4060;
408.6000;0.8930;3.4084;
408.9000;0.8921;3.4108;
409.2000;0.8930;3.4155;
409.5000;0.8938;3.4275;
409.8000;0.8921;3.4299;
410.1000;0.8930;3.4299;
410.4000;0.8930;3.4203;
410.7000;0.8954;3.4155;
411.0000;0.8946;3.4155;
411.3000;0.8930;3.4084;
411.6000;0.8938;3.4084;
411.9000;0.8930;3.4108;
412.2000;0.8938;3.4131;
412.5000;0.8938;3.4203;
412.8000;0.8930;3.4203;
413.1000;0.8930;3.4251;
413.4000;0.8930;3.4275;
413.7000;0.8921;3.4251;
414.0000;0.8930;3.4251;
414.3000;0.8930;3.4251;
414.6000;0.8913;3.4203;
414.9000;0.8978;3.4370;
415.2000;0.8913;3.4275;
415.5000;0.8913;3.4275;
415.8000;0.8930;3.4251;
416.1000;0.8930;3.4227;
416.4000;0.8938;3.4155;
416.7000;0.8921;3.4108;
417.0000;0.8938;3.4179;
417.3000;0.8913;3.4155;
417.6000;0.8930;3.4275;
417.9000;0.8946;3.4251;
418.2000;0.8946;3.4179;
418.5000;0.8930;3.4108;
418.8000;0.8938;3.4036;
419.1000;0.8921;3.4060;
419.4000;0.8913;3.4108;
419.7000;0.8930;3.4131;
420.0000;0.8913;3.4179;
420.3000;0.8913;3.4251;
420.6000;0.8921;3.4251;
420.9000;0.8921;3.4251;
421.2000;0.8938;3.4275;
421.5000;0.8938;3.4227;
421.8000;0.8938;3.4322;
422.1000;0.8946;3.4322;
422.4000;0.8930;3.4346;
422.7000;0.8938;3.4227;
423.0000;0.8840;3.4012;
423.3000;0.8938;3.4275;
423.6000;0.8946;3.4299;
423.9000;0.8938;3.4275;
424.2000;0.8930;3.4275;
424.5000;0.8930;3.4227;
424.8000;0.8946;3.4155;
425.1000;0.8946;3.4203;
425.4000;0.8930;3.4131;
425.7000;0.8938;3.4179;
426.0000;0.8946;3.4155;
426.3000;0.8930;3.4084;
426.6000;0.8946;3.4084;
426.9000;0.8930;3.4036;
427.2000;0.8946;3.4084;
427.5000;0.8946;3.4084;
427.8000;0.8930;3.4131;
428.1000;0.8930;3.4131;
428.4000;0.8930;3.4108;
428.7000;0.8930;3.4227;
429.0000;0.8938;3.4203;
429.3000;0.8930;3.4251;
429.6000;0.8938;3.4227;
429.9000;0.8978;3.4346;
430.2000;0.8938;3.4227;
430.5000;0.8930;3.4179;
430.8000;0.8930;3.4131;
431.1000;0.8938;3.4108;
431.4000;0.8946;3.4155;
431.7000;0.8938;3.4203;
432.0000;0.8921;3.4203;
432.3000;0.8889;3.4131;
432.6000;0.8954;3.4227;
432.9000;0.8921;3.4155;
433.2000;0.8954;3.4251;
433.5000;0.8921;3.4155;
433.8000;0.8938;3.4203;
434.1000;0.8930;3.4179;
434.4000;0.8930;3.4108;
434.7000;0.8938;3.4108;
435.0000;0.8881;3.4012;
435.3000;0.8921;3.4084;
435.6000;0.8913;3.4108;
435.9000;0.8954;3.4108;
436.2000;0.8921;3.4036;
436.5000;0.8913;3.3964;
436.8000;0.8930;3.4084;
437.1000;0.8921;3.4036;
437.4000;0.8930;3.4084;
437.7000;0.8946;3.4108;
438.0000;0.9011;3.4227;
438.3000;0.8913;3.4084;
438.6000;0.8921;3.4084;
438.9000;0.8930;3.4179;
439.2000;0.8930;3.4179;
439.5000;0.8921;3.4227;
439.8000;0.8864;3.4108;
440.1000;0.8930;3.4227;
440.4000;0.8946;3.4155;
440.7000;0.8930;3.4203;
441.0000;0.8921;3.4203;
441.3000;0.8938;3.4131;
441.6000;0.8938;3.4108;
441.9000;0.8938;3.4131;
442.2000;0.8921;3.4108;
442.5000;0.8930;3.4108;
442.8000;0.8930;3.4084;
443.1000;0.8938;3.4108;
443.4000;0.8913;3.4131;
443.7000;0.8938;3.4179;
444.0000;0.8881;3.4179;
444.3000;0.8930;3.4275;
444.6000;0.8930;3.4203;
444.9000;0.8913;3.4131;
445.2000;0.8930;3.4131;
445.5000;0.8921;3.4155;
445.8000;0.8921;3.4108;
446.1000;0.8930;3.4060;
446.4000;0.8954;3.4131;
446.7000;0.8938;3.4036;
447.0000;0.8938;3.4036;
447.3000;0.8930;3.3988;
447.6000;0.8889;3.3893;
447.9000;0.8946;3.4060;
448.2000;0.8856;3.3821;
448.5000;0.8938;3.4084;
448.8000;0.8946;3.4108;
449.1000;0.8946;3.3940;
449.4000;0.8921;3.3893;
449.7000;0.8930;3.3893;
450.0000;0.8938;3.3869;
450.3000;0.8930;3.3893;
450.6000;0.8921;3.3821;
450.9000;0.8938;3.3773;
451.2000;0.8946;3.3821;
451.5000;0.8930;3.3797;
451.8000;0.8930;3.3821;
452.1000;0.8913;3.3869;
452.4000;0.8921;3.3869;
452.7000;0.8930;3.3845;
453.0000;0.8930;3.3869;
453.3000;0.9019;3.4060;
453.6000;0.8930;3.3773;
453.9000;0.8913;3.3797;
454.2000;0.8938;3.3893;
454.5000;0.8930;3.3940;
454.8000;0.8938;3.3940;
455.1000;0.8930;3.3917;
455.4000;0.8873;3.3821;
455.7000;0.8913;3.3821;
456.0000;0.8913;3.3845;
456.3000;0.8938;3.3917;
456.6000;0.8954;3.3940;
456.9000;0.8921;3.3964;
457.2000;0.8938;3.3988;
457.5000;0.8938;3.4060;
457.8000;0.8930;3.4084;
458.1000;0.8938;3.4084;
458.4000;0.8930;3.4012;
458.7000;0.8921;3.3964;
459.0000;0.8873;3.3845;
459.3000;0.8913;3.3988;
459.6000;0.8881;3.3845;
459.9000;0.8930;3.3917;
460.2000;0.8921;3.3964;
460.5000;0.8946;3.3940;
460.8000;0.8930;3.3893;
461.1000;0.8962;3.4036;
461.4000;0.8921;3.3940;
461.7000;0.8946;3.3988;
462.0000;0.8995;3.4251;
462.3000;0.8930;3.4131;
462.6000;0.9003;3.4346;
462.9000;0.8930;3.4131;
463.2000;0.8921;3.4108;
463.5000;0.8832;3.3940;
463.8000;0.8905;3.4131;
464.1000;0.8930;3.4179;
464.4000;0.8889;3.4060;
464.7000;0.8946;3.4060;
465.0000;0.8905;3.4012;
465.3000;0.8913;3.4036;
465.6000;0.8938;3.4179;
465.9000;0.9003;3.4370;
466.2000;0.8930;3.4179;
466.5000;0.8913;3.4203;
466.8000;0.8930;3.4275;
467.1000;0.9019;3.4418;
467.4000;0.8938;3.4179;
467.7000;0.8921;3.4179;
468.0000;0.8921;3.4155;
468.3000;0.8970;3.4203;
468.6000;0.8995;3.4203;
468.9000;0.8905;3.3917;
469.2000;0.8913;3.3917;
469.5000;0.9003;3.4179;
469.8000;0.8873;3.3821;
470.1000;0.8913;3.3940;
470.4000;0.8921;3.3940;
470.7000;0.8905;3.3964;
471.0000;0.8938;3.4084;
471.3000;0.8848;3.3893;
471.6000;0.8970;3.4179;
471.9000;0.8946;3.4131;
472.2000;0.8946;3.4155;
472.5000;0.8938;3.4155;
472.8000;0.8930;3.4131;
473.1000;0.8946;3.4179;
473.4000;0.8978;3.4322;
473.7000;0.8938;3.4251;
474.0000;0.8962;3.4227;
474.3000;0.8938;3.4203;
474.6000;0.8930;3.4203;
474.9000;0.8921;3.4155;
475.2000;0.8905;3.4203;
475.5000;0.8954;3.4227;
475.8000;0.8913;3.4060;
476.1000;0.8946;3.4060;
476.4000;0.8921;3.4131;
476.7000;0.8921;3.4179;
477.0000;0.8930;3.4203;
477.3000;0.8913;3.4108;
477.6000;0.8897;3.4012;
477.9000;0.8913;3.4084;
478.2000;0.8897;3.4108;
478.5000;0.8930;3.4203;
478.8000;0.8930;3.4251;
479.1000;0.8930;3.4179;
479.4000;0.8897;3.4275;
479.7000;0.8938;3.4394;
480.0000;0.8946;3.4346;
480.3000;0.8897;3.4155;
480.6000;0.8921;3.4131;
480.9000;0.8921;3.4179;
481.2000;0.8897;3.4203;
481.5000;0.8816;3.4108;
481.8000;0.8930;3.4299;
482.1000;0.8913;3.4275;
482.4000;0.8930;3.4179;
482.7000;0.8930;3.4155;
483.0000;0.8987;3.4299;
483.3000;0.8930;3.4227;
483.6000;0.8913;3.4179;
483.9000;0.8913;3.4251;
484.2000;0.8921;3.4251;
484.5000;0.8946;3.4275;
484.8000;0.8905;3.4131;
485.1000;0.8921;3.4251;
485.4000;0.8913;3.4203;
485.7000;0.8946;3.4227;
486.0000;0.8938;3.4179;
486.3000;0.8930;3.4155;
486.6000;0.8921;3.4155;
486.9000;0.8946;3.4155;
487.2000;0.8930;3.4203;
487.5000;0.8881;3.4179;
487.8000;0.8897;3.4108;
488.1000;0.8897;3.4179;
488.4000;0.8954;3.4299;
488.7000;0.8913;3.4179;
489.0000;0.8954;3.4275;
489.3000;0.8930;3.4227;
489.6000;0.8930;3.4251;
489.9000;0.8938;3.4251;
490.2000;0.8897;3.4131;
490.5000;0.8938;3.4155;
490.8000;0.8930;3.4084;
491.1000;0.8905;3.4012;
491.4000;0.8930;3.4108;
491.7000;0.8897;3.4060;
492.0000;0.8930;3.4131;
492.3000;0.8930;3.4155;
492.6000;0.8889;3.3940;
492.9000;0.8938;3.3988;
493.2000;0.8921;3.3797;
493.5000;0.8930;3.3845;
493.8000;0.8938;3.3845;
494.1000;0.8913;3.3893;
494.4000;0.8921;3.3964;
494.7000;0.8905;3.3917;
495.0000;0.8930;3.4012;
495.3000;0.8970;3.4036;
495.6000;0.8930;3.4012;
495.9000;0.8938;3.3988;
496.2000;0.8881;3.3821;
496.5000;0.8921;3.3917;
496.8000;0.8913;3.3988;
497.1000;0.8889;3.3964;
497.4000;0.8921;3.4108;
497.7000;0.8930;3.4108;
498.0000;0.8930;3.4108;
498.3000;0.8930;3.4036;
498.6000;0.8848;3.3893;
498.9000;0.8913;3.3964;
499.2000;0.8905;3.4012;
499.5000;0.8921;3.4155;
499.8000;0.8938;3.4155;
500.1000;0.8962;3.4203;
500.4000;0.8930;3.4155;
500.7000;0.8938;3.4179;
501.0000;0.8921;3.4203;
501.3000;0.8913;3.4155;
501.6000;0.8938;3.4179;
501.9000;0.8913;3.4203;
502.2000;0.8921;3.4179;
502.5000;0.8930;3.4108;
502.8000;0.8954;3.4179;
503.1000;0.8913;3.4108;
503.4000;0.8905;3.4108;
503.7000;0.8930;3.4108;
504.0000;0.8913;3.4084;
504.3000;0.8913;3.4131;
504.6000;0.8938;3.4155;
504.9000;0.8930;3.4108;
505.2000;0.8978;3.4179;
505.5000;0.8913;3.3964;
505.8000;0.8913;3.3940;
506.1000;0.8938;3.4036;
506.4000;0.8921;3.3917;
506.7000;0.8930;3.3964;
507.0000;0.8930;3.3964;
507.3000;0.8921;3.3940;
507.6000;0.8921;3.4012;
507.9000;0.8930;3.3988;
508.2000;0.8913;3.3940;
508.5000;0.8938;3.3964;
508.8000;0.8930;3.3964;
509.1000;0.8938;3.4155;
509.4000;0.8913;3.4155;
509.7000;0.8913;3.4155;
510.0000;0.8905;3.4227;
510.3000;0.8930;3.4275;
510.6000;0.8930;3.4203;
510.9000;0.8978;3.4394;
511.2000;0.8913;3.4179;
511.5000;0.8913;3.4203;
511.8000;0.8930;3.4179;
512.1000;0.8921;3.4084;
512.4000;0.8930;3.4036;
512.7000;0.8946;3.4155;
513.0000;0.8905;3.4036;
513.3000;0.8946;3.4131;
513.6000;0.8913;3.4108;
513.9000;0.8930;3.4084;
514.2000;0.8921;3.4060;
514.5000;0.8930;3.4131;
514.8000;0.8913;3.4108;
515.1000;0.8921;3.4060;
515.4000;0.8930;3.4012;
515.7000;0.8930;3.4012;
516.0000;0.8913;3.4060;
516.3000;0.8930;3.4155;
516.6000;0.8921;3.4155;
516.9000;0.8905;3.4155;
517.2000;0.8921;3.4179;
517.5000;0.8930;3.4203;
517.8000;0.8938;3.4203;
518.1000;0.8930;3.4155;
518.4000;0.8921;3.4179;
518.7000;0.8905;3.4108;
519.0000;0.8938;3.4131;
519.3000;0.8930;3.4060;
519.6000;0.8938;3.4108;
519.9000;0.8930;3.4060;
520.2000;0.8905;3.4036;
520.5000;0.8913;3.4036;
520.8000;0.8921;3.3940;
521.1000;0.8905;3.3869;
521.4000;0.8938;3.3821;
521.7000;0.8930;3.3750;
522.0000;0.8905;3.3750;
522.3000;0.8921;3.3821;
522.6000;0.8905;3.3869;
522.9000;0.8938;3.3988;
523.2000;0.8921;3.3845;
523.5000;0.8921;3.3821;
523.8000;0.8930;3.3797;
524.1000;0.8930;3.3821;
524.4000;0.8930;3.3845;
524.7000;0.8930;3.3893;
525.0000;0.8930;3.3893;
525.3000;0.8921;3.3917;
525.6000;0.8913;3.3964;
525.9000;0.8930;3.3988;
526.2000;0.8897;3.3940;
526.5000;0.8938;3.4036;
526.8000;0.8873;3.3917;
527.1000;0.8938;3.4036;
527.4000;0.8938;3.3964;
527.7000;0.8938;3.3917;
528.0000;0.8946;3.3988;
528.3000;0.8913;3.4012;
528.6000;0.8921;3.4036;
528.9000;0.8921;3.3964;
529.2000;0.8897;3.3917;
529.5000;0.8905;3.4036;
529.8000;0.8930;3.4012;
530.1000;0.8913;3.4012;
530.4000;0.8913;3.4108;
530.7000;0.8905;3.4155;
531.0000;0.8913;3.4155;
531.3000;0.8905;3.4108;
531.6000;0.8930;3.4108;
531.9000;0.8921;3.4155;
532.2000;0.8938;3.4251;
532.5000;0.8913;3.4155;
532.8000;0.8921;3.4227;
533.1000;0.8921;3.4275;
533.4000;0.8913;3.4227;
533.7000;0.8921;3.4275;
534.0000;0.8921;3.4299;
534.3000;0.8930;3.4299;
534.6000;0.8938;3.4299;
534.9000;0.8921;3.4179;
535.2000;0.8930;3.4179;
535.5000;0.8921;3.4179;
535.8000;0.8921;3.4155;
536.1000;0.8905;3.4084;
536.4000;0.8930;3.4108;
536.7000;0.8921;3.4108;
537.0000;0.8921;3.4155;
537.3000;0.8913;3.4084;
537.6000;0.8938;3.3988;
537.9000;0.8930;3.4012;
538.2000;0.8930;3.4060;
538.5000;0.8913;3.4131;
538.8000;0.8913;3.4179;
539.1000;0.8921;3.4251;
539.4000;0.8938;3.4227;
539.7000;0.8930;3.4251;
540.0000;0.8930;3.4275;
540.3000;0.8921;3.4275;
540.6000;0.8930;3.4203;
540.9000;0.8930;3.4299;
541.2000;0.8905;3.4179;
541.5000;0.8905;3.4155;
541.8000;0.8921;3.4227;
542.1000;0.8930;3.4251;
542.4000;0.8913;3.4251;
542.7000;0.8921;3.4251;
543.0000;0.8921;3.4131;
543.3000;0.8921;3.4155;
543.6000;0.8930;3.4155;
543.9000;0.8913;3.4108;
544.2000;0.8946;3.4155;
544.5000;0.8938;3.4155;
544.8000;0.8930;3.4131;
545.1000;0.8921;3.4084;
545.4000;0.8913;3.4060;
545.7000;0.8921;3.4108;
546.0000;0.8913;3.4155;
546.3000;0.8881;3.4036;
546.6000;0.8921;3.4322;
546.9000;0.8921;3.4322;
547.2000;0.8938;3.4346;
547.5000;0.8913;3.4299;
547.8000;0.8930;3.4322;
548.1000;0.8930;3.4322;
548.4000;0.8921;3.4203;
548.7000;0.8930;3.4251;
549.0000;0.8921;3.4179;
549.3000;0.8930;3.4131;
549.6000;0.8938;3.4155;
549.9000;0.8946;3.4227;
550.2000;0.8897;3.4084;
550.5000;0.8913;3.4155;
550.8000;0.8913;3.4108;
551.1000;0.8913;3.4155;
551.4000;0.8913;3.4108;
551.7000;0.8905;3.4084;
552.0000;0.8824;3.3917;
552.3000;0.8873;3.4060;
552.6000;0.8913;3.4203;
552.9000;0.8921;3.4155;
553.2000;0.8921;3.4131;
553.5000;0.8913;3.4131;
553.8000;0.8905;3.4108;
554.1000;0.8913;3.4084;
554.4000;0.8913;3.4108;
554.7000;0.8913;3.4203;
555.0000;0.8889;3.4108;
555.3000;0.8897;3.4108;
555.6000;0.8921;3.4179;
555.9000;0.8930;3.4179;
556.2000;0.8913;3.4203;
556.5000;0.8913;3.4179;
556.8000;0.8913;3.4131;
557.1000;0.8921;3.4036;
557.4000;0.8921;3.4012;
557.7000;0.8913;3.4060;
558.0000;0.8921;3.4131;
558.3000;0.8930;3.4155;
558.6000;0.8921;3.4155;
558.9000;0.8905;3.4084;
559.2000;0.8913;3.4155;
559.5000;0.8913;3.4131;
559.8000;0.8921;3.4203;
560.1000;0.8938;3.4275;
560.4000;0.8889;3.4179;
560.7000;0.8913;3.4227;
561.0000;0.8930;3.4179;
561.3000;0.8889;3.4036;
561.6000;0.8897;3.3964;
561.9000;0.8881;3.4036;
562.2000;0.8913;3.4084;
562.5000;0.8913;3.4036;
562.8000;0.8921;3.3964;
563.1000;0.8905;3.3988;
563.4000;0.8921;3.3964;
563.7000;0.8938;3.4012;
564.0000;0.8921;3.3964;
564.3000;0.8905;3.3893;
564.6000;0.8913;3.3940;
564.9000;0.8824;3.3821;
565.2000;0.8921;3.4036;
565.5000;0.8930;3.4060;
565.8000;0.8921;3.4084;
566.1000;0.8905;3.4108;
566.4000;0.8954;3.4227;
566.7000;0.8905;3.4084;
567.0000;0.8913;3.4060;
567.3000;0.8881;3.3845;
567.6000;0.8848;3.3773;
567.9000;0.8897;3.3964;
568.2000;0.8938;3.4131;
568.5000;0.8938;3.4179;
568.8000;0.8938;3.4108;
569.1000;0.8921;3.4084;
569.4000;0.8905;3.4084;
569.7000;0.8921;3.4179;
570.0000;0.8930;3.4299;
570.3000;0.8897;3.4251;
570.6000;0.8913;3.4275;
570.9000;0.8905;3.4275;
571.2000;0.8938;3.4227;
571.5000;0.8930;3.4179;
571.8000;0.8897;3.4060;
572.1000;0.8913;3.4108;
572.4000;0.8897;3.4036;
572.7000;0.8913;3.4036;
573.0000;0.8897;3.4012;
573.3000;0.8905;3.4036;
573.6000;0.8889;3.3917;
573.9000;0.8905;3.3940;
574.2000;0.8905;3.3964;
574.5000;0.8897;3.4084;
574.8000;0.8905;3.4084;
575.1000;0.8905;3.4108;
575.4000;0.8921;3.4203;
575.7000;0.8905;3.4275;
576.0000;0.8913;3.4322;
576.3000;0.8913;3.4299;
576.6000;0.8970;3.4418;
576.9000;0.8913;3.4370;
577.2000;0.8905;3.4346;
577.5000;0.8832;3.4108;
577.8000;0.8921;3.4251;
578.1000;0.8913;3.4299;
578.4000;0.8905;3.4299;
578.7000;0.8930;3.4322;
579.0000;0.8930;3.4346;
579.3000;0.8913;3.4275;
579.6000;0.8946;3.4322;
579.9000;0.8913;3.4108;
580.2000;0.8905;3.4036;
580.5000;0.8930;3.4108;
580.8000;0.8913;3.4084;
581.1000;0.8856;3.3988;
581.4000;0.8938;3.4012;
581.7000;0.8905;3.3964;
582.0000;0.8897;3.3964;
582.3000;0.8897;3.3940;
582.6000;0.8921;3.4060;
582.9000;0.8930;3.4036;
583.2000;0.8897;3.3964;
583.5000;0.8897;3.4012;
583.8000;0.8913;3.4084;
584.1000;0.8946;3.4131;
584.4000;0.8987;3.4227;
584.7000;0.8978;3.4131;
585.0000;0.8905;3.3917;
585.3000;0.8930;3.4012;
585.6000;0.8905;3.3988;
585.9000;0.8889;3.4108;
586.2000;0.8938;3.4179;
586.5000;0.8913;3.4084;
586.8000;0.8905;3.4108;
587.1000;0.8905;3.4060;
587.4000;0.8938;3.4084;
587.7000;0.8938;3.4108;
588.0000;0.8946;3.4251;
588.3000;0.8913;3.4346;
588.6000;0.8864;3.4179;
588.9000;0.8897;3.4203;
589.2000;0.8864;3.4084;
589.5000;0.8897;3.4108;
589.8000;0.8913;3.4084;
590.1000;0.8913;3.4108;
590.4000;0.8954;3.4108;
590.7000;0.8905;3.3964;
591.0000;0.8897;3.3940;
591.3000;0.8970;3.4108;
591.6000;0.8913;3.4012;
591.9000;0.8921;3.4060;
592.2000;0.8905;3.4036;
592.5000;0.8921;3.4155;
592.8000;0.8856;3.3988;
593.1000;0.8921;3.4131;
593.4000;0.8930;3.4108;
593.7000;0.8913;3.3988;
594.0000;0.8938;3.4036;
594.3000;0.8897;3.3964;
594.6000;0.8930;3.4084;
594.9000;0.8913;3.3988;
595.2000;0.8913;3.4084;
595.5000;0.8897;3.3988;
595.8000;0.8897;3.4036;
596.1000;0.8905;3.4084;
596.4000;0.8905;3.4108;
596.7000;0.8921;3.4203;
597.0000;0.8905;3.4203;
597.3000;0.8848;3.4084;
597.6000;0.8930;3.4275;
597.9000;0.8930;3.4275;
598.2000;0.8881;3.4084;
598.5000;0.8889;3.4131;
598.8000;0.8921;3.4227;
599.1000;0.8930;3.4227;
599.4000;0.8921;3.4203;
599.7000;0.8930;3.4227;
600.0000;0.8905;3.4155;
600.3000;0.8946;3.4131;
600.6000;0.8905;3.3917;
600.9000;0.8889;3.3702;
601.2000;0.8864;3.3654;
601.5000;0.8791;3.3439;
601.8000;0.8669;3.3105;
602.1000;0.8685;3.3081;
602.4000;0.8637;3.2938;
602.7000;0.8555;3.2795;
603.0000;0.8506;3.2699;
603.3000;0.8457;3.2532;
603.6000;0.8417;3.2508;
603.9000;0.8270;3.2103;
604.2000;0.8295;3.2079;
604.5000;0.8238;3.1959;
604.8000;0.8189;3.1959;
605.1000;0.8116;3.1816;
605.4000;0.8083;3.1697;
605.7000;0.8018;3.1554;
606.0000;0.7985;3.1506;
606.3000;0.7969;3.1458;
606.6000;0.7961;3.1458;
606.9000;0.7896;3.1482;
607.2000;0.7855;3.1482;
607.5000;0.7798;3.1482;
607.8000;0.7774;3.1530;
608.1000;0.7757;3.1482;
608.4000;0.7806;3.1578;
608.7000;0.7741;3.1578;
609.0000;0.7676;3.1434;
609.3000;0.7635;3.1220;
609.6000;0.7619;3.1220;
609.9000;0.7570;3.1220;
610.2000;0.7530;3.1220;
610.5000;0.7489;3.1148;
610.8000;0.7497;3.1243;
611.1000;0.7448;3.1076;
611.4000;0.7424;3.1148;
611.7000;0.7399;3.1148;
612.0000;0.7407;3.1172;
612.3000;0.7342;3.1124;
612.6000;0.7310;3.1052;
612.9000;0.7318;3.1148;
613.2000;0.7342;3.1172;
613.5000;0.7253;3.1005;
613.8000;0.7245;3.1076;
614.1000;0.7188;3.1052;
614.4000;0.7196;3.1124;
614.7000;0.7147;3.1172;
615.0000;0.7147;3.1196;
615.3000;0.7123;3.1172;
615.6000;0.7131;3.1196;
615.9000;0.7106;3.1100;
616.2000;0.7123;3.1076;
616.5000;0.7074;3.1100;
616.8000;0.7066;3.1148;
617.1000;0.7041;3.1076;
617.4000;0.7017;3.1100;
617.7000;0.6984;3.0981;
618.0000;0.6992;3.0957;
618.3000;0.6943;3.0885;
618.6000;0.6943;3.0957;
618.9000;0.6927;3.0909;
619.2000;0.6935;3.0885;
619.5000;0.6903;3.0814;
619.8000;0.6862;3.0790;
620.1000;0.6862;3.0790;
620.4000;0.6821;3.0694;
620.7000;0.6838;3.0814;
621.0000;0.6805;3.0838;
621.3000;0.6821;3.0933;
621.6000;0.6797;3.0981;
621.9000;0.6772;3.0885;
622.2000;0.6740;3.0838;
622.5000;0.6740;3.0718;
622.8000;0.6732;3.0671;
623.1000;0.6732;3.0694;
623.4000;0.6724;3.0647;
623.7000;0.6699;3.0623;
624.0000;0.6667;3.0599;
624.3000;0.6642;3.0623;
624.6000;0.6650;3.0742;
624.9000;0.6642;3.0718;
625.2000;0.6634;3.0647;
625.5000;0.6618;3.0551;
625.8000;0.6675;3.0647;
626.1000;0.6593;3.0599;
626.4000;0.6585;3.0575;
626.7000;0.6569;3.0527;
627.0000;0.6577;3.0599;
627.3000;0.6536;3.0551;
627.6000;0.6528;3.0599;
627.9000;0.6528;3.0575;
628.2000;0.6528;3.0647;
628.5000;0.6520;3.0647;
628.8000;0.6488;3.0551;
629.1000;0.6488;3.0575;
629.4000;0.6496;3.0575;
629.7000;0.6479;3.0503;
630.0000;0.6463;3.0575;
630.3000;0.6447;3.0527;
630.6000;0.6447;3.0647;
630.9000;0.6447;3.0742;
631.2000;0.6431;3.0766;
631.5000;0.6414;3.0694;
631.8000;0.6390;3.0671;
632.1000;0.6390;3.0647;
632.4000;0.6382;3.0623;
632.7000;0.6365;3.0599;
633.0000;0.6374;3.0647;
633.3000;0.6374;3.0647;
633.6000;0.6357;3.0671;
633.9000;0.6341;3.0599;
634.2000;0.6325;3.0623;
634.5000;0.6357;3.0718;
634.8000;0.6325;3.0671;
635.1000;0.6292;3.0575;
635.4000;0.6300;3.0575;
635.7000;0.6284;3.0599;
636.0000;0.6300;3.0599;
636.3000;0.6276;3.0551;
636.6000;0.6268;3.0599;
636.9000;0.6243;3.0647;
637.2000;0.6260;3.0694;
637.5000;0.6243;3.0766;
637.8000;0.6219;3.0671;
638.1000;0.6219;3.0671;
638.4000;0.6211;3.0647;
638.7000;0.6227;3.0623;
639.0000;0.6203;3.0551;
639.3000;0.6211;3.0551;
639.6000;0.6195;3.0503;
639.9000;0.6195;3.0503;
640.2000;0.6178;3.0527;
640.5000;0.6178;3.0599;
640.8000;0.6162;3.0647;
641.1000;0.6170;3.0671;
641.4000;0.6162;3.0599;
641.7000;0.6146;3.0480;
642.0000;0.6162;3.0527;
642.3000;0.6146;3.0503;
642.6000;0.6121;3.0432;
642.9000;0.6121;3.0456;
643.2000;0.6113;3.0456;
643.5000;0.6129;3.0527;
643.8000;0.6113;3.0647;
644.1000;0.6105;3.0527;
644.4000;0.6089;3.0503;
644.7000;0.6105;3.0527;
645.0000;0.6089;3.0503;
645.3000;0.6064;3.0408;
645.6000;0.6056;3.0360;
645.9000;0.6064;3.0432;
646.2000;0.6064;3.0456;
646.5000;0.6048;3.0480;
646.8000;0.6032;3.0408;
647.1000;0.6040;3.0432;
647.4000;0.6048;3.0456;
647.7000;0.6032;3.0432;
648.0000;0.6032;3.0432;
648.3000;0.6024;3.0408;
648.6000;0.6024;3.0480;
648.9000;0.6032;3.0456;
649.2000;0.6015;3.0480;
649.5000;0.6015;3.0480;
649.8000;0.6007;3.0527;
650.1000;0.6032;3.0551;
650.4000;0.5991;3.0503;
650.7000;0.5983;3.0551;
651.0000;0.6048;3.0647;
651.3000;0.5983;3.0480;
651.6000;0.5975;3.0408;
651.9000;0.5975;3.0456;
652.2000;0.5991;3.0503;
652.5000;0.5975;3.0408;
652.8000;0.5958;3.0384;
653.1000;0.5958;3.0384;
653.4000;0.5958;3.0384;
653.7000;0.5958;3.0432;
654.0000;0.5950;3.0456;
654.3000;0.5942;3.0432;
654.6000;0.5934;3.0408;
654.9000;0.5926;3.0384;
655.2000;0.5934;3.0289;
655.5000;0.5926;3.0241;
655.8000;0.5934;3.0289;
656.1000;0.5902;3.0336;
656.4000;0.5926;3.0336;
656.7000;0.5910;3.0289;
657.0000;0.5885;3.0241;
657.3000;0.5877;3.0265;
657.6000;0.5893;3.0313;
657.9000;0.5869;3.0336;
658.2000;0.5885;3.0503;
658.5000;0.5877;3.0551;
658.8000;0.5877;3.0456;
659.1000;0.5861;3.0336;
659.4000;0.5869;3.0432;
659.7000;0.5869;3.0527;
660.0000;0.5869;3.0647;
660.3000;0.5869;3.0694;
660.6000;0.5845;3.0694;
660.9000;0.5853;3.0694;
661.2000;0.5853;3.0671;
661.5000;0.5869;3.0623;
661.8000;0.5836;3.0575;
662.1000;0.5828;3.0623;
662.4000;0.5836;3.0599;
662.7000;0.5836;3.0527;
663.0000;0.5836;3.0527;
663.3000;0.5820;3.0551;
663.6000;0.5828;3.0647;
663.9000;0.5836;3.0742;
664.2000;0.5820;3.0694;
664.5000;0.5812;3.0694;
664.8000;0.5812;3.0623;
665.1000;0.5812;3.0599;
665.4000;0.5812;3.0623;
665.7000;0.5788;3.0503;
666.0000;0.5779;3.0503;
666.3000;0.5779;3.0527;
666.6000;0.5779;3.0480;
666.9000;0.5763;3.0456;
667.2000;0.5788;3.0480;
667.5000;0.5796;3.0527;
667.8000;0.5796;3.0551;
668.1000;0.5779;3.0599;
668.4000;0.5771;3.0480;
668.7000;0.5763;3.0456;
669.0000;0.5779;3.0432;
669.3000;0.5763;3.0456;
669.6000;0.5747;3.0432;
669.9000;0.5755;3.0527;
670.2000;0.5755;3.0480;
670.5000;0.5755;3.0503;
670.8000;0.5722;3.0408;
671.1000;0.5747;3.0599;
671.4000;0.5779;3.0623;
671.7000;0.5747;3.0480;
672.0000;0.5731;3.0456;
672.3000;0.5731;3.0432;
672.6000;0.5731;3.0384;
672.9000;0.5763;3.0480;
673.2000;0.5739;3.0480;
673.5000;0.5739;3.0527;
673.8000;0.5722;3.0503;
674.1000;0.5722;3.0527;
674.4000;0.5714;3.0456;
674.7000;0.5722;3.0503;
675.0000;0.5706;3.0456;
675.3000;0.5722;3.0551;
675.6000;0.5706;3.0480;
675.9000;0.5657;3.0432;
676.2000;0.5690;3.0503;
676.5000;0.5657;3.0384;
676.8000;0.5682;3.0480;
677.1000;0.5682;3.0408;
677.4000;0.5674;3.0456;
677.7000;0.5674;3.0408;
678.0000;0.5674;3.0480;
678.3000;0.5698;3.0694;
678.6000;0.5665;3.0623;
678.9000;0.5665;3.0527;
679.2000;0.5682;3.0575;
679.5000;0.5690;3.0575;
679.8000;0.5665;3.0575;
680.1000;0.5706;3.0623;
680.4000;0.5682;3.0623;
680.7000;0.5682;3.0623;
681.0000;0.5665;3.0575;
681.3000;0.5682;3.0623;
681.6000;0.5649;3.0551;
681.9000;0.5576;3.0289;
682.2000;0.5641;3.0384;
682.5000;0.5682;3.0480;
682.8000;0.5641;3.0384;
683.1000;0.5682;3.0384;
683.4000;0.5641;3.0336;
683.7000;0.5633;3.0265;
684.0000;0.5657;3.0336;
684.3000;0.5739;3.0527;
684.6000;0.5641;3.0336;
684.9000;0.5633;3.0408;
685.2000;0.5633;3.0360;
685.5000;0.5592;3.0313;
685.8000;0.5633;3.0408;
686.1000;0.5625;3.0384;
686.4000;0.5617;3.0384;
686.7000;0.5625;3.0408;
687.0000;0.5649;3.0551;
687.3000;0.5625;3.0503;
687.6000;0.5625;3.0551;
687.9000;0.5633;3.0527;
688.2000;0.5649;3.0599;
688.5000;0.5608;3.0551;
688.8000;0.5617;3.0575;
689.1000;0.5633;3.0694;
689.4000;0.5617;3.0671;
689.7000;0.5633;3.0671;
690.0000;0.5576;3.0575;
690.3000;0.5600;3.0694;
690.6000;0.5706;3.0861;
690.9000;0.5592;3.0575;
691.2000;0.5608;3.0551;
691.5000;0.5682;3.0766;
691.8000;0.5592;3.0527;
692.1000;0.5608;3.0480;
692.4000;0.5625;3.0575;
692.7000;0.5576;3.0503;
693.0000;0.5592;3.0599;
693.3000;0.5576;3.0647;
693.6000;0.5576;3.0599;
693.9000;0.5584;3.0551;
694.2000;0.5592;3.0623;
694.5000;0.5592;3.0599;
694.8000;0.5584;3.0551;
695.1000;0.5560;3.0480;
695.4000;0.5592;3.0575;
695.7000;0.5560;3.0503;
696.0000;0.5576;3.0575;
696.3000;0.5568;3.0480;
696.6000;0.5511;3.0241;
696.9000;0.5576;3.0432;
697.2000;0.5576;3.0432;
697.5000;0.5649;3.0599;
697.8000;0.5551;3.0360;
698.1000;0.5551;3.0432;
698.4000;0.5527;3.0408;
698.7000;0.5551;3.0599;
699.0000;0.5551;3.0480;
699.3000;0.5551;3.0527;
699.6000;0.5551;3.0551;
699.9000;0.5551;3.0647;
700.2000;0.5560;3.0647;
700.5000;0.5568;3.0599;
700.8000;0.5560;3.0599;
701.1000;0.5535;3.0551;
701.4000;0.5511;3.0527;
701.7000;0.5551;3.0623;
702.0000;0.5519;3.0575;
702.3000;0.5527;3.0647;
702.6000;0.5535;3.0671;
702.9000;0.5543;3.0718;
703.2000;0.5519;3.0671;
703.5000;0.5527;3.0599;
703.8000;0.5527;3.0599;
704.1000;0.5608;3.0814;
704.4000;0.5535;3.0551;
704.7000;0.5519;3.0432;
705.0000;0.5543;3.0432;
705.3000;0.5584;3.0599;
705.6000;0.5511;3.0408;
705.9000;0.5535;3.0503;
706.2000;0.5446;3.0265;
706.5000;0.5535;3.0480;
706.8000;0.5495;3.0480;
707.1000;0.5503;3.0623;
707.4000;0.5503;3.0623;
707.7000;0.5495;3.0599;
708.0000;0.5543;3.0694;
708.3000;0.5503;3.0551;
708.6000;0.5511;3.0480;
708.9000;0.5511;3.0527;
709.2000;0.5511;3.0551;
709.5000;0.5527;3.0575;
709.8000;0.5519;3.0503;
710.1000;0.5527;3.0503;
710.4000;0.5495;3.0480;
710.7000;0.5511;3.0503;
711.0000;0.5519;3.0503;
711.3000;0.5486;3.0384;
711.6000;0.5511;3.0480;
711.9000;0.5511;3.0480;
712.2000;0.5495;3.0384;
712.5000;0.5495;3.0432;
712.8000;0.5470;3.0384;
713.1000;0.5495;3.0384;
713.4000;0.5462;3.0265;
713.7000;0.5486;3.0360;
714.0000;0.5478;3.0408;
714.3000;0.5495;3.0575;
714.6000;0.5478;3.0575;
714.9000;0.5486;3.0647;
715.2000;0.5478;3.0599;
715.5000;0.5495;3.0647;
715.8000;0.5470;3.0575;
716.1000;0.5470;3.0551;
716.4000;0.5462;3.0527;
716.7000;0.5478;3.0527;
717.0000;0.5543;3.0718;
717.3000;0.5470;3.0551;
717.6000;0.5470;3.0503;
717.9000;0.5470;3.0456;
718.2000;0.5478;3.0432;
718.5000;0.5462;3.0432;
718.8000;0.5462;3.0360;
719.1000;0.5446;3.0360;
719.4000;0.5470;3.0432;
719.7000;0.5503;3.0575;
720.0000;0.5446;3.0480;
720.3000;0.5470;3.0503;
720.6000;0.5438;3.0480;
720.9000;0.5470;3.0623;
721.2000;0.5511;3.0718;
721.5000;0.5576;3.0909;
721.8000;0.5551;3.0861;
722.1000;0.5446;3.0599;
722.4000;0.5462;3.0647;
722.7000;0.5438;3.0599;
723.0000;0.5462;3.0623;
723.3000;0.5470;3.0575;
723.6000;0.5446;3.0480;
723.9000;0.5462;3.0456;
724.2000;0.5462;3.0480;
724.5000;0.5446;3.0551;
724.8000;0.5462;3.0671;
725.1000;0.5446;3.0647;
725.4000;0.5454;3.0694;
725.7000;0.5421;3.0575;
726.0000;0.5454;3.0671;
726.3000;0.5454;3.0599;
726.6000;0.5438;3.0599;
726.9000;0.5438;3.0647;
727.2000;0.5429;3.0599;
727.5000;0.5446;3.0671;
727.8000;0.5429;3.0718;
728.1000;0.5438;3.0694;
728.4000;0.5429;3.0694;
728.7000;0.5446;3.0718;
729.0000;0.5438;3.0647;
729.3000;0.5421;3.0718;
729.6000;0.5429;3.0694;
729.9000;0.5429;3.0623;
730.2000;0.5405;3.0551;
730.5000;0.5438;3.0575;
730.8000;0.5429;3.0647;
731.1000;0.5429;3.0694;
731.4000;0.5421;3.0694;
731.7000;0.5421;3.0742;
732.0000;0.5438;3.0766;
732.3000;0.5397;3.0623;
732.6000;0.5413;3.0694;
732.9000;0.5438;3.0742;
733.2000;0.5397;3.0647;
733.5000;0.5397;3.0647;
733.8000;0.5413;3.0647;
734.1000;0.5413;3.0647;
734.4000;0.5421;3.0671;
734.7000;0.5405;3.0742;
735.0000;0.5405;3.0718;
735.3000;0.5421;3.0766;
735.6000;0.5421;3.0814;
735.9000;0.5397;3.0885;
736.2000;0.5405;3.0814;
736.5000;0.5421;3.0861;
736.8000;0.5397;3.0861;
737.1000;0.5405;3.0790;
737.4000;0.5429;3.0838;
737.7000;0.5421;3.0766;
738.0000;0.5348;3.0551;
738.3000;0.5405;3.0742;
738.6000;0.5438;3.0814;
738.9000;0.5389;3.0647;
739.2000;0.5405;3.0599;
739.5000;0.5397;3.0575;
739.8000;0.5413;3.0671;
740.1000;0.5389;3.0527;
740.4000;0.5413;3.0551;
740.7000;0.5421;3.0551;
741.0000;0.5381;3.0671;
741.3000;0.5405;3.0694;
741.6000;0.5381;3.0599;
741.9000;0.5413;3.0718;
742.2000;0.5389;3.0694;
742.5000;0.5381;3.0766;
742.8000;0.5397;3.0861;
743.1000;0.5397;3.0766;
743.4000;0.5389;3.0790;
743.7000;0.5413;3.0694;
744.0000;0.5454;3.0766;
744.3000;0.5389;3.0718;
744.6000;0.5340;3.0599;
744.9000;0.5372;3.0718;
745.2000;0.5389;3.0814;
745.5000;0.5405;3.0790;
745.8000;0.5381;3.0694;
746.1000;0.5372;3.0694;
746.4000;0.5389;3.0718;
746.7000;0.5389;3.0861;
747.0000;0.5389;3.0885;
747.3000;0.5381;3.0814;
747.6000;0.5389;3.0838;
747.9000;0.5364;3.0790;
748.2000;0.5389;3.0790;
748.5000;0.5372;3.0647;
748.8000;0.5348;3.0647;
749.1000;0.5389;3.0718;
749.4000;0.5372;3.0647;
749.7000;0.5389;3.0623;
750.0000;0.5372;3.0647;
750.3000;0.5372;3.0694;
750.6000;0.5348;3.0575;
750.9000;0.5381;3.0623;
751.2000;0.5389;3.0647;
751.5000;0.5364;3.0647;
751.8000;0.5372;3.0790;
752.1000;0.5372;3.0814;
752.4000;0.5397;3.0838;
752.7000;0.5389;3.0742;
753.0000;0.5397;3.0790;
753.3000;0.5381;3.0718;
753.6000;0.5381;3.0694;
753.9000;0.5381;3.0718;
754.2000;0.5389;3.0742;
754.5000;0.5372;3.0814;
754.8000;0.5299;3.0694;
755.1000;0.5364;3.0742;
755.4000;0.5364;3.0790;
755.7000;0.5454;3.1005;
756.0000;0.5381;3.0861;
756.3000;0.5356;3.0838;
756.6000;0.5364;3.0885;
756.9000;0.5364;3.0909;
757.2000;0.5356;3.0909;
757.5000;0.5372;3.0838;
757.8000;0.5364;3.0861;
758.1000;0.5372;3.0861;
758.4000;0.5364;3.0718;
758.7000;0.5348;3.0718;
759.0000;0.5348;3.0766;
759.3000;0.5372;3.0838;
759.6000;0.5324;3.0694;
759.9000;0.5372;3.0861;
760.2000;0.5372;3.0861;
760.5000;0.5372;3.0790;
760.8000;0.5381;3.0909;
761.1000;0.5340;3.0790;
761.4000;0.5348;3.0790;
761.7000;0.5340;3.0790;
762.0000;0.5348;3.0742;
762.3000;0.5332;3.0718;
762.6000;0.5340;3.0790;
762.9000;0.5332;3.0766;
763.2000;0.5364;3.0933;
763.5000;0.5356;3.0885;
763.8000;0.5324;3.0814;
764.1000;0.5348;3.0909;
764.4000;0.5348;3.0814;
764.7000;0.5348;3.0838;
765.0000;0.5332;3.0838;
765.3000;0.5356;3.0909;
765.6000;0.5340;3.0933;
765.9000;0.5348;3.0957;
766.2000;0.5315;3.0885;
766.5000;0.5340;3.0861;
766.8000;0.5348;3.0838;
767.1000;0.5348;3.0814;
767.4000;0.5348;3.0766;
767.7000;0.5348;3.0766;
768.0000;0.5340;3.0814;
768.3000;0.5348;3.0838;
768.6000;0.5421;3.1029;
768.9000;0.5340;3.0838;
769.2000;0.5356;3.0861;
769.5000;0.5332;3.0790;
769.8000;0.5324;3.0766;
770.1000;0.5332;3.0766;
770.4000;0.5332;3.0766;
770.7000;0.5332;3.0718;
771.0000;0.5315;3.0671;
771.3000;0.5324;3.0694;
771.6000;0.5348;3.0694;
771.9000;0.5340;3.0694;
772.2000;0.5332;3.0694;
772.5000;0.5340;3.0623;
772.8000;0.5332;3.0456;
773.1000;0.5348;3.0456;
773.4000;0.5348;3.0647;
773.7000;0.5332;3.0623;
774.0000;0.5340;3.0694;
774.3000;0.5348;3.0766;
774.6000;0.5340;3.0814;
774.9000;0.5381;3.0957;
775.2000;0.5324;3.0718;
775.5000;0.5348;3.0766;
775.8000;0.5332;3.0766;
776.1000;0.5340;3.0718;
776.4000;0.5332;3.0790;
776.7000;0.5315;3.0909;
777.0000;0.5332;3.0909;
777.3000;0.5324;3.0933;
777.6000;0.5315;3.0885;
777.9000;0.5307;3.0766;
778.2000;0.5324;3.0790;
778.5000;0.5332;3.0838;
778.8000;0.5315;3.0694;
779.1000;0.5340;3.0671;
779.4000;0.5332;3.0718;
779.7000;0.5340;3.0742;
780.0000;0.5315;3.0694;
780.3000;0.5307;3.0694;
780.6000;0.5324;3.0766;
780.9000;0.5348;3.0742;
781.2000;0.5307;3.0647;
781.5000;0.5307;3.0647;
781.8000;0.5324;3.0599;
782.1000;0.5332;3.0742;
782.4000;0.5299;3.0671;
782.7000;0.5315;3.0742;
783.0000;0.5324;3.0742;
783.3000;0.5299;3.0647;
783.6000;0.5307;3.0623;
783.9000;0.5307;3.0623;
784.2000;0.5332;3.0671;
784.5000;0.5324;3.0766;
784.8000;0.5348;3.0814;
785.1000;0.5315;3.0766;
785.4000;0.5315;3.0766;
785.7000;0.5315;3.0790;
786.0000;0.5226;3.0575;
786.3000;0.5234;3.0575;
786.6000;0.5307;3.0694;
786.9000;0.5307;3.0790;
787.2000;0.5348;3.0909;
787.5000;0.5307;3.0790;
787.8000;0.5307;3.0718;
788.1000;0.5324;3.0766;
788.4000;0.5307;3.0861;
788.7000;0.5324;3.0861;
789.0000;0.5291;3.0790;
789.3000;0.5421;3.1076;
789.6000;0.5324;3.0718;
789.9000;0.5324;3.0790;
790.2000;0.5332;3.0861;
790.5000;0.5250;3.0742;
790.8000;0.5275;3.0838;
791.1000;0.5291;3.0838;
791.4000;0.5267;3.0766;
791.7000;0.5291;3.0766;
792.0000;0.5307;3.0718;
792.3000;0.5299;3.0742;
792.6000;0.5364;3.0861;
792.9000;0.5283;3.0694;
793.2000;0.5299;3.0838;
793.5000;0.5307;3.0885;
793.8000;0.5307;3.0957;
794.1000;0.5324;3.0933;
794.4000;0.5283;3.0790;
794.7000;0.5291;3.0885;
795.0000;0.5307;3.0933;
795.3000;0.5291;3.0933;
795.6000;0.5299;3.0885;
795.9000;0.5283;3.0909;
796.2000;0.5299;3.0861;
796.5000;0.5340;3.0814;
796.8000;0.5283;3.0742;
797.1000;0.5250;3.0766;
797.4000;0.5299;3.0933;
797.7000;0.5299;3.0909;
798.0000;0.5299;3.0909;
798.3000;0.5340;3.0885;
798.6000;0.5291;3.0814;
798.9000;0.5291;3.0838;
799.2000;0.5267;3.0790;
799.5000;0.5291;3.0861;
799.8000;0.5315;3.0933;
800.1000;0.5299;3.0885;
800.4000;0.5307;3.0814;
800.7000;0.5283;3.0742;
801.0000;0.5299;3.0814;
801.3000;0.5291;3.0790;
801.6000;0.5283;3.0814;
801.9000;0.5291;3.0671;
802.2000;0.5291;3.0647;
802.5000;0.5218;3.0432;
802.8000;0.5299;3.0647;
803.1000;0.5340;3.0742;
803.4000;0.5283;3.0623;
803.7000;0.5283;3.0694;
804.0000;0.5275;3.0814;
804.3000;0.5299;3.0838;
804.6000;0.5291;3.0861;
804.9000;0.5275;3.0814;
805.2000;0.5324;3.0861;
805.5000;0.5315;3.0885;
805.8000;0.5299;3.0885;
806.1000;0.5275;3.0838;
806.4000;0.5340;3.1052;
806.7000;0.5275;3.0861;
807.0000;0.5283;3.0861;
807.3000;0.5283;3.0909;
807.6000;0.5275;3.0933;
807.9000;0.5291;3.0957;
808.2000;0.5291;3.0885;
808.5000;0.5291;3.0838;
808.8000;0.5299;3.0838;
809.1000;0.5299;3.0838;
809.4000;0.5275;3.0790;
809.7000;0.5291;3.0814;
810.0000;0.5258;3.0718;
810.3000;0.5275;3.0766;
810.6000;0.5299;3.0861;
810.9000;0.5267;3.0885;
811.2000;0.5356;3.1029;
811.5000;0.5258;3.0694;
811.8000;0.5275;3.0718;
812.1000;0.5283;3.0790;
812.4000;0.5267;3.0790;
812.7000;0.5185;3.0623;
813.0000;0.5291;3.0909;
813.3000;0.5275;3.1005;
813.6000;0.5267;3.1052;
813.9000;0.5267;3.1029;
814.2000;0.5307;3.1100;
814.5000;0.5201;3.0814;
814.8000;0.5283;3.1029;
815.1000;0.5234;3.0885;
815.4000;0.5283;3.0909;
815.7000;0.5267;3.0790;
816.0000;0.5267;3.0814;
816.3000;0.5258;3.0742;
816.6000;0.5275;3.0814;
816.9000;0.5267;3.0766;
817.2000;0.5226;3.0694;
817.5000;0.5275;3.0885;
817.8000;0.5275;3.0933;
818.1000;0.5242;3.0790;
818.4000;0.5291;3.1076;
818.7000;0.5267;3.1029;
819.0000;0.5275;3.1052;
819.3000;0.5226;3.0861;
819.6000;0.5250;3.0933;
819.9000;0.5258;3.0981;
820.2000;0.5324;3.1076;
820.5000;0.5340;3.1076;
820.8000;0.5267;3.0814;
821.1000;0.5258;3.0718;
821.4000;0.5291;3.0814;
821.7000;0.5218;3.0575;
822.0000;0.5250;3.0694;
822.3000;0.5234;3.0694;
822.6000;0.5267;3.0814;
822.9000;0.5258;3.0814;
823.2000;0.5267;3.0790;
823.5000;0.5226;3.0694;
823.8000;0.5267;3.0814;
824.1000;0.5283;3.0742;
824.4000;0.5258;3.0718;
824.7000;0.5169;3.0503;
825.0000;0.5169;3.0480;
825.3000;0.5267;3.0814;
825.6000;0.5258;3.0790;
825.9000;0.5258;3.0838;
826.2000;0.5275;3.0909;
826.5000;0.5258;3.0909;
826.8000;0.5258;3.0957;
827.1000;0.5267;3.0981;
827.4000;0.5258;3.0933;
827.7000;0.5258;3.0861;
828.0000;0.5258;3.0814;
828.3000;0.5267;3.0885;
828.6000;0.5250;3.0861;
828.9000;0.5299;3.0885;
829.2000;0.5250;3.0838;
829.5000;0.5234;3.0766;
829.8000;0.5267;3.0766;
830.1000;0.5258;3.0838;
830.4000;0.5267;3.0861;
830.7000;0.5258;3.0838;
831.0000;0.5242;3.0790;
831.3000;0.5250;3.0766;
831.6000;0.5250;3.0742;
831.9000;0.5177;3.0551;
832.2000;0.5267;3.0694;
832.5000;0.5258;3.0599;
832.8000;0.5267;3.0551;
833.1000;0.5242;3.0480;
833.4000;0.5250;3.0480;
833.7000;0.5242;3.0408;
834.0000;0.5250;3.0336;
834.3000;0.5275;3.0480;
834.6000;0.5275;3.0551;
834.9000;0.5258;3.0551;
835.2000;0.5242;3.0623;
835.5000;0.5250;3.0551;
835.8000;0.5275;3.0575;
836.1000;0.5234;3.0599;
836.4000;0.5291;3.0814;
836.7000;0.5242;3.0694;
837.0000;0.5177;3.0456;
837.3000;0.5242;3.0647;
837.6000;0.5242;3.0671;
837.9000;0.5348;3.0838;
838.2000;0.5275;3.0718;
838.5000;0.5250;3.0623;
838.8000;0.5242;3.0647;
839.1000;0.5193;3.0527;
839.4000;0.5234;3.0575;
839.7000;0.5258;3.0671;
840.0000;0.5234;3.0718;
840.3000;0.5275;3.0814;
840.6000;0.5250;3.0718;
840.9000;0.5242;3.0814;
841.2000;0.5258;3.0790;
841.5000;0.5307;3.0981;
841.8000;0.5267;3.0814;
842.1000;0.5242;3.0718;
842.4000;0.5258;3.0766;
842.7000;0.5242;3.0814;
843.0000;0.5267;3.0838;
843.3000;0.5258;3.0838;
843.6000;0.5250;3.0766;
843.9000;0.5242;3.0790;
844.2000;0.5242;3.0694;
844.5000;0.5242;3.0742;
844.8000;0.5242;3.0766;
845.1000;0.5250;3.0718;
845.4000;0.5242;3.0790;
845.7000;0.5275;3.0885;
846.0000;0.5267;3.0790;
846.3000;0.5226;3.0718;
846.6000;0.5242;3.0742;
846.9000;0.5258;3.0742;
847.2000;0.5234;3.0790;
847.5000;0.5234;3.0790;
847.8000;0.5226;3.0647;
848.1000;0.5275;3.0694;
848.4000;0.5291;3.0647;
848.7000;0.5250;3.0623;
849.0000;0.5250;3.0647;
849.3000;0.5226;3.0527;
849.6000;0.5250;3.0647;
849.9000;0.5234;3.0647;
850.2000;0.5234;3.0623;
850.5000;0.5234;3.0599;
850.8000;0.5258;3.0647;
851.1000;0.5267;3.0671;
851.4000;0.5242;3.0671;
851.7000;0.5242;3.0742;
852.0000;0.5258;3.0861;
852.3000;0.5250;3.0814;
852.6000;0.5242;3.0718;
852.9000;0.5258;3.0742;
853.2000;0.5250;3.0718;
853.5000;0.5234;3.0718;
853.8000;0.5242;3.0814;
854.1000;0.5234;3.0814;
854.4000;0.5234;3.0838;
854.7000;0.5250;3.0838;
855.0000;0.5242;3.0790;
855.3000;0.5226;3.0861;
855.6000;0.5242;3.0909;
855.9000;0.5218;3.0957;
856.2000;0.5242;3.1005;
856.5000;0.5250;3.1052;
856.8000;0.5291;3.1029;
857.1000;0.5234;3.0885;
857.4000;0.5201;3.0742;
857.7000;0.5242;3.0814;
858.0000;0.5234;3.0766;
858.3000;0.5242;3.0742;
858.6000;0.5218;3.0718;
858.9000;0.5177;3.0575;
859.2000;0.5226;3.0694;
859.5000;0.5234;3.0742;
859.8000;0.5210;3.0790;
860.1000;0.5226;3.0742;
860.4000;0.5234;3.0671;
860.7000;0.5242;3.0718;
861.0000;0.5210;3.0551;
861.3000;0.5226;3.0551;
861.6000;0.5234;3.0551;
861.9000;0.5201;3.0480;
862.2000;0.5242;3.0551;
862.5000;0.5218;3.0503;
862.8000;0.5234;3.0599;
863.1000;0.5218;3.0551;
863.4000;0.5234;3.0623;
863.7000;0.5226;3.0647;
864.0000;0.5226;3.0694;
864.3000;0.5226;3.0694;
864.6000;0.5226;3.0623;
864.9000;0.5234;3.0694;
865.2000;0.5234;3.0766;
865.5000;0.5218;3.0814;
865.8000;0.5185;3.0718;
866.1000;0.5226;3.0861;
866.4000;0.5242;3.0838;
866.7000;0.5250;3.0885;
867.0000;0.5218;3.0766;
867.3000;0.5242;3.0790;
867.6000;0.5201;3.0694;
867.9000;0.5242;3.0790;
868.2000;0.5234;3.0742;
868.5000;0.5250;3.0838;
868.8000;0.5250;3.0814;
869.1000;0.5218;3.0838;
869.4000;0.5234;3.0790;
869.7000;0.5226;3.0766;
870.0000;0.5234;3.0671;
870.3000;0.5226;3.0647;
870.6000;0.5234;3.0814;
870.9000;0.5234;3.0814;
871.2000;0.5226;3.0766;
871.5000;0.5226;3.0718;
871.8000;0.5242;3.0838;
872.1000;0.5218;3.0814;
872.4000;0.5226;3.0838;
872.7000;0.5218;3.0742;
873.0000;0.5201;3.0647;
873.3000;0.5210;3.0647;
873.6000;0.5234;3.0790;
873.9000;0.5226;3.0790;
874.2000;0.5242;3.0766;
874.5000;0.5218;3.0790;
874.8000;0.5234;3.0790;
875.1000;0.5226;3.0790;
875.4000;0.5226;3.0742;
875.7000;0.5242;3.0766;
876.0000;0.5218;3.0647;
876.3000;0.5226;3.0575;
876.6000;0.5210;3.0575;
876.9000;0.5226;3.0647;
877.2000;0.5201;3.0623;
877.5000;0.5234;3.0694;
877.8000;0.5210;3.0647;
878.1000;0.5201;3.0671;
878.4000;0.5218;3.0718;
878.7000;0.5226;3.0861;
879.0000;0.5283;3.1005;
879.3000;0.5234;3.0766;
879.6000;0.5210;3.0742;
879.9000;0.5234;3.0814;
880.2000;0.5234;3.0814;
880.5000;0.5226;3.0742;
880.8000;0.5210;3.0671;
881.1000;0.5218;3.0694;
881.4000;0.5234;3.0838;
881.7000;0.5234;3.0909;
882.0000;0.5242;3.1100;
882.3000;0.5210;3.1100;
882.6000;0.5267;3.1220;
882.9000;0.5210;3.1100;
883.2000;0.5218;3.1005;
883.5000;0.5226;3.1076;
883.8000;0.5234;3.1124;
884.1000;0.5226;3.1052;
884.4000;0.5218;3.0909;
884.7000;0.5218;3.0814;
885.0000;0.5210;3.0718;
885.3000;0.5218;3.0718;
885.6000;0.5210;3.0671;
885.9000;0.5218;3.0623;
886.2000;0.5218;3.0575;
886.5000;0.5226;3.0551;
886.8000;0.5169;3.0384;
887.1000;0.5210;3.0623;
887.4000;0.5218;3.0694;
887.7000;0.5234;3.0718;
888.0000;0.5218;3.0766;
888.3000;0.5218;3.0838;
888.6000;0.5226;3.0933;
888.9000;0.5218;3.0814;
889.2000;0.5210;3.0766;
889.5000;0.5218;3.0718;
889.8000;0.5218;3.0671;
890.1000;0.5218;3.0671;
890.4000;0.5234;3.0766;
890.7000;0.5218;3.0694;
891.0000;0.5218;3.0694;
891.3000;0.5218;3.0575;
891.6000;0.5226;3.0623;
891.9000;0.5226;3.0694;
892.2000;0.5201;3.0647;
892.5000;0.5210;3.0671;
892.8000;0.5201;3.0742;
893.1000;0.5226;3.0790;
893.4000;0.5201;3.0814;
893.7000;0.5201;3.0742;
894.0000;0.5226;3.0838;
894.3000;0.5226;3.0885;
894.6000;0.5201;3.0957;
894.9000;0.5161;3.0790;
895.2000;0.5218;3.0957;
895.5000;0.5128;3.0766;
895.8000;0.5218;3.1029;
896.1000;0.5218;3.1029;
896.4000;0.5218;3.1029;
896.7000;0.5226;3.1052;
897.0000;0.5218;3.1005;
897.3000;0.5210;3.1052;
897.6000;0.5210;3.0909;
897.9000;0.5218;3.0933;
898.2000;0.5226;3.0957;
898.5000;0.5275;3.1005;
898.8000;0.5226;3.0838;
899.1000;0.5234;3.0814;
899.4000;0.5226;3.0718;
899.7000;0.5218;3.0766;
900.0000;0.5218;3.0766;
900.3000;0.5234;3.0838;
900.6000;0.5226;3.0909;
900.9000;0.5218;3.0861;
901.2000;0.5201;3.0885;
901.5000;0.5210;3.0957;
901.8000;0.5201;3.0909;
902.1000;0.5201;3.0909;
902.4000;0.5210;3.0909;
902.7000;0.5177;3.0718;
903.0000;0.5185;3.0742;
903.3000;0.5185;3.0790;
903.6000;0.5193;3.0742;
903.9000;0.5193;3.0766;
904.2000;0.5153;3.0718;
904.5000;0.5299;3.1124;
904.8000;0.5226;3.0981;
905.1000;0.5128;3.0838;
905.4000;0.5226;3.0933;
905.7000;0.5210;3.0957;
906.0000;0.5185;3.0814;
906.3000;0.5234;3.0909;
906.6000;0.5218;3.0814;
906.9000;0.5226;3.0838;
907.2000;0.5226;3.0909;
907.5000;0.5169;3.0861;
907.8000;0.5250;3.1052;
908.1000;0.5218;3.0957;
908.4000;0.5201;3.0861;
908.7000;0.5201;3.0885;
909.0000;0.5218;3.0885;
909.3000;0.5201;3.0814;
909.6000;0.5201;3.0814;
909.9000;0.5218;3.0885;
910.2000;0.5120;3.0647;
910.5000;0.5201;3.0861;
910.8000;0.5201;3.0933;
911.1000;0.5193;3.0957;
911.4000;0.5315;3.1339;
911.7000;0.5193;3.1005;
912.0000;0.5258;3.1076;
912.3000;0.5120;3.0694;
912.6000;0.5201;3.0885;
912.9000;0.5193;3.0861;
913.2000;0.5201;3.0885;
913.5000;0.5210;3.0933;
913.8000;0.5169;3.0861;
914.1000;0.5201;3.0981;
914.4000;0.5201;3.1005;
914.7000;0.5234;3.1052;
915.0000;0.5218;3.0957;
915.3000;0.5210;3.0981;
915.6000;0.5210;3.0957;
915.9000;0.5218;3.0957;
916.2000;0.5226;3.1052;
916.5000;0.5177;3.0885;
916.8000;0.5185;3.0790;
917.1000;0.5210;3.0814;
917.4000;0.5226;3.0838;
917.7000;0.5201;3.0861;
918.0000;0.5185;3.0909;
918.3000;0.5144;3.0623;
918.6000;0.5185;3.0814;
918.9000;0.5185;3.0790;
919.2000;0.5226;3.0909;
919.5000;0.5193;3.0861;
919.8000;0.5218;3.0885;
920.1000;0.5210;3.0814;
920.4000;0.5201;3.0814;
920.7000;0.5210;3.0814;
921.0000;0.5218;3.0957;
921.3000;0.5242;3.1052;
921.6000;0.5210;3.0981;
921.9000;0.5193;3.0885;
922.2000;0.5144;3.0766;
922.5000;0.5136;3.0718;
922.8000;0.5185;3.0909;
923.1000;0.5193;3.1005;
923.4000;0.5153;3.0885;
923.7000;0.5210;3.0957;
924.0000;0.5201;3.0957;
924.3000;0.5185;3.0957;
924.6000;0.5193;3.0981;
924.9000;0.5201;3.0933;
925.2000;0.5201;3.0885;
925.5000;0.5112;3.0599;
925.8000;0.5234;3.0790;
926.1000;0.5226;3.0694;
926.4000;0.5226;3.0671;
926.7000;0.5185;3.0694;
927.0000;0.5234;3.0766;
927.3000;0.5177;3.0647;
927.6000;0.5210;3.0718;
927.9000;0.5193;3.0694;
928.2000;0.5193;3.0766;
928.5000;0.5177;3.0647;
928.8000;0.5185;3.0647;
929.1000;0.5201;3.0671;
929.4000;0.5185;3.0599;
929.7000;0.5201;3.0575;
930.0000;0.5193;3.0575;
930.3000;0.5201;3.0623;
930.6000;0.5226;3.0694;
930.9000;0.5201;3.0647;
931.2000;0.5136;3.0360;
931.5000;0.5193;3.0527;
931.8000;0.5201;3.0623;
932.1000;0.5185;3.0647;
932.4000;0.5161;3.0503;
932.7000;0.5185;3.0527;
933.0000;0.5210;3.0575;
933.3000;0.5234;3.0623;
933.6000;0.5193;3.0623;
933.9000;0.5201;3.0647;
934.2000;0.5169;3.0599;
934.5000;0.5201;3.0671;
934.8000;0.5193;3.0575;
935.1000;0.5210;3.0623;
935.4000;0.5177;3.0503;
935.7000;0.5193;3.0503;
936.0000;0.5267;3.0647;
936.3000;0.5226;3.0503;
936.6000;0.5218;3.0384;
936.9000;0.5177;3.0265;
937.2000;0.5193;3.0384;
937.5000;0.5153;3.0289;
937.8000;0.5218;3.0480;
938.1000;0.5193;3.0408;
938.4000;0.5210;3.0456;
938.7000;0.5258;3.0551;
939.0000;0.5185;3.0456;
939.3000;0.5177;3.0480;
939.6000;0.5218;3.0623;
939.9000;0.5193;3.0599;
940.2000;0.5218;3.0623;
940.5000;0.5136;3.0480;
940.8000;0.5169;3.0623;
941.1000;0.5177;3.0623;
941.4000;0.5177;3.0671;
941.7000;0.5226;3.0766;
942.0000;0.5177;3.0527;
942.3000;0.5144;3.0503;
942.6000;0.5210;3.0599;
942.9000;0.5193;3.0503;
943.2000;0.5193;3.0503;
943.5000;0.5169;3.0480;
943.8000;0.5153;3.0480;
944.1000;0.5234;3.0671;
944.4000;0.5201;3.0694;
944.7000;0.5177;3.0694;
945.0000;0.5193;3.0742;
945.3000;0.5193;3.0671;
945.6000;0.5210;3.0694;
945.9000;0.5177;3.0671;
946.2000;0.5226;3.0671;
946.5000;0.5193;3.0599;
946.8000;0.5185;3.0575;
947.1000;0.5185;3.0575;
947.4000;0.5201;3.0599;
947.7000;0.5193;3.0647;
948.0000;0.5169;3.0647;
948.3000;0.5185;3.0671;
948.6000;0.5185;3.0647;
948.9000;0.5218;3.0742;
949.2000;0.5185;3.0623;
949.5000;0.5234;3.0718;
949.8000;0.5193;3.0742;
950.1000;0.5201;3.0718;
950.4000;0.5177;3.0694;
950.7000;0.5193;3.0766;
951.0000;0.5193;3.0814;
951.3000;0.5201;3.0861;
951.6000;0.5201;3.0909;
951.9000;0.5153;3.0838;
952.2000;0.5193;3.0909;
952.5000;0.5201;3.0957;
952.8000;0.5201;3.1029;
953.1000;0.5210;3.1076;
953.4000;0.5201;3.1005;
953.7000;0.5169;3.0909;
954.0000;0.5226;3.1100;
954.3000;0.5201;3.1029;
954.6000;0.5161;3.0885;
954.9000;0.5201;3.0933;
955.2000;0.5193;3.0957;
955.5000;0.5250;3.1029;
955.8000;0.5177;3.0838;
956.1000;0.5177;3.0885;
956.4000;0.5193;3.0981;
956.7000;0.5169;3.0933;
957.0000;0.5177;3.0909;
957.3000;0.5177;3.0957;
957.6000;0.5210;3.1124;
957.9000;0.5177;3.1052;
958.2000;0.5185;3.1029;
958.5000;0.5136;3.0861;
958.8000;0.5201;3.0957;
959.1000;0.5185;3.0909;
959.4000;0.5193;3.0909;
959.7000;0.5185;3.0933;
960.0000;0.5177;3.0885;
960.3000;0.5250;3.0981;
960.6000;0.5226;3.0933;
960.9000;0.5193;3.0790;
961.2000;0.5169;3.0671;
961.5000;0.5177;3.0671;
961.8000;0.5177;3.0694;
962.1000;0.5218;3.0885;
962.4000;0.5193;3.0861;
962.7000;0.5201;3.0861;
963.0000;0.5201;3.0909;
963.3000;0.5177;3.0861;
963.6000;0.5177;3.0861;
963.9000;0.5185;3.0861;
964.2000;0.5161;3.0814;
964.5000;0.5144;3.0814;
964.8000;0.5169;3.0814;
965.1000;0.5169;3.0861;
965.4000;0.5153;3.0766;
965.7000;0.5161;3.0766;
966.0000;0.5169;3.0790;
966.3000;0.5177;3.0814;
966.6000;0.5242;3.1029;
966.9000;0.5177;3.0933;
967.2000;0.5177;3.0933;
967.5000;0.5193;3.0981;
967.8000;0.5193;3.1005;
968.1000;0.5210;3.1052;
968.4000;0.5185;3.1029;
968.7000;0.5193;3.0957;
969.0000;0.5161;3.0957;
969.3000;0.5193;3.0957;
969.6000;0.5169;3.0885;
969.9000;0.5185;3.0957;
970.2000;0.5153;3.0885;
970.5000;0.5201;3.0933;
970.8000;0.5193;3.0909;
971.1000;0.5177;3.0885;
971.4000;0.5169;3.0933;
971.7000;0.5185;3.0957;
972.0000;0.5169;3.0861;
972.3000;0.5177;3.0885;
972.6000;0.5210;3.0981;
972.9000;0.5185;3.0838;
973.2000;0.5169;3.0790;
973.5000;0.5185;3.0838;
973.8000;0.5169;3.0718;
974.1000;0.5193;3.0838;
974.4000;0.5201;3.0838;
974.7000;0.5185;3.0790;
975.0000;0.5177;3.0814;
975.3000;0.5201;3.0814;
975.6000;0.5177;3.0790;
975.9000;0.5218;3.0885;
976.2000;0.5185;3.0861;
976.5000;0.5177;3.0957;
976.8000;0.5169;3.0981;
977.1000;0.5177;3.0933;
977.4000;0.5169;3.0909;
977.7000;0.5169;3.0838;
978.0000;0.5177;3.0814;
978.3000;0.5177;3.0814;
978.6000;0.5169;3.0790;
978.9000;0.5210;3.1052;
979.2000;0.5169;3.1100;
979.5000;0.5169;3.1076;
979.8000;0.5153;3.0957;
980.1000;0.5161;3.0981;
980.4000;0.5193;3.0933;
980.7000;0.5177;3.0933;
981.0000;0.5169;3.0885;
981.3000;0.5177;3.0790;
981.6000;0.5177;3.0790;
981.9000;0.5201;3.0814;
982.2000;0.5177;3.0814;
982.5000;0.5185;3.0885;
982.8000;0.5177;3.0861;
983.1000;0.5185;3.0885;
983.4000;0.5177;3.0838;
983.7000;0.5169;3.0742;
984.0000;0.5177;3.0718;
984.3000;0.5193;3.0766;
984.6000;0.5210;3.0885;
984.9000;0.5177;3.0885;
985.2000;0.5185;3.0885;
985.5000;0.5193;3.0861;
985.8000;0.5185;3.0814;
986.1000;0.5177;3.0766;
986.4000;0.5177;3.0766;
986.7000;0.5185;3.0742;
987.0000;0.5136;3.0718;
987.3000;0.5177;3.0718;
987.6000;0.5177;3.0647;
987.9000;0.5177;3.0623;
988.2000;0.5177;3.0623;
988.5000;0.5169;3.0623;
988.8000;0.5169;3.0647;
989.1000;0.5161;3.0694;
989.4000;0.5177;3.0718;
989.7000;0.5169;3.0838;
990.0000;0.5201;3.0933;
990.3000;0.5177;3.0861;
990.6000;0.5210;3.0933;
990.9000;0.5177;3.0885;
991.2000;0.5185;3.0885;
991.5000;0.5193;3.0885;
991.8000;0.5177;3.0885;
992.1000;0.5193;3.0957;
992.4000;0.5169;3.0885;
992.7000;0.5177;3.0909;
993.0000;0.5193;3.0981;
993.3000;0.5185;3.1052;
993.6000;0.5169;3.1029;
993.9000;0.5169;3.1052;
994.2000;0.5169;3.1076;
994.5000;0.5185;3.1029;
994.8000;0.5177;3.1005;
995.1000;0.5096;3.0742;
995.4000;0.5177;3.0861;
995.7000;0.5185;3.0909;
996.0000;0.5177;3.1005;
996.3000;0.5177;3.1029;
996.6000;0.5169;3.1005;
996.9000;0.5177;3.1005;
997.2000;0.5169;3.0981;
997.5000;0.5177;3.0933;
997.8000;0.5169;3.0885;
998.1000;0.5169;3.0909;
998.4000;0.5193;3.0885;
998.7000;0.5177;3.0861;
999.0000;0.5169;3.0861;
999.3000;0.5153;3.0838;
999.6000;0.5169;3.0838;
999.9000;0.5177;3.0790;
1000.2000;0.5169;3.0766;
1000.5000;0.5161;3.0718;
1000.8000;0.5185;3.0742;
1001.1000;0.5177;3.0790;
1001.4000;0.5177;3.0814;
1001.7000;0.5169;3.0861;
1002.0000;0.5177;3.1029;
1002.3000;0.5169;3.1029;
1002.6000;0.5177;3.1005;
1002.9000;0.5218;3.1124;
1003.2000;0.5185;3.1005;
1003.5000;0.5177;3.0981;
1003.8000;0.5177;3.1005;
1004.1000;0.5177;3.1005;
1004.4000;0.5177;3.1005;
1004.7000;0.5185;3.1029;
1005.0000;0.5185;3.1029;
1005.3000;0.5201;3.1052;
1005.6000;0.5185;3.1052;
1005.9000;0.5193;3.1100;
1006.2000;0.5193;3.1124;
1006.5000;0.5177;3.1076;
1006.8000;0.5169;3.0981;
1007.1000;0.5169;3.0957;
1007.4000;0.5185;3.1076;
1007.7000;0.5177;3.1029;
1008.0000;0.5161;3.0957;
1008.3000;0.5185;3.1052;
1008.6000;0.5177;3.0957;
1008.9000;0.5177;3.0909;
1009.2000;0.5169;3.0957;
1009.5000;0.5185;3.1100;
1009.8000;0.5169;3.1124;
1010.1000;0.5185;3.1076;
1010.4000;0.5185;3.0981;
1010.7000;0.5177;3.1029;
1011.0000;0.5169;3.0981;
1011.3000;0.5144;3.0885;
1011.6000;0.5153;3.0909;
1011.9000;0.5169;3.0885;
1012.2000;0.5185;3.0838;
1012.5000;0.5177;3.0838;
1012.8000;0.5169;3.0861;
1013.1000;0.5161;3.0933;
1013.4000;0.5185;3.0981;
1013.7000;0.5177;3.0909;
1014.0000;0.5161;3.0909;
1014.3000;0.5153;3.0861;
1014.6000;0.5218;3.0933;
1014.9000;0.5193;3.0814;
1015.2000;0.5177;3.0814;
1015.5000;0.5169;3.0861;
1015.8000;0.5153;3.0885;
1016.1000;0.5234;3.1076;
1016.4000;0.5169;3.0933;
1016.7000;0.5169;3.0957;
1017.0000;0.5169;3.0885;
1017.3000;0.5112;3.0647;
1017.6000;0.5177;3.0742;
1017.9000;0.5161;3.0671;
1018.2000;0.5144;3.0599;
1018.5000;0.5177;3.0766;
1018.8000;0.5169;3.0861;
1019.1000;0.5169;3.0814;
1019.4000;0.5258;3.1052;
1019.7000;0.5169;3.0909;
1020.0000;0.5169;3.0909;
1020.3000;0.5096;3.0742;
1020.6000;0.5153;3.0838;
1020.9000;0.5201;3.0933;
1021.2000;0.5169;3.0742;
1021.5000;0.5169;3.0694;
1021.8000;0.5169;3.0718;
1022.1000;0.5201;3.0742;
1022.4000;0.5161;3.0671;
1022.7000;0.5169;3.0671;
1023.0000;0.5169;3.0742;
1023.3000;0.5169;3.0671;
1023.6000;0.5161;3.0527;
1023.9000;0.5169;3.0480;
1024.2000;0.5177;3.0432;
1024.5000;0.5169;3.0456;
1024.8000;0.5185;3.0527;
1025.1000;0.5169;3.0671;
1025.4000;0.5153;3.0647;
1025.7000;0.5185;3.0671;
1026.0000;0.5169;3.0623;
1026.3000;0.5169;3.0671;
1026.6000;0.5169;3.0766;
1026.9000;0.5169;3.0838;
1027.2000;0.5177;3.0838;
1027.5000;0.5193;3.0861;
1027.8000;0.5177;3.0838;
1028.1000;0.5161;3.0814;
1028.4000;0.5177;3.0814;
1028.7000;0.5185;3.0885;
1029.0000;0.5201;3.0885;
1029.3000;0.5128;3.0790;
1029.6000;0.5153;3.0909;
1029.9000;0.5169;3.0933;
1030.2000;0.5185;3.0933;
1030.5000;0.5161;3.0909;
1030.8000;0.5185;3.0933;
1031.1000;0.5153;3.0909;
1031.4000;0.5185;3.0957;
1031.7000;0.5185;3.0957;
1032.0000;0.5177;3.1005;
1032.3000;0.5153;3.0981;
1032.6000;0.5177;3.1076;
1032.9000;0.5161;3.1052;
1033.2000;0.5161;3.1029;
1033.5000;0.5144;3.1005;
1033.8000;0.5185;3.1124;
1034.1000;0.5185;3.1100;
1034.4000;0.5169;3.1029;
1034.7000;0.5169;3.1005;
1035.0000;0.5153;3.1005;
1035.3000;0.5177;3.1052;
1035.6000;0.5177;3.1052;
1035.9000;0.5177;3.1052;
1036.2000;0.5185;3.1076;
1036.5000;0.5161;3.1052;
1036.8000;0.5169;3.1005;
1037.1000;0.5177;3.1052;
1037.4000;0.5234;3.1172;
1037.7000;0.5185;3.0957;
1038.0000;0.5169;3.0957;
1038.3000;0.5169;3.0933;
1038.6000;0.5161;3.0885;
1038.9000;0.5169;3.0957;
1039.2000;0.5177;3.1052;
1039.5000;0.5153;3.1052;
1039.8000;0.5177;3.1076;
1040.1000;0.5177;3.0957;
1040.4000;0.5177;3.0909;
1040.7000;0.5161;3.0885;
1041.0000;0.5161;3.0933;
1041.3000;0.5177;3.1052;
1041.6000;0.5144;3.0885;
1041.9000;0.5185;3.0909;
1042.2000;0.5169;3.0885;
1042.5000;0.5144;3.0933;
1042.8000;0.5177;3.1005;
1043.1000;0.5169;3.1005;
1043.4000;0.5161;3.0885;
1043.7000;0.5177;3.0909;
1044.0000;0.5177;3.0933;
1044.3000;0.5112;3.0742;
1044.6000;0.5177;3.1005;
1044.9000;0.5177;3.1005;
1045.2000;0.5275;3.1243;
1045.5000;0.5169;3.0957;
1045.8000;0.5161;3.1052;
1046.1000;0.5104;3.0742;
1046.4000;0.5177;3.0909;
1046.7000;0.5177;3.0981;
1047.0000;0.5169;3.0957;
1047.3000;0.5177;3.1029;
1047.6000;0.5161;3.0981;
1047.9000;0.5177;3.0957;
1048.2000;0.5153;3.0933;
1048.5000;0.5193;3.0981;
1048.8000;0.5161;3.0909;
1049.1000;0.5177;3.0957;
1049.4000;0.5185;3.0957;
1049.7000;0.5153;3.1005;
1050.0000;0.5161;3.1005;
1050.3000;0.5153;3.1052;
1050.6000;0.5169;3.1005;
1050.9000;0.5161;3.0933;
1051.2000;0.5201;3.1029;
1051.5000;0.5161;3.0957;
1051.8000;0.5153;3.0909;
1052.1000;0.5218;3.1005;
1052.4000;0.5144;3.0909;
1052.7000;0.5153;3.0981;
1053.0000;0.5234;3.1196;
1053.3000;0.5161;3.1029;
1053.6000;0.5177;3.1124;
1053.9000;0.5136;3.1100;
1054.2000;0.5177;3.1100;
1054.5000;0.5169;3.1052;
1054.8000;0.5153;3.1005;
1055.1000;0.5161;3.1029;
1055.4000;0.5096;3.0861;
1055.7000;0.5177;3.1029;
1056.0000;0.5153;3.1029;
1056.3000;0.5161;3.1076;
1056.6000;0.5161;3.0981;
1056.9000;0.5185;3.1052;
1057.2000;0.5169;3.1052;
1057.5000;0.5177;3.1100;
1057.8000;0.5161;3.1005;
1058.1000;0.5185;3.1124;
1058.4000;0.5169;3.1100;
1058.7000;0.5161;3.1124;
1059.0000;0.5177;3.1076;
1059.3000;0.5169;3.1052;
1059.6000;0.5136;3.0885;
1059.9000;0.5161;3.0957;
1060.2000;0.5169;3.1005;
1060.5000;0.5226;3.1076;
1060.8000;0.5177;3.1052;
1061.1000;0.5169;3.1076;
1061.4000;0.5177;3.1124;
1061.7000;0.5169;3.1124;
1062.0000;0.5169;3.1100;
1062.3000;0.5185;3.1100;
1062.6000;0.5144;3.1029;
1062.9000;0.5177;3.1076;
1063.2000;0.5169;3.1100;
1063.5000;0.5169;3.1029;
1063.8000;0.5153;3.0933;
1064.1000;0.5177;3.1005;
1064.4000;0.5169;3.1100;
1064.7000;0.5177;3.1124;
1065.0000;0.5169;3.1100;
1065.3000;0.5161;3.1100;
1065.6000;0.5177;3.1148;
1065.9000;0.5169;3.1196;
1066.2000;0.5144;3.1100;
1066.5000;0.5153;3.1076;
1066.8000;0.5169;3.1172;
1067.1000;0.5161;3.1220;
1067.4000;0.5128;3.1172;
1067.7000;0.5153;3.1243;
1068.0000;0.5153;3.1220;
1068.3000;0.5169;3.1124;
1068.6000;0.5201;3.1220;
1068.9000;0.5161;3.1124;
1069.2000;0.5088;3.0957;
1069.5000;0.5128;3.0957;
1069.8000;0.5161;3.1029;
1070.1000;0.5161;3.1005;
1070.4000;0.5153;3.0885;
1070.7000;0.5177;3.1029;
1071.0000;0.5177;3.1124;
1071.3000;0.5201;3.1172;
1071.6000;0.5185;3.1076;
1071.9000;0.5210;3.1100;
1072.2000;0.5177;3.1148;
1072.5000;0.5144;3.1124;
1072.8000;0.5177;3.1243;
1073.1000;0.5177;3.1243;
1073.4000;0.5161;3.1172;
1073.7000;0.5153;3.1124;
1074.0000;0.5136;3.1029;
1074.3000;0.5144;3.0981;
1074.6000;0.5136;3.1029;
1074.9000;0.5153;3.1100;
1075.2000;0.5144;3.0981;
1075.5000;0.5153;3.1052;
1075.8000;0.5161;3.1172;
1076.1000;0.5161;3.1196;
1076.4000;0.5161;3.1100;
1076.7000;0.5169;3.1148;
1077.0000;0.5161;3.1124;
1077.3000;0.5161;3.1029;
1077.6000;0.5153;3.1052;
1077.9000;0.5153;3.1076;
1078.2000;0.5136;3.1052;
1078.5000;0.5071;3.0766;
1078.8000;0.5144;3.1005;
1079.1000;0.5136;3.0933;
1079.4000;0.5161;3.0981;
1079.7000;0.5144;3.0933;
1080.0000;0.5153;3.0981;
1080.3000;0.5153;3.0885;
1080.6000;0.5153;3.0885;
1080.9000;0.5153;3.0957;
1081.2000;0.5144;3.0957;
1081.5000;0.5136;3.0909;
1081.8000;0.5153;3.0909;
1082.1000;0.5153;3.1029;
1082.4000;0.5169;3.1100;
1082.7000;0.5153;3.1052;
1083.0000;0.5153;3.1052;
1083.3000;0.5136;3.0981;
1083.6000;0.5153;3.1029;
1083.9000;0.5120;3.0957;
1084.2000;0.5128;3.0933;
1084.5000;0.5128;3.0885;
1084.8000;0.5169;3.0909;
1085.1000;0.5153;3.0814;
1085.4000;0.5120;3.0790;
1085.7000;0.5153;3.0814;
1086.0000;0.5169;3.0909;
1086.3000;0.5153;3.0861;
1086.6000;0.5144;3.0933;
1086.9000;0.5136;3.0861;
1087.2000;0.5161;3.0933;
1087.5000;0.5161;3.0957;
1087.8000;0.5161;3.1005;
1088.1000;0.5144;3.0957;
1088.4000;0.5218;3.1148;
1088.7000;0.5177;3.1005;
1089.0000;0.5242;3.1052;
1089.3000;0.5153;3.0814;
1089.6000;0.5161;3.0885;
1089.9000;0.5161;3.0933;
1090.2000;0.5201;3.1005;
1090.5000;0.5161;3.0885;
1090.8000;0.5144;3.0909;
1091.1000;0.5169;3.0981;
1091.4000;0.5185;3.1005;
1091.7000;0.5169;3.0933;
1092.0000;0.5169;3.0957;
1092.3000;0.5120;3.0909;
1092.6000;0.5169;3.1029;
1092.9000;0.5071;3.0742;
1093.2000;0.5161;3.0861;
1093.5000;0.5120;3.0838;
1093.8000;0.5120;3.0814;
1094.1000;0.5153;3.0909;
1094.4000;0.5161;3.0909;
1094.7000;0.5153;3.0885;
1095.0000;0.5161;3.0981;
1095.3000;0.5169;3.0981;
1095.6000;0.5169;3.0933;
1095.9000;0.5169;3.0909;
1096.2000;0.5169;3.0909;
1096.5000;0.5161;3.0885;
1096.8000;0.5128;3.0838;
1097.1000;0.5161;3.0981;
1097.4000;0.5161;3.1052;
1097.7000;0.5153;3.1052;
1098.0000;0.5153;3.1076;
1098.3000;0.5161;3.1029;
1098.6000;0.5161;3.1029;
1098.9000;0.5169;3.1100;
1099.2000;0.5169;3.1029;
1099.5000;0.5128;3.0885;
1099.8000;0.5169;3.1005;
1100.1000;0.5161;3.0909;
1100.4000;0.5161;3.0790;
1100.7000;0.5177;3.0790;
1101.0000;0.5153;3.0885;
1101.3000;0.5136;3.0861;
1101.6000;0.5153;3.0933;
1101.9000;0.5153;3.0981;
1102.2000;0.5177;3.1100;
1102.5000;0.5177;3.1124;
1102.8000;0.5185;3.1100;
1103.1000;0.5161;3.1005;
1103.4000;0.5169;3.1005;
1103.7000;0.5169;3.1052;
1104.0000;0.5161;3.0981;
1104.3000;0.5169;3.0981;
1104.6000;0.5169;3.1005;
1104.9000;0.5169;3.1029;
1105.2000;0.5169;3.0957;
1105.5000;0.5144;3.0933;
1105.8000;0.5177;3.1029;
1106.1000;0.5161;3.1029;
1106.4000;0.5177;3.1005;
1106.7000;0.5226;3.1148;
1107.0000;0.5153;3.0957;
1107.3000;0.5153;3.0957;
1107.6000;0.5193;3.1005;
1107.9000;0.5161;3.0933;
1108.2000;0.5153;3.0957;
1108.5000;0.5136;3.0981;
1108.8000;0.5161;3.0885;
1109.1000;0.5153;3.0814;
1109.4000;0.5169;3.0861;
1109.7000;0.5161;3.0742;
1110.0000;0.5177;3.0718;
1110.3000;0.5169;3.0694;
1110.6000;0.5153;3.0766;
1110.9000;0.5161;3.0861;
1111.2000;0.5153;3.0742;
1111.5000;0.5185;3.0885;
1111.8000;0.5153;3.0861;
1112.1000;0.5153;3.0909;
1112.4000;0.5144;3.0838;
1112.7000;0.5136;3.0885;
1113.0000;0.5169;3.0885;
1113.3000;0.5153;3.0885;
1113.6000;0.5177;3.1005;
1113.9000;0.5161;3.1052;
1114.2000;0.5153;3.1052;
1114.5000;0.5136;3.1029;
1114.8000;0.5153;3.1005;
1115.1000;0.5169;3.0957;
1115.4000;0.5144;3.0861;
1115.7000;0.5144;3.0885;
1116.0000;0.5161;3.0861;
1116.3000;0.5161;3.0933;
1116.6000;0.5169;3.0814;
1116.9000;0.5096;3.0527;
1117.2000;0.5153;3.0647;
1117.5000;0.5161;3.0551;
1117.8000;0.5193;3.0671;
1118.1000;0.5144;3.0623;
1118.4000;0.5144;3.0599;
1118.7000;0.5161;3.0742;
1119.0000;0.5169;3.0861;
1119.3000;0.5161;3.0909;
1119.6000;0.5153;3.0909;
1119.9000;0.5071;3.0766;
1120.2000;0.5144;3.1029;
1120.5000;0.5177;3.1124;
1120.8000;0.5169;3.1124;
1121.1000;0.5177;3.1148;
1121.4000;0.5161;3.1172;
1121.7000;0.5161;3.1148;
1122.0000;0.5185;3.1196;
1122.3000;0.5153;3.1029;
1122.6000;0.5161;3.1029;
1122.9000;0.5153;3.0981;
1123.2000;0.5153;3.1029;
1123.5000;0.5128;3.1005;
1123.8000;0.5169;3.1029;
1124.1000;0.5210;3.1124;
1124.4000;0.5193;3.1076;
1124.7000;0.5144;3.1005;
1125.0000;0.5201;3.1243;
1125.3000;0.5161;3.1100;
1125.6000;0.5153;3.1124;
1125.9000;0.5169;3.1148;
1126.2000;0.5161;3.1148;
1126.5000;0.5161;3.1124;
1126.8000;0.5169;3.1029;
1127.1000;0.5096;3.0861;
1127.4000;0.5144;3.0981;
1127.7000;0.5161;3.1052;
1128.0000;0.5169;3.1005;
1128.3000;0.5153;3.1029;
1128.6000;0.5153;3.1076;
1128.9000;0.5144;3.1100;
1129.2000;0.5161;3.1076;
1129.5000;0.5161;3.0981;
1129.8000;0.5169;3.0957;
1130.1000;0.5144;3.0933;
1130.4000;0.5144;3.0981;
1130.7000;0.5193;3.0981;
1131.0000;0.5153;3.0909;
1131.3000;0.5153;3.0861;
1131.6000;0.5144;3.0909;
1131.9000;0.5153;3.0957;
1132.2000;0.5161;3.0957;
1132.5000;0.5169;3.0957;
1132.8000;0.5169;3.1076;
1133.1000;0.5144;3.1100;
1133.4000;0.5128;3.1029;
1133.7000;0.5144;3.0981;
1134.0000;0.5161;3.1052;
1134.3000;0.5120;3.0957;
1134.6000;0.5161;3.1029;
1134.9000;0.5144;3.1005;
1135.2000;0.5120;3.0885;
1135.5000;0.5161;3.0981;
1135.8000;0.5144;3.0933;
1136.1000;0.5144;3.0933;
1136.4000;0.5136;3.0981;
1136.7000;0.5177;3.1052;
1137.0000;0.5177;3.1124;
1137.3000;0.5169;3.1124;
1137.6000;0.5218;3.1220;
1137.9000;0.5161;3.1148;
1138.2000;0.5161;3.1100;
1138.5000;0.5144;3.1005;
1138.8000;0.5144;3.1076;
1139.1000;0.5144;3.1076;
1139.4000;0.5161;3.1052;
1139.7000;0.5161;3.1052;
1140.0000;0.5153;3.1076;
1140.3000;0.5153;3.1124;
1140.6000;0.5169;3.1148;
1140.9000;0.5112;3.0909;
1141.2000;0.5153;3.0909;
1141.5000;0.5144;3.0981;
1141.8000;0.5177;3.0957;
1142.1000;0.5161;3.0933;
1142.4000;0.5161;3.0981;
1142.7000;0.5136;3.1005;
1143.0000;0.5161;3.1005;
1143.3000;0.5161;3.0885;
1143.6000;0.5169;3.0957;
1143.9000;0.5169;3.0933;
1144.2000;0.5144;3.0814;
1144.5000;0.5169;3.0909;
1144.8000;0.5161;3.0861;
1145.1000;0.5136;3.0814;
1145.4000;0.5161;3.0909;
1145.7000;0.5185;3.1029;
1146.0000;0.5153;3.0981;
1146.3000;0.5153;3.1029;
1146.6000;0.5153;3.1076;
1146.9000;0.5144;3.1052;
1147.2000;0.5177;3.1076;
1147.5000;0.5128;3.0957;
1147.8000;0.5136;3.1005;
1148.1000;0.5153;3.1076;
1148.4000;0.5136;3.1052;
1148.7000;0.5144;3.1076;
1149.0000;0.5153;3.1052;
1149.3000;0.5128;3.0933;
1149.6000;0.5169;3.1076;
1149.9000;0.5153;3.1100;
1150.2000;0.5153;3.1124;
1150.5000;0.5185;3.1220;
1150.8000;0.5169;3.1148;
1151.1000;0.5153;3.1052;
1151.4000;0.5161;3.1100;
1151.7000;0.5153;3.1005;
1152.0000;0.5153;3.1076;
1152.3000;0.5128;3.0957;
1152.6000;0.5136;3.0933;
1152.9000;0.5153;3.1005;
1153.2000;0.5161;3.1005;
1153.5000;0.5096;3.0742;
1153.8000;0.5128;3.0766;
1154.1000;0.5210;3.1029;
1154.4000;0.5210;3.0981;
1154.7000;0.5144;3.0814;
1155.0000;0.5153;3.0790;
1155.3000;0.5153;3.0790;
1155.6000;0.5144;3.0814;
1155.9000;0.5144;3.0790;
1156.2000;0.5169;3.0838;
1156.5000;0.5096;3.0694;
1156.8000;0.5161;3.0909;
1157.1000;0.5177;3.1052;
1157.4000;0.5177;3.1005;
1157.7000;0.5169;3.0981;
1158.0000;0.5161;3.0909;
1158.3000;0.5185;3.0861;
1158.6000;0.5153;3.0861;
1158.9000;0.5169;3.0933;
1159.2000;0.5161;3.0933;
1159.5000;0.5161;3.0909;
1159.8000;0.5161;3.0957;
1160.1000;0.5161;3.0885;
1160.4000;0.5193;3.1029;
1160.7000;0.5234;3.1196;
1161.0000;0.5161;3.0957;
1161.3000;0.5177;3.0885;
1161.6000;0.5161;3.0838;
1161.9000;0.5136;3.0838;
1162.2000;0.5153;3.0838;
1162.5000;0.5169;3.0861;
1162.8000;0.5161;3.0861;
1163.1000;0.5120;3.0790;
1163.4000;0.5169;3.0861;
1163.7000;0.5161;3.0885;
1164.0000;0.5144;3.0909;
1164.3000;0.5153;3.0957;
1164.6000;0.5234;3.1076;
1164.9000;0.5136;3.0814;
1165.2000;0.5153;3.0766;
1165.5000;0.5096;3.0623;
1165.8000;0.5144;3.0814;
1166.1000;0.5153;3.0838;
1166.4000;0.5258;3.1220;
1166.7000;0.5153;3.0957;
1167.0000;0.5153;3.0981;
1167.3000;0.5161;3.0933;
1167.6000;0.5144;3.0909;
1167.9000;0.5153;3.0957;
1168.2000;0.5210;3.1148;
1168.5000;0.5136;3.0981;
1168.8000;0.5161;3.0981;
1169.1000;0.5161;3.0885;
1169.4000;0.5144;3.0909;
1169.7000;0.5153;3.0981;
1170.0000;0.5169;3.1052;
1170.3000;0.5153;3.0957;
1170.6000;0.5104;3.0861;
1170.9000;0.5169;3.1029;
1171.2000;0.5201;3.1052;
1171.5000;0.5161;3.0885;
1171.8000;0.5144;3.0885;
1172.1000;0.5153;3.0861;
1172.4000;0.5136;3.0790;
1172.7000;0.5169;3.0861;
1173.0000;0.5169;3.0885;
1173.3000;0.5153;3.0790;
1173.6000;0.5185;3.0933;
1173.9000;0.5177;3.1005;
1174.2000;0.5144;3.1005;
1174.5000;0.5144;3.0957;
1174.8000;0.5161;3.0957;
1175.1000;0.5128;3.0742;
1175.4000;0.5144;3.0838;
1175.7000;0.5153;3.0861;
1176.0000;0.5193;3.0933;
1176.3000;0.5177;3.0981;
1176.6000;0.5153;3.0981;
1176.9000;0.5161;3.1005;
1177.2000;0.5169;3.1076;
1177.5000;0.5144;3.1029;
1177.8000;0.5185;3.1172;
1178.1000;0.5128;3.1124;
1178.4000;0.5144;3.1172;
1178.7000;0.5161;3.1124;
1179.0000;0.5153;3.1196;
1179.3000;0.5153;3.1148;
1179.6000;0.5161;3.1076;
1179.9000;0.5201;3.1172;
1180.2000;0.5185;3.1100;
1180.5000;0.5169;3.1076;
1180.8000;0.5161;3.1100;
1181.1000;0.5169;3.1100;
1181.4000;0.5144;3.0981;
1181.7000;0.5153;3.0933;
1182.0000;0.5153;3.0933;
1182.3000;0.5153;3.0909;
1182.6000;0.5169;3.0933;
1182.9000;0.5153;3.1029;
1183.2000;0.5161;3.0885;
1183.5000;0.5177;3.0885;
1183.8000;0.5161;3.0909;
1184.1000;0.5169;3.0885;
1184.4000;0.5169;3.0814;
1184.7000;0.5144;3.0790;
1185.0000;0.5153;3.0861;
1185.3000;0.5185;3.0909;
1185.6000;0.5218;3.0981;
1185.9000;0.5153;3.0766;
1186.2000;0.5185;3.0838;
1186.5000;0.5161;3.0814;
1186.8000;0.5161;3.0766;
1187.1000;0.5144;3.0718;
1187.4000;0.5153;3.0766;
1187.7000;0.5161;3.0838;
1188.0000;0.5161;3.0933;
1188.3000;0.5161;3.0981;
1188.6000;0.5161;3.0957;
1188.9000;0.5161;3.1076;
1189.2000;0.5144;3.1005;
1189.5000;0.5177;3.1076;
1189.8000;0.5169;3.1100;
1190.1000;0.5185;3.1172;
1190.4000;0.5177;3.1124;
1190.7000;0.5169;3.0957;
1191.0000;0.5153;3.0861;
1191.3000;0.5153;3.0885;
1191.6000;0.5161;3.0790;
1191.9000;0.5161;3.0885;
1192.2000;0.5185;3.1005;
1192.5000;0.5177;3.1005;
1192.8000;0.5144;3.0885;
1193.1000;0.5120;3.0909;
1193.4000;0.5128;3.0909;
1193.7000;0.5120;3.0838;
1194.0000;0.5201;3.0957;
1194.3000;0.5136;3.0814;
1194.6000;0.5128;3.0909;
1194.9000;0.5144;3.0981;
1195.2000;0.5153;3.0909;
1195.5000;0.5153;3.0933;
1195.8000;0.5177;3.1029;
1196.1000;0.5144;3.0933;
1196.4000;0.5136;3.1005;
1196.7000;0.5185;3.1076;
1197.0000;0.5185;3.1052;
1197.3000;0.5144;3.0981;
1197.6000;0.5169;3.0981;
1197.9000;0.5161;3.1005;
1198.2000;0.5144;3.1005;
1198.5000;0.5161;3.1029;
1198.8000;0.5144;3.1076;
1199.1000;0.5153;3.1124;
1199.4000;0.5136;3.1029;
1199.7000;0.5153;3.1029;
1200.0000;0.5096;3.0909;
1200.3000;0.5169;3.1100;
1200.6000;0.5161;3.1005;
1200.9000;0.5153;3.0957;
1201.2000;0.5161;3.0933;
1201.5000;0.5063;3.0694;
1201.8000;0.5169;3.1029;
1202.1000;0.5161;3.1052;
1202.4000;0.5144;3.1076;
1202.7000;0.5161;3.1148;
1203.0000;0.5169;3.1100;
1203.3000;0.5144;3.1029;
1203.6000;0.5161;3.1029;
1203.9000;0.5136;3.1029;
1204.2000;0.5169;3.1076;
1204.5000;0.5153;3.1005;
1204.8000;0.5153;3.1029;
1205.1000;0.5153;3.0957;
1205.4000;0.5153;3.0933;
1205.7000;0.5161;3.0909;
1206.0000;0.5128;3.0909;
1206.3000;0.5136;3.0885;
1206.6000;0.5144;3.0933;
1206.9000;0.5153;3.0909;
1207.2000;0.5153;3.0861;
1207.5000;0.5153;3.0838;
1207.8000;0.5153;3.0861;
1208.1000;0.5153;3.0909;
1208.4000;0.5161;3.0909;
1208.7000;0.5177;3.0933;
1209.0000;0.5136;3.0909;
1209.3000;0.5144;3.0933;
1209.6000;0.5226;3.1172;
1209.9000;0.5177;3.0981;
1210.2000;0.5161;3.0957;
1210.5000;0.5161;3.0981;
1210.8000;0.5161;3.0981;
1211.1000;0.5153;3.1100;
1211.4000;0.5153;3.1029;
1211.7000;0.5169;3.1052;
1212.0000;0.5177;3.1196;
1212.3000;0.5169;3.1148;
1212.6000;0.5144;3.1029;
1212.9000;0.5096;3.0909;
1213.2000;0.5104;3.0933;
1213.5000;0.5144;3.1005;
1213.8000;0.5104;3.0909;
1214.1000;0.5136;3.1005;
1214.4000;0.5144;3.0933;
1214.7000;0.5144;3.0909;
1215.0000;0.5177;3.0981;
1215.3000;0.5161;3.0981;
1215.6000;0.5136;3.0838;
1215.9000;0.5161;3.0861;
1216.2000;0.5136;3.0814;
1216.5000;0.5112;3.0742;
1216.8000;0.5153;3.0838;
1217.1000;0.5234;3.1005;
1217.4000;0.5153;3.0814;
1217.7000;0.5210;3.1052;
1218.0000;0.5218;3.1076;
1218.3000;0.5153;3.0933;
1218.6000;0.5169;3.0909;
1218.9000;0.5153;3.0742;
1219.2000;0.5161;3.0766;
1219.5000;0.5161;3.0838;
1219.8000;0.5169;3.0861;
1220.1000;0.5128;3.0766;
1220.4000;0.5161;3.0885;
1220.7000;0.5153;3.0885;
1221.0000;0.5161;3.0957;
1221.3000;0.5161;3.0909;
1221.6000;0.5218;3.1196;
1221.9000;0.5153;3.1005;
1222.2000;0.5153;3.0933;
1222.5000;0.5144;3.0909;
1222.8000;0.5144;3.0838;
1223.1000;0.5128;3.0838;
1223.4000;0.5153;3.0790;
1223.7000;0.5128;3.0742;
1224.0000;0.5153;3.0742;
1224.3000;0.5153;3.0814;
1224.6000;0.5104;3.0742;
1224.9000;0.5144;3.0909;
1225.2000;0.5177;3.0909;
1225.5000;0.5128;3.0790;
1225.8000;0.5136;3.0766;
1226.1000;0.5153;3.0790;
1226.4000;0.5153;3.0766;
1226.7000;0.5144;3.0694;
1227.0000;0.5161;3.0790;
1227.3000;0.5169;3.0742;
1227.6000;0.5153;3.0718;
1227.9000;0.5161;3.0861;
1228.2000;0.5144;3.0814;
1228.5000;0.5161;3.0885;
1228.8000;0.5161;3.0838;
1229.1000;0.5144;3.0766;
1229.4000;0.5161;3.0861;
1229.7000;0.5169;3.0885;
1230.0000;0.5153;3.0957;
1230.3000;0.5144;3.0957;
1230.6000;0.5120;3.0861;
1230.9000;0.5153;3.0981;
1231.2000;0.5144;3.0957;
1231.5000;0.5153;3.0957;
1231.8000;0.5153;3.1005;
1232.1000;0.5161;3.1100;
1232.4000;0.5153;3.1100;
1232.7000;0.5153;3.1052;
1233.0000;0.5185;3.1100;
1233.3000;0.5161;3.1124;
1233.6000;0.5161;3.1052;
1233.9000;0.5210;3.1243;
1234.2000;0.5144;3.1148;
1234.5000;0.5153;3.1172;
1234.8000;0.5161;3.1029;
1235.1000;0.5201;3.1052;
1235.4000;0.5144;3.0885;
1235.7000;0.5136;3.0861;
1236.0000;0.5128;3.0742;
1236.3000;0.5169;3.0718;
1236.6000;0.5153;3.0694;
1236.9000;0.5144;3.0742;
1237.2000;0.5169;3.0861;
1237.5000;0.5063;3.0551;
1237.8000;0.5153;3.0766;
1238.1000;0.5144;3.0790;
1238.4000;0.5169;3.0838;
1238.7000;0.5136;3.0766;
1239.0000;0.5242;3.1029;
1239.3000;0.5136;3.0742;
1239.6000;0.5144;3.0766;
1239.9000;0.5161;3.0790;
1240.2000;0.5161;3.0814;
1240.5000;0.5161;3.0909;
1240.8000;0.5169;3.0981;
1241.1000;0.5169;3.0981;
1241.4000;0.5161;3.0981;
1241.7000;0.5128;3.0861;
1242.0000;0.5169;3.0885;
1242.3000;0.5169;3.0933;
1242.6000;0.5153;3.0933;
1242.9000;0.5161;3.0861;
1243.2000;0.5153;3.0814;
1243.5000;0.5153;3.0766;
1243.8000;0.5153;3.0742;
1244.1000;0.5153;3.0766;
1244.4000;0.5144;3.0861;
1244.7000;0.5153;3.0957;
1245.0000;0.5153;3.0909;
1245.3000;0.5144;3.0933;
1245.6000;0.5144;3.1005;
1245.9000;0.5153;3.1005;
1246.2000;0.5210;3.1172;
1246.5000;0.5226;3.1220;
1246.8000;0.5128;3.1076;
1247.1000;0.5120;3.1100;
1247.4000;0.5161;3.1124;
1247.7000;0.5136;3.1124;
1248.0000;0.5153;3.1124;
1248.3000;0.5144;3.1076;
1248.6000;0.5136;3.1076;
1248.9000;0.5136;3.1029;
1249.2000;0.5144;3.1052;
1249.5000;0.5153;3.1100;
1249.8000;0.5144;3.1220;
1250.1000;0.5144;3.1220;
1250.4000;0.5144;3.1076;
1250.7000;0.5161;3.1148;
1251.0000;0.5161;3.1172;
1251.3000;0.5169;3.1267;
1251.6000;0.5153;3.1243;
1251.9000;0.5153;3.1339;
1252.2000;0.5153;3.1291;
1252.5000;0.5161;3.1220;
1252.8000;0.5161;3.1100;
1253.1000;0.5136;3.1005;
1253.4000;0.5153;3.1029;
1253.7000;0.5144;3.1052;
1254.0000;0.5144;3.1005;
1254.3000;0.5153;3.1029;
1254.6000;0.5153;3.1005;
1254.9000;0.5144;3.1100;
1255.2000;0.5136;3.1100;
1255.5000;0.5144;3.1052;
1255.8000;0.5153;3.0981;
1256.1000;0.5144;3.0957;
1256.4000;0.5161;3.0885;
1256.7000;0.5153;3.0814;
1257.0000;0.5161;3.0861;
1257.3000;0.5120;3.0814;
1257.6000;0.5153;3.0885;
1257.9000;0.5153;3.0957;
1258.2000;0.5161;3.1076;
1258.5000;0.5153;3.0933;
1258.8000;0.5161;3.0909;
1259.1000;0.5144;3.0909;
1259.4000;0.5153;3.0957;
1259.7000;0.5144;3.1076;
1260.0000;0.5136;3.1052;
1260.3000;0.5144;3.1124;
1260.6000;0.5120;3.1029;
1260.9000;0.5144;3.1029;
1261.2000;0.5079;3.0790;
1261.5000;0.5161;3.1005;
1261.8000;0.5144;3.1029;
1262.1000;0.5136;3.1052;
1262.4000;0.5144;3.1052;
1262.7000;0.5136;3.1076;
1263.0000;0.5128;3.1100;
1263.3000;0.5144;3.1076;
1263.6000;0.5136;3.0933;
1263.9000;0.5153;3.0957;
1264.2000;0.5120;3.0909;
1264.5000;0.5169;3.1052;
1264.8000;0.5234;3.1172;
1265.1000;0.5128;3.0861;
1265.4000;0.5161;3.0909;
1265.7000;0.5153;3.0957;
1266.0000;0.5136;3.1005;
1266.3000;0.5144;3.1005;
1266.6000;0.5104;3.0766;
1266.9000;0.5161;3.0909;
1267.2000;0.5201;3.1100;
1267.5000;0.5177;3.0957;
1267.8000;0.5063;3.0671;
1268.1000;0.5169;3.0861;
1268.4000;0.5153;3.0885;
1268.7000;0.5153;3.0861;
1269.0000;0.5169;3.0861;
1269.3000;0.5161;3.0766;
1269.6000;0.5128;3.0742;
1269.9000;0.5096;3.0599;
1270.2000;0.5136;3.0718;
1270.5000;0.5161;3.0861;
1270.8000;0.5169;3.0957;
1271.1000;0.5193;3.0957;
1271.4000;0.5218;3.0981;
1271.7000;0.5161;3.0790;
1272.0000;0.5177;3.0790;
1272.3000;0.5161;3.0838;
1272.6000;0.5161;3.0838;
1272.9000;0.5153;3.0814;
1273.2000;0.5226;3.1005;
1273.5000;0.5136;3.0814;
1273.8000;0.5169;3.0861;
1274.1000;0.5161;3.0885;
1274.4000;0.5112;3.0742;
1274.7000;0.5161;3.0838;
1275.0000;0.5161;3.0742;
1275.3000;0.5177;3.0742;
1275.6000;0.5144;3.0647;
1275.9000;0.5153;3.0742;
1276.2000;0.5161;3.0790;
1276.5000;0.5153;3.0838;
1276.8000;0.5177;3.0909;
1277.1000;0.5161;3.0933;
1277.4000;0.5144;3.0933;
1277.7000;0.5185;3.0957;
1278.0000;0.5185;3.0909;
1278.3000;0.5136;3.0861;
1278.6000;0.5169;3.0957;
1278.9000;0.5136;3.0838;
1279.2000;0.5144;3.0814;
1279.5000;0.5161;3.0861;
1279.8000;0.5161;3.0861;
1280.1000;0.5153;3.0861;
1280.4000;0.5120;3.0766;
1280.7000;0.5161;3.0885;
1281.0000;0.5144;3.0814;
1281.3000;0.5088;3.0671;
1281.6000;0.5136;3.0766;
1281.9000;0.5177;3.0885;
1282.2000;0.5169;3.0885;
1282.5000;0.5136;3.0790;
1282.8000;0.5153;3.0814;
1283.1000;0.5210;3.0981;
1283.4000;0.5161;3.0885;
1283.7000;0.5079;3.0694;
1284.0000;0.5136;3.0838;
1284.3000;0.5144;3.0838;
1284.6000;0.5136;3.0838;
1284.9000;0.5161;3.0838;
1285.2000;0.5169;3.0790;
1285.5000;0.5153;3.0814;
1285.8000;0.5104;3.0742;
1286.1000;0.5144;3.0838;
1286.4000;0.5144;3.0790;
1286.7000;0.5193;3.0957;
1287.0000;0.5169;3.0957;
1287.3000;0.5169;3.0957;
1287.6000;0.5136;3.0909;
1287.9000;0.5169;3.0909;
1288.2000;0.5161;3.0838;
1288.5000;0.5177;3.0861;
1288.8000;0.5144;3.0814;
1289.1000;0.5071;3.0623;
1289.4000;0.5128;3.0694;
1289.7000;0.5153;3.0718;
1290.0000;0.5128;3.0790;
1290.3000;0.5144;3.0766;
1290.6000;0.5169;3.0766;
1290.9000;0.5144;3.0742;
1291.2000;0.5128;3.0623;
1291.5000;0.5112;3.0694;
1291.8000;0.5153;3.0766;
1292.1000;0.5193;3.0838;
1292.4000;0.5177;3.0790;
1292.7000;0.5169;3.0814;
1293.0000;0.5177;3.0790;
1293.3000;0.5161;3.0671;
1293.6000;0.5144;3.0551;
1293.9000;0.5153;3.0551;
1294.2000;0.5161;3.0623;
1294.5000;0.5153;3.0718;
1294.8000;0.5161;3.0647;
1295.1000;0.5120;3.0671;
1295.4000;0.5193;3.0909;
1295.7000;0.5169;3.0838;
1296.0000;0.5177;3.0814;
1296.3000;0.5144;3.0647;
1296.6000;0.5144;3.0671;
1296.9000;0.5161;3.0790;
1297.2000;0.5169;3.0838;
1297.5000;0.5153;3.0790;
1297.8000;0.5153;3.0885;
1298.1000;0.5177;3.0909;
1298.4000;0.5153;3.0861;
1298.7000;0.5161;3.0838;
1299.0000;0.5161;3.0790;
1299.3000;0.5153;3.0790;
1299.6000;0.5177;3.0885;
1299.9000;0.5144;3.0790;
1300.2000;0.5136;3.0742;
1300.5000;0.5153;3.0814;
1300.8000;0.5161;3.0790;
1301.1000;0.5153;3.0814;
1301.4000;0.5161;3.0909;
1301.7000;0.5153;3.0861;
1302.0000;0.5136;3.0742;
1302.3000;0.5161;3.0909;
1302.6000;0.5153;3.0909;
1302.9000;0.5169;3.0861;
1303.2000;0.5136;3.0838;
1303.5000;0.5153;3.0838;
1303.8000;0.5169;3.0838;
1304.1000;0.5144;3.0814;
1304.4000;0.5112;3.0742;
1304.7000;0.5128;3.0766;
1305.0000;0.5218;3.0957;
1305.3000;0.5136;3.0718;
1305.6000;0.5177;3.0742;
1305.9000;0.5161;3.0671;
1306.2000;0.5169;3.0647;
1306.5000;0.5071;3.0503;
1306.8000;0.5153;3.0599;
1307.1000;0.5161;3.0575;
1307.4000;0.5177;3.0718;
1307.7000;0.5177;3.0790;
1308.0000;0.5136;3.0742;
1308.3000;0.5185;3.0718;
1308.6000;0.5169;3.0647;
1308.9000;0.5153;3.0623;
1309.2000;0.5136;3.0575;
1309.5000;0.5120;3.0575;
1309.8000;0.5153;3.0671;
1310.1000;0.5096;3.0599;
1310.4000;0.5161;3.0694;
1310.7000;0.5047;3.0456;
1311.0000;0.5161;3.0694;
1311.3000;0.5210;3.0814;
1311.6000;0.5136;3.0718;
1311.9000;0.5153;3.0766;
1312.2000;0.5153;3.0790;
1312.5000;0.5136;3.0838;
1312.8000;0.5234;3.1076;
1313.1000;0.5161;3.0957;
1313.4000;0.5153;3.0861;
1313.7000;0.5161;3.0742;
1314.0000;0.5144;3.0718;
1314.3000;0.5128;3.0623;
1314.6000;0.5144;3.0671;
1314.9000;0.5153;3.0647;
1315.2000;0.5161;3.0694;
1315.5000;0.5161;3.0718;
1315.8000;0.5169;3.0742;
1316.1000;0.5136;3.0647;
1316.4000;0.5153;3.0671;
1316.7000;0.5161;3.0742;
1317.0000;0.5144;3.0838;
1317.3000;0.5161;3.0861;
1317.6000;0.5153;3.0790;
1317.9000;0.5161;3.0742;
1318.2000;0.5153;3.0742;
1318.5000;0.5071;3.0503;
1318.8000;0.5144;3.0694;
1319.1000;0.5144;3.0647;
1319.4000;0.5144;3.0599;
1319.7000;0.5153;3.0694;
1320.0000;0.5161;3.0742;
1320.3000;0.5144;3.0766;
1320.6000;0.5088;3.0599;
1320.9000;0.5136;3.0790;
1321.2000;0.5161;3.0838;
1321.5000;0.5185;3.0933;
1321.8000;0.5153;3.0981;
1322.1000;0.5144;3.0861;
1322.4000;0.5136;3.0861;
1322.7000;0.5144;3.0933;
1323.0000;0.5136;3.0957;
1323.3000;0.5136;3.1005;
1323.6000;0.5144;3.0957;
1323.9000;0.5153;3.0909;
1324.2000;0.5177;3.0933;
1324.5000;0.5201;3.0981;
1324.8000;0.5153;3.0885;
1325.1000;0.5177;3.1029;
1325.4000;0.5169;3.0957;
1325.7000;0.5161;3.0933;
1326.0000;0.5144;3.0909;
1326.3000;0.5144;3.1005;
1326.6000;0.5161;3.0981;
1326.9000;0.5153;3.0981;
1327.2000;0.5136;3.0885;
1327.5000;0.5161;3.0933;
1327.8000;0.5161;3.0885;
1328.1000;0.5136;3.0838;
1328.4000;0.5153;3.0838;
1328.7000;0.5226;3.1029;
1329.0000;0.5120;3.0790;
1329.3000;0.5153;3.0981;
1329.6000;0.5128;3.0909;
1329.9000;0.5079;3.0790;
1330.2000;0.5096;3.0838;
1330.5000;0.5144;3.0885;
1330.8000;0.5144;3.0861;
1331.1000;0.5144;3.0909;
1331.4000;0.5136;3.0885;
1331.7000;0.5153;3.0981;
1332.0000;0.5201;3.1076;
1332.3000;0.5128;3.0909;
1332.6000;0.5120;3.0933;
1332.9000;0.5136;3.0981;
1333.2000;0.5169;3.1029;
1333.5000;0.5136;3.0885;
1333.8000;0.5161;3.0957;
1334.1000;0.5153;3.0957;
1334.4000;0.5144;3.0933;
1334.7000;0.5185;3.1124;
1335.0000;0.5144;3.1052;
1335.3000;0.5144;3.1076;
1335.6000;0.5153;3.1172;
1335.9000;0.5144;3.1100;
1336.2000;0.5153;3.1052;
1336.5000;0.5177;3.1052;
1336.8000;0.5161;3.0981;
1337.1000;0.5136;3.1052;
1337.4000;0.5153;3.1124;
1337.7000;0.5153;3.1100;
1338.0000;0.5144;3.0957;
1338.3000;0.5144;3.0885;
1338.6000;0.5128;3.0957;
1338.9000;0.5161;3.1005;
1339.2000;0.5153;3.1005;
1339.5000;0.5136;3.0909;
1339.8000;0.5153;3.1029;
1340.1000;0.5153;3.1029;
1340.4000;0.5153;3.1029;
1340.7000;0.5153;3.0981;
1341.0000;0.5153;3.1005;
1341.3000;0.5153;3.0981;
1341.6000;0.5153;3.1076;
1341.9000;0.5153;3.0981;
1342.2000;0.5153;3.0981;
1342.5000;0.5128;3.0909;
1342.8000;0.5153;3.1029;
1343.1000;0.5153;3.0981;
1343.4000;0.5144;3.0933;
1343.7000;0.5144;3.0861;
1344.0000;0.5161;3.0885;
1344.3000;0.5153;3.0861;
1344.6000;0.5153;3.0933;
1344.9000;0.5128;3.0981;
1345.2000;0.5136;3.1005;
1345.5000;0.5153;3.1005;
1345.8000;0.5144;3.0933;
1346.1000;0.5144;3.0838;
1346.4000;0.5161;3.0694;
1346.7000;0.5153;3.0766;
1347.0000;0.5177;3.0814;
1347.3000;0.5144;3.0861;
1347.6000;0.5104;3.0742;
1347.9000;0.5161;3.0861;
1348.2000;0.5161;3.0790;
1348.5000;0.5161;3.0694;
1348.8000;0.5153;3.0718;
1349.1000;0.5153;3.0814;
1349.4000;0.5169;3.0742;
1349.7000;0.5169;3.0671;
1350.0000;0.5153;3.0671;
1350.3000;0.5136;3.0718;
1350.6000;0.5169;3.0814;
1350.9000;0.5153;3.0694;
1351.2000;0.5161;3.0766;
1351.5000;0.5153;3.0838;
1351.8000;0.5177;3.0933;
1352.1000;0.5153;3.0933;
1352.4000;0.5153;3.0933;
1352.7000;0.5128;3.0861;
1353.0000;0.5161;3.0933;
1353.3000;0.5161;3.0885;
1353.6000;0.5153;3.0838;
1353.9000;0.5177;3.1029;
1354.2000;0.5177;3.0957;
1354.5000;0.5161;3.0861;
1354.8000;0.5161;3.0861;
1355.1000;0.5136;3.0766;
1355.4000;0.5161;3.0838;
1355.7000;0.5161;3.0957;
1356.0000;0.5169;3.1052;
1356.3000;0.5153;3.0885;
1356.6000;0.5193;3.1005;
1356.9000;0.5153;3.0909;
1357.2000;0.5153;3.0861;
1357.5000;0.5096;3.0718;
1357.8000;0.5136;3.0861;
1358.1000;0.5161;3.0933;
1358.4000;0.5169;3.1005;
1358.7000;0.5177;3.1076;
1359.0000;0.5169;3.1052;
1359.3000;0.5161;3.1076;
1359.6000;0.5185;3.1124;
1359.9000;0.5136;3.1005;
1360.2000;0.5136;3.0957;
1360.5000;0.5177;3.1005;
1360.8000;0.5153;3.0957;
1361.1000;0.5161;3.0861;
1361.4000;0.5169;3.0718;
1361.7000;0.5144;3.0742;
1362.0000;0.5153;3.0742;
1362.3000;0.5161;3.0814;
1362.6000;0.5210;3.0981;
1362.9000;0.5144;3.0885;
1363.2000;0.5153;3.0933;
1363.5000;0.5169;3.0957;
1363.8000;0.5250;3.1196;
1364.1000;0.5153;3.0933;
1364.4000;0.5153;3.0981;
1364.7000;0.5128;3.0861;
1365.0000;0.5153;3.0861;
1365.3000;0.5153;3.0861;
1365.6000;0.5136;3.0790;
1365.9000;0.5144;3.0694;
1366.2000;0.5161;3.0742;
1366.5000;0.5153;3.0742;
1366.8000;0.5144;3.0718;
1367.1000;0.5153;3.0766;
1367.4000;0.5136;3.0814;
1367.7000;0.5136;3.0861;
1368.0000;0.5144;3.0933;
1368.3000;0.5153;3.0981;
1368.6000;0.5226;3.1148;
1368.9000;0.5153;3.0933;
1369.2000;0.5144;3.0909;
1369.5000;0.5153;3.0909;
1369.8000;0.5218;3.1172;
1370.1000;0.5153;3.1052;
1370.4000;0.5128;3.1076;
1370.7000;0.5144;3.1052;
1371.0000;0.5136;3.0981;
1371.3000;0.5136;3.0933;
1371.6000;0.5088;3.0766;
1371.9000;0.5144;3.0981;
1372.2000;0.5144;3.0933;
1372.5000;0.5144;3.1005;
1372.8000;0.5161;3.1100;
1373.1000;0.5169;3.1100;
1373.4000;0.5088;3.0861;
1373.7000;0.5201;3.1124;
1374.0000;0.5144;3.0981;
1374.3000;0.5112;3.0909;
1374.6000;0.5104;3.1005;
1374.9000;0.5169;3.1124;
1375.2000;0.5079;3.0861;
1375.5000;0.5104;3.0861;
1375.8000;0.5169;3.0981;
1376.1000;0.5144;3.0909;
1376.4000;0.5128;3.0885;
1376.7000;0.5136;3.0885;
1377.0000;0.5136;3.0861;
1377.3000;0.5153;3.0838;
1377.6000;0.5144;3.0814;
1377.9000;0.5136;3.0766;
1378.2000;0.5144;3.0766;
1378.5000;0.5153;3.0766;
1378.8000;0.5144;3.0790;
1379.1000;0.5144;3.0838;
1379.4000;0.5153;3.0909;
1379.7000;0.5169;3.0933;
1380.0000;0.5104;3.0718;
1380.3000;0.5144;3.0790;
1380.6000;0.5128;3.0742;
1380.9000;0.5136;3.0766;
1381.2000;0.5161;3.0790;
1381.5000;0.5144;3.0742;
1381.8000;0.5096;3.0623;
1382.1000;0.5161;3.0766;
1382.4000;0.5144;3.0671;
1382.7000;0.5161;3.0718;
1383.0000;0.5161;3.0861;
1383.3000;0.5144;3.0838;
1383.6000;0.5185;3.0909;
1383.9000;0.5144;3.0766;
1384.2000;0.5136;3.0838;
1384.5000;0.5136;3.0790;
1384.8000;0.5120;3.0766;
1385.1000;0.5144;3.0790;
1385.4000;0.5144;3.0790;
1385.7000;0.5136;3.0885;
1386.0000;0.5104;3.0861;
1386.3000;0.5120;3.0861;
1386.6000;0.5120;3.0814;
1386.9000;0.5136;3.0981;
1387.2000;0.5177;3.1005;
1387.5000;0.5144;3.0933;
1387.8000;0.5169;3.0933;
1388.1000;0.5136;3.0885;
1388.4000;0.5144;3.0909;
1388.7000;0.5201;3.1076;
1389.0000;0.5144;3.0981;
1389.3000;0.5161;3.0981;
1389.6000;0.5169;3.1005;
1389.9000;0.5128;3.0885;
1390.2000;0.5153;3.0838;
1390.5000;0.5153;3.0814;
1390.8000;0.5136;3.0814;
1391.1000;0.5153;3.0838;
1391.4000;0.5161;3.0861;
1391.7000;0.5136;3.0861;
1392.0000;0.5128;3.0838;
1392.3000;0.5153;3.0909;
1392.6000;0.5136;3.0790;
1392.9000;0.5153;3.0838;
1393.2000;0.5144;3.0909;
1393.5000;0.5218;3.1124;
1393.8000;0.5177;3.1029;
1394.1000;0.5185;3.1029;
1394.4000;0.5153;3.0957;
1394.7000;0.5153;3.0957;
1395.0000;0.5169;3.0981;
1395.3000;0.5169;3.0957;
1395.6000;0.5144;3.0933;
1395.9000;0.5128;3.0838;
1396.2000;0.5136;3.0885;
1396.5000;0.5161;3.0861;
1396.8000;0.5136;3.0885;
1397.1000;0.5177;3.0981;
1397.4000;0.5177;3.0981;
1397.7000;0.5153;3.0885;
1398.0000;0.5136;3.0838;
1398.3000;0.5128;3.0790;
1398.6000;0.5136;3.0838;
1398.9000;0.5161;3.0861;
1399.2000;0.5161;3.0814;
1399.5000;0.5104;3.0647;
1399.8000;0.5144;3.0671;
