time/ms;Fluo/V;P700 deltaI/I x10³;
-199.8000;0.3997;0.4773;
-199.5000;0.3997;0.4797;
-199.2000;0.4005;0.4870;
-198.9000;0.3997;0.4846;
-198.6000;0.4005;0.4894;
-198.3000;0.3997;0.4943;
-198.0000;0.3940;0.4773;
-197.7000;0.3997;0.4919;
-197.4000;0.3997;0.4943;
-197.1000;0.4005;0.5114;
-196.8000;0.4005;0.5065;
-196.5000;0.3997;0.5016;
-196.2000;0.4013;0.4943;
-195.9000;0.4005;0.4870;
-195.6000;0.4013;0.4773;
-195.3000;0.4021;0.4797;
-195.0000;0.4046;0.4894;
-194.7000;0.4005;0.4821;
-194.4000;0.3997;0.4797;
-194.1000;0.3997;0.4846;
-193.8000;0.3997;0.4821;
-193.5000;0.4005;0.4797;
-193.2000;0.4005;0.4797;
-192.9000;0.3989;0.4821;
-192.6000;0.3997;0.4797;
-192.3000;0.4005;0.4870;
-192.0000;0.3972;0.4627;
-191.7000;0.4005;0.4724;
-191.4000;0.3989;0.4797;
-191.1000;0.4005;0.4894;
-190.8000;0.3997;0.4919;
-190.5000;0.3989;0.4870;
-190.2000;0.4005;0.4846;
-189.9000;0.4062;0.4967;
-189.6000;0.3997;0.4846;
-189.3000;0.4005;0.4748;
-189.0000;0.4013;0.4724;
-188.7000;0.4005;0.4821;
-188.4000;0.4013;0.4894;
-188.1000;0.4005;0.4846;
-187.8000;0.3989;0.4870;
-187.5000;0.3980;0.4821;
-187.2000;0.4013;0.4870;
-186.9000;0.3980;0.4797;
-186.6000;0.3997;0.4870;
-186.3000;0.4005;0.4870;
-186.0000;0.3997;0.4894;
-185.7000;0.4021;0.4967;
-185.4000;0.4005;0.4846;
-185.1000;0.4013;0.4870;
-184.8000;0.4013;0.4919;
-184.5000;0.4013;0.4870;
-184.2000;0.4005;0.4919;
-183.9000;0.4005;0.4919;
-183.6000;0.4005;0.4894;
-183.3000;0.4005;0.4894;
-183.0000;0.4013;0.4967;
-182.7000;0.4013;0.4894;
-182.4000;0.3980;0.4870;
-182.1000;0.4021;0.4992;
-181.8000;0.4021;0.5138;
-181.5000;0.3989;0.5016;
-181.2000;0.3997;0.5040;
-180.9000;0.3972;0.4919;
-180.6000;0.4005;0.4797;
-180.3000;0.3948;0.4748;
-180.0000;0.4005;0.4919;
-179.7000;0.4013;0.4967;
-179.4000;0.3989;0.4943;
-179.1000;0.3997;0.4992;
-178.8000;0.4013;0.5016;
-178.5000;0.3989;0.4943;
-178.2000;0.4005;0.5016;
-177.9000;0.3997;0.5016;
-177.6000;0.3989;0.5016;
-177.3000;0.3989;0.4967;
-177.0000;0.4005;0.5040;
-176.7000;0.4070;0.5138;
-176.4000;0.4005;0.4894;
-176.1000;0.3997;0.4894;
-175.8000;0.4005;0.4967;
-175.5000;0.4005;0.4992;
-175.2000;0.3989;0.4919;
-174.9000;0.3972;0.4870;
-174.6000;0.3997;0.4943;
-174.3000;0.3980;0.4992;
-174.0000;0.4013;0.5065;
-173.7000;0.3997;0.5016;
-173.4000;0.4013;0.5040;
-173.1000;0.4037;0.5016;
-172.8000;0.3989;0.4943;
-172.5000;0.4029;0.4992;
-172.2000;0.4062;0.5138;
-171.9000;0.3972;0.4870;
-171.6000;0.4013;0.4967;
-171.3000;0.3997;0.4894;
-171.0000;0.4013;0.4894;
-170.7000;0.4013;0.4943;
-170.4000;0.3989;0.4894;
-170.1000;0.4013;0.4919;
-169.8000;0.3980;0.4797;
-169.5000;0.4054;0.5016;
-169.2000;0.3972;0.4797;
-168.9000;0.3980;0.4821;
-168.6000;0.3980;0.4846;
-168.3000;0.3980;0.4870;
-168.0000;0.3972;0.4821;
-167.7000;0.4094;0.5138;
-167.4000;0.3989;0.4870;
-167.1000;0.3964;0.4821;
-166.8000;0.4005;0.5040;
-166.5000;0.4078;0.5187;
-166.2000;0.3980;0.5114;
-165.9000;0.4013;0.5211;
-165.6000;0.4005;0.5187;
-165.3000;0.4062;0.5357;
-165.0000;0.4013;0.5187;
-164.7000;0.3980;0.5065;
-164.4000;0.3997;0.5065;
-164.1000;0.3956;0.4943;
-163.8000;0.3964;0.5089;
-163.5000;0.4029;0.5260;
-163.2000;0.4021;0.5211;
-162.9000;0.4005;0.5187;
-162.6000;0.4021;0.5187;
-162.3000;0.3980;0.5114;
-162.0000;0.4005;0.5187;
-161.7000;0.3932;0.4967;
-161.4000;0.4029;0.5114;
-161.1000;0.4070;0.5187;
-160.8000;0.4005;0.4967;
-160.5000;0.3940;0.4773;
-160.2000;0.4013;0.5016;
-159.9000;0.4013;0.5040;
-159.6000;0.4013;0.5114;
-159.3000;0.3997;0.5162;
-159.0000;0.4013;0.5162;
-158.7000;0.3980;0.5089;
-158.4000;0.3980;0.5114;
-158.1000;0.4005;0.5187;
-157.8000;0.4013;0.5162;
-157.5000;0.4037;0.5162;
-157.2000;0.3997;0.5016;
-156.9000;0.3997;0.4992;
-156.6000;0.4021;0.5016;
-156.3000;0.3997;0.4992;
-156.0000;0.3997;0.4943;
-155.7000;0.3891;0.4627;
-155.4000;0.4005;0.4992;
-155.1000;0.4029;0.5114;
-154.8000;0.3989;0.4943;
-154.5000;0.4005;0.4894;
-154.2000;0.4013;0.4846;
-153.9000;0.4013;0.4943;
-153.6000;0.4005;0.4919;
-153.3000;0.3997;0.5040;
-153.0000;0.4021;0.5065;
-152.7000;0.3997;0.5016;
-152.4000;0.4021;0.5162;
-152.1000;0.4021;0.5114;
-151.8000;0.4021;0.5065;
-151.5000;0.4005;0.5089;
-151.2000;0.4037;0.5089;
-150.9000;0.4037;0.5187;
-150.6000;0.3997;0.5065;
-150.3000;0.4005;0.5065;
-150.0000;0.4046;0.5162;
-149.7000;0.4005;0.5016;
-149.4000;0.3997;0.5065;
-149.1000;0.3940;0.4919;
-148.8000;0.4005;0.5065;
-148.5000;0.3997;0.5089;
-148.2000;0.3964;0.4967;
-147.9000;0.3972;0.4846;
-147.6000;0.4005;0.4919;
-147.3000;0.3980;0.4943;
-147.0000;0.3997;0.4967;
-146.7000;0.3989;0.4919;
-146.4000;0.3989;0.4870;
-146.1000;0.3956;0.4870;
-145.8000;0.4013;0.5016;
-145.5000;0.4005;0.5040;
-145.2000;0.3989;0.4919;
-144.9000;0.3948;0.4821;
-144.6000;0.3980;0.4992;
-144.3000;0.3989;0.5089;
-144.0000;0.4005;0.5065;
-143.7000;0.4054;0.5065;
-143.4000;0.4013;0.4894;
-143.1000;0.4005;0.4894;
-142.8000;0.4013;0.4894;
-142.5000;0.4005;0.4992;
-142.2000;0.4013;0.4943;
-141.9000;0.4078;0.5065;
-141.6000;0.4013;0.4870;
-141.3000;0.4029;0.4919;
-141.0000;0.4005;0.4846;
-140.7000;0.4021;0.4894;
-140.4000;0.4005;0.4992;
-140.1000;0.3997;0.5040;
-139.8000;0.4005;0.5138;
-139.5000;0.3989;0.5016;
-139.2000;0.3997;0.4943;
-138.9000;0.3997;0.4846;
-138.6000;0.3997;0.4870;
-138.3000;0.3980;0.4846;
-138.0000;0.4078;0.5138;
-137.7000;0.4005;0.4894;
-137.4000;0.4078;0.5016;
-137.1000;0.4005;0.4870;
-136.8000;0.3923;0.4700;
-136.5000;0.3997;0.4919;
-136.2000;0.4013;0.4967;
-135.9000;0.4005;0.4992;
-135.6000;0.3980;0.5040;
-135.3000;0.3972;0.4967;
-135.0000;0.4005;0.4967;
-134.7000;0.3997;0.5040;
-134.4000;0.3997;0.5114;
-134.1000;0.3972;0.5089;
-133.8000;0.3980;0.5065;
-133.5000;0.4005;0.5114;
-133.2000;0.3989;0.5162;
-132.9000;0.3964;0.5016;
-132.6000;0.4037;0.5138;
-132.3000;0.4037;0.5138;
-132.0000;0.3989;0.4943;
-131.7000;0.4013;0.4992;
-131.4000;0.3907;0.4675;
-131.1000;0.4021;0.4846;
-130.8000;0.3997;0.4821;
-130.5000;0.3989;0.4773;
-130.2000;0.3989;0.4846;
-129.9000;0.4005;0.4943;
-129.6000;0.3997;0.5016;
-129.3000;0.3972;0.4992;
-129.0000;0.3980;0.4943;
-128.7000;0.3997;0.4943;
-128.4000;0.3980;0.4894;
-128.1000;0.3972;0.4894;
-127.8000;0.3972;0.4894;
-127.5000;0.3989;0.4967;
-127.2000;0.3997;0.4992;
-126.9000;0.4005;0.4943;
-126.6000;0.4021;0.4967;
-126.3000;0.3989;0.4870;
-126.0000;0.3980;0.4870;
-125.7000;0.3989;0.4894;
-125.4000;0.3980;0.4846;
-125.1000;0.3997;0.4773;
-124.8000;0.3997;0.4724;
-124.5000;0.3997;0.4748;
-124.2000;0.3997;0.4700;
-123.9000;0.3997;0.4748;
-123.6000;0.3980;0.4773;
-123.3000;0.3980;0.4748;
-123.0000;0.4021;0.4846;
-122.7000;0.3972;0.4748;
-122.4000;0.3997;0.4821;
-122.1000;0.4013;0.4894;
-121.8000;0.3997;0.4797;
-121.5000;0.3997;0.4797;
-121.2000;0.3989;0.4773;
-120.9000;0.4013;0.4700;
-120.6000;0.3980;0.4675;
-120.3000;0.3948;0.4627;
-120.0000;0.4005;0.4773;
-119.7000;0.3989;0.4919;
-119.4000;0.3997;0.4797;
-119.1000;0.4005;0.4870;
-118.8000;0.3997;0.4821;
-118.5000;0.3997;0.4821;
-118.2000;0.4013;0.4943;
-117.9000;0.4005;0.4943;
-117.6000;0.3980;0.4919;
-117.3000;0.4005;0.4894;
-117.0000;0.4013;0.4870;
-116.7000;0.4005;0.4797;
-116.4000;0.4013;0.4870;
-116.1000;0.3997;0.4846;
-115.8000;0.3997;0.4894;
-115.5000;0.3915;0.4651;
-115.2000;0.3997;0.4894;
-114.9000;0.4021;0.4894;
-114.6000;0.4005;0.4846;
-114.3000;0.3997;0.4724;
-114.0000;0.3997;0.4797;
-113.7000;0.3997;0.4773;
-113.4000;0.3980;0.4797;
-113.1000;0.3997;0.4870;
-112.8000;0.4021;0.4919;
-112.5000;0.4013;0.4943;
-112.2000;0.4005;0.4870;
-111.9000;0.3989;0.4821;
-111.6000;0.4005;0.4846;
-111.3000;0.4013;0.4821;
-111.0000;0.4021;0.4894;
-110.7000;0.4029;0.4967;
-110.4000;0.3989;0.4919;
-110.1000;0.3980;0.4894;
-109.8000;0.4021;0.4992;
-109.5000;0.4062;0.5138;
-109.2000;0.3989;0.4943;
-108.9000;0.4046;0.4943;
-108.6000;0.3940;0.4602;
-108.3000;0.3972;0.4748;
-108.0000;0.3989;0.4870;
-107.7000;0.3997;0.4894;
-107.4000;0.3907;0.4651;
-107.1000;0.3989;0.4919;
-106.8000;0.3980;0.4919;
-106.5000;0.4037;0.5016;
-106.2000;0.4046;0.4919;
-105.9000;0.3989;0.4821;
-105.6000;0.4005;0.4846;
-105.3000;0.4005;0.4870;
-105.0000;0.3980;0.4894;
-104.7000;0.4013;0.4967;
-104.4000;0.3997;0.4919;
-104.1000;0.3980;0.4870;
-103.8000;0.3997;0.4919;
-103.5000;0.3972;0.4797;
-103.2000;0.3989;0.4846;
-102.9000;0.3997;0.4821;
-102.6000;0.3980;0.4748;
-102.3000;0.3980;0.4773;
-102.0000;0.4005;0.4846;
-101.7000;0.3997;0.4846;
-101.4000;0.4005;0.4821;
-101.1000;0.4005;0.4821;
-100.8000;0.3989;0.4748;
-100.5000;0.4013;0.4773;
-100.2000;0.4029;0.4894;
-99.9000;0.3997;0.4773;
-99.6000;0.3997;0.4797;
-99.3000;0.4005;0.4797;
-99.0000;0.4005;0.4773;
-98.7000;0.4062;0.5016;
-98.4000;0.4013;0.4992;
-98.1000;0.4013;0.5040;
-97.8000;0.3989;0.4967;
-97.5000;0.3972;0.4846;
-97.2000;0.3980;0.4846;
-96.9000;0.3972;0.4943;
-96.6000;0.3997;0.5065;
-96.3000;0.3997;0.5040;
-96.0000;0.3980;0.4992;
-95.7000;0.3980;0.4992;
-95.4000;0.3997;0.4992;
-95.1000;0.3989;0.4943;
-94.8000;0.3997;0.4846;
-94.5000;0.4021;0.4894;
-94.2000;0.3997;0.4797;
-93.9000;0.3989;0.4773;
-93.6000;0.3932;0.4578;
-93.3000;0.3964;0.4675;
-93.0000;0.3980;0.4700;
-92.7000;0.4013;0.4870;
-92.4000;0.3972;0.4797;
-92.1000;0.3972;0.4773;
-91.8000;0.4005;0.4821;
-91.5000;0.3956;0.4797;
-91.2000;0.3997;0.4894;
-90.9000;0.4005;0.4967;
-90.6000;0.4013;0.5040;
-90.3000;0.3948;0.4797;
-90.0000;0.4013;0.4967;
-89.7000;0.3997;0.4967;
-89.4000;0.4013;0.4967;
-89.1000;0.3997;0.5016;
-88.8000;0.4005;0.5065;
-88.5000;0.4029;0.5162;
-88.2000;0.4005;0.5162;
-87.9000;0.4013;0.5162;
-87.6000;0.4005;0.5138;
-87.3000;0.3997;0.4967;
-87.0000;0.4005;0.4967;
-86.7000;0.3997;0.4943;
-86.4000;0.4005;0.4919;
-86.1000;0.3980;0.4846;
-85.8000;0.4054;0.5016;
-85.5000;0.3997;0.4870;
-85.2000;0.3989;0.4919;
-84.9000;0.3997;0.5016;
-84.6000;0.3980;0.5040;
-84.3000;0.4005;0.5114;
-84.0000;0.3932;0.4967;
-83.7000;0.3997;0.5065;
-83.4000;0.3997;0.5065;
-83.1000;0.3989;0.5040;
-82.8000;0.4021;0.5162;
-82.5000;0.4005;0.5138;
-82.2000;0.3989;0.5065;
-81.9000;0.3989;0.5089;
-81.6000;0.3997;0.5089;
-81.3000;0.4005;0.5040;
-81.0000;0.4070;0.5235;
-80.7000;0.4013;0.5065;
-80.4000;0.3997;0.5040;
-80.1000;0.4021;0.5065;
-79.8000;0.4005;0.5065;
-79.5000;0.3989;0.5089;
-79.2000;0.3997;0.5065;
-78.9000;0.4013;0.5114;
-78.6000;0.3997;0.5114;
-78.3000;0.3989;0.5040;
-78.0000;0.3997;0.4992;
-77.7000;0.3964;0.4967;
-77.4000;0.4013;0.4967;
-77.1000;0.3997;0.4894;
-76.8000;0.4005;0.4870;
-76.5000;0.3972;0.4797;
-76.2000;0.3997;0.4846;
-75.9000;0.3997;0.4773;
-75.6000;0.4021;0.4846;
-75.3000;0.3980;0.4748;
-75.0000;0.3989;0.4870;
-74.7000;0.3997;0.4870;
-74.4000;0.3989;0.4919;
-74.1000;0.3997;0.4797;
-73.8000;0.3989;0.4821;
-73.5000;0.4029;0.4943;
-73.2000;0.3972;0.4821;
-72.9000;0.3980;0.4821;
-72.6000;0.3989;0.4773;
-72.3000;0.3997;0.4773;
-72.0000;0.3989;0.4773;
-71.7000;0.4021;0.4797;
-71.4000;0.3997;0.4821;
-71.1000;0.4005;0.4773;
-70.8000;0.4062;0.4846;
-70.5000;0.3997;0.4724;
-70.2000;0.3997;0.4602;
-69.9000;0.4013;0.4675;
-69.6000;0.4013;0.4602;
-69.3000;0.4005;0.4651;
-69.0000;0.3997;0.4748;
-68.7000;0.3997;0.4821;
-68.4000;0.4005;0.4894;
-68.1000;0.4021;0.4992;
-67.8000;0.3989;0.4870;
-67.5000;0.3980;0.4846;
-67.2000;0.4005;0.4870;
-66.9000;0.4005;0.4870;
-66.6000;0.3989;0.4821;
-66.3000;0.3989;0.4846;
-66.0000;0.3997;0.4894;
-65.7000;0.3997;0.4943;
-65.4000;0.3997;0.4894;
-65.1000;0.3997;0.4919;
-64.8000;0.3989;0.4919;
-64.5000;0.3997;0.4919;
-64.2000;0.3989;0.4846;
-63.9000;0.3997;0.4919;
-63.6000;0.4005;0.4919;
-63.3000;0.3972;0.4870;
-63.0000;0.3997;0.4967;
-62.7000;0.3997;0.5040;
-62.4000;0.3989;0.5016;
-62.1000;0.4005;0.5040;
-61.8000;0.3972;0.4992;
-61.5000;0.3997;0.5040;
-61.2000;0.3923;0.4773;
-60.9000;0.3989;0.4870;
-60.6000;0.4005;0.4894;
-60.3000;0.4013;0.4894;
-60.0000;0.3972;0.4870;
-59.7000;0.3997;0.4943;
-59.4000;0.3980;0.4943;
-59.1000;0.3964;0.4821;
-58.8000;0.3964;0.4943;
-58.5000;0.3989;0.4919;
-58.2000;0.3980;0.4846;
-57.9000;0.3989;0.4894;
-57.6000;0.3997;0.4919;
-57.3000;0.3964;0.4821;
-57.0000;0.3989;0.4870;
-56.7000;0.3997;0.4919;
-56.4000;0.3997;0.4943;
-56.1000;0.3989;0.4821;
-55.8000;0.4029;0.5040;
-55.5000;0.3997;0.4894;
-55.2000;0.4078;0.5114;
-54.9000;0.4013;0.4992;
-54.6000;0.4005;0.5016;
-54.3000;0.4037;0.5138;
-54.0000;0.4013;0.5114;
-53.7000;0.3964;0.5065;
-53.4000;0.4013;0.5138;
-53.1000;0.3964;0.5040;
-52.8000;0.3989;0.5114;
-52.5000;0.3997;0.5138;
-52.2000;0.3989;0.5114;
-51.9000;0.4005;0.5114;
-51.6000;0.3989;0.5065;
-51.3000;0.3989;0.5016;
-51.0000;0.4013;0.5089;
-50.7000;0.3997;0.5089;
-50.4000;0.4021;0.5089;
-50.1000;0.4029;0.5162;
-49.8000;0.3956;0.4894;
-49.5000;0.4013;0.4967;
-49.2000;0.3997;0.4992;
-48.9000;0.4005;0.4967;
-48.6000;0.4013;0.4919;
-48.3000;0.4021;0.4821;
-48.0000;0.4013;0.4870;
-47.7000;0.4005;0.4870;
-47.4000;0.3989;0.4773;
-47.1000;0.4005;0.4846;
-46.8000;0.4005;0.4870;
-46.5000;0.4013;0.4919;
-46.2000;0.3980;0.4797;
-45.9000;0.3972;0.4821;
-45.6000;0.4013;0.4943;
-45.3000;0.3997;0.4870;
-45.0000;0.3997;0.4943;
-44.7000;0.3989;0.4992;
-44.4000;0.4005;0.4992;
-44.1000;0.4005;0.4943;
-43.8000;0.3980;0.4992;
-43.5000;0.3989;0.4943;
-43.2000;0.4013;0.5040;
-42.9000;0.4005;0.4919;
-42.6000;0.4005;0.4943;
-42.3000;0.3989;0.4846;
-42.0000;0.4005;0.4943;
-41.7000;0.4021;0.5016;
-41.4000;0.3980;0.4967;
-41.1000;0.4005;0.5016;
-40.8000;0.3997;0.5065;
-40.5000;0.4013;0.5187;
-40.2000;0.4005;0.5089;
-39.9000;0.4013;0.5114;
-39.6000;0.3989;0.5040;
-39.3000;0.3997;0.5138;
-39.0000;0.3997;0.5138;
-38.7000;0.4005;0.5187;
-38.4000;0.3989;0.5089;
-38.1000;0.4021;0.5162;
-37.8000;0.4005;0.5114;
-37.5000;0.3997;0.5138;
-37.2000;0.3989;0.5138;
-36.9000;0.3997;0.5089;
-36.6000;0.4029;0.5211;
-36.3000;0.4054;0.5284;
-36.0000;0.3997;0.5235;
-35.7000;0.4005;0.5162;
-35.4000;0.4013;0.5114;
-35.1000;0.3997;0.5187;
-34.8000;0.4005;0.5211;
-34.5000;0.3980;0.5138;
-34.2000;0.3940;0.4943;
-33.9000;0.3997;0.5065;
-33.6000;0.3989;0.5089;
-33.3000;0.4013;0.5235;
-33.0000;0.3980;0.5162;
-32.7000;0.4005;0.5162;
-32.4000;0.3997;0.5114;
-32.1000;0.3997;0.5016;
-31.8000;0.3997;0.5065;
-31.5000;0.4005;0.5089;
-31.2000;0.4005;0.5138;
-30.9000;0.4021;0.5211;
-30.6000;0.4021;0.5162;
-30.3000;0.4013;0.5211;
-30.0000;0.4037;0.5260;
-29.7000;0.3972;0.5114;
-29.4000;0.3997;0.5187;
-29.1000;0.3997;0.5138;
-28.8000;0.3964;0.5138;
-28.5000;0.4005;0.5211;
-28.2000;0.3997;0.5138;
-27.9000;0.4005;0.5187;
-27.6000;0.3989;0.5114;
-27.3000;0.4005;0.5040;
-27.0000;0.4013;0.5016;
-26.7000;0.3989;0.5016;
-26.4000;0.3972;0.4967;
-26.1000;0.4013;0.5114;
-25.8000;0.3980;0.5187;
-25.5000;0.4005;0.5235;
-25.2000;0.4013;0.5235;
-24.9000;0.3989;0.5260;
-24.6000;0.3997;0.5308;
-24.3000;0.3997;0.5260;
-24.0000;0.4013;0.5235;
-23.7000;0.4005;0.5187;
-23.4000;0.3989;0.5187;
-23.1000;0.3997;0.5187;
-22.8000;0.4005;0.5235;
-22.5000;0.4046;0.5284;
-22.2000;0.4021;0.5187;
-21.9000;0.4013;0.5138;
-21.6000;0.3989;0.5138;
-21.3000;0.4005;0.5138;
-21.0000;0.4013;0.5187;
-20.7000;0.3997;0.5138;
-20.4000;0.3997;0.5114;
-20.1000;0.4013;0.5114;
-19.8000;0.3989;0.5040;
-19.5000;0.3997;0.5065;
-19.2000;0.3997;0.5040;
-18.9000;0.3997;0.4992;
-18.6000;0.4005;0.5065;
-18.3000;0.4021;0.5138;
-18.0000;0.4005;0.4992;
-17.7000;0.4005;0.4967;
-17.4000;0.3997;0.4870;
-17.1000;0.3972;0.4724;
-16.8000;0.3956;0.4797;
-16.5000;0.3989;0.4967;
-16.2000;0.4013;0.5162;
-15.9000;0.4013;0.5187;
-15.6000;0.4094;0.5430;
-15.3000;0.3980;0.5187;
-15.0000;0.3972;0.5187;
-14.7000;0.3980;0.5162;
-14.4000;0.3989;0.5211;
-14.1000;0.3972;0.5114;
-13.8000;0.3989;0.5138;
-13.5000;0.3923;0.4894;
-13.2000;0.4094;0.5357;
-12.9000;0.4046;0.5162;
-12.6000;0.3997;0.5089;
-12.3000;0.4005;0.5089;
-12.0000;0.3972;0.5065;
-11.7000;0.4037;0.5235;
-11.4000;0.4005;0.5138;
-11.1000;0.4062;0.5235;
-10.8000;0.4005;0.5089;
-10.5000;0.3940;0.4894;
-10.2000;0.4021;0.5016;
-9.9000;0.3956;0.4821;
-9.6000;0.3997;0.4967;
-9.3000;0.4005;0.5089;
-9.0000;0.3989;0.5016;
-8.7000;0.4127;0.5454;
-8.4000;0.3989;0.5114;
-8.1000;0.3989;0.5187;
-7.8000;0.3989;0.5211;
-7.5000;0.3989;0.5284;
-7.2000;0.3980;0.5308;
-6.9000;0.4005;0.5357;
-6.6000;0.3980;0.5284;
-6.3000;0.4013;0.5479;
-6.0000;0.4005;0.5333;
-5.7000;0.3980;0.5235;
-5.4000;0.3997;0.5211;
-5.1000;0.3940;0.4992;
-4.8000;0.4005;0.5162;
-4.5000;0.3989;0.5089;
-4.2000;0.3997;0.5211;
-3.9000;0.4021;0.5235;
-3.6000;0.4005;0.5162;
-3.3000;0.4013;0.5211;
-3.0000;0.4005;0.5162;
-2.7000;0.4021;0.5333;
-2.4000;0.4021;0.5284;
-2.1000;0.4005;0.5260;
-1.8000;0.4013;0.5211;
-1.5000;0.3997;0.5211;
-1.2000;0.4005;0.5187;
-0.9000;0.4005;0.5235;
-0.6000;0.4029;0.5235;
-0.3000;0.4054;0.5260;
0.0000;0.4054;0.5260;
0.3000;0.4029;0.5406;
0.6000;0.4037;0.5625;
0.9000;0.4070;0.5844;
1.2000;0.4070;0.6039;
1.5000;0.4062;0.6161;
1.8000;0.4070;0.6331;
2.1000;0.4086;0.6453;
2.4000;0.4119;0.6672;
2.7000;0.4119;0.6842;
3.0000;0.4103;0.6915;
3.3000;0.4119;0.7037;
3.6000;0.4086;0.7013;
3.9000;0.4127;0.7086;
4.2000;0.4143;0.7183;
4.5000;0.4143;0.7110;
4.8000;0.4135;0.7135;
5.1000;0.4135;0.7281;
5.4000;0.4217;0.7524;
5.7000;0.4135;0.7208;
6.0000;0.4135;0.7183;
6.3000;0.4127;0.7159;
6.6000;0.4103;0.7183;
6.9000;0.4143;0.7329;
7.2000;0.4119;0.7256;
7.5000;0.4168;0.7427;
7.8000;0.4151;0.7354;
8.1000;0.4127;0.7354;
8.4000;0.4135;0.7281;
8.7000;0.4135;0.7281;
9.0000;0.4127;0.7329;
9.3000;0.4151;0.7329;
9.6000;0.4135;0.7329;
9.9000;0.4143;0.7378;
10.2000;0.4168;0.7427;
10.5000;0.4151;0.7402;
10.8000;0.4143;0.7427;
11.1000;0.4143;0.7354;
11.4000;0.4184;0.7451;
11.7000;0.4168;0.7451;
12.0000;0.4151;0.7378;
12.3000;0.4200;0.7451;
12.6000;0.4168;0.7402;
12.9000;0.4160;0.7427;
13.2000;0.4168;0.7329;
13.5000;0.4168;0.7354;
13.8000;0.4119;0.7305;
14.1000;0.4160;0.7354;
14.4000;0.4151;0.7354;
14.7000;0.4160;0.7378;
15.0000;0.4151;0.7354;
15.3000;0.4160;0.7427;
15.6000;0.4168;0.7402;
15.9000;0.4168;0.7305;
16.2000;0.4103;0.7062;
16.5000;0.4176;0.7159;
16.8000;0.4192;0.7208;
17.1000;0.4184;0.7281;
17.4000;0.4151;0.7305;
17.7000;0.4200;0.7427;
18.0000;0.4176;0.7402;
18.3000;0.4168;0.7475;
18.6000;0.4176;0.7500;
18.9000;0.4160;0.7378;
19.2000;0.4176;0.7402;
19.5000;0.4192;0.7427;
19.8000;0.4168;0.7305;
20.1000;0.4119;0.7110;
20.4000;0.4151;0.7256;
20.7000;0.4160;0.7281;
21.0000;0.4168;0.7354;
21.3000;0.4168;0.7305;
21.6000;0.4200;0.7475;
21.9000;0.4168;0.7427;
22.2000;0.4168;0.7378;
22.5000;0.4103;0.7232;
22.8000;0.4184;0.7524;
23.1000;0.4184;0.7524;
23.4000;0.4160;0.7549;
23.7000;0.4160;0.7451;
24.0000;0.4160;0.7402;
24.3000;0.4176;0.7427;
24.6000;0.4176;0.7402;
24.9000;0.4168;0.7378;
25.2000;0.4168;0.7354;
25.5000;0.4241;0.7451;
25.8000;0.4192;0.7378;
26.1000;0.4184;0.7402;
26.4000;0.4176;0.7427;
26.7000;0.4176;0.7378;
27.0000;0.4200;0.7475;
27.3000;0.4184;0.7524;
27.6000;0.4176;0.7549;
27.9000;0.4184;0.7622;
28.2000;0.4176;0.7622;
28.5000;0.4184;0.7597;
28.8000;0.4233;0.7670;
29.1000;0.4192;0.7524;
29.4000;0.4192;0.7549;
29.7000;0.4192;0.7549;
30.0000;0.4184;0.7451;
30.3000;0.4176;0.7427;
30.6000;0.4184;0.7427;
30.9000;0.4192;0.7451;
31.2000;0.4192;0.7378;
31.5000;0.4192;0.7402;
31.8000;0.4192;0.7402;
32.1000;0.4184;0.7427;
32.4000;0.4192;0.7451;
32.7000;0.4184;0.7427;
33.0000;0.4184;0.7354;
33.3000;0.4200;0.7305;
33.6000;0.4208;0.7329;
33.9000;0.4184;0.7256;
34.2000;0.4184;0.7208;
34.5000;0.4184;0.7159;
34.8000;0.4200;0.7281;
35.1000;0.4200;0.7256;
35.4000;0.4184;0.7281;
35.7000;0.4208;0.7354;
36.0000;0.4208;0.7354;
36.3000;0.4200;0.7281;
36.6000;0.4208;0.7329;
36.9000;0.4208;0.7354;
37.2000;0.4192;0.7329;
37.5000;0.4192;0.7427;
37.8000;0.4184;0.7378;
38.1000;0.4200;0.7378;
38.4000;0.4168;0.7305;
38.7000;0.4184;0.7378;
39.0000;0.4168;0.7329;
39.3000;0.4151;0.7232;
39.6000;0.4192;0.7281;
39.9000;0.4200;0.7354;
40.2000;0.4143;0.7208;
40.5000;0.4184;0.7281;
40.8000;0.4160;0.7232;
41.1000;0.4200;0.7378;
41.4000;0.4233;0.7427;
41.7000;0.4208;0.7402;
42.0000;0.4184;0.7475;
42.3000;0.4200;0.7573;
42.6000;0.4184;0.7500;
42.9000;0.4184;0.7500;
43.2000;0.4184;0.7549;
43.5000;0.4217;0.7622;
43.8000;0.4184;0.7524;
44.1000;0.4208;0.7597;
44.4000;0.4184;0.7524;
44.7000;0.4184;0.7500;
45.0000;0.4176;0.7475;
45.3000;0.4184;0.7475;
45.6000;0.4184;0.7475;
45.9000;0.4160;0.7402;
46.2000;0.4192;0.7475;
46.5000;0.4249;0.7573;
46.8000;0.4217;0.7475;
47.1000;0.4225;0.7549;
47.4000;0.4200;0.7378;
47.7000;0.4200;0.7427;
48.0000;0.4168;0.7329;
48.3000;0.4143;0.7208;
48.6000;0.4241;0.7378;
48.9000;0.4208;0.7256;
49.2000;0.4184;0.7232;
49.5000;0.4249;0.7402;
49.8000;0.4200;0.7281;
50.1000;0.4225;0.7329;
50.4000;0.4200;0.7256;
50.7000;0.4184;0.7208;
51.0000;0.4249;0.7500;
51.3000;0.4192;0.7378;
51.6000;0.4192;0.7281;
51.9000;0.4192;0.7305;
52.2000;0.4200;0.7281;
52.5000;0.4200;0.7305;
52.8000;0.4200;0.7402;
53.1000;0.4192;0.7427;
53.4000;0.4192;0.7475;
53.7000;0.4192;0.7500;
54.0000;0.4184;0.7500;
54.3000;0.4192;0.7500;
54.6000;0.4184;0.7549;
54.9000;0.4208;0.7573;
55.2000;0.4200;0.7500;
55.5000;0.4200;0.7354;
55.8000;0.4192;0.7354;
56.1000;0.4208;0.7378;
56.4000;0.4192;0.7329;
56.7000;0.4192;0.7256;
57.0000;0.4200;0.7354;
57.3000;0.4208;0.7329;
57.6000;0.4208;0.7232;
57.9000;0.4200;0.7062;
58.2000;0.4200;0.7086;
58.5000;0.4192;0.7135;
58.8000;0.4192;0.7159;
59.1000;0.4200;0.7232;
59.4000;0.4184;0.7256;
59.7000;0.4192;0.7232;
60.0000;0.4184;0.7256;
60.3000;0.4168;0.7232;
60.6000;0.4176;0.7159;
60.9000;0.4168;0.7013;
61.2000;0.4176;0.7086;
61.5000;0.4217;0.7183;
61.8000;0.4184;0.7232;
62.1000;0.4192;0.7232;
62.4000;0.4290;0.7573;
62.7000;0.4225;0.7402;
63.0000;0.4200;0.7305;
63.3000;0.4208;0.7208;
63.6000;0.4217;0.7281;
63.9000;0.4151;0.7183;
64.2000;0.4160;0.7256;
64.5000;0.4192;0.7354;
64.8000;0.4192;0.7305;
65.1000;0.4176;0.7354;
65.4000;0.4192;0.7354;
65.7000;0.4200;0.7256;
66.0000;0.4192;0.7159;
66.3000;0.4200;0.7208;
66.6000;0.4192;0.7110;
66.9000;0.4200;0.7159;
67.2000;0.4184;0.7159;
67.5000;0.4160;0.7086;
67.8000;0.4208;0.7159;
68.1000;0.4200;0.7135;
68.4000;0.4184;0.6964;
68.7000;0.4184;0.7086;
69.0000;0.4200;0.7183;
69.3000;0.4233;0.7402;
69.6000;0.4184;0.7354;
69.9000;0.4192;0.7378;
70.2000;0.4208;0.7354;
70.5000;0.4257;0.7427;
70.8000;0.4192;0.7329;
71.1000;0.4200;0.7305;
71.4000;0.4217;0.7305;
71.7000;0.4225;0.7354;
72.0000;0.4208;0.7256;
72.3000;0.4200;0.7329;
72.6000;0.4208;0.7378;
72.9000;0.4200;0.7402;
73.2000;0.4200;0.7402;
73.5000;0.4200;0.7354;
73.8000;0.4200;0.7305;
74.1000;0.4217;0.7281;
74.4000;0.4265;0.7451;
74.7000;0.4192;0.7183;
75.0000;0.4184;0.7159;
75.3000;0.4184;0.7135;
75.6000;0.4200;0.7232;
75.9000;0.4208;0.7208;
76.2000;0.4184;0.7232;
76.5000;0.4135;0.7086;
76.8000;0.4200;0.7256;
77.1000;0.4192;0.7281;
77.4000;0.4143;0.7086;
77.7000;0.4208;0.7281;
78.0000;0.4208;0.7329;
78.3000;0.4208;0.7208;
78.6000;0.4233;0.7208;
78.9000;0.4192;0.7135;
79.2000;0.4225;0.7208;
79.5000;0.4208;0.7232;
79.8000;0.4192;0.7183;
80.1000;0.4192;0.7159;
80.4000;0.4200;0.7135;
80.7000;0.4217;0.7159;
81.0000;0.4200;0.7208;
81.3000;0.4208;0.7183;
81.6000;0.4192;0.7159;
81.9000;0.4184;0.7208;
82.2000;0.4200;0.7256;
82.5000;0.4217;0.7305;
82.8000;0.4225;0.7305;
83.1000;0.4225;0.7281;
83.4000;0.4217;0.7281;
83.7000;0.4200;0.7135;
84.0000;0.4225;0.7183;
84.3000;0.4184;0.7110;
84.6000;0.4208;0.7159;
84.9000;0.4200;0.7159;
85.2000;0.4208;0.7183;
85.5000;0.4217;0.7232;
85.8000;0.4217;0.7183;
86.1000;0.4200;0.7135;
86.4000;0.4200;0.7208;
86.7000;0.4160;0.7110;
87.0000;0.4143;0.7086;
87.3000;0.4192;0.7256;
87.6000;0.4200;0.7232;
87.9000;0.4176;0.7208;
88.2000;0.4192;0.7281;
88.5000;0.4233;0.7305;
88.8000;0.4184;0.7135;
89.1000;0.4208;0.7329;
89.4000;0.4200;0.7402;
89.7000;0.4168;0.7305;
90.0000;0.4208;0.7354;
90.3000;0.4151;0.7305;
90.6000;0.4192;0.7451;
90.9000;0.4241;0.7524;
91.2000;0.4184;0.7378;
91.5000;0.4176;0.7354;
91.8000;0.4160;0.7256;
92.1000;0.4208;0.7329;
92.4000;0.4208;0.7281;
92.7000;0.4217;0.7329;
93.0000;0.4200;0.7354;
93.3000;0.4208;0.7549;
93.6000;0.4217;0.7427;
93.9000;0.4200;0.7402;
94.2000;0.4184;0.7329;
94.5000;0.4208;0.7354;
94.8000;0.4208;0.7305;
95.1000;0.4184;0.7232;
95.4000;0.4200;0.7402;
95.7000;0.4176;0.7256;
96.0000;0.4233;0.7329;
96.3000;0.4192;0.7232;
96.6000;0.4192;0.7183;
96.9000;0.4184;0.7232;
97.2000;0.4168;0.7329;
97.5000;0.4127;0.7183;
97.8000;0.4200;0.7305;
98.1000;0.4200;0.7208;
98.4000;0.4200;0.7256;
98.7000;0.4184;0.7256;
99.0000;0.4192;0.7281;
99.3000;0.4200;0.7354;
99.6000;0.4208;0.7402;
99.9000;0.4208;0.7329;
100.2000;0.4217;0.7402;
100.5000;0.4184;0.7159;
100.8000;0.4200;0.7281;
101.1000;0.4208;0.7402;
101.4000;0.4200;0.7354;
101.7000;0.4184;0.7427;
102.0000;0.4192;0.7451;
102.3000;0.4192;0.7378;
102.6000;0.4265;0.7524;
102.9000;0.4200;0.7402;
103.2000;0.4208;0.7354;
103.5000;0.4208;0.7402;
103.8000;0.4192;0.7232;
104.1000;0.4208;0.7232;
104.4000;0.4168;0.7256;
104.7000;0.4208;0.7256;
105.0000;0.4168;0.7208;
105.3000;0.4208;0.7281;
105.6000;0.4176;0.7159;
105.9000;0.4208;0.7208;
106.2000;0.4200;0.7183;
106.5000;0.4192;0.7183;
106.8000;0.4208;0.7159;
107.1000;0.4217;0.7281;
107.4000;0.4217;0.7183;
107.7000;0.4208;0.7110;
108.0000;0.4208;0.7086;
108.3000;0.4200;0.7013;
108.6000;0.4233;0.7159;
108.9000;0.4200;0.7232;
109.2000;0.4200;0.7232;
109.5000;0.4200;0.7354;
109.8000;0.4200;0.7329;
110.1000;0.4200;0.7329;
110.4000;0.4184;0.7329;
110.7000;0.4184;0.7281;
111.0000;0.4200;0.7329;
111.3000;0.4208;0.7305;
111.6000;0.4225;0.7354;
111.9000;0.4176;0.7232;
112.2000;0.4200;0.7232;
112.5000;0.4151;0.7110;
112.8000;0.4200;0.7305;
113.1000;0.4192;0.7232;
113.4000;0.4208;0.7256;
113.7000;0.4192;0.7281;
114.0000;0.4192;0.7256;
114.3000;0.4184;0.7378;
114.6000;0.4192;0.7378;
114.9000;0.4200;0.7378;
115.2000;0.4192;0.7378;
115.5000;0.4168;0.7378;
115.8000;0.4208;0.7402;
116.1000;0.4192;0.7354;
116.4000;0.4192;0.7329;
116.7000;0.4200;0.7354;
117.0000;0.4200;0.7378;
117.3000;0.4217;0.7402;
117.6000;0.4192;0.7378;
117.9000;0.4208;0.7305;
118.2000;0.4192;0.7232;
118.5000;0.4233;0.7281;
118.8000;0.4208;0.7208;
119.1000;0.4200;0.7135;
119.4000;0.4192;0.7232;
119.7000;0.4208;0.7256;
120.0000;0.4225;0.7354;
120.3000;0.4192;0.7232;
120.6000;0.4200;0.7305;
120.9000;0.4184;0.7329;
121.2000;0.4200;0.7305;
121.5000;0.4217;0.7329;
121.8000;0.4192;0.7208;
122.1000;0.4200;0.7159;
122.4000;0.4192;0.7159;
122.7000;0.4200;0.7232;
123.0000;0.4200;0.7256;
123.3000;0.4192;0.7208;
123.6000;0.4233;0.7427;
123.9000;0.4208;0.7354;
124.2000;0.4208;0.7378;
124.5000;0.4200;0.7524;
124.8000;0.4176;0.7427;
125.1000;0.4200;0.7402;
125.4000;0.4200;0.7427;
125.7000;0.4208;0.7329;
126.0000;0.4192;0.7354;
126.3000;0.4200;0.7402;
126.6000;0.4192;0.7402;
126.9000;0.4192;0.7402;
127.2000;0.4200;0.7402;
127.5000;0.4217;0.7402;
127.8000;0.4176;0.7329;
128.1000;0.4200;0.7354;
128.4000;0.4184;0.7329;
128.7000;0.4200;0.7354;
129.0000;0.4217;0.7524;
129.3000;0.4225;0.7573;
129.6000;0.4265;0.7622;
129.9000;0.4225;0.7524;
130.2000;0.4160;0.7329;
130.5000;0.4176;0.7402;
130.8000;0.4208;0.7451;
131.1000;0.4184;0.7427;
131.4000;0.4192;0.7378;
131.7000;0.4200;0.7402;
132.0000;0.4192;0.7354;
132.3000;0.4217;0.7354;
132.6000;0.4249;0.7451;
132.9000;0.4208;0.7305;
133.2000;0.4208;0.7354;
133.5000;0.4200;0.7281;
133.8000;0.4192;0.7256;
134.1000;0.4208;0.7305;
134.4000;0.4233;0.7305;
134.7000;0.4151;0.7037;
135.0000;0.4168;0.7183;
135.3000;0.4249;0.7305;
135.6000;0.4200;0.7013;
135.9000;0.4200;0.7037;
136.2000;0.4200;0.7037;
136.5000;0.4200;0.7013;
136.8000;0.4208;0.7086;
137.1000;0.4200;0.7086;
137.4000;0.4143;0.6940;
137.7000;0.4184;0.7135;
138.0000;0.4192;0.7159;
138.3000;0.4192;0.7305;
138.6000;0.4241;0.7451;
138.9000;0.4208;0.7402;
139.2000;0.4200;0.7427;
139.5000;0.4192;0.7329;
139.8000;0.4200;0.7378;
140.1000;0.4200;0.7378;
140.4000;0.4233;0.7427;
140.7000;0.4233;0.7451;
141.0000;0.4200;0.7354;
141.3000;0.4160;0.7183;
141.6000;0.4192;0.7208;
141.9000;0.4192;0.7208;
142.2000;0.4192;0.7232;
142.5000;0.4151;0.7208;
142.8000;0.4208;0.7354;
143.1000;0.4184;0.7256;
143.4000;0.4208;0.7281;
143.7000;0.4176;0.7183;
144.0000;0.4192;0.7256;
144.3000;0.4200;0.7256;
144.6000;0.4192;0.7159;
144.9000;0.4192;0.7183;
145.2000;0.4200;0.7281;
145.5000;0.4168;0.7183;
145.8000;0.4192;0.7232;
146.1000;0.4200;0.7232;
146.4000;0.4200;0.7329;
146.7000;0.4192;0.7402;
147.0000;0.4217;0.7402;
147.3000;0.4192;0.7354;
147.6000;0.4208;0.7281;
147.9000;0.4200;0.7281;
148.2000;0.4160;0.7183;
148.5000;0.4192;0.7329;
148.8000;0.4217;0.7256;
149.1000;0.4200;0.7232;
149.4000;0.4217;0.7329;
149.7000;0.4200;0.7305;
150.0000;0.4208;0.7281;
150.3000;0.4208;0.7208;
150.6000;0.4241;0.7281;
150.9000;0.4176;0.7232;
151.2000;0.4200;0.7232;
151.5000;0.4184;0.7183;
151.8000;0.4200;0.7232;
152.1000;0.4200;0.7183;
152.4000;0.4184;0.7110;
152.7000;0.4200;0.7110;
153.0000;0.4217;0.7135;
153.3000;0.4135;0.6867;
153.6000;0.4233;0.7183;
153.9000;0.4176;0.7110;
154.2000;0.4200;0.7208;
154.5000;0.4208;0.7256;
154.8000;0.4208;0.7208;
155.1000;0.4208;0.7256;
155.4000;0.4208;0.7281;
155.7000;0.4265;0.7378;
156.0000;0.4200;0.7329;
156.3000;0.4208;0.7354;
156.6000;0.4200;0.7402;
156.9000;0.4119;0.7281;
157.2000;0.4176;0.7427;
157.5000;0.4192;0.7378;
157.8000;0.4200;0.7378;
158.1000;0.4208;0.7378;
158.4000;0.4208;0.7378;
158.7000;0.4176;0.7281;
159.0000;0.4192;0.7305;
159.3000;0.4208;0.7305;
159.6000;0.4192;0.7232;
159.9000;0.4192;0.7256;
160.2000;0.4200;0.7281;
160.5000;0.4192;0.7281;
160.8000;0.4200;0.7305;
161.1000;0.4192;0.7281;
161.4000;0.4192;0.7305;
161.7000;0.4257;0.7451;
162.0000;0.4208;0.7378;
162.3000;0.4208;0.7402;
162.6000;0.4217;0.7378;
162.9000;0.4200;0.7378;
163.2000;0.4217;0.7402;
163.5000;0.4208;0.7402;
163.8000;0.4192;0.7329;
164.1000;0.4208;0.7329;
164.4000;0.4200;0.7402;
164.7000;0.4233;0.7475;
165.0000;0.4192;0.7281;
165.3000;0.4184;0.7232;
165.6000;0.4265;0.7549;
165.9000;0.4208;0.7378;
166.2000;0.4208;0.7281;
166.5000;0.4274;0.7524;
166.8000;0.4192;0.7354;
167.1000;0.4168;0.7281;
167.4000;0.4208;0.7329;
167.7000;0.4200;0.7354;
168.0000;0.4184;0.7329;
168.3000;0.4192;0.7305;
168.6000;0.4200;0.7329;
168.9000;0.4192;0.7354;
169.2000;0.4192;0.7354;
169.5000;0.4200;0.7402;
169.8000;0.4184;0.7427;
170.1000;0.4200;0.7451;
170.4000;0.4176;0.7475;
170.7000;0.4184;0.7451;
171.0000;0.4184;0.7378;
171.3000;0.4200;0.7329;
171.6000;0.4265;0.7500;
171.9000;0.4184;0.7256;
172.2000;0.4200;0.7208;
172.5000;0.4184;0.7232;
172.8000;0.4200;0.7159;
173.1000;0.4151;0.7013;
173.4000;0.4200;0.7062;
173.7000;0.4184;0.7062;
174.0000;0.4184;0.7086;
174.3000;0.4184;0.7062;
174.6000;0.4184;0.7062;
174.9000;0.4208;0.7159;
175.2000;0.4257;0.7305;
175.5000;0.4184;0.7037;
175.8000;0.4208;0.7110;
176.1000;0.4241;0.7208;
176.4000;0.4208;0.7256;
176.7000;0.4192;0.7281;
177.0000;0.4192;0.7281;
177.3000;0.4184;0.7232;
177.6000;0.4200;0.7281;
177.9000;0.4192;0.7256;
178.2000;0.4176;0.7281;
178.5000;0.4208;0.7354;
178.8000;0.4200;0.7354;
179.1000;0.4184;0.7329;
179.4000;0.4160;0.7305;
179.7000;0.4192;0.7378;
180.0000;0.4200;0.7354;
180.3000;0.4176;0.7256;
180.6000;0.4176;0.7208;
180.9000;0.4184;0.7281;
181.2000;0.4192;0.7354;
181.5000;0.4176;0.7329;
181.8000;0.4192;0.7281;
182.1000;0.4192;0.7256;
182.4000;0.4111;0.7037;
182.7000;0.4176;0.7183;
183.0000;0.4200;0.7281;
183.3000;0.4176;0.7183;
183.6000;0.4192;0.7281;
183.9000;0.4200;0.7354;
184.2000;0.4176;0.7378;
184.5000;0.4192;0.7378;
184.8000;0.4200;0.7354;
185.1000;0.4208;0.7305;
185.4000;0.4208;0.7329;
185.7000;0.4208;0.7256;
186.0000;0.4200;0.7183;
186.3000;0.4208;0.7256;
186.6000;0.4200;0.7232;
186.9000;0.4184;0.7232;
187.2000;0.4192;0.7232;
187.5000;0.4208;0.7305;
187.8000;0.4208;0.7378;
188.1000;0.4200;0.7305;
188.4000;0.4200;0.7354;
188.7000;0.4184;0.7329;
189.0000;0.4208;0.7354;
189.3000;0.4192;0.7378;
189.6000;0.4192;0.7378;
189.9000;0.4184;0.7475;
190.2000;0.4208;0.7500;
190.5000;0.4217;0.7427;
190.8000;0.4184;0.7329;
191.1000;0.4233;0.7329;
191.4000;0.4200;0.7329;
191.7000;0.4200;0.7256;
192.0000;0.4208;0.7329;
192.3000;0.4192;0.7256;
192.6000;0.4184;0.7232;
192.9000;0.4200;0.7159;
193.2000;0.4184;0.7183;
193.5000;0.4135;0.7159;
193.8000;0.4217;0.7378;
194.1000;0.4200;0.7281;
194.4000;0.4176;0.7305;
194.7000;0.4233;0.7378;
195.0000;0.4200;0.7232;
195.3000;0.4192;0.7232;
195.6000;0.4184;0.7135;
195.9000;0.4192;0.7159;
196.2000;0.4176;0.7183;
196.5000;0.4200;0.7281;
196.8000;0.4192;0.7208;
197.1000;0.4176;0.7159;
197.4000;0.4200;0.7232;
197.7000;0.4208;0.7256;
198.0000;0.4192;0.7159;
198.3000;0.4192;0.7086;
198.6000;0.4208;0.7256;
198.9000;0.4217;0.7402;
199.2000;0.4241;0.7451;
199.5000;0.4208;0.7256;
199.8000;0.4200;0.7281;
200.1000;0.4217;0.7329;
200.4000;0.4200;0.7232;
200.7000;0.4208;0.7329;
201.0000;0.4176;0.7281;
201.3000;0.4192;0.7378;
201.6000;0.4192;0.7329;
201.9000;0.4184;0.7354;
202.2000;0.4094;0.6988;
202.5000;0.4135;0.7110;
202.8000;0.4192;0.7256;
203.1000;0.4200;0.7305;
203.4000;0.4184;0.7232;
203.7000;0.4184;0.7232;
204.0000;0.4200;0.7232;
204.3000;0.4143;0.7110;
204.6000;0.4241;0.7402;
204.9000;0.4192;0.7305;
205.2000;0.4208;0.7402;
205.5000;0.4200;0.7427;
205.8000;0.4200;0.7402;
206.1000;0.4184;0.7329;
206.4000;0.4192;0.7354;
206.7000;0.4200;0.7378;
207.0000;0.4192;0.7329;
207.3000;0.4192;0.7281;
207.6000;0.4200;0.7256;
207.9000;0.4184;0.7183;
208.2000;0.4200;0.7208;
208.5000;0.4208;0.7232;
208.8000;0.4200;0.7208;
209.1000;0.4200;0.7208;
209.4000;0.4200;0.7159;
209.7000;0.4192;0.7135;
210.0000;0.4192;0.7208;
210.3000;0.4200;0.7281;
210.6000;0.4241;0.7281;
210.9000;0.4208;0.7232;
211.2000;0.4200;0.7208;
211.5000;0.4160;0.7110;
211.8000;0.4200;0.7305;
212.1000;0.4184;0.7281;
212.4000;0.4192;0.7281;
212.7000;0.4200;0.7281;
213.0000;0.4200;0.7354;
213.3000;0.4208;0.7378;
213.6000;0.4241;0.7354;
213.9000;0.4208;0.7183;
214.2000;0.4208;0.7135;
214.5000;0.4184;0.7013;
214.8000;0.4184;0.7013;
215.1000;0.4200;0.7037;
215.4000;0.4192;0.7086;
215.7000;0.4217;0.7183;
216.0000;0.4176;0.7086;
216.3000;0.4192;0.7183;
216.6000;0.4151;0.7086;
216.9000;0.4200;0.7183;
217.2000;0.4168;0.7159;
217.5000;0.4192;0.7062;
217.8000;0.4208;0.7281;
218.1000;0.4168;0.7208;
218.4000;0.4200;0.7305;
218.7000;0.4127;0.7086;
219.0000;0.4184;0.7232;
219.3000;0.4176;0.7256;
219.6000;0.4168;0.7281;
219.9000;0.4192;0.7378;
220.2000;0.4184;0.7378;
220.5000;0.4200;0.7354;
220.8000;0.4200;0.7378;
221.1000;0.4192;0.7427;
221.4000;0.4184;0.7427;
221.7000;0.4233;0.7573;
222.0000;0.4200;0.7500;
222.3000;0.4184;0.7402;
222.6000;0.4200;0.7305;
222.9000;0.4192;0.7329;
223.2000;0.4200;0.7232;
223.5000;0.4200;0.7232;
223.8000;0.4225;0.7281;
224.1000;0.4225;0.7281;
224.4000;0.4192;0.7281;
224.7000;0.4200;0.7232;
225.0000;0.4217;0.7281;
225.3000;0.4184;0.7232;
225.6000;0.4184;0.7256;
225.9000;0.4208;0.7256;
226.2000;0.4233;0.7281;
226.5000;0.4192;0.7159;
226.8000;0.4208;0.7183;
227.1000;0.4184;0.7208;
227.4000;0.4143;0.7062;
227.7000;0.4192;0.7159;
228.0000;0.4176;0.7135;
228.3000;0.4160;0.7135;
228.6000;0.4168;0.7183;
228.9000;0.4111;0.7110;
229.2000;0.4127;0.7159;
229.5000;0.4192;0.7354;
229.8000;0.4184;0.7402;
230.1000;0.4200;0.7451;
230.4000;0.4192;0.7354;
230.7000;0.4184;0.7378;
231.0000;0.4184;0.7281;
231.3000;0.4200;0.7281;
231.6000;0.4168;0.7183;
231.9000;0.4192;0.7256;
232.2000;0.4192;0.7281;
232.5000;0.4192;0.7232;
232.8000;0.4168;0.7135;
233.1000;0.4200;0.7135;
233.4000;0.4208;0.7183;
233.7000;0.4200;0.7159;
234.0000;0.4184;0.7183;
234.3000;0.4200;0.7183;
234.6000;0.4192;0.7183;
234.9000;0.4192;0.7354;
235.2000;0.4200;0.7402;
235.5000;0.4208;0.7402;
235.8000;0.4192;0.7402;
236.1000;0.4217;0.7500;
236.4000;0.4160;0.7378;
236.7000;0.4160;0.7329;
237.0000;0.4200;0.7475;
237.3000;0.4217;0.7500;
237.6000;0.4208;0.7402;
237.9000;0.4217;0.7451;
238.2000;0.4200;0.7451;
238.5000;0.4192;0.7500;
238.8000;0.4184;0.7646;
239.1000;0.4192;0.7549;
239.4000;0.4184;0.7500;
239.7000;0.4192;0.7427;
240.0000;0.4192;0.7329;
240.3000;0.4200;0.7354;
240.6000;0.4200;0.7378;
240.9000;0.4217;0.7402;
241.2000;0.4208;0.7329;
241.5000;0.4192;0.7451;
241.8000;0.4200;0.7451;
242.1000;0.4200;0.7427;
242.4000;0.4192;0.7402;
242.7000;0.4200;0.7402;
243.0000;0.4241;0.7475;
243.3000;0.4192;0.7281;
243.6000;0.4184;0.7208;
243.9000;0.4200;0.7281;
244.2000;0.4184;0.7232;
244.5000;0.4217;0.7256;
244.8000;0.4192;0.7281;
245.1000;0.4200;0.7329;
245.4000;0.4184;0.7305;
245.7000;0.4200;0.7329;
246.0000;0.4200;0.7256;
246.3000;0.4184;0.7329;
246.6000;0.4176;0.7378;
246.9000;0.4176;0.7329;
247.2000;0.4135;0.7256;
247.5000;0.4200;0.7427;
247.8000;0.4168;0.7378;
248.1000;0.4184;0.7378;
248.4000;0.4217;0.7427;
248.7000;0.4192;0.7354;
249.0000;0.4217;0.7378;
249.3000;0.4208;0.7281;
249.6000;0.4257;0.7402;
249.9000;0.4225;0.7329;
250.2000;0.4192;0.7354;
250.5000;0.4184;0.7427;
250.8000;0.4217;0.7500;
251.1000;0.4192;0.7378;
251.4000;0.4200;0.7354;
251.7000;0.4184;0.7256;
252.0000;0.4200;0.7232;
252.3000;0.4184;0.7232;
252.6000;0.4200;0.7281;
252.9000;0.4200;0.7305;
253.2000;0.4184;0.7232;
253.5000;0.4241;0.7378;
253.8000;0.4233;0.7329;
254.1000;0.4192;0.7305;
254.4000;0.4192;0.7208;
254.7000;0.4200;0.7305;
255.0000;0.4192;0.7256;
255.3000;0.4208;0.7329;
255.6000;0.4192;0.7378;
255.9000;0.4200;0.7427;
256.2000;0.4200;0.7329;
256.5000;0.4192;0.7256;
256.8000;0.4208;0.7281;
257.1000;0.4200;0.7281;
257.4000;0.4192;0.7208;
257.7000;0.4200;0.7232;
258.0000;0.4192;0.7183;
258.3000;0.4200;0.7232;
258.6000;0.4192;0.7208;
258.9000;0.4225;0.7305;
259.2000;0.4208;0.7281;
259.5000;0.4200;0.7256;
259.8000;0.4192;0.7208;
260.1000;0.4192;0.7208;
260.4000;0.4200;0.7208;
260.7000;0.4241;0.7281;
261.0000;0.4192;0.7183;
261.3000;0.4192;0.7159;
261.6000;0.4192;0.7159;
261.9000;0.4217;0.7232;
262.2000;0.4200;0.7232;
262.5000;0.4200;0.7232;
262.8000;0.4208;0.7208;
263.1000;0.4119;0.7062;
263.4000;0.4184;0.7281;
263.7000;0.4192;0.7329;
264.0000;0.4200;0.7378;
264.3000;0.4192;0.7256;
264.6000;0.4225;0.7281;
264.9000;0.4200;0.7208;
265.2000;0.4184;0.7183;
265.5000;0.4184;0.7183;
265.8000;0.4192;0.7208;
266.1000;0.4200;0.7208;
266.4000;0.4200;0.7135;
266.7000;0.4192;0.7232;
267.0000;0.4200;0.7232;
267.3000;0.4184;0.7208;
267.6000;0.4200;0.7232;
267.9000;0.4217;0.7281;
268.2000;0.4208;0.7281;
268.5000;0.4192;0.7256;
268.8000;0.4184;0.7354;
269.1000;0.4168;0.7305;
269.4000;0.4200;0.7378;
269.7000;0.4200;0.7427;
270.0000;0.4200;0.7475;
270.3000;0.4184;0.7524;
270.6000;0.4208;0.7451;
270.9000;0.4184;0.7378;
271.2000;0.4168;0.7354;
271.5000;0.4208;0.7427;
271.8000;0.4160;0.7256;
272.1000;0.4200;0.7354;
272.4000;0.4192;0.7305;
272.7000;0.4274;0.7500;
273.0000;0.4208;0.7305;
273.3000;0.4184;0.7281;
273.6000;0.4200;0.7329;
273.9000;0.4200;0.7281;
274.2000;0.4208;0.7305;
274.5000;0.4151;0.7305;
274.8000;0.4200;0.7451;
275.1000;0.4217;0.7475;
275.4000;0.4184;0.7378;
275.7000;0.4200;0.7451;
276.0000;0.4151;0.7329;
276.3000;0.4192;0.7622;
276.6000;0.4208;0.7573;
276.9000;0.4200;0.7549;
277.2000;0.4217;0.7549;
277.5000;0.4192;0.7451;
277.8000;0.4200;0.7402;
278.1000;0.4200;0.7378;
278.4000;0.4200;0.7378;
278.7000;0.4184;0.7281;
279.0000;0.4225;0.7329;
279.3000;0.4184;0.7305;
279.6000;0.4192;0.7232;
279.9000;0.4184;0.7159;
280.2000;0.4168;0.7013;
280.5000;0.4200;0.7037;
280.8000;0.4208;0.7110;
281.1000;0.4200;0.7159;
281.4000;0.4176;0.7159;
281.7000;0.4200;0.7037;
282.0000;0.4208;0.7159;
282.3000;0.4200;0.7183;
282.6000;0.4200;0.7232;
282.9000;0.4184;0.7256;
283.2000;0.4200;0.7354;
283.5000;0.4192;0.7354;
283.8000;0.4176;0.7378;
284.1000;0.4176;0.7305;
284.4000;0.4192;0.7354;
284.7000;0.4208;0.7305;
285.0000;0.4184;0.7232;
285.3000;0.4184;0.7183;
285.6000;0.4176;0.7110;
285.9000;0.4200;0.7183;
286.2000;0.4192;0.7305;
286.5000;0.4192;0.7305;
286.8000;0.4168;0.7232;
287.1000;0.4176;0.7281;
287.4000;0.4200;0.7354;
287.7000;0.4176;0.7329;
288.0000;0.4192;0.7354;
288.3000;0.4200;0.7451;
288.6000;0.4184;0.7451;
288.9000;0.4184;0.7427;
289.2000;0.4176;0.7354;
289.5000;0.4208;0.7427;
289.8000;0.4176;0.7281;
290.1000;0.4184;0.7232;
290.4000;0.4184;0.7329;
290.7000;0.4168;0.7256;
291.0000;0.4184;0.7329;
291.3000;0.4192;0.7354;
291.6000;0.4184;0.7378;
291.9000;0.4192;0.7427;
292.2000;0.4192;0.7378;
292.5000;0.4192;0.7354;
292.8000;0.4160;0.7256;
293.1000;0.4119;0.7110;
293.4000;0.4208;0.7305;
293.7000;0.4176;0.7135;
294.0000;0.4192;0.7208;
294.3000;0.4168;0.7256;
294.6000;0.4200;0.7378;
294.9000;0.4184;0.7378;
295.2000;0.4184;0.7402;
295.5000;0.4192;0.7354;
295.8000;0.4176;0.7256;
296.1000;0.4233;0.7402;
296.4000;0.4184;0.7305;
296.7000;0.4184;0.7256;
297.0000;0.4200;0.7232;
297.3000;0.4208;0.7208;
297.6000;0.4208;0.7159;
297.9000;0.4192;0.7183;
298.2000;0.4192;0.7232;
298.5000;0.4225;0.7281;
298.8000;0.4176;0.7232;
299.1000;0.4192;0.7281;
299.4000;0.4184;0.7183;
299.7000;0.4217;0.7281;
300.0000;0.4200;0.7256;
300.3000;0.4168;0.7159;
300.6000;0.4200;0.7208;
300.9000;0.4184;0.7232;
301.2000;0.4176;0.7281;
301.5000;0.4184;0.7232;
301.8000;0.4184;0.7256;
302.1000;0.4176;0.7232;
302.4000;0.4200;0.7281;
302.7000;0.4176;0.7232;
303.0000;0.4200;0.7256;
303.3000;0.4192;0.7256;
303.6000;0.4176;0.7281;
303.9000;0.4192;0.7354;
304.2000;0.4200;0.7378;
304.5000;0.4208;0.7378;
304.8000;0.4208;0.7402;
305.1000;0.4192;0.7475;
305.4000;0.4208;0.7354;
305.7000;0.4192;0.7329;
306.0000;0.4184;0.7256;
306.3000;0.4184;0.7256;
306.6000;0.4151;0.7135;
306.9000;0.4208;0.7159;
307.2000;0.4208;0.7208;
307.5000;0.4192;0.7135;
307.8000;0.4176;0.7183;
308.1000;0.4225;0.7208;
308.4000;0.4200;0.7037;
308.7000;0.4200;0.7062;
309.0000;0.4200;0.7110;
309.3000;0.4225;0.7086;
309.6000;0.4200;0.7013;
309.9000;0.4151;0.6940;
310.2000;0.4200;0.7110;
310.5000;0.4176;0.7135;
310.8000;0.4225;0.7354;
311.1000;0.4200;0.7256;
311.4000;0.4192;0.7232;
311.7000;0.4176;0.7232;
312.0000;0.4192;0.7232;
312.3000;0.4176;0.7256;
312.6000;0.4200;0.7378;
312.9000;0.4184;0.7232;
313.2000;0.4176;0.7232;
313.5000;0.4151;0.7135;
313.8000;0.4168;0.7232;
314.1000;0.4176;0.7232;
314.4000;0.4176;0.7159;
314.7000;0.4184;0.7062;
315.0000;0.4192;0.7110;
315.3000;0.4200;0.7159;
315.6000;0.4192;0.7208;
315.9000;0.4225;0.7281;
316.2000;0.4192;0.7183;
316.5000;0.4200;0.7281;
316.8000;0.4208;0.7183;
317.1000;0.4249;0.7305;
317.4000;0.4192;0.7159;
317.7000;0.4200;0.7135;
318.0000;0.4184;0.7110;
318.3000;0.4192;0.7135;
318.6000;0.4184;0.7159;
318.9000;0.4184;0.7183;
319.2000;0.4192;0.7183;
319.5000;0.4208;0.7329;
319.8000;0.4192;0.7281;
320.1000;0.4200;0.7281;
320.4000;0.4225;0.7305;
320.7000;0.4184;0.7183;
321.0000;0.4192;0.7232;
321.3000;0.4200;0.7256;
321.6000;0.4160;0.7305;
321.9000;0.4151;0.7208;
322.2000;0.4192;0.7281;
322.5000;0.4176;0.7159;
322.8000;0.4184;0.7159;
323.1000;0.4184;0.7110;
323.4000;0.4168;0.7110;
323.7000;0.4200;0.7110;
324.0000;0.4168;0.7086;
324.3000;0.4184;0.7086;
324.6000;0.4184;0.7135;
324.9000;0.4168;0.7062;
325.2000;0.4176;0.7037;
325.5000;0.4225;0.7183;
325.8000;0.4192;0.7159;
326.1000;0.4168;0.7135;
326.4000;0.4184;0.7135;
326.7000;0.4200;0.7208;
327.0000;0.4192;0.7256;
327.3000;0.4217;0.7329;
327.6000;0.4257;0.7451;
327.9000;0.4200;0.7329;
328.2000;0.4192;0.7208;
328.5000;0.4160;0.7062;
328.8000;0.4208;0.7110;
329.1000;0.4200;0.7135;
329.4000;0.4184;0.7208;
329.7000;0.4184;0.7232;
330.0000;0.4217;0.7305;
330.3000;0.4151;0.7110;
330.6000;0.4192;0.7208;
330.9000;0.4176;0.7135;
331.2000;0.4192;0.7183;
331.5000;0.4200;0.7208;
331.8000;0.4192;0.7159;
332.1000;0.4192;0.7110;
332.4000;0.4192;0.7086;
332.7000;0.4192;0.7135;
333.0000;0.4192;0.7062;
333.3000;0.4176;0.6940;
333.6000;0.4184;0.7013;
333.9000;0.4225;0.7110;
334.2000;0.4208;0.7013;
334.5000;0.4184;0.7013;
334.8000;0.4200;0.7086;
335.1000;0.4192;0.7183;
335.4000;0.4192;0.7183;
335.7000;0.4192;0.7086;
336.0000;0.4184;0.7183;
336.3000;0.4192;0.7208;
336.6000;0.4217;0.7256;
336.9000;0.4200;0.7208;
337.2000;0.4290;0.7402;
337.5000;0.4192;0.7062;
337.8000;0.4217;0.7062;
338.1000;0.4200;0.7013;
338.4000;0.4200;0.7086;
338.7000;0.4168;0.7013;
339.0000;0.4274;0.7256;
339.3000;0.4192;0.7110;
339.6000;0.4160;0.7183;
339.9000;0.4176;0.7232;
340.2000;0.4184;0.7183;
340.5000;0.4192;0.7183;
340.8000;0.4184;0.7135;
341.1000;0.4282;0.7354;
341.4000;0.4208;0.7208;
341.7000;0.4208;0.7183;
342.0000;0.4192;0.7110;
342.3000;0.4200;0.7183;
342.6000;0.4176;0.7159;
342.9000;0.4200;0.7208;
343.2000;0.4200;0.7135;
343.5000;0.4127;0.6940;
343.8000;0.4176;0.7110;
344.1000;0.4184;0.7183;
344.4000;0.4168;0.7062;
344.7000;0.4192;0.7086;
345.0000;0.4168;0.7037;
345.3000;0.4168;0.7013;
345.6000;0.4184;0.6988;
345.9000;0.4184;0.7013;
346.2000;0.4192;0.7013;
346.5000;0.4184;0.6988;
346.8000;0.4192;0.7086;
347.1000;0.4176;0.7013;
347.4000;0.4184;0.7037;
347.7000;0.4200;0.7013;
348.0000;0.4200;0.6988;
348.3000;0.4208;0.7062;
348.6000;0.4176;0.7086;
348.9000;0.4176;0.7135;
349.2000;0.4184;0.7135;
349.5000;0.4249;0.7329;
349.8000;0.4168;0.7135;
350.1000;0.4176;0.7208;
350.4000;0.4200;0.7281;
350.7000;0.4200;0.7281;
351.0000;0.4192;0.7232;
351.3000;0.4208;0.7208;
351.6000;0.4192;0.7135;
351.9000;0.4184;0.7159;
352.2000;0.4184;0.7208;
352.5000;0.4151;0.7135;
352.8000;0.4184;0.7062;
353.1000;0.4184;0.7013;
353.4000;0.4200;0.6964;
353.7000;0.4192;0.6915;
354.0000;0.4192;0.6964;
354.3000;0.4184;0.7037;
354.6000;0.4160;0.6891;
354.9000;0.4176;0.6940;
355.2000;0.4184;0.7013;
355.5000;0.4184;0.7062;
355.8000;0.4176;0.6988;
356.1000;0.4200;0.7037;
356.4000;0.4200;0.7062;
356.7000;0.4192;0.7110;
357.0000;0.4184;0.7135;
357.3000;0.4176;0.7208;
357.6000;0.4184;0.7208;
357.9000;0.4192;0.7135;
358.2000;0.4200;0.7159;
358.5000;0.4200;0.7183;
358.8000;0.4184;0.7110;
359.1000;0.4176;0.7086;
359.4000;0.4192;0.7037;
359.7000;0.4192;0.7013;
360.0000;0.4160;0.6964;
360.3000;0.4184;0.6988;
360.6000;0.4200;0.6988;
360.9000;0.4208;0.6867;
361.2000;0.4200;0.6818;
361.5000;0.4184;0.6867;
361.8000;0.4200;0.6915;
362.1000;0.4192;0.6915;
362.4000;0.4208;0.6964;
362.7000;0.4200;0.6915;
363.0000;0.4160;0.6794;
363.3000;0.4208;0.6867;
363.6000;0.4192;0.6867;
363.9000;0.4184;0.6867;
364.2000;0.4184;0.6818;
364.5000;0.4200;0.6794;
364.8000;0.4192;0.6769;
365.1000;0.4192;0.6794;
365.4000;0.4200;0.6842;
365.7000;0.4200;0.6842;
366.0000;0.4208;0.6794;
366.3000;0.4192;0.6696;
366.6000;0.4184;0.6745;
366.9000;0.4200;0.6769;
367.2000;0.4257;0.6964;
367.5000;0.4200;0.6867;
367.8000;0.4151;0.6721;
368.1000;0.4200;0.6818;
368.4000;0.4094;0.6623;
368.7000;0.4184;0.6842;
369.0000;0.4151;0.6745;
369.3000;0.4200;0.6940;
369.6000;0.4176;0.6940;
369.9000;0.4168;0.6940;
370.2000;0.4176;0.6915;
370.5000;0.4192;0.6988;
370.8000;0.4168;0.6988;
371.1000;0.4192;0.7037;
371.4000;0.4176;0.7013;
371.7000;0.4184;0.7062;
372.0000;0.4192;0.7062;
372.3000;0.4200;0.7037;
372.6000;0.4192;0.7013;
372.9000;0.4200;0.7062;
373.2000;0.4249;0.7183;
373.5000;0.4200;0.7062;
373.8000;0.4192;0.7086;
374.1000;0.4168;0.7013;
374.4000;0.4192;0.7013;
374.7000;0.4135;0.6769;
375.0000;0.4200;0.7013;
375.3000;0.4217;0.7037;
375.6000;0.4192;0.6988;
375.9000;0.4176;0.7062;
376.2000;0.4200;0.7208;
376.5000;0.4200;0.7208;
376.8000;0.4192;0.7135;
377.1000;0.4192;0.7110;
377.4000;0.4184;0.7159;
377.7000;0.4249;0.7329;
378.0000;0.4192;0.7183;
378.3000;0.4176;0.7062;
378.6000;0.4192;0.7037;
378.9000;0.4192;0.7013;
379.2000;0.4176;0.6940;
379.5000;0.4184;0.6940;
379.8000;0.4192;0.6940;
380.1000;0.4192;0.7013;
380.4000;0.4208;0.7110;
380.7000;0.4217;0.7086;
381.0000;0.4184;0.7037;
381.3000;0.4192;0.7013;
381.6000;0.4168;0.7013;
381.9000;0.4176;0.6988;
382.2000;0.4192;0.6988;
382.5000;0.4192;0.6940;
382.8000;0.4217;0.6964;
383.1000;0.4184;0.6940;
383.4000;0.4192;0.6964;
383.7000;0.4143;0.6867;
384.0000;0.4184;0.7037;
384.3000;0.4168;0.7013;
384.6000;0.4168;0.6988;
384.9000;0.4200;0.7086;
385.2000;0.4192;0.7110;
385.5000;0.4184;0.7037;
385.8000;0.4176;0.7037;
386.1000;0.4184;0.7013;
386.4000;0.4168;0.7062;
386.7000;0.4192;0.7110;
387.0000;0.4200;0.7135;
387.3000;0.4192;0.7110;
387.6000;0.4217;0.7086;
387.9000;0.4176;0.6940;
388.2000;0.4127;0.6769;
388.5000;0.4184;0.6891;
388.8000;0.4192;0.6842;
389.1000;0.4290;0.7062;
389.4000;0.4168;0.6721;
389.7000;0.4176;0.6721;
390.0000;0.4192;0.6794;
390.3000;0.4143;0.6672;
390.6000;0.4192;0.6867;
390.9000;0.4192;0.6891;
391.2000;0.4151;0.6842;
391.5000;0.4184;0.7062;
391.8000;0.4184;0.7013;
392.1000;0.4217;0.7062;
392.4000;0.4151;0.6940;
392.7000;0.4176;0.7013;
393.0000;0.4208;0.7037;
393.3000;0.4200;0.7062;
393.6000;0.4200;0.6988;
393.9000;0.4200;0.6964;
394.2000;0.4192;0.7013;
394.5000;0.4176;0.7062;
394.8000;0.4184;0.7086;
395.1000;0.4184;0.7232;
395.4000;0.4200;0.7232;
395.7000;0.4192;0.7159;
396.0000;0.4184;0.7110;
396.3000;0.4192;0.7086;
396.6000;0.4200;0.7110;
396.9000;0.4200;0.7135;
397.2000;0.4200;0.7232;
397.5000;0.4184;0.7232;
397.8000;0.4184;0.7305;
398.1000;0.4192;0.7305;
398.4000;0.4200;0.7305;
398.7000;0.4192;0.7305;
399.0000;0.4200;0.7256;
399.3000;0.4184;0.7305;
399.6000;0.4192;0.7281;
399.9000;0.4176;0.7208;
400.2000;0.4192;0.7329;
400.5000;0.4192;0.7281;
400.8000;0.4184;0.7281;
401.1000;0.4184;0.7281;
401.4000;0.4184;0.7281;
401.7000;0.4265;0.7573;
402.0000;0.4200;0.7402;
402.3000;0.4208;0.7378;
402.6000;0.4168;0.7256;
402.9000;0.4184;0.7329;
403.2000;0.4151;0.7232;
403.5000;0.4192;0.7329;
403.8000;0.4217;0.7402;
404.1000;0.4176;0.7281;
404.4000;0.4184;0.7232;
404.7000;0.4160;0.7159;
405.0000;0.4168;0.7135;
405.3000;0.4192;0.7159;
405.6000;0.4192;0.7110;
405.9000;0.4176;0.7062;
406.2000;0.4208;0.7110;
406.5000;0.4192;0.7062;
406.8000;0.4225;0.7110;
407.1000;0.4217;0.7086;
407.4000;0.4200;0.7110;
407.7000;0.4233;0.7256;
408.0000;0.4184;0.7135;
408.3000;0.4184;0.7208;
408.6000;0.4151;0.7135;
408.9000;0.4184;0.7232;
409.2000;0.4208;0.7305;
409.5000;0.4192;0.7329;
409.8000;0.4192;0.7256;
410.1000;0.4274;0.7475;
410.4000;0.4160;0.7208;
410.7000;0.4192;0.7159;
411.0000;0.4184;0.7232;
411.3000;0.4184;0.7183;
411.6000;0.4208;0.7281;
411.9000;0.4192;0.7256;
412.2000;0.4192;0.7232;
412.5000;0.4176;0.7183;
412.8000;0.4176;0.7159;
413.1000;0.4151;0.7110;
413.4000;0.4192;0.7183;
413.7000;0.4168;0.7159;
414.0000;0.4176;0.7159;
414.3000;0.4200;0.7183;
414.6000;0.4184;0.7086;
414.9000;0.4176;0.7086;
415.2000;0.4176;0.7110;
415.5000;0.4176;0.7159;
415.8000;0.4192;0.7135;
416.1000;0.4184;0.7086;
416.4000;0.4111;0.6891;
416.7000;0.4200;0.7256;
417.0000;0.4176;0.7208;
417.3000;0.4184;0.7208;
417.6000;0.4192;0.7281;
417.9000;0.4192;0.7305;
418.2000;0.4160;0.7281;
418.5000;0.4184;0.7256;
418.8000;0.4184;0.7256;
419.1000;0.4151;0.7208;
419.4000;0.4192;0.7281;
419.7000;0.4200;0.7305;
420.0000;0.4184;0.7354;
420.3000;0.4192;0.7329;
420.6000;0.4176;0.7256;
420.9000;0.4151;0.7208;
421.2000;0.4176;0.7305;
421.5000;0.4208;0.7256;
421.8000;0.4176;0.7329;
422.1000;0.4184;0.7305;
422.4000;0.4184;0.7208;
422.7000;0.4200;0.7159;
423.0000;0.4200;0.7135;
423.3000;0.4192;0.7183;
423.6000;0.4192;0.7208;
423.9000;0.4184;0.7208;
424.2000;0.4192;0.7305;
424.5000;0.4208;0.7305;
424.8000;0.4200;0.7281;
425.1000;0.4192;0.7232;
425.4000;0.4184;0.7305;
425.7000;0.4176;0.7305;
426.0000;0.4217;0.7427;
426.3000;0.4192;0.7402;
426.6000;0.4184;0.7451;
426.9000;0.4184;0.7427;
427.2000;0.4184;0.7281;
427.5000;0.4192;0.7159;
427.8000;0.4168;0.7183;
428.1000;0.4200;0.7232;
428.4000;0.4192;0.7256;
428.7000;0.4233;0.7378;
429.0000;0.4192;0.7378;
429.3000;0.4176;0.7329;
429.6000;0.4192;0.7354;
429.9000;0.4192;0.7427;
430.2000;0.4184;0.7451;
430.5000;0.4192;0.7378;
430.8000;0.4168;0.7281;
431.1000;0.4225;0.7427;
431.4000;0.4192;0.7281;
431.7000;0.4184;0.7256;
432.0000;0.4192;0.7256;
432.3000;0.4298;0.7500;
432.6000;0.4217;0.7281;
432.9000;0.4184;0.7208;
433.2000;0.4200;0.7305;
433.5000;0.4192;0.7208;
433.8000;0.4184;0.7256;
434.1000;0.4168;0.7329;
434.4000;0.4184;0.7354;
434.7000;0.4192;0.7354;
435.0000;0.4200;0.7378;
435.3000;0.4184;0.7354;
435.6000;0.4168;0.7378;
435.9000;0.4176;0.7354;
436.2000;0.4160;0.7378;
436.5000;0.4176;0.7451;
436.8000;0.4184;0.7354;
437.1000;0.4168;0.7427;
437.4000;0.4184;0.7475;
437.7000;0.4200;0.7451;
438.0000;0.4176;0.7402;
438.3000;0.4184;0.7378;
438.6000;0.4208;0.7427;
438.9000;0.4184;0.7427;
439.2000;0.4184;0.7354;
439.5000;0.4176;0.7451;
439.8000;0.4200;0.7500;
440.1000;0.4200;0.7524;
440.4000;0.4241;0.7597;
440.7000;0.4176;0.7402;
441.0000;0.4184;0.7427;
441.3000;0.4192;0.7475;
441.6000;0.4200;0.7500;
441.9000;0.4192;0.7524;
442.2000;0.4151;0.7402;
442.5000;0.4192;0.7402;
442.8000;0.4200;0.7451;
443.1000;0.4192;0.7427;
443.4000;0.4192;0.7427;
443.7000;0.4160;0.7354;
444.0000;0.4184;0.7378;
444.3000;0.4184;0.7402;
444.6000;0.4200;0.7378;
444.9000;0.4184;0.7305;
445.2000;0.4200;0.7451;
445.5000;0.4192;0.7427;
445.8000;0.4192;0.7500;
446.1000;0.4184;0.7427;
446.4000;0.4176;0.7354;
446.7000;0.4176;0.7329;
447.0000;0.4168;0.7378;
447.3000;0.4184;0.7378;
447.6000;0.4184;0.7305;
447.9000;0.4192;0.7305;
448.2000;0.4192;0.7354;
448.5000;0.4200;0.7427;
448.8000;0.4200;0.7402;
449.1000;0.4192;0.7402;
449.4000;0.4176;0.7451;
449.7000;0.4184;0.7378;
450.0000;0.4200;0.7427;
450.3000;0.4200;0.7451;
450.6000;0.4184;0.7402;
450.9000;0.4143;0.7281;
451.2000;0.4192;0.7500;
451.5000;0.4184;0.7524;
451.8000;0.4135;0.7427;
452.1000;0.4184;0.7573;
452.4000;0.4176;0.7573;
452.7000;0.4184;0.7500;
453.0000;0.4184;0.7524;
453.3000;0.4135;0.7378;
453.6000;0.4192;0.7500;
453.9000;0.4192;0.7549;
454.2000;0.4200;0.7597;
454.5000;0.4217;0.7597;
454.8000;0.4192;0.7500;
455.1000;0.4208;0.7597;
455.4000;0.4200;0.7597;
455.7000;0.4200;0.7475;
456.0000;0.4233;0.7500;
456.3000;0.4184;0.7329;
456.6000;0.4192;0.7378;
456.9000;0.4233;0.7475;
457.2000;0.4192;0.7281;
457.5000;0.4176;0.7329;
457.8000;0.4168;0.7305;
458.1000;0.4176;0.7256;
458.4000;0.4208;0.7305;
458.7000;0.4192;0.7256;
459.0000;0.4208;0.7378;
459.3000;0.4192;0.7378;
459.6000;0.4143;0.7281;
459.9000;0.4176;0.7329;
460.2000;0.4208;0.7427;
460.5000;0.4192;0.7451;
460.8000;0.4127;0.7256;
461.1000;0.4168;0.7354;
461.4000;0.4200;0.7500;
461.7000;0.4160;0.7402;
462.0000;0.4176;0.7427;
462.3000;0.4111;0.7256;
462.6000;0.4168;0.7402;
462.9000;0.4160;0.7354;
463.2000;0.4168;0.7329;
463.5000;0.4225;0.7427;
463.8000;0.4208;0.7354;
464.1000;0.4184;0.7354;
464.4000;0.4184;0.7329;
464.7000;0.4200;0.7329;
465.0000;0.4200;0.7256;
465.3000;0.4192;0.7281;
465.6000;0.4192;0.7256;
465.9000;0.4233;0.7281;
466.2000;0.4168;0.7159;
466.5000;0.4184;0.7183;
466.8000;0.4176;0.7086;
467.1000;0.4192;0.7135;
467.4000;0.4176;0.7037;
467.7000;0.4168;0.6988;
468.0000;0.4208;0.7159;
468.3000;0.4192;0.7135;
468.6000;0.4160;0.7086;
468.9000;0.4184;0.7159;
469.2000;0.4176;0.7159;
469.5000;0.4184;0.7281;
469.8000;0.4184;0.7329;
470.1000;0.4184;0.7354;
470.4000;0.4168;0.7256;
470.7000;0.4184;0.7256;
471.0000;0.4184;0.7256;
471.3000;0.4184;0.7159;
471.6000;0.4184;0.7232;
471.9000;0.4192;0.7329;
472.2000;0.4184;0.7378;
472.5000;0.4176;0.7378;
472.8000;0.4176;0.7402;
473.1000;0.4192;0.7281;
473.4000;0.4192;0.7256;
473.7000;0.4127;0.7013;
474.0000;0.4184;0.7135;
474.3000;0.4200;0.7183;
474.6000;0.4176;0.7110;
474.9000;0.4200;0.7062;
475.2000;0.4184;0.7135;
475.5000;0.4135;0.7037;
475.8000;0.4192;0.7232;
476.1000;0.4192;0.7232;
476.4000;0.4225;0.7354;
476.7000;0.4151;0.7305;
477.0000;0.4168;0.7281;
477.3000;0.4143;0.7232;
477.6000;0.4176;0.7208;
477.9000;0.4184;0.7232;
478.2000;0.4184;0.7354;
478.5000;0.4208;0.7427;
478.8000;0.4184;0.7305;
479.1000;0.4192;0.7305;
479.4000;0.4200;0.7281;
479.7000;0.4160;0.7086;
480.0000;0.4184;0.7159;
480.3000;0.4217;0.7208;
480.6000;0.4200;0.7183;
480.9000;0.4192;0.7183;
481.2000;0.4184;0.7086;
481.5000;0.4184;0.7013;
481.8000;0.4192;0.7135;
482.1000;0.4184;0.7086;
482.4000;0.4200;0.7183;
482.7000;0.4135;0.7013;
483.0000;0.4168;0.7062;
483.3000;0.4103;0.6915;
483.6000;0.4176;0.7135;
483.9000;0.4208;0.7183;
484.2000;0.4208;0.7183;
484.5000;0.4208;0.7183;
484.8000;0.4225;0.7208;
485.1000;0.4192;0.7159;
485.4000;0.4151;0.6964;
485.7000;0.4143;0.7013;
486.0000;0.4192;0.7183;
486.3000;0.4208;0.7329;
486.6000;0.4184;0.7232;
486.9000;0.4208;0.7354;
487.2000;0.4160;0.7281;
487.5000;0.4274;0.7573;
487.8000;0.4184;0.7329;
488.1000;0.4200;0.7378;
488.4000;0.4200;0.7402;
488.7000;0.4160;0.7402;
489.0000;0.4184;0.7451;
489.3000;0.4184;0.7378;
489.6000;0.4233;0.7451;
489.9000;0.4217;0.7402;
490.2000;0.4176;0.7256;
490.5000;0.4184;0.7208;
490.8000;0.4168;0.7281;
491.1000;0.4200;0.7281;
491.4000;0.4184;0.7256;
491.7000;0.4168;0.7281;
492.0000;0.4143;0.7159;
492.3000;0.4176;0.7183;
492.6000;0.4192;0.7208;
492.9000;0.4176;0.7159;
493.2000;0.4184;0.7232;
493.5000;0.4192;0.7232;
493.8000;0.4176;0.7159;
494.1000;0.4192;0.7256;
494.4000;0.4192;0.7281;
494.7000;0.4233;0.7427;
495.0000;0.4225;0.7354;
495.3000;0.4192;0.7305;
495.6000;0.4200;0.7354;
495.9000;0.4200;0.7354;
496.2000;0.4192;0.7256;
496.5000;0.4184;0.7281;
496.8000;0.4176;0.7256;
497.1000;0.4176;0.7256;
497.4000;0.4176;0.7208;
497.7000;0.4184;0.7281;
498.0000;0.4184;0.7232;
498.3000;0.4168;0.7281;
498.6000;0.4168;0.7159;
498.9000;0.4143;0.7013;
499.2000;0.4176;0.7208;
499.5000;0.4176;0.7354;
499.8000;0.4274;0.7597;
500.1000;0.4160;0.7208;
500.4000;0.4111;0.7086;
500.7000;0.4168;0.7208;
501.0000;0.4184;0.7232;
501.3000;0.4184;0.7135;
501.6000;0.4192;0.7135;
501.9000;0.4168;0.7135;
502.2000;0.4160;0.7086;
502.5000;0.4160;0.7086;
502.8000;0.4176;0.6988;
503.1000;0.4160;0.6915;
503.4000;0.4176;0.6964;
503.7000;0.4192;0.6964;
504.0000;0.4176;0.7037;
504.3000;0.4274;0.7305;
504.6000;0.4176;0.7062;
504.9000;0.4217;0.7183;
505.2000;0.4184;0.7110;
505.5000;0.4176;0.7159;
505.8000;0.4111;0.7013;
506.1000;0.4160;0.7135;
506.4000;0.4151;0.7110;
506.7000;0.4184;0.7159;
507.0000;0.4176;0.7159;
507.3000;0.4192;0.7281;
507.6000;0.4192;0.7256;
507.9000;0.4192;0.7281;
508.2000;0.4168;0.7159;
508.5000;0.4176;0.7208;
508.8000;0.4200;0.7305;
509.1000;0.4176;0.7281;
509.4000;0.4192;0.7256;
509.7000;0.4200;0.7208;
510.0000;0.4208;0.7305;
510.3000;0.4233;0.7354;
510.6000;0.4176;0.7183;
510.9000;0.4176;0.7208;
511.2000;0.4192;0.7159;
511.5000;0.4176;0.7208;
511.8000;0.4168;0.7232;
512.1000;0.4160;0.7208;
512.4000;0.4168;0.7183;
512.7000;0.4176;0.7135;
513.0000;0.4119;0.6818;
513.3000;0.4160;0.6940;
513.6000;0.4151;0.6915;
513.9000;0.4192;0.7013;
514.2000;0.4176;0.6988;
514.5000;0.4168;0.6915;
514.8000;0.4176;0.6940;
515.1000;0.4176;0.6964;
515.4000;0.4192;0.6988;
515.7000;0.4184;0.7013;
516.0000;0.4168;0.7037;
516.3000;0.4192;0.7183;
516.6000;0.4200;0.7183;
516.9000;0.4225;0.7329;
517.2000;0.4184;0.7208;
517.5000;0.4184;0.7208;
517.8000;0.4184;0.7183;
518.1000;0.4184;0.7183;
518.4000;0.4184;0.7086;
518.7000;0.4217;0.7159;
519.0000;0.4176;0.7183;
519.3000;0.4176;0.7232;
519.6000;0.4184;0.7329;
519.9000;0.4200;0.7329;
520.2000;0.4200;0.7354;
520.5000;0.4184;0.7232;
520.8000;0.4184;0.7232;
521.1000;0.4176;0.7281;
521.4000;0.4208;0.7354;
521.7000;0.4200;0.7232;
522.0000;0.4184;0.7232;
522.3000;0.4233;0.7305;
522.6000;0.4184;0.7256;
522.9000;0.4184;0.7232;
523.2000;0.4184;0.7208;
523.5000;0.4225;0.7208;
523.8000;0.4233;0.7354;
524.1000;0.4208;0.7305;
524.4000;0.4184;0.7281;
524.7000;0.4184;0.7329;
525.0000;0.4192;0.7305;
525.3000;0.4192;0.7281;
525.6000;0.4184;0.7305;
525.9000;0.4192;0.7378;
526.2000;0.4168;0.7305;
526.5000;0.4168;0.7354;
526.8000;0.4160;0.7232;
527.1000;0.4176;0.7256;
527.4000;0.4184;0.7183;
527.7000;0.4184;0.7183;
528.0000;0.4176;0.7183;
528.3000;0.4176;0.7135;
528.6000;0.4184;0.7159;
528.9000;0.4184;0.7135;
529.2000;0.4184;0.7183;
529.5000;0.4094;0.6964;
529.8000;0.4176;0.7232;
530.1000;0.4143;0.7183;
530.4000;0.4184;0.7329;
530.7000;0.4184;0.7256;
531.0000;0.4168;0.7305;
531.3000;0.4192;0.7281;
531.6000;0.4184;0.7281;
531.9000;0.4168;0.7281;
532.2000;0.4184;0.7281;
532.5000;0.4184;0.7256;
532.8000;0.4184;0.7183;
533.1000;0.4192;0.7232;
533.4000;0.4257;0.7354;
533.7000;0.4184;0.7183;
534.0000;0.4184;0.7159;
534.3000;0.4184;0.7183;
534.6000;0.4225;0.7329;
534.9000;0.4168;0.7183;
535.2000;0.4217;0.7232;
535.5000;0.4192;0.7135;
535.8000;0.4176;0.7159;
536.1000;0.4217;0.7305;
536.4000;0.4184;0.7208;
536.7000;0.4200;0.7208;
537.0000;0.4184;0.7281;
537.3000;0.4184;0.7305;
537.6000;0.4184;0.7354;
537.9000;0.4192;0.7427;
538.2000;0.4184;0.7475;
538.5000;0.4192;0.7475;
538.8000;0.4176;0.7427;
539.1000;0.4192;0.7402;
539.4000;0.4184;0.7475;
539.7000;0.4151;0.7281;
540.0000;0.4192;0.7378;
540.3000;0.4184;0.7402;
540.6000;0.4208;0.7427;
540.9000;0.4184;0.7378;
541.2000;0.4184;0.7354;
541.5000;0.4233;0.7378;
541.8000;0.4184;0.7208;
542.1000;0.4217;0.7378;
542.4000;0.4184;0.7281;
542.7000;0.4192;0.7208;
543.0000;0.4143;0.7110;
543.3000;0.4192;0.7329;
543.6000;0.4176;0.7305;
543.9000;0.4168;0.7281;
544.2000;0.4176;0.7281;
544.5000;0.4160;0.7281;
544.8000;0.4176;0.7305;
545.1000;0.4184;0.7281;
545.4000;0.4200;0.7305;
545.7000;0.4200;0.7305;
546.0000;0.4184;0.7281;
546.3000;0.4176;0.7281;
546.6000;0.4111;0.7135;
546.9000;0.4208;0.7354;
547.2000;0.4208;0.7256;
547.5000;0.4184;0.7232;
547.8000;0.4176;0.7159;
548.1000;0.4176;0.7159;
548.4000;0.4176;0.7183;
548.7000;0.4160;0.7110;
549.0000;0.4168;0.7159;
549.3000;0.4184;0.7159;
549.6000;0.4184;0.7159;
549.9000;0.4127;0.6988;
550.2000;0.4176;0.7086;
550.5000;0.4176;0.7135;
550.8000;0.4184;0.7159;
551.1000;0.4184;0.7281;
551.4000;0.4184;0.7305;
551.7000;0.4176;0.7232;
552.0000;0.4184;0.7256;
552.3000;0.4176;0.7232;
552.6000;0.4176;0.7232;
552.9000;0.4192;0.7378;
553.2000;0.4200;0.7402;
553.5000;0.4168;0.7354;
553.8000;0.4176;0.7329;
554.1000;0.4184;0.7378;
554.4000;0.4160;0.7354;
554.7000;0.4184;0.7427;
555.0000;0.4184;0.7427;
555.3000;0.4168;0.7329;
555.6000;0.4160;0.7354;
555.9000;0.4176;0.7451;
556.2000;0.4103;0.7305;
556.5000;0.4184;0.7402;
556.8000;0.4184;0.7378;
557.1000;0.4192;0.7402;
557.4000;0.4135;0.7329;
557.7000;0.4200;0.7475;
558.0000;0.4192;0.7427;
558.3000;0.4176;0.7427;
558.6000;0.4176;0.7500;
558.9000;0.4168;0.7378;
559.2000;0.4119;0.7281;
559.5000;0.4192;0.7427;
559.8000;0.4168;0.7305;
560.1000;0.4176;0.7378;
560.4000;0.4176;0.7354;
560.7000;0.4200;0.7427;
561.0000;0.4208;0.7451;
561.3000;0.4176;0.7427;
561.6000;0.4176;0.7402;
561.9000;0.4176;0.7427;
562.2000;0.4168;0.7475;
562.5000;0.4208;0.7475;
562.8000;0.4184;0.7427;
563.1000;0.4168;0.7427;
563.4000;0.4184;0.7475;
563.7000;0.4184;0.7451;
564.0000;0.4192;0.7427;
564.3000;0.4160;0.7402;
564.6000;0.4135;0.7329;
564.9000;0.4192;0.7329;
565.2000;0.4192;0.7281;
565.5000;0.4200;0.7329;
565.8000;0.4184;0.7256;
566.1000;0.4192;0.7232;
566.4000;0.4192;0.7281;
566.7000;0.4176;0.7208;
567.0000;0.4168;0.7208;
567.3000;0.4192;0.7256;
567.6000;0.4200;0.7305;
567.9000;0.4184;0.7305;
568.2000;0.4192;0.7378;
568.5000;0.4233;0.7475;
568.8000;0.4184;0.7305;
569.1000;0.4192;0.7256;
569.4000;0.4176;0.7329;
569.7000;0.4176;0.7354;
570.0000;0.4200;0.7378;
570.3000;0.4184;0.7354;
570.6000;0.4168;0.7354;
570.9000;0.4184;0.7329;
571.2000;0.4192;0.7305;
571.5000;0.4208;0.7378;
571.8000;0.4143;0.7232;
572.1000;0.4184;0.7256;
572.4000;0.4184;0.7354;
572.7000;0.4192;0.7354;
573.0000;0.4176;0.7281;
573.3000;0.4094;0.7232;
573.6000;0.4176;0.7402;
573.9000;0.4168;0.7354;
574.2000;0.4168;0.7354;
574.5000;0.4184;0.7378;
574.8000;0.4184;0.7378;
575.1000;0.4176;0.7354;
575.4000;0.4176;0.7232;
575.7000;0.4160;0.7159;
576.0000;0.4192;0.7232;
576.3000;0.4217;0.7256;
576.6000;0.4176;0.7159;
576.9000;0.4176;0.7208;
577.2000;0.4176;0.7281;
577.5000;0.4176;0.7451;
577.8000;0.4184;0.7500;
578.1000;0.4176;0.7378;
578.4000;0.4306;0.7549;
578.7000;0.4176;0.7208;
579.0000;0.4184;0.7159;
579.3000;0.4208;0.7208;
579.6000;0.4176;0.7135;
579.9000;0.4176;0.7208;
580.2000;0.4200;0.7208;
580.5000;0.4176;0.7159;
580.8000;0.4168;0.7183;
581.1000;0.4192;0.7208;
581.4000;0.4184;0.7208;
581.7000;0.4184;0.7354;
582.0000;0.4176;0.7402;
582.3000;0.4249;0.7573;
582.6000;0.4184;0.7329;
582.9000;0.4192;0.7305;
583.2000;0.4176;0.7232;
583.5000;0.4176;0.7281;
583.8000;0.4176;0.7256;
584.1000;0.4200;0.7256;
584.4000;0.4176;0.7305;
584.7000;0.4208;0.7305;
585.0000;0.4176;0.7354;
585.3000;0.4184;0.7378;
585.6000;0.4176;0.7402;
585.9000;0.4176;0.7402;
586.2000;0.4176;0.7378;
586.5000;0.4184;0.7427;
586.8000;0.4151;0.7354;
587.1000;0.4176;0.7329;
587.4000;0.4168;0.7378;
587.7000;0.4192;0.7427;
588.0000;0.4176;0.7451;
588.3000;0.4160;0.7500;
588.6000;0.4184;0.7475;
588.9000;0.4184;0.7500;
589.2000;0.4192;0.7427;
589.5000;0.4176;0.7402;
589.8000;0.4160;0.7354;
590.1000;0.4176;0.7427;
590.4000;0.4184;0.7427;
590.7000;0.4200;0.7475;
591.0000;0.4176;0.7305;
591.3000;0.4208;0.7451;
591.6000;0.4192;0.7427;
591.9000;0.4192;0.7451;
592.2000;0.4184;0.7451;
592.5000;0.4135;0.7329;
592.8000;0.4233;0.7500;
593.1000;0.4200;0.7451;
593.4000;0.4192;0.7451;
593.7000;0.4176;0.7354;
594.0000;0.4184;0.7427;
594.3000;0.4168;0.7451;
594.6000;0.4168;0.7451;
594.9000;0.4168;0.7549;
595.2000;0.4151;0.7451;
595.5000;0.4192;0.7451;
595.8000;0.4184;0.7402;
596.1000;0.4176;0.7378;
596.4000;0.4200;0.7451;
596.7000;0.4184;0.7524;
597.0000;0.4176;0.7500;
597.3000;0.4160;0.7402;
597.6000;0.4192;0.7500;
597.9000;0.4200;0.7500;
598.2000;0.4200;0.7427;
598.5000;0.4208;0.7402;
598.8000;0.4192;0.7256;
599.1000;0.4151;0.7135;
599.4000;0.4168;0.7135;
599.7000;0.4168;0.7135;
600.0000;0.4160;0.7037;
600.3000;0.4233;0.7062;
600.6000;0.4168;0.6842;
600.9000;0.4184;0.6721;
601.2000;0.4127;0.6501;
601.5000;0.4135;0.6380;
601.8000;0.4119;0.6258;
602.1000;0.4094;0.6063;
602.4000;0.4037;0.5820;
602.7000;0.4078;0.5844;
603.0000;0.3980;0.5503;
603.3000;0.3980;0.5503;
603.6000;0.4094;0.5649;
603.9000;0.3989;0.5235;
604.2000;0.3964;0.5138;
604.5000;0.3964;0.5187;
604.8000;0.3948;0.5114;
605.1000;0.3932;0.5089;
605.4000;0.4005;0.5406;
605.7000;0.3932;0.5308;
606.0000;0.3899;0.5260;
606.3000;0.3867;0.5211;
606.6000;0.3899;0.5260;
606.9000;0.3891;0.5162;
607.2000;0.3883;0.5114;
607.5000;0.3883;0.5138;
607.8000;0.3867;0.5114;
608.1000;0.3867;0.5187;
608.4000;0.3858;0.5065;
608.7000;0.3867;0.4967;
609.0000;0.3834;0.4797;
609.3000;0.3834;0.4821;
609.6000;0.3834;0.4700;
609.9000;0.3818;0.4651;
610.2000;0.3818;0.4675;
610.5000;0.3761;0.4529;
610.8000;0.3810;0.4675;
611.1000;0.3818;0.4651;
611.4000;0.3793;0.4651;
611.7000;0.3801;0.4700;
612.0000;0.3964;0.5138;
612.3000;0.3793;0.4700;
612.6000;0.3785;0.4700;
612.9000;0.3761;0.4578;
613.2000;0.3777;0.4553;
613.5000;0.3785;0.4602;
613.8000;0.3777;0.4480;
614.1000;0.3753;0.4578;
614.4000;0.3720;0.4456;
614.7000;0.3704;0.4383;
615.0000;0.3744;0.4505;
615.3000;0.3753;0.4456;
615.6000;0.3728;0.4407;
615.9000;0.3753;0.4407;
616.2000;0.3736;0.4407;
616.5000;0.3704;0.4310;
616.8000;0.3769;0.4529;
617.1000;0.3720;0.4456;
617.4000;0.3736;0.4505;
617.7000;0.3720;0.4529;
618.0000;0.3720;0.4553;
618.3000;0.3736;0.4627;
618.6000;0.3793;0.4797;
618.9000;0.3704;0.4505;
619.2000;0.3712;0.4529;
619.5000;0.3712;0.4578;
619.8000;0.3785;0.4748;
620.1000;0.3704;0.4456;
620.4000;0.3712;0.4505;
620.7000;0.3704;0.4456;
621.0000;0.3687;0.4383;
621.3000;0.3696;0.4432;
621.6000;0.3679;0.4261;
621.9000;0.3679;0.4334;
622.2000;0.3696;0.4456;
622.5000;0.3696;0.4432;
622.8000;0.3704;0.4505;
623.1000;0.3687;0.4480;
623.4000;0.3687;0.4480;
623.7000;0.3671;0.4310;
624.0000;0.3622;0.4213;
624.3000;0.3614;0.4213;
624.6000;0.3663;0.4383;
624.9000;0.3663;0.4383;
625.2000;0.3655;0.4237;
625.5000;0.3647;0.4188;
625.8000;0.3671;0.4310;
626.1000;0.3663;0.4310;
626.4000;0.3639;0.4383;
626.7000;0.3639;0.4383;
627.0000;0.3671;0.4456;
627.3000;0.3663;0.4529;
627.6000;0.3647;0.4578;
627.9000;0.3630;0.4505;
628.2000;0.3647;0.4529;
628.5000;0.3630;0.4578;
628.8000;0.3639;0.4529;
629.1000;0.3622;0.4505;
629.4000;0.3622;0.4407;
629.7000;0.3639;0.4407;
630.0000;0.3630;0.4383;
630.3000;0.3630;0.4432;
630.6000;0.3614;0.4359;
630.9000;0.3639;0.4407;
631.2000;0.3630;0.4432;
631.5000;0.3655;0.4480;
631.8000;0.3565;0.4334;
632.1000;0.3614;0.4456;
632.4000;0.3622;0.4456;
632.7000;0.3614;0.4505;
633.0000;0.3606;0.4480;
633.3000;0.3614;0.4456;
633.6000;0.3639;0.4505;
633.9000;0.3614;0.4383;
634.2000;0.3582;0.4286;
634.5000;0.3606;0.4407;
634.8000;0.3622;0.4432;
635.1000;0.3622;0.4432;
635.4000;0.3614;0.4407;
635.7000;0.3582;0.4310;
636.0000;0.3598;0.4359;
636.3000;0.3606;0.4334;
636.6000;0.3614;0.4334;
636.9000;0.3582;0.4334;
637.2000;0.3614;0.4456;
637.5000;0.3590;0.4383;
637.8000;0.3598;0.4432;
638.1000;0.3582;0.4456;
638.4000;0.3573;0.4480;
638.7000;0.3582;0.4432;
639.0000;0.3590;0.4432;
639.3000;0.3630;0.4529;
639.6000;0.3590;0.4383;
639.9000;0.3582;0.4407;
640.2000;0.3598;0.4334;
640.5000;0.3582;0.4359;
640.8000;0.3590;0.4334;
641.1000;0.3573;0.4310;
641.4000;0.3573;0.4286;
641.7000;0.3565;0.4286;
642.0000;0.3557;0.4310;
642.3000;0.3500;0.4188;
642.6000;0.3573;0.4407;
642.9000;0.3573;0.4383;
643.2000;0.3549;0.4261;
643.5000;0.3565;0.4261;
643.8000;0.3598;0.4383;
644.1000;0.3557;0.4334;
644.4000;0.3549;0.4334;
644.7000;0.3549;0.4334;
645.0000;0.3557;0.4432;
645.3000;0.3590;0.4578;
645.6000;0.3533;0.4456;
645.9000;0.3557;0.4505;
646.2000;0.3549;0.4529;
646.5000;0.3614;0.4724;
646.8000;0.3533;0.4480;
647.1000;0.3549;0.4480;
647.4000;0.3541;0.4529;
647.7000;0.3541;0.4480;
648.0000;0.3549;0.4553;
648.3000;0.3541;0.4529;
648.6000;0.3557;0.4553;
648.9000;0.3557;0.4602;
649.2000;0.3541;0.4529;
649.5000;0.3565;0.4432;
649.8000;0.3541;0.4359;
650.1000;0.3516;0.4359;
650.4000;0.3541;0.4383;
650.7000;0.3516;0.4359;
651.0000;0.3541;0.4359;
651.3000;0.3549;0.4383;
651.6000;0.3533;0.4383;
651.9000;0.3541;0.4334;
652.2000;0.3533;0.4310;
652.5000;0.3541;0.4407;
652.8000;0.3525;0.4407;
653.1000;0.3541;0.4505;
653.4000;0.3516;0.4456;
653.7000;0.3541;0.4505;
654.0000;0.3557;0.4529;
654.3000;0.3557;0.4480;
654.6000;0.3533;0.4383;
654.9000;0.3525;0.4334;
655.2000;0.3565;0.4480;
655.5000;0.3541;0.4383;
655.8000;0.3549;0.4383;
656.1000;0.3549;0.4334;
656.4000;0.3516;0.4261;
656.7000;0.3541;0.4383;
657.0000;0.3516;0.4286;
657.3000;0.3533;0.4334;
657.6000;0.3549;0.4407;
657.9000;0.3533;0.4407;
658.2000;0.3533;0.4456;
658.5000;0.3533;0.4505;
658.8000;0.3516;0.4407;
659.1000;0.3606;0.4505;
659.4000;0.3516;0.4334;
659.7000;0.3516;0.4359;
660.0000;0.3565;0.4529;
660.3000;0.3525;0.4407;
660.6000;0.3541;0.4456;
660.9000;0.3533;0.4529;
661.2000;0.3500;0.4456;
661.5000;0.3557;0.4651;
661.8000;0.3500;0.4578;
662.1000;0.3516;0.4529;
662.4000;0.3508;0.4480;
662.7000;0.3508;0.4480;
663.0000;0.3525;0.4432;
663.3000;0.3525;0.4383;
663.6000;0.3525;0.4359;
663.9000;0.3516;0.4310;
664.2000;0.3525;0.4310;
664.5000;0.3516;0.4310;
664.8000;0.3492;0.4237;
665.1000;0.3508;0.4261;
665.4000;0.3484;0.4383;
665.7000;0.3484;0.4480;
666.0000;0.3500;0.4529;
666.3000;0.3500;0.4480;
666.6000;0.3508;0.4480;
666.9000;0.3525;0.4456;
667.2000;0.3525;0.4456;
667.5000;0.3516;0.4456;
667.8000;0.3525;0.4505;
668.1000;0.3516;0.4480;
668.4000;0.3525;0.4578;
668.7000;0.3500;0.4529;
669.0000;0.3484;0.4602;
669.3000;0.3541;0.4700;
669.6000;0.3500;0.4651;
669.9000;0.3492;0.4602;
670.2000;0.3492;0.4505;
670.5000;0.3484;0.4480;
670.8000;0.3525;0.4578;
671.1000;0.3533;0.4627;
671.4000;0.3500;0.4553;
671.7000;0.3500;0.4505;
672.0000;0.3500;0.4480;
672.3000;0.3443;0.4310;
672.6000;0.3492;0.4383;
672.9000;0.3460;0.4286;
673.2000;0.3492;0.4334;
673.5000;0.3557;0.4456;
673.8000;0.3516;0.4359;
674.1000;0.3476;0.4383;
674.4000;0.3541;0.4529;
674.7000;0.3508;0.4407;
675.0000;0.3484;0.4456;
675.3000;0.3492;0.4529;
675.6000;0.3500;0.4553;
675.9000;0.3492;0.4480;
676.2000;0.3500;0.4432;
676.5000;0.3525;0.4480;
676.8000;0.3492;0.4505;
677.1000;0.3500;0.4553;
677.4000;0.3443;0.4286;
677.7000;0.3565;0.4553;
678.0000;0.3508;0.4383;
678.3000;0.3500;0.4407;
678.6000;0.3484;0.4432;
678.9000;0.3492;0.4359;
679.2000;0.3492;0.4359;
679.5000;0.3476;0.4310;
679.8000;0.3492;0.4310;
680.1000;0.3508;0.4383;
680.4000;0.3492;0.4383;
680.7000;0.3476;0.4383;
681.0000;0.3468;0.4407;
681.3000;0.3492;0.4553;
681.6000;0.3460;0.4480;
681.9000;0.3484;0.4456;
682.2000;0.3476;0.4505;
682.5000;0.3451;0.4359;
682.8000;0.3468;0.4432;
683.1000;0.3541;0.4578;
683.4000;0.3451;0.4334;
683.7000;0.3468;0.4359;
684.0000;0.3468;0.4286;
684.3000;0.3451;0.4310;
684.6000;0.3484;0.4383;
684.9000;0.3476;0.4334;
685.2000;0.3451;0.4310;
685.5000;0.3476;0.4480;
685.8000;0.3484;0.4432;
686.1000;0.3451;0.4310;
686.4000;0.3451;0.4383;
686.7000;0.3468;0.4432;
687.0000;0.3468;0.4456;
687.3000;0.3451;0.4286;
687.6000;0.3468;0.4383;
687.9000;0.3468;0.4383;
688.2000;0.3460;0.4432;
688.5000;0.3484;0.4505;
688.8000;0.3468;0.4432;
689.1000;0.3468;0.4407;
689.4000;0.3468;0.4407;
689.7000;0.3451;0.4480;
690.0000;0.3443;0.4383;
690.3000;0.3484;0.4383;
690.6000;0.3476;0.4359;
690.9000;0.3468;0.4334;
691.2000;0.3492;0.4407;
691.5000;0.3460;0.4359;
691.8000;0.3460;0.4334;
692.1000;0.3476;0.4359;
692.4000;0.3492;0.4407;
692.7000;0.3468;0.4359;
693.0000;0.3492;0.4383;
693.3000;0.3468;0.4310;
693.6000;0.3492;0.4383;
693.9000;0.3468;0.4286;
694.2000;0.3427;0.4164;
694.5000;0.3476;0.4310;
694.8000;0.3508;0.4383;
695.1000;0.3460;0.4261;
695.4000;0.3484;0.4359;
695.7000;0.3460;0.4334;
696.0000;0.3484;0.4334;
696.3000;0.3419;0.4115;
696.6000;0.3460;0.4188;
696.9000;0.3468;0.4188;
697.2000;0.3484;0.4213;
697.5000;0.3460;0.4164;
697.8000;0.3468;0.4213;
698.1000;0.3460;0.4213;
698.4000;0.3525;0.4383;
698.7000;0.3468;0.4310;
699.0000;0.3460;0.4310;
699.3000;0.3451;0.4359;
699.6000;0.3451;0.4359;
699.9000;0.3476;0.4359;
700.2000;0.3468;0.4383;
700.5000;0.3484;0.4432;
700.8000;0.3468;0.4432;
701.1000;0.3451;0.4383;
701.4000;0.3443;0.4334;
701.7000;0.3516;0.4505;
702.0000;0.3443;0.4261;
702.3000;0.3460;0.4359;
702.6000;0.3508;0.4480;
702.9000;0.3460;0.4359;
703.2000;0.3460;0.4310;
703.5000;0.3484;0.4286;
703.8000;0.3476;0.4164;
704.1000;0.3460;0.4164;
704.4000;0.3451;0.4261;
704.7000;0.3468;0.4359;
705.0000;0.3468;0.4310;
705.3000;0.3484;0.4188;
705.6000;0.3492;0.4213;
705.9000;0.3484;0.4237;
706.2000;0.3468;0.4237;
706.5000;0.3451;0.4115;
706.8000;0.3427;0.4091;
707.1000;0.3460;0.4213;
707.4000;0.3451;0.4237;
707.7000;0.3468;0.4261;
708.0000;0.3443;0.4213;
708.3000;0.3476;0.4261;
708.6000;0.3435;0.4140;
708.9000;0.3468;0.4115;
709.2000;0.3484;0.4261;
709.5000;0.3468;0.4213;
709.8000;0.3460;0.4140;
710.1000;0.3468;0.4213;
710.4000;0.3508;0.4359;
710.7000;0.3468;0.4237;
711.0000;0.3460;0.4286;
711.3000;0.3435;0.4286;
711.6000;0.3435;0.4261;
711.9000;0.3451;0.4261;
712.2000;0.3468;0.4310;
712.5000;0.3435;0.4261;
712.8000;0.3403;0.4213;
713.1000;0.3443;0.4359;
713.4000;0.3460;0.4383;
713.7000;0.3427;0.4286;
714.0000;0.3460;0.4310;
714.3000;0.3476;0.4359;
714.6000;0.3460;0.4359;
714.9000;0.3435;0.4334;
715.2000;0.3468;0.4359;
715.5000;0.3443;0.4310;
715.8000;0.3451;0.4310;
716.1000;0.3484;0.4383;
716.4000;0.3468;0.4359;
716.7000;0.3460;0.4359;
717.0000;0.3460;0.4359;
717.3000;0.3443;0.4237;
717.6000;0.3460;0.4140;
717.9000;0.3451;0.4164;
718.2000;0.3427;0.4310;
718.5000;0.3451;0.4334;
718.8000;0.3476;0.4407;
719.1000;0.3460;0.4359;
719.4000;0.3484;0.4456;
719.7000;0.3427;0.4286;
720.0000;0.3427;0.4286;
720.3000;0.3451;0.4334;
720.6000;0.3443;0.4407;
720.9000;0.3427;0.4334;
721.2000;0.3419;0.4407;
721.5000;0.3468;0.4529;
721.8000;0.3443;0.4505;
722.1000;0.3435;0.4505;
722.4000;0.3500;0.4627;
722.7000;0.3435;0.4480;
723.0000;0.3411;0.4334;
723.3000;0.3443;0.4529;
723.6000;0.3443;0.4602;
723.9000;0.3460;0.4578;
724.2000;0.3460;0.4627;
724.5000;0.3460;0.4553;
724.8000;0.3443;0.4456;
725.1000;0.3443;0.4505;
725.4000;0.3451;0.4480;
725.7000;0.3435;0.4383;
726.0000;0.3427;0.4407;
726.3000;0.3427;0.4334;
726.6000;0.3451;0.4359;
726.9000;0.3460;0.4505;
727.2000;0.3443;0.4359;
727.5000;0.3435;0.4286;
727.8000;0.3419;0.4213;
728.1000;0.3484;0.4359;
728.4000;0.3427;0.4188;
728.7000;0.3460;0.4261;
729.0000;0.3451;0.4334;
729.3000;0.3443;0.4359;
729.6000;0.3492;0.4529;
729.9000;0.3443;0.4407;
730.2000;0.3419;0.4334;
730.5000;0.3443;0.4334;
730.8000;0.3394;0.4188;
731.1000;0.3443;0.4334;
731.4000;0.3411;0.4334;
731.7000;0.3427;0.4359;
732.0000;0.3435;0.4286;
732.3000;0.3443;0.4310;
732.6000;0.3411;0.4334;
732.9000;0.3427;0.4480;
733.2000;0.3460;0.4529;
733.5000;0.3419;0.4383;
733.8000;0.3435;0.4432;
734.1000;0.3419;0.4456;
734.4000;0.3492;0.4627;
734.7000;0.3460;0.4529;
735.0000;0.3451;0.4529;
735.3000;0.3443;0.4553;
735.6000;0.3443;0.4505;
735.9000;0.3427;0.4529;
736.2000;0.3427;0.4480;
736.5000;0.3346;0.4213;
736.8000;0.3451;0.4432;
737.1000;0.3419;0.4383;
737.4000;0.3443;0.4359;
737.7000;0.3435;0.4407;
738.0000;0.3451;0.4407;
738.3000;0.3443;0.4334;
738.6000;0.3427;0.4334;
738.9000;0.3435;0.4237;
739.2000;0.3460;0.4310;
739.5000;0.3435;0.4286;
739.8000;0.3460;0.4310;
740.1000;0.3443;0.4310;
740.4000;0.3435;0.4383;
740.7000;0.3451;0.4456;
741.0000;0.3443;0.4456;
741.3000;0.3427;0.4456;
741.6000;0.3427;0.4480;
741.9000;0.3435;0.4505;
742.2000;0.3435;0.4480;
742.5000;0.3443;0.4529;
742.8000;0.3435;0.4505;
743.1000;0.3451;0.4529;
743.4000;0.3435;0.4505;
743.7000;0.3435;0.4432;
744.0000;0.3476;0.4505;
744.3000;0.3451;0.4334;
744.6000;0.3386;0.4213;
744.9000;0.3451;0.4432;
745.2000;0.3427;0.4310;
745.5000;0.3419;0.4286;
745.8000;0.3451;0.4407;
746.1000;0.3427;0.4456;
746.4000;0.3419;0.4432;
746.7000;0.3435;0.4407;
747.0000;0.3427;0.4359;
747.3000;0.3403;0.4359;
747.6000;0.3427;0.4456;
747.9000;0.3411;0.4407;
748.2000;0.3435;0.4480;
748.5000;0.3362;0.4334;
748.8000;0.3419;0.4383;
749.1000;0.3419;0.4286;
749.4000;0.3435;0.4383;
749.7000;0.3443;0.4432;
750.0000;0.3443;0.4359;
750.3000;0.3427;0.4286;
750.6000;0.3468;0.4383;
750.9000;0.3435;0.4237;
751.2000;0.3460;0.4261;
751.5000;0.3443;0.4310;
751.8000;0.3427;0.4286;
752.1000;0.3419;0.4213;
752.4000;0.3435;0.4310;
752.7000;0.3484;0.4407;
753.0000;0.3443;0.4286;
753.3000;0.3451;0.4383;
753.6000;0.3411;0.4261;
753.9000;0.3427;0.4261;
754.2000;0.3451;0.4334;
754.5000;0.3443;0.4359;
754.8000;0.3451;0.4359;
755.1000;0.3435;0.4261;
755.4000;0.3419;0.4237;
755.7000;0.3460;0.4237;
756.0000;0.3451;0.4188;
756.3000;0.3435;0.4115;
756.6000;0.3435;0.4115;
756.9000;0.3451;0.4188;
757.2000;0.3427;0.4140;
757.5000;0.3427;0.4140;
757.8000;0.3427;0.4115;
758.1000;0.3411;0.4115;
758.4000;0.3419;0.4261;
758.7000;0.3443;0.4286;
759.0000;0.3468;0.4359;
759.3000;0.3435;0.4286;
759.6000;0.3427;0.4140;
759.9000;0.3443;0.4140;
760.2000;0.3427;0.4164;
760.5000;0.3443;0.4213;
760.8000;0.3419;0.4188;
761.1000;0.3427;0.4286;
761.4000;0.3427;0.4310;
761.7000;0.3411;0.4286;
762.0000;0.3411;0.4359;
762.3000;0.3386;0.4286;
762.6000;0.3411;0.4286;
762.9000;0.3419;0.4334;
763.2000;0.3411;0.4261;
763.5000;0.3419;0.4334;
763.8000;0.3427;0.4407;
764.1000;0.3419;0.4359;
764.4000;0.3435;0.4383;
764.7000;0.3419;0.4432;
765.0000;0.3419;0.4286;
765.3000;0.3419;0.4286;
765.6000;0.3427;0.4286;
765.9000;0.3403;0.4237;
766.2000;0.3427;0.4261;
766.5000;0.3419;0.4237;
766.8000;0.3403;0.4188;
767.1000;0.3411;0.4140;
767.4000;0.3427;0.4140;
767.7000;0.3411;0.4188;
768.0000;0.3435;0.4286;
768.3000;0.3427;0.4237;
768.6000;0.3443;0.4261;
768.9000;0.3451;0.4334;
769.2000;0.3427;0.4237;
769.5000;0.3451;0.4334;
769.8000;0.3435;0.4261;
770.1000;0.3443;0.4359;
770.4000;0.3427;0.4407;
770.7000;0.3411;0.4432;
771.0000;0.3419;0.4456;
771.3000;0.3419;0.4480;
771.6000;0.3403;0.4432;
771.9000;0.3394;0.4359;
772.2000;0.3411;0.4480;
772.5000;0.3435;0.4553;
772.8000;0.3419;0.4578;
773.1000;0.3419;0.4529;
773.4000;0.3394;0.4529;
773.7000;0.3419;0.4553;
774.0000;0.3419;0.4480;
774.3000;0.3411;0.4432;
774.6000;0.3386;0.4383;
774.9000;0.3443;0.4529;
775.2000;0.3394;0.4383;
775.5000;0.3484;0.4553;
775.8000;0.3435;0.4359;
776.1000;0.3435;0.4432;
776.4000;0.3394;0.4359;
776.7000;0.3435;0.4432;
777.0000;0.3419;0.4237;
777.3000;0.3411;0.4213;
777.6000;0.3419;0.4213;
777.9000;0.3419;0.4237;
778.2000;0.3411;0.4310;
778.5000;0.3411;0.4261;
778.8000;0.3427;0.4261;
779.1000;0.3419;0.4310;
779.4000;0.3435;0.4334;
779.7000;0.3427;0.4359;
780.0000;0.3419;0.4286;
780.3000;0.3386;0.4140;
780.6000;0.3403;0.4188;
780.9000;0.3435;0.4261;
781.2000;0.3394;0.4237;
781.5000;0.3411;0.4261;
781.8000;0.3411;0.4310;
782.1000;0.3427;0.4432;
782.4000;0.3427;0.4407;
782.7000;0.3411;0.4383;
783.0000;0.3427;0.4359;
783.3000;0.3394;0.4286;
783.6000;0.3403;0.4334;
783.9000;0.3419;0.4286;
784.2000;0.3411;0.4261;
784.5000;0.3435;0.4334;
784.8000;0.3419;0.4334;
785.1000;0.3411;0.4383;
785.4000;0.3443;0.4480;
785.7000;0.3419;0.4334;
786.0000;0.3411;0.4261;
786.3000;0.3403;0.4286;
786.6000;0.3419;0.4237;
786.9000;0.3411;0.4188;
787.2000;0.3354;0.4091;
787.5000;0.3419;0.4310;
787.8000;0.3419;0.4310;
788.1000;0.3394;0.4261;
788.4000;0.3403;0.4334;
788.7000;0.3411;0.4407;
789.0000;0.3435;0.4432;
789.3000;0.3419;0.4480;
789.6000;0.3403;0.4456;
789.9000;0.3427;0.4456;
790.2000;0.3411;0.4383;
790.5000;0.3337;0.4115;
790.8000;0.3411;0.4383;
791.1000;0.3411;0.4359;
791.4000;0.3419;0.4383;
791.7000;0.3419;0.4480;
792.0000;0.3403;0.4480;
792.3000;0.3427;0.4432;
792.6000;0.3419;0.4456;
792.9000;0.3427;0.4456;
793.2000;0.3394;0.4383;
793.5000;0.3411;0.4432;
793.8000;0.3484;0.4627;
794.1000;0.3411;0.4529;
794.4000;0.3411;0.4505;
794.7000;0.3411;0.4383;
795.0000;0.3419;0.4407;
795.3000;0.3435;0.4383;
795.6000;0.3419;0.4407;
795.9000;0.3411;0.4383;
796.2000;0.3403;0.4286;
796.5000;0.3427;0.4310;
796.8000;0.3403;0.4213;
797.1000;0.3419;0.4164;
797.4000;0.3419;0.4237;
797.7000;0.3427;0.4261;
798.0000;0.3476;0.4407;
798.3000;0.3419;0.4237;
798.6000;0.3378;0.4188;
798.9000;0.3411;0.4286;
799.2000;0.3435;0.4432;
799.5000;0.3411;0.4407;
799.8000;0.3419;0.4310;
800.1000;0.3386;0.4310;
800.4000;0.3419;0.4407;
800.7000;0.3403;0.4383;
801.0000;0.3435;0.4334;
801.3000;0.3394;0.4237;
801.6000;0.3443;0.4432;
801.9000;0.3419;0.4359;
802.2000;0.3419;0.4310;
802.5000;0.3394;0.4213;
802.8000;0.3411;0.4237;
803.1000;0.3419;0.4286;
803.4000;0.3394;0.4188;
803.7000;0.3386;0.4310;
804.0000;0.3419;0.4456;
804.3000;0.3419;0.4505;
804.6000;0.3411;0.4505;
804.9000;0.3411;0.4553;
805.2000;0.3411;0.4553;
805.5000;0.3427;0.4627;
805.8000;0.3451;0.4651;
806.1000;0.3403;0.4505;
806.4000;0.3403;0.4505;
806.7000;0.3419;0.4505;
807.0000;0.3411;0.4480;
807.3000;0.3484;0.4675;
807.6000;0.3386;0.4480;
807.9000;0.3419;0.4505;
808.2000;0.3386;0.4334;
808.5000;0.3419;0.4456;
808.8000;0.3411;0.4359;
809.1000;0.3394;0.4188;
809.4000;0.3427;0.4261;
809.7000;0.3386;0.4164;
810.0000;0.3427;0.4237;
810.3000;0.3329;0.4018;
810.6000;0.3419;0.4359;
810.9000;0.3435;0.4432;
811.2000;0.3435;0.4553;
811.5000;0.3411;0.4480;
811.8000;0.3411;0.4505;
812.1000;0.3427;0.4553;
812.4000;0.3403;0.4505;
812.7000;0.3411;0.4480;
813.0000;0.3403;0.4432;
813.3000;0.3411;0.4480;
813.6000;0.3403;0.4480;
813.9000;0.3411;0.4456;
814.2000;0.3419;0.4505;
814.5000;0.3443;0.4578;
814.8000;0.3411;0.4480;
815.1000;0.3411;0.4480;
815.4000;0.3443;0.4529;
815.7000;0.3419;0.4432;
816.0000;0.3411;0.4407;
816.3000;0.3386;0.4383;
816.6000;0.3403;0.4456;
816.9000;0.3419;0.4407;
817.2000;0.3411;0.4383;
817.5000;0.3411;0.4432;
817.8000;0.3419;0.4383;
818.1000;0.3394;0.4286;
818.4000;0.3403;0.4334;
818.7000;0.3427;0.4407;
819.0000;0.3394;0.4310;
819.3000;0.3419;0.4310;
819.6000;0.3451;0.4383;
819.9000;0.3419;0.4261;
820.2000;0.3394;0.4286;
820.5000;0.3411;0.4383;
820.8000;0.3419;0.4359;
821.1000;0.3403;0.4310;
821.4000;0.3427;0.4456;
821.7000;0.3403;0.4383;
822.0000;0.3394;0.4359;
822.3000;0.3403;0.4334;
822.6000;0.3419;0.4334;
822.9000;0.3386;0.4164;
823.2000;0.3403;0.4188;
823.5000;0.3394;0.4164;
823.8000;0.3394;0.4140;
824.1000;0.3451;0.4310;
824.4000;0.3411;0.4383;
824.7000;0.3419;0.4407;
825.0000;0.3403;0.4505;
825.3000;0.3411;0.4480;
825.6000;0.3337;0.4286;
825.9000;0.3411;0.4505;
826.2000;0.3386;0.4480;
826.5000;0.3394;0.4505;
826.8000;0.3419;0.4456;
827.1000;0.3419;0.4407;
827.4000;0.3403;0.4407;
827.7000;0.3435;0.4553;
828.0000;0.3411;0.4529;
828.3000;0.3411;0.4505;
828.6000;0.3451;0.4602;
828.9000;0.3394;0.4505;
829.2000;0.3403;0.4456;
829.5000;0.3403;0.4627;
829.8000;0.3435;0.4651;
830.1000;0.3451;0.4602;
830.4000;0.3427;0.4505;
830.7000;0.3427;0.4432;
831.0000;0.3435;0.4480;
831.3000;0.3427;0.4432;
831.6000;0.3419;0.4407;
831.9000;0.3411;0.4432;
832.2000;0.3419;0.4480;
832.5000;0.3427;0.4480;
832.8000;0.3411;0.4553;
833.1000;0.3419;0.4602;
833.4000;0.3419;0.4627;
833.7000;0.3419;0.4578;
834.0000;0.3419;0.4480;
834.3000;0.3435;0.4480;
834.6000;0.3411;0.4480;
834.9000;0.3427;0.4578;
835.2000;0.3411;0.4529;
835.5000;0.3411;0.4407;
835.8000;0.3403;0.4383;
836.1000;0.3476;0.4578;
836.4000;0.3394;0.4407;
836.7000;0.3411;0.4432;
837.0000;0.3403;0.4529;
837.3000;0.3427;0.4529;
837.6000;0.3427;0.4602;
837.9000;0.3386;0.4505;
838.2000;0.3394;0.4553;
838.5000;0.3419;0.4602;
838.8000;0.3403;0.4505;
839.1000;0.3419;0.4529;
839.4000;0.3411;0.4480;
839.7000;0.3386;0.4432;
840.0000;0.3427;0.4456;
840.3000;0.3411;0.4480;
840.6000;0.3411;0.4505;
840.9000;0.3411;0.4529;
841.2000;0.3403;0.4456;
841.5000;0.3329;0.4188;
841.8000;0.3419;0.4407;
842.1000;0.3411;0.4334;
842.4000;0.3419;0.4359;
842.7000;0.3386;0.4261;
843.0000;0.3427;0.4407;
843.3000;0.3411;0.4456;
843.6000;0.3403;0.4480;
843.9000;0.3419;0.4505;
844.2000;0.3394;0.4334;
844.5000;0.3419;0.4505;
844.8000;0.3427;0.4578;
845.1000;0.3411;0.4602;
845.4000;0.3419;0.4578;
845.7000;0.3394;0.4359;
846.0000;0.3362;0.4164;
846.3000;0.3403;0.4213;
846.6000;0.3443;0.4310;
846.9000;0.3403;0.4164;
847.2000;0.3378;0.4140;
847.5000;0.3427;0.4334;
847.8000;0.3419;0.4310;
848.1000;0.3419;0.4310;
848.4000;0.3394;0.4310;
848.7000;0.3411;0.4334;
849.0000;0.3411;0.4383;
849.3000;0.3411;0.4359;
849.6000;0.3435;0.4407;
849.9000;0.3394;0.4261;
850.2000;0.3394;0.4188;
850.5000;0.3419;0.4310;
850.8000;0.3403;0.4310;
851.1000;0.3411;0.4286;
851.4000;0.3435;0.4310;
851.7000;0.3443;0.4286;
852.0000;0.3411;0.4237;
852.3000;0.3378;0.4091;
852.6000;0.3411;0.4164;
852.9000;0.3427;0.4213;
853.2000;0.3411;0.4140;
853.5000;0.3411;0.4115;
853.8000;0.3378;0.4115;
854.1000;0.3411;0.4213;
854.4000;0.3403;0.4237;
854.7000;0.3411;0.4334;
855.0000;0.3394;0.4261;
855.3000;0.3403;0.4237;
855.6000;0.3378;0.4286;
855.9000;0.3403;0.4383;
856.2000;0.3394;0.4432;
856.5000;0.3403;0.4529;
856.8000;0.3419;0.4480;
857.1000;0.3411;0.4407;
857.4000;0.3394;0.4383;
857.7000;0.3419;0.4407;
858.0000;0.3403;0.4383;
858.3000;0.3403;0.4359;
858.6000;0.3394;0.4383;
858.9000;0.3354;0.4261;
859.2000;0.3403;0.4383;
859.5000;0.3443;0.4432;
859.8000;0.3476;0.4602;
860.1000;0.3394;0.4383;
860.4000;0.3411;0.4432;
860.7000;0.3378;0.4456;
861.0000;0.3329;0.4383;
861.3000;0.3386;0.4578;
861.6000;0.3476;0.4797;
861.9000;0.3394;0.4578;
862.2000;0.3411;0.4578;
862.5000;0.3411;0.4529;
862.8000;0.3419;0.4553;
863.1000;0.3403;0.4480;
863.4000;0.3403;0.4505;
863.7000;0.3500;0.4700;
864.0000;0.3403;0.4383;
864.3000;0.3394;0.4383;
864.6000;0.3403;0.4359;
864.9000;0.3394;0.4359;
865.2000;0.3427;0.4359;
865.5000;0.3419;0.4383;
865.8000;0.3411;0.4383;
866.1000;0.3411;0.4383;
866.4000;0.3419;0.4456;
866.7000;0.3443;0.4578;
867.0000;0.3394;0.4432;
867.3000;0.3411;0.4480;
867.6000;0.3460;0.4553;
867.9000;0.3411;0.4383;
868.2000;0.3427;0.4480;
868.5000;0.3403;0.4456;
868.8000;0.3403;0.4456;
869.1000;0.3403;0.4480;
869.4000;0.3411;0.4602;
869.7000;0.3411;0.4651;
870.0000;0.3427;0.4627;
870.3000;0.3419;0.4627;
870.6000;0.3443;0.4700;
870.9000;0.3411;0.4553;
871.2000;0.3411;0.4651;
871.5000;0.3394;0.4578;
871.8000;0.3427;0.4505;
872.1000;0.3411;0.4480;
872.4000;0.3394;0.4553;
872.7000;0.3394;0.4578;
873.0000;0.3411;0.4627;
873.3000;0.3411;0.4627;
873.6000;0.3403;0.4602;
873.9000;0.3394;0.4602;
874.2000;0.3394;0.4627;
874.5000;0.3403;0.4529;
874.8000;0.3403;0.4602;
875.1000;0.3386;0.4553;
875.4000;0.3403;0.4578;
875.7000;0.3411;0.4700;
876.0000;0.3403;0.4602;
876.3000;0.3419;0.4553;
876.6000;0.3386;0.4505;
876.9000;0.3435;0.4553;
877.2000;0.3435;0.4578;
877.5000;0.3403;0.4529;
877.8000;0.3403;0.4529;
878.1000;0.3435;0.4578;
878.4000;0.3403;0.4529;
878.7000;0.3403;0.4602;
879.0000;0.3411;0.4553;
879.3000;0.3419;0.4602;
879.6000;0.3411;0.4529;
879.9000;0.3411;0.4505;
880.2000;0.3394;0.4456;
880.5000;0.3394;0.4456;
880.8000;0.3419;0.4578;
881.1000;0.3484;0.4821;
881.4000;0.3394;0.4651;
881.7000;0.3419;0.4700;
882.0000;0.3427;0.4748;
882.3000;0.3460;0.4797;
882.6000;0.3403;0.4651;
882.9000;0.3386;0.4578;
883.2000;0.3419;0.4553;
883.5000;0.3370;0.4432;
883.8000;0.3403;0.4505;
884.1000;0.3411;0.4529;
884.4000;0.3313;0.4188;
884.7000;0.3386;0.4456;
885.0000;0.3394;0.4432;
885.3000;0.3370;0.4383;
885.6000;0.3378;0.4310;
885.9000;0.3403;0.4432;
886.2000;0.3394;0.4456;
886.5000;0.3411;0.4505;
886.8000;0.3394;0.4505;
887.1000;0.3419;0.4456;
887.4000;0.3386;0.4432;
887.7000;0.3386;0.4480;
888.0000;0.3394;0.4480;
888.3000;0.3386;0.4432;
888.6000;0.3403;0.4553;
888.9000;0.3394;0.4529;
889.2000;0.3394;0.4553;
889.5000;0.3394;0.4627;
889.8000;0.3394;0.4602;
890.1000;0.3411;0.4578;
890.4000;0.3411;0.4578;
890.7000;0.3403;0.4578;
891.0000;0.3403;0.4529;
891.3000;0.3386;0.4480;
891.6000;0.3403;0.4529;
891.9000;0.3411;0.4480;
892.2000;0.3394;0.4407;
892.5000;0.3370;0.4407;
892.8000;0.3386;0.4407;
893.1000;0.3403;0.4480;
893.4000;0.3386;0.4480;
893.7000;0.3419;0.4359;
894.0000;0.3386;0.4261;
894.3000;0.3378;0.4261;
894.6000;0.3386;0.4237;
894.9000;0.3370;0.4213;
895.2000;0.3386;0.4334;
895.5000;0.3386;0.4407;
895.8000;0.3394;0.4407;
896.1000;0.3411;0.4456;
896.4000;0.3378;0.4407;
896.7000;0.3386;0.4432;
897.0000;0.3476;0.4675;
897.3000;0.3411;0.4456;
897.6000;0.3394;0.4480;
897.9000;0.3403;0.4578;
898.2000;0.3394;0.4578;
898.5000;0.3411;0.4602;
898.8000;0.3403;0.4553;
899.1000;0.3403;0.4456;
899.4000;0.3451;0.4602;
899.7000;0.3386;0.4383;
900.0000;0.3411;0.4456;
900.3000;0.3321;0.4188;
900.6000;0.3403;0.4432;
900.9000;0.3411;0.4407;
901.2000;0.3460;0.4651;
901.5000;0.3500;0.4773;
901.8000;0.3386;0.4627;
902.1000;0.3419;0.4748;
902.4000;0.3386;0.4700;
902.7000;0.3378;0.4651;
903.0000;0.3411;0.4651;
903.3000;0.3460;0.4700;
903.6000;0.3394;0.4553;
903.9000;0.3403;0.4602;
904.2000;0.3419;0.4627;
904.5000;0.3411;0.4505;
904.8000;0.3492;0.4724;
905.1000;0.3419;0.4529;
905.4000;0.3419;0.4480;
905.7000;0.3394;0.4456;
906.0000;0.3403;0.4456;
906.3000;0.3403;0.4456;
906.6000;0.3394;0.4432;
906.9000;0.3394;0.4432;
907.2000;0.3403;0.4456;
907.5000;0.3411;0.4432;
907.8000;0.3386;0.4383;
908.1000;0.3403;0.4359;
908.4000;0.3386;0.4237;
908.7000;0.3403;0.4310;
909.0000;0.3394;0.4310;
909.3000;0.3403;0.4383;
909.6000;0.3394;0.4432;
909.9000;0.3378;0.4383;
910.2000;0.3386;0.4407;
910.5000;0.3386;0.4432;
910.8000;0.3370;0.4407;
911.1000;0.3394;0.4432;
911.4000;0.3411;0.4383;
911.7000;0.3427;0.4432;
912.0000;0.3394;0.4359;
912.3000;0.3411;0.4432;
912.6000;0.3427;0.4553;
912.9000;0.3427;0.4529;
913.2000;0.3403;0.4432;
913.5000;0.3370;0.4383;
913.8000;0.3403;0.4432;
914.1000;0.3411;0.4407;
914.4000;0.3403;0.4383;
914.7000;0.3394;0.4383;
915.0000;0.3403;0.4286;
915.3000;0.3403;0.4334;
915.6000;0.3394;0.4286;
915.9000;0.3411;0.4310;
916.2000;0.3411;0.4310;
916.5000;0.3419;0.4407;
916.8000;0.3403;0.4432;
917.1000;0.3403;0.4407;
917.4000;0.3346;0.4334;
917.7000;0.3394;0.4529;
918.0000;0.3394;0.4602;
918.3000;0.3419;0.4651;
918.6000;0.3378;0.4602;
918.9000;0.3403;0.4675;
919.2000;0.3403;0.4675;
919.5000;0.3403;0.4553;
919.8000;0.3403;0.4529;
920.1000;0.3403;0.4505;
920.4000;0.3337;0.4407;
920.7000;0.3394;0.4432;
921.0000;0.3394;0.4407;
921.3000;0.3386;0.4456;
921.6000;0.3403;0.4480;
921.9000;0.3403;0.4432;
922.2000;0.3386;0.4505;
922.5000;0.3394;0.4602;
922.8000;0.3394;0.4578;
923.1000;0.3411;0.4602;
923.4000;0.3411;0.4602;
923.7000;0.3386;0.4505;
924.0000;0.3394;0.4505;
924.3000;0.3460;0.4675;
924.6000;0.3394;0.4578;
924.9000;0.3403;0.4505;
925.2000;0.3435;0.4553;
925.5000;0.3394;0.4407;
925.8000;0.3403;0.4383;
926.1000;0.3386;0.4310;
926.4000;0.3419;0.4334;
926.7000;0.3411;0.4432;
927.0000;0.3403;0.4383;
927.3000;0.3386;0.4359;
927.6000;0.3419;0.4407;
927.9000;0.3411;0.4480;
928.2000;0.3386;0.4456;
928.5000;0.3403;0.4480;
928.8000;0.3403;0.4480;
929.1000;0.3419;0.4529;
929.4000;0.3419;0.4553;
929.7000;0.3419;0.4602;
930.0000;0.3403;0.4529;
930.3000;0.3411;0.4480;
930.6000;0.3492;0.4773;
930.9000;0.3411;0.4505;
931.2000;0.3411;0.4505;
931.5000;0.3419;0.4480;
931.8000;0.3394;0.4529;
932.1000;0.3411;0.4553;
932.4000;0.3492;0.4748;
932.7000;0.3419;0.4505;
933.0000;0.3411;0.4505;
933.3000;0.3435;0.4553;
933.6000;0.3403;0.4432;
933.9000;0.3386;0.4383;
934.2000;0.3403;0.4456;
934.5000;0.3386;0.4407;
934.8000;0.3403;0.4407;
935.1000;0.3403;0.4432;
935.4000;0.3403;0.4456;
935.7000;0.3386;0.4407;
936.0000;0.3403;0.4456;
936.3000;0.3403;0.4480;
936.6000;0.3435;0.4602;
936.9000;0.3411;0.4505;
937.2000;0.3411;0.4432;
937.5000;0.3419;0.4407;
937.8000;0.3394;0.4407;
938.1000;0.3411;0.4407;
938.4000;0.3411;0.4480;
938.7000;0.3394;0.4456;
939.0000;0.3378;0.4407;
939.3000;0.3386;0.4359;
939.6000;0.3370;0.4383;
939.9000;0.3394;0.4407;
940.2000;0.3362;0.4383;
940.5000;0.3394;0.4456;
940.8000;0.3321;0.4261;
941.1000;0.3403;0.4456;
941.4000;0.3378;0.4480;
941.7000;0.3378;0.4505;
942.0000;0.3403;0.4651;
942.3000;0.3362;0.4578;
942.6000;0.3386;0.4651;
942.9000;0.3394;0.4553;
943.2000;0.3370;0.4529;
943.5000;0.3394;0.4529;
943.8000;0.3394;0.4675;
944.1000;0.3386;0.4724;
944.4000;0.3443;0.4846;
944.7000;0.3394;0.4773;
945.0000;0.3386;0.4797;
945.3000;0.3386;0.4724;
945.6000;0.3411;0.4748;
945.9000;0.3403;0.4773;
946.2000;0.3403;0.4773;
946.5000;0.3403;0.4724;
946.8000;0.3411;0.4675;
947.1000;0.3403;0.4602;
947.4000;0.3386;0.4675;
947.7000;0.3378;0.4675;
948.0000;0.3403;0.4675;
948.3000;0.3403;0.4675;
948.6000;0.3394;0.4627;
948.9000;0.3394;0.4651;
949.2000;0.3378;0.4602;
949.5000;0.3394;0.4602;
949.8000;0.3386;0.4505;
950.1000;0.3386;0.4505;
950.4000;0.3378;0.4505;
950.7000;0.3403;0.4529;
951.0000;0.3386;0.4480;
951.3000;0.3394;0.4456;
951.6000;0.3386;0.4432;
951.9000;0.3403;0.4407;
952.2000;0.3419;0.4456;
952.5000;0.3403;0.4480;
952.8000;0.3427;0.4553;
953.1000;0.3419;0.4529;
953.4000;0.3427;0.4529;
953.7000;0.3419;0.4553;
954.0000;0.3386;0.4480;
954.3000;0.3378;0.4529;
954.6000;0.3386;0.4505;
954.9000;0.3386;0.4602;
955.2000;0.3386;0.4578;
955.5000;0.3386;0.4505;
955.8000;0.3411;0.4505;
956.1000;0.3419;0.4627;
956.4000;0.3394;0.4627;
956.7000;0.3386;0.4675;
957.0000;0.3411;0.4724;
957.3000;0.3419;0.4651;
957.6000;0.3370;0.4480;
957.9000;0.3403;0.4578;
958.2000;0.3419;0.4529;
958.5000;0.3403;0.4480;
958.8000;0.3403;0.4432;
959.1000;0.3427;0.4529;
959.4000;0.3386;0.4359;
959.7000;0.3403;0.4359;
960.0000;0.3386;0.4261;
960.3000;0.3394;0.4213;
960.6000;0.3492;0.4505;
960.9000;0.3403;0.4286;
961.2000;0.3394;0.4334;
961.5000;0.3394;0.4383;
961.8000;0.3435;0.4456;
962.1000;0.3403;0.4310;
962.4000;0.3435;0.4213;
962.7000;0.3451;0.4286;
963.0000;0.3362;0.4091;
963.3000;0.3378;0.4237;
963.6000;0.3403;0.4310;
963.9000;0.3394;0.4261;
964.2000;0.3321;0.4188;
964.5000;0.3386;0.4359;
964.8000;0.3394;0.4480;
965.1000;0.3394;0.4456;
965.4000;0.3394;0.4480;
965.7000;0.3394;0.4432;
966.0000;0.3403;0.4334;
966.3000;0.3427;0.4359;
966.6000;0.3378;0.4359;
966.9000;0.3386;0.4359;
967.2000;0.3460;0.4553;
967.5000;0.3394;0.4432;
967.8000;0.3394;0.4456;
968.1000;0.3394;0.4480;
968.4000;0.3354;0.4334;
968.7000;0.3411;0.4480;
969.0000;0.3394;0.4432;
969.3000;0.3362;0.4407;
969.6000;0.3394;0.4505;
969.9000;0.3370;0.4383;
970.2000;0.3394;0.4359;
970.5000;0.3394;0.4286;
970.8000;0.3403;0.4310;
971.1000;0.3411;0.4310;
971.4000;0.3484;0.4505;
971.7000;0.3403;0.4261;
972.0000;0.3411;0.4213;
972.3000;0.3419;0.4213;
972.6000;0.3419;0.4310;
972.9000;0.3411;0.4359;
973.2000;0.3419;0.4359;
973.5000;0.3411;0.4359;
973.8000;0.3419;0.4334;
974.1000;0.3386;0.4407;
974.4000;0.3394;0.4480;
974.7000;0.3403;0.4407;
975.0000;0.3394;0.4456;
975.3000;0.3378;0.4505;
975.6000;0.3419;0.4505;
975.9000;0.3403;0.4432;
976.2000;0.3394;0.4432;
976.5000;0.3394;0.4310;
976.8000;0.3394;0.4334;
977.1000;0.3378;0.4359;
977.4000;0.3403;0.4407;
977.7000;0.3411;0.4432;
978.0000;0.3386;0.4432;
978.3000;0.3394;0.4456;
978.6000;0.3394;0.4407;
978.9000;0.3378;0.4334;
979.2000;0.3386;0.4286;
979.5000;0.3386;0.4237;
979.8000;0.3362;0.4164;
980.1000;0.3394;0.4310;
980.4000;0.3394;0.4261;
980.7000;0.3378;0.4261;
981.0000;0.3386;0.4310;
981.3000;0.3403;0.4261;
981.6000;0.3411;0.4359;
981.9000;0.3394;0.4310;
982.2000;0.3394;0.4310;
982.5000;0.3427;0.4456;
982.8000;0.3386;0.4213;
983.1000;0.3411;0.4334;
983.4000;0.3403;0.4261;
983.7000;0.3419;0.4286;
984.0000;0.3411;0.4407;
984.3000;0.3403;0.4407;
984.6000;0.3403;0.4383;
984.9000;0.3411;0.4529;
985.2000;0.3403;0.4529;
985.5000;0.3403;0.4529;
985.8000;0.3386;0.4505;
986.1000;0.3419;0.4480;
986.4000;0.3394;0.4383;
986.7000;0.3427;0.4529;
987.0000;0.3411;0.4505;
987.3000;0.3362;0.4456;
987.6000;0.3427;0.4578;
987.9000;0.3419;0.4505;
988.2000;0.3411;0.4480;
988.5000;0.3386;0.4456;
988.8000;0.3386;0.4334;
989.1000;0.3403;0.4359;
989.4000;0.3419;0.4310;
989.7000;0.3443;0.4334;
990.0000;0.3386;0.4237;
990.3000;0.3394;0.4237;
990.6000;0.3386;0.4237;
990.9000;0.3386;0.4286;
991.2000;0.3394;0.4359;
991.5000;0.3321;0.4115;
991.8000;0.3403;0.4310;
992.1000;0.3386;0.4261;
992.4000;0.3403;0.4213;
992.7000;0.3468;0.4261;
993.0000;0.3411;0.4188;
993.3000;0.3435;0.4310;
993.6000;0.3394;0.4237;
993.9000;0.3394;0.4213;
994.2000;0.3394;0.4286;
994.5000;0.3403;0.4383;
994.8000;0.3427;0.4480;
995.1000;0.3403;0.4310;
995.4000;0.3394;0.4334;
995.7000;0.3411;0.4359;
996.0000;0.3378;0.4359;
996.3000;0.3419;0.4359;
996.6000;0.3443;0.4480;
996.9000;0.3337;0.4261;
997.2000;0.3346;0.4310;
997.5000;0.3386;0.4407;
997.8000;0.3411;0.4432;
998.1000;0.3337;0.4310;
998.4000;0.3394;0.4480;
998.7000;0.3370;0.4407;
999.0000;0.3403;0.4432;
999.3000;0.3435;0.4505;
999.6000;0.3411;0.4456;
999.9000;0.3394;0.4383;
1000.2000;0.3403;0.4432;
1000.5000;0.3394;0.4407;
1000.8000;0.3378;0.4505;
1001.1000;0.3451;0.4627;
1001.4000;0.3386;0.4407;
1001.7000;0.3394;0.4407;
1002.0000;0.3411;0.4505;
1002.3000;0.3386;0.4553;
1002.6000;0.3386;0.4480;
1002.9000;0.3403;0.4432;
1003.2000;0.3411;0.4432;
1003.5000;0.3403;0.4456;
1003.8000;0.3411;0.4529;
1004.1000;0.3403;0.4505;
1004.4000;0.3403;0.4529;
1004.7000;0.3394;0.4480;
1005.0000;0.3394;0.4456;
1005.3000;0.3411;0.4407;
1005.6000;0.3411;0.4505;
1005.9000;0.3403;0.4432;
1006.2000;0.3386;0.4383;
1006.5000;0.3370;0.4456;
1006.8000;0.3378;0.4505;
1007.1000;0.3435;0.4627;
1007.4000;0.3394;0.4529;
1007.7000;0.3460;0.4675;
1008.0000;0.3378;0.4480;
1008.3000;0.3394;0.4480;
1008.6000;0.3386;0.4456;
1008.9000;0.3394;0.4456;
1009.2000;0.3468;0.4773;
1009.5000;0.3386;0.4627;
1009.8000;0.3443;0.4700;
1010.1000;0.3427;0.4529;
1010.4000;0.3378;0.4432;
1010.7000;0.3419;0.4505;
1011.0000;0.3378;0.4383;
1011.3000;0.3386;0.4432;
1011.6000;0.3386;0.4407;
1011.9000;0.3394;0.4407;
1012.2000;0.3427;0.4529;
1012.5000;0.3403;0.4432;
1012.8000;0.3313;0.4213;
1013.1000;0.3411;0.4432;
1013.4000;0.3403;0.4383;
1013.7000;0.3394;0.4407;
1014.0000;0.3394;0.4432;
1014.3000;0.3370;0.4359;
1014.6000;0.3386;0.4383;
1014.9000;0.3386;0.4383;
1015.2000;0.3378;0.4286;
1015.5000;0.3403;0.4286;
1015.8000;0.3386;0.4261;
1016.1000;0.3386;0.4359;
1016.4000;0.3427;0.4407;
1016.7000;0.3403;0.4383;
1017.0000;0.3419;0.4432;
1017.3000;0.3394;0.4359;
1017.6000;0.3411;0.4407;
1017.9000;0.3419;0.4529;
1018.2000;0.3403;0.4553;
1018.5000;0.3403;0.4553;
1018.8000;0.3354;0.4383;
1019.1000;0.3403;0.4505;
1019.4000;0.3403;0.4505;
1019.7000;0.3378;0.4456;
1020.0000;0.3403;0.4456;
1020.3000;0.3403;0.4480;
1020.6000;0.3394;0.4505;
1020.9000;0.3411;0.4553;
1021.2000;0.3411;0.4627;
1021.5000;0.3394;0.4602;
1021.8000;0.3394;0.4553;
1022.1000;0.3321;0.4383;
1022.4000;0.3403;0.4529;
1022.7000;0.3394;0.4432;
1023.0000;0.3394;0.4407;
1023.3000;0.3476;0.4602;
1023.6000;0.3386;0.4407;
1023.9000;0.3394;0.4456;
1024.2000;0.3370;0.4456;
1024.5000;0.3403;0.4553;
1024.8000;0.3403;0.4553;
1025.1000;0.3403;0.4553;
1025.4000;0.3386;0.4627;
1025.7000;0.3403;0.4700;
1026.0000;0.3394;0.4700;
1026.3000;0.3403;0.4651;
1026.6000;0.3394;0.4602;
1026.9000;0.3386;0.4529;
1027.2000;0.3411;0.4553;
1027.5000;0.3386;0.4456;
1027.8000;0.3403;0.4480;
1028.1000;0.3403;0.4456;
1028.4000;0.3419;0.4432;
1028.7000;0.3411;0.4456;
1029.0000;0.3411;0.4553;
1029.3000;0.3378;0.4432;
1029.6000;0.3386;0.4553;
1029.9000;0.3394;0.4675;
1030.2000;0.3403;0.4700;
1030.5000;0.3394;0.4700;
1030.8000;0.3378;0.4724;
1031.1000;0.3435;0.4894;
1031.4000;0.3386;0.4675;
1031.7000;0.3394;0.4675;
1032.0000;0.3403;0.4651;
1032.3000;0.3403;0.4700;
1032.6000;0.3394;0.4675;
1032.9000;0.3394;0.4627;
1033.2000;0.3378;0.4651;
1033.5000;0.3378;0.4578;
1033.8000;0.3427;0.4602;
1034.1000;0.3403;0.4553;
1034.4000;0.3386;0.4578;
1034.7000;0.3378;0.4578;
1035.0000;0.3476;0.4773;
1035.3000;0.3394;0.4456;
1035.6000;0.3370;0.4480;
1035.9000;0.3394;0.4505;
1036.2000;0.3354;0.4480;
1036.5000;0.3378;0.4602;
1036.8000;0.3370;0.4505;
1037.1000;0.3378;0.4480;
1037.4000;0.3394;0.4553;
1037.7000;0.3411;0.4602;
1038.0000;0.3378;0.4456;
1038.3000;0.3500;0.4627;
1038.6000;0.3403;0.4407;
1038.9000;0.3403;0.4480;
1039.2000;0.3451;0.4627;
1039.5000;0.3378;0.4480;
1039.8000;0.3394;0.4529;
1040.1000;0.3386;0.4505;
1040.4000;0.3386;0.4529;
1040.7000;0.3386;0.4553;
1041.0000;0.3378;0.4480;
1041.3000;0.3394;0.4432;
1041.6000;0.3394;0.4480;
1041.9000;0.3370;0.4359;
1042.2000;0.3386;0.4310;
1042.5000;0.3386;0.4261;
1042.8000;0.3419;0.4310;
1043.1000;0.3403;0.4310;
1043.4000;0.3394;0.4261;
1043.7000;0.3411;0.4383;
1044.0000;0.3411;0.4383;
1044.3000;0.3386;0.4383;
1044.6000;0.3394;0.4432;
1044.9000;0.3394;0.4407;
1045.2000;0.3411;0.4456;
1045.5000;0.3386;0.4407;
1045.8000;0.3394;0.4334;
1046.1000;0.3386;0.4286;
1046.4000;0.3394;0.4432;
1046.7000;0.3386;0.4480;
1047.0000;0.3386;0.4553;
1047.3000;0.3394;0.4578;
1047.6000;0.3403;0.4505;
1047.9000;0.3403;0.4383;
1048.2000;0.3403;0.4310;
1048.5000;0.3394;0.4237;
1048.8000;0.3419;0.4286;
1049.1000;0.3411;0.4310;
1049.4000;0.3411;0.4286;
1049.7000;0.3419;0.4237;
1050.0000;0.3411;0.4188;
1050.3000;0.3394;0.4237;
1050.6000;0.3403;0.4286;
1050.9000;0.3386;0.4334;
1051.2000;0.3386;0.4286;
1051.5000;0.3394;0.4310;
1051.8000;0.3378;0.4164;
1052.1000;0.3362;0.4213;
1052.4000;0.3394;0.4359;
1052.7000;0.3427;0.4505;
1053.0000;0.3378;0.4383;
1053.3000;0.3394;0.4359;
1053.6000;0.3362;0.4188;
1053.9000;0.3378;0.4286;
1054.2000;0.3329;0.4115;
1054.5000;0.3386;0.4286;
1054.8000;0.3394;0.4286;
1055.1000;0.3411;0.4359;
1055.4000;0.3394;0.4261;
1055.7000;0.3362;0.4188;
1056.0000;0.3378;0.4261;
1056.3000;0.3394;0.4432;
1056.6000;0.3394;0.4480;
1056.9000;0.3419;0.4602;
1057.2000;0.3337;0.4359;
1057.5000;0.3427;0.4651;
1057.8000;0.3394;0.4553;
1058.1000;0.3403;0.4651;
1058.4000;0.3411;0.4651;
1058.7000;0.3403;0.4602;
1059.0000;0.3411;0.4675;
1059.3000;0.3427;0.4651;
1059.6000;0.3386;0.4578;
1059.9000;0.3411;0.4578;
1060.2000;0.3394;0.4456;
1060.5000;0.3427;0.4456;
1060.8000;0.3403;0.4456;
1061.1000;0.3394;0.4505;
1061.4000;0.3403;0.4578;
1061.7000;0.3411;0.4627;
1062.0000;0.3394;0.4578;
1062.3000;0.3386;0.4602;
1062.6000;0.3411;0.4627;
1062.9000;0.3411;0.4700;
1063.2000;0.3411;0.4724;
1063.5000;0.3337;0.4578;
1063.8000;0.3378;0.4651;
1064.1000;0.3411;0.4602;
1064.4000;0.3419;0.4627;
1064.7000;0.3394;0.4773;
1065.0000;0.3484;0.4870;
1065.3000;0.3419;0.4675;
1065.6000;0.3394;0.4602;
1065.9000;0.3394;0.4627;
1066.2000;0.3403;0.4553;
1066.5000;0.3394;0.4432;
1066.8000;0.3386;0.4480;
1067.1000;0.3370;0.4553;
1067.4000;0.3378;0.4627;
1067.7000;0.3443;0.4821;
1068.0000;0.3394;0.4773;
1068.3000;0.3411;0.4797;
1068.6000;0.3346;0.4675;
1068.9000;0.3386;0.4846;
1069.2000;0.3394;0.4870;
1069.5000;0.3394;0.4870;
1069.8000;0.3378;0.4748;
1070.1000;0.3411;0.4724;
1070.4000;0.3403;0.4748;
1070.7000;0.3378;0.4700;
1071.0000;0.3394;0.4724;
1071.3000;0.3394;0.4675;
1071.6000;0.3346;0.4529;
1071.9000;0.3394;0.4700;
1072.2000;0.3394;0.4724;
1072.5000;0.3394;0.4748;
1072.8000;0.3305;0.4432;
1073.1000;0.3378;0.4578;
1073.4000;0.3427;0.4651;
1073.7000;0.3370;0.4505;
1074.0000;0.3419;0.4602;
1074.3000;0.3411;0.4529;
1074.6000;0.3394;0.4456;
1074.9000;0.3386;0.4432;
1075.2000;0.3386;0.4407;
1075.5000;0.3354;0.4407;
1075.8000;0.3394;0.4407;
1076.1000;0.3435;0.4456;
1076.4000;0.3394;0.4383;
1076.7000;0.3346;0.4237;
1077.0000;0.3386;0.4286;
1077.3000;0.3394;0.4383;
1077.6000;0.3386;0.4407;
1077.9000;0.3419;0.4602;
1078.2000;0.3403;0.4480;
1078.5000;0.3394;0.4456;
1078.8000;0.3346;0.4334;
1079.1000;0.3386;0.4480;
1079.4000;0.3403;0.4480;
1079.7000;0.3403;0.4553;
1080.0000;0.3443;0.4529;
1080.3000;0.3394;0.4456;
1080.6000;0.3403;0.4578;
1080.9000;0.3386;0.4578;
1081.2000;0.3419;0.4651;
1081.5000;0.3403;0.4505;
1081.8000;0.3386;0.4407;
1082.1000;0.3386;0.4383;
1082.4000;0.3378;0.4432;
1082.7000;0.3329;0.4334;
1083.0000;0.3386;0.4407;
1083.3000;0.3443;0.4627;
1083.6000;0.3386;0.4553;
1083.9000;0.3403;0.4553;
1084.2000;0.3386;0.4529;
1084.5000;0.3427;0.4602;
1084.8000;0.3362;0.4432;
1085.1000;0.3386;0.4407;
1085.4000;0.3386;0.4480;
1085.7000;0.3394;0.4505;
1086.0000;0.3394;0.4407;
1086.3000;0.3394;0.4359;
1086.6000;0.3394;0.4383;
1086.9000;0.3435;0.4505;
1087.2000;0.3403;0.4383;
1087.5000;0.3370;0.4334;
1087.8000;0.3329;0.4261;
1088.1000;0.3386;0.4480;
1088.4000;0.3394;0.4456;
1088.7000;0.3394;0.4505;
1089.0000;0.3386;0.4553;
1089.3000;0.3411;0.4553;
1089.6000;0.3403;0.4602;
1089.9000;0.3394;0.4602;
1090.2000;0.3386;0.4627;
1090.5000;0.3386;0.4578;
1090.8000;0.3386;0.4675;
1091.1000;0.3394;0.4724;
1091.4000;0.3362;0.4675;
1091.7000;0.3378;0.4675;
1092.0000;0.3403;0.4602;
1092.3000;0.3394;0.4578;
1092.6000;0.3354;0.4505;
1092.9000;0.3354;0.4480;
1093.2000;0.3403;0.4553;
1093.5000;0.3394;0.4505;
1093.8000;0.3394;0.4480;
1094.1000;0.3394;0.4553;
1094.4000;0.3435;0.4627;
1094.7000;0.3394;0.4432;
1095.0000;0.3394;0.4456;
1095.3000;0.3394;0.4505;
1095.6000;0.3370;0.4529;
1095.9000;0.3386;0.4675;
1096.2000;0.3403;0.4846;
1096.5000;0.3362;0.4700;
1096.8000;0.3386;0.4651;
1097.1000;0.3386;0.4578;
1097.4000;0.3362;0.4432;
1097.7000;0.3378;0.4529;
1098.0000;0.3370;0.4505;
1098.3000;0.3403;0.4578;
1098.6000;0.3386;0.4627;
1098.9000;0.3411;0.4627;
1099.2000;0.3403;0.4578;
1099.5000;0.3362;0.4578;
1099.8000;0.3394;0.4627;
1100.1000;0.3419;0.4700;
1100.4000;0.3378;0.4505;
1100.7000;0.3419;0.4480;
1101.0000;0.3403;0.4432;
1101.3000;0.3411;0.4432;
1101.6000;0.3378;0.4359;
1101.9000;0.3394;0.4480;
1102.2000;0.3394;0.4505;
1102.5000;0.3419;0.4432;
1102.8000;0.3411;0.4432;
1103.1000;0.3394;0.4432;
1103.4000;0.3378;0.4456;
1103.7000;0.3403;0.4480;
1104.0000;0.3346;0.4286;
1104.3000;0.3362;0.4432;
1104.6000;0.3386;0.4456;
1104.9000;0.3370;0.4456;
1105.2000;0.3386;0.4480;
1105.5000;0.3386;0.4553;
1105.8000;0.3370;0.4627;
1106.1000;0.3394;0.4553;
1106.4000;0.3386;0.4505;
1106.7000;0.3394;0.4480;
1107.0000;0.3411;0.4578;
1107.3000;0.3370;0.4480;
1107.6000;0.3386;0.4553;
1107.9000;0.3378;0.4480;
1108.2000;0.3386;0.4578;
1108.5000;0.3394;0.4651;
1108.8000;0.3411;0.4651;
1109.1000;0.3394;0.4553;
1109.4000;0.3403;0.4553;
1109.7000;0.3386;0.4529;
1110.0000;0.3378;0.4553;
1110.3000;0.3394;0.4627;
1110.6000;0.3378;0.4529;
1110.9000;0.3386;0.4553;
1111.2000;0.3411;0.4578;
1111.5000;0.3403;0.4602;
1111.8000;0.3386;0.4602;
1112.1000;0.3403;0.4748;
1112.4000;0.3411;0.4627;
1112.7000;0.3394;0.4627;
1113.0000;0.3386;0.4675;
1113.3000;0.3362;0.4553;
1113.6000;0.3394;0.4651;
1113.9000;0.3403;0.4773;
1114.2000;0.3403;0.4797;
1114.5000;0.3394;0.4797;
1114.8000;0.3378;0.4700;
1115.1000;0.3386;0.4675;
1115.4000;0.3394;0.4700;
1115.7000;0.3386;0.4627;
1116.0000;0.3403;0.4602;
1116.3000;0.3394;0.4553;
1116.6000;0.3403;0.4529;
1116.9000;0.3394;0.4529;
1117.2000;0.3394;0.4529;
1117.5000;0.3378;0.4480;
1117.8000;0.3403;0.4627;
1118.1000;0.3460;0.4821;
1118.4000;0.3370;0.4700;
1118.7000;0.3411;0.4797;
1119.0000;0.3394;0.4724;
1119.3000;0.3386;0.4627;
1119.6000;0.3386;0.4480;
1119.9000;0.3403;0.4456;
1120.2000;0.3386;0.4432;
1120.5000;0.3386;0.4602;
1120.8000;0.3394;0.4602;
1121.1000;0.3394;0.4529;
1121.4000;0.3419;0.4651;
1121.7000;0.3370;0.4578;
1122.0000;0.3362;0.4529;
1122.3000;0.3394;0.4602;
1122.6000;0.3394;0.4627;
1122.9000;0.3411;0.4553;
1123.2000;0.3403;0.4480;
1123.5000;0.3411;0.4553;
1123.8000;0.3378;0.4529;
1124.1000;0.3411;0.4578;
1124.4000;0.3394;0.4529;
1124.7000;0.3394;0.4456;
1125.0000;0.3419;0.4480;
1125.3000;0.3411;0.4432;
1125.6000;0.3378;0.4383;
1125.9000;0.3386;0.4480;
1126.2000;0.3394;0.4529;
1126.5000;0.3403;0.4578;
1126.8000;0.3378;0.4529;
1127.1000;0.3394;0.4553;
1127.4000;0.3370;0.4578;
1127.7000;0.3394;0.4627;
1128.0000;0.3394;0.4553;
1128.3000;0.3403;0.4602;
1128.6000;0.3386;0.4529;
1128.9000;0.3403;0.4724;
1129.2000;0.3386;0.4724;
1129.5000;0.3362;0.4578;
1129.8000;0.3378;0.4602;
1130.1000;0.3394;0.4553;
1130.4000;0.3354;0.4407;
1130.7000;0.3403;0.4456;
1131.0000;0.3362;0.4383;
1131.3000;0.3386;0.4480;
1131.6000;0.3386;0.4505;
1131.9000;0.3411;0.4505;
1132.2000;0.3378;0.4505;
1132.5000;0.3346;0.4480;
1132.8000;0.3386;0.4578;
1133.1000;0.3394;0.4505;
1133.4000;0.3386;0.4505;
1133.7000;0.3378;0.4553;
1134.0000;0.3386;0.4578;
1134.3000;0.3370;0.4505;
1134.6000;0.3386;0.4529;
1134.9000;0.3419;0.4578;
1135.2000;0.3386;0.4529;
1135.5000;0.3411;0.4578;
1135.8000;0.3411;0.4578;
1136.1000;0.3403;0.4578;
1136.4000;0.3411;0.4578;
1136.7000;0.3394;0.4553;
1137.0000;0.3394;0.4529;
1137.3000;0.3443;0.4700;
1137.6000;0.3386;0.4529;
1137.9000;0.3394;0.4651;
1138.2000;0.3403;0.4553;
1138.5000;0.3403;0.4480;
1138.8000;0.3386;0.4456;
1139.1000;0.3370;0.4529;
1139.4000;0.3411;0.4578;
1139.7000;0.3386;0.4529;
1140.0000;0.3403;0.4480;
1140.3000;0.3386;0.4383;
1140.6000;0.3403;0.4359;
1140.9000;0.3394;0.4383;
1141.2000;0.3403;0.4432;
1141.5000;0.3378;0.4456;
1141.8000;0.3394;0.4432;
1142.1000;0.3386;0.4480;
1142.4000;0.3386;0.4456;
1142.7000;0.3378;0.4407;
1143.0000;0.3403;0.4383;
1143.3000;0.3460;0.4529;
1143.6000;0.3370;0.4359;
1143.9000;0.3378;0.4359;
1144.2000;0.3403;0.4432;
1144.5000;0.3394;0.4456;
1144.8000;0.3403;0.4432;
1145.1000;0.3394;0.4383;
1145.4000;0.3386;0.4359;
1145.7000;0.3378;0.4310;
1146.0000;0.3394;0.4310;
1146.3000;0.3394;0.4286;
1146.6000;0.3386;0.4261;
1146.9000;0.3403;0.4359;
1147.2000;0.3378;0.4334;
1147.5000;0.3378;0.4383;
1147.8000;0.3386;0.4432;
1148.1000;0.3329;0.4261;
1148.4000;0.3411;0.4383;
1148.7000;0.3386;0.4359;
1149.0000;0.3394;0.4359;
1149.3000;0.3378;0.4383;
1149.6000;0.3403;0.4432;
1149.9000;0.3394;0.4407;
1150.2000;0.3313;0.4188;
1150.5000;0.3394;0.4310;
1150.8000;0.3403;0.4359;
1151.1000;0.3321;0.4261;
1151.4000;0.3394;0.4432;
1151.7000;0.3411;0.4553;
1152.0000;0.3411;0.4602;
1152.3000;0.3476;0.4797;
1152.6000;0.3370;0.4578;
1152.9000;0.3386;0.4627;
1153.2000;0.3394;0.4602;
1153.5000;0.3411;0.4675;
1153.8000;0.3403;0.4578;
1154.1000;0.3386;0.4480;
1154.4000;0.3370;0.4456;
1154.7000;0.3403;0.4456;
1155.0000;0.3394;0.4432;
1155.3000;0.3427;0.4505;
1155.6000;0.3378;0.4432;
1155.9000;0.3378;0.4456;
1156.2000;0.3394;0.4529;
1156.5000;0.3386;0.4505;
1156.8000;0.3394;0.4578;
1157.1000;0.3403;0.4651;
1157.4000;0.3386;0.4602;
1157.7000;0.3411;0.4675;
1158.0000;0.3386;0.4602;
1158.3000;0.3386;0.4529;
1158.6000;0.3403;0.4553;
1158.9000;0.3386;0.4553;
1159.2000;0.3394;0.4553;
1159.5000;0.3386;0.4480;
1159.8000;0.3394;0.4456;
1160.1000;0.3378;0.4432;
1160.4000;0.3370;0.4359;
1160.7000;0.3403;0.4456;
1161.0000;0.3362;0.4310;
1161.3000;0.3386;0.4480;
1161.6000;0.3378;0.4529;
1161.9000;0.3394;0.4456;
1162.2000;0.3411;0.4456;
1162.5000;0.3403;0.4407;
1162.8000;0.3394;0.4359;
1163.1000;0.3362;0.4261;
1163.4000;0.3378;0.4286;
1163.7000;0.3411;0.4432;
1164.0000;0.3394;0.4456;
1164.3000;0.3321;0.4286;
1164.6000;0.3362;0.4456;
1164.9000;0.3403;0.4578;
1165.2000;0.3394;0.4627;
1165.5000;0.3370;0.4456;
1165.8000;0.3378;0.4529;
1166.1000;0.3386;0.4553;
1166.4000;0.3386;0.4505;
1166.7000;0.3403;0.4456;
1167.0000;0.3403;0.4505;
1167.3000;0.3411;0.4529;
1167.6000;0.3370;0.4359;
1167.9000;0.3362;0.4407;
1168.2000;0.3370;0.4432;
1168.5000;0.3386;0.4480;
1168.8000;0.3394;0.4480;
1169.1000;0.3378;0.4480;
1169.4000;0.3313;0.4334;
1169.7000;0.3370;0.4505;
1170.0000;0.3403;0.4505;
1170.3000;0.3386;0.4432;
1170.6000;0.3403;0.4456;
1170.9000;0.3386;0.4432;
1171.2000;0.3386;0.4383;
1171.5000;0.3354;0.4237;
1171.8000;0.3386;0.4334;
1172.1000;0.3403;0.4334;
1172.4000;0.3386;0.4237;
1172.7000;0.3403;0.4286;
1173.0000;0.3394;0.4286;
1173.3000;0.3394;0.4334;
1173.6000;0.3386;0.4334;
1173.9000;0.3468;0.4578;
1174.2000;0.3370;0.4359;
1174.5000;0.3362;0.4334;
1174.8000;0.3329;0.4261;
1175.1000;0.3378;0.4359;
1175.4000;0.3394;0.4359;
1175.7000;0.3403;0.4359;
1176.0000;0.3337;0.4213;
1176.3000;0.3378;0.4407;
1176.6000;0.3378;0.4359;
1176.9000;0.3378;0.4310;
1177.2000;0.3378;0.4310;
1177.5000;0.3378;0.4334;
1177.8000;0.3386;0.4359;
1178.1000;0.3378;0.4359;
1178.4000;0.3337;0.4261;
1178.7000;0.3378;0.4286;
1179.0000;0.3386;0.4334;
1179.3000;0.3386;0.4359;
1179.6000;0.3378;0.4383;
1179.9000;0.3386;0.4359;
1180.2000;0.3378;0.4286;
1180.5000;0.3394;0.4261;
1180.8000;0.3394;0.4261;
1181.1000;0.3386;0.4237;
1181.4000;0.3386;0.4237;
1181.7000;0.3394;0.4237;
1182.0000;0.3403;0.4286;
1182.3000;0.3394;0.4261;
1182.6000;0.3394;0.4286;
1182.9000;0.3443;0.4383;
1183.2000;0.3403;0.4286;
1183.5000;0.3378;0.4286;
1183.8000;0.3378;0.4261;
1184.1000;0.3386;0.4334;
1184.4000;0.3403;0.4286;
1184.7000;0.3362;0.4213;
1185.0000;0.3386;0.4383;
1185.3000;0.3394;0.4432;
1185.6000;0.3386;0.4334;
1185.9000;0.3394;0.4261;
1186.2000;0.3394;0.4237;
1186.5000;0.3403;0.4213;
1186.8000;0.3378;0.4140;
1187.1000;0.3354;0.4188;
1187.4000;0.3411;0.4383;
1187.7000;0.3403;0.4505;
1188.0000;0.3386;0.4456;
1188.3000;0.3378;0.4480;
1188.6000;0.3378;0.4383;
1188.9000;0.3394;0.4359;
1189.2000;0.3386;0.4407;
1189.5000;0.3354;0.4334;
1189.8000;0.3419;0.4553;
1190.1000;0.3329;0.4456;
1190.4000;0.3386;0.4505;
1190.7000;0.3492;0.4700;
1191.0000;0.3378;0.4432;
1191.3000;0.3386;0.4334;
1191.6000;0.3394;0.4383;
1191.9000;0.3394;0.4432;
1192.2000;0.3403;0.4505;
1192.5000;0.3386;0.4432;
1192.8000;0.3370;0.4310;
1193.1000;0.3378;0.4310;
1193.4000;0.3354;0.4188;
1193.7000;0.3378;0.4261;
1194.0000;0.3403;0.4383;
1194.3000;0.3394;0.4383;
1194.6000;0.3394;0.4383;
1194.9000;0.3378;0.4334;
1195.2000;0.3386;0.4432;
1195.5000;0.3370;0.4334;
1195.8000;0.3378;0.4359;
1196.1000;0.3337;0.4261;
1196.4000;0.3370;0.4334;
1196.7000;0.3386;0.4480;
1197.0000;0.3370;0.4383;
1197.3000;0.3386;0.4359;
1197.6000;0.3386;0.4261;
1197.9000;0.3394;0.4286;
1198.2000;0.3419;0.4334;
1198.5000;0.3435;0.4359;
1198.8000;0.3386;0.4286;
1199.1000;0.3362;0.4140;
1199.4000;0.3403;0.4237;
1199.7000;0.3403;0.4115;
1200.0000;0.3443;0.4164;
1200.3000;0.3337;0.3945;
1200.6000;0.3370;0.4091;
1200.9000;0.3403;0.4237;
1201.2000;0.3378;0.4188;
1201.5000;0.3370;0.4213;
1201.8000;0.3394;0.4286;
1202.1000;0.3394;0.4310;
1202.4000;0.3378;0.4286;
1202.7000;0.3386;0.4334;
1203.0000;0.3386;0.4334;
1203.3000;0.3386;0.4359;
1203.6000;0.3370;0.4334;
1203.9000;0.3378;0.4456;
1204.2000;0.3378;0.4480;
1204.5000;0.3533;0.4846;
1204.8000;0.3386;0.4432;
1205.1000;0.3403;0.4480;
1205.4000;0.3394;0.4432;
1205.7000;0.3386;0.4456;
1206.0000;0.3386;0.4480;
1206.3000;0.3386;0.4432;
1206.6000;0.3378;0.4407;
1206.9000;0.3394;0.4359;
1207.2000;0.3386;0.4261;
1207.5000;0.3386;0.4383;
1207.8000;0.3362;0.4286;
1208.1000;0.3403;0.4359;
1208.4000;0.3403;0.4286;
1208.7000;0.3378;0.4286;
1209.0000;0.3370;0.4237;
1209.3000;0.3370;0.4237;
1209.6000;0.3386;0.4310;
1209.9000;0.3394;0.4359;
1210.2000;0.3362;0.4286;
1210.5000;0.3394;0.4286;
1210.8000;0.3394;0.4359;
1211.1000;0.3394;0.4383;
1211.4000;0.3403;0.4432;
1211.7000;0.3386;0.4432;
1212.0000;0.3394;0.4505;
1212.3000;0.3394;0.4578;
1212.6000;0.3411;0.4578;
1212.9000;0.3378;0.4627;
1213.2000;0.3411;0.4748;
1213.5000;0.3394;0.4675;
1213.8000;0.3378;0.4602;
1214.1000;0.3362;0.4553;
1214.4000;0.3354;0.4505;
1214.7000;0.3386;0.4578;
1215.0000;0.3378;0.4651;
1215.3000;0.3419;0.4651;
1215.6000;0.3386;0.4627;
1215.9000;0.3403;0.4578;
1216.2000;0.3386;0.4553;
1216.5000;0.3386;0.4578;
1216.8000;0.3394;0.4627;
1217.1000;0.3394;0.4675;
1217.4000;0.3386;0.4651;
1217.7000;0.3394;0.4627;
1218.0000;0.3362;0.4578;
1218.3000;0.3386;0.4651;
1218.6000;0.3370;0.4578;
1218.9000;0.3370;0.4602;
1219.2000;0.3362;0.4578;
1219.5000;0.3394;0.4675;
1219.8000;0.3346;0.4505;
1220.1000;0.3378;0.4602;
1220.4000;0.3362;0.4578;
1220.7000;0.3427;0.4748;
1221.0000;0.3370;0.4627;
1221.3000;0.3411;0.4602;
1221.6000;0.3394;0.4602;
1221.9000;0.3370;0.4578;
1222.2000;0.3427;0.4675;
1222.5000;0.3394;0.4700;
1222.8000;0.3370;0.4553;
1223.1000;0.3386;0.4578;
1223.4000;0.3337;0.4383;
1223.7000;0.3362;0.4505;
1224.0000;0.3386;0.4602;
1224.3000;0.3378;0.4602;
1224.6000;0.3362;0.4578;
1224.9000;0.3403;0.4724;
1225.2000;0.3419;0.4748;
1225.5000;0.3403;0.4627;
1225.8000;0.3403;0.4627;
1226.1000;0.3394;0.4651;
1226.4000;0.3370;0.4602;
1226.7000;0.3394;0.4602;
1227.0000;0.3403;0.4529;
1227.3000;0.3329;0.4286;
1227.6000;0.3386;0.4456;
1227.9000;0.3394;0.4456;
1228.2000;0.3378;0.4553;
1228.5000;0.3362;0.4553;
1228.8000;0.3362;0.4578;
1229.1000;0.3378;0.4529;
1229.4000;0.3403;0.4529;
1229.7000;0.3337;0.4407;
1230.0000;0.3394;0.4627;
1230.3000;0.3394;0.4505;
1230.6000;0.3394;0.4553;
1230.9000;0.3403;0.4651;
1231.2000;0.3411;0.4748;
1231.5000;0.3403;0.4700;
1231.8000;0.3386;0.4724;
1232.1000;0.3394;0.4748;
1232.4000;0.3386;0.4797;
1232.7000;0.3403;0.4797;
1233.0000;0.3403;0.4821;
1233.3000;0.3394;0.4846;
1233.6000;0.3386;0.4894;
1233.9000;0.3484;0.5114;
1234.2000;0.3378;0.4797;
1234.5000;0.3386;0.4700;
1234.8000;0.3370;0.4700;
1235.1000;0.3386;0.4773;
1235.4000;0.3394;0.4748;
1235.7000;0.3378;0.4724;
1236.0000;0.3378;0.4700;
1236.3000;0.3394;0.4773;
1236.6000;0.3386;0.4919;
1236.9000;0.3394;0.4967;
1237.2000;0.3386;0.4967;
1237.5000;0.3411;0.4943;
1237.8000;0.3411;0.4943;
1238.1000;0.3403;0.4894;
1238.4000;0.3386;0.4846;
1238.7000;0.3370;0.4773;
1239.0000;0.3378;0.4748;
1239.3000;0.3403;0.4773;
1239.6000;0.3378;0.4724;
1239.9000;0.3386;0.4675;
1240.2000;0.3378;0.4529;
1240.5000;0.3386;0.4456;
1240.8000;0.3386;0.4529;
1241.1000;0.3394;0.4651;
1241.4000;0.3394;0.4700;
1241.7000;0.3370;0.4748;
1242.0000;0.3468;0.5016;
1242.3000;0.3386;0.4748;
1242.6000;0.3313;0.4602;
1242.9000;0.3403;0.4773;
1243.2000;0.3394;0.4748;
1243.5000;0.3435;0.4919;
1243.8000;0.3378;0.4894;
1244.1000;0.3354;0.4748;
1244.4000;0.3378;0.4797;
1244.7000;0.3386;0.4797;
1245.0000;0.3386;0.4724;
1245.3000;0.3386;0.4627;
1245.6000;0.3394;0.4675;
1245.9000;0.3394;0.4602;
1246.2000;0.3378;0.4578;
1246.5000;0.3419;0.4651;
1246.8000;0.3411;0.4675;
1247.1000;0.3411;0.4675;
1247.4000;0.3378;0.4651;
1247.7000;0.3394;0.4675;
1248.0000;0.3370;0.4553;
1248.3000;0.3370;0.4505;
1248.6000;0.3386;0.4602;
1248.9000;0.3403;0.4675;
1249.2000;0.3354;0.4627;
1249.5000;0.3386;0.4724;
1249.8000;0.3435;0.4821;
1250.1000;0.3378;0.4627;
1250.4000;0.3411;0.4748;
1250.7000;0.3386;0.4602;
1251.0000;0.3419;0.4675;
1251.3000;0.3354;0.4553;
1251.6000;0.3403;0.4724;
1251.9000;0.3403;0.4700;
1252.2000;0.3386;0.4773;
1252.5000;0.3451;0.4943;
1252.8000;0.3362;0.4602;
1253.1000;0.3386;0.4578;
1253.4000;0.3362;0.4578;
1253.7000;0.3370;0.4724;
1254.0000;0.3337;0.4602;
1254.3000;0.3370;0.4675;
1254.6000;0.3386;0.4724;
1254.9000;0.3394;0.4651;
1255.2000;0.3378;0.4651;
1255.5000;0.3411;0.4724;
1255.8000;0.3394;0.4748;
1256.1000;0.3378;0.4675;
1256.4000;0.3386;0.4700;
1256.7000;0.3394;0.4651;
1257.0000;0.3394;0.4651;
1257.3000;0.3443;0.4748;
1257.6000;0.3411;0.4724;
1257.9000;0.3411;0.4700;
1258.2000;0.3386;0.4675;
1258.5000;0.3378;0.4553;
1258.8000;0.3386;0.4627;
1259.1000;0.3443;0.4821;
1259.4000;0.3394;0.4700;
1259.7000;0.3386;0.4578;
1260.0000;0.3394;0.4651;
1260.3000;0.3386;0.4602;
1260.6000;0.3378;0.4627;
1260.9000;0.3370;0.4578;
1261.2000;0.3386;0.4651;
1261.5000;0.3386;0.4627;
1261.8000;0.3394;0.4602;
1262.1000;0.3435;0.4651;
1262.4000;0.3403;0.4529;
1262.7000;0.3394;0.4505;
1263.0000;0.3403;0.4578;
1263.3000;0.3386;0.4456;
1263.6000;0.3386;0.4456;
1263.9000;0.3394;0.4529;
1264.2000;0.3329;0.4432;
1264.5000;0.3378;0.4529;
1264.8000;0.3362;0.4456;
1265.1000;0.3362;0.4480;
1265.4000;0.3403;0.4578;
1265.7000;0.3378;0.4627;
1266.0000;0.3419;0.4773;
1266.3000;0.3370;0.4505;
1266.6000;0.3378;0.4505;
1266.9000;0.3370;0.4529;
1267.2000;0.3386;0.4529;
1267.5000;0.3386;0.4553;
1267.8000;0.3403;0.4627;
1268.1000;0.3508;0.4967;
1268.4000;0.3378;0.4602;
1268.7000;0.3403;0.4602;
1269.0000;0.3394;0.4578;
1269.3000;0.3386;0.4505;
1269.6000;0.3370;0.4383;
1269.9000;0.3386;0.4359;
1270.2000;0.3354;0.4286;
1270.5000;0.3386;0.4407;
1270.8000;0.3370;0.4383;
1271.1000;0.3354;0.4407;
1271.4000;0.3435;0.4578;
1271.7000;0.3362;0.4383;
1272.0000;0.3386;0.4407;
1272.3000;0.3419;0.4505;
1272.6000;0.3386;0.4432;
1272.9000;0.3386;0.4480;
1273.2000;0.3386;0.4529;
1273.5000;0.3362;0.4456;
1273.8000;0.3386;0.4480;
1274.1000;0.3370;0.4505;
1274.4000;0.3378;0.4480;
1274.7000;0.3370;0.4480;
1275.0000;0.3362;0.4456;
1275.3000;0.3427;0.4578;
1275.6000;0.3370;0.4553;
1275.9000;0.3370;0.4675;
1276.2000;0.3370;0.4675;
1276.5000;0.3370;0.4602;
1276.8000;0.3378;0.4602;
1277.1000;0.3403;0.4675;
1277.4000;0.3370;0.4627;
1277.7000;0.3386;0.4651;
1278.0000;0.3337;0.4553;
1278.3000;0.3403;0.4627;
1278.6000;0.3386;0.4651;
1278.9000;0.3394;0.4797;
1279.2000;0.3386;0.4870;
1279.5000;0.3411;0.4894;
1279.8000;0.3394;0.4967;
1280.1000;0.3378;0.4724;
1280.4000;0.3378;0.4724;
1280.7000;0.3378;0.4675;
1281.0000;0.3403;0.4700;
1281.3000;0.3378;0.4627;
1281.6000;0.3419;0.4627;
1281.9000;0.3403;0.4627;
1282.2000;0.3386;0.4529;
1282.5000;0.3386;0.4407;
1282.8000;0.3403;0.4553;
1283.1000;0.3394;0.4529;
1283.4000;0.3394;0.4553;
1283.7000;0.3386;0.4602;
1284.0000;0.3386;0.4675;
1284.3000;0.3386;0.4602;
1284.6000;0.3378;0.4553;
1284.9000;0.3386;0.4627;
1285.2000;0.3378;0.4675;
1285.5000;0.3305;0.4505;
1285.8000;0.3386;0.4675;
1286.1000;0.3354;0.4602;
1286.4000;0.3386;0.4675;
1286.7000;0.3378;0.4700;
1287.0000;0.3419;0.4797;
1287.3000;0.3386;0.4700;
1287.6000;0.3362;0.4651;
1287.9000;0.3378;0.4724;
1288.2000;0.3386;0.4773;
1288.5000;0.3419;0.4773;
1288.8000;0.3443;0.4797;
1289.1000;0.3443;0.4797;
1289.4000;0.3403;0.4700;
1289.7000;0.3386;0.4748;
1290.0000;0.3362;0.4748;
1290.3000;0.3378;0.4700;
1290.6000;0.3378;0.4675;
1290.9000;0.3403;0.4724;
1291.2000;0.3468;0.4894;
1291.5000;0.3403;0.4748;
1291.8000;0.3403;0.4797;
1292.1000;0.3386;0.4797;
1292.4000;0.3386;0.4870;
1292.7000;0.3386;0.4894;
1293.0000;0.3362;0.4724;
1293.3000;0.3394;0.4846;
1293.6000;0.3403;0.4870;
1293.9000;0.3321;0.4675;
1294.2000;0.3394;0.4894;
1294.5000;0.3394;0.4870;
1294.8000;0.3386;0.4821;
1295.1000;0.3451;0.4894;
1295.4000;0.3378;0.4773;
1295.7000;0.3419;0.4846;
1296.0000;0.3362;0.4700;
1296.3000;0.3378;0.4602;
1296.6000;0.3362;0.4627;
1296.9000;0.3370;0.4627;
1297.2000;0.3370;0.4651;
1297.5000;0.3354;0.4700;
1297.8000;0.3337;0.4578;
1298.1000;0.3370;0.4651;
1298.4000;0.3370;0.4602;
1298.7000;0.3386;0.4627;
1299.0000;0.3378;0.4602;
1299.3000;0.3370;0.4627;
1299.6000;0.3370;0.4700;
1299.9000;0.3435;0.4919;
1300.2000;0.3403;0.4846;
1300.5000;0.3378;0.4797;
1300.8000;0.3378;0.4724;
1301.1000;0.3378;0.4748;
1301.4000;0.3378;0.4578;
1301.7000;0.3378;0.4553;
1302.0000;0.3354;0.4456;
1302.3000;0.3394;0.4505;
1302.6000;0.3386;0.4505;
1302.9000;0.3403;0.4553;
1303.2000;0.3386;0.4553;
1303.5000;0.3419;0.4627;
1303.8000;0.3403;0.4675;
1304.1000;0.3394;0.4724;
1304.4000;0.3378;0.4675;
1304.7000;0.3411;0.4748;
1305.0000;0.3403;0.4675;
1305.3000;0.3394;0.4578;
1305.6000;0.3346;0.4456;
1305.9000;0.3386;0.4480;
1306.2000;0.3386;0.4432;
1306.5000;0.3419;0.4505;
1306.8000;0.3329;0.4407;
1307.1000;0.3403;0.4529;
1307.4000;0.3394;0.4529;
1307.7000;0.3484;0.4846;
1308.0000;0.3386;0.4627;
1308.3000;0.3386;0.4627;
1308.6000;0.3337;0.4480;
1308.9000;0.3394;0.4529;
1309.2000;0.3370;0.4480;
1309.5000;0.3370;0.4480;
1309.8000;0.3403;0.4553;
1310.1000;0.3386;0.4505;
1310.4000;0.3378;0.4553;
1310.7000;0.3386;0.4553;
1311.0000;0.3370;0.4578;
1311.3000;0.3394;0.4553;
1311.6000;0.3419;0.4627;
1311.9000;0.3403;0.4627;
1312.2000;0.3403;0.4602;
1312.5000;0.3394;0.4578;
1312.8000;0.3394;0.4480;
1313.1000;0.3378;0.4529;
1313.4000;0.3394;0.4529;
1313.7000;0.3370;0.4480;
1314.0000;0.3394;0.4578;
1314.3000;0.3378;0.4505;
1314.6000;0.3386;0.4529;
1314.9000;0.3403;0.4529;
1315.2000;0.3386;0.4553;
1315.5000;0.3378;0.4627;
1315.8000;0.3370;0.4578;
1316.1000;0.3370;0.4627;
1316.4000;0.3362;0.4505;
1316.7000;0.3370;0.4529;
1317.0000;0.3378;0.4529;
1317.3000;0.3386;0.4480;
1317.6000;0.3346;0.4359;
1317.9000;0.3386;0.4529;
1318.2000;0.3394;0.4529;
1318.5000;0.3346;0.4456;
1318.8000;0.3370;0.4553;
1319.1000;0.3378;0.4578;
1319.4000;0.3329;0.4480;
1319.7000;0.3370;0.4578;
1320.0000;0.3394;0.4578;
1320.3000;0.3419;0.4700;
1320.6000;0.3386;0.4675;
1320.9000;0.3378;0.4675;
1321.2000;0.3378;0.4675;
1321.5000;0.3403;0.4675;
1321.8000;0.3419;0.4700;
1322.1000;0.3362;0.4651;
1322.4000;0.3460;0.4846;
1322.7000;0.3378;0.4602;
1323.0000;0.3378;0.4651;
1323.3000;0.3370;0.4602;
1323.6000;0.3386;0.4602;
1323.9000;0.3403;0.4651;
1324.2000;0.3386;0.4578;
1324.5000;0.3419;0.4529;
1324.8000;0.3378;0.4505;
1325.1000;0.3378;0.4529;
1325.4000;0.3329;0.4407;
1325.7000;0.3435;0.4627;
1326.0000;0.3386;0.4456;
1326.3000;0.3386;0.4432;
1326.6000;0.3394;0.4334;
1326.9000;0.3386;0.4334;
1327.2000;0.3435;0.4529;
1327.5000;0.3411;0.4480;
1327.8000;0.3419;0.4480;
1328.1000;0.3419;0.4456;
1328.4000;0.3411;0.4456;
1328.7000;0.3394;0.4359;
1329.0000;0.3394;0.4310;
1329.3000;0.3370;0.4359;
1329.6000;0.3394;0.4383;
1329.9000;0.3403;0.4383;
1330.2000;0.3394;0.4359;
1330.5000;0.3394;0.4480;
1330.8000;0.3378;0.4432;
1331.1000;0.3370;0.4432;
1331.4000;0.3354;0.4407;
1331.7000;0.3378;0.4456;
1332.0000;0.3370;0.4407;
1332.3000;0.3362;0.4286;
1332.6000;0.3386;0.4261;
1332.9000;0.3394;0.4359;
1333.2000;0.3394;0.4480;
1333.5000;0.3386;0.4505;
1333.8000;0.3362;0.4432;
1334.1000;0.3394;0.4505;
1334.4000;0.3411;0.4480;
1334.7000;0.3362;0.4359;
1335.0000;0.3370;0.4432;
1335.3000;0.3378;0.4432;
1335.6000;0.3394;0.4432;
1335.9000;0.3370;0.4407;
1336.2000;0.3370;0.4359;
1336.5000;0.3378;0.4407;
1336.8000;0.3346;0.4286;
1337.1000;0.3370;0.4383;
1337.4000;0.3394;0.4383;
1337.7000;0.3378;0.4310;
1338.0000;0.3403;0.4432;
1338.3000;0.3378;0.4456;
1338.6000;0.3378;0.4456;
1338.9000;0.3386;0.4480;
1339.2000;0.3370;0.4505;
1339.5000;0.3394;0.4578;
1339.8000;0.3394;0.4553;
1340.1000;0.3370;0.4529;
1340.4000;0.3427;0.4651;
1340.7000;0.3427;0.4675;
1341.0000;0.3354;0.4480;
1341.3000;0.3394;0.4529;
1341.6000;0.3378;0.4407;
1341.9000;0.3403;0.4432;
1342.2000;0.3354;0.4286;
1342.5000;0.3378;0.4286;
1342.8000;0.3370;0.4237;
1343.1000;0.3378;0.4310;
1343.4000;0.3297;0.4140;
1343.7000;0.3378;0.4334;
1344.0000;0.3378;0.4383;
1344.3000;0.3305;0.4286;
1344.6000;0.3386;0.4553;
1344.9000;0.3386;0.4529;
1345.2000;0.3362;0.4407;
1345.5000;0.3378;0.4456;
1345.8000;0.3370;0.4432;
1346.1000;0.3386;0.4553;
1346.4000;0.3386;0.4553;
1346.7000;0.3362;0.4432;
1347.0000;0.3394;0.4456;
1347.3000;0.3394;0.4407;
1347.6000;0.3378;0.4261;
1347.9000;0.3378;0.4261;
1348.2000;0.3386;0.4237;
1348.5000;0.3403;0.4286;
1348.8000;0.3394;0.4310;
1349.1000;0.3370;0.4383;
1349.4000;0.3386;0.4480;
1349.7000;0.3403;0.4407;
1350.0000;0.3378;0.4334;
1350.3000;0.3362;0.4359;
1350.6000;0.3378;0.4456;
1350.9000;0.3386;0.4432;
1351.2000;0.3362;0.4334;
1351.5000;0.3378;0.4334;
1351.8000;0.3386;0.4286;
1352.1000;0.3378;0.4213;
1352.4000;0.3394;0.4237;
1352.7000;0.3386;0.4237;
1353.0000;0.3378;0.4261;
1353.3000;0.3321;0.4164;
1353.6000;0.3378;0.4261;
1353.9000;0.3378;0.4359;
1354.2000;0.3370;0.4432;
1354.5000;0.3386;0.4432;
1354.8000;0.3370;0.4407;
1355.1000;0.3378;0.4480;
1355.4000;0.3354;0.4383;
1355.7000;0.3354;0.4334;
1356.0000;0.3370;0.4359;
1356.3000;0.3370;0.4383;
1356.6000;0.3370;0.4432;
1356.9000;0.3370;0.4456;
1357.2000;0.3419;0.4578;
1357.5000;0.3354;0.4432;
1357.8000;0.3394;0.4432;
1358.1000;0.3370;0.4334;
1358.4000;0.3403;0.4456;
1358.7000;0.3419;0.4432;
1359.0000;0.3394;0.4456;
1359.3000;0.3394;0.4407;
1359.6000;0.3378;0.4480;
1359.9000;0.3394;0.4602;
1360.2000;0.3419;0.4700;
1360.5000;0.3394;0.4602;
1360.8000;0.3386;0.4529;
1361.1000;0.3394;0.4480;
1361.4000;0.3411;0.4529;
1361.7000;0.3386;0.4529;
1362.0000;0.3329;0.4456;
1362.3000;0.3403;0.4602;
1362.6000;0.3370;0.4456;
1362.9000;0.3403;0.4505;
1363.2000;0.3443;0.4578;
1363.5000;0.3403;0.4480;
1363.8000;0.3403;0.4529;
1364.1000;0.3476;0.4627;
1364.4000;0.3411;0.4383;
1364.7000;0.3386;0.4383;
1365.0000;0.3394;0.4505;
1365.3000;0.3394;0.4480;
1365.6000;0.3403;0.4456;
1365.9000;0.3386;0.4432;
1366.2000;0.3403;0.4553;
1366.5000;0.3403;0.4578;
1366.8000;0.3403;0.4602;
1367.1000;0.3386;0.4553;
1367.4000;0.3394;0.4529;
1367.7000;0.3378;0.4456;
1368.0000;0.3378;0.4432;
1368.3000;0.3346;0.4359;
1368.6000;0.3386;0.4505;
1368.9000;0.3378;0.4529;
1369.2000;0.3403;0.4529;
1369.5000;0.3378;0.4553;
1369.8000;0.3370;0.4553;
1370.1000;0.3403;0.4651;
1370.4000;0.3394;0.4578;
1370.7000;0.3378;0.4578;
1371.0000;0.3386;0.4578;
1371.3000;0.3411;0.4675;
1371.6000;0.3362;0.4651;
1371.9000;0.3394;0.4627;
1372.2000;0.3403;0.4700;
1372.5000;0.3386;0.4627;
1372.8000;0.3378;0.4627;
1373.1000;0.3386;0.4627;
1373.4000;0.3378;0.4651;
1373.7000;0.3370;0.4505;
1374.0000;0.3378;0.4602;
1374.3000;0.3419;0.4748;
1374.6000;0.3378;0.4627;
1374.9000;0.3386;0.4724;
1375.2000;0.3386;0.4700;
1375.5000;0.3378;0.4627;
1375.8000;0.3370;0.4651;
1376.1000;0.3403;0.4748;
1376.4000;0.3378;0.4602;
1376.7000;0.3370;0.4627;
1377.0000;0.3394;0.4651;
1377.3000;0.3370;0.4553;
1377.6000;0.3394;0.4627;
1377.9000;0.3411;0.4529;
1378.2000;0.3370;0.4407;
1378.5000;0.3386;0.4407;
1378.8000;0.3411;0.4456;
1379.1000;0.3394;0.4407;
1379.4000;0.3386;0.4359;
1379.7000;0.3370;0.4286;
1380.0000;0.3386;0.4310;
1380.3000;0.3378;0.4334;
1380.6000;0.3386;0.4432;
1380.9000;0.3370;0.4334;
1381.2000;0.3378;0.4383;
1381.5000;0.3362;0.4334;
1381.8000;0.3378;0.4334;
1382.1000;0.3370;0.4261;
1382.4000;0.3403;0.4359;
1382.7000;0.3329;0.4213;
1383.0000;0.3378;0.4383;
1383.3000;0.3370;0.4359;
1383.6000;0.3386;0.4407;
1383.9000;0.3321;0.4237;
1384.2000;0.3386;0.4480;
1384.5000;0.3378;0.4480;
1384.8000;0.3370;0.4505;
1385.1000;0.3378;0.4529;
1385.4000;0.3403;0.4505;
1385.7000;0.3378;0.4480;
1386.0000;0.3403;0.4456;
1386.3000;0.3427;0.4432;
1386.6000;0.3386;0.4359;
1386.9000;0.3362;0.4359;
1387.2000;0.3354;0.4261;
1387.5000;0.3370;0.4334;
1387.8000;0.3370;0.4286;
1388.1000;0.3386;0.4334;
1388.4000;0.3362;0.4310;
1388.7000;0.3386;0.4334;
1389.0000;0.3370;0.4432;
1389.3000;0.3386;0.4480;
1389.6000;0.3386;0.4505;
1389.9000;0.3386;0.4456;
1390.2000;0.3378;0.4432;
1390.5000;0.3386;0.4432;
1390.8000;0.3378;0.4383;
1391.1000;0.3378;0.4359;
1391.4000;0.3346;0.4286;
1391.7000;0.3321;0.4164;
1392.0000;0.3378;0.4261;
1392.3000;0.3386;0.4310;
1392.6000;0.3386;0.4359;
1392.9000;0.3378;0.4407;
1393.2000;0.3378;0.4407;
1393.5000;0.3386;0.4359;
1393.8000;0.3362;0.4310;
1394.1000;0.3354;0.4261;
1394.4000;0.3386;0.4432;
1394.7000;0.3386;0.4505;
1395.0000;0.3394;0.4480;
1395.3000;0.3370;0.4456;
1395.6000;0.3362;0.4480;
1395.9000;0.3370;0.4359;
1396.2000;0.3370;0.4480;
1396.5000;0.3386;0.4432;
1396.8000;0.3386;0.4334;
1397.1000;0.3378;0.4383;
1397.4000;0.3378;0.4359;
1397.7000;0.3386;0.4359;
1398.0000;0.3386;0.4334;
1398.3000;0.3386;0.4383;
1398.6000;0.3394;0.4359;
1398.9000;0.3378;0.4286;
1399.2000;0.3394;0.4334;
1399.5000;0.3386;0.4407;
1399.8000;0.3378;0.4359;
