time/ms;Fluo/V;P700 deltaI/I x10³;
-199.8000;0.3647;0.3896;
-199.5000;0.3614;0.3896;
-199.2000;0.3630;0.3823;
-198.9000;0.3630;0.3847;
-198.6000;0.3663;0.3945;
-198.3000;0.3647;0.3945;
-198.0000;0.3639;0.3847;
-197.7000;0.3573;0.3677;
-197.4000;0.3630;0.3872;
-197.1000;0.3606;0.3799;
-196.8000;0.3630;0.3920;
-196.5000;0.3647;0.4018;
-196.2000;0.3639;0.3969;
-195.9000;0.3622;0.3945;
-195.6000;0.3630;0.3945;
-195.3000;0.3630;0.3945;
-195.0000;0.3679;0.3945;
-194.7000;0.3639;0.3872;
-194.4000;0.3687;0.3993;
-194.1000;0.3598;0.3799;
-193.8000;0.3630;0.3774;
-193.5000;0.3647;0.3945;
-193.2000;0.3614;0.3920;
-192.9000;0.3639;0.3847;
-192.6000;0.3639;0.3945;
-192.3000;0.3606;0.3847;
-192.0000;0.3671;0.4140;
-191.7000;0.3639;0.4066;
-191.4000;0.3614;0.4115;
-191.1000;0.3639;0.4310;
-190.8000;0.3622;0.4310;
-190.5000;0.3630;0.4213;
-190.2000;0.3549;0.3847;
-189.9000;0.3647;0.4066;
-189.6000;0.3630;0.4091;
-189.3000;0.3598;0.4066;
-189.0000;0.3639;0.4066;
-188.7000;0.3655;0.4140;
-188.4000;0.3622;0.4018;
-188.1000;0.3639;0.3969;
-187.8000;0.3622;0.3872;
-187.5000;0.3639;0.3920;
-187.2000;0.3663;0.4018;
-186.9000;0.3655;0.4018;
-186.6000;0.3647;0.3993;
-186.3000;0.3639;0.3920;
-186.0000;0.3639;0.4042;
-185.7000;0.3639;0.4115;
-185.4000;0.3614;0.4066;
-185.1000;0.3630;0.4042;
-184.8000;0.3630;0.4066;
-184.5000;0.3647;0.4091;
-184.2000;0.3639;0.3993;
-183.9000;0.3647;0.4066;
-183.6000;0.3622;0.3969;
-183.3000;0.3663;0.3993;
-183.0000;0.3622;0.3945;
-182.7000;0.3606;0.3847;
-182.4000;0.3671;0.4018;
-182.1000;0.3639;0.3969;
-181.8000;0.3655;0.3993;
-181.5000;0.3679;0.4091;
-181.2000;0.3639;0.4042;
-180.9000;0.3598;0.3896;
-180.6000;0.3647;0.4018;
-180.3000;0.3630;0.3969;
-180.0000;0.3655;0.4018;
-179.7000;0.3647;0.3969;
-179.4000;0.3647;0.4018;
-179.1000;0.3630;0.3920;
-178.8000;0.3630;0.3920;
-178.5000;0.3630;0.3945;
-178.2000;0.3647;0.4042;
-177.9000;0.3639;0.3993;
-177.6000;0.3630;0.4066;
-177.3000;0.3639;0.4042;
-177.0000;0.3663;0.4140;
-176.7000;0.3639;0.4066;
-176.4000;0.3622;0.4115;
-176.1000;0.3647;0.4091;
-175.8000;0.3630;0.4091;
-175.5000;0.3639;0.4091;
-175.2000;0.3630;0.3945;
-174.9000;0.3622;0.3823;
-174.6000;0.3639;0.3847;
-174.3000;0.3590;0.3677;
-174.0000;0.3639;0.3774;
-173.7000;0.3639;0.3799;
-173.4000;0.3614;0.3823;
-173.1000;0.3614;0.3799;
-172.8000;0.3639;0.3872;
-172.5000;0.3639;0.3872;
-172.2000;0.3663;0.4018;
-171.9000;0.3655;0.3920;
-171.6000;0.3663;0.3920;
-171.3000;0.3639;0.3847;
-171.0000;0.3663;0.3872;
-170.7000;0.3655;0.3799;
-170.4000;0.3655;0.3823;
-170.1000;0.3606;0.3726;
-169.8000;0.3630;0.3847;
-169.5000;0.3639;0.3823;
-169.2000;0.3655;0.3774;
-168.9000;0.3630;0.3799;
-168.6000;0.3647;0.3750;
-168.3000;0.3639;0.3799;
-168.0000;0.3639;0.3872;
-167.7000;0.3655;0.3896;
-167.4000;0.3647;0.3920;
-167.1000;0.3647;0.3896;
-166.8000;0.3663;0.3969;
-166.5000;0.3598;0.3847;
-166.2000;0.3639;0.3969;
-165.9000;0.3639;0.3896;
-165.6000;0.3622;0.3823;
-165.3000;0.3639;0.3847;
-165.0000;0.3622;0.3847;
-164.7000;0.3630;0.3774;
-164.4000;0.3639;0.3799;
-164.1000;0.3647;0.3896;
-163.8000;0.3630;0.3823;
-163.5000;0.3630;0.3920;
-163.2000;0.3582;0.3799;
-162.9000;0.3663;0.3872;
-162.6000;0.3647;0.3920;
-162.3000;0.3639;0.3896;
-162.0000;0.3639;0.3872;
-161.7000;0.3663;0.3872;
-161.4000;0.3679;0.3969;
-161.1000;0.3655;0.3945;
-160.8000;0.3639;0.3993;
-160.5000;0.3630;0.4140;
-160.2000;0.3622;0.4115;
-159.9000;0.3622;0.4066;
-159.6000;0.3622;0.4066;
-159.3000;0.3655;0.4115;
-159.0000;0.3639;0.4091;
-158.7000;0.3655;0.4115;
-158.4000;0.3630;0.4066;
-158.1000;0.3622;0.4091;
-157.8000;0.3647;0.4091;
-157.5000;0.3630;0.3993;
-157.2000;0.3647;0.3993;
-156.9000;0.3655;0.3920;
-156.6000;0.3630;0.3823;
-156.3000;0.3696;0.3969;
-156.0000;0.3622;0.3872;
-155.7000;0.3639;0.3847;
-155.4000;0.3647;0.3872;
-155.1000;0.3630;0.3872;
-154.8000;0.3606;0.3823;
-154.5000;0.3622;0.3872;
-154.2000;0.3647;0.3920;
-153.9000;0.3630;0.3872;
-153.6000;0.3622;0.3872;
-153.3000;0.3614;0.3920;
-153.0000;0.3639;0.3896;
-152.7000;0.3557;0.3701;
-152.4000;0.3639;0.3823;
-152.1000;0.3606;0.3701;
-151.8000;0.3639;0.3750;
-151.5000;0.3647;0.3774;
-151.2000;0.3614;0.3774;
-150.9000;0.3622;0.3823;
-150.6000;0.3647;0.3774;
-150.3000;0.3630;0.3799;
-150.0000;0.3639;0.3847;
-149.7000;0.3622;0.3847;
-149.4000;0.3614;0.3896;
-149.1000;0.3622;0.3896;
-148.8000;0.3614;0.3896;
-148.5000;0.3639;0.3920;
-148.2000;0.3639;0.3945;
-147.9000;0.3630;0.3896;
-147.6000;0.3663;0.3872;
-147.3000;0.3630;0.3799;
-147.0000;0.3630;0.3823;
-146.7000;0.3647;0.3896;
-146.4000;0.3647;0.3896;
-146.1000;0.3647;0.3969;
-145.8000;0.3622;0.3945;
-145.5000;0.3614;0.3945;
-145.2000;0.3647;0.3993;
-144.9000;0.3614;0.3993;
-144.6000;0.3630;0.3969;
-144.3000;0.3622;0.3847;
-144.0000;0.3630;0.3774;
-143.7000;0.3647;0.3726;
-143.4000;0.3630;0.3726;
-143.1000;0.3639;0.3701;
-142.8000;0.3647;0.3701;
-142.5000;0.3622;0.3628;
-142.2000;0.3647;0.3726;
-141.9000;0.3622;0.3701;
-141.6000;0.3655;0.3726;
-141.3000;0.3704;0.3920;
-141.0000;0.3630;0.3677;
-140.7000;0.3639;0.3653;
-140.4000;0.3639;0.3653;
-140.1000;0.3655;0.3579;
-139.8000;0.3622;0.3458;
-139.5000;0.3622;0.3433;
-139.2000;0.3655;0.3506;
-138.9000;0.3663;0.3531;
-138.6000;0.3639;0.3482;
-138.3000;0.3663;0.3531;
-138.0000;0.3622;0.3506;
-137.7000;0.3590;0.3458;
-137.4000;0.3647;0.3628;
-137.1000;0.3622;0.3579;
-136.8000;0.3655;0.3750;
-136.5000;0.3655;0.3701;
-136.2000;0.3639;0.3628;
-135.9000;0.3630;0.3799;
-135.6000;0.3630;0.3847;
-135.3000;0.3647;0.3872;
-135.0000;0.3647;0.3823;
-134.7000;0.3622;0.3774;
-134.4000;0.3647;0.3726;
-134.1000;0.3614;0.3677;
-133.8000;0.3639;0.3774;
-133.5000;0.3622;0.3750;
-133.2000;0.3606;0.3677;
-132.9000;0.3630;0.3726;
-132.6000;0.3655;0.3774;
-132.3000;0.3622;0.3701;
-132.0000;0.3614;0.3628;
-131.7000;0.3647;0.3799;
-131.4000;0.3630;0.3823;
-131.1000;0.3655;0.3896;
-130.8000;0.3622;0.3847;
-130.5000;0.3622;0.3920;
-130.2000;0.3655;0.4018;
-129.9000;0.3655;0.3945;
-129.6000;0.3639;0.3920;
-129.3000;0.3655;0.3872;
-129.0000;0.3622;0.3799;
-128.7000;0.3639;0.3872;
-128.4000;0.3622;0.3847;
-128.1000;0.3630;0.3726;
-127.8000;0.3639;0.3750;
-127.5000;0.3630;0.3799;
-127.2000;0.3663;0.3823;
-126.9000;0.3630;0.3799;
-126.6000;0.3630;0.3799;
-126.3000;0.3630;0.3799;
-126.0000;0.3655;0.3872;
-125.7000;0.3639;0.3945;
-125.4000;0.3639;0.3896;
-125.1000;0.3663;0.3896;
-124.8000;0.3606;0.3847;
-124.5000;0.3622;0.3896;
-124.2000;0.3647;0.3823;
-123.9000;0.3606;0.3750;
-123.6000;0.3630;0.3774;
-123.3000;0.3630;0.3750;
-123.0000;0.3647;0.3847;
-122.7000;0.3630;0.3847;
-122.4000;0.3728;0.4018;
-122.1000;0.3712;0.3969;
-121.8000;0.3655;0.3750;
-121.5000;0.3630;0.3653;
-121.2000;0.3639;0.3774;
-120.9000;0.3639;0.3750;
-120.6000;0.3655;0.3774;
-120.3000;0.3639;0.3677;
-120.0000;0.3647;0.3750;
-119.7000;0.3663;0.3823;
-119.4000;0.3639;0.3774;
-119.1000;0.3630;0.3799;
-118.8000;0.3647;0.3774;
-118.5000;0.3630;0.3774;
-118.2000;0.3622;0.3701;
-117.9000;0.3630;0.3677;
-117.6000;0.3639;0.3677;
-117.3000;0.3663;0.3750;
-117.0000;0.3639;0.3774;
-116.7000;0.3622;0.3799;
-116.4000;0.3671;0.3847;
-116.1000;0.3647;0.3823;
-115.8000;0.3647;0.3847;
-115.5000;0.3630;0.3945;
-115.2000;0.3606;0.3920;
-114.9000;0.3630;0.4018;
-114.6000;0.3696;0.4188;
-114.3000;0.3606;0.3872;
-114.0000;0.3639;0.3920;
-113.7000;0.3647;0.3896;
-113.4000;0.3647;0.3945;
-113.1000;0.3647;0.3945;
-112.8000;0.3647;0.3969;
-112.5000;0.3655;0.3823;
-112.2000;0.3639;0.3799;
-111.9000;0.3639;0.3701;
-111.6000;0.3639;0.3750;
-111.3000;0.3647;0.3847;
-111.0000;0.3639;0.3920;
-110.7000;0.3630;0.3993;
-110.4000;0.3630;0.4018;
-110.1000;0.3630;0.4066;
-109.8000;0.3614;0.4091;
-109.5000;0.3639;0.4091;
-109.2000;0.3639;0.4066;
-108.9000;0.3614;0.3920;
-108.6000;0.3655;0.4018;
-108.3000;0.3655;0.3969;
-108.0000;0.3630;0.3945;
-107.7000;0.3622;0.3896;
-107.4000;0.3647;0.3896;
-107.1000;0.3655;0.3969;
-106.8000;0.3622;0.3847;
-106.5000;0.3655;0.3945;
-106.2000;0.3647;0.3872;
-105.9000;0.3671;0.3872;
-105.6000;0.3622;0.3750;
-105.3000;0.3630;0.3969;
-105.0000;0.3647;0.3969;
-104.7000;0.3639;0.3896;
-104.4000;0.3655;0.3945;
-104.1000;0.3647;0.3945;
-103.8000;0.3639;0.3920;
-103.5000;0.3622;0.3847;
-103.2000;0.3639;0.3896;
-102.9000;0.3630;0.3823;
-102.6000;0.3639;0.3847;
-102.3000;0.3614;0.3847;
-102.0000;0.3639;0.3945;
-101.7000;0.3663;0.3872;
-101.4000;0.3630;0.3847;
-101.1000;0.3655;0.3920;
-100.8000;0.3630;0.3920;
-100.5000;0.3630;0.3945;
-100.2000;0.3663;0.4018;
-99.9000;0.3614;0.3896;
-99.6000;0.3614;0.3847;
-99.3000;0.3630;0.3799;
-99.0000;0.3647;0.3726;
-98.7000;0.3639;0.3774;
-98.4000;0.3622;0.3677;
-98.1000;0.3687;0.3920;
-97.8000;0.3630;0.3677;
-97.5000;0.3622;0.3701;
-97.2000;0.3614;0.3701;
-96.9000;0.3639;0.3774;
-96.6000;0.3671;0.3774;
-96.3000;0.3663;0.3677;
-96.0000;0.3614;0.3579;
-95.7000;0.3647;0.3677;
-95.4000;0.3614;0.3555;
-95.1000;0.3639;0.3653;
-94.8000;0.3639;0.3701;
-94.5000;0.3614;0.3653;
-94.2000;0.3630;0.3847;
-93.9000;0.3647;0.3920;
-93.6000;0.3639;0.3969;
-93.3000;0.3598;0.3799;
-93.0000;0.3647;0.3896;
-92.7000;0.3647;0.3920;
-92.4000;0.3565;0.3701;
-92.1000;0.3630;0.3872;
-91.8000;0.3647;0.3945;
-91.5000;0.3639;0.4042;
-91.2000;0.3630;0.3993;
-90.9000;0.3647;0.4066;
-90.6000;0.3614;0.4066;
-90.3000;0.3630;0.4164;
-90.0000;0.3630;0.4115;
-89.7000;0.3647;0.4188;
-89.4000;0.3630;0.4164;
-89.1000;0.3639;0.4237;
-88.8000;0.3630;0.4237;
-88.5000;0.3622;0.4066;
-88.2000;0.3606;0.3993;
-87.9000;0.3647;0.4140;
-87.6000;0.3647;0.4018;
-87.3000;0.3630;0.3896;
-87.0000;0.3622;0.3872;
-86.7000;0.3655;0.3896;
-86.4000;0.3655;0.3774;
-86.1000;0.3655;0.3823;
-85.8000;0.3622;0.3774;
-85.5000;0.3598;0.3799;
-85.2000;0.3671;0.3920;
-84.9000;0.3557;0.3555;
-84.6000;0.3647;0.3799;
-84.3000;0.3647;0.3872;
-84.0000;0.3744;0.4115;
-83.7000;0.3671;0.3920;
-83.4000;0.3622;0.3774;
-83.1000;0.3679;0.3896;
-82.8000;0.3647;0.3896;
-82.5000;0.3639;0.3896;
-82.2000;0.3639;0.3896;
-81.9000;0.3630;0.3847;
-81.6000;0.3720;0.4115;
-81.3000;0.3655;0.3920;
-81.0000;0.3639;0.3896;
-80.7000;0.3598;0.3799;
-80.4000;0.3647;0.3847;
-80.1000;0.3622;0.3726;
-79.8000;0.3622;0.3823;
-79.5000;0.3704;0.4066;
-79.2000;0.3647;0.3896;
-78.9000;0.3630;0.3847;
-78.6000;0.3639;0.3823;
-78.3000;0.3622;0.3823;
-78.0000;0.3622;0.3799;
-77.7000;0.3671;0.3872;
-77.4000;0.3647;0.3847;
-77.1000;0.3622;0.3726;
-76.8000;0.3647;0.3799;
-76.5000;0.3557;0.3628;
-76.2000;0.3582;0.3726;
-75.9000;0.3639;0.3847;
-75.6000;0.3622;0.3920;
-75.3000;0.3647;0.3872;
-75.0000;0.3687;0.3945;
-74.7000;0.3582;0.3701;
-74.4000;0.3622;0.3774;
-74.1000;0.3630;0.3799;
-73.8000;0.3639;0.3945;
-73.5000;0.3639;0.3799;
-73.2000;0.3598;0.3799;
-72.9000;0.3639;0.3896;
-72.6000;0.3639;0.3896;
-72.3000;0.3630;0.3920;
-72.0000;0.3622;0.3969;
-71.7000;0.3622;0.3993;
-71.4000;0.3630;0.4091;
-71.1000;0.3639;0.4042;
-70.8000;0.3647;0.3945;
-70.5000;0.3606;0.3774;
-70.2000;0.3630;0.3896;
-69.9000;0.3655;0.4042;
-69.6000;0.3647;0.3993;
-69.3000;0.3606;0.3872;
-69.0000;0.3655;0.3945;
-68.7000;0.3614;0.3945;
-68.4000;0.3630;0.3896;
-68.1000;0.3639;0.3847;
-67.8000;0.3630;0.3701;
-67.5000;0.3639;0.3774;
-67.2000;0.3622;0.3799;
-66.9000;0.3736;0.4164;
-66.6000;0.3557;0.3628;
-66.3000;0.3582;0.3653;
-66.0000;0.3655;0.3847;
-65.7000;0.3639;0.3872;
-65.4000;0.3655;0.3847;
-65.1000;0.3622;0.3823;
-64.8000;0.3639;0.3872;
-64.5000;0.3663;0.3969;
-64.2000;0.3647;0.3993;
-63.9000;0.3622;0.3872;
-63.6000;0.3630;0.3945;
-63.3000;0.3663;0.3993;
-63.0000;0.3663;0.3993;
-62.7000;0.3655;0.4066;
-62.4000;0.3614;0.3969;
-62.1000;0.3630;0.3945;
-61.8000;0.3630;0.3920;
-61.5000;0.3630;0.3896;
-61.2000;0.3606;0.3847;
-60.9000;0.3630;0.3993;
-60.6000;0.3720;0.4140;
-60.3000;0.3590;0.3774;
-60.0000;0.3647;0.3872;
-59.7000;0.3622;0.3823;
-59.4000;0.3647;0.3872;
-59.1000;0.3663;0.3920;
-58.8000;0.3655;0.3872;
-58.5000;0.3639;0.3847;
-58.2000;0.3622;0.3847;
-57.9000;0.3639;0.3896;
-57.6000;0.3630;0.3920;
-57.3000;0.3647;0.4042;
-57.0000;0.3647;0.3993;
-56.7000;0.3639;0.3945;
-56.4000;0.3622;0.3945;
-56.1000;0.3639;0.3945;
-55.8000;0.3647;0.3920;
-55.5000;0.3630;0.3920;
-55.2000;0.3655;0.3993;
-54.9000;0.3647;0.3969;
-54.6000;0.3582;0.3872;
-54.3000;0.3647;0.3896;
-54.0000;0.3630;0.3920;
-53.7000;0.3630;0.3896;
-53.4000;0.3582;0.3872;
-53.1000;0.3630;0.3945;
-52.8000;0.3614;0.3920;
-52.5000;0.3639;0.4042;
-52.2000;0.3647;0.4140;
-51.9000;0.3630;0.4115;
-51.6000;0.3582;0.3945;
-51.3000;0.3630;0.4042;
-51.0000;0.3639;0.4140;
-50.7000;0.3630;0.4091;
-50.4000;0.3655;0.4140;
-50.1000;0.3630;0.4091;
-49.8000;0.3671;0.4140;
-49.5000;0.3639;0.3993;
-49.2000;0.3647;0.3993;
-48.9000;0.3606;0.3872;
-48.6000;0.3614;0.4018;
-48.3000;0.3647;0.4091;
-48.0000;0.3639;0.4018;
-47.7000;0.3614;0.3872;
-47.4000;0.3582;0.3774;
-47.1000;0.3622;0.3945;
-46.8000;0.3655;0.3993;
-46.5000;0.3614;0.3920;
-46.2000;0.3655;0.3969;
-45.9000;0.3647;0.3993;
-45.6000;0.3687;0.3993;
-45.3000;0.3549;0.3653;
-45.0000;0.3647;0.3872;
-44.7000;0.3639;0.3896;
-44.4000;0.3582;0.3726;
-44.1000;0.3639;0.3872;
-43.8000;0.3647;0.3872;
-43.5000;0.3606;0.3847;
-43.2000;0.3687;0.4066;
-42.9000;0.3630;0.3993;
-42.6000;0.3622;0.3823;
-42.3000;0.3622;0.3872;
-42.0000;0.3639;0.4018;
-41.7000;0.3647;0.3969;
-41.4000;0.3630;0.4018;
-41.1000;0.3655;0.4018;
-40.8000;0.3647;0.3993;
-40.5000;0.3639;0.4018;
-40.2000;0.3639;0.3969;
-39.9000;0.3647;0.4018;
-39.6000;0.3655;0.4115;
-39.3000;0.3671;0.4188;
-39.0000;0.3671;0.4140;
-38.7000;0.3655;0.4066;
-38.4000;0.3647;0.4091;
-38.1000;0.3663;0.4066;
-37.8000;0.3647;0.4066;
-37.5000;0.3622;0.4066;
-37.2000;0.3606;0.3993;
-36.9000;0.3630;0.4066;
-36.6000;0.3639;0.4066;
-36.3000;0.3655;0.4091;
-36.0000;0.3639;0.3993;
-35.7000;0.3639;0.4018;
-35.4000;0.3647;0.3969;
-35.1000;0.3655;0.3993;
-34.8000;0.3622;0.3945;
-34.5000;0.3647;0.4066;
-34.2000;0.3647;0.4042;
-33.9000;0.3647;0.3945;
-33.6000;0.3647;0.3896;
-33.3000;0.3639;0.3872;
-33.0000;0.3655;0.3872;
-32.7000;0.3630;0.3896;
-32.4000;0.3687;0.4066;
-32.1000;0.3630;0.3920;
-31.8000;0.3639;0.3993;
-31.5000;0.3639;0.4018;
-31.2000;0.3655;0.3993;
-30.9000;0.3630;0.3969;
-30.6000;0.3647;0.3993;
-30.3000;0.3655;0.4042;
-30.0000;0.3639;0.4042;
-29.7000;0.3647;0.4018;
-29.4000;0.3647;0.4091;
-29.1000;0.3647;0.4164;
-28.8000;0.3639;0.4188;
-28.5000;0.3639;0.4237;
-28.2000;0.3647;0.4261;
-27.9000;0.3655;0.4213;
-27.6000;0.3655;0.4115;
-27.3000;0.3639;0.4164;
-27.0000;0.3639;0.4286;
-26.7000;0.3647;0.4334;
-26.4000;0.3647;0.4188;
-26.1000;0.3614;0.4115;
-25.8000;0.3639;0.4066;
-25.5000;0.3655;0.3969;
-25.2000;0.3630;0.3872;
-24.9000;0.3647;0.3847;
-24.6000;0.3622;0.3701;
-24.3000;0.3647;0.3726;
-24.0000;0.3630;0.3774;
-23.7000;0.3639;0.3847;
-23.4000;0.3655;0.3945;
-23.1000;0.3630;0.4018;
-22.8000;0.3630;0.4066;
-22.5000;0.3639;0.4042;
-22.2000;0.3630;0.3993;
-21.9000;0.3622;0.3872;
-21.6000;0.3655;0.3823;
-21.3000;0.3606;0.3653;
-21.0000;0.3647;0.3774;
-20.7000;0.3671;0.3823;
-20.4000;0.3573;0.3506;
-20.1000;0.3639;0.3653;
-19.8000;0.3622;0.3653;
-19.5000;0.3630;0.3701;
-19.2000;0.3622;0.3847;
-18.9000;0.3647;0.3872;
-18.6000;0.3630;0.3920;
-18.3000;0.3639;0.3993;
-18.0000;0.3630;0.4091;
-17.7000;0.3647;0.4213;
-17.4000;0.3606;0.3969;
-17.1000;0.3647;0.3969;
-16.8000;0.3630;0.3896;
-16.5000;0.3639;0.3847;
-16.2000;0.3647;0.3847;
-15.9000;0.3671;0.3945;
-15.6000;0.3639;0.3823;
-15.3000;0.3655;0.3896;
-15.0000;0.3606;0.3701;
-14.7000;0.3622;0.3774;
-14.4000;0.3647;0.3896;
-14.1000;0.3630;0.3920;
-13.8000;0.3614;0.3896;
-13.5000;0.3639;0.4018;
-13.2000;0.3655;0.4091;
-12.9000;0.3622;0.4018;
-12.6000;0.3647;0.4042;
-12.3000;0.3622;0.3969;
-12.0000;0.3622;0.3969;
-11.7000;0.3630;0.3945;
-11.4000;0.3647;0.3969;
-11.1000;0.3622;0.3993;
-10.8000;0.3622;0.3920;
-10.5000;0.3598;0.3945;
-10.2000;0.3679;0.4042;
-9.9000;0.3630;0.3896;
-9.6000;0.3630;0.3945;
-9.3000;0.3655;0.3969;
-9.0000;0.3639;0.3847;
-8.7000;0.3622;0.3872;
-8.4000;0.3630;0.3823;
-8.1000;0.3622;0.3799;
-7.8000;0.3630;0.3872;
-7.5000;0.3639;0.3920;
-7.2000;0.3622;0.3920;
-6.9000;0.3622;0.3920;
-6.6000;0.3614;0.3823;
-6.3000;0.3590;0.3823;
-6.0000;0.3630;0.3896;
-5.7000;0.3622;0.3969;
-5.4000;0.3630;0.4018;
-5.1000;0.3630;0.3969;
-4.8000;0.3639;0.4018;
-4.5000;0.3622;0.4042;
-4.2000;0.3647;0.4091;
-3.9000;0.3630;0.4066;
-3.6000;0.3655;0.4018;
-3.3000;0.3630;0.3896;
-3.0000;0.3655;0.3896;
-2.7000;0.3639;0.3896;
-2.4000;0.3720;0.4091;
-2.1000;0.3630;0.3945;
-1.8000;0.3606;0.3847;
-1.5000;0.3630;0.3945;
-1.2000;0.3622;0.3920;
-0.9000;0.3687;0.3993;
-0.6000;0.3655;0.3920;
-0.3000;0.3663;0.3945;
0.0000;0.3663;0.3945;
0.3000;0.3687;0.3774;
0.6000;0.3769;0.4164;
0.9000;0.3834;0.4359;
1.2000;0.3883;0.4553;
1.5000;0.3907;0.4700;
1.8000;0.3940;0.5065;
2.1000;0.3972;0.5357;
2.4000;0.3989;0.5552;
2.7000;0.4070;0.5917;
3.0000;0.4037;0.5868;
3.3000;0.4037;0.6014;
3.6000;0.4054;0.6063;
3.9000;0.4046;0.6258;
4.2000;0.4062;0.6380;
4.5000;0.4094;0.6599;
4.8000;0.4070;0.6526;
5.1000;0.4070;0.6477;
5.4000;0.4103;0.6550;
5.7000;0.4103;0.6648;
6.0000;0.4086;0.6623;
6.3000;0.4119;0.6672;
6.6000;0.4111;0.6599;
6.9000;0.4135;0.6623;
7.2000;0.4094;0.6526;
7.5000;0.4103;0.6477;
7.8000;0.4111;0.6501;
8.1000;0.4135;0.6526;
8.4000;0.4119;0.6501;
8.7000;0.4127;0.6477;
9.0000;0.4127;0.6477;
9.3000;0.4127;0.6501;
9.6000;0.4135;0.6501;
9.9000;0.4127;0.6453;
10.2000;0.4184;0.6477;
10.5000;0.4143;0.6526;
10.8000;0.4127;0.6599;
11.1000;0.4103;0.6477;
11.4000;0.4143;0.6599;
11.7000;0.4151;0.6648;
12.0000;0.4135;0.6623;
12.3000;0.4135;0.6696;
12.6000;0.4135;0.6599;
12.9000;0.4151;0.6575;
13.2000;0.4168;0.6575;
13.5000;0.4160;0.6501;
13.8000;0.4184;0.6575;
14.1000;0.4233;0.6769;
14.4000;0.4192;0.6648;
14.7000;0.4176;0.6696;
15.0000;0.4192;0.6745;
15.3000;0.4184;0.6794;
15.6000;0.4192;0.6794;
15.9000;0.4176;0.6672;
16.2000;0.4184;0.6696;
16.5000;0.4200;0.6696;
16.8000;0.4184;0.6623;
17.1000;0.4192;0.6550;
17.4000;0.4143;0.6501;
17.7000;0.4184;0.6672;
18.0000;0.4208;0.6794;
18.3000;0.4265;0.6940;
18.6000;0.4208;0.6672;
18.9000;0.4233;0.6721;
19.2000;0.4200;0.6623;
19.5000;0.4208;0.6672;
19.8000;0.4208;0.6696;
20.1000;0.4217;0.6721;
20.4000;0.4241;0.6696;
20.7000;0.4233;0.6745;
21.0000;0.4225;0.6672;
21.3000;0.4217;0.6672;
21.6000;0.4241;0.6575;
21.9000;0.4241;0.6550;
22.2000;0.4233;0.6599;
22.5000;0.4208;0.6550;
22.8000;0.4339;0.7013;
23.1000;0.4249;0.6721;
23.4000;0.4225;0.6696;
23.7000;0.4233;0.6696;
24.0000;0.4241;0.6672;
24.3000;0.4184;0.6575;
24.6000;0.4257;0.6696;
24.9000;0.4274;0.6769;
25.2000;0.4241;0.6648;
25.5000;0.4249;0.6721;
25.8000;0.4249;0.6745;
26.1000;0.4249;0.6794;
26.4000;0.4241;0.6745;
26.7000;0.4241;0.6769;
27.0000;0.4249;0.6769;
27.3000;0.4225;0.6794;
27.6000;0.4249;0.6769;
27.9000;0.4241;0.6769;
28.2000;0.4249;0.6818;
28.5000;0.4249;0.6769;
28.8000;0.4233;0.6672;
29.1000;0.4265;0.6599;
29.4000;0.4265;0.6599;
29.7000;0.4241;0.6721;
30.0000;0.4257;0.6794;
30.3000;0.4249;0.6745;
30.6000;0.4265;0.6867;
30.9000;0.4339;0.6964;
31.2000;0.4257;0.6696;
31.5000;0.4290;0.6745;
31.8000;0.4282;0.6623;
32.1000;0.4274;0.6550;
32.4000;0.4274;0.6575;
32.7000;0.4233;0.6526;
33.0000;0.4274;0.6599;
33.3000;0.4282;0.6696;
33.6000;0.4282;0.6818;
33.9000;0.4217;0.6672;
34.2000;0.4274;0.6867;
34.5000;0.4257;0.6794;
34.8000;0.4282;0.6769;
35.1000;0.4274;0.6648;
35.4000;0.4265;0.6550;
35.7000;0.4184;0.6282;
36.0000;0.4265;0.6477;
36.3000;0.4282;0.6428;
36.6000;0.4249;0.6428;
36.9000;0.4265;0.6575;
37.2000;0.4298;0.6672;
37.5000;0.4282;0.6550;
37.8000;0.4265;0.6550;
38.1000;0.4282;0.6501;
38.4000;0.4290;0.6501;
38.7000;0.4274;0.6477;
39.0000;0.4274;0.6501;
39.3000;0.4265;0.6453;
39.6000;0.4282;0.6501;
39.9000;0.4274;0.6550;
40.2000;0.4274;0.6575;
40.5000;0.4274;0.6672;
40.8000;0.4282;0.6648;
41.1000;0.4290;0.6575;
41.4000;0.4298;0.6477;
41.7000;0.4282;0.6404;
42.0000;0.4298;0.6477;
42.3000;0.4282;0.6526;
42.6000;0.4282;0.6599;
42.9000;0.4290;0.6550;
43.2000;0.4282;0.6477;
43.5000;0.4274;0.6453;
43.8000;0.4282;0.6428;
44.1000;0.4282;0.6501;
44.4000;0.4282;0.6575;
44.7000;0.4282;0.6599;
45.0000;0.4290;0.6575;
45.3000;0.4290;0.6575;
45.6000;0.4290;0.6696;
45.9000;0.4306;0.6769;
46.2000;0.4306;0.6818;
46.5000;0.4282;0.6745;
46.8000;0.4298;0.6672;
47.1000;0.4298;0.6672;
47.4000;0.4290;0.6648;
47.7000;0.4298;0.6648;
48.0000;0.4290;0.6648;
48.3000;0.4282;0.6623;
48.6000;0.4306;0.6623;
48.9000;0.4306;0.6575;
49.2000;0.4290;0.6575;
49.5000;0.4322;0.6648;
49.8000;0.4314;0.6648;
50.1000;0.4298;0.6623;
50.4000;0.4290;0.6599;
50.7000;0.4314;0.6623;
51.0000;0.4306;0.6623;
51.3000;0.4379;0.6842;
51.6000;0.4306;0.6648;
51.9000;0.4298;0.6648;
52.2000;0.4314;0.6696;
52.5000;0.4322;0.6769;
52.8000;0.4314;0.6769;
53.1000;0.4290;0.6721;
53.4000;0.4298;0.6696;
53.7000;0.4298;0.6696;
54.0000;0.4290;0.6745;
54.3000;0.4290;0.6818;
54.6000;0.4298;0.6818;
54.9000;0.4306;0.6721;
55.2000;0.4306;0.6672;
55.5000;0.4298;0.6648;
55.8000;0.4298;0.6648;
56.1000;0.4306;0.6721;
56.4000;0.4306;0.6672;
56.7000;0.4290;0.6672;
57.0000;0.4306;0.6721;
57.3000;0.4298;0.6721;
57.6000;0.4322;0.6696;
57.9000;0.4298;0.6599;
58.2000;0.4322;0.6623;
58.5000;0.4298;0.6623;
58.8000;0.4306;0.6648;
59.1000;0.4298;0.6648;
59.4000;0.4298;0.6623;
59.7000;0.4314;0.6599;
60.0000;0.4306;0.6453;
60.3000;0.4274;0.6404;
60.6000;0.4314;0.6501;
60.9000;0.4322;0.6477;
61.2000;0.4339;0.6575;
61.5000;0.4322;0.6550;
61.8000;0.4322;0.6575;
62.1000;0.4314;0.6575;
62.4000;0.4322;0.6526;
62.7000;0.4322;0.6428;
63.0000;0.4314;0.6453;
63.3000;0.4322;0.6477;
63.6000;0.4306;0.6404;
63.9000;0.4314;0.6404;
64.2000;0.4306;0.6380;
64.5000;0.4241;0.6088;
64.8000;0.4330;0.6380;
65.1000;0.4314;0.6404;
65.4000;0.4306;0.6477;
65.7000;0.4306;0.6526;
66.0000;0.4306;0.6550;
66.3000;0.4314;0.6599;
66.6000;0.4290;0.6623;
66.9000;0.4306;0.6550;
67.2000;0.4306;0.6526;
67.5000;0.4282;0.6453;
67.8000;0.4274;0.6380;
68.1000;0.4314;0.6428;
68.4000;0.4314;0.6428;
68.7000;0.4355;0.6550;
69.0000;0.4306;0.6550;
69.3000;0.4314;0.6623;
69.6000;0.4314;0.6696;
69.9000;0.4265;0.6648;
70.2000;0.4322;0.6769;
70.5000;0.4306;0.6648;
70.8000;0.4322;0.6575;
71.1000;0.4330;0.6696;
71.4000;0.4322;0.6745;
71.7000;0.4330;0.6721;
72.0000;0.4282;0.6526;
72.3000;0.4322;0.6526;
72.6000;0.4322;0.6550;
72.9000;0.4233;0.6404;
73.2000;0.4306;0.6599;
73.5000;0.4290;0.6623;
73.8000;0.4322;0.6721;
74.1000;0.4306;0.6648;
74.4000;0.4347;0.6769;
74.7000;0.4306;0.6794;
75.0000;0.4314;0.6794;
75.3000;0.4330;0.6696;
75.6000;0.4314;0.6745;
75.9000;0.4306;0.6769;
76.2000;0.4330;0.6769;
76.5000;0.4330;0.6745;
76.8000;0.4322;0.6721;
77.1000;0.4298;0.6623;
77.4000;0.4330;0.6696;
77.7000;0.4322;0.6696;
78.0000;0.4322;0.6745;
78.3000;0.4322;0.6696;
78.6000;0.4314;0.6696;
78.9000;0.4290;0.6672;
79.2000;0.4314;0.6696;
79.5000;0.4322;0.6696;
79.8000;0.4322;0.6721;
80.1000;0.4314;0.6672;
80.4000;0.4330;0.6696;
80.7000;0.4306;0.6696;
81.0000;0.4314;0.6745;
81.3000;0.4298;0.6794;
81.6000;0.4314;0.6721;
81.9000;0.4322;0.6696;
82.2000;0.4322;0.6696;
82.5000;0.4322;0.6721;
82.8000;0.4322;0.6648;
83.1000;0.4314;0.6696;
83.4000;0.4330;0.6721;
83.7000;0.4290;0.6672;
84.0000;0.4322;0.6769;
84.3000;0.4322;0.6696;
84.6000;0.4314;0.6623;
84.9000;0.4314;0.6648;
85.2000;0.4322;0.6648;
85.5000;0.4322;0.6599;
85.8000;0.4339;0.6648;
86.1000;0.4339;0.6599;
86.4000;0.4322;0.6599;
86.7000;0.4330;0.6672;
87.0000;0.4330;0.6672;
87.3000;0.4339;0.6672;
87.6000;0.4330;0.6575;
87.9000;0.4339;0.6575;
88.2000;0.4322;0.6526;
88.5000;0.4306;0.6477;
88.8000;0.4306;0.6477;
89.1000;0.4306;0.6550;
89.4000;0.4298;0.6575;
89.7000;0.4314;0.6575;
90.0000;0.4306;0.6550;
90.3000;0.4298;0.6623;
90.6000;0.4298;0.6648;
90.9000;0.4274;0.6575;
91.2000;0.4322;0.6696;
91.5000;0.4298;0.6575;
91.8000;0.4298;0.6501;
92.1000;0.4306;0.6453;
92.4000;0.4314;0.6428;
92.7000;0.4314;0.6477;
93.0000;0.4306;0.6599;
93.3000;0.4314;0.6721;
93.6000;0.4322;0.6672;
93.9000;0.4298;0.6721;
94.2000;0.4330;0.6745;
94.5000;0.4314;0.6696;
94.8000;0.4330;0.6721;
95.1000;0.4322;0.6769;
95.4000;0.4322;0.6769;
95.7000;0.4420;0.7110;
96.0000;0.4306;0.6769;
96.3000;0.4347;0.6794;
96.6000;0.4330;0.6769;
96.9000;0.4339;0.6769;
97.2000;0.4339;0.6696;
97.5000;0.4322;0.6623;
97.8000;0.4314;0.6550;
98.1000;0.4330;0.6672;
98.4000;0.4322;0.6696;
98.7000;0.4322;0.6794;
99.0000;0.4314;0.6745;
99.3000;0.4322;0.6648;
99.6000;0.4322;0.6599;
99.9000;0.4306;0.6648;
100.2000;0.4314;0.6672;
100.5000;0.4330;0.6672;
100.8000;0.4330;0.6696;
101.1000;0.4314;0.6623;
101.4000;0.4306;0.6623;
101.7000;0.4314;0.6648;
102.0000;0.4339;0.6672;
102.3000;0.4339;0.6818;
102.6000;0.4322;0.6648;
102.9000;0.4347;0.6721;
103.2000;0.4330;0.6696;
103.5000;0.4339;0.6696;
103.8000;0.4339;0.6648;
104.1000;0.4428;0.6842;
104.4000;0.4241;0.6307;
104.7000;0.4330;0.6623;
105.0000;0.4306;0.6526;
105.3000;0.4322;0.6623;
105.6000;0.4314;0.6696;
105.9000;0.4363;0.6745;
106.2000;0.4322;0.6575;
106.5000;0.4355;0.6599;
106.8000;0.4347;0.6526;
107.1000;0.4347;0.6477;
107.4000;0.4330;0.6453;
107.7000;0.4339;0.6404;
108.0000;0.4330;0.6428;
108.3000;0.4339;0.6501;
108.6000;0.4347;0.6550;
108.9000;0.4330;0.6575;
109.2000;0.4322;0.6623;
109.5000;0.4355;0.6672;
109.8000;0.4306;0.6623;
110.1000;0.4330;0.6599;
110.4000;0.4322;0.6526;
110.7000;0.4330;0.6623;
111.0000;0.4330;0.6550;
111.3000;0.4330;0.6575;
111.6000;0.4282;0.6477;
111.9000;0.4330;0.6672;
112.2000;0.4322;0.6648;
112.5000;0.4306;0.6672;
112.8000;0.4322;0.6672;
113.1000;0.4339;0.6721;
113.4000;0.4371;0.6696;
113.7000;0.4347;0.6575;
114.0000;0.4355;0.6550;
114.3000;0.4322;0.6526;
114.6000;0.4330;0.6575;
114.9000;0.4330;0.6550;
115.2000;0.4330;0.6526;
115.5000;0.4330;0.6599;
115.8000;0.4322;0.6550;
116.1000;0.4339;0.6599;
116.4000;0.4322;0.6599;
116.7000;0.4371;0.6696;
117.0000;0.4339;0.6575;
117.3000;0.4314;0.6550;
117.6000;0.4330;0.6623;
117.9000;0.4347;0.6648;
118.2000;0.4314;0.6599;
118.5000;0.4322;0.6623;
118.8000;0.4355;0.6842;
119.1000;0.4298;0.6696;
119.4000;0.4330;0.6672;
119.7000;0.4412;0.6891;
120.0000;0.4314;0.6721;
120.3000;0.4322;0.6769;
120.6000;0.4322;0.6745;
120.9000;0.4330;0.6721;
121.2000;0.4322;0.6648;
121.5000;0.4306;0.6575;
121.8000;0.4322;0.6550;
122.1000;0.4314;0.6526;
122.4000;0.4330;0.6501;
122.7000;0.4330;0.6428;
123.0000;0.4314;0.6453;
123.3000;0.4330;0.6550;
123.6000;0.4330;0.6550;
123.9000;0.4347;0.6575;
124.2000;0.4322;0.6550;
124.5000;0.4322;0.6550;
124.8000;0.4257;0.6355;
125.1000;0.4330;0.6599;
125.4000;0.4322;0.6599;
125.7000;0.4314;0.6623;
126.0000;0.4330;0.6623;
126.3000;0.4322;0.6501;
126.6000;0.4306;0.6453;
126.9000;0.4306;0.6526;
127.2000;0.4330;0.6623;
127.5000;0.4330;0.6623;
127.8000;0.4339;0.6575;
128.1000;0.4339;0.6599;
128.4000;0.4339;0.6623;
128.7000;0.4314;0.6550;
129.0000;0.4322;0.6575;
129.3000;0.4322;0.6501;
129.6000;0.4339;0.6526;
129.9000;0.4249;0.6282;
130.2000;0.4322;0.6477;
130.5000;0.4314;0.6453;
130.8000;0.4322;0.6477;
131.1000;0.4322;0.6575;
131.4000;0.4314;0.6453;
131.7000;0.4290;0.6355;
132.0000;0.4339;0.6453;
132.3000;0.4322;0.6404;
132.6000;0.4339;0.6428;
132.9000;0.4347;0.6477;
133.2000;0.4322;0.6404;
133.5000;0.4314;0.6331;
133.8000;0.4314;0.6331;
134.1000;0.4330;0.6234;
134.4000;0.4347;0.6307;
134.7000;0.4314;0.6331;
135.0000;0.4322;0.6380;
135.3000;0.4330;0.6453;
135.6000;0.4330;0.6526;
135.9000;0.4322;0.6526;
136.2000;0.4322;0.6575;
136.5000;0.4314;0.6550;
136.8000;0.4322;0.6623;
137.1000;0.4330;0.6575;
137.4000;0.4322;0.6550;
137.7000;0.4339;0.6623;
138.0000;0.4339;0.6599;
138.3000;0.4322;0.6526;
138.6000;0.4339;0.6599;
138.9000;0.4330;0.6696;
139.2000;0.4339;0.6696;
139.5000;0.4322;0.6599;
139.8000;0.4298;0.6526;
140.1000;0.4322;0.6550;
140.4000;0.4347;0.6526;
140.7000;0.4347;0.6477;
141.0000;0.4330;0.6428;
141.3000;0.4339;0.6453;
141.6000;0.4347;0.6477;
141.9000;0.4314;0.6477;
142.2000;0.4330;0.6501;
142.5000;0.4339;0.6428;
142.8000;0.4347;0.6428;
143.1000;0.4339;0.6307;
143.4000;0.4330;0.6331;
143.7000;0.4330;0.6404;
144.0000;0.4330;0.6453;
144.3000;0.4355;0.6428;
144.6000;0.4339;0.6355;
144.9000;0.4339;0.6404;
145.2000;0.4339;0.6404;
145.5000;0.4314;0.6428;
145.8000;0.4339;0.6501;
146.1000;0.4330;0.6477;
146.4000;0.4330;0.6575;
146.7000;0.4330;0.6550;
147.0000;0.4330;0.6575;
147.3000;0.4298;0.6453;
147.6000;0.4330;0.6477;
147.9000;0.4274;0.6380;
148.2000;0.4330;0.6550;
148.5000;0.4428;0.6818;
148.8000;0.4298;0.6428;
149.1000;0.4339;0.6501;
149.4000;0.4339;0.6526;
149.7000;0.4330;0.6501;
150.0000;0.4274;0.6428;
150.3000;0.4330;0.6696;
150.6000;0.4347;0.6648;
150.9000;0.4404;0.6794;
151.2000;0.4330;0.6550;
151.5000;0.4314;0.6526;
151.8000;0.4339;0.6575;
152.1000;0.4330;0.6526;
152.4000;0.4339;0.6575;
152.7000;0.4339;0.6526;
153.0000;0.4339;0.6501;
153.3000;0.4347;0.6501;
153.6000;0.4282;0.6380;
153.9000;0.4322;0.6477;
154.2000;0.4330;0.6477;
154.5000;0.4412;0.6745;
154.8000;0.4355;0.6648;
155.1000;0.4330;0.6550;
155.4000;0.4339;0.6526;
155.7000;0.4322;0.6599;
156.0000;0.4322;0.6550;
156.3000;0.4306;0.6550;
156.6000;0.4314;0.6599;
156.9000;0.4330;0.6599;
157.2000;0.4314;0.6575;
157.5000;0.4314;0.6526;
157.8000;0.4330;0.6477;
158.1000;0.4330;0.6453;
158.4000;0.4339;0.6428;
158.7000;0.4339;0.6477;
159.0000;0.4322;0.6501;
159.3000;0.4330;0.6501;
159.6000;0.4322;0.6501;
159.9000;0.4339;0.6550;
160.2000;0.4314;0.6477;
160.5000;0.4314;0.6501;
160.8000;0.4306;0.6501;
161.1000;0.4314;0.6648;
161.4000;0.4314;0.6696;
161.7000;0.4339;0.6745;
162.0000;0.4330;0.6672;
162.3000;0.4330;0.6648;
162.6000;0.4330;0.6623;
162.9000;0.4330;0.6599;
163.2000;0.4339;0.6599;
163.5000;0.4322;0.6648;
163.8000;0.4265;0.6550;
164.1000;0.4322;0.6696;
164.4000;0.4330;0.6623;
164.7000;0.4322;0.6623;
165.0000;0.4330;0.6599;
165.3000;0.4314;0.6526;
165.6000;0.4339;0.6648;
165.9000;0.4314;0.6648;
166.2000;0.4322;0.6575;
166.5000;0.4322;0.6526;
166.8000;0.4322;0.6526;
167.1000;0.4282;0.6331;
167.4000;0.4339;0.6550;
167.7000;0.4322;0.6575;
168.0000;0.4330;0.6575;
168.3000;0.4339;0.6575;
168.6000;0.4314;0.6550;
168.9000;0.4330;0.6623;
169.2000;0.4339;0.6623;
169.5000;0.4363;0.6648;
169.8000;0.4330;0.6550;
170.1000;0.4322;0.6623;
170.4000;0.4265;0.6477;
170.7000;0.4314;0.6550;
171.0000;0.4322;0.6477;
171.3000;0.4314;0.6453;
171.6000;0.4282;0.6404;
171.9000;0.4306;0.6526;
172.2000;0.4330;0.6550;
172.5000;0.4306;0.6501;
172.8000;0.4314;0.6599;
173.1000;0.4330;0.6672;
173.4000;0.4330;0.6696;
173.7000;0.4322;0.6794;
174.0000;0.4330;0.6721;
174.3000;0.4322;0.6599;
174.6000;0.4339;0.6599;
174.9000;0.4339;0.6599;
175.2000;0.4322;0.6477;
175.5000;0.4314;0.6526;
175.8000;0.4339;0.6550;
176.1000;0.4322;0.6550;
176.4000;0.4322;0.6501;
176.7000;0.4347;0.6599;
177.0000;0.4339;0.6575;
177.3000;0.4339;0.6575;
177.6000;0.4330;0.6575;
177.9000;0.4322;0.6575;
178.2000;0.4330;0.6623;
178.5000;0.4355;0.6696;
178.8000;0.4330;0.6623;
179.1000;0.4339;0.6648;
179.4000;0.4339;0.6648;
179.7000;0.4347;0.6672;
180.0000;0.4339;0.6672;
180.3000;0.4330;0.6696;
180.6000;0.4379;0.6745;
180.9000;0.4322;0.6550;
181.2000;0.4322;0.6526;
181.5000;0.4298;0.6477;
181.8000;0.4306;0.6526;
182.1000;0.4322;0.6526;
182.4000;0.4330;0.6575;
182.7000;0.4322;0.6477;
183.0000;0.4330;0.6428;
183.3000;0.4330;0.6404;
183.6000;0.4322;0.6428;
183.9000;0.4330;0.6477;
184.2000;0.4322;0.6501;
184.5000;0.4330;0.6575;
184.8000;0.4322;0.6623;
185.1000;0.4339;0.6648;
185.4000;0.4363;0.6575;
185.7000;0.4339;0.6501;
186.0000;0.4347;0.6477;
186.3000;0.4330;0.6453;
186.6000;0.4322;0.6501;
186.9000;0.4322;0.6501;
187.2000;0.4330;0.6477;
187.5000;0.4330;0.6428;
187.8000;0.4339;0.6599;
188.1000;0.4339;0.6623;
188.4000;0.4322;0.6623;
188.7000;0.4347;0.6648;
189.0000;0.4274;0.6404;
189.3000;0.4355;0.6599;
189.6000;0.4339;0.6477;
189.9000;0.4379;0.6550;
190.2000;0.4330;0.6477;
190.5000;0.4347;0.6428;
190.8000;0.4347;0.6453;
191.1000;0.4330;0.6404;
191.4000;0.4347;0.6404;
191.7000;0.4330;0.6355;
192.0000;0.4274;0.6234;
192.3000;0.4330;0.6453;
192.6000;0.4355;0.6501;
192.9000;0.4355;0.6501;
193.2000;0.4306;0.6404;
193.5000;0.4371;0.6477;
193.8000;0.4330;0.6404;
194.1000;0.4347;0.6428;
194.4000;0.4363;0.6526;
194.7000;0.4322;0.6453;
195.0000;0.4282;0.6307;
195.3000;0.4322;0.6428;
195.6000;0.4314;0.6453;
195.9000;0.4282;0.6307;
196.2000;0.4322;0.6453;
196.5000;0.4322;0.6428;
196.8000;0.4314;0.6380;
197.1000;0.4249;0.6185;
197.4000;0.4322;0.6380;
197.7000;0.4347;0.6453;
198.0000;0.4322;0.6404;
198.3000;0.4330;0.6331;
198.6000;0.4330;0.6355;
198.9000;0.4347;0.6404;
199.2000;0.4339;0.6380;
199.5000;0.4330;0.6307;
199.8000;0.4314;0.6234;
200.1000;0.4339;0.6282;
200.4000;0.4347;0.6355;
200.7000;0.4347;0.6380;
201.0000;0.4339;0.6307;
201.3000;0.4330;0.6307;
201.6000;0.4347;0.6355;
201.9000;0.4330;0.6307;
202.2000;0.4330;0.6355;
202.5000;0.4339;0.6453;
202.8000;0.4322;0.6428;
203.1000;0.4339;0.6428;
203.4000;0.4314;0.6477;
203.7000;0.4298;0.6477;
204.0000;0.4363;0.6599;
204.3000;0.4339;0.6526;
204.6000;0.4363;0.6672;
204.9000;0.4322;0.6575;
205.2000;0.4330;0.6648;
205.5000;0.4355;0.6696;
205.8000;0.4355;0.6599;
206.1000;0.4347;0.6648;
206.4000;0.4330;0.6672;
206.7000;0.4347;0.6696;
207.0000;0.4339;0.6623;
207.3000;0.4339;0.6526;
207.6000;0.4314;0.6501;
207.9000;0.4330;0.6526;
208.2000;0.4314;0.6526;
208.5000;0.4330;0.6575;
208.8000;0.4330;0.6477;
209.1000;0.4339;0.6404;
209.4000;0.4347;0.6477;
209.7000;0.4322;0.6550;
210.0000;0.4355;0.6648;
210.3000;0.4330;0.6575;
210.6000;0.4355;0.6575;
210.9000;0.4330;0.6428;
211.2000;0.4298;0.6282;
211.5000;0.4330;0.6307;
211.8000;0.4339;0.6355;
212.1000;0.4339;0.6428;
212.4000;0.4330;0.6404;
212.7000;0.4306;0.6380;
213.0000;0.4330;0.6380;
213.3000;0.4314;0.6380;
213.6000;0.4330;0.6453;
213.9000;0.4330;0.6453;
214.2000;0.4330;0.6501;
214.5000;0.4355;0.6477;
214.8000;0.4330;0.6380;
215.1000;0.4355;0.6282;
215.4000;0.4330;0.6282;
215.7000;0.4330;0.6258;
216.0000;0.4298;0.6136;
216.3000;0.4330;0.6088;
216.6000;0.4322;0.6063;
216.9000;0.4339;0.6136;
217.2000;0.4339;0.6185;
217.5000;0.4330;0.6234;
217.8000;0.4330;0.6234;
218.1000;0.4330;0.6161;
218.4000;0.4282;0.6088;
218.7000;0.4330;0.6258;
219.0000;0.4322;0.6307;
219.3000;0.4387;0.6428;
219.6000;0.4322;0.6282;
219.9000;0.4322;0.6331;
220.2000;0.4314;0.6404;
220.5000;0.4322;0.6380;
220.8000;0.4314;0.6380;
221.1000;0.4322;0.6428;
221.4000;0.4347;0.6526;
221.7000;0.4282;0.6331;
222.0000;0.4330;0.6428;
222.3000;0.4322;0.6428;
222.6000;0.4330;0.6404;
222.9000;0.4339;0.6453;
223.2000;0.4330;0.6501;
223.5000;0.4347;0.6526;
223.8000;0.4322;0.6453;
224.1000;0.4330;0.6428;
224.4000;0.4314;0.6355;
224.7000;0.4330;0.6404;
225.0000;0.4322;0.6428;
225.3000;0.4339;0.6428;
225.6000;0.4322;0.6477;
225.9000;0.4330;0.6550;
226.2000;0.4339;0.6550;
226.5000;0.4363;0.6599;
226.8000;0.4322;0.6550;
227.1000;0.4330;0.6623;
227.4000;0.4347;0.6672;
227.7000;0.4306;0.6550;
228.0000;0.4330;0.6599;
228.3000;0.4314;0.6550;
228.6000;0.4274;0.6477;
228.9000;0.4322;0.6550;
229.2000;0.4339;0.6623;
229.5000;0.4347;0.6599;
229.8000;0.4322;0.6575;
230.1000;0.4339;0.6575;
230.4000;0.4322;0.6477;
230.7000;0.4330;0.6526;
231.0000;0.4322;0.6477;
231.3000;0.4322;0.6477;
231.6000;0.4339;0.6526;
231.9000;0.4314;0.6550;
232.2000;0.4330;0.6648;
232.5000;0.4330;0.6745;
232.8000;0.4306;0.6745;
233.1000;0.4322;0.6745;
233.4000;0.4322;0.6599;
233.7000;0.4314;0.6550;
234.0000;0.4322;0.6599;
234.3000;0.4322;0.6623;
234.6000;0.4330;0.6648;
234.9000;0.4330;0.6550;
235.2000;0.4322;0.6453;
235.5000;0.4330;0.6428;
235.8000;0.4322;0.6428;
236.1000;0.4330;0.6380;
236.4000;0.4339;0.6355;
236.7000;0.4330;0.6282;
237.0000;0.4322;0.6258;
237.3000;0.4330;0.6307;
237.6000;0.4322;0.6307;
237.9000;0.4322;0.6331;
238.2000;0.4347;0.6331;
238.5000;0.4339;0.6258;
238.8000;0.4322;0.6307;
239.1000;0.4314;0.6380;
239.4000;0.4339;0.6453;
239.7000;0.4330;0.6526;
240.0000;0.4322;0.6575;
240.3000;0.4371;0.6623;
240.6000;0.4306;0.6550;
240.9000;0.4355;0.6575;
241.2000;0.4314;0.6575;
241.5000;0.4314;0.6575;
241.8000;0.4314;0.6575;
242.1000;0.4314;0.6648;
242.4000;0.4306;0.6526;
242.7000;0.4314;0.6428;
243.0000;0.4339;0.6428;
243.3000;0.4339;0.6501;
243.6000;0.4339;0.6575;
243.9000;0.4371;0.6769;
244.2000;0.4322;0.6623;
244.5000;0.4330;0.6696;
244.8000;0.4412;0.6818;
245.1000;0.4330;0.6599;
245.4000;0.4322;0.6501;
245.7000;0.4355;0.6648;
246.0000;0.4347;0.6599;
246.3000;0.4371;0.6599;
246.6000;0.4322;0.6428;
246.9000;0.4330;0.6526;
247.2000;0.4322;0.6453;
247.5000;0.4314;0.6501;
247.8000;0.4322;0.6526;
248.1000;0.4330;0.6550;
248.4000;0.4444;0.6818;
248.7000;0.4282;0.6501;
249.0000;0.4330;0.6648;
249.3000;0.4339;0.6599;
249.6000;0.4322;0.6526;
249.9000;0.4339;0.6599;
250.2000;0.4330;0.6648;
250.5000;0.4339;0.6672;
250.8000;0.4339;0.6575;
251.1000;0.4347;0.6575;
251.4000;0.4298;0.6550;
251.7000;0.4339;0.6672;
252.0000;0.4347;0.6672;
252.3000;0.4298;0.6575;
252.6000;0.4322;0.6721;
252.9000;0.4306;0.6672;
253.2000;0.4322;0.6745;
253.5000;0.4330;0.6842;
253.8000;0.4314;0.6842;
254.1000;0.4322;0.6794;
254.4000;0.4330;0.6794;
254.7000;0.4330;0.6794;
255.0000;0.4347;0.6721;
255.3000;0.4339;0.6696;
255.6000;0.4322;0.6696;
255.9000;0.4355;0.6769;
256.2000;0.4371;0.6769;
256.5000;0.4322;0.6623;
256.8000;0.4347;0.6648;
257.1000;0.4322;0.6648;
257.4000;0.4347;0.6721;
257.7000;0.4330;0.6745;
258.0000;0.4314;0.6648;
258.3000;0.4322;0.6721;
258.6000;0.4314;0.6745;
258.9000;0.4322;0.6769;
259.2000;0.4355;0.6794;
259.5000;0.4314;0.6745;
259.8000;0.4322;0.6745;
260.1000;0.4322;0.6696;
260.4000;0.4314;0.6477;
260.7000;0.4322;0.6428;
261.0000;0.4330;0.6453;
261.3000;0.4339;0.6428;
261.6000;0.4347;0.6501;
261.9000;0.4339;0.6428;
262.2000;0.4322;0.6453;
262.5000;0.4330;0.6477;
262.8000;0.4355;0.6550;
263.1000;0.4339;0.6599;
263.4000;0.4330;0.6575;
263.7000;0.4298;0.6404;
264.0000;0.4387;0.6526;
264.3000;0.4339;0.6380;
264.6000;0.4290;0.6234;
264.9000;0.4322;0.6428;
265.2000;0.4371;0.6526;
265.5000;0.4436;0.6769;
265.8000;0.4330;0.6575;
266.1000;0.4339;0.6599;
266.4000;0.4330;0.6575;
266.7000;0.4339;0.6599;
267.0000;0.4314;0.6477;
267.3000;0.4347;0.6526;
267.6000;0.4314;0.6526;
267.9000;0.4355;0.6672;
268.2000;0.4339;0.6696;
268.5000;0.4371;0.6891;
268.8000;0.4290;0.6599;
269.1000;0.4330;0.6648;
269.4000;0.4339;0.6623;
269.7000;0.4347;0.6575;
270.0000;0.4339;0.6501;
270.3000;0.4274;0.6428;
270.6000;0.4314;0.6575;
270.9000;0.4322;0.6550;
271.2000;0.4330;0.6550;
271.5000;0.4339;0.6477;
271.8000;0.4330;0.6477;
272.1000;0.4330;0.6453;
272.4000;0.4330;0.6428;
272.7000;0.4330;0.6404;
273.0000;0.4330;0.6331;
273.3000;0.4322;0.6404;
273.6000;0.4347;0.6526;
273.9000;0.4330;0.6501;
274.2000;0.4339;0.6501;
274.5000;0.4339;0.6501;
274.8000;0.4330;0.6526;
275.1000;0.4347;0.6623;
275.4000;0.4339;0.6672;
275.7000;0.4330;0.6672;
276.0000;0.4330;0.6623;
276.3000;0.4314;0.6575;
276.6000;0.4306;0.6575;
276.9000;0.4314;0.6575;
277.2000;0.4322;0.6599;
277.5000;0.4330;0.6575;
277.8000;0.4314;0.6550;
278.1000;0.4298;0.6526;
278.4000;0.4339;0.6526;
278.7000;0.4363;0.6526;
279.0000;0.4322;0.6477;
279.3000;0.4347;0.6550;
279.6000;0.4330;0.6550;
279.9000;0.4257;0.6380;
280.2000;0.4322;0.6599;
280.5000;0.4339;0.6696;
280.8000;0.4339;0.6672;
281.1000;0.4355;0.6672;
281.4000;0.4330;0.6648;
281.7000;0.4355;0.6769;
282.0000;0.4339;0.6696;
282.3000;0.4298;0.6623;
282.6000;0.4282;0.6599;
282.9000;0.4330;0.6575;
283.2000;0.4322;0.6575;
283.5000;0.4379;0.6696;
283.8000;0.4274;0.6453;
284.1000;0.4330;0.6599;
284.4000;0.4330;0.6648;
284.7000;0.4330;0.6648;
285.0000;0.4330;0.6648;
285.3000;0.4339;0.6696;
285.6000;0.4330;0.6575;
285.9000;0.4290;0.6331;
286.2000;0.4330;0.6355;
286.5000;0.4347;0.6380;
286.8000;0.4322;0.6307;
287.1000;0.4339;0.6355;
287.4000;0.4330;0.6258;
287.7000;0.4339;0.6307;
288.0000;0.4330;0.6380;
288.3000;0.4339;0.6428;
288.6000;0.4330;0.6404;
288.9000;0.4404;0.6648;
289.2000;0.4322;0.6380;
289.5000;0.4322;0.6428;
289.8000;0.4330;0.6453;
290.1000;0.4322;0.6404;
290.4000;0.4330;0.6404;
290.7000;0.4339;0.6307;
291.0000;0.4314;0.6258;
291.3000;0.4330;0.6234;
291.6000;0.4314;0.6258;
291.9000;0.4330;0.6355;
292.2000;0.4306;0.6282;
292.5000;0.4322;0.6307;
292.8000;0.4322;0.6282;
293.1000;0.4330;0.6307;
293.4000;0.4314;0.6282;
293.7000;0.4322;0.6258;
294.0000;0.4314;0.6234;
294.3000;0.4355;0.6331;
294.6000;0.4339;0.6234;
294.9000;0.4322;0.6258;
295.2000;0.4371;0.6453;
295.5000;0.4330;0.6404;
295.8000;0.4339;0.6428;
296.1000;0.4339;0.6453;
296.4000;0.4363;0.6501;
296.7000;0.4347;0.6453;
297.0000;0.4322;0.6477;
297.3000;0.4339;0.6526;
297.6000;0.4330;0.6380;
297.9000;0.4330;0.6428;
298.2000;0.4330;0.6428;
298.5000;0.4371;0.6477;
298.8000;0.4339;0.6404;
299.1000;0.4322;0.6477;
299.4000;0.4330;0.6575;
299.7000;0.4363;0.6648;
300.0000;0.4347;0.6526;
300.3000;0.4339;0.6477;
300.6000;0.4322;0.6501;
300.9000;0.4347;0.6696;
301.2000;0.4274;0.6550;
301.5000;0.4339;0.6672;
301.8000;0.4322;0.6672;
302.1000;0.4322;0.6623;
302.4000;0.4322;0.6623;
302.7000;0.4339;0.6623;
303.0000;0.4339;0.6501;
303.3000;0.4322;0.6599;
303.6000;0.4330;0.6648;
303.9000;0.4306;0.6599;
304.2000;0.4322;0.6623;
304.5000;0.4314;0.6599;
304.8000;0.4371;0.6696;
305.1000;0.4330;0.6550;
305.4000;0.4322;0.6526;
305.7000;0.4339;0.6501;
306.0000;0.4363;0.6672;
306.3000;0.4347;0.6623;
306.6000;0.4330;0.6575;
306.9000;0.4322;0.6526;
307.2000;0.4330;0.6550;
307.5000;0.4330;0.6501;
307.8000;0.4322;0.6428;
308.1000;0.4322;0.6453;
308.4000;0.4314;0.6477;
308.7000;0.4330;0.6550;
309.0000;0.4322;0.6453;
309.3000;0.4314;0.6428;
309.6000;0.4347;0.6477;
309.9000;0.4330;0.6477;
310.2000;0.4322;0.6477;
310.5000;0.4347;0.6428;
310.8000;0.4322;0.6428;
311.1000;0.4314;0.6307;
311.4000;0.4379;0.6428;
311.7000;0.4330;0.6380;
312.0000;0.4330;0.6355;
312.3000;0.4339;0.6380;
312.6000;0.4347;0.6477;
312.9000;0.4314;0.6526;
313.2000;0.4314;0.6575;
313.5000;0.4314;0.6575;
313.8000;0.4322;0.6623;
314.1000;0.4322;0.6599;
314.4000;0.4387;0.6672;
314.7000;0.4314;0.6453;
315.0000;0.4330;0.6453;
315.3000;0.4363;0.6477;
315.6000;0.4322;0.6380;
315.9000;0.4387;0.6477;
316.2000;0.4322;0.6380;
316.5000;0.4282;0.6258;
316.8000;0.4322;0.6428;
317.1000;0.4396;0.6575;
317.4000;0.4322;0.6575;
317.7000;0.4330;0.6672;
318.0000;0.4330;0.6745;
318.3000;0.4314;0.6696;
318.6000;0.4322;0.6745;
318.9000;0.4330;0.6623;
319.2000;0.4314;0.6623;
319.5000;0.4339;0.6672;
319.8000;0.4347;0.6648;
320.1000;0.4314;0.6550;
320.4000;0.4314;0.6428;
320.7000;0.4412;0.6696;
321.0000;0.4322;0.6550;
321.3000;0.4339;0.6575;
321.6000;0.4347;0.6501;
321.9000;0.4322;0.6477;
322.2000;0.4322;0.6550;
322.5000;0.4330;0.6501;
322.8000;0.4330;0.6453;
323.1000;0.4339;0.6453;
323.4000;0.4322;0.6428;
323.7000;0.4330;0.6501;
324.0000;0.4339;0.6575;
324.3000;0.4371;0.6575;
324.6000;0.4306;0.6477;
324.9000;0.4322;0.6501;
325.2000;0.4339;0.6501;
325.5000;0.4306;0.6526;
325.8000;0.4314;0.6550;
326.1000;0.4339;0.6526;
326.4000;0.4355;0.6428;
326.7000;0.4330;0.6380;
327.0000;0.4298;0.6355;
327.3000;0.4355;0.6575;
327.6000;0.4330;0.6648;
327.9000;0.4322;0.6599;
328.2000;0.4314;0.6550;
328.5000;0.4330;0.6477;
328.8000;0.4241;0.6258;
329.1000;0.4330;0.6404;
329.4000;0.4339;0.6404;
329.7000;0.4314;0.6282;
330.0000;0.4330;0.6355;
330.3000;0.4322;0.6453;
330.6000;0.4306;0.6477;
330.9000;0.4322;0.6599;
331.2000;0.4330;0.6672;
331.5000;0.4347;0.6623;
331.8000;0.4330;0.6599;
332.1000;0.4339;0.6501;
332.4000;0.4298;0.6428;
332.7000;0.4330;0.6550;
333.0000;0.4322;0.6599;
333.3000;0.4363;0.6721;
333.6000;0.4314;0.6721;
333.9000;0.4339;0.6721;
334.2000;0.4330;0.6623;
334.5000;0.4387;0.6648;
334.8000;0.4322;0.6526;
335.1000;0.4339;0.6526;
335.4000;0.4322;0.6477;
335.7000;0.4322;0.6575;
336.0000;0.4330;0.6575;
336.3000;0.4330;0.6526;
336.6000;0.4363;0.6623;
336.9000;0.4290;0.6331;
337.2000;0.4322;0.6428;
337.5000;0.4330;0.6477;
337.8000;0.4322;0.6501;
338.1000;0.4314;0.6477;
338.4000;0.4249;0.6331;
338.7000;0.4322;0.6526;
339.0000;0.4314;0.6453;
339.3000;0.4339;0.6331;
339.6000;0.4314;0.6234;
339.9000;0.4306;0.6209;
340.2000;0.4322;0.6258;
340.5000;0.4339;0.6234;
340.8000;0.4322;0.6234;
341.1000;0.4322;0.6307;
341.4000;0.4298;0.6161;
341.7000;0.4330;0.6331;
342.0000;0.4330;0.6331;
342.3000;0.4306;0.6307;
342.6000;0.4322;0.6428;
342.9000;0.4330;0.6404;
343.2000;0.4322;0.6404;
343.5000;0.4306;0.6355;
343.8000;0.4314;0.6380;
344.1000;0.4339;0.6453;
344.4000;0.4322;0.6380;
344.7000;0.4257;0.6234;
345.0000;0.4322;0.6428;
345.3000;0.4322;0.6453;
345.6000;0.4330;0.6526;
345.9000;0.4322;0.6501;
346.2000;0.4339;0.6599;
346.5000;0.4314;0.6526;
346.8000;0.4330;0.6526;
347.1000;0.4330;0.6477;
347.4000;0.4314;0.6550;
347.7000;0.4339;0.6623;
348.0000;0.4306;0.6526;
348.3000;0.4322;0.6696;
348.6000;0.4314;0.6696;
348.9000;0.4330;0.6721;
349.2000;0.4347;0.6672;
349.5000;0.4396;0.6745;
349.8000;0.4314;0.6599;
350.1000;0.4314;0.6599;
350.4000;0.4306;0.6575;
350.7000;0.4314;0.6501;
351.0000;0.4322;0.6477;
351.3000;0.4314;0.6453;
351.6000;0.4322;0.6501;
351.9000;0.4330;0.6526;
352.2000;0.4330;0.6453;
352.5000;0.4404;0.6648;
352.8000;0.4298;0.6355;
353.1000;0.4330;0.6428;
353.4000;0.4330;0.6453;
353.7000;0.4314;0.6380;
354.0000;0.4330;0.6355;
354.3000;0.4322;0.6355;
354.6000;0.4330;0.6526;
354.9000;0.4330;0.6526;
355.2000;0.4274;0.6380;
355.5000;0.4330;0.6404;
355.8000;0.4339;0.6428;
356.1000;0.4322;0.6380;
356.4000;0.4339;0.6477;
356.7000;0.4306;0.6404;
357.0000;0.4330;0.6404;
357.3000;0.4330;0.6526;
357.6000;0.4355;0.6526;
357.9000;0.4282;0.6307;
358.2000;0.4314;0.6355;
358.5000;0.4420;0.6745;
358.8000;0.4330;0.6501;
359.1000;0.4347;0.6526;
359.4000;0.4290;0.6380;
359.7000;0.4330;0.6477;
360.0000;0.4322;0.6501;
360.3000;0.4330;0.6501;
360.6000;0.4314;0.6428;
360.9000;0.4257;0.6282;
361.2000;0.4355;0.6526;
361.5000;0.4322;0.6428;
361.8000;0.4330;0.6380;
362.1000;0.4379;0.6526;
362.4000;0.4379;0.6477;
362.7000;0.4355;0.6355;
363.0000;0.4347;0.6307;
363.3000;0.4330;0.6331;
363.6000;0.4347;0.6477;
363.9000;0.4355;0.6526;
364.2000;0.4330;0.6477;
364.5000;0.4339;0.6575;
364.8000;0.4363;0.6648;
365.1000;0.4322;0.6526;
365.4000;0.4314;0.6526;
365.7000;0.4347;0.6550;
366.0000;0.4330;0.6501;
366.3000;0.4330;0.6501;
366.6000;0.4314;0.6453;
366.9000;0.4322;0.6477;
367.2000;0.4322;0.6501;
367.5000;0.4330;0.6526;
367.8000;0.4298;0.6453;
368.1000;0.4339;0.6477;
368.4000;0.4339;0.6526;
368.7000;0.4379;0.6648;
369.0000;0.4314;0.6526;
369.3000;0.4330;0.6526;
369.6000;0.4379;0.6623;
369.9000;0.4330;0.6453;
370.2000;0.4412;0.6623;
370.5000;0.4322;0.6477;
370.8000;0.4339;0.6526;
371.1000;0.4306;0.6428;
371.4000;0.4322;0.6550;
371.7000;0.4322;0.6575;
372.0000;0.4314;0.6501;
372.3000;0.4330;0.6526;
372.6000;0.4339;0.6623;
372.9000;0.4298;0.6501;
373.2000;0.4322;0.6575;
373.5000;0.4322;0.6550;
373.8000;0.4339;0.6575;
374.1000;0.4298;0.6477;
374.4000;0.4363;0.6623;
374.7000;0.4322;0.6550;
375.0000;0.4322;0.6575;
375.3000;0.4306;0.6477;
375.6000;0.4306;0.6526;
375.9000;0.4314;0.6550;
376.2000;0.4322;0.6623;
376.5000;0.4322;0.6575;
376.8000;0.4322;0.6501;
377.1000;0.4314;0.6428;
377.4000;0.4322;0.6477;
377.7000;0.4379;0.6575;
378.0000;0.4330;0.6526;
378.3000;0.4314;0.6477;
378.6000;0.4330;0.6575;
378.9000;0.4322;0.6575;
379.2000;0.4322;0.6550;
379.5000;0.4322;0.6526;
379.8000;0.4322;0.6550;
380.1000;0.4322;0.6526;
380.4000;0.4322;0.6453;
380.7000;0.4322;0.6477;
381.0000;0.4322;0.6453;
381.3000;0.4322;0.6526;
381.6000;0.4306;0.6501;
381.9000;0.4314;0.6501;
382.2000;0.4339;0.6648;
382.5000;0.4347;0.6696;
382.8000;0.4322;0.6599;
383.1000;0.4306;0.6575;
383.4000;0.4339;0.6623;
383.7000;0.4339;0.6672;
384.0000;0.4322;0.6721;
384.3000;0.4339;0.6696;
384.6000;0.4314;0.6648;
384.9000;0.4322;0.6623;
385.2000;0.4330;0.6599;
385.5000;0.4330;0.6575;
385.8000;0.4306;0.6599;
386.1000;0.4339;0.6818;
386.4000;0.4347;0.6794;
386.7000;0.4314;0.6721;
387.0000;0.4330;0.6745;
387.3000;0.4355;0.6721;
387.6000;0.4322;0.6696;
387.9000;0.4322;0.6745;
388.2000;0.4322;0.6672;
388.5000;0.4257;0.6453;
388.8000;0.4347;0.6721;
389.1000;0.4339;0.6721;
389.4000;0.4330;0.6696;
389.7000;0.4330;0.6648;
390.0000;0.4371;0.6891;
390.3000;0.4339;0.6818;
390.6000;0.4306;0.6696;
390.9000;0.4290;0.6575;
391.2000;0.4347;0.6648;
391.5000;0.4339;0.6575;
391.8000;0.4314;0.6575;
392.1000;0.4339;0.6526;
392.4000;0.4322;0.6575;
392.7000;0.4355;0.6648;
393.0000;0.4322;0.6599;
393.3000;0.4314;0.6648;
393.6000;0.4298;0.6599;
393.9000;0.4314;0.6550;
394.2000;0.4330;0.6550;
394.5000;0.4322;0.6599;
394.8000;0.4339;0.6696;
395.1000;0.4314;0.6672;
395.4000;0.4339;0.6672;
395.7000;0.4339;0.6696;
396.0000;0.4306;0.6623;
396.3000;0.4330;0.6575;
396.6000;0.4330;0.6648;
396.9000;0.4298;0.6526;
397.2000;0.4322;0.6501;
397.5000;0.4314;0.6526;
397.8000;0.4322;0.6623;
398.1000;0.4306;0.6623;
398.4000;0.4355;0.6696;
398.7000;0.4274;0.6550;
399.0000;0.4306;0.6575;
399.3000;0.4339;0.6623;
399.6000;0.4306;0.6550;
399.9000;0.4314;0.6550;
400.2000;0.4339;0.6648;
400.5000;0.4330;0.6599;
400.8000;0.4322;0.6526;
401.1000;0.4314;0.6501;
401.4000;0.4339;0.6526;
401.7000;0.4330;0.6526;
402.0000;0.4265;0.6355;
402.3000;0.4322;0.6526;
402.6000;0.4314;0.6477;
402.9000;0.4339;0.6526;
403.2000;0.4330;0.6526;
403.5000;0.4330;0.6599;
403.8000;0.4330;0.6721;
404.1000;0.4330;0.6672;
404.4000;0.4306;0.6599;
404.7000;0.4314;0.6672;
405.0000;0.4306;0.6623;
405.3000;0.4322;0.6575;
405.6000;0.4322;0.6526;
405.9000;0.4339;0.6575;
406.2000;0.4330;0.6623;
406.5000;0.4363;0.6794;
406.8000;0.4330;0.6696;
407.1000;0.4290;0.6501;
407.4000;0.4339;0.6623;
407.7000;0.4322;0.6575;
408.0000;0.4339;0.6648;
408.3000;0.4339;0.6696;
408.6000;0.4436;0.6891;
408.9000;0.4347;0.6648;
409.2000;0.4322;0.6526;
409.5000;0.4314;0.6550;
409.8000;0.4314;0.6526;
410.1000;0.4314;0.6526;
410.4000;0.4322;0.6599;
410.7000;0.4322;0.6501;
411.0000;0.4314;0.6501;
411.3000;0.4322;0.6550;
411.6000;0.4314;0.6599;
411.9000;0.4347;0.6696;
412.2000;0.4322;0.6623;
412.5000;0.4322;0.6550;
412.8000;0.4306;0.6526;
413.1000;0.4298;0.6404;
413.4000;0.4339;0.6575;
413.7000;0.4339;0.6599;
414.0000;0.4330;0.6648;
414.3000;0.4339;0.6575;
414.6000;0.4322;0.6501;
414.9000;0.4257;0.6331;
415.2000;0.4314;0.6501;
415.5000;0.4314;0.6453;
415.8000;0.4339;0.6526;
416.1000;0.4322;0.6428;
416.4000;0.4306;0.6355;
416.7000;0.4330;0.6526;
417.0000;0.4314;0.6599;
417.3000;0.4314;0.6623;
417.6000;0.4265;0.6477;
417.9000;0.4355;0.6818;
418.2000;0.4330;0.6721;
418.5000;0.4330;0.6818;
418.8000;0.4314;0.6745;
419.1000;0.4322;0.6721;
419.4000;0.4330;0.6769;
419.7000;0.4339;0.6696;
420.0000;0.4282;0.6599;
420.3000;0.4314;0.6721;
420.6000;0.4322;0.6745;
420.9000;0.4330;0.6696;
421.2000;0.4298;0.6648;
421.5000;0.4314;0.6648;
421.8000;0.4330;0.6648;
422.1000;0.4339;0.6623;
422.4000;0.4371;0.6842;
422.7000;0.4314;0.6721;
423.0000;0.4322;0.6721;
423.3000;0.4322;0.6672;
423.6000;0.4339;0.6623;
423.9000;0.4298;0.6526;
424.2000;0.4330;0.6599;
424.5000;0.4274;0.6477;
424.8000;0.4339;0.6575;
425.1000;0.4322;0.6550;
425.4000;0.4322;0.6599;
425.7000;0.4330;0.6477;
426.0000;0.4355;0.6453;
426.3000;0.4330;0.6404;
426.6000;0.4322;0.6355;
426.9000;0.4330;0.6404;
427.2000;0.4306;0.6453;
427.5000;0.4322;0.6550;
427.8000;0.4330;0.6501;
428.1000;0.4339;0.6501;
428.4000;0.4322;0.6526;
428.7000;0.4339;0.6501;
429.0000;0.4412;0.6745;
429.3000;0.4339;0.6575;
429.6000;0.4314;0.6501;
429.9000;0.4322;0.6501;
430.2000;0.4322;0.6501;
430.5000;0.4290;0.6477;
430.8000;0.4330;0.6526;
431.1000;0.4339;0.6575;
431.4000;0.4314;0.6526;
431.7000;0.4298;0.6501;
432.0000;0.4428;0.6794;
432.3000;0.4330;0.6526;
432.6000;0.4298;0.6477;
432.9000;0.4322;0.6550;
433.2000;0.4322;0.6526;
433.5000;0.4339;0.6623;
433.8000;0.4322;0.6623;
434.1000;0.4314;0.6648;
434.4000;0.4322;0.6623;
434.7000;0.4339;0.6575;
435.0000;0.4330;0.6550;
435.3000;0.4314;0.6575;
435.6000;0.4298;0.6550;
435.9000;0.4330;0.6599;
436.2000;0.4322;0.6623;
436.5000;0.4412;0.6867;
436.8000;0.4322;0.6550;
437.1000;0.4282;0.6501;
437.4000;0.4339;0.6623;
437.7000;0.4371;0.6721;
438.0000;0.4322;0.6575;
438.3000;0.4322;0.6477;
438.6000;0.4241;0.6355;
438.9000;0.4339;0.6575;
439.2000;0.4314;0.6599;
439.5000;0.4412;0.6794;
439.8000;0.4290;0.6501;
440.1000;0.4322;0.6575;
440.4000;0.4322;0.6575;
440.7000;0.4322;0.6404;
441.0000;0.4322;0.6428;
441.3000;0.4314;0.6501;
441.6000;0.4314;0.6623;
441.9000;0.4306;0.6648;
442.2000;0.4347;0.6648;
442.5000;0.4330;0.6623;
442.8000;0.4314;0.6526;
443.1000;0.4314;0.6575;
443.4000;0.4314;0.6575;
443.7000;0.4330;0.6648;
444.0000;0.4330;0.6672;
444.3000;0.4339;0.6696;
444.6000;0.4330;0.6721;
444.9000;0.4339;0.6721;
445.2000;0.4339;0.6696;
445.5000;0.4314;0.6745;
445.8000;0.4355;0.6794;
446.1000;0.4355;0.6769;
446.4000;0.4322;0.6623;
446.7000;0.4306;0.6550;
447.0000;0.4322;0.6599;
447.3000;0.4314;0.6550;
447.6000;0.4330;0.6526;
447.9000;0.4306;0.6501;
448.2000;0.4330;0.6599;
448.5000;0.4314;0.6599;
448.8000;0.4322;0.6696;
449.1000;0.4306;0.6672;
449.4000;0.4233;0.6428;
449.7000;0.4257;0.6428;
450.0000;0.4330;0.6526;
450.3000;0.4330;0.6550;
450.6000;0.4330;0.6526;
450.9000;0.4322;0.6428;
451.2000;0.4322;0.6404;
451.5000;0.4363;0.6575;
451.8000;0.4306;0.6428;
452.1000;0.4396;0.6745;
452.4000;0.4290;0.6501;
452.7000;0.4314;0.6623;
453.0000;0.4314;0.6623;
453.3000;0.4322;0.6599;
453.6000;0.4339;0.6623;
453.9000;0.4290;0.6453;
454.2000;0.4330;0.6477;
454.5000;0.4339;0.6428;
454.8000;0.4322;0.6428;
455.1000;0.4330;0.6477;
455.4000;0.4339;0.6501;
455.7000;0.4330;0.6550;
456.0000;0.4322;0.6428;
456.3000;0.4330;0.6355;
456.6000;0.4363;0.6404;
456.9000;0.4330;0.6258;
457.2000;0.4298;0.6136;
457.5000;0.4330;0.6234;
457.8000;0.4314;0.6258;
458.1000;0.4274;0.6234;
458.4000;0.4314;0.6258;
458.7000;0.4298;0.6258;
459.0000;0.4330;0.6428;
459.3000;0.4330;0.6355;
459.6000;0.4314;0.6307;
459.9000;0.4379;0.6453;
460.2000;0.4322;0.6355;
460.5000;0.4322;0.6331;
460.8000;0.4314;0.6331;
461.1000;0.4306;0.6282;
461.4000;0.4314;0.6307;
461.7000;0.4322;0.6380;
462.0000;0.4322;0.6404;
462.3000;0.4322;0.6501;
462.6000;0.4314;0.6404;
462.9000;0.4330;0.6307;
463.2000;0.4330;0.6380;
463.5000;0.4298;0.6331;
463.8000;0.4306;0.6380;
464.1000;0.4314;0.6428;
464.4000;0.4322;0.6453;
464.7000;0.4330;0.6453;
465.0000;0.4314;0.6355;
465.3000;0.4306;0.6282;
465.6000;0.4290;0.6234;
465.9000;0.4330;0.6331;
466.2000;0.4306;0.6258;
466.5000;0.4306;0.6307;
466.8000;0.4363;0.6355;
467.1000;0.4330;0.6331;
467.4000;0.4339;0.6404;
467.7000;0.4347;0.6404;
468.0000;0.4330;0.6331;
468.3000;0.4330;0.6282;
468.6000;0.4314;0.6331;
468.9000;0.4290;0.6331;
469.2000;0.4330;0.6453;
469.5000;0.4314;0.6453;
469.8000;0.4298;0.6453;
470.1000;0.4322;0.6453;
470.4000;0.4330;0.6501;
470.7000;0.4330;0.6526;
471.0000;0.4412;0.6745;
471.3000;0.4322;0.6599;
471.6000;0.4306;0.6526;
471.9000;0.4339;0.6550;
472.2000;0.4339;0.6575;
472.5000;0.4282;0.6526;
472.8000;0.4322;0.6623;
473.1000;0.4330;0.6696;
473.4000;0.4428;0.6964;
473.7000;0.4330;0.6745;
474.0000;0.4322;0.6599;
474.3000;0.4363;0.6623;
474.6000;0.4322;0.6575;
474.9000;0.4314;0.6599;
475.2000;0.4322;0.6575;
475.5000;0.4371;0.6769;
475.8000;0.4330;0.6623;
476.1000;0.4404;0.6672;
476.4000;0.4306;0.6501;
476.7000;0.4314;0.6453;
477.0000;0.4330;0.6355;
477.3000;0.4306;0.6355;
477.6000;0.4306;0.6404;
477.9000;0.4322;0.6477;
478.2000;0.4314;0.6380;
478.5000;0.4298;0.6258;
478.8000;0.4314;0.6282;
479.1000;0.4355;0.6404;
479.4000;0.4322;0.6331;
479.7000;0.4322;0.6355;
480.0000;0.4322;0.6404;
480.3000;0.4314;0.6380;
480.6000;0.4322;0.6331;
480.9000;0.4282;0.6258;
481.2000;0.4314;0.6331;
481.5000;0.4306;0.6282;
481.8000;0.4322;0.6428;
482.1000;0.4355;0.6526;
482.4000;0.4298;0.6477;
482.7000;0.4314;0.6428;
483.0000;0.4322;0.6428;
483.3000;0.4330;0.6477;
483.6000;0.4298;0.6404;
483.9000;0.4298;0.6282;
484.2000;0.4290;0.6234;
484.5000;0.4339;0.6355;
484.8000;0.4314;0.6282;
485.1000;0.4314;0.6307;
485.4000;0.4322;0.6282;
485.7000;0.4339;0.6307;
486.0000;0.4330;0.6404;
486.3000;0.4330;0.6355;
486.6000;0.4257;0.6209;
486.9000;0.4314;0.6331;
487.2000;0.4322;0.6355;
487.5000;0.4306;0.6307;
487.8000;0.4306;0.6282;
488.1000;0.4290;0.6355;
488.4000;0.4322;0.6404;
488.7000;0.4347;0.6477;
489.0000;0.4339;0.6477;
489.3000;0.4298;0.6282;
489.6000;0.4306;0.6258;
489.9000;0.4314;0.6307;
490.2000;0.4200;0.5990;
490.5000;0.4322;0.6331;
490.8000;0.4379;0.6550;
491.1000;0.4298;0.6428;
491.4000;0.4330;0.6501;
491.7000;0.4363;0.6599;
492.0000;0.4314;0.6428;
492.3000;0.4241;0.6234;
492.6000;0.4347;0.6477;
492.9000;0.4314;0.6428;
493.2000;0.4314;0.6404;
493.5000;0.4347;0.6526;
493.8000;0.4314;0.6404;
494.1000;0.4322;0.6501;
494.4000;0.4339;0.6501;
494.7000;0.4314;0.6501;
495.0000;0.4322;0.6526;
495.3000;0.4322;0.6404;
495.6000;0.4330;0.6380;
495.9000;0.4347;0.6355;
496.2000;0.4330;0.6428;
496.5000;0.4330;0.6453;
496.8000;0.4306;0.6428;
497.1000;0.4322;0.6453;
497.4000;0.4363;0.6599;
497.7000;0.4339;0.6501;
498.0000;0.4314;0.6477;
498.3000;0.4274;0.6282;
498.6000;0.4322;0.6428;
498.9000;0.4322;0.6550;
499.2000;0.4314;0.6575;
499.5000;0.4225;0.6355;
499.8000;0.4322;0.6623;
500.1000;0.4322;0.6550;
500.4000;0.4322;0.6550;
500.7000;0.4330;0.6648;
501.0000;0.4314;0.6501;
501.3000;0.4330;0.6453;
501.6000;0.4306;0.6380;
501.9000;0.4339;0.6526;
502.2000;0.4306;0.6428;
502.5000;0.4282;0.6380;
502.8000;0.4306;0.6477;
503.1000;0.4314;0.6477;
503.4000;0.4322;0.6526;
503.7000;0.4322;0.6501;
504.0000;0.4322;0.6477;
504.3000;0.4314;0.6453;
504.6000;0.4306;0.6404;
504.9000;0.4322;0.6453;
505.2000;0.4330;0.6550;
505.5000;0.4330;0.6550;
505.8000;0.4330;0.6477;
506.1000;0.4420;0.6769;
506.4000;0.4322;0.6575;
506.7000;0.4363;0.6696;
507.0000;0.4314;0.6477;
507.3000;0.4298;0.6404;
507.6000;0.4314;0.6453;
507.9000;0.4290;0.6453;
508.2000;0.4306;0.6501;
508.5000;0.4339;0.6575;
508.8000;0.4339;0.6623;
509.1000;0.4306;0.6501;
509.4000;0.4314;0.6575;
509.7000;0.4314;0.6575;
510.0000;0.4339;0.6550;
510.3000;0.4314;0.6428;
510.6000;0.4322;0.6404;
510.9000;0.4330;0.6380;
511.2000;0.4322;0.6331;
511.5000;0.4322;0.6331;
511.8000;0.4379;0.6355;
512.1000;0.4290;0.6161;
512.4000;0.4306;0.6185;
512.7000;0.4330;0.6209;
513.0000;0.4290;0.6136;
513.3000;0.4314;0.6185;
513.6000;0.4404;0.6428;
513.9000;0.4347;0.6234;
514.2000;0.4371;0.6331;
514.5000;0.4330;0.6258;
514.8000;0.4371;0.6526;
515.1000;0.4298;0.6428;
515.4000;0.4314;0.6404;
515.7000;0.4355;0.6501;
516.0000;0.4322;0.6428;
516.3000;0.4306;0.6428;
516.6000;0.4306;0.6282;
516.9000;0.4404;0.6526;
517.2000;0.4322;0.6355;
517.5000;0.4330;0.6428;
517.8000;0.4322;0.6453;
518.1000;0.4314;0.6404;
518.4000;0.4330;0.6380;
518.7000;0.4314;0.6355;
519.0000;0.4322;0.6380;
519.3000;0.4314;0.6380;
519.6000;0.4322;0.6404;
519.9000;0.4314;0.6428;
520.2000;0.4322;0.6501;
520.5000;0.4330;0.6575;
520.8000;0.4330;0.6453;
521.1000;0.4330;0.6575;
521.4000;0.4371;0.6648;
521.7000;0.4330;0.6501;
522.0000;0.4306;0.6380;
522.3000;0.4396;0.6550;
522.6000;0.4330;0.6428;
522.9000;0.4322;0.6428;
523.2000;0.4322;0.6453;
523.5000;0.4314;0.6404;
523.8000;0.4330;0.6428;
524.1000;0.4314;0.6404;
524.4000;0.4363;0.6550;
524.7000;0.4330;0.6477;
525.0000;0.4330;0.6453;
525.3000;0.4339;0.6526;
525.6000;0.4314;0.6404;
525.9000;0.4330;0.6453;
526.2000;0.4330;0.6501;
526.5000;0.4339;0.6477;
526.8000;0.4322;0.6550;
527.1000;0.4330;0.6526;
527.4000;0.4322;0.6477;
527.7000;0.4322;0.6428;
528.0000;0.4322;0.6404;
528.3000;0.4314;0.6380;
528.6000;0.4330;0.6428;
528.9000;0.4290;0.6307;
529.2000;0.4322;0.6380;
529.5000;0.4314;0.6282;
529.8000;0.4322;0.6331;
530.1000;0.4306;0.6282;
530.4000;0.4330;0.6282;
530.7000;0.4282;0.6234;
531.0000;0.4314;0.6380;
531.3000;0.4314;0.6307;
531.6000;0.4290;0.6307;
531.9000;0.4282;0.6331;
532.2000;0.4314;0.6428;
532.5000;0.4290;0.6453;
532.8000;0.4298;0.6453;
533.1000;0.4322;0.6550;
533.4000;0.4314;0.6623;
533.7000;0.4306;0.6672;
534.0000;0.4330;0.6745;
534.3000;0.4306;0.6648;
534.6000;0.4339;0.6648;
534.9000;0.4339;0.6599;
535.2000;0.4306;0.6623;
535.5000;0.4298;0.6648;
535.8000;0.4306;0.6550;
536.1000;0.4322;0.6672;
536.4000;0.4330;0.6672;
536.7000;0.4306;0.6696;
537.0000;0.4322;0.6721;
537.3000;0.4298;0.6672;
537.6000;0.4306;0.6696;
537.9000;0.4314;0.6696;
538.2000;0.4330;0.6769;
538.5000;0.4314;0.6745;
538.8000;0.4330;0.6696;
539.1000;0.4314;0.6623;
539.4000;0.4322;0.6745;
539.7000;0.4314;0.6769;
540.0000;0.4298;0.6794;
540.3000;0.4322;0.6818;
540.6000;0.4330;0.6842;
540.9000;0.4371;0.7013;
541.2000;0.4314;0.6867;
541.5000;0.4387;0.6988;
541.8000;0.4330;0.6818;
542.1000;0.4314;0.6745;
542.4000;0.4347;0.6794;
542.7000;0.4322;0.6769;
543.0000;0.4314;0.6745;
543.3000;0.4306;0.6745;
543.6000;0.4298;0.6672;
543.9000;0.4306;0.6599;
544.2000;0.4314;0.6648;
544.5000;0.4322;0.6672;
544.8000;0.4306;0.6769;
545.1000;0.4322;0.6818;
545.4000;0.4314;0.6769;
545.7000;0.4314;0.6696;
546.0000;0.4322;0.6696;
546.3000;0.4306;0.6623;
546.6000;0.4322;0.6721;
546.9000;0.4339;0.6745;
547.2000;0.4322;0.6794;
547.5000;0.4330;0.6745;
547.8000;0.4314;0.6794;
548.1000;0.4265;0.6648;
548.4000;0.4290;0.6721;
548.7000;0.4298;0.6794;
549.0000;0.4298;0.6672;
549.3000;0.4339;0.6818;
549.6000;0.4330;0.6818;
549.9000;0.4371;0.6891;
550.2000;0.4322;0.6672;
550.5000;0.4322;0.6648;
550.8000;0.4363;0.6769;
551.1000;0.4314;0.6672;
551.4000;0.4314;0.6745;
551.7000;0.4322;0.6842;
552.0000;0.4265;0.6672;
552.3000;0.4306;0.6745;
552.6000;0.4330;0.6745;
552.9000;0.4322;0.6696;
553.2000;0.4322;0.6721;
553.5000;0.4322;0.6769;
553.8000;0.4322;0.6891;
554.1000;0.4314;0.6915;
554.4000;0.4322;0.6842;
554.7000;0.4322;0.6769;
555.0000;0.4322;0.6745;
555.3000;0.4322;0.6794;
555.6000;0.4306;0.6696;
555.9000;0.4347;0.6745;
556.2000;0.4330;0.6745;
556.5000;0.4339;0.6818;
556.8000;0.4322;0.6867;
557.1000;0.4339;0.6964;
557.4000;0.4322;0.7062;
557.7000;0.4339;0.7062;
558.0000;0.4396;0.7183;
558.3000;0.4322;0.6964;
558.6000;0.4314;0.6964;
558.9000;0.4314;0.6818;
559.2000;0.4322;0.6842;
559.5000;0.4322;0.6867;
559.8000;0.4322;0.6891;
560.1000;0.4330;0.6891;
560.4000;0.4322;0.6940;
560.7000;0.4314;0.6940;
561.0000;0.4330;0.7037;
561.3000;0.4330;0.6940;
561.6000;0.4330;0.6964;
561.9000;0.4330;0.6964;
562.2000;0.4314;0.7013;
562.5000;0.4322;0.6964;
562.8000;0.4290;0.6867;
563.1000;0.4306;0.6940;
563.4000;0.4322;0.7013;
563.7000;0.4314;0.6940;
564.0000;0.4314;0.6891;
564.3000;0.4298;0.6867;
564.6000;0.4322;0.6891;
564.9000;0.4298;0.6915;
565.2000;0.4306;0.6891;
565.5000;0.4306;0.6794;
565.8000;0.4249;0.6623;
566.1000;0.4314;0.6794;
566.4000;0.4387;0.7013;
566.7000;0.4306;0.6769;
567.0000;0.4322;0.6794;
567.3000;0.4347;0.6940;
567.6000;0.4339;0.6915;
567.9000;0.4282;0.6842;
568.2000;0.4306;0.6915;
568.5000;0.4249;0.6794;
568.8000;0.4314;0.6940;
569.1000;0.4322;0.6964;
569.4000;0.4322;0.6964;
569.7000;0.4330;0.6964;
570.0000;0.4322;0.6842;
570.3000;0.4322;0.6818;
570.6000;0.4322;0.6915;
570.9000;0.4306;0.6915;
571.2000;0.4330;0.7037;
571.5000;0.4306;0.6964;
571.8000;0.4314;0.7062;
572.1000;0.4314;0.7086;
572.4000;0.4314;0.7062;
572.7000;0.4322;0.7037;
573.0000;0.4298;0.6988;
573.3000;0.4306;0.7013;
573.6000;0.4330;0.7086;
573.9000;0.4290;0.6940;
574.2000;0.4314;0.7037;
574.5000;0.4306;0.6915;
574.8000;0.4322;0.6940;
575.1000;0.4314;0.6964;
575.4000;0.4322;0.7037;
575.7000;0.4322;0.6940;
576.0000;0.4306;0.6842;
576.3000;0.4339;0.6988;
576.6000;0.4322;0.7037;
576.9000;0.4363;0.7183;
577.2000;0.4314;0.7013;
577.5000;0.4314;0.7013;
577.8000;0.4306;0.7013;
578.1000;0.4314;0.7062;
578.4000;0.4298;0.7013;
578.7000;0.4322;0.6988;
579.0000;0.4274;0.6769;
579.3000;0.4314;0.6769;
579.6000;0.4306;0.6769;
579.9000;0.4379;0.6988;
580.2000;0.4314;0.6794;
580.5000;0.4274;0.6696;
580.8000;0.4322;0.6867;
581.1000;0.4314;0.6842;
581.4000;0.4330;0.6891;
581.7000;0.4314;0.6867;
582.0000;0.4322;0.6867;
582.3000;0.4330;0.6891;
582.6000;0.4330;0.6964;
582.9000;0.4330;0.6988;
583.2000;0.4290;0.6988;
583.5000;0.4330;0.7013;
583.8000;0.4339;0.6940;
584.1000;0.4330;0.6867;
584.4000;0.4314;0.6867;
584.7000;0.4306;0.6769;
585.0000;0.4290;0.6721;
585.3000;0.4314;0.6794;
585.6000;0.4339;0.6818;
585.9000;0.4314;0.6672;
586.2000;0.4339;0.6648;
586.5000;0.4355;0.6672;
586.8000;0.4282;0.6526;
587.1000;0.4330;0.6696;
587.4000;0.4322;0.6721;
587.7000;0.4339;0.6794;
588.0000;0.4330;0.6818;
588.3000;0.4314;0.6842;
588.6000;0.4314;0.6891;
588.9000;0.4322;0.7013;
589.2000;0.4330;0.6940;
589.5000;0.4314;0.6867;
589.8000;0.4282;0.6721;
590.1000;0.4282;0.6769;
590.4000;0.4355;0.6988;
590.7000;0.4322;0.6818;
591.0000;0.4322;0.6891;
591.3000;0.4396;0.7062;
591.6000;0.4322;0.6940;
591.9000;0.4347;0.6964;
592.2000;0.4314;0.6940;
592.5000;0.4314;0.6940;
592.8000;0.4322;0.6915;
593.1000;0.4314;0.6915;
593.4000;0.4314;0.6867;
593.7000;0.4347;0.6940;
594.0000;0.4330;0.6818;
594.3000;0.4314;0.6794;
594.6000;0.4298;0.6745;
594.9000;0.4306;0.6745;
595.2000;0.4314;0.6842;
595.5000;0.4322;0.6842;
595.8000;0.4314;0.6891;
596.1000;0.4306;0.6794;
596.4000;0.4306;0.6769;
596.7000;0.4322;0.6842;
597.0000;0.4290;0.6818;
597.3000;0.4290;0.6794;
597.6000;0.4322;0.6867;
597.9000;0.4330;0.6769;
598.2000;0.4306;0.6672;
598.5000;0.4314;0.6721;
598.8000;0.4322;0.6696;
599.1000;0.4314;0.6648;
599.4000;0.4322;0.6696;
599.7000;0.4330;0.6721;
600.0000;0.4314;0.6648;
600.3000;0.4322;0.6623;
600.6000;0.4298;0.6575;
600.9000;0.4290;0.6477;
601.2000;0.4290;0.6307;
601.5000;0.4290;0.6209;
601.8000;0.4265;0.6014;
602.1000;0.4241;0.5747;
602.4000;0.4217;0.5625;
602.7000;0.4111;0.5308;
603.0000;0.4184;0.5430;
603.3000;0.4184;0.5333;
603.6000;0.4143;0.5138;
603.9000;0.4127;0.5016;
604.2000;0.4103;0.4967;
604.5000;0.4103;0.4992;
604.8000;0.4078;0.4797;
605.1000;0.4078;0.4748;
605.4000;0.4086;0.4773;
605.7000;0.4046;0.4700;
606.0000;0.4037;0.4627;
606.3000;0.4029;0.4529;
606.6000;0.4062;0.4578;
606.9000;0.4046;0.4505;
607.2000;0.4021;0.4432;
607.5000;0.3997;0.4383;
607.8000;0.3997;0.4383;
608.1000;0.3997;0.4456;
608.4000;0.3972;0.4383;
608.7000;0.3997;0.4432;
609.0000;0.3972;0.4383;
609.3000;0.3964;0.4383;
609.6000;0.3956;0.4383;
609.9000;0.3948;0.4359;
610.2000;0.3940;0.4359;
610.5000;0.3932;0.4407;
610.8000;0.3915;0.4432;
611.1000;0.3850;0.4383;
611.4000;0.3899;0.4553;
611.7000;0.3923;0.4651;
612.0000;0.3932;0.4578;
612.3000;0.3923;0.4432;
612.6000;0.3907;0.4432;
612.9000;0.3899;0.4480;
613.2000;0.3907;0.4456;
613.5000;0.3891;0.4456;
613.8000;0.3883;0.4407;
614.1000;0.3867;0.4432;
614.4000;0.3850;0.4359;
614.7000;0.3858;0.4407;
615.0000;0.3842;0.4286;
615.3000;0.3891;0.4432;
615.6000;0.3834;0.4261;
615.9000;0.3842;0.4237;
616.2000;0.3826;0.4213;
616.5000;0.3842;0.4261;
616.8000;0.3834;0.4237;
617.1000;0.3842;0.4286;
617.4000;0.3818;0.4237;
617.7000;0.3818;0.4237;
618.0000;0.3834;0.4188;
618.3000;0.3826;0.4140;
618.6000;0.3810;0.4042;
618.9000;0.3826;0.4042;
619.2000;0.3810;0.3945;
619.5000;0.3826;0.3920;
619.8000;0.3818;0.3993;
620.1000;0.3793;0.3969;
620.4000;0.3785;0.3969;
620.7000;0.3801;0.4066;
621.0000;0.3801;0.4018;
621.3000;0.3777;0.4042;
621.6000;0.3777;0.3993;
621.9000;0.3793;0.4042;
622.2000;0.3810;0.3969;
622.5000;0.3761;0.3872;
622.8000;0.3801;0.3993;
623.1000;0.3753;0.3993;
623.4000;0.3761;0.4115;
623.7000;0.3842;0.4334;
624.0000;0.3769;0.4091;
624.3000;0.3761;0.4042;
624.6000;0.3769;0.4091;
624.9000;0.3826;0.4310;
625.2000;0.3753;0.4115;
625.5000;0.3753;0.4140;
625.8000;0.3761;0.4237;
626.1000;0.3753;0.4237;
626.4000;0.3826;0.4529;
626.7000;0.3712;0.4188;
627.0000;0.3720;0.4115;
627.3000;0.3761;0.4188;
627.6000;0.3785;0.4188;
627.9000;0.3753;0.4115;
628.2000;0.3728;0.4091;
628.5000;0.3769;0.4188;
628.8000;0.3728;0.4018;
629.1000;0.3712;0.3945;
629.4000;0.3696;0.3920;
629.7000;0.3736;0.3969;
630.0000;0.3704;0.3799;
630.3000;0.3704;0.3774;
630.6000;0.3712;0.3799;
630.9000;0.3696;0.3799;
631.2000;0.3720;0.3750;
631.5000;0.3712;0.3750;
631.8000;0.3696;0.3726;
632.1000;0.3712;0.3774;
632.4000;0.3712;0.3872;
632.7000;0.3704;0.3847;
633.0000;0.3728;0.3945;
633.3000;0.3696;0.3896;
633.6000;0.3687;0.3945;
633.9000;0.3696;0.3969;
634.2000;0.3712;0.4066;
634.5000;0.3679;0.3872;
634.8000;0.3687;0.3896;
635.1000;0.3704;0.4042;
635.4000;0.3679;0.4042;
635.7000;0.3696;0.4091;
636.0000;0.3687;0.4042;
636.3000;0.3704;0.4018;
636.6000;0.3671;0.3872;
636.9000;0.3679;0.3872;
637.2000;0.3598;0.3677;
637.5000;0.3671;0.3872;
637.8000;0.3679;0.3920;
638.1000;0.3655;0.3896;
638.4000;0.3647;0.3847;
638.7000;0.3671;0.3945;
639.0000;0.3663;0.3945;
639.3000;0.3655;0.4018;
639.6000;0.3622;0.3945;
639.9000;0.3655;0.3969;
640.2000;0.3647;0.3896;
640.5000;0.3647;0.3920;
640.8000;0.3630;0.3896;
641.1000;0.3663;0.3920;
641.4000;0.3614;0.3799;
641.7000;0.3639;0.3847;
642.0000;0.3639;0.3799;
642.3000;0.3622;0.3823;
642.6000;0.3728;0.4115;
642.9000;0.3639;0.3750;
643.2000;0.3622;0.3799;
643.5000;0.3639;0.3750;
643.8000;0.3614;0.3726;
644.1000;0.3622;0.3701;
644.4000;0.3630;0.3653;
644.7000;0.3630;0.3677;
645.0000;0.3622;0.3653;
645.3000;0.3622;0.3677;
645.6000;0.3622;0.3604;
645.9000;0.3614;0.3579;
646.2000;0.3630;0.3628;
646.5000;0.3622;0.3604;
646.8000;0.3598;0.3579;
647.1000;0.3630;0.3604;
647.4000;0.3614;0.3506;
647.7000;0.3671;0.3531;
648.0000;0.3639;0.3506;
648.3000;0.3671;0.3677;
648.6000;0.3606;0.3653;
648.9000;0.3655;0.3799;
649.2000;0.3622;0.3726;
649.5000;0.3606;0.3579;
649.8000;0.3590;0.3579;
650.1000;0.3549;0.3409;
650.4000;0.3606;0.3579;
650.7000;0.3606;0.3677;
651.0000;0.3622;0.3701;
651.3000;0.3671;0.3847;
651.6000;0.3614;0.3701;
651.9000;0.3590;0.3726;
652.2000;0.3598;0.3701;
652.5000;0.3590;0.3799;
652.8000;0.3614;0.3799;
653.1000;0.3614;0.3823;
653.4000;0.3606;0.3774;
653.7000;0.3614;0.3847;
654.0000;0.3606;0.3872;
654.3000;0.3598;0.3872;
654.6000;0.3606;0.3847;
654.9000;0.3598;0.3872;
655.2000;0.3598;0.3945;
655.5000;0.3582;0.3969;
655.8000;0.3614;0.4115;
656.1000;0.3573;0.4066;
656.4000;0.3582;0.3993;
656.7000;0.3590;0.3945;
657.0000;0.3590;0.3920;
657.3000;0.3582;0.3872;
657.6000;0.3598;0.3896;
657.9000;0.3590;0.3872;
658.2000;0.3647;0.4042;
658.5000;0.3582;0.3920;
658.8000;0.3573;0.3920;
659.1000;0.3573;0.3896;
659.4000;0.3614;0.3945;
659.7000;0.3557;0.3799;
660.0000;0.3565;0.3774;
660.3000;0.3606;0.3799;
660.6000;0.3573;0.3823;
660.9000;0.3533;0.3823;
661.2000;0.3565;0.3799;
661.5000;0.3590;0.3799;
661.8000;0.3582;0.3799;
662.1000;0.3573;0.3628;
662.4000;0.3622;0.3872;
662.7000;0.3549;0.3653;
663.0000;0.3573;0.3653;
663.3000;0.3516;0.3628;
663.6000;0.3630;0.4018;
663.9000;0.3598;0.3920;
664.2000;0.3557;0.3872;
664.5000;0.3565;0.3896;
664.8000;0.3573;0.3896;
665.1000;0.3557;0.3774;
665.4000;0.3573;0.3774;
665.7000;0.3590;0.3896;
666.0000;0.3614;0.3993;
666.3000;0.3565;0.3920;
666.6000;0.3590;0.4018;
666.9000;0.3582;0.3920;
667.2000;0.3573;0.3920;
667.5000;0.3565;0.3872;
667.8000;0.3565;0.3920;
668.1000;0.3565;0.3945;
668.4000;0.3614;0.3993;
668.7000;0.3565;0.3799;
669.0000;0.3549;0.3823;
669.3000;0.3565;0.3896;
669.6000;0.3565;0.3872;
669.9000;0.3533;0.3750;
670.2000;0.3557;0.3774;
670.5000;0.3549;0.3799;
670.8000;0.3541;0.3774;
671.1000;0.3533;0.3726;
671.4000;0.3565;0.3774;
671.7000;0.3549;0.3847;
672.0000;0.3549;0.3872;
672.3000;0.3565;0.4018;
672.6000;0.3549;0.3945;
672.9000;0.3541;0.3993;
673.2000;0.3565;0.4066;
673.5000;0.3557;0.4042;
673.8000;0.3573;0.4042;
674.1000;0.3565;0.3920;
674.4000;0.3549;0.3969;
674.7000;0.3557;0.3969;
675.0000;0.3557;0.3993;
675.3000;0.3525;0.3969;
675.6000;0.3549;0.4091;
675.9000;0.3541;0.4091;
676.2000;0.3533;0.3993;
676.5000;0.3541;0.3945;
676.8000;0.3541;0.4018;
677.1000;0.3549;0.4018;
677.4000;0.3557;0.4018;
677.7000;0.3533;0.3993;
678.0000;0.3541;0.3993;
678.3000;0.3557;0.3945;
678.6000;0.3525;0.3799;
678.9000;0.3516;0.3872;
679.2000;0.3541;0.3847;
679.5000;0.3549;0.3799;
679.8000;0.3525;0.3653;
680.1000;0.3516;0.3701;
680.4000;0.3460;0.3604;
680.7000;0.3525;0.3774;
681.0000;0.3598;0.3872;
681.3000;0.3557;0.3750;
681.6000;0.3525;0.3701;
681.9000;0.3541;0.3896;
682.2000;0.3541;0.3993;
682.5000;0.3516;0.3847;
682.8000;0.3516;0.3799;
683.1000;0.3516;0.3823;
683.4000;0.3541;0.3896;
683.7000;0.3533;0.3872;
684.0000;0.3525;0.3896;
684.3000;0.3533;0.3872;
684.6000;0.3525;0.3799;
684.9000;0.3525;0.3920;
685.2000;0.3516;0.3872;
685.5000;0.3516;0.3750;
685.8000;0.3533;0.3799;
686.1000;0.3525;0.3896;
686.4000;0.3516;0.4018;
686.7000;0.3516;0.4042;
687.0000;0.3460;0.3799;
687.3000;0.3516;0.3872;
687.6000;0.3508;0.3823;
687.9000;0.3525;0.3896;
688.2000;0.3516;0.3896;
688.5000;0.3533;0.3896;
688.8000;0.3516;0.3872;
689.1000;0.3468;0.3969;
689.4000;0.3525;0.4042;
689.7000;0.3590;0.4213;
690.0000;0.3508;0.4091;
690.3000;0.3508;0.3945;
690.6000;0.3525;0.3945;
690.9000;0.3525;0.3872;
691.2000;0.3533;0.3896;
691.5000;0.3525;0.3823;
691.8000;0.3516;0.3799;
692.1000;0.3516;0.3847;
692.4000;0.3500;0.3872;
692.7000;0.3533;0.3945;
693.0000;0.3508;0.3969;
693.3000;0.3525;0.3920;
693.6000;0.3590;0.3993;
693.9000;0.3500;0.3920;
694.2000;0.3508;0.3969;
694.5000;0.3549;0.4018;
694.8000;0.3541;0.3945;
695.1000;0.3516;0.3872;
695.4000;0.3516;0.3872;
695.7000;0.3500;0.3823;
696.0000;0.3525;0.3847;
696.3000;0.3525;0.3920;
696.6000;0.3516;0.3872;
696.9000;0.3500;0.3896;
697.2000;0.3525;0.4018;
697.5000;0.3541;0.3993;
697.8000;0.3549;0.4091;
698.1000;0.3508;0.4018;
698.4000;0.3500;0.4042;
698.7000;0.3508;0.4066;
699.0000;0.3541;0.4164;
699.3000;0.3500;0.4091;
699.6000;0.3508;0.3969;
699.9000;0.3500;0.3896;
700.2000;0.3508;0.3945;
700.5000;0.3492;0.3993;
700.8000;0.3516;0.3969;
701.1000;0.3500;0.3945;
701.4000;0.3525;0.3969;
701.7000;0.3500;0.3920;
702.0000;0.3460;0.3799;
702.3000;0.3525;0.3896;
702.6000;0.3516;0.3896;
702.9000;0.3516;0.3872;
703.2000;0.3508;0.3847;
703.5000;0.3492;0.3750;
703.8000;0.3508;0.3823;
704.1000;0.3500;0.3799;
704.4000;0.3508;0.3750;
704.7000;0.3492;0.3823;
705.0000;0.3508;0.3847;
705.3000;0.3492;0.3823;
705.6000;0.3484;0.3799;
705.9000;0.3427;0.3653;
706.2000;0.3500;0.3896;
706.5000;0.3500;0.3920;
706.8000;0.3492;0.3872;
707.1000;0.3476;0.3969;
707.4000;0.3500;0.4018;
707.7000;0.3508;0.3993;
708.0000;0.3468;0.3945;
708.3000;0.3508;0.3969;
708.6000;0.3492;0.3969;
708.9000;0.3460;0.3799;
709.2000;0.3492;0.3847;
709.5000;0.3484;0.3774;
709.8000;0.3492;0.3799;
710.1000;0.3508;0.3823;
710.4000;0.3549;0.3896;
710.7000;0.3500;0.3823;
711.0000;0.3492;0.3847;
711.3000;0.3500;0.3847;
711.6000;0.3533;0.3969;
711.9000;0.3403;0.3579;
712.2000;0.3492;0.3799;
712.5000;0.3492;0.3847;
712.8000;0.3500;0.3920;
713.1000;0.3525;0.3993;
713.4000;0.3533;0.3993;
713.7000;0.3443;0.3750;
714.0000;0.3500;0.3872;
714.3000;0.3492;0.3799;
714.6000;0.3500;0.3750;
714.9000;0.3484;0.3726;
715.2000;0.3525;0.3799;
715.5000;0.3500;0.3945;
715.8000;0.3508;0.4018;
716.1000;0.3533;0.4042;
716.4000;0.3476;0.3920;
716.7000;0.3557;0.3969;
717.0000;0.3492;0.3774;
717.3000;0.3484;0.3847;
717.6000;0.3500;0.3896;
717.9000;0.3508;0.3896;
718.2000;0.3500;0.3969;
718.5000;0.3492;0.3896;
718.8000;0.3516;0.3993;
719.1000;0.3508;0.3945;
719.4000;0.3516;0.3920;
719.7000;0.3427;0.3677;
720.0000;0.3500;0.3799;
720.3000;0.3500;0.3726;
720.6000;0.3500;0.3701;
720.9000;0.3500;0.3823;
721.2000;0.3492;0.3823;
721.5000;0.3500;0.3872;
721.8000;0.3516;0.3896;
722.1000;0.3492;0.3750;
722.4000;0.3492;0.3823;
722.7000;0.3492;0.3847;
723.0000;0.3508;0.3896;
723.3000;0.3476;0.3847;
723.6000;0.3492;0.3896;
723.9000;0.3508;0.3920;
724.2000;0.3476;0.3823;
724.5000;0.3476;0.3823;
724.8000;0.3508;0.3872;
725.1000;0.3492;0.3872;
725.4000;0.3508;0.3872;
725.7000;0.3468;0.3750;
726.0000;0.3468;0.3847;
726.3000;0.3476;0.3872;
726.6000;0.3492;0.3920;
726.9000;0.3476;0.3847;
727.2000;0.3492;0.3823;
727.5000;0.3508;0.3847;
727.8000;0.3500;0.3823;
728.1000;0.3484;0.3799;
728.4000;0.3492;0.3750;
728.7000;0.3476;0.3823;
729.0000;0.3484;0.3799;
729.3000;0.3492;0.3823;
729.6000;0.3492;0.3823;
729.9000;0.3476;0.3847;
730.2000;0.3460;0.3896;
730.5000;0.3468;0.3872;
730.8000;0.3468;0.3896;
731.1000;0.3492;0.3847;
731.4000;0.3484;0.3896;
731.7000;0.3492;0.3993;
732.0000;0.3476;0.3920;
732.3000;0.3484;0.3872;
732.6000;0.3460;0.3823;
732.9000;0.3476;0.3847;
733.2000;0.3525;0.3920;
733.5000;0.3476;0.3847;
733.8000;0.3468;0.3823;
734.1000;0.3476;0.3774;
734.4000;0.3468;0.3823;
734.7000;0.3476;0.3896;
735.0000;0.3476;0.3896;
735.3000;0.3476;0.3945;
735.6000;0.3484;0.3945;
735.9000;0.3476;0.3726;
736.2000;0.3484;0.3701;
736.5000;0.3484;0.3726;
736.8000;0.3476;0.3774;
737.1000;0.3468;0.3750;
737.4000;0.3468;0.3774;
737.7000;0.3492;0.3726;
738.0000;0.3508;0.3799;
738.3000;0.3492;0.3701;
738.6000;0.3468;0.3701;
738.9000;0.3484;0.3799;
739.2000;0.3460;0.3701;
739.5000;0.3468;0.3726;
739.8000;0.3484;0.3726;
740.1000;0.3476;0.3726;
740.4000;0.3476;0.3726;
740.7000;0.3525;0.3945;
741.0000;0.3484;0.3847;
741.3000;0.3460;0.3872;
741.6000;0.3468;0.3896;
741.9000;0.3492;0.3896;
742.2000;0.3492;0.3872;
742.5000;0.3468;0.3872;
742.8000;0.3468;0.3823;
743.1000;0.3476;0.3799;
743.4000;0.3460;0.3726;
743.7000;0.3468;0.3726;
744.0000;0.3492;0.3726;
744.3000;0.3427;0.3531;
744.6000;0.3476;0.3701;
744.9000;0.3451;0.3579;
745.2000;0.3476;0.3677;
745.5000;0.3468;0.3604;
745.8000;0.3476;0.3653;
746.1000;0.3492;0.3726;
746.4000;0.3460;0.3750;
746.7000;0.3476;0.3750;
747.0000;0.3451;0.3750;
747.3000;0.3468;0.3896;
747.6000;0.3443;0.3872;
747.9000;0.3468;0.3969;
748.2000;0.3460;0.4018;
748.5000;0.3476;0.4018;
748.8000;0.3508;0.4066;
749.1000;0.3476;0.4018;
749.4000;0.3460;0.3969;
749.7000;0.3484;0.3969;
750.0000;0.3460;0.3823;
750.3000;0.3468;0.3750;
750.6000;0.3468;0.3847;
750.9000;0.3492;0.3823;
751.2000;0.3460;0.3896;
751.5000;0.3484;0.3969;
751.8000;0.3427;0.3774;
752.1000;0.3468;0.3896;
752.4000;0.3476;0.3920;
752.7000;0.3484;0.3945;
753.0000;0.3451;0.3872;
753.3000;0.3468;0.3847;
753.6000;0.3492;0.3920;
753.9000;0.3443;0.3750;
754.2000;0.3451;0.3701;
754.5000;0.3492;0.3823;
754.8000;0.3468;0.3726;
755.1000;0.3468;0.3677;
755.4000;0.3484;0.3701;
755.7000;0.3500;0.3726;
756.0000;0.3476;0.3701;
756.3000;0.3460;0.3677;
756.6000;0.3427;0.3604;
756.9000;0.3484;0.3677;
757.2000;0.3476;0.3701;
757.5000;0.3419;0.3555;
757.8000;0.3484;0.3750;
758.1000;0.3460;0.3701;
758.4000;0.3443;0.3726;
758.7000;0.3492;0.3823;
759.0000;0.3427;0.3628;
759.3000;0.3468;0.3726;
759.6000;0.3476;0.3774;
759.9000;0.3476;0.3847;
760.2000;0.3468;0.3847;
760.5000;0.3476;0.3896;
760.8000;0.3476;0.3872;
761.1000;0.3476;0.3872;
761.4000;0.3516;0.3896;
761.7000;0.3516;0.3872;
762.0000;0.3500;0.3945;
762.3000;0.3468;0.3847;
762.6000;0.3460;0.3847;
762.9000;0.3476;0.3945;
763.2000;0.3468;0.3945;
763.5000;0.3484;0.3969;
763.8000;0.3451;0.3847;
764.1000;0.3451;0.3847;
764.4000;0.3468;0.3945;
764.7000;0.3435;0.3896;
765.0000;0.3476;0.3872;
765.3000;0.3476;0.3847;
765.6000;0.3460;0.3823;
765.9000;0.3492;0.3896;
766.2000;0.3427;0.3750;
766.5000;0.3427;0.3774;
766.8000;0.3443;0.3823;
767.1000;0.3451;0.3823;
767.4000;0.3460;0.3896;
767.7000;0.3476;0.3920;
768.0000;0.3451;0.3750;
768.3000;0.3492;0.3896;
768.6000;0.3460;0.3872;
768.9000;0.3468;0.3896;
769.2000;0.3460;0.3774;
769.5000;0.3468;0.3774;
769.8000;0.3460;0.3726;
770.1000;0.3460;0.3653;
770.4000;0.3427;0.3579;
770.7000;0.3476;0.3628;
771.0000;0.3451;0.3628;
771.3000;0.3468;0.3726;
771.6000;0.3468;0.3799;
771.9000;0.3492;0.3920;
772.2000;0.3460;0.3896;
772.5000;0.3468;0.3920;
772.8000;0.3468;0.3993;
773.1000;0.3435;0.4066;
773.4000;0.3443;0.4042;
773.7000;0.3451;0.3945;
774.0000;0.3443;0.3993;
774.3000;0.3451;0.4091;
774.6000;0.3451;0.4091;
774.9000;0.3468;0.4091;
775.2000;0.3460;0.4091;
775.5000;0.3451;0.4066;
775.8000;0.3411;0.3823;
776.1000;0.3468;0.3945;
776.4000;0.3419;0.3847;
776.7000;0.3451;0.3920;
777.0000;0.3460;0.3969;
777.3000;0.3443;0.3920;
777.6000;0.3451;0.3847;
777.9000;0.3451;0.3872;
778.2000;0.3451;0.3823;
778.5000;0.3460;0.3847;
778.8000;0.3435;0.3799;
779.1000;0.3451;0.3969;
779.4000;0.3484;0.3969;
779.7000;0.3500;0.3969;
780.0000;0.3460;0.3945;
780.3000;0.3435;0.3726;
780.6000;0.3525;0.3920;
780.9000;0.3492;0.3896;
781.2000;0.3476;0.3774;
781.5000;0.3468;0.3774;
781.8000;0.3516;0.3969;
782.1000;0.3427;0.3774;
782.4000;0.3419;0.3823;
782.7000;0.3468;0.3872;
783.0000;0.3460;0.3847;
783.3000;0.3460;0.3774;
783.6000;0.3451;0.3823;
783.9000;0.3460;0.3823;
784.2000;0.3468;0.3872;
784.5000;0.3468;0.3872;
784.8000;0.3460;0.3799;
785.1000;0.3460;0.3872;
785.4000;0.3451;0.3896;
785.7000;0.3460;0.3872;
786.0000;0.3443;0.3920;
786.3000;0.3468;0.3993;
786.6000;0.3476;0.3969;
786.9000;0.3443;0.3969;
787.2000;0.3492;0.4042;
787.5000;0.3451;0.3993;
787.8000;0.3443;0.3993;
788.1000;0.3451;0.4018;
788.4000;0.3451;0.3945;
788.7000;0.3451;0.3920;
789.0000;0.3451;0.3993;
789.3000;0.3468;0.3993;
789.6000;0.3468;0.3920;
789.9000;0.3468;0.4018;
790.2000;0.3468;0.4140;
790.5000;0.3476;0.4213;
790.8000;0.3468;0.4115;
791.1000;0.3468;0.4091;
791.4000;0.3451;0.4091;
791.7000;0.3460;0.3993;
792.0000;0.3492;0.4115;
792.3000;0.3435;0.3872;
792.6000;0.3435;0.3823;
792.9000;0.3460;0.3969;
793.2000;0.3435;0.3872;
793.5000;0.3500;0.4066;
793.8000;0.3435;0.3945;
794.1000;0.3460;0.4018;
794.4000;0.3476;0.4042;
794.7000;0.3468;0.3993;
795.0000;0.3411;0.3920;
795.3000;0.3541;0.4261;
795.6000;0.3451;0.4042;
795.9000;0.3443;0.3993;
796.2000;0.3460;0.4042;
796.5000;0.3443;0.4091;
796.8000;0.3451;0.3969;
797.1000;0.3451;0.3920;
797.4000;0.3468;0.3872;
797.7000;0.3443;0.3774;
798.0000;0.3435;0.3872;
798.3000;0.3468;0.3969;
798.6000;0.3476;0.3969;
798.9000;0.3394;0.3750;
799.2000;0.3443;0.3847;
799.5000;0.3411;0.3847;
799.8000;0.3451;0.3945;
800.1000;0.3451;0.3920;
800.4000;0.3476;0.3945;
800.7000;0.3460;0.3823;
801.0000;0.3403;0.3701;
801.3000;0.3451;0.3896;
801.6000;0.3460;0.3945;
801.9000;0.3427;0.3896;
802.2000;0.3443;0.3920;
802.5000;0.3443;0.4018;
802.8000;0.3443;0.4018;
803.1000;0.3451;0.3993;
803.4000;0.3460;0.4115;
803.7000;0.3419;0.4018;
804.0000;0.3419;0.4018;
804.3000;0.3443;0.4066;
804.6000;0.3460;0.4042;
804.9000;0.3435;0.3872;
805.2000;0.3403;0.3774;
805.5000;0.3451;0.3993;
805.8000;0.3468;0.3945;
806.1000;0.3460;0.3872;
806.4000;0.3468;0.3847;
806.7000;0.3443;0.3774;
807.0000;0.3451;0.3823;
807.3000;0.3460;0.3872;
807.6000;0.3435;0.3847;
807.9000;0.3435;0.3920;
808.2000;0.3443;0.3920;
808.5000;0.3443;0.3872;
808.8000;0.3419;0.3872;
809.1000;0.3451;0.3872;
809.4000;0.3435;0.3799;
809.7000;0.3451;0.3774;
810.0000;0.3476;0.3847;
810.3000;0.3443;0.3847;
810.6000;0.3435;0.3847;
810.9000;0.3427;0.3896;
811.2000;0.3435;0.3969;
811.5000;0.3443;0.3969;
811.8000;0.3443;0.4115;
812.1000;0.3435;0.4091;
812.4000;0.3451;0.4115;
812.7000;0.3435;0.4018;
813.0000;0.3443;0.4018;
813.3000;0.3435;0.3969;
813.6000;0.3443;0.3969;
813.9000;0.3419;0.3799;
814.2000;0.3435;0.3896;
814.5000;0.3500;0.4091;
814.8000;0.3443;0.3920;
815.1000;0.3460;0.4018;
815.4000;0.3443;0.3945;
815.7000;0.3460;0.3969;
816.0000;0.3468;0.3993;
816.3000;0.3476;0.3969;
816.6000;0.3460;0.3920;
816.9000;0.3451;0.3896;
817.2000;0.3468;0.3920;
817.5000;0.3541;0.4042;
817.8000;0.3460;0.3896;
818.1000;0.3451;0.3823;
818.4000;0.3443;0.3823;
818.7000;0.3427;0.3823;
819.0000;0.3419;0.3799;
819.3000;0.3443;0.3872;
819.6000;0.3451;0.3945;
819.9000;0.3411;0.3774;
820.2000;0.3443;0.3823;
820.5000;0.3451;0.3823;
820.8000;0.3451;0.3799;
821.1000;0.3468;0.3872;
821.4000;0.3460;0.3920;
821.7000;0.3419;0.3920;
822.0000;0.3427;0.4066;
822.3000;0.3427;0.4018;
822.6000;0.3427;0.4115;
822.9000;0.3435;0.4115;
823.2000;0.3427;0.4115;
823.5000;0.3460;0.4237;
823.8000;0.3427;0.4286;
824.1000;0.3443;0.4310;
824.4000;0.3451;0.4407;
824.7000;0.3443;0.4310;
825.0000;0.3460;0.4310;
825.3000;0.3451;0.4237;
825.6000;0.3451;0.4310;
825.9000;0.3435;0.4310;
826.2000;0.3451;0.4310;
826.5000;0.3443;0.4213;
826.8000;0.3427;0.4164;
827.1000;0.3451;0.4140;
827.4000;0.3508;0.4237;
827.7000;0.3411;0.3993;
828.0000;0.3451;0.4115;
828.3000;0.3468;0.4066;
828.6000;0.3484;0.4066;
828.9000;0.3451;0.3969;
829.2000;0.3451;0.3872;
829.5000;0.3500;0.3993;
829.8000;0.3394;0.3750;
830.1000;0.3476;0.3969;
830.4000;0.3443;0.3945;
830.7000;0.3476;0.4091;
831.0000;0.3460;0.4042;
831.3000;0.3451;0.4042;
831.6000;0.3460;0.4042;
831.9000;0.3419;0.3945;
832.2000;0.3443;0.4042;
832.5000;0.3443;0.3945;
832.8000;0.3460;0.3969;
833.1000;0.3443;0.3872;
833.4000;0.3451;0.3872;
833.7000;0.3427;0.3872;
834.0000;0.3435;0.3969;
834.3000;0.3443;0.3920;
834.6000;0.3411;0.3896;
834.9000;0.3443;0.3993;
835.2000;0.3427;0.3969;
835.5000;0.3476;0.4115;
835.8000;0.3435;0.3945;
836.1000;0.3443;0.3896;
836.4000;0.3443;0.3823;
836.7000;0.3435;0.3823;
837.0000;0.3443;0.3872;
837.3000;0.3460;0.3823;
837.6000;0.3460;0.3799;
837.9000;0.3451;0.3750;
838.2000;0.3451;0.3677;
838.5000;0.3492;0.3823;
838.8000;0.3427;0.3677;
839.1000;0.3451;0.3726;
839.4000;0.3435;0.3726;
839.7000;0.3451;0.3774;
840.0000;0.3460;0.3799;
840.3000;0.3468;0.3872;
840.6000;0.3435;0.3799;
840.9000;0.3443;0.3847;
841.2000;0.3451;0.3896;
841.5000;0.3468;0.3920;
841.8000;0.3451;0.3799;
842.1000;0.3435;0.3726;
842.4000;0.3460;0.3750;
842.7000;0.3443;0.3701;
843.0000;0.3435;0.3701;
843.3000;0.3435;0.3847;
843.6000;0.3460;0.3774;
843.9000;0.3451;0.3726;
844.2000;0.3443;0.3677;
844.5000;0.3435;0.3604;
844.8000;0.3443;0.3604;
845.1000;0.3451;0.3677;
845.4000;0.3451;0.3726;
845.7000;0.3435;0.3799;
846.0000;0.3435;0.3847;
846.3000;0.3443;0.3896;
846.6000;0.3435;0.3920;
846.9000;0.3427;0.3969;
847.2000;0.3419;0.3969;
847.5000;0.3411;0.3993;
847.8000;0.3443;0.4018;
848.1000;0.3435;0.4018;
848.4000;0.3419;0.4091;
848.7000;0.3451;0.4140;
849.0000;0.3451;0.4164;
849.3000;0.3435;0.4115;
849.6000;0.3435;0.4066;
849.9000;0.3419;0.4018;
850.2000;0.3435;0.4091;
850.5000;0.3451;0.4115;
850.8000;0.3460;0.4164;
851.1000;0.3435;0.4091;
851.4000;0.3427;0.4018;
851.7000;0.3451;0.4018;
852.0000;0.3435;0.4018;
852.3000;0.3427;0.3993;
852.6000;0.3435;0.3993;
852.9000;0.3427;0.3920;
853.2000;0.3427;0.3993;
853.5000;0.3419;0.3969;
853.8000;0.3411;0.3896;
854.1000;0.3443;0.4042;
854.4000;0.3443;0.4066;
854.7000;0.3411;0.3969;
855.0000;0.3394;0.4018;
855.3000;0.3443;0.4115;
855.6000;0.3451;0.4091;
855.9000;0.3443;0.4066;
856.2000;0.3443;0.4042;
856.5000;0.3468;0.4237;
856.8000;0.3451;0.4188;
857.1000;0.3443;0.4164;
857.4000;0.3500;0.4237;
857.7000;0.3427;0.4042;
858.0000;0.3451;0.4091;
858.3000;0.3435;0.4115;
858.6000;0.3460;0.4237;
858.9000;0.3435;0.4188;
859.2000;0.3443;0.4164;
859.5000;0.3419;0.4018;
859.8000;0.3419;0.4115;
860.1000;0.3443;0.4213;
860.4000;0.3427;0.4213;
860.7000;0.3484;0.4310;
861.0000;0.3443;0.4115;
861.3000;0.3443;0.4115;
861.6000;0.3443;0.4115;
861.9000;0.3435;0.4164;
862.2000;0.3411;0.4188;
862.5000;0.3435;0.4115;
862.8000;0.3451;0.4066;
863.1000;0.3443;0.4042;
863.4000;0.3443;0.4091;
863.7000;0.3451;0.4066;
864.0000;0.3460;0.4018;
864.3000;0.3451;0.3993;
864.6000;0.3468;0.3896;
864.9000;0.3443;0.3872;
865.2000;0.3435;0.3896;
865.5000;0.3460;0.3945;
865.8000;0.3443;0.3945;
866.1000;0.3435;0.3920;
866.4000;0.3435;0.3945;
866.7000;0.3443;0.3945;
867.0000;0.3443;0.4042;
867.3000;0.3427;0.4042;
867.6000;0.3443;0.4091;
867.9000;0.3443;0.4091;
868.2000;0.3443;0.4188;
868.5000;0.3460;0.4286;
868.8000;0.3403;0.4164;
869.1000;0.3411;0.4115;
869.4000;0.3460;0.4115;
869.7000;0.3451;0.4042;
870.0000;0.3427;0.3969;
870.3000;0.3435;0.3896;
870.6000;0.3443;0.4042;
870.9000;0.3419;0.4115;
871.2000;0.3435;0.4115;
871.5000;0.3435;0.3969;
871.8000;0.3419;0.3945;
872.1000;0.3451;0.4066;
872.4000;0.3354;0.3823;
872.7000;0.3427;0.4091;
873.0000;0.3411;0.4042;
873.3000;0.3419;0.4018;
873.6000;0.3460;0.4091;
873.9000;0.3443;0.4018;
874.2000;0.3443;0.4066;
874.5000;0.3484;0.4213;
874.8000;0.3451;0.4140;
875.1000;0.3443;0.4042;
875.4000;0.3443;0.4018;
875.7000;0.3403;0.3945;
876.0000;0.3427;0.3969;
876.3000;0.3451;0.4042;
876.6000;0.3468;0.4140;
876.9000;0.3460;0.4140;
877.2000;0.3460;0.4115;
877.5000;0.3476;0.4066;
877.8000;0.3500;0.4115;
878.1000;0.3460;0.4042;
878.4000;0.3443;0.4066;
878.7000;0.3435;0.4115;
879.0000;0.3427;0.4091;
879.3000;0.3443;0.4091;
879.6000;0.3427;0.3993;
879.9000;0.3427;0.4066;
880.2000;0.3435;0.4018;
880.5000;0.3427;0.4018;
880.8000;0.3492;0.4310;
881.1000;0.3451;0.4164;
881.4000;0.3427;0.4164;
881.7000;0.3427;0.4140;
882.0000;0.3427;0.4066;
882.3000;0.3427;0.4091;
882.6000;0.3435;0.4115;
882.9000;0.3435;0.4091;
883.2000;0.3443;0.3993;
883.5000;0.3427;0.3920;
883.8000;0.3411;0.3920;
884.1000;0.3427;0.3969;
884.4000;0.3427;0.3920;
884.7000;0.3435;0.4042;
885.0000;0.3427;0.4091;
885.3000;0.3435;0.4164;
885.6000;0.3435;0.4140;
885.9000;0.3427;0.4237;
886.2000;0.3427;0.4286;
886.5000;0.3427;0.4334;
886.8000;0.3419;0.4237;
887.1000;0.3419;0.4164;
887.4000;0.3443;0.4261;
887.7000;0.3443;0.4310;
888.0000;0.3427;0.4213;
888.3000;0.3451;0.4261;
888.6000;0.3419;0.4164;
888.9000;0.3394;0.3993;
889.2000;0.3451;0.4115;
889.5000;0.3443;0.4188;
889.8000;0.3451;0.4140;
890.1000;0.3435;0.4042;
890.4000;0.3435;0.3969;
890.7000;0.3460;0.4018;
891.0000;0.3435;0.4018;
891.3000;0.3435;0.4018;
891.6000;0.3427;0.3993;
891.9000;0.3541;0.4383;
892.2000;0.3443;0.4188;
892.5000;0.3484;0.4164;
892.8000;0.3460;0.4066;
893.1000;0.3443;0.3920;
893.4000;0.3411;0.3823;
893.7000;0.3443;0.3847;
894.0000;0.3460;0.3847;
894.3000;0.3435;0.3823;
894.6000;0.3435;0.3872;
894.9000;0.3435;0.3945;
895.2000;0.3419;0.3945;
895.5000;0.3443;0.4091;
895.8000;0.3443;0.4066;
896.1000;0.3435;0.4091;
896.4000;0.3321;0.3872;
896.7000;0.3451;0.4164;
897.0000;0.3427;0.4018;
897.3000;0.3435;0.4042;
897.6000;0.3468;0.4115;
897.9000;0.3435;0.4091;
898.2000;0.3443;0.4115;
898.5000;0.3451;0.4188;
898.8000;0.3435;0.4164;
899.1000;0.3419;0.4066;
899.4000;0.3427;0.4140;
899.7000;0.3411;0.4091;
900.0000;0.3443;0.4115;
900.3000;0.3435;0.3993;
900.6000;0.3443;0.4042;
900.9000;0.3443;0.4018;
901.2000;0.3443;0.4115;
901.5000;0.3451;0.4140;
901.8000;0.3443;0.4140;
902.1000;0.3427;0.3993;
902.4000;0.3460;0.4042;
902.7000;0.3443;0.4042;
903.0000;0.3443;0.3993;
903.3000;0.3443;0.3993;
903.6000;0.3443;0.4091;
903.9000;0.3435;0.4140;
904.2000;0.3427;0.4115;
904.5000;0.3435;0.4018;
904.8000;0.3419;0.3969;
905.1000;0.3435;0.4018;
905.4000;0.3419;0.3920;
905.7000;0.3435;0.3993;
906.0000;0.3427;0.3969;
906.3000;0.3435;0.3969;
906.6000;0.3443;0.3969;
906.9000;0.3451;0.3969;
907.2000;0.3427;0.4018;
907.5000;0.3435;0.3993;
907.8000;0.3427;0.3920;
908.1000;0.3427;0.3920;
908.4000;0.3411;0.3945;
908.7000;0.3460;0.4042;
909.0000;0.3435;0.3993;
909.3000;0.3443;0.4042;
909.6000;0.3443;0.4018;
909.9000;0.3411;0.3896;
910.2000;0.3435;0.4066;
910.5000;0.3443;0.4140;
910.8000;0.3435;0.3993;
911.1000;0.3435;0.3920;
911.4000;0.3451;0.3896;
911.7000;0.3419;0.3872;
912.0000;0.3443;0.3920;
912.3000;0.3435;0.3920;
912.6000;0.3435;0.4018;
912.9000;0.3549;0.4286;
913.2000;0.3435;0.4018;
913.5000;0.3419;0.3920;
913.8000;0.3435;0.4018;
914.1000;0.3427;0.4018;
914.4000;0.3443;0.4018;
914.7000;0.3403;0.3847;
915.0000;0.3419;0.3847;
915.3000;0.3419;0.3896;
915.6000;0.3403;0.3872;
915.9000;0.3403;0.3799;
916.2000;0.3419;0.3823;
916.5000;0.3443;0.3872;
916.8000;0.3435;0.3896;
917.1000;0.3427;0.3896;
917.4000;0.3419;0.3872;
917.7000;0.3443;0.3969;
918.0000;0.3435;0.3993;
918.3000;0.3411;0.3945;
918.6000;0.3427;0.3920;
918.9000;0.3435;0.3920;
919.2000;0.3419;0.3896;
919.5000;0.3329;0.3701;
919.8000;0.3386;0.3896;
920.1000;0.3427;0.3969;
920.4000;0.3419;0.3945;
920.7000;0.3451;0.3969;
921.0000;0.3460;0.4042;
921.3000;0.3419;0.3993;
921.6000;0.3427;0.4115;
921.9000;0.3427;0.4091;
922.2000;0.3443;0.4115;
922.5000;0.3411;0.4066;
922.8000;0.3362;0.3945;
923.1000;0.3435;0.4066;
923.4000;0.3476;0.4140;
923.7000;0.3419;0.4042;
924.0000;0.3443;0.4091;
924.3000;0.3427;0.4042;
924.6000;0.3419;0.4018;
924.9000;0.3427;0.4018;
925.2000;0.3427;0.3920;
925.5000;0.3386;0.3799;
925.8000;0.3435;0.3896;
926.1000;0.3403;0.3896;
926.4000;0.3419;0.4018;
926.7000;0.3435;0.4018;
927.0000;0.3484;0.4140;
927.3000;0.3427;0.3969;
927.6000;0.3435;0.3945;
927.9000;0.3427;0.3969;
928.2000;0.3419;0.4066;
928.5000;0.3411;0.4091;
928.8000;0.3354;0.3993;
929.1000;0.3435;0.4164;
929.4000;0.3443;0.4140;
929.7000;0.3443;0.4042;
930.0000;0.3435;0.3969;
930.3000;0.3435;0.3896;
930.6000;0.3394;0.3896;
930.9000;0.3451;0.4042;
931.2000;0.3419;0.3993;
931.5000;0.3427;0.4042;
931.8000;0.3451;0.4018;
932.1000;0.3411;0.3945;
932.4000;0.3427;0.3920;
932.7000;0.3403;0.3823;
933.0000;0.3419;0.3945;
933.3000;0.3427;0.3969;
933.6000;0.3451;0.3920;
933.9000;0.3337;0.3555;
934.2000;0.3468;0.3920;
934.5000;0.3427;0.3847;
934.8000;0.3460;0.3945;
935.1000;0.3419;0.3872;
935.4000;0.3443;0.3847;
935.7000;0.3435;0.3896;
936.0000;0.3476;0.4018;
936.3000;0.3427;0.3896;
936.6000;0.3427;0.3872;
936.9000;0.3427;0.3847;
937.2000;0.3427;0.3823;
937.5000;0.3427;0.3799;
937.8000;0.3435;0.3847;
938.1000;0.3427;0.3920;
938.4000;0.3427;0.3945;
938.7000;0.3427;0.3969;
939.0000;0.3362;0.3799;
939.3000;0.3435;0.3920;
939.6000;0.3427;0.3993;
939.9000;0.3435;0.3969;
940.2000;0.3386;0.3750;
940.5000;0.3427;0.3920;
940.8000;0.3435;0.3920;
941.1000;0.3427;0.3872;
941.4000;0.3427;0.3872;
941.7000;0.3419;0.3945;
942.0000;0.3460;0.4066;
942.3000;0.3427;0.4018;
942.6000;0.3451;0.3993;
942.9000;0.3443;0.4066;
943.2000;0.3443;0.4091;
943.5000;0.3411;0.4042;
943.8000;0.3403;0.3969;
944.1000;0.3435;0.4066;
944.4000;0.3443;0.4091;
944.7000;0.3500;0.4310;
945.0000;0.3419;0.4115;
945.3000;0.3411;0.4188;
945.6000;0.3435;0.4261;
945.9000;0.3435;0.4286;
946.2000;0.3443;0.4286;
946.5000;0.3427;0.4237;
946.8000;0.3427;0.4140;
947.1000;0.3443;0.4188;
947.4000;0.3451;0.4164;
947.7000;0.3443;0.4188;
948.0000;0.3435;0.4213;
948.3000;0.3443;0.4261;
948.6000;0.3427;0.4188;
948.9000;0.3443;0.4261;
949.2000;0.3443;0.4115;
949.5000;0.3419;0.4091;
949.8000;0.3419;0.4164;
950.1000;0.3435;0.4261;
950.4000;0.3427;0.4188;
950.7000;0.3419;0.4164;
951.0000;0.3443;0.4237;
951.3000;0.3419;0.4115;
951.6000;0.3435;0.4140;
951.9000;0.3484;0.4188;
952.2000;0.3500;0.4286;
952.5000;0.3484;0.4237;
952.8000;0.3419;0.4066;
953.1000;0.3419;0.4018;
953.4000;0.3419;0.3993;
953.7000;0.3386;0.3969;
954.0000;0.3403;0.3920;
954.3000;0.3427;0.3920;
954.6000;0.3394;0.3945;
954.9000;0.3411;0.3993;
955.2000;0.3403;0.3969;
955.5000;0.3411;0.4066;
955.8000;0.3451;0.4091;
956.1000;0.3419;0.3993;
956.4000;0.3394;0.3945;
956.7000;0.3427;0.4018;
957.0000;0.3435;0.4091;
957.3000;0.3443;0.4115;
957.6000;0.3419;0.4115;
957.9000;0.3427;0.4213;
958.2000;0.3419;0.4091;
958.5000;0.3427;0.4066;
958.8000;0.3443;0.4091;
959.1000;0.3443;0.4115;
959.4000;0.3435;0.4115;
959.7000;0.3443;0.4140;
960.0000;0.3435;0.4042;
960.3000;0.3427;0.4042;
960.6000;0.3451;0.4091;
960.9000;0.3435;0.4066;
961.2000;0.3460;0.4237;
961.5000;0.3403;0.4188;
961.8000;0.3419;0.4164;
962.1000;0.3435;0.4115;
962.4000;0.3427;0.4164;
962.7000;0.3451;0.4188;
963.0000;0.3435;0.4091;
963.3000;0.3427;0.4018;
963.6000;0.3443;0.4066;
963.9000;0.3427;0.4066;
964.2000;0.3419;0.4164;
964.5000;0.3435;0.4164;
964.8000;0.3443;0.4237;
965.1000;0.3451;0.4237;
965.4000;0.3443;0.4237;
965.7000;0.3411;0.4237;
966.0000;0.3337;0.4042;
966.3000;0.3427;0.4286;
966.6000;0.3419;0.4213;
966.9000;0.3435;0.4213;
967.2000;0.3451;0.4164;
967.5000;0.3386;0.4018;
967.8000;0.3451;0.4237;
968.1000;0.3435;0.4237;
968.4000;0.3451;0.4310;
968.7000;0.3411;0.4213;
969.0000;0.3451;0.4286;
969.3000;0.3427;0.4213;
969.6000;0.3435;0.4164;
969.9000;0.3451;0.4164;
970.2000;0.3427;0.4140;
970.5000;0.3419;0.4042;
970.8000;0.3435;0.4042;
971.1000;0.3427;0.4042;
971.4000;0.3419;0.4042;
971.7000;0.3460;0.4164;
972.0000;0.3435;0.4091;
972.3000;0.3443;0.4115;
972.6000;0.3451;0.4140;
972.9000;0.3451;0.4237;
973.2000;0.3427;0.4383;
973.5000;0.3516;0.4578;
973.8000;0.3394;0.4310;
974.1000;0.3460;0.4383;
974.4000;0.3419;0.4237;
974.7000;0.3427;0.4140;
975.0000;0.3443;0.4261;
975.3000;0.3451;0.4310;
975.6000;0.3419;0.4237;
975.9000;0.3435;0.4261;
976.2000;0.3435;0.4140;
976.5000;0.3460;0.4188;
976.8000;0.3427;0.4018;
977.1000;0.3427;0.4018;
977.4000;0.3419;0.4066;
977.7000;0.3403;0.4091;
978.0000;0.3443;0.4164;
978.3000;0.3443;0.4164;
978.6000;0.3419;0.4188;
978.9000;0.3427;0.4188;
979.2000;0.3443;0.4115;
979.5000;0.3419;0.3993;
979.8000;0.3427;0.3945;
980.1000;0.3443;0.3872;
980.4000;0.3443;0.3823;
980.7000;0.3443;0.3750;
981.0000;0.3427;0.3774;
981.3000;0.3427;0.3920;
981.6000;0.3451;0.4115;
981.9000;0.3451;0.4115;
982.2000;0.3443;0.4091;
982.5000;0.3435;0.4042;
982.8000;0.3403;0.3945;
983.1000;0.3435;0.4164;
983.4000;0.3435;0.4164;
983.7000;0.3451;0.4140;
984.0000;0.3468;0.4213;
984.3000;0.3451;0.4066;
984.6000;0.3451;0.4140;
984.9000;0.3435;0.4018;
985.2000;0.3427;0.4091;
985.5000;0.3419;0.4042;
985.8000;0.3476;0.4164;
986.1000;0.3443;0.4042;
986.4000;0.3435;0.4018;
986.7000;0.3451;0.3993;
987.0000;0.3411;0.3969;
987.3000;0.3362;0.3847;
987.6000;0.3419;0.4066;
987.9000;0.3435;0.4164;
988.2000;0.3427;0.4115;
988.5000;0.3460;0.4188;
988.8000;0.3443;0.4140;
989.1000;0.3427;0.4164;
989.4000;0.3492;0.4407;
989.7000;0.3435;0.4164;
990.0000;0.3435;0.4213;
990.3000;0.3427;0.4188;
990.6000;0.3492;0.4407;
990.9000;0.3419;0.4164;
991.2000;0.3427;0.4164;
991.5000;0.3427;0.3993;
991.8000;0.3427;0.3993;
992.1000;0.3427;0.4018;
992.4000;0.3451;0.4066;
992.7000;0.3427;0.3969;
993.0000;0.3443;0.4066;
993.3000;0.3419;0.4066;
993.6000;0.3443;0.4091;
993.9000;0.3419;0.4066;
994.2000;0.3435;0.4115;
994.5000;0.3427;0.4188;
994.8000;0.3419;0.4237;
995.1000;0.3419;0.4188;
995.4000;0.3419;0.4091;
995.7000;0.3435;0.4115;
996.0000;0.3451;0.4091;
996.3000;0.3443;0.4066;
996.6000;0.3435;0.4042;
996.9000;0.3435;0.3945;
997.2000;0.3460;0.3945;
997.5000;0.3419;0.3872;
997.8000;0.3451;0.3872;
998.1000;0.3435;0.3872;
998.4000;0.3435;0.3945;
998.7000;0.3419;0.3945;
999.0000;0.3411;0.3896;
999.3000;0.3427;0.3920;
999.6000;0.3435;0.4066;
999.9000;0.3419;0.3993;
1000.2000;0.3419;0.3969;
1000.5000;0.3419;0.3993;
1000.8000;0.3427;0.4042;
1001.1000;0.3419;0.3969;
1001.4000;0.3427;0.3920;
1001.7000;0.3435;0.3872;
1002.0000;0.3419;0.3847;
1002.3000;0.3419;0.3896;
1002.6000;0.3427;0.3896;
1002.9000;0.3427;0.3896;
1003.2000;0.3427;0.3920;
1003.5000;0.3443;0.3969;
1003.8000;0.3427;0.3969;
1004.1000;0.3427;0.4018;
1004.4000;0.3443;0.4066;
1004.7000;0.3435;0.4115;
1005.0000;0.3451;0.4188;
1005.3000;0.3443;0.4237;
1005.6000;0.3460;0.4334;
1005.9000;0.3533;0.4529;
1006.2000;0.3435;0.4383;
1006.5000;0.3419;0.4286;
1006.8000;0.3443;0.4286;
1007.1000;0.3468;0.4261;
1007.4000;0.3427;0.4091;
1007.7000;0.3427;0.4042;
1008.0000;0.3435;0.4066;
1008.3000;0.3419;0.4115;
1008.6000;0.3427;0.4091;
1008.9000;0.3435;0.4042;
1009.2000;0.3411;0.4042;
1009.5000;0.3435;0.4066;
1009.8000;0.3435;0.4066;
1010.1000;0.3435;0.4042;
1010.4000;0.3386;0.3896;
1010.7000;0.3427;0.3993;
1011.0000;0.3460;0.4042;
1011.3000;0.3451;0.4018;
1011.6000;0.3451;0.4066;
1011.9000;0.3443;0.4115;
1012.2000;0.3435;0.4115;
1012.5000;0.3427;0.4066;
1012.8000;0.3427;0.4042;
1013.1000;0.3427;0.3993;
1013.4000;0.3435;0.3993;
1013.7000;0.3419;0.3945;
1014.0000;0.3525;0.4164;
1014.3000;0.3394;0.3823;
1014.6000;0.3443;0.3969;
1014.9000;0.3443;0.3969;
1015.2000;0.3427;0.3847;
1015.5000;0.3468;0.3945;
1015.8000;0.3443;0.3969;
1016.1000;0.3362;0.3701;
1016.4000;0.3435;0.3750;
1016.7000;0.3419;0.3847;
1017.0000;0.3411;0.3847;
1017.3000;0.3443;0.3993;
1017.6000;0.3419;0.3896;
1017.9000;0.3427;0.3945;
1018.2000;0.3419;0.3896;
1018.5000;0.3443;0.3920;
1018.8000;0.3427;0.3872;
1019.1000;0.3443;0.3823;
1019.4000;0.3427;0.3799;
1019.7000;0.3460;0.3896;
1020.0000;0.3427;0.3896;
1020.3000;0.3468;0.4018;
1020.6000;0.3419;0.3945;
1020.9000;0.3411;0.3969;
1021.2000;0.3427;0.3969;
1021.5000;0.3435;0.3896;
1021.8000;0.3411;0.3823;
1022.1000;0.3427;0.3920;
1022.4000;0.3435;0.3969;
1022.7000;0.3394;0.3920;
1023.0000;0.3411;0.3896;
1023.3000;0.3427;0.3872;
1023.6000;0.3435;0.3920;
1023.9000;0.3419;0.3969;
1024.2000;0.3419;0.3993;
1024.5000;0.3419;0.3969;
1024.8000;0.3329;0.3726;
1025.1000;0.3435;0.4018;
1025.4000;0.3419;0.3872;
1025.7000;0.3362;0.3628;
1026.0000;0.3419;0.3799;
1026.3000;0.3435;0.3847;
1026.6000;0.3419;0.3799;
1026.9000;0.3419;0.3799;
1027.2000;0.3419;0.3750;
1027.5000;0.3435;0.3774;
1027.8000;0.3427;0.3774;
1028.1000;0.3411;0.3701;
1028.4000;0.3451;0.3799;
1028.7000;0.3451;0.3653;
1029.0000;0.3460;0.3701;
1029.3000;0.3451;0.3653;
1029.6000;0.3443;0.3628;
1029.9000;0.3443;0.3579;
1030.2000;0.3435;0.3604;
1030.5000;0.3443;0.3604;
1030.8000;0.3476;0.3774;
1031.1000;0.3460;0.3726;
1031.4000;0.3435;0.3726;
1031.7000;0.3435;0.3774;
1032.0000;0.3386;0.3799;
1032.3000;0.3427;0.3872;
1032.6000;0.3435;0.3896;
1032.9000;0.3403;0.3896;
1033.2000;0.3419;0.3920;
1033.5000;0.3451;0.3969;
1033.8000;0.3492;0.4188;
1034.1000;0.3419;0.3969;
1034.4000;0.3427;0.3969;
1034.7000;0.3419;0.3872;
1035.0000;0.3394;0.3750;
1035.3000;0.3435;0.3823;
1035.6000;0.3411;0.3847;
1035.9000;0.3443;0.3920;
1036.2000;0.3443;0.3969;
1036.5000;0.3427;0.3872;
1036.8000;0.3362;0.3750;
1037.1000;0.3403;0.3750;
1037.4000;0.3427;0.3799;
1037.7000;0.3427;0.3823;
1038.0000;0.3419;0.3896;
1038.3000;0.3427;0.3920;
1038.6000;0.3419;0.3920;
1038.9000;0.3427;0.3847;
1039.2000;0.3411;0.3799;
1039.5000;0.3427;0.3847;
1039.8000;0.3427;0.3823;
1040.1000;0.3435;0.3847;
1040.4000;0.3443;0.3896;
1040.7000;0.3427;0.3945;
1041.0000;0.3460;0.3969;
1041.3000;0.3451;0.3969;
1041.6000;0.3508;0.4115;
1041.9000;0.3435;0.3896;
1042.2000;0.3443;0.3872;
1042.5000;0.3435;0.3872;
1042.8000;0.3427;0.3847;
1043.1000;0.3427;0.3920;
1043.4000;0.3427;0.3993;
1043.7000;0.3419;0.3945;
1044.0000;0.3427;0.3993;
1044.3000;0.3435;0.4091;
1044.6000;0.3427;0.4091;
1044.9000;0.3419;0.4018;
1045.2000;0.3435;0.4115;
1045.5000;0.3460;0.4164;
1045.8000;0.3427;0.4042;
1046.1000;0.3419;0.3993;
1046.4000;0.3484;0.4091;
1046.7000;0.3427;0.3945;
1047.0000;0.3443;0.3969;
1047.3000;0.3427;0.3945;
1047.6000;0.3435;0.3847;
1047.9000;0.3411;0.3847;
1048.2000;0.3427;0.3872;
1048.5000;0.3403;0.3920;
1048.8000;0.3419;0.3945;
1049.1000;0.3443;0.4018;
1049.4000;0.3435;0.3969;
1049.7000;0.3451;0.3993;
1050.0000;0.3378;0.3847;
1050.3000;0.3419;0.3945;
1050.6000;0.3427;0.3920;
1050.9000;0.3419;0.3872;
1051.2000;0.3427;0.3920;
1051.5000;0.3419;0.3920;
1051.8000;0.3443;0.4042;
1052.1000;0.3403;0.3896;
1052.4000;0.3419;0.3920;
1052.7000;0.3443;0.4091;
1053.0000;0.3468;0.4091;
1053.3000;0.3419;0.3945;
1053.6000;0.3419;0.3920;
1053.9000;0.3451;0.3969;
1054.2000;0.3443;0.3896;
1054.5000;0.3427;0.3872;
1054.8000;0.3443;0.3823;
1055.1000;0.3427;0.3823;
1055.4000;0.3435;0.3823;
1055.7000;0.3451;0.3945;
1056.0000;0.3435;0.3847;
1056.3000;0.3443;0.3872;
1056.6000;0.3435;0.3993;
1056.9000;0.3435;0.4018;
1057.2000;0.3403;0.3969;
1057.5000;0.3427;0.3920;
1057.8000;0.3419;0.3969;
1058.1000;0.3435;0.3969;
1058.4000;0.3460;0.4018;
1058.7000;0.3411;0.3896;
1059.0000;0.3419;0.3799;
1059.3000;0.3443;0.3799;
1059.6000;0.3411;0.3750;
1059.9000;0.3419;0.3701;
1060.2000;0.3427;0.3677;
1060.5000;0.3427;0.3726;
1060.8000;0.3427;0.3726;
1061.1000;0.3419;0.3579;
1061.4000;0.3435;0.3604;
1061.7000;0.3427;0.3653;
1062.0000;0.3394;0.3604;
1062.3000;0.3427;0.3701;
1062.6000;0.3370;0.3628;
1062.9000;0.3427;0.3750;
1063.2000;0.3427;0.3823;
1063.5000;0.3411;0.3799;
1063.8000;0.3419;0.3799;
1064.1000;0.3443;0.3750;
1064.4000;0.3435;0.3872;
1064.7000;0.3451;0.3872;
1065.0000;0.3451;0.3896;
1065.3000;0.3451;0.3872;
1065.6000;0.3419;0.3945;
1065.9000;0.3443;0.3993;
1066.2000;0.3460;0.4140;
1066.5000;0.3443;0.4066;
1066.8000;0.3443;0.4115;
1067.1000;0.3435;0.4164;
1067.4000;0.3443;0.4091;
1067.7000;0.3427;0.3945;
1068.0000;0.3411;0.3799;
1068.3000;0.3443;0.3896;
1068.6000;0.3419;0.3920;
1068.9000;0.3468;0.4042;
1069.2000;0.3435;0.3823;
1069.5000;0.3443;0.3774;
1069.8000;0.3443;0.3750;
1070.1000;0.3427;0.3750;
1070.4000;0.3460;0.3872;
1070.7000;0.3435;0.3799;
1071.0000;0.3435;0.3726;
1071.3000;0.3419;0.3726;
1071.6000;0.3419;0.3726;
1071.9000;0.3419;0.3774;
1072.2000;0.3403;0.3726;
1072.5000;0.3435;0.3750;
1072.8000;0.3411;0.3750;
1073.1000;0.3427;0.3677;
1073.4000;0.3427;0.3653;
1073.7000;0.3427;0.3653;
1074.0000;0.3411;0.3604;
1074.3000;0.3427;0.3653;
1074.6000;0.3435;0.3604;
1074.9000;0.3451;0.3677;
1075.2000;0.3411;0.3604;
1075.5000;0.3419;0.3677;
1075.8000;0.3443;0.3701;
1076.1000;0.3451;0.3774;
1076.4000;0.3451;0.3823;
1076.7000;0.3451;0.3823;
1077.0000;0.3435;0.3774;
1077.3000;0.3484;0.3896;
1077.6000;0.3443;0.3653;
1077.9000;0.3411;0.3604;
1078.2000;0.3419;0.3604;
1078.5000;0.3451;0.3604;
1078.8000;0.3419;0.3604;
1079.1000;0.3419;0.3628;
1079.4000;0.3427;0.3628;
1079.7000;0.3419;0.3579;
1080.0000;0.3419;0.3653;
1080.3000;0.3419;0.3726;
1080.6000;0.3419;0.3750;
1080.9000;0.3435;0.3701;
1081.2000;0.3427;0.3677;
1081.5000;0.3329;0.3385;
1081.8000;0.3411;0.3531;
1082.1000;0.3419;0.3677;
1082.4000;0.3451;0.3774;
1082.7000;0.3427;0.3653;
1083.0000;0.3411;0.3555;
1083.3000;0.3403;0.3506;
1083.6000;0.3411;0.3604;
1083.9000;0.3411;0.3604;
1084.2000;0.3411;0.3579;
1084.5000;0.3443;0.3653;
1084.8000;0.3443;0.3677;
1085.1000;0.3443;0.3750;
1085.4000;0.3411;0.3628;
1085.7000;0.3443;0.3604;
1086.0000;0.3427;0.3531;
1086.3000;0.3427;0.3579;
1086.6000;0.3427;0.3579;
1086.9000;0.3411;0.3628;
1087.2000;0.3427;0.3531;
1087.5000;0.3346;0.3360;
1087.8000;0.3419;0.3506;
1088.1000;0.3427;0.3604;
1088.4000;0.3492;0.3823;
1088.7000;0.3460;0.3750;
1089.0000;0.3435;0.3750;
1089.3000;0.3411;0.3628;
1089.6000;0.3403;0.3604;
1089.9000;0.3419;0.3604;
1090.2000;0.3427;0.3701;
1090.5000;0.3419;0.3628;
1090.8000;0.3427;0.3653;
1091.1000;0.3346;0.3433;
1091.4000;0.3435;0.3677;
1091.7000;0.3427;0.3677;
1092.0000;0.3411;0.3653;
1092.3000;0.3443;0.3701;
1092.6000;0.3411;0.3726;
1092.9000;0.3443;0.3774;
1093.2000;0.3411;0.3726;
1093.5000;0.3411;0.3774;
1093.8000;0.3427;0.3774;
1094.1000;0.3411;0.3653;
1094.4000;0.3451;0.3774;
1094.7000;0.3427;0.3677;
1095.0000;0.3394;0.3628;
1095.3000;0.3403;0.3531;
1095.6000;0.3427;0.3506;
1095.9000;0.3419;0.3555;
1096.2000;0.3419;0.3677;
1096.5000;0.3427;0.3726;
1096.8000;0.3411;0.3726;
1097.1000;0.3427;0.3726;
1097.4000;0.3419;0.3726;
1097.7000;0.3427;0.3774;
1098.0000;0.3468;0.3847;
1098.3000;0.3443;0.3750;
1098.6000;0.3435;0.3823;
1098.9000;0.3427;0.3799;
1099.2000;0.3419;0.3750;
1099.5000;0.3443;0.3750;
1099.8000;0.3443;0.3774;
1100.1000;0.3386;0.3604;
1100.4000;0.3419;0.3726;
1100.7000;0.3427;0.3701;
1101.0000;0.3435;0.3750;
1101.3000;0.3443;0.3726;
1101.6000;0.3460;0.3750;
1101.9000;0.3411;0.3677;
1102.2000;0.3435;0.3701;
1102.5000;0.3435;0.3799;
1102.8000;0.3427;0.3774;
1103.1000;0.3460;0.3872;
1103.4000;0.3427;0.3677;
1103.7000;0.3435;0.3653;
1104.0000;0.3443;0.3677;
1104.3000;0.3435;0.3653;
1104.6000;0.3411;0.3653;
1104.9000;0.3427;0.3701;
1105.2000;0.3419;0.3750;
1105.5000;0.3394;0.3653;
1105.8000;0.3394;0.3604;
1106.1000;0.3419;0.3677;
1106.4000;0.3451;0.3677;
1106.7000;0.3419;0.3604;
1107.0000;0.3500;0.3920;
1107.3000;0.3419;0.3677;
1107.6000;0.3346;0.3482;
1107.9000;0.3403;0.3604;
1108.2000;0.3411;0.3653;
1108.5000;0.3427;0.3653;
1108.8000;0.3460;0.3750;
1109.1000;0.3451;0.3799;
1109.4000;0.3435;0.3774;
1109.7000;0.3427;0.3847;
1110.0000;0.3443;0.3896;
1110.3000;0.3419;0.3872;
1110.6000;0.3435;0.3847;
1110.9000;0.3443;0.3872;
1111.2000;0.3435;0.3823;
1111.5000;0.3435;0.3823;
1111.8000;0.3435;0.3774;
1112.1000;0.3394;0.3701;
1112.4000;0.3427;0.3750;
1112.7000;0.3419;0.3799;
1113.0000;0.3394;0.3701;
1113.3000;0.3419;0.3653;
1113.6000;0.3419;0.3653;
1113.9000;0.3435;0.3701;
1114.2000;0.3427;0.3628;
1114.5000;0.3427;0.3555;
1114.8000;0.3419;0.3677;
1115.1000;0.3435;0.3750;
1115.4000;0.3427;0.3774;
1115.7000;0.3435;0.3847;
1116.0000;0.3411;0.3799;
1116.3000;0.3419;0.3823;
1116.6000;0.3427;0.3872;
1116.9000;0.3427;0.3920;
1117.2000;0.3411;0.3847;
1117.5000;0.3435;0.3823;
1117.8000;0.3403;0.3701;
1118.1000;0.3419;0.3774;
1118.4000;0.3354;0.3555;
1118.7000;0.3419;0.3750;
1119.0000;0.3411;0.3726;
1119.3000;0.3419;0.3701;
1119.6000;0.3443;0.3677;
1119.9000;0.3427;0.3701;
1120.2000;0.3443;0.3726;
1120.5000;0.3435;0.3726;
1120.8000;0.3443;0.3774;
1121.1000;0.3476;0.3823;
1121.4000;0.3435;0.3726;
1121.7000;0.3378;0.3531;
1122.0000;0.3435;0.3579;
1122.3000;0.3419;0.3531;
1122.6000;0.3468;0.3677;
1122.9000;0.3460;0.3604;
1123.2000;0.3435;0.3579;
1123.5000;0.3435;0.3628;
1123.8000;0.3394;0.3482;
1124.1000;0.3435;0.3726;
1124.4000;0.3443;0.3799;
1124.7000;0.3411;0.3726;
1125.0000;0.3468;0.3872;
1125.3000;0.3443;0.3872;
1125.6000;0.3516;0.4066;
1125.9000;0.3443;0.3774;
1126.2000;0.3427;0.3726;
1126.5000;0.3403;0.3726;
1126.8000;0.3419;0.3799;
1127.1000;0.3427;0.3774;
1127.4000;0.3419;0.3701;
1127.7000;0.3427;0.3726;
1128.0000;0.3411;0.3701;
1128.3000;0.3427;0.3823;
1128.6000;0.3419;0.3896;
1128.9000;0.3411;0.3847;
1129.2000;0.3427;0.3896;
1129.5000;0.3435;0.3920;
1129.8000;0.3403;0.3799;
1130.1000;0.3411;0.3823;
1130.4000;0.3427;0.3872;
1130.7000;0.3427;0.3896;
1131.0000;0.3427;0.3847;
1131.3000;0.3435;0.3896;
1131.6000;0.3378;0.3774;
1131.9000;0.3427;0.3872;
1132.2000;0.3443;0.3896;
1132.5000;0.3419;0.3945;
1132.8000;0.3460;0.4018;
1133.1000;0.3427;0.3920;
1133.4000;0.3427;0.3847;
1133.7000;0.3411;0.3896;
1134.0000;0.3419;0.3872;
1134.3000;0.3411;0.3872;
1134.6000;0.3427;0.3823;
1134.9000;0.3435;0.3799;
1135.2000;0.3435;0.3823;
1135.5000;0.3435;0.3823;
1135.8000;0.3419;0.3774;
1136.1000;0.3427;0.3823;
1136.4000;0.3427;0.3847;
1136.7000;0.3451;0.3872;
1137.0000;0.3443;0.3750;
1137.3000;0.3443;0.3750;
1137.6000;0.3346;0.3604;
1137.9000;0.3443;0.3799;
1138.2000;0.3435;0.3750;
1138.5000;0.3427;0.3677;
1138.8000;0.3403;0.3677;
1139.1000;0.3411;0.3701;
1139.4000;0.3435;0.3726;
1139.7000;0.3403;0.3726;
1140.0000;0.3411;0.3823;
1140.3000;0.3419;0.3896;
1140.6000;0.3411;0.3872;
1140.9000;0.3435;0.3847;
1141.2000;0.3435;0.3847;
1141.5000;0.3419;0.3799;
1141.8000;0.3427;0.3726;
1142.1000;0.3435;0.3823;
1142.4000;0.3354;0.3628;
1142.7000;0.3476;0.3847;
1143.0000;0.3427;0.3677;
1143.3000;0.3354;0.3531;
1143.6000;0.3443;0.3653;
1143.9000;0.3411;0.3604;
1144.2000;0.3451;0.3701;
1144.5000;0.3443;0.3628;
1144.8000;0.3427;0.3604;
1145.1000;0.3427;0.3653;
1145.4000;0.3443;0.3653;
1145.7000;0.3427;0.3750;
1146.0000;0.3435;0.3774;
1146.3000;0.3435;0.3774;
1146.6000;0.3419;0.3677;
1146.9000;0.3419;0.3774;
1147.2000;0.3435;0.3799;
1147.5000;0.3427;0.3799;
1147.8000;0.3419;0.3750;
1148.1000;0.3427;0.3799;
1148.4000;0.3451;0.3823;
1148.7000;0.3419;0.3823;
1149.0000;0.3419;0.3847;
1149.3000;0.3419;0.3823;
1149.6000;0.3419;0.3750;
1149.9000;0.3427;0.3774;
1150.2000;0.3427;0.3726;
1150.5000;0.3411;0.3726;
1150.8000;0.3451;0.3847;
1151.1000;0.3435;0.3823;
1151.4000;0.3419;0.3726;
1151.7000;0.3411;0.3701;
1152.0000;0.3386;0.3628;
1152.3000;0.3419;0.3750;
1152.6000;0.3419;0.3896;
1152.9000;0.3427;0.3945;
1153.2000;0.3419;0.3920;
1153.5000;0.3411;0.3896;
1153.8000;0.3411;0.3969;
1154.1000;0.3419;0.3993;
1154.4000;0.3419;0.3945;
1154.7000;0.3386;0.3896;
1155.0000;0.3443;0.4066;
1155.3000;0.3411;0.3993;
1155.6000;0.3508;0.4237;
1155.9000;0.3443;0.4042;
1156.2000;0.3435;0.3993;
1156.5000;0.3427;0.3872;
1156.8000;0.3427;0.3920;
1157.1000;0.3403;0.3920;
1157.4000;0.3443;0.3969;
1157.7000;0.3427;0.3872;
1158.0000;0.3419;0.3823;
1158.3000;0.3419;0.3774;
1158.6000;0.3476;0.3872;
1158.9000;0.3403;0.3653;
1159.2000;0.3419;0.3726;
1159.5000;0.3435;0.3726;
1159.8000;0.3427;0.3774;
1160.1000;0.3427;0.3750;
1160.4000;0.3419;0.3750;
1160.7000;0.3403;0.3701;
1161.0000;0.3419;0.3799;
1161.3000;0.3427;0.3701;
1161.6000;0.3460;0.3726;
1161.9000;0.3443;0.3750;
1162.2000;0.3427;0.3799;
1162.5000;0.3419;0.3896;
1162.8000;0.3419;0.3896;
1163.1000;0.3427;0.3920;
1163.4000;0.3403;0.3993;
1163.7000;0.3419;0.4066;
1164.0000;0.3419;0.4042;
1164.3000;0.3419;0.4018;
1164.6000;0.3394;0.3920;
1164.9000;0.3403;0.3872;
1165.2000;0.3419;0.3872;
1165.5000;0.3419;0.3799;
1165.8000;0.3394;0.3677;
1166.1000;0.3435;0.3799;
1166.4000;0.3394;0.3750;
1166.7000;0.3419;0.3872;
1167.0000;0.3419;0.3872;
1167.3000;0.3427;0.3896;
1167.6000;0.3443;0.3945;
1167.9000;0.3443;0.3993;
1168.2000;0.3411;0.3799;
1168.5000;0.3460;0.3872;
1168.8000;0.3435;0.3823;
1169.1000;0.3443;0.3799;
1169.4000;0.3427;0.3823;
1169.7000;0.3411;0.3872;
1170.0000;0.3427;0.3920;
1170.3000;0.3435;0.3920;
1170.6000;0.3411;0.3896;
1170.9000;0.3427;0.3945;
1171.2000;0.3427;0.3945;
1171.5000;0.3484;0.4042;
1171.8000;0.3411;0.3969;
1172.1000;0.3419;0.3945;
1172.4000;0.3403;0.3945;
1172.7000;0.3435;0.3945;
1173.0000;0.3411;0.3823;
1173.3000;0.3354;0.3604;
1173.6000;0.3370;0.3677;
1173.9000;0.3451;0.3920;
1174.2000;0.3411;0.3799;
1174.5000;0.3411;0.3774;
1174.8000;0.3411;0.3701;
1175.1000;0.3443;0.3823;
1175.4000;0.3403;0.3799;
1175.7000;0.3419;0.3896;
1176.0000;0.3362;0.3823;
1176.3000;0.3362;0.3726;
1176.6000;0.3411;0.3823;
1176.9000;0.3427;0.3847;
1177.2000;0.3427;0.3799;
1177.5000;0.3386;0.3677;
1177.8000;0.3435;0.3799;
1178.1000;0.3419;0.3750;
1178.4000;0.3476;0.3823;
1178.7000;0.3411;0.3604;
1179.0000;0.3411;0.3506;
1179.3000;0.3419;0.3506;
1179.6000;0.3394;0.3628;
1179.9000;0.3403;0.3653;
1180.2000;0.3427;0.3750;
1180.5000;0.3411;0.3653;
1180.8000;0.3476;0.3945;
1181.1000;0.3411;0.3847;
1181.4000;0.3370;0.3726;
1181.7000;0.3419;0.3872;
1182.0000;0.3394;0.3847;
1182.3000;0.3427;0.3896;
1182.6000;0.3403;0.3823;
1182.9000;0.3435;0.3823;
1183.2000;0.3435;0.3799;
1183.5000;0.3419;0.3774;
1183.8000;0.3419;0.3799;
1184.1000;0.3435;0.3823;
1184.4000;0.3427;0.3823;
1184.7000;0.3411;0.3920;
1185.0000;0.3435;0.3969;
1185.3000;0.3411;0.3969;
1185.6000;0.3419;0.3993;
1185.9000;0.3435;0.4018;
1186.2000;0.3435;0.3993;
1186.5000;0.3427;0.3896;
1186.8000;0.3468;0.3847;
1187.1000;0.3427;0.3750;
1187.4000;0.3419;0.3750;
1187.7000;0.3411;0.3726;
1188.0000;0.3411;0.3677;
1188.3000;0.3419;0.3750;
1188.6000;0.3427;0.3750;
1188.9000;0.3411;0.3701;
1189.2000;0.3378;0.3628;
1189.5000;0.3427;0.3750;
1189.8000;0.3419;0.3701;
1190.1000;0.3419;0.3653;
1190.4000;0.3427;0.3677;
1190.7000;0.3411;0.3628;
1191.0000;0.3411;0.3628;
1191.3000;0.3419;0.3799;
1191.6000;0.3427;0.3823;
1191.9000;0.3460;0.3847;
1192.2000;0.3403;0.3774;
1192.5000;0.3435;0.3750;
1192.8000;0.3419;0.3726;
1193.1000;0.3435;0.3726;
1193.4000;0.3460;0.3726;
1193.7000;0.3419;0.3677;
1194.0000;0.3427;0.3677;
1194.3000;0.3427;0.3677;
1194.6000;0.3419;0.3653;
1194.9000;0.3394;0.3653;
1195.2000;0.3403;0.3701;
1195.5000;0.3378;0.3604;
1195.8000;0.3427;0.3677;
1196.1000;0.3435;0.3677;
1196.4000;0.3460;0.3799;
1196.7000;0.3500;0.3920;
1197.0000;0.3460;0.3774;
1197.3000;0.3443;0.3774;
1197.6000;0.3435;0.3701;
1197.9000;0.3443;0.3628;
1198.2000;0.3427;0.3677;
1198.5000;0.3419;0.3653;
1198.8000;0.3427;0.3750;
1199.1000;0.3419;0.3701;
1199.4000;0.3403;0.3677;
1199.7000;0.3427;0.3726;
1200.0000;0.3435;0.3677;
1200.3000;0.3419;0.3726;
1200.6000;0.3370;0.3506;
1200.9000;0.3403;0.3555;
1201.2000;0.3403;0.3579;
1201.5000;0.3419;0.3701;
1201.8000;0.3427;0.3726;
1202.1000;0.3427;0.3701;
1202.4000;0.3492;0.3799;
1202.7000;0.3419;0.3555;
1203.0000;0.3378;0.3482;
1203.3000;0.3411;0.3604;
1203.6000;0.3419;0.3604;
1203.9000;0.3411;0.3653;
1204.2000;0.3427;0.3799;
1204.5000;0.3411;0.3750;
1204.8000;0.3443;0.3750;
1205.1000;0.3451;0.3823;
1205.4000;0.3427;0.3701;
1205.7000;0.3460;0.3677;
1206.0000;0.3411;0.3433;
1206.3000;0.3411;0.3433;
1206.6000;0.3419;0.3531;
1206.9000;0.3419;0.3555;
1207.2000;0.3451;0.3555;
1207.5000;0.3419;0.3555;
1207.8000;0.3427;0.3677;
1208.1000;0.3427;0.3726;
1208.4000;0.3427;0.3726;
1208.7000;0.3435;0.3726;
1209.0000;0.3435;0.3799;
1209.3000;0.3419;0.3750;
1209.6000;0.3419;0.3677;
1209.9000;0.3394;0.3604;
1210.2000;0.3411;0.3555;
1210.5000;0.3427;0.3555;
1210.8000;0.3370;0.3336;
1211.1000;0.3419;0.3555;
1211.4000;0.3419;0.3579;
1211.7000;0.3427;0.3604;
1212.0000;0.3419;0.3506;
1212.3000;0.3508;0.3750;
1212.6000;0.3451;0.3677;
1212.9000;0.3419;0.3726;
1213.2000;0.3435;0.3774;
1213.5000;0.3427;0.3774;
1213.8000;0.3403;0.3677;
1214.1000;0.3435;0.3701;
1214.4000;0.3419;0.3579;
1214.7000;0.3386;0.3555;
1215.0000;0.3427;0.3677;
1215.3000;0.3419;0.3653;
1215.6000;0.3435;0.3677;
1215.9000;0.3411;0.3726;
1216.2000;0.3403;0.3701;
1216.5000;0.3394;0.3750;
1216.8000;0.3403;0.3726;
1217.1000;0.3411;0.3750;
1217.4000;0.3443;0.3750;
1217.7000;0.3419;0.3823;
1218.0000;0.3427;0.3847;
1218.3000;0.3419;0.3847;
1218.6000;0.3443;0.3896;
1218.9000;0.3427;0.3847;
1219.2000;0.3427;0.3823;
1219.5000;0.3354;0.3628;
1219.8000;0.3394;0.3701;
1220.1000;0.3411;0.3750;
1220.4000;0.3427;0.3750;
1220.7000;0.3394;0.3774;
1221.0000;0.3435;0.3823;
1221.3000;0.3411;0.3799;
1221.6000;0.3443;0.3872;
1221.9000;0.3435;0.3823;
1222.2000;0.3435;0.3872;
1222.5000;0.3403;0.3823;
1222.8000;0.3419;0.3799;
1223.1000;0.3419;0.3872;
1223.4000;0.3411;0.3872;
1223.7000;0.3427;0.3896;
1224.0000;0.3460;0.3945;
1224.3000;0.3362;0.3726;
1224.6000;0.3419;0.3847;
1224.9000;0.3427;0.3799;
1225.2000;0.3427;0.3726;
1225.5000;0.3411;0.3628;
1225.8000;0.3394;0.3628;
1226.1000;0.3419;0.3653;
1226.4000;0.3411;0.3653;
1226.7000;0.3411;0.3701;
1227.0000;0.3411;0.3701;
1227.3000;0.3411;0.3628;
1227.6000;0.3500;0.3823;
1227.9000;0.3403;0.3604;
1228.2000;0.3411;0.3701;
1228.5000;0.3443;0.3750;
1228.8000;0.3435;0.3726;
1229.1000;0.3435;0.3604;
1229.4000;0.3435;0.3555;
1229.7000;0.3362;0.3409;
1230.0000;0.3427;0.3506;
1230.3000;0.3419;0.3531;
1230.6000;0.3419;0.3604;
1230.9000;0.3419;0.3677;
1231.2000;0.3419;0.3726;
1231.5000;0.3435;0.3774;
1231.8000;0.3435;0.3701;
1232.1000;0.3435;0.3653;
1232.4000;0.3427;0.3677;
1232.7000;0.3419;0.3677;
1233.0000;0.3435;0.3750;
1233.3000;0.3419;0.3677;
1233.6000;0.3419;0.3677;
1233.9000;0.3443;0.3774;
1234.2000;0.3435;0.3677;
1234.5000;0.3419;0.3653;
1234.8000;0.3411;0.3653;
1235.1000;0.3411;0.3628;
1235.4000;0.3460;0.3726;
1235.7000;0.3370;0.3482;
1236.0000;0.3427;0.3628;
1236.3000;0.3362;0.3433;
1236.6000;0.3411;0.3653;
1236.9000;0.3411;0.3579;
1237.2000;0.3403;0.3531;
1237.5000;0.3411;0.3482;
1237.8000;0.3427;0.3555;
1238.1000;0.3403;0.3409;
1238.4000;0.3443;0.3604;
1238.7000;0.3411;0.3555;
1239.0000;0.3419;0.3628;
1239.3000;0.3419;0.3653;
1239.6000;0.3378;0.3628;
1239.9000;0.3411;0.3579;
1240.2000;0.3403;0.3579;
1240.5000;0.3427;0.3628;
1240.8000;0.3419;0.3726;
1241.1000;0.3419;0.3701;
1241.4000;0.3411;0.3750;
1241.7000;0.3419;0.3750;
1242.0000;0.3443;0.3677;
1242.3000;0.3427;0.3653;
1242.6000;0.3435;0.3677;
1242.9000;0.3443;0.3726;
1243.2000;0.3411;0.3701;
1243.5000;0.3411;0.3677;
1243.8000;0.3427;0.3726;
1244.1000;0.3435;0.3799;
1244.4000;0.3411;0.3799;
1244.7000;0.3403;0.3774;
1245.0000;0.3411;0.3774;
1245.3000;0.3411;0.3774;
1245.6000;0.3460;0.3920;
1245.9000;0.3435;0.3750;
1246.2000;0.3411;0.3726;
1246.5000;0.3419;0.3701;
1246.8000;0.3435;0.3799;
1247.1000;0.3435;0.3726;
1247.4000;0.3427;0.3701;
1247.7000;0.3435;0.3701;
1248.0000;0.3427;0.3677;
1248.3000;0.3435;0.3677;
1248.6000;0.3427;0.3726;
1248.9000;0.3443;0.3750;
1249.2000;0.3411;0.3774;
1249.5000;0.3427;0.3823;
1249.8000;0.3419;0.3823;
1250.1000;0.3427;0.3945;
1250.4000;0.3419;0.3945;
1250.7000;0.3394;0.3799;
1251.0000;0.3435;0.3896;
1251.3000;0.3419;0.3847;
1251.6000;0.3435;0.3969;
1251.9000;0.3394;0.3896;
1252.2000;0.3443;0.3920;
1252.5000;0.3419;0.3872;
1252.8000;0.3435;0.3896;
1253.1000;0.3460;0.3945;
1253.4000;0.3394;0.3774;
1253.7000;0.3435;0.3920;
1254.0000;0.3419;0.3872;
1254.3000;0.3419;0.3920;
1254.6000;0.3419;0.3945;
1254.9000;0.3468;0.4018;
1255.2000;0.3419;0.3920;
1255.5000;0.3427;0.3896;
1255.8000;0.3451;0.3847;
1256.1000;0.3427;0.3799;
1256.4000;0.3427;0.3799;
1256.7000;0.3378;0.3774;
1257.0000;0.3427;0.3920;
1257.3000;0.3411;0.3872;
1257.6000;0.3411;0.3920;
1257.9000;0.3419;0.3945;
1258.2000;0.3451;0.4066;
1258.5000;0.3419;0.3993;
1258.8000;0.3411;0.3945;
1259.1000;0.3435;0.4066;
1259.4000;0.3370;0.3896;
1259.7000;0.3525;0.4310;
1260.0000;0.3419;0.4018;
1260.3000;0.3427;0.3993;
1260.6000;0.3419;0.3920;
1260.9000;0.3411;0.3823;
1261.2000;0.3435;0.3847;
1261.5000;0.3411;0.3799;
1261.8000;0.3435;0.3823;
1262.1000;0.3419;0.3726;
1262.4000;0.3403;0.3677;
1262.7000;0.3451;0.3896;
1263.0000;0.3419;0.3896;
1263.3000;0.3427;0.3823;
1263.6000;0.3411;0.3823;
1263.9000;0.3411;0.3847;
1264.2000;0.3419;0.3896;
1264.5000;0.3427;0.3945;
1264.8000;0.3419;0.3896;
1265.1000;0.3419;0.3750;
1265.4000;0.3419;0.3726;
1265.7000;0.3419;0.3750;
1266.0000;0.3419;0.3823;
1266.3000;0.3411;0.3872;
1266.6000;0.3419;0.3896;
1266.9000;0.3427;0.3872;
1267.2000;0.3419;0.3896;
1267.5000;0.3419;0.4018;
1267.8000;0.3411;0.3945;
1268.1000;0.3419;0.3945;
1268.4000;0.3419;0.3896;
1268.7000;0.3427;0.3969;
1269.0000;0.3386;0.3993;
1269.3000;0.3378;0.4066;
1269.6000;0.3403;0.4115;
1269.9000;0.3419;0.4115;
1270.2000;0.3427;0.4066;
1270.5000;0.3427;0.3969;
1270.8000;0.3403;0.3920;
1271.1000;0.3403;0.3896;
1271.4000;0.3394;0.3920;
1271.7000;0.3386;0.3969;
1272.0000;0.3403;0.4066;
1272.3000;0.3403;0.3945;
1272.6000;0.3403;0.3872;
1272.9000;0.3394;0.3920;
1273.2000;0.3427;0.3945;
1273.5000;0.3435;0.3872;
1273.8000;0.3419;0.3799;
1274.1000;0.3394;0.3774;
1274.4000;0.3427;0.3896;
1274.7000;0.3403;0.3847;
1275.0000;0.3451;0.3969;
1275.3000;0.3419;0.3920;
1275.6000;0.3419;0.3896;
1275.9000;0.3419;0.3847;
1276.2000;0.3411;0.3823;
1276.5000;0.3403;0.3701;
1276.8000;0.3411;0.3750;
1277.1000;0.3403;0.3799;
1277.4000;0.3386;0.3750;
1277.7000;0.3403;0.3799;
1278.0000;0.3403;0.3799;
1278.3000;0.3419;0.3799;
1278.6000;0.3411;0.3726;
1278.9000;0.3435;0.3750;
1279.2000;0.3435;0.3774;
1279.5000;0.3411;0.3701;
1279.8000;0.3484;0.3823;
1280.1000;0.3403;0.3653;
1280.4000;0.3386;0.3604;
1280.7000;0.3411;0.3701;
1281.0000;0.3451;0.3847;
1281.3000;0.3419;0.3750;
1281.6000;0.3427;0.3799;
1281.9000;0.3435;0.3872;
1282.2000;0.3411;0.3823;
1282.5000;0.3435;0.3872;
1282.8000;0.3443;0.3896;
1283.1000;0.3435;0.3872;
1283.4000;0.3443;0.3823;
1283.7000;0.3443;0.3799;
1284.0000;0.3443;0.3799;
1284.3000;0.3435;0.3799;
1284.6000;0.3411;0.3896;
1284.9000;0.3451;0.4018;
1285.2000;0.3435;0.3945;
1285.5000;0.3411;0.3896;
1285.8000;0.3427;0.4042;
1286.1000;0.3419;0.3945;
1286.4000;0.3394;0.3823;
1286.7000;0.3419;0.3847;
1287.0000;0.3419;0.3896;
1287.3000;0.3427;0.3920;
1287.6000;0.3427;0.3896;
1287.9000;0.3427;0.3920;
1288.2000;0.3427;0.3969;
1288.5000;0.3451;0.4066;
1288.8000;0.3427;0.3993;
1289.1000;0.3443;0.4042;
1289.4000;0.3378;0.3920;
1289.7000;0.3435;0.4018;
1290.0000;0.3435;0.3945;
1290.3000;0.3435;0.3969;
1290.6000;0.3451;0.4066;
1290.9000;0.3443;0.4115;
1291.2000;0.3443;0.4188;
1291.5000;0.3419;0.4018;
1291.8000;0.3419;0.4018;
1292.1000;0.3419;0.4188;
1292.4000;0.3419;0.4188;
1292.7000;0.3435;0.4310;
1293.0000;0.3419;0.4213;
1293.3000;0.3492;0.4334;
1293.6000;0.3435;0.4140;
1293.9000;0.3427;0.4091;
1294.2000;0.3427;0.4115;
1294.5000;0.3492;0.4164;
1294.8000;0.3419;0.3920;
1295.1000;0.3411;0.3920;
1295.4000;0.3394;0.3920;
1295.7000;0.3451;0.3969;
1296.0000;0.3435;0.3920;
1296.3000;0.3484;0.3896;
1296.6000;0.3443;0.3799;
1296.9000;0.3451;0.3847;
1297.2000;0.3419;0.3750;
1297.5000;0.3419;0.3847;
1297.8000;0.3403;0.3823;
1298.1000;0.3411;0.3726;
1298.4000;0.3403;0.3701;
1298.7000;0.3476;0.3896;
1299.0000;0.3443;0.3750;
1299.3000;0.3427;0.3750;
1299.6000;0.3419;0.3847;
1299.9000;0.3435;0.3920;
1300.2000;0.3427;0.3896;
1300.5000;0.3403;0.3823;
1300.8000;0.3427;0.3847;
1301.1000;0.3427;0.3799;
1301.4000;0.3411;0.3726;
1301.7000;0.3484;0.3896;
1302.0000;0.3411;0.3628;
1302.3000;0.3411;0.3653;
1302.6000;0.3411;0.3653;
1302.9000;0.3411;0.3701;
1303.2000;0.3403;0.3604;
1303.5000;0.3411;0.3677;
1303.8000;0.3419;0.3774;
1304.1000;0.3427;0.3823;
1304.4000;0.3419;0.3920;
1304.7000;0.3419;0.3896;
1305.0000;0.3419;0.3872;
1305.3000;0.3427;0.3969;
1305.6000;0.3427;0.3993;
1305.9000;0.3411;0.3969;
1306.2000;0.3427;0.3920;
1306.5000;0.3427;0.3993;
1306.8000;0.3427;0.3945;
1307.1000;0.3411;0.3993;
1307.4000;0.3508;0.4310;
1307.7000;0.3386;0.4091;
1308.0000;0.3419;0.4042;
1308.3000;0.3427;0.3993;
1308.6000;0.3460;0.4042;
1308.9000;0.3419;0.3945;
1309.2000;0.3443;0.3993;
1309.5000;0.3427;0.3969;
1309.8000;0.3435;0.3945;
1310.1000;0.3427;0.3945;
1310.4000;0.3443;0.3969;
1310.7000;0.3443;0.4018;
1311.0000;0.3411;0.3993;
1311.3000;0.3427;0.4042;
1311.6000;0.3443;0.4018;
1311.9000;0.3411;0.3920;
1312.2000;0.3435;0.4066;
1312.5000;0.3378;0.3969;
1312.8000;0.3427;0.4091;
1313.1000;0.3435;0.4091;
1313.4000;0.3354;0.3823;
1313.7000;0.3435;0.3945;
1314.0000;0.3427;0.3896;
1314.3000;0.3419;0.3872;
1314.6000;0.3435;0.3945;
1314.9000;0.3443;0.3969;
1315.2000;0.3427;0.3920;
1315.5000;0.3451;0.4018;
1315.8000;0.3451;0.4018;
1316.1000;0.3427;0.3896;
1316.4000;0.3419;0.3920;
1316.7000;0.3419;0.3920;
1317.0000;0.3419;0.3969;
1317.3000;0.3411;0.3993;
1317.6000;0.3435;0.4018;
1317.9000;0.3435;0.4042;
1318.2000;0.3411;0.3945;
1318.5000;0.3435;0.3945;
1318.8000;0.3419;0.3847;
1319.1000;0.3427;0.3847;
1319.4000;0.3419;0.3847;
1319.7000;0.3427;0.3920;
1320.0000;0.3443;0.3896;
1320.3000;0.3419;0.3847;
1320.6000;0.3378;0.3677;
1320.9000;0.3403;0.3604;
1321.2000;0.3427;0.3628;
1321.5000;0.3419;0.3628;
1321.8000;0.3443;0.3677;
1322.1000;0.3411;0.3653;
1322.4000;0.3419;0.3653;
1322.7000;0.3394;0.3579;
1323.0000;0.3403;0.3579;
1323.3000;0.3419;0.3653;
1323.6000;0.3411;0.3604;
1323.9000;0.3411;0.3653;
1324.2000;0.3419;0.3701;
1324.5000;0.3411;0.3701;
1324.8000;0.3435;0.3847;
1325.1000;0.3427;0.3920;
1325.4000;0.3427;0.3969;
1325.7000;0.3362;0.3847;
1326.0000;0.3435;0.4091;
1326.3000;0.3403;0.3993;
1326.6000;0.3411;0.3969;
1326.9000;0.3419;0.4091;
1327.2000;0.3411;0.4042;
1327.5000;0.3411;0.3945;
1327.8000;0.3427;0.3993;
1328.1000;0.3435;0.4018;
1328.4000;0.3435;0.3920;
1328.7000;0.3427;0.3920;
1329.0000;0.3419;0.3896;
1329.3000;0.3419;0.3896;
1329.6000;0.3427;0.3896;
1329.9000;0.3378;0.3750;
1330.2000;0.3451;0.3969;
1330.5000;0.3435;0.3993;
1330.8000;0.3427;0.4018;
1331.1000;0.3403;0.4066;
1331.4000;0.3411;0.4018;
1331.7000;0.3419;0.4066;
1332.0000;0.3419;0.3969;
1332.3000;0.3403;0.3920;
1332.6000;0.3427;0.3896;
1332.9000;0.3419;0.3945;
1333.2000;0.3435;0.3872;
1333.5000;0.3451;0.3969;
1333.8000;0.3394;0.3847;
1334.1000;0.3427;0.3969;
1334.4000;0.3427;0.4018;
1334.7000;0.3386;0.3920;
1335.0000;0.3419;0.3993;
1335.3000;0.3419;0.4018;
1335.6000;0.3427;0.3896;
1335.9000;0.3427;0.3969;
1336.2000;0.3419;0.3920;
1336.5000;0.3411;0.3945;
1336.8000;0.3435;0.3847;
1337.1000;0.3435;0.3920;
1337.4000;0.3419;0.3847;
1337.7000;0.3411;0.3896;
1338.0000;0.3411;0.3993;
1338.3000;0.3419;0.4066;
1338.6000;0.3419;0.4091;
1338.9000;0.3411;0.4091;
1339.2000;0.3419;0.4091;
1339.5000;0.3419;0.4115;
1339.8000;0.3427;0.4140;
1340.1000;0.3443;0.4140;
1340.4000;0.3419;0.4018;
1340.7000;0.3403;0.3969;
1341.0000;0.3435;0.4066;
1341.3000;0.3427;0.4066;
1341.6000;0.3419;0.4091;
1341.9000;0.3435;0.4066;
1342.2000;0.3419;0.4042;
1342.5000;0.3484;0.4213;
1342.8000;0.3411;0.3969;
1343.1000;0.3419;0.3872;
1343.4000;0.3419;0.3872;
1343.7000;0.3427;0.3920;
1344.0000;0.3411;0.3896;
1344.3000;0.3411;0.3896;
1344.6000;0.3419;0.3945;
1344.9000;0.3419;0.3969;
1345.2000;0.3443;0.4066;
1345.5000;0.3419;0.3993;
1345.8000;0.3411;0.3969;
1346.1000;0.3427;0.4018;
1346.4000;0.3427;0.4091;
1346.7000;0.3427;0.4018;
1347.0000;0.3419;0.3920;
1347.3000;0.3427;0.3896;
1347.6000;0.3427;0.3945;
1347.9000;0.3378;0.3799;
1348.2000;0.3403;0.3847;
1348.5000;0.3419;0.3847;
1348.8000;0.3419;0.3872;
1349.1000;0.3403;0.3847;
1349.4000;0.3427;0.3872;
1349.7000;0.3411;0.3847;
1350.0000;0.3419;0.3799;
1350.3000;0.3443;0.3799;
1350.6000;0.3419;0.3847;
1350.9000;0.3427;0.3920;
1351.2000;0.3460;0.3993;
1351.5000;0.3435;0.4066;
1351.8000;0.3411;0.4066;
1352.1000;0.3411;0.4164;
1352.4000;0.3394;0.4066;
1352.7000;0.3419;0.4042;
1353.0000;0.3411;0.3993;
1353.3000;0.3411;0.4066;
1353.6000;0.3427;0.4042;
1353.9000;0.3484;0.4188;
1354.2000;0.3411;0.3945;
1354.5000;0.3435;0.3945;
1354.8000;0.3419;0.3872;
1355.1000;0.3354;0.3726;
1355.4000;0.3419;0.3896;
1355.7000;0.3443;0.3993;
1356.0000;0.3443;0.4066;
1356.3000;0.3411;0.3920;
1356.6000;0.3427;0.3945;
1356.9000;0.3411;0.3945;
1357.2000;0.3411;0.3945;
1357.5000;0.3435;0.4018;
1357.8000;0.3443;0.4066;
1358.1000;0.3419;0.3969;
1358.4000;0.3427;0.4018;
1358.7000;0.3419;0.4018;
1359.0000;0.3419;0.3945;
1359.3000;0.3427;0.3945;
1359.6000;0.3419;0.3945;
1359.9000;0.3427;0.3920;
1360.2000;0.3419;0.3823;
1360.5000;0.3435;0.3872;
1360.8000;0.3451;0.3872;
1361.1000;0.3427;0.3847;
1361.4000;0.3500;0.4066;
1361.7000;0.3419;0.3920;
1362.0000;0.3419;0.3896;
1362.3000;0.3419;0.3823;
1362.6000;0.3451;0.3945;
1362.9000;0.3476;0.4018;
1363.2000;0.3451;0.4042;
1363.5000;0.3419;0.3896;
1363.8000;0.3403;0.3799;
1364.1000;0.3411;0.3847;
1364.4000;0.3411;0.3896;
1364.7000;0.3419;0.3872;
1365.0000;0.3419;0.3823;
1365.3000;0.3443;0.3823;
1365.6000;0.3419;0.3774;
1365.9000;0.3411;0.3726;
1366.2000;0.3435;0.3799;
1366.5000;0.3468;0.3896;
1366.8000;0.3411;0.3750;
1367.1000;0.3427;0.3799;
1367.4000;0.3435;0.3847;
1367.7000;0.3435;0.3799;
1368.0000;0.3411;0.3799;
1368.3000;0.3419;0.3847;
1368.6000;0.3476;0.3969;
1368.9000;0.3427;0.3847;
1369.2000;0.3435;0.3920;
1369.5000;0.3419;0.3969;
1369.8000;0.3419;0.3945;
1370.1000;0.3411;0.3847;
1370.4000;0.3427;0.3896;
1370.7000;0.3451;0.3920;
1371.0000;0.3484;0.3969;
1371.3000;0.3435;0.3920;
1371.6000;0.3427;0.3872;
1371.9000;0.3443;0.4018;
1372.2000;0.3419;0.4018;
1372.5000;0.3427;0.3993;
1372.8000;0.3427;0.3993;
1373.1000;0.3419;0.3872;
1373.4000;0.3411;0.3969;
1373.7000;0.3419;0.3969;
1374.0000;0.3435;0.3920;
1374.3000;0.3427;0.3920;
1374.6000;0.3427;0.3896;
1374.9000;0.3386;0.3750;
1375.2000;0.3443;0.3872;
1375.5000;0.3435;0.3799;
1375.8000;0.3386;0.3726;
1376.1000;0.3419;0.3847;
1376.4000;0.3403;0.3799;
1376.7000;0.3427;0.3896;
1377.0000;0.3411;0.3799;
1377.3000;0.3419;0.3799;
1377.6000;0.3435;0.3847;
1377.9000;0.3419;0.3896;
1378.2000;0.3427;0.3920;
1378.5000;0.3411;0.3896;
1378.8000;0.3419;0.3847;
1379.1000;0.3427;0.3896;
1379.4000;0.3427;0.3920;
1379.7000;0.3435;0.3969;
1380.0000;0.3435;0.3872;
1380.3000;0.3451;0.3823;
1380.6000;0.3435;0.3799;
1380.9000;0.3419;0.3896;
1381.2000;0.3411;0.3945;
1381.5000;0.3443;0.3993;
1381.8000;0.3435;0.3993;
1382.1000;0.3419;0.3945;
1382.4000;0.3427;0.3872;
1382.7000;0.3427;0.3969;
1383.0000;0.3427;0.3969;
1383.3000;0.3419;0.3969;
1383.6000;0.3419;0.3945;
1383.9000;0.3427;0.4018;
1384.2000;0.3419;0.3896;
1384.5000;0.3394;0.3872;
1384.8000;0.3460;0.4018;
1385.1000;0.3419;0.3945;
1385.4000;0.3362;0.3750;
1385.7000;0.3435;0.3872;
1386.0000;0.3403;0.3847;
1386.3000;0.3427;0.3896;
1386.6000;0.3419;0.3847;
1386.9000;0.3460;0.3920;
1387.2000;0.3419;0.3872;
1387.5000;0.3427;0.3945;
1387.8000;0.3419;0.4018;
1388.1000;0.3411;0.3945;
1388.4000;0.3427;0.3993;
1388.7000;0.3419;0.3993;
1389.0000;0.3394;0.3993;
1389.3000;0.3435;0.4091;
1389.6000;0.3443;0.4066;
1389.9000;0.3443;0.4018;
1390.2000;0.3419;0.3872;
1390.5000;0.3427;0.3896;
1390.8000;0.3419;0.3872;
1391.1000;0.3427;0.3872;
1391.4000;0.3443;0.3920;
1391.7000;0.3468;0.3993;
1392.0000;0.3411;0.3896;
1392.3000;0.3411;0.3847;
1392.6000;0.3419;0.3896;
1392.9000;0.3427;0.3945;
1393.2000;0.3443;0.3896;
1393.5000;0.3427;0.3872;
1393.8000;0.3443;0.3872;
1394.1000;0.3419;0.3920;
1394.4000;0.3419;0.3920;
1394.7000;0.3411;0.3920;
1395.0000;0.3443;0.4066;
1395.3000;0.3411;0.4091;
1395.6000;0.3419;0.4188;
1395.9000;0.3435;0.4237;
1396.2000;0.3403;0.4261;
1396.5000;0.3394;0.4237;
1396.8000;0.3411;0.4188;
1397.1000;0.3411;0.4140;
1397.4000;0.3411;0.4115;
1397.7000;0.3419;0.4140;
1398.0000;0.3427;0.4237;
1398.3000;0.3427;0.4334;
1398.6000;0.3419;0.4334;
1398.9000;0.3443;0.4286;
1399.2000;0.3435;0.4213;
1399.5000;0.3419;0.4213;
1399.8000;0.3386;0.4140;
