time/ms;Fluo/V;P700 deltaI/I x10³;
-199.8000;0.1481;10.5594;
-199.5000;0.1408;10.5377;
-199.2000;0.1481;10.5619;
-198.9000;0.1457;10.5498;
-198.6000;0.1473;10.5570;
-198.3000;0.1481;10.5570;
-198.0000;0.1490;10.5594;
-197.7000;0.1457;10.5546;
-197.4000;0.1481;10.5594;
-197.1000;0.1481;10.5594;
-196.8000;0.1490;10.5619;
-196.5000;0.1481;10.5619;
-196.2000;0.1498;10.5667;
-195.9000;0.1490;10.5691;
-195.6000;0.1498;10.5643;
-195.3000;0.1490;10.5619;
-195.0000;0.1481;10.5715;
-194.7000;0.1490;10.5763;
-194.4000;0.1530;10.5836;
-194.1000;0.1457;10.5643;
-193.8000;0.1498;10.5667;
-193.5000;0.1490;10.5667;
-193.2000;0.1481;10.5643;
-192.9000;0.1473;10.5594;
-192.6000;0.1481;10.5691;
-192.3000;0.1473;10.5715;
-192.0000;0.1498;10.5763;
-191.7000;0.1481;10.5763;
-191.4000;0.1473;10.5739;
-191.1000;0.1490;10.5836;
-190.8000;0.1490;10.5812;
-190.5000;0.1490;10.5787;
-190.2000;0.1481;10.5836;
-189.9000;0.1465;10.5787;
-189.6000;0.1506;10.5860;
-189.3000;0.1481;10.5763;
-189.0000;0.1473;10.5739;
-188.7000;0.1481;10.5715;
-188.4000;0.1465;10.5763;
-188.1000;0.1490;10.5812;
-187.8000;0.1473;10.5860;
-187.5000;0.1465;10.5812;
-187.2000;0.1473;10.5884;
-186.9000;0.1506;10.5980;
-186.6000;0.1490;10.5932;
-186.3000;0.1490;10.5739;
-186.0000;0.1490;10.5715;
-185.7000;0.1481;10.5715;
-185.4000;0.1481;10.5763;
-185.1000;0.1490;10.5836;
-184.8000;0.1490;10.5860;
-184.5000;0.1490;10.5908;
-184.2000;0.1473;10.5787;
-183.9000;0.1473;10.5763;
-183.6000;0.1498;10.5836;
-183.3000;0.1498;10.5836;
-183.0000;0.1498;10.5860;
-182.7000;0.1481;10.5763;
-182.4000;0.1481;10.5763;
-182.1000;0.1473;10.5739;
-181.8000;0.1490;10.5787;
-181.5000;0.1506;10.5836;
-181.2000;0.1465;10.5763;
-180.9000;0.1490;10.5739;
-180.6000;0.1481;10.5715;
-180.3000;0.1481;10.5715;
-180.0000;0.1465;10.5667;
-179.7000;0.1481;10.5667;
-179.4000;0.1490;10.5691;
-179.1000;0.1473;10.5715;
-178.8000;0.1490;10.5787;
-178.5000;0.1473;10.5836;
-178.2000;0.1465;10.5787;
-177.9000;0.1490;10.5763;
-177.6000;0.1473;10.5715;
-177.3000;0.1473;10.5667;
-177.0000;0.1473;10.5643;
-176.7000;0.1481;10.5619;
-176.4000;0.1490;10.5643;
-176.1000;0.1481;10.5619;
-175.8000;0.1490;10.5594;
-175.5000;0.1498;10.5570;
-175.2000;0.1481;10.5570;
-174.9000;0.1481;10.5619;
-174.6000;0.1473;10.5546;
-174.3000;0.1473;10.5594;
-174.0000;0.1481;10.5570;
-173.7000;0.1481;10.5619;
-173.4000;0.1473;10.5691;
-173.1000;0.1490;10.5715;
-172.8000;0.1481;10.5739;
-172.5000;0.1473;10.5715;
-172.2000;0.1465;10.5594;
-171.9000;0.1481;10.5594;
-171.6000;0.1481;10.5619;
-171.3000;0.1490;10.5570;
-171.0000;0.1481;10.5619;
-170.7000;0.1481;10.5643;
-170.4000;0.1481;10.5643;
-170.1000;0.1490;10.5643;
-169.8000;0.1490;10.5594;
-169.5000;0.1481;10.5474;
-169.2000;0.1473;10.5498;
-168.9000;0.1481;10.5570;
-168.6000;0.1465;10.5570;
-168.3000;0.1490;10.5498;
-168.0000;0.1481;10.5474;
-167.7000;0.1498;10.5474;
-167.4000;0.1473;10.5402;
-167.1000;0.1506;10.5522;
-166.8000;0.1473;10.5402;
-166.5000;0.1473;10.5426;
-166.2000;0.1506;10.5619;
-165.9000;0.1490;10.5594;
-165.6000;0.1490;10.5594;
-165.3000;0.1465;10.5643;
-165.0000;0.1457;10.5691;
-164.7000;0.1506;10.5812;
-164.4000;0.1481;10.5739;
-164.1000;0.1465;10.5812;
-163.8000;0.1481;10.5787;
-163.5000;0.1481;10.5812;
-163.2000;0.1522;10.5980;
-162.9000;0.1481;10.5980;
-162.6000;0.1457;10.5932;
-162.3000;0.1620;10.6270;
-162.0000;0.1481;10.5956;
-161.7000;0.1490;10.6029;
-161.4000;0.1490;10.6005;
-161.1000;0.1506;10.6029;
-160.8000;0.1498;10.5980;
-160.5000;0.1490;10.5956;
-160.2000;0.1490;10.5932;
-159.9000;0.1481;10.5884;
-159.6000;0.1473;10.5787;
-159.3000;0.1498;10.5739;
-159.0000;0.1490;10.5667;
-158.7000;0.1498;10.5667;
-158.4000;0.1506;10.5667;
-158.1000;0.1498;10.5667;
-157.8000;0.1490;10.5787;
-157.5000;0.1473;10.5691;
-157.2000;0.1490;10.5715;
-156.9000;0.1481;10.5836;
-156.6000;0.1457;10.5884;
-156.3000;0.1612;10.6270;
-156.0000;0.1441;10.5860;
-155.7000;0.1498;10.6029;
-155.4000;0.1481;10.6053;
-155.1000;0.1457;10.6005;
-154.8000;0.1473;10.6029;
-154.5000;0.1490;10.6005;
-154.2000;0.1416;10.5860;
-153.9000;0.1473;10.5932;
-153.6000;0.1490;10.5932;
-153.3000;0.1392;10.5715;
-153.0000;0.1490;10.6029;
-152.7000;0.1490;10.5980;
-152.4000;0.1498;10.5980;
-152.1000;0.1473;10.5908;
-151.8000;0.1473;10.5908;
-151.5000;0.1481;10.5956;
-151.2000;0.1481;10.5980;
-150.9000;0.1490;10.5932;
-150.6000;0.1473;10.5836;
-150.3000;0.1481;10.5884;
-150.0000;0.1498;10.5980;
-149.7000;0.1481;10.5932;
-149.4000;0.1481;10.5908;
-149.1000;0.1490;10.5884;
-148.8000;0.1481;10.5787;
-148.5000;0.1490;10.5763;
-148.2000;0.1490;10.5715;
-147.9000;0.1481;10.5739;
-147.6000;0.1498;10.5836;
-147.3000;0.1481;10.5763;
-147.0000;0.1473;10.5691;
-146.7000;0.1457;10.5619;
-146.4000;0.1473;10.5643;
-146.1000;0.1481;10.5667;
-145.8000;0.1506;10.5715;
-145.5000;0.1498;10.5667;
-145.2000;0.1538;10.5715;
-144.9000;0.1498;10.5667;
-144.6000;0.1490;10.5667;
-144.3000;0.1481;10.5619;
-144.0000;0.1473;10.5619;
-143.7000;0.1555;10.5763;
-143.4000;0.1481;10.5546;
-143.1000;0.1498;10.5570;
-142.8000;0.1481;10.5546;
-142.5000;0.1498;10.5594;
-142.2000;0.1473;10.5570;
-141.9000;0.1490;10.5570;
-141.6000;0.1490;10.5643;
-141.3000;0.1490;10.5643;
-141.0000;0.1498;10.5570;
-140.7000;0.1473;10.5570;
-140.4000;0.1490;10.5594;
-140.1000;0.1465;10.5619;
-139.8000;0.1481;10.5619;
-139.5000;0.1481;10.5667;
-139.2000;0.1490;10.5667;
-138.9000;0.1473;10.5619;
-138.6000;0.1481;10.5619;
-138.3000;0.1490;10.5570;
-138.0000;0.1473;10.5594;
-137.7000;0.1457;10.5570;
-137.4000;0.1490;10.5667;
-137.1000;0.1555;10.5836;
-136.8000;0.1481;10.5691;
-136.5000;0.1473;10.5691;
-136.2000;0.1481;10.5715;
-135.9000;0.1490;10.5739;
-135.6000;0.1481;10.5715;
-135.3000;0.1490;10.5667;
-135.0000;0.1490;10.5619;
-134.7000;0.1490;10.5643;
-134.4000;0.1473;10.5619;
-134.1000;0.1498;10.5739;
-133.8000;0.1481;10.5836;
-133.5000;0.1490;10.5884;
-133.2000;0.1498;10.5860;
-132.9000;0.1481;10.5836;
-132.6000;0.1490;10.5884;
-132.3000;0.1416;10.5715;
-132.0000;0.1481;10.5787;
-131.7000;0.1490;10.5763;
-131.4000;0.1490;10.5691;
-131.1000;0.1481;10.5691;
-130.8000;0.1490;10.5691;
-130.5000;0.1498;10.5643;
-130.2000;0.1490;10.5619;
-129.9000;0.1498;10.5522;
-129.6000;0.1538;10.5619;
-129.3000;0.1473;10.5546;
-129.0000;0.1490;10.5667;
-128.7000;0.1465;10.5643;
-128.4000;0.1481;10.5715;
-128.1000;0.1498;10.5691;
-127.8000;0.1498;10.5715;
-127.5000;0.1473;10.5739;
-127.2000;0.1465;10.5787;
-126.9000;0.1490;10.5860;
-126.6000;0.1490;10.5860;
-126.3000;0.1465;10.5691;
-126.0000;0.1490;10.5763;
-125.7000;0.1498;10.5667;
-125.4000;0.1514;10.5619;
-125.1000;0.1498;10.5643;
-124.8000;0.1555;10.5884;
-124.5000;0.1481;10.5570;
-124.2000;0.1490;10.5546;
-123.9000;0.1481;10.5498;
-123.6000;0.1457;10.5402;
-123.3000;0.1368;10.5160;
-123.0000;0.1457;10.5353;
-122.7000;0.1473;10.5402;
-122.4000;0.1457;10.5522;
-122.1000;0.1465;10.5546;
-121.8000;0.1490;10.5570;
-121.5000;0.1490;10.5594;
-121.2000;0.1457;10.5522;
-120.9000;0.1481;10.5594;
-120.6000;0.1514;10.5691;
-120.3000;0.1490;10.5643;
-120.0000;0.1481;10.5643;
-119.7000;0.1490;10.5667;
-119.4000;0.1490;10.5739;
-119.1000;0.1490;10.5739;
-118.8000;0.1481;10.5691;
-118.5000;0.1490;10.5691;
-118.2000;0.1481;10.5739;
-117.9000;0.1481;10.5715;
-117.6000;0.1473;10.5691;
-117.3000;0.1473;10.5691;
-117.0000;0.1490;10.5812;
-116.7000;0.1425;10.5739;
-116.4000;0.1498;10.5860;
-116.1000;0.1481;10.5860;
-115.8000;0.1481;10.5932;
-115.5000;0.1490;10.5956;
-115.2000;0.1490;10.5956;
-114.9000;0.1481;10.5884;
-114.6000;0.1473;10.5884;
-114.3000;0.1473;10.5884;
-114.0000;0.1481;10.5884;
-113.7000;0.1465;10.5884;
-113.4000;0.1481;10.5908;
-113.1000;0.1490;10.5932;
-112.8000;0.1473;10.5956;
-112.5000;0.1481;10.5908;
-112.2000;0.1490;10.5884;
-111.9000;0.1498;10.5860;
-111.6000;0.1465;10.5739;
-111.3000;0.1473;10.5812;
-111.0000;0.1481;10.5787;
-110.7000;0.1465;10.5691;
-110.4000;0.1490;10.5691;
-110.1000;0.1481;10.5594;
-109.8000;0.1481;10.5570;
-109.5000;0.1490;10.5594;
-109.2000;0.1490;10.5619;
-108.9000;0.1498;10.5643;
-108.6000;0.1481;10.5570;
-108.3000;0.1457;10.5546;
-108.0000;0.1490;10.5643;
-107.7000;0.1490;10.5643;
-107.4000;0.1425;10.5619;
-107.1000;0.1490;10.5763;
-106.8000;0.1538;10.5908;
-106.5000;0.1514;10.5715;
-106.2000;0.1498;10.5739;
-105.9000;0.1490;10.5643;
-105.6000;0.1498;10.5594;
-105.3000;0.1473;10.5570;
-105.0000;0.1473;10.5619;
-104.7000;0.1465;10.5546;
-104.4000;0.1490;10.5763;
-104.1000;0.1498;10.5787;
-103.8000;0.1490;10.5739;
-103.5000;0.1481;10.5715;
-103.2000;0.1465;10.5812;
-102.9000;0.1481;10.5908;
-102.6000;0.1506;10.5908;
-102.3000;0.1473;10.5739;
-102.0000;0.1473;10.5715;
-101.7000;0.1457;10.5643;
-101.4000;0.1481;10.5739;
-101.1000;0.1506;10.5715;
-100.8000;0.1481;10.5667;
-100.5000;0.1490;10.5619;
-100.2000;0.1604;10.5980;
-99.9000;0.1490;10.5715;
-99.6000;0.1490;10.5691;
-99.3000;0.1481;10.5594;
-99.0000;0.1481;10.5667;
-98.7000;0.1465;10.5619;
-98.4000;0.1473;10.5691;
-98.1000;0.1473;10.5594;
-97.8000;0.1465;10.5619;
-97.5000;0.1490;10.5594;
-97.2000;0.1490;10.5570;
-96.9000;0.1473;10.5522;
-96.6000;0.1481;10.5570;
-96.3000;0.1481;10.5546;
-96.0000;0.1490;10.5619;
-95.7000;0.1465;10.5667;
-95.4000;0.1473;10.5739;
-95.1000;0.1498;10.5739;
-94.8000;0.1498;10.5787;
-94.5000;0.1514;10.5836;
-94.2000;0.1465;10.5619;
-93.9000;0.1490;10.5667;
-93.6000;0.1473;10.5667;
-93.3000;0.1490;10.5715;
-93.0000;0.1506;10.5812;
-92.7000;0.1514;10.5908;
-92.4000;0.1514;10.5860;
-92.1000;0.1481;10.5812;
-91.8000;0.1473;10.5739;
-91.5000;0.1433;10.5570;
-91.2000;0.1481;10.5763;
-90.9000;0.1481;10.5836;
-90.6000;0.1465;10.5812;
-90.3000;0.1473;10.5691;
-90.0000;0.1506;10.5787;
-89.7000;0.1481;10.5594;
-89.4000;0.1481;10.5546;
-89.1000;0.1473;10.5546;
-88.8000;0.1498;10.5619;
-88.5000;0.1481;10.5715;
-88.2000;0.1473;10.5739;
-87.9000;0.1465;10.5691;
-87.6000;0.1481;10.5836;
-87.3000;0.1490;10.5763;
-87.0000;0.1449;10.5667;
-86.7000;0.1473;10.5619;
-86.4000;0.1490;10.5763;
-86.1000;0.1506;10.5739;
-85.8000;0.1490;10.5667;
-85.5000;0.1481;10.5667;
-85.2000;0.1547;10.5908;
-84.9000;0.1481;10.5667;
-84.6000;0.1490;10.5522;
-84.3000;0.1514;10.5546;
-84.0000;0.1490;10.5570;
-83.7000;0.1490;10.5643;
-83.4000;0.1498;10.5643;
-83.1000;0.1490;10.5619;
-82.8000;0.1481;10.5570;
-82.5000;0.1473;10.5570;
-82.2000;0.1465;10.5474;
-81.9000;0.1473;10.5546;
-81.6000;0.1481;10.5643;
-81.3000;0.1473;10.5498;
-81.0000;0.1473;10.5546;
-80.7000;0.1481;10.5546;
-80.4000;0.1481;10.5594;
-80.1000;0.1490;10.5570;
-79.8000;0.1481;10.5522;
-79.5000;0.1506;10.5570;
-79.2000;0.1498;10.5546;
-78.9000;0.1490;10.5594;
-78.6000;0.1457;10.5570;
-78.3000;0.1473;10.5667;
-78.0000;0.1481;10.5667;
-77.7000;0.1481;10.5691;
-77.4000;0.1473;10.5667;
-77.1000;0.1465;10.5667;
-76.8000;0.1490;10.5643;
-76.5000;0.1481;10.5594;
-76.2000;0.1530;10.5836;
-75.9000;0.1473;10.5739;
-75.6000;0.1506;10.5812;
-75.3000;0.1465;10.5643;
-75.0000;0.1473;10.5667;
-74.7000;0.1498;10.5691;
-74.4000;0.1490;10.5691;
-74.1000;0.1490;10.5691;
-73.8000;0.1498;10.5691;
-73.5000;0.1506;10.5787;
-73.2000;0.1384;10.5474;
-72.9000;0.1490;10.5787;
-72.6000;0.1481;10.5787;
-72.3000;0.1465;10.5739;
-72.0000;0.1481;10.5715;
-71.7000;0.1473;10.5739;
-71.4000;0.1473;10.5739;
-71.1000;0.1465;10.5763;
-70.8000;0.1473;10.5812;
-70.5000;0.1481;10.5860;
-70.2000;0.1473;10.5908;
-69.9000;0.1547;10.6077;
-69.6000;0.1563;10.6053;
-69.3000;0.1490;10.5812;
-69.0000;0.1465;10.5787;
-68.7000;0.1457;10.5715;
-68.4000;0.1465;10.5715;
-68.1000;0.1473;10.5763;
-67.8000;0.1481;10.5715;
-67.5000;0.1473;10.5739;
-67.2000;0.1530;10.5884;
-66.9000;0.1498;10.5763;
-66.6000;0.1465;10.5619;
-66.3000;0.1473;10.5594;
-66.0000;0.1490;10.5691;
-65.7000;0.1481;10.5715;
-65.4000;0.1465;10.5643;
-65.1000;0.1490;10.5715;
-64.8000;0.1473;10.5667;
-64.5000;0.1449;10.5570;
-64.2000;0.1514;10.5836;
-63.9000;0.1481;10.5739;
-63.6000;0.1490;10.5836;
-63.3000;0.1481;10.5860;
-63.0000;0.1538;10.6053;
-62.7000;0.1481;10.5812;
-62.4000;0.1490;10.5860;
-62.1000;0.1376;10.5522;
-61.8000;0.1498;10.5860;
-61.5000;0.1514;10.5884;
-61.2000;0.1441;10.5763;
-60.9000;0.1481;10.5787;
-60.6000;0.1538;10.5836;
-60.3000;0.1473;10.5691;
-60.0000;0.1473;10.5643;
-59.7000;0.1408;10.5522;
-59.4000;0.1498;10.5787;
-59.1000;0.1481;10.5836;
-58.8000;0.1490;10.5884;
-58.5000;0.1490;10.5860;
-58.2000;0.1481;10.5884;
-57.9000;0.1498;10.5908;
-57.6000;0.1481;10.5860;
-57.3000;0.1498;10.5860;
-57.0000;0.1481;10.5836;
-56.7000;0.1579;10.6149;
-56.4000;0.1449;10.5787;
-56.1000;0.1481;10.5956;
-55.8000;0.1473;10.5787;
-55.5000;0.1498;10.5763;
-55.2000;0.1481;10.5715;
-54.9000;0.1490;10.5546;
-54.6000;0.1473;10.5498;
-54.3000;0.1481;10.5643;
-54.0000;0.1490;10.5619;
-53.7000;0.1498;10.5667;
-53.4000;0.1498;10.5619;
-53.1000;0.1514;10.5643;
-52.8000;0.1473;10.5643;
-52.5000;0.1481;10.5763;
-52.2000;0.1498;10.5812;
-51.9000;0.1498;10.5812;
-51.6000;0.1498;10.5836;
-51.3000;0.1522;10.5860;
-51.0000;0.1498;10.5812;
-50.7000;0.1465;10.5739;
-50.4000;0.1481;10.5812;
-50.1000;0.1481;10.5860;
-49.8000;0.1473;10.5739;
-49.5000;0.1473;10.5763;
-49.2000;0.1538;10.5932;
-48.9000;0.1481;10.5787;
-48.6000;0.1457;10.5739;
-48.3000;0.1498;10.5884;
-48.0000;0.1514;10.6005;
-47.7000;0.1481;10.6005;
-47.4000;0.1490;10.6029;
-47.1000;0.1481;10.5932;
-46.8000;0.1490;10.5932;
-46.5000;0.1433;10.5715;
-46.2000;0.1408;10.5643;
-45.9000;0.1359;10.5450;
-45.6000;0.1473;10.5787;
-45.3000;0.1490;10.5787;
-45.0000;0.1522;10.5860;
-44.7000;0.1481;10.5836;
-44.4000;0.1473;10.5739;
-44.1000;0.1490;10.5763;
-43.8000;0.1490;10.5715;
-43.5000;0.1514;10.5787;
-43.2000;0.1481;10.5739;
-42.9000;0.1506;10.5812;
-42.6000;0.1498;10.5812;
-42.3000;0.1481;10.5787;
-42.0000;0.1498;10.5860;
-41.7000;0.1498;10.5812;
-41.4000;0.1506;10.5787;
-41.1000;0.1538;10.5812;
-40.8000;0.1473;10.5594;
-40.5000;0.1457;10.5594;
-40.2000;0.1449;10.5498;
-39.9000;0.1490;10.5619;
-39.6000;0.1490;10.5570;
-39.3000;0.1490;10.5619;
-39.0000;0.1481;10.5619;
-38.7000;0.1449;10.5594;
-38.4000;0.1481;10.5691;
-38.1000;0.1465;10.5619;
-37.8000;0.1481;10.5594;
-37.5000;0.1490;10.5594;
-37.2000;0.1473;10.5594;
-36.9000;0.1473;10.5522;
-36.6000;0.1465;10.5570;
-36.3000;0.1490;10.5594;
-36.0000;0.1490;10.5619;
-35.7000;0.1473;10.5619;
-35.4000;0.1481;10.5546;
-35.1000;0.1490;10.5594;
-34.8000;0.1473;10.5498;
-34.5000;0.1465;10.5474;
-34.2000;0.1473;10.5498;
-33.9000;0.1490;10.5570;
-33.6000;0.1506;10.5619;
-33.3000;0.1481;10.5522;
-33.0000;0.1498;10.5522;
-32.7000;0.1538;10.5643;
-32.4000;0.1498;10.5546;
-32.1000;0.1490;10.5570;
-31.8000;0.1481;10.5546;
-31.5000;0.1449;10.5522;
-31.2000;0.1473;10.5546;
-30.9000;0.1481;10.5570;
-30.6000;0.1481;10.5522;
-30.3000;0.1473;10.5522;
-30.0000;0.1465;10.5474;
-29.7000;0.1465;10.5474;
-29.4000;0.1481;10.5498;
-29.1000;0.1473;10.5570;
-28.8000;0.1490;10.5643;
-28.5000;0.1490;10.5643;
-28.2000;0.1498;10.5594;
-27.9000;0.1473;10.5498;
-27.6000;0.1498;10.5643;
-27.3000;0.1506;10.5619;
-27.0000;0.1490;10.5546;
-26.7000;0.1481;10.5594;
-26.4000;0.1490;10.5643;
-26.1000;0.1473;10.5643;
-25.8000;0.1465;10.5619;
-25.5000;0.1457;10.5643;
-25.2000;0.1449;10.5498;
-24.9000;0.1522;10.5619;
-24.6000;0.1473;10.5522;
-24.3000;0.1481;10.5450;
-24.0000;0.1498;10.5474;
-23.7000;0.1473;10.5402;
-23.4000;0.1473;10.5353;
-23.1000;0.1481;10.5426;
-22.8000;0.1473;10.5209;
-22.5000;0.1481;10.5233;
-22.2000;0.1490;10.5402;
-21.9000;0.1457;10.5353;
-21.6000;0.1473;10.5426;
-21.3000;0.1498;10.5546;
-21.0000;0.1490;10.5643;
-20.7000;0.1481;10.5619;
-20.4000;0.1481;10.5691;
-20.1000;0.1465;10.5643;
-19.8000;0.1490;10.5619;
-19.5000;0.1473;10.5570;
-19.2000;0.1490;10.5619;
-18.9000;0.1481;10.5619;
-18.6000;0.1473;10.5594;
-18.3000;0.1506;10.5643;
-18.0000;0.1498;10.5522;
-17.7000;0.1490;10.5426;
-17.4000;0.1481;10.5498;
-17.1000;0.1498;10.5594;
-16.8000;0.1498;10.5570;
-16.5000;0.1481;10.5498;
-16.2000;0.1473;10.5474;
-15.9000;0.1490;10.5546;
-15.6000;0.1473;10.5474;
-15.3000;0.1465;10.5402;
-15.0000;0.1473;10.5353;
-14.7000;0.1506;10.5426;
-14.4000;0.1433;10.5353;
-14.1000;0.1473;10.5377;
-13.8000;0.1481;10.5377;
-13.5000;0.1490;10.5426;
-13.2000;0.1368;10.5064;
-12.9000;0.1481;10.5474;
-12.6000;0.1481;10.5498;
-12.3000;0.1490;10.5546;
-12.0000;0.1473;10.5426;
-11.7000;0.1498;10.5522;
-11.4000;0.1498;10.5546;
-11.1000;0.1481;10.5498;
-10.8000;0.1473;10.5498;
-10.5000;0.1481;10.5402;
-10.2000;0.1465;10.5474;
-9.9000;0.1449;10.5498;
-9.6000;0.1481;10.5546;
-9.3000;0.1498;10.5619;
-9.0000;0.1498;10.5643;
-8.7000;0.1473;10.5570;
-8.4000;0.1433;10.5498;
-8.1000;0.1498;10.5619;
-7.8000;0.1473;10.5522;
-7.5000;0.1473;10.5498;
-7.2000;0.1547;10.5667;
-6.9000;0.1490;10.5522;
-6.6000;0.1481;10.5570;
-6.3000;0.1465;10.5474;
-6.0000;0.1465;10.5498;
-5.7000;0.1498;10.5570;
-5.4000;0.1465;10.5474;
-5.1000;0.1473;10.5377;
-4.8000;0.1473;10.5353;
-4.5000;0.1481;10.5426;
-4.2000;0.1465;10.5498;
-3.9000;0.1498;10.5594;
-3.6000;0.1490;10.5522;
-3.3000;0.1490;10.5498;
-3.0000;0.1498;10.5498;
-2.7000;0.1473;10.5402;
-2.4000;0.1530;10.5402;
-2.1000;0.1481;10.5160;
-1.8000;0.1490;10.5257;
-1.5000;0.1481;10.5257;
-1.2000;0.1481;10.5281;
-0.9000;0.1490;10.5329;
-0.6000;0.1490;10.5209;
-0.3000;0.1490;10.5209;
0.0000;0.1490;10.5209;
0.3000;0.1425;10.4967;
0.6000;0.1555;10.5522;
0.9000;0.1498;10.5546;
1.2000;0.1433;10.5667;
1.5000;0.1514;10.5956;
1.8000;0.1530;10.6101;
2.1000;0.1506;10.6173;
2.4000;0.1547;10.6463;
2.7000;0.1530;10.6559;
3.0000;0.1547;10.6776;
3.3000;0.1547;10.6921;
3.6000;0.1555;10.7018;
3.9000;0.1571;10.7090;
4.2000;0.1563;10.7186;
4.5000;0.1563;10.7331;
4.8000;0.1579;10.7355;
5.1000;0.1555;10.7379;
5.4000;0.1522;10.7331;
5.7000;0.1547;10.7379;
6.0000;0.1563;10.7331;
6.3000;0.1522;10.7186;
6.6000;0.1547;10.7259;
6.9000;0.1579;10.7403;
7.2000;0.1571;10.7428;
7.5000;0.1571;10.7476;
7.8000;0.1555;10.7379;
8.1000;0.1563;10.7452;
8.4000;0.1571;10.7403;
8.7000;0.1555;10.7355;
9.0000;0.1563;10.7403;
9.3000;0.1563;10.7379;
9.6000;0.1555;10.7379;
9.9000;0.1604;10.7572;
10.2000;0.1555;10.7403;
10.5000;0.1579;10.7524;
10.8000;0.1563;10.7500;
11.1000;0.1563;10.7524;
11.4000;0.1571;10.7548;
11.7000;0.1563;10.7548;
12.0000;0.1563;10.7500;
12.3000;0.1587;10.7572;
12.6000;0.1571;10.7572;
12.9000;0.1555;10.7500;
13.2000;0.1563;10.7572;
13.5000;0.1579;10.7596;
13.8000;0.1701;10.7934;
14.1000;0.1555;10.7548;
14.4000;0.1579;10.7621;
14.7000;0.1571;10.7596;
15.0000;0.1555;10.7524;
15.3000;0.1547;10.7379;
15.6000;0.1465;10.7114;
15.9000;0.1555;10.7379;
16.2000;0.1563;10.7331;
16.5000;0.1579;10.7452;
16.8000;0.1636;10.7621;
17.1000;0.1579;10.7452;
17.4000;0.1579;10.7476;
17.7000;0.1604;10.7548;
18.0000;0.1555;10.7379;
18.3000;0.1563;10.7452;
18.6000;0.1571;10.7548;
18.9000;0.1530;10.7403;
19.2000;0.1555;10.7476;
19.5000;0.1555;10.7403;
19.8000;0.1563;10.7452;
20.1000;0.1563;10.7548;
20.4000;0.1555;10.7596;
20.7000;0.1538;10.7452;
21.0000;0.1555;10.7476;
21.3000;0.1506;10.7331;
21.6000;0.1563;10.7476;
21.9000;0.1587;10.7572;
22.2000;0.1571;10.7548;
22.5000;0.1579;10.7500;
22.8000;0.1563;10.7524;
23.1000;0.1555;10.7548;
23.4000;0.1595;10.7621;
23.7000;0.1538;10.7572;
24.0000;0.1555;10.7645;
24.3000;0.1571;10.7548;
24.6000;0.1579;10.7572;
24.9000;0.1579;10.7596;
25.2000;0.1457;10.7307;
25.5000;0.1563;10.7621;
25.8000;0.1563;10.7524;
26.1000;0.1612;10.7645;
26.4000;0.1571;10.7500;
26.7000;0.1571;10.7572;
27.0000;0.1555;10.7572;
27.3000;0.1579;10.7572;
27.6000;0.1563;10.7596;
27.9000;0.1538;10.7548;
28.2000;0.1636;10.7765;
28.5000;0.1579;10.7669;
28.8000;0.1579;10.7741;
29.1000;0.1555;10.7645;
29.4000;0.1547;10.7645;
29.7000;0.1547;10.7669;
30.0000;0.1571;10.7789;
30.3000;0.1563;10.7886;
30.6000;0.1571;10.7910;
30.9000;0.1563;10.7862;
31.2000;0.1563;10.7886;
31.5000;0.1579;10.7934;
31.8000;0.1506;10.7717;
32.1000;0.1506;10.7741;
32.4000;0.1595;10.7838;
32.7000;0.1571;10.7765;
33.0000;0.1636;10.8031;
33.3000;0.1530;10.7693;
33.6000;0.1563;10.7862;
33.9000;0.1555;10.7813;
34.2000;0.1555;10.7789;
34.5000;0.1506;10.7693;
34.8000;0.1547;10.7789;
35.1000;0.1563;10.7741;
35.4000;0.1555;10.7813;
35.7000;0.1538;10.7813;
36.0000;0.1555;10.7838;
36.3000;0.1563;10.7838;
36.6000;0.1571;10.7813;
36.9000;0.1579;10.7789;
37.2000;0.1571;10.7717;
37.5000;0.1563;10.7717;
37.8000;0.1595;10.7886;
38.1000;0.1563;10.7765;
38.4000;0.1563;10.7789;
38.7000;0.1571;10.7886;
39.0000;0.1563;10.7789;
39.3000;0.1571;10.7838;
39.6000;0.1547;10.7741;
39.9000;0.1555;10.7693;
40.2000;0.1571;10.7813;
40.5000;0.1579;10.7789;
40.8000;0.1555;10.7789;
41.1000;0.1571;10.7813;
41.4000;0.1563;10.7813;
41.7000;0.1547;10.7789;
42.0000;0.1555;10.7789;
42.3000;0.1547;10.7765;
42.6000;0.1669;10.8055;
42.9000;0.1612;10.7910;
43.2000;0.1555;10.7862;
43.5000;0.1522;10.7838;
43.8000;0.1579;10.8031;
44.1000;0.1579;10.7934;
44.4000;0.1563;10.7934;
44.7000;0.1522;10.7886;
45.0000;0.1563;10.7934;
45.3000;0.1514;10.7741;
45.6000;0.1563;10.7813;
45.9000;0.1644;10.8055;
46.2000;0.1555;10.7765;
46.5000;0.1555;10.7717;
46.8000;0.1587;10.7789;
47.1000;0.1555;10.7813;
47.4000;0.1514;10.7645;
47.7000;0.1530;10.7669;
48.0000;0.1563;10.7741;
48.3000;0.1538;10.7789;
48.6000;0.1620;10.7958;
48.9000;0.1571;10.7741;
49.2000;0.1595;10.7838;
49.5000;0.1579;10.7765;
49.8000;0.1555;10.7669;
50.1000;0.1571;10.7717;
50.4000;0.1595;10.7813;
50.7000;0.1595;10.7789;
51.0000;0.1555;10.7789;
51.3000;0.1555;10.7789;
51.6000;0.1555;10.7765;
51.9000;0.1547;10.7741;
52.2000;0.1563;10.7669;
52.5000;0.1652;10.7886;
52.8000;0.1555;10.7645;
53.1000;0.1563;10.7669;
53.4000;0.1587;10.7741;
53.7000;0.1514;10.7596;
54.0000;0.1563;10.7741;
54.3000;0.1652;10.8055;
54.6000;0.1555;10.7813;
54.9000;0.1555;10.7862;
55.2000;0.1587;10.7958;
55.5000;0.1571;10.7886;
55.8000;0.1612;10.7982;
56.1000;0.1530;10.7669;
56.4000;0.1555;10.7693;
56.7000;0.1555;10.7669;
57.0000;0.1571;10.7693;
57.3000;0.1604;10.7765;
57.6000;0.1563;10.7621;
57.9000;0.1571;10.7572;
58.2000;0.1571;10.7572;
58.5000;0.1579;10.7572;
58.8000;0.1563;10.7596;
59.1000;0.1547;10.7621;
59.4000;0.1555;10.7693;
59.7000;0.1579;10.7693;
60.0000;0.1571;10.7717;
60.3000;0.1547;10.7741;
60.6000;0.1555;10.7693;
60.9000;0.1571;10.7596;
61.2000;0.1547;10.7524;
61.5000;0.1563;10.7621;
61.8000;0.1563;10.7621;
62.1000;0.1587;10.7741;
62.4000;0.1555;10.7669;
62.7000;0.1571;10.7765;
63.0000;0.1587;10.7765;
63.3000;0.1579;10.7838;
63.6000;0.1457;10.7596;
63.9000;0.1530;10.7789;
64.2000;0.1563;10.7958;
64.5000;0.1595;10.8079;
64.8000;0.1563;10.7958;
65.1000;0.1563;10.7982;
65.4000;0.1579;10.8031;
65.7000;0.1571;10.7886;
66.0000;0.1563;10.7813;
66.3000;0.1555;10.7789;
66.6000;0.1620;10.8031;
66.9000;0.1563;10.7934;
67.2000;0.1579;10.7910;
67.5000;0.1522;10.7741;
67.8000;0.1547;10.7813;
68.1000;0.1571;10.7910;
68.4000;0.1571;10.7789;
68.7000;0.1538;10.7621;
69.0000;0.1563;10.7645;
69.3000;0.1555;10.7548;
69.6000;0.1587;10.7669;
69.9000;0.1604;10.7813;
70.2000;0.1547;10.7717;
70.5000;0.1563;10.7693;
70.8000;0.1538;10.7596;
71.1000;0.1563;10.7717;
71.4000;0.1441;10.7331;
71.7000;0.1555;10.7645;
72.0000;0.1563;10.7669;
72.3000;0.1547;10.7693;
72.6000;0.1563;10.7645;
72.9000;0.1547;10.7621;
73.2000;0.1547;10.7596;
73.5000;0.1571;10.7621;
73.8000;0.1579;10.7596;
74.1000;0.1563;10.7524;
74.4000;0.1571;10.7476;
74.7000;0.1604;10.7524;
75.0000;0.1449;10.7210;
75.3000;0.1579;10.7572;
75.6000;0.1555;10.7572;
75.9000;0.1579;10.7596;
76.2000;0.1563;10.7572;
76.5000;0.1538;10.7524;
76.8000;0.1555;10.7452;
77.1000;0.1563;10.7524;
77.4000;0.1563;10.7524;
77.7000;0.1563;10.7669;
78.0000;0.1547;10.7669;
78.3000;0.1555;10.7693;
78.6000;0.1514;10.7596;
78.9000;0.1571;10.7645;
79.2000;0.1555;10.7645;
79.5000;0.1571;10.7717;
79.8000;0.1555;10.7645;
80.1000;0.1579;10.7741;
80.4000;0.1587;10.7765;
80.7000;0.1563;10.7596;
81.0000;0.1563;10.7500;
81.3000;0.1563;10.7524;
81.6000;0.1563;10.7500;
81.9000;0.1547;10.7596;
82.2000;0.1587;10.7669;
82.5000;0.1571;10.7669;
82.8000;0.1571;10.7621;
83.1000;0.1563;10.7621;
83.4000;0.1538;10.7572;
83.7000;0.1555;10.7524;
84.0000;0.1587;10.7645;
84.3000;0.1563;10.7596;
84.6000;0.1579;10.7596;
84.9000;0.1571;10.7572;
85.2000;0.1579;10.7621;
85.5000;0.1571;10.7621;
85.8000;0.1547;10.7572;
86.1000;0.1571;10.7645;
86.4000;0.1571;10.7621;
86.7000;0.1498;10.7524;
87.0000;0.1547;10.7693;
87.3000;0.1563;10.7789;
87.6000;0.1563;10.7789;
87.9000;0.1563;10.7765;
88.2000;0.1571;10.7693;
88.5000;0.1563;10.7596;
88.8000;0.1612;10.7813;
89.1000;0.1579;10.7717;
89.4000;0.1563;10.7693;
89.7000;0.1563;10.7669;
90.0000;0.1579;10.7645;
90.3000;0.1571;10.7621;
90.6000;0.1620;10.7693;
90.9000;0.1547;10.7500;
91.2000;0.1498;10.7428;
91.5000;0.1571;10.7621;
91.8000;0.1530;10.7476;
92.1000;0.1547;10.7621;
92.4000;0.1563;10.7621;
92.7000;0.1563;10.7596;
93.0000;0.1538;10.7524;
93.3000;0.1555;10.7500;
93.6000;0.1547;10.7524;
93.9000;0.1563;10.7596;
94.2000;0.1579;10.7621;
94.5000;0.1579;10.7621;
94.8000;0.1555;10.7669;
95.1000;0.1587;10.7789;
95.4000;0.1563;10.7741;
95.7000;0.1547;10.7693;
96.0000;0.1465;10.7331;
96.3000;0.1563;10.7548;
96.6000;0.1612;10.7645;
96.9000;0.1538;10.7500;
97.2000;0.1571;10.7524;
97.5000;0.1571;10.7524;
97.8000;0.1579;10.7596;
98.1000;0.1579;10.7645;
98.4000;0.1579;10.7669;
98.7000;0.1571;10.7669;
99.0000;0.1579;10.7741;
99.3000;0.1579;10.7669;
99.6000;0.1563;10.7621;
99.9000;0.1571;10.7645;
100.2000;0.1579;10.7669;
100.5000;0.1587;10.7645;
100.8000;0.1563;10.7548;
101.1000;0.1563;10.7572;
101.4000;0.1547;10.7500;
101.7000;0.1538;10.7596;
102.0000;0.1571;10.7596;
102.3000;0.1555;10.7693;
102.6000;0.1571;10.7717;
102.9000;0.1555;10.7717;
103.2000;0.1555;10.7669;
103.5000;0.1522;10.7524;
103.8000;0.1579;10.7693;
104.1000;0.1555;10.7693;
104.4000;0.1563;10.7717;
104.7000;0.1579;10.7765;
105.0000;0.1555;10.7717;
105.3000;0.1563;10.7789;
105.6000;0.1579;10.7741;
105.9000;0.1555;10.7717;
106.2000;0.1555;10.7789;
106.5000;0.1490;10.7621;
106.8000;0.1571;10.7838;
107.1000;0.1538;10.7741;
107.4000;0.1538;10.7717;
107.7000;0.1595;10.7789;
108.0000;0.1563;10.7669;
108.3000;0.1563;10.7669;
108.6000;0.1563;10.7621;
108.9000;0.1547;10.7645;
109.2000;0.1547;10.7596;
109.5000;0.1563;10.7669;
109.8000;0.1538;10.7645;
110.1000;0.1538;10.7621;
110.4000;0.1563;10.7645;
110.7000;0.1555;10.7572;
111.0000;0.1538;10.7403;
111.3000;0.1571;10.7500;
111.6000;0.1555;10.7548;
111.9000;0.1555;10.7596;
112.2000;0.1555;10.7548;
112.5000;0.1547;10.7524;
112.8000;0.1579;10.7524;
113.1000;0.1555;10.7403;
113.4000;0.1612;10.7500;
113.7000;0.1571;10.7379;
114.0000;0.1563;10.7379;
114.3000;0.1563;10.7379;
114.6000;0.1547;10.7379;
114.9000;0.1563;10.7428;
115.2000;0.1571;10.7476;
115.5000;0.1547;10.7524;
115.8000;0.1555;10.7621;
116.1000;0.1538;10.7621;
116.4000;0.1538;10.7645;
116.7000;0.1563;10.7621;
117.0000;0.1522;10.7572;
117.3000;0.1685;10.7982;
117.6000;0.1506;10.7500;
117.9000;0.1555;10.7693;
118.2000;0.1555;10.7645;
118.5000;0.1563;10.7693;
118.8000;0.1555;10.7717;
119.1000;0.1555;10.7741;
119.4000;0.1620;10.7934;
119.7000;0.1547;10.7741;
120.0000;0.1555;10.7717;
120.3000;0.1620;10.7862;
120.6000;0.1563;10.7572;
120.9000;0.1563;10.7476;
121.2000;0.1563;10.7428;
121.5000;0.1571;10.7500;
121.8000;0.1563;10.7452;
122.1000;0.1563;10.7355;
122.4000;0.1530;10.7259;
122.7000;0.1563;10.7403;
123.0000;0.1555;10.7452;
123.3000;0.1449;10.7235;
123.6000;0.1481;10.7379;
123.9000;0.1669;10.7958;
124.2000;0.1547;10.7669;
124.5000;0.1644;10.7982;
124.8000;0.1498;10.7572;
125.1000;0.1555;10.7669;
125.4000;0.1620;10.7765;
125.7000;0.1506;10.7476;
126.0000;0.1661;10.7934;
126.3000;0.1514;10.7548;
126.6000;0.1563;10.7548;
126.9000;0.1571;10.7572;
127.2000;0.1563;10.7452;
127.5000;0.1571;10.7476;
127.8000;0.1555;10.7500;
128.1000;0.1538;10.7572;
128.4000;0.1555;10.7572;
128.7000;0.1563;10.7548;
129.0000;0.1555;10.7524;
129.3000;0.1547;10.7524;
129.6000;0.1530;10.7476;
129.9000;0.1579;10.7596;
130.2000;0.1579;10.7548;
130.5000;0.1587;10.7572;
130.8000;0.1563;10.7524;
131.1000;0.1563;10.7476;
131.4000;0.1579;10.7500;
131.7000;0.1538;10.7428;
132.0000;0.1547;10.7524;
132.3000;0.1555;10.7572;
132.6000;0.1555;10.7621;
132.9000;0.1547;10.7548;
133.2000;0.1571;10.7789;
133.5000;0.1547;10.7621;
133.8000;0.1522;10.7524;
134.1000;0.1555;10.7572;
134.4000;0.1538;10.7524;
134.7000;0.1563;10.7717;
135.0000;0.1563;10.7741;
135.3000;0.1563;10.7741;
135.6000;0.1530;10.7645;
135.9000;0.1555;10.7596;
136.2000;0.1530;10.7596;
136.5000;0.1547;10.7693;
136.8000;0.1555;10.7693;
137.1000;0.1547;10.7621;
137.4000;0.1555;10.7596;
137.7000;0.1563;10.7524;
138.0000;0.1555;10.7524;
138.3000;0.1571;10.7572;
138.6000;0.1538;10.7524;
138.9000;0.1563;10.7645;
139.2000;0.1669;10.7910;
139.5000;0.1579;10.7669;
139.8000;0.1514;10.7452;
140.1000;0.1571;10.7621;
140.4000;0.1555;10.7669;
140.7000;0.1555;10.7572;
141.0000;0.1636;10.7765;
141.3000;0.1563;10.7693;
141.6000;0.1547;10.7693;
141.9000;0.1538;10.7645;
142.2000;0.1547;10.7621;
142.5000;0.1547;10.7669;
142.8000;0.1547;10.7621;
143.1000;0.1547;10.7596;
143.4000;0.1604;10.7741;
143.7000;0.1555;10.7693;
144.0000;0.1563;10.7717;
144.3000;0.1685;10.8006;
144.6000;0.1555;10.7524;
144.9000;0.1538;10.7621;
145.2000;0.1595;10.7693;
145.5000;0.1538;10.7500;
145.8000;0.1571;10.7645;
146.1000;0.1547;10.7572;
146.4000;0.1612;10.7741;
146.7000;0.1563;10.7524;
147.0000;0.1547;10.7500;
147.3000;0.1620;10.7765;
147.6000;0.1579;10.7717;
147.9000;0.1563;10.7524;
148.2000;0.1587;10.7548;
148.5000;0.1563;10.7524;
148.8000;0.1587;10.7572;
149.1000;0.1547;10.7428;
149.4000;0.1571;10.7428;
149.7000;0.1530;10.7235;
150.0000;0.1587;10.7259;
150.3000;0.1563;10.7235;
150.6000;0.1563;10.7307;
150.9000;0.1506;10.7307;
151.2000;0.1563;10.7331;
151.5000;0.1538;10.7331;
151.8000;0.1563;10.7379;
152.1000;0.1571;10.7331;
152.4000;0.1547;10.7259;
152.7000;0.1579;10.7331;
153.0000;0.1555;10.7307;
153.3000;0.1555;10.7331;
153.6000;0.1547;10.7283;
153.9000;0.1547;10.7235;
154.2000;0.1547;10.7355;
154.5000;0.1514;10.7307;
154.8000;0.1579;10.7379;
155.1000;0.1538;10.7331;
155.4000;0.1547;10.7403;
155.7000;0.1547;10.7379;
156.0000;0.1563;10.7379;
156.3000;0.1579;10.7379;
156.6000;0.1571;10.7331;
156.9000;0.1563;10.7331;
157.2000;0.1555;10.7403;
157.5000;0.1571;10.7500;
157.8000;0.1547;10.7500;
158.1000;0.1563;10.7548;
158.4000;0.1547;10.7572;
158.7000;0.1555;10.7500;
159.0000;0.1571;10.7500;
159.3000;0.1547;10.7403;
159.6000;0.1563;10.7452;
159.9000;0.1538;10.7500;
160.2000;0.1530;10.7476;
160.5000;0.1538;10.7452;
160.8000;0.1555;10.7452;
161.1000;0.1547;10.7476;
161.4000;0.1571;10.7500;
161.7000;0.1571;10.7548;
162.0000;0.1547;10.7572;
162.3000;0.1547;10.7524;
162.6000;0.1563;10.7524;
162.9000;0.1579;10.7548;
163.2000;0.1571;10.7572;
163.5000;0.1530;10.7500;
163.8000;0.1530;10.7500;
164.1000;0.1555;10.7524;
164.4000;0.1538;10.7621;
164.7000;0.1506;10.7500;
165.0000;0.1628;10.7934;
165.3000;0.1555;10.7741;
165.6000;0.1547;10.7693;
165.9000;0.1636;10.7886;
166.2000;0.1473;10.7524;
166.5000;0.1604;10.7838;
166.8000;0.1571;10.7717;
167.1000;0.1563;10.7621;
167.4000;0.1547;10.7645;
167.7000;0.1555;10.7669;
168.0000;0.1571;10.7645;
168.3000;0.1547;10.7621;
168.6000;0.1579;10.7669;
168.9000;0.1538;10.7621;
169.2000;0.1563;10.7789;
169.5000;0.1555;10.7765;
169.8000;0.1530;10.7621;
170.1000;0.1538;10.7645;
170.4000;0.1547;10.7693;
170.7000;0.1555;10.7765;
171.0000;0.1538;10.7693;
171.3000;0.1538;10.7645;
171.6000;0.1555;10.7741;
171.9000;0.1571;10.7765;
172.2000;0.1571;10.7765;
172.5000;0.1555;10.7717;
172.8000;0.1555;10.7669;
173.1000;0.1555;10.7741;
173.4000;0.1563;10.7693;
173.7000;0.1538;10.7645;
174.0000;0.1563;10.7765;
174.3000;0.1555;10.7741;
174.6000;0.1547;10.7669;
174.9000;0.1547;10.7596;
175.2000;0.1538;10.7621;
175.5000;0.1555;10.7572;
175.8000;0.1563;10.7693;
176.1000;0.1547;10.7693;
176.4000;0.1547;10.7669;
176.7000;0.1563;10.7621;
177.0000;0.1579;10.7693;
177.3000;0.1522;10.7452;
177.6000;0.1563;10.7524;
177.9000;0.1555;10.7596;
178.2000;0.1547;10.7596;
178.5000;0.1563;10.7645;
178.8000;0.1563;10.7645;
179.1000;0.1547;10.7596;
179.4000;0.1547;10.7572;
179.7000;0.1547;10.7572;
180.0000;0.1555;10.7548;
180.3000;0.1530;10.7428;
180.6000;0.1636;10.7645;
180.9000;0.1522;10.7331;
181.2000;0.1555;10.7428;
181.5000;0.1563;10.7548;
181.8000;0.1563;10.7645;
182.1000;0.1571;10.7693;
182.4000;0.1555;10.7669;
182.7000;0.1571;10.7645;
183.0000;0.1555;10.7669;
183.3000;0.1547;10.7669;
183.6000;0.1555;10.7693;
183.9000;0.1563;10.7596;
184.2000;0.1563;10.7548;
184.5000;0.1579;10.7621;
184.8000;0.1547;10.7524;
185.1000;0.1563;10.7524;
185.4000;0.1449;10.7162;
185.7000;0.1555;10.7403;
186.0000;0.1563;10.7476;
186.3000;0.1555;10.7476;
186.6000;0.1563;10.7476;
186.9000;0.1538;10.7572;
187.2000;0.1563;10.7596;
187.5000;0.1538;10.7548;
187.8000;0.1636;10.7765;
188.1000;0.1563;10.7621;
188.4000;0.1636;10.7693;
188.7000;0.1522;10.7379;
189.0000;0.1555;10.7452;
189.3000;0.1571;10.7500;
189.6000;0.1547;10.7476;
189.9000;0.1612;10.7548;
190.2000;0.1538;10.7355;
190.5000;0.1530;10.7259;
190.8000;0.1522;10.7138;
191.1000;0.1547;10.7235;
191.4000;0.1547;10.7235;
191.7000;0.1538;10.7307;
192.0000;0.1555;10.7307;
192.3000;0.1579;10.7428;
192.6000;0.1636;10.7669;
192.9000;0.1563;10.7452;
193.2000;0.1522;10.7355;
193.5000;0.1506;10.7307;
193.8000;0.1547;10.7452;
194.1000;0.1563;10.7428;
194.4000;0.1547;10.7403;
194.7000;0.1571;10.7500;
195.0000;0.1555;10.7428;
195.3000;0.1530;10.7379;
195.6000;0.1555;10.7452;
195.9000;0.1538;10.7428;
196.2000;0.1555;10.7500;
196.5000;0.1465;10.7355;
196.8000;0.1555;10.7621;
197.1000;0.1547;10.7669;
197.4000;0.1563;10.7645;
197.7000;0.1555;10.7669;
198.0000;0.1563;10.7645;
198.3000;0.1555;10.7572;
198.6000;0.1555;10.7621;
198.9000;0.1547;10.7645;
199.2000;0.1555;10.7717;
199.5000;0.1563;10.7669;
199.8000;0.1555;10.7572;
200.1000;0.1563;10.7548;
200.4000;0.1555;10.7596;
200.7000;0.1530;10.7596;
201.0000;0.1571;10.7621;
201.3000;0.1555;10.7548;
201.6000;0.1538;10.7452;
201.9000;0.1563;10.7524;
202.2000;0.1563;10.7524;
202.5000;0.1571;10.7524;
202.8000;0.1571;10.7500;
203.1000;0.1563;10.7500;
203.4000;0.1555;10.7476;
203.7000;0.1547;10.7596;
204.0000;0.1530;10.7572;
204.3000;0.1555;10.7572;
204.6000;0.1571;10.7548;
204.9000;0.1547;10.7403;
205.2000;0.1563;10.7355;
205.5000;0.1563;10.7331;
205.8000;0.1514;10.7235;
206.1000;0.1563;10.7403;
206.4000;0.1555;10.7355;
206.7000;0.1538;10.7355;
207.0000;0.1547;10.7283;
207.3000;0.1571;10.7355;
207.6000;0.1571;10.7355;
207.9000;0.1571;10.7452;
208.2000;0.1547;10.7500;
208.5000;0.1547;10.7572;
208.8000;0.1555;10.7596;
209.1000;0.1555;10.7645;
209.4000;0.1538;10.7669;
209.7000;0.1563;10.7596;
210.0000;0.1563;10.7500;
210.3000;0.1571;10.7403;
210.6000;0.1538;10.7331;
210.9000;0.1547;10.7355;
211.2000;0.1530;10.7379;
211.5000;0.1604;10.7596;
211.8000;0.1538;10.7379;
212.1000;0.1571;10.7428;
212.4000;0.1571;10.7355;
212.7000;0.1563;10.7403;
213.0000;0.1547;10.7379;
213.3000;0.1547;10.7452;
213.6000;0.1547;10.7403;
213.9000;0.1555;10.7572;
214.2000;0.1563;10.7596;
214.5000;0.1555;10.7476;
214.8000;0.1595;10.7548;
215.1000;0.1490;10.7283;
215.4000;0.1555;10.7476;
215.7000;0.1563;10.7500;
216.0000;0.1563;10.7572;
216.3000;0.1538;10.7572;
216.6000;0.1547;10.7572;
216.9000;0.1490;10.7428;
217.2000;0.1547;10.7548;
217.5000;0.1628;10.7669;
217.8000;0.1571;10.7524;
218.1000;0.1579;10.7524;
218.4000;0.1555;10.7428;
218.7000;0.1555;10.7452;
219.0000;0.1538;10.7452;
219.3000;0.1555;10.7452;
219.6000;0.1571;10.7500;
219.9000;0.1579;10.7500;
220.2000;0.1555;10.7500;
220.5000;0.1579;10.7500;
220.8000;0.1547;10.7524;
221.1000;0.1449;10.7235;
221.4000;0.1522;10.7476;
221.7000;0.1579;10.7524;
222.0000;0.1547;10.7572;
222.3000;0.1571;10.7621;
222.6000;0.1555;10.7572;
222.9000;0.1571;10.7596;
223.2000;0.1563;10.7548;
223.5000;0.1555;10.7548;
223.8000;0.1563;10.7596;
224.1000;0.1579;10.7548;
224.4000;0.1571;10.7500;
224.7000;0.1514;10.7355;
225.0000;0.1563;10.7379;
225.3000;0.1555;10.7331;
225.6000;0.1587;10.7476;
225.9000;0.1563;10.7428;
226.2000;0.1571;10.7331;
226.5000;0.1571;10.7403;
226.8000;0.1563;10.7452;
227.1000;0.1555;10.7524;
227.4000;0.1547;10.7548;
227.7000;0.1538;10.7524;
228.0000;0.1571;10.7596;
228.3000;0.1563;10.7596;
228.6000;0.1555;10.7621;
228.9000;0.1555;10.7621;
229.2000;0.1571;10.7645;
229.5000;0.1547;10.7524;
229.8000;0.1563;10.7452;
230.1000;0.1538;10.7403;
230.4000;0.1555;10.7452;
230.7000;0.1604;10.7572;
231.0000;0.1547;10.7403;
231.3000;0.1555;10.7379;
231.6000;0.1538;10.7452;
231.9000;0.1563;10.7500;
232.2000;0.1530;10.7379;
232.5000;0.1563;10.7476;
232.8000;0.1555;10.7428;
233.1000;0.1563;10.7548;
233.4000;0.1636;10.7765;
233.7000;0.1661;10.7813;
234.0000;0.1563;10.7548;
234.3000;0.1571;10.7548;
234.6000;0.1579;10.7500;
234.9000;0.1457;10.7235;
235.2000;0.1563;10.7548;
235.5000;0.1563;10.7596;
235.8000;0.1530;10.7572;
236.1000;0.1547;10.7645;
236.4000;0.1538;10.7741;
236.7000;0.1555;10.7693;
237.0000;0.1555;10.7717;
237.3000;0.1498;10.7596;
237.6000;0.1514;10.7524;
237.9000;0.1555;10.7524;
238.2000;0.1563;10.7596;
238.5000;0.1563;10.7621;
238.8000;0.1547;10.7476;
239.1000;0.1555;10.7452;
239.4000;0.1604;10.7524;
239.7000;0.1555;10.7403;
240.0000;0.1530;10.7476;
240.3000;0.1595;10.7621;
240.6000;0.1538;10.7524;
240.9000;0.1555;10.7548;
241.2000;0.1538;10.7572;
241.5000;0.1522;10.7500;
241.8000;0.1555;10.7596;
242.1000;0.1563;10.7621;
242.4000;0.1555;10.7621;
242.7000;0.1555;10.7524;
243.0000;0.1547;10.7548;
243.3000;0.1563;10.7669;
243.6000;0.1571;10.7645;
243.9000;0.1538;10.7572;
244.2000;0.1555;10.7524;
244.5000;0.1547;10.7476;
244.8000;0.1555;10.7524;
245.1000;0.1563;10.7524;
245.4000;0.1555;10.7476;
245.7000;0.1530;10.7452;
246.0000;0.1555;10.7452;
246.3000;0.1563;10.7596;
246.6000;0.1547;10.7476;
246.9000;0.1547;10.7524;
247.2000;0.1555;10.7548;
247.5000;0.1547;10.7572;
247.8000;0.1555;10.7596;
248.1000;0.1555;10.7548;
248.4000;0.1547;10.7548;
248.7000;0.1563;10.7596;
249.0000;0.1555;10.7524;
249.3000;0.1563;10.7476;
249.6000;0.1522;10.7307;
249.9000;0.1612;10.7572;
250.2000;0.1563;10.7452;
250.5000;0.1547;10.7355;
250.8000;0.1530;10.7331;
251.1000;0.1563;10.7428;
251.4000;0.1563;10.7452;
251.7000;0.1571;10.7596;
252.0000;0.1571;10.7572;
252.3000;0.1579;10.7500;
252.6000;0.1538;10.7452;
252.9000;0.1547;10.7476;
253.2000;0.1538;10.7548;
253.5000;0.1547;10.7500;
253.8000;0.1547;10.7379;
254.1000;0.1555;10.7307;
254.4000;0.1547;10.7331;
254.7000;0.1579;10.7428;
255.0000;0.1563;10.7379;
255.3000;0.1498;10.7138;
255.6000;0.1465;10.7066;
255.9000;0.1538;10.7307;
256.2000;0.1547;10.7355;
256.5000;0.1620;10.7572;
256.8000;0.1547;10.7403;
257.1000;0.1563;10.7403;
257.4000;0.1498;10.7235;
257.7000;0.1555;10.7476;
258.0000;0.1547;10.7476;
258.3000;0.1579;10.7548;
258.6000;0.1538;10.7452;
258.9000;0.1604;10.7500;
259.2000;0.1571;10.7403;
259.5000;0.1555;10.7452;
259.8000;0.1555;10.7403;
260.1000;0.1563;10.7428;
260.4000;0.1538;10.7403;
260.7000;0.1547;10.7379;
261.0000;0.1555;10.7428;
261.3000;0.1555;10.7428;
261.6000;0.1555;10.7476;
261.9000;0.1563;10.7524;
262.2000;0.1563;10.7476;
262.5000;0.1612;10.7693;
262.8000;0.1563;10.7548;
263.1000;0.1571;10.7500;
263.4000;0.1555;10.7548;
263.7000;0.1547;10.7572;
264.0000;0.1555;10.7596;
264.3000;0.1571;10.7669;
264.6000;0.1514;10.7428;
264.9000;0.1555;10.7645;
265.2000;0.1579;10.7765;
265.5000;0.1595;10.7717;
265.8000;0.1547;10.7572;
266.1000;0.1555;10.7548;
266.4000;0.1571;10.7596;
266.7000;0.1555;10.7596;
267.0000;0.1538;10.7572;
267.3000;0.1530;10.7621;
267.6000;0.1628;10.7862;
267.9000;0.1547;10.7500;
268.2000;0.1555;10.7596;
268.5000;0.1555;10.7524;
268.8000;0.1571;10.7476;
269.1000;0.1547;10.7403;
269.4000;0.1547;10.7403;
269.7000;0.1555;10.7403;
270.0000;0.1563;10.7524;
270.3000;0.1571;10.7572;
270.6000;0.1547;10.7596;
270.9000;0.1563;10.7669;
271.2000;0.1538;10.7572;
271.5000;0.1547;10.7669;
271.8000;0.1490;10.7500;
272.1000;0.1571;10.7669;
272.4000;0.1555;10.7596;
272.7000;0.1563;10.7621;
273.0000;0.1547;10.7572;
273.3000;0.1538;10.7621;
273.6000;0.1481;10.7452;
273.9000;0.1547;10.7669;
274.2000;0.1538;10.7669;
274.5000;0.1514;10.7621;
274.8000;0.1547;10.7765;
275.1000;0.1555;10.7741;
275.4000;0.1555;10.7693;
275.7000;0.1498;10.7428;
276.0000;0.1547;10.7621;
276.3000;0.1595;10.7645;
276.6000;0.1530;10.7428;
276.9000;0.1571;10.7524;
277.2000;0.1547;10.7452;
277.5000;0.1538;10.7500;
277.8000;0.1571;10.7596;
278.1000;0.1547;10.7669;
278.4000;0.1547;10.7596;
278.7000;0.1547;10.7596;
279.0000;0.1555;10.7572;
279.3000;0.1547;10.7500;
279.6000;0.1547;10.7572;
279.9000;0.1538;10.7548;
280.2000;0.1571;10.7645;
280.5000;0.1604;10.7813;
280.8000;0.1547;10.7717;
281.1000;0.1530;10.7524;
281.4000;0.1457;10.7379;
281.7000;0.1538;10.7572;
282.0000;0.1538;10.7669;
282.3000;0.1538;10.7693;
282.6000;0.1587;10.7765;
282.9000;0.1547;10.7693;
283.2000;0.1563;10.7741;
283.5000;0.1604;10.7886;
283.8000;0.1547;10.7693;
284.1000;0.1547;10.7693;
284.4000;0.1571;10.7741;
284.7000;0.1538;10.7596;
285.0000;0.1522;10.7548;
285.3000;0.1587;10.7741;
285.6000;0.1547;10.7596;
285.9000;0.1498;10.7524;
286.2000;0.1547;10.7645;
286.5000;0.1563;10.7645;
286.8000;0.1563;10.7645;
287.1000;0.1555;10.7693;
287.4000;0.1555;10.7621;
287.7000;0.1538;10.7621;
288.0000;0.1555;10.7693;
288.3000;0.1538;10.7596;
288.6000;0.1571;10.7621;
288.9000;0.1547;10.7572;
289.2000;0.1547;10.7645;
289.5000;0.1538;10.7645;
289.8000;0.1547;10.7693;
290.1000;0.1547;10.7669;
290.4000;0.1555;10.7645;
290.7000;0.1563;10.7765;
291.0000;0.1571;10.7693;
291.3000;0.1538;10.7572;
291.6000;0.1571;10.7717;
291.9000;0.1587;10.7669;
292.2000;0.1555;10.7669;
292.5000;0.1538;10.7596;
292.8000;0.1538;10.7548;
293.1000;0.1571;10.7548;
293.4000;0.1555;10.7500;
293.7000;0.1530;10.7524;
294.0000;0.1547;10.7572;
294.3000;0.1563;10.7572;
294.6000;0.1563;10.7548;
294.9000;0.1563;10.7524;
295.2000;0.1555;10.7524;
295.5000;0.1555;10.7500;
295.8000;0.1530;10.7428;
296.1000;0.1547;10.7476;
296.4000;0.1538;10.7452;
296.7000;0.1555;10.7500;
297.0000;0.1547;10.7500;
297.3000;0.1563;10.7500;
297.6000;0.1628;10.7765;
297.9000;0.1644;10.7838;
298.2000;0.1547;10.7596;
298.5000;0.1587;10.7669;
298.8000;0.1506;10.7524;
299.1000;0.1547;10.7621;
299.4000;0.1530;10.7596;
299.7000;0.1547;10.7669;
300.0000;0.1563;10.7645;
300.3000;0.1498;10.7500;
300.6000;0.1547;10.7717;
300.9000;0.1571;10.7741;
301.2000;0.1563;10.7765;
301.5000;0.1547;10.7789;
301.8000;0.1555;10.7862;
302.1000;0.1563;10.7886;
302.4000;0.1547;10.7862;
302.7000;0.1563;10.7862;
303.0000;0.1538;10.7789;
303.3000;0.1571;10.7886;
303.6000;0.1555;10.7789;
303.9000;0.1514;10.7645;
304.2000;0.1547;10.7765;
304.5000;0.1530;10.7741;
304.8000;0.1555;10.7789;
305.1000;0.1547;10.7813;
305.4000;0.1555;10.7717;
305.7000;0.1595;10.7741;
306.0000;0.1547;10.7621;
306.3000;0.1555;10.7645;
306.6000;0.1563;10.7669;
306.9000;0.1547;10.7693;
307.2000;0.1547;10.7741;
307.5000;0.1547;10.7765;
307.8000;0.1571;10.7717;
308.1000;0.1547;10.7645;
308.4000;0.1555;10.7645;
308.7000;0.1571;10.7645;
309.0000;0.1547;10.7669;
309.3000;0.1530;10.7621;
309.6000;0.1538;10.7693;
309.9000;0.1522;10.7645;
310.2000;0.1547;10.7669;
310.5000;0.1571;10.7717;
310.8000;0.1547;10.7645;
311.1000;0.1547;10.7765;
311.4000;0.1555;10.7693;
311.7000;0.1481;10.7403;
312.0000;0.1538;10.7548;
312.3000;0.1563;10.7645;
312.6000;0.1547;10.7524;
312.9000;0.1530;10.7428;
313.2000;0.1547;10.7452;
313.5000;0.1555;10.7476;
313.8000;0.1514;10.7379;
314.1000;0.1547;10.7403;
314.4000;0.1547;10.7476;
314.7000;0.1522;10.7476;
315.0000;0.1571;10.7548;
315.3000;0.1538;10.7476;
315.6000;0.1522;10.7572;
315.9000;0.1555;10.7717;
316.2000;0.1579;10.7741;
316.5000;0.1571;10.7741;
316.8000;0.1563;10.7669;
317.1000;0.1571;10.7741;
317.4000;0.1563;10.7741;
317.7000;0.1555;10.7669;
318.0000;0.1547;10.7669;
318.3000;0.1547;10.7621;
318.6000;0.1514;10.7548;
318.9000;0.1441;10.7476;
319.2000;0.1547;10.7717;
319.5000;0.1555;10.7741;
319.8000;0.1636;10.7958;
320.1000;0.1563;10.7693;
320.4000;0.1555;10.7717;
320.7000;0.1425;10.7428;
321.0000;0.1547;10.7789;
321.3000;0.1547;10.7789;
321.6000;0.1547;10.7717;
321.9000;0.1547;10.7621;
322.2000;0.1538;10.7572;
322.5000;0.1538;10.7572;
322.8000;0.1530;10.7524;
323.1000;0.1547;10.7548;
323.4000;0.1563;10.7621;
323.7000;0.1547;10.7572;
324.0000;0.1547;10.7596;
324.3000;0.1538;10.7572;
324.6000;0.1571;10.7693;
324.9000;0.1555;10.7596;
325.2000;0.1547;10.7596;
325.5000;0.1669;10.7934;
325.8000;0.1547;10.7476;
326.1000;0.1547;10.7476;
326.4000;0.1547;10.7524;
326.7000;0.1571;10.7476;
327.0000;0.1571;10.7500;
327.3000;0.1555;10.7524;
327.6000;0.1563;10.7500;
327.9000;0.1563;10.7452;
328.2000;0.1547;10.7500;
328.5000;0.1547;10.7548;
328.8000;0.1538;10.7500;
329.1000;0.1604;10.7621;
329.4000;0.1547;10.7452;
329.7000;0.1547;10.7596;
330.0000;0.1547;10.7548;
330.3000;0.1506;10.7379;
330.6000;0.1563;10.7572;
330.9000;0.1530;10.7548;
331.2000;0.1498;10.7403;
331.5000;0.1555;10.7524;
331.8000;0.1563;10.7548;
332.1000;0.1555;10.7572;
332.4000;0.1563;10.7596;
332.7000;0.1555;10.7669;
333.0000;0.1506;10.7524;
333.3000;0.1595;10.7693;
333.6000;0.1547;10.7524;
333.9000;0.1555;10.7548;
334.2000;0.1530;10.7428;
334.5000;0.1555;10.7452;
334.8000;0.1547;10.7428;
335.1000;0.1555;10.7500;
335.4000;0.1547;10.7500;
335.7000;0.1579;10.7596;
336.0000;0.1547;10.7524;
336.3000;0.1571;10.7645;
336.6000;0.1555;10.7500;
336.9000;0.1563;10.7621;
337.2000;0.1620;10.7645;
337.5000;0.1547;10.7572;
337.8000;0.1563;10.7645;
338.1000;0.1563;10.7596;
338.4000;0.1547;10.7621;
338.7000;0.1441;10.7355;
339.0000;0.1555;10.7572;
339.3000;0.1555;10.7500;
339.6000;0.1530;10.7428;
339.9000;0.1547;10.7428;
340.2000;0.1538;10.7428;
340.5000;0.1563;10.7572;
340.8000;0.1547;10.7596;
341.1000;0.1555;10.7669;
341.4000;0.1547;10.7669;
341.7000;0.1547;10.7693;
342.0000;0.1547;10.7621;
342.3000;0.1547;10.7765;
342.6000;0.1571;10.7789;
342.9000;0.1506;10.7548;
343.2000;0.1571;10.7693;
343.5000;0.1555;10.7693;
343.8000;0.1555;10.7693;
344.1000;0.1522;10.7645;
344.4000;0.1571;10.7765;
344.7000;0.1571;10.7813;
345.0000;0.1547;10.7789;
345.3000;0.1555;10.7838;
345.6000;0.1563;10.7813;
345.9000;0.1555;10.7717;
346.2000;0.1555;10.7669;
346.5000;0.1481;10.7452;
346.8000;0.1473;10.7403;
347.1000;0.1571;10.7645;
347.4000;0.1563;10.7596;
347.7000;0.1555;10.7524;
348.0000;0.1563;10.7548;
348.3000;0.1498;10.7355;
348.6000;0.1563;10.7548;
348.9000;0.1555;10.7524;
349.2000;0.1547;10.7500;
349.5000;0.1563;10.7524;
349.8000;0.1555;10.7524;
350.1000;0.1555;10.7403;
350.4000;0.1579;10.7428;
350.7000;0.1563;10.7379;
351.0000;0.1538;10.7452;
351.3000;0.1612;10.7693;
351.6000;0.1547;10.7596;
351.9000;0.1547;10.7548;
352.2000;0.1563;10.7596;
352.5000;0.1579;10.7669;
352.8000;0.1612;10.7693;
353.1000;0.1555;10.7476;
353.4000;0.1547;10.7476;
353.7000;0.1555;10.7596;
354.0000;0.1538;10.7500;
354.3000;0.1514;10.7403;
354.6000;0.1514;10.7428;
354.9000;0.1538;10.7452;
355.2000;0.1644;10.7862;
355.5000;0.1547;10.7500;
355.8000;0.1547;10.7645;
356.1000;0.1538;10.7717;
356.4000;0.1506;10.7621;
356.7000;0.1571;10.7765;
357.0000;0.1547;10.7741;
357.3000;0.1522;10.7693;
357.6000;0.1481;10.7476;
357.9000;0.1579;10.7741;
358.2000;0.1555;10.7693;
358.5000;0.1563;10.7693;
358.8000;0.1547;10.7645;
359.1000;0.1547;10.7645;
359.4000;0.1555;10.7717;
359.7000;0.1547;10.7621;
360.0000;0.1571;10.7621;
360.3000;0.1620;10.7741;
360.6000;0.1530;10.7500;
360.9000;0.1547;10.7500;
361.2000;0.1555;10.7572;
361.5000;0.1538;10.7621;
361.8000;0.1547;10.7621;
362.1000;0.1547;10.7645;
362.4000;0.1547;10.7717;
362.7000;0.1547;10.7717;
363.0000;0.1555;10.7693;
363.3000;0.1555;10.7741;
363.6000;0.1579;10.7765;
363.9000;0.1547;10.7645;
364.2000;0.1538;10.7645;
364.5000;0.1538;10.7645;
364.8000;0.1473;10.7476;
365.1000;0.1547;10.7572;
365.4000;0.1571;10.7645;
365.7000;0.1563;10.7669;
366.0000;0.1530;10.7524;
366.3000;0.1547;10.7621;
366.6000;0.1563;10.7621;
366.9000;0.1538;10.7596;
367.2000;0.1563;10.7645;
367.5000;0.1547;10.7572;
367.8000;0.1449;10.7307;
368.1000;0.1547;10.7621;
368.4000;0.1563;10.7765;
368.7000;0.1579;10.7741;
369.0000;0.1563;10.7741;
369.3000;0.1555;10.7693;
369.6000;0.1579;10.7741;
369.9000;0.1547;10.7596;
370.2000;0.1555;10.7596;
370.5000;0.1571;10.7669;
370.8000;0.1538;10.7645;
371.1000;0.1547;10.7717;
371.4000;0.1555;10.7717;
371.7000;0.1620;10.7958;
372.0000;0.1555;10.7789;
372.3000;0.1547;10.7741;
372.6000;0.1555;10.7910;
372.9000;0.1571;10.7886;
373.2000;0.1530;10.7789;
373.5000;0.1530;10.7693;
373.8000;0.1595;10.7813;
374.1000;0.1563;10.7669;
374.4000;0.1547;10.7717;
374.7000;0.1547;10.7741;
375.0000;0.1514;10.7693;
375.3000;0.1579;10.7765;
375.6000;0.1481;10.7524;
375.9000;0.1481;10.7524;
376.2000;0.1571;10.7789;
376.5000;0.1547;10.7789;
376.8000;0.1571;10.7717;
377.1000;0.1522;10.7572;
377.4000;0.1571;10.7669;
377.7000;0.1636;10.7862;
378.0000;0.1571;10.7693;
378.3000;0.1555;10.7621;
378.6000;0.1571;10.7621;
378.9000;0.1555;10.7572;
379.2000;0.1538;10.7524;
379.5000;0.1506;10.7500;
379.8000;0.1538;10.7645;
380.1000;0.1571;10.7669;
380.4000;0.1538;10.7596;
380.7000;0.1555;10.7524;
381.0000;0.1563;10.7548;
381.3000;0.1490;10.7331;
381.6000;0.1498;10.7355;
381.9000;0.1514;10.7379;
382.2000;0.1547;10.7476;
382.5000;0.1571;10.7548;
382.8000;0.1579;10.7548;
383.1000;0.1555;10.7428;
383.4000;0.1555;10.7452;
383.7000;0.1563;10.7524;
384.0000;0.1563;10.7500;
384.3000;0.1547;10.7524;
384.6000;0.1522;10.7476;
384.9000;0.1547;10.7524;
385.2000;0.1555;10.7548;
385.5000;0.1555;10.7596;
385.8000;0.1555;10.7693;
386.1000;0.1538;10.7693;
386.4000;0.1555;10.7717;
386.7000;0.1538;10.7596;
387.0000;0.1547;10.7669;
387.3000;0.1547;10.7645;
387.6000;0.1563;10.7645;
387.9000;0.1571;10.7765;
388.2000;0.1555;10.7741;
388.5000;0.1555;10.7669;
388.8000;0.1465;10.7476;
389.1000;0.1579;10.7717;
389.4000;0.1547;10.7645;
389.7000;0.1547;10.7693;
390.0000;0.1587;10.7813;
390.3000;0.1555;10.7693;
390.6000;0.1563;10.7741;
390.9000;0.1571;10.7813;
391.2000;0.1530;10.7838;
391.5000;0.1563;10.7886;
391.8000;0.1522;10.7717;
392.1000;0.1538;10.7717;
392.4000;0.1538;10.7621;
392.7000;0.1538;10.7693;
393.0000;0.1555;10.7741;
393.3000;0.1579;10.7717;
393.6000;0.1547;10.7669;
393.9000;0.1530;10.7693;
394.2000;0.1555;10.7717;
394.5000;0.1555;10.7741;
394.8000;0.1538;10.7693;
395.1000;0.1433;10.7476;
395.4000;0.1547;10.7862;
395.7000;0.1530;10.7910;
396.0000;0.1563;10.7934;
396.3000;0.1555;10.7838;
396.6000;0.1547;10.7862;
396.9000;0.1506;10.7693;
397.2000;0.1555;10.7717;
397.5000;0.1416;10.7283;
397.8000;0.1612;10.7862;
398.1000;0.1547;10.7669;
398.4000;0.1555;10.7717;
398.7000;0.1522;10.7572;
399.0000;0.1547;10.7669;
399.3000;0.1547;10.7717;
399.6000;0.1628;10.7886;
399.9000;0.1547;10.7693;
400.2000;0.1547;10.7596;
400.5000;0.1555;10.7596;
400.8000;0.1538;10.7572;
401.1000;0.1571;10.7693;
401.4000;0.1555;10.7693;
401.7000;0.1547;10.7645;
402.0000;0.1555;10.7645;
402.3000;0.1538;10.7548;
402.6000;0.1514;10.7428;
402.9000;0.1555;10.7524;
403.2000;0.1563;10.7452;
403.5000;0.1547;10.7452;
403.8000;0.1563;10.7524;
404.1000;0.1563;10.7500;
404.4000;0.1547;10.7524;
404.7000;0.1547;10.7548;
405.0000;0.1563;10.7717;
405.3000;0.1555;10.7741;
405.6000;0.1555;10.7717;
405.9000;0.1555;10.7765;
406.2000;0.1538;10.7765;
406.5000;0.1522;10.7813;
406.8000;0.1538;10.7886;
407.1000;0.1547;10.7838;
407.4000;0.1547;10.7765;
407.7000;0.1563;10.7862;
408.0000;0.1547;10.7765;
408.3000;0.1563;10.7789;
408.6000;0.1538;10.7717;
408.9000;0.1547;10.7669;
409.2000;0.1555;10.7717;
409.5000;0.1555;10.7669;
409.8000;0.1547;10.7621;
410.1000;0.1547;10.7548;
410.4000;0.1547;10.7548;
410.7000;0.1571;10.7621;
411.0000;0.1555;10.7524;
411.3000;0.1547;10.7596;
411.6000;0.1563;10.7741;
411.9000;0.1547;10.7645;
412.2000;0.1555;10.7717;
412.5000;0.1538;10.7717;
412.8000;0.1514;10.7621;
413.1000;0.1555;10.7717;
413.4000;0.1563;10.7717;
413.7000;0.1595;10.7813;
414.0000;0.1473;10.7428;
414.3000;0.1555;10.7596;
414.6000;0.1530;10.7524;
414.9000;0.1538;10.7548;
415.2000;0.1538;10.7669;
415.5000;0.1555;10.7741;
415.8000;0.1571;10.7741;
416.1000;0.1547;10.7717;
416.4000;0.1522;10.7572;
416.7000;0.1563;10.7596;
417.0000;0.1612;10.7765;
417.3000;0.1555;10.7572;
417.6000;0.1538;10.7596;
417.9000;0.1555;10.7548;
418.2000;0.1555;10.7548;
418.5000;0.1579;10.7572;
418.8000;0.1547;10.7524;
419.1000;0.1547;10.7500;
419.4000;0.1677;10.7886;
419.7000;0.1563;10.7572;
420.0000;0.1555;10.7548;
420.3000;0.1547;10.7596;
420.6000;0.1490;10.7452;
420.9000;0.1571;10.7741;
421.2000;0.1555;10.7765;
421.5000;0.1530;10.7765;
421.8000;0.1555;10.7789;
422.1000;0.1555;10.7862;
422.4000;0.1530;10.7717;
422.7000;0.1612;10.7958;
423.0000;0.1547;10.7669;
423.3000;0.1563;10.7621;
423.6000;0.1579;10.7741;
423.9000;0.1563;10.7717;
424.2000;0.1563;10.7789;
424.5000;0.1547;10.7838;
424.8000;0.1547;10.7838;
425.1000;0.1538;10.7838;
425.4000;0.1530;10.7789;
425.7000;0.1530;10.7765;
426.0000;0.1538;10.7789;
426.3000;0.1441;10.7524;
426.6000;0.1547;10.7741;
426.9000;0.1481;10.7572;
427.2000;0.1547;10.7765;
427.5000;0.1530;10.7741;
427.8000;0.1530;10.7645;
428.1000;0.1555;10.7669;
428.4000;0.1571;10.7645;
428.7000;0.1587;10.7693;
429.0000;0.1547;10.7548;
429.3000;0.1547;10.7524;
429.6000;0.1612;10.7621;
429.9000;0.1555;10.7572;
430.2000;0.1441;10.7331;
430.5000;0.1555;10.7765;
430.8000;0.1563;10.7741;
431.1000;0.1490;10.7645;
431.4000;0.1563;10.7862;
431.7000;0.1555;10.7765;
432.0000;0.1530;10.7717;
432.3000;0.1547;10.7741;
432.6000;0.1571;10.7693;
432.9000;0.1555;10.7741;
433.2000;0.1538;10.7621;
433.5000;0.1555;10.7717;
433.8000;0.1530;10.7693;
434.1000;0.1555;10.7813;
434.4000;0.1547;10.7765;
434.7000;0.1555;10.7789;
435.0000;0.1555;10.7862;
435.3000;0.1538;10.7813;
435.6000;0.1555;10.7693;
435.9000;0.1547;10.7669;
436.2000;0.1547;10.7741;
436.5000;0.1547;10.7669;
436.8000;0.1547;10.7717;
437.1000;0.1481;10.7524;
437.4000;0.1547;10.7621;
437.7000;0.1547;10.7596;
438.0000;0.1538;10.7669;
438.3000;0.1514;10.7621;
438.6000;0.1555;10.7645;
438.9000;0.1571;10.7645;
439.2000;0.1555;10.7669;
439.5000;0.1555;10.7669;
439.8000;0.1555;10.7693;
440.1000;0.1555;10.7741;
440.4000;0.1555;10.7789;
440.7000;0.1555;10.7813;
441.0000;0.1555;10.7765;
441.3000;0.1563;10.7741;
441.6000;0.1538;10.7741;
441.9000;0.1538;10.7741;
442.2000;0.1555;10.7765;
442.5000;0.1571;10.7886;
442.8000;0.1514;10.7717;
443.1000;0.1547;10.7765;
443.4000;0.1538;10.7765;
443.7000;0.1555;10.7789;
444.0000;0.1555;10.7789;
444.3000;0.1555;10.7765;
444.6000;0.1547;10.7838;
444.9000;0.1555;10.7934;
445.2000;0.1555;10.7910;
445.5000;0.1514;10.7741;
445.8000;0.1555;10.7789;
446.1000;0.1538;10.7813;
446.4000;0.1571;10.7910;
446.7000;0.1547;10.7862;
447.0000;0.1571;10.7862;
447.3000;0.1506;10.7765;
447.6000;0.1555;10.7862;
447.9000;0.1538;10.7813;
448.2000;0.1506;10.7765;
448.5000;0.1547;10.7886;
448.8000;0.1555;10.7910;
449.1000;0.1555;10.7910;
449.4000;0.1514;10.7789;
449.7000;0.1547;10.7958;
450.0000;0.1555;10.7934;
450.3000;0.1498;10.7717;
450.6000;0.1547;10.7765;
450.9000;0.1547;10.7789;
451.2000;0.1604;10.7982;
451.5000;0.1604;10.8006;
451.8000;0.1538;10.7813;
452.1000;0.1538;10.7765;
452.4000;0.1538;10.7765;
452.7000;0.1538;10.7741;
453.0000;0.1530;10.7717;
453.3000;0.1522;10.7669;
453.6000;0.1498;10.7693;
453.9000;0.1555;10.7838;
454.2000;0.1538;10.7862;
454.5000;0.1595;10.7934;
454.8000;0.1563;10.7862;
455.1000;0.1538;10.7862;
455.4000;0.1571;10.7886;
455.7000;0.1563;10.7982;
456.0000;0.1547;10.7910;
456.3000;0.1555;10.7910;
456.6000;0.1530;10.7813;
456.9000;0.1538;10.7813;
457.2000;0.1555;10.7717;
457.5000;0.1538;10.7717;
457.8000;0.1538;10.7765;
458.1000;0.1522;10.7741;
458.4000;0.1530;10.7789;
458.7000;0.1530;10.7741;
459.0000;0.1555;10.7862;
459.3000;0.1563;10.7813;
459.6000;0.1563;10.7741;
459.9000;0.1547;10.7669;
460.2000;0.1555;10.7645;
460.5000;0.1547;10.7669;
460.8000;0.1498;10.7548;
461.1000;0.1563;10.7789;
461.4000;0.1547;10.7838;
461.7000;0.1571;10.7862;
462.0000;0.1620;10.7958;
462.3000;0.1538;10.7789;
462.6000;0.1547;10.7813;
462.9000;0.1563;10.7862;
463.2000;0.1538;10.7813;
463.5000;0.1628;10.8079;
463.8000;0.1522;10.7838;
464.1000;0.1530;10.7886;
464.4000;0.1538;10.7862;
464.7000;0.1538;10.7886;
465.0000;0.1530;10.7862;
465.3000;0.1538;10.7886;
465.6000;0.1538;10.7765;
465.9000;0.1555;10.7862;
466.2000;0.1506;10.7765;
466.5000;0.1538;10.7862;
466.8000;0.1555;10.7838;
467.1000;0.1538;10.7789;
467.4000;0.1628;10.8079;
467.7000;0.1514;10.7693;
468.0000;0.1538;10.7789;
468.3000;0.1555;10.7813;
468.6000;0.1547;10.7813;
468.9000;0.1522;10.7789;
469.2000;0.1555;10.7910;
469.5000;0.1555;10.7934;
469.8000;0.1498;10.7717;
470.1000;0.1571;10.7838;
470.4000;0.1555;10.7789;
470.7000;0.1522;10.7765;
471.0000;0.1547;10.7838;
471.3000;0.1522;10.7838;
471.6000;0.1538;10.7958;
471.9000;0.1563;10.8055;
472.2000;0.1612;10.8199;
472.5000;0.1530;10.7958;
472.8000;0.1538;10.7886;
473.1000;0.1555;10.7910;
473.4000;0.1498;10.7813;
473.7000;0.1555;10.7982;
474.0000;0.1563;10.7934;
474.3000;0.1571;10.7982;
474.6000;0.1628;10.8127;
474.9000;0.1563;10.7934;
475.2000;0.1530;10.7886;
475.5000;0.1547;10.7886;
475.8000;0.1579;10.7982;
476.1000;0.1538;10.7862;
476.4000;0.1522;10.7693;
476.7000;0.1506;10.7596;
477.0000;0.1563;10.7717;
477.3000;0.1530;10.7717;
477.6000;0.1547;10.7765;
477.9000;0.1587;10.7862;
478.2000;0.1538;10.7838;
478.5000;0.1514;10.7717;
478.8000;0.1538;10.7765;
479.1000;0.1514;10.7669;
479.4000;0.1538;10.7741;
479.7000;0.1555;10.7838;
480.0000;0.1555;10.7789;
480.3000;0.1530;10.7741;
480.6000;0.1530;10.7789;
480.9000;0.1547;10.7813;
481.2000;0.1514;10.7765;
481.5000;0.1538;10.7765;
481.8000;0.1555;10.7838;
482.1000;0.1498;10.7621;
482.4000;0.1538;10.7741;
482.7000;0.1538;10.7693;
483.0000;0.1530;10.7669;
483.3000;0.1506;10.7621;
483.6000;0.1498;10.7596;
483.9000;0.1563;10.7741;
484.2000;0.1644;10.7910;
484.5000;0.1555;10.7693;
484.8000;0.1498;10.7548;
485.1000;0.1522;10.7596;
485.4000;0.1547;10.7717;
485.7000;0.1547;10.7717;
486.0000;0.1563;10.7717;
486.3000;0.1522;10.7693;
486.6000;0.1538;10.7717;
486.9000;0.1490;10.7476;
487.2000;0.1571;10.7645;
487.5000;0.1538;10.7596;
487.8000;0.1563;10.7741;
488.1000;0.1555;10.7717;
488.4000;0.1547;10.7693;
488.7000;0.1563;10.7910;
489.0000;0.1604;10.7910;
489.3000;0.1547;10.7741;
489.6000;0.1530;10.7717;
489.9000;0.1530;10.7669;
490.2000;0.1547;10.7693;
490.5000;0.1563;10.7717;
490.8000;0.1563;10.7789;
491.1000;0.1563;10.7741;
491.4000;0.1563;10.7669;
491.7000;0.1547;10.7621;
492.0000;0.1530;10.7596;
492.3000;0.1538;10.7645;
492.6000;0.1547;10.7669;
492.9000;0.1530;10.7621;
493.2000;0.1530;10.7572;
493.5000;0.1547;10.7572;
493.8000;0.1579;10.7693;
494.1000;0.1571;10.7596;
494.4000;0.1547;10.7596;
494.7000;0.1555;10.7548;
495.0000;0.1547;10.7476;
495.3000;0.1555;10.7476;
495.6000;0.1563;10.7500;
495.9000;0.1538;10.7524;
496.2000;0.1547;10.7476;
496.5000;0.1547;10.7548;
496.8000;0.1530;10.7500;
497.1000;0.1522;10.7500;
497.4000;0.1555;10.7572;
497.7000;0.1538;10.7500;
498.0000;0.1530;10.7500;
498.3000;0.1538;10.7524;
498.6000;0.1555;10.7596;
498.9000;0.1530;10.7572;
499.2000;0.1563;10.7621;
499.5000;0.1547;10.7524;
499.8000;0.1530;10.7524;
500.1000;0.1490;10.7403;
500.4000;0.1555;10.7572;
500.7000;0.1530;10.7572;
501.0000;0.1555;10.7572;
501.3000;0.1530;10.7548;
501.6000;0.1547;10.7645;
501.9000;0.1547;10.7717;
502.2000;0.1555;10.7669;
502.5000;0.1555;10.7669;
502.8000;0.1547;10.7621;
503.1000;0.1563;10.7621;
503.4000;0.1538;10.7596;
503.7000;0.1547;10.7693;
504.0000;0.1530;10.7645;
504.3000;0.1547;10.7693;
504.6000;0.1530;10.7645;
504.9000;0.1563;10.7717;
505.2000;0.1530;10.7717;
505.5000;0.1547;10.7741;
505.8000;0.1547;10.7693;
506.1000;0.1547;10.7693;
506.4000;0.1563;10.7717;
506.7000;0.1571;10.7669;
507.0000;0.1563;10.7596;
507.3000;0.1547;10.7596;
507.6000;0.1595;10.7813;
507.9000;0.1563;10.7717;
508.2000;0.1522;10.7596;
508.5000;0.1530;10.7500;
508.8000;0.1522;10.7403;
509.1000;0.1587;10.7524;
509.4000;0.1563;10.7428;
509.7000;0.1530;10.7428;
510.0000;0.1547;10.7452;
510.3000;0.1530;10.7452;
510.6000;0.1612;10.7621;
510.9000;0.1538;10.7500;
511.2000;0.1563;10.7596;
511.5000;0.1612;10.7717;
511.8000;0.1563;10.7621;
512.1000;0.1547;10.7596;
512.4000;0.1579;10.7693;
512.7000;0.1563;10.7717;
513.0000;0.1538;10.7741;
513.3000;0.1530;10.7669;
513.6000;0.1449;10.7476;
513.9000;0.1547;10.7741;
514.2000;0.1555;10.7741;
514.5000;0.1530;10.7717;
514.8000;0.1530;10.7717;
515.1000;0.1538;10.7717;
515.4000;0.1547;10.7717;
515.7000;0.1555;10.7621;
516.0000;0.1563;10.7596;
516.3000;0.1547;10.7621;
516.6000;0.1563;10.7669;
516.9000;0.1563;10.7645;
517.2000;0.1571;10.7621;
517.5000;0.1563;10.7548;
517.8000;0.1571;10.7621;
518.1000;0.1555;10.7572;
518.4000;0.1547;10.7548;
518.7000;0.1547;10.7524;
519.0000;0.1522;10.7500;
519.3000;0.1555;10.7572;
519.6000;0.1555;10.7548;
519.9000;0.1530;10.7524;
520.2000;0.1555;10.7621;
520.5000;0.1555;10.7669;
520.8000;0.1555;10.7669;
521.1000;0.1563;10.7693;
521.4000;0.1538;10.7669;
521.7000;0.1498;10.7572;
522.0000;0.1522;10.7621;
522.3000;0.1555;10.7693;
522.6000;0.1547;10.7693;
522.9000;0.1563;10.7693;
523.2000;0.1563;10.7645;
523.5000;0.1628;10.7765;
523.8000;0.1547;10.7572;
524.1000;0.1547;10.7596;
524.4000;0.1530;10.7428;
524.7000;0.1530;10.7307;
525.0000;0.1571;10.7428;
525.3000;0.1547;10.7524;
525.6000;0.1595;10.7693;
525.9000;0.1571;10.7572;
526.2000;0.1506;10.7428;
526.5000;0.1522;10.7500;
526.8000;0.1563;10.7572;
527.1000;0.1530;10.7428;
527.4000;0.1538;10.7548;
527.7000;0.1530;10.7524;
528.0000;0.1538;10.7572;
528.3000;0.1547;10.7621;
528.6000;0.1547;10.7621;
528.9000;0.1538;10.7669;
529.2000;0.1547;10.7669;
529.5000;0.1571;10.7693;
529.8000;0.1538;10.7596;
530.1000;0.1547;10.7645;
530.4000;0.1547;10.7717;
530.7000;0.1530;10.7765;
531.0000;0.1547;10.7741;
531.3000;0.1530;10.7693;
531.6000;0.1498;10.7548;
531.9000;0.1547;10.7693;
532.2000;0.1563;10.7741;
532.5000;0.1555;10.7765;
532.8000;0.1473;10.7596;
533.1000;0.1538;10.7669;
533.4000;0.1563;10.7789;
533.7000;0.1547;10.7741;
534.0000;0.1563;10.7886;
534.3000;0.1547;10.7862;
534.6000;0.1555;10.7910;
534.9000;0.1563;10.7910;
535.2000;0.1522;10.7765;
535.5000;0.1563;10.7862;
535.8000;0.1563;10.7862;
536.1000;0.1571;10.7862;
536.4000;0.1563;10.7886;
536.7000;0.1563;10.7862;
537.0000;0.1563;10.7813;
537.3000;0.1555;10.7765;
537.6000;0.1563;10.7741;
537.9000;0.1547;10.7645;
538.2000;0.1563;10.7717;
538.5000;0.1555;10.7789;
538.8000;0.1555;10.7789;
539.1000;0.1547;10.7813;
539.4000;0.1595;10.7838;
539.7000;0.1555;10.7765;
540.0000;0.1547;10.7669;
540.3000;0.1538;10.7645;
540.6000;0.1555;10.7717;
540.9000;0.1538;10.7669;
541.2000;0.1555;10.7572;
541.5000;0.1547;10.7669;
541.8000;0.1563;10.7717;
542.1000;0.1563;10.7741;
542.4000;0.1522;10.7645;
542.7000;0.1555;10.7693;
543.0000;0.1538;10.7572;
543.3000;0.1547;10.7596;
543.6000;0.1538;10.7621;
543.9000;0.1547;10.7548;
544.2000;0.1530;10.7548;
544.5000;0.1595;10.7717;
544.8000;0.1555;10.7645;
545.1000;0.1538;10.7669;
545.4000;0.1547;10.7693;
545.7000;0.1547;10.7669;
546.0000;0.1530;10.7596;
546.3000;0.1555;10.7669;
546.6000;0.1571;10.7717;
546.9000;0.1538;10.7621;
547.2000;0.1563;10.7717;
547.5000;0.1481;10.7403;
547.8000;0.1555;10.7621;
548.1000;0.1563;10.7548;
548.4000;0.1555;10.7524;
548.7000;0.1522;10.7428;
549.0000;0.1579;10.7669;
549.3000;0.1538;10.7524;
549.6000;0.1547;10.7572;
549.9000;0.1595;10.7693;
550.2000;0.1563;10.7572;
550.5000;0.1522;10.7596;
550.8000;0.1547;10.7669;
551.1000;0.1555;10.7669;
551.4000;0.1547;10.7693;
551.7000;0.1538;10.7621;
552.0000;0.1563;10.7645;
552.3000;0.1547;10.7621;
552.6000;0.1571;10.7669;
552.9000;0.1490;10.7524;
553.2000;0.1547;10.7693;
553.5000;0.1555;10.7693;
553.8000;0.1571;10.7596;
554.1000;0.1538;10.7500;
554.4000;0.1555;10.7524;
554.7000;0.1563;10.7596;
555.0000;0.1620;10.7813;
555.3000;0.1547;10.7645;
555.6000;0.1530;10.7596;
555.9000;0.1498;10.7500;
556.2000;0.1563;10.7645;
556.5000;0.1530;10.7572;
556.8000;0.1522;10.7645;
557.1000;0.1514;10.7596;
557.4000;0.1547;10.7669;
557.7000;0.1547;10.7645;
558.0000;0.1563;10.7717;
558.3000;0.1465;10.7476;
558.6000;0.1547;10.7717;
558.9000;0.1547;10.7741;
559.2000;0.1555;10.7717;
559.5000;0.1628;10.7886;
559.8000;0.1538;10.7717;
560.1000;0.1563;10.7765;
560.4000;0.1465;10.7548;
560.7000;0.1547;10.7669;
561.0000;0.1538;10.7596;
561.3000;0.1498;10.7500;
561.6000;0.1530;10.7693;
561.9000;0.1579;10.7789;
562.2000;0.1490;10.7548;
562.5000;0.1530;10.7669;
562.8000;0.1538;10.7765;
563.1000;0.1620;10.8006;
563.4000;0.1563;10.7765;
563.7000;0.1530;10.7596;
564.0000;0.1563;10.7741;
564.3000;0.1547;10.7693;
564.6000;0.1547;10.7741;
564.9000;0.1563;10.7765;
565.2000;0.1563;10.7838;
565.5000;0.1538;10.7765;
565.8000;0.1547;10.7765;
566.1000;0.1498;10.7741;
566.4000;0.1555;10.7813;
566.7000;0.1563;10.7789;
567.0000;0.1555;10.7741;
567.3000;0.1538;10.7669;
567.6000;0.1530;10.7596;
567.9000;0.1555;10.7669;
568.2000;0.1563;10.7741;
568.5000;0.1555;10.7621;
568.8000;0.1571;10.7693;
569.1000;0.1522;10.7572;
569.4000;0.1538;10.7669;
569.7000;0.1547;10.7621;
570.0000;0.1579;10.7693;
570.3000;0.1563;10.7669;
570.6000;0.1571;10.7645;
570.9000;0.1547;10.7669;
571.2000;0.1555;10.7693;
571.5000;0.1530;10.7645;
571.8000;0.1538;10.7741;
572.1000;0.1538;10.7645;
572.4000;0.1547;10.7717;
572.7000;0.1538;10.7669;
573.0000;0.1579;10.7669;
573.3000;0.1547;10.7717;
573.6000;0.1538;10.7717;
573.9000;0.1555;10.7765;
574.2000;0.1579;10.7862;
574.5000;0.1563;10.7813;
574.8000;0.1538;10.7693;
575.1000;0.1547;10.7669;
575.4000;0.1538;10.7645;
575.7000;0.1530;10.7572;
576.0000;0.1547;10.7596;
576.3000;0.1555;10.7621;
576.6000;0.1547;10.7524;
576.9000;0.1579;10.7669;
577.2000;0.1538;10.7621;
577.5000;0.1547;10.7693;
577.8000;0.1547;10.7741;
578.1000;0.1563;10.7717;
578.4000;0.1555;10.7765;
578.7000;0.1547;10.7693;
579.0000;0.1555;10.7693;
579.3000;0.1555;10.7765;
579.6000;0.1498;10.7669;
579.9000;0.1555;10.7838;
580.2000;0.1563;10.7813;
580.5000;0.1530;10.7789;
580.8000;0.1538;10.7765;
581.1000;0.1547;10.7765;
581.4000;0.1563;10.7838;
581.7000;0.1563;10.7838;
582.0000;0.1547;10.7789;
582.3000;0.1563;10.7838;
582.6000;0.1555;10.7789;
582.9000;0.1538;10.7717;
583.2000;0.1563;10.7741;
583.5000;0.1547;10.7645;
583.8000;0.1538;10.7693;
584.1000;0.1547;10.7717;
584.4000;0.1538;10.7765;
584.7000;0.1538;10.7717;
585.0000;0.1547;10.7765;
585.3000;0.1547;10.7765;
585.6000;0.1563;10.7838;
585.9000;0.1563;10.7789;
586.2000;0.1636;10.8031;
586.5000;0.1547;10.7765;
586.8000;0.1522;10.7645;
587.1000;0.1547;10.7645;
587.4000;0.1547;10.7669;
587.7000;0.1530;10.7645;
588.0000;0.1538;10.7693;
588.3000;0.1547;10.7693;
588.6000;0.1547;10.7645;
588.9000;0.1555;10.7645;
589.2000;0.1628;10.7765;
589.5000;0.1538;10.7621;
589.8000;0.1563;10.7717;
590.1000;0.1530;10.7645;
590.4000;0.1530;10.7596;
590.7000;0.1547;10.7621;
591.0000;0.1538;10.7693;
591.3000;0.1547;10.7765;
591.6000;0.1530;10.7741;
591.9000;0.1555;10.7789;
592.2000;0.1555;10.7813;
592.5000;0.1547;10.7741;
592.8000;0.1587;10.7789;
593.1000;0.1547;10.7621;
593.4000;0.1547;10.7621;
593.7000;0.1571;10.7789;
594.0000;0.1563;10.7813;
594.3000;0.1538;10.7741;
594.6000;0.1563;10.7765;
594.9000;0.1595;10.7838;
595.2000;0.1522;10.7741;
595.5000;0.1547;10.7813;
595.8000;0.1530;10.7717;
596.1000;0.1530;10.7669;
596.4000;0.1538;10.7717;
596.7000;0.1538;10.7693;
597.0000;0.1538;10.7645;
597.3000;0.1571;10.7717;
597.6000;0.1563;10.7621;
597.9000;0.1530;10.7645;
598.2000;0.1555;10.7693;
598.5000;0.1538;10.7621;
598.8000;0.1547;10.7596;
599.1000;0.1465;10.7307;
599.4000;0.1538;10.7500;
599.7000;0.1555;10.7548;
600.0000;0.1563;10.7572;
600.3000;0.1538;10.7452;
600.6000;0.1547;10.7403;
600.9000;0.1490;10.7186;
601.2000;0.1555;10.7259;
601.5000;0.1514;10.7066;
601.8000;0.1490;10.6825;
602.1000;0.1514;10.6728;
602.4000;0.1555;10.6800;
602.7000;0.1473;10.6487;
603.0000;0.1481;10.6342;
603.3000;0.1408;10.6005;
603.6000;0.1473;10.6101;
603.9000;0.1498;10.6005;
604.2000;0.1465;10.5884;
604.5000;0.1481;10.5908;
604.8000;0.1465;10.5787;
605.1000;0.1465;10.5763;
605.4000;0.1481;10.5787;
605.7000;0.1433;10.5619;
606.0000;0.1490;10.5691;
606.3000;0.1457;10.5474;
606.6000;0.1392;10.5305;
606.9000;0.1408;10.5329;
607.2000;0.1425;10.5353;
607.5000;0.1433;10.5353;
607.8000;0.1449;10.5353;
608.1000;0.1433;10.5281;
608.4000;0.1514;10.5594;
608.7000;0.1449;10.5402;
609.0000;0.1433;10.5450;
609.3000;0.1522;10.5715;
609.6000;0.1506;10.5643;
609.9000;0.1449;10.5594;
610.2000;0.1449;10.5619;
610.5000;0.1433;10.5546;
610.8000;0.1416;10.5570;
611.1000;0.1384;10.5450;
611.4000;0.1425;10.5522;
611.7000;0.1425;10.5498;
612.0000;0.1408;10.5474;
612.3000;0.1425;10.5474;
612.6000;0.1425;10.5402;
612.9000;0.1441;10.5377;
613.2000;0.1408;10.5305;
613.5000;0.1433;10.5377;
613.8000;0.1416;10.5281;
614.1000;0.1433;10.5257;
614.4000;0.1441;10.5305;
614.7000;0.1425;10.5402;
615.0000;0.1433;10.5402;
615.3000;0.1408;10.5402;
615.6000;0.1449;10.5570;
615.9000;0.1335;10.5209;
616.2000;0.1449;10.5546;
616.5000;0.1416;10.5402;
616.8000;0.1368;10.5257;
617.1000;0.1416;10.5450;
617.4000;0.1465;10.5619;
617.7000;0.1449;10.5546;
618.0000;0.1425;10.5426;
618.3000;0.1441;10.5522;
618.6000;0.1376;10.5257;
618.9000;0.1465;10.5426;
619.2000;0.1433;10.5305;
619.5000;0.1449;10.5426;
619.8000;0.1425;10.5426;
620.1000;0.1473;10.5522;
620.4000;0.1425;10.5353;
620.7000;0.1433;10.5281;
621.0000;0.1408;10.5257;
621.3000;0.1408;10.5305;
621.6000;0.1408;10.5305;
621.9000;0.1433;10.5353;
622.2000;0.1416;10.5184;
622.5000;0.1408;10.5233;
622.8000;0.1433;10.5257;
623.1000;0.1400;10.5209;
623.4000;0.1441;10.5257;
623.7000;0.1433;10.5233;
624.0000;0.1457;10.5281;
624.3000;0.1465;10.5233;
624.6000;0.1457;10.5064;
624.9000;0.1416;10.5016;
625.2000;0.1400;10.4967;
625.5000;0.1425;10.5112;
625.8000;0.1376;10.4991;
626.1000;0.1408;10.5088;
626.4000;0.1408;10.5064;
626.7000;0.1433;10.5209;
627.0000;0.1425;10.5136;
627.3000;0.1416;10.5112;
627.6000;0.1408;10.5160;
627.9000;0.1392;10.5209;
628.2000;0.1416;10.5329;
628.5000;0.1449;10.5474;
628.8000;0.1441;10.5402;
629.1000;0.1416;10.5329;
629.4000;0.1441;10.5353;
629.7000;0.1457;10.5377;
630.0000;0.1441;10.5257;
630.3000;0.1416;10.5305;
630.6000;0.1408;10.5305;
630.9000;0.1416;10.5305;
631.2000;0.1416;10.5257;
631.5000;0.1416;10.5257;
631.8000;0.1425;10.5233;
632.1000;0.1408;10.5088;
632.4000;0.1416;10.5112;
632.7000;0.1400;10.5040;
633.0000;0.1465;10.5233;
633.3000;0.1408;10.5088;
633.6000;0.1416;10.5040;
633.9000;0.1433;10.5064;
634.2000;0.1425;10.5112;
634.5000;0.1490;10.5281;
634.8000;0.1416;10.5209;
635.1000;0.1408;10.5209;
635.4000;0.1416;10.5160;
635.7000;0.1416;10.5088;
636.0000;0.1433;10.5160;
636.3000;0.1416;10.5112;
636.6000;0.1433;10.5160;
636.9000;0.1457;10.5305;
637.2000;0.1416;10.5160;
637.5000;0.1433;10.5184;
637.8000;0.1425;10.5233;
638.1000;0.1392;10.5136;
638.4000;0.1441;10.5209;
638.7000;0.1408;10.5184;
639.0000;0.1465;10.5160;
639.3000;0.1433;10.5088;
639.6000;0.1425;10.5064;
639.9000;0.1465;10.5257;
640.2000;0.1408;10.5160;
640.5000;0.1425;10.5257;
640.8000;0.1416;10.5112;
641.1000;0.1425;10.5160;
641.4000;0.1449;10.5233;
641.7000;0.1408;10.5088;
642.0000;0.1416;10.5088;
642.3000;0.1408;10.5136;
642.6000;0.1425;10.5160;
642.9000;0.1384;10.4967;
643.2000;0.1433;10.5112;
643.5000;0.1416;10.5064;
643.8000;0.1441;10.5233;
644.1000;0.1425;10.5233;
644.4000;0.1449;10.5281;
644.7000;0.1433;10.5329;
645.0000;0.1433;10.5281;
645.3000;0.1433;10.5257;
645.6000;0.1457;10.5305;
645.9000;0.1465;10.5305;
646.2000;0.1416;10.5233;
646.5000;0.1457;10.5353;
646.8000;0.1433;10.5377;
647.1000;0.1416;10.5353;
647.4000;0.1425;10.5257;
647.7000;0.1465;10.5281;
648.0000;0.1425;10.5088;
648.3000;0.1408;10.5016;
648.6000;0.1392;10.4991;
648.9000;0.1416;10.5064;
649.2000;0.1408;10.5136;
649.5000;0.1416;10.5088;
649.8000;0.1416;10.5112;
650.1000;0.1416;10.5088;
650.4000;0.1416;10.5112;
650.7000;0.1408;10.5184;
651.0000;0.1433;10.5184;
651.3000;0.1425;10.5160;
651.6000;0.1441;10.5184;
651.9000;0.1425;10.5112;
652.2000;0.1392;10.4919;
652.5000;0.1457;10.5136;
652.8000;0.1441;10.5136;
653.1000;0.1433;10.5136;
653.4000;0.1441;10.5136;
653.7000;0.1425;10.5136;
654.0000;0.1433;10.5088;
654.3000;0.1433;10.5160;
654.6000;0.1449;10.5209;
654.9000;0.1457;10.5160;
655.2000;0.1392;10.5064;
655.5000;0.1376;10.5016;
655.8000;0.1425;10.5136;
656.1000;0.1416;10.5184;
656.4000;0.1465;10.5281;
656.7000;0.1425;10.5136;
657.0000;0.1408;10.5112;
657.3000;0.1425;10.5064;
657.6000;0.1433;10.5160;
657.9000;0.1408;10.5064;
658.2000;0.1416;10.5040;
658.5000;0.1481;10.5184;
658.8000;0.1425;10.5064;
659.1000;0.1425;10.5160;
659.4000;0.1416;10.5209;
659.7000;0.1408;10.5257;
660.0000;0.1416;10.5233;
660.3000;0.1392;10.5160;
660.6000;0.1441;10.5257;
660.9000;0.1416;10.5136;
661.2000;0.1490;10.5233;
661.5000;0.1416;10.5088;
661.8000;0.1433;10.5064;
662.1000;0.1433;10.5088;
662.4000;0.1416;10.5136;
662.7000;0.1400;10.5088;
663.0000;0.1425;10.5233;
663.3000;0.1416;10.5329;
663.6000;0.1433;10.5329;
663.9000;0.1433;10.5305;
664.2000;0.1416;10.5209;
664.5000;0.1416;10.5257;
664.8000;0.1433;10.5233;
665.1000;0.1433;10.5184;
665.4000;0.1425;10.5136;
665.7000;0.1449;10.5281;
666.0000;0.1433;10.5136;
666.3000;0.1408;10.5112;
666.6000;0.1368;10.4991;
666.9000;0.1311;10.4895;
667.2000;0.1408;10.5233;
667.5000;0.1425;10.5353;
667.8000;0.1425;10.5281;
668.1000;0.1441;10.5353;
668.4000;0.1408;10.5233;
668.7000;0.1425;10.5329;
669.0000;0.1384;10.5233;
669.3000;0.1449;10.5329;
669.6000;0.1441;10.5305;
669.9000;0.1425;10.5160;
670.2000;0.1433;10.5209;
670.5000;0.1416;10.5112;
670.8000;0.1392;10.5088;
671.1000;0.1425;10.5136;
671.4000;0.1433;10.5112;
671.7000;0.1441;10.5088;
672.0000;0.1408;10.4991;
672.3000;0.1433;10.5040;
672.6000;0.1433;10.4991;
672.9000;0.1490;10.5136;
673.2000;0.1416;10.5088;
673.5000;0.1441;10.5112;
673.8000;0.1425;10.5112;
674.1000;0.1416;10.5112;
674.4000;0.1408;10.5112;
674.7000;0.1425;10.5136;
675.0000;0.1563;10.5450;
675.3000;0.1441;10.5040;
675.6000;0.1433;10.5040;
675.9000;0.1384;10.4919;
676.2000;0.1425;10.5088;
676.5000;0.1416;10.5064;
676.8000;0.1425;10.4967;
677.1000;0.1441;10.5040;
677.4000;0.1425;10.5040;
677.7000;0.1400;10.4967;
678.0000;0.1433;10.5016;
678.3000;0.1425;10.4919;
678.6000;0.1441;10.5016;
678.9000;0.1416;10.5016;
679.2000;0.1425;10.5016;
679.5000;0.1433;10.5088;
679.8000;0.1433;10.5040;
680.1000;0.1425;10.4967;
680.4000;0.1376;10.4823;
680.7000;0.1433;10.5088;
681.0000;0.1416;10.5016;
681.3000;0.1416;10.5064;
681.6000;0.1425;10.5160;
681.9000;0.1457;10.5233;
682.2000;0.1441;10.5184;
682.5000;0.1441;10.5329;
682.8000;0.1425;10.5257;
683.1000;0.1433;10.5209;
683.4000;0.1408;10.5136;
683.7000;0.1425;10.5088;
684.0000;0.1449;10.5088;
684.3000;0.1416;10.4967;
684.6000;0.1408;10.4991;
684.9000;0.1400;10.5016;
685.2000;0.1449;10.5088;
685.5000;0.1416;10.5064;
685.8000;0.1416;10.5016;
686.1000;0.1400;10.4943;
686.4000;0.1425;10.5040;
686.7000;0.1433;10.5040;
687.0000;0.1473;10.5160;
687.3000;0.1433;10.5184;
687.6000;0.1441;10.5257;
687.9000;0.1449;10.5305;
688.2000;0.1425;10.5209;
688.5000;0.1449;10.5184;
688.8000;0.1425;10.5136;
689.1000;0.1384;10.5064;
689.4000;0.1416;10.5184;
689.7000;0.1408;10.5160;
690.0000;0.1425;10.5184;
690.3000;0.1433;10.5257;
690.6000;0.1408;10.5160;
690.9000;0.1465;10.5281;
691.2000;0.1425;10.5233;
691.5000;0.1433;10.5184;
691.8000;0.1449;10.5160;
692.1000;0.1425;10.5160;
692.4000;0.1400;10.5136;
692.7000;0.1416;10.5233;
693.0000;0.1400;10.5184;
693.3000;0.1425;10.5257;
693.6000;0.1416;10.5281;
693.9000;0.1416;10.5353;
694.2000;0.1433;10.5305;
694.5000;0.1408;10.5281;
694.8000;0.1400;10.5281;
695.1000;0.1376;10.5184;
695.4000;0.1416;10.5305;
695.7000;0.1425;10.5353;
696.0000;0.1425;10.5329;
696.3000;0.1481;10.5546;
696.6000;0.1514;10.5739;
696.9000;0.1457;10.5546;
697.2000;0.1416;10.5474;
697.5000;0.1408;10.5450;
697.8000;0.1425;10.5377;
698.1000;0.1416;10.5377;
698.4000;0.1311;10.5112;
698.7000;0.1359;10.5209;
699.0000;0.1416;10.5402;
699.3000;0.1400;10.5329;
699.6000;0.1416;10.5377;
699.9000;0.1425;10.5377;
700.2000;0.1433;10.5353;
700.5000;0.1384;10.5233;
700.8000;0.1425;10.5305;
701.1000;0.1416;10.5257;
701.4000;0.1416;10.5257;
701.7000;0.1425;10.5233;
702.0000;0.1416;10.5209;
702.3000;0.1392;10.5136;
702.6000;0.1416;10.5209;
702.9000;0.1441;10.5305;
703.2000;0.1425;10.5281;
703.5000;0.1416;10.5136;
703.8000;0.1425;10.5136;
704.1000;0.1425;10.5136;
704.4000;0.1465;10.5305;
704.7000;0.1433;10.5233;
705.0000;0.1416;10.5160;
705.3000;0.1433;10.5184;
705.6000;0.1433;10.5184;
705.9000;0.1416;10.5136;
706.2000;0.1425;10.5184;
706.5000;0.1416;10.5088;
706.8000;0.1433;10.5112;
707.1000;0.1433;10.5160;
707.4000;0.1433;10.5136;
707.7000;0.1425;10.5184;
708.0000;0.1416;10.5305;
708.3000;0.1433;10.5353;
708.6000;0.1416;10.5281;
708.9000;0.1465;10.5450;
709.2000;0.1351;10.5184;
709.5000;0.1433;10.5402;
709.8000;0.1425;10.5402;
710.1000;0.1433;10.5305;
710.4000;0.1416;10.5305;
710.7000;0.1416;10.5329;
711.0000;0.1425;10.5474;
711.3000;0.1425;10.5450;
711.6000;0.1441;10.5402;
711.9000;0.1425;10.5450;
712.2000;0.1425;10.5402;
712.5000;0.1433;10.5426;
712.8000;0.1433;10.5450;
713.1000;0.1433;10.5402;
713.4000;0.1457;10.5233;
713.7000;0.1416;10.5184;
714.0000;0.1408;10.5088;
714.3000;0.1441;10.5160;
714.6000;0.1416;10.5040;
714.9000;0.1425;10.5064;
715.2000;0.1408;10.5088;
715.5000;0.1416;10.5112;
715.8000;0.1425;10.5112;
716.1000;0.1400;10.5088;
716.4000;0.1425;10.5088;
716.7000;0.1457;10.5160;
717.0000;0.1425;10.5257;
717.3000;0.1368;10.5040;
717.6000;0.1473;10.5305;
717.9000;0.1416;10.5233;
718.2000;0.1425;10.5233;
718.5000;0.1498;10.5353;
718.8000;0.1408;10.5112;
719.1000;0.1392;10.5088;
719.4000;0.1408;10.5088;
719.7000;0.1400;10.5136;
720.0000;0.1473;10.5329;
720.3000;0.1416;10.5281;
720.6000;0.1384;10.5136;
720.9000;0.1425;10.5305;
721.2000;0.1441;10.5329;
721.5000;0.1425;10.5305;
721.8000;0.1416;10.5281;
722.1000;0.1433;10.5426;
722.4000;0.1547;10.5715;
722.7000;0.1359;10.5233;
723.0000;0.1408;10.5305;
723.3000;0.1425;10.5377;
723.6000;0.1425;10.5281;
723.9000;0.1400;10.5257;
724.2000;0.1425;10.5209;
724.5000;0.1441;10.5281;
724.8000;0.1408;10.5112;
725.1000;0.1416;10.5184;
725.4000;0.1384;10.5064;
725.7000;0.1433;10.5233;
726.0000;0.1425;10.5305;
726.3000;0.1441;10.5281;
726.6000;0.1425;10.5184;
726.9000;0.1425;10.5160;
727.2000;0.1416;10.5112;
727.5000;0.1481;10.5377;
727.8000;0.1425;10.5281;
728.1000;0.1392;10.5136;
728.4000;0.1416;10.5136;
728.7000;0.1425;10.5112;
729.0000;0.1351;10.4967;
729.3000;0.1408;10.5112;
729.6000;0.1400;10.5112;
729.9000;0.1425;10.5136;
730.2000;0.1514;10.5329;
730.5000;0.1392;10.5040;
730.8000;0.1425;10.5112;
731.1000;0.1425;10.5112;
731.4000;0.1441;10.5184;
731.7000;0.1392;10.5064;
732.0000;0.1425;10.5184;
732.3000;0.1408;10.5112;
732.6000;0.1433;10.5112;
732.9000;0.1425;10.5016;
733.2000;0.1343;10.4799;
733.5000;0.1416;10.5040;
733.8000;0.1465;10.5160;
734.1000;0.1425;10.5040;
734.4000;0.1441;10.5136;
734.7000;0.1425;10.5064;
735.0000;0.1425;10.5064;
735.3000;0.1441;10.5136;
735.6000;0.1425;10.5160;
735.9000;0.1408;10.5112;
736.2000;0.1465;10.5281;
736.5000;0.1408;10.5160;
736.8000;0.1408;10.5160;
737.1000;0.1441;10.5209;
737.4000;0.1506;10.5426;
737.7000;0.1433;10.5281;
738.0000;0.1449;10.5305;
738.3000;0.1441;10.5209;
738.6000;0.1376;10.5040;
738.9000;0.1441;10.5184;
739.2000;0.1449;10.5209;
739.5000;0.1433;10.5136;
739.8000;0.1408;10.4991;
740.1000;0.1376;10.4991;
740.4000;0.1425;10.5184;
740.7000;0.1416;10.5160;
741.0000;0.1425;10.5209;
741.3000;0.1425;10.5233;
741.6000;0.1425;10.5184;
741.9000;0.1425;10.5233;
742.2000;0.1400;10.5136;
742.5000;0.1416;10.5112;
742.8000;0.1408;10.4991;
743.1000;0.1465;10.5112;
743.4000;0.1416;10.4967;
743.7000;0.1416;10.4967;
744.0000;0.1433;10.5016;
744.3000;0.1384;10.4991;
744.6000;0.1400;10.5016;
744.9000;0.1416;10.5064;
745.2000;0.1433;10.5136;
745.5000;0.1425;10.5064;
745.8000;0.1400;10.4919;
746.1000;0.1416;10.4919;
746.4000;0.1433;10.5088;
746.7000;0.1425;10.5112;
747.0000;0.1416;10.5040;
747.3000;0.1433;10.5112;
747.6000;0.1449;10.5184;
747.9000;0.1457;10.5209;
748.2000;0.1449;10.5160;
748.5000;0.1319;10.4847;
748.8000;0.1416;10.5112;
749.1000;0.1441;10.5136;
749.4000;0.1449;10.5233;
749.7000;0.1441;10.5112;
750.0000;0.1449;10.4967;
750.3000;0.1441;10.4895;
750.6000;0.1449;10.4991;
750.9000;0.1408;10.4919;
751.2000;0.1433;10.4895;
751.5000;0.1416;10.4991;
751.8000;0.1441;10.5064;
752.1000;0.1400;10.5040;
752.4000;0.1433;10.5136;
752.7000;0.1400;10.5040;
753.0000;0.1449;10.5184;
753.3000;0.1433;10.5209;
753.6000;0.1425;10.5136;
753.9000;0.1441;10.5160;
754.2000;0.1449;10.5257;
754.5000;0.1384;10.5136;
754.8000;0.1368;10.5040;
755.1000;0.1416;10.5136;
755.4000;0.1433;10.5112;
755.7000;0.1408;10.5040;
756.0000;0.1408;10.4991;
756.3000;0.1376;10.4943;
756.6000;0.1538;10.5329;
756.9000;0.1425;10.5016;
757.2000;0.1416;10.5016;
757.5000;0.1392;10.4991;
757.8000;0.1465;10.5184;
758.1000;0.1441;10.5160;
758.4000;0.1408;10.5064;
758.7000;0.1392;10.5088;
759.0000;0.1416;10.5160;
759.3000;0.1433;10.5209;
759.6000;0.1416;10.5112;
759.9000;0.1351;10.4967;
760.2000;0.1433;10.5257;
760.5000;0.1416;10.5233;
760.8000;0.1416;10.5184;
761.1000;0.1400;10.5064;
761.4000;0.1408;10.5040;
761.7000;0.1433;10.5040;
762.0000;0.1425;10.5016;
762.3000;0.1408;10.5112;
762.6000;0.1408;10.5112;
762.9000;0.1449;10.5233;
763.2000;0.1433;10.5136;
763.5000;0.1425;10.5160;
763.8000;0.1425;10.5088;
764.1000;0.1433;10.5112;
764.4000;0.1441;10.5112;
764.7000;0.1449;10.5016;
765.0000;0.1433;10.4895;
765.3000;0.1416;10.4943;
765.6000;0.1433;10.5064;
765.9000;0.1416;10.5112;
766.2000;0.1416;10.4943;
766.5000;0.1368;10.4895;
766.8000;0.1441;10.5040;
767.1000;0.1433;10.5064;
767.4000;0.1408;10.5064;
767.7000;0.1425;10.5112;
768.0000;0.1425;10.5136;
768.3000;0.1408;10.5088;
768.6000;0.1416;10.5112;
768.9000;0.1416;10.5112;
769.2000;0.1416;10.5088;
769.5000;0.1425;10.5112;
769.8000;0.1408;10.5088;
770.1000;0.1416;10.5088;
770.4000;0.1302;10.4750;
770.7000;0.1433;10.5136;
771.0000;0.1425;10.5064;
771.3000;0.1433;10.5112;
771.6000;0.1392;10.5136;
771.9000;0.1457;10.5257;
772.2000;0.1425;10.5184;
772.5000;0.1425;10.5184;
772.8000;0.1433;10.5184;
773.1000;0.1457;10.5257;
773.4000;0.1408;10.5136;
773.7000;0.1416;10.5040;
774.0000;0.1425;10.4991;
774.3000;0.1416;10.5040;
774.6000;0.1433;10.5064;
774.9000;0.1425;10.5016;
775.2000;0.1400;10.5064;
775.5000;0.1416;10.5088;
775.8000;0.1441;10.5088;
776.1000;0.1490;10.5281;
776.4000;0.1400;10.5088;
776.7000;0.1433;10.5136;
777.0000;0.1425;10.5088;
777.3000;0.1449;10.5088;
777.6000;0.1433;10.5064;
777.9000;0.1400;10.4919;
778.2000;0.1433;10.5088;
778.5000;0.1416;10.5040;
778.8000;0.1433;10.5112;
779.1000;0.1416;10.5064;
779.4000;0.1449;10.5040;
779.7000;0.1425;10.4895;
780.0000;0.1457;10.4943;
780.3000;0.1425;10.4871;
780.6000;0.1441;10.4967;
780.9000;0.1416;10.5040;
781.2000;0.1441;10.5088;
781.5000;0.1400;10.5064;
781.8000;0.1425;10.5136;
782.1000;0.1416;10.5160;
782.4000;0.1425;10.5184;
782.7000;0.1425;10.5184;
783.0000;0.1530;10.5450;
783.3000;0.1408;10.5209;
783.6000;0.1408;10.5136;
783.9000;0.1433;10.5209;
784.2000;0.1416;10.5064;
784.5000;0.1441;10.5160;
784.8000;0.1433;10.5209;
785.1000;0.1319;10.4774;
785.4000;0.1416;10.4943;
785.7000;0.1441;10.5016;
786.0000;0.1449;10.4991;
786.3000;0.1449;10.5016;
786.6000;0.1433;10.4991;
786.9000;0.1408;10.4943;
787.2000;0.1416;10.5112;
787.5000;0.1441;10.5160;
787.8000;0.1425;10.5209;
788.1000;0.1425;10.5136;
788.4000;0.1425;10.5112;
788.7000;0.1416;10.5088;
789.0000;0.1481;10.5281;
789.3000;0.1433;10.5160;
789.6000;0.1425;10.5136;
789.9000;0.1400;10.5016;
790.2000;0.1416;10.5136;
790.5000;0.1376;10.5040;
790.8000;0.1457;10.5257;
791.1000;0.1416;10.5233;
791.4000;0.1441;10.5305;
791.7000;0.1416;10.5305;
792.0000;0.1376;10.5160;
792.3000;0.1425;10.5305;
792.6000;0.1433;10.5329;
792.9000;0.1441;10.5281;
793.2000;0.1416;10.5209;
793.5000;0.1433;10.5281;
793.8000;0.1441;10.5209;
794.1000;0.1384;10.5064;
794.4000;0.1441;10.5160;
794.7000;0.1425;10.5160;
795.0000;0.1335;10.4991;
795.3000;0.1425;10.5257;
795.6000;0.1425;10.5257;
795.9000;0.1408;10.5257;
796.2000;0.1425;10.5329;
796.5000;0.1433;10.5426;
796.8000;0.1416;10.5281;
797.1000;0.1359;10.5160;
797.4000;0.1302;10.4919;
797.7000;0.1425;10.5209;
798.0000;0.1425;10.5209;
798.3000;0.1400;10.5184;
798.6000;0.1425;10.5136;
798.9000;0.1416;10.5112;
799.2000;0.1425;10.5064;
799.5000;0.1425;10.5040;
799.8000;0.1416;10.5064;
800.1000;0.1441;10.5064;
800.4000;0.1408;10.5016;
800.7000;0.1416;10.4991;
801.0000;0.1441;10.4967;
801.3000;0.1433;10.5040;
801.6000;0.1441;10.5040;
801.9000;0.1449;10.5160;
802.2000;0.1425;10.5160;
802.5000;0.1441;10.5160;
802.8000;0.1408;10.5064;
803.1000;0.1425;10.5064;
803.4000;0.1465;10.5112;
803.7000;0.1425;10.5088;
804.0000;0.1433;10.5160;
804.3000;0.1425;10.5184;
804.6000;0.1433;10.5257;
804.9000;0.1416;10.5329;
805.2000;0.1433;10.5426;
805.5000;0.1408;10.5377;
805.8000;0.1400;10.5353;
806.1000;0.1408;10.5377;
806.4000;0.1416;10.5305;
806.7000;0.1465;10.5377;
807.0000;0.1416;10.5257;
807.3000;0.1425;10.5281;
807.6000;0.1433;10.5353;
807.9000;0.1416;10.5233;
808.2000;0.1425;10.5305;
808.5000;0.1433;10.5402;
808.8000;0.1457;10.5402;
809.1000;0.1425;10.5377;
809.4000;0.1433;10.5305;
809.7000;0.1392;10.5136;
810.0000;0.1449;10.5184;
810.3000;0.1457;10.5184;
810.6000;0.1449;10.5112;
810.9000;0.1392;10.4943;
811.2000;0.1425;10.5016;
811.5000;0.1425;10.4967;
811.8000;0.1490;10.5136;
812.1000;0.1433;10.4919;
812.4000;0.1425;10.4967;
812.7000;0.1294;10.4750;
813.0000;0.1441;10.5209;
813.3000;0.1376;10.5112;
813.6000;0.1547;10.5522;
813.9000;0.1425;10.5160;
814.2000;0.1441;10.5233;
814.5000;0.1449;10.5257;
814.8000;0.1400;10.5088;
815.1000;0.1514;10.5305;
815.4000;0.1449;10.5112;
815.7000;0.1441;10.5016;
816.0000;0.1408;10.4871;
816.3000;0.1449;10.5040;
816.6000;0.1449;10.5064;
816.9000;0.1425;10.5064;
817.2000;0.1425;10.5016;
817.5000;0.1376;10.4895;
817.8000;0.1449;10.5112;
818.1000;0.1441;10.5064;
818.4000;0.1416;10.4967;
818.7000;0.1441;10.5064;
819.0000;0.1441;10.5064;
819.3000;0.1433;10.5088;
819.6000;0.1368;10.4991;
819.9000;0.1441;10.5136;
820.2000;0.1433;10.5088;
820.5000;0.1425;10.5088;
820.8000;0.1425;10.5112;
821.1000;0.1441;10.5088;
821.4000;0.1376;10.5064;
821.7000;0.1425;10.5136;
822.0000;0.1433;10.5160;
822.3000;0.1408;10.5064;
822.6000;0.1425;10.5064;
822.9000;0.1433;10.5088;
823.2000;0.1441;10.5136;
823.5000;0.1425;10.5136;
823.8000;0.1425;10.5160;
824.1000;0.1441;10.5112;
824.4000;0.1384;10.4967;
824.7000;0.1441;10.5040;
825.0000;0.1425;10.4967;
825.3000;0.1392;10.4895;
825.6000;0.1400;10.4847;
825.9000;0.1416;10.4847;
826.2000;0.1449;10.4895;
826.5000;0.1433;10.4823;
826.8000;0.1425;10.4799;
827.1000;0.1416;10.4847;
827.4000;0.1416;10.4871;
827.7000;0.1408;10.4943;
828.0000;0.1433;10.4943;
828.3000;0.1425;10.4919;
828.6000;0.1425;10.4943;
828.9000;0.1425;10.4943;
829.2000;0.1416;10.4823;
829.5000;0.1400;10.4823;
829.8000;0.1392;10.4774;
830.1000;0.1425;10.4774;
830.4000;0.1473;10.4919;
830.7000;0.1441;10.4943;
831.0000;0.1433;10.4943;
831.3000;0.1433;10.4991;
831.6000;0.1433;10.5016;
831.9000;0.1408;10.4847;
832.2000;0.1392;10.4702;
832.5000;0.1433;10.4871;
832.8000;0.1433;10.4799;
833.1000;0.1457;10.4774;
833.4000;0.1433;10.4823;
833.7000;0.1441;10.4919;
834.0000;0.1465;10.4991;
834.3000;0.1457;10.4943;
834.6000;0.1433;10.4943;
834.9000;0.1359;10.4750;
835.2000;0.1433;10.4991;
835.5000;0.1425;10.4967;
835.8000;0.1384;10.4823;
836.1000;0.1465;10.4943;
836.4000;0.1416;10.4774;
836.7000;0.1425;10.4774;
837.0000;0.1416;10.4750;
837.3000;0.1433;10.4799;
837.6000;0.1441;10.4871;
837.9000;0.1416;10.4750;
838.2000;0.1433;10.4871;
838.5000;0.1425;10.4943;
838.8000;0.1408;10.4967;
839.1000;0.1425;10.5016;
839.4000;0.1425;10.5016;
839.7000;0.1433;10.5088;
840.0000;0.1384;10.4967;
840.3000;0.1416;10.5088;
840.6000;0.1400;10.5088;
840.9000;0.1441;10.5088;
841.2000;0.1433;10.5040;
841.5000;0.1368;10.4919;
841.8000;0.1416;10.5016;
842.1000;0.1416;10.5064;
842.4000;0.1425;10.5136;
842.7000;0.1425;10.5088;
843.0000;0.1433;10.5016;
843.3000;0.1408;10.5088;
843.6000;0.1490;10.5305;
843.9000;0.1335;10.4919;
844.2000;0.1408;10.5040;
844.5000;0.1425;10.5136;
844.8000;0.1441;10.5160;
845.1000;0.1441;10.5112;
845.4000;0.1433;10.5112;
845.7000;0.1433;10.5160;
846.0000;0.1433;10.5136;
846.3000;0.1433;10.5136;
846.6000;0.1425;10.5136;
846.9000;0.1400;10.5088;
847.2000;0.1400;10.5088;
847.5000;0.1441;10.5184;
847.8000;0.1425;10.5184;
848.1000;0.1425;10.5257;
848.4000;0.1449;10.5257;
848.7000;0.1449;10.5160;
849.0000;0.1416;10.5040;
849.3000;0.1408;10.5040;
849.6000;0.1481;10.5305;
849.9000;0.1416;10.5112;
850.2000;0.1384;10.5088;
850.5000;0.1433;10.5209;
850.8000;0.1425;10.5136;
851.1000;0.1449;10.5088;
851.4000;0.1416;10.5112;
851.7000;0.1441;10.5257;
852.0000;0.1433;10.5281;
852.3000;0.1506;10.5522;
852.6000;0.1359;10.5160;
852.9000;0.1449;10.5329;
853.2000;0.1530;10.5570;
853.5000;0.1425;10.5209;
853.8000;0.1425;10.5233;
854.1000;0.1441;10.5184;
854.4000;0.1449;10.5184;
854.7000;0.1425;10.5088;
855.0000;0.1441;10.5160;
855.3000;0.1457;10.5281;
855.6000;0.1416;10.5160;
855.9000;0.1416;10.5209;
856.2000;0.1433;10.5209;
856.5000;0.1433;10.5209;
856.8000;0.1425;10.5160;
857.1000;0.1416;10.5160;
857.4000;0.1425;10.5184;
857.7000;0.1425;10.5233;
858.0000;0.1441;10.5281;
858.3000;0.1425;10.5377;
858.6000;0.1425;10.5402;
858.9000;0.1433;10.5353;
859.2000;0.1433;10.5402;
859.5000;0.1425;10.5329;
859.8000;0.1449;10.5377;
860.1000;0.1433;10.5305;
860.4000;0.1457;10.5402;
860.7000;0.1425;10.5353;
861.0000;0.1433;10.5329;
861.3000;0.1400;10.5257;
861.6000;0.1433;10.5305;
861.9000;0.1425;10.5257;
862.2000;0.1433;10.5281;
862.5000;0.1384;10.5209;
862.8000;0.1433;10.5353;
863.1000;0.1416;10.5353;
863.4000;0.1416;10.5305;
863.7000;0.1416;10.5426;
864.0000;0.1433;10.5546;
864.3000;0.1449;10.5450;
864.6000;0.1433;10.5402;
864.9000;0.1433;10.5402;
865.2000;0.1425;10.5353;
865.5000;0.1522;10.5643;
865.8000;0.1416;10.5281;
866.1000;0.1425;10.5281;
866.4000;0.1433;10.5233;
866.7000;0.1433;10.5233;
867.0000;0.1490;10.5377;
867.3000;0.1425;10.5281;
867.6000;0.1433;10.5257;
867.9000;0.1433;10.5281;
868.2000;0.1433;10.5160;
868.5000;0.1400;10.5064;
868.8000;0.1425;10.5184;
869.1000;0.1433;10.5233;
869.4000;0.1400;10.5184;
869.7000;0.1416;10.5184;
870.0000;0.1457;10.5329;
870.3000;0.1433;10.5257;
870.6000;0.1433;10.5402;
870.9000;0.1416;10.5281;
871.2000;0.1425;10.5329;
871.5000;0.1457;10.5426;
871.8000;0.1481;10.5546;
872.1000;0.1441;10.5305;
872.4000;0.1400;10.5257;
872.7000;0.1408;10.5353;
873.0000;0.1416;10.5281;
873.3000;0.1302;10.5040;
873.6000;0.1408;10.5426;
873.9000;0.1425;10.5498;
874.2000;0.1449;10.5474;
874.5000;0.1408;10.5402;
874.8000;0.1416;10.5329;
875.1000;0.1416;10.5281;
875.4000;0.1416;10.5257;
875.7000;0.1481;10.5426;
876.0000;0.1425;10.5233;
876.3000;0.1473;10.5329;
876.6000;0.1425;10.5257;
876.9000;0.1416;10.5233;
877.2000;0.1433;10.5257;
877.5000;0.1376;10.5112;
877.8000;0.1425;10.5281;
878.1000;0.1425;10.5353;
878.4000;0.1433;10.5353;
878.7000;0.1400;10.5257;
879.0000;0.1441;10.5353;
879.3000;0.1441;10.5281;
879.6000;0.1425;10.5233;
879.9000;0.1408;10.5281;
880.2000;0.1416;10.5281;
880.5000;0.1425;10.5329;
880.8000;0.1433;10.5402;
881.1000;0.1425;10.5377;
881.4000;0.1433;10.5474;
881.7000;0.1441;10.5498;
882.0000;0.1433;10.5474;
882.3000;0.1441;10.5498;
882.6000;0.1433;10.5474;
882.9000;0.1433;10.5450;
883.2000;0.1425;10.5402;
883.5000;0.1441;10.5474;
883.8000;0.1433;10.5474;
884.1000;0.1359;10.5257;
884.4000;0.1425;10.5402;
884.7000;0.1425;10.5377;
885.0000;0.1481;10.5594;
885.3000;0.1433;10.5353;
885.6000;0.1449;10.5450;
885.9000;0.1425;10.5426;
886.2000;0.1416;10.5377;
886.5000;0.1408;10.5305;
886.8000;0.1441;10.5305;
887.1000;0.1433;10.5257;
887.4000;0.1465;10.5402;
887.7000;0.1425;10.5305;
888.0000;0.1416;10.5281;
888.3000;0.1425;10.5281;
888.6000;0.1384;10.5209;
888.9000;0.1441;10.5281;
889.2000;0.1433;10.5160;
889.5000;0.1343;10.4967;
889.8000;0.1408;10.5233;
890.1000;0.1473;10.5402;
890.4000;0.1384;10.5209;
890.7000;0.1425;10.5305;
891.0000;0.1425;10.5257;
891.3000;0.1449;10.5281;
891.6000;0.1425;10.5281;
891.9000;0.1433;10.5281;
892.2000;0.1376;10.5112;
892.5000;0.1425;10.5353;
892.8000;0.1441;10.5281;
893.1000;0.1425;10.5184;
893.4000;0.1441;10.5233;
893.7000;0.1425;10.5184;
894.0000;0.1416;10.5136;
894.3000;0.1441;10.5281;
894.6000;0.1425;10.5281;
894.9000;0.1416;10.5257;
895.2000;0.1408;10.5209;
895.5000;0.1416;10.5257;
895.8000;0.1457;10.5281;
896.1000;0.1441;10.5305;
896.4000;0.1441;10.5233;
896.7000;0.1392;10.5160;
897.0000;0.1433;10.5233;
897.3000;0.1425;10.5233;
897.6000;0.1441;10.5281;
897.9000;0.1433;10.5233;
898.2000;0.1433;10.5209;
898.5000;0.1433;10.5136;
898.8000;0.1416;10.5064;
899.1000;0.1384;10.5064;
899.4000;0.1449;10.5233;
899.7000;0.1384;10.5088;
900.0000;0.1506;10.5377;
900.3000;0.1457;10.5233;
900.6000;0.1425;10.5064;
900.9000;0.1408;10.5040;
901.2000;0.1481;10.5184;
901.5000;0.1449;10.5088;
901.8000;0.1441;10.5160;
902.1000;0.1425;10.5136;
902.4000;0.1481;10.5257;
902.7000;0.1425;10.5088;
903.0000;0.1425;10.5040;
903.3000;0.1425;10.5088;
903.6000;0.1433;10.5160;
903.9000;0.1400;10.5160;
904.2000;0.1425;10.5184;
904.5000;0.1416;10.5136;
904.8000;0.1441;10.5257;
905.1000;0.1433;10.5184;
905.4000;0.1408;10.5233;
905.7000;0.1433;10.5233;
906.0000;0.1416;10.5209;
906.3000;0.1425;10.5136;
906.6000;0.1425;10.5040;
906.9000;0.1433;10.5040;
907.2000;0.1400;10.4895;
907.5000;0.1425;10.4943;
907.8000;0.1416;10.4919;
908.1000;0.1514;10.5233;
908.4000;0.1457;10.5016;
908.7000;0.1408;10.4847;
909.0000;0.1416;10.4943;
909.3000;0.1408;10.4919;
909.6000;0.1449;10.5040;
909.9000;0.1449;10.5016;
910.2000;0.1425;10.4943;
910.5000;0.1555;10.5305;
910.8000;0.1433;10.5088;
911.1000;0.1433;10.5209;
911.4000;0.1457;10.5281;
911.7000;0.1416;10.5257;
912.0000;0.1441;10.5353;
912.3000;0.1433;10.5305;
912.6000;0.1433;10.5233;
912.9000;0.1449;10.5184;
913.2000;0.1408;10.5064;
913.5000;0.1408;10.4967;
913.8000;0.1433;10.5088;
914.1000;0.1392;10.4895;
914.4000;0.1449;10.5136;
914.7000;0.1392;10.5064;
915.0000;0.1416;10.5209;
915.3000;0.1425;10.5209;
915.6000;0.1359;10.5112;
915.9000;0.1433;10.5233;
916.2000;0.1433;10.5233;
916.5000;0.1441;10.5281;
916.8000;0.1425;10.5257;
917.1000;0.1433;10.5281;
917.4000;0.1433;10.5305;
917.7000;0.1457;10.5305;
918.0000;0.1433;10.5209;
918.3000;0.1433;10.5257;
918.6000;0.1433;10.5233;
918.9000;0.1416;10.5257;
919.2000;0.1425;10.5329;
919.5000;0.1441;10.5353;
919.8000;0.1433;10.5209;
920.1000;0.1425;10.5257;
920.4000;0.1408;10.5329;
920.7000;0.1425;10.5353;
921.0000;0.1384;10.5184;
921.3000;0.1433;10.5257;
921.6000;0.1465;10.5329;
921.9000;0.1433;10.5209;
922.2000;0.1425;10.5233;
922.5000;0.1425;10.5281;
922.8000;0.1473;10.5329;
923.1000;0.1449;10.5233;
923.4000;0.1408;10.5184;
923.7000;0.1433;10.5281;
924.0000;0.1433;10.5257;
924.3000;0.1433;10.5257;
924.6000;0.1416;10.5209;
924.9000;0.1425;10.5233;
925.2000;0.1457;10.5305;
925.5000;0.1425;10.5209;
925.8000;0.1425;10.5257;
926.1000;0.1416;10.5209;
926.4000;0.1433;10.5184;
926.7000;0.1400;10.5112;
927.0000;0.1400;10.5136;
927.3000;0.1384;10.5112;
927.6000;0.1425;10.5281;
927.9000;0.1425;10.5257;
928.2000;0.1449;10.5353;
928.5000;0.1441;10.5257;
928.8000;0.1441;10.5353;
929.1000;0.1416;10.5450;
929.4000;0.1400;10.5426;
929.7000;0.1416;10.5377;
930.0000;0.1400;10.5353;
930.3000;0.1416;10.5450;
930.6000;0.1408;10.5450;
930.9000;0.1392;10.5377;
931.2000;0.1425;10.5353;
931.5000;0.1425;10.5353;
931.8000;0.1449;10.5257;
932.1000;0.1481;10.5305;
932.4000;0.1449;10.5233;
932.7000;0.1433;10.5160;
933.0000;0.1457;10.5305;
933.3000;0.1416;10.5305;
933.6000;0.1400;10.5281;
933.9000;0.1449;10.5426;
934.2000;0.1473;10.5570;
934.5000;0.1441;10.5426;
934.8000;0.1433;10.5426;
935.1000;0.1433;10.5377;
935.4000;0.1416;10.5377;
935.7000;0.1392;10.5281;
936.0000;0.1416;10.5329;
936.3000;0.1425;10.5353;
936.6000;0.1425;10.5353;
936.9000;0.1433;10.5329;
937.2000;0.1416;10.5209;
937.5000;0.1481;10.5305;
937.8000;0.1433;10.5184;
938.1000;0.1416;10.5281;
938.4000;0.1425;10.5257;
938.7000;0.1449;10.5281;
939.0000;0.1425;10.5160;
939.3000;0.1433;10.5209;
939.6000;0.1416;10.5160;
939.9000;0.1416;10.5136;
940.2000;0.1433;10.5233;
940.5000;0.1433;10.5305;
940.8000;0.1441;10.5209;
941.1000;0.1441;10.5281;
941.4000;0.1433;10.5257;
941.7000;0.1441;10.5329;
942.0000;0.1425;10.5281;
942.3000;0.1433;10.5305;
942.6000;0.1473;10.5281;
942.9000;0.1441;10.5233;
943.2000;0.1400;10.5136;
943.5000;0.1416;10.5040;
943.8000;0.1408;10.4919;
944.1000;0.1433;10.5064;
944.4000;0.1473;10.5184;
944.7000;0.1400;10.4991;
945.0000;0.1441;10.5064;
945.3000;0.1433;10.5088;
945.6000;0.1425;10.5112;
945.9000;0.1368;10.4919;
946.2000;0.1441;10.5184;
946.5000;0.1343;10.4871;
946.8000;0.1433;10.5112;
947.1000;0.1433;10.5160;
947.4000;0.1433;10.5281;
947.7000;0.1425;10.5329;
948.0000;0.1473;10.5450;
948.3000;0.1457;10.5305;
948.6000;0.1449;10.5257;
948.9000;0.1465;10.5377;
949.2000;0.1433;10.5353;
949.5000;0.1433;10.5402;
949.8000;0.1433;10.5281;
950.1000;0.1433;10.5329;
950.4000;0.1425;10.5281;
950.7000;0.1433;10.5281;
951.0000;0.1425;10.5281;
951.3000;0.1416;10.5160;
951.6000;0.1425;10.5088;
951.9000;0.1441;10.5136;
952.2000;0.1416;10.5136;
952.5000;0.1457;10.5184;
952.8000;0.1425;10.5160;
953.1000;0.1433;10.5257;
953.4000;0.1441;10.5184;
953.7000;0.1433;10.5233;
954.0000;0.1441;10.5136;
954.3000;0.1433;10.5064;
954.6000;0.1449;10.5136;
954.9000;0.1522;10.5329;
955.2000;0.1433;10.5112;
955.5000;0.1416;10.5136;
955.8000;0.1449;10.5329;
956.1000;0.1400;10.5209;
956.4000;0.1514;10.5546;
956.7000;0.1408;10.5257;
957.0000;0.1408;10.5281;
957.3000;0.1457;10.5329;
957.6000;0.1457;10.5402;
957.9000;0.1400;10.5281;
958.2000;0.1416;10.5329;
958.5000;0.1441;10.5329;
958.8000;0.1425;10.5233;
959.1000;0.1400;10.5112;
959.4000;0.1449;10.5329;
959.7000;0.1425;10.5257;
960.0000;0.1425;10.5281;
960.3000;0.1425;10.5184;
960.6000;0.1449;10.5209;
960.9000;0.1425;10.5160;
961.2000;0.1425;10.5184;
961.5000;0.1490;10.5281;
961.8000;0.1392;10.4991;
962.1000;0.1425;10.5088;
962.4000;0.1416;10.5160;
962.7000;0.1416;10.5209;
963.0000;0.1433;10.5233;
963.3000;0.1449;10.5257;
963.6000;0.1433;10.5281;
963.9000;0.1433;10.5353;
964.2000;0.1433;10.5281;
964.5000;0.1425;10.5209;
964.8000;0.1408;10.5136;
965.1000;0.1449;10.5184;
965.4000;0.1433;10.5136;
965.7000;0.1449;10.5184;
966.0000;0.1384;10.5064;
966.3000;0.1433;10.5112;
966.6000;0.1416;10.5112;
966.9000;0.1425;10.5136;
967.2000;0.1416;10.5112;
967.5000;0.1449;10.5160;
967.8000;0.1408;10.5016;
968.1000;0.1416;10.4991;
968.4000;0.1408;10.5040;
968.7000;0.1457;10.5209;
969.0000;0.1433;10.5209;
969.3000;0.1514;10.5522;
969.6000;0.1392;10.5160;
969.9000;0.1425;10.5184;
970.2000;0.1449;10.5209;
970.5000;0.1425;10.5160;
970.8000;0.1425;10.5112;
971.1000;0.1425;10.5136;
971.4000;0.1441;10.5160;
971.7000;0.1449;10.5184;
972.0000;0.1425;10.5209;
972.3000;0.1425;10.5112;
972.6000;0.1433;10.5160;
972.9000;0.1416;10.5136;
973.2000;0.1433;10.5112;
973.5000;0.1416;10.5112;
973.8000;0.1441;10.5209;
974.1000;0.1441;10.5160;
974.4000;0.1449;10.5209;
974.7000;0.1473;10.5257;
975.0000;0.1441;10.5233;
975.3000;0.1441;10.5233;
975.6000;0.1441;10.5233;
975.9000;0.1441;10.5233;
976.2000;0.1441;10.5184;
976.5000;0.1425;10.5160;
976.8000;0.1441;10.5184;
977.1000;0.1416;10.5112;
977.4000;0.1449;10.5184;
977.7000;0.1441;10.5088;
978.0000;0.1433;10.5040;
978.3000;0.1416;10.4967;
978.6000;0.1449;10.5088;
978.9000;0.1433;10.5136;
979.2000;0.1433;10.5136;
979.5000;0.1425;10.5233;
979.8000;0.1408;10.5257;
980.1000;0.1441;10.5305;
980.4000;0.1425;10.5450;
980.7000;0.1433;10.5498;
981.0000;0.1425;10.5498;
981.3000;0.1433;10.5546;
981.6000;0.1351;10.5209;
981.9000;0.1433;10.5426;
982.2000;0.1416;10.5498;
982.5000;0.1416;10.5450;
982.8000;0.1433;10.5546;
983.1000;0.1441;10.5522;
983.4000;0.1465;10.5570;
983.7000;0.1425;10.5402;
984.0000;0.1441;10.5353;
984.3000;0.1433;10.5281;
984.6000;0.1433;10.5377;
984.9000;0.1425;10.5305;
985.2000;0.1408;10.5353;
985.5000;0.1522;10.5643;
985.8000;0.1425;10.5329;
986.1000;0.1425;10.5353;
986.4000;0.1481;10.5522;
986.7000;0.1433;10.5426;
987.0000;0.1319;10.5040;
987.3000;0.1408;10.5281;
987.6000;0.1433;10.5353;
987.9000;0.1449;10.5305;
988.2000;0.1433;10.5353;
988.5000;0.1400;10.5305;
988.8000;0.1416;10.5329;
989.1000;0.1433;10.5305;
989.4000;0.1449;10.5281;
989.7000;0.1416;10.5209;
990.0000;0.1416;10.5209;
990.3000;0.1433;10.5281;
990.6000;0.1384;10.5088;
990.9000;0.1441;10.5233;
991.2000;0.1433;10.5257;
991.5000;0.1425;10.5281;
991.8000;0.1441;10.5329;
992.1000;0.1416;10.5329;
992.4000;0.1441;10.5353;
992.7000;0.1400;10.5281;
993.0000;0.1425;10.5353;
993.3000;0.1425;10.5402;
993.6000;0.1465;10.5426;
993.9000;0.1425;10.5329;
994.2000;0.1425;10.5233;
994.5000;0.1441;10.5233;
994.8000;0.1416;10.5112;
995.1000;0.1425;10.5088;
995.4000;0.1449;10.5160;
995.7000;0.1433;10.5184;
996.0000;0.1416;10.5209;
996.3000;0.1416;10.5160;
996.6000;0.1449;10.5112;
996.9000;0.1457;10.5064;
997.2000;0.1416;10.4967;
997.5000;0.1408;10.4919;
997.8000;0.1400;10.5016;
998.1000;0.1425;10.5209;
998.4000;0.1408;10.5233;
998.7000;0.1416;10.5209;
999.0000;0.1449;10.5281;
999.3000;0.1425;10.5160;
999.6000;0.1433;10.5233;
999.9000;0.1441;10.5257;
1000.2000;0.1433;10.5257;
1000.5000;0.1433;10.5305;
1000.8000;0.1433;10.5377;
1001.1000;0.1416;10.5257;
1001.4000;0.1433;10.5257;
1001.7000;0.1408;10.5329;
1002.0000;0.1416;10.5209;
1002.3000;0.1425;10.5184;
1002.6000;0.1449;10.5233;
1002.9000;0.1425;10.5064;
1003.2000;0.1433;10.4991;
1003.5000;0.1555;10.5329;
1003.8000;0.1465;10.5016;
1004.1000;0.1433;10.5016;
1004.4000;0.1457;10.5112;
1004.7000;0.1449;10.5136;
1005.0000;0.1425;10.5136;
1005.3000;0.1433;10.5233;
1005.6000;0.1449;10.5281;
1005.9000;0.1449;10.5329;
1006.2000;0.1416;10.5233;
1006.5000;0.1408;10.5136;
1006.8000;0.1457;10.5353;
1007.1000;0.1449;10.5209;
1007.4000;0.1416;10.5112;
1007.7000;0.1425;10.5160;
1008.0000;0.1392;10.5088;
1008.3000;0.1441;10.5160;
1008.6000;0.1457;10.5184;
1008.9000;0.1416;10.5136;
1009.2000;0.1433;10.5160;
1009.5000;0.1514;10.5353;
1009.8000;0.1425;10.5233;
1010.1000;0.1433;10.5209;
1010.4000;0.1433;10.5184;
1010.7000;0.1457;10.5281;
1011.0000;0.1416;10.5209;
1011.3000;0.1408;10.5160;
1011.6000;0.1400;10.5040;
1011.9000;0.1441;10.5064;
1012.2000;0.1449;10.5088;
1012.5000;0.1408;10.5040;
1012.8000;0.1416;10.5064;
1013.1000;0.1416;10.5160;
1013.4000;0.1425;10.5136;
1013.7000;0.1441;10.5136;
1014.0000;0.1425;10.5064;
1014.3000;0.1433;10.5040;
1014.6000;0.1433;10.5016;
1014.9000;0.1457;10.5040;
1015.2000;0.1473;10.5064;
1015.5000;0.1441;10.5064;
1015.8000;0.1416;10.5040;
1016.1000;0.1433;10.5088;
1016.4000;0.1441;10.5064;
1016.7000;0.1416;10.5040;
1017.0000;0.1465;10.5184;
1017.3000;0.1433;10.5112;
1017.6000;0.1408;10.5088;
1017.9000;0.1425;10.5112;
1018.2000;0.1416;10.5184;
1018.5000;0.1441;10.5136;
1018.8000;0.1457;10.5184;
1019.1000;0.1408;10.5088;
1019.4000;0.1449;10.5257;
1019.7000;0.1416;10.5257;
1020.0000;0.1457;10.5305;
1020.3000;0.1425;10.5184;
1020.6000;0.1416;10.5088;
1020.9000;0.1457;10.5184;
1021.2000;0.1433;10.5112;
1021.5000;0.1416;10.5064;
1021.8000;0.1416;10.5016;
1022.1000;0.1433;10.5160;
1022.4000;0.1425;10.5184;
1022.7000;0.1408;10.5184;
1023.0000;0.1400;10.5281;
1023.3000;0.1441;10.5377;
1023.6000;0.1408;10.5281;
1023.9000;0.1457;10.5498;
1024.2000;0.1425;10.5353;
1024.5000;0.1416;10.5305;
1024.8000;0.1433;10.5305;
1025.1000;0.1571;10.5619;
1025.4000;0.1400;10.5184;
1025.7000;0.1416;10.5257;
1026.0000;0.1425;10.5353;
1026.3000;0.1441;10.5305;
1026.6000;0.1441;10.5353;
1026.9000;0.1433;10.5257;
1027.2000;0.1416;10.5233;
1027.5000;0.1441;10.5257;
1027.8000;0.1449;10.5257;
1028.1000;0.1416;10.5136;
1028.4000;0.1351;10.4967;
1028.7000;0.1384;10.4991;
1029.0000;0.1449;10.5184;
1029.3000;0.1408;10.5136;
1029.6000;0.1416;10.5184;
1029.9000;0.1433;10.5184;
1030.2000;0.1433;10.5112;
1030.5000;0.1416;10.5112;
1030.8000;0.1441;10.5160;
1031.1000;0.1425;10.5136;
1031.4000;0.1433;10.5088;
1031.7000;0.1441;10.5160;
1032.0000;0.1400;10.5112;
1032.3000;0.1449;10.5112;
1032.6000;0.1473;10.5233;
1032.9000;0.1376;10.5040;
1033.2000;0.1449;10.5329;
1033.5000;0.1441;10.5305;
1033.8000;0.1449;10.5233;
1034.1000;0.1441;10.5233;
1034.4000;0.1433;10.5233;
1034.7000;0.1425;10.5209;
1035.0000;0.1441;10.5329;
1035.3000;0.1425;10.5305;
1035.6000;0.1433;10.5281;
1035.9000;0.1425;10.5160;
1036.2000;0.1441;10.5184;
1036.5000;0.1449;10.5184;
1036.8000;0.1425;10.5160;
1037.1000;0.1441;10.5209;
1037.4000;0.1465;10.5305;
1037.7000;0.1465;10.5257;
1038.0000;0.1408;10.5136;
1038.3000;0.1425;10.5184;
1038.6000;0.1425;10.5209;
1038.9000;0.1416;10.5184;
1039.2000;0.1433;10.5136;
1039.5000;0.1498;10.5353;
1039.8000;0.1441;10.5184;
1040.1000;0.1416;10.5160;
1040.4000;0.1416;10.5257;
1040.7000;0.1547;10.5594;
1041.0000;0.1416;10.5377;
1041.3000;0.1416;10.5329;
1041.6000;0.1425;10.5329;
1041.9000;0.1351;10.5184;
1042.2000;0.1408;10.5305;
1042.5000;0.1457;10.5426;
1042.8000;0.1433;10.5377;
1043.1000;0.1416;10.5329;
1043.4000;0.1433;10.5377;
1043.7000;0.1433;10.5353;
1044.0000;0.1408;10.5377;
1044.3000;0.1425;10.5426;
1044.6000;0.1408;10.5498;
1044.9000;0.1408;10.5426;
1045.2000;0.1441;10.5522;
1045.5000;0.1425;10.5426;
1045.8000;0.1441;10.5426;
1046.1000;0.1416;10.5402;
1046.4000;0.1416;10.5281;
1046.7000;0.1457;10.5353;
1047.0000;0.1465;10.5377;
1047.3000;0.1425;10.5233;
1047.6000;0.1441;10.5233;
1047.9000;0.1425;10.5209;
1048.2000;0.1522;10.5450;
1048.5000;0.1433;10.5160;
1048.8000;0.1408;10.5184;
1049.1000;0.1376;10.5016;
1049.4000;0.1408;10.5064;
1049.7000;0.1433;10.5136;
1050.0000;0.1400;10.5112;
1050.3000;0.1433;10.5209;
1050.6000;0.1433;10.5257;
1050.9000;0.1433;10.5209;
1051.2000;0.1425;10.5353;
1051.5000;0.1416;10.5329;
1051.8000;0.1408;10.5353;
1052.1000;0.1441;10.5353;
1052.4000;0.1408;10.5281;
1052.7000;0.1408;10.5233;
1053.0000;0.1408;10.5136;
1053.3000;0.1433;10.5136;
1053.6000;0.1351;10.4919;
1053.9000;0.1416;10.5112;
1054.2000;0.1425;10.5233;
1054.5000;0.1433;10.5184;
1054.8000;0.1392;10.5088;
1055.1000;0.1441;10.5160;
1055.4000;0.1433;10.5112;
1055.7000;0.1441;10.5064;
1056.0000;0.1441;10.5016;
1056.3000;0.1425;10.4991;
1056.6000;0.1416;10.4919;
1056.9000;0.1441;10.5016;
1057.2000;0.1425;10.4943;
1057.5000;0.1425;10.4919;
1057.8000;0.1433;10.4991;
1058.1000;0.1481;10.5233;
1058.4000;0.1433;10.5160;
1058.7000;0.1425;10.5064;
1059.0000;0.1416;10.5040;
1059.3000;0.1416;10.4967;
1059.6000;0.1433;10.5016;
1059.9000;0.1433;10.5040;
1060.2000;0.1376;10.4871;
1060.5000;0.1498;10.5233;
1060.8000;0.1433;10.5088;
1061.1000;0.1425;10.5160;
1061.4000;0.1351;10.5016;
1061.7000;0.1400;10.5184;
1062.0000;0.1425;10.5281;
1062.3000;0.1449;10.5209;
1062.6000;0.1400;10.5064;
1062.9000;0.1449;10.5160;
1063.2000;0.1457;10.5233;
1063.5000;0.1392;10.5112;
1063.8000;0.1400;10.5136;
1064.1000;0.1408;10.5184;
1064.4000;0.1392;10.5257;
1064.7000;0.1400;10.5209;
1065.0000;0.1433;10.5329;
1065.3000;0.1425;10.5281;
1065.6000;0.1416;10.5233;
1065.9000;0.1416;10.5257;
1066.2000;0.1335;10.4991;
1066.5000;0.1425;10.5257;
1066.8000;0.1343;10.5040;
1067.1000;0.1441;10.5209;
1067.4000;0.1425;10.5160;
1067.7000;0.1416;10.5184;
1068.0000;0.1433;10.5209;
1068.3000;0.1441;10.5184;
1068.6000;0.1433;10.5064;
1068.9000;0.1433;10.4967;
1069.2000;0.1433;10.5016;
1069.5000;0.1416;10.4967;
1069.8000;0.1490;10.5184;
1070.1000;0.1449;10.5040;
1070.4000;0.1425;10.5040;
1070.7000;0.1425;10.5088;
1071.0000;0.1433;10.5209;
1071.3000;0.1425;10.5233;
1071.6000;0.1425;10.5184;
1071.9000;0.1416;10.5233;
1072.2000;0.1416;10.5136;
1072.5000;0.1400;10.5016;
1072.8000;0.1449;10.5064;
1073.1000;0.1425;10.4991;
1073.4000;0.1433;10.4895;
1073.7000;0.1441;10.4991;
1074.0000;0.1425;10.4919;
1074.3000;0.1441;10.5016;
1074.6000;0.1425;10.5088;
1074.9000;0.1425;10.5088;
1075.2000;0.1441;10.5160;
1075.5000;0.1433;10.5184;
1075.8000;0.1433;10.5064;
1076.1000;0.1425;10.4943;
1076.4000;0.1449;10.4991;
1076.7000;0.1351;10.4750;
1077.0000;0.1441;10.4991;
1077.3000;0.1400;10.4847;
1077.6000;0.1368;10.4823;
1077.9000;0.1416;10.5064;
1078.2000;0.1433;10.5136;
1078.5000;0.1441;10.5112;
1078.8000;0.1392;10.4991;
1079.1000;0.1416;10.4967;
1079.4000;0.1538;10.5209;
1079.7000;0.1441;10.4895;
1080.0000;0.1416;10.4799;
1080.3000;0.1425;10.4799;
1080.6000;0.1425;10.4847;
1080.9000;0.1449;10.4919;
1081.2000;0.1441;10.4943;
1081.5000;0.1425;10.4967;
1081.8000;0.1433;10.5016;
1082.1000;0.1425;10.5088;
1082.4000;0.1441;10.5136;
1082.7000;0.1408;10.5088;
1083.0000;0.1408;10.5040;
1083.3000;0.1416;10.5064;
1083.6000;0.1425;10.5064;
1083.9000;0.1425;10.5040;
1084.2000;0.1425;10.4991;
1084.5000;0.1376;10.4799;
1084.8000;0.1425;10.4799;
1085.1000;0.1441;10.4726;
1085.4000;0.1433;10.4702;
1085.7000;0.1384;10.4630;
1086.0000;0.1425;10.4750;
1086.3000;0.1433;10.4726;
1086.6000;0.1416;10.4702;
1086.9000;0.1465;10.4750;
1087.2000;0.1416;10.4678;
1087.5000;0.1514;10.5040;
1087.8000;0.1425;10.4847;
1088.1000;0.1433;10.4871;
1088.4000;0.1449;10.4895;
1088.7000;0.1449;10.4967;
1089.0000;0.1441;10.4919;
1089.3000;0.1441;10.5016;
1089.6000;0.1425;10.4967;
1089.9000;0.1449;10.4967;
1090.2000;0.1433;10.4967;
1090.5000;0.1433;10.5016;
1090.8000;0.1408;10.4823;
1091.1000;0.1457;10.4847;
1091.4000;0.1416;10.4750;
1091.7000;0.1384;10.4654;
1092.0000;0.1433;10.4847;
1092.3000;0.1433;10.4943;
1092.6000;0.1416;10.4895;
1092.9000;0.1433;10.4895;
1093.2000;0.1416;10.4967;
1093.5000;0.1449;10.5040;
1093.8000;0.1433;10.5016;
1094.1000;0.1416;10.4943;
1094.4000;0.1408;10.4895;
1094.7000;0.1408;10.4943;
1095.0000;0.1441;10.4871;
1095.3000;0.1425;10.4871;
1095.6000;0.1433;10.4919;
1095.9000;0.1441;10.4967;
1096.2000;0.1416;10.4967;
1096.5000;0.1416;10.4991;
1096.8000;0.1449;10.5064;
1097.1000;0.1433;10.5064;
1097.4000;0.1433;10.5064;
1097.7000;0.1384;10.4895;
1098.0000;0.1441;10.5016;
1098.3000;0.1376;10.4943;
1098.6000;0.1433;10.5233;
1098.9000;0.1449;10.5209;
1099.2000;0.1433;10.5233;
1099.5000;0.1441;10.5209;
1099.8000;0.1425;10.5136;
1100.1000;0.1433;10.5088;
1100.4000;0.1408;10.5016;
1100.7000;0.1376;10.4871;
1101.0000;0.1425;10.4991;
1101.3000;0.1441;10.4991;
1101.6000;0.1441;10.4919;
1101.9000;0.1449;10.4919;
1102.2000;0.1433;10.4823;
1102.5000;0.1433;10.4895;
1102.8000;0.1457;10.4871;
1103.1000;0.1433;10.4774;
1103.4000;0.1473;10.4943;
1103.7000;0.1433;10.4895;
1104.0000;0.1457;10.4991;
1104.3000;0.1441;10.5064;
1104.6000;0.1425;10.5064;
1104.9000;0.1490;10.5233;
1105.2000;0.1433;10.5040;
1105.5000;0.1425;10.4871;
1105.8000;0.1425;10.4871;
1106.1000;0.1441;10.4895;
1106.4000;0.1433;10.4919;
1106.7000;0.1441;10.4943;
1107.0000;0.1408;10.4919;
1107.3000;0.1449;10.5136;
1107.6000;0.1433;10.5209;
1107.9000;0.1449;10.5329;
1108.2000;0.1433;10.5233;
1108.5000;0.1433;10.5281;
1108.8000;0.1433;10.5281;
1109.1000;0.1425;10.5209;
1109.4000;0.1433;10.5209;
1109.7000;0.1416;10.5064;
1110.0000;0.1425;10.5064;
1110.3000;0.1433;10.5064;
1110.6000;0.1425;10.4991;
1110.9000;0.1433;10.4991;
1111.2000;0.1425;10.4991;
1111.5000;0.1441;10.5040;
1111.8000;0.1449;10.5112;
1112.1000;0.1441;10.5112;
1112.4000;0.1416;10.4991;
1112.7000;0.1416;10.4943;
1113.0000;0.1433;10.5040;
1113.3000;0.1433;10.5040;
1113.6000;0.1441;10.4991;
1113.9000;0.1327;10.4678;
1114.2000;0.1457;10.4943;
1114.5000;0.1425;10.4895;
1114.8000;0.1425;10.4847;
1115.1000;0.1425;10.4919;
1115.4000;0.1449;10.5016;
1115.7000;0.1433;10.4991;
1116.0000;0.1425;10.4967;
1116.3000;0.1408;10.4919;
1116.6000;0.1425;10.4991;
1116.9000;0.1425;10.5016;
1117.2000;0.1416;10.5136;
1117.5000;0.1416;10.5136;
1117.8000;0.1441;10.5257;
1118.1000;0.1425;10.5281;
1118.4000;0.1425;10.5160;
1118.7000;0.1425;10.5136;
1119.0000;0.1433;10.5160;
1119.3000;0.1441;10.5184;
1119.6000;0.1433;10.5184;
1119.9000;0.1425;10.5160;
1120.2000;0.1416;10.5136;
1120.5000;0.1514;10.5402;
1120.8000;0.1408;10.5209;
1121.1000;0.1408;10.5257;
1121.4000;0.1392;10.5064;
1121.7000;0.1433;10.5112;
1122.0000;0.1425;10.5016;
1122.3000;0.1433;10.4991;
1122.6000;0.1400;10.4967;
1122.9000;0.1441;10.5112;
1123.2000;0.1425;10.5160;
1123.5000;0.1506;10.5377;
1123.8000;0.1433;10.5184;
1124.1000;0.1425;10.5209;
1124.4000;0.1425;10.5184;
1124.7000;0.1376;10.4943;
1125.0000;0.1416;10.5136;
1125.3000;0.1425;10.5112;
1125.6000;0.1457;10.5184;
1125.9000;0.1425;10.5136;
1126.2000;0.1425;10.5160;
1126.5000;0.1433;10.5281;
1126.8000;0.1425;10.5233;
1127.1000;0.1433;10.5281;
1127.4000;0.1433;10.5281;
1127.7000;0.1441;10.5233;
1128.0000;0.1465;10.5377;
1128.3000;0.1433;10.5233;
1128.6000;0.1433;10.5136;
1128.9000;0.1408;10.5136;
1129.2000;0.1433;10.5209;
1129.5000;0.1433;10.5112;
1129.8000;0.1425;10.4991;
1130.1000;0.1416;10.4967;
1130.4000;0.1473;10.5112;
1130.7000;0.1433;10.4991;
1131.0000;0.1498;10.5088;
1131.3000;0.1359;10.4726;
1131.6000;0.1433;10.4823;
1131.9000;0.1433;10.4799;
1132.2000;0.1408;10.4774;
1132.5000;0.1441;10.4823;
1132.8000;0.1441;10.4919;
1133.1000;0.1425;10.4871;
1133.4000;0.1368;10.4799;
1133.7000;0.1433;10.4871;
1134.0000;0.1433;10.4871;
1134.3000;0.1457;10.4943;
1134.6000;0.1441;10.4895;
1134.9000;0.1400;10.4750;
1135.2000;0.1425;10.4726;
1135.5000;0.1392;10.4678;
1135.8000;0.1425;10.4799;
1136.1000;0.1425;10.4774;
1136.4000;0.1416;10.4847;
1136.7000;0.1425;10.4847;
1137.0000;0.1441;10.4871;
1137.3000;0.1441;10.4823;
1137.6000;0.1433;10.4823;
1137.9000;0.1473;10.4943;
1138.2000;0.1408;10.4799;
1138.5000;0.1441;10.4967;
1138.8000;0.1416;10.4871;
1139.1000;0.1416;10.4967;
1139.4000;0.1433;10.5016;
1139.7000;0.1433;10.4991;
1140.0000;0.1441;10.4991;
1140.3000;0.1433;10.5064;
1140.6000;0.1441;10.5040;
1140.9000;0.1433;10.5040;
1141.2000;0.1498;10.5305;
1141.5000;0.1433;10.5088;
1141.8000;0.1433;10.5064;
1142.1000;0.1441;10.5136;
1142.4000;0.1441;10.5112;
1142.7000;0.1416;10.5136;
1143.0000;0.1319;10.4895;
1143.3000;0.1425;10.5136;
1143.6000;0.1425;10.5160;
1143.9000;0.1433;10.5160;
1144.2000;0.1473;10.5257;
1144.5000;0.1392;10.4943;
1144.8000;0.1449;10.5040;
1145.1000;0.1425;10.5016;
1145.4000;0.1425;10.4967;
1145.7000;0.1416;10.4967;
1146.0000;0.1433;10.4967;
1146.3000;0.1433;10.4991;
1146.6000;0.1441;10.4967;
1146.9000;0.1425;10.4967;
1147.2000;0.1433;10.5088;
1147.5000;0.1433;10.5160;
1147.8000;0.1473;10.5257;
1148.1000;0.1416;10.5112;
1148.4000;0.1433;10.5160;
1148.7000;0.1425;10.5088;
1149.0000;0.1457;10.5160;
1149.3000;0.1416;10.5040;
1149.6000;0.1449;10.4967;
1149.9000;0.1408;10.4871;
1150.2000;0.1425;10.4871;
1150.5000;0.1547;10.5136;
1150.8000;0.1376;10.4606;
1151.1000;0.1449;10.4823;
1151.4000;0.1433;10.4895;
1151.7000;0.1441;10.4823;
1152.0000;0.1425;10.4774;
1152.3000;0.1457;10.4847;
1152.6000;0.1433;10.4847;
1152.9000;0.1433;10.4895;
1153.2000;0.1441;10.4967;
1153.5000;0.1384;10.4726;
1153.8000;0.1449;10.4847;
1154.1000;0.1441;10.4871;
1154.4000;0.1433;10.4919;
1154.7000;0.1392;10.4847;
1155.0000;0.1400;10.4847;
1155.3000;0.1343;10.4726;
1155.6000;0.1449;10.4991;
1155.9000;0.1425;10.4943;
1156.2000;0.1384;10.4823;
1156.5000;0.1359;10.4799;
1156.8000;0.1425;10.4967;
1157.1000;0.1392;10.4847;
1157.4000;0.1327;10.4750;
1157.7000;0.1481;10.5136;
1158.0000;0.1302;10.4702;
1158.3000;0.1408;10.5016;
1158.6000;0.1465;10.5112;
1158.9000;0.1433;10.5088;
1159.2000;0.1425;10.5016;
1159.5000;0.1433;10.5040;
1159.8000;0.1433;10.5040;
1160.1000;0.1481;10.5257;
1160.4000;0.1457;10.5136;
1160.7000;0.1433;10.5112;
1161.0000;0.1416;10.5016;
1161.3000;0.1425;10.5016;
1161.6000;0.1425;10.4943;
1161.9000;0.1416;10.4799;
1162.2000;0.1425;10.4847;
1162.5000;0.1441;10.4919;
1162.8000;0.1441;10.4967;
1163.1000;0.1433;10.4991;
1163.4000;0.1449;10.5040;
1163.7000;0.1425;10.4991;
1164.0000;0.1506;10.5064;
1164.3000;0.1449;10.4967;
1164.6000;0.1433;10.4967;
1164.9000;0.1425;10.4919;
1165.2000;0.1481;10.5040;
1165.5000;0.1457;10.4967;
1165.8000;0.1416;10.4943;
1166.1000;0.1441;10.5016;
1166.4000;0.1425;10.4991;
1166.7000;0.1416;10.4919;
1167.0000;0.1408;10.4871;
1167.3000;0.1441;10.4943;
1167.6000;0.1457;10.5016;
1167.9000;0.1449;10.4991;
1168.2000;0.1416;10.4871;
1168.5000;0.1416;10.4967;
1168.8000;0.1449;10.5016;
1169.1000;0.1425;10.4895;
1169.4000;0.1425;10.4943;
1169.7000;0.1441;10.4943;
1170.0000;0.1433;10.4847;
1170.3000;0.1441;10.4774;
1170.6000;0.1449;10.4799;
1170.9000;0.1376;10.4702;
1171.2000;0.1425;10.4823;
1171.5000;0.1433;10.4895;
1171.8000;0.1449;10.4847;
1172.1000;0.1433;10.4774;
1172.4000;0.1425;10.4750;
1172.7000;0.1416;10.4702;
1173.0000;0.1433;10.4702;
1173.3000;0.1433;10.4702;
1173.6000;0.1416;10.4702;
1173.9000;0.1441;10.4750;
1174.2000;0.1457;10.4799;
1174.5000;0.1490;10.4895;
1174.8000;0.1408;10.4606;
1175.1000;0.1408;10.4606;
1175.4000;0.1441;10.4726;
1175.7000;0.1425;10.4726;
1176.0000;0.1433;10.4823;
1176.3000;0.1433;10.4871;
1176.6000;0.1449;10.4919;
1176.9000;0.1376;10.4678;
1177.2000;0.1481;10.4919;
1177.5000;0.1400;10.4799;
1177.8000;0.1408;10.4871;
1178.1000;0.1416;10.4847;
1178.4000;0.1425;10.4919;
1178.7000;0.1449;10.4943;
1179.0000;0.1368;10.4750;
1179.3000;0.1490;10.5112;
1179.6000;0.1433;10.4943;
1179.9000;0.1368;10.4678;
1180.2000;0.1311;10.4557;
1180.5000;0.1465;10.5040;
1180.8000;0.1416;10.4871;
1181.1000;0.1400;10.4895;
1181.4000;0.1368;10.4823;
1181.7000;0.1392;10.4895;
1182.0000;0.1408;10.4919;
1182.3000;0.1457;10.5016;
1182.6000;0.1441;10.4919;
1182.9000;0.1433;10.4919;
1183.2000;0.1425;10.4919;
1183.5000;0.1433;10.5040;
1183.8000;0.1433;10.5136;
1184.1000;0.1416;10.5088;
1184.4000;0.1433;10.5016;
1184.7000;0.1441;10.4847;
1185.0000;0.1425;10.4799;
1185.3000;0.1433;10.4823;
1185.6000;0.1433;10.4967;
1185.9000;0.1433;10.4967;
1186.2000;0.1498;10.5064;
1186.5000;0.1425;10.4895;
1186.8000;0.1425;10.4847;
1187.1000;0.1457;10.4967;
1187.4000;0.1416;10.4895;
1187.7000;0.1416;10.4871;
1188.0000;0.1465;10.4943;
1188.3000;0.1433;10.4895;
1188.6000;0.1441;10.4847;
1188.9000;0.1433;10.4871;
1189.2000;0.1449;10.4967;
1189.5000;0.1416;10.4967;
1189.8000;0.1441;10.5064;
1190.1000;0.1433;10.5016;
1190.4000;0.1514;10.5160;
1190.7000;0.1425;10.4943;
1191.0000;0.1408;10.4847;
1191.3000;0.1376;10.4726;
1191.6000;0.1416;10.4847;
1191.9000;0.1416;10.4895;
1192.2000;0.1416;10.4967;
1192.5000;0.1433;10.4991;
1192.8000;0.1408;10.4943;
1193.1000;0.1425;10.4895;
1193.4000;0.1376;10.4750;
1193.7000;0.1441;10.4847;
1194.0000;0.1433;10.4847;
1194.3000;0.1449;10.4823;
1194.6000;0.1441;10.4799;
1194.9000;0.1441;10.4895;
1195.2000;0.1392;10.4823;
1195.5000;0.1425;10.4967;
1195.8000;0.1416;10.4991;
1196.1000;0.1425;10.5040;
1196.4000;0.1449;10.5088;
1196.7000;0.1416;10.5016;
1197.0000;0.1457;10.4991;
1197.3000;0.1416;10.4871;
1197.6000;0.1425;10.4823;
1197.9000;0.1433;10.4774;
1198.2000;0.1506;10.5064;
1198.5000;0.1425;10.4895;
1198.8000;0.1441;10.4895;
1199.1000;0.1441;10.4823;
1199.4000;0.1441;10.4871;
1199.7000;0.1449;10.4895;
1200.0000;0.1441;10.4919;
1200.3000;0.1441;10.4895;
1200.6000;0.1441;10.4991;
1200.9000;0.1449;10.4919;
1201.2000;0.1441;10.4943;
1201.5000;0.1425;10.4943;
1201.8000;0.1425;10.4967;
1202.1000;0.1425;10.5040;
1202.4000;0.1384;10.4871;
1202.7000;0.1433;10.5016;
1203.0000;0.1416;10.4991;
1203.3000;0.1457;10.5112;
1203.6000;0.1433;10.5088;
1203.9000;0.1433;10.5040;
1204.2000;0.1433;10.5040;
1204.5000;0.1441;10.5088;
1204.8000;0.1449;10.5088;
1205.1000;0.1441;10.5112;
1205.4000;0.1416;10.4943;
1205.7000;0.1433;10.4871;
1206.0000;0.1449;10.4967;
1206.3000;0.1457;10.5016;
1206.6000;0.1433;10.4895;
1206.9000;0.1425;10.4919;
1207.2000;0.1425;10.4823;
1207.5000;0.1416;10.4823;
1207.8000;0.1433;10.4847;
1208.1000;0.1425;10.4847;
1208.4000;0.1433;10.4847;
1208.7000;0.1449;10.4943;
1209.0000;0.1441;10.4967;
1209.3000;0.1449;10.4991;
1209.6000;0.1433;10.4991;
1209.9000;0.1433;10.4991;
1210.2000;0.1449;10.4991;
1210.5000;0.1433;10.4943;
1210.8000;0.1425;10.4847;
1211.1000;0.1425;10.4823;
1211.4000;0.1433;10.4847;
1211.7000;0.1433;10.4871;
1212.0000;0.1416;10.4847;
1212.3000;0.1425;10.4895;
1212.6000;0.1433;10.5016;
1212.9000;0.1433;10.4895;
1213.2000;0.1425;10.4799;
1213.5000;0.1425;10.4847;
1213.8000;0.1433;10.4823;
1214.1000;0.1433;10.4702;
1214.4000;0.1408;10.4702;
1214.7000;0.1416;10.4774;
1215.0000;0.1425;10.4823;
1215.3000;0.1433;10.4847;
1215.6000;0.1441;10.4871;
1215.9000;0.1425;10.4871;
1216.2000;0.1433;10.4991;
1216.5000;0.1425;10.5040;
1216.8000;0.1425;10.5016;
1217.1000;0.1425;10.5040;
1217.4000;0.1400;10.4967;
1217.7000;0.1433;10.5064;
1218.0000;0.1408;10.5016;
1218.3000;0.1425;10.5016;
1218.6000;0.1408;10.4895;
1218.9000;0.1457;10.4991;
1219.2000;0.1433;10.4967;
1219.5000;0.1441;10.5040;
1219.8000;0.1425;10.5016;
1220.1000;0.1481;10.5136;
1220.4000;0.1416;10.4967;
1220.7000;0.1433;10.4895;
1221.0000;0.1441;10.4943;
1221.3000;0.1449;10.4967;
1221.6000;0.1441;10.4991;
1221.9000;0.1425;10.4967;
1222.2000;0.1449;10.4943;
1222.5000;0.1449;10.5016;
1222.8000;0.1425;10.4967;
1223.1000;0.1449;10.5016;
1223.4000;0.1408;10.4895;
1223.7000;0.1416;10.4871;
1224.0000;0.1425;10.4967;
1224.3000;0.1457;10.5064;
1224.6000;0.1425;10.5040;
1224.9000;0.1416;10.5064;
1225.2000;0.1441;10.5088;
1225.5000;0.1449;10.5160;
1225.8000;0.1408;10.5160;
1226.1000;0.1416;10.5112;
1226.4000;0.1433;10.5184;
1226.7000;0.1425;10.5257;
1227.0000;0.1433;10.5209;
1227.3000;0.1441;10.5184;
1227.6000;0.1416;10.5136;
1227.9000;0.1416;10.5184;
1228.2000;0.1311;10.4943;
1228.5000;0.1449;10.5329;
1228.8000;0.1441;10.5329;
1229.1000;0.1449;10.5426;
1229.4000;0.1425;10.5402;
1229.7000;0.1416;10.5377;
1230.0000;0.1441;10.5402;
1230.3000;0.1425;10.5353;
1230.6000;0.1449;10.5402;
1230.9000;0.1425;10.5353;
1231.2000;0.1441;10.5377;
1231.5000;0.1425;10.5329;
1231.8000;0.1425;10.5281;
1232.1000;0.1425;10.5257;
1232.4000;0.1408;10.5329;
1232.7000;0.1433;10.5305;
1233.0000;0.1457;10.5353;
1233.3000;0.1416;10.5233;
1233.6000;0.1408;10.5112;
1233.9000;0.1408;10.5088;
1234.2000;0.1433;10.5184;
1234.5000;0.1441;10.5209;
1234.8000;0.1473;10.5257;
1235.1000;0.1433;10.5136;
1235.4000;0.1416;10.5088;
1235.7000;0.1441;10.5064;
1236.0000;0.1425;10.5016;
1236.3000;0.1449;10.5136;
1236.6000;0.1433;10.5112;
1236.9000;0.1441;10.5112;
1237.2000;0.1425;10.5112;
1237.5000;0.1481;10.5233;
1237.8000;0.1416;10.4991;
1238.1000;0.1425;10.5016;
1238.4000;0.1506;10.5233;
1238.7000;0.1425;10.5064;
1239.0000;0.1425;10.5040;
1239.3000;0.1433;10.5088;
1239.6000;0.1433;10.5136;
1239.9000;0.1384;10.4991;
1240.2000;0.1433;10.5088;
1240.5000;0.1490;10.5184;
1240.8000;0.1441;10.4967;
1241.1000;0.1433;10.4823;
1241.4000;0.1441;10.4895;
1241.7000;0.1498;10.4991;
1242.0000;0.1400;10.4750;
1242.3000;0.1441;10.4871;
1242.6000;0.1481;10.4967;
1242.9000;0.1416;10.4895;
1243.2000;0.1441;10.4991;
1243.5000;0.1433;10.4919;
1243.8000;0.1449;10.4967;
1244.1000;0.1425;10.5016;
1244.4000;0.1425;10.4967;
1244.7000;0.1473;10.4943;
1245.0000;0.1416;10.4847;
1245.3000;0.1441;10.4871;
1245.6000;0.1441;10.4895;
1245.9000;0.1465;10.5016;
1246.2000;0.1449;10.4967;
1246.5000;0.1425;10.4919;
1246.8000;0.1441;10.4967;
1247.1000;0.1433;10.4895;
1247.4000;0.1425;10.4823;
1247.7000;0.1392;10.4678;
1248.0000;0.1425;10.4823;
1248.3000;0.1425;10.4943;
1248.6000;0.1425;10.4943;
1248.9000;0.1449;10.4895;
1249.2000;0.1433;10.4823;
1249.5000;0.1433;10.4799;
1249.8000;0.1433;10.4823;
1250.1000;0.1416;10.4750;
1250.4000;0.1441;10.4823;
1250.7000;0.1425;10.4847;
1251.0000;0.1433;10.4895;
1251.3000;0.1441;10.5016;
1251.6000;0.1457;10.5112;
1251.9000;0.1473;10.5209;
1252.2000;0.1457;10.5136;
1252.5000;0.1441;10.5136;
1252.8000;0.1425;10.5088;
1253.1000;0.1433;10.5136;
1253.4000;0.1449;10.5136;
1253.7000;0.1425;10.5016;
1254.0000;0.1441;10.5040;
1254.3000;0.1433;10.4919;
1254.6000;0.1441;10.4847;
1254.9000;0.1425;10.4871;
1255.2000;0.1425;10.4943;
1255.5000;0.1425;10.4991;
1255.8000;0.1449;10.5088;
1256.1000;0.1441;10.5088;
1256.4000;0.1449;10.5136;
1256.7000;0.1433;10.5040;
1257.0000;0.1457;10.4991;
1257.3000;0.1457;10.4943;
1257.6000;0.1441;10.4919;
1257.9000;0.1449;10.4871;
1258.2000;0.1441;10.4847;
1258.5000;0.1359;10.4702;
1258.8000;0.1441;10.4871;
1259.1000;0.1408;10.4799;
1259.4000;0.1416;10.4847;
1259.7000;0.1425;10.4871;
1260.0000;0.1433;10.4847;
1260.3000;0.1449;10.4823;
1260.6000;0.1408;10.4654;
1260.9000;0.1433;10.4750;
1261.2000;0.1449;10.4799;
1261.5000;0.1506;10.4991;
1261.8000;0.1425;10.4774;
1262.1000;0.1441;10.4895;
1262.4000;0.1408;10.4871;
1262.7000;0.1416;10.4847;
1263.0000;0.1392;10.4847;
1263.3000;0.1433;10.4895;
1263.6000;0.1425;10.4895;
1263.9000;0.1449;10.4967;
1264.2000;0.1441;10.4919;
1264.5000;0.1433;10.5064;
1264.8000;0.1425;10.4991;
1265.1000;0.1449;10.4967;
1265.4000;0.1449;10.4967;
1265.7000;0.1408;10.4871;
1266.0000;0.1425;10.4943;
1266.3000;0.1441;10.5016;
1266.6000;0.1392;10.4943;
1266.9000;0.1311;10.4726;
1267.2000;0.1425;10.4943;
1267.5000;0.1425;10.4943;
1267.8000;0.1425;10.4823;
1268.1000;0.1416;10.4895;
1268.4000;0.1425;10.4919;
1268.7000;0.1441;10.4991;
1269.0000;0.1425;10.5040;
1269.3000;0.1416;10.4991;
1269.6000;0.1416;10.4919;
1269.9000;0.1441;10.4943;
1270.2000;0.1425;10.4847;
1270.5000;0.1433;10.4871;
1270.8000;0.1416;10.4871;
1271.1000;0.1433;10.4967;
1271.4000;0.1441;10.4991;
1271.7000;0.1425;10.5016;
1272.0000;0.1425;10.5016;
1272.3000;0.1384;10.4967;
1272.6000;0.1449;10.5160;
1272.9000;0.1425;10.4991;
1273.2000;0.1498;10.5112;
1273.5000;0.1449;10.5016;
1273.8000;0.1433;10.5016;
1274.1000;0.1416;10.5040;
1274.4000;0.1425;10.4991;
1274.7000;0.1416;10.5040;
1275.0000;0.1416;10.5064;
1275.3000;0.1425;10.4991;
1275.6000;0.1441;10.5016;
1275.9000;0.1425;10.5016;
1276.2000;0.1425;10.5016;
1276.5000;0.1441;10.5040;
1276.8000;0.1433;10.5016;
1277.1000;0.1433;10.5112;
1277.4000;0.1433;10.5064;
1277.7000;0.1425;10.4967;
1278.0000;0.1506;10.5184;
1278.3000;0.1433;10.4943;
1278.6000;0.1449;10.4847;
1278.9000;0.1408;10.4702;
1279.2000;0.1449;10.4871;
1279.5000;0.1433;10.4847;
1279.8000;0.1416;10.4847;
1280.1000;0.1441;10.4967;
1280.4000;0.1441;10.4943;
1280.7000;0.1425;10.4943;
1281.0000;0.1425;10.4871;
1281.3000;0.1457;10.4991;
1281.6000;0.1425;10.4895;
1281.9000;0.1457;10.4943;
1282.2000;0.1425;10.4895;
1282.5000;0.1400;10.4726;
1282.8000;0.1441;10.4871;
1283.1000;0.1441;10.4847;
1283.4000;0.1433;10.4847;
1283.7000;0.1416;10.4774;
1284.0000;0.1473;10.4919;
1284.3000;0.1416;10.4726;
1284.6000;0.1433;10.4774;
1284.9000;0.1416;10.4702;
1285.2000;0.1416;10.4702;
1285.5000;0.1530;10.4991;
1285.8000;0.1425;10.4726;
1286.1000;0.1433;10.4774;
1286.4000;0.1400;10.4847;
1286.7000;0.1433;10.4895;
1287.0000;0.1481;10.4991;
1287.3000;0.1449;10.4895;
1287.6000;0.1416;10.4871;
1287.9000;0.1465;10.5064;
1288.2000;0.1441;10.4991;
1288.5000;0.1481;10.5112;
1288.8000;0.1441;10.4991;
1289.1000;0.1457;10.4895;
1289.4000;0.1416;10.4799;
1289.7000;0.1498;10.4967;
1290.0000;0.1522;10.5088;
1290.3000;0.1441;10.4919;
1290.6000;0.1433;10.4943;
1290.9000;0.1400;10.4750;
1291.2000;0.1425;10.4799;
1291.5000;0.1433;10.4871;
1291.8000;0.1449;10.5064;
1292.1000;0.1433;10.5184;
1292.4000;0.1433;10.5136;
1292.7000;0.1441;10.5088;
1293.0000;0.1449;10.5088;
1293.3000;0.1433;10.5064;
1293.6000;0.1441;10.5040;
1293.9000;0.1457;10.4991;
1294.2000;0.1392;10.4895;
1294.5000;0.1449;10.5016;
1294.8000;0.1416;10.4919;
1295.1000;0.1416;10.4847;
1295.4000;0.1441;10.4919;
1295.7000;0.1441;10.4871;
1296.0000;0.1416;10.4895;
1296.3000;0.1425;10.4895;
1296.6000;0.1416;10.4895;
1296.9000;0.1457;10.4919;
1297.2000;0.1425;10.4799;
1297.5000;0.1416;10.4823;
1297.8000;0.1441;10.4847;
1298.1000;0.1433;10.4847;
1298.4000;0.1376;10.4702;
1298.7000;0.1425;10.4871;
1299.0000;0.1384;10.4702;
1299.3000;0.1449;10.4847;
1299.6000;0.1408;10.4799;
1299.9000;0.1416;10.4750;
1300.2000;0.1416;10.4774;
1300.5000;0.1416;10.4847;
1300.8000;0.1457;10.4895;
1301.1000;0.1433;10.4871;
1301.4000;0.1425;10.4823;
1301.7000;0.1441;10.4919;
1302.0000;0.1368;10.4774;
1302.3000;0.1498;10.5136;
1302.6000;0.1392;10.4871;
1302.9000;0.1449;10.5040;
1303.2000;0.1441;10.5064;
1303.5000;0.1449;10.5016;
1303.8000;0.1441;10.4895;
1304.1000;0.1441;10.4871;
1304.4000;0.1425;10.4919;
1304.7000;0.1425;10.4967;
1305.0000;0.1425;10.4895;
1305.3000;0.1441;10.4943;
1305.6000;0.1457;10.5016;
1305.9000;0.1433;10.4967;
1306.2000;0.1416;10.4943;
1306.5000;0.1384;10.4919;
1306.8000;0.1441;10.5088;
1307.1000;0.1425;10.5040;
1307.4000;0.1449;10.4991;
1307.7000;0.1481;10.5160;
1308.0000;0.1425;10.4991;
1308.3000;0.1441;10.5064;
1308.6000;0.1425;10.4967;
1308.9000;0.1441;10.5040;
1309.2000;0.1433;10.5112;
1309.5000;0.1416;10.4991;
1309.8000;0.1433;10.4991;
1310.1000;0.1425;10.4943;
1310.4000;0.1416;10.4895;
1310.7000;0.1433;10.4799;
1311.0000;0.1441;10.4799;
1311.3000;0.1433;10.4774;
1311.6000;0.1433;10.4943;
1311.9000;0.1433;10.5016;
1312.2000;0.1473;10.5040;
1312.5000;0.1376;10.4774;
1312.8000;0.1425;10.4895;
1313.1000;0.1425;10.4919;
1313.4000;0.1433;10.4919;
1313.7000;0.1425;10.4895;
1314.0000;0.1465;10.4967;
1314.3000;0.1441;10.4823;
1314.6000;0.1473;10.4919;
1314.9000;0.1449;10.4823;
1315.2000;0.1441;10.4799;
1315.5000;0.1400;10.4702;
1315.8000;0.1449;10.4847;
1316.1000;0.1425;10.4823;
1316.4000;0.1408;10.4750;
1316.7000;0.1433;10.4799;
1317.0000;0.1433;10.4726;
1317.3000;0.1449;10.4799;
1317.6000;0.1433;10.4799;
1317.9000;0.1416;10.4799;
1318.2000;0.1433;10.4823;
1318.5000;0.1416;10.4847;
1318.8000;0.1400;10.4774;
1319.1000;0.1433;10.4823;
1319.4000;0.1449;10.4943;
1319.7000;0.1408;10.4871;
1320.0000;0.1408;10.4823;
1320.3000;0.1425;10.4895;
1320.6000;0.1425;10.4823;
1320.9000;0.1433;10.4799;
1321.2000;0.1408;10.4702;
1321.5000;0.1433;10.4799;
1321.8000;0.1425;10.4702;
1322.1000;0.1425;10.4799;
1322.4000;0.1425;10.4750;
1322.7000;0.1416;10.4799;
1323.0000;0.1416;10.4871;
1323.3000;0.1425;10.4919;
1323.6000;0.1457;10.5040;
1323.9000;0.1433;10.5064;
1324.2000;0.1425;10.5040;
1324.5000;0.1433;10.5064;
1324.8000;0.1433;10.4991;
1325.1000;0.1425;10.4943;
1325.4000;0.1425;10.4895;
1325.7000;0.1425;10.4919;
1326.0000;0.1441;10.4895;
1326.3000;0.1425;10.4847;
1326.6000;0.1408;10.4823;
1326.9000;0.1433;10.4919;
1327.2000;0.1376;10.4799;
1327.5000;0.1490;10.5112;
1327.8000;0.1441;10.4967;
1328.1000;0.1473;10.5112;
1328.4000;0.1392;10.4823;
1328.7000;0.1441;10.4943;
1329.0000;0.1400;10.4871;
1329.3000;0.1425;10.4871;
1329.6000;0.1408;10.4847;
1329.9000;0.1506;10.5136;
1330.2000;0.1425;10.4967;
1330.5000;0.1400;10.4919;
1330.8000;0.1441;10.5040;
1331.1000;0.1433;10.5040;
1331.4000;0.1416;10.4943;
1331.7000;0.1441;10.4967;
1332.0000;0.1425;10.4967;
1332.3000;0.1425;10.4943;
1332.6000;0.1408;10.4967;
1332.9000;0.1441;10.5064;
1333.2000;0.1416;10.5016;
1333.5000;0.1457;10.5136;
1333.8000;0.1433;10.5112;
1334.1000;0.1433;10.5112;
1334.4000;0.1433;10.5160;
1334.7000;0.1408;10.5136;
1335.0000;0.1416;10.5112;
1335.3000;0.1425;10.5160;
1335.6000;0.1433;10.5088;
1335.9000;0.1416;10.5064;
1336.2000;0.1425;10.5040;
1336.5000;0.1465;10.5136;
1336.8000;0.1425;10.5088;
1337.1000;0.1416;10.5064;
1337.4000;0.1425;10.5040;
1337.7000;0.1433;10.5112;
1338.0000;0.1416;10.4991;
1338.3000;0.1433;10.4967;
1338.6000;0.1465;10.5112;
1338.9000;0.1335;10.4702;
1339.2000;0.1433;10.4871;
1339.5000;0.1408;10.4799;
1339.8000;0.1441;10.4943;
1340.1000;0.1433;10.4967;
1340.4000;0.1416;10.4943;
1340.7000;0.1416;10.4967;
1341.0000;0.1433;10.5016;
1341.3000;0.1425;10.5016;
1341.6000;0.1425;10.5064;
1341.9000;0.1433;10.5088;
1342.2000;0.1408;10.5136;
1342.5000;0.1530;10.5522;
1342.8000;0.1433;10.5281;
1343.1000;0.1457;10.5184;
1343.4000;0.1425;10.5064;
1343.7000;0.1449;10.5064;
1344.0000;0.1416;10.5016;
1344.3000;0.1425;10.4991;
1344.6000;0.1449;10.5064;
1344.9000;0.1433;10.5064;
1345.2000;0.1311;10.4799;
1345.5000;0.1441;10.5136;
1345.8000;0.1441;10.5136;
1346.1000;0.1416;10.5016;
1346.4000;0.1425;10.5112;
1346.7000;0.1433;10.5040;
1347.0000;0.1441;10.5040;
1347.3000;0.1433;10.4991;
1347.6000;0.1530;10.5233;
1347.9000;0.1425;10.5040;
1348.2000;0.1441;10.5016;
1348.5000;0.1441;10.4991;
1348.8000;0.1408;10.4895;
1349.1000;0.1433;10.4943;
1349.4000;0.1457;10.5040;
1349.7000;0.1449;10.5016;
1350.0000;0.1441;10.4919;
1350.3000;0.1416;10.4871;
1350.6000;0.1449;10.4991;
1350.9000;0.1425;10.4895;
1351.2000;0.1425;10.4871;
1351.5000;0.1473;10.5064;
1351.8000;0.1416;10.4871;
1352.1000;0.1433;10.4919;
1352.4000;0.1400;10.4799;
1352.7000;0.1319;10.4581;
1353.0000;0.1441;10.4943;
1353.3000;0.1457;10.4967;
1353.6000;0.1441;10.4991;
1353.9000;0.1457;10.5016;
1354.2000;0.1425;10.5064;
1354.5000;0.1604;10.5546;
1354.8000;0.1425;10.5136;
1355.1000;0.1433;10.5184;
1355.4000;0.1416;10.5209;
1355.7000;0.1433;10.5233;
1356.0000;0.1433;10.5257;
1356.3000;0.1465;10.5257;
1356.6000;0.1465;10.5233;
1356.9000;0.1425;10.5088;
1357.2000;0.1416;10.5088;
1357.5000;0.1425;10.5064;
1357.8000;0.1457;10.5064;
1358.1000;0.1441;10.4967;
1358.4000;0.1449;10.4991;
1358.7000;0.1473;10.5016;
1359.0000;0.1416;10.4967;
1359.3000;0.1441;10.4943;
1359.6000;0.1425;10.4823;
1359.9000;0.1384;10.4702;
1360.2000;0.1408;10.4799;
1360.5000;0.1408;10.4726;
1360.8000;0.1457;10.4967;
1361.1000;0.1433;10.4919;
1361.4000;0.1433;10.4919;
1361.7000;0.1433;10.4871;
1362.0000;0.1416;10.4847;
1362.3000;0.1425;10.4919;
1362.6000;0.1441;10.4871;
1362.9000;0.1433;10.4871;
1363.2000;0.1465;10.4967;
1363.5000;0.1416;10.4895;
1363.8000;0.1490;10.5064;
1364.1000;0.1449;10.4943;
1364.4000;0.1425;10.4967;
1364.7000;0.1449;10.5064;
1365.0000;0.1449;10.5112;
1365.3000;0.1351;10.4895;
1365.6000;0.1449;10.5040;
1365.9000;0.1441;10.4991;
1366.2000;0.1441;10.4943;
1366.5000;0.1425;10.4967;
1366.8000;0.1425;10.5112;
1367.1000;0.1425;10.5064;
1367.4000;0.1433;10.5040;
1367.7000;0.1425;10.4991;
1368.0000;0.1433;10.5088;
1368.3000;0.1416;10.4967;
1368.6000;0.1441;10.5064;
1368.9000;0.1425;10.5040;
1369.2000;0.1433;10.5040;
1369.5000;0.1465;10.5112;
1369.8000;0.1433;10.4967;
1370.1000;0.1425;10.4895;
1370.4000;0.1425;10.4919;
1370.7000;0.1433;10.4967;
1371.0000;0.1457;10.4991;
1371.3000;0.1416;10.4847;
1371.6000;0.1416;10.4895;
1371.9000;0.1433;10.4823;
1372.2000;0.1433;10.4823;
1372.5000;0.1416;10.4799;
1372.8000;0.1425;10.4823;
1373.1000;0.1425;10.4823;
1373.4000;0.1449;10.4943;
1373.7000;0.1343;10.4823;
1374.0000;0.1433;10.5040;
1374.3000;0.1441;10.5112;
1374.6000;0.1425;10.5112;
1374.9000;0.1384;10.4895;
1375.2000;0.1425;10.4967;
1375.5000;0.1441;10.4991;
1375.8000;0.1408;10.4895;
1376.1000;0.1425;10.4943;
1376.4000;0.1457;10.5064;
1376.7000;0.1433;10.5040;
1377.0000;0.1449;10.5016;
1377.3000;0.1441;10.5112;
1377.6000;0.1449;10.5160;
1377.9000;0.1433;10.5088;
1378.2000;0.1425;10.5088;
1378.5000;0.1433;10.5064;
1378.8000;0.1449;10.5064;
1379.1000;0.1441;10.5064;
1379.4000;0.1408;10.5040;
1379.7000;0.1433;10.5040;
1380.0000;0.1425;10.5064;
1380.3000;0.1441;10.5112;
1380.6000;0.1498;10.5233;
1380.9000;0.1425;10.5040;
1381.2000;0.1425;10.4967;
1381.5000;0.1433;10.4943;
1381.8000;0.1465;10.5040;
1382.1000;0.1416;10.4991;
1382.4000;0.1457;10.5040;
1382.7000;0.1441;10.5016;
1383.0000;0.1433;10.4967;
1383.3000;0.1425;10.4943;
1383.6000;0.1416;10.4871;
1383.9000;0.1400;10.4847;
1384.2000;0.1449;10.4967;
1384.5000;0.1425;10.4847;
1384.8000;0.1433;10.4847;
1385.1000;0.1433;10.4799;
1385.4000;0.1384;10.4726;
1385.7000;0.1433;10.4895;
1386.0000;0.1416;10.4943;
1386.3000;0.1441;10.4943;
1386.6000;0.1408;10.4823;
1386.9000;0.1400;10.4871;
1387.2000;0.1441;10.4943;
1387.5000;0.1457;10.4943;
1387.8000;0.1384;10.4750;
1388.1000;0.1416;10.4847;
1388.4000;0.1384;10.4726;
1388.7000;0.1441;10.4895;
1389.0000;0.1449;10.4991;
1389.3000;0.1416;10.4919;
1389.6000;0.1416;10.4895;
1389.9000;0.1490;10.5088;
1390.2000;0.1449;10.4967;
1390.5000;0.1441;10.4967;
1390.8000;0.1433;10.5016;
1391.1000;0.1392;10.4871;
1391.4000;0.1441;10.5040;
1391.7000;0.1425;10.4943;
1392.0000;0.1449;10.4919;
1392.3000;0.1416;10.4871;
1392.6000;0.1433;10.4847;
1392.9000;0.1441;10.4823;
1393.2000;0.1376;10.4678;
1393.5000;0.1441;10.4774;
1393.8000;0.1425;10.4750;
1394.1000;0.1473;10.4871;
1394.4000;0.1457;10.4774;
1394.7000;0.1416;10.4557;
1395.0000;0.1433;10.4485;
1395.3000;0.1433;10.4509;
1395.6000;0.1433;10.4509;
1395.9000;0.1425;10.4509;
1396.2000;0.1441;10.4533;
1396.5000;0.1465;10.4654;
1396.8000;0.1457;10.4774;
1397.1000;0.1457;10.4919;
1397.4000;0.1449;10.4895;
1397.7000;0.1433;10.4847;
1398.0000;0.1457;10.4919;
1398.3000;0.1425;10.4919;
1398.6000;0.1457;10.4967;
1398.9000;0.1433;10.5088;
1399.2000;0.1441;10.5136;
1399.5000;0.1392;10.5016;
1399.8000;0.1416;10.5064;
