time/ms;Fluo/V;P700 deltaI/I x10³;
-199.8000;0.1481;10.4847;
-199.5000;0.1465;10.4726;
-199.2000;0.1465;10.4678;
-198.9000;0.1490;10.4726;
-198.6000;0.1498;10.4702;
-198.3000;0.1481;10.4630;
-198.0000;0.1457;10.4509;
-197.7000;0.1473;10.4533;
-197.4000;0.1473;10.4581;
-197.1000;0.1490;10.4630;
-196.8000;0.1498;10.4678;
-196.5000;0.1490;10.4678;
-196.2000;0.1465;10.4654;
-195.9000;0.1481;10.4557;
-195.6000;0.1490;10.4654;
-195.3000;0.1473;10.4581;
-195.0000;0.1587;10.4991;
-194.7000;0.1490;10.4630;
-194.4000;0.1506;10.4630;
-194.1000;0.1490;10.4702;
-193.8000;0.1481;10.4581;
-193.5000;0.1636;10.4919;
-193.2000;0.1506;10.4509;
-192.9000;0.1481;10.4461;
-192.6000;0.1579;10.4630;
-192.3000;0.1514;10.4509;
-192.0000;0.1498;10.4509;
-191.7000;0.1498;10.4533;
-191.4000;0.1506;10.4581;
-191.1000;0.1481;10.4533;
-190.8000;0.1490;10.4581;
-190.5000;0.1498;10.4581;
-190.2000;0.1498;10.4606;
-189.9000;0.1506;10.4630;
-189.6000;0.1498;10.4606;
-189.3000;0.1506;10.4630;
-189.0000;0.1490;10.4606;
-188.7000;0.1514;10.4606;
-188.4000;0.1498;10.4606;
-188.1000;0.1498;10.4557;
-187.8000;0.1506;10.4581;
-187.5000;0.1481;10.4557;
-187.2000;0.1498;10.4557;
-186.9000;0.1595;10.4799;
-186.6000;0.1490;10.4509;
-186.3000;0.1490;10.4509;
-186.0000;0.1481;10.4461;
-185.7000;0.1490;10.4461;
-185.4000;0.1473;10.4485;
-185.1000;0.1498;10.4630;
-184.8000;0.1498;10.4654;
-184.5000;0.1384;10.4485;
-184.2000;0.1490;10.4654;
-183.9000;0.1547;10.4823;
-183.6000;0.1481;10.4654;
-183.3000;0.1498;10.4750;
-183.0000;0.1498;10.4750;
-182.7000;0.1441;10.4485;
-182.4000;0.1490;10.4557;
-182.1000;0.1530;10.4654;
-181.8000;0.1449;10.4437;
-181.5000;0.1490;10.4533;
-181.2000;0.1498;10.4485;
-180.9000;0.1490;10.4461;
-180.6000;0.1538;10.4581;
-180.3000;0.1522;10.4557;
-180.0000;0.1547;10.4581;
-179.7000;0.1498;10.4509;
-179.4000;0.1457;10.4485;
-179.1000;0.1490;10.4654;
-178.8000;0.1498;10.4654;
-178.5000;0.1514;10.4630;
-178.2000;0.1587;10.4919;
-177.9000;0.1506;10.4654;
-177.6000;0.1498;10.4630;
-177.3000;0.1490;10.4581;
-177.0000;0.1490;10.4509;
-176.7000;0.1555;10.4702;
-176.4000;0.1506;10.4581;
-176.1000;0.1473;10.4461;
-175.8000;0.1498;10.4509;
-175.5000;0.1481;10.4437;
-175.2000;0.1506;10.4533;
-174.9000;0.1490;10.4509;
-174.6000;0.1473;10.4485;
-174.3000;0.1481;10.4581;
-174.0000;0.1481;10.4581;
-173.7000;0.1563;10.4702;
-173.4000;0.1481;10.4581;
-173.1000;0.1498;10.4557;
-172.8000;0.1498;10.4533;
-172.5000;0.1490;10.4509;
-172.2000;0.1473;10.4461;
-171.9000;0.1498;10.4606;
-171.6000;0.1579;10.4871;
-171.3000;0.1498;10.4630;
-171.0000;0.1498;10.4606;
-170.7000;0.1425;10.4485;
-170.4000;0.1571;10.4871;
-170.1000;0.1490;10.4678;
-169.8000;0.1473;10.4726;
-169.5000;0.1498;10.4750;
-169.2000;0.1506;10.4606;
-168.9000;0.1490;10.4533;
-168.6000;0.1425;10.4340;
-168.3000;0.1457;10.4437;
-168.0000;0.1522;10.4630;
-167.7000;0.1514;10.4581;
-167.4000;0.1490;10.4581;
-167.1000;0.1376;10.4268;
-166.8000;0.1465;10.4437;
-166.5000;0.1490;10.4533;
-166.2000;0.1506;10.4606;
-165.9000;0.1457;10.4413;
-165.6000;0.1490;10.4557;
-165.3000;0.1490;10.4606;
-165.0000;0.1506;10.4654;
-164.7000;0.1481;10.4557;
-164.4000;0.1522;10.4678;
-164.1000;0.1473;10.4557;
-163.8000;0.1473;10.4533;
-163.5000;0.1506;10.4630;
-163.2000;0.1571;10.4726;
-162.9000;0.1457;10.4509;
-162.6000;0.1490;10.4630;
-162.3000;0.1481;10.4630;
-162.0000;0.1490;10.4606;
-161.7000;0.1465;10.4533;
-161.4000;0.1498;10.4774;
-161.1000;0.1498;10.4678;
-160.8000;0.1473;10.4581;
-160.5000;0.1530;10.4678;
-160.2000;0.1530;10.4630;
-159.9000;0.1490;10.4606;
-159.6000;0.1433;10.4509;
-159.3000;0.1416;10.4533;
-159.0000;0.1481;10.4678;
-158.7000;0.1514;10.4702;
-158.4000;0.1506;10.4654;
-158.1000;0.1490;10.4678;
-157.8000;0.1481;10.4654;
-157.5000;0.1481;10.4606;
-157.2000;0.1490;10.4654;
-156.9000;0.1481;10.4630;
-156.6000;0.1498;10.4654;
-156.3000;0.1498;10.4581;
-156.0000;0.1498;10.4630;
-155.7000;0.1481;10.4557;
-155.4000;0.1506;10.4654;
-155.1000;0.1490;10.4678;
-154.8000;0.1490;10.4606;
-154.5000;0.1506;10.4654;
-154.2000;0.1506;10.4630;
-153.9000;0.1481;10.4606;
-153.6000;0.1498;10.4750;
-153.3000;0.1506;10.4630;
-153.0000;0.1563;10.4871;
-152.7000;0.1538;10.4799;
-152.4000;0.1498;10.4630;
-152.1000;0.1490;10.4702;
-151.8000;0.1490;10.4678;
-151.5000;0.1498;10.4726;
-151.2000;0.1465;10.4630;
-150.9000;0.1498;10.4702;
-150.6000;0.1449;10.4509;
-150.3000;0.1498;10.4581;
-150.0000;0.1547;10.4726;
-149.7000;0.1506;10.4581;
-149.4000;0.1506;10.4678;
-149.1000;0.1449;10.4581;
-148.8000;0.1498;10.4606;
-148.5000;0.1506;10.4606;
-148.2000;0.1481;10.4557;
-147.9000;0.1530;10.4630;
-147.6000;0.1481;10.4533;
-147.3000;0.1498;10.4581;
-147.0000;0.1465;10.4557;
-146.7000;0.1506;10.4702;
-146.4000;0.1490;10.4630;
-146.1000;0.1490;10.4581;
-145.8000;0.1498;10.4654;
-145.5000;0.1490;10.4654;
-145.2000;0.1473;10.4678;
-144.9000;0.1498;10.4654;
-144.6000;0.1473;10.4533;
-144.3000;0.1473;10.4533;
-144.0000;0.1481;10.4581;
-143.7000;0.1506;10.4630;
-143.4000;0.1514;10.4654;
-143.1000;0.1490;10.4557;
-142.8000;0.1514;10.4630;
-142.5000;0.1481;10.4557;
-142.2000;0.1490;10.4581;
-141.9000;0.1514;10.4678;
-141.6000;0.1473;10.4581;
-141.3000;0.1481;10.4581;
-141.0000;0.1490;10.4557;
-140.7000;0.1522;10.4654;
-140.4000;0.1498;10.4606;
-140.1000;0.1481;10.4606;
-139.8000;0.1514;10.4678;
-139.5000;0.1481;10.4509;
-139.2000;0.1473;10.4437;
-138.9000;0.1481;10.4485;
-138.6000;0.1498;10.4581;
-138.3000;0.1490;10.4581;
-138.0000;0.1506;10.4678;
-137.7000;0.1498;10.4606;
-137.4000;0.1490;10.4630;
-137.1000;0.1522;10.4678;
-136.8000;0.1498;10.4581;
-136.5000;0.1498;10.4702;
-136.2000;0.1490;10.4606;
-135.9000;0.1506;10.4726;
-135.6000;0.1563;10.4871;
-135.3000;0.1490;10.4654;
-135.0000;0.1449;10.4509;
-134.7000;0.1530;10.4726;
-134.4000;0.1400;10.4364;
-134.1000;0.1506;10.4630;
-133.8000;0.1514;10.4702;
-133.5000;0.1514;10.4630;
-133.2000;0.1514;10.4630;
-132.9000;0.1465;10.4437;
-132.6000;0.1530;10.4581;
-132.3000;0.1433;10.4316;
-132.0000;0.1498;10.4485;
-131.7000;0.1571;10.4630;
-131.4000;0.1465;10.4389;
-131.1000;0.1490;10.4485;
-130.8000;0.1490;10.4557;
-130.5000;0.1425;10.4389;
-130.2000;0.1498;10.4485;
-129.9000;0.1473;10.4437;
-129.6000;0.1457;10.4509;
-129.3000;0.1506;10.4606;
-129.0000;0.1490;10.4509;
-128.7000;0.1579;10.4750;
-128.4000;0.1498;10.4509;
-128.1000;0.1481;10.4509;
-127.8000;0.1490;10.4606;
-127.5000;0.1481;10.4533;
-127.2000;0.1490;10.4557;
-126.9000;0.1481;10.4485;
-126.6000;0.1498;10.4533;
-126.3000;0.1498;10.4485;
-126.0000;0.1473;10.4461;
-125.7000;0.1490;10.4461;
-125.4000;0.1490;10.4461;
-125.1000;0.1481;10.4340;
-124.8000;0.1498;10.4437;
-124.5000;0.1498;10.4461;
-124.2000;0.1498;10.4461;
-123.9000;0.1473;10.4485;
-123.6000;0.1498;10.4485;
-123.3000;0.1506;10.4557;
-123.0000;0.1481;10.4533;
-122.7000;0.1514;10.4533;
-122.4000;0.1490;10.4389;
-122.1000;0.1490;10.4389;
-121.8000;0.1481;10.4364;
-121.5000;0.1514;10.4413;
-121.2000;0.1514;10.4485;
-120.9000;0.1514;10.4413;
-120.6000;0.1473;10.4268;
-120.3000;0.1481;10.4292;
-120.0000;0.1490;10.4292;
-119.7000;0.1481;10.4268;
-119.4000;0.1481;10.4268;
-119.1000;0.1506;10.4413;
-118.8000;0.1498;10.4413;
-118.5000;0.1522;10.4461;
-118.2000;0.1465;10.4389;
-117.9000;0.1490;10.4437;
-117.6000;0.1433;10.4244;
-117.3000;0.1498;10.4389;
-117.0000;0.1498;10.4364;
-116.7000;0.1514;10.4461;
-116.4000;0.1481;10.4461;
-116.1000;0.1506;10.4509;
-115.8000;0.1441;10.4413;
-115.5000;0.1506;10.4485;
-115.2000;0.1490;10.4389;
-114.9000;0.1416;10.4244;
-114.6000;0.1481;10.4389;
-114.3000;0.1392;10.4196;
-114.0000;0.1514;10.4509;
-113.7000;0.1506;10.4581;
-113.4000;0.1498;10.4581;
-113.1000;0.1506;10.4606;
-112.8000;0.1579;10.4799;
-112.5000;0.1506;10.4702;
-112.2000;0.1490;10.4654;
-111.9000;0.1498;10.4702;
-111.6000;0.1490;10.4774;
-111.3000;0.1506;10.4750;
-111.0000;0.1522;10.4678;
-110.7000;0.1481;10.4509;
-110.4000;0.1465;10.4389;
-110.1000;0.1538;10.4606;
-109.8000;0.1498;10.4557;
-109.5000;0.1481;10.4581;
-109.2000;0.1490;10.4630;
-108.9000;0.1490;10.4726;
-108.6000;0.1490;10.4654;
-108.3000;0.1506;10.4630;
-108.0000;0.1547;10.4702;
-107.7000;0.1506;10.4654;
-107.4000;0.1498;10.4654;
-107.1000;0.1498;10.4678;
-106.8000;0.1506;10.4774;
-106.5000;0.1506;10.4895;
-106.2000;0.1498;10.4774;
-105.9000;0.1506;10.4702;
-105.6000;0.1481;10.4654;
-105.3000;0.1514;10.4726;
-105.0000;0.1498;10.4678;
-104.7000;0.1481;10.4630;
-104.4000;0.1490;10.4581;
-104.1000;0.1481;10.4581;
-103.8000;0.1481;10.4606;
-103.5000;0.1498;10.4630;
-103.2000;0.1481;10.4533;
-102.9000;0.1490;10.4581;
-102.6000;0.1506;10.4557;
-102.3000;0.1490;10.4509;
-102.0000;0.1416;10.4340;
-101.7000;0.1498;10.4485;
-101.4000;0.1465;10.4316;
-101.1000;0.1481;10.4220;
-100.8000;0.1498;10.4340;
-100.5000;0.1481;10.4340;
-100.2000;0.1498;10.4437;
-99.9000;0.1473;10.4485;
-99.6000;0.1506;10.4509;
-99.3000;0.1481;10.4413;
-99.0000;0.1490;10.4485;
-98.7000;0.1506;10.4509;
-98.4000;0.1490;10.4509;
-98.1000;0.1506;10.4557;
-97.8000;0.1490;10.4509;
-97.5000;0.1506;10.4533;
-97.2000;0.1506;10.4485;
-96.9000;0.1514;10.4437;
-96.6000;0.1490;10.4461;
-96.3000;0.1498;10.4437;
-96.0000;0.1490;10.4364;
-95.7000;0.1506;10.4461;
-95.4000;0.1490;10.4485;
-95.1000;0.1498;10.4485;
-94.8000;0.1498;10.4509;
-94.5000;0.1473;10.4413;
-94.2000;0.1498;10.4389;
-93.9000;0.1465;10.4292;
-93.6000;0.1571;10.4630;
-93.3000;0.1530;10.4533;
-93.0000;0.1481;10.4533;
-92.7000;0.1514;10.4557;
-92.4000;0.1498;10.4485;
-92.1000;0.1465;10.4413;
-91.8000;0.1514;10.4557;
-91.5000;0.1481;10.4437;
-91.2000;0.1498;10.4461;
-90.9000;0.1481;10.4509;
-90.6000;0.1555;10.4678;
-90.3000;0.1416;10.4389;
-90.0000;0.1498;10.4678;
-89.7000;0.1481;10.4654;
-89.4000;0.1490;10.4606;
-89.1000;0.1465;10.4509;
-88.8000;0.1481;10.4581;
-88.5000;0.1490;10.4654;
-88.2000;0.1416;10.4437;
-87.9000;0.1498;10.4581;
-87.6000;0.1490;10.4509;
-87.3000;0.1571;10.4654;
-87.0000;0.1522;10.4557;
-86.7000;0.1473;10.4581;
-86.4000;0.1490;10.4726;
-86.1000;0.1473;10.4799;
-85.8000;0.1498;10.4774;
-85.5000;0.1514;10.4702;
-85.2000;0.1490;10.4533;
-84.9000;0.1571;10.4726;
-84.6000;0.1506;10.4606;
-84.3000;0.1522;10.4702;
-84.0000;0.1490;10.4606;
-83.7000;0.1481;10.4606;
-83.4000;0.1522;10.4557;
-83.1000;0.1490;10.4461;
-82.8000;0.1498;10.4461;
-82.5000;0.1498;10.4485;
-82.2000;0.1490;10.4437;
-81.9000;0.1498;10.4557;
-81.6000;0.1481;10.4533;
-81.3000;0.1514;10.4557;
-81.0000;0.1498;10.4485;
-80.7000;0.1506;10.4485;
-80.4000;0.1481;10.4509;
-80.1000;0.1498;10.4557;
-79.8000;0.1498;10.4581;
-79.5000;0.1490;10.4606;
-79.2000;0.1490;10.4581;
-78.9000;0.1481;10.4557;
-78.6000;0.1481;10.4461;
-78.3000;0.1473;10.4533;
-78.0000;0.1376;10.4316;
-77.7000;0.1473;10.4581;
-77.4000;0.1481;10.4533;
-77.1000;0.1506;10.4509;
-76.8000;0.1433;10.4437;
-76.5000;0.1506;10.4606;
-76.2000;0.1481;10.4485;
-75.9000;0.1473;10.4509;
-75.6000;0.1506;10.4509;
-75.3000;0.1498;10.4509;
-75.0000;0.1490;10.4437;
-74.7000;0.1490;10.4461;
-74.4000;0.1481;10.4461;
-74.1000;0.1506;10.4485;
-73.8000;0.1490;10.4413;
-73.5000;0.1481;10.4316;
-73.2000;0.1473;10.4292;
-72.9000;0.1490;10.4340;
-72.6000;0.1473;10.4389;
-72.3000;0.1481;10.4389;
-72.0000;0.1481;10.4389;
-71.7000;0.1498;10.4461;
-71.4000;0.1490;10.4413;
-71.1000;0.1498;10.4461;
-70.8000;0.1522;10.4461;
-70.5000;0.1481;10.4389;
-70.2000;0.1481;10.4413;
-69.9000;0.1449;10.4292;
-69.6000;0.1449;10.4196;
-69.3000;0.1490;10.4244;
-69.0000;0.1490;10.4268;
-68.7000;0.1490;10.4220;
-68.4000;0.1490;10.4292;
-68.1000;0.1498;10.4268;
-67.8000;0.1481;10.4196;
-67.5000;0.1555;10.4413;
-67.2000;0.1498;10.4292;
-66.9000;0.1498;10.4340;
-66.6000;0.1498;10.4364;
-66.3000;0.1490;10.4364;
-66.0000;0.1481;10.4389;
-65.7000;0.1490;10.4413;
-65.4000;0.1490;10.4485;
-65.1000;0.1490;10.4461;
-64.8000;0.1514;10.4461;
-64.5000;0.1514;10.4413;
-64.2000;0.1481;10.4413;
-63.9000;0.1416;10.4171;
-63.6000;0.1490;10.4244;
-63.3000;0.1481;10.4220;
-63.0000;0.1498;10.4244;
-62.7000;0.1490;10.4196;
-62.4000;0.1490;10.4220;
-62.1000;0.1392;10.4051;
-61.8000;0.1506;10.4389;
-61.5000;0.1538;10.4630;
-61.2000;0.1481;10.4509;
-60.9000;0.1506;10.4533;
-60.6000;0.1490;10.4606;
-60.3000;0.1498;10.4606;
-60.0000;0.1498;10.4581;
-59.7000;0.1498;10.4533;
-59.4000;0.1481;10.4461;
-59.1000;0.1506;10.4461;
-58.8000;0.1498;10.4389;
-58.5000;0.1490;10.4437;
-58.2000;0.1506;10.4485;
-57.9000;0.1522;10.4461;
-57.6000;0.1490;10.4437;
-57.3000;0.1465;10.4461;
-57.0000;0.1481;10.4533;
-56.7000;0.1490;10.4557;
-56.4000;0.1506;10.4581;
-56.1000;0.1490;10.4485;
-55.8000;0.1506;10.4461;
-55.5000;0.1490;10.4485;
-55.2000;0.1498;10.4581;
-54.9000;0.1514;10.4702;
-54.6000;0.1490;10.4630;
-54.3000;0.1506;10.4581;
-54.0000;0.1490;10.4606;
-53.7000;0.1522;10.4702;
-53.4000;0.1473;10.4606;
-53.1000;0.1498;10.4654;
-52.8000;0.1506;10.4678;
-52.5000;0.1506;10.4654;
-52.2000;0.1506;10.4581;
-51.9000;0.1490;10.4485;
-51.6000;0.1490;10.4509;
-51.3000;0.1498;10.4437;
-51.0000;0.1498;10.4509;
-50.7000;0.1473;10.4413;
-50.4000;0.1506;10.4485;
-50.1000;0.1498;10.4533;
-49.8000;0.1522;10.4702;
-49.5000;0.1490;10.4606;
-49.2000;0.1506;10.4654;
-48.9000;0.1506;10.4678;
-48.6000;0.1498;10.4630;
-48.3000;0.1498;10.4606;
-48.0000;0.1473;10.4509;
-47.7000;0.1522;10.4606;
-47.4000;0.1465;10.4509;
-47.1000;0.1514;10.4678;
-46.8000;0.1481;10.4630;
-46.5000;0.1506;10.4678;
-46.2000;0.1490;10.4654;
-45.9000;0.1498;10.4630;
-45.6000;0.1498;10.4630;
-45.3000;0.1506;10.4606;
-45.0000;0.1498;10.4606;
-44.7000;0.1498;10.4630;
-44.4000;0.1555;10.4799;
-44.1000;0.1498;10.4606;
-43.8000;0.1498;10.4533;
-43.5000;0.1449;10.4340;
-43.2000;0.1514;10.4461;
-42.9000;0.1498;10.4485;
-42.6000;0.1473;10.4413;
-42.3000;0.1490;10.4485;
-42.0000;0.1612;10.4823;
-41.7000;0.1498;10.4654;
-41.4000;0.1498;10.4654;
-41.1000;0.1498;10.4654;
-40.8000;0.1449;10.4581;
-40.5000;0.1457;10.4606;
-40.2000;0.1563;10.4702;
-39.9000;0.1481;10.4509;
-39.6000;0.1490;10.4533;
-39.3000;0.1465;10.4437;
-39.0000;0.1506;10.4509;
-38.7000;0.1506;10.4509;
-38.4000;0.1498;10.4630;
-38.1000;0.1490;10.4581;
-37.8000;0.1473;10.4485;
-37.5000;0.1473;10.4461;
-37.2000;0.1490;10.4509;
-36.9000;0.1538;10.4678;
-36.6000;0.1498;10.4557;
-36.3000;0.1465;10.4485;
-36.0000;0.1490;10.4630;
-35.7000;0.1481;10.4630;
-35.4000;0.1498;10.4581;
-35.1000;0.1514;10.4702;
-34.8000;0.1481;10.4581;
-34.5000;0.1506;10.4630;
-34.2000;0.1490;10.4557;
-33.9000;0.1506;10.4509;
-33.6000;0.1481;10.4437;
-33.3000;0.1481;10.4509;
-33.0000;0.1490;10.4557;
-32.7000;0.1481;10.4654;
-32.4000;0.1490;10.4630;
-32.1000;0.1490;10.4678;
-31.8000;0.1490;10.4557;
-31.5000;0.1473;10.4533;
-31.2000;0.1498;10.4581;
-30.9000;0.1555;10.4774;
-30.6000;0.1481;10.4557;
-30.3000;0.1490;10.4557;
-30.0000;0.1425;10.4413;
-29.7000;0.1498;10.4606;
-29.4000;0.1457;10.4509;
-29.1000;0.1473;10.4509;
-28.8000;0.1473;10.4461;
-28.5000;0.1490;10.4557;
-28.2000;0.1481;10.4485;
-27.9000;0.1481;10.4461;
-27.6000;0.1538;10.4533;
-27.3000;0.1498;10.4557;
-27.0000;0.1506;10.4557;
-26.7000;0.1425;10.4340;
-26.4000;0.1490;10.4606;
-26.1000;0.1473;10.4557;
-25.8000;0.1481;10.4533;
-25.5000;0.1522;10.4606;
-25.2000;0.1481;10.4630;
-24.9000;0.1498;10.4630;
-24.6000;0.1514;10.4606;
-24.3000;0.1490;10.4533;
-24.0000;0.1481;10.4437;
-23.7000;0.1563;10.4678;
-23.4000;0.1498;10.4557;
-23.1000;0.1514;10.4630;
-22.8000;0.1481;10.4581;
-22.5000;0.1514;10.4654;
-22.2000;0.1425;10.4413;
-21.9000;0.1498;10.4630;
-21.6000;0.1506;10.4654;
-21.3000;0.1481;10.4630;
-21.0000;0.1481;10.4654;
-20.7000;0.1498;10.4630;
-20.4000;0.1514;10.4678;
-20.1000;0.1400;10.4364;
-19.8000;0.1530;10.4726;
-19.5000;0.1547;10.4726;
-19.2000;0.1473;10.4485;
-18.9000;0.1498;10.4485;
-18.6000;0.1433;10.4364;
-18.3000;0.1498;10.4557;
-18.0000;0.1498;10.4533;
-17.7000;0.1481;10.4461;
-17.4000;0.1473;10.4461;
-17.1000;0.1473;10.4461;
-16.8000;0.1481;10.4461;
-16.5000;0.1490;10.4413;
-16.2000;0.1490;10.4413;
-15.9000;0.1498;10.4437;
-15.6000;0.1481;10.4389;
-15.3000;0.1481;10.4437;
-15.0000;0.1473;10.4485;
-14.7000;0.1506;10.4654;
-14.4000;0.1579;10.4823;
-14.1000;0.1498;10.4630;
-13.8000;0.1408;10.4509;
-13.5000;0.1498;10.4750;
-13.2000;0.1498;10.4726;
-12.9000;0.1498;10.4702;
-12.6000;0.1506;10.4630;
-12.3000;0.1514;10.4557;
-12.0000;0.1490;10.4509;
-11.7000;0.1481;10.4364;
-11.4000;0.1506;10.4292;
-11.1000;0.1490;10.4316;
-10.8000;0.1490;10.4268;
-10.5000;0.1490;10.4220;
-10.2000;0.1481;10.4292;
-9.9000;0.1425;10.4171;
-9.6000;0.1498;10.4364;
-9.3000;0.1473;10.4413;
-9.0000;0.1506;10.4533;
-8.7000;0.1441;10.4413;
-8.4000;0.1498;10.4557;
-8.1000;0.1498;10.4557;
-7.8000;0.1490;10.4533;
-7.5000;0.1481;10.4461;
-7.2000;0.1490;10.4413;
-6.9000;0.1498;10.4461;
-6.6000;0.1490;10.4533;
-6.3000;0.1473;10.4606;
-6.0000;0.1498;10.4606;
-5.7000;0.1522;10.4702;
-5.4000;0.1538;10.4630;
-5.1000;0.1481;10.4581;
-4.8000;0.1490;10.4581;
-4.5000;0.1473;10.4606;
-4.2000;0.1498;10.4606;
-3.9000;0.1506;10.4533;
-3.6000;0.1514;10.4581;
-3.3000;0.1490;10.4533;
-3.0000;0.1522;10.4606;
-2.7000;0.1294;10.3954;
-2.4000;0.1490;10.4461;
-2.1000;0.1449;10.4389;
-1.8000;0.1498;10.4654;
-1.5000;0.1490;10.4606;
-1.2000;0.1522;10.4606;
-0.9000;0.1490;10.4581;
-0.6000;0.1449;10.4461;
-0.3000;0.1514;10.4557;
0.0000;0.1514;10.4557;
0.3000;0.1547;10.4485;
0.6000;0.1522;10.4654;
0.9000;0.1522;10.4919;
1.2000;0.1547;10.5257;
1.5000;0.1563;10.5474;
1.8000;0.1685;10.5980;
2.1000;0.1587;10.5908;
2.4000;0.1587;10.6029;
2.7000;0.1563;10.6149;
3.0000;0.1604;10.6366;
3.3000;0.1595;10.6439;
3.6000;0.1612;10.6559;
3.9000;0.1612;10.6656;
4.2000;0.1571;10.6583;
4.5000;0.1612;10.6656;
4.8000;0.1636;10.6776;
5.1000;0.1620;10.6704;
5.4000;0.1652;10.6800;
5.7000;0.1579;10.6656;
6.0000;0.1644;10.6849;
6.3000;0.1636;10.6825;
6.6000;0.1604;10.6897;
6.9000;0.1612;10.6945;
7.2000;0.1604;10.7018;
7.5000;0.1620;10.7114;
7.8000;0.1620;10.7162;
8.1000;0.1604;10.7235;
8.4000;0.1636;10.7428;
8.7000;0.1636;10.7355;
9.0000;0.1612;10.7186;
9.3000;0.1620;10.7259;
9.6000;0.1644;10.7259;
9.9000;0.1612;10.7235;
10.2000;0.1652;10.7283;
10.5000;0.1636;10.7259;
10.8000;0.1628;10.7283;
11.1000;0.1628;10.7379;
11.4000;0.1636;10.7452;
11.7000;0.1620;10.7428;
12.0000;0.1644;10.7355;
12.3000;0.1652;10.7331;
12.6000;0.1636;10.7259;
12.9000;0.1628;10.7186;
13.2000;0.1604;10.7114;
13.5000;0.1628;10.7259;
13.8000;0.1628;10.7162;
14.1000;0.1595;10.7018;
14.4000;0.1620;10.7090;
14.7000;0.1636;10.7114;
15.0000;0.1644;10.7235;
15.3000;0.1612;10.7138;
15.6000;0.1652;10.7283;
15.9000;0.1644;10.7283;
16.2000;0.1726;10.7379;
16.5000;0.1652;10.7259;
16.8000;0.1628;10.7259;
17.1000;0.1620;10.7235;
17.4000;0.1644;10.7235;
17.7000;0.1620;10.7090;
18.0000;0.1628;10.7042;
18.3000;0.1620;10.6993;
18.6000;0.1612;10.6945;
18.9000;0.1628;10.7042;
19.2000;0.1636;10.7090;
19.5000;0.1628;10.7066;
19.8000;0.1644;10.7114;
20.1000;0.1661;10.7210;
20.4000;0.1652;10.7162;
20.7000;0.1644;10.7090;
21.0000;0.1644;10.6969;
21.3000;0.1652;10.7018;
21.6000;0.1661;10.7018;
21.9000;0.1636;10.6945;
22.2000;0.1636;10.7018;
22.5000;0.1620;10.6993;
22.8000;0.1636;10.7018;
23.1000;0.1636;10.7018;
23.4000;0.1612;10.6969;
23.7000;0.1652;10.6993;
24.0000;0.1661;10.6921;
24.3000;0.1636;10.6993;
24.6000;0.1669;10.7186;
24.9000;0.1628;10.6993;
25.2000;0.1661;10.7138;
25.5000;0.1734;10.7355;
25.8000;0.1595;10.7018;
26.1000;0.1661;10.7090;
26.4000;0.1677;10.7114;
26.7000;0.1636;10.6993;
27.0000;0.1620;10.6921;
27.3000;0.1620;10.6945;
27.6000;0.1644;10.6873;
27.9000;0.1628;10.6873;
28.2000;0.1612;10.6825;
28.5000;0.1620;10.6873;
28.8000;0.1498;10.6632;
29.1000;0.1604;10.6897;
29.4000;0.1661;10.7090;
29.7000;0.1628;10.6969;
30.0000;0.1612;10.6945;
30.3000;0.1628;10.6945;
30.6000;0.1628;10.6969;
30.9000;0.1628;10.6921;
31.2000;0.1628;10.6969;
31.5000;0.1628;10.6921;
31.8000;0.1612;10.6945;
32.1000;0.1620;10.6945;
32.4000;0.1620;10.6945;
32.7000;0.1636;10.6993;
33.0000;0.1636;10.6945;
33.3000;0.1628;10.6873;
33.6000;0.1661;10.6921;
33.9000;0.1628;10.6897;
34.2000;0.1644;10.6969;
34.5000;0.1571;10.6849;
34.8000;0.1612;10.6921;
35.1000;0.1628;10.6969;
35.4000;0.1644;10.7042;
35.7000;0.1661;10.7090;
36.0000;0.1620;10.6993;
36.3000;0.1652;10.7090;
36.6000;0.1628;10.7090;
36.9000;0.1628;10.7114;
37.2000;0.1644;10.7114;
37.5000;0.1644;10.7186;
37.8000;0.1652;10.7210;
38.1000;0.1620;10.7138;
38.4000;0.1612;10.7259;
38.7000;0.1620;10.7235;
39.0000;0.1644;10.7283;
39.3000;0.1750;10.7572;
39.6000;0.1628;10.7186;
39.9000;0.1579;10.7042;
40.2000;0.1604;10.7018;
40.5000;0.1604;10.7090;
40.8000;0.1563;10.6921;
41.1000;0.1644;10.7066;
41.4000;0.1604;10.7042;
41.7000;0.1636;10.7042;
42.0000;0.1620;10.6993;
42.3000;0.1628;10.7042;
42.6000;0.1620;10.7018;
42.9000;0.1644;10.7042;
43.2000;0.1693;10.7162;
43.5000;0.1620;10.6945;
43.8000;0.1636;10.6969;
44.1000;0.1628;10.6969;
44.4000;0.1636;10.7090;
44.7000;0.1620;10.7042;
45.0000;0.1620;10.7018;
45.3000;0.1628;10.7090;
45.6000;0.1628;10.7162;
45.9000;0.1636;10.7138;
46.2000;0.1579;10.6993;
46.5000;0.1636;10.7066;
46.8000;0.1644;10.7114;
47.1000;0.1628;10.7066;
47.4000;0.1628;10.7090;
47.7000;0.1652;10.7042;
48.0000;0.1636;10.7042;
48.3000;0.1644;10.6969;
48.6000;0.1628;10.6897;
48.9000;0.1628;10.6945;
49.2000;0.1587;10.6825;
49.5000;0.1661;10.6897;
49.8000;0.1636;10.6897;
50.1000;0.1604;10.6921;
50.4000;0.1636;10.7114;
50.7000;0.1612;10.7114;
51.0000;0.1620;10.7162;
51.3000;0.1636;10.7138;
51.6000;0.1636;10.7186;
51.9000;0.1628;10.7210;
52.2000;0.1620;10.7090;
52.5000;0.1628;10.7066;
52.8000;0.1636;10.7018;
53.1000;0.1636;10.6921;
53.4000;0.1547;10.6776;
53.7000;0.1620;10.6945;
54.0000;0.1628;10.6993;
54.3000;0.1620;10.7066;
54.6000;0.1644;10.7114;
54.9000;0.1620;10.6993;
55.2000;0.1636;10.7018;
55.5000;0.1652;10.7114;
55.8000;0.1661;10.7090;
56.1000;0.1620;10.7018;
56.4000;0.1628;10.7066;
56.7000;0.1604;10.6921;
57.0000;0.1612;10.6969;
57.3000;0.1636;10.7066;
57.6000;0.1701;10.7186;
57.9000;0.1620;10.7042;
58.2000;0.1636;10.6969;
58.5000;0.1628;10.6921;
58.8000;0.1636;10.6993;
59.1000;0.1628;10.6945;
59.4000;0.1612;10.6921;
59.7000;0.1628;10.6921;
60.0000;0.1669;10.6993;
60.3000;0.1612;10.6897;
60.6000;0.1636;10.6993;
60.9000;0.1612;10.7018;
61.2000;0.1652;10.7162;
61.5000;0.1620;10.7018;
61.8000;0.1628;10.6921;
62.1000;0.1628;10.6969;
62.4000;0.1636;10.6993;
62.7000;0.1612;10.6945;
63.0000;0.1604;10.6873;
63.3000;0.1701;10.7114;
63.6000;0.1636;10.6873;
63.9000;0.1612;10.6776;
64.2000;0.1604;10.6752;
64.5000;0.1612;10.6776;
64.8000;0.1644;10.6825;
65.1000;0.1612;10.6704;
65.4000;0.1628;10.6752;
65.7000;0.1636;10.6728;
66.0000;0.1685;10.6897;
66.3000;0.1612;10.6728;
66.6000;0.1661;10.6921;
66.9000;0.1628;10.6897;
67.2000;0.1604;10.6897;
67.5000;0.1636;10.6945;
67.8000;0.1628;10.6873;
68.1000;0.1628;10.6849;
68.4000;0.1644;10.6897;
68.7000;0.1620;10.6849;
69.0000;0.1612;10.6752;
69.3000;0.1628;10.6776;
69.6000;0.1644;10.6921;
69.9000;0.1620;10.6849;
70.2000;0.1628;10.6825;
70.5000;0.1693;10.7018;
70.8000;0.1636;10.6873;
71.1000;0.1677;10.7066;
71.4000;0.1579;10.6752;
71.7000;0.1620;10.6897;
72.0000;0.1644;10.6969;
72.3000;0.1628;10.6945;
72.6000;0.1669;10.7018;
72.9000;0.1644;10.6969;
73.2000;0.1604;10.6921;
73.5000;0.1628;10.6873;
73.8000;0.1677;10.7042;
74.1000;0.1612;10.6825;
74.4000;0.1636;10.6897;
74.7000;0.1620;10.6849;
75.0000;0.1620;10.6825;
75.3000;0.1612;10.6752;
75.6000;0.1620;10.6728;
75.9000;0.1620;10.6752;
76.2000;0.1636;10.6825;
76.5000;0.1628;10.6897;
76.8000;0.1636;10.6849;
77.1000;0.1693;10.6969;
77.4000;0.1677;10.6969;
77.7000;0.1620;10.6921;
78.0000;0.1628;10.6993;
78.3000;0.1628;10.6945;
78.6000;0.1620;10.6921;
78.9000;0.1612;10.6897;
79.2000;0.1620;10.6873;
79.5000;0.1604;10.6873;
79.8000;0.1620;10.6849;
80.1000;0.1628;10.6825;
80.4000;0.1620;10.6656;
80.7000;0.1604;10.6632;
81.0000;0.1628;10.6704;
81.3000;0.1644;10.6728;
81.6000;0.1636;10.6825;
81.9000;0.1612;10.6752;
82.2000;0.1595;10.6752;
82.5000;0.1620;10.6849;
82.8000;0.1628;10.6873;
83.1000;0.1644;10.6873;
83.4000;0.1636;10.6776;
83.7000;0.1636;10.6800;
84.0000;0.1636;10.6873;
84.3000;0.1620;10.6849;
84.6000;0.1628;10.6945;
84.9000;0.1595;10.6921;
85.2000;0.1644;10.6969;
85.5000;0.1628;10.6921;
85.8000;0.1644;10.6993;
86.1000;0.1579;10.6873;
86.4000;0.1636;10.7066;
86.7000;0.1644;10.6993;
87.0000;0.1636;10.6969;
87.3000;0.1587;10.6825;
87.6000;0.1628;10.6945;
87.9000;0.1628;10.6945;
88.2000;0.1709;10.7162;
88.5000;0.1563;10.6849;
88.8000;0.1620;10.6897;
89.1000;0.1636;10.6945;
89.4000;0.1595;10.6897;
89.7000;0.1595;10.6897;
90.0000;0.1693;10.7066;
90.3000;0.1612;10.6921;
90.6000;0.1612;10.6945;
90.9000;0.1587;10.6945;
91.2000;0.1571;10.6993;
91.5000;0.1628;10.7090;
91.8000;0.1612;10.7066;
92.1000;0.1620;10.7114;
92.4000;0.1628;10.7090;
92.7000;0.1620;10.7042;
93.0000;0.1636;10.6993;
93.3000;0.1604;10.6945;
93.6000;0.1628;10.6969;
93.9000;0.1522;10.6728;
94.2000;0.1595;10.6945;
94.5000;0.1693;10.7210;
94.8000;0.1628;10.7066;
95.1000;0.1595;10.6993;
95.4000;0.1587;10.6849;
95.7000;0.1636;10.6993;
96.0000;0.1620;10.6993;
96.3000;0.1514;10.6704;
96.6000;0.1612;10.7042;
96.9000;0.1628;10.7186;
97.2000;0.1620;10.7066;
97.5000;0.1604;10.7066;
97.8000;0.1571;10.7042;
98.1000;0.1628;10.7235;
98.4000;0.1604;10.7283;
98.7000;0.1620;10.7186;
99.0000;0.1587;10.7066;
99.3000;0.1661;10.7210;
99.6000;0.1652;10.7186;
99.9000;0.1620;10.7138;
100.2000;0.1628;10.7138;
100.5000;0.1620;10.7138;
100.8000;0.1563;10.6993;
101.1000;0.1628;10.7162;
101.4000;0.1636;10.7186;
101.7000;0.1628;10.7138;
102.0000;0.1628;10.7138;
102.3000;0.1628;10.7138;
102.6000;0.1628;10.7114;
102.9000;0.1628;10.7042;
103.2000;0.1628;10.6945;
103.5000;0.1636;10.7018;
103.8000;0.1620;10.7042;
104.1000;0.1620;10.7066;
104.4000;0.1620;10.7042;
104.7000;0.1620;10.7066;
105.0000;0.1628;10.7114;
105.3000;0.1636;10.7186;
105.6000;0.1620;10.7114;
105.9000;0.1612;10.7018;
106.2000;0.1612;10.6993;
106.5000;0.1628;10.7042;
106.8000;0.1620;10.7066;
107.1000;0.1612;10.7090;
107.4000;0.1636;10.7090;
107.7000;0.1612;10.7018;
108.0000;0.1612;10.7066;
108.3000;0.1612;10.7066;
108.6000;0.1595;10.7018;
108.9000;0.1726;10.7379;
109.2000;0.1604;10.7114;
109.5000;0.1628;10.7186;
109.8000;0.1612;10.7138;
110.1000;0.1620;10.7114;
110.4000;0.1620;10.7042;
110.7000;0.1620;10.7042;
111.0000;0.1620;10.6993;
111.3000;0.1547;10.6825;
111.6000;0.1628;10.7018;
111.9000;0.1620;10.7018;
112.2000;0.1620;10.6993;
112.5000;0.1636;10.7042;
112.8000;0.1620;10.6969;
113.1000;0.1718;10.7235;
113.4000;0.1595;10.6897;
113.7000;0.1644;10.7018;
114.0000;0.1612;10.6969;
114.3000;0.1604;10.6969;
114.6000;0.1628;10.6969;
114.9000;0.1620;10.6945;
115.2000;0.1636;10.7018;
115.5000;0.1595;10.6945;
115.8000;0.1604;10.6873;
116.1000;0.1612;10.6825;
116.4000;0.1587;10.6680;
116.7000;0.1587;10.6752;
117.0000;0.1620;10.6849;
117.3000;0.1628;10.7042;
117.6000;0.1636;10.7042;
117.9000;0.1636;10.7090;
118.2000;0.1644;10.7018;
118.5000;0.1644;10.7042;
118.8000;0.1628;10.7066;
119.1000;0.1628;10.7114;
119.4000;0.1636;10.7162;
119.7000;0.1612;10.7114;
120.0000;0.1628;10.7162;
120.3000;0.1669;10.7235;
120.6000;0.1612;10.7138;
120.9000;0.1628;10.7210;
121.2000;0.1620;10.7138;
121.5000;0.1628;10.7162;
121.8000;0.1595;10.7090;
122.1000;0.1628;10.7186;
122.4000;0.1620;10.7210;
122.7000;0.1726;10.7548;
123.0000;0.1579;10.7114;
123.3000;0.1636;10.7235;
123.6000;0.1661;10.7283;
123.9000;0.1636;10.7210;
124.2000;0.1612;10.7138;
124.5000;0.1644;10.7162;
124.8000;0.1652;10.7162;
125.1000;0.1628;10.7114;
125.4000;0.1620;10.7066;
125.7000;0.1628;10.7138;
126.0000;0.1652;10.7186;
126.3000;0.1620;10.7042;
126.6000;0.1636;10.7114;
126.9000;0.1628;10.7138;
127.2000;0.1628;10.7090;
127.5000;0.1628;10.7090;
127.8000;0.1628;10.7138;
128.1000;0.1636;10.7186;
128.4000;0.1628;10.7162;
128.7000;0.1636;10.7162;
129.0000;0.1701;10.7379;
129.3000;0.1620;10.7066;
129.6000;0.1595;10.7066;
129.9000;0.1709;10.7210;
130.2000;0.1628;10.6993;
130.5000;0.1636;10.7018;
130.8000;0.1620;10.7018;
131.1000;0.1644;10.7066;
131.4000;0.1628;10.7066;
131.7000;0.1620;10.7042;
132.0000;0.1628;10.7042;
132.3000;0.1563;10.6776;
132.6000;0.1620;10.6969;
132.9000;0.1612;10.7042;
133.2000;0.1620;10.7138;
133.5000;0.1612;10.7186;
133.8000;0.1628;10.7186;
134.1000;0.1628;10.7186;
134.4000;0.1628;10.7162;
134.7000;0.1628;10.7090;
135.0000;0.1644;10.7138;
135.3000;0.1742;10.7307;
135.6000;0.1604;10.6993;
135.9000;0.1628;10.7042;
136.2000;0.1652;10.7138;
136.5000;0.1620;10.7042;
136.8000;0.1620;10.7018;
137.1000;0.1644;10.7090;
137.4000;0.1636;10.6945;
137.7000;0.1620;10.6921;
138.0000;0.1604;10.6897;
138.3000;0.1628;10.7018;
138.6000;0.1628;10.6993;
138.9000;0.1620;10.7018;
139.2000;0.1636;10.7114;
139.5000;0.1636;10.7090;
139.8000;0.1612;10.6993;
140.1000;0.1628;10.6897;
140.4000;0.1595;10.6800;
140.7000;0.1628;10.6873;
141.0000;0.1620;10.6800;
141.3000;0.1620;10.6873;
141.6000;0.1636;10.6921;
141.9000;0.1604;10.6897;
142.2000;0.1620;10.6921;
142.5000;0.1628;10.6969;
142.8000;0.1587;10.6993;
143.1000;0.1620;10.7066;
143.4000;0.1595;10.7090;
143.7000;0.1628;10.7186;
144.0000;0.1628;10.7162;
144.3000;0.1620;10.7066;
144.6000;0.1587;10.6993;
144.9000;0.1612;10.6945;
145.2000;0.1612;10.6921;
145.5000;0.1604;10.6849;
145.8000;0.1595;10.6921;
146.1000;0.1620;10.6969;
146.4000;0.1620;10.7018;
146.7000;0.1693;10.7162;
147.0000;0.1612;10.6969;
147.3000;0.1604;10.6993;
147.6000;0.1563;10.6921;
147.9000;0.1612;10.6969;
148.2000;0.1612;10.7018;
148.5000;0.1604;10.6993;
148.8000;0.1612;10.6993;
149.1000;0.1718;10.7283;
149.4000;0.1661;10.7114;
149.7000;0.1555;10.6897;
150.0000;0.1604;10.6969;
150.3000;0.1620;10.6993;
150.6000;0.1612;10.6945;
150.9000;0.1628;10.7042;
151.2000;0.1604;10.6969;
151.5000;0.1620;10.6993;
151.8000;0.1620;10.7114;
152.1000;0.1612;10.7186;
152.4000;0.1612;10.7090;
152.7000;0.1652;10.7283;
153.0000;0.1628;10.7283;
153.3000;0.1604;10.7186;
153.6000;0.1612;10.7259;
153.9000;0.1587;10.7259;
154.2000;0.1628;10.7235;
154.5000;0.1604;10.7090;
154.8000;0.1612;10.7066;
155.1000;0.1604;10.7042;
155.4000;0.1587;10.6945;
155.7000;0.1587;10.6945;
156.0000;0.1595;10.6897;
156.3000;0.1604;10.6873;
156.6000;0.1620;10.7042;
156.9000;0.1612;10.7018;
157.2000;0.1595;10.6897;
157.5000;0.1620;10.6945;
157.8000;0.1612;10.6873;
158.1000;0.1636;10.6897;
158.4000;0.1628;10.6993;
158.7000;0.1595;10.6897;
159.0000;0.1693;10.7162;
159.3000;0.1587;10.6800;
159.6000;0.1620;10.6993;
159.9000;0.1604;10.6849;
160.2000;0.1636;10.6873;
160.5000;0.1620;10.6873;
160.8000;0.1628;10.6993;
161.1000;0.1620;10.6969;
161.4000;0.1612;10.6969;
161.7000;0.1628;10.7042;
162.0000;0.1595;10.6825;
162.3000;0.1620;10.6945;
162.6000;0.1604;10.6969;
162.9000;0.1620;10.7090;
163.2000;0.1636;10.7090;
163.5000;0.1563;10.6800;
163.8000;0.1628;10.6897;
164.1000;0.1612;10.6849;
164.4000;0.1644;10.6945;
164.7000;0.1644;10.6993;
165.0000;0.1628;10.6945;
165.3000;0.1636;10.6969;
165.6000;0.1644;10.6945;
165.9000;0.1620;10.6849;
166.2000;0.1628;10.6849;
166.5000;0.1628;10.6800;
166.8000;0.1563;10.6680;
167.1000;0.1644;10.6776;
167.4000;0.1620;10.6776;
167.7000;0.1620;10.6776;
168.0000;0.1636;10.6752;
168.3000;0.1620;10.6752;
168.6000;0.1620;10.6849;
168.9000;0.1628;10.6849;
169.2000;0.1669;10.6969;
169.5000;0.1644;10.6897;
169.8000;0.1628;10.6897;
170.1000;0.1620;10.6873;
170.4000;0.1620;10.6873;
170.7000;0.1636;10.6873;
171.0000;0.1620;10.6873;
171.3000;0.1612;10.6800;
171.6000;0.1522;10.6559;
171.9000;0.1693;10.7042;
172.2000;0.1604;10.6776;
172.5000;0.1595;10.6680;
172.8000;0.1612;10.6752;
173.1000;0.1612;10.6776;
173.4000;0.1620;10.6800;
173.7000;0.1669;10.6921;
174.0000;0.1628;10.6776;
174.3000;0.1604;10.6752;
174.6000;0.1669;10.6873;
174.9000;0.1547;10.6463;
175.2000;0.1628;10.6680;
175.5000;0.1620;10.6704;
175.8000;0.1644;10.6776;
176.1000;0.1628;10.6752;
176.4000;0.1628;10.6776;
176.7000;0.1612;10.6728;
177.0000;0.1612;10.6728;
177.3000;0.1612;10.6704;
177.6000;0.1636;10.6656;
177.9000;0.1612;10.6487;
178.2000;0.1628;10.6511;
178.5000;0.1612;10.6583;
178.8000;0.1604;10.6463;
179.1000;0.1604;10.6487;
179.4000;0.1628;10.6583;
179.7000;0.1636;10.6607;
180.0000;0.1620;10.6632;
180.3000;0.1595;10.6559;
180.6000;0.1612;10.6656;
180.9000;0.1620;10.6728;
181.2000;0.1604;10.6704;
181.5000;0.1612;10.6728;
181.8000;0.1620;10.6873;
182.1000;0.1620;10.6800;
182.4000;0.1620;10.6800;
182.7000;0.1620;10.6728;
183.0000;0.1595;10.6656;
183.3000;0.1604;10.6728;
183.6000;0.1620;10.6752;
183.9000;0.1620;10.6680;
184.2000;0.1595;10.6728;
184.5000;0.1604;10.6825;
184.8000;0.1628;10.6993;
185.1000;0.1628;10.7066;
185.4000;0.1612;10.7090;
185.7000;0.1620;10.7066;
186.0000;0.1644;10.7186;
186.3000;0.1628;10.7042;
186.6000;0.1620;10.6993;
186.9000;0.1620;10.6921;
187.2000;0.1587;10.6776;
187.5000;0.1669;10.6993;
187.8000;0.1612;10.6752;
188.1000;0.1628;10.6849;
188.4000;0.1652;10.6921;
188.7000;0.1612;10.6849;
189.0000;0.1604;10.6825;
189.3000;0.1628;10.6873;
189.6000;0.1628;10.6921;
189.9000;0.1661;10.7018;
190.2000;0.1563;10.6825;
190.5000;0.1669;10.7114;
190.8000;0.1718;10.7210;
191.1000;0.1612;10.6969;
191.4000;0.1636;10.7090;
191.7000;0.1612;10.6993;
192.0000;0.1595;10.6897;
192.3000;0.1636;10.6969;
192.6000;0.1742;10.7210;
192.9000;0.1571;10.6921;
193.2000;0.1612;10.7042;
193.5000;0.1522;10.6825;
193.8000;0.1661;10.7066;
194.1000;0.1612;10.6969;
194.4000;0.1628;10.6945;
194.7000;0.1604;10.6873;
195.0000;0.1677;10.7090;
195.3000;0.1628;10.6993;
195.6000;0.1595;10.6921;
195.9000;0.1563;10.6873;
196.2000;0.1628;10.7114;
196.5000;0.1669;10.7186;
196.8000;0.1612;10.7114;
197.1000;0.1620;10.7090;
197.4000;0.1628;10.7066;
197.7000;0.1628;10.7042;
198.0000;0.1620;10.7042;
198.3000;0.1620;10.7042;
198.6000;0.1612;10.7066;
198.9000;0.1612;10.7114;
199.2000;0.1612;10.7138;
199.5000;0.1636;10.7186;
199.8000;0.1628;10.7066;
200.1000;0.1636;10.7066;
200.4000;0.1620;10.6969;
200.7000;0.1644;10.7090;
201.0000;0.1595;10.6945;
201.3000;0.1628;10.6969;
201.6000;0.1612;10.7018;
201.9000;0.1604;10.6969;
202.2000;0.1595;10.6969;
202.5000;0.1595;10.6993;
202.8000;0.1612;10.7162;
203.1000;0.1612;10.7162;
203.4000;0.1620;10.7235;
203.7000;0.1595;10.7186;
204.0000;0.1595;10.7235;
204.3000;0.1612;10.7186;
204.6000;0.1563;10.6969;
204.9000;0.1604;10.6945;
205.2000;0.1628;10.6945;
205.5000;0.1612;10.7018;
205.8000;0.1628;10.7090;
206.1000;0.1481;10.6728;
206.4000;0.1612;10.6993;
206.7000;0.1620;10.6969;
207.0000;0.1612;10.7042;
207.3000;0.1595;10.6993;
207.6000;0.1620;10.7042;
207.9000;0.1612;10.7042;
208.2000;0.1620;10.7066;
208.5000;0.1628;10.7114;
208.8000;0.1628;10.7114;
209.1000;0.1506;10.6800;
209.4000;0.1604;10.7090;
209.7000;0.1628;10.7114;
210.0000;0.1628;10.7138;
210.3000;0.1628;10.7090;
210.6000;0.1563;10.6825;
210.9000;0.1636;10.7018;
211.2000;0.1620;10.6897;
211.5000;0.1644;10.6969;
211.8000;0.1628;10.6969;
212.1000;0.1612;10.6897;
212.4000;0.1669;10.7018;
212.7000;0.1628;10.6873;
213.0000;0.1636;10.6849;
213.3000;0.1604;10.6776;
213.6000;0.1628;10.6752;
213.9000;0.1636;10.6897;
214.2000;0.1685;10.7138;
214.5000;0.1628;10.7042;
214.8000;0.1604;10.7018;
215.1000;0.1612;10.6969;
215.4000;0.1571;10.6873;
215.7000;0.1538;10.6680;
216.0000;0.1612;10.6800;
216.3000;0.1620;10.6728;
216.6000;0.1612;10.6752;
216.9000;0.1620;10.6776;
217.2000;0.1644;10.6873;
217.5000;0.1620;10.6800;
217.8000;0.1620;10.6849;
218.1000;0.1636;10.6849;
218.4000;0.1620;10.6704;
218.7000;0.1595;10.6704;
219.0000;0.1612;10.6704;
219.3000;0.1620;10.6776;
219.6000;0.1620;10.6897;
219.9000;0.1644;10.6969;
220.2000;0.1612;10.6897;
220.5000;0.1612;10.6921;
220.8000;0.1587;10.6800;
221.1000;0.1604;10.6921;
221.4000;0.1628;10.6897;
221.7000;0.1587;10.6776;
222.0000;0.1636;10.6873;
222.3000;0.1628;10.6849;
222.6000;0.1620;10.6825;
222.9000;0.1604;10.6704;
223.2000;0.1628;10.6825;
223.5000;0.1620;10.6825;
223.8000;0.1620;10.6800;
224.1000;0.1628;10.6800;
224.4000;0.1628;10.6776;
224.7000;0.1677;10.6969;
225.0000;0.1571;10.6728;
225.3000;0.1636;10.6897;
225.6000;0.1620;10.6993;
225.9000;0.1636;10.7018;
226.2000;0.1636;10.7042;
226.5000;0.1628;10.7018;
226.8000;0.1636;10.7018;
227.1000;0.1620;10.6873;
227.4000;0.1636;10.6945;
227.7000;0.1604;10.6752;
228.0000;0.1620;10.6752;
228.3000;0.1522;10.6535;
228.6000;0.1628;10.6728;
228.9000;0.1604;10.6704;
229.2000;0.1620;10.6776;
229.5000;0.1620;10.6704;
229.8000;0.1628;10.6632;
230.1000;0.1522;10.6415;
230.4000;0.1587;10.6607;
230.7000;0.1604;10.6583;
231.0000;0.1620;10.6680;
231.3000;0.1644;10.6728;
231.6000;0.1628;10.6583;
231.9000;0.1628;10.6511;
232.2000;0.1652;10.6656;
232.5000;0.1628;10.6632;
232.8000;0.1612;10.6607;
233.1000;0.1661;10.6825;
233.4000;0.1628;10.6825;
233.7000;0.1612;10.6800;
234.0000;0.1595;10.6776;
234.3000;0.1620;10.6945;
234.6000;0.1612;10.6873;
234.9000;0.1620;10.6873;
235.2000;0.1628;10.6776;
235.5000;0.1612;10.6704;
235.8000;0.1652;10.6825;
236.1000;0.1612;10.6607;
236.4000;0.1620;10.6583;
236.7000;0.1612;10.6607;
237.0000;0.1620;10.6632;
237.3000;0.1620;10.6680;
237.6000;0.1587;10.6511;
237.9000;0.1636;10.6656;
238.2000;0.1612;10.6607;
238.5000;0.1628;10.6656;
238.8000;0.1563;10.6535;
239.1000;0.1612;10.6825;
239.4000;0.1604;10.6825;
239.7000;0.1628;10.6873;
240.0000;0.1604;10.6776;
240.3000;0.1628;10.6776;
240.6000;0.1620;10.6704;
240.9000;0.1628;10.6825;
241.2000;0.1628;10.6921;
241.5000;0.1612;10.6921;
241.8000;0.1579;10.6825;
242.1000;0.1636;10.6993;
242.4000;0.1620;10.6921;
242.7000;0.1620;10.6849;
243.0000;0.1620;10.6776;
243.3000;0.1620;10.6752;
243.6000;0.1652;10.6776;
243.9000;0.1595;10.6487;
244.2000;0.1595;10.6511;
244.5000;0.1628;10.6632;
244.8000;0.1604;10.6559;
245.1000;0.1604;10.6632;
245.4000;0.1612;10.6752;
245.7000;0.1595;10.6800;
246.0000;0.1604;10.6825;
246.3000;0.1636;10.6873;
246.6000;0.1595;10.6704;
246.9000;0.1604;10.6728;
247.2000;0.1620;10.6825;
247.5000;0.1612;10.6776;
247.8000;0.1612;10.6752;
248.1000;0.1628;10.6825;
248.4000;0.1595;10.6752;
248.7000;0.1490;10.6607;
249.0000;0.1612;10.6849;
249.3000;0.1612;10.6825;
249.6000;0.1595;10.6849;
249.9000;0.1636;10.6921;
250.2000;0.1604;10.6873;
250.5000;0.1595;10.6800;
250.8000;0.1612;10.6825;
251.1000;0.1571;10.6632;
251.4000;0.1481;10.6342;
251.7000;0.1595;10.6656;
252.0000;0.1620;10.6728;
252.3000;0.1636;10.6752;
252.6000;0.1636;10.6752;
252.9000;0.1563;10.6607;
253.2000;0.1604;10.6728;
253.5000;0.1595;10.6728;
253.8000;0.1636;10.6800;
254.1000;0.1604;10.6776;
254.4000;0.1604;10.6728;
254.7000;0.1620;10.6632;
255.0000;0.1563;10.6415;
255.3000;0.1628;10.6656;
255.6000;0.1604;10.6680;
255.9000;0.1620;10.6680;
256.2000;0.1620;10.6728;
256.5000;0.1636;10.6728;
256.8000;0.1620;10.6728;
257.1000;0.1636;10.6752;
257.4000;0.1628;10.6776;
257.7000;0.1636;10.6776;
258.0000;0.1636;10.6825;
258.3000;0.1628;10.6825;
258.6000;0.1620;10.6776;
258.9000;0.1628;10.6776;
259.2000;0.1612;10.6728;
259.5000;0.1595;10.6680;
259.8000;0.1587;10.6632;
260.1000;0.1604;10.6656;
260.4000;0.1604;10.6704;
260.7000;0.1612;10.6704;
261.0000;0.1604;10.6728;
261.3000;0.1612;10.6728;
261.6000;0.1579;10.6656;
261.9000;0.1628;10.6704;
262.2000;0.1612;10.6728;
262.5000;0.1620;10.6728;
262.8000;0.1628;10.6873;
263.1000;0.1612;10.6849;
263.4000;0.1620;10.6873;
263.7000;0.1595;10.6849;
264.0000;0.1628;10.6897;
264.3000;0.1612;10.6921;
264.6000;0.1628;10.6969;
264.9000;0.1620;10.6897;
265.2000;0.1604;10.6849;
265.5000;0.1538;10.6680;
265.8000;0.1628;10.6945;
266.1000;0.1595;10.6873;
266.4000;0.1620;10.6825;
266.7000;0.1620;10.6800;
267.0000;0.1628;10.6800;
267.3000;0.1595;10.6776;
267.6000;0.1538;10.6704;
267.9000;0.1636;10.6897;
268.2000;0.1620;10.6776;
268.5000;0.1620;10.6849;
268.8000;0.1612;10.6921;
269.1000;0.1587;10.6873;
269.4000;0.1636;10.7066;
269.7000;0.1604;10.6849;
270.0000;0.1636;10.6921;
270.3000;0.1620;10.6849;
270.6000;0.1628;10.6800;
270.9000;0.1612;10.6704;
271.2000;0.1587;10.6680;
271.5000;0.1604;10.6752;
271.8000;0.1628;10.6825;
272.1000;0.1620;10.6776;
272.4000;0.1620;10.6728;
272.7000;0.1612;10.6776;
273.0000;0.1644;10.6873;
273.3000;0.1620;10.6776;
273.6000;0.1628;10.6752;
273.9000;0.1628;10.6752;
274.2000;0.1636;10.6752;
274.5000;0.1612;10.6680;
274.8000;0.1620;10.6632;
275.1000;0.1620;10.6728;
275.4000;0.1612;10.6656;
275.7000;0.1595;10.6704;
276.0000;0.1612;10.6728;
276.3000;0.1604;10.6728;
276.6000;0.1612;10.6825;
276.9000;0.1612;10.6800;
277.2000;0.1506;10.6415;
277.5000;0.1669;10.6728;
277.8000;0.1612;10.6535;
278.1000;0.1644;10.6535;
278.4000;0.1620;10.6559;
278.7000;0.1620;10.6559;
279.0000;0.1685;10.6776;
279.3000;0.1628;10.6680;
279.6000;0.1628;10.6632;
279.9000;0.1612;10.6680;
280.2000;0.1538;10.6487;
280.5000;0.1587;10.6583;
280.8000;0.1612;10.6607;
281.1000;0.1612;10.6656;
281.4000;0.1669;10.6776;
281.7000;0.1620;10.6680;
282.0000;0.1604;10.6607;
282.3000;0.1604;10.6511;
282.6000;0.1652;10.6607;
282.9000;0.1612;10.6583;
283.2000;0.1620;10.6632;
283.5000;0.1612;10.6559;
283.8000;0.1587;10.6583;
284.1000;0.1555;10.6535;
284.4000;0.1612;10.6728;
284.7000;0.1612;10.6704;
285.0000;0.1612;10.6825;
285.3000;0.1612;10.6873;
285.6000;0.1661;10.6849;
285.9000;0.1620;10.6680;
286.2000;0.1628;10.6728;
286.5000;0.1595;10.6704;
286.8000;0.1669;10.6897;
287.1000;0.1628;10.6776;
287.4000;0.1628;10.6776;
287.7000;0.1604;10.6776;
288.0000;0.1636;10.6800;
288.3000;0.1612;10.6825;
288.6000;0.1628;10.6849;
288.9000;0.1604;10.6776;
289.2000;0.1612;10.6776;
289.5000;0.1620;10.6800;
289.8000;0.1620;10.6825;
290.1000;0.1612;10.6825;
290.4000;0.1547;10.6656;
290.7000;0.1579;10.6680;
291.0000;0.1620;10.6704;
291.3000;0.1612;10.6656;
291.6000;0.1604;10.6704;
291.9000;0.1612;10.6752;
292.2000;0.1612;10.6800;
292.5000;0.1612;10.6776;
292.8000;0.1628;10.6776;
293.1000;0.1604;10.6776;
293.4000;0.1604;10.6776;
293.7000;0.1612;10.6776;
294.0000;0.1612;10.6776;
294.3000;0.1620;10.6776;
294.6000;0.1620;10.6752;
294.9000;0.1604;10.6583;
295.2000;0.1620;10.6607;
295.5000;0.1612;10.6607;
295.8000;0.1612;10.6607;
296.1000;0.1612;10.6559;
296.4000;0.1595;10.6559;
296.7000;0.1612;10.6607;
297.0000;0.1628;10.6632;
297.3000;0.1620;10.6680;
297.6000;0.1604;10.6607;
297.9000;0.1604;10.6535;
298.2000;0.1628;10.6704;
298.5000;0.1628;10.6825;
298.8000;0.1595;10.6776;
299.1000;0.1563;10.6680;
299.4000;0.1604;10.6849;
299.7000;0.1620;10.6921;
300.0000;0.1620;10.6945;
300.3000;0.1620;10.7042;
300.6000;0.1604;10.7042;
300.9000;0.1612;10.7018;
301.2000;0.1604;10.7018;
301.5000;0.1595;10.6945;
301.8000;0.1612;10.6921;
302.1000;0.1612;10.6897;
302.4000;0.1612;10.6897;
302.7000;0.1628;10.6873;
303.0000;0.1628;10.6897;
303.3000;0.1628;10.6993;
303.6000;0.1644;10.7042;
303.9000;0.1612;10.7018;
304.2000;0.1620;10.6897;
304.5000;0.1636;10.6897;
304.8000;0.1612;10.6800;
305.1000;0.1612;10.6800;
305.4000;0.1604;10.6800;
305.7000;0.1612;10.6897;
306.0000;0.1612;10.6897;
306.3000;0.1612;10.6921;
306.6000;0.1595;10.6849;
306.9000;0.1587;10.6825;
307.2000;0.1579;10.6897;
307.5000;0.1587;10.6897;
307.8000;0.1661;10.7066;
308.1000;0.1620;10.6897;
308.4000;0.1628;10.6921;
308.7000;0.1677;10.7018;
309.0000;0.1612;10.6800;
309.3000;0.1579;10.6728;
309.6000;0.1612;10.6752;
309.9000;0.1604;10.6728;
310.2000;0.1612;10.6680;
310.5000;0.1612;10.6680;
310.8000;0.1612;10.6752;
311.1000;0.1628;10.6873;
311.4000;0.1628;10.6849;
311.7000;0.1612;10.6825;
312.0000;0.1587;10.6825;
312.3000;0.1604;10.6897;
312.6000;0.1547;10.6825;
312.9000;0.1595;10.6921;
313.2000;0.1620;10.6945;
313.5000;0.1604;10.6873;
313.8000;0.1628;10.6873;
314.1000;0.1636;10.6897;
314.4000;0.1636;10.6800;
314.7000;0.1636;10.6873;
315.0000;0.1636;10.6897;
315.3000;0.1595;10.6849;
315.6000;0.1595;10.6825;
315.9000;0.1620;10.6825;
316.2000;0.1628;10.6825;
316.5000;0.1612;10.6752;
316.8000;0.1628;10.6704;
317.1000;0.1620;10.6680;
317.4000;0.1669;10.6825;
317.7000;0.1612;10.6632;
318.0000;0.1612;10.6680;
318.3000;0.1636;10.6680;
318.6000;0.1636;10.6752;
318.9000;0.1644;10.6849;
319.2000;0.1604;10.6776;
319.5000;0.1612;10.6825;
319.8000;0.1612;10.6728;
320.1000;0.1579;10.6704;
320.4000;0.1636;10.6800;
320.7000;0.1701;10.7090;
321.0000;0.1579;10.6849;
321.3000;0.1620;10.6921;
321.6000;0.1612;10.6921;
321.9000;0.1595;10.6897;
322.2000;0.1709;10.7162;
322.5000;0.1669;10.6945;
322.8000;0.1612;10.6800;
323.1000;0.1579;10.6704;
323.4000;0.1587;10.6752;
323.7000;0.1612;10.6728;
324.0000;0.1620;10.6752;
324.3000;0.1612;10.6800;
324.6000;0.1595;10.6800;
324.9000;0.1620;10.6849;
325.2000;0.1555;10.6704;
325.5000;0.1636;10.6921;
325.8000;0.1595;10.6776;
326.1000;0.1604;10.6800;
326.4000;0.1612;10.6825;
326.7000;0.1604;10.6897;
327.0000;0.1587;10.6800;
327.3000;0.1595;10.6776;
327.6000;0.1620;10.6825;
327.9000;0.1530;10.6583;
328.2000;0.1587;10.6800;
328.5000;0.1595;10.6800;
328.8000;0.1595;10.6752;
329.1000;0.1628;10.6849;
329.4000;0.1620;10.6825;
329.7000;0.1620;10.6776;
330.0000;0.1652;10.6873;
330.3000;0.1636;10.6849;
330.6000;0.1612;10.6825;
330.9000;0.1612;10.6752;
331.2000;0.1628;10.6800;
331.5000;0.1612;10.6752;
331.8000;0.1547;10.6607;
332.1000;0.1612;10.6800;
332.4000;0.1604;10.6849;
332.7000;0.1587;10.6849;
333.0000;0.1620;10.6921;
333.3000;0.1595;10.6873;
333.6000;0.1587;10.6752;
333.9000;0.1612;10.6873;
334.2000;0.1612;10.6825;
334.5000;0.1604;10.6752;
334.8000;0.1620;10.6800;
335.1000;0.1620;10.6728;
335.4000;0.1628;10.6800;
335.7000;0.1628;10.6849;
336.0000;0.1604;10.6776;
336.3000;0.1636;10.6945;
336.6000;0.1628;10.6993;
336.9000;0.1612;10.6873;
337.2000;0.1579;10.6752;
337.5000;0.1604;10.6873;
337.8000;0.1555;10.6752;
338.1000;0.1604;10.6897;
338.4000;0.1620;10.6849;
338.7000;0.1595;10.6656;
339.0000;0.1644;10.6800;
339.3000;0.1595;10.6680;
339.6000;0.1604;10.6776;
339.9000;0.1612;10.6800;
340.2000;0.1620;10.6800;
340.5000;0.1628;10.6897;
340.8000;0.1620;10.6873;
341.1000;0.1620;10.6849;
341.4000;0.1595;10.6825;
341.7000;0.1628;10.6873;
342.0000;0.1563;10.6704;
342.3000;0.1604;10.6825;
342.6000;0.1628;10.6825;
342.9000;0.1612;10.6825;
343.2000;0.1587;10.6849;
343.5000;0.1620;10.6897;
343.8000;0.1604;10.6800;
344.1000;0.1587;10.6776;
344.4000;0.1587;10.6752;
344.7000;0.1612;10.6800;
345.0000;0.1612;10.6752;
345.3000;0.1587;10.6728;
345.6000;0.1612;10.6632;
345.9000;0.1612;10.6632;
346.2000;0.1636;10.6728;
346.5000;0.1555;10.6535;
346.8000;0.1587;10.6680;
347.1000;0.1612;10.6728;
347.4000;0.1595;10.6752;
347.7000;0.1628;10.6825;
348.0000;0.1612;10.6873;
348.3000;0.1604;10.6825;
348.6000;0.1620;10.6825;
348.9000;0.1571;10.6728;
349.2000;0.1620;10.6897;
349.5000;0.1652;10.6993;
349.8000;0.1612;10.6969;
350.1000;0.1604;10.6921;
350.4000;0.1612;10.6873;
350.7000;0.1628;10.6873;
351.0000;0.1612;10.6873;
351.3000;0.1620;10.6897;
351.6000;0.1620;10.6825;
351.9000;0.1652;10.6825;
352.2000;0.1612;10.6728;
352.5000;0.1620;10.6800;
352.8000;0.1612;10.6776;
353.1000;0.1604;10.6728;
353.4000;0.1620;10.6873;
353.7000;0.1620;10.6825;
354.0000;0.1628;10.6776;
354.3000;0.1628;10.6873;
354.6000;0.1628;10.6800;
354.9000;0.1628;10.6849;
355.2000;0.1636;10.6897;
355.5000;0.1652;10.6945;
355.8000;0.1636;10.6897;
356.1000;0.1628;10.6873;
356.4000;0.1604;10.6825;
356.7000;0.1636;10.6993;
357.0000;0.1620;10.6921;
357.3000;0.1628;10.6897;
357.6000;0.1620;10.6873;
357.9000;0.1595;10.6800;
358.2000;0.1628;10.6921;
358.5000;0.1628;10.6993;
358.8000;0.1612;10.6945;
359.1000;0.1595;10.6849;
359.4000;0.1530;10.6607;
359.7000;0.1620;10.6776;
360.0000;0.1636;10.6728;
360.3000;0.1636;10.6825;
360.6000;0.1612;10.6873;
360.9000;0.1595;10.6897;
361.2000;0.1620;10.6873;
361.5000;0.1547;10.6704;
361.8000;0.1612;10.6800;
362.1000;0.1612;10.6776;
362.4000;0.1555;10.6559;
362.7000;0.1644;10.6704;
363.0000;0.1571;10.6487;
363.3000;0.1595;10.6487;
363.6000;0.1563;10.6390;
363.9000;0.1563;10.6366;
364.2000;0.1612;10.6559;
364.5000;0.1595;10.6535;
364.8000;0.1620;10.6535;
365.1000;0.1628;10.6535;
365.4000;0.1636;10.6607;
365.7000;0.1604;10.6487;
366.0000;0.1579;10.6535;
366.3000;0.1595;10.6535;
366.6000;0.1587;10.6463;
366.9000;0.1604;10.6511;
367.2000;0.1579;10.6511;
367.5000;0.1612;10.6632;
367.8000;0.1620;10.6656;
368.1000;0.1669;10.6752;
368.4000;0.1612;10.6559;
368.7000;0.1604;10.6511;
369.0000;0.1595;10.6463;
369.3000;0.1538;10.6318;
369.6000;0.1571;10.6439;
369.9000;0.1620;10.6535;
370.2000;0.1604;10.6559;
370.5000;0.1620;10.6632;
370.8000;0.1620;10.6632;
371.1000;0.1604;10.6583;
371.4000;0.1604;10.6583;
371.7000;0.1595;10.6559;
372.0000;0.1612;10.6607;
372.3000;0.1595;10.6728;
372.6000;0.1612;10.6752;
372.9000;0.1612;10.6776;
373.2000;0.1587;10.6680;
373.5000;0.1587;10.6704;
373.8000;0.1612;10.6800;
374.1000;0.1612;10.6800;
374.4000;0.1612;10.6752;
374.7000;0.1612;10.6728;
375.0000;0.1620;10.6704;
375.3000;0.1620;10.6656;
375.6000;0.1530;10.6439;
375.9000;0.1628;10.6752;
376.2000;0.1620;10.6825;
376.5000;0.1563;10.6728;
376.8000;0.1620;10.6728;
377.1000;0.1612;10.6704;
377.4000;0.1604;10.6632;
377.7000;0.1604;10.6559;
378.0000;0.1604;10.6656;
378.3000;0.1612;10.6704;
378.6000;0.1620;10.6656;
378.9000;0.1620;10.6607;
379.2000;0.1628;10.6656;
379.5000;0.1604;10.6632;
379.8000;0.1612;10.6728;
380.1000;0.1612;10.6632;
380.4000;0.1628;10.6704;
380.7000;0.1612;10.6728;
381.0000;0.1612;10.6704;
381.3000;0.1636;10.6776;
381.6000;0.1587;10.6656;
381.9000;0.1604;10.6607;
382.2000;0.1538;10.6463;
382.5000;0.1652;10.6849;
382.8000;0.1612;10.6680;
383.1000;0.1612;10.6680;
383.4000;0.1701;10.7018;
383.7000;0.1612;10.6776;
384.0000;0.1604;10.6752;
384.3000;0.1612;10.6752;
384.6000;0.1628;10.6849;
384.9000;0.1620;10.6776;
385.2000;0.1652;10.6873;
385.5000;0.1571;10.6800;
385.8000;0.1612;10.6825;
386.1000;0.1612;10.6776;
386.4000;0.1620;10.6680;
386.7000;0.1620;10.6704;
387.0000;0.1669;10.6800;
387.3000;0.1604;10.6511;
387.6000;0.1604;10.6487;
387.9000;0.1595;10.6511;
388.2000;0.1595;10.6535;
388.5000;0.1563;10.6415;
388.8000;0.1620;10.6463;
389.1000;0.1612;10.6559;
389.4000;0.1620;10.6752;
389.7000;0.1612;10.6704;
390.0000;0.1612;10.6656;
390.3000;0.1620;10.6728;
390.6000;0.1628;10.6704;
390.9000;0.1620;10.6704;
391.2000;0.1620;10.6704;
391.5000;0.1636;10.6656;
391.8000;0.1628;10.6607;
392.1000;0.1620;10.6680;
392.4000;0.1652;10.6752;
392.7000;0.1612;10.6632;
393.0000;0.1628;10.6656;
393.3000;0.1595;10.6583;
393.6000;0.1604;10.6656;
393.9000;0.1604;10.6728;
394.2000;0.1604;10.6704;
394.5000;0.1612;10.6704;
394.8000;0.1612;10.6511;
395.1000;0.1628;10.6535;
395.4000;0.1661;10.6607;
395.7000;0.1636;10.6583;
396.0000;0.1604;10.6559;
396.3000;0.1604;10.6535;
396.6000;0.1644;10.6607;
396.9000;0.1628;10.6680;
397.2000;0.1644;10.6800;
397.5000;0.1604;10.6776;
397.8000;0.1620;10.6752;
398.1000;0.1612;10.6704;
398.4000;0.1612;10.6607;
398.7000;0.1612;10.6632;
399.0000;0.1693;10.6969;
399.3000;0.1612;10.6800;
399.6000;0.1612;10.6873;
399.9000;0.1612;10.6921;
400.2000;0.1620;10.6873;
400.5000;0.1620;10.6849;
400.8000;0.1612;10.6825;
401.1000;0.1612;10.6752;
401.4000;0.1579;10.6752;
401.7000;0.1620;10.6873;
402.0000;0.1555;10.6825;
402.3000;0.1595;10.6945;
402.6000;0.1604;10.6921;
402.9000;0.1595;10.6969;
403.2000;0.1612;10.6993;
403.5000;0.1604;10.6945;
403.8000;0.1701;10.7210;
404.1000;0.1636;10.6993;
404.4000;0.1563;10.6921;
404.7000;0.1620;10.6969;
405.0000;0.1595;10.6945;
405.3000;0.1628;10.6969;
405.6000;0.1604;10.6849;
405.9000;0.1636;10.6897;
406.2000;0.1595;10.6800;
406.5000;0.1587;10.6800;
406.8000;0.1628;10.6800;
407.1000;0.1612;10.6849;
407.4000;0.1612;10.6849;
407.7000;0.1587;10.6825;
408.0000;0.1612;10.6945;
408.3000;0.1669;10.6993;
408.6000;0.1612;10.6800;
408.9000;0.1604;10.6728;
409.2000;0.1604;10.6849;
409.5000;0.1538;10.6752;
409.8000;0.1547;10.6776;
410.1000;0.1555;10.6800;
410.4000;0.1620;10.6969;
410.7000;0.1612;10.6800;
411.0000;0.1612;10.6776;
411.3000;0.1595;10.6728;
411.6000;0.1620;10.6800;
411.9000;0.1620;10.6825;
412.2000;0.1628;10.6776;
412.5000;0.1612;10.6825;
412.8000;0.1620;10.6921;
413.1000;0.1636;10.6921;
413.4000;0.1636;10.6897;
413.7000;0.1612;10.6825;
414.0000;0.1587;10.6873;
414.3000;0.1530;10.6704;
414.6000;0.1604;10.6945;
414.9000;0.1538;10.6704;
415.2000;0.1595;10.6873;
415.5000;0.1612;10.6921;
415.8000;0.1604;10.6945;
416.1000;0.1522;10.6656;
416.4000;0.1506;10.6607;
416.7000;0.1620;10.6969;
417.0000;0.1612;10.6945;
417.3000;0.1571;10.6825;
417.6000;0.1628;10.6969;
417.9000;0.1620;10.7042;
418.2000;0.1604;10.7090;
418.5000;0.1595;10.7090;
418.8000;0.1604;10.7018;
419.1000;0.1612;10.7066;
419.4000;0.1604;10.7138;
419.7000;0.1620;10.7283;
420.0000;0.1612;10.7186;
420.3000;0.1595;10.7090;
420.6000;0.1595;10.7162;
420.9000;0.1595;10.7186;
421.2000;0.1579;10.7138;
421.5000;0.1612;10.7162;
421.8000;0.1677;10.7259;
422.1000;0.1628;10.7090;
422.4000;0.1652;10.7162;
422.7000;0.1612;10.7090;
423.0000;0.1604;10.7114;
423.3000;0.1612;10.7235;
423.6000;0.1595;10.7186;
423.9000;0.1620;10.7186;
424.2000;0.1595;10.7066;
424.5000;0.1644;10.7114;
424.8000;0.1652;10.7090;
425.1000;0.1604;10.6969;
425.4000;0.1612;10.7042;
425.7000;0.1620;10.7210;
426.0000;0.1604;10.7138;
426.3000;0.1595;10.7090;
426.6000;0.1547;10.6921;
426.9000;0.1587;10.7018;
427.2000;0.1620;10.7090;
427.5000;0.1636;10.7114;
427.8000;0.1604;10.7042;
428.1000;0.1604;10.6969;
428.4000;0.1620;10.7090;
428.7000;0.1538;10.6945;
429.0000;0.1620;10.7138;
429.3000;0.1628;10.7162;
429.6000;0.1579;10.7090;
429.9000;0.1612;10.7114;
430.2000;0.1612;10.7090;
430.5000;0.1612;10.6945;
430.8000;0.1604;10.6969;
431.1000;0.1595;10.6993;
431.4000;0.1669;10.7186;
431.7000;0.1620;10.6993;
432.0000;0.1612;10.6969;
432.3000;0.1636;10.7066;
432.6000;0.1620;10.7042;
432.9000;0.1620;10.7090;
433.2000;0.1612;10.7114;
433.5000;0.1604;10.7066;
433.8000;0.1620;10.7114;
434.1000;0.1612;10.7114;
434.4000;0.1636;10.7090;
434.7000;0.1612;10.7018;
435.0000;0.1652;10.7162;
435.3000;0.1636;10.7114;
435.6000;0.1612;10.7090;
435.9000;0.1628;10.7138;
436.2000;0.1587;10.7090;
436.5000;0.1604;10.7114;
436.8000;0.1612;10.7186;
437.1000;0.1595;10.7114;
437.4000;0.1604;10.7138;
437.7000;0.1612;10.7090;
438.0000;0.1620;10.7138;
438.3000;0.1693;10.7379;
438.6000;0.1620;10.7114;
438.9000;0.1612;10.7186;
439.2000;0.1579;10.7066;
439.5000;0.1604;10.7138;
439.8000;0.1636;10.7331;
440.1000;0.1579;10.7210;
440.4000;0.1636;10.7283;
440.7000;0.1604;10.7138;
441.0000;0.1579;10.7114;
441.3000;0.1547;10.6897;
441.6000;0.1604;10.7090;
441.9000;0.1628;10.7186;
442.2000;0.1604;10.7138;
442.5000;0.1620;10.7186;
442.8000;0.1612;10.7138;
443.1000;0.1604;10.7138;
443.4000;0.1644;10.7186;
443.7000;0.1612;10.6993;
444.0000;0.1628;10.6945;
444.3000;0.1595;10.6897;
444.6000;0.1628;10.6945;
444.9000;0.1571;10.6800;
445.2000;0.1604;10.6921;
445.5000;0.1612;10.6921;
445.8000;0.1595;10.6825;
446.1000;0.1595;10.6825;
446.4000;0.1644;10.7018;
446.7000;0.1620;10.6945;
447.0000;0.1685;10.7090;
447.3000;0.1620;10.6945;
447.6000;0.1604;10.6776;
447.9000;0.1620;10.6776;
448.2000;0.1620;10.6752;
448.5000;0.1563;10.6728;
448.8000;0.1661;10.7066;
449.1000;0.1628;10.6969;
449.4000;0.1612;10.6921;
449.7000;0.1612;10.7018;
450.0000;0.1612;10.7018;
450.3000;0.1595;10.7018;
450.6000;0.1620;10.6945;
450.9000;0.1595;10.6873;
451.2000;0.1612;10.6969;
451.5000;0.1604;10.6969;
451.8000;0.1612;10.6945;
452.1000;0.1604;10.6921;
452.4000;0.1612;10.6969;
452.7000;0.1669;10.7018;
453.0000;0.1604;10.6897;
453.3000;0.1604;10.6969;
453.6000;0.1612;10.6969;
453.9000;0.1595;10.6921;
454.2000;0.1620;10.6921;
454.5000;0.1612;10.6897;
454.8000;0.1604;10.6800;
455.1000;0.1652;10.6969;
455.4000;0.1669;10.7066;
455.7000;0.1612;10.6921;
456.0000;0.1604;10.6873;
456.3000;0.1571;10.6752;
456.6000;0.1579;10.6776;
456.9000;0.1604;10.6825;
457.2000;0.1595;10.6849;
457.5000;0.1604;10.6969;
457.8000;0.1595;10.6921;
458.1000;0.1612;10.6873;
458.4000;0.1628;10.6897;
458.7000;0.1612;10.6800;
459.0000;0.1595;10.6825;
459.3000;0.1652;10.6969;
459.6000;0.1612;10.6969;
459.9000;0.1587;10.6969;
460.2000;0.1587;10.6945;
460.5000;0.1604;10.6969;
460.8000;0.1604;10.7018;
461.1000;0.1612;10.7042;
461.4000;0.1587;10.6897;
461.7000;0.1595;10.6921;
462.0000;0.1595;10.6945;
462.3000;0.1595;10.7018;
462.6000;0.1604;10.7114;
462.9000;0.1620;10.7235;
463.2000;0.1644;10.7283;
463.5000;0.1498;10.6776;
463.8000;0.1579;10.7042;
464.1000;0.1628;10.7066;
464.4000;0.1604;10.7066;
464.7000;0.1620;10.7114;
465.0000;0.1628;10.7162;
465.3000;0.1571;10.7018;
465.6000;0.1612;10.7090;
465.9000;0.1612;10.7090;
466.2000;0.1595;10.7090;
466.5000;0.1595;10.7066;
466.8000;0.1620;10.7066;
467.1000;0.1604;10.6993;
467.4000;0.1620;10.7066;
467.7000;0.1612;10.6993;
468.0000;0.1636;10.7042;
468.3000;0.1620;10.6993;
468.6000;0.1547;10.6752;
468.9000;0.1604;10.7018;
469.2000;0.1604;10.7018;
469.5000;0.1612;10.7042;
469.8000;0.1628;10.7066;
470.1000;0.1587;10.6993;
470.4000;0.1604;10.6969;
470.7000;0.1612;10.6993;
471.0000;0.1604;10.6873;
471.3000;0.1579;10.6849;
471.6000;0.1612;10.6873;
471.9000;0.1620;10.6873;
472.2000;0.1620;10.6752;
472.5000;0.1620;10.6776;
472.8000;0.1644;10.6849;
473.1000;0.1612;10.6897;
473.4000;0.1587;10.6873;
473.7000;0.1604;10.6921;
474.0000;0.1587;10.7018;
474.3000;0.1620;10.7114;
474.6000;0.1612;10.7066;
474.9000;0.1612;10.6969;
475.2000;0.1620;10.6993;
475.5000;0.1612;10.7042;
475.8000;0.1604;10.7090;
476.1000;0.1604;10.7090;
476.4000;0.1612;10.7090;
476.7000;0.1571;10.6993;
477.0000;0.1587;10.7018;
477.3000;0.1628;10.6993;
477.6000;0.1579;10.6897;
477.9000;0.1604;10.6897;
478.2000;0.1563;10.6752;
478.5000;0.1595;10.6825;
478.8000;0.1612;10.6873;
479.1000;0.1595;10.6873;
479.4000;0.1652;10.7042;
479.7000;0.1620;10.6969;
480.0000;0.1571;10.6825;
480.3000;0.1620;10.7066;
480.6000;0.1685;10.7210;
480.9000;0.1604;10.6921;
481.2000;0.1612;10.7066;
481.5000;0.1587;10.7018;
481.8000;0.1612;10.6945;
482.1000;0.1612;10.6945;
482.4000;0.1612;10.6969;
482.7000;0.1612;10.6945;
483.0000;0.1709;10.7162;
483.3000;0.1620;10.6945;
483.6000;0.1628;10.6969;
483.9000;0.1612;10.6945;
484.2000;0.1620;10.6993;
484.5000;0.1604;10.6969;
484.8000;0.1595;10.6969;
485.1000;0.1604;10.6945;
485.4000;0.1612;10.6873;
485.7000;0.1620;10.6873;
486.0000;0.1612;10.6849;
486.3000;0.1661;10.7018;
486.6000;0.1604;10.6873;
486.9000;0.1587;10.6873;
487.2000;0.1612;10.7018;
487.5000;0.1604;10.7042;
487.8000;0.1620;10.6969;
488.1000;0.1628;10.6945;
488.4000;0.1604;10.6849;
488.7000;0.1628;10.6969;
489.0000;0.1620;10.6969;
489.3000;0.1612;10.6921;
489.6000;0.1612;10.6921;
489.9000;0.1612;10.6921;
490.2000;0.1595;10.6800;
490.5000;0.1620;10.6993;
490.8000;0.1604;10.6945;
491.1000;0.1612;10.6969;
491.4000;0.1604;10.6969;
491.7000;0.1612;10.6849;
492.0000;0.1604;10.6776;
492.3000;0.1604;10.6800;
492.6000;0.1612;10.6800;
492.9000;0.1612;10.6825;
493.2000;0.1604;10.6873;
493.5000;0.1612;10.6873;
493.8000;0.1620;10.6921;
494.1000;0.1628;10.6945;
494.4000;0.1620;10.6969;
494.7000;0.1612;10.6945;
495.0000;0.1612;10.6969;
495.3000;0.1595;10.6969;
495.6000;0.1595;10.6873;
495.9000;0.1595;10.6897;
496.2000;0.1604;10.6921;
496.5000;0.1644;10.7042;
496.8000;0.1595;10.6897;
497.1000;0.1547;10.6752;
497.4000;0.1595;10.6969;
497.7000;0.1612;10.6921;
498.0000;0.1628;10.6873;
498.3000;0.1604;10.6800;
498.6000;0.1628;10.6776;
498.9000;0.1612;10.6800;
499.2000;0.1587;10.6873;
499.5000;0.1612;10.6873;
499.8000;0.1604;10.6945;
500.1000;0.1595;10.6945;
500.4000;0.1595;10.6897;
500.7000;0.1604;10.6897;
501.0000;0.1595;10.6969;
501.3000;0.1595;10.7090;
501.6000;0.1587;10.6993;
501.9000;0.1595;10.6993;
502.2000;0.1595;10.7018;
502.5000;0.1595;10.6969;
502.8000;0.1604;10.6969;
503.1000;0.1595;10.6969;
503.4000;0.1669;10.7042;
503.7000;0.1628;10.6849;
504.0000;0.1612;10.6897;
504.3000;0.1612;10.6873;
504.6000;0.1612;10.6849;
504.9000;0.1612;10.6969;
505.2000;0.1612;10.7042;
505.5000;0.1620;10.7138;
505.8000;0.1587;10.7018;
506.1000;0.1604;10.6969;
506.4000;0.1571;10.6945;
506.7000;0.1612;10.7090;
507.0000;0.1620;10.7042;
507.3000;0.1636;10.7090;
507.6000;0.1587;10.6993;
507.9000;0.1612;10.7066;
508.2000;0.1612;10.7114;
508.5000;0.1595;10.7162;
508.8000;0.1612;10.7162;
509.1000;0.1620;10.7186;
509.4000;0.1604;10.7114;
509.7000;0.1604;10.7066;
510.0000;0.1604;10.6897;
510.3000;0.1587;10.6873;
510.6000;0.1604;10.6849;
510.9000;0.1595;10.6776;
511.2000;0.1587;10.6849;
511.5000;0.1571;10.6873;
511.8000;0.1604;10.6969;
512.1000;0.1620;10.6993;
512.4000;0.1612;10.6921;
512.7000;0.1604;10.6897;
513.0000;0.1604;10.6945;
513.3000;0.1498;10.6728;
513.6000;0.1604;10.6945;
513.9000;0.1604;10.6921;
514.2000;0.1628;10.6897;
514.5000;0.1595;10.6873;
514.8000;0.1563;10.6849;
515.1000;0.1620;10.7042;
515.4000;0.1726;10.7428;
515.7000;0.1636;10.7235;
516.0000;0.1604;10.7066;
516.3000;0.1620;10.7114;
516.6000;0.1604;10.7114;
516.9000;0.1620;10.7162;
517.2000;0.1587;10.7138;
517.5000;0.1587;10.7114;
517.8000;0.1571;10.7138;
518.1000;0.1604;10.7114;
518.4000;0.1604;10.7162;
518.7000;0.1595;10.7114;
519.0000;0.1604;10.7114;
519.3000;0.1612;10.7066;
519.6000;0.1620;10.7066;
519.9000;0.1604;10.7090;
520.2000;0.1595;10.7114;
520.5000;0.1571;10.7066;
520.8000;0.1604;10.7235;
521.1000;0.1595;10.7162;
521.4000;0.1595;10.7114;
521.7000;0.1595;10.7042;
522.0000;0.1571;10.6969;
522.3000;0.1595;10.7018;
522.6000;0.1571;10.6945;
522.9000;0.1587;10.7018;
523.2000;0.1604;10.7066;
523.5000;0.1595;10.7090;
523.8000;0.1604;10.7162;
524.1000;0.1604;10.7162;
524.4000;0.1636;10.7138;
524.7000;0.1620;10.7090;
525.0000;0.1604;10.7090;
525.3000;0.1604;10.7090;
525.6000;0.1595;10.7018;
525.9000;0.1604;10.7042;
526.2000;0.1595;10.7090;
526.5000;0.1490;10.6800;
526.8000;0.1612;10.7090;
527.1000;0.1604;10.7114;
527.4000;0.1595;10.7114;
527.7000;0.1587;10.7114;
528.0000;0.1604;10.7210;
528.3000;0.1604;10.7210;
528.6000;0.1620;10.7186;
528.9000;0.1612;10.7066;
529.2000;0.1644;10.7162;
529.5000;0.1628;10.7018;
529.8000;0.1604;10.7090;
530.1000;0.1571;10.7018;
530.4000;0.1628;10.7138;
530.7000;0.1612;10.7138;
531.0000;0.1628;10.7138;
531.3000;0.1530;10.6921;
531.6000;0.1636;10.7090;
531.9000;0.1595;10.7162;
532.2000;0.1579;10.7114;
532.5000;0.1547;10.6993;
532.8000;0.1604;10.7090;
533.1000;0.1620;10.7162;
533.4000;0.1636;10.7090;
533.7000;0.1604;10.7090;
534.0000;0.1612;10.7042;
534.3000;0.1636;10.7114;
534.6000;0.1612;10.7042;
534.9000;0.1620;10.7090;
535.2000;0.1595;10.7018;
535.5000;0.1612;10.6921;
535.8000;0.1652;10.6969;
536.1000;0.1604;10.6849;
536.4000;0.1612;10.6897;
536.7000;0.1612;10.6969;
537.0000;0.1587;10.6945;
537.3000;0.1628;10.7090;
537.6000;0.1595;10.6945;
537.9000;0.1587;10.6897;
538.2000;0.1587;10.6945;
538.5000;0.1718;10.7331;
538.8000;0.1604;10.7042;
539.1000;0.1636;10.7138;
539.4000;0.1571;10.7018;
539.7000;0.1604;10.7114;
540.0000;0.1604;10.7210;
540.3000;0.1620;10.7186;
540.6000;0.1595;10.7162;
540.9000;0.1604;10.7235;
541.2000;0.1604;10.7307;
541.5000;0.1595;10.7162;
541.8000;0.1604;10.7138;
542.1000;0.1628;10.7138;
542.4000;0.1677;10.7259;
542.7000;0.1620;10.7090;
543.0000;0.1628;10.7138;
543.3000;0.1595;10.7114;
543.6000;0.1612;10.7042;
543.9000;0.1612;10.6945;
544.2000;0.1620;10.7018;
544.5000;0.1628;10.7066;
544.8000;0.1604;10.7018;
545.1000;0.1620;10.7090;
545.4000;0.1620;10.7066;
545.7000;0.1604;10.7042;
546.0000;0.1547;10.6897;
546.3000;0.1604;10.6993;
546.6000;0.1595;10.7042;
546.9000;0.1612;10.7042;
547.2000;0.1677;10.7162;
547.5000;0.1709;10.7307;
547.8000;0.1604;10.6993;
548.1000;0.1604;10.6969;
548.4000;0.1595;10.6969;
548.7000;0.1636;10.7066;
549.0000;0.1661;10.7018;
549.3000;0.1604;10.6945;
549.6000;0.1604;10.6897;
549.9000;0.1604;10.6945;
550.2000;0.1677;10.7042;
550.5000;0.1604;10.6921;
550.8000;0.1612;10.6969;
551.1000;0.1604;10.6945;
551.4000;0.1636;10.7042;
551.7000;0.1612;10.6969;
552.0000;0.1612;10.7042;
552.3000;0.1612;10.7090;
552.6000;0.1604;10.7018;
552.9000;0.1612;10.6993;
553.2000;0.1644;10.7042;
553.5000;0.1620;10.6969;
553.8000;0.1612;10.6873;
554.1000;0.1587;10.6752;
554.4000;0.1612;10.6825;
554.7000;0.1604;10.6921;
555.0000;0.1620;10.6993;
555.3000;0.1587;10.6921;
555.6000;0.1595;10.6921;
555.9000;0.1595;10.6776;
556.2000;0.1571;10.6680;
556.5000;0.1571;10.6704;
556.8000;0.1677;10.7018;
557.1000;0.1620;10.6849;
557.4000;0.1644;10.6969;
557.7000;0.1595;10.6873;
558.0000;0.1620;10.6921;
558.3000;0.1579;10.6752;
558.6000;0.1595;10.6873;
558.9000;0.1595;10.6873;
559.2000;0.1595;10.6921;
559.5000;0.1612;10.6897;
559.8000;0.1595;10.6873;
560.1000;0.1612;10.6921;
560.4000;0.1604;10.6873;
560.7000;0.1604;10.6921;
561.0000;0.1604;10.6849;
561.3000;0.1628;10.7018;
561.6000;0.1612;10.7018;
561.9000;0.1636;10.7018;
562.2000;0.1604;10.6921;
562.5000;0.1587;10.6873;
562.8000;0.1620;10.6921;
563.1000;0.1604;10.6921;
563.4000;0.1555;10.6776;
563.7000;0.1595;10.6800;
564.0000;0.1604;10.6800;
564.3000;0.1595;10.6800;
564.6000;0.1604;10.6825;
564.9000;0.1620;10.6921;
565.2000;0.1612;10.6945;
565.5000;0.1620;10.7018;
565.8000;0.1595;10.7018;
566.1000;0.1587;10.7090;
566.4000;0.1612;10.7186;
566.7000;0.1628;10.7259;
567.0000;0.1595;10.7162;
567.3000;0.1604;10.7162;
567.6000;0.1604;10.7090;
567.9000;0.1595;10.6993;
568.2000;0.1579;10.6993;
568.5000;0.1612;10.6969;
568.8000;0.1595;10.7018;
569.1000;0.1612;10.7018;
569.4000;0.1604;10.7066;
569.7000;0.1579;10.6993;
570.0000;0.1718;10.7379;
570.3000;0.1579;10.6921;
570.6000;0.1587;10.6969;
570.9000;0.1636;10.7090;
571.2000;0.1612;10.7066;
571.5000;0.1612;10.7090;
571.8000;0.1628;10.6993;
572.1000;0.1563;10.6825;
572.4000;0.1555;10.6825;
572.7000;0.1620;10.7066;
573.0000;0.1685;10.7186;
573.3000;0.1595;10.6969;
573.6000;0.1547;10.6825;
573.9000;0.1604;10.7042;
574.2000;0.1595;10.7090;
574.5000;0.1595;10.6993;
574.8000;0.1604;10.7018;
575.1000;0.1620;10.7114;
575.4000;0.1612;10.7042;
575.7000;0.1612;10.6969;
576.0000;0.1620;10.6945;
576.3000;0.1612;10.6969;
576.6000;0.1595;10.6969;
576.9000;0.1612;10.7018;
577.2000;0.1604;10.7018;
577.5000;0.1628;10.6993;
577.8000;0.1612;10.6921;
578.1000;0.1612;10.6969;
578.4000;0.1636;10.7042;
578.7000;0.1595;10.6969;
579.0000;0.1604;10.6945;
579.3000;0.1612;10.7018;
579.6000;0.1604;10.6945;
579.9000;0.1604;10.6945;
580.2000;0.1604;10.6945;
580.5000;0.1604;10.7042;
580.8000;0.1612;10.7114;
581.1000;0.1571;10.7090;
581.4000;0.1595;10.7162;
581.7000;0.1612;10.7114;
582.0000;0.1620;10.7090;
582.3000;0.1595;10.7042;
582.6000;0.1604;10.7210;
582.9000;0.1612;10.7186;
583.2000;0.1612;10.7162;
583.5000;0.1636;10.7210;
583.8000;0.1595;10.7090;
584.1000;0.1604;10.7042;
584.4000;0.1595;10.7066;
584.7000;0.1612;10.7042;
585.0000;0.1628;10.7018;
585.3000;0.1587;10.6897;
585.6000;0.1595;10.6897;
585.9000;0.1604;10.6993;
586.2000;0.1595;10.6945;
586.5000;0.1555;10.6873;
586.8000;0.1604;10.7042;
587.1000;0.1612;10.7090;
587.4000;0.1604;10.7066;
587.7000;0.1595;10.7090;
588.0000;0.1612;10.7138;
588.3000;0.1604;10.7138;
588.6000;0.1604;10.7090;
588.9000;0.1595;10.7066;
589.2000;0.1595;10.7042;
589.5000;0.1595;10.7090;
589.8000;0.1669;10.7259;
590.1000;0.1612;10.6921;
590.4000;0.1595;10.6969;
590.7000;0.1612;10.7090;
591.0000;0.1636;10.7090;
591.3000;0.1604;10.7090;
591.6000;0.1604;10.7042;
591.9000;0.1604;10.6993;
592.2000;0.1661;10.7138;
592.5000;0.1620;10.7042;
592.8000;0.1595;10.6897;
593.1000;0.1563;10.6825;
593.4000;0.1612;10.6921;
593.7000;0.1595;10.6921;
594.0000;0.1677;10.7186;
594.3000;0.1620;10.7114;
594.6000;0.1636;10.7138;
594.9000;0.1579;10.7018;
595.2000;0.1587;10.7114;
595.5000;0.1547;10.6945;
595.8000;0.1595;10.7042;
596.1000;0.1612;10.7090;
596.4000;0.1604;10.6993;
596.7000;0.1587;10.6921;
597.0000;0.1595;10.6969;
597.3000;0.1612;10.6969;
597.6000;0.1604;10.6897;
597.9000;0.1595;10.6897;
598.2000;0.1661;10.7066;
598.5000;0.1595;10.6969;
598.8000;0.1563;10.6776;
599.1000;0.1604;10.6945;
599.4000;0.1604;10.6921;
599.7000;0.1587;10.6849;
600.0000;0.1522;10.6632;
600.3000;0.1587;10.6825;
600.6000;0.1579;10.6849;
600.9000;0.1579;10.6752;
601.2000;0.1652;10.6825;
601.5000;0.1538;10.6366;
601.8000;0.1547;10.6270;
602.1000;0.1563;10.6125;
602.4000;0.1571;10.6077;
602.7000;0.1547;10.5908;
603.0000;0.1538;10.5812;
603.3000;0.1514;10.5570;
603.6000;0.1547;10.5570;
603.9000;0.1530;10.5450;
604.2000;0.1538;10.5329;
604.5000;0.1522;10.5209;
604.8000;0.1506;10.5112;
605.1000;0.1506;10.5016;
605.4000;0.1498;10.5016;
605.7000;0.1490;10.4991;
606.0000;0.1514;10.4991;
606.3000;0.1514;10.4967;
606.6000;0.1514;10.4967;
606.9000;0.1498;10.4943;
607.2000;0.1490;10.4895;
607.5000;0.1490;10.4919;
607.8000;0.1490;10.4823;
608.1000;0.1481;10.4750;
608.4000;0.1473;10.4799;
608.7000;0.1481;10.4823;
609.0000;0.1490;10.4847;
609.3000;0.1465;10.4750;
609.6000;0.1490;10.4678;
609.9000;0.1481;10.4630;
610.2000;0.1506;10.4678;
610.5000;0.1547;10.4799;
610.8000;0.1481;10.4678;
611.1000;0.1481;10.4678;
611.4000;0.1571;10.4823;
611.7000;0.1498;10.4678;
612.0000;0.1481;10.4630;
612.3000;0.1465;10.4630;
612.6000;0.1473;10.4678;
612.9000;0.1425;10.4509;
613.2000;0.1481;10.4726;
613.5000;0.1473;10.4702;
613.8000;0.1490;10.4654;
614.1000;0.1481;10.4654;
614.4000;0.1457;10.4509;
614.7000;0.1473;10.4581;
615.0000;0.1498;10.4678;
615.3000;0.1514;10.4871;
615.6000;0.1490;10.4871;
615.9000;0.1481;10.4774;
616.2000;0.1490;10.4750;
616.5000;0.1498;10.4799;
616.8000;0.1473;10.4774;
617.1000;0.1481;10.4750;
617.4000;0.1490;10.4726;
617.7000;0.1481;10.4823;
618.0000;0.1514;10.4967;
618.3000;0.1473;10.4774;
618.6000;0.1465;10.4750;
618.9000;0.1498;10.4654;
619.2000;0.1506;10.4581;
619.5000;0.1473;10.4437;
619.8000;0.1465;10.4485;
620.1000;0.1457;10.4581;
620.4000;0.1506;10.4581;
620.7000;0.1473;10.4461;
621.0000;0.1473;10.4581;
621.3000;0.1490;10.4606;
621.6000;0.1481;10.4533;
621.9000;0.1473;10.4461;
622.2000;0.1473;10.4413;
622.5000;0.1481;10.4389;
622.8000;0.1481;10.4413;
623.1000;0.1465;10.4413;
623.4000;0.1473;10.4389;
623.7000;0.1465;10.4461;
624.0000;0.1457;10.4485;
624.3000;0.1457;10.4509;
624.6000;0.1457;10.4461;
624.9000;0.1490;10.4581;
625.2000;0.1481;10.4461;
625.5000;0.1449;10.4413;
625.8000;0.1490;10.4533;
626.1000;0.1457;10.4437;
626.4000;0.1457;10.4340;
626.7000;0.1498;10.4340;
627.0000;0.1441;10.4292;
627.3000;0.1457;10.4268;
627.6000;0.1457;10.4244;
627.9000;0.1473;10.4220;
628.2000;0.1498;10.4292;
628.5000;0.1481;10.4244;
628.8000;0.1457;10.4292;
629.1000;0.1473;10.4485;
629.4000;0.1498;10.4485;
629.7000;0.1465;10.4389;
630.0000;0.1457;10.4389;
630.3000;0.1457;10.4244;
630.6000;0.1457;10.4147;
630.9000;0.1473;10.4123;
631.2000;0.1449;10.4196;
631.5000;0.1465;10.4220;
631.8000;0.1481;10.4244;
632.1000;0.1416;10.4171;
632.4000;0.1425;10.4123;
632.7000;0.1481;10.4220;
633.0000;0.1481;10.4316;
633.3000;0.1498;10.4389;
633.6000;0.1481;10.4413;
633.9000;0.1481;10.4413;
634.2000;0.1490;10.4340;
634.5000;0.1498;10.4364;
634.8000;0.1473;10.4292;
635.1000;0.1473;10.4316;
635.4000;0.1465;10.4220;
635.7000;0.1465;10.4244;
636.0000;0.1457;10.4220;
636.3000;0.1457;10.4244;
636.6000;0.1465;10.4268;
636.9000;0.1490;10.4340;
637.2000;0.1473;10.4292;
637.5000;0.1465;10.4220;
637.8000;0.1481;10.4244;
638.1000;0.1473;10.4220;
638.4000;0.1498;10.4364;
638.7000;0.1473;10.4485;
639.0000;0.1457;10.4485;
639.3000;0.1506;10.4485;
639.6000;0.1481;10.4461;
639.9000;0.1465;10.4437;
640.2000;0.1473;10.4437;
640.5000;0.1465;10.4437;
640.8000;0.1481;10.4509;
641.1000;0.1449;10.4461;
641.4000;0.1457;10.4389;
641.7000;0.1473;10.4485;
642.0000;0.1587;10.4750;
642.3000;0.1465;10.4533;
642.6000;0.1449;10.4557;
642.9000;0.1465;10.4581;
643.2000;0.1481;10.4606;
643.5000;0.1473;10.4581;
643.8000;0.1465;10.4485;
644.1000;0.1465;10.4461;
644.4000;0.1481;10.4461;
644.7000;0.1563;10.4654;
645.0000;0.1473;10.4413;
645.3000;0.1449;10.4268;
645.6000;0.1465;10.4340;
645.9000;0.1473;10.4340;
646.2000;0.1449;10.4316;
646.5000;0.1441;10.4292;
646.8000;0.1473;10.4340;
647.1000;0.1473;10.4389;
647.4000;0.1547;10.4606;
647.7000;0.1465;10.4413;
648.0000;0.1465;10.4461;
648.3000;0.1400;10.4220;
648.6000;0.1457;10.4413;
648.9000;0.1465;10.4340;
649.2000;0.1473;10.4437;
649.5000;0.1506;10.4557;
649.8000;0.1481;10.4461;
650.1000;0.1441;10.4340;
650.4000;0.1465;10.4437;
650.7000;0.1465;10.4364;
651.0000;0.1490;10.4413;
651.3000;0.1376;10.4244;
651.6000;0.1457;10.4485;
651.9000;0.1490;10.4533;
652.2000;0.1473;10.4437;
652.5000;0.1538;10.4630;
652.8000;0.1465;10.4413;
653.1000;0.1465;10.4413;
653.4000;0.1433;10.4340;
653.7000;0.1473;10.4485;
654.0000;0.1465;10.4461;
654.3000;0.1481;10.4485;
654.6000;0.1481;10.4485;
654.9000;0.1473;10.4437;
655.2000;0.1465;10.4340;
655.5000;0.1465;10.4340;
655.8000;0.1465;10.4364;
656.1000;0.1465;10.4413;
656.4000;0.1425;10.4292;
656.7000;0.1441;10.4316;
657.0000;0.1449;10.4292;
657.3000;0.1465;10.4244;
657.6000;0.1473;10.4292;
657.9000;0.1465;10.4292;
658.2000;0.1498;10.4413;
658.5000;0.1465;10.4316;
658.8000;0.1473;10.4268;
659.1000;0.1465;10.4316;
659.4000;0.1473;10.4268;
659.7000;0.1481;10.4268;
660.0000;0.1473;10.4171;
660.3000;0.1465;10.4196;
660.6000;0.1465;10.4244;
660.9000;0.1457;10.4244;
661.2000;0.1498;10.4268;
661.5000;0.1433;10.4171;
661.8000;0.1465;10.4244;
662.1000;0.1400;10.4003;
662.4000;0.1481;10.4292;
662.7000;0.1481;10.4316;
663.0000;0.1506;10.4461;
663.3000;0.1433;10.4268;
663.6000;0.1473;10.4389;
663.9000;0.1400;10.4171;
664.2000;0.1408;10.4292;
664.5000;0.1473;10.4461;
664.8000;0.1465;10.4461;
665.1000;0.1465;10.4509;
665.4000;0.1473;10.4606;
665.7000;0.1514;10.4630;
666.0000;0.1538;10.4606;
666.3000;0.1351;10.4147;
666.6000;0.1457;10.4413;
666.9000;0.1465;10.4413;
667.2000;0.1416;10.4268;
667.5000;0.1425;10.4292;
667.8000;0.1481;10.4340;
668.1000;0.1473;10.4364;
668.4000;0.1530;10.4437;
668.7000;0.1498;10.4389;
669.0000;0.1425;10.4268;
669.3000;0.1473;10.4316;
669.6000;0.1465;10.4316;
669.9000;0.1351;10.3930;
670.2000;0.1465;10.4268;
670.5000;0.1465;10.4389;
670.8000;0.1473;10.4413;
671.1000;0.1457;10.4389;
671.4000;0.1465;10.4364;
671.7000;0.1457;10.4316;
672.0000;0.1457;10.4364;
672.3000;0.1547;10.4630;
672.6000;0.1465;10.4389;
672.9000;0.1490;10.4364;
673.2000;0.1473;10.4268;
673.5000;0.1441;10.4268;
673.8000;0.1465;10.4268;
674.1000;0.1465;10.4292;
674.4000;0.1457;10.4340;
674.7000;0.1457;10.4389;
675.0000;0.1481;10.4413;
675.3000;0.1530;10.4461;
675.6000;0.1465;10.4268;
675.9000;0.1457;10.4244;
676.2000;0.1481;10.4244;
676.5000;0.1465;10.4220;
676.8000;0.1465;10.4196;
677.1000;0.1473;10.4196;
677.4000;0.1473;10.4147;
677.7000;0.1457;10.4196;
678.0000;0.1465;10.4244;
678.3000;0.1433;10.4196;
678.6000;0.1473;10.4364;
678.9000;0.1465;10.4389;
679.2000;0.1425;10.4268;
679.5000;0.1416;10.4316;
679.8000;0.1457;10.4437;
680.1000;0.1490;10.4606;
680.4000;0.1465;10.4581;
680.7000;0.1408;10.4364;
681.0000;0.1449;10.4533;
681.3000;0.1498;10.4606;
681.6000;0.1457;10.4557;
681.9000;0.1473;10.4630;
682.2000;0.1465;10.4606;
682.5000;0.1571;10.4871;
682.8000;0.1547;10.4847;
683.1000;0.1449;10.4606;
683.4000;0.1457;10.4606;
683.7000;0.1481;10.4557;
684.0000;0.1514;10.4606;
684.3000;0.1473;10.4509;
684.6000;0.1473;10.4581;
684.9000;0.1457;10.4533;
685.2000;0.1465;10.4654;
685.5000;0.1473;10.4533;
685.8000;0.1473;10.4509;
686.1000;0.1514;10.4533;
686.4000;0.1481;10.4485;
686.7000;0.1465;10.4437;
687.0000;0.1400;10.4292;
687.3000;0.1457;10.4437;
687.6000;0.1433;10.4364;
687.9000;0.1506;10.4557;
688.2000;0.1481;10.4437;
688.5000;0.1433;10.4244;
688.8000;0.1473;10.4316;
689.1000;0.1441;10.4292;
689.4000;0.1498;10.4437;
689.7000;0.1457;10.4364;
690.0000;0.1351;10.4027;
690.3000;0.1530;10.4437;
690.6000;0.1441;10.4268;
690.9000;0.1457;10.4292;
691.2000;0.1473;10.4292;
691.5000;0.1481;10.4389;
691.8000;0.1465;10.4364;
692.1000;0.1465;10.4364;
692.4000;0.1465;10.4389;
692.7000;0.1465;10.4413;
693.0000;0.1481;10.4389;
693.3000;0.1481;10.4413;
693.6000;0.1465;10.4364;
693.9000;0.1457;10.4389;
694.2000;0.1481;10.4389;
694.5000;0.1465;10.4389;
694.8000;0.1481;10.4316;
695.1000;0.1457;10.4316;
695.4000;0.1490;10.4389;
695.7000;0.1473;10.4389;
696.0000;0.1473;10.4292;
696.3000;0.1498;10.4364;
696.6000;0.1457;10.4292;
696.9000;0.1490;10.4437;
697.2000;0.1473;10.4485;
697.5000;0.1473;10.4437;
697.8000;0.1457;10.4389;
698.1000;0.1465;10.4509;
698.4000;0.1490;10.4581;
698.7000;0.1481;10.4533;
699.0000;0.1449;10.4413;
699.3000;0.1498;10.4461;
699.6000;0.1490;10.4340;
699.9000;0.1473;10.4268;
700.2000;0.1473;10.4268;
700.5000;0.1490;10.4437;
700.8000;0.1481;10.4413;
701.1000;0.1465;10.4316;
701.4000;0.1538;10.4509;
701.7000;0.1473;10.4364;
702.0000;0.1465;10.4292;
702.3000;0.1449;10.4340;
702.6000;0.1425;10.4389;
702.9000;0.1473;10.4533;
703.2000;0.1457;10.4557;
703.5000;0.1416;10.4389;
703.8000;0.1473;10.4557;
704.1000;0.1457;10.4557;
704.4000;0.1530;10.4702;
704.7000;0.1457;10.4509;
705.0000;0.1481;10.4557;
705.3000;0.1457;10.4557;
705.6000;0.1473;10.4630;
705.9000;0.1473;10.4654;
706.2000;0.1481;10.4606;
706.5000;0.1457;10.4557;
706.8000;0.1465;10.4533;
707.1000;0.1490;10.4606;
707.4000;0.1465;10.4581;
707.7000;0.1473;10.4509;
708.0000;0.1441;10.4364;
708.3000;0.1481;10.4389;
708.6000;0.1490;10.4437;
708.9000;0.1457;10.4389;
709.2000;0.1433;10.4364;
709.5000;0.1408;10.4316;
709.8000;0.1490;10.4485;
710.1000;0.1506;10.4581;
710.4000;0.1490;10.4533;
710.7000;0.1457;10.4533;
711.0000;0.1433;10.4461;
711.3000;0.1457;10.4485;
711.6000;0.1441;10.4485;
711.9000;0.1473;10.4557;
712.2000;0.1481;10.4630;
712.5000;0.1425;10.4533;
712.8000;0.1465;10.4509;
713.1000;0.1465;10.4461;
713.4000;0.1490;10.4533;
713.7000;0.1481;10.4509;
714.0000;0.1433;10.4437;
714.3000;0.1449;10.4533;
714.6000;0.1481;10.4557;
714.9000;0.1481;10.4509;
715.2000;0.1473;10.4485;
715.5000;0.1481;10.4557;
715.8000;0.1465;10.4581;
716.1000;0.1473;10.4581;
716.4000;0.1498;10.4654;
716.7000;0.1465;10.4485;
717.0000;0.1465;10.4485;
717.3000;0.1563;10.4678;
717.6000;0.1425;10.4364;
717.9000;0.1481;10.4364;
718.2000;0.1473;10.4268;
718.5000;0.1441;10.4147;
718.8000;0.1473;10.4268;
719.1000;0.1481;10.4292;
719.4000;0.1498;10.4364;
719.7000;0.1473;10.4413;
720.0000;0.1481;10.4413;
720.3000;0.1465;10.4413;
720.6000;0.1490;10.4413;
720.9000;0.1473;10.4437;
721.2000;0.1473;10.4533;
721.5000;0.1473;10.4533;
721.8000;0.1465;10.4461;
722.1000;0.1473;10.4461;
722.4000;0.1481;10.4509;
722.7000;0.1473;10.4485;
723.0000;0.1490;10.4437;
723.3000;0.1481;10.4413;
723.6000;0.1457;10.4364;
723.9000;0.1506;10.4485;
724.2000;0.1465;10.4437;
724.5000;0.1457;10.4413;
724.8000;0.1465;10.4509;
725.1000;0.1465;10.4413;
725.4000;0.1473;10.4485;
725.7000;0.1465;10.4389;
726.0000;0.1473;10.4268;
726.3000;0.1425;10.4147;
726.6000;0.1473;10.4196;
726.9000;0.1465;10.4244;
727.2000;0.1400;10.4244;
727.5000;0.1465;10.4413;
727.8000;0.1457;10.4437;
728.1000;0.1465;10.4461;
728.4000;0.1465;10.4581;
728.7000;0.1465;10.4581;
729.0000;0.1465;10.4509;
729.3000;0.1465;10.4437;
729.6000;0.1449;10.4364;
729.9000;0.1473;10.4413;
730.2000;0.1449;10.4292;
730.5000;0.1441;10.4196;
730.8000;0.1473;10.4220;
731.1000;0.1449;10.4220;
731.4000;0.1457;10.4268;
731.7000;0.1473;10.4292;
732.0000;0.1465;10.4292;
732.3000;0.1457;10.4316;
732.6000;0.1457;10.4364;
732.9000;0.1416;10.4268;
733.2000;0.1465;10.4268;
733.5000;0.1465;10.4171;
733.8000;0.1473;10.4196;
734.1000;0.1473;10.4196;
734.4000;0.1465;10.4075;
734.7000;0.1465;10.4075;
735.0000;0.1481;10.4075;
735.3000;0.1481;10.4147;
735.6000;0.1481;10.4147;
735.9000;0.1490;10.4147;
736.2000;0.1490;10.4171;
736.5000;0.1490;10.4171;
736.8000;0.1506;10.4196;
737.1000;0.1457;10.4147;
737.4000;0.1473;10.4292;
737.7000;0.1473;10.4268;
738.0000;0.1465;10.4292;
738.3000;0.1465;10.4340;
738.6000;0.1457;10.4244;
738.9000;0.1490;10.4389;
739.2000;0.1473;10.4292;
739.5000;0.1473;10.4292;
739.8000;0.1473;10.4292;
740.1000;0.1465;10.4316;
740.4000;0.1457;10.4364;
740.7000;0.1473;10.4364;
741.0000;0.1481;10.4340;
741.3000;0.1530;10.4485;
741.6000;0.1490;10.4316;
741.9000;0.1465;10.4171;
742.2000;0.1465;10.4075;
742.5000;0.1433;10.3978;
742.8000;0.1465;10.4147;
743.1000;0.1465;10.4147;
743.4000;0.1408;10.3978;
743.7000;0.1473;10.4075;
744.0000;0.1465;10.4075;
744.3000;0.1473;10.4123;
744.6000;0.1473;10.4123;
744.9000;0.1473;10.4075;
745.2000;0.1498;10.4099;
745.5000;0.1465;10.4075;
745.8000;0.1465;10.4051;
746.1000;0.1481;10.4099;
746.4000;0.1481;10.4027;
746.7000;0.1490;10.4051;
747.0000;0.1481;10.4075;
747.3000;0.1465;10.4147;
747.6000;0.1465;10.4196;
747.9000;0.1473;10.4171;
748.2000;0.1473;10.4196;
748.5000;0.1473;10.4147;
748.8000;0.1449;10.4027;
749.1000;0.1473;10.4003;
749.4000;0.1473;10.3954;
749.7000;0.1457;10.3858;
750.0000;0.1498;10.3882;
750.3000;0.1490;10.3906;
750.6000;0.1449;10.3834;
750.9000;0.1473;10.3906;
751.2000;0.1465;10.3978;
751.5000;0.1481;10.4027;
751.8000;0.1481;10.4051;
752.1000;0.1457;10.4003;
752.4000;0.1433;10.4027;
752.7000;0.1473;10.4075;
753.0000;0.1457;10.4147;
753.3000;0.1457;10.4220;
753.6000;0.1465;10.4244;
753.9000;0.1457;10.4196;
754.2000;0.1473;10.4171;
754.5000;0.1481;10.4123;
754.8000;0.1465;10.4075;
755.1000;0.1457;10.4027;
755.4000;0.1481;10.4147;
755.7000;0.1490;10.4171;
756.0000;0.1473;10.4075;
756.3000;0.1465;10.4027;
756.6000;0.1473;10.4051;
756.9000;0.1481;10.4051;
757.2000;0.1490;10.4051;
757.5000;0.1465;10.3978;
757.8000;0.1481;10.4027;
758.1000;0.1514;10.4196;
758.4000;0.1465;10.4075;
758.7000;0.1547;10.4437;
759.0000;0.1571;10.4340;
759.3000;0.1547;10.4292;
759.6000;0.1457;10.4027;
759.9000;0.1465;10.4051;
760.2000;0.1555;10.4268;
760.5000;0.1498;10.4147;
760.8000;0.1481;10.4123;
761.1000;0.1473;10.4099;
761.4000;0.1473;10.4123;
761.7000;0.1571;10.4485;
762.0000;0.1425;10.4147;
762.3000;0.1498;10.4268;
762.6000;0.1473;10.4268;
762.9000;0.1473;10.4220;
763.2000;0.1473;10.4244;
763.5000;0.1473;10.4220;
763.8000;0.1465;10.4147;
764.1000;0.1481;10.4075;
764.4000;0.1522;10.4123;
764.7000;0.1490;10.4099;
765.0000;0.1473;10.4244;
765.3000;0.1481;10.4268;
765.6000;0.1473;10.4268;
765.9000;0.1481;10.4316;
766.2000;0.1506;10.4437;
766.5000;0.1530;10.4389;
766.8000;0.1481;10.4316;
767.1000;0.1498;10.4389;
767.4000;0.1490;10.4316;
767.7000;0.1522;10.4340;
768.0000;0.1457;10.4244;
768.3000;0.1481;10.4437;
768.6000;0.1490;10.4509;
768.9000;0.1473;10.4461;
769.2000;0.1465;10.4437;
769.5000;0.1481;10.4389;
769.8000;0.1481;10.4340;
770.1000;0.1473;10.4292;
770.4000;0.1465;10.4268;
770.7000;0.1465;10.4220;
771.0000;0.1498;10.4316;
771.3000;0.1490;10.4220;
771.6000;0.1465;10.4171;
771.9000;0.1481;10.4292;
772.2000;0.1473;10.4340;
772.5000;0.1465;10.4340;
772.8000;0.1465;10.4364;
773.1000;0.1473;10.4340;
773.4000;0.1457;10.4340;
773.7000;0.1465;10.4389;
774.0000;0.1473;10.4316;
774.3000;0.1498;10.4244;
774.6000;0.1481;10.4196;
774.9000;0.1481;10.4268;
775.2000;0.1465;10.4196;
775.5000;0.1473;10.4123;
775.8000;0.1481;10.4196;
776.1000;0.1473;10.4171;
776.4000;0.1465;10.4099;
776.7000;0.1571;10.4461;
777.0000;0.1481;10.4196;
777.3000;0.1449;10.4099;
777.6000;0.1465;10.4099;
777.9000;0.1473;10.4147;
778.2000;0.1473;10.4196;
778.5000;0.1481;10.4244;
778.8000;0.1465;10.4171;
779.1000;0.1416;10.4099;
779.4000;0.1465;10.4268;
779.7000;0.1449;10.4292;
780.0000;0.1530;10.4413;
780.3000;0.1416;10.4051;
780.6000;0.1498;10.4123;
780.9000;0.1473;10.4147;
781.2000;0.1547;10.4509;
781.5000;0.1465;10.4292;
781.8000;0.1481;10.4437;
782.1000;0.1441;10.4364;
782.4000;0.1563;10.4726;
782.7000;0.1433;10.4340;
783.0000;0.1514;10.4509;
783.3000;0.1441;10.4364;
783.6000;0.1433;10.4340;
783.9000;0.1473;10.4437;
784.2000;0.1425;10.4220;
784.5000;0.1530;10.4461;
784.8000;0.1473;10.4268;
785.1000;0.1457;10.4220;
785.4000;0.1465;10.4244;
785.7000;0.1425;10.4196;
786.0000;0.1425;10.4196;
786.3000;0.1498;10.4316;
786.6000;0.1473;10.4364;
786.9000;0.1465;10.4316;
787.2000;0.1465;10.4244;
787.5000;0.1498;10.4364;
787.8000;0.1465;10.4316;
788.1000;0.1481;10.4292;
788.4000;0.1441;10.4244;
788.7000;0.1473;10.4268;
789.0000;0.1376;10.4075;
789.3000;0.1465;10.4196;
789.6000;0.1514;10.4220;
789.9000;0.1473;10.4171;
790.2000;0.1490;10.4268;
790.5000;0.1457;10.4244;
790.8000;0.1473;10.4244;
791.1000;0.1481;10.4292;
791.4000;0.1441;10.4196;
791.7000;0.1473;10.4316;
792.0000;0.1481;10.4389;
792.3000;0.1473;10.4364;
792.6000;0.1481;10.4292;
792.9000;0.1490;10.4316;
793.2000;0.1481;10.4220;
793.5000;0.1522;10.4413;
793.8000;0.1481;10.4196;
794.1000;0.1481;10.4171;
794.4000;0.1490;10.4220;
794.7000;0.1473;10.4147;
795.0000;0.1481;10.4196;
795.3000;0.1481;10.4316;
795.6000;0.1465;10.4268;
795.9000;0.1449;10.4244;
796.2000;0.1457;10.4316;
796.5000;0.1490;10.4389;
796.8000;0.1481;10.4292;
797.1000;0.1506;10.4413;
797.4000;0.1481;10.4292;
797.7000;0.1473;10.4220;
798.0000;0.1473;10.4171;
798.3000;0.1359;10.3954;
798.6000;0.1490;10.4196;
798.9000;0.1490;10.4147;
799.2000;0.1490;10.4099;
799.5000;0.1481;10.4147;
799.8000;0.1490;10.4123;
800.1000;0.1473;10.4099;
800.4000;0.1490;10.4147;
800.7000;0.1473;10.4075;
801.0000;0.1522;10.4099;
801.3000;0.1473;10.4075;
801.6000;0.1490;10.4196;
801.9000;0.1490;10.4244;
802.2000;0.1457;10.4268;
802.5000;0.1490;10.4292;
802.8000;0.1481;10.4220;
803.1000;0.1441;10.4051;
803.4000;0.1490;10.4099;
803.7000;0.1506;10.4075;
804.0000;0.1522;10.4171;
804.3000;0.1490;10.4075;
804.6000;0.1481;10.4051;
804.9000;0.1473;10.4051;
805.2000;0.1490;10.4123;
805.5000;0.1481;10.4099;
805.8000;0.1473;10.4268;
806.1000;0.1392;10.4147;
806.4000;0.1457;10.4268;
806.7000;0.1490;10.4340;
807.0000;0.1481;10.4292;
807.3000;0.1490;10.4292;
807.6000;0.1481;10.4268;
807.9000;0.1457;10.4196;
808.2000;0.1416;10.4123;
808.5000;0.1441;10.4220;
808.8000;0.1457;10.4099;
809.1000;0.1490;10.4171;
809.4000;0.1441;10.4123;
809.7000;0.1473;10.4292;
810.0000;0.1465;10.4196;
810.3000;0.1481;10.4220;
810.6000;0.1473;10.4292;
810.9000;0.1465;10.4292;
811.2000;0.1473;10.4413;
811.5000;0.1473;10.4364;
811.8000;0.1481;10.4413;
812.1000;0.1465;10.4461;
812.4000;0.1473;10.4509;
812.7000;0.1481;10.4461;
813.0000;0.1465;10.4389;
813.3000;0.1457;10.4268;
813.6000;0.1481;10.4244;
813.9000;0.1465;10.4316;
814.2000;0.1473;10.4340;
814.5000;0.1490;10.4413;
814.8000;0.1481;10.4268;
815.1000;0.1425;10.4123;
815.4000;0.1498;10.4340;
815.7000;0.1481;10.4244;
816.0000;0.1465;10.4220;
816.3000;0.1433;10.4171;
816.6000;0.1481;10.4316;
816.9000;0.1481;10.4220;
817.2000;0.1473;10.4268;
817.5000;0.1473;10.4220;
817.8000;0.1490;10.4268;
818.1000;0.1457;10.4196;
818.4000;0.1481;10.4220;
818.7000;0.1465;10.4244;
819.0000;0.1449;10.4196;
819.3000;0.1465;10.4244;
819.6000;0.1465;10.4268;
819.9000;0.1473;10.4268;
820.2000;0.1457;10.4268;
820.5000;0.1530;10.4389;
820.8000;0.1457;10.4196;
821.1000;0.1465;10.4268;
821.4000;0.1465;10.4244;
821.7000;0.1465;10.4196;
822.0000;0.1481;10.4364;
822.3000;0.1481;10.4316;
822.6000;0.1425;10.4220;
822.9000;0.1490;10.4364;
823.2000;0.1498;10.4364;
823.5000;0.1473;10.4220;
823.8000;0.1473;10.4292;
824.1000;0.1481;10.4316;
824.4000;0.1449;10.4220;
824.7000;0.1481;10.4316;
825.0000;0.1473;10.4389;
825.3000;0.1433;10.4413;
825.6000;0.1506;10.4509;
825.9000;0.1490;10.4533;
826.2000;0.1473;10.4509;
826.5000;0.1473;10.4533;
826.8000;0.1547;10.4726;
827.1000;0.1498;10.4678;
827.4000;0.1465;10.4654;
827.7000;0.1490;10.4606;
828.0000;0.1433;10.4509;
828.3000;0.1473;10.4606;
828.6000;0.1465;10.4557;
828.9000;0.1473;10.4630;
829.2000;0.1481;10.4702;
829.5000;0.1473;10.4654;
829.8000;0.1490;10.4678;
830.1000;0.1449;10.4557;
830.4000;0.1384;10.4413;
830.7000;0.1473;10.4630;
831.0000;0.1465;10.4581;
831.3000;0.1530;10.4799;
831.6000;0.1465;10.4630;
831.9000;0.1465;10.4678;
832.2000;0.1465;10.4654;
832.5000;0.1473;10.4702;
832.8000;0.1473;10.4702;
833.1000;0.1465;10.4726;
833.4000;0.1490;10.4702;
833.7000;0.1481;10.4702;
834.0000;0.1473;10.4581;
834.3000;0.1506;10.4630;
834.6000;0.1481;10.4485;
834.9000;0.1473;10.4461;
835.2000;0.1473;10.4509;
835.5000;0.1441;10.4533;
835.8000;0.1473;10.4630;
836.1000;0.1481;10.4581;
836.4000;0.1457;10.4533;
836.7000;0.1465;10.4533;
837.0000;0.1473;10.4557;
837.3000;0.1490;10.4606;
837.6000;0.1465;10.4557;
837.9000;0.1457;10.4557;
838.2000;0.1473;10.4557;
838.5000;0.1506;10.4678;
838.8000;0.1457;10.4581;
839.1000;0.1490;10.4630;
839.4000;0.1530;10.4847;
839.7000;0.1481;10.4702;
840.0000;0.1473;10.4630;
840.3000;0.1457;10.4533;
840.6000;0.1473;10.4581;
840.9000;0.1473;10.4606;
841.2000;0.1465;10.4630;
841.5000;0.1481;10.4726;
841.8000;0.1595;10.4991;
842.1000;0.1481;10.4630;
842.4000;0.1490;10.4702;
842.7000;0.1465;10.4702;
843.0000;0.1457;10.4606;
843.3000;0.1490;10.4606;
843.6000;0.1490;10.4654;
843.9000;0.1465;10.4630;
844.2000;0.1481;10.4509;
844.5000;0.1506;10.4581;
844.8000;0.1481;10.4509;
845.1000;0.1465;10.4533;
845.4000;0.1481;10.4581;
845.7000;0.1465;10.4606;
846.0000;0.1514;10.4702;
846.3000;0.1449;10.4485;
846.6000;0.1498;10.4630;
846.9000;0.1473;10.4606;
847.2000;0.1490;10.4678;
847.5000;0.1530;10.4871;
847.8000;0.1457;10.4654;
848.1000;0.1457;10.4581;
848.4000;0.1481;10.4654;
848.7000;0.1465;10.4702;
849.0000;0.1481;10.4678;
849.3000;0.1416;10.4485;
849.6000;0.1473;10.4557;
849.9000;0.1465;10.4581;
850.2000;0.1481;10.4654;
850.5000;0.1465;10.4606;
850.8000;0.1473;10.4606;
851.1000;0.1473;10.4630;
851.4000;0.1473;10.4654;
851.7000;0.1490;10.4630;
852.0000;0.1481;10.4581;
852.3000;0.1465;10.4485;
852.6000;0.1490;10.4533;
852.9000;0.1473;10.4557;
853.2000;0.1490;10.4509;
853.5000;0.1473;10.4509;
853.8000;0.1465;10.4485;
854.1000;0.1473;10.4533;
854.4000;0.1416;10.4437;
854.7000;0.1547;10.4847;
855.0000;0.1473;10.4654;
855.3000;0.1473;10.4557;
855.6000;0.1481;10.4581;
855.9000;0.1465;10.4557;
856.2000;0.1457;10.4509;
856.5000;0.1465;10.4461;
856.8000;0.1465;10.4509;
857.1000;0.1359;10.4220;
857.4000;0.1457;10.4437;
857.7000;0.1473;10.4485;
858.0000;0.1384;10.4244;
858.3000;0.1490;10.4485;
858.6000;0.1457;10.4485;
858.9000;0.1481;10.4485;
859.2000;0.1457;10.4413;
859.5000;0.1506;10.4437;
859.8000;0.1481;10.4413;
860.1000;0.1481;10.4461;
860.4000;0.1473;10.4437;
860.7000;0.1481;10.4437;
861.0000;0.1465;10.4437;
861.3000;0.1473;10.4437;
861.6000;0.1465;10.4364;
861.9000;0.1490;10.4389;
862.2000;0.1449;10.4316;
862.5000;0.1473;10.4292;
862.8000;0.1473;10.4437;
863.1000;0.1490;10.4461;
863.4000;0.1465;10.4461;
863.7000;0.1473;10.4533;
864.0000;0.1473;10.4581;
864.3000;0.1481;10.4581;
864.6000;0.1465;10.4485;
864.9000;0.1490;10.4461;
865.2000;0.1465;10.4509;
865.5000;0.1481;10.4509;
865.8000;0.1481;10.4485;
866.1000;0.1514;10.4557;
866.4000;0.1481;10.4413;
866.7000;0.1481;10.4364;
867.0000;0.1473;10.4413;
867.3000;0.1465;10.4461;
867.6000;0.1465;10.4485;
867.9000;0.1441;10.4413;
868.2000;0.1473;10.4533;
868.5000;0.1416;10.4316;
868.8000;0.1465;10.4461;
869.1000;0.1457;10.4389;
869.4000;0.1473;10.4340;
869.7000;0.1481;10.4364;
870.0000;0.1473;10.4413;
870.3000;0.1473;10.4364;
870.6000;0.1473;10.4340;
870.9000;0.1481;10.4316;
871.2000;0.1457;10.4292;
871.5000;0.1481;10.4364;
871.8000;0.1473;10.4340;
872.1000;0.1506;10.4413;
872.4000;0.1465;10.4437;
872.7000;0.1481;10.4509;
873.0000;0.1547;10.4654;
873.3000;0.1481;10.4437;
873.6000;0.1538;10.4606;
873.9000;0.1490;10.4437;
874.2000;0.1481;10.4389;
874.5000;0.1481;10.4413;
874.8000;0.1490;10.4413;
875.1000;0.1433;10.4340;
875.4000;0.1433;10.4268;
875.7000;0.1457;10.4316;
876.0000;0.1416;10.4292;
876.3000;0.1457;10.4413;
876.6000;0.1481;10.4533;
876.9000;0.1473;10.4413;
877.2000;0.1490;10.4485;
877.5000;0.1433;10.4364;
877.8000;0.1490;10.4533;
878.1000;0.1465;10.4485;
878.4000;0.1481;10.4533;
878.7000;0.1473;10.4533;
879.0000;0.1587;10.4774;
879.3000;0.1498;10.4654;
879.6000;0.1457;10.4606;
879.9000;0.1481;10.4678;
880.2000;0.1465;10.4774;
880.5000;0.1490;10.4871;
880.8000;0.1465;10.4895;
881.1000;0.1449;10.4823;
881.4000;0.1481;10.4967;
881.7000;0.1481;10.4919;
882.0000;0.1473;10.4847;
882.3000;0.1449;10.4823;
882.6000;0.1473;10.4919;
882.9000;0.1473;10.5016;
883.2000;0.1481;10.4991;
883.5000;0.1481;10.4967;
883.8000;0.1473;10.4895;
884.1000;0.1473;10.4895;
884.4000;0.1473;10.4823;
884.7000;0.1465;10.4726;
885.0000;0.1506;10.4726;
885.3000;0.1490;10.4702;
885.6000;0.1481;10.4630;
885.9000;0.1481;10.4678;
886.2000;0.1465;10.4702;
886.5000;0.1481;10.4750;
886.8000;0.1465;10.4726;
887.1000;0.1473;10.4750;
887.4000;0.1465;10.4702;
887.7000;0.1457;10.4726;
888.0000;0.1449;10.4726;
888.3000;0.1465;10.4750;
888.6000;0.1465;10.4630;
888.9000;0.1473;10.4678;
889.2000;0.1465;10.4702;
889.5000;0.1465;10.4630;
889.8000;0.1490;10.4630;
890.1000;0.1481;10.4533;
890.4000;0.1522;10.4557;
890.7000;0.1465;10.4461;
891.0000;0.1490;10.4509;
891.3000;0.1425;10.4413;
891.6000;0.1587;10.4895;
891.9000;0.1481;10.4557;
892.2000;0.1425;10.4437;
892.5000;0.1473;10.4533;
892.8000;0.1498;10.4581;
893.1000;0.1547;10.4750;
893.4000;0.1490;10.4557;
893.7000;0.1490;10.4606;
894.0000;0.1433;10.4461;
894.3000;0.1530;10.4726;
894.6000;0.1481;10.4533;
894.9000;0.1481;10.4557;
895.2000;0.1481;10.4557;
895.5000;0.1490;10.4606;
895.8000;0.1490;10.4606;
896.1000;0.1490;10.4509;
896.4000;0.1465;10.4557;
896.7000;0.1465;10.4509;
897.0000;0.1481;10.4485;
897.3000;0.1457;10.4485;
897.6000;0.1408;10.4461;
897.9000;0.1433;10.4557;
898.2000;0.1473;10.4557;
898.5000;0.1498;10.4606;
898.8000;0.1481;10.4509;
899.1000;0.1457;10.4389;
899.4000;0.1481;10.4509;
899.7000;0.1457;10.4485;
900.0000;0.1498;10.4678;
900.3000;0.1465;10.4654;
900.6000;0.1506;10.4654;
900.9000;0.1473;10.4581;
901.2000;0.1441;10.4509;
901.5000;0.1481;10.4630;
901.8000;0.1481;10.4630;
902.1000;0.1481;10.4702;
902.4000;0.1481;10.4606;
902.7000;0.1425;10.4461;
903.0000;0.1473;10.4654;
903.3000;0.1481;10.4726;
903.6000;0.1465;10.4678;
903.9000;0.1481;10.4702;
904.2000;0.1490;10.4774;
904.5000;0.1490;10.4823;
904.8000;0.1473;10.4702;
905.1000;0.1490;10.4654;
905.4000;0.1481;10.4509;
905.7000;0.1465;10.4485;
906.0000;0.1465;10.4509;
906.3000;0.1490;10.4509;
906.6000;0.1498;10.4533;
906.9000;0.1449;10.4437;
907.2000;0.1481;10.4557;
907.5000;0.1368;10.4316;
907.8000;0.1481;10.4533;
908.1000;0.1498;10.4581;
908.4000;0.1465;10.4461;
908.7000;0.1498;10.4533;
909.0000;0.1498;10.4606;
909.3000;0.1465;10.4533;
909.6000;0.1457;10.4533;
909.9000;0.1490;10.4630;
910.2000;0.1481;10.4799;
910.5000;0.1449;10.4702;
910.8000;0.1481;10.4726;
911.1000;0.1490;10.4678;
911.4000;0.1481;10.4654;
911.7000;0.1481;10.4726;
912.0000;0.1465;10.4654;
912.3000;0.1457;10.4581;
912.6000;0.1473;10.4606;
912.9000;0.1473;10.4606;
913.2000;0.1473;10.4606;
913.5000;0.1457;10.4533;
913.8000;0.1490;10.4630;
914.1000;0.1457;10.4485;
914.4000;0.1514;10.4630;
914.7000;0.1473;10.4581;
915.0000;0.1481;10.4630;
915.3000;0.1457;10.4606;
915.6000;0.1530;10.4774;
915.9000;0.1473;10.4799;
916.2000;0.1465;10.4750;
916.5000;0.1514;10.4799;
916.8000;0.1465;10.4678;
917.1000;0.1498;10.4726;
917.4000;0.1473;10.4702;
917.7000;0.1473;10.4654;
918.0000;0.1465;10.4630;
918.3000;0.1465;10.4630;
918.6000;0.1481;10.4654;
918.9000;0.1522;10.4774;
919.2000;0.1473;10.4654;
919.5000;0.1506;10.4630;
919.8000;0.1449;10.4606;
920.1000;0.1498;10.4726;
920.4000;0.1490;10.4654;
920.7000;0.1490;10.4630;
921.0000;0.1465;10.4606;
921.3000;0.1473;10.4678;
921.6000;0.1481;10.4774;
921.9000;0.1441;10.4606;
922.2000;0.1490;10.4774;
922.5000;0.1473;10.4799;
922.8000;0.1465;10.4847;
923.1000;0.1490;10.4943;
923.4000;0.1449;10.4823;
923.7000;0.1473;10.4823;
924.0000;0.1392;10.4606;
924.3000;0.1433;10.4702;
924.6000;0.1465;10.4799;
924.9000;0.1449;10.4750;
925.2000;0.1465;10.4702;
925.5000;0.1481;10.4726;
925.8000;0.1530;10.4799;
926.1000;0.1465;10.4654;
926.4000;0.1481;10.4702;
926.7000;0.1481;10.4630;
927.0000;0.1457;10.4606;
927.3000;0.1457;10.4461;
927.6000;0.1465;10.4557;
927.9000;0.1473;10.4557;
928.2000;0.1465;10.4557;
928.5000;0.1473;10.4581;
928.8000;0.1473;10.4606;
929.1000;0.1473;10.4678;
929.4000;0.1481;10.4774;
929.7000;0.1481;10.4678;
930.0000;0.1473;10.4630;
930.3000;0.1481;10.4630;
930.6000;0.1506;10.4581;
930.9000;0.1473;10.4654;
931.2000;0.1481;10.4654;
931.5000;0.1433;10.4606;
931.8000;0.1465;10.4654;
932.1000;0.1465;10.4678;
932.4000;0.1335;10.4364;
932.7000;0.1481;10.4726;
933.0000;0.1481;10.4726;
933.3000;0.1465;10.4750;
933.6000;0.1473;10.4654;
933.9000;0.1457;10.4509;
934.2000;0.1481;10.4533;
934.5000;0.1473;10.4461;
934.8000;0.1465;10.4461;
935.1000;0.1530;10.4606;
935.4000;0.1490;10.4509;
935.7000;0.1490;10.4557;
936.0000;0.1473;10.4461;
936.3000;0.1490;10.4557;
936.6000;0.1506;10.4630;
936.9000;0.1490;10.4630;
937.2000;0.1481;10.4606;
937.5000;0.1481;10.4678;
937.8000;0.1473;10.4654;
938.1000;0.1498;10.4726;
938.4000;0.1490;10.4678;
938.7000;0.1465;10.4557;
939.0000;0.1465;10.4581;
939.3000;0.1465;10.4606;
939.6000;0.1473;10.4654;
939.9000;0.1490;10.4654;
940.2000;0.1506;10.4678;
940.5000;0.1465;10.4581;
940.8000;0.1490;10.4654;
941.1000;0.1490;10.4630;
941.4000;0.1465;10.4654;
941.7000;0.1425;10.4606;
942.0000;0.1481;10.4726;
942.3000;0.1465;10.4750;
942.6000;0.1449;10.4702;
942.9000;0.1465;10.4726;
943.2000;0.1490;10.4871;
943.5000;0.1490;10.4847;
943.8000;0.1465;10.4799;
944.1000;0.1457;10.4750;
944.4000;0.1473;10.4799;
944.7000;0.1473;10.4799;
945.0000;0.1481;10.4726;
945.3000;0.1449;10.4654;
945.6000;0.1465;10.4630;
945.9000;0.1473;10.4750;
946.2000;0.1481;10.4726;
946.5000;0.1473;10.4702;
946.8000;0.1481;10.4726;
947.1000;0.1481;10.4702;
947.4000;0.1400;10.4413;
947.7000;0.1473;10.4557;
948.0000;0.1465;10.4557;
948.3000;0.1481;10.4606;
948.6000;0.1465;10.4581;
948.9000;0.1457;10.4581;
949.2000;0.1530;10.4678;
949.5000;0.1481;10.4557;
949.8000;0.1481;10.4606;
950.1000;0.1465;10.4678;
950.4000;0.1473;10.4630;
950.7000;0.1473;10.4630;
951.0000;0.1498;10.4654;
951.3000;0.1490;10.4654;
951.6000;0.1481;10.4654;
951.9000;0.1473;10.4581;
952.2000;0.1498;10.4630;
952.5000;0.1457;10.4581;
952.8000;0.1473;10.4533;
953.1000;0.1473;10.4485;
953.4000;0.1481;10.4581;
953.7000;0.1457;10.4606;
954.0000;0.1457;10.4630;
954.3000;0.1473;10.4799;
954.6000;0.1481;10.4726;
954.9000;0.1481;10.4750;
955.2000;0.1457;10.4702;
955.5000;0.1457;10.4678;
955.8000;0.1473;10.4726;
956.1000;0.1473;10.4726;
956.4000;0.1465;10.4654;
956.7000;0.1481;10.4630;
957.0000;0.1473;10.4654;
957.3000;0.1473;10.4750;
957.6000;0.1490;10.4774;
957.9000;0.1465;10.4726;
958.2000;0.1465;10.4630;
958.5000;0.1449;10.4606;
958.8000;0.1457;10.4654;
959.1000;0.1481;10.4702;
959.4000;0.1465;10.4799;
959.7000;0.1473;10.4823;
960.0000;0.1465;10.4750;
960.3000;0.1498;10.4799;
960.6000;0.1465;10.4702;
960.9000;0.1490;10.4726;
961.2000;0.1481;10.4678;
961.5000;0.1481;10.4678;
961.8000;0.1465;10.4606;
962.1000;0.1473;10.4581;
962.4000;0.1457;10.4533;
962.7000;0.1481;10.4557;
963.0000;0.1473;10.4557;
963.3000;0.1457;10.4509;
963.6000;0.1481;10.4557;
963.9000;0.1498;10.4581;
964.2000;0.1481;10.4581;
964.5000;0.1481;10.4654;
964.8000;0.1465;10.4509;
965.1000;0.1506;10.4533;
965.4000;0.1506;10.4461;
965.7000;0.1473;10.4509;
966.0000;0.1481;10.4557;
966.3000;0.1498;10.4581;
966.6000;0.1506;10.4606;
966.9000;0.1522;10.4702;
967.2000;0.1498;10.4606;
967.5000;0.1473;10.4509;
967.8000;0.1498;10.4581;
968.1000;0.1481;10.4533;
968.4000;0.1490;10.4678;
968.7000;0.1473;10.4654;
969.0000;0.1481;10.4678;
969.3000;0.1490;10.4750;
969.6000;0.1473;10.4750;
969.9000;0.1490;10.4702;
970.2000;0.1473;10.4678;
970.5000;0.1473;10.4726;
970.8000;0.1481;10.4702;
971.1000;0.1465;10.4702;
971.4000;0.1408;10.4581;
971.7000;0.1490;10.4726;
972.0000;0.1490;10.4702;
972.3000;0.1481;10.4654;
972.6000;0.1481;10.4606;
972.9000;0.1490;10.4509;
973.2000;0.1490;10.4485;
973.5000;0.1473;10.4461;
973.8000;0.1473;10.4461;
974.1000;0.1481;10.4485;
974.4000;0.1481;10.4533;
974.7000;0.1465;10.4413;
975.0000;0.1473;10.4533;
975.3000;0.1465;10.4606;
975.6000;0.1465;10.4606;
975.9000;0.1465;10.4606;
976.2000;0.1465;10.4509;
976.5000;0.1490;10.4461;
976.8000;0.1490;10.4413;
977.1000;0.1490;10.4437;
977.4000;0.1465;10.4413;
977.7000;0.1481;10.4389;
978.0000;0.1473;10.4340;
978.3000;0.1441;10.4268;
978.6000;0.1465;10.4340;
978.9000;0.1481;10.4389;
979.2000;0.1490;10.4461;
979.5000;0.1465;10.4461;
979.8000;0.1473;10.4485;
980.1000;0.1465;10.4509;
980.4000;0.1433;10.4437;
980.7000;0.1465;10.4606;
981.0000;0.1465;10.4606;
981.3000;0.1457;10.4533;
981.6000;0.1441;10.4533;
981.9000;0.1465;10.4606;
982.2000;0.1457;10.4606;
982.5000;0.1490;10.4606;
982.8000;0.1571;10.4823;
983.1000;0.1514;10.4678;
983.4000;0.1481;10.4630;
983.7000;0.1473;10.4557;
984.0000;0.1490;10.4557;
984.3000;0.1473;10.4557;
984.6000;0.1473;10.4557;
984.9000;0.1457;10.4533;
985.2000;0.1457;10.4533;
985.5000;0.1473;10.4654;
985.8000;0.1449;10.4606;
986.1000;0.1490;10.4678;
986.4000;0.1457;10.4630;
986.7000;0.1441;10.4654;
987.0000;0.1490;10.4726;
987.3000;0.1490;10.4799;
987.6000;0.1481;10.4823;
987.9000;0.1490;10.4823;
988.2000;0.1490;10.4847;
988.5000;0.1441;10.4847;
988.8000;0.1506;10.4967;
989.1000;0.1530;10.5064;
989.4000;0.1563;10.5064;
989.7000;0.1481;10.4750;
990.0000;0.1538;10.4871;
990.3000;0.1498;10.4799;
990.6000;0.1490;10.4750;
990.9000;0.1538;10.4774;
991.2000;0.1457;10.4557;
991.5000;0.1465;10.4557;
991.8000;0.1473;10.4606;
992.1000;0.1579;10.4871;
992.4000;0.1490;10.4533;
992.7000;0.1481;10.4606;
993.0000;0.1473;10.4630;
993.3000;0.1481;10.4654;
993.6000;0.1465;10.4509;
993.9000;0.1465;10.4533;
994.2000;0.1481;10.4606;
994.5000;0.1473;10.4630;
994.8000;0.1490;10.4606;
995.1000;0.1481;10.4581;
995.4000;0.1449;10.4485;
995.7000;0.1490;10.4461;
996.0000;0.1490;10.4413;
996.3000;0.1465;10.4413;
996.6000;0.1473;10.4509;
996.9000;0.1465;10.4509;
997.2000;0.1465;10.4509;
997.5000;0.1473;10.4461;
997.8000;0.1481;10.4509;
998.1000;0.1481;10.4485;
998.4000;0.1490;10.4533;
998.7000;0.1441;10.4437;
999.0000;0.1490;10.4509;
999.3000;0.1465;10.4533;
999.6000;0.1473;10.4485;
999.9000;0.1457;10.4437;
1000.2000;0.1457;10.4364;
1000.5000;0.1473;10.4316;
1000.8000;0.1547;10.4533;
1001.1000;0.1481;10.4413;
1001.4000;0.1473;10.4437;
1001.7000;0.1465;10.4461;
1002.0000;0.1481;10.4533;
1002.3000;0.1481;10.4509;
1002.6000;0.1473;10.4485;
1002.9000;0.1481;10.4437;
1003.2000;0.1481;10.4485;
1003.5000;0.1473;10.4557;
1003.8000;0.1473;10.4557;
1004.1000;0.1465;10.4533;
1004.4000;0.1465;10.4557;
1004.7000;0.1473;10.4509;
1005.0000;0.1522;10.4726;
1005.3000;0.1473;10.4533;
1005.6000;0.1425;10.4437;
1005.9000;0.1465;10.4630;
1006.2000;0.1473;10.4678;
1006.5000;0.1465;10.4702;
1006.8000;0.1473;10.4702;
1007.1000;0.1465;10.4726;
1007.4000;0.1465;10.4726;
1007.7000;0.1465;10.4630;
1008.0000;0.1490;10.4606;
1008.3000;0.1473;10.4533;
1008.6000;0.1449;10.4413;
1008.9000;0.1473;10.4485;
1009.2000;0.1473;10.4533;
1009.5000;0.1473;10.4630;
1009.8000;0.1457;10.4774;
1010.1000;0.1490;10.4847;
1010.4000;0.1563;10.5016;
1010.7000;0.1465;10.4799;
1011.0000;0.1506;10.4823;
1011.3000;0.1473;10.4678;
1011.6000;0.1457;10.4654;
1011.9000;0.1473;10.4630;
1012.2000;0.1473;10.4678;
1012.5000;0.1490;10.4557;
1012.8000;0.1481;10.4654;
1013.1000;0.1433;10.4630;
1013.4000;0.1465;10.4750;
1013.7000;0.1490;10.4871;
1014.0000;0.1481;10.4943;
1014.3000;0.1473;10.4895;
1014.6000;0.1473;10.4823;
1014.9000;0.1465;10.4750;
1015.2000;0.1506;10.4750;
1015.5000;0.1465;10.4606;
1015.8000;0.1481;10.4702;
1016.1000;0.1473;10.4581;
1016.4000;0.1473;10.4485;
1016.7000;0.1465;10.4461;
1017.0000;0.1473;10.4509;
1017.3000;0.1473;10.4509;
1017.6000;0.1506;10.4606;
1017.9000;0.1481;10.4581;
1018.2000;0.1441;10.4581;
1018.5000;0.1481;10.4702;
1018.8000;0.1465;10.4581;
1019.1000;0.1465;10.4581;
1019.4000;0.1465;10.4533;
1019.7000;0.1473;10.4654;
1020.0000;0.1473;10.4702;
1020.3000;0.1481;10.4678;
1020.6000;0.1473;10.4702;
1020.9000;0.1506;10.4799;
1021.2000;0.1457;10.4726;
1021.5000;0.1473;10.4654;
1021.8000;0.1457;10.4581;
1022.1000;0.1473;10.4654;
1022.4000;0.1498;10.4606;
1022.7000;0.1481;10.4581;
1023.0000;0.1481;10.4533;
1023.3000;0.1481;10.4437;
1023.6000;0.1465;10.4389;
1023.9000;0.1490;10.4533;
1024.2000;0.1481;10.4485;
1024.5000;0.1425;10.4364;
1024.8000;0.1457;10.4509;
1025.1000;0.1473;10.4557;
1025.4000;0.1425;10.4533;
1025.7000;0.1465;10.4557;
1026.0000;0.1457;10.4557;
1026.3000;0.1416;10.4509;
1026.6000;0.1457;10.4606;
1026.9000;0.1465;10.4654;
1027.2000;0.1465;10.4702;
1027.5000;0.1481;10.4774;
1027.8000;0.1490;10.4750;
1028.1000;0.1490;10.4799;
1028.4000;0.1449;10.4654;
1028.7000;0.1481;10.4606;
1029.0000;0.1498;10.4726;
1029.3000;0.1490;10.4702;
1029.6000;0.1473;10.4654;
1029.9000;0.1465;10.4581;
1030.2000;0.1441;10.4557;
1030.5000;0.1506;10.4726;
1030.8000;0.1498;10.4702;
1031.1000;0.1449;10.4557;
1031.4000;0.1457;10.4461;
1031.7000;0.1481;10.4581;
1032.0000;0.1449;10.4581;
1032.3000;0.1465;10.4581;
1032.6000;0.1490;10.4726;
1032.9000;0.1481;10.4750;
1033.2000;0.1481;10.4799;
1033.5000;0.1481;10.4726;
1033.8000;0.1498;10.4750;
1034.1000;0.1465;10.4702;
1034.4000;0.1514;10.4799;
1034.7000;0.1473;10.4726;
1035.0000;0.1481;10.4774;
1035.3000;0.1441;10.4654;
1035.6000;0.1473;10.4702;
1035.9000;0.1473;10.4630;
1036.2000;0.1473;10.4654;
1036.5000;0.1481;10.4678;
1036.8000;0.1481;10.4774;
1037.1000;0.1473;10.4750;
1037.4000;0.1449;10.4630;
1037.7000;0.1481;10.4799;
1038.0000;0.1449;10.4654;
1038.3000;0.1408;10.4606;
1038.6000;0.1481;10.4750;
1038.9000;0.1481;10.4823;
1039.2000;0.1490;10.4943;
1039.5000;0.1490;10.4991;
1039.8000;0.1481;10.4967;
1040.1000;0.1481;10.4967;
1040.4000;0.1547;10.5112;
1040.7000;0.1481;10.4943;
1041.0000;0.1481;10.4895;
1041.3000;0.1473;10.4847;
1041.6000;0.1473;10.4871;
1041.9000;0.1457;10.4702;
1042.2000;0.1481;10.4726;
1042.5000;0.1441;10.4630;
1042.8000;0.1473;10.4630;
1043.1000;0.1465;10.4630;
1043.4000;0.1481;10.4702;
1043.7000;0.1465;10.4654;
1044.0000;0.1490;10.4630;
1044.3000;0.1481;10.4557;
1044.6000;0.1481;10.4557;
1044.9000;0.1473;10.4509;
1045.2000;0.1587;10.4823;
1045.5000;0.1465;10.4461;
1045.8000;0.1465;10.4485;
1046.1000;0.1481;10.4509;
1046.4000;0.1441;10.4461;
1046.7000;0.1481;10.4630;
1047.0000;0.1481;10.4678;
1047.3000;0.1473;10.4581;
1047.6000;0.1498;10.4557;
1047.9000;0.1498;10.4654;
1048.2000;0.1481;10.4750;
1048.5000;0.1457;10.4678;
1048.8000;0.1473;10.4726;
1049.1000;0.1481;10.4799;
1049.4000;0.1425;10.4726;
1049.7000;0.1457;10.4799;
1050.0000;0.1465;10.4799;
1050.3000;0.1449;10.4678;
1050.6000;0.1473;10.4678;
1050.9000;0.1457;10.4630;
1051.2000;0.1465;10.4654;
1051.5000;0.1481;10.4678;
1051.8000;0.1473;10.4654;
1052.1000;0.1481;10.4678;
1052.4000;0.1457;10.4606;
1052.7000;0.1473;10.4630;
1053.0000;0.1473;10.4606;
1053.3000;0.1457;10.4509;
1053.6000;0.1457;10.4557;
1053.9000;0.1457;10.4509;
1054.2000;0.1530;10.4750;
1054.5000;0.1498;10.4581;
1054.8000;0.1473;10.4509;
1055.1000;0.1490;10.4509;
1055.4000;0.1481;10.4509;
1055.7000;0.1498;10.4654;
1056.0000;0.1473;10.4461;
1056.3000;0.1473;10.4413;
1056.6000;0.1465;10.4461;
1056.9000;0.1433;10.4364;
1057.2000;0.1425;10.4389;
1057.5000;0.1481;10.4509;
1057.8000;0.1473;10.4437;
1058.1000;0.1457;10.4364;
1058.4000;0.1490;10.4389;
1058.7000;0.1473;10.4437;
1059.0000;0.1457;10.4389;
1059.3000;0.1473;10.4437;
1059.6000;0.1457;10.4413;
1059.9000;0.1473;10.4437;
1060.2000;0.1490;10.4533;
1060.5000;0.1481;10.4509;
1060.8000;0.1498;10.4630;
1061.1000;0.1465;10.4581;
1061.4000;0.1465;10.4678;
1061.7000;0.1490;10.4750;
1062.0000;0.1481;10.4774;
1062.3000;0.1425;10.4654;
1062.6000;0.1449;10.4678;
1062.9000;0.1465;10.4654;
1063.2000;0.1465;10.4606;
1063.5000;0.1457;10.4606;
1063.8000;0.1473;10.4606;
1064.1000;0.1490;10.4750;
1064.4000;0.1481;10.4774;
1064.7000;0.1490;10.4702;
1065.0000;0.1506;10.4702;
1065.3000;0.1555;10.4895;
1065.6000;0.1498;10.4750;
1065.9000;0.1490;10.4678;
1066.2000;0.1481;10.4702;
1066.5000;0.1465;10.4702;
1066.8000;0.1473;10.4702;
1067.1000;0.1465;10.4678;
1067.4000;0.1481;10.4702;
1067.7000;0.1465;10.4678;
1068.0000;0.1481;10.4678;
1068.3000;0.1473;10.4654;
1068.6000;0.1481;10.4678;
1068.9000;0.1481;10.4726;
1069.2000;0.1465;10.4654;
1069.5000;0.1481;10.4750;
1069.8000;0.1481;10.4847;
1070.1000;0.1490;10.4823;
1070.4000;0.1490;10.4702;
1070.7000;0.1498;10.4774;
1071.0000;0.1498;10.4871;
1071.3000;0.1490;10.4847;
1071.6000;0.1465;10.4750;
1071.9000;0.1465;10.4823;
1072.2000;0.1481;10.4847;
1072.5000;0.1514;10.4799;
1072.8000;0.1465;10.4726;
1073.1000;0.1473;10.4750;
1073.4000;0.1473;10.4750;
1073.7000;0.1498;10.4774;
1074.0000;0.1522;10.4895;
1074.3000;0.1498;10.4774;
1074.6000;0.1473;10.4606;
1074.9000;0.1481;10.4654;
1075.2000;0.1490;10.4726;
1075.5000;0.1490;10.4823;
1075.8000;0.1465;10.4774;
1076.1000;0.1490;10.4799;
1076.4000;0.1473;10.4774;
1076.7000;0.1490;10.4799;
1077.0000;0.1465;10.4726;
1077.3000;0.1490;10.4702;
1077.6000;0.1490;10.4678;
1077.9000;0.1473;10.4654;
1078.2000;0.1465;10.4630;
1078.5000;0.1490;10.4654;
1078.8000;0.1465;10.4654;
1079.1000;0.1425;10.4533;
1079.4000;0.1473;10.4726;
1079.7000;0.1473;10.4726;
1080.0000;0.1498;10.4823;
1080.3000;0.1538;10.5064;
1080.6000;0.1465;10.4943;
1080.9000;0.1522;10.5112;
1081.2000;0.1498;10.5064;
1081.5000;0.1481;10.4967;
1081.8000;0.1481;10.4847;
1082.1000;0.1473;10.4750;
1082.4000;0.1490;10.4774;
1082.7000;0.1473;10.4702;
1083.0000;0.1481;10.4726;
1083.3000;0.1465;10.4678;
1083.6000;0.1441;10.4606;
1083.9000;0.1514;10.4774;
1084.2000;0.1481;10.4774;
1084.5000;0.1465;10.4726;
1084.8000;0.1498;10.4871;
1085.1000;0.1498;10.4871;
1085.4000;0.1449;10.4750;
1085.7000;0.1465;10.4774;
1086.0000;0.1473;10.4774;
1086.3000;0.1587;10.5112;
1086.6000;0.1457;10.4847;
1086.9000;0.1481;10.4895;
1087.2000;0.1465;10.4919;
1087.5000;0.1490;10.4967;
1087.8000;0.1481;10.4919;
1088.1000;0.1481;10.4943;
1088.4000;0.1555;10.5040;
1088.7000;0.1473;10.4919;
1089.0000;0.1425;10.4799;
1089.3000;0.1514;10.4919;
1089.6000;0.1481;10.4847;
1089.9000;0.1481;10.4799;
1090.2000;0.1490;10.4871;
1090.5000;0.1490;10.4847;
1090.8000;0.1457;10.4799;
1091.1000;0.1481;10.4847;
1091.4000;0.1498;10.4943;
1091.7000;0.1473;10.4895;
1092.0000;0.1473;10.4871;
1092.3000;0.1498;10.4943;
1092.6000;0.1457;10.4774;
1092.9000;0.1473;10.4774;
1093.2000;0.1481;10.4895;
1093.5000;0.1449;10.4847;
1093.8000;0.1481;10.4919;
1094.1000;0.1490;10.4895;
1094.4000;0.1481;10.4823;
1094.7000;0.1465;10.4847;
1095.0000;0.1473;10.4847;
1095.3000;0.1473;10.4774;
1095.6000;0.1490;10.4750;
1095.9000;0.1490;10.4654;
1096.2000;0.1449;10.4557;
1096.5000;0.1571;10.4967;
1096.8000;0.1490;10.4750;
1097.1000;0.1604;10.5088;
1097.4000;0.1481;10.4847;
1097.7000;0.1473;10.4847;
1098.0000;0.1473;10.4774;
1098.3000;0.1473;10.4750;
1098.6000;0.1384;10.4437;
1098.9000;0.1473;10.4630;
1099.2000;0.1465;10.4654;
1099.5000;0.1465;10.4678;
1099.8000;0.1473;10.4702;
1100.1000;0.1473;10.4726;
1100.4000;0.1473;10.4799;
1100.7000;0.1473;10.4774;
1101.0000;0.1473;10.4823;
1101.3000;0.1481;10.4823;
1101.6000;0.1547;10.4967;
1101.9000;0.1490;10.4774;
1102.2000;0.1481;10.4774;
1102.5000;0.1490;10.4750;
1102.8000;0.1506;10.4678;
1103.1000;0.1481;10.4581;
1103.4000;0.1441;10.4509;
1103.7000;0.1481;10.4654;
1104.0000;0.1490;10.4630;
1104.3000;0.1530;10.4774;
1104.6000;0.1514;10.4774;
1104.9000;0.1449;10.4606;
1105.2000;0.1441;10.4702;
1105.5000;0.1392;10.4557;
1105.8000;0.1481;10.4847;
1106.1000;0.1595;10.5136;
1106.4000;0.1481;10.4774;
1106.7000;0.1465;10.4799;
1107.0000;0.1416;10.4678;
1107.3000;0.1498;10.4895;
1107.6000;0.1481;10.4750;
1107.9000;0.1522;10.4799;
1108.2000;0.1465;10.4726;
1108.5000;0.1465;10.4774;
1108.8000;0.1473;10.4823;
1109.1000;0.1473;10.4726;
1109.4000;0.1473;10.4678;
1109.7000;0.1481;10.4702;
1110.0000;0.1433;10.4533;
1110.3000;0.1457;10.4509;
1110.6000;0.1481;10.4581;
1110.9000;0.1473;10.4606;
1111.2000;0.1522;10.4630;
1111.5000;0.1465;10.4461;
1111.8000;0.1490;10.4485;
1112.1000;0.1481;10.4485;
1112.4000;0.1538;10.4678;
1112.7000;0.1481;10.4557;
1113.0000;0.1481;10.4581;
1113.3000;0.1481;10.4630;
1113.6000;0.1416;10.4437;
1113.9000;0.1473;10.4485;
1114.2000;0.1481;10.4389;
1114.5000;0.1481;10.4437;
1114.8000;0.1457;10.4461;
1115.1000;0.1481;10.4485;
1115.4000;0.1457;10.4485;
1115.7000;0.1473;10.4581;
1116.0000;0.1490;10.4581;
1116.3000;0.1473;10.4557;
1116.6000;0.1473;10.4581;
1116.9000;0.1481;10.4557;
1117.2000;0.1498;10.4654;
1117.5000;0.1563;10.4799;
1117.8000;0.1579;10.4847;
1118.1000;0.1490;10.4654;
1118.4000;0.1465;10.4606;
1118.7000;0.1449;10.4533;
1119.0000;0.1457;10.4606;
1119.3000;0.1514;10.4750;
1119.6000;0.1473;10.4581;
1119.9000;0.1490;10.4606;
1120.2000;0.1481;10.4606;
1120.5000;0.1481;10.4654;
1120.8000;0.1490;10.4702;
1121.1000;0.1465;10.4654;
1121.4000;0.1465;10.4678;
1121.7000;0.1465;10.4606;
1122.0000;0.1457;10.4581;
1122.3000;0.1465;10.4509;
1122.6000;0.1465;10.4557;
1122.9000;0.1457;10.4630;
1123.2000;0.1490;10.4581;
1123.5000;0.1498;10.4557;
1123.8000;0.1481;10.4485;
1124.1000;0.1498;10.4702;
1124.4000;0.1465;10.4678;
1124.7000;0.1490;10.4774;
1125.0000;0.1473;10.4750;
1125.3000;0.1490;10.4750;
1125.6000;0.1481;10.4678;
1125.9000;0.1490;10.4654;
1126.2000;0.1498;10.4654;
1126.5000;0.1506;10.4823;
1126.8000;0.1481;10.4750;
1127.1000;0.1490;10.4750;
1127.4000;0.1392;10.4485;
1127.7000;0.1473;10.4726;
1128.0000;0.1449;10.4702;
1128.3000;0.1473;10.4823;
1128.6000;0.1465;10.4799;
1128.9000;0.1481;10.4847;
1129.2000;0.1465;10.4726;
1129.5000;0.1514;10.4895;
1129.8000;0.1481;10.4726;
1130.1000;0.1490;10.4750;
1130.4000;0.1506;10.4871;
1130.7000;0.1481;10.4799;
1131.0000;0.1481;10.4799;
1131.3000;0.1465;10.4799;
1131.6000;0.1498;10.4847;
1131.9000;0.1473;10.4702;
1132.2000;0.1433;10.4509;
1132.5000;0.1473;10.4485;
1132.8000;0.1490;10.4533;
1133.1000;0.1473;10.4557;
1133.4000;0.1490;10.4678;
1133.7000;0.1465;10.4606;
1134.0000;0.1481;10.4606;
1134.3000;0.1457;10.4606;
1134.6000;0.1457;10.4654;
1134.9000;0.1457;10.4654;
1135.2000;0.1490;10.4750;
1135.5000;0.1481;10.4654;
1135.8000;0.1498;10.4606;
1136.1000;0.1506;10.4606;
1136.4000;0.1490;10.4557;
1136.7000;0.1481;10.4533;
1137.0000;0.1481;10.4509;
1137.3000;0.1498;10.4485;
1137.6000;0.1490;10.4461;
1137.9000;0.1481;10.4389;
1138.2000;0.1473;10.4461;
1138.5000;0.1481;10.4509;
1138.8000;0.1514;10.4533;
1139.1000;0.1473;10.4461;
1139.4000;0.1473;10.4437;
1139.7000;0.1473;10.4485;
1140.0000;0.1481;10.4509;
1140.3000;0.1481;10.4606;
1140.6000;0.1457;10.4533;
1140.9000;0.1481;10.4581;
1141.2000;0.1481;10.4533;
1141.5000;0.1433;10.4340;
1141.8000;0.1490;10.4533;
1142.1000;0.1473;10.4533;
1142.4000;0.1490;10.4509;
1142.7000;0.1473;10.4533;
1143.0000;0.1481;10.4557;
1143.3000;0.1465;10.4485;
1143.6000;0.1465;10.4485;
1143.9000;0.1481;10.4485;
1144.2000;0.1392;10.4340;
1144.5000;0.1481;10.4606;
1144.8000;0.1473;10.4557;
1145.1000;0.1506;10.4654;
1145.4000;0.1465;10.4606;
1145.7000;0.1490;10.4581;
1146.0000;0.1473;10.4557;
1146.3000;0.1481;10.4606;
1146.6000;0.1481;10.4606;
1146.9000;0.1473;10.4630;
1147.2000;0.1465;10.4557;
1147.5000;0.1465;10.4461;
1147.8000;0.1481;10.4557;
1148.1000;0.1465;10.4509;
1148.4000;0.1465;10.4533;
1148.7000;0.1514;10.4678;
1149.0000;0.1481;10.4606;
1149.3000;0.1481;10.4485;
1149.6000;0.1490;10.4389;
1149.9000;0.1481;10.4413;
1150.2000;0.1490;10.4485;
1150.5000;0.1490;10.4437;
1150.8000;0.1481;10.4437;
1151.1000;0.1481;10.4485;
1151.4000;0.1473;10.4461;
1151.7000;0.1481;10.4485;
1152.0000;0.1481;10.4533;
1152.3000;0.1473;10.4461;
1152.6000;0.1465;10.4509;
1152.9000;0.1481;10.4630;
1153.2000;0.1490;10.4654;
1153.5000;0.1481;10.4654;
1153.8000;0.1490;10.4654;
1154.1000;0.1490;10.4630;
1154.4000;0.1473;10.4606;
1154.7000;0.1473;10.4533;
1155.0000;0.1481;10.4461;
1155.3000;0.1473;10.4581;
1155.6000;0.1481;10.4678;
1155.9000;0.1481;10.4774;
1156.2000;0.1473;10.4823;
1156.5000;0.1498;10.4919;
1156.8000;0.1473;10.4847;
1157.1000;0.1481;10.4895;
1157.4000;0.1473;10.4678;
1157.7000;0.1473;10.4654;
1158.0000;0.1473;10.4726;
1158.3000;0.1473;10.4726;
1158.6000;0.1473;10.4654;
1158.9000;0.1481;10.4654;
1159.2000;0.1473;10.4606;
1159.5000;0.1473;10.4606;
1159.8000;0.1498;10.4726;
1160.1000;0.1473;10.4630;
1160.4000;0.1473;10.4678;
1160.7000;0.1481;10.4702;
1161.0000;0.1473;10.4726;
1161.3000;0.1473;10.4654;
1161.6000;0.1498;10.4750;
1161.9000;0.1481;10.4799;
1162.2000;0.1481;10.4750;
1162.5000;0.1490;10.4823;
1162.8000;0.1425;10.4654;
1163.1000;0.1473;10.4774;
1163.4000;0.1530;10.4823;
1163.7000;0.1359;10.4413;
1164.0000;0.1490;10.4774;
1164.3000;0.1587;10.5064;
1164.6000;0.1490;10.4823;
1164.9000;0.1473;10.4871;
1165.2000;0.1473;10.4847;
1165.5000;0.1473;10.4871;
1165.8000;0.1457;10.4823;
1166.1000;0.1473;10.4774;
1166.4000;0.1449;10.4702;
1166.7000;0.1473;10.4799;
1167.0000;0.1481;10.4823;
1167.3000;0.1490;10.4750;
1167.6000;0.1481;10.4750;
1167.9000;0.1481;10.4702;
1168.2000;0.1449;10.4557;
1168.5000;0.1473;10.4678;
1168.8000;0.1465;10.4630;
1169.1000;0.1473;10.4630;
1169.4000;0.1473;10.4606;
1169.7000;0.1473;10.4581;
1170.0000;0.1473;10.4606;
1170.3000;0.1465;10.4557;
1170.6000;0.1498;10.4581;
1170.9000;0.1481;10.4533;
1171.2000;0.1473;10.4581;
1171.5000;0.1481;10.4581;
1171.8000;0.1481;10.4606;
1172.1000;0.1490;10.4654;
1172.4000;0.1473;10.4557;
1172.7000;0.1473;10.4485;
1173.0000;0.1465;10.4485;
1173.3000;0.1481;10.4557;
1173.6000;0.1490;10.4557;
1173.9000;0.1473;10.4533;
1174.2000;0.1473;10.4533;
1174.5000;0.1473;10.4437;
1174.8000;0.1457;10.4437;
1175.1000;0.1449;10.4461;
1175.4000;0.1449;10.4461;
1175.7000;0.1481;10.4509;
1176.0000;0.1490;10.4678;
1176.3000;0.1465;10.4654;
1176.6000;0.1449;10.4654;
1176.9000;0.1547;10.4967;
1177.2000;0.1490;10.4774;
1177.5000;0.1481;10.4774;
1177.8000;0.1473;10.4750;
1178.1000;0.1465;10.4750;
1178.4000;0.1490;10.4799;
1178.7000;0.1490;10.4871;
1179.0000;0.1473;10.4871;
1179.3000;0.1514;10.5016;
1179.6000;0.1490;10.4774;
1179.9000;0.1449;10.4678;
1180.2000;0.1449;10.4702;
1180.5000;0.1473;10.4823;
1180.8000;0.1473;10.4847;
1181.1000;0.1465;10.4774;
1181.4000;0.1465;10.4678;
1181.7000;0.1481;10.4678;
1182.0000;0.1481;10.4726;
1182.3000;0.1465;10.4678;
1182.6000;0.1457;10.4750;
1182.9000;0.1473;10.4823;
1183.2000;0.1481;10.4871;
1183.5000;0.1498;10.4871;
1183.8000;0.1473;10.4823;
1184.1000;0.1457;10.4750;
1184.4000;0.1490;10.4871;
1184.7000;0.1530;10.4967;
1185.0000;0.1481;10.4871;
1185.3000;0.1490;10.4871;
1185.6000;0.1587;10.5088;
1185.9000;0.1384;10.4485;
1186.2000;0.1481;10.4581;
1186.5000;0.1481;10.4485;
1186.8000;0.1490;10.4485;
1187.1000;0.1473;10.4557;
1187.4000;0.1498;10.4557;
1187.7000;0.1457;10.4437;
1188.0000;0.1457;10.4485;
1188.3000;0.1490;10.4654;
1188.6000;0.1465;10.4654;
1188.9000;0.1490;10.4702;
1189.2000;0.1441;10.4606;
1189.5000;0.1473;10.4678;
1189.8000;0.1465;10.4654;
1190.1000;0.1473;10.4702;
1190.4000;0.1457;10.4557;
1190.7000;0.1465;10.4678;
1191.0000;0.1433;10.4581;
1191.3000;0.1473;10.4799;
1191.6000;0.1449;10.4726;
1191.9000;0.1457;10.4678;
1192.2000;0.1547;10.4847;
1192.5000;0.1481;10.4606;
1192.8000;0.1481;10.4678;
1193.1000;0.1481;10.4726;
1193.4000;0.1498;10.4726;
1193.7000;0.1490;10.4799;
1194.0000;0.1465;10.4750;
1194.3000;0.1481;10.4750;
1194.6000;0.1473;10.4678;
1194.9000;0.1465;10.4630;
1195.2000;0.1473;10.4581;
1195.5000;0.1465;10.4606;
1195.8000;0.1473;10.4630;
1196.1000;0.1473;10.4702;
1196.4000;0.1473;10.4654;
1196.7000;0.1473;10.4606;
1197.0000;0.1481;10.4581;
1197.3000;0.1490;10.4654;
1197.6000;0.1481;10.4606;
1197.9000;0.1473;10.4557;
1198.2000;0.1449;10.4581;
1198.5000;0.1408;10.4340;
1198.8000;0.1473;10.4581;
1199.1000;0.1449;10.4437;
1199.4000;0.1490;10.4557;
1199.7000;0.1514;10.4654;
1200.0000;0.1400;10.4389;
1200.3000;0.1498;10.4678;
1200.6000;0.1498;10.4654;
1200.9000;0.1425;10.4509;
1201.2000;0.1490;10.4654;
1201.5000;0.1538;10.4799;
1201.8000;0.1506;10.4654;
1202.1000;0.1522;10.4606;
1202.4000;0.1498;10.4581;
1202.7000;0.1481;10.4630;
1203.0000;0.1587;10.4991;
1203.3000;0.1449;10.4533;
1203.6000;0.1473;10.4581;
1203.9000;0.1481;10.4581;
1204.2000;0.1425;10.4437;
1204.5000;0.1465;10.4606;
1204.8000;0.1449;10.4630;
1205.1000;0.1473;10.4654;
1205.4000;0.1587;10.5040;
1205.7000;0.1473;10.4702;
1206.0000;0.1473;10.4702;
1206.3000;0.1490;10.4726;
1206.6000;0.1473;10.4799;
1206.9000;0.1522;10.4871;
1207.2000;0.1481;10.4871;
1207.5000;0.1498;10.4967;
1207.8000;0.1490;10.4967;
1208.1000;0.1481;10.4871;
1208.4000;0.1490;10.4847;
1208.7000;0.1490;10.4823;
1209.0000;0.1498;10.4750;
1209.3000;0.1498;10.4799;
1209.6000;0.1473;10.4847;
1209.9000;0.1465;10.4847;
1210.2000;0.1481;10.4895;
1210.5000;0.1473;10.4774;
1210.8000;0.1465;10.4702;
1211.1000;0.1465;10.4678;
1211.4000;0.1490;10.4678;
1211.7000;0.1473;10.4678;
1212.0000;0.1449;10.4606;
1212.3000;0.1465;10.4678;
1212.6000;0.1457;10.4702;
1212.9000;0.1465;10.4654;
1213.2000;0.1481;10.4630;
1213.5000;0.1465;10.4630;
1213.8000;0.1481;10.4654;
1214.1000;0.1498;10.4726;
1214.4000;0.1465;10.4581;
1214.7000;0.1465;10.4606;
1215.0000;0.1473;10.4606;
1215.3000;0.1457;10.4678;
1215.6000;0.1481;10.4726;
1215.9000;0.1457;10.4702;
1216.2000;0.1473;10.4702;
1216.5000;0.1465;10.4654;
1216.8000;0.1473;10.4702;
1217.1000;0.1449;10.4726;
1217.4000;0.1473;10.4702;
1217.7000;0.1555;10.4871;
1218.0000;0.1490;10.4774;
1218.3000;0.1481;10.4750;
1218.6000;0.1555;10.4943;
1218.9000;0.1481;10.4774;
1219.2000;0.1498;10.4799;
1219.5000;0.1481;10.4799;
1219.8000;0.1473;10.4750;
1220.1000;0.1481;10.4799;
1220.4000;0.1376;10.4461;
1220.7000;0.1514;10.4823;
1221.0000;0.1473;10.4726;
1221.3000;0.1514;10.4774;
1221.6000;0.1441;10.4557;
1221.9000;0.1498;10.4606;
1222.2000;0.1498;10.4581;
1222.5000;0.1498;10.4606;
1222.8000;0.1481;10.4702;
1223.1000;0.1490;10.4726;
1223.4000;0.1481;10.4702;
1223.7000;0.1473;10.4678;
1224.0000;0.1449;10.4557;
1224.3000;0.1465;10.4654;
1224.6000;0.1465;10.4654;
1224.9000;0.1473;10.4654;
1225.2000;0.1457;10.4654;
1225.5000;0.1481;10.4678;
1225.8000;0.1490;10.4678;
1226.1000;0.1530;10.4799;
1226.4000;0.1473;10.4581;
1226.7000;0.1490;10.4606;
1227.0000;0.1514;10.4799;
1227.3000;0.1481;10.4702;
1227.6000;0.1457;10.4606;
1227.9000;0.1555;10.4871;
1228.2000;0.1481;10.4702;
1228.5000;0.1473;10.4606;
1228.8000;0.1498;10.4774;
1229.1000;0.1481;10.4726;
1229.4000;0.1465;10.4726;
1229.7000;0.1481;10.4678;
1230.0000;0.1481;10.4606;
1230.3000;0.1465;10.4557;
1230.6000;0.1481;10.4581;
1230.9000;0.1408;10.4509;
1231.2000;0.1473;10.4606;
1231.5000;0.1490;10.4581;
1231.8000;0.1514;10.4823;
1232.1000;0.1490;10.4799;
1232.4000;0.1465;10.4678;
1232.7000;0.1473;10.4654;
1233.0000;0.1457;10.4557;
1233.3000;0.1481;10.4533;
1233.6000;0.1481;10.4581;
1233.9000;0.1490;10.4630;
1234.2000;0.1481;10.4654;
1234.5000;0.1400;10.4461;
1234.8000;0.1441;10.4557;
1235.1000;0.1473;10.4533;
1235.4000;0.1481;10.4485;
1235.7000;0.1490;10.4606;
1236.0000;0.1555;10.4750;
1236.3000;0.1400;10.4461;
1236.6000;0.1473;10.4678;
1236.9000;0.1465;10.4678;
1237.2000;0.1465;10.4654;
1237.5000;0.1563;10.4871;
1237.8000;0.1530;10.4799;
1238.1000;0.1441;10.4509;
1238.4000;0.1490;10.4654;
1238.7000;0.1555;10.4847;
1239.0000;0.1473;10.4726;
1239.3000;0.1465;10.4750;
1239.6000;0.1465;10.4774;
1239.9000;0.1465;10.4799;
1240.2000;0.1465;10.4823;
1240.5000;0.1498;10.4847;
1240.8000;0.1457;10.4774;
1241.1000;0.1481;10.4919;
1241.4000;0.1449;10.4823;
1241.7000;0.1465;10.4895;
1242.0000;0.1465;10.4847;
1242.3000;0.1400;10.4606;
1242.6000;0.1425;10.4654;
1242.9000;0.1465;10.4799;
1243.2000;0.1481;10.4847;
1243.5000;0.1449;10.4702;
1243.8000;0.1481;10.4799;
1244.1000;0.1392;10.4581;
1244.4000;0.1481;10.4750;
1244.7000;0.1473;10.4702;
1245.0000;0.1457;10.4678;
1245.3000;0.1490;10.4750;
1245.6000;0.1490;10.4678;
1245.9000;0.1481;10.4702;
1246.2000;0.1490;10.4678;
1246.5000;0.1473;10.4654;
1246.8000;0.1506;10.4750;
1247.1000;0.1465;10.4678;
1247.4000;0.1506;10.4799;
1247.7000;0.1473;10.4774;
1248.0000;0.1473;10.4774;
1248.3000;0.1465;10.4630;
1248.6000;0.1473;10.4630;
1248.9000;0.1481;10.4702;
1249.2000;0.1490;10.4774;
1249.5000;0.1481;10.4702;
1249.8000;0.1490;10.4726;
1250.1000;0.1490;10.4702;
1250.4000;0.1481;10.4726;
1250.7000;0.1481;10.4678;
1251.0000;0.1465;10.4581;
1251.3000;0.1473;10.4533;
1251.6000;0.1473;10.4533;
1251.9000;0.1481;10.4509;
1252.2000;0.1481;10.4654;
1252.5000;0.1473;10.4654;
1252.8000;0.1465;10.4630;
1253.1000;0.1465;10.4630;
1253.4000;0.1473;10.4654;
1253.7000;0.1416;10.4485;
1254.0000;0.1481;10.4630;
1254.3000;0.1457;10.4630;
1254.6000;0.1481;10.4726;
1254.9000;0.1506;10.4847;
1255.2000;0.1490;10.4726;
1255.5000;0.1465;10.4606;
1255.8000;0.1490;10.4606;
1256.1000;0.1498;10.4654;
1256.4000;0.1457;10.4581;
1256.7000;0.1490;10.4581;
1257.0000;0.1473;10.4557;
1257.3000;0.1481;10.4726;
1257.6000;0.1481;10.4799;
1257.9000;0.1473;10.4847;
1258.2000;0.1473;10.4774;
1258.5000;0.1473;10.4726;
1258.8000;0.1514;10.4678;
1259.1000;0.1473;10.4509;
1259.4000;0.1481;10.4557;
1259.7000;0.1506;10.4630;
1260.0000;0.1433;10.4509;
1260.3000;0.1571;10.4895;
1260.6000;0.1465;10.4581;
1260.9000;0.1473;10.4581;
1261.2000;0.1481;10.4581;
1261.5000;0.1441;10.4654;
1261.8000;0.1481;10.4774;
1262.1000;0.1481;10.4726;
1262.4000;0.1473;10.4654;
1262.7000;0.1473;10.4630;
1263.0000;0.1392;10.4389;
1263.3000;0.1498;10.4606;
1263.6000;0.1490;10.4533;
1263.9000;0.1473;10.4557;
1264.2000;0.1376;10.4364;
1264.5000;0.1465;10.4678;
1264.8000;0.1481;10.4799;
1265.1000;0.1498;10.4799;
1265.4000;0.1490;10.4750;
1265.7000;0.1490;10.4702;
1266.0000;0.1465;10.4678;
1266.3000;0.1457;10.4654;
1266.6000;0.1473;10.4654;
1266.9000;0.1473;10.4606;
1267.2000;0.1465;10.4581;
1267.5000;0.1481;10.4557;
1267.8000;0.1490;10.4557;
1268.1000;0.1481;10.4485;
1268.4000;0.1473;10.4533;
1268.7000;0.1481;10.4581;
1269.0000;0.1490;10.4654;
1269.3000;0.1530;10.4678;
1269.6000;0.1490;10.4533;
1269.9000;0.1563;10.4774;
1270.2000;0.1490;10.4606;
1270.5000;0.1595;10.4726;
1270.8000;0.1538;10.4509;
1271.1000;0.1473;10.4389;
1271.4000;0.1473;10.4413;
1271.7000;0.1490;10.4485;
1272.0000;0.1473;10.4437;
1272.3000;0.1441;10.4413;
1272.6000;0.1490;10.4630;
1272.9000;0.1490;10.4581;
1273.2000;0.1465;10.4557;
1273.5000;0.1465;10.4533;
1273.8000;0.1498;10.4557;
1274.1000;0.1473;10.4581;
1274.4000;0.1473;10.4485;
1274.7000;0.1465;10.4461;
1275.0000;0.1473;10.4413;
1275.3000;0.1563;10.4654;
1275.6000;0.1457;10.4364;
1275.9000;0.1392;10.4292;
1276.2000;0.1498;10.4606;
1276.5000;0.1490;10.4606;
1276.8000;0.1473;10.4557;
1277.1000;0.1473;10.4702;
1277.4000;0.1473;10.4630;
1277.7000;0.1465;10.4630;
1278.0000;0.1490;10.4654;
1278.3000;0.1498;10.4654;
1278.6000;0.1473;10.4557;
1278.9000;0.1481;10.4557;
1279.2000;0.1473;10.4581;
1279.5000;0.1498;10.4606;
1279.8000;0.1481;10.4678;
1280.1000;0.1473;10.4678;
1280.4000;0.1490;10.4774;
1280.7000;0.1498;10.4726;
1281.0000;0.1465;10.4726;
1281.3000;0.1490;10.4750;
1281.6000;0.1490;10.4799;
1281.9000;0.1522;10.4895;
1282.2000;0.1481;10.4750;
1282.5000;0.1465;10.4678;
1282.8000;0.1416;10.4533;
1283.1000;0.1481;10.4630;
1283.4000;0.1441;10.4606;
1283.7000;0.1490;10.4774;
1284.0000;0.1481;10.4799;
1284.3000;0.1498;10.4799;
1284.6000;0.1425;10.4581;
1284.9000;0.1473;10.4702;
1285.2000;0.1433;10.4678;
1285.5000;0.1522;10.4943;
1285.8000;0.1473;10.4847;
1286.1000;0.1481;10.4823;
1286.4000;0.1490;10.4750;
1286.7000;0.1538;10.4823;
1287.0000;0.1473;10.4630;
1287.3000;0.1498;10.4678;
1287.6000;0.1481;10.4630;
1287.9000;0.1547;10.4774;
1288.2000;0.1384;10.4340;
1288.5000;0.1473;10.4533;
1288.8000;0.1473;10.4485;
1289.1000;0.1481;10.4461;
1289.4000;0.1449;10.4413;
1289.7000;0.1481;10.4509;
1290.0000;0.1490;10.4533;
1290.3000;0.1506;10.4557;
1290.6000;0.1490;10.4533;
1290.9000;0.1498;10.4485;
1291.2000;0.1473;10.4413;
1291.5000;0.1465;10.4292;
1291.8000;0.1473;10.4316;
1292.1000;0.1506;10.4413;
1292.4000;0.1473;10.4461;
1292.7000;0.1555;10.4702;
1293.0000;0.1457;10.4509;
1293.3000;0.1481;10.4606;
1293.6000;0.1481;10.4533;
1293.9000;0.1465;10.4485;
1294.2000;0.1490;10.4485;
1294.5000;0.1506;10.4485;
1294.8000;0.1473;10.4437;
1295.1000;0.1473;10.4485;
1295.4000;0.1490;10.4557;
1295.7000;0.1522;10.4726;
1296.0000;0.1481;10.4630;
1296.3000;0.1514;10.4654;
1296.6000;0.1473;10.4678;
1296.9000;0.1481;10.4799;
1297.2000;0.1506;10.4750;
1297.5000;0.1473;10.4774;
1297.8000;0.1465;10.4823;
1298.1000;0.1473;10.4871;
1298.4000;0.1457;10.4847;
1298.7000;0.1473;10.4967;
1299.0000;0.1465;10.4799;
1299.3000;0.1490;10.4847;
1299.6000;0.1481;10.4895;
1299.9000;0.1506;10.4823;
1300.2000;0.1522;10.4774;
1300.5000;0.1433;10.4557;
1300.8000;0.1490;10.4726;
1301.1000;0.1490;10.4750;
1301.4000;0.1481;10.4726;
1301.7000;0.1481;10.4678;
1302.0000;0.1473;10.4702;
1302.3000;0.1506;10.4726;
1302.6000;0.1490;10.4678;
1302.9000;0.1473;10.4581;
1303.2000;0.1473;10.4630;
1303.5000;0.1490;10.4678;
1303.8000;0.1490;10.4678;
1304.1000;0.1481;10.4654;
1304.4000;0.1490;10.4630;
1304.7000;0.1473;10.4630;
1305.0000;0.1473;10.4606;
1305.3000;0.1481;10.4630;
1305.6000;0.1481;10.4606;
1305.9000;0.1481;10.4606;
1306.2000;0.1481;10.4557;
1306.5000;0.1465;10.4533;
1306.8000;0.1481;10.4606;
1307.1000;0.1481;10.4581;
1307.4000;0.1465;10.4606;
1307.7000;0.1457;10.4630;
1308.0000;0.1498;10.4726;
1308.3000;0.1473;10.4654;
1308.6000;0.1481;10.4726;
1308.9000;0.1465;10.4606;
1309.2000;0.1473;10.4654;
1309.5000;0.1465;10.4678;
1309.8000;0.1465;10.4774;
1310.1000;0.1481;10.4847;
1310.4000;0.1498;10.4847;
1310.7000;0.1490;10.4799;
1311.0000;0.1490;10.4799;
1311.3000;0.1490;10.4702;
1311.6000;0.1481;10.4726;
1311.9000;0.1481;10.4678;
1312.2000;0.1498;10.4702;
1312.5000;0.1481;10.4726;
1312.8000;0.1441;10.4581;
1313.1000;0.1490;10.4750;
1313.4000;0.1449;10.4702;
1313.7000;0.1473;10.4774;
1314.0000;0.1481;10.4823;
1314.3000;0.1473;10.4654;
1314.6000;0.1465;10.4630;
1314.9000;0.1481;10.4630;
1315.2000;0.1481;10.4630;
1315.5000;0.1481;10.4606;
1315.8000;0.1498;10.4678;
1316.1000;0.1498;10.4726;
1316.4000;0.1571;10.4919;
1316.7000;0.1506;10.4823;
1317.0000;0.1481;10.4799;
1317.3000;0.1514;10.4895;
1317.6000;0.1481;10.4847;
1317.9000;0.1481;10.4799;
1318.2000;0.1473;10.4726;
1318.5000;0.1490;10.4726;
1318.8000;0.1481;10.4774;
1319.1000;0.1473;10.4774;
1319.4000;0.1514;10.4678;
1319.7000;0.1490;10.4533;
1320.0000;0.1465;10.4533;
1320.3000;0.1481;10.4581;
1320.6000;0.1473;10.4606;
1320.9000;0.1465;10.4654;
1321.2000;0.1490;10.4750;
1321.5000;0.1498;10.4799;
1321.8000;0.1465;10.4702;
1322.1000;0.1473;10.4630;
1322.4000;0.1481;10.4581;
1322.7000;0.1498;10.4726;
1323.0000;0.1473;10.4702;
1323.3000;0.1457;10.4630;
1323.6000;0.1498;10.4654;
1323.9000;0.1481;10.4678;
1324.2000;0.1473;10.4678;
1324.5000;0.1465;10.4606;
1324.8000;0.1359;10.4244;
1325.1000;0.1473;10.4533;
1325.4000;0.1465;10.4509;
1325.7000;0.1473;10.4557;
1326.0000;0.1481;10.4581;
1326.3000;0.1481;10.4606;
1326.6000;0.1490;10.4557;
1326.9000;0.1481;10.4533;
1327.2000;0.1465;10.4485;
1327.5000;0.1522;10.4630;
1327.8000;0.1490;10.4533;
1328.1000;0.1481;10.4509;
1328.4000;0.1473;10.4485;
1328.7000;0.1498;10.4509;
1329.0000;0.1433;10.4437;
1329.3000;0.1506;10.4485;
1329.6000;0.1473;10.4413;
1329.9000;0.1522;10.4557;
1330.2000;0.1514;10.4509;
1330.5000;0.1498;10.4461;
1330.8000;0.1473;10.4413;
1331.1000;0.1457;10.4389;
1331.4000;0.1473;10.4509;
1331.7000;0.1408;10.4220;
1332.0000;0.1506;10.4509;
1332.3000;0.1481;10.4437;
1332.6000;0.1498;10.4364;
1332.9000;0.1490;10.4292;
1333.2000;0.1465;10.4268;
1333.5000;0.1481;10.4413;
1333.8000;0.1514;10.4364;
1334.1000;0.1473;10.4413;
1334.4000;0.1481;10.4509;
1334.7000;0.1457;10.4533;
1335.0000;0.1473;10.4678;
1335.3000;0.1473;10.4630;
1335.6000;0.1481;10.4581;
1335.9000;0.1490;10.4606;
1336.2000;0.1473;10.4581;
1336.5000;0.1490;10.4581;
1336.8000;0.1416;10.4485;
1337.1000;0.1498;10.4678;
1337.4000;0.1490;10.4606;
1337.7000;0.1481;10.4606;
1338.0000;0.1465;10.4630;
1338.3000;0.1473;10.4678;
1338.6000;0.1465;10.4726;
1338.9000;0.1481;10.4581;
1339.2000;0.1498;10.4630;
1339.5000;0.1473;10.4557;
1339.8000;0.1465;10.4533;
1340.1000;0.1490;10.4630;
1340.4000;0.1490;10.4581;
1340.7000;0.1465;10.4509;
1341.0000;0.1481;10.4557;
1341.3000;0.1425;10.4413;
1341.6000;0.1473;10.4533;
1341.9000;0.1481;10.4654;
1342.2000;0.1473;10.4606;
1342.5000;0.1473;10.4557;
1342.8000;0.1473;10.4533;
1343.1000;0.1473;10.4581;
1343.4000;0.1392;10.4413;
1343.7000;0.1473;10.4557;
1344.0000;0.1473;10.4509;
1344.3000;0.1481;10.4557;
1344.6000;0.1465;10.4581;
1344.9000;0.1425;10.4485;
1345.2000;0.1465;10.4533;
1345.5000;0.1408;10.4364;
1345.8000;0.1473;10.4581;
1346.1000;0.1441;10.4461;
1346.4000;0.1416;10.4292;
1346.7000;0.1433;10.4268;
1347.0000;0.1449;10.4268;
1347.3000;0.1465;10.4389;
1347.6000;0.1498;10.4389;
1347.9000;0.1473;10.4316;
1348.2000;0.1481;10.4413;
1348.5000;0.1481;10.4461;
1348.8000;0.1465;10.4413;
1349.1000;0.1522;10.4461;
1349.4000;0.1481;10.4389;
1349.7000;0.1473;10.4461;
1350.0000;0.1481;10.4461;
1350.3000;0.1473;10.4606;
1350.6000;0.1465;10.4557;
1350.9000;0.1457;10.4654;
1351.2000;0.1481;10.4678;
1351.5000;0.1490;10.4702;
1351.8000;0.1400;10.4485;
1352.1000;0.1473;10.4750;
1352.4000;0.1441;10.4533;
1352.7000;0.1473;10.4533;
1353.0000;0.1490;10.4630;
1353.3000;0.1571;10.4847;
1353.6000;0.1481;10.4581;
1353.9000;0.1514;10.4630;
1354.2000;0.1481;10.4581;
1354.5000;0.1506;10.4557;
1354.8000;0.1416;10.4389;
1355.1000;0.1465;10.4413;
1355.4000;0.1490;10.4389;
1355.7000;0.1473;10.4364;
1356.0000;0.1481;10.4461;
1356.3000;0.1490;10.4461;
1356.6000;0.1481;10.4485;
1356.9000;0.1473;10.4557;
1357.2000;0.1473;10.4630;
1357.5000;0.1465;10.4678;
1357.8000;0.1473;10.4678;
1358.1000;0.1490;10.4726;
1358.4000;0.1465;10.4678;
1358.7000;0.1465;10.4630;
1359.0000;0.1465;10.4606;
1359.3000;0.1473;10.4606;
1359.6000;0.1481;10.4654;
1359.9000;0.1465;10.4630;
1360.2000;0.1416;10.4268;
1360.5000;0.1490;10.4485;
1360.8000;0.1473;10.4581;
1361.1000;0.1473;10.4630;
1361.4000;0.1490;10.4726;
1361.7000;0.1449;10.4630;
1362.0000;0.1490;10.4774;
1362.3000;0.1481;10.4750;
1362.6000;0.1490;10.4750;
1362.9000;0.1473;10.4799;
1363.2000;0.1481;10.4702;
1363.5000;0.1498;10.4702;
1363.8000;0.1473;10.4678;
1364.1000;0.1481;10.4581;
1364.4000;0.1481;10.4557;
1364.7000;0.1473;10.4533;
1365.0000;0.1473;10.4581;
1365.3000;0.1490;10.4557;
1365.6000;0.1481;10.4485;
1365.9000;0.1481;10.4606;
1366.2000;0.1473;10.4630;
1366.5000;0.1473;10.4581;
1366.8000;0.1481;10.4606;
1367.1000;0.1490;10.4630;
1367.4000;0.1400;10.4364;
1367.7000;0.1473;10.4509;
1368.0000;0.1506;10.4630;
1368.3000;0.1490;10.4702;
1368.6000;0.1481;10.4678;
1368.9000;0.1490;10.4654;
1369.2000;0.1481;10.4726;
1369.5000;0.1473;10.4750;
1369.8000;0.1473;10.4774;
1370.1000;0.1481;10.4774;
1370.4000;0.1449;10.4750;
1370.7000;0.1441;10.4726;
1371.0000;0.1481;10.4774;
1371.3000;0.1498;10.4895;
1371.6000;0.1473;10.4774;
1371.9000;0.1490;10.4750;
1372.2000;0.1473;10.4726;
1372.5000;0.1490;10.4726;
1372.8000;0.1473;10.4750;
1373.1000;0.1490;10.4774;
1373.4000;0.1587;10.5112;
1373.7000;0.1481;10.4799;
1374.0000;0.1481;10.4750;
1374.3000;0.1481;10.4774;
1374.6000;0.1473;10.4750;
1374.9000;0.1465;10.4654;
1375.2000;0.1473;10.4581;
1375.5000;0.1514;10.4774;
1375.8000;0.1465;10.4630;
1376.1000;0.1465;10.4726;
1376.4000;0.1457;10.4726;
1376.7000;0.1465;10.4702;
1377.0000;0.1490;10.4750;
1377.3000;0.1457;10.4702;
1377.6000;0.1473;10.4726;
1377.9000;0.1441;10.4678;
1378.2000;0.1473;10.4702;
1378.5000;0.1490;10.4702;
1378.8000;0.1555;10.4774;
1379.1000;0.1465;10.4485;
1379.4000;0.1457;10.4509;
1379.7000;0.1481;10.4630;
1380.0000;0.1481;10.4654;
1380.3000;0.1473;10.4678;
1380.6000;0.1506;10.4847;
1380.9000;0.1473;10.4702;
1381.2000;0.1490;10.4774;
1381.5000;0.1473;10.4750;
1381.8000;0.1465;10.4678;
1382.1000;0.1457;10.4702;
1382.4000;0.1481;10.4774;
1382.7000;0.1481;10.4774;
1383.0000;0.1481;10.4678;
1383.3000;0.1433;10.4654;
1383.6000;0.1522;10.4871;
1383.9000;0.1490;10.4774;
1384.2000;0.1490;10.4750;
1384.5000;0.1490;10.4750;
1384.8000;0.1473;10.4630;
1385.1000;0.1506;10.4799;
1385.4000;0.1490;10.4702;
1385.7000;0.1473;10.4654;
1386.0000;0.1465;10.4630;
1386.3000;0.1498;10.4799;
1386.6000;0.1465;10.4678;
1386.9000;0.1465;10.4630;
1387.2000;0.1473;10.4581;
1387.5000;0.1473;10.4606;
1387.8000;0.1506;10.4606;
1388.1000;0.1473;10.4533;
1388.4000;0.1490;10.4509;
1388.7000;0.1490;10.4509;
1389.0000;0.1457;10.4485;
1389.3000;0.1481;10.4630;
1389.6000;0.1522;10.4823;
1389.9000;0.1465;10.4630;
1390.2000;0.1514;10.4702;
1390.5000;0.1490;10.4726;
1390.8000;0.1481;10.4654;
1391.1000;0.1481;10.4678;
1391.4000;0.1490;10.4702;
1391.7000;0.1449;10.4509;
1392.0000;0.1441;10.4606;
1392.3000;0.1571;10.4919;
1392.6000;0.1498;10.4702;
1392.9000;0.1506;10.4726;
1393.2000;0.1490;10.4654;
1393.5000;0.1473;10.4557;
1393.8000;0.1473;10.4557;
1394.1000;0.1481;10.4606;
1394.4000;0.1465;10.4702;
1394.7000;0.1473;10.4702;
1395.0000;0.1538;10.4895;
1395.3000;0.1498;10.4630;
1395.6000;0.1473;10.4485;
1395.9000;0.1465;10.4509;
1396.2000;0.1465;10.4509;
1396.5000;0.1481;10.4557;
1396.8000;0.1473;10.4509;
1397.1000;0.1465;10.4557;
1397.4000;0.1465;10.4557;
1397.7000;0.1481;10.4702;
1398.0000;0.1481;10.4726;
1398.3000;0.1465;10.4750;
1398.6000;0.1473;10.4654;
1398.9000;0.1498;10.4702;
1399.2000;0.1498;10.4630;
1399.5000;0.1490;10.4606;
1399.8000;0.1481;10.4606;
