time/ms;Fluo/V;P700 deltaI/I x10³;
-199.8000;0.1514;10.5136;
-199.5000;0.1433;10.4895;
-199.2000;0.1473;10.5016;
-198.9000;0.1514;10.5136;
-198.6000;0.1490;10.5064;
-198.3000;0.1416;10.4919;
-198.0000;0.1465;10.5088;
-197.7000;0.1481;10.5016;
-197.4000;0.1490;10.4919;
-197.1000;0.1506;10.4991;
-196.8000;0.1506;10.5040;
-196.5000;0.1457;10.4774;
-196.2000;0.1457;10.4750;
-195.9000;0.1465;10.4919;
-195.6000;0.1473;10.4871;
-195.3000;0.1465;10.4895;
-195.0000;0.1457;10.4895;
-194.7000;0.1465;10.4871;
-194.4000;0.1457;10.4799;
-194.1000;0.1490;10.4823;
-193.8000;0.1465;10.4799;
-193.5000;0.1481;10.4943;
-193.2000;0.1465;10.4919;
-192.9000;0.1481;10.4871;
-192.6000;0.1490;10.4895;
-192.3000;0.1465;10.4871;
-192.0000;0.1473;10.4895;
-191.7000;0.1465;10.4967;
-191.4000;0.1473;10.4919;
-191.1000;0.1465;10.4895;
-190.8000;0.1498;10.4943;
-190.5000;0.1433;10.4726;
-190.2000;0.1416;10.4726;
-189.9000;0.1441;10.4799;
-189.6000;0.1465;10.4799;
-189.3000;0.1473;10.4823;
-189.0000;0.1351;10.4581;
-188.7000;0.1481;10.4967;
-188.4000;0.1425;10.4919;
-188.1000;0.1441;10.5016;
-187.8000;0.1473;10.5064;
-187.5000;0.1473;10.5064;
-187.2000;0.1457;10.5088;
-186.9000;0.1481;10.5136;
-186.6000;0.1473;10.5160;
-186.3000;0.1473;10.5112;
-186.0000;0.1473;10.5040;
-185.7000;0.1473;10.5112;
-185.4000;0.1449;10.5040;
-185.1000;0.1473;10.5088;
-184.8000;0.1449;10.4967;
-184.5000;0.1473;10.4967;
-184.2000;0.1473;10.4895;
-183.9000;0.1473;10.4919;
-183.6000;0.1473;10.4919;
-183.3000;0.1441;10.4919;
-183.0000;0.1490;10.5136;
-182.7000;0.1465;10.5136;
-182.4000;0.1481;10.5160;
-182.1000;0.1465;10.5160;
-181.8000;0.1465;10.5209;
-181.5000;0.1481;10.5353;
-181.2000;0.1465;10.5233;
-180.9000;0.1498;10.5305;
-180.6000;0.1514;10.5377;
-180.3000;0.1555;10.5474;
-180.0000;0.1457;10.5233;
-179.7000;0.1514;10.5257;
-179.4000;0.1530;10.5305;
-179.1000;0.1473;10.5088;
-178.8000;0.1473;10.5040;
-178.5000;0.1457;10.4967;
-178.2000;0.1473;10.5040;
-177.9000;0.1473;10.5040;
-177.6000;0.1465;10.5112;
-177.3000;0.1465;10.5064;
-177.0000;0.1595;10.5570;
-176.7000;0.1465;10.5257;
-176.4000;0.1473;10.5281;
-176.1000;0.1449;10.5281;
-175.8000;0.1441;10.5209;
-175.5000;0.1465;10.5233;
-175.2000;0.1465;10.5160;
-174.9000;0.1481;10.5136;
-174.6000;0.1473;10.5136;
-174.3000;0.1449;10.5040;
-174.0000;0.1555;10.5353;
-173.7000;0.1359;10.4823;
-173.4000;0.1465;10.5136;
-173.1000;0.1595;10.5498;
-172.8000;0.1563;10.5402;
-172.5000;0.1498;10.5233;
-172.2000;0.1481;10.5112;
-171.9000;0.1579;10.5353;
-171.6000;0.1457;10.5112;
-171.3000;0.1498;10.5209;
-171.0000;0.1449;10.5064;
-170.7000;0.1457;10.5160;
-170.4000;0.1465;10.5209;
-170.1000;0.1465;10.5184;
-169.8000;0.1490;10.5209;
-169.5000;0.1465;10.5184;
-169.2000;0.1587;10.5498;
-168.9000;0.1481;10.5209;
-168.6000;0.1449;10.5016;
-168.3000;0.1457;10.5040;
-168.0000;0.1408;10.4823;
-167.7000;0.1490;10.4943;
-167.4000;0.1481;10.4895;
-167.1000;0.1514;10.4895;
-166.8000;0.1433;10.4678;
-166.5000;0.1506;10.4871;
-166.2000;0.1441;10.4702;
-165.9000;0.1481;10.4799;
-165.6000;0.1433;10.4630;
-165.3000;0.1490;10.4774;
-165.0000;0.1473;10.4823;
-164.7000;0.1481;10.4871;
-164.4000;0.1481;10.4943;
-164.1000;0.1457;10.4967;
-163.8000;0.1473;10.4943;
-163.5000;0.1490;10.4895;
-163.2000;0.1457;10.4678;
-162.9000;0.1449;10.4726;
-162.6000;0.1514;10.4823;
-162.3000;0.1481;10.4774;
-162.0000;0.1473;10.4799;
-161.7000;0.1441;10.4726;
-161.4000;0.1465;10.4774;
-161.1000;0.1473;10.4823;
-160.8000;0.1449;10.4750;
-160.5000;0.1538;10.4919;
-160.2000;0.1490;10.4750;
-159.9000;0.1490;10.4847;
-159.6000;0.1465;10.4726;
-159.3000;0.1514;10.4895;
-159.0000;0.1457;10.4799;
-158.7000;0.1530;10.5040;
-158.4000;0.1465;10.4895;
-158.1000;0.1465;10.4799;
-157.8000;0.1465;10.4823;
-157.5000;0.1416;10.4726;
-157.2000;0.1457;10.4823;
-156.9000;0.1473;10.4871;
-156.6000;0.1522;10.4991;
-156.3000;0.1490;10.4726;
-156.0000;0.1449;10.4606;
-155.7000;0.1490;10.4726;
-155.4000;0.1530;10.4750;
-155.1000;0.1498;10.4750;
-154.8000;0.1457;10.4702;
-154.5000;0.1506;10.4799;
-154.2000;0.1449;10.4630;
-153.9000;0.1465;10.4630;
-153.6000;0.1449;10.4654;
-153.3000;0.1457;10.4630;
-153.0000;0.1490;10.4702;
-152.7000;0.1465;10.4726;
-152.4000;0.1473;10.4726;
-152.1000;0.1481;10.4774;
-151.8000;0.1473;10.4726;
-151.5000;0.1449;10.4654;
-151.2000;0.1490;10.4726;
-150.9000;0.1457;10.4678;
-150.6000;0.1465;10.4774;
-150.3000;0.1441;10.4726;
-150.0000;0.1481;10.4702;
-149.7000;0.1425;10.4630;
-149.4000;0.1490;10.4799;
-149.1000;0.1490;10.4799;
-148.8000;0.1555;10.5016;
-148.5000;0.1498;10.4847;
-148.2000;0.1563;10.5136;
-147.9000;0.1473;10.4943;
-147.6000;0.1465;10.4943;
-147.3000;0.1538;10.5016;
-147.0000;0.1433;10.4702;
-146.7000;0.1473;10.4678;
-146.4000;0.1473;10.4702;
-146.1000;0.1481;10.4726;
-145.8000;0.1465;10.4726;
-145.5000;0.1490;10.4799;
-145.2000;0.1457;10.4702;
-144.9000;0.1481;10.4799;
-144.6000;0.1441;10.4726;
-144.3000;0.1457;10.4871;
-144.0000;0.1465;10.4847;
-143.7000;0.1473;10.4991;
-143.4000;0.1481;10.5040;
-143.1000;0.1433;10.4871;
-142.8000;0.1433;10.4823;
-142.5000;0.1400;10.4799;
-142.2000;0.1465;10.5016;
-141.9000;0.1473;10.4943;
-141.6000;0.1441;10.4847;
-141.3000;0.1481;10.4919;
-141.0000;0.1473;10.4919;
-140.7000;0.1473;10.4847;
-140.4000;0.1481;10.4847;
-140.1000;0.1392;10.4654;
-139.8000;0.1473;10.4799;
-139.5000;0.1465;10.4943;
-139.2000;0.1481;10.4991;
-138.9000;0.1465;10.4991;
-138.6000;0.1473;10.4991;
-138.3000;0.1457;10.4967;
-138.0000;0.1449;10.5040;
-137.7000;0.1506;10.5184;
-137.4000;0.1498;10.5088;
-137.1000;0.1449;10.5016;
-136.8000;0.1490;10.5016;
-136.5000;0.1473;10.5016;
-136.2000;0.1457;10.4823;
-135.9000;0.1457;10.4895;
-135.6000;0.1473;10.4967;
-135.3000;0.1481;10.5016;
-135.0000;0.1465;10.4967;
-134.7000;0.1473;10.5016;
-134.4000;0.1547;10.5209;
-134.1000;0.1433;10.4895;
-133.8000;0.1473;10.5040;
-133.5000;0.1425;10.4871;
-133.2000;0.1473;10.4919;
-132.9000;0.1490;10.4823;
-132.6000;0.1449;10.4654;
-132.3000;0.1465;10.4630;
-132.0000;0.1473;10.4702;
-131.7000;0.1473;10.4533;
-131.4000;0.1465;10.4461;
-131.1000;0.1473;10.4509;
-130.8000;0.1473;10.4533;
-130.5000;0.1457;10.4557;
-130.2000;0.1481;10.4750;
-129.9000;0.1449;10.4799;
-129.6000;0.1465;10.4774;
-129.3000;0.1400;10.4557;
-129.0000;0.1465;10.4702;
-128.7000;0.1506;10.4799;
-128.4000;0.1416;10.4581;
-128.1000;0.1457;10.4823;
-127.8000;0.1498;10.4991;
-127.5000;0.1457;10.4871;
-127.2000;0.1457;10.4871;
-126.9000;0.1441;10.4871;
-126.6000;0.1490;10.4967;
-126.3000;0.1481;10.4991;
-126.0000;0.1441;10.4991;
-125.7000;0.1481;10.5040;
-125.4000;0.1490;10.5136;
-125.1000;0.1490;10.5088;
-124.8000;0.1473;10.5016;
-124.5000;0.1490;10.5088;
-124.2000;0.1481;10.5016;
-123.9000;0.1457;10.4895;
-123.6000;0.1457;10.4919;
-123.3000;0.1465;10.4991;
-123.0000;0.1481;10.4991;
-122.7000;0.1473;10.4991;
-122.4000;0.1465;10.4991;
-122.1000;0.1465;10.5040;
-121.8000;0.1530;10.5112;
-121.5000;0.1473;10.4943;
-121.2000;0.1465;10.5016;
-120.9000;0.1481;10.4991;
-120.6000;0.1473;10.5040;
-120.3000;0.1481;10.5040;
-120.0000;0.1465;10.4991;
-119.7000;0.1465;10.4967;
-119.4000;0.1465;10.4943;
-119.1000;0.1481;10.4895;
-118.8000;0.1490;10.4871;
-118.5000;0.1481;10.4871;
-118.2000;0.1473;10.4871;
-117.9000;0.1465;10.4871;
-117.6000;0.1530;10.5016;
-117.3000;0.1473;10.4823;
-117.0000;0.1473;10.4847;
-116.7000;0.1465;10.4799;
-116.4000;0.1457;10.4774;
-116.1000;0.1473;10.4823;
-115.8000;0.1449;10.4799;
-115.5000;0.1498;10.4895;
-115.2000;0.1449;10.4774;
-114.9000;0.1449;10.4823;
-114.6000;0.1490;10.4871;
-114.3000;0.1473;10.4774;
-114.0000;0.1473;10.4726;
-113.7000;0.1473;10.4726;
-113.4000;0.1416;10.4581;
-113.1000;0.1473;10.4702;
-112.8000;0.1481;10.4606;
-112.5000;0.1481;10.4630;
-112.2000;0.1473;10.4630;
-111.9000;0.1465;10.4654;
-111.6000;0.1481;10.4678;
-111.3000;0.1473;10.4678;
-111.0000;0.1473;10.4630;
-110.7000;0.1498;10.4702;
-110.4000;0.1490;10.4726;
-110.1000;0.1481;10.4678;
-109.8000;0.1481;10.4606;
-109.5000;0.1457;10.4606;
-109.2000;0.1481;10.4630;
-108.9000;0.1457;10.4509;
-108.6000;0.1465;10.4509;
-108.3000;0.1457;10.4485;
-108.0000;0.1392;10.4316;
-107.7000;0.1490;10.4606;
-107.4000;0.1449;10.4509;
-107.1000;0.1465;10.4606;
-106.8000;0.1473;10.4678;
-106.5000;0.1490;10.4823;
-106.2000;0.1416;10.4678;
-105.9000;0.1481;10.4847;
-105.6000;0.1473;10.4847;
-105.3000;0.1506;10.4991;
-105.0000;0.1465;10.4919;
-104.7000;0.1481;10.4919;
-104.4000;0.1457;10.4895;
-104.1000;0.1449;10.4871;
-103.8000;0.1506;10.4967;
-103.5000;0.1465;10.4919;
-103.2000;0.1481;10.4895;
-102.9000;0.1498;10.4943;
-102.6000;0.1473;10.4919;
-102.3000;0.1506;10.5016;
-102.0000;0.1498;10.5088;
-101.7000;0.1473;10.4967;
-101.4000;0.1481;10.4943;
-101.1000;0.1481;10.4943;
-100.8000;0.1481;10.4943;
-100.5000;0.1490;10.5040;
-100.2000;0.1465;10.4967;
-99.9000;0.1473;10.4991;
-99.6000;0.1465;10.4895;
-99.3000;0.1481;10.4919;
-99.0000;0.1457;10.4919;
-98.7000;0.1481;10.4943;
-98.4000;0.1465;10.4823;
-98.1000;0.1465;10.4774;
-97.8000;0.1498;10.4750;
-97.5000;0.1425;10.4557;
-97.2000;0.1465;10.4750;
-96.9000;0.1465;10.4799;
-96.6000;0.1433;10.4774;
-96.3000;0.1481;10.4919;
-96.0000;0.1490;10.4967;
-95.7000;0.1481;10.4919;
-95.4000;0.1433;10.4774;
-95.1000;0.1392;10.4557;
-94.8000;0.1465;10.4847;
-94.5000;0.1473;10.4823;
-94.2000;0.1481;10.4943;
-93.9000;0.1473;10.4895;
-93.6000;0.1465;10.4967;
-93.3000;0.1465;10.5016;
-93.0000;0.1465;10.4991;
-92.7000;0.1457;10.5016;
-92.4000;0.1457;10.4991;
-92.1000;0.1473;10.5064;
-91.8000;0.1538;10.5281;
-91.5000;0.1457;10.5016;
-91.2000;0.1457;10.4991;
-90.9000;0.1465;10.4943;
-90.6000;0.1514;10.5040;
-90.3000;0.1547;10.5064;
-90.0000;0.1473;10.4919;
-89.7000;0.1481;10.4943;
-89.4000;0.1481;10.4847;
-89.1000;0.1408;10.4726;
-88.8000;0.1449;10.4799;
-88.5000;0.1473;10.4871;
-88.2000;0.1481;10.4967;
-87.9000;0.1481;10.5040;
-87.6000;0.1441;10.4967;
-87.3000;0.1473;10.5040;
-87.0000;0.1490;10.5088;
-86.7000;0.1522;10.5209;
-86.4000;0.1449;10.4943;
-86.1000;0.1465;10.4895;
-85.8000;0.1490;10.4895;
-85.5000;0.1481;10.4847;
-85.2000;0.1490;10.4919;
-84.9000;0.1465;10.4919;
-84.6000;0.1465;10.4847;
-84.3000;0.1465;10.4823;
-84.0000;0.1449;10.4702;
-83.7000;0.1416;10.4654;
-83.4000;0.1481;10.4799;
-83.1000;0.1473;10.4702;
-82.8000;0.1465;10.4678;
-82.5000;0.1449;10.4630;
-82.2000;0.1473;10.4678;
-81.9000;0.1481;10.4823;
-81.6000;0.1457;10.4895;
-81.3000;0.1514;10.5088;
-81.0000;0.1498;10.5112;
-80.7000;0.1490;10.5064;
-80.4000;0.1481;10.5016;
-80.1000;0.1481;10.5016;
-79.8000;0.1465;10.5040;
-79.5000;0.1457;10.5064;
-79.2000;0.1457;10.5016;
-78.9000;0.1449;10.5064;
-78.6000;0.1465;10.5064;
-78.3000;0.1473;10.5040;
-78.0000;0.1457;10.4943;
-77.7000;0.1473;10.4943;
-77.4000;0.1465;10.5016;
-77.1000;0.1465;10.4967;
-76.8000;0.1457;10.4919;
-76.5000;0.1473;10.4823;
-76.2000;0.1473;10.4847;
-75.9000;0.1425;10.4823;
-75.6000;0.1457;10.4895;
-75.3000;0.1465;10.4895;
-75.0000;0.1457;10.4823;
-74.7000;0.1465;10.4799;
-74.4000;0.1481;10.4823;
-74.1000;0.1481;10.4823;
-73.8000;0.1473;10.4774;
-73.5000;0.1481;10.4750;
-73.2000;0.1465;10.4774;
-72.9000;0.1473;10.4799;
-72.6000;0.1465;10.4774;
-72.3000;0.1425;10.4654;
-72.0000;0.1481;10.4799;
-71.7000;0.1465;10.4726;
-71.4000;0.1449;10.4702;
-71.1000;0.1457;10.4750;
-70.8000;0.1473;10.4871;
-70.5000;0.1425;10.4799;
-70.2000;0.1425;10.4847;
-69.9000;0.1473;10.4991;
-69.6000;0.1465;10.4967;
-69.3000;0.1498;10.4919;
-69.0000;0.1449;10.4871;
-68.7000;0.1490;10.4943;
-68.4000;0.1441;10.4774;
-68.1000;0.1465;10.4750;
-67.8000;0.1465;10.4823;
-67.5000;0.1465;10.4895;
-67.2000;0.1547;10.5112;
-66.9000;0.1481;10.4967;
-66.6000;0.1481;10.4991;
-66.3000;0.1481;10.5016;
-66.0000;0.1351;10.4606;
-65.7000;0.1522;10.4967;
-65.4000;0.1563;10.5016;
-65.1000;0.1465;10.4799;
-64.8000;0.1465;10.4847;
-64.5000;0.1441;10.4871;
-64.2000;0.1425;10.4750;
-63.9000;0.1457;10.4799;
-63.6000;0.1473;10.4871;
-63.3000;0.1465;10.4943;
-63.0000;0.1473;10.4943;
-62.7000;0.1457;10.4943;
-62.4000;0.1457;10.5040;
-62.1000;0.1457;10.5064;
-61.8000;0.1473;10.5064;
-61.5000;0.1465;10.4991;
-61.2000;0.1473;10.5040;
-60.9000;0.1530;10.5184;
-60.6000;0.1465;10.4967;
-60.3000;0.1473;10.4919;
-60.0000;0.1376;10.4630;
-59.7000;0.1473;10.4823;
-59.4000;0.1449;10.4750;
-59.1000;0.1473;10.4823;
-58.8000;0.1400;10.4702;
-58.5000;0.1473;10.4847;
-58.2000;0.1457;10.4895;
-57.9000;0.1481;10.4943;
-57.6000;0.1465;10.4895;
-57.3000;0.1473;10.4967;
-57.0000;0.1490;10.4967;
-56.7000;0.1465;10.4895;
-56.4000;0.1457;10.4799;
-56.1000;0.1465;10.4847;
-55.8000;0.1416;10.4847;
-55.5000;0.1457;10.4919;
-55.2000;0.1465;10.4871;
-54.9000;0.1465;10.4895;
-54.6000;0.1465;10.4847;
-54.3000;0.1481;10.4871;
-54.0000;0.1457;10.4895;
-53.7000;0.1465;10.4823;
-53.4000;0.1481;10.4871;
-53.1000;0.1473;10.4871;
-52.8000;0.1473;10.4919;
-52.5000;0.1457;10.4871;
-52.2000;0.1473;10.4919;
-51.9000;0.1465;10.4943;
-51.6000;0.1498;10.5040;
-51.3000;0.1457;10.5016;
-51.0000;0.1449;10.4943;
-50.7000;0.1449;10.5016;
-50.4000;0.1481;10.5040;
-50.1000;0.1473;10.5016;
-49.8000;0.1514;10.5112;
-49.5000;0.1465;10.4919;
-49.2000;0.1449;10.4895;
-48.9000;0.1481;10.4943;
-48.6000;0.1465;10.4895;
-48.3000;0.1481;10.4943;
-48.0000;0.1473;10.4967;
-47.7000;0.1579;10.5233;
-47.4000;0.1457;10.4991;
-47.1000;0.1457;10.4967;
-46.8000;0.1465;10.4919;
-46.5000;0.1473;10.4823;
-46.2000;0.1465;10.4895;
-45.9000;0.1473;10.4871;
-45.6000;0.1465;10.4823;
-45.3000;0.1481;10.4799;
-45.0000;0.1473;10.4750;
-44.7000;0.1465;10.4726;
-44.4000;0.1547;10.4919;
-44.1000;0.1449;10.4581;
-43.8000;0.1473;10.4702;
-43.5000;0.1530;10.4943;
-43.2000;0.1473;10.4678;
-42.9000;0.1490;10.4774;
-42.6000;0.1522;10.4895;
-42.3000;0.1449;10.4702;
-42.0000;0.1498;10.4823;
-41.7000;0.1433;10.4654;
-41.4000;0.1473;10.4871;
-41.1000;0.1498;10.5040;
-40.8000;0.1465;10.4919;
-40.5000;0.1457;10.5016;
-40.2000;0.1465;10.5040;
-39.9000;0.1538;10.5233;
-39.6000;0.1465;10.5112;
-39.3000;0.1473;10.5040;
-39.0000;0.1490;10.5016;
-38.7000;0.1473;10.5040;
-38.4000;0.1465;10.4991;
-38.1000;0.1473;10.5040;
-37.8000;0.1465;10.5016;
-37.5000;0.1473;10.5040;
-37.2000;0.1457;10.4991;
-36.9000;0.1457;10.5016;
-36.6000;0.1465;10.5016;
-36.3000;0.1465;10.5064;
-36.0000;0.1465;10.5064;
-35.7000;0.1465;10.5040;
-35.4000;0.1465;10.5064;
-35.1000;0.1465;10.5016;
-34.8000;0.1433;10.4847;
-34.5000;0.1473;10.4967;
-34.2000;0.1465;10.4871;
-33.9000;0.1465;10.4871;
-33.6000;0.1473;10.4943;
-33.3000;0.1449;10.4967;
-33.0000;0.1441;10.4991;
-32.7000;0.1465;10.4991;
-32.4000;0.1473;10.5064;
-32.1000;0.1465;10.5064;
-31.8000;0.1555;10.5281;
-31.5000;0.1465;10.4991;
-31.2000;0.1465;10.4991;
-30.9000;0.1465;10.5016;
-30.6000;0.1473;10.5112;
-30.3000;0.1473;10.4991;
-30.0000;0.1473;10.5088;
-29.7000;0.1449;10.5112;
-29.4000;0.1465;10.5040;
-29.1000;0.1473;10.5064;
-28.8000;0.1457;10.5016;
-28.5000;0.1449;10.4991;
-28.2000;0.1490;10.5064;
-27.9000;0.1465;10.4991;
-27.6000;0.1490;10.5040;
-27.3000;0.1490;10.5016;
-27.0000;0.1465;10.4919;
-26.7000;0.1465;10.4991;
-26.4000;0.1481;10.5088;
-26.1000;0.1490;10.5112;
-25.8000;0.1425;10.4967;
-25.5000;0.1457;10.4991;
-25.2000;0.1481;10.4967;
-24.9000;0.1465;10.4919;
-24.6000;0.1473;10.4943;
-24.3000;0.1481;10.4895;
-24.0000;0.1416;10.4919;
-23.7000;0.1481;10.4991;
-23.4000;0.1433;10.4774;
-23.1000;0.1490;10.4991;
-22.8000;0.1481;10.4943;
-22.5000;0.1490;10.4991;
-22.2000;0.1457;10.4871;
-21.9000;0.1473;10.4847;
-21.6000;0.1481;10.4871;
-21.3000;0.1465;10.4895;
-21.0000;0.1465;10.4847;
-20.7000;0.1465;10.4895;
-20.4000;0.1473;10.4919;
-20.1000;0.1465;10.4847;
-19.8000;0.1490;10.4967;
-19.5000;0.1481;10.4895;
-19.2000;0.1457;10.4774;
-18.9000;0.1490;10.4823;
-18.6000;0.1490;10.4967;
-18.3000;0.1473;10.4919;
-18.0000;0.1481;10.4871;
-17.7000;0.1490;10.4847;
-17.4000;0.1481;10.4895;
-17.1000;0.1441;10.4871;
-16.8000;0.1490;10.4967;
-16.5000;0.1465;10.4799;
-16.2000;0.1473;10.4823;
-15.9000;0.1441;10.4823;
-15.6000;0.1465;10.4871;
-15.3000;0.1473;10.4871;
-15.0000;0.1490;10.4823;
-14.7000;0.1473;10.4774;
-14.4000;0.1490;10.4774;
-14.1000;0.1498;10.4823;
-13.8000;0.1408;10.4606;
-13.5000;0.1465;10.4799;
-13.2000;0.1457;10.4799;
-12.9000;0.1481;10.4799;
-12.6000;0.1457;10.4750;
-12.3000;0.1473;10.4823;
-12.0000;0.1473;10.4871;
-11.7000;0.1457;10.4895;
-11.4000;0.1530;10.5088;
-11.1000;0.1481;10.4967;
-10.8000;0.1433;10.4799;
-10.5000;0.1473;10.4895;
-10.2000;0.1473;10.4895;
-9.9000;0.1449;10.4823;
-9.6000;0.1473;10.4847;
-9.3000;0.1481;10.4871;
-9.0000;0.1465;10.4991;
-8.7000;0.1425;10.4871;
-8.4000;0.1465;10.4967;
-8.1000;0.1465;10.4943;
-7.8000;0.1514;10.5040;
-7.5000;0.1457;10.5016;
-7.2000;0.1465;10.5016;
-6.9000;0.1473;10.5088;
-6.6000;0.1449;10.4991;
-6.3000;0.1457;10.4871;
-6.0000;0.1481;10.5016;
-5.7000;0.1473;10.5064;
-5.4000;0.1473;10.5040;
-5.1000;0.1473;10.4943;
-4.8000;0.1449;10.4847;
-4.5000;0.1465;10.4799;
-4.2000;0.1473;10.4726;
-3.9000;0.1473;10.4799;
-3.6000;0.1449;10.4823;
-3.3000;0.1490;10.4943;
-3.0000;0.1481;10.4919;
-2.7000;0.1481;10.4991;
-2.4000;0.1481;10.4967;
-2.1000;0.1481;10.4943;
-1.8000;0.1392;10.4702;
-1.5000;0.1473;10.5016;
-1.2000;0.1473;10.5112;
-0.9000;0.1490;10.5040;
-0.6000;0.1465;10.5016;
-0.3000;0.1465;10.4991;
0.0000;0.1465;10.4991;
0.3000;0.1433;10.4871;
0.6000;0.1498;10.5233;
0.9000;0.1522;10.5522;
1.2000;0.1538;10.5836;
1.5000;0.1530;10.6005;
1.8000;0.1555;10.6246;
2.1000;0.1571;10.6439;
2.4000;0.1595;10.6680;
2.7000;0.1595;10.6752;
3.0000;0.1595;10.6849;
3.3000;0.1595;10.6945;
3.6000;0.1587;10.6969;
3.9000;0.1652;10.7186;
4.2000;0.1587;10.7138;
4.5000;0.1628;10.7307;
4.8000;0.1579;10.7210;
5.1000;0.1587;10.7186;
5.4000;0.1595;10.7283;
5.7000;0.1538;10.7066;
6.0000;0.1612;10.7307;
6.3000;0.1628;10.7379;
6.6000;0.1612;10.7331;
6.9000;0.1604;10.7355;
7.2000;0.1612;10.7428;
7.5000;0.1628;10.7500;
7.8000;0.1604;10.7379;
8.1000;0.1514;10.7162;
8.4000;0.1636;10.7379;
8.7000;0.1628;10.7283;
9.0000;0.1628;10.7379;
9.3000;0.1620;10.7307;
9.6000;0.1620;10.7379;
9.9000;0.1620;10.7403;
10.2000;0.1636;10.7548;
10.5000;0.1612;10.7452;
10.8000;0.1595;10.7355;
11.1000;0.1612;10.7331;
11.4000;0.1628;10.7452;
11.7000;0.1612;10.7452;
12.0000;0.1620;10.7452;
12.3000;0.1612;10.7428;
12.6000;0.1612;10.7572;
12.9000;0.1563;10.7428;
13.2000;0.1547;10.7403;
13.5000;0.1628;10.7621;
13.8000;0.1604;10.7548;
14.1000;0.1677;10.7765;
14.4000;0.1612;10.7669;
14.7000;0.1604;10.7693;
15.0000;0.1620;10.7645;
15.3000;0.1604;10.7621;
15.6000;0.1669;10.7765;
15.9000;0.1604;10.7669;
16.2000;0.1612;10.7669;
16.5000;0.1595;10.7693;
16.8000;0.1612;10.7693;
17.1000;0.1628;10.7717;
17.4000;0.1595;10.7621;
17.7000;0.1604;10.7596;
18.0000;0.1604;10.7645;
18.3000;0.1604;10.7621;
18.6000;0.1612;10.7717;
18.9000;0.1595;10.7645;
19.2000;0.1620;10.7741;
19.5000;0.1595;10.7669;
19.8000;0.1612;10.7693;
20.1000;0.1604;10.7596;
20.4000;0.1604;10.7572;
20.7000;0.1604;10.7596;
21.0000;0.1595;10.7548;
21.3000;0.1612;10.7669;
21.6000;0.1620;10.7621;
21.9000;0.1612;10.7548;
22.2000;0.1636;10.7572;
22.5000;0.1644;10.7548;
22.8000;0.1628;10.7572;
23.1000;0.1595;10.7476;
23.4000;0.1636;10.7645;
23.7000;0.1620;10.7645;
24.0000;0.1612;10.7693;
24.3000;0.1612;10.7669;
24.6000;0.1604;10.7572;
24.9000;0.1620;10.7621;
25.2000;0.1604;10.7596;
25.5000;0.1620;10.7572;
25.8000;0.1587;10.7548;
26.1000;0.1612;10.7621;
26.4000;0.1620;10.7621;
26.7000;0.1604;10.7596;
27.0000;0.1628;10.7548;
27.3000;0.1547;10.7403;
27.6000;0.1620;10.7645;
27.9000;0.1628;10.7621;
28.2000;0.1628;10.7524;
28.5000;0.1636;10.7572;
28.8000;0.1604;10.7548;
29.1000;0.1595;10.7572;
29.4000;0.1498;10.7283;
29.7000;0.1612;10.7524;
30.0000;0.1595;10.7500;
30.3000;0.1742;10.7838;
30.6000;0.1555;10.7403;
30.9000;0.1661;10.7765;
31.2000;0.1595;10.7548;
31.5000;0.1547;10.7331;
31.8000;0.1604;10.7355;
32.1000;0.1628;10.7355;
32.4000;0.1579;10.7331;
32.7000;0.1587;10.7331;
33.0000;0.1693;10.7524;
33.3000;0.1612;10.7259;
33.6000;0.1636;10.7235;
33.9000;0.1571;10.7138;
34.2000;0.1563;10.7138;
34.5000;0.1620;10.7235;
34.8000;0.1604;10.7259;
35.1000;0.1620;10.7379;
35.4000;0.1620;10.7476;
35.7000;0.1644;10.7500;
36.0000;0.1604;10.7331;
36.3000;0.1628;10.7524;
36.6000;0.1604;10.7524;
36.9000;0.1604;10.7524;
37.2000;0.1612;10.7548;
37.5000;0.1628;10.7476;
37.8000;0.1620;10.7428;
38.1000;0.1555;10.7235;
38.4000;0.1604;10.7331;
38.7000;0.1636;10.7500;
39.0000;0.1612;10.7428;
39.3000;0.1628;10.7379;
39.6000;0.1612;10.7428;
39.9000;0.1620;10.7524;
40.2000;0.1620;10.7476;
40.5000;0.1595;10.7403;
40.8000;0.1571;10.7331;
41.1000;0.1604;10.7428;
41.4000;0.1628;10.7524;
41.7000;0.1620;10.7524;
42.0000;0.1604;10.7524;
42.3000;0.1587;10.7548;
42.6000;0.1693;10.7838;
42.9000;0.1628;10.7572;
43.2000;0.1636;10.7621;
43.5000;0.1620;10.7572;
43.8000;0.1620;10.7524;
44.1000;0.1587;10.7355;
44.4000;0.1620;10.7403;
44.7000;0.1620;10.7428;
45.0000;0.1612;10.7307;
45.3000;0.1612;10.7283;
45.6000;0.1620;10.7355;
45.9000;0.1612;10.7403;
46.2000;0.1612;10.7379;
46.5000;0.1612;10.7379;
46.8000;0.1628;10.7452;
47.1000;0.1587;10.7331;
47.4000;0.1612;10.7428;
47.7000;0.1620;10.7524;
48.0000;0.1612;10.7500;
48.3000;0.1644;10.7645;
48.6000;0.1612;10.7452;
48.9000;0.1604;10.7476;
49.2000;0.1604;10.7524;
49.5000;0.1628;10.7621;
49.8000;0.1595;10.7524;
50.1000;0.1612;10.7476;
50.4000;0.1628;10.7428;
50.7000;0.1620;10.7572;
51.0000;0.1587;10.7621;
51.3000;0.1595;10.7669;
51.6000;0.1595;10.7693;
51.9000;0.1595;10.7717;
52.2000;0.1595;10.7693;
52.5000;0.1604;10.7693;
52.8000;0.1604;10.7645;
53.1000;0.1620;10.7645;
53.4000;0.1579;10.7524;
53.7000;0.1612;10.7548;
54.0000;0.1612;10.7500;
54.3000;0.1604;10.7428;
54.6000;0.1620;10.7428;
54.9000;0.1595;10.7452;
55.2000;0.1604;10.7379;
55.5000;0.1555;10.7307;
55.8000;0.1612;10.7379;
56.1000;0.1604;10.7403;
56.4000;0.1604;10.7428;
56.7000;0.1604;10.7379;
57.0000;0.1604;10.7355;
57.3000;0.1604;10.7355;
57.6000;0.1604;10.7379;
57.9000;0.1644;10.7524;
58.2000;0.1652;10.7596;
58.5000;0.1620;10.7524;
58.8000;0.1604;10.7548;
59.1000;0.1628;10.7596;
59.4000;0.1604;10.7524;
59.7000;0.1620;10.7524;
60.0000;0.1563;10.7403;
60.3000;0.1612;10.7476;
60.6000;0.1620;10.7524;
60.9000;0.1652;10.7524;
61.2000;0.1620;10.7476;
61.5000;0.1620;10.7476;
61.8000;0.1563;10.7379;
62.1000;0.1604;10.7500;
62.4000;0.1595;10.7428;
62.7000;0.1604;10.7476;
63.0000;0.1587;10.7476;
63.3000;0.1612;10.7548;
63.6000;0.1620;10.7548;
63.9000;0.1620;10.7452;
64.2000;0.1587;10.7379;
64.5000;0.1612;10.7403;
64.8000;0.1612;10.7379;
65.1000;0.1604;10.7452;
65.4000;0.1620;10.7452;
65.7000;0.1604;10.7428;
66.0000;0.1612;10.7452;
66.3000;0.1547;10.7452;
66.6000;0.1734;10.8006;
66.9000;0.1604;10.7645;
67.2000;0.1595;10.7669;
67.5000;0.1604;10.7693;
67.8000;0.1636;10.7741;
68.1000;0.1612;10.7669;
68.4000;0.1612;10.7645;
68.7000;0.1612;10.7572;
69.0000;0.1595;10.7476;
69.3000;0.1701;10.7693;
69.6000;0.1612;10.7428;
69.9000;0.1604;10.7428;
70.2000;0.1636;10.7428;
70.5000;0.1604;10.7235;
70.8000;0.1595;10.7114;
71.1000;0.1620;10.7138;
71.4000;0.1612;10.7210;
71.7000;0.1571;10.7162;
72.0000;0.1612;10.7259;
72.3000;0.1612;10.7283;
72.6000;0.1693;10.7452;
72.9000;0.1604;10.7186;
73.2000;0.1587;10.7090;
73.5000;0.1579;10.7114;
73.8000;0.1620;10.7379;
74.1000;0.1620;10.7452;
74.4000;0.1571;10.7355;
74.7000;0.1701;10.7621;
75.0000;0.1612;10.7283;
75.3000;0.1612;10.7307;
75.6000;0.1612;10.7307;
75.9000;0.1612;10.7355;
76.2000;0.1595;10.7331;
76.5000;0.1612;10.7428;
76.8000;0.1604;10.7403;
77.1000;0.1612;10.7355;
77.4000;0.1612;10.7355;
77.7000;0.1612;10.7403;
78.0000;0.1718;10.7645;
78.3000;0.1612;10.7355;
78.6000;0.1620;10.7331;
78.9000;0.1612;10.7331;
79.2000;0.1612;10.7235;
79.5000;0.1595;10.7259;
79.8000;0.1620;10.7331;
80.1000;0.1604;10.7355;
80.4000;0.1612;10.7355;
80.7000;0.1677;10.7452;
81.0000;0.1612;10.7259;
81.3000;0.1595;10.7235;
81.6000;0.1620;10.7379;
81.9000;0.1595;10.7355;
82.2000;0.1636;10.7428;
82.5000;0.1612;10.7355;
82.8000;0.1652;10.7548;
83.1000;0.1612;10.7476;
83.4000;0.1604;10.7403;
83.7000;0.1685;10.7621;
84.0000;0.1620;10.7548;
84.3000;0.1612;10.7500;
84.6000;0.1547;10.7331;
84.9000;0.1661;10.7717;
85.2000;0.1628;10.7669;
85.5000;0.1595;10.7572;
85.8000;0.1612;10.7500;
86.1000;0.1612;10.7524;
86.4000;0.1620;10.7476;
86.7000;0.1595;10.7500;
87.0000;0.1587;10.7524;
87.3000;0.1595;10.7428;
87.6000;0.1604;10.7428;
87.9000;0.1587;10.7428;
88.2000;0.1604;10.7428;
88.5000;0.1612;10.7379;
88.8000;0.1604;10.7307;
89.1000;0.1595;10.7307;
89.4000;0.1661;10.7524;
89.7000;0.1595;10.7307;
90.0000;0.1579;10.7210;
90.3000;0.1644;10.7452;
90.6000;0.1652;10.7452;
90.9000;0.1628;10.7428;
91.2000;0.1612;10.7355;
91.5000;0.1604;10.7331;
91.8000;0.1587;10.7331;
92.1000;0.1595;10.7403;
92.4000;0.1636;10.7596;
92.7000;0.1612;10.7572;
93.0000;0.1661;10.7693;
93.3000;0.1604;10.7596;
93.6000;0.1612;10.7572;
93.9000;0.1571;10.7428;
94.2000;0.1612;10.7596;
94.5000;0.1595;10.7572;
94.8000;0.1612;10.7621;
95.1000;0.1612;10.7645;
95.4000;0.1620;10.7621;
95.7000;0.1628;10.7596;
96.0000;0.1587;10.7500;
96.3000;0.1612;10.7596;
96.6000;0.1604;10.7693;
96.9000;0.1604;10.7669;
97.2000;0.1604;10.7621;
97.5000;0.1595;10.7645;
97.8000;0.1604;10.7669;
98.1000;0.1612;10.7693;
98.4000;0.1612;10.7693;
98.7000;0.1612;10.7765;
99.0000;0.1595;10.7693;
99.3000;0.1587;10.7693;
99.6000;0.1620;10.7669;
99.9000;0.1612;10.7621;
100.2000;0.1530;10.7355;
100.5000;0.1604;10.7548;
100.8000;0.1620;10.7693;
101.1000;0.1685;10.7886;
101.4000;0.1612;10.7669;
101.7000;0.1514;10.7403;
102.0000;0.1612;10.7596;
102.3000;0.1587;10.7500;
102.6000;0.1595;10.7428;
102.9000;0.1628;10.7524;
103.2000;0.1604;10.7476;
103.5000;0.1620;10.7476;
103.8000;0.1604;10.7379;
104.1000;0.1604;10.7403;
104.4000;0.1612;10.7452;
104.7000;0.1595;10.7452;
105.0000;0.1709;10.7717;
105.3000;0.1620;10.7476;
105.6000;0.1595;10.7524;
105.9000;0.1612;10.7500;
106.2000;0.1612;10.7500;
106.5000;0.1595;10.7548;
106.8000;0.1571;10.7524;
107.1000;0.1644;10.7693;
107.4000;0.1612;10.7548;
107.7000;0.1595;10.7548;
108.0000;0.1612;10.7596;
108.3000;0.1604;10.7572;
108.6000;0.1595;10.7596;
108.9000;0.1620;10.7500;
109.2000;0.1595;10.7428;
109.5000;0.1604;10.7476;
109.8000;0.1587;10.7331;
110.1000;0.1604;10.7331;
110.4000;0.1604;10.7355;
110.7000;0.1604;10.7403;
111.0000;0.1628;10.7476;
111.3000;0.1604;10.7403;
111.6000;0.1595;10.7379;
111.9000;0.1604;10.7428;
112.2000;0.1612;10.7476;
112.5000;0.1595;10.7403;
112.8000;0.1604;10.7307;
113.1000;0.1595;10.7331;
113.4000;0.1612;10.7379;
113.7000;0.1612;10.7379;
114.0000;0.1620;10.7403;
114.3000;0.1595;10.7452;
114.6000;0.1628;10.7621;
114.9000;0.1636;10.7621;
115.2000;0.1579;10.7500;
115.5000;0.1636;10.7548;
115.8000;0.1612;10.7379;
116.1000;0.1595;10.7331;
116.4000;0.1636;10.7428;
116.7000;0.1579;10.7259;
117.0000;0.1620;10.7379;
117.3000;0.1587;10.7307;
117.6000;0.1604;10.7307;
117.9000;0.1595;10.7235;
118.2000;0.1612;10.7331;
118.5000;0.1587;10.7283;
118.8000;0.1612;10.7283;
119.1000;0.1604;10.7235;
119.4000;0.1620;10.7259;
119.7000;0.1604;10.7259;
120.0000;0.1595;10.7283;
120.3000;0.1604;10.7307;
120.6000;0.1595;10.7259;
120.9000;0.1620;10.7307;
121.2000;0.1628;10.7331;
121.5000;0.1644;10.7452;
121.8000;0.1604;10.7403;
122.1000;0.1587;10.7379;
122.4000;0.1595;10.7476;
122.7000;0.1604;10.7548;
123.0000;0.1579;10.7500;
123.3000;0.1620;10.7669;
123.6000;0.1595;10.7572;
123.9000;0.1677;10.7741;
124.2000;0.1571;10.7500;
124.5000;0.1604;10.7621;
124.8000;0.1628;10.7669;
125.1000;0.1571;10.7524;
125.4000;0.1595;10.7645;
125.7000;0.1612;10.7621;
126.0000;0.1620;10.7669;
126.3000;0.1612;10.7693;
126.6000;0.1604;10.7645;
126.9000;0.1587;10.7621;
127.2000;0.1571;10.7621;
127.5000;0.1620;10.7717;
127.8000;0.1620;10.7741;
128.1000;0.1579;10.7669;
128.4000;0.1628;10.7693;
128.7000;0.1595;10.7645;
129.0000;0.1612;10.7621;
129.3000;0.1595;10.7476;
129.6000;0.1612;10.7452;
129.9000;0.1612;10.7476;
130.2000;0.1595;10.7428;
130.5000;0.1595;10.7452;
130.8000;0.1620;10.7476;
131.1000;0.1612;10.7524;
131.4000;0.1604;10.7524;
131.7000;0.1628;10.7596;
132.0000;0.1604;10.7524;
132.3000;0.1612;10.7548;
132.6000;0.1612;10.7596;
132.9000;0.1595;10.7524;
133.2000;0.1587;10.7500;
133.5000;0.1595;10.7524;
133.8000;0.1595;10.7500;
134.1000;0.1587;10.7476;
134.4000;0.1604;10.7572;
134.7000;0.1579;10.7621;
135.0000;0.1595;10.7645;
135.3000;0.1595;10.7548;
135.6000;0.1612;10.7621;
135.9000;0.1595;10.7572;
136.2000;0.1612;10.7572;
136.5000;0.1620;10.7572;
136.8000;0.1579;10.7500;
137.1000;0.1604;10.7596;
137.4000;0.1595;10.7669;
137.7000;0.1604;10.7596;
138.0000;0.1604;10.7572;
138.3000;0.1604;10.7572;
138.6000;0.1612;10.7500;
138.9000;0.1620;10.7452;
139.2000;0.1604;10.7355;
139.5000;0.1709;10.7693;
139.8000;0.1612;10.7524;
140.1000;0.1628;10.7669;
140.4000;0.1652;10.7789;
140.7000;0.1587;10.7621;
141.0000;0.1620;10.7693;
141.3000;0.1612;10.7572;
141.6000;0.1587;10.7572;
141.9000;0.1604;10.7548;
142.2000;0.1595;10.7452;
142.5000;0.1547;10.7307;
142.8000;0.1612;10.7476;
143.1000;0.1595;10.7428;
143.4000;0.1587;10.7428;
143.7000;0.1701;10.7813;
144.0000;0.1595;10.7524;
144.3000;0.1587;10.7524;
144.6000;0.1595;10.7524;
144.9000;0.1612;10.7548;
145.2000;0.1595;10.7476;
145.5000;0.1604;10.7452;
145.8000;0.1612;10.7500;
146.1000;0.1604;10.7548;
146.4000;0.1620;10.7524;
146.7000;0.1685;10.7669;
147.0000;0.1604;10.7524;
147.3000;0.1595;10.7596;
147.6000;0.1563;10.7476;
147.9000;0.1473;10.7210;
148.2000;0.1587;10.7621;
148.5000;0.1636;10.7765;
148.8000;0.1612;10.7645;
149.1000;0.1604;10.7596;
149.4000;0.1595;10.7645;
149.7000;0.1604;10.7621;
150.0000;0.1628;10.7669;
150.3000;0.1612;10.7645;
150.6000;0.1563;10.7500;
150.9000;0.1628;10.7669;
151.2000;0.1612;10.7645;
151.5000;0.1587;10.7524;
151.8000;0.1604;10.7596;
152.1000;0.1620;10.7596;
152.4000;0.1595;10.7596;
152.7000;0.1571;10.7548;
153.0000;0.1612;10.7621;
153.3000;0.1555;10.7379;
153.6000;0.1604;10.7500;
153.9000;0.1604;10.7500;
154.2000;0.1620;10.7500;
154.5000;0.1604;10.7428;
154.8000;0.1595;10.7331;
155.1000;0.1604;10.7428;
155.4000;0.1612;10.7476;
155.7000;0.1604;10.7500;
156.0000;0.1595;10.7548;
156.3000;0.1612;10.7572;
156.6000;0.1604;10.7524;
156.9000;0.1595;10.7476;
157.2000;0.1612;10.7524;
157.5000;0.1595;10.7524;
157.8000;0.1604;10.7548;
158.1000;0.1604;10.7548;
158.4000;0.1620;10.7669;
158.7000;0.1595;10.7596;
159.0000;0.1595;10.7572;
159.3000;0.1612;10.7572;
159.6000;0.1579;10.7500;
159.9000;0.1595;10.7548;
160.2000;0.1595;10.7572;
160.5000;0.1595;10.7500;
160.8000;0.1604;10.7596;
161.1000;0.1579;10.7500;
161.4000;0.1571;10.7500;
161.7000;0.1604;10.7524;
162.0000;0.1604;10.7524;
162.3000;0.1530;10.7379;
162.6000;0.1595;10.7476;
162.9000;0.1612;10.7524;
163.2000;0.1628;10.7717;
163.5000;0.1628;10.7717;
163.8000;0.1604;10.7621;
164.1000;0.1612;10.7693;
164.4000;0.1636;10.7765;
164.7000;0.1612;10.7621;
165.0000;0.1579;10.7572;
165.3000;0.1587;10.7524;
165.6000;0.1604;10.7548;
165.9000;0.1604;10.7645;
166.2000;0.1587;10.7572;
166.5000;0.1620;10.7693;
166.8000;0.1604;10.7645;
167.1000;0.1595;10.7596;
167.4000;0.1595;10.7669;
167.7000;0.1595;10.7572;
168.0000;0.1620;10.7645;
168.3000;0.1587;10.7548;
168.6000;0.1579;10.7596;
168.9000;0.1587;10.7621;
169.2000;0.1595;10.7596;
169.5000;0.1644;10.7645;
169.8000;0.1604;10.7500;
170.1000;0.1579;10.7403;
170.4000;0.1612;10.7428;
170.7000;0.1612;10.7379;
171.0000;0.1604;10.7428;
171.3000;0.1612;10.7355;
171.6000;0.1604;10.7283;
171.9000;0.1604;10.7235;
172.2000;0.1595;10.7235;
172.5000;0.1612;10.7283;
172.8000;0.1604;10.7307;
173.1000;0.1604;10.7331;
173.4000;0.1612;10.7331;
173.7000;0.1604;10.7283;
174.0000;0.1636;10.7379;
174.3000;0.1612;10.7331;
174.6000;0.1620;10.7428;
174.9000;0.1587;10.7355;
175.2000;0.1595;10.7355;
175.5000;0.1612;10.7259;
175.8000;0.1612;10.7259;
176.1000;0.1595;10.7403;
176.4000;0.1587;10.7403;
176.7000;0.1587;10.7500;
177.0000;0.1636;10.7524;
177.3000;0.1620;10.7452;
177.6000;0.1604;10.7403;
177.9000;0.1595;10.7452;
178.2000;0.1612;10.7403;
178.5000;0.1620;10.7403;
178.8000;0.1587;10.7403;
179.1000;0.1587;10.7403;
179.4000;0.1579;10.7476;
179.7000;0.1595;10.7428;
180.0000;0.1604;10.7331;
180.3000;0.1595;10.7283;
180.6000;0.1587;10.7379;
180.9000;0.1604;10.7379;
181.2000;0.1595;10.7307;
181.5000;0.1604;10.7283;
181.8000;0.1595;10.7283;
182.1000;0.1595;10.7403;
182.4000;0.1636;10.7572;
182.7000;0.1604;10.7572;
183.0000;0.1595;10.7548;
183.3000;0.1587;10.7524;
183.6000;0.1563;10.7548;
183.9000;0.1587;10.7621;
184.2000;0.1579;10.7596;
184.5000;0.1612;10.7669;
184.8000;0.1604;10.7645;
185.1000;0.1571;10.7596;
185.4000;0.1628;10.7789;
185.7000;0.1604;10.7741;
186.0000;0.1620;10.7717;
186.3000;0.1644;10.7741;
186.6000;0.1612;10.7596;
186.9000;0.1587;10.7572;
187.2000;0.1620;10.7596;
187.5000;0.1612;10.7476;
187.8000;0.1604;10.7500;
188.1000;0.1587;10.7428;
188.4000;0.1644;10.7596;
188.7000;0.1604;10.7524;
189.0000;0.1612;10.7524;
189.3000;0.1612;10.7572;
189.6000;0.1604;10.7621;
189.9000;0.1595;10.7645;
190.2000;0.1612;10.7645;
190.5000;0.1612;10.7596;
190.8000;0.1604;10.7645;
191.1000;0.1620;10.7572;
191.4000;0.1612;10.7500;
191.7000;0.1685;10.7765;
192.0000;0.1620;10.7524;
192.3000;0.1595;10.7476;
192.6000;0.1595;10.7500;
192.9000;0.1612;10.7500;
193.2000;0.1579;10.7500;
193.5000;0.1587;10.7428;
193.8000;0.1612;10.7524;
194.1000;0.1595;10.7548;
194.4000;0.1587;10.7621;
194.7000;0.1465;10.7210;
195.0000;0.1612;10.7621;
195.3000;0.1595;10.7596;
195.6000;0.1612;10.7717;
195.9000;0.1604;10.7621;
196.2000;0.1506;10.7307;
196.5000;0.1604;10.7548;
196.8000;0.1628;10.7621;
197.1000;0.1538;10.7379;
197.4000;0.1595;10.7403;
197.7000;0.1628;10.7476;
198.0000;0.1563;10.7259;
198.3000;0.1604;10.7403;
198.6000;0.1587;10.7379;
198.9000;0.1587;10.7476;
199.2000;0.1514;10.7259;
199.5000;0.1612;10.7500;
199.8000;0.1604;10.7476;
200.1000;0.1652;10.7524;
200.4000;0.1587;10.7331;
200.7000;0.1636;10.7452;
201.0000;0.1604;10.7452;
201.3000;0.1522;10.7283;
201.6000;0.1498;10.7210;
201.9000;0.1604;10.7500;
202.2000;0.1701;10.7741;
202.5000;0.1604;10.7548;
202.8000;0.1604;10.7524;
203.1000;0.1612;10.7596;
203.4000;0.1595;10.7596;
203.7000;0.1587;10.7500;
204.0000;0.1604;10.7476;
204.3000;0.1587;10.7500;
204.6000;0.1587;10.7500;
204.9000;0.1587;10.7572;
205.2000;0.1604;10.7548;
205.5000;0.1604;10.7500;
205.8000;0.1612;10.7548;
206.1000;0.1612;10.7548;
206.4000;0.1563;10.7379;
206.7000;0.1604;10.7428;
207.0000;0.1604;10.7331;
207.3000;0.1587;10.7355;
207.6000;0.1579;10.7355;
207.9000;0.1612;10.7548;
208.2000;0.1612;10.7621;
208.5000;0.1595;10.7645;
208.8000;0.1571;10.7524;
209.1000;0.1595;10.7621;
209.4000;0.1555;10.7500;
209.7000;0.1595;10.7596;
210.0000;0.1604;10.7621;
210.3000;0.1612;10.7548;
210.6000;0.1563;10.7403;
210.9000;0.1628;10.7572;
211.2000;0.1587;10.7524;
211.5000;0.1620;10.7500;
211.8000;0.1612;10.7452;
212.1000;0.1612;10.7500;
212.4000;0.1571;10.7379;
212.7000;0.1620;10.7428;
213.0000;0.1612;10.7379;
213.3000;0.1620;10.7403;
213.6000;0.1571;10.7379;
213.9000;0.1620;10.7548;
214.2000;0.1620;10.7572;
214.5000;0.1538;10.7403;
214.8000;0.1595;10.7548;
215.1000;0.1579;10.7452;
215.4000;0.1587;10.7524;
215.7000;0.1563;10.7428;
216.0000;0.1538;10.7379;
216.3000;0.1587;10.7452;
216.6000;0.1587;10.7403;
216.9000;0.1604;10.7428;
217.2000;0.1604;10.7403;
217.5000;0.1595;10.7331;
217.8000;0.1595;10.7355;
218.1000;0.1604;10.7379;
218.4000;0.1579;10.7403;
218.7000;0.1604;10.7428;
219.0000;0.1587;10.7428;
219.3000;0.1595;10.7452;
219.6000;0.1604;10.7500;
219.9000;0.1612;10.7524;
220.2000;0.1604;10.7476;
220.5000;0.1701;10.7717;
220.8000;0.1612;10.7403;
221.1000;0.1555;10.7235;
221.4000;0.1579;10.7259;
221.7000;0.1595;10.7259;
222.0000;0.1628;10.7379;
222.3000;0.1555;10.7235;
222.6000;0.1595;10.7307;
222.9000;0.1604;10.7307;
223.2000;0.1563;10.7210;
223.5000;0.1555;10.7210;
223.8000;0.1604;10.7307;
224.1000;0.1612;10.7235;
224.4000;0.1563;10.7090;
224.7000;0.1604;10.7162;
225.0000;0.1571;10.7090;
225.3000;0.1612;10.7138;
225.6000;0.1612;10.7138;
225.9000;0.1612;10.7138;
226.2000;0.1579;10.7114;
226.5000;0.1579;10.7162;
226.8000;0.1612;10.7210;
227.1000;0.1604;10.7235;
227.4000;0.1604;10.7162;
227.7000;0.1587;10.7235;
228.0000;0.1604;10.7283;
228.3000;0.1669;10.7403;
228.6000;0.1587;10.7235;
228.9000;0.1604;10.7403;
229.2000;0.1612;10.7428;
229.5000;0.1595;10.7403;
229.8000;0.1612;10.7476;
230.1000;0.1604;10.7500;
230.4000;0.1669;10.7741;
230.7000;0.1620;10.7452;
231.0000;0.1595;10.7452;
231.3000;0.1595;10.7476;
231.6000;0.1661;10.7669;
231.9000;0.1604;10.7476;
232.2000;0.1612;10.7403;
232.5000;0.1587;10.7428;
232.8000;0.1530;10.7186;
233.1000;0.1595;10.7452;
233.4000;0.1628;10.7572;
233.7000;0.1498;10.7186;
234.0000;0.1612;10.7452;
234.3000;0.1604;10.7331;
234.6000;0.1604;10.7307;
234.9000;0.1604;10.7259;
235.2000;0.1547;10.7186;
235.5000;0.1595;10.7283;
235.8000;0.1604;10.7331;
236.1000;0.1604;10.7331;
236.4000;0.1628;10.7379;
236.7000;0.1612;10.7500;
237.0000;0.1604;10.7428;
237.3000;0.1620;10.7476;
237.6000;0.1595;10.7428;
237.9000;0.1604;10.7428;
238.2000;0.1604;10.7428;
238.5000;0.1595;10.7452;
238.8000;0.1628;10.7596;
239.1000;0.1628;10.7572;
239.4000;0.1604;10.7452;
239.7000;0.1612;10.7452;
240.0000;0.1604;10.7476;
240.3000;0.1579;10.7500;
240.6000;0.1604;10.7548;
240.9000;0.1604;10.7476;
241.2000;0.1571;10.7428;
241.5000;0.1579;10.7524;
241.8000;0.1587;10.7500;
242.1000;0.1587;10.7476;
242.4000;0.1620;10.7572;
242.7000;0.1595;10.7524;
243.0000;0.1604;10.7428;
243.3000;0.1612;10.7476;
243.6000;0.1587;10.7307;
243.9000;0.1644;10.7452;
244.2000;0.1604;10.7403;
244.5000;0.1620;10.7403;
244.8000;0.1604;10.7355;
245.1000;0.1628;10.7283;
245.4000;0.1693;10.7428;
245.7000;0.1604;10.7186;
246.0000;0.1595;10.7042;
246.3000;0.1652;10.7186;
246.6000;0.1612;10.7162;
246.9000;0.1595;10.7186;
247.2000;0.1612;10.7210;
247.5000;0.1604;10.7259;
247.8000;0.1612;10.7283;
248.1000;0.1604;10.7331;
248.4000;0.1579;10.7259;
248.7000;0.1604;10.7403;
249.0000;0.1628;10.7452;
249.3000;0.1718;10.7693;
249.6000;0.1595;10.7500;
249.9000;0.1604;10.7452;
250.2000;0.1628;10.7452;
250.5000;0.1595;10.7307;
250.8000;0.1587;10.7307;
251.1000;0.1612;10.7355;
251.4000;0.1604;10.7403;
251.7000;0.1595;10.7379;
252.0000;0.1604;10.7379;
252.3000;0.1652;10.7500;
252.6000;0.1604;10.7403;
252.9000;0.1587;10.7379;
253.2000;0.1587;10.7379;
253.5000;0.1579;10.7403;
253.8000;0.1636;10.7500;
254.1000;0.1595;10.7379;
254.4000;0.1595;10.7259;
254.7000;0.1563;10.7259;
255.0000;0.1579;10.7331;
255.3000;0.1587;10.7307;
255.6000;0.1628;10.7379;
255.9000;0.1587;10.7307;
256.2000;0.1595;10.7283;
256.5000;0.1538;10.7138;
256.8000;0.1595;10.7331;
257.1000;0.1604;10.7307;
257.4000;0.1587;10.7355;
257.7000;0.1628;10.7500;
258.0000;0.1587;10.7452;
258.3000;0.1571;10.7428;
258.6000;0.1587;10.7428;
258.9000;0.1604;10.7548;
259.2000;0.1620;10.7621;
259.5000;0.1604;10.7548;
259.8000;0.1595;10.7524;
260.1000;0.1644;10.7645;
260.4000;0.1693;10.7741;
260.7000;0.1514;10.7186;
261.0000;0.1579;10.7307;
261.3000;0.1604;10.7331;
261.6000;0.1604;10.7428;
261.9000;0.1595;10.7379;
262.2000;0.1587;10.7428;
262.5000;0.1604;10.7476;
262.8000;0.1604;10.7572;
263.1000;0.1571;10.7572;
263.4000;0.1604;10.7596;
263.7000;0.1693;10.7789;
264.0000;0.1612;10.7524;
264.3000;0.1595;10.7500;
264.6000;0.1595;10.7428;
264.9000;0.1595;10.7355;
265.2000;0.1620;10.7379;
265.5000;0.1563;10.7259;
265.8000;0.1636;10.7331;
266.1000;0.1595;10.7186;
266.4000;0.1604;10.7283;
266.7000;0.1604;10.7235;
267.0000;0.1636;10.7476;
267.3000;0.1587;10.7403;
267.6000;0.1604;10.7500;
267.9000;0.1685;10.7669;
268.2000;0.1587;10.7428;
268.5000;0.1628;10.7645;
268.8000;0.1595;10.7669;
269.1000;0.1587;10.7621;
269.4000;0.1644;10.7717;
269.7000;0.1595;10.7524;
270.0000;0.1604;10.7572;
270.3000;0.1579;10.7548;
270.6000;0.1595;10.7452;
270.9000;0.1604;10.7355;
271.2000;0.1555;10.7259;
271.5000;0.1579;10.7307;
271.8000;0.1612;10.7331;
272.1000;0.1538;10.7138;
272.4000;0.1587;10.7307;
272.7000;0.1595;10.7307;
273.0000;0.1604;10.7428;
273.3000;0.1587;10.7355;
273.6000;0.1579;10.7355;
273.9000;0.1595;10.7403;
274.2000;0.1620;10.7428;
274.5000;0.1587;10.7331;
274.8000;0.1595;10.7307;
275.1000;0.1604;10.7428;
275.4000;0.1620;10.7500;
275.7000;0.1604;10.7524;
276.0000;0.1595;10.7524;
276.3000;0.1652;10.7596;
276.6000;0.1547;10.7283;
276.9000;0.1595;10.7428;
277.2000;0.1636;10.7524;
277.5000;0.1563;10.7331;
277.8000;0.1612;10.7452;
278.1000;0.1604;10.7500;
278.4000;0.1604;10.7548;
278.7000;0.1604;10.7524;
279.0000;0.1620;10.7524;
279.3000;0.1490;10.7162;
279.6000;0.1612;10.7500;
279.9000;0.1595;10.7524;
280.2000;0.1579;10.7428;
280.5000;0.1595;10.7428;
280.8000;0.1604;10.7452;
281.1000;0.1571;10.7379;
281.4000;0.1661;10.7572;
281.7000;0.1612;10.7379;
282.0000;0.1595;10.7331;
282.3000;0.1612;10.7355;
282.6000;0.1595;10.7403;
282.9000;0.1595;10.7452;
283.2000;0.1604;10.7452;
283.5000;0.1612;10.7403;
283.8000;0.1644;10.7476;
284.1000;0.1595;10.7355;
284.4000;0.1595;10.7307;
284.7000;0.1587;10.7210;
285.0000;0.1595;10.7259;
285.3000;0.1587;10.7210;
285.6000;0.1604;10.7283;
285.9000;0.1612;10.7331;
286.2000;0.1595;10.7307;
286.5000;0.1587;10.7283;
286.8000;0.1595;10.7283;
287.1000;0.1636;10.7355;
287.4000;0.1612;10.7307;
287.7000;0.1595;10.7307;
288.0000;0.1604;10.7428;
288.3000;0.1595;10.7403;
288.6000;0.1604;10.7379;
288.9000;0.1587;10.7403;
289.2000;0.1579;10.7379;
289.5000;0.1595;10.7307;
289.8000;0.1604;10.7283;
290.1000;0.1685;10.7428;
290.4000;0.1604;10.7138;
290.7000;0.1595;10.7138;
291.0000;0.1587;10.7138;
291.3000;0.1587;10.7114;
291.6000;0.1612;10.7162;
291.9000;0.1604;10.7210;
292.2000;0.1612;10.7210;
292.5000;0.1587;10.7186;
292.8000;0.1587;10.7186;
293.1000;0.1579;10.7186;
293.4000;0.1587;10.7259;
293.7000;0.1595;10.7307;
294.0000;0.1595;10.7283;
294.3000;0.1604;10.7403;
294.6000;0.1620;10.7476;
294.9000;0.1587;10.7403;
295.2000;0.1604;10.7476;
295.5000;0.1718;10.7838;
295.8000;0.1612;10.7572;
296.1000;0.1571;10.7428;
296.4000;0.1571;10.7428;
296.7000;0.1563;10.7379;
297.0000;0.1701;10.7741;
297.3000;0.1563;10.7259;
297.6000;0.1595;10.7307;
297.9000;0.1587;10.7307;
298.2000;0.1587;10.7379;
298.5000;0.1595;10.7403;
298.8000;0.1587;10.7403;
299.1000;0.1612;10.7476;
299.4000;0.1587;10.7403;
299.7000;0.1595;10.7283;
300.0000;0.1604;10.7307;
300.3000;0.1701;10.7572;
300.6000;0.1604;10.7307;
300.9000;0.1595;10.7210;
301.2000;0.1587;10.7186;
301.5000;0.1587;10.7138;
301.8000;0.1595;10.7090;
302.1000;0.1587;10.7042;
302.4000;0.1595;10.6969;
302.7000;0.1587;10.7018;
303.0000;0.1604;10.7066;
303.3000;0.1587;10.7186;
303.6000;0.1612;10.7235;
303.9000;0.1612;10.7114;
304.2000;0.1604;10.7114;
304.5000;0.1612;10.7114;
304.8000;0.1604;10.7090;
305.1000;0.1612;10.7162;
305.4000;0.1595;10.7186;
305.7000;0.1604;10.7259;
306.0000;0.1595;10.7162;
306.3000;0.1595;10.7162;
306.6000;0.1604;10.7307;
306.9000;0.1587;10.7307;
307.2000;0.1595;10.7428;
307.5000;0.1595;10.7403;
307.8000;0.1587;10.7403;
308.1000;0.1579;10.7331;
308.4000;0.1595;10.7379;
308.7000;0.1571;10.7331;
309.0000;0.1612;10.7428;
309.3000;0.1604;10.7379;
309.6000;0.1612;10.7355;
309.9000;0.1604;10.7331;
310.2000;0.1587;10.7331;
310.5000;0.1538;10.7210;
310.8000;0.1595;10.7283;
311.1000;0.1604;10.7331;
311.4000;0.1636;10.7428;
311.7000;0.1595;10.7355;
312.0000;0.1636;10.7307;
312.3000;0.1612;10.7235;
312.6000;0.1604;10.7210;
312.9000;0.1595;10.7355;
313.2000;0.1644;10.7452;
313.5000;0.1612;10.7379;
313.8000;0.1612;10.7331;
314.1000;0.1587;10.7235;
314.4000;0.1595;10.7283;
314.7000;0.1571;10.7210;
315.0000;0.1612;10.7355;
315.3000;0.1571;10.7428;
315.6000;0.1604;10.7476;
315.9000;0.1595;10.7500;
316.2000;0.1547;10.7379;
316.5000;0.1620;10.7452;
316.8000;0.1587;10.7403;
317.1000;0.1538;10.7283;
317.4000;0.1612;10.7500;
317.7000;0.1595;10.7500;
318.0000;0.1579;10.7452;
318.3000;0.1571;10.7476;
318.6000;0.1579;10.7500;
318.9000;0.1595;10.7476;
319.2000;0.1571;10.7379;
319.5000;0.1644;10.7500;
319.8000;0.1595;10.7403;
320.1000;0.1604;10.7476;
320.4000;0.1644;10.7572;
320.7000;0.1612;10.7476;
321.0000;0.1595;10.7452;
321.3000;0.1604;10.7548;
321.6000;0.1628;10.7621;
321.9000;0.1604;10.7476;
322.2000;0.1595;10.7476;
322.5000;0.1595;10.7476;
322.8000;0.1612;10.7524;
323.1000;0.1604;10.7452;
323.4000;0.1555;10.7403;
323.7000;0.1595;10.7452;
324.0000;0.1595;10.7476;
324.3000;0.1604;10.7452;
324.6000;0.1604;10.7476;
324.9000;0.1587;10.7476;
325.2000;0.1579;10.7452;
325.5000;0.1636;10.7572;
325.8000;0.1604;10.7452;
326.1000;0.1579;10.7403;
326.4000;0.1604;10.7524;
326.7000;0.1604;10.7548;
327.0000;0.1595;10.7500;
327.3000;0.1587;10.7500;
327.6000;0.1595;10.7524;
327.9000;0.1628;10.7524;
328.2000;0.1587;10.7403;
328.5000;0.1587;10.7428;
328.8000;0.1595;10.7669;
329.1000;0.1612;10.7693;
329.4000;0.1571;10.7572;
329.7000;0.1579;10.7621;
330.0000;0.1595;10.7645;
330.3000;0.1579;10.7548;
330.6000;0.1579;10.7476;
330.9000;0.1604;10.7500;
331.2000;0.1604;10.7572;
331.5000;0.1669;10.7813;
331.8000;0.1547;10.7452;
332.1000;0.1620;10.7621;
332.4000;0.1604;10.7621;
332.7000;0.1579;10.7621;
333.0000;0.1620;10.7717;
333.3000;0.1604;10.7596;
333.6000;0.1587;10.7572;
333.9000;0.1620;10.7645;
334.2000;0.1604;10.7669;
334.5000;0.1661;10.7741;
334.8000;0.1595;10.7572;
335.1000;0.1604;10.7524;
335.4000;0.1579;10.7403;
335.7000;0.1604;10.7355;
336.0000;0.1595;10.7379;
336.3000;0.1604;10.7452;
336.6000;0.1587;10.7379;
336.9000;0.1595;10.7452;
337.2000;0.1555;10.7379;
337.5000;0.1587;10.7379;
337.8000;0.1595;10.7428;
338.1000;0.1644;10.7596;
338.4000;0.1530;10.7331;
338.7000;0.1571;10.7452;
339.0000;0.1538;10.7379;
339.3000;0.1579;10.7524;
339.6000;0.1612;10.7572;
339.9000;0.1530;10.7428;
340.2000;0.1587;10.7476;
340.5000;0.1571;10.7476;
340.8000;0.1587;10.7524;
341.1000;0.1571;10.7428;
341.4000;0.1636;10.7500;
341.7000;0.1587;10.7307;
342.0000;0.1587;10.7259;
342.3000;0.1587;10.7138;
342.6000;0.1595;10.7186;
342.9000;0.1563;10.7114;
343.2000;0.1604;10.7186;
343.5000;0.1579;10.7186;
343.8000;0.1587;10.7235;
344.1000;0.1587;10.7235;
344.4000;0.1555;10.7114;
344.7000;0.1604;10.7331;
345.0000;0.1587;10.7307;
345.3000;0.1571;10.7283;
345.6000;0.1587;10.7307;
345.9000;0.1604;10.7355;
346.2000;0.1595;10.7331;
346.5000;0.1579;10.7331;
346.8000;0.1587;10.7283;
347.1000;0.1652;10.7428;
347.4000;0.1636;10.7524;
347.7000;0.1604;10.7524;
348.0000;0.1587;10.7548;
348.3000;0.1604;10.7500;
348.6000;0.1506;10.7186;
348.9000;0.1587;10.7428;
349.2000;0.1604;10.7428;
349.5000;0.1604;10.7428;
349.8000;0.1595;10.7355;
350.1000;0.1579;10.7283;
350.4000;0.1685;10.7645;
350.7000;0.1612;10.7500;
351.0000;0.1628;10.7596;
351.3000;0.1587;10.7500;
351.6000;0.1587;10.7403;
351.9000;0.1604;10.7403;
352.2000;0.1661;10.7572;
352.5000;0.1612;10.7548;
352.8000;0.1547;10.7259;
353.1000;0.1595;10.7379;
353.4000;0.1604;10.7259;
353.7000;0.1595;10.7307;
354.0000;0.1579;10.7283;
354.3000;0.1587;10.7235;
354.6000;0.1661;10.7452;
354.9000;0.1628;10.7428;
355.2000;0.1481;10.7066;
355.5000;0.1587;10.7476;
355.8000;0.1604;10.7572;
356.1000;0.1587;10.7572;
356.4000;0.1595;10.7693;
356.7000;0.1587;10.7741;
357.0000;0.1677;10.7862;
357.3000;0.1595;10.7741;
357.6000;0.1555;10.7500;
357.9000;0.1604;10.7524;
358.2000;0.1587;10.7500;
358.5000;0.1612;10.7500;
358.8000;0.1604;10.7500;
359.1000;0.1604;10.7548;
359.4000;0.1579;10.7621;
359.7000;0.1587;10.7717;
360.0000;0.1595;10.7621;
360.3000;0.1579;10.7476;
360.6000;0.1612;10.7596;
360.9000;0.1604;10.7548;
361.2000;0.1604;10.7572;
361.5000;0.1612;10.7621;
361.8000;0.1579;10.7476;
362.1000;0.1595;10.7548;
362.4000;0.1587;10.7524;
362.7000;0.1547;10.7403;
363.0000;0.1587;10.7476;
363.3000;0.1595;10.7524;
363.6000;0.1595;10.7500;
363.9000;0.1595;10.7548;
364.2000;0.1587;10.7572;
364.5000;0.1604;10.7572;
364.8000;0.1595;10.7524;
365.1000;0.1587;10.7524;
365.4000;0.1579;10.7524;
365.7000;0.1612;10.7621;
366.0000;0.1547;10.7548;
366.3000;0.1604;10.7669;
366.6000;0.1612;10.7693;
366.9000;0.1595;10.7693;
367.2000;0.1604;10.7717;
367.5000;0.1587;10.7693;
367.8000;0.1595;10.7693;
368.1000;0.1620;10.7717;
368.4000;0.1579;10.7596;
368.7000;0.1612;10.7717;
369.0000;0.1579;10.7524;
369.3000;0.1595;10.7500;
369.6000;0.1571;10.7500;
369.9000;0.1595;10.7645;
370.2000;0.1563;10.7596;
370.5000;0.1644;10.7838;
370.8000;0.1612;10.7717;
371.1000;0.1587;10.7765;
371.4000;0.1530;10.7621;
371.7000;0.1587;10.7813;
372.0000;0.1587;10.7862;
372.3000;0.1612;10.7934;
372.6000;0.1612;10.7862;
372.9000;0.1604;10.7813;
373.2000;0.1636;10.7862;
373.5000;0.1604;10.7765;
373.8000;0.1595;10.7693;
374.1000;0.1587;10.7669;
374.4000;0.1587;10.7621;
374.7000;0.1595;10.7596;
375.0000;0.1612;10.7524;
375.3000;0.1612;10.7524;
375.6000;0.1595;10.7500;
375.9000;0.1636;10.7621;
376.2000;0.1587;10.7524;
376.5000;0.1677;10.7669;
376.8000;0.1587;10.7452;
377.1000;0.1595;10.7428;
377.4000;0.1604;10.7548;
377.7000;0.1595;10.7524;
378.0000;0.1595;10.7524;
378.3000;0.1587;10.7572;
378.6000;0.1620;10.7693;
378.9000;0.1604;10.7596;
379.2000;0.1604;10.7693;
379.5000;0.1652;10.7789;
379.8000;0.1595;10.7621;
380.1000;0.1612;10.7596;
380.4000;0.1595;10.7476;
380.7000;0.1579;10.7500;
381.0000;0.1587;10.7621;
381.3000;0.1604;10.7717;
381.6000;0.1595;10.7717;
381.9000;0.1587;10.7813;
382.2000;0.1595;10.7813;
382.5000;0.1571;10.7717;
382.8000;0.1595;10.7789;
383.1000;0.1604;10.7765;
383.4000;0.1579;10.7596;
383.7000;0.1604;10.7693;
384.0000;0.1490;10.7403;
384.3000;0.1604;10.7669;
384.6000;0.1595;10.7596;
384.9000;0.1587;10.7572;
385.2000;0.1604;10.7572;
385.5000;0.1595;10.7596;
385.8000;0.1595;10.7596;
386.1000;0.1620;10.7789;
386.4000;0.1604;10.7862;
386.7000;0.1612;10.7886;
387.0000;0.1579;10.7741;
387.3000;0.1595;10.7910;
387.6000;0.1571;10.7838;
387.9000;0.1595;10.7910;
388.2000;0.1604;10.7910;
388.5000;0.1604;10.7934;
388.8000;0.1612;10.7862;
389.1000;0.1587;10.7838;
389.4000;0.1620;10.7862;
389.7000;0.1587;10.7838;
390.0000;0.1604;10.7813;
390.3000;0.1612;10.7886;
390.6000;0.1604;10.7838;
390.9000;0.1595;10.7886;
391.2000;0.1587;10.7886;
391.5000;0.1595;10.7838;
391.8000;0.1604;10.7813;
392.1000;0.1661;10.7982;
392.4000;0.1563;10.7693;
392.7000;0.1587;10.7669;
393.0000;0.1587;10.7693;
393.3000;0.1595;10.7717;
393.6000;0.1579;10.7669;
393.9000;0.1579;10.7717;
394.2000;0.1571;10.7548;
394.5000;0.1587;10.7572;
394.8000;0.1604;10.7693;
395.1000;0.1579;10.7596;
395.4000;0.1522;10.7403;
395.7000;0.1595;10.7596;
396.0000;0.1579;10.7596;
396.3000;0.1579;10.7572;
396.6000;0.1579;10.7500;
396.9000;0.1587;10.7548;
397.2000;0.1620;10.7645;
397.5000;0.1563;10.7500;
397.8000;0.1579;10.7645;
398.1000;0.1612;10.7717;
398.4000;0.1579;10.7669;
398.7000;0.1604;10.7765;
399.0000;0.1595;10.7813;
399.3000;0.1604;10.7789;
399.6000;0.1604;10.7741;
399.9000;0.1595;10.7693;
400.2000;0.1612;10.7741;
400.5000;0.1571;10.7621;
400.8000;0.1595;10.7693;
401.1000;0.1595;10.7621;
401.4000;0.1587;10.7596;
401.7000;0.1595;10.7693;
402.0000;0.1604;10.7717;
402.3000;0.1587;10.7693;
402.6000;0.1571;10.7693;
402.9000;0.1579;10.7669;
403.2000;0.1604;10.7693;
403.5000;0.1604;10.7717;
403.8000;0.1571;10.7645;
404.1000;0.1587;10.7596;
404.4000;0.1587;10.7524;
404.7000;0.1595;10.7548;
405.0000;0.1571;10.7500;
405.3000;0.1587;10.7645;
405.6000;0.1595;10.7645;
405.9000;0.1604;10.7669;
406.2000;0.1571;10.7645;
406.5000;0.1563;10.7524;
406.8000;0.1587;10.7596;
407.1000;0.1579;10.7572;
407.4000;0.1587;10.7621;
407.7000;0.1587;10.7693;
408.0000;0.1555;10.7765;
408.3000;0.1579;10.7789;
408.6000;0.1587;10.7693;
408.9000;0.1595;10.7693;
409.2000;0.1612;10.7621;
409.5000;0.1604;10.7645;
409.8000;0.1587;10.7621;
410.1000;0.1587;10.7524;
410.4000;0.1612;10.7621;
410.7000;0.1587;10.7524;
411.0000;0.1571;10.7500;
411.3000;0.1555;10.7452;
411.6000;0.1595;10.7596;
411.9000;0.1595;10.7596;
412.2000;0.1563;10.7548;
412.5000;0.1563;10.7476;
412.8000;0.1595;10.7596;
413.1000;0.1547;10.7403;
413.4000;0.1677;10.7958;
413.7000;0.1587;10.7741;
414.0000;0.1538;10.7572;
414.3000;0.1604;10.7645;
414.6000;0.1620;10.7645;
414.9000;0.1644;10.7765;
415.2000;0.1595;10.7596;
415.5000;0.1579;10.7621;
415.8000;0.1587;10.7645;
416.1000;0.1595;10.7765;
416.4000;0.1604;10.7813;
416.7000;0.1587;10.7789;
417.0000;0.1587;10.7789;
417.3000;0.1587;10.7741;
417.6000;0.1595;10.7669;
417.9000;0.1604;10.7645;
418.2000;0.1595;10.7596;
418.5000;0.1612;10.7621;
418.8000;0.1595;10.7596;
419.1000;0.1587;10.7596;
419.4000;0.1628;10.7813;
419.7000;0.1604;10.7669;
420.0000;0.1587;10.7621;
420.3000;0.1587;10.7596;
420.6000;0.1595;10.7596;
420.9000;0.1595;10.7572;
421.2000;0.1587;10.7500;
421.5000;0.1604;10.7524;
421.8000;0.1587;10.7476;
422.1000;0.1620;10.7548;
422.4000;0.1612;10.7596;
422.7000;0.1604;10.7548;
423.0000;0.1587;10.7500;
423.3000;0.1620;10.7669;
423.6000;0.1604;10.7572;
423.9000;0.1587;10.7596;
424.2000;0.1604;10.7645;
424.5000;0.1652;10.7765;
424.8000;0.1595;10.7669;
425.1000;0.1604;10.7693;
425.4000;0.1604;10.7693;
425.7000;0.1595;10.7572;
426.0000;0.1595;10.7548;
426.3000;0.1604;10.7524;
426.6000;0.1506;10.7186;
426.9000;0.1595;10.7403;
427.2000;0.1604;10.7379;
427.5000;0.1628;10.7452;
427.8000;0.1604;10.7379;
428.1000;0.1669;10.7621;
428.4000;0.1595;10.7500;
428.7000;0.1595;10.7476;
429.0000;0.1538;10.7379;
429.3000;0.1612;10.7572;
429.6000;0.1604;10.7596;
429.9000;0.1587;10.7500;
430.2000;0.1571;10.7452;
430.5000;0.1604;10.7548;
430.8000;0.1587;10.7548;
431.1000;0.1587;10.7572;
431.4000;0.1604;10.7572;
431.7000;0.1579;10.7524;
432.0000;0.1579;10.7596;
432.3000;0.1571;10.7596;
432.6000;0.1538;10.7621;
432.9000;0.1587;10.7765;
433.2000;0.1669;10.7886;
433.5000;0.1587;10.7645;
433.8000;0.1612;10.7645;
434.1000;0.1604;10.7596;
434.4000;0.1547;10.7476;
434.7000;0.1579;10.7596;
435.0000;0.1587;10.7645;
435.3000;0.1677;10.7886;
435.6000;0.1579;10.7621;
435.9000;0.1587;10.7500;
436.2000;0.1604;10.7476;
436.5000;0.1612;10.7500;
436.8000;0.1579;10.7524;
437.1000;0.1587;10.7548;
437.4000;0.1538;10.7476;
437.7000;0.1595;10.7596;
438.0000;0.1587;10.7596;
438.3000;0.1579;10.7524;
438.6000;0.1587;10.7476;
438.9000;0.1612;10.7500;
439.2000;0.1604;10.7524;
439.5000;0.1604;10.7500;
439.8000;0.1612;10.7476;
440.1000;0.1579;10.7500;
440.4000;0.1620;10.7524;
440.7000;0.1595;10.7500;
441.0000;0.1587;10.7524;
441.3000;0.1595;10.7524;
441.6000;0.1547;10.7355;
441.9000;0.1628;10.7596;
442.2000;0.1571;10.7500;
442.5000;0.1628;10.7669;
442.8000;0.1595;10.7693;
443.1000;0.1538;10.7476;
443.4000;0.1652;10.7741;
443.7000;0.1595;10.7572;
444.0000;0.1595;10.7645;
444.3000;0.1604;10.7572;
444.6000;0.1579;10.7596;
444.9000;0.1571;10.7500;
445.2000;0.1579;10.7500;
445.5000;0.1571;10.7524;
445.8000;0.1701;10.7838;
446.1000;0.1555;10.7548;
446.4000;0.1595;10.7572;
446.7000;0.1587;10.7596;
447.0000;0.1587;10.7645;
447.3000;0.1579;10.7500;
447.6000;0.1604;10.7524;
447.9000;0.1595;10.7524;
448.2000;0.1595;10.7452;
448.5000;0.1604;10.7379;
448.8000;0.1595;10.7403;
449.1000;0.1579;10.7403;
449.4000;0.1604;10.7428;
449.7000;0.1701;10.7717;
450.0000;0.1579;10.7452;
450.3000;0.1620;10.7548;
450.6000;0.1652;10.7693;
450.9000;0.1579;10.7500;
451.2000;0.1604;10.7500;
451.5000;0.1587;10.7476;
451.8000;0.1595;10.7452;
452.1000;0.1587;10.7355;
452.4000;0.1579;10.7403;
452.7000;0.1604;10.7500;
453.0000;0.1587;10.7524;
453.3000;0.1587;10.7428;
453.6000;0.1587;10.7428;
453.9000;0.1587;10.7428;
454.2000;0.1612;10.7500;
454.5000;0.1595;10.7476;
454.8000;0.1604;10.7500;
455.1000;0.1595;10.7452;
455.4000;0.1595;10.7428;
455.7000;0.1595;10.7403;
456.0000;0.1587;10.7428;
456.3000;0.1587;10.7428;
456.6000;0.1538;10.7403;
456.9000;0.1595;10.7572;
457.2000;0.1595;10.7596;
457.5000;0.1571;10.7645;
457.8000;0.1595;10.7669;
458.1000;0.1579;10.7621;
458.4000;0.1595;10.7621;
458.7000;0.1571;10.7645;
459.0000;0.1587;10.7669;
459.3000;0.1652;10.7838;
459.6000;0.1587;10.7645;
459.9000;0.1579;10.7621;
460.2000;0.1604;10.7621;
460.5000;0.1612;10.7669;
460.8000;0.1587;10.7669;
461.1000;0.1571;10.7693;
461.4000;0.1595;10.7669;
461.7000;0.1579;10.7669;
462.0000;0.1612;10.7669;
462.3000;0.1587;10.7572;
462.6000;0.1587;10.7621;
462.9000;0.1579;10.7572;
463.2000;0.1595;10.7572;
463.5000;0.1571;10.7476;
463.8000;0.1579;10.7476;
464.1000;0.1579;10.7452;
464.4000;0.1595;10.7476;
464.7000;0.1587;10.7452;
465.0000;0.1604;10.7428;
465.3000;0.1587;10.7452;
465.6000;0.1595;10.7403;
465.9000;0.1620;10.7355;
466.2000;0.1604;10.7283;
466.5000;0.1587;10.7379;
466.8000;0.1587;10.7379;
467.1000;0.1604;10.7428;
467.4000;0.1579;10.7500;
467.7000;0.1571;10.7428;
468.0000;0.1604;10.7476;
468.3000;0.1604;10.7548;
468.6000;0.1563;10.7596;
468.9000;0.1530;10.7500;
469.2000;0.1604;10.7693;
469.5000;0.1595;10.7596;
469.8000;0.1579;10.7500;
470.1000;0.1620;10.7548;
470.4000;0.1587;10.7500;
470.7000;0.1612;10.7500;
471.0000;0.1587;10.7500;
471.3000;0.1612;10.7476;
471.6000;0.1587;10.7428;
471.9000;0.1579;10.7452;
472.2000;0.1604;10.7524;
472.5000;0.1563;10.7428;
472.8000;0.1587;10.7476;
473.1000;0.1595;10.7476;
473.4000;0.1628;10.7596;
473.7000;0.1604;10.7548;
474.0000;0.1595;10.7476;
474.3000;0.1612;10.7524;
474.6000;0.1612;10.7524;
474.9000;0.1595;10.7548;
475.2000;0.1604;10.7572;
475.5000;0.1595;10.7572;
475.8000;0.1604;10.7572;
476.1000;0.1587;10.7548;
476.4000;0.1587;10.7548;
476.7000;0.1587;10.7621;
477.0000;0.1587;10.7596;
477.3000;0.1595;10.7621;
477.6000;0.1604;10.7596;
477.9000;0.1571;10.7548;
478.2000;0.1538;10.7428;
478.5000;0.1595;10.7596;
478.8000;0.1612;10.7645;
479.1000;0.1563;10.7476;
479.4000;0.1595;10.7500;
479.7000;0.1604;10.7645;
480.0000;0.1595;10.7645;
480.3000;0.1579;10.7621;
480.6000;0.1604;10.7669;
480.9000;0.1595;10.7621;
481.2000;0.1547;10.7524;
481.5000;0.1579;10.7596;
481.8000;0.1661;10.7789;
482.1000;0.1661;10.7813;
482.4000;0.1587;10.7596;
482.7000;0.1563;10.7524;
483.0000;0.1587;10.7621;
483.3000;0.1587;10.7621;
483.6000;0.1579;10.7596;
483.9000;0.1571;10.7669;
484.2000;0.1579;10.7596;
484.5000;0.1547;10.7500;
484.8000;0.1595;10.7572;
485.1000;0.1595;10.7596;
485.4000;0.1604;10.7693;
485.7000;0.1587;10.7669;
486.0000;0.1612;10.7813;
486.3000;0.1587;10.7717;
486.6000;0.1563;10.7669;
486.9000;0.1579;10.7765;
487.2000;0.1587;10.7693;
487.5000;0.1587;10.7621;
487.8000;0.1595;10.7621;
488.1000;0.1563;10.7572;
488.4000;0.1587;10.7596;
488.7000;0.1587;10.7596;
489.0000;0.1571;10.7596;
489.3000;0.1595;10.7669;
489.6000;0.1538;10.7524;
489.9000;0.1563;10.7621;
490.2000;0.1571;10.7596;
490.5000;0.1604;10.7741;
490.8000;0.1595;10.7645;
491.1000;0.1620;10.7717;
491.4000;0.1587;10.7596;
491.7000;0.1620;10.7717;
492.0000;0.1595;10.7621;
492.3000;0.1595;10.7500;
492.6000;0.1587;10.7548;
492.9000;0.1530;10.7452;
493.2000;0.1587;10.7596;
493.5000;0.1595;10.7524;
493.8000;0.1595;10.7476;
494.1000;0.1604;10.7452;
494.4000;0.1571;10.7452;
494.7000;0.1579;10.7476;
495.0000;0.1587;10.7500;
495.3000;0.1563;10.7403;
495.6000;0.1587;10.7428;
495.9000;0.1587;10.7452;
496.2000;0.1571;10.7379;
496.5000;0.1604;10.7476;
496.8000;0.1587;10.7452;
497.1000;0.1587;10.7524;
497.4000;0.1604;10.7524;
497.7000;0.1595;10.7452;
498.0000;0.1579;10.7476;
498.3000;0.1669;10.7693;
498.6000;0.1522;10.7379;
498.9000;0.1604;10.7621;
499.2000;0.1587;10.7500;
499.5000;0.1595;10.7500;
499.8000;0.1595;10.7524;
500.1000;0.1514;10.7331;
500.4000;0.1595;10.7596;
500.7000;0.1652;10.7789;
501.0000;0.1595;10.7669;
501.3000;0.1620;10.7789;
501.6000;0.1587;10.7669;
501.9000;0.1587;10.7765;
502.2000;0.1595;10.7693;
502.5000;0.1595;10.7669;
502.8000;0.1587;10.7693;
503.1000;0.1612;10.7717;
503.4000;0.1587;10.7693;
503.7000;0.1579;10.7669;
504.0000;0.1595;10.7693;
504.3000;0.1604;10.7621;
504.6000;0.1612;10.7693;
504.9000;0.1604;10.7572;
505.2000;0.1595;10.7548;
505.5000;0.1571;10.7476;
505.8000;0.1587;10.7548;
506.1000;0.1457;10.7283;
506.4000;0.1579;10.7621;
506.7000;0.1612;10.7645;
507.0000;0.1579;10.7621;
507.3000;0.1604;10.7741;
507.6000;0.1595;10.7693;
507.9000;0.1587;10.7645;
508.2000;0.1587;10.7621;
508.5000;0.1604;10.7717;
508.8000;0.1612;10.7741;
509.1000;0.1579;10.7669;
509.4000;0.1612;10.7741;
509.7000;0.1612;10.7765;
510.0000;0.1587;10.7765;
510.3000;0.1595;10.7645;
510.6000;0.1555;10.7572;
510.9000;0.1595;10.7621;
511.2000;0.1595;10.7645;
511.5000;0.1595;10.7645;
511.8000;0.1595;10.7596;
512.1000;0.1587;10.7548;
512.4000;0.1604;10.7572;
512.7000;0.1595;10.7524;
513.0000;0.1555;10.7355;
513.3000;0.1579;10.7428;
513.6000;0.1587;10.7428;
513.9000;0.1530;10.7331;
514.2000;0.1612;10.7572;
514.5000;0.1595;10.7548;
514.8000;0.1579;10.7500;
515.1000;0.1579;10.7476;
515.4000;0.1587;10.7500;
515.7000;0.1604;10.7548;
516.0000;0.1579;10.7548;
516.3000;0.1587;10.7596;
516.6000;0.1595;10.7645;
516.9000;0.1579;10.7621;
517.2000;0.1595;10.7741;
517.5000;0.1579;10.7693;
517.8000;0.1604;10.7765;
518.1000;0.1620;10.7765;
518.4000;0.1644;10.7813;
518.7000;0.1595;10.7645;
519.0000;0.1595;10.7645;
519.3000;0.1604;10.7693;
519.6000;0.1595;10.7645;
519.9000;0.1612;10.7741;
520.2000;0.1579;10.7621;
520.5000;0.1595;10.7596;
520.8000;0.1587;10.7572;
521.1000;0.1571;10.7452;
521.4000;0.1604;10.7403;
521.7000;0.1604;10.7476;
522.0000;0.1612;10.7524;
522.3000;0.1595;10.7548;
522.6000;0.1579;10.7524;
522.9000;0.1587;10.7524;
523.2000;0.1595;10.7500;
523.5000;0.1595;10.7548;
523.8000;0.1563;10.7500;
524.1000;0.1604;10.7645;
524.4000;0.1604;10.7596;
524.7000;0.1555;10.7379;
525.0000;0.1587;10.7524;
525.3000;0.1595;10.7596;
525.6000;0.1587;10.7524;
525.9000;0.1587;10.7500;
526.2000;0.1620;10.7548;
526.5000;0.1563;10.7476;
526.8000;0.1595;10.7548;
527.1000;0.1677;10.7741;
527.4000;0.1587;10.7500;
527.7000;0.1571;10.7476;
528.0000;0.1579;10.7476;
528.3000;0.1612;10.7548;
528.6000;0.1538;10.7379;
528.9000;0.1612;10.7548;
529.2000;0.1620;10.7524;
529.5000;0.1490;10.7259;
529.8000;0.1595;10.7524;
530.1000;0.1587;10.7524;
530.4000;0.1579;10.7572;
530.7000;0.1604;10.7500;
531.0000;0.1571;10.7379;
531.3000;0.1587;10.7476;
531.6000;0.1587;10.7572;
531.9000;0.1571;10.7572;
532.2000;0.1595;10.7548;
532.5000;0.1547;10.7355;
532.8000;0.1595;10.7452;
533.1000;0.1595;10.7476;
533.4000;0.1620;10.7452;
533.7000;0.1620;10.7548;
534.0000;0.1595;10.7476;
534.3000;0.1563;10.7379;
534.6000;0.1587;10.7452;
534.9000;0.1579;10.7452;
535.2000;0.1579;10.7476;
535.5000;0.1571;10.7476;
535.8000;0.1587;10.7524;
536.1000;0.1604;10.7572;
536.4000;0.1612;10.7548;
536.7000;0.1628;10.7500;
537.0000;0.1604;10.7452;
537.3000;0.1595;10.7452;
537.6000;0.1669;10.7596;
537.9000;0.1547;10.7379;
538.2000;0.1595;10.7524;
538.5000;0.1620;10.7572;
538.8000;0.1579;10.7428;
539.1000;0.1571;10.7476;
539.4000;0.1595;10.7621;
539.7000;0.1595;10.7548;
540.0000;0.1563;10.7452;
540.3000;0.1579;10.7428;
540.6000;0.1595;10.7428;
540.9000;0.1604;10.7548;
541.2000;0.1587;10.7596;
541.5000;0.1587;10.7645;
541.8000;0.1604;10.7596;
542.1000;0.1604;10.7572;
542.4000;0.1530;10.7428;
542.7000;0.1571;10.7645;
543.0000;0.1595;10.7524;
543.3000;0.1620;10.7548;
543.6000;0.1595;10.7596;
543.9000;0.1587;10.7524;
544.2000;0.1587;10.7548;
544.5000;0.1563;10.7476;
544.8000;0.1595;10.7524;
545.1000;0.1579;10.7428;
545.4000;0.1587;10.7428;
545.7000;0.1571;10.7403;
546.0000;0.1595;10.7403;
546.3000;0.1579;10.7403;
546.6000;0.1595;10.7355;
546.9000;0.1595;10.7283;
547.2000;0.1628;10.7355;
547.5000;0.1595;10.7259;
547.8000;0.1579;10.7307;
548.1000;0.1579;10.7283;
548.4000;0.1587;10.7428;
548.7000;0.1628;10.7572;
549.0000;0.1571;10.7428;
549.3000;0.1563;10.7428;
549.6000;0.1555;10.7355;
549.9000;0.1579;10.7452;
550.2000;0.1538;10.7403;
550.5000;0.1620;10.7548;
550.8000;0.1587;10.7524;
551.1000;0.1628;10.7717;
551.4000;0.1595;10.7645;
551.7000;0.1595;10.7596;
552.0000;0.1595;10.7621;
552.3000;0.1620;10.7741;
552.6000;0.1636;10.7789;
552.9000;0.1604;10.7717;
553.2000;0.1661;10.7765;
553.5000;0.1595;10.7572;
553.8000;0.1579;10.7500;
554.1000;0.1595;10.7403;
554.4000;0.1587;10.7331;
554.7000;0.1563;10.7259;
555.0000;0.1587;10.7259;
555.3000;0.1555;10.7042;
555.6000;0.1579;10.7162;
555.9000;0.1595;10.7210;
556.2000;0.1595;10.7235;
556.5000;0.1595;10.7162;
556.8000;0.1579;10.7066;
557.1000;0.1595;10.7114;
557.4000;0.1604;10.7162;
557.7000;0.1595;10.7259;
558.0000;0.1612;10.7162;
558.3000;0.1595;10.7186;
558.6000;0.1587;10.7186;
558.9000;0.1595;10.7186;
559.2000;0.1587;10.7162;
559.5000;0.1709;10.7476;
559.8000;0.1579;10.7210;
560.1000;0.1595;10.7307;
560.4000;0.1726;10.7572;
560.7000;0.1579;10.7235;
561.0000;0.1579;10.7307;
561.3000;0.1661;10.7572;
561.6000;0.1595;10.7476;
561.9000;0.1587;10.7500;
562.2000;0.1563;10.7403;
562.5000;0.1547;10.7331;
562.8000;0.1547;10.7355;
563.1000;0.1563;10.7379;
563.4000;0.1563;10.7283;
563.7000;0.1579;10.7283;
564.0000;0.1587;10.7331;
564.3000;0.1604;10.7355;
564.6000;0.1563;10.7259;
564.9000;0.1595;10.7355;
565.2000;0.1587;10.7403;
565.5000;0.1506;10.7355;
565.8000;0.1587;10.7621;
566.1000;0.1587;10.7645;
566.4000;0.1595;10.7548;
566.7000;0.1604;10.7524;
567.0000;0.1604;10.7500;
567.3000;0.1587;10.7403;
567.6000;0.1612;10.7355;
567.9000;0.1604;10.7428;
568.2000;0.1620;10.7500;
568.5000;0.1587;10.7500;
568.8000;0.1595;10.7524;
569.1000;0.1595;10.7548;
569.4000;0.1709;10.7813;
569.7000;0.1604;10.7500;
570.0000;0.1571;10.7500;
570.3000;0.1620;10.7548;
570.6000;0.1563;10.7452;
570.9000;0.1587;10.7572;
571.2000;0.1579;10.7476;
571.5000;0.1571;10.7428;
571.8000;0.1612;10.7524;
572.1000;0.1604;10.7476;
572.4000;0.1604;10.7452;
572.7000;0.1595;10.7452;
573.0000;0.1604;10.7500;
573.3000;0.1612;10.7403;
573.6000;0.1604;10.7331;
573.9000;0.1579;10.7235;
574.2000;0.1555;10.7307;
574.5000;0.1604;10.7355;
574.8000;0.1669;10.7500;
575.1000;0.1595;10.7355;
575.4000;0.1579;10.7235;
575.7000;0.1563;10.7259;
576.0000;0.1604;10.7355;
576.3000;0.1604;10.7403;
576.6000;0.1595;10.7452;
576.9000;0.1595;10.7428;
577.2000;0.1604;10.7476;
577.5000;0.1579;10.7403;
577.8000;0.1604;10.7524;
578.1000;0.1595;10.7572;
578.4000;0.1604;10.7596;
578.7000;0.1604;10.7621;
579.0000;0.1587;10.7548;
579.3000;0.1595;10.7500;
579.6000;0.1612;10.7572;
579.9000;0.1587;10.7476;
580.2000;0.1620;10.7548;
580.5000;0.1547;10.7403;
580.8000;0.1604;10.7548;
581.1000;0.1595;10.7524;
581.4000;0.1628;10.7645;
581.7000;0.1587;10.7621;
582.0000;0.1587;10.7548;
582.3000;0.1595;10.7548;
582.6000;0.1579;10.7476;
582.9000;0.1587;10.7548;
583.2000;0.1612;10.7621;
583.5000;0.1701;10.7886;
583.8000;0.1579;10.7596;
584.1000;0.1604;10.7645;
584.4000;0.1579;10.7572;
584.7000;0.1579;10.7500;
585.0000;0.1644;10.7645;
585.3000;0.1579;10.7500;
585.6000;0.1579;10.7548;
585.9000;0.1612;10.7645;
586.2000;0.1587;10.7596;
586.5000;0.1587;10.7645;
586.8000;0.1587;10.7572;
587.1000;0.1604;10.7693;
587.4000;0.1604;10.7717;
587.7000;0.1587;10.7645;
588.0000;0.1587;10.7693;
588.3000;0.1587;10.7669;
588.6000;0.1587;10.7669;
588.9000;0.1587;10.7693;
589.2000;0.1587;10.7596;
589.5000;0.1579;10.7621;
589.8000;0.1579;10.7669;
590.1000;0.1587;10.7669;
590.4000;0.1473;10.7283;
590.7000;0.1595;10.7596;
591.0000;0.1595;10.7621;
591.3000;0.1579;10.7548;
591.6000;0.1579;10.7524;
591.9000;0.1595;10.7621;
592.2000;0.1595;10.7669;
592.5000;0.1595;10.7765;
592.8000;0.1579;10.7741;
593.1000;0.1604;10.7765;
593.4000;0.1604;10.7765;
593.7000;0.1571;10.7596;
594.0000;0.1555;10.7596;
594.3000;0.1587;10.7693;
594.6000;0.1595;10.7669;
594.9000;0.1620;10.7741;
595.2000;0.1522;10.7476;
595.5000;0.1604;10.7645;
595.8000;0.1579;10.7596;
596.1000;0.1587;10.7548;
596.4000;0.1579;10.7476;
596.7000;0.1612;10.7621;
597.0000;0.1595;10.7717;
597.3000;0.1563;10.7621;
597.6000;0.1604;10.7669;
597.9000;0.1612;10.7693;
598.2000;0.1604;10.7717;
598.5000;0.1579;10.7572;
598.8000;0.1636;10.7741;
599.1000;0.1595;10.7717;
599.4000;0.1547;10.7524;
599.7000;0.1538;10.7500;
600.0000;0.1595;10.7596;
600.3000;0.1563;10.7476;
600.6000;0.1563;10.7403;
600.9000;0.1571;10.7307;
601.2000;0.1555;10.7162;
601.5000;0.1547;10.6921;
601.8000;0.1530;10.6728;
602.1000;0.1530;10.6559;
602.4000;0.1522;10.6439;
602.7000;0.1498;10.6197;
603.0000;0.1498;10.6053;
603.3000;0.1498;10.6053;
603.6000;0.1506;10.5980;
603.9000;0.1514;10.5908;
604.2000;0.1376;10.5450;
604.5000;0.1490;10.5667;
604.8000;0.1506;10.5643;
605.1000;0.1514;10.5619;
605.4000;0.1473;10.5546;
605.7000;0.1473;10.5522;
606.0000;0.1571;10.5812;
606.3000;0.1498;10.5546;
606.6000;0.1481;10.5402;
606.9000;0.1465;10.5329;
607.2000;0.1449;10.5353;
607.5000;0.1457;10.5594;
607.8000;0.1473;10.5546;
608.1000;0.1457;10.5474;
608.4000;0.1457;10.5426;
608.7000;0.1473;10.5377;
609.0000;0.1433;10.5184;
609.3000;0.1465;10.5305;
609.6000;0.1465;10.5426;
609.9000;0.1506;10.5426;
610.2000;0.1465;10.5305;
610.5000;0.1441;10.5233;
610.8000;0.1433;10.5184;
611.1000;0.1465;10.5184;
611.4000;0.1465;10.5233;
611.7000;0.1449;10.5088;
612.0000;0.1319;10.4799;
612.3000;0.1457;10.5112;
612.6000;0.1473;10.5160;
612.9000;0.1465;10.5040;
613.2000;0.1449;10.5088;
613.5000;0.1449;10.5040;
613.8000;0.1449;10.5112;
614.1000;0.1449;10.5209;
614.4000;0.1457;10.5305;
614.7000;0.1457;10.5257;
615.0000;0.1457;10.5233;
615.3000;0.1457;10.5209;
615.6000;0.1457;10.5160;
615.9000;0.1457;10.5040;
616.2000;0.1433;10.5040;
616.5000;0.1441;10.5040;
616.8000;0.1441;10.4991;
617.1000;0.1425;10.4943;
617.4000;0.1433;10.4919;
617.7000;0.1449;10.5040;
618.0000;0.1416;10.4943;
618.3000;0.1449;10.4991;
618.6000;0.1457;10.5016;
618.9000;0.1465;10.5112;
619.2000;0.1400;10.4847;
619.5000;0.1449;10.4991;
619.8000;0.1457;10.5040;
620.1000;0.1473;10.5040;
620.4000;0.1473;10.5016;
620.7000;0.1441;10.4967;
621.0000;0.1457;10.4967;
621.3000;0.1498;10.5112;
621.6000;0.1441;10.4967;
621.9000;0.1449;10.5064;
622.2000;0.1481;10.5136;
622.5000;0.1449;10.5064;
622.8000;0.1449;10.5040;
623.1000;0.1498;10.5136;
623.4000;0.1449;10.4943;
623.7000;0.1441;10.5016;
624.0000;0.1457;10.5160;
624.3000;0.1408;10.5112;
624.6000;0.1465;10.5257;
624.9000;0.1457;10.5233;
625.2000;0.1465;10.5233;
625.5000;0.1449;10.5136;
625.8000;0.1441;10.5112;
626.1000;0.1441;10.5112;
626.4000;0.1433;10.5064;
626.7000;0.1449;10.5064;
627.0000;0.1449;10.5016;
627.3000;0.1425;10.4967;
627.6000;0.1465;10.5016;
627.9000;0.1449;10.5040;
628.2000;0.1457;10.5088;
628.5000;0.1425;10.5016;
628.8000;0.1441;10.5088;
629.1000;0.1425;10.5040;
629.4000;0.1449;10.5040;
629.7000;0.1433;10.5064;
630.0000;0.1449;10.5040;
630.3000;0.1457;10.5136;
630.6000;0.1473;10.5136;
630.9000;0.1441;10.5088;
631.2000;0.1433;10.5064;
631.5000;0.1457;10.5040;
631.8000;0.1433;10.4967;
632.1000;0.1441;10.4967;
632.4000;0.1416;10.4847;
632.7000;0.1408;10.4774;
633.0000;0.1441;10.4943;
633.3000;0.1441;10.4895;
633.6000;0.1465;10.4919;
633.9000;0.1425;10.4799;
634.2000;0.1457;10.4799;
634.5000;0.1465;10.4774;
634.8000;0.1457;10.4895;
635.1000;0.1465;10.4943;
635.4000;0.1441;10.4943;
635.7000;0.1481;10.5016;
636.0000;0.1449;10.4895;
636.3000;0.1433;10.4823;
636.6000;0.1449;10.4967;
636.9000;0.1433;10.5016;
637.2000;0.1441;10.5016;
637.5000;0.1449;10.5064;
637.8000;0.1433;10.5064;
638.1000;0.1441;10.5112;
638.4000;0.1481;10.5209;
638.7000;0.1481;10.5233;
639.0000;0.1449;10.5112;
639.3000;0.1481;10.5305;
639.6000;0.1433;10.5209;
639.9000;0.1449;10.5160;
640.2000;0.1506;10.5257;
640.5000;0.1441;10.5040;
640.8000;0.1441;10.5184;
641.1000;0.1433;10.5184;
641.4000;0.1441;10.5160;
641.7000;0.1449;10.5136;
642.0000;0.1506;10.5281;
642.3000;0.1449;10.5112;
642.6000;0.1449;10.5064;
642.9000;0.1465;10.5160;
643.2000;0.1425;10.5040;
643.5000;0.1433;10.5112;
643.8000;0.1473;10.5160;
644.1000;0.1449;10.5112;
644.4000;0.1465;10.5088;
644.7000;0.1449;10.5112;
645.0000;0.1473;10.5112;
645.3000;0.1441;10.5016;
645.6000;0.1465;10.5088;
645.9000;0.1530;10.5377;
646.2000;0.1506;10.5281;
646.5000;0.1481;10.5233;
646.8000;0.1457;10.5136;
647.1000;0.1449;10.5088;
647.4000;0.1506;10.5257;
647.7000;0.1433;10.5064;
648.0000;0.1433;10.5136;
648.3000;0.1498;10.5233;
648.6000;0.1457;10.5136;
648.9000;0.1441;10.4991;
649.2000;0.1425;10.4919;
649.5000;0.1433;10.4943;
649.8000;0.1425;10.4991;
650.1000;0.1441;10.5040;
650.4000;0.1433;10.4991;
650.7000;0.1441;10.5040;
651.0000;0.1433;10.5016;
651.3000;0.1425;10.4991;
651.6000;0.1441;10.5088;
651.9000;0.1433;10.5064;
652.2000;0.1416;10.5040;
652.5000;0.1449;10.5016;
652.8000;0.1433;10.5064;
653.1000;0.1425;10.4991;
653.4000;0.1465;10.5040;
653.7000;0.1449;10.4991;
654.0000;0.1433;10.5016;
654.3000;0.1449;10.5136;
654.6000;0.1522;10.5353;
654.9000;0.1465;10.5112;
655.2000;0.1441;10.5040;
655.5000;0.1555;10.5329;
655.8000;0.1441;10.5064;
656.1000;0.1441;10.4991;
656.4000;0.1457;10.4991;
656.7000;0.1425;10.4895;
657.0000;0.1449;10.4943;
657.3000;0.1457;10.4943;
657.6000;0.1465;10.5016;
657.9000;0.1449;10.4967;
658.2000;0.1449;10.5016;
658.5000;0.1449;10.5088;
658.8000;0.1441;10.5064;
659.1000;0.1441;10.5112;
659.4000;0.1449;10.5064;
659.7000;0.1498;10.5257;
660.0000;0.1449;10.5160;
660.3000;0.1449;10.5112;
660.6000;0.1522;10.5281;
660.9000;0.1481;10.5136;
661.2000;0.1465;10.5233;
661.5000;0.1449;10.5233;
661.8000;0.1457;10.5160;
662.1000;0.1441;10.5136;
662.4000;0.1441;10.5136;
662.7000;0.1433;10.5233;
663.0000;0.1425;10.5160;
663.3000;0.1433;10.5233;
663.6000;0.1433;10.5233;
663.9000;0.1449;10.5233;
664.2000;0.1408;10.5112;
664.5000;0.1441;10.5209;
664.8000;0.1433;10.5136;
665.1000;0.1425;10.5112;
665.4000;0.1449;10.5184;
665.7000;0.1465;10.5209;
666.0000;0.1465;10.5209;
666.3000;0.1514;10.5329;
666.6000;0.1449;10.5136;
666.9000;0.1449;10.5160;
667.2000;0.1433;10.5112;
667.5000;0.1481;10.5136;
667.8000;0.1465;10.5040;
668.1000;0.1441;10.4991;
668.4000;0.1433;10.4991;
668.7000;0.1441;10.5040;
669.0000;0.1449;10.5040;
669.3000;0.1441;10.5136;
669.6000;0.1457;10.5088;
669.9000;0.1473;10.5257;
670.2000;0.1449;10.5281;
670.5000;0.1449;10.5257;
670.8000;0.1441;10.5112;
671.1000;0.1457;10.5160;
671.4000;0.1457;10.5112;
671.7000;0.1392;10.4895;
672.0000;0.1441;10.5040;
672.3000;0.1498;10.5160;
672.6000;0.1425;10.4967;
672.9000;0.1457;10.4991;
673.2000;0.1425;10.4871;
673.5000;0.1425;10.4847;
673.8000;0.1433;10.4871;
674.1000;0.1425;10.4895;
674.4000;0.1416;10.4799;
674.7000;0.1425;10.4823;
675.0000;0.1441;10.4919;
675.3000;0.1465;10.4943;
675.6000;0.1384;10.4606;
675.9000;0.1522;10.4991;
676.2000;0.1433;10.4823;
676.5000;0.1506;10.4919;
676.8000;0.1441;10.4799;
677.1000;0.1571;10.5136;
677.4000;0.1457;10.4799;
677.7000;0.1490;10.4919;
678.0000;0.1441;10.4847;
678.3000;0.1416;10.4750;
678.6000;0.1376;10.4654;
678.9000;0.1433;10.4750;
679.2000;0.1473;10.4847;
679.5000;0.1465;10.4750;
679.8000;0.1457;10.4799;
680.1000;0.1433;10.4726;
680.4000;0.1433;10.4823;
680.7000;0.1465;10.4919;
681.0000;0.1449;10.4943;
681.3000;0.1449;10.4991;
681.6000;0.1457;10.4967;
681.9000;0.1449;10.5040;
682.2000;0.1506;10.5136;
682.5000;0.1457;10.5064;
682.8000;0.1400;10.4943;
683.1000;0.1416;10.4943;
683.4000;0.1449;10.4967;
683.7000;0.1408;10.4871;
684.0000;0.1425;10.4799;
684.3000;0.1465;10.4919;
684.6000;0.1441;10.4847;
684.9000;0.1441;10.4847;
685.2000;0.1449;10.4847;
685.5000;0.1441;10.4895;
685.8000;0.1449;10.4943;
686.1000;0.1457;10.4943;
686.4000;0.1465;10.4943;
686.7000;0.1449;10.4895;
687.0000;0.1433;10.4823;
687.3000;0.1441;10.4895;
687.6000;0.1457;10.5112;
687.9000;0.1490;10.5257;
688.2000;0.1449;10.5160;
688.5000;0.1433;10.5088;
688.8000;0.1449;10.5112;
689.1000;0.1441;10.5136;
689.4000;0.1465;10.5160;
689.7000;0.1481;10.5209;
690.0000;0.1465;10.5233;
690.3000;0.1441;10.5184;
690.6000;0.1465;10.5136;
690.9000;0.1465;10.5112;
691.2000;0.1449;10.4991;
691.5000;0.1473;10.5064;
691.8000;0.1465;10.5088;
692.1000;0.1457;10.5040;
692.4000;0.1433;10.4991;
692.7000;0.1441;10.4919;
693.0000;0.1457;10.4871;
693.3000;0.1457;10.4895;
693.6000;0.1449;10.4919;
693.9000;0.1425;10.4895;
694.2000;0.1416;10.4871;
694.5000;0.1433;10.4919;
694.8000;0.1506;10.5088;
695.1000;0.1433;10.4967;
695.4000;0.1449;10.4895;
695.7000;0.1335;10.4606;
696.0000;0.1416;10.4919;
696.3000;0.1384;10.4774;
696.6000;0.1433;10.4967;
696.9000;0.1465;10.5016;
697.2000;0.1425;10.4895;
697.5000;0.1400;10.4823;
697.8000;0.1449;10.4919;
698.1000;0.1441;10.4919;
698.4000;0.1473;10.4967;
698.7000;0.1441;10.4895;
699.0000;0.1433;10.4799;
699.3000;0.1457;10.4943;
699.6000;0.1449;10.4967;
699.9000;0.1473;10.5040;
700.2000;0.1408;10.4895;
700.5000;0.1449;10.4943;
700.8000;0.1490;10.4943;
701.1000;0.1425;10.4702;
701.4000;0.1449;10.4799;
701.7000;0.1457;10.4774;
702.0000;0.1425;10.4750;
702.3000;0.1457;10.4823;
702.6000;0.1449;10.4919;
702.9000;0.1498;10.5040;
703.2000;0.1441;10.4847;
703.5000;0.1465;10.4871;
703.8000;0.1441;10.4871;
704.1000;0.1441;10.4799;
704.4000;0.1441;10.4871;
704.7000;0.1449;10.4919;
705.0000;0.1449;10.5016;
705.3000;0.1465;10.4991;
705.6000;0.1481;10.5040;
705.9000;0.1457;10.4919;
706.2000;0.1481;10.4967;
706.5000;0.1425;10.4774;
706.8000;0.1465;10.4991;
707.1000;0.1433;10.4943;
707.4000;0.1449;10.4943;
707.7000;0.1425;10.4967;
708.0000;0.1449;10.4967;
708.3000;0.1473;10.5064;
708.6000;0.1522;10.5257;
708.9000;0.1425;10.5016;
709.2000;0.1449;10.5064;
709.5000;0.1473;10.5136;
709.8000;0.1400;10.4967;
710.1000;0.1457;10.5016;
710.4000;0.1425;10.4919;
710.7000;0.1449;10.4943;
711.0000;0.1457;10.4991;
711.3000;0.1449;10.5016;
711.6000;0.1351;10.4799;
711.9000;0.1473;10.5233;
712.2000;0.1441;10.5233;
712.5000;0.1457;10.5160;
712.8000;0.1433;10.5064;
713.1000;0.1449;10.5160;
713.4000;0.1441;10.5160;
713.7000;0.1433;10.5209;
714.0000;0.1441;10.5233;
714.3000;0.1343;10.4895;
714.6000;0.1433;10.5088;
714.9000;0.1441;10.5136;
715.2000;0.1628;10.5667;
715.5000;0.1425;10.5136;
715.8000;0.1441;10.5209;
716.1000;0.1449;10.5257;
716.4000;0.1359;10.5016;
716.7000;0.1441;10.5160;
717.0000;0.1441;10.5088;
717.3000;0.1514;10.5305;
717.6000;0.1433;10.5088;
717.9000;0.1425;10.5136;
718.2000;0.1449;10.5184;
718.5000;0.1433;10.5064;
718.8000;0.1449;10.5040;
719.1000;0.1433;10.4991;
719.4000;0.1457;10.5088;
719.7000;0.1433;10.5112;
720.0000;0.1457;10.5233;
720.3000;0.1335;10.4847;
720.6000;0.1416;10.5040;
720.9000;0.1457;10.5112;
721.2000;0.1449;10.5160;
721.5000;0.1441;10.5088;
721.8000;0.1457;10.5136;
722.1000;0.1441;10.5088;
722.4000;0.1392;10.4895;
722.7000;0.1457;10.5064;
723.0000;0.1441;10.5040;
723.3000;0.1473;10.5112;
723.6000;0.1400;10.4991;
723.9000;0.1441;10.4991;
724.2000;0.1425;10.4967;
724.5000;0.1425;10.4967;
724.8000;0.1433;10.5040;
725.1000;0.1441;10.5088;
725.4000;0.1425;10.5040;
725.7000;0.1425;10.5040;
726.0000;0.1457;10.5064;
726.3000;0.1449;10.5016;
726.6000;0.1457;10.5064;
726.9000;0.1473;10.4967;
727.2000;0.1449;10.4871;
727.5000;0.1465;10.4943;
727.8000;0.1441;10.4895;
728.1000;0.1481;10.4991;
728.4000;0.1457;10.5064;
728.7000;0.1457;10.5040;
729.0000;0.1433;10.4799;
729.3000;0.1473;10.4991;
729.6000;0.1449;10.4919;
729.9000;0.1433;10.4967;
730.2000;0.1465;10.5112;
730.5000;0.1433;10.5088;
730.8000;0.1433;10.5016;
731.1000;0.1433;10.5088;
731.4000;0.1449;10.5112;
731.7000;0.1425;10.5016;
732.0000;0.1481;10.5160;
732.3000;0.1441;10.5064;
732.6000;0.1425;10.5016;
732.9000;0.1457;10.5088;
733.2000;0.1433;10.5040;
733.5000;0.1457;10.5040;
733.8000;0.1408;10.4895;
734.1000;0.1416;10.4943;
734.4000;0.1449;10.4967;
734.7000;0.1384;10.4799;
735.0000;0.1441;10.4943;
735.3000;0.1441;10.4823;
735.6000;0.1457;10.4871;
735.9000;0.1457;10.4871;
736.2000;0.1473;10.4919;
736.5000;0.1473;10.4943;
736.8000;0.1465;10.4967;
737.1000;0.1376;10.4726;
737.4000;0.1441;10.4895;
737.7000;0.1433;10.4823;
738.0000;0.1384;10.4678;
738.3000;0.1457;10.4943;
738.6000;0.1433;10.4943;
738.9000;0.1441;10.4991;
739.2000;0.1457;10.5064;
739.5000;0.1457;10.5064;
739.8000;0.1441;10.5088;
740.1000;0.1457;10.5136;
740.4000;0.1457;10.5112;
740.7000;0.1433;10.5160;
741.0000;0.1449;10.5209;
741.3000;0.1425;10.5040;
741.6000;0.1449;10.5016;
741.9000;0.1449;10.5040;
742.2000;0.1457;10.5088;
742.5000;0.1441;10.5040;
742.8000;0.1449;10.5136;
743.1000;0.1457;10.5064;
743.4000;0.1449;10.5064;
743.7000;0.1449;10.5088;
744.0000;0.1441;10.5040;
744.3000;0.1433;10.5016;
744.6000;0.1441;10.4967;
744.9000;0.1425;10.4895;
745.2000;0.1425;10.4823;
745.5000;0.1433;10.4799;
745.8000;0.1465;10.4774;
746.1000;0.1433;10.4750;
746.4000;0.1449;10.4895;
746.7000;0.1457;10.4919;
747.0000;0.1449;10.4871;
747.3000;0.1441;10.4871;
747.6000;0.1441;10.4967;
747.9000;0.1441;10.4871;
748.2000;0.1433;10.4847;
748.5000;0.1473;10.4967;
748.8000;0.1441;10.4774;
749.1000;0.1449;10.4799;
749.4000;0.1433;10.4774;
749.7000;0.1441;10.4871;
750.0000;0.1441;10.4774;
750.3000;0.1449;10.4799;
750.6000;0.1473;10.4799;
750.9000;0.1449;10.4847;
751.2000;0.1425;10.4919;
751.5000;0.1449;10.4943;
751.8000;0.1465;10.4991;
752.1000;0.1498;10.5040;
752.4000;0.1457;10.4919;
752.7000;0.1465;10.5016;
753.0000;0.1465;10.5064;
753.3000;0.1555;10.5329;
753.6000;0.1441;10.5016;
753.9000;0.1433;10.5064;
754.2000;0.1465;10.5136;
754.5000;0.1457;10.5088;
754.8000;0.1457;10.5064;
755.1000;0.1441;10.4967;
755.4000;0.1433;10.5016;
755.7000;0.1441;10.5016;
756.0000;0.1441;10.5040;
756.3000;0.1376;10.4895;
756.6000;0.1441;10.5136;
756.9000;0.1465;10.5209;
757.2000;0.1473;10.5136;
757.5000;0.1481;10.5160;
757.8000;0.1433;10.5112;
758.1000;0.1473;10.5209;
758.4000;0.1433;10.5088;
758.7000;0.1433;10.5016;
759.0000;0.1433;10.4967;
759.3000;0.1473;10.5040;
759.6000;0.1449;10.5040;
759.9000;0.1433;10.4943;
760.2000;0.1433;10.4943;
760.5000;0.1441;10.4919;
760.8000;0.1449;10.4967;
761.1000;0.1416;10.4823;
761.4000;0.1425;10.4823;
761.7000;0.1457;10.4967;
762.0000;0.1514;10.5088;
762.3000;0.1441;10.4799;
762.6000;0.1457;10.4919;
762.9000;0.1465;10.4895;
763.2000;0.1473;10.4943;
763.5000;0.1457;10.4895;
763.8000;0.1441;10.4871;
764.1000;0.1441;10.4943;
764.4000;0.1449;10.4895;
764.7000;0.1441;10.4943;
765.0000;0.1457;10.5040;
765.3000;0.1433;10.4991;
765.6000;0.1425;10.4991;
765.9000;0.1457;10.5064;
766.2000;0.1433;10.5088;
766.5000;0.1465;10.5160;
766.8000;0.1441;10.5136;
767.1000;0.1449;10.5136;
767.4000;0.1441;10.5064;
767.7000;0.1433;10.4967;
768.0000;0.1457;10.4991;
768.3000;0.1473;10.4943;
768.6000;0.1449;10.4871;
768.9000;0.1441;10.4895;
769.2000;0.1449;10.4967;
769.5000;0.1441;10.4967;
769.8000;0.1425;10.4943;
770.1000;0.1384;10.4774;
770.4000;0.1506;10.5112;
770.7000;0.1449;10.4943;
771.0000;0.1473;10.4991;
771.3000;0.1433;10.4919;
771.6000;0.1449;10.5016;
771.9000;0.1481;10.5112;
772.2000;0.1465;10.5064;
772.5000;0.1441;10.4991;
772.8000;0.1457;10.5112;
773.1000;0.1457;10.5112;
773.4000;0.1530;10.5281;
773.7000;0.1457;10.5016;
774.0000;0.1441;10.5040;
774.3000;0.1457;10.5088;
774.6000;0.1441;10.5088;
774.9000;0.1473;10.5064;
775.2000;0.1465;10.5016;
775.5000;0.1433;10.4967;
775.8000;0.1449;10.4967;
776.1000;0.1441;10.4991;
776.4000;0.1449;10.4967;
776.7000;0.1441;10.4991;
777.0000;0.1441;10.5016;
777.3000;0.1441;10.5016;
777.6000;0.1441;10.4967;
777.9000;0.1433;10.4967;
778.2000;0.1514;10.5257;
778.5000;0.1441;10.5112;
778.8000;0.1457;10.5136;
779.1000;0.1441;10.5064;
779.4000;0.1384;10.4847;
779.7000;0.1441;10.5064;
780.0000;0.1433;10.5040;
780.3000;0.1408;10.4919;
780.6000;0.1433;10.4895;
780.9000;0.1449;10.4943;
781.2000;0.1457;10.4895;
781.5000;0.1449;10.4823;
781.8000;0.1449;10.4871;
782.1000;0.1441;10.4871;
782.4000;0.1441;10.4895;
782.7000;0.1457;10.4919;
783.0000;0.1449;10.4895;
783.3000;0.1457;10.5016;
783.6000;0.1465;10.5016;
783.9000;0.1457;10.4991;
784.2000;0.1465;10.4895;
784.5000;0.1490;10.4895;
784.8000;0.1449;10.4774;
785.1000;0.1449;10.4774;
785.4000;0.1441;10.4774;
785.7000;0.1441;10.4774;
786.0000;0.1449;10.4750;
786.3000;0.1392;10.4581;
786.6000;0.1433;10.4678;
786.9000;0.1425;10.4750;
787.2000;0.1449;10.4799;
787.5000;0.1449;10.4750;
787.8000;0.1449;10.4678;
788.1000;0.1457;10.4750;
788.4000;0.1441;10.4750;
788.7000;0.1457;10.4726;
789.0000;0.1465;10.4750;
789.3000;0.1433;10.4702;
789.6000;0.1441;10.4726;
789.9000;0.1441;10.4750;
790.2000;0.1457;10.4847;
790.5000;0.1441;10.4750;
790.8000;0.1433;10.4726;
791.1000;0.1465;10.4871;
791.4000;0.1449;10.4847;
791.7000;0.1416;10.4630;
792.0000;0.1433;10.4726;
792.3000;0.1449;10.4774;
792.6000;0.1473;10.4799;
792.9000;0.1449;10.4750;
793.2000;0.1457;10.4847;
793.5000;0.1498;10.5088;
793.8000;0.1457;10.4919;
794.1000;0.1449;10.4871;
794.4000;0.1465;10.4967;
794.7000;0.1433;10.4967;
795.0000;0.1425;10.4871;
795.3000;0.1425;10.4823;
795.6000;0.1441;10.4871;
795.9000;0.1457;10.4823;
796.2000;0.1457;10.4750;
796.5000;0.1457;10.4774;
796.8000;0.1465;10.4847;
797.1000;0.1441;10.4871;
797.4000;0.1457;10.4823;
797.7000;0.1457;10.4799;
798.0000;0.1465;10.4774;
798.3000;0.1457;10.4823;
798.6000;0.1457;10.4847;
798.9000;0.1433;10.4774;
799.2000;0.1514;10.5016;
799.5000;0.1449;10.4847;
799.8000;0.1425;10.4895;
800.1000;0.1449;10.4967;
800.4000;0.1441;10.4919;
800.7000;0.1425;10.4799;
801.0000;0.1425;10.4726;
801.3000;0.1433;10.4750;
801.6000;0.1441;10.4726;
801.9000;0.1441;10.4799;
802.2000;0.1441;10.4799;
802.5000;0.1408;10.4678;
802.8000;0.1449;10.4678;
803.1000;0.1457;10.4654;
803.4000;0.1563;10.5064;
803.7000;0.1441;10.4871;
804.0000;0.1465;10.4919;
804.3000;0.1449;10.4895;
804.6000;0.1441;10.4943;
804.9000;0.1473;10.5064;
805.2000;0.1441;10.4991;
805.5000;0.1425;10.4943;
805.8000;0.1457;10.5040;
806.1000;0.1514;10.5281;
806.4000;0.1441;10.4991;
806.7000;0.1457;10.5088;
807.0000;0.1441;10.5064;
807.3000;0.1433;10.5136;
807.6000;0.1457;10.5136;
807.9000;0.1425;10.5112;
808.2000;0.1441;10.5112;
808.5000;0.1449;10.5233;
808.8000;0.1425;10.5112;
809.1000;0.1465;10.5088;
809.4000;0.1538;10.5233;
809.7000;0.1457;10.5064;
810.0000;0.1433;10.5040;
810.3000;0.1408;10.4919;
810.6000;0.1449;10.5016;
810.9000;0.1433;10.5016;
811.2000;0.1449;10.5088;
811.5000;0.1449;10.5088;
811.8000;0.1506;10.5184;
812.1000;0.1441;10.5088;
812.4000;0.1449;10.5064;
812.7000;0.1449;10.5136;
813.0000;0.1449;10.5064;
813.3000;0.1449;10.4991;
813.6000;0.1457;10.5088;
813.9000;0.1441;10.5064;
814.2000;0.1465;10.5184;
814.5000;0.1392;10.5112;
814.8000;0.1449;10.5184;
815.1000;0.1457;10.5136;
815.4000;0.1481;10.5184;
815.7000;0.1449;10.5160;
816.0000;0.1441;10.5088;
816.3000;0.1433;10.5088;
816.6000;0.1441;10.5064;
816.9000;0.1441;10.5016;
817.2000;0.1457;10.5064;
817.5000;0.1498;10.5160;
817.8000;0.1449;10.5016;
818.1000;0.1449;10.4943;
818.4000;0.1327;10.4702;
818.7000;0.1457;10.5040;
819.0000;0.1416;10.4967;
819.3000;0.1457;10.5064;
819.6000;0.1457;10.5064;
819.9000;0.1490;10.5088;
820.2000;0.1351;10.4799;
820.5000;0.1457;10.5064;
820.8000;0.1449;10.4991;
821.1000;0.1433;10.4919;
821.4000;0.1425;10.4847;
821.7000;0.1465;10.4799;
822.0000;0.1449;10.4726;
822.3000;0.1408;10.4630;
822.6000;0.1449;10.4823;
822.9000;0.1441;10.4847;
823.2000;0.1368;10.4702;
823.5000;0.1425;10.4774;
823.8000;0.1449;10.4991;
824.1000;0.1416;10.4895;
824.4000;0.1473;10.5112;
824.7000;0.1449;10.5088;
825.0000;0.1465;10.5112;
825.3000;0.1433;10.5136;
825.6000;0.1441;10.5112;
825.9000;0.1449;10.5136;
826.2000;0.1441;10.5112;
826.5000;0.1506;10.5305;
826.8000;0.1441;10.5209;
827.1000;0.1441;10.5160;
827.4000;0.1441;10.5112;
827.7000;0.1441;10.5064;
828.0000;0.1449;10.5112;
828.3000;0.1408;10.5040;
828.6000;0.1473;10.5160;
828.9000;0.1449;10.5088;
829.2000;0.1441;10.5040;
829.5000;0.1449;10.5184;
829.8000;0.1441;10.5112;
830.1000;0.1400;10.4967;
830.4000;0.1465;10.5136;
830.7000;0.1457;10.5088;
831.0000;0.1514;10.5184;
831.3000;0.1449;10.5016;
831.6000;0.1473;10.5040;
831.9000;0.1481;10.5088;
832.2000;0.1449;10.4943;
832.5000;0.1457;10.5064;
832.8000;0.1465;10.5184;
833.1000;0.1408;10.4991;
833.4000;0.1473;10.5136;
833.7000;0.1449;10.5064;
834.0000;0.1441;10.5016;
834.3000;0.1498;10.5136;
834.6000;0.1449;10.5016;
834.9000;0.1433;10.4991;
835.2000;0.1457;10.5160;
835.5000;0.1433;10.5136;
835.8000;0.1416;10.5136;
836.1000;0.1449;10.5184;
836.4000;0.1441;10.5184;
836.7000;0.1449;10.5160;
837.0000;0.1449;10.5160;
837.3000;0.1457;10.5064;
837.6000;0.1441;10.4991;
837.9000;0.1441;10.4967;
838.2000;0.1457;10.5016;
838.5000;0.1457;10.5184;
838.8000;0.1457;10.5160;
839.1000;0.1449;10.5160;
839.4000;0.1441;10.5112;
839.7000;0.1514;10.5305;
840.0000;0.1433;10.5040;
840.3000;0.1457;10.4991;
840.6000;0.1514;10.5088;
840.9000;0.1457;10.4967;
841.2000;0.1449;10.5040;
841.5000;0.1473;10.5112;
841.8000;0.1441;10.4967;
842.1000;0.1457;10.5016;
842.4000;0.1425;10.5040;
842.7000;0.1392;10.4847;
843.0000;0.1441;10.4991;
843.3000;0.1441;10.5016;
843.6000;0.1449;10.4991;
843.9000;0.1449;10.4991;
844.2000;0.1416;10.4919;
844.5000;0.1433;10.4943;
844.8000;0.1449;10.5016;
845.1000;0.1473;10.5064;
845.4000;0.1457;10.4967;
845.7000;0.1441;10.4991;
846.0000;0.1433;10.4895;
846.3000;0.1465;10.4919;
846.6000;0.1433;10.4871;
846.9000;0.1441;10.4895;
847.2000;0.1449;10.5040;
847.5000;0.1408;10.4871;
847.8000;0.1449;10.4943;
848.1000;0.1457;10.4991;
848.4000;0.1425;10.4823;
848.7000;0.1449;10.4823;
849.0000;0.1473;10.4895;
849.3000;0.1457;10.4847;
849.6000;0.1449;10.4823;
849.9000;0.1457;10.4823;
850.2000;0.1506;10.4991;
850.5000;0.1351;10.4630;
850.8000;0.1425;10.4847;
851.1000;0.1425;10.4847;
851.4000;0.1441;10.4823;
851.7000;0.1449;10.4774;
852.0000;0.1457;10.4774;
852.3000;0.1514;10.5040;
852.6000;0.1490;10.4967;
852.9000;0.1457;10.4847;
853.2000;0.1384;10.4678;
853.5000;0.1433;10.4799;
853.8000;0.1555;10.5209;
854.1000;0.1400;10.4750;
854.4000;0.1449;10.4847;
854.7000;0.1457;10.4799;
855.0000;0.1457;10.4871;
855.3000;0.1465;10.4919;
855.6000;0.1441;10.4919;
855.9000;0.1433;10.4847;
856.2000;0.1425;10.4847;
856.5000;0.1457;10.4871;
856.8000;0.1457;10.4895;
857.1000;0.1465;10.4919;
857.4000;0.1449;10.4943;
857.7000;0.1425;10.4871;
858.0000;0.1457;10.4991;
858.3000;0.1433;10.4943;
858.6000;0.1441;10.5016;
858.9000;0.1441;10.5088;
859.2000;0.1433;10.5184;
859.5000;0.1457;10.5209;
859.8000;0.1481;10.5233;
860.1000;0.1457;10.5233;
860.4000;0.1433;10.5184;
860.7000;0.1433;10.5184;
861.0000;0.1449;10.5209;
861.3000;0.1457;10.5209;
861.6000;0.1416;10.5160;
861.9000;0.1449;10.5184;
862.2000;0.1457;10.5184;
862.5000;0.1449;10.5160;
862.8000;0.1449;10.5257;
863.1000;0.1433;10.5160;
863.4000;0.1441;10.5088;
863.7000;0.1449;10.5160;
864.0000;0.1425;10.5160;
864.3000;0.1465;10.5305;
864.6000;0.1457;10.5257;
864.9000;0.1449;10.5209;
865.2000;0.1441;10.5209;
865.5000;0.1457;10.5209;
865.8000;0.1457;10.5209;
866.1000;0.1457;10.5281;
866.4000;0.1473;10.5209;
866.7000;0.1465;10.5329;
867.0000;0.1473;10.5353;
867.3000;0.1376;10.4967;
867.6000;0.1449;10.5209;
867.9000;0.1441;10.5112;
868.2000;0.1457;10.5209;
868.5000;0.1449;10.5160;
868.8000;0.1441;10.5305;
869.1000;0.1465;10.5353;
869.4000;0.1473;10.5377;
869.7000;0.1441;10.5329;
870.0000;0.1441;10.5377;
870.3000;0.1392;10.5281;
870.6000;0.1465;10.5426;
870.9000;0.1425;10.5281;
871.2000;0.1473;10.5474;
871.5000;0.1465;10.5377;
871.8000;0.1449;10.5329;
872.1000;0.1465;10.5377;
872.4000;0.1416;10.5257;
872.7000;0.1449;10.5377;
873.0000;0.1465;10.5377;
873.3000;0.1433;10.5281;
873.6000;0.1441;10.5233;
873.9000;0.1457;10.5257;
874.2000;0.1465;10.5329;
874.5000;0.1449;10.5329;
874.8000;0.1457;10.5353;
875.1000;0.1473;10.5450;
875.4000;0.1441;10.5329;
875.7000;0.1408;10.5305;
876.0000;0.1449;10.5353;
876.3000;0.1441;10.5281;
876.6000;0.1457;10.5329;
876.9000;0.1441;10.5353;
877.2000;0.1457;10.5402;
877.5000;0.1441;10.5353;
877.8000;0.1441;10.5426;
878.1000;0.1449;10.5450;
878.4000;0.1408;10.5377;
878.7000;0.1449;10.5377;
879.0000;0.1514;10.5450;
879.3000;0.1441;10.5281;
879.6000;0.1490;10.5353;
879.9000;0.1441;10.5329;
880.2000;0.1425;10.5353;
880.5000;0.1457;10.5450;
880.8000;0.1441;10.5426;
881.1000;0.1433;10.5450;
881.4000;0.1457;10.5498;
881.7000;0.1457;10.5594;
882.0000;0.1449;10.5522;
882.3000;0.1449;10.5450;
882.6000;0.1457;10.5522;
882.9000;0.1457;10.5474;
883.2000;0.1457;10.5402;
883.5000;0.1457;10.5402;
883.8000;0.1441;10.5474;
884.1000;0.1457;10.5522;
884.4000;0.1425;10.5353;
884.7000;0.1425;10.5281;
885.0000;0.1449;10.5329;
885.3000;0.1473;10.5305;
885.6000;0.1465;10.5233;
885.9000;0.1465;10.5281;
886.2000;0.1449;10.5209;
886.5000;0.1441;10.5184;
886.8000;0.1465;10.5305;
887.1000;0.1457;10.5281;
887.4000;0.1449;10.5257;
887.7000;0.1441;10.5233;
888.0000;0.1457;10.5233;
888.3000;0.1425;10.5040;
888.6000;0.1449;10.5233;
888.9000;0.1408;10.5184;
889.2000;0.1441;10.5281;
889.5000;0.1465;10.5353;
889.8000;0.1441;10.5257;
890.1000;0.1441;10.5209;
890.4000;0.1449;10.5257;
890.7000;0.1473;10.5305;
891.0000;0.1473;10.5281;
891.3000;0.1449;10.5329;
891.6000;0.1449;10.5257;
891.9000;0.1449;10.5233;
892.2000;0.1408;10.5064;
892.5000;0.1481;10.5233;
892.8000;0.1465;10.5233;
893.1000;0.1392;10.5016;
893.4000;0.1481;10.5088;
893.7000;0.1449;10.5088;
894.0000;0.1441;10.5112;
894.3000;0.1449;10.5160;
894.6000;0.1457;10.5160;
894.9000;0.1457;10.5184;
895.2000;0.1449;10.5209;
895.5000;0.1433;10.5281;
895.8000;0.1433;10.5353;
896.1000;0.1457;10.5474;
896.4000;0.1416;10.5329;
896.7000;0.1465;10.5426;
897.0000;0.1449;10.5353;
897.3000;0.1425;10.5353;
897.6000;0.1433;10.5329;
897.9000;0.1441;10.5329;
898.2000;0.1449;10.5329;
898.5000;0.1441;10.5402;
898.8000;0.1425;10.5402;
899.1000;0.1425;10.5329;
899.4000;0.1433;10.5233;
899.7000;0.1449;10.5329;
900.0000;0.1449;10.5353;
900.3000;0.1473;10.5377;
900.6000;0.1441;10.5257;
900.9000;0.1449;10.5329;
901.2000;0.1457;10.5233;
901.5000;0.1449;10.5136;
901.8000;0.1408;10.4967;
902.1000;0.1465;10.5088;
902.4000;0.1457;10.5136;
902.7000;0.1473;10.5112;
903.0000;0.1457;10.4991;
903.3000;0.1449;10.5040;
903.6000;0.1441;10.5016;
903.9000;0.1441;10.4919;
904.2000;0.1457;10.4919;
904.5000;0.1441;10.4799;
904.8000;0.1457;10.4774;
905.1000;0.1441;10.4750;
905.4000;0.1449;10.4823;
905.7000;0.1441;10.4774;
906.0000;0.1465;10.4847;
906.3000;0.1473;10.4895;
906.6000;0.1473;10.4991;
906.9000;0.1465;10.5016;
907.2000;0.1457;10.5088;
907.5000;0.1433;10.5088;
907.8000;0.1449;10.5184;
908.1000;0.1425;10.5136;
908.4000;0.1457;10.5184;
908.7000;0.1433;10.5281;
909.0000;0.1473;10.5402;
909.3000;0.1449;10.5305;
909.6000;0.1449;10.5257;
909.9000;0.1441;10.5233;
910.2000;0.1441;10.5184;
910.5000;0.1457;10.5233;
910.8000;0.1473;10.5233;
911.1000;0.1441;10.5184;
911.4000;0.1457;10.5233;
911.7000;0.1457;10.5329;
912.0000;0.1457;10.5257;
912.3000;0.1465;10.5353;
912.6000;0.1449;10.5377;
912.9000;0.1506;10.5498;
913.2000;0.1457;10.5305;
913.5000;0.1465;10.5257;
913.8000;0.1449;10.5233;
914.1000;0.1449;10.5281;
914.4000;0.1449;10.5281;
914.7000;0.1433;10.5281;
915.0000;0.1481;10.5257;
915.3000;0.1498;10.5305;
915.6000;0.1473;10.5257;
915.9000;0.1400;10.5160;
916.2000;0.1465;10.5305;
916.5000;0.1465;10.5233;
916.8000;0.1465;10.5257;
917.1000;0.1441;10.5281;
917.4000;0.1522;10.5377;
917.7000;0.1449;10.5257;
918.0000;0.1441;10.5233;
918.3000;0.1457;10.5160;
918.6000;0.1425;10.5088;
918.9000;0.1457;10.5233;
919.2000;0.1473;10.5377;
919.5000;0.1425;10.5257;
919.8000;0.1425;10.5281;
920.1000;0.1433;10.5281;
920.4000;0.1433;10.5184;
920.7000;0.1441;10.5160;
921.0000;0.1449;10.5281;
921.3000;0.1425;10.5209;
921.6000;0.1457;10.5281;
921.9000;0.1465;10.5329;
922.2000;0.1449;10.5233;
922.5000;0.1457;10.5377;
922.8000;0.1457;10.5329;
923.1000;0.1473;10.5377;
923.4000;0.1441;10.5233;
923.7000;0.1416;10.5088;
924.0000;0.1530;10.5353;
924.3000;0.1457;10.5209;
924.6000;0.1457;10.5184;
924.9000;0.1441;10.5136;
925.2000;0.1400;10.5016;
925.5000;0.1490;10.5257;
925.8000;0.1433;10.5257;
926.1000;0.1555;10.5522;
926.4000;0.1392;10.5112;
926.7000;0.1449;10.5353;
927.0000;0.1441;10.5353;
927.3000;0.1506;10.5474;
927.6000;0.1465;10.5377;
927.9000;0.1441;10.5281;
928.2000;0.1457;10.5329;
928.5000;0.1457;10.5426;
928.8000;0.1441;10.5353;
929.1000;0.1441;10.5377;
929.4000;0.1465;10.5305;
929.7000;0.1449;10.5233;
930.0000;0.1449;10.5209;
930.3000;0.1416;10.5088;
930.6000;0.1465;10.5209;
930.9000;0.1449;10.5088;
931.2000;0.1457;10.5112;
931.5000;0.1547;10.5353;
931.8000;0.1441;10.5160;
932.1000;0.1425;10.5112;
932.4000;0.1457;10.5064;
932.7000;0.1481;10.5160;
933.0000;0.1465;10.5040;
933.3000;0.1465;10.5064;
933.6000;0.1441;10.5064;
933.9000;0.1425;10.5040;
934.2000;0.1449;10.5064;
934.5000;0.1433;10.5040;
934.8000;0.1457;10.5016;
935.1000;0.1449;10.4967;
935.4000;0.1449;10.5016;
935.7000;0.1425;10.4991;
936.0000;0.1457;10.5040;
936.3000;0.1506;10.5233;
936.6000;0.1465;10.5088;
936.9000;0.1514;10.5305;
937.2000;0.1457;10.5112;
937.5000;0.1457;10.5064;
937.8000;0.1457;10.5088;
938.1000;0.1416;10.4967;
938.4000;0.1441;10.5088;
938.7000;0.1465;10.5184;
939.0000;0.1449;10.5160;
939.3000;0.1449;10.5281;
939.6000;0.1441;10.5353;
939.9000;0.1449;10.5329;
940.2000;0.1481;10.5450;
940.5000;0.1441;10.5329;
940.8000;0.1465;10.5329;
941.1000;0.1547;10.5619;
941.4000;0.1359;10.5136;
941.7000;0.1449;10.5353;
942.0000;0.1449;10.5257;
942.3000;0.1465;10.5305;
942.6000;0.1416;10.5136;
942.9000;0.1457;10.5184;
943.2000;0.1465;10.5209;
943.5000;0.1457;10.5160;
943.8000;0.1490;10.5377;
944.1000;0.1506;10.5281;
944.4000;0.1449;10.5184;
944.7000;0.1506;10.5329;
945.0000;0.1433;10.5136;
945.3000;0.1441;10.5088;
945.6000;0.1457;10.5112;
945.9000;0.1449;10.5016;
946.2000;0.1433;10.5016;
946.5000;0.1457;10.4943;
946.8000;0.1449;10.4895;
947.1000;0.1465;10.4895;
947.4000;0.1433;10.4823;
947.7000;0.1433;10.4895;
948.0000;0.1457;10.4895;
948.3000;0.1465;10.4919;
948.6000;0.1563;10.5160;
948.9000;0.1457;10.4847;
949.2000;0.1408;10.4774;
949.5000;0.1498;10.5088;
949.8000;0.1457;10.4919;
950.1000;0.1433;10.4943;
950.4000;0.1441;10.4967;
950.7000;0.1433;10.4967;
951.0000;0.1457;10.5088;
951.3000;0.1433;10.4991;
951.6000;0.1457;10.4991;
951.9000;0.1408;10.4919;
952.2000;0.1457;10.5064;
952.5000;0.1425;10.5040;
952.8000;0.1449;10.5088;
953.1000;0.1457;10.5040;
953.4000;0.1441;10.4967;
953.7000;0.1457;10.5016;
954.0000;0.1449;10.4919;
954.3000;0.1473;10.4967;
954.6000;0.1425;10.4799;
954.9000;0.1449;10.4774;
955.2000;0.1441;10.4774;
955.5000;0.1441;10.4799;
955.8000;0.1457;10.4919;
956.1000;0.1441;10.4943;
956.4000;0.1441;10.4895;
956.7000;0.1473;10.4895;
957.0000;0.1457;10.4991;
957.3000;0.1441;10.5016;
957.6000;0.1457;10.4871;
957.9000;0.1441;10.4871;
958.2000;0.1441;10.4967;
958.5000;0.1465;10.4943;
958.8000;0.1457;10.4895;
959.1000;0.1457;10.4895;
959.4000;0.1465;10.4823;
959.7000;0.1457;10.4847;
960.0000;0.1457;10.4871;
960.3000;0.1449;10.4799;
960.6000;0.1441;10.4750;
960.9000;0.1506;10.4919;
961.2000;0.1400;10.4726;
961.5000;0.1441;10.4823;
961.8000;0.1433;10.4799;
962.1000;0.1506;10.4943;
962.4000;0.1425;10.4726;
962.7000;0.1457;10.4702;
963.0000;0.1457;10.4654;
963.3000;0.1441;10.4702;
963.6000;0.1465;10.4750;
963.9000;0.1441;10.4678;
964.2000;0.1441;10.4606;
964.5000;0.1425;10.4533;
964.8000;0.1449;10.4774;
965.1000;0.1506;10.4943;
965.4000;0.1416;10.4581;
965.7000;0.1457;10.4654;
966.0000;0.1457;10.4750;
966.3000;0.1433;10.4678;
966.6000;0.1473;10.4823;
966.9000;0.1457;10.4799;
967.2000;0.1433;10.4823;
967.5000;0.1457;10.4799;
967.8000;0.1465;10.4799;
968.1000;0.1465;10.4799;
968.4000;0.1457;10.4774;
968.7000;0.1449;10.4847;
969.0000;0.1433;10.4799;
969.3000;0.1433;10.4799;
969.6000;0.1441;10.4823;
969.9000;0.1449;10.4823;
970.2000;0.1408;10.4702;
970.5000;0.1449;10.4847;
970.8000;0.1425;10.4847;
971.1000;0.1457;10.4774;
971.4000;0.1441;10.4702;
971.7000;0.1449;10.4774;
972.0000;0.1441;10.4799;
972.3000;0.1498;10.4871;
972.6000;0.1425;10.4750;
972.9000;0.1441;10.4774;
973.2000;0.1449;10.4943;
973.5000;0.1433;10.4991;
973.8000;0.1425;10.4943;
974.1000;0.1457;10.5064;
974.4000;0.1457;10.5016;
974.7000;0.1449;10.4991;
975.0000;0.1457;10.5016;
975.3000;0.1473;10.4991;
975.6000;0.1416;10.4799;
975.9000;0.1457;10.4895;
976.2000;0.1465;10.4943;
976.5000;0.1457;10.4967;
976.8000;0.1457;10.4895;
977.1000;0.1449;10.4967;
977.4000;0.1465;10.5040;
977.7000;0.1449;10.5088;
978.0000;0.1465;10.5112;
978.3000;0.1465;10.5136;
978.6000;0.1457;10.5136;
978.9000;0.1457;10.5160;
979.2000;0.1481;10.5184;
979.5000;0.1457;10.5112;
979.8000;0.1441;10.5016;
980.1000;0.1457;10.5088;
980.4000;0.1441;10.5016;
980.7000;0.1465;10.5016;
981.0000;0.1425;10.4919;
981.3000;0.1449;10.5016;
981.6000;0.1449;10.5064;
981.9000;0.1449;10.5088;
982.2000;0.1425;10.5136;
982.5000;0.1457;10.5184;
982.8000;0.1441;10.5040;
983.1000;0.1351;10.4823;
983.4000;0.1449;10.4967;
983.7000;0.1457;10.4871;
984.0000;0.1465;10.4847;
984.3000;0.1449;10.4895;
984.6000;0.1457;10.4847;
984.9000;0.1457;10.4919;
985.2000;0.1368;10.4774;
985.5000;0.1465;10.5016;
985.8000;0.1441;10.5016;
986.1000;0.1490;10.5160;
986.4000;0.1433;10.5112;
986.7000;0.1490;10.5233;
987.0000;0.1441;10.5136;
987.3000;0.1457;10.5064;
987.6000;0.1514;10.5233;
987.9000;0.1449;10.5136;
988.2000;0.1449;10.5088;
988.5000;0.1449;10.5112;
988.8000;0.1490;10.5184;
989.1000;0.1473;10.5088;
989.4000;0.1555;10.5305;
989.7000;0.1408;10.4871;
990.0000;0.1449;10.5016;
990.3000;0.1425;10.5016;
990.6000;0.1457;10.5088;
990.9000;0.1441;10.5016;
991.2000;0.1449;10.5088;
991.5000;0.1449;10.5184;
991.8000;0.1449;10.5184;
992.1000;0.1441;10.5184;
992.4000;0.1433;10.5112;
992.7000;0.1457;10.5136;
993.0000;0.1441;10.5160;
993.3000;0.1465;10.5281;
993.6000;0.1433;10.5233;
993.9000;0.1433;10.5233;
994.2000;0.1457;10.5257;
994.5000;0.1473;10.5281;
994.8000;0.1441;10.5209;
995.1000;0.1425;10.5160;
995.4000;0.1392;10.4991;
995.7000;0.1449;10.5112;
996.0000;0.1441;10.5088;
996.3000;0.1441;10.5112;
996.6000;0.1473;10.5184;
996.9000;0.1457;10.5160;
997.2000;0.1457;10.5184;
997.5000;0.1400;10.5040;
997.8000;0.1441;10.5112;
998.1000;0.1449;10.5209;
998.4000;0.1465;10.5305;
998.7000;0.1449;10.5233;
999.0000;0.1457;10.5233;
999.3000;0.1465;10.5233;
999.6000;0.1335;10.4943;
999.9000;0.1425;10.5184;
1000.2000;0.1457;10.5112;
1000.5000;0.1449;10.5040;
1000.8000;0.1433;10.4991;
1001.1000;0.1441;10.5040;
1001.4000;0.1457;10.5136;
1001.7000;0.1457;10.5160;
1002.0000;0.1400;10.5088;
1002.3000;0.1465;10.5209;
1002.6000;0.1441;10.5112;
1002.9000;0.1441;10.5136;
1003.2000;0.1449;10.5112;
1003.5000;0.1441;10.5160;
1003.8000;0.1441;10.5160;
1004.1000;0.1392;10.5040;
1004.4000;0.1465;10.5281;
1004.7000;0.1457;10.5281;
1005.0000;0.1425;10.5233;
1005.3000;0.1457;10.5281;
1005.6000;0.1457;10.5377;
1005.9000;0.1376;10.5281;
1006.2000;0.1465;10.5450;
1006.5000;0.1457;10.5353;
1006.8000;0.1481;10.5329;
1007.1000;0.1481;10.5233;
1007.4000;0.1457;10.5160;
1007.7000;0.1441;10.5160;
1008.0000;0.1400;10.5160;
1008.3000;0.1351;10.5064;
1008.6000;0.1457;10.5305;
1008.9000;0.1449;10.5233;
1009.2000;0.1457;10.5281;
1009.5000;0.1465;10.5233;
1009.8000;0.1465;10.5233;
1010.1000;0.1392;10.5160;
1010.4000;0.1441;10.5353;
1010.7000;0.1457;10.5329;
1011.0000;0.1465;10.5305;
1011.3000;0.1465;10.5377;
1011.6000;0.1457;10.5329;
1011.9000;0.1457;10.5329;
1012.2000;0.1449;10.5257;
1012.5000;0.1457;10.5305;
1012.8000;0.1506;10.5402;
1013.1000;0.1449;10.5233;
1013.4000;0.1449;10.5233;
1013.7000;0.1473;10.5281;
1014.0000;0.1433;10.5184;
1014.3000;0.1449;10.5184;
1014.6000;0.1457;10.5112;
1014.9000;0.1465;10.5160;
1015.2000;0.1457;10.5160;
1015.5000;0.1457;10.5160;
1015.8000;0.1441;10.5233;
1016.1000;0.1530;10.5402;
1016.4000;0.1433;10.5160;
1016.7000;0.1473;10.5257;
1017.0000;0.1449;10.5112;
1017.3000;0.1457;10.5112;
1017.6000;0.1449;10.5088;
1017.9000;0.1465;10.5112;
1018.2000;0.1449;10.5184;
1018.5000;0.1465;10.5209;
1018.8000;0.1457;10.5257;
1019.1000;0.1433;10.5184;
1019.4000;0.1457;10.5184;
1019.7000;0.1449;10.5209;
1020.0000;0.1449;10.5112;
1020.3000;0.1465;10.5136;
1020.6000;0.1449;10.5136;
1020.9000;0.1425;10.5064;
1021.2000;0.1449;10.5112;
1021.5000;0.1416;10.5016;
1021.8000;0.1441;10.5112;
1022.1000;0.1449;10.5136;
1022.4000;0.1465;10.5184;
1022.7000;0.1457;10.5112;
1023.0000;0.1449;10.5112;
1023.3000;0.1441;10.5064;
1023.6000;0.1441;10.5064;
1023.9000;0.1457;10.5088;
1024.2000;0.1433;10.5016;
1024.5000;0.1449;10.4895;
1024.8000;0.1514;10.5040;
1025.1000;0.1449;10.4943;
1025.4000;0.1425;10.4919;
1025.7000;0.1441;10.4991;
1026.0000;0.1441;10.4991;
1026.3000;0.1449;10.5040;
1026.6000;0.1441;10.4991;
1026.9000;0.1433;10.4991;
1027.2000;0.1441;10.5016;
1027.5000;0.1441;10.4967;
1027.8000;0.1416;10.4871;
1028.1000;0.1400;10.4823;
1028.4000;0.1449;10.4991;
1028.7000;0.1457;10.4967;
1029.0000;0.1416;10.4799;
1029.3000;0.1449;10.4823;
1029.6000;0.1416;10.4823;
1029.9000;0.1498;10.5064;
1030.2000;0.1473;10.4967;
1030.5000;0.1441;10.4943;
1030.8000;0.1449;10.5040;
1031.1000;0.1481;10.5064;
1031.4000;0.1449;10.4967;
1031.7000;0.1465;10.5016;
1032.0000;0.1449;10.4991;
1032.3000;0.1449;10.4895;
1032.6000;0.1449;10.4726;
1032.9000;0.1522;10.4919;
1033.2000;0.1441;10.4630;
1033.5000;0.1441;10.4654;
1033.8000;0.1498;10.4871;
1034.1000;0.1465;10.4871;
1034.4000;0.1433;10.4871;
1034.7000;0.1449;10.4823;
1035.0000;0.1465;10.4943;
1035.3000;0.1473;10.4991;
1035.6000;0.1449;10.4895;
1035.9000;0.1473;10.5040;
1036.2000;0.1408;10.4967;
1036.5000;0.1441;10.4967;
1036.8000;0.1408;10.4871;
1037.1000;0.1433;10.5040;
1037.4000;0.1457;10.5088;
1037.7000;0.1449;10.5209;
1038.0000;0.1457;10.5209;
1038.3000;0.1441;10.5209;
1038.6000;0.1416;10.5136;
1038.9000;0.1441;10.5209;
1039.2000;0.1522;10.5329;
1039.5000;0.1425;10.5160;
1039.8000;0.1433;10.5088;
1040.1000;0.1368;10.4895;
1040.4000;0.1433;10.5040;
1040.7000;0.1457;10.5040;
1041.0000;0.1343;10.4799;
1041.3000;0.1449;10.4895;
1041.6000;0.1433;10.4871;
1041.9000;0.1465;10.4967;
1042.2000;0.1327;10.4606;
1042.5000;0.1441;10.4943;
1042.8000;0.1449;10.4967;
1043.1000;0.1441;10.4967;
1043.4000;0.1498;10.5088;
1043.7000;0.1433;10.5040;
1044.0000;0.1457;10.5112;
1044.3000;0.1408;10.4919;
1044.6000;0.1457;10.5088;
1044.9000;0.1465;10.5136;
1045.2000;0.1441;10.5064;
1045.5000;0.1449;10.5064;
1045.8000;0.1449;10.5064;
1046.1000;0.1465;10.5088;
1046.4000;0.1457;10.5016;
1046.7000;0.1465;10.5112;
1047.0000;0.1449;10.5016;
1047.3000;0.1408;10.4847;
1047.6000;0.1457;10.4943;
1047.9000;0.1473;10.5016;
1048.2000;0.1384;10.4823;
1048.5000;0.1457;10.5016;
1048.8000;0.1425;10.4991;
1049.1000;0.1457;10.5136;
1049.4000;0.1457;10.5136;
1049.7000;0.1473;10.5281;
1050.0000;0.1481;10.5329;
1050.3000;0.1457;10.5281;
1050.6000;0.1457;10.5257;
1050.9000;0.1449;10.5160;
1051.2000;0.1433;10.5184;
1051.5000;0.1514;10.5257;
1051.8000;0.1457;10.5209;
1052.1000;0.1425;10.5064;
1052.4000;0.1457;10.5209;
1052.7000;0.1400;10.5064;
1053.0000;0.1392;10.5016;
1053.3000;0.1441;10.5112;
1053.6000;0.1498;10.5184;
1053.9000;0.1433;10.5088;
1054.2000;0.1433;10.5040;
1054.5000;0.1530;10.5305;
1054.8000;0.1433;10.4967;
1055.1000;0.1457;10.5040;
1055.4000;0.1473;10.5136;
1055.7000;0.1481;10.5136;
1056.0000;0.1441;10.5112;
1056.3000;0.1392;10.4871;
1056.6000;0.1457;10.4943;
1056.9000;0.1425;10.4799;
1057.2000;0.1522;10.5064;
1057.5000;0.1449;10.4895;
1057.8000;0.1457;10.4967;
1058.1000;0.1441;10.4919;
1058.4000;0.1425;10.4967;
1058.7000;0.1473;10.5112;
1059.0000;0.1441;10.4991;
1059.3000;0.1457;10.5040;
1059.6000;0.1465;10.4991;
1059.9000;0.1384;10.4823;
1060.2000;0.1490;10.5112;
1060.5000;0.1473;10.5040;
1060.8000;0.1425;10.4774;
1061.1000;0.1473;10.4991;
1061.4000;0.1408;10.4847;
1061.7000;0.1449;10.5064;
1062.0000;0.1449;10.4991;
1062.3000;0.1441;10.4943;
1062.6000;0.1441;10.4871;
1062.9000;0.1457;10.4895;
1063.2000;0.1481;10.4943;
1063.5000;0.1457;10.4895;
1063.8000;0.1449;10.4847;
1064.1000;0.1433;10.4847;
1064.4000;0.1449;10.4847;
1064.7000;0.1449;10.4799;
1065.0000;0.1408;10.4823;
1065.3000;0.1465;10.4991;
1065.6000;0.1449;10.4823;
1065.9000;0.1465;10.4847;
1066.2000;0.1449;10.4847;
1066.5000;0.1433;10.4799;
1066.8000;0.1449;10.4919;
1067.1000;0.1449;10.4895;
1067.4000;0.1441;10.4895;
1067.7000;0.1457;10.4823;
1068.0000;0.1449;10.4774;
1068.3000;0.1449;10.4678;
1068.6000;0.1449;10.4630;
1068.9000;0.1449;10.4630;
1069.2000;0.1441;10.4702;
1069.5000;0.1441;10.4774;
1069.8000;0.1449;10.4823;
1070.1000;0.1449;10.4967;
1070.4000;0.1449;10.4967;
1070.7000;0.1441;10.4919;
1071.0000;0.1441;10.4943;
1071.3000;0.1449;10.4919;
1071.6000;0.1441;10.4991;
1071.9000;0.1433;10.5016;
1072.2000;0.1473;10.5160;
1072.5000;0.1449;10.5088;
1072.8000;0.1416;10.5040;
1073.1000;0.1441;10.5160;
1073.4000;0.1441;10.5184;
1073.7000;0.1449;10.5184;
1074.0000;0.1449;10.5160;
1074.3000;0.1433;10.5160;
1074.6000;0.1457;10.5233;
1074.9000;0.1376;10.4991;
1075.2000;0.1441;10.5112;
1075.5000;0.1490;10.5257;
1075.8000;0.1465;10.5136;
1076.1000;0.1490;10.5257;
1076.4000;0.1457;10.5184;
1076.7000;0.1473;10.5233;
1077.0000;0.1457;10.5160;
1077.3000;0.1481;10.5136;
1077.6000;0.1376;10.4943;
1077.9000;0.1441;10.5184;
1078.2000;0.1433;10.5064;
1078.5000;0.1490;10.5233;
1078.8000;0.1425;10.5112;
1079.1000;0.1376;10.4943;
1079.4000;0.1522;10.5329;
1079.7000;0.1441;10.5184;
1080.0000;0.1441;10.5257;
1080.3000;0.1457;10.5281;
1080.6000;0.1449;10.5209;
1080.9000;0.1490;10.5281;
1081.2000;0.1498;10.5426;
1081.5000;0.1473;10.5377;
1081.8000;0.1416;10.5088;
1082.1000;0.1465;10.5160;
1082.4000;0.1490;10.5064;
1082.7000;0.1425;10.4919;
1083.0000;0.1433;10.4991;
1083.3000;0.1457;10.5088;
1083.6000;0.1473;10.5040;
1083.9000;0.1433;10.4919;
1084.2000;0.1457;10.4991;
1084.5000;0.1449;10.5064;
1084.8000;0.1506;10.5209;
1085.1000;0.1449;10.5064;
1085.4000;0.1457;10.5136;
1085.7000;0.1457;10.5160;
1086.0000;0.1457;10.5064;
1086.3000;0.1457;10.5064;
1086.6000;0.1465;10.5112;
1086.9000;0.1433;10.5064;
1087.2000;0.1457;10.5160;
1087.5000;0.1449;10.5184;
1087.8000;0.1473;10.5257;
1088.1000;0.1449;10.5209;
1088.4000;0.1465;10.5233;
1088.7000;0.1441;10.5088;
1089.0000;0.1449;10.5064;
1089.3000;0.1449;10.5016;
1089.6000;0.1449;10.5088;
1089.9000;0.1433;10.4991;
1090.2000;0.1465;10.5064;
1090.5000;0.1465;10.5016;
1090.8000;0.1457;10.4967;
1091.1000;0.1473;10.5064;
1091.4000;0.1506;10.5112;
1091.7000;0.1457;10.4967;
1092.0000;0.1449;10.4895;
1092.3000;0.1457;10.4943;
1092.6000;0.1433;10.4847;
1092.9000;0.1449;10.4847;
1093.2000;0.1425;10.4774;
1093.5000;0.1441;10.4871;
1093.8000;0.1481;10.5040;
1094.1000;0.1457;10.5016;
1094.4000;0.1465;10.4991;
1094.7000;0.1441;10.4919;
1095.0000;0.1465;10.5064;
1095.3000;0.1449;10.5112;
1095.6000;0.1465;10.5160;
1095.9000;0.1449;10.5184;
1096.2000;0.1441;10.5184;
1096.5000;0.1425;10.5088;
1096.8000;0.1465;10.5112;
1097.1000;0.1449;10.5088;
1097.4000;0.1416;10.5064;
1097.7000;0.1457;10.5064;
1098.0000;0.1465;10.4991;
1098.3000;0.1457;10.4967;
1098.6000;0.1441;10.5016;
1098.9000;0.1351;10.4871;
1099.2000;0.1441;10.5040;
1099.5000;0.1441;10.5016;
1099.8000;0.1457;10.4991;
1100.1000;0.1449;10.4991;
1100.4000;0.1343;10.4750;
1100.7000;0.1457;10.5040;
1101.0000;0.1457;10.5136;
1101.3000;0.1425;10.5088;
1101.6000;0.1441;10.5088;
1101.9000;0.1514;10.5353;
1102.2000;0.1465;10.5064;
1102.5000;0.1457;10.5088;
1102.8000;0.1433;10.5064;
1103.1000;0.1441;10.5088;
1103.4000;0.1465;10.5160;
1103.7000;0.1441;10.5088;
1104.0000;0.1555;10.5329;
1104.3000;0.1449;10.5112;
1104.6000;0.1465;10.5136;
1104.9000;0.1416;10.5016;
1105.2000;0.1457;10.5064;
1105.5000;0.1465;10.5064;
1105.8000;0.1441;10.4991;
1106.1000;0.1449;10.4991;
1106.4000;0.1538;10.5184;
1106.7000;0.1400;10.4702;
1107.0000;0.1449;10.4823;
1107.3000;0.1498;10.4991;
1107.6000;0.1457;10.4871;
1107.9000;0.1400;10.4823;
1108.2000;0.1449;10.4943;
1108.5000;0.1433;10.4919;
1108.8000;0.1441;10.5040;
1109.1000;0.1433;10.5040;
1109.4000;0.1457;10.5016;
1109.7000;0.1441;10.4967;
1110.0000;0.1433;10.4991;
1110.3000;0.1449;10.5064;
1110.6000;0.1441;10.5160;
1110.9000;0.1465;10.5112;
1111.2000;0.1433;10.5088;
1111.5000;0.1425;10.4991;
1111.8000;0.1465;10.5016;
1112.1000;0.1457;10.4871;
1112.4000;0.1441;10.4919;
1112.7000;0.1433;10.4943;
1113.0000;0.1449;10.5016;
1113.3000;0.1457;10.5112;
1113.6000;0.1449;10.5184;
1113.9000;0.1457;10.5064;
1114.2000;0.1441;10.5064;
1114.5000;0.1433;10.5040;
1114.8000;0.1441;10.5064;
1115.1000;0.1416;10.5064;
1115.4000;0.1441;10.5064;
1115.7000;0.1457;10.5040;
1116.0000;0.1449;10.5064;
1116.3000;0.1457;10.5040;
1116.6000;0.1449;10.5016;
1116.9000;0.1449;10.4991;
1117.2000;0.1449;10.4943;
1117.5000;0.1457;10.4919;
1117.8000;0.1465;10.4991;
1118.1000;0.1473;10.5040;
1118.4000;0.1449;10.5112;
1118.7000;0.1449;10.5064;
1119.0000;0.1441;10.4991;
1119.3000;0.1457;10.5016;
1119.6000;0.1441;10.5016;
1119.9000;0.1481;10.5112;
1120.2000;0.1343;10.4823;
1120.5000;0.1449;10.5184;
1120.8000;0.1457;10.5233;
1121.1000;0.1473;10.5257;
1121.4000;0.1449;10.5136;
1121.7000;0.1449;10.5136;
1122.0000;0.1481;10.5184;
1122.3000;0.1449;10.5112;
1122.6000;0.1433;10.4967;
1122.9000;0.1441;10.4967;
1123.2000;0.1449;10.4967;
1123.5000;0.1457;10.5040;
1123.8000;0.1425;10.4991;
1124.1000;0.1441;10.5064;
1124.4000;0.1457;10.5016;
1124.7000;0.1400;10.4823;
1125.0000;0.1441;10.5040;
1125.3000;0.1441;10.5040;
1125.6000;0.1555;10.5305;
1125.9000;0.1449;10.4991;
1126.2000;0.1449;10.4919;
1126.5000;0.1457;10.4943;
1126.8000;0.1465;10.4967;
1127.1000;0.1449;10.4991;
1127.4000;0.1490;10.5136;
1127.7000;0.1449;10.5040;
1128.0000;0.1449;10.4967;
1128.3000;0.1473;10.5088;
1128.6000;0.1441;10.4991;
1128.9000;0.1449;10.5040;
1129.2000;0.1441;10.4967;
1129.5000;0.1441;10.4919;
1129.8000;0.1490;10.4967;
1130.1000;0.1425;10.4799;
1130.4000;0.1416;10.4847;
1130.7000;0.1408;10.4823;
1131.0000;0.1416;10.4895;
1131.3000;0.1449;10.4895;
1131.6000;0.1449;10.4895;
1131.9000;0.1457;10.4919;
1132.2000;0.1481;10.4991;
1132.5000;0.1449;10.4991;
1132.8000;0.1506;10.5160;
1133.1000;0.1522;10.5233;
1133.4000;0.1490;10.5112;
1133.7000;0.1481;10.5160;
1134.0000;0.1441;10.5233;
1134.3000;0.1449;10.5233;
1134.6000;0.1457;10.5281;
1134.9000;0.1449;10.5209;
1135.2000;0.1465;10.5233;
1135.5000;0.1449;10.5160;
1135.8000;0.1449;10.5088;
1136.1000;0.1449;10.5184;
1136.4000;0.1441;10.5136;
1136.7000;0.1441;10.5160;
1137.0000;0.1400;10.5088;
1137.3000;0.1425;10.5160;
1137.6000;0.1473;10.5377;
1137.9000;0.1425;10.5209;
1138.2000;0.1563;10.5474;
1138.5000;0.1465;10.5136;
1138.8000;0.1465;10.5184;
1139.1000;0.1457;10.5136;
1139.4000;0.1490;10.5184;
1139.7000;0.1481;10.5233;
1140.0000;0.1449;10.5040;
1140.3000;0.1457;10.5040;
1140.6000;0.1441;10.5040;
1140.9000;0.1433;10.5016;
1141.2000;0.1457;10.4991;
1141.5000;0.1457;10.5064;
1141.8000;0.1449;10.5016;
1142.1000;0.1465;10.5016;
1142.4000;0.1449;10.5064;
1142.7000;0.1449;10.5064;
1143.0000;0.1465;10.5088;
1143.3000;0.1465;10.5088;
1143.6000;0.1465;10.5040;
1143.9000;0.1449;10.5064;
1144.2000;0.1441;10.5040;
1144.5000;0.1425;10.4967;
1144.8000;0.1416;10.4943;
1145.1000;0.1441;10.5112;
1145.4000;0.1449;10.5184;
1145.7000;0.1441;10.5209;
1146.0000;0.1473;10.5160;
1146.3000;0.1441;10.5040;
1146.6000;0.1441;10.5040;
1146.9000;0.1457;10.5088;
1147.2000;0.1449;10.5064;
1147.5000;0.1465;10.4991;
1147.8000;0.1457;10.4823;
1148.1000;0.1465;10.4847;
1148.4000;0.1465;10.4847;
1148.7000;0.1473;10.4799;
1149.0000;0.1465;10.4750;
1149.3000;0.1465;10.4726;
1149.6000;0.1465;10.4774;
1149.9000;0.1449;10.4750;
1150.2000;0.1490;10.4799;
1150.5000;0.1449;10.4702;
1150.8000;0.1425;10.4678;
1151.1000;0.1449;10.4799;
1151.4000;0.1457;10.4774;
1151.7000;0.1465;10.4871;
1152.0000;0.1449;10.4847;
1152.3000;0.1441;10.4726;
1152.6000;0.1465;10.4943;
1152.9000;0.1384;10.4750;
1153.2000;0.1481;10.4991;
1153.5000;0.1441;10.4823;
1153.8000;0.1335;10.4461;
1154.1000;0.1449;10.4750;
1154.4000;0.1441;10.4630;
1154.7000;0.1465;10.4702;
1155.0000;0.1449;10.4823;
1155.3000;0.1416;10.4799;
1155.6000;0.1416;10.4799;
1155.9000;0.1441;10.4823;
1156.2000;0.1449;10.4847;
1156.5000;0.1441;10.4847;
1156.8000;0.1449;10.4823;
1157.1000;0.1449;10.4799;
1157.4000;0.1457;10.4823;
1157.7000;0.1441;10.4895;
1158.0000;0.1449;10.4919;
1158.3000;0.1457;10.4919;
1158.6000;0.1449;10.4847;
1158.9000;0.1457;10.4991;
1159.2000;0.1449;10.5040;
1159.5000;0.1449;10.5016;
1159.8000;0.1433;10.5016;
1160.1000;0.1449;10.5040;
1160.4000;0.1449;10.5088;
1160.7000;0.1441;10.4991;
1161.0000;0.1457;10.4943;
1161.3000;0.1457;10.4847;
1161.6000;0.1530;10.5088;
1161.9000;0.1449;10.4823;
1162.2000;0.1457;10.4774;
1162.5000;0.1465;10.4823;
1162.8000;0.1465;10.4871;
1163.1000;0.1481;10.4919;
1163.4000;0.1465;10.4799;
1163.7000;0.1457;10.4799;
1164.0000;0.1481;10.4847;
1164.3000;0.1449;10.4799;
1164.6000;0.1465;10.4799;
1164.9000;0.1457;10.4702;
1165.2000;0.1457;10.4654;
1165.5000;0.1441;10.4654;
1165.8000;0.1425;10.4630;
1166.1000;0.1441;10.4702;
1166.4000;0.1433;10.4606;
1166.7000;0.1481;10.4750;
1167.0000;0.1449;10.4702;
1167.3000;0.1433;10.4654;
1167.6000;0.1473;10.4799;
1167.9000;0.1457;10.4847;
1168.2000;0.1433;10.4726;
1168.5000;0.1498;10.4847;
1168.8000;0.1473;10.4750;
1169.1000;0.1465;10.4774;
1169.4000;0.1457;10.4726;
1169.7000;0.1473;10.4726;
1170.0000;0.1449;10.4654;
1170.3000;0.1449;10.4702;
1170.6000;0.1457;10.4654;
1170.9000;0.1449;10.4630;
1171.2000;0.1425;10.4581;
1171.5000;0.1465;10.4630;
1171.8000;0.1441;10.4630;
1172.1000;0.1408;10.4557;
1172.4000;0.1457;10.4606;
1172.7000;0.1449;10.4630;
1173.0000;0.1433;10.4533;
1173.3000;0.1441;10.4654;
1173.6000;0.1457;10.4702;
1173.9000;0.1465;10.4654;
1174.2000;0.1498;10.4702;
1174.5000;0.1465;10.4630;
1174.8000;0.1416;10.4461;
1175.1000;0.1433;10.4533;
1175.4000;0.1449;10.4630;
1175.7000;0.1457;10.4654;
1176.0000;0.1425;10.4557;
1176.3000;0.1433;10.4581;
1176.6000;0.1457;10.4630;
1176.9000;0.1449;10.4606;
1177.2000;0.1449;10.4557;
1177.5000;0.1433;10.4606;
1177.8000;0.1327;10.4340;
1178.1000;0.1449;10.4702;
1178.4000;0.1416;10.4726;
1178.7000;0.1441;10.4726;
1179.0000;0.1441;10.4750;
1179.3000;0.1441;10.4630;
1179.6000;0.1449;10.4654;
1179.9000;0.1473;10.4678;
1180.2000;0.1473;10.4581;
1180.5000;0.1449;10.4533;
1180.8000;0.1433;10.4557;
1181.1000;0.1441;10.4581;
1181.4000;0.1441;10.4678;
1181.7000;0.1425;10.4726;
1182.0000;0.1425;10.4750;
1182.3000;0.1449;10.4799;
1182.6000;0.1368;10.4533;
1182.9000;0.1441;10.4678;
1183.2000;0.1449;10.4678;
1183.5000;0.1538;10.4919;
1183.8000;0.1449;10.4678;
1184.1000;0.1441;10.4678;
1184.4000;0.1449;10.4678;
1184.7000;0.1465;10.4678;
1185.0000;0.1457;10.4630;
1185.3000;0.1441;10.4606;
1185.6000;0.1457;10.4581;
1185.9000;0.1465;10.4581;
1186.2000;0.1441;10.4509;
1186.5000;0.1441;10.4557;
1186.8000;0.1441;10.4485;
1187.1000;0.1465;10.4581;
1187.4000;0.1441;10.4581;
1187.7000;0.1449;10.4557;
1188.0000;0.1441;10.4581;
1188.3000;0.1473;10.4750;
1188.6000;0.1457;10.4799;
1188.9000;0.1457;10.4799;
1189.2000;0.1465;10.4774;
1189.5000;0.1408;10.4654;
1189.8000;0.1449;10.4702;
1190.1000;0.1465;10.4678;
1190.4000;0.1449;10.4630;
1190.7000;0.1465;10.4726;
1191.0000;0.1400;10.4606;
1191.3000;0.1465;10.4799;
1191.6000;0.1457;10.4823;
1191.9000;0.1441;10.4847;
1192.2000;0.1473;10.4967;
1192.5000;0.1441;10.4799;
1192.8000;0.1449;10.4799;
1193.1000;0.1441;10.4774;
1193.4000;0.1433;10.4750;
1193.7000;0.1465;10.4750;
1194.0000;0.1368;10.4461;
1194.3000;0.1441;10.4702;
1194.6000;0.1441;10.4750;
1194.9000;0.1490;10.4750;
1195.2000;0.1433;10.4557;
1195.5000;0.1441;10.4533;
1195.8000;0.1441;10.4485;
1196.1000;0.1465;10.4509;
1196.4000;0.1465;10.4485;
1196.7000;0.1441;10.4533;
1197.0000;0.1457;10.4581;
1197.3000;0.1457;10.4581;
1197.6000;0.1465;10.4702;
1197.9000;0.1441;10.4557;
1198.2000;0.1441;10.4630;
1198.5000;0.1449;10.4678;
1198.8000;0.1384;10.4340;
1199.1000;0.1530;10.4750;
1199.4000;0.1441;10.4581;
1199.7000;0.1449;10.4630;
1200.0000;0.1449;10.4750;
1200.3000;0.1433;10.4678;
1200.6000;0.1449;10.4702;
1200.9000;0.1400;10.4557;
1201.2000;0.1335;10.4509;
1201.5000;0.1441;10.4726;
1201.8000;0.1473;10.4895;
1202.1000;0.1441;10.4823;
1202.4000;0.1425;10.4774;
1202.7000;0.1433;10.4678;
1203.0000;0.1457;10.4726;
1203.3000;0.1449;10.4799;
1203.6000;0.1425;10.4726;
1203.9000;0.1465;10.4823;
1204.2000;0.1441;10.4702;
1204.5000;0.1441;10.4799;
1204.8000;0.1457;10.4799;
1205.1000;0.1473;10.4823;
1205.4000;0.1416;10.4750;
1205.7000;0.1441;10.4750;
1206.0000;0.1433;10.4726;
1206.3000;0.1441;10.4654;
1206.6000;0.1408;10.4533;
1206.9000;0.1457;10.4678;
1207.2000;0.1400;10.4461;
1207.5000;0.1441;10.4654;
1207.8000;0.1457;10.4702;
1208.1000;0.1359;10.4461;
1208.4000;0.1449;10.4750;
1208.7000;0.1457;10.4774;
1209.0000;0.1392;10.4509;
1209.3000;0.1433;10.4726;
1209.6000;0.1473;10.4678;
1209.9000;0.1457;10.4581;
1210.2000;0.1449;10.4630;
1210.5000;0.1433;10.4630;
1210.8000;0.1449;10.4678;
1211.1000;0.1449;10.4726;
1211.4000;0.1457;10.4726;
1211.7000;0.1465;10.4726;
1212.0000;0.1457;10.4702;
1212.3000;0.1465;10.4750;
1212.6000;0.1441;10.4654;
1212.9000;0.1449;10.4606;
1213.2000;0.1441;10.4533;
1213.5000;0.1441;10.4678;
1213.8000;0.1449;10.4750;
1214.1000;0.1465;10.4799;
1214.4000;0.1449;10.4799;
1214.7000;0.1481;10.4895;
1215.0000;0.1433;10.4581;
1215.3000;0.1465;10.4678;
1215.6000;0.1465;10.4630;
1215.9000;0.1449;10.4533;
1216.2000;0.1465;10.4557;
1216.5000;0.1473;10.4654;
1216.8000;0.1408;10.4606;
1217.1000;0.1433;10.4702;
1217.4000;0.1457;10.4750;
1217.7000;0.1416;10.4702;
1218.0000;0.1490;10.4919;
1218.3000;0.1449;10.4774;
1218.6000;0.1376;10.4557;
1218.9000;0.1368;10.4533;
1219.2000;0.1481;10.4702;
1219.5000;0.1457;10.4606;
1219.8000;0.1441;10.4630;
1220.1000;0.1481;10.4702;
1220.4000;0.1457;10.4678;
1220.7000;0.1433;10.4654;
1221.0000;0.1433;10.4630;
1221.3000;0.1457;10.4702;
1221.6000;0.1457;10.4678;
1221.9000;0.1441;10.4630;
1222.2000;0.1481;10.4726;
1222.5000;0.1449;10.4654;
1222.8000;0.1441;10.4750;
1223.1000;0.1408;10.4606;
1223.4000;0.1433;10.4581;
1223.7000;0.1465;10.4630;
1224.0000;0.1457;10.4654;
1224.3000;0.1433;10.4702;
1224.6000;0.1449;10.4581;
1224.9000;0.1335;10.4316;
1225.2000;0.1433;10.4606;
1225.5000;0.1457;10.4606;
1225.8000;0.1457;10.4702;
1226.1000;0.1457;10.4799;
1226.4000;0.1449;10.4726;
1226.7000;0.1449;10.4774;
1227.0000;0.1457;10.4895;
1227.3000;0.1441;10.4847;
1227.6000;0.1441;10.4774;
1227.9000;0.1457;10.4750;
1228.2000;0.1441;10.4823;
1228.5000;0.1433;10.4823;
1228.8000;0.1408;10.4726;
1229.1000;0.1449;10.4847;
1229.4000;0.1457;10.4847;
1229.7000;0.1457;10.4919;
1230.0000;0.1416;10.4871;
1230.3000;0.1441;10.4919;
1230.6000;0.1449;10.4919;
1230.9000;0.1457;10.5016;
1231.2000;0.1441;10.4895;
1231.5000;0.1457;10.4943;
1231.8000;0.1481;10.4967;
1232.1000;0.1441;10.4847;
1232.4000;0.1465;10.4847;
1232.7000;0.1441;10.4871;
1233.0000;0.1547;10.5112;
1233.3000;0.1449;10.4847;
1233.6000;0.1457;10.4895;
1233.9000;0.1457;10.4847;
1234.2000;0.1416;10.4750;
1234.5000;0.1465;10.4895;
1234.8000;0.1457;10.4871;
1235.1000;0.1441;10.4919;
1235.4000;0.1473;10.5112;
1235.7000;0.1441;10.5040;
1236.0000;0.1465;10.5160;
1236.3000;0.1457;10.5160;
1236.6000;0.1449;10.5088;
1236.9000;0.1449;10.5088;
1237.2000;0.1433;10.5040;
1237.5000;0.1441;10.5064;
1237.8000;0.1441;10.5064;
1238.1000;0.1449;10.5088;
1238.4000;0.1449;10.5088;
1238.7000;0.1433;10.5064;
1239.0000;0.1449;10.5088;
1239.3000;0.1457;10.4991;
1239.6000;0.1425;10.4967;
1239.9000;0.1392;10.4919;
1240.2000;0.1457;10.5016;
1240.5000;0.1441;10.4919;
1240.8000;0.1481;10.5040;
1241.1000;0.1441;10.4967;
1241.4000;0.1433;10.4919;
1241.7000;0.1473;10.4967;
1242.0000;0.1441;10.4895;
1242.3000;0.1490;10.4919;
1242.6000;0.1449;10.4726;
1242.9000;0.1392;10.4630;
1243.2000;0.1457;10.4847;
1243.5000;0.1465;10.4871;
1243.8000;0.1473;10.5016;
1244.1000;0.1457;10.4919;
1244.4000;0.1441;10.4799;
1244.7000;0.1400;10.4726;
1245.0000;0.1457;10.4919;
1245.3000;0.1465;10.4967;
1245.6000;0.1465;10.4895;
1245.9000;0.1425;10.4823;
1246.2000;0.1416;10.4726;
1246.5000;0.1449;10.4799;
1246.8000;0.1441;10.4799;
1247.1000;0.1481;10.4823;
1247.4000;0.1441;10.4750;
1247.7000;0.1368;10.4557;
1248.0000;0.1457;10.4871;
1248.3000;0.1457;10.4847;
1248.6000;0.1457;10.4871;
1248.9000;0.1457;10.4967;
1249.2000;0.1441;10.5064;
1249.5000;0.1465;10.5136;
1249.8000;0.1433;10.5040;
1250.1000;0.1465;10.5064;
1250.4000;0.1481;10.5016;
1250.7000;0.1425;10.4895;
1251.0000;0.1457;10.4967;
1251.3000;0.1441;10.5040;
1251.6000;0.1433;10.5040;
1251.9000;0.1481;10.5064;
1252.2000;0.1449;10.4967;
1252.5000;0.1449;10.5016;
1252.8000;0.1465;10.5064;
1253.1000;0.1425;10.4991;
1253.4000;0.1433;10.5064;
1253.7000;0.1465;10.5040;
1254.0000;0.1392;10.4847;
1254.3000;0.1465;10.5040;
1254.6000;0.1449;10.4991;
1254.9000;0.1457;10.5016;
1255.2000;0.1392;10.4943;
1255.5000;0.1457;10.4991;
1255.8000;0.1441;10.4895;
1256.1000;0.1457;10.4919;
1256.4000;0.1457;10.4871;
1256.7000;0.1457;10.4919;
1257.0000;0.1457;10.4991;
1257.3000;0.1449;10.4943;
1257.6000;0.1449;10.4799;
1257.9000;0.1449;10.4895;
1258.2000;0.1457;10.4991;
1258.5000;0.1473;10.5016;
1258.8000;0.1473;10.5016;
1259.1000;0.1441;10.5016;
1259.4000;0.1465;10.4991;
1259.7000;0.1425;10.4871;
1260.0000;0.1449;10.4919;
1260.3000;0.1457;10.5088;
1260.6000;0.1449;10.5040;
1260.9000;0.1465;10.5040;
1261.2000;0.1457;10.5040;
1261.5000;0.1457;10.5016;
1261.8000;0.1400;10.4702;
1262.1000;0.1465;10.4919;
1262.4000;0.1449;10.4871;
1262.7000;0.1457;10.4823;
1263.0000;0.1449;10.4726;
1263.3000;0.1449;10.4871;
1263.6000;0.1425;10.4799;
1263.9000;0.1481;10.4871;
1264.2000;0.1441;10.4799;
1264.5000;0.1449;10.4847;
1264.8000;0.1359;10.4702;
1265.1000;0.1490;10.5016;
1265.4000;0.1457;10.4943;
1265.7000;0.1457;10.4895;
1266.0000;0.1449;10.4943;
1266.3000;0.1449;10.5040;
1266.6000;0.1449;10.4991;
1266.9000;0.1441;10.4847;
1267.2000;0.1441;10.4823;
1267.5000;0.1465;10.4871;
1267.8000;0.1506;10.4991;
1268.1000;0.1441;10.4895;
1268.4000;0.1481;10.4943;
1268.7000;0.1449;10.4847;
1269.0000;0.1449;10.4847;
1269.3000;0.1506;10.5016;
1269.6000;0.1441;10.4895;
1269.9000;0.1473;10.5040;
1270.2000;0.1481;10.5064;
1270.5000;0.1449;10.5016;
1270.8000;0.1449;10.4991;
1271.1000;0.1449;10.5088;
1271.4000;0.1416;10.4991;
1271.7000;0.1408;10.4799;
1272.0000;0.1441;10.4895;
1272.3000;0.1376;10.4606;
1272.6000;0.1449;10.4750;
1272.9000;0.1457;10.4726;
1273.2000;0.1441;10.4774;
1273.5000;0.1449;10.4774;
1273.8000;0.1441;10.4750;
1274.1000;0.1441;10.4847;
1274.4000;0.1465;10.4943;
1274.7000;0.1457;10.4895;
1275.0000;0.1457;10.4871;
1275.3000;0.1473;10.4823;
1275.6000;0.1449;10.4774;
1275.9000;0.1416;10.4750;
1276.2000;0.1457;10.4774;
1276.5000;0.1465;10.4799;
1276.8000;0.1441;10.4895;
1277.1000;0.1441;10.4871;
1277.4000;0.1490;10.4991;
1277.7000;0.1457;10.4871;
1278.0000;0.1473;10.4871;
1278.3000;0.1481;10.4895;
1278.6000;0.1425;10.4726;
1278.9000;0.1457;10.4799;
1279.2000;0.1441;10.4799;
1279.5000;0.1481;10.4871;
1279.8000;0.1465;10.4895;
1280.1000;0.1441;10.4847;
1280.4000;0.1465;10.4823;
1280.7000;0.1433;10.4774;
1281.0000;0.1449;10.4823;
1281.3000;0.1359;10.4606;
1281.6000;0.1457;10.4799;
1281.9000;0.1457;10.4847;
1282.2000;0.1433;10.4750;
1282.5000;0.1441;10.4750;
1282.8000;0.1465;10.4871;
1283.1000;0.1433;10.4774;
1283.4000;0.1433;10.4726;
1283.7000;0.1465;10.4799;
1284.0000;0.1433;10.4726;
1284.3000;0.1425;10.4654;
1284.6000;0.1449;10.4630;
1284.9000;0.1433;10.4581;
1285.2000;0.1465;10.4702;
1285.5000;0.1441;10.4630;
1285.8000;0.1457;10.4750;
1286.1000;0.1449;10.4726;
1286.4000;0.1522;10.4895;
1286.7000;0.1490;10.4823;
1287.0000;0.1457;10.4871;
1287.3000;0.1465;10.4847;
1287.6000;0.1425;10.4678;
1287.9000;0.1473;10.4799;
1288.2000;0.1465;10.4847;
1288.5000;0.1449;10.4847;
1288.8000;0.1425;10.4799;
1289.1000;0.1449;10.4823;
1289.4000;0.1449;10.4774;
1289.7000;0.1457;10.4726;
1290.0000;0.1449;10.4702;
1290.3000;0.1530;10.4895;
1290.6000;0.1449;10.4678;
1290.9000;0.1457;10.4678;
1291.2000;0.1571;10.4967;
1291.5000;0.1425;10.4654;
1291.8000;0.1449;10.4702;
1292.1000;0.1449;10.4726;
1292.4000;0.1449;10.4702;
1292.7000;0.1490;10.4799;
1293.0000;0.1457;10.4726;
1293.3000;0.1457;10.4678;
1293.6000;0.1433;10.4606;
1293.9000;0.1416;10.4557;
1294.2000;0.1571;10.4895;
1294.5000;0.1457;10.4581;
1294.8000;0.1392;10.4461;
1295.1000;0.1441;10.4630;
1295.4000;0.1433;10.4678;
1295.7000;0.1449;10.4823;
1296.0000;0.1473;10.4726;
1296.3000;0.1449;10.4726;
1296.6000;0.1449;10.4678;
1296.9000;0.1473;10.4750;
1297.2000;0.1441;10.4654;
1297.5000;0.1441;10.4557;
1297.8000;0.1465;10.4654;
1298.1000;0.1465;10.4702;
1298.4000;0.1457;10.4750;
1298.7000;0.1433;10.4630;
1299.0000;0.1433;10.4630;
1299.3000;0.1433;10.4533;
1299.6000;0.1465;10.4606;
1299.9000;0.1449;10.4678;
1300.2000;0.1457;10.4750;
1300.5000;0.1506;10.4847;
1300.8000;0.1465;10.4750;
1301.1000;0.1457;10.4774;
1301.4000;0.1368;10.4485;
1301.7000;0.1449;10.4702;
1302.0000;0.1449;10.4678;
1302.3000;0.1449;10.4654;
1302.6000;0.1465;10.4702;
1302.9000;0.1457;10.4702;
1303.2000;0.1449;10.4750;
1303.5000;0.1506;10.4943;
1303.8000;0.1441;10.4847;
1304.1000;0.1449;10.4871;
1304.4000;0.1433;10.4823;
1304.7000;0.1457;10.4823;
1305.0000;0.1449;10.4750;
1305.3000;0.1449;10.4774;
1305.6000;0.1433;10.4726;
1305.9000;0.1506;10.4943;
1306.2000;0.1465;10.4847;
1306.5000;0.1425;10.4823;
1306.8000;0.1449;10.4799;
1307.1000;0.1343;10.4581;
1307.4000;0.1465;10.4895;
1307.7000;0.1449;10.4847;
1308.0000;0.1441;10.4823;
1308.3000;0.1384;10.4799;
1308.6000;0.1465;10.4967;
1308.9000;0.1457;10.4967;
1309.2000;0.1425;10.4847;
1309.5000;0.1457;10.4991;
1309.8000;0.1498;10.5088;
1310.1000;0.1457;10.5016;
1310.4000;0.1449;10.5064;
1310.7000;0.1449;10.5040;
1311.0000;0.1498;10.5112;
1311.3000;0.1481;10.5088;
1311.6000;0.1449;10.5016;
1311.9000;0.1465;10.4991;
1312.2000;0.1441;10.4943;
1312.5000;0.1473;10.5040;
1312.8000;0.1457;10.4991;
1313.1000;0.1441;10.5064;
1313.4000;0.1457;10.5088;
1313.7000;0.1449;10.5112;
1314.0000;0.1449;10.5016;
1314.3000;0.1425;10.4895;
1314.6000;0.1449;10.4847;
1314.9000;0.1408;10.4774;
1315.2000;0.1465;10.4823;
1315.5000;0.1465;10.4799;
1315.8000;0.1457;10.4847;
1316.1000;0.1457;10.4871;
1316.4000;0.1465;10.4967;
1316.7000;0.1441;10.4943;
1317.0000;0.1433;10.4943;
1317.3000;0.1433;10.4823;
1317.6000;0.1449;10.4895;
1317.9000;0.1457;10.4919;
1318.2000;0.1449;10.4967;
1318.5000;0.1481;10.5040;
1318.8000;0.1441;10.4943;
1319.1000;0.1433;10.4991;
1319.4000;0.1433;10.4967;
1319.7000;0.1457;10.4967;
1320.0000;0.1449;10.4967;
1320.3000;0.1465;10.4991;
1320.6000;0.1473;10.5040;
1320.9000;0.1441;10.5040;
1321.2000;0.1441;10.4991;
1321.5000;0.1481;10.5016;
1321.8000;0.1473;10.4991;
1322.1000;0.1457;10.4919;
1322.4000;0.1457;10.4895;
1322.7000;0.1441;10.4823;
1323.0000;0.1457;10.4943;
1323.3000;0.1498;10.5040;
1323.6000;0.1449;10.4895;
1323.9000;0.1465;10.4871;
1324.2000;0.1449;10.4871;
1324.5000;0.1449;10.4799;
1324.8000;0.1465;10.4847;
1325.1000;0.1449;10.4847;
1325.4000;0.1465;10.4847;
1325.7000;0.1449;10.4750;
1326.0000;0.1473;10.4847;
1326.3000;0.1449;10.4774;
1326.6000;0.1457;10.4750;
1326.9000;0.1473;10.4750;
1327.2000;0.1400;10.4581;
1327.5000;0.1457;10.4654;
1327.8000;0.1465;10.4702;
1328.1000;0.1457;10.4630;
1328.4000;0.1441;10.4630;
1328.7000;0.1473;10.4774;
1329.0000;0.1433;10.4702;
1329.3000;0.1449;10.4678;
1329.6000;0.1465;10.4678;
1329.9000;0.1425;10.4678;
1330.2000;0.1465;10.4871;
1330.5000;0.1433;10.4847;
1330.8000;0.1481;10.4967;
1331.1000;0.1449;10.4823;
1331.4000;0.1449;10.4895;
1331.7000;0.1465;10.4919;
1332.0000;0.1465;10.4919;
1332.3000;0.1465;10.5016;
1332.6000;0.1433;10.4919;
1332.9000;0.1425;10.4943;
1333.2000;0.1457;10.4991;
1333.5000;0.1368;10.4702;
1333.8000;0.1425;10.4823;
1334.1000;0.1481;10.4967;
1334.4000;0.1465;10.4871;
1334.7000;0.1408;10.4823;
1335.0000;0.1384;10.4726;
1335.3000;0.1457;10.4871;
1335.6000;0.1465;10.4967;
1335.9000;0.1457;10.4967;
1336.2000;0.1465;10.4967;
1336.5000;0.1433;10.4871;
1336.8000;0.1465;10.4967;
1337.1000;0.1441;10.4895;
1337.4000;0.1449;10.4919;
1337.7000;0.1457;10.4943;
1338.0000;0.1481;10.5040;
1338.3000;0.1457;10.4967;
1338.6000;0.1465;10.4991;
1338.9000;0.1433;10.4895;
1339.2000;0.1449;10.4919;
1339.5000;0.1457;10.4991;
1339.8000;0.1441;10.5112;
1340.1000;0.1441;10.5112;
1340.4000;0.1473;10.5184;
1340.7000;0.1425;10.5064;
1341.0000;0.1433;10.5016;
1341.3000;0.1441;10.4895;
1341.6000;0.1465;10.4919;
1341.9000;0.1457;10.4871;
1342.2000;0.1441;10.4774;
1342.5000;0.1514;10.4943;
1342.8000;0.1441;10.4799;
1343.1000;0.1408;10.4774;
1343.4000;0.1311;10.4485;
1343.7000;0.1449;10.4774;
1344.0000;0.1473;10.4895;
1344.3000;0.1359;10.4606;
1344.6000;0.1441;10.4823;
1344.9000;0.1433;10.4895;
1345.2000;0.1465;10.4967;
1345.5000;0.1449;10.4919;
1345.8000;0.1441;10.5040;
1346.1000;0.1408;10.4991;
1346.4000;0.1457;10.5040;
1346.7000;0.1538;10.5329;
1347.0000;0.1514;10.5329;
1347.3000;0.1457;10.5209;
1347.6000;0.1481;10.5257;
1347.9000;0.1457;10.5088;
1348.2000;0.1465;10.5064;
1348.5000;0.1457;10.5088;
1348.8000;0.1449;10.5184;
1349.1000;0.1457;10.5136;
1349.4000;0.1473;10.5112;
1349.7000;0.1457;10.5040;
1350.0000;0.1433;10.5016;
1350.3000;0.1433;10.5112;
1350.6000;0.1457;10.5112;
1350.9000;0.1465;10.5112;
1351.2000;0.1441;10.5040;
1351.5000;0.1457;10.5016;
1351.8000;0.1441;10.5088;
1352.1000;0.1408;10.5016;
1352.4000;0.1449;10.5112;
1352.7000;0.1441;10.5136;
1353.0000;0.1481;10.5209;
1353.3000;0.1465;10.5136;
1353.6000;0.1449;10.5160;
1353.9000;0.1441;10.5016;
1354.2000;0.1465;10.5136;
1354.5000;0.1449;10.5112;
1354.8000;0.1465;10.5136;
1355.1000;0.1449;10.5088;
1355.4000;0.1449;10.5064;
1355.7000;0.1408;10.4895;
1356.0000;0.1441;10.5088;
1356.3000;0.1449;10.5088;
1356.6000;0.1506;10.5233;
1356.9000;0.1457;10.5088;
1357.2000;0.1465;10.5064;
1357.5000;0.1522;10.5257;
1357.8000;0.1571;10.5377;
1358.1000;0.1449;10.4991;
1358.4000;0.1473;10.5016;
1358.7000;0.1449;10.4895;
1359.0000;0.1433;10.4895;
1359.3000;0.1465;10.4991;
1359.6000;0.1465;10.4967;
1359.9000;0.1465;10.4943;
1360.2000;0.1465;10.4943;
1360.5000;0.1449;10.4871;
1360.8000;0.1457;10.4823;
1361.1000;0.1457;10.4799;
1361.4000;0.1441;10.4799;
1361.7000;0.1457;10.4871;
1362.0000;0.1449;10.4847;
1362.3000;0.1465;10.4967;
1362.6000;0.1514;10.5088;
1362.9000;0.1457;10.4919;
1363.2000;0.1457;10.4919;
1363.5000;0.1473;10.4991;
1363.8000;0.1465;10.5016;
1364.1000;0.1433;10.4919;
1364.4000;0.1449;10.4871;
1364.7000;0.1457;10.4919;
1365.0000;0.1425;10.4895;
1365.3000;0.1416;10.4774;
1365.6000;0.1416;10.4871;
1365.9000;0.1449;10.4871;
1366.2000;0.1449;10.4847;
1366.5000;0.1408;10.4750;
1366.8000;0.1449;10.4847;
1367.1000;0.1457;10.4919;
1367.4000;0.1449;10.4943;
1367.7000;0.1441;10.4943;
1368.0000;0.1449;10.4895;
1368.3000;0.1465;10.4943;
1368.6000;0.1449;10.4991;
1368.9000;0.1416;10.4799;
1369.2000;0.1441;10.4919;
1369.5000;0.1449;10.4967;
1369.8000;0.1465;10.4967;
1370.1000;0.1473;10.5040;
1370.4000;0.1457;10.4991;
1370.7000;0.1441;10.4919;
1371.0000;0.1465;10.4919;
1371.3000;0.1498;10.4991;
1371.6000;0.1449;10.4871;
1371.9000;0.1449;10.4943;
1372.2000;0.1416;10.4823;
1372.5000;0.1441;10.4943;
1372.8000;0.1425;10.4895;
1373.1000;0.1457;10.4847;
1373.4000;0.1473;10.4847;
1373.7000;0.1465;10.4823;
1374.0000;0.1457;10.4799;
1374.3000;0.1384;10.4485;
1374.6000;0.1457;10.4823;
1374.9000;0.1473;10.4919;
1375.2000;0.1490;10.4991;
1375.5000;0.1441;10.4823;
1375.8000;0.1473;10.4847;
1376.1000;0.1457;10.4774;
1376.4000;0.1457;10.4702;
1376.7000;0.1449;10.4678;
1377.0000;0.1449;10.4702;
1377.3000;0.1465;10.4799;
1377.6000;0.1506;10.4823;
1377.9000;0.1465;10.4678;
1378.2000;0.1449;10.4557;
1378.5000;0.1457;10.4557;
1378.8000;0.1465;10.4678;
1379.1000;0.1449;10.4726;
1379.4000;0.1449;10.4726;
1379.7000;0.1473;10.4774;
1380.0000;0.1465;10.4823;
1380.3000;0.1465;10.4799;
1380.6000;0.1441;10.4702;
1380.9000;0.1433;10.4630;
1381.2000;0.1457;10.4654;
1381.5000;0.1400;10.4509;
1381.8000;0.1449;10.4678;
1382.1000;0.1416;10.4606;
1382.4000;0.1465;10.4774;
1382.7000;0.1384;10.4581;
1383.0000;0.1457;10.4774;
1383.3000;0.1425;10.4726;
1383.6000;0.1441;10.4774;
1383.9000;0.1473;10.4823;
1384.2000;0.1457;10.4823;
1384.5000;0.1441;10.4799;
1384.8000;0.1425;10.4581;
1385.1000;0.1449;10.4630;
1385.4000;0.1449;10.4630;
1385.7000;0.1490;10.4678;
1386.0000;0.1457;10.4581;
1386.3000;0.1441;10.4606;
1386.6000;0.1335;10.4340;
1386.9000;0.1457;10.4606;
1387.2000;0.1351;10.4389;
1387.5000;0.1457;10.4654;
1387.8000;0.1465;10.4726;
1388.1000;0.1425;10.4654;
1388.4000;0.1490;10.4823;
1388.7000;0.1441;10.4750;
1389.0000;0.1465;10.4750;
1389.3000;0.1441;10.4774;
1389.6000;0.1416;10.4702;
1389.9000;0.1441;10.4678;
1390.2000;0.1449;10.4750;
1390.5000;0.1473;10.4847;
1390.8000;0.1449;10.4726;
1391.1000;0.1449;10.4823;
1391.4000;0.1457;10.4774;
1391.7000;0.1449;10.4774;
1392.0000;0.1457;10.4823;
1392.3000;0.1400;10.4726;
1392.6000;0.1457;10.4871;
1392.9000;0.1408;10.4774;
1393.2000;0.1481;10.4943;
1393.5000;0.1457;10.4943;
1393.8000;0.1457;10.4919;
1394.1000;0.1449;10.4847;
1394.4000;0.1498;10.4943;
1394.7000;0.1425;10.4919;
1395.0000;0.1433;10.4943;
1395.3000;0.1465;10.5016;
1395.6000;0.1514;10.5136;
1395.9000;0.1481;10.5064;
1396.2000;0.1449;10.4967;
1396.5000;0.1465;10.5016;
1396.8000;0.1481;10.5064;
1397.1000;0.1441;10.4943;
1397.4000;0.1335;10.4606;
1397.7000;0.1457;10.4871;
1398.0000;0.1465;10.4847;
1398.3000;0.1449;10.4895;
1398.6000;0.1555;10.5160;
1398.9000;0.1473;10.4967;
1399.2000;0.1425;10.4799;
1399.5000;0.1465;10.4919;
1399.8000;0.1441;10.4871;
