time/ms;Fluo/V;P700 deltaI/I x10³;
-199.8000;0.1473;10.4919;
-199.5000;0.1481;10.4823;
-199.2000;0.1490;10.4895;
-198.9000;0.1498;10.4895;
-198.6000;0.1473;10.4726;
-198.3000;0.1547;10.4967;
-198.0000;0.1473;10.4774;
-197.7000;0.1416;10.4654;
-197.4000;0.1457;10.4726;
-197.1000;0.1498;10.4799;
-196.8000;0.1441;10.4678;
-196.5000;0.1490;10.4847;
-196.2000;0.1481;10.4774;
-195.9000;0.1498;10.4774;
-195.6000;0.1481;10.4774;
-195.3000;0.1465;10.4726;
-195.0000;0.1416;10.4606;
-194.7000;0.1473;10.4799;
-194.4000;0.1481;10.4847;
-194.1000;0.1481;10.4823;
-193.8000;0.1490;10.4823;
-193.5000;0.1481;10.4726;
-193.2000;0.1506;10.4895;
-192.9000;0.1473;10.4702;
-192.6000;0.1465;10.4750;
-192.3000;0.1498;10.4871;
-192.0000;0.1481;10.4871;
-191.7000;0.1481;10.4943;
-191.4000;0.1465;10.4919;
-191.1000;0.1481;10.4919;
-190.8000;0.1457;10.4871;
-190.5000;0.1433;10.4871;
-190.2000;0.1473;10.4967;
-189.9000;0.1457;10.4943;
-189.6000;0.1481;10.4991;
-189.3000;0.1473;10.4823;
-189.0000;0.1481;10.4799;
-188.7000;0.1498;10.4774;
-188.4000;0.1481;10.4774;
-188.1000;0.1481;10.4871;
-187.8000;0.1506;10.4919;
-187.5000;0.1498;10.4943;
-187.2000;0.1490;10.4847;
-186.9000;0.1481;10.4750;
-186.6000;0.1506;10.4799;
-186.3000;0.1481;10.4750;
-186.0000;0.1498;10.4799;
-185.7000;0.1498;10.4847;
-185.4000;0.1538;10.4943;
-185.1000;0.1481;10.4774;
-184.8000;0.1490;10.4702;
-184.5000;0.1604;10.4967;
-184.2000;0.1481;10.4702;
-183.9000;0.1473;10.4726;
-183.6000;0.1481;10.4726;
-183.3000;0.1547;10.4967;
-183.0000;0.1490;10.4847;
-182.7000;0.1498;10.4943;
-182.4000;0.1498;10.4847;
-182.1000;0.1506;10.4774;
-181.8000;0.1522;10.4799;
-181.5000;0.1498;10.4654;
-181.2000;0.1490;10.4557;
-180.9000;0.1441;10.4437;
-180.6000;0.1473;10.4509;
-180.3000;0.1473;10.4509;
-180.0000;0.1481;10.4461;
-179.7000;0.1473;10.4437;
-179.4000;0.1473;10.4461;
-179.1000;0.1481;10.4509;
-178.8000;0.1522;10.4702;
-178.5000;0.1465;10.4581;
-178.2000;0.1392;10.4340;
-177.9000;0.1481;10.4581;
-177.6000;0.1481;10.4606;
-177.3000;0.1490;10.4654;
-177.0000;0.1481;10.4678;
-176.7000;0.1498;10.4895;
-176.4000;0.1481;10.4799;
-176.1000;0.1481;10.4774;
-175.8000;0.1490;10.4726;
-175.5000;0.1490;10.4678;
-175.2000;0.1498;10.4678;
-174.9000;0.1449;10.4557;
-174.6000;0.1481;10.4702;
-174.3000;0.1441;10.4654;
-174.0000;0.1490;10.4799;
-173.7000;0.1490;10.4774;
-173.4000;0.1490;10.4774;
-173.1000;0.1490;10.4702;
-172.8000;0.1481;10.4774;
-172.5000;0.1425;10.4606;
-172.2000;0.1481;10.4726;
-171.9000;0.1498;10.4847;
-171.6000;0.1481;10.4823;
-171.3000;0.1506;10.4774;
-171.0000;0.1457;10.4750;
-170.7000;0.1498;10.4871;
-170.4000;0.1579;10.5088;
-170.1000;0.1392;10.4630;
-169.8000;0.1473;10.4823;
-169.5000;0.1465;10.4799;
-169.2000;0.1473;10.4871;
-168.9000;0.1457;10.4847;
-168.6000;0.1481;10.4919;
-168.3000;0.1490;10.4919;
-168.0000;0.1612;10.5209;
-167.7000;0.1473;10.4799;
-167.4000;0.1481;10.4774;
-167.1000;0.1473;10.4799;
-166.8000;0.1465;10.4702;
-166.5000;0.1465;10.4726;
-166.2000;0.1490;10.4630;
-165.9000;0.1481;10.4702;
-165.6000;0.1506;10.4774;
-165.3000;0.1481;10.4750;
-165.0000;0.1498;10.4847;
-164.7000;0.1465;10.4726;
-164.4000;0.1490;10.4750;
-164.1000;0.1490;10.4678;
-163.8000;0.1481;10.4726;
-163.5000;0.1441;10.4654;
-163.2000;0.1481;10.4750;
-162.9000;0.1490;10.4823;
-162.6000;0.1538;10.4919;
-162.3000;0.1522;10.4991;
-162.0000;0.1441;10.4774;
-161.7000;0.1449;10.4774;
-161.4000;0.1490;10.4799;
-161.1000;0.1449;10.4774;
-160.8000;0.1490;10.4991;
-160.5000;0.1555;10.5112;
-160.2000;0.1538;10.5064;
-159.9000;0.1490;10.4895;
-159.6000;0.1449;10.4702;
-159.3000;0.1433;10.4654;
-159.0000;0.1481;10.4799;
-158.7000;0.1506;10.4895;
-158.4000;0.1473;10.4799;
-158.1000;0.1481;10.4799;
-157.8000;0.1498;10.4871;
-157.5000;0.1498;10.4847;
-157.2000;0.1457;10.4774;
-156.9000;0.1433;10.4702;
-156.6000;0.1465;10.4774;
-156.3000;0.1473;10.4847;
-156.0000;0.1481;10.4967;
-155.7000;0.1498;10.5040;
-155.4000;0.1473;10.5016;
-155.1000;0.1498;10.5016;
-154.8000;0.1498;10.4991;
-154.5000;0.1498;10.4943;
-154.2000;0.1433;10.4799;
-153.9000;0.1498;10.4991;
-153.6000;0.1506;10.4991;
-153.3000;0.1473;10.4871;
-153.0000;0.1490;10.4919;
-152.7000;0.1490;10.4919;
-152.4000;0.1481;10.4943;
-152.1000;0.1506;10.4943;
-151.8000;0.1506;10.4799;
-151.5000;0.1490;10.4726;
-151.2000;0.1481;10.4726;
-150.9000;0.1490;10.4871;
-150.6000;0.1498;10.4895;
-150.3000;0.1490;10.4847;
-150.0000;0.1473;10.4799;
-149.7000;0.1506;10.4799;
-149.4000;0.1416;10.4557;
-149.1000;0.1490;10.4726;
-148.8000;0.1490;10.4774;
-148.5000;0.1473;10.4774;
-148.2000;0.1506;10.4823;
-147.9000;0.1481;10.4726;
-147.6000;0.1498;10.4823;
-147.3000;0.1481;10.4774;
-147.0000;0.1498;10.4774;
-146.7000;0.1530;10.4823;
-146.4000;0.1490;10.4799;
-146.1000;0.1506;10.4823;
-145.8000;0.1481;10.4774;
-145.5000;0.1490;10.4750;
-145.2000;0.1481;10.4702;
-144.9000;0.1481;10.4774;
-144.6000;0.1481;10.4871;
-144.3000;0.1481;10.4919;
-144.0000;0.1490;10.4847;
-143.7000;0.1498;10.4847;
-143.4000;0.1465;10.4726;
-143.1000;0.1490;10.4750;
-142.8000;0.1481;10.4847;
-142.5000;0.1490;10.4895;
-142.2000;0.1555;10.5064;
-141.9000;0.1481;10.4774;
-141.6000;0.1473;10.4702;
-141.3000;0.1473;10.4678;
-141.0000;0.1563;10.4919;
-140.7000;0.1490;10.4726;
-140.4000;0.1473;10.4750;
-140.1000;0.1481;10.4726;
-139.8000;0.1449;10.4702;
-139.5000;0.1481;10.4702;
-139.2000;0.1530;10.4726;
-138.9000;0.1490;10.4581;
-138.6000;0.1547;10.4654;
-138.3000;0.1490;10.4485;
-138.0000;0.1498;10.4533;
-137.7000;0.1481;10.4557;
-137.4000;0.1498;10.4678;
-137.1000;0.1490;10.4750;
-136.8000;0.1425;10.4581;
-136.5000;0.1481;10.4799;
-136.2000;0.1490;10.4726;
-135.9000;0.1481;10.4702;
-135.6000;0.1498;10.4823;
-135.3000;0.1465;10.4750;
-135.0000;0.1522;10.4943;
-134.7000;0.1425;10.4654;
-134.4000;0.1473;10.4726;
-134.1000;0.1490;10.4726;
-133.8000;0.1506;10.4871;
-133.5000;0.1465;10.4823;
-133.2000;0.1465;10.4726;
-132.9000;0.1481;10.4799;
-132.6000;0.1473;10.4774;
-132.3000;0.1481;10.4774;
-132.0000;0.1481;10.4726;
-131.7000;0.1498;10.4823;
-131.4000;0.1490;10.4750;
-131.1000;0.1490;10.4702;
-130.8000;0.1490;10.4678;
-130.5000;0.1490;10.4678;
-130.2000;0.1490;10.4726;
-129.9000;0.1481;10.4702;
-129.6000;0.1490;10.4678;
-129.3000;0.1506;10.4606;
-129.0000;0.1498;10.4606;
-128.7000;0.1481;10.4557;
-128.4000;0.1490;10.4654;
-128.1000;0.1473;10.4630;
-127.8000;0.1481;10.4678;
-127.5000;0.1473;10.4606;
-127.2000;0.1490;10.4678;
-126.9000;0.1490;10.4702;
-126.6000;0.1490;10.4654;
-126.3000;0.1481;10.4606;
-126.0000;0.1481;10.4533;
-125.7000;0.1498;10.4581;
-125.4000;0.1498;10.4630;
-125.1000;0.1392;10.4364;
-124.8000;0.1490;10.4630;
-124.5000;0.1490;10.4654;
-124.2000;0.1473;10.4630;
-123.9000;0.1490;10.4726;
-123.6000;0.1465;10.4678;
-123.3000;0.1473;10.4750;
-123.0000;0.1473;10.4774;
-122.7000;0.1498;10.4799;
-122.4000;0.1530;10.4847;
-122.1000;0.1481;10.4702;
-121.8000;0.1498;10.4678;
-121.5000;0.1490;10.4630;
-121.2000;0.1498;10.4726;
-120.9000;0.1490;10.4678;
-120.6000;0.1490;10.4799;
-120.3000;0.1490;10.4750;
-120.0000;0.1490;10.4726;
-119.7000;0.1490;10.4702;
-119.4000;0.1490;10.4702;
-119.1000;0.1490;10.4678;
-118.8000;0.1481;10.4557;
-118.5000;0.1441;10.4461;
-118.2000;0.1473;10.4581;
-117.9000;0.1465;10.4557;
-117.6000;0.1506;10.4630;
-117.3000;0.1498;10.4654;
-117.0000;0.1481;10.4606;
-116.7000;0.1490;10.4630;
-116.4000;0.1506;10.4678;
-116.1000;0.1538;10.4726;
-115.8000;0.1481;10.4533;
-115.5000;0.1498;10.4581;
-115.2000;0.1490;10.4654;
-114.9000;0.1506;10.4750;
-114.6000;0.1441;10.4509;
-114.3000;0.1465;10.4533;
-114.0000;0.1530;10.4630;
-113.7000;0.1457;10.4533;
-113.4000;0.1481;10.4630;
-113.1000;0.1481;10.4557;
-112.8000;0.1465;10.4461;
-112.5000;0.1376;10.4244;
-112.2000;0.1465;10.4413;
-111.9000;0.1416;10.4292;
-111.6000;0.1465;10.4413;
-111.3000;0.1465;10.4509;
-111.0000;0.1481;10.4509;
-110.7000;0.1587;10.4871;
-110.4000;0.1441;10.4557;
-110.1000;0.1490;10.4630;
-109.8000;0.1441;10.4557;
-109.5000;0.1481;10.4630;
-109.2000;0.1490;10.4533;
-108.9000;0.1538;10.4678;
-108.6000;0.1465;10.4533;
-108.3000;0.1481;10.4630;
-108.0000;0.1473;10.4557;
-107.7000;0.1481;10.4485;
-107.4000;0.1547;10.4654;
-107.1000;0.1490;10.4509;
-106.8000;0.1579;10.4750;
-106.5000;0.1481;10.4581;
-106.2000;0.1441;10.4413;
-105.9000;0.1498;10.4533;
-105.6000;0.1473;10.4485;
-105.3000;0.1449;10.4413;
-105.0000;0.1481;10.4485;
-104.7000;0.1490;10.4485;
-104.4000;0.1473;10.4437;
-104.1000;0.1490;10.4437;
-103.8000;0.1490;10.4364;
-103.5000;0.1506;10.4485;
-103.2000;0.1441;10.4413;
-102.9000;0.1473;10.4581;
-102.6000;0.1547;10.4726;
-102.3000;0.1457;10.4533;
-102.0000;0.1490;10.4630;
-101.7000;0.1441;10.4364;
-101.4000;0.1547;10.4654;
-101.1000;0.1473;10.4509;
-100.8000;0.1481;10.4509;
-100.5000;0.1563;10.4630;
-100.2000;0.1490;10.4461;
-99.9000;0.1481;10.4437;
-99.6000;0.1319;10.3930;
-99.3000;0.1481;10.4292;
-99.0000;0.1481;10.4364;
-98.7000;0.1473;10.4340;
-98.4000;0.1481;10.4244;
-98.1000;0.1481;10.4220;
-97.8000;0.1481;10.4268;
-97.5000;0.1465;10.4389;
-97.2000;0.1498;10.4461;
-96.9000;0.1498;10.4437;
-96.6000;0.1506;10.4485;
-96.3000;0.1481;10.4413;
-96.0000;0.1481;10.4413;
-95.7000;0.1490;10.4461;
-95.4000;0.1481;10.4533;
-95.1000;0.1481;10.4630;
-94.8000;0.1473;10.4606;
-94.5000;0.1490;10.4606;
-94.2000;0.1490;10.4606;
-93.9000;0.1473;10.4557;
-93.6000;0.1473;10.4606;
-93.3000;0.1465;10.4485;
-93.0000;0.1481;10.4557;
-92.7000;0.1506;10.4606;
-92.4000;0.1481;10.4581;
-92.1000;0.1465;10.4557;
-91.8000;0.1449;10.4533;
-91.5000;0.1490;10.4630;
-91.2000;0.1490;10.4678;
-90.9000;0.1490;10.4630;
-90.6000;0.1481;10.4630;
-90.3000;0.1595;10.4895;
-90.0000;0.1498;10.4581;
-89.7000;0.1498;10.4581;
-89.4000;0.1457;10.4461;
-89.1000;0.1481;10.4485;
-88.8000;0.1530;10.4654;
-88.5000;0.1457;10.4581;
-88.2000;0.1498;10.4726;
-87.9000;0.1433;10.4557;
-87.6000;0.1498;10.4750;
-87.3000;0.1530;10.4799;
-87.0000;0.1506;10.4678;
-86.7000;0.1441;10.4581;
-86.4000;0.1473;10.4678;
-86.1000;0.1441;10.4606;
-85.8000;0.1481;10.4702;
-85.5000;0.1481;10.4726;
-85.2000;0.1498;10.4678;
-84.9000;0.1538;10.4774;
-84.6000;0.1506;10.4630;
-84.3000;0.1490;10.4654;
-84.0000;0.1498;10.4606;
-83.7000;0.1522;10.4678;
-83.4000;0.1481;10.4581;
-83.1000;0.1441;10.4340;
-82.8000;0.1473;10.4485;
-82.5000;0.1506;10.4533;
-82.2000;0.1457;10.4389;
-81.9000;0.1498;10.4389;
-81.6000;0.1457;10.4340;
-81.3000;0.1481;10.4316;
-81.0000;0.1498;10.4316;
-80.7000;0.1481;10.4244;
-80.4000;0.1481;10.4220;
-80.1000;0.1481;10.4292;
-79.8000;0.1498;10.4389;
-79.5000;0.1530;10.4533;
-79.2000;0.1490;10.4533;
-78.9000;0.1498;10.4630;
-78.6000;0.1481;10.4678;
-78.3000;0.1498;10.4774;
-78.0000;0.1473;10.4654;
-77.7000;0.1473;10.4654;
-77.4000;0.1425;10.4581;
-77.1000;0.1481;10.4630;
-76.8000;0.1473;10.4678;
-76.5000;0.1498;10.4702;
-76.2000;0.1465;10.4557;
-75.9000;0.1473;10.4533;
-75.6000;0.1490;10.4533;
-75.3000;0.1481;10.4461;
-75.0000;0.1490;10.4533;
-74.7000;0.1481;10.4509;
-74.4000;0.1506;10.4581;
-74.1000;0.1490;10.4557;
-73.8000;0.1490;10.4509;
-73.5000;0.1473;10.4509;
-73.2000;0.1490;10.4557;
-72.9000;0.1506;10.4533;
-72.6000;0.1490;10.4509;
-72.3000;0.1481;10.4533;
-72.0000;0.1481;10.4533;
-71.7000;0.1506;10.4509;
-71.4000;0.1490;10.4437;
-71.1000;0.1481;10.4485;
-70.8000;0.1473;10.4413;
-70.5000;0.1498;10.4461;
-70.2000;0.1490;10.4509;
-69.9000;0.1498;10.4533;
-69.6000;0.1490;10.4437;
-69.3000;0.1481;10.4581;
-69.0000;0.1457;10.4485;
-68.7000;0.1490;10.4654;
-68.4000;0.1473;10.4581;
-68.1000;0.1481;10.4557;
-67.8000;0.1498;10.4581;
-67.5000;0.1416;10.4485;
-67.2000;0.1490;10.4702;
-66.9000;0.1433;10.4533;
-66.6000;0.1473;10.4654;
-66.3000;0.1498;10.4726;
-66.0000;0.1498;10.4678;
-65.7000;0.1481;10.4581;
-65.4000;0.1286;10.4123;
-65.1000;0.1498;10.4702;
-64.8000;0.1481;10.4654;
-64.5000;0.1359;10.4413;
-64.2000;0.1490;10.4678;
-63.9000;0.1538;10.4774;
-63.6000;0.1481;10.4630;
-63.3000;0.1498;10.4654;
-63.0000;0.1473;10.4606;
-62.7000;0.1473;10.4606;
-62.4000;0.1473;10.4557;
-62.1000;0.1473;10.4533;
-61.8000;0.1457;10.4533;
-61.5000;0.1481;10.4630;
-61.2000;0.1506;10.4606;
-60.9000;0.1498;10.4557;
-60.6000;0.1490;10.4437;
-60.3000;0.1490;10.4485;
-60.0000;0.1490;10.4533;
-59.7000;0.1506;10.4581;
-59.4000;0.1481;10.4630;
-59.1000;0.1481;10.4678;
-58.8000;0.1481;10.4678;
-58.5000;0.1481;10.4750;
-58.2000;0.1498;10.4847;
-57.9000;0.1498;10.4823;
-57.6000;0.1490;10.4799;
-57.3000;0.1498;10.4847;
-57.0000;0.1506;10.4847;
-56.7000;0.1481;10.4823;
-56.4000;0.1506;10.4823;
-56.1000;0.1441;10.4702;
-55.8000;0.1481;10.4847;
-55.5000;0.1490;10.4799;
-55.2000;0.1465;10.4702;
-54.9000;0.1514;10.4726;
-54.6000;0.1547;10.4919;
-54.3000;0.1416;10.4630;
-54.0000;0.1490;10.4702;
-53.7000;0.1481;10.4726;
-53.4000;0.1441;10.4654;
-53.1000;0.1530;10.4943;
-52.8000;0.1473;10.4774;
-52.5000;0.1473;10.4750;
-52.2000;0.1481;10.4774;
-51.9000;0.1368;10.4485;
-51.6000;0.1481;10.4799;
-51.3000;0.1473;10.4799;
-51.0000;0.1498;10.4823;
-50.7000;0.1490;10.4871;
-50.4000;0.1473;10.4847;
-50.1000;0.1498;10.4895;
-49.8000;0.1441;10.4799;
-49.5000;0.1481;10.4823;
-49.2000;0.1498;10.4823;
-48.9000;0.1490;10.4895;
-48.6000;0.1498;10.4895;
-48.3000;0.1506;10.4847;
-48.0000;0.1498;10.4847;
-47.7000;0.1481;10.4799;
-47.4000;0.1498;10.4847;
-47.1000;0.1473;10.4654;
-46.8000;0.1481;10.4678;
-46.5000;0.1481;10.4678;
-46.2000;0.1490;10.4750;
-45.9000;0.1481;10.4750;
-45.6000;0.1490;10.4678;
-45.3000;0.1481;10.4702;
-45.0000;0.1490;10.4702;
-44.7000;0.1416;10.4509;
-44.4000;0.1506;10.4654;
-44.1000;0.1490;10.4630;
-43.8000;0.1498;10.4654;
-43.5000;0.1433;10.4533;
-43.2000;0.1449;10.4606;
-42.9000;0.1490;10.4726;
-42.6000;0.1498;10.4799;
-42.3000;0.1481;10.4774;
-42.0000;0.1481;10.4726;
-41.7000;0.1473;10.4702;
-41.4000;0.1481;10.4654;
-41.1000;0.1498;10.4702;
-40.8000;0.1490;10.4678;
-40.5000;0.1481;10.4606;
-40.2000;0.1481;10.4533;
-39.9000;0.1481;10.4581;
-39.6000;0.1498;10.4702;
-39.3000;0.1506;10.4726;
-39.0000;0.1506;10.4823;
-38.7000;0.1490;10.4726;
-38.4000;0.1481;10.4702;
-38.1000;0.1473;10.4678;
-37.8000;0.1481;10.4606;
-37.5000;0.1490;10.4557;
-37.2000;0.1490;10.4533;
-36.9000;0.1490;10.4533;
-36.6000;0.1490;10.4509;
-36.3000;0.1490;10.4630;
-36.0000;0.1490;10.4702;
-35.7000;0.1490;10.4678;
-35.4000;0.1490;10.4726;
-35.1000;0.1498;10.4726;
-34.8000;0.1490;10.4606;
-34.5000;0.1490;10.4678;
-34.2000;0.1538;10.4726;
-33.9000;0.1449;10.4557;
-33.6000;0.1481;10.4630;
-33.3000;0.1481;10.4630;
-33.0000;0.1506;10.4702;
-32.7000;0.1490;10.4581;
-32.4000;0.1498;10.4654;
-32.1000;0.1506;10.4726;
-31.8000;0.1498;10.4823;
-31.5000;0.1514;10.4799;
-31.2000;0.1400;10.4533;
-30.9000;0.1490;10.4895;
-30.6000;0.1457;10.4774;
-30.3000;0.1473;10.4919;
-30.0000;0.1481;10.5016;
-29.7000;0.1490;10.5064;
-29.4000;0.1433;10.4847;
-29.1000;0.1490;10.4919;
-28.8000;0.1490;10.4871;
-28.5000;0.1481;10.4871;
-28.2000;0.1498;10.4991;
-27.9000;0.1481;10.5016;
-27.6000;0.1490;10.4943;
-27.3000;0.1498;10.4967;
-27.0000;0.1498;10.4943;
-26.7000;0.1473;10.4991;
-26.4000;0.1481;10.4871;
-26.1000;0.1441;10.4871;
-25.8000;0.1465;10.4943;
-25.5000;0.1465;10.4847;
-25.2000;0.1473;10.4847;
-24.9000;0.1473;10.4871;
-24.6000;0.1506;10.4943;
-24.3000;0.1490;10.4919;
-24.0000;0.1490;10.4871;
-23.7000;0.1473;10.4871;
-23.4000;0.1490;10.4991;
-23.1000;0.1490;10.4919;
-22.8000;0.1384;10.4557;
-22.5000;0.1530;10.4967;
-22.2000;0.1498;10.4799;
-21.9000;0.1490;10.4726;
-21.6000;0.1441;10.4533;
-21.3000;0.1481;10.4654;
-21.0000;0.1481;10.4654;
-20.7000;0.1481;10.4654;
-20.4000;0.1490;10.4630;
-20.1000;0.1473;10.4606;
-19.8000;0.1490;10.4799;
-19.5000;0.1490;10.4895;
-19.2000;0.1490;10.4871;
-18.9000;0.1481;10.4895;
-18.6000;0.1547;10.5040;
-18.3000;0.1473;10.5016;
-18.0000;0.1490;10.4943;
-17.7000;0.1498;10.4991;
-17.4000;0.1473;10.5040;
-17.1000;0.1481;10.5040;
-16.8000;0.1473;10.4943;
-16.5000;0.1473;10.4919;
-16.2000;0.1490;10.4895;
-15.9000;0.1359;10.4581;
-15.6000;0.1481;10.4847;
-15.3000;0.1368;10.4461;
-15.0000;0.1465;10.4774;
-14.7000;0.1457;10.4799;
-14.4000;0.1473;10.4726;
-14.1000;0.1490;10.4774;
-13.8000;0.1465;10.4799;
-13.5000;0.1490;10.4823;
-13.2000;0.1481;10.4774;
-12.9000;0.1490;10.4774;
-12.6000;0.1473;10.4726;
-12.3000;0.1498;10.4774;
-12.0000;0.1563;10.5016;
-11.7000;0.1506;10.4991;
-11.4000;0.1498;10.4895;
-11.1000;0.1465;10.4774;
-10.8000;0.1481;10.4823;
-10.5000;0.1465;10.4774;
-10.2000;0.1506;10.4774;
-9.9000;0.1490;10.4702;
-9.6000;0.1522;10.4726;
-9.3000;0.1490;10.4630;
-9.0000;0.1522;10.4823;
-8.7000;0.1481;10.4750;
-8.4000;0.1465;10.4726;
-8.1000;0.1498;10.4750;
-7.8000;0.1498;10.4799;
-7.5000;0.1490;10.4823;
-7.2000;0.1563;10.5016;
-6.9000;0.1490;10.4943;
-6.6000;0.1481;10.4967;
-6.3000;0.1457;10.4847;
-6.0000;0.1481;10.4871;
-5.7000;0.1465;10.4847;
-5.4000;0.1465;10.4847;
-5.1000;0.1490;10.4895;
-4.8000;0.1481;10.4823;
-4.5000;0.1473;10.4919;
-4.2000;0.1506;10.5040;
-3.9000;0.1514;10.5088;
-3.6000;0.1490;10.5136;
-3.3000;0.1481;10.5112;
-3.0000;0.1514;10.5233;
-2.7000;0.1490;10.5112;
-2.4000;0.1490;10.5064;
-2.1000;0.1481;10.5040;
-1.8000;0.1473;10.5064;
-1.5000;0.1481;10.5088;
-1.2000;0.1498;10.5112;
-0.9000;0.1465;10.5064;
-0.6000;0.1481;10.5064;
-0.3000;0.1490;10.5064;
0.0000;0.1490;10.5064;
0.3000;0.1490;10.5064;
0.6000;0.1490;10.5209;
0.9000;0.1522;10.5426;
1.2000;0.1571;10.5763;
1.5000;0.1522;10.5812;
1.8000;0.1563;10.6125;
2.1000;0.1571;10.6294;
2.4000;0.1579;10.6559;
2.7000;0.1530;10.6535;
3.0000;0.1587;10.6704;
3.3000;0.1587;10.6800;
3.6000;0.1595;10.6921;
3.9000;0.1604;10.7018;
4.2000;0.1636;10.7042;
4.5000;0.1604;10.7042;
4.8000;0.1620;10.7066;
5.1000;0.1669;10.7114;
5.4000;0.1595;10.6945;
5.7000;0.1620;10.7090;
6.0000;0.1612;10.7090;
6.3000;0.1620;10.7114;
6.6000;0.1652;10.7259;
6.9000;0.1612;10.7235;
7.2000;0.1506;10.7042;
7.5000;0.1595;10.7331;
7.8000;0.1571;10.7331;
8.1000;0.1522;10.7186;
8.4000;0.1612;10.7403;
8.7000;0.1620;10.7428;
9.0000;0.1563;10.7331;
9.3000;0.1587;10.7403;
9.6000;0.1669;10.7524;
9.9000;0.1604;10.7476;
10.2000;0.1587;10.7379;
10.5000;0.1628;10.7548;
10.8000;0.1612;10.7476;
11.1000;0.1620;10.7379;
11.4000;0.1604;10.7331;
11.7000;0.1628;10.7452;
12.0000;0.1595;10.7307;
12.3000;0.1620;10.7355;
12.6000;0.1628;10.7355;
12.9000;0.1620;10.7283;
13.2000;0.1718;10.7596;
13.5000;0.1612;10.7235;
13.8000;0.1595;10.7114;
14.1000;0.1636;10.7235;
14.4000;0.1563;10.6969;
14.7000;0.1595;10.7090;
15.0000;0.1604;10.7090;
15.3000;0.1628;10.7235;
15.6000;0.1612;10.7210;
15.9000;0.1530;10.6969;
16.2000;0.1579;10.7114;
16.5000;0.1628;10.7162;
16.8000;0.1669;10.7403;
17.1000;0.1595;10.7235;
17.4000;0.1620;10.7235;
17.7000;0.1612;10.7235;
18.0000;0.1547;10.6993;
18.3000;0.1628;10.7259;
18.6000;0.1620;10.7283;
18.9000;0.1612;10.7283;
19.2000;0.1571;10.7283;
19.5000;0.1595;10.7307;
19.8000;0.1604;10.7379;
20.1000;0.1612;10.7379;
20.4000;0.1595;10.7307;
20.7000;0.1604;10.7283;
21.0000;0.1563;10.7138;
21.3000;0.1612;10.7307;
21.6000;0.1636;10.7355;
21.9000;0.1620;10.7283;
22.2000;0.1669;10.7379;
22.5000;0.1604;10.7235;
22.8000;0.1587;10.7235;
23.1000;0.1628;10.7259;
23.4000;0.1604;10.7283;
23.7000;0.1587;10.7235;
24.0000;0.1661;10.7403;
24.3000;0.1620;10.7283;
24.6000;0.1579;10.7210;
24.9000;0.1498;10.6993;
25.2000;0.1620;10.7331;
25.5000;0.1620;10.7331;
25.8000;0.1620;10.7283;
26.1000;0.1595;10.7186;
26.4000;0.1604;10.7162;
26.7000;0.1604;10.7210;
27.0000;0.1612;10.7259;
27.3000;0.1628;10.7331;
27.6000;0.1636;10.7307;
27.9000;0.1587;10.7235;
28.2000;0.1612;10.7283;
28.5000;0.1677;10.7355;
28.8000;0.1604;10.7235;
29.1000;0.1587;10.7138;
29.4000;0.1612;10.7186;
29.7000;0.1620;10.7307;
30.0000;0.1604;10.7283;
30.3000;0.1604;10.7307;
30.6000;0.1587;10.7259;
30.9000;0.1595;10.7210;
31.2000;0.1628;10.7259;
31.5000;0.1595;10.7186;
31.8000;0.1604;10.7114;
32.1000;0.1587;10.7042;
32.4000;0.1604;10.7090;
32.7000;0.1612;10.7138;
33.0000;0.1612;10.7259;
33.3000;0.1612;10.7307;
33.6000;0.1620;10.7259;
33.9000;0.1612;10.7235;
34.2000;0.1604;10.7186;
34.5000;0.1604;10.7210;
34.8000;0.1620;10.7210;
35.1000;0.1604;10.7235;
35.4000;0.1620;10.7331;
35.7000;0.1612;10.7283;
36.0000;0.1612;10.7259;
36.3000;0.1604;10.7210;
36.6000;0.1628;10.7283;
36.9000;0.1644;10.7355;
37.2000;0.1604;10.7210;
37.5000;0.1612;10.7259;
37.8000;0.1612;10.7186;
38.1000;0.1587;10.7162;
38.4000;0.1555;10.7090;
38.7000;0.1595;10.7162;
39.0000;0.1620;10.7186;
39.3000;0.1612;10.7210;
39.6000;0.1620;10.7186;
39.9000;0.1595;10.7210;
40.2000;0.1604;10.7283;
40.5000;0.1595;10.7210;
40.8000;0.1612;10.7210;
41.1000;0.1612;10.7235;
41.4000;0.1595;10.7186;
41.7000;0.1538;10.7018;
42.0000;0.1620;10.7210;
42.3000;0.1612;10.7090;
42.6000;0.1604;10.7186;
42.9000;0.1604;10.7235;
43.2000;0.1604;10.7331;
43.5000;0.1612;10.7355;
43.8000;0.1612;10.7403;
44.1000;0.1595;10.7331;
44.4000;0.1620;10.7428;
44.7000;0.1620;10.7379;
45.0000;0.1579;10.7186;
45.3000;0.1612;10.7210;
45.6000;0.1604;10.7138;
45.9000;0.1595;10.7138;
46.2000;0.1628;10.7162;
46.5000;0.1587;10.7114;
46.8000;0.1604;10.7138;
47.1000;0.1579;10.7114;
47.4000;0.1612;10.7210;
47.7000;0.1612;10.7283;
48.0000;0.1612;10.7210;
48.3000;0.1620;10.7210;
48.6000;0.1628;10.7259;
48.9000;0.1604;10.7186;
49.2000;0.1620;10.7138;
49.5000;0.1595;10.7018;
49.8000;0.1612;10.7090;
50.1000;0.1612;10.7090;
50.4000;0.1538;10.6825;
50.7000;0.1595;10.6969;
51.0000;0.1595;10.7090;
51.3000;0.1604;10.7114;
51.6000;0.1595;10.7138;
51.9000;0.1612;10.7114;
52.2000;0.1587;10.7042;
52.5000;0.1604;10.7042;
52.8000;0.1612;10.6969;
53.1000;0.1620;10.6969;
53.4000;0.1612;10.7018;
53.7000;0.1612;10.7042;
54.0000;0.1538;10.6969;
54.3000;0.1595;10.7162;
54.6000;0.1620;10.7283;
54.9000;0.1612;10.7210;
55.2000;0.1595;10.7114;
55.5000;0.1595;10.7138;
55.8000;0.1547;10.7066;
56.1000;0.1612;10.7186;
56.4000;0.1604;10.7114;
56.7000;0.1620;10.7162;
57.0000;0.1620;10.7114;
57.3000;0.1620;10.7210;
57.6000;0.1595;10.7162;
57.9000;0.1595;10.7235;
58.2000;0.1595;10.7210;
58.5000;0.1612;10.7307;
58.8000;0.1595;10.7210;
59.1000;0.1595;10.7259;
59.4000;0.1604;10.7259;
59.7000;0.1604;10.7283;
60.0000;0.1595;10.7235;
60.3000;0.1612;10.7283;
60.6000;0.1612;10.7259;
60.9000;0.1661;10.7379;
61.2000;0.1604;10.7090;
61.5000;0.1604;10.7042;
61.8000;0.1595;10.7018;
62.1000;0.1628;10.7018;
62.4000;0.1604;10.6945;
62.7000;0.1587;10.7042;
63.0000;0.1595;10.7114;
63.3000;0.1595;10.7114;
63.6000;0.1628;10.7162;
63.9000;0.1620;10.7162;
64.2000;0.1677;10.7307;
64.5000;0.1587;10.7090;
64.8000;0.1612;10.7186;
65.1000;0.1604;10.7090;
65.4000;0.1595;10.7162;
65.7000;0.1604;10.7042;
66.0000;0.1636;10.7114;
66.3000;0.1587;10.7018;
66.6000;0.1612;10.7114;
66.9000;0.1595;10.7162;
67.2000;0.1677;10.7379;
67.5000;0.1604;10.7259;
67.8000;0.1587;10.7259;
68.1000;0.1604;10.7259;
68.4000;0.1604;10.7210;
68.7000;0.1620;10.7355;
69.0000;0.1628;10.7379;
69.3000;0.1612;10.7355;
69.6000;0.1628;10.7331;
69.9000;0.1612;10.7186;
70.2000;0.1604;10.7186;
70.5000;0.1620;10.7235;
70.8000;0.1612;10.7307;
71.1000;0.1595;10.7210;
71.4000;0.1587;10.7090;
71.7000;0.1579;10.7018;
72.0000;0.1604;10.7066;
72.3000;0.1612;10.7066;
72.6000;0.1612;10.7042;
72.9000;0.1604;10.7018;
73.2000;0.1612;10.7066;
73.5000;0.1555;10.6993;
73.8000;0.1620;10.7138;
74.1000;0.1628;10.7066;
74.4000;0.1571;10.6969;
74.7000;0.1644;10.7186;
75.0000;0.1620;10.7114;
75.3000;0.1522;10.6825;
75.6000;0.1587;10.6945;
75.9000;0.1636;10.7138;
76.2000;0.1612;10.7138;
76.5000;0.1604;10.7114;
76.8000;0.1595;10.7042;
77.1000;0.1595;10.7018;
77.4000;0.1595;10.6969;
77.7000;0.1612;10.6945;
78.0000;0.1612;10.6993;
78.3000;0.1595;10.7018;
78.6000;0.1612;10.7018;
78.9000;0.1604;10.7114;
79.2000;0.1620;10.7114;
79.5000;0.1604;10.7114;
79.8000;0.1604;10.7114;
80.1000;0.1587;10.7162;
80.4000;0.1620;10.7235;
80.7000;0.1587;10.7186;
81.0000;0.1587;10.7210;
81.3000;0.1612;10.7235;
81.6000;0.1669;10.7355;
81.9000;0.1604;10.7114;
82.2000;0.1604;10.7090;
82.5000;0.1595;10.7042;
82.8000;0.1612;10.7066;
83.1000;0.1595;10.7090;
83.4000;0.1587;10.7066;
83.7000;0.1612;10.7066;
84.0000;0.1604;10.7018;
84.3000;0.1612;10.7018;
84.6000;0.1652;10.7114;
84.9000;0.1604;10.7210;
85.2000;0.1612;10.7283;
85.5000;0.1587;10.7186;
85.8000;0.1587;10.7259;
86.1000;0.1612;10.7331;
86.4000;0.1579;10.7210;
86.7000;0.1604;10.7259;
87.0000;0.1587;10.7307;
87.3000;0.1595;10.7355;
87.6000;0.1587;10.7283;
87.9000;0.1604;10.7259;
88.2000;0.1587;10.7210;
88.5000;0.1628;10.7235;
88.8000;0.1604;10.7283;
89.1000;0.1587;10.7331;
89.4000;0.1612;10.7452;
89.7000;0.1612;10.7428;
90.0000;0.1612;10.7452;
90.3000;0.1587;10.7403;
90.6000;0.1604;10.7403;
90.9000;0.1579;10.7355;
91.2000;0.1595;10.7307;
91.5000;0.1604;10.7331;
91.8000;0.1587;10.7259;
92.1000;0.1644;10.7307;
92.4000;0.1612;10.7235;
92.7000;0.1620;10.7331;
93.0000;0.1612;10.7307;
93.3000;0.1595;10.7283;
93.6000;0.1595;10.7355;
93.9000;0.1652;10.7452;
94.2000;0.1628;10.7403;
94.5000;0.1628;10.7379;
94.8000;0.1612;10.7307;
95.1000;0.1587;10.7186;
95.4000;0.1579;10.7235;
95.7000;0.1595;10.7307;
96.0000;0.1604;10.7210;
96.3000;0.1612;10.7210;
96.6000;0.1612;10.7186;
96.9000;0.1595;10.7235;
97.2000;0.1587;10.7186;
97.5000;0.1579;10.7138;
97.8000;0.1595;10.7210;
98.1000;0.1628;10.7259;
98.4000;0.1628;10.7186;
98.7000;0.1595;10.7162;
99.0000;0.1620;10.7283;
99.3000;0.1661;10.7428;
99.6000;0.1530;10.7042;
99.9000;0.1620;10.7186;
100.2000;0.1612;10.7259;
100.5000;0.1612;10.7259;
100.8000;0.1612;10.7259;
101.1000;0.1604;10.7235;
101.4000;0.1595;10.7210;
101.7000;0.1595;10.7114;
102.0000;0.1587;10.7114;
102.3000;0.1628;10.7186;
102.6000;0.1604;10.7114;
102.9000;0.1604;10.7138;
103.2000;0.1604;10.7114;
103.5000;0.1620;10.7162;
103.8000;0.1612;10.7138;
104.1000;0.1587;10.7042;
104.4000;0.1604;10.7138;
104.7000;0.1612;10.7114;
105.0000;0.1604;10.7138;
105.3000;0.1644;10.7162;
105.6000;0.1612;10.7042;
105.9000;0.1595;10.7042;
106.2000;0.1595;10.7114;
106.5000;0.1604;10.7066;
106.8000;0.1595;10.7018;
107.1000;0.1595;10.6993;
107.4000;0.1595;10.7066;
107.7000;0.1595;10.7138;
108.0000;0.1595;10.7162;
108.3000;0.1612;10.7114;
108.6000;0.1636;10.7162;
108.9000;0.1595;10.7066;
109.2000;0.1547;10.6993;
109.5000;0.1612;10.7210;
109.8000;0.1595;10.7186;
110.1000;0.1604;10.7186;
110.4000;0.1587;10.7186;
110.7000;0.1571;10.7138;
111.0000;0.1587;10.7162;
111.3000;0.1571;10.7138;
111.6000;0.1595;10.7114;
111.9000;0.1587;10.7018;
112.2000;0.1604;10.7042;
112.5000;0.1595;10.7066;
112.8000;0.1587;10.7018;
113.1000;0.1620;10.7162;
113.4000;0.1579;10.7018;
113.7000;0.1595;10.7114;
114.0000;0.1595;10.7114;
114.3000;0.1604;10.7090;
114.6000;0.1612;10.7090;
114.9000;0.1620;10.7090;
115.2000;0.1677;10.7235;
115.5000;0.1604;10.7066;
115.8000;0.1612;10.7138;
116.1000;0.1612;10.7162;
116.4000;0.1612;10.7186;
116.7000;0.1604;10.7162;
117.0000;0.1522;10.7042;
117.3000;0.1620;10.7138;
117.6000;0.1612;10.7114;
117.9000;0.1555;10.7042;
118.2000;0.1604;10.7138;
118.5000;0.1620;10.7235;
118.8000;0.1620;10.7235;
119.1000;0.1587;10.7114;
119.4000;0.1612;10.7283;
119.7000;0.1612;10.7186;
120.0000;0.1604;10.7186;
120.3000;0.1620;10.7210;
120.6000;0.1563;10.7138;
120.9000;0.1612;10.7235;
121.2000;0.1620;10.7259;
121.5000;0.1579;10.7235;
121.8000;0.1579;10.7235;
122.1000;0.1604;10.7259;
122.4000;0.1604;10.7307;
122.7000;0.1636;10.7355;
123.0000;0.1595;10.7379;
123.3000;0.1628;10.7403;
123.6000;0.1636;10.7307;
123.9000;0.1604;10.7114;
124.2000;0.1579;10.7090;
124.5000;0.1587;10.7090;
124.8000;0.1652;10.7307;
125.1000;0.1612;10.7210;
125.4000;0.1604;10.7162;
125.7000;0.1595;10.7138;
126.0000;0.1498;10.6945;
126.3000;0.1595;10.7114;
126.6000;0.1661;10.7259;
126.9000;0.1726;10.7452;
127.2000;0.1595;10.7114;
127.5000;0.1595;10.7186;
127.8000;0.1579;10.7138;
128.1000;0.1669;10.7379;
128.4000;0.1587;10.7114;
128.7000;0.1587;10.7138;
129.0000;0.1595;10.7138;
129.3000;0.1587;10.7138;
129.6000;0.1604;10.7138;
129.9000;0.1579;10.7090;
130.2000;0.1587;10.7114;
130.5000;0.1612;10.7138;
130.8000;0.1587;10.7138;
131.1000;0.1595;10.7162;
131.4000;0.1555;10.7066;
131.7000;0.1612;10.7210;
132.0000;0.1587;10.7138;
132.3000;0.1587;10.7162;
132.6000;0.1579;10.7114;
132.9000;0.1595;10.7259;
133.2000;0.1587;10.7186;
133.5000;0.1628;10.7259;
133.8000;0.1595;10.7283;
134.1000;0.1587;10.7186;
134.4000;0.1612;10.7162;
134.7000;0.1579;10.7042;
135.0000;0.1604;10.7186;
135.3000;0.1612;10.7307;
135.6000;0.1612;10.7307;
135.9000;0.1604;10.7379;
136.2000;0.1620;10.7379;
136.5000;0.1612;10.7355;
136.8000;0.1604;10.7307;
137.1000;0.1612;10.7331;
137.4000;0.1587;10.7331;
137.7000;0.1595;10.7355;
138.0000;0.1595;10.7331;
138.3000;0.1604;10.7283;
138.6000;0.1595;10.7259;
138.9000;0.1612;10.7307;
139.2000;0.1693;10.7524;
139.5000;0.1579;10.7162;
139.8000;0.1595;10.7162;
140.1000;0.1506;10.6945;
140.4000;0.1620;10.7186;
140.7000;0.1620;10.7186;
141.0000;0.1604;10.7186;
141.3000;0.1620;10.7138;
141.6000;0.1669;10.7355;
141.9000;0.1604;10.7162;
142.2000;0.1620;10.7114;
142.5000;0.1612;10.7042;
142.8000;0.1620;10.7090;
143.1000;0.1604;10.7090;
143.4000;0.1587;10.7138;
143.7000;0.1709;10.7379;
144.0000;0.1612;10.7138;
144.3000;0.1595;10.7114;
144.6000;0.1530;10.7018;
144.9000;0.1530;10.7138;
145.2000;0.1595;10.7259;
145.5000;0.1595;10.7186;
145.8000;0.1604;10.7210;
146.1000;0.1604;10.7162;
146.4000;0.1612;10.7186;
146.7000;0.1587;10.7090;
147.0000;0.1571;10.6993;
147.3000;0.1604;10.6945;
147.6000;0.1595;10.6993;
147.9000;0.1604;10.6993;
148.2000;0.1595;10.7042;
148.5000;0.1595;10.6969;
148.8000;0.1587;10.6993;
149.1000;0.1547;10.6873;
149.4000;0.1604;10.7018;
149.7000;0.1612;10.7042;
150.0000;0.1595;10.6993;
150.3000;0.1595;10.7018;
150.6000;0.1612;10.7018;
150.9000;0.1612;10.7162;
151.2000;0.1595;10.7114;
151.5000;0.1587;10.7235;
151.8000;0.1587;10.7210;
152.1000;0.1587;10.7186;
152.4000;0.1587;10.7114;
152.7000;0.1595;10.7162;
153.0000;0.1604;10.7162;
153.3000;0.1579;10.7066;
153.6000;0.1604;10.7138;
153.9000;0.1595;10.7042;
154.2000;0.1595;10.7138;
154.5000;0.1547;10.6897;
154.8000;0.1612;10.7090;
155.1000;0.1595;10.7114;
155.4000;0.1595;10.7090;
155.7000;0.1595;10.7018;
156.0000;0.1587;10.6969;
156.3000;0.1595;10.7066;
156.6000;0.1604;10.7090;
156.9000;0.1514;10.6897;
157.2000;0.1579;10.6993;
157.5000;0.1612;10.7066;
157.8000;0.1628;10.7114;
158.1000;0.1579;10.7042;
158.4000;0.1604;10.7066;
158.7000;0.1571;10.6969;
159.0000;0.1620;10.7066;
159.3000;0.1595;10.7018;
159.6000;0.1595;10.7066;
159.9000;0.1571;10.7042;
160.2000;0.1587;10.7162;
160.5000;0.1587;10.7114;
160.8000;0.1604;10.7162;
161.1000;0.1620;10.7186;
161.4000;0.1595;10.7162;
161.7000;0.1604;10.7186;
162.0000;0.1595;10.7090;
162.3000;0.1604;10.7138;
162.6000;0.1595;10.7186;
162.9000;0.1595;10.7186;
163.2000;0.1595;10.7259;
163.5000;0.1595;10.7259;
163.8000;0.1604;10.7235;
164.1000;0.1628;10.7379;
164.4000;0.1685;10.7524;
164.7000;0.1604;10.7355;
165.0000;0.1612;10.7355;
165.3000;0.1595;10.7307;
165.6000;0.1636;10.7428;
165.9000;0.1644;10.7355;
166.2000;0.1734;10.7645;
166.5000;0.1628;10.7403;
166.8000;0.1595;10.7307;
167.1000;0.1604;10.7259;
167.4000;0.1490;10.6993;
167.7000;0.1595;10.7331;
168.0000;0.1604;10.7307;
168.3000;0.1604;10.7283;
168.6000;0.1620;10.7235;
168.9000;0.1595;10.7090;
169.2000;0.1595;10.6969;
169.5000;0.1620;10.7018;
169.8000;0.1595;10.6945;
170.1000;0.1595;10.6897;
170.4000;0.1604;10.6993;
170.7000;0.1579;10.6897;
171.0000;0.1604;10.7018;
171.3000;0.1604;10.7114;
171.6000;0.1587;10.7018;
171.9000;0.1587;10.7042;
172.2000;0.1612;10.6993;
172.5000;0.1620;10.7042;
172.8000;0.1587;10.6897;
173.1000;0.1604;10.6969;
173.4000;0.1595;10.6969;
173.7000;0.1620;10.7018;
174.0000;0.1595;10.7018;
174.3000;0.1604;10.7114;
174.6000;0.1579;10.7114;
174.9000;0.1595;10.7138;
175.2000;0.1595;10.7186;
175.5000;0.1595;10.7210;
175.8000;0.1587;10.7162;
176.1000;0.1612;10.7186;
176.4000;0.1604;10.7114;
176.7000;0.1571;10.6969;
177.0000;0.1612;10.7090;
177.3000;0.1604;10.7138;
177.6000;0.1579;10.7138;
177.9000;0.1587;10.7186;
178.2000;0.1612;10.7186;
178.5000;0.1604;10.7090;
178.8000;0.1579;10.7042;
179.1000;0.1579;10.7042;
179.4000;0.1587;10.7042;
179.7000;0.1595;10.7114;
180.0000;0.1612;10.7162;
180.3000;0.1595;10.7186;
180.6000;0.1587;10.7283;
180.9000;0.1604;10.7355;
181.2000;0.1587;10.7259;
181.5000;0.1595;10.7283;
181.8000;0.1685;10.7548;
182.1000;0.1595;10.7283;
182.4000;0.1612;10.7307;
182.7000;0.1587;10.7210;
183.0000;0.1571;10.7162;
183.3000;0.1587;10.7114;
183.6000;0.1595;10.7114;
183.9000;0.1595;10.7090;
184.2000;0.1579;10.7162;
184.5000;0.1579;10.7090;
184.8000;0.1563;10.6993;
185.1000;0.1506;10.6825;
185.4000;0.1587;10.7162;
185.7000;0.1595;10.7259;
186.0000;0.1604;10.7235;
186.3000;0.1595;10.7283;
186.6000;0.1595;10.7283;
186.9000;0.1587;10.7331;
187.2000;0.1571;10.7379;
187.5000;0.1595;10.7283;
187.8000;0.1604;10.7331;
188.1000;0.1604;10.7403;
188.4000;0.1636;10.7355;
188.7000;0.1604;10.7259;
189.0000;0.1604;10.7283;
189.3000;0.1595;10.7259;
189.6000;0.1595;10.7186;
189.9000;0.1587;10.7162;
190.2000;0.1547;10.6945;
190.5000;0.1595;10.7138;
190.8000;0.1587;10.7114;
191.1000;0.1595;10.7162;
191.4000;0.1563;10.7114;
191.7000;0.1595;10.7186;
192.0000;0.1604;10.7138;
192.3000;0.1604;10.7186;
192.6000;0.1604;10.7138;
192.9000;0.1604;10.7138;
193.2000;0.1522;10.6921;
193.5000;0.1514;10.6993;
193.8000;0.1636;10.7331;
194.1000;0.1587;10.7210;
194.4000;0.1563;10.7235;
194.7000;0.1579;10.7355;
195.0000;0.1571;10.7307;
195.3000;0.1571;10.7403;
195.6000;0.1587;10.7283;
195.9000;0.1587;10.7259;
196.2000;0.1636;10.7379;
196.5000;0.1612;10.7307;
196.8000;0.1587;10.7283;
197.1000;0.1595;10.7355;
197.4000;0.1604;10.7379;
197.7000;0.1595;10.7379;
198.0000;0.1595;10.7379;
198.3000;0.1620;10.7403;
198.6000;0.1595;10.7210;
198.9000;0.1595;10.7114;
199.2000;0.1587;10.7090;
199.5000;0.1579;10.7162;
199.8000;0.1587;10.7186;
200.1000;0.1595;10.7210;
200.4000;0.1579;10.7162;
200.7000;0.1587;10.7186;
201.0000;0.1587;10.7259;
201.3000;0.1587;10.7235;
201.6000;0.1612;10.7259;
201.9000;0.1604;10.7355;
202.2000;0.1579;10.7259;
202.5000;0.1595;10.7259;
202.8000;0.1620;10.7235;
203.1000;0.1604;10.7114;
203.4000;0.1595;10.7186;
203.7000;0.1579;10.7307;
204.0000;0.1604;10.7283;
204.3000;0.1587;10.7186;
204.6000;0.1587;10.7235;
204.9000;0.1579;10.7283;
205.2000;0.1595;10.7331;
205.5000;0.1538;10.7186;
205.8000;0.1587;10.7307;
206.1000;0.1587;10.7307;
206.4000;0.1612;10.7379;
206.7000;0.1628;10.7452;
207.0000;0.1595;10.7403;
207.3000;0.1587;10.7307;
207.6000;0.1604;10.7331;
207.9000;0.1612;10.7331;
208.2000;0.1563;10.7283;
208.5000;0.1604;10.7403;
208.8000;0.1604;10.7452;
209.1000;0.1595;10.7331;
209.4000;0.1595;10.7283;
209.7000;0.1595;10.7307;
210.0000;0.1612;10.7379;
210.3000;0.1604;10.7428;
210.6000;0.1587;10.7307;
210.9000;0.1612;10.7307;
211.2000;0.1547;10.7114;
211.5000;0.1612;10.7331;
211.8000;0.1628;10.7355;
212.1000;0.1604;10.7331;
212.4000;0.1595;10.7259;
212.7000;0.1620;10.7331;
213.0000;0.1595;10.7307;
213.3000;0.1587;10.7235;
213.6000;0.1587;10.7186;
213.9000;0.1587;10.7162;
214.2000;0.1604;10.7283;
214.5000;0.1595;10.7259;
214.8000;0.1604;10.7259;
215.1000;0.1612;10.7283;
215.4000;0.1595;10.7259;
215.7000;0.1620;10.7283;
216.0000;0.1636;10.7283;
216.3000;0.1652;10.7355;
216.6000;0.1587;10.7186;
216.9000;0.1604;10.7259;
217.2000;0.1579;10.7138;
217.5000;0.1579;10.7138;
217.8000;0.1587;10.7090;
218.1000;0.1620;10.7235;
218.4000;0.1595;10.7210;
218.7000;0.1555;10.7138;
219.0000;0.1587;10.7210;
219.3000;0.1604;10.7259;
219.6000;0.1547;10.7186;
219.9000;0.1547;10.7210;
220.2000;0.1652;10.7548;
220.5000;0.1587;10.7428;
220.8000;0.1595;10.7428;
221.1000;0.1628;10.7524;
221.4000;0.1587;10.7355;
221.7000;0.1587;10.7428;
222.0000;0.1595;10.7476;
222.3000;0.1620;10.7500;
222.6000;0.1595;10.7355;
222.9000;0.1587;10.7283;
223.2000;0.1579;10.7259;
223.5000;0.1595;10.7259;
223.8000;0.1604;10.7138;
224.1000;0.1587;10.7066;
224.4000;0.1628;10.7210;
224.7000;0.1587;10.7114;
225.0000;0.1579;10.7042;
225.3000;0.1571;10.7114;
225.6000;0.1595;10.7090;
225.9000;0.1587;10.7138;
226.2000;0.1604;10.7235;
226.5000;0.1563;10.7090;
226.8000;0.1587;10.7235;
227.1000;0.1604;10.7259;
227.4000;0.1547;10.7090;
227.7000;0.1547;10.7018;
228.0000;0.1587;10.7114;
228.3000;0.1579;10.7114;
228.6000;0.1644;10.7307;
228.9000;0.1579;10.7210;
229.2000;0.1571;10.7259;
229.5000;0.1595;10.7331;
229.8000;0.1604;10.7403;
230.1000;0.1595;10.7428;
230.4000;0.1587;10.7500;
230.7000;0.1595;10.7403;
231.0000;0.1595;10.7331;
231.3000;0.1595;10.7379;
231.6000;0.1587;10.7331;
231.9000;0.1604;10.7283;
232.2000;0.1595;10.7186;
232.5000;0.1595;10.7186;
232.8000;0.1595;10.7210;
233.1000;0.1644;10.7428;
233.4000;0.1604;10.7403;
233.7000;0.1604;10.7403;
234.0000;0.1661;10.7548;
234.3000;0.1604;10.7403;
234.6000;0.1612;10.7403;
234.9000;0.1652;10.7524;
235.2000;0.1620;10.7452;
235.5000;0.1595;10.7355;
235.8000;0.1604;10.7283;
236.1000;0.1595;10.7283;
236.4000;0.1604;10.7331;
236.7000;0.1612;10.7331;
237.0000;0.1595;10.7307;
237.3000;0.1587;10.7403;
237.6000;0.1595;10.7355;
237.9000;0.1604;10.7428;
238.2000;0.1652;10.7476;
238.5000;0.1538;10.7114;
238.8000;0.1490;10.6969;
239.1000;0.1628;10.7403;
239.4000;0.1587;10.7307;
239.7000;0.1530;10.7090;
240.0000;0.1571;10.7210;
240.3000;0.1620;10.7259;
240.6000;0.1587;10.7235;
240.9000;0.1579;10.7162;
241.2000;0.1595;10.7162;
241.5000;0.1587;10.7186;
241.8000;0.1579;10.7235;
242.1000;0.1636;10.7355;
242.4000;0.1604;10.7259;
242.7000;0.1604;10.7379;
243.0000;0.1612;10.7379;
243.3000;0.1595;10.7307;
243.6000;0.1636;10.7379;
243.9000;0.1604;10.7331;
244.2000;0.1604;10.7259;
244.5000;0.1604;10.7162;
244.8000;0.1612;10.7114;
245.1000;0.1604;10.7162;
245.4000;0.1612;10.7210;
245.7000;0.1571;10.7186;
246.0000;0.1595;10.7283;
246.3000;0.1604;10.7331;
246.6000;0.1579;10.7283;
246.9000;0.1587;10.7283;
247.2000;0.1604;10.7307;
247.5000;0.1595;10.7307;
247.8000;0.1595;10.7331;
248.1000;0.1595;10.7259;
248.4000;0.1595;10.7283;
248.7000;0.1587;10.7331;
249.0000;0.1612;10.7452;
249.3000;0.1595;10.7355;
249.6000;0.1595;10.7403;
249.9000;0.1595;10.7403;
250.2000;0.1579;10.7403;
250.5000;0.1595;10.7331;
250.8000;0.1612;10.7331;
251.1000;0.1595;10.7259;
251.4000;0.1612;10.7259;
251.7000;0.1604;10.7331;
252.0000;0.1595;10.7307;
252.3000;0.1587;10.7138;
252.6000;0.1587;10.7162;
252.9000;0.1555;10.7042;
253.2000;0.1612;10.7210;
253.5000;0.1604;10.7283;
253.8000;0.1587;10.7186;
254.1000;0.1604;10.7186;
254.4000;0.1587;10.7114;
254.7000;0.1587;10.7186;
255.0000;0.1530;10.6993;
255.3000;0.1587;10.7210;
255.6000;0.1579;10.7210;
255.9000;0.1547;10.7114;
256.2000;0.1587;10.7235;
256.5000;0.1604;10.7235;
256.8000;0.1587;10.7138;
257.1000;0.1587;10.7066;
257.4000;0.1587;10.7066;
257.7000;0.1595;10.7114;
258.0000;0.1595;10.7138;
258.3000;0.1587;10.7259;
258.6000;0.1604;10.7307;
258.9000;0.1604;10.7355;
259.2000;0.1612;10.7379;
259.5000;0.1595;10.7331;
259.8000;0.1604;10.7355;
260.1000;0.1595;10.7331;
260.4000;0.1587;10.7283;
260.7000;0.1587;10.7259;
261.0000;0.1571;10.7210;
261.3000;0.1579;10.7138;
261.6000;0.1579;10.7162;
261.9000;0.1579;10.7162;
262.2000;0.1538;10.7018;
262.5000;0.1587;10.7114;
262.8000;0.1604;10.7138;
263.1000;0.1587;10.7090;
263.4000;0.1579;10.7138;
263.7000;0.1587;10.7162;
264.0000;0.1628;10.7210;
264.3000;0.1636;10.7259;
264.6000;0.1620;10.7186;
264.9000;0.1604;10.7162;
265.2000;0.1579;10.7114;
265.5000;0.1604;10.7186;
265.8000;0.1579;10.6993;
266.1000;0.1563;10.6993;
266.4000;0.1587;10.7090;
266.7000;0.1587;10.7090;
267.0000;0.1620;10.7138;
267.3000;0.1595;10.7114;
267.6000;0.1587;10.7162;
267.9000;0.1563;10.7090;
268.2000;0.1604;10.7210;
268.5000;0.1595;10.7138;
268.8000;0.1595;10.7186;
269.1000;0.1595;10.7210;
269.4000;0.1571;10.7138;
269.7000;0.1571;10.7114;
270.0000;0.1587;10.7114;
270.3000;0.1579;10.7138;
270.6000;0.1595;10.7210;
270.9000;0.1595;10.7283;
271.2000;0.1604;10.7283;
271.5000;0.1579;10.7186;
271.8000;0.1620;10.7259;
272.1000;0.1587;10.7138;
272.4000;0.1579;10.7114;
272.7000;0.1587;10.7114;
273.0000;0.1604;10.7090;
273.3000;0.1595;10.7235;
273.6000;0.1587;10.7307;
273.9000;0.1612;10.7283;
274.2000;0.1612;10.7307;
274.5000;0.1693;10.7524;
274.8000;0.1595;10.7235;
275.1000;0.1579;10.7162;
275.4000;0.1604;10.7114;
275.7000;0.1612;10.7235;
276.0000;0.1612;10.7283;
276.3000;0.1595;10.7235;
276.6000;0.1587;10.7138;
276.9000;0.1587;10.7090;
277.2000;0.1506;10.6873;
277.5000;0.1587;10.7162;
277.8000;0.1579;10.7162;
278.1000;0.1595;10.7210;
278.4000;0.1587;10.7162;
278.7000;0.1612;10.7162;
279.0000;0.1571;10.7162;
279.3000;0.1669;10.7428;
279.6000;0.1595;10.7283;
279.9000;0.1587;10.7235;
280.2000;0.1620;10.7235;
280.5000;0.1571;10.7090;
280.8000;0.1620;10.7210;
281.1000;0.1620;10.7114;
281.4000;0.1579;10.7066;
281.7000;0.1587;10.7042;
282.0000;0.1661;10.7186;
282.3000;0.1595;10.6993;
282.6000;0.1579;10.6993;
282.9000;0.1579;10.6969;
283.2000;0.1579;10.7066;
283.5000;0.1595;10.7138;
283.8000;0.1595;10.7114;
284.1000;0.1604;10.7162;
284.4000;0.1587;10.7235;
284.7000;0.1595;10.7210;
285.0000;0.1547;10.7066;
285.3000;0.1604;10.7186;
285.6000;0.1604;10.7162;
285.9000;0.1604;10.7235;
286.2000;0.1612;10.7210;
286.5000;0.1604;10.7138;
286.8000;0.1595;10.7162;
287.1000;0.1571;10.7114;
287.4000;0.1595;10.7162;
287.7000;0.1587;10.7090;
288.0000;0.1522;10.6897;
288.3000;0.1636;10.7235;
288.6000;0.1587;10.7210;
288.9000;0.1514;10.7018;
289.2000;0.1595;10.7307;
289.5000;0.1620;10.7355;
289.8000;0.1620;10.7259;
290.1000;0.1473;10.6921;
290.4000;0.1595;10.7162;
290.7000;0.1620;10.7259;
291.0000;0.1628;10.7210;
291.3000;0.1604;10.7186;
291.6000;0.1555;10.7114;
291.9000;0.1555;10.7162;
292.2000;0.1587;10.7186;
292.5000;0.1595;10.7090;
292.8000;0.1595;10.7018;
293.1000;0.1587;10.7114;
293.4000;0.1620;10.7186;
293.7000;0.1612;10.7114;
294.0000;0.1587;10.7066;
294.3000;0.1595;10.7114;
294.6000;0.1587;10.7114;
294.9000;0.1620;10.7138;
295.2000;0.1579;10.7186;
295.5000;0.1604;10.7210;
295.8000;0.1563;10.7235;
296.1000;0.1604;10.7355;
296.4000;0.1669;10.7476;
296.7000;0.1571;10.7259;
297.0000;0.1571;10.7259;
297.3000;0.1579;10.7259;
297.6000;0.1587;10.7210;
297.9000;0.1579;10.7138;
298.2000;0.1595;10.7114;
298.5000;0.1587;10.7162;
298.8000;0.1595;10.7235;
299.1000;0.1563;10.7138;
299.4000;0.1571;10.7114;
299.7000;0.1595;10.7162;
300.0000;0.1579;10.7114;
300.3000;0.1604;10.7138;
300.6000;0.1587;10.7042;
300.9000;0.1579;10.7042;
301.2000;0.1595;10.7066;
301.5000;0.1587;10.7090;
301.8000;0.1595;10.7162;
302.1000;0.1587;10.7138;
302.4000;0.1595;10.7114;
302.7000;0.1587;10.7138;
303.0000;0.1595;10.7186;
303.3000;0.1595;10.7210;
303.6000;0.1595;10.7235;
303.9000;0.1530;10.6993;
304.2000;0.1587;10.7090;
304.5000;0.1579;10.7042;
304.8000;0.1587;10.7018;
305.1000;0.1604;10.7042;
305.4000;0.1636;10.7090;
305.7000;0.1587;10.6849;
306.0000;0.1612;10.6993;
306.3000;0.1579;10.6897;
306.6000;0.1579;10.6897;
306.9000;0.1587;10.6897;
307.2000;0.1595;10.6921;
307.5000;0.1636;10.6921;
307.8000;0.1579;10.6776;
308.1000;0.1612;10.6873;
308.4000;0.1579;10.6849;
308.7000;0.1587;10.6921;
309.0000;0.1620;10.7018;
309.3000;0.1595;10.7042;
309.6000;0.1579;10.7066;
309.9000;0.1571;10.7066;
310.2000;0.1579;10.7114;
310.5000;0.1579;10.7066;
310.8000;0.1587;10.7018;
311.1000;0.1506;10.6800;
311.4000;0.1587;10.7090;
311.7000;0.1587;10.6993;
312.0000;0.1669;10.7283;
312.3000;0.1587;10.6969;
312.6000;0.1579;10.6993;
312.9000;0.1579;10.7018;
313.2000;0.1644;10.7186;
313.5000;0.1595;10.7066;
313.8000;0.1636;10.7210;
314.1000;0.1628;10.7210;
314.4000;0.1595;10.7090;
314.7000;0.1587;10.6945;
315.0000;0.1587;10.6969;
315.3000;0.1587;10.6969;
315.6000;0.1595;10.7066;
315.9000;0.1587;10.7090;
316.2000;0.1587;10.7138;
316.5000;0.1612;10.7186;
316.8000;0.1595;10.7114;
317.1000;0.1595;10.7114;
317.4000;0.1579;10.7066;
317.7000;0.1587;10.7066;
318.0000;0.1595;10.7090;
318.3000;0.1579;10.7114;
318.6000;0.1555;10.7042;
318.9000;0.1620;10.7114;
319.2000;0.1587;10.6969;
319.5000;0.1579;10.6921;
319.8000;0.1595;10.6921;
320.1000;0.1506;10.6752;
320.4000;0.1530;10.6728;
320.7000;0.1587;10.6849;
321.0000;0.1604;10.6897;
321.3000;0.1604;10.6873;
321.6000;0.1587;10.6969;
321.9000;0.1579;10.6969;
322.2000;0.1587;10.7042;
322.5000;0.1571;10.7018;
322.8000;0.1587;10.7042;
323.1000;0.1604;10.7114;
323.4000;0.1563;10.6993;
323.7000;0.1587;10.7138;
324.0000;0.1563;10.7090;
324.3000;0.1595;10.7066;
324.6000;0.1604;10.7090;
324.9000;0.1571;10.6921;
325.2000;0.1571;10.7018;
325.5000;0.1612;10.7090;
325.8000;0.1644;10.7235;
326.1000;0.1579;10.7114;
326.4000;0.1652;10.7235;
326.7000;0.1587;10.7018;
327.0000;0.1595;10.6993;
327.3000;0.1571;10.6897;
327.6000;0.1555;10.6800;
327.9000;0.1587;10.6897;
328.2000;0.1587;10.6897;
328.5000;0.1604;10.6873;
328.8000;0.1587;10.6897;
329.1000;0.1587;10.6993;
329.4000;0.1595;10.6993;
329.7000;0.1587;10.6993;
330.0000;0.1547;10.6897;
330.3000;0.1555;10.6897;
330.6000;0.1547;10.6825;
330.9000;0.1587;10.6993;
331.2000;0.1595;10.6969;
331.5000;0.1644;10.7210;
331.8000;0.1604;10.7066;
332.1000;0.1604;10.7066;
332.4000;0.1595;10.7066;
332.7000;0.1563;10.7042;
333.0000;0.1571;10.7090;
333.3000;0.1604;10.7138;
333.6000;0.1595;10.7162;
333.9000;0.1587;10.7138;
334.2000;0.1620;10.7259;
334.5000;0.1636;10.7331;
334.8000;0.1636;10.7186;
335.1000;0.1709;10.7403;
335.4000;0.1595;10.7162;
335.7000;0.1587;10.7235;
336.0000;0.1587;10.7138;
336.3000;0.1481;10.6873;
336.6000;0.1604;10.7210;
336.9000;0.1587;10.7162;
337.2000;0.1579;10.7114;
337.5000;0.1612;10.7186;
337.8000;0.1538;10.6993;
338.1000;0.1587;10.7138;
338.4000;0.1555;10.7042;
338.7000;0.1587;10.7090;
339.0000;0.1604;10.7138;
339.3000;0.1604;10.7138;
339.6000;0.1587;10.7162;
339.9000;0.1579;10.7138;
340.2000;0.1571;10.7162;
340.5000;0.1604;10.7162;
340.8000;0.1604;10.7138;
341.1000;0.1571;10.7066;
341.4000;0.1595;10.7138;
341.7000;0.1571;10.6993;
342.0000;0.1612;10.7090;
342.3000;0.1587;10.6993;
342.6000;0.1604;10.6993;
342.9000;0.1595;10.6993;
343.2000;0.1587;10.6969;
343.5000;0.1628;10.7114;
343.8000;0.1595;10.6993;
344.1000;0.1595;10.6993;
344.4000;0.1595;10.7066;
344.7000;0.1595;10.7138;
345.0000;0.1587;10.7042;
345.3000;0.1595;10.7066;
345.6000;0.1579;10.6969;
345.9000;0.1571;10.7018;
346.2000;0.1604;10.7042;
346.5000;0.1595;10.7090;
346.8000;0.1612;10.7090;
347.1000;0.1587;10.7138;
347.4000;0.1620;10.7162;
347.7000;0.1579;10.6993;
348.0000;0.1604;10.7042;
348.3000;0.1628;10.7186;
348.6000;0.1571;10.7138;
348.9000;0.1595;10.7259;
349.2000;0.1522;10.7138;
349.5000;0.1604;10.7307;
349.8000;0.1612;10.7259;
350.1000;0.1587;10.7114;
350.4000;0.1595;10.7138;
350.7000;0.1587;10.7210;
351.0000;0.1587;10.7210;
351.3000;0.1563;10.7114;
351.6000;0.1579;10.7090;
351.9000;0.1595;10.7114;
352.2000;0.1498;10.6825;
352.5000;0.1612;10.7210;
352.8000;0.1612;10.7235;
353.1000;0.1579;10.7114;
353.4000;0.1595;10.7114;
353.7000;0.1595;10.7186;
354.0000;0.1612;10.7186;
354.3000;0.1579;10.7138;
354.6000;0.1604;10.7331;
354.9000;0.1604;10.7210;
355.2000;0.1579;10.7114;
355.5000;0.1587;10.7090;
355.8000;0.1579;10.7114;
356.1000;0.1595;10.7114;
356.4000;0.1595;10.7138;
356.7000;0.1620;10.7162;
357.0000;0.1579;10.7042;
357.3000;0.1595;10.7114;
357.6000;0.1604;10.7186;
357.9000;0.1579;10.7162;
358.2000;0.1587;10.7114;
358.5000;0.1595;10.7114;
358.8000;0.1595;10.7042;
359.1000;0.1571;10.6873;
359.4000;0.1595;10.6969;
359.7000;0.1587;10.7066;
360.0000;0.1595;10.7066;
360.3000;0.1579;10.7090;
360.6000;0.1595;10.7162;
360.9000;0.1538;10.7090;
361.2000;0.1595;10.7259;
361.5000;0.1587;10.7090;
361.8000;0.1604;10.7114;
362.1000;0.1587;10.7114;
362.4000;0.1612;10.7162;
362.7000;0.1595;10.7162;
363.0000;0.1579;10.7090;
363.3000;0.1595;10.7090;
363.6000;0.1587;10.7018;
363.9000;0.1579;10.7090;
364.2000;0.1587;10.7114;
364.5000;0.1595;10.7138;
364.8000;0.1587;10.7138;
365.1000;0.1644;10.7283;
365.4000;0.1595;10.7186;
365.7000;0.1604;10.7259;
366.0000;0.1587;10.7162;
366.3000;0.1604;10.7090;
366.6000;0.1587;10.7090;
366.9000;0.1604;10.7114;
367.2000;0.1571;10.7138;
367.5000;0.1555;10.7018;
367.8000;0.1604;10.6969;
368.1000;0.1604;10.6945;
368.4000;0.1595;10.7018;
368.7000;0.1620;10.7138;
369.0000;0.1644;10.7355;
369.3000;0.1595;10.7259;
369.6000;0.1579;10.7259;
369.9000;0.1604;10.7259;
370.2000;0.1563;10.7090;
370.5000;0.1595;10.7138;
370.8000;0.1587;10.7186;
371.1000;0.1571;10.7162;
371.4000;0.1604;10.7307;
371.7000;0.1587;10.7331;
372.0000;0.1620;10.7428;
372.3000;0.1579;10.7331;
372.6000;0.1595;10.7355;
372.9000;0.1587;10.7186;
373.2000;0.1612;10.7162;
373.5000;0.1604;10.7186;
373.8000;0.1587;10.7186;
374.1000;0.1604;10.7307;
374.4000;0.1595;10.7283;
374.7000;0.1587;10.7307;
375.0000;0.1587;10.7210;
375.3000;0.1587;10.7162;
375.6000;0.1579;10.7235;
375.9000;0.1612;10.7331;
376.2000;0.1661;10.7476;
376.5000;0.1628;10.7331;
376.8000;0.1595;10.7210;
377.1000;0.1587;10.7162;
377.4000;0.1612;10.7235;
377.7000;0.1514;10.7042;
378.0000;0.1677;10.7476;
378.3000;0.1587;10.7210;
378.6000;0.1587;10.7186;
378.9000;0.1612;10.7186;
379.2000;0.1587;10.7186;
379.5000;0.1587;10.7162;
379.8000;0.1571;10.7114;
380.1000;0.1595;10.7186;
380.4000;0.1587;10.7114;
380.7000;0.1587;10.7114;
381.0000;0.1587;10.6969;
381.3000;0.1595;10.6945;
381.6000;0.1595;10.7018;
381.9000;0.1612;10.7066;
382.2000;0.1595;10.6993;
382.5000;0.1604;10.7042;
382.8000;0.1595;10.7018;
383.1000;0.1587;10.7042;
383.4000;0.1595;10.7114;
383.7000;0.1595;10.7114;
384.0000;0.1571;10.7138;
384.3000;0.1604;10.7210;
384.6000;0.1530;10.6993;
384.9000;0.1587;10.7186;
385.2000;0.1595;10.7162;
385.5000;0.1595;10.7235;
385.8000;0.1579;10.7283;
386.1000;0.1595;10.7331;
386.4000;0.1587;10.7331;
386.7000;0.1547;10.7138;
387.0000;0.1604;10.7186;
387.3000;0.1587;10.7259;
387.6000;0.1595;10.7283;
387.9000;0.1604;10.7186;
388.2000;0.1612;10.7210;
388.5000;0.1579;10.7186;
388.8000;0.1555;10.7138;
389.1000;0.1571;10.7162;
389.4000;0.1579;10.7283;
389.7000;0.1579;10.7355;
390.0000;0.1547;10.7235;
390.3000;0.1579;10.7283;
390.6000;0.1595;10.7259;
390.9000;0.1595;10.7259;
391.2000;0.1604;10.7283;
391.5000;0.1490;10.6873;
391.8000;0.1652;10.7307;
392.1000;0.1587;10.7162;
392.4000;0.1579;10.7186;
392.7000;0.1579;10.7186;
393.0000;0.1595;10.7235;
393.3000;0.1579;10.7090;
393.6000;0.1579;10.7114;
393.9000;0.1579;10.7066;
394.2000;0.1571;10.7042;
394.5000;0.1579;10.7018;
394.8000;0.1652;10.7355;
395.1000;0.1555;10.7186;
395.4000;0.1563;10.7162;
395.7000;0.1555;10.7114;
396.0000;0.1579;10.7138;
396.3000;0.1571;10.7114;
396.6000;0.1579;10.7162;
396.9000;0.1587;10.7162;
397.2000;0.1595;10.7138;
397.5000;0.1595;10.7138;
397.8000;0.1579;10.7186;
398.1000;0.1595;10.7090;
398.4000;0.1652;10.7186;
398.7000;0.1579;10.6993;
399.0000;0.1571;10.6993;
399.3000;0.1587;10.7018;
399.6000;0.1579;10.7018;
399.9000;0.1595;10.7090;
400.2000;0.1587;10.7090;
400.5000;0.1587;10.7090;
400.8000;0.1587;10.7138;
401.1000;0.1587;10.7090;
401.4000;0.1579;10.6993;
401.7000;0.1595;10.7066;
402.0000;0.1547;10.7018;
402.3000;0.1587;10.7162;
402.6000;0.1587;10.7283;
402.9000;0.1571;10.7210;
403.2000;0.1620;10.7235;
403.5000;0.1595;10.7235;
403.8000;0.1595;10.7283;
404.1000;0.1571;10.7283;
404.4000;0.1587;10.7283;
404.7000;0.1587;10.7259;
405.0000;0.1579;10.7283;
405.3000;0.1571;10.7235;
405.6000;0.1595;10.7307;
405.9000;0.1579;10.7283;
406.2000;0.1620;10.7307;
406.5000;0.1587;10.7259;
406.8000;0.1538;10.7162;
407.1000;0.1644;10.7476;
407.4000;0.1604;10.7379;
407.7000;0.1595;10.7379;
408.0000;0.1563;10.7307;
408.3000;0.1587;10.7379;
408.6000;0.1571;10.7283;
408.9000;0.1604;10.7403;
409.2000;0.1595;10.7428;
409.5000;0.1595;10.7307;
409.8000;0.1604;10.7283;
410.1000;0.1579;10.7210;
410.4000;0.1604;10.7259;
410.7000;0.1555;10.7162;
411.0000;0.1669;10.7476;
411.3000;0.1595;10.7186;
411.6000;0.1563;10.7090;
411.9000;0.1628;10.7283;
412.2000;0.1604;10.7162;
412.5000;0.1612;10.7066;
412.8000;0.1579;10.7066;
413.1000;0.1563;10.7042;
413.4000;0.1612;10.7138;
413.7000;0.1595;10.7114;
414.0000;0.1595;10.7090;
414.3000;0.1595;10.7090;
414.6000;0.1571;10.7042;
414.9000;0.1595;10.7162;
415.2000;0.1579;10.7138;
415.5000;0.1587;10.7138;
415.8000;0.1547;10.6969;
416.1000;0.1612;10.7018;
416.4000;0.1563;10.6825;
416.7000;0.1571;10.6897;
417.0000;0.1587;10.7042;
417.3000;0.1595;10.7066;
417.6000;0.1636;10.7186;
417.9000;0.1604;10.7138;
418.2000;0.1587;10.7042;
418.5000;0.1587;10.6993;
418.8000;0.1604;10.7018;
419.1000;0.1587;10.7018;
419.4000;0.1579;10.7018;
419.7000;0.1579;10.7114;
420.0000;0.1726;10.7524;
420.3000;0.1595;10.7210;
420.6000;0.1587;10.7186;
420.9000;0.1579;10.7138;
421.2000;0.1595;10.7186;
421.5000;0.1579;10.7186;
421.8000;0.1563;10.7138;
422.1000;0.1571;10.7186;
422.4000;0.1677;10.7428;
422.7000;0.1595;10.7235;
423.0000;0.1620;10.7307;
423.3000;0.1587;10.7138;
423.6000;0.1620;10.7162;
423.9000;0.1579;10.7090;
424.2000;0.1587;10.7018;
424.5000;0.1595;10.6945;
424.8000;0.1604;10.6945;
425.1000;0.1604;10.6921;
425.4000;0.1579;10.6825;
425.7000;0.1555;10.6680;
426.0000;0.1587;10.6800;
426.3000;0.1604;10.6825;
426.6000;0.1604;10.6969;
426.9000;0.1587;10.6993;
427.2000;0.1563;10.6993;
427.5000;0.1685;10.7331;
427.8000;0.1571;10.7042;
428.1000;0.1612;10.7090;
428.4000;0.1595;10.6969;
428.7000;0.1595;10.6945;
429.0000;0.1595;10.6969;
429.3000;0.1628;10.7114;
429.6000;0.1587;10.6921;
429.9000;0.1587;10.7018;
430.2000;0.1571;10.6993;
430.5000;0.1555;10.7042;
430.8000;0.1595;10.7210;
431.1000;0.1563;10.7186;
431.4000;0.1595;10.7210;
431.7000;0.1595;10.7235;
432.0000;0.1587;10.7186;
432.3000;0.1595;10.7162;
432.6000;0.1644;10.7186;
432.9000;0.1587;10.6969;
433.2000;0.1587;10.6993;
433.5000;0.1595;10.6897;
433.8000;0.1604;10.6873;
434.1000;0.1587;10.6945;
434.4000;0.1604;10.7066;
434.7000;0.1587;10.6969;
435.0000;0.1579;10.7066;
435.3000;0.1587;10.7210;
435.6000;0.1587;10.7259;
435.9000;0.1595;10.7259;
436.2000;0.1571;10.7283;
436.5000;0.1604;10.7259;
436.8000;0.1587;10.7162;
437.1000;0.1571;10.7066;
437.4000;0.1587;10.7090;
437.7000;0.1587;10.7090;
438.0000;0.1677;10.7331;
438.3000;0.1579;10.6969;
438.6000;0.1595;10.7066;
438.9000;0.1661;10.7283;
439.2000;0.1579;10.7042;
439.5000;0.1530;10.6897;
439.8000;0.1522;10.6945;
440.1000;0.1604;10.7210;
440.4000;0.1587;10.7186;
440.7000;0.1604;10.7259;
441.0000;0.1604;10.7283;
441.3000;0.1579;10.7162;
441.6000;0.1661;10.7403;
441.9000;0.1595;10.7138;
442.2000;0.1595;10.7042;
442.5000;0.1595;10.7138;
442.8000;0.1612;10.7138;
443.1000;0.1612;10.7210;
443.4000;0.1563;10.7090;
443.7000;0.1612;10.7331;
444.0000;0.1530;10.7162;
444.3000;0.1652;10.7403;
444.6000;0.1579;10.7138;
444.9000;0.1595;10.7162;
445.2000;0.1612;10.7186;
445.5000;0.1587;10.7090;
445.8000;0.1595;10.7114;
446.1000;0.1636;10.7307;
446.4000;0.1587;10.7283;
446.7000;0.1604;10.7259;
447.0000;0.1587;10.7235;
447.3000;0.1595;10.7307;
447.6000;0.1612;10.7355;
447.9000;0.1571;10.7307;
448.2000;0.1595;10.7355;
448.5000;0.1563;10.7283;
448.8000;0.1579;10.7307;
449.1000;0.1612;10.7331;
449.4000;0.1595;10.7186;
449.7000;0.1587;10.7283;
450.0000;0.1604;10.7162;
450.3000;0.1579;10.7042;
450.6000;0.1547;10.6993;
450.9000;0.1579;10.7114;
451.2000;0.1587;10.7114;
451.5000;0.1563;10.7042;
451.8000;0.1604;10.7162;
452.1000;0.1571;10.7186;
452.4000;0.1579;10.7186;
452.7000;0.1595;10.7138;
453.0000;0.1587;10.7138;
453.3000;0.1604;10.7114;
453.6000;0.1612;10.7162;
453.9000;0.1579;10.7114;
454.2000;0.1579;10.7138;
454.5000;0.1587;10.7210;
454.8000;0.1579;10.7162;
455.1000;0.1587;10.7162;
455.4000;0.1579;10.7138;
455.7000;0.1587;10.7114;
456.0000;0.1595;10.7138;
456.3000;0.1579;10.7162;
456.6000;0.1595;10.7138;
456.9000;0.1595;10.7186;
457.2000;0.1579;10.7138;
457.5000;0.1571;10.7162;
457.8000;0.1652;10.7331;
458.1000;0.1587;10.7307;
458.4000;0.1579;10.7283;
458.7000;0.1595;10.7210;
459.0000;0.1604;10.7186;
459.3000;0.1587;10.7210;
459.6000;0.1595;10.7235;
459.9000;0.1612;10.7235;
460.2000;0.1595;10.7210;
460.5000;0.1595;10.7235;
460.8000;0.1628;10.7307;
461.1000;0.1604;10.7283;
461.4000;0.1571;10.7186;
461.7000;0.1612;10.7210;
462.0000;0.1701;10.7452;
462.3000;0.1595;10.7162;
462.6000;0.1579;10.7186;
462.9000;0.1595;10.7283;
463.2000;0.1595;10.7355;
463.5000;0.1595;10.7210;
463.8000;0.1701;10.7524;
464.1000;0.1571;10.7114;
464.4000;0.1595;10.7235;
464.7000;0.1579;10.7259;
465.0000;0.1620;10.7355;
465.3000;0.1604;10.7379;
465.6000;0.1636;10.7452;
465.9000;0.1595;10.7403;
466.2000;0.1595;10.7428;
466.5000;0.1587;10.7379;
466.8000;0.1604;10.7428;
467.1000;0.1612;10.7379;
467.4000;0.1628;10.7379;
467.7000;0.1571;10.7138;
468.0000;0.1514;10.6993;
468.3000;0.1571;10.7259;
468.6000;0.1595;10.7331;
468.9000;0.1620;10.7379;
469.2000;0.1587;10.7355;
469.5000;0.1579;10.7331;
469.8000;0.1579;10.7307;
470.1000;0.1587;10.7355;
470.4000;0.1595;10.7428;
470.7000;0.1538;10.7235;
471.0000;0.1579;10.7283;
471.3000;0.1579;10.7186;
471.6000;0.1555;10.7090;
471.9000;0.1587;10.7259;
472.2000;0.1587;10.7235;
472.5000;0.1563;10.7186;
472.8000;0.1587;10.7235;
473.1000;0.1595;10.7162;
473.4000;0.1587;10.7066;
473.7000;0.1620;10.7138;
474.0000;0.1595;10.7114;
474.3000;0.1595;10.7138;
474.6000;0.1587;10.7138;
474.9000;0.1620;10.7138;
475.2000;0.1612;10.7018;
475.5000;0.1595;10.6993;
475.8000;0.1587;10.6993;
476.1000;0.1595;10.7018;
476.4000;0.1604;10.7066;
476.7000;0.1490;10.6825;
477.0000;0.1595;10.7138;
477.3000;0.1587;10.7114;
477.6000;0.1604;10.7162;
477.9000;0.1604;10.7210;
478.2000;0.1587;10.7138;
478.5000;0.1604;10.7235;
478.8000;0.1587;10.7138;
479.1000;0.1604;10.7114;
479.4000;0.1579;10.7114;
479.7000;0.1612;10.7114;
480.0000;0.1604;10.7114;
480.3000;0.1595;10.7114;
480.6000;0.1571;10.7066;
480.9000;0.1604;10.7186;
481.2000;0.1604;10.7210;
481.5000;0.1579;10.7210;
481.8000;0.1571;10.7186;
482.1000;0.1571;10.7162;
482.4000;0.1555;10.7114;
482.7000;0.1579;10.7090;
483.0000;0.1587;10.7042;
483.3000;0.1587;10.7018;
483.6000;0.1522;10.6873;
483.9000;0.1652;10.7331;
484.2000;0.1579;10.7138;
484.5000;0.1490;10.6897;
484.8000;0.1522;10.6993;
485.1000;0.1612;10.7162;
485.4000;0.1595;10.7138;
485.7000;0.1579;10.7138;
486.0000;0.1571;10.6945;
486.3000;0.1587;10.7018;
486.6000;0.1620;10.7138;
486.9000;0.1620;10.7162;
487.2000;0.1587;10.7114;
487.5000;0.1604;10.7066;
487.8000;0.1457;10.6704;
488.1000;0.1595;10.6993;
488.4000;0.1555;10.6897;
488.7000;0.1579;10.7066;
489.0000;0.1579;10.6993;
489.3000;0.1612;10.7114;
489.6000;0.1571;10.7090;
489.9000;0.1628;10.7186;
490.2000;0.1587;10.7090;
490.5000;0.1579;10.7138;
490.8000;0.1579;10.7018;
491.1000;0.1547;10.6752;
491.4000;0.1547;10.6728;
491.7000;0.1595;10.6800;
492.0000;0.1530;10.6728;
492.3000;0.1538;10.6800;
492.6000;0.1587;10.6945;
492.9000;0.1604;10.7018;
493.2000;0.1547;10.6849;
493.5000;0.1563;10.6825;
493.8000;0.1571;10.6897;
494.1000;0.1587;10.6993;
494.4000;0.1579;10.6945;
494.7000;0.1579;10.6969;
495.0000;0.1587;10.6945;
495.3000;0.1604;10.6969;
495.6000;0.1579;10.6849;
495.9000;0.1571;10.6825;
496.2000;0.1595;10.6873;
496.5000;0.1595;10.6825;
496.8000;0.1612;10.6849;
497.1000;0.1579;10.6704;
497.4000;0.1571;10.6704;
497.7000;0.1579;10.6752;
498.0000;0.1595;10.6825;
498.3000;0.1604;10.6945;
498.6000;0.1612;10.6897;
498.9000;0.1587;10.6825;
499.2000;0.1587;10.6897;
499.5000;0.1587;10.6969;
499.8000;0.1555;10.6849;
500.1000;0.1595;10.7066;
500.4000;0.1604;10.7162;
500.7000;0.1604;10.7042;
501.0000;0.1571;10.7042;
501.3000;0.1604;10.7018;
501.6000;0.1604;10.7066;
501.9000;0.1612;10.7090;
502.2000;0.1620;10.7066;
502.5000;0.1587;10.7018;
502.8000;0.1587;10.7090;
503.1000;0.1595;10.7114;
503.4000;0.1595;10.7090;
503.7000;0.1587;10.6993;
504.0000;0.1563;10.6921;
504.3000;0.1579;10.7090;
504.6000;0.1587;10.7090;
504.9000;0.1628;10.7283;
505.2000;0.1620;10.7210;
505.5000;0.1587;10.7138;
505.8000;0.1636;10.7283;
506.1000;0.1587;10.7162;
506.4000;0.1595;10.7114;
506.7000;0.1579;10.7090;
507.0000;0.1595;10.7138;
507.3000;0.1571;10.7018;
507.6000;0.1587;10.7018;
507.9000;0.1579;10.6993;
508.2000;0.1571;10.7090;
508.5000;0.1579;10.7114;
508.8000;0.1547;10.7138;
509.1000;0.1628;10.7428;
509.4000;0.1579;10.7283;
509.7000;0.1587;10.7210;
510.0000;0.1571;10.7138;
510.3000;0.1563;10.7114;
510.6000;0.1661;10.7331;
510.9000;0.1587;10.7162;
511.2000;0.1587;10.7090;
511.5000;0.1587;10.7210;
511.8000;0.1587;10.7210;
512.1000;0.1595;10.7186;
512.4000;0.1555;10.6993;
512.7000;0.1587;10.7114;
513.0000;0.1579;10.7018;
513.3000;0.1620;10.7090;
513.6000;0.1579;10.7018;
513.9000;0.1571;10.7042;
514.2000;0.1587;10.7090;
514.5000;0.1595;10.7066;
514.8000;0.1587;10.7042;
515.1000;0.1587;10.7090;
515.4000;0.1530;10.7018;
515.7000;0.1669;10.7379;
516.0000;0.1571;10.7066;
516.3000;0.1604;10.7042;
516.6000;0.1579;10.6969;
516.9000;0.1579;10.7066;
517.2000;0.1579;10.7018;
517.5000;0.1604;10.7066;
517.8000;0.1595;10.6993;
518.1000;0.1587;10.6945;
518.4000;0.1587;10.6945;
518.7000;0.1595;10.6969;
519.0000;0.1571;10.6897;
519.3000;0.1604;10.7042;
519.6000;0.1579;10.7138;
519.9000;0.1506;10.7042;
520.2000;0.1604;10.7355;
520.5000;0.1587;10.7186;
520.8000;0.1612;10.7259;
521.1000;0.1644;10.7307;
521.4000;0.1587;10.7114;
521.7000;0.1604;10.7162;
522.0000;0.1595;10.7042;
522.3000;0.1636;10.7138;
522.6000;0.1604;10.6945;
522.9000;0.1563;10.6752;
523.2000;0.1514;10.6607;
523.5000;0.1587;10.6680;
523.8000;0.1628;10.6849;
524.1000;0.1644;10.6825;
524.4000;0.1555;10.6632;
524.7000;0.1595;10.6776;
525.0000;0.1571;10.6776;
525.3000;0.1579;10.6680;
525.6000;0.1587;10.6728;
525.9000;0.1604;10.6704;
526.2000;0.1555;10.6583;
526.5000;0.1587;10.6728;
526.8000;0.1587;10.6776;
527.1000;0.1587;10.6873;
527.4000;0.1587;10.6897;
527.7000;0.1587;10.6945;
528.0000;0.1563;10.6897;
528.3000;0.1587;10.7018;
528.6000;0.1604;10.7090;
528.9000;0.1579;10.7066;
529.2000;0.1587;10.7114;
529.5000;0.1604;10.7090;
529.8000;0.1612;10.7042;
530.1000;0.1595;10.6969;
530.4000;0.1587;10.6969;
530.7000;0.1571;10.6993;
531.0000;0.1571;10.7042;
531.3000;0.1595;10.7090;
531.6000;0.1563;10.6969;
531.9000;0.1587;10.6945;
532.2000;0.1612;10.6969;
532.5000;0.1579;10.6921;
532.8000;0.1579;10.6897;
533.1000;0.1571;10.6921;
533.4000;0.1571;10.7018;
533.7000;0.1571;10.7066;
534.0000;0.1563;10.7042;
534.3000;0.1579;10.7066;
534.6000;0.1579;10.7066;
534.9000;0.1563;10.6921;
535.2000;0.1587;10.7114;
535.5000;0.1579;10.7066;
535.8000;0.1587;10.7090;
536.1000;0.1571;10.7042;
536.4000;0.1604;10.7066;
536.7000;0.1595;10.6993;
537.0000;0.1522;10.6752;
537.3000;0.1604;10.7066;
537.6000;0.1595;10.7114;
537.9000;0.1595;10.7066;
538.2000;0.1604;10.7066;
538.5000;0.1587;10.7114;
538.8000;0.1555;10.7018;
539.1000;0.1481;10.6873;
539.4000;0.1661;10.7331;
539.7000;0.1604;10.7235;
540.0000;0.1587;10.7186;
540.3000;0.1579;10.7138;
540.6000;0.1571;10.7066;
540.9000;0.1595;10.7186;
541.2000;0.1604;10.7114;
541.5000;0.1604;10.7162;
541.8000;0.1595;10.7018;
542.1000;0.1595;10.6945;
542.4000;0.1579;10.6873;
542.7000;0.1579;10.6873;
543.0000;0.1595;10.6897;
543.3000;0.1587;10.6897;
543.6000;0.1563;10.6873;
543.9000;0.1579;10.6921;
544.2000;0.1563;10.6969;
544.5000;0.1457;10.6680;
544.8000;0.1587;10.7018;
545.1000;0.1563;10.6945;
545.4000;0.1595;10.6993;
545.7000;0.1579;10.7018;
546.0000;0.1604;10.7090;
546.3000;0.1595;10.7090;
546.6000;0.1579;10.7018;
546.9000;0.1587;10.6921;
547.2000;0.1579;10.6993;
547.5000;0.1579;10.7042;
547.8000;0.1604;10.7066;
548.1000;0.1538;10.6921;
548.4000;0.1579;10.7018;
548.7000;0.1579;10.7042;
549.0000;0.1595;10.6993;
549.3000;0.1595;10.6945;
549.6000;0.1587;10.6897;
549.9000;0.1595;10.6849;
550.2000;0.1571;10.6825;
550.5000;0.1579;10.6873;
550.8000;0.1587;10.6849;
551.1000;0.1595;10.6921;
551.4000;0.1587;10.6921;
551.7000;0.1595;10.6921;
552.0000;0.1465;10.6583;
552.3000;0.1563;10.6873;
552.6000;0.1571;10.6800;
552.9000;0.1563;10.6800;
553.2000;0.1587;10.6897;
553.5000;0.1595;10.6993;
553.8000;0.1555;10.6921;
554.1000;0.1612;10.7018;
554.4000;0.1587;10.6921;
554.7000;0.1587;10.6993;
555.0000;0.1579;10.6921;
555.3000;0.1579;10.6921;
555.6000;0.1595;10.6945;
555.9000;0.1579;10.6969;
556.2000;0.1579;10.6873;
556.5000;0.1604;10.6993;
556.8000;0.1595;10.6969;
557.1000;0.1595;10.6969;
557.4000;0.1604;10.7018;
557.7000;0.1604;10.7042;
558.0000;0.1669;10.7186;
558.3000;0.1595;10.7018;
558.6000;0.1604;10.7042;
558.9000;0.1579;10.7018;
559.2000;0.1555;10.6993;
559.5000;0.1579;10.7090;
559.8000;0.1538;10.6945;
560.1000;0.1587;10.6993;
560.4000;0.1563;10.6945;
560.7000;0.1620;10.7138;
561.0000;0.1538;10.7018;
561.3000;0.1587;10.7090;
561.6000;0.1563;10.7018;
561.9000;0.1604;10.7090;
562.2000;0.1587;10.7066;
562.5000;0.1595;10.7090;
562.8000;0.1612;10.7186;
563.1000;0.1685;10.7476;
563.4000;0.1620;10.7307;
563.7000;0.1595;10.7114;
564.0000;0.1579;10.7042;
564.3000;0.1604;10.7186;
564.6000;0.1522;10.6921;
564.9000;0.1571;10.7018;
565.2000;0.1555;10.7018;
565.5000;0.1595;10.7186;
565.8000;0.1571;10.7066;
566.1000;0.1547;10.6945;
566.4000;0.1595;10.7090;
566.7000;0.1612;10.7162;
567.0000;0.1587;10.7090;
567.3000;0.1595;10.7138;
567.6000;0.1587;10.7066;
567.9000;0.1652;10.7138;
568.2000;0.1595;10.7042;
568.5000;0.1595;10.7090;
568.8000;0.1587;10.7066;
569.1000;0.1604;10.7066;
569.4000;0.1604;10.7114;
569.7000;0.1595;10.7114;
570.0000;0.1563;10.6993;
570.3000;0.1587;10.7042;
570.6000;0.1587;10.7042;
570.9000;0.1587;10.7018;
571.2000;0.1604;10.7114;
571.5000;0.1579;10.7138;
571.8000;0.1587;10.7162;
572.1000;0.1563;10.7186;
572.4000;0.1587;10.7259;
572.7000;0.1571;10.7259;
573.0000;0.1604;10.7331;
573.3000;0.1571;10.7307;
573.6000;0.1498;10.7162;
573.9000;0.1506;10.7138;
574.2000;0.1587;10.7259;
574.5000;0.1595;10.7307;
574.8000;0.1587;10.7210;
575.1000;0.1604;10.7235;
575.4000;0.1563;10.7138;
575.7000;0.1604;10.7235;
576.0000;0.1612;10.7283;
576.3000;0.1595;10.7259;
576.6000;0.1522;10.7114;
576.9000;0.1555;10.7186;
577.2000;0.1587;10.7186;
577.5000;0.1579;10.7162;
577.8000;0.1587;10.7162;
578.1000;0.1522;10.6969;
578.4000;0.1595;10.7186;
578.7000;0.1579;10.7138;
579.0000;0.1571;10.7114;
579.3000;0.1579;10.7090;
579.6000;0.1498;10.6800;
579.9000;0.1571;10.7066;
580.2000;0.1595;10.7138;
580.5000;0.1620;10.7210;
580.8000;0.1587;10.7042;
581.1000;0.1579;10.7090;
581.4000;0.1595;10.7162;
581.7000;0.1587;10.7090;
582.0000;0.1612;10.7186;
582.3000;0.1595;10.7186;
582.6000;0.1595;10.7235;
582.9000;0.1595;10.7186;
583.2000;0.1587;10.7235;
583.5000;0.1604;10.7331;
583.8000;0.1587;10.7283;
584.1000;0.1587;10.7307;
584.4000;0.1595;10.7355;
584.7000;0.1587;10.7283;
585.0000;0.1587;10.7259;
585.3000;0.1587;10.7307;
585.6000;0.1587;10.7235;
585.9000;0.1571;10.7066;
586.2000;0.1579;10.7066;
586.5000;0.1579;10.7066;
586.8000;0.1571;10.6993;
587.1000;0.1595;10.7018;
587.4000;0.1587;10.7138;
587.7000;0.1522;10.6969;
588.0000;0.1571;10.7090;
588.3000;0.1595;10.7114;
588.6000;0.1571;10.7114;
588.9000;0.1587;10.7138;
589.2000;0.1579;10.7162;
589.5000;0.1587;10.7186;
589.8000;0.1587;10.7186;
590.1000;0.1571;10.7235;
590.4000;0.1571;10.7259;
590.7000;0.1587;10.7235;
591.0000;0.1587;10.7162;
591.3000;0.1587;10.7210;
591.6000;0.1579;10.7186;
591.9000;0.1579;10.7259;
592.2000;0.1595;10.7307;
592.5000;0.1579;10.7355;
592.8000;0.1587;10.7259;
593.1000;0.1579;10.7162;
593.4000;0.1595;10.7162;
593.7000;0.1604;10.7210;
594.0000;0.1604;10.7235;
594.3000;0.1595;10.7162;
594.6000;0.1579;10.7162;
594.9000;0.1465;10.6921;
595.2000;0.1579;10.7162;
595.5000;0.1555;10.7138;
595.8000;0.1587;10.7210;
596.1000;0.1579;10.7138;
596.4000;0.1579;10.7162;
596.7000;0.1587;10.7138;
597.0000;0.1595;10.7066;
597.3000;0.1604;10.7090;
597.6000;0.1604;10.7138;
597.9000;0.1595;10.7138;
598.2000;0.1579;10.7090;
598.5000;0.1595;10.7138;
598.8000;0.1571;10.7090;
599.1000;0.1587;10.7114;
599.4000;0.1563;10.7018;
599.7000;0.1612;10.7090;
600.0000;0.1701;10.7283;
600.3000;0.1579;10.6993;
600.6000;0.1579;10.6969;
600.9000;0.1644;10.7042;
601.2000;0.1595;10.6800;
601.5000;0.1547;10.6511;
601.8000;0.1555;10.6342;
602.1000;0.1555;10.6197;
602.4000;0.1530;10.6101;
602.7000;0.1490;10.5836;
603.0000;0.1473;10.5643;
603.3000;0.1498;10.5667;
603.6000;0.1563;10.5884;
603.9000;0.1490;10.5667;
604.2000;0.1522;10.5643;
604.5000;0.1506;10.5546;
604.8000;0.1498;10.5474;
605.1000;0.1490;10.5450;
605.4000;0.1481;10.5329;
605.7000;0.1490;10.5305;
606.0000;0.1490;10.5209;
606.3000;0.1465;10.5136;
606.6000;0.1473;10.5040;
606.9000;0.1612;10.5353;
607.2000;0.1473;10.4967;
607.5000;0.1473;10.4895;
607.8000;0.1481;10.4967;
608.1000;0.1473;10.4991;
608.4000;0.1465;10.4991;
608.7000;0.1481;10.5040;
609.0000;0.1473;10.5016;
609.3000;0.1481;10.4991;
609.6000;0.1465;10.4919;
609.9000;0.1465;10.4895;
610.2000;0.1465;10.4895;
610.5000;0.1457;10.4847;
610.8000;0.1457;10.4895;
611.1000;0.1449;10.4943;
611.4000;0.1490;10.4991;
611.7000;0.1481;10.4871;
612.0000;0.1449;10.4774;
612.3000;0.1465;10.4871;
612.6000;0.1473;10.4991;
612.9000;0.1473;10.4919;
613.2000;0.1441;10.4799;
613.5000;0.1465;10.4823;
613.8000;0.1473;10.4799;
614.1000;0.1465;10.4774;
614.4000;0.1457;10.4774;
614.7000;0.1457;10.4774;
615.0000;0.1441;10.4774;
615.3000;0.1465;10.4799;
615.6000;0.1449;10.4750;
615.9000;0.1441;10.4750;
616.2000;0.1457;10.4774;
616.5000;0.1441;10.4799;
616.8000;0.1473;10.4871;
617.1000;0.1449;10.4774;
617.4000;0.1457;10.4750;
617.7000;0.1465;10.4726;
618.0000;0.1465;10.4774;
618.3000;0.1457;10.4678;
618.6000;0.1449;10.4654;
618.9000;0.1457;10.4654;
619.2000;0.1473;10.4654;
619.5000;0.1465;10.4702;
619.8000;0.1473;10.4726;
620.1000;0.1473;10.4726;
620.4000;0.1498;10.4726;
620.7000;0.1473;10.4726;
621.0000;0.1449;10.4702;
621.3000;0.1457;10.4630;
621.6000;0.1473;10.4630;
621.9000;0.1416;10.4557;
622.2000;0.1449;10.4702;
622.5000;0.1449;10.4726;
622.8000;0.1433;10.4702;
623.1000;0.1425;10.4702;
623.4000;0.1449;10.4847;
623.7000;0.1441;10.4871;
624.0000;0.1433;10.4871;
624.3000;0.1457;10.4919;
624.6000;0.1514;10.4967;
624.9000;0.1498;10.4871;
625.2000;0.1538;10.4943;
625.5000;0.1457;10.4702;
625.8000;0.1449;10.4702;
626.1000;0.1457;10.4630;
626.4000;0.1473;10.4678;
626.7000;0.1441;10.4702;
627.0000;0.1441;10.4702;
627.3000;0.1449;10.4823;
627.6000;0.1441;10.4823;
627.9000;0.1465;10.4847;
628.2000;0.1433;10.4726;
628.5000;0.1465;10.4750;
628.8000;0.1441;10.4726;
629.1000;0.1449;10.4774;
629.4000;0.1441;10.4678;
629.7000;0.1498;10.4750;
630.0000;0.1457;10.4533;
630.3000;0.1416;10.4485;
630.6000;0.1449;10.4557;
630.9000;0.1473;10.4581;
631.2000;0.1449;10.4533;
631.5000;0.1449;10.4606;
631.8000;0.1530;10.4847;
632.1000;0.1441;10.4678;
632.4000;0.1457;10.4678;
632.7000;0.1457;10.4678;
633.0000;0.1441;10.4654;
633.3000;0.1473;10.4702;
633.6000;0.1433;10.4630;
633.9000;0.1465;10.4702;
634.2000;0.1506;10.4919;
634.5000;0.1457;10.4750;
634.8000;0.1465;10.4726;
635.1000;0.1457;10.4678;
635.4000;0.1473;10.4654;
635.7000;0.1465;10.4702;
636.0000;0.1473;10.4726;
636.3000;0.1449;10.4702;
636.6000;0.1433;10.4750;
636.9000;0.1457;10.4799;
637.2000;0.1457;10.4847;
637.5000;0.1449;10.4847;
637.8000;0.1449;10.4823;
638.1000;0.1465;10.4823;
638.4000;0.1465;10.4799;
638.7000;0.1441;10.4823;
639.0000;0.1457;10.4919;
639.3000;0.1465;10.4919;
639.6000;0.1465;10.4823;
639.9000;0.1465;10.4750;
640.2000;0.1441;10.4702;
640.5000;0.1457;10.4799;
640.8000;0.1457;10.4799;
641.1000;0.1457;10.4726;
641.4000;0.1449;10.4799;
641.7000;0.1457;10.4823;
642.0000;0.1522;10.4919;
642.3000;0.1457;10.4847;
642.6000;0.1408;10.4774;
642.9000;0.1465;10.4895;
643.2000;0.1433;10.4774;
643.5000;0.1457;10.4774;
643.8000;0.1465;10.4702;
644.1000;0.1449;10.4726;
644.4000;0.1465;10.4654;
644.7000;0.1465;10.4606;
645.0000;0.1433;10.4437;
645.3000;0.1441;10.4413;
645.6000;0.1465;10.4461;
645.9000;0.1441;10.4485;
646.2000;0.1473;10.4557;
646.5000;0.1473;10.4461;
646.8000;0.1441;10.4461;
647.1000;0.1465;10.4509;
647.4000;0.1473;10.4533;
647.7000;0.1449;10.4509;
648.0000;0.1351;10.4268;
648.3000;0.1457;10.4461;
648.6000;0.1457;10.4557;
648.9000;0.1441;10.4509;
649.2000;0.1457;10.4485;
649.5000;0.1481;10.4509;
649.8000;0.1465;10.4533;
650.1000;0.1465;10.4654;
650.4000;0.1465;10.4606;
650.7000;0.1449;10.4678;
651.0000;0.1441;10.4654;
651.3000;0.1465;10.4702;
651.6000;0.1457;10.4581;
651.9000;0.1457;10.4606;
652.2000;0.1481;10.4606;
652.5000;0.1457;10.4581;
652.8000;0.1441;10.4509;
653.1000;0.1498;10.4726;
653.4000;0.1538;10.4823;
653.7000;0.1514;10.4799;
654.0000;0.1457;10.4726;
654.3000;0.1506;10.5016;
654.6000;0.1457;10.4871;
654.9000;0.1465;10.4871;
655.2000;0.1473;10.4991;
655.5000;0.1465;10.4943;
655.8000;0.1473;10.4943;
656.1000;0.1384;10.4654;
656.4000;0.1465;10.4774;
656.7000;0.1473;10.4799;
657.0000;0.1441;10.4702;
657.3000;0.1449;10.4726;
657.6000;0.1457;10.4654;
657.9000;0.1473;10.4654;
658.2000;0.1506;10.4871;
658.5000;0.1473;10.4750;
658.8000;0.1465;10.4654;
659.1000;0.1457;10.4654;
659.4000;0.1457;10.4654;
659.7000;0.1449;10.4533;
660.0000;0.1506;10.4654;
660.3000;0.1465;10.4654;
660.6000;0.1449;10.4606;
660.9000;0.1449;10.4606;
661.2000;0.1473;10.4630;
661.5000;0.1481;10.4678;
661.8000;0.1457;10.4533;
662.1000;0.1457;10.4581;
662.4000;0.1457;10.4581;
662.7000;0.1416;10.4509;
663.0000;0.1335;10.4389;
663.3000;0.1449;10.4630;
663.6000;0.1457;10.4678;
663.9000;0.1449;10.4702;
664.2000;0.1457;10.4678;
664.5000;0.1457;10.4606;
664.8000;0.1441;10.4509;
665.1000;0.1481;10.4557;
665.4000;0.1465;10.4509;
665.7000;0.1457;10.4437;
666.0000;0.1465;10.4485;
666.3000;0.1457;10.4509;
666.6000;0.1457;10.4461;
666.9000;0.1457;10.4485;
667.2000;0.1441;10.4557;
667.5000;0.1449;10.4581;
667.8000;0.1449;10.4606;
668.1000;0.1425;10.4533;
668.4000;0.1457;10.4581;
668.7000;0.1465;10.4654;
669.0000;0.1465;10.4678;
669.3000;0.1465;10.4774;
669.6000;0.1473;10.4654;
669.9000;0.1473;10.4581;
670.2000;0.1441;10.4485;
670.5000;0.1441;10.4389;
670.8000;0.1449;10.4413;
671.1000;0.1449;10.4389;
671.4000;0.1416;10.4340;
671.7000;0.1449;10.4509;
672.0000;0.1441;10.4461;
672.3000;0.1465;10.4557;
672.6000;0.1473;10.4606;
672.9000;0.1473;10.4606;
673.2000;0.1441;10.4509;
673.5000;0.1457;10.4509;
673.8000;0.1433;10.4557;
674.1000;0.1441;10.4533;
674.4000;0.1465;10.4509;
674.7000;0.1441;10.4533;
675.0000;0.1425;10.4461;
675.3000;0.1449;10.4557;
675.6000;0.1457;10.4581;
675.9000;0.1441;10.4581;
676.2000;0.1408;10.4485;
676.5000;0.1465;10.4581;
676.8000;0.1473;10.4606;
677.1000;0.1425;10.4485;
677.4000;0.1441;10.4557;
677.7000;0.1481;10.4606;
678.0000;0.1563;10.4774;
678.3000;0.1441;10.4557;
678.6000;0.1449;10.4581;
678.9000;0.1457;10.4606;
679.2000;0.1473;10.4654;
679.5000;0.1457;10.4557;
679.8000;0.1457;10.4509;
680.1000;0.1490;10.4630;
680.4000;0.1457;10.4630;
680.7000;0.1473;10.4678;
681.0000;0.1481;10.4678;
681.3000;0.1465;10.4750;
681.6000;0.1449;10.4750;
681.9000;0.1441;10.4774;
682.2000;0.1441;10.4774;
682.5000;0.1416;10.4726;
682.8000;0.1457;10.4654;
683.1000;0.1449;10.4606;
683.4000;0.1457;10.4726;
683.7000;0.1441;10.4678;
684.0000;0.1433;10.4702;
684.3000;0.1457;10.4847;
684.6000;0.1441;10.4847;
684.9000;0.1449;10.4871;
685.2000;0.1433;10.4919;
685.5000;0.1465;10.4991;
685.8000;0.1449;10.4895;
686.1000;0.1433;10.4774;
686.4000;0.1465;10.4750;
686.7000;0.1465;10.4726;
687.0000;0.1449;10.4654;
687.3000;0.1441;10.4581;
687.6000;0.1457;10.4654;
687.9000;0.1457;10.4654;
688.2000;0.1449;10.4654;
688.5000;0.1465;10.4654;
688.8000;0.1441;10.4654;
689.1000;0.1473;10.4678;
689.4000;0.1457;10.4654;
689.7000;0.1425;10.4581;
690.0000;0.1457;10.4606;
690.3000;0.1473;10.4630;
690.6000;0.1465;10.4581;
690.9000;0.1465;10.4606;
691.2000;0.1465;10.4606;
691.5000;0.1473;10.4702;
691.8000;0.1522;10.4799;
692.1000;0.1449;10.4630;
692.4000;0.1465;10.4726;
692.7000;0.1433;10.4630;
693.0000;0.1384;10.4413;
693.3000;0.1498;10.4774;
693.6000;0.1449;10.4630;
693.9000;0.1425;10.4581;
694.2000;0.1465;10.4678;
694.5000;0.1441;10.4630;
694.8000;0.1490;10.4847;
695.1000;0.1425;10.4799;
695.4000;0.1473;10.4943;
695.7000;0.1392;10.4774;
696.0000;0.1449;10.4967;
696.3000;0.1473;10.4895;
696.6000;0.1433;10.4750;
696.9000;0.1465;10.4847;
697.2000;0.1481;10.4823;
697.5000;0.1465;10.4799;
697.8000;0.1449;10.4823;
698.1000;0.1433;10.4799;
698.4000;0.1465;10.5016;
698.7000;0.1457;10.4895;
699.0000;0.1433;10.4823;
699.3000;0.1457;10.4847;
699.6000;0.1465;10.4799;
699.9000;0.1441;10.4750;
700.2000;0.1425;10.4654;
700.5000;0.1449;10.4750;
700.8000;0.1547;10.4991;
701.1000;0.1433;10.4678;
701.4000;0.1457;10.4750;
701.7000;0.1449;10.4678;
702.0000;0.1481;10.4774;
702.3000;0.1465;10.4774;
702.6000;0.1449;10.4774;
702.9000;0.1473;10.4726;
703.2000;0.1441;10.4606;
703.5000;0.1449;10.4630;
703.8000;0.1449;10.4630;
704.1000;0.1433;10.4606;
704.4000;0.1465;10.4654;
704.7000;0.1473;10.4678;
705.0000;0.1457;10.4581;
705.3000;0.1457;10.4533;
705.6000;0.1425;10.4461;
705.9000;0.1441;10.4581;
706.2000;0.1465;10.4533;
706.5000;0.1465;10.4581;
706.8000;0.1457;10.4606;
707.1000;0.1449;10.4678;
707.4000;0.1465;10.4726;
707.7000;0.1457;10.4774;
708.0000;0.1522;10.4967;
708.3000;0.1457;10.4871;
708.6000;0.1465;10.4774;
708.9000;0.1384;10.4630;
709.2000;0.1449;10.4799;
709.5000;0.1449;10.4823;
709.8000;0.1481;10.4799;
710.1000;0.1457;10.4702;
710.4000;0.1449;10.4750;
710.7000;0.1473;10.4799;
711.0000;0.1457;10.4774;
711.3000;0.1473;10.4799;
711.6000;0.1555;10.5016;
711.9000;0.1457;10.4726;
712.2000;0.1465;10.4678;
712.5000;0.1449;10.4702;
712.8000;0.1449;10.4774;
713.1000;0.1465;10.4750;
713.4000;0.1473;10.4702;
713.7000;0.1433;10.4606;
714.0000;0.1335;10.4340;
714.3000;0.1449;10.4557;
714.6000;0.1457;10.4630;
714.9000;0.1457;10.4678;
715.2000;0.1441;10.4702;
715.5000;0.1481;10.4726;
715.8000;0.1473;10.4630;
716.1000;0.1465;10.4606;
716.4000;0.1498;10.4702;
716.7000;0.1433;10.4509;
717.0000;0.1473;10.4581;
717.3000;0.1465;10.4678;
717.6000;0.1473;10.4726;
717.9000;0.1457;10.4702;
718.2000;0.1465;10.4702;
718.5000;0.1506;10.4750;
718.8000;0.1465;10.4630;
719.1000;0.1449;10.4606;
719.4000;0.1457;10.4606;
719.7000;0.1425;10.4533;
720.0000;0.1506;10.4799;
720.3000;0.1465;10.4774;
720.6000;0.1465;10.4750;
720.9000;0.1490;10.4847;
721.2000;0.1465;10.4726;
721.5000;0.1465;10.4678;
721.8000;0.1457;10.4702;
722.1000;0.1473;10.4726;
722.4000;0.1473;10.4606;
722.7000;0.1473;10.4630;
723.0000;0.1449;10.4654;
723.3000;0.1457;10.4702;
723.6000;0.1457;10.4774;
723.9000;0.1449;10.4726;
724.2000;0.1457;10.4654;
724.5000;0.1457;10.4654;
724.8000;0.1441;10.4630;
725.1000;0.1465;10.4774;
725.4000;0.1441;10.4654;
725.7000;0.1441;10.4678;
726.0000;0.1449;10.4702;
726.3000;0.1473;10.4799;
726.6000;0.1465;10.4750;
726.9000;0.1465;10.4774;
727.2000;0.1433;10.4774;
727.5000;0.1498;10.4871;
727.8000;0.1457;10.4678;
728.1000;0.1457;10.4726;
728.4000;0.1465;10.4774;
728.7000;0.1441;10.4799;
729.0000;0.1457;10.4799;
729.3000;0.1449;10.4774;
729.6000;0.1457;10.4847;
729.9000;0.1457;10.4847;
730.2000;0.1457;10.4895;
730.5000;0.1465;10.4871;
730.8000;0.1481;10.4871;
731.1000;0.1457;10.4750;
731.4000;0.1473;10.4630;
731.7000;0.1473;10.4678;
732.0000;0.1392;10.4557;
732.3000;0.1457;10.4678;
732.6000;0.1449;10.4750;
732.9000;0.1465;10.4774;
733.2000;0.1449;10.4750;
733.5000;0.1449;10.4630;
733.8000;0.1433;10.4606;
734.1000;0.1465;10.4606;
734.4000;0.1449;10.4678;
734.7000;0.1457;10.4726;
735.0000;0.1457;10.4774;
735.3000;0.1457;10.4678;
735.6000;0.1449;10.4606;
735.9000;0.1514;10.4847;
736.2000;0.1457;10.4750;
736.5000;0.1465;10.4895;
736.8000;0.1465;10.4919;
737.1000;0.1465;10.4943;
737.4000;0.1449;10.4967;
737.7000;0.1473;10.5088;
738.0000;0.1498;10.5209;
738.3000;0.1449;10.5088;
738.6000;0.1457;10.5040;
738.9000;0.1490;10.5112;
739.2000;0.1465;10.5064;
739.5000;0.1457;10.4991;
739.8000;0.1449;10.4847;
740.1000;0.1498;10.4895;
740.4000;0.1465;10.4847;
740.7000;0.1465;10.4919;
741.0000;0.1457;10.4919;
741.3000;0.1449;10.4895;
741.6000;0.1538;10.5112;
741.9000;0.1457;10.4943;
742.2000;0.1457;10.4847;
742.5000;0.1481;10.4823;
742.8000;0.1457;10.4702;
743.1000;0.1441;10.4702;
743.4000;0.1457;10.4702;
743.7000;0.1465;10.4678;
744.0000;0.1465;10.4654;
744.3000;0.1465;10.4557;
744.6000;0.1457;10.4509;
744.9000;0.1449;10.4461;
745.2000;0.1465;10.4557;
745.5000;0.1473;10.4630;
745.8000;0.1449;10.4533;
746.1000;0.1457;10.4581;
746.4000;0.1449;10.4581;
746.7000;0.1530;10.4774;
747.0000;0.1473;10.4774;
747.3000;0.1473;10.4799;
747.6000;0.1490;10.4774;
747.9000;0.1465;10.4823;
748.2000;0.1538;10.5040;
748.5000;0.1457;10.4919;
748.8000;0.1449;10.4967;
749.1000;0.1384;10.4726;
749.4000;0.1465;10.4967;
749.7000;0.1449;10.4895;
750.0000;0.1425;10.4750;
750.3000;0.1351;10.4509;
750.6000;0.1449;10.4678;
750.9000;0.1473;10.4726;
751.2000;0.1530;10.4919;
751.5000;0.1506;10.4919;
751.8000;0.1465;10.4823;
752.1000;0.1457;10.4823;
752.4000;0.1457;10.4847;
752.7000;0.1465;10.4799;
753.0000;0.1465;10.4774;
753.3000;0.1490;10.4895;
753.6000;0.1473;10.4799;
753.9000;0.1473;10.4750;
754.2000;0.1441;10.4750;
754.5000;0.1473;10.4799;
754.8000;0.1441;10.4750;
755.1000;0.1433;10.4750;
755.4000;0.1465;10.4823;
755.7000;0.1449;10.4750;
756.0000;0.1384;10.4485;
756.3000;0.1465;10.4774;
756.6000;0.1449;10.4823;
756.9000;0.1490;10.4871;
757.2000;0.1481;10.4871;
757.5000;0.1457;10.4823;
757.8000;0.1457;10.4895;
758.1000;0.1473;10.4895;
758.4000;0.1457;10.4799;
758.7000;0.1433;10.4774;
759.0000;0.1457;10.4823;
759.3000;0.1449;10.4799;
759.6000;0.1359;10.4630;
759.9000;0.1465;10.4991;
760.2000;0.1465;10.5016;
760.5000;0.1457;10.4943;
760.8000;0.1473;10.4943;
761.1000;0.1457;10.4895;
761.4000;0.1457;10.4823;
761.7000;0.1473;10.4919;
762.0000;0.1465;10.4895;
762.3000;0.1441;10.4799;
762.6000;0.1473;10.4823;
762.9000;0.1441;10.4726;
763.2000;0.1473;10.4774;
763.5000;0.1465;10.4630;
763.8000;0.1457;10.4630;
764.1000;0.1400;10.4533;
764.4000;0.1457;10.4702;
764.7000;0.1449;10.4654;
765.0000;0.1449;10.4630;
765.3000;0.1441;10.4485;
765.6000;0.1473;10.4557;
765.9000;0.1514;10.4654;
766.2000;0.1465;10.4654;
766.5000;0.1457;10.4630;
766.8000;0.1457;10.4654;
767.1000;0.1473;10.4702;
767.4000;0.1530;10.4823;
767.7000;0.1465;10.4654;
768.0000;0.1457;10.4630;
768.3000;0.1465;10.4630;
768.6000;0.1441;10.4581;
768.9000;0.1465;10.4557;
769.2000;0.1490;10.4606;
769.5000;0.1457;10.4533;
769.8000;0.1481;10.4557;
770.1000;0.1473;10.4533;
770.4000;0.1457;10.4557;
770.7000;0.1465;10.4581;
771.0000;0.1433;10.4557;
771.3000;0.1465;10.4630;
771.6000;0.1457;10.4654;
771.9000;0.1465;10.4630;
772.2000;0.1465;10.4654;
772.5000;0.1465;10.4702;
772.8000;0.1465;10.4726;
773.1000;0.1481;10.4702;
773.4000;0.1465;10.4630;
773.7000;0.1465;10.4678;
774.0000;0.1481;10.4774;
774.3000;0.1490;10.4823;
774.6000;0.1490;10.4750;
774.9000;0.1457;10.4750;
775.2000;0.1416;10.4557;
775.5000;0.1449;10.4702;
775.8000;0.1441;10.4702;
776.1000;0.1449;10.4702;
776.4000;0.1465;10.4750;
776.7000;0.1441;10.4606;
777.0000;0.1481;10.4702;
777.3000;0.1473;10.4654;
777.6000;0.1449;10.4702;
777.9000;0.1449;10.4726;
778.2000;0.1538;10.4943;
778.5000;0.1465;10.4774;
778.8000;0.1473;10.4774;
779.1000;0.1457;10.4678;
779.4000;0.1449;10.4654;
779.7000;0.1449;10.4606;
780.0000;0.1465;10.4581;
780.3000;0.1457;10.4413;
780.6000;0.1416;10.4268;
780.9000;0.1449;10.4389;
781.2000;0.1473;10.4557;
781.5000;0.1473;10.4606;
781.8000;0.1457;10.4557;
782.1000;0.1441;10.4581;
782.4000;0.1457;10.4581;
782.7000;0.1449;10.4557;
783.0000;0.1457;10.4654;
783.3000;0.1449;10.4606;
783.6000;0.1457;10.4581;
783.9000;0.1441;10.4533;
784.2000;0.1457;10.4461;
784.5000;0.1449;10.4437;
784.8000;0.1449;10.4437;
785.1000;0.1465;10.4533;
785.4000;0.1449;10.4485;
785.7000;0.1457;10.4606;
786.0000;0.1498;10.4678;
786.3000;0.1457;10.4678;
786.6000;0.1408;10.4485;
786.9000;0.1498;10.4654;
787.2000;0.1433;10.4533;
787.5000;0.1457;10.4557;
787.8000;0.1473;10.4606;
788.1000;0.1441;10.4630;
788.4000;0.1481;10.4678;
788.7000;0.1425;10.4461;
789.0000;0.1490;10.4702;
789.3000;0.1473;10.4581;
789.6000;0.1449;10.4509;
789.9000;0.1506;10.4606;
790.2000;0.1473;10.4533;
790.5000;0.1457;10.4557;
790.8000;0.1351;10.4364;
791.1000;0.1465;10.4774;
791.4000;0.1457;10.4750;
791.7000;0.1376;10.4437;
792.0000;0.1441;10.4606;
792.3000;0.1441;10.4581;
792.6000;0.1343;10.4413;
792.9000;0.1457;10.4630;
793.2000;0.1547;10.4799;
793.5000;0.1449;10.4557;
793.8000;0.1449;10.4485;
794.1000;0.1473;10.4533;
794.4000;0.1457;10.4461;
794.7000;0.1351;10.4123;
795.0000;0.1433;10.4461;
795.3000;0.1514;10.4750;
795.6000;0.1481;10.4654;
795.9000;0.1449;10.4678;
796.2000;0.1425;10.4606;
796.5000;0.1416;10.4630;
796.8000;0.1400;10.4557;
797.1000;0.1457;10.4581;
797.4000;0.1416;10.4437;
797.7000;0.1449;10.4533;
798.0000;0.1465;10.4654;
798.3000;0.1465;10.4654;
798.6000;0.1465;10.4630;
798.9000;0.1441;10.4533;
799.2000;0.1449;10.4654;
799.5000;0.1522;10.4895;
799.8000;0.1457;10.4606;
800.1000;0.1457;10.4581;
800.4000;0.1473;10.4630;
800.7000;0.1457;10.4630;
801.0000;0.1441;10.4606;
801.3000;0.1441;10.4606;
801.6000;0.1465;10.4654;
801.9000;0.1449;10.4654;
802.2000;0.1465;10.4702;
802.5000;0.1465;10.4654;
802.8000;0.1441;10.4581;
803.1000;0.1441;10.4581;
803.4000;0.1457;10.4557;
803.7000;0.1457;10.4581;
804.0000;0.1465;10.4726;
804.3000;0.1449;10.4726;
804.6000;0.1473;10.4750;
804.9000;0.1457;10.4750;
805.2000;0.1473;10.4702;
805.5000;0.1465;10.4606;
805.8000;0.1481;10.4630;
806.1000;0.1441;10.4581;
806.4000;0.1465;10.4726;
806.7000;0.1481;10.4678;
807.0000;0.1449;10.4654;
807.3000;0.1465;10.4630;
807.6000;0.1449;10.4533;
807.9000;0.1506;10.4630;
808.2000;0.1473;10.4606;
808.5000;0.1473;10.4654;
808.8000;0.1457;10.4581;
809.1000;0.1433;10.4485;
809.4000;0.1465;10.4461;
809.7000;0.1457;10.4509;
810.0000;0.1449;10.4437;
810.3000;0.1457;10.4437;
810.6000;0.1481;10.4533;
810.9000;0.1538;10.4654;
811.2000;0.1449;10.4461;
811.5000;0.1433;10.4437;
811.8000;0.1433;10.4413;
812.1000;0.1473;10.4485;
812.4000;0.1433;10.4413;
812.7000;0.1449;10.4364;
813.0000;0.1481;10.4364;
813.3000;0.1465;10.4268;
813.6000;0.1343;10.4051;
813.9000;0.1473;10.4485;
814.2000;0.1465;10.4509;
814.5000;0.1473;10.4485;
814.8000;0.1522;10.4581;
815.1000;0.1425;10.4316;
815.4000;0.1376;10.4147;
815.7000;0.1457;10.4316;
816.0000;0.1449;10.4268;
816.3000;0.1457;10.4340;
816.6000;0.1433;10.4340;
816.9000;0.1465;10.4461;
817.2000;0.1465;10.4509;
817.5000;0.1465;10.4533;
817.8000;0.1490;10.4702;
818.1000;0.1473;10.4654;
818.4000;0.1490;10.4678;
818.7000;0.1490;10.4678;
819.0000;0.1473;10.4678;
819.3000;0.1490;10.4702;
819.6000;0.1506;10.4774;
819.9000;0.1465;10.4654;
820.2000;0.1473;10.4726;
820.5000;0.1465;10.4581;
820.8000;0.1465;10.4557;
821.1000;0.1449;10.4485;
821.4000;0.1457;10.4413;
821.7000;0.1433;10.4413;
822.0000;0.1441;10.4533;
822.3000;0.1465;10.4557;
822.6000;0.1465;10.4606;
822.9000;0.1433;10.4533;
823.2000;0.1465;10.4509;
823.5000;0.1457;10.4461;
823.8000;0.1416;10.4389;
824.1000;0.1465;10.4485;
824.4000;0.1465;10.4437;
824.7000;0.1498;10.4437;
825.0000;0.1449;10.4364;
825.3000;0.1457;10.4413;
825.6000;0.1473;10.4461;
825.9000;0.1457;10.4509;
826.2000;0.1481;10.4533;
826.5000;0.1465;10.4557;
826.8000;0.1449;10.4581;
827.1000;0.1465;10.4654;
827.4000;0.1473;10.4630;
827.7000;0.1481;10.4654;
828.0000;0.1351;10.4389;
828.3000;0.1465;10.4678;
828.6000;0.1457;10.4678;
828.9000;0.1457;10.4823;
829.2000;0.1457;10.4774;
829.5000;0.1481;10.4774;
829.8000;0.1441;10.4702;
830.1000;0.1465;10.4678;
830.4000;0.1457;10.4678;
830.7000;0.1481;10.4799;
831.0000;0.1473;10.4726;
831.3000;0.1465;10.4630;
831.6000;0.1449;10.4654;
831.9000;0.1473;10.4630;
832.2000;0.1473;10.4533;
832.5000;0.1465;10.4606;
832.8000;0.1563;10.4967;
833.1000;0.1376;10.4581;
833.4000;0.1441;10.4726;
833.7000;0.1465;10.4823;
834.0000;0.1449;10.4678;
834.3000;0.1457;10.4726;
834.6000;0.1522;10.4847;
834.9000;0.1481;10.4726;
835.2000;0.1457;10.4726;
835.5000;0.1433;10.4557;
835.8000;0.1465;10.4630;
836.1000;0.1481;10.4654;
836.4000;0.1441;10.4509;
836.7000;0.1433;10.4557;
837.0000;0.1449;10.4557;
837.3000;0.1522;10.4823;
837.6000;0.1408;10.4630;
837.9000;0.1441;10.4678;
838.2000;0.1465;10.4702;
838.5000;0.1449;10.4630;
838.8000;0.1465;10.4726;
839.1000;0.1457;10.4606;
839.4000;0.1514;10.4726;
839.7000;0.1457;10.4557;
840.0000;0.1465;10.4606;
840.3000;0.1400;10.4461;
840.6000;0.1457;10.4606;
840.9000;0.1343;10.4316;
841.2000;0.1481;10.4678;
841.5000;0.1457;10.4678;
841.8000;0.1457;10.4726;
842.1000;0.1449;10.4654;
842.4000;0.1449;10.4654;
842.7000;0.1449;10.4581;
843.0000;0.1449;10.4678;
843.3000;0.1433;10.4630;
843.6000;0.1416;10.4654;
843.9000;0.1473;10.4774;
844.2000;0.1441;10.4726;
844.5000;0.1457;10.4630;
844.8000;0.1481;10.4630;
845.1000;0.1449;10.4557;
845.4000;0.1473;10.4702;
845.7000;0.1522;10.4871;
846.0000;0.1408;10.4581;
846.3000;0.1449;10.4774;
846.6000;0.1571;10.5112;
846.9000;0.1473;10.4823;
847.2000;0.1441;10.4750;
847.5000;0.1449;10.4726;
847.8000;0.1473;10.4726;
848.1000;0.1465;10.4581;
848.4000;0.1465;10.4509;
848.7000;0.1449;10.4437;
849.0000;0.1457;10.4485;
849.3000;0.1465;10.4533;
849.6000;0.1473;10.4461;
849.9000;0.1457;10.4364;
850.2000;0.1481;10.4413;
850.5000;0.1457;10.4437;
850.8000;0.1473;10.4509;
851.1000;0.1465;10.4485;
851.4000;0.1473;10.4581;
851.7000;0.1441;10.4461;
852.0000;0.1433;10.4485;
852.3000;0.1441;10.4557;
852.6000;0.1457;10.4485;
852.9000;0.1530;10.4678;
853.2000;0.1457;10.4461;
853.5000;0.1457;10.4509;
853.8000;0.1473;10.4581;
854.1000;0.1473;10.4581;
854.4000;0.1465;10.4533;
854.7000;0.1376;10.4340;
855.0000;0.1473;10.4606;
855.3000;0.1457;10.4557;
855.6000;0.1473;10.4630;
855.9000;0.1457;10.4678;
856.2000;0.1490;10.4871;
856.5000;0.1465;10.4823;
856.8000;0.1441;10.4799;
857.1000;0.1490;10.4871;
857.4000;0.1457;10.4750;
857.7000;0.1457;10.4847;
858.0000;0.1457;10.4943;
858.3000;0.1465;10.4823;
858.6000;0.1449;10.4774;
858.9000;0.1473;10.4726;
859.2000;0.1465;10.4630;
859.5000;0.1465;10.4630;
859.8000;0.1457;10.4606;
860.1000;0.1449;10.4654;
860.4000;0.1465;10.4630;
860.7000;0.1473;10.4774;
861.0000;0.1465;10.4799;
861.3000;0.1465;10.4774;
861.6000;0.1473;10.4774;
861.9000;0.1457;10.4702;
862.2000;0.1457;10.4750;
862.5000;0.1441;10.4726;
862.8000;0.1457;10.4702;
863.1000;0.1457;10.4630;
863.4000;0.1425;10.4557;
863.7000;0.1457;10.4533;
864.0000;0.1408;10.4461;
864.3000;0.1400;10.4364;
864.6000;0.1473;10.4606;
864.9000;0.1457;10.4606;
865.2000;0.1579;10.4967;
865.5000;0.1465;10.4606;
865.8000;0.1457;10.4557;
866.1000;0.1457;10.4606;
866.4000;0.1547;10.4871;
866.7000;0.1457;10.4678;
867.0000;0.1359;10.4389;
867.3000;0.1433;10.4606;
867.6000;0.1441;10.4654;
867.9000;0.1498;10.4750;
868.2000;0.1563;10.4895;
868.5000;0.1457;10.4606;
868.8000;0.1441;10.4630;
869.1000;0.1465;10.4726;
869.4000;0.1465;10.4774;
869.7000;0.1441;10.4823;
870.0000;0.1416;10.4702;
870.3000;0.1449;10.4774;
870.6000;0.1465;10.4726;
870.9000;0.1449;10.4678;
871.2000;0.1457;10.4702;
871.5000;0.1449;10.4726;
871.8000;0.1473;10.4726;
872.1000;0.1457;10.4726;
872.4000;0.1457;10.4726;
872.7000;0.1473;10.4702;
873.0000;0.1481;10.4774;
873.3000;0.1481;10.4654;
873.6000;0.1457;10.4630;
873.9000;0.1457;10.4678;
874.2000;0.1441;10.4654;
874.5000;0.1473;10.4774;
874.8000;0.1473;10.4774;
875.1000;0.1441;10.4702;
875.4000;0.1457;10.4823;
875.7000;0.1465;10.4774;
876.0000;0.1473;10.4774;
876.3000;0.1465;10.4823;
876.6000;0.1457;10.4823;
876.9000;0.1465;10.4823;
877.2000;0.1457;10.4847;
877.5000;0.1465;10.4774;
877.8000;0.1416;10.4654;
878.1000;0.1457;10.4654;
878.4000;0.1465;10.4702;
878.7000;0.1449;10.4630;
879.0000;0.1441;10.4654;
879.3000;0.1433;10.4630;
879.6000;0.1473;10.4726;
879.9000;0.1416;10.4630;
880.2000;0.1498;10.4823;
880.5000;0.1473;10.4847;
880.8000;0.1425;10.4702;
881.1000;0.1449;10.4750;
881.4000;0.1449;10.4750;
881.7000;0.1441;10.4678;
882.0000;0.1481;10.4750;
882.3000;0.1473;10.4750;
882.6000;0.1473;10.4630;
882.9000;0.1547;10.4823;
883.2000;0.1473;10.4606;
883.5000;0.1465;10.4630;
883.8000;0.1465;10.4581;
884.1000;0.1457;10.4654;
884.4000;0.1457;10.4702;
884.7000;0.1441;10.4654;
885.0000;0.1457;10.4750;
885.3000;0.1465;10.4774;
885.6000;0.1465;10.4654;
885.9000;0.1449;10.4606;
886.2000;0.1473;10.4774;
886.5000;0.1465;10.4799;
886.8000;0.1457;10.4750;
887.1000;0.1481;10.4895;
887.4000;0.1522;10.5064;
887.7000;0.1473;10.4919;
888.0000;0.1400;10.4678;
888.3000;0.1408;10.4678;
888.6000;0.1457;10.4750;
888.9000;0.1473;10.4847;
889.2000;0.1433;10.4726;
889.5000;0.1457;10.4774;
889.8000;0.1465;10.4774;
890.1000;0.1473;10.4774;
890.4000;0.1530;10.4967;
890.7000;0.1481;10.4750;
891.0000;0.1522;10.4919;
891.3000;0.1555;10.5016;
891.6000;0.1473;10.4774;
891.9000;0.1473;10.4847;
892.2000;0.1538;10.5016;
892.5000;0.1473;10.4847;
892.8000;0.1441;10.4799;
893.1000;0.1449;10.4871;
893.4000;0.1457;10.4847;
893.7000;0.1465;10.4774;
894.0000;0.1473;10.4774;
894.3000;0.1465;10.4750;
894.6000;0.1441;10.4750;
894.9000;0.1457;10.4774;
895.2000;0.1449;10.4678;
895.5000;0.1449;10.4678;
895.8000;0.1465;10.4654;
896.1000;0.1465;10.4678;
896.4000;0.1473;10.4726;
896.7000;0.1490;10.4799;
897.0000;0.1449;10.4702;
897.3000;0.1457;10.4750;
897.6000;0.1416;10.4678;
897.9000;0.1481;10.4823;
898.2000;0.1457;10.4799;
898.5000;0.1441;10.4774;
898.8000;0.1465;10.4847;
899.1000;0.1457;10.4847;
899.4000;0.1465;10.4919;
899.7000;0.1506;10.5112;
900.0000;0.1490;10.5112;
900.3000;0.1465;10.5088;
900.6000;0.1457;10.4991;
900.9000;0.1481;10.5064;
901.2000;0.1465;10.5016;
901.5000;0.1473;10.4991;
901.8000;0.1473;10.4919;
902.1000;0.1481;10.4823;
902.4000;0.1465;10.4799;
902.7000;0.1457;10.4726;
903.0000;0.1457;10.4654;
903.3000;0.1465;10.4702;
903.6000;0.1449;10.4799;
903.9000;0.1400;10.4606;
904.2000;0.1457;10.4726;
904.5000;0.1449;10.4654;
904.8000;0.1481;10.4726;
905.1000;0.1335;10.4461;
905.4000;0.1555;10.4991;
905.7000;0.1449;10.4799;
906.0000;0.1465;10.4871;
906.3000;0.1457;10.4847;
906.6000;0.1498;10.4943;
906.9000;0.1465;10.4919;
907.2000;0.1465;10.4847;
907.5000;0.1473;10.4847;
907.8000;0.1457;10.4799;
908.1000;0.1465;10.4847;
908.4000;0.1465;10.4871;
908.7000;0.1449;10.4823;
909.0000;0.1481;10.4871;
909.3000;0.1400;10.4630;
909.6000;0.1457;10.4726;
909.9000;0.1481;10.4702;
910.2000;0.1473;10.4799;
910.5000;0.1547;10.4919;
910.8000;0.1457;10.4630;
911.1000;0.1465;10.4726;
911.4000;0.1457;10.4750;
911.7000;0.1433;10.4726;
912.0000;0.1457;10.4750;
912.3000;0.1449;10.4726;
912.6000;0.1465;10.4823;
912.9000;0.1473;10.4871;
913.2000;0.1457;10.4799;
913.5000;0.1457;10.4654;
913.8000;0.1457;10.4606;
914.1000;0.1465;10.4606;
914.4000;0.1425;10.4557;
914.7000;0.1457;10.4606;
915.0000;0.1465;10.4654;
915.3000;0.1449;10.4606;
915.6000;0.1465;10.4557;
915.9000;0.1465;10.4581;
916.2000;0.1465;10.4485;
916.5000;0.1449;10.4364;
916.8000;0.1465;10.4533;
917.1000;0.1465;10.4581;
917.4000;0.1457;10.4606;
917.7000;0.1457;10.4509;
918.0000;0.1465;10.4606;
918.3000;0.1473;10.4678;
918.6000;0.1465;10.4678;
918.9000;0.1473;10.4750;
919.2000;0.1449;10.4581;
919.5000;0.1449;10.4581;
919.8000;0.1555;10.4919;
920.1000;0.1441;10.4678;
920.4000;0.1465;10.4726;
920.7000;0.1457;10.4678;
921.0000;0.1465;10.4750;
921.3000;0.1457;10.4678;
921.6000;0.1490;10.4702;
921.9000;0.1506;10.4750;
922.2000;0.1457;10.4726;
922.5000;0.1465;10.4750;
922.8000;0.1457;10.4726;
923.1000;0.1481;10.4799;
923.4000;0.1457;10.4678;
923.7000;0.1400;10.4606;
924.0000;0.1481;10.4895;
924.3000;0.1481;10.4919;
924.6000;0.1449;10.4823;
924.9000;0.1457;10.4799;
925.2000;0.1465;10.4799;
925.5000;0.1465;10.4919;
925.8000;0.1449;10.4919;
926.1000;0.1457;10.4943;
926.4000;0.1465;10.4895;
926.7000;0.1457;10.4967;
927.0000;0.1481;10.5040;
927.3000;0.1522;10.5112;
927.6000;0.1473;10.4967;
927.9000;0.1457;10.4991;
928.2000;0.1465;10.4871;
928.5000;0.1441;10.4750;
928.8000;0.1530;10.4871;
929.1000;0.1465;10.4750;
929.4000;0.1473;10.4726;
929.7000;0.1481;10.4774;
930.0000;0.1457;10.4750;
930.3000;0.1514;10.4871;
930.6000;0.1473;10.4799;
930.9000;0.1425;10.4557;
931.2000;0.1465;10.4630;
931.5000;0.1522;10.4774;
931.8000;0.1473;10.4606;
932.1000;0.1465;10.4557;
932.4000;0.1449;10.4461;
932.7000;0.1441;10.4413;
933.0000;0.1465;10.4509;
933.3000;0.1473;10.4557;
933.6000;0.1449;10.4606;
933.9000;0.1457;10.4606;
934.2000;0.1441;10.4557;
934.5000;0.1457;10.4678;
934.8000;0.1538;10.4919;
935.1000;0.1449;10.4606;
935.4000;0.1441;10.4606;
935.7000;0.1465;10.4726;
936.0000;0.1473;10.4799;
936.3000;0.1449;10.4726;
936.6000;0.1473;10.4799;
936.9000;0.1465;10.4799;
937.2000;0.1449;10.4774;
937.5000;0.1465;10.4871;
937.8000;0.1465;10.4895;
938.1000;0.1465;10.5016;
938.4000;0.1538;10.5064;
938.7000;0.1416;10.4606;
939.0000;0.1449;10.4726;
939.3000;0.1457;10.4774;
939.6000;0.1465;10.4726;
939.9000;0.1433;10.4654;
940.2000;0.1473;10.4750;
940.5000;0.1473;10.4871;
940.8000;0.1530;10.5016;
941.1000;0.1473;10.4726;
941.4000;0.1465;10.4654;
941.7000;0.1457;10.4726;
942.0000;0.1473;10.4702;
942.3000;0.1473;10.4823;
942.6000;0.1473;10.4750;
942.9000;0.1465;10.4799;
943.2000;0.1473;10.4823;
943.5000;0.1473;10.4774;
943.8000;0.1465;10.4774;
944.1000;0.1481;10.4895;
944.4000;0.1490;10.4943;
944.7000;0.1563;10.5136;
945.0000;0.1351;10.4533;
945.3000;0.1457;10.4871;
945.6000;0.1457;10.4943;
945.9000;0.1425;10.4871;
946.2000;0.1473;10.4871;
946.5000;0.1457;10.4799;
946.8000;0.1473;10.4847;
947.1000;0.1465;10.4967;
947.4000;0.1465;10.4919;
947.7000;0.1449;10.4895;
948.0000;0.1473;10.4895;
948.3000;0.1457;10.4823;
948.6000;0.1473;10.4847;
948.9000;0.1465;10.4799;
949.2000;0.1530;10.4847;
949.5000;0.1457;10.4678;
949.8000;0.1457;10.4654;
950.1000;0.1457;10.4726;
950.4000;0.1457;10.4774;
950.7000;0.1473;10.4726;
951.0000;0.1506;10.4799;
951.3000;0.1425;10.4606;
951.6000;0.1457;10.4702;
951.9000;0.1465;10.4774;
952.2000;0.1473;10.4774;
952.5000;0.1465;10.4799;
952.8000;0.1457;10.4799;
953.1000;0.1465;10.4799;
953.4000;0.1465;10.4823;
953.7000;0.1473;10.4847;
954.0000;0.1457;10.4750;
954.3000;0.1457;10.4799;
954.6000;0.1490;10.4991;
954.9000;0.1465;10.5016;
955.2000;0.1465;10.5088;
955.5000;0.1465;10.5160;
955.8000;0.1465;10.5160;
956.1000;0.1465;10.5160;
956.4000;0.1449;10.5112;
956.7000;0.1481;10.5233;
957.0000;0.1465;10.5209;
957.3000;0.1481;10.5184;
957.6000;0.1473;10.5112;
957.9000;0.1465;10.5064;
958.2000;0.1416;10.5016;
958.5000;0.1473;10.5064;
958.8000;0.1433;10.4991;
959.1000;0.1441;10.5112;
959.4000;0.1449;10.5088;
959.7000;0.1441;10.5112;
960.0000;0.1465;10.5160;
960.3000;0.1449;10.5088;
960.6000;0.1465;10.5064;
960.9000;0.1465;10.5040;
961.2000;0.1433;10.4943;
961.5000;0.1465;10.4943;
961.8000;0.1473;10.4919;
962.1000;0.1465;10.4823;
962.4000;0.1457;10.4750;
962.7000;0.1473;10.4774;
963.0000;0.1449;10.4702;
963.3000;0.1457;10.4799;
963.6000;0.1441;10.4774;
963.9000;0.1506;10.4871;
964.2000;0.1457;10.4774;
964.5000;0.1441;10.4774;
964.8000;0.1400;10.4678;
965.1000;0.1465;10.4871;
965.4000;0.1449;10.4823;
965.7000;0.1457;10.4823;
966.0000;0.1457;10.4895;
966.3000;0.1473;10.4991;
966.6000;0.1473;10.5064;
966.9000;0.1392;10.4799;
967.2000;0.1465;10.4991;
967.5000;0.1465;10.4967;
967.8000;0.1368;10.4654;
968.1000;0.1457;10.4943;
968.4000;0.1449;10.4895;
968.7000;0.1457;10.4895;
969.0000;0.1473;10.4871;
969.3000;0.1506;10.4943;
969.6000;0.1490;10.4919;
969.9000;0.1376;10.4630;
970.2000;0.1465;10.4919;
970.5000;0.1457;10.4967;
970.8000;0.1473;10.5016;
971.1000;0.1465;10.4943;
971.4000;0.1441;10.4991;
971.7000;0.1506;10.5160;
972.0000;0.1457;10.5064;
972.3000;0.1465;10.5088;
972.6000;0.1457;10.4991;
972.9000;0.1490;10.5040;
973.2000;0.1449;10.4991;
973.5000;0.1481;10.5136;
973.8000;0.1481;10.5112;
974.1000;0.1465;10.5136;
974.4000;0.1465;10.5136;
974.7000;0.1441;10.4991;
975.0000;0.1465;10.4895;
975.3000;0.1408;10.4726;
975.6000;0.1465;10.4847;
975.9000;0.1457;10.4823;
976.2000;0.1481;10.4895;
976.5000;0.1457;10.4750;
976.8000;0.1465;10.4702;
977.1000;0.1457;10.4702;
977.4000;0.1449;10.4702;
977.7000;0.1481;10.4678;
978.0000;0.1376;10.4437;
978.3000;0.1481;10.4823;
978.6000;0.1343;10.4509;
978.9000;0.1465;10.4871;
979.2000;0.1473;10.4895;
979.5000;0.1457;10.4895;
979.8000;0.1465;10.4943;
980.1000;0.1457;10.4919;
980.4000;0.1498;10.4991;
980.7000;0.1481;10.4919;
981.0000;0.1457;10.4895;
981.3000;0.1473;10.4943;
981.6000;0.1465;10.4991;
981.9000;0.1465;10.5040;
982.2000;0.1457;10.5088;
982.5000;0.1457;10.4991;
982.8000;0.1457;10.4919;
983.1000;0.1490;10.4967;
983.4000;0.1481;10.4895;
983.7000;0.1465;10.4847;
984.0000;0.1473;10.4895;
984.3000;0.1449;10.4847;
984.6000;0.1465;10.4823;
984.9000;0.1465;10.4799;
985.2000;0.1449;10.4702;
985.5000;0.1449;10.4702;
985.8000;0.1506;10.4823;
986.1000;0.1457;10.4750;
986.4000;0.1473;10.4774;
986.7000;0.1473;10.4774;
987.0000;0.1449;10.4702;
987.3000;0.1457;10.4678;
987.6000;0.1457;10.4774;
987.9000;0.1441;10.4750;
988.2000;0.1473;10.4895;
988.5000;0.1449;10.4799;
988.8000;0.1465;10.4847;
989.1000;0.1457;10.4895;
989.4000;0.1465;10.4871;
989.7000;0.1433;10.4823;
990.0000;0.1441;10.4774;
990.3000;0.1473;10.4823;
990.6000;0.1473;10.4799;
990.9000;0.1425;10.4654;
991.2000;0.1449;10.4750;
991.5000;0.1473;10.4799;
991.8000;0.1441;10.4774;
992.1000;0.1441;10.4774;
992.4000;0.1481;10.4823;
992.7000;0.1465;10.4799;
993.0000;0.1457;10.4799;
993.3000;0.1473;10.4774;
993.6000;0.1473;10.4823;
993.9000;0.1384;10.4606;
994.2000;0.1457;10.4847;
994.5000;0.1473;10.4847;
994.8000;0.1465;10.4871;
995.1000;0.1457;10.4895;
995.4000;0.1473;10.4774;
995.7000;0.1506;10.4847;
996.0000;0.1473;10.4774;
996.3000;0.1473;10.4774;
996.6000;0.1465;10.4726;
996.9000;0.1473;10.4774;
997.2000;0.1433;10.4750;
997.5000;0.1490;10.4943;
997.8000;0.1465;10.4847;
998.1000;0.1457;10.4823;
998.4000;0.1473;10.4823;
998.7000;0.1449;10.4726;
999.0000;0.1481;10.4823;
999.3000;0.1449;10.4726;
999.6000;0.1425;10.4654;
999.9000;0.1392;10.4461;
1000.2000;0.1457;10.4750;
1000.5000;0.1449;10.4774;
1000.8000;0.1530;10.4991;
1001.1000;0.1522;10.5040;
1001.4000;0.1465;10.4871;
1001.7000;0.1433;10.4750;
1002.0000;0.1473;10.4774;
1002.3000;0.1522;10.4919;
1002.6000;0.1465;10.4726;
1002.9000;0.1376;10.4509;
1003.2000;0.1473;10.4678;
1003.5000;0.1457;10.4654;
1003.8000;0.1449;10.4630;
1004.1000;0.1457;10.4630;
1004.4000;0.1481;10.4726;
1004.7000;0.1449;10.4678;
1005.0000;0.1441;10.4726;
1005.3000;0.1465;10.4895;
1005.6000;0.1490;10.4991;
1005.9000;0.1392;10.4726;
1006.2000;0.1425;10.4726;
1006.5000;0.1457;10.4750;
1006.8000;0.1465;10.4847;
1007.1000;0.1457;10.4871;
1007.4000;0.1441;10.4678;
1007.7000;0.1465;10.4847;
1008.0000;0.1465;10.4871;
1008.3000;0.1473;10.4871;
1008.6000;0.1465;10.4943;
1008.9000;0.1473;10.5064;
1009.2000;0.1473;10.5016;
1009.5000;0.1481;10.4991;
1009.8000;0.1465;10.4991;
1010.1000;0.1457;10.4919;
1010.4000;0.1465;10.4967;
1010.7000;0.1457;10.4895;
1011.0000;0.1490;10.5016;
1011.3000;0.1473;10.5064;
1011.6000;0.1498;10.5112;
1011.9000;0.1433;10.4895;
1012.2000;0.1465;10.4871;
1012.5000;0.1473;10.4750;
1012.8000;0.1498;10.4823;
1013.1000;0.1449;10.4581;
1013.4000;0.1376;10.4461;
1013.7000;0.1425;10.4654;
1014.0000;0.1441;10.4678;
1014.3000;0.1457;10.4750;
1014.6000;0.1465;10.4750;
1014.9000;0.1457;10.4702;
1015.2000;0.1457;10.4654;
1015.5000;0.1449;10.4678;
1015.8000;0.1449;10.4750;
1016.1000;0.1441;10.4750;
1016.4000;0.1449;10.4750;
1016.7000;0.1457;10.4678;
1017.0000;0.1433;10.4606;
1017.3000;0.1522;10.4654;
1017.6000;0.1457;10.4533;
1017.9000;0.1465;10.4437;
1018.2000;0.1384;10.4171;
1018.5000;0.1465;10.4413;
1018.8000;0.1457;10.4389;
1019.1000;0.1481;10.4437;
1019.4000;0.1449;10.4509;
1019.7000;0.1530;10.4702;
1020.0000;0.1465;10.4533;
1020.3000;0.1368;10.4364;
1020.6000;0.1465;10.4606;
1020.9000;0.1433;10.4557;
1021.2000;0.1457;10.4581;
1021.5000;0.1465;10.4581;
1021.8000;0.1449;10.4581;
1022.1000;0.1473;10.4702;
1022.4000;0.1473;10.4581;
1022.7000;0.1441;10.4485;
1023.0000;0.1433;10.4485;
1023.3000;0.1441;10.4461;
1023.6000;0.1449;10.4485;
1023.9000;0.1490;10.4581;
1024.2000;0.1433;10.4413;
1024.5000;0.1449;10.4413;
1024.8000;0.1449;10.4509;
1025.1000;0.1481;10.4630;
1025.4000;0.1473;10.4630;
1025.7000;0.1449;10.4606;
1026.0000;0.1457;10.4654;
1026.3000;0.1449;10.4654;
1026.6000;0.1465;10.4654;
1026.9000;0.1425;10.4557;
1027.2000;0.1449;10.4678;
1027.5000;0.1473;10.4774;
1027.8000;0.1473;10.4702;
1028.1000;0.1449;10.4606;
1028.4000;0.1498;10.4702;
1028.7000;0.1457;10.4606;
1029.0000;0.1481;10.4630;
1029.3000;0.1465;10.4654;
1029.6000;0.1465;10.4678;
1029.9000;0.1457;10.4630;
1030.2000;0.1449;10.4654;
1030.5000;0.1473;10.4726;
1030.8000;0.1465;10.4774;
1031.1000;0.1522;10.5064;
1031.4000;0.1449;10.4823;
1031.7000;0.1441;10.4823;
1032.0000;0.1441;10.4823;
1032.3000;0.1473;10.4823;
1032.6000;0.1465;10.4726;
1032.9000;0.1457;10.4654;
1033.2000;0.1465;10.4678;
1033.5000;0.1457;10.4799;
1033.8000;0.1465;10.4799;
1034.1000;0.1465;10.4630;
1034.4000;0.1473;10.4654;
1034.7000;0.1457;10.4606;
1035.0000;0.1400;10.4389;
1035.3000;0.1457;10.4509;
1035.6000;0.1457;10.4606;
1035.9000;0.1449;10.4557;
1036.2000;0.1473;10.4581;
1036.5000;0.1465;10.4557;
1036.8000;0.1481;10.4557;
1037.1000;0.1473;10.4606;
1037.4000;0.1457;10.4654;
1037.7000;0.1457;10.4702;
1038.0000;0.1441;10.4654;
1038.3000;0.1465;10.4750;
1038.6000;0.1449;10.4702;
1038.9000;0.1490;10.4799;
1039.2000;0.1457;10.4774;
1039.5000;0.1457;10.4726;
1039.8000;0.1473;10.4799;
1040.1000;0.1473;10.4847;
1040.4000;0.1457;10.4847;
1040.7000;0.1514;10.4919;
1041.0000;0.1359;10.4485;
1041.3000;0.1465;10.4799;
1041.6000;0.1465;10.4678;
1041.9000;0.1343;10.4389;
1042.2000;0.1555;10.4919;
1042.5000;0.1449;10.4630;
1042.8000;0.1465;10.4654;
1043.1000;0.1449;10.4678;
1043.4000;0.1465;10.4630;
1043.7000;0.1498;10.4654;
1044.0000;0.1457;10.4557;
1044.3000;0.1416;10.4533;
1044.6000;0.1473;10.4702;
1044.9000;0.1481;10.4678;
1045.2000;0.1408;10.4509;
1045.5000;0.1473;10.4726;
1045.8000;0.1473;10.4799;
1046.1000;0.1457;10.4750;
1046.4000;0.1457;10.4774;
1046.7000;0.1506;10.4943;
1047.0000;0.1473;10.4823;
1047.3000;0.1490;10.4871;
1047.6000;0.1465;10.4871;
1047.9000;0.1490;10.4919;
1048.2000;0.1473;10.4895;
1048.5000;0.1498;10.5016;
1048.8000;0.1457;10.4895;
1049.1000;0.1473;10.4895;
1049.4000;0.1481;10.4847;
1049.7000;0.1449;10.4774;
1050.0000;0.1457;10.4774;
1050.3000;0.1465;10.4799;
1050.6000;0.1457;10.4774;
1050.9000;0.1473;10.4871;
1051.2000;0.1481;10.4871;
1051.5000;0.1449;10.4823;
1051.8000;0.1481;10.4919;
1052.1000;0.1449;10.4847;
1052.4000;0.1490;10.4967;
1052.7000;0.1416;10.4774;
1053.0000;0.1465;10.4919;
1053.3000;0.1465;10.4895;
1053.6000;0.1449;10.4919;
1053.9000;0.1465;10.4871;
1054.2000;0.1457;10.4823;
1054.5000;0.1416;10.4750;
1054.8000;0.1530;10.5160;
1055.1000;0.1465;10.5040;
1055.4000;0.1441;10.4967;
1055.7000;0.1465;10.4919;
1056.0000;0.1465;10.4871;
1056.3000;0.1457;10.4847;
1056.6000;0.1449;10.4871;
1056.9000;0.1473;10.4967;
1057.2000;0.1465;10.4967;
1057.5000;0.1457;10.4943;
1057.8000;0.1481;10.5040;
1058.1000;0.1465;10.4967;
1058.4000;0.1457;10.5088;
1058.7000;0.1441;10.5064;
1059.0000;0.1457;10.5088;
1059.3000;0.1457;10.5088;
1059.6000;0.1465;10.5112;
1059.9000;0.1384;10.4895;
1060.2000;0.1457;10.5040;
1060.5000;0.1473;10.5136;
1060.8000;0.1433;10.5064;
1061.1000;0.1449;10.5088;
1061.4000;0.1457;10.5088;
1061.7000;0.1449;10.5064;
1062.0000;0.1449;10.5136;
1062.3000;0.1473;10.5112;
1062.6000;0.1457;10.5088;
1062.9000;0.1441;10.4967;
1063.2000;0.1433;10.4871;
1063.5000;0.1441;10.4823;
1063.8000;0.1400;10.4799;
1064.1000;0.1457;10.4967;
1064.4000;0.1465;10.4871;
1064.7000;0.1441;10.4726;
1065.0000;0.1457;10.4750;
1065.3000;0.1441;10.4678;
1065.6000;0.1465;10.4678;
1065.9000;0.1465;10.4581;
1066.2000;0.1547;10.4750;
1066.5000;0.1465;10.4581;
1066.8000;0.1343;10.4340;
1067.1000;0.1302;10.4196;
1067.4000;0.1465;10.4509;
1067.7000;0.1538;10.4726;
1068.0000;0.1481;10.4533;
1068.3000;0.1441;10.4557;
1068.6000;0.1457;10.4654;
1068.9000;0.1481;10.4702;
1069.2000;0.1449;10.4726;
1069.5000;0.1433;10.4726;
1069.8000;0.1473;10.4799;
1070.1000;0.1473;10.4823;
1070.4000;0.1425;10.4678;
1070.7000;0.1473;10.4847;
1071.0000;0.1473;10.4823;
1071.3000;0.1465;10.4774;
1071.6000;0.1465;10.4726;
1071.9000;0.1457;10.4654;
1072.2000;0.1465;10.4702;
1072.5000;0.1473;10.4750;
1072.8000;0.1449;10.4702;
1073.1000;0.1465;10.4630;
1073.4000;0.1465;10.4726;
1073.7000;0.1481;10.4799;
1074.0000;0.1416;10.4630;
1074.3000;0.1465;10.4799;
1074.6000;0.1481;10.4823;
1074.9000;0.1473;10.4823;
1075.2000;0.1481;10.4823;
1075.5000;0.1465;10.4799;
1075.8000;0.1498;10.4895;
1076.1000;0.1473;10.4919;
1076.4000;0.1522;10.5112;
1076.7000;0.1351;10.4678;
1077.0000;0.1441;10.4847;
1077.3000;0.1473;10.4895;
1077.6000;0.1481;10.4871;
1077.9000;0.1449;10.4654;
1078.2000;0.1465;10.4774;
1078.5000;0.1481;10.4823;
1078.8000;0.1563;10.5040;
1079.1000;0.1473;10.4750;
1079.4000;0.1481;10.4726;
1079.7000;0.1457;10.4606;
1080.0000;0.1481;10.4630;
1080.3000;0.1465;10.4630;
1080.6000;0.1473;10.4654;
1080.9000;0.1498;10.4774;
1081.2000;0.1498;10.4847;
1081.5000;0.1457;10.4847;
1081.8000;0.1425;10.4774;
1082.1000;0.1457;10.4823;
1082.4000;0.1465;10.4871;
1082.7000;0.1457;10.4823;
1083.0000;0.1506;10.4967;
1083.3000;0.1473;10.4895;
1083.6000;0.1457;10.4847;
1083.9000;0.1457;10.4799;
1084.2000;0.1408;10.4726;
1084.5000;0.1441;10.4847;
1084.8000;0.1441;10.4847;
1085.1000;0.1457;10.4799;
1085.4000;0.1449;10.4774;
1085.7000;0.1465;10.4871;
1086.0000;0.1457;10.4799;
1086.3000;0.1490;10.4847;
1086.6000;0.1457;10.4799;
1086.9000;0.1465;10.4799;
1087.2000;0.1457;10.4823;
1087.5000;0.1457;10.4847;
1087.8000;0.1473;10.4750;
1088.1000;0.1473;10.4702;
1088.4000;0.1465;10.4702;
1088.7000;0.1465;10.4654;
1089.0000;0.1473;10.4654;
1089.3000;0.1481;10.4606;
1089.6000;0.1481;10.4606;
1089.9000;0.1465;10.4726;
1090.2000;0.1473;10.4702;
1090.5000;0.1465;10.4702;
1090.8000;0.1457;10.4702;
1091.1000;0.1465;10.4678;
1091.4000;0.1465;10.4654;
1091.7000;0.1498;10.4799;
1092.0000;0.1473;10.4726;
1092.3000;0.1449;10.4654;
1092.6000;0.1457;10.4678;
1092.9000;0.1449;10.4726;
1093.2000;0.1441;10.4774;
1093.5000;0.1441;10.4702;
1093.8000;0.1449;10.4726;
1094.1000;0.1465;10.4678;
1094.4000;0.1465;10.4630;
1094.7000;0.1449;10.4606;
1095.0000;0.1465;10.4606;
1095.3000;0.1465;10.4678;
1095.6000;0.1465;10.4702;
1095.9000;0.1449;10.4702;
1096.2000;0.1465;10.4702;
1096.5000;0.1473;10.4726;
1096.8000;0.1457;10.4726;
1097.1000;0.1449;10.4750;
1097.4000;0.1449;10.4678;
1097.7000;0.1481;10.4678;
1098.0000;0.1490;10.4678;
1098.3000;0.1465;10.4581;
1098.6000;0.1481;10.4557;
1098.9000;0.1457;10.4461;
1099.2000;0.1563;10.4750;
1099.5000;0.1449;10.4437;
1099.8000;0.1473;10.4509;
1100.1000;0.1473;10.4581;
1100.4000;0.1465;10.4606;
1100.7000;0.1441;10.4581;
1101.0000;0.1449;10.4509;
1101.3000;0.1473;10.4461;
1101.6000;0.1481;10.4437;
1101.9000;0.1473;10.4485;
1102.2000;0.1457;10.4437;
1102.5000;0.1449;10.4437;
1102.8000;0.1457;10.4533;
1103.1000;0.1441;10.4557;
1103.4000;0.1457;10.4678;
1103.7000;0.1433;10.4630;
1104.0000;0.1457;10.4557;
1104.3000;0.1457;10.4509;
1104.6000;0.1449;10.4437;
1104.9000;0.1441;10.4533;
1105.2000;0.1441;10.4485;
1105.5000;0.1400;10.4292;
1105.8000;0.1481;10.4437;
1106.1000;0.1473;10.4509;
1106.4000;0.1465;10.4533;
1106.7000;0.1481;10.4606;
1107.0000;0.1449;10.4581;
1107.3000;0.1457;10.4581;
1107.6000;0.1449;10.4557;
1107.9000;0.1457;10.4437;
1108.2000;0.1481;10.4557;
1108.5000;0.1457;10.4485;
1108.8000;0.1449;10.4461;
1109.1000;0.1473;10.4533;
1109.4000;0.1457;10.4461;
1109.7000;0.1473;10.4437;
1110.0000;0.1514;10.4557;
1110.3000;0.1481;10.4533;
1110.6000;0.1522;10.4702;
1110.9000;0.1465;10.4533;
1111.2000;0.1465;10.4630;
1111.5000;0.1441;10.4581;
1111.8000;0.1481;10.4630;
1112.1000;0.1481;10.4606;
1112.4000;0.1490;10.4606;
1112.7000;0.1490;10.4581;
1113.0000;0.1457;10.4557;
1113.3000;0.1465;10.4533;
1113.6000;0.1457;10.4557;
1113.9000;0.1457;10.4630;
1114.2000;0.1465;10.4557;
1114.5000;0.1449;10.4606;
1114.8000;0.1441;10.4702;
1115.1000;0.1392;10.4557;
1115.4000;0.1433;10.4702;
1115.7000;0.1481;10.4943;
1116.0000;0.1465;10.4919;
1116.3000;0.1473;10.4943;
1116.6000;0.1563;10.5209;
1116.9000;0.1359;10.4630;
1117.2000;0.1465;10.4919;
1117.5000;0.1465;10.4895;
1117.8000;0.1457;10.4871;
1118.1000;0.1498;10.4943;
1118.4000;0.1441;10.4726;
1118.7000;0.1473;10.4726;
1119.0000;0.1457;10.4654;
1119.3000;0.1457;10.4678;
1119.6000;0.1465;10.4654;
1119.9000;0.1465;10.4630;
1120.2000;0.1473;10.4606;
1120.5000;0.1465;10.4557;
1120.8000;0.1457;10.4557;
1121.1000;0.1465;10.4557;
1121.4000;0.1457;10.4630;
1121.7000;0.1449;10.4630;
1122.0000;0.1425;10.4509;
1122.3000;0.1481;10.4654;
1122.6000;0.1457;10.4533;
1122.9000;0.1408;10.4389;
1123.2000;0.1473;10.4630;
1123.5000;0.1441;10.4606;
1123.8000;0.1465;10.4606;
1124.1000;0.1457;10.4557;
1124.4000;0.1465;10.4678;
1124.7000;0.1481;10.4750;
1125.0000;0.1457;10.4774;
1125.3000;0.1473;10.4823;
1125.6000;0.1457;10.4750;
1125.9000;0.1465;10.4726;
1126.2000;0.1465;10.4799;
1126.5000;0.1473;10.4726;
1126.8000;0.1457;10.4678;
1127.1000;0.1465;10.4774;
1127.4000;0.1441;10.4799;
1127.7000;0.1465;10.4823;
1128.0000;0.1441;10.4774;
1128.3000;0.1449;10.4823;
1128.6000;0.1457;10.4774;
1128.9000;0.1449;10.4774;
1129.2000;0.1457;10.4774;
1129.5000;0.1457;10.4799;
1129.8000;0.1473;10.4799;
1130.1000;0.1457;10.4726;
1130.4000;0.1465;10.4654;
1130.7000;0.1457;10.4606;
1131.0000;0.1449;10.4485;
1131.3000;0.1449;10.4509;
1131.6000;0.1449;10.4485;
1131.9000;0.1457;10.4509;
1132.2000;0.1465;10.4581;
1132.5000;0.1465;10.4630;
1132.8000;0.1465;10.4750;
1133.1000;0.1465;10.4799;
1133.4000;0.1457;10.4799;
1133.7000;0.1441;10.4774;
1134.0000;0.1522;10.4943;
1134.3000;0.1457;10.4678;
1134.6000;0.1465;10.4702;
1134.9000;0.1481;10.4799;
1135.2000;0.1457;10.4774;
1135.5000;0.1457;10.4847;
1135.8000;0.1457;10.4871;
1136.1000;0.1481;10.4774;
1136.4000;0.1481;10.4678;
1136.7000;0.1465;10.4750;
1137.0000;0.1449;10.4702;
1137.3000;0.1465;10.4750;
1137.6000;0.1457;10.4726;
1137.9000;0.1490;10.4871;
1138.2000;0.1449;10.4799;
1138.5000;0.1514;10.4967;
1138.8000;0.1490;10.4895;
1139.1000;0.1425;10.4702;
1139.4000;0.1441;10.4750;
1139.7000;0.1425;10.4678;
1140.0000;0.1481;10.4799;
1140.3000;0.1465;10.4750;
1140.6000;0.1449;10.4678;
1140.9000;0.1408;10.4606;
1141.2000;0.1465;10.4750;
1141.5000;0.1441;10.4799;
1141.8000;0.1457;10.4847;
1142.1000;0.1473;10.4799;
1142.4000;0.1481;10.4799;
1142.7000;0.1465;10.4774;
1143.0000;0.1473;10.4871;
1143.3000;0.1449;10.4726;
1143.6000;0.1416;10.4606;
1143.9000;0.1465;10.4702;
1144.2000;0.1465;10.4702;
1144.5000;0.1465;10.4678;
1144.8000;0.1449;10.4678;
1145.1000;0.1473;10.4726;
1145.4000;0.1481;10.4654;
1145.7000;0.1465;10.4606;
1146.0000;0.1449;10.4702;
1146.3000;0.1457;10.4847;
1146.6000;0.1465;10.4774;
1146.9000;0.1449;10.4702;
1147.2000;0.1481;10.4726;
1147.5000;0.1441;10.4581;
1147.8000;0.1359;10.4364;
1148.1000;0.1433;10.4606;
1148.4000;0.1522;10.4823;
1148.7000;0.1457;10.4581;
1149.0000;0.1490;10.4702;
1149.3000;0.1457;10.4630;
1149.6000;0.1490;10.4702;
1149.9000;0.1416;10.4557;
1150.2000;0.1441;10.4557;
1150.5000;0.1449;10.4678;
1150.8000;0.1449;10.4654;
1151.1000;0.1441;10.4678;
1151.4000;0.1457;10.4630;
1151.7000;0.1449;10.4509;
1152.0000;0.1465;10.4581;
1152.3000;0.1425;10.4509;
1152.6000;0.1449;10.4557;
1152.9000;0.1441;10.4606;
1153.2000;0.1538;10.4847;
1153.5000;0.1465;10.4606;
1153.8000;0.1449;10.4581;
1154.1000;0.1441;10.4606;
1154.4000;0.1490;10.4630;
1154.7000;0.1425;10.4509;
1155.0000;0.1335;10.4268;
1155.3000;0.1481;10.4702;
1155.6000;0.1457;10.4630;
1155.9000;0.1433;10.4557;
1156.2000;0.1457;10.4654;
1156.5000;0.1465;10.4726;
1156.8000;0.1506;10.4847;
1157.1000;0.1465;10.4654;
1157.4000;0.1449;10.4581;
1157.7000;0.1465;10.4581;
1158.0000;0.1351;10.4292;
1158.3000;0.1465;10.4606;
1158.6000;0.1522;10.4702;
1158.9000;0.1449;10.4606;
1159.2000;0.1473;10.4678;
1159.5000;0.1465;10.4654;
1159.8000;0.1425;10.4533;
1160.1000;0.1457;10.4533;
1160.4000;0.1457;10.4606;
1160.7000;0.1465;10.4678;
1161.0000;0.1465;10.4678;
1161.3000;0.1441;10.4678;
1161.6000;0.1449;10.4654;
1161.9000;0.1457;10.4606;
1162.2000;0.1457;10.4533;
1162.5000;0.1441;10.4485;
1162.8000;0.1441;10.4485;
1163.1000;0.1457;10.4509;
1163.4000;0.1465;10.4533;
1163.7000;0.1465;10.4533;
1164.0000;0.1465;10.4557;
1164.3000;0.1457;10.4654;
1164.6000;0.1481;10.4654;
1164.9000;0.1457;10.4606;
1165.2000;0.1441;10.4606;
1165.5000;0.1473;10.4702;
1165.8000;0.1473;10.4654;
1166.1000;0.1457;10.4557;
1166.4000;0.1473;10.4581;
1166.7000;0.1457;10.4557;
1167.0000;0.1473;10.4557;
1167.3000;0.1465;10.4485;
1167.6000;0.1465;10.4485;
1167.9000;0.1481;10.4581;
1168.2000;0.1481;10.4678;
1168.5000;0.1473;10.4581;
1168.8000;0.1449;10.4606;
1169.1000;0.1465;10.4581;
1169.4000;0.1481;10.4654;
1169.7000;0.1457;10.4630;
1170.0000;0.1465;10.4678;
1170.3000;0.1473;10.4750;
1170.6000;0.1441;10.4606;
1170.9000;0.1433;10.4581;
1171.2000;0.1449;10.4581;
1171.5000;0.1449;10.4606;
1171.8000;0.1449;10.4581;
1172.1000;0.1449;10.4630;
1172.4000;0.1449;10.4606;
1172.7000;0.1457;10.4581;
1173.0000;0.1465;10.4581;
1173.3000;0.1473;10.4630;
1173.6000;0.1473;10.4702;
1173.9000;0.1481;10.4726;
1174.2000;0.1473;10.4750;
1174.5000;0.1473;10.4774;
1174.8000;0.1425;10.4654;
1175.1000;0.1473;10.4678;
1175.4000;0.1449;10.4606;
1175.7000;0.1457;10.4630;
1176.0000;0.1465;10.4606;
1176.3000;0.1449;10.4533;
1176.6000;0.1449;10.4581;
1176.9000;0.1555;10.4943;
1177.2000;0.1433;10.4726;
1177.5000;0.1457;10.4799;
1177.8000;0.1481;10.4847;
1178.1000;0.1465;10.4799;
1178.4000;0.1465;10.4823;
1178.7000;0.1457;10.4823;
1179.0000;0.1408;10.4678;
1179.3000;0.1481;10.4895;
1179.6000;0.1563;10.5088;
1179.9000;0.1433;10.4654;
1180.2000;0.1481;10.4799;
1180.5000;0.1433;10.4774;
1180.8000;0.1416;10.4606;
1181.1000;0.1465;10.4702;
1181.4000;0.1457;10.4726;
1181.7000;0.1457;10.4726;
1182.0000;0.1425;10.4654;
1182.3000;0.1481;10.4823;
1182.6000;0.1457;10.4702;
1182.9000;0.1473;10.4726;
1183.2000;0.1465;10.4678;
1183.5000;0.1473;10.4702;
1183.8000;0.1473;10.4750;
1184.1000;0.1473;10.4750;
1184.4000;0.1465;10.4726;
1184.7000;0.1514;10.4871;
1185.0000;0.1384;10.4581;
1185.3000;0.1465;10.4726;
1185.6000;0.1481;10.4678;
1185.9000;0.1416;10.4654;
1186.2000;0.1457;10.4871;
1186.5000;0.1457;10.4799;
1186.8000;0.1481;10.4919;
1187.1000;0.1425;10.4799;
1187.4000;0.1457;10.4871;
1187.7000;0.1465;10.4823;
1188.0000;0.1425;10.4702;
1188.3000;0.1563;10.5040;
1188.6000;0.1457;10.4871;
1188.9000;0.1481;10.4967;
1189.2000;0.1457;10.4774;
1189.5000;0.1465;10.4847;
1189.8000;0.1473;10.4871;
1190.1000;0.1408;10.4702;
1190.4000;0.1473;10.4823;
1190.7000;0.1449;10.4726;
1191.0000;0.1433;10.4702;
1191.3000;0.1490;10.4774;
1191.6000;0.1473;10.4774;
1191.9000;0.1441;10.4678;
1192.2000;0.1481;10.4654;
1192.5000;0.1490;10.4750;
1192.8000;0.1465;10.4678;
1193.1000;0.1490;10.4799;
1193.4000;0.1465;10.4726;
1193.7000;0.1441;10.4630;
1194.0000;0.1441;10.4557;
1194.3000;0.1433;10.4581;
1194.6000;0.1433;10.4581;
1194.9000;0.1490;10.4678;
1195.2000;0.1465;10.4702;
1195.5000;0.1465;10.4702;
1195.8000;0.1465;10.4678;
1196.1000;0.1449;10.4702;
1196.4000;0.1465;10.4750;
1196.7000;0.1481;10.4847;
1197.0000;0.1425;10.4750;
1197.3000;0.1490;10.4799;
1197.6000;0.1465;10.4823;
1197.9000;0.1465;10.4895;
1198.2000;0.1433;10.4823;
1198.5000;0.1441;10.4847;
1198.8000;0.1473;10.4847;
1199.1000;0.1481;10.4871;
1199.4000;0.1481;10.4750;
1199.7000;0.1473;10.4774;
1200.0000;0.1473;10.4799;
1200.3000;0.1441;10.4726;
1200.6000;0.1473;10.4823;
1200.9000;0.1400;10.4654;
1201.2000;0.1481;10.4774;
1201.5000;0.1465;10.4774;
1201.8000;0.1481;10.4774;
1202.1000;0.1449;10.4678;
1202.4000;0.1449;10.4678;
1202.7000;0.1457;10.4702;
1203.0000;0.1416;10.4533;
1203.3000;0.1506;10.4702;
1203.6000;0.1441;10.4557;
1203.9000;0.1473;10.4654;
1204.2000;0.1441;10.4533;
1204.5000;0.1473;10.4702;
1204.8000;0.1457;10.4654;
1205.1000;0.1465;10.4750;
1205.4000;0.1465;10.4726;
1205.7000;0.1538;10.4847;
1206.0000;0.1498;10.4702;
1206.3000;0.1457;10.4581;
1206.6000;0.1433;10.4485;
1206.9000;0.1433;10.4485;
1207.2000;0.1425;10.4461;
1207.5000;0.1441;10.4557;
1207.8000;0.1457;10.4630;
1208.1000;0.1433;10.4557;
1208.4000;0.1425;10.4581;
1208.7000;0.1457;10.4630;
1209.0000;0.1457;10.4630;
1209.3000;0.1481;10.4678;
1209.6000;0.1457;10.4654;
1209.9000;0.1465;10.4678;
1210.2000;0.1465;10.4654;
1210.5000;0.1490;10.4702;
1210.8000;0.1441;10.4557;
1211.1000;0.1392;10.4389;
1211.4000;0.1425;10.4461;
1211.7000;0.1473;10.4461;
1212.0000;0.1481;10.4413;
1212.3000;0.1473;10.4437;
1212.6000;0.1449;10.4437;
1212.9000;0.1465;10.4485;
1213.2000;0.1465;10.4437;
1213.5000;0.1433;10.4413;
1213.8000;0.1457;10.4581;
1214.1000;0.1587;10.4943;
1214.4000;0.1530;10.4871;
1214.7000;0.1473;10.4750;
1215.0000;0.1481;10.4774;
1215.3000;0.1481;10.4750;
1215.6000;0.1465;10.4702;
1215.9000;0.1457;10.4702;
1216.2000;0.1400;10.4509;
1216.5000;0.1473;10.4678;
1216.8000;0.1538;10.4774;
1217.1000;0.1457;10.4606;
1217.4000;0.1449;10.4581;
1217.7000;0.1473;10.4630;
1218.0000;0.1473;10.4606;
1218.3000;0.1465;10.4630;
1218.6000;0.1465;10.4630;
1218.9000;0.1465;10.4630;
1219.2000;0.1473;10.4581;
1219.5000;0.1465;10.4557;
1219.8000;0.1465;10.4533;
1220.1000;0.1441;10.4509;
1220.4000;0.1465;10.4654;
1220.7000;0.1498;10.4750;
1221.0000;0.1481;10.4799;
1221.3000;0.1473;10.4774;
1221.6000;0.1473;10.4774;
1221.9000;0.1400;10.4509;
1222.2000;0.1465;10.4606;
1222.5000;0.1457;10.4533;
1222.8000;0.1457;10.4485;
1223.1000;0.1490;10.4557;
1223.4000;0.1473;10.4509;
1223.7000;0.1465;10.4533;
1224.0000;0.1522;10.4726;
1224.3000;0.1465;10.4654;
1224.6000;0.1449;10.4678;
1224.9000;0.1490;10.4726;
1225.2000;0.1473;10.4654;
1225.5000;0.1457;10.4654;
1225.8000;0.1465;10.4702;
1226.1000;0.1506;10.4823;
1226.4000;0.1457;10.4726;
1226.7000;0.1449;10.4750;
1227.0000;0.1473;10.4799;
1227.3000;0.1433;10.4702;
1227.6000;0.1425;10.4702;
1227.9000;0.1465;10.4774;
1228.2000;0.1441;10.4750;
1228.5000;0.1473;10.4702;
1228.8000;0.1481;10.4774;
1229.1000;0.1473;10.4750;
1229.4000;0.1465;10.4678;
1229.7000;0.1465;10.4702;
1230.0000;0.1351;10.4437;
1230.3000;0.1449;10.4726;
1230.6000;0.1465;10.4774;
1230.9000;0.1473;10.4799;
1231.2000;0.1449;10.4799;
1231.5000;0.1465;10.4774;
1231.8000;0.1465;10.4823;
1232.1000;0.1506;10.4871;
1232.4000;0.1441;10.4702;
1232.7000;0.1449;10.4678;
1233.0000;0.1473;10.4799;
1233.3000;0.1465;10.4654;
1233.6000;0.1449;10.4606;
1233.9000;0.1465;10.4678;
1234.2000;0.1473;10.4630;
1234.5000;0.1457;10.4557;
1234.8000;0.1473;10.4485;
1235.1000;0.1441;10.4413;
1235.4000;0.1457;10.4437;
1235.7000;0.1473;10.4581;
1236.0000;0.1457;10.4557;
1236.3000;0.1465;10.4509;
1236.6000;0.1514;10.4702;
1236.9000;0.1465;10.4581;
1237.2000;0.1481;10.4606;
1237.5000;0.1473;10.4533;
1237.8000;0.1473;10.4581;
1238.1000;0.1433;10.4581;
1238.4000;0.1433;10.4606;
1238.7000;0.1473;10.4606;
1239.0000;0.1441;10.4437;
1239.3000;0.1465;10.4461;
1239.6000;0.1433;10.4316;
1239.9000;0.1465;10.4364;
1240.2000;0.1465;10.4244;
1240.5000;0.1465;10.4340;
1240.8000;0.1465;10.4437;
1241.1000;0.1473;10.4485;
1241.4000;0.1465;10.4461;
1241.7000;0.1473;10.4557;
1242.0000;0.1449;10.4461;
1242.3000;0.1538;10.4774;
1242.6000;0.1465;10.4509;
1242.9000;0.1449;10.4509;
1243.2000;0.1449;10.4485;
1243.5000;0.1473;10.4485;
1243.8000;0.1441;10.4364;
1244.1000;0.1433;10.4485;
1244.4000;0.1433;10.4461;
1244.7000;0.1481;10.4485;
1245.0000;0.1473;10.4461;
1245.3000;0.1457;10.4509;
1245.6000;0.1465;10.4557;
1245.9000;0.1473;10.4581;
1246.2000;0.1465;10.4630;
1246.5000;0.1473;10.4678;
1246.8000;0.1433;10.4606;
1247.1000;0.1473;10.4726;
1247.4000;0.1465;10.4702;
1247.7000;0.1490;10.4750;
1248.0000;0.1481;10.4726;
1248.3000;0.1473;10.4702;
1248.6000;0.1433;10.4606;
1248.9000;0.1481;10.4606;
1249.2000;0.1449;10.4461;
1249.5000;0.1481;10.4485;
1249.8000;0.1449;10.4340;
1250.1000;0.1449;10.4268;
1250.4000;0.1481;10.4364;
1250.7000;0.1457;10.4292;
1251.0000;0.1457;10.4316;
1251.3000;0.1473;10.4316;
1251.6000;0.1457;10.4316;
1251.9000;0.1441;10.4389;
1252.2000;0.1457;10.4533;
1252.5000;0.1465;10.4509;
1252.8000;0.1441;10.4485;
1253.1000;0.1481;10.4678;
1253.4000;0.1449;10.4678;
1253.7000;0.1441;10.4799;
1254.0000;0.1465;10.4799;
1254.3000;0.1433;10.4654;
1254.6000;0.1473;10.4702;
1254.9000;0.1465;10.4606;
1255.2000;0.1465;10.4581;
1255.5000;0.1473;10.4606;
1255.8000;0.1465;10.4557;
1256.1000;0.1481;10.4485;
1256.4000;0.1481;10.4509;
1256.7000;0.1465;10.4581;
1257.0000;0.1457;10.4581;
1257.3000;0.1465;10.4557;
1257.6000;0.1465;10.4533;
1257.9000;0.1457;10.4461;
1258.2000;0.1457;10.4413;
1258.5000;0.1473;10.4509;
1258.8000;0.1473;10.4437;
1259.1000;0.1481;10.4413;
1259.4000;0.1457;10.4340;
1259.7000;0.1465;10.4461;
1260.0000;0.1465;10.4509;
1260.3000;0.1473;10.4461;
1260.6000;0.1465;10.4461;
1260.9000;0.1465;10.4461;
1261.2000;0.1465;10.4485;
1261.5000;0.1473;10.4485;
1261.8000;0.1473;10.4557;
1262.1000;0.1498;10.4678;
1262.4000;0.1481;10.4654;
1262.7000;0.1433;10.4413;
1263.0000;0.1473;10.4533;
1263.3000;0.1498;10.4678;
1263.6000;0.1465;10.4509;
1263.9000;0.1490;10.4485;
1264.2000;0.1449;10.4413;
1264.5000;0.1465;10.4437;
1264.8000;0.1449;10.4461;
1265.1000;0.1457;10.4509;
1265.4000;0.1465;10.4533;
1265.7000;0.1457;10.4509;
1266.0000;0.1465;10.4485;
1266.3000;0.1473;10.4461;
1266.6000;0.1481;10.4485;
1266.9000;0.1449;10.4509;
1267.2000;0.1465;10.4606;
1267.5000;0.1481;10.4606;
1267.8000;0.1473;10.4557;
1268.1000;0.1465;10.4485;
1268.4000;0.1457;10.4485;
1268.7000;0.1473;10.4509;
1269.0000;0.1490;10.4485;
1269.3000;0.1465;10.4413;
1269.6000;0.1433;10.4364;
1269.9000;0.1563;10.4726;
1270.2000;0.1481;10.4461;
1270.5000;0.1481;10.4509;
1270.8000;0.1473;10.4509;
1271.1000;0.1490;10.4581;
1271.4000;0.1441;10.4509;
1271.7000;0.1457;10.4606;
1272.0000;0.1408;10.4533;
1272.3000;0.1457;10.4581;
1272.6000;0.1490;10.4678;
1272.9000;0.1481;10.4630;
1273.2000;0.1473;10.4581;
1273.5000;0.1457;10.4485;
1273.8000;0.1473;10.4509;
1274.1000;0.1465;10.4557;
1274.4000;0.1473;10.4557;
1274.7000;0.1473;10.4533;
1275.0000;0.1433;10.4389;
1275.3000;0.1465;10.4292;
1275.6000;0.1481;10.4340;
1275.9000;0.1481;10.4268;
1276.2000;0.1473;10.4316;
1276.5000;0.1490;10.4461;
1276.8000;0.1473;10.4509;
1277.1000;0.1433;10.4389;
1277.4000;0.1465;10.4413;
1277.7000;0.1473;10.4485;
1278.0000;0.1473;10.4509;
1278.3000;0.1441;10.4461;
1278.6000;0.1465;10.4557;
1278.9000;0.1457;10.4606;
1279.2000;0.1465;10.4702;
1279.5000;0.1449;10.4630;
1279.8000;0.1457;10.4678;
1280.1000;0.1465;10.4750;
1280.4000;0.1481;10.4606;
1280.7000;0.1473;10.4533;
1281.0000;0.1481;10.4581;
1281.3000;0.1506;10.4557;
1281.6000;0.1473;10.4485;
1281.9000;0.1465;10.4485;
1282.2000;0.1473;10.4485;
1282.5000;0.1465;10.4509;
1282.8000;0.1465;10.4533;
1283.1000;0.1481;10.4606;
1283.4000;0.1465;10.4581;
1283.7000;0.1547;10.4750;
1284.0000;0.1473;10.4630;
1284.3000;0.1465;10.4557;
1284.6000;0.1351;10.4292;
1284.9000;0.1473;10.4581;
1285.2000;0.1441;10.4485;
1285.5000;0.1473;10.4485;
1285.8000;0.1473;10.4557;
1286.1000;0.1449;10.4485;
1286.4000;0.1449;10.4557;
1286.7000;0.1449;10.4581;
1287.0000;0.1498;10.4774;
1287.3000;0.1538;10.4847;
1287.6000;0.1473;10.4606;
1287.9000;0.1433;10.4557;
1288.2000;0.1481;10.4750;
1288.5000;0.1481;10.4654;
1288.8000;0.1425;10.4533;
1289.1000;0.1457;10.4509;
1289.4000;0.1498;10.4557;
1289.7000;0.1449;10.4485;
1290.0000;0.1465;10.4437;
1290.3000;0.1416;10.4316;
1290.6000;0.1473;10.4413;
1290.9000;0.1473;10.4437;
1291.2000;0.1457;10.4437;
1291.5000;0.1457;10.4413;
1291.8000;0.1457;10.4413;
1292.1000;0.1465;10.4437;
1292.4000;0.1465;10.4437;
1292.7000;0.1481;10.4533;
1293.0000;0.1506;10.4630;
1293.3000;0.1465;10.4461;
1293.6000;0.1473;10.4581;
1293.9000;0.1457;10.4557;
1294.2000;0.1457;10.4581;
1294.5000;0.1473;10.4630;
1294.8000;0.1457;10.4581;
1295.1000;0.1457;10.4533;
1295.4000;0.1457;10.4533;
1295.7000;0.1473;10.4654;
1296.0000;0.1457;10.4581;
1296.3000;0.1465;10.4533;
1296.6000;0.1465;10.4557;
1296.9000;0.1457;10.4557;
1297.2000;0.1465;10.4581;
1297.5000;0.1465;10.4557;
1297.8000;0.1465;10.4509;
1298.1000;0.1449;10.4557;
1298.4000;0.1481;10.4606;
1298.7000;0.1449;10.4606;
1299.0000;0.1465;10.4654;
1299.3000;0.1465;10.4630;
1299.6000;0.1465;10.4654;
1299.9000;0.1473;10.4654;
1300.2000;0.1473;10.4678;
1300.5000;0.1481;10.4702;
1300.8000;0.1425;10.4509;
1301.1000;0.1481;10.4726;
1301.4000;0.1449;10.4654;
1301.7000;0.1441;10.4630;
1302.0000;0.1481;10.4799;
1302.3000;0.1457;10.4726;
1302.6000;0.1465;10.4750;
1302.9000;0.1481;10.4774;
1303.2000;0.1465;10.4750;
1303.5000;0.1587;10.5088;
1303.8000;0.1473;10.4774;
1304.1000;0.1457;10.4823;
1304.4000;0.1457;10.4871;
1304.7000;0.1506;10.4991;
1305.0000;0.1465;10.4967;
1305.3000;0.1392;10.4678;
1305.6000;0.1465;10.4799;
1305.9000;0.1473;10.4847;
1306.2000;0.1465;10.4847;
1306.5000;0.1457;10.4726;
1306.8000;0.1449;10.4750;
1307.1000;0.1449;10.4774;
1307.4000;0.1473;10.4774;
1307.7000;0.1449;10.4678;
1308.0000;0.1481;10.4774;
1308.3000;0.1465;10.4654;
1308.6000;0.1449;10.4606;
1308.9000;0.1490;10.4654;
1309.2000;0.1416;10.4533;
1309.5000;0.1449;10.4678;
1309.8000;0.1441;10.4678;
1310.1000;0.1457;10.4654;
1310.4000;0.1433;10.4678;
1310.7000;0.1425;10.4630;
1311.0000;0.1465;10.4774;
1311.3000;0.1481;10.4799;
1311.6000;0.1433;10.4702;
1311.9000;0.1457;10.4702;
1312.2000;0.1473;10.4726;
1312.5000;0.1465;10.4678;
1312.8000;0.1457;10.4726;
1313.1000;0.1457;10.4750;
1313.4000;0.1490;10.4726;
1313.7000;0.1457;10.4678;
1314.0000;0.1457;10.4702;
1314.3000;0.1465;10.4678;
1314.6000;0.1457;10.4678;
1314.9000;0.1473;10.4606;
1315.2000;0.1457;10.4557;
1315.5000;0.1457;10.4630;
1315.8000;0.1481;10.4654;
1316.1000;0.1457;10.4581;
1316.4000;0.1481;10.4630;
1316.7000;0.1465;10.4654;
1317.0000;0.1416;10.4630;
1317.3000;0.1473;10.4823;
1317.6000;0.1473;10.4823;
1317.9000;0.1465;10.4726;
1318.2000;0.1465;10.4774;
1318.5000;0.1465;10.4847;
1318.8000;0.1465;10.4871;
1319.1000;0.1465;10.4871;
1319.4000;0.1441;10.4799;
1319.7000;0.1457;10.4847;
1320.0000;0.1457;10.4895;
1320.3000;0.1449;10.4895;
1320.6000;0.1457;10.4847;
1320.9000;0.1473;10.4823;
1321.2000;0.1449;10.4847;
1321.5000;0.1465;10.4895;
1321.8000;0.1473;10.5016;
1322.1000;0.1522;10.5112;
1322.4000;0.1473;10.4967;
1322.7000;0.1465;10.4967;
1323.0000;0.1473;10.5040;
1323.3000;0.1473;10.5136;
1323.6000;0.1465;10.5136;
1323.9000;0.1473;10.5160;
1324.2000;0.1457;10.5064;
1324.5000;0.1449;10.4991;
1324.8000;0.1457;10.4967;
1325.1000;0.1506;10.4991;
1325.4000;0.1457;10.4774;
1325.7000;0.1433;10.4630;
1326.0000;0.1473;10.4654;
1326.3000;0.1498;10.4799;
1326.6000;0.1465;10.4750;
1326.9000;0.1465;10.4799;
1327.2000;0.1433;10.4678;
1327.5000;0.1465;10.4630;
1327.8000;0.1457;10.4630;
1328.1000;0.1473;10.4678;
1328.4000;0.1449;10.4581;
1328.7000;0.1384;10.4413;
1329.0000;0.1473;10.4726;
1329.3000;0.1481;10.4726;
1329.6000;0.1376;10.4557;
1329.9000;0.1465;10.4871;
1330.2000;0.1441;10.4847;
1330.5000;0.1473;10.4991;
1330.8000;0.1530;10.5184;
1331.1000;0.1481;10.4967;
1331.4000;0.1425;10.4823;
1331.7000;0.1392;10.4750;
1332.0000;0.1449;10.4847;
1332.3000;0.1506;10.4991;
1332.6000;0.1449;10.4895;
1332.9000;0.1465;10.4895;
1333.2000;0.1449;10.4895;
1333.5000;0.1457;10.4919;
1333.8000;0.1465;10.4895;
1334.1000;0.1465;10.4943;
1334.4000;0.1465;10.4895;
1334.7000;0.1449;10.4871;
1335.0000;0.1457;10.4919;
1335.3000;0.1441;10.4943;
1335.6000;0.1473;10.4991;
1335.9000;0.1522;10.5040;
1336.2000;0.1449;10.4823;
1336.5000;0.1473;10.4943;
1336.8000;0.1473;10.4967;
1337.1000;0.1465;10.4967;
1337.4000;0.1465;10.4991;
1337.7000;0.1473;10.4919;
1338.0000;0.1473;10.5016;
1338.3000;0.1449;10.4991;
1338.6000;0.1465;10.4919;
1338.9000;0.1457;10.4847;
1339.2000;0.1473;10.4895;
1339.5000;0.1465;10.4871;
1339.8000;0.1433;10.4919;
1340.1000;0.1473;10.4943;
1340.4000;0.1465;10.4799;
1340.7000;0.1465;10.4799;
1341.0000;0.1506;10.5088;
1341.3000;0.1473;10.5016;
1341.6000;0.1465;10.5016;
1341.9000;0.1465;10.5040;
1342.2000;0.1449;10.4943;
1342.5000;0.1481;10.4895;
1342.8000;0.1530;10.5016;
1343.1000;0.1538;10.5064;
1343.4000;0.1465;10.4871;
1343.7000;0.1490;10.4967;
1344.0000;0.1490;10.4871;
1344.3000;0.1465;10.4799;
1344.6000;0.1473;10.4871;
1344.9000;0.1449;10.4871;
1345.2000;0.1465;10.4919;
1345.5000;0.1465;10.4895;
1345.8000;0.1473;10.4895;
1346.1000;0.1457;10.4847;
1346.4000;0.1457;10.4799;
1346.7000;0.1441;10.4774;
1347.0000;0.1473;10.4799;
1347.3000;0.1473;10.4871;
1347.6000;0.1465;10.4799;
1347.9000;0.1449;10.4774;
1348.2000;0.1473;10.4895;
1348.5000;0.1473;10.4847;
1348.8000;0.1465;10.4871;
1349.1000;0.1465;10.4895;
1349.4000;0.1473;10.4823;
1349.7000;0.1465;10.4823;
1350.0000;0.1473;10.4871;
1350.3000;0.1457;10.4823;
1350.6000;0.1457;10.4823;
1350.9000;0.1465;10.4823;
1351.2000;0.1465;10.4823;
1351.5000;0.1416;10.4678;
1351.8000;0.1449;10.4702;
1352.1000;0.1457;10.4678;
1352.4000;0.1465;10.4726;
1352.7000;0.1481;10.4726;
1353.0000;0.1457;10.4750;
1353.3000;0.1490;10.4895;
1353.6000;0.1473;10.4991;
1353.9000;0.1449;10.4919;
1354.2000;0.1481;10.4967;
1354.5000;0.1473;10.4919;
1354.8000;0.1465;10.4895;
1355.1000;0.1457;10.4943;
1355.4000;0.1457;10.4823;
1355.7000;0.1457;10.4750;
1356.0000;0.1481;10.4799;
1356.3000;0.1449;10.4774;
1356.6000;0.1449;10.4678;
1356.9000;0.1506;10.4823;
1357.2000;0.1465;10.4678;
1357.5000;0.1473;10.4750;
1357.8000;0.1490;10.4895;
1358.1000;0.1481;10.4774;
1358.4000;0.1457;10.4630;
1358.7000;0.1538;10.4750;
1359.0000;0.1433;10.4461;
1359.3000;0.1571;10.4871;
1359.6000;0.1481;10.4654;
1359.9000;0.1465;10.4630;
1360.2000;0.1465;10.4581;
1360.5000;0.1457;10.4581;
1360.8000;0.1457;10.4630;
1361.1000;0.1473;10.4654;
1361.4000;0.1465;10.4581;
1361.7000;0.1449;10.4581;
1362.0000;0.1465;10.4630;
1362.3000;0.1465;10.4702;
1362.6000;0.1465;10.4702;
1362.9000;0.1481;10.4606;
1363.2000;0.1449;10.4437;
1363.5000;0.1465;10.4485;
1363.8000;0.1416;10.4389;
1364.1000;0.1498;10.4678;
1364.4000;0.1449;10.4581;
1364.7000;0.1465;10.4581;
1365.0000;0.1538;10.4774;
1365.3000;0.1465;10.4533;
1365.6000;0.1449;10.4461;
1365.9000;0.1449;10.4461;
1366.2000;0.1481;10.4533;
1366.5000;0.1465;10.4509;
1366.8000;0.1457;10.4389;
1367.1000;0.1457;10.4389;
1367.4000;0.1490;10.4389;
1367.7000;0.1465;10.4340;
1368.0000;0.1416;10.4220;
1368.3000;0.1473;10.4389;
1368.6000;0.1473;10.4461;
1368.9000;0.1457;10.4413;
1369.2000;0.1481;10.4509;
1369.5000;0.1457;10.4557;
1369.8000;0.1465;10.4581;
1370.1000;0.1449;10.4533;
1370.4000;0.1449;10.4437;
1370.7000;0.1473;10.4437;
1371.0000;0.1449;10.4389;
1371.3000;0.1465;10.4437;
1371.6000;0.1449;10.4461;
1371.9000;0.1457;10.4533;
1372.2000;0.1473;10.4509;
1372.5000;0.1449;10.4461;
1372.8000;0.1465;10.4485;
1373.1000;0.1465;10.4389;
1373.4000;0.1457;10.4413;
1373.7000;0.1465;10.4413;
1374.0000;0.1481;10.4533;
1374.3000;0.1433;10.4461;
1374.6000;0.1481;10.4630;
1374.9000;0.1465;10.4606;
1375.2000;0.1449;10.4557;
1375.5000;0.1473;10.4654;
1375.8000;0.1449;10.4533;
1376.1000;0.1473;10.4726;
1376.4000;0.1481;10.4654;
1376.7000;0.1473;10.4702;
1377.0000;0.1449;10.4678;
1377.3000;0.1465;10.4750;
1377.6000;0.1481;10.4774;
1377.9000;0.1473;10.4702;
1378.2000;0.1457;10.4726;
1378.5000;0.1457;10.4654;
1378.8000;0.1473;10.4799;
1379.1000;0.1506;10.4823;
1379.4000;0.1416;10.4630;
1379.7000;0.1384;10.4581;
1380.0000;0.1481;10.4871;
1380.3000;0.1473;10.4847;
1380.6000;0.1457;10.4774;
1380.9000;0.1473;10.4799;
1381.2000;0.1457;10.4726;
1381.5000;0.1441;10.4606;
1381.8000;0.1449;10.4630;
1382.1000;0.1514;10.4799;
1382.4000;0.1473;10.4630;
1382.7000;0.1457;10.4581;
1383.0000;0.1457;10.4630;
1383.3000;0.1457;10.4678;
1383.6000;0.1457;10.4726;
1383.9000;0.1473;10.4774;
1384.2000;0.1465;10.4654;
1384.5000;0.1465;10.4630;
1384.8000;0.1449;10.4581;
1385.1000;0.1490;10.4750;
1385.4000;0.1465;10.4678;
1385.7000;0.1449;10.4581;
1386.0000;0.1441;10.4581;
1386.3000;0.1481;10.4702;
1386.6000;0.1473;10.4654;
1386.9000;0.1481;10.4630;
1387.2000;0.1457;10.4485;
1387.5000;0.1465;10.4461;
1387.8000;0.1473;10.4413;
1388.1000;0.1457;10.4461;
1388.4000;0.1473;10.4509;
1388.7000;0.1465;10.4509;
1389.0000;0.1563;10.4823;
1389.3000;0.1481;10.4702;
1389.6000;0.1441;10.4509;
1389.9000;0.1465;10.4606;
1390.2000;0.1473;10.4654;
1390.5000;0.1465;10.4678;
1390.8000;0.1449;10.4678;
1391.1000;0.1441;10.4630;
1391.4000;0.1457;10.4702;
1391.7000;0.1465;10.4750;
1392.0000;0.1465;10.4847;
1392.3000;0.1457;10.4774;
1392.6000;0.1457;10.4774;
1392.9000;0.1506;10.4895;
1393.2000;0.1433;10.4606;
1393.5000;0.1441;10.4654;
1393.8000;0.1506;10.4823;
1394.1000;0.1465;10.4774;
1394.4000;0.1473;10.4774;
1394.7000;0.1449;10.4678;
1395.0000;0.1343;10.4292;
1395.3000;0.1473;10.4581;
1395.6000;0.1465;10.4678;
1395.9000;0.1457;10.4654;
1396.2000;0.1441;10.4606;
1396.5000;0.1457;10.4702;
1396.8000;0.1465;10.4702;
1397.1000;0.1473;10.4702;
1397.4000;0.1490;10.4750;
1397.7000;0.1457;10.4702;
1398.0000;0.1506;10.4750;
1398.3000;0.1547;10.4847;
1398.6000;0.1465;10.4606;
1398.9000;0.1473;10.4606;
1399.2000;0.1465;10.4630;
1399.5000;0.1481;10.4654;
1399.8000;0.1457;10.4606;
