time/ms;Fluo/V;P700 deltaI/I x10³;
-199.8000;0.1595;10.5160;
-199.5000;0.1506;10.4871;
-199.2000;0.1506;10.4774;
-198.9000;0.1498;10.4750;
-198.6000;0.1490;10.4774;
-198.3000;0.1530;10.4871;
-198.0000;0.1481;10.4799;
-197.7000;0.1490;10.4750;
-197.4000;0.1490;10.4630;
-197.1000;0.1481;10.4509;
-196.8000;0.1498;10.4485;
-196.5000;0.1473;10.4461;
-196.2000;0.1481;10.4461;
-195.9000;0.1481;10.4509;
-195.6000;0.1604;10.4919;
-195.3000;0.1490;10.4630;
-195.0000;0.1473;10.4702;
-194.7000;0.1457;10.4774;
-194.4000;0.1498;10.4799;
-194.1000;0.1473;10.4654;
-193.8000;0.1522;10.4726;
-193.5000;0.1490;10.4726;
-193.2000;0.1490;10.4678;
-192.9000;0.1506;10.4750;
-192.6000;0.1490;10.4630;
-192.3000;0.1481;10.4630;
-192.0000;0.1506;10.4774;
-191.7000;0.1498;10.4799;
-191.4000;0.1481;10.4799;
-191.1000;0.1449;10.4726;
-190.8000;0.1490;10.4799;
-190.5000;0.1498;10.4726;
-190.2000;0.1506;10.4630;
-189.9000;0.1481;10.4533;
-189.6000;0.1538;10.4654;
-189.3000;0.1498;10.4509;
-189.0000;0.1506;10.4533;
-188.7000;0.1498;10.4533;
-188.4000;0.1538;10.4726;
-188.1000;0.1490;10.4630;
-187.8000;0.1522;10.4630;
-187.5000;0.1571;10.4750;
-187.2000;0.1522;10.4630;
-186.9000;0.1514;10.4606;
-186.6000;0.1595;10.4847;
-186.3000;0.1498;10.4606;
-186.0000;0.1441;10.4437;
-185.7000;0.1481;10.4485;
-185.4000;0.1490;10.4533;
-185.1000;0.1490;10.4606;
-184.8000;0.1555;10.4750;
-184.5000;0.1555;10.4943;
-184.2000;0.1408;10.4485;
-183.9000;0.1506;10.4799;
-183.6000;0.1490;10.4726;
-183.3000;0.1490;10.4654;
-183.0000;0.1465;10.4606;
-182.7000;0.1522;10.4847;
-182.4000;0.1490;10.4702;
-182.1000;0.1433;10.4533;
-181.8000;0.1595;10.4943;
-181.5000;0.1506;10.4702;
-181.2000;0.1481;10.4750;
-180.9000;0.1368;10.4485;
-180.6000;0.1498;10.4823;
-180.3000;0.1490;10.4774;
-180.0000;0.1481;10.4750;
-179.7000;0.1506;10.4750;
-179.4000;0.1506;10.4678;
-179.1000;0.1522;10.4774;
-178.8000;0.1522;10.4774;
-178.5000;0.1498;10.4774;
-178.2000;0.1498;10.4799;
-177.9000;0.1465;10.4750;
-177.6000;0.1490;10.4847;
-177.3000;0.1481;10.4823;
-177.0000;0.1490;10.4871;
-176.7000;0.1506;10.4847;
-176.4000;0.1498;10.4799;
-176.1000;0.1490;10.4799;
-175.8000;0.1481;10.4702;
-175.5000;0.1490;10.4702;
-175.2000;0.1490;10.4774;
-174.9000;0.1579;10.5064;
-174.6000;0.1473;10.4823;
-174.3000;0.1514;10.4871;
-174.0000;0.1530;10.4943;
-173.7000;0.1449;10.4533;
-173.4000;0.1490;10.4606;
-173.1000;0.1506;10.4726;
-172.8000;0.1457;10.4702;
-172.5000;0.1441;10.4654;
-172.2000;0.1506;10.4871;
-171.9000;0.1384;10.4606;
-171.6000;0.1514;10.4991;
-171.3000;0.1506;10.5040;
-171.0000;0.1498;10.5016;
-170.7000;0.1481;10.4943;
-170.4000;0.1498;10.5088;
-170.1000;0.1506;10.5064;
-169.8000;0.1490;10.5064;
-169.5000;0.1490;10.5064;
-169.2000;0.1506;10.5016;
-168.9000;0.1498;10.4895;
-168.6000;0.1481;10.4895;
-168.3000;0.1481;10.4847;
-168.0000;0.1595;10.5088;
-167.7000;0.1473;10.4847;
-167.4000;0.1506;10.4847;
-167.1000;0.1571;10.5040;
-166.8000;0.1490;10.4799;
-166.5000;0.1498;10.4847;
-166.2000;0.1506;10.4823;
-165.9000;0.1400;10.4485;
-165.6000;0.1490;10.4799;
-165.3000;0.1498;10.4774;
-165.0000;0.1465;10.4654;
-164.7000;0.1498;10.4726;
-164.4000;0.1498;10.4799;
-164.1000;0.1490;10.4799;
-163.8000;0.1465;10.4823;
-163.5000;0.1514;10.4943;
-163.2000;0.1506;10.4895;
-162.9000;0.1506;10.4871;
-162.6000;0.1498;10.4774;
-162.3000;0.1473;10.4750;
-162.0000;0.1473;10.4774;
-161.7000;0.1506;10.4919;
-161.4000;0.1498;10.4847;
-161.1000;0.1490;10.4847;
-160.8000;0.1490;10.4871;
-160.5000;0.1506;10.4847;
-160.2000;0.1481;10.4823;
-159.9000;0.1555;10.5016;
-159.6000;0.1473;10.4943;
-159.3000;0.1473;10.4847;
-159.0000;0.1473;10.4726;
-158.7000;0.1490;10.4750;
-158.4000;0.1490;10.4726;
-158.1000;0.1498;10.4799;
-157.8000;0.1506;10.4774;
-157.5000;0.1498;10.4702;
-157.2000;0.1376;10.4437;
-156.9000;0.1506;10.4774;
-156.6000;0.1481;10.4774;
-156.3000;0.1481;10.4726;
-156.0000;0.1490;10.4774;
-155.7000;0.1530;10.4919;
-155.4000;0.1490;10.4799;
-155.1000;0.1465;10.4654;
-154.8000;0.1498;10.4750;
-154.5000;0.1506;10.4726;
-154.2000;0.1490;10.4774;
-153.9000;0.1490;10.4847;
-153.6000;0.1506;10.4871;
-153.3000;0.1498;10.4895;
-153.0000;0.1473;10.4799;
-152.7000;0.1522;10.4847;
-152.4000;0.1498;10.4702;
-152.1000;0.1498;10.4630;
-151.8000;0.1514;10.4702;
-151.5000;0.1490;10.4630;
-151.2000;0.1522;10.4799;
-150.9000;0.1522;10.4774;
-150.6000;0.1425;10.4533;
-150.3000;0.1490;10.4654;
-150.0000;0.1473;10.4606;
-149.7000;0.1490;10.4750;
-149.4000;0.1490;10.4726;
-149.1000;0.1498;10.4774;
-148.8000;0.1490;10.4750;
-148.5000;0.1498;10.4774;
-148.2000;0.1490;10.4774;
-147.9000;0.1498;10.4799;
-147.6000;0.1481;10.4847;
-147.3000;0.1481;10.4847;
-147.0000;0.1498;10.4847;
-146.7000;0.1506;10.4871;
-146.4000;0.1481;10.4799;
-146.1000;0.1473;10.4678;
-145.8000;0.1481;10.4606;
-145.5000;0.1490;10.4726;
-145.2000;0.1498;10.4750;
-144.9000;0.1481;10.4702;
-144.6000;0.1490;10.4750;
-144.3000;0.1514;10.4750;
-144.0000;0.1538;10.4799;
-143.7000;0.1481;10.4702;
-143.4000;0.1490;10.4750;
-143.1000;0.1522;10.4750;
-142.8000;0.1473;10.4606;
-142.5000;0.1481;10.4485;
-142.2000;0.1522;10.4581;
-141.9000;0.1514;10.4581;
-141.6000;0.1530;10.4557;
-141.3000;0.1490;10.4461;
-141.0000;0.1506;10.4461;
-140.7000;0.1473;10.4340;
-140.4000;0.1490;10.4340;
-140.1000;0.1481;10.4389;
-139.8000;0.1473;10.4389;
-139.5000;0.1490;10.4413;
-139.2000;0.1498;10.4461;
-138.9000;0.1498;10.4389;
-138.6000;0.1490;10.4437;
-138.3000;0.1481;10.4485;
-138.0000;0.1498;10.4606;
-137.7000;0.1555;10.4702;
-137.4000;0.1506;10.4606;
-137.1000;0.1514;10.4557;
-136.8000;0.1514;10.4581;
-136.5000;0.1514;10.4581;
-136.2000;0.1481;10.4533;
-135.9000;0.1498;10.4533;
-135.6000;0.1498;10.4509;
-135.3000;0.1490;10.4581;
-135.0000;0.1490;10.4630;
-134.7000;0.1506;10.4654;
-134.4000;0.1481;10.4533;
-134.1000;0.1514;10.4437;
-133.8000;0.1490;10.4364;
-133.5000;0.1473;10.4292;
-133.2000;0.1481;10.4413;
-132.9000;0.1465;10.4389;
-132.6000;0.1498;10.4485;
-132.3000;0.1490;10.4461;
-132.0000;0.1481;10.4509;
-131.7000;0.1522;10.4581;
-131.4000;0.1490;10.4581;
-131.1000;0.1441;10.4606;
-130.8000;0.1465;10.4654;
-130.5000;0.1457;10.4630;
-130.2000;0.1514;10.4654;
-129.9000;0.1473;10.4606;
-129.6000;0.1457;10.4581;
-129.3000;0.1481;10.4630;
-129.0000;0.1514;10.4630;
-128.7000;0.1595;10.4919;
-128.4000;0.1498;10.4581;
-128.1000;0.1481;10.4606;
-127.8000;0.1481;10.4630;
-127.5000;0.1408;10.4364;
-127.2000;0.1449;10.4533;
-126.9000;0.1481;10.4581;
-126.6000;0.1465;10.4630;
-126.3000;0.1506;10.4678;
-126.0000;0.1547;10.4847;
-125.7000;0.1457;10.4606;
-125.4000;0.1498;10.4654;
-125.1000;0.1481;10.4509;
-124.8000;0.1481;10.4581;
-124.5000;0.1490;10.4485;
-124.2000;0.1506;10.4557;
-123.9000;0.1490;10.4581;
-123.6000;0.1473;10.4485;
-123.3000;0.1506;10.4581;
-123.0000;0.1490;10.4581;
-122.7000;0.1506;10.4533;
-122.4000;0.1498;10.4630;
-122.1000;0.1506;10.4630;
-121.8000;0.1506;10.4678;
-121.5000;0.1514;10.4678;
-121.2000;0.1465;10.4606;
-120.9000;0.1490;10.4606;
-120.6000;0.1481;10.4581;
-120.3000;0.1441;10.4509;
-120.0000;0.1490;10.4581;
-119.7000;0.1490;10.4630;
-119.4000;0.1514;10.4750;
-119.1000;0.1498;10.4678;
-118.8000;0.1490;10.4557;
-118.5000;0.1498;10.4509;
-118.2000;0.1481;10.4557;
-117.9000;0.1490;10.4606;
-117.6000;0.1498;10.4654;
-117.3000;0.1481;10.4533;
-117.0000;0.1490;10.4557;
-116.7000;0.1481;10.4413;
-116.4000;0.1498;10.4389;
-116.1000;0.1514;10.4461;
-115.8000;0.1498;10.4389;
-115.5000;0.1490;10.4340;
-115.2000;0.1481;10.4389;
-114.9000;0.1473;10.4413;
-114.6000;0.1490;10.4557;
-114.3000;0.1473;10.4509;
-114.0000;0.1506;10.4581;
-113.7000;0.1522;10.4557;
-113.4000;0.1481;10.4509;
-113.1000;0.1490;10.4581;
-112.8000;0.1547;10.4823;
-112.5000;0.1506;10.4654;
-112.2000;0.1481;10.4654;
-111.9000;0.1481;10.4630;
-111.6000;0.1530;10.4774;
-111.3000;0.1514;10.4726;
-111.0000;0.1481;10.4702;
-110.7000;0.1481;10.4726;
-110.4000;0.1514;10.4750;
-110.1000;0.1522;10.4871;
-109.8000;0.1555;10.4967;
-109.5000;0.1490;10.4750;
-109.2000;0.1498;10.4630;
-108.9000;0.1481;10.4533;
-108.6000;0.1490;10.4630;
-108.3000;0.1473;10.4654;
-108.0000;0.1514;10.4726;
-107.7000;0.1530;10.4847;
-107.4000;0.1498;10.4726;
-107.1000;0.1465;10.4557;
-106.8000;0.1538;10.4630;
-106.5000;0.1498;10.4533;
-106.2000;0.1530;10.4678;
-105.9000;0.1490;10.4557;
-105.6000;0.1481;10.4533;
-105.3000;0.1522;10.4726;
-105.0000;0.1490;10.4678;
-104.7000;0.1498;10.4726;
-104.4000;0.1506;10.4726;
-104.1000;0.1449;10.4606;
-103.8000;0.1457;10.4606;
-103.5000;0.1473;10.4606;
-103.2000;0.1490;10.4678;
-102.9000;0.1481;10.4702;
-102.6000;0.1490;10.4774;
-102.3000;0.1498;10.4750;
-102.0000;0.1514;10.4654;
-101.7000;0.1490;10.4630;
-101.4000;0.1473;10.4581;
-101.1000;0.1490;10.4654;
-100.8000;0.1498;10.4630;
-100.5000;0.1498;10.4606;
-100.2000;0.1506;10.4581;
-99.9000;0.1473;10.4533;
-99.6000;0.1506;10.4557;
-99.3000;0.1473;10.4557;
-99.0000;0.1481;10.4461;
-98.7000;0.1538;10.4557;
-98.4000;0.1514;10.4581;
-98.1000;0.1481;10.4461;
-97.8000;0.1506;10.4533;
-97.5000;0.1498;10.4606;
-97.2000;0.1481;10.4606;
-96.9000;0.1490;10.4630;
-96.6000;0.1490;10.4630;
-96.3000;0.1490;10.4606;
-96.0000;0.1506;10.4630;
-95.7000;0.1514;10.4630;
-95.4000;0.1433;10.4340;
-95.1000;0.1490;10.4485;
-94.8000;0.1481;10.4509;
-94.5000;0.1490;10.4606;
-94.2000;0.1490;10.4606;
-93.9000;0.1481;10.4485;
-93.6000;0.1457;10.4437;
-93.3000;0.1506;10.4606;
-93.0000;0.1490;10.4581;
-92.7000;0.1490;10.4557;
-92.4000;0.1498;10.4461;
-92.1000;0.1498;10.4413;
-91.8000;0.1490;10.4413;
-91.5000;0.1498;10.4316;
-91.2000;0.1490;10.4316;
-90.9000;0.1522;10.4316;
-90.6000;0.1481;10.4196;
-90.3000;0.1473;10.4244;
-90.0000;0.1490;10.4244;
-89.7000;0.1579;10.4533;
-89.4000;0.1490;10.4268;
-89.1000;0.1514;10.4268;
-88.8000;0.1490;10.4220;
-88.5000;0.1498;10.4268;
-88.2000;0.1473;10.4292;
-87.9000;0.1490;10.4244;
-87.6000;0.1498;10.4244;
-87.3000;0.1473;10.4244;
-87.0000;0.1506;10.4292;
-86.7000;0.1498;10.4340;
-86.4000;0.1490;10.4340;
-86.1000;0.1612;10.4726;
-85.8000;0.1579;10.4557;
-85.5000;0.1490;10.4340;
-85.2000;0.1481;10.4413;
-84.9000;0.1522;10.4437;
-84.6000;0.1498;10.4461;
-84.3000;0.1498;10.4461;
-84.0000;0.1465;10.4364;
-83.7000;0.1481;10.4413;
-83.4000;0.1498;10.4485;
-83.1000;0.1498;10.4509;
-82.8000;0.1490;10.4533;
-82.5000;0.1481;10.4533;
-82.2000;0.1530;10.4678;
-81.9000;0.1490;10.4557;
-81.6000;0.1490;10.4509;
-81.3000;0.1490;10.4654;
-81.0000;0.1490;10.4606;
-80.7000;0.1514;10.4678;
-80.4000;0.1490;10.4557;
-80.1000;0.1490;10.4437;
-79.8000;0.1498;10.4437;
-79.5000;0.1498;10.4413;
-79.2000;0.1490;10.4364;
-78.9000;0.1498;10.4316;
-78.6000;0.1490;10.4244;
-78.3000;0.1481;10.4292;
-78.0000;0.1490;10.4413;
-77.7000;0.1473;10.4461;
-77.4000;0.1490;10.4509;
-77.1000;0.1490;10.4606;
-76.8000;0.1498;10.4630;
-76.5000;0.1481;10.4557;
-76.2000;0.1490;10.4485;
-75.9000;0.1473;10.4461;
-75.6000;0.1481;10.4509;
-75.3000;0.1481;10.4509;
-75.0000;0.1490;10.4630;
-74.7000;0.1506;10.4702;
-74.4000;0.1465;10.4654;
-74.1000;0.1506;10.4702;
-73.8000;0.1498;10.4509;
-73.5000;0.1473;10.4461;
-73.2000;0.1498;10.4485;
-72.9000;0.1498;10.4509;
-72.6000;0.1490;10.4533;
-72.3000;0.1481;10.4509;
-72.0000;0.1481;10.4485;
-71.7000;0.1498;10.4509;
-71.4000;0.1612;10.4823;
-71.1000;0.1514;10.4581;
-70.8000;0.1506;10.4581;
-70.5000;0.1498;10.4606;
-70.2000;0.1498;10.4630;
-69.9000;0.1498;10.4581;
-69.6000;0.1490;10.4557;
-69.3000;0.1506;10.4630;
-69.0000;0.1490;10.4630;
-68.7000;0.1506;10.4606;
-68.4000;0.1481;10.4533;
-68.1000;0.1449;10.4533;
-67.8000;0.1490;10.4630;
-67.5000;0.1481;10.4461;
-67.2000;0.1490;10.4437;
-66.9000;0.1481;10.4437;
-66.6000;0.1481;10.4437;
-66.3000;0.1498;10.4509;
-66.0000;0.1376;10.4244;
-65.7000;0.1490;10.4437;
-65.4000;0.1498;10.4437;
-65.1000;0.1441;10.4244;
-64.8000;0.1506;10.4437;
-64.5000;0.1441;10.4244;
-64.2000;0.1498;10.4413;
-63.9000;0.1506;10.4413;
-63.6000;0.1490;10.4413;
-63.3000;0.1530;10.4461;
-63.0000;0.1457;10.4268;
-62.7000;0.1506;10.4509;
-62.4000;0.1490;10.4413;
-62.1000;0.1481;10.4340;
-61.8000;0.1506;10.4485;
-61.5000;0.1490;10.4485;
-61.2000;0.1473;10.4413;
-60.9000;0.1481;10.4413;
-60.6000;0.1506;10.4485;
-60.3000;0.1514;10.4606;
-60.0000;0.1498;10.4654;
-59.7000;0.1530;10.4678;
-59.4000;0.1498;10.4557;
-59.1000;0.1506;10.4606;
-58.8000;0.1490;10.4606;
-58.5000;0.1498;10.4606;
-58.2000;0.1490;10.4509;
-57.9000;0.1498;10.4533;
-57.6000;0.1481;10.4485;
-57.3000;0.1481;10.4630;
-57.0000;0.1441;10.4533;
-56.7000;0.1498;10.4581;
-56.4000;0.1481;10.4678;
-56.1000;0.1490;10.4654;
-55.8000;0.1506;10.4606;
-55.5000;0.1490;10.4606;
-55.2000;0.1506;10.4678;
-54.9000;0.1481;10.4678;
-54.6000;0.1481;10.4654;
-54.3000;0.1481;10.4630;
-54.0000;0.1490;10.4606;
-53.7000;0.1498;10.4557;
-53.4000;0.1481;10.4557;
-53.1000;0.1498;10.4509;
-52.8000;0.1481;10.4389;
-52.5000;0.1498;10.4413;
-52.2000;0.1530;10.4581;
-51.9000;0.1490;10.4485;
-51.6000;0.1465;10.4509;
-51.3000;0.1530;10.4606;
-51.0000;0.1490;10.4533;
-50.7000;0.1465;10.4485;
-50.4000;0.1522;10.4654;
-50.1000;0.1506;10.4581;
-49.8000;0.1514;10.4581;
-49.5000;0.1490;10.4533;
-49.2000;0.1481;10.4509;
-48.9000;0.1498;10.4654;
-48.6000;0.1449;10.4557;
-48.3000;0.1490;10.4654;
-48.0000;0.1481;10.4485;
-47.7000;0.1425;10.4268;
-47.4000;0.1498;10.4413;
-47.1000;0.1473;10.4437;
-46.8000;0.1498;10.4557;
-46.5000;0.1490;10.4533;
-46.2000;0.1506;10.4606;
-45.9000;0.1522;10.4606;
-45.6000;0.1481;10.4509;
-45.3000;0.1506;10.4557;
-45.0000;0.1506;10.4581;
-44.7000;0.1449;10.4364;
-44.4000;0.1514;10.4606;
-44.1000;0.1457;10.4437;
-43.8000;0.1514;10.4581;
-43.5000;0.1563;10.4750;
-43.2000;0.1490;10.4485;
-42.9000;0.1522;10.4461;
-42.6000;0.1449;10.4220;
-42.3000;0.1498;10.4316;
-42.0000;0.1490;10.4292;
-41.7000;0.1481;10.4220;
-41.4000;0.1530;10.4389;
-41.1000;0.1425;10.4147;
-40.8000;0.1457;10.4340;
-40.5000;0.1481;10.4509;
-40.2000;0.1506;10.4533;
-39.9000;0.1498;10.4509;
-39.6000;0.1506;10.4509;
-39.3000;0.1490;10.4533;
-39.0000;0.1490;10.4581;
-38.7000;0.1506;10.4557;
-38.4000;0.1498;10.4485;
-38.1000;0.1498;10.4461;
-37.8000;0.1604;10.4774;
-37.5000;0.1498;10.4533;
-37.2000;0.1465;10.4485;
-36.9000;0.1514;10.4606;
-36.6000;0.1473;10.4413;
-36.3000;0.1490;10.4364;
-36.0000;0.1490;10.4292;
-35.7000;0.1481;10.4196;
-35.4000;0.1498;10.4268;
-35.1000;0.1498;10.4244;
-34.8000;0.1498;10.4268;
-34.5000;0.1563;10.4389;
-34.2000;0.1441;10.4051;
-33.9000;0.1506;10.4244;
-33.6000;0.1506;10.4389;
-33.3000;0.1481;10.4244;
-33.0000;0.1563;10.4461;
-32.7000;0.1433;10.4196;
-32.4000;0.1498;10.4364;
-32.1000;0.1490;10.4413;
-31.8000;0.1473;10.4485;
-31.5000;0.1490;10.4485;
-31.2000;0.1506;10.4413;
-30.9000;0.1498;10.4413;
-30.6000;0.1498;10.4413;
-30.3000;0.1490;10.4461;
-30.0000;0.1506;10.4557;
-29.7000;0.1498;10.4509;
-29.4000;0.1473;10.4485;
-29.1000;0.1473;10.4485;
-28.8000;0.1498;10.4533;
-28.5000;0.1498;10.4533;
-28.2000;0.1457;10.4509;
-27.9000;0.1498;10.4533;
-27.6000;0.1498;10.4485;
-27.3000;0.1498;10.4461;
-27.0000;0.1498;10.4437;
-26.7000;0.1506;10.4316;
-26.4000;0.1490;10.4220;
-26.1000;0.1490;10.4196;
-25.8000;0.1506;10.4123;
-25.5000;0.1481;10.4171;
-25.2000;0.1441;10.4027;
-24.9000;0.1473;10.4292;
-24.6000;0.1506;10.4413;
-24.3000;0.1498;10.4437;
-24.0000;0.1506;10.4437;
-23.7000;0.1514;10.4461;
-23.4000;0.1506;10.4485;
-23.1000;0.1506;10.4509;
-22.8000;0.1506;10.4533;
-22.5000;0.1498;10.4581;
-22.2000;0.1481;10.4606;
-21.9000;0.1506;10.4654;
-21.6000;0.1538;10.4654;
-21.3000;0.1481;10.4461;
-21.0000;0.1490;10.4533;
-20.7000;0.1506;10.4581;
-20.4000;0.1506;10.4413;
-20.1000;0.1481;10.4389;
-19.8000;0.1514;10.4509;
-19.5000;0.1441;10.4364;
-19.2000;0.1498;10.4557;
-18.9000;0.1498;10.4606;
-18.6000;0.1498;10.4606;
-18.3000;0.1490;10.4630;
-18.0000;0.1473;10.4606;
-17.7000;0.1490;10.4557;
-17.4000;0.1506;10.4581;
-17.1000;0.1465;10.4557;
-16.8000;0.1481;10.4581;
-16.5000;0.1490;10.4606;
-16.2000;0.1490;10.4581;
-15.9000;0.1481;10.4630;
-15.6000;0.1457;10.4581;
-15.3000;0.1425;10.4461;
-15.0000;0.1514;10.4678;
-14.7000;0.1473;10.4509;
-14.4000;0.1481;10.4581;
-14.1000;0.1498;10.4581;
-13.8000;0.1473;10.4437;
-13.5000;0.1481;10.4461;
-13.2000;0.1465;10.4461;
-12.9000;0.1481;10.4437;
-12.6000;0.1555;10.4533;
-12.3000;0.1563;10.4557;
-12.0000;0.1400;10.4123;
-11.7000;0.1465;10.4316;
-11.4000;0.1490;10.4389;
-11.1000;0.1506;10.4413;
-10.8000;0.1473;10.4316;
-10.5000;0.1408;10.4075;
-10.2000;0.1514;10.4364;
-9.9000;0.1457;10.4292;
-9.6000;0.1522;10.4389;
-9.3000;0.1490;10.4413;
-9.0000;0.1457;10.4340;
-8.7000;0.1490;10.4413;
-8.4000;0.1481;10.4437;
-8.1000;0.1473;10.4389;
-7.8000;0.1465;10.4340;
-7.5000;0.1473;10.4413;
-7.2000;0.1506;10.4557;
-6.9000;0.1473;10.4581;
-6.6000;0.1498;10.4726;
-6.3000;0.1473;10.4654;
-6.0000;0.1473;10.4654;
-5.7000;0.1473;10.4654;
-5.4000;0.1473;10.4630;
-5.1000;0.1481;10.4630;
-4.8000;0.1481;10.4678;
-4.5000;0.1498;10.4750;
-4.2000;0.1490;10.4702;
-3.9000;0.1481;10.4726;
-3.6000;0.1481;10.4726;
-3.3000;0.1481;10.4678;
-3.0000;0.1498;10.4726;
-2.7000;0.1498;10.4630;
-2.4000;0.1612;10.4847;
-2.1000;0.1490;10.4581;
-1.8000;0.1481;10.4533;
-1.5000;0.1490;10.4581;
-1.2000;0.1473;10.4557;
-0.9000;0.1490;10.4485;
-0.6000;0.1498;10.4437;
-0.3000;0.1514;10.4413;
0.0000;0.1514;10.4413;
0.3000;0.1538;10.4509;
0.6000;0.1514;10.4678;
0.9000;0.1547;10.4991;
1.2000;0.1587;10.5450;
1.5000;0.1563;10.5643;
1.8000;0.1587;10.5812;
2.1000;0.1620;10.6005;
2.4000;0.1620;10.6173;
2.7000;0.1595;10.6246;
3.0000;0.1612;10.6415;
3.3000;0.1620;10.6463;
3.6000;0.1661;10.6656;
3.9000;0.1652;10.6752;
4.2000;0.1661;10.6873;
4.5000;0.1595;10.6800;
4.8000;0.1644;10.6993;
5.1000;0.1522;10.6728;
5.4000;0.1644;10.7066;
5.7000;0.1636;10.7018;
6.0000;0.1612;10.7042;
6.3000;0.1636;10.7042;
6.6000;0.1644;10.7090;
6.9000;0.1620;10.7018;
7.2000;0.1628;10.7090;
7.5000;0.1652;10.7138;
7.8000;0.1652;10.7162;
8.1000;0.1677;10.7210;
8.4000;0.1644;10.7114;
8.7000;0.1587;10.6993;
9.0000;0.1669;10.7210;
9.3000;0.1709;10.7379;
9.6000;0.1652;10.7210;
9.9000;0.1693;10.7403;
10.2000;0.1661;10.7307;
10.5000;0.1669;10.7428;
10.8000;0.1628;10.7235;
11.1000;0.1669;10.7283;
11.4000;0.1652;10.7235;
11.7000;0.1661;10.7259;
12.0000;0.1677;10.7235;
12.3000;0.1669;10.7186;
12.6000;0.1669;10.7235;
12.9000;0.1669;10.7235;
13.2000;0.1652;10.7186;
13.5000;0.1644;10.7138;
13.8000;0.1652;10.7235;
14.1000;0.1644;10.7114;
14.4000;0.1669;10.7186;
14.7000;0.1652;10.7114;
15.0000;0.1652;10.7090;
15.3000;0.1677;10.7138;
15.6000;0.1652;10.7114;
15.9000;0.1669;10.7090;
16.2000;0.1669;10.7114;
16.5000;0.1652;10.7090;
16.8000;0.1661;10.7066;
17.1000;0.1636;10.7066;
17.4000;0.1661;10.7114;
17.7000;0.1669;10.7186;
18.0000;0.1652;10.7138;
18.3000;0.1636;10.7138;
18.6000;0.1636;10.7259;
18.9000;0.1636;10.7186;
19.2000;0.1628;10.7138;
19.5000;0.1644;10.7138;
19.8000;0.1612;10.7090;
20.1000;0.1701;10.7283;
20.4000;0.1652;10.7066;
20.7000;0.1636;10.7018;
21.0000;0.1612;10.7162;
21.3000;0.1652;10.7259;
21.6000;0.1620;10.7186;
21.9000;0.1628;10.7090;
22.2000;0.1669;10.7114;
22.5000;0.1669;10.7186;
22.8000;0.1652;10.7186;
23.1000;0.1652;10.7210;
23.4000;0.1669;10.7259;
23.7000;0.1661;10.7210;
24.0000;0.1661;10.7235;
24.3000;0.1669;10.7235;
24.6000;0.1644;10.7186;
24.9000;0.1652;10.7259;
25.2000;0.1661;10.7307;
25.5000;0.1604;10.7114;
25.8000;0.1636;10.7210;
26.1000;0.1661;10.7283;
26.4000;0.1669;10.7379;
26.7000;0.1652;10.7259;
27.0000;0.1644;10.7307;
27.3000;0.1652;10.7235;
27.6000;0.1595;10.7042;
27.9000;0.1661;10.7186;
28.2000;0.1636;10.7186;
28.5000;0.1652;10.7210;
28.8000;0.1661;10.7210;
29.1000;0.1677;10.7235;
29.4000;0.1644;10.7259;
29.7000;0.1636;10.7355;
30.0000;0.1644;10.7331;
30.3000;0.1644;10.7403;
30.6000;0.1709;10.7476;
30.9000;0.1644;10.7331;
31.2000;0.1644;10.7452;
31.5000;0.1644;10.7403;
31.8000;0.1644;10.7403;
32.1000;0.1661;10.7428;
32.4000;0.1661;10.7452;
32.7000;0.1661;10.7572;
33.0000;0.1620;10.7452;
33.3000;0.1652;10.7500;
33.6000;0.1644;10.7428;
33.9000;0.1652;10.7452;
34.2000;0.1669;10.7476;
34.5000;0.1652;10.7379;
34.8000;0.1636;10.7331;
35.1000;0.1661;10.7283;
35.4000;0.1669;10.7283;
35.7000;0.1652;10.7210;
36.0000;0.1571;10.6993;
36.3000;0.1652;10.7210;
36.6000;0.1652;10.7307;
36.9000;0.1644;10.7355;
37.2000;0.1669;10.7355;
37.5000;0.1661;10.7355;
37.8000;0.1652;10.7355;
38.1000;0.1652;10.7331;
38.4000;0.1644;10.7235;
38.7000;0.1661;10.7186;
39.0000;0.1644;10.7162;
39.3000;0.1644;10.7090;
39.6000;0.1652;10.7090;
39.9000;0.1652;10.7042;
40.2000;0.1669;10.7114;
40.5000;0.1661;10.7114;
40.8000;0.1661;10.7186;
41.1000;0.1636;10.7186;
41.4000;0.1636;10.7235;
41.7000;0.1734;10.7452;
42.0000;0.1669;10.7355;
42.3000;0.1669;10.7379;
42.6000;0.1644;10.7331;
42.9000;0.1644;10.7307;
43.2000;0.1652;10.7259;
43.5000;0.1669;10.7331;
43.8000;0.1644;10.7355;
44.1000;0.1652;10.7379;
44.4000;0.1652;10.7403;
44.7000;0.1652;10.7452;
45.0000;0.1587;10.7210;
45.3000;0.1661;10.7283;
45.6000;0.1701;10.7355;
45.9000;0.1644;10.7138;
46.2000;0.1652;10.7162;
46.5000;0.1652;10.7162;
46.8000;0.1555;10.6969;
47.1000;0.1661;10.7235;
47.4000;0.1661;10.7210;
47.7000;0.1652;10.7186;
48.0000;0.1669;10.7259;
48.3000;0.1701;10.7452;
48.6000;0.1652;10.7283;
48.9000;0.1644;10.7259;
49.2000;0.1620;10.7186;
49.5000;0.1628;10.7138;
49.8000;0.1661;10.7235;
50.1000;0.1652;10.7162;
50.4000;0.1661;10.7210;
50.7000;0.1669;10.7210;
51.0000;0.1669;10.7235;
51.3000;0.1636;10.7259;
51.6000;0.1636;10.7283;
51.9000;0.1644;10.7307;
52.2000;0.1644;10.7307;
52.5000;0.1652;10.7307;
52.8000;0.1652;10.7307;
53.1000;0.1644;10.7307;
53.4000;0.1587;10.7186;
53.7000;0.1644;10.7403;
54.0000;0.1628;10.7403;
54.3000;0.1587;10.7235;
54.6000;0.1636;10.7307;
54.9000;0.1652;10.7259;
55.2000;0.1661;10.7186;
55.5000;0.1652;10.7162;
55.8000;0.1669;10.7235;
56.1000;0.1652;10.7186;
56.4000;0.1628;10.7090;
56.7000;0.1644;10.7138;
57.0000;0.1685;10.7138;
57.3000;0.1652;10.7162;
57.6000;0.1661;10.7186;
57.9000;0.1677;10.7307;
58.2000;0.1652;10.7235;
58.5000;0.1661;10.7307;
58.8000;0.1652;10.7210;
59.1000;0.1587;10.7066;
59.4000;0.1677;10.7235;
59.7000;0.1661;10.7114;
60.0000;0.1636;10.7114;
60.3000;0.1652;10.7210;
60.6000;0.1636;10.7235;
60.9000;0.1538;10.6945;
61.2000;0.1628;10.7210;
61.5000;0.1555;10.7018;
61.8000;0.1636;10.7162;
62.1000;0.1652;10.7138;
62.4000;0.1644;10.7114;
62.7000;0.1652;10.7042;
63.0000;0.1718;10.7114;
63.3000;0.1661;10.6993;
63.6000;0.1661;10.6945;
63.9000;0.1661;10.6969;
64.2000;0.1628;10.6969;
64.5000;0.1669;10.7042;
64.8000;0.1628;10.7090;
65.1000;0.1718;10.7379;
65.4000;0.1644;10.7259;
65.7000;0.1636;10.7235;
66.0000;0.1661;10.7235;
66.3000;0.1661;10.7138;
66.6000;0.1644;10.7210;
66.9000;0.1636;10.7090;
67.2000;0.1652;10.7162;
67.5000;0.1661;10.7138;
67.8000;0.1595;10.6945;
68.1000;0.1652;10.7162;
68.4000;0.1669;10.7210;
68.7000;0.1709;10.7355;
69.0000;0.1636;10.7307;
69.3000;0.1644;10.7379;
69.6000;0.1612;10.7283;
69.9000;0.1652;10.7283;
70.2000;0.1661;10.7307;
70.5000;0.1669;10.7331;
70.8000;0.1718;10.7500;
71.1000;0.1644;10.7379;
71.4000;0.1669;10.7428;
71.7000;0.1636;10.7428;
72.0000;0.1628;10.7428;
72.3000;0.1661;10.7452;
72.6000;0.1669;10.7331;
72.9000;0.1636;10.7283;
73.2000;0.1587;10.7042;
73.5000;0.1644;10.7162;
73.8000;0.1652;10.7114;
74.1000;0.1685;10.7210;
74.4000;0.1636;10.7210;
74.7000;0.1661;10.7283;
75.0000;0.1652;10.7307;
75.3000;0.1644;10.7283;
75.6000;0.1661;10.7355;
75.9000;0.1636;10.7186;
76.2000;0.1669;10.7307;
76.5000;0.1644;10.7283;
76.8000;0.1636;10.7210;
77.1000;0.1652;10.7259;
77.4000;0.1661;10.7307;
77.7000;0.1636;10.7355;
78.0000;0.1661;10.7403;
78.3000;0.1661;10.7355;
78.6000;0.1636;10.7259;
78.9000;0.1661;10.7307;
79.2000;0.1661;10.7331;
79.5000;0.1669;10.7331;
79.8000;0.1595;10.7162;
80.1000;0.1628;10.7210;
80.4000;0.1693;10.7355;
80.7000;0.1652;10.7307;
81.0000;0.1595;10.7186;
81.3000;0.1604;10.7138;
81.6000;0.1652;10.7307;
81.9000;0.1612;10.7235;
82.2000;0.1661;10.7331;
82.5000;0.1612;10.7331;
82.8000;0.1742;10.7717;
83.1000;0.1669;10.7452;
83.4000;0.1661;10.7476;
83.7000;0.1652;10.7331;
84.0000;0.1636;10.7283;
84.3000;0.1571;10.7066;
84.6000;0.1661;10.7259;
84.9000;0.1636;10.7210;
85.2000;0.1652;10.7210;
85.5000;0.1652;10.7210;
85.8000;0.1669;10.7283;
86.1000;0.1701;10.7379;
86.4000;0.1661;10.7379;
86.7000;0.1677;10.7476;
87.0000;0.1652;10.7403;
87.3000;0.1661;10.7403;
87.6000;0.1636;10.7355;
87.9000;0.1628;10.7307;
88.2000;0.1661;10.7476;
88.5000;0.1644;10.7428;
88.8000;0.1693;10.7452;
89.1000;0.1636;10.7283;
89.4000;0.1652;10.7307;
89.7000;0.1644;10.7355;
90.0000;0.1644;10.7355;
90.3000;0.1644;10.7379;
90.6000;0.1652;10.7403;
90.9000;0.1644;10.7476;
91.2000;0.1636;10.7476;
91.5000;0.1661;10.7476;
91.8000;0.1669;10.7548;
92.1000;0.1644;10.7500;
92.4000;0.1636;10.7476;
92.7000;0.1644;10.7476;
93.0000;0.1644;10.7452;
93.3000;0.1661;10.7500;
93.6000;0.1652;10.7452;
93.9000;0.1661;10.7500;
94.2000;0.1677;10.7500;
94.5000;0.1661;10.7500;
94.8000;0.1644;10.7428;
95.1000;0.1652;10.7500;
95.4000;0.1644;10.7548;
95.7000;0.1636;10.7476;
96.0000;0.1636;10.7476;
96.3000;0.1595;10.7379;
96.6000;0.1644;10.7476;
96.9000;0.1636;10.7500;
97.2000;0.1644;10.7428;
97.5000;0.1644;10.7379;
97.8000;0.1636;10.7307;
98.1000;0.1636;10.7283;
98.4000;0.1628;10.7307;
98.7000;0.1652;10.7283;
99.0000;0.1636;10.7210;
99.3000;0.1677;10.7235;
99.6000;0.1669;10.7186;
99.9000;0.1652;10.7186;
100.2000;0.1693;10.7331;
100.5000;0.1661;10.7283;
100.8000;0.1628;10.7162;
101.1000;0.1652;10.7162;
101.4000;0.1636;10.7162;
101.7000;0.1628;10.7114;
102.0000;0.1652;10.7114;
102.3000;0.1620;10.7138;
102.6000;0.1644;10.7259;
102.9000;0.1620;10.7186;
103.2000;0.1612;10.7186;
103.5000;0.1652;10.7259;
103.8000;0.1750;10.7476;
104.1000;0.1652;10.7186;
104.4000;0.1644;10.7235;
104.7000;0.1644;10.7331;
105.0000;0.1669;10.7476;
105.3000;0.1652;10.7355;
105.6000;0.1661;10.7235;
105.9000;0.1612;10.7114;
106.2000;0.1644;10.7235;
106.5000;0.1644;10.7210;
106.8000;0.1644;10.7162;
107.1000;0.1766;10.7548;
107.4000;0.1661;10.7307;
107.7000;0.1644;10.7331;
108.0000;0.1595;10.7138;
108.3000;0.1701;10.7379;
108.6000;0.1669;10.7283;
108.9000;0.1669;10.7210;
109.2000;0.1669;10.7259;
109.5000;0.1669;10.7210;
109.8000;0.1644;10.7210;
110.1000;0.1661;10.7235;
110.4000;0.1652;10.7138;
110.7000;0.1661;10.7186;
111.0000;0.1661;10.7114;
111.3000;0.1636;10.7066;
111.6000;0.1644;10.7090;
111.9000;0.1628;10.7138;
112.2000;0.1661;10.7210;
112.5000;0.1644;10.7186;
112.8000;0.1652;10.7138;
113.1000;0.1636;10.7138;
113.4000;0.1652;10.7162;
113.7000;0.1636;10.7138;
114.0000;0.1652;10.7138;
114.3000;0.1620;10.7114;
114.6000;0.1677;10.7259;
114.9000;0.1644;10.7186;
115.2000;0.1652;10.7186;
115.5000;0.1636;10.7090;
115.8000;0.1644;10.7042;
116.1000;0.1669;10.6969;
116.4000;0.1652;10.7042;
116.7000;0.1636;10.7018;
117.0000;0.1644;10.7042;
117.3000;0.1644;10.7090;
117.6000;0.1652;10.7114;
117.9000;0.1636;10.7066;
118.2000;0.1636;10.7066;
118.5000;0.1652;10.7090;
118.8000;0.1644;10.7018;
119.1000;0.1669;10.7066;
119.4000;0.1636;10.7018;
119.7000;0.1652;10.7090;
120.0000;0.1652;10.7114;
120.3000;0.1758;10.7379;
120.6000;0.1644;10.7162;
120.9000;0.1628;10.7162;
121.2000;0.1604;10.7018;
121.5000;0.1636;10.7186;
121.8000;0.1620;10.7162;
122.1000;0.1644;10.7210;
122.4000;0.1652;10.7186;
122.7000;0.1644;10.7042;
123.0000;0.1661;10.7114;
123.3000;0.1620;10.7066;
123.6000;0.1652;10.7090;
123.9000;0.1661;10.7090;
124.2000;0.1652;10.7018;
124.5000;0.1669;10.6993;
124.8000;0.1661;10.6945;
125.1000;0.1677;10.6945;
125.4000;0.1587;10.6800;
125.7000;0.1652;10.6921;
126.0000;0.1661;10.6969;
126.3000;0.1652;10.6993;
126.6000;0.1644;10.6993;
126.9000;0.1628;10.6993;
127.2000;0.1661;10.7138;
127.5000;0.1652;10.7114;
127.8000;0.1652;10.7066;
128.1000;0.1742;10.7331;
128.4000;0.1652;10.7162;
128.7000;0.1652;10.7186;
129.0000;0.1669;10.7186;
129.3000;0.1652;10.7114;
129.6000;0.1652;10.7162;
129.9000;0.1652;10.7210;
130.2000;0.1652;10.7186;
130.5000;0.1750;10.7500;
130.8000;0.1636;10.7186;
131.1000;0.1547;10.6921;
131.4000;0.1644;10.7138;
131.7000;0.1644;10.7210;
132.0000;0.1661;10.7186;
132.3000;0.1652;10.7162;
132.6000;0.1661;10.7186;
132.9000;0.1652;10.7162;
133.2000;0.1677;10.7210;
133.5000;0.1636;10.7162;
133.8000;0.1652;10.7186;
134.1000;0.1604;10.7042;
134.4000;0.1628;10.7018;
134.7000;0.1628;10.7066;
135.0000;0.1644;10.7186;
135.3000;0.1661;10.7186;
135.6000;0.1669;10.7235;
135.9000;0.1636;10.7162;
136.2000;0.1652;10.7186;
136.5000;0.1661;10.7186;
136.8000;0.1636;10.7114;
137.1000;0.1628;10.7090;
137.4000;0.1652;10.7090;
137.7000;0.1669;10.7186;
138.0000;0.1604;10.7090;
138.3000;0.1644;10.7162;
138.6000;0.1636;10.7162;
138.9000;0.1628;10.7162;
139.2000;0.1766;10.7596;
139.5000;0.1636;10.7283;
139.8000;0.1652;10.7210;
140.1000;0.1644;10.7162;
140.4000;0.1636;10.7138;
140.7000;0.1644;10.7235;
141.0000;0.1620;10.7235;
141.3000;0.1636;10.7235;
141.6000;0.1701;10.7379;
141.9000;0.1661;10.7210;
142.2000;0.1636;10.7162;
142.5000;0.1677;10.7235;
142.8000;0.1669;10.7114;
143.1000;0.1644;10.7090;
143.4000;0.1644;10.7138;
143.7000;0.1636;10.7042;
144.0000;0.1652;10.7090;
144.3000;0.1620;10.7114;
144.6000;0.1652;10.7114;
144.9000;0.1636;10.7042;
145.2000;0.1652;10.7090;
145.5000;0.1677;10.7186;
145.8000;0.1620;10.7162;
146.1000;0.1636;10.7186;
146.4000;0.1620;10.7210;
146.7000;0.1661;10.7307;
147.0000;0.1636;10.7259;
147.3000;0.1636;10.7307;
147.6000;0.1652;10.7283;
147.9000;0.1644;10.7307;
148.2000;0.1644;10.7307;
148.5000;0.1644;10.7283;
148.8000;0.1636;10.7259;
149.1000;0.1636;10.7259;
149.4000;0.1636;10.7114;
149.7000;0.1587;10.7018;
150.0000;0.1652;10.7162;
150.3000;0.1595;10.6969;
150.6000;0.1644;10.7090;
150.9000;0.1644;10.7018;
151.2000;0.1701;10.7186;
151.5000;0.1669;10.7114;
151.8000;0.1669;10.7283;
152.1000;0.1758;10.7500;
152.4000;0.1644;10.7138;
152.7000;0.1644;10.7114;
153.0000;0.1628;10.7042;
153.3000;0.1620;10.7066;
153.6000;0.1628;10.7066;
153.9000;0.1620;10.6993;
154.2000;0.1652;10.7138;
154.5000;0.1636;10.7090;
154.8000;0.1636;10.7090;
155.1000;0.1652;10.7138;
155.4000;0.1555;10.6897;
155.7000;0.1652;10.7210;
156.0000;0.1661;10.7186;
156.3000;0.1661;10.7259;
156.6000;0.1628;10.7235;
156.9000;0.1644;10.7307;
157.2000;0.1620;10.7235;
157.5000;0.1636;10.7210;
157.8000;0.1644;10.7138;
158.1000;0.1685;10.7235;
158.4000;0.1612;10.6993;
158.7000;0.1620;10.6993;
159.0000;0.1636;10.7018;
159.3000;0.1636;10.7018;
159.6000;0.1612;10.6969;
159.9000;0.1636;10.7090;
160.2000;0.1644;10.7090;
160.5000;0.1644;10.7090;
160.8000;0.1669;10.7210;
161.1000;0.1644;10.7186;
161.4000;0.1620;10.7259;
161.7000;0.1669;10.7355;
162.0000;0.1644;10.7379;
162.3000;0.1644;10.7355;
162.6000;0.1620;10.7307;
162.9000;0.1652;10.7331;
163.2000;0.1644;10.7283;
163.5000;0.1636;10.7162;
163.8000;0.1620;10.7114;
164.1000;0.1595;10.6969;
164.4000;0.1644;10.7090;
164.7000;0.1636;10.7186;
165.0000;0.1604;10.7210;
165.3000;0.1628;10.7283;
165.6000;0.1644;10.7355;
165.9000;0.1636;10.7259;
166.2000;0.1644;10.7186;
166.5000;0.1636;10.7138;
166.8000;0.1644;10.7138;
167.1000;0.1652;10.7307;
167.4000;0.1726;10.7524;
167.7000;0.1620;10.7331;
168.0000;0.1636;10.7355;
168.3000;0.1644;10.7331;
168.6000;0.1636;10.7283;
168.9000;0.1644;10.7235;
169.2000;0.1709;10.7452;
169.5000;0.1652;10.7259;
169.8000;0.1628;10.7210;
170.1000;0.1652;10.7114;
170.4000;0.1636;10.7042;
170.7000;0.1644;10.6969;
171.0000;0.1628;10.6969;
171.3000;0.1677;10.7114;
171.6000;0.1636;10.6969;
171.9000;0.1628;10.6945;
172.2000;0.1644;10.7042;
172.5000;0.1652;10.7090;
172.8000;0.1644;10.7090;
173.1000;0.1636;10.7138;
173.4000;0.1595;10.7042;
173.7000;0.1530;10.6825;
174.0000;0.1620;10.6969;
174.3000;0.1612;10.6993;
174.6000;0.1652;10.7042;
174.9000;0.1636;10.7090;
175.2000;0.1644;10.7138;
175.5000;0.1661;10.7138;
175.8000;0.1734;10.7331;
176.1000;0.1604;10.6993;
176.4000;0.1628;10.7090;
176.7000;0.1644;10.7090;
177.0000;0.1620;10.7066;
177.3000;0.1726;10.7259;
177.6000;0.1644;10.6993;
177.9000;0.1652;10.7090;
178.2000;0.1652;10.7114;
178.5000;0.1595;10.6945;
178.8000;0.1620;10.6993;
179.1000;0.1636;10.6969;
179.4000;0.1595;10.6800;
179.7000;0.1636;10.6873;
180.0000;0.1628;10.6921;
180.3000;0.1636;10.6921;
180.6000;0.1644;10.6825;
180.9000;0.1563;10.6752;
181.2000;0.1644;10.6897;
181.5000;0.1644;10.6849;
181.8000;0.1636;10.6873;
182.1000;0.1628;10.6897;
182.4000;0.1636;10.6945;
182.7000;0.1612;10.6873;
183.0000;0.1587;10.6873;
183.3000;0.1652;10.7090;
183.6000;0.1636;10.7138;
183.9000;0.1628;10.7090;
184.2000;0.1644;10.7114;
184.5000;0.1644;10.7066;
184.8000;0.1644;10.7066;
185.1000;0.1652;10.6993;
185.4000;0.1636;10.7066;
185.7000;0.1636;10.7042;
186.0000;0.1644;10.7042;
186.3000;0.1718;10.7355;
186.6000;0.1661;10.7259;
186.9000;0.1636;10.7210;
187.2000;0.1644;10.7186;
187.5000;0.1644;10.7210;
187.8000;0.1644;10.7307;
188.1000;0.1628;10.7283;
188.4000;0.1636;10.7452;
188.7000;0.1644;10.7524;
189.0000;0.1636;10.7452;
189.3000;0.1685;10.7524;
189.6000;0.1644;10.7379;
189.9000;0.1636;10.7283;
190.2000;0.1636;10.7331;
190.5000;0.1652;10.7283;
190.8000;0.1628;10.7162;
191.1000;0.1636;10.7018;
191.4000;0.1750;10.7283;
191.7000;0.1636;10.6921;
192.0000;0.1644;10.6945;
192.3000;0.1661;10.7090;
192.6000;0.1709;10.7066;
192.9000;0.1644;10.6897;
193.2000;0.1595;10.6752;
193.5000;0.1661;10.6921;
193.8000;0.1652;10.7018;
194.1000;0.1644;10.7018;
194.4000;0.1677;10.7210;
194.7000;0.1473;10.6704;
195.0000;0.1636;10.7162;
195.3000;0.1636;10.7090;
195.6000;0.1628;10.7018;
195.9000;0.1604;10.6921;
196.2000;0.1644;10.7090;
196.5000;0.1661;10.7235;
196.8000;0.1636;10.7259;
197.1000;0.1652;10.7283;
197.4000;0.1661;10.7379;
197.7000;0.1661;10.7403;
198.0000;0.1628;10.7331;
198.3000;0.1628;10.7114;
198.6000;0.1636;10.7210;
198.9000;0.1652;10.7235;
199.2000;0.1644;10.7186;
199.5000;0.1620;10.7186;
199.8000;0.1628;10.7162;
200.1000;0.1644;10.7186;
200.4000;0.1620;10.7162;
200.7000;0.1636;10.7186;
201.0000;0.1547;10.6897;
201.3000;0.1669;10.7186;
201.6000;0.1652;10.7066;
201.9000;0.1709;10.7210;
202.2000;0.1644;10.7090;
202.5000;0.1693;10.7355;
202.8000;0.1652;10.7307;
203.1000;0.1636;10.7331;
203.4000;0.1636;10.7307;
203.7000;0.1644;10.7210;
204.0000;0.1644;10.7259;
204.3000;0.1652;10.7283;
204.6000;0.1628;10.7210;
204.9000;0.1636;10.7210;
205.2000;0.1644;10.7186;
205.5000;0.1636;10.7162;
205.8000;0.1636;10.7042;
206.1000;0.1555;10.6776;
206.4000;0.1644;10.7042;
206.7000;0.1620;10.7042;
207.0000;0.1636;10.7042;
207.3000;0.1644;10.7090;
207.6000;0.1628;10.7162;
207.9000;0.1652;10.7210;
208.2000;0.1661;10.7162;
208.5000;0.1669;10.7066;
208.8000;0.1652;10.7042;
209.1000;0.1636;10.6993;
209.4000;0.1661;10.7042;
209.7000;0.1636;10.6969;
210.0000;0.1612;10.6993;
210.3000;0.1628;10.6993;
210.6000;0.1661;10.7042;
210.9000;0.1604;10.6921;
211.2000;0.1636;10.7042;
211.5000;0.1628;10.6993;
211.8000;0.1628;10.7114;
212.1000;0.1652;10.7114;
212.4000;0.1661;10.7186;
212.7000;0.1652;10.7235;
213.0000;0.1652;10.7283;
213.3000;0.1636;10.7235;
213.6000;0.1628;10.7162;
213.9000;0.1652;10.7235;
214.2000;0.1718;10.7428;
214.5000;0.1685;10.7283;
214.8000;0.1620;10.7114;
215.1000;0.1628;10.7114;
215.4000;0.1677;10.7259;
215.7000;0.1636;10.7114;
216.0000;0.1628;10.7090;
216.3000;0.1669;10.7235;
216.6000;0.1677;10.7210;
216.9000;0.1652;10.7186;
217.2000;0.1628;10.7162;
217.5000;0.1652;10.7259;
217.8000;0.1636;10.7210;
218.1000;0.1644;10.7283;
218.4000;0.1644;10.7307;
218.7000;0.1661;10.7307;
219.0000;0.1628;10.7259;
219.3000;0.1628;10.7283;
219.6000;0.1644;10.7259;
219.9000;0.1620;10.7235;
220.2000;0.1644;10.7283;
220.5000;0.1636;10.7186;
220.8000;0.1644;10.7090;
221.1000;0.1652;10.7138;
221.4000;0.1612;10.7042;
221.7000;0.1628;10.7066;
222.0000;0.1644;10.7186;
222.3000;0.1644;10.7235;
222.6000;0.1652;10.7210;
222.9000;0.1652;10.7210;
223.2000;0.1644;10.7210;
223.5000;0.1636;10.7283;
223.8000;0.1628;10.7283;
224.1000;0.1636;10.7235;
224.4000;0.1652;10.7283;
224.7000;0.1652;10.7210;
225.0000;0.1669;10.7259;
225.3000;0.1636;10.7162;
225.6000;0.1636;10.7114;
225.9000;0.1644;10.7114;
226.2000;0.1636;10.6993;
226.5000;0.1644;10.6969;
226.8000;0.1644;10.6993;
227.1000;0.1636;10.6969;
227.4000;0.1661;10.6993;
227.7000;0.1652;10.7114;
228.0000;0.1644;10.7162;
228.3000;0.1636;10.7066;
228.6000;0.1644;10.7090;
228.9000;0.1628;10.7066;
229.2000;0.1652;10.7090;
229.5000;0.1661;10.7066;
229.8000;0.1644;10.7138;
230.1000;0.1661;10.7210;
230.4000;0.1628;10.7114;
230.7000;0.1636;10.7138;
231.0000;0.1636;10.7235;
231.3000;0.1652;10.7331;
231.6000;0.1636;10.7307;
231.9000;0.1644;10.7283;
232.2000;0.1498;10.6849;
232.5000;0.1628;10.7114;
232.8000;0.1538;10.6849;
233.1000;0.1628;10.7138;
233.4000;0.1661;10.7186;
233.7000;0.1636;10.7162;
234.0000;0.1652;10.7114;
234.3000;0.1661;10.7066;
234.6000;0.1636;10.6993;
234.9000;0.1644;10.7090;
235.2000;0.1628;10.7066;
235.5000;0.1636;10.7114;
235.8000;0.1644;10.7138;
236.1000;0.1636;10.7090;
236.4000;0.1628;10.7090;
236.7000;0.1636;10.7066;
237.0000;0.1628;10.6993;
237.3000;0.1636;10.6969;
237.6000;0.1644;10.7018;
237.9000;0.1620;10.6897;
238.2000;0.1652;10.7018;
238.5000;0.1620;10.6921;
238.8000;0.1652;10.7090;
239.1000;0.1620;10.6945;
239.4000;0.1587;10.6825;
239.7000;0.1636;10.7018;
240.0000;0.1677;10.7138;
240.3000;0.1636;10.7114;
240.6000;0.1579;10.7042;
240.9000;0.1652;10.7090;
241.2000;0.1652;10.7114;
241.5000;0.1620;10.6993;
241.8000;0.1628;10.6945;
242.1000;0.1693;10.7090;
242.4000;0.1636;10.6897;
242.7000;0.1644;10.6945;
243.0000;0.1628;10.6921;
243.3000;0.1628;10.6993;
243.6000;0.1644;10.7114;
243.9000;0.1636;10.7138;
244.2000;0.1636;10.7090;
244.5000;0.1628;10.7090;
244.8000;0.1612;10.7018;
245.1000;0.1620;10.7042;
245.4000;0.1628;10.7042;
245.7000;0.1644;10.7042;
246.0000;0.1636;10.7042;
246.3000;0.1644;10.7090;
246.6000;0.1612;10.7162;
246.9000;0.1612;10.7210;
247.2000;0.1628;10.7186;
247.5000;0.1652;10.7283;
247.8000;0.1628;10.7186;
248.1000;0.1652;10.7307;
248.4000;0.1644;10.7307;
248.7000;0.1644;10.7283;
249.0000;0.1579;10.7018;
249.3000;0.1652;10.7259;
249.6000;0.1644;10.7235;
249.9000;0.1628;10.7114;
250.2000;0.1644;10.7066;
250.5000;0.1628;10.7090;
250.8000;0.1612;10.7066;
251.1000;0.1644;10.7138;
251.4000;0.1636;10.6993;
251.7000;0.1644;10.7042;
252.0000;0.1620;10.6993;
252.3000;0.1636;10.6945;
252.6000;0.1644;10.7018;
252.9000;0.1652;10.7018;
253.2000;0.1750;10.7210;
253.5000;0.1628;10.6849;
253.8000;0.1652;10.6800;
254.1000;0.1669;10.6873;
254.4000;0.1644;10.6776;
254.7000;0.1693;10.6945;
255.0000;0.1628;10.6776;
255.3000;0.1636;10.6897;
255.6000;0.1644;10.7042;
255.9000;0.1636;10.6969;
256.2000;0.1701;10.7186;
256.5000;0.1644;10.6969;
256.8000;0.1652;10.6993;
257.1000;0.1636;10.6945;
257.4000;0.1612;10.6897;
257.7000;0.1644;10.6897;
258.0000;0.1620;10.6825;
258.3000;0.1620;10.6825;
258.6000;0.1628;10.6800;
258.9000;0.1652;10.6969;
259.2000;0.1652;10.7066;
259.5000;0.1636;10.7042;
259.8000;0.1636;10.7210;
260.1000;0.1652;10.7355;
260.4000;0.1652;10.7355;
260.7000;0.1644;10.7283;
261.0000;0.1620;10.7283;
261.3000;0.1628;10.7259;
261.6000;0.1636;10.7259;
261.9000;0.1628;10.7090;
262.2000;0.1644;10.7090;
262.5000;0.1587;10.6921;
262.8000;0.1604;10.7090;
263.1000;0.1636;10.7162;
263.4000;0.1612;10.7090;
263.7000;0.1644;10.7114;
264.0000;0.1628;10.7066;
264.3000;0.1644;10.7138;
264.6000;0.1628;10.7186;
264.9000;0.1620;10.7235;
265.2000;0.1652;10.7235;
265.5000;0.1652;10.7235;
265.8000;0.1628;10.7210;
266.1000;0.1644;10.7355;
266.4000;0.1652;10.7331;
266.7000;0.1644;10.7283;
267.0000;0.1636;10.7210;
267.3000;0.1709;10.7428;
267.6000;0.1644;10.7210;
267.9000;0.1563;10.6969;
268.2000;0.1636;10.7090;
268.5000;0.1636;10.7042;
268.8000;0.1612;10.6921;
269.1000;0.1547;10.6776;
269.4000;0.1644;10.7042;
269.7000;0.1652;10.7018;
270.0000;0.1604;10.6825;
270.3000;0.1628;10.6921;
270.6000;0.1628;10.6921;
270.9000;0.1628;10.6945;
271.2000;0.1620;10.6921;
271.5000;0.1644;10.6993;
271.8000;0.1636;10.7066;
272.1000;0.1636;10.7186;
272.4000;0.1652;10.7259;
272.7000;0.1652;10.7186;
273.0000;0.1636;10.7259;
273.3000;0.1644;10.7210;
273.6000;0.1636;10.7186;
273.9000;0.1620;10.7186;
274.2000;0.1644;10.7138;
274.5000;0.1661;10.7138;
274.8000;0.1652;10.7138;
275.1000;0.1685;10.7162;
275.4000;0.1644;10.7018;
275.7000;0.1644;10.6993;
276.0000;0.1652;10.6945;
276.3000;0.1644;10.6945;
276.6000;0.1620;10.6921;
276.9000;0.1652;10.7090;
277.2000;0.1652;10.7138;
277.5000;0.1612;10.7114;
277.8000;0.1628;10.7114;
278.1000;0.1636;10.7259;
278.4000;0.1652;10.7283;
278.7000;0.1669;10.7307;
279.0000;0.1644;10.7259;
279.3000;0.1652;10.7162;
279.6000;0.1644;10.7162;
279.9000;0.1636;10.7186;
280.2000;0.1628;10.7186;
280.5000;0.1636;10.7186;
280.8000;0.1644;10.7235;
281.1000;0.1604;10.7114;
281.4000;0.1628;10.7186;
281.7000;0.1620;10.7186;
282.0000;0.1579;10.7090;
282.3000;0.1636;10.7235;
282.6000;0.1628;10.7307;
282.9000;0.1636;10.7283;
283.2000;0.1587;10.7138;
283.5000;0.1644;10.7283;
283.8000;0.1636;10.7235;
284.1000;0.1514;10.6969;
284.4000;0.1709;10.7403;
284.7000;0.1652;10.7235;
285.0000;0.1636;10.7210;
285.3000;0.1612;10.7090;
285.6000;0.1636;10.7066;
285.9000;0.1644;10.7090;
286.2000;0.1636;10.6993;
286.5000;0.1693;10.7114;
286.8000;0.1726;10.7210;
287.1000;0.1636;10.6945;
287.4000;0.1628;10.6921;
287.7000;0.1620;10.6897;
288.0000;0.1620;10.6945;
288.3000;0.1644;10.6945;
288.6000;0.1636;10.6897;
288.9000;0.1661;10.6945;
289.2000;0.1555;10.6776;
289.5000;0.1636;10.6969;
289.8000;0.1612;10.6945;
290.1000;0.1644;10.6945;
290.4000;0.1644;10.6969;
290.7000;0.1595;10.6897;
291.0000;0.1604;10.6897;
291.3000;0.1620;10.6993;
291.6000;0.1644;10.6969;
291.9000;0.1579;10.6752;
292.2000;0.1628;10.6897;
292.5000;0.1628;10.6969;
292.8000;0.1628;10.6969;
293.1000;0.1661;10.7090;
293.4000;0.1652;10.7066;
293.7000;0.1644;10.7090;
294.0000;0.1636;10.7138;
294.3000;0.1636;10.7066;
294.6000;0.1636;10.7186;
294.9000;0.1636;10.7235;
295.2000;0.1652;10.7186;
295.5000;0.1636;10.7138;
295.8000;0.1644;10.7162;
296.1000;0.1636;10.7235;
296.4000;0.1636;10.7235;
296.7000;0.1612;10.7186;
297.0000;0.1604;10.7162;
297.3000;0.1644;10.7259;
297.6000;0.1628;10.7186;
297.9000;0.1628;10.7186;
298.2000;0.1628;10.7210;
298.5000;0.1644;10.7259;
298.8000;0.1628;10.7259;
299.1000;0.1652;10.7283;
299.4000;0.1612;10.7210;
299.7000;0.1636;10.7186;
300.0000;0.1579;10.7090;
300.3000;0.1652;10.7259;
300.6000;0.1628;10.7259;
300.9000;0.1644;10.7235;
301.2000;0.1644;10.7307;
301.5000;0.1636;10.7307;
301.8000;0.1636;10.7259;
302.1000;0.1636;10.7210;
302.4000;0.1644;10.7138;
302.7000;0.1644;10.7186;
303.0000;0.1620;10.7090;
303.3000;0.1636;10.7162;
303.6000;0.1661;10.7210;
303.9000;0.1636;10.7210;
304.2000;0.1620;10.7138;
304.5000;0.1620;10.7138;
304.8000;0.1628;10.7210;
305.1000;0.1636;10.7259;
305.4000;0.1644;10.7186;
305.7000;0.1636;10.6993;
306.0000;0.1628;10.7018;
306.3000;0.1644;10.7066;
306.6000;0.1612;10.6969;
306.9000;0.1636;10.7066;
307.2000;0.1628;10.7042;
307.5000;0.1652;10.7018;
307.8000;0.1620;10.6945;
308.1000;0.1628;10.6945;
308.4000;0.1628;10.6969;
308.7000;0.1628;10.7066;
309.0000;0.1636;10.7138;
309.3000;0.1547;10.6825;
309.6000;0.1628;10.7018;
309.9000;0.1628;10.7018;
310.2000;0.1644;10.7090;
310.5000;0.1742;10.7331;
310.8000;0.1620;10.6993;
311.1000;0.1644;10.7042;
311.4000;0.1644;10.7042;
311.7000;0.1718;10.7138;
312.0000;0.1620;10.6921;
312.3000;0.1628;10.6921;
312.6000;0.1628;10.7018;
312.9000;0.1669;10.7162;
313.2000;0.1604;10.7042;
313.5000;0.1628;10.7114;
313.8000;0.1701;10.7331;
314.1000;0.1636;10.7114;
314.4000;0.1620;10.7066;
314.7000;0.1628;10.7066;
315.0000;0.1628;10.7114;
315.3000;0.1636;10.7210;
315.6000;0.1612;10.7235;
315.9000;0.1595;10.7235;
316.2000;0.1636;10.7235;
316.5000;0.1652;10.7210;
316.8000;0.1636;10.7186;
317.1000;0.1644;10.7235;
317.4000;0.1628;10.7210;
317.7000;0.1628;10.7162;
318.0000;0.1604;10.7066;
318.3000;0.1644;10.7138;
318.6000;0.1644;10.7162;
318.9000;0.1652;10.7162;
319.2000;0.1636;10.7114;
319.5000;0.1628;10.7042;
319.8000;0.1620;10.7066;
320.1000;0.1636;10.7018;
320.4000;0.1636;10.7066;
320.7000;0.1644;10.7066;
321.0000;0.1636;10.7018;
321.3000;0.1620;10.6921;
321.6000;0.1661;10.7042;
321.9000;0.1661;10.7186;
322.2000;0.1628;10.7283;
322.5000;0.1604;10.7186;
322.8000;0.1628;10.7235;
323.1000;0.1693;10.7403;
323.4000;0.1612;10.7138;
323.7000;0.1661;10.7210;
324.0000;0.1628;10.7235;
324.3000;0.1628;10.7162;
324.6000;0.1636;10.7138;
324.9000;0.1636;10.7066;
325.2000;0.1636;10.7090;
325.5000;0.1644;10.7090;
325.8000;0.1636;10.7066;
326.1000;0.1636;10.7090;
326.4000;0.1628;10.6993;
326.7000;0.1652;10.6993;
327.0000;0.1636;10.7018;
327.3000;0.1620;10.7066;
327.6000;0.1612;10.6969;
327.9000;0.1636;10.7018;
328.2000;0.1685;10.7235;
328.5000;0.1620;10.6945;
328.8000;0.1612;10.6945;
329.1000;0.1628;10.7090;
329.4000;0.1620;10.7090;
329.7000;0.1628;10.7090;
330.0000;0.1652;10.7114;
330.3000;0.1579;10.6873;
330.6000;0.1636;10.7066;
330.9000;0.1644;10.6993;
331.2000;0.1595;10.6945;
331.5000;0.1644;10.7042;
331.8000;0.1620;10.6945;
332.1000;0.1636;10.6921;
332.4000;0.1620;10.6897;
332.7000;0.1620;10.6969;
333.0000;0.1644;10.6993;
333.3000;0.1636;10.6921;
333.6000;0.1652;10.6921;
333.9000;0.1612;10.6849;
334.2000;0.1498;10.6511;
334.5000;0.1628;10.6873;
334.8000;0.1620;10.6921;
335.1000;0.1652;10.6969;
335.4000;0.1579;10.6752;
335.7000;0.1604;10.6849;
336.0000;0.1644;10.7018;
336.3000;0.1636;10.7042;
336.6000;0.1652;10.7042;
336.9000;0.1652;10.7114;
337.2000;0.1661;10.7138;
337.5000;0.1644;10.7114;
337.8000;0.1644;10.7090;
338.1000;0.1644;10.7114;
338.4000;0.1636;10.7018;
338.7000;0.1636;10.7114;
339.0000;0.1595;10.7114;
339.3000;0.1644;10.7210;
339.6000;0.1636;10.7162;
339.9000;0.1628;10.7162;
340.2000;0.1612;10.7114;
340.5000;0.1644;10.7210;
340.8000;0.1636;10.7307;
341.1000;0.1587;10.7186;
341.4000;0.1661;10.7331;
341.7000;0.1652;10.7307;
342.0000;0.1636;10.7331;
342.3000;0.1636;10.7331;
342.6000;0.1612;10.7283;
342.9000;0.1620;10.7259;
343.2000;0.1628;10.7283;
343.5000;0.1652;10.7403;
343.8000;0.1620;10.7379;
344.1000;0.1604;10.7307;
344.4000;0.1636;10.7379;
344.7000;0.1636;10.7331;
345.0000;0.1628;10.7283;
345.3000;0.1595;10.7210;
345.6000;0.1636;10.7186;
345.9000;0.1595;10.7090;
346.2000;0.1604;10.7162;
346.5000;0.1636;10.7307;
346.8000;0.1628;10.7283;
347.1000;0.1726;10.7572;
347.4000;0.1661;10.7307;
347.7000;0.1661;10.7210;
348.0000;0.1636;10.7186;
348.3000;0.1612;10.7162;
348.6000;0.1652;10.7138;
348.9000;0.1628;10.7138;
349.2000;0.1628;10.7162;
349.5000;0.1628;10.7235;
349.8000;0.1628;10.7331;
350.1000;0.1620;10.7259;
350.4000;0.1628;10.7235;
350.7000;0.1628;10.7259;
351.0000;0.1628;10.7307;
351.3000;0.1563;10.7114;
351.6000;0.1636;10.7210;
351.9000;0.1628;10.7162;
352.2000;0.1563;10.7042;
352.5000;0.1636;10.7114;
352.8000;0.1612;10.7090;
353.1000;0.1620;10.7018;
353.4000;0.1628;10.7042;
353.7000;0.1620;10.7114;
354.0000;0.1530;10.6873;
354.3000;0.1612;10.7090;
354.6000;0.1636;10.7138;
354.9000;0.1636;10.7210;
355.2000;0.1612;10.7138;
355.5000;0.1620;10.7259;
355.8000;0.1628;10.7283;
356.1000;0.1644;10.7259;
356.4000;0.1669;10.7331;
356.7000;0.1644;10.7331;
357.0000;0.1620;10.7259;
357.3000;0.1644;10.7331;
357.6000;0.1612;10.7259;
357.9000;0.1636;10.7259;
358.2000;0.1620;10.7162;
358.5000;0.1628;10.7235;
358.8000;0.1652;10.7259;
359.1000;0.1652;10.7259;
359.4000;0.1644;10.7162;
359.7000;0.1628;10.7066;
360.0000;0.1644;10.7114;
360.3000;0.1644;10.7138;
360.6000;0.1636;10.7042;
360.9000;0.1636;10.7114;
361.2000;0.1644;10.7259;
361.5000;0.1636;10.7259;
361.8000;0.1636;10.7259;
362.1000;0.1661;10.7259;
362.4000;0.1644;10.7138;
362.7000;0.1620;10.7090;
363.0000;0.1628;10.7210;
363.3000;0.1595;10.7138;
363.6000;0.1620;10.7210;
363.9000;0.1628;10.7259;
364.2000;0.1595;10.7114;
364.5000;0.1636;10.7066;
364.8000;0.1604;10.7042;
365.1000;0.1628;10.7090;
365.4000;0.1652;10.7090;
365.7000;0.1620;10.7066;
366.0000;0.1644;10.7114;
366.3000;0.1644;10.6993;
366.6000;0.1636;10.6897;
366.9000;0.1636;10.6873;
367.2000;0.1644;10.6897;
367.5000;0.1628;10.6849;
367.8000;0.1644;10.6969;
368.1000;0.1669;10.6993;
368.4000;0.1636;10.6921;
368.7000;0.1636;10.6969;
369.0000;0.1636;10.6969;
369.3000;0.1636;10.6993;
369.6000;0.1604;10.6921;
369.9000;0.1652;10.7018;
370.2000;0.1604;10.6873;
370.5000;0.1636;10.6945;
370.8000;0.1620;10.6945;
371.1000;0.1636;10.6897;
371.4000;0.1644;10.6921;
371.7000;0.1669;10.6873;
372.0000;0.1636;10.6825;
372.3000;0.1571;10.6728;
372.6000;0.1652;10.6897;
372.9000;0.1636;10.6921;
373.2000;0.1636;10.6897;
373.5000;0.1628;10.6897;
373.8000;0.1628;10.6945;
374.1000;0.1612;10.6921;
374.4000;0.1620;10.6969;
374.7000;0.1669;10.7090;
375.0000;0.1636;10.6993;
375.3000;0.1628;10.7066;
375.6000;0.1628;10.7018;
375.9000;0.1604;10.6969;
376.2000;0.1628;10.6969;
376.5000;0.1604;10.6945;
376.8000;0.1628;10.7042;
377.1000;0.1628;10.7090;
377.4000;0.1620;10.7138;
377.7000;0.1636;10.7114;
378.0000;0.1628;10.7066;
378.3000;0.1636;10.7066;
378.6000;0.1571;10.6825;
378.9000;0.1620;10.6945;
379.2000;0.1620;10.6945;
379.5000;0.1547;10.6704;
379.8000;0.1636;10.6921;
380.1000;0.1612;10.7018;
380.4000;0.1620;10.6993;
380.7000;0.1612;10.6897;
381.0000;0.1628;10.6945;
381.3000;0.1644;10.6921;
381.6000;0.1644;10.6945;
381.9000;0.1628;10.6849;
382.2000;0.1636;10.6897;
382.5000;0.1636;10.6849;
382.8000;0.1644;10.6800;
383.1000;0.1628;10.6800;
383.4000;0.1636;10.6897;
383.7000;0.1750;10.7355;
384.0000;0.1636;10.7018;
384.3000;0.1628;10.6969;
384.6000;0.1612;10.6945;
384.9000;0.1628;10.7018;
385.2000;0.1652;10.7090;
385.5000;0.1628;10.7018;
385.8000;0.1612;10.6969;
386.1000;0.1636;10.6945;
386.4000;0.1628;10.6897;
386.7000;0.1628;10.6993;
387.0000;0.1628;10.6969;
387.3000;0.1636;10.6993;
387.6000;0.1628;10.7018;
387.9000;0.1628;10.7042;
388.2000;0.1612;10.7042;
388.5000;0.1644;10.7114;
388.8000;0.1612;10.6993;
389.1000;0.1628;10.7042;
389.4000;0.1612;10.7042;
389.7000;0.1652;10.7090;
390.0000;0.1628;10.7066;
390.3000;0.1628;10.7090;
390.6000;0.1636;10.7114;
390.9000;0.1612;10.6993;
391.2000;0.1604;10.6945;
391.5000;0.1620;10.7066;
391.8000;0.1644;10.7186;
392.1000;0.1628;10.7186;
392.4000;0.1620;10.7138;
392.7000;0.1652;10.7186;
393.0000;0.1628;10.7210;
393.3000;0.1685;10.7428;
393.6000;0.1636;10.7186;
393.9000;0.1701;10.7355;
394.2000;0.1612;10.7114;
394.5000;0.1628;10.7162;
394.8000;0.1620;10.7138;
395.1000;0.1604;10.7114;
395.4000;0.1644;10.7186;
395.7000;0.1628;10.7162;
396.0000;0.1661;10.7235;
396.3000;0.1661;10.7186;
396.6000;0.1644;10.7162;
396.9000;0.1652;10.7186;
397.2000;0.1644;10.7210;
397.5000;0.1628;10.7259;
397.8000;0.1628;10.7210;
398.1000;0.1587;10.7114;
398.4000;0.1636;10.7235;
398.7000;0.1636;10.7162;
399.0000;0.1636;10.7210;
399.3000;0.1693;10.7331;
399.6000;0.1628;10.7162;
399.9000;0.1636;10.7259;
400.2000;0.1620;10.7259;
400.5000;0.1669;10.7476;
400.8000;0.1636;10.7283;
401.1000;0.1628;10.7307;
401.4000;0.1628;10.7186;
401.7000;0.1628;10.7090;
402.0000;0.1644;10.7162;
402.3000;0.1604;10.7114;
402.6000;0.1628;10.7114;
402.9000;0.1636;10.7114;
403.2000;0.1636;10.7114;
403.5000;0.1644;10.7090;
403.8000;0.1636;10.7018;
404.1000;0.1612;10.7018;
404.4000;0.1758;10.7379;
404.7000;0.1661;10.7162;
405.0000;0.1628;10.7066;
405.3000;0.1636;10.7138;
405.6000;0.1628;10.7210;
405.9000;0.1612;10.7162;
406.2000;0.1644;10.7259;
406.5000;0.1636;10.7283;
406.8000;0.1669;10.7379;
407.1000;0.1636;10.7210;
407.4000;0.1636;10.7210;
407.7000;0.1612;10.7259;
408.0000;0.1604;10.7138;
408.3000;0.1620;10.7114;
408.6000;0.1644;10.7090;
408.9000;0.1620;10.6969;
409.2000;0.1620;10.6993;
409.5000;0.1612;10.7066;
409.8000;0.1636;10.7018;
410.1000;0.1652;10.6993;
410.4000;0.1636;10.6969;
410.7000;0.1620;10.6897;
411.0000;0.1636;10.6969;
411.3000;0.1612;10.6945;
411.6000;0.1636;10.7066;
411.9000;0.1628;10.7090;
412.2000;0.1636;10.7018;
412.5000;0.1636;10.7018;
412.8000;0.1628;10.6969;
413.1000;0.1604;10.6873;
413.4000;0.1628;10.6849;
413.7000;0.1644;10.6825;
414.0000;0.1612;10.6849;
414.3000;0.1628;10.6776;
414.6000;0.1620;10.6825;
414.9000;0.1628;10.6825;
415.2000;0.1636;10.6873;
415.5000;0.1620;10.6873;
415.8000;0.1644;10.6849;
416.1000;0.1620;10.6752;
416.4000;0.1628;10.6800;
416.7000;0.1595;10.6800;
417.0000;0.1612;10.6825;
417.3000;0.1612;10.6873;
417.6000;0.1547;10.6728;
417.9000;0.1620;10.6945;
418.2000;0.1636;10.7090;
418.5000;0.1636;10.7114;
418.8000;0.1628;10.7090;
419.1000;0.1620;10.7066;
419.4000;0.1612;10.7066;
419.7000;0.1636;10.7066;
420.0000;0.1595;10.7042;
420.3000;0.1612;10.7162;
420.6000;0.1636;10.7259;
420.9000;0.1636;10.7235;
421.2000;0.1620;10.7114;
421.5000;0.1636;10.7186;
421.8000;0.1612;10.7114;
422.1000;0.1644;10.7066;
422.4000;0.1620;10.7066;
422.7000;0.1628;10.7162;
423.0000;0.1547;10.6969;
423.3000;0.1563;10.6993;
423.6000;0.1636;10.7235;
423.9000;0.1636;10.7210;
424.2000;0.1636;10.7138;
424.5000;0.1628;10.7066;
424.8000;0.1636;10.7114;
425.1000;0.1620;10.7042;
425.4000;0.1636;10.7018;
425.7000;0.1620;10.6897;
426.0000;0.1612;10.6897;
426.3000;0.1571;10.6800;
426.6000;0.1661;10.7042;
426.9000;0.1628;10.6921;
427.2000;0.1587;10.6969;
427.5000;0.1587;10.7042;
427.8000;0.1636;10.7210;
428.1000;0.1620;10.7186;
428.4000;0.1628;10.7186;
428.7000;0.1644;10.7210;
429.0000;0.1628;10.7114;
429.3000;0.1620;10.7090;
429.6000;0.1612;10.7066;
429.9000;0.1636;10.7018;
430.2000;0.1612;10.6969;
430.5000;0.1620;10.6945;
430.8000;0.1628;10.6873;
431.1000;0.1644;10.6897;
431.4000;0.1685;10.7066;
431.7000;0.1620;10.6897;
432.0000;0.1628;10.6849;
432.3000;0.1612;10.6800;
432.6000;0.1628;10.6897;
432.9000;0.1612;10.6921;
433.2000;0.1644;10.7018;
433.5000;0.1612;10.6993;
433.8000;0.1612;10.6969;
434.1000;0.1628;10.7066;
434.4000;0.1636;10.7066;
434.7000;0.1628;10.6993;
435.0000;0.1636;10.6945;
435.3000;0.1644;10.7042;
435.6000;0.1636;10.7066;
435.9000;0.1661;10.7162;
436.2000;0.1644;10.7235;
436.5000;0.1628;10.7162;
436.8000;0.1579;10.7066;
437.1000;0.1628;10.7114;
437.4000;0.1620;10.7138;
437.7000;0.1628;10.7162;
438.0000;0.1636;10.7162;
438.3000;0.1628;10.7162;
438.6000;0.1620;10.7114;
438.9000;0.1506;10.6752;
439.2000;0.1628;10.7162;
439.5000;0.1620;10.7042;
439.8000;0.1612;10.7018;
440.1000;0.1579;10.6993;
440.4000;0.1587;10.6993;
440.7000;0.1612;10.6945;
441.0000;0.1620;10.7066;
441.3000;0.1693;10.7259;
441.6000;0.1563;10.6945;
441.9000;0.1604;10.7114;
442.2000;0.1677;10.7210;
442.5000;0.1644;10.7090;
442.8000;0.1628;10.7042;
443.1000;0.1628;10.7018;
443.4000;0.1669;10.7066;
443.7000;0.1644;10.6921;
444.0000;0.1644;10.6873;
444.3000;0.1644;10.6921;
444.6000;0.1652;10.6993;
444.9000;0.1652;10.7090;
445.2000;0.1604;10.6969;
445.5000;0.1604;10.6969;
445.8000;0.1644;10.7114;
446.1000;0.1636;10.7162;
446.4000;0.1636;10.7114;
446.7000;0.1636;10.7138;
447.0000;0.1620;10.7090;
447.3000;0.1709;10.7259;
447.6000;0.1628;10.7090;
447.9000;0.1636;10.7114;
448.2000;0.1644;10.7138;
448.5000;0.1595;10.6945;
448.8000;0.1636;10.7042;
449.1000;0.1652;10.7138;
449.4000;0.1620;10.7042;
449.7000;0.1636;10.7018;
450.0000;0.1555;10.6800;
450.3000;0.1595;10.6969;
450.6000;0.1628;10.6945;
450.9000;0.1636;10.6969;
451.2000;0.1677;10.7090;
451.5000;0.1563;10.6728;
451.8000;0.1563;10.6849;
452.1000;0.1612;10.6969;
452.4000;0.1620;10.7114;
452.7000;0.1628;10.7090;
453.0000;0.1620;10.7018;
453.3000;0.1628;10.7066;
453.6000;0.1612;10.6921;
453.9000;0.1604;10.6873;
454.2000;0.1620;10.6993;
454.5000;0.1644;10.7042;
454.8000;0.1620;10.6969;
455.1000;0.1636;10.7042;
455.4000;0.1652;10.7138;
455.7000;0.1620;10.7018;
456.0000;0.1636;10.7018;
456.3000;0.1636;10.6993;
456.6000;0.1636;10.6945;
456.9000;0.1652;10.7018;
457.2000;0.1628;10.6921;
457.5000;0.1628;10.6873;
457.8000;0.1628;10.6921;
458.1000;0.1620;10.6897;
458.4000;0.1644;10.6993;
458.7000;0.1612;10.7042;
459.0000;0.1612;10.7042;
459.3000;0.1628;10.7186;
459.6000;0.1636;10.7138;
459.9000;0.1693;10.7162;
460.2000;0.1620;10.7018;
460.5000;0.1628;10.6993;
460.8000;0.1579;10.6825;
461.1000;0.1644;10.6945;
461.4000;0.1628;10.6945;
461.7000;0.1628;10.6921;
462.0000;0.1620;10.7018;
462.3000;0.1579;10.6776;
462.6000;0.1636;10.6921;
462.9000;0.1636;10.6969;
463.2000;0.1644;10.6993;
463.5000;0.1636;10.6993;
463.8000;0.1636;10.6969;
464.1000;0.1547;10.6632;
464.4000;0.1685;10.7042;
464.7000;0.1620;10.6825;
465.0000;0.1652;10.6897;
465.3000;0.1709;10.7042;
465.6000;0.1669;10.7018;
465.9000;0.1628;10.6921;
466.2000;0.1628;10.6873;
466.5000;0.1595;10.6776;
466.8000;0.1636;10.6825;
467.1000;0.1718;10.6993;
467.4000;0.1661;10.6849;
467.7000;0.1636;10.6800;
468.0000;0.1587;10.6728;
468.3000;0.1612;10.6776;
468.6000;0.1620;10.6752;
468.9000;0.1612;10.6849;
469.2000;0.1620;10.6849;
469.5000;0.1595;10.6800;
469.8000;0.1538;10.6656;
470.1000;0.1636;10.6945;
470.4000;0.1612;10.6945;
470.7000;0.1612;10.6945;
471.0000;0.1612;10.6849;
471.3000;0.1628;10.6825;
471.6000;0.1620;10.6825;
471.9000;0.1595;10.6800;
472.2000;0.1636;10.6825;
472.5000;0.1628;10.6800;
472.8000;0.1604;10.6728;
473.1000;0.1628;10.6752;
473.4000;0.1612;10.6752;
473.7000;0.1620;10.6776;
474.0000;0.1628;10.6752;
474.3000;0.1636;10.6680;
474.6000;0.1628;10.6680;
474.9000;0.1644;10.6656;
475.2000;0.1652;10.6704;
475.5000;0.1709;10.6873;
475.8000;0.1628;10.6607;
476.1000;0.1644;10.6752;
476.4000;0.1636;10.6704;
476.7000;0.1636;10.6656;
477.0000;0.1644;10.6704;
477.3000;0.1628;10.6656;
477.6000;0.1628;10.6704;
477.9000;0.1595;10.6607;
478.2000;0.1612;10.6704;
478.5000;0.1628;10.6752;
478.8000;0.1620;10.6800;
479.1000;0.1612;10.6897;
479.4000;0.1628;10.6969;
479.7000;0.1644;10.7066;
480.0000;0.1636;10.7066;
480.3000;0.1636;10.6969;
480.6000;0.1612;10.6873;
480.9000;0.1612;10.6825;
481.2000;0.1628;10.6873;
481.5000;0.1636;10.6945;
481.8000;0.1579;10.6849;
482.1000;0.1652;10.7066;
482.4000;0.1628;10.6993;
482.7000;0.1636;10.7018;
483.0000;0.1652;10.7114;
483.3000;0.1620;10.7090;
483.6000;0.1628;10.7066;
483.9000;0.1661;10.7090;
484.2000;0.1628;10.6993;
484.5000;0.1644;10.7090;
484.8000;0.1685;10.7186;
485.1000;0.1628;10.7042;
485.4000;0.1620;10.6945;
485.7000;0.1628;10.6945;
486.0000;0.1628;10.6945;
486.3000;0.1612;10.6945;
486.6000;0.1628;10.6945;
486.9000;0.1612;10.6825;
487.2000;0.1620;10.6825;
487.5000;0.1628;10.6825;
487.8000;0.1644;10.6969;
488.1000;0.1628;10.6921;
488.4000;0.1612;10.6897;
488.7000;0.1652;10.6945;
489.0000;0.1620;10.6921;
489.3000;0.1612;10.6849;
489.6000;0.1636;10.6849;
489.9000;0.1612;10.6776;
490.2000;0.1709;10.7042;
490.5000;0.1644;10.6921;
490.8000;0.1628;10.6897;
491.1000;0.1628;10.6921;
491.4000;0.1644;10.6945;
491.7000;0.1644;10.7018;
492.0000;0.1628;10.6945;
492.3000;0.1612;10.6969;
492.6000;0.1628;10.6921;
492.9000;0.1644;10.6849;
493.2000;0.1628;10.6800;
493.5000;0.1620;10.6825;
493.8000;0.1661;10.6921;
494.1000;0.1620;10.6825;
494.4000;0.1612;10.6800;
494.7000;0.1612;10.6825;
495.0000;0.1612;10.6825;
495.3000;0.1620;10.6921;
495.6000;0.1628;10.6945;
495.9000;0.1612;10.6873;
496.2000;0.1628;10.6921;
496.5000;0.1587;10.6897;
496.8000;0.1612;10.6993;
497.1000;0.1636;10.7042;
497.4000;0.1522;10.6704;
497.7000;0.1628;10.6969;
498.0000;0.1636;10.6969;
498.3000;0.1620;10.6921;
498.6000;0.1612;10.6969;
498.9000;0.1612;10.6945;
499.2000;0.1628;10.7066;
499.5000;0.1620;10.7042;
499.8000;0.1628;10.6969;
500.1000;0.1628;10.6969;
500.4000;0.1628;10.6945;
500.7000;0.1628;10.6921;
501.0000;0.1628;10.6945;
501.3000;0.1636;10.6993;
501.6000;0.1628;10.6969;
501.9000;0.1628;10.6945;
502.2000;0.1612;10.6969;
502.5000;0.1620;10.6921;
502.8000;0.1620;10.6825;
503.1000;0.1636;10.6873;
503.4000;0.1636;10.6873;
503.7000;0.1612;10.6825;
504.0000;0.1652;10.6897;
504.3000;0.1628;10.6849;
504.6000;0.1644;10.6897;
504.9000;0.1612;10.6825;
505.2000;0.1587;10.6825;
505.5000;0.1620;10.6873;
505.8000;0.1620;10.6800;
506.1000;0.1628;10.6849;
506.4000;0.1644;10.6945;
506.7000;0.1620;10.6897;
507.0000;0.1644;10.6921;
507.3000;0.1604;10.6800;
507.6000;0.1644;10.6849;
507.9000;0.1612;10.6897;
508.2000;0.1587;10.6849;
508.5000;0.1595;10.6849;
508.8000;0.1628;10.6921;
509.1000;0.1620;10.6969;
509.4000;0.1628;10.6969;
509.7000;0.1620;10.6921;
510.0000;0.1628;10.6945;
510.3000;0.1587;10.6897;
510.6000;0.1628;10.6993;
510.9000;0.1620;10.6921;
511.2000;0.1620;10.6945;
511.5000;0.1612;10.6993;
511.8000;0.1628;10.7066;
512.1000;0.1636;10.7042;
512.4000;0.1620;10.7018;
512.7000;0.1620;10.7090;
513.0000;0.1604;10.7066;
513.3000;0.1652;10.7114;
513.6000;0.1620;10.7066;
513.9000;0.1636;10.7138;
514.2000;0.1652;10.7210;
514.5000;0.1604;10.6969;
514.8000;0.1628;10.7066;
515.1000;0.1612;10.7066;
515.4000;0.1636;10.7138;
515.7000;0.1595;10.7018;
516.0000;0.1652;10.7114;
516.3000;0.1644;10.7042;
516.6000;0.1604;10.6969;
516.9000;0.1612;10.7066;
517.2000;0.1579;10.6945;
517.5000;0.1628;10.6849;
517.8000;0.1620;10.6849;
518.1000;0.1628;10.6945;
518.4000;0.1636;10.7042;
518.7000;0.1636;10.6993;
519.0000;0.1628;10.7018;
519.3000;0.1644;10.7186;
519.6000;0.1652;10.7259;
519.9000;0.1652;10.7210;
520.2000;0.1685;10.7283;
520.5000;0.1628;10.7114;
520.8000;0.1628;10.7162;
521.1000;0.1628;10.7114;
521.4000;0.1490;10.6776;
521.7000;0.1636;10.7235;
522.0000;0.1620;10.7090;
522.3000;0.1652;10.7210;
522.6000;0.1620;10.7114;
522.9000;0.1652;10.7138;
523.2000;0.1604;10.7042;
523.5000;0.1620;10.7042;
523.8000;0.1685;10.7235;
524.1000;0.1636;10.7114;
524.4000;0.1620;10.7114;
524.7000;0.1693;10.7235;
525.0000;0.1661;10.7114;
525.3000;0.1612;10.7018;
525.6000;0.1636;10.7018;
525.9000;0.1636;10.6945;
526.2000;0.1620;10.6945;
526.5000;0.1579;10.6752;
526.8000;0.1628;10.6800;
527.1000;0.1636;10.6849;
527.4000;0.1644;10.6897;
527.7000;0.1612;10.6800;
528.0000;0.1571;10.6800;
528.3000;0.1636;10.7042;
528.6000;0.1628;10.7090;
528.9000;0.1628;10.7018;
529.2000;0.1620;10.6969;
529.5000;0.1636;10.6969;
529.8000;0.1628;10.7042;
530.1000;0.1636;10.7114;
530.4000;0.1612;10.7066;
530.7000;0.1628;10.7042;
531.0000;0.1636;10.7114;
531.3000;0.1620;10.7114;
531.6000;0.1612;10.7090;
531.9000;0.1628;10.7210;
532.2000;0.1628;10.7162;
532.5000;0.1636;10.7138;
532.8000;0.1612;10.7090;
533.1000;0.1579;10.7042;
533.4000;0.1628;10.7090;
533.7000;0.1644;10.7162;
534.0000;0.1620;10.7138;
534.3000;0.1628;10.7162;
534.6000;0.1612;10.7042;
534.9000;0.1612;10.7042;
535.2000;0.1628;10.7090;
535.5000;0.1612;10.7042;
535.8000;0.1555;10.6752;
536.1000;0.1661;10.7090;
536.4000;0.1530;10.6704;
536.7000;0.1652;10.7114;
537.0000;0.1644;10.7090;
537.3000;0.1620;10.7018;
537.6000;0.1644;10.6993;
537.9000;0.1628;10.6921;
538.2000;0.1547;10.6752;
538.5000;0.1555;10.6800;
538.8000;0.1604;10.6897;
539.1000;0.1693;10.7162;
539.4000;0.1636;10.6969;
539.7000;0.1636;10.6873;
540.0000;0.1636;10.6921;
540.3000;0.1636;10.6969;
540.6000;0.1669;10.7066;
540.9000;0.1628;10.7018;
541.2000;0.1661;10.7018;
541.5000;0.1628;10.6993;
541.8000;0.1604;10.6993;
542.1000;0.1604;10.7018;
542.4000;0.1644;10.7138;
542.7000;0.1628;10.7162;
543.0000;0.1595;10.7018;
543.3000;0.1636;10.7066;
543.6000;0.1612;10.7114;
543.9000;0.1636;10.7162;
544.2000;0.1604;10.6897;
544.5000;0.1612;10.6897;
544.8000;0.1652;10.7042;
545.1000;0.1612;10.6921;
545.4000;0.1677;10.7042;
545.7000;0.1620;10.6993;
546.0000;0.1620;10.6945;
546.3000;0.1604;10.6873;
546.6000;0.1636;10.6921;
546.9000;0.1661;10.7018;
547.2000;0.1612;10.6873;
547.5000;0.1636;10.6969;
547.8000;0.1620;10.6849;
548.1000;0.1595;10.6873;
548.4000;0.1604;10.6921;
548.7000;0.1620;10.6945;
549.0000;0.1579;10.6873;
549.3000;0.1636;10.7018;
549.6000;0.1604;10.6897;
549.9000;0.1677;10.7018;
550.2000;0.1644;10.7018;
550.5000;0.1644;10.7018;
550.8000;0.1636;10.6945;
551.1000;0.1628;10.6921;
551.4000;0.1636;10.6969;
551.7000;0.1652;10.7042;
552.0000;0.1620;10.7042;
552.3000;0.1652;10.7090;
552.6000;0.1620;10.6993;
552.9000;0.1677;10.7162;
553.2000;0.1636;10.7066;
553.5000;0.1612;10.6945;
553.8000;0.1685;10.7138;
554.1000;0.1644;10.6945;
554.4000;0.1587;10.6897;
554.7000;0.1685;10.7138;
555.0000;0.1677;10.7090;
555.3000;0.1636;10.7066;
555.6000;0.1628;10.7042;
555.9000;0.1620;10.7018;
556.2000;0.1587;10.6969;
556.5000;0.1620;10.7042;
556.8000;0.1604;10.7018;
557.1000;0.1677;10.7283;
557.4000;0.1604;10.7018;
557.7000;0.1604;10.6993;
558.0000;0.1620;10.7066;
558.3000;0.1612;10.7042;
558.6000;0.1620;10.7114;
558.9000;0.1636;10.7186;
559.2000;0.1587;10.7066;
559.5000;0.1612;10.7066;
559.8000;0.1555;10.6945;
560.1000;0.1628;10.7138;
560.4000;0.1644;10.7090;
560.7000;0.1538;10.6849;
561.0000;0.1628;10.7090;
561.3000;0.1595;10.6921;
561.6000;0.1669;10.7066;
561.9000;0.1644;10.6921;
562.2000;0.1652;10.6897;
562.5000;0.1620;10.6825;
562.8000;0.1612;10.6873;
563.1000;0.1604;10.6849;
563.4000;0.1604;10.6873;
563.7000;0.1628;10.6969;
564.0000;0.1620;10.6969;
564.3000;0.1636;10.7090;
564.6000;0.1612;10.7018;
564.9000;0.1604;10.6993;
565.2000;0.1628;10.6921;
565.5000;0.1620;10.6969;
565.8000;0.1612;10.6969;
566.1000;0.1595;10.6945;
566.4000;0.1620;10.6969;
566.7000;0.1620;10.6873;
567.0000;0.1612;10.6776;
567.3000;0.1595;10.6752;
567.6000;0.1620;10.6776;
567.9000;0.1636;10.6849;
568.2000;0.1628;10.6897;
568.5000;0.1636;10.6945;
568.8000;0.1628;10.6873;
569.1000;0.1612;10.6849;
569.4000;0.1604;10.6849;
569.7000;0.1636;10.6873;
570.0000;0.1628;10.6897;
570.3000;0.1628;10.6945;
570.6000;0.1612;10.6993;
570.9000;0.1636;10.7090;
571.2000;0.1612;10.7018;
571.5000;0.1612;10.6945;
571.8000;0.1652;10.6921;
572.1000;0.1636;10.6969;
572.4000;0.1612;10.6897;
572.7000;0.1612;10.6897;
573.0000;0.1571;10.6800;
573.3000;0.1636;10.6993;
573.6000;0.1620;10.6993;
573.9000;0.1620;10.7018;
574.2000;0.1612;10.6993;
574.5000;0.1628;10.6969;
574.8000;0.1628;10.7018;
575.1000;0.1620;10.6969;
575.4000;0.1620;10.7018;
575.7000;0.1620;10.7042;
576.0000;0.1636;10.7090;
576.3000;0.1612;10.7114;
576.6000;0.1669;10.7210;
576.9000;0.1620;10.7066;
577.2000;0.1628;10.7018;
577.5000;0.1628;10.6993;
577.8000;0.1612;10.6993;
578.1000;0.1628;10.6969;
578.4000;0.1661;10.7066;
578.7000;0.1652;10.6969;
579.0000;0.1628;10.6897;
579.3000;0.1612;10.6873;
579.6000;0.1620;10.6945;
579.9000;0.1620;10.6969;
580.2000;0.1620;10.6897;
580.5000;0.1652;10.7042;
580.8000;0.1644;10.6993;
581.1000;0.1620;10.6921;
581.4000;0.1620;10.6849;
581.7000;0.1604;10.6873;
582.0000;0.1612;10.6849;
582.3000;0.1685;10.7114;
582.6000;0.1555;10.6776;
582.9000;0.1612;10.6969;
583.2000;0.1636;10.7066;
583.5000;0.1620;10.7114;
583.8000;0.1636;10.7090;
584.1000;0.1595;10.7018;
584.4000;0.1620;10.7066;
584.7000;0.1701;10.7259;
585.0000;0.1620;10.7090;
585.3000;0.1620;10.7042;
585.6000;0.1571;10.6945;
585.9000;0.1628;10.7018;
586.2000;0.1620;10.7042;
586.5000;0.1628;10.7042;
586.8000;0.1620;10.7138;
587.1000;0.1644;10.7162;
587.4000;0.1644;10.7138;
587.7000;0.1636;10.7186;
588.0000;0.1595;10.7042;
588.3000;0.1620;10.7066;
588.6000;0.1628;10.6993;
588.9000;0.1636;10.6969;
589.2000;0.1628;10.6993;
589.5000;0.1612;10.7018;
589.8000;0.1636;10.7018;
590.1000;0.1620;10.6969;
590.4000;0.1620;10.6921;
590.7000;0.1628;10.6897;
591.0000;0.1644;10.6969;
591.3000;0.1636;10.6921;
591.6000;0.1604;10.6849;
591.9000;0.1628;10.6969;
592.2000;0.1644;10.7114;
592.5000;0.1628;10.7114;
592.8000;0.1620;10.7066;
593.1000;0.1612;10.7066;
593.4000;0.1628;10.7090;
593.7000;0.1644;10.7090;
594.0000;0.1636;10.7090;
594.3000;0.1612;10.7138;
594.6000;0.1620;10.7162;
594.9000;0.1628;10.7162;
595.2000;0.1612;10.7162;
595.5000;0.1620;10.7066;
595.8000;0.1604;10.7066;
596.1000;0.1604;10.7042;
596.4000;0.1604;10.7090;
596.7000;0.1612;10.7114;
597.0000;0.1832;10.7693;
597.3000;0.1628;10.7066;
597.6000;0.1644;10.7162;
597.9000;0.1620;10.7090;
598.2000;0.1628;10.7042;
598.5000;0.1636;10.7114;
598.8000;0.1644;10.7066;
599.1000;0.1612;10.6921;
599.4000;0.1620;10.6945;
599.7000;0.1620;10.7042;
600.0000;0.1636;10.7018;
600.3000;0.1612;10.6776;
600.6000;0.1604;10.6728;
600.9000;0.1595;10.6704;
601.2000;0.1604;10.6680;
601.5000;0.1587;10.6511;
601.8000;0.1563;10.6342;
602.1000;0.1604;10.6318;
602.4000;0.1547;10.6005;
602.7000;0.1530;10.5812;
603.0000;0.1579;10.5884;
603.3000;0.1547;10.5691;
603.6000;0.1547;10.5570;
603.9000;0.1538;10.5402;
604.2000;0.1538;10.5329;
604.5000;0.1555;10.5329;
604.8000;0.1522;10.5209;
605.1000;0.1579;10.5305;
605.4000;0.1530;10.5040;
605.7000;0.1481;10.4895;
606.0000;0.1506;10.4847;
606.3000;0.1506;10.4919;
606.6000;0.1490;10.4895;
606.9000;0.1498;10.4919;
607.2000;0.1490;10.4847;
607.5000;0.1514;10.4871;
607.8000;0.1538;10.4943;
608.1000;0.1498;10.4750;
608.4000;0.1506;10.4702;
608.7000;0.1498;10.4823;
609.0000;0.1481;10.4799;
609.3000;0.1498;10.4919;
609.6000;0.1490;10.4991;
609.9000;0.1498;10.4943;
610.2000;0.1506;10.4895;
610.5000;0.1498;10.4967;
610.8000;0.1481;10.4895;
611.1000;0.1563;10.5016;
611.4000;0.1547;10.5064;
611.7000;0.1490;10.4895;
612.0000;0.1498;10.4823;
612.3000;0.1465;10.4726;
612.6000;0.1457;10.4654;
612.9000;0.1490;10.4750;
613.2000;0.1481;10.4750;
613.5000;0.1465;10.4630;
613.8000;0.1473;10.4774;
614.1000;0.1481;10.4774;
614.4000;0.1490;10.4750;
614.7000;0.1465;10.4678;
615.0000;0.1473;10.4702;
615.3000;0.1490;10.4726;
615.6000;0.1449;10.4654;
615.9000;0.1481;10.4750;
616.2000;0.1449;10.4726;
616.5000;0.1465;10.4678;
616.8000;0.1473;10.4654;
617.1000;0.1490;10.4702;
617.4000;0.1498;10.4654;
617.7000;0.1481;10.4557;
618.0000;0.1490;10.4533;
618.3000;0.1490;10.4654;
618.6000;0.1433;10.4461;
618.9000;0.1522;10.4702;
619.2000;0.1473;10.4654;
619.5000;0.1490;10.4750;
619.8000;0.1457;10.4750;
620.1000;0.1481;10.4750;
620.4000;0.1490;10.4702;
620.7000;0.1465;10.4654;
621.0000;0.1449;10.4485;
621.3000;0.1490;10.4581;
621.6000;0.1465;10.4461;
621.9000;0.1473;10.4533;
622.2000;0.1506;10.4702;
622.5000;0.1465;10.4581;
622.8000;0.1490;10.4678;
623.1000;0.1481;10.4630;
623.4000;0.1465;10.4533;
623.7000;0.1498;10.4654;
624.0000;0.1481;10.4630;
624.3000;0.1490;10.4654;
624.6000;0.1490;10.4774;
624.9000;0.1498;10.4750;
625.2000;0.1473;10.4654;
625.5000;0.1481;10.4654;
625.8000;0.1498;10.4606;
626.1000;0.1465;10.4606;
626.4000;0.1465;10.4581;
626.7000;0.1490;10.4654;
627.0000;0.1490;10.4606;
627.3000;0.1473;10.4509;
627.6000;0.1473;10.4509;
627.9000;0.1481;10.4389;
628.2000;0.1498;10.4437;
628.5000;0.1514;10.4557;
628.8000;0.1490;10.4437;
629.1000;0.1490;10.4461;
629.4000;0.1490;10.4533;
629.7000;0.1490;10.4533;
630.0000;0.1498;10.4533;
630.3000;0.1449;10.4340;
630.6000;0.1481;10.4461;
630.9000;0.1490;10.4533;
631.2000;0.1481;10.4557;
631.5000;0.1481;10.4557;
631.8000;0.1473;10.4533;
632.1000;0.1457;10.4509;
632.4000;0.1473;10.4533;
632.7000;0.1465;10.4533;
633.0000;0.1498;10.4654;
633.3000;0.1490;10.4654;
633.6000;0.1473;10.4678;
633.9000;0.1490;10.4678;
634.2000;0.1465;10.4606;
634.5000;0.1449;10.4654;
634.8000;0.1522;10.4774;
635.1000;0.1490;10.4654;
635.4000;0.1490;10.4606;
635.7000;0.1481;10.4581;
636.0000;0.1481;10.4533;
636.3000;0.1465;10.4485;
636.6000;0.1522;10.4678;
636.9000;0.1408;10.4292;
637.2000;0.1473;10.4533;
637.5000;0.1473;10.4509;
637.8000;0.1473;10.4485;
638.1000;0.1473;10.4485;
638.4000;0.1473;10.4509;
638.7000;0.1506;10.4630;
639.0000;0.1473;10.4581;
639.3000;0.1473;10.4606;
639.6000;0.1490;10.4581;
639.9000;0.1490;10.4533;
640.2000;0.1457;10.4437;
640.5000;0.1433;10.4340;
640.8000;0.1465;10.4509;
641.1000;0.1473;10.4581;
641.4000;0.1473;10.4533;
641.7000;0.1473;10.4461;
642.0000;0.1465;10.4485;
642.3000;0.1465;10.4533;
642.6000;0.1457;10.4437;
642.9000;0.1400;10.4413;
643.2000;0.1473;10.4557;
643.5000;0.1490;10.4485;
643.8000;0.1473;10.4509;
644.1000;0.1473;10.4437;
644.4000;0.1416;10.4340;
644.7000;0.1481;10.4581;
645.0000;0.1449;10.4533;
645.3000;0.1473;10.4533;
645.6000;0.1457;10.4533;
645.9000;0.1490;10.4630;
646.2000;0.1449;10.4509;
646.5000;0.1465;10.4461;
646.8000;0.1506;10.4533;
647.1000;0.1457;10.4485;
647.4000;0.1449;10.4533;
647.7000;0.1473;10.4606;
648.0000;0.1473;10.4581;
648.3000;0.1449;10.4533;
648.6000;0.1481;10.4557;
648.9000;0.1481;10.4630;
649.2000;0.1465;10.4581;
649.5000;0.1481;10.4509;
649.8000;0.1547;10.4630;
650.1000;0.1522;10.4557;
650.4000;0.1490;10.4509;
650.7000;0.1465;10.4413;
651.0000;0.1490;10.4461;
651.3000;0.1490;10.4461;
651.6000;0.1457;10.4461;
651.9000;0.1457;10.4437;
652.2000;0.1433;10.4389;
652.5000;0.1457;10.4364;
652.8000;0.1473;10.4316;
653.1000;0.1368;10.4292;
653.4000;0.1465;10.4533;
653.7000;0.1457;10.4485;
654.0000;0.1473;10.4509;
654.3000;0.1408;10.4461;
654.6000;0.1465;10.4606;
654.9000;0.1473;10.4581;
655.2000;0.1498;10.4581;
655.5000;0.1538;10.4509;
655.8000;0.1457;10.4220;
656.1000;0.1481;10.4340;
656.4000;0.1457;10.4364;
656.7000;0.1457;10.4437;
657.0000;0.1481;10.4485;
657.3000;0.1473;10.4461;
657.6000;0.1457;10.4389;
657.9000;0.1481;10.4461;
658.2000;0.1481;10.4509;
658.5000;0.1490;10.4485;
658.8000;0.1416;10.4364;
659.1000;0.1473;10.4437;
659.4000;0.1449;10.4316;
659.7000;0.1481;10.4413;
660.0000;0.1400;10.4099;
660.3000;0.1473;10.4340;
660.6000;0.1481;10.4364;
660.9000;0.1490;10.4389;
661.2000;0.1473;10.4316;
661.5000;0.1490;10.4292;
661.8000;0.1547;10.4485;
662.1000;0.1481;10.4364;
662.4000;0.1465;10.4389;
662.7000;0.1457;10.4244;
663.0000;0.1506;10.4413;
663.3000;0.1473;10.4389;
663.6000;0.1481;10.4364;
663.9000;0.1481;10.4437;
664.2000;0.1490;10.4461;
664.5000;0.1449;10.4389;
664.8000;0.1490;10.4413;
665.1000;0.1481;10.4340;
665.4000;0.1465;10.4340;
665.7000;0.1498;10.4461;
666.0000;0.1481;10.4413;
666.3000;0.1490;10.4485;
666.6000;0.1473;10.4413;
666.9000;0.1416;10.4244;
667.2000;0.1449;10.4340;
667.5000;0.1465;10.4437;
667.8000;0.1547;10.4654;
668.1000;0.1473;10.4437;
668.4000;0.1514;10.4557;
668.7000;0.1481;10.4437;
669.0000;0.1514;10.4461;
669.3000;0.1563;10.4533;
669.6000;0.1457;10.4244;
669.9000;0.1384;10.4099;
670.2000;0.1473;10.4389;
670.5000;0.1547;10.4557;
670.8000;0.1465;10.4364;
671.1000;0.1473;10.4292;
671.4000;0.1490;10.4364;
671.7000;0.1473;10.4389;
672.0000;0.1457;10.4316;
672.3000;0.1481;10.4364;
672.6000;0.1473;10.4340;
672.9000;0.1457;10.4340;
673.2000;0.1465;10.4316;
673.5000;0.1490;10.4413;
673.8000;0.1457;10.4364;
674.1000;0.1481;10.4316;
674.4000;0.1481;10.4292;
674.7000;0.1473;10.4292;
675.0000;0.1457;10.4268;
675.3000;0.1449;10.4292;
675.6000;0.1490;10.4461;
675.9000;0.1481;10.4413;
676.2000;0.1555;10.4678;
676.5000;0.1465;10.4437;
676.8000;0.1522;10.4606;
677.1000;0.1384;10.4316;
677.4000;0.1441;10.4413;
677.7000;0.1408;10.4292;
678.0000;0.1465;10.4533;
678.3000;0.1457;10.4389;
678.6000;0.1457;10.4389;
678.9000;0.1481;10.4413;
679.2000;0.1481;10.4437;
679.5000;0.1441;10.4437;
679.8000;0.1465;10.4533;
680.1000;0.1498;10.4678;
680.4000;0.1473;10.4533;
680.7000;0.1481;10.4581;
681.0000;0.1465;10.4654;
681.3000;0.1481;10.4654;
681.6000;0.1506;10.4774;
681.9000;0.1490;10.4654;
682.2000;0.1465;10.4437;
682.5000;0.1457;10.4316;
682.8000;0.1473;10.4316;
683.1000;0.1473;10.4316;
683.4000;0.1473;10.4316;
683.7000;0.1457;10.4268;
684.0000;0.1465;10.4268;
684.3000;0.1473;10.4364;
684.6000;0.1473;10.4485;
684.9000;0.1449;10.4461;
685.2000;0.1465;10.4509;
685.5000;0.1538;10.4774;
685.8000;0.1481;10.4533;
686.1000;0.1473;10.4533;
686.4000;0.1457;10.4557;
686.7000;0.1506;10.4606;
687.0000;0.1473;10.4557;
687.3000;0.1473;10.4509;
687.6000;0.1449;10.4485;
687.9000;0.1490;10.4533;
688.2000;0.1481;10.4581;
688.5000;0.1481;10.4654;
688.8000;0.1473;10.4630;
689.1000;0.1433;10.4485;
689.4000;0.1473;10.4509;
689.7000;0.1473;10.4485;
690.0000;0.1522;10.4606;
690.3000;0.1490;10.4509;
690.6000;0.1465;10.4413;
690.9000;0.1514;10.4606;
691.2000;0.1481;10.4485;
691.5000;0.1473;10.4557;
691.8000;0.1465;10.4581;
692.1000;0.1522;10.4750;
692.4000;0.1457;10.4509;
692.7000;0.1465;10.4533;
693.0000;0.1522;10.4630;
693.3000;0.1457;10.4485;
693.6000;0.1473;10.4509;
693.9000;0.1441;10.4437;
694.2000;0.1506;10.4630;
694.5000;0.1457;10.4509;
694.8000;0.1481;10.4557;
695.1000;0.1465;10.4461;
695.4000;0.1473;10.4485;
695.7000;0.1481;10.4557;
696.0000;0.1465;10.4509;
696.3000;0.1465;10.4533;
696.6000;0.1473;10.4581;
696.9000;0.1538;10.4726;
697.2000;0.1473;10.4509;
697.5000;0.1449;10.4557;
697.8000;0.1449;10.4630;
698.1000;0.1465;10.4606;
698.4000;0.1490;10.4630;
698.7000;0.1465;10.4606;
699.0000;0.1457;10.4485;
699.3000;0.1449;10.4533;
699.6000;0.1441;10.4485;
699.9000;0.1465;10.4461;
700.2000;0.1465;10.4461;
700.5000;0.1449;10.4364;
700.8000;0.1481;10.4389;
701.1000;0.1473;10.4340;
701.4000;0.1481;10.4364;
701.7000;0.1506;10.4533;
702.0000;0.1490;10.4437;
702.3000;0.1465;10.4364;
702.6000;0.1473;10.4461;
702.9000;0.1465;10.4461;
703.2000;0.1441;10.4389;
703.5000;0.1433;10.4389;
703.8000;0.1506;10.4630;
704.1000;0.1481;10.4533;
704.4000;0.1473;10.4509;
704.7000;0.1522;10.4702;
705.0000;0.1473;10.4461;
705.3000;0.1481;10.4509;
705.6000;0.1465;10.4533;
705.9000;0.1465;10.4557;
706.2000;0.1473;10.4654;
706.5000;0.1384;10.4340;
706.8000;0.1490;10.4509;
707.1000;0.1465;10.4437;
707.4000;0.1416;10.4364;
707.7000;0.1425;10.4316;
708.0000;0.1473;10.4413;
708.3000;0.1457;10.4340;
708.6000;0.1433;10.4340;
708.9000;0.1465;10.4364;
709.2000;0.1465;10.4364;
709.5000;0.1465;10.4413;
709.8000;0.1481;10.4485;
710.1000;0.1490;10.4509;
710.4000;0.1481;10.4437;
710.7000;0.1481;10.4364;
711.0000;0.1490;10.4437;
711.3000;0.1481;10.4437;
711.6000;0.1481;10.4485;
711.9000;0.1457;10.4509;
712.2000;0.1481;10.4557;
712.5000;0.1473;10.4437;
712.8000;0.1465;10.4364;
713.1000;0.1547;10.4630;
713.4000;0.1473;10.4509;
713.7000;0.1441;10.4437;
714.0000;0.1547;10.4750;
714.3000;0.1359;10.4268;
714.6000;0.1457;10.4581;
714.9000;0.1481;10.4654;
715.2000;0.1441;10.4533;
715.5000;0.1457;10.4581;
715.8000;0.1490;10.4581;
716.1000;0.1368;10.4316;
716.4000;0.1498;10.4581;
716.7000;0.1473;10.4461;
717.0000;0.1457;10.4461;
717.3000;0.1473;10.4461;
717.6000;0.1465;10.4437;
717.9000;0.1473;10.4437;
718.2000;0.1473;10.4413;
718.5000;0.1441;10.4364;
718.8000;0.1514;10.4533;
719.1000;0.1481;10.4485;
719.4000;0.1481;10.4485;
719.7000;0.1473;10.4437;
720.0000;0.1473;10.4509;
720.3000;0.1490;10.4533;
720.6000;0.1449;10.4389;
720.9000;0.1473;10.4509;
721.2000;0.1473;10.4485;
721.5000;0.1473;10.4461;
721.8000;0.1473;10.4485;
722.1000;0.1490;10.4461;
722.4000;0.1481;10.4509;
722.7000;0.1481;10.4509;
723.0000;0.1498;10.4630;
723.3000;0.1457;10.4557;
723.6000;0.1473;10.4606;
723.9000;0.1465;10.4606;
724.2000;0.1473;10.4678;
724.5000;0.1449;10.4581;
724.8000;0.1498;10.4606;
725.1000;0.1473;10.4509;
725.4000;0.1473;10.4509;
725.7000;0.1490;10.4533;
726.0000;0.1481;10.4533;
726.3000;0.1473;10.4533;
726.6000;0.1465;10.4485;
726.9000;0.1473;10.4461;
727.2000;0.1457;10.4340;
727.5000;0.1481;10.4389;
727.8000;0.1595;10.4750;
728.1000;0.1506;10.4485;
728.4000;0.1457;10.4389;
728.7000;0.1547;10.4630;
729.0000;0.1465;10.4509;
729.3000;0.1473;10.4533;
729.6000;0.1498;10.4678;
729.9000;0.1490;10.4702;
730.2000;0.1490;10.4654;
730.5000;0.1498;10.4606;
730.8000;0.1465;10.4533;
731.1000;0.1465;10.4533;
731.4000;0.1514;10.4581;
731.7000;0.1457;10.4437;
732.0000;0.1473;10.4461;
732.3000;0.1473;10.4533;
732.6000;0.1506;10.4654;
732.9000;0.1408;10.4340;
733.2000;0.1481;10.4485;
733.5000;0.1465;10.4413;
733.8000;0.1506;10.4678;
734.1000;0.1473;10.4581;
734.4000;0.1473;10.4557;
734.7000;0.1473;10.4557;
735.0000;0.1465;10.4533;
735.3000;0.1473;10.4533;
735.6000;0.1490;10.4485;
735.9000;0.1473;10.4413;
736.2000;0.1530;10.4581;
736.5000;0.1473;10.4389;
736.8000;0.1481;10.4437;
737.1000;0.1490;10.4533;
737.4000;0.1408;10.4364;
737.7000;0.1490;10.4557;
738.0000;0.1449;10.4509;
738.3000;0.1473;10.4533;
738.6000;0.1465;10.4533;
738.9000;0.1473;10.4533;
739.2000;0.1465;10.4509;
739.5000;0.1481;10.4581;
739.8000;0.1490;10.4509;
740.1000;0.1522;10.4581;
740.4000;0.1490;10.4557;
740.7000;0.1481;10.4485;
741.0000;0.1408;10.4364;
741.3000;0.1473;10.4485;
741.6000;0.1473;10.4533;
741.9000;0.1457;10.4437;
742.2000;0.1465;10.4389;
742.5000;0.1425;10.4268;
742.8000;0.1465;10.4389;
743.1000;0.1481;10.4389;
743.4000;0.1490;10.4340;
743.7000;0.1481;10.4340;
744.0000;0.1465;10.4292;
744.3000;0.1465;10.4268;
744.6000;0.1441;10.4389;
744.9000;0.1449;10.4413;
745.2000;0.1368;10.4220;
745.5000;0.1457;10.4437;
745.8000;0.1473;10.4316;
746.1000;0.1465;10.4292;
746.4000;0.1433;10.4220;
746.7000;0.1465;10.4340;
747.0000;0.1473;10.4316;
747.3000;0.1481;10.4292;
747.6000;0.1530;10.4389;
747.9000;0.1498;10.4292;
748.2000;0.1498;10.4413;
748.5000;0.1416;10.4316;
748.8000;0.1465;10.4533;
749.1000;0.1490;10.4630;
749.4000;0.1481;10.4630;
749.7000;0.1465;10.4557;
750.0000;0.1465;10.4437;
750.3000;0.1465;10.4413;
750.6000;0.1457;10.4461;
750.9000;0.1481;10.4509;
751.2000;0.1408;10.4437;
751.5000;0.1473;10.4581;
751.8000;0.1465;10.4557;
752.1000;0.1490;10.4606;
752.4000;0.1473;10.4557;
752.7000;0.1465;10.4557;
753.0000;0.1473;10.4654;
753.3000;0.1481;10.4678;
753.6000;0.1433;10.4606;
753.9000;0.1441;10.4654;
754.2000;0.1473;10.4654;
754.5000;0.1433;10.4533;
754.8000;0.1425;10.4413;
755.1000;0.1465;10.4557;
755.4000;0.1465;10.4509;
755.7000;0.1473;10.4461;
756.0000;0.1449;10.4364;
756.3000;0.1449;10.4364;
756.6000;0.1465;10.4340;
756.9000;0.1473;10.4268;
757.2000;0.1481;10.4244;
757.5000;0.1498;10.4292;
757.8000;0.1465;10.4292;
758.1000;0.1490;10.4389;
758.4000;0.1490;10.4340;
758.7000;0.1481;10.4340;
759.0000;0.1465;10.4292;
759.3000;0.1473;10.4340;
759.6000;0.1506;10.4461;
759.9000;0.1465;10.4389;
760.2000;0.1441;10.4268;
760.5000;0.1457;10.4413;
760.8000;0.1481;10.4485;
761.1000;0.1522;10.4557;
761.4000;0.1481;10.4340;
761.7000;0.1457;10.4268;
762.0000;0.1416;10.4220;
762.3000;0.1481;10.4437;
762.6000;0.1465;10.4413;
762.9000;0.1481;10.4437;
763.2000;0.1481;10.4461;
763.5000;0.1498;10.4437;
763.8000;0.1465;10.4364;
764.1000;0.1473;10.4413;
764.4000;0.1490;10.4485;
764.7000;0.1473;10.4389;
765.0000;0.1481;10.4364;
765.3000;0.1457;10.4292;
765.6000;0.1473;10.4292;
765.9000;0.1506;10.4389;
766.2000;0.1498;10.4437;
766.5000;0.1465;10.4413;
766.8000;0.1481;10.4389;
767.1000;0.1506;10.4461;
767.4000;0.1530;10.4509;
767.7000;0.1473;10.4364;
768.0000;0.1465;10.4316;
768.3000;0.1547;10.4533;
768.6000;0.1490;10.4292;
768.9000;0.1433;10.4220;
769.2000;0.1441;10.4244;
769.5000;0.1465;10.4413;
769.8000;0.1473;10.4389;
770.1000;0.1449;10.4292;
770.4000;0.1481;10.4364;
770.7000;0.1538;10.4485;
771.0000;0.1441;10.4292;
771.3000;0.1449;10.4340;
771.6000;0.1587;10.4654;
771.9000;0.1449;10.4268;
772.2000;0.1449;10.4316;
772.5000;0.1547;10.4581;
772.8000;0.1473;10.4413;
773.1000;0.1490;10.4461;
773.4000;0.1490;10.4509;
773.7000;0.1522;10.4630;
774.0000;0.1457;10.4340;
774.3000;0.1465;10.4437;
774.6000;0.1481;10.4485;
774.9000;0.1465;10.4509;
775.2000;0.1498;10.4557;
775.5000;0.1473;10.4389;
775.8000;0.1481;10.4413;
776.1000;0.1465;10.4413;
776.4000;0.1465;10.4389;
776.7000;0.1498;10.4509;
777.0000;0.1465;10.4340;
777.3000;0.1457;10.4437;
777.6000;0.1473;10.4485;
777.9000;0.1473;10.4485;
778.2000;0.1465;10.4437;
778.5000;0.1481;10.4485;
778.8000;0.1481;10.4485;
779.1000;0.1481;10.4485;
779.4000;0.1522;10.4606;
779.7000;0.1465;10.4485;
780.0000;0.1481;10.4461;
780.3000;0.1449;10.4364;
780.6000;0.1465;10.4389;
780.9000;0.1481;10.4389;
781.2000;0.1449;10.4268;
781.5000;0.1498;10.4364;
781.8000;0.1481;10.4340;
782.1000;0.1457;10.4340;
782.4000;0.1490;10.4340;
782.7000;0.1473;10.4316;
783.0000;0.1425;10.4147;
783.3000;0.1490;10.4364;
783.6000;0.1473;10.4340;
783.9000;0.1490;10.4316;
784.2000;0.1457;10.4268;
784.5000;0.1473;10.4316;
784.8000;0.1506;10.4413;
785.1000;0.1498;10.4413;
785.4000;0.1481;10.4364;
785.7000;0.1425;10.4147;
786.0000;0.1473;10.4244;
786.3000;0.1481;10.4292;
786.6000;0.1473;10.4196;
786.9000;0.1465;10.4196;
787.2000;0.1457;10.4244;
787.5000;0.1473;10.4244;
787.8000;0.1595;10.4630;
788.1000;0.1465;10.4268;
788.4000;0.1481;10.4268;
788.7000;0.1490;10.4196;
789.0000;0.1481;10.4171;
789.3000;0.1473;10.4244;
789.6000;0.1481;10.4316;
789.9000;0.1522;10.4437;
790.2000;0.1481;10.4364;
790.5000;0.1481;10.4292;
790.8000;0.1441;10.4196;
791.1000;0.1473;10.4292;
791.4000;0.1514;10.4316;
791.7000;0.1481;10.4316;
792.0000;0.1490;10.4340;
792.3000;0.1473;10.4292;
792.6000;0.1481;10.4364;
792.9000;0.1457;10.4244;
793.2000;0.1481;10.4364;
793.5000;0.1449;10.4292;
793.8000;0.1465;10.4316;
794.1000;0.1514;10.4461;
794.4000;0.1490;10.4268;
794.7000;0.1506;10.4316;
795.0000;0.1481;10.4123;
795.3000;0.1465;10.4051;
795.6000;0.1473;10.4075;
795.9000;0.1473;10.4099;
796.2000;0.1481;10.4099;
796.5000;0.1343;10.3810;
796.8000;0.1473;10.4147;
797.1000;0.1473;10.4196;
797.4000;0.1481;10.4220;
797.7000;0.1490;10.4244;
798.0000;0.1473;10.4268;
798.3000;0.1490;10.4244;
798.6000;0.1416;10.4003;
798.9000;0.1465;10.4099;
799.2000;0.1481;10.4196;
799.5000;0.1465;10.4196;
799.8000;0.1457;10.4147;
800.1000;0.1465;10.4196;
800.4000;0.1498;10.4316;
800.7000;0.1473;10.4220;
801.0000;0.1465;10.4147;
801.3000;0.1473;10.4244;
801.6000;0.1465;10.4292;
801.9000;0.1465;10.4220;
802.2000;0.1481;10.4220;
802.5000;0.1457;10.4171;
802.8000;0.1473;10.4147;
803.1000;0.1441;10.4051;
803.4000;0.1473;10.4171;
803.7000;0.1473;10.4268;
804.0000;0.1490;10.4268;
804.3000;0.1457;10.4220;
804.6000;0.1473;10.4196;
804.9000;0.1514;10.4244;
805.2000;0.1481;10.4220;
805.5000;0.1481;10.4147;
805.8000;0.1490;10.4171;
806.1000;0.1465;10.4244;
806.4000;0.1473;10.4220;
806.7000;0.1481;10.4268;
807.0000;0.1481;10.4220;
807.3000;0.1465;10.4244;
807.6000;0.1473;10.4244;
807.9000;0.1481;10.4268;
808.2000;0.1514;10.4364;
808.5000;0.1465;10.4244;
808.8000;0.1457;10.4268;
809.1000;0.1408;10.4075;
809.4000;0.1490;10.4220;
809.7000;0.1490;10.4292;
810.0000;0.1441;10.4147;
810.3000;0.1481;10.4292;
810.6000;0.1473;10.4340;
810.9000;0.1481;10.4316;
811.2000;0.1465;10.4268;
811.5000;0.1465;10.4244;
811.8000;0.1473;10.4292;
812.1000;0.1465;10.4389;
812.4000;0.1465;10.4413;
812.7000;0.1490;10.4413;
813.0000;0.1449;10.4461;
813.3000;0.1514;10.4533;
813.6000;0.1490;10.4461;
813.9000;0.1473;10.4461;
814.2000;0.1473;10.4485;
814.5000;0.1481;10.4630;
814.8000;0.1473;10.4533;
815.1000;0.1473;10.4461;
815.4000;0.1465;10.4364;
815.7000;0.1465;10.4340;
816.0000;0.1473;10.4364;
816.3000;0.1473;10.4437;
816.6000;0.1481;10.4316;
816.9000;0.1465;10.4268;
817.2000;0.1465;10.4196;
817.5000;0.1465;10.4292;
817.8000;0.1457;10.4196;
818.1000;0.1465;10.4268;
818.4000;0.1473;10.4340;
818.7000;0.1465;10.4292;
819.0000;0.1481;10.4316;
819.3000;0.1473;10.4292;
819.6000;0.1473;10.4316;
819.9000;0.1473;10.4389;
820.2000;0.1473;10.4340;
820.5000;0.1473;10.4292;
820.8000;0.1490;10.4340;
821.1000;0.1473;10.4292;
821.4000;0.1473;10.4316;
821.7000;0.1465;10.4220;
822.0000;0.1481;10.4292;
822.3000;0.1465;10.4316;
822.6000;0.1441;10.4268;
822.9000;0.1473;10.4340;
823.2000;0.1481;10.4220;
823.5000;0.1449;10.4123;
823.8000;0.1481;10.4196;
824.1000;0.1473;10.4220;
824.4000;0.1473;10.4268;
824.7000;0.1457;10.4123;
825.0000;0.1498;10.4268;
825.3000;0.1465;10.4147;
825.6000;0.1441;10.4123;
825.9000;0.1473;10.4099;
826.2000;0.1473;10.4196;
826.5000;0.1498;10.4196;
826.8000;0.1465;10.4123;
827.1000;0.1473;10.4123;
827.4000;0.1498;10.4171;
827.7000;0.1465;10.4099;
828.0000;0.1457;10.4099;
828.3000;0.1498;10.4244;
828.6000;0.1498;10.4147;
828.9000;0.1587;10.4413;
829.2000;0.1465;10.4147;
829.5000;0.1473;10.4171;
829.8000;0.1473;10.4123;
830.1000;0.1473;10.4099;
830.4000;0.1465;10.4075;
830.7000;0.1473;10.4003;
831.0000;0.1498;10.4123;
831.3000;0.1481;10.4027;
831.6000;0.1481;10.4003;
831.9000;0.1465;10.4099;
832.2000;0.1506;10.4268;
832.5000;0.1481;10.4123;
832.8000;0.1498;10.4123;
833.1000;0.1481;10.4147;
833.4000;0.1490;10.4316;
833.7000;0.1498;10.4364;
834.0000;0.1587;10.4654;
834.3000;0.1465;10.4316;
834.6000;0.1481;10.4292;
834.9000;0.1473;10.4292;
835.2000;0.1490;10.4292;
835.5000;0.1481;10.4244;
835.8000;0.1473;10.4220;
836.1000;0.1490;10.4268;
836.4000;0.1506;10.4268;
836.7000;0.1473;10.4316;
837.0000;0.1481;10.4340;
837.3000;0.1481;10.4316;
837.6000;0.1490;10.4244;
837.9000;0.1473;10.4196;
838.2000;0.1481;10.4268;
838.5000;0.1481;10.4340;
838.8000;0.1481;10.4244;
839.1000;0.1481;10.4292;
839.4000;0.1473;10.4268;
839.7000;0.1490;10.4268;
840.0000;0.1473;10.4171;
840.3000;0.1465;10.4075;
840.6000;0.1481;10.4123;
840.9000;0.1457;10.4147;
841.2000;0.1449;10.4099;
841.5000;0.1538;10.4413;
841.8000;0.1514;10.4364;
842.1000;0.1449;10.4123;
842.4000;0.1473;10.4196;
842.7000;0.1457;10.4196;
843.0000;0.1522;10.4340;
843.3000;0.1481;10.4292;
843.6000;0.1457;10.4196;
843.9000;0.1506;10.4220;
844.2000;0.1465;10.4220;
844.5000;0.1473;10.4196;
844.8000;0.1481;10.4244;
845.1000;0.1498;10.4196;
845.4000;0.1490;10.4123;
845.7000;0.1481;10.4196;
846.0000;0.1481;10.4147;
846.3000;0.1498;10.4147;
846.6000;0.1498;10.4147;
846.9000;0.1506;10.4268;
847.2000;0.1473;10.4244;
847.5000;0.1490;10.4292;
847.8000;0.1481;10.4364;
848.1000;0.1481;10.4364;
848.4000;0.1465;10.4268;
848.7000;0.1465;10.4316;
849.0000;0.1481;10.4389;
849.3000;0.1490;10.4340;
849.6000;0.1481;10.4268;
849.9000;0.1481;10.4292;
850.2000;0.1490;10.4268;
850.5000;0.1473;10.4220;
850.8000;0.1473;10.4123;
851.1000;0.1465;10.4196;
851.4000;0.1449;10.4220;
851.7000;0.1481;10.4268;
852.0000;0.1449;10.4244;
852.3000;0.1465;10.4171;
852.6000;0.1481;10.4220;
852.9000;0.1522;10.4364;
853.2000;0.1465;10.4364;
853.5000;0.1465;10.4244;
853.8000;0.1473;10.4268;
854.1000;0.1457;10.4268;
854.4000;0.1465;10.4123;
854.7000;0.1481;10.4123;
855.0000;0.1473;10.4123;
855.3000;0.1498;10.4171;
855.6000;0.1490;10.4075;
855.9000;0.1465;10.4075;
856.2000;0.1416;10.4027;
856.5000;0.1481;10.4123;
856.8000;0.1473;10.4075;
857.1000;0.1530;10.4244;
857.4000;0.1465;10.4123;
857.7000;0.1481;10.4123;
858.0000;0.1506;10.4244;
858.3000;0.1481;10.4196;
858.6000;0.1465;10.4123;
858.9000;0.1481;10.4196;
859.2000;0.1473;10.4196;
859.5000;0.1481;10.4292;
859.8000;0.1457;10.4220;
860.1000;0.1473;10.4171;
860.4000;0.1490;10.4268;
860.7000;0.1481;10.4244;
861.0000;0.1490;10.4292;
861.3000;0.1506;10.4340;
861.6000;0.1473;10.4268;
861.9000;0.1465;10.4244;
862.2000;0.1441;10.4220;
862.5000;0.1481;10.4292;
862.8000;0.1473;10.4364;
863.1000;0.1465;10.4364;
863.4000;0.1473;10.4292;
863.7000;0.1457;10.4268;
864.0000;0.1473;10.4340;
864.3000;0.1449;10.4316;
864.6000;0.1514;10.4557;
864.9000;0.1481;10.4413;
865.2000;0.1522;10.4437;
865.5000;0.1449;10.4220;
865.8000;0.1530;10.4461;
866.1000;0.1473;10.4316;
866.4000;0.1465;10.4316;
866.7000;0.1473;10.4268;
867.0000;0.1473;10.4244;
867.3000;0.1522;10.4437;
867.6000;0.1506;10.4413;
867.9000;0.1449;10.4340;
868.2000;0.1457;10.4509;
868.5000;0.1481;10.4461;
868.8000;0.1416;10.4316;
869.1000;0.1473;10.4509;
869.4000;0.1457;10.4461;
869.7000;0.1490;10.4557;
870.0000;0.1490;10.4581;
870.3000;0.1473;10.4630;
870.6000;0.1490;10.4581;
870.9000;0.1490;10.4557;
871.2000;0.1481;10.4485;
871.5000;0.1498;10.4437;
871.8000;0.1490;10.4413;
872.1000;0.1490;10.4437;
872.4000;0.1490;10.4461;
872.7000;0.1473;10.4413;
873.0000;0.1457;10.4413;
873.3000;0.1465;10.4509;
873.6000;0.1465;10.4364;
873.9000;0.1433;10.4292;
874.2000;0.1457;10.4340;
874.5000;0.1481;10.4413;
874.8000;0.1433;10.4316;
875.1000;0.1392;10.4244;
875.4000;0.1481;10.4485;
875.7000;0.1506;10.4654;
876.0000;0.1473;10.4606;
876.3000;0.1514;10.4702;
876.6000;0.1457;10.4509;
876.9000;0.1506;10.4557;
877.2000;0.1481;10.4413;
877.5000;0.1473;10.4413;
877.8000;0.1514;10.4557;
878.1000;0.1490;10.4485;
878.4000;0.1481;10.4509;
878.7000;0.1449;10.4389;
879.0000;0.1490;10.4461;
879.3000;0.1457;10.4413;
879.6000;0.1465;10.4437;
879.9000;0.1490;10.4364;
880.2000;0.1490;10.4340;
880.5000;0.1490;10.4389;
880.8000;0.1481;10.4364;
881.1000;0.1473;10.4316;
881.4000;0.1473;10.4244;
881.7000;0.1481;10.4340;
882.0000;0.1490;10.4413;
882.3000;0.1498;10.4364;
882.6000;0.1490;10.4292;
882.9000;0.1481;10.4316;
883.2000;0.1579;10.4750;
883.5000;0.1465;10.4485;
883.8000;0.1449;10.4485;
884.1000;0.1481;10.4461;
884.4000;0.1530;10.4654;
884.7000;0.1473;10.4533;
885.0000;0.1457;10.4437;
885.3000;0.1441;10.4437;
885.6000;0.1481;10.4533;
885.9000;0.1473;10.4509;
886.2000;0.1481;10.4557;
886.5000;0.1351;10.4196;
886.8000;0.1490;10.4413;
887.1000;0.1490;10.4437;
887.4000;0.1457;10.4437;
887.7000;0.1514;10.4533;
888.0000;0.1481;10.4413;
888.3000;0.1433;10.4316;
888.6000;0.1490;10.4437;
888.9000;0.1465;10.4437;
889.2000;0.1473;10.4389;
889.5000;0.1481;10.4389;
889.8000;0.1481;10.4413;
890.1000;0.1465;10.4509;
890.4000;0.1473;10.4485;
890.7000;0.1490;10.4557;
891.0000;0.1587;10.4847;
891.3000;0.1563;10.4774;
891.6000;0.1481;10.4557;
891.9000;0.1473;10.4557;
892.2000;0.1457;10.4485;
892.5000;0.1490;10.4557;
892.8000;0.1481;10.4581;
893.1000;0.1481;10.4581;
893.4000;0.1473;10.4533;
893.7000;0.1506;10.4726;
894.0000;0.1465;10.4654;
894.3000;0.1457;10.4606;
894.6000;0.1481;10.4630;
894.9000;0.1481;10.4557;
895.2000;0.1498;10.4581;
895.5000;0.1473;10.4557;
895.8000;0.1473;10.4557;
896.1000;0.1481;10.4533;
896.4000;0.1433;10.4413;
896.7000;0.1498;10.4557;
897.0000;0.1457;10.4509;
897.3000;0.1457;10.4485;
897.6000;0.1473;10.4485;
897.9000;0.1473;10.4413;
898.2000;0.1490;10.4557;
898.5000;0.1473;10.4509;
898.8000;0.1490;10.4509;
899.1000;0.1465;10.4533;
899.4000;0.1473;10.4581;
899.7000;0.1481;10.4581;
900.0000;0.1449;10.4485;
900.3000;0.1465;10.4533;
900.6000;0.1457;10.4509;
900.9000;0.1473;10.4630;
901.2000;0.1449;10.4606;
901.5000;0.1490;10.4654;
901.8000;0.1481;10.4606;
902.1000;0.1457;10.4533;
902.4000;0.1522;10.4678;
902.7000;0.1604;10.4943;
903.0000;0.1465;10.4581;
903.3000;0.1433;10.4509;
903.6000;0.1473;10.4630;
903.9000;0.1490;10.4678;
904.2000;0.1481;10.4678;
904.5000;0.1465;10.4533;
904.8000;0.1465;10.4557;
905.1000;0.1490;10.4557;
905.4000;0.1481;10.4485;
905.7000;0.1465;10.4485;
906.0000;0.1441;10.4461;
906.3000;0.1481;10.4437;
906.6000;0.1490;10.4437;
906.9000;0.1449;10.4364;
907.2000;0.1563;10.4702;
907.5000;0.1490;10.4461;
907.8000;0.1506;10.4533;
908.1000;0.1473;10.4340;
908.4000;0.1465;10.4389;
908.7000;0.1457;10.4437;
909.0000;0.1490;10.4509;
909.3000;0.1522;10.4678;
909.6000;0.1473;10.4437;
909.9000;0.1465;10.4413;
910.2000;0.1490;10.4437;
910.5000;0.1465;10.4389;
910.8000;0.1481;10.4485;
911.1000;0.1449;10.4557;
911.4000;0.1498;10.4581;
911.7000;0.1457;10.4485;
912.0000;0.1498;10.4581;
912.3000;0.1416;10.4340;
912.6000;0.1481;10.4485;
912.9000;0.1473;10.4509;
913.2000;0.1473;10.4461;
913.5000;0.1481;10.4437;
913.8000;0.1490;10.4364;
914.1000;0.1473;10.4389;
914.4000;0.1490;10.4461;
914.7000;0.1481;10.4509;
915.0000;0.1465;10.4437;
915.3000;0.1473;10.4437;
915.6000;0.1490;10.4461;
915.9000;0.1473;10.4461;
916.2000;0.1465;10.4461;
916.5000;0.1538;10.4581;
916.8000;0.1481;10.4461;
917.1000;0.1473;10.4509;
917.4000;0.1490;10.4557;
917.7000;0.1457;10.4389;
918.0000;0.1465;10.4413;
918.3000;0.1481;10.4437;
918.6000;0.1465;10.4389;
918.9000;0.1481;10.4340;
919.2000;0.1498;10.4413;
919.5000;0.1465;10.4340;
919.8000;0.1465;10.4364;
920.1000;0.1465;10.4268;
920.4000;0.1465;10.4268;
920.7000;0.1473;10.4244;
921.0000;0.1465;10.4316;
921.3000;0.1465;10.4316;
921.6000;0.1473;10.4437;
921.9000;0.1481;10.4485;
922.2000;0.1457;10.4413;
922.5000;0.1465;10.4364;
922.8000;0.1473;10.4437;
923.1000;0.1506;10.4437;
923.4000;0.1481;10.4340;
923.7000;0.1481;10.4316;
924.0000;0.1473;10.4340;
924.3000;0.1465;10.4364;
924.6000;0.1465;10.4389;
924.9000;0.1465;10.4413;
925.2000;0.1506;10.4437;
925.5000;0.1481;10.4413;
925.8000;0.1473;10.4292;
926.1000;0.1481;10.4316;
926.4000;0.1481;10.4292;
926.7000;0.1490;10.4196;
927.0000;0.1506;10.4220;
927.3000;0.1473;10.4123;
927.6000;0.1506;10.4244;
927.9000;0.1481;10.4244;
928.2000;0.1498;10.4220;
928.5000;0.1481;10.4147;
928.8000;0.1425;10.3978;
929.1000;0.1490;10.4099;
929.4000;0.1498;10.4051;
929.7000;0.1490;10.4051;
930.0000;0.1457;10.4003;
930.3000;0.1490;10.4051;
930.6000;0.1473;10.4147;
930.9000;0.1490;10.4171;
931.2000;0.1481;10.4220;
931.5000;0.1473;10.4268;
931.8000;0.1457;10.4340;
932.1000;0.1481;10.4364;
932.4000;0.1506;10.4485;
932.7000;0.1473;10.4316;
933.0000;0.1481;10.4220;
933.3000;0.1481;10.4244;
933.6000;0.1490;10.4220;
933.9000;0.1490;10.4244;
934.2000;0.1473;10.4268;
934.5000;0.1555;10.4461;
934.8000;0.1481;10.4292;
935.1000;0.1473;10.4268;
935.4000;0.1473;10.4196;
935.7000;0.1465;10.4268;
936.0000;0.1490;10.4244;
936.3000;0.1473;10.4147;
936.6000;0.1457;10.4147;
936.9000;0.1473;10.4220;
937.2000;0.1473;10.4220;
937.5000;0.1506;10.4268;
937.8000;0.1490;10.4196;
938.1000;0.1481;10.4196;
938.4000;0.1449;10.4196;
938.7000;0.1473;10.4171;
939.0000;0.1481;10.4171;
939.3000;0.1449;10.4268;
939.6000;0.1490;10.4364;
939.9000;0.1473;10.4340;
940.2000;0.1473;10.4389;
940.5000;0.1457;10.4292;
940.8000;0.1481;10.4340;
941.1000;0.1538;10.4461;
941.4000;0.1416;10.4099;
941.7000;0.1473;10.4316;
942.0000;0.1498;10.4413;
942.3000;0.1465;10.4292;
942.6000;0.1433;10.4196;
942.9000;0.1465;10.4340;
943.2000;0.1473;10.4316;
943.5000;0.1481;10.4364;
943.8000;0.1481;10.4364;
944.1000;0.1473;10.4340;
944.4000;0.1498;10.4316;
944.7000;0.1449;10.4171;
945.0000;0.1473;10.4171;
945.3000;0.1490;10.4196;
945.6000;0.1465;10.4220;
945.9000;0.1473;10.4171;
946.2000;0.1473;10.4171;
946.5000;0.1465;10.4147;
946.8000;0.1465;10.4147;
947.1000;0.1530;10.4364;
947.4000;0.1449;10.4147;
947.7000;0.1473;10.4196;
948.0000;0.1481;10.4220;
948.3000;0.1400;10.4051;
948.6000;0.1490;10.4340;
948.9000;0.1465;10.4244;
949.2000;0.1473;10.4316;
949.5000;0.1449;10.4268;
949.8000;0.1457;10.4268;
950.1000;0.1473;10.4268;
950.4000;0.1473;10.4220;
950.7000;0.1457;10.4220;
951.0000;0.1481;10.4220;
951.3000;0.1481;10.4268;
951.6000;0.1473;10.4244;
951.9000;0.1457;10.4220;
952.2000;0.1449;10.4196;
952.5000;0.1481;10.4196;
952.8000;0.1457;10.4196;
953.1000;0.1498;10.4292;
953.4000;0.1457;10.4268;
953.7000;0.1490;10.4389;
954.0000;0.1457;10.4437;
954.3000;0.1481;10.4437;
954.6000;0.1473;10.4316;
954.9000;0.1498;10.4437;
955.2000;0.1481;10.4364;
955.5000;0.1465;10.4461;
955.8000;0.1473;10.4437;
956.1000;0.1449;10.4413;
956.4000;0.1498;10.4485;
956.7000;0.1481;10.4389;
957.0000;0.1498;10.4292;
957.3000;0.1473;10.4268;
957.6000;0.1465;10.4244;
957.9000;0.1481;10.4389;
958.2000;0.1473;10.4316;
958.5000;0.1465;10.4316;
958.8000;0.1506;10.4340;
959.1000;0.1481;10.4340;
959.4000;0.1473;10.4364;
959.7000;0.1465;10.4340;
960.0000;0.1449;10.4244;
960.3000;0.1498;10.4364;
960.6000;0.1457;10.4316;
960.9000;0.1473;10.4340;
961.2000;0.1481;10.4292;
961.5000;0.1490;10.4413;
961.8000;0.1506;10.4461;
962.1000;0.1490;10.4340;
962.4000;0.1465;10.4364;
962.7000;0.1490;10.4437;
963.0000;0.1457;10.4340;
963.3000;0.1481;10.4340;
963.6000;0.1481;10.4244;
963.9000;0.1490;10.4268;
964.2000;0.1473;10.4220;
964.5000;0.1465;10.4268;
964.8000;0.1498;10.4316;
965.1000;0.1481;10.4220;
965.4000;0.1425;10.4123;
965.7000;0.1449;10.4196;
966.0000;0.1433;10.4099;
966.3000;0.1481;10.4171;
966.6000;0.1473;10.4244;
966.9000;0.1473;10.4268;
967.2000;0.1473;10.4292;
967.5000;0.1465;10.4244;
967.8000;0.1490;10.4389;
968.1000;0.1490;10.4316;
968.4000;0.1473;10.4220;
968.7000;0.1425;10.4075;
969.0000;0.1490;10.4244;
969.3000;0.1498;10.4268;
969.6000;0.1547;10.4461;
969.9000;0.1473;10.4123;
970.2000;0.1457;10.4075;
970.5000;0.1563;10.4340;
970.8000;0.1473;10.4075;
971.1000;0.1506;10.4268;
971.4000;0.1473;10.4268;
971.7000;0.1449;10.4196;
972.0000;0.1433;10.4171;
972.3000;0.1514;10.4485;
972.6000;0.1465;10.4389;
972.9000;0.1465;10.4485;
973.2000;0.1522;10.4630;
973.5000;0.1473;10.4413;
973.8000;0.1481;10.4413;
974.1000;0.1490;10.4485;
974.4000;0.1530;10.4557;
974.7000;0.1490;10.4413;
975.0000;0.1473;10.4509;
975.3000;0.1433;10.4413;
975.6000;0.1465;10.4485;
975.9000;0.1425;10.4413;
976.2000;0.1465;10.4485;
976.5000;0.1465;10.4437;
976.8000;0.1457;10.4389;
977.1000;0.1481;10.4437;
977.4000;0.1465;10.4389;
977.7000;0.1457;10.4316;
978.0000;0.1481;10.4316;
978.3000;0.1547;10.4509;
978.6000;0.1473;10.4364;
978.9000;0.1384;10.4147;
979.2000;0.1490;10.4340;
979.5000;0.1514;10.4364;
979.8000;0.1465;10.4123;
980.1000;0.1490;10.4099;
980.4000;0.1481;10.4123;
980.7000;0.1481;10.4123;
981.0000;0.1473;10.4099;
981.3000;0.1351;10.3737;
981.6000;0.1465;10.4027;
981.9000;0.1473;10.4051;
982.2000;0.1481;10.4099;
982.5000;0.1465;10.4099;
982.8000;0.1457;10.4051;
983.1000;0.1473;10.4244;
983.4000;0.1547;10.4437;
983.7000;0.1481;10.4268;
984.0000;0.1481;10.4364;
984.3000;0.1530;10.4437;
984.6000;0.1490;10.4340;
984.9000;0.1481;10.4316;
985.2000;0.1481;10.4292;
985.5000;0.1490;10.4292;
985.8000;0.1490;10.4268;
986.1000;0.1465;10.4244;
986.4000;0.1490;10.4292;
986.7000;0.1490;10.4316;
987.0000;0.1498;10.4316;
987.3000;0.1473;10.4292;
987.6000;0.1473;10.4316;
987.9000;0.1473;10.4268;
988.2000;0.1514;10.4389;
988.5000;0.1465;10.4220;
988.8000;0.1473;10.4316;
989.1000;0.1563;10.4533;
989.4000;0.1490;10.4292;
989.7000;0.1481;10.4389;
990.0000;0.1490;10.4389;
990.3000;0.1465;10.4244;
990.6000;0.1473;10.4316;
990.9000;0.1481;10.4340;
991.2000;0.1465;10.4364;
991.5000;0.1457;10.4196;
991.8000;0.1498;10.4147;
992.1000;0.1498;10.4220;
992.4000;0.1473;10.4171;
992.7000;0.1473;10.4220;
993.0000;0.1473;10.4316;
993.3000;0.1473;10.4364;
993.6000;0.1481;10.4340;
993.9000;0.1465;10.4316;
994.2000;0.1449;10.4340;
994.5000;0.1490;10.4389;
994.8000;0.1473;10.4292;
995.1000;0.1481;10.4268;
995.4000;0.1473;10.4268;
995.7000;0.1473;10.4292;
996.0000;0.1481;10.4340;
996.3000;0.1514;10.4485;
996.6000;0.1473;10.4316;
996.9000;0.1473;10.4389;
997.2000;0.1530;10.4581;
997.5000;0.1473;10.4292;
997.8000;0.1465;10.4268;
998.1000;0.1449;10.4220;
998.4000;0.1506;10.4485;
998.7000;0.1490;10.4437;
999.0000;0.1457;10.4340;
999.3000;0.1481;10.4413;
999.6000;0.1490;10.4437;
999.9000;0.1490;10.4389;
1000.2000;0.1465;10.4364;
1000.5000;0.1481;10.4316;
1000.8000;0.1457;10.4220;
1001.1000;0.1473;10.4340;
1001.4000;0.1490;10.4340;
1001.7000;0.1465;10.4268;
1002.0000;0.1441;10.4292;
1002.3000;0.1481;10.4292;
1002.6000;0.1465;10.4147;
1002.9000;0.1465;10.4171;
1003.2000;0.1465;10.4220;
1003.5000;0.1481;10.4389;
1003.8000;0.1465;10.4364;
1004.1000;0.1481;10.4364;
1004.4000;0.1408;10.4123;
1004.7000;0.1490;10.4340;
1005.0000;0.1481;10.4220;
1005.3000;0.1547;10.4413;
1005.6000;0.1465;10.4196;
1005.9000;0.1481;10.4123;
1006.2000;0.1473;10.4147;
1006.5000;0.1481;10.4147;
1006.8000;0.1351;10.3858;
1007.1000;0.1473;10.4123;
1007.4000;0.1490;10.4171;
1007.7000;0.1481;10.4171;
1008.0000;0.1457;10.4171;
1008.3000;0.1481;10.4196;
1008.6000;0.1465;10.4196;
1008.9000;0.1465;10.4268;
1009.2000;0.1457;10.4268;
1009.5000;0.1449;10.4196;
1009.8000;0.1473;10.4244;
1010.1000;0.1457;10.4220;
1010.4000;0.1473;10.4340;
1010.7000;0.1465;10.4413;
1011.0000;0.1449;10.4340;
1011.3000;0.1465;10.4485;
1011.6000;0.1384;10.4196;
1011.9000;0.1465;10.4389;
1012.2000;0.1498;10.4389;
1012.5000;0.1416;10.4171;
1012.8000;0.1490;10.4389;
1013.1000;0.1587;10.4630;
1013.4000;0.1563;10.4581;
1013.7000;0.1490;10.4461;
1014.0000;0.1473;10.4413;
1014.3000;0.1473;10.4461;
1014.6000;0.1514;10.4606;
1014.9000;0.1506;10.4630;
1015.2000;0.1481;10.4485;
1015.5000;0.1465;10.4461;
1015.8000;0.1465;10.4461;
1016.1000;0.1490;10.4509;
1016.4000;0.1473;10.4509;
1016.7000;0.1473;10.4485;
1017.0000;0.1506;10.4485;
1017.3000;0.1490;10.4485;
1017.6000;0.1506;10.4581;
1017.9000;0.1481;10.4557;
1018.2000;0.1425;10.4413;
1018.5000;0.1481;10.4485;
1018.8000;0.1481;10.4437;
1019.1000;0.1473;10.4413;
1019.4000;0.1473;10.4509;
1019.7000;0.1465;10.4413;
1020.0000;0.1416;10.4292;
1020.3000;0.1490;10.4557;
1020.6000;0.1465;10.4461;
1020.9000;0.1465;10.4364;
1021.2000;0.1514;10.4437;
1021.5000;0.1465;10.4316;
1021.8000;0.1473;10.4340;
1022.1000;0.1490;10.4316;
1022.4000;0.1481;10.4316;
1022.7000;0.1473;10.4340;
1023.0000;0.1473;10.4364;
1023.3000;0.1449;10.4316;
1023.6000;0.1498;10.4413;
1023.9000;0.1481;10.4389;
1024.2000;0.1498;10.4389;
1024.5000;0.1490;10.4437;
1024.8000;0.1473;10.4413;
1025.1000;0.1481;10.4509;
1025.4000;0.1473;10.4461;
1025.7000;0.1490;10.4557;
1026.0000;0.1465;10.4606;
1026.3000;0.1473;10.4581;
1026.6000;0.1473;10.4533;
1026.9000;0.1473;10.4533;
1027.2000;0.1473;10.4461;
1027.5000;0.1481;10.4461;
1027.8000;0.1481;10.4461;
1028.1000;0.1498;10.4461;
1028.4000;0.1555;10.4581;
1028.7000;0.1457;10.4268;
1029.0000;0.1490;10.4389;
1029.3000;0.1490;10.4364;
1029.6000;0.1490;10.4292;
1029.9000;0.1465;10.4340;
1030.2000;0.1473;10.4316;
1030.5000;0.1473;10.4316;
1030.8000;0.1481;10.4244;
1031.1000;0.1457;10.4147;
1031.4000;0.1481;10.4171;
1031.7000;0.1490;10.4244;
1032.0000;0.1465;10.4268;
1032.3000;0.1473;10.4389;
1032.6000;0.1481;10.4389;
1032.9000;0.1530;10.4557;
1033.2000;0.1441;10.4413;
1033.5000;0.1473;10.4485;
1033.8000;0.1457;10.4461;
1034.1000;0.1408;10.4196;
1034.4000;0.1506;10.4437;
1034.7000;0.1465;10.4292;
1035.0000;0.1473;10.4244;
1035.3000;0.1506;10.4389;
1035.6000;0.1465;10.4316;
1035.9000;0.1473;10.4364;
1036.2000;0.1416;10.4220;
1036.5000;0.1465;10.4340;
1036.8000;0.1481;10.4220;
1037.1000;0.1587;10.4389;
1037.4000;0.1465;10.4075;
1037.7000;0.1481;10.4027;
1038.0000;0.1473;10.3978;
1038.3000;0.1490;10.4075;
1038.6000;0.1465;10.4003;
1038.9000;0.1416;10.3978;
1039.2000;0.1351;10.3930;
1039.5000;0.1473;10.4244;
1039.8000;0.1481;10.4268;
1040.1000;0.1473;10.4196;
1040.4000;0.1473;10.4196;
1040.7000;0.1465;10.4316;
1041.0000;0.1498;10.4316;
1041.3000;0.1457;10.4292;
1041.6000;0.1498;10.4413;
1041.9000;0.1490;10.4316;
1042.2000;0.1490;10.4461;
1042.5000;0.1457;10.4389;
1042.8000;0.1473;10.4461;
1043.1000;0.1481;10.4461;
1043.4000;0.1481;10.4437;
1043.7000;0.1473;10.4340;
1044.0000;0.1465;10.4389;
1044.3000;0.1498;10.4413;
1044.6000;0.1490;10.4413;
1044.9000;0.1473;10.4437;
1045.2000;0.1530;10.4581;
1045.5000;0.1473;10.4461;
1045.8000;0.1490;10.4581;
1046.1000;0.1481;10.4509;
1046.4000;0.1457;10.4509;
1046.7000;0.1359;10.4220;
1047.0000;0.1465;10.4557;
1047.3000;0.1490;10.4557;
1047.6000;0.1449;10.4461;
1047.9000;0.1465;10.4557;
1048.2000;0.1481;10.4581;
1048.5000;0.1441;10.4437;
1048.8000;0.1465;10.4509;
1049.1000;0.1481;10.4437;
1049.4000;0.1416;10.4220;
1049.7000;0.1457;10.4268;
1050.0000;0.1490;10.4340;
1050.3000;0.1465;10.4340;
1050.6000;0.1481;10.4340;
1050.9000;0.1498;10.4389;
1051.2000;0.1481;10.4292;
1051.5000;0.1490;10.4340;
1051.8000;0.1481;10.4340;
1052.1000;0.1506;10.4437;
1052.4000;0.1457;10.4437;
1052.7000;0.1473;10.4461;
1053.0000;0.1457;10.4461;
1053.3000;0.1481;10.4509;
1053.6000;0.1465;10.4413;
1053.9000;0.1465;10.4413;
1054.2000;0.1465;10.4461;
1054.5000;0.1490;10.4461;
1054.8000;0.1481;10.4413;
1055.1000;0.1490;10.4340;
1055.4000;0.1490;10.4340;
1055.7000;0.1498;10.4340;
1056.0000;0.1506;10.4389;
1056.3000;0.1465;10.4268;
1056.6000;0.1473;10.4316;
1056.9000;0.1425;10.4196;
1057.2000;0.1465;10.4316;
1057.5000;0.1465;10.4268;
1057.8000;0.1465;10.4316;
1058.1000;0.1465;10.4292;
1058.4000;0.1481;10.4268;
1058.7000;0.1465;10.4244;
1059.0000;0.1490;10.4340;
1059.3000;0.1449;10.4292;
1059.6000;0.1498;10.4364;
1059.9000;0.1465;10.4316;
1060.2000;0.1490;10.4340;
1060.5000;0.1481;10.4364;
1060.8000;0.1473;10.4364;
1061.1000;0.1571;10.4654;
1061.4000;0.1490;10.4533;
1061.7000;0.1473;10.4461;
1062.0000;0.1481;10.4485;
1062.3000;0.1473;10.4413;
1062.6000;0.1481;10.4437;
1062.9000;0.1457;10.4364;
1063.2000;0.1473;10.4413;
1063.5000;0.1481;10.4413;
1063.8000;0.1473;10.4413;
1064.1000;0.1473;10.4389;
1064.4000;0.1473;10.4413;
1064.7000;0.1473;10.4413;
1065.0000;0.1425;10.4244;
1065.3000;0.1481;10.4364;
1065.6000;0.1481;10.4364;
1065.9000;0.1498;10.4389;
1066.2000;0.1498;10.4437;
1066.5000;0.1473;10.4389;
1066.8000;0.1465;10.4485;
1067.1000;0.1498;10.4533;
1067.4000;0.1481;10.4533;
1067.7000;0.1530;10.4581;
1068.0000;0.1490;10.4654;
1068.3000;0.1473;10.4509;
1068.6000;0.1473;10.4437;
1068.9000;0.1490;10.4437;
1069.2000;0.1490;10.4340;
1069.5000;0.1465;10.4413;
1069.8000;0.1473;10.4413;
1070.1000;0.1490;10.4461;
1070.4000;0.1465;10.4364;
1070.7000;0.1506;10.4364;
1071.0000;0.1522;10.4461;
1071.3000;0.1473;10.4316;
1071.6000;0.1498;10.4340;
1071.9000;0.1441;10.4292;
1072.2000;0.1473;10.4316;
1072.5000;0.1465;10.4364;
1072.8000;0.1416;10.4268;
1073.1000;0.1490;10.4437;
1073.4000;0.1490;10.4437;
1073.7000;0.1465;10.4413;
1074.0000;0.1416;10.4244;
1074.3000;0.1481;10.4413;
1074.6000;0.1473;10.4413;
1074.9000;0.1481;10.4461;
1075.2000;0.1490;10.4437;
1075.5000;0.1465;10.4413;
1075.8000;0.1490;10.4340;
1076.1000;0.1465;10.4340;
1076.4000;0.1498;10.4364;
1076.7000;0.1441;10.4268;
1077.0000;0.1473;10.4316;
1077.3000;0.1481;10.4389;
1077.6000;0.1490;10.4364;
1077.9000;0.1465;10.4268;
1078.2000;0.1498;10.4413;
1078.5000;0.1457;10.4389;
1078.8000;0.1481;10.4389;
1079.1000;0.1490;10.4437;
1079.4000;0.1481;10.4292;
1079.7000;0.1473;10.4244;
1080.0000;0.1481;10.4123;
1080.3000;0.1465;10.4051;
1080.6000;0.1481;10.4051;
1080.9000;0.1481;10.4075;
1081.2000;0.1449;10.3978;
1081.5000;0.1490;10.4051;
1081.8000;0.1473;10.4051;
1082.1000;0.1579;10.4340;
1082.4000;0.1408;10.4051;
1082.7000;0.1490;10.4171;
1083.0000;0.1481;10.4196;
1083.3000;0.1392;10.3978;
1083.6000;0.1481;10.4123;
1083.9000;0.1481;10.4196;
1084.2000;0.1481;10.4244;
1084.5000;0.1457;10.4220;
1084.8000;0.1473;10.4244;
1085.1000;0.1457;10.4244;
1085.4000;0.1473;10.4364;
1085.7000;0.1481;10.4364;
1086.0000;0.1473;10.4461;
1086.3000;0.1481;10.4581;
1086.6000;0.1481;10.4557;
1086.9000;0.1481;10.4557;
1087.2000;0.1481;10.4533;
1087.5000;0.1473;10.4413;
1087.8000;0.1481;10.4364;
1088.1000;0.1465;10.4268;
1088.4000;0.1490;10.4340;
1088.7000;0.1490;10.4316;
1089.0000;0.1392;10.4075;
1089.3000;0.1465;10.4244;
1089.6000;0.1481;10.4364;
1089.9000;0.1490;10.4389;
1090.2000;0.1555;10.4557;
1090.5000;0.1473;10.4316;
1090.8000;0.1473;10.4316;
1091.1000;0.1465;10.4220;
1091.4000;0.1490;10.4196;
1091.7000;0.1465;10.4196;
1092.0000;0.1481;10.4220;
1092.3000;0.1498;10.4244;
1092.6000;0.1498;10.4220;
1092.9000;0.1465;10.4220;
1093.2000;0.1473;10.4268;
1093.5000;0.1457;10.4244;
1093.8000;0.1473;10.4340;
1094.1000;0.1490;10.4461;
1094.4000;0.1506;10.4533;
1094.7000;0.1481;10.4509;
1095.0000;0.1465;10.4485;
1095.3000;0.1465;10.4461;
1095.6000;0.1481;10.4533;
1095.9000;0.1473;10.4533;
1096.2000;0.1481;10.4606;
1096.5000;0.1547;10.4726;
1096.8000;0.1481;10.4654;
1097.1000;0.1490;10.4678;
1097.4000;0.1473;10.4630;
1097.7000;0.1465;10.4606;
1098.0000;0.1473;10.4606;
1098.3000;0.1498;10.4630;
1098.6000;0.1465;10.4461;
1098.9000;0.1530;10.4630;
1099.2000;0.1465;10.4485;
1099.5000;0.1473;10.4509;
1099.8000;0.1498;10.4557;
1100.1000;0.1465;10.4509;
1100.4000;0.1490;10.4557;
1100.7000;0.1498;10.4509;
1101.0000;0.1449;10.4389;
1101.3000;0.1490;10.4461;
1101.6000;0.1498;10.4364;
1101.9000;0.1498;10.4413;
1102.2000;0.1506;10.4364;
1102.5000;0.1481;10.4292;
1102.8000;0.1465;10.4220;
1103.1000;0.1465;10.4220;
1103.4000;0.1441;10.4075;
1103.7000;0.1465;10.4099;
1104.0000;0.1351;10.3858;
1104.3000;0.1473;10.4147;
1104.6000;0.1425;10.4027;
1104.9000;0.1530;10.4292;
1105.2000;0.1449;10.4027;
1105.5000;0.1473;10.4099;
1105.8000;0.1473;10.4171;
1106.1000;0.1465;10.4123;
1106.4000;0.1457;10.4075;
1106.7000;0.1481;10.4099;
1107.0000;0.1490;10.4196;
1107.3000;0.1498;10.4220;
1107.6000;0.1481;10.4147;
1107.9000;0.1481;10.4147;
1108.2000;0.1498;10.4171;
1108.5000;0.1490;10.4123;
1108.8000;0.1498;10.4244;
1109.1000;0.1522;10.4437;
1109.4000;0.1465;10.4316;
1109.7000;0.1490;10.4461;
1110.0000;0.1481;10.4533;
1110.3000;0.1473;10.4509;
1110.6000;0.1457;10.4437;
1110.9000;0.1490;10.4485;
1111.2000;0.1481;10.4437;
1111.5000;0.1473;10.4340;
1111.8000;0.1481;10.4292;
1112.1000;0.1465;10.4292;
1112.4000;0.1481;10.4316;
1112.7000;0.1473;10.4292;
1113.0000;0.1522;10.4316;
1113.3000;0.1449;10.4244;
1113.6000;0.1490;10.4364;
1113.9000;0.1473;10.4364;
1114.2000;0.1481;10.4437;
1114.5000;0.1490;10.4437;
1114.8000;0.1490;10.4413;
1115.1000;0.1449;10.4413;
1115.4000;0.1490;10.4509;
1115.7000;0.1490;10.4509;
1116.0000;0.1506;10.4413;
1116.3000;0.1506;10.4364;
1116.6000;0.1457;10.4292;
1116.9000;0.1481;10.4340;
1117.2000;0.1490;10.4364;
1117.5000;0.1498;10.4509;
1117.8000;0.1473;10.4437;
1118.1000;0.1498;10.4485;
1118.4000;0.1481;10.4509;
1118.7000;0.1433;10.4461;
1119.0000;0.1473;10.4509;
1119.3000;0.1498;10.4533;
1119.6000;0.1457;10.4461;
1119.9000;0.1465;10.4364;
1120.2000;0.1473;10.4316;
1120.5000;0.1449;10.4292;
1120.8000;0.1490;10.4413;
1121.1000;0.1490;10.4413;
1121.4000;0.1481;10.4340;
1121.7000;0.1473;10.4389;
1122.0000;0.1481;10.4485;
1122.3000;0.1481;10.4437;
1122.6000;0.1490;10.4461;
1122.9000;0.1441;10.4316;
1123.2000;0.1498;10.4461;
1123.5000;0.1481;10.4437;
1123.8000;0.1465;10.4413;
1124.1000;0.1473;10.4461;
1124.4000;0.1473;10.4437;
1124.7000;0.1522;10.4654;
1125.0000;0.1473;10.4509;
1125.3000;0.1473;10.4485;
1125.6000;0.1481;10.4509;
1125.9000;0.1498;10.4581;
1126.2000;0.1473;10.4485;
1126.5000;0.1465;10.4437;
1126.8000;0.1481;10.4413;
1127.1000;0.1498;10.4437;
1127.4000;0.1473;10.4340;
1127.7000;0.1481;10.4413;
1128.0000;0.1473;10.4364;
1128.3000;0.1433;10.4244;
1128.6000;0.1490;10.4364;
1128.9000;0.1498;10.4389;
1129.2000;0.1392;10.4123;
1129.5000;0.1473;10.4364;
1129.8000;0.1473;10.4437;
1130.1000;0.1473;10.4437;
1130.4000;0.1514;10.4509;
1130.7000;0.1441;10.4437;
1131.0000;0.1498;10.4533;
1131.3000;0.1490;10.4557;
1131.6000;0.1514;10.4557;
1131.9000;0.1481;10.4606;
1132.2000;0.1465;10.4557;
1132.5000;0.1473;10.4437;
1132.8000;0.1498;10.4533;
1133.1000;0.1473;10.4461;
1133.4000;0.1498;10.4533;
1133.7000;0.1498;10.4509;
1134.0000;0.1490;10.4509;
1134.3000;0.1481;10.4485;
1134.6000;0.1457;10.4389;
1134.9000;0.1473;10.4364;
1135.2000;0.1449;10.4413;
1135.5000;0.1473;10.4485;
1135.8000;0.1465;10.4509;
1136.1000;0.1457;10.4437;
1136.4000;0.1465;10.4509;
1136.7000;0.1473;10.4557;
1137.0000;0.1457;10.4509;
1137.3000;0.1384;10.4244;
1137.6000;0.1498;10.4509;
1137.9000;0.1490;10.4557;
1138.2000;0.1538;10.4654;
1138.5000;0.1490;10.4461;
1138.8000;0.1498;10.4557;
1139.1000;0.1473;10.4557;
1139.4000;0.1481;10.4606;
1139.7000;0.1465;10.4606;
1140.0000;0.1481;10.4654;
1140.3000;0.1490;10.4630;
1140.6000;0.1490;10.4630;
1140.9000;0.1498;10.4702;
1141.2000;0.1490;10.4654;
1141.5000;0.1473;10.4630;
1141.8000;0.1473;10.4606;
1142.1000;0.1457;10.4581;
1142.4000;0.1473;10.4606;
1142.7000;0.1473;10.4630;
1143.0000;0.1498;10.4630;
1143.3000;0.1481;10.4630;
1143.6000;0.1490;10.4678;
1143.9000;0.1498;10.4654;
1144.2000;0.1498;10.4606;
1144.5000;0.1490;10.4461;
1144.8000;0.1473;10.4437;
1145.1000;0.1457;10.4364;
1145.4000;0.1555;10.4533;
1145.7000;0.1441;10.4244;
1146.0000;0.1465;10.4316;
1146.3000;0.1490;10.4389;
1146.6000;0.1473;10.4364;
1146.9000;0.1522;10.4509;
1147.2000;0.1473;10.4461;
1147.5000;0.1473;10.4509;
1147.8000;0.1490;10.4461;
1148.1000;0.1449;10.4389;
1148.4000;0.1465;10.4389;
1148.7000;0.1392;10.4220;
1149.0000;0.1481;10.4389;
1149.3000;0.1473;10.4316;
1149.6000;0.1473;10.4340;
1149.9000;0.1506;10.4461;
1150.2000;0.1433;10.4220;
1150.5000;0.1433;10.4340;
1150.8000;0.1465;10.4389;
1151.1000;0.1481;10.4485;
1151.4000;0.1465;10.4533;
1151.7000;0.1457;10.4437;
1152.0000;0.1465;10.4581;
1152.3000;0.1465;10.4557;
1152.6000;0.1408;10.4364;
1152.9000;0.1441;10.4413;
1153.2000;0.1490;10.4485;
1153.5000;0.1416;10.4244;
1153.8000;0.1457;10.4364;
1154.1000;0.1498;10.4413;
1154.4000;0.1457;10.4413;
1154.7000;0.1457;10.4509;
1155.0000;0.1441;10.4437;
1155.3000;0.1490;10.4654;
1155.6000;0.1457;10.4533;
1155.9000;0.1481;10.4509;
1156.2000;0.1522;10.4533;
1156.5000;0.1490;10.4461;
1156.8000;0.1490;10.4364;
1157.1000;0.1465;10.4316;
1157.4000;0.1465;10.4413;
1157.7000;0.1538;10.4654;
1158.0000;0.1473;10.4437;
1158.3000;0.1392;10.4171;
1158.6000;0.1465;10.4437;
1158.9000;0.1473;10.4437;
1159.2000;0.1473;10.4461;
1159.5000;0.1473;10.4364;
1159.8000;0.1465;10.4340;
1160.1000;0.1465;10.4340;
1160.4000;0.1490;10.4340;
1160.7000;0.1473;10.4268;
1161.0000;0.1481;10.4220;
1161.3000;0.1473;10.4220;
1161.6000;0.1490;10.4292;
1161.9000;0.1498;10.4340;
1162.2000;0.1481;10.4389;
1162.5000;0.1465;10.4389;
1162.8000;0.1498;10.4461;
1163.1000;0.1481;10.4581;
1163.4000;0.1490;10.4581;
1163.7000;0.1473;10.4557;
1164.0000;0.1481;10.4533;
1164.3000;0.1490;10.4630;
1164.6000;0.1490;10.4630;
1164.9000;0.1498;10.4678;
1165.2000;0.1457;10.4461;
1165.5000;0.1441;10.4413;
1165.8000;0.1481;10.4364;
1166.1000;0.1506;10.4413;
1166.4000;0.1449;10.4316;
1166.7000;0.1457;10.4389;
1167.0000;0.1498;10.4437;
1167.3000;0.1490;10.4364;
1167.6000;0.1465;10.4244;
1167.9000;0.1481;10.4413;
1168.2000;0.1498;10.4389;
1168.5000;0.1376;10.4123;
1168.8000;0.1481;10.4292;
1169.1000;0.1481;10.4244;
1169.4000;0.1408;10.4147;
1169.7000;0.1481;10.4268;
1170.0000;0.1506;10.4171;
1170.3000;0.1473;10.4051;
1170.6000;0.1473;10.4147;
1170.9000;0.1481;10.4123;
1171.2000;0.1481;10.4075;
1171.5000;0.1465;10.4027;
1171.8000;0.1449;10.4003;
1172.1000;0.1490;10.4196;
1172.4000;0.1465;10.4123;
1172.7000;0.1490;10.4099;
1173.0000;0.1506;10.4123;
1173.3000;0.1555;10.4268;
1173.6000;0.1481;10.4244;
1173.9000;0.1465;10.4244;
1174.2000;0.1481;10.4292;
1174.5000;0.1481;10.4268;
1174.8000;0.1465;10.4268;
1175.1000;0.1465;10.4244;
1175.4000;0.1481;10.4437;
1175.7000;0.1490;10.4413;
1176.0000;0.1481;10.4461;
1176.3000;0.1449;10.4340;
1176.6000;0.1555;10.4630;
1176.9000;0.1425;10.4340;
1177.2000;0.1449;10.4340;
1177.5000;0.1506;10.4461;
1177.8000;0.1490;10.4413;
1178.1000;0.1465;10.4389;
1178.4000;0.1473;10.4340;
1178.7000;0.1457;10.4340;
1179.0000;0.1481;10.4413;
1179.3000;0.1465;10.4461;
1179.6000;0.1465;10.4461;
1179.9000;0.1498;10.4581;
1180.2000;0.1465;10.4485;
1180.5000;0.1473;10.4485;
1180.8000;0.1449;10.4389;
1181.1000;0.1481;10.4437;
1181.4000;0.1465;10.4437;
1181.7000;0.1465;10.4413;
1182.0000;0.1481;10.4461;
1182.3000;0.1384;10.4268;
1182.6000;0.1473;10.4461;
1182.9000;0.1473;10.4437;
1183.2000;0.1473;10.4389;
1183.5000;0.1473;10.4389;
1183.8000;0.1481;10.4485;
1184.1000;0.1490;10.4437;
1184.4000;0.1465;10.4316;
1184.7000;0.1441;10.4268;
1185.0000;0.1490;10.4413;
1185.3000;0.1473;10.4340;
1185.6000;0.1498;10.4389;
1185.9000;0.1481;10.4413;
1186.2000;0.1473;10.4364;
1186.5000;0.1473;10.4364;
1186.8000;0.1465;10.4268;
1187.1000;0.1514;10.4316;
1187.4000;0.1400;10.4171;
1187.7000;0.1473;10.4316;
1188.0000;0.1490;10.4340;
1188.3000;0.1449;10.4292;
1188.6000;0.1481;10.4413;
1188.9000;0.1473;10.4389;
1189.2000;0.1481;10.4292;
1189.5000;0.1506;10.4220;
1189.8000;0.1498;10.4147;
1190.1000;0.1457;10.4147;
1190.4000;0.1490;10.4220;
1190.7000;0.1449;10.4123;
1191.0000;0.1498;10.4268;
1191.3000;0.1473;10.4220;
1191.6000;0.1481;10.4196;
1191.9000;0.1465;10.4147;
1192.2000;0.1465;10.4220;
1192.5000;0.1416;10.4099;
1192.8000;0.1465;10.4196;
1193.1000;0.1465;10.4147;
1193.4000;0.1481;10.4147;
1193.7000;0.1473;10.4147;
1194.0000;0.1441;10.4123;
1194.3000;0.1481;10.4244;
1194.6000;0.1465;10.4171;
1194.9000;0.1490;10.4244;
1195.2000;0.1473;10.4220;
1195.5000;0.1433;10.4147;
1195.8000;0.1449;10.4171;
1196.1000;0.1465;10.4268;
1196.4000;0.1481;10.4340;
1196.7000;0.1465;10.4316;
1197.0000;0.1498;10.4413;
1197.3000;0.1465;10.4340;
1197.6000;0.1465;10.4413;
1197.9000;0.1506;10.4581;
1198.2000;0.1587;10.4750;
1198.5000;0.1473;10.4413;
1198.8000;0.1490;10.4340;
1199.1000;0.1490;10.4268;
1199.4000;0.1465;10.4268;
1199.7000;0.1481;10.4268;
1200.0000;0.1457;10.4196;
1200.3000;0.1498;10.4292;
1200.6000;0.1481;10.4268;
1200.9000;0.1490;10.4292;
1201.2000;0.1473;10.4196;
1201.5000;0.1498;10.4244;
1201.8000;0.1481;10.4268;
1202.1000;0.1465;10.4220;
1202.4000;0.1473;10.4196;
1202.7000;0.1473;10.4268;
1203.0000;0.1481;10.4244;
1203.3000;0.1490;10.4196;
1203.6000;0.1490;10.4268;
1203.9000;0.1473;10.4196;
1204.2000;0.1457;10.4220;
1204.5000;0.1490;10.4364;
1204.8000;0.1490;10.4364;
1205.1000;0.1530;10.4461;
1205.4000;0.1555;10.4437;
1205.7000;0.1457;10.4123;
1206.0000;0.1563;10.4509;
1206.3000;0.1465;10.4292;
1206.6000;0.1457;10.4268;
1206.9000;0.1457;10.4123;
1207.2000;0.1433;10.4051;
1207.5000;0.1465;10.4123;
1207.8000;0.1481;10.4220;
1208.1000;0.1571;10.4437;
1208.4000;0.1465;10.4075;
1208.7000;0.1465;10.4075;
1209.0000;0.1506;10.4268;
1209.3000;0.1481;10.4171;
1209.6000;0.1481;10.4196;
1209.9000;0.1481;10.4196;
1210.2000;0.1490;10.4220;
1210.5000;0.1490;10.4220;
1210.8000;0.1490;10.4196;
1211.1000;0.1473;10.4196;
1211.4000;0.1481;10.4244;
1211.7000;0.1481;10.4244;
1212.0000;0.1490;10.4244;
1212.3000;0.1498;10.4244;
1212.6000;0.1425;10.4099;
1212.9000;0.1498;10.4364;
1213.2000;0.1481;10.4268;
1213.5000;0.1473;10.4268;
1213.8000;0.1481;10.4244;
1214.1000;0.1498;10.4171;
1214.4000;0.1481;10.4147;
1214.7000;0.1368;10.3786;
1215.0000;0.1441;10.4075;
1215.3000;0.1473;10.4196;
1215.6000;0.1481;10.4244;
1215.9000;0.1473;10.4196;
1216.2000;0.1498;10.4220;
1216.5000;0.1481;10.4147;
1216.8000;0.1498;10.4147;
1217.1000;0.1481;10.4099;
1217.4000;0.1465;10.4075;
1217.7000;0.1473;10.4027;
1218.0000;0.1473;10.3882;
1218.3000;0.1473;10.3882;
1218.6000;0.1473;10.3858;
1218.9000;0.1473;10.3858;
1219.2000;0.1506;10.3954;
1219.5000;0.1490;10.3930;
1219.8000;0.1473;10.3978;
1220.1000;0.1416;10.3906;
1220.4000;0.1490;10.4075;
1220.7000;0.1473;10.4123;
1221.0000;0.1481;10.4099;
1221.3000;0.1465;10.4099;
1221.6000;0.1392;10.3858;
1221.9000;0.1449;10.4051;
1222.2000;0.1514;10.4244;
1222.5000;0.1465;10.4171;
1222.8000;0.1473;10.4196;
1223.1000;0.1481;10.4220;
1223.4000;0.1498;10.4171;
1223.7000;0.1473;10.4196;
1224.0000;0.1481;10.4316;
1224.3000;0.1490;10.4389;
1224.6000;0.1490;10.4292;
1224.9000;0.1408;10.4147;
1225.2000;0.1449;10.4244;
1225.5000;0.1490;10.4316;
1225.8000;0.1498;10.4413;
1226.1000;0.1481;10.4413;
1226.4000;0.1457;10.4413;
1226.7000;0.1481;10.4389;
1227.0000;0.1473;10.4413;
1227.3000;0.1481;10.4461;
1227.6000;0.1449;10.4340;
1227.9000;0.1473;10.4340;
1228.2000;0.1506;10.4413;
1228.5000;0.1481;10.4364;
1228.8000;0.1498;10.4364;
1229.1000;0.1506;10.4364;
1229.4000;0.1465;10.4340;
1229.7000;0.1481;10.4196;
1230.0000;0.1473;10.4220;
1230.3000;0.1481;10.4220;
1230.6000;0.1490;10.4292;
1230.9000;0.1498;10.4244;
1231.2000;0.1571;10.4437;
1231.5000;0.1473;10.4099;
1231.8000;0.1481;10.4123;
1232.1000;0.1465;10.4099;
1232.4000;0.1481;10.4099;
1232.7000;0.1465;10.4051;
1233.0000;0.1473;10.4171;
1233.3000;0.1481;10.4220;
1233.6000;0.1465;10.4244;
1233.9000;0.1473;10.4244;
1234.2000;0.1465;10.4292;
1234.5000;0.1490;10.4292;
1234.8000;0.1498;10.4316;
1235.1000;0.1498;10.4292;
1235.4000;0.1490;10.4268;
1235.7000;0.1498;10.4220;
1236.0000;0.1465;10.4123;
1236.3000;0.1490;10.4123;
1236.6000;0.1481;10.4196;
1236.9000;0.1490;10.4220;
1237.2000;0.1481;10.4147;
1237.5000;0.1490;10.4123;
1237.8000;0.1612;10.4389;
1238.1000;0.1457;10.4027;
1238.4000;0.1465;10.4051;
1238.7000;0.1473;10.4003;
1239.0000;0.1457;10.4075;
1239.3000;0.1481;10.4196;
1239.6000;0.1465;10.4171;
1239.9000;0.1490;10.4244;
1240.2000;0.1473;10.4196;
1240.5000;0.1465;10.4099;
1240.8000;0.1530;10.4196;
1241.1000;0.1481;10.4075;
1241.4000;0.1465;10.4099;
1241.7000;0.1465;10.4027;
1242.0000;0.1481;10.4027;
1242.3000;0.1481;10.4051;
1242.6000;0.1473;10.4099;
1242.9000;0.1538;10.4389;
1243.2000;0.1457;10.4292;
1243.5000;0.1473;10.4316;
1243.8000;0.1481;10.4389;
1244.1000;0.1425;10.4220;
1244.4000;0.1481;10.4268;
1244.7000;0.1416;10.4123;
1245.0000;0.1571;10.4437;
1245.3000;0.1490;10.4196;
1245.6000;0.1465;10.4099;
1245.9000;0.1465;10.4051;
1246.2000;0.1376;10.3834;
1246.5000;0.1514;10.4220;
1246.8000;0.1465;10.4123;
1247.1000;0.1457;10.4196;
1247.4000;0.1473;10.4147;
1247.7000;0.1481;10.4196;
1248.0000;0.1425;10.4051;
1248.3000;0.1490;10.4244;
1248.6000;0.1473;10.4268;
1248.9000;0.1449;10.4220;
1249.2000;0.1473;10.4340;
1249.5000;0.1473;10.4316;
1249.8000;0.1490;10.4364;
1250.1000;0.1441;10.4196;
1250.4000;0.1481;10.4244;
1250.7000;0.1490;10.4292;
1251.0000;0.1498;10.4413;
1251.3000;0.1481;10.4316;
1251.6000;0.1473;10.4292;
1251.9000;0.1359;10.4075;
1252.2000;0.1481;10.4413;
1252.5000;0.1481;10.4364;
1252.8000;0.1465;10.4364;
1253.1000;0.1457;10.4364;
1253.4000;0.1555;10.4726;
1253.7000;0.1473;10.4485;
1254.0000;0.1481;10.4557;
1254.3000;0.1514;10.4654;
1254.6000;0.1473;10.4557;
1254.9000;0.1457;10.4557;
1255.2000;0.1481;10.4581;
1255.5000;0.1473;10.4557;
1255.8000;0.1465;10.4509;
1256.1000;0.1465;10.4461;
1256.4000;0.1473;10.4485;
1256.7000;0.1473;10.4557;
1257.0000;0.1457;10.4461;
1257.3000;0.1441;10.4364;
1257.6000;0.1473;10.4461;
1257.9000;0.1473;10.4509;
1258.2000;0.1457;10.4509;
1258.5000;0.1473;10.4509;
1258.8000;0.1490;10.4413;
1259.1000;0.1498;10.4485;
1259.4000;0.1473;10.4461;
1259.7000;0.1490;10.4485;
1260.0000;0.1473;10.4461;
1260.3000;0.1481;10.4557;
1260.6000;0.1457;10.4533;
1260.9000;0.1473;10.4509;
1261.2000;0.1490;10.4606;
1261.5000;0.1490;10.4606;
1261.8000;0.1473;10.4606;
1262.1000;0.1473;10.4581;
1262.4000;0.1465;10.4557;
1262.7000;0.1481;10.4581;
1263.0000;0.1449;10.4509;
1263.3000;0.1473;10.4606;
1263.6000;0.1473;10.4630;
1263.9000;0.1538;10.4702;
1264.2000;0.1506;10.4557;
1264.5000;0.1473;10.4509;
1264.8000;0.1481;10.4533;
1265.1000;0.1498;10.4461;
1265.4000;0.1481;10.4389;
1265.7000;0.1490;10.4364;
1266.0000;0.1441;10.4292;
1266.3000;0.1465;10.4437;
1266.6000;0.1490;10.4557;
1266.9000;0.1490;10.4461;
1267.2000;0.1481;10.4437;
1267.5000;0.1481;10.4364;
1267.8000;0.1547;10.4509;
1268.1000;0.1498;10.4364;
1268.4000;0.1506;10.4389;
1268.7000;0.1465;10.4340;
1269.0000;0.1522;10.4389;
1269.3000;0.1481;10.4364;
1269.6000;0.1481;10.4292;
1269.9000;0.1490;10.4364;
1270.2000;0.1490;10.4364;
1270.5000;0.1490;10.4292;
1270.8000;0.1490;10.4340;
1271.1000;0.1506;10.4340;
1271.4000;0.1473;10.4364;
1271.7000;0.1490;10.4461;
1272.0000;0.1481;10.4413;
1272.3000;0.1506;10.4437;
1272.6000;0.1490;10.4413;
1272.9000;0.1481;10.4437;
1273.2000;0.1490;10.4389;
1273.5000;0.1473;10.4364;
1273.8000;0.1498;10.4340;
1274.1000;0.1481;10.4220;
1274.4000;0.1481;10.4171;
1274.7000;0.1490;10.4196;
1275.0000;0.1506;10.4244;
1275.3000;0.1473;10.4171;
1275.6000;0.1506;10.4389;
1275.9000;0.1498;10.4389;
1276.2000;0.1490;10.4364;
1276.5000;0.1490;10.4389;
1276.8000;0.1498;10.4461;
1277.1000;0.1473;10.4485;
1277.4000;0.1490;10.4509;
1277.7000;0.1498;10.4485;
1278.0000;0.1514;10.4606;
1278.3000;0.1498;10.4581;
1278.6000;0.1481;10.4557;
1278.9000;0.1449;10.4461;
1279.2000;0.1473;10.4509;
1279.5000;0.1457;10.4461;
1279.8000;0.1465;10.4437;
1280.1000;0.1490;10.4461;
1280.4000;0.1465;10.4485;
1280.7000;0.1465;10.4461;
1281.0000;0.1506;10.4557;
1281.3000;0.1490;10.4654;
1281.6000;0.1498;10.4654;
1281.9000;0.1473;10.4581;
1282.2000;0.1490;10.4654;
1282.5000;0.1481;10.4557;
1282.8000;0.1473;10.4630;
1283.1000;0.1490;10.4630;
1283.4000;0.1490;10.4606;
1283.7000;0.1384;10.4147;
1284.0000;0.1473;10.4389;
1284.3000;0.1481;10.4437;
1284.6000;0.1473;10.4437;
1284.9000;0.1547;10.4630;
1285.2000;0.1481;10.4461;
1285.5000;0.1490;10.4437;
1285.8000;0.1481;10.4413;
1286.1000;0.1498;10.4389;
1286.4000;0.1481;10.4364;
1286.7000;0.1490;10.4389;
1287.0000;0.1481;10.4389;
1287.3000;0.1465;10.4437;
1287.6000;0.1481;10.4509;
1287.9000;0.1408;10.4316;
1288.2000;0.1473;10.4485;
1288.5000;0.1490;10.4533;
1288.8000;0.1441;10.4268;
1289.1000;0.1465;10.4292;
1289.4000;0.1481;10.4437;
1289.7000;0.1465;10.4413;
1290.0000;0.1433;10.4340;
1290.3000;0.1481;10.4364;
1290.6000;0.1481;10.4364;
1290.9000;0.1465;10.4364;
1291.2000;0.1490;10.4509;
1291.5000;0.1498;10.4509;
1291.8000;0.1538;10.4630;
1292.1000;0.1473;10.4437;
1292.4000;0.1473;10.4413;
1292.7000;0.1457;10.4340;
1293.0000;0.1473;10.4413;
1293.3000;0.1490;10.4413;
1293.6000;0.1473;10.4389;
1293.9000;0.1473;10.4340;
1294.2000;0.1473;10.4340;
1294.5000;0.1522;10.4485;
1294.8000;0.1457;10.4413;
1295.1000;0.1490;10.4461;
1295.4000;0.1465;10.4413;
1295.7000;0.1473;10.4389;
1296.0000;0.1481;10.4389;
1296.3000;0.1498;10.4364;
1296.6000;0.1490;10.4389;
1296.9000;0.1498;10.4485;
1297.2000;0.1490;10.4413;
1297.5000;0.1498;10.4437;
1297.8000;0.1481;10.4461;
1298.1000;0.1473;10.4437;
1298.4000;0.1506;10.4509;
1298.7000;0.1506;10.4437;
1299.0000;0.1473;10.4413;
1299.3000;0.1449;10.4364;
1299.6000;0.1490;10.4437;
1299.9000;0.1490;10.4413;
1300.2000;0.1441;10.4220;
1300.5000;0.1465;10.4340;
1300.8000;0.1481;10.4340;
1301.1000;0.1481;10.4413;
1301.4000;0.1449;10.4316;
1301.7000;0.1408;10.4196;
1302.0000;0.1490;10.4461;
1302.3000;0.1481;10.4509;
1302.6000;0.1465;10.4533;
1302.9000;0.1481;10.4509;
1303.2000;0.1465;10.4509;
1303.5000;0.1490;10.4509;
1303.8000;0.1506;10.4485;
1304.1000;0.1465;10.4340;
1304.4000;0.1449;10.4244;
1304.7000;0.1473;10.4364;
1305.0000;0.1441;10.4316;
1305.3000;0.1481;10.4485;
1305.6000;0.1465;10.4485;
1305.9000;0.1490;10.4509;
1306.2000;0.1481;10.4533;
1306.5000;0.1498;10.4630;
1306.8000;0.1481;10.4533;
1307.1000;0.1481;10.4485;
1307.4000;0.1498;10.4557;
1307.7000;0.1490;10.4461;
1308.0000;0.1498;10.4533;
1308.3000;0.1457;10.4509;
1308.6000;0.1481;10.4581;
1308.9000;0.1481;10.4606;
1309.2000;0.1449;10.4485;
1309.5000;0.1465;10.4413;
1309.8000;0.1522;10.4606;
1310.1000;0.1465;10.4437;
1310.4000;0.1490;10.4461;
1310.7000;0.1473;10.4389;
1311.0000;0.1465;10.4340;
1311.3000;0.1498;10.4413;
1311.6000;0.1481;10.4364;
1311.9000;0.1481;10.4389;
1312.2000;0.1473;10.4316;
1312.5000;0.1490;10.4364;
1312.8000;0.1481;10.4364;
1313.1000;0.1481;10.4413;
1313.4000;0.1473;10.4389;
1313.7000;0.1481;10.4292;
1314.0000;0.1490;10.4340;
1314.3000;0.1481;10.4244;
1314.6000;0.1473;10.4364;
1314.9000;0.1490;10.4437;
1315.2000;0.1481;10.4437;
1315.5000;0.1473;10.4389;
1315.8000;0.1441;10.4244;
1316.1000;0.1481;10.4316;
1316.4000;0.1490;10.4389;
1316.7000;0.1498;10.4364;
1317.0000;0.1473;10.4244;
1317.3000;0.1490;10.4316;
1317.6000;0.1384;10.4196;
1317.9000;0.1481;10.4413;
1318.2000;0.1481;10.4316;
1318.5000;0.1490;10.4292;
1318.8000;0.1490;10.4268;
1319.1000;0.1522;10.4316;
1319.4000;0.1506;10.4220;
1319.7000;0.1481;10.4268;
1320.0000;0.1465;10.4196;
1320.3000;0.1473;10.4196;
1320.6000;0.1473;10.4292;
1320.9000;0.1490;10.4292;
1321.2000;0.1465;10.4244;
1321.5000;0.1490;10.4316;
1321.8000;0.1490;10.4413;
1322.1000;0.1473;10.4437;
1322.4000;0.1449;10.4364;
1322.7000;0.1473;10.4413;
1323.0000;0.1498;10.4485;
1323.3000;0.1481;10.4292;
1323.6000;0.1490;10.4316;
1323.9000;0.1506;10.4413;
1324.2000;0.1441;10.4340;
1324.5000;0.1473;10.4485;
1324.8000;0.1490;10.4485;
1325.1000;0.1473;10.4461;
1325.4000;0.1490;10.4509;
1325.7000;0.1481;10.4461;
1326.0000;0.1465;10.4533;
1326.3000;0.1465;10.4581;
1326.6000;0.1481;10.4557;
1326.9000;0.1473;10.4533;
1327.2000;0.1514;10.4630;
1327.5000;0.1481;10.4557;
1327.8000;0.1481;10.4654;
1328.1000;0.1481;10.4726;
1328.4000;0.1465;10.4678;
1328.7000;0.1481;10.4630;
1329.0000;0.1481;10.4678;
1329.3000;0.1465;10.4678;
1329.6000;0.1465;10.4678;
1329.9000;0.1465;10.4630;
1330.2000;0.1555;10.4943;
1330.5000;0.1498;10.4774;
1330.8000;0.1481;10.4702;
1331.1000;0.1498;10.4726;
1331.4000;0.1490;10.4654;
1331.7000;0.1490;10.4654;
1332.0000;0.1449;10.4606;
1332.3000;0.1530;10.4750;
1332.6000;0.1473;10.4557;
1332.9000;0.1465;10.4533;
1333.2000;0.1490;10.4557;
1333.5000;0.1490;10.4581;
1333.8000;0.1498;10.4630;
1334.1000;0.1433;10.4413;
1334.4000;0.1473;10.4533;
1334.7000;0.1473;10.4533;
1335.0000;0.1481;10.4533;
1335.3000;0.1473;10.4557;
1335.6000;0.1481;10.4533;
1335.9000;0.1473;10.4581;
1336.2000;0.1465;10.4581;
1336.5000;0.1490;10.4533;
1336.8000;0.1376;10.4292;
1337.1000;0.1481;10.4485;
1337.4000;0.1490;10.4533;
1337.7000;0.1481;10.4461;
1338.0000;0.1433;10.4461;
1338.3000;0.1506;10.4533;
1338.6000;0.1416;10.4316;
1338.9000;0.1473;10.4557;
1339.2000;0.1473;10.4678;
1339.5000;0.1441;10.4630;
1339.8000;0.1481;10.4630;
1340.1000;0.1473;10.4557;
1340.4000;0.1441;10.4437;
1340.7000;0.1490;10.4557;
1341.0000;0.1408;10.4413;
1341.3000;0.1490;10.4606;
1341.6000;0.1490;10.4630;
1341.9000;0.1490;10.4630;
1342.2000;0.1498;10.4702;
1342.5000;0.1473;10.4678;
1342.8000;0.1498;10.4726;
1343.1000;0.1286;10.4268;
1343.4000;0.1473;10.4726;
1343.7000;0.1481;10.4678;
1344.0000;0.1473;10.4557;
1344.3000;0.1481;10.4509;
1344.6000;0.1473;10.4461;
1344.9000;0.1473;10.4509;
1345.2000;0.1481;10.4509;
1345.5000;0.1481;10.4654;
1345.8000;0.1481;10.4630;
1346.1000;0.1490;10.4509;
1346.4000;0.1498;10.4413;
1346.7000;0.1490;10.4461;
1347.0000;0.1490;10.4413;
1347.3000;0.1481;10.4461;
1347.6000;0.1481;10.4509;
1347.9000;0.1473;10.4485;
1348.2000;0.1490;10.4606;
1348.5000;0.1481;10.4485;
1348.8000;0.1481;10.4557;
1349.1000;0.1473;10.4581;
1349.4000;0.1498;10.4678;
1349.7000;0.1481;10.4726;
1350.0000;0.1473;10.4678;
1350.3000;0.1481;10.4750;
1350.6000;0.1457;10.4678;
1350.9000;0.1490;10.4678;
1351.2000;0.1465;10.4557;
1351.5000;0.1481;10.4581;
1351.8000;0.1473;10.4630;
1352.1000;0.1481;10.4654;
1352.4000;0.1490;10.4799;
1352.7000;0.1473;10.4750;
1353.0000;0.1473;10.4678;
1353.3000;0.1473;10.4630;
1353.6000;0.1490;10.4654;
1353.9000;0.1498;10.4654;
1354.2000;0.1481;10.4630;
1354.5000;0.1392;10.4437;
1354.8000;0.1530;10.4702;
1355.1000;0.1490;10.4581;
1355.4000;0.1473;10.4606;
1355.7000;0.1555;10.4774;
1356.0000;0.1457;10.4630;
1356.3000;0.1538;10.4799;
1356.6000;0.1481;10.4630;
1356.9000;0.1457;10.4461;
1357.2000;0.1481;10.4509;
1357.5000;0.1481;10.4606;
1357.8000;0.1473;10.4557;
1358.1000;0.1457;10.4461;
1358.4000;0.1490;10.4581;
1358.7000;0.1490;10.4581;
1359.0000;0.1473;10.4557;
1359.3000;0.1506;10.4509;
1359.6000;0.1481;10.4485;
1359.9000;0.1498;10.4581;
1360.2000;0.1481;10.4533;
1360.5000;0.1457;10.4509;
1360.8000;0.1473;10.4485;
1361.1000;0.1465;10.4509;
1361.4000;0.1481;10.4437;
1361.7000;0.1465;10.4389;
1362.0000;0.1465;10.4364;
1362.3000;0.1441;10.4364;
1362.6000;0.1555;10.4630;
1362.9000;0.1522;10.4557;
1363.2000;0.1481;10.4509;
1363.5000;0.1473;10.4557;
1363.8000;0.1481;10.4557;
1364.1000;0.1506;10.4630;
1364.4000;0.1498;10.4557;
1364.7000;0.1498;10.4557;
1365.0000;0.1530;10.4750;
1365.3000;0.1498;10.4630;
1365.6000;0.1490;10.4654;
1365.9000;0.1481;10.4581;
1366.2000;0.1481;10.4630;
1366.5000;0.1465;10.4630;
1366.8000;0.1465;10.4702;
1367.1000;0.1457;10.4606;
1367.4000;0.1473;10.4606;
1367.7000;0.1473;10.4630;
1368.0000;0.1481;10.4654;
1368.3000;0.1498;10.4630;
1368.6000;0.1490;10.4606;
1368.9000;0.1490;10.4606;
1369.2000;0.1473;10.4581;
1369.5000;0.1473;10.4654;
1369.8000;0.1473;10.4702;
1370.1000;0.1498;10.4750;
1370.4000;0.1473;10.4654;
1370.7000;0.1449;10.4654;
1371.0000;0.1473;10.4750;
1371.3000;0.1481;10.4774;
1371.6000;0.1473;10.4750;
1371.9000;0.1498;10.4774;
1372.2000;0.1571;10.4943;
1372.5000;0.1506;10.4726;
1372.8000;0.1490;10.4702;
1373.1000;0.1457;10.4654;
1373.4000;0.1465;10.4678;
1373.7000;0.1522;10.4871;
1374.0000;0.1498;10.4726;
1374.3000;0.1465;10.4581;
1374.6000;0.1490;10.4630;
1374.9000;0.1490;10.4630;
1375.2000;0.1490;10.4678;
1375.5000;0.1506;10.4654;
1375.8000;0.1481;10.4654;
1376.1000;0.1425;10.4509;
1376.4000;0.1473;10.4654;
1376.7000;0.1433;10.4557;
1377.0000;0.1392;10.4389;
1377.3000;0.1457;10.4557;
1377.6000;0.1465;10.4557;
1377.9000;0.1498;10.4630;
1378.2000;0.1473;10.4606;
1378.5000;0.1465;10.4581;
1378.8000;0.1473;10.4581;
1379.1000;0.1416;10.4557;
1379.4000;0.1498;10.4774;
1379.7000;0.1416;10.4557;
1380.0000;0.1514;10.4750;
1380.3000;0.1490;10.4726;
1380.6000;0.1506;10.4750;
1380.9000;0.1465;10.4557;
1381.2000;0.1473;10.4509;
1381.5000;0.1498;10.4509;
1381.8000;0.1514;10.4533;
1382.1000;0.1481;10.4437;
1382.4000;0.1457;10.4364;
1382.7000;0.1490;10.4461;
1383.0000;0.1530;10.4533;
1383.3000;0.1490;10.4461;
1383.6000;0.1465;10.4461;
1383.9000;0.1473;10.4461;
1384.2000;0.1449;10.4437;
1384.5000;0.1481;10.4533;
1384.8000;0.1481;10.4557;
1385.1000;0.1481;10.4533;
1385.4000;0.1498;10.4606;
1385.7000;0.1490;10.4533;
1386.0000;0.1490;10.4413;
1386.3000;0.1473;10.4437;
1386.6000;0.1465;10.4437;
1386.9000;0.1481;10.4413;
1387.2000;0.1465;10.4364;
1387.5000;0.1473;10.4340;
1387.8000;0.1473;10.4437;
1388.1000;0.1473;10.4437;
1388.4000;0.1473;10.4485;
1388.7000;0.1465;10.4485;
1389.0000;0.1498;10.4557;
1389.3000;0.1473;10.4509;
1389.6000;0.1506;10.4557;
1389.9000;0.1481;10.4557;
1390.2000;0.1587;10.4871;
1390.5000;0.1490;10.4581;
1390.8000;0.1490;10.4557;
1391.1000;0.1481;10.4509;
1391.4000;0.1530;10.4606;
1391.7000;0.1481;10.4485;
1392.0000;0.1465;10.4389;
1392.3000;0.1473;10.4292;
1392.6000;0.1457;10.4196;
1392.9000;0.1473;10.4196;
1393.2000;0.1490;10.4340;
1393.5000;0.1465;10.4364;
1393.8000;0.1473;10.4340;
1394.1000;0.1473;10.4292;
1394.4000;0.1490;10.4413;
1394.7000;0.1481;10.4461;
1395.0000;0.1514;10.4630;
1395.3000;0.1514;10.4630;
1395.6000;0.1498;10.4557;
1395.9000;0.1490;10.4678;
1396.2000;0.1498;10.4654;
1396.5000;0.1481;10.4557;
1396.8000;0.1490;10.4509;
1397.1000;0.1490;10.4437;
1397.4000;0.1465;10.4364;
1397.7000;0.1473;10.4340;
1398.0000;0.1465;10.4316;
1398.3000;0.1408;10.4171;
1398.6000;0.1473;10.4244;
1398.9000;0.1465;10.4292;
1399.2000;0.1514;10.4509;
1399.5000;0.1481;10.4389;
1399.8000;0.1490;10.4485;
