time/ms;Fluo/V;P700 deltaI/I x10³;
-199.8000;0.1490;10.4823;
-199.5000;0.1506;10.4847;
-199.2000;0.1490;10.4774;
-198.9000;0.1506;10.4750;
-198.6000;0.1490;10.4606;
-198.3000;0.1506;10.4630;
-198.0000;0.1481;10.4581;
-197.7000;0.1498;10.4726;
-197.4000;0.1506;10.4895;
-197.1000;0.1490;10.4799;
-196.8000;0.1498;10.4919;
-196.5000;0.1473;10.4726;
-196.2000;0.1465;10.4726;
-195.9000;0.1465;10.4654;
-195.6000;0.1498;10.4799;
-195.3000;0.1506;10.4871;
-195.0000;0.1514;10.4895;
-194.7000;0.1425;10.4654;
-194.4000;0.1506;10.4919;
-194.1000;0.1530;10.5016;
-193.8000;0.1425;10.4702;
-193.5000;0.1506;10.4943;
-193.2000;0.1506;10.4919;
-192.9000;0.1490;10.4847;
-192.6000;0.1490;10.4774;
-192.3000;0.1506;10.4847;
-192.0000;0.1506;10.4799;
-191.7000;0.1514;10.4774;
-191.4000;0.1498;10.4774;
-191.1000;0.1457;10.4630;
-190.8000;0.1498;10.4799;
-190.5000;0.1441;10.4630;
-190.2000;0.1514;10.4799;
-189.9000;0.1441;10.4581;
-189.6000;0.1408;10.4485;
-189.3000;0.1498;10.4774;
-189.0000;0.1506;10.4726;
-188.7000;0.1490;10.4726;
-188.4000;0.1506;10.4678;
-188.1000;0.1449;10.4437;
-187.8000;0.1490;10.4485;
-187.5000;0.1498;10.4581;
-187.2000;0.1490;10.4557;
-186.9000;0.1498;10.4654;
-186.6000;0.1490;10.4630;
-186.3000;0.1490;10.4654;
-186.0000;0.1465;10.4654;
-185.7000;0.1571;10.4967;
-185.4000;0.1506;10.4823;
-185.1000;0.1498;10.4750;
-184.8000;0.1530;10.4726;
-184.5000;0.1604;10.4967;
-184.2000;0.1514;10.4702;
-183.9000;0.1506;10.4606;
-183.6000;0.1506;10.4702;
-183.3000;0.1465;10.4581;
-183.0000;0.1514;10.4799;
-182.7000;0.1498;10.4750;
-182.4000;0.1490;10.4750;
-182.1000;0.1473;10.4774;
-181.8000;0.1547;10.4991;
-181.5000;0.1473;10.4774;
-181.2000;0.1498;10.4943;
-180.9000;0.1473;10.4895;
-180.6000;0.1490;10.4991;
-180.3000;0.1473;10.4871;
-180.0000;0.1514;10.4895;
-179.7000;0.1490;10.4823;
-179.4000;0.1538;10.4943;
-179.1000;0.1506;10.4943;
-178.8000;0.1530;10.4991;
-178.5000;0.1498;10.4847;
-178.2000;0.1481;10.4847;
-177.9000;0.1498;10.4967;
-177.6000;0.1506;10.4943;
-177.3000;0.1481;10.4847;
-177.0000;0.1490;10.4847;
-176.7000;0.1490;10.4823;
-176.4000;0.1498;10.4823;
-176.1000;0.1506;10.4847;
-175.8000;0.1481;10.4702;
-175.5000;0.1506;10.4702;
-175.2000;0.1490;10.4654;
-174.9000;0.1490;10.4630;
-174.6000;0.1416;10.4461;
-174.3000;0.1514;10.4702;
-174.0000;0.1490;10.4678;
-173.7000;0.1506;10.4678;
-173.4000;0.1522;10.4630;
-173.1000;0.1571;10.4678;
-172.8000;0.1490;10.4485;
-172.5000;0.1498;10.4533;
-172.2000;0.1506;10.4557;
-171.9000;0.1498;10.4509;
-171.6000;0.1514;10.4557;
-171.3000;0.1506;10.4630;
-171.0000;0.1530;10.4678;
-170.7000;0.1498;10.4654;
-170.4000;0.1490;10.4630;
-170.1000;0.1498;10.4678;
-169.8000;0.1530;10.4750;
-169.5000;0.1498;10.4654;
-169.2000;0.1506;10.4654;
-168.9000;0.1506;10.4654;
-168.6000;0.1498;10.4630;
-168.3000;0.1522;10.4533;
-168.0000;0.1490;10.4485;
-167.7000;0.1506;10.4509;
-167.4000;0.1514;10.4509;
-167.1000;0.1490;10.4461;
-166.8000;0.1506;10.4557;
-166.5000;0.1522;10.4581;
-166.2000;0.1498;10.4485;
-165.9000;0.1481;10.4461;
-165.6000;0.1498;10.4630;
-165.3000;0.1498;10.4726;
-165.0000;0.1522;10.4702;
-164.7000;0.1514;10.4750;
-164.4000;0.1514;10.4702;
-164.1000;0.1490;10.4654;
-163.8000;0.1498;10.4654;
-163.5000;0.1522;10.4799;
-163.2000;0.1449;10.4533;
-162.9000;0.1490;10.4678;
-162.6000;0.1498;10.4750;
-162.3000;0.1522;10.4823;
-162.0000;0.1506;10.4726;
-161.7000;0.1490;10.4702;
-161.4000;0.1490;10.4774;
-161.1000;0.1490;10.4823;
-160.8000;0.1490;10.4823;
-160.5000;0.1498;10.4847;
-160.2000;0.1481;10.4847;
-159.9000;0.1498;10.4871;
-159.6000;0.1490;10.4823;
-159.3000;0.1490;10.4823;
-159.0000;0.1473;10.4799;
-158.7000;0.1555;10.5016;
-158.4000;0.1498;10.4799;
-158.1000;0.1473;10.4726;
-157.8000;0.1490;10.4726;
-157.5000;0.1514;10.4823;
-157.2000;0.1506;10.4726;
-156.9000;0.1506;10.4799;
-156.6000;0.1481;10.4678;
-156.3000;0.1490;10.4726;
-156.0000;0.1465;10.4702;
-155.7000;0.1514;10.4799;
-155.4000;0.1506;10.4823;
-155.1000;0.1490;10.4702;
-154.8000;0.1498;10.4654;
-154.5000;0.1465;10.4581;
-154.2000;0.1490;10.4581;
-153.9000;0.1481;10.4461;
-153.6000;0.1425;10.4413;
-153.3000;0.1506;10.4606;
-153.0000;0.1490;10.4461;
-152.7000;0.1490;10.4557;
-152.4000;0.1433;10.4364;
-152.1000;0.1498;10.4461;
-151.8000;0.1481;10.4413;
-151.5000;0.1465;10.4413;
-151.2000;0.1449;10.4461;
-150.9000;0.1481;10.4630;
-150.6000;0.1473;10.4654;
-150.3000;0.1465;10.4654;
-150.0000;0.1498;10.4678;
-149.7000;0.1547;10.4823;
-149.4000;0.1490;10.4726;
-149.1000;0.1457;10.4533;
-148.8000;0.1498;10.4654;
-148.5000;0.1400;10.4196;
-148.2000;0.1514;10.4461;
-147.9000;0.1538;10.4461;
-147.6000;0.1481;10.4340;
-147.3000;0.1473;10.4389;
-147.0000;0.1498;10.4485;
-146.7000;0.1498;10.4509;
-146.4000;0.1490;10.4533;
-146.1000;0.1498;10.4654;
-145.8000;0.1506;10.4774;
-145.5000;0.1490;10.4678;
-145.2000;0.1498;10.4654;
-144.9000;0.1498;10.4606;
-144.6000;0.1490;10.4557;
-144.3000;0.1481;10.4606;
-144.0000;0.1506;10.4678;
-143.7000;0.1498;10.4750;
-143.4000;0.1490;10.4726;
-143.1000;0.1530;10.4774;
-142.8000;0.1490;10.4750;
-142.5000;0.1506;10.4847;
-142.2000;0.1481;10.4823;
-141.9000;0.1498;10.4967;
-141.6000;0.1490;10.4943;
-141.3000;0.1473;10.4895;
-141.0000;0.1490;10.4895;
-140.7000;0.1481;10.4823;
-140.4000;0.1490;10.4847;
-140.1000;0.1498;10.4895;
-139.8000;0.1498;10.4847;
-139.5000;0.1506;10.4823;
-139.2000;0.1481;10.4774;
-138.9000;0.1498;10.4750;
-138.6000;0.1522;10.4726;
-138.3000;0.1498;10.4654;
-138.0000;0.1498;10.4799;
-137.7000;0.1490;10.4799;
-137.4000;0.1498;10.4750;
-137.1000;0.1506;10.4774;
-136.8000;0.1514;10.4799;
-136.5000;0.1490;10.4774;
-136.2000;0.1498;10.4799;
-135.9000;0.1498;10.4726;
-135.6000;0.1498;10.4799;
-135.3000;0.1490;10.4774;
-135.0000;0.1498;10.4750;
-134.7000;0.1514;10.4823;
-134.4000;0.1506;10.4750;
-134.1000;0.1522;10.4823;
-133.8000;0.1498;10.4799;
-133.5000;0.1481;10.4799;
-133.2000;0.1481;10.4750;
-132.9000;0.1481;10.4678;
-132.6000;0.1547;10.4799;
-132.3000;0.1498;10.4678;
-132.0000;0.1490;10.4630;
-131.7000;0.1506;10.4654;
-131.4000;0.1506;10.4726;
-131.1000;0.1571;10.4943;
-130.8000;0.1490;10.4847;
-130.5000;0.1498;10.4919;
-130.2000;0.1498;10.4919;
-129.9000;0.1490;10.4895;
-129.6000;0.1498;10.4943;
-129.3000;0.1490;10.4967;
-129.0000;0.1571;10.5064;
-128.7000;0.1498;10.4919;
-128.4000;0.1498;10.4943;
-128.1000;0.1498;10.4895;
-127.8000;0.1490;10.4847;
-127.5000;0.1498;10.4774;
-127.2000;0.1498;10.4702;
-126.9000;0.1506;10.4750;
-126.6000;0.1457;10.4581;
-126.3000;0.1490;10.4702;
-126.0000;0.1490;10.4726;
-125.7000;0.1498;10.4799;
-125.4000;0.1522;10.4967;
-125.1000;0.1506;10.4823;
-124.8000;0.1538;10.4967;
-124.5000;0.1514;10.4823;
-124.2000;0.1498;10.4823;
-123.9000;0.1490;10.4774;
-123.6000;0.1490;10.4654;
-123.3000;0.1506;10.4654;
-123.0000;0.1514;10.4678;
-122.7000;0.1506;10.4654;
-122.4000;0.1498;10.4630;
-122.1000;0.1490;10.4606;
-121.8000;0.1636;10.4967;
-121.5000;0.1498;10.4606;
-121.2000;0.1490;10.4630;
-120.9000;0.1433;10.4557;
-120.6000;0.1514;10.4702;
-120.3000;0.1490;10.4678;
-120.0000;0.1490;10.4654;
-119.7000;0.1473;10.4606;
-119.4000;0.1498;10.4678;
-119.1000;0.1498;10.4581;
-118.8000;0.1490;10.4485;
-118.5000;0.1506;10.4461;
-118.2000;0.1490;10.4364;
-117.9000;0.1457;10.4292;
-117.6000;0.1506;10.4413;
-117.3000;0.1481;10.4316;
-117.0000;0.1498;10.4340;
-116.7000;0.1490;10.4437;
-116.4000;0.1506;10.4413;
-116.1000;0.1522;10.4364;
-115.8000;0.1481;10.4292;
-115.5000;0.1490;10.4340;
-115.2000;0.1506;10.4389;
-114.9000;0.1481;10.4364;
-114.6000;0.1473;10.4340;
-114.3000;0.1490;10.4389;
-114.0000;0.1538;10.4606;
-113.7000;0.1506;10.4533;
-113.4000;0.1498;10.4413;
-113.1000;0.1506;10.4364;
-112.8000;0.1441;10.4389;
-112.5000;0.1555;10.4702;
-112.2000;0.1490;10.4485;
-111.9000;0.1604;10.4774;
-111.6000;0.1563;10.4678;
-111.3000;0.1490;10.4437;
-111.0000;0.1490;10.4413;
-110.7000;0.1408;10.4196;
-110.4000;0.1481;10.4461;
-110.1000;0.1457;10.4413;
-109.8000;0.1481;10.4509;
-109.5000;0.1506;10.4533;
-109.2000;0.1530;10.4509;
-108.9000;0.1498;10.4461;
-108.6000;0.1506;10.4437;
-108.3000;0.1473;10.4340;
-108.0000;0.1555;10.4509;
-107.7000;0.1490;10.4364;
-107.4000;0.1579;10.4678;
-107.1000;0.1490;10.4437;
-106.8000;0.1449;10.4292;
-106.5000;0.1490;10.4461;
-106.2000;0.1506;10.4606;
-105.9000;0.1530;10.4702;
-105.6000;0.1498;10.4630;
-105.3000;0.1490;10.4557;
-105.0000;0.1514;10.4557;
-104.7000;0.1498;10.4557;
-104.4000;0.1498;10.4461;
-104.1000;0.1473;10.4437;
-103.8000;0.1530;10.4606;
-103.5000;0.1473;10.4581;
-103.2000;0.1506;10.4630;
-102.9000;0.1530;10.4702;
-102.6000;0.1571;10.4847;
-102.3000;0.1506;10.4702;
-102.0000;0.1506;10.4702;
-101.7000;0.1506;10.4606;
-101.4000;0.1498;10.4557;
-101.1000;0.1498;10.4533;
-100.8000;0.1490;10.4533;
-100.5000;0.1473;10.4557;
-100.2000;0.1490;10.4630;
-99.9000;0.1506;10.4630;
-99.6000;0.1498;10.4606;
-99.3000;0.1498;10.4509;
-99.0000;0.1498;10.4533;
-98.7000;0.1506;10.4461;
-98.4000;0.1481;10.4509;
-98.1000;0.1473;10.4533;
-97.8000;0.1506;10.4557;
-97.5000;0.1514;10.4533;
-97.2000;0.1555;10.4581;
-96.9000;0.1473;10.4413;
-96.6000;0.1555;10.4606;
-96.3000;0.1481;10.4340;
-96.0000;0.1490;10.4340;
-95.7000;0.1490;10.4364;
-95.4000;0.1490;10.4413;
-95.1000;0.1498;10.4389;
-94.8000;0.1490;10.4389;
-94.5000;0.1490;10.4413;
-94.2000;0.1465;10.4340;
-93.9000;0.1473;10.4340;
-93.6000;0.1514;10.4364;
-93.3000;0.1498;10.4364;
-93.0000;0.1498;10.4413;
-92.7000;0.1506;10.4485;
-92.4000;0.1506;10.4461;
-92.1000;0.1506;10.4485;
-91.8000;0.1506;10.4461;
-91.5000;0.1498;10.4485;
-91.2000;0.1506;10.4606;
-90.9000;0.1498;10.4654;
-90.6000;0.1490;10.4509;
-90.3000;0.1490;10.4509;
-90.0000;0.1490;10.4461;
-89.7000;0.1498;10.4485;
-89.4000;0.1498;10.4509;
-89.1000;0.1490;10.4533;
-88.8000;0.1457;10.4533;
-88.5000;0.1498;10.4533;
-88.2000;0.1498;10.4461;
-87.9000;0.1481;10.4437;
-87.6000;0.1498;10.4485;
-87.3000;0.1522;10.4581;
-87.0000;0.1498;10.4581;
-86.7000;0.1408;10.4437;
-86.4000;0.1457;10.4533;
-86.1000;0.1514;10.4557;
-85.8000;0.1506;10.4581;
-85.5000;0.1490;10.4606;
-85.2000;0.1498;10.4654;
-84.9000;0.1506;10.4774;
-84.6000;0.1490;10.4774;
-84.3000;0.1522;10.4823;
-84.0000;0.1457;10.4750;
-83.7000;0.1490;10.4774;
-83.4000;0.1506;10.4750;
-83.1000;0.1506;10.4823;
-82.8000;0.1490;10.4726;
-82.5000;0.1490;10.4654;
-82.2000;0.1530;10.4799;
-81.9000;0.1514;10.4702;
-81.6000;0.1481;10.4678;
-81.3000;0.1481;10.4630;
-81.0000;0.1538;10.4774;
-80.7000;0.1490;10.4678;
-80.4000;0.1522;10.4799;
-80.1000;0.1498;10.4750;
-79.8000;0.1506;10.4799;
-79.5000;0.1490;10.4654;
-79.2000;0.1506;10.4630;
-78.9000;0.1490;10.4581;
-78.6000;0.1481;10.4557;
-78.3000;0.1530;10.4654;
-78.0000;0.1514;10.4654;
-77.7000;0.1498;10.4654;
-77.4000;0.1498;10.4702;
-77.1000;0.1490;10.4726;
-76.8000;0.1514;10.4774;
-76.5000;0.1514;10.4774;
-76.2000;0.1490;10.4702;
-75.9000;0.1498;10.4702;
-75.6000;0.1514;10.4799;
-75.3000;0.1490;10.4726;
-75.0000;0.1498;10.4750;
-74.7000;0.1506;10.4823;
-74.4000;0.1498;10.4774;
-74.1000;0.1506;10.4774;
-73.8000;0.1498;10.4726;
-73.5000;0.1481;10.4847;
-73.2000;0.1522;10.4895;
-72.9000;0.1530;10.4847;
-72.6000;0.1514;10.4774;
-72.3000;0.1481;10.4702;
-72.0000;0.1490;10.4799;
-71.7000;0.1506;10.4774;
-71.4000;0.1490;10.4774;
-71.1000;0.1490;10.4774;
-70.8000;0.1498;10.4702;
-70.5000;0.1473;10.4726;
-70.2000;0.1555;10.4967;
-69.9000;0.1481;10.4847;
-69.6000;0.1481;10.4799;
-69.3000;0.1498;10.4799;
-69.0000;0.1506;10.4823;
-68.7000;0.1481;10.4774;
-68.4000;0.1506;10.4823;
-68.1000;0.1514;10.4823;
-67.8000;0.1506;10.4726;
-67.5000;0.1490;10.4702;
-67.2000;0.1498;10.4774;
-66.9000;0.1522;10.4871;
-66.6000;0.1498;10.4823;
-66.3000;0.1498;10.4895;
-66.0000;0.1498;10.4919;
-65.7000;0.1490;10.4919;
-65.4000;0.1498;10.4871;
-65.1000;0.1506;10.4847;
-64.8000;0.1490;10.4750;
-64.5000;0.1457;10.4678;
-64.2000;0.1498;10.4823;
-63.9000;0.1498;10.4871;
-63.6000;0.1555;10.4967;
-63.3000;0.1457;10.4847;
-63.0000;0.1506;10.4967;
-62.7000;0.1506;10.4895;
-62.4000;0.1498;10.4847;
-62.1000;0.1506;10.4799;
-61.8000;0.1498;10.4774;
-61.5000;0.1506;10.4750;
-61.2000;0.1490;10.4654;
-60.9000;0.1498;10.4654;
-60.6000;0.1481;10.4702;
-60.3000;0.1579;10.5040;
-60.0000;0.1416;10.4581;
-59.7000;0.1498;10.4774;
-59.4000;0.1498;10.4823;
-59.1000;0.1490;10.4847;
-58.8000;0.1506;10.4847;
-58.5000;0.1473;10.4799;
-58.2000;0.1481;10.4823;
-57.9000;0.1490;10.4823;
-57.6000;0.1490;10.4871;
-57.3000;0.1506;10.4943;
-57.0000;0.1473;10.4871;
-56.7000;0.1498;10.4871;
-56.4000;0.1506;10.4871;
-56.1000;0.1498;10.4967;
-55.8000;0.1490;10.4919;
-55.5000;0.1498;10.4943;
-55.2000;0.1514;10.4919;
-54.9000;0.1514;10.4847;
-54.6000;0.1498;10.4799;
-54.3000;0.1481;10.4823;
-54.0000;0.1490;10.4823;
-53.7000;0.1498;10.4895;
-53.4000;0.1481;10.4774;
-53.1000;0.1449;10.4630;
-52.8000;0.1490;10.4702;
-52.5000;0.1498;10.4654;
-52.2000;0.1473;10.4557;
-51.9000;0.1490;10.4606;
-51.6000;0.1506;10.4630;
-51.3000;0.1522;10.4678;
-51.0000;0.1530;10.4678;
-50.7000;0.1522;10.4678;
-50.4000;0.1522;10.4702;
-50.1000;0.1490;10.4654;
-49.8000;0.1498;10.4726;
-49.5000;0.1514;10.4895;
-49.2000;0.1490;10.4799;
-48.9000;0.1498;10.4871;
-48.6000;0.1473;10.4895;
-48.3000;0.1522;10.4895;
-48.0000;0.1490;10.4750;
-47.7000;0.1441;10.4606;
-47.4000;0.1457;10.4557;
-47.1000;0.1490;10.4678;
-46.8000;0.1506;10.4726;
-46.5000;0.1506;10.4823;
-46.2000;0.1538;10.4847;
-45.9000;0.1498;10.4726;
-45.6000;0.1490;10.4750;
-45.3000;0.1498;10.4774;
-45.0000;0.1514;10.4823;
-44.7000;0.1498;10.4799;
-44.4000;0.1498;10.4823;
-44.1000;0.1490;10.4774;
-43.8000;0.1490;10.4702;
-43.5000;0.1481;10.4654;
-43.2000;0.1490;10.4726;
-42.9000;0.1490;10.4678;
-42.6000;0.1498;10.4702;
-42.3000;0.1514;10.4750;
-42.0000;0.1490;10.4678;
-41.7000;0.1490;10.4654;
-41.4000;0.1481;10.4750;
-41.1000;0.1481;10.4823;
-40.8000;0.1498;10.4823;
-40.5000;0.1481;10.4702;
-40.2000;0.1481;10.4750;
-39.9000;0.1490;10.4726;
-39.6000;0.1490;10.4630;
-39.3000;0.1481;10.4606;
-39.0000;0.1481;10.4557;
-38.7000;0.1490;10.4630;
-38.4000;0.1498;10.4726;
-38.1000;0.1490;10.4726;
-37.8000;0.1506;10.4702;
-37.5000;0.1498;10.4750;
-37.2000;0.1506;10.4823;
-36.9000;0.1490;10.4799;
-36.6000;0.1498;10.4750;
-36.3000;0.1490;10.4823;
-36.0000;0.1498;10.4799;
-35.7000;0.1522;10.4919;
-35.4000;0.1457;10.4823;
-35.1000;0.1498;10.4847;
-34.8000;0.1506;10.4919;
-34.5000;0.1498;10.4943;
-34.2000;0.1490;10.4943;
-33.9000;0.1498;10.4967;
-33.6000;0.1490;10.4919;
-33.3000;0.1506;10.4943;
-33.0000;0.1498;10.4919;
-32.7000;0.1465;10.4871;
-32.4000;0.1506;10.4919;
-32.1000;0.1506;10.4967;
-31.8000;0.1506;10.4895;
-31.5000;0.1547;10.5064;
-31.2000;0.1514;10.5016;
-30.9000;0.1514;10.4943;
-30.6000;0.1571;10.5088;
-30.3000;0.1506;10.4943;
-30.0000;0.1490;10.4823;
-29.7000;0.1514;10.4871;
-29.4000;0.1506;10.4774;
-29.1000;0.1465;10.4630;
-28.8000;0.1481;10.4702;
-28.5000;0.1490;10.4654;
-28.2000;0.1506;10.4630;
-27.9000;0.1498;10.4630;
-27.6000;0.1498;10.4581;
-27.3000;0.1481;10.4630;
-27.0000;0.1506;10.4726;
-26.7000;0.1481;10.4678;
-26.4000;0.1481;10.4799;
-26.1000;0.1530;10.4967;
-25.8000;0.1498;10.4943;
-25.5000;0.1506;10.4991;
-25.2000;0.1481;10.4991;
-24.9000;0.1522;10.5088;
-24.6000;0.1506;10.4991;
-24.3000;0.1490;10.4919;
-24.0000;0.1522;10.5016;
-23.7000;0.1563;10.5040;
-23.4000;0.1490;10.4895;
-23.1000;0.1514;10.4967;
-22.8000;0.1481;10.4895;
-22.5000;0.1490;10.4847;
-22.2000;0.1465;10.4799;
-21.9000;0.1514;10.4919;
-21.6000;0.1457;10.4823;
-21.3000;0.1490;10.4895;
-21.0000;0.1498;10.4895;
-20.7000;0.1506;10.4943;
-20.4000;0.1522;10.5016;
-20.1000;0.1473;10.4799;
-19.8000;0.1498;10.4799;
-19.5000;0.1506;10.4750;
-19.2000;0.1498;10.4774;
-18.9000;0.1490;10.4774;
-18.6000;0.1490;10.4799;
-18.3000;0.1481;10.4895;
-18.0000;0.1595;10.5184;
-17.7000;0.1490;10.4943;
-17.4000;0.1506;10.4991;
-17.1000;0.1498;10.4943;
-16.8000;0.1490;10.4847;
-16.5000;0.1498;10.4799;
-16.2000;0.1490;10.4750;
-15.9000;0.1506;10.4823;
-15.6000;0.1514;10.4847;
-15.3000;0.1522;10.4871;
-15.0000;0.1490;10.4799;
-14.7000;0.1506;10.4919;
-14.4000;0.1490;10.4871;
-14.1000;0.1490;10.4823;
-13.8000;0.1522;10.4871;
-13.5000;0.1563;10.4943;
-13.2000;0.1506;10.4847;
-12.9000;0.1522;10.4823;
-12.6000;0.1490;10.4774;
-12.3000;0.1490;10.4799;
-12.0000;0.1498;10.4799;
-11.7000;0.1490;10.4774;
-11.4000;0.1481;10.4799;
-11.1000;0.1498;10.4799;
-10.8000;0.1416;10.4437;
-10.5000;0.1498;10.4702;
-10.2000;0.1506;10.4654;
-9.9000;0.1498;10.4630;
-9.6000;0.1481;10.4702;
-9.3000;0.1514;10.4702;
-9.0000;0.1498;10.4630;
-8.7000;0.1498;10.4630;
-8.4000;0.1490;10.4726;
-8.1000;0.1498;10.4799;
-7.8000;0.1514;10.4895;
-7.5000;0.1481;10.4847;
-7.2000;0.1490;10.4799;
-6.9000;0.1425;10.4581;
-6.6000;0.1506;10.4750;
-6.3000;0.1490;10.4726;
-6.0000;0.1506;10.4895;
-5.7000;0.1498;10.4895;
-5.4000;0.1498;10.4871;
-5.1000;0.1498;10.4726;
-4.8000;0.1498;10.4750;
-4.5000;0.1522;10.4871;
-4.2000;0.1490;10.4847;
-3.9000;0.1514;10.4823;
-3.6000;0.1506;10.4750;
-3.3000;0.1481;10.4823;
-3.0000;0.1490;10.4895;
-2.7000;0.1490;10.4823;
-2.4000;0.1498;10.4774;
-2.1000;0.1473;10.4774;
-1.8000;0.1481;10.4774;
-1.5000;0.1506;10.4847;
-1.2000;0.1538;10.5016;
-0.9000;0.1498;10.4847;
-0.6000;0.1490;10.4919;
-0.3000;0.1514;10.4991;
0.0000;0.1514;10.4991;
0.3000;0.1384;10.4606;
0.6000;0.1514;10.5088;
0.9000;0.1506;10.5329;
1.2000;0.1498;10.5474;
1.5000;0.1530;10.5787;
1.8000;0.1555;10.6005;
2.1000;0.1604;10.6270;
2.4000;0.1579;10.6415;
2.7000;0.1604;10.6583;
3.0000;0.1620;10.6656;
3.3000;0.1612;10.6752;
3.6000;0.1620;10.6873;
3.9000;0.1620;10.6969;
4.2000;0.1612;10.6945;
4.5000;0.1636;10.7114;
4.8000;0.1620;10.7259;
5.1000;0.1620;10.7307;
5.4000;0.1652;10.7428;
5.7000;0.1636;10.7331;
6.0000;0.1636;10.7307;
6.3000;0.1644;10.7283;
6.6000;0.1628;10.7259;
6.9000;0.1620;10.7186;
7.2000;0.1644;10.7259;
7.5000;0.1644;10.7235;
7.8000;0.1636;10.7331;
8.1000;0.1636;10.7452;
8.4000;0.1636;10.7452;
8.7000;0.1628;10.7452;
9.0000;0.1652;10.7452;
9.3000;0.1636;10.7379;
9.6000;0.1620;10.7403;
9.9000;0.1652;10.7500;
10.2000;0.1604;10.7428;
10.5000;0.1628;10.7524;
10.8000;0.1636;10.7476;
11.1000;0.1652;10.7500;
11.4000;0.1652;10.7476;
11.7000;0.1636;10.7452;
12.0000;0.1652;10.7476;
12.3000;0.1644;10.7452;
12.6000;0.1644;10.7452;
12.9000;0.1644;10.7500;
13.2000;0.1652;10.7500;
13.5000;0.1669;10.7572;
13.8000;0.1661;10.7524;
14.1000;0.1669;10.7548;
14.4000;0.1661;10.7428;
14.7000;0.1644;10.7428;
15.0000;0.1685;10.7524;
15.3000;0.1636;10.7403;
15.6000;0.1652;10.7428;
15.9000;0.1620;10.7355;
16.2000;0.1620;10.7355;
16.5000;0.1644;10.7476;
16.8000;0.1628;10.7500;
17.1000;0.1636;10.7452;
17.4000;0.1644;10.7428;
17.7000;0.1636;10.7403;
18.0000;0.1628;10.7331;
18.3000;0.1652;10.7452;
18.6000;0.1669;10.7476;
18.9000;0.1628;10.7452;
19.2000;0.1628;10.7428;
19.5000;0.1661;10.7548;
19.8000;0.1652;10.7524;
20.1000;0.1604;10.7355;
20.4000;0.1685;10.7452;
20.7000;0.1652;10.7355;
21.0000;0.1636;10.7379;
21.3000;0.1669;10.7476;
21.6000;0.1661;10.7452;
21.9000;0.1628;10.7403;
22.2000;0.1652;10.7476;
22.5000;0.1644;10.7428;
22.8000;0.1612;10.7403;
23.1000;0.1620;10.7524;
23.4000;0.1669;10.7548;
23.7000;0.1685;10.7428;
24.0000;0.1636;10.7403;
24.3000;0.1636;10.7428;
24.6000;0.1612;10.7355;
24.9000;0.1636;10.7403;
25.2000;0.1636;10.7452;
25.5000;0.1644;10.7452;
25.8000;0.1620;10.7428;
26.1000;0.1628;10.7524;
26.4000;0.1644;10.7645;
26.7000;0.1636;10.7621;
27.0000;0.1612;10.7500;
27.3000;0.1628;10.7572;
27.6000;0.1636;10.7621;
27.9000;0.1628;10.7717;
28.2000;0.1636;10.7717;
28.5000;0.1620;10.7669;
28.8000;0.1661;10.7717;
29.1000;0.1644;10.7645;
29.4000;0.1652;10.7621;
29.7000;0.1644;10.7693;
30.0000;0.1636;10.7621;
30.3000;0.1661;10.7669;
30.6000;0.1636;10.7572;
30.9000;0.1636;10.7476;
31.2000;0.1652;10.7476;
31.5000;0.1644;10.7452;
31.8000;0.1636;10.7524;
32.1000;0.1628;10.7548;
32.4000;0.1612;10.7500;
32.7000;0.1612;10.7500;
33.0000;0.1652;10.7500;
33.3000;0.1620;10.7452;
33.6000;0.1652;10.7452;
33.9000;0.1620;10.7476;
34.2000;0.1636;10.7524;
34.5000;0.1604;10.7428;
34.8000;0.1636;10.7572;
35.1000;0.1669;10.7621;
35.4000;0.1661;10.7572;
35.7000;0.1652;10.7548;
36.0000;0.1628;10.7428;
36.3000;0.1612;10.7379;
36.6000;0.1612;10.7452;
36.9000;0.1652;10.7500;
37.2000;0.1636;10.7428;
37.5000;0.1701;10.7596;
37.8000;0.1636;10.7524;
38.1000;0.1636;10.7524;
38.4000;0.1620;10.7452;
38.7000;0.1620;10.7307;
39.0000;0.1636;10.7307;
39.3000;0.1636;10.7403;
39.6000;0.1514;10.6993;
39.9000;0.1587;10.7210;
40.2000;0.1636;10.7403;
40.5000;0.1644;10.7452;
40.8000;0.1628;10.7403;
41.1000;0.1612;10.7379;
41.4000;0.1620;10.7379;
41.7000;0.1620;10.7307;
42.0000;0.1652;10.7355;
42.3000;0.1612;10.7235;
42.6000;0.1636;10.7259;
42.9000;0.1628;10.7259;
43.2000;0.1620;10.7259;
43.5000;0.1652;10.7331;
43.8000;0.1701;10.7476;
44.1000;0.1644;10.7235;
44.4000;0.1555;10.7138;
44.7000;0.1644;10.7379;
45.0000;0.1628;10.7331;
45.3000;0.1652;10.7428;
45.6000;0.1628;10.7331;
45.9000;0.1652;10.7307;
46.2000;0.1644;10.7259;
46.5000;0.1628;10.7283;
46.8000;0.1685;10.7476;
47.1000;0.1644;10.7428;
47.4000;0.1685;10.7524;
47.7000;0.1628;10.7307;
48.0000;0.1636;10.7355;
48.3000;0.1661;10.7403;
48.6000;0.1652;10.7379;
48.9000;0.1595;10.7235;
49.2000;0.1636;10.7331;
49.5000;0.1652;10.7476;
49.8000;0.1644;10.7476;
50.1000;0.1644;10.7476;
50.4000;0.1636;10.7379;
50.7000;0.1644;10.7403;
51.0000;0.1669;10.7476;
51.3000;0.1644;10.7452;
51.6000;0.1652;10.7476;
51.9000;0.1636;10.7476;
52.2000;0.1644;10.7379;
52.5000;0.1636;10.7379;
52.8000;0.1652;10.7452;
53.1000;0.1636;10.7428;
53.4000;0.1636;10.7452;
53.7000;0.1636;10.7403;
54.0000;0.1652;10.7452;
54.3000;0.1685;10.7596;
54.6000;0.1644;10.7476;
54.9000;0.1644;10.7476;
55.2000;0.1669;10.7500;
55.5000;0.1644;10.7428;
55.8000;0.1644;10.7476;
56.1000;0.1644;10.7452;
56.4000;0.1636;10.7476;
56.7000;0.1636;10.7452;
57.0000;0.1644;10.7428;
57.3000;0.1644;10.7403;
57.6000;0.1661;10.7331;
57.9000;0.1604;10.7235;
58.2000;0.1628;10.7259;
58.5000;0.1718;10.7596;
58.8000;0.1636;10.7379;
59.1000;0.1636;10.7379;
59.4000;0.1628;10.7259;
59.7000;0.1644;10.7355;
60.0000;0.1628;10.7379;
60.3000;0.1636;10.7355;
60.6000;0.1587;10.7235;
60.9000;0.1644;10.7403;
61.2000;0.1652;10.7500;
61.5000;0.1530;10.7186;
61.8000;0.1628;10.7355;
62.1000;0.1652;10.7403;
62.4000;0.1669;10.7524;
62.7000;0.1636;10.7403;
63.0000;0.1628;10.7428;
63.3000;0.1628;10.7379;
63.6000;0.1661;10.7428;
63.9000;0.1644;10.7307;
64.2000;0.1628;10.7307;
64.5000;0.1620;10.7379;
64.8000;0.1628;10.7452;
65.1000;0.1628;10.7428;
65.4000;0.1628;10.7379;
65.7000;0.1628;10.7379;
66.0000;0.1644;10.7524;
66.3000;0.1636;10.7548;
66.6000;0.1636;10.7500;
66.9000;0.1661;10.7548;
67.2000;0.1644;10.7548;
67.5000;0.1652;10.7572;
67.8000;0.1652;10.7645;
68.1000;0.1636;10.7645;
68.4000;0.1677;10.7813;
68.7000;0.1644;10.7717;
69.0000;0.1644;10.7693;
69.3000;0.1595;10.7524;
69.6000;0.1652;10.7645;
69.9000;0.1612;10.7645;
70.2000;0.1636;10.7693;
70.5000;0.1652;10.7693;
70.8000;0.1644;10.7645;
71.1000;0.1661;10.7645;
71.4000;0.1628;10.7572;
71.7000;0.1685;10.7669;
72.0000;0.1628;10.7645;
72.3000;0.1636;10.7741;
72.6000;0.1644;10.7765;
72.9000;0.1644;10.7717;
73.2000;0.1636;10.7717;
73.5000;0.1620;10.7669;
73.8000;0.1620;10.7621;
74.1000;0.1644;10.7741;
74.4000;0.1628;10.7621;
74.7000;0.1628;10.7596;
75.0000;0.1628;10.7596;
75.3000;0.1652;10.7621;
75.6000;0.1628;10.7548;
75.9000;0.1652;10.7669;
76.2000;0.1661;10.7669;
76.5000;0.1636;10.7572;
76.8000;0.1628;10.7621;
77.1000;0.1636;10.7621;
77.4000;0.1563;10.7548;
77.7000;0.1636;10.7645;
78.0000;0.1628;10.7548;
78.3000;0.1604;10.7548;
78.6000;0.1628;10.7524;
78.9000;0.1620;10.7500;
79.2000;0.1628;10.7572;
79.5000;0.1636;10.7572;
79.8000;0.1644;10.7548;
80.1000;0.1636;10.7621;
80.4000;0.1628;10.7693;
80.7000;0.1644;10.7741;
81.0000;0.1636;10.7669;
81.3000;0.1636;10.7621;
81.6000;0.1636;10.7693;
81.9000;0.1636;10.7669;
82.2000;0.1636;10.7596;
82.5000;0.1652;10.7717;
82.8000;0.1620;10.7741;
83.1000;0.1636;10.7693;
83.4000;0.1652;10.7693;
83.7000;0.1636;10.7621;
84.0000;0.1644;10.7548;
84.3000;0.1636;10.7645;
84.6000;0.1587;10.7476;
84.9000;0.1620;10.7500;
85.2000;0.1661;10.7669;
85.5000;0.1636;10.7596;
85.8000;0.1628;10.7596;
86.1000;0.1628;10.7572;
86.4000;0.1636;10.7693;
86.7000;0.1644;10.7717;
87.0000;0.1644;10.7693;
87.3000;0.1644;10.7621;
87.6000;0.1644;10.7524;
87.9000;0.1644;10.7524;
88.2000;0.1644;10.7548;
88.5000;0.1636;10.7572;
88.8000;0.1628;10.7524;
89.1000;0.1661;10.7596;
89.4000;0.1628;10.7476;
89.7000;0.1628;10.7524;
90.0000;0.1628;10.7548;
90.3000;0.1628;10.7403;
90.6000;0.1644;10.7403;
90.9000;0.1595;10.7307;
91.2000;0.1628;10.7355;
91.5000;0.1636;10.7452;
91.8000;0.1636;10.7452;
92.1000;0.1701;10.7572;
92.4000;0.1620;10.7331;
92.7000;0.1636;10.7355;
93.0000;0.1636;10.7379;
93.3000;0.1628;10.7355;
93.6000;0.1652;10.7548;
93.9000;0.1628;10.7548;
94.2000;0.1628;10.7476;
94.5000;0.1644;10.7452;
94.8000;0.1628;10.7428;
95.1000;0.1628;10.7476;
95.4000;0.1644;10.7548;
95.7000;0.1636;10.7500;
96.0000;0.1628;10.7500;
96.3000;0.1636;10.7548;
96.6000;0.1661;10.7452;
96.9000;0.1652;10.7428;
97.2000;0.1628;10.7283;
97.5000;0.1620;10.7283;
97.8000;0.1628;10.7210;
98.1000;0.1571;10.7090;
98.4000;0.1636;10.7355;
98.7000;0.1636;10.7403;
99.0000;0.1595;10.7283;
99.3000;0.1693;10.7452;
99.6000;0.1636;10.7283;
99.9000;0.1636;10.7428;
100.2000;0.1514;10.6993;
100.5000;0.1644;10.7283;
100.8000;0.1636;10.7186;
101.1000;0.1661;10.7210;
101.4000;0.1636;10.7114;
101.7000;0.1628;10.7114;
102.0000;0.1644;10.7235;
102.3000;0.1620;10.7235;
102.6000;0.1636;10.7307;
102.9000;0.1661;10.7331;
103.2000;0.1628;10.7259;
103.5000;0.1677;10.7379;
103.8000;0.1636;10.7210;
104.1000;0.1628;10.7235;
104.4000;0.1628;10.7283;
104.7000;0.1628;10.7331;
105.0000;0.1628;10.7355;
105.3000;0.1595;10.7235;
105.6000;0.1644;10.7379;
105.9000;0.1636;10.7452;
106.2000;0.1628;10.7452;
106.5000;0.1595;10.7283;
106.8000;0.1628;10.7355;
107.1000;0.1652;10.7476;
107.4000;0.1652;10.7500;
107.7000;0.1644;10.7524;
108.0000;0.1661;10.7572;
108.3000;0.1636;10.7500;
108.6000;0.1620;10.7452;
108.9000;0.1636;10.7331;
109.2000;0.1628;10.7307;
109.5000;0.1644;10.7259;
109.8000;0.1636;10.7283;
110.1000;0.1620;10.7210;
110.4000;0.1628;10.7307;
110.7000;0.1652;10.7403;
111.0000;0.1636;10.7379;
111.3000;0.1620;10.7307;
111.6000;0.1604;10.7235;
111.9000;0.1677;10.7379;
112.2000;0.1644;10.7379;
112.5000;0.1652;10.7428;
112.8000;0.1636;10.7452;
113.1000;0.1628;10.7379;
113.4000;0.1636;10.7355;
113.7000;0.1620;10.7283;
114.0000;0.1644;10.7331;
114.3000;0.1628;10.7307;
114.6000;0.1636;10.7403;
114.9000;0.1669;10.7572;
115.2000;0.1652;10.7476;
115.5000;0.1636;10.7379;
115.8000;0.1652;10.7476;
116.1000;0.1644;10.7476;
116.4000;0.1628;10.7403;
116.7000;0.1661;10.7548;
117.0000;0.1636;10.7403;
117.3000;0.1750;10.7717;
117.6000;0.1636;10.7355;
117.9000;0.1612;10.7283;
118.2000;0.1652;10.7355;
118.5000;0.1620;10.7235;
118.8000;0.1620;10.7283;
119.1000;0.1652;10.7331;
119.4000;0.1628;10.7307;
119.7000;0.1644;10.7379;
120.0000;0.1628;10.7355;
120.3000;0.1620;10.7355;
120.6000;0.1636;10.7355;
120.9000;0.1636;10.7379;
121.2000;0.1563;10.7210;
121.5000;0.1595;10.7307;
121.8000;0.1620;10.7428;
122.1000;0.1628;10.7403;
122.4000;0.1628;10.7476;
122.7000;0.1636;10.7476;
123.0000;0.1644;10.7452;
123.3000;0.1612;10.7307;
123.6000;0.1612;10.7259;
123.9000;0.1644;10.7307;
124.2000;0.1644;10.7162;
124.5000;0.1669;10.7307;
124.8000;0.1636;10.7259;
125.1000;0.1612;10.7186;
125.4000;0.1595;10.7186;
125.7000;0.1579;10.7162;
126.0000;0.1644;10.7307;
126.3000;0.1685;10.7379;
126.6000;0.1693;10.7452;
126.9000;0.1644;10.7307;
127.2000;0.1628;10.7283;
127.5000;0.1595;10.7066;
127.8000;0.1620;10.7162;
128.1000;0.1685;10.7307;
128.4000;0.1628;10.7162;
128.7000;0.1628;10.7235;
129.0000;0.1644;10.7307;
129.3000;0.1636;10.7379;
129.6000;0.1628;10.7307;
129.9000;0.1636;10.7307;
130.2000;0.1636;10.7331;
130.5000;0.1612;10.7283;
130.8000;0.1620;10.7331;
131.1000;0.1620;10.7331;
131.4000;0.1685;10.7524;
131.7000;0.1628;10.7379;
132.0000;0.1628;10.7403;
132.3000;0.1620;10.7428;
132.6000;0.1652;10.7572;
132.9000;0.1652;10.7572;
133.2000;0.1563;10.7331;
133.5000;0.1620;10.7428;
133.8000;0.1644;10.7476;
134.1000;0.1620;10.7403;
134.4000;0.1620;10.7476;
134.7000;0.1636;10.7379;
135.0000;0.1652;10.7403;
135.3000;0.1628;10.7428;
135.6000;0.1644;10.7476;
135.9000;0.1636;10.7476;
136.2000;0.1652;10.7572;
136.5000;0.1652;10.7596;
136.8000;0.1636;10.7548;
137.1000;0.1636;10.7500;
137.4000;0.1652;10.7572;
137.7000;0.1628;10.7572;
138.0000;0.1644;10.7548;
138.3000;0.1620;10.7452;
138.6000;0.1628;10.7500;
138.9000;0.1628;10.7500;
139.2000;0.1530;10.7090;
139.5000;0.1652;10.7379;
139.8000;0.1612;10.7355;
140.1000;0.1628;10.7355;
140.4000;0.1620;10.7283;
140.7000;0.1628;10.7307;
141.0000;0.1628;10.7379;
141.3000;0.1636;10.7210;
141.6000;0.1636;10.7138;
141.9000;0.1620;10.7162;
142.2000;0.1595;10.7210;
142.5000;0.1636;10.7331;
142.8000;0.1644;10.7259;
143.1000;0.1612;10.7259;
143.4000;0.1636;10.7283;
143.7000;0.1628;10.7379;
144.0000;0.1652;10.7379;
144.3000;0.1636;10.7355;
144.6000;0.1612;10.7283;
144.9000;0.1644;10.7283;
145.2000;0.1644;10.7331;
145.5000;0.1693;10.7428;
145.8000;0.1612;10.7259;
146.1000;0.1628;10.7379;
146.4000;0.1644;10.7452;
146.7000;0.1628;10.7452;
147.0000;0.1620;10.7355;
147.3000;0.1620;10.7403;
147.6000;0.1644;10.7452;
147.9000;0.1620;10.7500;
148.2000;0.1628;10.7476;
148.5000;0.1644;10.7428;
148.8000;0.1612;10.7379;
149.1000;0.1620;10.7307;
149.4000;0.1628;10.7403;
149.7000;0.1628;10.7403;
150.0000;0.1628;10.7452;
150.3000;0.1644;10.7476;
150.6000;0.1644;10.7428;
150.9000;0.1644;10.7452;
151.2000;0.1628;10.7403;
151.5000;0.1701;10.7669;
151.8000;0.1604;10.7307;
152.1000;0.1604;10.7331;
152.4000;0.1661;10.7428;
152.7000;0.1612;10.7355;
153.0000;0.1620;10.7379;
153.3000;0.1628;10.7355;
153.6000;0.1563;10.7066;
153.9000;0.1628;10.7210;
154.2000;0.1628;10.7235;
154.5000;0.1547;10.6993;
154.8000;0.1636;10.7307;
155.1000;0.1612;10.7355;
155.4000;0.1652;10.7452;
155.7000;0.1620;10.7428;
156.0000;0.1628;10.7476;
156.3000;0.1644;10.7428;
156.6000;0.1579;10.7283;
156.9000;0.1636;10.7403;
157.2000;0.1612;10.7355;
157.5000;0.1612;10.7355;
157.8000;0.1636;10.7379;
158.1000;0.1709;10.7621;
158.4000;0.1636;10.7403;
158.7000;0.1620;10.7379;
159.0000;0.1604;10.7403;
159.3000;0.1636;10.7476;
159.6000;0.1652;10.7621;
159.9000;0.1644;10.7645;
160.2000;0.1636;10.7572;
160.5000;0.1620;10.7476;
160.8000;0.1628;10.7500;
161.1000;0.1636;10.7476;
161.4000;0.1620;10.7355;
161.7000;0.1620;10.7355;
162.0000;0.1628;10.7379;
162.3000;0.1620;10.7379;
162.6000;0.1620;10.7452;
162.9000;0.1685;10.7548;
163.2000;0.1783;10.7813;
163.5000;0.1636;10.7476;
163.8000;0.1571;10.7355;
164.1000;0.1595;10.7331;
164.4000;0.1636;10.7476;
164.7000;0.1644;10.7452;
165.0000;0.1636;10.7307;
165.3000;0.1620;10.7283;
165.6000;0.1644;10.7331;
165.9000;0.1628;10.7307;
166.2000;0.1604;10.7235;
166.5000;0.1604;10.7162;
166.8000;0.1636;10.7210;
167.1000;0.1628;10.7114;
167.4000;0.1636;10.7186;
167.7000;0.1628;10.7114;
168.0000;0.1620;10.7114;
168.3000;0.1628;10.7210;
168.6000;0.1612;10.7186;
168.9000;0.1620;10.7186;
169.2000;0.1644;10.7235;
169.5000;0.1620;10.7186;
169.8000;0.1628;10.7331;
170.1000;0.1644;10.7452;
170.4000;0.1652;10.7379;
170.7000;0.1620;10.7355;
171.0000;0.1652;10.7428;
171.3000;0.1579;10.7331;
171.6000;0.1612;10.7403;
171.9000;0.1628;10.7476;
172.2000;0.1628;10.7428;
172.5000;0.1636;10.7403;
172.8000;0.1628;10.7403;
173.1000;0.1628;10.7452;
173.4000;0.1628;10.7452;
173.7000;0.1636;10.7524;
174.0000;0.1628;10.7476;
174.3000;0.1628;10.7452;
174.6000;0.1628;10.7428;
174.9000;0.1636;10.7476;
175.2000;0.1644;10.7548;
175.5000;0.1571;10.7403;
175.8000;0.1620;10.7500;
176.1000;0.1636;10.7621;
176.4000;0.1587;10.7403;
176.7000;0.1612;10.7476;
177.0000;0.1628;10.7548;
177.3000;0.1636;10.7500;
177.6000;0.1563;10.7379;
177.9000;0.1620;10.7524;
178.2000;0.1612;10.7548;
178.5000;0.1579;10.7500;
178.8000;0.1636;10.7621;
179.1000;0.1620;10.7524;
179.4000;0.1604;10.7452;
179.7000;0.1628;10.7524;
180.0000;0.1636;10.7524;
180.3000;0.1620;10.7572;
180.6000;0.1628;10.7717;
180.9000;0.1620;10.7669;
181.2000;0.1644;10.7621;
181.5000;0.1612;10.7476;
181.8000;0.1579;10.7403;
182.1000;0.1661;10.7596;
182.4000;0.1644;10.7621;
182.7000;0.1620;10.7476;
183.0000;0.1636;10.7524;
183.3000;0.1636;10.7500;
183.6000;0.1661;10.7500;
183.9000;0.1636;10.7476;
184.2000;0.1595;10.7355;
184.5000;0.1636;10.7452;
184.8000;0.1628;10.7476;
185.1000;0.1628;10.7476;
185.4000;0.1620;10.7476;
185.7000;0.1652;10.7476;
186.0000;0.1636;10.7452;
186.3000;0.1644;10.7476;
186.6000;0.1612;10.7476;
186.9000;0.1612;10.7379;
187.2000;0.1604;10.7379;
187.5000;0.1612;10.7379;
187.8000;0.1595;10.7379;
188.1000;0.1612;10.7452;
188.4000;0.1628;10.7524;
188.7000;0.1636;10.7524;
189.0000;0.1612;10.7524;
189.3000;0.1612;10.7452;
189.6000;0.1620;10.7403;
189.9000;0.1636;10.7476;
190.2000;0.1652;10.7452;
190.5000;0.1628;10.7428;
190.8000;0.1612;10.7452;
191.1000;0.1612;10.7476;
191.4000;0.1644;10.7621;
191.7000;0.1612;10.7524;
192.0000;0.1604;10.7500;
192.3000;0.1628;10.7596;
192.6000;0.1620;10.7596;
192.9000;0.1604;10.7596;
193.2000;0.1636;10.7548;
193.5000;0.1612;10.7500;
193.8000;0.1620;10.7572;
194.1000;0.1644;10.7693;
194.4000;0.1612;10.7645;
194.7000;0.1636;10.7669;
195.0000;0.1644;10.7693;
195.3000;0.1628;10.7717;
195.6000;0.1636;10.7572;
195.9000;0.1628;10.7548;
196.2000;0.1636;10.7500;
196.5000;0.1620;10.7331;
196.8000;0.1636;10.7403;
197.1000;0.1636;10.7403;
197.4000;0.1612;10.7428;
197.7000;0.1636;10.7548;
198.0000;0.1644;10.7572;
198.3000;0.1644;10.7596;
198.6000;0.1628;10.7524;
198.9000;0.1652;10.7596;
199.2000;0.1604;10.7548;
199.5000;0.1644;10.7645;
199.8000;0.1685;10.7717;
200.1000;0.1644;10.7596;
200.4000;0.1636;10.7693;
200.7000;0.1628;10.7596;
201.0000;0.1612;10.7548;
201.3000;0.1612;10.7452;
201.6000;0.1628;10.7452;
201.9000;0.1628;10.7452;
202.2000;0.1579;10.7331;
202.5000;0.1604;10.7452;
202.8000;0.1620;10.7524;
203.1000;0.1628;10.7500;
203.4000;0.1636;10.7548;
203.7000;0.1628;10.7476;
204.0000;0.1636;10.7524;
204.3000;0.1652;10.7452;
204.6000;0.1628;10.7331;
204.9000;0.1620;10.7355;
205.2000;0.1612;10.7331;
205.5000;0.1636;10.7379;
205.8000;0.1644;10.7500;
206.1000;0.1661;10.7452;
206.4000;0.1620;10.7452;
206.7000;0.1612;10.7596;
207.0000;0.1620;10.7548;
207.3000;0.1620;10.7548;
207.6000;0.1620;10.7669;
207.9000;0.1612;10.7789;
208.2000;0.1661;10.7813;
208.5000;0.1636;10.7693;
208.8000;0.1628;10.7741;
209.1000;0.1628;10.7717;
209.4000;0.1628;10.7717;
209.7000;0.1636;10.7693;
210.0000;0.1718;10.7862;
210.3000;0.1644;10.7717;
210.6000;0.1620;10.7572;
210.9000;0.1620;10.7548;
211.2000;0.1628;10.7476;
211.5000;0.1636;10.7476;
211.8000;0.1636;10.7548;
212.1000;0.1628;10.7548;
212.4000;0.1636;10.7621;
212.7000;0.1628;10.7621;
213.0000;0.1628;10.7596;
213.3000;0.1620;10.7476;
213.6000;0.1620;10.7403;
213.9000;0.1620;10.7403;
214.2000;0.1506;10.7066;
214.5000;0.1612;10.7379;
214.8000;0.1620;10.7476;
215.1000;0.1636;10.7621;
215.4000;0.1661;10.7669;
215.7000;0.1628;10.7621;
216.0000;0.1628;10.7596;
216.3000;0.1628;10.7476;
216.6000;0.1644;10.7476;
216.9000;0.1652;10.7596;
217.2000;0.1628;10.7572;
217.5000;0.1571;10.7452;
217.8000;0.1604;10.7572;
218.1000;0.1620;10.7621;
218.4000;0.1612;10.7621;
218.7000;0.1563;10.7403;
219.0000;0.1636;10.7524;
219.3000;0.1612;10.7500;
219.6000;0.1579;10.7331;
219.9000;0.1612;10.7452;
220.2000;0.1604;10.7452;
220.5000;0.1595;10.7500;
220.8000;0.1612;10.7476;
221.1000;0.1636;10.7452;
221.4000;0.1604;10.7355;
221.7000;0.1628;10.7379;
222.0000;0.1636;10.7379;
222.3000;0.1652;10.7500;
222.6000;0.1628;10.7428;
222.9000;0.1628;10.7500;
223.2000;0.1628;10.7403;
223.5000;0.1636;10.7355;
223.8000;0.1612;10.7355;
224.1000;0.1620;10.7355;
224.4000;0.1644;10.7379;
224.7000;0.1628;10.7259;
225.0000;0.1628;10.7235;
225.3000;0.1644;10.7259;
225.6000;0.1644;10.7283;
225.9000;0.1620;10.7283;
226.2000;0.1612;10.7259;
226.5000;0.1612;10.7259;
226.8000;0.1628;10.7403;
227.1000;0.1636;10.7307;
227.4000;0.1620;10.7259;
227.7000;0.1620;10.7259;
228.0000;0.1620;10.7307;
228.3000;0.1636;10.7307;
228.6000;0.1620;10.7307;
228.9000;0.1636;10.7259;
229.2000;0.1636;10.7235;
229.5000;0.1628;10.7210;
229.8000;0.1628;10.7210;
230.1000;0.1620;10.7138;
230.4000;0.1620;10.7066;
230.7000;0.1644;10.7138;
231.0000;0.1661;10.7114;
231.3000;0.1612;10.7066;
231.6000;0.1628;10.7066;
231.9000;0.1652;10.7138;
232.2000;0.1612;10.7138;
232.5000;0.1628;10.7162;
232.8000;0.1620;10.7186;
233.1000;0.1644;10.7210;
233.4000;0.1636;10.7259;
233.7000;0.1612;10.7186;
234.0000;0.1620;10.7235;
234.3000;0.1604;10.7210;
234.6000;0.1620;10.7235;
234.9000;0.1612;10.7114;
235.2000;0.1579;10.7018;
235.5000;0.1620;10.7162;
235.8000;0.1636;10.7283;
236.1000;0.1644;10.7283;
236.4000;0.1636;10.7235;
236.7000;0.1628;10.7235;
237.0000;0.1636;10.7307;
237.3000;0.1628;10.7331;
237.6000;0.1620;10.7331;
237.9000;0.1612;10.7307;
238.2000;0.1685;10.7596;
238.5000;0.1628;10.7452;
238.8000;0.1620;10.7331;
239.1000;0.1612;10.7162;
239.4000;0.1644;10.7235;
239.7000;0.1612;10.7138;
240.0000;0.1563;10.7138;
240.3000;0.1644;10.7379;
240.6000;0.1595;10.7138;
240.9000;0.1587;10.7162;
241.2000;0.1620;10.7259;
241.5000;0.1669;10.7379;
241.8000;0.1579;10.7162;
242.1000;0.1620;10.7331;
242.4000;0.1636;10.7355;
242.7000;0.1571;10.7138;
243.0000;0.1620;10.7259;
243.3000;0.1628;10.7283;
243.6000;0.1628;10.7428;
243.9000;0.1628;10.7355;
244.2000;0.1620;10.7307;
244.5000;0.1620;10.7307;
244.8000;0.1620;10.7235;
245.1000;0.1628;10.7259;
245.4000;0.1612;10.7235;
245.7000;0.1612;10.7235;
246.0000;0.1636;10.7259;
246.3000;0.1595;10.7283;
246.6000;0.1620;10.7331;
246.9000;0.1620;10.7307;
247.2000;0.1644;10.7379;
247.5000;0.1587;10.7331;
247.8000;0.1628;10.7379;
248.1000;0.1587;10.7331;
248.4000;0.1644;10.7403;
248.7000;0.1612;10.7331;
249.0000;0.1620;10.7379;
249.3000;0.1612;10.7355;
249.6000;0.1620;10.7379;
249.9000;0.1612;10.7379;
250.2000;0.1587;10.7331;
250.5000;0.1612;10.7428;
250.8000;0.1620;10.7403;
251.1000;0.1620;10.7307;
251.4000;0.1636;10.7379;
251.7000;0.1612;10.7259;
252.0000;0.1620;10.7283;
252.3000;0.1628;10.7428;
252.6000;0.1636;10.7500;
252.9000;0.1677;10.7524;
253.2000;0.1652;10.7403;
253.5000;0.1620;10.7331;
253.8000;0.1628;10.7355;
254.1000;0.1620;10.7428;
254.4000;0.1612;10.7452;
254.7000;0.1620;10.7500;
255.0000;0.1652;10.7572;
255.3000;0.1644;10.7524;
255.6000;0.1604;10.7500;
255.9000;0.1604;10.7476;
256.2000;0.1620;10.7500;
256.5000;0.1620;10.7500;
256.8000;0.1628;10.7452;
257.1000;0.1652;10.7476;
257.4000;0.1612;10.7452;
257.7000;0.1636;10.7476;
258.0000;0.1644;10.7548;
258.3000;0.1620;10.7548;
258.6000;0.1636;10.7596;
258.9000;0.1693;10.7741;
259.2000;0.1620;10.7476;
259.5000;0.1628;10.7476;
259.8000;0.1644;10.7524;
260.1000;0.1612;10.7548;
260.4000;0.1636;10.7596;
260.7000;0.1604;10.7500;
261.0000;0.1636;10.7548;
261.3000;0.1652;10.7548;
261.6000;0.1612;10.7428;
261.9000;0.1636;10.7379;
262.2000;0.1677;10.7500;
262.5000;0.1644;10.7500;
262.8000;0.1636;10.7476;
263.1000;0.1636;10.7476;
263.4000;0.1612;10.7524;
263.7000;0.1628;10.7645;
264.0000;0.1620;10.7645;
264.3000;0.1620;10.7741;
264.6000;0.1595;10.7621;
264.9000;0.1628;10.7669;
265.2000;0.1628;10.7645;
265.5000;0.1628;10.7645;
265.8000;0.1612;10.7572;
266.1000;0.1620;10.7524;
266.4000;0.1677;10.7693;
266.7000;0.1644;10.7572;
267.0000;0.1620;10.7403;
267.3000;0.1620;10.7428;
267.6000;0.1612;10.7355;
267.9000;0.1620;10.7331;
268.2000;0.1644;10.7524;
268.5000;0.1661;10.7428;
268.8000;0.1628;10.7379;
269.1000;0.1644;10.7452;
269.4000;0.1644;10.7403;
269.7000;0.1628;10.7379;
270.0000;0.1612;10.7331;
270.3000;0.1636;10.7452;
270.6000;0.1612;10.7403;
270.9000;0.1742;10.7838;
271.2000;0.1620;10.7476;
271.5000;0.1677;10.7645;
271.8000;0.1628;10.7452;
272.1000;0.1530;10.7307;
272.4000;0.1636;10.7476;
272.7000;0.1620;10.7403;
273.0000;0.1604;10.7355;
273.3000;0.1620;10.7403;
273.6000;0.1620;10.7379;
273.9000;0.1628;10.7283;
274.2000;0.1661;10.7428;
274.5000;0.1636;10.7452;
274.8000;0.1636;10.7500;
275.1000;0.1604;10.7500;
275.4000;0.1604;10.7476;
275.7000;0.1628;10.7572;
276.0000;0.1628;10.7500;
276.3000;0.1644;10.7548;
276.6000;0.1652;10.7645;
276.9000;0.1628;10.7621;
277.2000;0.1636;10.7645;
277.5000;0.1620;10.7645;
277.8000;0.1636;10.7693;
278.1000;0.1636;10.7621;
278.4000;0.1620;10.7621;
278.7000;0.1644;10.7621;
279.0000;0.1579;10.7524;
279.3000;0.1628;10.7741;
279.6000;0.1636;10.7741;
279.9000;0.1612;10.7669;
280.2000;0.1620;10.7596;
280.5000;0.1628;10.7693;
280.8000;0.1628;10.7524;
281.1000;0.1620;10.7572;
281.4000;0.1612;10.7524;
281.7000;0.1628;10.7476;
282.0000;0.1628;10.7476;
282.3000;0.1636;10.7403;
282.6000;0.1612;10.7355;
282.9000;0.1661;10.7403;
283.2000;0.1636;10.7379;
283.5000;0.1636;10.7403;
283.8000;0.1620;10.7428;
284.1000;0.1628;10.7428;
284.4000;0.1612;10.7452;
284.7000;0.1620;10.7476;
285.0000;0.1636;10.7452;
285.3000;0.1628;10.7403;
285.6000;0.1612;10.7476;
285.9000;0.1571;10.7331;
286.2000;0.1620;10.7403;
286.5000;0.1628;10.7428;
286.8000;0.1620;10.7428;
287.1000;0.1628;10.7355;
287.4000;0.1636;10.7355;
287.7000;0.1612;10.7331;
288.0000;0.1620;10.7428;
288.3000;0.1571;10.7379;
288.6000;0.1620;10.7500;
288.9000;0.1612;10.7428;
289.2000;0.1628;10.7452;
289.5000;0.1718;10.7741;
289.8000;0.1628;10.7476;
290.1000;0.1620;10.7428;
290.4000;0.1677;10.7548;
290.7000;0.1620;10.7452;
291.0000;0.1612;10.7452;
291.3000;0.1628;10.7452;
291.6000;0.1620;10.7403;
291.9000;0.1620;10.7403;
292.2000;0.1661;10.7548;
292.5000;0.1628;10.7452;
292.8000;0.1636;10.7355;
293.1000;0.1636;10.7403;
293.4000;0.1628;10.7355;
293.7000;0.1620;10.7524;
294.0000;0.1604;10.7476;
294.3000;0.1604;10.7403;
294.6000;0.1571;10.7259;
294.9000;0.1612;10.7331;
295.2000;0.1579;10.7210;
295.5000;0.1604;10.7235;
295.8000;0.1595;10.7114;
296.1000;0.1644;10.7235;
296.4000;0.1628;10.7162;
296.7000;0.1587;10.7066;
297.0000;0.1604;10.7114;
297.3000;0.1620;10.7210;
297.6000;0.1685;10.7403;
297.9000;0.1636;10.7307;
298.2000;0.1595;10.7259;
298.5000;0.1636;10.7379;
298.8000;0.1636;10.7259;
299.1000;0.1604;10.7186;
299.4000;0.1636;10.7138;
299.7000;0.1628;10.7138;
300.0000;0.1604;10.7090;
300.3000;0.1612;10.7090;
300.6000;0.1595;10.7090;
300.9000;0.1587;10.7042;
301.2000;0.1628;10.7138;
301.5000;0.1636;10.7138;
301.8000;0.1620;10.7138;
302.1000;0.1620;10.7186;
302.4000;0.1547;10.6993;
302.7000;0.1628;10.7235;
303.0000;0.1636;10.7210;
303.3000;0.1612;10.7138;
303.6000;0.1636;10.7210;
303.9000;0.1628;10.7235;
304.2000;0.1587;10.7138;
304.5000;0.1620;10.7186;
304.8000;0.1620;10.7138;
305.1000;0.1612;10.7114;
305.4000;0.1595;10.7066;
305.7000;0.1612;10.7090;
306.0000;0.1612;10.7090;
306.3000;0.1620;10.7114;
306.6000;0.1612;10.7042;
306.9000;0.1612;10.7066;
307.2000;0.1628;10.7042;
307.5000;0.1612;10.7138;
307.8000;0.1612;10.7138;
308.1000;0.1612;10.7162;
308.4000;0.1628;10.7210;
308.7000;0.1612;10.7235;
309.0000;0.1620;10.7259;
309.3000;0.1636;10.7259;
309.6000;0.1612;10.7307;
309.9000;0.1628;10.7331;
310.2000;0.1620;10.7331;
310.5000;0.1595;10.7210;
310.8000;0.1595;10.7090;
311.1000;0.1612;10.7090;
311.4000;0.1522;10.6825;
311.7000;0.1612;10.7042;
312.0000;0.1620;10.7018;
312.3000;0.1595;10.7042;
312.6000;0.1620;10.7138;
312.9000;0.1604;10.7162;
313.2000;0.1612;10.7210;
313.5000;0.1661;10.7452;
313.8000;0.1620;10.7331;
314.1000;0.1628;10.7355;
314.4000;0.1636;10.7331;
314.7000;0.1620;10.7235;
315.0000;0.1612;10.7283;
315.3000;0.1652;10.7476;
315.6000;0.1612;10.7403;
315.9000;0.1579;10.7307;
316.2000;0.1620;10.7355;
316.5000;0.1620;10.7259;
316.8000;0.1595;10.7162;
317.1000;0.1620;10.7210;
317.4000;0.1644;10.7259;
317.7000;0.1628;10.7186;
318.0000;0.1620;10.7235;
318.3000;0.1644;10.7259;
318.6000;0.1636;10.7186;
318.9000;0.1636;10.7235;
319.2000;0.1693;10.7428;
319.5000;0.1612;10.7331;
319.8000;0.1620;10.7379;
320.1000;0.1587;10.7259;
320.4000;0.1628;10.7331;
320.7000;0.1620;10.7355;
321.0000;0.1612;10.7355;
321.3000;0.1644;10.7379;
321.6000;0.1628;10.7283;
321.9000;0.1620;10.7283;
322.2000;0.1612;10.7210;
322.5000;0.1620;10.7259;
322.8000;0.1620;10.7379;
323.1000;0.1538;10.7210;
323.4000;0.1620;10.7500;
323.7000;0.1612;10.7500;
324.0000;0.1612;10.7452;
324.3000;0.1612;10.7476;
324.6000;0.1620;10.7524;
324.9000;0.1612;10.7572;
325.2000;0.1620;10.7572;
325.5000;0.1628;10.7476;
325.8000;0.1612;10.7452;
326.1000;0.1628;10.7355;
326.4000;0.1628;10.7428;
326.7000;0.1636;10.7524;
327.0000;0.1604;10.7476;
327.3000;0.1612;10.7500;
327.6000;0.1628;10.7572;
327.9000;0.1628;10.7596;
328.2000;0.1563;10.7500;
328.5000;0.1628;10.7621;
328.8000;0.1620;10.7524;
329.1000;0.1628;10.7500;
329.4000;0.1644;10.7524;
329.7000;0.1612;10.7500;
330.0000;0.1612;10.7548;
330.3000;0.1604;10.7524;
330.6000;0.1612;10.7548;
330.9000;0.1644;10.7621;
331.2000;0.1628;10.7572;
331.5000;0.1636;10.7548;
331.8000;0.1612;10.7500;
332.1000;0.1685;10.7596;
332.4000;0.1604;10.7331;
332.7000;0.1547;10.7162;
333.0000;0.1726;10.7693;
333.3000;0.1644;10.7476;
333.6000;0.1620;10.7379;
333.9000;0.1612;10.7355;
334.2000;0.1612;10.7355;
334.5000;0.1530;10.7210;
334.8000;0.1620;10.7331;
335.1000;0.1612;10.7283;
335.4000;0.1758;10.7621;
335.7000;0.1628;10.7283;
336.0000;0.1742;10.7596;
336.3000;0.1620;10.7283;
336.6000;0.1612;10.7283;
336.9000;0.1579;10.7138;
337.2000;0.1612;10.7283;
337.5000;0.1620;10.7307;
337.8000;0.1612;10.7379;
338.1000;0.1644;10.7379;
338.4000;0.1661;10.7500;
338.7000;0.1604;10.7331;
339.0000;0.1628;10.7331;
339.3000;0.1612;10.7235;
339.6000;0.1628;10.7210;
339.9000;0.1620;10.7186;
340.2000;0.1644;10.7235;
340.5000;0.1612;10.7162;
340.8000;0.1628;10.7114;
341.1000;0.1652;10.7186;
341.4000;0.1636;10.7162;
341.7000;0.1612;10.7162;
342.0000;0.1677;10.7259;
342.3000;0.1620;10.7162;
342.6000;0.1628;10.7210;
342.9000;0.1628;10.7307;
343.2000;0.1652;10.7355;
343.5000;0.1612;10.7259;
343.8000;0.1620;10.7283;
344.1000;0.1620;10.7355;
344.4000;0.1701;10.7621;
344.7000;0.1644;10.7476;
345.0000;0.1620;10.7331;
345.3000;0.1636;10.7379;
345.6000;0.1620;10.7355;
345.9000;0.1595;10.7283;
346.2000;0.1612;10.7259;
346.5000;0.1604;10.7235;
346.8000;0.1595;10.7235;
347.1000;0.1604;10.7283;
347.4000;0.1652;10.7524;
347.7000;0.1612;10.7331;
348.0000;0.1636;10.7428;
348.3000;0.1604;10.7379;
348.6000;0.1612;10.7379;
348.9000;0.1620;10.7379;
349.2000;0.1620;10.7379;
349.5000;0.1644;10.7428;
349.8000;0.1628;10.7379;
350.1000;0.1612;10.7476;
350.4000;0.1612;10.7476;
350.7000;0.1612;10.7428;
351.0000;0.1595;10.7331;
351.3000;0.1595;10.7355;
351.6000;0.1620;10.7403;
351.9000;0.1636;10.7476;
352.2000;0.1563;10.7403;
352.5000;0.1620;10.7500;
352.8000;0.1604;10.7355;
353.1000;0.1612;10.7355;
353.4000;0.1644;10.7379;
353.7000;0.1628;10.7403;
354.0000;0.1628;10.7331;
354.3000;0.1693;10.7452;
354.6000;0.1612;10.7283;
354.9000;0.1628;10.7307;
355.2000;0.1587;10.7186;
355.5000;0.1636;10.7403;
355.8000;0.1636;10.7428;
356.1000;0.1652;10.7428;
356.4000;0.1620;10.7355;
356.7000;0.1612;10.7379;
357.0000;0.1644;10.7452;
357.3000;0.1628;10.7331;
357.6000;0.1612;10.7331;
357.9000;0.1612;10.7331;
358.2000;0.1612;10.7331;
358.5000;0.1661;10.7403;
358.8000;0.1628;10.7355;
359.1000;0.1628;10.7259;
359.4000;0.1595;10.7186;
359.7000;0.1612;10.7283;
360.0000;0.1620;10.7283;
360.3000;0.1612;10.7307;
360.6000;0.1612;10.7307;
360.9000;0.1620;10.7379;
361.2000;0.1620;10.7331;
361.5000;0.1604;10.7331;
361.8000;0.1604;10.7355;
362.1000;0.1604;10.7331;
362.4000;0.1693;10.7572;
362.7000;0.1612;10.7331;
363.0000;0.1604;10.7331;
363.3000;0.1587;10.7331;
363.6000;0.1612;10.7379;
363.9000;0.1620;10.7428;
364.2000;0.1636;10.7428;
364.5000;0.1620;10.7403;
364.8000;0.1636;10.7452;
365.1000;0.1628;10.7500;
365.4000;0.1661;10.7476;
365.7000;0.1628;10.7403;
366.0000;0.1612;10.7403;
366.3000;0.1587;10.7259;
366.6000;0.1571;10.7162;
366.9000;0.1595;10.7283;
367.2000;0.1604;10.7331;
367.5000;0.1644;10.7403;
367.8000;0.1628;10.7428;
368.1000;0.1612;10.7331;
368.4000;0.1612;10.7331;
368.7000;0.1628;10.7307;
369.0000;0.1636;10.7307;
369.3000;0.1636;10.7259;
369.6000;0.1620;10.7235;
369.9000;0.1555;10.7066;
370.2000;0.1628;10.7331;
370.5000;0.1620;10.7331;
370.8000;0.1612;10.7307;
371.1000;0.1636;10.7452;
371.4000;0.1604;10.7403;
371.7000;0.1612;10.7403;
372.0000;0.1620;10.7403;
372.3000;0.1612;10.7331;
372.6000;0.1612;10.7379;
372.9000;0.1587;10.7210;
373.2000;0.1604;10.7283;
373.5000;0.1620;10.7307;
373.8000;0.1612;10.7307;
374.1000;0.1612;10.7331;
374.4000;0.1595;10.7259;
374.7000;0.1620;10.7259;
375.0000;0.1612;10.7355;
375.3000;0.1620;10.7355;
375.6000;0.1604;10.7307;
375.9000;0.1644;10.7452;
376.2000;0.1685;10.7548;
376.5000;0.1628;10.7403;
376.8000;0.1595;10.7307;
377.1000;0.1612;10.7331;
377.4000;0.1612;10.7235;
377.7000;0.1661;10.7355;
378.0000;0.1595;10.7331;
378.3000;0.1612;10.7355;
378.6000;0.1620;10.7355;
378.9000;0.1579;10.7235;
379.2000;0.1612;10.7283;
379.5000;0.1734;10.7428;
379.8000;0.1612;10.7186;
380.1000;0.1612;10.7259;
380.4000;0.1628;10.7403;
380.7000;0.1636;10.7428;
381.0000;0.1628;10.7428;
381.3000;0.1693;10.7669;
381.6000;0.1677;10.7669;
381.9000;0.1612;10.7428;
382.2000;0.1620;10.7331;
382.5000;0.1571;10.7235;
382.8000;0.1636;10.7500;
383.1000;0.1644;10.7476;
383.4000;0.1628;10.7548;
383.7000;0.1620;10.7596;
384.0000;0.1636;10.7548;
384.3000;0.1628;10.7476;
384.6000;0.1636;10.7403;
384.9000;0.1604;10.7379;
385.2000;0.1644;10.7403;
385.5000;0.1620;10.7283;
385.8000;0.1636;10.7283;
386.1000;0.1620;10.7307;
386.4000;0.1595;10.7307;
386.7000;0.1612;10.7379;
387.0000;0.1604;10.7307;
387.3000;0.1595;10.7235;
387.6000;0.1604;10.7259;
387.9000;0.1604;10.7307;
388.2000;0.1604;10.7283;
388.5000;0.1644;10.7283;
388.8000;0.1595;10.7235;
389.1000;0.1620;10.7355;
389.4000;0.1612;10.7428;
389.7000;0.1612;10.7452;
390.0000;0.1628;10.7476;
390.3000;0.1612;10.7452;
390.6000;0.1522;10.7114;
390.9000;0.1604;10.7283;
391.2000;0.1612;10.7235;
391.5000;0.1620;10.7259;
391.8000;0.1628;10.7307;
392.1000;0.1636;10.7379;
392.4000;0.1612;10.7259;
392.7000;0.1620;10.7307;
393.0000;0.1636;10.7355;
393.3000;0.1636;10.7331;
393.6000;0.1620;10.7403;
393.9000;0.1612;10.7331;
394.2000;0.1604;10.7355;
394.5000;0.1620;10.7379;
394.8000;0.1620;10.7428;
395.1000;0.1620;10.7379;
395.4000;0.1636;10.7428;
395.7000;0.1620;10.7428;
396.0000;0.1620;10.7476;
396.3000;0.1620;10.7403;
396.6000;0.1620;10.7452;
396.9000;0.1636;10.7476;
397.2000;0.1628;10.7452;
397.5000;0.1628;10.7476;
397.8000;0.1620;10.7355;
398.1000;0.1595;10.7307;
398.4000;0.1620;10.7331;
398.7000;0.1604;10.7379;
399.0000;0.1620;10.7428;
399.3000;0.1628;10.7476;
399.6000;0.1636;10.7524;
399.9000;0.1628;10.7452;
400.2000;0.1612;10.7355;
400.5000;0.1628;10.7355;
400.8000;0.1644;10.7355;
401.1000;0.1604;10.7235;
401.4000;0.1612;10.7283;
401.7000;0.1571;10.7162;
402.0000;0.1612;10.7235;
402.3000;0.1620;10.7307;
402.6000;0.1604;10.7283;
402.9000;0.1620;10.7355;
403.2000;0.1620;10.7403;
403.5000;0.1595;10.7379;
403.8000;0.1604;10.7379;
404.1000;0.1612;10.7452;
404.4000;0.1612;10.7452;
404.7000;0.1628;10.7572;
405.0000;0.1628;10.7645;
405.3000;0.1595;10.7476;
405.6000;0.1612;10.7621;
405.9000;0.1628;10.7717;
406.2000;0.1612;10.7693;
406.5000;0.1538;10.7524;
406.8000;0.1604;10.7693;
407.1000;0.1620;10.7669;
407.4000;0.1620;10.7669;
407.7000;0.1636;10.7741;
408.0000;0.1612;10.7669;
408.3000;0.1604;10.7669;
408.6000;0.1612;10.7548;
408.9000;0.1620;10.7524;
409.2000;0.1612;10.7476;
409.5000;0.1595;10.7476;
409.8000;0.1628;10.7596;
410.1000;0.1620;10.7572;
410.4000;0.1628;10.7572;
410.7000;0.1636;10.7548;
411.0000;0.1628;10.7524;
411.3000;0.1620;10.7476;
411.6000;0.1661;10.7548;
411.9000;0.1636;10.7452;
412.2000;0.1620;10.7524;
412.5000;0.1628;10.7500;
412.8000;0.1620;10.7476;
413.1000;0.1612;10.7379;
413.4000;0.1620;10.7403;
413.7000;0.1628;10.7355;
414.0000;0.1636;10.7428;
414.3000;0.1595;10.7452;
414.6000;0.1620;10.7548;
414.9000;0.1612;10.7452;
415.2000;0.1604;10.7379;
415.5000;0.1628;10.7428;
415.8000;0.1620;10.7307;
416.1000;0.1620;10.7283;
416.4000;0.1595;10.7235;
416.7000;0.1620;10.7235;
417.0000;0.1604;10.7283;
417.3000;0.1579;10.7283;
417.6000;0.1604;10.7307;
417.9000;0.1636;10.7307;
418.2000;0.1604;10.7283;
418.5000;0.1612;10.7379;
418.8000;0.1604;10.7476;
419.1000;0.1604;10.7500;
419.4000;0.1555;10.7379;
419.7000;0.1620;10.7572;
420.0000;0.1595;10.7452;
420.3000;0.1595;10.7428;
420.6000;0.1628;10.7500;
420.9000;0.1628;10.7500;
421.2000;0.1628;10.7500;
421.5000;0.1644;10.7500;
421.8000;0.1612;10.7428;
422.1000;0.1636;10.7476;
422.4000;0.1636;10.7524;
422.7000;0.1604;10.7476;
423.0000;0.1612;10.7452;
423.3000;0.1612;10.7379;
423.6000;0.1612;10.7283;
423.9000;0.1604;10.7235;
424.2000;0.1612;10.7186;
424.5000;0.1604;10.7162;
424.8000;0.1612;10.7283;
425.1000;0.1612;10.7403;
425.4000;0.1612;10.7452;
425.7000;0.1595;10.7403;
426.0000;0.1620;10.7355;
426.3000;0.1612;10.7283;
426.6000;0.1612;10.7210;
426.9000;0.1620;10.7210;
427.2000;0.1612;10.7259;
427.5000;0.1628;10.7331;
427.8000;0.1620;10.7379;
428.1000;0.1612;10.7428;
428.4000;0.1547;10.7235;
428.7000;0.1669;10.7524;
429.0000;0.1620;10.7452;
429.3000;0.1620;10.7452;
429.6000;0.1652;10.7476;
429.9000;0.1612;10.7428;
430.2000;0.1620;10.7524;
430.5000;0.1620;10.7452;
430.8000;0.1628;10.7428;
431.1000;0.1693;10.7548;
431.4000;0.1636;10.7331;
431.7000;0.1628;10.7235;
432.0000;0.1604;10.7162;
432.3000;0.1612;10.7259;
432.6000;0.1604;10.7138;
432.9000;0.1669;10.7307;
433.2000;0.1628;10.7186;
433.5000;0.1604;10.7114;
433.8000;0.1604;10.7066;
434.1000;0.1612;10.7090;
434.4000;0.1644;10.7307;
434.7000;0.1612;10.7283;
435.0000;0.1604;10.7379;
435.3000;0.1644;10.7524;
435.6000;0.1612;10.7452;
435.9000;0.1612;10.7379;
436.2000;0.1628;10.7428;
436.5000;0.1604;10.7355;
436.8000;0.1612;10.7403;
437.1000;0.1620;10.7428;
437.4000;0.1612;10.7379;
437.7000;0.1636;10.7476;
438.0000;0.1612;10.7428;
438.3000;0.1595;10.7452;
438.6000;0.1620;10.7452;
438.9000;0.1612;10.7379;
439.2000;0.1620;10.7355;
439.5000;0.1587;10.7307;
439.8000;0.1595;10.7307;
440.1000;0.1604;10.7331;
440.4000;0.1644;10.7355;
440.7000;0.1620;10.7355;
441.0000;0.1595;10.7283;
441.3000;0.1628;10.7307;
441.6000;0.1620;10.7283;
441.9000;0.1620;10.7307;
442.2000;0.1604;10.7283;
442.5000;0.1620;10.7210;
442.8000;0.1620;10.7235;
443.1000;0.1628;10.7307;
443.4000;0.1677;10.7476;
443.7000;0.1604;10.7331;
444.0000;0.1612;10.7307;
444.3000;0.1604;10.7307;
444.6000;0.1628;10.7307;
444.9000;0.1612;10.7307;
445.2000;0.1620;10.7259;
445.5000;0.1620;10.7307;
445.8000;0.1612;10.7259;
446.1000;0.1612;10.7283;
446.4000;0.1595;10.7138;
446.7000;0.1620;10.7235;
447.0000;0.1636;10.7307;
447.3000;0.1612;10.7307;
447.6000;0.1628;10.7283;
447.9000;0.1636;10.7331;
448.2000;0.1604;10.7428;
448.5000;0.1661;10.7524;
448.8000;0.1612;10.7500;
449.1000;0.1571;10.7379;
449.4000;0.1628;10.7428;
449.7000;0.1612;10.7403;
450.0000;0.1604;10.7355;
450.3000;0.1612;10.7259;
450.6000;0.1620;10.7307;
450.9000;0.1579;10.7283;
451.2000;0.1620;10.7452;
451.5000;0.1612;10.7500;
451.8000;0.1620;10.7524;
452.1000;0.1620;10.7524;
452.4000;0.1604;10.7476;
452.7000;0.1636;10.7524;
453.0000;0.1685;10.7789;
453.3000;0.1612;10.7596;
453.6000;0.1604;10.7548;
453.9000;0.1595;10.7500;
454.2000;0.1620;10.7500;
454.5000;0.1620;10.7476;
454.8000;0.1612;10.7452;
455.1000;0.1612;10.7428;
455.4000;0.1628;10.7403;
455.7000;0.1620;10.7331;
456.0000;0.1620;10.7259;
456.3000;0.1595;10.7259;
456.6000;0.1612;10.7331;
456.9000;0.1612;10.7403;
457.2000;0.1612;10.7428;
457.5000;0.1612;10.7428;
457.8000;0.1612;10.7428;
458.1000;0.1628;10.7500;
458.4000;0.1587;10.7331;
458.7000;0.1612;10.7403;
459.0000;0.1612;10.7403;
459.3000;0.1604;10.7500;
459.6000;0.1620;10.7524;
459.9000;0.1612;10.7500;
460.2000;0.1587;10.7428;
460.5000;0.1652;10.7524;
460.8000;0.1620;10.7452;
461.1000;0.1579;10.7307;
461.4000;0.1595;10.7355;
461.7000;0.1612;10.7307;
462.0000;0.1661;10.7331;
462.3000;0.1652;10.7307;
462.6000;0.1612;10.7307;
462.9000;0.1628;10.7379;
463.2000;0.1530;10.7114;
463.5000;0.1620;10.7331;
463.8000;0.1612;10.7379;
464.1000;0.1595;10.7403;
464.4000;0.1604;10.7403;
464.7000;0.1612;10.7476;
465.0000;0.1595;10.7500;
465.3000;0.1563;10.7379;
465.6000;0.1620;10.7524;
465.9000;0.1595;10.7476;
466.2000;0.1604;10.7428;
466.5000;0.1636;10.7428;
466.8000;0.1628;10.7379;
467.1000;0.1595;10.7283;
467.4000;0.1636;10.7403;
467.7000;0.1612;10.7355;
468.0000;0.1604;10.7428;
468.3000;0.1669;10.7621;
468.6000;0.1628;10.7500;
468.9000;0.1555;10.7355;
469.2000;0.1628;10.7476;
469.5000;0.1636;10.7476;
469.8000;0.1612;10.7452;
470.1000;0.1612;10.7307;
470.4000;0.1652;10.7379;
470.7000;0.1595;10.7307;
471.0000;0.1612;10.7283;
471.3000;0.1612;10.7259;
471.6000;0.1612;10.7259;
471.9000;0.1620;10.7259;
472.2000;0.1628;10.7355;
472.5000;0.1620;10.7355;
472.8000;0.1612;10.7307;
473.1000;0.1612;10.7331;
473.4000;0.1620;10.7403;
473.7000;0.1628;10.7452;
474.0000;0.1620;10.7379;
474.3000;0.1604;10.7379;
474.6000;0.1620;10.7379;
474.9000;0.1604;10.7331;
475.2000;0.1628;10.7403;
475.5000;0.1555;10.7186;
475.8000;0.1595;10.7259;
476.1000;0.1612;10.7379;
476.4000;0.1579;10.7452;
476.7000;0.1563;10.7403;
477.0000;0.1612;10.7452;
477.3000;0.1620;10.7452;
477.6000;0.1612;10.7428;
477.9000;0.1628;10.7379;
478.2000;0.1612;10.7283;
478.5000;0.1628;10.7379;
478.8000;0.1628;10.7379;
479.1000;0.1612;10.7331;
479.4000;0.1604;10.7307;
479.7000;0.1604;10.7355;
480.0000;0.1555;10.7210;
480.3000;0.1644;10.7548;
480.6000;0.1595;10.7355;
480.9000;0.1595;10.7355;
481.2000;0.1604;10.7403;
481.5000;0.1636;10.7476;
481.8000;0.1604;10.7428;
482.1000;0.1595;10.7331;
482.4000;0.1620;10.7403;
482.7000;0.1620;10.7452;
483.0000;0.1579;10.7331;
483.3000;0.1547;10.7210;
483.6000;0.1620;10.7379;
483.9000;0.1612;10.7379;
484.2000;0.1620;10.7403;
484.5000;0.1661;10.7476;
484.8000;0.1612;10.7259;
485.1000;0.1620;10.7283;
485.4000;0.1595;10.7186;
485.7000;0.1612;10.7235;
486.0000;0.1612;10.7355;
486.3000;0.1661;10.7524;
486.6000;0.1620;10.7379;
486.9000;0.1718;10.7621;
487.2000;0.1612;10.7355;
487.5000;0.1612;10.7259;
487.8000;0.1628;10.7283;
488.1000;0.1620;10.7307;
488.4000;0.1604;10.7235;
488.7000;0.1612;10.7259;
489.0000;0.1644;10.7283;
489.3000;0.1628;10.7379;
489.6000;0.1620;10.7403;
489.9000;0.1628;10.7403;
490.2000;0.1612;10.7283;
490.5000;0.1612;10.7210;
490.8000;0.1604;10.7162;
491.1000;0.1693;10.7283;
491.4000;0.1612;10.7138;
491.7000;0.1620;10.7210;
492.0000;0.1620;10.7186;
492.3000;0.1652;10.7403;
492.6000;0.1612;10.7355;
492.9000;0.1620;10.7355;
493.2000;0.1644;10.7403;
493.5000;0.1604;10.7355;
493.8000;0.1644;10.7452;
494.1000;0.1604;10.7283;
494.4000;0.1587;10.7259;
494.7000;0.1636;10.7331;
495.0000;0.1612;10.7283;
495.3000;0.1604;10.7210;
495.6000;0.1604;10.7162;
495.9000;0.1644;10.7355;
496.2000;0.1620;10.7283;
496.5000;0.1661;10.7403;
496.8000;0.1604;10.7283;
497.1000;0.1604;10.7210;
497.4000;0.1555;10.7018;
497.7000;0.1530;10.7114;
498.0000;0.1604;10.7307;
498.3000;0.1636;10.7355;
498.6000;0.1612;10.7210;
498.9000;0.1604;10.7283;
499.2000;0.1620;10.7259;
499.5000;0.1669;10.7452;
499.8000;0.1612;10.7307;
500.1000;0.1620;10.7162;
500.4000;0.1612;10.7162;
500.7000;0.1604;10.7210;
501.0000;0.1612;10.7259;
501.3000;0.1604;10.7283;
501.6000;0.1644;10.7379;
501.9000;0.1620;10.7331;
502.2000;0.1612;10.7307;
502.5000;0.1587;10.7186;
502.8000;0.1620;10.7186;
503.1000;0.1612;10.7210;
503.4000;0.1604;10.7235;
503.7000;0.1612;10.7186;
504.0000;0.1604;10.7283;
504.3000;0.1644;10.7403;
504.6000;0.1604;10.7259;
504.9000;0.1604;10.7235;
505.2000;0.1612;10.7186;
505.5000;0.1620;10.7210;
505.8000;0.1620;10.7235;
506.1000;0.1604;10.7259;
506.4000;0.1612;10.7210;
506.7000;0.1612;10.7162;
507.0000;0.1620;10.7138;
507.3000;0.1612;10.7186;
507.6000;0.1620;10.7259;
507.9000;0.1612;10.7331;
508.2000;0.1595;10.7379;
508.5000;0.1571;10.7355;
508.8000;0.1612;10.7283;
509.1000;0.1628;10.7307;
509.4000;0.1628;10.7331;
509.7000;0.1604;10.7331;
510.0000;0.1587;10.7162;
510.3000;0.1595;10.7186;
510.6000;0.1612;10.7259;
510.9000;0.1620;10.7210;
511.2000;0.1612;10.7186;
511.5000;0.1612;10.7235;
511.8000;0.1620;10.7331;
512.1000;0.1604;10.7355;
512.4000;0.1604;10.7355;
512.7000;0.1620;10.7307;
513.0000;0.1604;10.7235;
513.3000;0.1587;10.7259;
513.6000;0.1595;10.7283;
513.9000;0.1604;10.7355;
514.2000;0.1620;10.7331;
514.5000;0.1628;10.7307;
514.8000;0.1612;10.7307;
515.1000;0.1604;10.7283;
515.4000;0.1595;10.7283;
515.7000;0.1612;10.7331;
516.0000;0.1628;10.7331;
516.3000;0.1604;10.7235;
516.6000;0.1612;10.7283;
516.9000;0.1620;10.7210;
517.2000;0.1628;10.7259;
517.5000;0.1612;10.7186;
517.8000;0.1612;10.7210;
518.1000;0.1604;10.7235;
518.4000;0.1636;10.7259;
518.7000;0.1628;10.7283;
519.0000;0.1612;10.7307;
519.3000;0.1620;10.7331;
519.6000;0.1628;10.7259;
519.9000;0.1620;10.7235;
520.2000;0.1620;10.7283;
520.5000;0.1595;10.7186;
520.8000;0.1612;10.7307;
521.1000;0.1604;10.7283;
521.4000;0.1620;10.7307;
521.7000;0.1612;10.7283;
522.0000;0.1604;10.7210;
522.3000;0.1579;10.7114;
522.6000;0.1547;10.6897;
522.9000;0.1628;10.7210;
523.2000;0.1604;10.7162;
523.5000;0.1612;10.7210;
523.8000;0.1620;10.7259;
524.1000;0.1604;10.7162;
524.4000;0.1620;10.7162;
524.7000;0.1620;10.7138;
525.0000;0.1636;10.7210;
525.3000;0.1612;10.7114;
525.6000;0.1612;10.7235;
525.9000;0.1620;10.7355;
526.2000;0.1604;10.7307;
526.5000;0.1628;10.7331;
526.8000;0.1620;10.7307;
527.1000;0.1579;10.7210;
527.4000;0.1604;10.7235;
527.7000;0.1612;10.7186;
528.0000;0.1628;10.7162;
528.3000;0.1612;10.7186;
528.6000;0.1628;10.7186;
528.9000;0.1612;10.7162;
529.2000;0.1612;10.7235;
529.5000;0.1595;10.7210;
529.8000;0.1620;10.7283;
530.1000;0.1620;10.7331;
530.4000;0.1620;10.7379;
530.7000;0.1604;10.7307;
531.0000;0.1604;10.7307;
531.3000;0.1620;10.7403;
531.6000;0.1612;10.7379;
531.9000;0.1620;10.7428;
532.2000;0.1604;10.7379;
532.5000;0.1612;10.7307;
532.8000;0.1612;10.7283;
533.1000;0.1587;10.7307;
533.4000;0.1612;10.7355;
533.7000;0.1620;10.7355;
534.0000;0.1612;10.7355;
534.3000;0.1661;10.7500;
534.6000;0.1612;10.7428;
534.9000;0.1620;10.7428;
535.2000;0.1644;10.7452;
535.5000;0.1612;10.7379;
535.8000;0.1620;10.7283;
536.1000;0.1620;10.7259;
536.4000;0.1579;10.7090;
536.7000;0.1604;10.7186;
537.0000;0.1604;10.7138;
537.3000;0.1612;10.7162;
537.6000;0.1612;10.7138;
537.9000;0.1604;10.7090;
538.2000;0.1595;10.7066;
538.5000;0.1595;10.7090;
538.8000;0.1612;10.7090;
539.1000;0.1620;10.7018;
539.4000;0.1661;10.7162;
539.7000;0.1628;10.6993;
540.0000;0.1644;10.7162;
540.3000;0.1628;10.7259;
540.6000;0.1604;10.7307;
540.9000;0.1538;10.7090;
541.2000;0.1612;10.7307;
541.5000;0.1612;10.7283;
541.8000;0.1604;10.7283;
542.1000;0.1595;10.7307;
542.4000;0.1587;10.7331;
542.7000;0.1612;10.7428;
543.0000;0.1604;10.7403;
543.3000;0.1587;10.7428;
543.6000;0.1604;10.7428;
543.9000;0.1604;10.7403;
544.2000;0.1595;10.7379;
544.5000;0.1612;10.7283;
544.8000;0.1612;10.7307;
545.1000;0.1644;10.7331;
545.4000;0.1612;10.7283;
545.7000;0.1604;10.7259;
546.0000;0.1595;10.7210;
546.3000;0.1604;10.7259;
546.6000;0.1604;10.7307;
546.9000;0.1595;10.7307;
547.2000;0.1628;10.7355;
547.5000;0.1579;10.7355;
547.8000;0.1628;10.7524;
548.1000;0.1604;10.7524;
548.4000;0.1595;10.7476;
548.7000;0.1579;10.7428;
549.0000;0.1604;10.7476;
549.3000;0.1644;10.7572;
549.6000;0.1628;10.7452;
549.9000;0.1612;10.7403;
550.2000;0.1620;10.7452;
550.5000;0.1620;10.7428;
550.8000;0.1604;10.7452;
551.1000;0.1612;10.7476;
551.4000;0.1612;10.7452;
551.7000;0.1595;10.7403;
552.0000;0.1595;10.7403;
552.3000;0.1538;10.7235;
552.6000;0.1612;10.7403;
552.9000;0.1612;10.7307;
553.2000;0.1612;10.7307;
553.5000;0.1612;10.7331;
553.8000;0.1579;10.7259;
554.1000;0.1571;10.7283;
554.4000;0.1522;10.7210;
554.7000;0.1612;10.7428;
555.0000;0.1604;10.7403;
555.3000;0.1587;10.7379;
555.6000;0.1612;10.7403;
555.9000;0.1604;10.7548;
556.2000;0.1628;10.7596;
556.5000;0.1620;10.7621;
556.8000;0.1612;10.7645;
557.1000;0.1604;10.7645;
557.4000;0.1595;10.7596;
557.7000;0.1595;10.7572;
558.0000;0.1612;10.7572;
558.3000;0.1636;10.7524;
558.6000;0.1587;10.7428;
558.9000;0.1628;10.7596;
559.2000;0.1652;10.7717;
559.5000;0.1604;10.7596;
559.8000;0.1612;10.7596;
560.1000;0.1685;10.7765;
560.4000;0.1693;10.7813;
560.7000;0.1620;10.7596;
561.0000;0.1636;10.7596;
561.3000;0.1620;10.7452;
561.6000;0.1628;10.7355;
561.9000;0.1522;10.7018;
562.2000;0.1612;10.7283;
562.5000;0.1595;10.7283;
562.8000;0.1612;10.7452;
563.1000;0.1595;10.7379;
563.4000;0.1612;10.7476;
563.7000;0.1595;10.7476;
564.0000;0.1612;10.7500;
564.3000;0.1612;10.7452;
564.6000;0.1595;10.7403;
564.9000;0.1604;10.7355;
565.2000;0.1628;10.7379;
565.5000;0.1636;10.7452;
565.8000;0.1604;10.7379;
566.1000;0.1620;10.7476;
566.4000;0.1587;10.7379;
566.7000;0.1604;10.7452;
567.0000;0.1604;10.7452;
567.3000;0.1604;10.7452;
567.6000;0.1604;10.7500;
567.9000;0.1612;10.7524;
568.2000;0.1612;10.7572;
568.5000;0.1652;10.7572;
568.8000;0.1612;10.7428;
569.1000;0.1604;10.7403;
569.4000;0.1628;10.7476;
569.7000;0.1604;10.7476;
570.0000;0.1612;10.7428;
570.3000;0.1620;10.7452;
570.6000;0.1604;10.7403;
570.9000;0.1669;10.7500;
571.2000;0.1612;10.7403;
571.5000;0.1612;10.7452;
571.8000;0.1628;10.7452;
572.1000;0.1742;10.7789;
572.4000;0.1620;10.7524;
572.7000;0.1555;10.7379;
573.0000;0.1571;10.7500;
573.3000;0.1604;10.7621;
573.6000;0.1620;10.7500;
573.9000;0.1612;10.7452;
574.2000;0.1604;10.7355;
574.5000;0.1636;10.7403;
574.8000;0.1612;10.7307;
575.1000;0.1530;10.7042;
575.4000;0.1620;10.7403;
575.7000;0.1620;10.7403;
576.0000;0.1620;10.7476;
576.3000;0.1620;10.7500;
576.6000;0.1579;10.7452;
576.9000;0.1620;10.7548;
577.2000;0.1595;10.7476;
577.5000;0.1644;10.7693;
577.8000;0.1612;10.7572;
578.1000;0.1595;10.7500;
578.4000;0.1628;10.7548;
578.7000;0.1612;10.7476;
579.0000;0.1604;10.7524;
579.3000;0.1620;10.7524;
579.6000;0.1604;10.7524;
579.9000;0.1620;10.7500;
580.2000;0.1620;10.7379;
580.5000;0.1612;10.7379;
580.8000;0.1669;10.7596;
581.1000;0.1604;10.7283;
581.4000;0.1595;10.7210;
581.7000;0.1612;10.7162;
582.0000;0.1612;10.7235;
582.3000;0.1628;10.7259;
582.6000;0.1604;10.7162;
582.9000;0.1604;10.7162;
583.2000;0.1620;10.7259;
583.5000;0.1620;10.7210;
583.8000;0.1612;10.7235;
584.1000;0.1595;10.7210;
584.4000;0.1595;10.7210;
584.7000;0.1636;10.7235;
585.0000;0.1636;10.7210;
585.3000;0.1595;10.7210;
585.6000;0.1612;10.7283;
585.9000;0.1579;10.7186;
586.2000;0.1612;10.7307;
586.5000;0.1636;10.7331;
586.8000;0.1620;10.7307;
587.1000;0.1587;10.7283;
587.4000;0.1628;10.7403;
587.7000;0.1604;10.7307;
588.0000;0.1604;10.7307;
588.3000;0.1636;10.7403;
588.6000;0.1620;10.7452;
588.9000;0.1612;10.7379;
589.2000;0.1636;10.7428;
589.5000;0.1604;10.7452;
589.8000;0.1604;10.7548;
590.1000;0.1612;10.7572;
590.4000;0.1604;10.7596;
590.7000;0.1644;10.7669;
591.0000;0.1636;10.7596;
591.3000;0.1612;10.7500;
591.6000;0.1612;10.7403;
591.9000;0.1612;10.7331;
592.2000;0.1612;10.7403;
592.5000;0.1620;10.7379;
592.8000;0.1628;10.7428;
593.1000;0.1604;10.7283;
593.4000;0.1612;10.7331;
593.7000;0.1628;10.7452;
594.0000;0.1612;10.7428;
594.3000;0.1595;10.7355;
594.6000;0.1612;10.7476;
594.9000;0.1595;10.7355;
595.2000;0.1636;10.7403;
595.5000;0.1604;10.7355;
595.8000;0.1579;10.7283;
596.1000;0.1612;10.7403;
596.4000;0.1628;10.7524;
596.7000;0.1612;10.7548;
597.0000;0.1595;10.7524;
597.3000;0.1636;10.7645;
597.6000;0.1587;10.7524;
597.9000;0.1612;10.7596;
598.2000;0.1620;10.7548;
598.5000;0.1677;10.7693;
598.8000;0.1612;10.7452;
599.1000;0.1563;10.7235;
599.4000;0.1620;10.7428;
599.7000;0.1595;10.7331;
600.0000;0.1661;10.7524;
600.3000;0.1595;10.7452;
600.6000;0.1555;10.7259;
600.9000;0.1612;10.7259;
601.2000;0.1652;10.7331;
601.5000;0.1612;10.7138;
601.8000;0.1571;10.6897;
602.1000;0.1522;10.6632;
602.4000;0.1547;10.6632;
602.7000;0.1498;10.6439;
603.0000;0.1530;10.6318;
603.3000;0.1530;10.6270;
603.6000;0.1530;10.6149;
603.9000;0.1498;10.5884;
604.2000;0.1522;10.5860;
604.5000;0.1522;10.5836;
604.8000;0.1514;10.5715;
605.1000;0.1498;10.5522;
605.4000;0.1498;10.5450;
605.7000;0.1498;10.5426;
606.0000;0.1490;10.5257;
606.3000;0.1506;10.5160;
606.6000;0.1506;10.5184;
606.9000;0.1514;10.5209;
607.2000;0.1522;10.5184;
607.5000;0.1490;10.5136;
607.8000;0.1506;10.5160;
608.1000;0.1490;10.4991;
608.4000;0.1506;10.5064;
608.7000;0.1498;10.5088;
609.0000;0.1506;10.5088;
609.3000;0.1465;10.5040;
609.6000;0.1506;10.5136;
609.9000;0.1441;10.4991;
610.2000;0.1481;10.5136;
610.5000;0.1490;10.5064;
610.8000;0.1473;10.5016;
611.1000;0.1481;10.4967;
611.4000;0.1481;10.4943;
611.7000;0.1481;10.4919;
612.0000;0.1481;10.4895;
612.3000;0.1490;10.4919;
612.6000;0.1473;10.4895;
612.9000;0.1465;10.4847;
613.2000;0.1457;10.4967;
613.5000;0.1416;10.4654;
613.8000;0.1481;10.4847;
614.1000;0.1473;10.4847;
614.4000;0.1457;10.4823;
614.7000;0.1465;10.4871;
615.0000;0.1506;10.5040;
615.3000;0.1457;10.5016;
615.6000;0.1433;10.5088;
615.9000;0.1481;10.5136;
616.2000;0.1425;10.4919;
616.5000;0.1376;10.4871;
616.8000;0.1473;10.5016;
617.1000;0.1490;10.5088;
617.4000;0.1473;10.5040;
617.7000;0.1498;10.5136;
618.0000;0.1449;10.4967;
618.3000;0.1416;10.4847;
618.6000;0.1473;10.4967;
618.9000;0.1490;10.4967;
619.2000;0.1481;10.4967;
619.5000;0.1481;10.4991;
619.8000;0.1473;10.4919;
620.1000;0.1481;10.4943;
620.4000;0.1481;10.5040;
620.7000;0.1473;10.5040;
621.0000;0.1490;10.5088;
621.3000;0.1473;10.5040;
621.6000;0.1498;10.5136;
621.9000;0.1555;10.5233;
622.2000;0.1490;10.5112;
622.5000;0.1481;10.5016;
622.8000;0.1490;10.4991;
623.1000;0.1506;10.4991;
623.4000;0.1490;10.4967;
623.7000;0.1465;10.4967;
624.0000;0.1490;10.4967;
624.3000;0.1473;10.4823;
624.6000;0.1457;10.4799;
624.9000;0.1465;10.4895;
625.2000;0.1433;10.4871;
625.5000;0.1481;10.4943;
625.8000;0.1481;10.4895;
626.1000;0.1481;10.4991;
626.4000;0.1481;10.5064;
626.7000;0.1481;10.5160;
627.0000;0.1506;10.5257;
627.3000;0.1473;10.5160;
627.6000;0.1465;10.5136;
627.9000;0.1490;10.5209;
628.2000;0.1538;10.5257;
628.5000;0.1481;10.5160;
628.8000;0.1465;10.5088;
629.1000;0.1473;10.5112;
629.4000;0.1481;10.5233;
629.7000;0.1490;10.5281;
630.0000;0.1473;10.5233;
630.3000;0.1449;10.5209;
630.6000;0.1481;10.5353;
630.9000;0.1465;10.5305;
631.2000;0.1498;10.5233;
631.5000;0.1465;10.5160;
631.8000;0.1481;10.5112;
632.1000;0.1481;10.5064;
632.4000;0.1498;10.5112;
632.7000;0.1473;10.5016;
633.0000;0.1490;10.5064;
633.3000;0.1473;10.4991;
633.6000;0.1481;10.4967;
633.9000;0.1481;10.4967;
634.2000;0.1555;10.5184;
634.5000;0.1490;10.5040;
634.8000;0.1457;10.4895;
635.1000;0.1490;10.4919;
635.4000;0.1506;10.4919;
635.7000;0.1457;10.4799;
636.0000;0.1465;10.4919;
636.3000;0.1490;10.5040;
636.6000;0.1473;10.4847;
636.9000;0.1473;10.4823;
637.2000;0.1514;10.4895;
637.5000;0.1465;10.4774;
637.8000;0.1408;10.4654;
638.1000;0.1498;10.4919;
638.4000;0.1473;10.4823;
638.7000;0.1465;10.4750;
639.0000;0.1376;10.4437;
639.3000;0.1465;10.4702;
639.6000;0.1538;10.4895;
639.9000;0.1490;10.4774;
640.2000;0.1416;10.4630;
640.5000;0.1441;10.4702;
640.8000;0.1473;10.4847;
641.1000;0.1481;10.4847;
641.4000;0.1490;10.4774;
641.7000;0.1465;10.4606;
642.0000;0.1473;10.4654;
642.3000;0.1481;10.4774;
642.6000;0.1481;10.4847;
642.9000;0.1473;10.4799;
643.2000;0.1490;10.4750;
643.5000;0.1498;10.4581;
643.8000;0.1490;10.4581;
644.1000;0.1490;10.4606;
644.4000;0.1465;10.4557;
644.7000;0.1490;10.4726;
645.0000;0.1481;10.4726;
645.3000;0.1473;10.4702;
645.6000;0.1473;10.4726;
645.9000;0.1514;10.4654;
646.2000;0.1473;10.4557;
646.5000;0.1481;10.4533;
646.8000;0.1473;10.4485;
647.1000;0.1433;10.4437;
647.4000;0.1465;10.4581;
647.7000;0.1490;10.4630;
648.0000;0.1473;10.4726;
648.3000;0.1481;10.4726;
648.6000;0.1490;10.4750;
648.9000;0.1457;10.4630;
649.2000;0.1433;10.4606;
649.5000;0.1473;10.4606;
649.8000;0.1465;10.4678;
650.1000;0.1530;10.4750;
650.4000;0.1465;10.4557;
650.7000;0.1481;10.4557;
651.0000;0.1490;10.4557;
651.3000;0.1473;10.4630;
651.6000;0.1465;10.4630;
651.9000;0.1473;10.4702;
652.2000;0.1481;10.4726;
652.5000;0.1481;10.4799;
652.8000;0.1490;10.4871;
653.1000;0.1473;10.4702;
653.4000;0.1571;10.4871;
653.7000;0.1498;10.4750;
654.0000;0.1498;10.4726;
654.3000;0.1481;10.4726;
654.6000;0.1465;10.4606;
654.9000;0.1498;10.4654;
655.2000;0.1473;10.4509;
655.5000;0.1473;10.4485;
655.8000;0.1457;10.4461;
656.1000;0.1465;10.4533;
656.4000;0.1449;10.4485;
656.7000;0.1465;10.4581;
657.0000;0.1481;10.4606;
657.3000;0.1481;10.4581;
657.6000;0.1473;10.4630;
657.9000;0.1506;10.4774;
658.2000;0.1433;10.4678;
658.5000;0.1498;10.4847;
658.8000;0.1408;10.4509;
659.1000;0.1481;10.4726;
659.4000;0.1457;10.4654;
659.7000;0.1473;10.4678;
660.0000;0.1473;10.4606;
660.3000;0.1490;10.4630;
660.6000;0.1441;10.4461;
660.9000;0.1506;10.4678;
661.2000;0.1481;10.4678;
661.5000;0.1465;10.4533;
661.8000;0.1490;10.4654;
662.1000;0.1473;10.4606;
662.4000;0.1473;10.4630;
662.7000;0.1498;10.4750;
663.0000;0.1441;10.4606;
663.3000;0.1481;10.4630;
663.6000;0.1473;10.4630;
663.9000;0.1481;10.4630;
664.2000;0.1473;10.4630;
664.5000;0.1473;10.4630;
664.8000;0.1473;10.4630;
665.1000;0.1481;10.4606;
665.4000;0.1465;10.4581;
665.7000;0.1473;10.4702;
666.0000;0.1498;10.4750;
666.3000;0.1473;10.4630;
666.6000;0.1473;10.4630;
666.9000;0.1481;10.4606;
667.2000;0.1465;10.4581;
667.5000;0.1490;10.4557;
667.8000;0.1481;10.4581;
668.1000;0.1481;10.4509;
668.4000;0.1481;10.4461;
668.7000;0.1498;10.4413;
669.0000;0.1473;10.4389;
669.3000;0.1433;10.4244;
669.6000;0.1473;10.4340;
669.9000;0.1465;10.4389;
670.2000;0.1514;10.4509;
670.5000;0.1481;10.4437;
670.8000;0.1473;10.4461;
671.1000;0.1547;10.4678;
671.4000;0.1481;10.4581;
671.7000;0.1481;10.4581;
672.0000;0.1481;10.4581;
672.3000;0.1530;10.4678;
672.6000;0.1481;10.4606;
672.9000;0.1481;10.4630;
673.2000;0.1481;10.4702;
673.5000;0.1481;10.4702;
673.8000;0.1498;10.4630;
674.1000;0.1481;10.4581;
674.4000;0.1473;10.4702;
674.7000;0.1473;10.4799;
675.0000;0.1473;10.4750;
675.3000;0.1481;10.4726;
675.6000;0.1490;10.4678;
675.9000;0.1498;10.4630;
676.2000;0.1392;10.4413;
676.5000;0.1473;10.4654;
676.8000;0.1473;10.4726;
677.1000;0.1473;10.4678;
677.4000;0.1441;10.4461;
677.7000;0.1490;10.4581;
678.0000;0.1490;10.4630;
678.3000;0.1473;10.4533;
678.6000;0.1498;10.4702;
678.9000;0.1481;10.4630;
679.2000;0.1481;10.4630;
679.5000;0.1481;10.4606;
679.8000;0.1481;10.4581;
680.1000;0.1465;10.4509;
680.4000;0.1481;10.4581;
680.7000;0.1465;10.4606;
681.0000;0.1384;10.4437;
681.3000;0.1490;10.4630;
681.6000;0.1473;10.4557;
681.9000;0.1481;10.4606;
682.2000;0.1514;10.4678;
682.5000;0.1473;10.4581;
682.8000;0.1400;10.4316;
683.1000;0.1498;10.4533;
683.4000;0.1473;10.4461;
683.7000;0.1441;10.4340;
684.0000;0.1530;10.4557;
684.3000;0.1441;10.4389;
684.6000;0.1481;10.4533;
684.9000;0.1473;10.4437;
685.2000;0.1481;10.4437;
685.5000;0.1416;10.4316;
685.8000;0.1481;10.4654;
686.1000;0.1555;10.4871;
686.4000;0.1473;10.4606;
686.7000;0.1465;10.4557;
687.0000;0.1392;10.4364;
687.3000;0.1473;10.4606;
687.6000;0.1473;10.4654;
687.9000;0.1465;10.4606;
688.2000;0.1490;10.4630;
688.5000;0.1473;10.4678;
688.8000;0.1481;10.4726;
689.1000;0.1490;10.4654;
689.4000;0.1465;10.4606;
689.7000;0.1465;10.4509;
690.0000;0.1465;10.4533;
690.3000;0.1481;10.4581;
690.6000;0.1481;10.4557;
690.9000;0.1481;10.4557;
691.2000;0.1465;10.4533;
691.5000;0.1481;10.4606;
691.8000;0.1514;10.4726;
692.1000;0.1473;10.4630;
692.4000;0.1473;10.4750;
692.7000;0.1473;10.4630;
693.0000;0.1481;10.4678;
693.3000;0.1522;10.4702;
693.6000;0.1473;10.4630;
693.9000;0.1465;10.4678;
694.2000;0.1473;10.4630;
694.5000;0.1490;10.4678;
694.8000;0.1490;10.4630;
695.1000;0.1498;10.4654;
695.4000;0.1490;10.4581;
695.7000;0.1481;10.4606;
696.0000;0.1465;10.4581;
696.3000;0.1481;10.4630;
696.6000;0.1481;10.4630;
696.9000;0.1368;10.4437;
697.2000;0.1473;10.4726;
697.5000;0.1449;10.4630;
697.8000;0.1473;10.4654;
698.1000;0.1457;10.4678;
698.4000;0.1473;10.4702;
698.7000;0.1465;10.4678;
699.0000;0.1490;10.4654;
699.3000;0.1481;10.4630;
699.6000;0.1457;10.4606;
699.9000;0.1473;10.4630;
700.2000;0.1465;10.4606;
700.5000;0.1473;10.4581;
700.8000;0.1481;10.4606;
701.1000;0.1522;10.4726;
701.4000;0.1465;10.4581;
701.7000;0.1473;10.4606;
702.0000;0.1473;10.4630;
702.3000;0.1481;10.4606;
702.6000;0.1465;10.4533;
702.9000;0.1457;10.4461;
703.2000;0.1473;10.4557;
703.5000;0.1481;10.4509;
703.8000;0.1473;10.4509;
704.1000;0.1481;10.4509;
704.4000;0.1465;10.4461;
704.7000;0.1490;10.4630;
705.0000;0.1579;10.4847;
705.3000;0.1449;10.4316;
705.6000;0.1481;10.4413;
705.9000;0.1490;10.4461;
706.2000;0.1481;10.4581;
706.5000;0.1481;10.4654;
706.8000;0.1457;10.4630;
707.1000;0.1457;10.4581;
707.4000;0.1457;10.4533;
707.7000;0.1604;10.4895;
708.0000;0.1571;10.4750;
708.3000;0.1400;10.4316;
708.6000;0.1465;10.4533;
708.9000;0.1498;10.4654;
709.2000;0.1490;10.4630;
709.5000;0.1473;10.4630;
709.8000;0.1481;10.4630;
710.1000;0.1490;10.4606;
710.4000;0.1441;10.4485;
710.7000;0.1490;10.4606;
711.0000;0.1538;10.4702;
711.3000;0.1481;10.4606;
711.6000;0.1433;10.4461;
711.9000;0.1481;10.4581;
712.2000;0.1457;10.4485;
712.5000;0.1457;10.4485;
712.8000;0.1425;10.4389;
713.1000;0.1465;10.4557;
713.4000;0.1465;10.4557;
713.7000;0.1473;10.4581;
714.0000;0.1481;10.4654;
714.3000;0.1473;10.4630;
714.6000;0.1392;10.4268;
714.9000;0.1522;10.4606;
715.2000;0.1441;10.4389;
715.5000;0.1465;10.4389;
715.8000;0.1465;10.4485;
716.1000;0.1587;10.4774;
716.4000;0.1481;10.4437;
716.7000;0.1465;10.4340;
717.0000;0.1465;10.4340;
717.3000;0.1416;10.4268;
717.6000;0.1457;10.4437;
717.9000;0.1473;10.4533;
718.2000;0.1473;10.4485;
718.5000;0.1490;10.4533;
718.8000;0.1473;10.4509;
719.1000;0.1498;10.4581;
719.4000;0.1465;10.4461;
719.7000;0.1465;10.4509;
720.0000;0.1514;10.4485;
720.3000;0.1490;10.4389;
720.6000;0.1473;10.4461;
720.9000;0.1490;10.4557;
721.2000;0.1498;10.4630;
721.5000;0.1465;10.4581;
721.8000;0.1465;10.4630;
722.1000;0.1498;10.4606;
722.4000;0.1449;10.4413;
722.7000;0.1481;10.4485;
723.0000;0.1481;10.4461;
723.3000;0.1457;10.4364;
723.6000;0.1465;10.4461;
723.9000;0.1490;10.4606;
724.2000;0.1473;10.4533;
724.5000;0.1506;10.4581;
724.8000;0.1530;10.4630;
725.1000;0.1473;10.4557;
725.4000;0.1481;10.4630;
725.7000;0.1481;10.4702;
726.0000;0.1457;10.4557;
726.3000;0.1498;10.4557;
726.6000;0.1514;10.4630;
726.9000;0.1481;10.4533;
727.2000;0.1465;10.4509;
727.5000;0.1441;10.4557;
727.8000;0.1490;10.4606;
728.1000;0.1481;10.4606;
728.4000;0.1465;10.4630;
728.7000;0.1465;10.4606;
729.0000;0.1465;10.4509;
729.3000;0.1465;10.4581;
729.6000;0.1473;10.4581;
729.9000;0.1481;10.4630;
730.2000;0.1481;10.4557;
730.5000;0.1481;10.4557;
730.8000;0.1481;10.4437;
731.1000;0.1449;10.4413;
731.4000;0.1587;10.4823;
731.7000;0.1457;10.4389;
732.0000;0.1490;10.4461;
732.3000;0.1425;10.4364;
732.6000;0.1457;10.4533;
732.9000;0.1506;10.4654;
733.2000;0.1481;10.4678;
733.5000;0.1408;10.4557;
733.8000;0.1473;10.4799;
734.1000;0.1457;10.4799;
734.4000;0.1473;10.4799;
734.7000;0.1465;10.4702;
735.0000;0.1473;10.4678;
735.3000;0.1465;10.4702;
735.6000;0.1490;10.4750;
735.9000;0.1457;10.4702;
736.2000;0.1457;10.4654;
736.5000;0.1465;10.4678;
736.8000;0.1490;10.4774;
737.1000;0.1490;10.4823;
737.4000;0.1498;10.4943;
737.7000;0.1481;10.4919;
738.0000;0.1481;10.4895;
738.3000;0.1457;10.4799;
738.6000;0.1473;10.4702;
738.9000;0.1441;10.4581;
739.2000;0.1481;10.4726;
739.5000;0.1481;10.4750;
739.8000;0.1490;10.4726;
740.1000;0.1538;10.4847;
740.4000;0.1490;10.4702;
740.7000;0.1498;10.4654;
741.0000;0.1481;10.4606;
741.3000;0.1465;10.4630;
741.6000;0.1473;10.4557;
741.9000;0.1490;10.4606;
742.2000;0.1563;10.4943;
742.5000;0.1473;10.4726;
742.8000;0.1498;10.4726;
743.1000;0.1449;10.4702;
743.4000;0.1481;10.4823;
743.7000;0.1449;10.4726;
744.0000;0.1481;10.4654;
744.3000;0.1473;10.4533;
744.6000;0.1481;10.4509;
744.9000;0.1498;10.4533;
745.2000;0.1457;10.4485;
745.5000;0.1473;10.4557;
745.8000;0.1473;10.4606;
746.1000;0.1465;10.4557;
746.4000;0.1506;10.4630;
746.7000;0.1481;10.4581;
747.0000;0.1498;10.4678;
747.3000;0.1473;10.4678;
747.6000;0.1465;10.4581;
747.9000;0.1490;10.4630;
748.2000;0.1490;10.4557;
748.5000;0.1449;10.4533;
748.8000;0.1481;10.4606;
749.1000;0.1498;10.4630;
749.4000;0.1465;10.4581;
749.7000;0.1473;10.4606;
750.0000;0.1465;10.4581;
750.3000;0.1473;10.4581;
750.6000;0.1481;10.4557;
750.9000;0.1498;10.4630;
751.2000;0.1473;10.4654;
751.5000;0.1457;10.4678;
751.8000;0.1481;10.4654;
752.1000;0.1481;10.4606;
752.4000;0.1481;10.4630;
752.7000;0.1473;10.4533;
753.0000;0.1465;10.4533;
753.3000;0.1457;10.4485;
753.6000;0.1449;10.4509;
753.9000;0.1490;10.4606;
754.2000;0.1473;10.4630;
754.5000;0.1481;10.4702;
754.8000;0.1490;10.4630;
755.1000;0.1465;10.4533;
755.4000;0.1473;10.4581;
755.7000;0.1506;10.4726;
756.0000;0.1514;10.4774;
756.3000;0.1473;10.4630;
756.6000;0.1473;10.4606;
756.9000;0.1473;10.4533;
757.2000;0.1547;10.4750;
757.5000;0.1473;10.4606;
757.8000;0.1465;10.4557;
758.1000;0.1473;10.4485;
758.4000;0.1498;10.4509;
758.7000;0.1473;10.4364;
759.0000;0.1473;10.4389;
759.3000;0.1473;10.4389;
759.6000;0.1490;10.4413;
759.9000;0.1473;10.4364;
760.2000;0.1498;10.4485;
760.5000;0.1441;10.4413;
760.8000;0.1481;10.4389;
761.1000;0.1441;10.4364;
761.4000;0.1473;10.4461;
761.7000;0.1465;10.4509;
762.0000;0.1465;10.4557;
762.3000;0.1481;10.4606;
762.6000;0.1465;10.4678;
762.9000;0.1465;10.4606;
763.2000;0.1473;10.4606;
763.5000;0.1473;10.4533;
763.8000;0.1449;10.4461;
764.1000;0.1465;10.4461;
764.4000;0.1457;10.4461;
764.7000;0.1473;10.4557;
765.0000;0.1473;10.4630;
765.3000;0.1433;10.4509;
765.6000;0.1473;10.4509;
765.9000;0.1465;10.4533;
766.2000;0.1571;10.4799;
766.5000;0.1481;10.4485;
766.8000;0.1490;10.4485;
767.1000;0.1490;10.4509;
767.4000;0.1473;10.4509;
767.7000;0.1498;10.4557;
768.0000;0.1490;10.4533;
768.3000;0.1498;10.4630;
768.6000;0.1506;10.4654;
768.9000;0.1490;10.4581;
769.2000;0.1481;10.4509;
769.5000;0.1481;10.4485;
769.8000;0.1481;10.4461;
770.1000;0.1400;10.4196;
770.4000;0.1498;10.4485;
770.7000;0.1481;10.4461;
771.0000;0.1506;10.4533;
771.3000;0.1481;10.4581;
771.6000;0.1473;10.4557;
771.9000;0.1449;10.4557;
772.2000;0.1481;10.4678;
772.5000;0.1490;10.4654;
772.8000;0.1481;10.4678;
773.1000;0.1481;10.4702;
773.4000;0.1514;10.4726;
773.7000;0.1481;10.4630;
774.0000;0.1473;10.4678;
774.3000;0.1465;10.4702;
774.6000;0.1481;10.4726;
774.9000;0.1473;10.4654;
775.2000;0.1481;10.4750;
775.5000;0.1506;10.4774;
775.8000;0.1481;10.4750;
776.1000;0.1457;10.4630;
776.4000;0.1506;10.4847;
776.7000;0.1490;10.4823;
777.0000;0.1563;10.5040;
777.3000;0.1481;10.4823;
777.6000;0.1490;10.4847;
777.9000;0.1473;10.4871;
778.2000;0.1490;10.4919;
778.5000;0.1498;10.4871;
778.8000;0.1481;10.4799;
779.1000;0.1481;10.4799;
779.4000;0.1473;10.4823;
779.7000;0.1473;10.4847;
780.0000;0.1490;10.4871;
780.3000;0.1481;10.4799;
780.6000;0.1522;10.4895;
780.9000;0.1481;10.4799;
781.2000;0.1587;10.5064;
781.5000;0.1473;10.4871;
781.8000;0.1465;10.4774;
782.1000;0.1449;10.4702;
782.4000;0.1425;10.4654;
782.7000;0.1457;10.4750;
783.0000;0.1538;10.5040;
783.3000;0.1481;10.4895;
783.6000;0.1465;10.4895;
783.9000;0.1441;10.4943;
784.2000;0.1481;10.5016;
784.5000;0.1498;10.5088;
784.8000;0.1465;10.5016;
785.1000;0.1465;10.5016;
785.4000;0.1457;10.4895;
785.7000;0.1481;10.4871;
786.0000;0.1481;10.4871;
786.3000;0.1490;10.4847;
786.6000;0.1473;10.4847;
786.9000;0.1481;10.4799;
787.2000;0.1359;10.4533;
787.5000;0.1481;10.4799;
787.8000;0.1490;10.4871;
788.1000;0.1368;10.4485;
788.4000;0.1473;10.4750;
788.7000;0.1473;10.4726;
789.0000;0.1457;10.4678;
789.3000;0.1481;10.4847;
789.6000;0.1490;10.4919;
789.9000;0.1481;10.5016;
790.2000;0.1481;10.5016;
790.5000;0.1473;10.4991;
790.8000;0.1490;10.4919;
791.1000;0.1481;10.4871;
791.4000;0.1490;10.4847;
791.7000;0.1481;10.4823;
792.0000;0.1498;10.4847;
792.3000;0.1481;10.4750;
792.6000;0.1433;10.4654;
792.9000;0.1490;10.4678;
793.2000;0.1481;10.4750;
793.5000;0.1465;10.4750;
793.8000;0.1473;10.4823;
794.1000;0.1490;10.4823;
794.4000;0.1481;10.4847;
794.7000;0.1457;10.4774;
795.0000;0.1481;10.4799;
795.3000;0.1481;10.4799;
795.6000;0.1514;10.4895;
795.9000;0.1449;10.4823;
796.2000;0.1473;10.4895;
796.5000;0.1473;10.4943;
796.8000;0.1473;10.4919;
797.1000;0.1465;10.4943;
797.4000;0.1481;10.5016;
797.7000;0.1498;10.4991;
798.0000;0.1498;10.4967;
798.3000;0.1473;10.4991;
798.6000;0.1473;10.5016;
798.9000;0.1473;10.4991;
799.2000;0.1481;10.5016;
799.5000;0.1481;10.4919;
799.8000;0.1465;10.4919;
800.1000;0.1457;10.4823;
800.4000;0.1481;10.4919;
800.7000;0.1473;10.4943;
801.0000;0.1490;10.4967;
801.3000;0.1473;10.4847;
801.6000;0.1457;10.4823;
801.9000;0.1473;10.4823;
802.2000;0.1481;10.4750;
802.5000;0.1473;10.4630;
802.8000;0.1473;10.4702;
803.1000;0.1473;10.4823;
803.4000;0.1490;10.4847;
803.7000;0.1473;10.4847;
804.0000;0.1498;10.4919;
804.3000;0.1506;10.4823;
804.6000;0.1490;10.4750;
804.9000;0.1449;10.4630;
805.2000;0.1481;10.4678;
805.5000;0.1481;10.4726;
805.8000;0.1441;10.4678;
806.1000;0.1530;10.4774;
806.4000;0.1473;10.4606;
806.7000;0.1490;10.4678;
807.0000;0.1473;10.4678;
807.3000;0.1481;10.4726;
807.6000;0.1465;10.4702;
807.9000;0.1490;10.4823;
808.2000;0.1481;10.4750;
808.5000;0.1473;10.4702;
808.8000;0.1465;10.4678;
809.1000;0.1449;10.4678;
809.4000;0.1490;10.4750;
809.7000;0.1465;10.4799;
810.0000;0.1481;10.4871;
810.3000;0.1465;10.4847;
810.6000;0.1498;10.4895;
810.9000;0.1490;10.4847;
811.2000;0.1457;10.4799;
811.5000;0.1465;10.4895;
811.8000;0.1473;10.4847;
812.1000;0.1490;10.4823;
812.4000;0.1473;10.4799;
812.7000;0.1514;10.4871;
813.0000;0.1498;10.4702;
813.3000;0.1490;10.4630;
813.6000;0.1490;10.4678;
813.9000;0.1481;10.4654;
814.2000;0.1498;10.4654;
814.5000;0.1473;10.4654;
814.8000;0.1481;10.4654;
815.1000;0.1457;10.4654;
815.4000;0.1490;10.4702;
815.7000;0.1514;10.4774;
816.0000;0.1465;10.4630;
816.3000;0.1481;10.4654;
816.6000;0.1473;10.4654;
816.9000;0.1473;10.4678;
817.2000;0.1465;10.4630;
817.5000;0.1441;10.4581;
817.8000;0.1490;10.4654;
818.1000;0.1457;10.4557;
818.4000;0.1498;10.4702;
818.7000;0.1481;10.4606;
819.0000;0.1498;10.4581;
819.3000;0.1481;10.4581;
819.6000;0.1473;10.4678;
819.9000;0.1473;10.4630;
820.2000;0.1481;10.4678;
820.5000;0.1473;10.4581;
820.8000;0.1490;10.4678;
821.1000;0.1481;10.4702;
821.4000;0.1514;10.4823;
821.7000;0.1465;10.4702;
822.0000;0.1473;10.4774;
822.3000;0.1490;10.4847;
822.6000;0.1473;10.4774;
822.9000;0.1457;10.4702;
823.2000;0.1506;10.4847;
823.5000;0.1571;10.5016;
823.8000;0.1465;10.4799;
824.1000;0.1604;10.5064;
824.4000;0.1522;10.4847;
824.7000;0.1514;10.4799;
825.0000;0.1449;10.4630;
825.3000;0.1481;10.4630;
825.6000;0.1498;10.4702;
825.9000;0.1506;10.4630;
826.2000;0.1498;10.4630;
826.5000;0.1465;10.4606;
826.8000;0.1498;10.4774;
827.1000;0.1465;10.4678;
827.4000;0.1425;10.4678;
827.7000;0.1473;10.4847;
828.0000;0.1457;10.4823;
828.3000;0.1457;10.4799;
828.6000;0.1473;10.4799;
828.9000;0.1490;10.4750;
829.2000;0.1457;10.4774;
829.5000;0.1481;10.4750;
829.8000;0.1481;10.4774;
830.1000;0.1425;10.4654;
830.4000;0.1457;10.4750;
830.7000;0.1465;10.4726;
831.0000;0.1481;10.4750;
831.3000;0.1490;10.4823;
831.6000;0.1481;10.4774;
831.9000;0.1408;10.4702;
832.2000;0.1506;10.4967;
832.5000;0.1490;10.4991;
832.8000;0.1538;10.5112;
833.1000;0.1425;10.4726;
833.4000;0.1473;10.4847;
833.7000;0.1481;10.4943;
834.0000;0.1473;10.4847;
834.3000;0.1481;10.4895;
834.6000;0.1481;10.4823;
834.9000;0.1490;10.4847;
835.2000;0.1481;10.4799;
835.5000;0.1506;10.4895;
835.8000;0.1473;10.4823;
836.1000;0.1473;10.4774;
836.4000;0.1473;10.4750;
836.7000;0.1506;10.4847;
837.0000;0.1465;10.4774;
837.3000;0.1481;10.4774;
837.6000;0.1473;10.4726;
837.9000;0.1473;10.4702;
838.2000;0.1481;10.4750;
838.5000;0.1465;10.4774;
838.8000;0.1473;10.4895;
839.1000;0.1473;10.4847;
839.4000;0.1457;10.4799;
839.7000;0.1465;10.4799;
840.0000;0.1498;10.4919;
840.3000;0.1490;10.5016;
840.6000;0.1416;10.4702;
840.9000;0.1473;10.4823;
841.2000;0.1490;10.4967;
841.5000;0.1473;10.4847;
841.8000;0.1465;10.4823;
842.1000;0.1473;10.4871;
842.4000;0.1490;10.4871;
842.7000;0.1490;10.4847;
843.0000;0.1481;10.4871;
843.3000;0.1392;10.4654;
843.6000;0.1465;10.4871;
843.9000;0.1481;10.4895;
844.2000;0.1490;10.4919;
844.5000;0.1481;10.4919;
844.8000;0.1465;10.4823;
845.1000;0.1457;10.4726;
845.4000;0.1473;10.4847;
845.7000;0.1473;10.4823;
846.0000;0.1481;10.4823;
846.3000;0.1481;10.4774;
846.6000;0.1506;10.4847;
846.9000;0.1571;10.5016;
847.2000;0.1498;10.4871;
847.5000;0.1473;10.4823;
847.8000;0.1490;10.4774;
848.1000;0.1514;10.4774;
848.4000;0.1514;10.4750;
848.7000;0.1425;10.4509;
849.0000;0.1538;10.4823;
849.3000;0.1457;10.4726;
849.6000;0.1425;10.4654;
849.9000;0.1465;10.4726;
850.2000;0.1481;10.4823;
850.5000;0.1473;10.4847;
850.8000;0.1473;10.4823;
851.1000;0.1481;10.4774;
851.4000;0.1441;10.4702;
851.7000;0.1547;10.4919;
852.0000;0.1481;10.4726;
852.3000;0.1473;10.4678;
852.6000;0.1473;10.4630;
852.9000;0.1490;10.4654;
853.2000;0.1506;10.4726;
853.5000;0.1498;10.4799;
853.8000;0.1481;10.4774;
854.1000;0.1498;10.4823;
854.4000;0.1465;10.4799;
854.7000;0.1473;10.4774;
855.0000;0.1473;10.4726;
855.3000;0.1506;10.4774;
855.6000;0.1473;10.4654;
855.9000;0.1465;10.4654;
856.2000;0.1457;10.4630;
856.5000;0.1473;10.4678;
856.8000;0.1481;10.4726;
857.1000;0.1490;10.4678;
857.4000;0.1457;10.4581;
857.7000;0.1465;10.4630;
858.0000;0.1498;10.4630;
858.3000;0.1449;10.4533;
858.6000;0.1498;10.4509;
858.9000;0.1481;10.4437;
859.2000;0.1481;10.4437;
859.5000;0.1490;10.4461;
859.8000;0.1481;10.4509;
860.1000;0.1490;10.4606;
860.4000;0.1490;10.4485;
860.7000;0.1473;10.4509;
861.0000;0.1481;10.4509;
861.3000;0.1481;10.4557;
861.6000;0.1473;10.4533;
861.9000;0.1449;10.4581;
862.2000;0.1457;10.4557;
862.5000;0.1457;10.4678;
862.8000;0.1457;10.4774;
863.1000;0.1490;10.4799;
863.4000;0.1571;10.4967;
863.7000;0.1457;10.4750;
864.0000;0.1465;10.4799;
864.3000;0.1473;10.4799;
864.6000;0.1433;10.4630;
864.9000;0.1490;10.4774;
865.2000;0.1359;10.4437;
865.5000;0.1473;10.4847;
865.8000;0.1481;10.4847;
866.1000;0.1490;10.4895;
866.4000;0.1449;10.4847;
866.7000;0.1481;10.4943;
867.0000;0.1473;10.4847;
867.3000;0.1514;10.4967;
867.6000;0.1530;10.5016;
867.9000;0.1530;10.4943;
868.2000;0.1473;10.4847;
868.5000;0.1473;10.4774;
868.8000;0.1465;10.4774;
869.1000;0.1433;10.4630;
869.4000;0.1506;10.4823;
869.7000;0.1498;10.4799;
870.0000;0.1490;10.4823;
870.3000;0.1490;10.4823;
870.6000;0.1490;10.4799;
870.9000;0.1481;10.4799;
871.2000;0.1481;10.4799;
871.5000;0.1465;10.4702;
871.8000;0.1473;10.4702;
872.1000;0.1522;10.4823;
872.4000;0.1473;10.4702;
872.7000;0.1498;10.4774;
873.0000;0.1498;10.4774;
873.3000;0.1481;10.4799;
873.6000;0.1571;10.4991;
873.9000;0.1457;10.4799;
874.2000;0.1498;10.4919;
874.5000;0.1441;10.4823;
874.8000;0.1481;10.4895;
875.1000;0.1481;10.4919;
875.4000;0.1490;10.4991;
875.7000;0.1481;10.4991;
876.0000;0.1473;10.4871;
876.3000;0.1457;10.4750;
876.6000;0.1457;10.4823;
876.9000;0.1465;10.4750;
877.2000;0.1473;10.4823;
877.5000;0.1473;10.4774;
877.8000;0.1433;10.4726;
878.1000;0.1457;10.4871;
878.4000;0.1490;10.4895;
878.7000;0.1473;10.4919;
879.0000;0.1473;10.4823;
879.3000;0.1473;10.4847;
879.6000;0.1490;10.4799;
879.9000;0.1490;10.4750;
880.2000;0.1400;10.4509;
880.5000;0.1498;10.4726;
880.8000;0.1490;10.4654;
881.1000;0.1490;10.4726;
881.4000;0.1465;10.4750;
881.7000;0.1473;10.4799;
882.0000;0.1457;10.4799;
882.3000;0.1465;10.4799;
882.6000;0.1473;10.4774;
882.9000;0.1465;10.4750;
883.2000;0.1433;10.4654;
883.5000;0.1490;10.4774;
883.8000;0.1490;10.4871;
884.1000;0.1481;10.4799;
884.4000;0.1490;10.4774;
884.7000;0.1481;10.4774;
885.0000;0.1473;10.4774;
885.3000;0.1498;10.4774;
885.6000;0.1473;10.4678;
885.9000;0.1481;10.4630;
886.2000;0.1473;10.4557;
886.5000;0.1473;10.4630;
886.8000;0.1473;10.4678;
887.1000;0.1473;10.4630;
887.4000;0.1457;10.4461;
887.7000;0.1481;10.4557;
888.0000;0.1465;10.4557;
888.3000;0.1481;10.4654;
888.6000;0.1547;10.4799;
888.9000;0.1481;10.4678;
889.2000;0.1473;10.4654;
889.5000;0.1481;10.4630;
889.8000;0.1490;10.4654;
890.1000;0.1465;10.4750;
890.4000;0.1465;10.4823;
890.7000;0.1473;10.4847;
891.0000;0.1465;10.4847;
891.3000;0.1473;10.4750;
891.6000;0.1473;10.4774;
891.9000;0.1481;10.4726;
892.2000;0.1473;10.4678;
892.5000;0.1465;10.4557;
892.8000;0.1481;10.4581;
893.1000;0.1473;10.4654;
893.4000;0.1473;10.4774;
893.7000;0.1481;10.4799;
894.0000;0.1473;10.4726;
894.3000;0.1555;10.4895;
894.6000;0.1449;10.4702;
894.9000;0.1498;10.4847;
895.2000;0.1441;10.4774;
895.5000;0.1473;10.4895;
895.8000;0.1465;10.4919;
896.1000;0.1473;10.4919;
896.4000;0.1490;10.4919;
896.7000;0.1481;10.4774;
897.0000;0.1473;10.4702;
897.3000;0.1481;10.4774;
897.6000;0.1490;10.4799;
897.9000;0.1457;10.4678;
898.2000;0.1473;10.4726;
898.5000;0.1473;10.4702;
898.8000;0.1416;10.4678;
899.1000;0.1498;10.4871;
899.4000;0.1481;10.4871;
899.7000;0.1490;10.4823;
900.0000;0.1481;10.4726;
900.3000;0.1490;10.4847;
900.6000;0.1433;10.4678;
900.9000;0.1490;10.4774;
901.2000;0.1530;10.4823;
901.5000;0.1481;10.4702;
901.8000;0.1514;10.4774;
902.1000;0.1457;10.4630;
902.4000;0.1481;10.4630;
902.7000;0.1465;10.4702;
903.0000;0.1506;10.4774;
903.3000;0.1481;10.4606;
903.6000;0.1490;10.4630;
903.9000;0.1473;10.4774;
904.2000;0.1490;10.4871;
904.5000;0.1473;10.4871;
904.8000;0.1473;10.4871;
905.1000;0.1465;10.4823;
905.4000;0.1465;10.4871;
905.7000;0.1522;10.4967;
906.0000;0.1473;10.4823;
906.3000;0.1538;10.5016;
906.6000;0.1481;10.4799;
906.9000;0.1457;10.4702;
907.2000;0.1481;10.4799;
907.5000;0.1473;10.4702;
907.8000;0.1481;10.4702;
908.1000;0.1473;10.4750;
908.4000;0.1457;10.4702;
908.7000;0.1473;10.4702;
909.0000;0.1498;10.4678;
909.3000;0.1481;10.4654;
909.6000;0.1490;10.4678;
909.9000;0.1481;10.4654;
910.2000;0.1481;10.4726;
910.5000;0.1481;10.4799;
910.8000;0.1457;10.4799;
911.1000;0.1457;10.4847;
911.4000;0.1481;10.4871;
911.7000;0.1481;10.4919;
912.0000;0.1473;10.4895;
912.3000;0.1490;10.4919;
912.6000;0.1465;10.4823;
912.9000;0.1481;10.4919;
913.2000;0.1473;10.4919;
913.5000;0.1473;10.4967;
913.8000;0.1481;10.5064;
914.1000;0.1441;10.4967;
914.4000;0.1473;10.5040;
914.7000;0.1481;10.5040;
915.0000;0.1473;10.5016;
915.3000;0.1481;10.4991;
915.6000;0.1506;10.4991;
915.9000;0.1490;10.4895;
916.2000;0.1490;10.4823;
916.5000;0.1506;10.4823;
916.8000;0.1490;10.4823;
917.1000;0.1433;10.4750;
917.4000;0.1506;10.4895;
917.7000;0.1457;10.4678;
918.0000;0.1473;10.4726;
918.3000;0.1473;10.4774;
918.6000;0.1481;10.4774;
918.9000;0.1490;10.4774;
919.2000;0.1612;10.5209;
919.5000;0.1522;10.4943;
919.8000;0.1481;10.4750;
920.1000;0.1408;10.4606;
920.4000;0.1571;10.5064;
920.7000;0.1490;10.4919;
921.0000;0.1481;10.4967;
921.3000;0.1359;10.4606;
921.6000;0.1587;10.5209;
921.9000;0.1481;10.4943;
922.2000;0.1441;10.4774;
922.5000;0.1465;10.4774;
922.8000;0.1441;10.4726;
923.1000;0.1490;10.4847;
923.4000;0.1490;10.4750;
923.7000;0.1473;10.4774;
924.0000;0.1490;10.4726;
924.3000;0.1481;10.4726;
924.6000;0.1481;10.4726;
924.9000;0.1514;10.4774;
925.2000;0.1498;10.4750;
925.5000;0.1481;10.4774;
925.8000;0.1506;10.4750;
926.1000;0.1457;10.4606;
926.4000;0.1473;10.4702;
926.7000;0.1465;10.4726;
927.0000;0.1547;10.4967;
927.3000;0.1481;10.4774;
927.6000;0.1490;10.4774;
927.9000;0.1359;10.4485;
928.2000;0.1392;10.4557;
928.5000;0.1490;10.4726;
928.8000;0.1498;10.4750;
929.1000;0.1473;10.4702;
929.4000;0.1490;10.4678;
929.7000;0.1490;10.4726;
930.0000;0.1481;10.4774;
930.3000;0.1473;10.4726;
930.6000;0.1481;10.4799;
930.9000;0.1555;10.4943;
931.2000;0.1473;10.4702;
931.5000;0.1473;10.4702;
931.8000;0.1490;10.4871;
932.1000;0.1481;10.4823;
932.4000;0.1481;10.4630;
932.7000;0.1522;10.4654;
933.0000;0.1490;10.4557;
933.3000;0.1441;10.4485;
933.6000;0.1506;10.4630;
933.9000;0.1490;10.4509;
934.2000;0.1490;10.4557;
934.5000;0.1465;10.4533;
934.8000;0.1506;10.4557;
935.1000;0.1473;10.4606;
935.4000;0.1538;10.4774;
935.7000;0.1473;10.4654;
936.0000;0.1481;10.4678;
936.3000;0.1498;10.4702;
936.6000;0.1481;10.4630;
936.9000;0.1514;10.4654;
937.2000;0.1490;10.4654;
937.5000;0.1465;10.4606;
937.8000;0.1465;10.4654;
938.1000;0.1481;10.4654;
938.4000;0.1506;10.4630;
938.7000;0.1457;10.4509;
939.0000;0.1433;10.4533;
939.3000;0.1457;10.4606;
939.6000;0.1473;10.4726;
939.9000;0.1384;10.4485;
940.2000;0.1481;10.4750;
940.5000;0.1473;10.4774;
940.8000;0.1490;10.4799;
941.1000;0.1490;10.4847;
941.4000;0.1465;10.4750;
941.7000;0.1457;10.4702;
942.0000;0.1481;10.4823;
942.3000;0.1498;10.4847;
942.6000;0.1530;10.4943;
942.9000;0.1457;10.4702;
943.2000;0.1400;10.4678;
943.5000;0.1433;10.4726;
943.8000;0.1506;10.4847;
944.1000;0.1506;10.4823;
944.4000;0.1473;10.4702;
944.7000;0.1465;10.4606;
945.0000;0.1473;10.4606;
945.3000;0.1547;10.4774;
945.6000;0.1465;10.4509;
945.9000;0.1473;10.4557;
946.2000;0.1481;10.4581;
946.5000;0.1481;10.4533;
946.8000;0.1498;10.4581;
947.1000;0.1481;10.4509;
947.4000;0.1498;10.4557;
947.7000;0.1522;10.4581;
948.0000;0.1465;10.4437;
948.3000;0.1481;10.4461;
948.6000;0.1490;10.4509;
948.9000;0.1514;10.4606;
949.2000;0.1465;10.4581;
949.5000;0.1473;10.4630;
949.8000;0.1481;10.4750;
950.1000;0.1498;10.4726;
950.4000;0.1473;10.4726;
950.7000;0.1490;10.4774;
951.0000;0.1498;10.4799;
951.3000;0.1490;10.4847;
951.6000;0.1490;10.4847;
951.9000;0.1473;10.4726;
952.2000;0.1522;10.4750;
952.5000;0.1498;10.4654;
952.8000;0.1481;10.4606;
953.1000;0.1490;10.4678;
953.4000;0.1490;10.4726;
953.7000;0.1506;10.4678;
954.0000;0.1481;10.4654;
954.3000;0.1538;10.4799;
954.6000;0.1498;10.4606;
954.9000;0.1514;10.4654;
955.2000;0.1490;10.4678;
955.5000;0.1457;10.4606;
955.8000;0.1400;10.4533;
956.1000;0.1457;10.4726;
956.4000;0.1473;10.4726;
956.7000;0.1490;10.4678;
957.0000;0.1465;10.4557;
957.3000;0.1498;10.4606;
957.6000;0.1465;10.4509;
957.9000;0.1457;10.4581;
958.2000;0.1481;10.4606;
958.5000;0.1473;10.4557;
958.8000;0.1433;10.4461;
959.1000;0.1465;10.4581;
959.4000;0.1490;10.4654;
959.7000;0.1481;10.4726;
960.0000;0.1490;10.4606;
960.3000;0.1473;10.4485;
960.6000;0.1441;10.4364;
960.9000;0.1490;10.4389;
961.2000;0.1473;10.4316;
961.5000;0.1481;10.4364;
961.8000;0.1490;10.4485;
962.1000;0.1490;10.4485;
962.4000;0.1530;10.4557;
962.7000;0.1473;10.4364;
963.0000;0.1441;10.4340;
963.3000;0.1473;10.4413;
963.6000;0.1490;10.4461;
963.9000;0.1563;10.4726;
964.2000;0.1473;10.4557;
964.5000;0.1498;10.4630;
964.8000;0.1457;10.4630;
965.1000;0.1473;10.4630;
965.4000;0.1490;10.4678;
965.7000;0.1490;10.4606;
966.0000;0.1473;10.4654;
966.3000;0.1481;10.4678;
966.6000;0.1490;10.4702;
966.9000;0.1490;10.4678;
967.2000;0.1473;10.4702;
967.5000;0.1473;10.4630;
967.8000;0.1473;10.4533;
968.1000;0.1481;10.4509;
968.4000;0.1490;10.4413;
968.7000;0.1490;10.4316;
969.0000;0.1481;10.4364;
969.3000;0.1490;10.4389;
969.6000;0.1473;10.4292;
969.9000;0.1473;10.4292;
970.2000;0.1441;10.4244;
970.5000;0.1498;10.4437;
970.8000;0.1473;10.4437;
971.1000;0.1498;10.4533;
971.4000;0.1490;10.4533;
971.7000;0.1490;10.4630;
972.0000;0.1490;10.4581;
972.3000;0.1449;10.4461;
972.6000;0.1481;10.4485;
972.9000;0.1498;10.4557;
973.2000;0.1490;10.4413;
973.5000;0.1465;10.4413;
973.8000;0.1481;10.4413;
974.1000;0.1481;10.4485;
974.4000;0.1481;10.4533;
974.7000;0.1400;10.4389;
975.0000;0.1473;10.4630;
975.3000;0.1547;10.4799;
975.6000;0.1400;10.4389;
975.9000;0.1490;10.4678;
976.2000;0.1481;10.4726;
976.5000;0.1490;10.4750;
976.8000;0.1481;10.4750;
977.1000;0.1490;10.4823;
977.4000;0.1490;10.4799;
977.7000;0.1506;10.4774;
978.0000;0.1481;10.4702;
978.3000;0.1514;10.4702;
978.6000;0.1481;10.4726;
978.9000;0.1490;10.4606;
979.2000;0.1481;10.4606;
979.5000;0.1490;10.4654;
979.8000;0.1465;10.4581;
980.1000;0.1481;10.4630;
980.4000;0.1441;10.4630;
980.7000;0.1498;10.4702;
981.0000;0.1490;10.4726;
981.3000;0.1481;10.4654;
981.6000;0.1465;10.4630;
981.9000;0.1587;10.4991;
982.2000;0.1490;10.4678;
982.5000;0.1465;10.4581;
982.8000;0.1490;10.4630;
983.1000;0.1490;10.4630;
983.4000;0.1490;10.4678;
983.7000;0.1465;10.4557;
984.0000;0.1457;10.4654;
984.3000;0.1481;10.4774;
984.6000;0.1481;10.4726;
984.9000;0.1473;10.4654;
985.2000;0.1457;10.4630;
985.5000;0.1498;10.4557;
985.8000;0.1490;10.4606;
986.1000;0.1473;10.4630;
986.4000;0.1465;10.4581;
986.7000;0.1457;10.4557;
987.0000;0.1490;10.4654;
987.3000;0.1473;10.4606;
987.6000;0.1547;10.4774;
987.9000;0.1481;10.4581;
988.2000;0.1473;10.4557;
988.5000;0.1465;10.4437;
988.8000;0.1465;10.4364;
989.1000;0.1408;10.4244;
989.4000;0.1481;10.4533;
989.7000;0.1473;10.4533;
990.0000;0.1457;10.4557;
990.3000;0.1490;10.4678;
990.6000;0.1457;10.4726;
990.9000;0.1514;10.4750;
991.2000;0.1376;10.4437;
991.5000;0.1457;10.4630;
991.8000;0.1498;10.4726;
992.1000;0.1498;10.4654;
992.4000;0.1465;10.4509;
992.7000;0.1506;10.4654;
993.0000;0.1498;10.4630;
993.3000;0.1490;10.4533;
993.6000;0.1481;10.4509;
993.9000;0.1490;10.4557;
994.2000;0.1400;10.4316;
994.5000;0.1481;10.4461;
994.8000;0.1481;10.4437;
995.1000;0.1490;10.4389;
995.4000;0.1473;10.4340;
995.7000;0.1481;10.4437;
996.0000;0.1498;10.4437;
996.3000;0.1587;10.4774;
996.6000;0.1481;10.4485;
996.9000;0.1490;10.4557;
997.2000;0.1449;10.4364;
997.5000;0.1481;10.4509;
997.8000;0.1465;10.4461;
998.1000;0.1498;10.4654;
998.4000;0.1473;10.4654;
998.7000;0.1490;10.4726;
999.0000;0.1465;10.4654;
999.3000;0.1473;10.4606;
999.6000;0.1481;10.4581;
999.9000;0.1490;10.4509;
1000.2000;0.1490;10.4485;
1000.5000;0.1449;10.4413;
1000.8000;0.1473;10.4413;
1001.1000;0.1465;10.4340;
1001.4000;0.1473;10.4364;
1001.7000;0.1481;10.4364;
1002.0000;0.1490;10.4413;
1002.3000;0.1359;10.4003;
1002.6000;0.1481;10.4292;
1002.9000;0.1473;10.4340;
1003.2000;0.1506;10.4461;
1003.5000;0.1522;10.4485;
1003.8000;0.1490;10.4364;
1004.1000;0.1473;10.4389;
1004.4000;0.1473;10.4413;
1004.7000;0.1490;10.4485;
1005.0000;0.1481;10.4437;
1005.3000;0.1465;10.4413;
1005.6000;0.1392;10.4292;
1005.9000;0.1514;10.4702;
1006.2000;0.1473;10.4606;
1006.5000;0.1481;10.4581;
1006.8000;0.1465;10.4461;
1007.1000;0.1481;10.4461;
1007.4000;0.1441;10.4316;
1007.7000;0.1490;10.4389;
1008.0000;0.1490;10.4437;
1008.3000;0.1473;10.4485;
1008.6000;0.1481;10.4581;
1008.9000;0.1571;10.4774;
1009.2000;0.1473;10.4533;
1009.5000;0.1481;10.4606;
1009.8000;0.1490;10.4581;
1010.1000;0.1465;10.4581;
1010.4000;0.1547;10.4847;
1010.7000;0.1481;10.4654;
1011.0000;0.1473;10.4654;
1011.3000;0.1473;10.4606;
1011.6000;0.1465;10.4581;
1011.9000;0.1473;10.4509;
1012.2000;0.1473;10.4461;
1012.5000;0.1490;10.4437;
1012.8000;0.1465;10.4413;
1013.1000;0.1498;10.4581;
1013.4000;0.1473;10.4678;
1013.7000;0.1473;10.4630;
1014.0000;0.1490;10.4581;
1014.3000;0.1465;10.4606;
1014.6000;0.1473;10.4630;
1014.9000;0.1481;10.4726;
1015.2000;0.1538;10.4871;
1015.5000;0.1473;10.4678;
1015.8000;0.1481;10.4678;
1016.1000;0.1506;10.4774;
1016.4000;0.1490;10.4630;
1016.7000;0.1465;10.4533;
1017.0000;0.1481;10.4654;
1017.3000;0.1481;10.4630;
1017.6000;0.1506;10.4726;
1017.9000;0.1498;10.4654;
1018.2000;0.1481;10.4654;
1018.5000;0.1473;10.4702;
1018.8000;0.1490;10.4799;
1019.1000;0.1506;10.4774;
1019.4000;0.1490;10.4678;
1019.7000;0.1481;10.4630;
1020.0000;0.1473;10.4606;
1020.3000;0.1481;10.4533;
1020.6000;0.1441;10.4533;
1020.9000;0.1473;10.4581;
1021.2000;0.1498;10.4654;
1021.5000;0.1490;10.4630;
1021.8000;0.1481;10.4606;
1022.1000;0.1465;10.4630;
1022.4000;0.1416;10.4581;
1022.7000;0.1490;10.4774;
1023.0000;0.1498;10.4871;
1023.3000;0.1449;10.4702;
1023.6000;0.1481;10.4774;
1023.9000;0.1490;10.4799;
1024.2000;0.1490;10.4774;
1024.5000;0.1490;10.4726;
1024.8000;0.1490;10.4702;
1025.1000;0.1481;10.4654;
1025.4000;0.1457;10.4630;
1025.7000;0.1465;10.4557;
1026.0000;0.1465;10.4557;
1026.3000;0.1481;10.4606;
1026.6000;0.1481;10.4702;
1026.9000;0.1473;10.4726;
1027.2000;0.1457;10.4606;
1027.5000;0.1473;10.4630;
1027.8000;0.1490;10.4702;
1028.1000;0.1498;10.4726;
1028.4000;0.1490;10.4750;
1028.7000;0.1481;10.4774;
1029.0000;0.1490;10.4823;
1029.3000;0.1490;10.4847;
1029.6000;0.1530;10.4895;
1029.9000;0.1481;10.4726;
1030.2000;0.1522;10.4799;
1030.5000;0.1490;10.4702;
1030.8000;0.1473;10.4509;
1031.1000;0.1473;10.4581;
1031.4000;0.1481;10.4630;
1031.7000;0.1490;10.4678;
1032.0000;0.1408;10.4413;
1032.3000;0.1481;10.4630;
1032.6000;0.1481;10.4654;
1032.9000;0.1473;10.4557;
1033.2000;0.1506;10.4678;
1033.5000;0.1490;10.4702;
1033.8000;0.1538;10.4823;
1034.1000;0.1498;10.4799;
1034.4000;0.1457;10.4678;
1034.7000;0.1457;10.4630;
1035.0000;0.1555;10.4895;
1035.3000;0.1473;10.4702;
1035.6000;0.1473;10.4678;
1035.9000;0.1538;10.4750;
1036.2000;0.1473;10.4509;
1036.5000;0.1465;10.4557;
1036.8000;0.1490;10.4509;
1037.1000;0.1506;10.4557;
1037.4000;0.1473;10.4533;
1037.7000;0.1449;10.4557;
1038.0000;0.1481;10.4774;
1038.3000;0.1490;10.4799;
1038.6000;0.1481;10.4726;
1038.9000;0.1490;10.4702;
1039.2000;0.1530;10.4799;
1039.5000;0.1473;10.4678;
1039.8000;0.1498;10.4702;
1040.1000;0.1481;10.4678;
1040.4000;0.1465;10.4678;
1040.7000;0.1473;10.4750;
1041.0000;0.1481;10.4726;
1041.3000;0.1473;10.4799;
1041.6000;0.1481;10.4750;
1041.9000;0.1473;10.4654;
1042.2000;0.1490;10.4702;
1042.5000;0.1490;10.4630;
1042.8000;0.1481;10.4606;
1043.1000;0.1481;10.4678;
1043.4000;0.1595;10.4991;
1043.7000;0.1490;10.4606;
1044.0000;0.1490;10.4654;
1044.3000;0.1490;10.4750;
1044.6000;0.1481;10.4750;
1044.9000;0.1490;10.4750;
1045.2000;0.1481;10.4678;
1045.5000;0.1449;10.4557;
1045.8000;0.1465;10.4630;
1046.1000;0.1514;10.4750;
1046.4000;0.1473;10.4726;
1046.7000;0.1490;10.4654;
1047.0000;0.1473;10.4654;
1047.3000;0.1498;10.4678;
1047.6000;0.1473;10.4630;
1047.9000;0.1490;10.4630;
1048.2000;0.1490;10.4581;
1048.5000;0.1481;10.4606;
1048.8000;0.1449;10.4533;
1049.1000;0.1465;10.4606;
1049.4000;0.1490;10.4630;
1049.7000;0.1473;10.4606;
1050.0000;0.1481;10.4606;
1050.3000;0.1481;10.4702;
1050.6000;0.1465;10.4678;
1050.9000;0.1400;10.4461;
1051.2000;0.1465;10.4726;
1051.5000;0.1473;10.4750;
1051.8000;0.1547;10.4871;
1052.1000;0.1473;10.4702;
1052.4000;0.1408;10.4485;
1052.7000;0.1359;10.4437;
1053.0000;0.1416;10.4461;
1053.3000;0.1506;10.4630;
1053.6000;0.1473;10.4581;
1053.9000;0.1465;10.4606;
1054.2000;0.1400;10.4340;
1054.5000;0.1481;10.4630;
1054.8000;0.1530;10.4750;
1055.1000;0.1490;10.4654;
1055.4000;0.1449;10.4654;
1055.7000;0.1490;10.4823;
1056.0000;0.1506;10.4943;
1056.3000;0.1465;10.4678;
1056.6000;0.1481;10.4702;
1056.9000;0.1563;10.4919;
1057.2000;0.1481;10.4750;
1057.5000;0.1481;10.4678;
1057.8000;0.1490;10.4654;
1058.1000;0.1481;10.4654;
1058.4000;0.1490;10.4678;
1058.7000;0.1473;10.4654;
1059.0000;0.1514;10.4702;
1059.3000;0.1490;10.4750;
1059.6000;0.1490;10.4847;
1059.9000;0.1522;10.4967;
1060.2000;0.1416;10.4702;
1060.5000;0.1490;10.4750;
1060.8000;0.1481;10.4823;
1061.1000;0.1490;10.4823;
1061.4000;0.1473;10.4774;
1061.7000;0.1449;10.4678;
1062.0000;0.1457;10.4606;
1062.3000;0.1490;10.4726;
1062.6000;0.1457;10.4630;
1062.9000;0.1465;10.4606;
1063.2000;0.1473;10.4557;
1063.5000;0.1498;10.4702;
1063.8000;0.1473;10.4702;
1064.1000;0.1465;10.4606;
1064.4000;0.1498;10.4630;
1064.7000;0.1425;10.4533;
1065.0000;0.1481;10.4726;
1065.3000;0.1465;10.4678;
1065.6000;0.1473;10.4726;
1065.9000;0.1416;10.4557;
1066.2000;0.1530;10.4702;
1066.5000;0.1481;10.4606;
1066.8000;0.1473;10.4485;
1067.1000;0.1473;10.4413;
1067.4000;0.1490;10.4461;
1067.7000;0.1465;10.4533;
1068.0000;0.1490;10.4630;
1068.3000;0.1465;10.4533;
1068.6000;0.1473;10.4557;
1068.9000;0.1498;10.4630;
1069.2000;0.1449;10.4509;
1069.5000;0.1400;10.4461;
1069.8000;0.1506;10.4799;
1070.1000;0.1604;10.5112;
1070.4000;0.1457;10.4774;
1070.7000;0.1473;10.4895;
1071.0000;0.1490;10.4895;
1071.3000;0.1457;10.4799;
1071.6000;0.1481;10.4750;
1071.9000;0.1490;10.4871;
1072.2000;0.1490;10.4895;
1072.5000;0.1473;10.4774;
1072.8000;0.1465;10.4799;
1073.1000;0.1490;10.4774;
1073.4000;0.1425;10.4509;
1073.7000;0.1473;10.4702;
1074.0000;0.1490;10.4774;
1074.3000;0.1465;10.4702;
1074.6000;0.1490;10.4799;
1074.9000;0.1538;10.4847;
1075.2000;0.1506;10.4774;
1075.5000;0.1490;10.4774;
1075.8000;0.1449;10.4606;
1076.1000;0.1490;10.4799;
1076.4000;0.1449;10.4702;
1076.7000;0.1522;10.4871;
1077.0000;0.1465;10.4726;
1077.3000;0.1473;10.4726;
1077.6000;0.1433;10.4702;
1077.9000;0.1433;10.4630;
1078.2000;0.1457;10.4678;
1078.5000;0.1481;10.4750;
1078.8000;0.1465;10.4678;
1079.1000;0.1465;10.4606;
1079.4000;0.1457;10.4678;
1079.7000;0.1473;10.4726;
1080.0000;0.1473;10.4774;
1080.3000;0.1465;10.4726;
1080.6000;0.1473;10.4678;
1080.9000;0.1490;10.4606;
1081.2000;0.1498;10.4654;
1081.5000;0.1473;10.4557;
1081.8000;0.1473;10.4485;
1082.1000;0.1465;10.4437;
1082.4000;0.1457;10.4437;
1082.7000;0.1498;10.4557;
1083.0000;0.1481;10.4533;
1083.3000;0.1473;10.4557;
1083.6000;0.1481;10.4581;
1083.9000;0.1465;10.4581;
1084.2000;0.1490;10.4630;
1084.5000;0.1481;10.4630;
1084.8000;0.1498;10.4678;
1085.1000;0.1506;10.4702;
1085.4000;0.1481;10.4606;
1085.7000;0.1473;10.4485;
1086.0000;0.1416;10.4292;
1086.3000;0.1506;10.4557;
1086.6000;0.1498;10.4533;
1086.9000;0.1465;10.4533;
1087.2000;0.1481;10.4509;
1087.5000;0.1457;10.4389;
1087.8000;0.1465;10.4316;
1088.1000;0.1481;10.4389;
1088.4000;0.1473;10.4316;
1088.7000;0.1465;10.4316;
1089.0000;0.1457;10.4316;
1089.3000;0.1522;10.4533;
1089.6000;0.1498;10.4461;
1089.9000;0.1465;10.4389;
1090.2000;0.1490;10.4389;
1090.5000;0.1481;10.4389;
1090.8000;0.1425;10.4268;
1091.1000;0.1481;10.4389;
1091.4000;0.1481;10.4437;
1091.7000;0.1481;10.4533;
1092.0000;0.1473;10.4509;
1092.3000;0.1490;10.4533;
1092.6000;0.1490;10.4557;
1092.9000;0.1490;10.4533;
1093.2000;0.1490;10.4557;
1093.5000;0.1473;10.4557;
1093.8000;0.1530;10.4726;
1094.1000;0.1498;10.4606;
1094.4000;0.1498;10.4702;
1094.7000;0.1465;10.4581;
1095.0000;0.1490;10.4799;
1095.3000;0.1490;10.4799;
1095.6000;0.1465;10.4774;
1095.9000;0.1473;10.4774;
1096.2000;0.1473;10.4702;
1096.5000;0.1481;10.4702;
1096.8000;0.1498;10.4630;
1097.1000;0.1465;10.4557;
1097.4000;0.1473;10.4630;
1097.7000;0.1473;10.4654;
1098.0000;0.1530;10.4823;
1098.3000;0.1490;10.4702;
1098.6000;0.1481;10.4581;
1098.9000;0.1481;10.4630;
1099.2000;0.1473;10.4630;
1099.5000;0.1498;10.4702;
1099.8000;0.1473;10.4606;
1100.1000;0.1473;10.4581;
1100.4000;0.1376;10.4292;
1100.7000;0.1481;10.4606;
1101.0000;0.1465;10.4581;
1101.3000;0.1498;10.4630;
1101.6000;0.1433;10.4533;
1101.9000;0.1481;10.4654;
1102.2000;0.1473;10.4557;
1102.5000;0.1481;10.4606;
1102.8000;0.1538;10.4726;
1103.1000;0.1604;10.4967;
1103.4000;0.1481;10.4630;
1103.7000;0.1481;10.4606;
1104.0000;0.1490;10.4678;
1104.3000;0.1498;10.4654;
1104.6000;0.1498;10.4702;
1104.9000;0.1400;10.4509;
1105.2000;0.1465;10.4678;
1105.5000;0.1457;10.4533;
1105.8000;0.1465;10.4509;
1106.1000;0.1473;10.4509;
1106.4000;0.1465;10.4485;
1106.7000;0.1481;10.4581;
1107.0000;0.1490;10.4581;
1107.3000;0.1506;10.4630;
1107.6000;0.1498;10.4606;
1107.9000;0.1465;10.4557;
1108.2000;0.1490;10.4654;
1108.5000;0.1498;10.4678;
1108.8000;0.1481;10.4654;
1109.1000;0.1465;10.4654;
1109.4000;0.1457;10.4581;
1109.7000;0.1473;10.4581;
1110.0000;0.1392;10.4340;
1110.3000;0.1481;10.4581;
1110.6000;0.1490;10.4533;
1110.9000;0.1506;10.4485;
1111.2000;0.1473;10.4461;
1111.5000;0.1514;10.4413;
1111.8000;0.1465;10.4340;
1112.1000;0.1506;10.4437;
1112.4000;0.1473;10.4389;
1112.7000;0.1465;10.4364;
1113.0000;0.1449;10.4340;
1113.3000;0.1457;10.4292;
1113.6000;0.1473;10.4413;
1113.9000;0.1457;10.4509;
1114.2000;0.1433;10.4413;
1114.5000;0.1481;10.4581;
1114.8000;0.1481;10.4630;
1115.1000;0.1425;10.4413;
1115.4000;0.1359;10.4220;
1115.7000;0.1465;10.4485;
1116.0000;0.1481;10.4557;
1116.3000;0.1473;10.4485;
1116.6000;0.1498;10.4654;
1116.9000;0.1465;10.4654;
1117.2000;0.1465;10.4606;
1117.5000;0.1490;10.4630;
1117.8000;0.1425;10.4389;
1118.1000;0.1490;10.4557;
1118.4000;0.1490;10.4581;
1118.7000;0.1481;10.4581;
1119.0000;0.1441;10.4581;
1119.3000;0.1457;10.4581;
1119.6000;0.1490;10.4606;
1119.9000;0.1481;10.4606;
1120.2000;0.1481;10.4702;
1120.5000;0.1498;10.4750;
1120.8000;0.1465;10.4726;
1121.1000;0.1473;10.4726;
1121.4000;0.1514;10.4847;
1121.7000;0.1473;10.4750;
1122.0000;0.1457;10.4678;
1122.3000;0.1481;10.4726;
1122.6000;0.1473;10.4654;
1122.9000;0.1449;10.4533;
1123.2000;0.1473;10.4485;
1123.5000;0.1481;10.4533;
1123.8000;0.1481;10.4509;
1124.1000;0.1490;10.4557;
1124.4000;0.1433;10.4413;
1124.7000;0.1498;10.4581;
1125.0000;0.1490;10.4557;
1125.3000;0.1457;10.4509;
1125.6000;0.1481;10.4557;
1125.9000;0.1547;10.4750;
1126.2000;0.1490;10.4509;
1126.5000;0.1481;10.4413;
1126.8000;0.1522;10.4557;
1127.1000;0.1604;10.4847;
1127.4000;0.1465;10.4533;
1127.7000;0.1481;10.4557;
1128.0000;0.1522;10.4750;
1128.3000;0.1490;10.4630;
1128.6000;0.1481;10.4606;
1128.9000;0.1481;10.4533;
1129.2000;0.1473;10.4485;
1129.5000;0.1498;10.4557;
1129.8000;0.1490;10.4557;
1130.1000;0.1457;10.4557;
1130.4000;0.1473;10.4654;
1130.7000;0.1490;10.4630;
1131.0000;0.1473;10.4533;
1131.3000;0.1498;10.4630;
1131.6000;0.1473;10.4606;
1131.9000;0.1473;10.4630;
1132.2000;0.1490;10.4678;
1132.5000;0.1481;10.4630;
1132.8000;0.1481;10.4509;
1133.1000;0.1481;10.4509;
1133.4000;0.1481;10.4557;
1133.7000;0.1490;10.4581;
1134.0000;0.1376;10.4316;
1134.3000;0.1465;10.4557;
1134.6000;0.1465;10.4581;
1134.9000;0.1473;10.4606;
1135.2000;0.1490;10.4750;
1135.5000;0.1514;10.4799;
1135.8000;0.1481;10.4726;
1136.1000;0.1457;10.4678;
1136.4000;0.1498;10.4799;
1136.7000;0.1514;10.4799;
1137.0000;0.1457;10.4606;
1137.3000;0.1498;10.4678;
1137.6000;0.1473;10.4581;
1137.9000;0.1490;10.4581;
1138.2000;0.1481;10.4606;
1138.5000;0.1481;10.4581;
1138.8000;0.1473;10.4581;
1139.1000;0.1473;10.4581;
1139.4000;0.1359;10.4316;
1139.7000;0.1433;10.4437;
1140.0000;0.1473;10.4533;
1140.3000;0.1457;10.4485;
1140.6000;0.1473;10.4654;
1140.9000;0.1441;10.4509;
1141.2000;0.1441;10.4581;
1141.5000;0.1498;10.4750;
1141.8000;0.1481;10.4726;
1142.1000;0.1547;10.4919;
1142.4000;0.1498;10.4871;
1142.7000;0.1490;10.4726;
1143.0000;0.1465;10.4606;
1143.3000;0.1465;10.4581;
1143.6000;0.1473;10.4485;
1143.9000;0.1490;10.4557;
1144.2000;0.1465;10.4509;
1144.5000;0.1465;10.4461;
1144.8000;0.1473;10.4437;
1145.1000;0.1481;10.4461;
1145.4000;0.1481;10.4533;
1145.7000;0.1465;10.4581;
1146.0000;0.1481;10.4606;
1146.3000;0.1449;10.4581;
1146.6000;0.1481;10.4654;
1146.9000;0.1481;10.4678;
1147.2000;0.1498;10.4678;
1147.5000;0.1473;10.4678;
1147.8000;0.1473;10.4750;
1148.1000;0.1465;10.4654;
1148.4000;0.1441;10.4557;
1148.7000;0.1481;10.4678;
1149.0000;0.1481;10.4774;
1149.3000;0.1441;10.4726;
1149.6000;0.1400;10.4654;
1149.9000;0.1490;10.4895;
1150.2000;0.1473;10.4847;
1150.5000;0.1490;10.4774;
1150.8000;0.1473;10.4774;
1151.1000;0.1473;10.4750;
1151.4000;0.1449;10.4702;
1151.7000;0.1481;10.4774;
1152.0000;0.1473;10.4774;
1152.3000;0.1506;10.4847;
1152.6000;0.1457;10.4774;
1152.9000;0.1481;10.4823;
1153.2000;0.1506;10.4871;
1153.5000;0.1481;10.4750;
1153.8000;0.1498;10.4847;
1154.1000;0.1498;10.4774;
1154.4000;0.1506;10.4847;
1154.7000;0.1481;10.4847;
1155.0000;0.1506;10.4823;
1155.3000;0.1490;10.4750;
1155.6000;0.1490;10.4799;
1155.9000;0.1481;10.4871;
1156.2000;0.1498;10.4943;
1156.5000;0.1481;10.4726;
1156.8000;0.1506;10.4774;
1157.1000;0.1481;10.4823;
1157.4000;0.1473;10.4750;
1157.7000;0.1498;10.4750;
1158.0000;0.1481;10.4774;
1158.3000;0.1490;10.4774;
1158.6000;0.1473;10.4678;
1158.9000;0.1465;10.4654;
1159.2000;0.1473;10.4726;
1159.5000;0.1490;10.4750;
1159.8000;0.1465;10.4774;
1160.1000;0.1481;10.4799;
1160.4000;0.1473;10.4847;
1160.7000;0.1457;10.4823;
1161.0000;0.1490;10.4919;
1161.3000;0.1408;10.4726;
1161.6000;0.1481;10.5016;
1161.9000;0.1490;10.5088;
1162.2000;0.1481;10.5016;
1162.5000;0.1498;10.5088;
1162.8000;0.1481;10.5064;
1163.1000;0.1481;10.5064;
1163.4000;0.1490;10.4991;
1163.7000;0.1498;10.4895;
1164.0000;0.1465;10.4847;
1164.3000;0.1490;10.4919;
1164.6000;0.1465;10.4847;
1164.9000;0.1465;10.4750;
1165.2000;0.1473;10.4654;
1165.5000;0.1473;10.4726;
1165.8000;0.1465;10.4606;
1166.1000;0.1481;10.4678;
1166.4000;0.1473;10.4702;
1166.7000;0.1465;10.4726;
1167.0000;0.1506;10.4895;
1167.3000;0.1490;10.4847;
1167.6000;0.1465;10.4726;
1167.9000;0.1595;10.5112;
1168.2000;0.1547;10.4895;
1168.5000;0.1481;10.4774;
1168.8000;0.1425;10.4630;
1169.1000;0.1457;10.4702;
1169.4000;0.1571;10.5016;
1169.7000;0.1498;10.4799;
1170.0000;0.1400;10.4606;
1170.3000;0.1473;10.4823;
1170.6000;0.1392;10.4630;
1170.9000;0.1506;10.4871;
1171.2000;0.1425;10.4654;
1171.5000;0.1473;10.4678;
1171.8000;0.1481;10.4702;
1172.1000;0.1498;10.4774;
1172.4000;0.1481;10.4750;
1172.7000;0.1473;10.4799;
1173.0000;0.1604;10.5112;
1173.3000;0.1457;10.4823;
1173.6000;0.1490;10.5016;
1173.9000;0.1538;10.5064;
1174.2000;0.1481;10.4823;
1174.5000;0.1490;10.4799;
1174.8000;0.1473;10.4750;
1175.1000;0.1473;10.4726;
1175.4000;0.1457;10.4774;
1175.7000;0.1473;10.4750;
1176.0000;0.1506;10.4847;
1176.3000;0.1490;10.4726;
1176.6000;0.1473;10.4654;
1176.9000;0.1465;10.4702;
1177.2000;0.1514;10.4823;
1177.5000;0.1490;10.4726;
1177.8000;0.1481;10.4750;
1178.1000;0.1481;10.4774;
1178.4000;0.1490;10.4871;
1178.7000;0.1481;10.4799;
1179.0000;0.1465;10.4847;
1179.3000;0.1490;10.4871;
1179.6000;0.1481;10.4847;
1179.9000;0.1490;10.4774;
1180.2000;0.1465;10.4726;
1180.5000;0.1473;10.4702;
1180.8000;0.1473;10.4654;
1181.1000;0.1490;10.4702;
1181.4000;0.1473;10.4726;
1181.7000;0.1473;10.4726;
1182.0000;0.1465;10.4799;
1182.3000;0.1473;10.4823;
1182.6000;0.1490;10.4847;
1182.9000;0.1473;10.4750;
1183.2000;0.1465;10.4678;
1183.5000;0.1465;10.4581;
1183.8000;0.1473;10.4630;
1184.1000;0.1441;10.4509;
1184.4000;0.1522;10.4774;
1184.7000;0.1481;10.4654;
1185.0000;0.1465;10.4654;
1185.3000;0.1465;10.4606;
1185.6000;0.1473;10.4630;
1185.9000;0.1490;10.4654;
1186.2000;0.1506;10.4774;
1186.5000;0.1490;10.4678;
1186.8000;0.1433;10.4533;
1187.1000;0.1481;10.4678;
1187.4000;0.1465;10.4581;
1187.7000;0.1481;10.4630;
1188.0000;0.1473;10.4654;
1188.3000;0.1490;10.4702;
1188.6000;0.1498;10.4799;
1188.9000;0.1481;10.4702;
1189.2000;0.1498;10.4654;
1189.5000;0.1457;10.4533;
1189.8000;0.1522;10.4702;
1190.1000;0.1473;10.4533;
1190.4000;0.1498;10.4606;
1190.7000;0.1506;10.4702;
1191.0000;0.1481;10.4654;
1191.3000;0.1490;10.4702;
1191.6000;0.1481;10.4750;
1191.9000;0.1473;10.4774;
1192.2000;0.1490;10.4823;
1192.5000;0.1481;10.4774;
1192.8000;0.1465;10.4774;
1193.1000;0.1473;10.4895;
1193.4000;0.1449;10.4799;
1193.7000;0.1498;10.4774;
1194.0000;0.1498;10.4702;
1194.3000;0.1481;10.4630;
1194.6000;0.1473;10.4533;
1194.9000;0.1506;10.4630;
1195.2000;0.1457;10.4581;
1195.5000;0.1473;10.4678;
1195.8000;0.1481;10.4654;
1196.1000;0.1473;10.4581;
1196.4000;0.1473;10.4557;
1196.7000;0.1490;10.4630;
1197.0000;0.1481;10.4726;
1197.3000;0.1473;10.4678;
1197.6000;0.1498;10.4774;
1197.9000;0.1481;10.4654;
1198.2000;0.1506;10.4702;
1198.5000;0.1506;10.4799;
1198.8000;0.1481;10.4678;
1199.1000;0.1490;10.4774;
1199.4000;0.1490;10.4774;
1199.7000;0.1481;10.4654;
1200.0000;0.1498;10.4678;
1200.3000;0.1498;10.4606;
1200.6000;0.1481;10.4630;
1200.9000;0.1490;10.4678;
1201.2000;0.1555;10.4847;
1201.5000;0.1481;10.4581;
1201.8000;0.1473;10.4533;
1202.1000;0.1449;10.4557;
1202.4000;0.1481;10.4726;
1202.7000;0.1481;10.4654;
1203.0000;0.1473;10.4581;
1203.3000;0.1498;10.4678;
1203.6000;0.1490;10.4678;
1203.9000;0.1490;10.4533;
1204.2000;0.1514;10.4557;
1204.5000;0.1498;10.4557;
1204.8000;0.1498;10.4533;
1205.1000;0.1481;10.4581;
1205.4000;0.1416;10.4413;
1205.7000;0.1457;10.4581;
1206.0000;0.1433;10.4461;
1206.3000;0.1449;10.4630;
1206.6000;0.1473;10.4630;
1206.9000;0.1473;10.4702;
1207.2000;0.1530;10.4967;
1207.5000;0.1490;10.4823;
1207.8000;0.1473;10.4678;
1208.1000;0.1441;10.4678;
1208.4000;0.1457;10.4799;
1208.7000;0.1473;10.4871;
1209.0000;0.1490;10.4847;
1209.3000;0.1538;10.4991;
1209.6000;0.1473;10.4847;
1209.9000;0.1465;10.4774;
1210.2000;0.1433;10.4702;
1210.5000;0.1490;10.4871;
1210.8000;0.1490;10.4871;
1211.1000;0.1473;10.4799;
1211.4000;0.1481;10.4726;
1211.7000;0.1433;10.4678;
1212.0000;0.1481;10.4726;
1212.3000;0.1473;10.4750;
1212.6000;0.1490;10.4799;
1212.9000;0.1473;10.4726;
1213.2000;0.1490;10.4774;
1213.5000;0.1481;10.4847;
1213.8000;0.1490;10.4943;
1214.1000;0.1490;10.4919;
1214.4000;0.1490;10.4799;
1214.7000;0.1465;10.4823;
1215.0000;0.1481;10.4943;
1215.3000;0.1473;10.4895;
1215.6000;0.1481;10.4871;
1215.9000;0.1473;10.4799;
1216.2000;0.1473;10.4726;
1216.5000;0.1481;10.4726;
1216.8000;0.1473;10.4678;
1217.1000;0.1465;10.4630;
1217.4000;0.1481;10.4726;
1217.7000;0.1490;10.4678;
1218.0000;0.1490;10.4654;
1218.3000;0.1498;10.4630;
1218.6000;0.1481;10.4606;
1218.9000;0.1465;10.4581;
1219.2000;0.1465;10.4533;
1219.5000;0.1498;10.4654;
1219.8000;0.1481;10.4678;
1220.1000;0.1490;10.4702;
1220.4000;0.1473;10.4726;
1220.7000;0.1481;10.4726;
1221.0000;0.1490;10.4750;
1221.3000;0.1481;10.4630;
1221.6000;0.1473;10.4606;
1221.9000;0.1490;10.4726;
1222.2000;0.1481;10.4678;
1222.5000;0.1481;10.4678;
1222.8000;0.1473;10.4702;
1223.1000;0.1408;10.4509;
1223.4000;0.1490;10.4774;
1223.7000;0.1473;10.4750;
1224.0000;0.1481;10.4823;
1224.3000;0.1473;10.4871;
1224.6000;0.1498;10.4895;
1224.9000;0.1457;10.4750;
1225.2000;0.1473;10.4799;
1225.5000;0.1563;10.4991;
1225.8000;0.1498;10.4847;
1226.1000;0.1473;10.4847;
1226.4000;0.1498;10.4895;
1226.7000;0.1514;10.4967;
1227.0000;0.1498;10.5088;
1227.3000;0.1490;10.4967;
1227.6000;0.1457;10.4943;
1227.9000;0.1473;10.4919;
1228.2000;0.1465;10.4871;
1228.5000;0.1538;10.5064;
1228.8000;0.1498;10.5040;
1229.1000;0.1490;10.5016;
1229.4000;0.1490;10.4991;
1229.7000;0.1473;10.4967;
1230.0000;0.1490;10.4991;
1230.3000;0.1481;10.4943;
1230.6000;0.1490;10.4943;
1230.9000;0.1481;10.4943;
1231.2000;0.1498;10.4943;
1231.5000;0.1522;10.5016;
1231.8000;0.1465;10.4799;
1232.1000;0.1465;10.4750;
1232.4000;0.1473;10.4823;
1232.7000;0.1498;10.4991;
1233.0000;0.1473;10.4943;
1233.3000;0.1514;10.5064;
1233.6000;0.1490;10.4991;
1233.9000;0.1473;10.4871;
1234.2000;0.1490;10.4895;
1234.5000;0.1473;10.4919;
1234.8000;0.1490;10.5016;
1235.1000;0.1481;10.4991;
1235.4000;0.1481;10.4943;
1235.7000;0.1490;10.4919;
1236.0000;0.1490;10.4943;
1236.3000;0.1473;10.4991;
1236.6000;0.1490;10.4967;
1236.9000;0.1481;10.4991;
1237.2000;0.1498;10.4943;
1237.5000;0.1481;10.4847;
1237.8000;0.1498;10.4871;
1238.1000;0.1490;10.4847;
1238.4000;0.1514;10.4991;
1238.7000;0.1457;10.4678;
1239.0000;0.1473;10.4702;
1239.3000;0.1490;10.4823;
1239.6000;0.1441;10.4726;
1239.9000;0.1506;10.4871;
1240.2000;0.1490;10.4823;
1240.5000;0.1465;10.4726;
1240.8000;0.1498;10.4799;
1241.1000;0.1473;10.4726;
1241.4000;0.1481;10.4774;
1241.7000;0.1433;10.4654;
1242.0000;0.1465;10.4750;
1242.3000;0.1481;10.4702;
1242.6000;0.1473;10.4678;
1242.9000;0.1498;10.4726;
1243.2000;0.1457;10.4678;
1243.5000;0.1473;10.4702;
1243.8000;0.1481;10.4726;
1244.1000;0.1433;10.4581;
1244.4000;0.1457;10.4774;
1244.7000;0.1481;10.4823;
1245.0000;0.1465;10.4799;
1245.3000;0.1465;10.4823;
1245.6000;0.1473;10.4871;
1245.9000;0.1473;10.4871;
1246.2000;0.1506;10.4967;
1246.5000;0.1473;10.4895;
1246.8000;0.1465;10.4895;
1247.1000;0.1449;10.4871;
1247.4000;0.1490;10.4991;
1247.7000;0.1473;10.4895;
1248.0000;0.1506;10.4991;
1248.3000;0.1465;10.4871;
1248.6000;0.1522;10.4991;
1248.9000;0.1498;10.4919;
1249.2000;0.1538;10.5088;
1249.5000;0.1490;10.4991;
1249.8000;0.1473;10.4895;
1250.1000;0.1481;10.4847;
1250.4000;0.1498;10.4871;
1250.7000;0.1506;10.4847;
1251.0000;0.1490;10.4799;
1251.3000;0.1465;10.4823;
1251.6000;0.1473;10.4774;
1251.9000;0.1473;10.4750;
1252.2000;0.1457;10.4726;
1252.5000;0.1481;10.4847;
1252.8000;0.1481;10.4799;
1253.1000;0.1457;10.4702;
1253.4000;0.1465;10.4823;
1253.7000;0.1473;10.4799;
1254.0000;0.1490;10.4847;
1254.3000;0.1481;10.4823;
1254.6000;0.1490;10.4943;
1254.9000;0.1490;10.4919;
1255.2000;0.1481;10.4895;
1255.5000;0.1481;10.4943;
1255.8000;0.1457;10.4823;
1256.1000;0.1473;10.4895;
1256.4000;0.1481;10.4847;
1256.7000;0.1498;10.4919;
1257.0000;0.1530;10.5088;
1257.3000;0.1481;10.4991;
1257.6000;0.1481;10.4991;
1257.9000;0.1498;10.5016;
1258.2000;0.1481;10.4967;
1258.5000;0.1473;10.4895;
1258.8000;0.1530;10.4919;
1259.1000;0.1498;10.4799;
1259.4000;0.1490;10.4702;
1259.7000;0.1408;10.4509;
1260.0000;0.1465;10.4678;
1260.3000;0.1465;10.4726;
1260.6000;0.1473;10.4774;
1260.9000;0.1465;10.4678;
1261.2000;0.1416;10.4557;
1261.5000;0.1473;10.4726;
1261.8000;0.1481;10.4823;
1262.1000;0.1473;10.4726;
1262.4000;0.1481;10.4799;
1262.7000;0.1481;10.4799;
1263.0000;0.1457;10.4823;
1263.3000;0.1433;10.4678;
1263.6000;0.1498;10.4895;
1263.9000;0.1506;10.4919;
1264.2000;0.1579;10.5112;
1264.5000;0.1457;10.4799;
1264.8000;0.1514;10.4967;
1265.1000;0.1481;10.4823;
1265.4000;0.1563;10.4967;
1265.7000;0.1416;10.4654;
1266.0000;0.1457;10.4774;
1266.3000;0.1473;10.4823;
1266.6000;0.1457;10.4847;
1266.9000;0.1457;10.4847;
1267.2000;0.1490;10.4871;
1267.5000;0.1490;10.4871;
1267.8000;0.1473;10.4823;
1268.1000;0.1498;10.4919;
1268.4000;0.1473;10.4823;
1268.7000;0.1465;10.4750;
1269.0000;0.1449;10.4774;
1269.3000;0.1490;10.4943;
1269.6000;0.1490;10.4919;
1269.9000;0.1465;10.4871;
1270.2000;0.1473;10.4847;
1270.5000;0.1457;10.4750;
1270.8000;0.1457;10.4702;
1271.1000;0.1481;10.4774;
1271.4000;0.1457;10.4678;
1271.7000;0.1490;10.4750;
1272.0000;0.1465;10.4702;
1272.3000;0.1473;10.4702;
1272.6000;0.1449;10.4654;
1272.9000;0.1481;10.4654;
1273.2000;0.1465;10.4774;
1273.5000;0.1481;10.4847;
1273.8000;0.1465;10.4726;
1274.1000;0.1457;10.4750;
1274.4000;0.1465;10.4678;
1274.7000;0.1506;10.4823;
1275.0000;0.1457;10.4799;
1275.3000;0.1473;10.4967;
1275.6000;0.1490;10.4991;
1275.9000;0.1473;10.4991;
1276.2000;0.1473;10.4991;
1276.5000;0.1473;10.4919;
1276.8000;0.1522;10.4967;
1277.1000;0.1481;10.4943;
1277.4000;0.1481;10.4967;
1277.7000;0.1481;10.5064;
1278.0000;0.1457;10.5112;
1278.3000;0.1498;10.5112;
1278.6000;0.1473;10.5136;
1278.9000;0.1481;10.5088;
1279.2000;0.1473;10.5040;
1279.5000;0.1498;10.5040;
1279.8000;0.1514;10.5064;
1280.1000;0.1490;10.5016;
1280.4000;0.1490;10.5112;
1280.7000;0.1481;10.5064;
1281.0000;0.1490;10.5016;
1281.3000;0.1481;10.5016;
1281.6000;0.1481;10.4991;
1281.9000;0.1481;10.5064;
1282.2000;0.1481;10.5016;
1282.5000;0.1481;10.4967;
1282.8000;0.1473;10.4895;
1283.1000;0.1498;10.4895;
1283.4000;0.1506;10.4847;
1283.7000;0.1465;10.4726;
1284.0000;0.1481;10.4702;
1284.3000;0.1465;10.4654;
1284.6000;0.1490;10.4774;
1284.9000;0.1465;10.4847;
1285.2000;0.1473;10.4799;
1285.5000;0.1490;10.4967;
1285.8000;0.1506;10.5016;
1286.1000;0.1498;10.4919;
1286.4000;0.1498;10.4967;
1286.7000;0.1433;10.4799;
1287.0000;0.1490;10.4943;
1287.3000;0.1481;10.4871;
1287.6000;0.1498;10.4799;
1287.9000;0.1490;10.4823;
1288.2000;0.1506;10.4991;
1288.5000;0.1473;10.4943;
1288.8000;0.1449;10.4774;
1289.1000;0.1481;10.4823;
1289.4000;0.1481;10.4774;
1289.7000;0.1498;10.4847;
1290.0000;0.1465;10.4823;
1290.3000;0.1490;10.4871;
1290.6000;0.1498;10.4823;
1290.9000;0.1481;10.4799;
1291.2000;0.1490;10.4847;
1291.5000;0.1490;10.4823;
1291.8000;0.1498;10.4895;
1292.1000;0.1490;10.4823;
1292.4000;0.1449;10.4823;
1292.7000;0.1449;10.4895;
1293.0000;0.1441;10.4871;
1293.3000;0.1473;10.5040;
1293.6000;0.1473;10.5112;
1293.9000;0.1481;10.5088;
1294.2000;0.1473;10.5088;
1294.5000;0.1490;10.5184;
1294.8000;0.1506;10.5209;
1295.1000;0.1498;10.5112;
1295.4000;0.1473;10.5040;
1295.7000;0.1498;10.5064;
1296.0000;0.1498;10.4967;
1296.3000;0.1498;10.4967;
1296.6000;0.1473;10.4871;
1296.9000;0.1498;10.4919;
1297.2000;0.1473;10.4799;
1297.5000;0.1481;10.4943;
1297.8000;0.1457;10.4895;
1298.1000;0.1473;10.4871;
1298.4000;0.1473;10.4871;
1298.7000;0.1481;10.4943;
1299.0000;0.1481;10.5016;
1299.3000;0.1481;10.4871;
1299.6000;0.1481;10.4823;
1299.9000;0.1481;10.4823;
1300.2000;0.1481;10.4678;
1300.5000;0.1490;10.4726;
1300.8000;0.1473;10.4847;
1301.1000;0.1457;10.4847;
1301.4000;0.1473;10.4799;
1301.7000;0.1465;10.4774;
1302.0000;0.1481;10.4847;
1302.3000;0.1465;10.4774;
1302.6000;0.1498;10.4799;
1302.9000;0.1465;10.4726;
1303.2000;0.1473;10.4774;
1303.5000;0.1408;10.4726;
1303.8000;0.1514;10.5040;
1304.1000;0.1449;10.4799;
1304.4000;0.1473;10.4774;
1304.7000;0.1490;10.4871;
1305.0000;0.1538;10.5064;
1305.3000;0.1481;10.4895;
1305.6000;0.1498;10.4919;
1305.9000;0.1490;10.4895;
1306.2000;0.1473;10.4847;
1306.5000;0.1514;10.4871;
1306.8000;0.1490;10.4871;
1307.1000;0.1490;10.4823;
1307.4000;0.1473;10.4823;
1307.7000;0.1481;10.4895;
1308.0000;0.1481;10.4991;
1308.3000;0.1473;10.5040;
1308.6000;0.1473;10.5040;
1308.9000;0.1473;10.4967;
1309.2000;0.1490;10.5040;
1309.5000;0.1465;10.5088;
1309.8000;0.1465;10.5064;
1310.1000;0.1473;10.5064;
1310.4000;0.1481;10.5016;
1310.7000;0.1506;10.4967;
1311.0000;0.1490;10.4895;
1311.3000;0.1490;10.4847;
1311.6000;0.1490;10.4847;
1311.9000;0.1498;10.4919;
1312.2000;0.1490;10.4967;
1312.5000;0.1498;10.4967;
1312.8000;0.1490;10.4943;
1313.1000;0.1481;10.4943;
1313.4000;0.1473;10.4871;
1313.7000;0.1481;10.4991;
1314.0000;0.1465;10.4967;
1314.3000;0.1490;10.5088;
1314.6000;0.1465;10.5040;
1314.9000;0.1490;10.5016;
1315.2000;0.1490;10.4943;
1315.5000;0.1490;10.4871;
1315.8000;0.1490;10.4799;
1316.1000;0.1400;10.4581;
1316.4000;0.1481;10.4702;
1316.7000;0.1481;10.4606;
1317.0000;0.1506;10.4750;
1317.3000;0.1481;10.4678;
1317.6000;0.1465;10.4726;
1317.9000;0.1473;10.4774;
1318.2000;0.1449;10.4726;
1318.5000;0.1473;10.4726;
1318.8000;0.1481;10.4726;
1319.1000;0.1368;10.4389;
1319.4000;0.1457;10.4581;
1319.7000;0.1457;10.4509;
1320.0000;0.1473;10.4509;
1320.3000;0.1506;10.4557;
1320.6000;0.1465;10.4461;
1320.9000;0.1490;10.4557;
1321.2000;0.1449;10.4533;
1321.5000;0.1498;10.4630;
1321.8000;0.1490;10.4606;
1322.1000;0.1465;10.4606;
1322.4000;0.1490;10.4654;
1322.7000;0.1465;10.4630;
1323.0000;0.1481;10.4606;
1323.3000;0.1400;10.4437;
1323.6000;0.1473;10.4702;
1323.9000;0.1465;10.4702;
1324.2000;0.1465;10.4606;
1324.5000;0.1465;10.4509;
1324.8000;0.1416;10.4340;
1325.1000;0.1473;10.4557;
1325.4000;0.1530;10.4774;
1325.7000;0.1425;10.4557;
1326.0000;0.1473;10.4654;
1326.3000;0.1449;10.4557;
1326.6000;0.1498;10.4678;
1326.9000;0.1449;10.4581;
1327.2000;0.1498;10.4726;
1327.5000;0.1555;10.4871;
1327.8000;0.1433;10.4533;
1328.1000;0.1449;10.4630;
1328.4000;0.1481;10.4702;
1328.7000;0.1473;10.4726;
1329.0000;0.1490;10.4702;
1329.3000;0.1473;10.4678;
1329.6000;0.1473;10.4702;
1329.9000;0.1465;10.4823;
1330.2000;0.1473;10.4871;
1330.5000;0.1490;10.4823;
1330.8000;0.1481;10.4799;
1331.1000;0.1530;10.4943;
1331.4000;0.1481;10.4750;
1331.7000;0.1481;10.4726;
1332.0000;0.1481;10.4726;
1332.3000;0.1481;10.4702;
1332.6000;0.1473;10.4606;
1332.9000;0.1465;10.4557;
1333.2000;0.1481;10.4654;
1333.5000;0.1473;10.4630;
1333.8000;0.1465;10.4606;
1334.1000;0.1498;10.4606;
1334.4000;0.1473;10.4750;
1334.7000;0.1465;10.4774;
1335.0000;0.1498;10.4823;
1335.3000;0.1465;10.4774;
1335.6000;0.1498;10.4823;
1335.9000;0.1465;10.4750;
1336.2000;0.1481;10.4895;
1336.5000;0.1506;10.5040;
1336.8000;0.1490;10.4967;
1337.1000;0.1457;10.4871;
1337.4000;0.1481;10.4871;
1337.7000;0.1481;10.4847;
1338.0000;0.1473;10.4991;
1338.3000;0.1481;10.4919;
1338.6000;0.1473;10.4823;
1338.9000;0.1473;10.4895;
1339.2000;0.1457;10.4750;
1339.5000;0.1481;10.4799;
1339.8000;0.1498;10.4799;
1340.1000;0.1473;10.4774;
1340.4000;0.1481;10.4847;
1340.7000;0.1514;10.4943;
1341.0000;0.1490;10.4919;
1341.3000;0.1465;10.4823;
1341.6000;0.1498;10.4895;
1341.9000;0.1514;10.4919;
1342.2000;0.1506;10.4943;
1342.5000;0.1498;10.4991;
1342.8000;0.1498;10.4919;
1343.1000;0.1490;10.4919;
1343.4000;0.1481;10.4919;
1343.7000;0.1465;10.4847;
1344.0000;0.1465;10.4847;
1344.3000;0.1473;10.4799;
1344.6000;0.1481;10.4823;
1344.9000;0.1498;10.4919;
1345.2000;0.1473;10.4919;
1345.5000;0.1465;10.5040;
1345.8000;0.1506;10.5136;
1346.1000;0.1457;10.4991;
1346.4000;0.1490;10.5040;
1346.7000;0.1498;10.5088;
1347.0000;0.1457;10.4943;
1347.3000;0.1465;10.4919;
1347.6000;0.1490;10.4895;
1347.9000;0.1514;10.4919;
1348.2000;0.1473;10.4847;
1348.5000;0.1473;10.4799;
1348.8000;0.1473;10.4823;
1349.1000;0.1465;10.4799;
1349.4000;0.1490;10.4823;
1349.7000;0.1490;10.4799;
1350.0000;0.1473;10.4726;
1350.3000;0.1522;10.4871;
1350.6000;0.1473;10.4630;
1350.9000;0.1457;10.4630;
1351.2000;0.1490;10.4654;
1351.5000;0.1481;10.4630;
1351.8000;0.1408;10.4557;
1352.1000;0.1490;10.4895;
1352.4000;0.1473;10.4847;
1352.7000;0.1538;10.4943;
1353.0000;0.1481;10.4823;
1353.3000;0.1490;10.4799;
1353.6000;0.1490;10.4823;
1353.9000;0.1490;10.4774;
1354.2000;0.1473;10.4799;
1354.5000;0.1473;10.4750;
1354.8000;0.1481;10.4726;
1355.1000;0.1481;10.4606;
1355.4000;0.1490;10.4630;
1355.7000;0.1490;10.4654;
1356.0000;0.1506;10.4702;
1356.3000;0.1481;10.4606;
1356.6000;0.1498;10.4702;
1356.9000;0.1490;10.4726;
1357.2000;0.1490;10.4678;
1357.5000;0.1498;10.4702;
1357.8000;0.1490;10.4678;
1358.1000;0.1490;10.4654;
1358.4000;0.1490;10.4774;
1358.7000;0.1481;10.4702;
1359.0000;0.1490;10.4726;
1359.3000;0.1465;10.4774;
1359.6000;0.1473;10.4919;
1359.9000;0.1408;10.4678;
1360.2000;0.1465;10.4871;
1360.5000;0.1457;10.4895;
1360.8000;0.1490;10.4871;
1361.1000;0.1481;10.4799;
1361.4000;0.1457;10.4750;
1361.7000;0.1473;10.4799;
1362.0000;0.1465;10.4774;
1362.3000;0.1498;10.4726;
1362.6000;0.1481;10.4750;
1362.9000;0.1579;10.5064;
1363.2000;0.1457;10.4799;
1363.5000;0.1490;10.4774;
1363.8000;0.1498;10.4823;
1364.1000;0.1490;10.4919;
1364.4000;0.1465;10.4967;
1364.7000;0.1481;10.4967;
1365.0000;0.1498;10.4991;
1365.3000;0.1473;10.4871;
1365.6000;0.1514;10.4967;
1365.9000;0.1481;10.4847;
1366.2000;0.1465;10.4823;
1366.5000;0.1473;10.4750;
1366.8000;0.1481;10.4823;
1367.1000;0.1490;10.4750;
1367.4000;0.1481;10.4774;
1367.7000;0.1433;10.4702;
1368.0000;0.1473;10.4799;
1368.3000;0.1481;10.4726;
1368.6000;0.1400;10.4461;
1368.9000;0.1490;10.4774;
1369.2000;0.1490;10.4702;
1369.5000;0.1490;10.4702;
1369.8000;0.1473;10.4726;
1370.1000;0.1498;10.4750;
1370.4000;0.1481;10.4654;
1370.7000;0.1457;10.4581;
1371.0000;0.1506;10.4678;
1371.3000;0.1449;10.4509;
1371.6000;0.1498;10.4630;
1371.9000;0.1506;10.4606;
1372.2000;0.1498;10.4774;
1372.5000;0.1530;10.4847;
1372.8000;0.1481;10.4774;
1373.1000;0.1473;10.4799;
1373.4000;0.1473;10.4799;
1373.7000;0.1498;10.4774;
1374.0000;0.1514;10.4799;
1374.3000;0.1441;10.4533;
1374.6000;0.1457;10.4581;
1374.9000;0.1465;10.4654;
1375.2000;0.1490;10.4702;
1375.5000;0.1490;10.4654;
1375.8000;0.1457;10.4581;
1376.1000;0.1481;10.4606;
1376.4000;0.1490;10.4654;
1376.7000;0.1498;10.4606;
1377.0000;0.1481;10.4557;
1377.3000;0.1473;10.4557;
1377.6000;0.1449;10.4557;
1377.9000;0.1481;10.4678;
1378.2000;0.1465;10.4630;
1378.5000;0.1473;10.4750;
1378.8000;0.1473;10.4799;
1379.1000;0.1481;10.4799;
1379.4000;0.1490;10.4774;
1379.7000;0.1481;10.4799;
1380.0000;0.1481;10.4750;
1380.3000;0.1498;10.4750;
1380.6000;0.1473;10.4702;
1380.9000;0.1481;10.4750;
1381.2000;0.1490;10.4774;
1381.5000;0.1481;10.4799;
1381.8000;0.1408;10.4581;
1382.1000;0.1457;10.4702;
1382.4000;0.1506;10.4750;
1382.7000;0.1465;10.4630;
1383.0000;0.1465;10.4678;
1383.3000;0.1457;10.4678;
1383.6000;0.1498;10.4774;
1383.9000;0.1441;10.4702;
1384.2000;0.1498;10.4847;
1384.5000;0.1465;10.4726;
1384.8000;0.1481;10.4774;
1385.1000;0.1457;10.4750;
1385.4000;0.1481;10.4823;
1385.7000;0.1465;10.4726;
1386.0000;0.1457;10.4678;
1386.3000;0.1449;10.4581;
1386.6000;0.1490;10.4702;
1386.9000;0.1498;10.4702;
1387.2000;0.1441;10.4630;
1387.5000;0.1473;10.4750;
1387.8000;0.1490;10.4750;
1388.1000;0.1498;10.4823;
1388.4000;0.1538;10.4823;
1388.7000;0.1473;10.4702;
1389.0000;0.1563;10.4967;
1389.3000;0.1506;10.4871;
1389.6000;0.1457;10.4678;
1389.9000;0.1481;10.4702;
1390.2000;0.1473;10.4630;
1390.5000;0.1498;10.4678;
1390.8000;0.1498;10.4654;
1391.1000;0.1490;10.4750;
1391.4000;0.1490;10.4799;
1391.7000;0.1473;10.4799;
1392.0000;0.1481;10.4750;
1392.3000;0.1490;10.4702;
1392.6000;0.1490;10.4630;
1392.9000;0.1490;10.4606;
1393.2000;0.1490;10.4630;
1393.5000;0.1498;10.4606;
1393.8000;0.1481;10.4581;
1394.1000;0.1481;10.4533;
1394.4000;0.1481;10.4606;
1394.7000;0.1506;10.4774;
1395.0000;0.1490;10.4847;
1395.3000;0.1465;10.4799;
1395.6000;0.1457;10.4871;
1395.9000;0.1481;10.4871;
1396.2000;0.1506;10.4919;
1396.5000;0.1465;10.4823;
1396.8000;0.1481;10.4750;
1397.1000;0.1498;10.4654;
1397.4000;0.1481;10.4606;
1397.7000;0.1473;10.4606;
1398.0000;0.1481;10.4630;
1398.3000;0.1490;10.4654;
1398.6000;0.1514;10.4774;
1398.9000;0.1490;10.4702;
1399.2000;0.1498;10.4654;
1399.5000;0.1473;10.4606;
1399.8000;0.1490;10.4654;
