time/ms;Fluo/V;P700 deltaI/I x10³;
-199.8000;0.1473;10.5064;
-199.5000;0.1465;10.5016;
-199.2000;0.1481;10.5064;
-198.9000;0.1465;10.5016;
-198.6000;0.1514;10.5209;
-198.3000;0.1465;10.5160;
-198.0000;0.1587;10.5498;
-197.7000;0.1481;10.5184;
-197.4000;0.1481;10.5136;
-197.1000;0.1612;10.5402;
-196.8000;0.1465;10.4967;
-196.5000;0.1481;10.5040;
-196.2000;0.1490;10.5136;
-195.9000;0.1490;10.5064;
-195.6000;0.1481;10.4991;
-195.3000;0.1490;10.4943;
-195.0000;0.1481;10.4967;
-194.7000;0.1473;10.4967;
-194.4000;0.1473;10.4943;
-194.1000;0.1661;10.5450;
-193.8000;0.1481;10.5016;
-193.5000;0.1490;10.5064;
-193.2000;0.1498;10.5136;
-192.9000;0.1506;10.5064;
-192.6000;0.1449;10.4895;
-192.3000;0.1481;10.4943;
-192.0000;0.1498;10.5064;
-191.7000;0.1481;10.4919;
-191.4000;0.1490;10.5016;
-191.1000;0.1481;10.5064;
-190.8000;0.1490;10.4991;
-190.5000;0.1514;10.5064;
-190.2000;0.1498;10.5064;
-189.9000;0.1498;10.4991;
-189.6000;0.1481;10.5016;
-189.3000;0.1457;10.4871;
-189.0000;0.1490;10.4943;
-188.7000;0.1481;10.4895;
-188.4000;0.1473;10.4847;
-188.1000;0.1498;10.4991;
-187.8000;0.1490;10.5016;
-187.5000;0.1595;10.5305;
-187.2000;0.1481;10.5016;
-186.9000;0.1490;10.4967;
-186.6000;0.1449;10.4750;
-186.3000;0.1490;10.4871;
-186.0000;0.1498;10.4871;
-185.7000;0.1490;10.4847;
-185.4000;0.1481;10.4919;
-185.1000;0.1506;10.4967;
-184.8000;0.1498;10.4919;
-184.5000;0.1465;10.4871;
-184.2000;0.1465;10.4871;
-183.9000;0.1481;10.4847;
-183.6000;0.1481;10.4823;
-183.3000;0.1490;10.4871;
-183.0000;0.1490;10.4847;
-182.7000;0.1425;10.4750;
-182.4000;0.1473;10.4895;
-182.1000;0.1473;10.4967;
-181.8000;0.1506;10.5040;
-181.5000;0.1490;10.4991;
-181.2000;0.1473;10.5064;
-180.9000;0.1490;10.5160;
-180.6000;0.1490;10.5112;
-180.3000;0.1498;10.5209;
-180.0000;0.1555;10.5257;
-179.7000;0.1522;10.5184;
-179.4000;0.1481;10.5064;
-179.1000;0.1473;10.5112;
-178.8000;0.1481;10.5184;
-178.5000;0.1481;10.5088;
-178.2000;0.1465;10.4943;
-177.9000;0.1465;10.4943;
-177.6000;0.1481;10.4919;
-177.3000;0.1473;10.4967;
-177.0000;0.1481;10.4991;
-176.7000;0.1425;10.4847;
-176.4000;0.1473;10.4967;
-176.1000;0.1465;10.4943;
-175.8000;0.1498;10.4991;
-175.5000;0.1506;10.4991;
-175.2000;0.1473;10.4991;
-174.9000;0.1465;10.5016;
-174.6000;0.1473;10.5040;
-174.3000;0.1490;10.5064;
-174.0000;0.1473;10.5136;
-173.7000;0.1473;10.5088;
-173.4000;0.1481;10.5040;
-173.1000;0.1481;10.5136;
-172.8000;0.1490;10.5112;
-172.5000;0.1498;10.5136;
-172.2000;0.1490;10.5064;
-171.9000;0.1481;10.5064;
-171.6000;0.1490;10.5160;
-171.3000;0.1481;10.5136;
-171.0000;0.1498;10.5088;
-170.7000;0.1506;10.5112;
-170.4000;0.1473;10.5112;
-170.1000;0.1498;10.5088;
-169.8000;0.1481;10.5112;
-169.5000;0.1490;10.5160;
-169.2000;0.1498;10.5088;
-168.9000;0.1481;10.5040;
-168.6000;0.1473;10.4991;
-168.3000;0.1490;10.5040;
-168.0000;0.1498;10.5064;
-167.7000;0.1473;10.4967;
-167.4000;0.1490;10.4991;
-167.1000;0.1481;10.4943;
-166.8000;0.1506;10.5016;
-166.5000;0.1481;10.4871;
-166.2000;0.1481;10.4895;
-165.9000;0.1514;10.4967;
-165.6000;0.1498;10.4991;
-165.3000;0.1481;10.4967;
-165.0000;0.1465;10.4967;
-164.7000;0.1400;10.4774;
-164.4000;0.1498;10.5064;
-164.1000;0.1473;10.5088;
-163.8000;0.1416;10.4991;
-163.5000;0.1481;10.5112;
-163.2000;0.1490;10.5064;
-162.9000;0.1481;10.4991;
-162.6000;0.1465;10.5016;
-162.3000;0.1481;10.4967;
-162.0000;0.1473;10.4871;
-161.7000;0.1481;10.4919;
-161.4000;0.1441;10.4799;
-161.1000;0.1473;10.4823;
-160.8000;0.1481;10.4871;
-160.5000;0.1547;10.4991;
-160.2000;0.1481;10.4895;
-159.9000;0.1481;10.4943;
-159.6000;0.1498;10.4943;
-159.3000;0.1392;10.4726;
-159.0000;0.1498;10.4919;
-158.7000;0.1490;10.4943;
-158.4000;0.1473;10.4895;
-158.1000;0.1408;10.4774;
-157.8000;0.1481;10.4991;
-157.5000;0.1481;10.4943;
-157.2000;0.1481;10.4895;
-156.9000;0.1490;10.4967;
-156.6000;0.1465;10.4847;
-156.3000;0.1490;10.5040;
-156.0000;0.1473;10.4991;
-155.7000;0.1481;10.5064;
-155.4000;0.1473;10.5112;
-155.1000;0.1555;10.5402;
-154.8000;0.1490;10.5209;
-154.5000;0.1514;10.5184;
-154.2000;0.1449;10.4991;
-153.9000;0.1490;10.5064;
-153.6000;0.1498;10.4991;
-153.3000;0.1481;10.4991;
-153.0000;0.1490;10.5016;
-152.7000;0.1481;10.5040;
-152.4000;0.1473;10.4991;
-152.1000;0.1481;10.5112;
-151.8000;0.1473;10.5040;
-151.5000;0.1506;10.5160;
-151.2000;0.1490;10.5209;
-150.9000;0.1449;10.5136;
-150.6000;0.1522;10.5329;
-150.3000;0.1498;10.5233;
-150.0000;0.1481;10.5136;
-149.7000;0.1481;10.5064;
-149.4000;0.1490;10.5136;
-149.1000;0.1498;10.5136;
-148.8000;0.1490;10.5160;
-148.5000;0.1441;10.4991;
-148.2000;0.1481;10.5064;
-147.9000;0.1538;10.5281;
-147.6000;0.1416;10.4967;
-147.3000;0.1481;10.5088;
-147.0000;0.1481;10.5016;
-146.7000;0.1514;10.5112;
-146.4000;0.1490;10.5064;
-146.1000;0.1498;10.5040;
-145.8000;0.1481;10.5016;
-145.5000;0.1490;10.4991;
-145.2000;0.1498;10.5040;
-144.9000;0.1490;10.5088;
-144.6000;0.1433;10.4943;
-144.3000;0.1481;10.5064;
-144.0000;0.1498;10.5112;
-143.7000;0.1490;10.5016;
-143.4000;0.1481;10.4967;
-143.1000;0.1490;10.4943;
-142.8000;0.1490;10.4943;
-142.5000;0.1555;10.5040;
-142.2000;0.1490;10.4750;
-141.9000;0.1481;10.4774;
-141.6000;0.1490;10.4847;
-141.3000;0.1465;10.4847;
-141.0000;0.1490;10.4847;
-140.7000;0.1498;10.4991;
-140.4000;0.1473;10.4871;
-140.1000;0.1473;10.4943;
-139.8000;0.1506;10.5064;
-139.5000;0.1498;10.4991;
-139.2000;0.1490;10.4991;
-138.9000;0.1498;10.4967;
-138.6000;0.1457;10.4799;
-138.3000;0.1481;10.4871;
-138.0000;0.1473;10.4943;
-137.7000;0.1473;10.4895;
-137.4000;0.1465;10.4943;
-137.1000;0.1473;10.4895;
-136.8000;0.1473;10.4774;
-136.5000;0.1490;10.4702;
-136.2000;0.1473;10.4678;
-135.9000;0.1481;10.4702;
-135.6000;0.1465;10.4750;
-135.3000;0.1490;10.4799;
-135.0000;0.1490;10.4750;
-134.7000;0.1490;10.4774;
-134.4000;0.1490;10.4726;
-134.1000;0.1498;10.4774;
-133.8000;0.1465;10.4726;
-133.5000;0.1506;10.4871;
-133.2000;0.1473;10.4799;
-132.9000;0.1473;10.4919;
-132.6000;0.1465;10.4871;
-132.3000;0.1490;10.4943;
-132.0000;0.1392;10.4774;
-131.7000;0.1514;10.5112;
-131.4000;0.1490;10.5040;
-131.1000;0.1481;10.5040;
-130.8000;0.1481;10.5064;
-130.5000;0.1490;10.5112;
-130.2000;0.1481;10.5064;
-129.9000;0.1490;10.5016;
-129.6000;0.1514;10.4991;
-129.3000;0.1506;10.5016;
-129.0000;0.1441;10.4799;
-128.7000;0.1465;10.4823;
-128.4000;0.1490;10.4943;
-128.1000;0.1473;10.4919;
-127.8000;0.1490;10.4967;
-127.5000;0.1481;10.4991;
-127.2000;0.1514;10.5112;
-126.9000;0.1490;10.5064;
-126.6000;0.1506;10.5112;
-126.3000;0.1441;10.4943;
-126.0000;0.1481;10.5160;
-125.7000;0.1481;10.5184;
-125.4000;0.1449;10.5160;
-125.1000;0.1481;10.5160;
-124.8000;0.1481;10.4967;
-124.5000;0.1587;10.5160;
-124.2000;0.1498;10.4919;
-123.9000;0.1449;10.4799;
-123.6000;0.1481;10.4847;
-123.3000;0.1506;10.4943;
-123.0000;0.1481;10.4943;
-122.7000;0.1465;10.4943;
-122.4000;0.1457;10.4847;
-122.1000;0.1449;10.4823;
-121.8000;0.1473;10.4943;
-121.5000;0.1473;10.4919;
-121.2000;0.1473;10.5016;
-120.9000;0.1490;10.5088;
-120.6000;0.1473;10.4991;
-120.3000;0.1514;10.5136;
-120.0000;0.1498;10.5112;
-119.7000;0.1481;10.5136;
-119.4000;0.1481;10.5088;
-119.1000;0.1481;10.5112;
-118.8000;0.1481;10.5088;
-118.5000;0.1441;10.4967;
-118.2000;0.1481;10.5040;
-117.9000;0.1490;10.5064;
-117.6000;0.1481;10.5040;
-117.3000;0.1473;10.5040;
-117.0000;0.1473;10.5088;
-116.7000;0.1481;10.5088;
-116.4000;0.1481;10.5112;
-116.1000;0.1481;10.5112;
-115.8000;0.1481;10.5136;
-115.5000;0.1481;10.5136;
-115.2000;0.1473;10.5088;
-114.9000;0.1481;10.5136;
-114.6000;0.1490;10.5136;
-114.3000;0.1498;10.5209;
-114.0000;0.1473;10.5209;
-113.7000;0.1538;10.5426;
-113.4000;0.1498;10.5233;
-113.1000;0.1473;10.5064;
-112.8000;0.1481;10.5016;
-112.5000;0.1498;10.5040;
-112.2000;0.1481;10.5064;
-111.9000;0.1481;10.5064;
-111.6000;0.1498;10.5112;
-111.3000;0.1490;10.5112;
-111.0000;0.1514;10.5209;
-110.7000;0.1490;10.5112;
-110.4000;0.1498;10.5184;
-110.1000;0.1384;10.4871;
-109.8000;0.1490;10.5184;
-109.5000;0.1481;10.5136;
-109.2000;0.1481;10.5088;
-108.9000;0.1416;10.4943;
-108.6000;0.1473;10.4991;
-108.3000;0.1473;10.4991;
-108.0000;0.1595;10.5377;
-107.7000;0.1514;10.5064;
-107.4000;0.1490;10.4991;
-107.1000;0.1490;10.5016;
-106.8000;0.1522;10.5040;
-106.5000;0.1481;10.4871;
-106.2000;0.1563;10.5088;
-105.9000;0.1433;10.4774;
-105.6000;0.1490;10.4919;
-105.3000;0.1473;10.4871;
-105.0000;0.1433;10.4702;
-104.7000;0.1473;10.4919;
-104.4000;0.1473;10.4943;
-104.1000;0.1425;10.4750;
-103.8000;0.1481;10.4871;
-103.5000;0.1498;10.4943;
-103.2000;0.1490;10.5016;
-102.9000;0.1433;10.4871;
-102.6000;0.1473;10.5040;
-102.3000;0.1481;10.5040;
-102.0000;0.1498;10.5016;
-101.7000;0.1490;10.5040;
-101.4000;0.1498;10.4991;
-101.1000;0.1555;10.5136;
-100.8000;0.1481;10.5064;
-100.5000;0.1473;10.5064;
-100.2000;0.1538;10.5160;
-99.9000;0.1481;10.5088;
-99.6000;0.1473;10.5016;
-99.3000;0.1506;10.4991;
-99.0000;0.1506;10.4991;
-98.7000;0.1506;10.4871;
-98.4000;0.1465;10.4871;
-98.1000;0.1490;10.4967;
-97.8000;0.1490;10.4847;
-97.5000;0.1538;10.4967;
-97.2000;0.1481;10.4919;
-96.9000;0.1490;10.4943;
-96.6000;0.1498;10.4943;
-96.3000;0.1473;10.4871;
-96.0000;0.1449;10.4774;
-95.7000;0.1498;10.4871;
-95.4000;0.1457;10.4750;
-95.1000;0.1481;10.4823;
-94.8000;0.1490;10.4871;
-94.5000;0.1473;10.4919;
-94.2000;0.1506;10.4991;
-93.9000;0.1465;10.4991;
-93.6000;0.1481;10.5064;
-93.3000;0.1473;10.5016;
-93.0000;0.1473;10.5016;
-92.7000;0.1498;10.5064;
-92.4000;0.1400;10.4847;
-92.1000;0.1481;10.5016;
-91.8000;0.1473;10.5016;
-91.5000;0.1481;10.5088;
-91.2000;0.1465;10.5016;
-90.9000;0.1384;10.4726;
-90.6000;0.1457;10.4871;
-90.3000;0.1481;10.4871;
-90.0000;0.1481;10.4823;
-89.7000;0.1473;10.4799;
-89.4000;0.1490;10.4799;
-89.1000;0.1506;10.4919;
-88.8000;0.1473;10.4799;
-88.5000;0.1457;10.4702;
-88.2000;0.1498;10.4895;
-87.9000;0.1465;10.4799;
-87.6000;0.1473;10.4774;
-87.3000;0.1498;10.4799;
-87.0000;0.1490;10.4847;
-86.7000;0.1465;10.4847;
-86.4000;0.1481;10.4943;
-86.1000;0.1490;10.4895;
-85.8000;0.1433;10.4847;
-85.5000;0.1457;10.4871;
-85.2000;0.1490;10.4967;
-84.9000;0.1490;10.4991;
-84.6000;0.1481;10.5016;
-84.3000;0.1498;10.5064;
-84.0000;0.1530;10.5184;
-83.7000;0.1481;10.5040;
-83.4000;0.1481;10.5064;
-83.1000;0.1490;10.5136;
-82.8000;0.1481;10.5112;
-82.5000;0.1473;10.5160;
-82.2000;0.1481;10.5136;
-81.9000;0.1563;10.5402;
-81.6000;0.1473;10.5112;
-81.3000;0.1473;10.5112;
-81.0000;0.1465;10.5040;
-80.7000;0.1473;10.5016;
-80.4000;0.1481;10.5040;
-80.1000;0.1457;10.4871;
-79.8000;0.1473;10.4847;
-79.5000;0.1490;10.4847;
-79.2000;0.1473;10.4750;
-78.9000;0.1490;10.4750;
-78.6000;0.1481;10.4871;
-78.3000;0.1473;10.4895;
-78.0000;0.1465;10.4943;
-77.7000;0.1506;10.5088;
-77.4000;0.1490;10.5112;
-77.1000;0.1457;10.5064;
-76.8000;0.1473;10.5064;
-76.5000;0.1481;10.5112;
-76.2000;0.1506;10.5112;
-75.9000;0.1490;10.5016;
-75.6000;0.1481;10.4943;
-75.3000;0.1473;10.4967;
-75.0000;0.1465;10.5016;
-74.7000;0.1465;10.5040;
-74.4000;0.1481;10.5016;
-74.1000;0.1473;10.4919;
-73.8000;0.1498;10.4991;
-73.5000;0.1490;10.5016;
-73.2000;0.1481;10.4967;
-72.9000;0.1473;10.4871;
-72.6000;0.1490;10.4967;
-72.3000;0.1490;10.4895;
-72.0000;0.1490;10.4991;
-71.7000;0.1481;10.5112;
-71.4000;0.1481;10.5088;
-71.1000;0.1481;10.5136;
-70.8000;0.1490;10.5112;
-70.5000;0.1498;10.5064;
-70.2000;0.1465;10.5016;
-69.9000;0.1473;10.5016;
-69.6000;0.1457;10.5016;
-69.3000;0.1490;10.4991;
-69.0000;0.1498;10.4943;
-68.7000;0.1473;10.4919;
-68.4000;0.1433;10.4799;
-68.1000;0.1490;10.4919;
-67.8000;0.1400;10.4630;
-67.5000;0.1498;10.4943;
-67.2000;0.1498;10.4943;
-66.9000;0.1490;10.5016;
-66.6000;0.1473;10.4967;
-66.3000;0.1465;10.4871;
-66.0000;0.1490;10.4871;
-65.7000;0.1481;10.4823;
-65.4000;0.1481;10.4750;
-65.1000;0.1473;10.4726;
-64.8000;0.1473;10.4774;
-64.5000;0.1481;10.4774;
-64.2000;0.1473;10.4774;
-63.9000;0.1465;10.4774;
-63.6000;0.1481;10.4895;
-63.3000;0.1481;10.4919;
-63.0000;0.1465;10.4871;
-62.7000;0.1441;10.4847;
-62.4000;0.1481;10.5040;
-62.1000;0.1490;10.5040;
-61.8000;0.1449;10.4943;
-61.5000;0.1481;10.4943;
-61.2000;0.1506;10.4967;
-60.9000;0.1441;10.4871;
-60.6000;0.1490;10.4919;
-60.3000;0.1547;10.5016;
-60.0000;0.1465;10.4823;
-59.7000;0.1498;10.4823;
-59.4000;0.1506;10.4823;
-59.1000;0.1481;10.4774;
-58.8000;0.1490;10.4774;
-58.5000;0.1465;10.4799;
-58.2000;0.1473;10.4895;
-57.9000;0.1473;10.4871;
-57.6000;0.1465;10.4847;
-57.3000;0.1490;10.4871;
-57.0000;0.1481;10.4774;
-56.7000;0.1473;10.4799;
-56.4000;0.1490;10.4774;
-56.1000;0.1481;10.4799;
-55.8000;0.1473;10.4847;
-55.5000;0.1481;10.4871;
-55.2000;0.1506;10.4967;
-54.9000;0.1498;10.5040;
-54.6000;0.1490;10.5064;
-54.3000;0.1465;10.4967;
-54.0000;0.1465;10.5112;
-53.7000;0.1522;10.5136;
-53.4000;0.1514;10.5088;
-53.1000;0.1522;10.5088;
-52.8000;0.1490;10.4967;
-52.5000;0.1400;10.4823;
-52.2000;0.1490;10.5016;
-51.9000;0.1490;10.4943;
-51.6000;0.1490;10.4967;
-51.3000;0.1473;10.4919;
-51.0000;0.1490;10.4967;
-50.7000;0.1473;10.4943;
-50.4000;0.1481;10.5016;
-50.1000;0.1473;10.5016;
-49.8000;0.1481;10.5064;
-49.5000;0.1465;10.5136;
-49.2000;0.1481;10.5016;
-48.9000;0.1490;10.4919;
-48.6000;0.1473;10.4823;
-48.3000;0.1481;10.4847;
-48.0000;0.1481;10.4895;
-47.7000;0.1473;10.4823;
-47.4000;0.1473;10.4774;
-47.1000;0.1498;10.4799;
-46.8000;0.1481;10.4799;
-46.5000;0.1481;10.4871;
-46.2000;0.1498;10.4919;
-45.9000;0.1530;10.4991;
-45.6000;0.1506;10.4991;
-45.3000;0.1481;10.5016;
-45.0000;0.1465;10.4943;
-44.7000;0.1433;10.4847;
-44.4000;0.1579;10.5281;
-44.1000;0.1498;10.5016;
-43.8000;0.1433;10.4799;
-43.5000;0.1506;10.5040;
-43.2000;0.1506;10.5016;
-42.9000;0.1490;10.5040;
-42.6000;0.1481;10.4967;
-42.3000;0.1490;10.4895;
-42.0000;0.1481;10.4919;
-41.7000;0.1490;10.4919;
-41.4000;0.1490;10.4967;
-41.1000;0.1481;10.4895;
-40.8000;0.1481;10.4943;
-40.5000;0.1481;10.4871;
-40.2000;0.1490;10.4871;
-39.9000;0.1473;10.4799;
-39.6000;0.1498;10.4967;
-39.3000;0.1490;10.4919;
-39.0000;0.1473;10.4943;
-38.7000;0.1457;10.4943;
-38.4000;0.1473;10.4991;
-38.1000;0.1473;10.5016;
-37.8000;0.1490;10.5088;
-37.5000;0.1498;10.5088;
-37.2000;0.1465;10.5040;
-36.9000;0.1498;10.5112;
-36.6000;0.1490;10.5016;
-36.3000;0.1498;10.5064;
-36.0000;0.1481;10.4991;
-35.7000;0.1498;10.5064;
-35.4000;0.1481;10.5040;
-35.1000;0.1490;10.5088;
-34.8000;0.1433;10.4943;
-34.5000;0.1490;10.5160;
-34.2000;0.1473;10.5160;
-33.9000;0.1490;10.5209;
-33.6000;0.1490;10.5257;
-33.3000;0.1481;10.5257;
-33.0000;0.1473;10.5257;
-32.7000;0.1490;10.5305;
-32.4000;0.1481;10.5184;
-32.1000;0.1498;10.5160;
-31.8000;0.1498;10.5184;
-31.5000;0.1473;10.5184;
-31.2000;0.1473;10.5209;
-30.9000;0.1457;10.5016;
-30.6000;0.1490;10.5088;
-30.3000;0.1473;10.4991;
-30.0000;0.1506;10.5040;
-29.7000;0.1457;10.5040;
-29.4000;0.1481;10.5088;
-29.1000;0.1400;10.4919;
-28.8000;0.1490;10.5064;
-28.5000;0.1547;10.5209;
-28.2000;0.1498;10.5016;
-27.9000;0.1547;10.5112;
-27.6000;0.1498;10.4943;
-27.3000;0.1425;10.4702;
-27.0000;0.1490;10.4871;
-26.7000;0.1514;10.4943;
-26.4000;0.1433;10.4774;
-26.1000;0.1481;10.4919;
-25.8000;0.1490;10.4943;
-25.5000;0.1384;10.4606;
-25.2000;0.1490;10.4919;
-24.9000;0.1449;10.4847;
-24.6000;0.1490;10.4967;
-24.3000;0.1481;10.5064;
-24.0000;0.1490;10.5088;
-23.7000;0.1465;10.4991;
-23.4000;0.1473;10.4991;
-23.1000;0.1400;10.4799;
-22.8000;0.1490;10.5016;
-22.5000;0.1498;10.5064;
-22.2000;0.1481;10.4991;
-21.9000;0.1481;10.4991;
-21.6000;0.1473;10.4895;
-21.3000;0.1473;10.4943;
-21.0000;0.1473;10.4895;
-20.7000;0.1481;10.4943;
-20.4000;0.1481;10.4967;
-20.1000;0.1506;10.4991;
-19.8000;0.1473;10.4919;
-19.5000;0.1490;10.4967;
-19.2000;0.1490;10.4919;
-18.9000;0.1555;10.5088;
-18.6000;0.1481;10.4847;
-18.3000;0.1481;10.4847;
-18.0000;0.1473;10.4847;
-17.7000;0.1481;10.4823;
-17.4000;0.1481;10.4823;
-17.1000;0.1465;10.4799;
-16.8000;0.1473;10.4799;
-16.5000;0.1498;10.4823;
-16.2000;0.1498;10.4823;
-15.9000;0.1433;10.4726;
-15.6000;0.1408;10.4750;
-15.3000;0.1538;10.5016;
-15.0000;0.1490;10.4871;
-14.7000;0.1465;10.4799;
-14.4000;0.1490;10.4871;
-14.1000;0.1416;10.4581;
-13.8000;0.1522;10.4895;
-13.5000;0.1473;10.4774;
-13.2000;0.1490;10.4750;
-12.9000;0.1384;10.4485;
-12.6000;0.1481;10.4774;
-12.3000;0.1481;10.4799;
-12.0000;0.1636;10.5209;
-11.7000;0.1481;10.4895;
-11.4000;0.1490;10.4871;
-11.1000;0.1481;10.4943;
-10.8000;0.1457;10.4847;
-10.5000;0.1498;10.4919;
-10.2000;0.1490;10.4967;
-9.9000;0.1514;10.5040;
-9.6000;0.1481;10.4895;
-9.3000;0.1481;10.4847;
-9.0000;0.1481;10.4823;
-8.7000;0.1498;10.4799;
-8.4000;0.1481;10.4726;
-8.1000;0.1506;10.4654;
-7.8000;0.1481;10.4823;
-7.5000;0.1506;10.4895;
-7.2000;0.1498;10.4943;
-6.9000;0.1473;10.5040;
-6.6000;0.1498;10.5088;
-6.3000;0.1490;10.5136;
-6.0000;0.1498;10.5040;
-5.7000;0.1490;10.5040;
-5.4000;0.1490;10.5112;
-5.1000;0.1457;10.5040;
-4.8000;0.1490;10.5136;
-4.5000;0.1481;10.5112;
-4.2000;0.1481;10.5112;
-3.9000;0.1457;10.5016;
-3.6000;0.1465;10.4967;
-3.3000;0.1473;10.5064;
-3.0000;0.1490;10.5088;
-2.7000;0.1368;10.4823;
-2.4000;0.1400;10.4871;
-2.1000;0.1481;10.5016;
-1.8000;0.1490;10.5088;
-1.5000;0.1522;10.5112;
-1.2000;0.1481;10.4991;
-0.9000;0.1490;10.5016;
-0.6000;0.1514;10.5064;
-0.3000;0.1538;10.5064;
0.0000;0.1538;10.5064;
0.3000;0.1506;10.4847;
0.6000;0.1465;10.4943;
0.9000;0.1514;10.5305;
1.2000;0.1506;10.5546;
1.5000;0.1547;10.5860;
1.8000;0.1555;10.5980;
2.1000;0.1522;10.6125;
2.4000;0.1555;10.6366;
2.7000;0.1571;10.6559;
3.0000;0.1571;10.6632;
3.3000;0.1587;10.6656;
3.6000;0.1579;10.6607;
3.9000;0.1604;10.6776;
4.2000;0.1612;10.6800;
4.5000;0.1579;10.6752;
4.8000;0.1522;10.6632;
5.1000;0.1538;10.6680;
5.4000;0.1555;10.6752;
5.7000;0.1595;10.6825;
6.0000;0.1579;10.6921;
6.3000;0.1587;10.6945;
6.6000;0.1587;10.7066;
6.9000;0.1563;10.6993;
7.2000;0.1595;10.7114;
7.5000;0.1587;10.7066;
7.8000;0.1587;10.7018;
8.1000;0.1587;10.7042;
8.4000;0.1693;10.7379;
8.7000;0.1579;10.7018;
9.0000;0.1587;10.6969;
9.3000;0.1595;10.7018;
9.6000;0.1604;10.6969;
9.9000;0.1579;10.7018;
10.2000;0.1579;10.6897;
10.5000;0.1587;10.7042;
10.8000;0.1595;10.7114;
11.1000;0.1579;10.7114;
11.4000;0.1579;10.7186;
11.7000;0.1604;10.7259;
12.0000;0.1636;10.7331;
12.3000;0.1579;10.7210;
12.6000;0.1587;10.7186;
12.9000;0.1612;10.7235;
13.2000;0.1604;10.7210;
13.5000;0.1595;10.7114;
13.8000;0.1604;10.7090;
14.1000;0.1595;10.7114;
14.4000;0.1604;10.7162;
14.7000;0.1587;10.7114;
15.0000;0.1571;10.7090;
15.3000;0.1595;10.7066;
15.6000;0.1579;10.7042;
15.9000;0.1612;10.7138;
16.2000;0.1595;10.6969;
16.5000;0.1587;10.6969;
16.8000;0.1604;10.7066;
17.1000;0.1579;10.7066;
17.4000;0.1612;10.7114;
17.7000;0.1595;10.7090;
18.0000;0.1595;10.7138;
18.3000;0.1587;10.7114;
18.6000;0.1587;10.7066;
18.9000;0.1587;10.7066;
19.2000;0.1587;10.7042;
19.5000;0.1604;10.7090;
19.8000;0.1604;10.7138;
20.1000;0.1612;10.7066;
20.4000;0.1612;10.7090;
20.7000;0.1595;10.7114;
21.0000;0.1620;10.7138;
21.3000;0.1587;10.7066;
21.6000;0.1587;10.7162;
21.9000;0.1579;10.7162;
22.2000;0.1579;10.7162;
22.5000;0.1571;10.7210;
22.8000;0.1555;10.7090;
23.1000;0.1514;10.7066;
23.4000;0.1547;10.7090;
23.7000;0.1587;10.7162;
24.0000;0.1579;10.7066;
24.3000;0.1579;10.7042;
24.6000;0.1636;10.7162;
24.9000;0.1604;10.7042;
25.2000;0.1587;10.7090;
25.5000;0.1587;10.7186;
25.8000;0.1579;10.7162;
26.1000;0.1473;10.6945;
26.4000;0.1587;10.7235;
26.7000;0.1571;10.7235;
27.0000;0.1579;10.7259;
27.3000;0.1604;10.7283;
27.6000;0.1587;10.7235;
27.9000;0.1587;10.7307;
28.2000;0.1587;10.7355;
28.5000;0.1571;10.7331;
28.8000;0.1587;10.7379;
29.1000;0.1652;10.7548;
29.4000;0.1587;10.7307;
29.7000;0.1595;10.7210;
30.0000;0.1587;10.7066;
30.3000;0.1563;10.7066;
30.6000;0.1587;10.7066;
30.9000;0.1587;10.7090;
31.2000;0.1555;10.7018;
31.5000;0.1579;10.7186;
31.8000;0.1579;10.7235;
32.1000;0.1579;10.7259;
32.4000;0.1604;10.7355;
32.7000;0.1571;10.7235;
33.0000;0.1604;10.7235;
33.3000;0.1595;10.7259;
33.6000;0.1571;10.7283;
33.9000;0.1595;10.7355;
34.2000;0.1587;10.7355;
34.5000;0.1587;10.7452;
34.8000;0.1612;10.7572;
35.1000;0.1595;10.7524;
35.4000;0.1498;10.7283;
35.7000;0.1595;10.7524;
36.0000;0.1579;10.7452;
36.3000;0.1595;10.7524;
36.6000;0.1571;10.7403;
36.9000;0.1595;10.7428;
37.2000;0.1579;10.7331;
37.5000;0.1571;10.7259;
37.8000;0.1547;10.7138;
38.1000;0.1579;10.7259;
38.4000;0.1563;10.7210;
38.7000;0.1579;10.7307;
39.0000;0.1579;10.7355;
39.3000;0.1587;10.7307;
39.6000;0.1579;10.7307;
39.9000;0.1612;10.7403;
40.2000;0.1595;10.7331;
40.5000;0.1579;10.7259;
40.8000;0.1587;10.7307;
41.1000;0.1587;10.7331;
41.4000;0.1587;10.7403;
41.7000;0.1579;10.7428;
42.0000;0.1579;10.7331;
42.3000;0.1595;10.7379;
42.6000;0.1595;10.7403;
42.9000;0.1595;10.7379;
43.2000;0.1579;10.7355;
43.5000;0.1587;10.7379;
43.8000;0.1595;10.7452;
44.1000;0.1587;10.7355;
44.4000;0.1669;10.7548;
44.7000;0.1595;10.7307;
45.0000;0.1595;10.7307;
45.3000;0.1604;10.7403;
45.6000;0.1595;10.7283;
45.9000;0.1563;10.7235;
46.2000;0.1595;10.7355;
46.5000;0.1571;10.7331;
46.8000;0.1587;10.7403;
47.1000;0.1579;10.7355;
47.4000;0.1587;10.7307;
47.7000;0.1595;10.7283;
48.0000;0.1571;10.7331;
48.3000;0.1604;10.7379;
48.6000;0.1669;10.7548;
48.9000;0.1612;10.7331;
49.2000;0.1595;10.7283;
49.5000;0.1563;10.7283;
49.8000;0.1595;10.7331;
50.1000;0.1547;10.7235;
50.4000;0.1587;10.7403;
50.7000;0.1587;10.7500;
51.0000;0.1604;10.7476;
51.3000;0.1587;10.7403;
51.6000;0.1595;10.7403;
51.9000;0.1587;10.7331;
52.2000;0.1587;10.7428;
52.5000;0.1579;10.7403;
52.8000;0.1579;10.7476;
53.1000;0.1579;10.7428;
53.4000;0.1563;10.7452;
53.7000;0.1579;10.7500;
54.0000;0.1595;10.7548;
54.3000;0.1571;10.7452;
54.6000;0.1563;10.7355;
54.9000;0.1587;10.7476;
55.2000;0.1644;10.7621;
55.5000;0.1595;10.7548;
55.8000;0.1571;10.7524;
56.1000;0.1595;10.7548;
56.4000;0.1612;10.7669;
56.7000;0.1595;10.7645;
57.0000;0.1587;10.7572;
57.3000;0.1587;10.7476;
57.6000;0.1587;10.7500;
57.9000;0.1579;10.7379;
58.2000;0.1571;10.7307;
58.5000;0.1579;10.7307;
58.8000;0.1587;10.7307;
59.1000;0.1604;10.7331;
59.4000;0.1595;10.7307;
59.7000;0.1579;10.7283;
60.0000;0.1595;10.7307;
60.3000;0.1628;10.7403;
60.6000;0.1587;10.7283;
60.9000;0.1612;10.7283;
61.2000;0.1587;10.7186;
61.5000;0.1587;10.7235;
61.8000;0.1595;10.7259;
62.1000;0.1587;10.7186;
62.4000;0.1587;10.7186;
62.7000;0.1579;10.7186;
63.0000;0.1587;10.7186;
63.3000;0.1661;10.7428;
63.6000;0.1579;10.7138;
63.9000;0.1579;10.7186;
64.2000;0.1595;10.7210;
64.5000;0.1563;10.7307;
64.8000;0.1587;10.7403;
65.1000;0.1587;10.7379;
65.4000;0.1620;10.7428;
65.7000;0.1595;10.7331;
66.0000;0.1579;10.7283;
66.3000;0.1563;10.7235;
66.6000;0.1595;10.7235;
66.9000;0.1587;10.7283;
67.2000;0.1579;10.7283;
67.5000;0.1587;10.7379;
67.8000;0.1587;10.7379;
68.1000;0.1563;10.7355;
68.4000;0.1587;10.7403;
68.7000;0.1563;10.7452;
69.0000;0.1547;10.7307;
69.3000;0.1587;10.7403;
69.6000;0.1595;10.7476;
69.9000;0.1595;10.7452;
70.2000;0.1628;10.7476;
70.5000;0.1587;10.7331;
70.8000;0.1595;10.7403;
71.1000;0.1709;10.7741;
71.4000;0.1636;10.7621;
71.7000;0.1595;10.7403;
72.0000;0.1571;10.7307;
72.3000;0.1563;10.7307;
72.6000;0.1579;10.7428;
72.9000;0.1604;10.7476;
73.2000;0.1587;10.7452;
73.5000;0.1579;10.7355;
73.8000;0.1587;10.7379;
74.1000;0.1587;10.7452;
74.4000;0.1604;10.7476;
74.7000;0.1604;10.7524;
75.0000;0.1595;10.7524;
75.3000;0.1595;10.7645;
75.6000;0.1612;10.7645;
75.9000;0.1595;10.7572;
76.2000;0.1587;10.7524;
76.5000;0.1595;10.7548;
76.8000;0.1604;10.7548;
77.1000;0.1490;10.7235;
77.4000;0.1595;10.7524;
77.7000;0.1587;10.7524;
78.0000;0.1595;10.7548;
78.3000;0.1571;10.7524;
78.6000;0.1587;10.7500;
78.9000;0.1579;10.7596;
79.2000;0.1587;10.7621;
79.5000;0.1604;10.7548;
79.8000;0.1587;10.7572;
80.1000;0.1571;10.7524;
80.4000;0.1506;10.7307;
80.7000;0.1587;10.7476;
81.0000;0.1579;10.7403;
81.3000;0.1604;10.7476;
81.6000;0.1579;10.7428;
81.9000;0.1652;10.7645;
82.2000;0.1579;10.7428;
82.5000;0.1604;10.7452;
82.8000;0.1595;10.7403;
83.1000;0.1604;10.7428;
83.4000;0.1579;10.7500;
83.7000;0.1547;10.7379;
84.0000;0.1579;10.7452;
84.3000;0.1571;10.7307;
84.6000;0.1644;10.7452;
84.9000;0.1595;10.7307;
85.2000;0.1661;10.7548;
85.5000;0.1579;10.7379;
85.8000;0.1587;10.7331;
86.1000;0.1579;10.7235;
86.4000;0.1595;10.7235;
86.7000;0.1587;10.7162;
87.0000;0.1547;10.7066;
87.3000;0.1587;10.7259;
87.6000;0.1530;10.7138;
87.9000;0.1579;10.7114;
88.2000;0.1604;10.7162;
88.5000;0.1587;10.7114;
88.8000;0.1563;10.7090;
89.1000;0.1571;10.7114;
89.4000;0.1620;10.7259;
89.7000;0.1587;10.7235;
90.0000;0.1587;10.7235;
90.3000;0.1636;10.7452;
90.6000;0.1571;10.7307;
90.9000;0.1571;10.7307;
91.2000;0.1579;10.7331;
91.5000;0.1587;10.7259;
91.8000;0.1587;10.7331;
92.1000;0.1595;10.7307;
92.4000;0.1587;10.7307;
92.7000;0.1604;10.7307;
93.0000;0.1595;10.7331;
93.3000;0.1587;10.7307;
93.6000;0.1579;10.7259;
93.9000;0.1579;10.7283;
94.2000;0.1547;10.7259;
94.5000;0.1571;10.7331;
94.8000;0.1636;10.7403;
95.1000;0.1547;10.7138;
95.4000;0.1555;10.7210;
95.7000;0.1579;10.7259;
96.0000;0.1587;10.7235;
96.3000;0.1481;10.6945;
96.6000;0.1595;10.7210;
96.9000;0.1620;10.7283;
97.2000;0.1595;10.7186;
97.5000;0.1555;10.7114;
97.8000;0.1563;10.7283;
98.1000;0.1579;10.7307;
98.4000;0.1587;10.7379;
98.7000;0.1612;10.7428;
99.0000;0.1595;10.7428;
99.3000;0.1547;10.7283;
99.6000;0.1579;10.7355;
99.9000;0.1685;10.7596;
100.2000;0.1538;10.7138;
100.5000;0.1595;10.7235;
100.8000;0.1579;10.7138;
101.1000;0.1595;10.7186;
101.4000;0.1547;10.6993;
101.7000;0.1595;10.7114;
102.0000;0.1563;10.7066;
102.3000;0.1595;10.7090;
102.6000;0.1587;10.7066;
102.9000;0.1571;10.7138;
103.2000;0.1620;10.7331;
103.5000;0.1579;10.7283;
103.8000;0.1595;10.7259;
104.1000;0.1579;10.7235;
104.4000;0.1579;10.7114;
104.7000;0.1579;10.7090;
105.0000;0.1604;10.7138;
105.3000;0.1563;10.7090;
105.6000;0.1587;10.7114;
105.9000;0.1587;10.7114;
106.2000;0.1579;10.7018;
106.5000;0.1579;10.6945;
106.8000;0.1579;10.6921;
107.1000;0.1579;10.7042;
107.4000;0.1595;10.7162;
107.7000;0.1571;10.7138;
108.0000;0.1701;10.7572;
108.3000;0.1587;10.7283;
108.6000;0.1571;10.7210;
108.9000;0.1579;10.7259;
109.2000;0.1538;10.7210;
109.5000;0.1579;10.7307;
109.8000;0.1652;10.7572;
110.1000;0.1652;10.7476;
110.4000;0.1563;10.7283;
110.7000;0.1750;10.7838;
111.0000;0.1547;10.7307;
111.3000;0.1587;10.7379;
111.6000;0.1587;10.7403;
111.9000;0.1571;10.7307;
112.2000;0.1579;10.7307;
112.5000;0.1604;10.7210;
112.8000;0.1506;10.7018;
113.1000;0.1563;10.7162;
113.4000;0.1587;10.7186;
113.7000;0.1587;10.7210;
114.0000;0.1571;10.7259;
114.3000;0.1555;10.7235;
114.6000;0.1587;10.7379;
114.9000;0.1579;10.7428;
115.2000;0.1587;10.7428;
115.5000;0.1604;10.7428;
115.8000;0.1555;10.7331;
116.1000;0.1579;10.7428;
116.4000;0.1563;10.7379;
116.7000;0.1587;10.7452;
117.0000;0.1563;10.7403;
117.3000;0.1571;10.7428;
117.6000;0.1595;10.7403;
117.9000;0.1498;10.7114;
118.2000;0.1587;10.7452;
118.5000;0.1685;10.7765;
118.8000;0.1587;10.7452;
119.1000;0.1530;10.7307;
119.4000;0.1514;10.7259;
119.7000;0.1571;10.7355;
120.0000;0.1579;10.7307;
120.3000;0.1620;10.7379;
120.6000;0.1563;10.7138;
120.9000;0.1620;10.7283;
121.2000;0.1587;10.7331;
121.5000;0.1652;10.7548;
121.8000;0.1612;10.7403;
122.1000;0.1604;10.7355;
122.4000;0.1587;10.7331;
122.7000;0.1595;10.7379;
123.0000;0.1595;10.7307;
123.3000;0.1579;10.7259;
123.6000;0.1579;10.7210;
123.9000;0.1571;10.7210;
124.2000;0.1604;10.7283;
124.5000;0.1587;10.7307;
124.8000;0.1571;10.7307;
125.1000;0.1644;10.7500;
125.4000;0.1595;10.7403;
125.7000;0.1579;10.7331;
126.0000;0.1604;10.7355;
126.3000;0.1587;10.7355;
126.6000;0.1587;10.7379;
126.9000;0.1579;10.7331;
127.2000;0.1587;10.7307;
127.5000;0.1587;10.7307;
127.8000;0.1604;10.7403;
128.1000;0.1579;10.7403;
128.4000;0.1587;10.7379;
128.7000;0.1579;10.7331;
129.0000;0.1595;10.7452;
129.3000;0.1628;10.7476;
129.6000;0.1579;10.7428;
129.9000;0.1579;10.7452;
130.2000;0.1587;10.7476;
130.5000;0.1595;10.7428;
130.8000;0.1595;10.7500;
131.1000;0.1587;10.7500;
131.4000;0.1595;10.7500;
131.7000;0.1604;10.7548;
132.0000;0.1604;10.7524;
132.3000;0.1604;10.7476;
132.6000;0.1522;10.7283;
132.9000;0.1587;10.7452;
133.2000;0.1579;10.7428;
133.5000;0.1587;10.7428;
133.8000;0.1579;10.7428;
134.1000;0.1595;10.7548;
134.4000;0.1571;10.7524;
134.7000;0.1579;10.7572;
135.0000;0.1571;10.7524;
135.3000;0.1661;10.7645;
135.6000;0.1644;10.7765;
135.9000;0.1571;10.7621;
136.2000;0.1579;10.7596;
136.5000;0.1506;10.7355;
136.8000;0.1612;10.7524;
137.1000;0.1547;10.7355;
137.4000;0.1587;10.7476;
137.7000;0.1530;10.7307;
138.0000;0.1579;10.7476;
138.3000;0.1587;10.7548;
138.6000;0.1587;10.7572;
138.9000;0.1571;10.7548;
139.2000;0.1604;10.7596;
139.5000;0.1571;10.7548;
139.8000;0.1579;10.7428;
140.1000;0.1587;10.7548;
140.4000;0.1587;10.7452;
140.7000;0.1644;10.7621;
141.0000;0.1587;10.7476;
141.3000;0.1579;10.7379;
141.6000;0.1595;10.7355;
141.9000;0.1538;10.7186;
142.2000;0.1587;10.7235;
142.5000;0.1563;10.7235;
142.8000;0.1612;10.7428;
143.1000;0.1636;10.7476;
143.4000;0.1490;10.6993;
143.7000;0.1571;10.7283;
144.0000;0.1701;10.7645;
144.3000;0.1579;10.7331;
144.6000;0.1538;10.7186;
144.9000;0.1571;10.7259;
145.2000;0.1530;10.7138;
145.5000;0.1563;10.7307;
145.8000;0.1579;10.7331;
146.1000;0.1579;10.7355;
146.4000;0.1595;10.7403;
146.7000;0.1571;10.7379;
147.0000;0.1595;10.7476;
147.3000;0.1604;10.7476;
147.6000;0.1579;10.7379;
147.9000;0.1555;10.7428;
148.2000;0.1563;10.7403;
148.5000;0.1571;10.7379;
148.8000;0.1579;10.7283;
149.1000;0.1587;10.7355;
149.4000;0.1587;10.7331;
149.7000;0.1595;10.7403;
150.0000;0.1587;10.7355;
150.3000;0.1563;10.7307;
150.6000;0.1579;10.7307;
150.9000;0.1604;10.7283;
151.2000;0.1587;10.7283;
151.5000;0.1571;10.7235;
151.8000;0.1587;10.7331;
152.1000;0.1604;10.7379;
152.4000;0.1587;10.7355;
152.7000;0.1571;10.7355;
153.0000;0.1571;10.7355;
153.3000;0.1538;10.7307;
153.6000;0.1587;10.7379;
153.9000;0.1587;10.7379;
154.2000;0.1547;10.7307;
154.5000;0.1587;10.7331;
154.8000;0.1587;10.7379;
155.1000;0.1595;10.7452;
155.4000;0.1571;10.7307;
155.7000;0.1571;10.7331;
156.0000;0.1563;10.7259;
156.3000;0.1612;10.7476;
156.6000;0.1571;10.7307;
156.9000;0.1547;10.7114;
157.2000;0.1563;10.7162;
157.5000;0.1579;10.7235;
157.8000;0.1563;10.7162;
158.1000;0.1579;10.7259;
158.4000;0.1620;10.7403;
158.7000;0.1579;10.7307;
159.0000;0.1571;10.7379;
159.3000;0.1628;10.7500;
159.6000;0.1571;10.7331;
159.9000;0.1587;10.7331;
160.2000;0.1579;10.7283;
160.5000;0.1595;10.7307;
160.8000;0.1579;10.7379;
161.1000;0.1514;10.7210;
161.4000;0.1604;10.7428;
161.7000;0.1571;10.7355;
162.0000;0.1587;10.7379;
162.3000;0.1571;10.7403;
162.6000;0.1595;10.7355;
162.9000;0.1612;10.7379;
163.2000;0.1604;10.7331;
163.5000;0.1563;10.7235;
163.8000;0.1595;10.7307;
164.1000;0.1587;10.7210;
164.4000;0.1587;10.7283;
164.7000;0.1579;10.7307;
165.0000;0.1587;10.7355;
165.3000;0.1595;10.7452;
165.6000;0.1571;10.7331;
165.9000;0.1579;10.7331;
166.2000;0.1595;10.7355;
166.5000;0.1579;10.7307;
166.8000;0.1579;10.7379;
167.1000;0.1555;10.7331;
167.4000;0.1620;10.7428;
167.7000;0.1595;10.7331;
168.0000;0.1652;10.7548;
168.3000;0.1522;10.7210;
168.6000;0.1579;10.7331;
168.9000;0.1595;10.7331;
169.2000;0.1571;10.7259;
169.5000;0.1579;10.7283;
169.8000;0.1595;10.7379;
170.1000;0.1571;10.7403;
170.4000;0.1612;10.7476;
170.7000;0.1604;10.7379;
171.0000;0.1587;10.7355;
171.3000;0.1563;10.7307;
171.6000;0.1563;10.7307;
171.9000;0.1563;10.7259;
172.2000;0.1563;10.7162;
172.5000;0.1595;10.7186;
172.8000;0.1579;10.7090;
173.1000;0.1571;10.7042;
173.4000;0.1579;10.6993;
173.7000;0.1579;10.7090;
174.0000;0.1555;10.7042;
174.3000;0.1579;10.7066;
174.6000;0.1587;10.7138;
174.9000;0.1555;10.7066;
175.2000;0.1465;10.6849;
175.5000;0.1571;10.7138;
175.8000;0.1579;10.7186;
176.1000;0.1571;10.7138;
176.4000;0.1579;10.7138;
176.7000;0.1587;10.7138;
177.0000;0.1595;10.7210;
177.3000;0.1579;10.7235;
177.6000;0.1595;10.7210;
177.9000;0.1555;10.6969;
178.2000;0.1587;10.7090;
178.5000;0.1579;10.7018;
178.8000;0.1595;10.7090;
179.1000;0.1587;10.6921;
179.4000;0.1636;10.7090;
179.7000;0.1579;10.6969;
180.0000;0.1620;10.7114;
180.3000;0.1555;10.6969;
180.6000;0.1587;10.7042;
180.9000;0.1555;10.6921;
181.2000;0.1579;10.6993;
181.5000;0.1587;10.7066;
181.8000;0.1587;10.7090;
182.1000;0.1571;10.6993;
182.4000;0.1563;10.6969;
182.7000;0.1587;10.7138;
183.0000;0.1563;10.7114;
183.3000;0.1587;10.7186;
183.6000;0.1587;10.7186;
183.9000;0.1587;10.7138;
184.2000;0.1579;10.7162;
184.5000;0.1579;10.7186;
184.8000;0.1579;10.7162;
185.1000;0.1579;10.7235;
185.4000;0.1563;10.7186;
185.7000;0.1579;10.7186;
186.0000;0.1571;10.7138;
186.3000;0.1587;10.7186;
186.6000;0.1579;10.7162;
186.9000;0.1595;10.7186;
187.2000;0.1595;10.7162;
187.5000;0.1579;10.7090;
187.8000;0.1595;10.7090;
188.1000;0.1595;10.7186;
188.4000;0.1587;10.7210;
188.7000;0.1587;10.7210;
189.0000;0.1595;10.7210;
189.3000;0.1579;10.7210;
189.6000;0.1555;10.7210;
189.9000;0.1579;10.7283;
190.2000;0.1587;10.7186;
190.5000;0.1571;10.7210;
190.8000;0.1563;10.7138;
191.1000;0.1563;10.7138;
191.4000;0.1579;10.7235;
191.7000;0.1579;10.7186;
192.0000;0.1563;10.7090;
192.3000;0.1579;10.7138;
192.6000;0.1571;10.7138;
192.9000;0.1514;10.7042;
193.2000;0.1571;10.7235;
193.5000;0.1563;10.7186;
193.8000;0.1563;10.7066;
194.1000;0.1555;10.7090;
194.4000;0.1579;10.7090;
194.7000;0.1579;10.7114;
195.0000;0.1563;10.7042;
195.3000;0.1547;10.6945;
195.6000;0.1571;10.7018;
195.9000;0.1571;10.7018;
196.2000;0.1579;10.6969;
196.5000;0.1595;10.7114;
196.8000;0.1579;10.7066;
197.1000;0.1571;10.7042;
197.4000;0.1571;10.7090;
197.7000;0.1587;10.7066;
198.0000;0.1571;10.7018;
198.3000;0.1587;10.6993;
198.6000;0.1587;10.6945;
198.9000;0.1587;10.6945;
199.2000;0.1555;10.6897;
199.5000;0.1579;10.6993;
199.8000;0.1530;10.6849;
200.1000;0.1571;10.7018;
200.4000;0.1563;10.7042;
200.7000;0.1587;10.7066;
201.0000;0.1587;10.7042;
201.3000;0.1571;10.7042;
201.6000;0.1571;10.7042;
201.9000;0.1530;10.6993;
202.2000;0.1579;10.7283;
202.5000;0.1571;10.7283;
202.8000;0.1563;10.7283;
203.1000;0.1555;10.7186;
203.4000;0.1571;10.7235;
203.7000;0.1579;10.7210;
204.0000;0.1644;10.7331;
204.3000;0.1563;10.7162;
204.6000;0.1652;10.7403;
204.9000;0.1571;10.7162;
205.2000;0.1555;10.7090;
205.5000;0.1579;10.7186;
205.8000;0.1530;10.7066;
206.1000;0.1595;10.7186;
206.4000;0.1579;10.7138;
206.7000;0.1571;10.7138;
207.0000;0.1579;10.7259;
207.3000;0.1555;10.7138;
207.6000;0.1579;10.7235;
207.9000;0.1579;10.7138;
208.2000;0.1579;10.7210;
208.5000;0.1587;10.7235;
208.8000;0.1522;10.7114;
209.1000;0.1579;10.7210;
209.4000;0.1604;10.7235;
209.7000;0.1587;10.7138;
210.0000;0.1538;10.7114;
210.3000;0.1612;10.7307;
210.6000;0.1587;10.7186;
210.9000;0.1587;10.7235;
211.2000;0.1579;10.7138;
211.5000;0.1555;10.6993;
211.8000;0.1571;10.6969;
212.1000;0.1530;10.6897;
212.4000;0.1571;10.7066;
212.7000;0.1563;10.6993;
213.0000;0.1595;10.7018;
213.3000;0.1587;10.6993;
213.6000;0.1571;10.6849;
213.9000;0.1579;10.6897;
214.2000;0.1579;10.6969;
214.5000;0.1571;10.7042;
214.8000;0.1579;10.7018;
215.1000;0.1612;10.7138;
215.4000;0.1563;10.6993;
215.7000;0.1571;10.7066;
216.0000;0.1587;10.7066;
216.3000;0.1604;10.7042;
216.6000;0.1563;10.6969;
216.9000;0.1644;10.7162;
217.2000;0.1644;10.7186;
217.5000;0.1571;10.7042;
217.8000;0.1571;10.7042;
218.1000;0.1555;10.7018;
218.4000;0.1579;10.7066;
218.7000;0.1579;10.7090;
219.0000;0.1579;10.7066;
219.3000;0.1587;10.7042;
219.6000;0.1595;10.7090;
219.9000;0.1579;10.7090;
220.2000;0.1490;10.6873;
220.5000;0.1587;10.7066;
220.8000;0.1579;10.7066;
221.1000;0.1571;10.7066;
221.4000;0.1595;10.7090;
221.7000;0.1563;10.7066;
222.0000;0.1538;10.7090;
222.3000;0.1563;10.7138;
222.6000;0.1571;10.7162;
222.9000;0.1587;10.7259;
223.2000;0.1571;10.7210;
223.5000;0.1563;10.7162;
223.8000;0.1652;10.7210;
224.1000;0.1555;10.6993;
224.4000;0.1538;10.6945;
224.7000;0.1555;10.7018;
225.0000;0.1604;10.7138;
225.3000;0.1595;10.7162;
225.6000;0.1563;10.7162;
225.9000;0.1579;10.7210;
226.2000;0.1555;10.7138;
226.5000;0.1563;10.7090;
226.8000;0.1555;10.7042;
227.1000;0.1709;10.7476;
227.4000;0.1579;10.7235;
227.7000;0.1587;10.7259;
228.0000;0.1587;10.7210;
228.3000;0.1620;10.7355;
228.6000;0.1587;10.7186;
228.9000;0.1571;10.7114;
229.2000;0.1587;10.7090;
229.5000;0.1587;10.7042;
229.8000;0.1604;10.7138;
230.1000;0.1563;10.7018;
230.4000;0.1579;10.7066;
230.7000;0.1579;10.7066;
231.0000;0.1579;10.7114;
231.3000;0.1563;10.7090;
231.6000;0.1579;10.7210;
231.9000;0.1701;10.7524;
232.2000;0.1579;10.7210;
232.5000;0.1571;10.7259;
232.8000;0.1514;10.7042;
233.1000;0.1522;10.7138;
233.4000;0.1555;10.7259;
233.7000;0.1547;10.7235;
234.0000;0.1555;10.7210;
234.3000;0.1571;10.7186;
234.6000;0.1563;10.7162;
234.9000;0.1644;10.7403;
235.2000;0.1563;10.7138;
235.5000;0.1652;10.7355;
235.8000;0.1595;10.7114;
236.1000;0.1595;10.7114;
236.4000;0.1612;10.7186;
236.7000;0.1612;10.7138;
237.0000;0.1555;10.6969;
237.3000;0.1579;10.7066;
237.6000;0.1563;10.7066;
237.9000;0.1571;10.7114;
238.2000;0.1522;10.7066;
238.5000;0.1612;10.7355;
238.8000;0.1636;10.7355;
239.1000;0.1579;10.7259;
239.4000;0.1595;10.7283;
239.7000;0.1555;10.7114;
240.0000;0.1579;10.7235;
240.3000;0.1579;10.7210;
240.6000;0.1579;10.7138;
240.9000;0.1514;10.7042;
241.2000;0.1563;10.7235;
241.5000;0.1579;10.7235;
241.8000;0.1555;10.7186;
242.1000;0.1563;10.7138;
242.4000;0.1538;10.7114;
242.7000;0.1595;10.7186;
243.0000;0.1571;10.7210;
243.3000;0.1579;10.7259;
243.6000;0.1571;10.7235;
243.9000;0.1579;10.7307;
244.2000;0.1579;10.7235;
244.5000;0.1555;10.7114;
244.8000;0.1547;10.7186;
245.1000;0.1579;10.7259;
245.4000;0.1571;10.7162;
245.7000;0.1595;10.7259;
246.0000;0.1595;10.7331;
246.3000;0.1563;10.7259;
246.6000;0.1587;10.7283;
246.9000;0.1555;10.7186;
247.2000;0.1571;10.7283;
247.5000;0.1571;10.7210;
247.8000;0.1571;10.7210;
248.1000;0.1595;10.7186;
248.4000;0.1595;10.7162;
248.7000;0.1579;10.7138;
249.0000;0.1587;10.7138;
249.3000;0.1595;10.7162;
249.6000;0.1571;10.7210;
249.9000;0.1587;10.7283;
250.2000;0.1571;10.7186;
250.5000;0.1514;10.7042;
250.8000;0.1587;10.7283;
251.1000;0.1587;10.7259;
251.4000;0.1571;10.7090;
251.7000;0.1579;10.7138;
252.0000;0.1587;10.7114;
252.3000;0.1579;10.7114;
252.6000;0.1579;10.7066;
252.9000;0.1595;10.7114;
253.2000;0.1604;10.7138;
253.5000;0.1563;10.7018;
253.8000;0.1579;10.7018;
254.1000;0.1563;10.6993;
254.4000;0.1579;10.7114;
254.7000;0.1563;10.7090;
255.0000;0.1563;10.7066;
255.3000;0.1595;10.7210;
255.6000;0.1587;10.7210;
255.9000;0.1587;10.7162;
256.2000;0.1571;10.7186;
256.5000;0.1555;10.7138;
256.8000;0.1555;10.7090;
257.1000;0.1579;10.7186;
257.4000;0.1457;10.6849;
257.7000;0.1473;10.6969;
258.0000;0.1522;10.7066;
258.3000;0.1514;10.7042;
258.6000;0.1571;10.7235;
258.9000;0.1538;10.7090;
259.2000;0.1538;10.7138;
259.5000;0.1547;10.7186;
259.8000;0.1563;10.7331;
260.1000;0.1587;10.7331;
260.4000;0.1571;10.7235;
260.7000;0.1579;10.7210;
261.0000;0.1587;10.7210;
261.3000;0.1571;10.7235;
261.6000;0.1555;10.7186;
261.9000;0.1587;10.7259;
262.2000;0.1587;10.7259;
262.5000;0.1579;10.7210;
262.8000;0.1579;10.7090;
263.1000;0.1555;10.7138;
263.4000;0.1571;10.7186;
263.7000;0.1555;10.7138;
264.0000;0.1579;10.7307;
264.3000;0.1604;10.7355;
264.6000;0.1604;10.7307;
264.9000;0.1595;10.7235;
265.2000;0.1595;10.7138;
265.5000;0.1587;10.7162;
265.8000;0.1555;10.6993;
266.1000;0.1579;10.7114;
266.4000;0.1579;10.7042;
266.7000;0.1595;10.6969;
267.0000;0.1579;10.7042;
267.3000;0.1579;10.7138;
267.6000;0.1587;10.7138;
267.9000;0.1571;10.7138;
268.2000;0.1579;10.7114;
268.5000;0.1595;10.7090;
268.8000;0.1563;10.7042;
269.1000;0.1571;10.7018;
269.4000;0.1563;10.7090;
269.7000;0.1595;10.7235;
270.0000;0.1571;10.7210;
270.3000;0.1579;10.7210;
270.6000;0.1571;10.7138;
270.9000;0.1587;10.7235;
271.2000;0.1587;10.7210;
271.5000;0.1587;10.7162;
271.8000;0.1579;10.7090;
272.1000;0.1547;10.7066;
272.4000;0.1571;10.7138;
272.7000;0.1579;10.7066;
273.0000;0.1571;10.7066;
273.3000;0.1563;10.7090;
273.6000;0.1571;10.7138;
273.9000;0.1579;10.7186;
274.2000;0.1530;10.6897;
274.5000;0.1555;10.6993;
274.8000;0.1612;10.7066;
275.1000;0.1628;10.7235;
275.4000;0.1555;10.7042;
275.7000;0.1701;10.7452;
276.0000;0.1620;10.7235;
276.3000;0.1555;10.7114;
276.6000;0.1571;10.7186;
276.9000;0.1555;10.7235;
277.2000;0.1595;10.7283;
277.5000;0.1571;10.7090;
277.8000;0.1571;10.7090;
278.1000;0.1579;10.7114;
278.4000;0.1579;10.7066;
278.7000;0.1579;10.7066;
279.0000;0.1579;10.7066;
279.3000;0.1595;10.7066;
279.6000;0.1644;10.7235;
279.9000;0.1579;10.7042;
280.2000;0.1579;10.7018;
280.5000;0.1595;10.7018;
280.8000;0.1587;10.7090;
281.1000;0.1587;10.7066;
281.4000;0.1595;10.7066;
281.7000;0.1579;10.7042;
282.0000;0.1563;10.7018;
282.3000;0.1571;10.7018;
282.6000;0.1579;10.7090;
282.9000;0.1571;10.7066;
283.2000;0.1571;10.7066;
283.5000;0.1604;10.7138;
283.8000;0.1579;10.7066;
284.1000;0.1571;10.6945;
284.4000;0.1563;10.6921;
284.7000;0.1595;10.7042;
285.0000;0.1579;10.7066;
285.3000;0.1579;10.7042;
285.6000;0.1555;10.7042;
285.9000;0.1604;10.7090;
286.2000;0.1587;10.7162;
286.5000;0.1587;10.7210;
286.8000;0.1579;10.7162;
287.1000;0.1547;10.7138;
287.4000;0.1563;10.7138;
287.7000;0.1571;10.7210;
288.0000;0.1571;10.7186;
288.3000;0.1555;10.7114;
288.6000;0.1563;10.7186;
288.9000;0.1571;10.7186;
289.2000;0.1547;10.7090;
289.5000;0.1563;10.7162;
289.8000;0.1579;10.7186;
290.1000;0.1579;10.7186;
290.4000;0.1506;10.7018;
290.7000;0.1579;10.7090;
291.0000;0.1563;10.7018;
291.3000;0.1685;10.7235;
291.6000;0.1571;10.7042;
291.9000;0.1579;10.6993;
292.2000;0.1490;10.6704;
292.5000;0.1587;10.6921;
292.8000;0.1604;10.6993;
293.1000;0.1563;10.6921;
293.4000;0.1604;10.6993;
293.7000;0.1571;10.6993;
294.0000;0.1579;10.6969;
294.3000;0.1563;10.7018;
294.6000;0.1547;10.6993;
294.9000;0.1555;10.7138;
295.2000;0.1620;10.7210;
295.5000;0.1563;10.7090;
295.8000;0.1571;10.7066;
296.1000;0.1538;10.6921;
296.4000;0.1579;10.7018;
296.7000;0.1563;10.6921;
297.0000;0.1579;10.6993;
297.3000;0.1563;10.6993;
297.6000;0.1571;10.7138;
297.9000;0.1579;10.7162;
298.2000;0.1571;10.7210;
298.5000;0.1563;10.7210;
298.8000;0.1571;10.7259;
299.1000;0.1579;10.7162;
299.4000;0.1555;10.7066;
299.7000;0.1563;10.7138;
300.0000;0.1595;10.7283;
300.3000;0.1538;10.7235;
300.6000;0.1571;10.7307;
300.9000;0.1620;10.7355;
301.2000;0.1563;10.7283;
301.5000;0.1652;10.7548;
301.8000;0.1612;10.7428;
302.1000;0.1579;10.7331;
302.4000;0.1579;10.7283;
302.7000;0.1555;10.7186;
303.0000;0.1571;10.7090;
303.3000;0.1587;10.7138;
303.6000;0.1555;10.7066;
303.9000;0.1579;10.7186;
304.2000;0.1571;10.7138;
304.5000;0.1579;10.7186;
304.8000;0.1579;10.7210;
305.1000;0.1563;10.7090;
305.4000;0.1612;10.7090;
305.7000;0.1579;10.6945;
306.0000;0.1571;10.6921;
306.3000;0.1652;10.7235;
306.6000;0.1571;10.6993;
306.9000;0.1571;10.6945;
307.2000;0.1579;10.6993;
307.5000;0.1579;10.6969;
307.8000;0.1587;10.6969;
308.1000;0.1538;10.6825;
308.4000;0.1571;10.6873;
308.7000;0.1571;10.6825;
309.0000;0.1571;10.6704;
309.3000;0.1628;10.6825;
309.6000;0.1571;10.6728;
309.9000;0.1563;10.6728;
310.2000;0.1571;10.6800;
310.5000;0.1579;10.6849;
310.8000;0.1587;10.6897;
311.1000;0.1571;10.6897;
311.4000;0.1555;10.6897;
311.7000;0.1571;10.7042;
312.0000;0.1579;10.7090;
312.3000;0.1547;10.7042;
312.6000;0.1579;10.7138;
312.9000;0.1579;10.7162;
313.2000;0.1595;10.7162;
313.5000;0.1579;10.7066;
313.8000;0.1563;10.7090;
314.1000;0.1579;10.7138;
314.4000;0.1604;10.7186;
314.7000;0.1579;10.7066;
315.0000;0.1563;10.7018;
315.3000;0.1579;10.7042;
315.6000;0.1579;10.7018;
315.9000;0.1579;10.7018;
316.2000;0.1579;10.7138;
316.5000;0.1563;10.7090;
316.8000;0.1547;10.6873;
317.1000;0.1563;10.6921;
317.4000;0.1571;10.6945;
317.7000;0.1579;10.6945;
318.0000;0.1587;10.6993;
318.3000;0.1563;10.6945;
318.6000;0.1571;10.6945;
318.9000;0.1547;10.6921;
319.2000;0.1628;10.7162;
319.5000;0.1579;10.6969;
319.8000;0.1587;10.7114;
320.1000;0.1579;10.7066;
320.4000;0.1571;10.6993;
320.7000;0.1579;10.7018;
321.0000;0.1563;10.6993;
321.3000;0.1571;10.6969;
321.6000;0.1571;10.6993;
321.9000;0.1579;10.7090;
322.2000;0.1587;10.7162;
322.5000;0.1555;10.7042;
322.8000;0.1587;10.7114;
323.1000;0.1579;10.7090;
323.4000;0.1595;10.7066;
323.7000;0.1587;10.7114;
324.0000;0.1571;10.7114;
324.3000;0.1571;10.7066;
324.6000;0.1579;10.7042;
324.9000;0.1595;10.7114;
325.2000;0.1514;10.6921;
325.5000;0.1579;10.7018;
325.8000;0.1587;10.7066;
326.1000;0.1587;10.7090;
326.4000;0.1579;10.7042;
326.7000;0.1571;10.7090;
327.0000;0.1563;10.7138;
327.3000;0.1579;10.7138;
327.6000;0.1571;10.7018;
327.9000;0.1579;10.6969;
328.2000;0.1571;10.6897;
328.5000;0.1530;10.6728;
328.8000;0.1579;10.6849;
329.1000;0.1587;10.6849;
329.4000;0.1547;10.6752;
329.7000;0.1579;10.6873;
330.0000;0.1555;10.6825;
330.3000;0.1571;10.6849;
330.6000;0.1498;10.6752;
330.9000;0.1579;10.6945;
331.2000;0.1563;10.6945;
331.5000;0.1449;10.6607;
331.8000;0.1587;10.6969;
332.1000;0.1579;10.6945;
332.4000;0.1547;10.6873;
332.7000;0.1555;10.6849;
333.0000;0.1587;10.6921;
333.3000;0.1604;10.6897;
333.6000;0.1644;10.7042;
333.9000;0.1595;10.6873;
334.2000;0.1579;10.6800;
334.5000;0.1579;10.6776;
334.8000;0.1587;10.6849;
335.1000;0.1563;10.6849;
335.4000;0.1547;10.6825;
335.7000;0.1571;10.6873;
336.0000;0.1571;10.6969;
336.3000;0.1563;10.6969;
336.6000;0.1571;10.6969;
336.9000;0.1563;10.6969;
337.2000;0.1563;10.6921;
337.5000;0.1579;10.6921;
337.8000;0.1579;10.6897;
338.1000;0.1579;10.6921;
338.4000;0.1571;10.6921;
338.7000;0.1595;10.6993;
339.0000;0.1579;10.7066;
339.3000;0.1579;10.7042;
339.6000;0.1555;10.6945;
339.9000;0.1506;10.6776;
340.2000;0.1555;10.6897;
340.5000;0.1538;10.6897;
340.8000;0.1579;10.6969;
341.1000;0.1563;10.6921;
341.4000;0.1579;10.6969;
341.7000;0.1563;10.6969;
342.0000;0.1571;10.6945;
342.3000;0.1587;10.7018;
342.6000;0.1587;10.7018;
342.9000;0.1506;10.6776;
343.2000;0.1563;10.6849;
343.5000;0.1595;10.6921;
343.8000;0.1595;10.6921;
344.1000;0.1571;10.6897;
344.4000;0.1490;10.6704;
344.7000;0.1571;10.6993;
345.0000;0.1563;10.6969;
345.3000;0.1563;10.6945;
345.6000;0.1587;10.6993;
345.9000;0.1555;10.6921;
346.2000;0.1587;10.6969;
346.5000;0.1563;10.6897;
346.8000;0.1571;10.6945;
347.1000;0.1563;10.6945;
347.4000;0.1604;10.7162;
347.7000;0.1595;10.7138;
348.0000;0.1579;10.7018;
348.3000;0.1547;10.6945;
348.6000;0.1555;10.7042;
348.9000;0.1538;10.6945;
349.2000;0.1587;10.6993;
349.5000;0.1514;10.6825;
349.8000;0.1587;10.6969;
350.1000;0.1571;10.6945;
350.4000;0.1555;10.6873;
350.7000;0.1587;10.6873;
351.0000;0.1620;10.6945;
351.3000;0.1563;10.6825;
351.6000;0.1555;10.6849;
351.9000;0.1547;10.6897;
352.2000;0.1604;10.7114;
352.5000;0.1628;10.7186;
352.8000;0.1563;10.7090;
353.1000;0.1587;10.7138;
353.4000;0.1571;10.7066;
353.7000;0.1514;10.6897;
354.0000;0.1636;10.7235;
354.3000;0.1579;10.7114;
354.6000;0.1579;10.7283;
354.9000;0.1628;10.7428;
355.2000;0.1571;10.7210;
355.5000;0.1595;10.7235;
355.8000;0.1563;10.7210;
356.1000;0.1571;10.7355;
356.4000;0.1563;10.7307;
356.7000;0.1579;10.7259;
357.0000;0.1587;10.7186;
357.3000;0.1587;10.7114;
357.6000;0.1555;10.7066;
357.9000;0.1587;10.7114;
358.2000;0.1595;10.7210;
358.5000;0.1587;10.7210;
358.8000;0.1587;10.7186;
359.1000;0.1571;10.7066;
359.4000;0.1547;10.6969;
359.7000;0.1555;10.7042;
360.0000;0.1579;10.7114;
360.3000;0.1587;10.7162;
360.6000;0.1587;10.7042;
360.9000;0.1587;10.7042;
361.2000;0.1571;10.7018;
361.5000;0.1587;10.6993;
361.8000;0.1587;10.6945;
362.1000;0.1563;10.6873;
362.4000;0.1579;10.6897;
362.7000;0.1604;10.7042;
363.0000;0.1595;10.7114;
363.3000;0.1587;10.7114;
363.6000;0.1563;10.7042;
363.9000;0.1555;10.6969;
364.2000;0.1579;10.6945;
364.5000;0.1579;10.6825;
364.8000;0.1555;10.6800;
365.1000;0.1579;10.6897;
365.4000;0.1595;10.6945;
365.7000;0.1563;10.6897;
366.0000;0.1587;10.6921;
366.3000;0.1587;10.6921;
366.6000;0.1587;10.6897;
366.9000;0.1587;10.6897;
367.2000;0.1563;10.6800;
367.5000;0.1555;10.6825;
367.8000;0.1587;10.6921;
368.1000;0.1579;10.6897;
368.4000;0.1506;10.6800;
368.7000;0.1563;10.6945;
369.0000;0.1563;10.6993;
369.3000;0.1579;10.6921;
369.6000;0.1579;10.6969;
369.9000;0.1604;10.7018;
370.2000;0.1579;10.7090;
370.5000;0.1587;10.7066;
370.8000;0.1612;10.7138;
371.1000;0.1579;10.7042;
371.4000;0.1571;10.7066;
371.7000;0.1571;10.7186;
372.0000;0.1579;10.7186;
372.3000;0.1571;10.7066;
372.6000;0.1563;10.7090;
372.9000;0.1563;10.7090;
373.2000;0.1571;10.7162;
373.5000;0.1587;10.7283;
373.8000;0.1587;10.7355;
374.1000;0.1571;10.7259;
374.4000;0.1587;10.7210;
374.7000;0.1579;10.7138;
375.0000;0.1506;10.6945;
375.3000;0.1595;10.7162;
375.6000;0.1579;10.7138;
375.9000;0.1595;10.7235;
376.2000;0.1490;10.6945;
376.5000;0.1547;10.7042;
376.8000;0.1555;10.7138;
377.1000;0.1571;10.7259;
377.4000;0.1579;10.7259;
377.7000;0.1563;10.7114;
378.0000;0.1555;10.7138;
378.3000;0.1612;10.7331;
378.6000;0.1579;10.7162;
378.9000;0.1587;10.7186;
379.2000;0.1547;10.7138;
379.5000;0.1579;10.7210;
379.8000;0.1571;10.7162;
380.1000;0.1547;10.7162;
380.4000;0.1587;10.7210;
380.7000;0.1571;10.7210;
381.0000;0.1571;10.7259;
381.3000;0.1481;10.7042;
381.6000;0.1555;10.7210;
381.9000;0.1587;10.7355;
382.2000;0.1587;10.7331;
382.5000;0.1579;10.7307;
382.8000;0.1555;10.7331;
383.1000;0.1571;10.7379;
383.4000;0.1571;10.7379;
383.7000;0.1579;10.7331;
384.0000;0.1579;10.7307;
384.3000;0.1538;10.7235;
384.6000;0.1571;10.7307;
384.9000;0.1579;10.7331;
385.2000;0.1571;10.7259;
385.5000;0.1563;10.7283;
385.8000;0.1555;10.7235;
386.1000;0.1538;10.7186;
386.4000;0.1628;10.7355;
386.7000;0.1604;10.7235;
387.0000;0.1587;10.7090;
387.3000;0.1563;10.7090;
387.6000;0.1563;10.6993;
387.9000;0.1530;10.6873;
388.2000;0.1547;10.6945;
388.5000;0.1563;10.7042;
388.8000;0.1563;10.6993;
389.1000;0.1555;10.6969;
389.4000;0.1571;10.6921;
389.7000;0.1579;10.7042;
390.0000;0.1587;10.7066;
390.3000;0.1595;10.7090;
390.6000;0.1571;10.7066;
390.9000;0.1571;10.7018;
391.2000;0.1563;10.6945;
391.5000;0.1604;10.6945;
391.8000;0.1555;10.6921;
392.1000;0.1579;10.6945;
392.4000;0.1628;10.6993;
392.7000;0.1571;10.6800;
393.0000;0.1547;10.6921;
393.3000;0.1555;10.7018;
393.6000;0.1628;10.7259;
393.9000;0.1563;10.7066;
394.2000;0.1604;10.7066;
394.5000;0.1644;10.7235;
394.8000;0.1579;10.6969;
395.1000;0.1563;10.6945;
395.4000;0.1571;10.7018;
395.7000;0.1587;10.7042;
396.0000;0.1579;10.6993;
396.3000;0.1579;10.7018;
396.6000;0.1563;10.6993;
396.9000;0.1571;10.6969;
397.2000;0.1587;10.7018;
397.5000;0.1587;10.7114;
397.8000;0.1571;10.7066;
398.1000;0.1571;10.7090;
398.4000;0.1571;10.7042;
398.7000;0.1579;10.7018;
399.0000;0.1579;10.6945;
399.3000;0.1587;10.6993;
399.6000;0.1579;10.6897;
399.9000;0.1587;10.6969;
400.2000;0.1579;10.7066;
400.5000;0.1571;10.7042;
400.8000;0.1547;10.6993;
401.1000;0.1571;10.6993;
401.4000;0.1571;10.6921;
401.7000;0.1555;10.6945;
402.0000;0.1571;10.6945;
402.3000;0.1547;10.6873;
402.6000;0.1571;10.6897;
402.9000;0.1563;10.6897;
403.2000;0.1563;10.6969;
403.5000;0.1563;10.6969;
403.8000;0.1563;10.7018;
404.1000;0.1579;10.7090;
404.4000;0.1571;10.7114;
404.7000;0.1571;10.7066;
405.0000;0.1571;10.7042;
405.3000;0.1587;10.7042;
405.6000;0.1571;10.6993;
405.9000;0.1579;10.7018;
406.2000;0.1595;10.7066;
406.5000;0.1579;10.7018;
406.8000;0.1579;10.6993;
407.1000;0.1563;10.6945;
407.4000;0.1587;10.6969;
407.7000;0.1595;10.7018;
408.0000;0.1563;10.7018;
408.3000;0.1571;10.7138;
408.6000;0.1579;10.7114;
408.9000;0.1587;10.7090;
409.2000;0.1595;10.7114;
409.5000;0.1579;10.7114;
409.8000;0.1595;10.7162;
410.1000;0.1595;10.7210;
410.4000;0.1693;10.7500;
410.7000;0.1571;10.7259;
411.0000;0.1587;10.7331;
411.3000;0.1571;10.7355;
411.6000;0.1579;10.7259;
411.9000;0.1587;10.7259;
412.2000;0.1547;10.7210;
412.5000;0.1563;10.7283;
412.8000;0.1563;10.7162;
413.1000;0.1563;10.7162;
413.4000;0.1506;10.7018;
413.7000;0.1571;10.7210;
414.0000;0.1579;10.7186;
414.3000;0.1604;10.7355;
414.6000;0.1571;10.7331;
414.9000;0.1571;10.7428;
415.2000;0.1579;10.7452;
415.5000;0.1563;10.7428;
415.8000;0.1563;10.7379;
416.1000;0.1579;10.7355;
416.4000;0.1587;10.7379;
416.7000;0.1579;10.7403;
417.0000;0.1465;10.7066;
417.3000;0.1571;10.7331;
417.6000;0.1563;10.7355;
417.9000;0.1571;10.7379;
418.2000;0.1563;10.7331;
418.5000;0.1563;10.7307;
418.8000;0.1579;10.7331;
419.1000;0.1587;10.7452;
419.4000;0.1563;10.7379;
419.7000;0.1579;10.7355;
420.0000;0.1571;10.7259;
420.3000;0.1579;10.7138;
420.6000;0.1563;10.7210;
420.9000;0.1579;10.7235;
421.2000;0.1587;10.7186;
421.5000;0.1465;10.6825;
421.8000;0.1538;10.6993;
422.1000;0.1563;10.6993;
422.4000;0.1555;10.7066;
422.7000;0.1563;10.7114;
423.0000;0.1579;10.7307;
423.3000;0.1490;10.7066;
423.6000;0.1547;10.7307;
423.9000;0.1563;10.7259;
424.2000;0.1571;10.7186;
424.5000;0.1563;10.7235;
424.8000;0.1563;10.7259;
425.1000;0.1571;10.7259;
425.4000;0.1661;10.7428;
425.7000;0.1579;10.7186;
426.0000;0.1571;10.7259;
426.3000;0.1563;10.7235;
426.6000;0.1571;10.7210;
426.9000;0.1571;10.7283;
427.2000;0.1571;10.7210;
427.5000;0.1571;10.7235;
427.8000;0.1563;10.7210;
428.1000;0.1579;10.7138;
428.4000;0.1563;10.7042;
428.7000;0.1563;10.7090;
429.0000;0.1595;10.7138;
429.3000;0.1555;10.6969;
429.6000;0.1579;10.7090;
429.9000;0.1579;10.7114;
430.2000;0.1587;10.7090;
430.5000;0.1571;10.6993;
430.8000;0.1579;10.7018;
431.1000;0.1587;10.6969;
431.4000;0.1571;10.7018;
431.7000;0.1571;10.7018;
432.0000;0.1571;10.7066;
432.3000;0.1555;10.7042;
432.6000;0.1563;10.7066;
432.9000;0.1579;10.7090;
433.2000;0.1555;10.7066;
433.5000;0.1579;10.7066;
433.8000;0.1563;10.6945;
434.1000;0.1530;10.6945;
434.4000;0.1579;10.7018;
434.7000;0.1587;10.7042;
435.0000;0.1571;10.7090;
435.3000;0.1563;10.7066;
435.6000;0.1587;10.7114;
435.9000;0.1579;10.7162;
436.2000;0.1571;10.7114;
436.5000;0.1595;10.6993;
436.8000;0.1579;10.6969;
437.1000;0.1563;10.6969;
437.4000;0.1571;10.6945;
437.7000;0.1563;10.6945;
438.0000;0.1620;10.7210;
438.3000;0.1571;10.7090;
438.6000;0.1587;10.7138;
438.9000;0.1555;10.7114;
439.2000;0.1555;10.7138;
439.5000;0.1587;10.7259;
439.8000;0.1579;10.7235;
440.1000;0.1465;10.6825;
440.4000;0.1571;10.7114;
440.7000;0.1571;10.7090;
441.0000;0.1604;10.7114;
441.3000;0.1579;10.7090;
441.6000;0.1563;10.7018;
441.9000;0.1571;10.6945;
442.2000;0.1563;10.6921;
442.5000;0.1571;10.6969;
442.8000;0.1571;10.6969;
443.1000;0.1579;10.7018;
443.4000;0.1587;10.7090;
443.7000;0.1563;10.6993;
444.0000;0.1587;10.6993;
444.3000;0.1555;10.6921;
444.6000;0.1579;10.6945;
444.9000;0.1571;10.6993;
445.2000;0.1555;10.6993;
445.5000;0.1555;10.6945;
445.8000;0.1579;10.6969;
446.1000;0.1571;10.7042;
446.4000;0.1571;10.7018;
446.7000;0.1571;10.7114;
447.0000;0.1555;10.7042;
447.3000;0.1579;10.7090;
447.6000;0.1563;10.6993;
447.9000;0.1571;10.6969;
448.2000;0.1579;10.6897;
448.5000;0.1571;10.6897;
448.8000;0.1522;10.6800;
449.1000;0.1547;10.6897;
449.4000;0.1563;10.6921;
449.7000;0.1563;10.6897;
450.0000;0.1571;10.6897;
450.3000;0.1555;10.6969;
450.6000;0.1579;10.6945;
450.9000;0.1547;10.6849;
451.2000;0.1563;10.6897;
451.5000;0.1579;10.6921;
451.8000;0.1571;10.6945;
452.1000;0.1563;10.6873;
452.4000;0.1612;10.7042;
452.7000;0.1571;10.6945;
453.0000;0.1555;10.6945;
453.3000;0.1595;10.7042;
453.6000;0.1579;10.6849;
453.9000;0.1587;10.6776;
454.2000;0.1587;10.6825;
454.5000;0.1571;10.6776;
454.8000;0.1579;10.6849;
455.1000;0.1563;10.6873;
455.4000;0.1579;10.6897;
455.7000;0.1563;10.6921;
456.0000;0.1579;10.7018;
456.3000;0.1587;10.7018;
456.6000;0.1587;10.7042;
456.9000;0.1571;10.7066;
457.2000;0.1595;10.7114;
457.5000;0.1563;10.7066;
457.8000;0.1587;10.7066;
458.1000;0.1677;10.7210;
458.4000;0.1579;10.6993;
458.7000;0.1579;10.6993;
459.0000;0.1579;10.6945;
459.3000;0.1563;10.6969;
459.6000;0.1579;10.7018;
459.9000;0.1481;10.6752;
460.2000;0.1571;10.7042;
460.5000;0.1563;10.7018;
460.8000;0.1563;10.6945;
461.1000;0.1579;10.6945;
461.4000;0.1530;10.6800;
461.7000;0.1571;10.6969;
462.0000;0.1587;10.6993;
462.3000;0.1563;10.6921;
462.6000;0.1563;10.6945;
462.9000;0.1571;10.6849;
463.2000;0.1555;10.6800;
463.5000;0.1506;10.6680;
463.8000;0.1563;10.6776;
464.1000;0.1555;10.6704;
464.4000;0.1587;10.6800;
464.7000;0.1571;10.6752;
465.0000;0.1530;10.6583;
465.3000;0.1563;10.6704;
465.6000;0.1571;10.6945;
465.9000;0.1563;10.7018;
466.2000;0.1571;10.7066;
466.5000;0.1571;10.7090;
466.8000;0.1498;10.6945;
467.1000;0.1522;10.6945;
467.4000;0.1579;10.7066;
467.7000;0.1547;10.7018;
468.0000;0.1555;10.6993;
468.3000;0.1547;10.6921;
468.6000;0.1571;10.6969;
468.9000;0.1636;10.7114;
469.2000;0.1587;10.6897;
469.5000;0.1571;10.6945;
469.8000;0.1563;10.6945;
470.1000;0.1522;10.6849;
470.4000;0.1563;10.6945;
470.7000;0.1571;10.7042;
471.0000;0.1579;10.7090;
471.3000;0.1571;10.7114;
471.6000;0.1587;10.7210;
471.9000;0.1563;10.7018;
472.2000;0.1563;10.7018;
472.5000;0.1563;10.6969;
472.8000;0.1579;10.6993;
473.1000;0.1555;10.6945;
473.4000;0.1579;10.6993;
473.7000;0.1563;10.7018;
474.0000;0.1563;10.7018;
474.3000;0.1579;10.6969;
474.6000;0.1555;10.6897;
474.9000;0.1555;10.6921;
475.2000;0.1571;10.6945;
475.5000;0.1587;10.6993;
475.8000;0.1563;10.6993;
476.1000;0.1571;10.6993;
476.4000;0.1595;10.7018;
476.7000;0.1571;10.6849;
477.0000;0.1587;10.6921;
477.3000;0.1555;10.6825;
477.6000;0.1579;10.6945;
477.9000;0.1579;10.6897;
478.2000;0.1595;10.6993;
478.5000;0.1506;10.6897;
478.8000;0.1563;10.6945;
479.1000;0.1587;10.6945;
479.4000;0.1579;10.6969;
479.7000;0.1555;10.6921;
480.0000;0.1595;10.6969;
480.3000;0.1449;10.6632;
480.6000;0.1563;10.6921;
480.9000;0.1563;10.6945;
481.2000;0.1571;10.6969;
481.5000;0.1636;10.7138;
481.8000;0.1579;10.7066;
482.1000;0.1563;10.7042;
482.4000;0.1571;10.7066;
482.7000;0.1604;10.7210;
483.0000;0.1530;10.6969;
483.3000;0.1538;10.6945;
483.6000;0.1587;10.6969;
483.9000;0.1579;10.6993;
484.2000;0.1595;10.6993;
484.5000;0.1612;10.6969;
484.8000;0.1563;10.6849;
485.1000;0.1563;10.6921;
485.4000;0.1595;10.6969;
485.7000;0.1555;10.6873;
486.0000;0.1530;10.6728;
486.3000;0.1522;10.6752;
486.6000;0.1571;10.6825;
486.9000;0.1555;10.6825;
487.2000;0.1547;10.6849;
487.5000;0.1579;10.6873;
487.8000;0.1579;10.6849;
488.1000;0.1555;10.6897;
488.4000;0.1571;10.6969;
488.7000;0.1612;10.7042;
489.0000;0.1563;10.6921;
489.3000;0.1563;10.6945;
489.6000;0.1555;10.6921;
489.9000;0.1604;10.7090;
490.2000;0.1571;10.6945;
490.5000;0.1595;10.7042;
490.8000;0.1571;10.6897;
491.1000;0.1620;10.6969;
491.4000;0.1547;10.6704;
491.7000;0.1571;10.6752;
492.0000;0.1604;10.6897;
492.3000;0.1571;10.6800;
492.6000;0.1587;10.6752;
492.9000;0.1612;10.6776;
493.2000;0.1595;10.6825;
493.5000;0.1571;10.6897;
493.8000;0.1587;10.6945;
494.1000;0.1579;10.6921;
494.4000;0.1571;10.6921;
494.7000;0.1579;10.6993;
495.0000;0.1579;10.6945;
495.3000;0.1555;10.6945;
495.6000;0.1571;10.6921;
495.9000;0.1571;10.6897;
496.2000;0.1571;10.6776;
496.5000;0.1555;10.6800;
496.8000;0.1571;10.6921;
497.1000;0.1595;10.7018;
497.4000;0.1571;10.7042;
497.7000;0.1571;10.7066;
498.0000;0.1587;10.7090;
498.3000;0.1579;10.7066;
498.6000;0.1563;10.7090;
498.9000;0.1571;10.7066;
499.2000;0.1530;10.7018;
499.5000;0.1587;10.7018;
499.8000;0.1571;10.6993;
500.1000;0.1587;10.7162;
500.4000;0.1579;10.7114;
500.7000;0.1498;10.6945;
501.0000;0.1563;10.7114;
501.3000;0.1579;10.7114;
501.6000;0.1547;10.6993;
501.9000;0.1571;10.6993;
502.2000;0.1579;10.7066;
502.5000;0.1538;10.6945;
502.8000;0.1571;10.6993;
503.1000;0.1571;10.7018;
503.4000;0.1595;10.7018;
503.7000;0.1571;10.6993;
504.0000;0.1604;10.7018;
504.3000;0.1563;10.6897;
504.6000;0.1579;10.6969;
504.9000;0.1563;10.7042;
505.2000;0.1522;10.6945;
505.5000;0.1571;10.7066;
505.8000;0.1563;10.7042;
506.1000;0.1579;10.7042;
506.4000;0.1571;10.6993;
506.7000;0.1538;10.6921;
507.0000;0.1522;10.6825;
507.3000;0.1587;10.6993;
507.6000;0.1571;10.6945;
507.9000;0.1563;10.6921;
508.2000;0.1571;10.6969;
508.5000;0.1555;10.6993;
508.8000;0.1579;10.7066;
509.1000;0.1571;10.7018;
509.4000;0.1563;10.7018;
509.7000;0.1563;10.6993;
510.0000;0.1579;10.7018;
510.3000;0.1563;10.6993;
510.6000;0.1563;10.6993;
510.9000;0.1571;10.7042;
511.2000;0.1563;10.7042;
511.5000;0.1555;10.6921;
511.8000;0.1563;10.7018;
512.1000;0.1563;10.6945;
512.4000;0.1587;10.7090;
512.7000;0.1563;10.7066;
513.0000;0.1620;10.7210;
513.3000;0.1555;10.7066;
513.6000;0.1587;10.7042;
513.9000;0.1579;10.6993;
514.2000;0.1587;10.6945;
514.5000;0.1571;10.7042;
514.8000;0.1563;10.7114;
515.1000;0.1571;10.7114;
515.4000;0.1555;10.7066;
515.7000;0.1563;10.7066;
516.0000;0.1579;10.7042;
516.3000;0.1538;10.6945;
516.6000;0.1571;10.6993;
516.9000;0.1563;10.7018;
517.2000;0.1587;10.7066;
517.5000;0.1579;10.7066;
517.8000;0.1579;10.7018;
518.1000;0.1555;10.6945;
518.4000;0.1571;10.6945;
518.7000;0.1571;10.6993;
519.0000;0.1571;10.6945;
519.3000;0.1563;10.6969;
519.6000;0.1571;10.6945;
519.9000;0.1555;10.7018;
520.2000;0.1555;10.6921;
520.5000;0.1547;10.6921;
520.8000;0.1571;10.6945;
521.1000;0.1563;10.6969;
521.4000;0.1538;10.6897;
521.7000;0.1571;10.6921;
522.0000;0.1595;10.7018;
522.3000;0.1555;10.6873;
522.6000;0.1587;10.6945;
522.9000;0.1563;10.6921;
523.2000;0.1555;10.6945;
523.5000;0.1457;10.6752;
523.8000;0.1571;10.7018;
524.1000;0.1595;10.6993;
524.4000;0.1579;10.6945;
524.7000;0.1547;10.6873;
525.0000;0.1563;10.6897;
525.3000;0.1571;10.6945;
525.6000;0.1571;10.7018;
525.9000;0.1538;10.6993;
526.2000;0.1522;10.6969;
526.5000;0.1571;10.7114;
526.8000;0.1555;10.7138;
527.1000;0.1555;10.7138;
527.4000;0.1522;10.7090;
527.7000;0.1563;10.7090;
528.0000;0.1555;10.7042;
528.3000;0.1571;10.7066;
528.6000;0.1579;10.7138;
528.9000;0.1538;10.7066;
529.2000;0.1555;10.7114;
529.5000;0.1538;10.7066;
529.8000;0.1563;10.7162;
530.1000;0.1571;10.7186;
530.4000;0.1563;10.7090;
530.7000;0.1563;10.7042;
531.0000;0.1612;10.7210;
531.3000;0.1571;10.7090;
531.6000;0.1571;10.7018;
531.9000;0.1571;10.7018;
532.2000;0.1563;10.7018;
532.5000;0.1563;10.7042;
532.8000;0.1587;10.7114;
533.1000;0.1563;10.7066;
533.4000;0.1555;10.7114;
533.7000;0.1579;10.7162;
534.0000;0.1587;10.7114;
534.3000;0.1587;10.7090;
534.6000;0.1571;10.7018;
534.9000;0.1555;10.7066;
535.2000;0.1595;10.7235;
535.5000;0.1563;10.7186;
535.8000;0.1538;10.7090;
536.1000;0.1571;10.7114;
536.4000;0.1555;10.7066;
536.7000;0.1571;10.7066;
537.0000;0.1652;10.7210;
537.3000;0.1587;10.7066;
537.6000;0.1579;10.7042;
537.9000;0.1595;10.7090;
538.2000;0.1563;10.6921;
538.5000;0.1563;10.6969;
538.8000;0.1693;10.7428;
539.1000;0.1547;10.6969;
539.4000;0.1563;10.6969;
539.7000;0.1579;10.7018;
540.0000;0.1547;10.6945;
540.3000;0.1547;10.6897;
540.6000;0.1563;10.7018;
540.9000;0.1563;10.6969;
541.2000;0.1563;10.6921;
541.5000;0.1563;10.6969;
541.8000;0.1595;10.7162;
542.1000;0.1571;10.7186;
542.4000;0.1579;10.7235;
542.7000;0.1555;10.7162;
543.0000;0.1579;10.7235;
543.3000;0.1604;10.7307;
543.6000;0.1571;10.7162;
543.9000;0.1579;10.7235;
544.2000;0.1579;10.7162;
544.5000;0.1571;10.7138;
544.8000;0.1579;10.7162;
545.1000;0.1579;10.7186;
545.4000;0.1677;10.7379;
545.7000;0.1579;10.7066;
546.0000;0.1555;10.7066;
546.3000;0.1587;10.7210;
546.6000;0.1555;10.7162;
546.9000;0.1579;10.7210;
547.2000;0.1571;10.7210;
547.5000;0.1555;10.7138;
547.8000;0.1563;10.7186;
548.1000;0.1555;10.7210;
548.4000;0.1571;10.7186;
548.7000;0.1571;10.7162;
549.0000;0.1563;10.7235;
549.3000;0.1579;10.7307;
549.6000;0.1555;10.7259;
549.9000;0.1571;10.7259;
550.2000;0.1579;10.7283;
550.5000;0.1636;10.7428;
550.8000;0.1571;10.7235;
551.1000;0.1563;10.7138;
551.4000;0.1563;10.7138;
551.7000;0.1563;10.7162;
552.0000;0.1579;10.7210;
552.3000;0.1571;10.7162;
552.6000;0.1579;10.7186;
552.9000;0.1571;10.7186;
553.2000;0.1604;10.7186;
553.5000;0.1579;10.7090;
553.8000;0.1587;10.7114;
554.1000;0.1547;10.7066;
554.4000;0.1620;10.7235;
554.7000;0.1587;10.7259;
555.0000;0.1490;10.6921;
555.3000;0.1481;10.6921;
555.6000;0.1563;10.7235;
555.9000;0.1579;10.7162;
556.2000;0.1563;10.7114;
556.5000;0.1563;10.7162;
556.8000;0.1555;10.7114;
557.1000;0.1587;10.7235;
557.4000;0.1563;10.7259;
557.7000;0.1563;10.7307;
558.0000;0.1481;10.7090;
558.3000;0.1693;10.7645;
558.6000;0.1587;10.7379;
558.9000;0.1571;10.7307;
559.2000;0.1587;10.7162;
559.5000;0.1579;10.7090;
559.8000;0.1547;10.6969;
560.1000;0.1604;10.7018;
560.4000;0.1547;10.7042;
560.7000;0.1563;10.7162;
561.0000;0.1595;10.7210;
561.3000;0.1571;10.7066;
561.6000;0.1579;10.7042;
561.9000;0.1538;10.7018;
562.2000;0.1563;10.7090;
562.5000;0.1555;10.7066;
562.8000;0.1481;10.6969;
563.1000;0.1595;10.7235;
563.4000;0.1579;10.7162;
563.7000;0.1587;10.7114;
564.0000;0.1563;10.6969;
564.3000;0.1547;10.7018;
564.6000;0.1579;10.7042;
564.9000;0.1571;10.6945;
565.2000;0.1563;10.6897;
565.5000;0.1595;10.6945;
565.8000;0.1538;10.7042;
566.1000;0.1685;10.7452;
566.4000;0.1547;10.7162;
566.7000;0.1555;10.7210;
567.0000;0.1571;10.7283;
567.3000;0.1530;10.7162;
567.6000;0.1530;10.7090;
567.9000;0.1522;10.7138;
568.2000;0.1563;10.7162;
568.5000;0.1587;10.7186;
568.8000;0.1563;10.7066;
569.1000;0.1571;10.7162;
569.4000;0.1579;10.7235;
569.7000;0.1587;10.7259;
570.0000;0.1547;10.7066;
570.3000;0.1538;10.7066;
570.6000;0.1563;10.7186;
570.9000;0.1555;10.7186;
571.2000;0.1579;10.7186;
571.5000;0.1579;10.7210;
571.8000;0.1571;10.7259;
572.1000;0.1587;10.7307;
572.4000;0.1571;10.7235;
572.7000;0.1571;10.7235;
573.0000;0.1547;10.7210;
573.3000;0.1547;10.7331;
573.6000;0.1571;10.7259;
573.9000;0.1514;10.7162;
574.2000;0.1571;10.7235;
574.5000;0.1547;10.7235;
574.8000;0.1587;10.7379;
575.1000;0.1555;10.7331;
575.4000;0.1579;10.7331;
575.7000;0.1563;10.7307;
576.0000;0.1563;10.7259;
576.3000;0.1563;10.7283;
576.6000;0.1555;10.7235;
576.9000;0.1563;10.7283;
577.2000;0.1571;10.7235;
577.5000;0.1563;10.7186;
577.8000;0.1555;10.7138;
578.1000;0.1571;10.7162;
578.4000;0.1644;10.7428;
578.7000;0.1579;10.7186;
579.0000;0.1636;10.7331;
579.3000;0.1628;10.7379;
579.6000;0.1571;10.7235;
579.9000;0.1587;10.7331;
580.2000;0.1538;10.7307;
580.5000;0.1563;10.7355;
580.8000;0.1563;10.7307;
581.1000;0.1530;10.7162;
581.4000;0.1538;10.7138;
581.7000;0.1579;10.7138;
582.0000;0.1563;10.7090;
582.3000;0.1579;10.7210;
582.6000;0.1571;10.7138;
582.9000;0.1612;10.7259;
583.2000;0.1595;10.7210;
583.5000;0.1563;10.7090;
583.8000;0.1587;10.7066;
584.1000;0.1571;10.7018;
584.4000;0.1563;10.7042;
584.7000;0.1579;10.7114;
585.0000;0.1595;10.7114;
585.3000;0.1595;10.7114;
585.6000;0.1547;10.7066;
585.9000;0.1547;10.7066;
586.2000;0.1579;10.7235;
586.5000;0.1579;10.7210;
586.8000;0.1636;10.7355;
587.1000;0.1579;10.7186;
587.4000;0.1579;10.7066;
587.7000;0.1571;10.7018;
588.0000;0.1571;10.7018;
588.3000;0.1563;10.6945;
588.6000;0.1555;10.6993;
588.9000;0.1579;10.6993;
589.2000;0.1555;10.6945;
589.5000;0.1563;10.7018;
589.8000;0.1571;10.7114;
590.1000;0.1563;10.7114;
590.4000;0.1571;10.7138;
590.7000;0.1563;10.7162;
591.0000;0.1555;10.6993;
591.3000;0.1563;10.6945;
591.6000;0.1579;10.7018;
591.9000;0.1547;10.6993;
592.2000;0.1563;10.7090;
592.5000;0.1563;10.7042;
592.8000;0.1579;10.7114;
593.1000;0.1563;10.7066;
593.4000;0.1571;10.7066;
593.7000;0.1563;10.7042;
594.0000;0.1563;10.6993;
594.3000;0.1571;10.7066;
594.6000;0.1547;10.7066;
594.9000;0.1579;10.7162;
595.2000;0.1620;10.7283;
595.5000;0.1555;10.7114;
595.8000;0.1555;10.7018;
596.1000;0.1555;10.7018;
596.4000;0.1661;10.7331;
596.7000;0.1579;10.7018;
597.0000;0.1547;10.6849;
597.3000;0.1555;10.6825;
597.6000;0.1555;10.6849;
597.9000;0.1579;10.6897;
598.2000;0.1547;10.6873;
598.5000;0.1563;10.6969;
598.8000;0.1538;10.6969;
599.1000;0.1547;10.7018;
599.4000;0.1579;10.7066;
599.7000;0.1563;10.7042;
600.0000;0.1628;10.7307;
600.3000;0.1555;10.7138;
600.6000;0.1547;10.7018;
600.9000;0.1538;10.6800;
601.2000;0.1547;10.6800;
601.5000;0.1538;10.6752;
601.8000;0.1530;10.6583;
602.1000;0.1538;10.6439;
602.4000;0.1530;10.6318;
602.7000;0.1514;10.6125;
603.0000;0.1408;10.5836;
603.3000;0.1498;10.5908;
603.6000;0.1498;10.5787;
603.9000;0.1481;10.5691;
604.2000;0.1449;10.5522;
604.5000;0.1425;10.5377;
604.8000;0.1481;10.5474;
605.1000;0.1441;10.5305;
605.4000;0.1490;10.5353;
605.7000;0.1465;10.5305;
606.0000;0.1490;10.5209;
606.3000;0.1465;10.5112;
606.6000;0.1473;10.5184;
606.9000;0.1457;10.5112;
607.2000;0.1449;10.5016;
607.5000;0.1441;10.4967;
607.8000;0.1481;10.5040;
608.1000;0.1457;10.5040;
608.4000;0.1457;10.5040;
608.7000;0.1457;10.4967;
609.0000;0.1481;10.4967;
609.3000;0.1465;10.4991;
609.6000;0.1457;10.5016;
609.9000;0.1457;10.4967;
610.2000;0.1457;10.4919;
610.5000;0.1498;10.5040;
610.8000;0.1481;10.4967;
611.1000;0.1449;10.4774;
611.4000;0.1465;10.4750;
611.7000;0.1457;10.4678;
612.0000;0.1449;10.4654;
612.3000;0.1449;10.4630;
612.6000;0.1449;10.4678;
612.9000;0.1449;10.4702;
613.2000;0.1449;10.4774;
613.5000;0.1425;10.4750;
613.8000;0.1449;10.4726;
614.1000;0.1457;10.4702;
614.4000;0.1441;10.4726;
614.7000;0.1449;10.4678;
615.0000;0.1433;10.4606;
615.3000;0.1465;10.4750;
615.6000;0.1465;10.4702;
615.9000;0.1490;10.4799;
616.2000;0.1433;10.4823;
616.5000;0.1449;10.4895;
616.8000;0.1441;10.4847;
617.1000;0.1498;10.4943;
617.4000;0.1433;10.4726;
617.7000;0.1425;10.4726;
618.0000;0.1449;10.4726;
618.3000;0.1490;10.4919;
618.6000;0.1498;10.4871;
618.9000;0.1441;10.4774;
619.2000;0.1457;10.4871;
619.5000;0.1498;10.4919;
619.8000;0.1441;10.4630;
620.1000;0.1441;10.4557;
620.4000;0.1425;10.4533;
620.7000;0.1449;10.4606;
621.0000;0.1449;10.4630;
621.3000;0.1514;10.4774;
621.6000;0.1498;10.4702;
621.9000;0.1547;10.4919;
622.2000;0.1457;10.4581;
622.5000;0.1441;10.4485;
622.8000;0.1449;10.4485;
623.1000;0.1449;10.4581;
623.4000;0.1433;10.4485;
623.7000;0.1441;10.4557;
624.0000;0.1384;10.4533;
624.3000;0.1425;10.4509;
624.6000;0.1449;10.4557;
624.9000;0.1433;10.4581;
625.2000;0.1425;10.4581;
625.5000;0.1433;10.4630;
625.8000;0.1465;10.4678;
626.1000;0.1465;10.4702;
626.4000;0.1433;10.4630;
626.7000;0.1449;10.4630;
627.0000;0.1465;10.4630;
627.3000;0.1425;10.4533;
627.6000;0.1449;10.4557;
627.9000;0.1433;10.4509;
628.2000;0.1408;10.4509;
628.5000;0.1441;10.4533;
628.8000;0.1449;10.4557;
629.1000;0.1425;10.4437;
629.4000;0.1392;10.4485;
629.7000;0.1514;10.4847;
630.0000;0.1449;10.4702;
630.3000;0.1425;10.4654;
630.6000;0.1416;10.4654;
630.9000;0.1433;10.4726;
631.2000;0.1441;10.4702;
631.5000;0.1441;10.4726;
631.8000;0.1449;10.4678;
632.1000;0.1490;10.4871;
632.4000;0.1457;10.4799;
632.7000;0.1441;10.4823;
633.0000;0.1433;10.4847;
633.3000;0.1457;10.4919;
633.6000;0.1457;10.4871;
633.9000;0.1416;10.4871;
634.2000;0.1425;10.4847;
634.5000;0.1457;10.4919;
634.8000;0.1449;10.4871;
635.1000;0.1449;10.4750;
635.4000;0.1457;10.4726;
635.7000;0.1441;10.4654;
636.0000;0.1457;10.4606;
636.3000;0.1449;10.4654;
636.6000;0.1433;10.4726;
636.9000;0.1449;10.4774;
637.2000;0.1449;10.4799;
637.5000;0.1441;10.4799;
637.8000;0.1441;10.4774;
638.1000;0.1425;10.4702;
638.4000;0.1425;10.4774;
638.7000;0.1425;10.4678;
639.0000;0.1441;10.4726;
639.3000;0.1449;10.4750;
639.6000;0.1457;10.4847;
639.9000;0.1425;10.4750;
640.2000;0.1449;10.4823;
640.5000;0.1425;10.4702;
640.8000;0.1449;10.4726;
641.1000;0.1441;10.4678;
641.4000;0.1425;10.4654;
641.7000;0.1441;10.4702;
642.0000;0.1425;10.4750;
642.3000;0.1457;10.4823;
642.6000;0.1457;10.4774;
642.9000;0.1441;10.4702;
643.2000;0.1449;10.4726;
643.5000;0.1498;10.4967;
643.8000;0.1449;10.4847;
644.1000;0.1433;10.4847;
644.4000;0.1433;10.4847;
644.7000;0.1425;10.4750;
645.0000;0.1457;10.4847;
645.3000;0.1343;10.4606;
645.6000;0.1449;10.4823;
645.9000;0.1392;10.4654;
646.2000;0.1457;10.4774;
646.5000;0.1441;10.4726;
646.8000;0.1441;10.4726;
647.1000;0.1465;10.4823;
647.4000;0.1441;10.4630;
647.7000;0.1433;10.4654;
648.0000;0.1441;10.4654;
648.3000;0.1433;10.4702;
648.6000;0.1449;10.4702;
648.9000;0.1457;10.4774;
649.2000;0.1425;10.4678;
649.5000;0.1441;10.4823;
649.8000;0.1449;10.4726;
650.1000;0.1433;10.4606;
650.4000;0.1441;10.4726;
650.7000;0.1425;10.4678;
651.0000;0.1433;10.4630;
651.3000;0.1441;10.4702;
651.6000;0.1441;10.4726;
651.9000;0.1449;10.4823;
652.2000;0.1441;10.4823;
652.5000;0.1449;10.4847;
652.8000;0.1425;10.4750;
653.1000;0.1441;10.4847;
653.4000;0.1425;10.4678;
653.7000;0.1449;10.4654;
654.0000;0.1425;10.4750;
654.3000;0.1449;10.4871;
654.6000;0.1433;10.4847;
654.9000;0.1384;10.4799;
655.2000;0.1416;10.4967;
655.5000;0.1449;10.5064;
655.8000;0.1376;10.4823;
656.1000;0.1465;10.5136;
656.4000;0.1465;10.5112;
656.7000;0.1449;10.5064;
657.0000;0.1425;10.4967;
657.3000;0.1433;10.4943;
657.6000;0.1449;10.4967;
657.9000;0.1465;10.4991;
658.2000;0.1408;10.4847;
658.5000;0.1441;10.5040;
658.8000;0.1441;10.5040;
659.1000;0.1441;10.4967;
659.4000;0.1449;10.4991;
659.7000;0.1441;10.4919;
660.0000;0.1433;10.4967;
660.3000;0.1441;10.4943;
660.6000;0.1449;10.4895;
660.9000;0.1433;10.4799;
661.2000;0.1449;10.4799;
661.5000;0.1457;10.4871;
661.8000;0.1449;10.4847;
662.1000;0.1433;10.4750;
662.4000;0.1457;10.4750;
662.7000;0.1425;10.4654;
663.0000;0.1457;10.4726;
663.3000;0.1433;10.4702;
663.6000;0.1449;10.4823;
663.9000;0.1449;10.4871;
664.2000;0.1449;10.4895;
664.5000;0.1433;10.4847;
664.8000;0.1449;10.4750;
665.1000;0.1449;10.4823;
665.4000;0.1425;10.4678;
665.7000;0.1433;10.4799;
666.0000;0.1449;10.4823;
666.3000;0.1408;10.4823;
666.6000;0.1433;10.4799;
666.9000;0.1457;10.4847;
667.2000;0.1449;10.4895;
667.5000;0.1425;10.4702;
667.8000;0.1441;10.4678;
668.1000;0.1441;10.4654;
668.4000;0.1433;10.4726;
668.7000;0.1425;10.4726;
669.0000;0.1425;10.4654;
669.3000;0.1490;10.4871;
669.6000;0.1433;10.4847;
669.9000;0.1441;10.4871;
670.2000;0.1449;10.4919;
670.5000;0.1449;10.4967;
670.8000;0.1441;10.4967;
671.1000;0.1416;10.4919;
671.4000;0.1481;10.4991;
671.7000;0.1449;10.4847;
672.0000;0.1384;10.4678;
672.3000;0.1425;10.4823;
672.6000;0.1441;10.4847;
672.9000;0.1457;10.4991;
673.2000;0.1425;10.5040;
673.5000;0.1441;10.5064;
673.8000;0.1416;10.4967;
674.1000;0.1457;10.4967;
674.4000;0.1392;10.4823;
674.7000;0.1425;10.4847;
675.0000;0.1449;10.4871;
675.3000;0.1441;10.4774;
675.6000;0.1433;10.4799;
675.9000;0.1449;10.4895;
676.2000;0.1449;10.4871;
676.5000;0.1433;10.4774;
676.8000;0.1449;10.4774;
677.1000;0.1449;10.4726;
677.4000;0.1457;10.4774;
677.7000;0.1376;10.4557;
678.0000;0.1359;10.4509;
678.3000;0.1441;10.4726;
678.6000;0.1457;10.4799;
678.9000;0.1449;10.4799;
679.2000;0.1416;10.4774;
679.5000;0.1457;10.4871;
679.8000;0.1376;10.4702;
680.1000;0.1449;10.4943;
680.4000;0.1425;10.4847;
680.7000;0.1433;10.4919;
681.0000;0.1425;10.4895;
681.3000;0.1433;10.4919;
681.6000;0.1449;10.4991;
681.9000;0.1449;10.5016;
682.2000;0.1457;10.5016;
682.5000;0.1457;10.5016;
682.8000;0.1449;10.5016;
683.1000;0.1449;10.5064;
683.4000;0.1473;10.5040;
683.7000;0.1425;10.4991;
684.0000;0.1465;10.5016;
684.3000;0.1433;10.4895;
684.6000;0.1433;10.4871;
684.9000;0.1441;10.4799;
685.2000;0.1449;10.4847;
685.5000;0.1433;10.4799;
685.8000;0.1433;10.4774;
686.1000;0.1449;10.4847;
686.4000;0.1441;10.4774;
686.7000;0.1465;10.4799;
687.0000;0.1441;10.4750;
687.3000;0.1441;10.4702;
687.6000;0.1408;10.4654;
687.9000;0.1498;10.4871;
688.2000;0.1449;10.4726;
688.5000;0.1416;10.4606;
688.8000;0.1457;10.4774;
689.1000;0.1433;10.4702;
689.4000;0.1449;10.4702;
689.7000;0.1359;10.4485;
690.0000;0.1433;10.4726;
690.3000;0.1457;10.4750;
690.6000;0.1465;10.4823;
690.9000;0.1441;10.4774;
691.2000;0.1465;10.4847;
691.5000;0.1441;10.4750;
691.8000;0.1425;10.4630;
692.1000;0.1433;10.4774;
692.4000;0.1457;10.4967;
692.7000;0.1465;10.4991;
693.0000;0.1449;10.4991;
693.3000;0.1506;10.5088;
693.6000;0.1441;10.4919;
693.9000;0.1433;10.4919;
694.2000;0.1368;10.4799;
694.5000;0.1392;10.4847;
694.8000;0.1384;10.4823;
695.1000;0.1514;10.5184;
695.4000;0.1465;10.4991;
695.7000;0.1425;10.4823;
696.0000;0.1400;10.4726;
696.3000;0.1441;10.4774;
696.6000;0.1449;10.4750;
696.9000;0.1449;10.4799;
697.2000;0.1473;10.4871;
697.5000;0.1465;10.4823;
697.8000;0.1433;10.4678;
698.1000;0.1359;10.4557;
698.4000;0.1433;10.4799;
698.7000;0.1481;10.4943;
699.0000;0.1441;10.4726;
699.3000;0.1457;10.4799;
699.6000;0.1441;10.4799;
699.9000;0.1433;10.4895;
700.2000;0.1425;10.4799;
700.5000;0.1441;10.4750;
700.8000;0.1433;10.4750;
701.1000;0.1481;10.4943;
701.4000;0.1441;10.4799;
701.7000;0.1441;10.4847;
702.0000;0.1441;10.4895;
702.3000;0.1433;10.4823;
702.6000;0.1457;10.4847;
702.9000;0.1433;10.4823;
703.2000;0.1514;10.5040;
703.5000;0.1441;10.4823;
703.8000;0.1457;10.4919;
704.1000;0.1457;10.4919;
704.4000;0.1441;10.4871;
704.7000;0.1449;10.4967;
705.0000;0.1449;10.4919;
705.3000;0.1449;10.4967;
705.6000;0.1425;10.4919;
705.9000;0.1457;10.4991;
706.2000;0.1457;10.5016;
706.5000;0.1449;10.5088;
706.8000;0.1449;10.5064;
707.1000;0.1449;10.5064;
707.4000;0.1457;10.5088;
707.7000;0.1465;10.5040;
708.0000;0.1449;10.4871;
708.3000;0.1449;10.4871;
708.6000;0.1449;10.4919;
708.9000;0.1473;10.4991;
709.2000;0.1465;10.4943;
709.5000;0.1433;10.4919;
709.8000;0.1449;10.4943;
710.1000;0.1449;10.4991;
710.4000;0.1457;10.4943;
710.7000;0.1457;10.4871;
711.0000;0.1416;10.4799;
711.3000;0.1376;10.4678;
711.6000;0.1457;10.4895;
711.9000;0.1490;10.5064;
712.2000;0.1457;10.4967;
712.5000;0.1465;10.4943;
712.8000;0.1465;10.5016;
713.1000;0.1408;10.4871;
713.4000;0.1457;10.4991;
713.7000;0.1498;10.5136;
714.0000;0.1449;10.5016;
714.3000;0.1465;10.4943;
714.6000;0.1457;10.4919;
714.9000;0.1441;10.4774;
715.2000;0.1441;10.4799;
715.5000;0.1449;10.4847;
715.8000;0.1538;10.4967;
716.1000;0.1433;10.4678;
716.4000;0.1433;10.4702;
716.7000;0.1457;10.4847;
717.0000;0.1416;10.4678;
717.3000;0.1449;10.4726;
717.6000;0.1408;10.4606;
717.9000;0.1571;10.5088;
718.2000;0.1408;10.4726;
718.5000;0.1441;10.4847;
718.8000;0.1441;10.4871;
719.1000;0.1400;10.4750;
719.4000;0.1433;10.4967;
719.7000;0.1433;10.4991;
720.0000;0.1384;10.4847;
720.3000;0.1449;10.4967;
720.6000;0.1433;10.4943;
720.9000;0.1441;10.4967;
721.2000;0.1441;10.4895;
721.5000;0.1449;10.4943;
721.8000;0.1433;10.4943;
722.1000;0.1433;10.4895;
722.4000;0.1433;10.4967;
722.7000;0.1457;10.5040;
723.0000;0.1449;10.5040;
723.3000;0.1441;10.5040;
723.6000;0.1376;10.4871;
723.9000;0.1441;10.5016;
724.2000;0.1368;10.4774;
724.5000;0.1457;10.4847;
724.8000;0.1465;10.4799;
725.1000;0.1400;10.4678;
725.4000;0.1449;10.4799;
725.7000;0.1449;10.4750;
726.0000;0.1449;10.4726;
726.3000;0.1433;10.4799;
726.6000;0.1457;10.4823;
726.9000;0.1465;10.4871;
727.2000;0.1441;10.4799;
727.5000;0.1433;10.4774;
727.8000;0.1457;10.4847;
728.1000;0.1408;10.4726;
728.4000;0.1449;10.4823;
728.7000;0.1433;10.4799;
729.0000;0.1457;10.4919;
729.3000;0.1465;10.4919;
729.6000;0.1433;10.4919;
729.9000;0.1441;10.4991;
730.2000;0.1425;10.4895;
730.5000;0.1457;10.4967;
730.8000;0.1441;10.5016;
731.1000;0.1449;10.5160;
731.4000;0.1433;10.5016;
731.7000;0.1457;10.4991;
732.0000;0.1457;10.5016;
732.3000;0.1457;10.4991;
732.6000;0.1441;10.4943;
732.9000;0.1441;10.4919;
733.2000;0.1457;10.4919;
733.5000;0.1441;10.4871;
733.8000;0.1425;10.4919;
734.1000;0.1416;10.4967;
734.4000;0.1449;10.5040;
734.7000;0.1433;10.4991;
735.0000;0.1449;10.4967;
735.3000;0.1441;10.4871;
735.6000;0.1400;10.4726;
735.9000;0.1473;10.4967;
736.2000;0.1465;10.4991;
736.5000;0.1433;10.4943;
736.8000;0.1449;10.4919;
737.1000;0.1449;10.4895;
737.4000;0.1457;10.4895;
737.7000;0.1433;10.4943;
738.0000;0.1433;10.4943;
738.3000;0.1416;10.4799;
738.6000;0.1449;10.4919;
738.9000;0.1433;10.4823;
739.2000;0.1433;10.4823;
739.5000;0.1457;10.4895;
739.8000;0.1384;10.4678;
740.1000;0.1481;10.4847;
740.4000;0.1433;10.4654;
740.7000;0.1457;10.4726;
741.0000;0.1457;10.4678;
741.3000;0.1433;10.4606;
741.6000;0.1433;10.4581;
741.9000;0.1425;10.4557;
742.2000;0.1433;10.4581;
742.5000;0.1457;10.4606;
742.8000;0.1449;10.4654;
743.1000;0.1335;10.4413;
743.4000;0.1449;10.4702;
743.7000;0.1376;10.4557;
744.0000;0.1457;10.4678;
744.3000;0.1425;10.4485;
744.6000;0.1425;10.4630;
744.9000;0.1441;10.4654;
745.2000;0.1433;10.4678;
745.5000;0.1441;10.4774;
745.8000;0.1425;10.4702;
746.1000;0.1392;10.4509;
746.4000;0.1425;10.4485;
746.7000;0.1441;10.4509;
747.0000;0.1433;10.4557;
747.3000;0.1457;10.4581;
747.6000;0.1514;10.4702;
747.9000;0.1416;10.4413;
748.2000;0.1441;10.4364;
748.5000;0.1457;10.4437;
748.8000;0.1449;10.4413;
749.1000;0.1465;10.4533;
749.4000;0.1457;10.4557;
749.7000;0.1425;10.4557;
750.0000;0.1457;10.4654;
750.3000;0.1465;10.4606;
750.6000;0.1457;10.4606;
750.9000;0.1457;10.4557;
751.2000;0.1441;10.4485;
751.5000;0.1449;10.4485;
751.8000;0.1457;10.4485;
752.1000;0.1465;10.4461;
752.4000;0.1465;10.4461;
752.7000;0.1392;10.4316;
753.0000;0.1433;10.4364;
753.3000;0.1457;10.4461;
753.6000;0.1457;10.4485;
753.9000;0.1441;10.4461;
754.2000;0.1465;10.4533;
754.5000;0.1449;10.4509;
754.8000;0.1457;10.4437;
755.1000;0.1457;10.4437;
755.4000;0.1433;10.4485;
755.7000;0.1530;10.4750;
756.0000;0.1465;10.4654;
756.3000;0.1425;10.4630;
756.6000;0.1441;10.4630;
756.9000;0.1425;10.4678;
757.2000;0.1408;10.4678;
757.5000;0.1433;10.4799;
757.8000;0.1506;10.4895;
758.1000;0.1425;10.4702;
758.4000;0.1441;10.4726;
758.7000;0.1457;10.4774;
759.0000;0.1425;10.4630;
759.3000;0.1449;10.4774;
759.6000;0.1441;10.4774;
759.9000;0.1441;10.4919;
760.2000;0.1449;10.4943;
760.5000;0.1408;10.4774;
760.8000;0.1441;10.4895;
761.1000;0.1433;10.4895;
761.4000;0.1441;10.4871;
761.7000;0.1433;10.4774;
762.0000;0.1441;10.4774;
762.3000;0.1449;10.4750;
762.6000;0.1433;10.4726;
762.9000;0.1408;10.4533;
763.2000;0.1465;10.4630;
763.5000;0.1433;10.4606;
763.8000;0.1449;10.4654;
764.1000;0.1506;10.4799;
764.4000;0.1465;10.4726;
764.7000;0.1465;10.4799;
765.0000;0.1449;10.4678;
765.3000;0.1457;10.4702;
765.6000;0.1425;10.4606;
765.9000;0.1376;10.4581;
766.2000;0.1522;10.4967;
766.5000;0.1433;10.4630;
766.8000;0.1441;10.4557;
767.1000;0.1433;10.4606;
767.4000;0.1449;10.4581;
767.7000;0.1449;10.4654;
768.0000;0.1433;10.4581;
768.3000;0.1433;10.4630;
768.6000;0.1433;10.4557;
768.9000;0.1449;10.4702;
769.2000;0.1481;10.4823;
769.5000;0.1441;10.4678;
769.8000;0.1441;10.4702;
770.1000;0.1449;10.4654;
770.4000;0.1473;10.4581;
770.7000;0.1465;10.4557;
771.0000;0.1433;10.4581;
771.3000;0.1457;10.4678;
771.6000;0.1441;10.4678;
771.9000;0.1425;10.4774;
772.2000;0.1416;10.4774;
772.5000;0.1433;10.4895;
772.8000;0.1441;10.4799;
773.1000;0.1514;10.4750;
773.4000;0.1441;10.4557;
773.7000;0.1433;10.4581;
774.0000;0.1408;10.4533;
774.3000;0.1457;10.4678;
774.6000;0.1473;10.4702;
774.9000;0.1449;10.4581;
775.2000;0.1433;10.4557;
775.5000;0.1457;10.4581;
775.8000;0.1457;10.4557;
776.1000;0.1481;10.4630;
776.4000;0.1457;10.4581;
776.7000;0.1441;10.4461;
777.0000;0.1449;10.4461;
777.3000;0.1416;10.4340;
777.6000;0.1441;10.4413;
777.9000;0.1425;10.4364;
778.2000;0.1441;10.4413;
778.5000;0.1425;10.4413;
778.8000;0.1441;10.4413;
779.1000;0.1441;10.4364;
779.4000;0.1441;10.4364;
779.7000;0.1465;10.4413;
780.0000;0.1441;10.4316;
780.3000;0.1425;10.4340;
780.6000;0.1400;10.4244;
780.9000;0.1441;10.4340;
781.2000;0.1473;10.4389;
781.5000;0.1449;10.4292;
781.8000;0.1441;10.4268;
782.1000;0.1449;10.4268;
782.4000;0.1433;10.4268;
782.7000;0.1457;10.4340;
783.0000;0.1433;10.4316;
783.3000;0.1498;10.4437;
783.6000;0.1481;10.4461;
783.9000;0.1441;10.4413;
784.2000;0.1465;10.4485;
784.5000;0.1449;10.4437;
784.8000;0.1473;10.4533;
785.1000;0.1481;10.4557;
785.4000;0.1441;10.4485;
785.7000;0.1449;10.4485;
786.0000;0.1449;10.4485;
786.3000;0.1425;10.4461;
786.6000;0.1465;10.4581;
786.9000;0.1481;10.4461;
787.2000;0.1433;10.4268;
787.5000;0.1433;10.4364;
787.8000;0.1457;10.4509;
788.1000;0.1457;10.4533;
788.4000;0.1449;10.4461;
788.7000;0.1457;10.4437;
789.0000;0.1433;10.4485;
789.3000;0.1449;10.4485;
789.6000;0.1433;10.4533;
789.9000;0.1441;10.4557;
790.2000;0.1465;10.4557;
790.5000;0.1457;10.4581;
790.8000;0.1457;10.4630;
791.1000;0.1449;10.4557;
791.4000;0.1416;10.4437;
791.7000;0.1441;10.4485;
792.0000;0.1441;10.4485;
792.3000;0.1457;10.4485;
792.6000;0.1433;10.4461;
792.9000;0.1449;10.4437;
793.2000;0.1441;10.4461;
793.5000;0.1449;10.4509;
793.8000;0.1449;10.4581;
794.1000;0.1449;10.4509;
794.4000;0.1490;10.4702;
794.7000;0.1425;10.4533;
795.0000;0.1449;10.4606;
795.3000;0.1416;10.4509;
795.6000;0.1449;10.4678;
795.9000;0.1441;10.4702;
796.2000;0.1441;10.4678;
796.5000;0.1449;10.4774;
796.8000;0.1433;10.4750;
797.1000;0.1465;10.4847;
797.4000;0.1441;10.4799;
797.7000;0.1425;10.4654;
798.0000;0.1465;10.4726;
798.3000;0.1441;10.4630;
798.6000;0.1441;10.4678;
798.9000;0.1416;10.4630;
799.2000;0.1433;10.4581;
799.5000;0.1441;10.4630;
799.8000;0.1433;10.4509;
800.1000;0.1449;10.4557;
800.4000;0.1441;10.4654;
800.7000;0.1457;10.4678;
801.0000;0.1441;10.4702;
801.3000;0.1457;10.4750;
801.6000;0.1449;10.4654;
801.9000;0.1433;10.4509;
802.2000;0.1441;10.4509;
802.5000;0.1425;10.4461;
802.8000;0.1449;10.4557;
803.1000;0.1441;10.4461;
803.4000;0.1441;10.4316;
803.7000;0.1433;10.4292;
804.0000;0.1441;10.4268;
804.3000;0.1441;10.4364;
804.6000;0.1416;10.4340;
804.9000;0.1449;10.4413;
805.2000;0.1449;10.4389;
805.5000;0.1433;10.4461;
805.8000;0.1490;10.4630;
806.1000;0.1433;10.4485;
806.4000;0.1449;10.4509;
806.7000;0.1400;10.4364;
807.0000;0.1449;10.4509;
807.3000;0.1449;10.4581;
807.6000;0.1457;10.4654;
807.9000;0.1384;10.4509;
808.2000;0.1449;10.4654;
808.5000;0.1465;10.4702;
808.8000;0.1433;10.4557;
809.1000;0.1441;10.4581;
809.4000;0.1441;10.4654;
809.7000;0.1351;10.4461;
810.0000;0.1433;10.4630;
810.3000;0.1465;10.4726;
810.6000;0.1457;10.4654;
810.9000;0.1522;10.4847;
811.2000;0.1457;10.4702;
811.5000;0.1457;10.4750;
811.8000;0.1433;10.4702;
812.1000;0.1449;10.4702;
812.4000;0.1449;10.4678;
812.7000;0.1416;10.4557;
813.0000;0.1457;10.4581;
813.3000;0.1425;10.4533;
813.6000;0.1465;10.4581;
813.9000;0.1441;10.4533;
814.2000;0.1433;10.4630;
814.5000;0.1408;10.4630;
814.8000;0.1441;10.4678;
815.1000;0.1441;10.4726;
815.4000;0.1433;10.4799;
815.7000;0.1441;10.4678;
816.0000;0.1449;10.4678;
816.3000;0.1465;10.4654;
816.6000;0.1465;10.4630;
816.9000;0.1433;10.4654;
817.2000;0.1449;10.4654;
817.5000;0.1473;10.4726;
817.8000;0.1425;10.4606;
818.1000;0.1441;10.4750;
818.4000;0.1465;10.4774;
818.7000;0.1449;10.4774;
819.0000;0.1449;10.4702;
819.3000;0.1400;10.4509;
819.6000;0.1441;10.4630;
819.9000;0.1514;10.4726;
820.2000;0.1465;10.4581;
820.5000;0.1408;10.4413;
820.8000;0.1441;10.4509;
821.1000;0.1465;10.4678;
821.4000;0.1457;10.4702;
821.7000;0.1457;10.4654;
822.0000;0.1449;10.4654;
822.3000;0.1441;10.4678;
822.6000;0.1408;10.4581;
822.9000;0.1481;10.4774;
823.2000;0.1441;10.4702;
823.5000;0.1425;10.4702;
823.8000;0.1473;10.4799;
824.1000;0.1433;10.4702;
824.4000;0.1441;10.4702;
824.7000;0.1449;10.4750;
825.0000;0.1449;10.4726;
825.3000;0.1433;10.4654;
825.6000;0.1449;10.4726;
825.9000;0.1400;10.4630;
826.2000;0.1449;10.4726;
826.5000;0.1441;10.4823;
826.8000;0.1449;10.4823;
827.1000;0.1416;10.4774;
827.4000;0.1425;10.4774;
827.7000;0.1457;10.4847;
828.0000;0.1433;10.4799;
828.3000;0.1343;10.4533;
828.6000;0.1441;10.4750;
828.9000;0.1498;10.4871;
829.2000;0.1433;10.4678;
829.5000;0.1457;10.4654;
829.8000;0.1425;10.4581;
830.1000;0.1449;10.4678;
830.4000;0.1441;10.4581;
830.7000;0.1473;10.4750;
831.0000;0.1449;10.4678;
831.3000;0.1449;10.4702;
831.6000;0.1457;10.4654;
831.9000;0.1530;10.4895;
832.2000;0.1433;10.4581;
832.5000;0.1449;10.4630;
832.8000;0.1449;10.4461;
833.1000;0.1433;10.4533;
833.4000;0.1441;10.4533;
833.7000;0.1416;10.4437;
834.0000;0.1416;10.4461;
834.3000;0.1408;10.4413;
834.6000;0.1441;10.4509;
834.9000;0.1425;10.4485;
835.2000;0.1457;10.4606;
835.5000;0.1457;10.4654;
835.8000;0.1457;10.4654;
836.1000;0.1384;10.4437;
836.4000;0.1457;10.4630;
836.7000;0.1465;10.4581;
837.0000;0.1449;10.4654;
837.3000;0.1449;10.4654;
837.6000;0.1473;10.4557;
837.9000;0.1449;10.4557;
838.2000;0.1441;10.4557;
838.5000;0.1433;10.4606;
838.8000;0.1433;10.4606;
839.1000;0.1457;10.4654;
839.4000;0.1441;10.4630;
839.7000;0.1433;10.4678;
840.0000;0.1416;10.4654;
840.3000;0.1416;10.4678;
840.6000;0.1441;10.4726;
840.9000;0.1433;10.4702;
841.2000;0.1433;10.4678;
841.5000;0.1457;10.4774;
841.8000;0.1465;10.4919;
842.1000;0.1473;10.4919;
842.4000;0.1433;10.4847;
842.7000;0.1457;10.4895;
843.0000;0.1457;10.4847;
843.3000;0.1433;10.4750;
843.6000;0.1441;10.4750;
843.9000;0.1457;10.4799;
844.2000;0.1359;10.4509;
844.5000;0.1490;10.4799;
844.8000;0.1368;10.4509;
845.1000;0.1457;10.4726;
845.4000;0.1433;10.4678;
845.7000;0.1465;10.4847;
846.0000;0.1449;10.4823;
846.3000;0.1514;10.5112;
846.6000;0.1449;10.4919;
846.9000;0.1433;10.4943;
847.2000;0.1433;10.4967;
847.5000;0.1441;10.4967;
847.8000;0.1425;10.4967;
848.1000;0.1449;10.4943;
848.4000;0.1449;10.4919;
848.7000;0.1441;10.4847;
849.0000;0.1433;10.4726;
849.3000;0.1449;10.4750;
849.6000;0.1457;10.4726;
849.9000;0.1457;10.4726;
850.2000;0.1465;10.4774;
850.5000;0.1384;10.4533;
850.8000;0.1465;10.4726;
851.1000;0.1449;10.4702;
851.4000;0.1465;10.4847;
851.7000;0.1465;10.4919;
852.0000;0.1465;10.4967;
852.3000;0.1457;10.4967;
852.6000;0.1449;10.4871;
852.9000;0.1441;10.4823;
853.2000;0.1465;10.4847;
853.5000;0.1449;10.4702;
853.8000;0.1441;10.4654;
854.1000;0.1441;10.4533;
854.4000;0.1457;10.4726;
854.7000;0.1416;10.4654;
855.0000;0.1425;10.4726;
855.3000;0.1498;10.4919;
855.6000;0.1433;10.4847;
855.9000;0.1441;10.4847;
856.2000;0.1457;10.5016;
856.5000;0.1449;10.4967;
856.8000;0.1433;10.4895;
857.1000;0.1384;10.4726;
857.4000;0.1441;10.4726;
857.7000;0.1433;10.4606;
858.0000;0.1425;10.4654;
858.3000;0.1481;10.4823;
858.6000;0.1441;10.4678;
858.9000;0.1441;10.4702;
859.2000;0.1433;10.4750;
859.5000;0.1449;10.4799;
859.8000;0.1433;10.4726;
860.1000;0.1441;10.4799;
860.4000;0.1433;10.4823;
860.7000;0.1465;10.4871;
861.0000;0.1441;10.4823;
861.3000;0.1441;10.4895;
861.6000;0.1449;10.4823;
861.9000;0.1441;10.4871;
862.2000;0.1522;10.4991;
862.5000;0.1449;10.4847;
862.8000;0.1433;10.4799;
863.1000;0.1433;10.4919;
863.4000;0.1473;10.5016;
863.7000;0.1457;10.4991;
864.0000;0.1441;10.4847;
864.3000;0.1441;10.4750;
864.6000;0.1392;10.4678;
864.9000;0.1441;10.4823;
865.2000;0.1441;10.4799;
865.5000;0.1449;10.4823;
865.8000;0.1498;10.4943;
866.1000;0.1465;10.4823;
866.4000;0.1433;10.4847;
866.7000;0.1457;10.4799;
867.0000;0.1457;10.4726;
867.3000;0.1449;10.4678;
867.6000;0.1449;10.4630;
867.9000;0.1416;10.4485;
868.2000;0.1481;10.4678;
868.5000;0.1490;10.4654;
868.8000;0.1481;10.4581;
869.1000;0.1449;10.4581;
869.4000;0.1376;10.4316;
869.7000;0.1457;10.4581;
870.0000;0.1498;10.4750;
870.3000;0.1408;10.4557;
870.6000;0.1433;10.4533;
870.9000;0.1555;10.4750;
871.2000;0.1449;10.4461;
871.5000;0.1441;10.4413;
871.8000;0.1473;10.4581;
872.1000;0.1457;10.4678;
872.4000;0.1457;10.4702;
872.7000;0.1449;10.4726;
873.0000;0.1449;10.4750;
873.3000;0.1473;10.4774;
873.6000;0.1441;10.4823;
873.9000;0.1457;10.4823;
874.2000;0.1441;10.4750;
874.5000;0.1498;10.4871;
874.8000;0.1498;10.4967;
875.1000;0.1433;10.4823;
875.4000;0.1433;10.4895;
875.7000;0.1449;10.4943;
876.0000;0.1457;10.5040;
876.3000;0.1457;10.4967;
876.6000;0.1465;10.4991;
876.9000;0.1498;10.5184;
877.2000;0.1449;10.5064;
877.5000;0.1530;10.5257;
877.8000;0.1465;10.5136;
878.1000;0.1473;10.5040;
878.4000;0.1473;10.4967;
878.7000;0.1481;10.4871;
879.0000;0.1498;10.4895;
879.3000;0.1449;10.4823;
879.6000;0.1498;10.4991;
879.9000;0.1465;10.4871;
880.2000;0.1465;10.4799;
880.5000;0.1425;10.4654;
880.8000;0.1433;10.4654;
881.1000;0.1473;10.4799;
881.4000;0.1335;10.4485;
881.7000;0.1425;10.4726;
882.0000;0.1449;10.4774;
882.3000;0.1465;10.4774;
882.6000;0.1457;10.4750;
882.9000;0.1555;10.5040;
883.2000;0.1465;10.4726;
883.5000;0.1441;10.4750;
883.8000;0.1465;10.4823;
884.1000;0.1571;10.5088;
884.4000;0.1449;10.4871;
884.7000;0.1425;10.4823;
885.0000;0.1490;10.4943;
885.3000;0.1441;10.4799;
885.6000;0.1441;10.4774;
885.9000;0.1425;10.4726;
886.2000;0.1425;10.4678;
886.5000;0.1457;10.4630;
886.8000;0.1457;10.4726;
887.1000;0.1425;10.4750;
887.4000;0.1457;10.4895;
887.7000;0.1457;10.4895;
888.0000;0.1473;10.4847;
888.3000;0.1441;10.4654;
888.6000;0.1441;10.4630;
888.9000;0.1457;10.4654;
889.2000;0.1425;10.4630;
889.5000;0.1433;10.4774;
889.8000;0.1408;10.4823;
890.1000;0.1449;10.4871;
890.4000;0.1473;10.4919;
890.7000;0.1441;10.4895;
891.0000;0.1433;10.4871;
891.3000;0.1351;10.4581;
891.6000;0.1441;10.4799;
891.9000;0.1441;10.4823;
892.2000;0.1425;10.4799;
892.5000;0.1408;10.4847;
892.8000;0.1449;10.4943;
893.1000;0.1449;10.4991;
893.4000;0.1425;10.4967;
893.7000;0.1441;10.4991;
894.0000;0.1441;10.5016;
894.3000;0.1506;10.5136;
894.6000;0.1433;10.5016;
894.9000;0.1441;10.4967;
895.2000;0.1465;10.5040;
895.5000;0.1433;10.5016;
895.8000;0.1441;10.5064;
896.1000;0.1441;10.5112;
896.4000;0.1441;10.5040;
896.7000;0.1416;10.4895;
897.0000;0.1449;10.4943;
897.3000;0.1433;10.4895;
897.6000;0.1441;10.4847;
897.9000;0.1465;10.4847;
898.2000;0.1457;10.4823;
898.5000;0.1457;10.4847;
898.8000;0.1441;10.4847;
899.1000;0.1449;10.4871;
899.4000;0.1538;10.5136;
899.7000;0.1433;10.4895;
900.0000;0.1441;10.4895;
900.3000;0.1481;10.5088;
900.6000;0.1490;10.5160;
900.9000;0.1449;10.5064;
901.2000;0.1441;10.4967;
901.5000;0.1441;10.4943;
901.8000;0.1449;10.4967;
902.1000;0.1449;10.4967;
902.4000;0.1473;10.4967;
902.7000;0.1449;10.4871;
903.0000;0.1457;10.4895;
903.3000;0.1457;10.4895;
903.6000;0.1441;10.4774;
903.9000;0.1457;10.4774;
904.2000;0.1465;10.4847;
904.5000;0.1449;10.4871;
904.8000;0.1449;10.4823;
905.1000;0.1441;10.4847;
905.4000;0.1481;10.4943;
905.7000;0.1449;10.4847;
906.0000;0.1425;10.4823;
906.3000;0.1416;10.4847;
906.6000;0.1441;10.4895;
906.9000;0.1441;10.4919;
907.2000;0.1481;10.4967;
907.5000;0.1457;10.4847;
907.8000;0.1449;10.4871;
908.1000;0.1408;10.4750;
908.4000;0.1441;10.4823;
908.7000;0.1449;10.4847;
909.0000;0.1433;10.4823;
909.3000;0.1425;10.4799;
909.6000;0.1449;10.4991;
909.9000;0.1433;10.4871;
910.2000;0.1433;10.4823;
910.5000;0.1433;10.4919;
910.8000;0.1441;10.4967;
911.1000;0.1457;10.4847;
911.4000;0.1425;10.4726;
911.7000;0.1457;10.4702;
912.0000;0.1425;10.4630;
912.3000;0.1416;10.4606;
912.6000;0.1408;10.4581;
912.9000;0.1441;10.4678;
913.2000;0.1498;10.4799;
913.5000;0.1457;10.4702;
913.8000;0.1449;10.4726;
914.1000;0.1457;10.4750;
914.4000;0.1457;10.4774;
914.7000;0.1449;10.4799;
915.0000;0.1449;10.4750;
915.3000;0.1441;10.4726;
915.6000;0.1433;10.4654;
915.9000;0.1408;10.4533;
916.2000;0.1457;10.4630;
916.5000;0.1433;10.4702;
916.8000;0.1457;10.4799;
917.1000;0.1433;10.4630;
917.4000;0.1433;10.4533;
917.7000;0.1457;10.4630;
918.0000;0.1498;10.4726;
918.3000;0.1425;10.4606;
918.6000;0.1457;10.4774;
918.9000;0.1457;10.4750;
919.2000;0.1465;10.4726;
919.5000;0.1449;10.4678;
919.8000;0.1408;10.4557;
920.1000;0.1465;10.4678;
920.4000;0.1408;10.4437;
920.7000;0.1441;10.4557;
921.0000;0.1481;10.4678;
921.3000;0.1490;10.4678;
921.6000;0.1547;10.4774;
921.9000;0.1425;10.4533;
922.2000;0.1425;10.4533;
922.5000;0.1457;10.4630;
922.8000;0.1449;10.4630;
923.1000;0.1481;10.4654;
923.4000;0.1416;10.4461;
923.7000;0.1457;10.4557;
924.0000;0.1449;10.4485;
924.3000;0.1473;10.4533;
924.6000;0.1465;10.4533;
924.9000;0.1425;10.4557;
925.2000;0.1473;10.4654;
925.5000;0.1457;10.4581;
925.8000;0.1441;10.4606;
926.1000;0.1506;10.4774;
926.4000;0.1514;10.4799;
926.7000;0.1433;10.4485;
927.0000;0.1449;10.4509;
927.3000;0.1449;10.4461;
927.6000;0.1441;10.4461;
927.9000;0.1465;10.4533;
928.2000;0.1465;10.4485;
928.5000;0.1433;10.4389;
928.8000;0.1457;10.4437;
929.1000;0.1449;10.4485;
929.4000;0.1465;10.4557;
929.7000;0.1425;10.4606;
930.0000;0.1449;10.4702;
930.3000;0.1449;10.4750;
930.6000;0.1441;10.4750;
930.9000;0.1457;10.4847;
931.2000;0.1457;10.4943;
931.5000;0.1465;10.4943;
931.8000;0.1441;10.4895;
932.1000;0.1441;10.4871;
932.4000;0.1449;10.4919;
932.7000;0.1433;10.4895;
933.0000;0.1441;10.4895;
933.3000;0.1441;10.4919;
933.6000;0.1425;10.5016;
933.9000;0.1457;10.4991;
934.2000;0.1449;10.4919;
934.5000;0.1449;10.4871;
934.8000;0.1449;10.4847;
935.1000;0.1441;10.4799;
935.4000;0.1457;10.4799;
935.7000;0.1425;10.4726;
936.0000;0.1457;10.4774;
936.3000;0.1449;10.4726;
936.6000;0.1441;10.4726;
936.9000;0.1465;10.4774;
937.2000;0.1441;10.4750;
937.5000;0.1441;10.4750;
937.8000;0.1433;10.4750;
938.1000;0.1441;10.4678;
938.4000;0.1449;10.4774;
938.7000;0.1441;10.4799;
939.0000;0.1481;10.4919;
939.3000;0.1457;10.4895;
939.6000;0.1449;10.4871;
939.9000;0.1449;10.4871;
940.2000;0.1473;10.4895;
940.5000;0.1514;10.4943;
940.8000;0.1433;10.4799;
941.1000;0.1392;10.4654;
941.4000;0.1441;10.4823;
941.7000;0.1433;10.4799;
942.0000;0.1416;10.4847;
942.3000;0.1457;10.4967;
942.6000;0.1449;10.4919;
942.9000;0.1449;10.4919;
943.2000;0.1433;10.4823;
943.5000;0.1449;10.4726;
943.8000;0.1457;10.4750;
944.1000;0.1465;10.4750;
944.4000;0.1457;10.4726;
944.7000;0.1449;10.4774;
945.0000;0.1425;10.4702;
945.3000;0.1441;10.4726;
945.6000;0.1425;10.4654;
945.9000;0.1400;10.4557;
946.2000;0.1498;10.4823;
946.5000;0.1465;10.4678;
946.8000;0.1392;10.4533;
947.1000;0.1449;10.4654;
947.4000;0.1425;10.4581;
947.7000;0.1425;10.4533;
948.0000;0.1441;10.4606;
948.3000;0.1490;10.4654;
948.6000;0.1449;10.4606;
948.9000;0.1449;10.4654;
949.2000;0.1433;10.4606;
949.5000;0.1425;10.4557;
949.8000;0.1465;10.4630;
950.1000;0.1441;10.4485;
950.4000;0.1465;10.4485;
950.7000;0.1433;10.4364;
951.0000;0.1449;10.4413;
951.3000;0.1457;10.4485;
951.6000;0.1449;10.4557;
951.9000;0.1449;10.4509;
952.2000;0.1441;10.4533;
952.5000;0.1416;10.4533;
952.8000;0.1457;10.4606;
953.1000;0.1449;10.4654;
953.4000;0.1457;10.4654;
953.7000;0.1449;10.4702;
954.0000;0.1425;10.4654;
954.3000;0.1449;10.4654;
954.6000;0.1449;10.4702;
954.9000;0.1465;10.4750;
955.2000;0.1473;10.4726;
955.5000;0.1457;10.4678;
955.8000;0.1441;10.4630;
956.1000;0.1449;10.4702;
956.4000;0.1457;10.4750;
956.7000;0.1441;10.4726;
957.0000;0.1449;10.4750;
957.3000;0.1433;10.4630;
957.6000;0.1449;10.4678;
957.9000;0.1441;10.4654;
958.2000;0.1465;10.4678;
958.5000;0.1441;10.4606;
958.8000;0.1425;10.4557;
959.1000;0.1425;10.4606;
959.4000;0.1433;10.4581;
959.7000;0.1457;10.4581;
960.0000;0.1441;10.4581;
960.3000;0.1473;10.4678;
960.6000;0.1449;10.4606;
960.9000;0.1433;10.4557;
961.2000;0.1441;10.4581;
961.5000;0.1449;10.4581;
961.8000;0.1457;10.4557;
962.1000;0.1514;10.4726;
962.4000;0.1441;10.4557;
962.7000;0.1441;10.4533;
963.0000;0.1400;10.4413;
963.3000;0.1538;10.4654;
963.6000;0.1433;10.4461;
963.9000;0.1433;10.4557;
964.2000;0.1441;10.4654;
964.5000;0.1441;10.4606;
964.8000;0.1433;10.4557;
965.1000;0.1449;10.4581;
965.4000;0.1343;10.4292;
965.7000;0.1457;10.4581;
966.0000;0.1449;10.4606;
966.3000;0.1449;10.4581;
966.6000;0.1449;10.4630;
966.9000;0.1441;10.4557;
967.2000;0.1457;10.4726;
967.5000;0.1449;10.4654;
967.8000;0.1441;10.4557;
968.1000;0.1449;10.4630;
968.4000;0.1465;10.4606;
968.7000;0.1416;10.4413;
969.0000;0.1425;10.4509;
969.3000;0.1473;10.4654;
969.6000;0.1433;10.4606;
969.9000;0.1441;10.4606;
970.2000;0.1433;10.4606;
970.5000;0.1449;10.4606;
970.8000;0.1457;10.4606;
971.1000;0.1449;10.4485;
971.4000;0.1441;10.4461;
971.7000;0.1449;10.4485;
972.0000;0.1408;10.4437;
972.3000;0.1425;10.4581;
972.6000;0.1392;10.4557;
972.9000;0.1425;10.4678;
973.2000;0.1449;10.4678;
973.5000;0.1416;10.4533;
973.8000;0.1433;10.4630;
974.1000;0.1481;10.4799;
974.4000;0.1449;10.4799;
974.7000;0.1441;10.4774;
975.0000;0.1433;10.4823;
975.3000;0.1441;10.4799;
975.6000;0.1457;10.4847;
975.9000;0.1449;10.4871;
976.2000;0.1433;10.4799;
976.5000;0.1433;10.4799;
976.8000;0.1441;10.4750;
977.1000;0.1457;10.4774;
977.4000;0.1506;10.4919;
977.7000;0.1457;10.4774;
978.0000;0.1441;10.4750;
978.3000;0.1457;10.4678;
978.6000;0.1473;10.4750;
978.9000;0.1465;10.4654;
979.2000;0.1392;10.4389;
979.5000;0.1457;10.4485;
979.8000;0.1465;10.4509;
980.1000;0.1425;10.4509;
980.4000;0.1457;10.4654;
980.7000;0.1449;10.4581;
981.0000;0.1441;10.4606;
981.3000;0.1465;10.4654;
981.6000;0.1449;10.4702;
981.9000;0.1433;10.4678;
982.2000;0.1457;10.4702;
982.5000;0.1441;10.4678;
982.8000;0.1457;10.4847;
983.1000;0.1465;10.4823;
983.4000;0.1457;10.4750;
983.7000;0.1368;10.4557;
984.0000;0.1457;10.4871;
984.3000;0.1408;10.4630;
984.6000;0.1457;10.4799;
984.9000;0.1457;10.4750;
985.2000;0.1433;10.4654;
985.5000;0.1433;10.4630;
985.8000;0.1392;10.4389;
986.1000;0.1457;10.4606;
986.4000;0.1433;10.4581;
986.7000;0.1449;10.4654;
987.0000;0.1498;10.4847;
987.3000;0.1441;10.4702;
987.6000;0.1392;10.4533;
987.9000;0.1433;10.4557;
988.2000;0.1449;10.4606;
988.5000;0.1457;10.4630;
988.8000;0.1465;10.4630;
989.1000;0.1441;10.4557;
989.4000;0.1392;10.4461;
989.7000;0.1449;10.4630;
990.0000;0.1473;10.4678;
990.3000;0.1441;10.4630;
990.6000;0.1465;10.4726;
990.9000;0.1433;10.4702;
991.2000;0.1441;10.4702;
991.5000;0.1441;10.4678;
991.8000;0.1465;10.4678;
992.1000;0.1449;10.4702;
992.4000;0.1465;10.4726;
992.7000;0.1457;10.4630;
993.0000;0.1408;10.4485;
993.3000;0.1425;10.4557;
993.6000;0.1408;10.4485;
993.9000;0.1457;10.4557;
994.2000;0.1425;10.4485;
994.5000;0.1433;10.4485;
994.8000;0.1449;10.4557;
995.1000;0.1433;10.4485;
995.4000;0.1481;10.4557;
995.7000;0.1449;10.4557;
996.0000;0.1457;10.4606;
996.3000;0.1465;10.4533;
996.6000;0.1408;10.4509;
996.9000;0.1433;10.4533;
997.2000;0.1425;10.4413;
997.5000;0.1490;10.4581;
997.8000;0.1490;10.4533;
998.1000;0.1433;10.4437;
998.4000;0.1457;10.4533;
998.7000;0.1449;10.4485;
999.0000;0.1449;10.4413;
999.3000;0.1449;10.4413;
999.6000;0.1457;10.4437;
999.9000;0.1449;10.4533;
1000.2000;0.1481;10.4654;
1000.5000;0.1433;10.4581;
1000.8000;0.1457;10.4581;
1001.1000;0.1457;10.4606;
1001.4000;0.1490;10.4630;
1001.7000;0.1449;10.4533;
1002.0000;0.1343;10.4364;
1002.3000;0.1433;10.4533;
1002.6000;0.1433;10.4509;
1002.9000;0.1449;10.4533;
1003.2000;0.1425;10.4389;
1003.5000;0.1425;10.4437;
1003.8000;0.1449;10.4437;
1004.1000;0.1441;10.4533;
1004.4000;0.1408;10.4485;
1004.7000;0.1465;10.4606;
1005.0000;0.1433;10.4485;
1005.3000;0.1425;10.4485;
1005.6000;0.1441;10.4485;
1005.9000;0.1457;10.4437;
1006.2000;0.1465;10.4485;
1006.5000;0.1473;10.4485;
1006.8000;0.1441;10.4533;
1007.1000;0.1457;10.4581;
1007.4000;0.1449;10.4606;
1007.7000;0.1449;10.4581;
1008.0000;0.1449;10.4581;
1008.3000;0.1473;10.4702;
1008.6000;0.1441;10.4654;
1008.9000;0.1449;10.4702;
1009.2000;0.1465;10.4774;
1009.5000;0.1441;10.4726;
1009.8000;0.1465;10.4750;
1010.1000;0.1449;10.4702;
1010.4000;0.1441;10.4630;
1010.7000;0.1449;10.4654;
1011.0000;0.1441;10.4678;
1011.3000;0.1441;10.4678;
1011.6000;0.1465;10.4750;
1011.9000;0.1457;10.4774;
1012.2000;0.1433;10.4726;
1012.5000;0.1457;10.4799;
1012.8000;0.1506;10.4847;
1013.1000;0.1408;10.4509;
1013.4000;0.1449;10.4630;
1013.7000;0.1457;10.4606;
1014.0000;0.1433;10.4630;
1014.3000;0.1449;10.4678;
1014.6000;0.1465;10.4726;
1014.9000;0.1465;10.4678;
1015.2000;0.1408;10.4606;
1015.5000;0.1449;10.4678;
1015.8000;0.1433;10.4606;
1016.1000;0.1457;10.4533;
1016.4000;0.1433;10.4389;
1016.7000;0.1465;10.4461;
1017.0000;0.1441;10.4389;
1017.3000;0.1433;10.4509;
1017.6000;0.1441;10.4606;
1017.9000;0.1498;10.4726;
1018.2000;0.1514;10.4799;
1018.5000;0.1433;10.4630;
1018.8000;0.1425;10.4557;
1019.1000;0.1514;10.4750;
1019.4000;0.1425;10.4630;
1019.7000;0.1449;10.4654;
1020.0000;0.1441;10.4702;
1020.3000;0.1457;10.4799;
1020.6000;0.1457;10.4895;
1020.9000;0.1408;10.4774;
1021.2000;0.1416;10.4750;
1021.5000;0.1457;10.4871;
1021.8000;0.1498;10.4967;
1022.1000;0.1400;10.4678;
1022.4000;0.1441;10.4774;
1022.7000;0.1433;10.4774;
1023.0000;0.1465;10.4799;
1023.3000;0.1433;10.4726;
1023.6000;0.1416;10.4678;
1023.9000;0.1457;10.4654;
1024.2000;0.1465;10.4702;
1024.5000;0.1441;10.4654;
1024.8000;0.1449;10.4678;
1025.1000;0.1457;10.4630;
1025.4000;0.1457;10.4581;
1025.7000;0.1441;10.4509;
1026.0000;0.1376;10.4316;
1026.3000;0.1457;10.4509;
1026.6000;0.1441;10.4437;
1026.9000;0.1465;10.4461;
1027.2000;0.1465;10.4413;
1027.5000;0.1465;10.4437;
1027.8000;0.1449;10.4364;
1028.1000;0.1457;10.4413;
1028.4000;0.1449;10.4413;
1028.7000;0.1473;10.4461;
1029.0000;0.1441;10.4389;
1029.3000;0.1457;10.4437;
1029.6000;0.1441;10.4461;
1029.9000;0.1425;10.4461;
1030.2000;0.1449;10.4533;
1030.5000;0.1441;10.4533;
1030.8000;0.1457;10.4509;
1031.1000;0.1465;10.4533;
1031.4000;0.1449;10.4557;
1031.7000;0.1433;10.4485;
1032.0000;0.1433;10.4557;
1032.3000;0.1465;10.4630;
1032.6000;0.1457;10.4606;
1032.9000;0.1433;10.4461;
1033.2000;0.1457;10.4533;
1033.5000;0.1441;10.4533;
1033.8000;0.1449;10.4581;
1034.1000;0.1376;10.4268;
1034.4000;0.1433;10.4437;
1034.7000;0.1433;10.4485;
1035.0000;0.1425;10.4413;
1035.3000;0.1441;10.4389;
1035.6000;0.1425;10.4364;
1035.9000;0.1457;10.4413;
1036.2000;0.1457;10.4485;
1036.5000;0.1408;10.4485;
1036.8000;0.1449;10.4654;
1037.1000;0.1441;10.4823;
1037.4000;0.1473;10.4895;
1037.7000;0.1433;10.4726;
1038.0000;0.1441;10.4702;
1038.3000;0.1433;10.4678;
1038.6000;0.1425;10.4606;
1038.9000;0.1441;10.4581;
1039.2000;0.1359;10.4485;
1039.5000;0.1449;10.4750;
1039.8000;0.1457;10.4774;
1040.1000;0.1457;10.4823;
1040.4000;0.1490;10.4871;
1040.7000;0.1457;10.4799;
1041.0000;0.1359;10.4557;
1041.3000;0.1433;10.4774;
1041.6000;0.1498;10.4967;
1041.9000;0.1416;10.4823;
1042.2000;0.1506;10.4919;
1042.5000;0.1449;10.4774;
1042.8000;0.1392;10.4533;
1043.1000;0.1457;10.4726;
1043.4000;0.1457;10.4630;
1043.7000;0.1408;10.4485;
1044.0000;0.1433;10.4654;
1044.3000;0.1457;10.4774;
1044.6000;0.1433;10.4750;
1044.9000;0.1449;10.4726;
1045.2000;0.1425;10.4726;
1045.5000;0.1416;10.4606;
1045.8000;0.1457;10.4726;
1046.1000;0.1498;10.4847;
1046.4000;0.1449;10.4678;
1046.7000;0.1433;10.4654;
1047.0000;0.1433;10.4654;
1047.3000;0.1449;10.4630;
1047.6000;0.1441;10.4557;
1047.9000;0.1457;10.4630;
1048.2000;0.1416;10.4557;
1048.5000;0.1547;10.4943;
1048.8000;0.1449;10.4702;
1049.1000;0.1490;10.4871;
1049.4000;0.1465;10.4823;
1049.7000;0.1449;10.4774;
1050.0000;0.1457;10.4823;
1050.3000;0.1433;10.4702;
1050.6000;0.1449;10.4750;
1050.9000;0.1457;10.4750;
1051.2000;0.1441;10.4774;
1051.5000;0.1449;10.4774;
1051.8000;0.1449;10.4726;
1052.1000;0.1465;10.4799;
1052.4000;0.1465;10.4750;
1052.7000;0.1490;10.4799;
1053.0000;0.1457;10.4702;
1053.3000;0.1400;10.4630;
1053.6000;0.1457;10.4774;
1053.9000;0.1481;10.4799;
1054.2000;0.1449;10.4702;
1054.5000;0.1457;10.4726;
1054.8000;0.1465;10.4702;
1055.1000;0.1481;10.4726;
1055.4000;0.1416;10.4509;
1055.7000;0.1441;10.4726;
1056.0000;0.1400;10.4606;
1056.3000;0.1498;10.4919;
1056.6000;0.1425;10.4750;
1056.9000;0.1441;10.4799;
1057.2000;0.1457;10.4774;
1057.5000;0.1392;10.4606;
1057.8000;0.1441;10.4678;
1058.1000;0.1441;10.4654;
1058.4000;0.1441;10.4630;
1058.7000;0.1449;10.4630;
1059.0000;0.1555;10.5016;
1059.3000;0.1425;10.4557;
1059.6000;0.1473;10.4654;
1059.9000;0.1433;10.4630;
1060.2000;0.1441;10.4678;
1060.5000;0.1416;10.4654;
1060.8000;0.1457;10.4702;
1061.1000;0.1433;10.4678;
1061.4000;0.1457;10.4654;
1061.7000;0.1457;10.4606;
1062.0000;0.1457;10.4654;
1062.3000;0.1465;10.4702;
1062.6000;0.1465;10.4702;
1062.9000;0.1441;10.4581;
1063.2000;0.1449;10.4606;
1063.5000;0.1425;10.4702;
1063.8000;0.1473;10.4847;
1064.1000;0.1433;10.4774;
1064.4000;0.1433;10.4799;
1064.7000;0.1449;10.4823;
1065.0000;0.1368;10.4581;
1065.3000;0.1457;10.4750;
1065.6000;0.1416;10.4654;
1065.9000;0.1441;10.4799;
1066.2000;0.1449;10.4871;
1066.5000;0.1465;10.4871;
1066.8000;0.1433;10.4823;
1067.1000;0.1433;10.4823;
1067.4000;0.1457;10.4895;
1067.7000;0.1425;10.4726;
1068.0000;0.1465;10.4823;
1068.3000;0.1441;10.4799;
1068.6000;0.1449;10.4847;
1068.9000;0.1457;10.4774;
1069.2000;0.1465;10.4871;
1069.5000;0.1359;10.4630;
1069.8000;0.1433;10.4895;
1070.1000;0.1433;10.4847;
1070.4000;0.1441;10.4702;
1070.7000;0.1449;10.4774;
1071.0000;0.1433;10.4750;
1071.3000;0.1449;10.4702;
1071.6000;0.1457;10.4799;
1071.9000;0.1465;10.4823;
1072.2000;0.1449;10.4726;
1072.5000;0.1457;10.4726;
1072.8000;0.1465;10.4774;
1073.1000;0.1441;10.4799;
1073.4000;0.1433;10.4847;
1073.7000;0.1555;10.5112;
1074.0000;0.1441;10.4726;
1074.3000;0.1473;10.4774;
1074.6000;0.1457;10.4678;
1074.9000;0.1457;10.4678;
1075.2000;0.1449;10.4726;
1075.5000;0.1449;10.4750;
1075.8000;0.1457;10.4799;
1076.1000;0.1433;10.4654;
1076.4000;0.1449;10.4678;
1076.7000;0.1449;10.4678;
1077.0000;0.1449;10.4726;
1077.3000;0.1449;10.4726;
1077.6000;0.1425;10.4702;
1077.9000;0.1506;10.4871;
1078.2000;0.1465;10.4750;
1078.5000;0.1473;10.4774;
1078.8000;0.1425;10.4726;
1079.1000;0.1498;10.4895;
1079.4000;0.1457;10.4823;
1079.7000;0.1457;10.4726;
1080.0000;0.1449;10.4750;
1080.3000;0.1465;10.4750;
1080.6000;0.1449;10.4823;
1080.9000;0.1376;10.4678;
1081.2000;0.1441;10.4847;
1081.5000;0.1433;10.4799;
1081.8000;0.1506;10.4991;
1082.1000;0.1465;10.4895;
1082.4000;0.1425;10.4823;
1082.7000;0.1441;10.4847;
1083.0000;0.1441;10.4799;
1083.3000;0.1465;10.4895;
1083.6000;0.1425;10.4895;
1083.9000;0.1457;10.4943;
1084.2000;0.1465;10.4991;
1084.5000;0.1457;10.4847;
1084.8000;0.1441;10.4823;
1085.1000;0.1441;10.4774;
1085.4000;0.1441;10.4774;
1085.7000;0.1465;10.4871;
1086.0000;0.1425;10.4799;
1086.3000;0.1457;10.4799;
1086.6000;0.1457;10.4823;
1086.9000;0.1433;10.4823;
1087.2000;0.1449;10.4823;
1087.5000;0.1433;10.4847;
1087.8000;0.1441;10.4774;
1088.1000;0.1465;10.4823;
1088.4000;0.1441;10.4799;
1088.7000;0.1433;10.4654;
1089.0000;0.1563;10.5064;
1089.3000;0.1433;10.4726;
1089.6000;0.1481;10.4799;
1089.9000;0.1343;10.4340;
1090.2000;0.1425;10.4606;
1090.5000;0.1441;10.4702;
1090.8000;0.1457;10.4750;
1091.1000;0.1408;10.4581;
1091.4000;0.1441;10.4702;
1091.7000;0.1441;10.4702;
1092.0000;0.1449;10.4726;
1092.3000;0.1441;10.4799;
1092.6000;0.1465;10.4919;
1092.9000;0.1457;10.4943;
1093.2000;0.1457;10.4871;
1093.5000;0.1433;10.4774;
1093.8000;0.1457;10.4823;
1094.1000;0.1359;10.4581;
1094.4000;0.1498;10.4943;
1094.7000;0.1481;10.4919;
1095.0000;0.1408;10.4750;
1095.3000;0.1449;10.4799;
1095.6000;0.1441;10.4871;
1095.9000;0.1441;10.4799;
1096.2000;0.1457;10.4823;
1096.5000;0.1457;10.4750;
1096.8000;0.1416;10.4654;
1097.1000;0.1473;10.4750;
1097.4000;0.1538;10.4871;
1097.7000;0.1457;10.4581;
1098.0000;0.1441;10.4557;
1098.3000;0.1465;10.4678;
1098.6000;0.1433;10.4630;
1098.9000;0.1457;10.4774;
1099.2000;0.1457;10.4774;
1099.5000;0.1457;10.4871;
1099.8000;0.1473;10.4895;
1100.1000;0.1416;10.4726;
1100.4000;0.1441;10.4726;
1100.7000;0.1376;10.4581;
1101.0000;0.1522;10.4967;
1101.3000;0.1433;10.4774;
1101.6000;0.1457;10.4823;
1101.9000;0.1433;10.4702;
1102.2000;0.1481;10.4799;
1102.5000;0.1425;10.4509;
1102.8000;0.1433;10.4509;
1103.1000;0.1449;10.4581;
1103.4000;0.1368;10.4389;
1103.7000;0.1433;10.4557;
1104.0000;0.1457;10.4654;
1104.3000;0.1433;10.4606;
1104.6000;0.1359;10.4437;
1104.9000;0.1457;10.4726;
1105.2000;0.1449;10.4774;
1105.5000;0.1441;10.4871;
1105.8000;0.1449;10.4919;
1106.1000;0.1457;10.4919;
1106.4000;0.1449;10.4847;
1106.7000;0.1441;10.4774;
1107.0000;0.1457;10.4799;
1107.3000;0.1441;10.4823;
1107.6000;0.1498;10.4919;
1107.9000;0.1457;10.4823;
1108.2000;0.1457;10.4750;
1108.5000;0.1425;10.4606;
1108.8000;0.1441;10.4630;
1109.1000;0.1441;10.4654;
1109.4000;0.1433;10.4678;
1109.7000;0.1449;10.4774;
1110.0000;0.1457;10.4750;
1110.3000;0.1465;10.4678;
1110.6000;0.1457;10.4678;
1110.9000;0.1465;10.4702;
1111.2000;0.1473;10.4726;
1111.5000;0.1441;10.4485;
1111.8000;0.1441;10.4437;
1112.1000;0.1457;10.4485;
1112.4000;0.1457;10.4533;
1112.7000;0.1457;10.4509;
1113.0000;0.1465;10.4509;
1113.3000;0.1449;10.4461;
1113.6000;0.1465;10.4413;
1113.9000;0.1457;10.4437;
1114.2000;0.1449;10.4461;
1114.5000;0.1359;10.4220;
1114.8000;0.1457;10.4509;
1115.1000;0.1481;10.4581;
1115.4000;0.1465;10.4509;
1115.7000;0.1441;10.4461;
1116.0000;0.1457;10.4581;
1116.3000;0.1481;10.4654;
1116.6000;0.1433;10.4557;
1116.9000;0.1441;10.4581;
1117.2000;0.1449;10.4533;
1117.5000;0.1490;10.4702;
1117.8000;0.1449;10.4461;
1118.1000;0.1514;10.4630;
1118.4000;0.1457;10.4413;
1118.7000;0.1449;10.4509;
1119.0000;0.1498;10.4702;
1119.3000;0.1457;10.4533;
1119.6000;0.1368;10.4316;
1119.9000;0.1465;10.4654;
1120.2000;0.1441;10.4654;
1120.5000;0.1449;10.4630;
1120.8000;0.1441;10.4533;
1121.1000;0.1441;10.4606;
1121.4000;0.1392;10.4509;
1121.7000;0.1425;10.4630;
1122.0000;0.1425;10.4461;
1122.3000;0.1457;10.4557;
1122.6000;0.1473;10.4678;
1122.9000;0.1457;10.4702;
1123.2000;0.1457;10.4630;
1123.5000;0.1465;10.4702;
1123.8000;0.1457;10.4750;
1124.1000;0.1457;10.4678;
1124.4000;0.1457;10.4726;
1124.7000;0.1425;10.4702;
1125.0000;0.1441;10.4678;
1125.3000;0.1441;10.4630;
1125.6000;0.1449;10.4630;
1125.9000;0.1530;10.4823;
1126.2000;0.1449;10.4606;
1126.5000;0.1433;10.4557;
1126.8000;0.1408;10.4509;
1127.1000;0.1449;10.4485;
1127.4000;0.1441;10.4437;
1127.7000;0.1400;10.4316;
1128.0000;0.1441;10.4461;
1128.3000;0.1416;10.4485;
1128.6000;0.1457;10.4509;
1128.9000;0.1441;10.4485;
1129.2000;0.1457;10.4533;
1129.5000;0.1441;10.4533;
1129.8000;0.1449;10.4630;
1130.1000;0.1449;10.4557;
1130.4000;0.1457;10.4557;
1130.7000;0.1433;10.4533;
1131.0000;0.1465;10.4557;
1131.3000;0.1457;10.4557;
1131.6000;0.1465;10.4389;
1131.9000;0.1433;10.4292;
1132.2000;0.1465;10.4389;
1132.5000;0.1449;10.4316;
1132.8000;0.1457;10.4316;
1133.1000;0.1425;10.4244;
1133.4000;0.1425;10.4147;
1133.7000;0.1433;10.4123;
1134.0000;0.1449;10.4123;
1134.3000;0.1449;10.4051;
1134.6000;0.1481;10.4147;
1134.9000;0.1449;10.4268;
1135.2000;0.1433;10.4244;
1135.5000;0.1425;10.4292;
1135.8000;0.1425;10.4389;
1136.1000;0.1457;10.4413;
1136.4000;0.1449;10.4413;
1136.7000;0.1433;10.4461;
1137.0000;0.1425;10.4509;
1137.3000;0.1433;10.4485;
1137.6000;0.1449;10.4557;
1137.9000;0.1465;10.4678;
1138.2000;0.1449;10.4606;
1138.5000;0.1425;10.4533;
1138.8000;0.1465;10.4630;
1139.1000;0.1457;10.4630;
1139.4000;0.1433;10.4533;
1139.7000;0.1457;10.4606;
1140.0000;0.1425;10.4557;
1140.3000;0.1441;10.4533;
1140.6000;0.1441;10.4533;
1140.9000;0.1433;10.4533;
1141.2000;0.1441;10.4461;
1141.5000;0.1449;10.4413;
1141.8000;0.1481;10.4509;
1142.1000;0.1465;10.4533;
1142.4000;0.1441;10.4509;
1142.7000;0.1425;10.4581;
1143.0000;0.1449;10.4630;
1143.3000;0.1392;10.4461;
1143.6000;0.1433;10.4509;
1143.9000;0.1441;10.4606;
1144.2000;0.1465;10.4726;
1144.5000;0.1449;10.4750;
1144.8000;0.1465;10.4750;
1145.1000;0.1416;10.4630;
1145.4000;0.1433;10.4702;
1145.7000;0.1465;10.4726;
1146.0000;0.1441;10.4654;
1146.3000;0.1457;10.4606;
1146.6000;0.1457;10.4533;
1146.9000;0.1449;10.4533;
1147.2000;0.1441;10.4557;
1147.5000;0.1449;10.4581;
1147.8000;0.1433;10.4533;
1148.1000;0.1465;10.4557;
1148.4000;0.1457;10.4557;
1148.7000;0.1449;10.4606;
1149.0000;0.1449;10.4630;
1149.3000;0.1441;10.4533;
1149.6000;0.1457;10.4509;
1149.9000;0.1465;10.4557;
1150.2000;0.1449;10.4606;
1150.5000;0.1465;10.4654;
1150.8000;0.1473;10.4702;
1151.1000;0.1351;10.4364;
1151.4000;0.1441;10.4678;
1151.7000;0.1425;10.4654;
1152.0000;0.1530;10.4871;
1152.3000;0.1457;10.4581;
1152.6000;0.1449;10.4557;
1152.9000;0.1449;10.4630;
1153.2000;0.1433;10.4606;
1153.5000;0.1441;10.4702;
1153.8000;0.1441;10.4726;
1154.1000;0.1465;10.4750;
1154.4000;0.1449;10.4678;
1154.7000;0.1441;10.4654;
1155.0000;0.1449;10.4702;
1155.3000;0.1425;10.4726;
1155.6000;0.1457;10.4823;
1155.9000;0.1457;10.4823;
1156.2000;0.1425;10.4702;
1156.5000;0.1473;10.4774;
1156.8000;0.1457;10.4799;
1157.1000;0.1441;10.4750;
1157.4000;0.1441;10.4678;
1157.7000;0.1441;10.4702;
1158.0000;0.1433;10.4750;
1158.3000;0.1457;10.4774;
1158.6000;0.1473;10.4726;
1158.9000;0.1441;10.4678;
1159.2000;0.1449;10.4654;
1159.5000;0.1449;10.4726;
1159.8000;0.1392;10.4654;
1160.1000;0.1433;10.4750;
1160.4000;0.1441;10.4678;
1160.7000;0.1392;10.4461;
1161.0000;0.1490;10.4654;
1161.3000;0.1449;10.4581;
1161.6000;0.1433;10.4485;
1161.9000;0.1473;10.4702;
1162.2000;0.1457;10.4606;
1162.5000;0.1441;10.4581;
1162.8000;0.1425;10.4630;
1163.1000;0.1457;10.4726;
1163.4000;0.1457;10.4799;
1163.7000;0.1433;10.4774;
1164.0000;0.1441;10.4823;
1164.3000;0.1441;10.4847;
1164.6000;0.1449;10.4871;
1164.9000;0.1441;10.4847;
1165.2000;0.1433;10.4799;
1165.5000;0.1416;10.4630;
1165.8000;0.1433;10.4606;
1166.1000;0.1441;10.4606;
1166.4000;0.1441;10.4630;
1166.7000;0.1449;10.4606;
1167.0000;0.1457;10.4606;
1167.3000;0.1441;10.4485;
1167.6000;0.1498;10.4678;
1167.9000;0.1433;10.4485;
1168.2000;0.1490;10.4630;
1168.5000;0.1441;10.4533;
1168.8000;0.1433;10.4461;
1169.1000;0.1400;10.4340;
1169.4000;0.1425;10.4485;
1169.7000;0.1457;10.4485;
1170.0000;0.1473;10.4581;
1170.3000;0.1457;10.4533;
1170.6000;0.1457;10.4630;
1170.9000;0.1449;10.4606;
1171.2000;0.1449;10.4581;
1171.5000;0.1457;10.4509;
1171.8000;0.1441;10.4389;
1172.1000;0.1498;10.4461;
1172.4000;0.1457;10.4340;
1172.7000;0.1441;10.4340;
1173.0000;0.1425;10.4413;
1173.3000;0.1473;10.4533;
1173.6000;0.1441;10.4389;
1173.9000;0.1433;10.4437;
1174.2000;0.1425;10.4461;
1174.5000;0.1449;10.4533;
1174.8000;0.1473;10.4606;
1175.1000;0.1457;10.4533;
1175.4000;0.1441;10.4461;
1175.7000;0.1449;10.4461;
1176.0000;0.1457;10.4533;
1176.3000;0.1473;10.4630;
1176.6000;0.1449;10.4606;
1176.9000;0.1433;10.4606;
1177.2000;0.1514;10.4750;
1177.5000;0.1465;10.4678;
1177.8000;0.1441;10.4630;
1178.1000;0.1441;10.4630;
1178.4000;0.1441;10.4606;
1178.7000;0.1457;10.4581;
1179.0000;0.1457;10.4581;
1179.3000;0.1441;10.4630;
1179.6000;0.1433;10.4630;
1179.9000;0.1473;10.4726;
1180.2000;0.1433;10.4678;
1180.5000;0.1465;10.4726;
1180.8000;0.1449;10.4702;
1181.1000;0.1473;10.4750;
1181.4000;0.1449;10.4678;
1181.7000;0.1433;10.4654;
1182.0000;0.1449;10.4678;
1182.3000;0.1530;10.4943;
1182.6000;0.1465;10.4750;
1182.9000;0.1457;10.4726;
1183.2000;0.1449;10.4799;
1183.5000;0.1425;10.4799;
1183.8000;0.1449;10.4799;
1184.1000;0.1465;10.4823;
1184.4000;0.1416;10.4654;
1184.7000;0.1441;10.4726;
1185.0000;0.1449;10.4823;
1185.3000;0.1457;10.4919;
1185.6000;0.1449;10.4823;
1185.9000;0.1449;10.4726;
1186.2000;0.1449;10.4678;
1186.5000;0.1441;10.4654;
1186.8000;0.1457;10.4678;
1187.1000;0.1465;10.4702;
1187.4000;0.1457;10.4678;
1187.7000;0.1449;10.4678;
1188.0000;0.1449;10.4654;
1188.3000;0.1538;10.4943;
1188.6000;0.1449;10.4702;
1188.9000;0.1457;10.4726;
1189.2000;0.1441;10.4750;
1189.5000;0.1449;10.4799;
1189.8000;0.1441;10.4774;
1190.1000;0.1465;10.4799;
1190.4000;0.1457;10.4678;
1190.7000;0.1449;10.4702;
1191.0000;0.1449;10.4702;
1191.3000;0.1441;10.4678;
1191.6000;0.1457;10.4823;
1191.9000;0.1449;10.4726;
1192.2000;0.1441;10.4630;
1192.5000;0.1490;10.4726;
1192.8000;0.1498;10.4774;
1193.1000;0.1392;10.4557;
1193.4000;0.1441;10.4678;
1193.7000;0.1571;10.5040;
1194.0000;0.1457;10.4750;
1194.3000;0.1481;10.4967;
1194.6000;0.1449;10.4943;
1194.9000;0.1457;10.4991;
1195.2000;0.1457;10.4991;
1195.5000;0.1457;10.4895;
1195.8000;0.1368;10.4557;
1196.1000;0.1449;10.4774;
1196.4000;0.1433;10.4702;
1196.7000;0.1530;10.5064;
1197.0000;0.1449;10.4871;
1197.3000;0.1433;10.4919;
1197.6000;0.1457;10.4871;
1197.9000;0.1441;10.4871;
1198.2000;0.1457;10.4919;
1198.5000;0.1449;10.4823;
1198.8000;0.1441;10.4774;
1199.1000;0.1449;10.4799;
1199.4000;0.1449;10.4847;
1199.7000;0.1441;10.4823;
1200.0000;0.1441;10.4823;
1200.3000;0.1457;10.4847;
1200.6000;0.1441;10.4630;
1200.9000;0.1449;10.4654;
1201.2000;0.1449;10.4630;
1201.5000;0.1457;10.4654;
1201.8000;0.1449;10.4678;
1202.1000;0.1441;10.4630;
1202.4000;0.1449;10.4726;
1202.7000;0.1449;10.4726;
1203.0000;0.1449;10.4774;
1203.3000;0.1457;10.4823;
1203.6000;0.1441;10.4919;
1203.9000;0.1449;10.4991;
1204.2000;0.1433;10.4895;
1204.5000;0.1473;10.5016;
1204.8000;0.1441;10.4991;
1205.1000;0.1441;10.4895;
1205.4000;0.1457;10.4919;
1205.7000;0.1481;10.4895;
1206.0000;0.1457;10.4799;
1206.3000;0.1449;10.4774;
1206.6000;0.1481;10.4895;
1206.9000;0.1425;10.4750;
1207.2000;0.1457;10.4847;
1207.5000;0.1449;10.4774;
1207.8000;0.1449;10.4750;
1208.1000;0.1457;10.4678;
1208.4000;0.1433;10.4581;
1208.7000;0.1449;10.4702;
1209.0000;0.1433;10.4678;
1209.3000;0.1441;10.4654;
1209.6000;0.1457;10.4630;
1209.9000;0.1433;10.4630;
1210.2000;0.1441;10.4581;
1210.5000;0.1457;10.4750;
1210.8000;0.1433;10.4702;
1211.1000;0.1481;10.4726;
1211.4000;0.1441;10.4581;
1211.7000;0.1441;10.4581;
1212.0000;0.1433;10.4678;
1212.3000;0.1433;10.4678;
1212.6000;0.1400;10.4581;
1212.9000;0.1457;10.4678;
1213.2000;0.1457;10.4630;
1213.5000;0.1481;10.4799;
1213.8000;0.1449;10.4774;
1214.1000;0.1449;10.4823;
1214.4000;0.1359;10.4581;
1214.7000;0.1449;10.4678;
1215.0000;0.1441;10.4702;
1215.3000;0.1465;10.4678;
1215.6000;0.1457;10.4702;
1215.9000;0.1473;10.4799;
1216.2000;0.1465;10.4799;
1216.5000;0.1449;10.4799;
1216.8000;0.1433;10.4774;
1217.1000;0.1449;10.4799;
1217.4000;0.1441;10.4847;
1217.7000;0.1449;10.4847;
1218.0000;0.1465;10.4871;
1218.3000;0.1416;10.4702;
1218.6000;0.1433;10.4630;
1218.9000;0.1408;10.4533;
1219.2000;0.1433;10.4654;
1219.5000;0.1457;10.4678;
1219.8000;0.1441;10.4774;
1220.1000;0.1441;10.4654;
1220.4000;0.1457;10.4654;
1220.7000;0.1465;10.4774;
1221.0000;0.1473;10.4774;
1221.3000;0.1473;10.4823;
1221.6000;0.1457;10.4823;
1221.9000;0.1449;10.4847;
1222.2000;0.1457;10.4823;
1222.5000;0.1473;10.4847;
1222.8000;0.1498;10.4943;
1223.1000;0.1449;10.4702;
1223.4000;0.1457;10.4606;
1223.7000;0.1449;10.4533;
1224.0000;0.1425;10.4509;
1224.3000;0.1473;10.4581;
1224.6000;0.1449;10.4581;
1224.9000;0.1449;10.4581;
1225.2000;0.1441;10.4630;
1225.5000;0.1416;10.4557;
1225.8000;0.1449;10.4533;
1226.1000;0.1433;10.4461;
1226.4000;0.1433;10.4485;
1226.7000;0.1449;10.4581;
1227.0000;0.1457;10.4581;
1227.3000;0.1457;10.4557;
1227.6000;0.1433;10.4606;
1227.9000;0.1473;10.4654;
1228.2000;0.1457;10.4630;
1228.5000;0.1473;10.4630;
1228.8000;0.1465;10.4630;
1229.1000;0.1433;10.4509;
1229.4000;0.1441;10.4485;
1229.7000;0.1449;10.4413;
1230.0000;0.1465;10.4485;
1230.3000;0.1441;10.4485;
1230.6000;0.1433;10.4533;
1230.9000;0.1506;10.4726;
1231.2000;0.1449;10.4557;
1231.5000;0.1449;10.4606;
1231.8000;0.1457;10.4581;
1232.1000;0.1465;10.4630;
1232.4000;0.1441;10.4606;
1232.7000;0.1457;10.4678;
1233.0000;0.1441;10.4702;
1233.3000;0.1449;10.4726;
1233.6000;0.1384;10.4630;
1233.9000;0.1449;10.4799;
1234.2000;0.1449;10.4774;
1234.5000;0.1441;10.4726;
1234.8000;0.1449;10.4702;
1235.1000;0.1441;10.4654;
1235.4000;0.1441;10.4726;
1235.7000;0.1416;10.4702;
1236.0000;0.1449;10.4750;
1236.3000;0.1416;10.4678;
1236.6000;0.1490;10.4823;
1236.9000;0.1465;10.4847;
1237.2000;0.1538;10.4919;
1237.5000;0.1457;10.4774;
1237.8000;0.1457;10.4702;
1238.1000;0.1433;10.4726;
1238.4000;0.1465;10.4702;
1238.7000;0.1457;10.4630;
1239.0000;0.1449;10.4678;
1239.3000;0.1449;10.4678;
1239.6000;0.1449;10.4750;
1239.9000;0.1449;10.4702;
1240.2000;0.1441;10.4654;
1240.5000;0.1465;10.4726;
1240.8000;0.1449;10.4702;
1241.1000;0.1441;10.4726;
1241.4000;0.1441;10.4823;
1241.7000;0.1449;10.4823;
1242.0000;0.1433;10.4678;
1242.3000;0.1449;10.4630;
1242.6000;0.1449;10.4606;
1242.9000;0.1457;10.4630;
1243.2000;0.1449;10.4581;
1243.5000;0.1433;10.4437;
1243.8000;0.1457;10.4509;
1244.1000;0.1433;10.4437;
1244.4000;0.1441;10.4461;
1244.7000;0.1433;10.4533;
1245.0000;0.1449;10.4581;
1245.3000;0.1449;10.4533;
1245.6000;0.1449;10.4581;
1245.9000;0.1457;10.4726;
1246.2000;0.1457;10.4702;
1246.5000;0.1449;10.4702;
1246.8000;0.1441;10.4750;
1247.1000;0.1465;10.4774;
1247.4000;0.1441;10.4726;
1247.7000;0.1481;10.4678;
1248.0000;0.1465;10.4606;
1248.3000;0.1449;10.4606;
1248.6000;0.1481;10.4750;
1248.9000;0.1441;10.4726;
1249.2000;0.1530;10.4943;
1249.5000;0.1465;10.4726;
1249.8000;0.1441;10.4606;
1250.1000;0.1457;10.4678;
1250.4000;0.1473;10.4678;
1250.7000;0.1425;10.4606;
1251.0000;0.1441;10.4630;
1251.3000;0.1457;10.4750;
1251.6000;0.1449;10.4726;
1251.9000;0.1473;10.4726;
1252.2000;0.1449;10.4702;
1252.5000;0.1449;10.4823;
1252.8000;0.1506;10.4919;
1253.1000;0.1457;10.4799;
1253.4000;0.1433;10.4726;
1253.7000;0.1400;10.4630;
1254.0000;0.1433;10.4702;
1254.3000;0.1433;10.4678;
1254.6000;0.1441;10.4750;
1254.9000;0.1368;10.4461;
1255.2000;0.1441;10.4678;
1255.5000;0.1465;10.4799;
1255.8000;0.1384;10.4485;
1256.1000;0.1376;10.4461;
1256.4000;0.1473;10.4654;
1256.7000;0.1522;10.4799;
1257.0000;0.1441;10.4630;
1257.3000;0.1449;10.4702;
1257.6000;0.1449;10.4654;
1257.9000;0.1441;10.4557;
1258.2000;0.1465;10.4678;
1258.5000;0.1416;10.4581;
1258.8000;0.1449;10.4678;
1259.1000;0.1392;10.4581;
1259.4000;0.1441;10.4726;
1259.7000;0.1425;10.4774;
1260.0000;0.1441;10.4654;
1260.3000;0.1441;10.4750;
1260.6000;0.1433;10.4678;
1260.9000;0.1441;10.4774;
1261.2000;0.1441;10.4750;
1261.5000;0.1449;10.4774;
1261.8000;0.1457;10.4847;
1262.1000;0.1457;10.4774;
1262.4000;0.1465;10.4799;
1262.7000;0.1457;10.4895;
1263.0000;0.1465;10.4871;
1263.3000;0.1473;10.4847;
1263.6000;0.1449;10.4847;
1263.9000;0.1449;10.4847;
1264.2000;0.1441;10.4774;
1264.5000;0.1449;10.4847;
1264.8000;0.1425;10.4774;
1265.1000;0.1433;10.4750;
1265.4000;0.1441;10.4823;
1265.7000;0.1457;10.4823;
1266.0000;0.1441;10.4774;
1266.3000;0.1473;10.4895;
1266.6000;0.1416;10.4823;
1266.9000;0.1441;10.4871;
1267.2000;0.1408;10.4823;
1267.5000;0.1441;10.4895;
1267.8000;0.1449;10.4919;
1268.1000;0.1425;10.4871;
1268.4000;0.1473;10.4919;
1268.7000;0.1433;10.4871;
1269.0000;0.1400;10.4799;
1269.3000;0.1457;10.4943;
1269.6000;0.1441;10.4799;
1269.9000;0.1457;10.4823;
1270.2000;0.1457;10.4823;
1270.5000;0.1457;10.4774;
1270.8000;0.1449;10.4799;
1271.1000;0.1441;10.4750;
1271.4000;0.1441;10.4750;
1271.7000;0.1449;10.4654;
1272.0000;0.1441;10.4606;
1272.3000;0.1465;10.4606;
1272.6000;0.1425;10.4509;
1272.9000;0.1449;10.4509;
1273.2000;0.1457;10.4533;
1273.5000;0.1465;10.4581;
1273.8000;0.1465;10.4630;
1274.1000;0.1449;10.4581;
1274.4000;0.1465;10.4581;
1274.7000;0.1457;10.4606;
1275.0000;0.1449;10.4630;
1275.3000;0.1465;10.4630;
1275.6000;0.1416;10.4461;
1275.9000;0.1449;10.4606;
1276.2000;0.1449;10.4606;
1276.5000;0.1457;10.4678;
1276.8000;0.1449;10.4799;
1277.1000;0.1498;10.4847;
1277.4000;0.1359;10.4437;
1277.7000;0.1425;10.4581;
1278.0000;0.1441;10.4533;
1278.3000;0.1473;10.4630;
1278.6000;0.1449;10.4533;
1278.9000;0.1457;10.4533;
1279.2000;0.1457;10.4581;
1279.5000;0.1441;10.4581;
1279.8000;0.1433;10.4557;
1280.1000;0.1449;10.4533;
1280.4000;0.1441;10.4533;
1280.7000;0.1400;10.4485;
1281.0000;0.1441;10.4654;
1281.3000;0.1441;10.4678;
1281.6000;0.1351;10.4413;
1281.9000;0.1441;10.4678;
1282.2000;0.1433;10.4678;
1282.5000;0.1481;10.4871;
1282.8000;0.1441;10.4847;
1283.1000;0.1433;10.4799;
1283.4000;0.1457;10.4799;
1283.7000;0.1506;10.4943;
1284.0000;0.1481;10.4823;
1284.3000;0.1441;10.4654;
1284.6000;0.1400;10.4654;
1284.9000;0.1441;10.4726;
1285.2000;0.1449;10.4702;
1285.5000;0.1416;10.4630;
1285.8000;0.1449;10.4750;
1286.1000;0.1473;10.4799;
1286.4000;0.1449;10.4823;
1286.7000;0.1449;10.4750;
1287.0000;0.1457;10.4750;
1287.3000;0.1457;10.4823;
1287.6000;0.1449;10.4678;
1287.9000;0.1457;10.4726;
1288.2000;0.1457;10.4726;
1288.5000;0.1473;10.4774;
1288.8000;0.1473;10.4895;
1289.1000;0.1473;10.4895;
1289.4000;0.1425;10.4678;
1289.7000;0.1481;10.4750;
1290.0000;0.1441;10.4750;
1290.3000;0.1449;10.4750;
1290.6000;0.1449;10.4678;
1290.9000;0.1441;10.4726;
1291.2000;0.1449;10.4678;
1291.5000;0.1449;10.4750;
1291.8000;0.1449;10.4823;
1292.1000;0.1425;10.4823;
1292.4000;0.1441;10.4823;
1292.7000;0.1449;10.4847;
1293.0000;0.1351;10.4557;
1293.3000;0.1433;10.4678;
1293.6000;0.1457;10.4726;
1293.9000;0.1465;10.4750;
1294.2000;0.1433;10.4654;
1294.5000;0.1490;10.4750;
1294.8000;0.1457;10.4678;
1295.1000;0.1465;10.4702;
1295.4000;0.1392;10.4533;
1295.7000;0.1441;10.4678;
1296.0000;0.1449;10.4726;
1296.3000;0.1441;10.4702;
1296.6000;0.1433;10.4630;
1296.9000;0.1465;10.4630;
1297.2000;0.1449;10.4557;
1297.5000;0.1441;10.4557;
1297.8000;0.1457;10.4533;
1298.1000;0.1473;10.4630;
1298.4000;0.1441;10.4581;
1298.7000;0.1449;10.4750;
1299.0000;0.1441;10.4799;
1299.3000;0.1449;10.4919;
1299.6000;0.1449;10.4871;
1299.9000;0.1441;10.4871;
1300.2000;0.1465;10.4967;
1300.5000;0.1457;10.4895;
1300.8000;0.1433;10.4871;
1301.1000;0.1522;10.5040;
1301.4000;0.1457;10.4919;
1301.7000;0.1441;10.4823;
1302.0000;0.1359;10.4678;
1302.3000;0.1465;10.4991;
1302.6000;0.1473;10.4943;
1302.9000;0.1465;10.4919;
1303.2000;0.1449;10.4895;
1303.5000;0.1433;10.4799;
1303.8000;0.1449;10.4799;
1304.1000;0.1368;10.4630;
1304.4000;0.1457;10.4774;
1304.7000;0.1465;10.4774;
1305.0000;0.1433;10.4702;
1305.3000;0.1449;10.4702;
1305.6000;0.1441;10.4678;
1305.9000;0.1449;10.4678;
1306.2000;0.1408;10.4581;
1306.5000;0.1416;10.4606;
1306.8000;0.1457;10.4678;
1307.1000;0.1530;10.4919;
1307.4000;0.1392;10.4606;
1307.7000;0.1449;10.4654;
1308.0000;0.1514;10.4799;
1308.3000;0.1449;10.4678;
1308.6000;0.1465;10.4799;
1308.9000;0.1449;10.4823;
1309.2000;0.1457;10.4799;
1309.5000;0.1416;10.4702;
1309.8000;0.1449;10.4702;
1310.1000;0.1441;10.4702;
1310.4000;0.1465;10.4799;
1310.7000;0.1457;10.4823;
1311.0000;0.1449;10.4702;
1311.3000;0.1449;10.4630;
1311.6000;0.1457;10.4654;
1311.9000;0.1465;10.4750;
1312.2000;0.1433;10.4726;
1312.5000;0.1441;10.4823;
1312.8000;0.1433;10.4799;
1313.1000;0.1457;10.4919;
1313.4000;0.1465;10.4943;
1313.7000;0.1457;10.5016;
1314.0000;0.1433;10.5016;
1314.3000;0.1465;10.5016;
1314.6000;0.1473;10.4919;
1314.9000;0.1384;10.4726;
1315.2000;0.1457;10.4895;
1315.5000;0.1441;10.4823;
1315.8000;0.1441;10.4847;
1316.1000;0.1457;10.4871;
1316.4000;0.1441;10.4919;
1316.7000;0.1449;10.4919;
1317.0000;0.1416;10.4774;
1317.3000;0.1441;10.4823;
1317.6000;0.1465;10.4943;
1317.9000;0.1441;10.4943;
1318.2000;0.1441;10.4991;
1318.5000;0.1457;10.4991;
1318.8000;0.1457;10.4943;
1319.1000;0.1473;10.4991;
1319.4000;0.1465;10.4943;
1319.7000;0.1449;10.4943;
1320.0000;0.1441;10.4919;
1320.3000;0.1457;10.4943;
1320.6000;0.1457;10.4823;
1320.9000;0.1449;10.4847;
1321.2000;0.1425;10.4799;
1321.5000;0.1441;10.4823;
1321.8000;0.1465;10.4871;
1322.1000;0.1473;10.4895;
1322.4000;0.1506;10.5016;
1322.7000;0.1449;10.4895;
1323.0000;0.1457;10.4967;
1323.3000;0.1465;10.4967;
1323.6000;0.1441;10.4943;
1323.9000;0.1441;10.4919;
1324.2000;0.1498;10.5064;
1324.5000;0.1465;10.4919;
1324.8000;0.1433;10.4847;
1325.1000;0.1449;10.4919;
1325.4000;0.1449;10.4919;
1325.7000;0.1449;10.4847;
1326.0000;0.1368;10.4678;
1326.3000;0.1449;10.4750;
1326.6000;0.1457;10.4799;
1326.9000;0.1457;10.4871;
1327.2000;0.1425;10.4750;
1327.5000;0.1514;10.4967;
1327.8000;0.1449;10.4847;
1328.1000;0.1408;10.4774;
1328.4000;0.1425;10.4847;
1328.7000;0.1457;10.4895;
1329.0000;0.1457;10.4895;
1329.3000;0.1457;10.4895;
1329.6000;0.1465;10.4895;
1329.9000;0.1449;10.4919;
1330.2000;0.1449;10.4847;
1330.5000;0.1514;10.5088;
1330.8000;0.1465;10.5016;
1331.1000;0.1441;10.5016;
1331.4000;0.1473;10.5064;
1331.7000;0.1449;10.5016;
1332.0000;0.1449;10.5016;
1332.3000;0.1441;10.4991;
1332.6000;0.1433;10.4991;
1332.9000;0.1449;10.5016;
1333.2000;0.1465;10.5112;
1333.5000;0.1425;10.5016;
1333.8000;0.1449;10.5136;
1334.1000;0.1433;10.5016;
1334.4000;0.1457;10.5088;
1334.7000;0.1473;10.5088;
1335.0000;0.1465;10.4991;
1335.3000;0.1465;10.4943;
1335.6000;0.1465;10.4919;
1335.9000;0.1465;10.4991;
1336.2000;0.1449;10.5016;
1336.5000;0.1376;10.4726;
1336.8000;0.1441;10.4991;
1337.1000;0.1506;10.5160;
1337.4000;0.1457;10.5064;
1337.7000;0.1449;10.5040;
1338.0000;0.1457;10.4967;
1338.3000;0.1449;10.5016;
1338.6000;0.1457;10.5064;
1338.9000;0.1465;10.5233;
1339.2000;0.1449;10.5184;
1339.5000;0.1457;10.5233;
1339.8000;0.1465;10.5160;
1340.1000;0.1473;10.5184;
1340.4000;0.1425;10.5064;
1340.7000;0.1449;10.5088;
1341.0000;0.1457;10.4991;
1341.3000;0.1490;10.5088;
1341.6000;0.1433;10.4967;
1341.9000;0.1441;10.4943;
1342.2000;0.1449;10.4943;
1342.5000;0.1433;10.4943;
1342.8000;0.1457;10.5016;
1343.1000;0.1441;10.5016;
1343.4000;0.1449;10.5112;
1343.7000;0.1457;10.5088;
1344.0000;0.1465;10.5064;
1344.3000;0.1441;10.4967;
1344.6000;0.1473;10.4991;
1344.9000;0.1473;10.4943;
1345.2000;0.1449;10.4871;
1345.5000;0.1473;10.4871;
1345.8000;0.1416;10.4871;
1346.1000;0.1465;10.4991;
1346.4000;0.1465;10.4967;
1346.7000;0.1351;10.4702;
1347.0000;0.1465;10.4919;
1347.3000;0.1457;10.4943;
1347.6000;0.1408;10.4847;
1347.9000;0.1425;10.4799;
1348.2000;0.1449;10.4774;
1348.5000;0.1433;10.4774;
1348.8000;0.1441;10.4774;
1349.1000;0.1433;10.4750;
1349.4000;0.1449;10.4847;
1349.7000;0.1425;10.4726;
1350.0000;0.1457;10.4823;
1350.3000;0.1457;10.4847;
1350.6000;0.1465;10.4943;
1350.9000;0.1457;10.4895;
1351.2000;0.1441;10.4895;
1351.5000;0.1441;10.4895;
1351.8000;0.1449;10.4895;
1352.1000;0.1408;10.4774;
1352.4000;0.1465;10.4823;
1352.7000;0.1457;10.4871;
1353.0000;0.1555;10.5160;
1353.3000;0.1506;10.5088;
1353.6000;0.1302;10.4557;
1353.9000;0.1465;10.4943;
1354.2000;0.1457;10.4847;
1354.5000;0.1433;10.4774;
1354.8000;0.1457;10.4799;
1355.1000;0.1465;10.4750;
1355.4000;0.1457;10.4774;
1355.7000;0.1457;10.4871;
1356.0000;0.1457;10.4847;
1356.3000;0.1465;10.4871;
1356.6000;0.1481;10.4991;
1356.9000;0.1473;10.4967;
1357.2000;0.1465;10.4919;
1357.5000;0.1465;10.4943;
1357.8000;0.1441;10.4847;
1358.1000;0.1425;10.4895;
1358.4000;0.1465;10.5040;
1358.7000;0.1433;10.5064;
1359.0000;0.1457;10.5112;
1359.3000;0.1376;10.4895;
1359.6000;0.1457;10.5088;
1359.9000;0.1441;10.4991;
1360.2000;0.1425;10.4871;
1360.5000;0.1425;10.4895;
1360.8000;0.1465;10.4895;
1361.1000;0.1506;10.5064;
1361.4000;0.1481;10.4991;
1361.7000;0.1465;10.4943;
1362.0000;0.1441;10.4919;
1362.3000;0.1433;10.4943;
1362.6000;0.1449;10.4943;
1362.9000;0.1465;10.4919;
1363.2000;0.1457;10.4943;
1363.5000;0.1441;10.4895;
1363.8000;0.1465;10.4991;
1364.1000;0.1416;10.4991;
1364.4000;0.1449;10.5016;
1364.7000;0.1449;10.4991;
1365.0000;0.1465;10.4991;
1365.3000;0.1465;10.4967;
1365.6000;0.1449;10.4823;
1365.9000;0.1425;10.4702;
1366.2000;0.1433;10.4750;
1366.5000;0.1481;10.4847;
1366.8000;0.1449;10.4823;
1367.1000;0.1457;10.4895;
1367.4000;0.1449;10.4799;
1367.7000;0.1449;10.4847;
1368.0000;0.1449;10.4799;
1368.3000;0.1465;10.4799;
1368.6000;0.1465;10.4726;
1368.9000;0.1433;10.4726;
1369.2000;0.1457;10.4799;
1369.5000;0.1441;10.4678;
1369.8000;0.1408;10.4630;
1370.1000;0.1481;10.4799;
1370.4000;0.1481;10.4871;
1370.7000;0.1514;10.4919;
1371.0000;0.1465;10.4823;
1371.3000;0.1449;10.4895;
1371.6000;0.1376;10.4581;
1371.9000;0.1449;10.4823;
1372.2000;0.1416;10.4702;
1372.5000;0.1433;10.4823;
1372.8000;0.1433;10.4847;
1373.1000;0.1481;10.4895;
1373.4000;0.1481;10.4799;
1373.7000;0.1449;10.4750;
1374.0000;0.1457;10.4823;
1374.3000;0.1425;10.4750;
1374.6000;0.1449;10.4774;
1374.9000;0.1433;10.4823;
1375.2000;0.1465;10.4943;
1375.5000;0.1457;10.4967;
1375.8000;0.1441;10.4871;
1376.1000;0.1441;10.4847;
1376.4000;0.1457;10.4943;
1376.7000;0.1457;10.4991;
1377.0000;0.1481;10.5016;
1377.3000;0.1473;10.4919;
1377.6000;0.1441;10.4823;
1377.9000;0.1441;10.4847;
1378.2000;0.1555;10.5088;
1378.5000;0.1465;10.4750;
1378.8000;0.1449;10.4702;
1379.1000;0.1457;10.4774;
1379.4000;0.1449;10.4702;
1379.7000;0.1457;10.4726;
1380.0000;0.1449;10.4702;
1380.3000;0.1457;10.4799;
1380.6000;0.1481;10.4847;
1380.9000;0.1457;10.4799;
1381.2000;0.1441;10.4799;
1381.5000;0.1465;10.4774;
1381.8000;0.1449;10.4847;
1382.1000;0.1473;10.4991;
1382.4000;0.1441;10.4991;
1382.7000;0.1457;10.4991;
1383.0000;0.1457;10.4967;
1383.3000;0.1449;10.4943;
1383.6000;0.1449;10.4943;
1383.9000;0.1498;10.5040;
1384.2000;0.1408;10.4847;
1384.5000;0.1457;10.4943;
1384.8000;0.1465;10.4847;
1385.1000;0.1449;10.4823;
1385.4000;0.1441;10.4750;
1385.7000;0.1441;10.4750;
1386.0000;0.1473;10.4823;
1386.3000;0.1506;10.4871;
1386.6000;0.1449;10.4799;
1386.9000;0.1465;10.4823;
1387.2000;0.1441;10.4799;
1387.5000;0.1441;10.4895;
1387.8000;0.1457;10.4847;
1388.1000;0.1449;10.4895;
1388.4000;0.1457;10.4967;
1388.7000;0.1457;10.4967;
1389.0000;0.1441;10.4919;
1389.3000;0.1465;10.4991;
1389.6000;0.1473;10.4991;
1389.9000;0.1457;10.4943;
1390.2000;0.1449;10.4943;
1390.5000;0.1465;10.5088;
1390.8000;0.1473;10.5064;
1391.1000;0.1465;10.4991;
1391.4000;0.1449;10.4919;
1391.7000;0.1465;10.4919;
1392.0000;0.1473;10.4847;
1392.3000;0.1457;10.4799;
1392.6000;0.1473;10.4799;
1392.9000;0.1465;10.4823;
1393.2000;0.1457;10.4871;
1393.5000;0.1473;10.4871;
1393.8000;0.1425;10.4726;
1394.1000;0.1441;10.4774;
1394.4000;0.1465;10.4871;
1394.7000;0.1449;10.4919;
1395.0000;0.1457;10.4943;
1395.3000;0.1425;10.4919;
1395.6000;0.1433;10.4919;
1395.9000;0.1465;10.4991;
1396.2000;0.1457;10.5040;
1396.5000;0.1457;10.5016;
1396.8000;0.1547;10.5136;
1397.1000;0.1441;10.4895;
1397.4000;0.1457;10.4871;
1397.7000;0.1473;10.4919;
1398.0000;0.1441;10.4895;
1398.3000;0.1449;10.4967;
1398.6000;0.1465;10.5016;
1398.9000;0.1441;10.4967;
1399.2000;0.1441;10.4871;
1399.5000;0.1441;10.4774;
1399.8000;0.1425;10.4630;
