time/ms;Fluo/V;P700 deltaI/I x10³;
-199.8000;0.1530;10.4557;
-199.5000;0.1538;10.4461;
-199.2000;0.1538;10.4461;
-198.9000;0.1538;10.4389;
-198.6000;0.1538;10.4389;
-198.3000;0.1538;10.4292;
-198.0000;0.1498;10.4292;
-197.7000;0.1530;10.4389;
-197.4000;0.1538;10.4485;
-197.1000;0.1514;10.4413;
-196.8000;0.1538;10.4316;
-196.5000;0.1530;10.4340;
-196.2000;0.1538;10.4437;
-195.9000;0.1514;10.4316;
-195.6000;0.1571;10.4485;
-195.3000;0.1538;10.4461;
-195.0000;0.1563;10.4485;
-194.7000;0.1530;10.4485;
-194.4000;0.1522;10.4509;
-194.1000;0.1530;10.4437;
-193.8000;0.1522;10.4389;
-193.5000;0.1481;10.4292;
-193.2000;0.1530;10.4461;
-192.9000;0.1530;10.4437;
-192.6000;0.1522;10.4364;
-192.3000;0.1538;10.4389;
-192.0000;0.1538;10.4485;
-191.7000;0.1522;10.4533;
-191.4000;0.1530;10.4630;
-191.1000;0.1530;10.4606;
-190.8000;0.1506;10.4509;
-190.5000;0.1522;10.4509;
-190.2000;0.1530;10.4509;
-189.9000;0.1481;10.4485;
-189.6000;0.1538;10.4557;
-189.3000;0.1514;10.4533;
-189.0000;0.1595;10.4654;
-188.7000;0.1530;10.4581;
-188.4000;0.1538;10.4557;
-188.1000;0.1490;10.4389;
-187.8000;0.1538;10.4557;
-187.5000;0.1538;10.4581;
-187.2000;0.1538;10.4557;
-186.9000;0.1530;10.4630;
-186.6000;0.1555;10.4678;
-186.3000;0.1620;10.4823;
-186.0000;0.1530;10.4581;
-185.7000;0.1530;10.4606;
-185.4000;0.1514;10.4678;
-185.1000;0.1530;10.4702;
-184.8000;0.1538;10.4654;
-184.5000;0.1538;10.4606;
-184.2000;0.1538;10.4533;
-183.9000;0.1685;10.4919;
-183.6000;0.1538;10.4485;
-183.3000;0.1522;10.4461;
-183.0000;0.1628;10.4702;
-182.7000;0.1538;10.4533;
-182.4000;0.1514;10.4485;
-182.1000;0.1555;10.4557;
-181.8000;0.1555;10.4533;
-181.5000;0.1522;10.4413;
-181.2000;0.1498;10.4413;
-180.9000;0.1522;10.4533;
-180.6000;0.1530;10.4557;
-180.3000;0.1547;10.4533;
-180.0000;0.1538;10.4461;
-179.7000;0.1522;10.4413;
-179.4000;0.1538;10.4437;
-179.1000;0.1522;10.4461;
-178.8000;0.1547;10.4485;
-178.5000;0.1538;10.4413;
-178.2000;0.1612;10.4606;
-177.9000;0.1538;10.4437;
-177.6000;0.1538;10.4485;
-177.3000;0.1547;10.4581;
-177.0000;0.1530;10.4630;
-176.7000;0.1506;10.4533;
-176.4000;0.1514;10.4581;
-176.1000;0.1538;10.4606;
-175.8000;0.1522;10.4606;
-175.5000;0.1547;10.4654;
-175.2000;0.1530;10.4581;
-174.9000;0.1595;10.4702;
-174.6000;0.1530;10.4509;
-174.3000;0.1547;10.4581;
-174.0000;0.1563;10.4630;
-173.7000;0.1547;10.4654;
-173.4000;0.1522;10.4533;
-173.1000;0.1522;10.4437;
-172.8000;0.1538;10.4509;
-172.5000;0.1538;10.4509;
-172.2000;0.1522;10.4509;
-171.9000;0.1506;10.4581;
-171.6000;0.1490;10.4509;
-171.3000;0.1530;10.4557;
-171.0000;0.1547;10.4581;
-170.7000;0.1530;10.4557;
-170.4000;0.1514;10.4557;
-170.1000;0.1555;10.4654;
-169.8000;0.1530;10.4581;
-169.5000;0.1538;10.4557;
-169.2000;0.1538;10.4509;
-168.9000;0.1538;10.4509;
-168.6000;0.1547;10.4509;
-168.3000;0.1538;10.4485;
-168.0000;0.1538;10.4485;
-167.7000;0.1604;10.4606;
-167.4000;0.1563;10.4509;
-167.1000;0.1579;10.4630;
-166.8000;0.1457;10.4268;
-166.5000;0.1522;10.4437;
-166.2000;0.1514;10.4340;
-165.9000;0.1538;10.4389;
-165.6000;0.1498;10.4340;
-165.3000;0.1547;10.4461;
-165.0000;0.1490;10.4316;
-164.7000;0.1514;10.4268;
-164.4000;0.1555;10.4364;
-164.1000;0.1514;10.4316;
-163.8000;0.1538;10.4364;
-163.5000;0.1555;10.4413;
-163.2000;0.1538;10.4364;
-162.9000;0.1547;10.4413;
-162.6000;0.1538;10.4364;
-162.3000;0.1522;10.4364;
-162.0000;0.1530;10.4340;
-161.7000;0.1522;10.4340;
-161.4000;0.1538;10.4316;
-161.1000;0.1571;10.4461;
-160.8000;0.1522;10.4316;
-160.5000;0.1595;10.4557;
-160.2000;0.1538;10.4364;
-159.9000;0.1514;10.4196;
-159.6000;0.1522;10.4196;
-159.3000;0.1514;10.4123;
-159.0000;0.1538;10.4196;
-158.7000;0.1555;10.4292;
-158.4000;0.1522;10.4220;
-158.1000;0.1547;10.4292;
-157.8000;0.1547;10.4292;
-157.5000;0.1538;10.4316;
-157.2000;0.1522;10.4364;
-156.9000;0.1538;10.4437;
-156.6000;0.1522;10.4461;
-156.3000;0.1465;10.4316;
-156.0000;0.1530;10.4461;
-155.7000;0.1571;10.4533;
-155.4000;0.1506;10.4389;
-155.1000;0.1498;10.4340;
-154.8000;0.1514;10.4413;
-154.5000;0.1538;10.4533;
-154.2000;0.1465;10.4316;
-153.9000;0.1555;10.4557;
-153.6000;0.1490;10.4316;
-153.3000;0.1530;10.4485;
-153.0000;0.1514;10.4509;
-152.7000;0.1538;10.4630;
-152.4000;0.1522;10.4509;
-152.1000;0.1538;10.4533;
-151.8000;0.1522;10.4509;
-151.5000;0.1612;10.4726;
-151.2000;0.1425;10.4196;
-150.9000;0.1538;10.4437;
-150.6000;0.1628;10.4678;
-150.3000;0.1538;10.4461;
-150.0000;0.1530;10.4509;
-149.7000;0.1530;10.4461;
-149.4000;0.1514;10.4437;
-149.1000;0.1563;10.4485;
-148.8000;0.1498;10.4413;
-148.5000;0.1538;10.4461;
-148.2000;0.1530;10.4509;
-147.9000;0.1530;10.4581;
-147.6000;0.1522;10.4533;
-147.3000;0.1481;10.4364;
-147.0000;0.1506;10.4461;
-146.7000;0.1530;10.4557;
-146.4000;0.1538;10.4654;
-146.1000;0.1530;10.4581;
-145.8000;0.1571;10.4606;
-145.5000;0.1522;10.4389;
-145.2000;0.1538;10.4413;
-144.9000;0.1538;10.4340;
-144.6000;0.1530;10.4340;
-144.3000;0.1530;10.4268;
-144.0000;0.1530;10.4292;
-143.7000;0.1530;10.4413;
-143.4000;0.1506;10.4316;
-143.1000;0.1506;10.4316;
-142.8000;0.1530;10.4316;
-142.5000;0.1522;10.4364;
-142.2000;0.1538;10.4389;
-141.9000;0.1522;10.4316;
-141.6000;0.1506;10.4364;
-141.3000;0.1547;10.4437;
-141.0000;0.1538;10.4437;
-140.7000;0.1514;10.4364;
-140.4000;0.1522;10.4340;
-140.1000;0.1538;10.4413;
-139.8000;0.1538;10.4389;
-139.5000;0.1530;10.4364;
-139.2000;0.1514;10.4389;
-138.9000;0.1538;10.4389;
-138.6000;0.1538;10.4389;
-138.3000;0.1530;10.4340;
-138.0000;0.1514;10.4244;
-137.7000;0.1530;10.4292;
-137.4000;0.1506;10.4171;
-137.1000;0.1547;10.4316;
-136.8000;0.1604;10.4413;
-136.5000;0.1522;10.4196;
-136.2000;0.1506;10.4220;
-135.9000;0.1522;10.4340;
-135.6000;0.1506;10.4389;
-135.3000;0.1522;10.4509;
-135.0000;0.1538;10.4606;
-134.7000;0.1506;10.4533;
-134.4000;0.1530;10.4533;
-134.1000;0.1538;10.4485;
-133.8000;0.1530;10.4413;
-133.5000;0.1530;10.4437;
-133.2000;0.1514;10.4413;
-132.9000;0.1514;10.4413;
-132.6000;0.1522;10.4461;
-132.3000;0.1547;10.4461;
-132.0000;0.1555;10.4485;
-131.7000;0.1530;10.4340;
-131.4000;0.1522;10.4364;
-131.1000;0.1555;10.4485;
-130.8000;0.1547;10.4557;
-130.5000;0.1522;10.4557;
-130.2000;0.1538;10.4533;
-129.9000;0.1538;10.4606;
-129.6000;0.1538;10.4630;
-129.3000;0.1547;10.4581;
-129.0000;0.1530;10.4533;
-128.7000;0.1563;10.4557;
-128.4000;0.1449;10.4364;
-128.1000;0.1595;10.4823;
-127.8000;0.1530;10.4678;
-127.5000;0.1555;10.4774;
-127.2000;0.1579;10.4847;
-126.9000;0.1514;10.4702;
-126.6000;0.1555;10.4799;
-126.3000;0.1506;10.4726;
-126.0000;0.1530;10.4774;
-125.7000;0.1530;10.4678;
-125.4000;0.1522;10.4654;
-125.1000;0.1587;10.4823;
-124.8000;0.1522;10.4678;
-124.5000;0.1514;10.4702;
-124.2000;0.1449;10.4533;
-123.9000;0.1514;10.4726;
-123.6000;0.1547;10.4823;
-123.3000;0.1530;10.4678;
-123.0000;0.1506;10.4630;
-122.7000;0.1522;10.4654;
-122.4000;0.1522;10.4750;
-122.1000;0.1538;10.4823;
-121.8000;0.1514;10.4799;
-121.5000;0.1563;10.4943;
-121.2000;0.1547;10.4847;
-120.9000;0.1538;10.4774;
-120.6000;0.1530;10.4678;
-120.3000;0.1538;10.4702;
-120.0000;0.1530;10.4606;
-119.7000;0.1538;10.4630;
-119.4000;0.1538;10.4557;
-119.1000;0.1547;10.4678;
-118.8000;0.1538;10.4606;
-118.5000;0.1538;10.4654;
-118.2000;0.1547;10.4702;
-117.9000;0.1538;10.4654;
-117.6000;0.1538;10.4654;
-117.3000;0.1547;10.4630;
-117.0000;0.1547;10.4678;
-116.7000;0.1530;10.4606;
-116.4000;0.1571;10.4654;
-116.1000;0.1538;10.4678;
-115.8000;0.1530;10.4678;
-115.5000;0.1530;10.4581;
-115.2000;0.1457;10.4340;
-114.9000;0.1530;10.4509;
-114.6000;0.1547;10.4461;
-114.3000;0.1522;10.4461;
-114.0000;0.1530;10.4557;
-113.7000;0.1530;10.4630;
-113.4000;0.1547;10.4606;
-113.1000;0.1555;10.4581;
-112.8000;0.1538;10.4606;
-112.5000;0.1522;10.4557;
-112.2000;0.1595;10.4774;
-111.9000;0.1522;10.4533;
-111.6000;0.1514;10.4485;
-111.3000;0.1522;10.4461;
-111.0000;0.1538;10.4413;
-110.7000;0.1555;10.4461;
-110.4000;0.1538;10.4461;
-110.1000;0.1514;10.4389;
-109.8000;0.1506;10.4292;
-109.5000;0.1522;10.4389;
-109.2000;0.1530;10.4413;
-108.9000;0.1530;10.4437;
-108.6000;0.1538;10.4485;
-108.3000;0.1530;10.4485;
-108.0000;0.1547;10.4557;
-107.7000;0.1530;10.4461;
-107.4000;0.1530;10.4437;
-107.1000;0.1538;10.4485;
-106.8000;0.1530;10.4437;
-106.5000;0.1530;10.4461;
-106.2000;0.1514;10.4461;
-105.9000;0.1522;10.4509;
-105.6000;0.1587;10.4581;
-105.3000;0.1522;10.4437;
-105.0000;0.1514;10.4461;
-104.7000;0.1522;10.4509;
-104.4000;0.1538;10.4606;
-104.1000;0.1522;10.4581;
-103.8000;0.1514;10.4654;
-103.5000;0.1522;10.4702;
-103.2000;0.1473;10.4557;
-102.9000;0.1538;10.4678;
-102.6000;0.1506;10.4654;
-102.3000;0.1612;10.4895;
-102.0000;0.1547;10.4750;
-101.7000;0.1530;10.4654;
-101.4000;0.1522;10.4557;
-101.1000;0.1514;10.4581;
-100.8000;0.1571;10.4823;
-100.5000;0.1522;10.4509;
-100.2000;0.1498;10.4413;
-99.9000;0.1522;10.4509;
-99.6000;0.1506;10.4557;
-99.3000;0.1530;10.4557;
-99.0000;0.1506;10.4533;
-98.7000;0.1555;10.4654;
-98.4000;0.1538;10.4533;
-98.1000;0.1530;10.4437;
-97.8000;0.1538;10.4485;
-97.5000;0.1522;10.4413;
-97.2000;0.1522;10.4413;
-96.9000;0.1538;10.4485;
-96.6000;0.1530;10.4461;
-96.3000;0.1530;10.4437;
-96.0000;0.1514;10.4461;
-95.7000;0.1538;10.4485;
-95.4000;0.1538;10.4509;
-95.1000;0.1522;10.4533;
-94.8000;0.1538;10.4581;
-94.5000;0.1547;10.4557;
-94.2000;0.1522;10.4581;
-93.9000;0.1530;10.4461;
-93.6000;0.1522;10.4413;
-93.3000;0.1538;10.4340;
-93.0000;0.1538;10.4364;
-92.7000;0.1530;10.4389;
-92.4000;0.1522;10.4364;
-92.1000;0.1530;10.4461;
-91.8000;0.1514;10.4485;
-91.5000;0.1514;10.4413;
-91.2000;0.1604;10.4533;
-90.9000;0.1522;10.4340;
-90.6000;0.1538;10.4316;
-90.3000;0.1522;10.4316;
-90.0000;0.1538;10.4340;
-89.7000;0.1538;10.4340;
-89.4000;0.1538;10.4437;
-89.1000;0.1530;10.4533;
-88.8000;0.1547;10.4702;
-88.5000;0.1530;10.4726;
-88.2000;0.1514;10.4678;
-87.9000;0.1547;10.4654;
-87.6000;0.1538;10.4581;
-87.3000;0.1538;10.4654;
-87.0000;0.1547;10.4654;
-86.7000;0.1530;10.4630;
-86.4000;0.1538;10.4630;
-86.1000;0.1538;10.4678;
-85.8000;0.1538;10.4702;
-85.5000;0.1530;10.4630;
-85.2000;0.1530;10.4485;
-84.9000;0.1547;10.4581;
-84.6000;0.1522;10.4581;
-84.3000;0.1538;10.4606;
-84.0000;0.1571;10.4678;
-83.7000;0.1530;10.4630;
-83.4000;0.1498;10.4581;
-83.1000;0.1490;10.4606;
-82.8000;0.1538;10.4726;
-82.5000;0.1530;10.4702;
-82.2000;0.1522;10.4557;
-81.9000;0.1514;10.4485;
-81.6000;0.1538;10.4461;
-81.3000;0.1530;10.4461;
-81.0000;0.1538;10.4413;
-80.7000;0.1530;10.4413;
-80.4000;0.1538;10.4461;
-80.1000;0.1555;10.4557;
-79.8000;0.1530;10.4557;
-79.5000;0.1538;10.4678;
-79.2000;0.1538;10.4654;
-78.9000;0.1522;10.4606;
-78.6000;0.1522;10.4581;
-78.3000;0.1530;10.4485;
-78.0000;0.1514;10.4485;
-77.7000;0.1538;10.4509;
-77.4000;0.1538;10.4509;
-77.1000;0.1522;10.4581;
-76.8000;0.1620;10.4919;
-76.5000;0.1530;10.4678;
-76.2000;0.1530;10.4654;
-75.9000;0.1530;10.4630;
-75.6000;0.1522;10.4606;
-75.3000;0.1530;10.4678;
-75.0000;0.1530;10.4654;
-74.7000;0.1522;10.4654;
-74.4000;0.1538;10.4678;
-74.1000;0.1538;10.4726;
-73.8000;0.1538;10.4750;
-73.5000;0.1530;10.4702;
-73.2000;0.1506;10.4630;
-72.9000;0.1473;10.4557;
-72.6000;0.1530;10.4726;
-72.3000;0.1538;10.4654;
-72.0000;0.1530;10.4557;
-71.7000;0.1538;10.4509;
-71.4000;0.1514;10.4485;
-71.1000;0.1538;10.4557;
-70.8000;0.1506;10.4461;
-70.5000;0.1530;10.4557;
-70.2000;0.1514;10.4485;
-69.9000;0.1530;10.4461;
-69.6000;0.1555;10.4437;
-69.3000;0.1506;10.4268;
-69.0000;0.1498;10.4340;
-68.7000;0.1530;10.4389;
-68.4000;0.1587;10.4533;
-68.1000;0.1498;10.4437;
-67.8000;0.1514;10.4437;
-67.5000;0.1538;10.4461;
-67.2000;0.1530;10.4389;
-66.9000;0.1522;10.4340;
-66.6000;0.1522;10.4316;
-66.3000;0.1514;10.4316;
-66.0000;0.1506;10.4292;
-65.7000;0.1530;10.4364;
-65.4000;0.1522;10.4268;
-65.1000;0.1522;10.4316;
-64.8000;0.1530;10.4364;
-64.5000;0.1522;10.4413;
-64.2000;0.1498;10.4316;
-63.9000;0.1579;10.4437;
-63.6000;0.1506;10.4268;
-63.3000;0.1522;10.4340;
-63.0000;0.1506;10.4292;
-62.7000;0.1514;10.4292;
-62.4000;0.1595;10.4509;
-62.1000;0.1547;10.4340;
-61.8000;0.1530;10.4292;
-61.5000;0.1547;10.4364;
-61.2000;0.1563;10.4413;
-60.9000;0.1538;10.4413;
-60.6000;0.1530;10.4389;
-60.3000;0.1538;10.4340;
-60.0000;0.1506;10.4364;
-59.7000;0.1514;10.4364;
-59.4000;0.1538;10.4437;
-59.1000;0.1530;10.4437;
-58.8000;0.1538;10.4533;
-58.5000;0.1538;10.4581;
-58.2000;0.1538;10.4581;
-57.9000;0.1538;10.4557;
-57.6000;0.1522;10.4485;
-57.3000;0.1612;10.4630;
-57.0000;0.1538;10.4437;
-56.7000;0.1538;10.4340;
-56.4000;0.1530;10.4364;
-56.1000;0.1530;10.4461;
-55.8000;0.1563;10.4533;
-55.5000;0.1563;10.4654;
-55.2000;0.1530;10.4533;
-54.9000;0.1498;10.4413;
-54.6000;0.1522;10.4340;
-54.3000;0.1538;10.4437;
-54.0000;0.1506;10.4485;
-53.7000;0.1538;10.4606;
-53.4000;0.1522;10.4557;
-53.1000;0.1538;10.4581;
-52.8000;0.1571;10.4726;
-52.5000;0.1522;10.4533;
-52.2000;0.1530;10.4461;
-51.9000;0.1530;10.4413;
-51.6000;0.1538;10.4413;
-51.3000;0.1547;10.4437;
-51.0000;0.1530;10.4413;
-50.7000;0.1547;10.4485;
-50.4000;0.1530;10.4485;
-50.1000;0.1530;10.4485;
-49.8000;0.1530;10.4485;
-49.5000;0.1538;10.4437;
-49.2000;0.1538;10.4437;
-48.9000;0.1514;10.4389;
-48.6000;0.1530;10.4437;
-48.3000;0.1530;10.4461;
-48.0000;0.1538;10.4485;
-47.7000;0.1522;10.4437;
-47.4000;0.1522;10.4413;
-47.1000;0.1547;10.4509;
-46.8000;0.1595;10.4606;
-46.5000;0.1530;10.4461;
-46.2000;0.1506;10.4461;
-45.9000;0.1530;10.4533;
-45.6000;0.1441;10.4244;
-45.3000;0.1555;10.4461;
-45.0000;0.1530;10.4340;
-44.7000;0.1538;10.4389;
-44.4000;0.1538;10.4316;
-44.1000;0.1522;10.4316;
-43.8000;0.1514;10.4292;
-43.5000;0.1522;10.4316;
-43.2000;0.1636;10.4533;
-42.9000;0.1506;10.4196;
-42.6000;0.1530;10.4147;
-42.3000;0.1514;10.4003;
-42.0000;0.1522;10.4099;
-41.7000;0.1538;10.4147;
-41.4000;0.1530;10.4099;
-41.1000;0.1490;10.4027;
-40.8000;0.1530;10.4196;
-40.5000;0.1530;10.4316;
-40.2000;0.1530;10.4268;
-39.9000;0.1522;10.4292;
-39.6000;0.1530;10.4340;
-39.3000;0.1530;10.4413;
-39.0000;0.1555;10.4437;
-38.7000;0.1538;10.4413;
-38.4000;0.1530;10.4413;
-38.1000;0.1538;10.4364;
-37.8000;0.1563;10.4437;
-37.5000;0.1490;10.4171;
-37.2000;0.1522;10.4268;
-36.9000;0.1530;10.4292;
-36.6000;0.1465;10.4196;
-36.3000;0.1555;10.4340;
-36.0000;0.1530;10.4292;
-35.7000;0.1547;10.4413;
-35.4000;0.1538;10.4389;
-35.1000;0.1473;10.4196;
-34.8000;0.1530;10.4196;
-34.5000;0.1530;10.4196;
-34.2000;0.1514;10.4099;
-33.9000;0.1522;10.4220;
-33.6000;0.1530;10.4220;
-33.3000;0.1563;10.4413;
-33.0000;0.1522;10.4268;
-32.7000;0.1538;10.4292;
-32.4000;0.1538;10.4220;
-32.1000;0.1408;10.3858;
-31.8000;0.1538;10.4099;
-31.5000;0.1522;10.4075;
-31.2000;0.1538;10.4123;
-30.9000;0.1530;10.4220;
-30.6000;0.1538;10.4316;
-30.3000;0.1514;10.4316;
-30.0000;0.1522;10.4389;
-29.7000;0.1522;10.4340;
-29.4000;0.1514;10.4340;
-29.1000;0.1538;10.4364;
-28.8000;0.1522;10.4316;
-28.5000;0.1481;10.4244;
-28.2000;0.1522;10.4340;
-27.9000;0.1522;10.4316;
-27.6000;0.1538;10.4316;
-27.3000;0.1538;10.4268;
-27.0000;0.1538;10.4220;
-26.7000;0.1538;10.4244;
-26.4000;0.1547;10.4340;
-26.1000;0.1538;10.4389;
-25.8000;0.1538;10.4413;
-25.5000;0.1538;10.4413;
-25.2000;0.1538;10.4364;
-24.9000;0.1547;10.4220;
-24.6000;0.1530;10.4244;
-24.3000;0.1530;10.4364;
-24.0000;0.1514;10.4364;
-23.7000;0.1506;10.4316;
-23.4000;0.1547;10.4437;
-23.1000;0.1522;10.4413;
-22.8000;0.1498;10.4413;
-22.5000;0.1522;10.4461;
-22.2000;0.1514;10.4461;
-21.9000;0.1522;10.4413;
-21.6000;0.1514;10.4364;
-21.3000;0.1530;10.4389;
-21.0000;0.1547;10.4461;
-20.7000;0.1514;10.4485;
-20.4000;0.1449;10.4340;
-20.1000;0.1555;10.4606;
-19.8000;0.1481;10.4340;
-19.5000;0.1514;10.4413;
-19.2000;0.1506;10.4268;
-18.9000;0.1563;10.4509;
-18.6000;0.1530;10.4437;
-18.3000;0.1530;10.4485;
-18.0000;0.1522;10.4413;
-17.7000;0.1530;10.4437;
-17.4000;0.1530;10.4461;
-17.1000;0.1563;10.4557;
-16.8000;0.1530;10.4437;
-16.5000;0.1538;10.4485;
-16.2000;0.1595;10.4581;
-15.9000;0.1481;10.4340;
-15.6000;0.1530;10.4437;
-15.3000;0.1530;10.4533;
-15.0000;0.1595;10.4750;
-14.7000;0.1522;10.4485;
-14.4000;0.1547;10.4509;
-14.1000;0.1604;10.4654;
-13.8000;0.1530;10.4509;
-13.5000;0.1547;10.4509;
-13.2000;0.1530;10.4437;
-12.9000;0.1530;10.4364;
-12.6000;0.1416;10.4099;
-12.3000;0.1547;10.4364;
-12.0000;0.1506;10.4268;
-11.7000;0.1538;10.4244;
-11.4000;0.1514;10.4220;
-11.1000;0.1522;10.4340;
-10.8000;0.1522;10.4364;
-10.5000;0.1530;10.4292;
-10.2000;0.1522;10.4340;
-9.9000;0.1514;10.4244;
-9.6000;0.1522;10.4220;
-9.3000;0.1628;10.4581;
-9.0000;0.1628;10.4581;
-8.7000;0.1530;10.4340;
-8.4000;0.1538;10.4461;
-8.1000;0.1530;10.4389;
-7.8000;0.1555;10.4389;
-7.5000;0.1498;10.4292;
-7.2000;0.1506;10.4316;
-6.9000;0.1547;10.4316;
-6.6000;0.1530;10.4268;
-6.3000;0.1514;10.4268;
-6.0000;0.1490;10.4171;
-5.7000;0.1514;10.4268;
-5.4000;0.1514;10.4244;
-5.1000;0.1538;10.4220;
-4.8000;0.1530;10.4196;
-4.5000;0.1514;10.4196;
-4.2000;0.1555;10.4147;
-3.9000;0.1530;10.4123;
-3.6000;0.1530;10.4147;
-3.3000;0.1522;10.4123;
-3.0000;0.1547;10.4220;
-2.7000;0.1514;10.4123;
-2.4000;0.1530;10.4171;
-2.1000;0.1530;10.4147;
-1.8000;0.1530;10.4123;
-1.5000;0.1530;10.4123;
-1.2000;0.1547;10.4292;
-0.9000;0.1563;10.4364;
-0.6000;0.1530;10.4244;
-0.3000;0.1538;10.4196;
0.0000;0.1538;10.4196;
0.3000;0.1538;10.4437;
0.6000;0.1490;10.4485;
0.9000;0.1563;10.4847;
1.2000;0.1571;10.5064;
1.5000;0.1595;10.5281;
1.8000;0.1620;10.5522;
2.1000;0.1604;10.5643;
2.4000;0.1595;10.5667;
2.7000;0.1620;10.5836;
3.0000;0.1628;10.5980;
3.3000;0.1579;10.5908;
3.6000;0.1604;10.6101;
3.9000;0.1587;10.6125;
4.2000;0.1661;10.6390;
4.5000;0.1661;10.6535;
4.8000;0.1758;10.6776;
5.1000;0.1661;10.6559;
5.4000;0.1669;10.6632;
5.7000;0.1669;10.6800;
6.0000;0.1555;10.6487;
6.3000;0.1669;10.6656;
6.6000;0.1644;10.6607;
6.9000;0.1652;10.6632;
7.2000;0.1644;10.6535;
7.5000;0.1644;10.6535;
7.8000;0.1661;10.6632;
8.1000;0.1652;10.6607;
8.4000;0.1652;10.6728;
8.7000;0.1661;10.6776;
9.0000;0.1628;10.6776;
9.3000;0.1685;10.6849;
9.6000;0.1644;10.6728;
9.9000;0.1669;10.6800;
10.2000;0.1677;10.6776;
10.5000;0.1620;10.6728;
10.8000;0.1661;10.6849;
11.1000;0.1669;10.6776;
11.4000;0.1661;10.6704;
11.7000;0.1652;10.6728;
12.0000;0.1669;10.6704;
12.3000;0.1661;10.6559;
12.6000;0.1661;10.6607;
12.9000;0.1709;10.6752;
13.2000;0.1661;10.6752;
13.5000;0.1652;10.6776;
13.8000;0.1644;10.6800;
14.1000;0.1652;10.6752;
14.4000;0.1669;10.6752;
14.7000;0.1669;10.6752;
15.0000;0.1661;10.6704;
15.3000;0.1669;10.6704;
15.6000;0.1669;10.6776;
15.9000;0.1685;10.6825;
16.2000;0.1661;10.6752;
16.5000;0.1669;10.6825;
16.8000;0.1693;10.6897;
17.1000;0.1677;10.6873;
17.4000;0.1685;10.6825;
17.7000;0.1677;10.6800;
18.0000;0.1669;10.6752;
18.3000;0.1661;10.6752;
18.6000;0.1677;10.6825;
18.9000;0.1661;10.6800;
19.2000;0.1669;10.6873;
19.5000;0.1669;10.6921;
19.8000;0.1652;10.6776;
20.1000;0.1685;10.6825;
20.4000;0.1677;10.6800;
20.7000;0.1661;10.6728;
21.0000;0.1685;10.6728;
21.3000;0.1677;10.6800;
21.6000;0.1661;10.6825;
21.9000;0.1677;10.6969;
22.2000;0.1677;10.7018;
22.5000;0.1644;10.6873;
22.8000;0.1661;10.6945;
23.1000;0.1685;10.6969;
23.4000;0.1669;10.6945;
23.7000;0.1652;10.6800;
24.0000;0.1661;10.6800;
24.3000;0.1669;10.6752;
24.6000;0.1766;10.7114;
24.9000;0.1661;10.6825;
25.2000;0.1644;10.6752;
25.5000;0.1661;10.6776;
25.8000;0.1685;10.6825;
26.1000;0.1669;10.6825;
26.4000;0.1538;10.6559;
26.7000;0.1669;10.6897;
27.0000;0.1677;10.6993;
27.3000;0.1644;10.6993;
27.6000;0.1652;10.6921;
27.9000;0.1644;10.6800;
28.2000;0.1669;10.6825;
28.5000;0.1661;10.6945;
28.8000;0.1693;10.6993;
29.1000;0.1604;10.6704;
29.4000;0.1636;10.6800;
29.7000;0.1669;10.6945;
30.0000;0.1677;10.6945;
30.3000;0.1661;10.6825;
30.6000;0.1661;10.6849;
30.9000;0.1669;10.6849;
31.2000;0.1669;10.6800;
31.5000;0.1677;10.6776;
31.8000;0.1669;10.6728;
32.1000;0.1677;10.6728;
32.4000;0.1701;10.6728;
32.7000;0.1677;10.6607;
33.0000;0.1636;10.6559;
33.3000;0.1677;10.6583;
33.6000;0.1563;10.6366;
33.9000;0.1709;10.6728;
34.2000;0.1604;10.6487;
34.5000;0.1750;10.6825;
34.8000;0.1758;10.6849;
35.1000;0.1636;10.6559;
35.4000;0.1652;10.6656;
35.7000;0.1661;10.6632;
36.0000;0.1677;10.6583;
36.3000;0.1661;10.6607;
36.6000;0.1644;10.6607;
36.9000;0.1677;10.6800;
37.2000;0.1669;10.6800;
37.5000;0.1677;10.6897;
37.8000;0.1652;10.6752;
38.1000;0.1652;10.6680;
38.4000;0.1677;10.6825;
38.7000;0.1677;10.6873;
39.0000;0.1652;10.6897;
39.3000;0.1555;10.6632;
39.6000;0.1644;10.6849;
39.9000;0.1693;10.6969;
40.2000;0.1661;10.6873;
40.5000;0.1677;10.6897;
40.8000;0.1644;10.6776;
41.1000;0.1669;10.6921;
41.4000;0.1669;10.7018;
41.7000;0.1669;10.6945;
42.0000;0.1677;10.6945;
42.3000;0.1677;10.6897;
42.6000;0.1669;10.6921;
42.9000;0.1677;10.6921;
43.2000;0.1669;10.6945;
43.5000;0.1661;10.6921;
43.8000;0.1677;10.6969;
44.1000;0.1669;10.7018;
44.4000;0.1644;10.6993;
44.7000;0.1677;10.6993;
45.0000;0.1677;10.6945;
45.3000;0.1604;10.6728;
45.6000;0.1669;10.6873;
45.9000;0.1644;10.6825;
46.2000;0.1669;10.6873;
46.5000;0.1661;10.6800;
46.8000;0.1677;10.6800;
47.1000;0.1644;10.6728;
47.4000;0.1669;10.6776;
47.7000;0.1661;10.6776;
48.0000;0.1677;10.6849;
48.3000;0.1669;10.6921;
48.6000;0.1661;10.6945;
48.9000;0.1677;10.6921;
49.2000;0.1669;10.6921;
49.5000;0.1644;10.6945;
49.8000;0.1693;10.7114;
50.1000;0.1661;10.6993;
50.4000;0.1677;10.7042;
50.7000;0.1677;10.7042;
51.0000;0.1661;10.6993;
51.3000;0.1750;10.7283;
51.6000;0.1628;10.6849;
51.9000;0.1677;10.6921;
52.2000;0.1661;10.6752;
52.5000;0.1669;10.6800;
52.8000;0.1677;10.6849;
53.1000;0.1669;10.6825;
53.4000;0.1652;10.6897;
53.7000;0.1669;10.6825;
54.0000;0.1628;10.6656;
54.3000;0.1669;10.6607;
54.6000;0.1652;10.6583;
54.9000;0.1669;10.6656;
55.2000;0.1661;10.6680;
55.5000;0.1669;10.6632;
55.8000;0.1734;10.6728;
56.1000;0.1652;10.6583;
56.4000;0.1604;10.6318;
56.7000;0.1669;10.6439;
57.0000;0.1685;10.6463;
57.3000;0.1766;10.6704;
57.6000;0.1636;10.6294;
57.9000;0.1734;10.6632;
58.2000;0.1677;10.6415;
58.5000;0.1661;10.6342;
58.8000;0.1661;10.6294;
59.1000;0.1628;10.6222;
59.4000;0.1669;10.6463;
59.7000;0.1661;10.6511;
60.0000;0.1636;10.6511;
60.3000;0.1661;10.6535;
60.6000;0.1677;10.6583;
60.9000;0.1677;10.6559;
61.2000;0.1661;10.6559;
61.5000;0.1669;10.6511;
61.8000;0.1685;10.6511;
62.1000;0.1628;10.6415;
62.4000;0.1661;10.6487;
62.7000;0.1661;10.6511;
63.0000;0.1652;10.6463;
63.3000;0.1612;10.6342;
63.6000;0.1685;10.6607;
63.9000;0.1669;10.6559;
64.2000;0.1669;10.6632;
64.5000;0.1685;10.6680;
64.8000;0.1652;10.6583;
65.1000;0.1652;10.6704;
65.4000;0.1669;10.6728;
65.7000;0.1661;10.6704;
66.0000;0.1669;10.6704;
66.3000;0.1669;10.6704;
66.6000;0.1652;10.6607;
66.9000;0.1661;10.6632;
67.2000;0.1661;10.6607;
67.5000;0.1652;10.6656;
67.8000;0.1652;10.6680;
68.1000;0.1677;10.6752;
68.4000;0.1661;10.6752;
68.7000;0.1669;10.6800;
69.0000;0.1677;10.6776;
69.3000;0.1636;10.6800;
69.6000;0.1661;10.6825;
69.9000;0.1669;10.6728;
70.2000;0.1636;10.6680;
70.5000;0.1669;10.6873;
70.8000;0.1636;10.6800;
71.1000;0.1652;10.6873;
71.4000;0.1734;10.7042;
71.7000;0.1669;10.6873;
72.0000;0.1677;10.6921;
72.3000;0.1579;10.6680;
72.6000;0.1669;10.6993;
72.9000;0.1669;10.7042;
73.2000;0.1669;10.6969;
73.5000;0.1661;10.6969;
73.8000;0.1669;10.6945;
74.1000;0.1652;10.6897;
74.4000;0.1547;10.6487;
74.7000;0.1612;10.6583;
75.0000;0.1726;10.6825;
75.3000;0.1750;10.6849;
75.6000;0.1661;10.6632;
75.9000;0.1612;10.6511;
76.2000;0.1644;10.6632;
76.5000;0.1652;10.6704;
76.8000;0.1636;10.6680;
77.1000;0.1620;10.6535;
77.4000;0.1644;10.6511;
77.7000;0.1652;10.6559;
78.0000;0.1538;10.6197;
78.3000;0.1677;10.6583;
78.6000;0.1661;10.6559;
78.9000;0.1677;10.6559;
79.2000;0.1669;10.6607;
79.5000;0.1669;10.6607;
79.8000;0.1669;10.6656;
80.1000;0.1693;10.6776;
80.4000;0.1661;10.6656;
80.7000;0.1677;10.6704;
81.0000;0.1685;10.6752;
81.3000;0.1669;10.6776;
81.6000;0.1661;10.6800;
81.9000;0.1661;10.6704;
82.2000;0.1677;10.6825;
82.5000;0.1718;10.6945;
82.8000;0.1669;10.6776;
83.1000;0.1669;10.6632;
83.4000;0.1652;10.6607;
83.7000;0.1766;10.6945;
84.0000;0.1669;10.6583;
84.3000;0.1677;10.6487;
84.6000;0.1677;10.6463;
84.9000;0.1604;10.6342;
85.2000;0.1604;10.6318;
85.5000;0.1661;10.6487;
85.8000;0.1644;10.6511;
86.1000;0.1677;10.6607;
86.4000;0.1661;10.6559;
86.7000;0.1669;10.6632;
87.0000;0.1587;10.6463;
87.3000;0.1685;10.6704;
87.6000;0.1652;10.6607;
87.9000;0.1644;10.6559;
88.2000;0.1652;10.6656;
88.5000;0.1758;10.6873;
88.8000;0.1661;10.6632;
89.1000;0.1636;10.6535;
89.4000;0.1652;10.6463;
89.7000;0.1669;10.6463;
90.0000;0.1661;10.6390;
90.3000;0.1661;10.6366;
90.6000;0.1669;10.6366;
90.9000;0.1652;10.6415;
91.2000;0.1677;10.6366;
91.5000;0.1661;10.6366;
91.8000;0.1652;10.6439;
92.1000;0.1661;10.6511;
92.4000;0.1669;10.6559;
92.7000;0.1661;10.6607;
93.0000;0.1661;10.6583;
93.3000;0.1693;10.6752;
93.6000;0.1661;10.6800;
93.9000;0.1652;10.6800;
94.2000;0.1652;10.6897;
94.5000;0.1685;10.6921;
94.8000;0.1669;10.6873;
95.1000;0.1652;10.6825;
95.4000;0.1685;10.6897;
95.7000;0.1669;10.6800;
96.0000;0.1669;10.6849;
96.3000;0.1652;10.6800;
96.6000;0.1669;10.6752;
96.9000;0.1652;10.6752;
97.2000;0.1709;10.6921;
97.5000;0.1661;10.6776;
97.8000;0.1652;10.6776;
98.1000;0.1677;10.6825;
98.4000;0.1669;10.6776;
98.7000;0.1661;10.6776;
99.0000;0.1636;10.6632;
99.3000;0.1750;10.6921;
99.6000;0.1661;10.6607;
99.9000;0.1652;10.6607;
100.2000;0.1661;10.6656;
100.5000;0.1669;10.6632;
100.8000;0.1661;10.6656;
101.1000;0.1661;10.6632;
101.4000;0.1579;10.6463;
101.7000;0.1661;10.6583;
102.0000;0.1661;10.6680;
102.3000;0.1677;10.6704;
102.6000;0.1693;10.6800;
102.9000;0.1628;10.6583;
103.2000;0.1661;10.6704;
103.5000;0.1652;10.6752;
103.8000;0.1669;10.6825;
104.1000;0.1693;10.6969;
104.4000;0.1750;10.7186;
104.7000;0.1644;10.6921;
105.0000;0.1636;10.6873;
105.3000;0.1652;10.6873;
105.6000;0.1661;10.6849;
105.9000;0.1628;10.6800;
106.2000;0.1669;10.6897;
106.5000;0.1636;10.6752;
106.8000;0.1644;10.6776;
107.1000;0.1652;10.6728;
107.4000;0.1669;10.6752;
107.7000;0.1604;10.6632;
108.0000;0.1669;10.6752;
108.3000;0.1669;10.6752;
108.6000;0.1661;10.6752;
108.9000;0.1669;10.6656;
109.2000;0.1661;10.6728;
109.5000;0.1669;10.6728;
109.8000;0.1661;10.6849;
110.1000;0.1661;10.6921;
110.4000;0.1628;10.6849;
110.7000;0.1644;10.6873;
111.0000;0.1661;10.6873;
111.3000;0.1669;10.6849;
111.6000;0.1652;10.6849;
111.9000;0.1636;10.6728;
112.2000;0.1669;10.6680;
112.5000;0.1644;10.6583;
112.8000;0.1669;10.6680;
113.1000;0.1652;10.6704;
113.4000;0.1661;10.6800;
113.7000;0.1677;10.6873;
114.0000;0.1652;10.6897;
114.3000;0.1669;10.6921;
114.6000;0.1652;10.6897;
114.9000;0.1636;10.6800;
115.2000;0.1677;10.6849;
115.5000;0.1661;10.6728;
115.8000;0.1652;10.6680;
116.1000;0.1661;10.6728;
116.4000;0.1612;10.6559;
116.7000;0.1652;10.6704;
117.0000;0.1661;10.6704;
117.3000;0.1628;10.6583;
117.6000;0.1652;10.6607;
117.9000;0.1652;10.6607;
118.2000;0.1669;10.6680;
118.5000;0.1644;10.6607;
118.8000;0.1669;10.6656;
119.1000;0.1661;10.6632;
119.4000;0.1652;10.6704;
119.7000;0.1677;10.6728;
120.0000;0.1677;10.6800;
120.3000;0.1652;10.6752;
120.6000;0.1685;10.6825;
120.9000;0.1661;10.6921;
121.2000;0.1652;10.6969;
121.5000;0.1661;10.6945;
121.8000;0.1661;10.6921;
122.1000;0.1661;10.6993;
122.4000;0.1644;10.6897;
122.7000;0.1661;10.6945;
123.0000;0.1669;10.6969;
123.3000;0.1669;10.7018;
123.6000;0.1644;10.6849;
123.9000;0.1652;10.6945;
124.2000;0.1652;10.6969;
124.5000;0.1661;10.6969;
124.8000;0.1620;10.6800;
125.1000;0.1652;10.6921;
125.4000;0.1661;10.6825;
125.7000;0.1652;10.6873;
126.0000;0.1652;10.6945;
126.3000;0.1652;10.6969;
126.6000;0.1547;10.6776;
126.9000;0.1669;10.7066;
127.2000;0.1644;10.7018;
127.5000;0.1628;10.6921;
127.8000;0.1652;10.6897;
128.1000;0.1709;10.7042;
128.4000;0.1669;10.6993;
128.7000;0.1652;10.6921;
129.0000;0.1669;10.6945;
129.3000;0.1685;10.6945;
129.6000;0.1644;10.6849;
129.9000;0.1636;10.6849;
130.2000;0.1620;10.6776;
130.5000;0.1669;10.6921;
130.8000;0.1661;10.6849;
131.1000;0.1661;10.6752;
131.4000;0.1661;10.6728;
131.7000;0.1661;10.6776;
132.0000;0.1669;10.6776;
132.3000;0.1669;10.6800;
132.6000;0.1644;10.6752;
132.9000;0.1661;10.6752;
133.2000;0.1669;10.6800;
133.5000;0.1661;10.6825;
133.8000;0.1661;10.6825;
134.1000;0.1669;10.6849;
134.4000;0.1661;10.6800;
134.7000;0.1669;10.6825;
135.0000;0.1644;10.6728;
135.3000;0.1661;10.6800;
135.6000;0.1661;10.6825;
135.9000;0.1661;10.6897;
136.2000;0.1652;10.6945;
136.5000;0.1652;10.6969;
136.8000;0.1669;10.6873;
137.1000;0.1644;10.6825;
137.4000;0.1636;10.6825;
137.7000;0.1644;10.6776;
138.0000;0.1661;10.6849;
138.3000;0.1669;10.6849;
138.6000;0.1644;10.6849;
138.9000;0.1661;10.6873;
139.2000;0.1661;10.6849;
139.5000;0.1685;10.6873;
139.8000;0.1677;10.6897;
140.1000;0.1652;10.6873;
140.4000;0.1661;10.6800;
140.7000;0.1652;10.6776;
141.0000;0.1661;10.6825;
141.3000;0.1636;10.6728;
141.6000;0.1693;10.6825;
141.9000;0.1644;10.6680;
142.2000;0.1652;10.6704;
142.5000;0.1652;10.6680;
142.8000;0.1636;10.6607;
143.1000;0.1652;10.6728;
143.4000;0.1661;10.6776;
143.7000;0.1636;10.6704;
144.0000;0.1636;10.6704;
144.3000;0.1669;10.6849;
144.6000;0.1677;10.6800;
144.9000;0.1652;10.6776;
145.2000;0.1661;10.6825;
145.5000;0.1661;10.6921;
145.8000;0.1742;10.7114;
146.1000;0.1661;10.6897;
146.4000;0.1661;10.6800;
146.7000;0.1595;10.6439;
147.0000;0.1636;10.6607;
147.3000;0.1644;10.6680;
147.6000;0.1669;10.6728;
147.9000;0.1620;10.6559;
148.2000;0.1669;10.6680;
148.5000;0.1587;10.6535;
148.8000;0.1766;10.7090;
149.1000;0.1612;10.6776;
149.4000;0.1661;10.6849;
149.7000;0.1661;10.6825;
150.0000;0.1612;10.6680;
150.3000;0.1661;10.6752;
150.6000;0.1661;10.6776;
150.9000;0.1652;10.6825;
151.2000;0.1661;10.6873;
151.5000;0.1661;10.6921;
151.8000;0.1661;10.6921;
152.1000;0.1652;10.6921;
152.4000;0.1652;10.6969;
152.7000;0.1652;10.6993;
153.0000;0.1644;10.6993;
153.3000;0.1661;10.6993;
153.6000;0.1644;10.6993;
153.9000;0.1661;10.7018;
154.2000;0.1775;10.7331;
154.5000;0.1661;10.6945;
154.8000;0.1661;10.6873;
155.1000;0.1644;10.6800;
155.4000;0.1669;10.6873;
155.7000;0.1652;10.6800;
156.0000;0.1636;10.6825;
156.3000;0.1636;10.6849;
156.6000;0.1644;10.6800;
156.9000;0.1661;10.6680;
157.2000;0.1571;10.6511;
157.5000;0.1685;10.6776;
157.8000;0.1644;10.6800;
158.1000;0.1652;10.6873;
158.4000;0.1636;10.6800;
158.7000;0.1661;10.6897;
159.0000;0.1661;10.6897;
159.3000;0.1652;10.6873;
159.6000;0.1669;10.6897;
159.9000;0.1669;10.6945;
160.2000;0.1669;10.6969;
160.5000;0.1661;10.6921;
160.8000;0.1644;10.6921;
161.1000;0.1669;10.6993;
161.4000;0.1636;10.7042;
161.7000;0.1661;10.7090;
162.0000;0.1620;10.6993;
162.3000;0.1644;10.6969;
162.6000;0.1669;10.6969;
162.9000;0.1644;10.6945;
163.2000;0.1644;10.6897;
163.5000;0.1636;10.6921;
163.8000;0.1652;10.6993;
164.1000;0.1636;10.6921;
164.4000;0.1652;10.6993;
164.7000;0.1661;10.6945;
165.0000;0.1652;10.6945;
165.3000;0.1734;10.7138;
165.6000;0.1652;10.6921;
165.9000;0.1644;10.6969;
166.2000;0.1661;10.7090;
166.5000;0.1652;10.7066;
166.8000;0.1669;10.7138;
167.1000;0.1652;10.7018;
167.4000;0.1661;10.6945;
167.7000;0.1661;10.6776;
168.0000;0.1693;10.6825;
168.3000;0.1644;10.6656;
168.6000;0.1587;10.6463;
168.9000;0.1669;10.6704;
169.2000;0.1595;10.6535;
169.5000;0.1750;10.6897;
169.8000;0.1685;10.6776;
170.1000;0.1685;10.6800;
170.4000;0.1620;10.6728;
170.7000;0.1783;10.7090;
171.0000;0.1636;10.6776;
171.3000;0.1644;10.6752;
171.6000;0.1661;10.6680;
171.9000;0.1652;10.6583;
172.2000;0.1547;10.6270;
172.5000;0.1669;10.6632;
172.8000;0.1644;10.6728;
173.1000;0.1701;10.6873;
173.4000;0.1652;10.6704;
173.7000;0.1644;10.6704;
174.0000;0.1661;10.6728;
174.3000;0.1644;10.6632;
174.6000;0.1644;10.6583;
174.9000;0.1652;10.6559;
175.2000;0.1669;10.6632;
175.5000;0.1685;10.6680;
175.8000;0.1652;10.6704;
176.1000;0.1709;10.6825;
176.4000;0.1661;10.6680;
176.7000;0.1579;10.6439;
177.0000;0.1652;10.6656;
177.3000;0.1652;10.6632;
177.6000;0.1636;10.6607;
177.9000;0.1595;10.6511;
178.2000;0.1644;10.6583;
178.5000;0.1661;10.6704;
178.8000;0.1661;10.6825;
179.1000;0.1718;10.7066;
179.4000;0.1677;10.6945;
179.7000;0.1612;10.6752;
180.0000;0.1620;10.6849;
180.3000;0.1612;10.6752;
180.6000;0.1644;10.6873;
180.9000;0.1661;10.6969;
181.2000;0.1661;10.7042;
181.5000;0.1669;10.6969;
181.8000;0.1652;10.6993;
182.1000;0.1652;10.7018;
182.4000;0.1661;10.6969;
182.7000;0.1652;10.6993;
183.0000;0.1636;10.6945;
183.3000;0.1579;10.6800;
183.6000;0.1661;10.6969;
183.9000;0.1661;10.6969;
184.2000;0.1652;10.6969;
184.5000;0.1669;10.6921;
184.8000;0.1661;10.6873;
185.1000;0.1693;10.6873;
185.4000;0.1661;10.6825;
185.7000;0.1677;10.6921;
186.0000;0.1661;10.6873;
186.3000;0.1620;10.6752;
186.6000;0.1652;10.6800;
186.9000;0.1652;10.6825;
187.2000;0.1636;10.6800;
187.5000;0.1661;10.6849;
187.8000;0.1628;10.6800;
188.1000;0.1636;10.6897;
188.4000;0.1620;10.6873;
188.7000;0.1636;10.6969;
189.0000;0.1652;10.7018;
189.3000;0.1669;10.7066;
189.6000;0.1701;10.7138;
189.9000;0.1661;10.6969;
190.2000;0.1644;10.6993;
190.5000;0.1693;10.7042;
190.8000;0.1661;10.6993;
191.1000;0.1644;10.6993;
191.4000;0.1677;10.7066;
191.7000;0.1661;10.6993;
192.0000;0.1661;10.7042;
192.3000;0.1636;10.6993;
192.6000;0.1652;10.7114;
192.9000;0.1685;10.7307;
193.2000;0.1636;10.7210;
193.5000;0.1628;10.7114;
193.8000;0.1620;10.7042;
194.1000;0.1669;10.7114;
194.4000;0.1652;10.7114;
194.7000;0.1644;10.7018;
195.0000;0.1685;10.7090;
195.3000;0.1644;10.7066;
195.6000;0.1669;10.7138;
195.9000;0.1652;10.7114;
196.2000;0.1669;10.7210;
196.5000;0.1644;10.7114;
196.8000;0.1661;10.7066;
197.1000;0.1652;10.7042;
197.4000;0.1644;10.7018;
197.7000;0.1661;10.7090;
198.0000;0.1628;10.7186;
198.3000;0.1612;10.7114;
198.6000;0.1636;10.7114;
198.9000;0.1636;10.7090;
199.2000;0.1644;10.7018;
199.5000;0.1693;10.7186;
199.8000;0.1677;10.7090;
200.1000;0.1685;10.7090;
200.4000;0.1644;10.6945;
200.7000;0.1636;10.6921;
201.0000;0.1669;10.7018;
201.3000;0.1669;10.6993;
201.6000;0.1644;10.6921;
201.9000;0.1677;10.7042;
202.2000;0.1677;10.6969;
202.5000;0.1652;10.6921;
202.8000;0.1652;10.6921;
203.1000;0.1652;10.6945;
203.4000;0.1644;10.6993;
203.7000;0.1709;10.7210;
204.0000;0.1620;10.7018;
204.3000;0.1644;10.7066;
204.6000;0.1644;10.7018;
204.9000;0.1661;10.7066;
205.2000;0.1661;10.7114;
205.5000;0.1644;10.7162;
205.8000;0.1669;10.7186;
206.1000;0.1612;10.7018;
206.4000;0.1669;10.7090;
206.7000;0.1644;10.7042;
207.0000;0.1644;10.7090;
207.3000;0.1669;10.7042;
207.6000;0.1652;10.7018;
207.9000;0.1661;10.7042;
208.2000;0.1652;10.6993;
208.5000;0.1636;10.6945;
208.8000;0.1661;10.7018;
209.1000;0.1652;10.6993;
209.4000;0.1628;10.6897;
209.7000;0.1652;10.6921;
210.0000;0.1669;10.6969;
210.3000;0.1652;10.6897;
210.6000;0.1644;10.6945;
210.9000;0.1644;10.7066;
211.2000;0.1669;10.7162;
211.5000;0.1644;10.7042;
211.8000;0.1669;10.7066;
212.1000;0.1644;10.7090;
212.4000;0.1758;10.7355;
212.7000;0.1644;10.7114;
213.0000;0.1661;10.7162;
213.3000;0.1628;10.7114;
213.6000;0.1644;10.7138;
213.9000;0.1620;10.7090;
214.2000;0.1669;10.7114;
214.5000;0.1750;10.7259;
214.8000;0.1661;10.7090;
215.1000;0.1612;10.6969;
215.4000;0.1628;10.6897;
215.7000;0.1750;10.7066;
216.0000;0.1652;10.6897;
216.3000;0.1636;10.6825;
216.6000;0.1661;10.6776;
216.9000;0.1750;10.7018;
217.2000;0.1669;10.6921;
217.5000;0.1677;10.7018;
217.8000;0.1661;10.6945;
218.1000;0.1652;10.6945;
218.4000;0.1636;10.6921;
218.7000;0.1628;10.6897;
219.0000;0.1685;10.6921;
219.3000;0.1652;10.6849;
219.6000;0.1677;10.6825;
219.9000;0.1661;10.6825;
220.2000;0.1579;10.6583;
220.5000;0.1652;10.6776;
220.8000;0.1628;10.6776;
221.1000;0.1661;10.6800;
221.4000;0.1799;10.7186;
221.7000;0.1644;10.6776;
222.0000;0.1661;10.6873;
222.3000;0.1652;10.6921;
222.6000;0.1661;10.6945;
222.9000;0.1661;10.6921;
223.2000;0.1661;10.6945;
223.5000;0.1652;10.6873;
223.8000;0.1652;10.6849;
224.1000;0.1693;10.6969;
224.4000;0.1644;10.6921;
224.7000;0.1652;10.6921;
225.0000;0.1644;10.6969;
225.3000;0.1669;10.7066;
225.6000;0.1652;10.6969;
225.9000;0.1677;10.7042;
226.2000;0.1636;10.6969;
226.5000;0.1669;10.7066;
226.8000;0.1661;10.7066;
227.1000;0.1652;10.6969;
227.4000;0.1652;10.6897;
227.7000;0.1677;10.7042;
228.0000;0.1709;10.7138;
228.3000;0.1628;10.6993;
228.6000;0.1644;10.7066;
228.9000;0.1709;10.7235;
229.2000;0.1661;10.7090;
229.5000;0.1644;10.6969;
229.8000;0.1644;10.6945;
230.1000;0.1644;10.6945;
230.4000;0.1652;10.6921;
230.7000;0.1652;10.7018;
231.0000;0.1677;10.7138;
231.3000;0.1677;10.7138;
231.6000;0.1661;10.7042;
231.9000;0.1652;10.7162;
232.2000;0.1652;10.7138;
232.5000;0.1652;10.7090;
232.8000;0.1636;10.7018;
233.1000;0.1693;10.7138;
233.4000;0.1579;10.6752;
233.7000;0.1628;10.6945;
234.0000;0.1652;10.6993;
234.3000;0.1709;10.7235;
234.6000;0.1652;10.7066;
234.9000;0.1685;10.7114;
235.2000;0.1661;10.7066;
235.5000;0.1669;10.7162;
235.8000;0.1709;10.7331;
236.1000;0.1636;10.7162;
236.4000;0.1571;10.6921;
236.7000;0.1620;10.7138;
237.0000;0.1669;10.7186;
237.3000;0.1636;10.7114;
237.6000;0.1693;10.7235;
237.9000;0.1661;10.7114;
238.2000;0.1652;10.7042;
238.5000;0.1652;10.6993;
238.8000;0.1612;10.6752;
239.1000;0.1652;10.6776;
239.4000;0.1587;10.6632;
239.7000;0.1677;10.6897;
240.0000;0.1685;10.7090;
240.3000;0.1677;10.7210;
240.6000;0.1661;10.7090;
240.9000;0.1620;10.6921;
241.2000;0.1636;10.6897;
241.5000;0.1636;10.6849;
241.8000;0.1652;10.6825;
242.1000;0.1669;10.6873;
242.4000;0.1685;10.6993;
242.7000;0.1652;10.6945;
243.0000;0.1701;10.7066;
243.3000;0.1644;10.6921;
243.6000;0.1652;10.6945;
243.9000;0.1652;10.7018;
244.2000;0.1661;10.7018;
244.5000;0.1644;10.7018;
244.8000;0.1652;10.6945;
245.1000;0.1644;10.6897;
245.4000;0.1677;10.6945;
245.7000;0.1652;10.6873;
246.0000;0.1644;10.6873;
246.3000;0.1652;10.6897;
246.6000;0.1652;10.6945;
246.9000;0.1661;10.7018;
247.2000;0.1661;10.7066;
247.5000;0.1644;10.7018;
247.8000;0.1661;10.7018;
248.1000;0.1669;10.6993;
248.4000;0.1636;10.7042;
248.7000;0.1652;10.7042;
249.0000;0.1644;10.6873;
249.3000;0.1644;10.6873;
249.6000;0.1636;10.6728;
249.9000;0.1677;10.6849;
250.2000;0.1652;10.6776;
250.5000;0.1652;10.6897;
250.8000;0.1644;10.6969;
251.1000;0.1595;10.6752;
251.4000;0.1661;10.6993;
251.7000;0.1644;10.7042;
252.0000;0.1636;10.7114;
252.3000;0.1644;10.7114;
252.6000;0.1669;10.7018;
252.9000;0.1652;10.6945;
253.2000;0.1669;10.7018;
253.5000;0.1677;10.7042;
253.8000;0.1628;10.6921;
254.1000;0.1661;10.6921;
254.4000;0.1669;10.6969;
254.7000;0.1661;10.6969;
255.0000;0.1661;10.7066;
255.3000;0.1636;10.7042;
255.6000;0.1652;10.7090;
255.9000;0.1661;10.7090;
256.2000;0.1652;10.7042;
256.5000;0.1612;10.6921;
256.8000;0.1644;10.6993;
257.1000;0.1644;10.6945;
257.4000;0.1652;10.6921;
257.7000;0.1644;10.6897;
258.0000;0.1644;10.6825;
258.3000;0.1685;10.6897;
258.6000;0.1693;10.6969;
258.9000;0.1644;10.6825;
259.2000;0.1652;10.6849;
259.5000;0.1669;10.6969;
259.8000;0.1644;10.6897;
260.1000;0.1644;10.6825;
260.4000;0.1644;10.6873;
260.7000;0.1685;10.6993;
261.0000;0.1652;10.6969;
261.3000;0.1661;10.7066;
261.6000;0.1652;10.6993;
261.9000;0.1661;10.6993;
262.2000;0.1636;10.6752;
262.5000;0.1652;10.6752;
262.8000;0.1661;10.6825;
263.1000;0.1652;10.6776;
263.4000;0.1652;10.6752;
263.7000;0.1612;10.6656;
264.0000;0.1644;10.6680;
264.3000;0.1644;10.6776;
264.6000;0.1644;10.6849;
264.9000;0.1644;10.6800;
265.2000;0.1644;10.6873;
265.5000;0.1701;10.6993;
265.8000;0.1636;10.6825;
266.1000;0.1661;10.6897;
266.4000;0.1522;10.6559;
266.7000;0.1628;10.6849;
267.0000;0.1669;10.6800;
267.3000;0.1661;10.6849;
267.6000;0.1669;10.6849;
267.9000;0.1652;10.6800;
268.2000;0.1652;10.6873;
268.5000;0.1661;10.6969;
268.8000;0.1661;10.6969;
269.1000;0.1644;10.6897;
269.4000;0.1644;10.6969;
269.7000;0.1636;10.6921;
270.0000;0.1661;10.6969;
270.3000;0.1652;10.6969;
270.6000;0.1620;10.6969;
270.9000;0.1620;10.6969;
271.2000;0.1652;10.7042;
271.5000;0.1628;10.7018;
271.8000;0.1620;10.7042;
272.1000;0.1644;10.7066;
272.4000;0.1644;10.7066;
272.7000;0.1669;10.7066;
273.0000;0.1636;10.6921;
273.3000;0.1636;10.6921;
273.6000;0.1652;10.6993;
273.9000;0.1628;10.6873;
274.2000;0.1661;10.6897;
274.5000;0.1644;10.6921;
274.8000;0.1636;10.6945;
275.1000;0.1652;10.7066;
275.4000;0.1636;10.6945;
275.7000;0.1652;10.6945;
276.0000;0.1669;10.6945;
276.3000;0.1652;10.6873;
276.6000;0.1652;10.6873;
276.9000;0.1644;10.6849;
277.2000;0.1669;10.6897;
277.5000;0.1669;10.6825;
277.8000;0.1652;10.6825;
278.1000;0.1652;10.6776;
278.4000;0.1636;10.6800;
278.7000;0.1652;10.6800;
279.0000;0.1652;10.6800;
279.3000;0.1661;10.6825;
279.6000;0.1661;10.6897;
279.9000;0.1644;10.6969;
280.2000;0.1661;10.6969;
280.5000;0.1652;10.6873;
280.8000;0.1652;10.6825;
281.1000;0.1661;10.6897;
281.4000;0.1661;10.6849;
281.7000;0.1636;10.6825;
282.0000;0.1636;10.6825;
282.3000;0.1644;10.6873;
282.6000;0.1628;10.6873;
282.9000;0.1628;10.6921;
283.2000;0.1636;10.6897;
283.5000;0.1644;10.6849;
283.8000;0.1636;10.6752;
284.1000;0.1644;10.6800;
284.4000;0.1685;10.6800;
284.7000;0.1628;10.6704;
285.0000;0.1742;10.7018;
285.3000;0.1644;10.6728;
285.6000;0.1604;10.6656;
285.9000;0.1644;10.6752;
286.2000;0.1620;10.6656;
286.5000;0.1612;10.6632;
286.8000;0.1652;10.6776;
287.1000;0.1644;10.6680;
287.4000;0.1726;10.6921;
287.7000;0.1652;10.6776;
288.0000;0.1652;10.6704;
288.3000;0.1661;10.6656;
288.6000;0.1685;10.6752;
288.9000;0.1652;10.6776;
289.2000;0.1661;10.6849;
289.5000;0.1783;10.7162;
289.8000;0.1644;10.6825;
290.1000;0.1652;10.6849;
290.4000;0.1644;10.6849;
290.7000;0.1636;10.6873;
291.0000;0.1628;10.6921;
291.3000;0.1612;10.6849;
291.6000;0.1612;10.6800;
291.9000;0.1644;10.6873;
292.2000;0.1612;10.6873;
292.5000;0.1701;10.7042;
292.8000;0.1644;10.6921;
293.1000;0.1661;10.6873;
293.4000;0.1693;10.6969;
293.7000;0.1661;10.6825;
294.0000;0.1644;10.6825;
294.3000;0.1758;10.7186;
294.6000;0.1644;10.6800;
294.9000;0.1661;10.6752;
295.2000;0.1620;10.6704;
295.5000;0.1644;10.6728;
295.8000;0.1636;10.6776;
296.1000;0.1579;10.6825;
296.4000;0.1644;10.6873;
296.7000;0.1571;10.6511;
297.0000;0.1644;10.6680;
297.3000;0.1555;10.6487;
297.6000;0.1628;10.6680;
297.9000;0.1620;10.6607;
298.2000;0.1652;10.6728;
298.5000;0.1644;10.6656;
298.8000;0.1644;10.6632;
299.1000;0.1652;10.6680;
299.4000;0.1669;10.6825;
299.7000;0.1628;10.6752;
300.0000;0.1604;10.6728;
300.3000;0.1571;10.6632;
300.6000;0.1652;10.6921;
300.9000;0.1661;10.6969;
301.2000;0.1636;10.6873;
301.5000;0.1636;10.6825;
301.8000;0.1636;10.6873;
302.1000;0.1652;10.6921;
302.4000;0.1644;10.6921;
302.7000;0.1644;10.6921;
303.0000;0.1644;10.6873;
303.3000;0.1726;10.7066;
303.6000;0.1644;10.6849;
303.9000;0.1652;10.6800;
304.2000;0.1652;10.6752;
304.5000;0.1644;10.6704;
304.8000;0.1652;10.6656;
305.1000;0.1636;10.6656;
305.4000;0.1677;10.6800;
305.7000;0.1636;10.6728;
306.0000;0.1652;10.6752;
306.3000;0.1636;10.6680;
306.6000;0.1652;10.6728;
306.9000;0.1652;10.6825;
307.2000;0.1644;10.6825;
307.5000;0.1661;10.6825;
307.8000;0.1644;10.6776;
308.1000;0.1644;10.6752;
308.4000;0.1652;10.6776;
308.7000;0.1652;10.6752;
309.0000;0.1685;10.6728;
309.3000;0.1742;10.6921;
309.6000;0.1636;10.6607;
309.9000;0.1644;10.6704;
310.2000;0.1636;10.6680;
310.5000;0.1620;10.6704;
310.8000;0.1636;10.6825;
311.1000;0.1636;10.6849;
311.4000;0.1661;10.6849;
311.7000;0.1652;10.6728;
312.0000;0.1677;10.6776;
312.3000;0.1636;10.6776;
312.6000;0.1636;10.6873;
312.9000;0.1636;10.6849;
313.2000;0.1604;10.6825;
313.5000;0.1652;10.6921;
313.8000;0.1644;10.6873;
314.1000;0.1661;10.6849;
314.4000;0.1726;10.7090;
314.7000;0.1661;10.6825;
315.0000;0.1652;10.6752;
315.3000;0.1644;10.6704;
315.6000;0.1644;10.6680;
315.9000;0.1644;10.6728;
316.2000;0.1644;10.6680;
316.5000;0.1628;10.6607;
316.8000;0.1644;10.6559;
317.1000;0.1652;10.6535;
317.4000;0.1652;10.6583;
317.7000;0.1636;10.6511;
318.0000;0.1661;10.6583;
318.3000;0.1644;10.6535;
318.6000;0.1644;10.6487;
318.9000;0.1661;10.6559;
319.2000;0.1652;10.6583;
319.5000;0.1652;10.6583;
319.8000;0.1644;10.6632;
320.1000;0.1661;10.6752;
320.4000;0.1652;10.6704;
320.7000;0.1661;10.6752;
321.0000;0.1644;10.6800;
321.3000;0.1604;10.6704;
321.6000;0.1652;10.6849;
321.9000;0.1644;10.6897;
322.2000;0.1612;10.6800;
322.5000;0.1644;10.6873;
322.8000;0.1701;10.7018;
323.1000;0.1604;10.6728;
323.4000;0.1644;10.6776;
323.7000;0.1620;10.6680;
324.0000;0.1644;10.6752;
324.3000;0.1669;10.6704;
324.6000;0.1661;10.6728;
324.9000;0.1628;10.6680;
325.2000;0.1612;10.6656;
325.5000;0.1661;10.6656;
325.8000;0.1644;10.6559;
326.1000;0.1644;10.6607;
326.4000;0.1644;10.6656;
326.7000;0.1636;10.6607;
327.0000;0.1620;10.6535;
327.3000;0.1636;10.6559;
327.6000;0.1628;10.6607;
327.9000;0.1661;10.6656;
328.2000;0.1652;10.6607;
328.5000;0.1644;10.6583;
328.8000;0.1620;10.6535;
329.1000;0.1661;10.6656;
329.4000;0.1677;10.6825;
329.7000;0.1595;10.6632;
330.0000;0.1620;10.6728;
330.3000;0.1669;10.6849;
330.6000;0.1636;10.6752;
330.9000;0.1652;10.6728;
331.2000;0.1693;10.6849;
331.5000;0.1628;10.6656;
331.8000;0.1538;10.6366;
332.1000;0.1652;10.6607;
332.4000;0.1661;10.6704;
332.7000;0.1734;10.6800;
333.0000;0.1750;10.6897;
333.3000;0.1628;10.6487;
333.6000;0.1652;10.6559;
333.9000;0.1661;10.6632;
334.2000;0.1652;10.6656;
334.5000;0.1587;10.6535;
334.8000;0.1644;10.6656;
335.1000;0.1644;10.6656;
335.4000;0.1612;10.6439;
335.7000;0.1652;10.6559;
336.0000;0.1652;10.6511;
336.3000;0.1644;10.6656;
336.6000;0.1620;10.6559;
336.9000;0.1636;10.6583;
337.2000;0.1685;10.6800;
337.5000;0.1661;10.6656;
337.8000;0.1669;10.6704;
338.1000;0.1652;10.6632;
338.4000;0.1661;10.6728;
338.7000;0.1652;10.6632;
339.0000;0.1669;10.6632;
339.3000;0.1595;10.6463;
339.6000;0.1628;10.6559;
339.9000;0.1644;10.6632;
340.2000;0.1636;10.6704;
340.5000;0.1636;10.6680;
340.8000;0.1604;10.6583;
341.1000;0.1644;10.6632;
341.4000;0.1652;10.6607;
341.7000;0.1636;10.6511;
342.0000;0.1628;10.6463;
342.3000;0.1661;10.6656;
342.6000;0.1652;10.6752;
342.9000;0.1628;10.6656;
343.2000;0.1661;10.6680;
343.5000;0.1628;10.6559;
343.8000;0.1661;10.6607;
344.1000;0.1661;10.6511;
344.4000;0.1652;10.6463;
344.7000;0.1669;10.6559;
345.0000;0.1677;10.6656;
345.3000;0.1677;10.6680;
345.6000;0.1661;10.6607;
345.9000;0.1685;10.6680;
346.2000;0.1628;10.6632;
346.5000;0.1644;10.6583;
346.8000;0.1636;10.6583;
347.1000;0.1636;10.6583;
347.4000;0.1652;10.6583;
347.7000;0.1636;10.6511;
348.0000;0.1652;10.6535;
348.3000;0.1628;10.6511;
348.6000;0.1628;10.6680;
348.9000;0.1652;10.6800;
349.2000;0.1628;10.6632;
349.5000;0.1636;10.6680;
349.8000;0.1644;10.6680;
350.1000;0.1652;10.6680;
350.4000;0.1677;10.6728;
350.7000;0.1652;10.6704;
351.0000;0.1644;10.6704;
351.3000;0.1644;10.6752;
351.6000;0.1661;10.6945;
351.9000;0.1628;10.6752;
352.2000;0.1628;10.6704;
352.5000;0.1628;10.6656;
352.8000;0.1628;10.6607;
353.1000;0.1652;10.6680;
353.4000;0.1628;10.6607;
353.7000;0.1685;10.6776;
354.0000;0.1644;10.6728;
354.3000;0.1652;10.6752;
354.6000;0.1620;10.6728;
354.9000;0.1677;10.6800;
355.2000;0.1620;10.6776;
355.5000;0.1709;10.6921;
355.8000;0.1701;10.7042;
356.1000;0.1620;10.6873;
356.4000;0.1628;10.6825;
356.7000;0.1661;10.6969;
357.0000;0.1628;10.6849;
357.3000;0.1604;10.6800;
357.6000;0.1636;10.6945;
357.9000;0.1644;10.6897;
358.2000;0.1652;10.6897;
358.5000;0.1579;10.6728;
358.8000;0.1652;10.6921;
359.1000;0.1636;10.6873;
359.4000;0.1595;10.6632;
359.7000;0.1644;10.6680;
360.0000;0.1661;10.6680;
360.3000;0.1652;10.6704;
360.6000;0.1644;10.6704;
360.9000;0.1620;10.6632;
361.2000;0.1636;10.6656;
361.5000;0.1595;10.6559;
361.8000;0.1636;10.6607;
362.1000;0.1636;10.6632;
362.4000;0.1644;10.6559;
362.7000;0.1628;10.6559;
363.0000;0.1644;10.6559;
363.3000;0.1661;10.6583;
363.6000;0.1628;10.6607;
363.9000;0.1636;10.6656;
364.2000;0.1636;10.6704;
364.5000;0.1644;10.6656;
364.8000;0.1636;10.6704;
365.1000;0.1636;10.6800;
365.4000;0.1620;10.6728;
365.7000;0.1636;10.6776;
366.0000;0.1644;10.6921;
366.3000;0.1620;10.6873;
366.6000;0.1636;10.6849;
366.9000;0.1612;10.6752;
367.2000;0.1661;10.6825;
367.5000;0.1644;10.6776;
367.8000;0.1612;10.6680;
368.1000;0.1620;10.6656;
368.4000;0.1620;10.6800;
368.7000;0.1628;10.6776;
369.0000;0.1652;10.6849;
369.3000;0.1636;10.6873;
369.6000;0.1628;10.6945;
369.9000;0.1547;10.6704;
370.2000;0.1644;10.6993;
370.5000;0.1652;10.7042;
370.8000;0.1644;10.7066;
371.1000;0.1636;10.7090;
371.4000;0.1644;10.7114;
371.7000;0.1636;10.7114;
372.0000;0.1652;10.7114;
372.3000;0.1636;10.6993;
372.6000;0.1661;10.7018;
372.9000;0.1644;10.6969;
373.2000;0.1636;10.6897;
373.5000;0.1612;10.6849;
373.8000;0.1652;10.6825;
374.1000;0.1628;10.6825;
374.4000;0.1644;10.6873;
374.7000;0.1636;10.6825;
375.0000;0.1669;10.6849;
375.3000;0.1644;10.6873;
375.6000;0.1652;10.6800;
375.9000;0.1652;10.6897;
376.2000;0.1644;10.6825;
376.5000;0.1709;10.7018;
376.8000;0.1636;10.6825;
377.1000;0.1636;10.6873;
377.4000;0.1644;10.6897;
377.7000;0.1685;10.6993;
378.0000;0.1636;10.6897;
378.3000;0.1661;10.6993;
378.6000;0.1661;10.6969;
378.9000;0.1644;10.6945;
379.2000;0.1652;10.6993;
379.5000;0.1620;10.6969;
379.8000;0.1644;10.6993;
380.1000;0.1652;10.6993;
380.4000;0.1628;10.6921;
380.7000;0.1775;10.7259;
381.0000;0.1685;10.7042;
381.3000;0.1661;10.6993;
381.6000;0.1644;10.6969;
381.9000;0.1579;10.6752;
382.2000;0.1652;10.6969;
382.5000;0.1726;10.7114;
382.8000;0.1652;10.6873;
383.1000;0.1652;10.6873;
383.4000;0.1661;10.6800;
383.7000;0.1661;10.6873;
384.0000;0.1652;10.6873;
384.3000;0.1644;10.6873;
384.6000;0.1628;10.6800;
384.9000;0.1644;10.6825;
385.2000;0.1636;10.6825;
385.5000;0.1636;10.6873;
385.8000;0.1652;10.6945;
386.1000;0.1644;10.6873;
386.4000;0.1636;10.6800;
386.7000;0.1652;10.6849;
387.0000;0.1628;10.6873;
387.3000;0.1652;10.6993;
387.6000;0.1612;10.6800;
387.9000;0.1628;10.6873;
388.2000;0.1636;10.6897;
388.5000;0.1652;10.6945;
388.8000;0.1652;10.6849;
389.1000;0.1636;10.6728;
389.4000;0.1538;10.6463;
389.7000;0.1661;10.6800;
390.0000;0.1628;10.6776;
390.3000;0.1661;10.6873;
390.6000;0.1661;10.6897;
390.9000;0.1644;10.6897;
391.2000;0.1644;10.6825;
391.5000;0.1669;10.6921;
391.8000;0.1644;10.6752;
392.1000;0.1644;10.6752;
392.4000;0.1669;10.6825;
392.7000;0.1612;10.6680;
393.0000;0.1628;10.6728;
393.3000;0.1628;10.6704;
393.6000;0.1661;10.6728;
393.9000;0.1652;10.6704;
394.2000;0.1644;10.6632;
394.5000;0.1661;10.6680;
394.8000;0.1718;10.6825;
395.1000;0.1612;10.6511;
395.4000;0.1652;10.6656;
395.7000;0.1644;10.6656;
396.0000;0.1677;10.6776;
396.3000;0.1652;10.6800;
396.6000;0.1644;10.6776;
396.9000;0.1652;10.6752;
397.2000;0.1636;10.6776;
397.5000;0.1636;10.6752;
397.8000;0.1661;10.6776;
398.1000;0.1636;10.6728;
398.4000;0.1628;10.6825;
398.7000;0.1636;10.6873;
399.0000;0.1628;10.6825;
399.3000;0.1636;10.6704;
399.6000;0.1604;10.6656;
399.9000;0.1652;10.6704;
400.2000;0.1669;10.6680;
400.5000;0.1669;10.6728;
400.8000;0.1620;10.6656;
401.1000;0.1628;10.6704;
401.4000;0.1661;10.6776;
401.7000;0.1661;10.6800;
402.0000;0.1652;10.6752;
402.3000;0.1661;10.6849;
402.6000;0.1701;10.6921;
402.9000;0.1652;10.6776;
403.2000;0.1644;10.6776;
403.5000;0.1636;10.6776;
403.8000;0.1652;10.6776;
404.1000;0.1644;10.6800;
404.4000;0.1652;10.6704;
404.7000;0.1636;10.6680;
405.0000;0.1701;10.6897;
405.3000;0.1661;10.6849;
405.6000;0.1636;10.6897;
405.9000;0.1661;10.6921;
406.2000;0.1652;10.6897;
406.5000;0.1661;10.6873;
406.8000;0.1661;10.6849;
407.1000;0.1652;10.6825;
407.4000;0.1644;10.6728;
407.7000;0.1644;10.6776;
408.0000;0.1644;10.6873;
408.3000;0.1628;10.6849;
408.6000;0.1628;10.6873;
408.9000;0.1685;10.6921;
409.2000;0.1652;10.6873;
409.5000;0.1661;10.6897;
409.8000;0.1636;10.6776;
410.1000;0.1628;10.6728;
410.4000;0.1644;10.6776;
410.7000;0.1628;10.6704;
411.0000;0.1652;10.6728;
411.3000;0.1644;10.6752;
411.6000;0.1644;10.6776;
411.9000;0.1652;10.6800;
412.2000;0.1563;10.6535;
412.5000;0.1661;10.6825;
412.8000;0.1636;10.6776;
413.1000;0.1604;10.6656;
413.4000;0.1604;10.6680;
413.7000;0.1652;10.6776;
414.0000;0.1669;10.6776;
414.3000;0.1579;10.6680;
414.6000;0.1620;10.6825;
414.9000;0.1636;10.6849;
415.2000;0.1612;10.6800;
415.5000;0.1620;10.6873;
415.8000;0.1636;10.6873;
416.1000;0.1709;10.7162;
416.4000;0.1636;10.6969;
416.7000;0.1652;10.7042;
417.0000;0.1661;10.7066;
417.3000;0.1604;10.6921;
417.6000;0.1628;10.6945;
417.9000;0.1669;10.7066;
418.2000;0.1661;10.7066;
418.5000;0.1628;10.7018;
418.8000;0.1604;10.6849;
419.1000;0.1644;10.6921;
419.4000;0.1620;10.6825;
419.7000;0.1628;10.6776;
420.0000;0.1620;10.6704;
420.3000;0.1612;10.6752;
420.6000;0.1652;10.6825;
420.9000;0.1628;10.6728;
421.2000;0.1620;10.6704;
421.5000;0.1644;10.6728;
421.8000;0.1644;10.6680;
422.1000;0.1644;10.6656;
422.4000;0.1644;10.6752;
422.7000;0.1652;10.6752;
423.0000;0.1669;10.6752;
423.3000;0.1669;10.6873;
423.6000;0.1652;10.6873;
423.9000;0.1636;10.6897;
424.2000;0.1644;10.6921;
424.5000;0.1612;10.6728;
424.8000;0.1644;10.6800;
425.1000;0.1620;10.6776;
425.4000;0.1636;10.6776;
425.7000;0.1636;10.6680;
426.0000;0.1612;10.6535;
426.3000;0.1636;10.6583;
426.6000;0.1661;10.6680;
426.9000;0.1579;10.6439;
427.2000;0.1538;10.6318;
427.5000;0.1644;10.6632;
427.8000;0.1636;10.6680;
428.1000;0.1701;10.6825;
428.4000;0.1644;10.6680;
428.7000;0.1628;10.6728;
429.0000;0.1628;10.6728;
429.3000;0.1620;10.6728;
429.6000;0.1661;10.6921;
429.9000;0.1677;10.6945;
430.2000;0.1652;10.6897;
430.5000;0.1628;10.6800;
430.8000;0.1628;10.6800;
431.1000;0.1636;10.6776;
431.4000;0.1636;10.6776;
431.7000;0.1644;10.6825;
432.0000;0.1628;10.6607;
432.3000;0.1636;10.6632;
432.6000;0.1718;10.6873;
432.9000;0.1693;10.6825;
433.2000;0.1595;10.6583;
433.5000;0.1661;10.6680;
433.8000;0.1644;10.6607;
434.1000;0.1620;10.6535;
434.4000;0.1652;10.6583;
434.7000;0.1644;10.6559;
435.0000;0.1620;10.6511;
435.3000;0.1620;10.6463;
435.6000;0.1644;10.6559;
435.9000;0.1652;10.6583;
436.2000;0.1628;10.6559;
436.5000;0.1604;10.6535;
436.8000;0.1636;10.6583;
437.1000;0.1636;10.6632;
437.4000;0.1620;10.6607;
437.7000;0.1628;10.6632;
438.0000;0.1644;10.6632;
438.3000;0.1669;10.6776;
438.6000;0.1628;10.6583;
438.9000;0.1685;10.6752;
439.2000;0.1620;10.6680;
439.5000;0.1644;10.6656;
439.8000;0.1701;10.6921;
440.1000;0.1644;10.6728;
440.4000;0.1669;10.6849;
440.7000;0.1628;10.6800;
441.0000;0.1636;10.6752;
441.3000;0.1620;10.6752;
441.6000;0.1644;10.6752;
441.9000;0.1669;10.6897;
442.2000;0.1652;10.6921;
442.5000;0.1644;10.6969;
442.8000;0.1644;10.6921;
443.1000;0.1644;10.6921;
443.4000;0.1604;10.6825;
443.7000;0.1636;10.7042;
444.0000;0.1644;10.6969;
444.3000;0.1669;10.6945;
444.6000;0.1644;10.6897;
444.9000;0.1685;10.7018;
445.2000;0.1677;10.6921;
445.5000;0.1628;10.6825;
445.8000;0.1571;10.6656;
446.1000;0.1685;10.6993;
446.4000;0.1644;10.6873;
446.7000;0.1636;10.6825;
447.0000;0.1644;10.6825;
447.3000;0.1555;10.6583;
447.6000;0.1766;10.7162;
447.9000;0.1612;10.6800;
448.2000;0.1538;10.6535;
448.5000;0.1677;10.6897;
448.8000;0.1644;10.6897;
449.1000;0.1652;10.6873;
449.4000;0.1636;10.6897;
449.7000;0.1628;10.6873;
450.0000;0.1685;10.7066;
450.3000;0.1636;10.6921;
450.6000;0.1709;10.7090;
450.9000;0.1612;10.6897;
451.2000;0.1612;10.6825;
451.5000;0.1628;10.6897;
451.8000;0.1636;10.6897;
452.1000;0.1661;10.7042;
452.4000;0.1636;10.6945;
452.7000;0.1636;10.7042;
453.0000;0.1628;10.7042;
453.3000;0.1636;10.7066;
453.6000;0.1652;10.7162;
453.9000;0.1644;10.7138;
454.2000;0.1644;10.7186;
454.5000;0.1644;10.7210;
454.8000;0.1669;10.7162;
455.1000;0.1644;10.7162;
455.4000;0.1620;10.7162;
455.7000;0.1620;10.7138;
456.0000;0.1644;10.7138;
456.3000;0.1628;10.7090;
456.6000;0.1644;10.7114;
456.9000;0.1620;10.6993;
457.2000;0.1652;10.7042;
457.5000;0.1628;10.6969;
457.8000;0.1644;10.7042;
458.1000;0.1636;10.6993;
458.4000;0.1628;10.7042;
458.7000;0.1636;10.7066;
459.0000;0.1636;10.7042;
459.3000;0.1628;10.6993;
459.6000;0.1612;10.6993;
459.9000;0.1636;10.7090;
460.2000;0.1555;10.6752;
460.5000;0.1644;10.7018;
460.8000;0.1628;10.6945;
461.1000;0.1620;10.6921;
461.4000;0.1677;10.7066;
461.7000;0.1620;10.6897;
462.0000;0.1636;10.6945;
462.3000;0.1652;10.6969;
462.6000;0.1644;10.6945;
462.9000;0.1636;10.6969;
463.2000;0.1661;10.7066;
463.5000;0.1652;10.7042;
463.8000;0.1669;10.7186;
464.1000;0.1636;10.7066;
464.4000;0.1636;10.7018;
464.7000;0.1652;10.6993;
465.0000;0.1636;10.7042;
465.3000;0.1636;10.7042;
465.6000;0.1628;10.6993;
465.9000;0.1636;10.6969;
466.2000;0.1644;10.6993;
466.5000;0.1669;10.7090;
466.8000;0.1628;10.6993;
467.1000;0.1620;10.6993;
467.4000;0.1620;10.7018;
467.7000;0.1677;10.7018;
468.0000;0.1644;10.6849;
468.3000;0.1652;10.6849;
468.6000;0.1636;10.6752;
468.9000;0.1652;10.6728;
469.2000;0.1644;10.6728;
469.5000;0.1652;10.6728;
469.8000;0.1604;10.6680;
470.1000;0.1587;10.6607;
470.4000;0.1636;10.6752;
470.7000;0.1652;10.6873;
471.0000;0.1612;10.6752;
471.3000;0.1677;10.6921;
471.6000;0.1701;10.6993;
471.9000;0.1726;10.6993;
472.2000;0.1636;10.6776;
472.5000;0.1693;10.6825;
472.8000;0.1628;10.6704;
473.1000;0.1661;10.6825;
473.4000;0.1628;10.6776;
473.7000;0.1604;10.6728;
474.0000;0.1669;10.7042;
474.3000;0.1644;10.7042;
474.6000;0.1636;10.6921;
474.9000;0.1766;10.7307;
475.2000;0.1628;10.6993;
475.5000;0.1620;10.6945;
475.8000;0.1636;10.6945;
476.1000;0.1628;10.6921;
476.4000;0.1587;10.6849;
476.7000;0.1652;10.6969;
477.0000;0.1628;10.6849;
477.3000;0.1644;10.6873;
477.6000;0.1652;10.6897;
477.9000;0.1652;10.7042;
478.2000;0.1644;10.7042;
478.5000;0.1636;10.7018;
478.8000;0.1644;10.7042;
479.1000;0.1628;10.7090;
479.4000;0.1555;10.6825;
479.7000;0.1636;10.6993;
480.0000;0.1628;10.6921;
480.3000;0.1620;10.6776;
480.6000;0.1612;10.6849;
480.9000;0.1628;10.6897;
481.2000;0.1644;10.6945;
481.5000;0.1636;10.6969;
481.8000;0.1644;10.7066;
482.1000;0.1636;10.7042;
482.4000;0.1604;10.6921;
482.7000;0.1652;10.6993;
483.0000;0.1661;10.7066;
483.3000;0.1652;10.7114;
483.6000;0.1612;10.6993;
483.9000;0.1669;10.6945;
484.2000;0.1652;10.6945;
484.5000;0.1661;10.6969;
484.8000;0.1628;10.6921;
485.1000;0.1620;10.6873;
485.4000;0.1636;10.6921;
485.7000;0.1636;10.6921;
486.0000;0.1628;10.6897;
486.3000;0.1612;10.6873;
486.6000;0.1636;10.6921;
486.9000;0.1652;10.6873;
487.2000;0.1652;10.6776;
487.5000;0.1628;10.6825;
487.8000;0.1644;10.6873;
488.1000;0.1652;10.6993;
488.4000;0.1604;10.6849;
488.7000;0.1620;10.6849;
489.0000;0.1636;10.6945;
489.3000;0.1644;10.6849;
489.6000;0.1652;10.6849;
489.9000;0.1612;10.6704;
490.2000;0.1612;10.6728;
490.5000;0.1620;10.6704;
490.8000;0.1652;10.6704;
491.1000;0.1555;10.6463;
491.4000;0.1636;10.6752;
491.7000;0.1636;10.6825;
492.0000;0.1636;10.6897;
492.3000;0.1628;10.6849;
492.6000;0.1661;10.6873;
492.9000;0.1612;10.6800;
493.2000;0.1652;10.6800;
493.5000;0.1587;10.6656;
493.8000;0.1620;10.6752;
494.1000;0.1620;10.6825;
494.4000;0.1571;10.6704;
494.7000;0.1644;10.6825;
495.0000;0.1652;10.6873;
495.3000;0.1661;10.6849;
495.6000;0.1612;10.6728;
495.9000;0.1636;10.6825;
496.2000;0.1644;10.6800;
496.5000;0.1636;10.6849;
496.8000;0.1612;10.6752;
497.1000;0.1636;10.6776;
497.4000;0.1644;10.6776;
497.7000;0.1701;10.6993;
498.0000;0.1595;10.6776;
498.3000;0.1644;10.6969;
498.6000;0.1636;10.6969;
498.9000;0.1636;10.6969;
499.2000;0.1644;10.6921;
499.5000;0.1612;10.6776;
499.8000;0.1644;10.6849;
500.1000;0.1636;10.6873;
500.4000;0.1571;10.6632;
500.7000;0.1620;10.6800;
501.0000;0.1620;10.6825;
501.3000;0.1620;10.6825;
501.6000;0.1644;10.6873;
501.9000;0.1669;10.6945;
502.2000;0.1644;10.6945;
502.5000;0.1530;10.6583;
502.8000;0.1636;10.6825;
503.1000;0.1628;10.6728;
503.4000;0.1636;10.6752;
503.7000;0.1661;10.6945;
504.0000;0.1644;10.6897;
504.3000;0.1636;10.6825;
504.6000;0.1652;10.6825;
504.9000;0.1636;10.6752;
505.2000;0.1652;10.6752;
505.5000;0.1661;10.6776;
505.8000;0.1644;10.6752;
506.1000;0.1644;10.6776;
506.4000;0.1612;10.6752;
506.7000;0.1652;10.6849;
507.0000;0.1628;10.6728;
507.3000;0.1628;10.6704;
507.6000;0.1636;10.6680;
507.9000;0.1563;10.6463;
508.2000;0.1685;10.6752;
508.5000;0.1644;10.6680;
508.8000;0.1652;10.6680;
509.1000;0.1661;10.6704;
509.4000;0.1644;10.6704;
509.7000;0.1644;10.6800;
510.0000;0.1652;10.6728;
510.3000;0.1636;10.6607;
510.6000;0.1652;10.6752;
510.9000;0.1709;10.6873;
511.2000;0.1669;10.6800;
511.5000;0.1636;10.6656;
511.8000;0.1628;10.6656;
512.1000;0.1644;10.6728;
512.4000;0.1644;10.6728;
512.7000;0.1661;10.6728;
513.0000;0.1636;10.6656;
513.3000;0.1652;10.6680;
513.6000;0.1669;10.6728;
513.9000;0.1636;10.6704;
514.2000;0.1612;10.6680;
514.5000;0.1620;10.6704;
514.8000;0.1652;10.6752;
515.1000;0.1636;10.6752;
515.4000;0.1636;10.6656;
515.7000;0.1644;10.6728;
516.0000;0.1644;10.6680;
516.3000;0.1766;10.6993;
516.6000;0.1628;10.6607;
516.9000;0.1595;10.6511;
517.2000;0.1628;10.6656;
517.5000;0.1652;10.6680;
517.8000;0.1644;10.6559;
518.1000;0.1636;10.6559;
518.4000;0.1652;10.6559;
518.7000;0.1628;10.6559;
519.0000;0.1628;10.6632;
519.3000;0.1636;10.6728;
519.6000;0.1636;10.6728;
519.9000;0.1620;10.6656;
520.2000;0.1636;10.6728;
520.5000;0.1620;10.6656;
520.8000;0.1652;10.6704;
521.1000;0.1620;10.6632;
521.4000;0.1636;10.6704;
521.7000;0.1652;10.6752;
522.0000;0.1669;10.6825;
522.3000;0.1644;10.6752;
522.6000;0.1628;10.6728;
522.9000;0.1628;10.6800;
523.2000;0.1628;10.6849;
523.5000;0.1636;10.6849;
523.8000;0.1661;10.6825;
524.1000;0.1783;10.7090;
524.4000;0.1685;10.6897;
524.7000;0.1644;10.6800;
525.0000;0.1644;10.6800;
525.3000;0.1620;10.6752;
525.6000;0.1644;10.6849;
525.9000;0.1636;10.6825;
526.2000;0.1628;10.6825;
526.5000;0.1628;10.6800;
526.8000;0.1620;10.6680;
527.1000;0.1628;10.6607;
527.4000;0.1644;10.6632;
527.7000;0.1636;10.6559;
528.0000;0.1620;10.6607;
528.3000;0.1612;10.6632;
528.6000;0.1636;10.6704;
528.9000;0.1587;10.6511;
529.2000;0.1628;10.6583;
529.5000;0.1636;10.6632;
529.8000;0.1644;10.6680;
530.1000;0.1612;10.6704;
530.4000;0.1628;10.6656;
530.7000;0.1644;10.6752;
531.0000;0.1628;10.6680;
531.3000;0.1612;10.6607;
531.6000;0.1620;10.6704;
531.9000;0.1628;10.6680;
532.2000;0.1644;10.6776;
532.5000;0.1620;10.6752;
532.8000;0.1620;10.6752;
533.1000;0.1620;10.6728;
533.4000;0.1669;10.6849;
533.7000;0.1636;10.6728;
534.0000;0.1636;10.6728;
534.3000;0.1750;10.6993;
534.6000;0.1644;10.6728;
534.9000;0.1669;10.6704;
535.2000;0.1644;10.6704;
535.5000;0.1636;10.6800;
535.8000;0.1644;10.6873;
536.1000;0.1652;10.6800;
536.4000;0.1669;10.6873;
536.7000;0.1652;10.6873;
537.0000;0.1652;10.6897;
537.3000;0.1661;10.6897;
537.6000;0.1636;10.6800;
537.9000;0.1644;10.6728;
538.2000;0.1604;10.6632;
538.5000;0.1587;10.6535;
538.8000;0.1612;10.6559;
539.1000;0.1701;10.6849;
539.4000;0.1628;10.6752;
539.7000;0.1644;10.6752;
540.0000;0.1628;10.6752;
540.3000;0.1612;10.6752;
540.6000;0.1636;10.6776;
540.9000;0.1652;10.6776;
541.2000;0.1669;10.6752;
541.5000;0.1652;10.6728;
541.8000;0.1604;10.6632;
542.1000;0.1750;10.6945;
542.4000;0.1636;10.6607;
542.7000;0.1644;10.6704;
543.0000;0.1661;10.6776;
543.3000;0.1644;10.6752;
543.6000;0.1587;10.6607;
543.9000;0.1644;10.6704;
544.2000;0.1620;10.6680;
544.5000;0.1644;10.6800;
544.8000;0.1677;10.6897;
545.1000;0.1595;10.6704;
545.4000;0.1652;10.6873;
545.7000;0.1620;10.6873;
546.0000;0.1677;10.7042;
546.3000;0.1652;10.6993;
546.6000;0.1652;10.6993;
546.9000;0.1636;10.6873;
547.2000;0.1652;10.6873;
547.5000;0.1652;10.6897;
547.8000;0.1628;10.6849;
548.1000;0.1669;10.6945;
548.4000;0.1628;10.6873;
548.7000;0.1620;10.6800;
549.0000;0.1628;10.6776;
549.3000;0.1644;10.6825;
549.6000;0.1693;10.6921;
549.9000;0.1628;10.6728;
550.2000;0.1685;10.6825;
550.5000;0.1644;10.6728;
550.8000;0.1628;10.6680;
551.1000;0.1644;10.6728;
551.4000;0.1669;10.6728;
551.7000;0.1661;10.6752;
552.0000;0.1636;10.6728;
552.3000;0.1620;10.6656;
552.6000;0.1628;10.6680;
552.9000;0.1620;10.6607;
553.2000;0.1652;10.6607;
553.5000;0.1604;10.6559;
553.8000;0.1636;10.6583;
554.1000;0.1628;10.6583;
554.4000;0.1644;10.6704;
554.7000;0.1636;10.6752;
555.0000;0.1620;10.6800;
555.3000;0.1652;10.6921;
555.6000;0.1644;10.6849;
555.9000;0.1644;10.6800;
556.2000;0.1620;10.6776;
556.5000;0.1620;10.6752;
556.8000;0.1661;10.6873;
557.1000;0.1652;10.6825;
557.4000;0.1530;10.6390;
557.7000;0.1644;10.6776;
558.0000;0.1652;10.6752;
558.3000;0.1652;10.6704;
558.6000;0.1628;10.6607;
558.9000;0.1620;10.6583;
559.2000;0.1652;10.6656;
559.5000;0.1636;10.6704;
559.8000;0.1636;10.6752;
560.1000;0.1628;10.6632;
560.4000;0.1644;10.6680;
560.7000;0.1652;10.6583;
561.0000;0.1652;10.6632;
561.3000;0.1612;10.6583;
561.6000;0.1628;10.6752;
561.9000;0.1644;10.6921;
562.2000;0.1661;10.7018;
562.5000;0.1644;10.6945;
562.8000;0.1636;10.6897;
563.1000;0.1612;10.6873;
563.4000;0.1652;10.6921;
563.7000;0.1628;10.6800;
564.0000;0.1628;10.6825;
564.3000;0.1579;10.6680;
564.6000;0.1628;10.6752;
564.9000;0.1636;10.6873;
565.2000;0.1620;10.6849;
565.5000;0.1628;10.6849;
565.8000;0.1636;10.6776;
566.1000;0.1644;10.6728;
566.4000;0.1636;10.6632;
566.7000;0.1636;10.6632;
567.0000;0.1628;10.6559;
567.3000;0.1628;10.6559;
567.6000;0.1636;10.6559;
567.9000;0.1620;10.6632;
568.2000;0.1604;10.6583;
568.5000;0.1628;10.6656;
568.8000;0.1628;10.6704;
569.1000;0.1652;10.6776;
569.4000;0.1652;10.6728;
569.7000;0.1628;10.6728;
570.0000;0.1636;10.6825;
570.3000;0.1644;10.6825;
570.6000;0.1636;10.6849;
570.9000;0.1734;10.7018;
571.2000;0.1612;10.6704;
571.5000;0.1701;10.6993;
571.8000;0.1612;10.6704;
572.1000;0.1636;10.6776;
572.4000;0.1652;10.6776;
572.7000;0.1620;10.6752;
573.0000;0.1636;10.6825;
573.3000;0.1604;10.6776;
573.6000;0.1669;10.6969;
573.9000;0.1628;10.6873;
574.2000;0.1628;10.6776;
574.5000;0.1628;10.6728;
574.8000;0.1620;10.6728;
575.1000;0.1628;10.6776;
575.4000;0.1579;10.6632;
575.7000;0.1636;10.6704;
576.0000;0.1652;10.6800;
576.3000;0.1636;10.6825;
576.6000;0.1636;10.6800;
576.9000;0.1628;10.6800;
577.2000;0.1644;10.6921;
577.5000;0.1636;10.6873;
577.8000;0.1628;10.6849;
578.1000;0.1604;10.6704;
578.4000;0.1644;10.6776;
578.7000;0.1628;10.6680;
579.0000;0.1620;10.6656;
579.3000;0.1644;10.6849;
579.6000;0.1612;10.6897;
579.9000;0.1620;10.6849;
580.2000;0.1726;10.7138;
580.5000;0.1661;10.6945;
580.8000;0.1652;10.6969;
581.1000;0.1636;10.6921;
581.4000;0.1636;10.6921;
581.7000;0.1620;10.6825;
582.0000;0.1644;10.6873;
582.3000;0.1644;10.6873;
582.6000;0.1644;10.6873;
582.9000;0.1644;10.6825;
583.2000;0.1620;10.6704;
583.5000;0.1620;10.6752;
583.8000;0.1620;10.6752;
584.1000;0.1612;10.6704;
584.4000;0.1628;10.6704;
584.7000;0.1620;10.6728;
585.0000;0.1628;10.6680;
585.3000;0.1628;10.6583;
585.6000;0.1644;10.6559;
585.9000;0.1652;10.6535;
586.2000;0.1636;10.6415;
586.5000;0.1661;10.6511;
586.8000;0.1652;10.6511;
587.1000;0.1644;10.6511;
587.4000;0.1669;10.6632;
587.7000;0.1669;10.6632;
588.0000;0.1677;10.6704;
588.3000;0.1604;10.6583;
588.6000;0.1628;10.6607;
588.9000;0.1652;10.6607;
589.2000;0.1636;10.6632;
589.5000;0.1693;10.6752;
589.8000;0.1587;10.6607;
590.1000;0.1644;10.6825;
590.4000;0.1661;10.6873;
590.7000;0.1636;10.6776;
591.0000;0.1661;10.6897;
591.3000;0.1636;10.6873;
591.6000;0.1628;10.6897;
591.9000;0.1644;10.6945;
592.2000;0.1652;10.6921;
592.5000;0.1644;10.6897;
592.8000;0.1628;10.6825;
593.1000;0.1636;10.6776;
593.4000;0.1620;10.6800;
593.7000;0.1628;10.6776;
594.0000;0.1652;10.6873;
594.3000;0.1620;10.6800;
594.6000;0.1628;10.6825;
594.9000;0.1604;10.6680;
595.2000;0.1620;10.6728;
595.5000;0.1628;10.6728;
595.8000;0.1644;10.6752;
596.1000;0.1612;10.6680;
596.4000;0.1628;10.6704;
596.7000;0.1620;10.6728;
597.0000;0.1636;10.6728;
597.3000;0.1661;10.6704;
597.6000;0.1644;10.6607;
597.9000;0.1644;10.6607;
598.2000;0.1628;10.6559;
598.5000;0.1636;10.6583;
598.8000;0.1620;10.6535;
599.1000;0.1604;10.6511;
599.4000;0.1644;10.6607;
599.7000;0.1644;10.6728;
600.0000;0.1620;10.6656;
600.3000;0.1628;10.6583;
600.6000;0.1636;10.6559;
600.9000;0.1612;10.6439;
601.2000;0.1571;10.6246;
601.5000;0.1636;10.6318;
601.8000;0.1587;10.6197;
602.1000;0.1595;10.6173;
602.4000;0.1587;10.6053;
602.7000;0.1595;10.5956;
603.0000;0.1579;10.5787;
603.3000;0.1571;10.5739;
603.6000;0.1538;10.5498;
603.9000;0.1538;10.5450;
604.2000;0.1547;10.5353;
604.5000;0.1547;10.5281;
604.8000;0.1669;10.5619;
605.1000;0.1538;10.5305;
605.4000;0.1563;10.5233;
605.7000;0.1538;10.5209;
606.0000;0.1538;10.5136;
606.3000;0.1514;10.5112;
606.6000;0.1547;10.5160;
606.9000;0.1473;10.4943;
607.2000;0.1522;10.5209;
607.5000;0.1530;10.5160;
607.8000;0.1514;10.5136;
608.1000;0.1547;10.5136;
608.4000;0.1530;10.5088;
608.7000;0.1530;10.5088;
609.0000;0.1530;10.5040;
609.3000;0.1514;10.5016;
609.6000;0.1514;10.4991;
609.9000;0.1547;10.4943;
610.2000;0.1514;10.4847;
610.5000;0.1514;10.4895;
610.8000;0.1530;10.4799;
611.1000;0.1530;10.4630;
611.4000;0.1506;10.4557;
611.7000;0.1514;10.4557;
612.0000;0.1522;10.4606;
612.3000;0.1530;10.4678;
612.6000;0.1506;10.4702;
612.9000;0.1514;10.4799;
613.2000;0.1522;10.4799;
613.5000;0.1595;10.4991;
613.8000;0.1530;10.4799;
614.1000;0.1514;10.4726;
614.4000;0.1514;10.4630;
614.7000;0.1547;10.4678;
615.0000;0.1522;10.4581;
615.3000;0.1449;10.4509;
615.6000;0.1522;10.4630;
615.9000;0.1514;10.4606;
616.2000;0.1506;10.4533;
616.5000;0.1433;10.4437;
616.8000;0.1522;10.4654;
617.1000;0.1595;10.4774;
617.4000;0.1571;10.4678;
617.7000;0.1522;10.4485;
618.0000;0.1514;10.4292;
618.3000;0.1514;10.4268;
618.6000;0.1555;10.4364;
618.9000;0.1506;10.4268;
619.2000;0.1498;10.4268;
619.5000;0.1473;10.4196;
619.8000;0.1506;10.4292;
620.1000;0.1498;10.4220;
620.4000;0.1498;10.4268;
620.7000;0.1522;10.4437;
621.0000;0.1530;10.4485;
621.3000;0.1506;10.4461;
621.6000;0.1522;10.4533;
621.9000;0.1530;10.4630;
622.2000;0.1530;10.4702;
622.5000;0.1498;10.4654;
622.8000;0.1522;10.4654;
623.1000;0.1506;10.4606;
623.4000;0.1522;10.4678;
623.7000;0.1490;10.4654;
624.0000;0.1514;10.4678;
624.3000;0.1514;10.4750;
624.6000;0.1506;10.4702;
624.9000;0.1522;10.4678;
625.2000;0.1449;10.4557;
625.5000;0.1506;10.4678;
625.8000;0.1465;10.4509;
626.1000;0.1433;10.4461;
626.4000;0.1498;10.4702;
626.7000;0.1506;10.4750;
627.0000;0.1514;10.4774;
627.3000;0.1433;10.4485;
627.6000;0.1522;10.4678;
627.9000;0.1547;10.4774;
628.2000;0.1587;10.4919;
628.5000;0.1530;10.4799;
628.8000;0.1514;10.4774;
629.1000;0.1392;10.4413;
629.4000;0.1473;10.4581;
629.7000;0.1506;10.4630;
630.0000;0.1498;10.4606;
630.3000;0.1498;10.4654;
630.6000;0.1498;10.4630;
630.9000;0.1522;10.4678;
631.2000;0.1506;10.4606;
631.5000;0.1490;10.4654;
631.8000;0.1490;10.4678;
632.1000;0.1514;10.4750;
632.4000;0.1490;10.4702;
632.7000;0.1514;10.4702;
633.0000;0.1465;10.4654;
633.3000;0.1571;10.4871;
633.6000;0.1506;10.4774;
633.9000;0.1522;10.4799;
634.2000;0.1498;10.4654;
634.5000;0.1506;10.4678;
634.8000;0.1506;10.4654;
635.1000;0.1506;10.4654;
635.4000;0.1506;10.4702;
635.7000;0.1498;10.4606;
636.0000;0.1514;10.4702;
636.3000;0.1522;10.4678;
636.6000;0.1522;10.4678;
636.9000;0.1506;10.4654;
637.2000;0.1514;10.4630;
637.5000;0.1522;10.4799;
637.8000;0.1473;10.4630;
638.1000;0.1490;10.4774;
638.4000;0.1498;10.4702;
638.7000;0.1506;10.4654;
639.0000;0.1555;10.4750;
639.3000;0.1498;10.4509;
639.6000;0.1514;10.4581;
639.9000;0.1498;10.4485;
640.2000;0.1530;10.4509;
640.5000;0.1498;10.4509;
640.8000;0.1522;10.4581;
641.1000;0.1457;10.4533;
641.4000;0.1522;10.4774;
641.7000;0.1506;10.4678;
642.0000;0.1498;10.4678;
642.3000;0.1498;10.4750;
642.6000;0.1514;10.4774;
642.9000;0.1514;10.4799;
643.2000;0.1514;10.4774;
643.5000;0.1506;10.4678;
643.8000;0.1498;10.4702;
644.1000;0.1498;10.4750;
644.4000;0.1498;10.4726;
644.7000;0.1498;10.4654;
645.0000;0.1522;10.4774;
645.3000;0.1506;10.4654;
645.6000;0.1498;10.4702;
645.9000;0.1498;10.4678;
646.2000;0.1490;10.4654;
646.5000;0.1498;10.4702;
646.8000;0.1522;10.4726;
647.1000;0.1498;10.4678;
647.4000;0.1506;10.4702;
647.7000;0.1530;10.4702;
648.0000;0.1506;10.4630;
648.3000;0.1547;10.4678;
648.6000;0.1506;10.4630;
648.9000;0.1514;10.4678;
649.2000;0.1522;10.4678;
649.5000;0.1514;10.4726;
649.8000;0.1563;10.4774;
650.1000;0.1490;10.4630;
650.4000;0.1514;10.4630;
650.7000;0.1506;10.4630;
651.0000;0.1498;10.4654;
651.3000;0.1433;10.4509;
651.6000;0.1498;10.4678;
651.9000;0.1522;10.4750;
652.2000;0.1506;10.4726;
652.5000;0.1506;10.4799;
652.8000;0.1514;10.4774;
653.1000;0.1514;10.4702;
653.4000;0.1490;10.4606;
653.7000;0.1506;10.4606;
654.0000;0.1506;10.4606;
654.3000;0.1522;10.4726;
654.6000;0.1506;10.4774;
654.9000;0.1506;10.4750;
655.2000;0.1555;10.4919;
655.5000;0.1522;10.4847;
655.8000;0.1498;10.4774;
656.1000;0.1506;10.4823;
656.4000;0.1530;10.4871;
656.7000;0.1514;10.4871;
657.0000;0.1563;10.5040;
657.3000;0.1481;10.4799;
657.6000;0.1522;10.4702;
657.9000;0.1514;10.4654;
658.2000;0.1514;10.4630;
658.5000;0.1465;10.4606;
658.8000;0.1514;10.4630;
659.1000;0.1498;10.4606;
659.4000;0.1490;10.4606;
659.7000;0.1547;10.4774;
660.0000;0.1465;10.4557;
660.3000;0.1522;10.4702;
660.6000;0.1514;10.4702;
660.9000;0.1490;10.4630;
661.2000;0.1473;10.4630;
661.5000;0.1416;10.4509;
661.8000;0.1522;10.4581;
662.1000;0.1514;10.4581;
662.4000;0.1522;10.4678;
662.7000;0.1506;10.4678;
663.0000;0.1522;10.4702;
663.3000;0.1498;10.4750;
663.6000;0.1514;10.4799;
663.9000;0.1506;10.4750;
664.2000;0.1514;10.4702;
664.5000;0.1498;10.4702;
664.8000;0.1473;10.4654;
665.1000;0.1481;10.4678;
665.4000;0.1498;10.4726;
665.7000;0.1506;10.4799;
666.0000;0.1522;10.4943;
666.3000;0.1514;10.4967;
666.6000;0.1522;10.5016;
666.9000;0.1481;10.4919;
667.2000;0.1498;10.4895;
667.5000;0.1498;10.4895;
667.8000;0.1506;10.4991;
668.1000;0.1506;10.4943;
668.4000;0.1498;10.4895;
668.7000;0.1506;10.4823;
669.0000;0.1506;10.4823;
669.3000;0.1538;10.4823;
669.6000;0.1514;10.4750;
669.9000;0.1498;10.4581;
670.2000;0.1506;10.4557;
670.5000;0.1506;10.4485;
670.8000;0.1506;10.4557;
671.1000;0.1498;10.4630;
671.4000;0.1481;10.4557;
671.7000;0.1506;10.4654;
672.0000;0.1514;10.4678;
672.3000;0.1465;10.4606;
672.6000;0.1514;10.4726;
672.9000;0.1481;10.4630;
673.2000;0.1498;10.4702;
673.5000;0.1490;10.4702;
673.8000;0.1530;10.4847;
674.1000;0.1571;10.4919;
674.4000;0.1481;10.4774;
674.7000;0.1530;10.4943;
675.0000;0.1449;10.4654;
675.3000;0.1498;10.4823;
675.6000;0.1538;10.4847;
675.9000;0.1514;10.4774;
676.2000;0.1514;10.4774;
676.5000;0.1514;10.4726;
676.8000;0.1490;10.4678;
677.1000;0.1506;10.4750;
677.4000;0.1522;10.4847;
677.7000;0.1490;10.4871;
678.0000;0.1506;10.4823;
678.3000;0.1498;10.4774;
678.6000;0.1514;10.4774;
678.9000;0.1506;10.4750;
679.2000;0.1555;10.4871;
679.5000;0.1522;10.4702;
679.8000;0.1498;10.4726;
680.1000;0.1481;10.4678;
680.4000;0.1514;10.4774;
680.7000;0.1490;10.4750;
681.0000;0.1530;10.4799;
681.3000;0.1498;10.4726;
681.6000;0.1490;10.4774;
681.9000;0.1522;10.4702;
682.2000;0.1498;10.4702;
682.5000;0.1530;10.4750;
682.8000;0.1514;10.4726;
683.1000;0.1498;10.4702;
683.4000;0.1514;10.4750;
683.7000;0.1506;10.4630;
684.0000;0.1514;10.4606;
684.3000;0.1441;10.4413;
684.6000;0.1481;10.4509;
684.9000;0.1514;10.4581;
685.2000;0.1514;10.4654;
685.5000;0.1490;10.4509;
685.8000;0.1506;10.4678;
686.1000;0.1530;10.4774;
686.4000;0.1506;10.4702;
686.7000;0.1506;10.4654;
687.0000;0.1506;10.4678;
687.3000;0.1522;10.4726;
687.6000;0.1547;10.4750;
687.9000;0.1514;10.4799;
688.2000;0.1506;10.4726;
688.5000;0.1522;10.4750;
688.8000;0.1530;10.4774;
689.1000;0.1506;10.4726;
689.4000;0.1498;10.4678;
689.7000;0.1530;10.4702;
690.0000;0.1498;10.4581;
690.3000;0.1514;10.4557;
690.6000;0.1490;10.4630;
690.9000;0.1473;10.4533;
691.2000;0.1555;10.4678;
691.5000;0.1498;10.4654;
691.8000;0.1473;10.4630;
692.1000;0.1506;10.4750;
692.4000;0.1522;10.4847;
692.7000;0.1498;10.4750;
693.0000;0.1498;10.4702;
693.3000;0.1506;10.4630;
693.6000;0.1506;10.4654;
693.9000;0.1506;10.4678;
694.2000;0.1547;10.4799;
694.5000;0.1433;10.4557;
694.8000;0.1506;10.4750;
695.1000;0.1522;10.4774;
695.4000;0.1514;10.4750;
695.7000;0.1498;10.4726;
696.0000;0.1506;10.4750;
696.3000;0.1506;10.4678;
696.6000;0.1498;10.4654;
696.9000;0.1506;10.4702;
697.2000;0.1473;10.4630;
697.5000;0.1506;10.4750;
697.8000;0.1538;10.4871;
698.1000;0.1522;10.4799;
698.4000;0.1514;10.4750;
698.7000;0.1408;10.4437;
699.0000;0.1465;10.4606;
699.3000;0.1506;10.4702;
699.6000;0.1530;10.4726;
699.9000;0.1595;10.4967;
700.2000;0.1498;10.4654;
700.5000;0.1506;10.4533;
700.8000;0.1514;10.4533;
701.1000;0.1506;10.4557;
701.4000;0.1530;10.4581;
701.7000;0.1506;10.4557;
702.0000;0.1506;10.4509;
702.3000;0.1498;10.4485;
702.6000;0.1522;10.4581;
702.9000;0.1490;10.4557;
703.2000;0.1571;10.4871;
703.5000;0.1490;10.4702;
703.8000;0.1522;10.4799;
704.1000;0.1530;10.4847;
704.4000;0.1514;10.4702;
704.7000;0.1514;10.4678;
705.0000;0.1514;10.4581;
705.3000;0.1514;10.4606;
705.6000;0.1506;10.4630;
705.9000;0.1490;10.4630;
706.2000;0.1522;10.4678;
706.5000;0.1587;10.4847;
706.8000;0.1506;10.4606;
707.1000;0.1506;10.4630;
707.4000;0.1555;10.4774;
707.7000;0.1514;10.4606;
708.0000;0.1498;10.4557;
708.3000;0.1490;10.4485;
708.6000;0.1514;10.4606;
708.9000;0.1514;10.4630;
709.2000;0.1514;10.4606;
709.5000;0.1530;10.4678;
709.8000;0.1514;10.4630;
710.1000;0.1514;10.4581;
710.4000;0.1547;10.4630;
710.7000;0.1514;10.4557;
711.0000;0.1498;10.4533;
711.3000;0.1530;10.4654;
711.6000;0.1490;10.4581;
711.9000;0.1514;10.4702;
712.2000;0.1530;10.4702;
712.5000;0.1506;10.4606;
712.8000;0.1498;10.4533;
713.1000;0.1490;10.4533;
713.4000;0.1400;10.4340;
713.7000;0.1498;10.4557;
714.0000;0.1514;10.4581;
714.3000;0.1514;10.4630;
714.6000;0.1514;10.4557;
714.9000;0.1514;10.4509;
715.2000;0.1490;10.4533;
715.5000;0.1506;10.4533;
715.8000;0.1506;10.4533;
716.1000;0.1481;10.4461;
716.4000;0.1490;10.4437;
716.7000;0.1522;10.4461;
717.0000;0.1514;10.4509;
717.3000;0.1498;10.4581;
717.6000;0.1506;10.4485;
717.9000;0.1473;10.4437;
718.2000;0.1506;10.4533;
718.5000;0.1514;10.4485;
718.8000;0.1506;10.4509;
719.1000;0.1514;10.4533;
719.4000;0.1465;10.4437;
719.7000;0.1498;10.4581;
720.0000;0.1449;10.4413;
720.3000;0.1481;10.4485;
720.6000;0.1498;10.4606;
720.9000;0.1400;10.4389;
721.2000;0.1490;10.4606;
721.5000;0.1490;10.4485;
721.8000;0.1441;10.4413;
722.1000;0.1522;10.4606;
722.4000;0.1514;10.4581;
722.7000;0.1498;10.4509;
723.0000;0.1514;10.4509;
723.3000;0.1555;10.4606;
723.6000;0.1506;10.4485;
723.9000;0.1514;10.4533;
724.2000;0.1522;10.4581;
724.5000;0.1522;10.4654;
724.8000;0.1530;10.4606;
725.1000;0.1506;10.4581;
725.4000;0.1506;10.4606;
725.7000;0.1522;10.4678;
726.0000;0.1522;10.4678;
726.3000;0.1490;10.4630;
726.6000;0.1514;10.4630;
726.9000;0.1498;10.4533;
727.2000;0.1522;10.4461;
727.5000;0.1506;10.4509;
727.8000;0.1506;10.4389;
728.1000;0.1490;10.4364;
728.4000;0.1514;10.4364;
728.7000;0.1481;10.4340;
729.0000;0.1498;10.4268;
729.3000;0.1522;10.4389;
729.6000;0.1490;10.4364;
729.9000;0.1547;10.4437;
730.2000;0.1522;10.4509;
730.5000;0.1498;10.4533;
730.8000;0.1514;10.4654;
731.1000;0.1530;10.4606;
731.4000;0.1481;10.4557;
731.7000;0.1506;10.4654;
732.0000;0.1538;10.4847;
732.3000;0.1498;10.4774;
732.6000;0.1514;10.4799;
732.9000;0.1490;10.4726;
733.2000;0.1506;10.4654;
733.5000;0.1522;10.4654;
733.8000;0.1522;10.4678;
734.1000;0.1522;10.4750;
734.4000;0.1498;10.4654;
734.7000;0.1514;10.4678;
735.0000;0.1514;10.4630;
735.3000;0.1490;10.4606;
735.6000;0.1522;10.4702;
735.9000;0.1506;10.4630;
736.2000;0.1490;10.4533;
736.5000;0.1522;10.4557;
736.8000;0.1490;10.4485;
737.1000;0.1522;10.4485;
737.4000;0.1498;10.4413;
737.7000;0.1506;10.4509;
738.0000;0.1514;10.4509;
738.3000;0.1514;10.4485;
738.6000;0.1522;10.4557;
738.9000;0.1457;10.4461;
739.2000;0.1481;10.4654;
739.5000;0.1506;10.4726;
739.8000;0.1490;10.4654;
740.1000;0.1498;10.4509;
740.4000;0.1506;10.4509;
740.7000;0.1490;10.4461;
741.0000;0.1522;10.4509;
741.3000;0.1506;10.4364;
741.6000;0.1498;10.4268;
741.9000;0.1514;10.4364;
742.2000;0.1522;10.4389;
742.5000;0.1514;10.4413;
742.8000;0.1514;10.4461;
743.1000;0.1506;10.4485;
743.4000;0.1514;10.4533;
743.7000;0.1514;10.4581;
744.0000;0.1522;10.4630;
744.3000;0.1392;10.4364;
744.6000;0.1506;10.4557;
744.9000;0.1563;10.4750;
745.2000;0.1514;10.4606;
745.5000;0.1506;10.4606;
745.8000;0.1490;10.4533;
746.1000;0.1522;10.4702;
746.4000;0.1530;10.4654;
746.7000;0.1506;10.4606;
747.0000;0.1579;10.4750;
747.3000;0.1506;10.4581;
747.6000;0.1514;10.4606;
747.9000;0.1498;10.4533;
748.2000;0.1506;10.4581;
748.5000;0.1498;10.4630;
748.8000;0.1498;10.4581;
749.1000;0.1498;10.4557;
749.4000;0.1547;10.4581;
749.7000;0.1514;10.4485;
750.0000;0.1506;10.4461;
750.3000;0.1514;10.4485;
750.6000;0.1506;10.4461;
750.9000;0.1514;10.4413;
751.2000;0.1506;10.4413;
751.5000;0.1498;10.4389;
751.8000;0.1465;10.4340;
752.1000;0.1514;10.4533;
752.4000;0.1425;10.4364;
752.7000;0.1514;10.4557;
753.0000;0.1506;10.4557;
753.3000;0.1498;10.4654;
753.6000;0.1514;10.4630;
753.9000;0.1514;10.4630;
754.2000;0.1490;10.4581;
754.5000;0.1490;10.4630;
754.8000;0.1514;10.4726;
755.1000;0.1498;10.4678;
755.4000;0.1514;10.4630;
755.7000;0.1392;10.4413;
756.0000;0.1490;10.4823;
756.3000;0.1506;10.4847;
756.6000;0.1514;10.4823;
756.9000;0.1506;10.4799;
757.2000;0.1514;10.4702;
757.5000;0.1538;10.4774;
757.8000;0.1506;10.4678;
758.1000;0.1522;10.4750;
758.4000;0.1506;10.4678;
758.7000;0.1506;10.4654;
759.0000;0.1481;10.4630;
759.3000;0.1506;10.4702;
759.6000;0.1506;10.4702;
759.9000;0.1498;10.4702;
760.2000;0.1514;10.4726;
760.5000;0.1498;10.4654;
760.8000;0.1506;10.4702;
761.1000;0.1506;10.4654;
761.4000;0.1506;10.4678;
761.7000;0.1490;10.4630;
762.0000;0.1506;10.4606;
762.3000;0.1522;10.4678;
762.6000;0.1530;10.4726;
762.9000;0.1514;10.4654;
763.2000;0.1473;10.4557;
763.5000;0.1514;10.4630;
763.8000;0.1522;10.4702;
764.1000;0.1522;10.4702;
764.4000;0.1481;10.4557;
764.7000;0.1490;10.4581;
765.0000;0.1465;10.4557;
765.3000;0.1506;10.4557;
765.6000;0.1514;10.4509;
765.9000;0.1506;10.4557;
766.2000;0.1636;10.4895;
766.5000;0.1514;10.4702;
766.8000;0.1514;10.4606;
767.1000;0.1506;10.4557;
767.4000;0.1498;10.4630;
767.7000;0.1506;10.4654;
768.0000;0.1506;10.4678;
768.3000;0.1441;10.4533;
768.6000;0.1522;10.4630;
768.9000;0.1514;10.4630;
769.2000;0.1595;10.4774;
769.5000;0.1522;10.4606;
769.8000;0.1522;10.4606;
770.1000;0.1481;10.4509;
770.4000;0.1522;10.4654;
770.7000;0.1514;10.4654;
771.0000;0.1538;10.4654;
771.3000;0.1506;10.4509;
771.6000;0.1530;10.4533;
771.9000;0.1530;10.4654;
772.2000;0.1514;10.4581;
772.5000;0.1490;10.4437;
772.8000;0.1514;10.4509;
773.1000;0.1498;10.4485;
773.4000;0.1473;10.4509;
773.7000;0.1481;10.4485;
774.0000;0.1498;10.4581;
774.3000;0.1571;10.4823;
774.6000;0.1506;10.4678;
774.9000;0.1506;10.4630;
775.2000;0.1506;10.4630;
775.5000;0.1490;10.4557;
775.8000;0.1514;10.4533;
776.1000;0.1514;10.4437;
776.4000;0.1457;10.4292;
776.7000;0.1498;10.4485;
777.0000;0.1506;10.4533;
777.3000;0.1530;10.4557;
777.6000;0.1547;10.4654;
777.9000;0.1514;10.4606;
778.2000;0.1498;10.4630;
778.5000;0.1506;10.4702;
778.8000;0.1506;10.4702;
779.1000;0.1506;10.4774;
779.4000;0.1514;10.4799;
779.7000;0.1449;10.4606;
780.0000;0.1498;10.4678;
780.3000;0.1563;10.4799;
780.6000;0.1514;10.4630;
780.9000;0.1506;10.4606;
781.2000;0.1506;10.4654;
781.5000;0.1498;10.4678;
781.8000;0.1506;10.4581;
782.1000;0.1555;10.4678;
782.4000;0.1514;10.4533;
782.7000;0.1481;10.4581;
783.0000;0.1506;10.4774;
783.3000;0.1449;10.4533;
783.6000;0.1530;10.4726;
783.9000;0.1514;10.4678;
784.2000;0.1490;10.4557;
784.5000;0.1514;10.4581;
784.8000;0.1425;10.4340;
785.1000;0.1498;10.4606;
785.4000;0.1522;10.4630;
785.7000;0.1433;10.4413;
786.0000;0.1416;10.4292;
786.3000;0.1506;10.4630;
786.6000;0.1490;10.4606;
786.9000;0.1522;10.4702;
787.2000;0.1481;10.4557;
787.5000;0.1538;10.4678;
787.8000;0.1514;10.4630;
788.1000;0.1547;10.4726;
788.4000;0.1522;10.4774;
788.7000;0.1514;10.4702;
789.0000;0.1498;10.4654;
789.3000;0.1506;10.4702;
789.6000;0.1498;10.4726;
789.9000;0.1506;10.4606;
790.2000;0.1441;10.4413;
790.5000;0.1506;10.4654;
790.8000;0.1506;10.4750;
791.1000;0.1514;10.4678;
791.4000;0.1522;10.4847;
791.7000;0.1514;10.4847;
792.0000;0.1506;10.4774;
792.3000;0.1579;10.4823;
792.6000;0.1498;10.4606;
792.9000;0.1506;10.4606;
793.2000;0.1555;10.4847;
793.5000;0.1530;10.4774;
793.8000;0.1506;10.4750;
794.1000;0.1506;10.4774;
794.4000;0.1498;10.4774;
794.7000;0.1473;10.4702;
795.0000;0.1506;10.4799;
795.3000;0.1538;10.4871;
795.6000;0.1522;10.4750;
795.9000;0.1522;10.4726;
796.2000;0.1514;10.4678;
796.5000;0.1506;10.4630;
796.8000;0.1506;10.4557;
797.1000;0.1522;10.4557;
797.4000;0.1473;10.4389;
797.7000;0.1498;10.4485;
798.0000;0.1612;10.4871;
798.3000;0.1481;10.4606;
798.6000;0.1514;10.4654;
798.9000;0.1522;10.4726;
799.2000;0.1481;10.4630;
799.5000;0.1457;10.4509;
799.8000;0.1522;10.4630;
800.1000;0.1522;10.4678;
800.4000;0.1514;10.4630;
800.7000;0.1514;10.4630;
801.0000;0.1538;10.4702;
801.3000;0.1514;10.4654;
801.6000;0.1441;10.4461;
801.9000;0.1490;10.4581;
802.2000;0.1481;10.4630;
802.5000;0.1530;10.4654;
802.8000;0.1506;10.4557;
803.1000;0.1522;10.4581;
803.4000;0.1579;10.4702;
803.7000;0.1530;10.4557;
804.0000;0.1522;10.4557;
804.3000;0.1595;10.4726;
804.6000;0.1490;10.4461;
804.9000;0.1498;10.4533;
805.2000;0.1547;10.4606;
805.5000;0.1481;10.4461;
805.8000;0.1514;10.4630;
806.1000;0.1514;10.4581;
806.4000;0.1514;10.4678;
806.7000;0.1498;10.4606;
807.0000;0.1514;10.4750;
807.3000;0.1604;10.4943;
807.6000;0.1498;10.4581;
807.9000;0.1498;10.4630;
808.2000;0.1538;10.4750;
808.5000;0.1514;10.4630;
808.8000;0.1465;10.4557;
809.1000;0.1506;10.4678;
809.4000;0.1490;10.4606;
809.7000;0.1506;10.4678;
810.0000;0.1514;10.4750;
810.3000;0.1498;10.4654;
810.6000;0.1514;10.4678;
810.9000;0.1498;10.4678;
811.2000;0.1490;10.4606;
811.5000;0.1498;10.4557;
811.8000;0.1457;10.4509;
812.1000;0.1514;10.4654;
812.4000;0.1628;10.4895;
812.7000;0.1490;10.4509;
813.0000;0.1506;10.4581;
813.3000;0.1490;10.4557;
813.6000;0.1530;10.4606;
813.9000;0.1498;10.4509;
814.2000;0.1506;10.4557;
814.5000;0.1490;10.4509;
814.8000;0.1457;10.4509;
815.1000;0.1498;10.4678;
815.4000;0.1514;10.4750;
815.7000;0.1514;10.4678;
816.0000;0.1587;10.4847;
816.3000;0.1506;10.4581;
816.6000;0.1498;10.4533;
816.9000;0.1514;10.4557;
817.2000;0.1481;10.4461;
817.5000;0.1506;10.4533;
817.8000;0.1530;10.4557;
818.1000;0.1530;10.4485;
818.4000;0.1514;10.4437;
818.7000;0.1514;10.4413;
819.0000;0.1498;10.4437;
819.3000;0.1506;10.4485;
819.6000;0.1514;10.4581;
819.9000;0.1530;10.4678;
820.2000;0.1498;10.4581;
820.5000;0.1514;10.4533;
820.8000;0.1498;10.4533;
821.1000;0.1514;10.4485;
821.4000;0.1514;10.4461;
821.7000;0.1473;10.4389;
822.0000;0.1514;10.4461;
822.3000;0.1498;10.4340;
822.6000;0.1514;10.4292;
822.9000;0.1514;10.4220;
823.2000;0.1498;10.4171;
823.5000;0.1473;10.4123;
823.8000;0.1530;10.4292;
824.1000;0.1506;10.4292;
824.4000;0.1522;10.4316;
824.7000;0.1506;10.4389;
825.0000;0.1490;10.4389;
825.3000;0.1481;10.4316;
825.6000;0.1506;10.4437;
825.9000;0.1514;10.4389;
826.2000;0.1506;10.4316;
826.5000;0.1506;10.4364;
826.8000;0.1506;10.4268;
827.1000;0.1481;10.4123;
827.4000;0.1506;10.4244;
827.7000;0.1506;10.4268;
828.0000;0.1498;10.4147;
828.3000;0.1514;10.4196;
828.6000;0.1473;10.4196;
828.9000;0.1514;10.4340;
829.2000;0.1522;10.4461;
829.5000;0.1587;10.4750;
829.8000;0.1498;10.4557;
830.1000;0.1449;10.4413;
830.4000;0.1514;10.4533;
830.7000;0.1506;10.4437;
831.0000;0.1490;10.4413;
831.3000;0.1538;10.4581;
831.6000;0.1506;10.4533;
831.9000;0.1506;10.4437;
832.2000;0.1506;10.4461;
832.5000;0.1514;10.4461;
832.8000;0.1579;10.4606;
833.1000;0.1530;10.4485;
833.4000;0.1522;10.4485;
833.7000;0.1506;10.4364;
834.0000;0.1473;10.4196;
834.3000;0.1506;10.4268;
834.6000;0.1498;10.4171;
834.9000;0.1490;10.4147;
835.2000;0.1514;10.4171;
835.5000;0.1498;10.4123;
835.8000;0.1498;10.4147;
836.1000;0.1481;10.4220;
836.4000;0.1506;10.4244;
836.7000;0.1465;10.4171;
837.0000;0.1579;10.4437;
837.3000;0.1555;10.4340;
837.6000;0.1522;10.4316;
837.9000;0.1506;10.4268;
838.2000;0.1481;10.4220;
838.5000;0.1530;10.4389;
838.8000;0.1522;10.4389;
839.1000;0.1498;10.4389;
839.4000;0.1473;10.4437;
839.7000;0.1498;10.4485;
840.0000;0.1506;10.4509;
840.3000;0.1481;10.4413;
840.6000;0.1498;10.4364;
840.9000;0.1498;10.4364;
841.2000;0.1514;10.4389;
841.5000;0.1506;10.4340;
841.8000;0.1490;10.4340;
842.1000;0.1522;10.4389;
842.4000;0.1498;10.4316;
842.7000;0.1514;10.4461;
843.0000;0.1522;10.4485;
843.3000;0.1522;10.4581;
843.6000;0.1514;10.4581;
843.9000;0.1506;10.4581;
844.2000;0.1514;10.4606;
844.5000;0.1506;10.4533;
844.8000;0.1538;10.4533;
845.1000;0.1514;10.4485;
845.4000;0.1498;10.4533;
845.7000;0.1514;10.4581;
846.0000;0.1498;10.4581;
846.3000;0.1490;10.4557;
846.6000;0.1522;10.4606;
846.9000;0.1530;10.4557;
847.2000;0.1506;10.4461;
847.5000;0.1490;10.4340;
847.8000;0.1506;10.4461;
848.1000;0.1522;10.4485;
848.4000;0.1514;10.4509;
848.7000;0.1506;10.4533;
849.0000;0.1473;10.4485;
849.3000;0.1498;10.4485;
849.6000;0.1506;10.4581;
849.9000;0.1490;10.4461;
850.2000;0.1514;10.4485;
850.5000;0.1506;10.4509;
850.8000;0.1490;10.4364;
851.1000;0.1498;10.4389;
851.4000;0.1498;10.4292;
851.7000;0.1490;10.4268;
852.0000;0.1506;10.4220;
852.3000;0.1514;10.4220;
852.6000;0.1530;10.4364;
852.9000;0.1506;10.4292;
853.2000;0.1563;10.4485;
853.5000;0.1530;10.4292;
853.8000;0.1490;10.4196;
854.1000;0.1481;10.4075;
854.4000;0.1555;10.4244;
854.7000;0.1522;10.4075;
855.0000;0.1547;10.4051;
855.3000;0.1465;10.3930;
855.6000;0.1506;10.4027;
855.9000;0.1522;10.4123;
856.2000;0.1506;10.4051;
856.5000;0.1498;10.4123;
856.8000;0.1514;10.4268;
857.1000;0.1506;10.4389;
857.4000;0.1498;10.4389;
857.7000;0.1498;10.4389;
858.0000;0.1457;10.4196;
858.3000;0.1498;10.4292;
858.6000;0.1522;10.4340;
858.9000;0.1481;10.4244;
859.2000;0.1490;10.4292;
859.5000;0.1522;10.4437;
859.8000;0.1514;10.4389;
860.1000;0.1506;10.4316;
860.4000;0.1481;10.4244;
860.7000;0.1506;10.4268;
861.0000;0.1490;10.4316;
861.3000;0.1490;10.4340;
861.6000;0.1490;10.4364;
861.9000;0.1522;10.4437;
862.2000;0.1490;10.4340;
862.5000;0.1490;10.4340;
862.8000;0.1514;10.4364;
863.1000;0.1433;10.4147;
863.4000;0.1506;10.4364;
863.7000;0.1498;10.4340;
864.0000;0.1506;10.4340;
864.3000;0.1498;10.4340;
864.6000;0.1506;10.4316;
864.9000;0.1579;10.4485;
865.2000;0.1490;10.4244;
865.5000;0.1498;10.4244;
865.8000;0.1506;10.4220;
866.1000;0.1522;10.4316;
866.4000;0.1506;10.4196;
866.7000;0.1506;10.4196;
867.0000;0.1514;10.4220;
867.3000;0.1490;10.4292;
867.6000;0.1514;10.4437;
867.9000;0.1506;10.4437;
868.2000;0.1514;10.4437;
868.5000;0.1522;10.4413;
868.8000;0.1506;10.4389;
869.1000;0.1490;10.4340;
869.4000;0.1547;10.4509;
869.7000;0.1425;10.4292;
870.0000;0.1530;10.4461;
870.3000;0.1522;10.4413;
870.6000;0.1490;10.4389;
870.9000;0.1498;10.4389;
871.2000;0.1514;10.4461;
871.5000;0.1392;10.4147;
871.8000;0.1490;10.4389;
872.1000;0.1522;10.4509;
872.4000;0.1506;10.4485;
872.7000;0.1620;10.4750;
873.0000;0.1555;10.4557;
873.3000;0.1506;10.4509;
873.6000;0.1506;10.4485;
873.9000;0.1490;10.4413;
874.2000;0.1481;10.4340;
874.5000;0.1506;10.4485;
874.8000;0.1514;10.4509;
875.1000;0.1514;10.4581;
875.4000;0.1522;10.4630;
875.7000;0.1530;10.4678;
876.0000;0.1522;10.4774;
876.3000;0.1514;10.4774;
876.6000;0.1465;10.4533;
876.9000;0.1490;10.4557;
877.2000;0.1530;10.4485;
877.5000;0.1498;10.4340;
877.8000;0.1498;10.4340;
878.1000;0.1522;10.4340;
878.4000;0.1506;10.4292;
878.7000;0.1538;10.4389;
879.0000;0.1530;10.4437;
879.3000;0.1571;10.4485;
879.6000;0.1498;10.4268;
879.9000;0.1522;10.4364;
880.2000;0.1522;10.4340;
880.5000;0.1514;10.4340;
880.8000;0.1498;10.4364;
881.1000;0.1506;10.4413;
881.4000;0.1547;10.4461;
881.7000;0.1490;10.4292;
882.0000;0.1522;10.4316;
882.3000;0.1530;10.4340;
882.6000;0.1514;10.4389;
882.9000;0.1465;10.4268;
883.2000;0.1530;10.4437;
883.5000;0.1498;10.4389;
883.8000;0.1514;10.4509;
884.1000;0.1506;10.4533;
884.4000;0.1538;10.4557;
884.7000;0.1522;10.4533;
885.0000;0.1514;10.4437;
885.3000;0.1490;10.4340;
885.6000;0.1522;10.4437;
885.9000;0.1465;10.4292;
886.2000;0.1522;10.4485;
886.5000;0.1522;10.4485;
886.8000;0.1522;10.4509;
887.1000;0.1514;10.4437;
887.4000;0.1506;10.4389;
887.7000;0.1522;10.4413;
888.0000;0.1498;10.4364;
888.3000;0.1498;10.4292;
888.6000;0.1506;10.4413;
888.9000;0.1522;10.4461;
889.2000;0.1498;10.4364;
889.5000;0.1498;10.4389;
889.8000;0.1498;10.4413;
890.1000;0.1571;10.4533;
890.4000;0.1530;10.4533;
890.7000;0.1506;10.4509;
891.0000;0.1506;10.4461;
891.3000;0.1530;10.4533;
891.6000;0.1506;10.4509;
891.9000;0.1530;10.4509;
892.2000;0.1514;10.4413;
892.5000;0.1498;10.4509;
892.8000;0.1514;10.4581;
893.1000;0.1498;10.4509;
893.4000;0.1530;10.4557;
893.7000;0.1555;10.4533;
894.0000;0.1498;10.4340;
894.3000;0.1522;10.4461;
894.6000;0.1498;10.4485;
894.9000;0.1498;10.4509;
895.2000;0.1514;10.4485;
895.5000;0.1465;10.4196;
895.8000;0.1514;10.4340;
896.1000;0.1514;10.4316;
896.4000;0.1530;10.4389;
896.7000;0.1465;10.4292;
897.0000;0.1506;10.4389;
897.3000;0.1506;10.4413;
897.6000;0.1490;10.4461;
897.9000;0.1498;10.4581;
898.2000;0.1514;10.4630;
898.5000;0.1481;10.4557;
898.8000;0.1514;10.4630;
899.1000;0.1506;10.4581;
899.4000;0.1530;10.4606;
899.7000;0.1514;10.4533;
900.0000;0.1481;10.4316;
900.3000;0.1457;10.4340;
900.6000;0.1506;10.4485;
900.9000;0.1506;10.4557;
901.2000;0.1522;10.4557;
901.5000;0.1555;10.4485;
901.8000;0.1514;10.4413;
902.1000;0.1538;10.4485;
902.4000;0.1514;10.4509;
902.7000;0.1514;10.4437;
903.0000;0.1514;10.4461;
903.3000;0.1506;10.4485;
903.6000;0.1571;10.4678;
903.9000;0.1514;10.4557;
904.2000;0.1498;10.4413;
904.5000;0.1522;10.4557;
904.8000;0.1506;10.4533;
905.1000;0.1530;10.4509;
905.4000;0.1547;10.4557;
905.7000;0.1506;10.4533;
906.0000;0.1473;10.4461;
906.3000;0.1506;10.4509;
906.6000;0.1506;10.4509;
906.9000;0.1522;10.4485;
907.2000;0.1530;10.4461;
907.5000;0.1530;10.4437;
907.8000;0.1506;10.4292;
908.1000;0.1547;10.4389;
908.4000;0.1522;10.4364;
908.7000;0.1490;10.4316;
909.0000;0.1498;10.4292;
909.3000;0.1498;10.4340;
909.6000;0.1514;10.4437;
909.9000;0.1506;10.4509;
910.2000;0.1506;10.4557;
910.5000;0.1514;10.4606;
910.8000;0.1449;10.4437;
911.1000;0.1498;10.4557;
911.4000;0.1449;10.4340;
911.7000;0.1498;10.4437;
912.0000;0.1506;10.4389;
912.3000;0.1522;10.4437;
912.6000;0.1506;10.4413;
912.9000;0.1506;10.4389;
913.2000;0.1506;10.4340;
913.5000;0.1514;10.4389;
913.8000;0.1538;10.4557;
914.1000;0.1522;10.4485;
914.4000;0.1530;10.4557;
914.7000;0.1514;10.4581;
915.0000;0.1514;10.4509;
915.3000;0.1530;10.4630;
915.6000;0.1530;10.4702;
915.9000;0.1506;10.4630;
916.2000;0.1498;10.4557;
916.5000;0.1506;10.4533;
916.8000;0.1506;10.4557;
917.1000;0.1514;10.4533;
917.4000;0.1514;10.4581;
917.7000;0.1506;10.4678;
918.0000;0.1498;10.4606;
918.3000;0.1498;10.4509;
918.6000;0.1506;10.4485;
918.9000;0.1506;10.4437;
919.2000;0.1514;10.4437;
919.5000;0.1506;10.4485;
919.8000;0.1522;10.4533;
920.1000;0.1522;10.4461;
920.4000;0.1522;10.4509;
920.7000;0.1538;10.4606;
921.0000;0.1490;10.4461;
921.3000;0.1514;10.4533;
921.6000;0.1522;10.4581;
921.9000;0.1514;10.4654;
922.2000;0.1522;10.4750;
922.5000;0.1506;10.4702;
922.8000;0.1514;10.4774;
923.1000;0.1490;10.4774;
923.4000;0.1514;10.4871;
923.7000;0.1522;10.4799;
924.0000;0.1506;10.4726;
924.3000;0.1506;10.4557;
924.6000;0.1498;10.4485;
924.9000;0.1530;10.4533;
925.2000;0.1506;10.4461;
925.5000;0.1506;10.4413;
925.8000;0.1514;10.4413;
926.1000;0.1514;10.4461;
926.4000;0.1506;10.4461;
926.7000;0.1506;10.4533;
927.0000;0.1506;10.4606;
927.3000;0.1571;10.4726;
927.6000;0.1490;10.4485;
927.9000;0.1473;10.4461;
928.2000;0.1506;10.4533;
928.5000;0.1522;10.4606;
928.8000;0.1514;10.4581;
929.1000;0.1514;10.4581;
929.4000;0.1506;10.4606;
929.7000;0.1490;10.4557;
930.0000;0.1481;10.4557;
930.3000;0.1538;10.4726;
930.6000;0.1506;10.4630;
930.9000;0.1506;10.4654;
931.2000;0.1514;10.4799;
931.5000;0.1506;10.4726;
931.8000;0.1506;10.4750;
932.1000;0.1498;10.4726;
932.4000;0.1522;10.4799;
932.7000;0.1530;10.4799;
933.0000;0.1506;10.4726;
933.3000;0.1490;10.4702;
933.6000;0.1506;10.4702;
933.9000;0.1498;10.4678;
934.2000;0.1514;10.4702;
934.5000;0.1498;10.4726;
934.8000;0.1514;10.4726;
935.1000;0.1555;10.4847;
935.4000;0.1465;10.4678;
935.7000;0.1506;10.4871;
936.0000;0.1506;10.4847;
936.3000;0.1514;10.4871;
936.6000;0.1514;10.4799;
936.9000;0.1522;10.4750;
937.2000;0.1490;10.4557;
937.5000;0.1465;10.4485;
937.8000;0.1514;10.4557;
938.1000;0.1490;10.4557;
938.4000;0.1498;10.4654;
938.7000;0.1506;10.4630;
939.0000;0.1522;10.4799;
939.3000;0.1530;10.4823;
939.6000;0.1506;10.4726;
939.9000;0.1522;10.4799;
940.2000;0.1522;10.4774;
940.5000;0.1506;10.4702;
940.8000;0.1498;10.4630;
941.1000;0.1530;10.4654;
941.4000;0.1514;10.4654;
941.7000;0.1506;10.4606;
942.0000;0.1506;10.4630;
942.3000;0.1530;10.4678;
942.6000;0.1514;10.4654;
942.9000;0.1538;10.4606;
943.2000;0.1498;10.4485;
943.5000;0.1579;10.4678;
943.8000;0.1514;10.4557;
944.1000;0.1514;10.4654;
944.4000;0.1530;10.4630;
944.7000;0.1522;10.4581;
945.0000;0.1490;10.4437;
945.3000;0.1538;10.4654;
945.6000;0.1522;10.4702;
945.9000;0.1514;10.4750;
946.2000;0.1433;10.4509;
946.5000;0.1514;10.4654;
946.8000;0.1498;10.4581;
947.1000;0.1481;10.4606;
947.4000;0.1498;10.4581;
947.7000;0.1514;10.4750;
948.0000;0.1490;10.4726;
948.3000;0.1514;10.4823;
948.6000;0.1481;10.4750;
948.9000;0.1514;10.4823;
949.2000;0.1498;10.4774;
949.5000;0.1506;10.4847;
949.8000;0.1522;10.4774;
950.1000;0.1514;10.4799;
950.4000;0.1530;10.4823;
950.7000;0.1522;10.4847;
951.0000;0.1490;10.4726;
951.3000;0.1514;10.4774;
951.6000;0.1514;10.4678;
951.9000;0.1522;10.4750;
952.2000;0.1498;10.4702;
952.5000;0.1498;10.4750;
952.8000;0.1506;10.4726;
953.1000;0.1506;10.4750;
953.4000;0.1498;10.4750;
953.7000;0.1490;10.4774;
954.0000;0.1481;10.4750;
954.3000;0.1498;10.4750;
954.6000;0.1498;10.4726;
954.9000;0.1449;10.4557;
955.2000;0.1498;10.4678;
955.5000;0.1498;10.4678;
955.8000;0.1514;10.4750;
956.1000;0.1506;10.4726;
956.4000;0.1498;10.4654;
956.7000;0.1530;10.4750;
957.0000;0.1522;10.4774;
957.3000;0.1506;10.4726;
957.6000;0.1522;10.4774;
957.9000;0.1506;10.4774;
958.2000;0.1506;10.4774;
958.5000;0.1514;10.4823;
958.8000;0.1506;10.4750;
959.1000;0.1514;10.4799;
959.4000;0.1563;10.4774;
959.7000;0.1514;10.4654;
960.0000;0.1522;10.4750;
960.3000;0.1498;10.4630;
960.6000;0.1506;10.4678;
960.9000;0.1506;10.4750;
961.2000;0.1514;10.4799;
961.5000;0.1604;10.5064;
961.8000;0.1506;10.4799;
962.1000;0.1514;10.4799;
962.4000;0.1506;10.4726;
962.7000;0.1506;10.4799;
963.0000;0.1506;10.4799;
963.3000;0.1538;10.4847;
963.6000;0.1498;10.4726;
963.9000;0.1490;10.4678;
964.2000;0.1522;10.4774;
964.5000;0.1530;10.4750;
964.8000;0.1522;10.4654;
965.1000;0.1506;10.4606;
965.4000;0.1498;10.4533;
965.7000;0.1506;10.4630;
966.0000;0.1522;10.4630;
966.3000;0.1514;10.4606;
966.6000;0.1514;10.4606;
966.9000;0.1522;10.4557;
967.2000;0.1514;10.4557;
967.5000;0.1514;10.4533;
967.8000;0.1498;10.4509;
968.1000;0.1433;10.4340;
968.4000;0.1506;10.4581;
968.7000;0.1506;10.4630;
969.0000;0.1506;10.4654;
969.3000;0.1481;10.4678;
969.6000;0.1514;10.4750;
969.9000;0.1522;10.4750;
970.2000;0.1514;10.4654;
970.5000;0.1498;10.4606;
970.8000;0.1506;10.4581;
971.1000;0.1522;10.4702;
971.4000;0.1522;10.4581;
971.7000;0.1522;10.4533;
972.0000;0.1514;10.4509;
972.3000;0.1530;10.4557;
972.6000;0.1514;10.4485;
972.9000;0.1506;10.4437;
973.2000;0.1498;10.4340;
973.5000;0.1498;10.4340;
973.8000;0.1506;10.4340;
974.1000;0.1595;10.4533;
974.4000;0.1514;10.4461;
974.7000;0.1522;10.4461;
975.0000;0.1579;10.4654;
975.3000;0.1506;10.4461;
975.6000;0.1514;10.4485;
975.9000;0.1522;10.4485;
976.2000;0.1571;10.4702;
976.5000;0.1498;10.4461;
976.8000;0.1514;10.4437;
977.1000;0.1563;10.4533;
977.4000;0.1514;10.4413;
977.7000;0.1498;10.4461;
978.0000;0.1498;10.4413;
978.3000;0.1506;10.4413;
978.6000;0.1514;10.4485;
978.9000;0.1506;10.4485;
979.2000;0.1555;10.4630;
979.5000;0.1498;10.4581;
979.8000;0.1506;10.4557;
980.1000;0.1473;10.4437;
980.4000;0.1490;10.4509;
980.7000;0.1498;10.4533;
981.0000;0.1498;10.4606;
981.3000;0.1514;10.4557;
981.6000;0.1506;10.4581;
981.9000;0.1473;10.4581;
982.2000;0.1514;10.4630;
982.5000;0.1498;10.4606;
982.8000;0.1506;10.4606;
983.1000;0.1514;10.4678;
983.4000;0.1498;10.4630;
983.7000;0.1595;10.4895;
984.0000;0.1457;10.4557;
984.3000;0.1563;10.4847;
984.6000;0.1522;10.4726;
984.9000;0.1522;10.4702;
985.2000;0.1522;10.4726;
985.5000;0.1514;10.4750;
985.8000;0.1498;10.4750;
986.1000;0.1522;10.4799;
986.4000;0.1490;10.4630;
986.7000;0.1514;10.4654;
987.0000;0.1506;10.4630;
987.3000;0.1506;10.4702;
987.6000;0.1514;10.4702;
987.9000;0.1392;10.4413;
988.2000;0.1522;10.4702;
988.5000;0.1506;10.4654;
988.8000;0.1514;10.4581;
989.1000;0.1506;10.4606;
989.4000;0.1481;10.4581;
989.7000;0.1506;10.4630;
990.0000;0.1587;10.4799;
990.3000;0.1522;10.4630;
990.6000;0.1506;10.4606;
990.9000;0.1514;10.4654;
991.2000;0.1506;10.4678;
991.5000;0.1571;10.4847;
991.8000;0.1522;10.4630;
992.1000;0.1506;10.4557;
992.4000;0.1522;10.4630;
992.7000;0.1522;10.4678;
993.0000;0.1408;10.4437;
993.3000;0.1498;10.4606;
993.6000;0.1514;10.4654;
993.9000;0.1506;10.4654;
994.2000;0.1481;10.4533;
994.5000;0.1481;10.4485;
994.8000;0.1514;10.4557;
995.1000;0.1506;10.4533;
995.4000;0.1514;10.4581;
995.7000;0.1498;10.4606;
996.0000;0.1538;10.4750;
996.3000;0.1506;10.4774;
996.6000;0.1514;10.4750;
996.9000;0.1498;10.4702;
997.2000;0.1514;10.4726;
997.5000;0.1514;10.4726;
997.8000;0.1514;10.4678;
998.1000;0.1506;10.4702;
998.4000;0.1530;10.4750;
998.7000;0.1514;10.4823;
999.0000;0.1506;10.4823;
999.3000;0.1506;10.4726;
999.6000;0.1514;10.4750;
999.9000;0.1490;10.4678;
1000.2000;0.1571;10.4871;
1000.5000;0.1498;10.4774;
1000.8000;0.1498;10.4774;
1001.1000;0.1506;10.4799;
1001.4000;0.1506;10.4823;
1001.7000;0.1522;10.4799;
1002.0000;0.1514;10.4774;
1002.3000;0.1481;10.4678;
1002.6000;0.1514;10.4823;
1002.9000;0.1449;10.4606;
1003.2000;0.1490;10.4702;
1003.5000;0.1498;10.4750;
1003.8000;0.1514;10.4847;
1004.1000;0.1506;10.4847;
1004.4000;0.1506;10.4919;
1004.7000;0.1498;10.4871;
1005.0000;0.1506;10.4871;
1005.3000;0.1490;10.4823;
1005.6000;0.1498;10.4750;
1005.9000;0.1506;10.4799;
1006.2000;0.1506;10.4847;
1006.5000;0.1498;10.4823;
1006.8000;0.1514;10.4847;
1007.1000;0.1506;10.4799;
1007.4000;0.1465;10.4678;
1007.7000;0.1457;10.4581;
1008.0000;0.1522;10.4823;
1008.3000;0.1481;10.4702;
1008.6000;0.1481;10.4726;
1008.9000;0.1473;10.4702;
1009.2000;0.1530;10.4823;
1009.5000;0.1514;10.4774;
1009.8000;0.1506;10.4702;
1010.1000;0.1473;10.4581;
1010.4000;0.1530;10.4678;
1010.7000;0.1498;10.4581;
1011.0000;0.1522;10.4678;
1011.3000;0.1506;10.4702;
1011.6000;0.1481;10.4726;
1011.9000;0.1514;10.4871;
1012.2000;0.1490;10.4847;
1012.5000;0.1506;10.4847;
1012.8000;0.1522;10.4871;
1013.1000;0.1530;10.4943;
1013.4000;0.1522;10.4919;
1013.7000;0.1506;10.4774;
1014.0000;0.1522;10.4774;
1014.3000;0.1538;10.4750;
1014.6000;0.1514;10.4750;
1014.9000;0.1506;10.4726;
1015.2000;0.1522;10.4750;
1015.5000;0.1514;10.4799;
1015.8000;0.1514;10.4799;
1016.1000;0.1441;10.4726;
1016.4000;0.1473;10.4678;
1016.7000;0.1612;10.5016;
1017.0000;0.1522;10.4799;
1017.3000;0.1449;10.4509;
1017.6000;0.1498;10.4726;
1017.9000;0.1514;10.4726;
1018.2000;0.1604;10.4895;
1018.5000;0.1620;10.4871;
1018.8000;0.1514;10.4509;
1019.1000;0.1514;10.4509;
1019.4000;0.1538;10.4581;
1019.7000;0.1522;10.4581;
1020.0000;0.1498;10.4557;
1020.3000;0.1514;10.4726;
1020.6000;0.1506;10.4750;
1020.9000;0.1530;10.4750;
1021.2000;0.1514;10.4702;
1021.5000;0.1506;10.4606;
1021.8000;0.1514;10.4702;
1022.1000;0.1538;10.4871;
1022.4000;0.1498;10.4799;
1022.7000;0.1498;10.4726;
1023.0000;0.1498;10.4726;
1023.3000;0.1490;10.4726;
1023.6000;0.1506;10.4678;
1023.9000;0.1498;10.4606;
1024.2000;0.1416;10.4364;
1024.5000;0.1514;10.4606;
1024.8000;0.1506;10.4509;
1025.1000;0.1457;10.4340;
1025.4000;0.1530;10.4581;
1025.7000;0.1514;10.4606;
1026.0000;0.1514;10.4533;
1026.3000;0.1579;10.4606;
1026.6000;0.1506;10.4437;
1026.9000;0.1530;10.4413;
1027.2000;0.1563;10.4533;
1027.5000;0.1514;10.4413;
1027.8000;0.1547;10.4461;
1028.1000;0.1530;10.4364;
1028.4000;0.1506;10.4340;
1028.7000;0.1457;10.4316;
1029.0000;0.1506;10.4413;
1029.3000;0.1506;10.4485;
1029.6000;0.1530;10.4557;
1029.9000;0.1522;10.4606;
1030.2000;0.1514;10.4678;
1030.5000;0.1555;10.4750;
1030.8000;0.1400;10.4364;
1031.1000;0.1506;10.4630;
1031.4000;0.1498;10.4606;
1031.7000;0.1449;10.4485;
1032.0000;0.1530;10.4654;
1032.3000;0.1530;10.4630;
1032.6000;0.1522;10.4581;
1032.9000;0.1498;10.4509;
1033.2000;0.1506;10.4509;
1033.5000;0.1547;10.4606;
1033.8000;0.1490;10.4437;
1034.1000;0.1514;10.4509;
1034.4000;0.1506;10.4509;
1034.7000;0.1547;10.4557;
1035.0000;0.1514;10.4389;
1035.3000;0.1514;10.4316;
1035.6000;0.1587;10.4533;
1035.9000;0.1425;10.4123;
1036.2000;0.1506;10.4316;
1036.5000;0.1498;10.4196;
1036.8000;0.1498;10.4123;
1037.1000;0.1473;10.4075;
1037.4000;0.1514;10.4147;
1037.7000;0.1490;10.4051;
1038.0000;0.1522;10.4171;
1038.3000;0.1498;10.4171;
1038.6000;0.1579;10.4340;
1038.9000;0.1522;10.4292;
1039.2000;0.1538;10.4461;
1039.5000;0.1490;10.4389;
1039.8000;0.1522;10.4461;
1040.1000;0.1506;10.4389;
1040.4000;0.1498;10.4437;
1040.7000;0.1506;10.4485;
1041.0000;0.1571;10.4726;
1041.3000;0.1498;10.4557;
1041.6000;0.1514;10.4630;
1041.9000;0.1514;10.4630;
1042.2000;0.1522;10.4702;
1042.5000;0.1506;10.4702;
1042.8000;0.1514;10.4726;
1043.1000;0.1514;10.4726;
1043.4000;0.1506;10.4726;
1043.7000;0.1522;10.4774;
1044.0000;0.1522;10.4774;
1044.3000;0.1490;10.4678;
1044.6000;0.1514;10.4774;
1044.9000;0.1522;10.4774;
1045.2000;0.1473;10.4606;
1045.5000;0.1481;10.4630;
1045.8000;0.1506;10.4606;
1046.1000;0.1498;10.4557;
1046.4000;0.1498;10.4581;
1046.7000;0.1506;10.4581;
1047.0000;0.1563;10.4750;
1047.3000;0.1490;10.4581;
1047.6000;0.1506;10.4606;
1047.9000;0.1522;10.4630;
1048.2000;0.1587;10.4919;
1048.5000;0.1506;10.4678;
1048.8000;0.1522;10.4702;
1049.1000;0.1514;10.4678;
1049.4000;0.1498;10.4678;
1049.7000;0.1506;10.4750;
1050.0000;0.1530;10.4774;
1050.3000;0.1522;10.4726;
1050.6000;0.1514;10.4654;
1050.9000;0.1506;10.4606;
1051.2000;0.1514;10.4533;
1051.5000;0.1498;10.4509;
1051.8000;0.1498;10.4581;
1052.1000;0.1506;10.4533;
1052.4000;0.1522;10.4485;
1052.7000;0.1490;10.4413;
1053.0000;0.1506;10.4485;
1053.3000;0.1498;10.4437;
1053.6000;0.1522;10.4437;
1053.9000;0.1498;10.4437;
1054.2000;0.1514;10.4630;
1054.5000;0.1359;10.4171;
1054.8000;0.1555;10.4702;
1055.1000;0.1522;10.4678;
1055.4000;0.1498;10.4654;
1055.7000;0.1465;10.4581;
1056.0000;0.1514;10.4654;
1056.3000;0.1433;10.4364;
1056.6000;0.1595;10.4774;
1056.9000;0.1522;10.4606;
1057.2000;0.1522;10.4509;
1057.5000;0.1538;10.4557;
1057.8000;0.1506;10.4461;
1058.1000;0.1506;10.4413;
1058.4000;0.1514;10.4557;
1058.7000;0.1538;10.4606;
1059.0000;0.1538;10.4533;
1059.3000;0.1514;10.4364;
1059.6000;0.1514;10.4364;
1059.9000;0.1522;10.4364;
1060.2000;0.1522;10.4437;
1060.5000;0.1530;10.4509;
1060.8000;0.1506;10.4437;
1061.1000;0.1490;10.4437;
1061.4000;0.1530;10.4461;
1061.7000;0.1522;10.4533;
1062.0000;0.1506;10.4485;
1062.3000;0.1457;10.4437;
1062.6000;0.1530;10.4630;
1062.9000;0.1490;10.4485;
1063.2000;0.1498;10.4533;
1063.5000;0.1522;10.4557;
1063.8000;0.1506;10.4485;
1064.1000;0.1530;10.4557;
1064.4000;0.1514;10.4533;
1064.7000;0.1538;10.4606;
1065.0000;0.1522;10.4606;
1065.3000;0.1530;10.4630;
1065.6000;0.1481;10.4461;
1065.9000;0.1522;10.4581;
1066.2000;0.1506;10.4509;
1066.5000;0.1490;10.4485;
1066.8000;0.1498;10.4413;
1067.1000;0.1514;10.4389;
1067.4000;0.1498;10.4364;
1067.7000;0.1522;10.4461;
1068.0000;0.1473;10.4389;
1068.3000;0.1530;10.4509;
1068.6000;0.1514;10.4509;
1068.9000;0.1506;10.4437;
1069.2000;0.1449;10.4316;
1069.5000;0.1498;10.4364;
1069.8000;0.1530;10.4437;
1070.1000;0.1514;10.4437;
1070.4000;0.1636;10.4799;
1070.7000;0.1522;10.4509;
1071.0000;0.1522;10.4533;
1071.3000;0.1506;10.4485;
1071.6000;0.1506;10.4509;
1071.9000;0.1465;10.4389;
1072.2000;0.1506;10.4461;
1072.5000;0.1481;10.4316;
1072.8000;0.1514;10.4437;
1073.1000;0.1522;10.4461;
1073.4000;0.1506;10.4461;
1073.7000;0.1514;10.4437;
1074.0000;0.1506;10.4413;
1074.3000;0.1506;10.4364;
1074.6000;0.1498;10.4437;
1074.9000;0.1481;10.4389;
1075.2000;0.1408;10.4268;
1075.5000;0.1522;10.4509;
1075.8000;0.1522;10.4533;
1076.1000;0.1490;10.4509;
1076.4000;0.1473;10.4413;
1076.7000;0.1587;10.4726;
1077.0000;0.1514;10.4654;
1077.3000;0.1481;10.4533;
1077.6000;0.1473;10.4533;
1077.9000;0.1522;10.4702;
1078.2000;0.1498;10.4654;
1078.5000;0.1579;10.4823;
1078.8000;0.1514;10.4630;
1079.1000;0.1498;10.4702;
1079.4000;0.1522;10.4750;
1079.7000;0.1506;10.4750;
1080.0000;0.1514;10.4799;
1080.3000;0.1506;10.4799;
1080.6000;0.1522;10.4726;
1080.9000;0.1522;10.4726;
1081.2000;0.1514;10.4678;
1081.5000;0.1522;10.4678;
1081.8000;0.1506;10.4581;
1082.1000;0.1457;10.4461;
1082.4000;0.1522;10.4606;
1082.7000;0.1522;10.4606;
1083.0000;0.1498;10.4606;
1083.3000;0.1449;10.4461;
1083.6000;0.1514;10.4678;
1083.9000;0.1498;10.4654;
1084.2000;0.1514;10.4678;
1084.5000;0.1530;10.4726;
1084.8000;0.1522;10.4654;
1085.1000;0.1465;10.4509;
1085.4000;0.1514;10.4606;
1085.7000;0.1514;10.4630;
1086.0000;0.1506;10.4581;
1086.3000;0.1514;10.4606;
1086.6000;0.1514;10.4606;
1086.9000;0.1522;10.4630;
1087.2000;0.1514;10.4606;
1087.5000;0.1514;10.4630;
1087.8000;0.1506;10.4581;
1088.1000;0.1449;10.4461;
1088.4000;0.1538;10.4750;
1088.7000;0.1506;10.4654;
1089.0000;0.1506;10.4678;
1089.3000;0.1530;10.4799;
1089.6000;0.1514;10.4750;
1089.9000;0.1506;10.4702;
1090.2000;0.1498;10.4726;
1090.5000;0.1514;10.4895;
1090.8000;0.1522;10.4895;
1091.1000;0.1481;10.4702;
1091.4000;0.1481;10.4702;
1091.7000;0.1506;10.4823;
1092.0000;0.1514;10.4871;
1092.3000;0.1538;10.4943;
1092.6000;0.1530;10.4799;
1092.9000;0.1506;10.4702;
1093.2000;0.1514;10.4750;
1093.5000;0.1538;10.4871;
1093.8000;0.1490;10.4774;
1094.1000;0.1506;10.4702;
1094.4000;0.1514;10.4702;
1094.7000;0.1514;10.4702;
1095.0000;0.1514;10.4630;
1095.3000;0.1514;10.4630;
1095.6000;0.1514;10.4606;
1095.9000;0.1514;10.4557;
1096.2000;0.1522;10.4485;
1096.5000;0.1498;10.4437;
1096.8000;0.1498;10.4606;
1097.1000;0.1506;10.4702;
1097.4000;0.1522;10.4678;
1097.7000;0.1522;10.4678;
1098.0000;0.1490;10.4533;
1098.3000;0.1506;10.4533;
1098.6000;0.1514;10.4533;
1098.9000;0.1490;10.4533;
1099.2000;0.1620;10.4799;
1099.5000;0.1530;10.4533;
1099.8000;0.1530;10.4509;
1100.1000;0.1481;10.4413;
1100.4000;0.1514;10.4509;
1100.7000;0.1547;10.4606;
1101.0000;0.1538;10.4485;
1101.3000;0.1530;10.4413;
1101.6000;0.1473;10.4196;
1101.9000;0.1571;10.4461;
1102.2000;0.1506;10.4292;
1102.5000;0.1522;10.4413;
1102.8000;0.1514;10.4389;
1103.1000;0.1481;10.4364;
1103.4000;0.1522;10.4437;
1103.7000;0.1481;10.4389;
1104.0000;0.1473;10.4389;
1104.3000;0.1481;10.4557;
1104.6000;0.1506;10.4750;
1104.9000;0.1514;10.4678;
1105.2000;0.1538;10.4726;
1105.5000;0.1498;10.4630;
1105.8000;0.1514;10.4678;
1106.1000;0.1514;10.4654;
1106.4000;0.1530;10.4726;
1106.7000;0.1514;10.4630;
1107.0000;0.1636;10.4919;
1107.3000;0.1530;10.4654;
1107.6000;0.1506;10.4581;
1107.9000;0.1473;10.4461;
1108.2000;0.1441;10.4364;
1108.5000;0.1506;10.4533;
1108.8000;0.1473;10.4340;
1109.1000;0.1538;10.4509;
1109.4000;0.1506;10.4437;
1109.7000;0.1522;10.4437;
1110.0000;0.1514;10.4485;
1110.3000;0.1506;10.4581;
1110.6000;0.1506;10.4509;
1110.9000;0.1506;10.4557;
1111.2000;0.1490;10.4509;
1111.5000;0.1538;10.4678;
1111.8000;0.1425;10.4389;
1112.1000;0.1620;10.4967;
1112.4000;0.1563;10.4823;
1112.7000;0.1498;10.4509;
1113.0000;0.1522;10.4509;
1113.3000;0.1506;10.4581;
1113.6000;0.1490;10.4533;
1113.9000;0.1457;10.4413;
1114.2000;0.1530;10.4557;
1114.5000;0.1498;10.4461;
1114.8000;0.1506;10.4461;
1115.1000;0.1506;10.4557;
1115.4000;0.1506;10.4606;
1115.7000;0.1490;10.4485;
1116.0000;0.1530;10.4533;
1116.3000;0.1490;10.4461;
1116.6000;0.1514;10.4437;
1116.9000;0.1506;10.4461;
1117.2000;0.1522;10.4557;
1117.5000;0.1498;10.4533;
1117.8000;0.1595;10.4726;
1118.1000;0.1506;10.4509;
1118.4000;0.1465;10.4389;
1118.7000;0.1506;10.4581;
1119.0000;0.1514;10.4533;
1119.3000;0.1498;10.4557;
1119.6000;0.1498;10.4581;
1119.9000;0.1506;10.4581;
1120.2000;0.1506;10.4630;
1120.5000;0.1506;10.4630;
1120.8000;0.1490;10.4606;
1121.1000;0.1522;10.4533;
1121.4000;0.1506;10.4557;
1121.7000;0.1522;10.4606;
1122.0000;0.1514;10.4654;
1122.3000;0.1490;10.4678;
1122.6000;0.1506;10.4654;
1122.9000;0.1514;10.4581;
1123.2000;0.1555;10.4654;
1123.5000;0.1522;10.4606;
1123.8000;0.1514;10.4581;
1124.1000;0.1514;10.4606;
1124.4000;0.1514;10.4678;
1124.7000;0.1538;10.4702;
1125.0000;0.1514;10.4702;
1125.3000;0.1522;10.4799;
1125.6000;0.1506;10.4750;
1125.9000;0.1506;10.4702;
1126.2000;0.1514;10.4702;
1126.5000;0.1571;10.4823;
1126.8000;0.1514;10.4509;
1127.1000;0.1425;10.4389;
1127.4000;0.1490;10.4606;
1127.7000;0.1522;10.4678;
1128.0000;0.1538;10.4726;
1128.3000;0.1506;10.4678;
1128.6000;0.1498;10.4678;
1128.9000;0.1498;10.4726;
1129.2000;0.1514;10.4750;
1129.5000;0.1498;10.4678;
1129.8000;0.1506;10.4654;
1130.1000;0.1506;10.4581;
1130.4000;0.1498;10.4461;
1130.7000;0.1506;10.4485;
1131.0000;0.1498;10.4437;
1131.3000;0.1465;10.4340;
1131.6000;0.1522;10.4509;
1131.9000;0.1538;10.4581;
1132.2000;0.1498;10.4581;
1132.5000;0.1530;10.4726;
1132.8000;0.1522;10.4678;
1133.1000;0.1433;10.4389;
1133.4000;0.1465;10.4461;
1133.7000;0.1522;10.4581;
1134.0000;0.1514;10.4509;
1134.3000;0.1538;10.4533;
1134.6000;0.1425;10.4364;
1134.9000;0.1465;10.4437;
1135.2000;0.1506;10.4533;
1135.5000;0.1506;10.4606;
1135.8000;0.1506;10.4581;
1136.1000;0.1579;10.4750;
1136.4000;0.1481;10.4461;
1136.7000;0.1465;10.4461;
1137.0000;0.1522;10.4581;
1137.3000;0.1490;10.4461;
1137.6000;0.1490;10.4437;
1137.9000;0.1538;10.4630;
1138.2000;0.1514;10.4509;
1138.5000;0.1514;10.4461;
1138.8000;0.1506;10.4509;
1139.1000;0.1481;10.4461;
1139.4000;0.1514;10.4485;
1139.7000;0.1481;10.4461;
1140.0000;0.1490;10.4509;
1140.3000;0.1514;10.4485;
1140.6000;0.1498;10.4461;
1140.9000;0.1522;10.4509;
1141.2000;0.1522;10.4485;
1141.5000;0.1498;10.4364;
1141.8000;0.1506;10.4437;
1142.1000;0.1490;10.4413;
1142.4000;0.1506;10.4485;
1142.7000;0.1498;10.4413;
1143.0000;0.1514;10.4461;
1143.3000;0.1522;10.4509;
1143.6000;0.1481;10.4485;
1143.9000;0.1514;10.4533;
1144.2000;0.1490;10.4509;
1144.5000;0.1514;10.4678;
1144.8000;0.1498;10.4678;
1145.1000;0.1498;10.4630;
1145.4000;0.1498;10.4557;
1145.7000;0.1522;10.4581;
1146.0000;0.1522;10.4557;
1146.3000;0.1498;10.4509;
1146.6000;0.1498;10.4654;
1146.9000;0.1571;10.4847;
1147.2000;0.1506;10.4654;
1147.5000;0.1506;10.4678;
1147.8000;0.1514;10.4630;
1148.1000;0.1490;10.4461;
1148.4000;0.1530;10.4581;
1148.7000;0.1465;10.4364;
1149.0000;0.1563;10.4678;
1149.3000;0.1538;10.4606;
1149.6000;0.1490;10.4340;
1149.9000;0.1571;10.4461;
1150.2000;0.1481;10.4268;
1150.5000;0.1473;10.4220;
1150.8000;0.1514;10.4389;
1151.1000;0.1563;10.4461;
1151.4000;0.1498;10.4292;
1151.7000;0.1506;10.4316;
1152.0000;0.1514;10.4268;
1152.3000;0.1530;10.4244;
1152.6000;0.1522;10.4268;
1152.9000;0.1522;10.4340;
1153.2000;0.1514;10.4413;
1153.5000;0.1506;10.4485;
1153.8000;0.1514;10.4533;
1154.1000;0.1498;10.4437;
1154.4000;0.1514;10.4557;
1154.7000;0.1522;10.4533;
1155.0000;0.1465;10.4389;
1155.3000;0.1506;10.4606;
1155.6000;0.1538;10.4678;
1155.9000;0.1522;10.4847;
1156.2000;0.1498;10.4847;
1156.5000;0.1490;10.4774;
1156.8000;0.1498;10.4702;
1157.1000;0.1473;10.4630;
1157.4000;0.1506;10.4678;
1157.7000;0.1498;10.4678;
1158.0000;0.1514;10.4654;
1158.3000;0.1522;10.4654;
1158.6000;0.1457;10.4461;
1158.9000;0.1465;10.4485;
1159.2000;0.1522;10.4654;
1159.5000;0.1514;10.4606;
1159.8000;0.1514;10.4606;
1160.1000;0.1473;10.4509;
1160.4000;0.1506;10.4581;
1160.7000;0.1514;10.4606;
1161.0000;0.1514;10.4630;
1161.3000;0.1522;10.4678;
1161.6000;0.1506;10.4726;
1161.9000;0.1530;10.4726;
1162.2000;0.1514;10.4702;
1162.5000;0.1514;10.4678;
1162.8000;0.1571;10.4774;
1163.1000;0.1563;10.4702;
1163.4000;0.1506;10.4533;
1163.7000;0.1514;10.4606;
1164.0000;0.1506;10.4678;
1164.3000;0.1506;10.4774;
1164.6000;0.1514;10.4799;
1164.9000;0.1530;10.4750;
1165.2000;0.1490;10.4678;
1165.5000;0.1506;10.4774;
1165.8000;0.1522;10.4750;
1166.1000;0.1514;10.4799;
1166.4000;0.1506;10.4823;
1166.7000;0.1506;10.4847;
1167.0000;0.1530;10.4919;
1167.3000;0.1457;10.4750;
1167.6000;0.1530;10.4919;
1167.9000;0.1490;10.4823;
1168.2000;0.1514;10.4823;
1168.5000;0.1490;10.4799;
1168.8000;0.1506;10.4943;
1169.1000;0.1490;10.4895;
1169.4000;0.1514;10.4991;
1169.7000;0.1473;10.4774;
1170.0000;0.1514;10.4799;
1170.3000;0.1506;10.4750;
1170.6000;0.1628;10.5064;
1170.9000;0.1506;10.4702;
1171.2000;0.1530;10.4606;
1171.5000;0.1514;10.4581;
1171.8000;0.1514;10.4485;
1172.1000;0.1538;10.4557;
1172.4000;0.1498;10.4340;
1172.7000;0.1514;10.4389;
1173.0000;0.1522;10.4340;
1173.3000;0.1392;10.4075;
1173.6000;0.1498;10.4292;
1173.9000;0.1506;10.4316;
1174.2000;0.1506;10.4268;
1174.5000;0.1506;10.4268;
1174.8000;0.1490;10.4196;
1175.1000;0.1522;10.4340;
1175.4000;0.1555;10.4461;
1175.7000;0.1457;10.4316;
1176.0000;0.1490;10.4389;
1176.3000;0.1522;10.4340;
1176.6000;0.1514;10.4364;
1176.9000;0.1506;10.4413;
1177.2000;0.1514;10.4364;
1177.5000;0.1473;10.4292;
1177.8000;0.1514;10.4364;
1178.1000;0.1498;10.4340;
1178.4000;0.1506;10.4340;
1178.7000;0.1522;10.4340;
1179.0000;0.1514;10.4364;
1179.3000;0.1498;10.4389;
1179.6000;0.1514;10.4485;
1179.9000;0.1506;10.4509;
1180.2000;0.1522;10.4533;
1180.5000;0.1522;10.4630;
1180.8000;0.1490;10.4630;
1181.1000;0.1530;10.4726;
1181.4000;0.1498;10.4606;
1181.7000;0.1514;10.4678;
1182.0000;0.1506;10.4678;
1182.3000;0.1514;10.4799;
1182.6000;0.1514;10.4726;
1182.9000;0.1514;10.4726;
1183.2000;0.1555;10.4799;
1183.5000;0.1498;10.4678;
1183.8000;0.1514;10.4774;
1184.1000;0.1530;10.4750;
1184.4000;0.1514;10.4630;
1184.7000;0.1522;10.4654;
1185.0000;0.1522;10.4557;
1185.3000;0.1498;10.4485;
1185.6000;0.1530;10.4581;
1185.9000;0.1514;10.4509;
1186.2000;0.1514;10.4509;
1186.5000;0.1514;10.4509;
1186.8000;0.1506;10.4413;
1187.1000;0.1522;10.4461;
1187.4000;0.1530;10.4437;
1187.7000;0.1522;10.4340;
1188.0000;0.1538;10.4340;
1188.3000;0.1522;10.4413;
1188.6000;0.1514;10.4437;
1188.9000;0.1514;10.4509;
1189.2000;0.1506;10.4509;
1189.5000;0.1514;10.4533;
1189.8000;0.1514;10.4557;
1190.1000;0.1498;10.4533;
1190.4000;0.1506;10.4557;
1190.7000;0.1498;10.4533;
1191.0000;0.1506;10.4581;
1191.3000;0.1530;10.4654;
1191.6000;0.1498;10.4581;
1191.9000;0.1579;10.4750;
1192.2000;0.1498;10.4533;
1192.5000;0.1530;10.4485;
1192.8000;0.1514;10.4509;
1193.1000;0.1555;10.4485;
1193.4000;0.1498;10.4316;
1193.7000;0.1514;10.4389;
1194.0000;0.1498;10.4316;
1194.3000;0.1506;10.4389;
1194.6000;0.1522;10.4389;
1194.9000;0.1490;10.4340;
1195.2000;0.1506;10.4509;
1195.5000;0.1514;10.4581;
1195.8000;0.1514;10.4581;
1196.1000;0.1498;10.4509;
1196.4000;0.1514;10.4654;
1196.7000;0.1604;10.4799;
1197.0000;0.1579;10.4774;
1197.3000;0.1514;10.4654;
1197.6000;0.1473;10.4581;
1197.9000;0.1514;10.4750;
1198.2000;0.1506;10.4750;
1198.5000;0.1514;10.4895;
1198.8000;0.1506;10.4823;
1199.1000;0.1514;10.4823;
1199.4000;0.1522;10.4799;
1199.7000;0.1514;10.4823;
1200.0000;0.1522;10.4823;
1200.3000;0.1506;10.4750;
1200.6000;0.1522;10.4750;
1200.9000;0.1514;10.4847;
1201.2000;0.1498;10.4750;
1201.5000;0.1514;10.4799;
1201.8000;0.1506;10.4799;
1202.1000;0.1530;10.4919;
1202.4000;0.1506;10.4750;
1202.7000;0.1514;10.4726;
1203.0000;0.1498;10.4606;
1203.3000;0.1522;10.4630;
1203.6000;0.1506;10.4606;
1203.9000;0.1522;10.4678;
1204.2000;0.1465;10.4509;
1204.5000;0.1498;10.4654;
1204.8000;0.1490;10.4533;
1205.1000;0.1408;10.4364;
1205.4000;0.1506;10.4654;
1205.7000;0.1506;10.4726;
1206.0000;0.1530;10.4847;
1206.3000;0.1506;10.4823;
1206.6000;0.1506;10.4774;
1206.9000;0.1530;10.4847;
1207.2000;0.1506;10.4774;
1207.5000;0.1514;10.4774;
1207.8000;0.1506;10.4750;
1208.1000;0.1530;10.4750;
1208.4000;0.1514;10.4799;
1208.7000;0.1514;10.4919;
1209.0000;0.1514;10.4847;
1209.3000;0.1514;10.4847;
1209.6000;0.1530;10.4823;
1209.9000;0.1490;10.4702;
1210.2000;0.1555;10.4823;
1210.5000;0.1522;10.4799;
1210.8000;0.1498;10.4726;
1211.1000;0.1514;10.4678;
1211.4000;0.1506;10.4654;
1211.7000;0.1522;10.4630;
1212.0000;0.1547;10.4750;
1212.3000;0.1506;10.4750;
1212.6000;0.1506;10.4799;
1212.9000;0.1514;10.4847;
1213.2000;0.1465;10.4726;
1213.5000;0.1522;10.4871;
1213.8000;0.1522;10.4967;
1214.1000;0.1530;10.5040;
1214.4000;0.1522;10.5040;
1214.7000;0.1522;10.5016;
1215.0000;0.1522;10.4943;
1215.3000;0.1530;10.4991;
1215.6000;0.1490;10.4895;
1215.9000;0.1571;10.5064;
1216.2000;0.1498;10.4750;
1216.5000;0.1506;10.4750;
1216.8000;0.1604;10.4967;
1217.1000;0.1514;10.4774;
1217.4000;0.1490;10.4750;
1217.7000;0.1506;10.4726;
1218.0000;0.1595;10.4967;
1218.3000;0.1498;10.4726;
1218.6000;0.1538;10.4799;
1218.9000;0.1506;10.4750;
1219.2000;0.1522;10.4774;
1219.5000;0.1514;10.4774;
1219.8000;0.1449;10.4557;
1220.1000;0.1514;10.4702;
1220.4000;0.1506;10.4654;
1220.7000;0.1506;10.4654;
1221.0000;0.1400;10.4461;
1221.3000;0.1522;10.4678;
1221.6000;0.1498;10.4581;
1221.9000;0.1514;10.4606;
1222.2000;0.1514;10.4702;
1222.5000;0.1530;10.4654;
1222.8000;0.1522;10.4678;
1223.1000;0.1514;10.4630;
1223.4000;0.1506;10.4606;
1223.7000;0.1530;10.4654;
1224.0000;0.1530;10.4654;
1224.3000;0.1530;10.4630;
1224.6000;0.1522;10.4557;
1224.9000;0.1506;10.4557;
1225.2000;0.1514;10.4533;
1225.5000;0.1538;10.4581;
1225.8000;0.1506;10.4461;
1226.1000;0.1457;10.4292;
1226.4000;0.1465;10.4340;
1226.7000;0.1506;10.4461;
1227.0000;0.1506;10.4437;
1227.3000;0.1522;10.4437;
1227.6000;0.1563;10.4509;
1227.9000;0.1514;10.4389;
1228.2000;0.1522;10.4389;
1228.5000;0.1400;10.4099;
1228.8000;0.1506;10.4389;
1229.1000;0.1384;10.4051;
1229.4000;0.1506;10.4268;
1229.7000;0.1514;10.4340;
1230.0000;0.1506;10.4461;
1230.3000;0.1538;10.4509;
1230.6000;0.1514;10.4509;
1230.9000;0.1465;10.4413;
1231.2000;0.1579;10.4750;
1231.5000;0.1522;10.4654;
1231.8000;0.1506;10.4702;
1232.1000;0.1506;10.4678;
1232.4000;0.1522;10.4630;
1232.7000;0.1522;10.4630;
1233.0000;0.1514;10.4630;
1233.3000;0.1514;10.4581;
1233.6000;0.1522;10.4533;
1233.9000;0.1490;10.4292;
1234.2000;0.1530;10.4364;
1234.5000;0.1514;10.4413;
1234.8000;0.1514;10.4461;
1235.1000;0.1522;10.4533;
1235.4000;0.1522;10.4509;
1235.7000;0.1538;10.4509;
1236.0000;0.1498;10.4389;
1236.3000;0.1555;10.4557;
1236.6000;0.1498;10.4461;
1236.9000;0.1522;10.4485;
1237.2000;0.1555;10.4485;
1237.5000;0.1530;10.4364;
1237.8000;0.1514;10.4292;
1238.1000;0.1506;10.4292;
1238.4000;0.1514;10.4292;
1238.7000;0.1514;10.4220;
1239.0000;0.1514;10.4196;
1239.3000;0.1481;10.4099;
1239.6000;0.1498;10.4075;
1239.9000;0.1522;10.4075;
1240.2000;0.1514;10.4123;
1240.5000;0.1538;10.4268;
1240.8000;0.1555;10.4413;
1241.1000;0.1433;10.4051;
1241.4000;0.1498;10.4171;
1241.7000;0.1587;10.4509;
1242.0000;0.1441;10.4123;
1242.3000;0.1514;10.4316;
1242.6000;0.1506;10.4292;
1242.9000;0.1514;10.4389;
1243.2000;0.1514;10.4437;
1243.5000;0.1498;10.4340;
1243.8000;0.1522;10.4364;
1244.1000;0.1522;10.4389;
1244.4000;0.1449;10.4340;
1244.7000;0.1425;10.4220;
1245.0000;0.1522;10.4437;
1245.3000;0.1506;10.4364;
1245.6000;0.1522;10.4437;
1245.9000;0.1490;10.4461;
1246.2000;0.1514;10.4485;
1246.5000;0.1506;10.4437;
1246.8000;0.1522;10.4581;
1247.1000;0.1506;10.4533;
1247.4000;0.1498;10.4485;
1247.7000;0.1506;10.4533;
1248.0000;0.1498;10.4581;
1248.3000;0.1473;10.4485;
1248.6000;0.1490;10.4533;
1248.9000;0.1530;10.4606;
1249.2000;0.1514;10.4606;
1249.5000;0.1530;10.4630;
1249.8000;0.1506;10.4581;
1250.1000;0.1547;10.4750;
1250.4000;0.1457;10.4461;
1250.7000;0.1530;10.4581;
1251.0000;0.1498;10.4461;
1251.3000;0.1530;10.4533;
1251.6000;0.1522;10.4581;
1251.9000;0.1498;10.4557;
1252.2000;0.1522;10.4654;
1252.5000;0.1473;10.4485;
1252.8000;0.1514;10.4678;
1253.1000;0.1506;10.4557;
1253.4000;0.1506;10.4581;
1253.7000;0.1506;10.4654;
1254.0000;0.1498;10.4654;
1254.3000;0.1498;10.4606;
1254.6000;0.1522;10.4678;
1254.9000;0.1506;10.4606;
1255.2000;0.1498;10.4630;
1255.5000;0.1506;10.4678;
1255.8000;0.1514;10.4702;
1256.1000;0.1506;10.4606;
1256.4000;0.1490;10.4557;
1256.7000;0.1514;10.4630;
1257.0000;0.1522;10.4726;
1257.3000;0.1498;10.4581;
1257.6000;0.1506;10.4606;
1257.9000;0.1490;10.4485;
1258.2000;0.1530;10.4533;
1258.5000;0.1506;10.4509;
1258.8000;0.1514;10.4557;
1259.1000;0.1498;10.4533;
1259.4000;0.1490;10.4533;
1259.7000;0.1490;10.4557;
1260.0000;0.1514;10.4654;
1260.3000;0.1506;10.4533;
1260.6000;0.1522;10.4606;
1260.9000;0.1514;10.4533;
1261.2000;0.1514;10.4533;
1261.5000;0.1473;10.4509;
1261.8000;0.1481;10.4364;
1262.1000;0.1522;10.4485;
1262.4000;0.1514;10.4461;
1262.7000;0.1514;10.4533;
1263.0000;0.1514;10.4630;
1263.3000;0.1522;10.4654;
1263.6000;0.1514;10.4654;
1263.9000;0.1449;10.4485;
1264.2000;0.1514;10.4654;
1264.5000;0.1530;10.4702;
1264.8000;0.1506;10.4654;
1265.1000;0.1490;10.4702;
1265.4000;0.1604;10.5040;
1265.7000;0.1490;10.4726;
1266.0000;0.1449;10.4702;
1266.3000;0.1514;10.4847;
1266.6000;0.1522;10.4774;
1266.9000;0.1425;10.4437;
1267.2000;0.1538;10.4823;
1267.5000;0.1514;10.4654;
1267.8000;0.1506;10.4557;
1268.1000;0.1514;10.4630;
1268.4000;0.1563;10.4678;
1268.7000;0.1506;10.4581;
1269.0000;0.1530;10.4581;
1269.3000;0.1498;10.4533;
1269.6000;0.1514;10.4606;
1269.9000;0.1498;10.4557;
1270.2000;0.1506;10.4557;
1270.5000;0.1506;10.4509;
1270.8000;0.1522;10.4533;
1271.1000;0.1498;10.4533;
1271.4000;0.1522;10.4606;
1271.7000;0.1490;10.4581;
1272.0000;0.1514;10.4630;
1272.3000;0.1490;10.4533;
1272.6000;0.1490;10.4557;
1272.9000;0.1465;10.4437;
1273.2000;0.1514;10.4533;
1273.5000;0.1506;10.4533;
1273.8000;0.1498;10.4509;
1274.1000;0.1498;10.4461;
1274.4000;0.1506;10.4485;
1274.7000;0.1506;10.4557;
1275.0000;0.1506;10.4485;
1275.3000;0.1514;10.4533;
1275.6000;0.1506;10.4509;
1275.9000;0.1514;10.4606;
1276.2000;0.1514;10.4606;
1276.5000;0.1498;10.4702;
1276.8000;0.1522;10.4702;
1277.1000;0.1498;10.4557;
1277.4000;0.1506;10.4630;
1277.7000;0.1506;10.4606;
1278.0000;0.1490;10.4461;
1278.3000;0.1514;10.4533;
1278.6000;0.1506;10.4485;
1278.9000;0.1506;10.4485;
1279.2000;0.1522;10.4461;
1279.5000;0.1506;10.4461;
1279.8000;0.1506;10.4606;
1280.1000;0.1530;10.4606;
1280.4000;0.1506;10.4533;
1280.7000;0.1506;10.4606;
1281.0000;0.1514;10.4678;
1281.3000;0.1457;10.4437;
1281.6000;0.1522;10.4533;
1281.9000;0.1530;10.4533;
1282.2000;0.1530;10.4630;
1282.5000;0.1514;10.4606;
1282.8000;0.1506;10.4509;
1283.1000;0.1498;10.4461;
1283.4000;0.1530;10.4485;
1283.7000;0.1522;10.4485;
1284.0000;0.1530;10.4485;
1284.3000;0.1506;10.4413;
1284.6000;0.1522;10.4461;
1284.9000;0.1514;10.4533;
1285.2000;0.1514;10.4533;
1285.5000;0.1530;10.4413;
1285.8000;0.1506;10.4292;
1286.1000;0.1547;10.4316;
1286.4000;0.1498;10.4220;
1286.7000;0.1522;10.4316;
1287.0000;0.1498;10.4244;
1287.3000;0.1506;10.4389;
1287.6000;0.1522;10.4581;
1287.9000;0.1473;10.4509;
1288.2000;0.1490;10.4557;
1288.5000;0.1449;10.4485;
1288.8000;0.1514;10.4557;
1289.1000;0.1473;10.4533;
1289.4000;0.1490;10.4630;
1289.7000;0.1506;10.4678;
1290.0000;0.1514;10.4678;
1290.3000;0.1538;10.4774;
1290.6000;0.1514;10.4726;
1290.9000;0.1498;10.4678;
1291.2000;0.1490;10.4702;
1291.5000;0.1522;10.4702;
1291.8000;0.1498;10.4702;
1292.1000;0.1514;10.4678;
1292.4000;0.1514;10.4654;
1292.7000;0.1408;10.4485;
1293.0000;0.1514;10.4726;
1293.3000;0.1506;10.4654;
1293.6000;0.1498;10.4606;
1293.9000;0.1522;10.4581;
1294.2000;0.1498;10.4533;
1294.5000;0.1514;10.4509;
1294.8000;0.1506;10.4557;
1295.1000;0.1522;10.4630;
1295.4000;0.1514;10.4581;
1295.7000;0.1498;10.4581;
1296.0000;0.1514;10.4702;
1296.3000;0.1587;10.4895;
1296.6000;0.1514;10.4678;
1296.9000;0.1514;10.4557;
1297.2000;0.1514;10.4509;
1297.5000;0.1530;10.4509;
1297.8000;0.1506;10.4389;
1298.1000;0.1498;10.4389;
1298.4000;0.1490;10.4316;
1298.7000;0.1498;10.4437;
1299.0000;0.1506;10.4509;
1299.3000;0.1563;10.4678;
1299.6000;0.1498;10.4533;
1299.9000;0.1506;10.4509;
1300.2000;0.1514;10.4581;
1300.5000;0.1522;10.4606;
1300.8000;0.1498;10.4606;
1301.1000;0.1522;10.4702;
1301.4000;0.1498;10.4750;
1301.7000;0.1514;10.4774;
1302.0000;0.1506;10.4726;
1302.3000;0.1498;10.4823;
1302.6000;0.1514;10.4823;
1302.9000;0.1514;10.4847;
1303.2000;0.1563;10.4967;
1303.5000;0.1522;10.4847;
1303.8000;0.1498;10.4678;
1304.1000;0.1490;10.4702;
1304.4000;0.1465;10.4702;
1304.7000;0.1514;10.4871;
1305.0000;0.1522;10.4871;
1305.3000;0.1465;10.4654;
1305.6000;0.1530;10.4726;
1305.9000;0.1506;10.4630;
1306.2000;0.1465;10.4509;
1306.5000;0.1530;10.4678;
1306.8000;0.1506;10.4630;
1307.1000;0.1506;10.4630;
1307.4000;0.1547;10.4726;
1307.7000;0.1514;10.4630;
1308.0000;0.1547;10.4654;
1308.3000;0.1555;10.4750;
1308.6000;0.1490;10.4509;
1308.9000;0.1506;10.4533;
1309.2000;0.1506;10.4606;
1309.5000;0.1514;10.4678;
1309.8000;0.1498;10.4654;
1310.1000;0.1498;10.4630;
1310.4000;0.1514;10.4702;
1310.7000;0.1498;10.4630;
1311.0000;0.1522;10.4726;
1311.3000;0.1579;10.4871;
1311.6000;0.1490;10.4630;
1311.9000;0.1522;10.4630;
1312.2000;0.1514;10.4654;
1312.5000;0.1506;10.4702;
1312.8000;0.1522;10.4726;
1313.1000;0.1530;10.4774;
1313.4000;0.1514;10.4750;
1313.7000;0.1506;10.4750;
1314.0000;0.1481;10.4702;
1314.3000;0.1498;10.4774;
1314.6000;0.1514;10.4726;
1314.9000;0.1506;10.4654;
1315.2000;0.1490;10.4581;
1315.5000;0.1514;10.4750;
1315.8000;0.1522;10.4654;
1316.1000;0.1498;10.4581;
1316.4000;0.1514;10.4678;
1316.7000;0.1514;10.4726;
1317.0000;0.1522;10.4823;
1317.3000;0.1506;10.4726;
1317.6000;0.1498;10.4678;
1317.9000;0.1498;10.4750;
1318.2000;0.1506;10.4678;
1318.5000;0.1506;10.4702;
1318.8000;0.1506;10.4726;
1319.1000;0.1530;10.4726;
1319.4000;0.1506;10.4678;
1319.7000;0.1506;10.4750;
1320.0000;0.1514;10.4823;
1320.3000;0.1538;10.4895;
1320.6000;0.1506;10.4871;
1320.9000;0.1506;10.4847;
1321.2000;0.1612;10.5160;
1321.5000;0.1506;10.4919;
1321.8000;0.1522;10.4991;
1322.1000;0.1425;10.4654;
1322.4000;0.1530;10.4847;
1322.7000;0.1514;10.4799;
1323.0000;0.1514;10.4774;
1323.3000;0.1522;10.4774;
1323.6000;0.1506;10.4702;
1323.9000;0.1498;10.4630;
1324.2000;0.1514;10.4702;
1324.5000;0.1498;10.4678;
1324.8000;0.1506;10.4774;
1325.1000;0.1498;10.4726;
1325.4000;0.1498;10.4726;
1325.7000;0.1514;10.4630;
1326.0000;0.1514;10.4557;
1326.3000;0.1506;10.4630;
1326.6000;0.1498;10.4654;
1326.9000;0.1506;10.4630;
1327.2000;0.1522;10.4630;
1327.5000;0.1506;10.4581;
1327.8000;0.1522;10.4654;
1328.1000;0.1481;10.4581;
1328.4000;0.1506;10.4557;
1328.7000;0.1506;10.4630;
1329.0000;0.1514;10.4654;
1329.3000;0.1514;10.4654;
1329.6000;0.1522;10.4726;
1329.9000;0.1498;10.4726;
1330.2000;0.1530;10.4750;
1330.5000;0.1506;10.4750;
1330.8000;0.1514;10.4678;
1331.1000;0.1595;10.4919;
1331.4000;0.1506;10.4581;
1331.7000;0.1506;10.4678;
1332.0000;0.1522;10.4702;
1332.3000;0.1538;10.4726;
1332.6000;0.1522;10.4678;
1332.9000;0.1522;10.4533;
1333.2000;0.1514;10.4630;
1333.5000;0.1506;10.4533;
1333.8000;0.1514;10.4581;
1334.1000;0.1636;10.4871;
1334.4000;0.1506;10.4509;
1334.7000;0.1473;10.4292;
1335.0000;0.1498;10.4364;
1335.3000;0.1498;10.4413;
1335.6000;0.1579;10.4630;
1335.9000;0.1392;10.4196;
1336.2000;0.1522;10.4557;
1336.5000;0.1538;10.4557;
1336.8000;0.1514;10.4509;
1337.1000;0.1498;10.4485;
1337.4000;0.1530;10.4485;
1337.7000;0.1522;10.4557;
1338.0000;0.1490;10.4509;
1338.3000;0.1490;10.4533;
1338.6000;0.1506;10.4557;
1338.9000;0.1449;10.4413;
1339.2000;0.1547;10.4799;
1339.5000;0.1408;10.4389;
1339.8000;0.1506;10.4678;
1340.1000;0.1506;10.4678;
1340.4000;0.1514;10.4630;
1340.7000;0.1514;10.4750;
1341.0000;0.1530;10.4774;
1341.3000;0.1538;10.4847;
1341.6000;0.1506;10.4726;
1341.9000;0.1506;10.4678;
1342.2000;0.1498;10.4654;
1342.5000;0.1506;10.4750;
1342.8000;0.1514;10.4702;
1343.1000;0.1498;10.4678;
1343.4000;0.1514;10.4678;
1343.7000;0.1514;10.4630;
1344.0000;0.1506;10.4654;
1344.3000;0.1481;10.4581;
1344.6000;0.1498;10.4750;
1344.9000;0.1571;10.4823;
1345.2000;0.1498;10.4606;
1345.5000;0.1490;10.4557;
1345.8000;0.1563;10.4702;
1346.1000;0.1620;10.4943;
1346.4000;0.1506;10.4702;
1346.7000;0.1522;10.4654;
1347.0000;0.1498;10.4654;
1347.3000;0.1522;10.4654;
1347.6000;0.1506;10.4654;
1347.9000;0.1530;10.4750;
1348.2000;0.1506;10.4702;
1348.5000;0.1522;10.4726;
1348.8000;0.1530;10.4847;
1349.1000;0.1514;10.4847;
1349.4000;0.1473;10.4774;
1349.7000;0.1498;10.4799;
1350.0000;0.1506;10.4871;
1350.3000;0.1522;10.4943;
1350.6000;0.1522;10.4919;
1350.9000;0.1514;10.4799;
1351.2000;0.1506;10.4799;
1351.5000;0.1514;10.4726;
1351.8000;0.1506;10.4726;
1352.1000;0.1498;10.4702;
1352.4000;0.1563;10.4967;
1352.7000;0.1522;10.5016;
1353.0000;0.1506;10.4919;
1353.3000;0.1514;10.4943;
1353.6000;0.1522;10.4847;
1353.9000;0.1530;10.4774;
1354.2000;0.1498;10.4774;
1354.5000;0.1514;10.4774;
1354.8000;0.1522;10.4726;
1355.1000;0.1530;10.4871;
1355.4000;0.1514;10.4799;
1355.7000;0.1506;10.4774;
1356.0000;0.1506;10.4774;
1356.3000;0.1506;10.4726;
1356.6000;0.1522;10.4702;
1356.9000;0.1514;10.4630;
1357.2000;0.1506;10.4630;
1357.5000;0.1522;10.4581;
1357.8000;0.1490;10.4509;
1358.1000;0.1506;10.4509;
1358.4000;0.1514;10.4533;
1358.7000;0.1514;10.4509;
1359.0000;0.1530;10.4654;
1359.3000;0.1506;10.4509;
1359.6000;0.1514;10.4533;
1359.9000;0.1506;10.4509;
1360.2000;0.1514;10.4581;
1360.5000;0.1506;10.4606;
1360.8000;0.1530;10.4630;
1361.1000;0.1506;10.4630;
1361.4000;0.1498;10.4654;
1361.7000;0.1498;10.4726;
1362.0000;0.1547;10.4799;
1362.3000;0.1490;10.4630;
1362.6000;0.1514;10.4726;
1362.9000;0.1522;10.4702;
1363.2000;0.1498;10.4630;
1363.5000;0.1498;10.4678;
1363.8000;0.1514;10.4630;
1364.1000;0.1522;10.4606;
1364.4000;0.1522;10.4654;
1364.7000;0.1538;10.4654;
1365.0000;0.1538;10.4702;
1365.3000;0.1514;10.4654;
1365.6000;0.1506;10.4606;
1365.9000;0.1522;10.4678;
1366.2000;0.1514;10.4630;
1366.5000;0.1530;10.4726;
1366.8000;0.1530;10.4726;
1367.1000;0.1506;10.4702;
1367.4000;0.1498;10.4678;
1367.7000;0.1498;10.4678;
1368.0000;0.1514;10.4702;
1368.3000;0.1530;10.4726;
1368.6000;0.1481;10.4774;
1368.9000;0.1473;10.4702;
1369.2000;0.1457;10.4606;
1369.5000;0.1530;10.4799;
1369.8000;0.1498;10.4630;
1370.1000;0.1498;10.4581;
1370.4000;0.1506;10.4437;
1370.7000;0.1547;10.4485;
1371.0000;0.1514;10.4413;
1371.3000;0.1473;10.4316;
1371.6000;0.1498;10.4437;
1371.9000;0.1498;10.4461;
1372.2000;0.1514;10.4606;
1372.5000;0.1506;10.4630;
1372.8000;0.1522;10.4630;
1373.1000;0.1514;10.4509;
1373.4000;0.1441;10.4316;
1373.7000;0.1506;10.4557;
1374.0000;0.1514;10.4606;
1374.3000;0.1449;10.4533;
1374.6000;0.1481;10.4654;
1374.9000;0.1547;10.4847;
1375.2000;0.1506;10.4774;
1375.5000;0.1522;10.4847;
1375.8000;0.1514;10.4774;
1376.1000;0.1514;10.4678;
1376.4000;0.1538;10.4702;
1376.7000;0.1506;10.4654;
1377.0000;0.1481;10.4581;
1377.3000;0.1522;10.4702;
1377.6000;0.1506;10.4581;
1377.9000;0.1506;10.4654;
1378.2000;0.1530;10.4750;
1378.5000;0.1498;10.4823;
1378.8000;0.1514;10.4847;
1379.1000;0.1506;10.4847;
1379.4000;0.1481;10.4799;
1379.7000;0.1490;10.4750;
1380.0000;0.1522;10.4847;
1380.3000;0.1473;10.4702;
1380.6000;0.1498;10.4774;
1380.9000;0.1506;10.4774;
1381.2000;0.1522;10.4774;
1381.5000;0.1481;10.4702;
1381.8000;0.1498;10.4823;
1382.1000;0.1522;10.4895;
1382.4000;0.1514;10.4895;
1382.7000;0.1514;10.4847;
1383.0000;0.1514;10.4823;
1383.3000;0.1522;10.4919;
1383.6000;0.1587;10.5040;
1383.9000;0.1514;10.4847;
1384.2000;0.1514;10.4774;
1384.5000;0.1506;10.4774;
1384.8000;0.1506;10.4823;
1385.1000;0.1514;10.4799;
1385.4000;0.1506;10.4702;
1385.7000;0.1514;10.4726;
1386.0000;0.1506;10.4774;
1386.3000;0.1490;10.4678;
1386.6000;0.1506;10.4678;
1386.9000;0.1498;10.4557;
1387.2000;0.1514;10.4557;
1387.5000;0.1506;10.4581;
1387.8000;0.1514;10.4581;
1388.1000;0.1416;10.4364;
1388.4000;0.1506;10.4678;
1388.7000;0.1522;10.4750;
1389.0000;0.1530;10.4774;
1389.3000;0.1522;10.4702;
1389.6000;0.1538;10.4774;
1389.9000;0.1506;10.4702;
1390.2000;0.1506;10.4750;
1390.5000;0.1498;10.4678;
1390.8000;0.1522;10.4702;
1391.1000;0.1457;10.4461;
1391.4000;0.1506;10.4557;
1391.7000;0.1465;10.4485;
1392.0000;0.1481;10.4509;
1392.3000;0.1506;10.4606;
1392.6000;0.1514;10.4678;
1392.9000;0.1498;10.4654;
1393.2000;0.1514;10.4726;
1393.5000;0.1506;10.4750;
1393.8000;0.1522;10.4750;
1394.1000;0.1514;10.4702;
1394.4000;0.1522;10.4750;
1394.7000;0.1514;10.4750;
1395.0000;0.1514;10.4774;
1395.3000;0.1514;10.4799;
1395.6000;0.1506;10.4750;
1395.9000;0.1514;10.4678;
1396.2000;0.1514;10.4654;
1396.5000;0.1506;10.4630;
1396.8000;0.1514;10.4557;
1397.1000;0.1514;10.4533;
1397.4000;0.1555;10.4630;
1397.7000;0.1538;10.4581;
1398.0000;0.1506;10.4389;
1398.3000;0.1506;10.4389;
1398.6000;0.1514;10.4461;
1398.9000;0.1514;10.4461;
1399.2000;0.1506;10.4485;
1399.5000;0.1514;10.4485;
1399.8000;0.1514;10.4485;
