time/ms;Fluo/V;P700 deltaI/I x10³;
-199.8000;0.1473;10.5884;
-199.5000;0.1481;10.5932;
-199.2000;0.1441;10.5787;
-198.9000;0.1506;10.5956;
-198.6000;0.1490;10.5956;
-198.3000;0.1530;10.6029;
-198.0000;0.1481;10.5884;
-197.7000;0.1376;10.5667;
-197.4000;0.1498;10.5908;
-197.1000;0.1465;10.5860;
-196.8000;0.1481;10.6005;
-196.5000;0.1530;10.6222;
-196.2000;0.1457;10.6005;
-195.9000;0.1490;10.5956;
-195.6000;0.1481;10.5860;
-195.3000;0.1498;10.5884;
-195.0000;0.1498;10.5932;
-194.7000;0.1481;10.5908;
-194.4000;0.1457;10.5932;
-194.1000;0.1465;10.5980;
-193.8000;0.1481;10.6053;
-193.5000;0.1490;10.6222;
-193.2000;0.1490;10.6173;
-192.9000;0.1490;10.6197;
-192.6000;0.1490;10.6149;
-192.3000;0.1498;10.6125;
-192.0000;0.1498;10.6077;
-191.7000;0.1538;10.6077;
-191.4000;0.1473;10.6005;
-191.1000;0.1490;10.5980;
-190.8000;0.1506;10.6005;
-190.5000;0.1473;10.5908;
-190.2000;0.1490;10.5812;
-189.9000;0.1490;10.5763;
-189.6000;0.1481;10.5691;
-189.3000;0.1473;10.5691;
-189.0000;0.1457;10.5667;
-188.7000;0.1473;10.5836;
-188.4000;0.1498;10.5908;
-188.1000;0.1449;10.5860;
-187.8000;0.1465;10.5932;
-187.5000;0.1490;10.5884;
-187.2000;0.1481;10.5836;
-186.9000;0.1498;10.5956;
-186.6000;0.1473;10.6005;
-186.3000;0.1481;10.5980;
-186.0000;0.1457;10.5884;
-185.7000;0.1555;10.6149;
-185.4000;0.1498;10.6053;
-185.1000;0.1498;10.6077;
-184.8000;0.1490;10.6053;
-184.5000;0.1481;10.6029;
-184.2000;0.1457;10.5956;
-183.9000;0.1481;10.5908;
-183.6000;0.1490;10.5908;
-183.3000;0.1490;10.5956;
-183.0000;0.1481;10.5932;
-182.7000;0.1465;10.5932;
-182.4000;0.1490;10.5980;
-182.1000;0.1498;10.5980;
-181.8000;0.1481;10.5980;
-181.5000;0.1457;10.5956;
-181.2000;0.1465;10.5908;
-180.9000;0.1481;10.5932;
-180.6000;0.1490;10.5932;
-180.3000;0.1481;10.5932;
-180.0000;0.1449;10.5884;
-179.7000;0.1490;10.5884;
-179.4000;0.1473;10.5884;
-179.1000;0.1498;10.5908;
-178.8000;0.1490;10.5884;
-178.5000;0.1498;10.5836;
-178.2000;0.1490;10.5812;
-177.9000;0.1498;10.5812;
-177.6000;0.1481;10.5836;
-177.3000;0.1481;10.5884;
-177.0000;0.1376;10.5667;
-176.7000;0.1457;10.5836;
-176.4000;0.1498;10.5932;
-176.1000;0.1481;10.5884;
-175.8000;0.1481;10.5908;
-175.5000;0.1490;10.5908;
-175.2000;0.1465;10.5812;
-174.9000;0.1530;10.5980;
-174.6000;0.1473;10.5860;
-174.3000;0.1473;10.5787;
-174.0000;0.1433;10.5691;
-173.7000;0.1465;10.5763;
-173.4000;0.1481;10.5739;
-173.1000;0.1490;10.5739;
-172.8000;0.1498;10.5787;
-172.5000;0.1498;10.5787;
-172.2000;0.1514;10.5908;
-171.9000;0.1449;10.5836;
-171.6000;0.1481;10.5932;
-171.3000;0.1473;10.5884;
-171.0000;0.1571;10.6197;
-170.7000;0.1498;10.6053;
-170.4000;0.1481;10.5932;
-170.1000;0.1457;10.5956;
-169.8000;0.1465;10.5932;
-169.5000;0.1465;10.5908;
-169.2000;0.1498;10.6029;
-168.9000;0.1481;10.5908;
-168.6000;0.1481;10.5860;
-168.3000;0.1490;10.5932;
-168.0000;0.1498;10.6005;
-167.7000;0.1506;10.5956;
-167.4000;0.1579;10.6077;
-167.1000;0.1473;10.5932;
-166.8000;0.1498;10.5980;
-166.5000;0.1490;10.5932;
-166.2000;0.1490;10.5980;
-165.9000;0.1481;10.5980;
-165.6000;0.1457;10.5787;
-165.3000;0.1547;10.6077;
-165.0000;0.1473;10.5860;
-164.7000;0.1498;10.5980;
-164.4000;0.1490;10.5884;
-164.1000;0.1506;10.5908;
-163.8000;0.1498;10.5884;
-163.5000;0.1498;10.5884;
-163.2000;0.1490;10.5908;
-162.9000;0.1465;10.5908;
-162.6000;0.1416;10.5763;
-162.3000;0.1465;10.5860;
-162.0000;0.1498;10.5908;
-161.7000;0.1498;10.5884;
-161.4000;0.1514;10.5860;
-161.1000;0.1473;10.5739;
-160.8000;0.1481;10.5763;
-160.5000;0.1506;10.5763;
-160.2000;0.1498;10.5812;
-159.9000;0.1473;10.5739;
-159.6000;0.1604;10.6029;
-159.3000;0.1465;10.5643;
-159.0000;0.1538;10.5860;
-158.7000;0.1563;10.5932;
-158.4000;0.1392;10.5474;
-158.1000;0.1449;10.5570;
-157.8000;0.1416;10.5546;
-157.5000;0.1571;10.5932;
-157.2000;0.1351;10.5353;
-156.9000;0.1490;10.5691;
-156.6000;0.1465;10.5522;
-156.3000;0.1490;10.5474;
-156.0000;0.1490;10.5474;
-155.7000;0.1514;10.5570;
-155.4000;0.1498;10.5498;
-155.1000;0.1481;10.5450;
-154.8000;0.1465;10.5353;
-154.5000;0.1465;10.5402;
-154.2000;0.1490;10.5377;
-153.9000;0.1498;10.5377;
-153.6000;0.1481;10.5377;
-153.3000;0.1481;10.5377;
-153.0000;0.1498;10.5426;
-152.7000;0.1522;10.5498;
-152.4000;0.1498;10.5522;
-152.1000;0.1481;10.5450;
-151.8000;0.1498;10.5594;
-151.5000;0.1481;10.5619;
-151.2000;0.1490;10.5619;
-150.9000;0.1490;10.5619;
-150.6000;0.1473;10.5691;
-150.3000;0.1473;10.5643;
-150.0000;0.1465;10.5667;
-149.7000;0.1506;10.5739;
-149.4000;0.1457;10.5643;
-149.1000;0.1473;10.5667;
-148.8000;0.1498;10.5594;
-148.5000;0.1465;10.5450;
-148.2000;0.1490;10.5474;
-147.9000;0.1481;10.5474;
-147.6000;0.1473;10.5498;
-147.3000;0.1490;10.5570;
-147.0000;0.1473;10.5522;
-146.7000;0.1490;10.5594;
-146.4000;0.1490;10.5643;
-146.1000;0.1498;10.5691;
-145.8000;0.1481;10.5715;
-145.5000;0.1481;10.5763;
-145.2000;0.1514;10.5739;
-144.9000;0.1481;10.5667;
-144.6000;0.1457;10.5643;
-144.3000;0.1506;10.5763;
-144.0000;0.1490;10.5763;
-143.7000;0.1498;10.5787;
-143.4000;0.1490;10.5715;
-143.1000;0.1514;10.5787;
-142.8000;0.1465;10.5667;
-142.5000;0.1449;10.5667;
-142.2000;0.1408;10.5474;
-141.9000;0.1481;10.5619;
-141.6000;0.1498;10.5691;
-141.3000;0.1392;10.5426;
-141.0000;0.1465;10.5619;
-140.7000;0.1457;10.5691;
-140.4000;0.1514;10.5812;
-140.1000;0.1498;10.5715;
-139.8000;0.1555;10.5860;
-139.5000;0.1498;10.5667;
-139.2000;0.1481;10.5594;
-138.9000;0.1490;10.5619;
-138.6000;0.1473;10.5643;
-138.3000;0.1473;10.5619;
-138.0000;0.1465;10.5546;
-137.7000;0.1392;10.5257;
-137.4000;0.1490;10.5474;
-137.1000;0.1490;10.5522;
-136.8000;0.1481;10.5546;
-136.5000;0.1490;10.5522;
-136.2000;0.1506;10.5570;
-135.9000;0.1457;10.5522;
-135.6000;0.1498;10.5643;
-135.3000;0.1514;10.5643;
-135.0000;0.1506;10.5594;
-134.7000;0.1449;10.5498;
-134.4000;0.1473;10.5570;
-134.1000;0.1506;10.5594;
-133.8000;0.1490;10.5619;
-133.5000;0.1449;10.5546;
-133.2000;0.1473;10.5643;
-132.9000;0.1481;10.5619;
-132.6000;0.1457;10.5643;
-132.3000;0.1514;10.5739;
-132.0000;0.1490;10.5667;
-131.7000;0.1465;10.5667;
-131.4000;0.1498;10.5619;
-131.1000;0.1490;10.5619;
-130.8000;0.1490;10.5667;
-130.5000;0.1490;10.5691;
-130.2000;0.1481;10.5619;
-129.9000;0.1457;10.5522;
-129.6000;0.1473;10.5619;
-129.3000;0.1457;10.5450;
-129.0000;0.1465;10.5546;
-128.7000;0.1490;10.5619;
-128.4000;0.1473;10.5546;
-128.1000;0.1457;10.5498;
-127.8000;0.1473;10.5522;
-127.5000;0.1449;10.5474;
-127.2000;0.1425;10.5450;
-126.9000;0.1473;10.5546;
-126.6000;0.1457;10.5450;
-126.3000;0.1490;10.5522;
-126.0000;0.1490;10.5522;
-125.7000;0.1481;10.5546;
-125.4000;0.1579;10.5787;
-125.1000;0.1433;10.5498;
-124.8000;0.1498;10.5594;
-124.5000;0.1498;10.5594;
-124.2000;0.1555;10.5812;
-123.9000;0.1473;10.5619;
-123.6000;0.1449;10.5667;
-123.3000;0.1465;10.5715;
-123.0000;0.1490;10.5691;
-122.7000;0.1506;10.5691;
-122.4000;0.1481;10.5643;
-122.1000;0.1490;10.5643;
-121.8000;0.1498;10.5715;
-121.5000;0.1490;10.5667;
-121.2000;0.1498;10.5619;
-120.9000;0.1490;10.5570;
-120.6000;0.1490;10.5570;
-120.3000;0.1481;10.5450;
-120.0000;0.1481;10.5498;
-119.7000;0.1473;10.5522;
-119.4000;0.1547;10.5812;
-119.1000;0.1449;10.5570;
-118.8000;0.1457;10.5594;
-118.5000;0.1473;10.5546;
-118.2000;0.1392;10.5305;
-117.9000;0.1498;10.5715;
-117.6000;0.1481;10.5619;
-117.3000;0.1481;10.5667;
-117.0000;0.1481;10.5667;
-116.7000;0.1481;10.5619;
-116.4000;0.1514;10.5715;
-116.1000;0.1498;10.5739;
-115.8000;0.1490;10.5812;
-115.5000;0.1481;10.5787;
-115.2000;0.1481;10.5860;
-114.9000;0.1481;10.5787;
-114.6000;0.1473;10.5715;
-114.3000;0.1473;10.5691;
-114.0000;0.1473;10.5643;
-113.7000;0.1465;10.5619;
-113.4000;0.1473;10.5643;
-113.1000;0.1481;10.5619;
-112.8000;0.1449;10.5474;
-112.5000;0.1473;10.5570;
-112.2000;0.1400;10.5498;
-111.9000;0.1481;10.5691;
-111.6000;0.1481;10.5715;
-111.3000;0.1457;10.5667;
-111.0000;0.1481;10.5763;
-110.7000;0.1498;10.5739;
-110.4000;0.1481;10.5691;
-110.1000;0.1490;10.5643;
-109.8000;0.1514;10.5667;
-109.5000;0.1473;10.5594;
-109.2000;0.1465;10.5570;
-108.9000;0.1441;10.5498;
-108.6000;0.1400;10.5329;
-108.3000;0.1490;10.5522;
-108.0000;0.1490;10.5450;
-107.7000;0.1481;10.5474;
-107.4000;0.1457;10.5426;
-107.1000;0.1490;10.5498;
-106.8000;0.1490;10.5691;
-106.5000;0.1481;10.5739;
-106.2000;0.1498;10.5715;
-105.9000;0.1490;10.5594;
-105.6000;0.1490;10.5619;
-105.3000;0.1595;10.6101;
-105.0000;0.1490;10.5763;
-104.7000;0.1473;10.5691;
-104.4000;0.1473;10.5594;
-104.1000;0.1490;10.5763;
-103.8000;0.1473;10.5691;
-103.5000;0.1473;10.5643;
-103.2000;0.1498;10.5763;
-102.9000;0.1490;10.5739;
-102.6000;0.1481;10.5691;
-102.3000;0.1490;10.5812;
-102.0000;0.1481;10.5836;
-101.7000;0.1514;10.5860;
-101.4000;0.1481;10.5787;
-101.1000;0.1457;10.5643;
-100.8000;0.1481;10.5643;
-100.5000;0.1490;10.5643;
-100.2000;0.1514;10.5763;
-99.9000;0.1473;10.5715;
-99.6000;0.1498;10.5812;
-99.3000;0.1490;10.5787;
-99.0000;0.1498;10.5812;
-98.7000;0.1473;10.5667;
-98.4000;0.1457;10.5691;
-98.1000;0.1514;10.5884;
-97.8000;0.1481;10.5763;
-97.5000;0.1481;10.5667;
-97.2000;0.1490;10.5643;
-96.9000;0.1473;10.5570;
-96.6000;0.1490;10.5570;
-96.3000;0.1490;10.5594;
-96.0000;0.1473;10.5594;
-95.7000;0.1490;10.5715;
-95.4000;0.1498;10.5860;
-95.1000;0.1481;10.5812;
-94.8000;0.1490;10.5787;
-94.5000;0.1498;10.5763;
-94.2000;0.1449;10.5643;
-93.9000;0.1481;10.5691;
-93.6000;0.1490;10.5715;
-93.3000;0.1473;10.5763;
-93.0000;0.1473;10.5739;
-92.7000;0.1481;10.5715;
-92.4000;0.1465;10.5715;
-92.1000;0.1465;10.5715;
-91.8000;0.1473;10.5715;
-91.5000;0.1481;10.5812;
-91.2000;0.1506;10.5956;
-90.9000;0.1425;10.5787;
-90.6000;0.1449;10.5932;
-90.3000;0.1473;10.5980;
-90.0000;0.1433;10.5956;
-89.7000;0.1465;10.5980;
-89.4000;0.1465;10.6005;
-89.1000;0.1392;10.5763;
-88.8000;0.1465;10.5932;
-88.5000;0.1481;10.5980;
-88.2000;0.1612;10.6318;
-87.9000;0.1481;10.5884;
-87.6000;0.1481;10.5860;
-87.3000;0.1465;10.5812;
-87.0000;0.1555;10.6101;
-86.7000;0.1506;10.5884;
-86.4000;0.1457;10.5836;
-86.1000;0.1490;10.5860;
-85.8000;0.1473;10.5860;
-85.5000;0.1481;10.5956;
-85.2000;0.1473;10.5884;
-84.9000;0.1473;10.5980;
-84.6000;0.1498;10.6077;
-84.3000;0.1376;10.5715;
-84.0000;0.1481;10.6077;
-83.7000;0.1555;10.6318;
-83.4000;0.1481;10.6101;
-83.1000;0.1490;10.6149;
-82.8000;0.1425;10.6053;
-82.5000;0.1490;10.6197;
-82.2000;0.1498;10.6149;
-81.9000;0.1465;10.6053;
-81.6000;0.1481;10.6125;
-81.3000;0.1490;10.6053;
-81.0000;0.1481;10.5980;
-80.7000;0.1473;10.5884;
-80.4000;0.1473;10.5884;
-80.1000;0.1449;10.5860;
-79.8000;0.1498;10.5932;
-79.5000;0.1473;10.5884;
-79.2000;0.1473;10.6005;
-78.9000;0.1473;10.5932;
-78.6000;0.1481;10.5956;
-78.3000;0.1481;10.5956;
-78.0000;0.1473;10.6005;
-77.7000;0.1481;10.6029;
-77.4000;0.1473;10.5980;
-77.1000;0.1473;10.5884;
-76.8000;0.1473;10.5908;
-76.5000;0.1465;10.5932;
-76.2000;0.1433;10.5836;
-75.9000;0.1498;10.5908;
-75.6000;0.1481;10.5836;
-75.3000;0.1465;10.5836;
-75.0000;0.1481;10.5812;
-74.7000;0.1490;10.5763;
-74.4000;0.1441;10.5667;
-74.1000;0.1473;10.5739;
-73.8000;0.1465;10.5787;
-73.5000;0.1498;10.5884;
-73.2000;0.1490;10.5860;
-72.9000;0.1473;10.5884;
-72.6000;0.1490;10.5980;
-72.3000;0.1490;10.5932;
-72.0000;0.1490;10.5884;
-71.7000;0.1465;10.5763;
-71.4000;0.1481;10.5763;
-71.1000;0.1490;10.5763;
-70.8000;0.1473;10.5836;
-70.5000;0.1498;10.5763;
-70.2000;0.1490;10.5836;
-69.9000;0.1498;10.5836;
-69.6000;0.1490;10.5812;
-69.3000;0.1490;10.5787;
-69.0000;0.1481;10.5739;
-68.7000;0.1530;10.5884;
-68.4000;0.1392;10.5619;
-68.1000;0.1465;10.5787;
-67.8000;0.1481;10.5691;
-67.5000;0.1538;10.5812;
-67.2000;0.1449;10.5594;
-66.9000;0.1490;10.5667;
-66.6000;0.1481;10.5667;
-66.3000;0.1465;10.5643;
-66.0000;0.1506;10.5908;
-65.7000;0.1620;10.6149;
-65.4000;0.1457;10.5787;
-65.1000;0.1538;10.5956;
-64.8000;0.1481;10.5787;
-64.5000;0.1506;10.5836;
-64.2000;0.1547;10.5884;
-63.9000;0.1490;10.5812;
-63.6000;0.1530;10.5932;
-63.3000;0.1538;10.6005;
-63.0000;0.1433;10.5739;
-62.7000;0.1506;10.5932;
-62.4000;0.1481;10.5884;
-62.1000;0.1441;10.5691;
-61.8000;0.1481;10.5763;
-61.5000;0.1473;10.5836;
-61.2000;0.1490;10.5956;
-60.9000;0.1481;10.5836;
-60.6000;0.1490;10.5884;
-60.3000;0.1368;10.5643;
-60.0000;0.1506;10.5956;
-59.7000;0.1481;10.5908;
-59.4000;0.1490;10.5932;
-59.1000;0.1465;10.5860;
-58.8000;0.1481;10.5884;
-58.5000;0.1490;10.5956;
-58.2000;0.1481;10.5932;
-57.9000;0.1465;10.5812;
-57.6000;0.1498;10.5836;
-57.3000;0.1481;10.5860;
-57.0000;0.1490;10.5812;
-56.7000;0.1490;10.5787;
-56.4000;0.1481;10.5787;
-56.1000;0.1473;10.5836;
-55.8000;0.1498;10.5884;
-55.5000;0.1490;10.5812;
-55.2000;0.1457;10.5836;
-54.9000;0.1481;10.5908;
-54.6000;0.1481;10.5980;
-54.3000;0.1490;10.6005;
-54.0000;0.1506;10.5932;
-53.7000;0.1473;10.5812;
-53.4000;0.1490;10.5812;
-53.1000;0.1498;10.5836;
-52.8000;0.1490;10.5812;
-52.5000;0.1473;10.5715;
-52.2000;0.1481;10.5763;
-51.9000;0.1490;10.5812;
-51.6000;0.1530;10.5884;
-51.3000;0.1473;10.5739;
-51.0000;0.1498;10.5763;
-50.7000;0.1506;10.5812;
-50.4000;0.1490;10.5763;
-50.1000;0.1465;10.5619;
-49.8000;0.1473;10.5619;
-49.5000;0.1506;10.5691;
-49.2000;0.1490;10.5619;
-48.9000;0.1522;10.5739;
-48.6000;0.1498;10.5715;
-48.3000;0.1506;10.5619;
-48.0000;0.1506;10.5619;
-47.7000;0.1465;10.5619;
-47.4000;0.1481;10.5619;
-47.1000;0.1498;10.5691;
-46.8000;0.1498;10.5643;
-46.5000;0.1481;10.5594;
-46.2000;0.1481;10.5619;
-45.9000;0.1498;10.5667;
-45.6000;0.1498;10.5667;
-45.3000;0.1490;10.5715;
-45.0000;0.1490;10.5739;
-44.7000;0.1416;10.5546;
-44.4000;0.1490;10.5739;
-44.1000;0.1490;10.5812;
-43.8000;0.1498;10.5812;
-43.5000;0.1506;10.5884;
-43.2000;0.1506;10.5763;
-42.9000;0.1506;10.5812;
-42.6000;0.1473;10.5667;
-42.3000;0.1490;10.5667;
-42.0000;0.1465;10.5619;
-41.7000;0.1506;10.5763;
-41.4000;0.1571;10.5860;
-41.1000;0.1473;10.5570;
-40.8000;0.1473;10.5667;
-40.5000;0.1481;10.5763;
-40.2000;0.1490;10.5763;
-39.9000;0.1481;10.5763;
-39.6000;0.1457;10.5739;
-39.3000;0.1498;10.5908;
-39.0000;0.1514;10.5956;
-38.7000;0.1490;10.5884;
-38.4000;0.1481;10.5884;
-38.1000;0.1498;10.5956;
-37.8000;0.1498;10.5956;
-37.5000;0.1514;10.6029;
-37.2000;0.1522;10.5932;
-36.9000;0.1490;10.5908;
-36.6000;0.1498;10.5908;
-36.3000;0.1473;10.5860;
-36.0000;0.1481;10.5860;
-35.7000;0.1506;10.5884;
-35.4000;0.1473;10.5812;
-35.1000;0.1481;10.5763;
-34.8000;0.1498;10.5812;
-34.5000;0.1473;10.5691;
-34.2000;0.1490;10.5787;
-33.9000;0.1481;10.5715;
-33.6000;0.1473;10.5715;
-33.3000;0.1490;10.5739;
-33.0000;0.1465;10.5691;
-32.7000;0.1498;10.5812;
-32.4000;0.1481;10.5787;
-32.1000;0.1481;10.5884;
-31.8000;0.1473;10.5836;
-31.5000;0.1498;10.5860;
-31.2000;0.1498;10.5812;
-30.9000;0.1481;10.5908;
-30.6000;0.1449;10.5884;
-30.3000;0.1481;10.5884;
-30.0000;0.1473;10.5884;
-29.7000;0.1490;10.5908;
-29.4000;0.1481;10.5884;
-29.1000;0.1473;10.5932;
-28.8000;0.1481;10.5980;
-28.5000;0.1506;10.6101;
-28.2000;0.1473;10.6077;
-27.9000;0.1490;10.6125;
-27.6000;0.1498;10.6125;
-27.3000;0.1408;10.5836;
-27.0000;0.1481;10.5908;
-26.7000;0.1481;10.5908;
-26.4000;0.1441;10.5860;
-26.1000;0.1473;10.5980;
-25.8000;0.1490;10.5980;
-25.5000;0.1433;10.5908;
-25.2000;0.1425;10.5932;
-24.9000;0.1514;10.6197;
-24.6000;0.1473;10.6125;
-24.3000;0.1481;10.6125;
-24.0000;0.1481;10.6149;
-23.7000;0.1441;10.6101;
-23.4000;0.1481;10.6101;
-23.1000;0.1481;10.6101;
-22.8000;0.1416;10.5956;
-22.5000;0.1481;10.6077;
-22.2000;0.1506;10.6149;
-21.9000;0.1465;10.6077;
-21.6000;0.1490;10.6149;
-21.3000;0.1481;10.6197;
-21.0000;0.1490;10.6197;
-20.7000;0.1498;10.6197;
-20.4000;0.1465;10.6077;
-20.1000;0.1498;10.6173;
-19.8000;0.1595;10.6463;
-19.5000;0.1457;10.6101;
-19.2000;0.1481;10.6149;
-18.9000;0.1490;10.6125;
-18.6000;0.1498;10.6125;
-18.3000;0.1506;10.6222;
-18.0000;0.1481;10.6101;
-17.7000;0.1481;10.6101;
-17.4000;0.1490;10.6077;
-17.1000;0.1490;10.6005;
-16.8000;0.1473;10.5908;
-16.5000;0.1465;10.5884;
-16.2000;0.1490;10.5956;
-15.9000;0.1490;10.5980;
-15.6000;0.1563;10.6125;
-15.3000;0.1481;10.5932;
-15.0000;0.1481;10.6005;
-14.7000;0.1473;10.6005;
-14.4000;0.1473;10.5956;
-14.1000;0.1457;10.5908;
-13.8000;0.1498;10.5908;
-13.5000;0.1481;10.5860;
-13.2000;0.1457;10.5884;
-12.9000;0.1498;10.5956;
-12.6000;0.1490;10.6077;
-12.3000;0.1555;10.6270;
-12.0000;0.1481;10.6077;
-11.7000;0.1481;10.6005;
-11.4000;0.1481;10.5980;
-11.1000;0.1498;10.6005;
-10.8000;0.1490;10.5956;
-10.5000;0.1490;10.6005;
-10.2000;0.1555;10.6222;
-9.9000;0.1481;10.6101;
-9.6000;0.1481;10.6125;
-9.3000;0.1465;10.6005;
-9.0000;0.1473;10.5980;
-8.7000;0.1481;10.5956;
-8.4000;0.1490;10.6005;
-8.1000;0.1498;10.5980;
-7.8000;0.1473;10.5884;
-7.5000;0.1441;10.5836;
-7.2000;0.1514;10.6053;
-6.9000;0.1498;10.6029;
-6.6000;0.1457;10.5956;
-6.3000;0.1490;10.6029;
-6.0000;0.1490;10.6077;
-5.7000;0.1490;10.6053;
-5.4000;0.1481;10.5932;
-5.1000;0.1490;10.5908;
-4.8000;0.1490;10.5980;
-4.5000;0.1473;10.5956;
-4.2000;0.1490;10.6029;
-3.9000;0.1465;10.5980;
-3.6000;0.1595;10.6342;
-3.3000;0.1473;10.5932;
-3.0000;0.1481;10.5932;
-2.7000;0.1498;10.5932;
-2.4000;0.1465;10.5812;
-2.1000;0.1522;10.5908;
-1.8000;0.1465;10.5787;
-1.5000;0.1481;10.5884;
-1.2000;0.1490;10.5908;
-0.9000;0.1490;10.5908;
-0.6000;0.1481;10.5932;
-0.3000;0.1490;10.5932;
0.0000;0.1490;10.5932;
0.3000;0.1481;10.5715;
0.6000;0.1481;10.5860;
0.9000;0.1506;10.6077;
1.2000;0.1498;10.6197;
1.5000;0.1522;10.6390;
1.8000;0.1538;10.6656;
2.1000;0.1530;10.6752;
2.4000;0.1530;10.6945;
2.7000;0.1530;10.7114;
3.0000;0.1530;10.7210;
3.3000;0.1555;10.7307;
3.6000;0.1538;10.7428;
3.9000;0.1595;10.7669;
4.2000;0.1547;10.7621;
4.5000;0.1547;10.7621;
4.8000;0.1563;10.7693;
5.1000;0.1555;10.7693;
5.4000;0.1555;10.7717;
5.7000;0.1514;10.7693;
6.0000;0.1538;10.7789;
6.3000;0.1547;10.7765;
6.6000;0.1555;10.7765;
6.9000;0.1538;10.7645;
7.2000;0.1538;10.7741;
7.5000;0.1604;10.7886;
7.8000;0.1563;10.7789;
8.1000;0.1547;10.7765;
8.4000;0.1538;10.7838;
8.7000;0.1563;10.7910;
9.0000;0.1555;10.7789;
9.3000;0.1563;10.7717;
9.6000;0.1547;10.7789;
9.9000;0.1538;10.7741;
10.2000;0.1547;10.7862;
10.5000;0.1547;10.7838;
10.8000;0.1547;10.7910;
11.1000;0.1547;10.7934;
11.4000;0.1522;10.7958;
11.7000;0.1538;10.7910;
12.0000;0.1563;10.7934;
12.3000;0.1547;10.7813;
12.6000;0.1579;10.7886;
12.9000;0.1555;10.7669;
13.2000;0.1563;10.7669;
13.5000;0.1555;10.7693;
13.8000;0.1571;10.7693;
14.1000;0.1547;10.7669;
14.4000;0.1555;10.7765;
14.7000;0.1547;10.7838;
15.0000;0.1547;10.7886;
15.3000;0.1547;10.7910;
15.6000;0.1547;10.7886;
15.9000;0.1547;10.7910;
16.2000;0.1538;10.7813;
16.5000;0.1555;10.7838;
16.8000;0.1530;10.7813;
17.1000;0.1530;10.7765;
17.4000;0.1547;10.7645;
17.7000;0.1530;10.7621;
18.0000;0.1547;10.7717;
18.3000;0.1530;10.7717;
18.6000;0.1555;10.7717;
18.9000;0.1555;10.7765;
19.2000;0.1547;10.7741;
19.5000;0.1555;10.7693;
19.8000;0.1547;10.7645;
20.1000;0.1538;10.7645;
20.4000;0.1538;10.7596;
20.7000;0.1555;10.7669;
21.0000;0.1555;10.7717;
21.3000;0.1530;10.7741;
21.6000;0.1547;10.7813;
21.9000;0.1538;10.7717;
22.2000;0.1563;10.7741;
22.5000;0.1538;10.7645;
22.8000;0.1538;10.7645;
23.1000;0.1538;10.7645;
23.4000;0.1628;10.7862;
23.7000;0.1530;10.7548;
24.0000;0.1547;10.7621;
24.3000;0.1677;10.7910;
24.6000;0.1547;10.7669;
24.9000;0.1547;10.7717;
25.2000;0.1685;10.8127;
25.5000;0.1571;10.7741;
25.8000;0.1571;10.7862;
26.1000;0.1547;10.7886;
26.4000;0.1555;10.7838;
26.7000;0.1555;10.7886;
27.0000;0.1563;10.7910;
27.3000;0.1547;10.7910;
27.6000;0.1571;10.7958;
27.9000;0.1547;10.8006;
28.2000;0.1538;10.7982;
28.5000;0.1425;10.7669;
28.8000;0.1555;10.7982;
29.1000;0.1547;10.7886;
29.4000;0.1555;10.7862;
29.7000;0.1547;10.7886;
30.0000;0.1449;10.7572;
30.3000;0.1433;10.7331;
30.6000;0.1441;10.7355;
30.9000;0.1530;10.7621;
31.2000;0.1538;10.7741;
31.5000;0.1506;10.7717;
31.8000;0.1579;10.7886;
32.1000;0.1433;10.7645;
32.4000;0.1547;10.7910;
32.7000;0.1547;10.7813;
33.0000;0.1563;10.7813;
33.3000;0.1547;10.7813;
33.6000;0.1538;10.7813;
33.9000;0.1547;10.7813;
34.2000;0.1555;10.7910;
34.5000;0.1538;10.7838;
34.8000;0.1538;10.7910;
35.1000;0.1555;10.7910;
35.4000;0.1547;10.7838;
35.7000;0.1555;10.7886;
36.0000;0.1538;10.7862;
36.3000;0.1538;10.7838;
36.6000;0.1538;10.7813;
36.9000;0.1538;10.7765;
37.2000;0.1538;10.7789;
37.5000;0.1579;10.7813;
37.8000;0.1547;10.7813;
38.1000;0.1547;10.7910;
38.4000;0.1547;10.7934;
38.7000;0.1530;10.7838;
39.0000;0.1538;10.7982;
39.3000;0.1612;10.8223;
39.6000;0.1538;10.7982;
39.9000;0.1514;10.7838;
40.2000;0.1563;10.7910;
40.5000;0.1555;10.7982;
40.8000;0.1530;10.7934;
41.1000;0.1547;10.7958;
41.4000;0.1538;10.7958;
41.7000;0.1547;10.7982;
42.0000;0.1441;10.7548;
42.3000;0.1563;10.7838;
42.6000;0.1555;10.7789;
42.9000;0.1555;10.7741;
43.2000;0.1538;10.7693;
43.5000;0.1555;10.7789;
43.8000;0.1555;10.7765;
44.1000;0.1547;10.7717;
44.4000;0.1547;10.7765;
44.7000;0.1547;10.7765;
45.0000;0.1620;10.7910;
45.3000;0.1563;10.7886;
45.6000;0.1555;10.7862;
45.9000;0.1644;10.8055;
46.2000;0.1563;10.7789;
46.5000;0.1555;10.7693;
46.8000;0.1547;10.7693;
47.1000;0.1538;10.7741;
47.4000;0.1547;10.7838;
47.7000;0.1498;10.7645;
48.0000;0.1555;10.7813;
48.3000;0.1579;10.7982;
48.6000;0.1555;10.7958;
48.9000;0.1538;10.7886;
49.2000;0.1595;10.8055;
49.5000;0.1555;10.7838;
49.8000;0.1538;10.7813;
50.1000;0.1563;10.7813;
50.4000;0.1652;10.8006;
50.7000;0.1555;10.7717;
51.0000;0.1522;10.7693;
51.3000;0.1530;10.7717;
51.6000;0.1571;10.7741;
51.9000;0.1555;10.7741;
52.2000;0.1530;10.7741;
52.5000;0.1538;10.7789;
52.8000;0.1571;10.7934;
53.1000;0.1571;10.7934;
53.4000;0.1571;10.7934;
53.7000;0.1522;10.7765;
54.0000;0.1579;10.7765;
54.3000;0.1587;10.7765;
54.6000;0.1514;10.7548;
54.9000;0.1595;10.7765;
55.2000;0.1538;10.7669;
55.5000;0.1604;10.7789;
55.8000;0.1538;10.7669;
56.1000;0.1547;10.7765;
56.4000;0.1538;10.7838;
56.7000;0.1579;10.7934;
57.0000;0.1563;10.7886;
57.3000;0.1530;10.7741;
57.6000;0.1563;10.7813;
57.9000;0.1538;10.7669;
58.2000;0.1555;10.7765;
58.5000;0.1538;10.7645;
58.8000;0.1604;10.7765;
59.1000;0.1538;10.7693;
59.4000;0.1571;10.7717;
59.7000;0.1595;10.7813;
60.0000;0.1555;10.7765;
60.3000;0.1555;10.7645;
60.6000;0.1547;10.7645;
60.9000;0.1522;10.7572;
61.2000;0.1555;10.7669;
61.5000;0.1538;10.7741;
61.8000;0.1457;10.7572;
62.1000;0.1522;10.7693;
62.4000;0.1547;10.7693;
62.7000;0.1522;10.7596;
63.0000;0.1530;10.7621;
63.3000;0.1555;10.7693;
63.6000;0.1555;10.7645;
63.9000;0.1538;10.7572;
64.2000;0.1571;10.7717;
64.5000;0.1530;10.7669;
64.8000;0.1547;10.7669;
65.1000;0.1547;10.7717;
65.4000;0.1522;10.7741;
65.7000;0.1506;10.7669;
66.0000;0.1547;10.7765;
66.3000;0.1514;10.7741;
66.6000;0.1530;10.7693;
66.9000;0.1677;10.8079;
67.2000;0.1555;10.7813;
67.5000;0.1530;10.7813;
67.8000;0.1530;10.7813;
68.1000;0.1555;10.7813;
68.4000;0.1563;10.7741;
68.7000;0.1555;10.7717;
69.0000;0.1547;10.7693;
69.3000;0.1563;10.7765;
69.6000;0.1555;10.7838;
69.9000;0.1661;10.8127;
70.2000;0.1522;10.7789;
70.5000;0.1571;10.7934;
70.8000;0.1579;10.7934;
71.1000;0.1563;10.7982;
71.4000;0.1579;10.7982;
71.7000;0.1571;10.8006;
72.0000;0.1555;10.7886;
72.3000;0.1498;10.7789;
72.6000;0.1538;10.7862;
72.9000;0.1555;10.7886;
73.2000;0.1522;10.7862;
73.5000;0.1514;10.7813;
73.8000;0.1547;10.7838;
74.1000;0.1530;10.7813;
74.4000;0.1555;10.7886;
74.7000;0.1547;10.7886;
75.0000;0.1547;10.7862;
75.3000;0.1563;10.7862;
75.6000;0.1555;10.7765;
75.9000;0.1538;10.7741;
76.2000;0.1555;10.7741;
76.5000;0.1498;10.7548;
76.8000;0.1555;10.7717;
77.1000;0.1490;10.7693;
77.4000;0.1538;10.7813;
77.7000;0.1563;10.7886;
78.0000;0.1538;10.7789;
78.3000;0.1555;10.7765;
78.6000;0.1530;10.7741;
78.9000;0.1522;10.7717;
79.2000;0.1538;10.7789;
79.5000;0.1555;10.7886;
79.8000;0.1571;10.7934;
80.1000;0.1547;10.7813;
80.4000;0.1547;10.7741;
80.7000;0.1555;10.7813;
81.0000;0.1547;10.7765;
81.3000;0.1538;10.7717;
81.6000;0.1563;10.7741;
81.9000;0.1538;10.7693;
82.2000;0.1547;10.7717;
82.5000;0.1555;10.7741;
82.8000;0.1530;10.7693;
83.1000;0.1522;10.7645;
83.4000;0.1522;10.7669;
83.7000;0.1555;10.7717;
84.0000;0.1547;10.7645;
84.3000;0.1506;10.7669;
84.6000;0.1563;10.7789;
84.9000;0.1555;10.7717;
85.2000;0.1530;10.7645;
85.5000;0.1547;10.7669;
85.8000;0.1563;10.7765;
86.1000;0.1538;10.7741;
86.4000;0.1555;10.7693;
86.7000;0.1538;10.7717;
87.0000;0.1538;10.7717;
87.3000;0.1522;10.7741;
87.6000;0.1587;10.8006;
87.9000;0.1530;10.7813;
88.2000;0.1547;10.7910;
88.5000;0.1563;10.7982;
88.8000;0.1547;10.8006;
89.1000;0.1538;10.7910;
89.4000;0.1522;10.7886;
89.7000;0.1587;10.8031;
90.0000;0.1563;10.7886;
90.3000;0.1530;10.7741;
90.6000;0.1547;10.7838;
90.9000;0.1555;10.7717;
91.2000;0.1547;10.7741;
91.5000;0.1555;10.7813;
91.8000;0.1547;10.7765;
92.1000;0.1538;10.7717;
92.4000;0.1595;10.7813;
92.7000;0.1547;10.7669;
93.0000;0.1547;10.7741;
93.3000;0.1530;10.7741;
93.6000;0.1555;10.7765;
93.9000;0.1530;10.7693;
94.2000;0.1547;10.7621;
94.5000;0.1530;10.7596;
94.8000;0.1547;10.7596;
95.1000;0.1555;10.7572;
95.4000;0.1465;10.7379;
95.7000;0.1538;10.7524;
96.0000;0.1563;10.7645;
96.3000;0.1555;10.7621;
96.6000;0.1538;10.7669;
96.9000;0.1522;10.7669;
97.2000;0.1538;10.7693;
97.5000;0.1538;10.7669;
97.8000;0.1547;10.7717;
98.1000;0.1547;10.7693;
98.4000;0.1522;10.7596;
98.7000;0.1571;10.7741;
99.0000;0.1538;10.7548;
99.3000;0.1522;10.7621;
99.6000;0.1555;10.7669;
99.9000;0.1538;10.7717;
100.2000;0.1538;10.7741;
100.5000;0.1514;10.7693;
100.8000;0.1555;10.7910;
101.1000;0.1547;10.7886;
101.4000;0.1538;10.7862;
101.7000;0.1538;10.7886;
102.0000;0.1538;10.7789;
102.3000;0.1530;10.7862;
102.6000;0.1547;10.7789;
102.9000;0.1538;10.7765;
103.2000;0.1555;10.7813;
103.5000;0.1547;10.7789;
103.8000;0.1538;10.7813;
104.1000;0.1547;10.7886;
104.4000;0.1530;10.7813;
104.7000;0.1547;10.7789;
105.0000;0.1538;10.7741;
105.3000;0.1547;10.7669;
105.6000;0.1538;10.7596;
105.9000;0.1530;10.7524;
106.2000;0.1563;10.7596;
106.5000;0.1563;10.7596;
106.8000;0.1579;10.7548;
107.1000;0.1547;10.7476;
107.4000;0.1547;10.7500;
107.7000;0.1555;10.7428;
108.0000;0.1530;10.7403;
108.3000;0.1547;10.7524;
108.6000;0.1620;10.7621;
108.9000;0.1538;10.7548;
109.2000;0.1547;10.7596;
109.5000;0.1522;10.7524;
109.8000;0.1530;10.7548;
110.1000;0.1530;10.7548;
110.4000;0.1547;10.7669;
110.7000;0.1538;10.7596;
111.0000;0.1538;10.7621;
111.3000;0.1547;10.7741;
111.6000;0.1555;10.7765;
111.9000;0.1530;10.7645;
112.2000;0.1547;10.7596;
112.5000;0.1547;10.7621;
112.8000;0.1571;10.7645;
113.1000;0.1538;10.7621;
113.4000;0.1538;10.7621;
113.7000;0.1538;10.7669;
114.0000;0.1498;10.7621;
114.3000;0.1490;10.7621;
114.6000;0.1538;10.7669;
114.9000;0.1530;10.7717;
115.2000;0.1538;10.7765;
115.5000;0.1530;10.7813;
115.8000;0.1547;10.7886;
116.1000;0.1547;10.7910;
116.4000;0.1522;10.7862;
116.7000;0.1530;10.7813;
117.0000;0.1555;10.7934;
117.3000;0.1547;10.7886;
117.6000;0.1547;10.7886;
117.9000;0.1530;10.7862;
118.2000;0.1538;10.7862;
118.5000;0.1555;10.7910;
118.8000;0.1514;10.7813;
119.1000;0.1538;10.7886;
119.4000;0.1522;10.7789;
119.7000;0.1522;10.7765;
120.0000;0.1547;10.7741;
120.3000;0.1547;10.7717;
120.6000;0.1538;10.7645;
120.9000;0.1538;10.7645;
121.2000;0.1538;10.7693;
121.5000;0.1547;10.7741;
121.8000;0.1538;10.7862;
122.1000;0.1547;10.7765;
122.4000;0.1547;10.7693;
122.7000;0.1538;10.7669;
123.0000;0.1547;10.7717;
123.3000;0.1555;10.7669;
123.6000;0.1457;10.7403;
123.9000;0.1538;10.7693;
124.2000;0.1555;10.7862;
124.5000;0.1595;10.8006;
124.8000;0.1563;10.7910;
125.1000;0.1547;10.7765;
125.4000;0.1538;10.7717;
125.7000;0.1514;10.7524;
126.0000;0.1555;10.7693;
126.3000;0.1555;10.7693;
126.6000;0.1555;10.7669;
126.9000;0.1555;10.7693;
127.2000;0.1547;10.7862;
127.5000;0.1530;10.7813;
127.8000;0.1547;10.7813;
128.1000;0.1547;10.7789;
128.4000;0.1547;10.7813;
128.7000;0.1563;10.7934;
129.0000;0.1473;10.7693;
129.3000;0.1547;10.7886;
129.6000;0.1481;10.7669;
129.9000;0.1571;10.7741;
130.2000;0.1538;10.7669;
130.5000;0.1547;10.7669;
130.8000;0.1563;10.7669;
131.1000;0.1555;10.7645;
131.4000;0.1571;10.7621;
131.7000;0.1530;10.7548;
132.0000;0.1563;10.7669;
132.3000;0.1538;10.7645;
132.6000;0.1538;10.7693;
132.9000;0.1530;10.7717;
133.2000;0.1538;10.7693;
133.5000;0.1530;10.7645;
133.8000;0.1547;10.7621;
134.1000;0.1530;10.7548;
134.4000;0.1555;10.7645;
134.7000;0.1538;10.7645;
135.0000;0.1547;10.7572;
135.3000;0.1530;10.7596;
135.6000;0.1555;10.7645;
135.9000;0.1563;10.7765;
136.2000;0.1563;10.7813;
136.5000;0.1571;10.7910;
136.8000;0.1563;10.7886;
137.1000;0.1538;10.7862;
137.4000;0.1604;10.8006;
137.7000;0.1587;10.7982;
138.0000;0.1538;10.7813;
138.3000;0.1538;10.7789;
138.6000;0.1555;10.7789;
138.9000;0.1571;10.7789;
139.2000;0.1498;10.7645;
139.5000;0.1506;10.7621;
139.8000;0.1522;10.7621;
140.1000;0.1563;10.7765;
140.4000;0.1506;10.7645;
140.7000;0.1538;10.7717;
141.0000;0.1555;10.7765;
141.3000;0.1628;10.7958;
141.6000;0.1530;10.7717;
141.9000;0.1547;10.7741;
142.2000;0.1514;10.7693;
142.5000;0.1555;10.7693;
142.8000;0.1538;10.7741;
143.1000;0.1530;10.7741;
143.4000;0.1490;10.7693;
143.7000;0.1555;10.7910;
144.0000;0.1538;10.7741;
144.3000;0.1547;10.7765;
144.6000;0.1547;10.7717;
144.9000;0.1547;10.7741;
145.2000;0.1604;10.7934;
145.5000;0.1571;10.7910;
145.8000;0.1530;10.7765;
146.1000;0.1563;10.7910;
146.4000;0.1547;10.7934;
146.7000;0.1595;10.8151;
147.0000;0.1547;10.8079;
147.3000;0.1547;10.7982;
147.6000;0.1587;10.8127;
147.9000;0.1530;10.7934;
148.2000;0.1522;10.7862;
148.5000;0.1547;10.7789;
148.8000;0.1538;10.7813;
149.1000;0.1538;10.7862;
149.4000;0.1514;10.7838;
149.7000;0.1547;10.7886;
150.0000;0.1538;10.7934;
150.3000;0.1555;10.7958;
150.6000;0.1498;10.7934;
150.9000;0.1498;10.7886;
151.2000;0.1530;10.7958;
151.5000;0.1547;10.7934;
151.8000;0.1538;10.7838;
152.1000;0.1498;10.7693;
152.4000;0.1547;10.7765;
152.7000;0.1547;10.7741;
153.0000;0.1547;10.7741;
153.3000;0.1563;10.7838;
153.6000;0.1555;10.7789;
153.9000;0.1563;10.7910;
154.2000;0.1514;10.7886;
154.5000;0.1547;10.7886;
154.8000;0.1514;10.7717;
155.1000;0.1530;10.7741;
155.4000;0.1547;10.7741;
155.7000;0.1498;10.7621;
156.0000;0.1538;10.7621;
156.3000;0.1547;10.7645;
156.6000;0.1522;10.7669;
156.9000;0.1555;10.7717;
157.2000;0.1522;10.7669;
157.5000;0.1457;10.7452;
157.8000;0.1555;10.7765;
158.1000;0.1530;10.7693;
158.4000;0.1538;10.7669;
158.7000;0.1530;10.7596;
159.0000;0.1530;10.7572;
159.3000;0.1538;10.7693;
159.6000;0.1571;10.7838;
159.9000;0.1563;10.7813;
160.2000;0.1530;10.7789;
160.5000;0.1579;10.7934;
160.8000;0.1555;10.7813;
161.1000;0.1530;10.7693;
161.4000;0.1538;10.7862;
161.7000;0.1538;10.7741;
162.0000;0.1563;10.7838;
162.3000;0.1563;10.7813;
162.6000;0.1579;10.7741;
162.9000;0.1538;10.7548;
163.2000;0.1571;10.7645;
163.5000;0.1506;10.7452;
163.8000;0.1547;10.7596;
164.1000;0.1547;10.7621;
164.4000;0.1628;10.7838;
164.7000;0.1490;10.7428;
165.0000;0.1538;10.7621;
165.3000;0.1514;10.7621;
165.6000;0.1530;10.7765;
165.9000;0.1547;10.7789;
166.2000;0.1506;10.7741;
166.5000;0.1538;10.7765;
166.8000;0.1530;10.7717;
167.1000;0.1538;10.7669;
167.4000;0.1514;10.7669;
167.7000;0.1547;10.7741;
168.0000;0.1555;10.7741;
168.3000;0.1506;10.7596;
168.6000;0.1547;10.7621;
168.9000;0.1538;10.7717;
169.2000;0.1522;10.7765;
169.5000;0.1563;10.7813;
169.8000;0.1522;10.7717;
170.1000;0.1538;10.7765;
170.4000;0.1530;10.7741;
170.7000;0.1498;10.7741;
171.0000;0.1563;10.7910;
171.3000;0.1530;10.7813;
171.6000;0.1530;10.7813;
171.9000;0.1555;10.7910;
172.2000;0.1538;10.7838;
172.5000;0.1538;10.7886;
172.8000;0.1555;10.7934;
173.1000;0.1547;10.7958;
173.4000;0.1547;10.7910;
173.7000;0.1555;10.7982;
174.0000;0.1538;10.8031;
174.3000;0.1547;10.8006;
174.6000;0.1538;10.8006;
174.9000;0.1547;10.8006;
175.2000;0.1538;10.8031;
175.5000;0.1538;10.7982;
175.8000;0.1538;10.7934;
176.1000;0.1612;10.8079;
176.4000;0.1563;10.7934;
176.7000;0.1555;10.7813;
177.0000;0.1514;10.7741;
177.3000;0.1538;10.7838;
177.6000;0.1514;10.7886;
177.9000;0.1530;10.8055;
178.2000;0.1547;10.8127;
178.5000;0.1506;10.8079;
178.8000;0.1547;10.8248;
179.1000;0.1547;10.8151;
179.4000;0.1612;10.8248;
179.7000;0.1547;10.8151;
180.0000;0.1530;10.8103;
180.3000;0.1498;10.7934;
180.6000;0.1555;10.8006;
180.9000;0.1530;10.8006;
181.2000;0.1522;10.7934;
181.5000;0.1555;10.7982;
181.8000;0.1547;10.8006;
182.1000;0.1547;10.8006;
182.4000;0.1661;10.8248;
182.7000;0.1547;10.7982;
183.0000;0.1538;10.7765;
183.3000;0.1555;10.7862;
183.6000;0.1547;10.7813;
183.9000;0.1547;10.7765;
184.2000;0.1547;10.7693;
184.5000;0.1538;10.7693;
184.8000;0.1538;10.7693;
185.1000;0.1538;10.7645;
185.4000;0.1587;10.7789;
185.7000;0.1465;10.7548;
186.0000;0.1530;10.7645;
186.3000;0.1538;10.7669;
186.6000;0.1538;10.7669;
186.9000;0.1530;10.7621;
187.2000;0.1547;10.7596;
187.5000;0.1538;10.7596;
187.8000;0.1547;10.7596;
188.1000;0.1547;10.7669;
188.4000;0.1547;10.7717;
188.7000;0.1530;10.7862;
189.0000;0.1530;10.7934;
189.3000;0.1555;10.8006;
189.6000;0.1538;10.7982;
189.9000;0.1522;10.7934;
190.2000;0.1506;10.7838;
190.5000;0.1530;10.7910;
190.8000;0.1538;10.7934;
191.1000;0.1538;10.7958;
191.4000;0.1522;10.7910;
191.7000;0.1538;10.7910;
192.0000;0.1547;10.7910;
192.3000;0.1547;10.7862;
192.6000;0.1547;10.7958;
192.9000;0.1547;10.7958;
193.2000;0.1538;10.7958;
193.5000;0.1547;10.7910;
193.8000;0.1547;10.8006;
194.1000;0.1547;10.8079;
194.4000;0.1547;10.8103;
194.7000;0.1555;10.8055;
195.0000;0.1522;10.7934;
195.3000;0.1538;10.7838;
195.6000;0.1530;10.7813;
195.9000;0.1555;10.7838;
196.2000;0.1538;10.7862;
196.5000;0.1571;10.7982;
196.8000;0.1547;10.7813;
197.1000;0.1563;10.7765;
197.4000;0.1547;10.7693;
197.7000;0.1555;10.7669;
198.0000;0.1547;10.7596;
198.3000;0.1571;10.7596;
198.6000;0.1555;10.7596;
198.9000;0.1538;10.7500;
199.2000;0.1538;10.7548;
199.5000;0.1522;10.7572;
199.8000;0.1538;10.7572;
200.1000;0.1547;10.7693;
200.4000;0.1530;10.7717;
200.7000;0.1530;10.7693;
201.0000;0.1538;10.7717;
201.3000;0.1563;10.7910;
201.6000;0.1547;10.7886;
201.9000;0.1595;10.7934;
202.2000;0.1555;10.7886;
202.5000;0.1547;10.7886;
202.8000;0.1530;10.7862;
203.1000;0.1522;10.7813;
203.4000;0.1555;10.7886;
203.7000;0.1538;10.7886;
204.0000;0.1530;10.7813;
204.3000;0.1538;10.7765;
204.6000;0.1538;10.7645;
204.9000;0.1522;10.7621;
205.2000;0.1547;10.7717;
205.5000;0.1538;10.7765;
205.8000;0.1547;10.7838;
206.1000;0.1538;10.7765;
206.4000;0.1547;10.7717;
206.7000;0.1506;10.7693;
207.0000;0.1530;10.7741;
207.3000;0.1571;10.7693;
207.6000;0.1563;10.7669;
207.9000;0.1538;10.7669;
208.2000;0.1555;10.7669;
208.5000;0.1538;10.7717;
208.8000;0.1538;10.7765;
209.1000;0.1547;10.7693;
209.4000;0.1555;10.7765;
209.7000;0.1538;10.7741;
210.0000;0.1530;10.7765;
210.3000;0.1522;10.7813;
210.6000;0.1530;10.7741;
210.9000;0.1522;10.7765;
211.2000;0.1530;10.7813;
211.5000;0.1473;10.7572;
211.8000;0.1530;10.7789;
212.1000;0.1547;10.7717;
212.4000;0.1547;10.7693;
212.7000;0.1555;10.7765;
213.0000;0.1555;10.7813;
213.3000;0.1538;10.7862;
213.6000;0.1522;10.7813;
213.9000;0.1563;10.7958;
214.2000;0.1538;10.7886;
214.5000;0.1522;10.7862;
214.8000;0.1530;10.7886;
215.1000;0.1538;10.7910;
215.4000;0.1530;10.7838;
215.7000;0.1514;10.7741;
216.0000;0.1538;10.7862;
216.3000;0.1547;10.7789;
216.6000;0.1506;10.7717;
216.9000;0.1538;10.7669;
217.2000;0.1530;10.7572;
217.5000;0.1425;10.7307;
217.8000;0.1547;10.7693;
218.1000;0.1547;10.7693;
218.4000;0.1555;10.7693;
218.7000;0.1514;10.7524;
219.0000;0.1555;10.7621;
219.3000;0.1538;10.7596;
219.6000;0.1522;10.7572;
219.9000;0.1547;10.7693;
220.2000;0.1538;10.7717;
220.5000;0.1522;10.7693;
220.8000;0.1498;10.7669;
221.1000;0.1547;10.7765;
221.4000;0.1522;10.7693;
221.7000;0.1514;10.7621;
222.0000;0.1481;10.7428;
222.3000;0.1530;10.7524;
222.6000;0.1595;10.7741;
222.9000;0.1538;10.7669;
223.2000;0.1530;10.7741;
223.5000;0.1538;10.7669;
223.8000;0.1522;10.7669;
224.1000;0.1547;10.7813;
224.4000;0.1530;10.7741;
224.7000;0.1547;10.7765;
225.0000;0.1547;10.7813;
225.3000;0.1538;10.7862;
225.6000;0.1555;10.7813;
225.9000;0.1612;10.7982;
226.2000;0.1555;10.7813;
226.5000;0.1506;10.7693;
226.8000;0.1538;10.7765;
227.1000;0.1522;10.7717;
227.4000;0.1547;10.7693;
227.7000;0.1530;10.7621;
228.0000;0.1522;10.7596;
228.3000;0.1538;10.7645;
228.6000;0.1547;10.7693;
228.9000;0.1522;10.7717;
229.2000;0.1538;10.7765;
229.5000;0.1514;10.7669;
229.8000;0.1579;10.7669;
230.1000;0.1522;10.7548;
230.4000;0.1490;10.7500;
230.7000;0.1547;10.7693;
231.0000;0.1530;10.7621;
231.3000;0.1530;10.7645;
231.6000;0.1538;10.7645;
231.9000;0.1547;10.7621;
232.2000;0.1530;10.7669;
232.5000;0.1530;10.7693;
232.8000;0.1538;10.7741;
233.1000;0.1538;10.7765;
233.4000;0.1538;10.7741;
233.7000;0.1522;10.7717;
234.0000;0.1490;10.7693;
234.3000;0.1563;10.7862;
234.6000;0.1538;10.7789;
234.9000;0.1498;10.7693;
235.2000;0.1530;10.7765;
235.5000;0.1538;10.7741;
235.8000;0.1538;10.7741;
236.1000;0.1530;10.7669;
236.4000;0.1530;10.7717;
236.7000;0.1538;10.7813;
237.0000;0.1555;10.7838;
237.3000;0.1547;10.7838;
237.6000;0.1530;10.7813;
237.9000;0.1530;10.7838;
238.2000;0.1547;10.7934;
238.5000;0.1547;10.7910;
238.8000;0.1547;10.7886;
239.1000;0.1604;10.8055;
239.4000;0.1547;10.7886;
239.7000;0.1522;10.7910;
240.0000;0.1555;10.8006;
240.3000;0.1530;10.8031;
240.6000;0.1538;10.7934;
240.9000;0.1538;10.7958;
241.2000;0.1522;10.7886;
241.5000;0.1563;10.8079;
241.8000;0.1538;10.8006;
242.1000;0.1530;10.7982;
242.4000;0.1555;10.8006;
242.7000;0.1538;10.7910;
243.0000;0.1547;10.7910;
243.3000;0.1538;10.7789;
243.6000;0.1555;10.7765;
243.9000;0.1555;10.7789;
244.2000;0.1555;10.7789;
244.5000;0.1563;10.7789;
244.8000;0.1530;10.7717;
245.1000;0.1538;10.7789;
245.4000;0.1538;10.7789;
245.7000;0.1563;10.7862;
246.0000;0.1530;10.7789;
246.3000;0.1538;10.7813;
246.6000;0.1538;10.7693;
246.9000;0.1555;10.7717;
247.2000;0.1538;10.7741;
247.5000;0.1538;10.7789;
247.8000;0.1457;10.7572;
248.1000;0.1538;10.7765;
248.4000;0.1547;10.7862;
248.7000;0.1571;10.7862;
249.0000;0.1514;10.7717;
249.3000;0.1530;10.7813;
249.6000;0.1530;10.7741;
249.9000;0.1530;10.7741;
250.2000;0.1522;10.7789;
250.5000;0.1530;10.7765;
250.8000;0.1530;10.7741;
251.1000;0.1538;10.7741;
251.4000;0.1481;10.7548;
251.7000;0.1547;10.7693;
252.0000;0.1547;10.7693;
252.3000;0.1522;10.7621;
252.6000;0.1555;10.7741;
252.9000;0.1530;10.7741;
253.2000;0.1555;10.7838;
253.5000;0.1530;10.7813;
253.8000;0.1538;10.7886;
254.1000;0.1538;10.7934;
254.4000;0.1530;10.7910;
254.7000;0.1547;10.7910;
255.0000;0.1547;10.7934;
255.3000;0.1547;10.7862;
255.6000;0.1555;10.7958;
255.9000;0.1555;10.7958;
256.2000;0.1547;10.7886;
256.5000;0.1498;10.7765;
256.8000;0.1555;10.7910;
257.1000;0.1547;10.7789;
257.4000;0.1522;10.7813;
257.7000;0.1538;10.7789;
258.0000;0.1538;10.7862;
258.3000;0.1555;10.7910;
258.6000;0.1547;10.7813;
258.9000;0.1555;10.7765;
259.2000;0.1481;10.7596;
259.5000;0.1571;10.7886;
259.8000;0.1449;10.7524;
260.1000;0.1538;10.7741;
260.4000;0.1571;10.7813;
260.7000;0.1538;10.7717;
261.0000;0.1547;10.7813;
261.3000;0.1490;10.7596;
261.6000;0.1514;10.7717;
261.9000;0.1571;10.7789;
262.2000;0.1530;10.7645;
262.5000;0.1538;10.7693;
262.8000;0.1538;10.7669;
263.1000;0.1538;10.7789;
263.4000;0.1514;10.7765;
263.7000;0.1547;10.7789;
264.0000;0.1538;10.7765;
264.3000;0.1538;10.7741;
264.6000;0.1595;10.7910;
264.9000;0.1522;10.7741;
265.2000;0.1555;10.7693;
265.5000;0.1563;10.7693;
265.8000;0.1547;10.7572;
266.1000;0.1547;10.7596;
266.4000;0.1555;10.7596;
266.7000;0.1530;10.7572;
267.0000;0.1538;10.7572;
267.3000;0.1538;10.7669;
267.6000;0.1530;10.7717;
267.9000;0.1530;10.7717;
268.2000;0.1530;10.7789;
268.5000;0.1530;10.7765;
268.8000;0.1547;10.7741;
269.1000;0.1530;10.7669;
269.4000;0.1538;10.7717;
269.7000;0.1538;10.7693;
270.0000;0.1547;10.7765;
270.3000;0.1571;10.7862;
270.6000;0.1522;10.7741;
270.9000;0.1620;10.7886;
271.2000;0.1555;10.7741;
271.5000;0.1506;10.7645;
271.8000;0.1538;10.7669;
272.1000;0.1514;10.7645;
272.4000;0.1498;10.7669;
272.7000;0.1490;10.7596;
273.0000;0.1538;10.7669;
273.3000;0.1530;10.7645;
273.6000;0.1506;10.7572;
273.9000;0.1530;10.7621;
274.2000;0.1530;10.7596;
274.5000;0.1514;10.7548;
274.8000;0.1538;10.7621;
275.1000;0.1547;10.7669;
275.4000;0.1555;10.7717;
275.7000;0.1538;10.7669;
276.0000;0.1538;10.7741;
276.3000;0.1547;10.7765;
276.6000;0.1514;10.7669;
276.9000;0.1514;10.7596;
277.2000;0.1522;10.7645;
277.5000;0.1473;10.7548;
277.8000;0.1563;10.7669;
278.1000;0.1538;10.7741;
278.4000;0.1522;10.7669;
278.7000;0.1571;10.7789;
279.0000;0.1547;10.7693;
279.3000;0.1538;10.7693;
279.6000;0.1587;10.7765;
279.9000;0.1530;10.7645;
280.2000;0.1547;10.7693;
280.5000;0.1563;10.7621;
280.8000;0.1555;10.7548;
281.1000;0.1538;10.7621;
281.4000;0.1538;10.7596;
281.7000;0.1530;10.7621;
282.0000;0.1538;10.7572;
282.3000;0.1522;10.7572;
282.6000;0.1538;10.7621;
282.9000;0.1506;10.7596;
283.2000;0.1522;10.7693;
283.5000;0.1408;10.7331;
283.8000;0.1498;10.7500;
284.1000;0.1547;10.7548;
284.4000;0.1538;10.7403;
284.7000;0.1481;10.7162;
285.0000;0.1522;10.7259;
285.3000;0.1506;10.7162;
285.6000;0.1514;10.7235;
285.9000;0.1530;10.7259;
286.2000;0.1538;10.7355;
286.5000;0.1514;10.7259;
286.8000;0.1538;10.7307;
287.1000;0.1538;10.7331;
287.4000;0.1530;10.7355;
287.7000;0.1538;10.7355;
288.0000;0.1538;10.7403;
288.3000;0.1506;10.7355;
288.6000;0.1530;10.7428;
288.9000;0.1547;10.7500;
289.2000;0.1538;10.7500;
289.5000;0.1547;10.7524;
289.8000;0.1538;10.7476;
290.1000;0.1538;10.7476;
290.4000;0.1530;10.7379;
290.7000;0.1555;10.7452;
291.0000;0.1506;10.7331;
291.3000;0.1522;10.7331;
291.6000;0.1522;10.7259;
291.9000;0.1530;10.7283;
292.2000;0.1538;10.7235;
292.5000;0.1538;10.7210;
292.8000;0.1498;10.7186;
293.1000;0.1547;10.7355;
293.4000;0.1563;10.7331;
293.7000;0.1547;10.7259;
294.0000;0.1538;10.7259;
294.3000;0.1620;10.7548;
294.6000;0.1547;10.7331;
294.9000;0.1530;10.7403;
295.2000;0.1538;10.7452;
295.5000;0.1563;10.7524;
295.8000;0.1587;10.7621;
296.1000;0.1563;10.7524;
296.4000;0.1563;10.7500;
296.7000;0.1555;10.7548;
297.0000;0.1555;10.7500;
297.3000;0.1433;10.7138;
297.6000;0.1530;10.7307;
297.9000;0.1538;10.7355;
298.2000;0.1555;10.7452;
298.5000;0.1587;10.7524;
298.8000;0.1530;10.7307;
299.1000;0.1538;10.7355;
299.4000;0.1555;10.7355;
299.7000;0.1612;10.7500;
300.0000;0.1522;10.7355;
300.3000;0.1547;10.7403;
300.6000;0.1571;10.7452;
300.9000;0.1514;10.7331;
301.2000;0.1538;10.7355;
301.5000;0.1571;10.7379;
301.8000;0.1522;10.7235;
302.1000;0.1547;10.7307;
302.4000;0.1498;10.7210;
302.7000;0.1530;10.7259;
303.0000;0.1579;10.7355;
303.3000;0.1538;10.7235;
303.6000;0.1538;10.7235;
303.9000;0.1538;10.7331;
304.2000;0.1538;10.7331;
304.5000;0.1538;10.7307;
304.8000;0.1522;10.7210;
305.1000;0.1530;10.7283;
305.4000;0.1530;10.7331;
305.7000;0.1530;10.7403;
306.0000;0.1538;10.7428;
306.3000;0.1538;10.7500;
306.6000;0.1547;10.7500;
306.9000;0.1522;10.7379;
307.2000;0.1530;10.7403;
307.5000;0.1538;10.7428;
307.8000;0.1579;10.7596;
308.1000;0.1538;10.7403;
308.4000;0.1547;10.7428;
308.7000;0.1514;10.7452;
309.0000;0.1530;10.7476;
309.3000;0.1522;10.7500;
309.6000;0.1587;10.7596;
309.9000;0.1538;10.7548;
310.2000;0.1547;10.7596;
310.5000;0.1538;10.7524;
310.8000;0.1555;10.7596;
311.1000;0.1547;10.7452;
311.4000;0.1538;10.7428;
311.7000;0.1571;10.7428;
312.0000;0.1547;10.7403;
312.3000;0.1555;10.7500;
312.6000;0.1571;10.7500;
312.9000;0.1547;10.7476;
313.2000;0.1530;10.7379;
313.5000;0.1538;10.7355;
313.8000;0.1538;10.7379;
314.1000;0.1530;10.7307;
314.4000;0.1538;10.7331;
314.7000;0.1555;10.7379;
315.0000;0.1563;10.7428;
315.3000;0.1530;10.7500;
315.6000;0.1530;10.7524;
315.9000;0.1547;10.7476;
316.2000;0.1538;10.7476;
316.5000;0.1538;10.7452;
316.8000;0.1555;10.7452;
317.1000;0.1571;10.7452;
317.4000;0.1530;10.7379;
317.7000;0.1547;10.7452;
318.0000;0.1538;10.7452;
318.3000;0.1555;10.7403;
318.6000;0.1571;10.7452;
318.9000;0.1522;10.7428;
319.2000;0.1530;10.7524;
319.5000;0.1449;10.7259;
319.8000;0.1530;10.7428;
320.1000;0.1587;10.7524;
320.4000;0.1522;10.7403;
320.7000;0.1538;10.7379;
321.0000;0.1555;10.7500;
321.3000;0.1555;10.7452;
321.6000;0.1547;10.7476;
321.9000;0.1620;10.7596;
322.2000;0.1538;10.7283;
322.5000;0.1514;10.7186;
322.8000;0.1538;10.7355;
323.1000;0.1538;10.7283;
323.4000;0.1538;10.7331;
323.7000;0.1530;10.7307;
324.0000;0.1538;10.7379;
324.3000;0.1604;10.7621;
324.6000;0.1465;10.7307;
324.9000;0.1522;10.7452;
325.2000;0.1547;10.7476;
325.5000;0.1465;10.7355;
325.8000;0.1473;10.7331;
326.1000;0.1538;10.7596;
326.4000;0.1530;10.7524;
326.7000;0.1547;10.7548;
327.0000;0.1481;10.7379;
327.3000;0.1587;10.7548;
327.6000;0.1579;10.7428;
327.9000;0.1498;10.7210;
328.2000;0.1538;10.7403;
328.5000;0.1538;10.7403;
328.8000;0.1530;10.7452;
329.1000;0.1538;10.7428;
329.4000;0.1538;10.7355;
329.7000;0.1547;10.7476;
330.0000;0.1538;10.7428;
330.3000;0.1538;10.7379;
330.6000;0.1522;10.7428;
330.9000;0.1547;10.7524;
331.2000;0.1498;10.7355;
331.5000;0.1595;10.7645;
331.8000;0.1538;10.7476;
332.1000;0.1538;10.7548;
332.4000;0.1538;10.7548;
332.7000;0.1595;10.7693;
333.0000;0.1612;10.7862;
333.3000;0.1522;10.7621;
333.6000;0.1530;10.7645;
333.9000;0.1538;10.7669;
334.2000;0.1530;10.7548;
334.5000;0.1522;10.7428;
334.8000;0.1538;10.7379;
335.1000;0.1530;10.7355;
335.4000;0.1547;10.7428;
335.7000;0.1661;10.7741;
336.0000;0.1522;10.7452;
336.3000;0.1522;10.7452;
336.6000;0.1547;10.7524;
336.9000;0.1587;10.7621;
337.2000;0.1538;10.7452;
337.5000;0.1530;10.7379;
337.8000;0.1538;10.7403;
338.1000;0.1538;10.7403;
338.4000;0.1530;10.7403;
338.7000;0.1547;10.7331;
339.0000;0.1514;10.7331;
339.3000;0.1530;10.7428;
339.6000;0.1538;10.7452;
339.9000;0.1547;10.7524;
340.2000;0.1547;10.7524;
340.5000;0.1530;10.7428;
340.8000;0.1522;10.7403;
341.1000;0.1530;10.7355;
341.4000;0.1538;10.7428;
341.7000;0.1547;10.7452;
342.0000;0.1547;10.7476;
342.3000;0.1538;10.7524;
342.6000;0.1522;10.7452;
342.9000;0.1457;10.7259;
343.2000;0.1538;10.7693;
343.5000;0.1612;10.7862;
343.8000;0.1547;10.7717;
344.1000;0.1498;10.7500;
344.4000;0.1547;10.7548;
344.7000;0.1547;10.7452;
345.0000;0.1587;10.7548;
345.3000;0.1538;10.7524;
345.6000;0.1530;10.7572;
345.9000;0.1514;10.7500;
346.2000;0.1538;10.7572;
346.5000;0.1400;10.7138;
346.8000;0.1538;10.7596;
347.1000;0.1514;10.7548;
347.4000;0.1547;10.7621;
347.7000;0.1547;10.7693;
348.0000;0.1563;10.7596;
348.3000;0.1530;10.7524;
348.6000;0.1530;10.7500;
348.9000;0.1547;10.7476;
349.2000;0.1555;10.7428;
349.5000;0.1595;10.7524;
349.8000;0.1506;10.7259;
350.1000;0.1555;10.7428;
350.4000;0.1547;10.7428;
350.7000;0.1538;10.7355;
351.0000;0.1514;10.7259;
351.3000;0.1587;10.7452;
351.6000;0.1547;10.7452;
351.9000;0.1555;10.7452;
352.2000;0.1481;10.7259;
352.5000;0.1555;10.7428;
352.8000;0.1547;10.7476;
353.1000;0.1522;10.7403;
353.4000;0.1595;10.7572;
353.7000;0.1538;10.7379;
354.0000;0.1538;10.7428;
354.3000;0.1514;10.7355;
354.6000;0.1538;10.7476;
354.9000;0.1538;10.7476;
355.2000;0.1547;10.7500;
355.5000;0.1538;10.7476;
355.8000;0.1538;10.7452;
356.1000;0.1555;10.7403;
356.4000;0.1547;10.7403;
356.7000;0.1587;10.7500;
357.0000;0.1514;10.7355;
357.3000;0.1555;10.7500;
357.6000;0.1547;10.7476;
357.9000;0.1538;10.7452;
358.2000;0.1547;10.7500;
358.5000;0.1555;10.7596;
358.8000;0.1522;10.7476;
359.1000;0.1547;10.7403;
359.4000;0.1538;10.7403;
359.7000;0.1538;10.7476;
360.0000;0.1522;10.7476;
360.3000;0.1530;10.7476;
360.6000;0.1530;10.7452;
360.9000;0.1538;10.7452;
361.2000;0.1555;10.7355;
361.5000;0.1538;10.7307;
361.8000;0.1522;10.7235;
362.1000;0.1547;10.7283;
362.4000;0.1530;10.7307;
362.7000;0.1530;10.7355;
363.0000;0.1530;10.7307;
363.3000;0.1538;10.7259;
363.6000;0.1555;10.7259;
363.9000;0.1522;10.7186;
364.2000;0.1538;10.7307;
364.5000;0.1538;10.7307;
364.8000;0.1538;10.7379;
365.1000;0.1538;10.7452;
365.4000;0.1514;10.7428;
365.7000;0.1538;10.7452;
366.0000;0.1579;10.7548;
366.3000;0.1538;10.7452;
366.6000;0.1595;10.7621;
366.9000;0.1604;10.7669;
367.2000;0.1563;10.7548;
367.5000;0.1595;10.7717;
367.8000;0.1538;10.7596;
368.1000;0.1538;10.7596;
368.4000;0.1547;10.7596;
368.7000;0.1547;10.7572;
369.0000;0.1538;10.7548;
369.3000;0.1530;10.7596;
369.6000;0.1522;10.7548;
369.9000;0.1547;10.7548;
370.2000;0.1538;10.7645;
370.5000;0.1555;10.7717;
370.8000;0.1530;10.7645;
371.1000;0.1595;10.7813;
371.4000;0.1530;10.7596;
371.7000;0.1547;10.7693;
372.0000;0.1538;10.7741;
372.3000;0.1538;10.7669;
372.6000;0.1530;10.7621;
372.9000;0.1587;10.7765;
373.2000;0.1538;10.7572;
373.5000;0.1661;10.7813;
373.8000;0.1547;10.7621;
374.1000;0.1547;10.7645;
374.4000;0.1563;10.7645;
374.7000;0.1555;10.7596;
375.0000;0.1547;10.7524;
375.3000;0.1538;10.7524;
375.6000;0.1538;10.7500;
375.9000;0.1555;10.7500;
376.2000;0.1514;10.7331;
376.5000;0.1538;10.7403;
376.8000;0.1530;10.7331;
377.1000;0.1555;10.7476;
377.4000;0.1571;10.7548;
377.7000;0.1547;10.7452;
378.0000;0.1555;10.7379;
378.3000;0.1579;10.7476;
378.6000;0.1538;10.7379;
378.9000;0.1530;10.7331;
379.2000;0.1547;10.7355;
379.5000;0.1498;10.7259;
379.8000;0.1547;10.7331;
380.1000;0.1547;10.7331;
380.4000;0.1530;10.7355;
380.7000;0.1498;10.7283;
381.0000;0.1538;10.7403;
381.3000;0.1538;10.7428;
381.6000;0.1604;10.7621;
381.9000;0.1547;10.7548;
382.2000;0.1538;10.7596;
382.5000;0.1547;10.7596;
382.8000;0.1547;10.7645;
383.1000;0.1522;10.7524;
383.4000;0.1530;10.7524;
383.7000;0.1530;10.7572;
384.0000;0.1514;10.7548;
384.3000;0.1514;10.7403;
384.6000;0.1530;10.7403;
384.9000;0.1538;10.7500;
385.2000;0.1530;10.7524;
385.5000;0.1530;10.7548;
385.8000;0.1547;10.7500;
386.1000;0.1514;10.7500;
386.4000;0.1522;10.7572;
386.7000;0.1538;10.7621;
387.0000;0.1538;10.7596;
387.3000;0.1547;10.7645;
387.6000;0.1555;10.7621;
387.9000;0.1538;10.7596;
388.2000;0.1522;10.7645;
388.5000;0.1530;10.7645;
388.8000;0.1547;10.7596;
389.1000;0.1587;10.7717;
389.4000;0.1530;10.7596;
389.7000;0.1530;10.7572;
390.0000;0.1530;10.7621;
390.3000;0.1481;10.7476;
390.6000;0.1514;10.7621;
390.9000;0.1530;10.7669;
391.2000;0.1547;10.7717;
391.5000;0.1538;10.7645;
391.8000;0.1538;10.7621;
392.1000;0.1547;10.7645;
392.4000;0.1563;10.7621;
392.7000;0.1555;10.7548;
393.0000;0.1538;10.7524;
393.3000;0.1547;10.7596;
393.6000;0.1547;10.7500;
393.9000;0.1555;10.7524;
394.2000;0.1530;10.7500;
394.5000;0.1473;10.7283;
394.8000;0.1538;10.7355;
395.1000;0.1547;10.7452;
395.4000;0.1530;10.7403;
395.7000;0.1547;10.7476;
396.0000;0.1538;10.7452;
396.3000;0.1547;10.7500;
396.6000;0.1547;10.7476;
396.9000;0.1522;10.7403;
397.2000;0.1538;10.7500;
397.5000;0.1522;10.7548;
397.8000;0.1498;10.7403;
398.1000;0.1563;10.7596;
398.4000;0.1530;10.7524;
398.7000;0.1498;10.7428;
399.0000;0.1538;10.7621;
399.3000;0.1547;10.7669;
399.6000;0.1555;10.7717;
399.9000;0.1579;10.7765;
400.2000;0.1555;10.7741;
400.5000;0.1547;10.7789;
400.8000;0.1530;10.7741;
401.1000;0.1530;10.7693;
401.4000;0.1522;10.7572;
401.7000;0.1514;10.7548;
402.0000;0.1530;10.7548;
402.3000;0.1538;10.7572;
402.6000;0.1571;10.7596;
402.9000;0.1547;10.7524;
403.2000;0.1530;10.7452;
403.5000;0.1547;10.7428;
403.8000;0.1522;10.7403;
404.1000;0.1547;10.7548;
404.4000;0.1538;10.7621;
404.7000;0.1563;10.7596;
405.0000;0.1530;10.7596;
405.3000;0.1547;10.7596;
405.6000;0.1538;10.7524;
405.9000;0.1514;10.7476;
406.2000;0.1522;10.7572;
406.5000;0.1530;10.7621;
406.8000;0.1514;10.7524;
407.1000;0.1538;10.7500;
407.4000;0.1538;10.7476;
407.7000;0.1555;10.7548;
408.0000;0.1506;10.7403;
408.3000;0.1555;10.7524;
408.6000;0.1563;10.7572;
408.9000;0.1555;10.7693;
409.2000;0.1538;10.7669;
409.5000;0.1555;10.7693;
409.8000;0.1514;10.7572;
410.1000;0.1530;10.7524;
410.4000;0.1563;10.7596;
410.7000;0.1571;10.7621;
411.0000;0.1555;10.7596;
411.3000;0.1538;10.7548;
411.6000;0.1522;10.7524;
411.9000;0.1563;10.7645;
412.2000;0.1498;10.7500;
412.5000;0.1530;10.7500;
412.8000;0.1538;10.7524;
413.1000;0.1555;10.7548;
413.4000;0.1522;10.7452;
413.7000;0.1571;10.7524;
414.0000;0.1490;10.7235;
414.3000;0.1538;10.7283;
414.6000;0.1547;10.7428;
414.9000;0.1538;10.7428;
415.2000;0.1547;10.7476;
415.5000;0.1538;10.7403;
415.8000;0.1433;10.7162;
416.1000;0.1530;10.7500;
416.4000;0.1530;10.7548;
416.7000;0.1547;10.7572;
417.0000;0.1538;10.7548;
417.3000;0.1530;10.7524;
417.6000;0.1481;10.7379;
417.9000;0.1514;10.7452;
418.2000;0.1530;10.7428;
418.5000;0.1498;10.7355;
418.8000;0.1547;10.7428;
419.1000;0.1538;10.7500;
419.4000;0.1547;10.7596;
419.7000;0.1538;10.7524;
420.0000;0.1514;10.7476;
420.3000;0.1547;10.7548;
420.6000;0.1571;10.7596;
420.9000;0.1538;10.7428;
421.2000;0.1530;10.7428;
421.5000;0.1547;10.7331;
421.8000;0.1571;10.7355;
422.1000;0.1522;10.7283;
422.4000;0.1538;10.7355;
422.7000;0.1522;10.7379;
423.0000;0.1530;10.7500;
423.3000;0.1538;10.7524;
423.6000;0.1490;10.7379;
423.9000;0.1530;10.7500;
424.2000;0.1530;10.7476;
424.5000;0.1538;10.7476;
424.8000;0.1530;10.7428;
425.1000;0.1530;10.7428;
425.4000;0.1530;10.7452;
425.7000;0.1555;10.7524;
426.0000;0.1538;10.7428;
426.3000;0.1530;10.7428;
426.6000;0.1465;10.7259;
426.9000;0.1538;10.7500;
427.2000;0.1547;10.7572;
427.5000;0.1538;10.7524;
427.8000;0.1538;10.7524;
428.1000;0.1538;10.7596;
428.4000;0.1563;10.7693;
428.7000;0.1514;10.7693;
429.0000;0.1538;10.7717;
429.3000;0.1555;10.7693;
429.6000;0.1530;10.7524;
429.9000;0.1555;10.7596;
430.2000;0.1555;10.7500;
430.5000;0.1530;10.7452;
430.8000;0.1522;10.7379;
431.1000;0.1547;10.7259;
431.4000;0.1547;10.7283;
431.7000;0.1465;10.7138;
432.0000;0.1530;10.7283;
432.3000;0.1530;10.7331;
432.6000;0.1522;10.7307;
432.9000;0.1506;10.7331;
433.2000;0.1547;10.7355;
433.5000;0.1530;10.7259;
433.8000;0.1538;10.7283;
434.1000;0.1530;10.7283;
434.4000;0.1530;10.7283;
434.7000;0.1530;10.7283;
435.0000;0.1522;10.7283;
435.3000;0.1522;10.7331;
435.6000;0.1530;10.7428;
435.9000;0.1547;10.7476;
436.2000;0.1522;10.7283;
436.5000;0.1498;10.7235;
436.8000;0.1522;10.7235;
437.1000;0.1571;10.7355;
437.4000;0.1538;10.7307;
437.7000;0.1555;10.7428;
438.0000;0.1538;10.7452;
438.3000;0.1595;10.7621;
438.6000;0.1522;10.7403;
438.9000;0.1644;10.7765;
439.2000;0.1481;10.7283;
439.5000;0.1457;10.7259;
439.8000;0.1547;10.7548;
440.1000;0.1538;10.7548;
440.4000;0.1563;10.7645;
440.7000;0.1522;10.7452;
441.0000;0.1563;10.7548;
441.3000;0.1538;10.7548;
441.6000;0.1522;10.7452;
441.9000;0.1538;10.7403;
442.2000;0.1538;10.7452;
442.5000;0.1555;10.7500;
442.8000;0.1506;10.7500;
443.1000;0.1514;10.7476;
443.4000;0.1538;10.7500;
443.7000;0.1530;10.7452;
444.0000;0.1514;10.7428;
444.3000;0.1538;10.7476;
444.6000;0.1530;10.7524;
444.9000;0.1538;10.7500;
445.2000;0.1522;10.7452;
445.5000;0.1530;10.7452;
445.8000;0.1555;10.7524;
446.1000;0.1547;10.7548;
446.4000;0.1547;10.7548;
446.7000;0.1547;10.7452;
447.0000;0.1547;10.7476;
447.3000;0.1538;10.7500;
447.6000;0.1555;10.7524;
447.9000;0.1563;10.7524;
448.2000;0.1547;10.7500;
448.5000;0.1538;10.7572;
448.8000;0.1538;10.7572;
449.1000;0.1579;10.7765;
449.4000;0.1547;10.7789;
449.7000;0.1498;10.7693;
450.0000;0.1563;10.7886;
450.3000;0.1530;10.7862;
450.6000;0.1481;10.7572;
450.9000;0.1547;10.7765;
451.2000;0.1538;10.7838;
451.5000;0.1538;10.7765;
451.8000;0.1522;10.7693;
452.1000;0.1538;10.7693;
452.4000;0.1530;10.7717;
452.7000;0.1490;10.7621;
453.0000;0.1473;10.7548;
453.3000;0.1522;10.7717;
453.6000;0.1547;10.7765;
453.9000;0.1538;10.7717;
454.2000;0.1547;10.7621;
454.5000;0.1530;10.7500;
454.8000;0.1530;10.7524;
455.1000;0.1547;10.7548;
455.4000;0.1563;10.7693;
455.7000;0.1530;10.7741;
456.0000;0.1522;10.7741;
456.3000;0.1538;10.7669;
456.6000;0.1530;10.7669;
456.9000;0.1538;10.7645;
457.2000;0.1587;10.7717;
457.5000;0.1547;10.7621;
457.8000;0.1555;10.7596;
458.1000;0.1522;10.7500;
458.4000;0.1530;10.7524;
458.7000;0.1530;10.7572;
459.0000;0.1506;10.7524;
459.3000;0.1538;10.7669;
459.6000;0.1530;10.7548;
459.9000;0.1530;10.7524;
460.2000;0.1547;10.7572;
460.5000;0.1555;10.7596;
460.8000;0.1538;10.7596;
461.1000;0.1538;10.7524;
461.4000;0.1514;10.7500;
461.7000;0.1547;10.7548;
462.0000;0.1506;10.7403;
462.3000;0.1538;10.7500;
462.6000;0.1530;10.7524;
462.9000;0.1538;10.7500;
463.2000;0.1522;10.7524;
463.5000;0.1547;10.7596;
463.8000;0.1538;10.7524;
464.1000;0.1547;10.7548;
464.4000;0.1514;10.7403;
464.7000;0.1530;10.7476;
465.0000;0.1547;10.7524;
465.3000;0.1538;10.7331;
465.6000;0.1538;10.7355;
465.9000;0.1604;10.7500;
466.2000;0.1538;10.7331;
466.5000;0.1538;10.7428;
466.8000;0.1530;10.7428;
467.1000;0.1538;10.7500;
467.4000;0.1522;10.7476;
467.7000;0.1522;10.7548;
468.0000;0.1547;10.7596;
468.3000;0.1522;10.7548;
468.6000;0.1530;10.7524;
468.9000;0.1555;10.7572;
469.2000;0.1547;10.7476;
469.5000;0.1530;10.7403;
469.8000;0.1530;10.7355;
470.1000;0.1571;10.7524;
470.4000;0.1563;10.7428;
470.7000;0.1530;10.7428;
471.0000;0.1522;10.7355;
471.3000;0.1538;10.7379;
471.6000;0.1555;10.7524;
471.9000;0.1538;10.7548;
472.2000;0.1522;10.7596;
472.5000;0.1563;10.7572;
472.8000;0.1579;10.7669;
473.1000;0.1538;10.7500;
473.4000;0.1522;10.7476;
473.7000;0.1530;10.7476;
474.0000;0.1522;10.7476;
474.3000;0.1555;10.7548;
474.6000;0.1530;10.7500;
474.9000;0.1538;10.7428;
475.2000;0.1538;10.7428;
475.5000;0.1563;10.7476;
475.8000;0.1571;10.7500;
476.1000;0.1530;10.7476;
476.4000;0.1538;10.7403;
476.7000;0.1547;10.7452;
477.0000;0.1506;10.7403;
477.3000;0.1538;10.7428;
477.6000;0.1538;10.7331;
477.9000;0.1538;10.7355;
478.2000;0.1538;10.7428;
478.5000;0.1538;10.7500;
478.8000;0.1530;10.7524;
479.1000;0.1506;10.7572;
479.4000;0.1538;10.7645;
479.7000;0.1522;10.7645;
480.0000;0.1547;10.7645;
480.3000;0.1522;10.7524;
480.6000;0.1538;10.7548;
480.9000;0.1522;10.7452;
481.2000;0.1530;10.7452;
481.5000;0.1530;10.7452;
481.8000;0.1538;10.7476;
482.1000;0.1547;10.7476;
482.4000;0.1547;10.7476;
482.7000;0.1522;10.7428;
483.0000;0.1530;10.7524;
483.3000;0.1530;10.7500;
483.6000;0.1547;10.7596;
483.9000;0.1530;10.7476;
484.2000;0.1538;10.7403;
484.5000;0.1538;10.7452;
484.8000;0.1538;10.7379;
485.1000;0.1538;10.7331;
485.4000;0.1555;10.7403;
485.7000;0.1547;10.7379;
486.0000;0.1530;10.7403;
486.3000;0.1587;10.7500;
486.6000;0.1506;10.7259;
486.9000;0.1547;10.7403;
487.2000;0.1530;10.7355;
487.5000;0.1530;10.7379;
487.8000;0.1522;10.7259;
488.1000;0.1530;10.7379;
488.4000;0.1530;10.7428;
488.7000;0.1538;10.7428;
489.0000;0.1530;10.7452;
489.3000;0.1538;10.7476;
489.6000;0.1538;10.7500;
489.9000;0.1547;10.7524;
490.2000;0.1530;10.7476;
490.5000;0.1490;10.7403;
490.8000;0.1555;10.7596;
491.1000;0.1555;10.7669;
491.4000;0.1530;10.7548;
491.7000;0.1555;10.7596;
492.0000;0.1530;10.7500;
492.3000;0.1538;10.7476;
492.6000;0.1547;10.7428;
492.9000;0.1522;10.7379;
493.2000;0.1530;10.7428;
493.5000;0.1538;10.7476;
493.8000;0.1506;10.7476;
494.1000;0.1538;10.7524;
494.4000;0.1522;10.7500;
494.7000;0.1538;10.7403;
495.0000;0.1506;10.7355;
495.3000;0.1538;10.7452;
495.6000;0.1555;10.7428;
495.9000;0.1555;10.7452;
496.2000;0.1538;10.7452;
496.5000;0.1530;10.7452;
496.8000;0.1555;10.7572;
497.1000;0.1538;10.7476;
497.4000;0.1498;10.7403;
497.7000;0.1547;10.7548;
498.0000;0.1514;10.7500;
498.3000;0.1538;10.7548;
498.6000;0.1522;10.7476;
498.9000;0.1547;10.7572;
499.2000;0.1538;10.7572;
499.5000;0.1506;10.7452;
499.8000;0.1538;10.7524;
500.1000;0.1555;10.7596;
500.4000;0.1547;10.7596;
500.7000;0.1538;10.7596;
501.0000;0.1563;10.7572;
501.3000;0.1547;10.7572;
501.6000;0.1571;10.7596;
501.9000;0.1522;10.7548;
502.2000;0.1563;10.7596;
502.5000;0.1538;10.7596;
502.8000;0.1473;10.7355;
503.1000;0.1547;10.7621;
503.4000;0.1547;10.7572;
503.7000;0.1538;10.7524;
504.0000;0.1555;10.7572;
504.3000;0.1595;10.7621;
504.6000;0.1587;10.7645;
504.9000;0.1547;10.7500;
505.2000;0.1449;10.7210;
505.5000;0.1530;10.7452;
505.8000;0.1644;10.7765;
506.1000;0.1522;10.7403;
506.4000;0.1555;10.7403;
506.7000;0.1604;10.7548;
507.0000;0.1547;10.7403;
507.3000;0.1538;10.7355;
507.6000;0.1538;10.7283;
507.9000;0.1555;10.7428;
508.2000;0.1530;10.7428;
508.5000;0.1514;10.7452;
508.8000;0.1563;10.7476;
509.1000;0.1530;10.7379;
509.4000;0.1547;10.7403;
509.7000;0.1547;10.7428;
510.0000;0.1538;10.7428;
510.3000;0.1490;10.7355;
510.6000;0.1530;10.7476;
510.9000;0.1538;10.7524;
511.2000;0.1514;10.7500;
511.5000;0.1620;10.7838;
511.8000;0.1547;10.7645;
512.1000;0.1547;10.7621;
512.4000;0.1547;10.7524;
512.7000;0.1547;10.7572;
513.0000;0.1514;10.7452;
513.3000;0.1530;10.7476;
513.6000;0.1636;10.7741;
513.9000;0.1547;10.7596;
514.2000;0.1547;10.7524;
514.5000;0.1538;10.7403;
514.8000;0.1530;10.7452;
515.1000;0.1547;10.7452;
515.4000;0.1530;10.7476;
515.7000;0.1547;10.7524;
516.0000;0.1522;10.7524;
516.3000;0.1538;10.7596;
516.6000;0.1555;10.7524;
516.9000;0.1538;10.7428;
517.2000;0.1538;10.7428;
517.5000;0.1555;10.7476;
517.8000;0.1563;10.7548;
518.1000;0.1522;10.7355;
518.4000;0.1538;10.7403;
518.7000;0.1530;10.7355;
519.0000;0.1538;10.7476;
519.3000;0.1530;10.7548;
519.6000;0.1514;10.7500;
519.9000;0.1530;10.7452;
520.2000;0.1547;10.7452;
520.5000;0.1538;10.7452;
520.8000;0.1538;10.7500;
521.1000;0.1555;10.7572;
521.4000;0.1490;10.7428;
521.7000;0.1620;10.7765;
522.0000;0.1538;10.7621;
522.3000;0.1595;10.7765;
522.6000;0.1538;10.7621;
522.9000;0.1555;10.7693;
523.2000;0.1530;10.7548;
523.5000;0.1538;10.7572;
523.8000;0.1530;10.7500;
524.1000;0.1547;10.7596;
524.4000;0.1538;10.7596;
524.7000;0.1547;10.7596;
525.0000;0.1538;10.7572;
525.3000;0.1547;10.7596;
525.6000;0.1506;10.7548;
525.9000;0.1547;10.7596;
526.2000;0.1522;10.7572;
526.5000;0.1538;10.7596;
526.8000;0.1555;10.7596;
527.1000;0.1522;10.7524;
527.4000;0.1514;10.7524;
527.7000;0.1538;10.7669;
528.0000;0.1547;10.7693;
528.3000;0.1571;10.7717;
528.6000;0.1555;10.7717;
528.9000;0.1612;10.7862;
529.2000;0.1571;10.7765;
529.5000;0.1538;10.7645;
529.8000;0.1612;10.7862;
530.1000;0.1490;10.7500;
530.4000;0.1522;10.7572;
530.7000;0.1498;10.7524;
531.0000;0.1547;10.7621;
531.3000;0.1530;10.7524;
531.6000;0.1547;10.7500;
531.9000;0.1547;10.7596;
532.2000;0.1538;10.7548;
532.5000;0.1514;10.7548;
532.8000;0.1538;10.7717;
533.1000;0.1547;10.7765;
533.4000;0.1547;10.7765;
533.7000;0.1538;10.7717;
534.0000;0.1522;10.7693;
534.3000;0.1579;10.7862;
534.6000;0.1530;10.7765;
534.9000;0.1473;10.7741;
535.2000;0.1555;10.7958;
535.5000;0.1530;10.7910;
535.8000;0.1506;10.7862;
536.1000;0.1514;10.7910;
536.4000;0.1465;10.7765;
536.7000;0.1538;10.7886;
537.0000;0.1530;10.7741;
537.3000;0.1555;10.7886;
537.6000;0.1530;10.7862;
537.9000;0.1571;10.7862;
538.2000;0.1547;10.7741;
538.5000;0.1530;10.7741;
538.8000;0.1661;10.8055;
539.1000;0.1530;10.7693;
539.4000;0.1555;10.7693;
539.7000;0.1547;10.7741;
540.0000;0.1538;10.7741;
540.3000;0.1547;10.7765;
540.6000;0.1530;10.7741;
540.9000;0.1530;10.7789;
541.2000;0.1538;10.7789;
541.5000;0.1490;10.7596;
541.8000;0.1530;10.7596;
542.1000;0.1563;10.7645;
542.4000;0.1547;10.7572;
542.7000;0.1538;10.7596;
543.0000;0.1530;10.7596;
543.3000;0.1490;10.7524;
543.6000;0.1538;10.7596;
543.9000;0.1538;10.7596;
544.2000;0.1530;10.7572;
544.5000;0.1538;10.7621;
544.8000;0.1449;10.7355;
545.1000;0.1522;10.7621;
545.4000;0.1441;10.7403;
545.7000;0.1530;10.7645;
546.0000;0.1514;10.7548;
546.3000;0.1530;10.7524;
546.6000;0.1538;10.7500;
546.9000;0.1538;10.7572;
547.2000;0.1547;10.7669;
547.5000;0.1547;10.7765;
547.8000;0.1571;10.7886;
548.1000;0.1538;10.7813;
548.4000;0.1538;10.7765;
548.7000;0.1547;10.7741;
549.0000;0.1498;10.7572;
549.3000;0.1530;10.7621;
549.6000;0.1538;10.7645;
549.9000;0.1530;10.7645;
550.2000;0.1547;10.7645;
550.5000;0.1530;10.7717;
550.8000;0.1547;10.7693;
551.1000;0.1547;10.7572;
551.4000;0.1530;10.7524;
551.7000;0.1530;10.7596;
552.0000;0.1522;10.7548;
552.3000;0.1530;10.7572;
552.6000;0.1538;10.7596;
552.9000;0.1538;10.7645;
553.2000;0.1547;10.7669;
553.5000;0.1571;10.7765;
553.8000;0.1595;10.7741;
554.1000;0.1530;10.7645;
554.4000;0.1538;10.7693;
554.7000;0.1563;10.7741;
555.0000;0.1514;10.7621;
555.3000;0.1522;10.7524;
555.6000;0.1490;10.7355;
555.9000;0.1538;10.7379;
556.2000;0.1514;10.7476;
556.5000;0.1538;10.7500;
556.8000;0.1530;10.7524;
557.1000;0.1530;10.7452;
557.4000;0.1498;10.7283;
557.7000;0.1538;10.7428;
558.0000;0.1555;10.7524;
558.3000;0.1530;10.7572;
558.6000;0.1530;10.7621;
558.9000;0.1522;10.7596;
559.2000;0.1522;10.7621;
559.5000;0.1530;10.7669;
559.8000;0.1538;10.7693;
560.1000;0.1530;10.7621;
560.4000;0.1538;10.7548;
560.7000;0.1530;10.7548;
561.0000;0.1547;10.7596;
561.3000;0.1530;10.7572;
561.6000;0.1547;10.7596;
561.9000;0.1571;10.7621;
562.2000;0.1514;10.7524;
562.5000;0.1449;10.7307;
562.8000;0.1538;10.7621;
563.1000;0.1530;10.7500;
563.4000;0.1498;10.7283;
563.7000;0.1522;10.7355;
564.0000;0.1522;10.7403;
564.3000;0.1547;10.7452;
564.6000;0.1514;10.7355;
564.9000;0.1547;10.7452;
565.2000;0.1555;10.7428;
565.5000;0.1595;10.7548;
565.8000;0.1538;10.7524;
566.1000;0.1522;10.7476;
566.4000;0.1547;10.7572;
566.7000;0.1595;10.7741;
567.0000;0.1522;10.7548;
567.3000;0.1514;10.7428;
567.6000;0.1555;10.7500;
567.9000;0.1506;10.7452;
568.2000;0.1530;10.7452;
568.5000;0.1538;10.7452;
568.8000;0.1563;10.7500;
569.1000;0.1522;10.7379;
569.4000;0.1538;10.7428;
569.7000;0.1555;10.7524;
570.0000;0.1530;10.7524;
570.3000;0.1620;10.7741;
570.6000;0.1530;10.7500;
570.9000;0.1538;10.7548;
571.2000;0.1571;10.7621;
571.5000;0.1530;10.7428;
571.8000;0.1530;10.7379;
572.1000;0.1530;10.7307;
572.4000;0.1538;10.7428;
572.7000;0.1547;10.7476;
573.0000;0.1530;10.7476;
573.3000;0.1547;10.7379;
573.6000;0.1538;10.7403;
573.9000;0.1547;10.7452;
574.2000;0.1530;10.7452;
574.5000;0.1522;10.7500;
574.8000;0.1530;10.7500;
575.1000;0.1538;10.7548;
575.4000;0.1490;10.7476;
575.7000;0.1538;10.7548;
576.0000;0.1506;10.7524;
576.3000;0.1538;10.7669;
576.6000;0.1644;10.7934;
576.9000;0.1522;10.7669;
577.2000;0.1530;10.7693;
577.5000;0.1538;10.7669;
577.8000;0.1555;10.7717;
578.1000;0.1522;10.7596;
578.4000;0.1547;10.7621;
578.7000;0.1538;10.7621;
579.0000;0.1522;10.7524;
579.3000;0.1538;10.7572;
579.6000;0.1473;10.7379;
579.9000;0.1506;10.7500;
580.2000;0.1555;10.7693;
580.5000;0.1563;10.7813;
580.8000;0.1498;10.7548;
581.1000;0.1547;10.7572;
581.4000;0.1587;10.7596;
581.7000;0.1555;10.7428;
582.0000;0.1498;10.7283;
582.3000;0.1571;10.7476;
582.6000;0.1555;10.7548;
582.9000;0.1538;10.7524;
583.2000;0.1514;10.7452;
583.5000;0.1530;10.7428;
583.8000;0.1547;10.7403;
584.1000;0.1530;10.7476;
584.4000;0.1522;10.7355;
584.7000;0.1547;10.7307;
585.0000;0.1530;10.7307;
585.3000;0.1530;10.7428;
585.6000;0.1587;10.7621;
585.9000;0.1530;10.7403;
586.2000;0.1538;10.7379;
586.5000;0.1530;10.7403;
586.8000;0.1522;10.7331;
587.1000;0.1530;10.7476;
587.4000;0.1481;10.7452;
587.7000;0.1530;10.7572;
588.0000;0.1538;10.7645;
588.3000;0.1538;10.7621;
588.6000;0.1538;10.7645;
588.9000;0.1530;10.7813;
589.2000;0.1538;10.7741;
589.5000;0.1530;10.7789;
589.8000;0.1506;10.7789;
590.1000;0.1538;10.7765;
590.4000;0.1538;10.7717;
590.7000;0.1538;10.7741;
591.0000;0.1514;10.7645;
591.3000;0.1522;10.7645;
591.6000;0.1530;10.7765;
591.9000;0.1522;10.7741;
592.2000;0.1530;10.7693;
592.5000;0.1587;10.7813;
592.8000;0.1530;10.7693;
593.1000;0.1547;10.7717;
593.4000;0.1538;10.7669;
593.7000;0.1522;10.7621;
594.0000;0.1530;10.7621;
594.3000;0.1547;10.7669;
594.6000;0.1547;10.7645;
594.9000;0.1538;10.7572;
595.2000;0.1538;10.7572;
595.5000;0.1555;10.7621;
595.8000;0.1506;10.7476;
596.1000;0.1538;10.7524;
596.4000;0.1514;10.7524;
596.7000;0.1514;10.7524;
597.0000;0.1530;10.7645;
597.3000;0.1530;10.7621;
597.6000;0.1490;10.7500;
597.9000;0.1530;10.7596;
598.2000;0.1547;10.7572;
598.5000;0.1547;10.7596;
598.8000;0.1530;10.7476;
599.1000;0.1522;10.7355;
599.4000;0.1538;10.7331;
599.7000;0.1563;10.7403;
600.0000;0.1522;10.7331;
600.3000;0.1530;10.7307;
600.6000;0.1555;10.7283;
600.9000;0.1530;10.7210;
601.2000;0.1506;10.7018;
601.5000;0.1498;10.6825;
601.8000;0.1481;10.6656;
602.1000;0.1514;10.6607;
602.4000;0.1481;10.6390;
602.7000;0.1473;10.6294;
603.0000;0.1473;10.6222;
603.3000;0.1498;10.6149;
603.6000;0.1376;10.5763;
603.9000;0.1473;10.5884;
604.2000;0.1465;10.5860;
604.5000;0.1506;10.5812;
604.8000;0.1465;10.5715;
605.1000;0.1441;10.5691;
605.4000;0.1441;10.5594;
605.7000;0.1449;10.5474;
606.0000;0.1359;10.5112;
606.3000;0.1416;10.5329;
606.6000;0.1425;10.5281;
606.9000;0.1457;10.5522;
607.2000;0.1465;10.5546;
607.5000;0.1433;10.5546;
607.8000;0.1449;10.5570;
608.1000;0.1425;10.5474;
608.4000;0.1465;10.5546;
608.7000;0.1433;10.5522;
609.0000;0.1416;10.5522;
609.3000;0.1416;10.5377;
609.6000;0.1441;10.5377;
609.9000;0.1416;10.5353;
610.2000;0.1408;10.5329;
610.5000;0.1425;10.5329;
610.8000;0.1425;10.5329;
611.1000;0.1408;10.5184;
611.4000;0.1457;10.5160;
611.7000;0.1400;10.5112;
612.0000;0.1327;10.4871;
612.3000;0.1416;10.5160;
612.6000;0.1400;10.5136;
612.9000;0.1400;10.5136;
613.2000;0.1351;10.5088;
613.5000;0.1400;10.5209;
613.8000;0.1400;10.5209;
614.1000;0.1441;10.5281;
614.4000;0.1425;10.5281;
614.7000;0.1425;10.5233;
615.0000;0.1425;10.5233;
615.3000;0.1433;10.5281;
615.6000;0.1425;10.5257;
615.9000;0.1449;10.5329;
616.2000;0.1416;10.5329;
616.5000;0.1425;10.5377;
616.8000;0.1416;10.5305;
617.1000;0.1416;10.5257;
617.4000;0.1433;10.5281;
617.7000;0.1416;10.5160;
618.0000;0.1465;10.5305;
618.3000;0.1408;10.5088;
618.6000;0.1416;10.5088;
618.9000;0.1465;10.5209;
619.2000;0.1425;10.5040;
619.5000;0.1441;10.5160;
619.8000;0.1425;10.5136;
620.1000;0.1449;10.5184;
620.4000;0.1441;10.5136;
620.7000;0.1384;10.5016;
621.0000;0.1408;10.5040;
621.3000;0.1368;10.4847;
621.6000;0.1408;10.4967;
621.9000;0.1433;10.5088;
622.2000;0.1449;10.5257;
622.5000;0.1408;10.5233;
622.8000;0.1433;10.5209;
623.1000;0.1408;10.5160;
623.4000;0.1408;10.5160;
623.7000;0.1416;10.5184;
624.0000;0.1351;10.5040;
624.3000;0.1425;10.5160;
624.6000;0.1400;10.5016;
624.9000;0.1408;10.5136;
625.2000;0.1384;10.4919;
625.5000;0.1408;10.5064;
625.8000;0.1425;10.5088;
626.1000;0.1392;10.4967;
626.4000;0.1400;10.4991;
626.7000;0.1416;10.4943;
627.0000;0.1408;10.4919;
627.3000;0.1400;10.4943;
627.6000;0.1506;10.5281;
627.9000;0.1400;10.5016;
628.2000;0.1433;10.5136;
628.5000;0.1416;10.5184;
628.8000;0.1433;10.5233;
629.1000;0.1425;10.5184;
629.4000;0.1425;10.5184;
629.7000;0.1408;10.5160;
630.0000;0.1425;10.5160;
630.3000;0.1441;10.5209;
630.6000;0.1416;10.5184;
630.9000;0.1425;10.5160;
631.2000;0.1408;10.5184;
631.5000;0.1376;10.5016;
631.8000;0.1392;10.5136;
632.1000;0.1400;10.5184;
632.4000;0.1408;10.5257;
632.7000;0.1384;10.5257;
633.0000;0.1400;10.5402;
633.3000;0.1400;10.5353;
633.6000;0.1416;10.5377;
633.9000;0.1416;10.5377;
634.2000;0.1425;10.5377;
634.5000;0.1392;10.5184;
634.8000;0.1400;10.5160;
635.1000;0.1425;10.5209;
635.4000;0.1416;10.5112;
635.7000;0.1408;10.5088;
636.0000;0.1425;10.5209;
636.3000;0.1416;10.5184;
636.6000;0.1408;10.5281;
636.9000;0.1425;10.5281;
637.2000;0.1400;10.5233;
637.5000;0.1416;10.5305;
637.8000;0.1392;10.5233;
638.1000;0.1408;10.5233;
638.4000;0.1368;10.5112;
638.7000;0.1425;10.5281;
639.0000;0.1400;10.5136;
639.3000;0.1408;10.5209;
639.6000;0.1416;10.5305;
639.9000;0.1433;10.5329;
640.2000;0.1433;10.5402;
640.5000;0.1408;10.5402;
640.8000;0.1408;10.5305;
641.1000;0.1392;10.5209;
641.4000;0.1416;10.5209;
641.7000;0.1416;10.5209;
642.0000;0.1408;10.5233;
642.3000;0.1441;10.5329;
642.6000;0.1392;10.5281;
642.9000;0.1400;10.5353;
643.2000;0.1400;10.5377;
643.5000;0.1376;10.5257;
643.8000;0.1441;10.5233;
644.1000;0.1408;10.5136;
644.4000;0.1425;10.5136;
644.7000;0.1286;10.4919;
645.0000;0.1416;10.5281;
645.3000;0.1408;10.5209;
645.6000;0.1416;10.5233;
645.9000;0.1392;10.5209;
646.2000;0.1408;10.5136;
646.5000;0.1433;10.5064;
646.8000;0.1368;10.4943;
647.1000;0.1400;10.5040;
647.4000;0.1416;10.5040;
647.7000;0.1425;10.5088;
648.0000;0.1416;10.4943;
648.3000;0.1384;10.4895;
648.6000;0.1400;10.4943;
648.9000;0.1400;10.4967;
649.2000;0.1376;10.4871;
649.5000;0.1555;10.5353;
649.8000;0.1408;10.4919;
650.1000;0.1351;10.4702;
650.4000;0.1441;10.4919;
650.7000;0.1400;10.4847;
651.0000;0.1425;10.4919;
651.3000;0.1400;10.4823;
651.6000;0.1433;10.4943;
651.9000;0.1368;10.4750;
652.2000;0.1400;10.4919;
652.5000;0.1416;10.5088;
652.8000;0.1408;10.5016;
653.1000;0.1408;10.4991;
653.4000;0.1416;10.4967;
653.7000;0.1392;10.4919;
654.0000;0.1376;10.4847;
654.3000;0.1416;10.4967;
654.6000;0.1343;10.4823;
654.9000;0.1408;10.4967;
655.2000;0.1425;10.5064;
655.5000;0.1335;10.4847;
655.8000;0.1408;10.5112;
656.1000;0.1465;10.5281;
656.4000;0.1416;10.5209;
656.7000;0.1384;10.5184;
657.0000;0.1400;10.5281;
657.3000;0.1408;10.5305;
657.6000;0.1408;10.5329;
657.9000;0.1311;10.5088;
658.2000;0.1400;10.5209;
658.5000;0.1400;10.5160;
658.8000;0.1425;10.5136;
659.1000;0.1425;10.5136;
659.4000;0.1400;10.5016;
659.7000;0.1425;10.4967;
660.0000;0.1425;10.4943;
660.3000;0.1408;10.4991;
660.6000;0.1392;10.4919;
660.9000;0.1408;10.5064;
661.2000;0.1408;10.5040;
661.5000;0.1392;10.4919;
661.8000;0.1416;10.4991;
662.1000;0.1416;10.5112;
662.4000;0.1441;10.5209;
662.7000;0.1376;10.4991;
663.0000;0.1343;10.4943;
663.3000;0.1376;10.5136;
663.6000;0.1286;10.4847;
663.9000;0.1408;10.5136;
664.2000;0.1351;10.4943;
664.5000;0.1392;10.5112;
664.8000;0.1416;10.5184;
665.1000;0.1400;10.5136;
665.4000;0.1400;10.5040;
665.7000;0.1384;10.5112;
666.0000;0.1416;10.5136;
666.3000;0.1392;10.5064;
666.6000;0.1416;10.4991;
666.9000;0.1408;10.4871;
667.2000;0.1392;10.4871;
667.5000;0.1392;10.4919;
667.8000;0.1392;10.4991;
668.1000;0.1433;10.5040;
668.4000;0.1408;10.5016;
668.7000;0.1400;10.5016;
669.0000;0.1400;10.4991;
669.3000;0.1400;10.5016;
669.6000;0.1400;10.4991;
669.9000;0.1408;10.4991;
670.2000;0.1408;10.5016;
670.5000;0.1408;10.4895;
670.8000;0.1481;10.5209;
671.1000;0.1425;10.5112;
671.4000;0.1408;10.5160;
671.7000;0.1416;10.5209;
672.0000;0.1319;10.4991;
672.3000;0.1416;10.5305;
672.6000;0.1400;10.5305;
672.9000;0.1408;10.5353;
673.2000;0.1425;10.5281;
673.5000;0.1416;10.5257;
673.8000;0.1392;10.5209;
674.1000;0.1408;10.5184;
674.4000;0.1441;10.5209;
674.7000;0.1416;10.5184;
675.0000;0.1400;10.5209;
675.3000;0.1384;10.5160;
675.6000;0.1416;10.5184;
675.9000;0.1441;10.5233;
676.2000;0.1416;10.5088;
676.5000;0.1392;10.4967;
676.8000;0.1416;10.5040;
677.1000;0.1433;10.5088;
677.4000;0.1408;10.5040;
677.7000;0.1416;10.5088;
678.0000;0.1376;10.5016;
678.3000;0.1425;10.5160;
678.6000;0.1368;10.4991;
678.9000;0.1392;10.5064;
679.2000;0.1400;10.5040;
679.5000;0.1408;10.5040;
679.8000;0.1425;10.5233;
680.1000;0.1408;10.5184;
680.4000;0.1400;10.5088;
680.7000;0.1416;10.5088;
681.0000;0.1490;10.5281;
681.3000;0.1425;10.5184;
681.6000;0.1425;10.5209;
681.9000;0.1400;10.5184;
682.2000;0.1457;10.5353;
682.5000;0.1392;10.5233;
682.8000;0.1416;10.5257;
683.1000;0.1498;10.5450;
683.4000;0.1384;10.5112;
683.7000;0.1416;10.5160;
684.0000;0.1425;10.5160;
684.3000;0.1400;10.5136;
684.6000;0.1368;10.5016;
684.9000;0.1425;10.5136;
685.2000;0.1416;10.5112;
685.5000;0.1400;10.5088;
685.8000;0.1408;10.5064;
686.1000;0.1416;10.5112;
686.4000;0.1368;10.4991;
686.7000;0.1433;10.5136;
687.0000;0.1416;10.5184;
687.3000;0.1457;10.5257;
687.6000;0.1425;10.5184;
687.9000;0.1400;10.5064;
688.2000;0.1408;10.5112;
688.5000;0.1416;10.5136;
688.8000;0.1425;10.5160;
689.1000;0.1433;10.5160;
689.4000;0.1416;10.5040;
689.7000;0.1392;10.5016;
690.0000;0.1416;10.5160;
690.3000;0.1408;10.5209;
690.6000;0.1392;10.5184;
690.9000;0.1376;10.5136;
691.2000;0.1408;10.5160;
691.5000;0.1408;10.5064;
691.8000;0.1408;10.4991;
692.1000;0.1408;10.4943;
692.4000;0.1416;10.4967;
692.7000;0.1425;10.4919;
693.0000;0.1408;10.4847;
693.3000;0.1384;10.4750;
693.6000;0.1392;10.4799;
693.9000;0.1457;10.4967;
694.2000;0.1392;10.4943;
694.5000;0.1416;10.5016;
694.8000;0.1408;10.5040;
695.1000;0.1408;10.4991;
695.4000;0.1408;10.4991;
695.7000;0.1449;10.5064;
696.0000;0.1416;10.4943;
696.3000;0.1490;10.5184;
696.6000;0.1425;10.5064;
696.9000;0.1384;10.5016;
697.2000;0.1400;10.4943;
697.5000;0.1465;10.5160;
697.8000;0.1384;10.4967;
698.1000;0.1400;10.5016;
698.4000;0.1400;10.4991;
698.7000;0.1392;10.4967;
699.0000;0.1400;10.4967;
699.3000;0.1392;10.4991;
699.6000;0.1392;10.5088;
699.9000;0.1408;10.5136;
700.2000;0.1416;10.5209;
700.5000;0.1408;10.5088;
700.8000;0.1416;10.5088;
701.1000;0.1425;10.5160;
701.4000;0.1384;10.5112;
701.7000;0.1416;10.5136;
702.0000;0.1433;10.5136;
702.3000;0.1416;10.5064;
702.6000;0.1416;10.5064;
702.9000;0.1416;10.5040;
703.2000;0.1408;10.5016;
703.5000;0.1343;10.4871;
703.8000;0.1400;10.4943;
704.1000;0.1408;10.4943;
704.4000;0.1408;10.5016;
704.7000;0.1408;10.5040;
705.0000;0.1416;10.5160;
705.3000;0.1425;10.5209;
705.6000;0.1408;10.5184;
705.9000;0.1335;10.4967;
706.2000;0.1416;10.5160;
706.5000;0.1425;10.5209;
706.8000;0.1408;10.5184;
707.1000;0.1408;10.5112;
707.4000;0.1400;10.5088;
707.7000;0.1425;10.5112;
708.0000;0.1425;10.5088;
708.3000;0.1416;10.5088;
708.6000;0.1408;10.5088;
708.9000;0.1425;10.5136;
709.2000;0.1425;10.5160;
709.5000;0.1416;10.5136;
709.8000;0.1433;10.5136;
710.1000;0.1400;10.5112;
710.4000;0.1384;10.4991;
710.7000;0.1416;10.5064;
711.0000;0.1416;10.4943;
711.3000;0.1441;10.5016;
711.6000;0.1425;10.4943;
711.9000;0.1408;10.4823;
712.2000;0.1425;10.4799;
712.5000;0.1433;10.4799;
712.8000;0.1433;10.4823;
713.1000;0.1433;10.4774;
713.4000;0.1425;10.4774;
713.7000;0.1408;10.4750;
714.0000;0.1408;10.4799;
714.3000;0.1408;10.4799;
714.6000;0.1368;10.4799;
714.9000;0.1327;10.4702;
715.2000;0.1416;10.4991;
715.5000;0.1416;10.4943;
715.8000;0.1408;10.4871;
716.1000;0.1425;10.4991;
716.4000;0.1384;10.5016;
716.7000;0.1481;10.5281;
717.0000;0.1408;10.4967;
717.3000;0.1408;10.4991;
717.6000;0.1319;10.4702;
717.9000;0.1408;10.4991;
718.2000;0.1498;10.5209;
718.5000;0.1433;10.5040;
718.8000;0.1425;10.5040;
719.1000;0.1408;10.4991;
719.4000;0.1425;10.5016;
719.7000;0.1311;10.4750;
720.0000;0.1506;10.5353;
720.3000;0.1384;10.5064;
720.6000;0.1425;10.5136;
720.9000;0.1400;10.5112;
721.2000;0.1449;10.5281;
721.5000;0.1433;10.5233;
721.8000;0.1425;10.5136;
722.1000;0.1408;10.5112;
722.4000;0.1400;10.5112;
722.7000;0.1416;10.5184;
723.0000;0.1425;10.5233;
723.3000;0.1416;10.5184;
723.6000;0.1416;10.5112;
723.9000;0.1457;10.5257;
724.2000;0.1416;10.5112;
724.5000;0.1408;10.5112;
724.8000;0.1433;10.5160;
725.1000;0.1392;10.5064;
725.4000;0.1481;10.5233;
725.7000;0.1433;10.5064;
726.0000;0.1408;10.4919;
726.3000;0.1408;10.4919;
726.6000;0.1368;10.4823;
726.9000;0.1449;10.4967;
727.2000;0.1441;10.4943;
727.5000;0.1425;10.4895;
727.8000;0.1425;10.4919;
728.1000;0.1408;10.4871;
728.4000;0.1433;10.4967;
728.7000;0.1425;10.4943;
729.0000;0.1408;10.4895;
729.3000;0.1425;10.4967;
729.6000;0.1416;10.5016;
729.9000;0.1425;10.5088;
730.2000;0.1335;10.4919;
730.5000;0.1400;10.5088;
730.8000;0.1425;10.5112;
731.1000;0.1490;10.5281;
731.4000;0.1408;10.5112;
731.7000;0.1408;10.5160;
732.0000;0.1473;10.5305;
732.3000;0.1368;10.5040;
732.6000;0.1302;10.4871;
732.9000;0.1433;10.5112;
733.2000;0.1416;10.5184;
733.5000;0.1311;10.4847;
733.8000;0.1465;10.5233;
734.1000;0.1408;10.5016;
734.4000;0.1400;10.4991;
734.7000;0.1392;10.5016;
735.0000;0.1416;10.4991;
735.3000;0.1441;10.5088;
735.6000;0.1392;10.5064;
735.9000;0.1384;10.5040;
736.2000;0.1392;10.5040;
736.5000;0.1408;10.4967;
736.8000;0.1408;10.5016;
737.1000;0.1368;10.4943;
737.4000;0.1433;10.5233;
737.7000;0.1449;10.5305;
738.0000;0.1416;10.5088;
738.3000;0.1416;10.5016;
738.6000;0.1392;10.4967;
738.9000;0.1408;10.5040;
739.2000;0.1433;10.5016;
739.5000;0.1416;10.5064;
739.8000;0.1400;10.4967;
740.1000;0.1425;10.4991;
740.4000;0.1392;10.5040;
740.7000;0.1351;10.4967;
741.0000;0.1392;10.5064;
741.3000;0.1441;10.5209;
741.6000;0.1441;10.5257;
741.9000;0.1425;10.5257;
742.2000;0.1465;10.5402;
742.5000;0.1408;10.5136;
742.8000;0.1441;10.5305;
743.1000;0.1400;10.5257;
743.4000;0.1416;10.5281;
743.7000;0.1425;10.5281;
744.0000;0.1359;10.5016;
744.3000;0.1408;10.5160;
744.6000;0.1449;10.5281;
744.9000;0.1425;10.5184;
745.2000;0.1400;10.5184;
745.5000;0.1400;10.5160;
745.8000;0.1416;10.5184;
746.1000;0.1408;10.5088;
746.4000;0.1416;10.5016;
746.7000;0.1400;10.5088;
747.0000;0.1392;10.5112;
747.3000;0.1433;10.5184;
747.6000;0.1425;10.5112;
747.9000;0.1384;10.4943;
748.2000;0.1416;10.5088;
748.5000;0.1473;10.5184;
748.8000;0.1400;10.5016;
749.1000;0.1433;10.5064;
749.4000;0.1368;10.4943;
749.7000;0.1416;10.5088;
750.0000;0.1425;10.5064;
750.3000;0.1433;10.5064;
750.6000;0.1392;10.5040;
750.9000;0.1416;10.5112;
751.2000;0.1343;10.4967;
751.5000;0.1425;10.5281;
751.8000;0.1433;10.5353;
752.1000;0.1416;10.5305;
752.4000;0.1408;10.5377;
752.7000;0.1400;10.5257;
753.0000;0.1425;10.5305;
753.3000;0.1425;10.5305;
753.6000;0.1408;10.5329;
753.9000;0.1425;10.5402;
754.2000;0.1400;10.5257;
754.5000;0.1425;10.5305;
754.8000;0.1457;10.5353;
755.1000;0.1376;10.5064;
755.4000;0.1408;10.5112;
755.7000;0.1425;10.5064;
756.0000;0.1376;10.4967;
756.3000;0.1457;10.5160;
756.6000;0.1302;10.4630;
756.9000;0.1408;10.4847;
757.2000;0.1449;10.4967;
757.5000;0.1416;10.4823;
757.8000;0.1408;10.4847;
758.1000;0.1400;10.4895;
758.4000;0.1400;10.4847;
758.7000;0.1425;10.4991;
759.0000;0.1416;10.4847;
759.3000;0.1425;10.4871;
759.6000;0.1408;10.4847;
759.9000;0.1416;10.4895;
760.2000;0.1416;10.4919;
760.5000;0.1416;10.4895;
760.8000;0.1416;10.4895;
761.1000;0.1416;10.4991;
761.4000;0.1416;10.5064;
761.7000;0.1327;10.4774;
762.0000;0.1473;10.5064;
762.3000;0.1400;10.4943;
762.6000;0.1400;10.4991;
762.9000;0.1416;10.5088;
763.2000;0.1425;10.5088;
763.5000;0.1416;10.5136;
763.8000;0.1408;10.5040;
764.1000;0.1408;10.5088;
764.4000;0.1441;10.5136;
764.7000;0.1400;10.5040;
765.0000;0.1384;10.5040;
765.3000;0.1408;10.5112;
765.6000;0.1400;10.4991;
765.9000;0.1392;10.4895;
766.2000;0.1384;10.4774;
766.5000;0.1392;10.4726;
766.8000;0.1400;10.4799;
767.1000;0.1408;10.4847;
767.4000;0.1368;10.4702;
767.7000;0.1384;10.4799;
768.0000;0.1408;10.4799;
768.3000;0.1416;10.4774;
768.6000;0.1416;10.4823;
768.9000;0.1408;10.4919;
769.2000;0.1441;10.4991;
769.5000;0.1465;10.5064;
769.8000;0.1408;10.4943;
770.1000;0.1416;10.4847;
770.4000;0.1376;10.4726;
770.7000;0.1400;10.4871;
771.0000;0.1392;10.4847;
771.3000;0.1408;10.4799;
771.6000;0.1416;10.4774;
771.9000;0.1376;10.4606;
772.2000;0.1392;10.4702;
772.5000;0.1392;10.4678;
772.8000;0.1408;10.4799;
773.1000;0.1416;10.4895;
773.4000;0.1408;10.4943;
773.7000;0.1416;10.4895;
774.0000;0.1400;10.4895;
774.3000;0.1408;10.4967;
774.6000;0.1433;10.5016;
774.9000;0.1400;10.4847;
775.2000;0.1359;10.4726;
775.5000;0.1449;10.4991;
775.8000;0.1408;10.4967;
776.1000;0.1465;10.5209;
776.4000;0.1408;10.5184;
776.7000;0.1400;10.5184;
777.0000;0.1416;10.5209;
777.3000;0.1400;10.5136;
777.6000;0.1416;10.5160;
777.9000;0.1465;10.5281;
778.2000;0.1416;10.5040;
778.5000;0.1368;10.4871;
778.8000;0.1392;10.4895;
779.1000;0.1408;10.4895;
779.4000;0.1392;10.4967;
779.7000;0.1425;10.5040;
780.0000;0.1547;10.5377;
780.3000;0.1441;10.5209;
780.6000;0.1416;10.5209;
780.9000;0.1400;10.5209;
781.2000;0.1425;10.5233;
781.5000;0.1400;10.5112;
781.8000;0.1400;10.5088;
782.1000;0.1392;10.5040;
782.4000;0.1408;10.5064;
782.7000;0.1408;10.5064;
783.0000;0.1416;10.5088;
783.3000;0.1392;10.4967;
783.6000;0.1522;10.5329;
783.9000;0.1408;10.5064;
784.2000;0.1425;10.5112;
784.5000;0.1433;10.5136;
784.8000;0.1416;10.5064;
785.1000;0.1449;10.5088;
785.4000;0.1408;10.4967;
785.7000;0.1425;10.4967;
786.0000;0.1416;10.4823;
786.3000;0.1416;10.4895;
786.6000;0.1425;10.4943;
786.9000;0.1384;10.4895;
787.2000;0.1457;10.5016;
787.5000;0.1425;10.4943;
787.8000;0.1425;10.4895;
788.1000;0.1416;10.4919;
788.4000;0.1425;10.4967;
788.7000;0.1416;10.4943;
789.0000;0.1400;10.4919;
789.3000;0.1392;10.4895;
789.6000;0.1425;10.4871;
789.9000;0.1416;10.4871;
790.2000;0.1400;10.4823;
790.5000;0.1376;10.4823;
790.8000;0.1425;10.4967;
791.1000;0.1392;10.4871;
791.4000;0.1481;10.5064;
791.7000;0.1425;10.4847;
792.0000;0.1425;10.4919;
792.3000;0.1408;10.4799;
792.6000;0.1425;10.4991;
792.9000;0.1408;10.4895;
793.2000;0.1392;10.4871;
793.5000;0.1538;10.5329;
793.8000;0.1416;10.4967;
794.1000;0.1441;10.5112;
794.4000;0.1416;10.5160;
794.7000;0.1441;10.5209;
795.0000;0.1425;10.5184;
795.3000;0.1408;10.5209;
795.6000;0.1408;10.5160;
795.9000;0.1425;10.5209;
796.2000;0.1425;10.5184;
796.5000;0.1433;10.5257;
796.8000;0.1425;10.5257;
797.1000;0.1433;10.5233;
797.4000;0.1400;10.5209;
797.7000;0.1408;10.5233;
798.0000;0.1416;10.5305;
798.3000;0.1433;10.5305;
798.6000;0.1416;10.5305;
798.9000;0.1343;10.5040;
799.2000;0.1408;10.5136;
799.5000;0.1392;10.5233;
799.8000;0.1425;10.5329;
800.1000;0.1425;10.5377;
800.4000;0.1408;10.5353;
800.7000;0.1416;10.5353;
801.0000;0.1425;10.5329;
801.3000;0.1433;10.5329;
801.6000;0.1433;10.5402;
801.9000;0.1400;10.5281;
802.2000;0.1368;10.5112;
802.5000;0.1392;10.5160;
802.8000;0.1392;10.5233;
803.1000;0.1400;10.5233;
803.4000;0.1465;10.5402;
803.7000;0.1481;10.5474;
804.0000;0.1416;10.5257;
804.3000;0.1433;10.5233;
804.6000;0.1433;10.5160;
804.9000;0.1425;10.5136;
805.2000;0.1392;10.5112;
805.5000;0.1408;10.5160;
805.8000;0.1433;10.5377;
806.1000;0.1433;10.5305;
806.4000;0.1433;10.5305;
806.7000;0.1425;10.5426;
807.0000;0.1433;10.5402;
807.3000;0.1408;10.5281;
807.6000;0.1416;10.5257;
807.9000;0.1425;10.5184;
808.2000;0.1425;10.5136;
808.5000;0.1408;10.5088;
808.8000;0.1408;10.5112;
809.1000;0.1416;10.5112;
809.4000;0.1425;10.5160;
809.7000;0.1441;10.5281;
810.0000;0.1425;10.5281;
810.3000;0.1433;10.5377;
810.6000;0.1433;10.5353;
810.9000;0.1416;10.5305;
811.2000;0.1408;10.5329;
811.5000;0.1416;10.5281;
811.8000;0.1416;10.5281;
812.1000;0.1433;10.5281;
812.4000;0.1416;10.5329;
812.7000;0.1416;10.5281;
813.0000;0.1392;10.5257;
813.3000;0.1327;10.4991;
813.6000;0.1425;10.5233;
813.9000;0.1416;10.5160;
814.2000;0.1416;10.5136;
814.5000;0.1490;10.5353;
814.8000;0.1376;10.5040;
815.1000;0.1408;10.5064;
815.4000;0.1408;10.5040;
815.7000;0.1408;10.5016;
816.0000;0.1408;10.5112;
816.3000;0.1416;10.5088;
816.6000;0.1408;10.5016;
816.9000;0.1376;10.5040;
817.2000;0.1384;10.5112;
817.5000;0.1555;10.5570;
817.8000;0.1416;10.5305;
818.1000;0.1441;10.5329;
818.4000;0.1408;10.5160;
818.7000;0.1392;10.5160;
819.0000;0.1433;10.5257;
819.3000;0.1408;10.5233;
819.6000;0.1425;10.5184;
819.9000;0.1441;10.5209;
820.2000;0.1425;10.5209;
820.5000;0.1416;10.5209;
820.8000;0.1416;10.5209;
821.1000;0.1408;10.5184;
821.4000;0.1433;10.5257;
821.7000;0.1400;10.5257;
822.0000;0.1425;10.5257;
822.3000;0.1416;10.5233;
822.6000;0.1416;10.5233;
822.9000;0.1416;10.5305;
823.2000;0.1392;10.5184;
823.5000;0.1400;10.5160;
823.8000;0.1408;10.5184;
824.1000;0.1416;10.5233;
824.4000;0.1425;10.5305;
824.7000;0.1425;10.5257;
825.0000;0.1416;10.5160;
825.3000;0.1433;10.5184;
825.6000;0.1441;10.5209;
825.9000;0.1408;10.4967;
826.2000;0.1425;10.5016;
826.5000;0.1433;10.5016;
826.8000;0.1408;10.4967;
827.1000;0.1416;10.5112;
827.4000;0.1384;10.5112;
827.7000;0.1498;10.5329;
828.0000;0.1416;10.5088;
828.3000;0.1506;10.5329;
828.6000;0.1400;10.5064;
828.9000;0.1416;10.5112;
829.2000;0.1425;10.5136;
829.5000;0.1441;10.5184;
829.8000;0.1416;10.5136;
830.1000;0.1408;10.5184;
830.4000;0.1400;10.5112;
830.7000;0.1425;10.5160;
831.0000;0.1408;10.5160;
831.3000;0.1408;10.5112;
831.6000;0.1416;10.5112;
831.9000;0.1416;10.5040;
832.2000;0.1433;10.5064;
832.5000;0.1416;10.5040;
832.8000;0.1425;10.5088;
833.1000;0.1433;10.5136;
833.4000;0.1433;10.5160;
833.7000;0.1416;10.5184;
834.0000;0.1465;10.5257;
834.3000;0.1425;10.5112;
834.6000;0.1416;10.5088;
834.9000;0.1416;10.5064;
835.2000;0.1408;10.5112;
835.5000;0.1433;10.5184;
835.8000;0.1449;10.5184;
836.1000;0.1416;10.5184;
836.4000;0.1441;10.5305;
836.7000;0.1408;10.5305;
837.0000;0.1368;10.5112;
837.3000;0.1400;10.5136;
837.6000;0.1425;10.5209;
837.9000;0.1416;10.5281;
838.2000;0.1416;10.5209;
838.5000;0.1343;10.4967;
838.8000;0.1473;10.5281;
839.1000;0.1408;10.5112;
839.4000;0.1416;10.5088;
839.7000;0.1425;10.5088;
840.0000;0.1400;10.5064;
840.3000;0.1416;10.5136;
840.6000;0.1433;10.5112;
840.9000;0.1400;10.4991;
841.2000;0.1441;10.5016;
841.5000;0.1416;10.4919;
841.8000;0.1408;10.4943;
842.1000;0.1400;10.4895;
842.4000;0.1425;10.5040;
842.7000;0.1425;10.4991;
843.0000;0.1408;10.5064;
843.3000;0.1433;10.5160;
843.6000;0.1408;10.5136;
843.9000;0.1416;10.5136;
844.2000;0.1408;10.5184;
844.5000;0.1400;10.5088;
844.8000;0.1416;10.5136;
845.1000;0.1425;10.5184;
845.4000;0.1416;10.5184;
845.7000;0.1416;10.5160;
846.0000;0.1408;10.5088;
846.3000;0.1408;10.5040;
846.6000;0.1408;10.5088;
846.9000;0.1481;10.5209;
847.2000;0.1465;10.5136;
847.5000;0.1425;10.5064;
847.8000;0.1425;10.4967;
848.1000;0.1408;10.4991;
848.4000;0.1433;10.5016;
848.7000;0.1433;10.5112;
849.0000;0.1384;10.4991;
849.3000;0.1400;10.5040;
849.6000;0.1425;10.5040;
849.9000;0.1311;10.4702;
850.2000;0.1343;10.4726;
850.5000;0.1514;10.5136;
850.8000;0.1441;10.4919;
851.1000;0.1425;10.4919;
851.4000;0.1416;10.4919;
851.7000;0.1376;10.4895;
852.0000;0.1416;10.5040;
852.3000;0.1441;10.5160;
852.6000;0.1449;10.5209;
852.9000;0.1400;10.5088;
853.2000;0.1376;10.4967;
853.5000;0.1425;10.5016;
853.8000;0.1425;10.5160;
854.1000;0.1416;10.5160;
854.4000;0.1425;10.5233;
854.7000;0.1416;10.5329;
855.0000;0.1416;10.5281;
855.3000;0.1416;10.5209;
855.6000;0.1441;10.5305;
855.9000;0.1408;10.5257;
856.2000;0.1433;10.5257;
856.5000;0.1416;10.5184;
856.8000;0.1416;10.5136;
857.1000;0.1465;10.5281;
857.4000;0.1425;10.5184;
857.7000;0.1408;10.5209;
858.0000;0.1359;10.5112;
858.3000;0.1400;10.5233;
858.6000;0.1425;10.5402;
858.9000;0.1408;10.5329;
859.2000;0.1416;10.5353;
859.5000;0.1392;10.5377;
859.8000;0.1408;10.5377;
860.1000;0.1481;10.5498;
860.4000;0.1392;10.5281;
860.7000;0.1416;10.5257;
861.0000;0.1441;10.5329;
861.3000;0.1376;10.5136;
861.6000;0.1416;10.5136;
861.9000;0.1425;10.5160;
862.2000;0.1425;10.5136;
862.5000;0.1506;10.5402;
862.8000;0.1425;10.5184;
863.1000;0.1408;10.5088;
863.4000;0.1408;10.5136;
863.7000;0.1408;10.5136;
864.0000;0.1319;10.4871;
864.3000;0.1408;10.5112;
864.6000;0.1359;10.5040;
864.9000;0.1441;10.5281;
865.2000;0.1433;10.5257;
865.5000;0.1400;10.5209;
865.8000;0.1433;10.5281;
866.1000;0.1441;10.5353;
866.4000;0.1425;10.5305;
866.7000;0.1416;10.5257;
867.0000;0.1425;10.5233;
867.3000;0.1408;10.5233;
867.6000;0.1416;10.5184;
867.9000;0.1441;10.5209;
868.2000;0.1416;10.5112;
868.5000;0.1408;10.5016;
868.8000;0.1416;10.5016;
869.1000;0.1408;10.5016;
869.4000;0.1400;10.5088;
869.7000;0.1449;10.5184;
870.0000;0.1408;10.5040;
870.3000;0.1400;10.5016;
870.6000;0.1441;10.5040;
870.9000;0.1416;10.5016;
871.2000;0.1400;10.4967;
871.5000;0.1408;10.4943;
871.8000;0.1400;10.4919;
872.1000;0.1425;10.4943;
872.4000;0.1408;10.4967;
872.7000;0.1400;10.4919;
873.0000;0.1425;10.4967;
873.3000;0.1441;10.5016;
873.6000;0.1327;10.4799;
873.9000;0.1465;10.5160;
874.2000;0.1368;10.4919;
874.5000;0.1408;10.5040;
874.8000;0.1416;10.4991;
875.1000;0.1425;10.5040;
875.4000;0.1392;10.5016;
875.7000;0.1425;10.5088;
876.0000;0.1400;10.5136;
876.3000;0.1416;10.5088;
876.6000;0.1433;10.5136;
876.9000;0.1416;10.5160;
877.2000;0.1416;10.5160;
877.5000;0.1408;10.5184;
877.8000;0.1425;10.5184;
878.1000;0.1425;10.5160;
878.4000;0.1400;10.5064;
878.7000;0.1400;10.5112;
879.0000;0.1416;10.5160;
879.3000;0.1416;10.5233;
879.6000;0.1425;10.5353;
879.9000;0.1408;10.5329;
880.2000;0.1416;10.5353;
880.5000;0.1408;10.5377;
880.8000;0.1400;10.5353;
881.1000;0.1408;10.5353;
881.4000;0.1416;10.5257;
881.7000;0.1408;10.5305;
882.0000;0.1465;10.5450;
882.3000;0.1416;10.5353;
882.6000;0.1433;10.5353;
882.9000;0.1416;10.5305;
883.2000;0.1400;10.5233;
883.5000;0.1335;10.5064;
883.8000;0.1311;10.4991;
884.1000;0.1416;10.5136;
884.4000;0.1465;10.5353;
884.7000;0.1392;10.5281;
885.0000;0.1392;10.5233;
885.3000;0.1433;10.5377;
885.6000;0.1376;10.5136;
885.9000;0.1416;10.5305;
886.2000;0.1408;10.5233;
886.5000;0.1425;10.5305;
886.8000;0.1441;10.5257;
887.1000;0.1408;10.5209;
887.4000;0.1457;10.5257;
887.7000;0.1416;10.5184;
888.0000;0.1408;10.5136;
888.3000;0.1433;10.5209;
888.6000;0.1473;10.5353;
888.9000;0.1425;10.5184;
889.2000;0.1416;10.5136;
889.5000;0.1465;10.5257;
889.8000;0.1408;10.5088;
890.1000;0.1425;10.5112;
890.4000;0.1416;10.5160;
890.7000;0.1376;10.5040;
891.0000;0.1416;10.5184;
891.3000;0.1416;10.5160;
891.6000;0.1384;10.5064;
891.9000;0.1400;10.5160;
892.2000;0.1425;10.5160;
892.5000;0.1416;10.5184;
892.8000;0.1481;10.5281;
893.1000;0.1408;10.5136;
893.4000;0.1425;10.5136;
893.7000;0.1425;10.5160;
894.0000;0.1425;10.5184;
894.3000;0.1392;10.5088;
894.6000;0.1384;10.4991;
894.9000;0.1408;10.5016;
895.2000;0.1408;10.5064;
895.5000;0.1433;10.5040;
895.8000;0.1425;10.5016;
896.1000;0.1425;10.4919;
896.4000;0.1416;10.4895;
896.7000;0.1416;10.4847;
897.0000;0.1433;10.4895;
897.3000;0.1408;10.4895;
897.6000;0.1392;10.4919;
897.9000;0.1408;10.4943;
898.2000;0.1384;10.4726;
898.5000;0.1416;10.4895;
898.8000;0.1416;10.4895;
899.1000;0.1416;10.5016;
899.4000;0.1400;10.5040;
899.7000;0.1400;10.5040;
900.0000;0.1408;10.4967;
900.3000;0.1392;10.5016;
900.6000;0.1416;10.5016;
900.9000;0.1400;10.4895;
901.2000;0.1433;10.5088;
901.5000;0.1408;10.5112;
901.8000;0.1433;10.5184;
902.1000;0.1425;10.5233;
902.4000;0.1392;10.4991;
902.7000;0.1465;10.5112;
903.0000;0.1384;10.4943;
903.3000;0.1425;10.5064;
903.6000;0.1400;10.5040;
903.9000;0.1384;10.5040;
904.2000;0.1408;10.5088;
904.5000;0.1408;10.5160;
904.8000;0.1416;10.5160;
905.1000;0.1400;10.5112;
905.4000;0.1400;10.5209;
905.7000;0.1384;10.5112;
906.0000;0.1449;10.5233;
906.3000;0.1433;10.5257;
906.6000;0.1408;10.5136;
906.9000;0.1400;10.5064;
907.2000;0.1425;10.5136;
907.5000;0.1425;10.5112;
907.8000;0.1465;10.5233;
908.1000;0.1408;10.5016;
908.4000;0.1416;10.4991;
908.7000;0.1408;10.4967;
909.0000;0.1416;10.4967;
909.3000;0.1400;10.5016;
909.6000;0.1408;10.5136;
909.9000;0.1384;10.5112;
910.2000;0.1408;10.5233;
910.5000;0.1433;10.5233;
910.8000;0.1384;10.5136;
911.1000;0.1433;10.5136;
911.4000;0.1441;10.5160;
911.7000;0.1408;10.5088;
912.0000;0.1465;10.5184;
912.3000;0.1433;10.5064;
912.6000;0.1441;10.5064;
912.9000;0.1457;10.4991;
913.2000;0.1416;10.4919;
913.5000;0.1449;10.4967;
913.8000;0.1368;10.4774;
914.1000;0.1433;10.4967;
914.4000;0.1433;10.4967;
914.7000;0.1433;10.4943;
915.0000;0.1408;10.4895;
915.3000;0.1408;10.4991;
915.6000;0.1433;10.5112;
915.9000;0.1408;10.5040;
916.2000;0.1433;10.5016;
916.5000;0.1441;10.4919;
916.8000;0.1408;10.4919;
917.1000;0.1416;10.5016;
917.4000;0.1416;10.5040;
917.7000;0.1408;10.4991;
918.0000;0.1416;10.5040;
918.3000;0.1416;10.5040;
918.6000;0.1425;10.5112;
918.9000;0.1425;10.5064;
919.2000;0.1408;10.4967;
919.5000;0.1408;10.4943;
919.8000;0.1408;10.5064;
920.1000;0.1392;10.5112;
920.4000;0.1408;10.5209;
920.7000;0.1392;10.5160;
921.0000;0.1425;10.5305;
921.3000;0.1425;10.5281;
921.6000;0.1400;10.5233;
921.9000;0.1384;10.5112;
922.2000;0.1425;10.5112;
922.5000;0.1416;10.5136;
922.8000;0.1416;10.5160;
923.1000;0.1400;10.5160;
923.4000;0.1457;10.5257;
923.7000;0.1425;10.5233;
924.0000;0.1433;10.5209;
924.3000;0.1416;10.5160;
924.6000;0.1416;10.5112;
924.9000;0.1433;10.5136;
925.2000;0.1416;10.5064;
925.5000;0.1425;10.5064;
925.8000;0.1416;10.5064;
926.1000;0.1433;10.5064;
926.4000;0.1433;10.5040;
926.7000;0.1441;10.4967;
927.0000;0.1416;10.4919;
927.3000;0.1425;10.4943;
927.6000;0.1433;10.4871;
927.9000;0.1400;10.4799;
928.2000;0.1449;10.4895;
928.5000;0.1433;10.4823;
928.8000;0.1408;10.4847;
929.1000;0.1400;10.4847;
929.4000;0.1319;10.4581;
929.7000;0.1416;10.4823;
930.0000;0.1433;10.4919;
930.3000;0.1457;10.4967;
930.6000;0.1416;10.4871;
930.9000;0.1416;10.4847;
931.2000;0.1416;10.4774;
931.5000;0.1376;10.4750;
931.8000;0.1425;10.4847;
932.1000;0.1408;10.4871;
932.4000;0.1384;10.4799;
932.7000;0.1416;10.4823;
933.0000;0.1490;10.4919;
933.3000;0.1408;10.4774;
933.6000;0.1522;10.5184;
933.9000;0.1457;10.4943;
934.2000;0.1425;10.4919;
934.5000;0.1433;10.4991;
934.8000;0.1433;10.4967;
935.1000;0.1433;10.4967;
935.4000;0.1408;10.4919;
935.7000;0.1425;10.4991;
936.0000;0.1416;10.5040;
936.3000;0.1408;10.4871;
936.6000;0.1433;10.4919;
936.9000;0.1425;10.4895;
937.2000;0.1416;10.4895;
937.5000;0.1408;10.4871;
937.8000;0.1408;10.4871;
938.1000;0.1416;10.4895;
938.4000;0.1416;10.4847;
938.7000;0.1384;10.4847;
939.0000;0.1465;10.5088;
939.3000;0.1416;10.5016;
939.6000;0.1433;10.5040;
939.9000;0.1433;10.5088;
940.2000;0.1416;10.5040;
940.5000;0.1408;10.5088;
940.8000;0.1400;10.5112;
941.1000;0.1416;10.5088;
941.4000;0.1425;10.5136;
941.7000;0.1359;10.4943;
942.0000;0.1416;10.5136;
942.3000;0.1457;10.5136;
942.6000;0.1416;10.5040;
942.9000;0.1416;10.5088;
943.2000;0.1425;10.5112;
943.5000;0.1473;10.5281;
943.8000;0.1416;10.5040;
944.1000;0.1400;10.5016;
944.4000;0.1416;10.5040;
944.7000;0.1359;10.4919;
945.0000;0.1425;10.4943;
945.3000;0.1465;10.5040;
945.6000;0.1416;10.4943;
945.9000;0.1433;10.4943;
946.2000;0.1425;10.4919;
946.5000;0.1425;10.4967;
946.8000;0.1416;10.4967;
947.1000;0.1425;10.5016;
947.4000;0.1433;10.5184;
947.7000;0.1400;10.5184;
948.0000;0.1425;10.5209;
948.3000;0.1416;10.5233;
948.6000;0.1384;10.5112;
948.9000;0.1400;10.5184;
949.2000;0.1433;10.5233;
949.5000;0.1416;10.5136;
949.8000;0.1416;10.5136;
950.1000;0.1425;10.5040;
950.4000;0.1408;10.5064;
950.7000;0.1416;10.5064;
951.0000;0.1392;10.5064;
951.3000;0.1433;10.5088;
951.6000;0.1384;10.4991;
951.9000;0.1416;10.5088;
952.2000;0.1392;10.4919;
952.5000;0.1408;10.5016;
952.8000;0.1416;10.4991;
953.1000;0.1465;10.5160;
953.4000;0.1416;10.5112;
953.7000;0.1425;10.5184;
954.0000;0.1490;10.5402;
954.3000;0.1425;10.5305;
954.6000;0.1433;10.5353;
954.9000;0.1433;10.5329;
955.2000;0.1416;10.5402;
955.5000;0.1457;10.5522;
955.8000;0.1433;10.5450;
956.1000;0.1408;10.5450;
956.4000;0.1368;10.5233;
956.7000;0.1400;10.5233;
957.0000;0.1433;10.5184;
957.3000;0.1441;10.5136;
957.6000;0.1416;10.5016;
957.9000;0.1416;10.5040;
958.2000;0.1425;10.4991;
958.5000;0.1416;10.4991;
958.8000;0.1408;10.4943;
959.1000;0.1376;10.4943;
959.4000;0.1433;10.5088;
959.7000;0.1441;10.5040;
960.0000;0.1433;10.5088;
960.3000;0.1408;10.5112;
960.6000;0.1400;10.5112;
960.9000;0.1408;10.5016;
961.2000;0.1400;10.4991;
961.5000;0.1416;10.5016;
961.8000;0.1441;10.5209;
962.1000;0.1416;10.5136;
962.4000;0.1433;10.5184;
962.7000;0.1425;10.5184;
963.0000;0.1425;10.5233;
963.3000;0.1416;10.5257;
963.6000;0.1449;10.5377;
963.9000;0.1408;10.5257;
964.2000;0.1392;10.5184;
964.5000;0.1400;10.5281;
964.8000;0.1400;10.5305;
965.1000;0.1425;10.5377;
965.4000;0.1343;10.5136;
965.7000;0.1400;10.5257;
966.0000;0.1400;10.5305;
966.3000;0.1416;10.5305;
966.6000;0.1408;10.5209;
966.9000;0.1416;10.5184;
967.2000;0.1416;10.5209;
967.5000;0.1416;10.5281;
967.8000;0.1408;10.5257;
968.1000;0.1425;10.5305;
968.4000;0.1425;10.5257;
968.7000;0.1433;10.5257;
969.0000;0.1408;10.5233;
969.3000;0.1376;10.5160;
969.6000;0.1400;10.5209;
969.9000;0.1343;10.5088;
970.2000;0.1408;10.5257;
970.5000;0.1433;10.5377;
970.8000;0.1416;10.5233;
971.1000;0.1408;10.5112;
971.4000;0.1416;10.5088;
971.7000;0.1416;10.5088;
972.0000;0.1425;10.5064;
972.3000;0.1433;10.5112;
972.6000;0.1408;10.5064;
972.9000;0.1327;10.4799;
973.2000;0.1441;10.5112;
973.5000;0.1425;10.5112;
973.8000;0.1449;10.5209;
974.1000;0.1433;10.5040;
974.4000;0.1425;10.5112;
974.7000;0.1441;10.5136;
975.0000;0.1416;10.5136;
975.3000;0.1416;10.5160;
975.6000;0.1522;10.5450;
975.9000;0.1408;10.5040;
976.2000;0.1408;10.4967;
976.5000;0.1400;10.4943;
976.8000;0.1425;10.5064;
977.1000;0.1416;10.5064;
977.4000;0.1449;10.5233;
977.7000;0.1416;10.5160;
978.0000;0.1400;10.5136;
978.3000;0.1408;10.5257;
978.6000;0.1392;10.5184;
978.9000;0.1376;10.5257;
979.2000;0.1473;10.5498;
979.5000;0.1449;10.5450;
979.8000;0.1441;10.5305;
980.1000;0.1343;10.5136;
980.4000;0.1319;10.5040;
980.7000;0.1392;10.5281;
981.0000;0.1384;10.5136;
981.3000;0.1408;10.5305;
981.6000;0.1392;10.5160;
981.9000;0.1490;10.5474;
982.2000;0.1425;10.5305;
982.5000;0.1498;10.5450;
982.8000;0.1392;10.5184;
983.1000;0.1441;10.5353;
983.4000;0.1416;10.5353;
983.7000;0.1433;10.5402;
984.0000;0.1465;10.5498;
984.3000;0.1416;10.5329;
984.6000;0.1433;10.5377;
984.9000;0.1425;10.5305;
985.2000;0.1425;10.5184;
985.5000;0.1416;10.5136;
985.8000;0.1425;10.5136;
986.1000;0.1441;10.5160;
986.4000;0.1433;10.5257;
986.7000;0.1408;10.5184;
987.0000;0.1425;10.5233;
987.3000;0.1400;10.5257;
987.6000;0.1416;10.5281;
987.9000;0.1425;10.5281;
988.2000;0.1400;10.5257;
988.5000;0.1408;10.5136;
988.8000;0.1408;10.5112;
989.1000;0.1433;10.5233;
989.4000;0.1408;10.5257;
989.7000;0.1425;10.5233;
990.0000;0.1416;10.5281;
990.3000;0.1425;10.5281;
990.6000;0.1441;10.5329;
990.9000;0.1425;10.5353;
991.2000;0.1457;10.5377;
991.5000;0.1425;10.5184;
991.8000;0.1408;10.5136;
992.1000;0.1408;10.5112;
992.4000;0.1416;10.5305;
992.7000;0.1416;10.5353;
993.0000;0.1425;10.5402;
993.3000;0.1425;10.5402;
993.6000;0.1408;10.5305;
993.9000;0.1416;10.5329;
994.2000;0.1408;10.5329;
994.5000;0.1408;10.5281;
994.8000;0.1416;10.5305;
995.1000;0.1433;10.5329;
995.4000;0.1433;10.5281;
995.7000;0.1416;10.5233;
996.0000;0.1376;10.5184;
996.3000;0.1416;10.5329;
996.6000;0.1433;10.5377;
996.9000;0.1392;10.5281;
997.2000;0.1416;10.5305;
997.5000;0.1408;10.5353;
997.8000;0.1400;10.5402;
998.1000;0.1416;10.5474;
998.4000;0.1416;10.5498;
998.7000;0.1416;10.5450;
999.0000;0.1425;10.5426;
999.3000;0.1514;10.5739;
999.6000;0.1490;10.5546;
999.9000;0.1425;10.5353;
1000.2000;0.1433;10.5402;
1000.5000;0.1457;10.5426;
1000.8000;0.1392;10.5281;
1001.1000;0.1400;10.5305;
1001.4000;0.1392;10.5233;
1001.7000;0.1433;10.5281;
1002.0000;0.1433;10.5329;
1002.3000;0.1416;10.5257;
1002.6000;0.1441;10.5233;
1002.9000;0.1416;10.5209;
1003.2000;0.1400;10.5233;
1003.5000;0.1408;10.5281;
1003.8000;0.1416;10.5257;
1004.1000;0.1433;10.5233;
1004.4000;0.1384;10.4967;
1004.7000;0.1416;10.5088;
1005.0000;0.1400;10.5112;
1005.3000;0.1433;10.5257;
1005.6000;0.1473;10.5426;
1005.9000;0.1449;10.5329;
1006.2000;0.1425;10.5209;
1006.5000;0.1498;10.5353;
1006.8000;0.1425;10.5209;
1007.1000;0.1359;10.5016;
1007.4000;0.1408;10.5136;
1007.7000;0.1425;10.5209;
1008.0000;0.1416;10.5184;
1008.3000;0.1416;10.5257;
1008.6000;0.1416;10.5209;
1008.9000;0.1408;10.5160;
1009.2000;0.1425;10.5233;
1009.5000;0.1400;10.5233;
1009.8000;0.1400;10.5305;
1010.1000;0.1416;10.5353;
1010.4000;0.1441;10.5594;
1010.7000;0.1425;10.5450;
1011.0000;0.1441;10.5426;
1011.3000;0.1408;10.5305;
1011.6000;0.1408;10.5281;
1011.9000;0.1498;10.5498;
1012.2000;0.1400;10.5160;
1012.5000;0.1392;10.5184;
1012.8000;0.1416;10.5209;
1013.1000;0.1400;10.5184;
1013.4000;0.1408;10.5160;
1013.7000;0.1425;10.5136;
1014.0000;0.1416;10.5184;
1014.3000;0.1425;10.5209;
1014.6000;0.1425;10.5209;
1014.9000;0.1416;10.5160;
1015.2000;0.1416;10.5088;
1015.5000;0.1416;10.5088;
1015.8000;0.1433;10.5184;
1016.1000;0.1416;10.5209;
1016.4000;0.1425;10.5233;
1016.7000;0.1433;10.5329;
1017.0000;0.1498;10.5450;
1017.3000;0.1425;10.5281;
1017.6000;0.1433;10.5281;
1017.9000;0.1441;10.5426;
1018.2000;0.1416;10.5329;
1018.5000;0.1416;10.5329;
1018.8000;0.1416;10.5329;
1019.1000;0.1416;10.5353;
1019.4000;0.1449;10.5353;
1019.7000;0.1425;10.5353;
1020.0000;0.1416;10.5305;
1020.3000;0.1433;10.5257;
1020.6000;0.1441;10.5233;
1020.9000;0.1400;10.5184;
1021.2000;0.1416;10.5281;
1021.5000;0.1408;10.5184;
1021.8000;0.1416;10.5209;
1022.1000;0.1433;10.5233;
1022.4000;0.1392;10.5136;
1022.7000;0.1490;10.5353;
1023.0000;0.1416;10.5136;
1023.3000;0.1433;10.5136;
1023.6000;0.1416;10.5136;
1023.9000;0.1408;10.5088;
1024.2000;0.1425;10.5088;
1024.5000;0.1400;10.5088;
1024.8000;0.1433;10.5233;
1025.1000;0.1408;10.5209;
1025.4000;0.1368;10.5136;
1025.7000;0.1416;10.5209;
1026.0000;0.1490;10.5377;
1026.3000;0.1278;10.4823;
1026.6000;0.1400;10.5160;
1026.9000;0.1481;10.5377;
1027.2000;0.1425;10.5184;
1027.5000;0.1441;10.5233;
1027.8000;0.1400;10.5184;
1028.1000;0.1433;10.5329;
1028.4000;0.1433;10.5281;
1028.7000;0.1376;10.5160;
1029.0000;0.1433;10.5353;
1029.3000;0.1408;10.5281;
1029.6000;0.1327;10.5040;
1029.9000;0.1433;10.5209;
1030.2000;0.1441;10.5233;
1030.5000;0.1441;10.5257;
1030.8000;0.1449;10.5233;
1031.1000;0.1441;10.5257;
1031.4000;0.1425;10.5233;
1031.7000;0.1408;10.5184;
1032.0000;0.1425;10.5209;
1032.3000;0.1433;10.5257;
1032.6000;0.1392;10.5160;
1032.9000;0.1400;10.5233;
1033.2000;0.1425;10.5329;
1033.5000;0.1441;10.5305;
1033.8000;0.1433;10.5305;
1034.1000;0.1416;10.5257;
1034.4000;0.1392;10.5209;
1034.7000;0.1400;10.5305;
1035.0000;0.1433;10.5450;
1035.3000;0.1433;10.5426;
1035.6000;0.1408;10.5329;
1035.9000;0.1441;10.5426;
1036.2000;0.1416;10.5353;
1036.5000;0.1416;10.5257;
1036.8000;0.1392;10.5209;
1037.1000;0.1408;10.5233;
1037.4000;0.1416;10.5281;
1037.7000;0.1416;10.5184;
1038.0000;0.1408;10.5233;
1038.3000;0.1400;10.5329;
1038.6000;0.1425;10.5402;
1038.9000;0.1392;10.5353;
1039.2000;0.1408;10.5377;
1039.5000;0.1425;10.5305;
1039.8000;0.1408;10.5136;
1040.1000;0.1416;10.5016;
1040.4000;0.1416;10.5016;
1040.7000;0.1449;10.5064;
1041.0000;0.1425;10.5088;
1041.3000;0.1416;10.5112;
1041.6000;0.1433;10.5160;
1041.9000;0.1433;10.5160;
1042.2000;0.1425;10.5160;
1042.5000;0.1416;10.5136;
1042.8000;0.1408;10.5136;
1043.1000;0.1408;10.5112;
1043.4000;0.1425;10.5136;
1043.7000;0.1425;10.5233;
1044.0000;0.1408;10.5160;
1044.3000;0.1433;10.5136;
1044.6000;0.1408;10.5184;
1044.9000;0.1416;10.5160;
1045.2000;0.1490;10.5257;
1045.5000;0.1408;10.5088;
1045.8000;0.1433;10.5136;
1046.1000;0.1343;10.4895;
1046.4000;0.1449;10.5257;
1046.7000;0.1408;10.5160;
1047.0000;0.1425;10.5209;
1047.3000;0.1416;10.5184;
1047.6000;0.1416;10.5209;
1047.9000;0.1416;10.5184;
1048.2000;0.1302;10.4895;
1048.5000;0.1425;10.5257;
1048.8000;0.1465;10.5353;
1049.1000;0.1449;10.5305;
1049.4000;0.1416;10.5281;
1049.7000;0.1408;10.5160;
1050.0000;0.1433;10.5209;
1050.3000;0.1498;10.5353;
1050.6000;0.1473;10.5209;
1050.9000;0.1416;10.5088;
1051.2000;0.1433;10.5136;
1051.5000;0.1441;10.5088;
1051.8000;0.1408;10.5064;
1052.1000;0.1425;10.5184;
1052.4000;0.1311;10.4847;
1052.7000;0.1433;10.5184;
1053.0000;0.1400;10.5088;
1053.3000;0.1408;10.5064;
1053.6000;0.1425;10.5136;
1053.9000;0.1425;10.5184;
1054.2000;0.1425;10.5305;
1054.5000;0.1416;10.5305;
1054.8000;0.1416;10.5281;
1055.1000;0.1425;10.5426;
1055.4000;0.1416;10.5474;
1055.7000;0.1376;10.5402;
1056.0000;0.1400;10.5402;
1056.3000;0.1400;10.5450;
1056.6000;0.1441;10.5474;
1056.9000;0.1408;10.5426;
1057.2000;0.1425;10.5402;
1057.5000;0.1400;10.5329;
1057.8000;0.1425;10.5426;
1058.1000;0.1408;10.5402;
1058.4000;0.1416;10.5450;
1058.7000;0.1425;10.5450;
1059.0000;0.1433;10.5329;
1059.3000;0.1425;10.5281;
1059.6000;0.1538;10.5594;
1059.9000;0.1433;10.5233;
1060.2000;0.1433;10.5329;
1060.5000;0.1433;10.5281;
1060.8000;0.1457;10.5329;
1061.1000;0.1433;10.5160;
1061.4000;0.1441;10.5112;
1061.7000;0.1441;10.5064;
1062.0000;0.1416;10.5064;
1062.3000;0.1425;10.5064;
1062.6000;0.1384;10.4895;
1062.9000;0.1408;10.5112;
1063.2000;0.1425;10.5209;
1063.5000;0.1416;10.5184;
1063.8000;0.1441;10.5209;
1064.1000;0.1425;10.5136;
1064.4000;0.1408;10.5233;
1064.7000;0.1408;10.5184;
1065.0000;0.1416;10.5209;
1065.3000;0.1441;10.5281;
1065.6000;0.1425;10.5257;
1065.9000;0.1408;10.5160;
1066.2000;0.1416;10.5184;
1066.5000;0.1433;10.5209;
1066.8000;0.1457;10.5353;
1067.1000;0.1416;10.5233;
1067.4000;0.1416;10.5281;
1067.7000;0.1465;10.5377;
1068.0000;0.1384;10.5257;
1068.3000;0.1408;10.5329;
1068.6000;0.1408;10.5329;
1068.9000;0.1433;10.5305;
1069.2000;0.1392;10.5136;
1069.5000;0.1433;10.5184;
1069.8000;0.1457;10.5257;
1070.1000;0.1368;10.4871;
1070.4000;0.1416;10.5064;
1070.7000;0.1425;10.5040;
1071.0000;0.1425;10.5088;
1071.3000;0.1481;10.5257;
1071.6000;0.1433;10.5136;
1071.9000;0.1473;10.5257;
1072.2000;0.1481;10.5305;
1072.5000;0.1425;10.5184;
1072.8000;0.1384;10.5160;
1073.1000;0.1416;10.5257;
1073.4000;0.1514;10.5546;
1073.7000;0.1400;10.5305;
1074.0000;0.1457;10.5450;
1074.3000;0.1416;10.5305;
1074.6000;0.1392;10.5233;
1074.9000;0.1384;10.5040;
1075.2000;0.1400;10.5064;
1075.5000;0.1416;10.5088;
1075.8000;0.1425;10.5184;
1076.1000;0.1416;10.5160;
1076.4000;0.1302;10.4895;
1076.7000;0.1425;10.5209;
1077.0000;0.1416;10.5184;
1077.3000;0.1408;10.5112;
1077.6000;0.1425;10.5160;
1077.9000;0.1473;10.5426;
1078.2000;0.1416;10.5329;
1078.5000;0.1449;10.5353;
1078.8000;0.1408;10.5281;
1079.1000;0.1408;10.5377;
1079.4000;0.1416;10.5353;
1079.7000;0.1408;10.5329;
1080.0000;0.1416;10.5184;
1080.3000;0.1408;10.5064;
1080.6000;0.1416;10.5040;
1080.9000;0.1425;10.5064;
1081.2000;0.1408;10.5016;
1081.5000;0.1400;10.4919;
1081.8000;0.1408;10.4919;
1082.1000;0.1416;10.4991;
1082.4000;0.1441;10.5136;
1082.7000;0.1400;10.5016;
1083.0000;0.1425;10.5040;
1083.3000;0.1433;10.4991;
1083.6000;0.1449;10.5112;
1083.9000;0.1425;10.5088;
1084.2000;0.1408;10.5112;
1084.5000;0.1449;10.5209;
1084.8000;0.1416;10.5160;
1085.1000;0.1400;10.5088;
1085.4000;0.1425;10.5257;
1085.7000;0.1416;10.5233;
1086.0000;0.1416;10.5112;
1086.3000;0.1425;10.5064;
1086.6000;0.1408;10.5016;
1086.9000;0.1441;10.5064;
1087.2000;0.1425;10.5016;
1087.5000;0.1416;10.4967;
1087.8000;0.1416;10.4919;
1088.1000;0.1425;10.4943;
1088.4000;0.1425;10.4871;
1088.7000;0.1433;10.4943;
1089.0000;0.1433;10.4991;
1089.3000;0.1416;10.4919;
1089.6000;0.1449;10.4991;
1089.9000;0.1416;10.4919;
1090.2000;0.1408;10.4823;
1090.5000;0.1400;10.4871;
1090.8000;0.1538;10.5305;
1091.1000;0.1441;10.5088;
1091.4000;0.1416;10.5064;
1091.7000;0.1441;10.5040;
1092.0000;0.1400;10.4967;
1092.3000;0.1441;10.5064;
1092.6000;0.1416;10.4991;
1092.9000;0.1416;10.4991;
1093.2000;0.1408;10.5088;
1093.5000;0.1425;10.5112;
1093.8000;0.1441;10.5209;
1094.1000;0.1408;10.5136;
1094.4000;0.1416;10.5112;
1094.7000;0.1408;10.5112;
1095.0000;0.1425;10.5160;
1095.3000;0.1416;10.5209;
1095.6000;0.1416;10.5233;
1095.9000;0.1449;10.5233;
1096.2000;0.1425;10.5112;
1096.5000;0.1245;10.4726;
1096.8000;0.1416;10.5160;
1097.1000;0.1416;10.5160;
1097.4000;0.1490;10.5329;
1097.7000;0.1400;10.4967;
1098.0000;0.1400;10.4967;
1098.3000;0.1408;10.5040;
1098.6000;0.1498;10.5305;
1098.9000;0.1473;10.5136;
1099.2000;0.1433;10.4991;
1099.5000;0.1433;10.5040;
1099.8000;0.1400;10.4943;
1100.1000;0.1441;10.4991;
1100.4000;0.1425;10.4919;
1100.7000;0.1457;10.4943;
1101.0000;0.1473;10.4991;
1101.3000;0.1441;10.4919;
1101.6000;0.1416;10.4919;
1101.9000;0.1425;10.4919;
1102.2000;0.1457;10.4943;
1102.5000;0.1433;10.4967;
1102.8000;0.1433;10.5016;
1103.1000;0.1416;10.5136;
1103.4000;0.1425;10.5136;
1103.7000;0.1433;10.5209;
1104.0000;0.1408;10.5064;
1104.3000;0.1433;10.5136;
1104.6000;0.1392;10.5064;
1104.9000;0.1416;10.5088;
1105.2000;0.1425;10.5064;
1105.5000;0.1425;10.5040;
1105.8000;0.1359;10.4919;
1106.1000;0.1441;10.5112;
1106.4000;0.1433;10.5064;
1106.7000;0.1416;10.4991;
1107.0000;0.1408;10.4943;
1107.3000;0.1408;10.4967;
1107.6000;0.1425;10.5040;
1107.9000;0.1425;10.5112;
1108.2000;0.1392;10.4991;
1108.5000;0.1425;10.5112;
1108.8000;0.1449;10.5257;
1109.1000;0.1425;10.5136;
1109.4000;0.1416;10.5136;
1109.7000;0.1408;10.5136;
1110.0000;0.1416;10.5233;
1110.3000;0.1441;10.5402;
1110.6000;0.1416;10.5329;
1110.9000;0.1433;10.5305;
1111.2000;0.1425;10.5305;
1111.5000;0.1408;10.5209;
1111.8000;0.1400;10.5160;
1112.1000;0.1433;10.5209;
1112.4000;0.1425;10.5281;
1112.7000;0.1425;10.5281;
1113.0000;0.1425;10.5281;
1113.3000;0.1416;10.5209;
1113.6000;0.1416;10.5233;
1113.9000;0.1416;10.5281;
1114.2000;0.1416;10.5281;
1114.5000;0.1433;10.5353;
1114.8000;0.1416;10.5329;
1115.1000;0.1425;10.5257;
1115.4000;0.1359;10.5040;
1115.7000;0.1408;10.5233;
1116.0000;0.1392;10.5209;
1116.3000;0.1392;10.5184;
1116.6000;0.1408;10.5257;
1116.9000;0.1400;10.5160;
1117.2000;0.1408;10.5136;
1117.5000;0.1441;10.5209;
1117.8000;0.1425;10.5184;
1118.1000;0.1433;10.5281;
1118.4000;0.1449;10.5329;
1118.7000;0.1416;10.5209;
1119.0000;0.1425;10.5329;
1119.3000;0.1408;10.5257;
1119.6000;0.1408;10.5233;
1119.9000;0.1433;10.5305;
1120.2000;0.1416;10.5209;
1120.5000;0.1343;10.4967;
1120.8000;0.1408;10.5160;
1121.1000;0.1465;10.5257;
1121.4000;0.1425;10.5064;
1121.7000;0.1433;10.5160;
1122.0000;0.1384;10.5088;
1122.3000;0.1416;10.5209;
1122.6000;0.1465;10.5305;
1122.9000;0.1433;10.5160;
1123.2000;0.1408;10.5112;
1123.5000;0.1441;10.5160;
1123.8000;0.1425;10.5136;
1124.1000;0.1368;10.4991;
1124.4000;0.1433;10.5064;
1124.7000;0.1368;10.4871;
1125.0000;0.1425;10.4991;
1125.3000;0.1416;10.5040;
1125.6000;0.1408;10.5088;
1125.9000;0.1425;10.5136;
1126.2000;0.1425;10.5184;
1126.5000;0.1416;10.5136;
1126.8000;0.1433;10.5136;
1127.1000;0.1425;10.5160;
1127.4000;0.1408;10.5160;
1127.7000;0.1433;10.5209;
1128.0000;0.1457;10.5257;
1128.3000;0.1416;10.5209;
1128.6000;0.1408;10.5233;
1128.9000;0.1425;10.5281;
1129.2000;0.1425;10.5209;
1129.5000;0.1400;10.5160;
1129.8000;0.1400;10.5209;
1130.1000;0.1400;10.5209;
1130.4000;0.1400;10.5233;
1130.7000;0.1416;10.5257;
1131.0000;0.1425;10.5233;
1131.3000;0.1416;10.5209;
1131.6000;0.1416;10.5160;
1131.9000;0.1408;10.5040;
1132.2000;0.1368;10.4895;
1132.5000;0.1400;10.4991;
1132.8000;0.1400;10.5016;
1133.1000;0.1416;10.5040;
1133.4000;0.1416;10.5064;
1133.7000;0.1416;10.5112;
1134.0000;0.1425;10.5112;
1134.3000;0.1425;10.5112;
1134.6000;0.1425;10.4991;
1134.9000;0.1368;10.4871;
1135.2000;0.1425;10.4991;
1135.5000;0.1408;10.5088;
1135.8000;0.1433;10.5136;
1136.1000;0.1425;10.5136;
1136.4000;0.1408;10.5184;
1136.7000;0.1425;10.5353;
1137.0000;0.1433;10.5402;
1137.3000;0.1425;10.5402;
1137.6000;0.1392;10.5281;
1137.9000;0.1286;10.4967;
1138.2000;0.1425;10.5233;
1138.5000;0.1441;10.5209;
1138.8000;0.1416;10.5064;
1139.1000;0.1416;10.5064;
1139.4000;0.1425;10.5040;
1139.7000;0.1408;10.5112;
1140.0000;0.1425;10.5136;
1140.3000;0.1408;10.5064;
1140.6000;0.1392;10.4967;
1140.9000;0.1425;10.5136;
1141.2000;0.1408;10.5136;
1141.5000;0.1400;10.5112;
1141.8000;0.1416;10.5184;
1142.1000;0.1416;10.5184;
1142.4000;0.1449;10.5233;
1142.7000;0.1416;10.5136;
1143.0000;0.1400;10.5040;
1143.3000;0.1441;10.5136;
1143.6000;0.1425;10.5160;
1143.9000;0.1400;10.5088;
1144.2000;0.1425;10.5088;
1144.5000;0.1416;10.5184;
1144.8000;0.1400;10.5112;
1145.1000;0.1416;10.5136;
1145.4000;0.1416;10.5112;
1145.7000;0.1425;10.5209;
1146.0000;0.1416;10.5160;
1146.3000;0.1416;10.5233;
1146.6000;0.1368;10.5088;
1146.9000;0.1408;10.5112;
1147.2000;0.1425;10.5136;
1147.5000;0.1416;10.5040;
1147.8000;0.1392;10.4967;
1148.1000;0.1416;10.4943;
1148.4000;0.1433;10.4967;
1148.7000;0.1416;10.4967;
1149.0000;0.1400;10.4871;
1149.3000;0.1425;10.4943;
1149.6000;0.1408;10.4919;
1149.9000;0.1465;10.5064;
1150.2000;0.1408;10.4943;
1150.5000;0.1408;10.4919;
1150.8000;0.1465;10.5184;
1151.1000;0.1408;10.4991;
1151.4000;0.1408;10.4943;
1151.7000;0.1416;10.5040;
1152.0000;0.1392;10.5112;
1152.3000;0.1449;10.5209;
1152.6000;0.1425;10.5112;
1152.9000;0.1433;10.4991;
1153.2000;0.1408;10.4967;
1153.5000;0.1416;10.5016;
1153.8000;0.1425;10.5016;
1154.1000;0.1416;10.4991;
1154.4000;0.1449;10.5136;
1154.7000;0.1433;10.5016;
1155.0000;0.1400;10.4943;
1155.3000;0.1416;10.4967;
1155.6000;0.1416;10.4991;
1155.9000;0.1433;10.5040;
1156.2000;0.1433;10.5088;
1156.5000;0.1425;10.5064;
1156.8000;0.1433;10.5112;
1157.1000;0.1416;10.5064;
1157.4000;0.1425;10.5040;
1157.7000;0.1400;10.4991;
1158.0000;0.1457;10.5160;
1158.3000;0.1441;10.5112;
1158.6000;0.1433;10.4967;
1158.9000;0.1441;10.4967;
1159.2000;0.1416;10.4919;
1159.5000;0.1425;10.4943;
1159.8000;0.1425;10.5016;
1160.1000;0.1416;10.5016;
1160.4000;0.1425;10.5064;
1160.7000;0.1416;10.5088;
1161.0000;0.1416;10.5160;
1161.3000;0.1441;10.5184;
1161.6000;0.1416;10.5184;
1161.9000;0.1465;10.5329;
1162.2000;0.1433;10.5281;
1162.5000;0.1433;10.5209;
1162.8000;0.1457;10.5329;
1163.1000;0.1416;10.5112;
1163.4000;0.1457;10.5088;
1163.7000;0.1433;10.5064;
1164.0000;0.1425;10.4991;
1164.3000;0.1425;10.5040;
1164.6000;0.1408;10.5064;
1164.9000;0.1441;10.5136;
1165.2000;0.1425;10.5112;
1165.5000;0.1449;10.5209;
1165.8000;0.1392;10.5040;
1166.1000;0.1425;10.5136;
1166.4000;0.1449;10.5160;
1166.7000;0.1416;10.5112;
1167.0000;0.1416;10.5088;
1167.3000;0.1416;10.5160;
1167.6000;0.1416;10.5160;
1167.9000;0.1490;10.5329;
1168.2000;0.1416;10.5233;
1168.5000;0.1433;10.5281;
1168.8000;0.1416;10.5160;
1169.1000;0.1416;10.5184;
1169.4000;0.1408;10.5040;
1169.7000;0.1408;10.5112;
1170.0000;0.1441;10.5160;
1170.3000;0.1416;10.5088;
1170.6000;0.1425;10.5112;
1170.9000;0.1408;10.5136;
1171.2000;0.1416;10.5088;
1171.5000;0.1384;10.4991;
1171.8000;0.1425;10.5112;
1172.1000;0.1425;10.5064;
1172.4000;0.1416;10.5112;
1172.7000;0.1433;10.5112;
1173.0000;0.1416;10.5040;
1173.3000;0.1433;10.5040;
1173.6000;0.1425;10.5064;
1173.9000;0.1441;10.5088;
1174.2000;0.1425;10.5040;
1174.5000;0.1416;10.5112;
1174.8000;0.1416;10.5112;
1175.1000;0.1425;10.5136;
1175.4000;0.1425;10.5160;
1175.7000;0.1416;10.5160;
1176.0000;0.1408;10.5016;
1176.3000;0.1425;10.5112;
1176.6000;0.1416;10.5160;
1176.9000;0.1433;10.5136;
1177.2000;0.1343;10.4967;
1177.5000;0.1416;10.5160;
1177.8000;0.1441;10.5329;
1178.1000;0.1416;10.5281;
1178.4000;0.1392;10.5233;
1178.7000;0.1408;10.5281;
1179.0000;0.1408;10.5305;
1179.3000;0.1384;10.5184;
1179.6000;0.1416;10.5112;
1179.9000;0.1425;10.5112;
1180.2000;0.1416;10.5184;
1180.5000;0.1433;10.5209;
1180.8000;0.1441;10.5112;
1181.1000;0.1408;10.5112;
1181.4000;0.1416;10.5112;
1181.7000;0.1449;10.5184;
1182.0000;0.1425;10.5160;
1182.3000;0.1416;10.5040;
1182.6000;0.1433;10.4991;
1182.9000;0.1433;10.4991;
1183.2000;0.1425;10.4919;
1183.5000;0.1416;10.4943;
1183.8000;0.1416;10.5040;
1184.1000;0.1416;10.5040;
1184.4000;0.1416;10.5160;
1184.7000;0.1490;10.5329;
1185.0000;0.1433;10.5184;
1185.3000;0.1425;10.5064;
1185.6000;0.1416;10.5064;
1185.9000;0.1392;10.4991;
1186.2000;0.1425;10.5064;
1186.5000;0.1416;10.5112;
1186.8000;0.1408;10.5064;
1187.1000;0.1416;10.5040;
1187.4000;0.1408;10.5136;
1187.7000;0.1425;10.5136;
1188.0000;0.1441;10.5281;
1188.3000;0.1457;10.5353;
1188.6000;0.1433;10.5136;
1188.9000;0.1425;10.5064;
1189.2000;0.1425;10.5040;
1189.5000;0.1408;10.5064;
1189.8000;0.1408;10.5040;
1190.1000;0.1400;10.4991;
1190.4000;0.1416;10.5040;
1190.7000;0.1408;10.4991;
1191.0000;0.1384;10.4967;
1191.3000;0.1400;10.4967;
1191.6000;0.1433;10.4991;
1191.9000;0.1416;10.5040;
1192.2000;0.1416;10.5088;
1192.5000;0.1400;10.5064;
1192.8000;0.1416;10.5233;
1193.1000;0.1400;10.5209;
1193.4000;0.1416;10.5281;
1193.7000;0.1416;10.5353;
1194.0000;0.1425;10.5353;
1194.3000;0.1425;10.5305;
1194.6000;0.1376;10.5305;
1194.9000;0.1400;10.5353;
1195.2000;0.1416;10.5402;
1195.5000;0.1425;10.5305;
1195.8000;0.1425;10.5281;
1196.1000;0.1408;10.5281;
1196.4000;0.1473;10.5498;
1196.7000;0.1400;10.5257;
1197.0000;0.1441;10.5329;
1197.3000;0.1408;10.5160;
1197.6000;0.1408;10.5209;
1197.9000;0.1449;10.5209;
1198.2000;0.1433;10.5184;
1198.5000;0.1408;10.5136;
1198.8000;0.1433;10.5233;
1199.1000;0.1416;10.5160;
1199.4000;0.1425;10.5257;
1199.7000;0.1416;10.5209;
1200.0000;0.1416;10.5209;
1200.3000;0.1416;10.5160;
1200.6000;0.1425;10.5257;
1200.9000;0.1425;10.5305;
1201.2000;0.1408;10.5305;
1201.5000;0.1416;10.5184;
1201.8000;0.1384;10.4991;
1202.1000;0.1408;10.5088;
1202.4000;0.1441;10.5088;
1202.7000;0.1400;10.5136;
1203.0000;0.1400;10.5257;
1203.3000;0.1408;10.5402;
1203.6000;0.1416;10.5377;
1203.9000;0.1408;10.5305;
1204.2000;0.1433;10.5377;
1204.5000;0.1425;10.5353;
1204.8000;0.1425;10.5281;
1205.1000;0.1433;10.5257;
1205.4000;0.1425;10.5233;
1205.7000;0.1473;10.5377;
1206.0000;0.1425;10.5233;
1206.3000;0.1433;10.5257;
1206.6000;0.1425;10.5233;
1206.9000;0.1416;10.5233;
1207.2000;0.1425;10.5233;
1207.5000;0.1408;10.5281;
1207.8000;0.1441;10.5353;
1208.1000;0.1433;10.5353;
1208.4000;0.1514;10.5546;
1208.7000;0.1425;10.5329;
1209.0000;0.1425;10.5377;
1209.3000;0.1400;10.5377;
1209.6000;0.1425;10.5426;
1209.9000;0.1425;10.5426;
1210.2000;0.1425;10.5426;
1210.5000;0.1433;10.5377;
1210.8000;0.1433;10.5281;
1211.1000;0.1400;10.5184;
1211.4000;0.1408;10.5209;
1211.7000;0.1408;10.5160;
1212.0000;0.1416;10.5160;
1212.3000;0.1449;10.5353;
1212.6000;0.1400;10.5184;
1212.9000;0.1441;10.5160;
1213.2000;0.1400;10.5016;
1213.5000;0.1351;10.4823;
1213.8000;0.1433;10.5016;
1214.1000;0.1425;10.4919;
1214.4000;0.1449;10.4967;
1214.7000;0.1449;10.5040;
1215.0000;0.1441;10.5064;
1215.3000;0.1425;10.5136;
1215.6000;0.1416;10.5209;
1215.9000;0.1416;10.5305;
1216.2000;0.1416;10.5305;
1216.5000;0.1384;10.5184;
1216.8000;0.1408;10.5064;
1217.1000;0.1319;10.4774;
1217.4000;0.1441;10.5088;
1217.7000;0.1425;10.5184;
1218.0000;0.1400;10.5184;
1218.3000;0.1416;10.5209;
1218.6000;0.1400;10.5064;
1218.9000;0.1441;10.5233;
1219.2000;0.1416;10.5184;
1219.5000;0.1433;10.5257;
1219.8000;0.1416;10.5329;
1220.1000;0.1433;10.5305;
1220.4000;0.1441;10.5136;
1220.7000;0.1416;10.5040;
1221.0000;0.1416;10.4967;
1221.3000;0.1441;10.5064;
1221.6000;0.1441;10.5184;
1221.9000;0.1392;10.5160;
1222.2000;0.1425;10.5233;
1222.5000;0.1465;10.5377;
1222.8000;0.1416;10.5209;
1223.1000;0.1408;10.5184;
1223.4000;0.1400;10.5136;
1223.7000;0.1392;10.5088;
1224.0000;0.1441;10.5257;
1224.3000;0.1384;10.5112;
1224.6000;0.1408;10.5136;
1224.9000;0.1416;10.5160;
1225.2000;0.1416;10.5257;
1225.5000;0.1416;10.5305;
1225.8000;0.1425;10.5377;
1226.1000;0.1416;10.5377;
1226.4000;0.1433;10.5353;
1226.7000;0.1400;10.5160;
1227.0000;0.1425;10.5281;
1227.3000;0.1302;10.4919;
1227.6000;0.1408;10.5209;
1227.9000;0.1425;10.5305;
1228.2000;0.1416;10.5257;
1228.5000;0.1425;10.5377;
1228.8000;0.1400;10.5233;
1229.1000;0.1425;10.5305;
1229.4000;0.1408;10.5257;
1229.7000;0.1400;10.5281;
1230.0000;0.1416;10.5353;
1230.3000;0.1433;10.5402;
1230.6000;0.1441;10.5474;
1230.9000;0.1457;10.5522;
1231.2000;0.1408;10.5377;
1231.5000;0.1433;10.5402;
1231.8000;0.1425;10.5426;
1232.1000;0.1408;10.5377;
1232.4000;0.1457;10.5546;
1232.7000;0.1416;10.5426;
1233.0000;0.1441;10.5353;
1233.3000;0.1433;10.5353;
1233.6000;0.1416;10.5305;
1233.9000;0.1441;10.5377;
1234.2000;0.1416;10.5281;
1234.5000;0.1392;10.5233;
1234.8000;0.1327;10.5136;
1235.1000;0.1425;10.5426;
1235.4000;0.1327;10.5160;
1235.7000;0.1416;10.5402;
1236.0000;0.1433;10.5474;
1236.3000;0.1384;10.5257;
1236.6000;0.1425;10.5329;
1236.9000;0.1433;10.5377;
1237.2000;0.1425;10.5353;
1237.5000;0.1384;10.5184;
1237.8000;0.1408;10.5305;
1238.1000;0.1425;10.5209;
1238.4000;0.1416;10.5136;
1238.7000;0.1425;10.5136;
1239.0000;0.1416;10.5305;
1239.3000;0.1425;10.5305;
1239.6000;0.1392;10.5184;
1239.9000;0.1400;10.5257;
1240.2000;0.1416;10.5377;
1240.5000;0.1408;10.5257;
1240.8000;0.1416;10.5184;
1241.1000;0.1416;10.5160;
1241.4000;0.1425;10.5184;
1241.7000;0.1425;10.5016;
1242.0000;0.1425;10.4871;
1242.3000;0.1392;10.4871;
1242.6000;0.1408;10.4895;
1242.9000;0.1441;10.5016;
1243.2000;0.1425;10.5064;
1243.5000;0.1416;10.5064;
1243.8000;0.1400;10.5040;
1244.1000;0.1400;10.5040;
1244.4000;0.1416;10.5136;
1244.7000;0.1400;10.5088;
1245.0000;0.1416;10.5160;
1245.3000;0.1416;10.5281;
1245.6000;0.1400;10.5305;
1245.9000;0.1425;10.5353;
1246.2000;0.1547;10.5667;
1246.5000;0.1416;10.5377;
1246.8000;0.1416;10.5353;
1247.1000;0.1433;10.5474;
1247.4000;0.1416;10.5450;
1247.7000;0.1384;10.5257;
1248.0000;0.1408;10.5402;
1248.3000;0.1416;10.5377;
1248.6000;0.1416;10.5353;
1248.9000;0.1416;10.5305;
1249.2000;0.1522;10.5594;
1249.5000;0.1425;10.5281;
1249.8000;0.1425;10.5353;
1250.1000;0.1425;10.5353;
1250.4000;0.1441;10.5353;
1250.7000;0.1392;10.5209;
1251.0000;0.1457;10.5402;
1251.3000;0.1433;10.5281;
1251.6000;0.1433;10.5353;
1251.9000;0.1392;10.5233;
1252.2000;0.1449;10.5281;
1252.5000;0.1400;10.5136;
1252.8000;0.1425;10.5305;
1253.1000;0.1416;10.5329;
1253.4000;0.1416;10.5305;
1253.7000;0.1416;10.5281;
1254.0000;0.1384;10.5209;
1254.3000;0.1416;10.5329;
1254.6000;0.1408;10.5377;
1254.9000;0.1376;10.5257;
1255.2000;0.1416;10.5257;
1255.5000;0.1416;10.5209;
1255.8000;0.1425;10.5233;
1256.1000;0.1368;10.5088;
1256.4000;0.1425;10.5233;
1256.7000;0.1425;10.5233;
1257.0000;0.1408;10.5088;
1257.3000;0.1416;10.5040;
1257.6000;0.1416;10.5016;
1257.9000;0.1408;10.4991;
1258.2000;0.1416;10.4991;
1258.5000;0.1416;10.4991;
1258.8000;0.1392;10.5016;
1259.1000;0.1408;10.5016;
1259.4000;0.1400;10.5040;
1259.7000;0.1416;10.5184;
1260.0000;0.1425;10.5305;
1260.3000;0.1457;10.5474;
1260.6000;0.1425;10.5353;
1260.9000;0.1392;10.5209;
1261.2000;0.1416;10.5233;
1261.5000;0.1449;10.5305;
1261.8000;0.1433;10.5329;
1262.1000;0.1441;10.5329;
1262.4000;0.1433;10.5281;
1262.7000;0.1416;10.5377;
1263.0000;0.1408;10.5329;
1263.3000;0.1425;10.5257;
1263.6000;0.1449;10.5257;
1263.9000;0.1425;10.5281;
1264.2000;0.1400;10.5257;
1264.5000;0.1441;10.5377;
1264.8000;0.1457;10.5450;
1265.1000;0.1425;10.5377;
1265.4000;0.1433;10.5329;
1265.7000;0.1425;10.5305;
1266.0000;0.1408;10.5257;
1266.3000;0.1416;10.5209;
1266.6000;0.1400;10.5184;
1266.9000;0.1449;10.5281;
1267.2000;0.1433;10.5377;
1267.5000;0.1408;10.5233;
1267.8000;0.1416;10.5233;
1268.1000;0.1408;10.5257;
1268.4000;0.1425;10.5329;
1268.7000;0.1408;10.5257;
1269.0000;0.1408;10.5281;
1269.3000;0.1416;10.5257;
1269.6000;0.1433;10.5329;
1269.9000;0.1473;10.5426;
1270.2000;0.1392;10.5184;
1270.5000;0.1400;10.5305;
1270.8000;0.1433;10.5353;
1271.1000;0.1425;10.5329;
1271.4000;0.1408;10.5257;
1271.7000;0.1400;10.5257;
1272.0000;0.1425;10.5353;
1272.3000;0.1416;10.5353;
1272.6000;0.1441;10.5426;
1272.9000;0.1311;10.5088;
1273.2000;0.1408;10.5329;
1273.5000;0.1425;10.5305;
1273.8000;0.1416;10.5257;
1274.1000;0.1416;10.5233;
1274.4000;0.1441;10.5329;
1274.7000;0.1433;10.5281;
1275.0000;0.1433;10.5353;
1275.3000;0.1416;10.5257;
1275.6000;0.1433;10.5257;
1275.9000;0.1416;10.5209;
1276.2000;0.1425;10.5233;
1276.5000;0.1433;10.5257;
1276.8000;0.1384;10.5257;
1277.1000;0.1457;10.5353;
1277.4000;0.1416;10.5233;
1277.7000;0.1400;10.5184;
1278.0000;0.1392;10.5160;
1278.3000;0.1433;10.5184;
1278.6000;0.1441;10.5184;
1278.9000;0.1473;10.5305;
1279.2000;0.1392;10.5160;
1279.5000;0.1408;10.5257;
1279.8000;0.1416;10.5329;
1280.1000;0.1433;10.5281;
1280.4000;0.1441;10.5305;
1280.7000;0.1408;10.5257;
1281.0000;0.1416;10.5209;
1281.3000;0.1408;10.5257;
1281.6000;0.1400;10.5281;
1281.9000;0.1433;10.5329;
1282.2000;0.1425;10.5377;
1282.5000;0.1449;10.5353;
1282.8000;0.1441;10.5233;
1283.1000;0.1416;10.5209;
1283.4000;0.1425;10.5305;
1283.7000;0.1425;10.5257;
1284.0000;0.1441;10.5281;
1284.3000;0.1408;10.5209;
1284.6000;0.1416;10.5305;
1284.9000;0.1408;10.5257;
1285.2000;0.1425;10.5329;
1285.5000;0.1408;10.5305;
1285.8000;0.1416;10.5281;
1286.1000;0.1408;10.5209;
1286.4000;0.1400;10.5160;
1286.7000;0.1433;10.5184;
1287.0000;0.1294;10.4799;
1287.3000;0.1425;10.5160;
1287.6000;0.1425;10.5136;
1287.9000;0.1425;10.5184;
1288.2000;0.1416;10.5088;
1288.5000;0.1425;10.5088;
1288.8000;0.1473;10.5209;
1289.1000;0.1433;10.5184;
1289.4000;0.1392;10.5136;
1289.7000;0.1376;10.5112;
1290.0000;0.1416;10.5160;
1290.3000;0.1433;10.5257;
1290.6000;0.1392;10.5209;
1290.9000;0.1416;10.5160;
1291.2000;0.1416;10.5112;
1291.5000;0.1433;10.5112;
1291.8000;0.1416;10.5088;
1292.1000;0.1425;10.5088;
1292.4000;0.1392;10.5016;
1292.7000;0.1384;10.5016;
1293.0000;0.1441;10.5209;
1293.3000;0.1400;10.5088;
1293.6000;0.1392;10.5064;
1293.9000;0.1425;10.5064;
1294.2000;0.1416;10.4967;
1294.5000;0.1425;10.4991;
1294.8000;0.1408;10.5040;
1295.1000;0.1416;10.5112;
1295.4000;0.1441;10.5160;
1295.7000;0.1376;10.4943;
1296.0000;0.1400;10.4991;
1296.3000;0.1368;10.4895;
1296.6000;0.1408;10.5040;
1296.9000;0.1376;10.4967;
1297.2000;0.1376;10.4991;
1297.5000;0.1416;10.5088;
1297.8000;0.1408;10.5160;
1298.1000;0.1433;10.5257;
1298.4000;0.1433;10.5233;
1298.7000;0.1416;10.5112;
1299.0000;0.1457;10.5233;
1299.3000;0.1490;10.5353;
1299.6000;0.1408;10.5088;
1299.9000;0.1416;10.5112;
1300.2000;0.1425;10.5184;
1300.5000;0.1457;10.5233;
1300.8000;0.1425;10.5233;
1301.1000;0.1425;10.5233;
1301.4000;0.1400;10.5088;
1301.7000;0.1416;10.5136;
1302.0000;0.1433;10.5064;
1302.3000;0.1433;10.5160;
1302.6000;0.1441;10.5209;
1302.9000;0.1457;10.5305;
1303.2000;0.1433;10.5281;
1303.5000;0.1400;10.5184;
1303.8000;0.1376;10.5136;
1304.1000;0.1425;10.5257;
1304.4000;0.1449;10.5281;
1304.7000;0.1408;10.5184;
1305.0000;0.1408;10.5160;
1305.3000;0.1416;10.5136;
1305.6000;0.1425;10.5160;
1305.9000;0.1433;10.5112;
1306.2000;0.1441;10.5136;
1306.5000;0.1416;10.5088;
1306.8000;0.1425;10.5136;
1307.1000;0.1433;10.5112;
1307.4000;0.1425;10.5160;
1307.7000;0.1425;10.5136;
1308.0000;0.1433;10.5112;
1308.3000;0.1433;10.5040;
1308.6000;0.1425;10.4967;
1308.9000;0.1392;10.4871;
1309.2000;0.1400;10.4967;
1309.5000;0.1425;10.5088;
1309.8000;0.1416;10.5112;
1310.1000;0.1457;10.5160;
1310.4000;0.1359;10.4919;
1310.7000;0.1408;10.5040;
1311.0000;0.1400;10.4991;
1311.3000;0.1416;10.5040;
1311.6000;0.1408;10.5064;
1311.9000;0.1408;10.5064;
1312.2000;0.1416;10.5112;
1312.5000;0.1425;10.5160;
1312.8000;0.1433;10.5209;
1313.1000;0.1433;10.5209;
1313.4000;0.1457;10.5233;
1313.7000;0.1433;10.5088;
1314.0000;0.1425;10.5136;
1314.3000;0.1433;10.5184;
1314.6000;0.1522;10.5450;
1314.9000;0.1416;10.5112;
1315.2000;0.1408;10.5016;
1315.5000;0.1425;10.5088;
1315.8000;0.1449;10.5160;
1316.1000;0.1408;10.5040;
1316.4000;0.1441;10.5184;
1316.7000;0.1416;10.5209;
1317.0000;0.1408;10.5209;
1317.3000;0.1433;10.5353;
1317.6000;0.1416;10.5305;
1317.9000;0.1425;10.5377;
1318.2000;0.1449;10.5426;
1318.5000;0.1441;10.5570;
1318.8000;0.1425;10.5474;
1319.1000;0.1441;10.5426;
1319.4000;0.1392;10.5160;
1319.7000;0.1522;10.5474;
1320.0000;0.1433;10.5209;
1320.3000;0.1408;10.5112;
1320.6000;0.1433;10.5136;
1320.9000;0.1425;10.5088;
1321.2000;0.1416;10.5064;
1321.5000;0.1433;10.5040;
1321.8000;0.1425;10.5064;
1322.1000;0.1433;10.5136;
1322.4000;0.1400;10.5160;
1322.7000;0.1408;10.5184;
1323.0000;0.1343;10.4967;
1323.3000;0.1481;10.5281;
1323.6000;0.1441;10.5209;
1323.9000;0.1416;10.5064;
1324.2000;0.1392;10.5016;
1324.5000;0.1408;10.5016;
1324.8000;0.1408;10.5160;
1325.1000;0.1408;10.5184;
1325.4000;0.1392;10.5136;
1325.7000;0.1416;10.5136;
1326.0000;0.1433;10.5136;
1326.3000;0.1400;10.5112;
1326.6000;0.1425;10.5209;
1326.9000;0.1376;10.5136;
1327.2000;0.1416;10.5112;
1327.5000;0.1408;10.5088;
1327.8000;0.1425;10.5160;
1328.1000;0.1416;10.5184;
1328.4000;0.1425;10.5136;
1328.7000;0.1400;10.5136;
1329.0000;0.1384;10.5088;
1329.3000;0.1368;10.5040;
1329.6000;0.1408;10.5112;
1329.9000;0.1416;10.5088;
1330.2000;0.1416;10.5040;
1330.5000;0.1302;10.4750;
1330.8000;0.1392;10.4919;
1331.1000;0.1416;10.5040;
1331.4000;0.1400;10.5016;
1331.7000;0.1408;10.4991;
1332.0000;0.1433;10.5040;
1332.3000;0.1408;10.4943;
1332.6000;0.1441;10.5136;
1332.9000;0.1441;10.5184;
1333.2000;0.1425;10.5184;
1333.5000;0.1433;10.5257;
1333.8000;0.1368;10.4991;
1334.1000;0.1408;10.5112;
1334.4000;0.1400;10.5136;
1334.7000;0.1449;10.5209;
1335.0000;0.1465;10.5233;
1335.3000;0.1425;10.5209;
1335.6000;0.1408;10.5112;
1335.9000;0.1416;10.5160;
1336.2000;0.1416;10.5112;
1336.5000;0.1433;10.5016;
1336.8000;0.1408;10.4967;
1337.1000;0.1400;10.4943;
1337.4000;0.1425;10.4991;
1337.7000;0.1425;10.5016;
1338.0000;0.1408;10.4991;
1338.3000;0.1408;10.5040;
1338.6000;0.1449;10.5184;
1338.9000;0.1425;10.5209;
1339.2000;0.1408;10.5184;
1339.5000;0.1408;10.5233;
1339.8000;0.1425;10.5426;
1340.1000;0.1416;10.5402;
1340.4000;0.1425;10.5377;
1340.7000;0.1384;10.5305;
1341.0000;0.1416;10.5353;
1341.3000;0.1416;10.5329;
1341.6000;0.1416;10.5305;
1341.9000;0.1449;10.5377;
1342.2000;0.1425;10.5329;
1342.5000;0.1433;10.5353;
1342.8000;0.1441;10.5450;
1343.1000;0.1408;10.5281;
1343.4000;0.1384;10.5136;
1343.7000;0.1433;10.5281;
1344.0000;0.1441;10.5257;
1344.3000;0.1433;10.5209;
1344.6000;0.1433;10.5233;
1344.9000;0.1416;10.5281;
1345.2000;0.1425;10.5281;
1345.5000;0.1433;10.5281;
1345.8000;0.1457;10.5402;
1346.1000;0.1392;10.5281;
1346.4000;0.1425;10.5377;
1346.7000;0.1433;10.5402;
1347.0000;0.1392;10.5329;
1347.3000;0.1416;10.5402;
1347.6000;0.1425;10.5353;
1347.9000;0.1416;10.5281;
1348.2000;0.1368;10.5209;
1348.5000;0.1416;10.5426;
1348.8000;0.1408;10.5402;
1349.1000;0.1376;10.5353;
1349.4000;0.1384;10.5281;
1349.7000;0.1408;10.5329;
1350.0000;0.1425;10.5377;
1350.3000;0.1416;10.5377;
1350.6000;0.1449;10.5402;
1350.9000;0.1425;10.5353;
1351.2000;0.1425;10.5402;
1351.5000;0.1416;10.5377;
1351.8000;0.1449;10.5377;
1352.1000;0.1408;10.5209;
1352.4000;0.1408;10.5281;
1352.7000;0.1433;10.5377;
1353.0000;0.1400;10.5353;
1353.3000;0.1425;10.5402;
1353.6000;0.1416;10.5305;
1353.9000;0.1433;10.5281;
1354.2000;0.1416;10.5209;
1354.5000;0.1384;10.5184;
1354.8000;0.1425;10.5329;
1355.1000;0.1433;10.5353;
1355.4000;0.1416;10.5281;
1355.7000;0.1408;10.5257;
1356.0000;0.1425;10.5281;
1356.3000;0.1425;10.5281;
1356.6000;0.1433;10.5305;
1356.9000;0.1425;10.5329;
1357.2000;0.1408;10.5305;
1357.5000;0.1408;10.5305;
1357.8000;0.1433;10.5353;
1358.1000;0.1425;10.5281;
1358.4000;0.1433;10.5281;
1358.7000;0.1408;10.5184;
1359.0000;0.1425;10.5184;
1359.3000;0.1416;10.5160;
1359.6000;0.1433;10.5209;
1359.9000;0.1408;10.5209;
1360.2000;0.1425;10.5184;
1360.5000;0.1400;10.5160;
1360.8000;0.1425;10.5184;
1361.1000;0.1408;10.5112;
1361.4000;0.1384;10.5064;
1361.7000;0.1400;10.5112;
1362.0000;0.1433;10.5305;
1362.3000;0.1425;10.5305;
1362.6000;0.1457;10.5305;
1362.9000;0.1425;10.5233;
1363.2000;0.1433;10.5329;
1363.5000;0.1425;10.5353;
1363.8000;0.1368;10.5184;
1364.1000;0.1433;10.5281;
1364.4000;0.1416;10.5233;
1364.7000;0.1319;10.5112;
1365.0000;0.1416;10.5305;
1365.3000;0.1433;10.5353;
1365.6000;0.1473;10.5474;
1365.9000;0.1416;10.5377;
1366.2000;0.1416;10.5402;
1366.5000;0.1433;10.5426;
1366.8000;0.1425;10.5377;
1367.1000;0.1441;10.5353;
1367.4000;0.1408;10.5281;
1367.7000;0.1433;10.5281;
1368.0000;0.1425;10.5353;
1368.3000;0.1425;10.5257;
1368.6000;0.1408;10.5257;
1368.9000;0.1441;10.5257;
1369.2000;0.1416;10.5281;
1369.5000;0.1441;10.5257;
1369.8000;0.1376;10.5088;
1370.1000;0.1449;10.5233;
1370.4000;0.1416;10.5112;
1370.7000;0.1449;10.5160;
1371.0000;0.1376;10.5112;
1371.3000;0.1408;10.5209;
1371.6000;0.1425;10.5305;
1371.9000;0.1408;10.5281;
1372.2000;0.1408;10.5257;
1372.5000;0.1408;10.5209;
1372.8000;0.1425;10.5184;
1373.1000;0.1392;10.5088;
1373.4000;0.1425;10.5209;
1373.7000;0.1433;10.5281;
1374.0000;0.1441;10.5233;
1374.3000;0.1408;10.5184;
1374.6000;0.1441;10.5257;
1374.9000;0.1416;10.5088;
1375.2000;0.1425;10.5136;
1375.5000;0.1302;10.4823;
1375.8000;0.1433;10.5184;
1376.1000;0.1408;10.5088;
1376.4000;0.1425;10.5136;
1376.7000;0.1425;10.5184;
1377.0000;0.1416;10.5209;
1377.3000;0.1408;10.5233;
1377.6000;0.1400;10.5209;
1377.9000;0.1392;10.5257;
1378.2000;0.1425;10.5426;
1378.5000;0.1392;10.5377;
1378.8000;0.1425;10.5402;
1379.1000;0.1408;10.5522;
1379.4000;0.1408;10.5498;
1379.7000;0.1425;10.5570;
1380.0000;0.1351;10.5233;
1380.3000;0.1425;10.5498;
1380.6000;0.1465;10.5546;
1380.9000;0.1441;10.5402;
1381.2000;0.1408;10.5426;
1381.5000;0.1392;10.5257;
1381.8000;0.1416;10.5233;
1382.1000;0.1400;10.5209;
1382.4000;0.1433;10.5257;
1382.7000;0.1416;10.5257;
1383.0000;0.1416;10.5233;
1383.3000;0.1433;10.5209;
1383.6000;0.1408;10.5112;
1383.9000;0.1400;10.5088;
1384.2000;0.1416;10.5088;
1384.5000;0.1425;10.5160;
1384.8000;0.1433;10.5136;
1385.1000;0.1425;10.5064;
1385.4000;0.1416;10.5112;
1385.7000;0.1416;10.5064;
1386.0000;0.1384;10.5016;
1386.3000;0.1425;10.5209;
1386.6000;0.1408;10.5160;
1386.9000;0.1416;10.5088;
1387.2000;0.1425;10.5160;
1387.5000;0.1433;10.5112;
1387.8000;0.1384;10.5016;
1388.1000;0.1335;10.4871;
1388.4000;0.1392;10.5112;
1388.7000;0.1376;10.5040;
1389.0000;0.1538;10.5474;
1389.3000;0.1416;10.5088;
1389.6000;0.1408;10.5040;
1389.9000;0.1433;10.5160;
1390.2000;0.1425;10.5040;
1390.5000;0.1376;10.4991;
1390.8000;0.1433;10.5112;
1391.1000;0.1416;10.5016;
1391.4000;0.1433;10.5040;
1391.7000;0.1425;10.4943;
1392.0000;0.1433;10.4919;
1392.3000;0.1465;10.4991;
1392.6000;0.1408;10.4967;
1392.9000;0.1416;10.4919;
1393.2000;0.1400;10.4774;
1393.5000;0.1449;10.4871;
1393.8000;0.1433;10.4871;
1394.1000;0.1416;10.4943;
1394.4000;0.1563;10.5377;
1394.7000;0.1376;10.4919;
1395.0000;0.1368;10.4943;
1395.3000;0.1441;10.5112;
1395.6000;0.1400;10.5040;
1395.9000;0.1408;10.5040;
1396.2000;0.1433;10.5112;
1396.5000;0.1302;10.4823;
1396.8000;0.1408;10.5136;
1397.1000;0.1359;10.5016;
1397.4000;0.1498;10.5281;
1397.7000;0.1425;10.5016;
1398.0000;0.1335;10.4750;
1398.3000;0.1416;10.4991;
1398.6000;0.1327;10.4750;
1398.9000;0.1498;10.5233;
1399.2000;0.1425;10.5064;
1399.5000;0.1457;10.5136;
1399.8000;0.1441;10.5112;
