time/ms;Fluo/V;P700 deltaI/I x10³;
-199.8000;0.1490;10.5305;
-199.5000;0.1481;10.5209;
-199.2000;0.1449;10.5112;
-198.9000;0.1481;10.5209;
-198.6000;0.1481;10.5184;
-198.3000;0.1498;10.5112;
-198.0000;0.1498;10.5112;
-197.7000;0.1465;10.4991;
-197.4000;0.1481;10.4919;
-197.1000;0.1473;10.4943;
-196.8000;0.1506;10.5064;
-196.5000;0.1481;10.4991;
-196.2000;0.1498;10.4967;
-195.9000;0.1490;10.5064;
-195.6000;0.1506;10.5088;
-195.3000;0.1498;10.5112;
-195.0000;0.1498;10.5040;
-194.7000;0.1481;10.4967;
-194.4000;0.1481;10.5064;
-194.1000;0.1449;10.4991;
-193.8000;0.1481;10.5088;
-193.5000;0.1490;10.5136;
-193.2000;0.1481;10.5160;
-192.9000;0.1490;10.5209;
-192.6000;0.1481;10.5184;
-192.3000;0.1490;10.5233;
-192.0000;0.1490;10.5257;
-191.7000;0.1506;10.5184;
-191.4000;0.1473;10.5136;
-191.1000;0.1490;10.5160;
-190.8000;0.1498;10.5209;
-190.5000;0.1579;10.5522;
-190.2000;0.1490;10.5377;
-189.9000;0.1490;10.5377;
-189.6000;0.1449;10.5257;
-189.3000;0.1498;10.5353;
-189.0000;0.1481;10.5281;
-188.7000;0.1465;10.5233;
-188.4000;0.1481;10.5305;
-188.1000;0.1490;10.5377;
-187.8000;0.1481;10.5281;
-187.5000;0.1522;10.5450;
-187.2000;0.1498;10.5377;
-186.9000;0.1490;10.5353;
-186.6000;0.1408;10.5160;
-186.3000;0.1473;10.5353;
-186.0000;0.1498;10.5450;
-185.7000;0.1490;10.5450;
-185.4000;0.1555;10.5570;
-185.1000;0.1490;10.5305;
-184.8000;0.1473;10.5281;
-184.5000;0.1506;10.5377;
-184.2000;0.1514;10.5329;
-183.9000;0.1473;10.5281;
-183.6000;0.1481;10.5305;
-183.3000;0.1481;10.5329;
-183.0000;0.1481;10.5353;
-182.7000;0.1481;10.5377;
-182.4000;0.1457;10.5281;
-182.1000;0.1498;10.5426;
-181.8000;0.1490;10.5377;
-181.5000;0.1490;10.5377;
-181.2000;0.1481;10.5305;
-180.9000;0.1490;10.5233;
-180.6000;0.1465;10.5209;
-180.3000;0.1498;10.5281;
-180.0000;0.1457;10.5160;
-179.7000;0.1473;10.5209;
-179.4000;0.1506;10.5184;
-179.1000;0.1490;10.5209;
-178.8000;0.1490;10.5209;
-178.5000;0.1481;10.5184;
-178.2000;0.1490;10.5233;
-177.9000;0.1498;10.5233;
-177.6000;0.1473;10.5184;
-177.3000;0.1490;10.5233;
-177.0000;0.1465;10.5305;
-176.7000;0.1473;10.5402;
-176.4000;0.1514;10.5474;
-176.1000;0.1490;10.5450;
-175.8000;0.1498;10.5450;
-175.5000;0.1498;10.5426;
-175.2000;0.1473;10.5402;
-174.9000;0.1490;10.5426;
-174.6000;0.1490;10.5426;
-174.3000;0.1473;10.5402;
-174.0000;0.1498;10.5426;
-173.7000;0.1473;10.5377;
-173.4000;0.1490;10.5450;
-173.1000;0.1506;10.5402;
-172.8000;0.1490;10.5329;
-172.5000;0.1506;10.5402;
-172.2000;0.1392;10.5064;
-171.9000;0.1473;10.5305;
-171.6000;0.1481;10.5305;
-171.3000;0.1490;10.5329;
-171.0000;0.1481;10.5305;
-170.7000;0.1490;10.5257;
-170.4000;0.1506;10.5353;
-170.1000;0.1490;10.5329;
-169.8000;0.1481;10.5426;
-169.5000;0.1498;10.5498;
-169.2000;0.1481;10.5402;
-168.9000;0.1490;10.5426;
-168.6000;0.1457;10.5281;
-168.3000;0.1465;10.5233;
-168.0000;0.1481;10.5209;
-167.7000;0.1490;10.5402;
-167.4000;0.1538;10.5546;
-167.1000;0.1498;10.5426;
-166.8000;0.1473;10.5402;
-166.5000;0.1449;10.5426;
-166.2000;0.1498;10.5498;
-165.9000;0.1490;10.5353;
-165.6000;0.1514;10.5377;
-165.3000;0.1473;10.5353;
-165.0000;0.1481;10.5329;
-164.7000;0.1457;10.5257;
-164.4000;0.1506;10.5353;
-164.1000;0.1481;10.5281;
-163.8000;0.1481;10.5329;
-163.5000;0.1384;10.5040;
-163.2000;0.1522;10.5305;
-162.9000;0.1473;10.5329;
-162.6000;0.1473;10.5329;
-162.3000;0.1481;10.5402;
-162.0000;0.1514;10.5498;
-161.7000;0.1465;10.5329;
-161.4000;0.1473;10.5353;
-161.1000;0.1490;10.5402;
-160.8000;0.1473;10.5450;
-160.5000;0.1498;10.5474;
-160.2000;0.1506;10.5402;
-159.9000;0.1473;10.5305;
-159.6000;0.1481;10.5257;
-159.3000;0.1498;10.5329;
-159.0000;0.1481;10.5257;
-158.7000;0.1498;10.5353;
-158.4000;0.1498;10.5402;
-158.1000;0.1490;10.5329;
-157.8000;0.1473;10.5353;
-157.5000;0.1498;10.5402;
-157.2000;0.1481;10.5353;
-156.9000;0.1506;10.5377;
-156.6000;0.1481;10.5377;
-156.3000;0.1490;10.5474;
-156.0000;0.1481;10.5426;
-155.7000;0.1481;10.5377;
-155.4000;0.1490;10.5353;
-155.1000;0.1587;10.5643;
-154.8000;0.1490;10.5474;
-154.5000;0.1473;10.5426;
-154.2000;0.1481;10.5402;
-153.9000;0.1473;10.5377;
-153.6000;0.1473;10.5257;
-153.3000;0.1465;10.5305;
-153.0000;0.1490;10.5426;
-152.7000;0.1481;10.5402;
-152.4000;0.1498;10.5402;
-152.1000;0.1490;10.5402;
-151.8000;0.1498;10.5305;
-151.5000;0.1481;10.5353;
-151.2000;0.1498;10.5353;
-150.9000;0.1481;10.5305;
-150.6000;0.1579;10.5522;
-150.3000;0.1481;10.5233;
-150.0000;0.1563;10.5450;
-149.7000;0.1514;10.5305;
-149.4000;0.1514;10.5281;
-149.1000;0.1481;10.5184;
-148.8000;0.1481;10.5209;
-148.5000;0.1490;10.5281;
-148.2000;0.1522;10.5305;
-147.9000;0.1506;10.5329;
-147.6000;0.1498;10.5257;
-147.3000;0.1522;10.5281;
-147.0000;0.1465;10.5160;
-146.7000;0.1498;10.5233;
-146.4000;0.1498;10.5209;
-146.1000;0.1522;10.5233;
-145.8000;0.1506;10.5329;
-145.5000;0.1368;10.5040;
-145.2000;0.1490;10.5402;
-144.9000;0.1498;10.5426;
-144.6000;0.1522;10.5450;
-144.3000;0.1473;10.5281;
-144.0000;0.1473;10.5305;
-143.7000;0.1490;10.5377;
-143.4000;0.1481;10.5377;
-143.1000;0.1498;10.5402;
-142.8000;0.1498;10.5402;
-142.5000;0.1481;10.5377;
-142.2000;0.1473;10.5377;
-141.9000;0.1490;10.5450;
-141.6000;0.1481;10.5474;
-141.3000;0.1490;10.5450;
-141.0000;0.1498;10.5498;
-140.7000;0.1481;10.5426;
-140.4000;0.1530;10.5498;
-140.1000;0.1465;10.5353;
-139.8000;0.1400;10.5184;
-139.5000;0.1473;10.5305;
-139.2000;0.1481;10.5281;
-138.9000;0.1481;10.5257;
-138.6000;0.1498;10.5305;
-138.3000;0.1473;10.5257;
-138.0000;0.1481;10.5281;
-137.7000;0.1473;10.5257;
-137.4000;0.1457;10.5257;
-137.1000;0.1481;10.5353;
-136.8000;0.1530;10.5474;
-136.5000;0.1481;10.5329;
-136.2000;0.1449;10.5281;
-135.9000;0.1465;10.5305;
-135.6000;0.1481;10.5353;
-135.3000;0.1498;10.5522;
-135.0000;0.1481;10.5498;
-134.7000;0.1490;10.5498;
-134.4000;0.1498;10.5546;
-134.1000;0.1473;10.5450;
-133.8000;0.1490;10.5426;
-133.5000;0.1498;10.5377;
-133.2000;0.1473;10.5353;
-132.9000;0.1490;10.5426;
-132.6000;0.1473;10.5402;
-132.3000;0.1481;10.5402;
-132.0000;0.1481;10.5450;
-131.7000;0.1498;10.5498;
-131.4000;0.1490;10.5474;
-131.1000;0.1490;10.5522;
-130.8000;0.1595;10.5812;
-130.5000;0.1481;10.5474;
-130.2000;0.1441;10.5377;
-129.9000;0.1481;10.5474;
-129.6000;0.1490;10.5353;
-129.3000;0.1506;10.5450;
-129.0000;0.1473;10.5353;
-128.7000;0.1473;10.5329;
-128.4000;0.1506;10.5377;
-128.1000;0.1473;10.5329;
-127.8000;0.1490;10.5377;
-127.5000;0.1465;10.5377;
-127.2000;0.1490;10.5474;
-126.9000;0.1481;10.5426;
-126.6000;0.1481;10.5450;
-126.3000;0.1473;10.5402;
-126.0000;0.1465;10.5426;
-125.7000;0.1457;10.5329;
-125.4000;0.1481;10.5426;
-125.1000;0.1465;10.5353;
-124.8000;0.1522;10.5546;
-124.5000;0.1522;10.5474;
-124.2000;0.1473;10.5402;
-123.9000;0.1481;10.5426;
-123.6000;0.1473;10.5377;
-123.3000;0.1465;10.5353;
-123.0000;0.1498;10.5377;
-122.7000;0.1473;10.5281;
-122.4000;0.1465;10.5305;
-122.1000;0.1473;10.5281;
-121.8000;0.1465;10.5233;
-121.5000;0.1481;10.5233;
-121.2000;0.1490;10.5305;
-120.9000;0.1433;10.5209;
-120.6000;0.1441;10.5329;
-120.3000;0.1522;10.5546;
-120.0000;0.1481;10.5498;
-119.7000;0.1481;10.5498;
-119.4000;0.1490;10.5546;
-119.1000;0.1490;10.5450;
-118.8000;0.1498;10.5329;
-118.5000;0.1490;10.5305;
-118.2000;0.1498;10.5329;
-117.9000;0.1490;10.5305;
-117.6000;0.1514;10.5353;
-117.3000;0.1522;10.5329;
-117.0000;0.1481;10.5281;
-116.7000;0.1441;10.5209;
-116.4000;0.1473;10.5402;
-116.1000;0.1473;10.5450;
-115.8000;0.1481;10.5450;
-115.5000;0.1473;10.5426;
-115.2000;0.1490;10.5281;
-114.9000;0.1490;10.5209;
-114.6000;0.1498;10.5209;
-114.3000;0.1473;10.5184;
-114.0000;0.1490;10.5209;
-113.7000;0.1490;10.5257;
-113.4000;0.1490;10.5257;
-113.1000;0.1457;10.5257;
-112.8000;0.1481;10.5353;
-112.5000;0.1473;10.5281;
-112.2000;0.1473;10.5329;
-111.9000;0.1481;10.5377;
-111.6000;0.1481;10.5402;
-111.3000;0.1441;10.5305;
-111.0000;0.1490;10.5353;
-110.7000;0.1473;10.5209;
-110.4000;0.1473;10.5209;
-110.1000;0.1490;10.5233;
-109.8000;0.1457;10.5209;
-109.5000;0.1490;10.5305;
-109.2000;0.1506;10.5305;
-108.9000;0.1490;10.5281;
-108.6000;0.1490;10.5305;
-108.3000;0.1465;10.5257;
-108.0000;0.1481;10.5353;
-107.7000;0.1465;10.5305;
-107.4000;0.1481;10.5257;
-107.1000;0.1522;10.5474;
-106.8000;0.1473;10.5402;
-106.5000;0.1490;10.5353;
-106.2000;0.1473;10.5377;
-105.9000;0.1481;10.5305;
-105.6000;0.1449;10.5233;
-105.3000;0.1547;10.5498;
-105.0000;0.1538;10.5426;
-104.7000;0.1481;10.5233;
-104.4000;0.1490;10.5209;
-104.1000;0.1457;10.5160;
-103.8000;0.1490;10.5353;
-103.5000;0.1490;10.5377;
-103.2000;0.1473;10.5209;
-102.9000;0.1481;10.5209;
-102.6000;0.1498;10.5160;
-102.3000;0.1506;10.5160;
-102.0000;0.1473;10.5136;
-101.7000;0.1481;10.5064;
-101.4000;0.1490;10.5184;
-101.1000;0.1473;10.5184;
-100.8000;0.1490;10.5184;
-100.5000;0.1481;10.5257;
-100.2000;0.1449;10.5112;
-99.9000;0.1481;10.5209;
-99.6000;0.1498;10.5136;
-99.3000;0.1498;10.5160;
-99.0000;0.1514;10.5184;
-98.7000;0.1481;10.5112;
-98.4000;0.1481;10.5160;
-98.1000;0.1506;10.5160;
-97.8000;0.1481;10.5136;
-97.5000;0.1498;10.5257;
-97.2000;0.1506;10.5233;
-96.9000;0.1481;10.5160;
-96.6000;0.1506;10.5209;
-96.3000;0.1538;10.5233;
-96.0000;0.1392;10.4871;
-95.7000;0.1481;10.5112;
-95.4000;0.1498;10.5136;
-95.1000;0.1473;10.5064;
-94.8000;0.1465;10.5088;
-94.5000;0.1473;10.4991;
-94.2000;0.1506;10.5112;
-93.9000;0.1490;10.5112;
-93.6000;0.1498;10.5064;
-93.3000;0.1498;10.5016;
-93.0000;0.1490;10.5016;
-92.7000;0.1473;10.5016;
-92.4000;0.1498;10.5088;
-92.1000;0.1490;10.5184;
-91.8000;0.1473;10.5064;
-91.5000;0.1490;10.5136;
-91.2000;0.1473;10.5209;
-90.9000;0.1490;10.5305;
-90.6000;0.1490;10.5329;
-90.3000;0.1449;10.5257;
-90.0000;0.1473;10.5426;
-89.7000;0.1490;10.5450;
-89.4000;0.1490;10.5450;
-89.1000;0.1481;10.5305;
-88.8000;0.1490;10.5281;
-88.5000;0.1481;10.5257;
-88.2000;0.1481;10.5257;
-87.9000;0.1465;10.5233;
-87.6000;0.1506;10.5353;
-87.3000;0.1490;10.5305;
-87.0000;0.1441;10.5281;
-86.7000;0.1490;10.5402;
-86.4000;0.1481;10.5426;
-86.1000;0.1490;10.5402;
-85.8000;0.1473;10.5353;
-85.5000;0.1481;10.5426;
-85.2000;0.1490;10.5546;
-84.9000;0.1498;10.5570;
-84.6000;0.1481;10.5546;
-84.3000;0.1498;10.5450;
-84.0000;0.1498;10.5450;
-83.7000;0.1490;10.5353;
-83.4000;0.1514;10.5329;
-83.1000;0.1490;10.5353;
-82.8000;0.1425;10.5209;
-82.5000;0.1506;10.5281;
-82.2000;0.1490;10.5233;
-81.9000;0.1498;10.5233;
-81.6000;0.1547;10.5329;
-81.3000;0.1555;10.5450;
-81.0000;0.1514;10.5402;
-80.7000;0.1481;10.5450;
-80.4000;0.1473;10.5474;
-80.1000;0.1481;10.5498;
-79.8000;0.1481;10.5522;
-79.5000;0.1555;10.5691;
-79.2000;0.1514;10.5522;
-78.9000;0.1465;10.5474;
-78.6000;0.1498;10.5594;
-78.3000;0.1490;10.5594;
-78.0000;0.1506;10.5619;
-77.7000;0.1473;10.5522;
-77.4000;0.1465;10.5450;
-77.1000;0.1490;10.5522;
-76.8000;0.1522;10.5546;
-76.5000;0.1490;10.5426;
-76.2000;0.1481;10.5353;
-75.9000;0.1490;10.5353;
-75.6000;0.1481;10.5305;
-75.3000;0.1514;10.5353;
-75.0000;0.1490;10.5305;
-74.7000;0.1457;10.5209;
-74.4000;0.1620;10.5570;
-74.1000;0.1498;10.5305;
-73.8000;0.1490;10.5281;
-73.5000;0.1530;10.5329;
-73.2000;0.1425;10.5136;
-72.9000;0.1563;10.5546;
-72.6000;0.1457;10.5257;
-72.3000;0.1506;10.5377;
-72.0000;0.1490;10.5402;
-71.7000;0.1416;10.5209;
-71.4000;0.1457;10.5353;
-71.1000;0.1481;10.5426;
-70.8000;0.1490;10.5474;
-70.5000;0.1465;10.5377;
-70.2000;0.1473;10.5402;
-69.9000;0.1473;10.5353;
-69.6000;0.1490;10.5353;
-69.3000;0.1498;10.5329;
-69.0000;0.1481;10.5281;
-68.7000;0.1481;10.5329;
-68.4000;0.1506;10.5305;
-68.1000;0.1457;10.5209;
-67.8000;0.1490;10.5257;
-67.5000;0.1481;10.5377;
-67.2000;0.1433;10.5305;
-66.9000;0.1490;10.5450;
-66.6000;0.1481;10.5498;
-66.3000;0.1473;10.5498;
-66.0000;0.1408;10.5329;
-65.7000;0.1490;10.5522;
-65.4000;0.1530;10.5570;
-65.1000;0.1481;10.5377;
-64.8000;0.1481;10.5377;
-64.5000;0.1481;10.5377;
-64.2000;0.1490;10.5450;
-63.9000;0.1498;10.5377;
-63.6000;0.1473;10.5329;
-63.3000;0.1481;10.5281;
-63.0000;0.1563;10.5522;
-62.7000;0.1498;10.5377;
-62.4000;0.1473;10.5329;
-62.1000;0.1498;10.5474;
-61.8000;0.1514;10.5546;
-61.5000;0.1498;10.5377;
-61.2000;0.1490;10.5377;
-60.9000;0.1490;10.5257;
-60.6000;0.1473;10.5184;
-60.3000;0.1490;10.5184;
-60.0000;0.1473;10.5088;
-59.7000;0.1441;10.5016;
-59.4000;0.1481;10.5136;
-59.1000;0.1473;10.5112;
-58.8000;0.1490;10.5112;
-58.5000;0.1481;10.5136;
-58.2000;0.1481;10.5136;
-57.9000;0.1490;10.5257;
-57.6000;0.1490;10.5257;
-57.3000;0.1490;10.5257;
-57.0000;0.1481;10.5209;
-56.7000;0.1481;10.5257;
-56.4000;0.1514;10.5329;
-56.1000;0.1473;10.5257;
-55.8000;0.1481;10.5184;
-55.5000;0.1465;10.5209;
-55.2000;0.1490;10.5257;
-54.9000;0.1481;10.5281;
-54.6000;0.1465;10.5305;
-54.3000;0.1498;10.5329;
-54.0000;0.1490;10.5305;
-53.7000;0.1481;10.5377;
-53.4000;0.1481;10.5426;
-53.1000;0.1481;10.5402;
-52.8000;0.1490;10.5474;
-52.5000;0.1465;10.5474;
-52.2000;0.1481;10.5474;
-51.9000;0.1490;10.5570;
-51.6000;0.1498;10.5570;
-51.3000;0.1481;10.5498;
-51.0000;0.1506;10.5474;
-50.7000;0.1490;10.5450;
-50.4000;0.1473;10.5474;
-50.1000;0.1498;10.5450;
-49.8000;0.1465;10.5329;
-49.5000;0.1498;10.5353;
-49.2000;0.1481;10.5353;
-48.9000;0.1392;10.5136;
-48.6000;0.1506;10.5426;
-48.3000;0.1473;10.5329;
-48.0000;0.1490;10.5450;
-47.7000;0.1498;10.5426;
-47.4000;0.1481;10.5426;
-47.1000;0.1441;10.5402;
-46.8000;0.1498;10.5667;
-46.5000;0.1498;10.5594;
-46.2000;0.1490;10.5522;
-45.9000;0.1481;10.5498;
-45.6000;0.1498;10.5667;
-45.3000;0.1392;10.5281;
-45.0000;0.1490;10.5546;
-44.7000;0.1481;10.5450;
-44.4000;0.1490;10.5426;
-44.1000;0.1490;10.5450;
-43.8000;0.1490;10.5353;
-43.5000;0.1498;10.5257;
-43.2000;0.1481;10.5209;
-42.9000;0.1481;10.5281;
-42.6000;0.1498;10.5305;
-42.3000;0.1490;10.5377;
-42.0000;0.1481;10.5377;
-41.7000;0.1481;10.5305;
-41.4000;0.1498;10.5353;
-41.1000;0.1481;10.5305;
-40.8000;0.1481;10.5329;
-40.5000;0.1473;10.5281;
-40.2000;0.1498;10.5353;
-39.9000;0.1481;10.5329;
-39.6000;0.1490;10.5281;
-39.3000;0.1457;10.5209;
-39.0000;0.1481;10.5305;
-38.7000;0.1481;10.5377;
-38.4000;0.1506;10.5426;
-38.1000;0.1498;10.5377;
-37.8000;0.1506;10.5426;
-37.5000;0.1498;10.5353;
-37.2000;0.1498;10.5377;
-36.9000;0.1498;10.5402;
-36.6000;0.1481;10.5426;
-36.3000;0.1498;10.5450;
-36.0000;0.1506;10.5522;
-35.7000;0.1408;10.5402;
-35.4000;0.1481;10.5546;
-35.1000;0.1457;10.5450;
-34.8000;0.1481;10.5546;
-34.5000;0.1490;10.5619;
-34.2000;0.1376;10.5329;
-33.9000;0.1392;10.5305;
-33.6000;0.1490;10.5498;
-33.3000;0.1473;10.5402;
-33.0000;0.1481;10.5353;
-32.7000;0.1506;10.5426;
-32.4000;0.1498;10.5474;
-32.1000;0.1490;10.5498;
-31.8000;0.1498;10.5450;
-31.5000;0.1481;10.5498;
-31.2000;0.1506;10.5594;
-30.9000;0.1498;10.5546;
-30.6000;0.1490;10.5546;
-30.3000;0.1481;10.5474;
-30.0000;0.1481;10.5474;
-29.7000;0.1490;10.5450;
-29.4000;0.1473;10.5450;
-29.1000;0.1490;10.5426;
-28.8000;0.1490;10.5426;
-28.5000;0.1514;10.5402;
-28.2000;0.1473;10.5426;
-27.9000;0.1481;10.5377;
-27.6000;0.1473;10.5402;
-27.3000;0.1481;10.5402;
-27.0000;0.1498;10.5474;
-26.7000;0.1506;10.5329;
-26.4000;0.1481;10.5233;
-26.1000;0.1498;10.5305;
-25.8000;0.1490;10.5281;
-25.5000;0.1490;10.5257;
-25.2000;0.1481;10.5209;
-24.9000;0.1498;10.5233;
-24.6000;0.1498;10.5281;
-24.3000;0.1563;10.5522;
-24.0000;0.1481;10.5209;
-23.7000;0.1481;10.5281;
-23.4000;0.1498;10.5329;
-23.1000;0.1506;10.5329;
-22.8000;0.1498;10.5281;
-22.5000;0.1490;10.5257;
-22.2000;0.1490;10.5257;
-21.9000;0.1538;10.5426;
-21.6000;0.1473;10.5233;
-21.3000;0.1490;10.5305;
-21.0000;0.1481;10.5257;
-20.7000;0.1481;10.5209;
-20.4000;0.1473;10.5184;
-20.1000;0.1473;10.5136;
-19.8000;0.1441;10.5136;
-19.5000;0.1481;10.5353;
-19.2000;0.1481;10.5377;
-18.9000;0.1481;10.5426;
-18.6000;0.1514;10.5474;
-18.3000;0.1498;10.5329;
-18.0000;0.1498;10.5377;
-17.7000;0.1490;10.5402;
-17.4000;0.1506;10.5522;
-17.1000;0.1498;10.5498;
-16.8000;0.1498;10.5426;
-16.5000;0.1506;10.5426;
-16.2000;0.1465;10.5305;
-15.9000;0.1416;10.5209;
-15.6000;0.1490;10.5305;
-15.3000;0.1490;10.5257;
-15.0000;0.1481;10.5257;
-14.7000;0.1457;10.5112;
-14.4000;0.1490;10.5184;
-14.1000;0.1441;10.5184;
-13.8000;0.1522;10.5353;
-13.5000;0.1490;10.5281;
-13.2000;0.1490;10.5257;
-12.9000;0.1473;10.5329;
-12.6000;0.1473;10.5305;
-12.3000;0.1506;10.5546;
-12.0000;0.1514;10.5522;
-11.7000;0.1457;10.5377;
-11.4000;0.1465;10.5426;
-11.1000;0.1457;10.5450;
-10.8000;0.1538;10.5546;
-10.5000;0.1473;10.5305;
-10.2000;0.1490;10.5329;
-9.9000;0.1481;10.5281;
-9.6000;0.1490;10.5233;
-9.3000;0.1506;10.5353;
-9.0000;0.1481;10.5281;
-8.7000;0.1481;10.5209;
-8.4000;0.1498;10.5184;
-8.1000;0.1457;10.5088;
-7.8000;0.1473;10.5136;
-7.5000;0.1490;10.5160;
-7.2000;0.1490;10.5209;
-6.9000;0.1506;10.5257;
-6.6000;0.1555;10.5353;
-6.3000;0.1555;10.5377;
-6.0000;0.1481;10.5257;
-5.7000;0.1498;10.5353;
-5.4000;0.1490;10.5329;
-5.1000;0.1481;10.5233;
-4.8000;0.1481;10.5233;
-4.5000;0.1498;10.5329;
-4.2000;0.1481;10.5329;
-3.9000;0.1490;10.5305;
-3.6000;0.1506;10.5329;
-3.3000;0.1473;10.5281;
-3.0000;0.1465;10.5257;
-2.7000;0.1408;10.5136;
-2.4000;0.1490;10.5305;
-2.1000;0.1473;10.5305;
-1.8000;0.1490;10.5426;
-1.5000;0.1490;10.5377;
-1.2000;0.1490;10.5329;
-0.9000;0.1498;10.5233;
-0.6000;0.1376;10.4871;
-0.3000;0.1490;10.5136;
0.0000;0.1490;10.5136;
0.3000;0.1441;10.4606;
0.6000;0.1514;10.5064;
0.9000;0.1498;10.5329;
1.2000;0.1514;10.5570;
1.5000;0.1538;10.5836;
1.8000;0.1530;10.6053;
2.1000;0.1530;10.6246;
2.4000;0.1555;10.6463;
2.7000;0.1473;10.6366;
3.0000;0.1620;10.6873;
3.3000;0.1571;10.6752;
3.6000;0.1579;10.6849;
3.9000;0.1555;10.6897;
4.2000;0.1571;10.7018;
4.5000;0.1579;10.7066;
4.8000;0.1595;10.7138;
5.1000;0.1636;10.7210;
5.4000;0.1571;10.7066;
5.7000;0.1563;10.7090;
6.0000;0.1473;10.6776;
6.3000;0.1579;10.7162;
6.6000;0.1579;10.7186;
6.9000;0.1579;10.7210;
7.2000;0.1571;10.7090;
7.5000;0.1587;10.7162;
7.8000;0.1587;10.7259;
8.1000;0.1595;10.7307;
8.4000;0.1604;10.7283;
8.7000;0.1571;10.7307;
9.0000;0.1555;10.7235;
9.3000;0.1571;10.7307;
9.6000;0.1571;10.7331;
9.9000;0.1620;10.7428;
10.2000;0.1563;10.7379;
10.5000;0.1579;10.7452;
10.8000;0.1563;10.7403;
11.1000;0.1571;10.7379;
11.4000;0.1555;10.7259;
11.7000;0.1571;10.7283;
12.0000;0.1587;10.7403;
12.3000;0.1595;10.7452;
12.6000;0.1579;10.7452;
12.9000;0.1547;10.7331;
13.2000;0.1587;10.7476;
13.5000;0.1693;10.7838;
13.8000;0.1579;10.7500;
14.1000;0.1571;10.7476;
14.4000;0.1579;10.7403;
14.7000;0.1555;10.7331;
15.0000;0.1579;10.7355;
15.3000;0.1571;10.7283;
15.6000;0.1514;10.7162;
15.9000;0.1587;10.7476;
16.2000;0.1571;10.7452;
16.5000;0.1693;10.7765;
16.8000;0.1563;10.7452;
17.1000;0.1595;10.7403;
17.4000;0.1579;10.7403;
17.7000;0.1595;10.7428;
18.0000;0.1555;10.7259;
18.3000;0.1595;10.7235;
18.6000;0.1555;10.7066;
18.9000;0.1571;10.7162;
19.2000;0.1587;10.7259;
19.5000;0.1547;10.7235;
19.8000;0.1595;10.7355;
20.1000;0.1644;10.7548;
20.4000;0.1555;10.7259;
20.7000;0.1604;10.7283;
21.0000;0.1571;10.7283;
21.3000;0.1612;10.7379;
21.6000;0.1571;10.7283;
21.9000;0.1587;10.7331;
22.2000;0.1563;10.7259;
22.5000;0.1563;10.7259;
22.8000;0.1555;10.7307;
23.1000;0.1563;10.7355;
23.4000;0.1587;10.7331;
23.7000;0.1538;10.7138;
24.0000;0.1587;10.7283;
24.3000;0.1579;10.7307;
24.6000;0.1571;10.7331;
24.9000;0.1555;10.7235;
25.2000;0.1563;10.7259;
25.5000;0.1547;10.7210;
25.8000;0.1563;10.7235;
26.1000;0.1563;10.7162;
26.4000;0.1579;10.7138;
26.7000;0.1555;10.7066;
27.0000;0.1579;10.7235;
27.3000;0.1587;10.7355;
27.6000;0.1579;10.7307;
27.9000;0.1587;10.7331;
28.2000;0.1579;10.7283;
28.5000;0.1571;10.7307;
28.8000;0.1587;10.7428;
29.1000;0.1587;10.7403;
29.4000;0.1571;10.7331;
29.7000;0.1506;10.7066;
30.0000;0.1571;10.7210;
30.3000;0.1595;10.7235;
30.6000;0.1571;10.7210;
30.9000;0.1563;10.7235;
31.2000;0.1579;10.7307;
31.5000;0.1571;10.7403;
31.8000;0.1628;10.7524;
32.1000;0.1571;10.7307;
32.4000;0.1555;10.7210;
32.7000;0.1579;10.7307;
33.0000;0.1563;10.7210;
33.3000;0.1587;10.7235;
33.6000;0.1571;10.7210;
33.9000;0.1587;10.7235;
34.2000;0.1579;10.7235;
34.5000;0.1579;10.7331;
34.8000;0.1579;10.7379;
35.1000;0.1587;10.7452;
35.4000;0.1530;10.7379;
35.7000;0.1571;10.7476;
36.0000;0.1571;10.7476;
36.3000;0.1628;10.7645;
36.6000;0.1555;10.7500;
36.9000;0.1563;10.7500;
37.2000;0.1563;10.7403;
37.5000;0.1579;10.7452;
37.8000;0.1579;10.7355;
38.1000;0.1571;10.7307;
38.4000;0.1620;10.7355;
38.7000;0.1547;10.7235;
39.0000;0.1587;10.7355;
39.3000;0.1579;10.7259;
39.6000;0.1579;10.7235;
39.9000;0.1571;10.7210;
40.2000;0.1595;10.7210;
40.5000;0.1595;10.7210;
40.8000;0.1604;10.7186;
41.1000;0.1620;10.7210;
41.4000;0.1555;10.7066;
41.7000;0.1579;10.7138;
42.0000;0.1587;10.7186;
42.3000;0.1563;10.7235;
42.6000;0.1473;10.7066;
42.9000;0.1579;10.7259;
43.2000;0.1579;10.7162;
43.5000;0.1579;10.7138;
43.8000;0.1571;10.7186;
44.1000;0.1571;10.7138;
44.4000;0.1595;10.7186;
44.7000;0.1571;10.7210;
45.0000;0.1595;10.7283;
45.3000;0.1579;10.7283;
45.6000;0.1587;10.7259;
45.9000;0.1571;10.7138;
46.2000;0.1579;10.7066;
46.5000;0.1563;10.7114;
46.8000;0.1587;10.7090;
47.1000;0.1579;10.6969;
47.4000;0.1571;10.7018;
47.7000;0.1555;10.6969;
48.0000;0.1579;10.7138;
48.3000;0.1555;10.7162;
48.6000;0.1595;10.7307;
48.9000;0.1563;10.7210;
49.2000;0.1579;10.7307;
49.5000;0.1579;10.7379;
49.8000;0.1522;10.7259;
50.1000;0.1563;10.7403;
50.4000;0.1579;10.7355;
50.7000;0.1579;10.7379;
51.0000;0.1595;10.7379;
51.3000;0.1579;10.7331;
51.6000;0.1571;10.7210;
51.9000;0.1579;10.7210;
52.2000;0.1571;10.7283;
52.5000;0.1563;10.7283;
52.8000;0.1563;10.7355;
53.1000;0.1555;10.7331;
53.4000;0.1571;10.7403;
53.7000;0.1579;10.7403;
54.0000;0.1563;10.7259;
54.3000;0.1571;10.7307;
54.6000;0.1563;10.7283;
54.9000;0.1555;10.7259;
55.2000;0.1571;10.7307;
55.5000;0.1579;10.7355;
55.8000;0.1595;10.7476;
56.1000;0.1571;10.7307;
56.4000;0.1555;10.7235;
56.7000;0.1571;10.7355;
57.0000;0.1579;10.7379;
57.3000;0.1587;10.7379;
57.6000;0.1563;10.7428;
57.9000;0.1563;10.7379;
58.2000;0.1604;10.7428;
58.5000;0.1563;10.7355;
58.8000;0.1563;10.7428;
59.1000;0.1571;10.7452;
59.4000;0.1579;10.7403;
59.7000;0.1595;10.7524;
60.0000;0.1571;10.7403;
60.3000;0.1563;10.7379;
60.6000;0.1563;10.7307;
60.9000;0.1579;10.7379;
61.2000;0.1579;10.7331;
61.5000;0.1563;10.7403;
61.8000;0.1571;10.7452;
62.1000;0.1563;10.7379;
62.4000;0.1587;10.7500;
62.7000;0.1555;10.7379;
63.0000;0.1579;10.7428;
63.3000;0.1571;10.7452;
63.6000;0.1555;10.7548;
63.9000;0.1563;10.7596;
64.2000;0.1579;10.7621;
64.5000;0.1579;10.7548;
64.8000;0.1595;10.7645;
65.1000;0.1587;10.7596;
65.4000;0.1563;10.7669;
65.7000;0.1481;10.7355;
66.0000;0.1514;10.7379;
66.3000;0.1563;10.7403;
66.6000;0.1563;10.7403;
66.9000;0.1571;10.7476;
67.2000;0.1538;10.7428;
67.5000;0.1669;10.7741;
67.8000;0.1571;10.7476;
68.1000;0.1571;10.7500;
68.4000;0.1571;10.7476;
68.7000;0.1579;10.7476;
69.0000;0.1571;10.7452;
69.3000;0.1555;10.7403;
69.6000;0.1587;10.7428;
69.9000;0.1555;10.7331;
70.2000;0.1555;10.7428;
70.5000;0.1571;10.7428;
70.8000;0.1587;10.7428;
71.1000;0.1579;10.7428;
71.4000;0.1530;10.7403;
71.7000;0.1563;10.7476;
72.0000;0.1547;10.7500;
72.3000;0.1547;10.7524;
72.6000;0.1563;10.7572;
72.9000;0.1547;10.7524;
73.2000;0.1563;10.7524;
73.5000;0.1547;10.7548;
73.8000;0.1530;10.7524;
74.1000;0.1571;10.7524;
74.4000;0.1579;10.7524;
74.7000;0.1563;10.7524;
75.0000;0.1579;10.7645;
75.3000;0.1579;10.7621;
75.6000;0.1571;10.7548;
75.9000;0.1587;10.7524;
76.2000;0.1563;10.7524;
76.5000;0.1595;10.7524;
76.8000;0.1571;10.7500;
77.1000;0.1571;10.7524;
77.4000;0.1579;10.7524;
77.7000;0.1563;10.7548;
78.0000;0.1563;10.7452;
78.3000;0.1571;10.7524;
78.6000;0.1571;10.7524;
78.9000;0.1538;10.7452;
79.2000;0.1571;10.7548;
79.5000;0.1522;10.7500;
79.8000;0.1555;10.7621;
80.1000;0.1571;10.7645;
80.4000;0.1644;10.7813;
80.7000;0.1571;10.7572;
81.0000;0.1547;10.7476;
81.3000;0.1587;10.7596;
81.6000;0.1571;10.7476;
81.9000;0.1563;10.7452;
82.2000;0.1709;10.7813;
82.5000;0.1555;10.7379;
82.8000;0.1571;10.7428;
83.1000;0.1555;10.7428;
83.4000;0.1677;10.7669;
83.7000;0.1563;10.7355;
84.0000;0.1579;10.7379;
84.3000;0.1514;10.7259;
84.6000;0.1571;10.7307;
84.9000;0.1579;10.7331;
85.2000;0.1677;10.7669;
85.5000;0.1587;10.7379;
85.8000;0.1547;10.7307;
86.1000;0.1563;10.7379;
86.4000;0.1522;10.7259;
86.7000;0.1538;10.7331;
87.0000;0.1571;10.7403;
87.3000;0.1579;10.7403;
87.6000;0.1555;10.7452;
87.9000;0.1571;10.7524;
88.2000;0.1555;10.7500;
88.5000;0.1571;10.7572;
88.8000;0.1555;10.7548;
89.1000;0.1604;10.7645;
89.4000;0.1555;10.7476;
89.7000;0.1547;10.7428;
90.0000;0.1530;10.7403;
90.3000;0.1571;10.7500;
90.6000;0.1587;10.7524;
90.9000;0.1620;10.7693;
91.2000;0.1571;10.7524;
91.5000;0.1579;10.7596;
91.8000;0.1563;10.7548;
92.1000;0.1620;10.7741;
92.4000;0.1547;10.7572;
92.7000;0.1595;10.7717;
93.0000;0.1563;10.7596;
93.3000;0.1563;10.7621;
93.6000;0.1555;10.7548;
93.9000;0.1587;10.7596;
94.2000;0.1587;10.7548;
94.5000;0.1579;10.7572;
94.8000;0.1563;10.7548;
95.1000;0.1579;10.7596;
95.4000;0.1571;10.7572;
95.7000;0.1579;10.7500;
96.0000;0.1571;10.7476;
96.3000;0.1579;10.7548;
96.6000;0.1571;10.7524;
96.9000;0.1547;10.7548;
97.2000;0.1571;10.7476;
97.5000;0.1563;10.7355;
97.8000;0.1571;10.7307;
98.1000;0.1571;10.7355;
98.4000;0.1563;10.7331;
98.7000;0.1579;10.7355;
99.0000;0.1555;10.7331;
99.3000;0.1571;10.7355;
99.6000;0.1547;10.7331;
99.9000;0.1579;10.7428;
100.2000;0.1579;10.7524;
100.5000;0.1563;10.7476;
100.8000;0.1571;10.7548;
101.1000;0.1571;10.7596;
101.4000;0.1563;10.7645;
101.7000;0.1571;10.7621;
102.0000;0.1587;10.7669;
102.3000;0.1579;10.7596;
102.6000;0.1579;10.7524;
102.9000;0.1579;10.7452;
103.2000;0.1563;10.7307;
103.5000;0.1579;10.7428;
103.8000;0.1571;10.7428;
104.1000;0.1612;10.7621;
104.4000;0.1571;10.7452;
104.7000;0.1571;10.7403;
105.0000;0.1571;10.7476;
105.3000;0.1579;10.7452;
105.6000;0.1555;10.7428;
105.9000;0.1587;10.7548;
106.2000;0.1547;10.7524;
106.5000;0.1547;10.7548;
106.8000;0.1563;10.7548;
107.1000;0.1555;10.7500;
107.4000;0.1506;10.7403;
107.7000;0.1595;10.7548;
108.0000;0.1563;10.7452;
108.3000;0.1579;10.7379;
108.6000;0.1563;10.7355;
108.9000;0.1563;10.7403;
109.2000;0.1579;10.7355;
109.5000;0.1563;10.7403;
109.8000;0.1555;10.7379;
110.1000;0.1555;10.7283;
110.4000;0.1579;10.7235;
110.7000;0.1490;10.7090;
111.0000;0.1506;10.7235;
111.3000;0.1579;10.7428;
111.6000;0.1579;10.7476;
111.9000;0.1579;10.7452;
112.2000;0.1571;10.7403;
112.5000;0.1571;10.7355;
112.8000;0.1579;10.7379;
113.1000;0.1652;10.7572;
113.4000;0.1571;10.7428;
113.7000;0.1506;10.7259;
114.0000;0.1530;10.7355;
114.3000;0.1579;10.7403;
114.6000;0.1571;10.7331;
114.9000;0.1538;10.7235;
115.2000;0.1555;10.7283;
115.5000;0.1571;10.7403;
115.8000;0.1579;10.7331;
116.1000;0.1644;10.7428;
116.4000;0.1530;10.7186;
116.7000;0.1563;10.7210;
117.0000;0.1579;10.7210;
117.3000;0.1563;10.7186;
117.6000;0.1530;10.7210;
117.9000;0.1595;10.7259;
118.2000;0.1579;10.7259;
118.5000;0.1685;10.7500;
118.8000;0.1587;10.7235;
119.1000;0.1563;10.7186;
119.4000;0.1563;10.7235;
119.7000;0.1530;10.7210;
120.0000;0.1547;10.7235;
120.3000;0.1547;10.7186;
120.6000;0.1563;10.7283;
120.9000;0.1620;10.7331;
121.2000;0.1563;10.7235;
121.5000;0.1555;10.7210;
121.8000;0.1555;10.7210;
122.1000;0.1587;10.7235;
122.4000;0.1579;10.7259;
122.7000;0.1563;10.7138;
123.0000;0.1563;10.7186;
123.3000;0.1571;10.7235;
123.6000;0.1571;10.7283;
123.9000;0.1595;10.7524;
124.2000;0.1563;10.7403;
124.5000;0.1604;10.7500;
124.8000;0.1571;10.7476;
125.1000;0.1579;10.7500;
125.4000;0.1563;10.7403;
125.7000;0.1555;10.7403;
126.0000;0.1579;10.7452;
126.3000;0.1563;10.7355;
126.6000;0.1579;10.7379;
126.9000;0.1587;10.7307;
127.2000;0.1571;10.7355;
127.5000;0.1595;10.7355;
127.8000;0.1571;10.7331;
128.1000;0.1555;10.7331;
128.4000;0.1571;10.7355;
128.7000;0.1555;10.7476;
129.0000;0.1636;10.7669;
129.3000;0.1579;10.7548;
129.6000;0.1555;10.7428;
129.9000;0.1612;10.7548;
130.2000;0.1555;10.7403;
130.5000;0.1620;10.7693;
130.8000;0.1555;10.7500;
131.1000;0.1473;10.7379;
131.4000;0.1530;10.7476;
131.7000;0.1571;10.7500;
132.0000;0.1587;10.7572;
132.3000;0.1579;10.7500;
132.6000;0.1555;10.7403;
132.9000;0.1587;10.7500;
133.2000;0.1530;10.7355;
133.5000;0.1587;10.7524;
133.8000;0.1563;10.7428;
134.1000;0.1587;10.7572;
134.4000;0.1522;10.7379;
134.7000;0.1595;10.7524;
135.0000;0.1587;10.7548;
135.3000;0.1547;10.7403;
135.6000;0.1571;10.7428;
135.9000;0.1579;10.7403;
136.2000;0.1579;10.7403;
136.5000;0.1563;10.7476;
136.8000;0.1555;10.7403;
137.1000;0.1563;10.7403;
137.4000;0.1547;10.7307;
137.7000;0.1587;10.7355;
138.0000;0.1563;10.7379;
138.3000;0.1538;10.7307;
138.6000;0.1587;10.7403;
138.9000;0.1563;10.7379;
139.2000;0.1571;10.7476;
139.5000;0.1587;10.7548;
139.8000;0.1563;10.7452;
140.1000;0.1595;10.7500;
140.4000;0.1555;10.7428;
140.7000;0.1530;10.7403;
141.0000;0.1563;10.7452;
141.3000;0.1538;10.7500;
141.6000;0.1563;10.7548;
141.9000;0.1571;10.7572;
142.2000;0.1555;10.7548;
142.5000;0.1644;10.7886;
142.8000;0.1579;10.7645;
143.1000;0.1555;10.7621;
143.4000;0.1563;10.7645;
143.7000;0.1579;10.7645;
144.0000;0.1579;10.7621;
144.3000;0.1571;10.7621;
144.6000;0.1571;10.7621;
144.9000;0.1563;10.7645;
145.2000;0.1579;10.7741;
145.5000;0.1595;10.7596;
145.8000;0.1571;10.7548;
146.1000;0.1571;10.7500;
146.4000;0.1579;10.7428;
146.7000;0.1563;10.7355;
147.0000;0.1571;10.7379;
147.3000;0.1595;10.7403;
147.6000;0.1563;10.7283;
147.9000;0.1587;10.7331;
148.2000;0.1571;10.7283;
148.5000;0.1587;10.7259;
148.8000;0.1612;10.7452;
149.1000;0.1579;10.7476;
149.4000;0.1563;10.7548;
149.7000;0.1563;10.7476;
150.0000;0.1538;10.7355;
150.3000;0.1571;10.7355;
150.6000;0.1579;10.7283;
150.9000;0.1563;10.7210;
151.2000;0.1563;10.7162;
151.5000;0.1587;10.7210;
151.8000;0.1587;10.7283;
152.1000;0.1563;10.7283;
152.4000;0.1628;10.7452;
152.7000;0.1579;10.7355;
153.0000;0.1571;10.7307;
153.3000;0.1718;10.7693;
153.6000;0.1538;10.7235;
153.9000;0.1604;10.7452;
154.2000;0.1579;10.7476;
154.5000;0.1620;10.7476;
154.8000;0.1514;10.7235;
155.1000;0.1571;10.7403;
155.4000;0.1571;10.7428;
155.7000;0.1571;10.7355;
156.0000;0.1547;10.7283;
156.3000;0.1587;10.7331;
156.6000;0.1538;10.7235;
156.9000;0.1587;10.7355;
157.2000;0.1587;10.7355;
157.5000;0.1555;10.7210;
157.8000;0.1547;10.7307;
158.1000;0.1579;10.7331;
158.4000;0.1579;10.7307;
158.7000;0.1579;10.7355;
159.0000;0.1587;10.7307;
159.3000;0.1571;10.7186;
159.6000;0.1563;10.7186;
159.9000;0.1547;10.7114;
160.2000;0.1530;10.6993;
160.5000;0.1579;10.7090;
160.8000;0.1563;10.7018;
161.1000;0.1555;10.6993;
161.4000;0.1571;10.7090;
161.7000;0.1571;10.7066;
162.0000;0.1563;10.7090;
162.3000;0.1555;10.7090;
162.6000;0.1595;10.7259;
162.9000;0.1579;10.7162;
163.2000;0.1571;10.7307;
163.5000;0.1571;10.7259;
163.8000;0.1579;10.7259;
164.1000;0.1579;10.7186;
164.4000;0.1587;10.7235;
164.7000;0.1563;10.7090;
165.0000;0.1579;10.7162;
165.3000;0.1579;10.7210;
165.6000;0.1571;10.7307;
165.9000;0.1563;10.7331;
166.2000;0.1579;10.7403;
166.5000;0.1579;10.7452;
166.8000;0.1587;10.7476;
167.1000;0.1555;10.7379;
167.4000;0.1555;10.7355;
167.7000;0.1498;10.7259;
168.0000;0.1571;10.7500;
168.3000;0.1587;10.7572;
168.6000;0.1563;10.7524;
168.9000;0.1571;10.7476;
169.2000;0.1571;10.7476;
169.5000;0.1555;10.7476;
169.8000;0.1571;10.7524;
170.1000;0.1563;10.7548;
170.4000;0.1563;10.7548;
170.7000;0.1571;10.7572;
171.0000;0.1563;10.7548;
171.3000;0.1563;10.7476;
171.6000;0.1547;10.7403;
171.9000;0.1563;10.7379;
172.2000;0.1571;10.7452;
172.5000;0.1555;10.7355;
172.8000;0.1563;10.7379;
173.1000;0.1555;10.7355;
173.4000;0.1571;10.7379;
173.7000;0.1571;10.7355;
174.0000;0.1587;10.7476;
174.3000;0.1587;10.7428;
174.6000;0.1563;10.7355;
174.9000;0.1604;10.7500;
175.2000;0.1563;10.7403;
175.5000;0.1547;10.7379;
175.8000;0.1571;10.7500;
176.1000;0.1547;10.7452;
176.4000;0.1506;10.7331;
176.7000;0.1604;10.7548;
177.0000;0.1563;10.7283;
177.3000;0.1449;10.6897;
177.6000;0.1547;10.7210;
177.9000;0.1555;10.7235;
178.2000;0.1620;10.7500;
178.5000;0.1587;10.7307;
178.8000;0.1636;10.7331;
179.1000;0.1555;10.7090;
179.4000;0.1555;10.7186;
179.7000;0.1555;10.7186;
180.0000;0.1579;10.7283;
180.3000;0.1604;10.7428;
180.6000;0.1563;10.7307;
180.9000;0.1563;10.7331;
181.2000;0.1555;10.7379;
181.5000;0.1661;10.7669;
181.8000;0.1571;10.7403;
182.1000;0.1579;10.7403;
182.4000;0.1571;10.7355;
182.7000;0.1563;10.7307;
183.0000;0.1563;10.7331;
183.3000;0.1579;10.7331;
183.6000;0.1571;10.7355;
183.9000;0.1563;10.7355;
184.2000;0.1571;10.7379;
184.5000;0.1506;10.7331;
184.8000;0.1555;10.7524;
185.1000;0.1579;10.7596;
185.4000;0.1563;10.7524;
185.7000;0.1563;10.7548;
186.0000;0.1563;10.7524;
186.3000;0.1571;10.7476;
186.6000;0.1563;10.7331;
186.9000;0.1563;10.7307;
187.2000;0.1563;10.7259;
187.5000;0.1571;10.7307;
187.8000;0.1547;10.7331;
188.1000;0.1579;10.7355;
188.4000;0.1579;10.7307;
188.7000;0.1563;10.7283;
189.0000;0.1587;10.7379;
189.3000;0.1563;10.7235;
189.6000;0.1563;10.7307;
189.9000;0.1587;10.7355;
190.2000;0.1579;10.7259;
190.5000;0.1579;10.7283;
190.8000;0.1473;10.6969;
191.1000;0.1579;10.7235;
191.4000;0.1563;10.7162;
191.7000;0.1547;10.7186;
192.0000;0.1555;10.7186;
192.3000;0.1563;10.7259;
192.6000;0.1571;10.7235;
192.9000;0.1579;10.7331;
193.2000;0.1587;10.7331;
193.5000;0.1571;10.7307;
193.8000;0.1563;10.7259;
194.1000;0.1563;10.7331;
194.4000;0.1563;10.7355;
194.7000;0.1579;10.7500;
195.0000;0.1571;10.7452;
195.3000;0.1563;10.7355;
195.6000;0.1571;10.7403;
195.9000;0.1555;10.7403;
196.2000;0.1571;10.7452;
196.5000;0.1571;10.7476;
196.8000;0.1563;10.7476;
197.1000;0.1571;10.7476;
197.4000;0.1571;10.7428;
197.7000;0.1579;10.7403;
198.0000;0.1555;10.7307;
198.3000;0.1506;10.7162;
198.6000;0.1587;10.7283;
198.9000;0.1644;10.7403;
199.2000;0.1571;10.7210;
199.5000;0.1563;10.7186;
199.8000;0.1579;10.7259;
200.1000;0.1571;10.7259;
200.4000;0.1571;10.7210;
200.7000;0.1547;10.7210;
201.0000;0.1563;10.7235;
201.3000;0.1522;10.7138;
201.6000;0.1563;10.7307;
201.9000;0.1563;10.7307;
202.2000;0.1628;10.7476;
202.5000;0.1604;10.7379;
202.8000;0.1571;10.7307;
203.1000;0.1571;10.7210;
203.4000;0.1563;10.7162;
203.7000;0.1563;10.7210;
204.0000;0.1579;10.7307;
204.3000;0.1555;10.7331;
204.6000;0.1547;10.7235;
204.9000;0.1563;10.7307;
205.2000;0.1571;10.7355;
205.5000;0.1571;10.7283;
205.8000;0.1547;10.7210;
206.1000;0.1563;10.7162;
206.4000;0.1563;10.7307;
206.7000;0.1571;10.7331;
207.0000;0.1514;10.7138;
207.3000;0.1571;10.7283;
207.6000;0.1571;10.7379;
207.9000;0.1563;10.7331;
208.2000;0.1579;10.7355;
208.5000;0.1571;10.7331;
208.8000;0.1563;10.7331;
209.1000;0.1579;10.7355;
209.4000;0.1563;10.7403;
209.7000;0.1441;10.7138;
210.0000;0.1579;10.7428;
210.3000;0.1579;10.7283;
210.6000;0.1563;10.7283;
210.9000;0.1547;10.7283;
211.2000;0.1563;10.7235;
211.5000;0.1571;10.7186;
211.8000;0.1547;10.7186;
212.1000;0.1555;10.7283;
212.4000;0.1595;10.7283;
212.7000;0.1571;10.7235;
213.0000;0.1563;10.7162;
213.3000;0.1563;10.7210;
213.6000;0.1563;10.7283;
213.9000;0.1571;10.7307;
214.2000;0.1579;10.7210;
214.5000;0.1571;10.7090;
214.8000;0.1555;10.7018;
215.1000;0.1563;10.7114;
215.4000;0.1547;10.7090;
215.7000;0.1571;10.7162;
216.0000;0.1571;10.7186;
216.3000;0.1563;10.7235;
216.6000;0.1571;10.7210;
216.9000;0.1563;10.7138;
217.2000;0.1555;10.7138;
217.5000;0.1571;10.7114;
217.8000;0.1571;10.7210;
218.1000;0.1579;10.7210;
218.4000;0.1538;10.7210;
218.7000;0.1579;10.7307;
219.0000;0.1571;10.7259;
219.3000;0.1555;10.7283;
219.6000;0.1547;10.7235;
219.9000;0.1522;10.7186;
220.2000;0.1522;10.7210;
220.5000;0.1555;10.7331;
220.8000;0.1547;10.7235;
221.1000;0.1563;10.7307;
221.4000;0.1563;10.7283;
221.7000;0.1563;10.7283;
222.0000;0.1579;10.7379;
222.3000;0.1595;10.7428;
222.6000;0.1555;10.7307;
222.9000;0.1498;10.7042;
223.2000;0.1595;10.7283;
223.5000;0.1563;10.7210;
223.8000;0.1693;10.7669;
224.1000;0.1612;10.7500;
224.4000;0.1693;10.7669;
224.7000;0.1563;10.7379;
225.0000;0.1563;10.7331;
225.3000;0.1555;10.7379;
225.6000;0.1595;10.7379;
225.9000;0.1563;10.7283;
226.2000;0.1547;10.7307;
226.5000;0.1538;10.7355;
226.8000;0.1571;10.7403;
227.1000;0.1547;10.7307;
227.4000;0.1563;10.7331;
227.7000;0.1579;10.7403;
228.0000;0.1628;10.7548;
228.3000;0.1571;10.7403;
228.6000;0.1555;10.7403;
228.9000;0.1555;10.7428;
229.2000;0.1587;10.7476;
229.5000;0.1547;10.7403;
229.8000;0.1538;10.7403;
230.1000;0.1571;10.7452;
230.4000;0.1555;10.7452;
230.7000;0.1498;10.7259;
231.0000;0.1449;10.7090;
231.3000;0.1530;10.7283;
231.6000;0.1555;10.7307;
231.9000;0.1571;10.7331;
232.2000;0.1522;10.7186;
232.5000;0.1563;10.7307;
232.8000;0.1555;10.7210;
233.1000;0.1547;10.7259;
233.4000;0.1555;10.7331;
233.7000;0.1571;10.7355;
234.0000;0.1547;10.7283;
234.3000;0.1579;10.7379;
234.6000;0.1563;10.7428;
234.9000;0.1587;10.7500;
235.2000;0.1595;10.7476;
235.5000;0.1579;10.7355;
235.8000;0.1571;10.7355;
236.1000;0.1685;10.7669;
236.4000;0.1555;10.7403;
236.7000;0.1571;10.7355;
237.0000;0.1571;10.7331;
237.3000;0.1571;10.7283;
237.6000;0.1563;10.7307;
237.9000;0.1571;10.7331;
238.2000;0.1587;10.7283;
238.5000;0.1571;10.7210;
238.8000;0.1571;10.7210;
239.1000;0.1555;10.7162;
239.4000;0.1563;10.7162;
239.7000;0.1563;10.7138;
240.0000;0.1571;10.7162;
240.3000;0.1563;10.7138;
240.6000;0.1571;10.7210;
240.9000;0.1563;10.7162;
241.2000;0.1555;10.7186;
241.5000;0.1563;10.7235;
241.8000;0.1604;10.7331;
242.1000;0.1555;10.7259;
242.4000;0.1563;10.7210;
242.7000;0.1547;10.7162;
243.0000;0.1563;10.7283;
243.3000;0.1579;10.7331;
243.6000;0.1547;10.7355;
243.9000;0.1595;10.7403;
244.2000;0.1555;10.7283;
244.5000;0.1579;10.7259;
244.8000;0.1522;10.7186;
245.1000;0.1571;10.7307;
245.4000;0.1563;10.7259;
245.7000;0.1563;10.7283;
246.0000;0.1579;10.7403;
246.3000;0.1579;10.7428;
246.6000;0.1538;10.7307;
246.9000;0.1563;10.7283;
247.2000;0.1571;10.7307;
247.5000;0.1563;10.7235;
247.8000;0.1538;10.7283;
248.1000;0.1530;10.7283;
248.4000;0.1555;10.7331;
248.7000;0.1555;10.7428;
249.0000;0.1555;10.7355;
249.3000;0.1555;10.7283;
249.6000;0.1563;10.7283;
249.9000;0.1571;10.7259;
250.2000;0.1579;10.7355;
250.5000;0.1473;10.7042;
250.8000;0.1563;10.7307;
251.1000;0.1587;10.7283;
251.4000;0.1563;10.7355;
251.7000;0.1538;10.7355;
252.0000;0.1563;10.7452;
252.3000;0.1555;10.7355;
252.6000;0.1563;10.7379;
252.9000;0.1530;10.7235;
253.2000;0.1555;10.7355;
253.5000;0.1571;10.7283;
253.8000;0.1538;10.7114;
254.1000;0.1595;10.7283;
254.4000;0.1547;10.7162;
254.7000;0.1555;10.7114;
255.0000;0.1571;10.7066;
255.3000;0.1587;10.7066;
255.6000;0.1571;10.6969;
255.9000;0.1571;10.6945;
256.2000;0.1571;10.6969;
256.5000;0.1555;10.6849;
256.8000;0.1555;10.6800;
257.1000;0.1571;10.6873;
257.4000;0.1571;10.6897;
257.7000;0.1571;10.6993;
258.0000;0.1579;10.7018;
258.3000;0.1563;10.6945;
258.6000;0.1579;10.6897;
258.9000;0.1514;10.6680;
259.2000;0.1579;10.6849;
259.5000;0.1587;10.6921;
259.8000;0.1579;10.6921;
260.1000;0.1587;10.6921;
260.4000;0.1579;10.6921;
260.7000;0.1563;10.6921;
261.0000;0.1579;10.6969;
261.3000;0.1579;10.7018;
261.6000;0.1555;10.6945;
261.9000;0.1555;10.6945;
262.2000;0.1579;10.7018;
262.5000;0.1563;10.6897;
262.8000;0.1579;10.6897;
263.1000;0.1465;10.6680;
263.4000;0.1498;10.6849;
263.7000;0.1579;10.7066;
264.0000;0.1555;10.7090;
264.3000;0.1563;10.7042;
264.6000;0.1595;10.7138;
264.9000;0.1571;10.7090;
265.2000;0.1587;10.7090;
265.5000;0.1579;10.7090;
265.8000;0.1571;10.7090;
266.1000;0.1587;10.7235;
266.4000;0.1587;10.7259;
266.7000;0.1547;10.7066;
267.0000;0.1563;10.7138;
267.3000;0.1547;10.7090;
267.6000;0.1612;10.7114;
267.9000;0.1571;10.6921;
268.2000;0.1571;10.6945;
268.5000;0.1579;10.6993;
268.8000;0.1530;10.6752;
269.1000;0.1547;10.6873;
269.4000;0.1457;10.6680;
269.7000;0.1563;10.6993;
270.0000;0.1547;10.6993;
270.3000;0.1652;10.7331;
270.6000;0.1555;10.7090;
270.9000;0.1604;10.7235;
271.2000;0.1563;10.7114;
271.5000;0.1587;10.7210;
271.8000;0.1571;10.7162;
272.1000;0.1628;10.7307;
272.4000;0.1579;10.7186;
272.7000;0.1538;10.7114;
273.0000;0.1538;10.7066;
273.3000;0.1571;10.7114;
273.6000;0.1612;10.7355;
273.9000;0.1547;10.7235;
274.2000;0.1628;10.7428;
274.5000;0.1612;10.7379;
274.8000;0.1538;10.7307;
275.1000;0.1563;10.7428;
275.4000;0.1587;10.7403;
275.7000;0.1571;10.7355;
276.0000;0.1563;10.7379;
276.3000;0.1587;10.7379;
276.6000;0.1449;10.6921;
276.9000;0.1587;10.7235;
277.2000;0.1555;10.7138;
277.5000;0.1563;10.7042;
277.8000;0.1563;10.7114;
278.1000;0.1612;10.7331;
278.4000;0.1547;10.7162;
278.7000;0.1571;10.7162;
279.0000;0.1563;10.7210;
279.3000;0.1555;10.7186;
279.6000;0.1563;10.7235;
279.9000;0.1530;10.7138;
280.2000;0.1571;10.7235;
280.5000;0.1547;10.7186;
280.8000;0.1555;10.7186;
281.1000;0.1579;10.7235;
281.4000;0.1571;10.7259;
281.7000;0.1563;10.7186;
282.0000;0.1563;10.7114;
282.3000;0.1555;10.7114;
282.6000;0.1555;10.7090;
282.9000;0.1555;10.7090;
283.2000;0.1555;10.7162;
283.5000;0.1547;10.7162;
283.8000;0.1555;10.7210;
284.1000;0.1547;10.7235;
284.4000;0.1522;10.7162;
284.7000;0.1563;10.7259;
285.0000;0.1555;10.7235;
285.3000;0.1571;10.7235;
285.6000;0.1563;10.7162;
285.9000;0.1555;10.7259;
286.2000;0.1555;10.7259;
286.5000;0.1563;10.7428;
286.8000;0.1490;10.7186;
287.1000;0.1587;10.7452;
287.4000;0.1579;10.7452;
287.7000;0.1563;10.7355;
288.0000;0.1571;10.7307;
288.3000;0.1555;10.7331;
288.6000;0.1547;10.7379;
288.9000;0.1555;10.7476;
289.2000;0.1555;10.7500;
289.5000;0.1555;10.7452;
289.8000;0.1563;10.7379;
290.1000;0.1571;10.7403;
290.4000;0.1587;10.7428;
290.7000;0.1555;10.7379;
291.0000;0.1563;10.7355;
291.3000;0.1555;10.7355;
291.6000;0.1579;10.7452;
291.9000;0.1579;10.7428;
292.2000;0.1538;10.7379;
292.5000;0.1555;10.7452;
292.8000;0.1555;10.7452;
293.1000;0.1604;10.7500;
293.4000;0.1579;10.7428;
293.7000;0.1571;10.7452;
294.0000;0.1530;10.7331;
294.3000;0.1555;10.7428;
294.6000;0.1563;10.7331;
294.9000;0.1612;10.7355;
295.2000;0.1530;10.7162;
295.5000;0.1563;10.7210;
295.8000;0.1547;10.7259;
296.1000;0.1563;10.7235;
296.4000;0.1522;10.7114;
296.7000;0.1595;10.7307;
297.0000;0.1579;10.7235;
297.3000;0.1563;10.7114;
297.6000;0.1579;10.7210;
297.9000;0.1563;10.7066;
298.2000;0.1538;10.7066;
298.5000;0.1579;10.7114;
298.8000;0.1547;10.7042;
299.1000;0.1563;10.7138;
299.4000;0.1555;10.7210;
299.7000;0.1506;10.7210;
300.0000;0.1530;10.7283;
300.3000;0.1555;10.7331;
300.6000;0.1563;10.7259;
300.9000;0.1563;10.7307;
301.2000;0.1563;10.7428;
301.5000;0.1563;10.7307;
301.8000;0.1547;10.7331;
302.1000;0.1563;10.7403;
302.4000;0.1555;10.7331;
302.7000;0.1538;10.7355;
303.0000;0.1522;10.7259;
303.3000;0.1506;10.7186;
303.6000;0.1563;10.7355;
303.9000;0.1530;10.7307;
304.2000;0.1563;10.7476;
304.5000;0.1555;10.7428;
304.8000;0.1563;10.7259;
305.1000;0.1547;10.7210;
305.4000;0.1563;10.7307;
305.7000;0.1530;10.7259;
306.0000;0.1579;10.7283;
306.3000;0.1547;10.7138;
306.6000;0.1563;10.7235;
306.9000;0.1563;10.7235;
307.2000;0.1652;10.7403;
307.5000;0.1555;10.7114;
307.8000;0.1563;10.7186;
308.1000;0.1563;10.7235;
308.4000;0.1555;10.7235;
308.7000;0.1522;10.7283;
309.0000;0.1571;10.7476;
309.3000;0.1530;10.7403;
309.6000;0.1579;10.7452;
309.9000;0.1506;10.7186;
310.2000;0.1547;10.7283;
310.5000;0.1555;10.7307;
310.8000;0.1555;10.7331;
311.1000;0.1563;10.7379;
311.4000;0.1563;10.7355;
311.7000;0.1571;10.7355;
312.0000;0.1555;10.7331;
312.3000;0.1547;10.7379;
312.6000;0.1587;10.7403;
312.9000;0.1555;10.7379;
313.2000;0.1555;10.7379;
313.5000;0.1571;10.7355;
313.8000;0.1563;10.7379;
314.1000;0.1571;10.7379;
314.4000;0.1571;10.7283;
314.7000;0.1571;10.7235;
315.0000;0.1555;10.7283;
315.3000;0.1579;10.7283;
315.6000;0.1579;10.7379;
315.9000;0.1571;10.7307;
316.2000;0.1587;10.7307;
316.5000;0.1563;10.7162;
316.8000;0.1538;10.7018;
317.1000;0.1547;10.6945;
317.4000;0.1563;10.7018;
317.7000;0.1587;10.7114;
318.0000;0.1571;10.7066;
318.3000;0.1604;10.7210;
318.6000;0.1571;10.7090;
318.9000;0.1563;10.7090;
319.2000;0.1563;10.7066;
319.5000;0.1547;10.7066;
319.8000;0.1522;10.7066;
320.1000;0.1636;10.7355;
320.4000;0.1465;10.6969;
320.7000;0.1555;10.7162;
321.0000;0.1522;10.7138;
321.3000;0.1563;10.7186;
321.6000;0.1563;10.7210;
321.9000;0.1579;10.7259;
322.2000;0.1555;10.7186;
322.5000;0.1555;10.7186;
322.8000;0.1571;10.7259;
323.1000;0.1563;10.7138;
323.4000;0.1571;10.7090;
323.7000;0.1595;10.7162;
324.0000;0.1571;10.7018;
324.3000;0.1538;10.6921;
324.6000;0.1530;10.6969;
324.9000;0.1571;10.7066;
325.2000;0.1555;10.7138;
325.5000;0.1563;10.7259;
325.8000;0.1604;10.7283;
326.1000;0.1555;10.7210;
326.4000;0.1555;10.7235;
326.7000;0.1595;10.7379;
327.0000;0.1571;10.7331;
327.3000;0.1579;10.7283;
327.6000;0.1587;10.7235;
327.9000;0.1555;10.7210;
328.2000;0.1595;10.7259;
328.5000;0.1563;10.7235;
328.8000;0.1555;10.7259;
329.1000;0.1563;10.7331;
329.4000;0.1563;10.7355;
329.7000;0.1579;10.7452;
330.0000;0.1571;10.7524;
330.3000;0.1571;10.7548;
330.6000;0.1538;10.7452;
330.9000;0.1571;10.7500;
331.2000;0.1571;10.7331;
331.5000;0.1481;10.7018;
331.8000;0.1547;10.7331;
332.1000;0.1563;10.7331;
332.4000;0.1555;10.7403;
332.7000;0.1514;10.7283;
333.0000;0.1579;10.7355;
333.3000;0.1579;10.7403;
333.6000;0.1555;10.7307;
333.9000;0.1579;10.7403;
334.2000;0.1587;10.7403;
334.5000;0.1579;10.7403;
334.8000;0.1555;10.7307;
335.1000;0.1579;10.7307;
335.4000;0.1579;10.7235;
335.7000;0.1547;10.7186;
336.0000;0.1579;10.7283;
336.3000;0.1555;10.7138;
336.6000;0.1571;10.7210;
336.9000;0.1579;10.7283;
337.2000;0.1563;10.7162;
337.5000;0.1563;10.7114;
337.8000;0.1547;10.7066;
338.1000;0.1563;10.7066;
338.4000;0.1555;10.7090;
338.7000;0.1563;10.7162;
339.0000;0.1563;10.7114;
339.3000;0.1555;10.7162;
339.6000;0.1571;10.7235;
339.9000;0.1571;10.7259;
340.2000;0.1571;10.7283;
340.5000;0.1547;10.7259;
340.8000;0.1555;10.7307;
341.1000;0.1555;10.7331;
341.4000;0.1571;10.7355;
341.7000;0.1571;10.7379;
342.0000;0.1579;10.7403;
342.3000;0.1555;10.7379;
342.6000;0.1563;10.7307;
342.9000;0.1563;10.7379;
343.2000;0.1506;10.7186;
343.5000;0.1555;10.7283;
343.8000;0.1530;10.7162;
344.1000;0.1563;10.7259;
344.4000;0.1652;10.7548;
344.7000;0.1522;10.7186;
345.0000;0.1555;10.7283;
345.3000;0.1571;10.7355;
345.6000;0.1563;10.7307;
345.9000;0.1563;10.7307;
346.2000;0.1555;10.7307;
346.5000;0.1571;10.7355;
346.8000;0.1587;10.7403;
347.1000;0.1628;10.7548;
347.4000;0.1571;10.7307;
347.7000;0.1481;10.7066;
348.0000;0.1571;10.7331;
348.3000;0.1579;10.7355;
348.6000;0.1522;10.7114;
348.9000;0.1555;10.7331;
349.2000;0.1563;10.7379;
349.5000;0.1563;10.7452;
349.8000;0.1587;10.7500;
350.1000;0.1563;10.7403;
350.4000;0.1555;10.7379;
350.7000;0.1563;10.7379;
351.0000;0.1612;10.7596;
351.3000;0.1555;10.7403;
351.6000;0.1571;10.7355;
351.9000;0.1555;10.7355;
352.2000;0.1563;10.7428;
352.5000;0.1563;10.7476;
352.8000;0.1579;10.7428;
353.1000;0.1571;10.7379;
353.4000;0.1579;10.7331;
353.7000;0.1530;10.7138;
354.0000;0.1530;10.7283;
354.3000;0.1555;10.7283;
354.6000;0.1571;10.7259;
354.9000;0.1555;10.7235;
355.2000;0.1555;10.7138;
355.5000;0.1547;10.7138;
355.8000;0.1490;10.7018;
356.1000;0.1555;10.7259;
356.4000;0.1555;10.7210;
356.7000;0.1547;10.7210;
357.0000;0.1563;10.7259;
357.3000;0.1563;10.7235;
357.6000;0.1547;10.7138;
357.9000;0.1563;10.7138;
358.2000;0.1579;10.7186;
358.5000;0.1563;10.7114;
358.8000;0.1595;10.7186;
359.1000;0.1571;10.7162;
359.4000;0.1571;10.7186;
359.7000;0.1563;10.7162;
360.0000;0.1555;10.7259;
360.3000;0.1555;10.7331;
360.6000;0.1579;10.7452;
360.9000;0.1538;10.7403;
361.2000;0.1547;10.7355;
361.5000;0.1547;10.7307;
361.8000;0.1555;10.7331;
362.1000;0.1571;10.7379;
362.4000;0.1563;10.7379;
362.7000;0.1579;10.7355;
363.0000;0.1563;10.7331;
363.3000;0.1563;10.7307;
363.6000;0.1547;10.7259;
363.9000;0.1555;10.7307;
364.2000;0.1563;10.7235;
364.5000;0.1490;10.7162;
364.8000;0.1555;10.7307;
365.1000;0.1571;10.7307;
365.4000;0.1579;10.7331;
365.7000;0.1563;10.7210;
366.0000;0.1506;10.7066;
366.3000;0.1555;10.7235;
366.6000;0.1473;10.6921;
366.9000;0.1555;10.7210;
367.2000;0.1563;10.7162;
367.5000;0.1530;10.7138;
367.8000;0.1563;10.7283;
368.1000;0.1579;10.7307;
368.4000;0.1571;10.7331;
368.7000;0.1636;10.7500;
369.0000;0.1563;10.7307;
369.3000;0.1538;10.7283;
369.6000;0.1530;10.7210;
369.9000;0.1571;10.7307;
370.2000;0.1547;10.7186;
370.5000;0.1538;10.7186;
370.8000;0.1661;10.7548;
371.1000;0.1571;10.7355;
371.4000;0.1555;10.7235;
371.7000;0.1514;10.7138;
372.0000;0.1522;10.7186;
372.3000;0.1563;10.7355;
372.6000;0.1555;10.7307;
372.9000;0.1563;10.7355;
373.2000;0.1563;10.7379;
373.5000;0.1571;10.7355;
373.8000;0.1522;10.7138;
374.1000;0.1571;10.7210;
374.4000;0.1563;10.7162;
374.7000;0.1579;10.7162;
375.0000;0.1563;10.7235;
375.3000;0.1555;10.7162;
375.6000;0.1571;10.7235;
375.9000;0.1563;10.7186;
376.2000;0.1555;10.7210;
376.5000;0.1563;10.7162;
376.8000;0.1538;10.6993;
377.1000;0.1555;10.6969;
377.4000;0.1555;10.6969;
377.7000;0.1547;10.7066;
378.0000;0.1538;10.7114;
378.3000;0.1555;10.7210;
378.6000;0.1571;10.7210;
378.9000;0.1563;10.7186;
379.2000;0.1547;10.7162;
379.5000;0.1563;10.7210;
379.8000;0.1571;10.7210;
380.1000;0.1563;10.7210;
380.4000;0.1563;10.7210;
380.7000;0.1538;10.7138;
381.0000;0.1587;10.7283;
381.3000;0.1579;10.7283;
381.6000;0.1579;10.7283;
381.9000;0.1555;10.7235;
382.2000;0.1506;10.7138;
382.5000;0.1555;10.7259;
382.8000;0.1547;10.7162;
383.1000;0.1579;10.7235;
383.4000;0.1555;10.7235;
383.7000;0.1571;10.7331;
384.0000;0.1571;10.7379;
384.3000;0.1555;10.7403;
384.6000;0.1555;10.7500;
384.9000;0.1628;10.7693;
385.2000;0.1457;10.7259;
385.5000;0.1571;10.7524;
385.8000;0.1571;10.7428;
386.1000;0.1547;10.7403;
386.4000;0.1563;10.7452;
386.7000;0.1563;10.7452;
387.0000;0.1555;10.7355;
387.3000;0.1555;10.7331;
387.6000;0.1579;10.7403;
387.9000;0.1587;10.7379;
388.2000;0.1628;10.7476;
388.5000;0.1571;10.7379;
388.8000;0.1547;10.7379;
389.1000;0.1563;10.7403;
389.4000;0.1579;10.7524;
389.7000;0.1571;10.7403;
390.0000;0.1563;10.7428;
390.3000;0.1538;10.7403;
390.6000;0.1563;10.7403;
390.9000;0.1538;10.7307;
391.2000;0.1669;10.7548;
391.5000;0.1579;10.7283;
391.8000;0.1571;10.7331;
392.1000;0.1547;10.7235;
392.4000;0.1555;10.7307;
392.7000;0.1555;10.7331;
393.0000;0.1571;10.7452;
393.3000;0.1571;10.7403;
393.6000;0.1677;10.7669;
393.9000;0.1587;10.7331;
394.2000;0.1514;10.7138;
394.5000;0.1579;10.7307;
394.8000;0.1538;10.7066;
395.1000;0.1547;10.7066;
395.4000;0.1563;10.7138;
395.7000;0.1506;10.6969;
396.0000;0.1514;10.7018;
396.3000;0.1563;10.7210;
396.6000;0.1563;10.7259;
396.9000;0.1571;10.7283;
397.2000;0.1547;10.7235;
397.5000;0.1555;10.7210;
397.8000;0.1555;10.7259;
398.1000;0.1530;10.7259;
398.4000;0.1571;10.7331;
398.7000;0.1555;10.7210;
399.0000;0.1644;10.7524;
399.3000;0.1563;10.7307;
399.6000;0.1579;10.7403;
399.9000;0.1571;10.7403;
400.2000;0.1571;10.7355;
400.5000;0.1628;10.7596;
400.8000;0.1555;10.7379;
401.1000;0.1571;10.7355;
401.4000;0.1506;10.7210;
401.7000;0.1547;10.7355;
402.0000;0.1563;10.7355;
402.3000;0.1547;10.7259;
402.6000;0.1538;10.7259;
402.9000;0.1571;10.7331;
403.2000;0.1563;10.7235;
403.5000;0.1530;10.7090;
403.8000;0.1571;10.7210;
404.1000;0.1555;10.7259;
404.4000;0.1595;10.7403;
404.7000;0.1571;10.7331;
405.0000;0.1555;10.7331;
405.3000;0.1587;10.7355;
405.6000;0.1563;10.7283;
405.9000;0.1571;10.7138;
406.2000;0.1555;10.7114;
406.5000;0.1571;10.7186;
406.8000;0.1538;10.7090;
407.1000;0.1563;10.7138;
407.4000;0.1571;10.7210;
407.7000;0.1604;10.7307;
408.0000;0.1579;10.7259;
408.3000;0.1604;10.7355;
408.6000;0.1555;10.7186;
408.9000;0.1563;10.7331;
409.2000;0.1530;10.7307;
409.5000;0.1538;10.7307;
409.8000;0.1579;10.7307;
410.1000;0.1563;10.7210;
410.4000;0.1538;10.7114;
410.7000;0.1563;10.7235;
411.0000;0.1595;10.7235;
411.3000;0.1571;10.7114;
411.6000;0.1587;10.7114;
411.9000;0.1620;10.7259;
412.2000;0.1538;10.6945;
412.5000;0.1506;10.6969;
412.8000;0.1579;10.7090;
413.1000;0.1612;10.7090;
413.4000;0.1571;10.7018;
413.7000;0.1579;10.7138;
414.0000;0.1547;10.6969;
414.3000;0.1555;10.7018;
414.6000;0.1563;10.7162;
414.9000;0.1571;10.7235;
415.2000;0.1571;10.7283;
415.5000;0.1555;10.7283;
415.8000;0.1571;10.7355;
416.1000;0.1547;10.7379;
416.4000;0.1579;10.7500;
416.7000;0.1587;10.7452;
417.0000;0.1555;10.7331;
417.3000;0.1547;10.7307;
417.6000;0.1555;10.7379;
417.9000;0.1555;10.7428;
418.2000;0.1538;10.7379;
418.5000;0.1571;10.7379;
418.8000;0.1555;10.7307;
419.1000;0.1555;10.7331;
419.4000;0.1571;10.7307;
419.7000;0.1579;10.7331;
420.0000;0.1473;10.7162;
420.3000;0.1555;10.7403;
420.6000;0.1563;10.7259;
420.9000;0.1563;10.7162;
421.2000;0.1547;10.7114;
421.5000;0.1563;10.7162;
421.8000;0.1563;10.7210;
422.1000;0.1579;10.7283;
422.4000;0.1563;10.7283;
422.7000;0.1563;10.7283;
423.0000;0.1547;10.7259;
423.3000;0.1571;10.7307;
423.6000;0.1587;10.7452;
423.9000;0.1563;10.7259;
424.2000;0.1547;10.7210;
424.5000;0.1563;10.7210;
424.8000;0.1579;10.7235;
425.1000;0.1547;10.7138;
425.4000;0.1563;10.7162;
425.7000;0.1571;10.7283;
426.0000;0.1547;10.7283;
426.3000;0.1595;10.7524;
426.6000;0.1547;10.7331;
426.9000;0.1563;10.7331;
427.2000;0.1538;10.7210;
427.5000;0.1555;10.7210;
427.8000;0.1547;10.7162;
428.1000;0.1563;10.7162;
428.4000;0.1571;10.7307;
428.7000;0.1563;10.7379;
429.0000;0.1547;10.7355;
429.3000;0.1563;10.7403;
429.6000;0.1563;10.7379;
429.9000;0.1571;10.7379;
430.2000;0.1547;10.7403;
430.5000;0.1571;10.7428;
430.8000;0.1563;10.7428;
431.1000;0.1538;10.7379;
431.4000;0.1547;10.7403;
431.7000;0.1563;10.7379;
432.0000;0.1547;10.7331;
432.3000;0.1538;10.7403;
432.6000;0.1547;10.7428;
432.9000;0.1571;10.7476;
433.2000;0.1538;10.7307;
433.5000;0.1555;10.7379;
433.8000;0.1506;10.7235;
434.1000;0.1530;10.7235;
434.4000;0.1555;10.7379;
434.7000;0.1563;10.7428;
435.0000;0.1579;10.7476;
435.3000;0.1587;10.7500;
435.6000;0.1563;10.7524;
435.9000;0.1538;10.7500;
436.2000;0.1522;10.7500;
436.5000;0.1563;10.7548;
436.8000;0.1571;10.7500;
437.1000;0.1579;10.7548;
437.4000;0.1644;10.7765;
437.7000;0.1547;10.7476;
438.0000;0.1538;10.7476;
438.3000;0.1538;10.7476;
438.6000;0.1547;10.7476;
438.9000;0.1563;10.7452;
439.2000;0.1538;10.7500;
439.5000;0.1563;10.7476;
439.8000;0.1555;10.7476;
440.1000;0.1604;10.7548;
440.4000;0.1563;10.7355;
440.7000;0.1547;10.7331;
441.0000;0.1571;10.7403;
441.3000;0.1555;10.7355;
441.6000;0.1579;10.7452;
441.9000;0.1579;10.7452;
442.2000;0.1530;10.7307;
442.5000;0.1555;10.7403;
442.8000;0.1555;10.7452;
443.1000;0.1563;10.7476;
443.4000;0.1563;10.7452;
443.7000;0.1595;10.7452;
444.0000;0.1522;10.7210;
444.3000;0.1571;10.7355;
444.6000;0.1563;10.7379;
444.9000;0.1555;10.7452;
445.2000;0.1587;10.7476;
445.5000;0.1555;10.7331;
445.8000;0.1563;10.7355;
446.1000;0.1579;10.7500;
446.4000;0.1571;10.7621;
446.7000;0.1571;10.7669;
447.0000;0.1571;10.7524;
447.3000;0.1563;10.7524;
447.6000;0.1555;10.7572;
447.9000;0.1571;10.7621;
448.2000;0.1555;10.7596;
448.5000;0.1498;10.7403;
448.8000;0.1620;10.7741;
449.1000;0.1555;10.7524;
449.4000;0.1547;10.7548;
449.7000;0.1498;10.7403;
450.0000;0.1563;10.7524;
450.3000;0.1693;10.7862;
450.6000;0.1530;10.7524;
450.9000;0.1571;10.7596;
451.2000;0.1555;10.7572;
451.5000;0.1490;10.7355;
451.8000;0.1579;10.7645;
452.1000;0.1587;10.7596;
452.4000;0.1547;10.7452;
452.7000;0.1498;10.7307;
453.0000;0.1563;10.7548;
453.3000;0.1571;10.7645;
453.6000;0.1555;10.7476;
453.9000;0.1579;10.7596;
454.2000;0.1538;10.7403;
454.5000;0.1547;10.7428;
454.8000;0.1555;10.7452;
455.1000;0.1555;10.7379;
455.4000;0.1571;10.7307;
455.7000;0.1547;10.7331;
456.0000;0.1563;10.7355;
456.3000;0.1555;10.7452;
456.6000;0.1571;10.7500;
456.9000;0.1563;10.7524;
457.2000;0.1555;10.7476;
457.5000;0.1579;10.7572;
457.8000;0.1547;10.7428;
458.1000;0.1563;10.7379;
458.4000;0.1571;10.7500;
458.7000;0.1538;10.7476;
459.0000;0.1563;10.7500;
459.3000;0.1563;10.7500;
459.6000;0.1555;10.7500;
459.9000;0.1604;10.7669;
460.2000;0.1563;10.7548;
460.5000;0.1555;10.7548;
460.8000;0.1571;10.7572;
461.1000;0.1530;10.7403;
461.4000;0.1538;10.7428;
461.7000;0.1530;10.7476;
462.0000;0.1636;10.7813;
462.3000;0.1547;10.7524;
462.6000;0.1604;10.7596;
462.9000;0.1563;10.7476;
463.2000;0.1563;10.7452;
463.5000;0.1555;10.7428;
463.8000;0.1538;10.7403;
464.1000;0.1538;10.7428;
464.4000;0.1547;10.7403;
464.7000;0.1555;10.7428;
465.0000;0.1555;10.7355;
465.3000;0.1563;10.7452;
465.6000;0.1579;10.7500;
465.9000;0.1604;10.7621;
466.2000;0.1579;10.7500;
466.5000;0.1530;10.7403;
466.8000;0.1563;10.7452;
467.1000;0.1563;10.7476;
467.4000;0.1571;10.7524;
467.7000;0.1571;10.7524;
468.0000;0.1587;10.7621;
468.3000;0.1563;10.7548;
468.6000;0.1555;10.7428;
468.9000;0.1547;10.7403;
469.2000;0.1563;10.7452;
469.5000;0.1522;10.7379;
469.8000;0.1555;10.7452;
470.1000;0.1579;10.7500;
470.4000;0.1579;10.7500;
470.7000;0.1538;10.7307;
471.0000;0.1563;10.7403;
471.3000;0.1555;10.7355;
471.6000;0.1563;10.7331;
471.9000;0.1555;10.7259;
472.2000;0.1571;10.7307;
472.5000;0.1555;10.7283;
472.8000;0.1530;10.7259;
473.1000;0.1555;10.7355;
473.4000;0.1620;10.7572;
473.7000;0.1506;10.7331;
474.0000;0.1530;10.7331;
474.3000;0.1547;10.7428;
474.6000;0.1522;10.7307;
474.9000;0.1449;10.7042;
475.2000;0.1555;10.7307;
475.5000;0.1579;10.7379;
475.8000;0.1571;10.7331;
476.1000;0.1563;10.7403;
476.4000;0.1547;10.7379;
476.7000;0.1555;10.7428;
477.0000;0.1571;10.7548;
477.3000;0.1563;10.7500;
477.6000;0.1563;10.7452;
477.9000;0.1579;10.7500;
478.2000;0.1563;10.7500;
478.5000;0.1538;10.7379;
478.8000;0.1579;10.7428;
479.1000;0.1563;10.7476;
479.4000;0.1563;10.7500;
479.7000;0.1555;10.7428;
480.0000;0.1555;10.7355;
480.3000;0.1563;10.7403;
480.6000;0.1538;10.7355;
480.9000;0.1587;10.7403;
481.2000;0.1612;10.7452;
481.5000;0.1563;10.7355;
481.8000;0.1636;10.7476;
482.1000;0.1563;10.7210;
482.4000;0.1579;10.7186;
482.7000;0.1538;10.6945;
483.0000;0.1579;10.7042;
483.3000;0.1571;10.7090;
483.6000;0.1547;10.7066;
483.9000;0.1563;10.7162;
484.2000;0.1506;10.7042;
484.5000;0.1530;10.7162;
484.8000;0.1547;10.7307;
485.1000;0.1547;10.7283;
485.4000;0.1538;10.7235;
485.7000;0.1571;10.7186;
486.0000;0.1571;10.7162;
486.3000;0.1563;10.7235;
486.6000;0.1628;10.7500;
486.9000;0.1563;10.7331;
487.2000;0.1547;10.7259;
487.5000;0.1563;10.7210;
487.8000;0.1555;10.7162;
488.1000;0.1555;10.7210;
488.4000;0.1547;10.7162;
488.7000;0.1555;10.7235;
489.0000;0.1547;10.7162;
489.3000;0.1547;10.7307;
489.6000;0.1555;10.7307;
489.9000;0.1563;10.7283;
490.2000;0.1563;10.7259;
490.5000;0.1547;10.7259;
490.8000;0.1579;10.7452;
491.1000;0.1563;10.7476;
491.4000;0.1538;10.7379;
491.7000;0.1571;10.7452;
492.0000;0.1579;10.7476;
492.3000;0.1571;10.7403;
492.6000;0.1612;10.7524;
492.9000;0.1587;10.7428;
493.2000;0.1563;10.7403;
493.5000;0.1628;10.7572;
493.8000;0.1587;10.7548;
494.1000;0.1547;10.7452;
494.4000;0.1555;10.7428;
494.7000;0.1530;10.7403;
495.0000;0.1555;10.7403;
495.3000;0.1538;10.7355;
495.6000;0.1612;10.7524;
495.9000;0.1555;10.7403;
496.2000;0.1555;10.7355;
496.5000;0.1636;10.7596;
496.8000;0.1579;10.7500;
497.1000;0.1547;10.7452;
497.4000;0.1579;10.7500;
497.7000;0.1595;10.7621;
498.0000;0.1563;10.7548;
498.3000;0.1563;10.7524;
498.6000;0.1563;10.7500;
498.9000;0.1595;10.7572;
499.2000;0.1538;10.7428;
499.5000;0.1547;10.7428;
499.8000;0.1473;10.7210;
500.1000;0.1563;10.7355;
500.4000;0.1547;10.7355;
500.7000;0.1530;10.7235;
501.0000;0.1571;10.7331;
501.3000;0.1563;10.7259;
501.6000;0.1563;10.7331;
501.9000;0.1587;10.7452;
502.2000;0.1555;10.7307;
502.5000;0.1555;10.7331;
502.8000;0.1669;10.7596;
503.1000;0.1538;10.7307;
503.4000;0.1538;10.7403;
503.7000;0.1514;10.7283;
504.0000;0.1538;10.7403;
504.3000;0.1636;10.7693;
504.6000;0.1538;10.7428;
504.9000;0.1563;10.7500;
505.2000;0.1612;10.7621;
505.5000;0.1579;10.7452;
505.8000;0.1563;10.7355;
506.1000;0.1604;10.7548;
506.4000;0.1595;10.7476;
506.7000;0.1571;10.7403;
507.0000;0.1538;10.7355;
507.3000;0.1571;10.7403;
507.6000;0.1514;10.7210;
507.9000;0.1571;10.7452;
508.2000;0.1579;10.7476;
508.5000;0.1547;10.7403;
508.8000;0.1595;10.7524;
509.1000;0.1571;10.7452;
509.4000;0.1661;10.7717;
509.7000;0.1563;10.7428;
510.0000;0.1563;10.7428;
510.3000;0.1547;10.7452;
510.6000;0.1514;10.7379;
510.9000;0.1522;10.7379;
511.2000;0.1538;10.7403;
511.5000;0.1595;10.7596;
511.8000;0.1555;10.7500;
512.1000;0.1514;10.7379;
512.4000;0.1563;10.7500;
512.7000;0.1571;10.7500;
513.0000;0.1571;10.7452;
513.3000;0.1555;10.7428;
513.6000;0.1563;10.7452;
513.9000;0.1579;10.7500;
514.2000;0.1587;10.7403;
514.5000;0.1555;10.7283;
514.8000;0.1571;10.7355;
515.1000;0.1563;10.7428;
515.4000;0.1587;10.7476;
515.7000;0.1359;10.6849;
516.0000;0.1571;10.7500;
516.3000;0.1555;10.7476;
516.6000;0.1571;10.7476;
516.9000;0.1563;10.7331;
517.2000;0.1547;10.7307;
517.5000;0.1587;10.7476;
517.8000;0.1579;10.7548;
518.1000;0.1579;10.7645;
518.4000;0.1538;10.7572;
518.7000;0.1538;10.7572;
519.0000;0.1563;10.7645;
519.3000;0.1563;10.7572;
519.6000;0.1620;10.7717;
519.9000;0.1555;10.7548;
520.2000;0.1547;10.7500;
520.5000;0.1571;10.7621;
520.8000;0.1538;10.7524;
521.1000;0.1571;10.7621;
521.4000;0.1563;10.7693;
521.7000;0.1555;10.7669;
522.0000;0.1571;10.7645;
522.3000;0.1555;10.7572;
522.6000;0.1547;10.7524;
522.9000;0.1571;10.7500;
523.2000;0.1587;10.7524;
523.5000;0.1555;10.7500;
523.8000;0.1538;10.7476;
524.1000;0.1547;10.7524;
524.4000;0.1571;10.7572;
524.7000;0.1555;10.7524;
525.0000;0.1514;10.7307;
525.3000;0.1563;10.7355;
525.6000;0.1555;10.7379;
525.9000;0.1538;10.7355;
526.2000;0.1563;10.7428;
526.5000;0.1563;10.7403;
526.8000;0.1563;10.7548;
527.1000;0.1571;10.7669;
527.4000;0.1555;10.7645;
527.7000;0.1555;10.7572;
528.0000;0.1555;10.7548;
528.3000;0.1563;10.7596;
528.6000;0.1547;10.7476;
528.9000;0.1547;10.7500;
529.2000;0.1555;10.7452;
529.5000;0.1490;10.7259;
529.8000;0.1555;10.7476;
530.1000;0.1587;10.7548;
530.4000;0.1595;10.7621;
530.7000;0.1514;10.7355;
531.0000;0.1547;10.7379;
531.3000;0.1547;10.7403;
531.6000;0.1555;10.7379;
531.9000;0.1547;10.7307;
532.2000;0.1530;10.7210;
532.5000;0.1547;10.7379;
532.8000;0.1530;10.7379;
533.1000;0.1579;10.7476;
533.4000;0.1555;10.7452;
533.7000;0.1538;10.7428;
534.0000;0.1555;10.7403;
534.3000;0.1547;10.7355;
534.6000;0.1547;10.7355;
534.9000;0.1555;10.7428;
535.2000;0.1538;10.7476;
535.5000;0.1555;10.7548;
535.8000;0.1595;10.7596;
536.1000;0.1563;10.7548;
536.4000;0.1563;10.7548;
536.7000;0.1563;10.7476;
537.0000;0.1547;10.7403;
537.3000;0.1571;10.7500;
537.6000;0.1571;10.7452;
537.9000;0.1547;10.7379;
538.2000;0.1563;10.7452;
538.5000;0.1571;10.7428;
538.8000;0.1563;10.7476;
539.1000;0.1506;10.7283;
539.4000;0.1538;10.7331;
539.7000;0.1587;10.7476;
540.0000;0.1555;10.7428;
540.3000;0.1595;10.7621;
540.6000;0.1555;10.7452;
540.9000;0.1547;10.7403;
541.2000;0.1579;10.7548;
541.5000;0.1563;10.7476;
541.8000;0.1555;10.7452;
542.1000;0.1555;10.7524;
542.4000;0.1530;10.7355;
542.7000;0.1571;10.7428;
543.0000;0.1555;10.7428;
543.3000;0.1604;10.7548;
543.6000;0.1612;10.7572;
543.9000;0.1571;10.7524;
544.2000;0.1555;10.7452;
544.5000;0.1547;10.7428;
544.8000;0.1604;10.7596;
545.1000;0.1571;10.7548;
545.4000;0.1563;10.7476;
545.7000;0.1538;10.7428;
546.0000;0.1555;10.7476;
546.3000;0.1538;10.7355;
546.6000;0.1465;10.7090;
546.9000;0.1555;10.7307;
547.2000;0.1555;10.7210;
547.5000;0.1644;10.7428;
547.8000;0.1563;10.7186;
548.1000;0.1563;10.7162;
548.4000;0.1579;10.7138;
548.7000;0.1571;10.7162;
549.0000;0.1490;10.6873;
549.3000;0.1547;10.7018;
549.6000;0.1571;10.7090;
549.9000;0.1563;10.7090;
550.2000;0.1571;10.7090;
550.5000;0.1563;10.7162;
550.8000;0.1579;10.7283;
551.1000;0.1555;10.7186;
551.4000;0.1563;10.7283;
551.7000;0.1547;10.7259;
552.0000;0.1530;10.7210;
552.3000;0.1563;10.7379;
552.6000;0.1514;10.7235;
552.9000;0.1563;10.7379;
553.2000;0.1571;10.7355;
553.5000;0.1571;10.7355;
553.8000;0.1563;10.7379;
554.1000;0.1522;10.7235;
554.4000;0.1604;10.7500;
554.7000;0.1555;10.7355;
555.0000;0.1563;10.7331;
555.3000;0.1538;10.7379;
555.6000;0.1538;10.7500;
555.9000;0.1538;10.7428;
556.2000;0.1579;10.7476;
556.5000;0.1563;10.7403;
556.8000;0.1538;10.7307;
557.1000;0.1522;10.7210;
557.4000;0.1579;10.7500;
557.7000;0.1579;10.7572;
558.0000;0.1449;10.7210;
558.3000;0.1555;10.7548;
558.6000;0.1571;10.7621;
558.9000;0.1579;10.7596;
559.2000;0.1547;10.7524;
559.5000;0.1555;10.7428;
559.8000;0.1563;10.7428;
560.1000;0.1563;10.7403;
560.4000;0.1563;10.7403;
560.7000;0.1563;10.7428;
561.0000;0.1555;10.7452;
561.3000;0.1579;10.7500;
561.6000;0.1563;10.7476;
561.9000;0.1571;10.7476;
562.2000;0.1571;10.7428;
562.5000;0.1579;10.7403;
562.8000;0.1579;10.7379;
563.1000;0.1563;10.7379;
563.4000;0.1563;10.7403;
563.7000;0.1547;10.7428;
564.0000;0.1555;10.7500;
564.3000;0.1555;10.7452;
564.6000;0.1538;10.7452;
564.9000;0.1547;10.7548;
565.2000;0.1571;10.7645;
565.5000;0.1547;10.7596;
565.8000;0.1530;10.7572;
566.1000;0.1563;10.7621;
566.4000;0.1555;10.7572;
566.7000;0.1571;10.7572;
567.0000;0.1547;10.7596;
567.3000;0.1547;10.7548;
567.6000;0.1579;10.7548;
567.9000;0.1555;10.7524;
568.2000;0.1530;10.7428;
568.5000;0.1555;10.7548;
568.8000;0.1530;10.7403;
569.1000;0.1555;10.7548;
569.4000;0.1563;10.7645;
569.7000;0.1620;10.7813;
570.0000;0.1555;10.7645;
570.3000;0.1563;10.7717;
570.6000;0.1571;10.7741;
570.9000;0.1530;10.7596;
571.2000;0.1547;10.7596;
571.5000;0.1563;10.7645;
571.8000;0.1555;10.7717;
572.1000;0.1530;10.7621;
572.4000;0.1547;10.7669;
572.7000;0.1555;10.7645;
573.0000;0.1636;10.7862;
573.3000;0.1555;10.7741;
573.6000;0.1571;10.7741;
573.9000;0.1555;10.7669;
574.2000;0.1547;10.7596;
574.5000;0.1538;10.7548;
574.8000;0.1604;10.7645;
575.1000;0.1612;10.7669;
575.4000;0.1644;10.7669;
575.7000;0.1555;10.7307;
576.0000;0.1547;10.7307;
576.3000;0.1538;10.7307;
576.6000;0.1571;10.7428;
576.9000;0.1538;10.7379;
577.2000;0.1547;10.7452;
577.5000;0.1555;10.7548;
577.8000;0.1555;10.7572;
578.1000;0.1547;10.7500;
578.4000;0.1604;10.7572;
578.7000;0.1571;10.7572;
579.0000;0.1563;10.7572;
579.3000;0.1579;10.7596;
579.6000;0.1571;10.7572;
579.9000;0.1563;10.7572;
580.2000;0.1604;10.7645;
580.5000;0.1563;10.7621;
580.8000;0.1555;10.7548;
581.1000;0.1530;10.7307;
581.4000;0.1555;10.7379;
581.7000;0.1555;10.7331;
582.0000;0.1563;10.7355;
582.3000;0.1652;10.7500;
582.6000;0.1555;10.7235;
582.9000;0.1579;10.7379;
583.2000;0.1555;10.7379;
583.5000;0.1555;10.7428;
583.8000;0.1587;10.7524;
584.1000;0.1620;10.7596;
584.4000;0.1571;10.7524;
584.7000;0.1563;10.7548;
585.0000;0.1579;10.7500;
585.3000;0.1563;10.7572;
585.6000;0.1587;10.7669;
585.9000;0.1563;10.7596;
586.2000;0.1563;10.7596;
586.5000;0.1522;10.7548;
586.8000;0.1595;10.7886;
587.1000;0.1563;10.7789;
587.4000;0.1547;10.7838;
587.7000;0.1555;10.7789;
588.0000;0.1563;10.7765;
588.3000;0.1530;10.7596;
588.6000;0.1555;10.7621;
588.9000;0.1547;10.7621;
589.2000;0.1571;10.7645;
589.5000;0.1563;10.7645;
589.8000;0.1563;10.7693;
590.1000;0.1530;10.7645;
590.4000;0.1555;10.7596;
590.7000;0.1563;10.7645;
591.0000;0.1563;10.7621;
591.3000;0.1441;10.7379;
591.6000;0.1555;10.7693;
591.9000;0.1547;10.7717;
592.2000;0.1547;10.7693;
592.5000;0.1563;10.7741;
592.8000;0.1661;10.8055;
593.1000;0.1579;10.7789;
593.4000;0.1579;10.7838;
593.7000;0.1563;10.7765;
594.0000;0.1563;10.7645;
594.3000;0.1563;10.7621;
594.6000;0.1555;10.7548;
594.9000;0.1612;10.7693;
595.2000;0.1563;10.7645;
595.5000;0.1555;10.7693;
595.8000;0.1530;10.7717;
596.1000;0.1604;10.7958;
596.4000;0.1563;10.7765;
596.7000;0.1530;10.7693;
597.0000;0.1530;10.7741;
597.3000;0.1563;10.7813;
597.6000;0.1563;10.7789;
597.9000;0.1547;10.7693;
598.2000;0.1465;10.7452;
598.5000;0.1620;10.7741;
598.8000;0.1563;10.7476;
599.1000;0.1652;10.7741;
599.4000;0.1563;10.7524;
599.7000;0.1538;10.7524;
600.0000;0.1547;10.7621;
600.3000;0.1555;10.7596;
600.6000;0.1571;10.7524;
600.9000;0.1555;10.7379;
601.2000;0.1490;10.7042;
601.5000;0.1498;10.6969;
601.8000;0.1530;10.6897;
602.1000;0.1522;10.6776;
602.4000;0.1563;10.6680;
602.7000;0.1490;10.6415;
603.0000;0.1481;10.6270;
603.3000;0.1490;10.6246;
603.6000;0.1481;10.6222;
603.9000;0.1473;10.6077;
604.2000;0.1490;10.6005;
604.5000;0.1473;10.5956;
604.8000;0.1449;10.5884;
605.1000;0.1457;10.5787;
605.4000;0.1465;10.5787;
605.7000;0.1457;10.5787;
606.0000;0.1473;10.5763;
606.3000;0.1473;10.5691;
606.6000;0.1522;10.5715;
606.9000;0.1457;10.5522;
607.2000;0.1449;10.5474;
607.5000;0.1473;10.5450;
607.8000;0.1457;10.5305;
608.1000;0.1441;10.5209;
608.4000;0.1465;10.5305;
608.7000;0.1465;10.5233;
609.0000;0.1433;10.5209;
609.3000;0.1425;10.5184;
609.6000;0.1498;10.5426;
609.9000;0.1457;10.5353;
610.2000;0.1433;10.5281;
610.5000;0.1425;10.5233;
610.8000;0.1457;10.5281;
611.1000;0.1457;10.5281;
611.4000;0.1449;10.5257;
611.7000;0.1433;10.5281;
612.0000;0.1433;10.5233;
612.3000;0.1449;10.5160;
612.6000;0.1457;10.5160;
612.9000;0.1473;10.5088;
613.2000;0.1416;10.4943;
613.5000;0.1416;10.5040;
613.8000;0.1425;10.5040;
614.1000;0.1441;10.5064;
614.4000;0.1425;10.5064;
614.7000;0.1425;10.5064;
615.0000;0.1441;10.5184;
615.3000;0.1376;10.4895;
615.6000;0.1425;10.5040;
615.9000;0.1335;10.4774;
616.2000;0.1416;10.5088;
616.5000;0.1425;10.5016;
616.8000;0.1433;10.5040;
617.1000;0.1425;10.4991;
617.4000;0.1441;10.4967;
617.7000;0.1433;10.5088;
618.0000;0.1433;10.5160;
618.3000;0.1400;10.5136;
618.6000;0.1416;10.5209;
618.9000;0.1457;10.5233;
619.2000;0.1449;10.5160;
619.5000;0.1400;10.4895;
619.8000;0.1433;10.4847;
620.1000;0.1384;10.4726;
620.4000;0.1416;10.4871;
620.7000;0.1441;10.4919;
621.0000;0.1433;10.4943;
621.3000;0.1555;10.5305;
621.6000;0.1441;10.4967;
621.9000;0.1457;10.4871;
622.2000;0.1433;10.5016;
622.5000;0.1433;10.5064;
622.8000;0.1433;10.5112;
623.1000;0.1457;10.5160;
623.4000;0.1457;10.5209;
623.7000;0.1416;10.5112;
624.0000;0.1441;10.5064;
624.3000;0.1481;10.5160;
624.6000;0.1433;10.5016;
624.9000;0.1441;10.5064;
625.2000;0.1433;10.5112;
625.5000;0.1408;10.5064;
625.8000;0.1425;10.5040;
626.1000;0.1498;10.5329;
626.4000;0.1392;10.5088;
626.7000;0.1433;10.5112;
627.0000;0.1514;10.5402;
627.3000;0.1408;10.5112;
627.6000;0.1416;10.5064;
627.9000;0.1425;10.5088;
628.2000;0.1433;10.5088;
628.5000;0.1416;10.5088;
628.8000;0.1408;10.5040;
629.1000;0.1376;10.4991;
629.4000;0.1425;10.5233;
629.7000;0.1408;10.5088;
630.0000;0.1425;10.5160;
630.3000;0.1433;10.5257;
630.6000;0.1408;10.5209;
630.9000;0.1441;10.5353;
631.2000;0.1449;10.5377;
631.5000;0.1449;10.5353;
631.8000;0.1441;10.5329;
632.1000;0.1449;10.5329;
632.4000;0.1433;10.5257;
632.7000;0.1441;10.5209;
633.0000;0.1368;10.4895;
633.3000;0.1457;10.5040;
633.6000;0.1392;10.5040;
633.9000;0.1457;10.5209;
634.2000;0.1441;10.5088;
634.5000;0.1425;10.5016;
634.8000;0.1506;10.5136;
635.1000;0.1400;10.4774;
635.4000;0.1473;10.4991;
635.7000;0.1408;10.4895;
636.0000;0.1408;10.4895;
636.3000;0.1311;10.4654;
636.6000;0.1425;10.5016;
636.9000;0.1408;10.5016;
637.2000;0.1425;10.5112;
637.5000;0.1408;10.5016;
637.8000;0.1538;10.5377;
638.1000;0.1416;10.5088;
638.4000;0.1416;10.5112;
638.7000;0.1425;10.5136;
639.0000;0.1425;10.5209;
639.3000;0.1433;10.5281;
639.6000;0.1433;10.5184;
639.9000;0.1441;10.5184;
640.2000;0.1441;10.5184;
640.5000;0.1433;10.5160;
640.8000;0.1416;10.5160;
641.1000;0.1433;10.5160;
641.4000;0.1425;10.5088;
641.7000;0.1441;10.4991;
642.0000;0.1441;10.4967;
642.3000;0.1457;10.5040;
642.6000;0.1441;10.4991;
642.9000;0.1400;10.4847;
643.2000;0.1425;10.4871;
643.5000;0.1433;10.4967;
643.8000;0.1441;10.4991;
644.1000;0.1416;10.4895;
644.4000;0.1425;10.4799;
644.7000;0.1441;10.4919;
645.0000;0.1416;10.4871;
645.3000;0.1433;10.4943;
645.6000;0.1490;10.4991;
645.9000;0.1457;10.5016;
646.2000;0.1433;10.4991;
646.5000;0.1343;10.4750;
646.8000;0.1449;10.5016;
647.1000;0.1392;10.4895;
647.4000;0.1457;10.5112;
647.7000;0.1416;10.5016;
648.0000;0.1392;10.4919;
648.3000;0.1425;10.5064;
648.6000;0.1425;10.5088;
648.9000;0.1433;10.5088;
649.2000;0.1416;10.5112;
649.5000;0.1376;10.5088;
649.8000;0.1425;10.5184;
650.1000;0.1425;10.5112;
650.4000;0.1449;10.5112;
650.7000;0.1433;10.5112;
651.0000;0.1376;10.5040;
651.3000;0.1449;10.5329;
651.6000;0.1473;10.5402;
651.9000;0.1441;10.5281;
652.2000;0.1481;10.5353;
652.5000;0.1441;10.5329;
652.8000;0.1433;10.5329;
653.1000;0.1490;10.5498;
653.4000;0.1449;10.5281;
653.7000;0.1416;10.5281;
654.0000;0.1416;10.5281;
654.3000;0.1433;10.5233;
654.6000;0.1449;10.5233;
654.9000;0.1457;10.5329;
655.2000;0.1441;10.5281;
655.5000;0.1449;10.5233;
655.8000;0.1433;10.5112;
656.1000;0.1425;10.5160;
656.4000;0.1433;10.5136;
656.7000;0.1433;10.5160;
657.0000;0.1441;10.5209;
657.3000;0.1441;10.5209;
657.6000;0.1416;10.5184;
657.9000;0.1416;10.5136;
658.2000;0.1425;10.5088;
658.5000;0.1425;10.4943;
658.8000;0.1425;10.4991;
659.1000;0.1416;10.5064;
659.4000;0.1425;10.5016;
659.7000;0.1408;10.4943;
660.0000;0.1425;10.5088;
660.3000;0.1416;10.5064;
660.6000;0.1433;10.5184;
660.9000;0.1392;10.5040;
661.2000;0.1425;10.5136;
661.5000;0.1441;10.5088;
661.8000;0.1416;10.5040;
662.1000;0.1425;10.5040;
662.4000;0.1441;10.5160;
662.7000;0.1441;10.5064;
663.0000;0.1449;10.5112;
663.3000;0.1425;10.5112;
663.6000;0.1433;10.5136;
663.9000;0.1408;10.5136;
664.2000;0.1433;10.5184;
664.5000;0.1441;10.5281;
664.8000;0.1408;10.5209;
665.1000;0.1433;10.5136;
665.4000;0.1416;10.5136;
665.7000;0.1425;10.5136;
666.0000;0.1408;10.5088;
666.3000;0.1441;10.5160;
666.6000;0.1441;10.5040;
666.9000;0.1433;10.5016;
667.2000;0.1449;10.4991;
667.5000;0.1425;10.4991;
667.8000;0.1449;10.5136;
668.1000;0.1433;10.5136;
668.4000;0.1425;10.5136;
668.7000;0.1433;10.5136;
669.0000;0.1441;10.5136;
669.3000;0.1425;10.5016;
669.6000;0.1416;10.5040;
669.9000;0.1433;10.5040;
670.2000;0.1425;10.5040;
670.5000;0.1530;10.5353;
670.8000;0.1441;10.5088;
671.1000;0.1449;10.5088;
671.4000;0.1433;10.5088;
671.7000;0.1433;10.5088;
672.0000;0.1278;10.4726;
672.3000;0.1449;10.5160;
672.6000;0.1449;10.5184;
672.9000;0.1433;10.5088;
673.2000;0.1473;10.5136;
673.5000;0.1498;10.5184;
673.8000;0.1433;10.5040;
674.1000;0.1433;10.5016;
674.4000;0.1433;10.5016;
674.7000;0.1433;10.5016;
675.0000;0.1457;10.5064;
675.3000;0.1433;10.4967;
675.6000;0.1416;10.5064;
675.9000;0.1433;10.5088;
676.2000;0.1441;10.5064;
676.5000;0.1416;10.5040;
676.8000;0.1449;10.5136;
677.1000;0.1441;10.5136;
677.4000;0.1416;10.5112;
677.7000;0.1433;10.5209;
678.0000;0.1441;10.5233;
678.3000;0.1425;10.5160;
678.6000;0.1416;10.5088;
678.9000;0.1441;10.5136;
679.2000;0.1408;10.5088;
679.5000;0.1408;10.5064;
679.8000;0.1441;10.5160;
680.1000;0.1416;10.5160;
680.4000;0.1441;10.5160;
680.7000;0.1425;10.5088;
681.0000;0.1433;10.5064;
681.3000;0.1425;10.4991;
681.6000;0.1433;10.4991;
681.9000;0.1376;10.4799;
682.2000;0.1433;10.5016;
682.5000;0.1441;10.5016;
682.8000;0.1514;10.5209;
683.1000;0.1408;10.4943;
683.4000;0.1449;10.5088;
683.7000;0.1425;10.5016;
684.0000;0.1416;10.5064;
684.3000;0.1425;10.5136;
684.6000;0.1425;10.5209;
684.9000;0.1473;10.5281;
685.2000;0.1441;10.5160;
685.5000;0.1441;10.5160;
685.8000;0.1433;10.5064;
686.1000;0.1441;10.5016;
686.4000;0.1416;10.5040;
686.7000;0.1441;10.5088;
687.0000;0.1441;10.5064;
687.3000;0.1441;10.5112;
687.6000;0.1392;10.5088;
687.9000;0.1433;10.5136;
688.2000;0.1416;10.5136;
688.5000;0.1416;10.5088;
688.8000;0.1416;10.4991;
689.1000;0.1506;10.5209;
689.4000;0.1441;10.5040;
689.7000;0.1392;10.4871;
690.0000;0.1441;10.5064;
690.3000;0.1433;10.4943;
690.6000;0.1433;10.4943;
690.9000;0.1368;10.4678;
691.2000;0.1425;10.4847;
691.5000;0.1433;10.4943;
691.8000;0.1433;10.5040;
692.1000;0.1425;10.4991;
692.4000;0.1457;10.5088;
692.7000;0.1449;10.5040;
693.0000;0.1425;10.5112;
693.3000;0.1433;10.5088;
693.6000;0.1441;10.5088;
693.9000;0.1425;10.5064;
694.2000;0.1425;10.5088;
694.5000;0.1490;10.5305;
694.8000;0.1408;10.4991;
695.1000;0.1425;10.4991;
695.4000;0.1416;10.4919;
695.7000;0.1433;10.4919;
696.0000;0.1392;10.4750;
696.3000;0.1425;10.4823;
696.6000;0.1473;10.5064;
696.9000;0.1425;10.4871;
697.2000;0.1490;10.4967;
697.5000;0.1441;10.4967;
697.8000;0.1376;10.4799;
698.1000;0.1433;10.4991;
698.4000;0.1416;10.4871;
698.7000;0.1392;10.4774;
699.0000;0.1400;10.4774;
699.3000;0.1441;10.4895;
699.6000;0.1392;10.4702;
699.9000;0.1425;10.4799;
700.2000;0.1473;10.4991;
700.5000;0.1490;10.5184;
700.8000;0.1441;10.5064;
701.1000;0.1433;10.5016;
701.4000;0.1433;10.4991;
701.7000;0.1425;10.4967;
702.0000;0.1433;10.5016;
702.3000;0.1449;10.5040;
702.6000;0.1441;10.5016;
702.9000;0.1376;10.4919;
703.2000;0.1441;10.5040;
703.5000;0.1441;10.5040;
703.8000;0.1376;10.4895;
704.1000;0.1449;10.5112;
704.4000;0.1449;10.5136;
704.7000;0.1449;10.5184;
705.0000;0.1425;10.5088;
705.3000;0.1416;10.5040;
705.6000;0.1433;10.5064;
705.9000;0.1433;10.5088;
706.2000;0.1425;10.5016;
706.5000;0.1433;10.5016;
706.8000;0.1441;10.5088;
707.1000;0.1449;10.5112;
707.4000;0.1441;10.5088;
707.7000;0.1400;10.4895;
708.0000;0.1465;10.5016;
708.3000;0.1449;10.4991;
708.6000;0.1425;10.5064;
708.9000;0.1425;10.5064;
709.2000;0.1425;10.5088;
709.5000;0.1416;10.5016;
709.8000;0.1433;10.5136;
710.1000;0.1416;10.5112;
710.4000;0.1416;10.5112;
710.7000;0.1481;10.5209;
711.0000;0.1335;10.4774;
711.3000;0.1433;10.5040;
711.6000;0.1376;10.4943;
711.9000;0.1465;10.5160;
712.2000;0.1433;10.5160;
712.5000;0.1425;10.5112;
712.8000;0.1416;10.5016;
713.1000;0.1425;10.5088;
713.4000;0.1425;10.5184;
713.7000;0.1343;10.4967;
714.0000;0.1441;10.5233;
714.3000;0.1457;10.5209;
714.6000;0.1449;10.5233;
714.9000;0.1441;10.5088;
715.2000;0.1433;10.4991;
715.5000;0.1457;10.5112;
715.8000;0.1481;10.5233;
716.1000;0.1384;10.5064;
716.4000;0.1433;10.5016;
716.7000;0.1441;10.4991;
717.0000;0.1441;10.4991;
717.3000;0.1433;10.4943;
717.6000;0.1457;10.4919;
717.9000;0.1425;10.4823;
718.2000;0.1555;10.5184;
718.5000;0.1433;10.4991;
718.8000;0.1384;10.4871;
719.1000;0.1457;10.5016;
719.4000;0.1441;10.4967;
719.7000;0.1433;10.5016;
720.0000;0.1416;10.4967;
720.3000;0.1392;10.4895;
720.6000;0.1384;10.4799;
720.9000;0.1425;10.4967;
721.2000;0.1441;10.4967;
721.5000;0.1425;10.4943;
721.8000;0.1376;10.4799;
722.1000;0.1425;10.4871;
722.4000;0.1441;10.4919;
722.7000;0.1465;10.4895;
723.0000;0.1449;10.4943;
723.3000;0.1433;10.4871;
723.6000;0.1465;10.5016;
723.9000;0.1433;10.5040;
724.2000;0.1498;10.5064;
724.5000;0.1425;10.4847;
724.8000;0.1416;10.4847;
725.1000;0.1425;10.4750;
725.4000;0.1384;10.4702;
725.7000;0.1425;10.4823;
726.0000;0.1441;10.4799;
726.3000;0.1441;10.4823;
726.6000;0.1449;10.4895;
726.9000;0.1441;10.4871;
727.2000;0.1425;10.4871;
727.5000;0.1433;10.4919;
727.8000;0.1457;10.4943;
728.1000;0.1433;10.4823;
728.4000;0.1441;10.4871;
728.7000;0.1392;10.4823;
729.0000;0.1433;10.4991;
729.3000;0.1408;10.4967;
729.6000;0.1425;10.5016;
729.9000;0.1416;10.4919;
730.2000;0.1425;10.4919;
730.5000;0.1416;10.4871;
730.8000;0.1408;10.4847;
731.1000;0.1433;10.4871;
731.4000;0.1408;10.4847;
731.7000;0.1425;10.4823;
732.0000;0.1384;10.4774;
732.3000;0.1416;10.4871;
732.6000;0.1433;10.4871;
732.9000;0.1425;10.4750;
733.2000;0.1416;10.4726;
733.5000;0.1416;10.4750;
733.8000;0.1416;10.4799;
734.1000;0.1433;10.4871;
734.4000;0.1425;10.4847;
734.7000;0.1433;10.4919;
735.0000;0.1457;10.5016;
735.3000;0.1433;10.4991;
735.6000;0.1433;10.4967;
735.9000;0.1433;10.4967;
736.2000;0.1416;10.4847;
736.5000;0.1433;10.4774;
736.8000;0.1408;10.4726;
737.1000;0.1425;10.4799;
737.4000;0.1425;10.4799;
737.7000;0.1449;10.4871;
738.0000;0.1425;10.4847;
738.3000;0.1449;10.4943;
738.6000;0.1408;10.4895;
738.9000;0.1400;10.4799;
739.2000;0.1433;10.4943;
739.5000;0.1425;10.4943;
739.8000;0.1441;10.4991;
740.1000;0.1449;10.4991;
740.4000;0.1416;10.4895;
740.7000;0.1416;10.4943;
741.0000;0.1425;10.4895;
741.3000;0.1490;10.4991;
741.6000;0.1408;10.4847;
741.9000;0.1441;10.4895;
742.2000;0.1408;10.4895;
742.5000;0.1449;10.4919;
742.8000;0.1441;10.4895;
743.1000;0.1441;10.4967;
743.4000;0.1425;10.4871;
743.7000;0.1457;10.4919;
744.0000;0.1400;10.4799;
744.3000;0.1425;10.4847;
744.6000;0.1433;10.4895;
744.9000;0.1441;10.4847;
745.2000;0.1441;10.4871;
745.5000;0.1441;10.4919;
745.8000;0.1425;10.4895;
746.1000;0.1457;10.4967;
746.4000;0.1433;10.4943;
746.7000;0.1433;10.4871;
747.0000;0.1400;10.4871;
747.3000;0.1433;10.4967;
747.6000;0.1457;10.4967;
747.9000;0.1473;10.5088;
748.2000;0.1425;10.4871;
748.5000;0.1433;10.4919;
748.8000;0.1425;10.4943;
749.1000;0.1433;10.4967;
749.4000;0.1449;10.5016;
749.7000;0.1408;10.4919;
750.0000;0.1392;10.4847;
750.3000;0.1433;10.4919;
750.6000;0.1425;10.4943;
750.9000;0.1425;10.4943;
751.2000;0.1449;10.4919;
751.5000;0.1416;10.4823;
751.8000;0.1449;10.4919;
752.1000;0.1457;10.4991;
752.4000;0.1425;10.4919;
752.7000;0.1425;10.5040;
753.0000;0.1433;10.5136;
753.3000;0.1368;10.5040;
753.6000;0.1416;10.5040;
753.9000;0.1441;10.5064;
754.2000;0.1441;10.5064;
754.5000;0.1449;10.5040;
754.8000;0.1376;10.4799;
755.1000;0.1433;10.4991;
755.4000;0.1490;10.5112;
755.7000;0.1416;10.4895;
756.0000;0.1400;10.4895;
756.3000;0.1408;10.4895;
756.6000;0.1408;10.4943;
756.9000;0.1433;10.4967;
757.2000;0.1425;10.4919;
757.5000;0.1433;10.4871;
757.8000;0.1433;10.4967;
758.1000;0.1441;10.4871;
758.4000;0.1425;10.4919;
758.7000;0.1416;10.4823;
759.0000;0.1433;10.4847;
759.3000;0.1441;10.4847;
759.6000;0.1433;10.4823;
759.9000;0.1425;10.4823;
760.2000;0.1416;10.4823;
760.5000;0.1433;10.4895;
760.8000;0.1433;10.4871;
761.1000;0.1351;10.4702;
761.4000;0.1425;10.4895;
761.7000;0.1433;10.4823;
762.0000;0.1490;10.4991;
762.3000;0.1441;10.4799;
762.6000;0.1433;10.4799;
762.9000;0.1433;10.4847;
763.2000;0.1441;10.4919;
763.5000;0.1425;10.4871;
763.8000;0.1433;10.4871;
764.1000;0.1343;10.4557;
764.4000;0.1433;10.4678;
764.7000;0.1441;10.4678;
765.0000;0.1457;10.4702;
765.3000;0.1425;10.4702;
765.6000;0.1441;10.4774;
765.9000;0.1441;10.4774;
766.2000;0.1433;10.4799;
766.5000;0.1416;10.4726;
766.8000;0.1441;10.4847;
767.1000;0.1351;10.4581;
767.4000;0.1425;10.4726;
767.7000;0.1425;10.4654;
768.0000;0.1425;10.4630;
768.3000;0.1441;10.4630;
768.6000;0.1449;10.4726;
768.9000;0.1433;10.4799;
769.2000;0.1384;10.4678;
769.5000;0.1433;10.4774;
769.8000;0.1433;10.4750;
770.1000;0.1416;10.4654;
770.4000;0.1433;10.4678;
770.7000;0.1449;10.4654;
771.0000;0.1441;10.4581;
771.3000;0.1433;10.4557;
771.6000;0.1392;10.4364;
771.9000;0.1425;10.4557;
772.2000;0.1457;10.4678;
772.5000;0.1441;10.4581;
772.8000;0.1425;10.4606;
773.1000;0.1433;10.4702;
773.4000;0.1441;10.4774;
773.7000;0.1433;10.4774;
774.0000;0.1441;10.4799;
774.3000;0.1449;10.4871;
774.6000;0.1441;10.4750;
774.9000;0.1343;10.4437;
775.2000;0.1433;10.4557;
775.5000;0.1449;10.4630;
775.8000;0.1449;10.4606;
776.1000;0.1449;10.4606;
776.4000;0.1400;10.4533;
776.7000;0.1441;10.4557;
777.0000;0.1416;10.4461;
777.3000;0.1425;10.4461;
777.6000;0.1449;10.4581;
777.9000;0.1425;10.4557;
778.2000;0.1441;10.4654;
778.5000;0.1425;10.4533;
778.8000;0.1425;10.4630;
779.1000;0.1441;10.4702;
779.4000;0.1441;10.4726;
779.7000;0.1441;10.4774;
780.0000;0.1441;10.4847;
780.3000;0.1425;10.4726;
780.6000;0.1425;10.4750;
780.9000;0.1449;10.4823;
781.2000;0.1433;10.4774;
781.5000;0.1425;10.4774;
781.8000;0.1441;10.4967;
782.1000;0.1433;10.4991;
782.4000;0.1433;10.4943;
782.7000;0.1416;10.4895;
783.0000;0.1416;10.4823;
783.3000;0.1416;10.4895;
783.6000;0.1433;10.4943;
783.9000;0.1416;10.4919;
784.2000;0.1441;10.4967;
784.5000;0.1433;10.4871;
784.8000;0.1433;10.4847;
785.1000;0.1465;10.4991;
785.4000;0.1433;10.4847;
785.7000;0.1425;10.4799;
786.0000;0.1425;10.4750;
786.3000;0.1425;10.4750;
786.6000;0.1392;10.4726;
786.9000;0.1408;10.4750;
787.2000;0.1416;10.4847;
787.5000;0.1408;10.4895;
787.8000;0.1449;10.4943;
788.1000;0.1416;10.4895;
788.4000;0.1425;10.5016;
788.7000;0.1441;10.5040;
789.0000;0.1441;10.4967;
789.3000;0.1449;10.4943;
789.6000;0.1425;10.4895;
789.9000;0.1433;10.4895;
790.2000;0.1425;10.4847;
790.5000;0.1449;10.4847;
790.8000;0.1441;10.4774;
791.1000;0.1449;10.4847;
791.4000;0.1449;10.4823;
791.7000;0.1433;10.4726;
792.0000;0.1425;10.4678;
792.3000;0.1433;10.4678;
792.6000;0.1449;10.4774;
792.9000;0.1433;10.4750;
793.2000;0.1416;10.4726;
793.5000;0.1433;10.4799;
793.8000;0.1449;10.4799;
794.1000;0.1425;10.4823;
794.4000;0.1433;10.4919;
794.7000;0.1425;10.4895;
795.0000;0.1449;10.4895;
795.3000;0.1433;10.4823;
795.6000;0.1433;10.4847;
795.9000;0.1433;10.4919;
796.2000;0.1441;10.4967;
796.5000;0.1441;10.5016;
796.8000;0.1425;10.4895;
797.1000;0.1425;10.4823;
797.4000;0.1441;10.4847;
797.7000;0.1425;10.4774;
798.0000;0.1514;10.4991;
798.3000;0.1376;10.4726;
798.6000;0.1425;10.4847;
798.9000;0.1416;10.4871;
799.2000;0.1425;10.4774;
799.5000;0.1416;10.4750;
799.8000;0.1465;10.4823;
800.1000;0.1425;10.4895;
800.4000;0.1433;10.4919;
800.7000;0.1433;10.4943;
801.0000;0.1311;10.4678;
801.3000;0.1465;10.5112;
801.6000;0.1359;10.4726;
801.9000;0.1490;10.5064;
802.2000;0.1441;10.4871;
802.5000;0.1473;10.4991;
802.8000;0.1400;10.4726;
803.1000;0.1425;10.4871;
803.4000;0.1425;10.4895;
803.7000;0.1425;10.4847;
804.0000;0.1416;10.4871;
804.3000;0.1433;10.4823;
804.6000;0.1351;10.4606;
804.9000;0.1425;10.4750;
805.2000;0.1416;10.4799;
805.5000;0.1416;10.4750;
805.8000;0.1425;10.4750;
806.1000;0.1441;10.4799;
806.4000;0.1425;10.4726;
806.7000;0.1433;10.4799;
807.0000;0.1465;10.4991;
807.3000;0.1433;10.4943;
807.6000;0.1433;10.4895;
807.9000;0.1408;10.4967;
808.2000;0.1408;10.4943;
808.5000;0.1441;10.5040;
808.8000;0.1392;10.4871;
809.1000;0.1547;10.5377;
809.4000;0.1457;10.5064;
809.7000;0.1433;10.5088;
810.0000;0.1449;10.5112;
810.3000;0.1368;10.4895;
810.6000;0.1441;10.5112;
810.9000;0.1433;10.5088;
811.2000;0.1416;10.5040;
811.5000;0.1449;10.5160;
811.8000;0.1433;10.5112;
812.1000;0.1449;10.5184;
812.4000;0.1425;10.5040;
812.7000;0.1392;10.4967;
813.0000;0.1441;10.5112;
813.3000;0.1425;10.5064;
813.6000;0.1319;10.4823;
813.9000;0.1449;10.5160;
814.2000;0.1530;10.5377;
814.5000;0.1433;10.5064;
814.8000;0.1392;10.4991;
815.1000;0.1425;10.5064;
815.4000;0.1433;10.5016;
815.7000;0.1433;10.5016;
816.0000;0.1481;10.5136;
816.3000;0.1425;10.5016;
816.6000;0.1392;10.4823;
816.9000;0.1441;10.4847;
817.2000;0.1416;10.4799;
817.5000;0.1400;10.4774;
817.8000;0.1441;10.4799;
818.1000;0.1433;10.4799;
818.4000;0.1441;10.4823;
818.7000;0.1530;10.5160;
819.0000;0.1441;10.4943;
819.3000;0.1465;10.5016;
819.6000;0.1457;10.5040;
819.9000;0.1425;10.4967;
820.2000;0.1425;10.4967;
820.5000;0.1473;10.5040;
820.8000;0.1433;10.4943;
821.1000;0.1449;10.4967;
821.4000;0.1490;10.5064;
821.7000;0.1335;10.4750;
822.0000;0.1425;10.4967;
822.3000;0.1343;10.4726;
822.6000;0.1400;10.4823;
822.9000;0.1449;10.5040;
823.2000;0.1441;10.4943;
823.5000;0.1433;10.5064;
823.8000;0.1433;10.5088;
824.1000;0.1433;10.5064;
824.4000;0.1311;10.4799;
824.7000;0.1425;10.5112;
825.0000;0.1457;10.5160;
825.3000;0.1441;10.5112;
825.6000;0.1441;10.5040;
825.9000;0.1425;10.4895;
826.2000;0.1416;10.4823;
826.5000;0.1416;10.4799;
826.8000;0.1384;10.4799;
827.1000;0.1441;10.5088;
827.4000;0.1425;10.5136;
827.7000;0.1433;10.5112;
828.0000;0.1433;10.5112;
828.3000;0.1425;10.5112;
828.6000;0.1449;10.5112;
828.9000;0.1473;10.5160;
829.2000;0.1441;10.5016;
829.5000;0.1449;10.5064;
829.8000;0.1384;10.4967;
830.1000;0.1433;10.5064;
830.4000;0.1441;10.4967;
830.7000;0.1425;10.4823;
831.0000;0.1433;10.4967;
831.3000;0.1433;10.5040;
831.6000;0.1425;10.4967;
831.9000;0.1506;10.5160;
832.2000;0.1416;10.4823;
832.5000;0.1441;10.4895;
832.8000;0.1416;10.4871;
833.1000;0.1384;10.4702;
833.4000;0.1433;10.4919;
833.7000;0.1449;10.4967;
834.0000;0.1408;10.4895;
834.3000;0.1449;10.4967;
834.6000;0.1416;10.4943;
834.9000;0.1425;10.4919;
835.2000;0.1425;10.4967;
835.5000;0.1433;10.4991;
835.8000;0.1433;10.5016;
836.1000;0.1449;10.5136;
836.4000;0.1441;10.5088;
836.7000;0.1433;10.4991;
837.0000;0.1449;10.4991;
837.3000;0.1449;10.4943;
837.6000;0.1425;10.4871;
837.9000;0.1425;10.4943;
838.2000;0.1441;10.4991;
838.5000;0.1425;10.5040;
838.8000;0.1425;10.5064;
839.1000;0.1441;10.5064;
839.4000;0.1441;10.5040;
839.7000;0.1457;10.5064;
840.0000;0.1465;10.5088;
840.3000;0.1433;10.5040;
840.6000;0.1449;10.5016;
840.9000;0.1465;10.5016;
841.2000;0.1506;10.5184;
841.5000;0.1425;10.4943;
841.8000;0.1392;10.4919;
842.1000;0.1433;10.5040;
842.4000;0.1441;10.5064;
842.7000;0.1433;10.4991;
843.0000;0.1408;10.4943;
843.3000;0.1416;10.4991;
843.6000;0.1433;10.4967;
843.9000;0.1449;10.5016;
844.2000;0.1441;10.5040;
844.5000;0.1449;10.5040;
844.8000;0.1441;10.4991;
845.1000;0.1465;10.5040;
845.4000;0.1457;10.5040;
845.7000;0.1425;10.4967;
846.0000;0.1433;10.5016;
846.3000;0.1465;10.5016;
846.6000;0.1441;10.4967;
846.9000;0.1457;10.5064;
847.2000;0.1441;10.4919;
847.5000;0.1449;10.4943;
847.8000;0.1335;10.4726;
848.1000;0.1416;10.4967;
848.4000;0.1408;10.4919;
848.7000;0.1441;10.5016;
849.0000;0.1441;10.4991;
849.3000;0.1433;10.5016;
849.6000;0.1433;10.5016;
849.9000;0.1441;10.4967;
850.2000;0.1425;10.4919;
850.5000;0.1416;10.4895;
850.8000;0.1441;10.5040;
851.1000;0.1449;10.5136;
851.4000;0.1465;10.5184;
851.7000;0.1441;10.5064;
852.0000;0.1425;10.5040;
852.3000;0.1449;10.5088;
852.6000;0.1433;10.5016;
852.9000;0.1481;10.5112;
853.2000;0.1433;10.4919;
853.5000;0.1441;10.4967;
853.8000;0.1425;10.4847;
854.1000;0.1449;10.4847;
854.4000;0.1441;10.4895;
854.7000;0.1449;10.5040;
855.0000;0.1538;10.5329;
855.3000;0.1449;10.5136;
855.6000;0.1441;10.5160;
855.9000;0.1408;10.5112;
856.2000;0.1433;10.5064;
856.5000;0.1433;10.5136;
856.8000;0.1449;10.5160;
857.1000;0.1441;10.5064;
857.4000;0.1441;10.4967;
857.7000;0.1449;10.4967;
858.0000;0.1425;10.4871;
858.3000;0.1433;10.4943;
858.6000;0.1457;10.5016;
858.9000;0.1457;10.4895;
859.2000;0.1433;10.4847;
859.5000;0.1416;10.4871;
859.8000;0.1433;10.4895;
860.1000;0.1449;10.4895;
860.4000;0.1425;10.4847;
860.7000;0.1441;10.4919;
861.0000;0.1392;10.4847;
861.3000;0.1441;10.5064;
861.6000;0.1449;10.4991;
861.9000;0.1416;10.4895;
862.2000;0.1457;10.5016;
862.5000;0.1425;10.4943;
862.8000;0.1441;10.4991;
863.1000;0.1433;10.4943;
863.4000;0.1425;10.4967;
863.7000;0.1392;10.4871;
864.0000;0.1473;10.5112;
864.3000;0.1425;10.4967;
864.6000;0.1425;10.4919;
864.9000;0.1400;10.4967;
865.2000;0.1425;10.5016;
865.5000;0.1416;10.4943;
865.8000;0.1433;10.4895;
866.1000;0.1441;10.4943;
866.4000;0.1416;10.4823;
866.7000;0.1465;10.4919;
867.0000;0.1416;10.4823;
867.3000;0.1408;10.4823;
867.6000;0.1425;10.4871;
867.9000;0.1425;10.4895;
868.2000;0.1416;10.4823;
868.5000;0.1425;10.4895;
868.8000;0.1416;10.5040;
869.1000;0.1449;10.5088;
869.4000;0.1433;10.5184;
869.7000;0.1433;10.5209;
870.0000;0.1425;10.5257;
870.3000;0.1400;10.5184;
870.6000;0.1425;10.5281;
870.9000;0.1433;10.5329;
871.2000;0.1425;10.5329;
871.5000;0.1368;10.5209;
871.8000;0.1433;10.5353;
872.1000;0.1441;10.5281;
872.4000;0.1425;10.5281;
872.7000;0.1449;10.5377;
873.0000;0.1433;10.5329;
873.3000;0.1433;10.5233;
873.6000;0.1425;10.5184;
873.9000;0.1425;10.5136;
874.2000;0.1433;10.5112;
874.5000;0.1433;10.5088;
874.8000;0.1416;10.5040;
875.1000;0.1441;10.4967;
875.4000;0.1457;10.5016;
875.7000;0.1433;10.4967;
876.0000;0.1433;10.4871;
876.3000;0.1425;10.4943;
876.6000;0.1457;10.4943;
876.9000;0.1465;10.4919;
877.2000;0.1433;10.4823;
877.5000;0.1392;10.4726;
877.8000;0.1441;10.4919;
878.1000;0.1433;10.4871;
878.4000;0.1441;10.4895;
878.7000;0.1441;10.4895;
879.0000;0.1433;10.4943;
879.3000;0.1425;10.4967;
879.6000;0.1449;10.5088;
879.9000;0.1441;10.5040;
880.2000;0.1441;10.5040;
880.5000;0.1408;10.4895;
880.8000;0.1457;10.5064;
881.1000;0.1441;10.5016;
881.4000;0.1449;10.4967;
881.7000;0.1441;10.4943;
882.0000;0.1433;10.4943;
882.3000;0.1416;10.5040;
882.6000;0.1433;10.5064;
882.9000;0.1465;10.5064;
883.2000;0.1465;10.5040;
883.5000;0.1425;10.4967;
883.8000;0.1408;10.4991;
884.1000;0.1473;10.5112;
884.4000;0.1425;10.4991;
884.7000;0.1425;10.5040;
885.0000;0.1384;10.4919;
885.3000;0.1425;10.5064;
885.6000;0.1433;10.5160;
885.9000;0.1473;10.5209;
886.2000;0.1449;10.5281;
886.5000;0.1441;10.5233;
886.8000;0.1449;10.5257;
887.1000;0.1465;10.5233;
887.4000;0.1433;10.5112;
887.7000;0.1441;10.5016;
888.0000;0.1449;10.4991;
888.3000;0.1441;10.4943;
888.6000;0.1416;10.4823;
888.9000;0.1416;10.4847;
889.2000;0.1416;10.4895;
889.5000;0.1425;10.4847;
889.8000;0.1433;10.4919;
890.1000;0.1416;10.4943;
890.4000;0.1433;10.4895;
890.7000;0.1425;10.4919;
891.0000;0.1416;10.4991;
891.3000;0.1449;10.5088;
891.6000;0.1416;10.5064;
891.9000;0.1433;10.5088;
892.2000;0.1425;10.5064;
892.5000;0.1433;10.5064;
892.8000;0.1506;10.5281;
893.1000;0.1441;10.5136;
893.4000;0.1433;10.5088;
893.7000;0.1416;10.4991;
894.0000;0.1425;10.5040;
894.3000;0.1392;10.4991;
894.6000;0.1425;10.5136;
894.9000;0.1425;10.5160;
895.2000;0.1433;10.5184;
895.5000;0.1425;10.5160;
895.8000;0.1465;10.5257;
896.1000;0.1449;10.5184;
896.4000;0.1441;10.5160;
896.7000;0.1416;10.5064;
897.0000;0.1457;10.5088;
897.3000;0.1425;10.5040;
897.6000;0.1425;10.5040;
897.9000;0.1441;10.5136;
898.2000;0.1441;10.5088;
898.5000;0.1433;10.5088;
898.8000;0.1433;10.5064;
899.1000;0.1449;10.5040;
899.4000;0.1343;10.4750;
899.7000;0.1425;10.4895;
900.0000;0.1408;10.4871;
900.3000;0.1425;10.4991;
900.6000;0.1441;10.5040;
900.9000;0.1327;10.4823;
901.2000;0.1433;10.5064;
901.5000;0.1433;10.5064;
901.8000;0.1433;10.5064;
902.1000;0.1392;10.4967;
902.4000;0.1433;10.5064;
902.7000;0.1441;10.5064;
903.0000;0.1449;10.5112;
903.3000;0.1441;10.5040;
903.6000;0.1441;10.5088;
903.9000;0.1473;10.5160;
904.2000;0.1416;10.5016;
904.5000;0.1433;10.5112;
904.8000;0.1449;10.5112;
905.1000;0.1433;10.5040;
905.4000;0.1441;10.5064;
905.7000;0.1425;10.5160;
906.0000;0.1433;10.5136;
906.3000;0.1433;10.5136;
906.6000;0.1449;10.5088;
906.9000;0.1441;10.5112;
907.2000;0.1416;10.5064;
907.5000;0.1441;10.5088;
907.8000;0.1425;10.5064;
908.1000;0.1449;10.5184;
908.4000;0.1433;10.5209;
908.7000;0.1433;10.5209;
909.0000;0.1449;10.5353;
909.3000;0.1433;10.5233;
909.6000;0.1425;10.5160;
909.9000;0.1425;10.5160;
910.2000;0.1441;10.5136;
910.5000;0.1425;10.5112;
910.8000;0.1555;10.5450;
911.1000;0.1449;10.5136;
911.4000;0.1441;10.5136;
911.7000;0.1392;10.5040;
912.0000;0.1433;10.5160;
912.3000;0.1457;10.5112;
912.6000;0.1425;10.5040;
912.9000;0.1433;10.5016;
913.2000;0.1425;10.4967;
913.5000;0.1433;10.4967;
913.8000;0.1449;10.4943;
914.1000;0.1425;10.4943;
914.4000;0.1425;10.4943;
914.7000;0.1392;10.4799;
915.0000;0.1433;10.4895;
915.3000;0.1498;10.5040;
915.6000;0.1433;10.4967;
915.9000;0.1449;10.5016;
916.2000;0.1449;10.4991;
916.5000;0.1416;10.4943;
916.8000;0.1498;10.5136;
917.1000;0.1408;10.4919;
917.4000;0.1441;10.4991;
917.7000;0.1449;10.4967;
918.0000;0.1498;10.5064;
918.3000;0.1392;10.4847;
918.6000;0.1449;10.4967;
918.9000;0.1449;10.4943;
919.2000;0.1425;10.4943;
919.5000;0.1392;10.4919;
919.8000;0.1433;10.5064;
920.1000;0.1416;10.5040;
920.4000;0.1433;10.5064;
920.7000;0.1449;10.5112;
921.0000;0.1400;10.4943;
921.3000;0.1416;10.4895;
921.6000;0.1425;10.4847;
921.9000;0.1408;10.4823;
922.2000;0.1441;10.4799;
922.5000;0.1425;10.4823;
922.8000;0.1441;10.4823;
923.1000;0.1490;10.4919;
923.4000;0.1441;10.4799;
923.7000;0.1457;10.4943;
924.0000;0.1465;10.4991;
924.3000;0.1441;10.4823;
924.6000;0.1351;10.4533;
924.9000;0.1433;10.4847;
925.2000;0.1441;10.4967;
925.5000;0.1481;10.5040;
925.8000;0.1433;10.4967;
926.1000;0.1433;10.5040;
926.4000;0.1441;10.5088;
926.7000;0.1416;10.5112;
927.0000;0.1416;10.5088;
927.3000;0.1433;10.5160;
927.6000;0.1441;10.5209;
927.9000;0.1441;10.5112;
928.2000;0.1449;10.5209;
928.5000;0.1433;10.5088;
928.8000;0.1457;10.5064;
929.1000;0.1465;10.5016;
929.4000;0.1449;10.4919;
929.7000;0.1433;10.5040;
930.0000;0.1441;10.5064;
930.3000;0.1433;10.4943;
930.6000;0.1441;10.4871;
930.9000;0.1449;10.4799;
931.2000;0.1425;10.4750;
931.5000;0.1433;10.4847;
931.8000;0.1433;10.4991;
932.1000;0.1449;10.5040;
932.4000;0.1433;10.4943;
932.7000;0.1481;10.5088;
933.0000;0.1465;10.5064;
933.3000;0.1449;10.5040;
933.6000;0.1457;10.5064;
933.9000;0.1433;10.4991;
934.2000;0.1457;10.4991;
934.5000;0.1441;10.5040;
934.8000;0.1416;10.4991;
935.1000;0.1416;10.5016;
935.4000;0.1441;10.5016;
935.7000;0.1311;10.4702;
936.0000;0.1441;10.5016;
936.3000;0.1433;10.4943;
936.6000;0.1408;10.4943;
936.9000;0.1441;10.4967;
937.2000;0.1433;10.4919;
937.5000;0.1433;10.4919;
937.8000;0.1441;10.4919;
938.1000;0.1457;10.4871;
938.4000;0.1481;10.4919;
938.7000;0.1433;10.4774;
939.0000;0.1457;10.4823;
939.3000;0.1408;10.4774;
939.6000;0.1425;10.4967;
939.9000;0.1408;10.4919;
940.2000;0.1441;10.4991;
940.5000;0.1457;10.5064;
940.8000;0.1579;10.5450;
941.1000;0.1425;10.5040;
941.4000;0.1376;10.4895;
941.7000;0.1449;10.5016;
942.0000;0.1425;10.5040;
942.3000;0.1481;10.5184;
942.6000;0.1441;10.5064;
942.9000;0.1506;10.5257;
943.2000;0.1441;10.5112;
943.5000;0.1449;10.5160;
943.8000;0.1433;10.5184;
944.1000;0.1425;10.5136;
944.4000;0.1449;10.5112;
944.7000;0.1433;10.5040;
945.0000;0.1425;10.4967;
945.3000;0.1425;10.4919;
945.6000;0.1441;10.4943;
945.9000;0.1441;10.5040;
946.2000;0.1555;10.5329;
946.5000;0.1441;10.4919;
946.8000;0.1416;10.4823;
947.1000;0.1465;10.4895;
947.4000;0.1449;10.4919;
947.7000;0.1416;10.4871;
948.0000;0.1449;10.4919;
948.3000;0.1400;10.4774;
948.6000;0.1392;10.4654;
948.9000;0.1433;10.4750;
949.2000;0.1449;10.4823;
949.5000;0.1465;10.4871;
949.8000;0.1416;10.4847;
950.1000;0.1433;10.4919;
950.4000;0.1425;10.4847;
950.7000;0.1408;10.4799;
951.0000;0.1433;10.4895;
951.3000;0.1433;10.4871;
951.6000;0.1441;10.4919;
951.9000;0.1433;10.4895;
952.2000;0.1433;10.4967;
952.5000;0.1425;10.4943;
952.8000;0.1408;10.4943;
953.1000;0.1449;10.5016;
953.4000;0.1408;10.4895;
953.7000;0.1441;10.4991;
954.0000;0.1392;10.4774;
954.3000;0.1441;10.4895;
954.6000;0.1425;10.4823;
954.9000;0.1547;10.5184;
955.2000;0.1441;10.4943;
955.5000;0.1433;10.4991;
955.8000;0.1408;10.4895;
956.1000;0.1376;10.4726;
956.4000;0.1433;10.4799;
956.7000;0.1449;10.4847;
957.0000;0.1481;10.5016;
957.3000;0.1449;10.4847;
957.6000;0.1376;10.4823;
957.9000;0.1408;10.4919;
958.2000;0.1433;10.4967;
958.5000;0.1425;10.4943;
958.8000;0.1433;10.4991;
959.1000;0.1441;10.5040;
959.4000;0.1538;10.5402;
959.7000;0.1400;10.4991;
960.0000;0.1433;10.4967;
960.3000;0.1441;10.5040;
960.6000;0.1457;10.5064;
960.9000;0.1425;10.4967;
961.2000;0.1433;10.5016;
961.5000;0.1408;10.4967;
961.8000;0.1449;10.5088;
962.1000;0.1433;10.4991;
962.4000;0.1433;10.4967;
962.7000;0.1425;10.4943;
963.0000;0.1457;10.4943;
963.3000;0.1449;10.4967;
963.6000;0.1425;10.4919;
963.9000;0.1441;10.4991;
964.2000;0.1433;10.5040;
964.5000;0.1441;10.5040;
964.8000;0.1392;10.4871;
965.1000;0.1457;10.5064;
965.4000;0.1392;10.4823;
965.7000;0.1433;10.4871;
966.0000;0.1441;10.4871;
966.3000;0.1368;10.4630;
966.6000;0.1416;10.4823;
966.9000;0.1433;10.4847;
967.2000;0.1473;10.4943;
967.5000;0.1368;10.4774;
967.8000;0.1441;10.4991;
968.1000;0.1425;10.4967;
968.4000;0.1449;10.5040;
968.7000;0.1433;10.5016;
969.0000;0.1425;10.4919;
969.3000;0.1441;10.4967;
969.6000;0.1335;10.4702;
969.9000;0.1449;10.4991;
970.2000;0.1449;10.5016;
970.5000;0.1311;10.4606;
970.8000;0.1441;10.4943;
971.1000;0.1368;10.4702;
971.4000;0.1441;10.4895;
971.7000;0.1449;10.4895;
972.0000;0.1433;10.4823;
972.3000;0.1425;10.4726;
972.6000;0.1449;10.4774;
972.9000;0.1457;10.4774;
973.2000;0.1416;10.4630;
973.5000;0.1449;10.4654;
973.8000;0.1441;10.4702;
974.1000;0.1425;10.4654;
974.4000;0.1416;10.4630;
974.7000;0.1433;10.4726;
975.0000;0.1433;10.4774;
975.3000;0.1433;10.4750;
975.6000;0.1441;10.4750;
975.9000;0.1416;10.4654;
976.2000;0.1441;10.4606;
976.5000;0.1490;10.4774;
976.8000;0.1441;10.4774;
977.1000;0.1392;10.4606;
977.4000;0.1425;10.4750;
977.7000;0.1441;10.4871;
978.0000;0.1457;10.4943;
978.3000;0.1449;10.4919;
978.6000;0.1433;10.4823;
978.9000;0.1457;10.4871;
979.2000;0.1400;10.4750;
979.5000;0.1425;10.4799;
979.8000;0.1457;10.4799;
980.1000;0.1449;10.4823;
980.4000;0.1457;10.4847;
980.7000;0.1449;10.4895;
981.0000;0.1506;10.5016;
981.3000;0.1449;10.4871;
981.6000;0.1514;10.4943;
981.9000;0.1425;10.4702;
982.2000;0.1457;10.4774;
982.5000;0.1441;10.4799;
982.8000;0.1400;10.4799;
983.1000;0.1441;10.4847;
983.4000;0.1441;10.4799;
983.7000;0.1449;10.4799;
984.0000;0.1441;10.4823;
984.3000;0.1449;10.4726;
984.6000;0.1425;10.4678;
984.9000;0.1433;10.4702;
985.2000;0.1457;10.4750;
985.5000;0.1457;10.4702;
985.8000;0.1457;10.4799;
986.1000;0.1433;10.4799;
986.4000;0.1457;10.4799;
986.7000;0.1449;10.4774;
987.0000;0.1433;10.4702;
987.3000;0.1425;10.4726;
987.6000;0.1384;10.4606;
987.9000;0.1441;10.4726;
988.2000;0.1416;10.4726;
988.5000;0.1425;10.4871;
988.8000;0.1416;10.4943;
989.1000;0.1392;10.4895;
989.4000;0.1441;10.4943;
989.7000;0.1433;10.4943;
990.0000;0.1449;10.4991;
990.3000;0.1465;10.5112;
990.6000;0.1473;10.5136;
990.9000;0.1408;10.4823;
991.2000;0.1441;10.4847;
991.5000;0.1408;10.4774;
991.8000;0.1481;10.4991;
992.1000;0.1441;10.4943;
992.4000;0.1425;10.4823;
992.7000;0.1408;10.4750;
993.0000;0.1473;10.4967;
993.3000;0.1522;10.5088;
993.6000;0.1416;10.4823;
993.9000;0.1425;10.4871;
994.2000;0.1425;10.4847;
994.5000;0.1457;10.4919;
994.8000;0.1457;10.4943;
995.1000;0.1457;10.4895;
995.4000;0.1441;10.4895;
995.7000;0.1433;10.4871;
996.0000;0.1433;10.4871;
996.3000;0.1490;10.4943;
996.6000;0.1433;10.4823;
996.9000;0.1433;10.4823;
997.2000;0.1441;10.4799;
997.5000;0.1433;10.4799;
997.8000;0.1425;10.4750;
998.1000;0.1433;10.4726;
998.4000;0.1449;10.4799;
998.7000;0.1449;10.4774;
999.0000;0.1441;10.4799;
999.3000;0.1441;10.4823;
999.6000;0.1441;10.4750;
999.9000;0.1376;10.4654;
1000.2000;0.1457;10.4895;
1000.5000;0.1457;10.4919;
1000.8000;0.1449;10.4847;
1001.1000;0.1425;10.4847;
1001.4000;0.1433;10.4823;
1001.7000;0.1433;10.4823;
1002.0000;0.1441;10.4847;
1002.3000;0.1449;10.4799;
1002.6000;0.1416;10.4774;
1002.9000;0.1425;10.4702;
1003.2000;0.1433;10.4606;
1003.5000;0.1449;10.4606;
1003.8000;0.1408;10.4437;
1004.1000;0.1425;10.4437;
1004.4000;0.1481;10.4509;
1004.7000;0.1441;10.4461;
1005.0000;0.1441;10.4461;
1005.3000;0.1457;10.4509;
1005.6000;0.1441;10.4581;
1005.9000;0.1433;10.4557;
1006.2000;0.1433;10.4533;
1006.5000;0.1425;10.4581;
1006.8000;0.1457;10.4702;
1007.1000;0.1433;10.4581;
1007.4000;0.1425;10.4509;
1007.7000;0.1441;10.4533;
1008.0000;0.1441;10.4533;
1008.3000;0.1441;10.4581;
1008.6000;0.1433;10.4461;
1008.9000;0.1449;10.4461;
1009.2000;0.1441;10.4389;
1009.5000;0.1457;10.4485;
1009.8000;0.1408;10.4461;
1010.1000;0.1457;10.4509;
1010.4000;0.1449;10.4533;
1010.7000;0.1449;10.4630;
1011.0000;0.1449;10.4606;
1011.3000;0.1441;10.4654;
1011.6000;0.1441;10.4654;
1011.9000;0.1449;10.4726;
1012.2000;0.1441;10.4774;
1012.5000;0.1449;10.4823;
1012.8000;0.1416;10.4702;
1013.1000;0.1441;10.4726;
1013.4000;0.1449;10.4774;
1013.7000;0.1416;10.4654;
1014.0000;0.1425;10.4702;
1014.3000;0.1351;10.4461;
1014.6000;0.1547;10.4919;
1014.9000;0.1441;10.4654;
1015.2000;0.1408;10.4654;
1015.5000;0.1408;10.4654;
1015.8000;0.1449;10.4581;
1016.1000;0.1441;10.4630;
1016.4000;0.1433;10.4606;
1016.7000;0.1441;10.4654;
1017.0000;0.1498;10.4847;
1017.3000;0.1433;10.4630;
1017.6000;0.1433;10.4654;
1017.9000;0.1416;10.4581;
1018.2000;0.1441;10.4630;
1018.5000;0.1441;10.4702;
1018.8000;0.1433;10.4678;
1019.1000;0.1530;10.4847;
1019.4000;0.1506;10.4823;
1019.7000;0.1449;10.4702;
1020.0000;0.1441;10.4726;
1020.3000;0.1441;10.4774;
1020.6000;0.1441;10.4702;
1020.9000;0.1425;10.4678;
1021.2000;0.1441;10.4726;
1021.5000;0.1433;10.4678;
1021.8000;0.1457;10.4678;
1022.1000;0.1441;10.4654;
1022.4000;0.1465;10.4702;
1022.7000;0.1433;10.4750;
1023.0000;0.1433;10.4774;
1023.3000;0.1449;10.4823;
1023.6000;0.1441;10.4774;
1023.9000;0.1441;10.4774;
1024.2000;0.1392;10.4654;
1024.5000;0.1433;10.4678;
1024.8000;0.1384;10.4485;
1025.1000;0.1441;10.4702;
1025.4000;0.1457;10.4702;
1025.7000;0.1498;10.4823;
1026.0000;0.1433;10.4702;
1026.3000;0.1449;10.4774;
1026.6000;0.1457;10.4823;
1026.9000;0.1441;10.4847;
1027.2000;0.1433;10.4847;
1027.5000;0.1433;10.4895;
1027.8000;0.1441;10.4871;
1028.1000;0.1416;10.4847;
1028.4000;0.1425;10.4823;
1028.7000;0.1441;10.4847;
1029.0000;0.1441;10.4871;
1029.3000;0.1425;10.4799;
1029.6000;0.1449;10.4823;
1029.9000;0.1425;10.4774;
1030.2000;0.1425;10.4726;
1030.5000;0.1449;10.4799;
1030.8000;0.1441;10.4847;
1031.1000;0.1441;10.4847;
1031.4000;0.1449;10.4847;
1031.7000;0.1522;10.4991;
1032.0000;0.1408;10.4799;
1032.3000;0.1425;10.4823;
1032.6000;0.1457;10.5040;
1032.9000;0.1481;10.5064;
1033.2000;0.1433;10.4895;
1033.5000;0.1433;10.4823;
1033.8000;0.1400;10.4750;
1034.1000;0.1416;10.4702;
1034.4000;0.1416;10.4726;
1034.7000;0.1441;10.4726;
1035.0000;0.1441;10.4750;
1035.3000;0.1441;10.4799;
1035.6000;0.1416;10.4774;
1035.9000;0.1449;10.4799;
1036.2000;0.1449;10.4823;
1036.5000;0.1449;10.4750;
1036.8000;0.1449;10.4726;
1037.1000;0.1441;10.4774;
1037.4000;0.1441;10.4702;
1037.7000;0.1441;10.4702;
1038.0000;0.1400;10.4702;
1038.3000;0.1441;10.4774;
1038.6000;0.1457;10.4847;
1038.9000;0.1441;10.4774;
1039.2000;0.1392;10.4654;
1039.5000;0.1449;10.4750;
1039.8000;0.1490;10.4847;
1040.1000;0.1449;10.4774;
1040.4000;0.1449;10.4823;
1040.7000;0.1408;10.4774;
1041.0000;0.1416;10.4847;
1041.3000;0.1449;10.5040;
1041.6000;0.1368;10.4943;
1041.9000;0.1384;10.4895;
1042.2000;0.1433;10.4919;
1042.5000;0.1514;10.5112;
1042.8000;0.1425;10.4847;
1043.1000;0.1433;10.4919;
1043.4000;0.1416;10.4895;
1043.7000;0.1416;10.4871;
1044.0000;0.1449;10.4919;
1044.3000;0.1433;10.4919;
1044.6000;0.1433;10.4919;
1044.9000;0.1441;10.4991;
1045.2000;0.1449;10.4919;
1045.5000;0.1425;10.4895;
1045.8000;0.1433;10.4871;
1046.1000;0.1433;10.4774;
1046.4000;0.1449;10.4750;
1046.7000;0.1465;10.4702;
1047.0000;0.1441;10.4581;
1047.3000;0.1449;10.4581;
1047.6000;0.1441;10.4654;
1047.9000;0.1433;10.4702;
1048.2000;0.1441;10.4702;
1048.5000;0.1433;10.4750;
1048.8000;0.1408;10.4678;
1049.1000;0.1441;10.4726;
1049.4000;0.1433;10.4678;
1049.7000;0.1433;10.4630;
1050.0000;0.1408;10.4533;
1050.3000;0.1433;10.4630;
1050.6000;0.1441;10.4726;
1050.9000;0.1473;10.4774;
1051.2000;0.1441;10.4726;
1051.5000;0.1433;10.4702;
1051.8000;0.1392;10.4630;
1052.1000;0.1441;10.4726;
1052.4000;0.1425;10.4726;
1052.7000;0.1449;10.4847;
1053.0000;0.1400;10.4799;
1053.3000;0.1449;10.4823;
1053.6000;0.1473;10.4847;
1053.9000;0.1416;10.4678;
1054.2000;0.1441;10.4799;
1054.5000;0.1425;10.4823;
1054.8000;0.1384;10.4726;
1055.1000;0.1449;10.4871;
1055.4000;0.1449;10.4895;
1055.7000;0.1392;10.4774;
1056.0000;0.1449;10.4823;
1056.3000;0.1433;10.4823;
1056.6000;0.1473;10.4919;
1056.9000;0.1416;10.4726;
1057.2000;0.1441;10.4774;
1057.5000;0.1465;10.4823;
1057.8000;0.1433;10.4726;
1058.1000;0.1441;10.4823;
1058.4000;0.1441;10.4847;
1058.7000;0.1425;10.4774;
1059.0000;0.1425;10.4726;
1059.3000;0.1441;10.4750;
1059.6000;0.1400;10.4557;
1059.9000;0.1441;10.4654;
1060.2000;0.1425;10.4654;
1060.5000;0.1441;10.4654;
1060.8000;0.1449;10.4654;
1061.1000;0.1449;10.4774;
1061.4000;0.1441;10.4654;
1061.7000;0.1457;10.4774;
1062.0000;0.1433;10.4750;
1062.3000;0.1433;10.4654;
1062.6000;0.1416;10.4606;
1062.9000;0.1433;10.4678;
1063.2000;0.1449;10.4750;
1063.5000;0.1416;10.4654;
1063.8000;0.1433;10.4726;
1064.1000;0.1457;10.4726;
1064.4000;0.1498;10.4774;
1064.7000;0.1425;10.4557;
1065.0000;0.1408;10.4509;
1065.3000;0.1522;10.4871;
1065.6000;0.1400;10.4654;
1065.9000;0.1457;10.4799;
1066.2000;0.1449;10.4774;
1066.5000;0.1433;10.4750;
1066.8000;0.1433;10.4678;
1067.1000;0.1547;10.4919;
1067.4000;0.1473;10.4726;
1067.7000;0.1473;10.4654;
1068.0000;0.1425;10.4533;
1068.3000;0.1498;10.4678;
1068.6000;0.1441;10.4509;
1068.9000;0.1441;10.4557;
1069.2000;0.1457;10.4630;
1069.5000;0.1441;10.4630;
1069.8000;0.1408;10.4678;
1070.1000;0.1449;10.4678;
1070.4000;0.1449;10.4678;
1070.7000;0.1416;10.4533;
1071.0000;0.1498;10.4871;
1071.3000;0.1449;10.4606;
1071.6000;0.1441;10.4678;
1071.9000;0.1441;10.4726;
1072.2000;0.1441;10.4702;
1072.5000;0.1481;10.4750;
1072.8000;0.1335;10.4485;
1073.1000;0.1498;10.4895;
1073.4000;0.1441;10.4750;
1073.7000;0.1400;10.4581;
1074.0000;0.1408;10.4630;
1074.3000;0.1441;10.4750;
1074.6000;0.1441;10.4726;
1074.9000;0.1457;10.4750;
1075.2000;0.1490;10.4847;
1075.5000;0.1465;10.4750;
1075.8000;0.1384;10.4630;
1076.1000;0.1473;10.4799;
1076.4000;0.1457;10.4750;
1076.7000;0.1465;10.4799;
1077.0000;0.1457;10.4799;
1077.3000;0.1449;10.4847;
1077.6000;0.1441;10.4774;
1077.9000;0.1441;10.4774;
1078.2000;0.1433;10.4774;
1078.5000;0.1465;10.4823;
1078.8000;0.1449;10.4919;
1079.1000;0.1335;10.4630;
1079.4000;0.1433;10.4895;
1079.7000;0.1425;10.4943;
1080.0000;0.1425;10.4847;
1080.3000;0.1408;10.4774;
1080.6000;0.1433;10.4847;
1080.9000;0.1433;10.4823;
1081.2000;0.1425;10.4726;
1081.5000;0.1433;10.4799;
1081.8000;0.1433;10.4799;
1082.1000;0.1416;10.4823;
1082.4000;0.1449;10.4895;
1082.7000;0.1441;10.4823;
1083.0000;0.1457;10.4799;
1083.3000;0.1425;10.4750;
1083.6000;0.1433;10.4799;
1083.9000;0.1408;10.4678;
1084.2000;0.1425;10.4702;
1084.5000;0.1538;10.4991;
1084.8000;0.1441;10.4799;
1085.1000;0.1441;10.4774;
1085.4000;0.1425;10.4702;
1085.7000;0.1441;10.4702;
1086.0000;0.1384;10.4606;
1086.3000;0.1441;10.4702;
1086.6000;0.1433;10.4557;
1086.9000;0.1449;10.4630;
1087.2000;0.1441;10.4654;
1087.5000;0.1490;10.4895;
1087.8000;0.1416;10.4678;
1088.1000;0.1441;10.4750;
1088.4000;0.1425;10.4630;
1088.7000;0.1433;10.4654;
1089.0000;0.1449;10.4606;
1089.3000;0.1433;10.4557;
1089.6000;0.1425;10.4557;
1089.9000;0.1522;10.4774;
1090.2000;0.1433;10.4533;
1090.5000;0.1522;10.4823;
1090.8000;0.1433;10.4557;
1091.1000;0.1425;10.4630;
1091.4000;0.1441;10.4726;
1091.7000;0.1408;10.4678;
1092.0000;0.1465;10.4774;
1092.3000;0.1425;10.4606;
1092.6000;0.1416;10.4581;
1092.9000;0.1392;10.4557;
1093.2000;0.1416;10.4606;
1093.5000;0.1441;10.4702;
1093.8000;0.1449;10.4702;
1094.1000;0.1433;10.4823;
1094.4000;0.1433;10.4847;
1094.7000;0.1425;10.4774;
1095.0000;0.1408;10.4750;
1095.3000;0.1425;10.4774;
1095.6000;0.1441;10.4799;
1095.9000;0.1416;10.4823;
1096.2000;0.1433;10.4823;
1096.5000;0.1376;10.4702;
1096.8000;0.1457;10.4895;
1097.1000;0.1465;10.4871;
1097.4000;0.1481;10.4895;
1097.7000;0.1425;10.4726;
1098.0000;0.1457;10.4799;
1098.3000;0.1449;10.4799;
1098.6000;0.1433;10.4823;
1098.9000;0.1441;10.4823;
1099.2000;0.1425;10.4847;
1099.5000;0.1441;10.4943;
1099.8000;0.1416;10.4847;
1100.1000;0.1441;10.4919;
1100.4000;0.1433;10.4919;
1100.7000;0.1465;10.5016;
1101.0000;0.1457;10.5016;
1101.3000;0.1457;10.5016;
1101.6000;0.1457;10.5040;
1101.9000;0.1457;10.5040;
1102.2000;0.1425;10.4871;
1102.5000;0.1449;10.4919;
1102.8000;0.1465;10.4967;
1103.1000;0.1441;10.4943;
1103.4000;0.1441;10.4967;
1103.7000;0.1449;10.4967;
1104.0000;0.1416;10.4919;
1104.3000;0.1433;10.4919;
1104.6000;0.1457;10.4991;
1104.9000;0.1547;10.5209;
1105.2000;0.1449;10.5016;
1105.5000;0.1457;10.4943;
1105.8000;0.1416;10.4919;
1106.1000;0.1449;10.5040;
1106.4000;0.1433;10.5088;
1106.7000;0.1433;10.5112;
1107.0000;0.1433;10.5064;
1107.3000;0.1433;10.5040;
1107.6000;0.1416;10.4919;
1107.9000;0.1522;10.5184;
1108.2000;0.1449;10.5064;
1108.5000;0.1425;10.5064;
1108.8000;0.1441;10.5040;
1109.1000;0.1473;10.5184;
1109.4000;0.1433;10.5088;
1109.7000;0.1416;10.5040;
1110.0000;0.1433;10.5040;
1110.3000;0.1481;10.5112;
1110.6000;0.1449;10.5016;
1110.9000;0.1433;10.4991;
1111.2000;0.1441;10.4991;
1111.5000;0.1416;10.4919;
1111.8000;0.1449;10.4943;
1112.1000;0.1449;10.4967;
1112.4000;0.1441;10.5112;
1112.7000;0.1433;10.5209;
1113.0000;0.1506;10.5377;
1113.3000;0.1473;10.5402;
1113.6000;0.1457;10.5281;
1113.9000;0.1441;10.5136;
1114.2000;0.1449;10.5112;
1114.5000;0.1425;10.5040;
1114.8000;0.1449;10.5136;
1115.1000;0.1433;10.5064;
1115.4000;0.1433;10.5088;
1115.7000;0.1425;10.5136;
1116.0000;0.1425;10.5064;
1116.3000;0.1425;10.5040;
1116.6000;0.1449;10.5209;
1116.9000;0.1433;10.5184;
1117.2000;0.1433;10.5112;
1117.5000;0.1441;10.5112;
1117.8000;0.1416;10.5064;
1118.1000;0.1465;10.5136;
1118.4000;0.1441;10.5088;
1118.7000;0.1481;10.5160;
1119.0000;0.1416;10.5112;
1119.3000;0.1433;10.5184;
1119.6000;0.1441;10.5209;
1119.9000;0.1441;10.5257;
1120.2000;0.1433;10.5209;
1120.5000;0.1441;10.5184;
1120.8000;0.1376;10.4991;
1121.1000;0.1416;10.5040;
1121.4000;0.1425;10.5209;
1121.7000;0.1408;10.5184;
1122.0000;0.1416;10.5209;
1122.3000;0.1425;10.5160;
1122.6000;0.1425;10.5112;
1122.9000;0.1449;10.5112;
1123.2000;0.1449;10.5209;
1123.5000;0.1457;10.5257;
1123.8000;0.1498;10.5402;
1124.1000;0.1441;10.5160;
1124.4000;0.1441;10.5088;
1124.7000;0.1441;10.5136;
1125.0000;0.1449;10.5136;
1125.3000;0.1425;10.5064;
1125.6000;0.1441;10.5184;
1125.9000;0.1425;10.5184;
1126.2000;0.1441;10.5136;
1126.5000;0.1376;10.4967;
1126.8000;0.1481;10.5233;
1127.1000;0.1441;10.5040;
1127.4000;0.1457;10.5064;
1127.7000;0.1457;10.5040;
1128.0000;0.1481;10.5088;
1128.3000;0.1465;10.5088;
1128.6000;0.1473;10.5088;
1128.9000;0.1433;10.5016;
1129.2000;0.1457;10.5160;
1129.5000;0.1425;10.5040;
1129.8000;0.1473;10.5184;
1130.1000;0.1433;10.5040;
1130.4000;0.1433;10.4967;
1130.7000;0.1449;10.5040;
1131.0000;0.1449;10.5016;
1131.3000;0.1441;10.4991;
1131.6000;0.1457;10.5064;
1131.9000;0.1433;10.5040;
1132.2000;0.1425;10.5040;
1132.5000;0.1457;10.5136;
1132.8000;0.1449;10.5184;
1133.1000;0.1514;10.5353;
1133.4000;0.1457;10.5257;
1133.7000;0.1465;10.5112;
1134.0000;0.1433;10.5088;
1134.3000;0.1449;10.5064;
1134.6000;0.1441;10.5016;
1134.9000;0.1433;10.4967;
1135.2000;0.1441;10.5016;
1135.5000;0.1449;10.5016;
1135.8000;0.1449;10.5016;
1136.1000;0.1449;10.5016;
1136.4000;0.1416;10.4943;
1136.7000;0.1465;10.4991;
1137.0000;0.1384;10.4919;
1137.3000;0.1425;10.5040;
1137.6000;0.1425;10.4967;
1137.9000;0.1441;10.5016;
1138.2000;0.1441;10.5016;
1138.5000;0.1449;10.4871;
1138.8000;0.1449;10.4943;
1139.1000;0.1433;10.4967;
1139.4000;0.1441;10.5064;
1139.7000;0.1441;10.5040;
1140.0000;0.1441;10.5040;
1140.3000;0.1457;10.5088;
1140.6000;0.1433;10.5160;
1140.9000;0.1368;10.5088;
1141.2000;0.1433;10.5233;
1141.5000;0.1449;10.5233;
1141.8000;0.1425;10.5088;
1142.1000;0.1441;10.5160;
1142.4000;0.1416;10.4991;
1142.7000;0.1433;10.5112;
1143.0000;0.1433;10.5064;
1143.3000;0.1481;10.5160;
1143.6000;0.1441;10.5064;
1143.9000;0.1449;10.5136;
1144.2000;0.1400;10.5112;
1144.5000;0.1449;10.5184;
1144.8000;0.1538;10.5377;
1145.1000;0.1449;10.5209;
1145.4000;0.1441;10.5136;
1145.7000;0.1433;10.5064;
1146.0000;0.1433;10.5112;
1146.3000;0.1457;10.5184;
1146.6000;0.1498;10.5353;
1146.9000;0.1425;10.5112;
1147.2000;0.1433;10.5112;
1147.5000;0.1457;10.5136;
1147.8000;0.1425;10.5040;
1148.1000;0.1425;10.5040;
1148.4000;0.1457;10.5112;
1148.7000;0.1457;10.5209;
1149.0000;0.1433;10.5088;
1149.3000;0.1441;10.5040;
1149.6000;0.1457;10.5016;
1149.9000;0.1449;10.4919;
1150.2000;0.1449;10.5040;
1150.5000;0.1457;10.5088;
1150.8000;0.1359;10.4871;
1151.1000;0.1425;10.5112;
1151.4000;0.1457;10.5160;
1151.7000;0.1481;10.5305;
1152.0000;0.1408;10.5112;
1152.3000;0.1425;10.5064;
1152.6000;0.1408;10.5064;
1152.9000;0.1433;10.5088;
1153.2000;0.1425;10.5064;
1153.5000;0.1425;10.5040;
1153.8000;0.1441;10.5016;
1154.1000;0.1441;10.4895;
1154.4000;0.1441;10.4871;
1154.7000;0.1441;10.4919;
1155.0000;0.1441;10.4895;
1155.3000;0.1425;10.4847;
1155.6000;0.1441;10.4847;
1155.9000;0.1441;10.4919;
1156.2000;0.1433;10.4919;
1156.5000;0.1441;10.5064;
1156.8000;0.1441;10.4991;
1157.1000;0.1498;10.5136;
1157.4000;0.1433;10.4967;
1157.7000;0.1416;10.5016;
1158.0000;0.1416;10.4967;
1158.3000;0.1416;10.4895;
1158.6000;0.1498;10.5233;
1158.9000;0.1457;10.5112;
1159.2000;0.1433;10.5088;
1159.5000;0.1473;10.5136;
1159.8000;0.1441;10.5136;
1160.1000;0.1465;10.5209;
1160.4000;0.1449;10.5088;
1160.7000;0.1449;10.5088;
1161.0000;0.1441;10.5112;
1161.3000;0.1449;10.5184;
1161.6000;0.1449;10.5136;
1161.9000;0.1433;10.5088;
1162.2000;0.1433;10.5136;
1162.5000;0.1433;10.5088;
1162.8000;0.1416;10.4967;
1163.1000;0.1441;10.5040;
1163.4000;0.1449;10.5016;
1163.7000;0.1425;10.4895;
1164.0000;0.1481;10.5064;
1164.3000;0.1449;10.5088;
1164.6000;0.1433;10.5064;
1164.9000;0.1538;10.5353;
1165.2000;0.1400;10.4871;
1165.5000;0.1457;10.5040;
1165.8000;0.1433;10.4943;
1166.1000;0.1416;10.4919;
1166.4000;0.1441;10.5064;
1166.7000;0.1457;10.5064;
1167.0000;0.1530;10.5281;
1167.3000;0.1425;10.5088;
1167.6000;0.1441;10.5136;
1167.9000;0.1359;10.4919;
1168.2000;0.1449;10.5184;
1168.5000;0.1425;10.5064;
1168.8000;0.1441;10.5016;
1169.1000;0.1425;10.5040;
1169.4000;0.1457;10.5088;
1169.7000;0.1457;10.5040;
1170.0000;0.1425;10.4847;
1170.3000;0.1457;10.4967;
1170.6000;0.1449;10.4895;
1170.9000;0.1441;10.4847;
1171.2000;0.1433;10.4799;
1171.5000;0.1425;10.4774;
1171.8000;0.1433;10.4774;
1172.1000;0.1441;10.4871;
1172.4000;0.1449;10.4943;
1172.7000;0.1449;10.4991;
1173.0000;0.1481;10.5112;
1173.3000;0.1449;10.5040;
1173.6000;0.1408;10.4943;
1173.9000;0.1449;10.5112;
1174.2000;0.1449;10.5064;
1174.5000;0.1465;10.5064;
1174.8000;0.1481;10.5040;
1175.1000;0.1441;10.4991;
1175.4000;0.1449;10.4991;
1175.7000;0.1457;10.4991;
1176.0000;0.1392;10.4799;
1176.3000;0.1425;10.4799;
1176.6000;0.1433;10.4799;
1176.9000;0.1425;10.4823;
1177.2000;0.1416;10.4895;
1177.5000;0.1425;10.4895;
1177.8000;0.1425;10.4943;
1178.1000;0.1449;10.4943;
1178.4000;0.1433;10.4991;
1178.7000;0.1449;10.4943;
1179.0000;0.1441;10.4919;
1179.3000;0.1457;10.4943;
1179.6000;0.1449;10.5016;
1179.9000;0.1457;10.5064;
1180.2000;0.1457;10.4991;
1180.5000;0.1449;10.4943;
1180.8000;0.1457;10.4895;
1181.1000;0.1433;10.4823;
1181.4000;0.1433;10.4823;
1181.7000;0.1400;10.4654;
1182.0000;0.1384;10.4678;
1182.3000;0.1441;10.4847;
1182.6000;0.1465;10.4967;
1182.9000;0.1433;10.4895;
1183.2000;0.1408;10.4774;
1183.5000;0.1425;10.4823;
1183.8000;0.1433;10.4919;
1184.1000;0.1465;10.4991;
1184.4000;0.1425;10.4919;
1184.7000;0.1465;10.5040;
1185.0000;0.1392;10.4726;
1185.3000;0.1433;10.4847;
1185.6000;0.1514;10.5040;
1185.9000;0.1425;10.4799;
1186.2000;0.1433;10.4847;
1186.5000;0.1425;10.4871;
1186.8000;0.1433;10.5016;
1187.1000;0.1449;10.4871;
1187.4000;0.1425;10.4774;
1187.7000;0.1441;10.4799;
1188.0000;0.1425;10.4750;
1188.3000;0.1433;10.4799;
1188.6000;0.1433;10.4630;
1188.9000;0.1441;10.4606;
1189.2000;0.1449;10.4702;
1189.5000;0.1416;10.4702;
1189.8000;0.1449;10.4750;
1190.1000;0.1433;10.4726;
1190.4000;0.1449;10.4823;
1190.7000;0.1441;10.4774;
1191.0000;0.1441;10.4774;
1191.3000;0.1425;10.4774;
1191.6000;0.1433;10.4799;
1191.9000;0.1433;10.4871;
1192.2000;0.1441;10.4871;
1192.5000;0.1416;10.4823;
1192.8000;0.1416;10.4774;
1193.1000;0.1441;10.4847;
1193.4000;0.1441;10.4823;
1193.7000;0.1433;10.4823;
1194.0000;0.1481;10.4991;
1194.3000;0.1457;10.4871;
1194.6000;0.1433;10.4823;
1194.9000;0.1449;10.4799;
1195.2000;0.1441;10.4823;
1195.5000;0.1457;10.4871;
1195.8000;0.1457;10.4774;
1196.1000;0.1457;10.4823;
1196.4000;0.1433;10.4750;
1196.7000;0.1449;10.4702;
1197.0000;0.1449;10.4702;
1197.3000;0.1441;10.4630;
1197.6000;0.1433;10.4702;
1197.9000;0.1416;10.4678;
1198.2000;0.1433;10.4774;
1198.5000;0.1457;10.4823;
1198.8000;0.1425;10.4750;
1199.1000;0.1449;10.4799;
1199.4000;0.1433;10.4847;
1199.7000;0.1425;10.4871;
1200.0000;0.1498;10.5040;
1200.3000;0.1425;10.4823;
1200.6000;0.1416;10.4823;
1200.9000;0.1441;10.4847;
1201.2000;0.1441;10.4823;
1201.5000;0.1457;10.4799;
1201.8000;0.1449;10.4799;
1202.1000;0.1481;10.4774;
1202.4000;0.1433;10.4678;
1202.7000;0.1441;10.4581;
1203.0000;0.1416;10.4557;
1203.3000;0.1433;10.4678;
1203.6000;0.1416;10.4750;
1203.9000;0.1425;10.4847;
1204.2000;0.1408;10.4750;
1204.5000;0.1433;10.4774;
1204.8000;0.1449;10.4943;
1205.1000;0.1278;10.4581;
1205.4000;0.1425;10.5016;
1205.7000;0.1498;10.5281;
1206.0000;0.1506;10.5329;
1206.3000;0.1449;10.5040;
1206.6000;0.1433;10.5064;
1206.9000;0.1449;10.5064;
1207.2000;0.1441;10.5064;
1207.5000;0.1449;10.5064;
1207.8000;0.1481;10.5257;
1208.1000;0.1408;10.5064;
1208.4000;0.1416;10.5088;
1208.7000;0.1465;10.5233;
1209.0000;0.1441;10.5184;
1209.3000;0.1457;10.5209;
1209.6000;0.1416;10.5160;
1209.9000;0.1457;10.5329;
1210.2000;0.1449;10.5281;
1210.5000;0.1465;10.5257;
1210.8000;0.1433;10.5112;
1211.1000;0.1433;10.5112;
1211.4000;0.1433;10.5112;
1211.7000;0.1449;10.5184;
1212.0000;0.1441;10.5160;
1212.3000;0.1425;10.5088;
1212.6000;0.1416;10.5136;
1212.9000;0.1449;10.5184;
1213.2000;0.1433;10.5136;
1213.5000;0.1433;10.5112;
1213.8000;0.1449;10.5040;
1214.1000;0.1441;10.4895;
1214.4000;0.1441;10.4967;
1214.7000;0.1425;10.4943;
1215.0000;0.1441;10.5064;
1215.3000;0.1449;10.5040;
1215.6000;0.1433;10.5064;
1215.9000;0.1416;10.4991;
1216.2000;0.1441;10.5064;
1216.5000;0.1449;10.5040;
1216.8000;0.1433;10.4871;
1217.1000;0.1441;10.4919;
1217.4000;0.1457;10.5016;
1217.7000;0.1416;10.4895;
1218.0000;0.1392;10.4919;
1218.3000;0.1433;10.4991;
1218.6000;0.1416;10.5064;
1218.9000;0.1441;10.5064;
1219.2000;0.1425;10.5088;
1219.5000;0.1441;10.5040;
1219.8000;0.1449;10.5040;
1220.1000;0.1457;10.4943;
1220.4000;0.1449;10.4871;
1220.7000;0.1441;10.4774;
1221.0000;0.1449;10.4750;
1221.3000;0.1465;10.4799;
1221.6000;0.1441;10.4774;
1221.9000;0.1441;10.4823;
1222.2000;0.1449;10.4871;
1222.5000;0.1449;10.4895;
1222.8000;0.1449;10.4895;
1223.1000;0.1457;10.4967;
1223.4000;0.1425;10.4895;
1223.7000;0.1457;10.4991;
1224.0000;0.1376;10.4847;
1224.3000;0.1441;10.4967;
1224.6000;0.1433;10.4991;
1224.9000;0.1425;10.4967;
1225.2000;0.1433;10.4871;
1225.5000;0.1465;10.4943;
1225.8000;0.1433;10.4871;
1226.1000;0.1441;10.4823;
1226.4000;0.1425;10.4847;
1226.7000;0.1416;10.4871;
1227.0000;0.1400;10.4823;
1227.3000;0.1457;10.4943;
1227.6000;0.1343;10.4750;
1227.9000;0.1441;10.4943;
1228.2000;0.1441;10.4847;
1228.5000;0.1425;10.4823;
1228.8000;0.1392;10.4654;
1229.1000;0.1343;10.4557;
1229.4000;0.1441;10.4799;
1229.7000;0.1433;10.4799;
1230.0000;0.1441;10.4823;
1230.3000;0.1457;10.4847;
1230.6000;0.1441;10.4895;
1230.9000;0.1449;10.4895;
1231.2000;0.1449;10.4823;
1231.5000;0.1457;10.4726;
1231.8000;0.1481;10.4774;
1232.1000;0.1457;10.4799;
1232.4000;0.1433;10.4774;
1232.7000;0.1441;10.4847;
1233.0000;0.1441;10.4895;
1233.3000;0.1441;10.4871;
1233.6000;0.1433;10.4895;
1233.9000;0.1441;10.4919;
1234.2000;0.1433;10.4847;
1234.5000;0.1433;10.4847;
1234.8000;0.1449;10.4895;
1235.1000;0.1433;10.4774;
1235.4000;0.1425;10.4726;
1235.7000;0.1433;10.4823;
1236.0000;0.1425;10.4799;
1236.3000;0.1441;10.4823;
1236.6000;0.1441;10.4847;
1236.9000;0.1433;10.4871;
1237.2000;0.1449;10.4823;
1237.5000;0.1449;10.4774;
1237.8000;0.1368;10.4654;
1238.1000;0.1433;10.4895;
1238.4000;0.1416;10.4871;
1238.7000;0.1441;10.5088;
1239.0000;0.1416;10.5040;
1239.3000;0.1408;10.5088;
1239.6000;0.1433;10.5136;
1239.9000;0.1368;10.4943;
1240.2000;0.1441;10.5040;
1240.5000;0.1433;10.4991;
1240.8000;0.1465;10.4991;
1241.1000;0.1441;10.4895;
1241.4000;0.1441;10.4895;
1241.7000;0.1433;10.4871;
1242.0000;0.1473;10.5040;
1242.3000;0.1441;10.4871;
1242.6000;0.1433;10.4847;
1242.9000;0.1425;10.4823;
1243.2000;0.1457;10.4895;
1243.5000;0.1384;10.4726;
1243.8000;0.1441;10.4871;
1244.1000;0.1441;10.4871;
1244.4000;0.1433;10.4943;
1244.7000;0.1449;10.4943;
1245.0000;0.1425;10.4919;
1245.3000;0.1441;10.4847;
1245.6000;0.1441;10.4871;
1245.9000;0.1433;10.4847;
1246.2000;0.1433;10.4847;
1246.5000;0.1465;10.4967;
1246.8000;0.1465;10.5064;
1247.1000;0.1449;10.5064;
1247.4000;0.1457;10.5088;
1247.7000;0.1433;10.5040;
1248.0000;0.1425;10.4991;
1248.3000;0.1457;10.5040;
1248.6000;0.1449;10.5040;
1248.9000;0.1408;10.4871;
1249.2000;0.1425;10.4871;
1249.5000;0.1433;10.4847;
1249.8000;0.1449;10.4799;
1250.1000;0.1433;10.4774;
1250.4000;0.1433;10.4895;
1250.7000;0.1368;10.4726;
1251.0000;0.1481;10.4991;
1251.3000;0.1433;10.4871;
1251.6000;0.1457;10.4847;
1251.9000;0.1441;10.4774;
1252.2000;0.1449;10.4726;
1252.5000;0.1343;10.4413;
1252.8000;0.1441;10.4702;
1253.1000;0.1441;10.4799;
1253.4000;0.1433;10.4799;
1253.7000;0.1441;10.4750;
1254.0000;0.1449;10.4774;
1254.3000;0.1433;10.4799;
1254.6000;0.1441;10.4847;
1254.9000;0.1416;10.4726;
1255.2000;0.1441;10.4702;
1255.5000;0.1457;10.4702;
1255.8000;0.1514;10.4871;
1256.1000;0.1433;10.4678;
1256.4000;0.1441;10.4774;
1256.7000;0.1465;10.4823;
1257.0000;0.1441;10.4847;
1257.3000;0.1457;10.4871;
1257.6000;0.1441;10.4895;
1257.9000;0.1433;10.4799;
1258.2000;0.1441;10.4919;
1258.5000;0.1457;10.4919;
1258.8000;0.1433;10.4943;
1259.1000;0.1425;10.4895;
1259.4000;0.1449;10.4991;
1259.7000;0.1425;10.4991;
1260.0000;0.1465;10.5064;
1260.3000;0.1441;10.4991;
1260.6000;0.1416;10.5040;
1260.9000;0.1441;10.4991;
1261.2000;0.1441;10.4895;
1261.5000;0.1433;10.4967;
1261.8000;0.1490;10.5136;
1262.1000;0.1441;10.4967;
1262.4000;0.1449;10.4967;
1262.7000;0.1433;10.4967;
1263.0000;0.1449;10.5016;
1263.3000;0.1441;10.4967;
1263.6000;0.1433;10.4991;
1263.9000;0.1416;10.4823;
1264.2000;0.1351;10.4654;
1264.5000;0.1433;10.4823;
1264.8000;0.1449;10.4847;
1265.1000;0.1449;10.4871;
1265.4000;0.1441;10.4895;
1265.7000;0.1433;10.4943;
1266.0000;0.1449;10.4991;
1266.3000;0.1449;10.4847;
1266.6000;0.1400;10.4823;
1266.9000;0.1441;10.4895;
1267.2000;0.1441;10.4919;
1267.5000;0.1433;10.4895;
1267.8000;0.1425;10.4871;
1268.1000;0.1425;10.4823;
1268.4000;0.1441;10.4823;
1268.7000;0.1408;10.4774;
1269.0000;0.1449;10.4847;
1269.3000;0.1441;10.4823;
1269.6000;0.1449;10.4847;
1269.9000;0.1441;10.4895;
1270.2000;0.1441;10.4919;
1270.5000;0.1416;10.4847;
1270.8000;0.1465;10.4919;
1271.1000;0.1457;10.4823;
1271.4000;0.1449;10.4847;
1271.7000;0.1384;10.4678;
1272.0000;0.1441;10.4823;
1272.3000;0.1433;10.4750;
1272.6000;0.1425;10.4774;
1272.9000;0.1441;10.4823;
1273.2000;0.1514;10.4991;
1273.5000;0.1449;10.4871;
1273.8000;0.1449;10.4871;
1274.1000;0.1441;10.4943;
1274.4000;0.1433;10.4943;
1274.7000;0.1441;10.4991;
1275.0000;0.1441;10.5016;
1275.3000;0.1368;10.4799;
1275.6000;0.1416;10.4967;
1275.9000;0.1449;10.4895;
1276.2000;0.1433;10.4991;
1276.5000;0.1425;10.4943;
1276.8000;0.1473;10.4991;
1277.1000;0.1384;10.4823;
1277.4000;0.1473;10.5040;
1277.7000;0.1498;10.5184;
1278.0000;0.1425;10.4991;
1278.3000;0.1449;10.5040;
1278.6000;0.1449;10.5160;
1278.9000;0.1433;10.5136;
1279.2000;0.1425;10.5136;
1279.5000;0.1457;10.5136;
1279.8000;0.1343;10.4847;
1280.1000;0.1449;10.5040;
1280.4000;0.1441;10.4991;
1280.7000;0.1416;10.4895;
1281.0000;0.1449;10.4967;
1281.3000;0.1449;10.4919;
1281.6000;0.1457;10.4895;
1281.9000;0.1441;10.4847;
1282.2000;0.1433;10.4871;
1282.5000;0.1449;10.4919;
1282.8000;0.1457;10.4943;
1283.1000;0.1416;10.4895;
1283.4000;0.1449;10.4967;
1283.7000;0.1449;10.4895;
1284.0000;0.1441;10.4823;
1284.3000;0.1449;10.4799;
1284.6000;0.1408;10.4726;
1284.9000;0.1441;10.4823;
1285.2000;0.1425;10.4847;
1285.5000;0.1506;10.5112;
1285.8000;0.1441;10.4919;
1286.1000;0.1400;10.4799;
1286.4000;0.1384;10.4726;
1286.7000;0.1441;10.4895;
1287.0000;0.1441;10.4919;
1287.3000;0.1433;10.4823;
1287.6000;0.1457;10.4895;
1287.9000;0.1441;10.4823;
1288.2000;0.1433;10.4799;
1288.5000;0.1441;10.4750;
1288.8000;0.1425;10.4702;
1289.1000;0.1416;10.4654;
1289.4000;0.1416;10.4606;
1289.7000;0.1433;10.4654;
1290.0000;0.1498;10.4847;
1290.3000;0.1449;10.4654;
1290.6000;0.1433;10.4654;
1290.9000;0.1376;10.4461;
1291.2000;0.1400;10.4581;
1291.5000;0.1441;10.4726;
1291.8000;0.1441;10.4678;
1292.1000;0.1441;10.4726;
1292.4000;0.1425;10.4750;
1292.7000;0.1457;10.4823;
1293.0000;0.1457;10.4799;
1293.3000;0.1449;10.4774;
1293.6000;0.1441;10.4726;
1293.9000;0.1433;10.4702;
1294.2000;0.1433;10.4557;
1294.5000;0.1416;10.4509;
1294.8000;0.1425;10.4533;
1295.1000;0.1425;10.4581;
1295.4000;0.1441;10.4654;
1295.7000;0.1433;10.4678;
1296.0000;0.1400;10.4533;
1296.3000;0.1441;10.4654;
1296.6000;0.1392;10.4581;
1296.9000;0.1433;10.4630;
1297.2000;0.1425;10.4654;
1297.5000;0.1425;10.4606;
1297.8000;0.1359;10.4364;
1298.1000;0.1425;10.4557;
1298.4000;0.1335;10.4340;
1298.7000;0.1416;10.4557;
1299.0000;0.1433;10.4630;
1299.3000;0.1449;10.4702;
1299.6000;0.1392;10.4606;
1299.9000;0.1425;10.4726;
1300.2000;0.1441;10.4750;
1300.5000;0.1441;10.4774;
1300.8000;0.1498;10.4847;
1301.1000;0.1490;10.4895;
1301.4000;0.1481;10.4871;
1301.7000;0.1441;10.4774;
1302.0000;0.1441;10.4774;
1302.3000;0.1514;10.4919;
1302.6000;0.1441;10.4774;
1302.9000;0.1441;10.4774;
1303.2000;0.1449;10.4726;
1303.5000;0.1441;10.4654;
1303.8000;0.1449;10.4678;
1304.1000;0.1481;10.4823;
1304.4000;0.1441;10.4774;
1304.7000;0.1449;10.4799;
1305.0000;0.1425;10.4799;
1305.3000;0.1449;10.4895;
1305.6000;0.1449;10.4967;
1305.9000;0.1449;10.5064;
1306.2000;0.1416;10.4967;
1306.5000;0.1433;10.4967;
1306.8000;0.1400;10.4823;
1307.1000;0.1433;10.4895;
1307.4000;0.1433;10.4919;
1307.7000;0.1400;10.4847;
1308.0000;0.1433;10.4871;
1308.3000;0.1416;10.4823;
1308.6000;0.1457;10.4847;
1308.9000;0.1400;10.4750;
1309.2000;0.1449;10.4991;
1309.5000;0.1441;10.4967;
1309.8000;0.1457;10.4967;
1310.1000;0.1408;10.4871;
1310.4000;0.1433;10.4943;
1310.7000;0.1457;10.5016;
1311.0000;0.1441;10.5016;
1311.3000;0.1449;10.5016;
1311.6000;0.1425;10.4943;
1311.9000;0.1425;10.4967;
1312.2000;0.1441;10.5040;
1312.5000;0.1433;10.4967;
1312.8000;0.1441;10.4943;
1313.1000;0.1457;10.4991;
1313.4000;0.1449;10.4967;
1313.7000;0.1433;10.4847;
1314.0000;0.1441;10.4991;
1314.3000;0.1433;10.4895;
1314.6000;0.1441;10.4943;
1314.9000;0.1449;10.4967;
1315.2000;0.1441;10.4871;
1315.5000;0.1433;10.4919;
1315.8000;0.1490;10.5040;
1316.1000;0.1449;10.4943;
1316.4000;0.1457;10.5064;
1316.7000;0.1473;10.5064;
1317.0000;0.1408;10.4871;
1317.3000;0.1457;10.4991;
1317.6000;0.1441;10.4967;
1317.9000;0.1433;10.4967;
1318.2000;0.1441;10.5016;
1318.5000;0.1465;10.5064;
1318.8000;0.1408;10.4919;
1319.1000;0.1441;10.4967;
1319.4000;0.1441;10.4991;
1319.7000;0.1441;10.5064;
1320.0000;0.1441;10.4967;
1320.3000;0.1441;10.5040;
1320.6000;0.1506;10.5233;
1320.9000;0.1449;10.5088;
1321.2000;0.1473;10.5160;
1321.5000;0.1408;10.4919;
1321.8000;0.1392;10.4919;
1322.1000;0.1457;10.5040;
1322.4000;0.1433;10.4991;
1322.7000;0.1457;10.5016;
1323.0000;0.1408;10.4847;
1323.3000;0.1506;10.5184;
1323.6000;0.1506;10.5257;
1323.9000;0.1465;10.5209;
1324.2000;0.1433;10.5112;
1324.5000;0.1457;10.5064;
1324.8000;0.1425;10.4919;
1325.1000;0.1465;10.4991;
1325.4000;0.1441;10.4919;
1325.7000;0.1425;10.4871;
1326.0000;0.1425;10.4871;
1326.3000;0.1449;10.4943;
1326.6000;0.1441;10.4919;
1326.9000;0.1441;10.4943;
1327.2000;0.1465;10.4991;
1327.5000;0.1449;10.4991;
1327.8000;0.1400;10.4943;
1328.1000;0.1449;10.4967;
1328.4000;0.1457;10.5016;
1328.7000;0.1425;10.4967;
1329.0000;0.1457;10.5112;
1329.3000;0.1441;10.5088;
1329.6000;0.1441;10.5088;
1329.9000;0.1481;10.5209;
1330.2000;0.1449;10.5209;
1330.5000;0.1433;10.5136;
1330.8000;0.1416;10.5016;
1331.1000;0.1465;10.5088;
1331.4000;0.1408;10.4823;
1331.7000;0.1400;10.4799;
1332.0000;0.1449;10.4895;
1332.3000;0.1433;10.4847;
1332.6000;0.1425;10.4847;
1332.9000;0.1441;10.4895;
1333.2000;0.1449;10.4847;
1333.5000;0.1449;10.4871;
1333.8000;0.1465;10.4823;
1334.1000;0.1465;10.4895;
1334.4000;0.1441;10.4799;
1334.7000;0.1465;10.4823;
1335.0000;0.1433;10.4847;
1335.3000;0.1457;10.4895;
1335.6000;0.1425;10.4799;
1335.9000;0.1449;10.4799;
1336.2000;0.1457;10.4750;
1336.5000;0.1547;10.5088;
1336.8000;0.1555;10.5136;
1337.1000;0.1408;10.4750;
1337.4000;0.1416;10.4774;
1337.7000;0.1449;10.4847;
1338.0000;0.1392;10.4726;
1338.3000;0.1441;10.4871;
1338.6000;0.1449;10.4919;
1338.9000;0.1465;10.5016;
1339.2000;0.1449;10.5016;
1339.5000;0.1425;10.4895;
1339.8000;0.1457;10.4943;
1340.1000;0.1465;10.5016;
1340.4000;0.1441;10.4871;
1340.7000;0.1441;10.4847;
1341.0000;0.1441;10.4847;
1341.3000;0.1449;10.4847;
1341.6000;0.1441;10.4847;
1341.9000;0.1425;10.4799;
1342.2000;0.1425;10.4847;
1342.5000;0.1514;10.5112;
1342.8000;0.1400;10.4871;
1343.1000;0.1441;10.4943;
1343.4000;0.1449;10.4847;
1343.7000;0.1449;10.4943;
1344.0000;0.1416;10.4750;
1344.3000;0.1449;10.4799;
1344.6000;0.1449;10.4871;
1344.9000;0.1416;10.4823;
1345.2000;0.1449;10.4847;
1345.5000;0.1441;10.4823;
1345.8000;0.1449;10.4823;
1346.1000;0.1408;10.4799;
1346.4000;0.1441;10.4847;
1346.7000;0.1441;10.4871;
1347.0000;0.1441;10.4895;
1347.3000;0.1416;10.4871;
1347.6000;0.1473;10.5112;
1347.9000;0.1441;10.4991;
1348.2000;0.1425;10.5016;
1348.5000;0.1416;10.4991;
1348.8000;0.1449;10.5016;
1349.1000;0.1425;10.4991;
1349.4000;0.1441;10.4919;
1349.7000;0.1441;10.4871;
1350.0000;0.1473;10.4943;
1350.3000;0.1433;10.4895;
1350.6000;0.1433;10.4943;
1350.9000;0.1416;10.4871;
1351.2000;0.1408;10.4847;
1351.5000;0.1416;10.4919;
1351.8000;0.1416;10.4943;
1352.1000;0.1319;10.4581;
1352.4000;0.1441;10.4895;
1352.7000;0.1425;10.4847;
1353.0000;0.1433;10.4799;
1353.3000;0.1433;10.4678;
1353.6000;0.1400;10.4581;
1353.9000;0.1376;10.4485;
1354.2000;0.1457;10.4799;
1354.5000;0.1457;10.4895;
1354.8000;0.1457;10.4919;
1355.1000;0.1449;10.5040;
1355.4000;0.1473;10.5088;
1355.7000;0.1481;10.5088;
1356.0000;0.1441;10.4919;
1356.3000;0.1441;10.4895;
1356.6000;0.1441;10.4871;
1356.9000;0.1457;10.4919;
1357.2000;0.1425;10.4919;
1357.5000;0.1416;10.4823;
1357.8000;0.1457;10.4967;
1358.1000;0.1473;10.4991;
1358.4000;0.1441;10.4871;
1358.7000;0.1449;10.4871;
1359.0000;0.1433;10.4823;
1359.3000;0.1457;10.4943;
1359.6000;0.1433;10.4919;
1359.9000;0.1425;10.4895;
1360.2000;0.1441;10.5016;
1360.5000;0.1343;10.4774;
1360.8000;0.1473;10.5209;
1361.1000;0.1416;10.5064;
1361.4000;0.1441;10.5040;
1361.7000;0.1408;10.4943;
1362.0000;0.1335;10.4750;
1362.3000;0.1441;10.4895;
1362.6000;0.1473;10.4895;
1362.9000;0.1441;10.4799;
1363.2000;0.1441;10.4774;
1363.5000;0.1441;10.4726;
1363.8000;0.1449;10.4702;
1364.1000;0.1449;10.4702;
1364.4000;0.1522;10.4919;
1364.7000;0.1457;10.4726;
1365.0000;0.1433;10.4702;
1365.3000;0.1449;10.4799;
1365.6000;0.1441;10.4847;
1365.9000;0.1473;10.4895;
1366.2000;0.1457;10.4895;
1366.5000;0.1425;10.4799;
1366.8000;0.1465;10.4895;
1367.1000;0.1498;10.5064;
1367.4000;0.1449;10.4967;
1367.7000;0.1433;10.4823;
1368.0000;0.1449;10.4823;
1368.3000;0.1425;10.4726;
1368.6000;0.1457;10.4847;
1368.9000;0.1449;10.4847;
1369.2000;0.1457;10.4943;
1369.5000;0.1449;10.4943;
1369.8000;0.1457;10.4943;
1370.1000;0.1433;10.4895;
1370.4000;0.1457;10.4991;
1370.7000;0.1441;10.4991;
1371.0000;0.1457;10.5064;
1371.3000;0.1441;10.5064;
1371.6000;0.1481;10.5136;
1371.9000;0.1449;10.5040;
1372.2000;0.1449;10.5040;
1372.5000;0.1441;10.4991;
1372.8000;0.1425;10.4967;
1373.1000;0.1416;10.4919;
1373.4000;0.1441;10.4967;
1373.7000;0.1473;10.5064;
1374.0000;0.1449;10.5040;
1374.3000;0.1433;10.5016;
1374.6000;0.1433;10.4919;
1374.9000;0.1465;10.4895;
1375.2000;0.1416;10.4750;
1375.5000;0.1441;10.4799;
1375.8000;0.1449;10.4799;
1376.1000;0.1465;10.4799;
1376.4000;0.1433;10.4750;
1376.7000;0.1425;10.4774;
1377.0000;0.1441;10.4919;
1377.3000;0.1441;10.4919;
1377.6000;0.1416;10.4847;
1377.9000;0.1416;10.4847;
1378.2000;0.1441;10.4967;
1378.5000;0.1449;10.4991;
1378.8000;0.1433;10.4919;
1379.1000;0.1425;10.4871;
1379.4000;0.1408;10.4847;
1379.7000;0.1457;10.4895;
1380.0000;0.1441;10.4871;
1380.3000;0.1433;10.4847;
1380.6000;0.1441;10.4895;
1380.9000;0.1449;10.4943;
1381.2000;0.1457;10.5040;
1381.5000;0.1425;10.5064;
1381.8000;0.1449;10.5040;
1382.1000;0.1425;10.5016;
1382.4000;0.1425;10.4943;
1382.7000;0.1441;10.5016;
1383.0000;0.1441;10.5040;
1383.3000;0.1441;10.5112;
1383.6000;0.1425;10.5064;
1383.9000;0.1433;10.5088;
1384.2000;0.1449;10.5160;
1384.5000;0.1457;10.5184;
1384.8000;0.1441;10.5088;
1385.1000;0.1441;10.5136;
1385.4000;0.1449;10.5040;
1385.7000;0.1522;10.5233;
1386.0000;0.1425;10.5016;
1386.3000;0.1441;10.5040;
1386.6000;0.1416;10.5040;
1386.9000;0.1449;10.5088;
1387.2000;0.1441;10.5040;
1387.5000;0.1449;10.5064;
1387.8000;0.1457;10.5112;
1388.1000;0.1457;10.5088;
1388.4000;0.1457;10.5184;
1388.7000;0.1449;10.5209;
1389.0000;0.1457;10.5233;
1389.3000;0.1449;10.5184;
1389.6000;0.1416;10.5112;
1389.9000;0.1473;10.5257;
1390.2000;0.1425;10.5088;
1390.5000;0.1498;10.5233;
1390.8000;0.1384;10.4895;
1391.1000;0.1416;10.4895;
1391.4000;0.1449;10.4895;
1391.7000;0.1416;10.4871;
1392.0000;0.1457;10.4919;
1392.3000;0.1465;10.4871;
1392.6000;0.1465;10.4895;
1392.9000;0.1376;10.4726;
1393.2000;0.1441;10.4895;
1393.5000;0.1384;10.4847;
1393.8000;0.1400;10.4895;
1394.1000;0.1433;10.4943;
1394.4000;0.1400;10.4871;
1394.7000;0.1449;10.4967;
1395.0000;0.1465;10.5040;
1395.3000;0.1425;10.4919;
1395.6000;0.1441;10.4919;
1395.9000;0.1416;10.5016;
1396.2000;0.1433;10.5040;
1396.5000;0.1449;10.5040;
1396.8000;0.1408;10.4919;
1397.1000;0.1425;10.4991;
1397.4000;0.1465;10.5016;
1397.7000;0.1506;10.5160;
1398.0000;0.1408;10.5064;
1398.3000;0.1433;10.5136;
1398.6000;0.1441;10.5184;
1398.9000;0.1449;10.5160;
1399.2000;0.1457;10.5064;
1399.5000;0.1416;10.4991;
1399.8000;0.1425;10.5016;
