time/ms;Fluo/V;P700 deltaI/I x10³;
-199.8000;0.3891;0.6818;
-199.5000;0.3891;0.6818;
-199.2000;0.3875;0.6794;
-198.9000;0.3883;0.6867;
-198.6000;0.3875;0.6794;
-198.3000;0.3956;0.6940;
-198.0000;0.3891;0.6696;
-197.7000;0.3899;0.6721;
-197.4000;0.3867;0.6696;
-197.1000;0.3834;0.6672;
-196.8000;0.3867;0.6672;
-196.5000;0.3858;0.6648;
-196.2000;0.3883;0.6721;
-195.9000;0.3883;0.6721;
-195.6000;0.3891;0.6769;
-195.3000;0.3891;0.6721;
-195.0000;0.3858;0.6575;
-194.7000;0.3867;0.6623;
-194.4000;0.3940;0.6745;
-194.1000;0.3891;0.6623;
-193.8000;0.3899;0.6648;
-193.5000;0.3867;0.6648;
-193.2000;0.3915;0.6891;
-192.9000;0.3899;0.6842;
-192.6000;0.3883;0.6818;
-192.3000;0.3899;0.6794;
-192.0000;0.3883;0.6745;
-191.7000;0.3875;0.6721;
-191.4000;0.3850;0.6696;
-191.1000;0.3923;0.6940;
-190.8000;0.3883;0.6891;
-190.5000;0.3907;0.6867;
-190.2000;0.3907;0.6867;
-189.9000;0.3875;0.6721;
-189.6000;0.3907;0.6867;
-189.3000;0.3907;0.6818;
-189.0000;0.3891;0.6745;
-188.7000;0.3826;0.6550;
-188.4000;0.3891;0.6721;
-188.1000;0.3907;0.6745;
-187.8000;0.3899;0.6721;
-187.5000;0.3899;0.6672;
-187.2000;0.3858;0.6575;
-186.9000;0.3891;0.6696;
-186.6000;0.3899;0.6769;
-186.3000;0.3777;0.6477;
-186.0000;0.3899;0.6794;
-185.7000;0.3858;0.6769;
-185.4000;0.3883;0.6867;
-185.1000;0.3940;0.7110;
-184.8000;0.3883;0.7013;
-184.5000;0.3899;0.6988;
-184.2000;0.3883;0.6891;
-183.9000;0.3883;0.6842;
-183.6000;0.3907;0.6915;
-183.3000;0.3891;0.6842;
-183.0000;0.3867;0.6842;
-182.7000;0.3883;0.6915;
-182.4000;0.3907;0.6940;
-182.1000;0.3891;0.6867;
-181.8000;0.3940;0.7037;
-181.5000;0.3891;0.6915;
-181.2000;0.3899;0.6915;
-180.9000;0.3858;0.6915;
-180.6000;0.3899;0.6915;
-180.3000;0.3850;0.6721;
-180.0000;0.3883;0.6915;
-179.7000;0.3883;0.6867;
-179.4000;0.3883;0.6818;
-179.1000;0.3891;0.6867;
-178.8000;0.3891;0.6842;
-178.5000;0.3858;0.6696;
-178.2000;0.3875;0.6721;
-177.9000;0.3891;0.6818;
-177.6000;0.3972;0.6940;
-177.3000;0.3883;0.6769;
-177.0000;0.3891;0.6769;
-176.7000;0.3867;0.6818;
-176.4000;0.3907;0.6940;
-176.1000;0.3883;0.6818;
-175.8000;0.3891;0.6867;
-175.5000;0.3801;0.6575;
-175.2000;0.3891;0.6867;
-174.9000;0.3867;0.6696;
-174.6000;0.3842;0.6599;
-174.3000;0.3915;0.6769;
-174.0000;0.3907;0.6794;
-173.7000;0.3891;0.6769;
-173.4000;0.3875;0.6721;
-173.1000;0.3891;0.6769;
-172.8000;0.3883;0.6794;
-172.5000;0.3899;0.6794;
-172.2000;0.3891;0.6745;
-171.9000;0.3867;0.6745;
-171.6000;0.3883;0.6867;
-171.3000;0.3923;0.6915;
-171.0000;0.3891;0.6867;
-170.7000;0.3875;0.6842;
-170.4000;0.3883;0.6867;
-170.1000;0.3883;0.6769;
-169.8000;0.3948;0.6891;
-169.5000;0.3891;0.6769;
-169.2000;0.3891;0.6769;
-168.9000;0.3899;0.6818;
-168.6000;0.3932;0.6818;
-168.3000;0.3891;0.6672;
-168.0000;0.3883;0.6575;
-167.7000;0.3891;0.6501;
-167.4000;0.3891;0.6477;
-167.1000;0.3883;0.6526;
-166.8000;0.3875;0.6477;
-166.5000;0.3891;0.6526;
-166.2000;0.3899;0.6575;
-165.9000;0.3883;0.6501;
-165.6000;0.3940;0.6769;
-165.3000;0.3891;0.6672;
-165.0000;0.3875;0.6648;
-164.7000;0.3891;0.6696;
-164.4000;0.3883;0.6721;
-164.1000;0.3883;0.6769;
-163.8000;0.3891;0.6745;
-163.5000;0.3891;0.6745;
-163.2000;0.3907;0.6721;
-162.9000;0.3899;0.6745;
-162.6000;0.3891;0.6696;
-162.3000;0.3899;0.6696;
-162.0000;0.3891;0.6745;
-161.7000;0.3826;0.6623;
-161.4000;0.3907;0.6867;
-161.1000;0.3875;0.6745;
-160.8000;0.3875;0.6672;
-160.5000;0.3867;0.6672;
-160.2000;0.3883;0.6745;
-159.9000;0.3875;0.6696;
-159.6000;0.3899;0.6745;
-159.3000;0.3883;0.6672;
-159.0000;0.3875;0.6672;
-158.7000;0.3899;0.6672;
-158.4000;0.3883;0.6696;
-158.1000;0.3883;0.6696;
-157.8000;0.3899;0.6745;
-157.5000;0.3899;0.6745;
-157.2000;0.3899;0.6696;
-156.9000;0.3875;0.6769;
-156.6000;0.3818;0.6575;
-156.3000;0.3875;0.6769;
-156.0000;0.3891;0.6769;
-155.7000;0.3940;0.6915;
-155.4000;0.3891;0.6745;
-155.1000;0.3891;0.6672;
-154.8000;0.3891;0.6672;
-154.5000;0.3875;0.6648;
-154.2000;0.3842;0.6672;
-153.9000;0.3875;0.6745;
-153.6000;0.3858;0.6672;
-153.3000;0.3891;0.6745;
-153.0000;0.3899;0.6794;
-152.7000;0.3915;0.6842;
-152.4000;0.3883;0.6769;
-152.1000;0.3891;0.6745;
-151.8000;0.3899;0.6745;
-151.5000;0.3875;0.6696;
-151.2000;0.3891;0.6794;
-150.9000;0.3883;0.6818;
-150.6000;0.3899;0.6818;
-150.3000;0.3858;0.6672;
-150.0000;0.3883;0.6769;
-149.7000;0.3891;0.6745;
-149.4000;0.3883;0.6696;
-149.1000;0.3891;0.6623;
-148.8000;0.3858;0.6575;
-148.5000;0.3899;0.6672;
-148.2000;0.3899;0.6648;
-147.9000;0.3883;0.6648;
-147.6000;0.3891;0.6794;
-147.3000;0.3891;0.6842;
-147.0000;0.3891;0.6867;
-146.7000;0.3875;0.6891;
-146.4000;0.3875;0.6891;
-146.1000;0.3883;0.6891;
-145.8000;0.3883;0.6891;
-145.5000;0.3867;0.6867;
-145.2000;0.3883;0.7013;
-144.9000;0.3907;0.6964;
-144.6000;0.3883;0.6891;
-144.3000;0.3875;0.6818;
-144.0000;0.3883;0.6818;
-143.7000;0.3899;0.6940;
-143.4000;0.3883;0.6915;
-143.1000;0.3891;0.6867;
-142.8000;0.3899;0.6867;
-142.5000;0.3875;0.6769;
-142.2000;0.3867;0.6842;
-141.9000;0.3891;0.6842;
-141.6000;0.3883;0.6794;
-141.3000;0.3891;0.6672;
-141.0000;0.3891;0.6696;
-140.7000;0.3891;0.6745;
-140.4000;0.3899;0.6769;
-140.1000;0.3891;0.6915;
-139.8000;0.3875;0.6842;
-139.5000;0.3867;0.6867;
-139.2000;0.3875;0.6891;
-138.9000;0.3875;0.6818;
-138.6000;0.3891;0.6818;
-138.3000;0.3891;0.6818;
-138.0000;0.3899;0.6769;
-137.7000;0.3891;0.6818;
-137.4000;0.3883;0.6915;
-137.1000;0.3891;0.6940;
-136.8000;0.3891;0.6964;
-136.5000;0.3867;0.6867;
-136.2000;0.3883;0.6769;
-135.9000;0.3883;0.6672;
-135.6000;0.3915;0.6794;
-135.3000;0.3875;0.6648;
-135.0000;0.3875;0.6721;
-134.7000;0.3858;0.6648;
-134.4000;0.3883;0.6672;
-134.1000;0.3858;0.6550;
-133.8000;0.3875;0.6526;
-133.5000;0.3858;0.6501;
-133.2000;0.3940;0.6696;
-132.9000;0.3891;0.6526;
-132.6000;0.3858;0.6428;
-132.3000;0.3891;0.6428;
-132.0000;0.3899;0.6501;
-131.7000;0.3915;0.6648;
-131.4000;0.3899;0.6672;
-131.1000;0.3810;0.6428;
-130.8000;0.3883;0.6696;
-130.5000;0.3883;0.6623;
-130.2000;0.3867;0.6575;
-129.9000;0.3891;0.6648;
-129.6000;0.3883;0.6623;
-129.3000;0.3883;0.6575;
-129.0000;0.3891;0.6599;
-128.7000;0.3883;0.6550;
-128.4000;0.3875;0.6550;
-128.1000;0.3891;0.6648;
-127.8000;0.3883;0.6623;
-127.5000;0.3891;0.6696;
-127.2000;0.3907;0.6721;
-126.9000;0.3891;0.6672;
-126.6000;0.3875;0.6648;
-126.3000;0.3915;0.6721;
-126.0000;0.3899;0.6721;
-125.7000;0.3907;0.6745;
-125.4000;0.3948;0.6842;
-125.1000;0.3883;0.6745;
-124.8000;0.3915;0.6794;
-124.5000;0.3891;0.6842;
-124.2000;0.3907;0.6842;
-123.9000;0.3875;0.6842;
-123.6000;0.3875;0.6842;
-123.3000;0.3899;0.6988;
-123.0000;0.3899;0.6988;
-122.7000;0.3875;0.6988;
-122.4000;0.3883;0.7013;
-122.1000;0.3891;0.7086;
-121.8000;0.3883;0.7013;
-121.5000;0.3891;0.7062;
-121.2000;0.3875;0.6988;
-120.9000;0.3875;0.6940;
-120.6000;0.3907;0.6940;
-120.3000;0.3867;0.6769;
-120.0000;0.3883;0.6818;
-119.7000;0.3891;0.6842;
-119.4000;0.3899;0.6915;
-119.1000;0.3907;0.6915;
-118.8000;0.3899;0.6867;
-118.5000;0.3915;0.6915;
-118.2000;0.3891;0.6940;
-117.9000;0.3907;0.6964;
-117.6000;0.3907;0.6867;
-117.3000;0.3883;0.6842;
-117.0000;0.3883;0.6794;
-116.7000;0.3899;0.6867;
-116.4000;0.3842;0.6721;
-116.1000;0.3883;0.6867;
-115.8000;0.3907;0.6842;
-115.5000;0.3883;0.6769;
-115.2000;0.3891;0.6745;
-114.9000;0.3867;0.6769;
-114.6000;0.3883;0.6818;
-114.3000;0.3891;0.6891;
-114.0000;0.3907;0.6940;
-113.7000;0.3891;0.6915;
-113.4000;0.3907;0.6964;
-113.1000;0.3899;0.6867;
-112.8000;0.4005;0.7086;
-112.5000;0.3858;0.6672;
-112.2000;0.3875;0.6745;
-111.9000;0.3907;0.6818;
-111.6000;0.3907;0.6842;
-111.3000;0.3915;0.6940;
-111.0000;0.3883;0.6794;
-110.7000;0.3883;0.6794;
-110.4000;0.3818;0.6623;
-110.1000;0.3883;0.6745;
-109.8000;0.3858;0.6696;
-109.5000;0.3907;0.6745;
-109.2000;0.3891;0.6745;
-108.9000;0.3899;0.6769;
-108.6000;0.3899;0.6745;
-108.3000;0.3891;0.6696;
-108.0000;0.3883;0.6769;
-107.7000;0.3899;0.6842;
-107.4000;0.3875;0.6891;
-107.1000;0.3875;0.6842;
-106.8000;0.3883;0.6915;
-106.5000;0.3875;0.6964;
-106.2000;0.3867;0.6940;
-105.9000;0.3899;0.6915;
-105.6000;0.3850;0.6648;
-105.3000;0.3891;0.6769;
-105.0000;0.3883;0.6696;
-104.7000;0.3899;0.6794;
-104.4000;0.3891;0.6672;
-104.1000;0.3891;0.6745;
-103.8000;0.3899;0.6818;
-103.5000;0.3891;0.6794;
-103.2000;0.3875;0.6721;
-102.9000;0.3899;0.6769;
-102.6000;0.3899;0.6867;
-102.3000;0.3867;0.6867;
-102.0000;0.3883;0.6988;
-101.7000;0.3891;0.6940;
-101.4000;0.3907;0.6988;
-101.1000;0.3891;0.6964;
-100.8000;0.3858;0.6915;
-100.5000;0.3867;0.6940;
-100.2000;0.3883;0.6915;
-99.9000;0.3867;0.6794;
-99.6000;0.3875;0.6794;
-99.3000;0.3875;0.6696;
-99.0000;0.3883;0.6672;
-98.7000;0.3891;0.6648;
-98.4000;0.3842;0.6623;
-98.1000;0.3883;0.6696;
-97.8000;0.3867;0.6599;
-97.5000;0.3915;0.6721;
-97.2000;0.3891;0.6623;
-96.9000;0.3891;0.6623;
-96.6000;0.3899;0.6599;
-96.3000;0.3883;0.6501;
-96.0000;0.3891;0.6575;
-95.7000;0.3875;0.6623;
-95.4000;0.3891;0.6769;
-95.1000;0.3891;0.6867;
-94.8000;0.3891;0.6891;
-94.5000;0.3883;0.6915;
-94.2000;0.3899;0.6891;
-93.9000;0.3875;0.6794;
-93.6000;0.3891;0.6769;
-93.3000;0.3923;0.6842;
-93.0000;0.3875;0.6794;
-92.7000;0.3899;0.6891;
-92.4000;0.3883;0.6818;
-92.1000;0.3875;0.6769;
-91.8000;0.3899;0.6891;
-91.5000;0.3956;0.7110;
-91.2000;0.3891;0.6891;
-90.9000;0.3883;0.6818;
-90.6000;0.3915;0.6867;
-90.3000;0.3891;0.6769;
-90.0000;0.3875;0.6769;
-89.7000;0.3858;0.6696;
-89.4000;0.3875;0.6794;
-89.1000;0.3883;0.6794;
-88.8000;0.3883;0.6794;
-88.5000;0.3891;0.6769;
-88.2000;0.3891;0.6818;
-87.9000;0.3899;0.7013;
-87.6000;0.3883;0.7037;
-87.3000;0.3883;0.7037;
-87.0000;0.3875;0.7135;
-86.7000;0.3883;0.7037;
-86.4000;0.3883;0.6940;
-86.1000;0.3858;0.6818;
-85.8000;0.3875;0.6769;
-85.5000;0.3883;0.6794;
-85.2000;0.3858;0.6696;
-84.9000;0.3883;0.6842;
-84.6000;0.3761;0.6477;
-84.3000;0.3883;0.6818;
-84.0000;0.3883;0.6769;
-83.7000;0.3891;0.6769;
-83.4000;0.3899;0.6842;
-83.1000;0.3899;0.6794;
-82.8000;0.3867;0.6721;
-82.5000;0.3899;0.6745;
-82.2000;0.3907;0.6794;
-81.9000;0.3899;0.6745;
-81.6000;0.3858;0.6696;
-81.3000;0.3850;0.6648;
-81.0000;0.3915;0.6672;
-80.7000;0.3907;0.6721;
-80.4000;0.3932;0.6745;
-80.1000;0.3875;0.6672;
-79.8000;0.3858;0.6696;
-79.5000;0.3867;0.6794;
-79.2000;0.3875;0.6696;
-78.9000;0.3891;0.6721;
-78.6000;0.3899;0.6745;
-78.3000;0.3907;0.6818;
-78.0000;0.3883;0.6696;
-77.7000;0.3891;0.6672;
-77.4000;0.3907;0.6672;
-77.1000;0.3891;0.6648;
-76.8000;0.3899;0.6648;
-76.5000;0.3923;0.6745;
-76.2000;0.3883;0.6721;
-75.9000;0.3948;0.6940;
-75.6000;0.3883;0.6769;
-75.3000;0.3883;0.6696;
-75.0000;0.3867;0.6672;
-74.7000;0.3891;0.6769;
-74.4000;0.3883;0.6745;
-74.1000;0.3891;0.6842;
-73.8000;0.3883;0.6842;
-73.5000;0.3907;0.6891;
-73.2000;0.3891;0.6867;
-72.9000;0.3899;0.6842;
-72.6000;0.3883;0.6794;
-72.3000;0.3875;0.6842;
-72.0000;0.3883;0.6842;
-71.7000;0.3907;0.6940;
-71.4000;0.3867;0.6891;
-71.1000;0.3964;0.7183;
-70.8000;0.3907;0.6988;
-70.5000;0.3883;0.6891;
-70.2000;0.3883;0.6891;
-69.9000;0.3867;0.6745;
-69.6000;0.3891;0.6940;
-69.3000;0.3883;0.6915;
-69.0000;0.3899;0.6915;
-68.7000;0.3883;0.6891;
-68.4000;0.3891;0.6794;
-68.1000;0.3932;0.6842;
-67.8000;0.3883;0.6648;
-67.5000;0.3907;0.6648;
-67.2000;0.3891;0.6623;
-66.9000;0.3858;0.6575;
-66.6000;0.3891;0.6648;
-66.3000;0.3891;0.6599;
-66.0000;0.3907;0.6696;
-65.7000;0.3915;0.6696;
-65.4000;0.3810;0.6550;
-65.1000;0.3891;0.6769;
-64.8000;0.3907;0.6842;
-64.5000;0.3883;0.6769;
-64.2000;0.3907;0.6867;
-63.9000;0.3923;0.6891;
-63.6000;0.3850;0.6721;
-63.3000;0.3907;0.6891;
-63.0000;0.3891;0.6794;
-62.7000;0.3850;0.6721;
-62.4000;0.3948;0.6915;
-62.1000;0.3891;0.6867;
-61.8000;0.3932;0.6891;
-61.5000;0.3875;0.6769;
-61.2000;0.3875;0.6696;
-60.9000;0.3867;0.6575;
-60.6000;0.3826;0.6599;
-60.3000;0.3850;0.6696;
-60.0000;0.3907;0.6769;
-59.7000;0.3980;0.6940;
-59.4000;0.3875;0.6648;
-59.1000;0.3883;0.6672;
-58.8000;0.3891;0.6794;
-58.5000;0.3883;0.6745;
-58.2000;0.3891;0.6842;
-57.9000;0.3883;0.6818;
-57.6000;0.3867;0.6818;
-57.3000;0.3891;0.6915;
-57.0000;0.3883;0.6842;
-56.7000;0.3907;0.6964;
-56.4000;0.3899;0.6940;
-56.1000;0.3875;0.6794;
-55.8000;0.3883;0.6794;
-55.5000;0.3883;0.6794;
-55.2000;0.3883;0.6769;
-54.9000;0.3899;0.6818;
-54.6000;0.3867;0.6696;
-54.3000;0.3940;0.6940;
-54.0000;0.3867;0.6794;
-53.7000;0.3891;0.6891;
-53.4000;0.3891;0.6915;
-53.1000;0.3891;0.6915;
-52.8000;0.3875;0.6867;
-52.5000;0.3875;0.6794;
-52.2000;0.3891;0.6721;
-51.9000;0.3883;0.6672;
-51.6000;0.3883;0.6721;
-51.3000;0.3891;0.6745;
-51.0000;0.3891;0.6769;
-50.7000;0.3875;0.6721;
-50.4000;0.3891;0.6721;
-50.1000;0.3875;0.6794;
-49.8000;0.3875;0.6745;
-49.5000;0.3883;0.6721;
-49.2000;0.3883;0.6745;
-48.9000;0.3858;0.6721;
-48.6000;0.3875;0.6696;
-48.3000;0.3867;0.6648;
-48.0000;0.3883;0.6599;
-47.7000;0.3923;0.6745;
-47.4000;0.3858;0.6526;
-47.1000;0.3907;0.6721;
-46.8000;0.3867;0.6575;
-46.5000;0.3932;0.6721;
-46.2000;0.3850;0.6599;
-45.9000;0.3875;0.6623;
-45.6000;0.3923;0.6721;
-45.3000;0.3883;0.6623;
-45.0000;0.3891;0.6550;
-44.7000;0.3899;0.6575;
-44.4000;0.3858;0.6477;
-44.1000;0.3875;0.6501;
-43.8000;0.3891;0.6550;
-43.5000;0.3891;0.6477;
-43.2000;0.3858;0.6331;
-42.9000;0.3899;0.6428;
-42.6000;0.3907;0.6404;
-42.3000;0.3899;0.6428;
-42.0000;0.3875;0.6453;
-41.7000;0.3875;0.6428;
-41.4000;0.3997;0.6745;
-41.1000;0.3867;0.6331;
-40.8000;0.3883;0.6380;
-40.5000;0.3867;0.6234;
-40.2000;0.3867;0.6185;
-39.9000;0.3899;0.6258;
-39.6000;0.4005;0.6623;
-39.3000;0.3940;0.6477;
-39.0000;0.3875;0.6428;
-38.7000;0.3842;0.6404;
-38.4000;0.3793;0.6404;
-38.1000;0.3891;0.6672;
-37.8000;0.3850;0.6550;
-37.5000;0.3915;0.6672;
-37.2000;0.3899;0.6599;
-36.9000;0.3891;0.6526;
-36.6000;0.3891;0.6501;
-36.3000;0.3899;0.6453;
-36.0000;0.3891;0.6477;
-35.7000;0.3850;0.6428;
-35.4000;0.3875;0.6501;
-35.1000;0.3867;0.6550;
-34.8000;0.3891;0.6623;
-34.5000;0.3875;0.6623;
-34.2000;0.3850;0.6550;
-33.9000;0.3867;0.6599;
-33.6000;0.3883;0.6599;
-33.3000;0.3940;0.6818;
-33.0000;0.3891;0.6599;
-32.7000;0.3899;0.6648;
-32.4000;0.3883;0.6648;
-32.1000;0.3875;0.6672;
-31.8000;0.3875;0.6672;
-31.5000;0.3891;0.6696;
-31.2000;0.3907;0.6745;
-30.9000;0.3899;0.6745;
-30.6000;0.3891;0.6672;
-30.3000;0.3932;0.6745;
-30.0000;0.3907;0.6648;
-29.7000;0.3923;0.6769;
-29.4000;0.3907;0.6745;
-29.1000;0.3875;0.6648;
-28.8000;0.3883;0.6696;
-28.5000;0.3883;0.6721;
-28.2000;0.3875;0.6745;
-27.9000;0.3883;0.6794;
-27.6000;0.3875;0.6623;
-27.3000;0.3891;0.6648;
-27.0000;0.3899;0.6721;
-26.7000;0.3867;0.6672;
-26.4000;0.3867;0.6599;
-26.1000;0.3899;0.6696;
-25.8000;0.3875;0.6623;
-25.5000;0.3883;0.6599;
-25.2000;0.3899;0.6599;
-24.9000;0.3891;0.6526;
-24.6000;0.3867;0.6477;
-24.3000;0.3932;0.6550;
-24.0000;0.3932;0.6575;
-23.7000;0.3915;0.6550;
-23.4000;0.3883;0.6501;
-23.1000;0.3923;0.6696;
-22.8000;0.3858;0.6501;
-22.5000;0.3842;0.6428;
-22.2000;0.3972;0.6818;
-21.9000;0.3875;0.6575;
-21.6000;0.3875;0.6623;
-21.3000;0.3834;0.6501;
-21.0000;0.3923;0.6794;
-20.7000;0.3891;0.6696;
-20.4000;0.3923;0.6818;
-20.1000;0.3875;0.6769;
-19.8000;0.3891;0.6818;
-19.5000;0.3891;0.6769;
-19.2000;0.3891;0.6745;
-18.9000;0.3834;0.6672;
-18.6000;0.3891;0.6867;
-18.3000;0.3875;0.6818;
-18.0000;0.3899;0.6915;
-17.7000;0.3777;0.6575;
-17.4000;0.3834;0.6648;
-17.1000;0.3915;0.6818;
-16.8000;0.3875;0.6842;
-16.5000;0.3875;0.6769;
-16.2000;0.3899;0.6769;
-15.9000;0.3818;0.6623;
-15.6000;0.3997;0.6988;
-15.3000;0.3883;0.6721;
-15.0000;0.3899;0.6794;
-14.7000;0.3858;0.6721;
-14.4000;0.3867;0.6745;
-14.1000;0.3883;0.6769;
-13.8000;0.3810;0.6599;
-13.5000;0.3891;0.6867;
-13.2000;0.3867;0.6842;
-12.9000;0.3891;0.6818;
-12.6000;0.3883;0.6818;
-12.3000;0.3915;0.6891;
-12.0000;0.3875;0.6794;
-11.7000;0.3883;0.6818;
-11.4000;0.3875;0.6769;
-11.1000;0.3883;0.6769;
-10.8000;0.3875;0.6769;
-10.5000;0.3883;0.6818;
-10.2000;0.3891;0.6842;
-9.9000;0.3801;0.6575;
-9.6000;0.3875;0.6769;
-9.3000;0.3899;0.6769;
-9.0000;0.3883;0.6721;
-8.7000;0.3883;0.6696;
-8.4000;0.3875;0.6745;
-8.1000;0.3891;0.6818;
-7.8000;0.3875;0.6648;
-7.5000;0.3891;0.6575;
-7.2000;0.3891;0.6599;
-6.9000;0.3883;0.6575;
-6.6000;0.3875;0.6575;
-6.3000;0.3923;0.6696;
-6.0000;0.3883;0.6526;
-5.7000;0.3867;0.6575;
-5.4000;0.3826;0.6404;
-5.1000;0.3891;0.6501;
-4.8000;0.3883;0.6501;
-4.5000;0.3883;0.6477;
-4.2000;0.3883;0.6453;
-3.9000;0.3891;0.6477;
-3.6000;0.3891;0.6550;
-3.3000;0.3883;0.6550;
-3.0000;0.3899;0.6526;
-2.7000;0.3915;0.6550;
-2.4000;0.3867;0.6550;
-2.1000;0.3883;0.6623;
-1.8000;0.3899;0.6672;
-1.5000;0.3883;0.6623;
-1.2000;0.3867;0.6575;
-0.9000;0.3899;0.6575;
-0.6000;0.3818;0.6404;
-0.3000;0.3883;0.6575;
0.0000;0.3883;0.6575;
0.3000;0.3980;0.6550;
0.6000;0.4086;0.6867;
0.9000;0.4208;0.7232;
1.2000;0.4290;0.7524;
1.5000;0.4265;0.7622;
1.8000;0.4355;0.8011;
2.1000;0.4453;0.8279;
2.4000;0.4469;0.8303;
2.7000;0.4501;0.8523;
3.0000;0.4526;0.8669;
3.3000;0.4648;0.9180;
3.6000;0.4591;0.9058;
3.9000;0.4599;0.9156;
4.2000;0.4624;0.9277;
4.5000;0.4640;0.9253;
4.8000;0.4640;0.9277;
5.1000;0.4640;0.9399;
5.4000;0.4672;0.9423;
5.7000;0.4689;0.9472;
6.0000;0.4689;0.9472;
6.3000;0.4697;0.9448;
6.6000;0.4705;0.9521;
6.9000;0.4705;0.9472;
7.2000;0.4705;0.9423;
7.5000;0.4778;0.9521;
7.8000;0.4729;0.9472;
8.1000;0.4737;0.9423;
8.4000;0.4681;0.9277;
8.7000;0.4746;0.9448;
9.0000;0.4754;0.9375;
9.3000;0.4770;0.9448;
9.6000;0.4843;0.9740;
9.9000;0.4746;0.9497;
10.2000;0.4786;0.9545;
10.5000;0.4786;0.9618;
10.8000;0.4786;0.9618;
11.1000;0.4786;0.9521;
11.4000;0.4778;0.9423;
11.7000;0.4803;0.9570;
12.0000;0.4803;0.9570;
12.3000;0.4803;0.9521;
12.6000;0.4786;0.9472;
12.9000;0.4827;0.9545;
13.2000;0.4827;0.9497;
13.5000;0.4827;0.9375;
13.8000;0.4819;0.9350;
14.1000;0.4843;0.9350;
14.4000;0.4835;0.9350;
14.7000;0.4851;0.9423;
15.0000;0.4860;0.9448;
15.3000;0.4851;0.9350;
15.6000;0.4868;0.9497;
15.9000;0.4876;0.9472;
16.2000;0.4860;0.9350;
16.5000;0.4827;0.9180;
16.8000;0.4876;0.9326;
17.1000;0.4868;0.9423;
17.4000;0.4868;0.9570;
17.7000;0.4860;0.9497;
18.0000;0.4876;0.9497;
18.3000;0.4892;0.9545;
18.6000;0.4868;0.9448;
18.9000;0.4884;0.9472;
19.2000;0.4892;0.9472;
19.5000;0.4892;0.9472;
19.8000;0.4917;0.9521;
20.1000;0.4917;0.9497;
20.4000;0.4917;0.9423;
20.7000;0.4908;0.9472;
21.0000;0.4917;0.9423;
21.3000;0.4957;0.9497;
21.6000;0.4933;0.9423;
21.9000;0.4908;0.9423;
22.2000;0.4900;0.9472;
22.5000;0.4900;0.9545;
22.8000;0.4917;0.9521;
23.1000;0.4925;0.9594;
23.4000;0.4933;0.9594;
23.7000;0.4900;0.9448;
24.0000;0.4941;0.9545;
24.3000;0.4941;0.9594;
24.6000;0.4949;0.9594;
24.9000;0.4949;0.9691;
25.2000;0.4941;0.9570;
25.5000;0.5022;0.9643;
25.8000;0.4941;0.9423;
26.1000;0.4957;0.9423;
26.4000;0.4957;0.9472;
26.7000;0.4949;0.9448;
27.0000;0.4974;0.9497;
27.3000;0.4974;0.9497;
27.6000;0.4965;0.9448;
27.9000;0.4957;0.9423;
28.2000;0.4941;0.9497;
28.5000;0.4990;0.9570;
28.8000;0.4974;0.9497;
29.1000;0.4974;0.9570;
29.4000;0.4965;0.9472;
29.7000;0.4965;0.9423;
30.0000;0.4974;0.9472;
30.3000;0.4982;0.9472;
30.6000;0.4990;0.9521;
30.9000;0.4990;0.9545;
31.2000;0.4974;0.9521;
31.5000;0.5014;0.9594;
31.8000;0.4998;0.9521;
32.1000;0.4974;0.9545;
32.4000;0.5022;0.9643;
32.7000;0.4917;0.9326;
33.0000;0.4957;0.9448;
33.3000;0.4949;0.9423;
33.6000;0.4998;0.9545;
33.9000;0.4982;0.9472;
34.2000;0.4908;0.9277;
34.5000;0.4998;0.9448;
34.8000;0.4990;0.9350;
35.1000;0.5014;0.9399;
35.4000;0.4990;0.9472;
35.7000;0.4998;0.9472;
36.0000;0.4990;0.9497;
36.3000;0.5006;0.9448;
36.6000;0.4974;0.9253;
36.9000;0.4990;0.9277;
37.2000;0.5006;0.9229;
37.5000;0.4998;0.9277;
37.8000;0.4998;0.9399;
38.1000;0.4990;0.9375;
38.4000;0.4990;0.9350;
38.7000;0.4990;0.9448;
39.0000;0.5014;0.9472;
39.3000;0.4998;0.9423;
39.6000;0.5006;0.9497;
39.9000;0.4998;0.9545;
40.2000;0.5022;0.9570;
40.5000;0.5112;0.9716;
40.8000;0.5006;0.9350;
41.1000;0.5014;0.9399;
41.4000;0.5014;0.9350;
41.7000;0.5006;0.9350;
42.0000;0.5014;0.9375;
42.3000;0.4957;0.9229;
42.6000;0.5055;0.9472;
42.9000;0.5031;0.9472;
43.2000;0.5022;0.9350;
43.5000;0.5014;0.9302;
43.8000;0.5022;0.9375;
44.1000;0.5014;0.9399;
44.4000;0.5006;0.9423;
44.7000;0.5031;0.9423;
45.0000;0.5031;0.9570;
45.3000;0.5022;0.9521;
45.6000;0.4998;0.9497;
45.9000;0.4974;0.9399;
46.2000;0.5014;0.9521;
46.5000;0.5014;0.9521;
46.8000;0.5031;0.9521;
47.1000;0.5031;0.9521;
47.4000;0.5006;0.9545;
47.7000;0.5031;0.9594;
48.0000;0.5055;0.9618;
48.3000;0.5022;0.9594;
48.6000;0.5031;0.9472;
48.9000;0.4965;0.9204;
49.2000;0.5047;0.9399;
49.5000;0.4998;0.9302;
49.8000;0.5014;0.9302;
50.1000;0.5039;0.9350;
50.4000;0.5006;0.9253;
50.7000;0.5055;0.9326;
51.0000;0.5031;0.9277;
51.3000;0.5031;0.9253;
51.6000;0.5039;0.9326;
51.9000;0.5022;0.9326;
52.2000;0.5055;0.9375;
52.5000;0.5039;0.9302;
52.8000;0.5006;0.9204;
53.1000;0.5047;0.9277;
53.4000;0.5014;0.9204;
53.7000;0.5047;0.9277;
54.0000;0.5047;0.9277;
54.3000;0.5071;0.9253;
54.6000;0.5006;0.9107;
54.9000;0.5031;0.9180;
55.2000;0.5136;0.9423;
55.5000;0.5031;0.9204;
55.8000;0.4990;0.9156;
56.1000;0.4957;0.8985;
56.4000;0.5031;0.9204;
56.7000;0.5071;0.9326;
57.0000;0.5047;0.9156;
57.3000;0.5047;0.9180;
57.6000;0.5047;0.9131;
57.9000;0.5039;0.9034;
58.2000;0.5031;0.9107;
58.5000;0.5047;0.9156;
58.8000;0.5039;0.9058;
59.1000;0.5047;0.9034;
59.4000;0.5047;0.9034;
59.7000;0.5047;0.9180;
60.0000;0.5039;0.9229;
60.3000;0.5047;0.9277;
60.6000;0.5055;0.9277;
60.9000;0.5055;0.9375;
61.2000;0.5031;0.9253;
61.5000;0.5047;0.9253;
61.8000;0.5039;0.9375;
62.1000;0.5031;0.9350;
62.4000;0.5047;0.9350;
62.7000;0.5014;0.9229;
63.0000;0.5022;0.9277;
63.3000;0.5039;0.9302;
63.6000;0.5006;0.9180;
63.9000;0.5022;0.9156;
64.2000;0.5055;0.9229;
64.5000;0.5055;0.9350;
64.8000;0.5055;0.9326;
65.1000;0.5047;0.9302;
65.4000;0.5047;0.9350;
65.7000;0.5063;0.9423;
66.0000;0.5047;0.9497;
66.3000;0.5055;0.9521;
66.6000;0.5055;0.9497;
66.9000;0.5039;0.9350;
67.2000;0.5031;0.9423;
67.5000;0.5039;0.9497;
67.8000;0.5031;0.9472;
68.1000;0.5039;0.9375;
68.4000;0.5022;0.9326;
68.7000;0.5031;0.9277;
69.0000;0.5014;0.9277;
69.3000;0.5047;0.9350;
69.6000;0.4990;0.9277;
69.9000;0.5031;0.9399;
70.2000;0.5047;0.9448;
70.5000;0.5031;0.9375;
70.8000;0.5055;0.9350;
71.1000;0.5055;0.9253;
71.4000;0.4998;0.9083;
71.7000;0.5039;0.9131;
72.0000;0.5063;0.9253;
72.3000;0.5120;0.9326;
72.6000;0.5063;0.9107;
72.9000;0.5047;0.9131;
73.2000;0.5063;0.9131;
73.5000;0.5031;0.9083;
73.8000;0.5006;0.9034;
74.1000;0.5071;0.9107;
74.4000;0.5039;0.9058;
74.7000;0.4990;0.8961;
75.0000;0.5047;0.9131;
75.3000;0.5014;0.9058;
75.6000;0.5079;0.9253;
75.9000;0.5055;0.9229;
76.2000;0.5031;0.9156;
76.5000;0.4998;0.9156;
76.8000;0.5071;0.9302;
77.1000;0.5055;0.9375;
77.4000;0.5047;0.9375;
77.7000;0.5079;0.9423;
78.0000;0.5039;0.9156;
78.3000;0.5128;0.9399;
78.6000;0.5063;0.9302;
78.9000;0.5079;0.9375;
79.2000;0.4982;0.9156;
79.5000;0.5014;0.9350;
79.8000;0.5039;0.9472;
80.1000;0.5055;0.9375;
80.4000;0.5055;0.9326;
80.7000;0.5039;0.9302;
81.0000;0.5055;0.9350;
81.3000;0.5047;0.9326;
81.6000;0.5047;0.9448;
81.9000;0.5031;0.9448;
82.2000;0.5039;0.9448;
82.5000;0.5055;0.9448;
82.8000;0.5055;0.9350;
83.1000;0.5071;0.9277;
83.4000;0.5055;0.9302;
83.7000;0.5047;0.9253;
84.0000;0.5047;0.9229;
84.3000;0.5047;0.9156;
84.6000;0.5047;0.9204;
84.9000;0.5039;0.9229;
85.2000;0.5055;0.9229;
85.5000;0.5047;0.9107;
85.8000;0.5031;0.9010;
86.1000;0.5055;0.9083;
86.4000;0.5071;0.9156;
86.7000;0.5047;0.9058;
87.0000;0.5063;0.9107;
87.3000;0.5055;0.9107;
87.6000;0.5047;0.9180;
87.9000;0.5071;0.9204;
88.2000;0.5063;0.9277;
88.5000;0.5022;0.9277;
88.8000;0.5071;0.9399;
89.1000;0.5039;0.9277;
89.4000;0.5063;0.9350;
89.7000;0.5063;0.9423;
90.0000;0.5063;0.9448;
90.3000;0.5063;0.9350;
90.6000;0.5079;0.9399;
90.9000;0.5055;0.9302;
91.2000;0.5088;0.9423;
91.5000;0.5063;0.9399;
91.8000;0.5039;0.9375;
92.1000;0.5071;0.9375;
92.4000;0.5055;0.9302;
92.7000;0.5055;0.9156;
93.0000;0.4982;0.8985;
93.3000;0.5039;0.9180;
93.6000;0.5055;0.9326;
93.9000;0.5022;0.9350;
94.2000;0.5039;0.9423;
94.5000;0.5055;0.9472;
94.8000;0.5055;0.9399;
95.1000;0.5031;0.9302;
95.4000;0.5022;0.9399;
95.7000;0.4998;0.9302;
96.0000;0.5047;0.9472;
96.3000;0.5055;0.9497;
96.6000;0.5120;0.9545;
96.9000;0.5055;0.9399;
97.2000;0.5071;0.9423;
97.5000;0.5063;0.9399;
97.8000;0.5055;0.9350;
98.1000;0.5055;0.9253;
98.4000;0.5063;0.9277;
98.7000;0.5014;0.9229;
99.0000;0.5071;0.9350;
99.3000;0.5039;0.9277;
99.6000;0.5047;0.9326;
99.9000;0.5055;0.9423;
100.2000;0.5063;0.9497;
100.5000;0.5047;0.9423;
100.8000;0.5047;0.9399;
101.1000;0.5112;0.9570;
101.4000;0.5063;0.9350;
101.7000;0.5055;0.9350;
102.0000;0.5047;0.9326;
102.3000;0.5047;0.9302;
102.6000;0.5047;0.9277;
102.9000;0.5079;0.9326;
103.2000;0.5006;0.9204;
103.5000;0.4990;0.9156;
103.8000;0.5039;0.9180;
104.1000;0.5063;0.9302;
104.4000;0.5047;0.9180;
104.7000;0.5071;0.9204;
105.0000;0.5047;0.9107;
105.3000;0.5055;0.9107;
105.6000;0.5055;0.9131;
105.9000;0.5063;0.9107;
106.2000;0.5047;0.9131;
106.5000;0.5071;0.9204;
106.8000;0.5063;0.9180;
107.1000;0.5047;0.9180;
107.4000;0.5088;0.9277;
107.7000;0.5079;0.9156;
108.0000;0.5071;0.9180;
108.3000;0.5112;0.9350;
108.6000;0.5071;0.9180;
108.9000;0.5047;0.9083;
109.2000;0.5047;0.9010;
109.5000;0.5055;0.9034;
109.8000;0.5055;0.9034;
110.1000;0.5055;0.9107;
110.4000;0.5071;0.9156;
110.7000;0.5079;0.9107;
111.0000;0.5063;0.9010;
111.3000;0.5055;0.8985;
111.6000;0.5104;0.9156;
111.9000;0.5071;0.9107;
112.2000;0.5055;0.9180;
112.5000;0.5128;0.9350;
112.8000;0.5063;0.9204;
113.1000;0.5006;0.9034;
113.4000;0.5047;0.9180;
113.7000;0.5055;0.9253;
114.0000;0.5055;0.9204;
114.3000;0.5096;0.9253;
114.6000;0.5144;0.9399;
114.9000;0.5047;0.9229;
115.2000;0.5063;0.9302;
115.5000;0.5071;0.9326;
115.8000;0.5047;0.9277;
116.1000;0.5055;0.9277;
116.4000;0.5071;0.9302;
116.7000;0.5088;0.9350;
117.0000;0.5079;0.9350;
117.3000;0.5014;0.9156;
117.6000;0.5055;0.9204;
117.9000;0.5071;0.9204;
118.2000;0.5055;0.9131;
118.5000;0.5014;0.9058;
118.8000;0.5071;0.9229;
119.1000;0.5055;0.9083;
119.4000;0.5063;0.9131;
119.7000;0.5071;0.9083;
120.0000;0.5047;0.8985;
120.3000;0.5031;0.8961;
120.6000;0.5071;0.9010;
120.9000;0.5039;0.9010;
121.2000;0.5071;0.9083;
121.5000;0.5055;0.9107;
121.8000;0.5055;0.9204;
122.1000;0.5022;0.9107;
122.4000;0.5079;0.9253;
122.7000;0.5014;0.9034;
123.0000;0.5071;0.9131;
123.3000;0.5063;0.9156;
123.6000;0.5055;0.9058;
123.9000;0.5055;0.8961;
124.2000;0.5161;0.9204;
124.5000;0.5031;0.9058;
124.8000;0.5055;0.9131;
125.1000;0.5055;0.9107;
125.4000;0.5055;0.9083;
125.7000;0.5055;0.9083;
126.0000;0.5039;0.9058;
126.3000;0.5047;0.9180;
126.6000;0.5063;0.9180;
126.9000;0.5079;0.9277;
127.2000;0.5079;0.9302;
127.5000;0.5079;0.9350;
127.8000;0.5063;0.9399;
128.1000;0.5063;0.9448;
128.4000;0.5071;0.9448;
128.7000;0.5063;0.9399;
129.0000;0.5063;0.9326;
129.3000;0.5071;0.9326;
129.6000;0.5079;0.9350;
129.9000;0.5063;0.9277;
130.2000;0.4998;0.9131;
130.5000;0.5104;0.9423;
130.8000;0.5071;0.9350;
131.1000;0.5047;0.9326;
131.4000;0.5039;0.9375;
131.7000;0.5006;0.9204;
132.0000;0.5088;0.9302;
132.3000;0.5071;0.9253;
132.6000;0.5079;0.9375;
132.9000;0.5071;0.9326;
133.2000;0.5112;0.9399;
133.5000;0.5079;0.9302;
133.8000;0.5055;0.9302;
134.1000;0.5055;0.9399;
134.4000;0.5071;0.9399;
134.7000;0.5071;0.9253;
135.0000;0.5063;0.9277;
135.3000;0.5039;0.9277;
135.6000;0.5088;0.9350;
135.9000;0.5071;0.9229;
136.2000;0.5063;0.9156;
136.5000;0.5088;0.9253;
136.8000;0.5047;0.9277;
137.1000;0.5063;0.9229;
137.4000;0.5071;0.9180;
137.7000;0.5079;0.9229;
138.0000;0.5063;0.9131;
138.3000;0.5088;0.9180;
138.6000;0.5088;0.9253;
138.9000;0.5071;0.9253;
139.2000;0.5055;0.9302;
139.5000;0.5063;0.9399;
139.8000;0.5055;0.9448;
140.1000;0.5039;0.9423;
140.4000;0.5104;0.9545;
140.7000;0.5039;0.9399;
141.0000;0.5047;0.9472;
141.3000;0.5047;0.9472;
141.6000;0.5047;0.9423;
141.9000;0.5047;0.9326;
142.2000;0.5047;0.9326;
142.5000;0.5071;0.9326;
142.8000;0.5055;0.9423;
143.1000;0.5047;0.9302;
143.4000;0.5063;0.9423;
143.7000;0.5047;0.9350;
144.0000;0.5063;0.9277;
144.3000;0.5088;0.9302;
144.6000;0.5055;0.9229;
144.9000;0.5079;0.9375;
145.2000;0.5047;0.9423;
145.5000;0.5022;0.9423;
145.8000;0.5047;0.9399;
146.1000;0.5071;0.9423;
146.4000;0.5104;0.9545;
146.7000;0.5047;0.9472;
147.0000;0.5055;0.9497;
147.3000;0.5055;0.9448;
147.6000;0.5071;0.9545;
147.9000;0.5014;0.9350;
148.2000;0.5055;0.9399;
148.5000;0.5079;0.9545;
148.8000;0.5047;0.9448;
149.1000;0.5079;0.9472;
149.4000;0.5104;0.9375;
149.7000;0.4974;0.9034;
150.0000;0.5063;0.9204;
150.3000;0.5055;0.9229;
150.6000;0.5039;0.9277;
150.9000;0.5120;0.9472;
151.2000;0.5144;0.9594;
151.5000;0.5047;0.9375;
151.8000;0.5063;0.9350;
152.1000;0.5063;0.9326;
152.4000;0.5063;0.9302;
152.7000;0.5063;0.9350;
153.0000;0.5055;0.9326;
153.3000;0.5047;0.9277;
153.6000;0.5071;0.9423;
153.9000;0.5088;0.9497;
154.2000;0.5055;0.9448;
154.5000;0.5112;0.9521;
154.8000;0.5120;0.9448;
155.1000;0.5047;0.9253;
155.4000;0.5055;0.9302;
155.7000;0.5047;0.9350;
156.0000;0.5063;0.9399;
156.3000;0.5055;0.9472;
156.6000;0.5063;0.9423;
156.9000;0.5055;0.9350;
157.2000;0.5022;0.9253;
157.5000;0.5063;0.9375;
157.8000;0.5055;0.9375;
158.1000;0.5063;0.9423;
158.4000;0.5063;0.9497;
158.7000;0.5063;0.9521;
159.0000;0.5071;0.9448;
159.3000;0.5079;0.9399;
159.6000;0.5039;0.9302;
159.9000;0.5039;0.9350;
160.2000;0.5039;0.9350;
160.5000;0.5055;0.9497;
160.8000;0.5071;0.9497;
161.1000;0.5055;0.9448;
161.4000;0.5063;0.9472;
161.7000;0.5047;0.9448;
162.0000;0.5047;0.9472;
162.3000;0.5031;0.9472;
162.6000;0.5055;0.9472;
162.9000;0.5071;0.9497;
163.2000;0.5039;0.9399;
163.5000;0.5047;0.9423;
163.8000;0.5071;0.9497;
164.1000;0.5063;0.9570;
164.4000;0.5071;0.9643;
164.7000;0.5031;0.9643;
165.0000;0.5055;0.9716;
165.3000;0.5047;0.9691;
165.6000;0.4982;0.9472;
165.9000;0.5055;0.9618;
166.2000;0.5039;0.9594;
166.5000;0.5055;0.9594;
166.8000;0.5006;0.9423;
167.1000;0.5096;0.9594;
167.4000;0.5071;0.9618;
167.7000;0.5014;0.9448;
168.0000;0.5063;0.9521;
168.3000;0.5055;0.9521;
168.6000;0.5063;0.9545;
168.9000;0.5088;0.9643;
169.2000;0.5055;0.9570;
169.5000;0.5071;0.9594;
169.8000;0.5047;0.9643;
170.1000;0.5039;0.9570;
170.4000;0.5047;0.9643;
170.7000;0.5079;0.9594;
171.0000;0.5063;0.9423;
171.3000;0.5079;0.9521;
171.6000;0.5063;0.9472;
171.9000;0.5128;0.9643;
172.2000;0.5112;0.9618;
172.5000;0.5039;0.9448;
172.8000;0.5014;0.9277;
173.1000;0.5071;0.9497;
173.4000;0.5047;0.9472;
173.7000;0.5022;0.9423;
174.0000;0.5079;0.9448;
174.3000;0.5055;0.9375;
174.6000;0.5112;0.9472;
174.9000;0.5063;0.9302;
175.2000;0.5120;0.9497;
175.5000;0.5071;0.9350;
175.8000;0.5079;0.9277;
176.1000;0.5063;0.9229;
176.4000;0.5047;0.9326;
176.7000;0.5071;0.9423;
177.0000;0.5071;0.9472;
177.3000;0.5071;0.9497;
177.6000;0.5055;0.9448;
177.9000;0.5063;0.9545;
178.2000;0.5055;0.9545;
178.5000;0.5055;0.9570;
178.8000;0.5063;0.9545;
179.1000;0.5071;0.9423;
179.4000;0.5071;0.9399;
179.7000;0.5071;0.9448;
180.0000;0.5047;0.9472;
180.3000;0.5071;0.9472;
180.6000;0.5088;0.9448;
180.9000;0.5063;0.9375;
181.2000;0.5055;0.9302;
181.5000;0.5088;0.9423;
181.8000;0.5055;0.9423;
182.1000;0.5055;0.9497;
182.4000;0.5079;0.9521;
182.7000;0.5071;0.9497;
183.0000;0.5022;0.9302;
183.3000;0.5071;0.9472;
183.6000;0.5063;0.9497;
183.9000;0.5047;0.9618;
184.2000;0.5055;0.9570;
184.5000;0.5079;0.9594;
184.8000;0.5047;0.9545;
185.1000;0.5055;0.9521;
185.4000;0.5063;0.9521;
185.7000;0.5063;0.9472;
186.0000;0.5055;0.9326;
186.3000;0.5055;0.9302;
186.6000;0.5047;0.9302;
186.9000;0.5055;0.9277;
187.2000;0.5047;0.9180;
187.5000;0.5055;0.9204;
187.8000;0.5022;0.9204;
188.1000;0.5079;0.9399;
188.4000;0.5071;0.9423;
188.7000;0.5039;0.9326;
189.0000;0.5055;0.9375;
189.3000;0.5063;0.9375;
189.6000;0.5006;0.9253;
189.9000;0.5055;0.9472;
190.2000;0.5161;0.9643;
190.5000;0.5096;0.9497;
190.8000;0.5071;0.9448;
191.1000;0.5055;0.9423;
191.4000;0.5071;0.9423;
191.7000;0.5071;0.9472;
192.0000;0.5079;0.9448;
192.3000;0.5104;0.9497;
192.6000;0.5063;0.9497;
192.9000;0.5063;0.9472;
193.2000;0.5014;0.9302;
193.5000;0.5063;0.9448;
193.8000;0.5071;0.9350;
194.1000;0.5047;0.9326;
194.4000;0.5047;0.9350;
194.7000;0.5104;0.9448;
195.0000;0.5055;0.9375;
195.3000;0.5055;0.9302;
195.6000;0.5047;0.9180;
195.9000;0.5193;0.9618;
196.2000;0.5055;0.9326;
196.5000;0.5047;0.9277;
196.8000;0.5039;0.9302;
197.1000;0.5055;0.9253;
197.4000;0.5047;0.9156;
197.7000;0.5047;0.9156;
198.0000;0.5047;0.9083;
198.3000;0.5055;0.9131;
198.6000;0.5055;0.9229;
198.9000;0.5063;0.9253;
199.2000;0.5071;0.9277;
199.5000;0.5055;0.9302;
199.8000;0.5088;0.9302;
200.1000;0.5047;0.9277;
200.4000;0.5071;0.9253;
200.7000;0.5071;0.9229;
201.0000;0.5071;0.9302;
201.3000;0.5055;0.9302;
201.6000;0.5039;0.9229;
201.9000;0.5055;0.9204;
202.2000;0.5047;0.9253;
202.5000;0.5047;0.9180;
202.8000;0.5055;0.9302;
203.1000;0.5031;0.9302;
203.4000;0.5063;0.9399;
203.7000;0.5088;0.9497;
204.0000;0.5047;0.9423;
204.3000;0.5031;0.9350;
204.6000;0.5063;0.9350;
204.9000;0.5079;0.9423;
205.2000;0.5014;0.9302;
205.5000;0.5014;0.9399;
205.8000;0.5047;0.9448;
206.1000;0.5055;0.9545;
206.4000;0.5063;0.9375;
206.7000;0.5104;0.9472;
207.0000;0.5055;0.9448;
207.3000;0.5055;0.9472;
207.6000;0.5071;0.9570;
207.9000;0.5088;0.9472;
208.2000;0.5063;0.9302;
208.5000;0.5039;0.9253;
208.8000;0.5047;0.9350;
209.1000;0.5039;0.9277;
209.4000;0.4998;0.9156;
209.7000;0.5047;0.9326;
210.0000;0.5079;0.9375;
210.3000;0.5047;0.9253;
210.6000;0.5055;0.9204;
210.9000;0.5047;0.9204;
211.2000;0.5047;0.9180;
211.5000;0.5055;0.9204;
211.8000;0.5006;0.9010;
212.1000;0.5047;0.9131;
212.4000;0.5055;0.9131;
212.7000;0.5055;0.9156;
213.0000;0.5063;0.9131;
213.3000;0.5039;0.9107;
213.6000;0.5063;0.9204;
213.9000;0.5088;0.9302;
214.2000;0.5071;0.9204;
214.5000;0.5063;0.9156;
214.8000;0.5063;0.9180;
215.1000;0.5128;0.9423;
215.4000;0.5088;0.9350;
215.7000;0.5063;0.9277;
216.0000;0.5063;0.9229;
216.3000;0.5063;0.9277;
216.6000;0.5088;0.9302;
216.9000;0.5063;0.9302;
217.2000;0.5071;0.9326;
217.5000;0.5063;0.9350;
217.8000;0.5055;0.9253;
218.1000;0.5047;0.9253;
218.4000;0.5063;0.9253;
218.7000;0.5071;0.9180;
219.0000;0.5079;0.9131;
219.3000;0.5063;0.9131;
219.6000;0.5022;0.9010;
219.9000;0.5071;0.9204;
220.2000;0.5055;0.9326;
220.5000;0.5055;0.9375;
220.8000;0.5063;0.9399;
221.1000;0.5063;0.9375;
221.4000;0.4965;0.9131;
221.7000;0.5063;0.9399;
222.0000;0.5047;0.9350;
222.3000;0.5055;0.9448;
222.6000;0.5071;0.9375;
222.9000;0.5063;0.9302;
223.2000;0.5047;0.9253;
223.5000;0.5055;0.9302;
223.8000;0.5063;0.9229;
224.1000;0.5055;0.9277;
224.4000;0.5063;0.9326;
224.7000;0.5079;0.9399;
225.0000;0.5063;0.9302;
225.3000;0.5055;0.9204;
225.6000;0.5071;0.9180;
225.9000;0.5071;0.9204;
226.2000;0.5071;0.9229;
226.5000;0.5079;0.9326;
226.8000;0.5079;0.9253;
227.1000;0.5071;0.9302;
227.4000;0.5063;0.9375;
227.7000;0.5071;0.9350;
228.0000;0.5055;0.9302;
228.3000;0.5055;0.9302;
228.6000;0.5055;0.9448;
228.9000;0.5039;0.9423;
229.2000;0.5063;0.9302;
229.5000;0.5047;0.9180;
229.8000;0.5022;0.9131;
230.1000;0.5055;0.9156;
230.4000;0.5047;0.9204;
230.7000;0.5071;0.9350;
231.0000;0.5071;0.9302;
231.3000;0.5071;0.9423;
231.6000;0.5055;0.9302;
231.9000;0.5063;0.9375;
232.2000;0.5047;0.9277;
232.5000;0.5047;0.9253;
232.8000;0.5039;0.9277;
233.1000;0.5031;0.9253;
233.4000;0.5071;0.9423;
233.7000;0.5055;0.9472;
234.0000;0.5063;0.9423;
234.3000;0.5063;0.9375;
234.6000;0.5055;0.9326;
234.9000;0.5047;0.9204;
235.2000;0.5063;0.9229;
235.5000;0.5055;0.9204;
235.8000;0.5079;0.9131;
236.1000;0.5063;0.9034;
236.4000;0.5055;0.9034;
236.7000;0.5063;0.9058;
237.0000;0.5055;0.9107;
237.3000;0.5063;0.9156;
237.6000;0.5144;0.9423;
237.9000;0.5063;0.9204;
238.2000;0.5047;0.9204;
238.5000;0.5063;0.9180;
238.8000;0.5055;0.9156;
239.1000;0.5047;0.9156;
239.4000;0.5079;0.9229;
239.7000;0.5071;0.9180;
240.0000;0.5022;0.9107;
240.3000;0.5063;0.9253;
240.6000;0.5055;0.9229;
240.9000;0.5063;0.9180;
241.2000;0.4941;0.8888;
241.5000;0.5047;0.9131;
241.8000;0.5088;0.9350;
242.1000;0.5055;0.9277;
242.4000;0.5071;0.9277;
242.7000;0.4965;0.9034;
243.0000;0.5112;0.9277;
243.3000;0.5039;0.9083;
243.6000;0.5063;0.9180;
243.9000;0.5039;0.9180;
244.2000;0.5055;0.9302;
244.5000;0.5063;0.9350;
244.8000;0.5022;0.9302;
245.1000;0.5055;0.9399;
245.4000;0.5079;0.9399;
245.7000;0.5063;0.9302;
246.0000;0.5063;0.9302;
246.3000;0.5071;0.9302;
246.6000;0.5063;0.9375;
246.9000;0.5055;0.9448;
247.2000;0.5161;0.9740;
247.5000;0.5047;0.9326;
247.8000;0.5071;0.9253;
248.1000;0.5047;0.9156;
248.4000;0.5079;0.9058;
248.7000;0.5031;0.8961;
249.0000;0.5063;0.9107;
249.3000;0.5063;0.9131;
249.6000;0.5063;0.9180;
249.9000;0.5055;0.9083;
250.2000;0.5047;0.9083;
250.5000;0.5055;0.9180;
250.8000;0.5055;0.9204;
251.1000;0.5071;0.9156;
251.4000;0.5063;0.9131;
251.7000;0.5063;0.9131;
252.0000;0.5047;0.9229;
252.3000;0.5071;0.9253;
252.6000;0.5071;0.9229;
252.9000;0.5039;0.9156;
253.2000;0.5047;0.9058;
253.5000;0.5047;0.8912;
253.8000;0.5039;0.8888;
254.1000;0.5047;0.8912;
254.4000;0.5055;0.8985;
254.7000;0.5055;0.9010;
255.0000;0.5055;0.9010;
255.3000;0.4965;0.8717;
255.6000;0.5039;0.8961;
255.9000;0.5055;0.8985;
256.2000;0.5063;0.8961;
256.5000;0.5071;0.8961;
256.8000;0.5039;0.8985;
257.1000;0.5063;0.9083;
257.4000;0.5055;0.9204;
257.7000;0.5055;0.9229;
258.0000;0.5022;0.9131;
258.3000;0.5039;0.9229;
258.6000;0.5047;0.9277;
258.9000;0.5055;0.9229;
259.2000;0.5039;0.9156;
259.5000;0.5055;0.9277;
259.8000;0.5055;0.9229;
260.1000;0.5063;0.9131;
260.4000;0.5055;0.9107;
260.7000;0.5039;0.9204;
261.0000;0.5063;0.9253;
261.3000;0.5039;0.9131;
261.6000;0.5022;0.9131;
261.9000;0.5047;0.9156;
262.2000;0.5104;0.9302;
262.5000;0.4998;0.9034;
262.8000;0.5055;0.9156;
263.1000;0.4990;0.9010;
263.4000;0.5055;0.9156;
263.7000;0.5071;0.9204;
264.0000;0.5039;0.9229;
264.3000;0.5047;0.9253;
264.6000;0.5055;0.9204;
264.9000;0.5031;0.9156;
265.2000;0.4941;0.8985;
265.5000;0.5031;0.9180;
265.8000;0.5063;0.9277;
266.1000;0.5063;0.9180;
266.4000;0.5014;0.9083;
266.7000;0.5047;0.9229;
267.0000;0.5047;0.9107;
267.3000;0.5055;0.9156;
267.6000;0.5055;0.9253;
267.9000;0.5039;0.9229;
268.2000;0.5055;0.9277;
268.5000;0.5136;0.9350;
268.8000;0.5071;0.9204;
269.1000;0.5055;0.9229;
269.4000;0.5071;0.9302;
269.7000;0.5055;0.9350;
270.0000;0.5088;0.9472;
270.3000;0.5063;0.9399;
270.6000;0.5014;0.9302;
270.9000;0.5055;0.9302;
271.2000;0.4974;0.9107;
271.5000;0.5055;0.9229;
271.8000;0.5055;0.9180;
272.1000;0.5120;0.9399;
272.4000;0.5063;0.9229;
272.7000;0.5120;0.9375;
273.0000;0.5047;0.9156;
273.3000;0.5055;0.9058;
273.6000;0.5047;0.9034;
273.9000;0.5039;0.9107;
274.2000;0.5039;0.9107;
274.5000;0.5006;0.9058;
274.8000;0.5071;0.9229;
275.1000;0.5063;0.9229;
275.4000;0.5055;0.9302;
275.7000;0.5063;0.9277;
276.0000;0.5055;0.9326;
276.3000;0.5047;0.9326;
276.6000;0.5055;0.9302;
276.9000;0.5063;0.9350;
277.2000;0.5031;0.9229;
277.5000;0.5063;0.9253;
277.8000;0.5079;0.9350;
278.1000;0.5063;0.9253;
278.4000;0.5047;0.9204;
278.7000;0.5055;0.9253;
279.0000;0.5063;0.9302;
279.3000;0.5039;0.9229;
279.6000;0.5055;0.9180;
279.9000;0.5063;0.9253;
280.2000;0.5055;0.9277;
280.5000;0.5055;0.9326;
280.8000;0.5047;0.9326;
281.1000;0.5063;0.9375;
281.4000;0.5079;0.9350;
281.7000;0.5063;0.9229;
282.0000;0.5055;0.9204;
282.3000;0.5096;0.9350;
282.6000;0.5047;0.9229;
282.9000;0.5055;0.9253;
283.2000;0.5071;0.9302;
283.5000;0.5039;0.9180;
283.8000;0.5047;0.9229;
284.1000;0.5039;0.9229;
284.4000;0.5047;0.9229;
284.7000;0.5063;0.9253;
285.0000;0.5063;0.9229;
285.3000;0.5088;0.9277;
285.6000;0.5047;0.9204;
285.9000;0.5039;0.9156;
286.2000;0.5006;0.9131;
286.5000;0.5055;0.9253;
286.8000;0.5014;0.9253;
287.1000;0.5039;0.9277;
287.4000;0.5063;0.9277;
287.7000;0.5063;0.9302;
288.0000;0.5047;0.9180;
288.3000;0.5047;0.9131;
288.6000;0.5096;0.9204;
288.9000;0.5063;0.9204;
289.2000;0.5071;0.9229;
289.5000;0.5047;0.9204;
289.8000;0.5055;0.9277;
290.1000;0.5047;0.9375;
290.4000;0.5022;0.9253;
290.7000;0.5071;0.9350;
291.0000;0.5063;0.9302;
291.3000;0.5055;0.9277;
291.6000;0.5039;0.9277;
291.9000;0.5063;0.9302;
292.2000;0.5071;0.9302;
292.5000;0.5055;0.9229;
292.8000;0.5055;0.9253;
293.1000;0.5071;0.9399;
293.4000;0.5031;0.9423;
293.7000;0.5063;0.9521;
294.0000;0.5047;0.9375;
294.3000;0.5039;0.9399;
294.6000;0.5047;0.9423;
294.9000;0.5055;0.9399;
295.2000;0.5055;0.9399;
295.5000;0.5063;0.9350;
295.8000;0.5039;0.9253;
296.1000;0.5112;0.9448;
296.4000;0.5047;0.9350;
296.7000;0.5063;0.9472;
297.0000;0.5055;0.9472;
297.3000;0.5047;0.9472;
297.6000;0.4974;0.9277;
297.9000;0.4965;0.9277;
298.2000;0.5088;0.9521;
298.5000;0.5047;0.9399;
298.8000;0.5055;0.9375;
299.1000;0.5063;0.9375;
299.4000;0.5039;0.9326;
299.7000;0.5031;0.9302;
300.0000;0.5031;0.9253;
300.3000;0.5071;0.9350;
300.6000;0.5071;0.9326;
300.9000;0.5055;0.9375;
301.2000;0.5055;0.9277;
301.5000;0.5039;0.9253;
301.8000;0.5055;0.9302;
302.1000;0.5096;0.9472;
302.4000;0.5039;0.9375;
302.7000;0.4949;0.9131;
303.0000;0.5047;0.9375;
303.3000;0.5063;0.9375;
303.6000;0.5031;0.9253;
303.9000;0.5055;0.9229;
304.2000;0.5047;0.9229;
304.5000;0.5047;0.9204;
304.8000;0.5120;0.9350;
305.1000;0.5055;0.9204;
305.4000;0.5063;0.9277;
305.7000;0.5088;0.9302;
306.0000;0.5063;0.9156;
306.3000;0.5063;0.9180;
306.6000;0.5055;0.9229;
306.9000;0.5063;0.9253;
307.2000;0.5014;0.9180;
307.5000;0.5063;0.9375;
307.8000;0.5079;0.9302;
308.1000;0.5047;0.9277;
308.4000;0.5039;0.9204;
308.7000;0.5063;0.9302;
309.0000;0.5022;0.9204;
309.3000;0.5047;0.9204;
309.6000;0.5055;0.9083;
309.9000;0.5047;0.9058;
310.2000;0.5047;0.9131;
310.5000;0.5047;0.9229;
310.8000;0.5071;0.9277;
311.1000;0.5055;0.9229;
311.4000;0.5104;0.9375;
311.7000;0.5031;0.9302;
312.0000;0.5022;0.9204;
312.3000;0.5055;0.9180;
312.6000;0.5022;0.9083;
312.9000;0.5047;0.9156;
313.2000;0.5063;0.9156;
313.5000;0.5047;0.9156;
313.8000;0.5047;0.9107;
314.1000;0.5039;0.9058;
314.4000;0.5047;0.9156;
314.7000;0.5047;0.9156;
315.0000;0.5022;0.9034;
315.3000;0.5055;0.9058;
315.6000;0.5055;0.9107;
315.9000;0.5022;0.9107;
316.2000;0.5039;0.9229;
316.5000;0.5039;0.9253;
316.8000;0.5039;0.9326;
317.1000;0.5039;0.9253;
317.4000;0.5055;0.9326;
317.7000;0.5055;0.9180;
318.0000;0.5055;0.9180;
318.3000;0.5031;0.9058;
318.6000;0.5088;0.9180;
318.9000;0.5047;0.9083;
319.2000;0.5022;0.9058;
319.5000;0.5006;0.8985;
319.8000;0.5153;0.9326;
320.1000;0.5079;0.9156;
320.4000;0.5055;0.9156;
320.7000;0.5079;0.9277;
321.0000;0.5055;0.9277;
321.3000;0.5047;0.9277;
321.6000;0.5047;0.9277;
321.9000;0.5055;0.9326;
322.2000;0.5039;0.9302;
322.5000;0.5055;0.9253;
322.8000;0.5063;0.9204;
323.1000;0.5047;0.9131;
323.4000;0.5063;0.9156;
323.7000;0.5047;0.9058;
324.0000;0.5055;0.9083;
324.3000;0.4982;0.8888;
324.6000;0.5031;0.9010;
324.9000;0.5047;0.9107;
325.2000;0.5112;0.9399;
325.5000;0.5055;0.9399;
325.8000;0.5063;0.9375;
326.1000;0.5047;0.9326;
326.4000;0.5063;0.9448;
326.7000;0.5055;0.9448;
327.0000;0.5063;0.9497;
327.3000;0.5128;0.9691;
327.6000;0.5128;0.9667;
327.9000;0.5063;0.9472;
328.2000;0.5079;0.9448;
328.5000;0.5063;0.9423;
328.8000;0.5031;0.9350;
329.1000;0.5055;0.9350;
329.4000;0.5047;0.9375;
329.7000;0.5031;0.9399;
330.0000;0.5055;0.9497;
330.3000;0.5055;0.9521;
330.6000;0.5055;0.9545;
330.9000;0.5022;0.9545;
331.2000;0.5063;0.9618;
331.5000;0.5096;0.9618;
331.8000;0.5047;0.9497;
332.1000;0.4990;0.9375;
332.4000;0.5047;0.9545;
332.7000;0.5055;0.9545;
333.0000;0.5055;0.9423;
333.3000;0.5055;0.9350;
333.6000;0.5063;0.9350;
333.9000;0.5047;0.9399;
334.2000;0.5047;0.9326;
334.5000;0.5039;0.9375;
334.8000;0.5039;0.9350;
335.1000;0.5047;0.9399;
335.4000;0.5031;0.9423;
335.7000;0.5031;0.9350;
336.0000;0.5039;0.9399;
336.3000;0.5055;0.9472;
336.6000;0.5047;0.9521;
336.9000;0.5039;0.9545;
337.2000;0.5031;0.9570;
337.5000;0.5047;0.9618;
337.8000;0.5047;0.9570;
338.1000;0.5039;0.9618;
338.4000;0.5063;0.9643;
338.7000;0.5047;0.9521;
339.0000;0.5104;0.9667;
339.3000;0.5047;0.9497;
339.6000;0.5031;0.9423;
339.9000;0.5047;0.9521;
340.2000;0.5047;0.9497;
340.5000;0.5079;0.9594;
340.8000;0.5071;0.9594;
341.1000;0.5047;0.9497;
341.4000;0.5079;0.9545;
341.7000;0.5071;0.9521;
342.0000;0.5014;0.9423;
342.3000;0.5063;0.9521;
342.6000;0.5031;0.9375;
342.9000;0.5055;0.9399;
343.2000;0.5047;0.9423;
343.5000;0.5047;0.9521;
343.8000;0.5039;0.9472;
344.1000;0.5055;0.9472;
344.4000;0.5055;0.9472;
344.7000;0.5055;0.9423;
345.0000;0.5047;0.9472;
345.3000;0.5055;0.9423;
345.6000;0.4974;0.9156;
345.9000;0.5055;0.9423;
346.2000;0.5071;0.9521;
346.5000;0.5055;0.9472;
346.8000;0.5055;0.9472;
347.1000;0.5063;0.9423;
347.4000;0.5055;0.9423;
347.7000;0.5055;0.9423;
348.0000;0.5047;0.9350;
348.3000;0.5055;0.9302;
348.6000;0.5031;0.9204;
348.9000;0.5047;0.9302;
349.2000;0.5063;0.9350;
349.5000;0.5047;0.9399;
349.8000;0.5047;0.9375;
350.1000;0.5104;0.9497;
350.4000;0.5047;0.9350;
350.7000;0.5055;0.9253;
351.0000;0.5047;0.9277;
351.3000;0.5039;0.9229;
351.6000;0.5063;0.9302;
351.9000;0.5055;0.9253;
352.2000;0.5047;0.9253;
352.5000;0.5047;0.9180;
352.8000;0.5055;0.9277;
353.1000;0.5063;0.9302;
353.4000;0.4974;0.9083;
353.7000;0.5039;0.9229;
354.0000;0.5055;0.9253;
354.3000;0.5144;0.9643;
354.6000;0.5112;0.9570;
354.9000;0.5055;0.9472;
355.2000;0.5055;0.9472;
355.5000;0.5055;0.9448;
355.8000;0.5055;0.9423;
356.1000;0.5039;0.9350;
356.4000;0.5047;0.9399;
356.7000;0.5063;0.9399;
357.0000;0.5055;0.9399;
357.3000;0.5055;0.9350;
357.6000;0.5047;0.9277;
357.9000;0.5039;0.9277;
358.2000;0.5063;0.9350;
358.5000;0.5055;0.9350;
358.8000;0.5120;0.9497;
359.1000;0.5039;0.9277;
359.4000;0.5055;0.9277;
359.7000;0.5031;0.9229;
360.0000;0.5063;0.9277;
360.3000;0.5047;0.9277;
360.6000;0.5006;0.9204;
360.9000;0.5055;0.9302;
361.2000;0.5047;0.9302;
361.5000;0.5031;0.9229;
361.8000;0.5031;0.9204;
362.1000;0.5047;0.9277;
362.4000;0.5112;0.9326;
362.7000;0.5055;0.9229;
363.0000;0.5088;0.9326;
363.3000;0.5039;0.9229;
363.6000;0.5039;0.9277;
363.9000;0.5047;0.9350;
364.2000;0.5063;0.9399;
364.5000;0.5079;0.9545;
364.8000;0.4990;0.9326;
365.1000;0.5144;0.9691;
365.4000;0.5039;0.9423;
365.7000;0.5079;0.9448;
366.0000;0.5055;0.9448;
366.3000;0.5039;0.9423;
366.6000;0.5063;0.9350;
366.9000;0.5047;0.9472;
367.2000;0.4974;0.9302;
367.5000;0.5039;0.9399;
367.8000;0.5055;0.9399;
368.1000;0.5063;0.9375;
368.4000;0.5088;0.9497;
368.7000;0.5071;0.9423;
369.0000;0.5047;0.9448;
369.3000;0.5071;0.9448;
369.6000;0.5055;0.9399;
369.9000;0.5039;0.9350;
370.2000;0.5047;0.9350;
370.5000;0.5014;0.9302;
370.8000;0.5031;0.9326;
371.1000;0.5022;0.9350;
371.4000;0.5014;0.9326;
371.7000;0.5039;0.9375;
372.0000;0.5047;0.9423;
372.3000;0.5071;0.9472;
372.6000;0.5055;0.9497;
372.9000;0.5039;0.9472;
373.2000;0.5096;0.9667;
373.5000;0.5071;0.9545;
373.8000;0.5063;0.9497;
374.1000;0.5047;0.9399;
374.4000;0.5063;0.9399;
374.7000;0.5071;0.9375;
375.0000;0.5047;0.9375;
375.3000;0.5055;0.9497;
375.6000;0.5063;0.9570;
375.9000;0.5039;0.9521;
376.2000;0.5063;0.9667;
376.5000;0.5039;0.9643;
376.8000;0.5047;0.9691;
377.1000;0.5047;0.9691;
377.4000;0.5039;0.9594;
377.7000;0.5136;0.9813;
378.0000;0.5055;0.9570;
378.3000;0.5006;0.9545;
378.6000;0.5096;0.9740;
378.9000;0.5063;0.9594;
379.2000;0.5006;0.9448;
379.5000;0.5055;0.9570;
379.8000;0.5055;0.9545;
380.1000;0.4982;0.9375;
380.4000;0.5039;0.9497;
380.7000;0.5055;0.9545;
381.0000;0.5031;0.9472;
381.3000;0.5014;0.9375;
381.6000;0.5047;0.9521;
381.9000;0.5063;0.9472;
382.2000;0.5031;0.9448;
382.5000;0.5039;0.9472;
382.8000;0.5047;0.9448;
383.1000;0.5031;0.9423;
383.4000;0.5096;0.9521;
383.7000;0.5071;0.9399;
384.0000;0.5055;0.9375;
384.3000;0.5063;0.9375;
384.6000;0.5047;0.9399;
384.9000;0.5055;0.9497;
385.2000;0.5031;0.9472;
385.5000;0.5022;0.9521;
385.8000;0.5039;0.9423;
386.1000;0.5039;0.9350;
386.4000;0.5055;0.9326;
386.7000;0.5047;0.9253;
387.0000;0.5039;0.9277;
387.3000;0.5047;0.9204;
387.6000;0.5031;0.9156;
387.9000;0.5047;0.9131;
388.2000;0.5071;0.9302;
388.5000;0.5063;0.9375;
388.8000;0.5014;0.9302;
389.1000;0.5047;0.9375;
389.4000;0.5047;0.9350;
389.7000;0.4990;0.9229;
390.0000;0.5063;0.9399;
390.3000;0.5031;0.9326;
390.6000;0.5039;0.9350;
390.9000;0.5031;0.9350;
391.2000;0.5055;0.9399;
391.5000;0.5047;0.9399;
391.8000;0.5039;0.9326;
392.1000;0.5039;0.9375;
392.4000;0.5063;0.9399;
392.7000;0.5079;0.9497;
393.0000;0.5039;0.9423;
393.3000;0.5071;0.9497;
393.6000;0.5063;0.9472;
393.9000;0.5047;0.9399;
394.2000;0.5047;0.9423;
394.5000;0.5039;0.9545;
394.8000;0.5104;0.9643;
395.1000;0.5047;0.9570;
395.4000;0.5039;0.9448;
395.7000;0.5063;0.9423;
396.0000;0.5039;0.9350;
396.3000;0.5063;0.9375;
396.6000;0.5039;0.9302;
396.9000;0.5047;0.9326;
397.2000;0.5047;0.9375;
397.5000;0.5079;0.9448;
397.8000;0.5039;0.9277;
398.1000;0.5055;0.9350;
398.4000;0.5063;0.9521;
398.7000;0.5055;0.9497;
399.0000;0.5071;0.9521;
399.3000;0.5047;0.9448;
399.6000;0.5047;0.9448;
399.9000;0.5055;0.9521;
400.2000;0.5055;0.9521;
400.5000;0.5047;0.9545;
400.8000;0.5079;0.9570;
401.1000;0.5055;0.9448;
401.4000;0.5039;0.9448;
401.7000;0.5031;0.9472;
402.0000;0.5039;0.9472;
402.3000;0.5047;0.9545;
402.6000;0.5104;0.9740;
402.9000;0.5055;0.9618;
403.2000;0.5136;0.9764;
403.5000;0.5014;0.9497;
403.8000;0.5047;0.9618;
404.1000;0.5014;0.9570;
404.4000;0.5031;0.9545;
404.7000;0.5039;0.9570;
405.0000;0.5047;0.9618;
405.3000;0.5047;0.9618;
405.6000;0.5039;0.9594;
405.9000;0.5039;0.9472;
406.2000;0.5039;0.9448;
406.5000;0.5055;0.9497;
406.8000;0.5039;0.9497;
407.1000;0.5039;0.9423;
407.4000;0.5006;0.9399;
407.7000;0.5031;0.9497;
408.0000;0.5039;0.9497;
408.3000;0.5047;0.9448;
408.6000;0.5014;0.9350;
408.9000;0.5063;0.9472;
409.2000;0.5063;0.9375;
409.5000;0.5055;0.9448;
409.8000;0.5039;0.9375;
410.1000;0.5039;0.9350;
410.4000;0.5055;0.9326;
410.7000;0.5055;0.9350;
411.0000;0.5039;0.9423;
411.3000;0.5031;0.9423;
411.6000;0.5047;0.9448;
411.9000;0.5079;0.9472;
412.2000;0.5031;0.9399;
412.5000;0.5031;0.9472;
412.8000;0.5063;0.9570;
413.1000;0.5088;0.9618;
413.4000;0.5047;0.9448;
413.7000;0.5063;0.9375;
414.0000;0.5055;0.9423;
414.3000;0.5055;0.9375;
414.6000;0.5055;0.9302;
414.9000;0.5039;0.9277;
415.2000;0.5063;0.9375;
415.5000;0.5063;0.9350;
415.8000;0.4998;0.9375;
416.1000;0.5031;0.9472;
416.4000;0.5055;0.9521;
416.7000;0.4965;0.9302;
417.0000;0.5039;0.9497;
417.3000;0.5088;0.9691;
417.6000;0.5031;0.9497;
417.9000;0.5039;0.9350;
418.2000;0.5104;0.9545;
418.5000;0.5014;0.9180;
418.8000;0.5047;0.9253;
419.1000;0.5063;0.9229;
419.4000;0.5047;0.9180;
419.7000;0.5047;0.9302;
420.0000;0.5047;0.9350;
420.3000;0.5031;0.9277;
420.6000;0.5031;0.9253;
420.9000;0.5063;0.9229;
421.2000;0.4974;0.8961;
421.5000;0.5031;0.9180;
421.8000;0.5047;0.9253;
422.1000;0.5063;0.9229;
422.4000;0.5063;0.9302;
422.7000;0.5039;0.9180;
423.0000;0.5039;0.9156;
423.3000;0.5088;0.9253;
423.6000;0.5055;0.9229;
423.9000;0.5039;0.9302;
424.2000;0.5047;0.9326;
424.5000;0.5031;0.9350;
424.8000;0.5079;0.9448;
425.1000;0.5039;0.9350;
425.4000;0.5055;0.9399;
425.7000;0.5047;0.9302;
426.0000;0.5063;0.9302;
426.3000;0.5039;0.9204;
426.6000;0.5071;0.9326;
426.9000;0.5031;0.9302;
427.2000;0.5039;0.9253;
427.5000;0.5047;0.9302;
427.8000;0.5039;0.9277;
428.1000;0.5055;0.9302;
428.4000;0.5047;0.9326;
428.7000;0.5031;0.9253;
429.0000;0.5039;0.9229;
429.3000;0.5031;0.9229;
429.6000;0.5136;0.9472;
429.9000;0.5047;0.9423;
430.2000;0.5039;0.9521;
430.5000;0.5039;0.9472;
430.8000;0.5039;0.9448;
431.1000;0.5039;0.9472;
431.4000;0.5022;0.9399;
431.7000;0.5022;0.9326;
432.0000;0.5039;0.9375;
432.3000;0.5039;0.9350;
432.6000;0.5031;0.9326;
432.9000;0.5039;0.9277;
433.2000;0.5079;0.9326;
433.5000;0.5039;0.9253;
433.8000;0.5047;0.9229;
434.1000;0.5031;0.9253;
434.4000;0.4998;0.9131;
434.7000;0.5031;0.9204;
435.0000;0.5047;0.9204;
435.3000;0.4965;0.8985;
435.6000;0.5031;0.9034;
435.9000;0.5063;0.9034;
436.2000;0.5039;0.9034;
436.5000;0.5104;0.9229;
436.8000;0.5039;0.9107;
437.1000;0.5063;0.9253;
437.4000;0.5039;0.9180;
437.7000;0.5096;0.9375;
438.0000;0.5031;0.9204;
438.3000;0.5039;0.9156;
438.6000;0.5055;0.9204;
438.9000;0.5014;0.9058;
439.2000;0.4982;0.8961;
439.5000;0.5063;0.9083;
439.8000;0.5047;0.9107;
440.1000;0.5039;0.9107;
440.4000;0.5055;0.9131;
440.7000;0.4974;0.9083;
441.0000;0.5063;0.9350;
441.3000;0.5128;0.9472;
441.6000;0.5047;0.9302;
441.9000;0.5039;0.9253;
442.2000;0.5063;0.9229;
442.5000;0.5055;0.9180;
442.8000;0.5128;0.9277;
443.1000;0.5047;0.9058;
443.4000;0.5055;0.9107;
443.7000;0.5047;0.8961;
444.0000;0.5031;0.8936;
444.3000;0.5031;0.8888;
444.6000;0.5047;0.8985;
444.9000;0.5047;0.9034;
445.2000;0.5047;0.9058;
445.5000;0.5039;0.9010;
445.8000;0.5055;0.9010;
446.1000;0.5039;0.9010;
446.4000;0.5079;0.9156;
446.7000;0.5047;0.9107;
447.0000;0.5055;0.9107;
447.3000;0.5055;0.9156;
447.6000;0.5063;0.9229;
447.9000;0.5055;0.9204;
448.2000;0.5031;0.9253;
448.5000;0.5055;0.9350;
448.8000;0.5039;0.9277;
449.1000;0.5039;0.9253;
449.4000;0.5022;0.9229;
449.7000;0.5047;0.9277;
450.0000;0.5055;0.9326;
450.3000;0.4925;0.9034;
450.6000;0.5031;0.9350;
450.9000;0.5079;0.9423;
451.2000;0.5071;0.9399;
451.5000;0.5071;0.9204;
451.8000;0.5047;0.9156;
452.1000;0.5047;0.9156;
452.4000;0.5039;0.9204;
452.7000;0.5039;0.9204;
453.0000;0.5055;0.9253;
453.3000;0.5031;0.9180;
453.6000;0.5031;0.9156;
453.9000;0.5047;0.9204;
454.2000;0.5055;0.9204;
454.5000;0.5063;0.9253;
454.8000;0.5055;0.9156;
455.1000;0.5047;0.9131;
455.4000;0.5055;0.9107;
455.7000;0.5055;0.9083;
456.0000;0.5031;0.8961;
456.3000;0.5047;0.9058;
456.6000;0.5039;0.9010;
456.9000;0.5055;0.8985;
457.2000;0.5055;0.8961;
457.5000;0.5055;0.8961;
457.8000;0.5063;0.8985;
458.1000;0.5039;0.8985;
458.4000;0.5047;0.9010;
458.7000;0.5031;0.8912;
459.0000;0.5039;0.9034;
459.3000;0.5039;0.9083;
459.6000;0.5047;0.9156;
459.9000;0.5063;0.9180;
460.2000;0.5063;0.9156;
460.5000;0.5039;0.9156;
460.8000;0.5047;0.9253;
461.1000;0.5031;0.9180;
461.4000;0.5039;0.9180;
461.7000;0.5055;0.9156;
462.0000;0.5047;0.9180;
462.3000;0.5079;0.9277;
462.6000;0.5039;0.9253;
462.9000;0.5079;0.9277;
463.2000;0.5014;0.9107;
463.5000;0.5055;0.9034;
463.8000;0.5039;0.8961;
464.1000;0.5055;0.8961;
464.4000;0.5022;0.9010;
464.7000;0.5014;0.9010;
465.0000;0.5039;0.9010;
465.3000;0.5031;0.8912;
465.6000;0.5055;0.9034;
465.9000;0.5039;0.9058;
466.2000;0.5177;0.9423;
466.5000;0.5063;0.9156;
466.8000;0.5047;0.9131;
467.1000;0.5039;0.9156;
467.4000;0.5047;0.9229;
467.7000;0.5039;0.9204;
468.0000;0.5031;0.9253;
468.3000;0.5055;0.9204;
468.6000;0.5039;0.9326;
468.9000;0.5022;0.9229;
469.2000;0.5031;0.9326;
469.5000;0.5031;0.9253;
469.8000;0.5031;0.9229;
470.1000;0.5031;0.9204;
470.4000;0.5039;0.9058;
470.7000;0.5031;0.9034;
471.0000;0.5039;0.9058;
471.3000;0.5031;0.9180;
471.6000;0.5055;0.9277;
471.9000;0.5022;0.9156;
472.2000;0.5014;0.9131;
472.5000;0.5014;0.9083;
472.8000;0.5031;0.9131;
473.1000;0.5063;0.9204;
473.4000;0.5047;0.9180;
473.7000;0.5022;0.9156;
474.0000;0.5047;0.9180;
474.3000;0.4900;0.8815;
474.6000;0.5063;0.9229;
474.9000;0.5039;0.9229;
475.2000;0.4974;0.9107;
475.5000;0.5063;0.9350;
475.8000;0.5047;0.9180;
476.1000;0.5014;0.9180;
476.4000;0.5088;0.9350;
476.7000;0.5047;0.9204;
477.0000;0.5088;0.9302;
477.3000;0.5047;0.9156;
477.6000;0.5055;0.9131;
477.9000;0.5039;0.8985;
478.2000;0.5104;0.9156;
478.5000;0.5039;0.9083;
478.8000;0.5031;0.9010;
479.1000;0.5039;0.9107;
479.4000;0.4998;0.9156;
479.7000;0.5031;0.9253;
480.0000;0.5022;0.9229;
480.3000;0.5047;0.9229;
480.6000;0.5039;0.9277;
480.9000;0.5039;0.9253;
481.2000;0.5039;0.9253;
481.5000;0.5031;0.9253;
481.8000;0.5039;0.9375;
482.1000;0.5039;0.9350;
482.4000;0.5014;0.9302;
482.7000;0.5039;0.9229;
483.0000;0.5039;0.9180;
483.3000;0.5063;0.9180;
483.6000;0.5039;0.9131;
483.9000;0.5022;0.9131;
484.2000;0.5031;0.9180;
484.5000;0.5031;0.9131;
484.8000;0.5031;0.9131;
485.1000;0.5022;0.9083;
485.4000;0.5047;0.9180;
485.7000;0.5039;0.9180;
486.0000;0.5039;0.9180;
486.3000;0.5055;0.9253;
486.6000;0.5039;0.9229;
486.9000;0.5055;0.9302;
487.2000;0.5039;0.9253;
487.5000;0.5055;0.9350;
487.8000;0.5079;0.9423;
488.1000;0.5039;0.9302;
488.4000;0.5047;0.9350;
488.7000;0.5039;0.9326;
489.0000;0.5039;0.9326;
489.3000;0.5055;0.9448;
489.6000;0.5047;0.9448;
489.9000;0.4965;0.9277;
490.2000;0.5039;0.9448;
490.5000;0.5055;0.9472;
490.8000;0.5063;0.9399;
491.1000;0.5039;0.9326;
491.4000;0.5022;0.9350;
491.7000;0.5063;0.9423;
492.0000;0.5047;0.9375;
492.3000;0.5063;0.9399;
492.6000;0.5047;0.9375;
492.9000;0.5047;0.9375;
493.2000;0.5047;0.9326;
493.5000;0.4974;0.9083;
493.8000;0.5055;0.9326;
494.1000;0.5031;0.9326;
494.4000;0.5031;0.9375;
494.7000;0.5022;0.9350;
495.0000;0.5063;0.9448;
495.3000;0.5039;0.9350;
495.6000;0.5022;0.9399;
495.9000;0.5047;0.9472;
496.2000;0.5006;0.9399;
496.5000;0.5047;0.9472;
496.8000;0.5047;0.9448;
497.1000;0.5104;0.9570;
497.4000;0.5071;0.9545;
497.7000;0.5039;0.9423;
498.0000;0.5047;0.9497;
498.3000;0.5039;0.9497;
498.6000;0.5031;0.9423;
498.9000;0.5031;0.9472;
499.2000;0.5079;0.9497;
499.5000;0.5031;0.9326;
499.8000;0.5031;0.9302;
500.1000;0.4925;0.9058;
500.4000;0.5031;0.9448;
500.7000;0.5014;0.9375;
501.0000;0.5063;0.9375;
501.3000;0.5022;0.9302;
501.6000;0.5022;0.9204;
501.9000;0.5039;0.9277;
502.2000;0.5055;0.9204;
502.5000;0.5047;0.9180;
502.8000;0.5047;0.9156;
503.1000;0.5039;0.9180;
503.4000;0.5039;0.9229;
503.7000;0.5031;0.9204;
504.0000;0.5039;0.9253;
504.3000;0.5031;0.9253;
504.6000;0.5039;0.9204;
504.9000;0.5047;0.9229;
505.2000;0.5047;0.9180;
505.5000;0.5014;0.9083;
505.8000;0.5047;0.9107;
506.1000;0.5055;0.9131;
506.4000;0.5006;0.9010;
506.7000;0.5039;0.9034;
507.0000;0.5104;0.9229;
507.3000;0.5031;0.9204;
507.6000;0.5047;0.9326;
507.9000;0.5031;0.9277;
508.2000;0.5022;0.9253;
508.5000;0.4990;0.9131;
508.8000;0.5039;0.9131;
509.1000;0.4965;0.8912;
509.4000;0.5022;0.9034;
509.7000;0.5039;0.9107;
510.0000;0.5047;0.9083;
510.3000;0.5031;0.9156;
510.6000;0.4982;0.9083;
510.9000;0.4998;0.9034;
511.2000;0.4998;0.8985;
511.5000;0.5039;0.9107;
511.8000;0.4998;0.9034;
512.1000;0.4941;0.8912;
512.4000;0.5063;0.9277;
512.7000;0.5031;0.9229;
513.0000;0.5031;0.9229;
513.3000;0.5006;0.9131;
513.6000;0.5079;0.9302;
513.9000;0.5022;0.9156;
514.2000;0.5047;0.9180;
514.5000;0.5039;0.9107;
514.8000;0.5055;0.9180;
515.1000;0.5047;0.9229;
515.4000;0.5014;0.9156;
515.7000;0.4974;0.9083;
516.0000;0.5047;0.9253;
516.3000;0.5071;0.9253;
516.6000;0.5047;0.9277;
516.9000;0.5031;0.9204;
517.2000;0.4998;0.9180;
517.5000;0.5047;0.9375;
517.8000;0.5014;0.9350;
518.1000;0.5031;0.9350;
518.4000;0.5039;0.9350;
518.7000;0.5047;0.9375;
519.0000;0.5039;0.9350;
519.3000;0.5031;0.9253;
519.6000;0.5014;0.9180;
519.9000;0.5031;0.9131;
520.2000;0.5039;0.9083;
520.5000;0.5006;0.9010;
520.8000;0.5031;0.9083;
521.1000;0.5031;0.9083;
521.4000;0.5014;0.9010;
521.7000;0.5055;0.9083;
522.0000;0.5039;0.9058;
522.3000;0.5014;0.9034;
522.6000;0.5047;0.9083;
522.9000;0.5039;0.9180;
523.2000;0.5006;0.9107;
523.5000;0.4974;0.9058;
523.8000;0.5055;0.9277;
524.1000;0.5031;0.9204;
524.4000;0.5039;0.9229;
524.7000;0.5022;0.9180;
525.0000;0.5047;0.9204;
525.3000;0.5022;0.9156;
525.6000;0.5039;0.9156;
525.9000;0.5022;0.9180;
526.2000;0.5047;0.9253;
526.5000;0.5047;0.9277;
526.8000;0.5039;0.9253;
527.1000;0.5055;0.9302;
527.4000;0.5039;0.9326;
527.7000;0.5055;0.9448;
528.0000;0.5039;0.9423;
528.3000;0.5031;0.9448;
528.6000;0.5031;0.9497;
528.9000;0.5022;0.9472;
529.2000;0.5022;0.9472;
529.5000;0.5047;0.9472;
529.8000;0.5022;0.9399;
530.1000;0.5039;0.9423;
530.4000;0.5047;0.9326;
530.7000;0.5031;0.9277;
531.0000;0.5022;0.9204;
531.3000;0.5063;0.9204;
531.6000;0.5055;0.9180;
531.9000;0.5031;0.9131;
532.2000;0.5039;0.9229;
532.5000;0.5039;0.9253;
532.8000;0.5088;0.9448;
533.1000;0.5047;0.9326;
533.4000;0.5022;0.9253;
533.7000;0.5144;0.9594;
534.0000;0.5055;0.9350;
534.3000;0.5006;0.9253;
534.6000;0.5039;0.9229;
534.9000;0.5022;0.9107;
535.2000;0.5022;0.9107;
535.5000;0.5039;0.9180;
535.8000;0.5047;0.9180;
536.1000;0.5031;0.9083;
536.4000;0.5055;0.9107;
536.7000;0.5039;0.9058;
537.0000;0.5055;0.9131;
537.3000;0.4998;0.9131;
537.6000;0.5055;0.9277;
537.9000;0.5071;0.9204;
538.2000;0.5047;0.9204;
538.5000;0.5039;0.9083;
538.8000;0.5055;0.9156;
539.1000;0.5047;0.9131;
539.4000;0.5055;0.9058;
539.7000;0.5039;0.9010;
540.0000;0.5039;0.9131;
540.3000;0.5039;0.9180;
540.6000;0.5047;0.9229;
540.9000;0.5031;0.9180;
541.2000;0.5039;0.9180;
541.5000;0.5031;0.9204;
541.8000;0.5039;0.9350;
542.1000;0.5031;0.9375;
542.4000;0.5039;0.9521;
542.7000;0.5039;0.9497;
543.0000;0.5039;0.9399;
543.3000;0.5047;0.9326;
543.6000;0.5031;0.9229;
543.9000;0.5039;0.9180;
544.2000;0.5014;0.9131;
544.5000;0.5047;0.9107;
544.8000;0.5039;0.9180;
545.1000;0.5039;0.9156;
545.4000;0.5063;0.9253;
545.7000;0.5055;0.9204;
546.0000;0.5039;0.9107;
546.3000;0.5047;0.9253;
546.6000;0.5039;0.9229;
546.9000;0.5031;0.9204;
547.2000;0.5031;0.9253;
547.5000;0.5071;0.9399;
547.8000;0.5039;0.9326;
548.1000;0.5039;0.9350;
548.4000;0.5022;0.9350;
548.7000;0.5047;0.9399;
549.0000;0.5031;0.9399;
549.3000;0.5031;0.9399;
549.6000;0.5104;0.9521;
549.9000;0.5055;0.9277;
550.2000;0.5039;0.9277;
550.5000;0.5031;0.9350;
550.8000;0.5047;0.9253;
551.1000;0.5047;0.9350;
551.4000;0.5031;0.9350;
551.7000;0.5031;0.9277;
552.0000;0.5031;0.9326;
552.3000;0.5031;0.9350;
552.6000;0.5047;0.9302;
552.9000;0.5031;0.9277;
553.2000;0.5022;0.9277;
553.5000;0.5022;0.9253;
553.8000;0.5022;0.9277;
554.1000;0.5079;0.9326;
554.4000;0.5047;0.9277;
554.7000;0.5047;0.9326;
555.0000;0.5031;0.9326;
555.3000;0.5022;0.9302;
555.6000;0.5047;0.9302;
555.9000;0.5055;0.9326;
556.2000;0.5039;0.9277;
556.5000;0.5047;0.9229;
556.8000;0.4990;0.9010;
557.1000;0.5039;0.9131;
557.4000;0.5039;0.9180;
557.7000;0.5039;0.9180;
558.0000;0.5022;0.9107;
558.3000;0.5031;0.9180;
558.6000;0.5063;0.9204;
558.9000;0.5039;0.9107;
559.2000;0.5047;0.9156;
559.5000;0.5039;0.9204;
559.8000;0.5031;0.9156;
560.1000;0.5031;0.9204;
560.4000;0.5031;0.9229;
560.7000;0.5031;0.9229;
561.0000;0.5039;0.9302;
561.3000;0.5039;0.9350;
561.6000;0.5022;0.9277;
561.9000;0.5047;0.9326;
562.2000;0.5047;0.9375;
562.5000;0.5047;0.9375;
562.8000;0.5031;0.9326;
563.1000;0.5014;0.9277;
563.4000;0.5022;0.9253;
563.7000;0.5039;0.9253;
564.0000;0.5120;0.9472;
564.3000;0.5031;0.9204;
564.6000;0.5031;0.9131;
564.9000;0.5039;0.9131;
565.2000;0.5039;0.9229;
565.5000;0.5031;0.9326;
565.8000;0.5047;0.9448;
566.1000;0.5039;0.9423;
566.4000;0.5079;0.9423;
566.7000;0.5039;0.9229;
567.0000;0.5022;0.9204;
567.3000;0.5014;0.9253;
567.6000;0.5071;0.9375;
567.9000;0.4982;0.9229;
568.2000;0.5039;0.9326;
568.5000;0.5039;0.9423;
568.8000;0.5047;0.9375;
569.1000;0.5047;0.9375;
569.4000;0.4990;0.9180;
569.7000;0.5031;0.9204;
570.0000;0.5014;0.9180;
570.3000;0.5039;0.9107;
570.6000;0.5031;0.9156;
570.9000;0.5055;0.9326;
571.2000;0.5039;0.9253;
571.5000;0.5039;0.9156;
571.8000;0.5014;0.8985;
572.1000;0.5006;0.9034;
572.4000;0.5006;0.8985;
572.7000;0.5055;0.9083;
573.0000;0.5047;0.8936;
573.3000;0.5031;0.8888;
573.6000;0.5006;0.8839;
573.9000;0.5063;0.9010;
574.2000;0.5047;0.9058;
574.5000;0.5047;0.9107;
574.8000;0.5039;0.9277;
575.1000;0.5031;0.9350;
575.4000;0.5039;0.9302;
575.7000;0.5047;0.9375;
576.0000;0.5039;0.9350;
576.3000;0.5039;0.9350;
576.6000;0.5022;0.9277;
576.9000;0.5014;0.9277;
577.2000;0.5031;0.9277;
577.5000;0.5047;0.9326;
577.8000;0.5031;0.9375;
578.1000;0.5055;0.9350;
578.4000;0.5031;0.9229;
578.7000;0.5047;0.9302;
579.0000;0.5047;0.9326;
579.3000;0.5047;0.9229;
579.6000;0.5039;0.9131;
579.9000;0.5039;0.9131;
580.2000;0.5039;0.9156;
580.5000;0.5022;0.9107;
580.8000;0.5047;0.9083;
581.1000;0.5039;0.9156;
581.4000;0.5039;0.9083;
581.7000;0.5039;0.9131;
582.0000;0.5022;0.9131;
582.3000;0.5022;0.9229;
582.6000;0.5031;0.9253;
582.9000;0.5055;0.9302;
583.2000;0.5031;0.9302;
583.5000;0.5047;0.9277;
583.8000;0.5055;0.9229;
584.1000;0.5031;0.9277;
584.4000;0.5047;0.9326;
584.7000;0.5039;0.9229;
585.0000;0.5031;0.9277;
585.3000;0.5014;0.9326;
585.6000;0.5031;0.9350;
585.9000;0.5031;0.9350;
586.2000;0.5047;0.9229;
586.5000;0.5022;0.9131;
586.8000;0.5031;0.9156;
587.1000;0.5039;0.9253;
587.4000;0.4990;0.9180;
587.7000;0.5031;0.9399;
588.0000;0.5031;0.9423;
588.3000;0.4982;0.9253;
588.6000;0.5039;0.9302;
588.9000;0.5039;0.9253;
589.2000;0.5096;0.9326;
589.5000;0.5014;0.9180;
589.8000;0.5039;0.9229;
590.1000;0.5047;0.9277;
590.4000;0.5047;0.9253;
590.7000;0.5047;0.9302;
591.0000;0.5039;0.9204;
591.3000;0.5039;0.9253;
591.6000;0.5063;0.9229;
591.9000;0.5014;0.9034;
592.2000;0.5031;0.8985;
592.5000;0.5006;0.8815;
592.8000;0.5031;0.8863;
593.1000;0.5047;0.8888;
593.4000;0.5039;0.8863;
593.7000;0.5031;0.8863;
594.0000;0.5047;0.8985;
594.3000;0.5039;0.8936;
594.6000;0.5031;0.8936;
594.9000;0.5031;0.8985;
595.2000;0.5096;0.9229;
595.5000;0.4982;0.9010;
595.8000;0.5031;0.9034;
596.1000;0.5006;0.9058;
596.4000;0.5014;0.9058;
596.7000;0.5031;0.9058;
597.0000;0.5006;0.9034;
597.3000;0.5014;0.9083;
597.6000;0.5031;0.9107;
597.9000;0.5014;0.9083;
598.2000;0.5031;0.9107;
598.5000;0.5031;0.9156;
598.8000;0.5088;0.9302;
599.1000;0.5039;0.9204;
599.4000;0.5047;0.9253;
599.7000;0.5055;0.9375;
600.0000;0.4982;0.9204;
600.3000;0.5031;0.9277;
600.6000;0.5022;0.9131;
600.9000;0.4941;0.8815;
601.2000;0.4892;0.8596;
601.5000;0.4974;0.8693;
601.8000;0.4941;0.8498;
602.1000;0.4941;0.8401;
602.4000;0.4925;0.8230;
602.7000;0.4876;0.7914;
603.0000;0.4860;0.7792;
603.3000;0.4778;0.7475;
603.6000;0.4827;0.7524;
603.9000;0.4786;0.7451;
604.2000;0.4786;0.7427;
604.5000;0.4770;0.7378;
604.8000;0.4729;0.7281;
605.1000;0.4721;0.7208;
605.4000;0.4713;0.7013;
605.7000;0.4705;0.7110;
606.0000;0.4705;0.7159;
606.3000;0.4689;0.7135;
606.6000;0.4656;0.7013;
606.9000;0.4640;0.6964;
607.2000;0.4591;0.6818;
607.5000;0.4624;0.6988;
607.8000;0.4607;0.6964;
608.1000;0.4640;0.6964;
608.4000;0.4575;0.6794;
608.7000;0.4591;0.6867;
609.0000;0.4599;0.6891;
609.3000;0.4583;0.6818;
609.6000;0.4575;0.6745;
609.9000;0.4534;0.6769;
610.2000;0.4542;0.6769;
610.5000;0.4534;0.6745;
610.8000;0.4542;0.6794;
611.1000;0.4534;0.6745;
611.4000;0.4436;0.6453;
611.7000;0.4518;0.6672;
612.0000;0.4493;0.6769;
612.3000;0.4412;0.6623;
612.6000;0.4477;0.6794;
612.9000;0.4493;0.6891;
613.2000;0.4469;0.6842;
613.5000;0.4453;0.6745;
613.8000;0.4469;0.6745;
614.1000;0.4453;0.6745;
614.4000;0.4436;0.6745;
614.7000;0.4444;0.6769;
615.0000;0.4444;0.6794;
615.3000;0.4412;0.6696;
615.6000;0.4412;0.6623;
615.9000;0.4420;0.6672;
616.2000;0.4501;0.6842;
616.5000;0.4387;0.6428;
616.8000;0.4298;0.6209;
617.1000;0.4379;0.6501;
617.4000;0.4371;0.6501;
617.7000;0.4453;0.6672;
618.0000;0.4274;0.6234;
618.3000;0.4339;0.6428;
618.6000;0.4363;0.6526;
618.9000;0.4355;0.6672;
619.2000;0.4330;0.6648;
619.5000;0.4314;0.6648;
619.8000;0.4322;0.6769;
620.1000;0.4322;0.6818;
620.4000;0.4314;0.6842;
620.7000;0.4314;0.6745;
621.0000;0.4290;0.6672;
621.3000;0.4282;0.6721;
621.6000;0.4298;0.6818;
621.9000;0.4306;0.6867;
622.2000;0.4298;0.6794;
622.5000;0.4274;0.6696;
622.8000;0.4225;0.6599;
623.1000;0.4257;0.6696;
623.4000;0.4298;0.6842;
623.7000;0.4233;0.6769;
624.0000;0.4249;0.6745;
624.3000;0.4241;0.6721;
624.6000;0.4233;0.6745;
624.9000;0.4330;0.6964;
625.2000;0.4249;0.6721;
625.5000;0.4257;0.6769;
625.8000;0.4225;0.6794;
626.1000;0.4241;0.6867;
626.4000;0.4225;0.6891;
626.7000;0.4233;0.6842;
627.0000;0.4290;0.6964;
627.3000;0.4233;0.6745;
627.6000;0.4127;0.6477;
627.9000;0.4151;0.6501;
628.2000;0.4208;0.6648;
628.5000;0.4192;0.6623;
628.8000;0.4192;0.6745;
629.1000;0.4208;0.6745;
629.4000;0.4192;0.6696;
629.7000;0.4176;0.6672;
630.0000;0.4135;0.6599;
630.3000;0.4184;0.6599;
630.6000;0.4119;0.6355;
630.9000;0.4192;0.6575;
631.2000;0.4176;0.6550;
631.5000;0.4176;0.6599;
631.8000;0.4160;0.6575;
632.1000;0.4160;0.6550;
632.4000;0.4168;0.6550;
632.7000;0.4160;0.6453;
633.0000;0.4160;0.6477;
633.3000;0.4143;0.6355;
633.6000;0.4151;0.6282;
633.9000;0.4143;0.6307;
634.2000;0.4143;0.6355;
634.5000;0.4127;0.6428;
634.8000;0.4135;0.6526;
635.1000;0.4127;0.6550;
635.4000;0.4135;0.6477;
635.7000;0.4135;0.6477;
636.0000;0.4135;0.6477;
636.3000;0.4127;0.6404;
636.6000;0.4094;0.6404;
636.9000;0.4143;0.6575;
637.2000;0.4111;0.6575;
637.5000;0.4103;0.6575;
637.8000;0.4111;0.6672;
638.1000;0.4111;0.6672;
638.4000;0.4119;0.6769;
638.7000;0.4086;0.6623;
639.0000;0.4086;0.6526;
639.3000;0.4086;0.6550;
639.6000;0.4078;0.6453;
639.9000;0.4086;0.6428;
640.2000;0.4086;0.6355;
640.5000;0.4078;0.6258;
640.8000;0.4054;0.6331;
641.1000;0.4119;0.6575;
641.4000;0.4127;0.6501;
641.7000;0.4070;0.6501;
642.0000;0.4062;0.6453;
642.3000;0.4054;0.6453;
642.6000;0.4062;0.6404;
642.9000;0.4070;0.6453;
643.2000;0.4054;0.6404;
643.5000;0.4054;0.6355;
643.8000;0.4062;0.6355;
644.1000;0.4094;0.6453;
644.4000;0.4062;0.6355;
644.7000;0.4037;0.6355;
645.0000;0.4062;0.6526;
645.3000;0.4054;0.6453;
645.6000;0.4054;0.6550;
645.9000;0.4054;0.6526;
646.2000;0.4062;0.6575;
646.5000;0.4094;0.6696;
646.8000;0.3940;0.6282;
647.1000;0.4054;0.6453;
647.4000;0.4005;0.6404;
647.7000;0.4070;0.6501;
648.0000;0.4021;0.6404;
648.3000;0.4013;0.6453;
648.6000;0.4021;0.6526;
648.9000;0.4037;0.6599;
649.2000;0.4005;0.6550;
649.5000;0.4005;0.6623;
649.8000;0.3997;0.6623;
650.1000;0.4013;0.6696;
650.4000;0.3997;0.6623;
650.7000;0.3972;0.6477;
651.0000;0.4046;0.6550;
651.3000;0.3997;0.6501;
651.6000;0.4005;0.6404;
651.9000;0.4005;0.6355;
652.2000;0.3997;0.6331;
652.5000;0.3989;0.6331;
652.8000;0.3997;0.6307;
653.1000;0.4005;0.6234;
653.4000;0.4078;0.6453;
653.7000;0.3989;0.6185;
654.0000;0.3997;0.6209;
654.3000;0.4005;0.6404;
654.6000;0.4078;0.6501;
654.9000;0.3972;0.6234;
655.2000;0.4005;0.6355;
655.5000;0.3989;0.6331;
655.8000;0.3972;0.6258;
656.1000;0.3989;0.6234;
656.4000;0.3956;0.6258;
656.7000;0.3964;0.6234;
657.0000;0.3940;0.6136;
657.3000;0.3923;0.6161;
657.6000;0.3972;0.6331;
657.9000;0.3956;0.6331;
658.2000;0.3956;0.6453;
658.5000;0.3956;0.6477;
658.8000;0.3956;0.6380;
659.1000;0.3989;0.6380;
659.4000;0.3956;0.6331;
659.7000;0.3964;0.6404;
660.0000;0.3964;0.6380;
660.3000;0.3989;0.6453;
660.6000;0.3997;0.6453;
660.9000;0.3940;0.6307;
661.2000;0.3989;0.6380;
661.5000;0.3940;0.6307;
661.8000;0.3980;0.6355;
662.1000;0.3956;0.6307;
662.4000;0.3972;0.6307;
662.7000;0.3956;0.6234;
663.0000;0.3964;0.6234;
663.3000;0.3964;0.6258;
663.6000;0.3956;0.6258;
663.9000;0.3948;0.6282;
664.2000;0.3940;0.6209;
664.5000;0.3940;0.6331;
664.8000;0.3980;0.6428;
665.1000;0.3948;0.6331;
665.4000;0.3980;0.6428;
665.7000;0.3964;0.6428;
666.0000;0.3932;0.6380;
666.3000;0.3915;0.6282;
666.6000;0.3948;0.6331;
666.9000;0.3915;0.6234;
667.2000;0.3923;0.6380;
667.5000;0.3899;0.6331;
667.8000;0.3940;0.6526;
668.1000;0.3923;0.6331;
668.4000;0.3915;0.6258;
668.7000;0.3915;0.6282;
669.0000;0.3932;0.6428;
669.3000;0.3940;0.6404;
669.6000;0.3940;0.6355;
669.9000;0.3964;0.6428;
670.2000;0.3923;0.6404;
670.5000;0.3850;0.6258;
670.8000;0.3923;0.6477;
671.1000;0.3907;0.6404;
671.4000;0.3915;0.6453;
671.7000;0.3923;0.6404;
672.0000;0.3915;0.6355;
672.3000;0.3915;0.6355;
672.6000;0.3915;0.6428;
672.9000;0.3915;0.6331;
673.2000;0.3923;0.6331;
673.5000;0.3940;0.6380;
673.8000;0.3891;0.6355;
674.1000;0.3907;0.6428;
674.4000;0.3883;0.6258;
674.7000;0.3899;0.6234;
675.0000;0.3907;0.6234;
675.3000;0.3875;0.6136;
675.6000;0.3907;0.6234;
675.9000;0.3899;0.6234;
676.2000;0.3891;0.6234;
676.5000;0.3907;0.6161;
676.8000;0.3891;0.6258;
677.1000;0.3907;0.6258;
677.4000;0.3891;0.6136;
677.7000;0.3867;0.6112;
678.0000;0.3948;0.6404;
678.3000;0.3891;0.6282;
678.6000;0.3891;0.6331;
678.9000;0.3883;0.6258;
679.2000;0.3858;0.6161;
679.5000;0.3875;0.6209;
679.8000;0.3883;0.6161;
680.1000;0.3891;0.6136;
680.4000;0.3891;0.6136;
680.7000;0.3883;0.6185;
681.0000;0.3875;0.6282;
681.3000;0.3858;0.6282;
681.6000;0.3891;0.6453;
681.9000;0.3915;0.6477;
682.2000;0.3891;0.6404;
682.5000;0.3907;0.6404;
682.8000;0.3883;0.6331;
683.1000;0.3850;0.6307;
683.4000;0.3883;0.6355;
683.7000;0.3875;0.6258;
684.0000;0.3875;0.6331;
684.3000;0.3867;0.6453;
684.6000;0.3834;0.6428;
684.9000;0.3867;0.6477;
685.2000;0.3867;0.6404;
685.5000;0.3875;0.6428;
685.8000;0.3883;0.6404;
686.1000;0.3867;0.6453;
686.4000;0.3842;0.6355;
686.7000;0.3883;0.6331;
687.0000;0.3875;0.6282;
687.3000;0.3850;0.6209;
687.6000;0.3875;0.6331;
687.9000;0.3858;0.6404;
688.2000;0.3858;0.6404;
688.5000;0.3907;0.6550;
688.8000;0.3867;0.6380;
689.1000;0.3842;0.6307;
689.4000;0.3842;0.6258;
689.7000;0.3842;0.6161;
690.0000;0.3858;0.6258;
690.3000;0.3858;0.6380;
690.6000;0.3875;0.6526;
690.9000;0.3867;0.6526;
691.2000;0.3883;0.6501;
691.5000;0.3867;0.6428;
691.8000;0.3850;0.6307;
692.1000;0.3883;0.6453;
692.4000;0.3858;0.6428;
692.7000;0.3867;0.6453;
693.0000;0.3875;0.6428;
693.3000;0.3883;0.6477;
693.6000;0.3891;0.6526;
693.9000;0.3907;0.6550;
694.2000;0.3858;0.6453;
694.5000;0.3842;0.6380;
694.8000;0.3867;0.6428;
695.1000;0.3883;0.6404;
695.4000;0.3867;0.6355;
695.7000;0.3867;0.6428;
696.0000;0.3842;0.6404;
696.3000;0.3858;0.6404;
696.6000;0.3867;0.6380;
696.9000;0.3777;0.6112;
697.2000;0.3867;0.6282;
697.5000;0.3867;0.6355;
697.8000;0.3875;0.6477;
698.1000;0.3850;0.6550;
698.4000;0.3834;0.6599;
698.7000;0.3850;0.6623;
699.0000;0.3842;0.6648;
699.3000;0.3834;0.6648;
699.6000;0.3834;0.6575;
699.9000;0.3850;0.6477;
700.2000;0.3818;0.6404;
700.5000;0.3834;0.6428;
700.8000;0.3850;0.6428;
701.1000;0.3875;0.6550;
701.4000;0.3858;0.6550;
701.7000;0.3850;0.6501;
702.0000;0.3850;0.6526;
702.3000;0.3850;0.6526;
702.6000;0.3842;0.6526;
702.9000;0.3736;0.6234;
703.2000;0.3818;0.6428;
703.5000;0.3826;0.6404;
703.8000;0.3850;0.6501;
704.1000;0.3858;0.6477;
704.4000;0.3834;0.6428;
704.7000;0.3834;0.6453;
705.0000;0.3850;0.6428;
705.3000;0.3801;0.6307;
705.6000;0.3826;0.6307;
705.9000;0.3818;0.6307;
706.2000;0.3842;0.6331;
706.5000;0.3842;0.6307;
706.8000;0.3883;0.6453;
707.1000;0.3826;0.6380;
707.4000;0.3818;0.6355;
707.7000;0.3858;0.6428;
708.0000;0.3834;0.6404;
708.3000;0.3810;0.6331;
708.6000;0.3834;0.6355;
708.9000;0.3858;0.6501;
709.2000;0.3842;0.6477;
709.5000;0.3801;0.6380;
709.8000;0.3818;0.6380;
710.1000;0.3826;0.6380;
710.4000;0.3810;0.6331;
710.7000;0.3826;0.6428;
711.0000;0.3850;0.6404;
711.3000;0.3875;0.6453;
711.6000;0.3842;0.6404;
711.9000;0.3834;0.6428;
712.2000;0.3842;0.6428;
712.5000;0.3834;0.6404;
712.8000;0.3736;0.6136;
713.1000;0.3785;0.6282;
713.4000;0.3793;0.6331;
713.7000;0.3818;0.6404;
714.0000;0.3810;0.6477;
714.3000;0.3810;0.6404;
714.6000;0.3818;0.6477;
714.9000;0.3777;0.6355;
715.2000;0.3793;0.6453;
715.5000;0.3801;0.6526;
715.8000;0.3818;0.6575;
716.1000;0.3826;0.6599;
716.4000;0.3834;0.6575;
716.7000;0.3826;0.6599;
717.0000;0.3810;0.6501;
717.3000;0.3810;0.6477;
717.6000;0.3826;0.6477;
717.9000;0.3842;0.6599;
718.2000;0.3826;0.6623;
718.5000;0.3801;0.6526;
718.8000;0.3785;0.6526;
719.1000;0.3810;0.6599;
719.4000;0.3818;0.6526;
719.7000;0.3793;0.6453;
720.0000;0.3793;0.6404;
720.3000;0.3801;0.6404;
720.6000;0.3769;0.6355;
720.9000;0.3875;0.6696;
721.2000;0.3810;0.6453;
721.5000;0.3826;0.6453;
721.8000;0.3769;0.6428;
722.1000;0.3810;0.6501;
722.4000;0.3818;0.6648;
722.7000;0.3826;0.6648;
723.0000;0.3818;0.6575;
723.3000;0.3826;0.6696;
723.6000;0.3810;0.6623;
723.9000;0.3810;0.6599;
724.2000;0.3801;0.6599;
724.5000;0.3793;0.6575;
724.8000;0.3793;0.6599;
725.1000;0.3801;0.6550;
725.4000;0.3793;0.6453;
725.7000;0.3793;0.6526;
726.0000;0.3818;0.6599;
726.3000;0.3777;0.6526;
726.6000;0.3801;0.6599;
726.9000;0.3801;0.6501;
727.2000;0.3785;0.6501;
727.5000;0.3777;0.6501;
727.8000;0.3801;0.6575;
728.1000;0.3801;0.6477;
728.4000;0.3736;0.6307;
728.7000;0.3785;0.6428;
729.0000;0.3793;0.6501;
729.3000;0.3801;0.6526;
729.6000;0.3810;0.6526;
729.9000;0.3785;0.6428;
730.2000;0.3801;0.6453;
730.5000;0.3793;0.6501;
730.8000;0.3793;0.6550;
731.1000;0.3801;0.6623;
731.4000;0.3785;0.6648;
731.7000;0.3810;0.6575;
732.0000;0.3801;0.6599;
732.3000;0.3810;0.6648;
732.6000;0.3842;0.6648;
732.9000;0.3793;0.6575;
733.2000;0.3810;0.6526;
733.5000;0.3810;0.6428;
733.8000;0.3777;0.6380;
734.1000;0.3793;0.6428;
734.4000;0.3801;0.6477;
734.7000;0.3793;0.6501;
735.0000;0.3785;0.6501;
735.3000;0.3826;0.6550;
735.6000;0.3810;0.6550;
735.9000;0.3785;0.6477;
736.2000;0.3793;0.6501;
736.5000;0.3777;0.6477;
736.8000;0.3785;0.6526;
737.1000;0.3810;0.6575;
737.4000;0.3818;0.6599;
737.7000;0.3826;0.6623;
738.0000;0.3810;0.6648;
738.3000;0.3826;0.6721;
738.6000;0.3793;0.6648;
738.9000;0.3753;0.6575;
739.2000;0.3777;0.6648;
739.5000;0.3793;0.6721;
739.8000;0.3793;0.6623;
740.1000;0.3785;0.6599;
740.4000;0.3785;0.6696;
740.7000;0.3801;0.6696;
741.0000;0.3891;0.6915;
741.3000;0.3793;0.6599;
741.6000;0.3769;0.6501;
741.9000;0.3728;0.6404;
742.2000;0.3834;0.6648;
742.5000;0.3793;0.6648;
742.8000;0.3785;0.6696;
743.1000;0.3810;0.6891;
743.4000;0.3801;0.6842;
743.7000;0.3858;0.6818;
744.0000;0.3891;0.6915;
744.3000;0.3801;0.6721;
744.6000;0.3753;0.6575;
744.9000;0.3777;0.6672;
745.2000;0.3769;0.6745;
745.5000;0.3769;0.6745;
745.8000;0.3801;0.6842;
746.1000;0.3777;0.6842;
746.4000;0.3785;0.6696;
746.7000;0.3793;0.6672;
747.0000;0.3785;0.6745;
747.3000;0.3720;0.6575;
747.6000;0.3793;0.6769;
747.9000;0.3785;0.6818;
748.2000;0.3810;0.6842;
748.5000;0.3801;0.6721;
748.8000;0.3785;0.6721;
749.1000;0.3801;0.6672;
749.4000;0.3769;0.6672;
749.7000;0.3777;0.6696;
750.0000;0.3744;0.6550;
750.3000;0.3769;0.6550;
750.6000;0.3777;0.6575;
750.9000;0.3785;0.6575;
751.2000;0.3769;0.6648;
751.5000;0.3777;0.6769;
751.8000;0.3777;0.6672;
752.1000;0.3785;0.6696;
752.4000;0.3769;0.6672;
752.7000;0.3777;0.6648;
753.0000;0.3785;0.6672;
753.3000;0.3867;0.6891;
753.6000;0.3777;0.6794;
753.9000;0.3793;0.6818;
754.2000;0.3785;0.6818;
754.5000;0.3801;0.6915;
754.8000;0.3785;0.6867;
755.1000;0.3793;0.6940;
755.4000;0.3769;0.6842;
755.7000;0.3818;0.6867;
756.0000;0.3785;0.6721;
756.3000;0.3777;0.6745;
756.6000;0.3785;0.6648;
756.9000;0.3769;0.6648;
757.2000;0.3769;0.6623;
757.5000;0.3785;0.6648;
757.8000;0.3769;0.6477;
758.1000;0.3785;0.6550;
758.4000;0.3793;0.6550;
758.7000;0.3769;0.6453;
759.0000;0.3826;0.6599;
759.3000;0.3777;0.6501;
759.6000;0.3818;0.6550;
759.9000;0.3769;0.6501;
760.2000;0.3704;0.6282;
760.5000;0.3801;0.6501;
760.8000;0.3761;0.6453;
761.1000;0.3834;0.6550;
761.4000;0.3769;0.6453;
761.7000;0.3744;0.6380;
762.0000;0.3761;0.6428;
762.3000;0.3761;0.6575;
762.6000;0.3769;0.6623;
762.9000;0.3704;0.6331;
763.2000;0.3801;0.6599;
763.5000;0.3777;0.6501;
763.8000;0.3777;0.6550;
764.1000;0.3793;0.6672;
764.4000;0.3793;0.6599;
764.7000;0.3769;0.6623;
765.0000;0.3834;0.6721;
765.3000;0.3769;0.6575;
765.6000;0.3728;0.6526;
765.9000;0.3761;0.6648;
766.2000;0.3753;0.6623;
766.5000;0.3761;0.6575;
766.8000;0.3777;0.6550;
767.1000;0.3801;0.6672;
767.4000;0.3769;0.6672;
767.7000;0.3769;0.6648;
768.0000;0.3818;0.6721;
768.3000;0.3769;0.6672;
768.6000;0.3712;0.6501;
768.9000;0.3801;0.6696;
769.2000;0.3744;0.6575;
769.5000;0.3777;0.6623;
769.8000;0.3785;0.6599;
770.1000;0.3769;0.6623;
770.4000;0.3761;0.6550;
770.7000;0.3769;0.6428;
771.0000;0.3753;0.6428;
771.3000;0.3769;0.6501;
771.6000;0.3769;0.6428;
771.9000;0.3777;0.6453;
772.2000;0.3744;0.6355;
772.5000;0.3736;0.6380;
772.8000;0.3753;0.6453;
773.1000;0.3753;0.6355;
773.4000;0.3801;0.6526;
773.7000;0.3777;0.6380;
774.0000;0.3777;0.6307;
774.3000;0.3769;0.6380;
774.6000;0.3769;0.6355;
774.9000;0.3785;0.6428;
775.2000;0.3761;0.6453;
775.5000;0.3753;0.6355;
775.8000;0.3753;0.6355;
776.1000;0.3769;0.6477;
776.4000;0.3761;0.6477;
776.7000;0.3744;0.6477;
777.0000;0.3785;0.6575;
777.3000;0.3785;0.6526;
777.6000;0.3793;0.6575;
777.9000;0.3793;0.6623;
778.2000;0.3785;0.6550;
778.5000;0.3761;0.6453;
778.8000;0.3785;0.6453;
779.1000;0.3753;0.6380;
779.4000;0.3810;0.6477;
779.7000;0.3777;0.6380;
780.0000;0.3761;0.6453;
780.3000;0.3753;0.6428;
780.6000;0.3712;0.6307;
780.9000;0.3736;0.6428;
781.2000;0.3785;0.6575;
781.5000;0.3785;0.6672;
781.8000;0.3736;0.6648;
782.1000;0.3785;0.6745;
782.4000;0.3769;0.6721;
782.7000;0.3777;0.6794;
783.0000;0.3769;0.6818;
783.3000;0.3777;0.6891;
783.6000;0.3850;0.7062;
783.9000;0.3769;0.6696;
784.2000;0.3744;0.6599;
784.5000;0.3744;0.6623;
784.8000;0.3761;0.6696;
785.1000;0.3818;0.6745;
785.4000;0.3777;0.6648;
785.7000;0.3744;0.6550;
786.0000;0.3753;0.6453;
786.3000;0.3753;0.6453;
786.6000;0.3769;0.6501;
786.9000;0.3753;0.6575;
787.2000;0.3744;0.6599;
787.5000;0.3753;0.6575;
787.8000;0.3761;0.6623;
788.1000;0.3761;0.6599;
788.4000;0.3761;0.6575;
788.7000;0.3744;0.6526;
789.0000;0.3769;0.6526;
789.3000;0.3761;0.6599;
789.6000;0.3761;0.6501;
789.9000;0.3761;0.6404;
790.2000;0.3761;0.6380;
790.5000;0.3777;0.6404;
790.8000;0.3753;0.6307;
791.1000;0.3753;0.6282;
791.4000;0.3753;0.6282;
791.7000;0.3761;0.6282;
792.0000;0.3761;0.6307;
792.3000;0.3785;0.6355;
792.6000;0.3761;0.6380;
792.9000;0.3769;0.6355;
793.2000;0.3753;0.6404;
793.5000;0.3761;0.6477;
793.8000;0.3777;0.6575;
794.1000;0.3777;0.6696;
794.4000;0.3793;0.6696;
794.7000;0.3761;0.6623;
795.0000;0.3712;0.6453;
795.3000;0.3761;0.6501;
795.6000;0.3769;0.6501;
795.9000;0.3761;0.6550;
796.2000;0.3761;0.6453;
796.5000;0.3753;0.6501;
796.8000;0.3769;0.6599;
797.1000;0.3777;0.6550;
797.4000;0.3883;0.6745;
797.7000;0.3761;0.6453;
798.0000;0.3761;0.6526;
798.3000;0.3769;0.6501;
798.6000;0.3769;0.6477;
798.9000;0.3769;0.6599;
799.2000;0.3769;0.6550;
799.5000;0.3769;0.6526;
799.8000;0.3712;0.6453;
800.1000;0.3753;0.6501;
800.4000;0.3769;0.6623;
800.7000;0.3663;0.6331;
801.0000;0.3761;0.6623;
801.3000;0.3761;0.6599;
801.6000;0.3769;0.6526;
801.9000;0.3744;0.6380;
802.2000;0.3744;0.6380;
802.5000;0.3679;0.6282;
802.8000;0.3769;0.6599;
803.1000;0.3769;0.6550;
803.4000;0.3785;0.6648;
803.7000;0.3761;0.6428;
804.0000;0.3753;0.6331;
804.3000;0.3785;0.6477;
804.6000;0.3801;0.6575;
804.9000;0.3744;0.6526;
805.2000;0.3777;0.6575;
805.5000;0.3753;0.6550;
805.8000;0.3671;0.6380;
806.1000;0.3769;0.6623;
806.4000;0.3761;0.6599;
806.7000;0.3736;0.6526;
807.0000;0.3744;0.6672;
807.3000;0.3777;0.6648;
807.6000;0.3793;0.6769;
807.9000;0.3753;0.6745;
808.2000;0.3777;0.6769;
808.5000;0.3777;0.6696;
808.8000;0.3736;0.6623;
809.1000;0.3744;0.6575;
809.4000;0.3753;0.6648;
809.7000;0.3744;0.6599;
810.0000;0.3761;0.6623;
810.3000;0.3744;0.6550;
810.6000;0.3736;0.6575;
810.9000;0.3793;0.6623;
811.2000;0.3736;0.6575;
811.5000;0.3744;0.6501;
811.8000;0.3744;0.6453;
812.1000;0.3834;0.6769;
812.4000;0.3744;0.6501;
812.7000;0.3753;0.6526;
813.0000;0.3818;0.6745;
813.3000;0.3753;0.6623;
813.6000;0.3769;0.6721;
813.9000;0.3826;0.6915;
814.2000;0.3753;0.6648;
814.5000;0.3785;0.6745;
814.8000;0.3785;0.6745;
815.1000;0.3785;0.6794;
815.4000;0.3761;0.6745;
815.7000;0.3744;0.6648;
816.0000;0.3777;0.6794;
816.3000;0.3753;0.6745;
816.6000;0.3744;0.6721;
816.9000;0.3744;0.6769;
817.2000;0.3785;0.6769;
817.5000;0.3761;0.6745;
817.8000;0.3753;0.6769;
818.1000;0.3761;0.6745;
818.4000;0.3769;0.6794;
818.7000;0.3655;0.6453;
819.0000;0.3761;0.6623;
819.3000;0.3753;0.6648;
819.6000;0.3769;0.6575;
819.9000;0.3761;0.6550;
820.2000;0.3704;0.6428;
820.5000;0.3769;0.6745;
820.8000;0.3679;0.6623;
821.1000;0.3761;0.6745;
821.4000;0.3761;0.6745;
821.7000;0.3753;0.6721;
822.0000;0.3744;0.6769;
822.3000;0.3720;0.6648;
822.6000;0.3712;0.6575;
822.9000;0.3761;0.6672;
823.2000;0.3753;0.6599;
823.5000;0.3744;0.6550;
823.8000;0.3753;0.6575;
824.1000;0.3728;0.6453;
824.4000;0.3753;0.6526;
824.7000;0.3744;0.6575;
825.0000;0.3761;0.6623;
825.3000;0.3777;0.6696;
825.6000;0.3761;0.6721;
825.9000;0.3826;0.6915;
826.2000;0.3753;0.6721;
826.5000;0.3761;0.6696;
826.8000;0.3818;0.6891;
827.1000;0.3753;0.6696;
827.4000;0.3744;0.6721;
827.7000;0.3753;0.6818;
828.0000;0.3753;0.6842;
828.3000;0.3720;0.6794;
828.6000;0.3753;0.6842;
828.9000;0.3753;0.6842;
829.2000;0.3761;0.6818;
829.5000;0.3834;0.7062;
829.8000;0.3769;0.6842;
830.1000;0.3736;0.6745;
830.4000;0.3736;0.6745;
830.7000;0.3736;0.6696;
831.0000;0.3736;0.6696;
831.3000;0.3753;0.6794;
831.6000;0.3761;0.6842;
831.9000;0.3736;0.6818;
832.2000;0.3744;0.6818;
832.5000;0.3744;0.6769;
832.8000;0.3728;0.6696;
833.1000;0.3744;0.6672;
833.4000;0.3769;0.6745;
833.7000;0.3753;0.6672;
834.0000;0.3753;0.6721;
834.3000;0.3850;0.6988;
834.6000;0.3761;0.6623;
834.9000;0.3753;0.6599;
835.2000;0.3761;0.6599;
835.5000;0.3736;0.6526;
835.8000;0.3753;0.6599;
836.1000;0.3744;0.6526;
836.4000;0.3753;0.6648;
836.7000;0.3810;0.6721;
837.0000;0.3753;0.6575;
837.3000;0.3769;0.6672;
837.6000;0.3736;0.6696;
837.9000;0.3769;0.6745;
838.2000;0.3761;0.6623;
838.5000;0.3744;0.6501;
838.8000;0.3744;0.6501;
839.1000;0.3793;0.6623;
839.4000;0.3810;0.6623;
839.7000;0.3785;0.6575;
840.0000;0.3777;0.6575;
840.3000;0.3769;0.6550;
840.6000;0.3753;0.6477;
840.9000;0.3753;0.6501;
841.2000;0.3679;0.6355;
841.5000;0.3728;0.6404;
841.8000;0.3818;0.6794;
842.1000;0.3744;0.6648;
842.4000;0.3744;0.6696;
842.7000;0.3842;0.7013;
843.0000;0.3744;0.6842;
843.3000;0.3736;0.6794;
843.6000;0.3728;0.6794;
843.9000;0.3736;0.6745;
844.2000;0.3761;0.6721;
844.5000;0.3761;0.6721;
844.8000;0.3753;0.6648;
845.1000;0.3761;0.6623;
845.4000;0.3744;0.6599;
845.7000;0.3753;0.6672;
846.0000;0.3761;0.6672;
846.3000;0.3761;0.6672;
846.6000;0.3777;0.6696;
846.9000;0.3761;0.6672;
847.2000;0.3736;0.6648;
847.5000;0.3761;0.6769;
847.8000;0.3736;0.6721;
848.1000;0.3736;0.6623;
848.4000;0.3761;0.6672;
848.7000;0.3753;0.6696;
849.0000;0.3753;0.6696;
849.3000;0.3761;0.6721;
849.6000;0.3769;0.6672;
849.9000;0.3769;0.6623;
850.2000;0.3769;0.6599;
850.5000;0.3777;0.6526;
850.8000;0.3744;0.6428;
851.1000;0.3769;0.6477;
851.4000;0.3736;0.6526;
851.7000;0.3777;0.6599;
852.0000;0.3769;0.6501;
852.3000;0.3753;0.6453;
852.6000;0.3761;0.6550;
852.9000;0.3712;0.6526;
853.2000;0.3744;0.6623;
853.5000;0.3704;0.6550;
853.8000;0.3744;0.6623;
854.1000;0.3744;0.6599;
854.4000;0.3761;0.6696;
854.7000;0.3712;0.6672;
855.0000;0.3712;0.6672;
855.3000;0.3810;0.6940;
855.6000;0.3712;0.6721;
855.9000;0.3736;0.6721;
856.2000;0.3728;0.6745;
856.5000;0.3753;0.6769;
856.8000;0.3744;0.6623;
857.1000;0.3728;0.6575;
857.4000;0.3736;0.6550;
857.7000;0.3769;0.6623;
858.0000;0.3736;0.6550;
858.3000;0.3728;0.6501;
858.6000;0.3818;0.6769;
858.9000;0.3736;0.6623;
859.2000;0.3753;0.6745;
859.5000;0.3777;0.6891;
859.8000;0.3744;0.6794;
860.1000;0.3753;0.6769;
860.4000;0.3761;0.6794;
860.7000;0.3793;0.6867;
861.0000;0.3777;0.6745;
861.3000;0.3785;0.6794;
861.6000;0.3720;0.6599;
861.9000;0.3753;0.6696;
862.2000;0.3761;0.6672;
862.5000;0.3728;0.6575;
862.8000;0.3736;0.6623;
863.1000;0.3753;0.6721;
863.4000;0.3761;0.6672;
863.7000;0.3720;0.6599;
864.0000;0.3728;0.6745;
864.3000;0.3842;0.6867;
864.6000;0.3769;0.6696;
864.9000;0.3744;0.6672;
865.2000;0.3744;0.6769;
865.5000;0.3744;0.6769;
865.8000;0.3728;0.6769;
866.1000;0.3736;0.6867;
866.4000;0.3753;0.6891;
866.7000;0.3728;0.6818;
867.0000;0.3720;0.6891;
867.3000;0.3744;0.6988;
867.6000;0.3720;0.6867;
867.9000;0.3728;0.6842;
868.2000;0.3736;0.6794;
868.5000;0.3728;0.6794;
868.8000;0.3736;0.6794;
869.1000;0.3753;0.6794;
869.4000;0.3761;0.6745;
869.7000;0.3769;0.6794;
870.0000;0.3753;0.6842;
870.3000;0.3761;0.6891;
870.6000;0.3744;0.6940;
870.9000;0.3801;0.7086;
871.2000;0.3753;0.6867;
871.5000;0.3761;0.6794;
871.8000;0.3777;0.6842;
872.1000;0.3761;0.6794;
872.4000;0.3761;0.6794;
872.7000;0.3753;0.6842;
873.0000;0.3785;0.6842;
873.3000;0.3728;0.6696;
873.6000;0.3801;0.7013;
873.9000;0.3720;0.6891;
874.2000;0.3761;0.6964;
874.5000;0.3744;0.6988;
874.8000;0.3761;0.7062;
875.1000;0.3753;0.7037;
875.4000;0.3753;0.6988;
875.7000;0.3720;0.6769;
876.0000;0.3769;0.6940;
876.3000;0.3777;0.6842;
876.6000;0.3736;0.6745;
876.9000;0.3736;0.6794;
877.2000;0.3777;0.6842;
877.5000;0.3744;0.6721;
877.8000;0.3728;0.6745;
878.1000;0.3728;0.6623;
878.4000;0.3704;0.6550;
878.7000;0.3761;0.6794;
879.0000;0.3753;0.6794;
879.3000;0.3810;0.6891;
879.6000;0.3753;0.6769;
879.9000;0.3744;0.6696;
880.2000;0.3744;0.6696;
880.5000;0.3728;0.6599;
880.8000;0.3753;0.6769;
881.1000;0.3728;0.6623;
881.4000;0.3736;0.6721;
881.7000;0.3736;0.6794;
882.0000;0.3736;0.6818;
882.3000;0.3753;0.6769;
882.6000;0.3736;0.6672;
882.9000;0.3736;0.6648;
883.2000;0.3736;0.6623;
883.5000;0.3753;0.6672;
883.8000;0.3769;0.6745;
884.1000;0.3753;0.6721;
884.4000;0.3753;0.6696;
884.7000;0.3769;0.6672;
885.0000;0.3753;0.6648;
885.3000;0.3761;0.6672;
885.6000;0.3753;0.6648;
885.9000;0.3769;0.6599;
886.2000;0.3744;0.6550;
886.5000;0.3744;0.6526;
886.8000;0.3753;0.6575;
887.1000;0.3753;0.6648;
887.4000;0.3810;0.6769;
887.7000;0.3761;0.6696;
888.0000;0.3687;0.6501;
888.3000;0.3687;0.6477;
888.6000;0.3769;0.6599;
888.9000;0.3761;0.6599;
889.2000;0.3785;0.6745;
889.5000;0.3736;0.6648;
889.8000;0.3728;0.6623;
890.1000;0.3769;0.6648;
890.4000;0.3744;0.6575;
890.7000;0.3744;0.6623;
891.0000;0.3744;0.6501;
891.3000;0.3728;0.6501;
891.6000;0.3736;0.6526;
891.9000;0.3736;0.6526;
892.2000;0.3736;0.6575;
892.5000;0.3761;0.6672;
892.8000;0.3761;0.6745;
893.1000;0.3736;0.6648;
893.4000;0.3655;0.6501;
893.7000;0.3728;0.6696;
894.0000;0.3744;0.6721;
894.3000;0.3777;0.6745;
894.6000;0.3744;0.6550;
894.9000;0.3818;0.6721;
895.2000;0.3744;0.6477;
895.5000;0.3769;0.6404;
895.8000;0.3777;0.6477;
896.1000;0.3761;0.6575;
896.4000;0.3728;0.6526;
896.7000;0.3753;0.6575;
897.0000;0.3736;0.6453;
897.3000;0.3728;0.6501;
897.6000;0.3769;0.6575;
897.9000;0.3769;0.6550;
898.2000;0.3744;0.6355;
898.5000;0.3753;0.6428;
898.8000;0.3744;0.6404;
899.1000;0.3769;0.6428;
899.4000;0.3769;0.6428;
899.7000;0.3744;0.6355;
900.0000;0.3736;0.6453;
900.3000;0.3744;0.6453;
900.6000;0.3753;0.6428;
900.9000;0.3769;0.6428;
901.2000;0.3728;0.6404;
901.5000;0.3720;0.6404;
901.8000;0.3801;0.6550;
902.1000;0.3793;0.6575;
902.4000;0.3744;0.6453;
902.7000;0.3712;0.6331;
903.0000;0.3744;0.6453;
903.3000;0.3728;0.6428;
903.6000;0.3744;0.6550;
903.9000;0.3744;0.6599;
904.2000;0.3761;0.6648;
904.5000;0.3736;0.6648;
904.8000;0.3761;0.6648;
905.1000;0.3761;0.6648;
905.4000;0.3736;0.6623;
905.7000;0.3736;0.6623;
906.0000;0.3744;0.6575;
906.3000;0.3761;0.6599;
906.6000;0.3736;0.6599;
906.9000;0.3744;0.6648;
907.2000;0.3736;0.6575;
907.5000;0.3736;0.6575;
907.8000;0.3744;0.6526;
908.1000;0.3728;0.6501;
908.4000;0.3753;0.6575;
908.7000;0.3744;0.6575;
909.0000;0.3769;0.6696;
909.3000;0.3753;0.6672;
909.6000;0.3769;0.6769;
909.9000;0.3736;0.6794;
910.2000;0.3744;0.6818;
910.5000;0.3753;0.6988;
910.8000;0.3744;0.6891;
911.1000;0.3753;0.6842;
911.4000;0.3736;0.6769;
911.7000;0.3728;0.6769;
912.0000;0.3744;0.6769;
912.3000;0.3769;0.6769;
912.6000;0.3761;0.6696;
912.9000;0.3801;0.6769;
913.2000;0.3744;0.6575;
913.5000;0.3728;0.6550;
913.8000;0.3736;0.6599;
914.1000;0.3753;0.6648;
914.4000;0.3753;0.6648;
914.7000;0.3761;0.6696;
915.0000;0.3777;0.6769;
915.3000;0.3793;0.6794;
915.6000;0.3753;0.6623;
915.9000;0.3761;0.6745;
916.2000;0.3753;0.6648;
916.5000;0.3712;0.6477;
916.8000;0.3736;0.6526;
917.1000;0.3736;0.6453;
917.4000;0.3744;0.6526;
917.7000;0.3761;0.6648;
918.0000;0.3744;0.6672;
918.3000;0.3753;0.6648;
918.6000;0.3736;0.6550;
918.9000;0.3728;0.6453;
919.2000;0.3744;0.6526;
919.5000;0.3761;0.6623;
919.8000;0.3761;0.6696;
920.1000;0.3736;0.6623;
920.4000;0.3761;0.6721;
920.7000;0.3769;0.6769;
921.0000;0.3744;0.6745;
921.3000;0.3785;0.6842;
921.6000;0.3744;0.6721;
921.9000;0.3753;0.6721;
922.2000;0.3753;0.6745;
922.5000;0.3753;0.6721;
922.8000;0.3761;0.6769;
923.1000;0.3744;0.6769;
923.4000;0.3728;0.6623;
923.7000;0.3728;0.6696;
924.0000;0.3728;0.6648;
924.3000;0.3736;0.6599;
924.6000;0.3720;0.6501;
924.9000;0.3736;0.6623;
925.2000;0.3736;0.6696;
925.5000;0.3736;0.6721;
925.8000;0.3736;0.6818;
926.1000;0.3785;0.7013;
926.4000;0.3736;0.6769;
926.7000;0.3744;0.6842;
927.0000;0.3744;0.6818;
927.3000;0.3728;0.6915;
927.6000;0.3744;0.6818;
927.9000;0.3736;0.6672;
928.2000;0.3736;0.6745;
928.5000;0.3744;0.6842;
928.8000;0.3736;0.6721;
929.1000;0.3728;0.6623;
929.4000;0.3728;0.6672;
929.7000;0.3736;0.6623;
930.0000;0.3687;0.6453;
930.3000;0.3736;0.6550;
930.6000;0.3712;0.6599;
930.9000;0.3736;0.6575;
931.2000;0.3761;0.6623;
931.5000;0.3761;0.6648;
931.8000;0.3744;0.6672;
932.1000;0.3744;0.6623;
932.4000;0.3753;0.6575;
932.7000;0.3744;0.6575;
933.0000;0.3818;0.6867;
933.3000;0.3736;0.6672;
933.6000;0.3736;0.6623;
933.9000;0.3736;0.6526;
934.2000;0.3728;0.6428;
934.5000;0.3744;0.6550;
934.8000;0.3696;0.6404;
935.1000;0.3736;0.6575;
935.4000;0.3720;0.6526;
935.7000;0.3736;0.6453;
936.0000;0.3744;0.6575;
936.3000;0.3736;0.6599;
936.6000;0.3720;0.6623;
936.9000;0.3728;0.6672;
937.2000;0.3753;0.6769;
937.5000;0.3777;0.6769;
937.8000;0.3736;0.6648;
938.1000;0.3728;0.6623;
938.4000;0.3761;0.6818;
938.7000;0.3736;0.6696;
939.0000;0.3736;0.6599;
939.3000;0.3728;0.6599;
939.6000;0.3728;0.6599;
939.9000;0.3744;0.6672;
940.2000;0.3736;0.6672;
940.5000;0.3801;0.6867;
940.8000;0.3744;0.6623;
941.1000;0.3842;0.6891;
941.4000;0.3777;0.6769;
941.7000;0.3744;0.6721;
942.0000;0.3753;0.6721;
942.3000;0.3753;0.6696;
942.6000;0.3769;0.6794;
942.9000;0.3753;0.6696;
943.2000;0.3736;0.6599;
943.5000;0.3753;0.6623;
943.8000;0.3728;0.6501;
944.1000;0.3744;0.6599;
944.4000;0.3736;0.6575;
944.7000;0.3753;0.6575;
945.0000;0.3753;0.6575;
945.3000;0.3712;0.6526;
945.6000;0.3785;0.6769;
945.9000;0.3850;0.6940;
946.2000;0.3753;0.6721;
946.5000;0.3720;0.6745;
946.8000;0.3712;0.6599;
947.1000;0.3720;0.6550;
947.4000;0.3736;0.6575;
947.7000;0.3777;0.6696;
948.0000;0.3761;0.6648;
948.3000;0.3736;0.6672;
948.6000;0.3744;0.6721;
948.9000;0.3728;0.6794;
949.2000;0.3818;0.6940;
949.5000;0.3736;0.6623;
949.8000;0.3728;0.6648;
950.1000;0.3736;0.6599;
950.4000;0.3712;0.6550;
950.7000;0.3704;0.6477;
951.0000;0.3728;0.6575;
951.3000;0.3744;0.6623;
951.6000;0.3736;0.6648;
951.9000;0.3744;0.6672;
952.2000;0.3728;0.6623;
952.5000;0.3728;0.6623;
952.8000;0.3744;0.6599;
953.1000;0.3744;0.6648;
953.4000;0.3753;0.6769;
953.7000;0.3728;0.6721;
954.0000;0.3736;0.6696;
954.3000;0.3777;0.6721;
954.6000;0.3753;0.6648;
954.9000;0.3753;0.6648;
955.2000;0.3744;0.6575;
955.5000;0.3753;0.6526;
955.8000;0.3744;0.6501;
956.1000;0.3744;0.6501;
956.4000;0.3736;0.6501;
956.7000;0.3744;0.6453;
957.0000;0.3736;0.6575;
957.3000;0.3744;0.6648;
957.6000;0.3753;0.6599;
957.9000;0.3753;0.6648;
958.2000;0.3728;0.6575;
958.5000;0.3736;0.6501;
958.8000;0.3753;0.6550;
959.1000;0.3744;0.6550;
959.4000;0.3744;0.6623;
959.7000;0.3736;0.6745;
960.0000;0.3728;0.6842;
960.3000;0.3728;0.6721;
960.6000;0.3736;0.6672;
960.9000;0.3728;0.6575;
961.2000;0.3728;0.6404;
961.5000;0.3793;0.6550;
961.8000;0.3736;0.6428;
962.1000;0.3736;0.6453;
962.4000;0.3744;0.6526;
962.7000;0.3736;0.6550;
963.0000;0.3736;0.6550;
963.3000;0.3744;0.6526;
963.6000;0.3736;0.6526;
963.9000;0.3728;0.6550;
964.2000;0.3736;0.6648;
964.5000;0.3736;0.6599;
964.8000;0.3744;0.6648;
965.1000;0.3744;0.6623;
965.4000;0.3720;0.6599;
965.7000;0.3736;0.6623;
966.0000;0.3744;0.6599;
966.3000;0.3679;0.6404;
966.6000;0.3736;0.6599;
966.9000;0.3744;0.6648;
967.2000;0.3753;0.6648;
967.5000;0.3744;0.6575;
967.8000;0.3761;0.6575;
968.1000;0.3744;0.6550;
968.4000;0.3744;0.6453;
968.7000;0.3753;0.6550;
969.0000;0.3753;0.6575;
969.3000;0.3696;0.6453;
969.6000;0.3769;0.6550;
969.9000;0.3736;0.6477;
970.2000;0.3744;0.6453;
970.5000;0.3720;0.6453;
970.8000;0.3736;0.6477;
971.1000;0.3728;0.6575;
971.4000;0.3728;0.6599;
971.7000;0.3801;0.6745;
972.0000;0.3736;0.6526;
972.3000;0.3736;0.6453;
972.6000;0.3777;0.6526;
972.9000;0.3736;0.6477;
973.2000;0.3769;0.6623;
973.5000;0.3736;0.6623;
973.8000;0.3728;0.6599;
974.1000;0.3744;0.6648;
974.4000;0.3696;0.6477;
974.7000;0.3728;0.6550;
975.0000;0.3736;0.6550;
975.3000;0.3753;0.6648;
975.6000;0.3736;0.6550;
975.9000;0.3744;0.6575;
976.2000;0.3736;0.6550;
976.5000;0.3753;0.6672;
976.8000;0.3753;0.6672;
977.1000;0.3744;0.6575;
977.4000;0.3728;0.6550;
977.7000;0.3744;0.6623;
978.0000;0.3753;0.6526;
978.3000;0.3753;0.6526;
978.6000;0.3736;0.6550;
978.9000;0.3720;0.6575;
979.2000;0.3728;0.6599;
979.5000;0.3744;0.6623;
979.8000;0.3728;0.6526;
980.1000;0.3728;0.6501;
980.4000;0.3753;0.6575;
980.7000;0.3720;0.6526;
981.0000;0.3728;0.6575;
981.3000;0.3736;0.6550;
981.6000;0.3744;0.6526;
981.9000;0.3761;0.6550;
982.2000;0.3801;0.6721;
982.5000;0.3744;0.6453;
982.8000;0.3744;0.6404;
983.1000;0.3761;0.6477;
983.4000;0.3736;0.6404;
983.7000;0.3785;0.6453;
984.0000;0.3736;0.6258;
984.3000;0.3753;0.6355;
984.6000;0.3712;0.6307;
984.9000;0.3712;0.6428;
985.2000;0.3728;0.6477;
985.5000;0.3728;0.6526;
985.8000;0.3744;0.6599;
986.1000;0.3728;0.6526;
986.4000;0.3761;0.6501;
986.7000;0.3728;0.6404;
987.0000;0.3769;0.6550;
987.3000;0.3769;0.6575;
987.6000;0.3753;0.6453;
987.9000;0.3720;0.6380;
988.2000;0.3736;0.6380;
988.5000;0.3736;0.6404;
988.8000;0.3736;0.6477;
989.1000;0.3720;0.6428;
989.4000;0.3753;0.6550;
989.7000;0.3753;0.6550;
990.0000;0.3736;0.6599;
990.3000;0.3622;0.6234;
990.6000;0.3753;0.6550;
990.9000;0.3753;0.6453;
991.2000;0.3728;0.6355;
991.5000;0.3704;0.6331;
991.8000;0.3728;0.6380;
992.1000;0.3720;0.6380;
992.4000;0.3777;0.6550;
992.7000;0.3761;0.6550;
993.0000;0.3744;0.6599;
993.3000;0.3753;0.6599;
993.6000;0.3777;0.6721;
993.9000;0.3744;0.6599;
994.2000;0.3744;0.6599;
994.5000;0.3712;0.6526;
994.8000;0.3744;0.6599;
995.1000;0.3679;0.6380;
995.4000;0.3728;0.6428;
995.7000;0.3736;0.6477;
996.0000;0.3736;0.6575;
996.3000;0.3736;0.6599;
996.6000;0.3744;0.6501;
996.9000;0.3736;0.6477;
997.2000;0.3720;0.6404;
997.5000;0.3736;0.6380;
997.8000;0.3736;0.6331;
998.1000;0.3744;0.6526;
998.4000;0.3736;0.6477;
998.7000;0.3728;0.6501;
999.0000;0.3736;0.6599;
999.3000;0.3744;0.6648;
999.6000;0.3736;0.6721;
999.9000;0.3744;0.6769;
1000.2000;0.3728;0.6745;
1000.5000;0.3736;0.6867;
1000.8000;0.3728;0.6842;
1001.1000;0.3728;0.6818;
1001.4000;0.3744;0.6891;
1001.7000;0.3736;0.6842;
1002.0000;0.3720;0.6745;
1002.3000;0.3761;0.6818;
1002.6000;0.3744;0.6769;
1002.9000;0.3736;0.6721;
1003.2000;0.3736;0.6818;
1003.5000;0.3744;0.6867;
1003.8000;0.3744;0.6794;
1004.1000;0.3720;0.6721;
1004.4000;0.3671;0.6526;
1004.7000;0.3744;0.6672;
1005.0000;0.3736;0.6648;
1005.3000;0.3744;0.6648;
1005.6000;0.3736;0.6526;
1005.9000;0.3728;0.6501;
1006.2000;0.3687;0.6380;
1006.5000;0.3720;0.6428;
1006.8000;0.3744;0.6477;
1007.1000;0.3761;0.6696;
1007.4000;0.3728;0.6453;
1007.7000;0.3785;0.6623;
1008.0000;0.3753;0.6575;
1008.3000;0.3647;0.6404;
1008.6000;0.3720;0.6623;
1008.9000;0.3728;0.6526;
1009.2000;0.3736;0.6550;
1009.5000;0.3704;0.6453;
1009.8000;0.3728;0.6550;
1010.1000;0.3744;0.6672;
1010.4000;0.3744;0.6672;
1010.7000;0.3728;0.6745;
1011.0000;0.3777;0.6867;
1011.3000;0.3736;0.6745;
1011.6000;0.3696;0.6501;
1011.9000;0.3720;0.6501;
1012.2000;0.3728;0.6477;
1012.5000;0.3753;0.6404;
1012.8000;0.3696;0.6209;
1013.1000;0.3728;0.6234;
1013.4000;0.3744;0.6234;
1013.7000;0.3720;0.6307;
1014.0000;0.3736;0.6355;
1014.3000;0.3761;0.6526;
1014.6000;0.3736;0.6550;
1014.9000;0.3753;0.6648;
1015.2000;0.3720;0.6648;
1015.5000;0.3744;0.6623;
1015.8000;0.3785;0.6794;
1016.1000;0.3728;0.6648;
1016.4000;0.3753;0.6672;
1016.7000;0.3761;0.6623;
1017.0000;0.3728;0.6526;
1017.3000;0.3744;0.6599;
1017.6000;0.3793;0.6745;
1017.9000;0.3736;0.6599;
1018.2000;0.3728;0.6648;
1018.5000;0.3736;0.6721;
1018.8000;0.3728;0.6769;
1019.1000;0.3744;0.6794;
1019.4000;0.3753;0.6721;
1019.7000;0.3736;0.6794;
1020.0000;0.3728;0.6721;
1020.3000;0.3744;0.6745;
1020.6000;0.3728;0.6721;
1020.9000;0.3728;0.6745;
1021.2000;0.3736;0.6745;
1021.5000;0.3720;0.6648;
1021.8000;0.3728;0.6672;
1022.1000;0.3728;0.6648;
1022.4000;0.3736;0.6623;
1022.7000;0.3801;0.6794;
1023.0000;0.3761;0.6696;
1023.3000;0.3744;0.6696;
1023.6000;0.3736;0.6745;
1023.9000;0.3728;0.6672;
1024.2000;0.3736;0.6696;
1024.5000;0.3736;0.6672;
1024.8000;0.3744;0.6696;
1025.1000;0.3753;0.6794;
1025.4000;0.3744;0.6745;
1025.7000;0.3753;0.6794;
1026.0000;0.3736;0.6818;
1026.3000;0.3744;0.6818;
1026.6000;0.3744;0.6842;
1026.9000;0.3761;0.6891;
1027.2000;0.3736;0.6769;
1027.5000;0.3704;0.6794;
1027.8000;0.3744;0.6867;
1028.1000;0.3744;0.6818;
1028.4000;0.3728;0.6745;
1028.7000;0.3736;0.6842;
1029.0000;0.3744;0.6867;
1029.3000;0.3769;0.6964;
1029.6000;0.3769;0.6915;
1029.9000;0.3736;0.6867;
1030.2000;0.3728;0.6769;
1030.5000;0.3744;0.6842;
1030.8000;0.3744;0.6842;
1031.1000;0.3736;0.6867;
1031.4000;0.3679;0.6672;
1031.7000;0.3728;0.6915;
1032.0000;0.3736;0.6940;
1032.3000;0.3736;0.6891;
1032.6000;0.3736;0.6964;
1032.9000;0.3736;0.6964;
1033.2000;0.3744;0.6915;
1033.5000;0.3736;0.6915;
1033.8000;0.3785;0.6915;
1034.1000;0.3761;0.6745;
1034.4000;0.3736;0.6696;
1034.7000;0.3761;0.6696;
1035.0000;0.3728;0.6623;
1035.3000;0.3744;0.6672;
1035.6000;0.3753;0.6745;
1035.9000;0.3736;0.6794;
1036.2000;0.3728;0.6867;
1036.5000;0.3736;0.6818;
1036.8000;0.3736;0.6721;
1037.1000;0.3728;0.6623;
1037.4000;0.3744;0.6745;
1037.7000;0.3736;0.6721;
1038.0000;0.3712;0.6721;
1038.3000;0.3761;0.6745;
1038.6000;0.3736;0.6648;
1038.9000;0.3736;0.6745;
1039.2000;0.3671;0.6648;
1039.5000;0.3728;0.6769;
1039.8000;0.3744;0.6721;
1040.1000;0.3728;0.6672;
1040.4000;0.3736;0.6745;
1040.7000;0.3736;0.6769;
1041.0000;0.3744;0.6672;
1041.3000;0.3696;0.6526;
1041.6000;0.3712;0.6623;
1041.9000;0.3744;0.6721;
1042.2000;0.3744;0.6769;
1042.5000;0.3728;0.6672;
1042.8000;0.3736;0.6696;
1043.1000;0.3712;0.6721;
1043.4000;0.3736;0.6745;
1043.7000;0.3728;0.6696;
1044.0000;0.3744;0.6745;
1044.3000;0.3736;0.6794;
1044.6000;0.3736;0.6818;
1044.9000;0.3736;0.6745;
1045.2000;0.3736;0.6696;
1045.5000;0.3744;0.6721;
1045.8000;0.3720;0.6794;
1046.1000;0.3720;0.6745;
1046.4000;0.3736;0.6794;
1046.7000;0.3728;0.6721;
1047.0000;0.3753;0.6794;
1047.3000;0.3744;0.6769;
1047.6000;0.3736;0.6794;
1047.9000;0.3728;0.6745;
1048.2000;0.3720;0.6745;
1048.5000;0.3720;0.6794;
1048.8000;0.3728;0.6867;
1049.1000;0.3728;0.6867;
1049.4000;0.3712;0.6842;
1049.7000;0.3736;0.6794;
1050.0000;0.3810;0.6940;
1050.3000;0.3728;0.6745;
1050.6000;0.3728;0.6769;
1050.9000;0.3736;0.6769;
1051.2000;0.3736;0.6696;
1051.5000;0.3744;0.6672;
1051.8000;0.3712;0.6648;
1052.1000;0.3769;0.6818;
1052.4000;0.3728;0.6648;
1052.7000;0.3712;0.6599;
1053.0000;0.3712;0.6599;
1053.3000;0.3728;0.6696;
1053.6000;0.3696;0.6599;
1053.9000;0.3728;0.6696;
1054.2000;0.3720;0.6648;
1054.5000;0.3712;0.6672;
1054.8000;0.3777;0.6818;
1055.1000;0.3736;0.6648;
1055.4000;0.3720;0.6696;
1055.7000;0.3736;0.6891;
1056.0000;0.3720;0.6818;
1056.3000;0.3712;0.6842;
1056.6000;0.3720;0.6794;
1056.9000;0.3704;0.6769;
1057.2000;0.3704;0.6769;
1057.5000;0.3842;0.7062;
1057.8000;0.3720;0.6672;
1058.1000;0.3728;0.6696;
1058.4000;0.3736;0.6745;
1058.7000;0.3736;0.6818;
1059.0000;0.3736;0.6915;
1059.3000;0.3736;0.6915;
1059.6000;0.3744;0.7013;
1059.9000;0.3720;0.7013;
1060.2000;0.3720;0.6940;
1060.5000;0.3744;0.6867;
1060.8000;0.3769;0.6842;
1061.1000;0.3744;0.6794;
1061.4000;0.3736;0.6696;
1061.7000;0.3728;0.6794;
1062.0000;0.3720;0.6794;
1062.3000;0.3753;0.6794;
1062.6000;0.3744;0.6672;
1062.9000;0.3728;0.6672;
1063.2000;0.3728;0.6721;
1063.5000;0.3736;0.6769;
1063.8000;0.3753;0.6794;
1064.1000;0.3704;0.6721;
1064.4000;0.3769;0.6988;
1064.7000;0.3753;0.6988;
1065.0000;0.3728;0.6915;
1065.3000;0.3720;0.6818;
1065.6000;0.3793;0.6940;
1065.9000;0.3744;0.6842;
1066.2000;0.3728;0.6842;
1066.5000;0.3793;0.7037;
1066.8000;0.3728;0.6867;
1067.1000;0.3736;0.6964;
1067.4000;0.3736;0.7062;
1067.7000;0.3712;0.6964;
1068.0000;0.3736;0.7013;
1068.3000;0.3728;0.6915;
1068.6000;0.3728;0.6964;
1068.9000;0.3720;0.6818;
1069.2000;0.3736;0.6818;
1069.5000;0.3720;0.6891;
1069.8000;0.3704;0.6867;
1070.1000;0.3777;0.6915;
1070.4000;0.3720;0.6794;
1070.7000;0.3777;0.6915;
1071.0000;0.3744;0.6818;
1071.3000;0.3777;0.6818;
1071.6000;0.3736;0.6769;
1071.9000;0.3736;0.6769;
1072.2000;0.3744;0.6648;
1072.5000;0.3736;0.6599;
1072.8000;0.3753;0.6599;
1073.1000;0.3728;0.6501;
1073.4000;0.3753;0.6575;
1073.7000;0.3777;0.6648;
1074.0000;0.3761;0.6672;
1074.3000;0.3728;0.6550;
1074.6000;0.3712;0.6526;
1074.9000;0.3704;0.6477;
1075.2000;0.3744;0.6477;
1075.5000;0.3712;0.6355;
1075.8000;0.3753;0.6453;
1076.1000;0.3785;0.6526;
1076.4000;0.3753;0.6550;
1076.7000;0.3687;0.6380;
1077.0000;0.3793;0.6794;
1077.3000;0.3720;0.6672;
1077.6000;0.3671;0.6623;
1077.9000;0.3712;0.6721;
1078.2000;0.3720;0.6648;
1078.5000;0.3720;0.6745;
1078.8000;0.3728;0.6696;
1079.1000;0.3744;0.6696;
1079.4000;0.3736;0.6721;
1079.7000;0.3736;0.6696;
1080.0000;0.3736;0.6672;
1080.3000;0.3736;0.6721;
1080.6000;0.3704;0.6696;
1080.9000;0.3728;0.6769;
1081.2000;0.3736;0.6696;
1081.5000;0.3744;0.6769;
1081.8000;0.3736;0.6745;
1082.1000;0.3720;0.6745;
1082.4000;0.3744;0.6794;
1082.7000;0.3736;0.6867;
1083.0000;0.3728;0.6794;
1083.3000;0.3736;0.6794;
1083.6000;0.3736;0.6794;
1083.9000;0.3753;0.6721;
1084.2000;0.3753;0.6745;
1084.5000;0.3728;0.6721;
1084.8000;0.3753;0.6745;
1085.1000;0.3785;0.6794;
1085.4000;0.3793;0.6891;
1085.7000;0.3777;0.6915;
1086.0000;0.3801;0.7037;
1086.3000;0.3777;0.6915;
1086.6000;0.3753;0.6842;
1086.9000;0.3753;0.6891;
1087.2000;0.3696;0.6745;
1087.5000;0.3777;0.6988;
1087.8000;0.3744;0.6891;
1088.1000;0.3728;0.6721;
1088.4000;0.3728;0.6818;
1088.7000;0.3728;0.6915;
1089.0000;0.3720;0.6842;
1089.3000;0.3736;0.6867;
1089.6000;0.3899;0.7305;
1089.9000;0.3720;0.6794;
1090.2000;0.3728;0.6745;
1090.5000;0.3720;0.6769;
1090.8000;0.3736;0.6794;
1091.1000;0.3728;0.6721;
1091.4000;0.3736;0.6696;
1091.7000;0.3728;0.6696;
1092.0000;0.3736;0.6696;
1092.3000;0.3712;0.6623;
1092.6000;0.3728;0.6648;
1092.9000;0.3720;0.6721;
1093.2000;0.3728;0.6867;
1093.5000;0.3704;0.6745;
1093.8000;0.3712;0.6818;
1094.1000;0.3728;0.6794;
1094.4000;0.3736;0.6842;
1094.7000;0.3720;0.6867;
1095.0000;0.3704;0.6794;
1095.3000;0.3753;0.6867;
1095.6000;0.3736;0.6940;
1095.9000;0.3753;0.6940;
1096.2000;0.3736;0.6867;
1096.5000;0.3744;0.6891;
1096.8000;0.3736;0.6964;
1097.1000;0.3761;0.7013;
1097.4000;0.3744;0.6842;
1097.7000;0.3720;0.6818;
1098.0000;0.3736;0.6842;
1098.3000;0.3720;0.6794;
1098.6000;0.3728;0.6891;
1098.9000;0.3704;0.6818;
1099.2000;0.3744;0.6891;
1099.5000;0.3761;0.6891;
1099.8000;0.3728;0.6794;
1100.1000;0.3753;0.6745;
1100.4000;0.3704;0.6794;
1100.7000;0.3761;0.6867;
1101.0000;0.3736;0.6745;
1101.3000;0.3687;0.6648;
1101.6000;0.3753;0.6769;
1101.9000;0.3736;0.6696;
1102.2000;0.3720;0.6648;
1102.5000;0.3720;0.6575;
1102.8000;0.3753;0.6623;
1103.1000;0.3728;0.6501;
1103.4000;0.3736;0.6575;
1103.7000;0.3736;0.6477;
1104.0000;0.3720;0.6428;
1104.3000;0.3720;0.6550;
1104.6000;0.3744;0.6648;
1104.9000;0.3712;0.6550;
1105.2000;0.3728;0.6696;
1105.5000;0.3720;0.6769;
1105.8000;0.3728;0.6818;
1106.1000;0.3728;0.6818;
1106.4000;0.3744;0.6915;
1106.7000;0.3712;0.6867;
1107.0000;0.3728;0.6988;
1107.3000;0.3712;0.6891;
1107.6000;0.3712;0.6842;
1107.9000;0.3744;0.6891;
1108.2000;0.3736;0.6842;
1108.5000;0.3744;0.6842;
1108.8000;0.3687;0.6842;
1109.1000;0.3712;0.6842;
1109.4000;0.3761;0.6867;
1109.7000;0.3736;0.6988;
1110.0000;0.3736;0.7013;
1110.3000;0.3761;0.7086;
1110.6000;0.3744;0.7013;
1110.9000;0.3736;0.6940;
1111.2000;0.3728;0.6940;
1111.5000;0.3744;0.6891;
1111.8000;0.3744;0.6842;
1112.1000;0.3753;0.6842;
1112.4000;0.3728;0.6842;
1112.7000;0.3744;0.6818;
1113.0000;0.3736;0.6818;
1113.3000;0.3728;0.6818;
1113.6000;0.3720;0.6891;
1113.9000;0.3753;0.6915;
1114.2000;0.3736;0.6842;
1114.5000;0.3736;0.6842;
1114.8000;0.3850;0.7135;
1115.1000;0.3712;0.6745;
1115.4000;0.3744;0.6842;
1115.7000;0.3736;0.6940;
1116.0000;0.3736;0.6867;
1116.3000;0.3753;0.6915;
1116.6000;0.3728;0.6867;
1116.9000;0.3744;0.6891;
1117.2000;0.3736;0.6794;
1117.5000;0.3736;0.6794;
1117.8000;0.3728;0.6842;
1118.1000;0.3736;0.6818;
1118.4000;0.3761;0.6867;
1118.7000;0.3744;0.6867;
1119.0000;0.3736;0.6915;
1119.3000;0.3736;0.6891;
1119.6000;0.3744;0.6940;
1119.9000;0.3744;0.6842;
1120.2000;0.3728;0.6915;
1120.5000;0.3720;0.6940;
1120.8000;0.3761;0.7013;
1121.1000;0.3744;0.7013;
1121.4000;0.3728;0.6891;
1121.7000;0.3753;0.6867;
1122.0000;0.3744;0.6818;
1122.3000;0.3671;0.6672;
1122.6000;0.3720;0.6842;
1122.9000;0.3728;0.6940;
1123.2000;0.3753;0.6940;
1123.5000;0.3687;0.6794;
1123.8000;0.3753;0.6867;
1124.1000;0.3736;0.6818;
1124.4000;0.3614;0.6550;
1124.7000;0.3704;0.6769;
1125.0000;0.3736;0.6915;
1125.3000;0.3744;0.6915;
1125.6000;0.3720;0.6842;
1125.9000;0.3736;0.6867;
1126.2000;0.3761;0.6891;
1126.5000;0.3728;0.6842;
1126.8000;0.3720;0.6818;
1127.1000;0.3736;0.6842;
1127.4000;0.3761;0.6964;
1127.7000;0.3647;0.6550;
1128.0000;0.3687;0.6550;
1128.3000;0.3753;0.6696;
1128.6000;0.3744;0.6672;
1128.9000;0.3777;0.6696;
1129.2000;0.3736;0.6648;
1129.5000;0.3736;0.6599;
1129.8000;0.3712;0.6501;
1130.1000;0.3720;0.6648;
1130.4000;0.3769;0.6891;
1130.7000;0.3728;0.6769;
1131.0000;0.3736;0.6891;
1131.3000;0.3720;0.6794;
1131.6000;0.3744;0.6842;
1131.9000;0.3769;0.6940;
1132.2000;0.3728;0.6623;
1132.5000;0.3753;0.6575;
1132.8000;0.3720;0.6477;
1133.1000;0.3720;0.6526;
1133.4000;0.3744;0.6477;
1133.7000;0.3744;0.6575;
1134.0000;0.3728;0.6575;
1134.3000;0.3744;0.6599;
1134.6000;0.3720;0.6599;
1134.9000;0.3712;0.6599;
1135.2000;0.3736;0.6721;
1135.5000;0.3712;0.6599;
1135.8000;0.3720;0.6648;
1136.1000;0.3639;0.6575;
1136.4000;0.3728;0.6867;
1136.7000;0.3728;0.6794;
1137.0000;0.3720;0.6721;
1137.3000;0.3761;0.6891;
1137.6000;0.3720;0.6721;
1137.9000;0.3704;0.6721;
1138.2000;0.3712;0.6769;
1138.5000;0.3712;0.6696;
1138.8000;0.3720;0.6672;
1139.1000;0.3728;0.6696;
1139.4000;0.3744;0.6721;
1139.7000;0.3728;0.6696;
1140.0000;0.3728;0.6794;
1140.3000;0.3744;0.6867;
1140.6000;0.3736;0.6818;
1140.9000;0.3753;0.6769;
1141.2000;0.3736;0.6745;
1141.5000;0.3769;0.6769;
1141.8000;0.3736;0.6721;
1142.1000;0.3736;0.6696;
1142.4000;0.3744;0.6794;
1142.7000;0.3761;0.6745;
1143.0000;0.3728;0.6745;
1143.3000;0.3769;0.6842;
1143.6000;0.3744;0.6769;
1143.9000;0.3671;0.6599;
1144.2000;0.3720;0.6745;
1144.5000;0.3736;0.6721;
1144.8000;0.3736;0.6599;
1145.1000;0.3728;0.6453;
1145.4000;0.3736;0.6477;
1145.7000;0.3744;0.6526;
1146.0000;0.3736;0.6623;
1146.3000;0.3744;0.6672;
1146.6000;0.3704;0.6696;
1146.9000;0.3728;0.6721;
1147.2000;0.3704;0.6672;
1147.5000;0.3728;0.6794;
1147.8000;0.3728;0.6794;
1148.1000;0.3728;0.6794;
1148.4000;0.3818;0.7037;
1148.7000;0.3728;0.6842;
1149.0000;0.3728;0.6769;
1149.3000;0.3736;0.6696;
1149.6000;0.3736;0.6648;
1149.9000;0.3736;0.6745;
1150.2000;0.3728;0.6769;
1150.5000;0.3761;0.6891;
1150.8000;0.3728;0.6794;
1151.1000;0.3761;0.6794;
1151.4000;0.3736;0.6818;
1151.7000;0.3810;0.7013;
1152.0000;0.3744;0.6915;
1152.3000;0.3744;0.6940;
1152.6000;0.3736;0.6769;
1152.9000;0.3728;0.6696;
1153.2000;0.3728;0.6648;
1153.5000;0.3728;0.6623;
1153.8000;0.3761;0.6672;
1154.1000;0.3753;0.6648;
1154.4000;0.3728;0.6623;
1154.7000;0.3736;0.6696;
1155.0000;0.3712;0.6623;
1155.3000;0.3720;0.6696;
1155.6000;0.3736;0.6745;
1155.9000;0.3728;0.6672;
1156.2000;0.3728;0.6648;
1156.5000;0.3744;0.6672;
1156.8000;0.3785;0.6745;
1157.1000;0.3736;0.6721;
1157.4000;0.3728;0.6672;
1157.7000;0.3777;0.6818;
1158.0000;0.3736;0.6842;
1158.3000;0.3744;0.6794;
1158.6000;0.3728;0.6696;
1158.9000;0.3753;0.6721;
1159.2000;0.3728;0.6575;
1159.5000;0.3720;0.6453;
1159.8000;0.3728;0.6501;
1160.1000;0.3712;0.6428;
1160.4000;0.3720;0.6477;
1160.7000;0.3720;0.6575;
1161.0000;0.3720;0.6575;
1161.3000;0.3712;0.6575;
1161.6000;0.3744;0.6696;
1161.9000;0.3712;0.6575;
1162.2000;0.3712;0.6550;
1162.5000;0.3696;0.6501;
1162.8000;0.3753;0.6672;
1163.1000;0.3728;0.6648;
1163.4000;0.3736;0.6794;
1163.7000;0.3720;0.6696;
1164.0000;0.3753;0.6769;
1164.3000;0.3720;0.6745;
1164.6000;0.3728;0.6794;
1164.9000;0.3753;0.6794;
1165.2000;0.3720;0.6721;
1165.5000;0.3744;0.6745;
1165.8000;0.3744;0.6794;
1166.1000;0.3736;0.6769;
1166.4000;0.3728;0.6599;
1166.7000;0.3761;0.6575;
1167.0000;0.3687;0.6404;
1167.3000;0.3728;0.6672;
1167.6000;0.3720;0.6648;
1167.9000;0.3744;0.6721;
1168.2000;0.3744;0.6769;
1168.5000;0.3712;0.6794;
1168.8000;0.3728;0.6818;
1169.1000;0.3655;0.6696;
1169.4000;0.3736;0.6867;
1169.7000;0.3744;0.6794;
1170.0000;0.3744;0.6769;
1170.3000;0.3728;0.6769;
1170.6000;0.3744;0.6794;
1170.9000;0.3753;0.6794;
1171.2000;0.3712;0.6696;
1171.5000;0.3728;0.6721;
1171.8000;0.3720;0.6745;
1172.1000;0.3736;0.6769;
1172.4000;0.3728;0.6721;
1172.7000;0.3728;0.6769;
1173.0000;0.3720;0.6745;
1173.3000;0.3728;0.6721;
1173.6000;0.3720;0.6721;
1173.9000;0.3712;0.6696;
1174.2000;0.3720;0.6721;
1174.5000;0.3728;0.6794;
1174.8000;0.3679;0.6721;
1175.1000;0.3720;0.6794;
1175.4000;0.3704;0.6818;
1175.7000;0.3736;0.6940;
1176.0000;0.3736;0.7013;
1176.3000;0.3736;0.6988;
1176.6000;0.3736;0.6964;
1176.9000;0.3744;0.6891;
1177.2000;0.3728;0.6867;
1177.5000;0.3744;0.6891;
1177.8000;0.3744;0.6964;
1178.1000;0.3736;0.6842;
1178.4000;0.3728;0.6769;
1178.7000;0.3728;0.6648;
1179.0000;0.3736;0.6672;
1179.3000;0.3736;0.6745;
1179.6000;0.3777;0.6940;
1179.9000;0.3744;0.6818;
1180.2000;0.3728;0.6721;
1180.5000;0.3671;0.6501;
1180.8000;0.3744;0.6696;
1181.1000;0.3753;0.6745;
1181.4000;0.3679;0.6599;
1181.7000;0.3728;0.6696;
1182.0000;0.3728;0.6794;
1182.3000;0.3753;0.6721;
1182.6000;0.3720;0.6599;
1182.9000;0.3753;0.6867;
1183.2000;0.3720;0.6696;
1183.5000;0.3712;0.6599;
1183.8000;0.3728;0.6599;
1184.1000;0.3728;0.6550;
1184.4000;0.3744;0.6550;
1184.7000;0.3753;0.6599;
1185.0000;0.3744;0.6623;
1185.3000;0.3728;0.6550;
1185.6000;0.3696;0.6599;
1185.9000;0.3728;0.6672;
1186.2000;0.3696;0.6550;
1186.5000;0.3720;0.6550;
1186.8000;0.3736;0.6526;
1187.1000;0.3687;0.6428;
1187.4000;0.3704;0.6526;
1187.7000;0.3704;0.6623;
1188.0000;0.3736;0.6769;
1188.3000;0.3720;0.6769;
1188.6000;0.3736;0.6769;
1188.9000;0.3712;0.6672;
1189.2000;0.3720;0.6648;
1189.5000;0.3720;0.6599;
1189.8000;0.3712;0.6575;
1190.1000;0.3720;0.6599;
1190.4000;0.3687;0.6428;
1190.7000;0.3728;0.6599;
1191.0000;0.3769;0.6696;
1191.3000;0.3744;0.6672;
1191.6000;0.3744;0.6696;
1191.9000;0.3785;0.6867;
1192.2000;0.3736;0.6769;
1192.5000;0.3728;0.6721;
1192.8000;0.3818;0.6891;
1193.1000;0.3704;0.6575;
1193.4000;0.3753;0.6599;
1193.7000;0.3736;0.6575;
1194.0000;0.3728;0.6575;
1194.3000;0.3744;0.6575;
1194.6000;0.3761;0.6623;
1194.9000;0.3736;0.6599;
1195.2000;0.3753;0.6672;
1195.5000;0.3704;0.6526;
1195.8000;0.3720;0.6575;
1196.1000;0.3728;0.6575;
1196.4000;0.3736;0.6599;
1196.7000;0.3736;0.6575;
1197.0000;0.3736;0.6428;
1197.3000;0.3728;0.6428;
1197.6000;0.3728;0.6526;
1197.9000;0.3736;0.6453;
1198.2000;0.3720;0.6477;
1198.5000;0.3769;0.6575;
1198.8000;0.3753;0.6477;
1199.1000;0.3736;0.6501;
1199.4000;0.3736;0.6428;
1199.7000;0.3744;0.6526;
1200.0000;0.3736;0.6526;
1200.3000;0.3744;0.6575;
1200.6000;0.3744;0.6599;
1200.9000;0.3728;0.6696;
1201.2000;0.3744;0.6867;
1201.5000;0.3753;0.6842;
1201.8000;0.3736;0.6794;
1202.1000;0.3736;0.6818;
1202.4000;0.3801;0.6988;
1202.7000;0.3736;0.6672;
1203.0000;0.3728;0.6721;
1203.3000;0.3728;0.6769;
1203.6000;0.3777;0.6891;
1203.9000;0.3728;0.6818;
1204.2000;0.3769;0.6769;
1204.5000;0.3728;0.6599;
1204.8000;0.3712;0.6550;
1205.1000;0.3744;0.6599;
1205.4000;0.3696;0.6477;
1205.7000;0.3704;0.6477;
1206.0000;0.3736;0.6575;
1206.3000;0.3753;0.6648;
1206.6000;0.3753;0.6575;
1206.9000;0.3810;0.6794;
1207.2000;0.3736;0.6599;
1207.5000;0.3744;0.6696;
1207.8000;0.3736;0.6745;
1208.1000;0.3712;0.6721;
1208.4000;0.3736;0.6867;
1208.7000;0.3704;0.6769;
1209.0000;0.3736;0.6891;
1209.3000;0.3728;0.6842;
1209.6000;0.3720;0.6818;
1209.9000;0.3728;0.6867;
1210.2000;0.3744;0.6867;
1210.5000;0.3728;0.6794;
1210.8000;0.3728;0.6794;
1211.1000;0.3720;0.6794;
1211.4000;0.3736;0.6891;
1211.7000;0.3728;0.6940;
1212.0000;0.3753;0.6964;
1212.3000;0.3720;0.6794;
1212.6000;0.3744;0.6794;
1212.9000;0.3744;0.6721;
1213.2000;0.3728;0.6769;
1213.5000;0.3712;0.6721;
1213.8000;0.3736;0.6721;
1214.1000;0.3753;0.6721;
1214.4000;0.3712;0.6672;
1214.7000;0.3736;0.6721;
1215.0000;0.3728;0.6769;
1215.3000;0.3769;0.6891;
1215.6000;0.3696;0.6818;
1215.9000;0.3712;0.6794;
1216.2000;0.3810;0.7037;
1216.5000;0.3744;0.6842;
1216.8000;0.3744;0.6915;
1217.1000;0.3728;0.6794;
1217.4000;0.3736;0.6818;
1217.7000;0.3753;0.6867;
1218.0000;0.3736;0.6794;
1218.3000;0.3728;0.6867;
1218.6000;0.3728;0.6891;
1218.9000;0.3720;0.6867;
1219.2000;0.3728;0.6940;
1219.5000;0.3720;0.6891;
1219.8000;0.3736;0.6915;
1220.1000;0.3736;0.6867;
1220.4000;0.3858;0.7159;
1220.7000;0.3736;0.6769;
1221.0000;0.3736;0.6696;
1221.3000;0.3639;0.6355;
1221.6000;0.3736;0.6672;
1221.9000;0.3728;0.6672;
1222.2000;0.3728;0.6769;
1222.5000;0.3793;0.6891;
1222.8000;0.3777;0.7037;
1223.1000;0.3761;0.6964;
1223.4000;0.3753;0.6891;
1223.7000;0.3671;0.6623;
1224.0000;0.3744;0.6721;
1224.3000;0.3753;0.6745;
1224.6000;0.3720;0.6696;
1224.9000;0.3793;0.6818;
1225.2000;0.3736;0.6599;
1225.5000;0.3736;0.6648;
1225.8000;0.3736;0.6599;
1226.1000;0.3736;0.6623;
1226.4000;0.3720;0.6599;
1226.7000;0.3728;0.6599;
1227.0000;0.3720;0.6623;
1227.3000;0.3728;0.6623;
1227.6000;0.3712;0.6575;
1227.9000;0.3736;0.6672;
1228.2000;0.3728;0.6721;
1228.5000;0.3736;0.6769;
1228.8000;0.3736;0.6818;
1229.1000;0.3728;0.6794;
1229.4000;0.3728;0.6721;
1229.7000;0.3728;0.6721;
1230.0000;0.3704;0.6696;
1230.3000;0.3744;0.6867;
1230.6000;0.3744;0.6745;
1230.9000;0.3720;0.6623;
1231.2000;0.3736;0.6599;
1231.5000;0.3712;0.6526;
1231.8000;0.3736;0.6648;
1232.1000;0.3736;0.6696;
1232.4000;0.3712;0.6696;
1232.7000;0.3712;0.6696;
1233.0000;0.3728;0.6696;
1233.3000;0.3744;0.6672;
1233.6000;0.3728;0.6696;
1233.9000;0.3712;0.6721;
1234.2000;0.3704;0.6721;
1234.5000;0.3736;0.6769;
1234.8000;0.3712;0.6745;
1235.1000;0.3696;0.6818;
1235.4000;0.3720;0.6915;
1235.7000;0.3712;0.6915;
1236.0000;0.3679;0.6721;
1236.3000;0.3728;0.6891;
1236.6000;0.3753;0.6867;
1236.9000;0.3728;0.6794;
1237.2000;0.3744;0.6794;
1237.5000;0.3744;0.6891;
1237.8000;0.3736;0.6891;
1238.1000;0.3736;0.6964;
1238.4000;0.3761;0.7013;
1238.7000;0.3720;0.6940;
1239.0000;0.3704;0.6842;
1239.3000;0.3744;0.7037;
1239.6000;0.3761;0.7037;
1239.9000;0.3736;0.6915;
1240.2000;0.3728;0.6867;
1240.5000;0.3744;0.7037;
1240.8000;0.3704;0.6842;
1241.1000;0.3728;0.6867;
1241.4000;0.3769;0.6940;
1241.7000;0.3687;0.6575;
1242.0000;0.3744;0.6745;
1242.3000;0.3736;0.6794;
1242.6000;0.3728;0.6769;
1242.9000;0.3728;0.6721;
1243.2000;0.3753;0.6818;
1243.5000;0.3744;0.6842;
1243.8000;0.3720;0.6769;
1244.1000;0.3720;0.6794;
1244.4000;0.3728;0.6745;
1244.7000;0.3769;0.6867;
1245.0000;0.3736;0.6794;
1245.3000;0.3736;0.6842;
1245.6000;0.3736;0.6794;
1245.9000;0.3720;0.6745;
1246.2000;0.3736;0.6769;
1246.5000;0.3647;0.6501;
1246.8000;0.3728;0.6721;
1247.1000;0.3712;0.6696;
1247.4000;0.3744;0.6769;
1247.7000;0.3704;0.6648;
1248.0000;0.3736;0.6672;
1248.3000;0.3736;0.6696;
1248.6000;0.3753;0.6696;
1248.9000;0.3744;0.6745;
1249.2000;0.3712;0.6672;
1249.5000;0.3744;0.6696;
1249.8000;0.3736;0.6794;
1250.1000;0.3736;0.6769;
1250.4000;0.3736;0.6769;
1250.7000;0.3736;0.6769;
1251.0000;0.3744;0.6794;
1251.3000;0.3720;0.6721;
1251.6000;0.3720;0.6721;
1251.9000;0.3728;0.6769;
1252.2000;0.3736;0.6769;
1252.5000;0.3761;0.6842;
1252.8000;0.3736;0.6696;
1253.1000;0.3736;0.6721;
1253.4000;0.3736;0.6745;
1253.7000;0.3712;0.6599;
1254.0000;0.3744;0.6696;
1254.3000;0.3712;0.6672;
1254.6000;0.3720;0.6672;
1254.9000;0.3744;0.6721;
1255.2000;0.3744;0.6696;
1255.5000;0.3720;0.6623;
1255.8000;0.3704;0.6550;
1256.1000;0.3728;0.6575;
1256.4000;0.3720;0.6721;
1256.7000;0.3769;0.6867;
1257.0000;0.3720;0.6721;
1257.3000;0.3720;0.6672;
1257.6000;0.3753;0.6696;
1257.9000;0.3679;0.6648;
1258.2000;0.3728;0.6721;
1258.5000;0.3712;0.6648;
1258.8000;0.3728;0.6721;
1259.1000;0.3728;0.6769;
1259.4000;0.3736;0.6867;
1259.7000;0.3712;0.6794;
1260.0000;0.3736;0.6794;
1260.3000;0.3720;0.6745;
1260.6000;0.3712;0.6696;
1260.9000;0.3712;0.6672;
1261.2000;0.3712;0.6550;
1261.5000;0.3720;0.6477;
1261.8000;0.3736;0.6550;
1262.1000;0.3712;0.6550;
1262.4000;0.3728;0.6672;
1262.7000;0.3769;0.6745;
1263.0000;0.3720;0.6672;
1263.3000;0.3761;0.6794;
1263.6000;0.3712;0.6599;
1263.9000;0.3728;0.6648;
1264.2000;0.3712;0.6696;
1264.5000;0.3736;0.6769;
1264.8000;0.3744;0.6721;
1265.1000;0.3736;0.6696;
1265.4000;0.3728;0.6696;
1265.7000;0.3687;0.6599;
1266.0000;0.3736;0.6696;
1266.3000;0.3744;0.6672;
1266.6000;0.3728;0.6648;
1266.9000;0.3720;0.6745;
1267.2000;0.3736;0.6842;
1267.5000;0.3728;0.6891;
1267.8000;0.3720;0.6818;
1268.1000;0.3728;0.6867;
1268.4000;0.3720;0.6867;
1268.7000;0.3753;0.6964;
1269.0000;0.3736;0.6915;
1269.3000;0.3736;0.6964;
1269.6000;0.3728;0.6915;
1269.9000;0.3728;0.6891;
1270.2000;0.3736;0.6940;
1270.5000;0.3728;0.6867;
1270.8000;0.3744;0.6867;
1271.1000;0.3712;0.6769;
1271.4000;0.3736;0.6842;
1271.7000;0.3761;0.6964;
1272.0000;0.3712;0.6842;
1272.3000;0.3704;0.6818;
1272.6000;0.3728;0.6891;
1272.9000;0.3753;0.6891;
1273.2000;0.3696;0.6648;
1273.5000;0.3744;0.6769;
1273.8000;0.3753;0.6794;
1274.1000;0.3753;0.6769;
1274.4000;0.3736;0.6721;
1274.7000;0.3736;0.6623;
1275.0000;0.3720;0.6550;
1275.3000;0.3826;0.6867;
1275.6000;0.3736;0.6745;
1275.9000;0.3712;0.6672;
1276.2000;0.3744;0.6648;
1276.5000;0.3728;0.6648;
1276.8000;0.3728;0.6623;
1277.1000;0.3793;0.6696;
1277.4000;0.3736;0.6428;
1277.7000;0.3736;0.6428;
1278.0000;0.3736;0.6477;
1278.3000;0.3736;0.6453;
1278.6000;0.3744;0.6526;
1278.9000;0.3753;0.6575;
1279.2000;0.3736;0.6526;
1279.5000;0.3793;0.6721;
1279.8000;0.3728;0.6599;
1280.1000;0.3736;0.6599;
1280.4000;0.3761;0.6769;
1280.7000;0.3687;0.6672;
1281.0000;0.3728;0.6769;
1281.3000;0.3744;0.6842;
1281.6000;0.3736;0.6794;
1281.9000;0.3728;0.6696;
1282.2000;0.3728;0.6623;
1282.5000;0.3744;0.6672;
1282.8000;0.3712;0.6575;
1283.1000;0.3736;0.6769;
1283.4000;0.3728;0.6745;
1283.7000;0.3744;0.6818;
1284.0000;0.3728;0.6769;
1284.3000;0.3728;0.6696;
1284.6000;0.3744;0.6672;
1284.9000;0.3736;0.6769;
1285.2000;0.3761;0.6867;
1285.5000;0.3736;0.6794;
1285.8000;0.3639;0.6453;
1286.1000;0.3728;0.6721;
1286.4000;0.3671;0.6599;
1286.7000;0.3728;0.6745;
1287.0000;0.3728;0.6745;
1287.3000;0.3736;0.6696;
1287.6000;0.3736;0.6769;
1287.9000;0.3736;0.6891;
1288.2000;0.3736;0.6915;
1288.5000;0.3736;0.6915;
1288.8000;0.3712;0.6891;
1289.1000;0.3736;0.6988;
1289.4000;0.3728;0.6988;
1289.7000;0.3712;0.6842;
1290.0000;0.3712;0.6940;
1290.3000;0.3728;0.6940;
1290.6000;0.3720;0.6915;
1290.9000;0.3704;0.6842;
1291.2000;0.3720;0.6915;
1291.5000;0.3728;0.6915;
1291.8000;0.3736;0.6842;
1292.1000;0.3720;0.6745;
1292.4000;0.3728;0.6818;
1292.7000;0.3704;0.6745;
1293.0000;0.3728;0.6745;
1293.3000;0.3744;0.6867;
1293.6000;0.3712;0.6842;
1293.9000;0.3728;0.6988;
1294.2000;0.3744;0.6988;
1294.5000;0.3696;0.6794;
1294.8000;0.3744;0.6842;
1295.1000;0.3744;0.6794;
1295.4000;0.3728;0.6769;
1295.7000;0.3744;0.6818;
1296.0000;0.3736;0.6769;
1296.3000;0.3736;0.6721;
1296.6000;0.3744;0.6623;
1296.9000;0.3736;0.6599;
1297.2000;0.3761;0.6745;
1297.5000;0.3704;0.6721;
1297.8000;0.3728;0.6794;
1298.1000;0.3744;0.6818;
1298.4000;0.3712;0.6842;
1298.7000;0.3728;0.6891;
1299.0000;0.3753;0.6988;
1299.3000;0.3720;0.6940;
1299.6000;0.3753;0.6940;
1299.9000;0.3744;0.6940;
1300.2000;0.3720;0.6891;
1300.5000;0.3704;0.6867;
1300.8000;0.3728;0.6867;
1301.1000;0.3728;0.6769;
1301.4000;0.3736;0.6842;
1301.7000;0.3720;0.6842;
1302.0000;0.3728;0.6745;
1302.3000;0.3720;0.6745;
1302.6000;0.3704;0.6672;
1302.9000;0.3720;0.6696;
1303.2000;0.3728;0.6696;
1303.5000;0.3712;0.6648;
1303.8000;0.3736;0.6623;
1304.1000;0.3728;0.6599;
1304.4000;0.3761;0.6794;
1304.7000;0.3736;0.6794;
1305.0000;0.3728;0.6721;
1305.3000;0.3712;0.6623;
1305.6000;0.3647;0.6477;
1305.9000;0.3785;0.6721;
1306.2000;0.3728;0.6575;
1306.5000;0.3744;0.6599;
1306.8000;0.3728;0.6526;
1307.1000;0.3744;0.6599;
1307.4000;0.3744;0.6599;
1307.7000;0.3720;0.6575;
1308.0000;0.3736;0.6696;
1308.3000;0.3728;0.6648;
1308.6000;0.3720;0.6648;
1308.9000;0.3728;0.6599;
1309.2000;0.3777;0.6696;
1309.5000;0.3761;0.6648;
1309.8000;0.3769;0.6794;
1310.1000;0.3744;0.6672;
1310.4000;0.3687;0.6550;
1310.7000;0.3720;0.6599;
1311.0000;0.3728;0.6672;
1311.3000;0.3728;0.6696;
1311.6000;0.3720;0.6794;
1311.9000;0.3736;0.6794;
1312.2000;0.3753;0.6745;
1312.5000;0.3679;0.6550;
1312.8000;0.3728;0.6721;
1313.1000;0.3728;0.6672;
1313.4000;0.3736;0.6721;
1313.7000;0.3704;0.6672;
1314.0000;0.3720;0.6794;
1314.3000;0.3728;0.6842;
1314.6000;0.3736;0.6818;
1314.9000;0.3736;0.6842;
1315.2000;0.3728;0.6891;
1315.5000;0.3704;0.6818;
1315.8000;0.3720;0.6818;
1316.1000;0.3736;0.6842;
1316.4000;0.3769;0.6794;
1316.7000;0.3818;0.6940;
1317.0000;0.3728;0.6696;
1317.3000;0.3728;0.6696;
1317.6000;0.3744;0.6721;
1317.9000;0.3736;0.6648;
1318.2000;0.3728;0.6648;
1318.5000;0.3696;0.6599;
1318.8000;0.3712;0.6648;
1319.1000;0.3736;0.6721;
1319.4000;0.3728;0.6721;
1319.7000;0.3736;0.6745;
1320.0000;0.3736;0.6745;
1320.3000;0.3761;0.6794;
1320.6000;0.3720;0.6769;
1320.9000;0.3696;0.6696;
1321.2000;0.3793;0.6915;
1321.5000;0.3728;0.6794;
1321.8000;0.3728;0.6696;
1322.1000;0.3720;0.6745;
1322.4000;0.3720;0.6842;
1322.7000;0.3630;0.6648;
1323.0000;0.3753;0.6915;
1323.3000;0.3728;0.6794;
1323.6000;0.3728;0.6769;
1323.9000;0.3744;0.6915;
1324.2000;0.3720;0.6842;
1324.5000;0.3728;0.6818;
1324.8000;0.3736;0.6915;
1325.1000;0.3744;0.6964;
1325.4000;0.3761;0.7013;
1325.7000;0.3712;0.6842;
1326.0000;0.3639;0.6696;
1326.3000;0.3753;0.7037;
1326.6000;0.3744;0.6988;
1326.9000;0.3736;0.6988;
1327.2000;0.3736;0.7013;
1327.5000;0.3712;0.6842;
1327.8000;0.3736;0.6818;
1328.1000;0.3728;0.6794;
1328.4000;0.3736;0.6794;
1328.7000;0.3720;0.6818;
1329.0000;0.3728;0.6915;
1329.3000;0.3720;0.6915;
1329.6000;0.3655;0.6794;
1329.9000;0.3736;0.6940;
1330.2000;0.3712;0.6915;
1330.5000;0.3761;0.6964;
1330.8000;0.3720;0.6818;
1331.1000;0.3728;0.6842;
1331.4000;0.3736;0.7013;
1331.7000;0.3720;0.6988;
1332.0000;0.3744;0.6891;
1332.3000;0.3728;0.6915;
1332.6000;0.3728;0.6842;
1332.9000;0.3720;0.6794;
1333.2000;0.3720;0.6696;
1333.5000;0.3736;0.6696;
1333.8000;0.3720;0.6575;
1334.1000;0.3744;0.6769;
1334.4000;0.3728;0.6769;
1334.7000;0.3728;0.6794;
1335.0000;0.3728;0.6721;
1335.3000;0.3728;0.6769;
1335.6000;0.3720;0.6696;
1335.9000;0.3736;0.6745;
1336.2000;0.3736;0.6769;
1336.5000;0.3777;0.6842;
1336.8000;0.3720;0.6721;
1337.1000;0.3728;0.6745;
1337.4000;0.3704;0.6696;
1337.7000;0.3728;0.6867;
1338.0000;0.3736;0.6818;
1338.3000;0.3728;0.6769;
1338.6000;0.3736;0.6745;
1338.9000;0.3720;0.6721;
1339.2000;0.3769;0.6721;
1339.5000;0.3736;0.6648;
1339.8000;0.3655;0.6526;
1340.1000;0.3736;0.6818;
1340.4000;0.3744;0.6915;
1340.7000;0.3736;0.7013;
1341.0000;0.3728;0.6940;
1341.3000;0.3728;0.6915;
1341.6000;0.3704;0.6818;
1341.9000;0.3687;0.6818;
1342.2000;0.3704;0.6721;
1342.5000;0.3704;0.6721;
1342.8000;0.3720;0.6794;
1343.1000;0.3696;0.6721;
1343.4000;0.3720;0.6769;
1343.7000;0.3720;0.6867;
1344.0000;0.3712;0.6940;
1344.3000;0.3728;0.6915;
1344.6000;0.3736;0.6891;
1344.9000;0.3761;0.7013;
1345.2000;0.3810;0.7183;
1345.5000;0.3744;0.7037;
1345.8000;0.3744;0.6940;
1346.1000;0.3753;0.6867;
1346.4000;0.3728;0.6891;
1346.7000;0.3753;0.6940;
1347.0000;0.3785;0.6964;
1347.3000;0.3704;0.6672;
1347.6000;0.3728;0.6672;
1347.9000;0.3720;0.6648;
1348.2000;0.3728;0.6623;
1348.5000;0.3761;0.6769;
1348.8000;0.3720;0.6769;
1349.1000;0.3801;0.7013;
1349.4000;0.3753;0.6915;
1349.7000;0.3728;0.6867;
1350.0000;0.3720;0.6915;
1350.3000;0.3728;0.6964;
1350.6000;0.3736;0.6842;
1350.9000;0.3736;0.6915;
1351.2000;0.3736;0.6794;
1351.5000;0.3736;0.6745;
1351.8000;0.3744;0.6867;
1352.1000;0.3736;0.6842;
1352.4000;0.3720;0.6842;
1352.7000;0.3704;0.6867;
1353.0000;0.3712;0.6964;
1353.3000;0.3753;0.6988;
1353.6000;0.3720;0.6964;
1353.9000;0.3647;0.6769;
1354.2000;0.3728;0.6964;
1354.5000;0.3736;0.7086;
1354.8000;0.3712;0.7037;
1355.1000;0.3736;0.7037;
1355.4000;0.3736;0.7062;
1355.7000;0.3728;0.7062;
1356.0000;0.3655;0.6745;
1356.3000;0.3728;0.7013;
1356.6000;0.3744;0.7086;
1356.9000;0.3753;0.7013;
1357.2000;0.3704;0.6842;
1357.5000;0.3712;0.6818;
1357.8000;0.3728;0.6769;
1358.1000;0.3720;0.6745;
1358.4000;0.3712;0.6745;
1358.7000;0.3736;0.6794;
1359.0000;0.3704;0.6794;
1359.3000;0.3671;0.6794;
1359.6000;0.3736;0.6867;
1359.9000;0.3744;0.6867;
1360.2000;0.3720;0.6818;
1360.5000;0.3704;0.6721;
1360.8000;0.3663;0.6672;
1361.1000;0.3728;0.6867;
1361.4000;0.3728;0.6940;
1361.7000;0.3687;0.6891;
1362.0000;0.3753;0.7086;
1362.3000;0.3744;0.7110;
1362.6000;0.3720;0.7013;
1362.9000;0.3712;0.6964;
1363.2000;0.3736;0.6988;
1363.5000;0.3736;0.6964;
1363.8000;0.3687;0.6867;
1364.1000;0.3712;0.6867;
1364.4000;0.3728;0.6867;
1364.7000;0.3728;0.7037;
1365.0000;0.3712;0.7110;
1365.3000;0.3744;0.7135;
1365.6000;0.3736;0.6988;
1365.9000;0.3736;0.6988;
1366.2000;0.3728;0.6940;
1366.5000;0.3744;0.6915;
1366.8000;0.3736;0.6940;
1367.1000;0.3801;0.6964;
1367.4000;0.3744;0.6891;
1367.7000;0.3728;0.6940;
1368.0000;0.3712;0.6867;
1368.3000;0.3704;0.6721;
1368.6000;0.3736;0.6745;
1368.9000;0.3647;0.6623;
1369.2000;0.3728;0.6794;
1369.5000;0.3728;0.6745;
1369.8000;0.3801;0.6940;
1370.1000;0.3736;0.6794;
1370.4000;0.3720;0.6721;
1370.7000;0.3728;0.6745;
1371.0000;0.3761;0.6891;
1371.3000;0.3744;0.6891;
1371.6000;0.3753;0.6891;
1371.9000;0.3753;0.6915;
1372.2000;0.3753;0.6988;
1372.5000;0.3696;0.6915;
1372.8000;0.3761;0.7159;
1373.1000;0.3728;0.7110;
1373.4000;0.3704;0.7086;
1373.7000;0.3712;0.7159;
1374.0000;0.3720;0.7183;
1374.3000;0.3704;0.7135;
1374.6000;0.3736;0.7159;
1374.9000;0.3736;0.7159;
1375.2000;0.3728;0.7183;
1375.5000;0.3728;0.7135;
1375.8000;0.3728;0.7062;
1376.1000;0.3728;0.7062;
1376.4000;0.3728;0.6940;
1376.7000;0.3728;0.6915;
1377.0000;0.3736;0.6842;
1377.3000;0.3753;0.6818;
1377.6000;0.3744;0.6672;
1377.9000;0.3785;0.6842;
1378.2000;0.3728;0.6818;
1378.5000;0.3728;0.6964;
1378.8000;0.3704;0.6940;
1379.1000;0.3704;0.6964;
1379.4000;0.3696;0.6964;
1379.7000;0.3736;0.7135;
1380.0000;0.3736;0.7135;
1380.3000;0.3736;0.7086;
1380.6000;0.3687;0.7013;
1380.9000;0.3744;0.7062;
1381.2000;0.3728;0.7013;
1381.5000;0.3720;0.7013;
1381.8000;0.3720;0.7013;
1382.1000;0.3704;0.6964;
1382.4000;0.3720;0.6940;
1382.7000;0.3639;0.6672;
1383.0000;0.3728;0.6915;
1383.3000;0.3720;0.7013;
1383.6000;0.3744;0.7183;
1383.9000;0.3728;0.7110;
1384.2000;0.3696;0.6915;
1384.5000;0.3720;0.6915;
1384.8000;0.3736;0.7062;
1385.1000;0.3687;0.6940;
1385.4000;0.3663;0.6867;
1385.7000;0.3655;0.6891;
1386.0000;0.3704;0.6964;
1386.3000;0.3728;0.6988;
1386.6000;0.3720;0.6940;
1386.9000;0.3712;0.6915;
1387.2000;0.3728;0.6867;
1387.5000;0.3712;0.6842;
1387.8000;0.3769;0.7062;
1388.1000;0.3720;0.6940;
1388.4000;0.3728;0.6891;
1388.7000;0.3720;0.6891;
1389.0000;0.3736;0.6964;
1389.3000;0.3696;0.6940;
1389.6000;0.3720;0.6964;
1389.9000;0.3728;0.7013;
1390.2000;0.3744;0.6964;
1390.5000;0.3753;0.7013;
1390.8000;0.3744;0.7013;
1391.1000;0.3736;0.7110;
1391.4000;0.3785;0.7305;
1391.7000;0.3753;0.7256;
1392.0000;0.3720;0.7159;
1392.3000;0.3736;0.7208;
1392.6000;0.3736;0.7159;
1392.9000;0.3744;0.7135;
1393.2000;0.3728;0.7062;
1393.5000;0.3622;0.6696;
1393.8000;0.3728;0.6964;
1394.1000;0.3736;0.6964;
1394.4000;0.3687;0.6818;
1394.7000;0.3753;0.6940;
1395.0000;0.3744;0.6915;
1395.3000;0.3720;0.6891;
1395.6000;0.3761;0.6988;
1395.9000;0.3704;0.6794;
1396.2000;0.3728;0.6891;
1396.5000;0.3736;0.6818;
1396.8000;0.3736;0.6842;
1397.1000;0.3753;0.7013;
1397.4000;0.3769;0.7086;
1397.7000;0.3712;0.6891;
1398.0000;0.3712;0.6891;
1398.3000;0.3712;0.6842;
1398.6000;0.3720;0.6818;
1398.9000;0.3712;0.6891;
1399.2000;0.3744;0.6915;
1399.5000;0.3720;0.6964;
1399.8000;0.3810;0.7256;
