time/ms;Fluo/V;P700 deltaI/I x10³;
-199.8000;0.7888;0.9528;
-199.5000;0.7880;0.9406;
-199.2000;0.7896;0.9406;
-198.9000;0.7920;0.9431;
-198.6000;0.7912;0.9382;
-198.3000;0.7945;0.9503;
-198.0000;0.7912;0.9333;
-197.7000;0.7888;0.9309;
-197.4000;0.7912;0.9431;
-197.1000;0.7863;0.9382;
-196.8000;0.7896;0.9285;
-196.5000;0.7912;0.9333;
-196.2000;0.7945;0.9333;
-195.9000;0.7928;0.9382;
-195.6000;0.7920;0.9503;
-195.3000;0.7904;0.9576;
-195.0000;0.7863;0.9431;
-194.7000;0.7912;0.9503;
-194.4000;0.7896;0.9431;
-194.1000;0.7953;0.9455;
-193.8000;0.7920;0.9358;
-193.5000;0.7888;0.9406;
-193.2000;0.7896;0.9358;
-192.9000;0.7904;0.9358;
-192.6000;0.7953;0.9503;
-192.3000;0.7904;0.9406;
-192.0000;0.7904;0.9431;
-191.7000;0.7904;0.9455;
-191.4000;0.7871;0.9333;
-191.1000;0.7912;0.9382;
-190.8000;0.7863;0.9212;
-190.5000;0.7871;0.9187;
-190.2000;0.7904;0.9285;
-189.9000;0.8026;0.9576;
-189.6000;0.7912;0.9333;
-189.3000;0.7945;0.9455;
-189.0000;0.7937;0.9503;
-188.7000;0.7912;0.9406;
-188.4000;0.7896;0.9431;
-188.1000;0.7920;0.9406;
-187.8000;0.7863;0.9358;
-187.5000;0.7953;0.9455;
-187.2000;0.7823;0.9212;
-186.9000;0.7912;0.9431;
-186.6000;0.7904;0.9333;
-186.3000;0.7912;0.9406;
-186.0000;0.7928;0.9479;
-185.7000;0.7896;0.9382;
-185.4000;0.7896;0.9431;
-185.1000;0.7912;0.9431;
-184.8000;0.7888;0.9358;
-184.5000;0.7945;0.9503;
-184.2000;0.7904;0.9503;
-183.9000;0.7912;0.9503;
-183.6000;0.7896;0.9528;
-183.3000;0.7937;0.9601;
-183.0000;0.7912;0.9674;
-182.7000;0.7912;0.9649;
-182.4000;0.7880;0.9576;
-182.1000;0.7880;0.9528;
-181.8000;0.7904;0.9649;
-181.5000;0.7904;0.9552;
-181.2000;0.7896;0.9528;
-180.9000;0.7888;0.9455;
-180.6000;0.7888;0.9431;
-180.3000;0.7871;0.9479;
-180.0000;0.7904;0.9479;
-179.7000;0.7912;0.9528;
-179.4000;0.7888;0.9406;
-179.1000;0.7912;0.9431;
-178.8000;0.7920;0.9333;
-178.5000;0.7896;0.9309;
-178.2000;0.7888;0.9309;
-177.9000;0.7928;0.9406;
-177.6000;0.7896;0.9431;
-177.3000;0.7928;0.9455;
-177.0000;0.7896;0.9358;
-176.7000;0.7912;0.9358;
-176.4000;0.7904;0.9309;
-176.1000;0.7912;0.9333;
-175.8000;0.7880;0.9455;
-175.5000;0.7912;0.9528;
-175.2000;0.7937;0.9576;
-174.9000;0.7920;0.9576;
-174.6000;0.7904;0.9455;
-174.3000;0.7928;0.9455;
-174.0000;0.7920;0.9358;
-173.7000;0.7896;0.9309;
-173.4000;0.7888;0.9285;
-173.1000;0.7880;0.9455;
-172.8000;0.7920;0.9552;
-172.5000;0.7904;0.9576;
-172.2000;0.7904;0.9576;
-171.9000;0.7912;0.9503;
-171.6000;0.7896;0.9382;
-171.3000;0.7904;0.9333;
-171.0000;0.7896;0.9333;
-170.7000;0.7888;0.9333;
-170.4000;0.7904;0.9333;
-170.1000;0.7888;0.9260;
-169.8000;0.7904;0.9309;
-169.5000;0.7912;0.9358;
-169.2000;0.7920;0.9309;
-168.9000;0.7896;0.9358;
-168.6000;0.7904;0.9358;
-168.3000;0.7904;0.9333;
-168.0000;0.7896;0.9382;
-167.7000;0.7912;0.9552;
-167.4000;0.7896;0.9358;
-167.1000;0.7896;0.9333;
-166.8000;0.7880;0.9333;
-166.5000;0.7920;0.9382;
-166.2000;0.7928;0.9431;
-165.9000;0.7920;0.9406;
-165.6000;0.7896;0.9406;
-165.3000;0.7920;0.9479;
-165.0000;0.7904;0.9528;
-164.7000;0.7912;0.9601;
-164.4000;0.7896;0.9552;
-164.1000;0.7888;0.9528;
-163.8000;0.7912;0.9576;
-163.5000;0.7904;0.9601;
-163.2000;0.7904;0.9528;
-162.9000;0.7928;0.9625;
-162.6000;0.7920;0.9576;
-162.3000;0.7896;0.9528;
-162.0000;0.7904;0.9576;
-161.7000;0.7871;0.9552;
-161.4000;0.7888;0.9503;
-161.1000;0.7896;0.9479;
-160.8000;0.7880;0.9358;
-160.5000;0.7904;0.9358;
-160.2000;0.7888;0.9285;
-159.9000;0.7847;0.9212;
-159.6000;0.7904;0.9431;
-159.3000;0.7880;0.9358;
-159.0000;0.7863;0.9309;
-158.7000;0.7920;0.9431;
-158.4000;0.7880;0.9406;
-158.1000;0.7912;0.9479;
-157.8000;0.7904;0.9406;
-157.5000;0.7896;0.9382;
-157.2000;0.7912;0.9309;
-156.9000;0.7912;0.9358;
-156.6000;0.7904;0.9212;
-156.3000;0.7928;0.9260;
-156.0000;0.7928;0.9358;
-155.7000;0.7912;0.9333;
-155.4000;0.7912;0.9309;
-155.1000;0.7896;0.9309;
-154.8000;0.7937;0.9333;
-154.5000;0.7912;0.9260;
-154.2000;0.7896;0.9236;
-153.9000;0.7896;0.9236;
-153.6000;0.7920;0.9285;
-153.3000;0.7937;0.9358;
-153.0000;0.7920;0.9382;
-152.7000;0.7904;0.9406;
-152.4000;0.7928;0.9382;
-152.1000;0.7912;0.9455;
-151.8000;0.7928;0.9431;
-151.5000;0.7904;0.9382;
-151.2000;0.7896;0.9382;
-150.9000;0.7920;0.9479;
-150.6000;0.7912;0.9406;
-150.3000;0.7904;0.9406;
-150.0000;0.7896;0.9576;
-149.7000;0.7912;0.9601;
-149.4000;0.7920;0.9528;
-149.1000;0.7888;0.9431;
-148.8000;0.7904;0.9406;
-148.5000;0.7912;0.9406;
-148.2000;0.7904;0.9358;
-147.9000;0.7928;0.9309;
-147.6000;0.7896;0.9285;
-147.3000;0.7888;0.9260;
-147.0000;0.7896;0.9285;
-146.7000;0.7904;0.9382;
-146.4000;0.7896;0.9333;
-146.1000;0.7920;0.9382;
-145.8000;0.7912;0.9333;
-145.5000;0.7904;0.9236;
-145.2000;0.7912;0.9260;
-144.9000;0.7896;0.9285;
-144.6000;0.7920;0.9260;
-144.3000;0.7920;0.9260;
-144.0000;0.7912;0.9309;
-143.7000;0.7880;0.9260;
-143.4000;0.7912;0.9406;
-143.1000;0.7928;0.9455;
-142.8000;0.7953;0.9503;
-142.5000;0.7928;0.9431;
-142.2000;0.7896;0.9358;
-141.9000;0.7945;0.9455;
-141.6000;0.7920;0.9406;
-141.3000;0.7880;0.9333;
-141.0000;0.7945;0.9528;
-140.7000;0.7912;0.9382;
-140.4000;0.7928;0.9431;
-140.1000;0.7912;0.9382;
-139.8000;0.7920;0.9382;
-139.5000;0.7888;0.9260;
-139.2000;0.7904;0.9333;
-138.9000;0.7912;0.9309;
-138.6000;0.7912;0.9260;
-138.3000;0.7912;0.9406;
-138.0000;0.7912;0.9431;
-137.7000;0.7945;0.9431;
-137.4000;0.7871;0.9236;
-137.1000;0.7839;0.9115;
-136.8000;0.7920;0.9309;
-136.5000;0.7928;0.9333;
-136.2000;0.7896;0.9236;
-135.9000;0.7896;0.9260;
-135.6000;0.7904;0.9309;
-135.3000;0.7904;0.9333;
-135.0000;0.7904;0.9309;
-134.7000;0.7937;0.9285;
-134.4000;0.7928;0.9333;
-134.1000;0.7961;0.9406;
-133.8000;0.7953;0.9431;
-133.5000;0.7953;0.9479;
-133.2000;0.7904;0.9333;
-132.9000;0.7961;0.9528;
-132.6000;0.7920;0.9406;
-132.3000;0.7896;0.9285;
-132.0000;0.7896;0.9333;
-131.7000;0.7904;0.9406;
-131.4000;0.7888;0.9382;
-131.1000;0.7904;0.9260;
-130.8000;0.7896;0.9236;
-130.5000;0.7920;0.9212;
-130.2000;0.7912;0.9309;
-129.9000;0.7920;0.9333;
-129.6000;0.7888;0.9358;
-129.3000;0.7888;0.9431;
-129.0000;0.7896;0.9552;
-128.7000;0.7953;0.9674;
-128.4000;0.7896;0.9625;
-128.1000;0.7896;0.9698;
-127.8000;0.7888;0.9625;
-127.5000;0.7896;0.9674;
-127.2000;0.7912;0.9722;
-126.9000;0.7896;0.9625;
-126.6000;0.7896;0.9576;
-126.3000;0.7880;0.9576;
-126.0000;0.7888;0.9601;
-125.7000;0.7888;0.9601;
-125.4000;0.7912;0.9576;
-125.1000;0.7896;0.9503;
-124.8000;0.7896;0.9479;
-124.5000;0.7871;0.9382;
-124.2000;0.7880;0.9358;
-123.9000;0.7896;0.9333;
-123.6000;0.7888;0.9236;
-123.3000;0.7912;0.9358;
-123.0000;0.7920;0.9333;
-122.7000;0.7912;0.9309;
-122.4000;0.7920;0.9260;
-122.1000;0.7888;0.9236;
-121.8000;0.7912;0.9187;
-121.5000;0.7953;0.9309;
-121.2000;0.7896;0.9285;
-120.9000;0.7912;0.9236;
-120.6000;0.7904;0.9285;
-120.3000;0.7928;0.9406;
-120.0000;0.7912;0.9358;
-119.7000;0.7904;0.9212;
-119.4000;0.7880;0.9187;
-119.1000;0.7839;0.9066;
-118.8000;0.7888;0.9260;
-118.5000;0.7863;0.9260;
-118.2000;0.7896;0.9455;
-117.9000;0.7904;0.9455;
-117.6000;0.7920;0.9552;
-117.3000;0.7904;0.9576;
-117.0000;0.7920;0.9528;
-116.7000;0.7904;0.9528;
-116.4000;0.7920;0.9528;
-116.1000;0.7912;0.9528;
-115.8000;0.7953;0.9576;
-115.5000;0.7928;0.9649;
-115.2000;0.7937;0.9552;
-114.9000;0.7928;0.9503;
-114.6000;0.7904;0.9431;
-114.3000;0.7912;0.9528;
-114.0000;0.7904;0.9455;
-113.7000;0.7920;0.9552;
-113.4000;0.7896;0.9479;
-113.1000;0.7888;0.9552;
-112.8000;0.7888;0.9576;
-112.5000;0.7904;0.9552;
-112.2000;0.7920;0.9601;
-111.9000;0.7863;0.9333;
-111.6000;0.7904;0.9431;
-111.3000;0.7920;0.9455;
-111.0000;0.7912;0.9431;
-110.7000;0.7928;0.9479;
-110.4000;0.7904;0.9455;
-110.1000;0.7904;0.9455;
-109.8000;0.7904;0.9358;
-109.5000;0.7904;0.9358;
-109.2000;0.7912;0.9431;
-108.9000;0.7969;0.9576;
-108.6000;0.7888;0.9479;
-108.3000;0.7896;0.9528;
-108.0000;0.7945;0.9576;
-107.7000;0.7904;0.9503;
-107.4000;0.7928;0.9528;
-107.1000;0.7937;0.9503;
-106.8000;0.7912;0.9479;
-106.5000;0.7920;0.9455;
-106.2000;0.7904;0.9406;
-105.9000;0.7896;0.9479;
-105.6000;0.7928;0.9503;
-105.3000;0.7937;0.9503;
-105.0000;0.7904;0.9406;
-104.7000;0.7912;0.9382;
-104.4000;0.7896;0.9431;
-104.1000;0.7871;0.9309;
-103.8000;0.7920;0.9479;
-103.5000;0.7937;0.9552;
-103.2000;0.7912;0.9601;
-102.9000;0.7863;0.9503;
-102.6000;0.7985;0.9746;
-102.3000;0.7888;0.9503;
-102.0000;0.7896;0.9552;
-101.7000;0.7888;0.9406;
-101.4000;0.7912;0.9406;
-101.1000;0.7969;0.9552;
-100.8000;0.7912;0.9431;
-100.5000;0.7904;0.9431;
-100.2000;0.7896;0.9406;
-99.9000;0.7896;0.9285;
-99.6000;0.7977;0.9479;
-99.3000;0.7888;0.9333;
-99.0000;0.7904;0.9382;
-98.7000;0.7896;0.9406;
-98.4000;0.7928;0.9455;
-98.1000;0.7904;0.9382;
-97.8000;0.7912;0.9382;
-97.5000;0.7912;0.9431;
-97.2000;0.7904;0.9479;
-96.9000;0.7928;0.9503;
-96.6000;0.7888;0.9358;
-96.3000;0.7977;0.9649;
-96.0000;0.7912;0.9479;
-95.7000;0.7920;0.9503;
-95.4000;0.7871;0.9455;
-95.1000;0.7920;0.9528;
-94.8000;0.7912;0.9406;
-94.5000;0.7912;0.9333;
-94.2000;0.7912;0.9260;
-93.9000;0.7912;0.9212;
-93.6000;0.7904;0.9187;
-93.3000;0.7896;0.9285;
-93.0000;0.7888;0.9260;
-92.7000;0.7896;0.9358;
-92.4000;0.7896;0.9358;
-92.1000;0.7896;0.9285;
-91.8000;0.7904;0.9406;
-91.5000;0.7904;0.9503;
-91.2000;0.7912;0.9528;
-90.9000;0.7928;0.9601;
-90.6000;0.7896;0.9576;
-90.3000;0.7896;0.9576;
-90.0000;0.7904;0.9625;
-89.7000;0.7912;0.9625;
-89.4000;0.7912;0.9528;
-89.1000;0.7912;0.9528;
-88.8000;0.7904;0.9503;
-88.5000;0.7937;0.9674;
-88.2000;0.7904;0.9528;
-87.9000;0.7912;0.9528;
-87.6000;0.7928;0.9528;
-87.3000;0.7920;0.9455;
-87.0000;0.7912;0.9479;
-86.7000;0.7912;0.9479;
-86.4000;0.7969;0.9698;
-86.1000;0.7920;0.9503;
-85.8000;0.7920;0.9406;
-85.5000;0.7904;0.9309;
-85.2000;0.7896;0.9479;
-84.9000;0.7945;0.9576;
-84.6000;0.7928;0.9479;
-84.3000;0.7912;0.9431;
-84.0000;0.7896;0.9431;
-83.7000;0.7896;0.9479;
-83.4000;0.7920;0.9503;
-83.1000;0.7904;0.9382;
-82.8000;0.7896;0.9406;
-82.5000;0.7912;0.9358;
-82.2000;0.7912;0.9358;
-81.9000;0.7912;0.9285;
-81.6000;0.7920;0.9406;
-81.3000;0.7920;0.9431;
-81.0000;0.7888;0.9382;
-80.7000;0.7937;0.9479;
-80.4000;0.7912;0.9285;
-80.1000;0.7896;0.9236;
-79.8000;0.7912;0.9285;
-79.5000;0.7912;0.9309;
-79.2000;0.7896;0.9236;
-78.9000;0.7904;0.9285;
-78.6000;0.7888;0.9260;
-78.3000;0.7904;0.9260;
-78.0000;0.7863;0.9139;
-77.7000;0.7904;0.9139;
-77.4000;0.7904;0.9187;
-77.1000;0.7896;0.9163;
-76.8000;0.7945;0.9260;
-76.5000;0.7904;0.9187;
-76.2000;0.7888;0.9285;
-75.9000;0.7937;0.9382;
-75.6000;0.7912;0.9382;
-75.3000;0.7896;0.9333;
-75.0000;0.7920;0.9406;
-74.7000;0.7912;0.9382;
-74.4000;0.7904;0.9406;
-74.1000;0.7928;0.9479;
-73.8000;0.7912;0.9431;
-73.5000;0.7912;0.9431;
-73.2000;0.7920;0.9455;
-72.9000;0.7920;0.9503;
-72.6000;0.7904;0.9576;
-72.3000;0.7904;0.9455;
-72.0000;0.7928;0.9406;
-71.7000;0.7920;0.9358;
-71.4000;0.7912;0.9358;
-71.1000;0.7928;0.9382;
-70.8000;0.7912;0.9309;
-70.5000;0.7855;0.9163;
-70.2000;0.7920;0.9406;
-69.9000;0.7904;0.9431;
-69.6000;0.7904;0.9503;
-69.3000;0.7904;0.9431;
-69.0000;0.7912;0.9431;
-68.7000;0.7961;0.9625;
-68.4000;0.7888;0.9455;
-68.1000;0.7912;0.9503;
-67.8000;0.7896;0.9431;
-67.5000;0.7904;0.9503;
-67.2000;0.7937;0.9576;
-66.9000;0.7896;0.9479;
-66.6000;0.7896;0.9479;
-66.3000;0.7928;0.9503;
-66.0000;0.7896;0.9601;
-65.7000;0.7920;0.9649;
-65.4000;0.7855;0.9503;
-65.1000;0.7904;0.9625;
-64.8000;0.7847;0.9406;
-64.5000;0.7928;0.9552;
-64.2000;0.7953;0.9625;
-63.9000;0.7969;0.9698;
-63.6000;0.7904;0.9576;
-63.3000;0.7969;0.9722;
-63.0000;0.7912;0.9528;
-62.7000;0.7904;0.9576;
-62.4000;0.7920;0.9552;
-62.1000;0.7920;0.9649;
-61.8000;0.7888;0.9528;
-61.5000;0.7912;0.9576;
-61.2000;0.7920;0.9552;
-60.9000;0.7896;0.9503;
-60.6000;0.7920;0.9576;
-60.3000;0.7904;0.9601;
-60.0000;0.7904;0.9625;
-59.7000;0.7896;0.9625;
-59.4000;0.7904;0.9552;
-59.1000;0.7928;0.9649;
-58.8000;0.7912;0.9698;
-58.5000;0.7904;0.9649;
-58.2000;0.7904;0.9503;
-57.9000;0.7912;0.9406;
-57.6000;0.8010;0.9698;
-57.3000;0.7912;0.9358;
-57.0000;0.7937;0.9479;
-56.7000;0.7945;0.9503;
-56.4000;0.7928;0.9479;
-56.1000;0.7904;0.9455;
-55.8000;0.7912;0.9431;
-55.5000;0.7912;0.9358;
-55.2000;0.7937;0.9406;
-54.9000;0.7912;0.9358;
-54.6000;0.7928;0.9455;
-54.3000;0.7912;0.9479;
-54.0000;0.7920;0.9528;
-53.7000;0.7912;0.9455;
-53.4000;0.7904;0.9382;
-53.1000;0.7904;0.9333;
-52.8000;0.7912;0.9455;
-52.5000;0.7912;0.9503;
-52.2000;0.7904;0.9552;
-51.9000;0.7904;0.9552;
-51.6000;0.7888;0.9479;
-51.3000;0.7896;0.9455;
-51.0000;0.7904;0.9503;
-50.7000;0.7888;0.9503;
-50.4000;0.7896;0.9528;
-50.1000;0.7880;0.9503;
-49.8000;0.7904;0.9528;
-49.5000;0.7904;0.9431;
-49.2000;0.7896;0.9382;
-48.9000;0.7920;0.9455;
-48.6000;0.7920;0.9382;
-48.3000;0.7928;0.9479;
-48.0000;0.7912;0.9431;
-47.7000;0.7937;0.9479;
-47.4000;0.7888;0.9431;
-47.1000;0.7896;0.9455;
-46.8000;0.7920;0.9674;
-46.5000;0.7953;0.9771;
-46.2000;0.7912;0.9576;
-45.9000;0.7920;0.9625;
-45.6000;0.7920;0.9601;
-45.3000;0.7912;0.9625;
-45.0000;0.7904;0.9625;
-44.7000;0.7896;0.9576;
-44.4000;0.7896;0.9601;
-44.1000;0.7904;0.9601;
-43.8000;0.7896;0.9576;
-43.5000;0.7880;0.9576;
-43.2000;0.7904;0.9649;
-42.9000;0.7880;0.9625;
-42.6000;0.7912;0.9819;
-42.3000;0.7896;0.9819;
-42.0000;0.7871;0.9674;
-41.7000;0.7896;0.9746;
-41.4000;0.7871;0.9625;
-41.1000;0.7847;0.9528;
-40.8000;0.7896;0.9576;
-40.5000;0.7880;0.9479;
-40.2000;0.7855;0.9431;
-39.9000;0.7904;0.9552;
-39.6000;0.7912;0.9528;
-39.3000;0.7961;0.9625;
-39.0000;0.7928;0.9503;
-38.7000;0.7904;0.9431;
-38.4000;0.7920;0.9479;
-38.1000;0.8002;0.9795;
-37.8000;0.7920;0.9479;
-37.5000;0.7904;0.9552;
-37.2000;0.7880;0.9528;
-36.9000;0.7912;0.9528;
-36.6000;0.7896;0.9382;
-36.3000;0.7904;0.9358;
-36.0000;0.7896;0.9358;
-35.7000;0.7904;0.9382;
-35.4000;0.7912;0.9431;
-35.1000;0.7912;0.9431;
-34.8000;0.7937;0.9455;
-34.5000;0.7912;0.9431;
-34.2000;0.7888;0.9333;
-33.9000;0.7912;0.9382;
-33.6000;0.7790;0.9139;
-33.3000;0.7896;0.9285;
-33.0000;0.7912;0.9358;
-32.7000;0.7871;0.9333;
-32.4000;0.7871;0.9260;
-32.1000;0.7920;0.9358;
-31.8000;0.7912;0.9431;
-31.5000;0.7880;0.9406;
-31.2000;0.7896;0.9406;
-30.9000;0.7904;0.9406;
-30.6000;0.7839;0.9285;
-30.3000;0.7880;0.9309;
-30.0000;0.7904;0.9406;
-29.7000;0.7904;0.9479;
-29.4000;0.7912;0.9528;
-29.1000;0.7871;0.9479;
-28.8000;0.7912;0.9503;
-28.5000;0.7904;0.9528;
-28.2000;0.7969;0.9528;
-27.9000;0.7888;0.9358;
-27.6000;0.7912;0.9382;
-27.3000;0.7961;0.9576;
-27.0000;0.7928;0.9431;
-26.7000;0.7912;0.9358;
-26.4000;0.7912;0.9431;
-26.1000;0.7937;0.9503;
-25.8000;0.7920;0.9382;
-25.5000;0.7928;0.9285;
-25.2000;0.7863;0.9163;
-24.9000;0.7904;0.9358;
-24.6000;0.7871;0.9309;
-24.3000;0.7977;0.9479;
-24.0000;0.7904;0.9309;
-23.7000;0.7920;0.9406;
-23.4000;0.7961;0.9503;
-23.1000;0.7961;0.9503;
-22.8000;0.7912;0.9309;
-22.5000;0.7871;0.9163;
-22.2000;0.7888;0.9309;
-21.9000;0.7945;0.9455;
-21.6000;0.7920;0.9455;
-21.3000;0.7904;0.9382;
-21.0000;0.7928;0.9528;
-20.7000;0.7953;0.9552;
-20.4000;0.7928;0.9503;
-20.1000;0.7888;0.9455;
-19.8000;0.7937;0.9528;
-19.5000;0.7977;0.9746;
-19.2000;0.7912;0.9649;
-18.9000;0.7928;0.9601;
-18.6000;0.7920;0.9576;
-18.3000;0.7896;0.9528;
-18.0000;0.7920;0.9601;
-17.7000;0.7896;0.9479;
-17.4000;0.7888;0.9431;
-17.1000;0.7888;0.9479;
-16.8000;0.7920;0.9649;
-16.5000;0.7920;0.9649;
-16.2000;0.7888;0.9576;
-15.9000;0.7920;0.9576;
-15.6000;0.7888;0.9382;
-15.3000;0.7920;0.9431;
-15.0000;0.7912;0.9503;
-14.7000;0.7847;0.9333;
-14.4000;0.7904;0.9431;
-14.1000;0.7945;0.9528;
-13.8000;0.7896;0.9455;
-13.5000;0.7912;0.9625;
-13.2000;0.7920;0.9528;
-12.9000;0.7928;0.9479;
-12.6000;0.7896;0.9382;
-12.3000;0.7904;0.9406;
-12.0000;0.7928;0.9431;
-11.7000;0.7912;0.9455;
-11.4000;0.7920;0.9479;
-11.1000;0.7888;0.9431;
-10.8000;0.7904;0.9479;
-10.5000;0.7937;0.9552;
-10.2000;0.7945;0.9552;
-9.9000;0.7937;0.9601;
-9.6000;0.7928;0.9552;
-9.3000;0.7920;0.9455;
-9.0000;0.7831;0.9212;
-8.7000;0.7904;0.9382;
-8.4000;0.7937;0.9455;
-8.1000;0.7904;0.9382;
-7.8000;0.7904;0.9358;
-7.5000;0.7953;0.9479;
-7.2000;0.7896;0.9455;
-6.9000;0.7920;0.9431;
-6.6000;0.7993;0.9552;
-6.3000;0.7888;0.9358;
-6.0000;0.7904;0.9431;
-5.7000;0.7912;0.9358;
-5.4000;0.7888;0.9333;
-5.1000;0.7953;0.9479;
-4.8000;0.7880;0.9212;
-4.5000;0.7928;0.9333;
-4.2000;0.7871;0.9212;
-3.9000;0.7945;0.9358;
-3.6000;0.7904;0.9260;
-3.3000;0.7920;0.9285;
-3.0000;0.7896;0.9163;
-2.7000;0.7880;0.9163;
-2.4000;0.7880;0.9163;
-2.1000;0.7896;0.9260;
-1.8000;0.7871;0.9260;
-1.5000;0.7904;0.9285;
-1.2000;0.7904;0.9260;
-0.9000;0.7904;0.9309;
-0.6000;0.7912;0.9309;
-0.3000;0.7937;0.9333;
0.0000;0.7937;0.9333;
0.3000;0.8213;0.9455;
0.6000;0.8946;1.0087;
0.9000;0.9516;1.0597;
1.2000;0.9988;1.1059;
1.5000;1.0305;1.1399;
1.8000;1.0623;1.1764;
2.1000;1.0851;1.2031;
2.4000;1.1030;1.2299;
2.7000;1.1184;1.2590;
3.0000;1.1306;1.2785;
3.3000;1.1420;1.2906;
3.6000;1.1534;1.3052;
3.9000;1.1591;1.3028;
4.2000;1.1689;1.3125;
4.5000;1.1795;1.3246;
4.8000;1.1811;1.3125;
5.1000;1.1941;1.3392;
5.4000;1.2023;1.3417;
5.7000;1.2088;1.3465;
6.0000;1.2153;1.3514;
6.3000;1.2210;1.3660;
6.6000;1.2267;1.3587;
6.9000;1.2348;1.3538;
7.2000;1.2397;1.3538;
7.5000;1.2479;1.3635;
7.8000;1.2536;1.3538;
8.1000;1.2617;1.3465;
8.4000;1.2658;1.3441;
8.7000;1.2698;1.3344;
9.0000;1.2723;1.3174;
9.3000;1.2821;1.3174;
9.6000;1.2877;1.3198;
9.9000;1.2926;1.3271;
10.2000;1.2975;1.3271;
10.5000;1.3032;1.3295;
10.8000;1.3081;1.3295;
11.1000;1.3122;1.3319;
11.4000;1.3154;1.3295;
11.7000;1.3211;1.3319;
12.0000;1.3260;1.3344;
12.3000;1.3293;1.3295;
12.6000;1.3341;1.3368;
12.9000;1.3341;1.3246;
13.2000;1.3390;1.3246;
13.5000;1.3415;1.3222;
13.8000;1.3480;1.3174;
14.1000;1.3586;1.3417;
14.4000;1.3496;1.3149;
14.7000;1.3586;1.3246;
15.0000;1.3594;1.3271;
15.3000;1.3651;1.3295;
15.6000;1.3700;1.3198;
15.9000;1.3732;1.3125;
16.2000;1.3757;1.3076;
16.5000;1.3773;1.3052;
16.8000;1.3814;1.3028;
17.1000;1.3838;1.3052;
17.4000;1.3854;1.3101;
17.7000;1.3903;1.3076;
18.0000;1.3919;1.3076;
18.3000;1.3936;1.3076;
18.6000;1.3960;1.3149;
18.9000;1.4017;1.3271;
19.2000;1.4025;1.3246;
19.5000;1.4090;1.3392;
19.8000;1.4090;1.3319;
20.1000;1.4098;1.3295;
20.4000;1.4115;1.3344;
20.7000;1.4139;1.3295;
21.0000;1.4180;1.3319;
21.3000;1.4188;1.3392;
21.6000;1.4188;1.3417;
21.9000;1.4204;1.3514;
22.2000;1.4221;1.3514;
22.5000;1.4269;1.3514;
22.8000;1.4253;1.3344;
23.1000;1.4278;1.3319;
23.4000;1.4318;1.3392;
23.7000;1.4310;1.3368;
24.0000;1.4326;1.3392;
24.3000;1.4343;1.3295;
24.6000;1.4343;1.3271;
24.9000;1.4392;1.3319;
25.2000;1.4400;1.3295;
25.5000;1.4392;1.3271;
25.8000;1.4400;1.3319;
26.1000;1.4424;1.3344;
26.4000;1.4416;1.3295;
26.7000;1.4440;1.3246;
27.0000;1.4408;1.3125;
27.3000;1.4473;1.3295;
27.6000;1.4473;1.3319;
27.9000;1.4440;1.3198;
28.2000;1.4497;1.3319;
28.5000;1.4489;1.3319;
28.8000;1.4579;1.3538;
29.1000;1.4514;1.3271;
29.4000;1.4440;1.3125;
29.7000;1.4530;1.3271;
30.0000;1.4546;1.3198;
30.3000;1.4587;1.3271;
30.6000;1.4595;1.3295;
30.9000;1.4571;1.3319;
31.2000;1.4579;1.3344;
31.5000;1.4571;1.3246;
31.8000;1.4603;1.3319;
32.1000;1.4603;1.3174;
32.4000;1.4619;1.3222;
32.7000;1.4644;1.3271;
33.0000;1.4676;1.3441;
33.3000;1.4644;1.3319;
33.6000;1.4660;1.3222;
33.9000;1.4742;1.3441;
34.2000;1.4685;1.3319;
34.5000;1.4652;1.3319;
34.8000;1.4676;1.3368;
35.1000;1.4652;1.3271;
35.4000;1.4799;1.3708;
35.7000;1.4685;1.3465;
36.0000;1.4693;1.3465;
36.3000;1.4701;1.3441;
36.6000;1.4733;1.3514;
36.9000;1.4725;1.3490;
37.2000;1.4733;1.3490;
37.5000;1.4742;1.3538;
37.8000;1.4725;1.3490;
38.1000;1.4742;1.3538;
38.4000;1.4774;1.3490;
38.7000;1.4742;1.3295;
39.0000;1.4733;1.3392;
39.3000;1.4750;1.3441;
39.6000;1.4782;1.3490;
39.9000;1.4766;1.3417;
40.2000;1.4799;1.3465;
40.5000;1.4782;1.3368;
40.8000;1.4799;1.3392;
41.1000;1.4799;1.3417;
41.4000;1.4799;1.3417;
41.7000;1.4815;1.3417;
42.0000;1.4799;1.3368;
42.3000;1.4823;1.3344;
42.6000;1.4856;1.3319;
42.9000;1.4807;1.3295;
43.2000;1.4831;1.3368;
43.5000;1.4807;1.3271;
43.8000;1.4815;1.3392;
44.1000;1.4831;1.3392;
44.4000;1.4823;1.3392;
44.7000;1.4799;1.3198;
45.0000;1.4831;1.3295;
45.3000;1.4839;1.3392;
45.6000;1.4839;1.3392;
45.9000;1.4774;1.3246;
46.2000;1.4864;1.3368;
46.5000;1.4831;1.3246;
46.8000;1.4823;1.3198;
47.1000;1.4856;1.3295;
47.4000;1.4831;1.3174;
47.7000;1.4847;1.3174;
48.0000;1.4872;1.3198;
48.3000;1.4888;1.3222;
48.6000;1.4864;1.3076;
48.9000;1.4823;1.3003;
49.2000;1.4880;1.3149;
49.5000;1.4831;1.2979;
49.8000;1.4880;1.3076;
50.1000;1.4896;1.3076;
50.4000;1.4896;1.3052;
50.7000;1.4896;1.3101;
51.0000;1.4896;1.3052;
51.3000;1.4856;1.2979;
51.6000;1.4904;1.3101;
51.9000;1.4912;1.3101;
52.2000;1.4888;1.3052;
52.5000;1.4945;1.3198;
52.8000;1.4864;1.3101;
53.1000;1.4912;1.3246;
53.4000;1.4896;1.3246;
53.7000;1.4888;1.3198;
54.0000;1.4864;1.3125;
54.3000;1.4896;1.3222;
54.6000;1.4921;1.3271;
54.9000;1.4912;1.3271;
55.2000;1.4937;1.3344;
55.5000;1.4912;1.3174;
55.8000;1.4921;1.3198;
56.1000;1.4937;1.3149;
56.4000;1.4937;1.3198;
56.7000;1.4945;1.3246;
57.0000;1.4896;1.3125;
57.3000;1.4945;1.3271;
57.6000;1.4929;1.3295;
57.9000;1.4945;1.3319;
58.2000;1.4912;1.3271;
58.5000;1.4953;1.3392;
58.8000;1.5002;1.3562;
59.1000;1.4929;1.3344;
59.4000;1.4961;1.3368;
59.7000;1.4945;1.3198;
60.0000;1.4961;1.3222;
60.3000;1.4986;1.3417;
60.6000;1.5002;1.3490;
60.9000;1.4978;1.3490;
61.2000;1.4961;1.3441;
61.5000;1.4961;1.3514;
61.8000;1.4937;1.3490;
62.1000;1.4978;1.3514;
62.4000;1.4986;1.3417;
62.7000;1.4978;1.3344;
63.0000;1.4969;1.3368;
63.3000;1.4978;1.3319;
63.6000;1.4978;1.3222;
63.9000;1.4986;1.3271;
64.2000;1.4978;1.3198;
64.5000;1.5010;1.3271;
64.8000;1.4978;1.3174;
65.1000;1.4978;1.3149;
65.4000;1.5035;1.3271;
65.7000;1.5010;1.3198;
66.0000;1.5010;1.3198;
66.3000;1.5035;1.3295;
66.6000;1.4994;1.3198;
66.9000;1.5051;1.3368;
67.2000;1.5026;1.3319;
67.5000;1.5002;1.3344;
67.8000;1.5010;1.3417;
68.1000;1.5035;1.3441;
68.4000;1.5018;1.3368;
68.7000;1.4945;1.3222;
69.0000;1.5002;1.3392;
69.3000;1.5002;1.3441;
69.6000;1.5010;1.3441;
69.9000;1.5067;1.3538;
70.2000;1.5059;1.3465;
70.5000;1.4994;1.3344;
70.8000;1.5018;1.3344;
71.1000;1.5026;1.3392;
71.4000;1.5018;1.3465;
71.7000;1.5002;1.3465;
72.0000;1.4986;1.3465;
72.3000;1.5026;1.3587;
72.6000;1.5026;1.3514;
72.9000;1.5018;1.3392;
73.2000;1.5018;1.3514;
73.5000;1.5043;1.3587;
73.8000;1.5018;1.3465;
74.1000;1.5026;1.3441;
74.4000;1.5035;1.3368;
74.7000;1.5035;1.3271;
75.0000;1.5010;1.3174;
75.3000;1.5018;1.3319;
75.6000;1.5026;1.3368;
75.9000;1.5018;1.3392;
76.2000;1.5043;1.3441;
76.5000;1.5043;1.3441;
76.8000;1.5116;1.3587;
77.1000;1.5043;1.3368;
77.4000;1.5035;1.3392;
77.7000;1.5035;1.3344;
78.0000;1.5035;1.3271;
78.3000;1.5051;1.3295;
78.6000;1.5043;1.3246;
78.9000;1.5043;1.3222;
79.2000;1.5043;1.3125;
79.5000;1.5043;1.3198;
79.8000;1.5067;1.3295;
80.1000;1.5043;1.3271;
80.4000;1.5059;1.3319;
80.7000;1.5026;1.3246;
81.0000;1.5067;1.3174;
81.3000;1.5075;1.3149;
81.6000;1.5026;1.3076;
81.9000;1.5108;1.3295;
82.2000;1.5043;1.3198;
82.5000;1.5043;1.3101;
82.8000;1.5059;1.3101;
83.1000;1.5059;1.3076;
83.4000;1.5067;1.3003;
83.7000;1.5043;1.2979;
84.0000;1.5051;1.3076;
84.3000;1.5067;1.3174;
84.6000;1.5067;1.3295;
84.9000;1.5051;1.3222;
85.2000;1.5075;1.3246;
85.5000;1.5051;1.3246;
85.8000;1.5043;1.3319;
86.1000;1.5075;1.3587;
86.4000;1.5067;1.3684;
86.7000;1.5116;1.3757;
87.0000;1.5100;1.3587;
87.3000;1.5083;1.3465;
87.6000;1.5083;1.3417;
87.9000;1.5083;1.3319;
88.2000;1.5067;1.3271;
88.5000;1.5100;1.3344;
88.8000;1.5075;1.3198;
89.1000;1.5067;1.3222;
89.4000;1.5092;1.3198;
89.7000;1.5100;1.3295;
90.0000;1.5083;1.3222;
90.3000;1.5108;1.3271;
90.6000;1.5059;1.3174;
90.9000;1.5059;1.3149;
91.2000;1.5092;1.3246;
91.5000;1.5092;1.3222;
91.8000;1.5092;1.3149;
92.1000;1.5100;1.3246;
92.4000;1.5092;1.3319;
92.7000;1.5140;1.3417;
93.0000;1.5092;1.3344;
93.3000;1.5100;1.3344;
93.6000;1.5116;1.3465;
93.9000;1.5075;1.3368;
94.2000;1.5075;1.3392;
94.5000;1.5075;1.3441;
94.8000;1.5092;1.3319;
95.1000;1.5100;1.3344;
95.4000;1.5092;1.3344;
95.7000;1.5100;1.3392;
96.0000;1.5083;1.3417;
96.3000;1.5124;1.3514;
96.6000;1.5092;1.3465;
96.9000;1.5124;1.3562;
97.2000;1.5116;1.3490;
97.5000;1.5100;1.3441;
97.8000;1.5116;1.3368;
98.1000;1.5116;1.3319;
98.4000;1.5067;1.3052;
98.7000;1.5100;1.3052;
99.0000;1.5092;1.3028;
99.3000;1.5083;1.2906;
99.6000;1.5092;1.2906;
99.9000;1.5083;1.2906;
100.2000;1.5083;1.3028;
100.5000;1.5108;1.3222;
100.8000;1.5100;1.3368;
101.1000;1.5100;1.3319;
101.4000;1.5059;1.3295;
101.7000;1.5100;1.3344;
102.0000;1.5132;1.3344;
102.3000;1.5100;1.3222;
102.6000;1.5116;1.3319;
102.9000;1.5124;1.3344;
103.2000;1.5067;1.3174;
103.5000;1.5083;1.3295;
103.8000;1.5100;1.3368;
104.1000;1.5100;1.3344;
104.4000;1.5035;1.3149;
104.7000;1.5067;1.3222;
105.0000;1.5173;1.3490;
105.3000;1.5100;1.3271;
105.6000;1.5116;1.3417;
105.9000;1.5092;1.3368;
106.2000;1.5075;1.3368;
106.5000;1.5124;1.3514;
106.8000;1.5116;1.3562;
107.1000;1.5124;1.3587;
107.4000;1.5108;1.3465;
107.7000;1.5108;1.3417;
108.0000;1.5075;1.3368;
108.3000;1.5116;1.3417;
108.6000;1.5108;1.3368;
108.9000;1.5108;1.3295;
109.2000;1.5075;1.3246;
109.5000;1.5140;1.3441;
109.8000;1.5092;1.3344;
110.1000;1.5108;1.3490;
110.4000;1.5116;1.3490;
110.7000;1.5149;1.3587;
111.0000;1.5124;1.3587;
111.3000;1.5116;1.3562;
111.6000;1.5067;1.3392;
111.9000;1.5124;1.3417;
112.2000;1.5108;1.3441;
112.5000;1.5124;1.3490;
112.8000;1.5108;1.3368;
113.1000;1.5116;1.3392;
113.4000;1.5108;1.3368;
113.7000;1.5116;1.3368;
114.0000;1.5108;1.3344;
114.3000;1.5092;1.3198;
114.6000;1.5116;1.3295;
114.9000;1.5100;1.3319;
115.2000;1.5116;1.3417;
115.5000;1.5140;1.3392;
115.8000;1.5206;1.3562;
116.1000;1.5116;1.3344;
116.4000;1.5067;1.3295;
116.7000;1.5100;1.3319;
117.0000;1.5132;1.3417;
117.3000;1.5067;1.3344;
117.6000;1.5132;1.3490;
117.9000;1.5140;1.3490;
118.2000;1.5132;1.3392;
118.5000;1.5108;1.3368;
118.8000;1.5116;1.3368;
119.1000;1.5132;1.3441;
119.4000;1.5116;1.3441;
119.7000;1.5092;1.3417;
120.0000;1.5140;1.3538;
120.3000;1.5116;1.3514;
120.6000;1.5132;1.3465;
120.9000;1.5132;1.3465;
121.2000;1.5124;1.3417;
121.5000;1.5116;1.3392;
121.8000;1.5108;1.3344;
122.1000;1.5157;1.3417;
122.4000;1.5132;1.3441;
122.7000;1.5132;1.3392;
123.0000;1.5124;1.3344;
123.3000;1.5149;1.3417;
123.6000;1.5124;1.3319;
123.9000;1.5124;1.3368;
124.2000;1.5132;1.3295;
124.5000;1.5140;1.3222;
124.8000;1.5124;1.3174;
125.1000;1.5116;1.3101;
125.4000;1.5189;1.3271;
125.7000;1.5140;1.3222;
126.0000;1.5140;1.3174;
126.3000;1.5132;1.3174;
126.6000;1.5108;1.3101;
126.9000;1.5140;1.3246;
127.2000;1.5132;1.3246;
127.5000;1.5059;1.3101;
127.8000;1.5124;1.3174;
128.1000;1.5189;1.3222;
128.4000;1.5140;1.3149;
128.7000;1.5140;1.3125;
129.0000;1.5124;1.3125;
129.3000;1.5124;1.3003;
129.6000;1.5149;1.2955;
129.9000;1.5132;1.2930;
130.2000;1.5140;1.3076;
130.5000;1.5132;1.3076;
130.8000;1.5132;1.3125;
131.1000;1.5222;1.3319;
131.4000;1.5124;1.3125;
131.7000;1.5132;1.3198;
132.0000;1.5140;1.3246;
132.3000;1.5149;1.3246;
132.6000;1.5124;1.3149;
132.9000;1.5132;1.3125;
133.2000;1.5108;1.3076;
133.5000;1.5149;1.3198;
133.8000;1.5059;1.2979;
134.1000;1.5149;1.3222;
134.4000;1.5140;1.3295;
134.7000;1.5132;1.3271;
135.0000;1.5132;1.3344;
135.3000;1.5181;1.3417;
135.6000;1.5140;1.3246;
135.9000;1.5132;1.3344;
136.2000;1.5140;1.3344;
136.5000;1.5116;1.3368;
136.8000;1.5140;1.3417;
137.1000;1.5124;1.3319;
137.4000;1.5157;1.3319;
137.7000;1.5124;1.3246;
138.0000;1.5132;1.3295;
138.3000;1.5189;1.3465;
138.6000;1.5157;1.3465;
138.9000;1.5157;1.3514;
139.2000;1.5124;1.3441;
139.5000;1.5140;1.3344;
139.8000;1.5140;1.3417;
140.1000;1.5149;1.3392;
140.4000;1.5116;1.3319;
140.7000;1.5140;1.3319;
141.0000;1.5157;1.3417;
141.3000;1.5116;1.3344;
141.6000;1.5124;1.3368;
141.9000;1.5116;1.3246;
142.2000;1.5140;1.3271;
142.5000;1.5157;1.3222;
142.8000;1.5165;1.3222;
143.1000;1.5157;1.3101;
143.4000;1.5214;1.3271;
143.7000;1.5157;1.3125;
144.0000;1.5140;1.3198;
144.3000;1.5149;1.3149;
144.6000;1.5149;1.3174;
144.9000;1.5140;1.3222;
145.2000;1.5132;1.3198;
145.5000;1.5140;1.3344;
145.8000;1.5132;1.3271;
146.1000;1.5140;1.3319;
146.4000;1.5132;1.3222;
146.7000;1.5140;1.3174;
147.0000;1.5124;1.3076;
147.3000;1.5149;1.3149;
147.6000;1.5149;1.3271;
147.9000;1.5140;1.3271;
148.2000;1.5132;1.3246;
148.5000;1.5157;1.3246;
148.8000;1.5165;1.3271;
149.1000;1.5157;1.3246;
149.4000;1.5140;1.3222;
149.7000;1.5157;1.3198;
150.0000;1.5157;1.3149;
150.3000;1.5075;1.2979;
150.6000;1.5132;1.3271;
150.9000;1.5140;1.3368;
151.2000;1.5149;1.3295;
151.5000;1.5181;1.3368;
151.8000;1.5157;1.3368;
152.1000;1.5132;1.3368;
152.4000;1.5165;1.3417;
152.7000;1.5197;1.3490;
153.0000;1.5132;1.3441;
153.3000;1.5149;1.3465;
153.6000;1.5149;1.3465;
153.9000;1.5149;1.3441;
154.2000;1.5149;1.3392;
154.5000;1.5149;1.3465;
154.8000;1.5181;1.3514;
155.1000;1.5149;1.3344;
155.4000;1.5149;1.3271;
155.7000;1.5140;1.3149;
156.0000;1.5140;1.3101;
156.3000;1.5149;1.3125;
156.6000;1.5173;1.3198;
156.9000;1.5132;1.3174;
157.2000;1.5157;1.3271;
157.5000;1.5165;1.3198;
157.8000;1.5165;1.3319;
158.1000;1.5149;1.3319;
158.4000;1.5157;1.3392;
158.7000;1.5132;1.3368;
159.0000;1.5157;1.3319;
159.3000;1.5149;1.3392;
159.6000;1.5140;1.3392;
159.9000;1.5083;1.3319;
160.2000;1.5124;1.3417;
160.5000;1.5149;1.3392;
160.8000;1.5197;1.3514;
161.1000;1.5116;1.3344;
161.4000;1.5124;1.3368;
161.7000;1.5116;1.3295;
162.0000;1.5149;1.3295;
162.3000;1.5197;1.3441;
162.6000;1.5157;1.3417;
162.9000;1.5157;1.3490;
163.2000;1.5157;1.3465;
163.5000;1.5165;1.3562;
163.8000;1.5140;1.3465;
164.1000;1.5173;1.3538;
164.4000;1.5173;1.3562;
164.7000;1.5157;1.3538;
165.0000;1.5149;1.3538;
165.3000;1.5173;1.3611;
165.6000;1.5271;1.3854;
165.9000;1.5132;1.3490;
166.2000;1.5140;1.3417;
166.5000;1.5083;1.3222;
166.8000;1.5100;1.3222;
167.1000;1.5157;1.3368;
167.4000;1.5295;1.3660;
167.7000;1.5165;1.3392;
168.0000;1.5181;1.3417;
168.3000;1.5173;1.3392;
168.6000;1.5157;1.3441;
168.9000;1.5132;1.3392;
169.2000;1.5165;1.3441;
169.5000;1.5157;1.3441;
169.8000;1.5092;1.3368;
170.1000;1.5165;1.3441;
170.4000;1.5165;1.3417;
170.7000;1.5189;1.3417;
171.0000;1.5181;1.3465;
171.3000;1.5140;1.3441;
171.6000;1.5173;1.3441;
171.9000;1.5165;1.3368;
172.2000;1.5149;1.3295;
172.5000;1.5140;1.3319;
172.8000;1.5149;1.3319;
173.1000;1.5157;1.3344;
173.4000;1.5165;1.3441;
173.7000;1.5149;1.3490;
174.0000;1.5181;1.3441;
174.3000;1.5173;1.3441;
174.6000;1.5149;1.3441;
174.9000;1.5157;1.3417;
175.2000;1.5157;1.3344;
175.5000;1.5173;1.3368;
175.8000;1.5165;1.3368;
176.1000;1.5132;1.3392;
176.4000;1.5124;1.3344;
176.7000;1.5165;1.3538;
177.0000;1.5149;1.3344;
177.3000;1.5149;1.3222;
177.6000;1.5140;1.3174;
177.9000;1.5181;1.3271;
178.2000;1.5140;1.3125;
178.5000;1.5173;1.3246;
178.8000;1.5149;1.3246;
179.1000;1.5173;1.3295;
179.4000;1.5173;1.3271;
179.7000;1.5263;1.3417;
180.0000;1.5140;1.3149;
180.3000;1.5140;1.3125;
180.6000;1.5140;1.3125;
180.9000;1.5165;1.3222;
181.2000;1.5149;1.3125;
181.5000;1.5149;1.3198;
181.8000;1.5140;1.3222;
182.1000;1.5149;1.3271;
182.4000;1.5149;1.3246;
182.7000;1.5157;1.3271;
183.0000;1.5165;1.3392;
183.3000;1.5173;1.3417;
183.6000;1.5214;1.3587;
183.9000;1.5149;1.3417;
184.2000;1.5157;1.3417;
184.5000;1.5124;1.3295;
184.8000;1.5140;1.3417;
185.1000;1.5157;1.3465;
185.4000;1.5092;1.3368;
185.7000;1.5214;1.3538;
186.0000;1.5157;1.3392;
186.3000;1.5165;1.3392;
186.6000;1.5222;1.3538;
186.9000;1.5173;1.3392;
187.2000;1.5173;1.3344;
187.5000;1.5165;1.3319;
187.8000;1.5165;1.3271;
188.1000;1.5124;1.3174;
188.4000;1.5181;1.3295;
188.7000;1.5157;1.3271;
189.0000;1.5140;1.3246;
189.3000;1.5140;1.3174;
189.6000;1.5197;1.3271;
189.9000;1.5124;1.3052;
190.2000;1.5197;1.3149;
190.5000;1.5181;1.3101;
190.8000;1.5157;1.3101;
191.1000;1.5157;1.3052;
191.4000;1.5173;1.3174;
191.7000;1.5173;1.3125;
192.0000;1.5124;1.3052;
192.3000;1.5165;1.3101;
192.6000;1.5173;1.3101;
192.9000;1.5165;1.3149;
193.2000;1.5173;1.3222;
193.5000;1.5173;1.3271;
193.8000;1.5165;1.3222;
194.1000;1.5149;1.3125;
194.4000;1.5165;1.3222;
194.7000;1.5149;1.3174;
195.0000;1.5165;1.3198;
195.3000;1.5149;1.3125;
195.6000;1.5157;1.3174;
195.9000;1.5165;1.3101;
196.2000;1.5132;1.2979;
196.5000;1.5149;1.3003;
196.8000;1.5132;1.2979;
197.1000;1.5140;1.3028;
197.4000;1.5181;1.3101;
197.7000;1.5140;1.2979;
198.0000;1.5140;1.3003;
198.3000;1.5165;1.3076;
198.6000;1.5189;1.3271;
198.9000;1.5157;1.3295;
199.2000;1.5157;1.3319;
199.5000;1.5165;1.3344;
199.8000;1.5157;1.3465;
200.1000;1.5149;1.3441;
200.4000;1.5222;1.3562;
200.7000;1.5132;1.3368;
201.0000;1.5149;1.3295;
201.3000;1.5181;1.3319;
201.6000;1.5189;1.3222;
201.9000;1.5140;1.3246;
202.2000;1.5165;1.3271;
202.5000;1.5124;1.3198;
202.8000;1.5132;1.3174;
203.1000;1.5132;1.3246;
203.4000;1.5165;1.3319;
203.7000;1.5189;1.3392;
204.0000;1.5100;1.3101;
204.3000;1.5149;1.3125;
204.6000;1.5157;1.3149;
204.9000;1.5165;1.3003;
205.2000;1.5149;1.2955;
205.5000;1.5165;1.3003;
205.8000;1.5181;1.3076;
206.1000;1.5149;1.3101;
206.4000;1.5173;1.3076;
206.7000;1.5230;1.3198;
207.0000;1.5067;1.2809;
207.3000;1.5149;1.3052;
207.6000;1.5140;1.3052;
207.9000;1.5197;1.3246;
208.2000;1.5157;1.3174;
208.5000;1.5140;1.3198;
208.8000;1.5230;1.3392;
209.1000;1.5157;1.3222;
209.4000;1.5173;1.3271;
209.7000;1.5181;1.3222;
210.0000;1.5173;1.3198;
210.3000;1.5157;1.3149;
210.6000;1.5157;1.3174;
210.9000;1.5181;1.3149;
211.2000;1.5165;1.3003;
211.5000;1.5157;1.2955;
211.8000;1.5165;1.2930;
212.1000;1.5173;1.2979;
212.4000;1.5173;1.3028;
212.7000;1.5173;1.3052;
213.0000;1.5132;1.3052;
213.3000;1.5157;1.3052;
213.6000;1.5157;1.3003;
213.9000;1.5181;1.3125;
214.2000;1.5149;1.3028;
214.5000;1.5140;1.3076;
214.8000;1.5157;1.3101;
215.1000;1.5157;1.3125;
215.4000;1.5157;1.3222;
215.7000;1.5140;1.3198;
216.0000;1.5165;1.3222;
216.3000;1.5173;1.3295;
216.6000;1.5165;1.3149;
216.9000;1.5100;1.3076;
217.2000;1.5157;1.3271;
217.5000;1.5149;1.3271;
217.8000;1.5173;1.3295;
218.1000;1.5149;1.3222;
218.4000;1.5132;1.3198;
218.7000;1.5149;1.3271;
219.0000;1.5149;1.3319;
219.3000;1.5165;1.3271;
219.6000;1.5140;1.3271;
219.9000;1.5165;1.3368;
220.2000;1.5165;1.3319;
220.5000;1.5157;1.3344;
220.8000;1.5157;1.3319;
221.1000;1.5149;1.3392;
221.4000;1.5165;1.3562;
221.7000;1.5149;1.3490;
222.0000;1.5149;1.3490;
222.3000;1.5149;1.3441;
222.6000;1.5124;1.3441;
222.9000;1.5181;1.3611;
223.2000;1.5214;1.3660;
223.5000;1.5092;1.3392;
223.8000;1.5100;1.3392;
224.1000;1.5116;1.3417;
224.4000;1.5149;1.3441;
224.7000;1.5157;1.3392;
225.0000;1.5157;1.3368;
225.3000;1.5157;1.3319;
225.6000;1.5181;1.3392;
225.9000;1.5165;1.3368;
226.2000;1.5149;1.3295;
226.5000;1.5140;1.3344;
226.8000;1.5149;1.3319;
227.1000;1.5140;1.3149;
227.4000;1.5140;1.3198;
227.7000;1.5140;1.3222;
228.0000;1.5165;1.3319;
228.3000;1.5157;1.3295;
228.6000;1.5140;1.3271;
228.9000;1.5157;1.3368;
229.2000;1.5149;1.3368;
229.5000;1.5157;1.3344;
229.8000;1.5132;1.3368;
230.1000;1.5149;1.3392;
230.4000;1.5165;1.3368;
230.7000;1.5149;1.3319;
231.0000;1.5149;1.3295;
231.3000;1.5157;1.3344;
231.6000;1.5165;1.3319;
231.9000;1.5157;1.3295;
232.2000;1.5149;1.3319;
232.5000;1.5165;1.3344;
232.8000;1.5165;1.3392;
233.1000;1.5165;1.3417;
233.4000;1.5157;1.3368;
233.7000;1.5165;1.3295;
234.0000;1.5165;1.3368;
234.3000;1.5165;1.3368;
234.6000;1.5181;1.3417;
234.9000;1.5157;1.3441;
235.2000;1.5157;1.3611;
235.5000;1.5157;1.3490;
235.8000;1.5165;1.3417;
236.1000;1.5157;1.3319;
236.4000;1.5173;1.3295;
236.7000;1.5165;1.3271;
237.0000;1.5189;1.3295;
237.3000;1.5197;1.3392;
237.6000;1.5140;1.3319;
237.9000;1.5149;1.3465;
238.2000;1.5165;1.3538;
238.5000;1.5165;1.3538;
238.8000;1.5149;1.3562;
239.1000;1.5173;1.3587;
239.4000;1.5149;1.3417;
239.7000;1.5165;1.3490;
240.0000;1.5165;1.3417;
240.3000;1.5157;1.3392;
240.6000;1.5140;1.3344;
240.9000;1.5238;1.3587;
241.2000;1.5157;1.3417;
241.5000;1.5165;1.3368;
241.8000;1.5165;1.3417;
242.1000;1.5165;1.3441;
242.4000;1.5149;1.3441;
242.7000;1.5149;1.3392;
243.0000;1.5140;1.3368;
243.3000;1.5157;1.3417;
243.6000;1.5173;1.3319;
243.9000;1.5116;1.3246;
244.2000;1.5173;1.3392;
244.5000;1.5124;1.3246;
244.8000;1.5214;1.3417;
245.1000;1.5222;1.3465;
245.4000;1.5165;1.3392;
245.7000;1.5181;1.3441;
246.0000;1.5181;1.3514;
246.3000;1.5165;1.3465;
246.6000;1.5197;1.3587;
246.9000;1.5132;1.3344;
247.2000;1.5149;1.3271;
247.5000;1.5149;1.3222;
247.8000;1.5124;1.3222;
248.1000;1.5165;1.3344;
248.4000;1.5181;1.3392;
248.7000;1.5165;1.3392;
249.0000;1.5157;1.3441;
249.3000;1.5140;1.3562;
249.6000;1.5165;1.3562;
249.9000;1.5165;1.3660;
250.2000;1.5173;1.3587;
250.5000;1.5165;1.3490;
250.8000;1.5189;1.3490;
251.1000;1.5165;1.3344;
251.4000;1.5149;1.3319;
251.7000;1.5165;1.3368;
252.0000;1.5173;1.3344;
252.3000;1.5181;1.3417;
252.6000;1.5165;1.3441;
252.9000;1.5149;1.3441;
253.2000;1.5197;1.3465;
253.5000;1.5181;1.3417;
253.8000;1.5157;1.3344;
254.1000;1.5149;1.3295;
254.4000;1.5149;1.3368;
254.7000;1.5157;1.3368;
255.0000;1.5173;1.3392;
255.3000;1.5165;1.3344;
255.6000;1.5149;1.3368;
255.9000;1.5157;1.3344;
256.2000;1.5173;1.3392;
256.5000;1.5157;1.3392;
256.8000;1.5149;1.3465;
257.1000;1.5165;1.3490;
257.4000;1.5157;1.3441;
257.7000;1.5157;1.3441;
258.0000;1.5149;1.3417;
258.3000;1.5149;1.3465;
258.6000;1.5173;1.3465;
258.9000;1.5149;1.3319;
259.2000;1.5157;1.3271;
259.5000;1.5157;1.3246;
259.8000;1.5165;1.3271;
260.1000;1.5173;1.3319;
260.4000;1.5189;1.3441;
260.7000;1.5181;1.3417;
261.0000;1.5230;1.3587;
261.3000;1.5189;1.3441;
261.6000;1.5181;1.3465;
261.9000;1.5165;1.3465;
262.2000;1.5181;1.3441;
262.5000;1.5165;1.3392;
262.8000;1.5181;1.3392;
263.1000;1.5149;1.3295;
263.4000;1.5157;1.3368;
263.7000;1.5157;1.3392;
264.0000;1.5157;1.3344;
264.3000;1.5157;1.3295;
264.6000;1.5149;1.3295;
264.9000;1.5189;1.3271;
265.2000;1.5149;1.3246;
265.5000;1.5132;1.3271;
265.8000;1.5157;1.3368;
266.1000;1.5149;1.3368;
266.4000;1.5165;1.3417;
266.7000;1.5157;1.3368;
267.0000;1.5157;1.3319;
267.3000;1.5124;1.3295;
267.6000;1.5181;1.3417;
267.9000;1.5149;1.3441;
268.2000;1.5140;1.3392;
268.5000;1.5214;1.3611;
268.8000;1.5165;1.3587;
269.1000;1.5149;1.3562;
269.4000;1.5132;1.3538;
269.7000;1.5181;1.3611;
270.0000;1.5124;1.3465;
270.3000;1.5165;1.3611;
270.6000;1.5157;1.3514;
270.9000;1.5165;1.3465;
271.2000;1.5189;1.3538;
271.5000;1.5181;1.3538;
271.8000;1.5214;1.3538;
272.1000;1.5181;1.3465;
272.4000;1.5165;1.3392;
272.7000;1.5157;1.3368;
273.0000;1.5140;1.3295;
273.3000;1.5149;1.3392;
273.6000;1.5100;1.3295;
273.9000;1.5165;1.3368;
274.2000;1.5149;1.3295;
274.5000;1.5132;1.3295;
274.8000;1.5140;1.3344;
275.1000;1.5149;1.3441;
275.4000;1.5157;1.3344;
275.7000;1.5173;1.3392;
276.0000;1.5140;1.3368;
276.3000;1.5181;1.3465;
276.6000;1.5246;1.3562;
276.9000;1.5165;1.3344;
277.2000;1.5157;1.3344;
277.5000;1.5157;1.3441;
277.8000;1.5132;1.3417;
278.1000;1.5149;1.3392;
278.4000;1.5157;1.3417;
278.7000;1.5197;1.3538;
279.0000;1.5173;1.3441;
279.3000;1.5140;1.3417;
279.6000;1.5149;1.3441;
279.9000;1.5149;1.3319;
280.2000;1.5173;1.3319;
280.5000;1.5181;1.3392;
280.8000;1.5173;1.3368;
281.1000;1.5165;1.3441;
281.4000;1.5165;1.3441;
281.7000;1.5124;1.3295;
282.0000;1.5165;1.3319;
282.3000;1.5149;1.3271;
282.6000;1.5124;1.3271;
282.9000;1.5157;1.3392;
283.2000;1.5157;1.3368;
283.5000;1.5165;1.3465;
283.8000;1.5181;1.3514;
284.1000;1.5165;1.3490;
284.4000;1.5140;1.3417;
284.7000;1.5157;1.3465;
285.0000;1.5149;1.3465;
285.3000;1.5173;1.3490;
285.6000;1.5132;1.3368;
285.9000;1.5157;1.3392;
286.2000;1.5157;1.3319;
286.5000;1.5157;1.3319;
286.8000;1.5173;1.3271;
287.1000;1.5157;1.3344;
287.4000;1.5157;1.3271;
287.7000;1.5157;1.3368;
288.0000;1.5181;1.3465;
288.3000;1.5075;1.3174;
288.6000;1.5157;1.3441;
288.9000;1.5173;1.3441;
289.2000;1.5157;1.3417;
289.5000;1.5165;1.3514;
289.8000;1.5157;1.3514;
290.1000;1.5230;1.3708;
290.4000;1.5165;1.3562;
290.7000;1.5149;1.3514;
291.0000;1.5140;1.3319;
291.3000;1.5100;1.3174;
291.6000;1.5173;1.3490;
291.9000;1.5173;1.3465;
292.2000;1.5173;1.3465;
292.5000;1.5157;1.3295;
292.8000;1.5157;1.3319;
293.1000;1.5108;1.3271;
293.4000;1.5157;1.3344;
293.7000;1.5140;1.3295;
294.0000;1.5254;1.3538;
294.3000;1.5108;1.3198;
294.6000;1.5010;1.2930;
294.9000;1.5140;1.3198;
295.2000;1.5157;1.3222;
295.5000;1.5165;1.3246;
295.8000;1.5165;1.3246;
296.1000;1.5165;1.3295;
296.4000;1.5157;1.3295;
296.7000;1.5165;1.3319;
297.0000;1.5165;1.3271;
297.3000;1.5157;1.3271;
297.6000;1.5092;1.3198;
297.9000;1.5149;1.3344;
298.2000;1.5157;1.3344;
298.5000;1.5116;1.3319;
298.8000;1.5132;1.3319;
299.1000;1.5149;1.3319;
299.4000;1.5157;1.3344;
299.7000;1.5149;1.3417;
300.0000;1.5173;1.3490;
300.3000;1.5157;1.3441;
300.6000;1.5189;1.3587;
300.9000;1.5132;1.3514;
301.2000;1.5165;1.3611;
301.5000;1.5157;1.3514;
301.8000;1.5173;1.3514;
302.1000;1.5165;1.3587;
302.4000;1.5157;1.3490;
302.7000;1.5100;1.3465;
303.0000;1.5173;1.3562;
303.3000;1.5197;1.3587;
303.6000;1.5132;1.3490;
303.9000;1.5165;1.3562;
304.2000;1.5149;1.3490;
304.5000;1.5157;1.3490;
304.8000;1.5165;1.3490;
305.1000;1.5165;1.3441;
305.4000;1.5149;1.3441;
305.7000;1.5157;1.3490;
306.0000;1.5165;1.3417;
306.3000;1.5157;1.3417;
306.6000;1.5149;1.3368;
306.9000;1.5173;1.3465;
307.2000;1.5173;1.3514;
307.5000;1.5165;1.3514;
307.8000;1.5165;1.3587;
308.1000;1.5149;1.3562;
308.4000;1.5173;1.3611;
308.7000;1.5173;1.3587;
309.0000;1.5116;1.3465;
309.3000;1.5132;1.3465;
309.6000;1.5173;1.3538;
309.9000;1.5157;1.3465;
310.2000;1.5181;1.3465;
310.5000;1.5157;1.3392;
310.8000;1.5165;1.3465;
311.1000;1.5181;1.3635;
311.4000;1.5181;1.3611;
311.7000;1.5124;1.3635;
312.0000;1.5132;1.3660;
312.3000;1.5140;1.3587;
312.6000;1.5132;1.3538;
312.9000;1.5149;1.3635;
313.2000;1.5157;1.3587;
313.5000;1.5157;1.3635;
313.8000;1.5165;1.3684;
314.1000;1.5173;1.3660;
314.4000;1.5092;1.3465;
314.7000;1.5157;1.3635;
315.0000;1.5173;1.3514;
315.3000;1.5189;1.3562;
315.6000;1.5165;1.3538;
315.9000;1.5173;1.3465;
316.2000;1.5173;1.3490;
316.5000;1.5173;1.3587;
316.8000;1.5149;1.3538;
317.1000;1.5165;1.3611;
317.4000;1.5092;1.3368;
317.7000;1.5108;1.3465;
318.0000;1.5140;1.3465;
318.3000;1.5157;1.3538;
318.6000;1.5157;1.3538;
318.9000;1.5165;1.3490;
319.2000;1.5140;1.3344;
319.5000;1.5140;1.3417;
319.8000;1.5157;1.3490;
320.1000;1.5149;1.3441;
320.4000;1.5149;1.3490;
320.7000;1.5132;1.3417;
321.0000;1.5140;1.3392;
321.3000;1.5173;1.3538;
321.6000;1.5238;1.3660;
321.9000;1.5140;1.3441;
322.2000;1.5157;1.3465;
322.5000;1.5173;1.3538;
322.8000;1.5165;1.3611;
323.1000;1.5149;1.3538;
323.4000;1.5140;1.3514;
323.7000;1.5157;1.3417;
324.0000;1.5149;1.3319;
324.3000;1.5149;1.3222;
324.6000;1.5165;1.3271;
324.9000;1.5149;1.3246;
325.2000;1.5149;1.3222;
325.5000;1.5149;1.3174;
325.8000;1.5157;1.3125;
326.1000;1.5165;1.3174;
326.4000;1.5140;1.3198;
326.7000;1.5157;1.3246;
327.0000;1.5140;1.3344;
327.3000;1.5140;1.3344;
327.6000;1.5165;1.3319;
327.9000;1.5165;1.3271;
328.2000;1.5165;1.3344;
328.5000;1.5165;1.3344;
328.8000;1.5173;1.3344;
329.1000;1.5165;1.3368;
329.4000;1.5165;1.3417;
329.7000;1.5149;1.3392;
330.0000;1.5157;1.3465;
330.3000;1.5149;1.3490;
330.6000;1.5132;1.3441;
330.9000;1.5124;1.3368;
331.2000;1.5165;1.3441;
331.5000;1.5165;1.3465;
331.8000;1.5157;1.3490;
332.1000;1.5157;1.3538;
332.4000;1.5157;1.3490;
332.7000;1.5157;1.3490;
333.0000;1.5149;1.3417;
333.3000;1.5197;1.3538;
333.6000;1.5157;1.3514;
333.9000;1.5165;1.3587;
334.2000;1.5149;1.3587;
334.5000;1.5157;1.3708;
334.8000;1.5271;1.3927;
335.1000;1.5173;1.3635;
335.4000;1.5189;1.3708;
335.7000;1.5140;1.3587;
336.0000;1.5197;1.3660;
336.3000;1.5173;1.3514;
336.6000;1.5149;1.3490;
336.9000;1.5157;1.3417;
337.2000;1.5165;1.3344;
337.5000;1.5181;1.3344;
337.8000;1.5181;1.3465;
338.1000;1.5157;1.3441;
338.4000;1.5165;1.3465;
338.7000;1.5181;1.3538;
339.0000;1.5165;1.3441;
339.3000;1.5173;1.3392;
339.6000;1.5165;1.3344;
339.9000;1.5149;1.3246;
340.2000;1.5181;1.3271;
340.5000;1.5149;1.3344;
340.8000;1.5149;1.3441;
341.1000;1.5157;1.3465;
341.4000;1.5157;1.3562;
341.7000;1.5165;1.3538;
342.0000;1.5173;1.3514;
342.3000;1.5149;1.3417;
342.6000;1.5165;1.3490;
342.9000;1.5157;1.3490;
343.2000;1.5165;1.3490;
343.5000;1.5157;1.3562;
343.8000;1.5140;1.3587;
344.1000;1.5165;1.3660;
344.4000;1.5157;1.3708;
344.7000;1.5149;1.3611;
345.0000;1.5149;1.3611;
345.3000;1.5197;1.3708;
345.6000;1.5149;1.3587;
345.9000;1.5124;1.3490;
346.2000;1.5157;1.3490;
346.5000;1.5165;1.3441;
346.8000;1.5173;1.3441;
347.1000;1.5149;1.3465;
347.4000;1.5173;1.3417;
347.7000;1.5108;1.3246;
348.0000;1.5173;1.3441;
348.3000;1.5157;1.3441;
348.6000;1.5157;1.3417;
348.9000;1.5181;1.3417;
349.2000;1.5165;1.3392;
349.5000;1.5165;1.3319;
349.8000;1.5173;1.3417;
350.1000;1.5149;1.3392;
350.4000;1.5165;1.3368;
350.7000;1.5165;1.3417;
351.0000;1.5140;1.3344;
351.3000;1.5181;1.3441;
351.6000;1.5173;1.3368;
351.9000;1.5165;1.3344;
352.2000;1.5140;1.3295;
352.5000;1.5165;1.3295;
352.8000;1.5165;1.3271;
353.1000;1.5165;1.3295;
353.4000;1.5157;1.3271;
353.7000;1.5149;1.3246;
354.0000;1.5149;1.3222;
354.3000;1.5157;1.3319;
354.6000;1.5157;1.3368;
354.9000;1.5140;1.3319;
355.2000;1.5132;1.3392;
355.5000;1.5149;1.3417;
355.8000;1.5108;1.3368;
356.1000;1.5124;1.3417;
356.4000;1.5132;1.3490;
356.7000;1.5149;1.3465;
357.0000;1.5140;1.3441;
357.3000;1.5157;1.3392;
357.6000;1.5149;1.3344;
357.9000;1.5197;1.3417;
358.2000;1.5157;1.3417;
358.5000;1.5238;1.3587;
358.8000;1.5149;1.3368;
359.1000;1.5157;1.3344;
359.4000;1.5132;1.3368;
359.7000;1.5165;1.3465;
360.0000;1.5149;1.3465;
360.3000;1.5075;1.3319;
360.6000;1.5108;1.3441;
360.9000;1.5157;1.3611;
361.2000;1.5157;1.3538;
361.5000;1.5140;1.3441;
361.8000;1.5157;1.3392;
362.1000;1.5149;1.3344;
362.4000;1.5132;1.3319;
362.7000;1.5116;1.3222;
363.0000;1.5149;1.3198;
363.3000;1.5157;1.3246;
363.6000;1.5140;1.3174;
363.9000;1.5140;1.3174;
364.2000;1.5189;1.3295;
364.5000;1.5149;1.3246;
364.8000;1.5214;1.3490;
365.1000;1.5132;1.3368;
365.4000;1.5140;1.3271;
365.7000;1.5165;1.3222;
366.0000;1.5157;1.3222;
366.3000;1.5181;1.3246;
366.6000;1.5165;1.3295;
366.9000;1.5165;1.3344;
367.2000;1.5165;1.3295;
367.5000;1.5157;1.3246;
367.8000;1.5157;1.3174;
368.1000;1.5157;1.3222;
368.4000;1.5157;1.3198;
368.7000;1.5100;1.3125;
369.0000;1.5165;1.3319;
369.3000;1.5157;1.3368;
369.6000;1.5173;1.3417;
369.9000;1.5165;1.3465;
370.2000;1.5214;1.3587;
370.5000;1.5149;1.3441;
370.8000;1.5149;1.3441;
371.1000;1.5132;1.3368;
371.4000;1.5149;1.3368;
371.7000;1.5149;1.3368;
372.0000;1.5165;1.3344;
372.3000;1.5157;1.3392;
372.6000;1.5140;1.3319;
372.9000;1.5149;1.3319;
373.2000;1.5165;1.3295;
373.5000;1.5165;1.3295;
373.8000;1.5157;1.3295;
374.1000;1.5157;1.3417;
374.4000;1.5173;1.3514;
374.7000;1.5149;1.3441;
375.0000;1.5165;1.3538;
375.3000;1.5140;1.3392;
375.6000;1.5140;1.3490;
375.9000;1.5165;1.3417;
376.2000;1.5132;1.3441;
376.5000;1.5132;1.3417;
376.8000;1.5165;1.3441;
377.1000;1.5165;1.3490;
377.4000;1.5100;1.3319;
377.7000;1.5165;1.3490;
378.0000;1.5165;1.3465;
378.3000;1.5173;1.3490;
378.6000;1.5165;1.3465;
378.9000;1.5173;1.3465;
379.2000;1.5157;1.3441;
379.5000;1.5157;1.3465;
379.8000;1.5149;1.3490;
380.1000;1.5157;1.3392;
380.4000;1.5149;1.3295;
380.7000;1.5157;1.3368;
381.0000;1.5149;1.3441;
381.3000;1.5157;1.3417;
381.6000;1.5132;1.3465;
381.9000;1.5092;1.3319;
382.2000;1.5092;1.3295;
382.5000;1.5140;1.3465;
382.8000;1.5173;1.3538;
383.1000;1.5149;1.3441;
383.4000;1.5173;1.3441;
383.7000;1.5149;1.3368;
384.0000;1.5132;1.3319;
384.3000;1.5132;1.3246;
384.6000;1.5149;1.3319;
384.9000;1.5173;1.3319;
385.2000;1.5173;1.3319;
385.5000;1.5165;1.3344;
385.8000;1.5149;1.3246;
386.1000;1.5116;1.3174;
386.4000;1.5173;1.3319;
386.7000;1.5157;1.3319;
387.0000;1.5140;1.3417;
387.3000;1.5165;1.3514;
387.6000;1.5149;1.3514;
387.9000;1.5124;1.3319;
388.2000;1.5157;1.3344;
388.5000;1.5165;1.3368;
388.8000;1.5165;1.3368;
389.1000;1.5263;1.3465;
389.4000;1.5189;1.3295;
389.7000;1.5173;1.3344;
390.0000;1.5189;1.3417;
390.3000;1.5165;1.3344;
390.6000;1.5165;1.3319;
390.9000;1.5173;1.3417;
391.2000;1.5165;1.3368;
391.5000;1.5157;1.3344;
391.8000;1.5100;1.3222;
392.1000;1.5157;1.3392;
392.4000;1.5149;1.3319;
392.7000;1.5149;1.3295;
393.0000;1.5140;1.3246;
393.3000;1.5132;1.3222;
393.6000;1.5165;1.3392;
393.9000;1.5157;1.3417;
394.2000;1.5140;1.3368;
394.5000;1.5149;1.3392;
394.8000;1.5124;1.3392;
395.1000;1.5140;1.3441;
395.4000;1.5149;1.3490;
395.7000;1.5206;1.3635;
396.0000;1.5140;1.3490;
396.3000;1.5140;1.3514;
396.6000;1.5149;1.3514;
396.9000;1.5197;1.3538;
397.2000;1.5157;1.3392;
397.5000;1.5132;1.3392;
397.8000;1.5083;1.3149;
398.1000;1.5173;1.3392;
398.4000;1.5165;1.3465;
398.7000;1.5157;1.3465;
399.0000;1.5165;1.3441;
399.3000;1.5132;1.3417;
399.6000;1.5157;1.3417;
399.9000;1.5165;1.3490;
400.2000;1.5157;1.3368;
400.5000;1.5149;1.3295;
400.8000;1.5132;1.3246;
401.1000;1.5149;1.3246;
401.4000;1.5157;1.3246;
401.7000;1.5165;1.3125;
402.0000;1.5116;1.3028;
402.3000;1.5132;1.3076;
402.6000;1.5149;1.3125;
402.9000;1.5157;1.3125;
403.2000;1.5157;1.3003;
403.5000;1.5157;1.2906;
403.8000;1.5157;1.2955;
404.1000;1.5165;1.3052;
404.4000;1.5149;1.3076;
404.7000;1.5116;1.3003;
405.0000;1.5157;1.3028;
405.3000;1.5108;1.2955;
405.6000;1.5124;1.2979;
405.9000;1.5116;1.2955;
406.2000;1.5116;1.3101;
406.5000;1.5140;1.3149;
406.8000;1.5124;1.3198;
407.1000;1.5157;1.3295;
407.4000;1.5149;1.3319;
407.7000;1.5149;1.3271;
408.0000;1.5108;1.3271;
408.3000;1.5124;1.3392;
408.6000;1.5132;1.3344;
408.9000;1.5149;1.3392;
409.2000;1.5157;1.3295;
409.5000;1.5116;1.3198;
409.8000;1.5124;1.3222;
410.1000;1.5140;1.3271;
410.4000;1.5197;1.3344;
410.7000;1.5157;1.3246;
411.0000;1.5092;1.3052;
411.3000;1.5132;1.3149;
411.6000;1.5157;1.3198;
411.9000;1.5108;1.3174;
412.2000;1.5157;1.3149;
412.5000;1.5165;1.3149;
412.8000;1.5157;1.3149;
413.1000;1.5140;1.3149;
413.4000;1.5149;1.3222;
413.7000;1.5173;1.3392;
414.0000;1.5157;1.3368;
414.3000;1.5165;1.3392;
414.6000;1.5149;1.3344;
414.9000;1.5149;1.3295;
415.2000;1.5165;1.3392;
415.5000;1.5157;1.3368;
415.8000;1.5140;1.3344;
416.1000;1.5132;1.3344;
416.4000;1.5132;1.3344;
416.7000;1.5206;1.3587;
417.0000;1.5157;1.3392;
417.3000;1.5189;1.3441;
417.6000;1.5140;1.3319;
417.9000;1.5157;1.3368;
418.2000;1.5140;1.3368;
418.5000;1.5157;1.3417;
418.8000;1.5140;1.3295;
419.1000;1.5149;1.3222;
419.4000;1.5165;1.3271;
419.7000;1.5116;1.3149;
420.0000;1.5149;1.3198;
420.3000;1.5157;1.3222;
420.6000;1.5157;1.3222;
420.9000;1.5132;1.3222;
421.2000;1.5140;1.3174;
421.5000;1.5157;1.3198;
421.8000;1.5149;1.3149;
422.1000;1.5132;1.3198;
422.4000;1.5140;1.3271;
422.7000;1.5140;1.3222;
423.0000;1.5140;1.3222;
423.3000;1.5165;1.3222;
423.6000;1.5140;1.3222;
423.9000;1.5140;1.3271;
424.2000;1.5157;1.3295;
424.5000;1.5165;1.3319;
424.8000;1.5149;1.3246;
425.1000;1.5140;1.3295;
425.4000;1.5132;1.3271;
425.7000;1.5165;1.3246;
426.0000;1.5149;1.3246;
426.3000;1.5149;1.3295;
426.6000;1.5157;1.3319;
426.9000;1.5157;1.3319;
427.2000;1.5165;1.3368;
427.5000;1.5149;1.3295;
427.8000;1.5116;1.3222;
428.1000;1.5157;1.3344;
428.4000;1.5165;1.3417;
428.7000;1.5157;1.3319;
429.0000;1.5157;1.3319;
429.3000;1.5100;1.3125;
429.6000;1.5165;1.3295;
429.9000;1.5181;1.3368;
430.2000;1.5165;1.3344;
430.5000;1.5149;1.3344;
430.8000;1.5181;1.3295;
431.1000;1.5165;1.3101;
431.4000;1.5132;1.3028;
431.7000;1.5173;1.3076;
432.0000;1.5092;1.2930;
432.3000;1.5140;1.3101;
432.6000;1.5157;1.3198;
432.9000;1.5206;1.3319;
433.2000;1.5149;1.3271;
433.5000;1.5149;1.3344;
433.8000;1.5140;1.3246;
434.1000;1.5157;1.3222;
434.4000;1.5222;1.3441;
434.7000;1.5108;1.3149;
435.0000;1.5092;1.3101;
435.3000;1.5149;1.3222;
435.6000;1.5124;1.3174;
435.9000;1.5165;1.3295;
436.2000;1.5165;1.3246;
436.5000;1.5132;1.3246;
436.8000;1.5140;1.3222;
437.1000;1.5165;1.3295;
437.4000;1.5157;1.3295;
437.7000;1.5132;1.3246;
438.0000;1.5165;1.3295;
438.3000;1.5157;1.3417;
438.6000;1.5173;1.3392;
438.9000;1.5165;1.3368;
439.2000;1.5173;1.3392;
439.5000;1.5165;1.3368;
439.8000;1.5173;1.3441;
440.1000;1.5140;1.3392;
440.4000;1.5116;1.3344;
440.7000;1.5132;1.3417;
441.0000;1.5140;1.3465;
441.3000;1.5140;1.3441;
441.6000;1.5132;1.3490;
441.9000;1.5132;1.3417;
442.2000;1.5165;1.3417;
442.5000;1.5157;1.3514;
442.8000;1.5181;1.3465;
443.1000;1.5165;1.3368;
443.4000;1.5173;1.3368;
443.7000;1.5149;1.3392;
444.0000;1.5181;1.3465;
444.3000;1.5165;1.3490;
444.6000;1.5149;1.3441;
444.9000;1.5157;1.3441;
445.2000;1.5254;1.3684;
445.5000;1.5149;1.3417;
445.8000;1.5173;1.3441;
446.1000;1.5189;1.3514;
446.4000;1.5157;1.3465;
446.7000;1.5165;1.3417;
447.0000;1.5157;1.3490;
447.3000;1.5181;1.3538;
447.6000;1.5230;1.3587;
447.9000;1.5140;1.3368;
448.2000;1.5157;1.3417;
448.5000;1.5149;1.3368;
448.8000;1.5108;1.3271;
449.1000;1.5149;1.3319;
449.4000;1.5092;1.3246;
449.7000;1.5157;1.3319;
450.0000;1.5165;1.3392;
450.3000;1.5149;1.3319;
450.6000;1.5116;1.3246;
450.9000;1.5124;1.3198;
451.2000;1.5140;1.3198;
451.5000;1.5132;1.3246;
451.8000;1.5140;1.3295;
452.1000;1.5157;1.3392;
452.4000;1.5157;1.3417;
452.7000;1.5149;1.3465;
453.0000;1.5124;1.3392;
453.3000;1.5222;1.3611;
453.6000;1.5181;1.3490;
453.9000;1.5149;1.3392;
454.2000;1.5157;1.3344;
454.5000;1.5149;1.3319;
454.8000;1.5140;1.3465;
455.1000;1.5149;1.3538;
455.4000;1.5140;1.3490;
455.7000;1.5149;1.3319;
456.0000;1.5149;1.3295;
456.3000;1.5173;1.3465;
456.6000;1.5108;1.3271;
456.9000;1.5140;1.3417;
457.2000;1.5181;1.3465;
457.5000;1.5108;1.3295;
457.8000;1.5116;1.3392;
458.1000;1.5132;1.3392;
458.4000;1.5132;1.3319;
458.7000;1.5157;1.3295;
459.0000;1.5157;1.3295;
459.3000;1.5140;1.3246;
459.6000;1.5116;1.3174;
459.9000;1.5140;1.3198;
460.2000;1.5149;1.3174;
460.5000;1.5140;1.3174;
460.8000;1.5149;1.3246;
461.1000;1.5116;1.3149;
461.4000;1.5140;1.3271;
461.7000;1.5140;1.3246;
462.0000;1.5124;1.3125;
462.3000;1.5116;1.3149;
462.6000;1.5140;1.3198;
462.9000;1.5116;1.3198;
463.2000;1.5149;1.3295;
463.5000;1.5157;1.3319;
463.8000;1.5263;1.3514;
464.1000;1.5165;1.3368;
464.4000;1.5116;1.3271;
464.7000;1.5157;1.3392;
465.0000;1.5149;1.3319;
465.3000;1.5140;1.3174;
465.6000;1.5140;1.3149;
465.9000;1.5165;1.3271;
466.2000;1.5157;1.3246;
466.5000;1.5173;1.3295;
466.8000;1.5140;1.3246;
467.1000;1.5157;1.3174;
467.4000;1.5157;1.3222;
467.7000;1.5140;1.3222;
468.0000;1.5173;1.3319;
468.3000;1.5165;1.3295;
468.6000;1.5165;1.3246;
468.9000;1.5189;1.3319;
469.2000;1.5157;1.3222;
469.5000;1.5149;1.3149;
469.8000;1.5140;1.3028;
470.1000;1.5165;1.3076;
470.4000;1.5132;1.3125;
470.7000;1.5108;1.3052;
471.0000;1.5189;1.3222;
471.3000;1.5140;1.3271;
471.6000;1.5173;1.3344;
471.9000;1.5100;1.3101;
472.2000;1.5140;1.3198;
472.5000;1.5149;1.3295;
472.8000;1.5263;1.3587;
473.1000;1.5149;1.3295;
473.4000;1.5132;1.3271;
473.7000;1.5149;1.3149;
474.0000;1.5165;1.3271;
474.3000;1.5157;1.3271;
474.6000;1.5157;1.3295;
474.9000;1.5149;1.3198;
475.2000;1.5157;1.3271;
475.5000;1.5149;1.3271;
475.8000;1.5149;1.3319;
476.1000;1.5157;1.3295;
476.4000;1.5173;1.3344;
476.7000;1.5173;1.3344;
477.0000;1.5165;1.3295;
477.3000;1.5132;1.3271;
477.6000;1.5140;1.3368;
477.9000;1.5149;1.3392;
478.2000;1.5100;1.3319;
478.5000;1.5132;1.3417;
478.8000;1.5100;1.3368;
479.1000;1.5206;1.3611;
479.4000;1.5132;1.3392;
479.7000;1.5149;1.3465;
480.0000;1.5149;1.3319;
480.3000;1.5149;1.3441;
480.6000;1.5140;1.3344;
480.9000;1.5157;1.3295;
481.2000;1.5059;1.2979;
481.5000;1.5165;1.3271;
481.8000;1.5140;1.3246;
482.1000;1.5132;1.3198;
482.4000;1.5132;1.3198;
482.7000;1.5124;1.3174;
483.0000;1.5149;1.3198;
483.3000;1.5140;1.3149;
483.6000;1.5140;1.3174;
483.9000;1.5116;1.3149;
484.2000;1.5157;1.3246;
484.5000;1.5149;1.3246;
484.8000;1.5132;1.3295;
485.1000;1.5140;1.3319;
485.4000;1.5165;1.3319;
485.7000;1.5140;1.3222;
486.0000;1.5132;1.3174;
486.3000;1.5157;1.3222;
486.6000;1.5140;1.3271;
486.9000;1.5246;1.3587;
487.2000;1.5132;1.3319;
487.5000;1.5140;1.3319;
487.8000;1.5124;1.3319;
488.1000;1.5157;1.3441;
488.4000;1.5100;1.3295;
488.7000;1.5140;1.3392;
489.0000;1.5124;1.3392;
489.3000;1.5157;1.3417;
489.6000;1.5132;1.3319;
489.9000;1.5206;1.3441;
490.2000;1.5140;1.3246;
490.5000;1.5124;1.3295;
490.8000;1.5149;1.3198;
491.1000;1.5165;1.3125;
491.4000;1.5132;1.3028;
491.7000;1.5140;1.3174;
492.0000;1.5165;1.3222;
492.3000;1.5132;1.3125;
492.6000;1.5165;1.3149;
492.9000;1.5140;1.3174;
493.2000;1.5140;1.3222;
493.5000;1.5149;1.3222;
493.8000;1.5140;1.3246;
494.1000;1.5140;1.3295;
494.4000;1.5157;1.3344;
494.7000;1.5132;1.3319;
495.0000;1.5132;1.3246;
495.3000;1.5140;1.3319;
495.6000;1.5075;1.3101;
495.9000;1.5140;1.3222;
496.2000;1.5165;1.3222;
496.5000;1.5165;1.3198;
496.8000;1.5140;1.3198;
497.1000;1.5149;1.3222;
497.4000;1.5132;1.3246;
497.7000;1.5149;1.3246;
498.0000;1.5197;1.3514;
498.3000;1.5140;1.3319;
498.6000;1.5140;1.3392;
498.9000;1.5116;1.3368;
499.2000;1.5124;1.3344;
499.5000;1.5140;1.3344;
499.8000;1.5140;1.3392;
500.1000;1.5132;1.3295;
500.4000;1.5124;1.3295;
500.7000;1.5149;1.3392;
501.0000;1.5149;1.3562;
501.3000;1.5116;1.3490;
501.6000;1.5124;1.3514;
501.9000;1.5108;1.3465;
502.2000;1.5083;1.3490;
502.5000;1.4969;1.3174;
502.8000;1.5197;1.3684;
503.1000;1.5189;1.3635;
503.4000;1.5173;1.3514;
503.7000;1.5140;1.3441;
504.0000;1.5140;1.3417;
504.3000;1.5140;1.3417;
504.6000;1.5149;1.3465;
504.9000;1.5173;1.3490;
505.2000;1.5165;1.3368;
505.5000;1.5206;1.3392;
505.8000;1.5157;1.3295;
506.1000;1.5165;1.3295;
506.4000;1.5157;1.3246;
506.7000;1.5149;1.3174;
507.0000;1.5149;1.3198;
507.3000;1.5149;1.3222;
507.6000;1.5124;1.3271;
507.9000;1.5140;1.3295;
508.2000;1.5132;1.3319;
508.5000;1.5116;1.3271;
508.8000;1.5124;1.3295;
509.1000;1.5124;1.3198;
509.4000;1.5132;1.3174;
509.7000;1.5124;1.3222;
510.0000;1.5140;1.3246;
510.3000;1.5124;1.3149;
510.6000;1.5132;1.3174;
510.9000;1.5165;1.3246;
511.2000;1.5132;1.3222;
511.5000;1.5149;1.3319;
511.8000;1.5132;1.3295;
512.1000;1.5132;1.3246;
512.4000;1.5140;1.3246;
512.7000;1.5083;1.3052;
513.0000;1.5132;1.3246;
513.3000;1.5116;1.3222;
513.6000;1.5140;1.3222;
513.9000;1.5132;1.3125;
514.2000;1.5140;1.3052;
514.5000;1.5124;1.3076;
514.8000;1.5149;1.3028;
515.1000;1.5165;1.3076;
515.4000;1.5157;1.3149;
515.7000;1.5140;1.3198;
516.0000;1.5157;1.3246;
516.3000;1.5165;1.3271;
516.6000;1.5149;1.3246;
516.9000;1.5140;1.3271;
517.2000;1.5149;1.3344;
517.5000;1.5181;1.3514;
517.8000;1.5132;1.3490;
518.1000;1.5132;1.3465;
518.4000;1.5124;1.3392;
518.7000;1.5149;1.3392;
519.0000;1.5116;1.3319;
519.3000;1.5140;1.3368;
519.6000;1.5083;1.3246;
519.9000;1.5157;1.3490;
520.2000;1.5132;1.3562;
520.5000;1.5140;1.3635;
520.8000;1.5165;1.3660;
521.1000;1.5140;1.3562;
521.4000;1.5165;1.3635;
521.7000;1.5140;1.3635;
522.0000;1.5124;1.3514;
522.3000;1.5149;1.3514;
522.6000;1.5157;1.3514;
522.9000;1.5149;1.3417;
523.2000;1.5149;1.3344;
523.5000;1.5165;1.3344;
523.8000;1.5165;1.3441;
524.1000;1.5149;1.3344;
524.4000;1.5124;1.3392;
524.7000;1.5108;1.3392;
525.0000;1.5100;1.3392;
525.3000;1.5132;1.3562;
525.6000;1.5116;1.3490;
525.9000;1.5140;1.3562;
526.2000;1.5132;1.3514;
526.5000;1.5140;1.3635;
526.8000;1.5132;1.3611;
527.1000;1.5092;1.3441;
527.4000;1.5140;1.3611;
527.7000;1.5140;1.3490;
528.0000;1.5026;1.3198;
528.3000;1.5124;1.3490;
528.6000;1.5026;1.3246;
528.9000;1.5140;1.3514;
529.2000;1.5124;1.3465;
529.5000;1.5132;1.3441;
529.8000;1.5149;1.3441;
530.1000;1.5149;1.3490;
530.4000;1.5149;1.3465;
530.7000;1.5149;1.3344;
531.0000;1.5157;1.3344;
531.3000;1.5116;1.3198;
531.6000;1.5140;1.3198;
531.9000;1.5149;1.3271;
532.2000;1.5140;1.3246;
532.5000;1.5132;1.3271;
532.8000;1.5149;1.3246;
533.1000;1.5116;1.3174;
533.4000;1.5116;1.3246;
533.7000;1.5140;1.3222;
534.0000;1.5124;1.3222;
534.3000;1.5140;1.3319;
534.6000;1.5132;1.3344;
534.9000;1.5083;1.3198;
535.2000;1.5165;1.3295;
535.5000;1.5157;1.3417;
535.8000;1.5149;1.3344;
536.1000;1.5173;1.3222;
536.4000;1.5157;1.3222;
536.7000;1.5149;1.3246;
537.0000;1.5124;1.3295;
537.3000;1.5124;1.3295;
537.6000;1.5132;1.3319;
537.9000;1.5116;1.3246;
538.2000;1.5124;1.3246;
538.5000;1.5108;1.3174;
538.8000;1.5140;1.3246;
539.1000;1.5132;1.3198;
539.4000;1.5165;1.3246;
539.7000;1.5116;1.3125;
540.0000;1.5132;1.3149;
540.3000;1.5173;1.3344;
540.6000;1.5149;1.3271;
540.9000;1.5116;1.3198;
541.2000;1.5116;1.3174;
541.5000;1.5149;1.3295;
541.8000;1.5116;1.3222;
542.1000;1.5132;1.3295;
542.4000;1.5124;1.3246;
542.7000;1.5157;1.3344;
543.0000;1.5140;1.3174;
543.3000;1.5132;1.3198;
543.6000;1.5108;1.3174;
543.9000;1.5149;1.3246;
544.2000;1.5149;1.3222;
544.5000;1.5197;1.3417;
544.8000;1.5140;1.3271;
545.1000;1.5140;1.3246;
545.4000;1.5124;1.3198;
545.7000;1.5149;1.3295;
546.0000;1.5173;1.3417;
546.3000;1.5116;1.3246;
546.6000;1.5124;1.3344;
546.9000;1.5165;1.3392;
547.2000;1.5157;1.3392;
547.5000;1.5116;1.3271;
547.8000;1.5140;1.3295;
548.1000;1.5108;1.3198;
548.4000;1.5173;1.3344;
548.7000;1.5140;1.3222;
549.0000;1.5140;1.3246;
549.3000;1.5165;1.3319;
549.6000;1.5124;1.3271;
549.9000;1.5140;1.3392;
550.2000;1.5026;1.3149;
550.5000;1.5149;1.3465;
550.8000;1.5149;1.3514;
551.1000;1.5132;1.3368;
551.4000;1.5124;1.3319;
551.7000;1.5140;1.3344;
552.0000;1.5140;1.3295;
552.3000;1.5140;1.3368;
552.6000;1.5124;1.3368;
552.9000;1.5124;1.3465;
553.2000;1.5132;1.3465;
553.5000;1.5140;1.3368;
553.8000;1.5124;1.3295;
554.1000;1.5124;1.3246;
554.4000;1.5124;1.3222;
554.7000;1.5124;1.3222;
555.0000;1.5124;1.3222;
555.3000;1.5124;1.3295;
555.6000;1.5124;1.3246;
555.9000;1.5165;1.3392;
556.2000;1.5132;1.3392;
556.5000;1.5100;1.3319;
556.8000;1.5043;1.3319;
557.1000;1.5140;1.3562;
557.4000;1.5140;1.3514;
557.7000;1.5108;1.3392;
558.0000;1.5132;1.3368;
558.3000;1.5116;1.3271;
558.6000;1.5132;1.3295;
558.9000;1.5140;1.3319;
559.2000;1.5140;1.3295;
559.5000;1.5165;1.3344;
559.8000;1.5116;1.3271;
560.1000;1.5132;1.3222;
560.4000;1.5132;1.3149;
560.7000;1.5124;1.3198;
561.0000;1.5132;1.3222;
561.3000;1.5116;1.3149;
561.6000;1.5108;1.3052;
561.9000;1.5140;1.3198;
562.2000;1.5149;1.3198;
562.5000;1.5149;1.3271;
562.8000;1.5108;1.3246;
563.1000;1.5140;1.3271;
563.4000;1.5140;1.3271;
563.7000;1.5149;1.3295;
564.0000;1.5083;1.3101;
564.3000;1.5116;1.3125;
564.6000;1.5214;1.3344;
564.9000;1.5132;1.3222;
565.2000;1.5124;1.3222;
565.5000;1.5108;1.3271;
565.8000;1.5124;1.3295;
566.1000;1.5116;1.3295;
566.4000;1.5132;1.3319;
566.7000;1.5140;1.3295;
567.0000;1.5132;1.3271;
567.3000;1.5116;1.3295;
567.6000;1.5116;1.3222;
567.9000;1.5157;1.3222;
568.2000;1.5132;1.3246;
568.5000;1.5165;1.3295;
568.8000;1.5124;1.3125;
569.1000;1.5132;1.3149;
569.4000;1.5140;1.3174;
569.7000;1.5140;1.3174;
570.0000;1.5149;1.3174;
570.3000;1.5132;1.3222;
570.6000;1.5124;1.3246;
570.9000;1.5149;1.3319;
571.2000;1.5124;1.3417;
571.5000;1.5075;1.3222;
571.8000;1.5132;1.3319;
572.1000;1.5108;1.3246;
572.4000;1.5149;1.3344;
572.7000;1.5132;1.3198;
573.0000;1.5124;1.3125;
573.3000;1.5132;1.3174;
573.6000;1.5157;1.3149;
573.9000;1.5149;1.3125;
574.2000;1.5132;1.3125;
574.5000;1.5116;1.3125;
574.8000;1.5214;1.3344;
575.1000;1.5140;1.3295;
575.4000;1.5132;1.3222;
575.7000;1.5124;1.3149;
576.0000;1.5132;1.3101;
576.3000;1.5132;1.3174;
576.6000;1.5116;1.3271;
576.9000;1.5149;1.3368;
577.2000;1.5124;1.3319;
577.5000;1.5157;1.3368;
577.8000;1.5140;1.3392;
578.1000;1.5132;1.3368;
578.4000;1.5132;1.3368;
578.7000;1.5140;1.3465;
579.0000;1.5140;1.3514;
579.3000;1.5124;1.3417;
579.6000;1.5140;1.3295;
579.9000;1.5116;1.3246;
580.2000;1.5116;1.3319;
580.5000;1.5116;1.3295;
580.8000;1.5132;1.3295;
581.1000;1.5132;1.3222;
581.4000;1.5116;1.3101;
581.7000;1.5108;1.3052;
582.0000;1.5132;1.3076;
582.3000;1.5132;1.3101;
582.6000;1.5149;1.3198;
582.9000;1.5140;1.3198;
583.2000;1.5124;1.3101;
583.5000;1.5149;1.3198;
583.8000;1.5197;1.3271;
584.1000;1.5140;1.3125;
584.4000;1.5124;1.3125;
584.7000;1.5108;1.3125;
585.0000;1.5149;1.3222;
585.3000;1.5140;1.3222;
585.6000;1.5116;1.3149;
585.9000;1.5018;1.2833;
586.2000;1.5132;1.3101;
586.5000;1.5132;1.3198;
586.8000;1.5149;1.3222;
587.1000;1.5132;1.3246;
587.4000;1.5116;1.3246;
587.7000;1.5287;1.3611;
588.0000;1.5149;1.3417;
588.3000;1.5157;1.3392;
588.6000;1.5173;1.3441;
588.9000;1.5108;1.3222;
589.2000;1.5149;1.3246;
589.5000;1.5100;1.3174;
589.8000;1.5149;1.3368;
590.1000;1.5124;1.3344;
590.4000;1.5189;1.3441;
590.7000;1.5140;1.3319;
591.0000;1.5214;1.3465;
591.3000;1.5140;1.3222;
591.6000;1.5140;1.3271;
591.9000;1.5132;1.3344;
592.2000;1.5140;1.3392;
592.5000;1.5149;1.3368;
592.8000;1.5189;1.3392;
593.1000;1.5140;1.3295;
593.4000;1.5189;1.3562;
593.7000;1.5149;1.3465;
594.0000;1.5132;1.3441;
594.3000;1.5140;1.3441;
594.6000;1.5197;1.3514;
594.9000;1.5116;1.3319;
595.2000;1.5116;1.3271;
595.5000;1.5140;1.3368;
595.8000;1.5214;1.3587;
596.1000;1.5124;1.3319;
596.4000;1.5132;1.3368;
596.7000;1.5051;1.3246;
597.0000;1.5124;1.3368;
597.3000;1.5132;1.3368;
597.6000;1.5132;1.3344;
597.9000;1.5116;1.3319;
598.2000;1.5132;1.3344;
598.5000;1.5140;1.3344;
598.8000;1.5116;1.3271;
599.1000;1.5124;1.3222;
599.4000;1.5124;1.3198;
599.7000;1.5116;1.3246;
600.0000;1.5108;1.3271;
600.3000;1.5116;1.3222;
600.6000;1.5059;1.2979;
600.9000;1.4969;1.2809;
601.2000;1.4823;1.2639;
601.5000;1.4799;1.2736;
601.8000;1.4571;1.2274;
602.1000;1.4416;1.2007;
602.4000;1.4253;1.1861;
602.7000;1.4131;1.1691;
603.0000;1.4025;1.1618;
603.3000;1.3879;1.1399;
603.6000;1.3732;1.1302;
603.9000;1.3626;1.1253;
604.2000;1.3618;1.1351;
604.5000;1.3447;1.1083;
604.8000;1.3268;1.0840;
605.1000;1.3228;1.0962;
605.4000;1.3171;1.0962;
605.7000;1.3073;1.0889;
606.0000;1.2991;1.0816;
606.3000;1.2902;1.0767;
606.6000;1.2837;1.0670;
606.9000;1.2739;1.0549;
607.2000;1.2666;1.0549;
607.5000;1.2601;1.0451;
607.8000;1.2544;1.0403;
608.1000;1.2454;1.0281;
608.4000;1.2381;1.0087;
608.7000;1.2324;1.0014;
609.0000;1.2324;1.0208;
609.3000;1.2202;1.0111;
609.6000;1.2112;1.0038;
609.9000;1.2072;1.0111;
610.2000;1.2023;1.0062;
610.5000;1.1950;1.0038;
610.8000;1.1893;1.0062;
611.1000;1.1852;1.0038;
611.4000;1.1787;1.0014;
611.7000;1.1770;0.9965;
612.0000;1.1681;0.9868;
612.3000;1.1632;0.9892;
612.6000;1.1575;0.9917;
612.9000;1.1477;0.9674;
613.2000;1.1502;0.9722;
613.5000;1.1355;0.9455;
613.8000;1.1372;0.9649;
614.1000;1.1323;0.9722;
614.4000;1.1274;0.9674;
614.7000;1.1249;0.9722;
615.0000;1.1176;0.9698;
615.3000;1.1193;0.9795;
615.6000;1.1087;0.9625;
615.9000;1.1054;0.9625;
616.2000;1.1038;0.9649;
616.5000;1.0965;0.9625;
616.8000;1.0940;0.9528;
617.1000;1.0908;0.9601;
617.4000;1.0932;0.9746;
617.7000;1.0818;0.9479;
618.0000;1.0810;0.9503;
618.3000;1.0737;0.9382;
618.6000;1.0794;0.9455;
618.9000;1.0663;0.9358;
619.2000;1.0623;0.9382;
619.5000;1.0582;0.9382;
619.8000;1.0574;0.9455;
620.1000;1.0549;0.9431;
620.4000;1.0509;0.9382;
620.7000;1.0427;0.9163;
621.0000;1.0444;0.9212;
621.3000;1.0387;0.9212;
621.6000;1.0370;0.9163;
621.9000;1.0330;0.9066;
622.2000;1.0289;0.9066;
622.5000;1.0265;0.9066;
622.8000;1.0224;0.9017;
623.1000;1.0216;0.9042;
623.4000;1.0175;0.9066;
623.7000;1.0167;0.9139;
624.0000;1.0134;0.9163;
624.3000;1.0102;0.9163;
624.6000;1.0085;0.9139;
624.9000;1.0061;0.9066;
625.2000;1.0004;0.8969;
625.5000;0.9972;0.8920;
625.8000;0.9963;0.8944;
626.1000;0.9939;0.8969;
626.4000;0.9915;0.9042;
626.7000;0.9906;0.9115;
627.0000;0.9866;0.9017;
627.3000;0.9833;0.8969;
627.6000;0.9817;0.8847;
627.9000;0.9809;0.8920;
628.2000;0.9792;0.8847;
628.5000;0.9752;0.8847;
628.8000;0.9735;0.8750;
629.1000;0.9703;0.8750;
629.4000;0.9687;0.8774;
629.7000;0.9654;0.8750;
630.0000;0.9630;0.8701;
630.3000;0.9605;0.8726;
630.6000;0.9597;0.8920;
630.9000;0.9524;0.8750;
631.2000;0.9556;0.8823;
631.5000;0.9516;0.8823;
631.8000;0.9516;0.8896;
632.1000;0.9499;0.8896;
632.4000;0.9475;0.8871;
632.7000;0.9434;0.8920;
633.0000;0.9418;0.8944;
633.3000;0.9377;0.8920;
633.6000;0.9418;0.8993;
633.9000;0.9369;0.8871;
634.2000;0.9345;0.8774;
634.5000;0.9402;0.8969;
634.8000;0.9345;0.8896;
635.1000;0.9345;0.8920;
635.4000;0.9280;0.8774;
635.7000;0.9247;0.8799;
636.0000;0.9255;0.8896;
636.3000;0.9174;0.8701;
636.6000;0.9206;0.8823;
636.9000;0.9198;0.8799;
637.2000;0.9198;0.8847;
637.5000;0.9182;0.8823;
637.8000;0.9214;0.8969;
638.1000;0.9133;0.8774;
638.4000;0.9011;0.8531;
638.7000;0.9133;0.8896;
639.0000;0.9101;0.8750;
639.3000;0.9125;0.8823;
639.6000;0.9076;0.8701;
639.9000;0.9060;0.8726;
640.2000;0.9060;0.8701;
640.5000;0.9027;0.8653;
640.8000;0.8962;0.8531;
641.1000;0.8995;0.8580;
641.4000;0.8978;0.8580;
641.7000;0.8954;0.8531;
642.0000;0.8946;0.8604;
642.3000;0.9011;0.8774;
642.6000;0.8913;0.8653;
642.9000;0.8921;0.8750;
643.2000;0.8913;0.8750;
643.5000;0.8938;0.8944;
643.8000;0.8856;0.8823;
644.1000;0.8864;0.8871;
644.4000;0.8840;0.8871;
644.7000;0.8783;0.8847;
645.0000;0.8824;0.8993;
645.3000;0.8824;0.9017;
645.6000;0.8783;0.8993;
645.9000;0.8767;0.8871;
646.2000;0.8775;0.8896;
646.5000;0.8751;0.8847;
646.8000;0.8742;0.8847;
647.1000;0.8734;0.8871;
647.4000;0.8726;0.8823;
647.7000;0.8710;0.8774;
648.0000;0.8718;0.8847;
648.3000;0.8751;0.9042;
648.6000;0.8718;0.9066;
648.9000;0.8694;0.9017;
649.2000;0.8685;0.9017;
649.5000;0.8653;0.8969;
649.8000;0.8653;0.8944;
650.1000;0.8637;0.8944;
650.4000;0.8620;0.8944;
650.7000;0.8669;0.8969;
651.0000;0.8604;0.8896;
651.3000;0.8604;0.8920;
651.6000;0.8588;0.8969;
651.9000;0.8563;0.9042;
652.2000;0.8547;0.8993;
652.5000;0.8563;0.9042;
652.8000;0.8555;0.8993;
653.1000;0.8547;0.9090;
653.4000;0.8531;0.8969;
653.7000;0.8547;0.9017;
654.0000;0.8514;0.8920;
654.3000;0.8506;0.8920;
654.6000;0.8482;0.8969;
654.9000;0.8498;0.9017;
655.2000;0.8400;0.8847;
655.5000;0.8466;0.9017;
655.8000;0.8457;0.9017;
656.1000;0.8441;0.9042;
656.4000;0.8441;0.8993;
656.7000;0.8417;0.9017;
657.0000;0.8409;0.9042;
657.3000;0.8409;0.9066;
657.6000;0.8409;0.9066;
657.9000;0.8409;0.9017;
658.2000;0.8392;0.9017;
658.5000;0.8392;0.8920;
658.8000;0.8368;0.8920;
659.1000;0.8384;0.8969;
659.4000;0.8360;0.8944;
659.7000;0.8344;0.8920;
660.0000;0.8352;0.8920;
660.3000;0.8335;0.8799;
660.6000;0.8311;0.8726;
660.9000;0.8384;0.8920;
661.2000;0.8319;0.8823;
661.5000;0.8311;0.8847;
661.8000;0.8319;0.8871;
662.1000;0.8303;0.8750;
662.4000;0.8278;0.8701;
662.7000;0.8270;0.8701;
663.0000;0.8270;0.8726;
663.3000;0.8221;0.8628;
663.6000;0.8238;0.8750;
663.9000;0.8262;0.8799;
664.2000;0.8246;0.8750;
664.5000;0.8124;0.8410;
664.8000;0.8205;0.8628;
665.1000;0.8164;0.8531;
665.4000;0.8221;0.8653;
665.7000;0.8189;0.8701;
666.0000;0.8189;0.8799;
666.3000;0.8148;0.8750;
666.6000;0.8213;0.8847;
666.9000;0.8181;0.8726;
667.2000;0.8156;0.8750;
667.5000;0.8164;0.8774;
667.8000;0.8140;0.8677;
668.1000;0.8148;0.8750;
668.4000;0.8132;0.8726;
668.7000;0.8124;0.8774;
669.0000;0.8124;0.8750;
669.3000;0.8107;0.8799;
669.6000;0.8083;0.8774;
669.9000;0.8091;0.8896;
670.2000;0.8107;0.8944;
670.5000;0.8099;0.8993;
670.8000;0.8075;0.8847;
671.1000;0.8075;0.8920;
671.4000;0.8083;0.8847;
671.7000;0.8026;0.8677;
672.0000;0.8083;0.8823;
672.3000;0.8067;0.8726;
672.6000;0.8042;0.8653;
672.9000;0.8034;0.8677;
673.2000;0.8067;0.8847;
673.5000;0.8018;0.8750;
673.8000;0.8018;0.8726;
674.1000;0.8050;0.8774;
674.4000;0.8034;0.8847;
674.7000;0.8010;0.8774;
675.0000;0.7993;0.8750;
675.3000;0.7961;0.8774;
675.6000;0.8002;0.8823;
675.9000;0.8002;0.8726;
676.2000;0.8002;0.8677;
676.5000;0.7985;0.8774;
676.8000;0.7969;0.8823;
677.1000;0.7977;0.8847;
677.4000;0.7961;0.8774;
677.7000;0.7920;0.8726;
678.0000;0.7969;0.8847;
678.3000;0.7945;0.8726;
678.6000;0.7945;0.8628;
678.9000;0.7928;0.8677;
679.2000;0.7945;0.8726;
679.5000;0.7928;0.8677;
679.8000;0.7937;0.8750;
680.1000;0.7912;0.8726;
680.4000;0.7904;0.8774;
680.7000;0.7920;0.8871;
681.0000;0.7863;0.8750;
681.3000;0.7880;0.8774;
681.6000;0.7904;0.8774;
681.9000;0.7912;0.8823;
682.2000;0.7904;0.8799;
682.5000;0.7880;0.8750;
682.8000;0.7880;0.8774;
683.1000;0.7880;0.8701;
683.4000;0.7896;0.8726;
683.7000;0.7863;0.8677;
684.0000;0.7831;0.8580;
684.3000;0.7863;0.8604;
684.6000;0.7839;0.8628;
684.9000;0.7831;0.8677;
685.2000;0.7831;0.8750;
685.5000;0.7847;0.8750;
685.8000;0.7839;0.8701;
686.1000;0.7831;0.8628;
686.4000;0.7871;0.8701;
686.7000;0.7806;0.8701;
687.0000;0.7782;0.8628;
687.3000;0.7839;0.8774;
687.6000;0.7823;0.8847;
687.9000;0.7814;0.8920;
688.2000;0.7798;0.8847;
688.5000;0.7782;0.8896;
688.8000;0.7798;0.8774;
689.1000;0.7798;0.8701;
689.4000;0.7790;0.8701;
689.7000;0.7806;0.8628;
690.0000;0.7749;0.8507;
690.3000;0.7790;0.8628;
690.6000;0.7790;0.8701;
690.9000;0.7774;0.8604;
691.2000;0.7757;0.8677;
691.5000;0.7757;0.8726;
691.8000;0.7749;0.8628;
692.1000;0.7766;0.8750;
692.4000;0.7749;0.8750;
692.7000;0.7757;0.8750;
693.0000;0.7725;0.8628;
693.3000;0.7725;0.8750;
693.6000;0.7725;0.8799;
693.9000;0.7725;0.8726;
694.2000;0.7717;0.8896;
694.5000;0.7733;0.8920;
694.8000;0.7725;0.8871;
695.1000;0.7717;0.8896;
695.4000;0.7733;0.8896;
695.7000;0.7668;0.8750;
696.0000;0.7668;0.8677;
696.3000;0.7684;0.8701;
696.6000;0.7709;0.8799;
696.9000;0.7643;0.8604;
697.2000;0.7692;0.8774;
697.5000;0.7692;0.8823;
697.8000;0.7668;0.8774;
698.1000;0.7676;0.8823;
698.4000;0.7684;0.8823;
698.7000;0.7676;0.8774;
699.0000;0.7652;0.8677;
699.3000;0.7725;0.8750;
699.6000;0.7676;0.8628;
699.9000;0.7684;0.8628;
700.2000;0.7668;0.8604;
700.5000;0.7652;0.8604;
700.8000;0.7627;0.8556;
701.1000;0.7652;0.8604;
701.4000;0.7635;0.8604;
701.7000;0.7635;0.8628;
702.0000;0.7627;0.8701;
702.3000;0.7635;0.8774;
702.6000;0.7635;0.8871;
702.9000;0.7611;0.8774;
703.2000;0.7627;0.8677;
703.5000;0.7554;0.8483;
703.8000;0.7619;0.8580;
704.1000;0.7603;0.8580;
704.4000;0.7595;0.8604;
704.7000;0.7578;0.8628;
705.0000;0.7595;0.8604;
705.3000;0.7578;0.8580;
705.6000;0.7578;0.8531;
705.9000;0.7603;0.8556;
706.2000;0.7586;0.8653;
706.5000;0.7578;0.8653;
706.8000;0.7489;0.8410;
707.1000;0.7578;0.8653;
707.4000;0.7578;0.8677;
707.7000;0.7562;0.8726;
708.0000;0.7660;0.8896;
708.3000;0.7562;0.8628;
708.6000;0.7570;0.8653;
708.9000;0.7570;0.8653;
709.2000;0.7562;0.8604;
709.5000;0.7513;0.8483;
709.8000;0.7554;0.8556;
710.1000;0.7562;0.8653;
710.4000;0.7562;0.8653;
710.7000;0.7546;0.8604;
711.0000;0.7554;0.8726;
711.3000;0.7546;0.8677;
711.6000;0.7546;0.8604;
711.9000;0.7554;0.8628;
712.2000;0.7505;0.8458;
712.5000;0.7538;0.8507;
712.8000;0.7481;0.8410;
713.1000;0.7521;0.8531;
713.4000;0.7530;0.8507;
713.7000;0.7521;0.8580;
714.0000;0.7489;0.8628;
714.3000;0.7505;0.8701;
714.6000;0.7497;0.8677;
714.9000;0.7505;0.8701;
715.2000;0.7521;0.8653;
715.5000;0.7530;0.8604;
715.8000;0.7513;0.8653;
716.1000;0.7513;0.8604;
716.4000;0.7513;0.8677;
716.7000;0.7505;0.8628;
717.0000;0.7481;0.8604;
717.3000;0.7481;0.8604;
717.6000;0.7481;0.8580;
717.9000;0.7513;0.8701;
718.2000;0.7489;0.8653;
718.5000;0.7456;0.8628;
718.8000;0.7481;0.8701;
719.1000;0.7497;0.8799;
719.4000;0.7489;0.8774;
719.7000;0.7489;0.8847;
720.0000;0.7473;0.8750;
720.3000;0.7473;0.8799;
720.6000;0.7481;0.8750;
720.9000;0.7407;0.8653;
721.2000;0.7489;0.8871;
721.5000;0.7489;0.8896;
721.8000;0.7448;0.8847;
722.1000;0.7448;0.8774;
722.4000;0.7473;0.8774;
722.7000;0.7416;0.8701;
723.0000;0.7464;0.8726;
723.3000;0.7440;0.8628;
723.6000;0.7416;0.8580;
723.9000;0.7505;0.8823;
724.2000;0.7448;0.8726;
724.5000;0.7416;0.8677;
724.8000;0.7432;0.8701;
725.1000;0.7424;0.8677;
725.4000;0.7448;0.8750;
725.7000;0.7440;0.8726;
726.0000;0.7432;0.8750;
726.3000;0.7432;0.8750;
726.6000;0.7407;0.8726;
726.9000;0.7424;0.8774;
727.2000;0.7391;0.8726;
727.5000;0.7432;0.8799;
727.8000;0.7416;0.8774;
728.1000;0.7424;0.8847;
728.4000;0.7391;0.8799;
728.7000;0.7416;0.8823;
729.0000;0.7407;0.8774;
729.3000;0.7399;0.8799;
729.6000;0.7432;0.8823;
729.9000;0.7367;0.8701;
730.2000;0.7383;0.8701;
730.5000;0.7473;0.8871;
730.8000;0.7407;0.8774;
731.1000;0.7399;0.8774;
731.4000;0.7383;0.8799;
731.7000;0.7407;0.8799;
732.0000;0.7399;0.8774;
732.3000;0.7359;0.8726;
732.6000;0.7367;0.8750;
732.9000;0.7383;0.8774;
733.2000;0.7383;0.8823;
733.5000;0.7424;0.8871;
733.8000;0.7367;0.8774;
734.1000;0.7375;0.8823;
734.4000;0.7367;0.8847;
734.7000;0.7367;0.8799;
735.0000;0.7359;0.8823;
735.3000;0.7285;0.8604;
735.6000;0.7424;0.8774;
735.9000;0.7367;0.8604;
736.2000;0.7326;0.8458;
736.5000;0.7367;0.8531;
736.8000;0.7391;0.8556;
737.1000;0.7350;0.8410;
737.4000;0.7342;0.8434;
737.7000;0.7342;0.8410;
738.0000;0.7277;0.8337;
738.3000;0.7350;0.8556;
738.6000;0.7334;0.8653;
738.9000;0.7334;0.8628;
739.2000;0.7367;0.8628;
739.5000;0.7350;0.8531;
739.8000;0.7350;0.8458;
740.1000;0.7326;0.8361;
740.4000;0.7326;0.8531;
740.7000;0.7342;0.8701;
741.0000;0.7350;0.8677;
741.3000;0.7334;0.8701;
741.6000;0.7285;0.8628;
741.9000;0.7334;0.8653;
742.2000;0.7334;0.8653;
742.5000;0.7318;0.8628;
742.8000;0.7326;0.8677;
743.1000;0.7326;0.8750;
743.4000;0.7359;0.8750;
743.7000;0.7302;0.8604;
744.0000;0.7293;0.8628;
744.3000;0.7318;0.8701;
744.6000;0.7302;0.8701;
744.9000;0.7285;0.8604;
745.2000;0.7310;0.8774;
745.5000;0.7261;0.8726;
745.8000;0.7318;0.8871;
746.1000;0.7318;0.8896;
746.4000;0.7310;0.8847;
746.7000;0.7310;0.8847;
747.0000;0.7326;0.8896;
747.3000;0.7245;0.8653;
747.6000;0.7293;0.8750;
747.9000;0.7285;0.8823;
748.2000;0.7293;0.8871;
748.5000;0.7285;0.8969;
748.8000;0.7318;0.8944;
749.1000;0.7285;0.8896;
749.4000;0.7318;0.8871;
749.7000;0.7391;0.9017;
750.0000;0.7285;0.8726;
750.3000;0.7302;0.8677;
750.6000;0.7302;0.8653;
750.9000;0.7302;0.8750;
751.2000;0.7285;0.8774;
751.5000;0.7342;0.9017;
751.8000;0.7253;0.8726;
752.1000;0.7293;0.8799;
752.4000;0.7293;0.8774;
752.7000;0.7212;0.8653;
753.0000;0.7269;0.8871;
753.3000;0.7277;0.8871;
753.6000;0.7269;0.8871;
753.9000;0.7228;0.8823;
754.2000;0.7253;0.8750;
754.5000;0.7302;0.8920;
754.8000;0.7261;0.8774;
755.1000;0.7261;0.8750;
755.4000;0.7277;0.8799;
755.7000;0.7236;0.8701;
756.0000;0.7269;0.8823;
756.3000;0.7302;0.8896;
756.6000;0.7285;0.8920;
756.9000;0.7253;0.8896;
757.2000;0.7245;0.8871;
757.5000;0.7318;0.9090;
757.8000;0.7261;0.8993;
758.1000;0.7253;0.8920;
758.4000;0.7261;0.8944;
758.7000;0.7285;0.8993;
759.0000;0.7245;0.8920;
759.3000;0.7236;0.8799;
759.6000;0.7253;0.8871;
759.9000;0.7253;0.8871;
760.2000;0.7253;0.8774;
760.5000;0.7204;0.8701;
760.8000;0.7228;0.8750;
761.1000;0.7253;0.8847;
761.4000;0.7253;0.8847;
761.7000;0.7212;0.8750;
762.0000;0.7228;0.8799;
762.3000;0.7228;0.8774;
762.6000;0.7220;0.8677;
762.9000;0.7196;0.8604;
763.2000;0.7212;0.8701;
763.5000;0.7228;0.8750;
763.8000;0.7196;0.8701;
764.1000;0.7220;0.8750;
764.4000;0.7212;0.8653;
764.7000;0.7261;0.8847;
765.0000;0.7220;0.8799;
765.3000;0.7204;0.8750;
765.6000;0.7228;0.8823;
765.9000;0.7220;0.8799;
766.2000;0.7228;0.8847;
766.5000;0.7212;0.8799;
766.8000;0.7212;0.8823;
767.1000;0.7228;0.8896;
767.4000;0.7220;0.8774;
767.7000;0.7188;0.8799;
768.0000;0.7220;0.8944;
768.3000;0.7179;0.8847;
768.6000;0.7188;0.8896;
768.9000;0.7196;0.8896;
769.2000;0.7179;0.8871;
769.5000;0.7196;0.8920;
769.8000;0.7179;0.8847;
770.1000;0.7171;0.8726;
770.4000;0.7212;0.8726;
770.7000;0.7204;0.8774;
771.0000;0.7204;0.8726;
771.3000;0.7212;0.8774;
771.6000;0.7196;0.8726;
771.9000;0.7188;0.8726;
772.2000;0.7196;0.8726;
772.5000;0.7188;0.8774;
772.8000;0.7212;0.8799;
773.1000;0.7163;0.8726;
773.4000;0.7188;0.8823;
773.7000;0.7196;0.8847;
774.0000;0.7171;0.8799;
774.3000;0.7171;0.8799;
774.6000;0.7163;0.8726;
774.9000;0.7228;0.8847;
775.2000;0.7196;0.8823;
775.5000;0.7163;0.8774;
775.8000;0.7171;0.8823;
776.1000;0.7179;0.8847;
776.4000;0.7188;0.8847;
776.7000;0.7188;0.8750;
777.0000;0.7106;0.8604;
777.3000;0.7188;0.8920;
777.6000;0.7171;0.8969;
777.9000;0.7179;0.8920;
778.2000;0.7163;0.8920;
778.5000;0.7163;0.8896;
778.8000;0.7188;0.9017;
779.1000;0.7163;0.8993;
779.4000;0.7163;0.8896;
779.7000;0.7163;0.8896;
780.0000;0.7163;0.8847;
780.3000;0.7163;0.8774;
780.6000;0.7163;0.8823;
780.9000;0.7163;0.8871;
781.2000;0.7163;0.8823;
781.5000;0.7163;0.8871;
781.8000;0.7236;0.9139;
782.1000;0.7114;0.8871;
782.4000;0.7147;0.8993;
782.7000;0.7155;0.8969;
783.0000;0.7155;0.8920;
783.3000;0.7139;0.8920;
783.6000;0.7139;0.8847;
783.9000;0.7147;0.8799;
784.2000;0.7171;0.8799;
784.5000;0.7139;0.8750;
784.8000;0.7139;0.8677;
785.1000;0.7155;0.8604;
785.4000;0.7155;0.8750;
785.7000;0.7139;0.8701;
786.0000;0.7147;0.8628;
786.3000;0.7155;0.8628;
786.6000;0.7171;0.8701;
786.9000;0.7171;0.8701;
787.2000;0.7147;0.8653;
787.5000;0.7139;0.8726;
787.8000;0.7123;0.8774;
788.1000;0.7204;0.8944;
788.4000;0.7147;0.8823;
788.7000;0.7139;0.8774;
789.0000;0.7131;0.8774;
789.3000;0.7131;0.8726;
789.6000;0.7106;0.8677;
789.9000;0.7131;0.8701;
790.2000;0.7131;0.8799;
790.5000;0.7155;0.8871;
790.8000;0.7147;0.8896;
791.1000;0.7123;0.8944;
791.4000;0.7147;0.8969;
791.7000;0.7131;0.8920;
792.0000;0.7139;0.8847;
792.3000;0.7131;0.8896;
792.6000;0.7131;0.8944;
792.9000;0.7033;0.8653;
793.2000;0.7123;0.8944;
793.5000;0.7212;0.9163;
793.8000;0.7098;0.8847;
794.1000;0.7114;0.8823;
794.4000;0.7025;0.8580;
794.7000;0.7123;0.8774;
795.0000;0.7106;0.8823;
795.3000;0.7106;0.8774;
795.6000;0.7098;0.8774;
795.9000;0.7098;0.8799;
796.2000;0.7106;0.8847;
796.5000;0.7179;0.9066;
796.8000;0.7123;0.8944;
797.1000;0.7123;0.8823;
797.4000;0.7114;0.8799;
797.7000;0.7098;0.8823;
798.0000;0.7098;0.8799;
798.3000;0.7098;0.8677;
798.6000;0.7082;0.8677;
798.9000;0.7098;0.8823;
799.2000;0.7114;0.8823;
799.5000;0.7098;0.8823;
799.8000;0.7090;0.8896;
800.1000;0.7114;0.8969;
800.4000;0.7114;0.8920;
800.7000;0.7114;0.8969;
801.0000;0.7025;0.8750;
801.3000;0.7114;0.8969;
801.6000;0.7171;0.9115;
801.9000;0.7114;0.8993;
802.2000;0.7106;0.8944;
802.5000;0.7098;0.8944;
802.8000;0.7082;0.8969;
803.1000;0.7098;0.8969;
803.4000;0.7114;0.8969;
803.7000;0.7074;0.9017;
804.0000;0.7057;0.9066;
804.3000;0.7082;0.9115;
804.6000;0.7098;0.9017;
804.9000;0.7082;0.8969;
805.2000;0.7090;0.9017;
805.5000;0.7090;0.9042;
805.8000;0.7074;0.8993;
806.1000;0.7082;0.8969;
806.4000;0.7066;0.8871;
806.7000;0.7090;0.8847;
807.0000;0.7098;0.8993;
807.3000;0.7098;0.9042;
807.6000;0.7090;0.8969;
807.9000;0.7074;0.8896;
808.2000;0.7098;0.9042;
808.5000;0.7074;0.8969;
808.8000;0.7090;0.9042;
809.1000;0.7155;0.9212;
809.4000;0.7066;0.9066;
809.7000;0.7090;0.9115;
810.0000;0.7074;0.9139;
810.3000;0.7057;0.9139;
810.6000;0.7090;0.9309;
810.9000;0.7066;0.9333;
811.2000;0.7017;0.9187;
811.5000;0.7057;0.9333;
811.8000;0.7066;0.9382;
812.1000;0.7082;0.9333;
812.4000;0.7074;0.9382;
812.7000;0.7074;0.9212;
813.0000;0.7082;0.9236;
813.3000;0.7106;0.9212;
813.6000;0.7098;0.9139;
813.9000;0.7066;0.9163;
814.2000;0.7098;0.9163;
814.5000;0.7066;0.9115;
814.8000;0.7106;0.9090;
815.1000;0.7049;0.8944;
815.4000;0.7057;0.8920;
815.7000;0.7074;0.9042;
816.0000;0.7033;0.8944;
816.3000;0.7057;0.9090;
816.6000;0.7066;0.9163;
816.9000;0.7082;0.9163;
817.2000;0.7074;0.9212;
817.5000;0.7066;0.9139;
817.8000;0.7074;0.9139;
818.1000;0.7090;0.9139;
818.4000;0.7074;0.9066;
818.7000;0.7082;0.9017;
819.0000;0.7106;0.9017;
819.3000;0.7057;0.8896;
819.6000;0.7049;0.8896;
819.9000;0.7049;0.8993;
820.2000;0.7057;0.9066;
820.5000;0.7033;0.9042;
820.8000;0.7041;0.9042;
821.1000;0.7049;0.9066;
821.4000;0.7041;0.9090;
821.7000;0.7057;0.9187;
822.0000;0.7041;0.9163;
822.3000;0.7057;0.9212;
822.6000;0.7057;0.9212;
822.9000;0.7033;0.9187;
823.2000;0.7057;0.9285;
823.5000;0.7057;0.9285;
823.8000;0.7057;0.9260;
824.1000;0.7066;0.9309;
824.4000;0.7025;0.9187;
824.7000;0.7033;0.9115;
825.0000;0.7066;0.9139;
825.3000;0.7082;0.9163;
825.6000;0.7009;0.9017;
825.9000;0.7041;0.9163;
826.2000;0.7033;0.9187;
826.5000;0.7025;0.9212;
826.8000;0.7017;0.9139;
827.1000;0.7025;0.9260;
827.4000;0.7000;0.9187;
827.7000;0.7017;0.9187;
828.0000;0.7041;0.9212;
828.3000;0.7106;0.9285;
828.6000;0.7049;0.9139;
828.9000;0.7041;0.9115;
829.2000;0.7033;0.9139;
829.5000;0.7033;0.9139;
829.8000;0.7033;0.9139;
830.1000;0.7033;0.9139;
830.4000;0.7025;0.9163;
830.7000;0.6943;0.8969;
831.0000;0.7033;0.9187;
831.3000;0.7025;0.9163;
831.6000;0.7041;0.9090;
831.9000;0.7025;0.9066;
832.2000;0.7025;0.8969;
832.5000;0.7009;0.8871;
832.8000;0.7017;0.8871;
833.1000;0.7025;0.8871;
833.4000;0.7041;0.8871;
833.7000;0.6952;0.8677;
834.0000;0.7017;0.8847;
834.3000;0.7049;0.8944;
834.6000;0.7000;0.8823;
834.9000;0.7017;0.8969;
835.2000;0.7025;0.8969;
835.5000;0.7025;0.8920;
835.8000;0.7009;0.8993;
836.1000;0.7025;0.8993;
836.4000;0.7017;0.9017;
836.7000;0.7057;0.9090;
837.0000;0.7033;0.9066;
837.3000;0.7033;0.9115;
837.6000;0.7033;0.9115;
837.9000;0.7017;0.9163;
838.2000;0.6992;0.9042;
838.5000;0.7000;0.9115;
838.8000;0.7025;0.9066;
839.1000;0.7033;0.9066;
839.4000;0.7025;0.9042;
839.7000;0.7017;0.9066;
840.0000;0.7000;0.9017;
840.3000;0.7000;0.8993;
840.6000;0.7000;0.8969;
840.9000;0.7000;0.8944;
841.2000;0.7000;0.9115;
841.5000;0.7025;0.9236;
841.8000;0.6992;0.9212;
842.1000;0.7009;0.9163;
842.4000;0.7009;0.9187;
842.7000;0.7017;0.9187;
843.0000;0.7000;0.9090;
843.3000;0.7025;0.9163;
843.6000;0.7000;0.9115;
843.9000;0.7025;0.9187;
844.2000;0.7009;0.9115;
844.5000;0.7114;0.9358;
844.8000;0.7000;0.9090;
845.1000;0.7000;0.9066;
845.4000;0.7009;0.9115;
845.7000;0.7017;0.9066;
846.0000;0.7025;0.9090;
846.3000;0.7025;0.9090;
846.6000;0.6952;0.8969;
846.9000;0.6984;0.9115;
847.2000;0.6984;0.9163;
847.5000;0.6976;0.9115;
847.8000;0.7000;0.9212;
848.1000;0.7009;0.9187;
848.4000;0.7057;0.9260;
848.7000;0.7009;0.9212;
849.0000;0.7009;0.9236;
849.3000;0.7017;0.9212;
849.6000;0.7000;0.9212;
849.9000;0.6911;0.8969;
850.2000;0.6992;0.9236;
850.5000;0.6976;0.9309;
850.8000;0.6976;0.9333;
851.1000;0.6992;0.9333;
851.4000;0.6976;0.9236;
851.7000;0.6927;0.9115;
852.0000;0.7000;0.9236;
852.3000;0.6984;0.9285;
852.6000;0.6984;0.9309;
852.9000;0.7000;0.9309;
853.2000;0.6992;0.9236;
853.5000;0.6976;0.9212;
853.8000;0.6984;0.9260;
854.1000;0.6960;0.9212;
854.4000;0.6976;0.9260;
854.7000;0.6911;0.9090;
855.0000;0.6968;0.9115;
855.3000;0.6960;0.9066;
855.6000;0.7000;0.9090;
855.9000;0.6968;0.8944;
856.2000;0.6968;0.8969;
856.5000;0.6976;0.9090;
856.8000;0.6984;0.9017;
857.1000;0.6992;0.9066;
857.4000;0.6968;0.8969;
857.7000;0.7000;0.9066;
858.0000;0.7000;0.9115;
858.3000;0.7000;0.9139;
858.6000;0.7000;0.9236;
858.9000;0.6984;0.9187;
859.2000;0.6992;0.9163;
859.5000;0.6984;0.9163;
859.8000;0.6976;0.9115;
860.1000;0.6960;0.9042;
860.4000;0.6976;0.9017;
860.7000;0.7074;0.9187;
861.0000;0.6943;0.8969;
861.3000;0.6952;0.8969;
861.6000;0.6992;0.8969;
861.9000;0.6976;0.8871;
862.2000;0.6976;0.8823;
862.5000;0.6968;0.8799;
862.8000;0.6968;0.8774;
863.1000;0.6984;0.8774;
863.4000;0.6976;0.8823;
863.7000;0.6992;0.8993;
864.0000;0.6984;0.8993;
864.3000;0.7033;0.9212;
864.6000;0.6976;0.9042;
864.9000;0.6968;0.8993;
865.2000;0.6919;0.8847;
865.5000;0.6968;0.8944;
865.8000;0.6976;0.8969;
866.1000;0.6968;0.8896;
866.4000;0.6952;0.8896;
866.7000;0.7009;0.9066;
867.0000;0.7009;0.9066;
867.3000;0.6992;0.9090;
867.6000;0.6984;0.9163;
867.9000;0.6968;0.9090;
868.2000;0.6968;0.9139;
868.5000;0.6976;0.9042;
868.8000;0.7025;0.9212;
869.1000;0.6968;0.9066;
869.4000;0.6984;0.9066;
869.7000;0.6992;0.9066;
870.0000;0.6960;0.8944;
870.3000;0.6976;0.8920;
870.6000;0.6960;0.8920;
870.9000;0.6927;0.8799;
871.2000;0.6968;0.8847;
871.5000;0.7033;0.8969;
871.8000;0.6984;0.8920;
872.1000;0.6952;0.8896;
872.4000;0.6952;0.8920;
872.7000;0.6935;0.8920;
873.0000;0.6935;0.8944;
873.3000;0.6968;0.9066;
873.6000;0.6960;0.8993;
873.9000;0.6886;0.8750;
874.2000;0.6960;0.9017;
874.5000;0.6943;0.9090;
874.8000;0.6935;0.9017;
875.1000;0.6968;0.9066;
875.4000;0.6943;0.8993;
875.7000;0.6992;0.9212;
876.0000;0.6943;0.9042;
876.3000;0.6992;0.9115;
876.6000;0.6952;0.9017;
876.9000;0.6943;0.9017;
877.2000;0.6952;0.9066;
877.5000;0.6943;0.8993;
877.8000;0.6952;0.8993;
878.1000;0.6968;0.8969;
878.4000;0.6952;0.8993;
878.7000;0.6943;0.8920;
879.0000;0.6952;0.8944;
879.3000;0.6952;0.8993;
879.6000;0.6943;0.8969;
879.9000;0.6943;0.8920;
880.2000;0.7009;0.9017;
880.5000;0.6952;0.8847;
880.8000;0.6943;0.8799;
881.1000;0.6960;0.8653;
881.4000;0.6935;0.8604;
881.7000;0.6968;0.8628;
882.0000;0.6935;0.8604;
882.3000;0.6968;0.8653;
882.6000;0.6952;0.8726;
882.9000;0.6935;0.8871;
883.2000;0.6960;0.8969;
883.5000;0.6943;0.8969;
883.8000;0.6968;0.9017;
884.1000;0.6935;0.8969;
884.4000;0.6960;0.9017;
884.7000;0.6952;0.8993;
885.0000;0.6919;0.8920;
885.3000;0.6952;0.8944;
885.6000;0.6943;0.8847;
885.9000;0.6935;0.8823;
886.2000;0.6911;0.8628;
886.5000;0.6935;0.8799;
886.8000;0.6927;0.8847;
887.1000;0.6952;0.8944;
887.4000;0.6943;0.8920;
887.7000;0.6919;0.8896;
888.0000;0.6952;0.9066;
888.3000;0.6943;0.9017;
888.6000;0.6919;0.8896;
888.9000;0.6935;0.8944;
889.2000;0.6935;0.9017;
889.5000;0.6976;0.9115;
889.8000;0.6943;0.9163;
890.1000;0.6927;0.9090;
890.4000;0.6886;0.8896;
890.7000;0.7009;0.9090;
891.0000;0.6911;0.8823;
891.3000;0.6935;0.8969;
891.6000;0.6927;0.8920;
891.9000;0.6976;0.8969;
892.2000;0.6935;0.8726;
892.5000;0.6927;0.8653;
892.8000;0.6943;0.8750;
893.1000;0.6935;0.8750;
893.4000;0.6927;0.8774;
893.7000;0.7041;0.9139;
894.0000;0.6935;0.8871;
894.3000;0.6935;0.8896;
894.6000;0.6935;0.8847;
894.9000;0.6943;0.8920;
895.2000;0.6927;0.8969;
895.5000;0.6927;0.8993;
895.8000;0.6927;0.8920;
896.1000;0.6927;0.8944;
896.4000;0.6935;0.8823;
896.7000;0.6927;0.8799;
897.0000;0.6919;0.8774;
897.3000;0.6935;0.8799;
897.6000;0.6903;0.8750;
897.9000;0.6984;0.8993;
898.2000;0.6919;0.8993;
898.5000;0.6935;0.8944;
898.8000;0.6911;0.8944;
899.1000;0.6927;0.9042;
899.4000;0.6935;0.9115;
899.7000;0.6960;0.9163;
900.0000;0.6911;0.8969;
900.3000;0.6935;0.9066;
900.6000;0.6870;0.8799;
900.9000;0.6911;0.8750;
901.2000;0.6919;0.8750;
901.5000;0.6919;0.8726;
901.8000;0.6919;0.8750;
902.1000;0.6911;0.8750;
902.4000;0.6927;0.8823;
902.7000;0.6919;0.8823;
903.0000;0.6903;0.8799;
903.3000;0.6903;0.8799;
903.6000;0.6927;0.8871;
903.9000;0.6919;0.8871;
904.2000;0.6911;0.8847;
904.5000;0.6919;0.8896;
904.8000;0.6903;0.8823;
905.1000;0.6927;0.8823;
905.4000;0.6911;0.8823;
905.7000;0.6919;0.8823;
906.0000;0.6943;0.8847;
906.3000;0.6895;0.8628;
906.6000;0.6895;0.8580;
906.9000;0.7009;0.8944;
907.2000;0.6919;0.8726;
907.5000;0.6911;0.8823;
907.8000;0.6886;0.8799;
908.1000;0.6895;0.8726;
908.4000;0.6927;0.8750;
908.7000;0.6976;0.8896;
909.0000;0.6919;0.8726;
909.3000;0.6919;0.8628;
909.6000;0.6895;0.8701;
909.9000;0.6903;0.8701;
910.2000;0.6968;0.9017;
910.5000;0.6862;0.8823;
910.8000;0.6935;0.8969;
911.1000;0.6919;0.8969;
911.4000;0.6903;0.9017;
911.7000;0.6903;0.8993;
912.0000;0.6838;0.8823;
912.3000;0.6903;0.9017;
912.6000;0.6952;0.9212;
912.9000;0.6919;0.9066;
913.2000;0.6829;0.8823;
913.5000;0.6895;0.8920;
913.8000;0.6903;0.9017;
914.1000;0.6952;0.9090;
914.4000;0.6903;0.8920;
914.7000;0.6895;0.8969;
915.0000;0.6911;0.9042;
915.3000;0.6911;0.9042;
915.6000;0.6919;0.8993;
915.9000;0.6895;0.8871;
916.2000;0.6895;0.8823;
916.5000;0.6895;0.8823;
916.8000;0.6903;0.8871;
917.1000;0.6878;0.8896;
917.4000;0.6895;0.8920;
917.7000;0.6886;0.9017;
918.0000;0.6903;0.8993;
918.3000;0.6886;0.8799;
918.6000;0.6911;0.8799;
918.9000;0.6886;0.8726;
919.2000;0.6895;0.8799;
919.5000;0.6895;0.8799;
919.8000;0.6886;0.8871;
920.1000;0.6903;0.8847;
920.4000;0.6886;0.8896;
920.7000;0.6911;0.8896;
921.0000;0.6886;0.8774;
921.3000;0.6903;0.8823;
921.6000;0.6911;0.8920;
921.9000;0.6903;0.8920;
922.2000;0.6870;0.8847;
922.5000;0.6895;0.8847;
922.8000;0.6878;0.8847;
923.1000;0.6886;0.8944;
923.4000;0.6903;0.8993;
923.7000;0.6943;0.9090;
924.0000;0.6895;0.8969;
924.3000;0.6911;0.9042;
924.6000;0.6895;0.8993;
924.9000;0.6829;0.8823;
925.2000;0.6895;0.8993;
925.5000;0.7017;0.9309;
925.8000;0.6895;0.8969;
926.1000;0.6878;0.9017;
926.4000;0.6903;0.9066;
926.7000;0.6886;0.9042;
927.0000;0.6878;0.9017;
927.3000;0.6895;0.8969;
927.6000;0.6886;0.9042;
927.9000;0.6878;0.8944;
928.2000;0.6870;0.8920;
928.5000;0.6895;0.8896;
928.8000;0.6903;0.8823;
929.1000;0.6886;0.8823;
929.4000;0.6919;0.8920;
929.7000;0.6903;0.8920;
930.0000;0.6878;0.8993;
930.3000;0.6886;0.9042;
930.6000;0.6886;0.9017;
930.9000;0.6903;0.9066;
931.2000;0.6870;0.9017;
931.5000;0.6895;0.9017;
931.8000;0.6878;0.8993;
932.1000;0.6895;0.8969;
932.4000;0.6895;0.9042;
932.7000;0.6862;0.9066;
933.0000;0.6903;0.9139;
933.3000;0.6829;0.8896;
933.6000;0.6870;0.8969;
933.9000;0.6862;0.8896;
934.2000;0.6886;0.8896;
934.5000;0.6870;0.8896;
934.8000;0.6886;0.8920;
935.1000;0.6854;0.8847;
935.4000;0.6838;0.8871;
935.7000;0.6903;0.9042;
936.0000;0.6895;0.8969;
936.3000;0.6878;0.8944;
936.6000;0.6862;0.8920;
936.9000;0.6886;0.8944;
937.2000;0.6960;0.9163;
937.5000;0.6870;0.8896;
937.8000;0.6862;0.8920;
938.1000;0.6927;0.8920;
938.4000;0.6870;0.8847;
938.7000;0.6878;0.8944;
939.0000;0.6870;0.8944;
939.3000;0.6878;0.9066;
939.6000;0.6862;0.9115;
939.9000;0.6886;0.9139;
940.2000;0.6878;0.9066;
940.5000;0.6943;0.9260;
940.8000;0.6895;0.9115;
941.1000;0.6870;0.8993;
941.4000;0.6854;0.8969;
941.7000;0.6911;0.9042;
942.0000;0.6886;0.8920;
942.3000;0.6927;0.8969;
942.6000;0.6886;0.8944;
942.9000;0.6870;0.8969;
943.2000;0.6870;0.9017;
943.5000;0.6854;0.8969;
943.8000;0.6886;0.8993;
944.1000;0.6886;0.9017;
944.4000;0.6846;0.8993;
944.7000;0.6886;0.9066;
945.0000;0.6895;0.9066;
945.3000;0.6886;0.9017;
945.6000;0.6878;0.8944;
945.9000;0.6886;0.9042;
946.2000;0.6911;0.9163;
946.5000;0.6854;0.8993;
946.8000;0.6846;0.8896;
947.1000;0.6895;0.9017;
947.4000;0.6878;0.8993;
947.7000;0.6797;0.8896;
948.0000;0.6870;0.8993;
948.3000;0.6886;0.9042;
948.6000;0.6821;0.8969;
948.9000;0.6870;0.8993;
949.2000;0.6878;0.8993;
949.5000;0.6870;0.9042;
949.8000;0.6878;0.9115;
950.1000;0.6846;0.9066;
950.4000;0.6878;0.9066;
950.7000;0.6862;0.9042;
951.0000;0.6878;0.9115;
951.3000;0.6862;0.9017;
951.6000;0.6862;0.8993;
951.9000;0.6862;0.8969;
952.2000;0.6854;0.8944;
952.5000;0.6870;0.8993;
952.8000;0.6870;0.8944;
953.1000;0.6854;0.9042;
953.4000;0.6862;0.9066;
953.7000;0.6846;0.9115;
954.0000;0.6895;0.9212;
954.3000;0.6862;0.9115;
954.6000;0.6846;0.9017;
954.9000;0.6886;0.9066;
955.2000;0.6870;0.9042;
955.5000;0.6870;0.9042;
955.8000;0.6862;0.9042;
956.1000;0.6854;0.9115;
956.4000;0.6878;0.9139;
956.7000;0.6870;0.9212;
957.0000;0.6838;0.9139;
957.3000;0.6870;0.9139;
957.6000;0.6911;0.9236;
957.9000;0.6878;0.9212;
958.2000;0.6854;0.9163;
958.5000;0.6829;0.9066;
958.8000;0.6878;0.9163;
959.1000;0.6829;0.9090;
959.4000;0.6838;0.9115;
959.7000;0.6870;0.9187;
960.0000;0.6813;0.9017;
960.3000;0.6870;0.9139;
960.6000;0.6903;0.9187;
960.9000;0.6870;0.9017;
961.2000;0.6862;0.8944;
961.5000;0.6870;0.8969;
961.8000;0.6886;0.9017;
962.1000;0.6870;0.9017;
962.4000;0.6854;0.8969;
962.7000;0.6846;0.8969;
963.0000;0.6878;0.9066;
963.3000;0.6870;0.9017;
963.6000;0.6870;0.9066;
963.9000;0.6862;0.9042;
964.2000;0.6870;0.9042;
964.5000;0.6878;0.9090;
964.8000;0.6870;0.9090;
965.1000;0.6870;0.9139;
965.4000;0.6895;0.9212;
965.7000;0.6756;0.8896;
966.0000;0.6878;0.9236;
966.3000;0.6829;0.9115;
966.6000;0.6862;0.9139;
966.9000;0.6854;0.9139;
967.2000;0.6862;0.9163;
967.5000;0.6903;0.9212;
967.8000;0.6862;0.9163;
968.1000;0.6862;0.9163;
968.4000;0.6821;0.9115;
968.7000;0.6797;0.9066;
969.0000;0.6862;0.9212;
969.3000;0.6846;0.9163;
969.6000;0.6838;0.9115;
969.9000;0.6854;0.9163;
970.2000;0.6870;0.9163;
970.5000;0.6854;0.9139;
970.8000;0.6846;0.9090;
971.1000;0.6829;0.9017;
971.4000;0.6846;0.9042;
971.7000;0.6862;0.9066;
972.0000;0.6854;0.9017;
972.3000;0.6829;0.9017;
972.6000;0.6846;0.9017;
972.9000;0.6838;0.8993;
973.2000;0.6838;0.9017;
973.5000;0.6829;0.8969;
973.8000;0.6846;0.9090;
974.1000;0.6846;0.9042;
974.4000;0.6862;0.9139;
974.7000;0.6838;0.9066;
975.0000;0.6821;0.9042;
975.3000;0.6846;0.9139;
975.6000;0.6838;0.9163;
975.9000;0.6838;0.9187;
976.2000;0.6829;0.9163;
976.5000;0.6854;0.9163;
976.8000;0.6846;0.9187;
977.1000;0.6838;0.9187;
977.4000;0.6813;0.9115;
977.7000;0.6838;0.9163;
978.0000;0.6829;0.9139;
978.3000;0.6878;0.9163;
978.6000;0.6838;0.9139;
978.9000;0.6789;0.9066;
979.2000;0.6846;0.9236;
979.5000;0.6862;0.9187;
979.8000;0.6829;0.9115;
980.1000;0.6838;0.9042;
980.4000;0.6862;0.9163;
980.7000;0.6919;0.9309;
981.0000;0.6846;0.9115;
981.3000;0.6829;0.9090;
981.6000;0.6854;0.9163;
981.9000;0.6813;0.8969;
982.2000;0.6846;0.9066;
982.5000;0.6838;0.9042;
982.8000;0.6829;0.8969;
983.1000;0.6846;0.8944;
983.4000;0.6862;0.8896;
983.7000;0.6838;0.8920;
984.0000;0.6838;0.9042;
984.3000;0.6821;0.9090;
984.6000;0.6829;0.9139;
984.9000;0.6813;0.9017;
985.2000;0.6821;0.9163;
985.5000;0.6854;0.9236;
985.8000;0.6829;0.9212;
986.1000;0.6846;0.9236;
986.4000;0.6838;0.9212;
986.7000;0.6838;0.9187;
987.0000;0.6854;0.9212;
987.3000;0.6838;0.9115;
987.6000;0.6903;0.9260;
987.9000;0.6829;0.9090;
988.2000;0.6829;0.9066;
988.5000;0.6838;0.9187;
988.8000;0.6821;0.9187;
989.1000;0.6846;0.9163;
989.4000;0.6838;0.9163;
989.7000;0.6781;0.9017;
990.0000;0.6829;0.9090;
990.3000;0.6854;0.9090;
990.6000;0.6838;0.9090;
990.9000;0.6846;0.9066;
991.2000;0.6846;0.9017;
991.5000;0.6854;0.9042;
991.8000;0.6846;0.9139;
992.1000;0.6854;0.9236;
992.4000;0.6821;0.9139;
992.7000;0.6846;0.9236;
993.0000;0.6846;0.9187;
993.3000;0.6846;0.9115;
993.6000;0.6838;0.9042;
993.9000;0.6846;0.9042;
994.2000;0.6838;0.9017;
994.5000;0.6846;0.9066;
994.8000;0.6870;0.9139;
995.1000;0.6838;0.9042;
995.4000;0.6838;0.9090;
995.7000;0.6919;0.9333;
996.0000;0.6838;0.9066;
996.3000;0.6838;0.9115;
996.6000;0.6846;0.9066;
996.9000;0.6805;0.8920;
997.2000;0.6829;0.9042;
997.5000;0.6829;0.9090;
997.8000;0.6862;0.9139;
998.1000;0.6878;0.9187;
998.4000;0.6821;0.9115;
998.7000;0.6821;0.9042;
999.0000;0.6805;0.9042;
999.3000;0.6870;0.9236;
999.6000;0.6829;0.9139;
999.9000;0.6846;0.9090;
1000.2000;0.6797;0.8944;
1000.5000;0.6838;0.9017;
1000.8000;0.6846;0.9163;
1001.1000;0.6846;0.9163;
1001.4000;0.6821;0.9017;
1001.7000;0.6821;0.9090;
1002.0000;0.6846;0.9042;
1002.3000;0.6813;0.8944;
1002.6000;0.6862;0.9115;
1002.9000;0.6756;0.8920;
1003.2000;0.6805;0.9066;
1003.5000;0.6862;0.9236;
1003.8000;0.6829;0.9212;
1004.1000;0.6813;0.9163;
1004.4000;0.6805;0.9115;
1004.7000;0.6829;0.9017;
1005.0000;0.6797;0.8993;
1005.3000;0.6821;0.9090;
1005.6000;0.6838;0.9115;
1005.9000;0.6781;0.9017;
1006.2000;0.6878;0.9187;
1006.5000;0.6821;0.9042;
1006.8000;0.6821;0.9066;
1007.1000;0.6829;0.9115;
1007.4000;0.6821;0.9163;
1007.7000;0.6781;0.8969;
1008.0000;0.6821;0.9187;
1008.3000;0.6829;0.9187;
1008.6000;0.6838;0.9090;
1008.9000;0.6829;0.9042;
1009.2000;0.6813;0.9017;
1009.5000;0.6805;0.8993;
1009.8000;0.6829;0.9017;
1010.1000;0.6813;0.8969;
1010.4000;0.6829;0.9042;
1010.7000;0.6829;0.9042;
1011.0000;0.6838;0.9090;
1011.3000;0.6846;0.9066;
1011.6000;0.6829;0.9066;
1011.9000;0.6838;0.9115;
1012.2000;0.6821;0.9115;
1012.5000;0.6821;0.9163;
1012.8000;0.6805;0.9115;
1013.1000;0.6821;0.9187;
1013.4000;0.6829;0.9090;
1013.7000;0.6846;0.9115;
1014.0000;0.6821;0.9066;
1014.3000;0.6821;0.9066;
1014.6000;0.6829;0.9090;
1014.9000;0.6829;0.9115;
1015.2000;0.6829;0.9187;
1015.5000;0.6821;0.9163;
1015.8000;0.6829;0.9187;
1016.1000;0.6854;0.9358;
1016.4000;0.6813;0.9333;
1016.7000;0.6805;0.9309;
1017.0000;0.6821;0.9333;
1017.3000;0.6829;0.9260;
1017.6000;0.6813;0.9187;
1017.9000;0.6813;0.9285;
1018.2000;0.6740;0.9090;
1018.5000;0.6813;0.9358;
1018.8000;0.6838;0.9431;
1019.1000;0.6821;0.9358;
1019.4000;0.6821;0.9309;
1019.7000;0.6789;0.9333;
1020.0000;0.6805;0.9358;
1020.3000;0.6813;0.9333;
1020.6000;0.6821;0.9236;
1020.9000;0.6813;0.9212;
1021.2000;0.6805;0.9236;
1021.5000;0.6821;0.9236;
1021.8000;0.6813;0.9382;
1022.1000;0.6813;0.9431;
1022.4000;0.6821;0.9406;
1022.7000;0.6789;0.9333;
1023.0000;0.6813;0.9382;
1023.3000;0.6797;0.9333;
1023.6000;0.6772;0.9285;
1023.9000;0.6805;0.9358;
1024.2000;0.6789;0.9455;
1024.5000;0.6797;0.9358;
1024.8000;0.6805;0.9382;
1025.1000;0.6789;0.9406;
1025.4000;0.6789;0.9431;
1025.7000;0.6829;0.9528;
1026.0000;0.6813;0.9503;
1026.3000;0.6821;0.9528;
1026.6000;0.6821;0.9552;
1026.9000;0.6805;0.9406;
1027.2000;0.6789;0.9382;
1027.5000;0.6878;0.9528;
1027.8000;0.6838;0.9406;
1028.1000;0.6805;0.9285;
1028.4000;0.6797;0.9333;
1028.7000;0.6821;0.9382;
1029.0000;0.6813;0.9358;
1029.3000;0.6821;0.9431;
1029.6000;0.6838;0.9382;
1029.9000;0.6764;0.9260;
1030.2000;0.6805;0.9333;
1030.5000;0.6797;0.9382;
1030.8000;0.6805;0.9406;
1031.1000;0.6854;0.9503;
1031.4000;0.6813;0.9333;
1031.7000;0.6838;0.9358;
1032.0000;0.6764;0.9187;
1032.3000;0.6805;0.9309;
1032.6000;0.6805;0.9382;
1032.9000;0.6781;0.9309;
1033.2000;0.6821;0.9382;
1033.5000;0.6805;0.9358;
1033.8000;0.6805;0.9358;
1034.1000;0.6829;0.9431;
1034.4000;0.6805;0.9455;
1034.7000;0.6813;0.9528;
1035.0000;0.6821;0.9528;
1035.3000;0.6797;0.9455;
1035.6000;0.6829;0.9455;
1035.9000;0.6797;0.9333;
1036.2000;0.6805;0.9358;
1036.5000;0.6829;0.9406;
1036.8000;0.6821;0.9406;
1037.1000;0.6838;0.9455;
1037.4000;0.6821;0.9431;
1037.7000;0.6829;0.9455;
1038.0000;0.6797;0.9260;
1038.3000;0.6813;0.9236;
1038.6000;0.6797;0.9285;
1038.9000;0.6797;0.9309;
1039.2000;0.6797;0.9309;
1039.5000;0.6797;0.9285;
1039.8000;0.6756;0.9163;
1040.1000;0.6781;0.9285;
1040.4000;0.6813;0.9358;
1040.7000;0.6764;0.9260;
1041.0000;0.6805;0.9309;
1041.3000;0.6813;0.9260;
1041.6000;0.6813;0.9236;
1041.9000;0.6805;0.9260;
1042.2000;0.6797;0.9212;
1042.5000;0.6813;0.9236;
1042.8000;0.6829;0.9260;
1043.1000;0.6821;0.9260;
1043.4000;0.6813;0.9212;
1043.7000;0.6821;0.9236;
1044.0000;0.6813;0.9309;
1044.3000;0.6813;0.9285;
1044.6000;0.6821;0.9285;
1044.9000;0.6789;0.9333;
1045.2000;0.6813;0.9406;
1045.5000;0.6805;0.9382;
1045.8000;0.6797;0.9382;
1046.1000;0.6821;0.9406;
1046.4000;0.6813;0.9455;
1046.7000;0.6797;0.9382;
1047.0000;0.6781;0.9333;
1047.3000;0.6813;0.9309;
1047.6000;0.6813;0.9285;
1047.9000;0.6797;0.9187;
1048.2000;0.6781;0.9187;
1048.5000;0.6805;0.9212;
1048.8000;0.6797;0.9115;
1049.1000;0.6805;0.9163;
1049.4000;0.6813;0.9187;
1049.7000;0.6813;0.9260;
1050.0000;0.6805;0.9309;
1050.3000;0.6813;0.9358;
1050.6000;0.6829;0.9358;
1050.9000;0.6805;0.9333;
1051.2000;0.6805;0.9285;
1051.5000;0.6797;0.9309;
1051.8000;0.6805;0.9406;
1052.1000;0.6772;0.9309;
1052.4000;0.6805;0.9333;
1052.7000;0.6805;0.9382;
1053.0000;0.6764;0.9358;
1053.3000;0.6797;0.9431;
1053.6000;0.6789;0.9406;
1053.9000;0.6797;0.9503;
1054.2000;0.6789;0.9406;
1054.5000;0.6781;0.9431;
1054.8000;0.6789;0.9382;
1055.1000;0.6781;0.9333;
1055.4000;0.6772;0.9285;
1055.7000;0.6740;0.9285;
1056.0000;0.6781;0.9406;
1056.3000;0.6789;0.9358;
1056.6000;0.6781;0.9333;
1056.9000;0.6797;0.9333;
1057.2000;0.6805;0.9309;
1057.5000;0.6838;0.9358;
1057.8000;0.6805;0.9285;
1058.1000;0.6789;0.9236;
1058.4000;0.6789;0.9236;
1058.7000;0.6764;0.9163;
1059.0000;0.6748;0.9090;
1059.3000;0.6781;0.9187;
1059.6000;0.6781;0.9187;
1059.9000;0.6772;0.9163;
1060.2000;0.6797;0.9333;
1060.5000;0.6797;0.9309;
1060.8000;0.6772;0.9236;
1061.1000;0.6797;0.9333;
1061.4000;0.6789;0.9260;
1061.7000;0.6789;0.9358;
1062.0000;0.6805;0.9382;
1062.3000;0.6797;0.9358;
1062.6000;0.6781;0.9285;
1062.9000;0.6805;0.9212;
1063.2000;0.6805;0.9260;
1063.5000;0.6716;0.9090;
1063.8000;0.6797;0.9236;
1064.1000;0.6781;0.9017;
1064.4000;0.6789;0.9042;
1064.7000;0.6789;0.9066;
1065.0000;0.6789;0.9115;
1065.3000;0.6789;0.9115;
1065.6000;0.6781;0.9042;
1065.9000;0.6838;0.9236;
1066.2000;0.6781;0.9212;
1066.5000;0.6805;0.9236;
1066.8000;0.6789;0.9212;
1067.1000;0.6781;0.9236;
1067.4000;0.6789;0.9333;
1067.7000;0.6772;0.9187;
1068.0000;0.6756;0.9139;
1068.3000;0.6789;0.9333;
1068.6000;0.6805;0.9333;
1068.9000;0.6789;0.9260;
1069.2000;0.6781;0.9187;
1069.5000;0.6797;0.9139;
1069.8000;0.6805;0.9163;
1070.1000;0.6781;0.9187;
1070.4000;0.6781;0.9163;
1070.7000;0.6821;0.9333;
1071.0000;0.6781;0.9285;
1071.3000;0.6781;0.9260;
1071.6000;0.6789;0.9236;
1071.9000;0.6813;0.9285;
1072.2000;0.6813;0.9260;
1072.5000;0.6797;0.9260;
1072.8000;0.6797;0.9187;
1073.1000;0.6805;0.9187;
1073.4000;0.6846;0.9285;
1073.7000;0.6764;0.9066;
1074.0000;0.6781;0.9115;
1074.3000;0.6740;0.9066;
1074.6000;0.6797;0.9187;
1074.9000;0.6789;0.9163;
1075.2000;0.6724;0.9042;
1075.5000;0.6805;0.9187;
1075.8000;0.6789;0.9139;
1076.1000;0.6748;0.9066;
1076.4000;0.6789;0.9212;
1076.7000;0.6829;0.9382;
1077.0000;0.6789;0.9406;
1077.3000;0.6805;0.9528;
1077.6000;0.6781;0.9431;
1077.9000;0.6854;0.9552;
1078.2000;0.6748;0.9260;
1078.5000;0.6805;0.9358;
1078.8000;0.6821;0.9406;
1079.1000;0.6789;0.9285;
1079.4000;0.6781;0.9163;
1079.7000;0.6756;0.9212;
1080.0000;0.6789;0.9309;
1080.3000;0.6772;0.9187;
1080.6000;0.6724;0.9212;
1080.9000;0.6789;0.9358;
1081.2000;0.6797;0.9406;
1081.5000;0.6781;0.9431;
1081.8000;0.6797;0.9455;
1082.1000;0.6789;0.9431;
1082.4000;0.6797;0.9576;
1082.7000;0.6764;0.9503;
1083.0000;0.6748;0.9406;
1083.3000;0.6805;0.9528;
1083.6000;0.6789;0.9479;
1083.9000;0.6764;0.9406;
1084.2000;0.6797;0.9576;
1084.5000;0.6781;0.9552;
1084.8000;0.6781;0.9576;
1085.1000;0.6781;0.9528;
1085.4000;0.6764;0.9455;
1085.7000;0.6789;0.9455;
1086.0000;0.6789;0.9455;
1086.3000;0.6797;0.9358;
1086.6000;0.6789;0.9333;
1086.9000;0.6789;0.9236;
1087.2000;0.6683;0.8969;
1087.5000;0.6667;0.8920;
1087.8000;0.6772;0.9187;
1088.1000;0.6772;0.9236;
1088.4000;0.6797;0.9236;
1088.7000;0.6805;0.9309;
1089.0000;0.6781;0.9285;
1089.3000;0.6764;0.9212;
1089.6000;0.6781;0.9187;
1089.9000;0.6756;0.9187;
1090.2000;0.6797;0.9236;
1090.5000;0.6764;0.9212;
1090.8000;0.6748;0.9139;
1091.1000;0.6789;0.9236;
1091.4000;0.6789;0.9212;
1091.7000;0.6789;0.9236;
1092.0000;0.6789;0.9285;
1092.3000;0.6764;0.9333;
1092.6000;0.6781;0.9358;
1092.9000;0.6789;0.9333;
1093.2000;0.6699;0.9139;
1093.5000;0.6772;0.9285;
1093.8000;0.6789;0.9285;
1094.1000;0.6781;0.9260;
1094.4000;0.6813;0.9358;
1094.7000;0.6764;0.9236;
1095.0000;0.6781;0.9260;
1095.3000;0.6707;0.9139;
1095.6000;0.6789;0.9358;
1095.9000;0.6821;0.9382;
1096.2000;0.6626;0.8920;
1096.5000;0.6813;0.9382;
1096.8000;0.6764;0.9309;
1097.1000;0.6740;0.9236;
1097.4000;0.6772;0.9260;
1097.7000;0.6821;0.9333;
1098.0000;0.6772;0.9139;
1098.3000;0.6764;0.9163;
1098.6000;0.6772;0.9187;
1098.9000;0.6772;0.9187;
1099.2000;0.6789;0.9285;
1099.5000;0.6764;0.9187;
1099.8000;0.6781;0.9163;
1100.1000;0.6781;0.9115;
1100.4000;0.6781;0.9090;
1100.7000;0.6772;0.9090;
1101.0000;0.6764;0.8993;
1101.3000;0.6789;0.9115;
1101.6000;0.6772;0.9115;
1101.9000;0.6756;0.9115;
1102.2000;0.6797;0.9236;
1102.5000;0.6797;0.9285;
1102.8000;0.6821;0.9285;
1103.1000;0.6789;0.9212;
1103.4000;0.6781;0.9187;
1103.7000;0.6764;0.9212;
1104.0000;0.6789;0.9358;
1104.3000;0.6756;0.9236;
1104.6000;0.6764;0.9309;
1104.9000;0.6756;0.9333;
1105.2000;0.6756;0.9333;
1105.5000;0.6756;0.9309;
1105.8000;0.6691;0.9090;
1106.1000;0.6732;0.9260;
1106.4000;0.6748;0.9260;
1106.7000;0.6764;0.9309;
1107.0000;0.6764;0.9406;
1107.3000;0.6764;0.9358;
1107.6000;0.6781;0.9431;
1107.9000;0.6781;0.9431;
1108.2000;0.6781;0.9455;
1108.5000;0.6740;0.9382;
1108.8000;0.6772;0.9358;
1109.1000;0.6772;0.9382;
1109.4000;0.6772;0.9285;
1109.7000;0.6772;0.9309;
1110.0000;0.6805;0.9309;
1110.3000;0.6764;0.9212;
1110.6000;0.6756;0.9139;
1110.9000;0.6756;0.9115;
1111.2000;0.6740;0.9042;
1111.5000;0.6764;0.8969;
1111.8000;0.6797;0.8969;
1112.1000;0.6805;0.9042;
1112.4000;0.6772;0.8969;
1112.7000;0.6764;0.8944;
1113.0000;0.6748;0.8944;
1113.3000;0.6772;0.8993;
1113.6000;0.6756;0.8920;
1113.9000;0.6748;0.8896;
1114.2000;0.6732;0.8871;
1114.5000;0.6748;0.8944;
1114.8000;0.6797;0.9042;
1115.1000;0.6756;0.8993;
1115.4000;0.6772;0.9042;
1115.7000;0.6740;0.9066;
1116.0000;0.6764;0.9066;
1116.3000;0.6805;0.9187;
1116.6000;0.6772;0.9236;
1116.9000;0.6764;0.9260;
1117.2000;0.6772;0.9285;
1117.5000;0.6764;0.9309;
1117.8000;0.6781;0.9333;
1118.1000;0.6781;0.9260;
1118.4000;0.6813;0.9455;
1118.7000;0.6821;0.9528;
1119.0000;0.6764;0.9309;
1119.3000;0.6756;0.9333;
1119.6000;0.6789;0.9406;
1119.9000;0.6772;0.9358;
1120.2000;0.6789;0.9309;
1120.5000;0.6846;0.9358;
1120.8000;0.6764;0.9163;
1121.1000;0.6764;0.9187;
1121.4000;0.6764;0.9187;
1121.7000;0.6772;0.9212;
1122.0000;0.6748;0.9309;
1122.3000;0.6764;0.9358;
1122.6000;0.6772;0.9358;
1122.9000;0.6764;0.9285;
1123.2000;0.6772;0.9285;
1123.5000;0.6740;0.9236;
1123.8000;0.6740;0.9115;
1124.1000;0.6781;0.9260;
1124.4000;0.6781;0.9212;
1124.7000;0.6781;0.9260;
1125.0000;0.6781;0.9285;
1125.3000;0.6732;0.9163;
1125.6000;0.6748;0.9236;
1125.9000;0.6748;0.9187;
1126.2000;0.6789;0.9260;
1126.5000;0.6772;0.9212;
1126.8000;0.6748;0.9163;
1127.1000;0.6707;0.8969;
1127.4000;0.6772;0.9115;
1127.7000;0.6683;0.8799;
1128.0000;0.6764;0.9042;
1128.3000;0.6772;0.9115;
1128.6000;0.6764;0.9042;
1128.9000;0.6756;0.9066;
1129.2000;0.6764;0.9115;
1129.5000;0.6772;0.9066;
1129.8000;0.6797;0.9042;
1130.1000;0.6772;0.8944;
1130.4000;0.6756;0.8871;
1130.7000;0.6748;0.8944;
1131.0000;0.6764;0.8944;
1131.3000;0.6764;0.9066;
1131.6000;0.6764;0.9066;
1131.9000;0.6772;0.9115;
1132.2000;0.6772;0.9139;
1132.5000;0.6764;0.9212;
1132.8000;0.6748;0.9260;
1133.1000;0.6781;0.9358;
1133.4000;0.6772;0.9333;
1133.7000;0.6740;0.9285;
1134.0000;0.6764;0.9309;
1134.3000;0.6707;0.9139;
1134.6000;0.6772;0.9260;
1134.9000;0.6756;0.9309;
1135.2000;0.6707;0.9187;
1135.5000;0.6748;0.9236;
1135.8000;0.6740;0.9163;
1136.1000;0.6764;0.9260;
1136.4000;0.6756;0.9187;
1136.7000;0.6781;0.9139;
1137.0000;0.6764;0.9163;
1137.3000;0.6748;0.9212;
1137.6000;0.6756;0.9212;
1137.9000;0.6756;0.9236;
1138.2000;0.6781;0.9285;
1138.5000;0.6756;0.9358;
1138.8000;0.6732;0.9333;
1139.1000;0.6756;0.9333;
1139.4000;0.6764;0.9333;
1139.7000;0.6764;0.9285;
1140.0000;0.6772;0.9212;
1140.3000;0.6781;0.9236;
1140.6000;0.6764;0.9187;
1140.9000;0.6756;0.9187;
1141.2000;0.6764;0.9236;
1141.5000;0.6789;0.9285;
1141.8000;0.6748;0.9212;
1142.1000;0.6707;0.9187;
1142.4000;0.6740;0.9260;
1142.7000;0.6764;0.9358;
1143.0000;0.6756;0.9212;
1143.3000;0.6764;0.9236;
1143.6000;0.6748;0.9212;
1143.9000;0.6756;0.9187;
1144.2000;0.6764;0.9212;
1144.5000;0.6805;0.9309;
1144.8000;0.6748;0.9187;
1145.1000;0.6740;0.9187;
1145.4000;0.6772;0.9309;
1145.7000;0.6732;0.9115;
1146.0000;0.6748;0.9115;
1146.3000;0.6846;0.9358;
1146.6000;0.6764;0.9187;
1146.9000;0.6756;0.9163;
1147.2000;0.6748;0.9163;
1147.5000;0.6740;0.9212;
1147.8000;0.6748;0.9260;
1148.1000;0.6707;0.9163;
1148.4000;0.6772;0.9309;
1148.7000;0.6724;0.9260;
1149.0000;0.6764;0.9358;
1149.3000;0.6740;0.9406;
1149.6000;0.6797;0.9576;
1149.9000;0.6772;0.9479;
1150.2000;0.6740;0.9431;
1150.5000;0.6756;0.9431;
1150.8000;0.6772;0.9479;
1151.1000;0.6764;0.9431;
1151.4000;0.6764;0.9431;
1151.7000;0.6764;0.9479;
1152.0000;0.6789;0.9649;
1152.3000;0.6764;0.9601;
1152.6000;0.6756;0.9576;
1152.9000;0.6740;0.9431;
1153.2000;0.6764;0.9503;
1153.5000;0.6756;0.9479;
1153.8000;0.6756;0.9406;
1154.1000;0.6805;0.9552;
1154.4000;0.6732;0.9503;
1154.7000;0.6732;0.9528;
1155.0000;0.6781;0.9722;
1155.3000;0.6699;0.9479;
1155.6000;0.6870;0.9819;
1155.9000;0.6748;0.9625;
1156.2000;0.6756;0.9674;
1156.5000;0.6748;0.9674;
1156.8000;0.6740;0.9552;
1157.1000;0.6707;0.9455;
1157.4000;0.6740;0.9625;
1157.7000;0.6748;0.9674;
1158.0000;0.6659;0.9382;
1158.3000;0.6748;0.9552;
1158.6000;0.6716;0.9552;
1158.9000;0.6716;0.9431;
1159.2000;0.6740;0.9455;
1159.5000;0.6772;0.9358;
1159.8000;0.6756;0.9309;
1160.1000;0.6691;0.9163;
1160.4000;0.6748;0.9309;
1160.7000;0.6716;0.9163;
1161.0000;0.6740;0.9212;
1161.3000;0.6732;0.9260;
1161.6000;0.6756;0.9187;
1161.9000;0.6732;0.9212;
1162.2000;0.6748;0.9333;
1162.5000;0.6764;0.9333;
1162.8000;0.6748;0.9260;
1163.1000;0.6716;0.9212;
1163.4000;0.6764;0.9333;
1163.7000;0.6756;0.9333;
1164.0000;0.6797;0.9431;
1164.3000;0.6772;0.9479;
1164.6000;0.6756;0.9576;
1164.9000;0.6764;0.9625;
1165.2000;0.6756;0.9625;
1165.5000;0.6740;0.9601;
1165.8000;0.6764;0.9625;
1166.1000;0.6829;0.9722;
1166.4000;0.6756;0.9455;
1166.7000;0.6764;0.9528;
1167.0000;0.6756;0.9406;
1167.3000;0.6748;0.9431;
1167.6000;0.6748;0.9552;
1167.9000;0.6781;0.9552;
1168.2000;0.6764;0.9552;
1168.5000;0.6716;0.9382;
1168.8000;0.6764;0.9528;
1169.1000;0.6683;0.9479;
1169.4000;0.6764;0.9625;
1169.7000;0.6748;0.9625;
1170.0000;0.6756;0.9576;
1170.3000;0.6748;0.9479;
1170.6000;0.6740;0.9455;
1170.9000;0.6748;0.9455;
1171.2000;0.6740;0.9455;
1171.5000;0.6740;0.9455;
1171.8000;0.6740;0.9503;
1172.1000;0.6724;0.9455;
1172.4000;0.6732;0.9528;
1172.7000;0.6821;0.9771;
1173.0000;0.6756;0.9674;
1173.3000;0.6724;0.9552;
1173.6000;0.6756;0.9552;
1173.9000;0.6748;0.9503;
1174.2000;0.6764;0.9503;
1174.5000;0.6821;0.9528;
1174.8000;0.6764;0.9358;
1175.1000;0.6748;0.9406;
1175.4000;0.6764;0.9455;
1175.7000;0.6748;0.9479;
1176.0000;0.6740;0.9479;
1176.3000;0.6724;0.9479;
1176.6000;0.6732;0.9479;
1176.9000;0.6756;0.9479;
1177.2000;0.6732;0.9431;
1177.5000;0.6732;0.9528;
1177.8000;0.6716;0.9431;
1178.1000;0.6740;0.9503;
1178.4000;0.6732;0.9382;
1178.7000;0.6838;0.9576;
1179.0000;0.6732;0.9382;
1179.3000;0.6748;0.9479;
1179.6000;0.6732;0.9455;
1179.9000;0.6772;0.9406;
1180.2000;0.6756;0.9285;
1180.5000;0.6756;0.9309;
1180.8000;0.6732;0.9236;
1181.1000;0.6732;0.9236;
1181.4000;0.6764;0.9309;
1181.7000;0.6789;0.9236;
1182.0000;0.6756;0.9187;
1182.3000;0.6732;0.9163;
1182.6000;0.6732;0.9285;
1182.9000;0.6748;0.9333;
1183.2000;0.6748;0.9406;
1183.5000;0.6740;0.9406;
1183.8000;0.6756;0.9479;
1184.1000;0.6724;0.9431;
1184.4000;0.6756;0.9503;
1184.7000;0.6740;0.9382;
1185.0000;0.6764;0.9503;
1185.3000;0.6748;0.9503;
1185.6000;0.6756;0.9625;
1185.9000;0.6740;0.9601;
1186.2000;0.6732;0.9576;
1186.5000;0.6724;0.9552;
1186.8000;0.6740;0.9552;
1187.1000;0.6675;0.9358;
1187.4000;0.6732;0.9406;
1187.7000;0.6716;0.9309;
1188.0000;0.6772;0.9431;
1188.3000;0.6740;0.9309;
1188.6000;0.6732;0.9236;
1188.9000;0.6740;0.9285;
1189.2000;0.6732;0.9236;
1189.5000;0.6683;0.9115;
1189.8000;0.6772;0.9333;
1190.1000;0.6756;0.9212;
1190.4000;0.6740;0.9285;
1190.7000;0.6748;0.9382;
1191.0000;0.6756;0.9406;
1191.3000;0.6756;0.9406;
1191.6000;0.6732;0.9260;
1191.9000;0.6724;0.9212;
1192.2000;0.6797;0.9431;
1192.5000;0.6789;0.9455;
1192.8000;0.6756;0.9382;
1193.1000;0.6748;0.9382;
1193.4000;0.6756;0.9431;
1193.7000;0.6748;0.9528;
1194.0000;0.6748;0.9479;
1194.3000;0.6740;0.9455;
1194.6000;0.6756;0.9576;
1194.9000;0.6732;0.9528;
1195.2000;0.6732;0.9601;
1195.5000;0.6756;0.9722;
1195.8000;0.6756;0.9552;
1196.1000;0.6740;0.9503;
1196.4000;0.6748;0.9431;
1196.7000;0.6650;0.9285;
1197.0000;0.6748;0.9479;
1197.3000;0.6724;0.9479;
1197.6000;0.6732;0.9479;
1197.9000;0.6716;0.9455;
1198.2000;0.6724;0.9552;
1198.5000;0.6732;0.9576;
1198.8000;0.6740;0.9503;
1199.1000;0.6724;0.9479;
1199.4000;0.6716;0.9528;
1199.7000;0.6740;0.9552;
1200.0000;0.6781;0.9552;
1200.3000;0.6748;0.9576;
1200.6000;0.6748;0.9528;
1200.9000;0.6667;0.9285;
1201.2000;0.6724;0.9431;
1201.5000;0.6748;0.9479;
1201.8000;0.6724;0.9503;
1202.1000;0.6732;0.9479;
1202.4000;0.6740;0.9503;
1202.7000;0.6724;0.9455;
1203.0000;0.6675;0.9358;
1203.3000;0.6716;0.9382;
1203.6000;0.6748;0.9503;
1203.9000;0.6707;0.9382;
1204.2000;0.6740;0.9479;
1204.5000;0.6756;0.9455;
1204.8000;0.6756;0.9479;
1205.1000;0.6756;0.9479;
1205.4000;0.6732;0.9406;
1205.7000;0.6764;0.9552;
1206.0000;0.6724;0.9528;
1206.3000;0.6756;0.9625;
1206.6000;0.6724;0.9576;
1206.9000;0.6724;0.9576;
1207.2000;0.6732;0.9552;
1207.5000;0.6732;0.9552;
1207.8000;0.6650;0.9358;
1208.1000;0.6724;0.9528;
1208.4000;0.6756;0.9528;
1208.7000;0.6732;0.9552;
1209.0000;0.6732;0.9528;
1209.3000;0.6716;0.9406;
1209.6000;0.6748;0.9576;
1209.9000;0.6716;0.9479;
1210.2000;0.6781;0.9674;
1210.5000;0.6724;0.9479;
1210.8000;0.6764;0.9503;
1211.1000;0.6781;0.9552;
1211.4000;0.6650;0.9212;
1211.7000;0.6781;0.9576;
1212.0000;0.6756;0.9503;
1212.3000;0.6740;0.9552;
1212.6000;0.6724;0.9528;
1212.9000;0.6675;0.9382;
1213.2000;0.6724;0.9431;
1213.5000;0.6772;0.9479;
1213.8000;0.6772;0.9552;
1214.1000;0.6789;0.9625;
1214.4000;0.6756;0.9455;
1214.7000;0.6748;0.9406;
1215.0000;0.6732;0.9333;
1215.3000;0.6675;0.9139;
1215.6000;0.6813;0.9528;
1215.9000;0.6740;0.9333;
1216.2000;0.6756;0.9285;
1216.5000;0.6716;0.9236;
1216.8000;0.6716;0.9212;
1217.1000;0.6707;0.9163;
1217.4000;0.6724;0.9139;
1217.7000;0.6740;0.9163;
1218.0000;0.6821;0.9431;
1218.3000;0.6716;0.9212;
1218.6000;0.6732;0.9285;
1218.9000;0.6724;0.9358;
1219.2000;0.6724;0.9382;
1219.5000;0.6699;0.9406;
1219.8000;0.6716;0.9406;
1220.1000;0.6724;0.9358;
1220.4000;0.6716;0.9285;
1220.7000;0.6716;0.9309;
1221.0000;0.6732;0.9358;
1221.3000;0.6748;0.9333;
1221.6000;0.6732;0.9382;
1221.9000;0.6716;0.9358;
1222.2000;0.6716;0.9431;
1222.5000;0.6724;0.9431;
1222.8000;0.6724;0.9479;
1223.1000;0.6724;0.9431;
1223.4000;0.6716;0.9503;
1223.7000;0.6716;0.9406;
1224.0000;0.6724;0.9455;
1224.3000;0.6716;0.9431;
1224.6000;0.6716;0.9406;
1224.9000;0.6732;0.9503;
1225.2000;0.6748;0.9503;
1225.5000;0.6699;0.9382;
1225.8000;0.6716;0.9382;
1226.1000;0.6716;0.9406;
1226.4000;0.6724;0.9455;
1226.7000;0.6732;0.9333;
1227.0000;0.6740;0.9236;
1227.3000;0.6740;0.9260;
1227.6000;0.6740;0.9309;
1227.9000;0.6740;0.9260;
1228.2000;0.6740;0.9260;
1228.5000;0.6740;0.9236;
1228.8000;0.6740;0.9236;
1229.1000;0.6716;0.9212;
1229.4000;0.6756;0.9309;
1229.7000;0.6699;0.9236;
1230.0000;0.6740;0.9260;
1230.3000;0.6724;0.9212;
1230.6000;0.6707;0.9236;
1230.9000;0.6724;0.9187;
1231.2000;0.6716;0.9236;
1231.5000;0.6724;0.9236;
1231.8000;0.6724;0.9309;
1232.1000;0.6732;0.9358;
1232.4000;0.6732;0.9431;
1232.7000;0.6724;0.9455;
1233.0000;0.6724;0.9382;
1233.3000;0.6756;0.9528;
1233.6000;0.6716;0.9431;
1233.9000;0.6732;0.9406;
1234.2000;0.6699;0.9358;
1234.5000;0.6707;0.9406;
1234.8000;0.6732;0.9503;
1235.1000;0.6772;0.9674;
1235.4000;0.6789;0.9698;
1235.7000;0.6724;0.9503;
1236.0000;0.6732;0.9576;
1236.3000;0.6716;0.9479;
1236.6000;0.6716;0.9479;
1236.9000;0.6740;0.9528;
1237.2000;0.6724;0.9552;
1237.5000;0.6740;0.9552;
1237.8000;0.6716;0.9576;
1238.1000;0.6732;0.9649;
1238.4000;0.6699;0.9455;
1238.7000;0.6748;0.9552;
1239.0000;0.6740;0.9552;
1239.3000;0.6797;0.9674;
1239.6000;0.6732;0.9479;
1239.9000;0.6740;0.9528;
1240.2000;0.6724;0.9552;
1240.5000;0.6740;0.9528;
1240.8000;0.6724;0.9503;
1241.1000;0.6691;0.9431;
1241.4000;0.6732;0.9528;
1241.7000;0.6748;0.9528;
1242.0000;0.6683;0.9382;
1242.3000;0.6732;0.9503;
1242.6000;0.6732;0.9528;
1242.9000;0.6724;0.9455;
1243.2000;0.6740;0.9698;
1243.5000;0.6724;0.9649;
1243.8000;0.6781;0.9771;
1244.1000;0.6732;0.9625;
1244.4000;0.6716;0.9649;
1244.7000;0.6707;0.9552;
1245.0000;0.6724;0.9674;
1245.3000;0.6707;0.9528;
1245.6000;0.6724;0.9576;
1245.9000;0.6748;0.9528;
1246.2000;0.6691;0.9333;
1246.5000;0.6724;0.9406;
1246.8000;0.6748;0.9479;
1247.1000;0.6732;0.9406;
1247.4000;0.6716;0.9260;
1247.7000;0.6699;0.9236;
1248.0000;0.6724;0.9236;
1248.3000;0.6716;0.9285;
1248.6000;0.6716;0.9358;
1248.9000;0.6642;0.9163;
1249.2000;0.6716;0.9309;
1249.5000;0.6716;0.9406;
1249.8000;0.6756;0.9479;
1250.1000;0.6740;0.9479;
1250.4000;0.6732;0.9455;
1250.7000;0.6764;0.9479;
1251.0000;0.6716;0.9406;
1251.3000;0.6683;0.9382;
1251.6000;0.6659;0.9285;
1251.9000;0.6724;0.9333;
1252.2000;0.6724;0.9309;
1252.5000;0.6740;0.9309;
1252.8000;0.6699;0.9212;
1253.1000;0.6699;0.9285;
1253.4000;0.6724;0.9382;
1253.7000;0.6707;0.9309;
1254.0000;0.6699;0.9406;
1254.3000;0.6707;0.9503;
1254.6000;0.6724;0.9576;
1254.9000;0.6716;0.9528;
1255.2000;0.6716;0.9479;
1255.5000;0.6732;0.9503;
1255.8000;0.6748;0.9528;
1256.1000;0.6707;0.9455;
1256.4000;0.6732;0.9528;
1256.7000;0.6716;0.9601;
1257.0000;0.6691;0.9528;
1257.3000;0.6699;0.9503;
1257.6000;0.6772;0.9698;
1257.9000;0.6683;0.9406;
1258.2000;0.6724;0.9431;
1258.5000;0.6748;0.9431;
1258.8000;0.6691;0.9285;
1259.1000;0.6667;0.9187;
1259.4000;0.6732;0.9285;
1259.7000;0.6724;0.9309;
1260.0000;0.6756;0.9382;
1260.3000;0.6724;0.9309;
1260.6000;0.6716;0.9333;
1260.9000;0.6716;0.9358;
1261.2000;0.6732;0.9406;
1261.5000;0.6724;0.9382;
1261.8000;0.6724;0.9358;
1262.1000;0.6707;0.9431;
1262.4000;0.6756;0.9576;
1262.7000;0.6772;0.9625;
1263.0000;0.6748;0.9455;
1263.3000;0.6732;0.9382;
1263.6000;0.6740;0.9309;
1263.9000;0.6756;0.9333;
1264.2000;0.6732;0.9212;
1264.5000;0.6772;0.9358;
1264.8000;0.6740;0.9382;
1265.1000;0.6724;0.9431;
1265.4000;0.6732;0.9406;
1265.7000;0.6732;0.9406;
1266.0000;0.6813;0.9576;
1266.3000;0.6724;0.9382;
1266.6000;0.6724;0.9406;
1266.9000;0.6732;0.9455;
1267.2000;0.6707;0.9479;
1267.5000;0.6740;0.9552;
1267.8000;0.6724;0.9455;
1268.1000;0.6667;0.9285;
1268.4000;0.6724;0.9431;
1268.7000;0.6724;0.9406;
1269.0000;0.6675;0.9285;
1269.3000;0.6707;0.9309;
1269.6000;0.6707;0.9406;
1269.9000;0.6732;0.9382;
1270.2000;0.6724;0.9358;
1270.5000;0.6724;0.9382;
1270.8000;0.6707;0.9455;
1271.1000;0.6724;0.9431;
1271.4000;0.6724;0.9528;
1271.7000;0.6724;0.9503;
1272.0000;0.6716;0.9528;
1272.3000;0.6716;0.9503;
1272.6000;0.6707;0.9406;
1272.9000;0.6732;0.9382;
1273.2000;0.6707;0.9212;
1273.5000;0.6748;0.9236;
1273.8000;0.6781;0.9309;
1274.1000;0.6756;0.9260;
1274.4000;0.6724;0.9187;
1274.7000;0.6659;0.9066;
1275.0000;0.6724;0.9285;
1275.3000;0.6748;0.9455;
1275.6000;0.6724;0.9382;
1275.9000;0.6716;0.9431;
1276.2000;0.6732;0.9528;
1276.5000;0.6732;0.9528;
1276.8000;0.6724;0.9479;
1277.1000;0.6732;0.9479;
1277.4000;0.6748;0.9479;
1277.7000;0.6707;0.9406;
1278.0000;0.6716;0.9479;
1278.3000;0.6716;0.9455;
1278.6000;0.6707;0.9479;
1278.9000;0.6732;0.9576;
1279.2000;0.6732;0.9552;
1279.5000;0.6707;0.9382;
1279.8000;0.6724;0.9406;
1280.1000;0.6707;0.9285;
1280.4000;0.6716;0.9309;
1280.7000;0.6716;0.9382;
1281.0000;0.6732;0.9503;
1281.3000;0.6748;0.9552;
1281.6000;0.6732;0.9406;
1281.9000;0.6724;0.9285;
1282.2000;0.6716;0.9260;
1282.5000;0.6732;0.9382;
1282.8000;0.6748;0.9431;
1283.1000;0.6707;0.9406;
1283.4000;0.6707;0.9528;
1283.7000;0.6829;0.9795;
1284.0000;0.6732;0.9455;
1284.3000;0.6707;0.9406;
1284.6000;0.6650;0.9212;
1284.9000;0.6691;0.9333;
1285.2000;0.6707;0.9406;
1285.5000;0.6707;0.9333;
1285.8000;0.6748;0.9479;
1286.1000;0.6724;0.9552;
1286.4000;0.6659;0.9382;
1286.7000;0.6716;0.9552;
1287.0000;0.6740;0.9674;
1287.3000;0.6724;0.9601;
1287.6000;0.6732;0.9552;
1287.9000;0.6748;0.9455;
1288.2000;0.6764;0.9528;
1288.5000;0.6675;0.9163;
1288.8000;0.6756;0.9455;
1289.1000;0.6740;0.9382;
1289.4000;0.6732;0.9358;
1289.7000;0.6748;0.9406;
1290.0000;0.6724;0.9285;
1290.3000;0.6748;0.9382;
1290.6000;0.6724;0.9358;
1290.9000;0.6716;0.9406;
1291.2000;0.6724;0.9382;
1291.5000;0.6707;0.9309;
1291.8000;0.6699;0.9236;
1292.1000;0.6699;0.9333;
1292.4000;0.6699;0.9406;
1292.7000;0.6699;0.9455;
1293.0000;0.6740;0.9601;
1293.3000;0.6724;0.9479;
1293.6000;0.6707;0.9528;
1293.9000;0.6716;0.9455;
1294.2000;0.6707;0.9406;
1294.5000;0.6724;0.9455;
1294.8000;0.6724;0.9455;
1295.1000;0.6699;0.9455;
1295.4000;0.6707;0.9552;
1295.7000;0.6699;0.9576;
1296.0000;0.6707;0.9601;
1296.3000;0.6707;0.9601;
1296.6000;0.6707;0.9576;
1296.9000;0.6732;0.9625;
1297.2000;0.6707;0.9576;
1297.5000;0.6716;0.9479;
1297.8000;0.6716;0.9479;
1298.1000;0.6707;0.9358;
1298.4000;0.6716;0.9358;
1298.7000;0.6699;0.9309;
1299.0000;0.6707;0.9333;
1299.3000;0.6707;0.9358;
1299.6000;0.6707;0.9309;
1299.9000;0.6716;0.9309;
1300.2000;0.6724;0.9431;
1300.5000;0.6707;0.9285;
1300.8000;0.6707;0.9212;
1301.1000;0.6716;0.9333;
1301.4000;0.6821;0.9601;
1301.7000;0.6781;0.9552;
1302.0000;0.6732;0.9382;
1302.3000;0.6707;0.9431;
1302.6000;0.6748;0.9455;
1302.9000;0.6707;0.9479;
1303.2000;0.6764;0.9552;
1303.5000;0.6707;0.9358;
1303.8000;0.6691;0.9285;
1304.1000;0.6716;0.9406;
1304.4000;0.6732;0.9431;
1304.7000;0.6707;0.9382;
1305.0000;0.6716;0.9479;
1305.3000;0.6707;0.9455;
1305.6000;0.6699;0.9576;
1305.9000;0.6707;0.9674;
1306.2000;0.6764;0.9722;
1306.5000;0.6699;0.9552;
1306.8000;0.6772;0.9722;
1307.1000;0.6724;0.9576;
1307.4000;0.6650;0.9382;
1307.7000;0.6756;0.9576;
1308.0000;0.6716;0.9431;
1308.3000;0.6691;0.9309;
1308.6000;0.6748;0.9358;
1308.9000;0.6707;0.9333;
1309.2000;0.6707;0.9382;
1309.5000;0.6707;0.9382;
1309.8000;0.6675;0.9309;
1310.1000;0.6740;0.9431;
1310.4000;0.6716;0.9406;
1310.7000;0.6724;0.9455;
1311.0000;0.6707;0.9382;
1311.3000;0.6707;0.9406;
1311.6000;0.6699;0.9406;
1311.9000;0.6732;0.9382;
1312.2000;0.6707;0.9382;
1312.5000;0.6691;0.9382;
1312.8000;0.6716;0.9455;
1313.1000;0.6716;0.9479;
1313.4000;0.6707;0.9503;
1313.7000;0.6707;0.9528;
1314.0000;0.6626;0.9358;
1314.3000;0.6699;0.9431;
1314.6000;0.6716;0.9406;
1314.9000;0.6699;0.9382;
1315.2000;0.6707;0.9285;
1315.5000;0.6675;0.9115;
1315.8000;0.6716;0.9139;
1316.1000;0.6724;0.9066;
1316.4000;0.6732;0.9090;
1316.7000;0.6683;0.9163;
1317.0000;0.6716;0.9212;
1317.3000;0.6707;0.9285;
1317.6000;0.6724;0.9382;
1317.9000;0.6699;0.9309;
1318.2000;0.6724;0.9333;
1318.5000;0.6707;0.9285;
1318.8000;0.6707;0.9285;
1319.1000;0.6707;0.9236;
1319.4000;0.6699;0.9333;
1319.7000;0.6699;0.9382;
1320.0000;0.6716;0.9479;
1320.3000;0.6675;0.9236;
1320.6000;0.6691;0.9260;
1320.9000;0.6716;0.9431;
1321.2000;0.6724;0.9528;
1321.5000;0.6716;0.9479;
1321.8000;0.6699;0.9479;
1322.1000;0.6724;0.9503;
1322.4000;0.6699;0.9431;
1322.7000;0.6691;0.9236;
1323.0000;0.6716;0.9236;
1323.3000;0.6716;0.9260;
1323.6000;0.6699;0.9163;
1323.9000;0.6764;0.9333;
1324.2000;0.6699;0.9212;
1324.5000;0.6732;0.9309;
1324.8000;0.6716;0.9382;
1325.1000;0.6650;0.9187;
1325.4000;0.6724;0.9431;
1325.7000;0.6667;0.9236;
1326.0000;0.6724;0.9406;
1326.3000;0.6699;0.9431;
1326.6000;0.6699;0.9406;
1326.9000;0.6756;0.9479;
1327.2000;0.6732;0.9431;
1327.5000;0.6716;0.9358;
1327.8000;0.6797;0.9625;
1328.1000;0.6748;0.9455;
1328.4000;0.6707;0.9285;
1328.7000;0.6707;0.9260;
1329.0000;0.6691;0.9212;
1329.3000;0.6683;0.9163;
1329.6000;0.6675;0.9139;
1329.9000;0.6716;0.9163;
1330.2000;0.6716;0.9090;
1330.5000;0.6732;0.9163;
1330.8000;0.6699;0.9090;
1331.1000;0.6707;0.9163;
1331.4000;0.6699;0.9309;
1331.7000;0.6699;0.9309;
1332.0000;0.6732;0.9309;
1332.3000;0.6699;0.9260;
1332.6000;0.6740;0.9236;
1332.9000;0.6724;0.9163;
1333.2000;0.6699;0.9260;
1333.5000;0.6707;0.9285;
1333.8000;0.6740;0.9358;
1334.1000;0.6716;0.9382;
1334.4000;0.6650;0.9236;
1334.7000;0.6707;0.9382;
1335.0000;0.6838;0.9795;
1335.3000;0.6716;0.9479;
1335.6000;0.6756;0.9479;
1335.9000;0.6707;0.9333;
1336.2000;0.6699;0.9455;
1336.5000;0.6707;0.9406;
1336.8000;0.6691;0.9358;
1337.1000;0.6634;0.9285;
1337.4000;0.6691;0.9601;
1337.7000;0.6699;0.9601;
1338.0000;0.6602;0.9285;
1338.3000;0.6724;0.9576;
1338.6000;0.6683;0.9455;
1338.9000;0.6716;0.9479;
1339.2000;0.6691;0.9528;
1339.5000;0.6675;0.9479;
1339.8000;0.6716;0.9552;
1340.1000;0.6683;0.9431;
1340.4000;0.6699;0.9455;
1340.7000;0.6716;0.9455;
1341.0000;0.6699;0.9503;
1341.3000;0.6707;0.9406;
1341.6000;0.6748;0.9431;
1341.9000;0.6707;0.9260;
1342.2000;0.6699;0.9285;
1342.5000;0.6683;0.9333;
1342.8000;0.6650;0.9382;
1343.1000;0.6699;0.9552;
1343.4000;0.6691;0.9503;
1343.7000;0.6699;0.9528;
1344.0000;0.6716;0.9649;
1344.3000;0.6707;0.9601;
1344.6000;0.6699;0.9503;
1344.9000;0.6699;0.9479;
1345.2000;0.6691;0.9431;
1345.5000;0.6691;0.9333;
1345.8000;0.6642;0.9139;
1346.1000;0.6707;0.9260;
1346.4000;0.6716;0.9333;
1346.7000;0.6675;0.9285;
1347.0000;0.6724;0.9431;
1347.3000;0.6756;0.9576;
1347.6000;0.6716;0.9528;
1347.9000;0.6716;0.9479;
1348.2000;0.6707;0.9333;
1348.5000;0.6724;0.9309;
1348.8000;0.6756;0.9455;
1349.1000;0.6699;0.9212;
1349.4000;0.6699;0.9139;
1349.7000;0.6683;0.9163;
1350.0000;0.6707;0.9187;
1350.3000;0.6732;0.9309;
1350.6000;0.6691;0.9285;
1350.9000;0.6707;0.9236;
1351.2000;0.6699;0.9260;
1351.5000;0.6699;0.9260;
1351.8000;0.6699;0.9285;
1352.1000;0.6707;0.9212;
1352.4000;0.6699;0.9260;
1352.7000;0.6691;0.9285;
1353.0000;0.6716;0.9382;
1353.3000;0.6716;0.9285;
1353.6000;0.6699;0.9333;
1353.9000;0.6716;0.9406;
1354.2000;0.6699;0.9333;
1354.5000;0.6691;0.9285;
1354.8000;0.6691;0.9333;
1355.1000;0.6707;0.9358;
1355.4000;0.6732;0.9406;
1355.7000;0.6724;0.9333;
1356.0000;0.6691;0.9260;
1356.3000;0.6716;0.9309;
1356.6000;0.6699;0.9260;
1356.9000;0.6724;0.9236;
1357.2000;0.6748;0.9358;
1357.5000;0.6699;0.9236;
1357.8000;0.6683;0.9260;
1358.1000;0.6724;0.9431;
1358.4000;0.6724;0.9503;
1358.7000;0.6772;0.9649;
1359.0000;0.6683;0.9382;
1359.3000;0.6699;0.9503;
1359.6000;0.6691;0.9479;
1359.9000;0.6707;0.9455;
1360.2000;0.6667;0.9479;
1360.5000;0.6740;0.9625;
1360.8000;0.6764;0.9601;
1361.1000;0.6699;0.9406;
1361.4000;0.6650;0.9309;
1361.7000;0.6740;0.9601;
1362.0000;0.6724;0.9552;
1362.3000;0.6732;0.9528;
1362.6000;0.6716;0.9528;
1362.9000;0.6724;0.9455;
1363.2000;0.6683;0.9382;
1363.5000;0.6699;0.9503;
1363.8000;0.6707;0.9576;
1364.1000;0.6707;0.9552;
1364.4000;0.6732;0.9601;
1364.7000;0.6691;0.9503;
1365.0000;0.6691;0.9503;
1365.3000;0.6724;0.9552;
1365.6000;0.6699;0.9479;
1365.9000;0.6707;0.9479;
1366.2000;0.6699;0.9479;
1366.5000;0.6748;0.9528;
1366.8000;0.6772;0.9528;
1367.1000;0.6707;0.9333;
1367.4000;0.6650;0.9212;
1367.7000;0.6659;0.9236;
1368.0000;0.6781;0.9528;
1368.3000;0.6870;0.9771;
1368.6000;0.6724;0.9503;
1368.9000;0.6618;0.9236;
1369.2000;0.6781;0.9649;
1369.5000;0.6740;0.9576;
1369.8000;0.6707;0.9455;
1370.1000;0.6707;0.9528;
1370.4000;0.6691;0.9503;
1370.7000;0.6724;0.9601;
1371.0000;0.6732;0.9552;
1371.3000;0.6707;0.9455;
1371.6000;0.6707;0.9431;
1371.9000;0.6716;0.9333;
1372.2000;0.6724;0.9455;
1372.5000;0.6724;0.9503;
1372.8000;0.6707;0.9455;
1373.1000;0.6675;0.9309;
1373.4000;0.6716;0.9455;
1373.7000;0.6683;0.9455;
1374.0000;0.6691;0.9431;
1374.3000;0.6691;0.9479;
1374.6000;0.6683;0.9455;
1374.9000;0.6667;0.9406;
1375.2000;0.6699;0.9528;
1375.5000;0.6683;0.9479;
1375.8000;0.6716;0.9431;
1376.1000;0.6691;0.9358;
1376.4000;0.6740;0.9479;
1376.7000;0.6707;0.9358;
1377.0000;0.6724;0.9431;
1377.3000;0.6716;0.9431;
1377.6000;0.6683;0.9455;
1377.9000;0.6716;0.9528;
1378.2000;0.6707;0.9528;
1378.5000;0.6707;0.9576;
1378.8000;0.6642;0.9358;
1379.1000;0.6724;0.9576;
1379.4000;0.6659;0.9431;
1379.7000;0.6699;0.9528;
1380.0000;0.6691;0.9503;
1380.3000;0.6716;0.9649;
1380.6000;0.6707;0.9601;
1380.9000;0.6699;0.9528;
1381.2000;0.6716;0.9431;
1381.5000;0.6707;0.9382;
1381.8000;0.6707;0.9382;
1382.1000;0.6716;0.9406;
1382.4000;0.6789;0.9625;
1382.7000;0.6764;0.9528;
1383.0000;0.6667;0.9285;
1383.3000;0.6699;0.9406;
1383.6000;0.6691;0.9382;
1383.9000;0.6667;0.9285;
1384.2000;0.6789;0.9601;
1384.5000;0.6707;0.9455;
1384.8000;0.6699;0.9503;
1385.1000;0.6699;0.9455;
1385.4000;0.6699;0.9455;
1385.7000;0.6707;0.9455;
1386.0000;0.6699;0.9358;
1386.3000;0.6683;0.9309;
1386.6000;0.6683;0.9382;
1386.9000;0.6659;0.9406;
1387.2000;0.6691;0.9455;
1387.5000;0.6732;0.9431;
1387.8000;0.6699;0.9358;
1388.1000;0.6675;0.9260;
1388.4000;0.6707;0.9333;
1388.7000;0.6699;0.9212;
1389.0000;0.6675;0.9115;
1389.3000;0.6691;0.9163;
1389.6000;0.6691;0.9212;
1389.9000;0.6683;0.9333;
1390.2000;0.6691;0.9333;
1390.5000;0.6650;0.9309;
1390.8000;0.6707;0.9358;
1391.1000;0.6707;0.9260;
1391.4000;0.6675;0.9187;
1391.7000;0.6691;0.9260;
1392.0000;0.6699;0.9285;
1392.3000;0.6626;0.9139;
1392.6000;0.6691;0.9260;
1392.9000;0.6699;0.9309;
1393.2000;0.6707;0.9431;
1393.5000;0.6724;0.9455;
1393.8000;0.6716;0.9333;
1394.1000;0.6650;0.9212;
1394.4000;0.6675;0.9309;
1394.7000;0.6691;0.9406;
1395.0000;0.6659;0.9260;
1395.3000;0.6618;0.9115;
1395.6000;0.6748;0.9431;
1395.9000;0.6764;0.9503;
1396.2000;0.6748;0.9382;
1396.5000;0.6724;0.9333;
1396.8000;0.6675;0.9236;
1397.1000;0.6659;0.9260;
1397.4000;0.6683;0.9358;
1397.7000;0.6699;0.9382;
1398.0000;0.6707;0.9503;
1398.3000;0.6667;0.9358;
1398.6000;0.6740;0.9503;
1398.9000;0.6699;0.9431;
1399.2000;0.6691;0.9503;
1399.5000;0.6683;0.9455;
1399.8000;0.6724;0.9479;
