time/ms;Fluo/V;P700 deltaI/I x10³;
-199.8000;0.7407;0.9139;
-199.5000;0.7367;0.8944;
-199.2000;0.7375;0.8920;
-198.9000;0.7350;0.8774;
-198.6000;0.7407;0.8920;
-198.3000;0.7391;0.8896;
-198.0000;0.7367;0.8871;
-197.7000;0.7383;0.9017;
-197.4000;0.7367;0.9090;
-197.1000;0.7375;0.9066;
-196.8000;0.7383;0.9163;
-196.5000;0.7342;0.9066;
-196.2000;0.7391;0.9163;
-195.9000;0.7367;0.9090;
-195.6000;0.7383;0.8993;
-195.3000;0.7342;0.8847;
-195.0000;0.7497;0.9163;
-194.7000;0.7342;0.8847;
-194.4000;0.7326;0.8847;
-194.1000;0.7432;0.9163;
-193.8000;0.7367;0.9017;
-193.5000;0.7367;0.9017;
-193.2000;0.7391;0.9017;
-192.9000;0.7367;0.8993;
-192.6000;0.7424;0.9163;
-192.3000;0.7359;0.9017;
-192.0000;0.7375;0.9090;
-191.7000;0.7416;0.9115;
-191.4000;0.7367;0.9042;
-191.1000;0.7318;0.8969;
-190.8000;0.7383;0.9090;
-190.5000;0.7375;0.9042;
-190.2000;0.7391;0.9042;
-189.9000;0.7399;0.9042;
-189.6000;0.7383;0.8969;
-189.3000;0.7375;0.8944;
-189.0000;0.7391;0.9115;
-188.7000;0.7391;0.9212;
-188.4000;0.7416;0.9260;
-188.1000;0.7383;0.9212;
-187.8000;0.7424;0.9187;
-187.5000;0.7407;0.9187;
-187.2000;0.7407;0.9187;
-186.9000;0.7407;0.9163;
-186.6000;0.7367;0.9066;
-186.3000;0.7342;0.9017;
-186.0000;0.7367;0.9066;
-185.7000;0.7424;0.9187;
-185.4000;0.7407;0.9163;
-185.1000;0.7359;0.9115;
-184.8000;0.7350;0.9139;
-184.5000;0.7383;0.9163;
-184.2000;0.7367;0.9066;
-183.9000;0.7399;0.9115;
-183.6000;0.7407;0.9066;
-183.3000;0.7359;0.8969;
-183.0000;0.7399;0.9090;
-182.7000;0.7375;0.8969;
-182.4000;0.7359;0.8871;
-182.1000;0.7383;0.8920;
-181.8000;0.7375;0.8920;
-181.5000;0.7375;0.8969;
-181.2000;0.7424;0.9090;
-180.9000;0.7342;0.8993;
-180.6000;0.7367;0.8993;
-180.3000;0.7359;0.8993;
-180.0000;0.7359;0.8993;
-179.7000;0.7367;0.9066;
-179.4000;0.7375;0.9066;
-179.1000;0.7383;0.9090;
-178.8000;0.7383;0.9115;
-178.5000;0.7375;0.9115;
-178.2000;0.7448;0.9285;
-177.9000;0.7407;0.9187;
-177.6000;0.7342;0.9139;
-177.3000;0.7375;0.9212;
-177.0000;0.7399;0.9309;
-176.7000;0.7399;0.9309;
-176.4000;0.7359;0.9163;
-176.1000;0.7383;0.9115;
-175.8000;0.7326;0.9090;
-175.5000;0.7383;0.9236;
-175.2000;0.7367;0.9285;
-174.9000;0.7391;0.9333;
-174.6000;0.7383;0.9382;
-174.3000;0.7342;0.9163;
-174.0000;0.7407;0.9260;
-173.7000;0.7375;0.9139;
-173.4000;0.7464;0.9309;
-173.1000;0.7432;0.9187;
-172.8000;0.7367;0.9042;
-172.5000;0.7350;0.9090;
-172.2000;0.7391;0.9260;
-171.9000;0.7367;0.9285;
-171.6000;0.7383;0.9358;
-171.3000;0.7359;0.9358;
-171.0000;0.7350;0.9236;
-170.7000;0.7359;0.9285;
-170.4000;0.7391;0.9236;
-170.1000;0.7350;0.9042;
-169.8000;0.7383;0.9090;
-169.5000;0.7391;0.9187;
-169.2000;0.7391;0.9212;
-168.9000;0.7424;0.9309;
-168.6000;0.7424;0.9285;
-168.3000;0.7375;0.9236;
-168.0000;0.7383;0.9260;
-167.7000;0.7375;0.9236;
-167.4000;0.7334;0.9187;
-167.1000;0.7383;0.9285;
-166.8000;0.7383;0.9285;
-166.5000;0.7375;0.9090;
-166.2000;0.7375;0.9163;
-165.9000;0.7342;0.9187;
-165.6000;0.7391;0.9236;
-165.3000;0.7407;0.9187;
-165.0000;0.7285;0.8823;
-164.7000;0.7359;0.8944;
-164.4000;0.7375;0.8993;
-164.1000;0.7383;0.9042;
-163.8000;0.7383;0.9139;
-163.5000;0.7375;0.9212;
-163.2000;0.7391;0.9212;
-162.9000;0.7359;0.9090;
-162.6000;0.7456;0.9285;
-162.3000;0.7367;0.9139;
-162.0000;0.7342;0.9042;
-161.7000;0.7367;0.9066;
-161.4000;0.7367;0.9017;
-161.1000;0.7424;0.9115;
-160.8000;0.7367;0.8969;
-160.5000;0.7367;0.8944;
-160.2000;0.7383;0.9066;
-159.9000;0.7383;0.9042;
-159.6000;0.7375;0.8993;
-159.3000;0.7407;0.9115;
-159.0000;0.7326;0.8823;
-158.7000;0.7350;0.8896;
-158.4000;0.7383;0.8993;
-158.1000;0.7383;0.8920;
-157.8000;0.7383;0.8993;
-157.5000;0.7399;0.9090;
-157.2000;0.7391;0.9163;
-156.9000;0.7375;0.9115;
-156.6000;0.7367;0.9066;
-156.3000;0.7375;0.9042;
-156.0000;0.7375;0.8993;
-155.7000;0.7375;0.9090;
-155.4000;0.7359;0.9042;
-155.1000;0.7383;0.9090;
-154.8000;0.7481;0.9285;
-154.5000;0.7383;0.9017;
-154.2000;0.7391;0.8993;
-153.9000;0.7399;0.9066;
-153.6000;0.7383;0.9017;
-153.3000;0.7383;0.8993;
-153.0000;0.7383;0.9017;
-152.7000;0.7383;0.9066;
-152.4000;0.7367;0.9017;
-152.1000;0.7375;0.8993;
-151.8000;0.7383;0.8969;
-151.5000;0.7399;0.8993;
-151.2000;0.7367;0.8871;
-150.9000;0.7383;0.8969;
-150.6000;0.7350;0.8847;
-150.3000;0.7375;0.8969;
-150.0000;0.7383;0.9042;
-149.7000;0.7383;0.8944;
-149.4000;0.7367;0.8944;
-149.1000;0.7375;0.8969;
-148.8000;0.7367;0.9042;
-148.5000;0.7326;0.8847;
-148.2000;0.7383;0.8993;
-147.9000;0.7375;0.9042;
-147.6000;0.7391;0.9017;
-147.3000;0.7375;0.9017;
-147.0000;0.7367;0.9090;
-146.7000;0.7375;0.9187;
-146.4000;0.7367;0.9236;
-146.1000;0.7391;0.9212;
-145.8000;0.7375;0.9090;
-145.5000;0.7375;0.9090;
-145.2000;0.7334;0.9115;
-144.9000;0.7367;0.9236;
-144.6000;0.7375;0.9309;
-144.3000;0.7383;0.9212;
-144.0000;0.7391;0.9260;
-143.7000;0.7375;0.9309;
-143.4000;0.7359;0.9139;
-143.1000;0.7391;0.9115;
-142.8000;0.7375;0.9115;
-142.5000;0.7407;0.9115;
-142.2000;0.7359;0.9090;
-141.9000;0.7375;0.9066;
-141.6000;0.7367;0.9066;
-141.3000;0.7375;0.9042;
-141.0000;0.7375;0.9066;
-140.7000;0.7383;0.8993;
-140.4000;0.7375;0.8944;
-140.1000;0.7383;0.9042;
-139.8000;0.7383;0.9066;
-139.5000;0.7407;0.9115;
-139.2000;0.7375;0.9042;
-138.9000;0.7367;0.9042;
-138.6000;0.7367;0.9017;
-138.3000;0.7367;0.8993;
-138.0000;0.7383;0.9066;
-137.7000;0.7375;0.9042;
-137.4000;0.7367;0.8969;
-137.1000;0.7383;0.8944;
-136.8000;0.7383;0.8969;
-136.5000;0.7391;0.9017;
-136.2000;0.7375;0.8993;
-135.9000;0.7383;0.9017;
-135.6000;0.7375;0.9017;
-135.3000;0.7383;0.8944;
-135.0000;0.7375;0.8896;
-134.7000;0.7375;0.8774;
-134.4000;0.7391;0.8799;
-134.1000;0.7375;0.8823;
-133.8000;0.7391;0.8823;
-133.5000;0.7375;0.8896;
-133.2000;0.7383;0.8896;
-132.9000;0.7359;0.8847;
-132.6000;0.7391;0.9017;
-132.3000;0.7383;0.9066;
-132.0000;0.7440;0.9212;
-131.7000;0.7375;0.8969;
-131.4000;0.7391;0.9042;
-131.1000;0.7367;0.8993;
-130.8000;0.7367;0.8944;
-130.5000;0.7367;0.8871;
-130.2000;0.7359;0.8920;
-129.9000;0.7375;0.9042;
-129.6000;0.7383;0.9017;
-129.3000;0.7367;0.8920;
-129.0000;0.7359;0.8871;
-128.7000;0.7383;0.8993;
-128.4000;0.7399;0.8944;
-128.1000;0.7399;0.8920;
-127.8000;0.7375;0.8920;
-127.5000;0.7293;0.8628;
-127.2000;0.7367;0.8920;
-126.9000;0.7383;0.9042;
-126.6000;0.7375;0.9042;
-126.3000;0.7367;0.9066;
-126.0000;0.7367;0.9042;
-125.7000;0.7367;0.8993;
-125.4000;0.7367;0.8993;
-125.1000;0.7375;0.8993;
-124.8000;0.7367;0.8896;
-124.5000;0.7318;0.8750;
-124.2000;0.7359;0.8896;
-123.9000;0.7367;0.8896;
-123.6000;0.7375;0.8920;
-123.3000;0.7375;0.8944;
-123.0000;0.7383;0.9042;
-122.7000;0.7359;0.8969;
-122.4000;0.7375;0.8944;
-122.1000;0.7383;0.8944;
-121.8000;0.7359;0.8896;
-121.5000;0.7375;0.8896;
-121.2000;0.7383;0.8871;
-120.9000;0.7383;0.8896;
-120.6000;0.7375;0.8774;
-120.3000;0.7359;0.8653;
-120.0000;0.7375;0.8701;
-119.7000;0.7375;0.8774;
-119.4000;0.7383;0.8750;
-119.1000;0.7383;0.8750;
-118.8000;0.7375;0.8726;
-118.5000;0.7391;0.8896;
-118.2000;0.7375;0.8969;
-117.9000;0.7383;0.8993;
-117.6000;0.7383;0.8969;
-117.3000;0.7383;0.8896;
-117.0000;0.7391;0.8969;
-116.7000;0.7391;0.8969;
-116.4000;0.7383;0.9017;
-116.1000;0.7375;0.9017;
-115.8000;0.7367;0.9042;
-115.5000;0.7367;0.9017;
-115.2000;0.7375;0.8993;
-114.9000;0.7367;0.8944;
-114.6000;0.7367;0.8969;
-114.3000;0.7383;0.8944;
-114.0000;0.7383;0.8871;
-113.7000;0.7359;0.8896;
-113.4000;0.7367;0.8871;
-113.1000;0.7375;0.8920;
-112.8000;0.7391;0.8920;
-112.5000;0.7399;0.8944;
-112.2000;0.7383;0.8871;
-111.9000;0.7399;0.8993;
-111.6000;0.7326;0.8823;
-111.3000;0.7367;0.8944;
-111.0000;0.7367;0.8993;
-110.7000;0.7391;0.9042;
-110.4000;0.7350;0.8896;
-110.1000;0.7367;0.8920;
-109.8000;0.7367;0.8993;
-109.5000;0.7391;0.9115;
-109.2000;0.7383;0.9163;
-108.9000;0.7375;0.9115;
-108.6000;0.7391;0.9042;
-108.3000;0.7399;0.9017;
-108.0000;0.7367;0.9017;
-107.7000;0.7367;0.8969;
-107.4000;0.7342;0.9042;
-107.1000;0.7367;0.9139;
-106.8000;0.7391;0.9163;
-106.5000;0.7383;0.9090;
-106.2000;0.7359;0.9066;
-105.9000;0.7375;0.9139;
-105.6000;0.7367;0.9066;
-105.3000;0.7367;0.9017;
-105.0000;0.7383;0.9066;
-104.7000;0.7375;0.9042;
-104.4000;0.7375;0.8944;
-104.1000;0.7375;0.8969;
-103.8000;0.7375;0.8944;
-103.5000;0.7416;0.9066;
-103.2000;0.7383;0.8871;
-102.9000;0.7375;0.8871;
-102.6000;0.7375;0.8920;
-102.3000;0.7375;0.8993;
-102.0000;0.7367;0.8993;
-101.7000;0.7367;0.9066;
-101.4000;0.7383;0.9187;
-101.1000;0.7367;0.9212;
-100.8000;0.7359;0.9212;
-100.5000;0.7391;0.9236;
-100.2000;0.7375;0.9066;
-99.9000;0.7383;0.8944;
-99.6000;0.7407;0.8847;
-99.3000;0.7383;0.8823;
-99.0000;0.7383;0.8896;
-98.7000;0.7383;0.8871;
-98.4000;0.7375;0.8920;
-98.1000;0.7375;0.8969;
-97.8000;0.7367;0.8896;
-97.5000;0.7375;0.8799;
-97.2000;0.7359;0.8799;
-96.9000;0.7367;0.8823;
-96.6000;0.7391;0.8871;
-96.3000;0.7375;0.8799;
-96.0000;0.7359;0.8774;
-95.7000;0.7367;0.8774;
-95.4000;0.7383;0.8993;
-95.1000;0.7391;0.8993;
-94.8000;0.7367;0.8944;
-94.5000;0.7359;0.8920;
-94.2000;0.7383;0.8823;
-93.9000;0.7383;0.8799;
-93.6000;0.7367;0.8774;
-93.3000;0.7383;0.8871;
-93.0000;0.7391;0.8944;
-92.7000;0.7383;0.8969;
-92.4000;0.7399;0.8969;
-92.1000;0.7375;0.8993;
-91.8000;0.7359;0.8944;
-91.5000;0.7375;0.8993;
-91.2000;0.7375;0.9042;
-90.9000;0.7367;0.9066;
-90.6000;0.7334;0.8993;
-90.3000;0.7367;0.8969;
-90.0000;0.7310;0.8750;
-89.7000;0.7367;0.8944;
-89.4000;0.7310;0.8726;
-89.1000;0.7334;0.8847;
-88.8000;0.7399;0.8896;
-88.5000;0.7407;0.8993;
-88.2000;0.7383;0.8969;
-87.9000;0.7375;0.9066;
-87.6000;0.7375;0.9066;
-87.3000;0.7367;0.8993;
-87.0000;0.7383;0.8993;
-86.7000;0.7367;0.9042;
-86.4000;0.7383;0.9163;
-86.1000;0.7359;0.9115;
-85.8000;0.7399;0.9212;
-85.5000;0.7416;0.9163;
-85.2000;0.7367;0.8969;
-84.9000;0.7448;0.9212;
-84.6000;0.7383;0.9115;
-84.3000;0.7285;0.8920;
-84.0000;0.7383;0.9139;
-83.7000;0.7367;0.9115;
-83.4000;0.7375;0.9236;
-83.1000;0.7310;0.9163;
-82.8000;0.7367;0.9382;
-82.5000;0.7359;0.9479;
-82.2000;0.7375;0.9455;
-81.9000;0.7383;0.9285;
-81.6000;0.7383;0.9285;
-81.3000;0.7375;0.9382;
-81.0000;0.7367;0.9358;
-80.7000;0.7367;0.9236;
-80.4000;0.7359;0.9139;
-80.1000;0.7359;0.9115;
-79.8000;0.7359;0.9139;
-79.5000;0.7416;0.9236;
-79.2000;0.7383;0.9212;
-78.9000;0.7383;0.9260;
-78.6000;0.7432;0.9406;
-78.3000;0.7367;0.9212;
-78.0000;0.7375;0.9260;
-77.7000;0.7375;0.9260;
-77.4000;0.7375;0.9285;
-77.1000;0.7383;0.9236;
-76.8000;0.7391;0.9187;
-76.5000;0.7318;0.9066;
-76.2000;0.7359;0.9017;
-75.9000;0.7367;0.9017;
-75.6000;0.7383;0.9139;
-75.3000;0.7342;0.8993;
-75.0000;0.7383;0.9115;
-74.7000;0.7399;0.9187;
-74.4000;0.7391;0.9163;
-74.1000;0.7399;0.9090;
-73.8000;0.7383;0.9090;
-73.5000;0.7367;0.9066;
-73.2000;0.7367;0.9017;
-72.9000;0.7359;0.8969;
-72.6000;0.7407;0.9115;
-72.3000;0.7367;0.9066;
-72.0000;0.7367;0.9163;
-71.7000;0.7432;0.9309;
-71.4000;0.7367;0.9139;
-71.1000;0.7391;0.9090;
-70.8000;0.7359;0.8993;
-70.5000;0.7440;0.9236;
-70.2000;0.7375;0.9066;
-69.9000;0.7399;0.9115;
-69.6000;0.7359;0.9090;
-69.3000;0.7375;0.9163;
-69.0000;0.7359;0.9260;
-68.7000;0.7391;0.9260;
-68.4000;0.7383;0.9236;
-68.1000;0.7375;0.9212;
-67.8000;0.7383;0.9212;
-67.5000;0.7375;0.9115;
-67.2000;0.7383;0.9139;
-66.9000;0.7367;0.9212;
-66.6000;0.7375;0.9187;
-66.3000;0.7383;0.9090;
-66.0000;0.7399;0.9139;
-65.7000;0.7334;0.9090;
-65.4000;0.7391;0.9139;
-65.1000;0.7407;0.9042;
-64.8000;0.7489;0.9187;
-64.5000;0.7375;0.8944;
-64.2000;0.7383;0.8993;
-63.9000;0.7350;0.8969;
-63.6000;0.7359;0.9017;
-63.3000;0.7375;0.9090;
-63.0000;0.7391;0.9090;
-62.7000;0.7375;0.9042;
-62.4000;0.7383;0.8993;
-62.1000;0.7375;0.8896;
-61.8000;0.7416;0.9066;
-61.5000;0.7391;0.9017;
-61.2000;0.7383;0.8969;
-60.9000;0.7359;0.8896;
-60.6000;0.7367;0.8944;
-60.3000;0.7375;0.8944;
-60.0000;0.7391;0.8993;
-59.7000;0.7375;0.9042;
-59.4000;0.7342;0.8944;
-59.1000;0.7350;0.8993;
-58.8000;0.7350;0.8944;
-58.5000;0.7448;0.9090;
-58.2000;0.7383;0.8969;
-57.9000;0.7375;0.8896;
-57.6000;0.7391;0.8944;
-57.3000;0.7375;0.8944;
-57.0000;0.7367;0.8920;
-56.7000;0.7399;0.9017;
-56.4000;0.7399;0.9090;
-56.1000;0.7383;0.9090;
-55.8000;0.7375;0.9042;
-55.5000;0.7302;0.8750;
-55.2000;0.7407;0.9042;
-54.9000;0.7383;0.9017;
-54.6000;0.7416;0.9115;
-54.3000;0.7342;0.8920;
-54.0000;0.7367;0.8896;
-53.7000;0.7367;0.8993;
-53.4000;0.7367;0.9017;
-53.1000;0.7383;0.9090;
-52.8000;0.7367;0.9042;
-52.5000;0.7375;0.9066;
-52.2000;0.7391;0.8993;
-51.9000;0.7391;0.8920;
-51.6000;0.7440;0.9090;
-51.3000;0.7342;0.8969;
-51.0000;0.7383;0.9163;
-50.7000;0.7407;0.9212;
-50.4000;0.7391;0.9115;
-50.1000;0.7375;0.9066;
-49.8000;0.7383;0.9163;
-49.5000;0.7383;0.9285;
-49.2000;0.7383;0.9260;
-48.9000;0.7367;0.9163;
-48.6000;0.7375;0.9139;
-48.3000;0.7367;0.9139;
-48.0000;0.7383;0.9187;
-47.7000;0.7391;0.9090;
-47.4000;0.7391;0.9066;
-47.1000;0.7375;0.9066;
-46.8000;0.7391;0.9090;
-46.5000;0.7367;0.9115;
-46.2000;0.7399;0.9115;
-45.9000;0.7383;0.9090;
-45.6000;0.7367;0.9042;
-45.3000;0.7383;0.9115;
-45.0000;0.7383;0.9066;
-44.7000;0.7383;0.8969;
-44.4000;0.7359;0.8896;
-44.1000;0.7391;0.8969;
-43.8000;0.7416;0.8969;
-43.5000;0.7359;0.8871;
-43.2000;0.7359;0.8871;
-42.9000;0.7367;0.8896;
-42.6000;0.7383;0.8944;
-42.3000;0.7367;0.9042;
-42.0000;0.7383;0.9163;
-41.7000;0.7399;0.9163;
-41.4000;0.7399;0.9115;
-41.1000;0.7391;0.9042;
-40.8000;0.7383;0.8969;
-40.5000;0.7375;0.8969;
-40.2000;0.7375;0.8944;
-39.9000;0.7407;0.8993;
-39.6000;0.7391;0.8944;
-39.3000;0.7383;0.8799;
-39.0000;0.7375;0.8823;
-38.7000;0.7367;0.8823;
-38.4000;0.7383;0.8871;
-38.1000;0.7432;0.8993;
-37.8000;0.7391;0.8896;
-37.5000;0.7326;0.8823;
-37.2000;0.7375;0.8969;
-36.9000;0.7375;0.8944;
-36.6000;0.7375;0.8969;
-36.3000;0.7407;0.9115;
-36.0000;0.7375;0.9017;
-35.7000;0.7367;0.8969;
-35.4000;0.7375;0.9115;
-35.1000;0.7375;0.9115;
-34.8000;0.7391;0.9017;
-34.5000;0.7367;0.8993;
-34.2000;0.7383;0.9163;
-33.9000;0.7391;0.9236;
-33.6000;0.7342;0.9066;
-33.3000;0.7391;0.9285;
-33.0000;0.7440;0.9431;
-32.7000;0.7383;0.9260;
-32.4000;0.7350;0.9187;
-32.1000;0.7383;0.9309;
-31.8000;0.7391;0.9333;
-31.5000;0.7391;0.9309;
-31.2000;0.7391;0.9285;
-30.9000;0.7375;0.9212;
-30.6000;0.7473;0.9479;
-30.3000;0.7375;0.9309;
-30.0000;0.7359;0.9187;
-29.7000;0.7399;0.9212;
-29.4000;0.7448;0.9358;
-29.1000;0.7359;0.9139;
-28.8000;0.7407;0.9236;
-28.5000;0.7375;0.9187;
-28.2000;0.7302;0.8969;
-27.9000;0.7383;0.9090;
-27.6000;0.7334;0.8871;
-27.3000;0.7359;0.8944;
-27.0000;0.7367;0.9017;
-26.7000;0.7350;0.8944;
-26.4000;0.7391;0.9066;
-26.1000;0.7383;0.9017;
-25.8000;0.7424;0.9090;
-25.5000;0.7399;0.9090;
-25.2000;0.7383;0.9017;
-24.9000;0.7407;0.8920;
-24.6000;0.7367;0.8823;
-24.3000;0.7359;0.8823;
-24.0000;0.7326;0.8920;
-23.7000;0.7383;0.9042;
-23.4000;0.7367;0.8993;
-23.1000;0.7375;0.9066;
-22.8000;0.7383;0.9042;
-22.5000;0.7367;0.9017;
-22.2000;0.7359;0.9066;
-21.9000;0.7367;0.9042;
-21.6000;0.7383;0.9139;
-21.3000;0.7383;0.9139;
-21.0000;0.7375;0.9139;
-20.7000;0.7367;0.9236;
-20.4000;0.7407;0.9333;
-20.1000;0.7407;0.9358;
-19.8000;0.7375;0.9236;
-19.5000;0.7375;0.9139;
-19.2000;0.7367;0.9115;
-18.9000;0.7326;0.9042;
-18.6000;0.7350;0.9163;
-18.3000;0.7367;0.9187;
-18.0000;0.7342;0.9090;
-17.7000;0.7375;0.9212;
-17.4000;0.7375;0.9139;
-17.1000;0.7367;0.9090;
-16.8000;0.7367;0.9139;
-16.5000;0.7391;0.9139;
-16.2000;0.7399;0.9066;
-15.9000;0.7473;0.9236;
-15.6000;0.7375;0.9090;
-15.3000;0.7359;0.9163;
-15.0000;0.7391;0.9260;
-14.7000;0.7375;0.9187;
-14.4000;0.7367;0.9187;
-14.1000;0.7391;0.9236;
-13.8000;0.7391;0.9163;
-13.5000;0.7399;0.9236;
-13.2000;0.7416;0.9333;
-12.9000;0.7399;0.9260;
-12.6000;0.7391;0.9236;
-12.3000;0.7350;0.9139;
-12.0000;0.7383;0.9212;
-11.7000;0.7383;0.9163;
-11.4000;0.7391;0.9066;
-11.1000;0.7383;0.9115;
-10.8000;0.7399;0.9187;
-10.5000;0.7391;0.9115;
-10.2000;0.7399;0.9212;
-9.9000;0.7399;0.9139;
-9.6000;0.7464;0.9309;
-9.3000;0.7350;0.9017;
-9.0000;0.7383;0.9090;
-8.7000;0.7399;0.9163;
-8.4000;0.7383;0.9187;
-8.1000;0.7375;0.9187;
-7.8000;0.7383;0.9285;
-7.5000;0.7375;0.9333;
-7.2000;0.7383;0.9358;
-6.9000;0.7375;0.9358;
-6.6000;0.7391;0.9333;
-6.3000;0.7334;0.9187;
-6.0000;0.7375;0.9285;
-5.7000;0.7416;0.9358;
-5.4000;0.7350;0.9163;
-5.1000;0.7383;0.9236;
-4.8000;0.7375;0.9212;
-4.5000;0.7456;0.9406;
-4.2000;0.7367;0.9187;
-3.9000;0.7375;0.9139;
-3.6000;0.7359;0.9139;
-3.3000;0.7350;0.9017;
-3.0000;0.7383;0.8969;
-2.7000;0.7375;0.8969;
-2.4000;0.7383;0.8969;
-2.1000;0.7448;0.9017;
-1.8000;0.7407;0.8969;
-1.5000;0.7391;0.8969;
-1.2000;0.7391;0.9017;
-0.9000;0.7383;0.9017;
-0.6000;0.7448;0.9163;
-0.3000;0.7546;0.9333;
0.0000;0.7546;0.9333;
0.3000;0.7798;0.9309;
0.6000;0.8482;0.9819;
0.9000;0.9101;1.0427;
1.2000;0.9581;1.0986;
1.5000;0.9947;1.1351;
1.8000;1.0248;1.1740;
2.1000;1.0517;1.2153;
2.4000;1.0737;1.2542;
2.7000;1.0851;1.2590;
3.0000;1.0916;1.2566;
3.3000;1.1079;1.2858;
3.6000;1.1184;1.2858;
3.9000;1.1298;1.2955;
4.2000;1.1315;1.2809;
4.5000;1.1469;1.3125;
4.8000;1.1551;1.3149;
5.1000;1.1632;1.3271;
5.4000;1.1713;1.3319;
5.7000;1.1811;1.3344;
6.0000;1.1852;1.3271;
6.3000;1.1933;1.3344;
6.6000;1.2015;1.3319;
6.9000;1.2063;1.3319;
7.2000;1.2137;1.3222;
7.5000;1.2316;1.3465;
7.8000;1.2308;1.3246;
8.1000;1.2332;1.3149;
8.4000;1.2397;1.3101;
8.7000;1.2576;1.3392;
9.0000;1.2519;1.3101;
9.3000;1.2584;1.3174;
9.6000;1.2650;1.3246;
9.9000;1.2682;1.3149;
10.2000;1.2755;1.3149;
10.5000;1.2804;1.3125;
10.8000;1.2877;1.3174;
11.1000;1.2910;1.3222;
11.4000;1.2975;1.3295;
11.7000;1.3008;1.3295;
12.0000;1.3065;1.3319;
12.3000;1.3105;1.3198;
12.6000;1.3154;1.3198;
12.9000;1.3203;1.3295;
13.2000;1.3244;1.3295;
13.5000;1.3284;1.3198;
13.8000;1.3333;1.3174;
14.1000;1.3398;1.3295;
14.4000;1.3439;1.3222;
14.7000;1.3439;1.3125;
15.0000;1.3496;1.3174;
15.3000;1.3586;1.3295;
15.6000;1.3610;1.3271;
15.9000;1.3635;1.3295;
16.2000;1.3659;1.3344;
16.5000;1.3675;1.3271;
16.8000;1.3716;1.3392;
17.1000;1.3748;1.3368;
17.4000;1.3765;1.3295;
17.7000;1.3797;1.3222;
18.0000;1.3846;1.3198;
18.3000;1.3887;1.3344;
18.6000;1.3919;1.3441;
18.9000;1.3911;1.3295;
19.2000;1.4050;1.3562;
19.5000;1.4058;1.3562;
19.8000;1.4017;1.3368;
20.1000;1.4058;1.3295;
20.4000;1.4082;1.3271;
20.7000;1.4090;1.3198;
21.0000;1.4115;1.3174;
21.3000;1.4123;1.3125;
21.6000;1.4147;1.3149;
21.9000;1.4180;1.3149;
22.2000;1.4196;1.3149;
22.5000;1.4212;1.3174;
22.8000;1.4253;1.3198;
23.1000;1.4269;1.3222;
23.4000;1.4335;1.3392;
23.7000;1.4286;1.3149;
24.0000;1.4310;1.3198;
24.3000;1.4343;1.3246;
24.6000;1.4359;1.3222;
24.9000;1.4367;1.3125;
25.2000;1.4375;1.3125;
25.5000;1.4408;1.3149;
25.8000;1.4416;1.3076;
26.1000;1.4416;1.3125;
26.4000;1.4440;1.3101;
26.7000;1.4457;1.3125;
27.0000;1.4489;1.3125;
27.3000;1.4481;1.3076;
27.6000;1.4489;1.3101;
27.9000;1.4546;1.3174;
28.2000;1.4522;1.3174;
28.5000;1.4652;1.3465;
28.8000;1.4554;1.3125;
29.1000;1.4562;1.3198;
29.4000;1.4587;1.3174;
29.7000;1.4603;1.3222;
30.0000;1.4579;1.3222;
30.3000;1.4611;1.3222;
30.6000;1.4546;1.2979;
30.9000;1.4619;1.3052;
31.2000;1.4611;1.2979;
31.5000;1.4628;1.3003;
31.8000;1.4644;1.3052;
32.1000;1.4652;1.3174;
32.4000;1.4766;1.3490;
32.7000;1.4693;1.3246;
33.0000;1.4685;1.3198;
33.3000;1.4636;1.3052;
33.6000;1.4685;1.3174;
33.9000;1.4701;1.3222;
34.2000;1.4774;1.3514;
34.5000;1.4717;1.3441;
34.8000;1.4742;1.3392;
35.1000;1.4668;1.3295;
35.4000;1.4766;1.3538;
35.7000;1.4742;1.3465;
36.0000;1.4766;1.3514;
36.3000;1.4790;1.3465;
36.6000;1.4782;1.3319;
36.9000;1.4790;1.3271;
37.2000;1.4790;1.3198;
37.5000;1.4799;1.3174;
37.8000;1.4790;1.3149;
38.1000;1.4815;1.3174;
38.4000;1.4815;1.3198;
38.7000;1.4831;1.3149;
39.0000;1.4831;1.3198;
39.3000;1.4831;1.3198;
39.6000;1.4774;1.3028;
39.9000;1.4847;1.3246;
40.2000;1.4856;1.3246;
40.5000;1.4856;1.3319;
40.8000;1.4839;1.3295;
41.1000;1.4872;1.3246;
41.4000;1.4847;1.3149;
41.7000;1.4758;1.2930;
42.0000;1.4872;1.3198;
42.3000;1.4872;1.3198;
42.6000;1.4872;1.3198;
42.9000;1.4888;1.3198;
43.2000;1.4888;1.3271;
43.5000;1.4904;1.3319;
43.8000;1.4912;1.3295;
44.1000;1.4937;1.3392;
44.4000;1.4847;1.3149;
44.7000;1.4937;1.3271;
45.0000;1.4921;1.3174;
45.3000;1.4921;1.3125;
45.6000;1.4896;1.2955;
45.9000;1.4937;1.2979;
46.2000;1.4912;1.3028;
46.5000;1.4912;1.3028;
46.8000;1.4929;1.3052;
47.1000;1.4961;1.3174;
47.4000;1.4994;1.3246;
47.7000;1.4937;1.3149;
48.0000;1.4953;1.3076;
48.3000;1.4953;1.3149;
48.6000;1.4912;1.2979;
48.9000;1.4986;1.3076;
49.2000;1.4969;1.3052;
49.5000;1.4912;1.3003;
49.8000;1.4986;1.3101;
50.1000;1.4953;1.3003;
50.4000;1.5002;1.3028;
50.7000;1.4978;1.2979;
51.0000;1.5018;1.3028;
51.3000;1.5002;1.3052;
51.6000;1.5002;1.3028;
51.9000;1.4969;1.2906;
52.2000;1.5010;1.2955;
52.5000;1.5051;1.3003;
52.8000;1.5018;1.2906;
53.1000;1.4994;1.2809;
53.4000;1.5010;1.2858;
53.7000;1.5067;1.3028;
54.0000;1.5035;1.2833;
54.3000;1.4969;1.2712;
54.6000;1.5035;1.2930;
54.9000;1.5035;1.3028;
55.2000;1.5051;1.3028;
55.5000;1.5035;1.2955;
55.8000;1.5026;1.2833;
56.1000;1.5035;1.2833;
56.4000;1.4929;1.2469;
56.7000;1.5035;1.2809;
57.0000;1.5043;1.2955;
57.3000;1.5002;1.2858;
57.6000;1.5043;1.2930;
57.9000;1.5165;1.3198;
58.2000;1.5059;1.2882;
58.5000;1.5059;1.2858;
58.8000;1.5051;1.2833;
59.1000;1.5043;1.2906;
59.4000;1.5059;1.2979;
59.7000;1.5043;1.3003;
60.0000;1.5067;1.3028;
60.3000;1.5092;1.2955;
60.6000;1.5083;1.2858;
60.9000;1.5075;1.2760;
61.2000;1.5092;1.2785;
61.5000;1.5100;1.2858;
61.8000;1.5092;1.2809;
62.1000;1.5092;1.2736;
62.4000;1.5092;1.2809;
62.7000;1.5165;1.2930;
63.0000;1.5092;1.2785;
63.3000;1.5083;1.2858;
63.6000;1.5026;1.2687;
63.9000;1.5092;1.2882;
64.2000;1.5100;1.2882;
64.5000;1.5124;1.2882;
64.8000;1.5092;1.2736;
65.1000;1.5116;1.2663;
65.4000;1.5132;1.2663;
65.7000;1.5092;1.2712;
66.0000;1.5108;1.2882;
66.3000;1.5100;1.2760;
66.6000;1.5116;1.2858;
66.9000;1.5124;1.2882;
67.2000;1.5108;1.2858;
67.5000;1.5092;1.2858;
67.8000;1.5108;1.2955;
68.1000;1.5124;1.3076;
68.4000;1.5165;1.3149;
68.7000;1.5124;1.3003;
69.0000;1.5140;1.2955;
69.3000;1.5149;1.2979;
69.6000;1.5124;1.2809;
69.9000;1.5140;1.2785;
70.2000;1.5140;1.2809;
70.5000;1.5157;1.2882;
70.8000;1.5157;1.2882;
71.1000;1.5140;1.2858;
71.4000;1.5092;1.2736;
71.7000;1.5149;1.2809;
72.0000;1.5197;1.2736;
72.3000;1.5132;1.2663;
72.6000;1.5140;1.2639;
72.9000;1.5197;1.2712;
73.2000;1.5165;1.2663;
73.5000;1.5157;1.2639;
73.8000;1.5140;1.2712;
74.1000;1.5165;1.2833;
74.4000;1.5157;1.2785;
74.7000;1.5149;1.2712;
75.0000;1.5222;1.2882;
75.3000;1.5181;1.2760;
75.6000;1.5165;1.2712;
75.9000;1.5149;1.2736;
76.2000;1.5197;1.2882;
76.5000;1.5222;1.3003;
76.8000;1.5157;1.2809;
77.1000;1.5140;1.2760;
77.4000;1.5165;1.2712;
77.7000;1.5149;1.2833;
78.0000;1.5157;1.2930;
78.3000;1.5157;1.2930;
78.6000;1.5100;1.2687;
78.9000;1.5189;1.2882;
79.2000;1.5165;1.2858;
79.5000;1.5181;1.2882;
79.8000;1.5181;1.2785;
80.1000;1.5173;1.2882;
80.4000;1.5157;1.2882;
80.7000;1.5189;1.2906;
81.0000;1.5189;1.2809;
81.3000;1.5189;1.2785;
81.6000;1.5165;1.2639;
81.9000;1.5271;1.2979;
82.2000;1.5189;1.2785;
82.5000;1.5181;1.2760;
82.8000;1.5189;1.2712;
83.1000;1.5197;1.2687;
83.4000;1.5189;1.2663;
83.7000;1.5189;1.2736;
84.0000;1.5181;1.2712;
84.3000;1.5197;1.2712;
84.6000;1.5222;1.2760;
84.9000;1.5189;1.2736;
85.2000;1.5189;1.2760;
85.5000;1.5189;1.2736;
85.8000;1.5214;1.2760;
86.1000;1.5206;1.2687;
86.4000;1.5189;1.2736;
86.7000;1.5181;1.2712;
87.0000;1.5222;1.2785;
87.3000;1.5189;1.2639;
87.6000;1.5197;1.2736;
87.9000;1.5189;1.2809;
88.2000;1.5197;1.2930;
88.5000;1.5206;1.3003;
88.8000;1.5189;1.2858;
89.1000;1.5206;1.2785;
89.4000;1.5279;1.2979;
89.7000;1.5246;1.2906;
90.0000;1.5214;1.2712;
90.3000;1.5222;1.2687;
90.6000;1.5197;1.2663;
90.9000;1.5230;1.2687;
91.2000;1.5108;1.2469;
91.5000;1.5197;1.2712;
91.8000;1.5214;1.2639;
92.1000;1.5238;1.2639;
92.4000;1.5230;1.2639;
92.7000;1.5214;1.2542;
93.0000;1.5206;1.2444;
93.3000;1.5246;1.2615;
93.6000;1.5238;1.2687;
93.9000;1.5295;1.2809;
94.2000;1.5230;1.2615;
94.5000;1.5246;1.2760;
94.8000;1.5230;1.2809;
95.1000;1.5222;1.2809;
95.4000;1.5246;1.2712;
95.7000;1.5246;1.2833;
96.0000;1.5254;1.2687;
96.3000;1.5254;1.2687;
96.6000;1.5336;1.2858;
96.9000;1.5246;1.2663;
97.2000;1.5230;1.2687;
97.5000;1.5222;1.2615;
97.8000;1.5214;1.2615;
98.1000;1.5238;1.2687;
98.4000;1.5263;1.2687;
98.7000;1.5254;1.2566;
99.0000;1.5238;1.2615;
99.3000;1.5238;1.2615;
99.6000;1.5287;1.2712;
99.9000;1.5238;1.2590;
100.2000;1.5222;1.2590;
100.5000;1.5246;1.2590;
100.8000;1.5246;1.2615;
101.1000;1.5246;1.2687;
101.4000;1.5254;1.2785;
101.7000;1.5311;1.2955;
102.0000;1.5311;1.3003;
102.3000;1.5254;1.2882;
102.6000;1.5263;1.2785;
102.9000;1.5254;1.2785;
103.2000;1.5206;1.2663;
103.5000;1.5254;1.2687;
103.8000;1.5230;1.2663;
104.1000;1.5254;1.2712;
104.4000;1.5254;1.2736;
104.7000;1.5246;1.2663;
105.0000;1.5271;1.2615;
105.3000;1.5246;1.2590;
105.6000;1.5246;1.2615;
105.9000;1.5263;1.2687;
106.2000;1.5295;1.2687;
106.5000;1.5263;1.2590;
106.8000;1.5254;1.2566;
107.1000;1.5279;1.2590;
107.4000;1.5254;1.2687;
107.7000;1.5254;1.2663;
108.0000;1.5263;1.2687;
108.3000;1.5246;1.2833;
108.6000;1.5222;1.2785;
108.9000;1.5263;1.2882;
109.2000;1.5263;1.2858;
109.5000;1.5238;1.2833;
109.8000;1.5254;1.2906;
110.1000;1.5360;1.3222;
110.4000;1.5222;1.2882;
110.7000;1.5238;1.2882;
111.0000;1.5254;1.2979;
111.3000;1.5222;1.2882;
111.6000;1.5238;1.2858;
111.9000;1.5254;1.2858;
112.2000;1.5246;1.2785;
112.5000;1.5181;1.2517;
112.8000;1.5279;1.2736;
113.1000;1.5263;1.2760;
113.4000;1.5263;1.2760;
113.7000;1.5271;1.2712;
114.0000;1.5271;1.2785;
114.3000;1.5279;1.2785;
114.6000;1.5287;1.2906;
114.9000;1.5263;1.2858;
115.2000;1.5197;1.2687;
115.5000;1.5254;1.2809;
115.8000;1.5254;1.2833;
116.1000;1.5271;1.2858;
116.4000;1.5287;1.2809;
116.7000;1.5287;1.2785;
117.0000;1.5279;1.2712;
117.3000;1.5287;1.2858;
117.6000;1.5238;1.2760;
117.9000;1.5311;1.2882;
118.2000;1.5328;1.2906;
118.5000;1.5287;1.2809;
118.8000;1.5279;1.2833;
119.1000;1.5271;1.2785;
119.4000;1.5279;1.2858;
119.7000;1.5279;1.2809;
120.0000;1.5271;1.2833;
120.3000;1.5279;1.2809;
120.6000;1.5303;1.2736;
120.9000;1.5238;1.2517;
121.2000;1.5271;1.2566;
121.5000;1.5271;1.2687;
121.8000;1.5271;1.2687;
122.1000;1.5279;1.2687;
122.4000;1.5254;1.2590;
122.7000;1.5254;1.2639;
123.0000;1.5254;1.2712;
123.3000;1.5279;1.2760;
123.6000;1.5287;1.2712;
123.9000;1.5295;1.2639;
124.2000;1.5311;1.2615;
124.5000;1.5263;1.2420;
124.8000;1.5271;1.2371;
125.1000;1.5287;1.2396;
125.4000;1.5287;1.2371;
125.7000;1.5246;1.2299;
126.0000;1.5295;1.2323;
126.3000;1.5295;1.2347;
126.6000;1.5303;1.2469;
126.9000;1.5295;1.2469;
127.2000;1.5287;1.2420;
127.5000;1.5263;1.2323;
127.8000;1.5287;1.2469;
128.1000;1.5279;1.2444;
128.4000;1.5287;1.2347;
128.7000;1.5287;1.2274;
129.0000;1.5295;1.2299;
129.3000;1.5230;1.2299;
129.6000;1.5271;1.2444;
129.9000;1.5287;1.2444;
130.2000;1.5295;1.2469;
130.5000;1.5295;1.2420;
130.8000;1.5279;1.2323;
131.1000;1.5287;1.2274;
131.4000;1.5263;1.2250;
131.7000;1.5287;1.2274;
132.0000;1.5279;1.2323;
132.3000;1.5271;1.2444;
132.6000;1.5287;1.2566;
132.9000;1.5303;1.2590;
133.2000;1.5319;1.2736;
133.5000;1.5287;1.2712;
133.8000;1.5295;1.2687;
134.1000;1.5295;1.2687;
134.4000;1.5319;1.2760;
134.7000;1.5295;1.2687;
135.0000;1.5303;1.2687;
135.3000;1.5295;1.2663;
135.6000;1.5279;1.2590;
135.9000;1.5303;1.2663;
136.2000;1.5287;1.2615;
136.5000;1.5263;1.2566;
136.8000;1.5328;1.2712;
137.1000;1.5319;1.2760;
137.4000;1.5295;1.2712;
137.7000;1.5295;1.2687;
138.0000;1.5287;1.2736;
138.3000;1.5295;1.2736;
138.6000;1.5271;1.2687;
138.9000;1.5279;1.2809;
139.2000;1.5344;1.2955;
139.5000;1.5279;1.2785;
139.8000;1.5295;1.2809;
140.1000;1.5336;1.2930;
140.4000;1.5344;1.2906;
140.7000;1.5295;1.2906;
141.0000;1.5287;1.2833;
141.3000;1.5287;1.2906;
141.6000;1.5254;1.2809;
141.9000;1.5303;1.2882;
142.2000;1.5303;1.2882;
142.5000;1.5263;1.2712;
142.8000;1.5319;1.2809;
143.1000;1.5303;1.2687;
143.4000;1.5319;1.2712;
143.7000;1.5295;1.2712;
144.0000;1.5303;1.2785;
144.3000;1.5287;1.2639;
144.6000;1.5230;1.2566;
144.9000;1.5287;1.2833;
145.2000;1.5287;1.2712;
145.5000;1.5303;1.2687;
145.8000;1.5311;1.2760;
146.1000;1.5303;1.2590;
146.4000;1.5287;1.2639;
146.7000;1.5287;1.2687;
147.0000;1.5287;1.2590;
147.3000;1.5311;1.2615;
147.6000;1.5295;1.2493;
147.9000;1.5246;1.2371;
148.2000;1.5319;1.2590;
148.5000;1.5295;1.2712;
148.8000;1.5279;1.2663;
149.1000;1.5303;1.2833;
149.4000;1.5303;1.2809;
149.7000;1.5303;1.2906;
150.0000;1.5287;1.2906;
150.3000;1.5287;1.2882;
150.6000;1.5311;1.2930;
150.9000;1.5197;1.2615;
151.2000;1.5385;1.3003;
151.5000;1.5271;1.2687;
151.8000;1.5319;1.2736;
152.1000;1.5319;1.2760;
152.4000;1.5303;1.2687;
152.7000;1.5311;1.2566;
153.0000;1.5319;1.2590;
153.3000;1.5287;1.2542;
153.6000;1.5311;1.2615;
153.9000;1.5311;1.2639;
154.2000;1.5303;1.2687;
154.5000;1.5336;1.2736;
154.8000;1.5328;1.2785;
155.1000;1.5303;1.2736;
155.4000;1.5368;1.2882;
155.7000;1.5246;1.2712;
156.0000;1.5303;1.2833;
156.3000;1.5303;1.2760;
156.6000;1.5336;1.2809;
156.9000;1.5319;1.2760;
157.2000;1.5295;1.2760;
157.5000;1.5295;1.2760;
157.8000;1.5360;1.2760;
158.1000;1.5295;1.2663;
158.4000;1.5409;1.2930;
158.7000;1.5181;1.2396;
159.0000;1.5303;1.2687;
159.3000;1.5295;1.2639;
159.6000;1.5303;1.2687;
159.9000;1.5303;1.2663;
160.2000;1.5303;1.2663;
160.5000;1.5279;1.2615;
160.8000;1.5376;1.2760;
161.1000;1.5328;1.2542;
161.4000;1.5311;1.2493;
161.7000;1.5319;1.2542;
162.0000;1.5303;1.2517;
162.3000;1.5303;1.2517;
162.6000;1.5311;1.2517;
162.9000;1.5303;1.2517;
163.2000;1.5319;1.2542;
163.5000;1.5303;1.2615;
163.8000;1.5303;1.2663;
164.1000;1.5311;1.2760;
164.4000;1.5328;1.2833;
164.7000;1.5319;1.2785;
165.0000;1.5311;1.2639;
165.3000;1.5344;1.2639;
165.6000;1.5303;1.2566;
165.9000;1.5328;1.2615;
166.2000;1.5319;1.2566;
166.5000;1.5336;1.2639;
166.8000;1.5303;1.2566;
167.1000;1.5319;1.2639;
167.4000;1.5319;1.2663;
167.7000;1.5303;1.2566;
168.0000;1.5319;1.2590;
168.3000;1.5311;1.2517;
168.6000;1.5336;1.2590;
168.9000;1.5328;1.2566;
169.2000;1.5311;1.2469;
169.5000;1.5336;1.2517;
169.8000;1.5319;1.2493;
170.1000;1.5344;1.2566;
170.4000;1.5303;1.2469;
170.7000;1.5311;1.2469;
171.0000;1.5328;1.2566;
171.3000;1.5319;1.2687;
171.6000;1.5328;1.2615;
171.9000;1.5311;1.2566;
172.2000;1.5279;1.2517;
172.5000;1.5328;1.2639;
172.8000;1.5328;1.2687;
173.1000;1.5311;1.2833;
173.4000;1.5311;1.2760;
173.7000;1.5376;1.2858;
174.0000;1.5319;1.2639;
174.3000;1.5344;1.2736;
174.6000;1.5279;1.2493;
174.9000;1.5328;1.2469;
175.2000;1.5352;1.2493;
175.5000;1.5311;1.2371;
175.8000;1.5287;1.2250;
176.1000;1.5303;1.2250;
176.4000;1.5344;1.2323;
176.7000;1.5319;1.2250;
177.0000;1.5336;1.2323;
177.3000;1.5271;1.2226;
177.6000;1.5311;1.2323;
177.9000;1.5319;1.2323;
178.2000;1.5328;1.2323;
178.5000;1.5336;1.2250;
178.8000;1.5344;1.2371;
179.1000;1.5319;1.2250;
179.4000;1.5360;1.2299;
179.7000;1.5352;1.2274;
180.0000;1.5311;1.2201;
180.3000;1.5336;1.2226;
180.6000;1.5328;1.2347;
180.9000;1.5303;1.2396;
181.2000;1.5319;1.2493;
181.5000;1.5319;1.2371;
181.8000;1.5279;1.2274;
182.1000;1.5319;1.2274;
182.4000;1.5328;1.2274;
182.7000;1.5328;1.2226;
183.0000;1.5319;1.2177;
183.3000;1.5328;1.2177;
183.6000;1.5336;1.2104;
183.9000;1.5328;1.2080;
184.2000;1.5319;1.2153;
184.5000;1.5311;1.2250;
184.8000;1.5311;1.2299;
185.1000;1.5328;1.2371;
185.4000;1.5271;1.2299;
185.7000;1.5303;1.2371;
186.0000;1.5303;1.2469;
186.3000;1.5319;1.2517;
186.6000;1.5319;1.2566;
186.9000;1.5295;1.2469;
187.2000;1.5328;1.2444;
187.5000;1.5303;1.2371;
187.8000;1.5328;1.2323;
188.1000;1.5328;1.2299;
188.4000;1.5328;1.2323;
188.7000;1.5336;1.2323;
189.0000;1.5344;1.2420;
189.3000;1.5319;1.2371;
189.6000;1.5319;1.2396;
189.9000;1.5311;1.2347;
190.2000;1.5319;1.2274;
190.5000;1.5328;1.2226;
190.8000;1.5328;1.2299;
191.1000;1.5311;1.2274;
191.4000;1.5328;1.2444;
191.7000;1.5295;1.2493;
192.0000;1.5344;1.2517;
192.3000;1.5303;1.2371;
192.6000;1.5376;1.2615;
192.9000;1.5352;1.2444;
193.2000;1.5328;1.2420;
193.5000;1.5328;1.2493;
193.8000;1.5319;1.2566;
194.1000;1.5328;1.2615;
194.4000;1.5319;1.2639;
194.7000;1.5352;1.2736;
195.0000;1.5336;1.2542;
195.3000;1.5336;1.2615;
195.6000;1.5360;1.2663;
195.9000;1.5328;1.2542;
196.2000;1.5311;1.2493;
196.5000;1.5295;1.2420;
196.8000;1.5336;1.2566;
197.1000;1.5319;1.2590;
197.4000;1.5393;1.2858;
197.7000;1.5279;1.2566;
198.0000;1.5328;1.2590;
198.3000;1.5319;1.2469;
198.6000;1.5336;1.2420;
198.9000;1.5328;1.2323;
199.2000;1.5328;1.2347;
199.5000;1.5336;1.2469;
199.8000;1.5344;1.2639;
200.1000;1.5311;1.2590;
200.4000;1.5336;1.2712;
200.7000;1.5303;1.2639;
201.0000;1.5271;1.2590;
201.3000;1.5311;1.2663;
201.6000;1.5336;1.2712;
201.9000;1.5319;1.2663;
202.2000;1.5319;1.2639;
202.5000;1.5352;1.2809;
202.8000;1.5319;1.2663;
203.1000;1.5336;1.2712;
203.4000;1.5385;1.2785;
203.7000;1.5336;1.2663;
204.0000;1.5328;1.2639;
204.3000;1.5328;1.2687;
204.6000;1.5336;1.2687;
204.9000;1.5311;1.2760;
205.2000;1.5254;1.2712;
205.5000;1.5344;1.2906;
205.8000;1.5328;1.2906;
206.1000;1.5319;1.2882;
206.4000;1.5303;1.2833;
206.7000;1.5311;1.2833;
207.0000;1.5344;1.2858;
207.3000;1.5336;1.2809;
207.6000;1.5344;1.2906;
207.9000;1.5319;1.2760;
208.2000;1.5311;1.2736;
208.5000;1.5328;1.2760;
208.8000;1.5344;1.2760;
209.1000;1.5352;1.2687;
209.4000;1.5319;1.2566;
209.7000;1.5319;1.2663;
210.0000;1.5311;1.2712;
210.3000;1.5328;1.2736;
210.6000;1.5328;1.2785;
210.9000;1.5336;1.2736;
211.2000;1.5368;1.2809;
211.5000;1.5279;1.2639;
211.8000;1.5328;1.2736;
212.1000;1.5336;1.2639;
212.4000;1.5287;1.2444;
212.7000;1.5336;1.2566;
213.0000;1.5319;1.2687;
213.3000;1.5328;1.2712;
213.6000;1.5352;1.2809;
213.9000;1.5344;1.2760;
214.2000;1.5344;1.2833;
214.5000;1.5328;1.2809;
214.8000;1.5344;1.2785;
215.1000;1.5311;1.2858;
215.4000;1.5360;1.2955;
215.7000;1.5328;1.2833;
216.0000;1.5376;1.2882;
216.3000;1.5319;1.2736;
216.6000;1.5311;1.2785;
216.9000;1.5319;1.2906;
217.2000;1.5352;1.3028;
217.5000;1.5336;1.2882;
217.8000;1.5303;1.2809;
218.1000;1.5311;1.2785;
218.4000;1.5393;1.2979;
218.7000;1.5344;1.2809;
219.0000;1.5319;1.2809;
219.3000;1.5319;1.2882;
219.6000;1.5352;1.2930;
219.9000;1.5303;1.2687;
220.2000;1.5311;1.2712;
220.5000;1.5319;1.2712;
220.8000;1.5319;1.2615;
221.1000;1.5328;1.2444;
221.4000;1.5368;1.2663;
221.7000;1.5287;1.2493;
222.0000;1.5319;1.2590;
222.3000;1.5352;1.2760;
222.6000;1.5319;1.2785;
222.9000;1.5336;1.2785;
223.2000;1.5344;1.2882;
223.5000;1.5344;1.2809;
223.8000;1.5328;1.2712;
224.1000;1.5344;1.2687;
224.4000;1.5328;1.2590;
224.7000;1.5450;1.2906;
225.0000;1.5319;1.2517;
225.3000;1.5319;1.2517;
225.6000;1.5328;1.2517;
225.9000;1.5328;1.2590;
226.2000;1.5319;1.2566;
226.5000;1.5319;1.2687;
226.8000;1.5311;1.2663;
227.1000;1.5352;1.2615;
227.4000;1.5352;1.2639;
227.7000;1.5336;1.2615;
228.0000;1.5311;1.2566;
228.3000;1.5319;1.2615;
228.6000;1.5319;1.2566;
228.9000;1.5336;1.2566;
229.2000;1.5344;1.2663;
229.5000;1.5344;1.2712;
229.8000;1.5352;1.2663;
230.1000;1.5336;1.2590;
230.4000;1.5344;1.2542;
230.7000;1.5360;1.2687;
231.0000;1.5360;1.2687;
231.3000;1.5344;1.2615;
231.6000;1.5311;1.2590;
231.9000;1.5336;1.2590;
232.2000;1.5344;1.2736;
232.5000;1.5409;1.2906;
232.8000;1.5360;1.2736;
233.1000;1.5336;1.2760;
233.4000;1.5328;1.2785;
233.7000;1.5360;1.2833;
234.0000;1.5352;1.2760;
234.3000;1.5352;1.2809;
234.6000;1.5328;1.2712;
234.9000;1.5352;1.2687;
235.2000;1.5328;1.2566;
235.5000;1.5311;1.2590;
235.8000;1.5328;1.2663;
236.1000;1.5311;1.2663;
236.4000;1.5352;1.2615;
236.7000;1.5319;1.2469;
237.0000;1.5319;1.2566;
237.3000;1.5328;1.2639;
237.6000;1.5401;1.2858;
237.9000;1.5328;1.2639;
238.2000;1.5328;1.2615;
238.5000;1.5319;1.2615;
238.8000;1.5344;1.2615;
239.1000;1.5311;1.2590;
239.4000;1.5328;1.2687;
239.7000;1.5271;1.2615;
240.0000;1.5336;1.2858;
240.3000;1.5319;1.2760;
240.6000;1.5328;1.2687;
240.9000;1.5417;1.2882;
241.2000;1.5287;1.2639;
241.5000;1.5336;1.2760;
241.8000;1.5311;1.2736;
242.1000;1.5303;1.2760;
242.4000;1.5311;1.2760;
242.7000;1.5303;1.2712;
243.0000;1.5311;1.2833;
243.3000;1.5336;1.2882;
243.6000;1.5336;1.2858;
243.9000;1.5352;1.2858;
244.2000;1.5295;1.2785;
244.5000;1.5328;1.2930;
244.8000;1.5352;1.2906;
245.1000;1.5328;1.2736;
245.4000;1.5319;1.2833;
245.7000;1.5319;1.2858;
246.0000;1.5319;1.2882;
246.3000;1.5311;1.2712;
246.6000;1.5328;1.2663;
246.9000;1.5319;1.2663;
247.2000;1.5336;1.2687;
247.5000;1.5319;1.2858;
247.8000;1.5328;1.2955;
248.1000;1.5360;1.3003;
248.4000;1.5409;1.3028;
248.7000;1.5401;1.3003;
249.0000;1.5352;1.2858;
249.3000;1.5352;1.2906;
249.6000;1.5336;1.2858;
249.9000;1.5328;1.2760;
250.2000;1.5328;1.2712;
250.5000;1.5352;1.2906;
250.8000;1.5319;1.2760;
251.1000;1.5336;1.2809;
251.4000;1.5376;1.2882;
251.7000;1.5319;1.2663;
252.0000;1.5311;1.2760;
252.3000;1.5311;1.2760;
252.6000;1.5311;1.2687;
252.9000;1.5328;1.2615;
253.2000;1.5344;1.2639;
253.5000;1.5328;1.2590;
253.8000;1.5328;1.2566;
254.1000;1.5336;1.2517;
254.4000;1.5336;1.2517;
254.7000;1.5336;1.2493;
255.0000;1.5368;1.2517;
255.3000;1.5319;1.2469;
255.6000;1.5344;1.2566;
255.9000;1.5344;1.2615;
256.2000;1.5336;1.2590;
256.5000;1.5328;1.2687;
256.8000;1.5336;1.2712;
257.1000;1.5295;1.2566;
257.4000;1.5368;1.2760;
257.7000;1.5328;1.2687;
258.0000;1.5352;1.2615;
258.3000;1.5352;1.2736;
258.6000;1.5303;1.2590;
258.9000;1.5336;1.2736;
259.2000;1.5344;1.2833;
259.5000;1.5319;1.2833;
259.8000;1.5328;1.2736;
260.1000;1.5303;1.2663;
260.4000;1.5336;1.2760;
260.7000;1.5311;1.2687;
261.0000;1.5328;1.2736;
261.3000;1.5466;1.2930;
261.6000;1.5319;1.2517;
261.9000;1.5336;1.2590;
262.2000;1.5336;1.2615;
262.5000;1.5328;1.2639;
262.8000;1.5344;1.2712;
263.1000;1.5336;1.2736;
263.4000;1.5319;1.2687;
263.7000;1.5303;1.2663;
264.0000;1.5319;1.2712;
264.3000;1.5328;1.2615;
264.6000;1.5336;1.2615;
264.9000;1.5311;1.2615;
265.2000;1.5336;1.2663;
265.5000;1.5336;1.2736;
265.8000;1.5319;1.2687;
266.1000;1.5319;1.2639;
266.4000;1.5271;1.2493;
266.7000;1.5303;1.2493;
267.0000;1.5319;1.2615;
267.3000;1.5238;1.2371;
267.6000;1.5311;1.2517;
267.9000;1.5311;1.2566;
268.2000;1.5263;1.2493;
268.5000;1.5401;1.2882;
268.8000;1.5311;1.2687;
269.1000;1.5344;1.2809;
269.4000;1.5344;1.2785;
269.7000;1.5328;1.2663;
270.0000;1.5287;1.2493;
270.3000;1.5352;1.2687;
270.6000;1.5319;1.2736;
270.9000;1.5328;1.2760;
271.2000;1.5311;1.2712;
271.5000;1.5303;1.2736;
271.8000;1.5319;1.2785;
272.1000;1.5311;1.2833;
272.4000;1.5360;1.2979;
272.7000;1.5328;1.2930;
273.0000;1.5336;1.2930;
273.3000;1.5368;1.2979;
273.6000;1.5336;1.2930;
273.9000;1.5319;1.2906;
274.2000;1.5328;1.2906;
274.5000;1.5352;1.2906;
274.8000;1.5311;1.2760;
275.1000;1.5303;1.2785;
275.4000;1.5303;1.2785;
275.7000;1.5319;1.2906;
276.0000;1.5311;1.2906;
276.3000;1.5303;1.2955;
276.6000;1.5311;1.2906;
276.9000;1.5303;1.2906;
277.2000;1.5344;1.2955;
277.5000;1.5319;1.2858;
277.8000;1.5311;1.2785;
278.1000;1.5336;1.2809;
278.4000;1.5336;1.2760;
278.7000;1.5344;1.2833;
279.0000;1.5303;1.2809;
279.3000;1.5336;1.2833;
279.6000;1.5344;1.2858;
279.9000;1.5344;1.2760;
280.2000;1.5352;1.2809;
280.5000;1.5344;1.2687;
280.8000;1.5352;1.2760;
281.1000;1.5433;1.3003;
281.4000;1.5328;1.2736;
281.7000;1.5344;1.2785;
282.0000;1.5287;1.2760;
282.3000;1.5319;1.2882;
282.6000;1.5271;1.2833;
282.9000;1.5344;1.2955;
283.2000;1.5254;1.2809;
283.5000;1.5319;1.2979;
283.8000;1.5319;1.2955;
284.1000;1.5319;1.2882;
284.4000;1.5319;1.2882;
284.7000;1.5352;1.3003;
285.0000;1.5328;1.2979;
285.3000;1.5352;1.3028;
285.6000;1.5344;1.2906;
285.9000;1.5352;1.2930;
286.2000;1.5328;1.2882;
286.5000;1.5319;1.2979;
286.8000;1.5319;1.2906;
287.1000;1.5328;1.2906;
287.4000;1.5328;1.2833;
287.7000;1.5336;1.2858;
288.0000;1.5328;1.2833;
288.3000;1.5279;1.2785;
288.6000;1.5311;1.2809;
288.9000;1.5319;1.2833;
289.2000;1.5385;1.2979;
289.5000;1.5344;1.2882;
289.8000;1.5344;1.2906;
290.1000;1.5352;1.2906;
290.4000;1.5360;1.2809;
290.7000;1.5238;1.2542;
291.0000;1.5319;1.2809;
291.3000;1.5303;1.2785;
291.6000;1.5344;1.2858;
291.9000;1.5319;1.2882;
292.2000;1.5368;1.3003;
292.5000;1.5368;1.3028;
292.8000;1.5336;1.2906;
293.1000;1.5303;1.2833;
293.4000;1.5360;1.2906;
293.7000;1.5319;1.2736;
294.0000;1.5271;1.2663;
294.3000;1.5328;1.2785;
294.6000;1.5303;1.2785;
294.9000;1.5295;1.2882;
295.2000;1.5328;1.2955;
295.5000;1.5393;1.3101;
295.8000;1.5328;1.2858;
296.1000;1.5319;1.2858;
296.4000;1.5360;1.2882;
296.7000;1.5328;1.2809;
297.0000;1.5319;1.2882;
297.3000;1.5336;1.2858;
297.6000;1.5311;1.2809;
297.9000;1.5328;1.2833;
298.2000;1.5311;1.2760;
298.5000;1.5287;1.2712;
298.8000;1.5303;1.2809;
299.1000;1.5360;1.2955;
299.4000;1.5319;1.2882;
299.7000;1.5319;1.2955;
300.0000;1.5336;1.3028;
300.3000;1.5295;1.2906;
300.6000;1.5303;1.2930;
300.9000;1.5311;1.2906;
301.2000;1.5344;1.2955;
301.5000;1.5344;1.2955;
301.8000;1.5336;1.2906;
302.1000;1.5311;1.2906;
302.4000;1.5336;1.2906;
302.7000;1.5328;1.2882;
303.0000;1.5319;1.2955;
303.3000;1.5336;1.3028;
303.6000;1.5352;1.3149;
303.9000;1.5336;1.3125;
304.2000;1.5319;1.3076;
304.5000;1.5328;1.2979;
304.8000;1.5328;1.2955;
305.1000;1.5360;1.3052;
305.4000;1.5336;1.3076;
305.7000;1.5328;1.3101;
306.0000;1.5319;1.3101;
306.3000;1.5344;1.3198;
306.6000;1.5246;1.2906;
306.9000;1.5311;1.2930;
307.2000;1.5319;1.2955;
307.5000;1.5328;1.2955;
307.8000;1.5303;1.2858;
308.1000;1.5328;1.2930;
308.4000;1.5295;1.2785;
308.7000;1.5311;1.2882;
309.0000;1.5311;1.2858;
309.3000;1.5328;1.2930;
309.6000;1.5295;1.2809;
309.9000;1.5328;1.2833;
310.2000;1.5311;1.2833;
310.5000;1.5271;1.2712;
310.8000;1.5287;1.2809;
311.1000;1.5336;1.2979;
311.4000;1.5360;1.3028;
311.7000;1.5368;1.3003;
312.0000;1.5336;1.3003;
312.3000;1.5311;1.3052;
312.6000;1.5328;1.3052;
312.9000;1.5344;1.3076;
313.2000;1.5311;1.3003;
313.5000;1.5328;1.2979;
313.8000;1.5417;1.3271;
314.1000;1.5303;1.3028;
314.4000;1.5368;1.3174;
314.7000;1.5344;1.2979;
315.0000;1.5328;1.2785;
315.3000;1.5328;1.2882;
315.6000;1.5336;1.2906;
315.9000;1.5352;1.2833;
316.2000;1.5287;1.2736;
316.5000;1.5311;1.2833;
316.8000;1.5328;1.3003;
317.1000;1.5279;1.2809;
317.4000;1.5336;1.2882;
317.7000;1.5360;1.2882;
318.0000;1.5336;1.2785;
318.3000;1.5360;1.2833;
318.6000;1.5311;1.2736;
318.9000;1.5336;1.2760;
319.2000;1.5336;1.2760;
319.5000;1.5344;1.2736;
319.8000;1.5328;1.2712;
320.1000;1.5328;1.2663;
320.4000;1.5311;1.2736;
320.7000;1.5328;1.2809;
321.0000;1.5328;1.2833;
321.3000;1.5336;1.2833;
321.6000;1.5352;1.2906;
321.9000;1.5328;1.2882;
322.2000;1.5287;1.2760;
322.5000;1.5344;1.2906;
322.8000;1.5319;1.2760;
323.1000;1.5328;1.2785;
323.4000;1.5311;1.2809;
323.7000;1.5287;1.2809;
324.0000;1.5303;1.2858;
324.3000;1.5336;1.2930;
324.6000;1.5311;1.2882;
324.9000;1.5303;1.2882;
325.2000;1.5319;1.2882;
325.5000;1.5360;1.3003;
325.8000;1.5344;1.3028;
326.1000;1.5336;1.3052;
326.4000;1.5336;1.2979;
326.7000;1.5254;1.2736;
327.0000;1.5360;1.2930;
327.3000;1.5295;1.2882;
327.6000;1.5328;1.3003;
327.9000;1.5336;1.3052;
328.2000;1.5311;1.3003;
328.5000;1.5328;1.3101;
328.8000;1.5344;1.3101;
329.1000;1.5295;1.2955;
329.4000;1.5263;1.2882;
329.7000;1.5311;1.3028;
330.0000;1.5311;1.2955;
330.3000;1.5311;1.2979;
330.6000;1.5303;1.2858;
330.9000;1.5344;1.2882;
331.2000;1.5336;1.2882;
331.5000;1.5352;1.2906;
331.8000;1.5328;1.3003;
332.1000;1.5303;1.3003;
332.4000;1.5393;1.3198;
332.7000;1.5303;1.2979;
333.0000;1.5319;1.3028;
333.3000;1.5271;1.2955;
333.6000;1.5311;1.3028;
333.9000;1.5319;1.3101;
334.2000;1.5376;1.3101;
334.5000;1.5328;1.3003;
334.8000;1.5319;1.3052;
335.1000;1.5336;1.3149;
335.4000;1.5360;1.3101;
335.7000;1.5393;1.3101;
336.0000;1.5279;1.2736;
336.3000;1.5311;1.2882;
336.6000;1.5328;1.2930;
336.9000;1.5336;1.2882;
337.2000;1.5319;1.2906;
337.5000;1.5319;1.2930;
337.8000;1.5311;1.2882;
338.1000;1.5328;1.2833;
338.4000;1.5328;1.2833;
338.7000;1.5328;1.2858;
339.0000;1.5303;1.2882;
339.3000;1.5336;1.2979;
339.6000;1.5344;1.2955;
339.9000;1.5319;1.2906;
340.2000;1.5311;1.2906;
340.5000;1.5319;1.3028;
340.8000;1.5344;1.2955;
341.1000;1.5328;1.2882;
341.4000;1.5319;1.2858;
341.7000;1.5311;1.2785;
342.0000;1.5336;1.2906;
342.3000;1.5336;1.2906;
342.6000;1.5319;1.2906;
342.9000;1.5319;1.2760;
343.2000;1.5328;1.2785;
343.5000;1.5287;1.2639;
343.8000;1.5336;1.2712;
344.1000;1.5311;1.2687;
344.4000;1.5311;1.2712;
344.7000;1.5344;1.2785;
345.0000;1.5319;1.2712;
345.3000;1.5319;1.2736;
345.6000;1.5336;1.2809;
345.9000;1.5360;1.2858;
346.2000;1.5319;1.2858;
346.5000;1.5287;1.2760;
346.8000;1.5328;1.2833;
347.1000;1.5319;1.2833;
347.4000;1.5344;1.2882;
347.7000;1.5279;1.2858;
348.0000;1.5295;1.2906;
348.3000;1.5303;1.2858;
348.6000;1.5328;1.2833;
348.9000;1.5311;1.2712;
349.2000;1.5295;1.2542;
349.5000;1.5319;1.2639;
349.8000;1.5287;1.2566;
350.1000;1.5319;1.2639;
350.4000;1.5393;1.2785;
350.7000;1.5287;1.2469;
351.0000;1.5328;1.2687;
351.3000;1.5311;1.2663;
351.6000;1.5328;1.2760;
351.9000;1.5319;1.2687;
352.2000;1.5319;1.2687;
352.5000;1.5336;1.2615;
352.8000;1.5336;1.2566;
353.1000;1.5271;1.2444;
353.4000;1.5336;1.2590;
353.7000;1.5319;1.2566;
354.0000;1.5328;1.2566;
354.3000;1.5287;1.2469;
354.6000;1.5376;1.2590;
354.9000;1.5336;1.2566;
355.2000;1.5352;1.2615;
355.5000;1.5319;1.2615;
355.8000;1.5336;1.2712;
356.1000;1.5295;1.2639;
356.4000;1.5328;1.2639;
356.7000;1.5336;1.2590;
357.0000;1.5287;1.2542;
357.3000;1.5303;1.2615;
357.6000;1.5319;1.2663;
357.9000;1.5328;1.2687;
358.2000;1.5206;1.2469;
358.5000;1.5303;1.2687;
358.8000;1.5360;1.2760;
359.1000;1.5393;1.2858;
359.4000;1.5311;1.2736;
359.7000;1.5336;1.2785;
360.0000;1.5336;1.2736;
360.3000;1.5319;1.2736;
360.6000;1.5319;1.2809;
360.9000;1.5303;1.2858;
361.2000;1.5328;1.2882;
361.5000;1.5311;1.2833;
361.8000;1.5311;1.2833;
362.1000;1.5328;1.2858;
362.4000;1.5295;1.2736;
362.7000;1.5336;1.2760;
363.0000;1.5328;1.2712;
363.3000;1.5311;1.2736;
363.6000;1.5319;1.2809;
363.9000;1.5352;1.2858;
364.2000;1.5319;1.2833;
364.5000;1.5319;1.2858;
364.8000;1.5328;1.2858;
365.1000;1.5328;1.2882;
365.4000;1.5328;1.2955;
365.7000;1.5311;1.2882;
366.0000;1.5319;1.2882;
366.3000;1.5328;1.2906;
366.6000;1.5344;1.2955;
366.9000;1.5336;1.3028;
367.2000;1.5328;1.2882;
367.5000;1.5263;1.2736;
367.8000;1.5319;1.2833;
368.1000;1.5328;1.2906;
368.4000;1.5254;1.2687;
368.7000;1.5319;1.2930;
369.0000;1.5319;1.3028;
369.3000;1.5360;1.3028;
369.6000;1.5279;1.2882;
369.9000;1.5319;1.2955;
370.2000;1.5336;1.2979;
370.5000;1.5328;1.2979;
370.8000;1.5336;1.2955;
371.1000;1.5368;1.3076;
371.4000;1.5336;1.3028;
371.7000;1.5344;1.3101;
372.0000;1.5328;1.3076;
372.3000;1.5328;1.3076;
372.6000;1.5368;1.3076;
372.9000;1.5352;1.3052;
373.2000;1.5311;1.2882;
373.5000;1.5319;1.2882;
373.8000;1.5360;1.2882;
374.1000;1.5352;1.2858;
374.4000;1.5336;1.2760;
374.7000;1.5442;1.3028;
375.0000;1.5328;1.2712;
375.3000;1.5319;1.2687;
375.6000;1.5328;1.2760;
375.9000;1.5319;1.2687;
376.2000;1.5352;1.2712;
376.5000;1.5328;1.2712;
376.8000;1.5336;1.2687;
377.1000;1.5319;1.2663;
377.4000;1.5319;1.2542;
377.7000;1.5319;1.2590;
378.0000;1.5336;1.2687;
378.3000;1.5328;1.2687;
378.6000;1.5319;1.2663;
378.9000;1.5344;1.2760;
379.2000;1.5360;1.2882;
379.5000;1.5311;1.2712;
379.8000;1.5311;1.2687;
380.1000;1.5311;1.2663;
380.4000;1.5328;1.2809;
380.7000;1.5181;1.2542;
381.0000;1.5303;1.2809;
381.3000;1.5319;1.2882;
381.6000;1.5303;1.2882;
381.9000;1.5311;1.2906;
382.2000;1.5328;1.2906;
382.5000;1.5319;1.2785;
382.8000;1.5319;1.2712;
383.1000;1.5344;1.2760;
383.4000;1.5246;1.2517;
383.7000;1.5287;1.2566;
384.0000;1.5319;1.2639;
384.3000;1.5328;1.2615;
384.6000;1.5311;1.2517;
384.9000;1.5214;1.2274;
385.2000;1.5263;1.2493;
385.5000;1.5344;1.2639;
385.8000;1.5328;1.2687;
386.1000;1.5328;1.2785;
386.4000;1.5352;1.2882;
386.7000;1.5311;1.2833;
387.0000;1.5319;1.2906;
387.3000;1.5311;1.2930;
387.6000;1.5311;1.2858;
387.9000;1.5328;1.2712;
388.2000;1.5311;1.2663;
388.5000;1.5303;1.2663;
388.8000;1.5311;1.2760;
389.1000;1.5344;1.2930;
389.4000;1.5246;1.2663;
389.7000;1.5328;1.2882;
390.0000;1.5319;1.2809;
390.3000;1.5271;1.2663;
390.6000;1.5328;1.2858;
390.9000;1.5328;1.2833;
391.2000;1.5319;1.2858;
391.5000;1.5433;1.3198;
391.8000;1.5319;1.2906;
392.1000;1.5336;1.2882;
392.4000;1.5336;1.2882;
392.7000;1.5328;1.2906;
393.0000;1.5344;1.2955;
393.3000;1.5328;1.3028;
393.6000;1.5319;1.3052;
393.9000;1.5328;1.3028;
394.2000;1.5328;1.2930;
394.5000;1.5336;1.2955;
394.8000;1.5311;1.2979;
395.1000;1.5352;1.2979;
395.4000;1.5319;1.2906;
395.7000;1.5319;1.2979;
396.0000;1.5328;1.3052;
396.3000;1.5311;1.3028;
396.6000;1.5319;1.2979;
396.9000;1.5336;1.2930;
397.2000;1.5319;1.2906;
397.5000;1.5344;1.2882;
397.8000;1.5254;1.2785;
398.1000;1.5344;1.2930;
398.4000;1.5328;1.2906;
398.7000;1.5319;1.2882;
399.0000;1.5336;1.2858;
399.3000;1.5319;1.2809;
399.6000;1.5295;1.2712;
399.9000;1.5311;1.2833;
400.2000;1.5311;1.2882;
400.5000;1.5409;1.3149;
400.8000;1.5360;1.2979;
401.1000;1.5295;1.2785;
401.4000;1.5303;1.2736;
401.7000;1.5311;1.2760;
402.0000;1.5450;1.3101;
402.3000;1.5319;1.2785;
402.6000;1.5336;1.2736;
402.9000;1.5360;1.2736;
403.2000;1.5328;1.2615;
403.5000;1.5336;1.2615;
403.8000;1.5328;1.2639;
404.1000;1.5319;1.2590;
404.4000;1.5344;1.2663;
404.7000;1.5328;1.2566;
405.0000;1.5328;1.2615;
405.3000;1.5295;1.2542;
405.6000;1.5425;1.2882;
405.9000;1.5360;1.2663;
406.2000;1.5328;1.2590;
406.5000;1.5303;1.2542;
406.8000;1.5328;1.2542;
407.1000;1.5287;1.2493;
407.4000;1.5336;1.2687;
407.7000;1.5254;1.2542;
408.0000;1.5311;1.2712;
408.3000;1.5393;1.2906;
408.6000;1.5254;1.2663;
408.9000;1.5287;1.2809;
409.2000;1.5368;1.3052;
409.5000;1.5336;1.2979;
409.8000;1.5303;1.2930;
410.1000;1.5328;1.2930;
410.4000;1.5303;1.2882;
410.7000;1.5311;1.2833;
411.0000;1.5328;1.2882;
411.3000;1.5328;1.2736;
411.6000;1.5295;1.2687;
411.9000;1.5311;1.2736;
412.2000;1.5311;1.2858;
412.5000;1.5311;1.2809;
412.8000;1.5328;1.2736;
413.1000;1.5311;1.2760;
413.4000;1.5295;1.2590;
413.7000;1.5344;1.2615;
414.0000;1.5328;1.2566;
414.3000;1.5222;1.2396;
414.6000;1.5336;1.2663;
414.9000;1.5311;1.2590;
415.2000;1.5311;1.2469;
415.5000;1.5328;1.2542;
415.8000;1.5295;1.2542;
416.1000;1.5295;1.2542;
416.4000;1.5336;1.2542;
416.7000;1.5303;1.2542;
417.0000;1.5328;1.2615;
417.3000;1.5319;1.2687;
417.6000;1.5319;1.2785;
417.9000;1.5336;1.2760;
418.2000;1.5303;1.2663;
418.5000;1.5328;1.2663;
418.8000;1.5319;1.2663;
419.1000;1.5303;1.2687;
419.4000;1.5303;1.2663;
419.7000;1.5328;1.2663;
420.0000;1.5319;1.2712;
420.3000;1.5319;1.2736;
420.6000;1.5311;1.2785;
420.9000;1.5303;1.2687;
421.2000;1.5319;1.2712;
421.5000;1.5336;1.2833;
421.8000;1.5295;1.2785;
422.1000;1.5303;1.2858;
422.4000;1.5295;1.2736;
422.7000;1.5287;1.2736;
423.0000;1.5319;1.2833;
423.3000;1.5263;1.2566;
423.6000;1.5206;1.2420;
423.9000;1.5336;1.2736;
424.2000;1.5303;1.2590;
424.5000;1.5417;1.2858;
424.8000;1.5328;1.2687;
425.1000;1.5385;1.2882;
425.4000;1.5328;1.2736;
425.7000;1.5295;1.2687;
426.0000;1.5303;1.2639;
426.3000;1.5328;1.2687;
426.6000;1.5311;1.2663;
426.9000;1.5311;1.2687;
427.2000;1.5263;1.2736;
427.5000;1.5311;1.2906;
427.8000;1.5295;1.2858;
428.1000;1.5295;1.2882;
428.4000;1.5328;1.2882;
428.7000;1.5319;1.2906;
429.0000;1.5328;1.2882;
429.3000;1.5303;1.2760;
429.6000;1.5328;1.2833;
429.9000;1.5385;1.2906;
430.2000;1.5311;1.2687;
430.5000;1.5311;1.2663;
430.8000;1.5311;1.2615;
431.1000;1.5303;1.2590;
431.4000;1.5328;1.2687;
431.7000;1.5303;1.2590;
432.0000;1.5295;1.2615;
432.3000;1.5295;1.2663;
432.6000;1.5311;1.2566;
432.9000;1.5433;1.2858;
433.2000;1.5319;1.2663;
433.5000;1.5311;1.2712;
433.8000;1.5336;1.2833;
434.1000;1.5352;1.2906;
434.4000;1.5319;1.2833;
434.7000;1.5336;1.2833;
435.0000;1.5328;1.2760;
435.3000;1.5319;1.2663;
435.6000;1.5319;1.2687;
435.9000;1.5319;1.2712;
436.2000;1.5319;1.2687;
436.5000;1.5319;1.2712;
436.8000;1.5328;1.2639;
437.1000;1.5295;1.2542;
437.4000;1.5311;1.2639;
437.7000;1.5319;1.2712;
438.0000;1.5319;1.2736;
438.3000;1.5295;1.2639;
438.6000;1.5328;1.2785;
438.9000;1.5319;1.2809;
439.2000;1.5344;1.2833;
439.5000;1.5344;1.2809;
439.8000;1.5328;1.2785;
440.1000;1.5328;1.2809;
440.4000;1.5319;1.2785;
440.7000;1.5319;1.2687;
441.0000;1.5303;1.2663;
441.3000;1.5303;1.2687;
441.6000;1.5319;1.2736;
441.9000;1.5303;1.2590;
442.2000;1.5295;1.2566;
442.5000;1.5328;1.2639;
442.8000;1.5295;1.2590;
443.1000;1.5303;1.2590;
443.4000;1.5271;1.2444;
443.7000;1.5303;1.2469;
444.0000;1.5311;1.2493;
444.3000;1.5295;1.2420;
444.6000;1.5263;1.2371;
444.9000;1.5319;1.2493;
445.2000;1.5319;1.2517;
445.5000;1.5303;1.2517;
445.8000;1.5271;1.2444;
446.1000;1.5295;1.2566;
446.4000;1.5238;1.2299;
446.7000;1.5311;1.2469;
447.0000;1.5311;1.2420;
447.3000;1.5311;1.2396;
447.6000;1.5368;1.2615;
447.9000;1.5319;1.2420;
448.2000;1.5319;1.2347;
448.5000;1.5311;1.2371;
448.8000;1.5311;1.2469;
449.1000;1.5319;1.2542;
449.4000;1.5319;1.2517;
449.7000;1.5328;1.2517;
450.0000;1.5311;1.2517;
450.3000;1.5263;1.2493;
450.6000;1.5319;1.2687;
450.9000;1.5319;1.2736;
451.2000;1.5319;1.2736;
451.5000;1.5311;1.2785;
451.8000;1.5336;1.2858;
452.1000;1.5319;1.2809;
452.4000;1.5303;1.2663;
452.7000;1.5263;1.2542;
453.0000;1.5311;1.2858;
453.3000;1.5336;1.2906;
453.6000;1.5311;1.2809;
453.9000;1.5303;1.2639;
454.2000;1.5344;1.2785;
454.5000;1.5336;1.2785;
454.8000;1.5303;1.2687;
455.1000;1.5303;1.2712;
455.4000;1.5376;1.2809;
455.7000;1.5328;1.2687;
456.0000;1.5328;1.2833;
456.3000;1.5311;1.2687;
456.6000;1.5303;1.2736;
456.9000;1.5319;1.2736;
457.2000;1.5303;1.2687;
457.5000;1.5295;1.2517;
457.8000;1.5328;1.2639;
458.1000;1.5311;1.2736;
458.4000;1.5328;1.2785;
458.7000;1.5319;1.2760;
459.0000;1.5319;1.2785;
459.3000;1.5417;1.3003;
459.6000;1.5336;1.2809;
459.9000;1.5222;1.2566;
460.2000;1.5311;1.2809;
460.5000;1.5352;1.2906;
460.8000;1.5311;1.2882;
461.1000;1.5311;1.2955;
461.4000;1.5344;1.3052;
461.7000;1.5295;1.2930;
462.0000;1.5311;1.3003;
462.3000;1.5328;1.3003;
462.6000;1.5295;1.2833;
462.9000;1.5303;1.2833;
463.2000;1.5311;1.2882;
463.5000;1.5311;1.2833;
463.8000;1.5319;1.2955;
464.1000;1.5303;1.2979;
464.4000;1.5368;1.3174;
464.7000;1.5311;1.3003;
465.0000;1.5303;1.3003;
465.3000;1.5319;1.3028;
465.6000;1.5319;1.3028;
465.9000;1.5328;1.3125;
466.2000;1.5303;1.3052;
466.5000;1.5303;1.3076;
466.8000;1.5295;1.3028;
467.1000;1.5311;1.3052;
467.4000;1.5303;1.2955;
467.7000;1.5336;1.2882;
468.0000;1.5319;1.2882;
468.3000;1.5344;1.2930;
468.6000;1.5303;1.2882;
468.9000;1.5311;1.2930;
469.2000;1.5303;1.2930;
469.5000;1.5303;1.3076;
469.8000;1.5295;1.3076;
470.1000;1.5336;1.3174;
470.4000;1.5328;1.3246;
470.7000;1.5311;1.3149;
471.0000;1.5303;1.3101;
471.3000;1.5319;1.3174;
471.6000;1.5295;1.3271;
471.9000;1.5319;1.3441;
472.2000;1.5344;1.3465;
472.5000;1.5311;1.3368;
472.8000;1.5311;1.3295;
473.1000;1.5311;1.3222;
473.4000;1.5311;1.3101;
473.7000;1.5328;1.3101;
474.0000;1.5336;1.3149;
474.3000;1.5311;1.3101;
474.6000;1.5328;1.3125;
474.9000;1.5311;1.3101;
475.2000;1.5311;1.3028;
475.5000;1.5352;1.2955;
475.8000;1.5344;1.3003;
476.1000;1.5336;1.3003;
476.4000;1.5352;1.3101;
476.7000;1.5311;1.3101;
477.0000;1.5336;1.3174;
477.3000;1.5328;1.3222;
477.6000;1.5311;1.3101;
477.9000;1.5311;1.3125;
478.2000;1.5303;1.3125;
478.5000;1.5311;1.3222;
478.8000;1.5311;1.3076;
479.1000;1.5319;1.3003;
479.4000;1.5328;1.3003;
479.7000;1.5319;1.3028;
480.0000;1.5295;1.2955;
480.3000;1.5311;1.2930;
480.6000;1.5311;1.2930;
480.9000;1.5303;1.2955;
481.2000;1.5263;1.2906;
481.5000;1.5295;1.3028;
481.8000;1.5311;1.3076;
482.1000;1.5303;1.3028;
482.4000;1.5311;1.3052;
482.7000;1.5303;1.2955;
483.0000;1.5336;1.3052;
483.3000;1.5287;1.2906;
483.6000;1.5311;1.3101;
483.9000;1.5319;1.3174;
484.2000;1.5303;1.3076;
484.5000;1.5238;1.2930;
484.8000;1.5303;1.3174;
485.1000;1.5311;1.3174;
485.4000;1.5287;1.3052;
485.7000;1.5287;1.3003;
486.0000;1.5295;1.3003;
486.3000;1.5328;1.3101;
486.6000;1.5311;1.3076;
486.9000;1.5311;1.2955;
487.2000;1.5303;1.2882;
487.5000;1.5311;1.2930;
487.8000;1.5311;1.3052;
488.1000;1.5287;1.3003;
488.4000;1.5303;1.3076;
488.7000;1.5279;1.2955;
489.0000;1.5303;1.3003;
489.3000;1.5295;1.2979;
489.6000;1.5303;1.3076;
489.9000;1.5311;1.3174;
490.2000;1.5319;1.3101;
490.5000;1.5311;1.2979;
490.8000;1.5271;1.2809;
491.1000;1.5319;1.2882;
491.4000;1.5311;1.2882;
491.7000;1.5311;1.2858;
492.0000;1.5319;1.2882;
492.3000;1.5295;1.2858;
492.6000;1.5303;1.2930;
492.9000;1.5287;1.2906;
493.2000;1.5328;1.2955;
493.5000;1.5295;1.2906;
493.8000;1.5303;1.2955;
494.1000;1.5303;1.2930;
494.4000;1.5287;1.2833;
494.7000;1.5319;1.3003;
495.0000;1.5328;1.3101;
495.3000;1.5442;1.3441;
495.6000;1.5295;1.3101;
495.9000;1.5344;1.3149;
496.2000;1.5311;1.3101;
496.5000;1.5303;1.2979;
496.8000;1.5319;1.2955;
497.1000;1.5328;1.2955;
497.4000;1.5303;1.2955;
497.7000;1.5319;1.2955;
498.0000;1.5344;1.2979;
498.3000;1.5287;1.2906;
498.6000;1.5328;1.3076;
498.9000;1.5336;1.3174;
499.2000;1.5344;1.3149;
499.5000;1.5271;1.3003;
499.8000;1.5319;1.3149;
500.1000;1.5311;1.3076;
500.4000;1.5319;1.2979;
500.7000;1.5197;1.2687;
501.0000;1.5328;1.3076;
501.3000;1.5287;1.2979;
501.6000;1.5328;1.3028;
501.9000;1.5344;1.2930;
502.2000;1.5303;1.2809;
502.5000;1.5311;1.2858;
502.8000;1.5311;1.2882;
503.1000;1.5311;1.2906;
503.4000;1.5336;1.2979;
503.7000;1.5311;1.2979;
504.0000;1.5287;1.2955;
504.3000;1.5303;1.2930;
504.6000;1.5287;1.2930;
504.9000;1.5295;1.2979;
505.2000;1.5279;1.2955;
505.5000;1.5352;1.3028;
505.8000;1.5328;1.3003;
506.1000;1.5409;1.3149;
506.4000;1.5311;1.2930;
506.7000;1.5303;1.2882;
507.0000;1.5246;1.2736;
507.3000;1.5311;1.2882;
507.6000;1.5311;1.2906;
507.9000;1.5311;1.2882;
508.2000;1.5319;1.2882;
508.5000;1.5319;1.2858;
508.8000;1.5311;1.2858;
509.1000;1.5246;1.2809;
509.4000;1.5311;1.2955;
509.7000;1.5295;1.2955;
510.0000;1.5319;1.2955;
510.3000;1.5319;1.2955;
510.6000;1.5303;1.2955;
510.9000;1.5279;1.2809;
511.2000;1.5319;1.2906;
511.5000;1.5328;1.2882;
511.8000;1.5311;1.2760;
512.1000;1.5295;1.2809;
512.4000;1.5295;1.2930;
512.7000;1.5319;1.2930;
513.0000;1.5254;1.2736;
513.3000;1.5287;1.2858;
513.6000;1.5303;1.2785;
513.9000;1.5401;1.3003;
514.2000;1.5319;1.2833;
514.5000;1.5319;1.2882;
514.8000;1.5287;1.2809;
515.1000;1.5206;1.2639;
515.4000;1.5295;1.2858;
515.7000;1.5336;1.2979;
516.0000;1.5287;1.2809;
516.3000;1.5263;1.2687;
516.6000;1.5303;1.2712;
516.9000;1.5311;1.2760;
517.2000;1.5295;1.2687;
517.5000;1.5319;1.2712;
517.8000;1.5303;1.2712;
518.1000;1.5311;1.2712;
518.4000;1.5311;1.2760;
518.7000;1.5303;1.2858;
519.0000;1.5303;1.2833;
519.3000;1.5246;1.2785;
519.6000;1.5336;1.2979;
519.9000;1.5311;1.2906;
520.2000;1.5295;1.2882;
520.5000;1.5311;1.2882;
520.8000;1.5328;1.2930;
521.1000;1.5409;1.3052;
521.4000;1.5263;1.2639;
521.7000;1.5376;1.2858;
522.0000;1.5303;1.2785;
522.3000;1.5376;1.2906;
522.6000;1.5344;1.2858;
522.9000;1.5311;1.2833;
523.2000;1.5303;1.2833;
523.5000;1.5311;1.2760;
523.8000;1.5344;1.2882;
524.1000;1.5295;1.2663;
524.4000;1.5319;1.2687;
524.7000;1.5271;1.2542;
525.0000;1.5303;1.2615;
525.3000;1.5303;1.2615;
525.6000;1.5360;1.2760;
525.9000;1.5319;1.2615;
526.2000;1.5311;1.2639;
526.5000;1.5319;1.2663;
526.8000;1.5303;1.2615;
527.1000;1.5376;1.2687;
527.4000;1.5328;1.2590;
527.7000;1.5311;1.2590;
528.0000;1.5311;1.2663;
528.3000;1.5311;1.2809;
528.6000;1.5295;1.2687;
528.9000;1.5311;1.2687;
529.2000;1.5295;1.2687;
529.5000;1.5311;1.2712;
529.8000;1.5328;1.2760;
530.1000;1.5360;1.2930;
530.4000;1.5295;1.2785;
530.7000;1.5303;1.2712;
531.0000;1.5287;1.2712;
531.3000;1.5287;1.2712;
531.6000;1.5319;1.2736;
531.9000;1.5303;1.2687;
532.2000;1.5303;1.2736;
532.5000;1.5279;1.2687;
532.8000;1.5303;1.2785;
533.1000;1.5328;1.2736;
533.4000;1.5328;1.2712;
533.7000;1.5279;1.2590;
534.0000;1.5254;1.2517;
534.3000;1.5303;1.2615;
534.6000;1.5303;1.2785;
534.9000;1.5279;1.2712;
535.2000;1.5287;1.2687;
535.5000;1.5328;1.2858;
535.8000;1.5279;1.2785;
536.1000;1.5287;1.2736;
536.4000;1.5303;1.2712;
536.7000;1.5295;1.2590;
537.0000;1.5303;1.2687;
537.3000;1.5311;1.2663;
537.6000;1.5352;1.2639;
537.9000;1.5254;1.2444;
538.2000;1.5311;1.2590;
538.5000;1.5417;1.2833;
538.8000;1.5295;1.2590;
539.1000;1.5303;1.2687;
539.4000;1.5311;1.2663;
539.7000;1.5303;1.2590;
540.0000;1.5311;1.2615;
540.3000;1.5295;1.2566;
540.6000;1.5287;1.2517;
540.9000;1.5352;1.2785;
541.2000;1.5303;1.2615;
541.5000;1.5385;1.2785;
541.8000;1.5303;1.2615;
542.1000;1.5311;1.2639;
542.4000;1.5295;1.2663;
542.7000;1.5303;1.2663;
543.0000;1.5328;1.2639;
543.3000;1.5254;1.2469;
543.6000;1.5279;1.2542;
543.9000;1.5311;1.2542;
544.2000;1.5295;1.2542;
544.5000;1.5287;1.2493;
544.8000;1.5336;1.2590;
545.1000;1.5295;1.2566;
545.4000;1.5368;1.2760;
545.7000;1.5344;1.2785;
546.0000;1.5279;1.2663;
546.3000;1.5385;1.2882;
546.6000;1.5311;1.2663;
546.9000;1.5295;1.2590;
547.2000;1.5311;1.2493;
547.5000;1.5328;1.2542;
547.8000;1.5328;1.2615;
548.1000;1.5303;1.2615;
548.4000;1.5303;1.2687;
548.7000;1.5311;1.2736;
549.0000;1.5295;1.2760;
549.3000;1.5311;1.2712;
549.6000;1.5311;1.2736;
549.9000;1.5328;1.2687;
550.2000;1.5319;1.2687;
550.5000;1.5319;1.2760;
550.8000;1.5303;1.2687;
551.1000;1.5303;1.2566;
551.4000;1.5303;1.2493;
551.7000;1.5311;1.2566;
552.0000;1.5303;1.2615;
552.3000;1.5271;1.2663;
552.6000;1.5295;1.2687;
552.9000;1.5287;1.2687;
553.2000;1.5311;1.2615;
553.5000;1.5303;1.2639;
553.8000;1.5287;1.2663;
554.1000;1.5311;1.2736;
554.4000;1.5279;1.2542;
554.7000;1.5328;1.2566;
555.0000;1.5303;1.2469;
555.3000;1.5319;1.2493;
555.6000;1.5295;1.2493;
555.9000;1.5295;1.2517;
556.2000;1.5311;1.2542;
556.5000;1.5336;1.2590;
556.8000;1.5328;1.2542;
557.1000;1.5319;1.2469;
557.4000;1.5311;1.2371;
557.7000;1.5311;1.2396;
558.0000;1.5303;1.2396;
558.3000;1.5303;1.2517;
558.6000;1.5279;1.2542;
558.9000;1.5279;1.2542;
559.2000;1.5303;1.2590;
559.5000;1.5295;1.2590;
559.8000;1.5287;1.2639;
560.1000;1.5279;1.2615;
560.4000;1.5287;1.2663;
560.7000;1.5295;1.2566;
561.0000;1.5303;1.2542;
561.3000;1.5287;1.2493;
561.6000;1.5311;1.2687;
561.9000;1.5352;1.2785;
562.2000;1.5287;1.2687;
562.5000;1.5295;1.2639;
562.8000;1.5295;1.2687;
563.1000;1.5303;1.2809;
563.4000;1.5303;1.2785;
563.7000;1.5295;1.2663;
564.0000;1.5303;1.2566;
564.3000;1.5319;1.2590;
564.6000;1.5303;1.2566;
564.9000;1.5295;1.2542;
565.2000;1.5287;1.2639;
565.5000;1.5311;1.2687;
565.8000;1.5295;1.2590;
566.1000;1.5263;1.2469;
566.4000;1.5311;1.2590;
566.7000;1.5311;1.2663;
567.0000;1.5287;1.2736;
567.3000;1.5303;1.2833;
567.6000;1.5287;1.2760;
567.9000;1.5295;1.2687;
568.2000;1.5287;1.2785;
568.5000;1.5311;1.2785;
568.8000;1.5287;1.2712;
569.1000;1.5303;1.2760;
569.4000;1.5238;1.2639;
569.7000;1.5303;1.2712;
570.0000;1.5303;1.2639;
570.3000;1.5303;1.2615;
570.6000;1.5303;1.2615;
570.9000;1.5303;1.2615;
571.2000;1.5287;1.2615;
571.5000;1.5328;1.2760;
571.8000;1.5295;1.2712;
572.1000;1.5279;1.2736;
572.4000;1.5238;1.2590;
572.7000;1.5295;1.2809;
573.0000;1.5295;1.2809;
573.3000;1.5336;1.2760;
573.6000;1.5311;1.2760;
573.9000;1.5287;1.2687;
574.2000;1.5295;1.2663;
574.5000;1.5311;1.2785;
574.8000;1.5287;1.2615;
575.1000;1.5287;1.2517;
575.4000;1.5328;1.2542;
575.7000;1.5311;1.2590;
576.0000;1.5319;1.2590;
576.3000;1.5319;1.2736;
576.6000;1.5303;1.2785;
576.9000;1.5319;1.2712;
577.2000;1.5295;1.2663;
577.5000;1.5328;1.2736;
577.8000;1.5311;1.2687;
578.1000;1.5295;1.2590;
578.4000;1.5303;1.2590;
578.7000;1.5295;1.2639;
579.0000;1.5295;1.2687;
579.3000;1.5287;1.2760;
579.6000;1.5303;1.2809;
579.9000;1.5303;1.2712;
580.2000;1.5271;1.2639;
580.5000;1.5287;1.2712;
580.8000;1.5287;1.2736;
581.1000;1.5254;1.2687;
581.4000;1.5295;1.2712;
581.7000;1.5303;1.2712;
582.0000;1.5303;1.2639;
582.3000;1.5311;1.2566;
582.6000;1.5319;1.2542;
582.9000;1.5295;1.2542;
583.2000;1.5319;1.2615;
583.5000;1.5319;1.2687;
583.8000;1.5287;1.2469;
584.1000;1.5295;1.2469;
584.4000;1.5295;1.2396;
584.7000;1.5311;1.2517;
585.0000;1.5287;1.2493;
585.3000;1.5295;1.2590;
585.6000;1.5311;1.2663;
585.9000;1.5336;1.2590;
586.2000;1.5287;1.2444;
586.5000;1.5303;1.2493;
586.8000;1.5328;1.2517;
587.1000;1.5319;1.2590;
587.4000;1.5279;1.2469;
587.7000;1.5303;1.2517;
588.0000;1.5263;1.2444;
588.3000;1.5279;1.2566;
588.6000;1.5287;1.2590;
588.9000;1.5287;1.2615;
589.2000;1.5279;1.2566;
589.5000;1.5311;1.2493;
589.8000;1.5360;1.2566;
590.1000;1.5311;1.2444;
590.4000;1.5295;1.2469;
590.7000;1.5295;1.2542;
591.0000;1.5303;1.2517;
591.3000;1.5336;1.2517;
591.6000;1.5295;1.2396;
591.9000;1.5303;1.2396;
592.2000;1.5295;1.2299;
592.5000;1.5319;1.2347;
592.8000;1.5295;1.2226;
593.1000;1.5303;1.2347;
593.4000;1.5344;1.2396;
593.7000;1.5271;1.2226;
594.0000;1.5287;1.2274;
594.3000;1.5303;1.2323;
594.6000;1.5303;1.2323;
594.9000;1.5263;1.2226;
595.2000;1.5336;1.2639;
595.5000;1.5246;1.2444;
595.8000;1.5279;1.2566;
596.1000;1.5287;1.2639;
596.4000;1.5303;1.2712;
596.7000;1.5287;1.2590;
597.0000;1.5287;1.2639;
597.3000;1.5303;1.2639;
597.6000;1.5279;1.2590;
597.9000;1.5287;1.2663;
598.2000;1.5287;1.2712;
598.5000;1.5295;1.2639;
598.8000;1.5303;1.2566;
599.1000;1.5303;1.2590;
599.4000;1.5279;1.2517;
599.7000;1.5246;1.2420;
600.0000;1.5295;1.2469;
600.3000;1.5287;1.2396;
600.6000;1.5246;1.2274;
600.9000;1.5165;1.2177;
601.2000;1.5018;1.1910;
601.5000;1.4904;1.1812;
601.8000;1.4742;1.1545;
602.1000;1.4587;1.1351;
602.4000;1.4449;1.1205;
602.7000;1.4310;1.1083;
603.0000;1.4196;1.0937;
603.3000;1.4058;1.0913;
603.6000;1.3936;1.0816;
603.9000;1.3838;1.0743;
604.2000;1.3691;1.0597;
604.5000;1.3569;1.0427;
604.8000;1.3496;1.0451;
605.1000;1.3415;1.0378;
605.4000;1.3301;1.0208;
605.7000;1.3236;1.0257;
606.0000;1.3138;1.0135;
606.3000;1.3073;1.0135;
606.6000;1.2991;1.0135;
606.9000;1.2837;0.9892;
607.2000;1.2894;1.0135;
607.5000;1.2772;0.9819;
607.8000;1.2633;0.9625;
608.1000;1.2536;0.9552;
608.4000;1.2544;0.9771;
608.7000;1.2519;0.9819;
609.0000;1.2430;0.9698;
609.3000;1.2332;0.9625;
609.6000;1.2259;0.9431;
609.9000;1.2210;0.9455;
610.2000;1.2161;0.9431;
610.5000;1.2096;0.9358;
610.8000;1.2039;0.9236;
611.1000;1.1990;0.9212;
611.4000;1.1933;0.9187;
611.7000;1.1860;0.9260;
612.0000;1.1860;0.9431;
612.3000;1.1795;0.9431;
612.6000;1.1640;0.9090;
612.9000;1.1648;0.9163;
613.2000;1.1583;0.9163;
613.5000;1.1583;0.9309;
613.8000;1.1632;0.9455;
614.1000;1.1461;0.9115;
614.4000;1.1429;0.9066;
614.7000;1.1363;0.9042;
615.0000;1.1323;0.9066;
615.3000;1.1241;0.9115;
615.6000;1.1241;0.9285;
615.9000;1.1193;0.9285;
616.2000;1.1160;0.9285;
616.5000;1.1119;0.9260;
616.8000;1.1062;0.9260;
617.1000;1.1030;0.9187;
617.4000;1.1005;0.9236;
617.7000;1.0948;0.9139;
618.0000;1.0899;0.9066;
618.3000;1.0834;0.8993;
618.6000;1.0818;0.9090;
618.9000;1.0794;0.9017;
619.2000;1.0745;0.9017;
619.5000;1.0696;0.8944;
619.8000;1.0663;0.8969;
620.1000;1.0672;0.8993;
620.4000;1.0615;0.9042;
620.7000;1.0574;0.9042;
621.0000;1.0541;0.8920;
621.3000;1.0541;0.8969;
621.6000;1.0501;0.8969;
621.9000;1.0419;0.8847;
622.2000;1.0419;0.8896;
622.5000;1.0370;0.8871;
622.8000;1.0379;0.8969;
623.1000;1.0330;0.8896;
623.4000;1.0297;0.8871;
623.7000;1.0256;0.8799;
624.0000;1.0256;0.8896;
624.3000;1.0216;0.8823;
624.6000;1.0183;0.8750;
624.9000;1.0159;0.8774;
625.2000;1.0134;0.8774;
625.5000;1.0110;0.8823;
625.8000;1.0069;0.8799;
626.1000;1.0045;0.8823;
626.4000;1.0045;0.8871;
626.7000;0.9996;0.8823;
627.0000;0.9898;0.8628;
627.3000;0.9931;0.8774;
627.6000;0.9931;0.8823;
627.9000;0.9923;0.8774;
628.2000;0.9874;0.8653;
628.5000;0.9792;0.8434;
628.8000;0.9874;0.8653;
629.1000;0.9809;0.8556;
629.4000;0.9792;0.8507;
629.7000;0.9768;0.8507;
630.0000;0.9792;0.8531;
630.3000;0.9735;0.8361;
630.6000;0.9687;0.8410;
630.9000;0.9638;0.8361;
631.2000;0.9654;0.8556;
631.5000;0.9597;0.8385;
631.8000;0.9646;0.8628;
632.1000;0.9630;0.8677;
632.4000;0.9581;0.8628;
632.7000;0.9573;0.8628;
633.0000;0.9483;0.8410;
633.3000;0.9556;0.8653;
633.6000;0.9499;0.8507;
633.9000;0.9556;0.8726;
634.2000;0.9475;0.8580;
634.5000;0.9451;0.8580;
634.8000;0.9459;0.8604;
635.1000;0.9426;0.8507;
635.4000;0.9394;0.8531;
635.7000;0.9385;0.8580;
636.0000;0.9369;0.8580;
636.3000;0.9337;0.8507;
636.6000;0.9345;0.8628;
636.9000;0.9345;0.8677;
637.2000;0.9280;0.8628;
637.5000;0.9296;0.8604;
637.8000;0.9263;0.8604;
638.1000;0.9239;0.8531;
638.4000;0.9271;0.8580;
638.7000;0.9263;0.8531;
639.0000;0.9223;0.8410;
639.3000;0.9206;0.8458;
639.6000;0.9174;0.8337;
639.9000;0.9141;0.8337;
640.2000;0.9109;0.8385;
640.5000;0.9109;0.8483;
640.8000;0.9052;0.8288;
641.1000;0.9125;0.8410;
641.4000;0.9084;0.8361;
641.7000;0.9084;0.8385;
642.0000;0.9052;0.8288;
642.3000;0.8995;0.8191;
642.6000;0.8995;0.8312;
642.9000;0.9011;0.8410;
643.2000;0.9011;0.8288;
643.5000;0.8995;0.8191;
643.8000;0.8978;0.8142;
644.1000;0.8970;0.8167;
644.4000;0.8970;0.8240;
644.7000;0.8954;0.8240;
645.0000;0.8905;0.8118;
645.3000;0.8905;0.8069;
645.6000;0.8905;0.8167;
645.9000;0.8921;0.8288;
646.2000;0.8864;0.8240;
646.5000;0.8864;0.8240;
646.8000;0.8889;0.8312;
647.1000;0.8864;0.8215;
647.4000;0.8856;0.8312;
647.7000;0.8873;0.8385;
648.0000;0.8807;0.8337;
648.3000;0.8767;0.8118;
648.6000;0.8742;0.7996;
648.9000;0.8783;0.8094;
649.2000;0.8767;0.8069;
649.5000;0.8799;0.8215;
649.8000;0.8734;0.8045;
650.1000;0.8751;0.8191;
650.4000;0.8710;0.8215;
650.7000;0.8718;0.8288;
651.0000;0.8677;0.8264;
651.3000;0.8702;0.8410;
651.6000;0.8685;0.8337;
651.9000;0.8677;0.8240;
652.2000;0.8669;0.8118;
652.5000;0.8547;0.7875;
652.8000;0.8645;0.8142;
653.1000;0.8588;0.7972;
653.4000;0.8612;0.7972;
653.7000;0.8726;0.8191;
654.0000;0.8604;0.8045;
654.3000;0.8596;0.8045;
654.6000;0.8612;0.8118;
654.9000;0.8580;0.8094;
655.2000;0.8580;0.8094;
655.5000;0.8563;0.8045;
655.8000;0.8555;0.7996;
656.1000;0.8547;0.8045;
656.4000;0.8531;0.8069;
656.7000;0.8514;0.8069;
657.0000;0.8523;0.8167;
657.3000;0.8498;0.8167;
657.6000;0.8506;0.8142;
657.9000;0.8482;0.8142;
658.2000;0.8474;0.8167;
658.5000;0.8474;0.8191;
658.8000;0.8482;0.8264;
659.1000;0.8433;0.8167;
659.4000;0.8457;0.8191;
659.7000;0.8433;0.8142;
660.0000;0.8449;0.8094;
660.3000;0.8449;0.7996;
660.6000;0.8409;0.7875;
660.9000;0.8425;0.7875;
661.2000;0.8392;0.7826;
661.5000;0.8384;0.7851;
661.8000;0.8417;0.7948;
662.1000;0.8368;0.7899;
662.4000;0.8384;0.7996;
662.7000;0.8368;0.7972;
663.0000;0.8344;0.8021;
663.3000;0.8352;0.8021;
663.6000;0.8344;0.7972;
663.9000;0.8319;0.7899;
664.2000;0.8319;0.7899;
664.5000;0.8327;0.8142;
664.8000;0.8327;0.8215;
665.1000;0.8311;0.8215;
665.4000;0.8311;0.8142;
665.7000;0.8278;0.8094;
666.0000;0.8278;0.8069;
666.3000;0.8246;0.8167;
666.6000;0.8254;0.8167;
666.9000;0.8262;0.8312;
667.2000;0.8262;0.8361;
667.5000;0.8270;0.8312;
667.8000;0.8238;0.8337;
668.1000;0.8238;0.8264;
668.4000;0.8246;0.8240;
668.7000;0.8238;0.8240;
669.0000;0.8238;0.8215;
669.3000;0.8230;0.8264;
669.6000;0.8246;0.8385;
669.9000;0.8205;0.8288;
670.2000;0.8197;0.8240;
670.5000;0.8246;0.8264;
670.8000;0.8181;0.8045;
671.1000;0.8181;0.8069;
671.4000;0.8205;0.8191;
671.7000;0.8173;0.8167;
672.0000;0.8140;0.8094;
672.3000;0.8124;0.8069;
672.6000;0.8181;0.8240;
672.9000;0.8156;0.8142;
673.2000;0.8132;0.8191;
673.5000;0.8124;0.8118;
673.8000;0.8132;0.8069;
674.1000;0.8116;0.8021;
674.4000;0.8083;0.8045;
674.7000;0.8075;0.8118;
675.0000;0.8099;0.8191;
675.3000;0.8091;0.8069;
675.6000;0.8067;0.8118;
675.9000;0.8059;0.8167;
676.2000;0.8083;0.8312;
676.5000;0.8067;0.8264;
676.8000;0.8075;0.8385;
677.1000;0.8059;0.8288;
677.4000;0.8042;0.8215;
677.7000;0.8099;0.8240;
678.0000;0.8034;0.8142;
678.3000;0.8026;0.8118;
678.6000;0.8042;0.8215;
678.9000;0.8067;0.8361;
679.2000;0.8034;0.8288;
679.5000;0.8002;0.8215;
679.8000;0.8026;0.8264;
680.1000;0.7961;0.7996;
680.4000;0.8002;0.8021;
680.7000;0.7985;0.8021;
681.0000;0.7993;0.8069;
681.3000;0.8002;0.8142;
681.6000;0.7985;0.8021;
681.9000;0.7920;0.7924;
682.2000;0.8002;0.8142;
682.5000;0.7977;0.8045;
682.8000;0.7953;0.8021;
683.1000;0.7969;0.8069;
683.4000;0.7961;0.8045;
683.7000;0.7969;0.7972;
684.0000;0.7961;0.7972;
684.3000;0.7961;0.8045;
684.6000;0.7928;0.7972;
684.9000;0.7888;0.7899;
685.2000;0.7823;0.7826;
685.5000;0.7920;0.8069;
685.8000;0.7928;0.7972;
686.1000;0.7937;0.7996;
686.4000;0.7912;0.7996;
686.7000;0.7888;0.8045;
687.0000;0.7896;0.8142;
687.3000;0.7871;0.8191;
687.6000;0.7888;0.8191;
687.9000;0.7871;0.8191;
688.2000;0.7920;0.8385;
688.5000;0.7888;0.8410;
688.8000;0.7871;0.8385;
689.1000;0.7871;0.8361;
689.4000;0.7839;0.8264;
689.7000;0.7855;0.8385;
690.0000;0.7912;0.8507;
690.3000;0.7855;0.8385;
690.6000;0.7847;0.8288;
690.9000;0.7823;0.8167;
691.2000;0.7839;0.8215;
691.5000;0.7855;0.8191;
691.8000;0.7847;0.8191;
692.1000;0.7863;0.8337;
692.4000;0.7814;0.8312;
692.7000;0.7814;0.8215;
693.0000;0.7798;0.8191;
693.3000;0.7757;0.8069;
693.6000;0.7814;0.8264;
693.9000;0.7717;0.8069;
694.2000;0.7790;0.8288;
694.5000;0.7831;0.8434;
694.8000;0.7774;0.8385;
695.1000;0.7798;0.8580;
695.4000;0.7782;0.8483;
695.7000;0.7782;0.8507;
696.0000;0.7782;0.8434;
696.3000;0.7766;0.8361;
696.6000;0.7774;0.8288;
696.9000;0.7790;0.8288;
697.2000;0.7782;0.8167;
697.5000;0.7766;0.8167;
697.8000;0.7847;0.8483;
698.1000;0.7782;0.8312;
698.4000;0.7757;0.8312;
698.7000;0.7766;0.8361;
699.0000;0.7741;0.8410;
699.3000;0.7733;0.8385;
699.6000;0.7741;0.8264;
699.9000;0.7741;0.8240;
700.2000;0.7766;0.8264;
700.5000;0.7749;0.8215;
700.8000;0.7725;0.8288;
701.1000;0.7717;0.8288;
701.4000;0.7717;0.8361;
701.7000;0.7733;0.8410;
702.0000;0.7709;0.8361;
702.3000;0.7700;0.8240;
702.6000;0.7709;0.8191;
702.9000;0.7717;0.8094;
703.2000;0.7709;0.8094;
703.5000;0.7717;0.8118;
703.8000;0.7741;0.8142;
704.1000;0.7692;0.7996;
704.4000;0.7766;0.8167;
704.7000;0.7684;0.7924;
705.0000;0.7700;0.7996;
705.3000;0.7684;0.8069;
705.6000;0.7684;0.8094;
705.9000;0.7684;0.8021;
706.2000;0.7676;0.7996;
706.5000;0.7660;0.8021;
706.8000;0.7652;0.7996;
707.1000;0.7660;0.8045;
707.4000;0.7660;0.8021;
707.7000;0.7643;0.7924;
708.0000;0.7668;0.7924;
708.3000;0.7668;0.7996;
708.6000;0.7660;0.7948;
708.9000;0.7643;0.7996;
709.2000;0.7627;0.7996;
709.5000;0.7660;0.8094;
709.8000;0.7643;0.8118;
710.1000;0.7603;0.8069;
710.4000;0.7643;0.8142;
710.7000;0.7619;0.8094;
711.0000;0.7635;0.8191;
711.3000;0.7619;0.8094;
711.6000;0.7611;0.8167;
711.9000;0.7603;0.8240;
712.2000;0.7619;0.8215;
712.5000;0.7619;0.8215;
712.8000;0.7603;0.8094;
713.1000;0.7627;0.8142;
713.4000;0.7603;0.8094;
713.7000;0.7635;0.8240;
714.0000;0.7611;0.8167;
714.3000;0.7586;0.8240;
714.6000;0.7595;0.8312;
714.9000;0.7595;0.8264;
715.2000;0.7578;0.8215;
715.5000;0.7570;0.8288;
715.8000;0.7586;0.8385;
716.1000;0.7570;0.8361;
716.4000;0.7554;0.8240;
716.7000;0.7554;0.8118;
717.0000;0.7554;0.8167;
717.3000;0.7562;0.8191;
717.6000;0.7546;0.8069;
717.9000;0.7554;0.8118;
718.2000;0.7546;0.8191;
718.5000;0.7619;0.8337;
718.8000;0.7619;0.8288;
719.1000;0.7611;0.8264;
719.4000;0.7562;0.8167;
719.7000;0.7554;0.8142;
720.0000;0.7505;0.8069;
720.3000;0.7554;0.8118;
720.6000;0.7554;0.8069;
720.9000;0.7530;0.8094;
721.2000;0.7554;0.8069;
721.5000;0.7530;0.8045;
721.8000;0.7521;0.8069;
722.1000;0.7513;0.8142;
722.4000;0.7521;0.8167;
722.7000;0.7530;0.8240;
723.0000;0.7513;0.8215;
723.3000;0.7505;0.8264;
723.6000;0.7595;0.8434;
723.9000;0.7505;0.8264;
724.2000;0.7481;0.8312;
724.5000;0.7497;0.8288;
724.8000;0.7521;0.8312;
725.1000;0.7497;0.8288;
725.4000;0.7521;0.8288;
725.7000;0.7481;0.8094;
726.0000;0.7497;0.8094;
726.3000;0.7530;0.8118;
726.6000;0.7416;0.7924;
726.9000;0.7497;0.8215;
727.2000;0.7497;0.8215;
727.5000;0.7497;0.8191;
727.8000;0.7481;0.8191;
728.1000;0.7416;0.8069;
728.4000;0.7456;0.8240;
728.7000;0.7489;0.8288;
729.0000;0.7570;0.8385;
729.3000;0.7473;0.8215;
729.6000;0.7481;0.8118;
729.9000;0.7481;0.8045;
730.2000;0.7513;0.8118;
730.5000;0.7473;0.8094;
730.8000;0.7481;0.8142;
731.1000;0.7481;0.8215;
731.4000;0.7464;0.8215;
731.7000;0.7456;0.8191;
732.0000;0.7448;0.8288;
732.3000;0.7448;0.8240;
732.6000;0.7448;0.8142;
732.9000;0.7440;0.8167;
733.2000;0.7448;0.8191;
733.5000;0.7448;0.8167;
733.8000;0.7473;0.8215;
734.1000;0.7432;0.8215;
734.4000;0.7318;0.7972;
734.7000;0.7440;0.8288;
735.0000;0.7424;0.8288;
735.3000;0.7440;0.8385;
735.6000;0.7448;0.8410;
735.9000;0.7448;0.8434;
736.2000;0.7424;0.8410;
736.5000;0.7416;0.8385;
736.8000;0.7407;0.8458;
737.1000;0.7432;0.8556;
737.4000;0.7424;0.8507;
737.7000;0.7440;0.8483;
738.0000;0.7399;0.8385;
738.3000;0.7399;0.8434;
738.6000;0.7489;0.8677;
738.9000;0.7456;0.8604;
739.2000;0.7424;0.8556;
739.5000;0.7399;0.8531;
739.8000;0.7407;0.8531;
740.1000;0.7424;0.8604;
740.4000;0.7416;0.8410;
740.7000;0.7407;0.8385;
741.0000;0.7416;0.8312;
741.3000;0.7424;0.8361;
741.6000;0.7383;0.8312;
741.9000;0.7399;0.8361;
742.2000;0.7407;0.8312;
742.5000;0.7432;0.8434;
742.8000;0.7375;0.8312;
743.1000;0.7383;0.8385;
743.4000;0.7399;0.8434;
743.7000;0.7416;0.8410;
744.0000;0.7440;0.8458;
744.3000;0.7375;0.8337;
744.6000;0.7399;0.8385;
744.9000;0.7367;0.8361;
745.2000;0.7399;0.8410;
745.5000;0.7375;0.8410;
745.8000;0.7359;0.8337;
746.1000;0.7350;0.8312;
746.4000;0.7399;0.8458;
746.7000;0.7367;0.8361;
747.0000;0.7456;0.8580;
747.3000;0.7383;0.8361;
747.6000;0.7269;0.8045;
747.9000;0.7367;0.8385;
748.2000;0.7375;0.8385;
748.5000;0.7367;0.8361;
748.8000;0.7367;0.8385;
749.1000;0.7293;0.8191;
749.4000;0.7277;0.8167;
749.7000;0.7424;0.8531;
750.0000;0.7350;0.8361;
750.3000;0.7367;0.8288;
750.6000;0.7391;0.8410;
750.9000;0.7310;0.8215;
751.2000;0.7383;0.8458;
751.5000;0.7359;0.8458;
751.8000;0.7342;0.8385;
752.1000;0.7359;0.8337;
752.4000;0.7334;0.8337;
752.7000;0.7350;0.8240;
753.0000;0.7367;0.8312;
753.3000;0.7302;0.8191;
753.6000;0.7334;0.8361;
753.9000;0.7350;0.8410;
754.2000;0.7261;0.8142;
754.5000;0.7334;0.8312;
754.8000;0.7342;0.8361;
755.1000;0.7359;0.8385;
755.4000;0.7334;0.8410;
755.7000;0.7326;0.8337;
756.0000;0.7326;0.8288;
756.3000;0.7293;0.8215;
756.6000;0.7326;0.8337;
756.9000;0.7334;0.8385;
757.2000;0.7326;0.8483;
757.5000;0.7326;0.8483;
757.8000;0.7326;0.8483;
758.1000;0.7310;0.8483;
758.4000;0.7318;0.8434;
758.7000;0.7302;0.8361;
759.0000;0.7228;0.8240;
759.3000;0.7302;0.8531;
759.6000;0.7285;0.8580;
759.9000;0.7302;0.8653;
760.2000;0.7318;0.8628;
760.5000;0.7342;0.8604;
760.8000;0.7293;0.8483;
761.1000;0.7302;0.8483;
761.4000;0.7285;0.8385;
761.7000;0.7367;0.8483;
762.0000;0.7293;0.8288;
762.3000;0.7326;0.8337;
762.6000;0.7269;0.8142;
762.9000;0.7310;0.8288;
763.2000;0.7285;0.8240;
763.5000;0.7302;0.8288;
763.8000;0.7293;0.8288;
764.1000;0.7302;0.8337;
764.4000;0.7302;0.8361;
764.7000;0.7302;0.8458;
765.0000;0.7302;0.8556;
765.3000;0.7220;0.8288;
765.6000;0.7253;0.8312;
765.9000;0.7318;0.8458;
766.2000;0.7310;0.8458;
766.5000;0.7391;0.8677;
766.8000;0.7285;0.8385;
767.1000;0.7293;0.8288;
767.4000;0.7285;0.8312;
767.7000;0.7285;0.8385;
768.0000;0.7293;0.8361;
768.3000;0.7261;0.8264;
768.6000;0.7285;0.8288;
768.9000;0.7261;0.8167;
769.2000;0.7285;0.8215;
769.5000;0.7285;0.8264;
769.8000;0.7261;0.8264;
770.1000;0.7326;0.8434;
770.4000;0.7277;0.8264;
770.7000;0.7228;0.8215;
771.0000;0.7245;0.8312;
771.3000;0.7253;0.8385;
771.6000;0.7269;0.8410;
771.9000;0.7326;0.8580;
772.2000;0.7277;0.8458;
772.5000;0.7261;0.8410;
772.8000;0.7261;0.8434;
773.1000;0.7253;0.8483;
773.4000;0.7245;0.8434;
773.7000;0.7253;0.8434;
774.0000;0.7245;0.8434;
774.3000;0.7253;0.8434;
774.6000;0.7293;0.8531;
774.9000;0.7179;0.8215;
775.2000;0.7293;0.8361;
775.5000;0.7253;0.8215;
775.8000;0.7261;0.8240;
776.1000;0.7212;0.8167;
776.4000;0.7236;0.8361;
776.7000;0.7293;0.8556;
777.0000;0.7245;0.8483;
777.3000;0.7212;0.8385;
777.6000;0.7236;0.8434;
777.9000;0.7228;0.8483;
778.2000;0.7245;0.8507;
778.5000;0.7245;0.8507;
778.8000;0.7236;0.8458;
779.1000;0.7228;0.8458;
779.4000;0.7261;0.8507;
779.7000;0.7245;0.8580;
780.0000;0.7236;0.8507;
780.3000;0.7228;0.8361;
780.6000;0.7261;0.8385;
780.9000;0.7236;0.8337;
781.2000;0.7245;0.8434;
781.5000;0.7253;0.8458;
781.8000;0.7236;0.8434;
782.1000;0.7228;0.8361;
782.4000;0.7245;0.8410;
782.7000;0.7204;0.8337;
783.0000;0.7204;0.8385;
783.3000;0.7236;0.8337;
783.6000;0.7220;0.8288;
783.9000;0.7212;0.8240;
784.2000;0.7155;0.8142;
784.5000;0.7220;0.8361;
784.8000;0.7236;0.8483;
785.1000;0.7228;0.8531;
785.4000;0.7188;0.8483;
785.7000;0.7204;0.8531;
786.0000;0.7236;0.8531;
786.3000;0.7196;0.8483;
786.6000;0.7220;0.8385;
786.9000;0.7212;0.8385;
787.2000;0.7220;0.8385;
787.5000;0.7220;0.8483;
787.8000;0.7196;0.8531;
788.1000;0.7212;0.8580;
788.4000;0.7212;0.8628;
788.7000;0.7228;0.8556;
789.0000;0.7212;0.8507;
789.3000;0.7147;0.8434;
789.6000;0.7204;0.8483;
789.9000;0.7212;0.8507;
790.2000;0.7196;0.8483;
790.5000;0.7220;0.8531;
790.8000;0.7196;0.8604;
791.1000;0.7220;0.8701;
791.4000;0.7179;0.8580;
791.7000;0.7212;0.8628;
792.0000;0.7212;0.8653;
792.3000;0.7212;0.8628;
792.6000;0.7261;0.8799;
792.9000;0.7188;0.8628;
793.2000;0.7196;0.8556;
793.5000;0.7220;0.8628;
793.8000;0.7212;0.8556;
794.1000;0.7188;0.8507;
794.4000;0.7188;0.8507;
794.7000;0.7188;0.8410;
795.0000;0.7179;0.8361;
795.3000;0.7179;0.8337;
795.6000;0.7196;0.8337;
795.9000;0.7179;0.8410;
796.2000;0.7188;0.8410;
796.5000;0.7179;0.8410;
796.8000;0.7188;0.8385;
797.1000;0.7204;0.8507;
797.4000;0.7188;0.8580;
797.7000;0.7196;0.8507;
798.0000;0.7171;0.8434;
798.3000;0.7139;0.8385;
798.6000;0.7188;0.8531;
798.9000;0.7179;0.8458;
799.2000;0.7163;0.8458;
799.5000;0.7155;0.8410;
799.8000;0.7155;0.8410;
800.1000;0.7171;0.8410;
800.4000;0.7163;0.8385;
800.7000;0.7188;0.8385;
801.0000;0.7179;0.8264;
801.3000;0.7220;0.8385;
801.6000;0.7179;0.8264;
801.9000;0.7163;0.8264;
802.2000;0.7196;0.8458;
802.5000;0.7188;0.8458;
802.8000;0.7204;0.8434;
803.1000;0.7171;0.8483;
803.4000;0.7147;0.8507;
803.7000;0.7155;0.8580;
804.0000;0.7163;0.8531;
804.3000;0.7204;0.8556;
804.6000;0.7131;0.8337;
804.9000;0.7212;0.8580;
805.2000;0.7147;0.8385;
805.5000;0.7147;0.8240;
805.8000;0.7155;0.8337;
806.1000;0.7155;0.8264;
806.4000;0.7171;0.8385;
806.7000;0.7098;0.8288;
807.0000;0.7147;0.8458;
807.3000;0.7163;0.8385;
807.6000;0.7163;0.8337;
807.9000;0.7163;0.8385;
808.2000;0.7179;0.8410;
808.5000;0.7155;0.8361;
808.8000;0.7171;0.8337;
809.1000;0.7163;0.8337;
809.4000;0.7123;0.8288;
809.7000;0.7147;0.8385;
810.0000;0.7139;0.8410;
810.3000;0.7179;0.8531;
810.6000;0.7155;0.8483;
810.9000;0.7147;0.8410;
811.2000;0.7114;0.8288;
811.5000;0.7155;0.8410;
811.8000;0.7139;0.8385;
812.1000;0.7147;0.8337;
812.4000;0.7139;0.8337;
812.7000;0.7106;0.8337;
813.0000;0.7147;0.8531;
813.3000;0.7147;0.8556;
813.6000;0.7131;0.8434;
813.9000;0.7131;0.8410;
814.2000;0.7179;0.8410;
814.5000;0.7147;0.8312;
814.8000;0.7139;0.8264;
815.1000;0.7147;0.8240;
815.4000;0.7139;0.8240;
815.7000;0.7163;0.8264;
816.0000;0.7090;0.8045;
816.3000;0.7139;0.8118;
816.6000;0.7123;0.8288;
816.9000;0.7155;0.8337;
817.2000;0.7114;0.8240;
817.5000;0.7123;0.8288;
817.8000;0.7155;0.8410;
818.1000;0.7106;0.8385;
818.4000;0.7114;0.8434;
818.7000;0.7049;0.8167;
819.0000;0.7106;0.8288;
819.3000;0.7114;0.8337;
819.6000;0.7106;0.8288;
819.9000;0.7131;0.8385;
820.2000;0.7114;0.8483;
820.5000;0.7131;0.8531;
820.8000;0.7114;0.8507;
821.1000;0.7139;0.8507;
821.4000;0.7090;0.8337;
821.7000;0.7123;0.8410;
822.0000;0.7098;0.8337;
822.3000;0.7098;0.8337;
822.6000;0.7114;0.8434;
822.9000;0.7163;0.8556;
823.2000;0.7106;0.8361;
823.5000;0.7114;0.8385;
823.8000;0.7082;0.8385;
824.1000;0.7098;0.8361;
824.4000;0.7139;0.8483;
824.7000;0.7074;0.8288;
825.0000;0.7106;0.8410;
825.3000;0.7171;0.8531;
825.6000;0.7139;0.8507;
825.9000;0.7106;0.8410;
826.2000;0.7220;0.8580;
826.5000;0.7123;0.8264;
826.8000;0.7090;0.8167;
827.1000;0.7114;0.8215;
827.4000;0.7106;0.8288;
827.7000;0.7114;0.8385;
828.0000;0.7139;0.8483;
828.3000;0.7098;0.8434;
828.6000;0.7106;0.8458;
828.9000;0.7114;0.8507;
829.2000;0.7123;0.8507;
829.5000;0.7106;0.8483;
829.8000;0.7090;0.8604;
830.1000;0.7098;0.8701;
830.4000;0.7098;0.8628;
830.7000;0.7074;0.8507;
831.0000;0.7082;0.8556;
831.3000;0.7098;0.8580;
831.6000;0.7098;0.8604;
831.9000;0.7123;0.8653;
832.2000;0.7098;0.8604;
832.5000;0.7106;0.8628;
832.8000;0.7114;0.8604;
833.1000;0.7106;0.8604;
833.4000;0.7098;0.8628;
833.7000;0.7082;0.8531;
834.0000;0.7098;0.8531;
834.3000;0.7106;0.8580;
834.6000;0.7114;0.8531;
834.9000;0.7098;0.8483;
835.2000;0.7066;0.8434;
835.5000;0.7179;0.8750;
835.8000;0.7106;0.8604;
836.1000;0.7114;0.8580;
836.4000;0.7098;0.8483;
836.7000;0.7082;0.8410;
837.0000;0.7090;0.8361;
837.3000;0.7123;0.8361;
837.6000;0.7114;0.8312;
837.9000;0.7139;0.8288;
838.2000;0.7074;0.8264;
838.5000;0.7131;0.8361;
838.8000;0.7098;0.8385;
839.1000;0.7066;0.8240;
839.4000;0.7098;0.8337;
839.7000;0.7114;0.8361;
840.0000;0.7090;0.8361;
840.3000;0.7082;0.8385;
840.6000;0.7082;0.8434;
840.9000;0.7106;0.8434;
841.2000;0.7098;0.8458;
841.5000;0.7098;0.8434;
841.8000;0.7082;0.8361;
842.1000;0.7082;0.8312;
842.4000;0.7090;0.8215;
842.7000;0.7066;0.8118;
843.0000;0.7074;0.8167;
843.3000;0.7082;0.8191;
843.6000;0.7041;0.8215;
843.9000;0.7106;0.8337;
844.2000;0.7066;0.8264;
844.5000;0.7098;0.8215;
844.8000;0.7074;0.8142;
845.1000;0.7074;0.8264;
845.4000;0.7057;0.8288;
845.7000;0.7074;0.8385;
846.0000;0.7025;0.8337;
846.3000;0.6992;0.8312;
846.6000;0.7066;0.8604;
846.9000;0.7139;0.8823;
847.2000;0.7049;0.8677;
847.5000;0.7082;0.8580;
847.8000;0.7074;0.8556;
848.1000;0.7082;0.8556;
848.4000;0.7082;0.8483;
848.7000;0.7139;0.8653;
849.0000;0.7074;0.8458;
849.3000;0.7066;0.8458;
849.6000;0.7090;0.8531;
849.9000;0.7057;0.8483;
850.2000;0.7082;0.8507;
850.5000;0.7066;0.8507;
850.8000;0.7082;0.8580;
851.1000;0.7074;0.8628;
851.4000;0.7082;0.8556;
851.7000;0.7057;0.8580;
852.0000;0.7066;0.8604;
852.3000;0.7017;0.8458;
852.6000;0.7082;0.8604;
852.9000;0.7074;0.8556;
853.2000;0.7098;0.8628;
853.5000;0.7082;0.8580;
853.8000;0.7098;0.8580;
854.1000;0.7074;0.8531;
854.4000;0.7082;0.8458;
854.7000;0.7074;0.8458;
855.0000;0.7066;0.8580;
855.3000;0.7057;0.8556;
855.6000;0.7057;0.8580;
855.9000;0.7057;0.8604;
856.2000;0.7074;0.8580;
856.5000;0.7066;0.8458;
856.8000;0.7041;0.8434;
857.1000;0.7066;0.8385;
857.4000;0.7066;0.8410;
857.7000;0.7066;0.8410;
858.0000;0.7049;0.8385;
858.3000;0.7057;0.8385;
858.6000;0.7041;0.8337;
858.9000;0.7074;0.8458;
859.2000;0.7049;0.8483;
859.5000;0.7057;0.8531;
859.8000;0.7066;0.8556;
860.1000;0.7074;0.8580;
860.4000;0.6984;0.8361;
860.7000;0.6984;0.8434;
861.0000;0.7033;0.8580;
861.3000;0.7057;0.8580;
861.6000;0.7057;0.8580;
861.9000;0.7025;0.8556;
862.2000;0.7033;0.8531;
862.5000;0.7082;0.8677;
862.8000;0.7041;0.8531;
863.1000;0.7049;0.8507;
863.4000;0.7057;0.8483;
863.7000;0.7057;0.8434;
864.0000;0.7041;0.8288;
864.3000;0.7049;0.8264;
864.6000;0.7049;0.8288;
864.9000;0.7041;0.8361;
865.2000;0.7057;0.8507;
865.5000;0.7049;0.8410;
865.8000;0.7025;0.8288;
866.1000;0.7049;0.8458;
866.4000;0.7009;0.8337;
866.7000;0.7074;0.8483;
867.0000;0.7033;0.8434;
867.3000;0.7033;0.8337;
867.6000;0.7049;0.8361;
867.9000;0.7033;0.8288;
868.2000;0.7041;0.8410;
868.5000;0.7041;0.8507;
868.8000;0.7057;0.8531;
869.1000;0.7041;0.8531;
869.4000;0.7033;0.8580;
869.7000;0.7033;0.8507;
870.0000;0.7033;0.8483;
870.3000;0.6992;0.8483;
870.6000;0.7033;0.8628;
870.9000;0.7074;0.8750;
871.2000;0.7000;0.8556;
871.5000;0.7041;0.8604;
871.8000;0.7033;0.8531;
872.1000;0.7017;0.8483;
872.4000;0.7017;0.8458;
872.7000;0.7049;0.8531;
873.0000;0.7057;0.8580;
873.3000;0.7017;0.8604;
873.6000;0.7041;0.8677;
873.9000;0.7033;0.8750;
874.2000;0.7009;0.8677;
874.5000;0.7057;0.8628;
874.8000;0.7041;0.8556;
875.1000;0.7074;0.8701;
875.4000;0.7033;0.8726;
875.7000;0.7033;0.8774;
876.0000;0.7041;0.8750;
876.3000;0.6984;0.8556;
876.6000;0.7041;0.8701;
876.9000;0.7025;0.8726;
877.2000;0.7033;0.8726;
877.5000;0.7025;0.8726;
877.8000;0.7049;0.8799;
878.1000;0.7049;0.8847;
878.4000;0.7049;0.8799;
878.7000;0.7041;0.8799;
879.0000;0.7009;0.8750;
879.3000;0.7000;0.8580;
879.6000;0.6968;0.8507;
879.9000;0.7025;0.8701;
880.2000;0.7025;0.8701;
880.5000;0.7009;0.8677;
880.8000;0.6895;0.8434;
881.1000;0.6992;0.8701;
881.4000;0.7041;0.8628;
881.7000;0.7025;0.8556;
882.0000;0.7033;0.8653;
882.3000;0.7017;0.8604;
882.6000;0.7017;0.8580;
882.9000;0.7033;0.8580;
883.2000;0.7041;0.8653;
883.5000;0.7017;0.8628;
883.8000;0.7025;0.8556;
884.1000;0.7017;0.8507;
884.4000;0.7000;0.8483;
884.7000;0.6984;0.8458;
885.0000;0.7017;0.8556;
885.3000;0.7025;0.8604;
885.6000;0.7017;0.8580;
885.9000;0.7082;0.8653;
886.2000;0.7025;0.8628;
886.5000;0.7041;0.8774;
886.8000;0.6984;0.8628;
887.1000;0.7025;0.8750;
887.4000;0.7009;0.8677;
887.7000;0.7025;0.8726;
888.0000;0.7009;0.8653;
888.3000;0.7033;0.8677;
888.6000;0.7000;0.8653;
888.9000;0.7017;0.8604;
889.2000;0.7049;0.8604;
889.5000;0.7017;0.8604;
889.8000;0.6992;0.8580;
890.1000;0.7009;0.8677;
890.4000;0.7000;0.8653;
890.7000;0.7009;0.8677;
891.0000;0.7000;0.8677;
891.3000;0.7025;0.8677;
891.6000;0.7009;0.8556;
891.9000;0.7000;0.8458;
892.2000;0.7017;0.8507;
892.5000;0.7000;0.8483;
892.8000;0.7009;0.8507;
893.1000;0.7025;0.8483;
893.4000;0.6992;0.8483;
893.7000;0.7009;0.8628;
894.0000;0.7009;0.8628;
894.3000;0.7049;0.8726;
894.6000;0.7009;0.8653;
894.9000;0.6992;0.8628;
895.2000;0.7033;0.8774;
895.5000;0.6976;0.8701;
895.8000;0.7017;0.8726;
896.1000;0.6992;0.8653;
896.4000;0.7017;0.8726;
896.7000;0.6976;0.8677;
897.0000;0.7000;0.8701;
897.3000;0.7009;0.8701;
897.6000;0.6992;0.8628;
897.9000;0.7033;0.8750;
898.2000;0.7017;0.8701;
898.5000;0.7033;0.8677;
898.8000;0.6992;0.8653;
899.1000;0.7000;0.8726;
899.4000;0.7041;0.8871;
899.7000;0.6992;0.8774;
900.0000;0.6968;0.8750;
900.3000;0.7009;0.8750;
900.6000;0.6976;0.8628;
900.9000;0.7041;0.8823;
901.2000;0.6984;0.8701;
901.5000;0.7009;0.8750;
901.8000;0.6984;0.8701;
902.1000;0.6968;0.8507;
902.4000;0.6952;0.8458;
902.7000;0.7009;0.8531;
903.0000;0.7009;0.8434;
903.3000;0.7009;0.8385;
903.6000;0.6992;0.8410;
903.9000;0.7033;0.8580;
904.2000;0.6992;0.8556;
904.5000;0.7009;0.8604;
904.8000;0.7009;0.8628;
905.1000;0.6992;0.8580;
905.4000;0.6911;0.8385;
905.7000;0.6984;0.8556;
906.0000;0.6984;0.8556;
906.3000;0.6992;0.8604;
906.6000;0.7000;0.8556;
906.9000;0.7025;0.8628;
907.2000;0.6992;0.8628;
907.5000;0.6992;0.8628;
907.8000;0.7000;0.8628;
908.1000;0.7000;0.8580;
908.4000;0.7017;0.8556;
908.7000;0.7049;0.8628;
909.0000;0.6984;0.8483;
909.3000;0.7009;0.8531;
909.6000;0.6992;0.8531;
909.9000;0.6984;0.8410;
910.2000;0.6984;0.8434;
910.5000;0.6984;0.8458;
910.8000;0.7033;0.8604;
911.1000;0.6984;0.8483;
911.4000;0.7009;0.8507;
911.7000;0.6976;0.8288;
912.0000;0.6976;0.8385;
912.3000;0.6992;0.8458;
912.6000;0.6984;0.8531;
912.9000;0.6992;0.8507;
913.2000;0.6968;0.8458;
913.5000;0.7000;0.8531;
913.8000;0.6984;0.8434;
914.1000;0.6968;0.8385;
914.4000;0.6976;0.8434;
914.7000;0.6952;0.8337;
915.0000;0.6984;0.8507;
915.3000;0.7017;0.8628;
915.6000;0.6984;0.8434;
915.9000;0.6984;0.8483;
916.2000;0.6968;0.8410;
916.5000;0.6960;0.8458;
916.8000;0.6976;0.8458;
917.1000;0.6992;0.8507;
917.4000;0.6984;0.8434;
917.7000;0.6992;0.8434;
918.0000;0.6992;0.8458;
918.3000;0.6984;0.8410;
918.6000;0.6976;0.8410;
918.9000;0.7009;0.8556;
919.2000;0.6984;0.8531;
919.5000;0.7000;0.8507;
919.8000;0.6992;0.8483;
920.1000;0.7000;0.8458;
920.4000;0.7009;0.8531;
920.7000;0.6968;0.8385;
921.0000;0.6984;0.8458;
921.3000;0.7033;0.8531;
921.6000;0.6984;0.8361;
921.9000;0.6968;0.8288;
922.2000;0.6984;0.8385;
922.5000;0.6952;0.8434;
922.8000;0.6968;0.8483;
923.1000;0.6976;0.8507;
923.4000;0.6976;0.8531;
923.7000;0.6992;0.8628;
924.0000;0.6952;0.8556;
924.3000;0.6960;0.8653;
924.6000;0.6960;0.8677;
924.9000;0.6968;0.8507;
925.2000;0.6984;0.8556;
925.5000;0.6968;0.8580;
925.8000;0.6960;0.8580;
926.1000;0.6943;0.8556;
926.4000;0.6968;0.8483;
926.7000;0.6960;0.8434;
927.0000;0.6968;0.8410;
927.3000;0.6968;0.8410;
927.6000;0.6935;0.8361;
927.9000;0.6960;0.8507;
928.2000;0.6960;0.8531;
928.5000;0.6960;0.8531;
928.8000;0.6968;0.8531;
929.1000;0.6968;0.8458;
929.4000;0.6943;0.8410;
929.7000;0.6952;0.8458;
930.0000;0.6952;0.8458;
930.3000;0.6960;0.8458;
930.6000;0.6952;0.8410;
930.9000;0.6968;0.8458;
931.2000;0.6968;0.8410;
931.5000;0.6960;0.8385;
931.8000;0.6960;0.8483;
932.1000;0.6943;0.8434;
932.4000;0.6943;0.8385;
932.7000;0.6952;0.8288;
933.0000;0.6984;0.8410;
933.3000;0.6960;0.8385;
933.6000;0.6968;0.8410;
933.9000;0.6976;0.8458;
934.2000;0.6984;0.8483;
934.5000;0.6960;0.8580;
934.8000;0.6960;0.8604;
935.1000;0.6968;0.8604;
935.4000;0.6984;0.8677;
935.7000;0.7000;0.8799;
936.0000;0.6960;0.8799;
936.3000;0.6960;0.8774;
936.6000;0.6960;0.8701;
936.9000;0.6943;0.8653;
937.2000;0.7033;0.8823;
937.5000;0.6960;0.8701;
937.8000;0.6992;0.8774;
938.1000;0.6960;0.8726;
938.4000;0.6960;0.8701;
938.7000;0.6960;0.8847;
939.0000;0.6960;0.8871;
939.3000;0.7000;0.8871;
939.6000;0.6976;0.8847;
939.9000;0.6943;0.8750;
940.2000;0.6903;0.8653;
940.5000;0.6960;0.8750;
940.8000;0.6895;0.8580;
941.1000;0.6846;0.8434;
941.4000;0.6952;0.8628;
941.7000;0.6943;0.8604;
942.0000;0.6943;0.8580;
942.3000;0.6952;0.8677;
942.6000;0.6960;0.8628;
942.9000;0.6976;0.8604;
943.2000;0.7000;0.8653;
943.5000;0.6919;0.8434;
943.8000;0.6984;0.8556;
944.1000;0.6935;0.8507;
944.4000;0.6935;0.8507;
944.7000;0.6968;0.8628;
945.0000;0.6960;0.8653;
945.3000;0.7041;0.8871;
945.6000;0.6943;0.8580;
945.9000;0.6968;0.8653;
946.2000;0.6976;0.8823;
946.5000;0.6952;0.8871;
946.8000;0.6984;0.8944;
947.1000;0.6943;0.8920;
947.4000;0.6952;0.8969;
947.7000;0.6968;0.8799;
948.0000;0.6968;0.8726;
948.3000;0.6943;0.8580;
948.6000;0.6968;0.8580;
948.9000;0.6943;0.8507;
949.2000;0.6952;0.8531;
949.5000;0.6960;0.8531;
949.8000;0.6960;0.8628;
950.1000;0.6935;0.8604;
950.4000;0.6960;0.8726;
950.7000;0.6968;0.8750;
951.0000;0.6960;0.8774;
951.3000;0.6943;0.8750;
951.6000;0.6943;0.8653;
951.9000;0.6952;0.8604;
952.2000;0.6927;0.8531;
952.5000;0.6960;0.8604;
952.8000;0.6960;0.8677;
953.1000;0.6927;0.8580;
953.4000;0.6878;0.8483;
953.7000;0.6911;0.8677;
954.0000;0.6927;0.8774;
954.3000;0.6952;0.8847;
954.6000;0.6943;0.8799;
954.9000;0.6943;0.8823;
955.2000;0.6952;0.8774;
955.5000;0.6935;0.8774;
955.8000;0.6943;0.8677;
956.1000;0.6943;0.8604;
956.4000;0.6943;0.8628;
956.7000;0.6927;0.8531;
957.0000;0.6952;0.8580;
957.3000;0.6952;0.8556;
957.6000;0.6886;0.8337;
957.9000;0.6968;0.8604;
958.2000;0.6960;0.8604;
958.5000;0.6935;0.8580;
958.8000;0.6903;0.8483;
959.1000;0.6943;0.8580;
959.4000;0.6952;0.8653;
959.7000;0.6895;0.8507;
960.0000;0.6943;0.8628;
960.3000;0.6943;0.8580;
960.6000;0.6943;0.8556;
960.9000;0.6919;0.8483;
961.2000;0.6968;0.8556;
961.5000;0.6895;0.8458;
961.8000;0.6919;0.8556;
962.1000;0.7033;0.8871;
962.4000;0.6927;0.8507;
962.7000;0.6903;0.8434;
963.0000;0.6911;0.8483;
963.3000;0.6943;0.8580;
963.6000;0.6943;0.8604;
963.9000;0.6935;0.8507;
964.2000;0.6943;0.8410;
964.5000;0.6927;0.8312;
964.8000;0.6862;0.8167;
965.1000;0.6927;0.8312;
965.4000;0.6927;0.8312;
965.7000;0.6919;0.8361;
966.0000;0.6927;0.8312;
966.3000;0.6935;0.8312;
966.6000;0.6927;0.8337;
966.9000;0.6935;0.8434;
967.2000;0.6935;0.8507;
967.5000;0.6927;0.8458;
967.8000;0.6919;0.8483;
968.1000;0.6943;0.8458;
968.4000;0.6919;0.8507;
968.7000;0.6895;0.8556;
969.0000;0.6919;0.8653;
969.3000;0.6927;0.8604;
969.6000;0.6960;0.8726;
969.9000;0.6935;0.8628;
970.2000;0.6927;0.8604;
970.5000;0.6919;0.8556;
970.8000;0.6911;0.8556;
971.1000;0.6911;0.8556;
971.4000;0.6911;0.8556;
971.7000;0.6935;0.8604;
972.0000;0.6903;0.8580;
972.3000;0.6935;0.8653;
972.6000;0.6911;0.8580;
972.9000;0.6935;0.8580;
973.2000;0.6960;0.8580;
973.5000;0.6903;0.8458;
973.8000;0.6943;0.8628;
974.1000;0.6919;0.8604;
974.4000;0.6878;0.8531;
974.7000;0.6952;0.8750;
975.0000;0.6935;0.8750;
975.3000;0.6935;0.8701;
975.6000;0.6911;0.8604;
975.9000;0.6943;0.8580;
976.2000;0.6935;0.8507;
976.5000;0.6984;0.8628;
976.8000;0.6911;0.8410;
977.1000;0.6911;0.8458;
977.4000;0.6927;0.8410;
977.7000;0.6911;0.8337;
978.0000;0.6911;0.8240;
978.3000;0.6911;0.8312;
978.6000;0.6919;0.8215;
978.9000;0.6927;0.8337;
979.2000;0.6960;0.8434;
979.5000;0.6919;0.8385;
979.8000;0.6943;0.8483;
980.1000;0.6935;0.8556;
980.4000;0.6903;0.8483;
980.7000;0.6886;0.8410;
981.0000;0.6935;0.8556;
981.3000;0.6919;0.8531;
981.6000;0.6919;0.8507;
981.9000;0.6919;0.8556;
982.2000;0.6911;0.8580;
982.5000;0.6927;0.8556;
982.8000;0.6911;0.8580;
983.1000;0.6927;0.8604;
983.4000;0.6935;0.8604;
983.7000;0.6911;0.8556;
984.0000;0.6919;0.8580;
984.3000;0.6919;0.8580;
984.6000;0.6927;0.8628;
984.9000;0.6911;0.8531;
985.2000;0.6960;0.8604;
985.5000;0.6960;0.8701;
985.8000;0.6911;0.8677;
986.1000;0.6952;0.8701;
986.4000;0.6927;0.8701;
986.7000;0.6919;0.8653;
987.0000;0.6943;0.8701;
987.3000;0.6927;0.8677;
987.6000;0.6927;0.8750;
987.9000;0.6927;0.8701;
988.2000;0.6943;0.8677;
988.5000;0.6943;0.8604;
988.8000;0.6984;0.8653;
989.1000;0.6927;0.8580;
989.4000;0.6968;0.8677;
989.7000;0.6968;0.8604;
990.0000;0.7000;0.8726;
990.3000;0.6911;0.8458;
990.6000;0.6927;0.8556;
990.9000;0.6870;0.8337;
991.2000;0.6911;0.8458;
991.5000;0.6927;0.8531;
991.8000;0.6895;0.8434;
992.1000;0.6886;0.8410;
992.4000;0.6903;0.8410;
992.7000;0.6935;0.8385;
993.0000;0.6919;0.8385;
993.3000;0.6903;0.8410;
993.6000;0.6886;0.8385;
993.9000;0.6895;0.8434;
994.2000;0.6895;0.8483;
994.5000;0.6895;0.8556;
994.8000;0.6895;0.8556;
995.1000;0.6911;0.8531;
995.4000;0.6919;0.8483;
995.7000;0.6903;0.8458;
996.0000;0.6911;0.8531;
996.3000;0.6911;0.8531;
996.6000;0.6919;0.8628;
996.9000;0.6886;0.8531;
997.2000;0.6870;0.8434;
997.5000;0.6862;0.8337;
997.8000;0.6911;0.8434;
998.1000;0.6886;0.8410;
998.4000;0.6878;0.8312;
998.7000;0.6886;0.8434;
999.0000;0.6903;0.8628;
999.3000;0.6911;0.8604;
999.6000;0.6903;0.8483;
999.9000;0.6919;0.8556;
1000.2000;0.6927;0.8580;
1000.5000;0.6943;0.8604;
1000.8000;0.6903;0.8434;
1001.1000;0.6927;0.8580;
1001.4000;0.6895;0.8580;
1001.7000;0.6911;0.8556;
1002.0000;0.6895;0.8580;
1002.3000;0.6878;0.8531;
1002.6000;0.6886;0.8458;
1002.9000;0.6927;0.8556;
1003.2000;0.6903;0.8531;
1003.5000;0.6886;0.8385;
1003.8000;0.6935;0.8507;
1004.1000;0.6903;0.8385;
1004.4000;0.6878;0.8264;
1004.7000;0.6862;0.8191;
1005.0000;0.6911;0.8385;
1005.3000;0.6927;0.8458;
1005.6000;0.6903;0.8385;
1005.9000;0.6911;0.8385;
1006.2000;0.6903;0.8337;
1006.5000;0.6919;0.8458;
1006.8000;0.6927;0.8312;
1007.1000;0.6903;0.8142;
1007.4000;0.6903;0.8240;
1007.7000;0.6895;0.8312;
1008.0000;0.6854;0.8288;
1008.3000;0.6878;0.8507;
1008.6000;0.6870;0.8507;
1008.9000;0.6854;0.8507;
1009.2000;0.6895;0.8628;
1009.5000;0.6919;0.8726;
1009.8000;0.6895;0.8580;
1010.1000;0.6927;0.8507;
1010.4000;0.6968;0.8677;
1010.7000;0.6878;0.8458;
1011.0000;0.6895;0.8483;
1011.3000;0.6821;0.8312;
1011.6000;0.6903;0.8507;
1011.9000;0.6911;0.8604;
1012.2000;0.6903;0.8604;
1012.5000;0.6862;0.8580;
1012.8000;0.6895;0.8701;
1013.1000;0.6878;0.8604;
1013.4000;0.6870;0.8531;
1013.7000;0.6895;0.8556;
1014.0000;0.6895;0.8604;
1014.3000;0.6960;0.8774;
1014.6000;0.6895;0.8677;
1014.9000;0.6903;0.8701;
1015.2000;0.6821;0.8434;
1015.5000;0.6911;0.8628;
1015.8000;0.6919;0.8604;
1016.1000;0.6903;0.8580;
1016.4000;0.6895;0.8628;
1016.7000;0.6919;0.8653;
1017.0000;0.6903;0.8604;
1017.3000;0.6911;0.8604;
1017.6000;0.6895;0.8628;
1017.9000;0.6878;0.8628;
1018.2000;0.6895;0.8653;
1018.5000;0.6903;0.8580;
1018.8000;0.6870;0.8531;
1019.1000;0.6870;0.8507;
1019.4000;0.6895;0.8604;
1019.7000;0.6960;0.8750;
1020.0000;0.6919;0.8580;
1020.3000;0.6903;0.8531;
1020.6000;0.6911;0.8531;
1020.9000;0.6911;0.8556;
1021.2000;0.6911;0.8604;
1021.5000;0.6911;0.8556;
1021.8000;0.6911;0.8580;
1022.1000;0.6895;0.8604;
1022.4000;0.6878;0.8507;
1022.7000;0.6878;0.8507;
1023.0000;0.6870;0.8556;
1023.3000;0.6886;0.8556;
1023.6000;0.6886;0.8556;
1023.9000;0.6878;0.8604;
1024.2000;0.6911;0.8701;
1024.5000;0.6903;0.8580;
1024.8000;0.6903;0.8580;
1025.1000;0.6903;0.8604;
1025.4000;0.6878;0.8604;
1025.7000;0.6886;0.8628;
1026.0000;0.6886;0.8604;
1026.3000;0.6895;0.8604;
1026.6000;0.6878;0.8604;
1026.9000;0.6886;0.8628;
1027.2000;0.6870;0.8604;
1027.5000;0.6895;0.8628;
1027.8000;0.6878;0.8628;
1028.1000;0.6878;0.8677;
1028.4000;0.6895;0.8701;
1028.7000;0.6862;0.8556;
1029.0000;0.6870;0.8604;
1029.3000;0.6886;0.8580;
1029.6000;0.6886;0.8531;
1029.9000;0.6878;0.8556;
1030.2000;0.6862;0.8507;
1030.5000;0.6886;0.8556;
1030.8000;0.6895;0.8580;
1031.1000;0.6886;0.8531;
1031.4000;0.6862;0.8483;
1031.7000;0.6895;0.8458;
1032.0000;0.6886;0.8458;
1032.3000;0.6878;0.8434;
1032.6000;0.6862;0.8361;
1032.9000;0.6878;0.8410;
1033.2000;0.6911;0.8531;
1033.5000;0.6895;0.8604;
1033.8000;0.6870;0.8580;
1034.1000;0.6781;0.8410;
1034.4000;0.6903;0.8750;
1034.7000;0.6862;0.8628;
1035.0000;0.6862;0.8580;
1035.3000;0.6895;0.8628;
1035.6000;0.6919;0.8604;
1035.9000;0.6878;0.8458;
1036.2000;0.6927;0.8531;
1036.5000;0.6870;0.8410;
1036.8000;0.6886;0.8458;
1037.1000;0.6895;0.8507;
1037.4000;0.6919;0.8556;
1037.7000;0.6927;0.8556;
1038.0000;0.6903;0.8507;
1038.3000;0.6838;0.8410;
1038.6000;0.6919;0.8483;
1038.9000;0.6870;0.8361;
1039.2000;0.6870;0.8434;
1039.5000;0.6886;0.8483;
1039.8000;0.6886;0.8531;
1040.1000;0.6862;0.8580;
1040.4000;0.6878;0.8556;
1040.7000;0.6870;0.8556;
1041.0000;0.6895;0.8653;
1041.3000;0.6895;0.8628;
1041.6000;0.6886;0.8556;
1041.9000;0.6895;0.8434;
1042.2000;0.6870;0.8483;
1042.5000;0.6878;0.8604;
1042.8000;0.6862;0.8604;
1043.1000;0.6870;0.8628;
1043.4000;0.6878;0.8580;
1043.7000;0.6984;0.8847;
1044.0000;0.6878;0.8604;
1044.3000;0.6895;0.8628;
1044.6000;0.6878;0.8556;
1044.9000;0.6886;0.8604;
1045.2000;0.6903;0.8531;
1045.5000;0.6895;0.8458;
1045.8000;0.6911;0.8483;
1046.1000;0.6903;0.8507;
1046.4000;0.6895;0.8531;
1046.7000;0.6854;0.8410;
1047.0000;0.6838;0.8264;
1047.3000;0.6886;0.8458;
1047.6000;0.6903;0.8483;
1047.9000;0.6903;0.8507;
1048.2000;0.6903;0.8507;
1048.5000;0.6878;0.8507;
1048.8000;0.6919;0.8580;
1049.1000;0.6854;0.8507;
1049.4000;0.6886;0.8458;
1049.7000;0.6886;0.8385;
1050.0000;0.6772;0.8094;
1050.3000;0.6870;0.8264;
1050.6000;0.6903;0.8240;
1050.9000;0.6886;0.8337;
1051.2000;0.6854;0.8337;
1051.5000;0.6870;0.8410;
1051.8000;0.6886;0.8337;
1052.1000;0.6903;0.8361;
1052.4000;0.6862;0.8240;
1052.7000;0.6862;0.8167;
1053.0000;0.6895;0.8240;
1053.3000;0.6903;0.8312;
1053.6000;0.6870;0.8288;
1053.9000;0.6870;0.8264;
1054.2000;0.6870;0.8240;
1054.5000;0.6878;0.8167;
1054.8000;0.6903;0.8215;
1055.1000;0.6878;0.8264;
1055.4000;0.6838;0.8215;
1055.7000;0.6862;0.8312;
1056.0000;0.6870;0.8385;
1056.3000;0.6870;0.8337;
1056.6000;0.6878;0.8434;
1056.9000;0.6886;0.8458;
1057.2000;0.6797;0.8118;
1057.5000;0.6854;0.8312;
1057.8000;0.6878;0.8410;
1058.1000;0.6878;0.8434;
1058.4000;0.6838;0.8434;
1058.7000;0.6878;0.8531;
1059.0000;0.6878;0.8604;
1059.3000;0.6903;0.8628;
1059.6000;0.6813;0.8312;
1059.9000;0.6878;0.8483;
1060.2000;0.6878;0.8385;
1060.5000;0.6870;0.8434;
1060.8000;0.6878;0.8385;
1061.1000;0.6862;0.8337;
1061.4000;0.6943;0.8434;
1061.7000;0.6870;0.8385;
1062.0000;0.6943;0.8556;
1062.3000;0.6886;0.8458;
1062.6000;0.6903;0.8531;
1062.9000;0.6878;0.8458;
1063.2000;0.6870;0.8410;
1063.5000;0.6870;0.8361;
1063.8000;0.6886;0.8410;
1064.1000;0.6870;0.8385;
1064.4000;0.6968;0.8604;
1064.7000;0.6895;0.8458;
1065.0000;0.6870;0.8458;
1065.3000;0.6862;0.8434;
1065.6000;0.6870;0.8483;
1065.9000;0.6862;0.8385;
1066.2000;0.6854;0.8361;
1066.5000;0.6960;0.8580;
1066.8000;0.6903;0.8556;
1067.1000;0.6838;0.8410;
1067.4000;0.6813;0.8312;
1067.7000;0.6878;0.8507;
1068.0000;0.6870;0.8483;
1068.3000;0.6854;0.8458;
1068.6000;0.6862;0.8458;
1068.9000;0.6846;0.8434;
1069.2000;0.6878;0.8483;
1069.5000;0.6781;0.8312;
1069.8000;0.6813;0.8361;
1070.1000;0.6846;0.8337;
1070.4000;0.6862;0.8312;
1070.7000;0.6862;0.8312;
1071.0000;0.6895;0.8337;
1071.3000;0.6870;0.8240;
1071.6000;0.6862;0.8264;
1071.9000;0.6878;0.8240;
1072.2000;0.6862;0.8288;
1072.5000;0.6854;0.8215;
1072.8000;0.6862;0.8240;
1073.1000;0.6862;0.8264;
1073.4000;0.6862;0.8240;
1073.7000;0.6911;0.8410;
1074.0000;0.6862;0.8385;
1074.3000;0.6886;0.8483;
1074.6000;0.6878;0.8434;
1074.9000;0.6862;0.8410;
1075.2000;0.6886;0.8458;
1075.5000;0.6870;0.8458;
1075.8000;0.6854;0.8483;
1076.1000;0.6878;0.8483;
1076.4000;0.6878;0.8434;
1076.7000;0.6854;0.8483;
1077.0000;0.6878;0.8531;
1077.3000;0.6862;0.8556;
1077.6000;0.6838;0.8483;
1077.9000;0.6829;0.8507;
1078.2000;0.6854;0.8531;
1078.5000;0.6846;0.8531;
1078.8000;0.6870;0.8531;
1079.1000;0.6878;0.8531;
1079.4000;0.6846;0.8458;
1079.7000;0.6870;0.8531;
1080.0000;0.6846;0.8507;
1080.3000;0.6854;0.8556;
1080.6000;0.6854;0.8580;
1080.9000;0.6878;0.8604;
1081.2000;0.6813;0.8483;
1081.5000;0.6838;0.8458;
1081.8000;0.6886;0.8580;
1082.1000;0.6854;0.8507;
1082.4000;0.6862;0.8604;
1082.7000;0.6895;0.8628;
1083.0000;0.6862;0.8531;
1083.3000;0.6862;0.8556;
1083.6000;0.6870;0.8458;
1083.9000;0.6895;0.8458;
1084.2000;0.6862;0.8361;
1084.5000;0.6854;0.8434;
1084.8000;0.6854;0.8385;
1085.1000;0.6862;0.8434;
1085.4000;0.6895;0.8507;
1085.7000;0.6854;0.8410;
1086.0000;0.6846;0.8385;
1086.3000;0.6862;0.8434;
1086.6000;0.6895;0.8458;
1086.9000;0.6846;0.8312;
1087.2000;0.6870;0.8361;
1087.5000;0.6862;0.8312;
1087.8000;0.6862;0.8410;
1088.1000;0.6895;0.8556;
1088.4000;0.6878;0.8556;
1088.7000;0.6878;0.8604;
1089.0000;0.6846;0.8483;
1089.3000;0.6821;0.8410;
1089.6000;0.6919;0.8653;
1089.9000;0.6854;0.8580;
1090.2000;0.6854;0.8556;
1090.5000;0.6838;0.8458;
1090.8000;0.6862;0.8507;
1091.1000;0.6943;0.8726;
1091.4000;0.6886;0.8628;
1091.7000;0.6838;0.8531;
1092.0000;0.6854;0.8556;
1092.3000;0.6854;0.8653;
1092.6000;0.6846;0.8556;
1092.9000;0.6846;0.8580;
1093.2000;0.6870;0.8604;
1093.5000;0.6878;0.8580;
1093.8000;0.6838;0.8458;
1094.1000;0.6813;0.8361;
1094.4000;0.6821;0.8361;
1094.7000;0.6862;0.8434;
1095.0000;0.6846;0.8434;
1095.3000;0.6854;0.8434;
1095.6000;0.6854;0.8556;
1095.9000;0.6854;0.8628;
1096.2000;0.6838;0.8653;
1096.5000;0.6838;0.8653;
1096.8000;0.6821;0.8531;
1097.1000;0.6846;0.8556;
1097.4000;0.6862;0.8604;
1097.7000;0.6878;0.8531;
1098.0000;0.6854;0.8580;
1098.3000;0.6862;0.8628;
1098.6000;0.6854;0.8580;
1098.9000;0.6854;0.8604;
1099.2000;0.6862;0.8556;
1099.5000;0.6846;0.8507;
1099.8000;0.6911;0.8677;
1100.1000;0.6862;0.8580;
1100.4000;0.6838;0.8580;
1100.7000;0.6895;0.8750;
1101.0000;0.6854;0.8653;
1101.3000;0.6862;0.8677;
1101.6000;0.6821;0.8556;
1101.9000;0.6846;0.8604;
1102.2000;0.6829;0.8580;
1102.5000;0.6829;0.8531;
1102.8000;0.6854;0.8580;
1103.1000;0.6870;0.8556;
1103.4000;0.6854;0.8458;
1103.7000;0.6854;0.8507;
1104.0000;0.6821;0.8483;
1104.3000;0.6821;0.8410;
1104.6000;0.6862;0.8507;
1104.9000;0.6854;0.8531;
1105.2000;0.6862;0.8556;
1105.5000;0.6862;0.8556;
1105.8000;0.6846;0.8458;
1106.1000;0.6838;0.8434;
1106.4000;0.6846;0.8531;
1106.7000;0.6838;0.8507;
1107.0000;0.6838;0.8483;
1107.3000;0.6862;0.8580;
1107.6000;0.6886;0.8556;
1107.9000;0.6854;0.8531;
1108.2000;0.6886;0.8628;
1108.5000;0.6862;0.8556;
1108.8000;0.6870;0.8507;
1109.1000;0.6878;0.8531;
1109.4000;0.6919;0.8604;
1109.7000;0.6862;0.8410;
1110.0000;0.6862;0.8385;
1110.3000;0.6870;0.8385;
1110.6000;0.6846;0.8337;
1110.9000;0.6838;0.8385;
1111.2000;0.6854;0.8434;
1111.5000;0.6870;0.8507;
1111.8000;0.6838;0.8458;
1112.1000;0.6838;0.8385;
1112.4000;0.6862;0.8483;
1112.7000;0.6846;0.8483;
1113.0000;0.6813;0.8410;
1113.3000;0.6862;0.8531;
1113.6000;0.6903;0.8677;
1113.9000;0.6854;0.8580;
1114.2000;0.6846;0.8556;
1114.5000;0.6854;0.8580;
1114.8000;0.6821;0.8507;
1115.1000;0.6862;0.8580;
1115.4000;0.6772;0.8337;
1115.7000;0.6789;0.8361;
1116.0000;0.6854;0.8483;
1116.3000;0.6846;0.8385;
1116.6000;0.6846;0.8337;
1116.9000;0.6829;0.8361;
1117.2000;0.6829;0.8385;
1117.5000;0.6838;0.8410;
1117.8000;0.6846;0.8361;
1118.1000;0.6829;0.8312;
1118.4000;0.6829;0.8458;
1118.7000;0.6862;0.8556;
1119.0000;0.6846;0.8507;
1119.3000;0.6854;0.8531;
1119.6000;0.6797;0.8337;
1119.9000;0.6846;0.8434;
1120.2000;0.6846;0.8483;
1120.5000;0.6829;0.8507;
1120.8000;0.6846;0.8458;
1121.1000;0.6838;0.8507;
1121.4000;0.6854;0.8458;
1121.7000;0.6846;0.8410;
1122.0000;0.6846;0.8410;
1122.3000;0.6829;0.8312;
1122.6000;0.6862;0.8337;
1122.9000;0.6854;0.8264;
1123.2000;0.6846;0.8264;
1123.5000;0.6862;0.8288;
1123.8000;0.6846;0.8215;
1124.1000;0.6821;0.8240;
1124.4000;0.6846;0.8361;
1124.7000;0.6854;0.8312;
1125.0000;0.6846;0.8385;
1125.3000;0.6862;0.8483;
1125.6000;0.6838;0.8483;
1125.9000;0.6846;0.8458;
1126.2000;0.6838;0.8483;
1126.5000;0.6829;0.8507;
1126.8000;0.6838;0.8483;
1127.1000;0.6854;0.8458;
1127.4000;0.6862;0.8556;
1127.7000;0.6846;0.8531;
1128.0000;0.6829;0.8483;
1128.3000;0.6838;0.8531;
1128.6000;0.6813;0.8483;
1128.9000;0.6846;0.8604;
1129.2000;0.6952;0.8823;
1129.5000;0.6854;0.8628;
1129.8000;0.6838;0.8483;
1130.1000;0.6854;0.8507;
1130.4000;0.6829;0.8458;
1130.7000;0.6813;0.8483;
1131.0000;0.6838;0.8580;
1131.3000;0.6797;0.8483;
1131.6000;0.6854;0.8628;
1131.9000;0.6846;0.8604;
1132.2000;0.6838;0.8580;
1132.5000;0.6797;0.8483;
1132.8000;0.6846;0.8628;
1133.1000;0.6805;0.8434;
1133.4000;0.6821;0.8385;
1133.7000;0.6854;0.8434;
1134.0000;0.6862;0.8458;
1134.3000;0.6854;0.8434;
1134.6000;0.6838;0.8434;
1134.9000;0.6838;0.8531;
1135.2000;0.6829;0.8458;
1135.5000;0.6846;0.8556;
1135.8000;0.6813;0.8458;
1136.1000;0.6821;0.8483;
1136.4000;0.6838;0.8556;
1136.7000;0.6829;0.8604;
1137.0000;0.6838;0.8726;
1137.3000;0.6838;0.8701;
1137.6000;0.6846;0.8701;
1137.9000;0.6838;0.8799;
1138.2000;0.6838;0.8750;
1138.5000;0.6838;0.8701;
1138.8000;0.6854;0.8750;
1139.1000;0.6854;0.8726;
1139.4000;0.6846;0.8726;
1139.7000;0.6797;0.8628;
1140.0000;0.6854;0.8701;
1140.3000;0.6838;0.8677;
1140.6000;0.6870;0.8847;
1140.9000;0.6829;0.8677;
1141.2000;0.6829;0.8677;
1141.5000;0.6821;0.8653;
1141.8000;0.6821;0.8677;
1142.1000;0.6846;0.8750;
1142.4000;0.6838;0.8701;
1142.7000;0.6838;0.8750;
1143.0000;0.6846;0.8677;
1143.3000;0.6821;0.8604;
1143.6000;0.6821;0.8531;
1143.9000;0.6846;0.8653;
1144.2000;0.6846;0.8750;
1144.5000;0.6838;0.8774;
1144.8000;0.6821;0.8726;
1145.1000;0.6813;0.8726;
1145.4000;0.6846;0.8799;
1145.7000;0.6772;0.8580;
1146.0000;0.6838;0.8774;
1146.3000;0.6829;0.8799;
1146.6000;0.6838;0.8799;
1146.9000;0.6829;0.8750;
1147.2000;0.6805;0.8774;
1147.5000;0.6846;0.8847;
1147.8000;0.6846;0.8799;
1148.1000;0.6862;0.8774;
1148.4000;0.6870;0.8871;
1148.7000;0.6895;0.8896;
1149.0000;0.6846;0.8871;
1149.3000;0.6854;0.8774;
1149.6000;0.6854;0.8701;
1149.9000;0.6846;0.8628;
1150.2000;0.6789;0.8458;
1150.5000;0.6821;0.8507;
1150.8000;0.6829;0.8580;
1151.1000;0.6805;0.8507;
1151.4000;0.6870;0.8677;
1151.7000;0.6829;0.8580;
1152.0000;0.6821;0.8556;
1152.3000;0.6813;0.8604;
1152.6000;0.6829;0.8604;
1152.9000;0.6813;0.8580;
1153.2000;0.6829;0.8628;
1153.5000;0.6821;0.8604;
1153.8000;0.6870;0.8653;
1154.1000;0.6829;0.8628;
1154.4000;0.6838;0.8677;
1154.7000;0.6732;0.8531;
1155.0000;0.6838;0.8799;
1155.3000;0.6821;0.8823;
1155.6000;0.6838;0.8847;
1155.9000;0.6829;0.8774;
1156.2000;0.6838;0.8823;
1156.5000;0.6821;0.8799;
1156.8000;0.6846;0.8823;
1157.1000;0.6846;0.8847;
1157.4000;0.6846;0.8896;
1157.7000;0.6838;0.8823;
1158.0000;0.6829;0.8774;
1158.3000;0.6838;0.8774;
1158.6000;0.6829;0.8750;
1158.9000;0.6797;0.8677;
1159.2000;0.6838;0.8823;
1159.5000;0.6838;0.8799;
1159.8000;0.6838;0.8726;
1160.1000;0.6838;0.8774;
1160.4000;0.6805;0.8701;
1160.7000;0.6838;0.8750;
1161.0000;0.6862;0.8750;
1161.3000;0.6854;0.8653;
1161.6000;0.6821;0.8531;
1161.9000;0.6829;0.8580;
1162.2000;0.6797;0.8556;
1162.5000;0.6829;0.8750;
1162.8000;0.6813;0.8677;
1163.1000;0.6829;0.8726;
1163.4000;0.6838;0.8823;
1163.7000;0.6829;0.8823;
1164.0000;0.6821;0.8847;
1164.3000;0.6838;0.8823;
1164.6000;0.6821;0.8774;
1164.9000;0.6846;0.8823;
1165.2000;0.6838;0.8944;
1165.5000;0.6821;0.8847;
1165.8000;0.6740;0.8701;
1166.1000;0.6821;0.8871;
1166.4000;0.6813;0.8799;
1166.7000;0.6781;0.8628;
1167.0000;0.6805;0.8580;
1167.3000;0.6829;0.8580;
1167.6000;0.6870;0.8774;
1167.9000;0.6821;0.8580;
1168.2000;0.6829;0.8604;
1168.5000;0.6838;0.8580;
1168.8000;0.6821;0.8580;
1169.1000;0.6821;0.8580;
1169.4000;0.6838;0.8580;
1169.7000;0.6813;0.8580;
1170.0000;0.6829;0.8677;
1170.3000;0.6821;0.8677;
1170.6000;0.6862;0.8701;
1170.9000;0.6821;0.8507;
1171.2000;0.6805;0.8483;
1171.5000;0.6821;0.8434;
1171.8000;0.6854;0.8531;
1172.1000;0.6846;0.8434;
1172.4000;0.6821;0.8483;
1172.7000;0.6919;0.8774;
1173.0000;0.6821;0.8507;
1173.3000;0.6821;0.8483;
1173.6000;0.6838;0.8434;
1173.9000;0.6870;0.8507;
1174.2000;0.6838;0.8507;
1174.5000;0.6821;0.8677;
1174.8000;0.6854;0.8871;
1175.1000;0.6813;0.8823;
1175.4000;0.6829;0.8847;
1175.7000;0.6854;0.8920;
1176.0000;0.6838;0.8726;
1176.3000;0.6838;0.8653;
1176.6000;0.6797;0.8458;
1176.9000;0.6829;0.8604;
1177.2000;0.6821;0.8556;
1177.5000;0.6870;0.8677;
1177.8000;0.6821;0.8580;
1178.1000;0.6838;0.8556;
1178.4000;0.6838;0.8434;
1178.7000;0.6838;0.8531;
1179.0000;0.6838;0.8531;
1179.3000;0.6813;0.8434;
1179.6000;0.6813;0.8507;
1179.9000;0.6838;0.8701;
1180.2000;0.6789;0.8483;
1180.5000;0.6813;0.8531;
1180.8000;0.6805;0.8410;
1181.1000;0.6838;0.8458;
1181.4000;0.6805;0.8385;
1181.7000;0.6838;0.8434;
1182.0000;0.6805;0.8410;
1182.3000;0.6813;0.8337;
1182.6000;0.6813;0.8337;
1182.9000;0.6838;0.8434;
1183.2000;0.6838;0.8507;
1183.5000;0.6781;0.8507;
1183.8000;0.6846;0.8677;
1184.1000;0.6829;0.8653;
1184.4000;0.6805;0.8653;
1184.7000;0.6813;0.8653;
1185.0000;0.6813;0.8726;
1185.3000;0.6797;0.8726;
1185.6000;0.6781;0.8677;
1185.9000;0.6838;0.8774;
1186.2000;0.6821;0.8726;
1186.5000;0.6870;0.8799;
1186.8000;0.6772;0.8604;
1187.1000;0.6797;0.8628;
1187.4000;0.6797;0.8653;
1187.7000;0.6797;0.8556;
1188.0000;0.6756;0.8410;
1188.3000;0.6821;0.8580;
1188.6000;0.6870;0.8701;
1188.9000;0.6886;0.8677;
1189.2000;0.6838;0.8580;
1189.5000;0.6813;0.8604;
1189.8000;0.6805;0.8628;
1190.1000;0.6821;0.8750;
1190.4000;0.6829;0.8726;
1190.7000;0.6813;0.8750;
1191.0000;0.6756;0.8604;
1191.3000;0.6805;0.8750;
1191.6000;0.6821;0.8701;
1191.9000;0.6813;0.8677;
1192.2000;0.6764;0.8531;
1192.5000;0.6821;0.8653;
1192.8000;0.6797;0.8580;
1193.1000;0.6821;0.8604;
1193.4000;0.6797;0.8458;
1193.7000;0.6797;0.8434;
1194.0000;0.6838;0.8556;
1194.3000;0.6854;0.8580;
1194.6000;0.6829;0.8507;
1194.9000;0.6813;0.8434;
1195.2000;0.6821;0.8410;
1195.5000;0.6813;0.8458;
1195.8000;0.6805;0.8507;
1196.1000;0.6813;0.8507;
1196.4000;0.6838;0.8604;
1196.7000;0.6789;0.8434;
1197.0000;0.6821;0.8507;
1197.3000;0.6781;0.8483;
1197.6000;0.6813;0.8604;
1197.9000;0.6797;0.8604;
1198.2000;0.6838;0.8677;
1198.5000;0.6764;0.8580;
1198.8000;0.6797;0.8580;
1199.1000;0.6829;0.8677;
1199.4000;0.6838;0.8750;
1199.7000;0.6813;0.8653;
1200.0000;0.6764;0.8410;
1200.3000;0.6821;0.8507;
1200.6000;0.6821;0.8628;
1200.9000;0.6805;0.8604;
1201.2000;0.6789;0.8580;
1201.5000;0.6805;0.8580;
1201.8000;0.6821;0.8726;
1202.1000;0.6805;0.8701;
1202.4000;0.6821;0.8653;
1202.7000;0.6797;0.8701;
1203.0000;0.6821;0.8653;
1203.3000;0.6805;0.8556;
1203.6000;0.6829;0.8531;
1203.9000;0.6838;0.8628;
1204.2000;0.6829;0.8726;
1204.5000;0.6805;0.8653;
1204.8000;0.6829;0.8701;
1205.1000;0.6813;0.8677;
1205.4000;0.6805;0.8580;
1205.7000;0.6821;0.8580;
1206.0000;0.6821;0.8531;
1206.3000;0.6829;0.8556;
1206.6000;0.6772;0.8385;
1206.9000;0.6838;0.8507;
1207.2000;0.6813;0.8385;
1207.5000;0.6854;0.8410;
1207.8000;0.6813;0.8337;
1208.1000;0.6829;0.8434;
1208.4000;0.6829;0.8483;
1208.7000;0.6813;0.8580;
1209.0000;0.6813;0.8628;
1209.3000;0.6772;0.8653;
1209.6000;0.6813;0.8653;
1209.9000;0.6821;0.8580;
1210.2000;0.6805;0.8628;
1210.5000;0.6838;0.8726;
1210.8000;0.6813;0.8653;
1211.1000;0.6895;0.8774;
1211.4000;0.6789;0.8556;
1211.7000;0.6797;0.8580;
1212.0000;0.6805;0.8653;
1212.3000;0.6813;0.8604;
1212.6000;0.6797;0.8604;
1212.9000;0.6813;0.8628;
1213.2000;0.6813;0.8677;
1213.5000;0.6821;0.8774;
1213.8000;0.6821;0.8653;
1214.1000;0.6829;0.8774;
1214.4000;0.6838;0.8774;
1214.7000;0.6821;0.8799;
1215.0000;0.6797;0.8750;
1215.3000;0.6829;0.8847;
1215.6000;0.6846;0.8871;
1215.9000;0.6821;0.8774;
1216.2000;0.6805;0.8750;
1216.5000;0.6821;0.8750;
1216.8000;0.6870;0.8920;
1217.1000;0.6821;0.8823;
1217.4000;0.6821;0.8677;
1217.7000;0.6756;0.8385;
1218.0000;0.6838;0.8507;
1218.3000;0.6838;0.8507;
1218.6000;0.6805;0.8507;
1218.9000;0.6813;0.8458;
1219.2000;0.6797;0.8410;
1219.5000;0.6821;0.8507;
1219.8000;0.6821;0.8531;
1220.1000;0.6797;0.8385;
1220.4000;0.6829;0.8507;
1220.7000;0.6781;0.8410;
1221.0000;0.6813;0.8483;
1221.3000;0.6805;0.8410;
1221.6000;0.6772;0.8410;
1221.9000;0.6813;0.8434;
1222.2000;0.6805;0.8385;
1222.5000;0.6813;0.8434;
1222.8000;0.6821;0.8434;
1223.1000;0.6805;0.8361;
1223.4000;0.6968;0.8896;
1223.7000;0.6813;0.8531;
1224.0000;0.6829;0.8507;
1224.3000;0.6789;0.8458;
1224.6000;0.6821;0.8507;
1224.9000;0.6829;0.8531;
1225.2000;0.6797;0.8410;
1225.5000;0.6813;0.8507;
1225.8000;0.6805;0.8531;
1226.1000;0.6813;0.8628;
1226.4000;0.6886;0.8823;
1226.7000;0.6829;0.8677;
1227.0000;0.6813;0.8531;
1227.3000;0.6813;0.8580;
1227.6000;0.6805;0.8580;
1227.9000;0.6813;0.8483;
1228.2000;0.6838;0.8531;
1228.5000;0.6813;0.8507;
1228.8000;0.6805;0.8507;
1229.1000;0.6829;0.8556;
1229.4000;0.6829;0.8507;
1229.7000;0.6878;0.8701;
1230.0000;0.6821;0.8507;
1230.3000;0.6813;0.8458;
1230.6000;0.6789;0.8385;
1230.9000;0.6813;0.8385;
1231.2000;0.6805;0.8337;
1231.5000;0.6813;0.8483;
1231.8000;0.6797;0.8434;
1232.1000;0.6821;0.8507;
1232.4000;0.6821;0.8507;
1232.7000;0.6781;0.8385;
1233.0000;0.6797;0.8410;
1233.3000;0.6805;0.8361;
1233.6000;0.6797;0.8361;
1233.9000;0.6805;0.8385;
1234.2000;0.6772;0.8337;
1234.5000;0.6821;0.8556;
1234.8000;0.6805;0.8507;
1235.1000;0.6821;0.8507;
1235.4000;0.6805;0.8458;
1235.7000;0.6805;0.8410;
1236.0000;0.6797;0.8410;
1236.3000;0.6805;0.8434;
1236.6000;0.6813;0.8556;
1236.9000;0.6805;0.8604;
1237.2000;0.6821;0.8580;
1237.5000;0.6829;0.8507;
1237.8000;0.6813;0.8604;
1238.1000;0.6813;0.8580;
1238.4000;0.6821;0.8628;
1238.7000;0.6829;0.8701;
1239.0000;0.6805;0.8653;
1239.3000;0.6821;0.8628;
1239.6000;0.6789;0.8556;
1239.9000;0.6829;0.8556;
1240.2000;0.6805;0.8410;
1240.5000;0.6797;0.8434;
1240.8000;0.6829;0.8531;
1241.1000;0.6838;0.8507;
1241.4000;0.6805;0.8410;
1241.7000;0.6797;0.8337;
1242.0000;0.6789;0.8337;
1242.3000;0.6805;0.8361;
1242.6000;0.6813;0.8483;
1242.9000;0.6805;0.8531;
1243.2000;0.6797;0.8531;
1243.5000;0.6805;0.8580;
1243.8000;0.6797;0.8653;
1244.1000;0.6805;0.8580;
1244.4000;0.6805;0.8531;
1244.7000;0.6813;0.8483;
1245.0000;0.6829;0.8556;
1245.3000;0.6829;0.8580;
1245.6000;0.6813;0.8483;
1245.9000;0.6797;0.8434;
1246.2000;0.6772;0.8410;
1246.5000;0.6772;0.8458;
1246.8000;0.6789;0.8458;
1247.1000;0.6781;0.8458;
1247.4000;0.6756;0.8361;
1247.7000;0.6797;0.8410;
1248.0000;0.6805;0.8385;
1248.3000;0.6805;0.8434;
1248.6000;0.6805;0.8410;
1248.9000;0.6797;0.8410;
1249.2000;0.6821;0.8458;
1249.5000;0.6821;0.8483;
1249.8000;0.6813;0.8434;
1250.1000;0.6813;0.8434;
1250.4000;0.6813;0.8434;
1250.7000;0.6813;0.8434;
1251.0000;0.6789;0.8385;
1251.3000;0.6805;0.8507;
1251.6000;0.6797;0.8458;
1251.9000;0.6813;0.8580;
1252.2000;0.6813;0.8556;
1252.5000;0.6813;0.8580;
1252.8000;0.6813;0.8556;
1253.1000;0.6797;0.8556;
1253.4000;0.6813;0.8580;
1253.7000;0.6797;0.8556;
1254.0000;0.6789;0.8531;
1254.3000;0.6805;0.8556;
1254.6000;0.6805;0.8531;
1254.9000;0.6797;0.8556;
1255.2000;0.6805;0.8580;
1255.5000;0.6821;0.8556;
1255.8000;0.6805;0.8434;
1256.1000;0.6797;0.8410;
1256.4000;0.6805;0.8580;
1256.7000;0.6838;0.8653;
1257.0000;0.6781;0.8628;
1257.3000;0.6789;0.8628;
1257.6000;0.6813;0.8677;
1257.9000;0.6789;0.8580;
1258.2000;0.6813;0.8604;
1258.5000;0.6781;0.8483;
1258.8000;0.6797;0.8507;
1259.1000;0.6805;0.8458;
1259.4000;0.6805;0.8507;
1259.7000;0.6797;0.8410;
1260.0000;0.6797;0.8458;
1260.3000;0.6805;0.8483;
1260.6000;0.6789;0.8458;
1260.9000;0.6789;0.8385;
1261.2000;0.6789;0.8312;
1261.5000;0.6821;0.8361;
1261.8000;0.6813;0.8361;
1262.1000;0.6805;0.8434;
1262.4000;0.6805;0.8385;
1262.7000;0.6878;0.8507;
1263.0000;0.6813;0.8410;
1263.3000;0.6805;0.8385;
1263.6000;0.6781;0.8361;
1263.9000;0.6813;0.8434;
1264.2000;0.6821;0.8483;
1264.5000;0.6797;0.8434;
1264.8000;0.6805;0.8410;
1265.1000;0.6805;0.8385;
1265.4000;0.6813;0.8434;
1265.7000;0.6821;0.8458;
1266.0000;0.6821;0.8458;
1266.3000;0.6805;0.8434;
1266.6000;0.6805;0.8531;
1266.9000;0.6756;0.8458;
1267.2000;0.6781;0.8458;
1267.5000;0.6781;0.8288;
1267.8000;0.6805;0.8410;
1268.1000;0.6805;0.8410;
1268.4000;0.6781;0.8361;
1268.7000;0.6813;0.8458;
1269.0000;0.6789;0.8434;
1269.3000;0.6781;0.8337;
1269.6000;0.6797;0.8337;
1269.9000;0.6789;0.8410;
1270.2000;0.6764;0.8361;
1270.5000;0.6813;0.8483;
1270.8000;0.6781;0.8434;
1271.1000;0.6797;0.8483;
1271.4000;0.6797;0.8483;
1271.7000;0.6911;0.8774;
1272.0000;0.6797;0.8483;
1272.3000;0.6789;0.8556;
1272.6000;0.6870;0.8750;
1272.9000;0.6797;0.8458;
1273.2000;0.6813;0.8507;
1273.5000;0.6797;0.8434;
1273.8000;0.6805;0.8483;
1274.1000;0.6797;0.8507;
1274.4000;0.6789;0.8434;
1274.7000;0.6805;0.8434;
1275.0000;0.6789;0.8410;
1275.3000;0.6797;0.8434;
1275.6000;0.6805;0.8312;
1275.9000;0.6805;0.8337;
1276.2000;0.6789;0.8337;
1276.5000;0.6789;0.8337;
1276.8000;0.6829;0.8385;
1277.1000;0.6813;0.8385;
1277.4000;0.6797;0.8410;
1277.7000;0.6805;0.8337;
1278.0000;0.6797;0.8337;
1278.3000;0.6797;0.8337;
1278.6000;0.6789;0.8240;
1278.9000;0.6789;0.8312;
1279.2000;0.6740;0.8118;
1279.5000;0.6756;0.8167;
1279.8000;0.6789;0.8191;
1280.1000;0.6805;0.8118;
1280.4000;0.6789;0.8045;
1280.7000;0.6813;0.8069;
1281.0000;0.6797;0.8069;
1281.3000;0.6781;0.7972;
1281.6000;0.6789;0.7996;
1281.9000;0.6789;0.7948;
1282.2000;0.6805;0.7972;
1282.5000;0.6781;0.7948;
1282.8000;0.6797;0.8094;
1283.1000;0.6789;0.8167;
1283.4000;0.6748;0.8118;
1283.7000;0.6813;0.8288;
1284.0000;0.6781;0.8385;
1284.3000;0.6813;0.8531;
1284.6000;0.6895;0.8726;
1284.9000;0.6764;0.8337;
1285.2000;0.6805;0.8458;
1285.5000;0.6805;0.8531;
1285.8000;0.6789;0.8531;
1286.1000;0.6821;0.8604;
1286.4000;0.6789;0.8580;
1286.7000;0.6813;0.8653;
1287.0000;0.6805;0.8653;
1287.3000;0.6805;0.8677;
1287.6000;0.6813;0.8726;
1287.9000;0.6789;0.8604;
1288.2000;0.6797;0.8628;
1288.5000;0.6805;0.8653;
1288.8000;0.6789;0.8507;
1289.1000;0.6797;0.8531;
1289.4000;0.6789;0.8434;
1289.7000;0.6789;0.8458;
1290.0000;0.6821;0.8507;
1290.3000;0.6805;0.8507;
1290.6000;0.6813;0.8580;
1290.9000;0.6797;0.8531;
1291.2000;0.6756;0.8483;
1291.5000;0.6764;0.8580;
1291.8000;0.6781;0.8604;
1292.1000;0.6797;0.8653;
1292.4000;0.6797;0.8677;
1292.7000;0.6854;0.8799;
1293.0000;0.6789;0.8580;
1293.3000;0.6821;0.8677;
1293.6000;0.6805;0.8677;
1293.9000;0.6756;0.8556;
1294.2000;0.6789;0.8604;
1294.5000;0.6805;0.8580;
1294.8000;0.6838;0.8628;
1295.1000;0.6789;0.8507;
1295.4000;0.6789;0.8458;
1295.7000;0.6813;0.8507;
1296.0000;0.6829;0.8483;
1296.3000;0.6797;0.8556;
1296.6000;0.6772;0.8531;
1296.9000;0.6797;0.8604;
1297.2000;0.6772;0.8556;
1297.5000;0.6797;0.8604;
1297.8000;0.6756;0.8604;
1298.1000;0.6805;0.8750;
1298.4000;0.6805;0.8726;
1298.7000;0.6772;0.8726;
1299.0000;0.6805;0.8726;
1299.3000;0.6781;0.8653;
1299.6000;0.6821;0.8847;
1299.9000;0.6805;0.8774;
1300.2000;0.6789;0.8750;
1300.5000;0.6805;0.8799;
1300.8000;0.6764;0.8823;
1301.1000;0.6813;0.8871;
1301.4000;0.6797;0.8750;
1301.7000;0.6838;0.8896;
1302.0000;0.6772;0.8799;
1302.3000;0.6789;0.8871;
1302.6000;0.6789;0.8823;
1302.9000;0.6781;0.8799;
1303.2000;0.6683;0.8628;
1303.5000;0.6772;0.8774;
1303.8000;0.6805;0.8823;
1304.1000;0.6772;0.8726;
1304.4000;0.6772;0.8677;
1304.7000;0.6764;0.8653;
1305.0000;0.6797;0.8628;
1305.3000;0.6781;0.8483;
1305.6000;0.6781;0.8531;
1305.9000;0.6781;0.8604;
1306.2000;0.6797;0.8726;
1306.5000;0.6797;0.8701;
1306.8000;0.6789;0.8750;
1307.1000;0.6789;0.8701;
1307.4000;0.6789;0.8701;
1307.7000;0.6781;0.8677;
1308.0000;0.6813;0.8677;
1308.3000;0.6772;0.8580;
1308.6000;0.6797;0.8628;
1308.9000;0.6895;0.8799;
1309.2000;0.6748;0.8458;
1309.5000;0.6764;0.8556;
1309.8000;0.6764;0.8556;
1310.1000;0.6781;0.8653;
1310.4000;0.6789;0.8628;
1310.7000;0.6772;0.8628;
1311.0000;0.6789;0.8677;
1311.3000;0.6789;0.8677;
1311.6000;0.6805;0.8750;
1311.9000;0.6781;0.8653;
1312.2000;0.6789;0.8604;
1312.5000;0.6797;0.8701;
1312.8000;0.6797;0.8653;
1313.1000;0.6813;0.8774;
1313.4000;0.6797;0.8653;
1313.7000;0.6797;0.8604;
1314.0000;0.6789;0.8458;
1314.3000;0.6789;0.8458;
1314.6000;0.6781;0.8385;
1314.9000;0.6797;0.8483;
1315.2000;0.6805;0.8653;
1315.5000;0.6781;0.8580;
1315.8000;0.6772;0.8531;
1316.1000;0.6781;0.8580;
1316.4000;0.6764;0.8604;
1316.7000;0.6781;0.8701;
1317.0000;0.6772;0.8628;
1317.3000;0.6797;0.8750;
1317.6000;0.6772;0.8774;
1317.9000;0.6846;0.8944;
1318.2000;0.6691;0.8458;
1318.5000;0.6772;0.8701;
1318.8000;0.6789;0.8726;
1319.1000;0.6772;0.8653;
1319.4000;0.6781;0.8531;
1319.7000;0.6781;0.8507;
1320.0000;0.6854;0.8726;
1320.3000;0.6821;0.8774;
1320.6000;0.6821;0.8871;
1320.9000;0.6756;0.8677;
1321.2000;0.6813;0.8726;
1321.5000;0.6772;0.8628;
1321.8000;0.6838;0.8799;
1322.1000;0.6789;0.8726;
1322.4000;0.6797;0.8799;
1322.7000;0.6764;0.8823;
1323.0000;0.6797;0.8969;
1323.3000;0.6781;0.8847;
1323.6000;0.6846;0.8896;
1323.9000;0.6764;0.8726;
1324.2000;0.6772;0.8677;
1324.5000;0.6772;0.8628;
1324.8000;0.6772;0.8726;
1325.1000;0.6772;0.8750;
1325.4000;0.6781;0.8823;
1325.7000;0.6724;0.8677;
1326.0000;0.6699;0.8653;
1326.3000;0.6797;0.8920;
1326.6000;0.6789;0.8969;
1326.9000;0.6781;0.8896;
1327.2000;0.6724;0.8799;
1327.5000;0.6772;0.8993;
1327.8000;0.6789;0.8969;
1328.1000;0.6797;0.8969;
1328.4000;0.6789;0.8823;
1328.7000;0.6797;0.8969;
1329.0000;0.6797;0.8993;
1329.3000;0.6781;0.9017;
1329.6000;0.6781;0.8993;
1329.9000;0.6781;0.9017;
1330.2000;0.6781;0.9017;
1330.5000;0.6781;0.8993;
1330.8000;0.6838;0.8920;
1331.1000;0.6813;0.8799;
1331.4000;0.6821;0.8799;
1331.7000;0.6805;0.8701;
1332.0000;0.6813;0.8774;
1332.3000;0.6781;0.8726;
1332.6000;0.6805;0.8847;
1332.9000;0.6813;0.8823;
1333.2000;0.6797;0.8871;
1333.5000;0.6805;0.8871;
1333.8000;0.6797;0.8847;
1334.1000;0.6805;0.8871;
1334.4000;0.6813;0.8944;
1334.7000;0.6789;0.8944;
1335.0000;0.6781;0.8847;
1335.3000;0.6748;0.8774;
1335.6000;0.6789;0.8871;
1335.9000;0.6789;0.8944;
1336.2000;0.6772;0.8896;
1336.5000;0.6805;0.9017;
1336.8000;0.6772;0.9017;
1337.1000;0.6821;0.9090;
1337.4000;0.6732;0.8774;
1337.7000;0.6764;0.8871;
1338.0000;0.6789;0.8823;
1338.3000;0.6829;0.8896;
1338.6000;0.6772;0.8823;
1338.9000;0.6724;0.8677;
1339.2000;0.6772;0.8726;
1339.5000;0.6797;0.8750;
1339.8000;0.6732;0.8580;
1340.1000;0.6789;0.8628;
1340.4000;0.6764;0.8628;
1340.7000;0.6781;0.8750;
1341.0000;0.6797;0.8823;
1341.3000;0.6756;0.8799;
1341.6000;0.6764;0.8896;
1341.9000;0.6805;0.8993;
1342.2000;0.6797;0.8969;
1342.5000;0.6789;0.8920;
1342.8000;0.6805;0.8920;
1343.1000;0.6805;0.8799;
1343.4000;0.6821;0.8823;
1343.7000;0.6797;0.8774;
1344.0000;0.6797;0.8750;
1344.3000;0.6748;0.8604;
1344.6000;0.6699;0.8483;
1344.9000;0.6789;0.8726;
1345.2000;0.6772;0.8726;
1345.5000;0.6781;0.8774;
1345.8000;0.6699;0.8580;
1346.1000;0.6781;0.8823;
1346.4000;0.6772;0.8823;
1346.7000;0.6789;0.8847;
1347.0000;0.6772;0.8750;
1347.3000;0.6789;0.8799;
1347.6000;0.6756;0.8628;
1347.9000;0.6781;0.8701;
1348.2000;0.6764;0.8628;
1348.5000;0.6772;0.8701;
1348.8000;0.6789;0.8677;
1349.1000;0.6781;0.8653;
1349.4000;0.6781;0.8556;
1349.7000;0.6829;0.8653;
1350.0000;0.6781;0.8531;
1350.3000;0.6797;0.8531;
1350.6000;0.6797;0.8531;
1350.9000;0.6813;0.8604;
1351.2000;0.6789;0.8701;
1351.5000;0.6797;0.8653;
1351.8000;0.6764;0.8628;
1352.1000;0.6797;0.8774;
1352.4000;0.6805;0.8799;
1352.7000;0.6805;0.8896;
1353.0000;0.6789;0.8920;
1353.3000;0.6789;0.8871;
1353.6000;0.6781;0.8823;
1353.9000;0.6789;0.8750;
1354.2000;0.6789;0.8823;
1354.5000;0.6772;0.8823;
1354.8000;0.6740;0.8799;
1355.1000;0.6764;0.8847;
1355.4000;0.6781;0.8896;
1355.7000;0.6781;0.8944;
1356.0000;0.6764;0.8896;
1356.3000;0.6789;0.8896;
1356.6000;0.6886;0.9090;
1356.9000;0.6781;0.8726;
1357.2000;0.6821;0.8774;
1357.5000;0.6732;0.8458;
1357.8000;0.6781;0.8556;
1358.1000;0.6781;0.8507;
1358.4000;0.6772;0.8458;
1358.7000;0.6781;0.8483;
1359.0000;0.6789;0.8604;
1359.3000;0.6797;0.8628;
1359.6000;0.6781;0.8701;
1359.9000;0.6781;0.8774;
1360.2000;0.6781;0.8750;
1360.5000;0.6789;0.8726;
1360.8000;0.6764;0.8677;
1361.1000;0.6699;0.8556;
1361.4000;0.6732;0.8628;
1361.7000;0.6772;0.8750;
1362.0000;0.6772;0.8774;
1362.3000;0.6781;0.8799;
1362.6000;0.6821;0.8896;
1362.9000;0.6781;0.8799;
1363.2000;0.6781;0.8750;
1363.5000;0.6789;0.8799;
1363.8000;0.6789;0.8799;
1364.1000;0.6781;0.8799;
1364.4000;0.6764;0.8823;
1364.7000;0.6764;0.8871;
1365.0000;0.6772;0.8847;
1365.3000;0.6764;0.8871;
1365.6000;0.6772;0.8871;
1365.9000;0.6797;0.8847;
1366.2000;0.6789;0.8774;
1366.5000;0.6789;0.8774;
1366.8000;0.6772;0.8847;
1367.1000;0.6756;0.8774;
1367.4000;0.6789;0.8896;
1367.7000;0.6781;0.8847;
1368.0000;0.6781;0.8823;
1368.3000;0.6789;0.8871;
1368.6000;0.6854;0.8993;
1368.9000;0.6805;0.8944;
1369.2000;0.6805;0.8920;
1369.5000;0.6797;0.8920;
1369.8000;0.6764;0.8774;
1370.1000;0.6781;0.8799;
1370.4000;0.6797;0.8750;
1370.7000;0.6789;0.8774;
1371.0000;0.6732;0.8726;
1371.3000;0.6772;0.8701;
1371.6000;0.6781;0.8726;
1371.9000;0.6756;0.8701;
1372.2000;0.6789;0.8847;
1372.5000;0.6772;0.8896;
1372.8000;0.6797;0.8944;
1373.1000;0.6797;0.8920;
1373.4000;0.6789;0.8944;
1373.7000;0.6821;0.8944;
1374.0000;0.6797;0.8993;
1374.3000;0.6781;0.8920;
1374.6000;0.6789;0.8896;
1374.9000;0.6772;0.8823;
1375.2000;0.6781;0.8920;
1375.5000;0.6781;0.8993;
1375.8000;0.6748;0.8871;
1376.1000;0.6813;0.9042;
1376.4000;0.6781;0.8944;
1376.7000;0.6797;0.8944;
1377.0000;0.6781;0.8823;
1377.3000;0.6781;0.8896;
1377.6000;0.6781;0.8920;
1377.9000;0.6789;0.8969;
1378.2000;0.6772;0.8847;
1378.5000;0.6724;0.8701;
1378.8000;0.6797;0.8896;
1379.1000;0.6797;0.8896;
1379.4000;0.6797;0.8920;
1379.7000;0.6854;0.9017;
1380.0000;0.6764;0.8701;
1380.3000;0.6789;0.8847;
1380.6000;0.6764;0.8799;
1380.9000;0.6789;0.8799;
1381.2000;0.6789;0.8799;
1381.5000;0.6813;0.8871;
1381.8000;0.6789;0.8726;
1382.1000;0.6781;0.8701;
1382.4000;0.6781;0.8653;
1382.7000;0.6805;0.8653;
1383.0000;0.6813;0.8726;
1383.3000;0.6789;0.8750;
1383.6000;0.6797;0.8701;
1383.9000;0.6789;0.8774;
1384.2000;0.6781;0.8774;
1384.5000;0.6772;0.8701;
1384.8000;0.6870;0.9017;
1385.1000;0.6781;0.8799;
1385.4000;0.6789;0.8799;
1385.7000;0.6781;0.8726;
1386.0000;0.6756;0.8701;
1386.3000;0.6772;0.8653;
1386.6000;0.6789;0.8726;
1386.9000;0.6756;0.8726;
1387.2000;0.6781;0.8677;
1387.5000;0.6797;0.8799;
1387.8000;0.6732;0.8580;
1388.1000;0.6797;0.8726;
1388.4000;0.6748;0.8531;
1388.7000;0.6781;0.8677;
1389.0000;0.6781;0.8726;
1389.3000;0.6716;0.8483;
1389.6000;0.6813;0.8701;
1389.9000;0.6781;0.8604;
1390.2000;0.6772;0.8604;
1390.5000;0.6789;0.8604;
1390.8000;0.6838;0.8677;
1391.1000;0.6756;0.8434;
1391.4000;0.6772;0.8556;
1391.7000;0.6764;0.8556;
1392.0000;0.6772;0.8701;
1392.3000;0.6756;0.8701;
1392.6000;0.6781;0.8750;
1392.9000;0.6772;0.8847;
1393.2000;0.6797;0.8896;
1393.5000;0.6789;0.8871;
1393.8000;0.6764;0.8774;
1394.1000;0.6797;0.8823;
1394.4000;0.6789;0.8799;
1394.7000;0.6772;0.8750;
1395.0000;0.6781;0.8750;
1395.3000;0.6797;0.8823;
1395.6000;0.6732;0.8653;
1395.9000;0.6813;0.8847;
1396.2000;0.6740;0.8750;
1396.5000;0.6821;0.8896;
1396.8000;0.6829;0.8944;
1397.1000;0.6781;0.8847;
1397.4000;0.6748;0.8920;
1397.7000;0.6813;0.9017;
1398.0000;0.6789;0.8969;
1398.3000;0.6805;0.9066;
1398.6000;0.6740;0.8920;
1398.9000;0.6756;0.8847;
1399.2000;0.6756;0.8871;
1399.5000;0.6797;0.8993;
1399.8000;0.6789;0.8920;
