time/ms;Fluo/V;P700 deltaI/I x10³;
-199.8000;0.6300;1.1861;
-199.5000;0.6300;1.1788;
-199.2000;0.6284;1.1691;
-198.9000;0.6292;1.1667;
-198.6000;0.6309;1.1764;
-198.3000;0.6309;1.1812;
-198.0000;0.6325;1.1837;
-197.7000;0.6317;1.1861;
-197.4000;0.6300;1.1910;
-197.1000;0.6309;1.1885;
-196.8000;0.6309;1.1885;
-196.5000;0.6309;1.1934;
-196.2000;0.6365;1.2007;
-195.9000;0.6309;1.1934;
-195.6000;0.6325;1.1958;
-195.3000;0.6292;1.1910;
-195.0000;0.6300;1.1861;
-194.7000;0.6292;1.1885;
-194.4000;0.6300;1.1934;
-194.1000;0.6292;1.1934;
-193.8000;0.6292;1.1934;
-193.5000;0.6276;1.1910;
-193.2000;0.6292;1.1958;
-192.9000;0.6300;1.1934;
-192.6000;0.6300;1.1910;
-192.3000;0.6309;1.1910;
-192.0000;0.6300;1.1861;
-191.7000;0.6309;1.2007;
-191.4000;0.6309;1.2080;
-191.1000;0.6292;1.2080;
-190.8000;0.6300;1.2031;
-190.5000;0.6317;1.1934;
-190.2000;0.6300;1.1812;
-189.9000;0.6300;1.1861;
-189.6000;0.6300;1.1910;
-189.3000;0.6300;1.1885;
-189.0000;0.6284;1.1837;
-188.7000;0.6292;1.1910;
-188.4000;0.6309;1.1958;
-188.1000;0.6317;1.1934;
-187.8000;0.6317;1.1934;
-187.5000;0.6309;1.1910;
-187.2000;0.6309;1.1934;
-186.9000;0.6284;1.1885;
-186.6000;0.6309;1.1934;
-186.3000;0.6333;1.1934;
-186.0000;0.6300;1.1885;
-185.7000;0.6333;1.1885;
-185.4000;0.6317;1.1983;
-185.1000;0.6292;1.1983;
-184.8000;0.6398;1.2128;
-184.5000;0.6317;1.1934;
-184.2000;0.6243;1.1788;
-183.9000;0.6317;1.2007;
-183.6000;0.6300;1.1934;
-183.3000;0.6300;1.1934;
-183.0000;0.6325;1.1958;
-182.7000;0.6309;1.1885;
-182.4000;0.6292;1.1837;
-182.1000;0.6309;1.1910;
-181.8000;0.6276;1.1910;
-181.5000;0.6309;1.2104;
-181.2000;0.6317;1.2055;
-180.9000;0.6317;1.2104;
-180.6000;0.6300;1.2080;
-180.3000;0.6309;1.2080;
-180.0000;0.6309;1.2080;
-179.7000;0.6317;1.2104;
-179.4000;0.6309;1.2055;
-179.1000;0.6292;1.2055;
-178.8000;0.6292;1.2007;
-178.5000;0.6309;1.2080;
-178.2000;0.6284;1.2031;
-177.9000;0.6292;1.2080;
-177.6000;0.6309;1.2055;
-177.3000;0.6268;1.1934;
-177.0000;0.6276;1.1885;
-176.7000;0.6284;1.1958;
-176.4000;0.6284;1.1983;
-176.1000;0.6317;1.2055;
-175.8000;0.6309;1.2031;
-175.5000;0.6333;1.2128;
-175.2000;0.6341;1.2104;
-174.9000;0.6309;1.1885;
-174.6000;0.6300;1.1861;
-174.3000;0.6292;1.1837;
-174.0000;0.6414;1.2128;
-173.7000;0.6325;1.1910;
-173.4000;0.6300;1.1861;
-173.1000;0.6357;1.2055;
-172.8000;0.6292;1.1861;
-172.5000;0.6284;1.1861;
-172.2000;0.6309;1.2007;
-171.9000;0.6268;1.2007;
-171.6000;0.6300;1.2104;
-171.3000;0.6309;1.2080;
-171.0000;0.6317;1.2104;
-170.7000;0.6349;1.2250;
-170.4000;0.6300;1.2104;
-170.1000;0.6284;1.2080;
-169.8000;0.6284;1.2007;
-169.5000;0.6276;1.2055;
-169.2000;0.6300;1.2128;
-168.9000;0.6243;1.1958;
-168.6000;0.6341;1.2153;
-168.3000;0.6309;1.2055;
-168.0000;0.6309;1.2007;
-167.7000;0.6325;1.2104;
-167.4000;0.6309;1.2007;
-167.1000;0.6276;1.1885;
-166.8000;0.6382;1.2128;
-166.5000;0.6317;1.2007;
-166.2000;0.6300;1.2007;
-165.9000;0.6235;1.1764;
-165.6000;0.6292;1.1934;
-165.3000;0.6309;1.1983;
-165.0000;0.6317;1.2080;
-164.7000;0.6260;1.1837;
-164.4000;0.6292;1.1983;
-164.1000;0.6252;1.1910;
-163.8000;0.6292;1.1934;
-163.5000;0.6292;1.1934;
-163.2000;0.6284;1.1910;
-162.9000;0.6268;1.1934;
-162.6000;0.6406;1.2323;
-162.3000;0.6292;1.2128;
-162.0000;0.6292;1.2080;
-161.7000;0.6300;1.2104;
-161.4000;0.6292;1.2201;
-161.1000;0.6292;1.2177;
-160.8000;0.6300;1.2201;
-160.5000;0.6268;1.2177;
-160.2000;0.6292;1.2153;
-159.9000;0.6317;1.2201;
-159.6000;0.6300;1.2080;
-159.3000;0.6300;1.2153;
-159.0000;0.6365;1.2250;
-158.7000;0.6309;1.2055;
-158.4000;0.6309;1.1983;
-158.1000;0.6317;1.2055;
-157.8000;0.6317;1.1983;
-157.5000;0.6325;1.2031;
-157.2000;0.6341;1.2080;
-156.9000;0.6300;1.1983;
-156.6000;0.6300;1.1958;
-156.3000;0.6317;1.1958;
-156.0000;0.6292;1.1958;
-155.7000;0.6309;1.1958;
-155.4000;0.6365;1.1958;
-155.1000;0.6284;1.1691;
-154.8000;0.6300;1.1740;
-154.5000;0.6309;1.1788;
-154.2000;0.6284;1.1667;
-153.9000;0.6292;1.1740;
-153.6000;0.6309;1.1788;
-153.3000;0.6284;1.1812;
-153.0000;0.6300;1.1812;
-152.7000;0.6300;1.1812;
-152.4000;0.6309;1.1958;
-152.1000;0.6300;1.1958;
-151.8000;0.6309;1.2080;
-151.5000;0.6317;1.2128;
-151.2000;0.6309;1.2104;
-150.9000;0.6300;1.2055;
-150.6000;0.6284;1.1885;
-150.3000;0.6276;1.1885;
-150.0000;0.6292;1.1934;
-149.7000;0.6284;1.1958;
-149.4000;0.6325;1.2055;
-149.1000;0.6276;1.1788;
-148.8000;0.6243;1.1764;
-148.5000;0.6268;1.1934;
-148.2000;0.6300;1.2031;
-147.9000;0.6309;1.2080;
-147.6000;0.6292;1.2007;
-147.3000;0.6325;1.2128;
-147.0000;0.6292;1.2128;
-146.7000;0.6309;1.2104;
-146.4000;0.6398;1.2323;
-146.1000;0.6292;1.2031;
-145.8000;0.6268;1.1910;
-145.5000;0.6292;1.1958;
-145.2000;0.6317;1.2007;
-144.9000;0.6227;1.1837;
-144.6000;0.6300;1.2031;
-144.3000;0.6309;1.2104;
-144.0000;0.6333;1.2080;
-143.7000;0.6309;1.2007;
-143.4000;0.6349;1.2128;
-143.1000;0.6268;1.1983;
-142.8000;0.6284;1.1983;
-142.5000;0.6309;1.2007;
-142.2000;0.6300;1.2080;
-141.9000;0.6309;1.2104;
-141.6000;0.6300;1.2055;
-141.3000;0.6292;1.2007;
-141.0000;0.6309;1.2031;
-140.7000;0.6325;1.2055;
-140.4000;0.6325;1.2104;
-140.1000;0.6284;1.2007;
-139.8000;0.6300;1.2080;
-139.5000;0.6309;1.2031;
-139.2000;0.6300;1.1958;
-138.9000;0.6300;1.2007;
-138.6000;0.6300;1.2007;
-138.3000;0.6309;1.2007;
-138.0000;0.6284;1.1934;
-137.7000;0.6292;1.2007;
-137.4000;0.6276;1.2104;
-137.1000;0.6333;1.2201;
-136.8000;0.6390;1.2396;
-136.5000;0.6284;1.2153;
-136.2000;0.6284;1.2104;
-135.9000;0.6300;1.2055;
-135.6000;0.6300;1.2031;
-135.3000;0.6333;1.2177;
-135.0000;0.6317;1.2153;
-134.7000;0.6260;1.2007;
-134.4000;0.6284;1.2104;
-134.1000;0.6300;1.2055;
-133.8000;0.6300;1.2080;
-133.5000;0.6317;1.2226;
-133.2000;0.6300;1.2104;
-132.9000;0.6284;1.2007;
-132.6000;0.6300;1.2080;
-132.3000;0.6309;1.2080;
-132.0000;0.6374;1.2201;
-131.7000;0.6292;1.1983;
-131.4000;0.6309;1.2031;
-131.1000;0.6211;1.1788;
-130.8000;0.6309;1.2007;
-130.5000;0.6317;1.2007;
-130.2000;0.6333;1.2104;
-129.9000;0.6357;1.2226;
-129.6000;0.6309;1.1983;
-129.3000;0.6195;1.1764;
-129.0000;0.6276;1.2007;
-128.7000;0.6309;1.2055;
-128.4000;0.6292;1.2080;
-128.1000;0.6284;1.2055;
-127.8000;0.6284;1.2031;
-127.5000;0.6284;1.1983;
-127.2000;0.6292;1.2031;
-126.9000;0.6300;1.1983;
-126.6000;0.6292;1.2104;
-126.3000;0.6309;1.2080;
-126.0000;0.6300;1.1983;
-125.7000;0.6325;1.2007;
-125.4000;0.6292;1.2031;
-125.1000;0.6300;1.1958;
-124.8000;0.6276;1.1983;
-124.5000;0.6300;1.2104;
-124.2000;0.6292;1.2128;
-123.9000;0.6252;1.2007;
-123.6000;0.6325;1.2104;
-123.3000;0.6292;1.1983;
-123.0000;0.6284;1.2104;
-122.7000;0.6349;1.2299;
-122.4000;0.6300;1.2128;
-122.1000;0.6309;1.2128;
-121.8000;0.6349;1.2153;
-121.5000;0.6309;1.2080;
-121.2000;0.6309;1.2128;
-120.9000;0.6382;1.2323;
-120.6000;0.6309;1.2128;
-120.3000;0.6300;1.2055;
-120.0000;0.6292;1.1958;
-119.7000;0.6268;1.1910;
-119.4000;0.6309;1.1983;
-119.1000;0.6309;1.1958;
-118.8000;0.6341;1.2007;
-118.5000;0.6284;1.1812;
-118.2000;0.6292;1.1861;
-117.9000;0.6284;1.1837;
-117.6000;0.6309;1.1861;
-117.3000;0.6276;1.1837;
-117.0000;0.6284;1.1788;
-116.7000;0.6300;1.1885;
-116.4000;0.6284;1.1764;
-116.1000;0.6284;1.1667;
-115.8000;0.6292;1.1642;
-115.5000;0.6309;1.1764;
-115.2000;0.6341;1.1764;
-114.9000;0.6309;1.1642;
-114.6000;0.6341;1.1788;
-114.3000;0.6317;1.1715;
-114.0000;0.6219;1.1594;
-113.7000;0.6365;1.2007;
-113.4000;0.6284;1.1861;
-113.1000;0.6300;1.1958;
-112.8000;0.6300;1.1885;
-112.5000;0.6309;1.1958;
-112.2000;0.6300;1.1958;
-111.9000;0.6300;1.2031;
-111.6000;0.6317;1.2128;
-111.3000;0.6292;1.2055;
-111.0000;0.6317;1.2080;
-110.7000;0.6309;1.2128;
-110.4000;0.6300;1.2177;
-110.1000;0.6268;1.2153;
-109.8000;0.6317;1.2177;
-109.5000;0.6300;1.2055;
-109.2000;0.6309;1.2031;
-108.9000;0.6309;1.1983;
-108.6000;0.6260;1.1910;
-108.3000;0.6284;1.1983;
-108.0000;0.6292;1.2031;
-107.7000;0.6309;1.2055;
-107.4000;0.6317;1.2055;
-107.1000;0.6268;1.2080;
-106.8000;0.6300;1.2104;
-106.5000;0.6309;1.2128;
-106.2000;0.6349;1.2177;
-105.9000;0.6292;1.1958;
-105.6000;0.6309;1.1983;
-105.3000;0.6300;1.2031;
-105.0000;0.6309;1.2007;
-104.7000;0.6276;1.2007;
-104.4000;0.6292;1.2104;
-104.1000;0.6292;1.2080;
-103.8000;0.6292;1.2153;
-103.5000;0.6276;1.2128;
-103.2000;0.6276;1.2080;
-102.9000;0.6276;1.2104;
-102.6000;0.6227;1.1983;
-102.3000;0.6333;1.2177;
-102.0000;0.6292;1.2128;
-101.7000;0.6292;1.2177;
-101.4000;0.6309;1.2299;
-101.1000;0.6300;1.2323;
-100.8000;0.6276;1.2250;
-100.5000;0.6300;1.2347;
-100.2000;0.6300;1.2347;
-99.9000;0.6300;1.2299;
-99.6000;0.6309;1.2396;
-99.3000;0.6235;1.2153;
-99.0000;0.6292;1.2323;
-98.7000;0.6309;1.2323;
-98.4000;0.6300;1.2274;
-98.1000;0.6292;1.2323;
-97.8000;0.6300;1.2323;
-97.5000;0.6235;1.2153;
-97.2000;0.6292;1.2274;
-96.9000;0.6325;1.2371;
-96.6000;0.6284;1.2250;
-96.3000;0.6292;1.2274;
-96.0000;0.6309;1.2201;
-95.7000;0.6268;1.2080;
-95.4000;0.6300;1.2128;
-95.1000;0.6317;1.2128;
-94.8000;0.6292;1.2104;
-94.5000;0.6309;1.2201;
-94.2000;0.6309;1.2153;
-93.9000;0.6309;1.2177;
-93.6000;0.6317;1.2177;
-93.3000;0.6300;1.2177;
-93.0000;0.6317;1.2299;
-92.7000;0.6309;1.2299;
-92.4000;0.6276;1.2226;
-92.1000;0.6309;1.2274;
-91.8000;0.6284;1.2299;
-91.5000;0.6300;1.2104;
-91.2000;0.6325;1.2104;
-90.9000;0.6300;1.2055;
-90.6000;0.6317;1.2031;
-90.3000;0.6292;1.1983;
-90.0000;0.6390;1.2177;
-89.7000;0.6309;1.2007;
-89.4000;0.6292;1.2177;
-89.1000;0.6284;1.2226;
-88.8000;0.6317;1.2299;
-88.5000;0.6309;1.2250;
-88.2000;0.6276;1.2128;
-87.9000;0.6309;1.2274;
-87.6000;0.6284;1.2299;
-87.3000;0.6292;1.2177;
-87.0000;0.6284;1.2128;
-86.7000;0.6300;1.2153;
-86.4000;0.6268;1.2177;
-86.1000;0.6317;1.2177;
-85.8000;0.6292;1.2104;
-85.5000;0.6260;1.2031;
-85.2000;0.6292;1.2128;
-84.9000;0.6325;1.2201;
-84.6000;0.6309;1.2177;
-84.3000;0.6349;1.2347;
-84.0000;0.6357;1.2396;
-83.7000;0.6276;1.2104;
-83.4000;0.6317;1.2177;
-83.1000;0.6357;1.2250;
-82.8000;0.6292;1.2080;
-82.5000;0.6349;1.2201;
-82.2000;0.6317;1.2153;
-81.9000;0.6357;1.2299;
-81.6000;0.6276;1.2104;
-81.3000;0.6268;1.2128;
-81.0000;0.6309;1.2177;
-80.7000;0.6292;1.2153;
-80.4000;0.6292;1.2153;
-80.1000;0.6292;1.2128;
-79.8000;0.6309;1.2274;
-79.5000;0.6309;1.2226;
-79.2000;0.6292;1.2226;
-78.9000;0.6268;1.2128;
-78.6000;0.6292;1.2250;
-78.3000;0.6300;1.2299;
-78.0000;0.6300;1.2299;
-77.7000;0.6276;1.2226;
-77.4000;0.6292;1.2201;
-77.1000;0.6300;1.2226;
-76.8000;0.6300;1.2201;
-76.5000;0.6284;1.2128;
-76.2000;0.6284;1.2104;
-75.9000;0.6309;1.2153;
-75.6000;0.6300;1.2128;
-75.3000;0.6292;1.2177;
-75.0000;0.6300;1.2153;
-74.7000;0.6341;1.2274;
-74.4000;0.6309;1.2201;
-74.1000;0.6325;1.2250;
-73.8000;0.6325;1.2347;
-73.5000;0.6300;1.2444;
-73.2000;0.6292;1.2323;
-72.9000;0.6300;1.2299;
-72.6000;0.6300;1.2299;
-72.3000;0.6300;1.2250;
-72.0000;0.6317;1.2226;
-71.7000;0.6349;1.2323;
-71.4000;0.6292;1.2153;
-71.1000;0.6276;1.2080;
-70.8000;0.6292;1.2226;
-70.5000;0.6309;1.2226;
-70.2000;0.6292;1.2274;
-69.9000;0.6300;1.2347;
-69.6000;0.6309;1.2299;
-69.3000;0.6309;1.2299;
-69.0000;0.6300;1.2274;
-68.7000;0.6292;1.2226;
-68.4000;0.6284;1.2177;
-68.1000;0.6300;1.2250;
-67.8000;0.6300;1.2153;
-67.5000;0.6284;1.2153;
-67.2000;0.6292;1.2177;
-66.9000;0.6300;1.2128;
-66.6000;0.6300;1.2153;
-66.3000;0.6284;1.2055;
-66.0000;0.6300;1.1983;
-65.7000;0.6325;1.1983;
-65.4000;0.6325;1.2104;
-65.1000;0.6300;1.2080;
-64.8000;0.6317;1.2153;
-64.5000;0.6317;1.2177;
-64.2000;0.6382;1.2323;
-63.9000;0.6349;1.2104;
-63.6000;0.6300;1.2031;
-63.3000;0.6300;1.2055;
-63.0000;0.6341;1.2128;
-62.7000;0.6300;1.2055;
-62.4000;0.6292;1.2080;
-62.1000;0.6317;1.2080;
-61.8000;0.6300;1.1983;
-61.5000;0.6284;1.1983;
-61.2000;0.6300;1.2104;
-60.9000;0.6252;1.1910;
-60.6000;0.6284;1.2007;
-60.3000;0.6309;1.2226;
-60.0000;0.6300;1.2153;
-59.7000;0.6317;1.2128;
-59.4000;0.6317;1.2055;
-59.1000;0.6382;1.2323;
-58.8000;0.6333;1.2250;
-58.5000;0.6309;1.2201;
-58.2000;0.6317;1.2250;
-57.9000;0.6309;1.2177;
-57.6000;0.6309;1.2177;
-57.3000;0.6300;1.2128;
-57.0000;0.6325;1.2104;
-56.7000;0.6276;1.1910;
-56.4000;0.6309;1.1958;
-56.1000;0.6325;1.2104;
-55.8000;0.6309;1.2153;
-55.5000;0.6309;1.2299;
-55.2000;0.6309;1.2323;
-54.9000;0.6276;1.2274;
-54.6000;0.6292;1.2299;
-54.3000;0.6317;1.2299;
-54.0000;0.6276;1.2201;
-53.7000;0.6317;1.2347;
-53.4000;0.6357;1.2420;
-53.1000;0.6284;1.2274;
-52.8000;0.6276;1.2299;
-52.5000;0.6300;1.2347;
-52.2000;0.6309;1.2153;
-51.9000;0.6325;1.2104;
-51.6000;0.6284;1.1958;
-51.3000;0.6252;1.1910;
-51.0000;0.6260;1.1910;
-50.7000;0.6300;1.2104;
-50.4000;0.6325;1.2274;
-50.1000;0.6309;1.2226;
-49.8000;0.6317;1.2299;
-49.5000;0.6365;1.2420;
-49.2000;0.6292;1.2080;
-48.9000;0.6276;1.2055;
-48.6000;0.6300;1.2104;
-48.3000;0.6309;1.2153;
-48.0000;0.6178;1.1837;
-47.7000;0.6300;1.2080;
-47.4000;0.6292;1.1983;
-47.1000;0.6341;1.2080;
-46.8000;0.6292;1.1910;
-46.5000;0.6341;1.2104;
-46.2000;0.6203;1.1861;
-45.9000;0.6284;1.1958;
-45.6000;0.6309;1.2031;
-45.3000;0.6300;1.2128;
-45.0000;0.6219;1.1983;
-44.7000;0.6300;1.2226;
-44.4000;0.6300;1.2274;
-44.1000;0.6300;1.2226;
-43.8000;0.6300;1.2177;
-43.5000;0.6284;1.2128;
-43.2000;0.6292;1.2128;
-42.9000;0.6276;1.2128;
-42.6000;0.6300;1.2226;
-42.3000;0.6284;1.2177;
-42.0000;0.6300;1.2201;
-41.7000;0.6284;1.2128;
-41.4000;0.6292;1.2177;
-41.1000;0.6300;1.2177;
-40.8000;0.6309;1.2250;
-40.5000;0.6276;1.2201;
-40.2000;0.6284;1.2201;
-39.9000;0.6300;1.2250;
-39.6000;0.6300;1.2250;
-39.3000;0.6309;1.2250;
-39.0000;0.6317;1.2274;
-38.7000;0.6357;1.2444;
-38.4000;0.6300;1.2250;
-38.1000;0.6300;1.2250;
-37.8000;0.6309;1.2323;
-37.5000;0.6300;1.2226;
-37.2000;0.6284;1.2080;
-36.9000;0.6341;1.2274;
-36.6000;0.6300;1.2177;
-36.3000;0.6357;1.2347;
-36.0000;0.6317;1.2201;
-35.7000;0.6317;1.2153;
-35.4000;0.6284;1.1934;
-35.1000;0.6300;1.1958;
-34.8000;0.6300;1.2031;
-34.5000;0.6276;1.2080;
-34.2000;0.6300;1.2055;
-33.9000;0.6284;1.2007;
-33.6000;0.6309;1.2080;
-33.3000;0.6325;1.2128;
-33.0000;0.6284;1.2031;
-32.7000;0.6309;1.2055;
-32.4000;0.6300;1.2104;
-32.1000;0.6276;1.1958;
-31.8000;0.6300;1.2031;
-31.5000;0.6300;1.2153;
-31.2000;0.6309;1.2031;
-30.9000;0.6292;1.2031;
-30.6000;0.6300;1.1983;
-30.3000;0.6292;1.2080;
-30.0000;0.6300;1.2080;
-29.7000;0.6309;1.2128;
-29.4000;0.6292;1.2177;
-29.1000;0.6300;1.2080;
-28.8000;0.6325;1.2128;
-28.5000;0.6292;1.2055;
-28.2000;0.6309;1.2055;
-27.9000;0.6292;1.2128;
-27.6000;0.6414;1.2299;
-27.3000;0.6317;1.2177;
-27.0000;0.6309;1.2128;
-26.7000;0.6276;1.2104;
-26.4000;0.6276;1.2128;
-26.1000;0.6292;1.2274;
-25.8000;0.6243;1.2153;
-25.5000;0.6276;1.2201;
-25.2000;0.6300;1.2153;
-24.9000;0.6317;1.2104;
-24.6000;0.6309;1.2055;
-24.3000;0.6292;1.2128;
-24.0000;0.6292;1.2128;
-23.7000;0.6309;1.2031;
-23.4000;0.6300;1.2104;
-23.1000;0.6292;1.2055;
-22.8000;0.6357;1.2128;
-22.5000;0.6292;1.2055;
-22.2000;0.6341;1.2201;
-21.9000;0.6260;1.2031;
-21.6000;0.6309;1.2080;
-21.3000;0.6292;1.2080;
-21.0000;0.6284;1.2031;
-20.7000;0.6284;1.2007;
-20.4000;0.6292;1.2007;
-20.1000;0.6252;1.1910;
-19.8000;0.6292;1.2031;
-19.5000;0.6292;1.2104;
-19.2000;0.6309;1.2250;
-18.9000;0.6276;1.2201;
-18.6000;0.6431;1.2469;
-18.3000;0.6276;1.2177;
-18.0000;0.6333;1.2250;
-17.7000;0.6284;1.2177;
-17.4000;0.6284;1.2177;
-17.1000;0.6300;1.2250;
-16.8000;0.6260;1.2104;
-16.5000;0.6300;1.2201;
-16.2000;0.6276;1.2104;
-15.9000;0.6300;1.2226;
-15.6000;0.6325;1.2299;
-15.3000;0.6365;1.2420;
-15.0000;0.6292;1.2250;
-14.7000;0.6300;1.2201;
-14.4000;0.6292;1.2226;
-14.1000;0.6276;1.2177;
-13.8000;0.6325;1.2250;
-13.5000;0.6276;1.2128;
-13.2000;0.6211;1.1934;
-12.9000;0.6276;1.2007;
-12.6000;0.6276;1.2031;
-12.3000;0.6325;1.2201;
-12.0000;0.6284;1.2128;
-11.7000;0.6309;1.2177;
-11.4000;0.6300;1.2177;
-11.1000;0.6292;1.2177;
-10.8000;0.6300;1.2226;
-10.5000;0.6292;1.2299;
-10.2000;0.6309;1.2420;
-9.9000;0.6284;1.2469;
-9.6000;0.6300;1.2469;
-9.3000;0.6333;1.2371;
-9.0000;0.6309;1.2299;
-8.7000;0.6300;1.2250;
-8.4000;0.6300;1.2396;
-8.1000;0.6300;1.2323;
-7.8000;0.6252;1.2153;
-7.5000;0.6333;1.2201;
-7.2000;0.6309;1.2128;
-6.9000;0.6300;1.2177;
-6.6000;0.6276;1.2177;
-6.3000;0.6349;1.2274;
-6.0000;0.6309;1.2250;
-5.7000;0.6325;1.2299;
-5.4000;0.6333;1.2274;
-5.1000;0.6309;1.2299;
-4.8000;0.6300;1.2323;
-4.5000;0.6276;1.2250;
-4.2000;0.6325;1.2420;
-3.9000;0.6227;1.2153;
-3.6000;0.6317;1.2226;
-3.3000;0.6284;1.2104;
-3.0000;0.6292;1.2055;
-2.7000;0.6309;1.2080;
-2.4000;0.6300;1.2031;
-2.1000;0.6309;1.2104;
-1.8000;0.6260;1.1983;
-1.5000;0.6284;1.2007;
-1.2000;0.6268;1.1983;
-0.9000;0.6300;1.2007;
-0.6000;0.6268;1.1983;
-0.3000;0.6276;1.1958;
0.0000;0.6276;1.1958;
0.3000;0.6585;1.2201;
0.6000;0.7269;1.2906;
0.9000;0.7831;1.3587;
1.2000;0.8156;1.3976;
1.5000;0.8563;1.4559;
1.8000;0.8669;1.4583;
2.1000;0.9011;1.5069;
2.4000;0.9214;1.5337;
2.7000;0.9328;1.5555;
3.0000;0.9426;1.5677;
3.3000;0.9540;1.5871;
3.6000;0.9638;1.5993;
3.9000;0.9630;1.5871;
4.2000;0.9752;1.6090;
4.5000;0.9801;1.6115;
4.8000;0.9898;1.6333;
5.1000;0.9947;1.6333;
5.4000;1.0012;1.6455;
5.7000;1.0077;1.6455;
6.0000;1.0110;1.6455;
6.3000;1.0167;1.6576;
6.6000;1.0208;1.6625;
6.9000;1.0281;1.6746;
7.2000;1.0305;1.6698;
7.5000;1.0370;1.6698;
7.8000;1.0419;1.6625;
8.1000;1.0452;1.6503;
8.4000;1.0533;1.6625;
8.7000;1.0509;1.6503;
9.0000;1.0598;1.6601;
9.3000;1.0647;1.6649;
9.6000;1.0704;1.6698;
9.9000;1.0720;1.6601;
10.2000;1.0802;1.6722;
10.5000;1.0818;1.6625;
10.8000;1.0842;1.6552;
11.1000;1.0916;1.6649;
11.4000;1.0940;1.6625;
11.7000;1.1005;1.6698;
12.0000;1.1062;1.6771;
12.3000;1.1095;1.6771;
12.6000;1.1127;1.6674;
12.9000;1.1144;1.6625;
13.2000;1.1217;1.6771;
13.5000;1.1258;1.6746;
13.8000;1.1306;1.6649;
14.1000;1.1315;1.6601;
14.4000;1.1372;1.6649;
14.7000;1.1420;1.6649;
15.0000;1.1453;1.6649;
15.3000;1.1477;1.6649;
15.6000;1.1518;1.6649;
15.9000;1.1510;1.6576;
16.2000;1.1583;1.6698;
16.5000;1.1616;1.6649;
16.8000;1.1665;1.6698;
17.1000;1.1705;1.6746;
17.4000;1.1738;1.6771;
17.7000;1.1811;1.6965;
18.0000;1.1787;1.6795;
18.3000;1.1827;1.6722;
18.6000;1.1852;1.6698;
18.9000;1.1893;1.6722;
19.2000;1.1901;1.6722;
19.5000;1.1925;1.6722;
19.8000;1.1950;1.6625;
20.1000;1.1974;1.6625;
20.4000;1.1982;1.6698;
20.7000;1.2023;1.6674;
21.0000;1.2055;1.6674;
21.3000;1.2096;1.6722;
21.6000;1.2096;1.6674;
21.9000;1.2145;1.6795;
22.2000;1.2169;1.6844;
22.5000;1.2177;1.6844;
22.8000;1.2202;1.6868;
23.1000;1.2210;1.6844;
23.4000;1.2251;1.6819;
23.7000;1.2251;1.6746;
24.0000;1.2259;1.6746;
24.3000;1.2283;1.6722;
24.6000;1.2316;1.6722;
24.9000;1.2324;1.6746;
25.2000;1.2324;1.6795;
25.5000;1.2365;1.6795;
25.8000;1.2308;1.6625;
26.1000;1.2389;1.6698;
26.4000;1.2414;1.6795;
26.7000;1.2389;1.6746;
27.0000;1.2462;1.6917;
27.3000;1.2462;1.6795;
27.6000;1.2454;1.6868;
27.9000;1.2454;1.6746;
28.2000;1.2495;1.6674;
28.5000;1.2519;1.6722;
28.8000;1.2527;1.6625;
29.1000;1.2552;1.6649;
29.4000;1.2544;1.6528;
29.7000;1.2584;1.6576;
30.0000;1.2601;1.6601;
30.3000;1.2593;1.6358;
30.6000;1.2576;1.6382;
30.9000;1.2625;1.6576;
31.2000;1.2641;1.6576;
31.5000;1.2650;1.6528;
31.8000;1.2658;1.6528;
32.1000;1.2674;1.6576;
32.4000;1.2666;1.6576;
32.7000;1.2690;1.6576;
33.0000;1.2682;1.6503;
33.3000;1.2707;1.6528;
33.6000;1.2731;1.6503;
33.9000;1.2788;1.6625;
34.2000;1.2731;1.6503;
34.5000;1.2715;1.6455;
34.8000;1.2755;1.6479;
35.1000;1.2764;1.6455;
35.4000;1.2747;1.6382;
35.7000;1.2747;1.6406;
36.0000;1.2723;1.6309;
36.3000;1.2845;1.6649;
36.6000;1.2804;1.6552;
36.9000;1.2796;1.6479;
37.2000;1.2812;1.6528;
37.5000;1.2821;1.6576;
37.8000;1.2821;1.6528;
38.1000;1.2837;1.6601;
38.4000;1.2861;1.6576;
38.7000;1.2869;1.6552;
39.0000;1.2853;1.6576;
39.3000;1.2853;1.6576;
39.6000;1.2861;1.6625;
39.9000;1.2877;1.6552;
40.2000;1.2894;1.6552;
40.5000;1.2910;1.6552;
40.8000;1.2886;1.6479;
41.1000;1.2894;1.6479;
41.4000;1.2918;1.6576;
41.7000;1.2918;1.6601;
42.0000;1.2910;1.6552;
42.3000;1.2926;1.6625;
42.6000;1.2829;1.6358;
42.9000;1.2934;1.6576;
43.2000;1.2934;1.6601;
43.5000;1.2943;1.6625;
43.8000;1.2959;1.6601;
44.1000;1.3040;1.6795;
44.4000;1.2951;1.6576;
44.7000;1.2959;1.6601;
45.0000;1.2975;1.6528;
45.3000;1.2959;1.6503;
45.6000;1.2959;1.6430;
45.9000;1.2975;1.6333;
46.2000;1.2983;1.6285;
46.5000;1.3024;1.6406;
46.8000;1.2967;1.6358;
47.1000;1.3008;1.6455;
47.4000;1.3024;1.6430;
47.7000;1.3008;1.6430;
48.0000;1.2975;1.6236;
48.3000;1.3024;1.6430;
48.6000;1.3032;1.6528;
48.9000;1.2975;1.6358;
49.2000;1.3032;1.6503;
49.5000;1.3024;1.6479;
49.8000;1.3032;1.6430;
50.1000;1.3040;1.6430;
50.4000;1.3040;1.6479;
50.7000;1.3032;1.6406;
51.0000;1.3024;1.6333;
51.3000;1.3040;1.6358;
51.6000;1.3048;1.6430;
51.9000;1.3040;1.6358;
52.2000;1.3040;1.6333;
52.5000;1.3040;1.6260;
52.8000;1.3073;1.6212;
53.1000;1.3081;1.6260;
53.4000;1.3081;1.6333;
53.7000;1.3089;1.6382;
54.0000;1.3105;1.6430;
54.3000;1.3081;1.6406;
54.6000;1.3081;1.6406;
54.9000;1.3089;1.6503;
55.2000;1.3105;1.6576;
55.5000;1.3154;1.6674;
55.8000;1.3114;1.6674;
56.1000;1.3105;1.6698;
56.4000;1.3179;1.6746;
56.7000;1.3114;1.6576;
57.0000;1.3114;1.6601;
57.3000;1.3073;1.6406;
57.6000;1.3138;1.6430;
57.9000;1.3228;1.6552;
58.2000;1.3130;1.6406;
58.5000;1.3122;1.6382;
58.8000;1.3146;1.6406;
59.1000;1.3154;1.6309;
59.4000;1.3138;1.6285;
59.7000;1.3138;1.6309;
60.0000;1.3146;1.6260;
60.3000;1.3154;1.6382;
60.6000;1.3171;1.6455;
60.9000;1.3162;1.6455;
61.2000;1.3154;1.6455;
61.5000;1.3138;1.6382;
61.8000;1.3179;1.6406;
62.1000;1.3162;1.6358;
62.4000;1.3179;1.6430;
62.7000;1.3179;1.6406;
63.0000;1.3171;1.6479;
63.3000;1.3211;1.6503;
63.6000;1.3162;1.6358;
63.9000;1.3171;1.6382;
64.2000;1.3171;1.6430;
64.5000;1.3236;1.6552;
64.8000;1.3195;1.6430;
65.1000;1.3187;1.6528;
65.4000;1.3179;1.6601;
65.7000;1.3195;1.6601;
66.0000;1.3122;1.6455;
66.3000;1.3162;1.6625;
66.6000;1.3154;1.6601;
66.9000;1.3179;1.6528;
67.2000;1.3179;1.6503;
67.5000;1.3195;1.6552;
67.8000;1.3179;1.6455;
68.1000;1.3171;1.6406;
68.4000;1.3219;1.6430;
68.7000;1.3187;1.6455;
69.0000;1.3244;1.6503;
69.3000;1.3228;1.6479;
69.6000;1.3211;1.6455;
69.9000;1.3187;1.6430;
70.2000;1.3187;1.6382;
70.5000;1.3219;1.6455;
70.8000;1.3179;1.6406;
71.1000;1.3236;1.6576;
71.4000;1.3284;1.6674;
71.7000;1.3211;1.6479;
72.0000;1.3228;1.6528;
72.3000;1.3203;1.6552;
72.6000;1.3236;1.6528;
72.9000;1.3228;1.6430;
73.2000;1.3211;1.6406;
73.5000;1.3244;1.6479;
73.8000;1.3228;1.6479;
74.1000;1.3260;1.6649;
74.4000;1.3228;1.6552;
74.7000;1.3236;1.6455;
75.0000;1.3228;1.6333;
75.3000;1.3236;1.6260;
75.6000;1.3162;1.6066;
75.9000;1.3244;1.6285;
76.2000;1.3236;1.6236;
76.5000;1.3236;1.6382;
76.8000;1.3179;1.6333;
77.1000;1.3219;1.6479;
77.4000;1.3228;1.6455;
77.7000;1.3236;1.6406;
78.0000;1.3236;1.6455;
78.3000;1.3284;1.6576;
78.6000;1.3260;1.6528;
78.9000;1.3260;1.6479;
79.2000;1.3268;1.6430;
79.5000;1.3268;1.6503;
79.8000;1.3260;1.6406;
80.1000;1.3252;1.6333;
80.4000;1.3268;1.6358;
80.7000;1.3268;1.6382;
81.0000;1.3268;1.6406;
81.3000;1.3268;1.6406;
81.6000;1.3268;1.6382;
81.9000;1.3276;1.6479;
82.2000;1.3293;1.6406;
82.5000;1.3284;1.6358;
82.8000;1.3268;1.6358;
83.1000;1.3276;1.6309;
83.4000;1.3284;1.6455;
83.7000;1.3293;1.6576;
84.0000;1.3268;1.6601;
84.3000;1.3268;1.6528;
84.6000;1.3276;1.6601;
84.9000;1.3276;1.6503;
85.2000;1.3284;1.6479;
85.5000;1.3268;1.6479;
85.8000;1.3293;1.6576;
86.1000;1.3276;1.6601;
86.4000;1.3268;1.6576;
86.7000;1.3268;1.6552;
87.0000;1.3276;1.6601;
87.3000;1.3236;1.6358;
87.6000;1.3301;1.6455;
87.9000;1.3268;1.6285;
88.2000;1.3284;1.6358;
88.5000;1.3252;1.6236;
88.8000;1.3293;1.6382;
89.1000;1.3252;1.6358;
89.4000;1.3284;1.6455;
89.7000;1.3276;1.6455;
90.0000;1.3293;1.6455;
90.3000;1.3293;1.6479;
90.6000;1.3309;1.6479;
90.9000;1.3423;1.6722;
91.2000;1.3309;1.6430;
91.5000;1.3309;1.6430;
91.8000;1.3301;1.6406;
92.1000;1.3382;1.6528;
92.4000;1.3301;1.6333;
92.7000;1.3317;1.6382;
93.0000;1.3309;1.6430;
93.3000;1.3301;1.6503;
93.6000;1.3317;1.6528;
93.9000;1.3252;1.6333;
94.2000;1.3333;1.6528;
94.5000;1.3252;1.6309;
94.8000;1.3252;1.6309;
95.1000;1.3301;1.6455;
95.4000;1.3374;1.6552;
95.7000;1.3309;1.6358;
96.0000;1.3317;1.6430;
96.3000;1.3374;1.6625;
96.6000;1.3284;1.6358;
96.9000;1.3284;1.6430;
97.2000;1.3317;1.6528;
97.5000;1.3317;1.6528;
97.8000;1.3317;1.6503;
98.1000;1.3317;1.6382;
98.4000;1.3309;1.6309;
98.7000;1.3350;1.6406;
99.0000;1.3301;1.6309;
99.3000;1.3309;1.6406;
99.6000;1.3333;1.6479;
99.9000;1.3333;1.6479;
100.2000;1.3325;1.6455;
100.5000;1.3301;1.6479;
100.8000;1.3317;1.6479;
101.1000;1.3341;1.6528;
101.4000;1.3325;1.6528;
101.7000;1.3317;1.6455;
102.0000;1.3325;1.6406;
102.3000;1.3317;1.6382;
102.6000;1.3350;1.6455;
102.9000;1.3309;1.6382;
103.2000;1.3317;1.6358;
103.5000;1.3341;1.6430;
103.8000;1.3325;1.6358;
104.1000;1.3341;1.6236;
104.4000;1.3341;1.6187;
104.7000;1.3341;1.6212;
105.0000;1.3333;1.6212;
105.3000;1.3350;1.6212;
105.6000;1.3325;1.6163;
105.9000;1.3317;1.6163;
106.2000;1.3260;1.6017;
106.5000;1.3333;1.6236;
106.8000;1.3333;1.6236;
107.1000;1.3350;1.6236;
107.4000;1.3317;1.6139;
107.7000;1.3333;1.6163;
108.0000;1.3333;1.6236;
108.3000;1.3309;1.6260;
108.6000;1.3341;1.6309;
108.9000;1.3333;1.6236;
109.2000;1.3382;1.6309;
109.5000;1.3341;1.6187;
109.8000;1.3341;1.6139;
110.1000;1.3317;1.6115;
110.4000;1.3325;1.6212;
110.7000;1.3333;1.6212;
111.0000;1.3358;1.6358;
111.3000;1.3301;1.6309;
111.6000;1.3350;1.6406;
111.9000;1.3325;1.6358;
112.2000;1.3341;1.6309;
112.5000;1.3333;1.6285;
112.8000;1.3333;1.6236;
113.1000;1.3390;1.6406;
113.4000;1.3358;1.6236;
113.7000;1.3333;1.6139;
114.0000;1.3358;1.6042;
114.3000;1.3317;1.5871;
114.6000;1.3366;1.5993;
114.9000;1.3333;1.6042;
115.2000;1.3325;1.6090;
115.5000;1.3366;1.6139;
115.8000;1.3341;1.6042;
116.1000;1.3358;1.6115;
116.4000;1.3341;1.6139;
116.7000;1.3366;1.6236;
117.0000;1.3407;1.6333;
117.3000;1.3390;1.6236;
117.6000;1.3358;1.6187;
117.9000;1.3374;1.6187;
118.2000;1.3374;1.6163;
118.5000;1.3350;1.6042;
118.8000;1.3382;1.6163;
119.1000;1.3358;1.6139;
119.4000;1.3366;1.6260;
119.7000;1.3358;1.6187;
120.0000;1.3358;1.6163;
120.3000;1.3333;1.6115;
120.6000;1.3374;1.6309;
120.9000;1.3333;1.6163;
121.2000;1.3358;1.6212;
121.5000;1.3374;1.6139;
121.8000;1.3325;1.6017;
122.1000;1.3358;1.6042;
122.4000;1.3333;1.6042;
122.7000;1.3407;1.6163;
123.0000;1.3398;1.6017;
123.3000;1.3382;1.6042;
123.6000;1.3366;1.6042;
123.9000;1.3382;1.6115;
124.2000;1.3374;1.6042;
124.5000;1.3374;1.5969;
124.8000;1.3374;1.6017;
125.1000;1.3350;1.6017;
125.4000;1.3366;1.6115;
125.7000;1.3366;1.6187;
126.0000;1.3317;1.6163;
126.3000;1.3358;1.6260;
126.6000;1.3366;1.6285;
126.9000;1.3366;1.6212;
127.2000;1.3382;1.6163;
127.5000;1.3366;1.6163;
127.8000;1.3366;1.6066;
128.1000;1.3390;1.6115;
128.4000;1.3382;1.6163;
128.7000;1.3366;1.6212;
129.0000;1.3366;1.6333;
129.3000;1.3374;1.6333;
129.6000;1.3390;1.6309;
129.9000;1.3374;1.6285;
130.2000;1.3374;1.6236;
130.5000;1.3374;1.6212;
130.8000;1.3398;1.6115;
131.1000;1.3374;1.6017;
131.4000;1.3358;1.5993;
131.7000;1.3366;1.6042;
132.0000;1.3431;1.6187;
132.3000;1.3390;1.6066;
132.6000;1.3407;1.6163;
132.9000;1.3374;1.6090;
133.2000;1.3398;1.6163;
133.5000;1.3472;1.6333;
133.8000;1.3382;1.6139;
134.1000;1.3398;1.6115;
134.4000;1.3398;1.6163;
134.7000;1.3398;1.6115;
135.0000;1.3390;1.5993;
135.3000;1.3407;1.6066;
135.6000;1.3407;1.6163;
135.9000;1.3390;1.6042;
136.2000;1.3382;1.5993;
136.5000;1.3366;1.5944;
136.8000;1.3398;1.6042;
137.1000;1.3390;1.6212;
137.4000;1.3390;1.6309;
137.7000;1.3398;1.6236;
138.0000;1.3398;1.6236;
138.3000;1.3398;1.6042;
138.6000;1.3398;1.5969;
138.9000;1.3333;1.5823;
139.2000;1.3398;1.5969;
139.5000;1.3398;1.5993;
139.8000;1.3398;1.6017;
140.1000;1.3390;1.6090;
140.4000;1.3382;1.6163;
140.7000;1.3390;1.6187;
141.0000;1.3358;1.6115;
141.3000;1.3398;1.6115;
141.6000;1.3423;1.6163;
141.9000;1.3382;1.6139;
142.2000;1.3407;1.6212;
142.5000;1.3382;1.6042;
142.8000;1.3382;1.6090;
143.1000;1.3390;1.6115;
143.4000;1.3415;1.6163;
143.7000;1.3407;1.6115;
144.0000;1.3423;1.6066;
144.3000;1.3390;1.5969;
144.6000;1.3415;1.6042;
144.9000;1.3398;1.6066;
145.2000;1.3423;1.6066;
145.5000;1.3398;1.5920;
145.8000;1.3431;1.5993;
146.1000;1.3407;1.5896;
146.4000;1.3407;1.5871;
146.7000;1.3382;1.5871;
147.0000;1.3390;1.5969;
147.3000;1.3407;1.6042;
147.6000;1.3398;1.6042;
147.9000;1.3398;1.6017;
148.2000;1.3407;1.6115;
148.5000;1.3415;1.6139;
148.8000;1.3407;1.6066;
149.1000;1.3398;1.6066;
149.4000;1.3407;1.6017;
149.7000;1.3407;1.6017;
150.0000;1.3366;1.5944;
150.3000;1.3407;1.5993;
150.6000;1.3398;1.5920;
150.9000;1.3390;1.5969;
151.2000;1.3407;1.6115;
151.5000;1.3398;1.5993;
151.8000;1.3415;1.5993;
152.1000;1.3407;1.6115;
152.4000;1.3398;1.6066;
152.7000;1.3398;1.5993;
153.0000;1.3398;1.5920;
153.3000;1.3398;1.5969;
153.6000;1.3398;1.5969;
153.9000;1.3398;1.5944;
154.2000;1.3407;1.5969;
154.5000;1.3398;1.5944;
154.8000;1.3382;1.5993;
155.1000;1.3415;1.6042;
155.4000;1.3407;1.6017;
155.7000;1.3423;1.6017;
156.0000;1.3407;1.6017;
156.3000;1.3407;1.6066;
156.6000;1.3398;1.5993;
156.9000;1.3423;1.6090;
157.2000;1.3415;1.6115;
157.5000;1.3423;1.6139;
157.8000;1.3407;1.6066;
158.1000;1.3374;1.5871;
158.4000;1.3398;1.5847;
158.7000;1.3455;1.5993;
159.0000;1.3407;1.5799;
159.3000;1.3398;1.5799;
159.6000;1.3407;1.5847;
159.9000;1.3398;1.5847;
160.2000;1.3415;1.5969;
160.5000;1.3439;1.6017;
160.8000;1.3439;1.6017;
161.1000;1.3431;1.6042;
161.4000;1.3407;1.6017;
161.7000;1.3415;1.6017;
162.0000;1.3431;1.6163;
162.3000;1.3480;1.6285;
162.6000;1.3415;1.5993;
162.9000;1.3366;1.5847;
163.2000;1.3407;1.6017;
163.5000;1.3472;1.6236;
163.8000;1.3390;1.6017;
164.1000;1.3423;1.6066;
164.4000;1.3423;1.5993;
164.7000;1.3415;1.6042;
165.0000;1.3431;1.6115;
165.3000;1.3407;1.5993;
165.6000;1.3423;1.6042;
165.9000;1.3423;1.6017;
166.2000;1.3415;1.5944;
166.5000;1.3407;1.5944;
166.8000;1.3423;1.5920;
167.1000;1.3398;1.5896;
167.4000;1.3415;1.5969;
167.7000;1.3407;1.6066;
168.0000;1.3423;1.6066;
168.3000;1.3431;1.6017;
168.6000;1.3398;1.6017;
168.9000;1.3415;1.5969;
169.2000;1.3447;1.6017;
169.5000;1.3423;1.5993;
169.8000;1.3423;1.5993;
170.1000;1.3423;1.5993;
170.4000;1.3423;1.6017;
170.7000;1.3431;1.5969;
171.0000;1.3431;1.5823;
171.3000;1.3431;1.5871;
171.6000;1.3423;1.5969;
171.9000;1.3398;1.5969;
172.2000;1.3415;1.5969;
172.5000;1.3423;1.6017;
172.8000;1.3423;1.6090;
173.1000;1.3390;1.5944;
173.4000;1.3439;1.5944;
173.7000;1.3431;1.5920;
174.0000;1.3439;1.5920;
174.3000;1.3439;1.5871;
174.6000;1.3439;1.6017;
174.9000;1.3423;1.6042;
175.2000;1.3415;1.6017;
175.5000;1.3423;1.5969;
175.8000;1.3431;1.5969;
176.1000;1.3390;1.5799;
176.4000;1.3431;1.5871;
176.7000;1.3464;1.5969;
177.0000;1.3415;1.5896;
177.3000;1.3415;1.5993;
177.6000;1.3447;1.6017;
177.9000;1.3423;1.5896;
178.2000;1.3431;1.5871;
178.5000;1.3374;1.5628;
178.8000;1.3423;1.5677;
179.1000;1.3439;1.5774;
179.4000;1.3431;1.5750;
179.7000;1.3390;1.5677;
180.0000;1.3439;1.5847;
180.3000;1.3431;1.5920;
180.6000;1.3431;1.5944;
180.9000;1.3423;1.5993;
181.2000;1.3415;1.6017;
181.5000;1.3423;1.6066;
181.8000;1.3447;1.5993;
182.1000;1.3439;1.5993;
182.4000;1.3455;1.5969;
182.7000;1.3439;1.5969;
183.0000;1.3431;1.5944;
183.3000;1.3431;1.5944;
183.6000;1.3423;1.5896;
183.9000;1.3431;1.5896;
184.2000;1.3431;1.5871;
184.5000;1.3431;1.5944;
184.8000;1.3423;1.5920;
185.1000;1.3439;1.6017;
185.4000;1.3431;1.6115;
185.7000;1.3455;1.6212;
186.0000;1.3439;1.6139;
186.3000;1.3415;1.6066;
186.6000;1.3455;1.6090;
186.9000;1.3431;1.6042;
187.2000;1.3439;1.6066;
187.5000;1.3439;1.6017;
187.8000;1.3431;1.5993;
188.1000;1.3447;1.5969;
188.4000;1.3431;1.5896;
188.7000;1.3431;1.5896;
189.0000;1.3341;1.5653;
189.3000;1.3439;1.5944;
189.6000;1.3439;1.5944;
189.9000;1.3464;1.5944;
190.2000;1.3496;1.6017;
190.5000;1.3439;1.5896;
190.8000;1.3447;1.5896;
191.1000;1.3423;1.5920;
191.4000;1.3496;1.5944;
191.7000;1.3415;1.5653;
192.0000;1.3439;1.5677;
192.3000;1.3431;1.5653;
192.6000;1.3423;1.5799;
192.9000;1.3423;1.5896;
193.2000;1.3431;1.5920;
193.5000;1.3431;1.5993;
193.8000;1.3439;1.5871;
194.1000;1.3415;1.5750;
194.4000;1.3431;1.5774;
194.7000;1.3350;1.5531;
195.0000;1.3423;1.5774;
195.3000;1.3423;1.5847;
195.6000;1.3439;1.5871;
195.9000;1.3431;1.5847;
196.2000;1.3431;1.5920;
196.5000;1.3431;1.5896;
196.8000;1.3431;1.5993;
197.1000;1.3464;1.6066;
197.4000;1.3439;1.5969;
197.7000;1.3415;1.5871;
198.0000;1.3447;1.5969;
198.3000;1.3455;1.5896;
198.6000;1.3415;1.5799;
198.9000;1.3447;1.5847;
199.2000;1.3447;1.5799;
199.5000;1.3439;1.5774;
199.8000;1.3447;1.5774;
200.1000;1.3447;1.5871;
200.4000;1.3447;1.5871;
200.7000;1.3464;1.6017;
201.0000;1.3415;1.5896;
201.3000;1.3415;1.5799;
201.6000;1.3431;1.5774;
201.9000;1.3496;1.5993;
202.2000;1.3407;1.5896;
202.5000;1.3423;1.5944;
202.8000;1.3415;1.5920;
203.1000;1.3431;1.5944;
203.4000;1.3447;1.5944;
203.7000;1.3447;1.5847;
204.0000;1.3398;1.5799;
204.3000;1.3480;1.6066;
204.6000;1.3439;1.5944;
204.9000;1.3439;1.5920;
205.2000;1.3439;1.5920;
205.5000;1.3439;1.5944;
205.8000;1.3407;1.5920;
206.1000;1.3390;1.5896;
206.4000;1.3464;1.5993;
206.7000;1.3464;1.6042;
207.0000;1.3439;1.5993;
207.3000;1.3488;1.6236;
207.6000;1.3423;1.6115;
207.9000;1.3455;1.6187;
208.2000;1.3423;1.6090;
208.5000;1.3455;1.6042;
208.8000;1.3415;1.6139;
209.1000;1.3431;1.6187;
209.4000;1.3390;1.6139;
209.7000;1.3447;1.6260;
210.0000;1.3439;1.6212;
210.3000;1.3447;1.6212;
210.6000;1.3423;1.6090;
210.9000;1.3545;1.6406;
211.2000;1.3464;1.6212;
211.5000;1.3447;1.6212;
211.8000;1.3480;1.6285;
212.1000;1.3447;1.6260;
212.4000;1.3464;1.6285;
212.7000;1.3447;1.6187;
213.0000;1.3439;1.6090;
213.3000;1.3415;1.5969;
213.6000;1.3455;1.6017;
213.9000;1.3431;1.6017;
214.2000;1.3439;1.5993;
214.5000;1.3439;1.5969;
214.8000;1.3464;1.6115;
215.1000;1.3431;1.6017;
215.4000;1.3431;1.6017;
215.7000;1.3439;1.5993;
216.0000;1.3447;1.5896;
216.3000;1.3423;1.5871;
216.6000;1.3423;1.5847;
216.9000;1.3439;1.5823;
217.2000;1.3439;1.5823;
217.5000;1.3455;1.5871;
217.8000;1.3464;1.5847;
218.1000;1.3439;1.5750;
218.4000;1.3455;1.5701;
218.7000;1.3464;1.5823;
219.0000;1.3431;1.5847;
219.3000;1.3415;1.5896;
219.6000;1.3415;1.5944;
219.9000;1.3464;1.6115;
220.2000;1.3455;1.6115;
220.5000;1.3439;1.6066;
220.8000;1.3431;1.6017;
221.1000;1.3423;1.5944;
221.4000;1.3447;1.6017;
221.7000;1.3464;1.6090;
222.0000;1.3423;1.6017;
222.3000;1.3455;1.6042;
222.6000;1.3439;1.5944;
222.9000;1.3447;1.5871;
223.2000;1.3415;1.5871;
223.5000;1.3415;1.5920;
223.8000;1.3464;1.5944;
224.1000;1.3407;1.5823;
224.4000;1.3431;1.5847;
224.7000;1.3455;1.5969;
225.0000;1.3431;1.5847;
225.3000;1.3455;1.5799;
225.6000;1.3415;1.5823;
225.9000;1.3431;1.5774;
226.2000;1.3504;1.5969;
226.5000;1.3439;1.5799;
226.8000;1.3464;1.5823;
227.1000;1.3447;1.5750;
227.4000;1.3464;1.5701;
227.7000;1.3439;1.5799;
228.0000;1.3415;1.5726;
228.3000;1.3423;1.5823;
228.6000;1.3439;1.5847;
228.9000;1.3431;1.5944;
229.2000;1.3447;1.5993;
229.5000;1.3374;1.5871;
229.8000;1.3439;1.5993;
230.1000;1.3439;1.6017;
230.4000;1.3431;1.6017;
230.7000;1.3439;1.5969;
231.0000;1.3455;1.6066;
231.3000;1.3439;1.6066;
231.6000;1.3447;1.6115;
231.9000;1.3439;1.6042;
232.2000;1.3431;1.6042;
232.5000;1.3439;1.5993;
232.8000;1.3423;1.5944;
233.1000;1.3455;1.5944;
233.4000;1.3423;1.5774;
233.7000;1.3447;1.5701;
234.0000;1.3464;1.5726;
234.3000;1.3455;1.5847;
234.6000;1.3447;1.5871;
234.9000;1.3439;1.5847;
235.2000;1.3447;1.5774;
235.5000;1.3431;1.5750;
235.8000;1.3407;1.5701;
236.1000;1.3431;1.5823;
236.4000;1.3455;1.5799;
236.7000;1.3464;1.5799;
237.0000;1.3431;1.5750;
237.3000;1.3439;1.5799;
237.6000;1.3447;1.5847;
237.9000;1.3439;1.5847;
238.2000;1.3415;1.5726;
238.5000;1.3439;1.5774;
238.8000;1.3496;1.5920;
239.1000;1.3464;1.5871;
239.4000;1.3447;1.5847;
239.7000;1.3423;1.5896;
240.0000;1.3447;1.5944;
240.3000;1.3431;1.5993;
240.6000;1.3447;1.5969;
240.9000;1.3447;1.5871;
241.2000;1.3455;1.5847;
241.5000;1.3464;1.5653;
241.8000;1.3537;1.5774;
242.1000;1.3447;1.5580;
242.4000;1.3447;1.5653;
242.7000;1.3439;1.5653;
243.0000;1.3407;1.5628;
243.3000;1.3447;1.5750;
243.6000;1.3455;1.5701;
243.9000;1.3439;1.5628;
244.2000;1.3455;1.5628;
244.5000;1.3431;1.5580;
244.8000;1.3447;1.5604;
245.1000;1.3455;1.5701;
245.4000;1.3447;1.5701;
245.7000;1.3447;1.5823;
246.0000;1.3455;1.5823;
246.3000;1.3439;1.5847;
246.6000;1.3439;1.5871;
246.9000;1.3455;1.5847;
247.2000;1.3455;1.5896;
247.5000;1.3447;1.5847;
247.8000;1.3455;1.5847;
248.1000;1.3464;1.5969;
248.4000;1.3439;1.5871;
248.7000;1.3439;1.5847;
249.0000;1.3439;1.5799;
249.3000;1.3447;1.5847;
249.6000;1.3447;1.5896;
249.9000;1.3455;1.5847;
250.2000;1.3439;1.5799;
250.5000;1.3521;1.5944;
250.8000;1.3431;1.5750;
251.1000;1.3439;1.5750;
251.4000;1.3447;1.5774;
251.7000;1.3423;1.5726;
252.0000;1.3447;1.5774;
252.3000;1.3447;1.5896;
252.6000;1.3423;1.5823;
252.9000;1.3472;1.5969;
253.2000;1.3455;1.5871;
253.5000;1.3439;1.5799;
253.8000;1.3464;1.5823;
254.1000;1.3455;1.5774;
254.4000;1.3480;1.5847;
254.7000;1.3431;1.5701;
255.0000;1.3423;1.5628;
255.3000;1.3415;1.5653;
255.6000;1.3447;1.5750;
255.9000;1.3447;1.5701;
256.2000;1.3455;1.5677;
256.5000;1.3464;1.5701;
256.8000;1.3447;1.5774;
257.1000;1.3447;1.5701;
257.4000;1.3480;1.5653;
257.7000;1.3423;1.5555;
258.0000;1.3455;1.5604;
258.3000;1.3439;1.5555;
258.6000;1.3464;1.5555;
258.9000;1.3398;1.5361;
259.2000;1.3431;1.5483;
259.5000;1.3504;1.5653;
259.8000;1.3439;1.5483;
260.1000;1.3423;1.5507;
260.4000;1.3439;1.5483;
260.7000;1.3472;1.5604;
261.0000;1.3464;1.5677;
261.3000;1.3439;1.5604;
261.6000;1.3447;1.5604;
261.9000;1.3464;1.5653;
262.2000;1.3447;1.5580;
262.5000;1.3455;1.5531;
262.8000;1.3455;1.5604;
263.1000;1.3439;1.5653;
263.4000;1.3447;1.5701;
263.7000;1.3447;1.5726;
264.0000;1.3415;1.5677;
264.3000;1.3439;1.5774;
264.6000;1.3431;1.5677;
264.9000;1.3447;1.5677;
265.2000;1.3439;1.5677;
265.5000;1.3447;1.5677;
265.8000;1.3455;1.5726;
266.1000;1.3431;1.5750;
266.4000;1.3455;1.5799;
266.7000;1.3423;1.5677;
267.0000;1.3439;1.5677;
267.3000;1.3455;1.5677;
267.6000;1.3455;1.5653;
267.9000;1.3447;1.5483;
268.2000;1.3464;1.5555;
268.5000;1.3464;1.5628;
268.8000;1.3455;1.5604;
269.1000;1.3455;1.5653;
269.4000;1.3464;1.5726;
269.7000;1.3447;1.5726;
270.0000;1.3439;1.5701;
270.3000;1.3431;1.5750;
270.6000;1.3423;1.5774;
270.9000;1.3439;1.5750;
271.2000;1.3455;1.5701;
271.5000;1.3455;1.5750;
271.8000;1.3439;1.5701;
272.1000;1.3464;1.5677;
272.4000;1.3447;1.5677;
272.7000;1.3447;1.5604;
273.0000;1.3431;1.5555;
273.3000;1.3447;1.5555;
273.6000;1.3488;1.5628;
273.9000;1.3480;1.5653;
274.2000;1.3447;1.5628;
274.5000;1.3415;1.5483;
274.8000;1.3455;1.5677;
275.1000;1.3407;1.5507;
275.4000;1.3407;1.5507;
275.7000;1.3431;1.5555;
276.0000;1.3447;1.5580;
276.3000;1.3447;1.5604;
276.6000;1.3423;1.5555;
276.9000;1.3407;1.5507;
277.2000;1.3480;1.5726;
277.5000;1.3455;1.5701;
277.8000;1.3455;1.5774;
278.1000;1.3431;1.5750;
278.4000;1.3366;1.5531;
278.7000;1.3431;1.5677;
279.0000;1.3455;1.5750;
279.3000;1.3464;1.5726;
279.6000;1.3447;1.5653;
279.9000;1.3464;1.5701;
280.2000;1.3439;1.5628;
280.5000;1.3447;1.5653;
280.8000;1.3415;1.5531;
281.1000;1.3447;1.5604;
281.4000;1.3431;1.5628;
281.7000;1.3447;1.5677;
282.0000;1.3382;1.5458;
282.3000;1.3415;1.5507;
282.6000;1.3455;1.5580;
282.9000;1.3488;1.5555;
283.2000;1.3455;1.5483;
283.5000;1.3447;1.5483;
283.8000;1.3423;1.5434;
284.1000;1.3464;1.5434;
284.4000;1.3447;1.5458;
284.7000;1.3439;1.5458;
285.0000;1.3455;1.5483;
285.3000;1.3455;1.5434;
285.6000;1.3439;1.5507;
285.9000;1.3431;1.5434;
286.2000;1.3447;1.5361;
286.5000;1.3455;1.5337;
286.8000;1.3439;1.5312;
287.1000;1.3455;1.5312;
287.4000;1.3455;1.5240;
287.7000;1.3455;1.5312;
288.0000;1.3464;1.5385;
288.3000;1.3447;1.5483;
288.6000;1.3447;1.5458;
288.9000;1.3464;1.5507;
289.2000;1.3464;1.5434;
289.5000;1.3464;1.5507;
289.8000;1.3464;1.5604;
290.1000;1.3439;1.5483;
290.4000;1.3423;1.5458;
290.7000;1.3439;1.5434;
291.0000;1.3439;1.5507;
291.3000;1.3455;1.5531;
291.6000;1.3455;1.5555;
291.9000;1.3512;1.5774;
292.2000;1.3447;1.5531;
292.5000;1.3415;1.5458;
292.8000;1.3447;1.5555;
293.1000;1.3447;1.5507;
293.4000;1.3431;1.5410;
293.7000;1.3455;1.5483;
294.0000;1.3455;1.5555;
294.3000;1.3439;1.5628;
294.6000;1.3447;1.5677;
294.9000;1.3447;1.5701;
295.2000;1.3464;1.5677;
295.5000;1.3455;1.5604;
295.8000;1.3431;1.5483;
296.1000;1.3447;1.5555;
296.4000;1.3464;1.5653;
296.7000;1.3423;1.5604;
297.0000;1.3439;1.5653;
297.3000;1.3447;1.5653;
297.6000;1.3447;1.5701;
297.9000;1.3480;1.5823;
298.2000;1.3447;1.5799;
298.5000;1.3464;1.5896;
298.8000;1.3480;1.5823;
299.1000;1.3374;1.5580;
299.4000;1.3358;1.5628;
299.7000;1.3407;1.5726;
300.0000;1.3512;1.5993;
300.3000;1.3455;1.5969;
300.6000;1.3464;1.5847;
300.9000;1.3521;1.5896;
301.2000;1.3423;1.5604;
301.5000;1.3439;1.5580;
301.8000;1.3439;1.5580;
302.1000;1.3447;1.5604;
302.4000;1.3447;1.5653;
302.7000;1.3488;1.5677;
303.0000;1.3439;1.5555;
303.3000;1.3464;1.5628;
303.6000;1.3472;1.5701;
303.9000;1.3455;1.5653;
304.2000;1.3439;1.5580;
304.5000;1.3382;1.5434;
304.8000;1.3447;1.5555;
305.1000;1.3455;1.5653;
305.4000;1.3455;1.5628;
305.7000;1.3439;1.5653;
306.0000;1.3521;1.5847;
306.3000;1.3431;1.5677;
306.6000;1.3455;1.5871;
306.9000;1.3455;1.5896;
307.2000;1.3447;1.5847;
307.5000;1.3447;1.5871;
307.8000;1.3472;1.5871;
308.1000;1.3447;1.5774;
308.4000;1.3455;1.5799;
308.7000;1.3464;1.5871;
309.0000;1.3431;1.5774;
309.3000;1.3455;1.5774;
309.6000;1.3447;1.5726;
309.9000;1.3431;1.5750;
310.2000;1.3455;1.5726;
310.5000;1.3423;1.5653;
310.8000;1.3455;1.5750;
311.1000;1.3431;1.5726;
311.4000;1.3439;1.5750;
311.7000;1.3464;1.5726;
312.0000;1.3390;1.5555;
312.3000;1.3455;1.5774;
312.6000;1.3439;1.5701;
312.9000;1.3447;1.5774;
313.2000;1.3472;1.5750;
313.5000;1.3439;1.5726;
313.8000;1.3455;1.5628;
314.1000;1.3464;1.5555;
314.4000;1.3447;1.5580;
314.7000;1.3455;1.5531;
315.0000;1.3431;1.5507;
315.3000;1.3455;1.5507;
315.6000;1.3439;1.5507;
315.9000;1.3455;1.5580;
316.2000;1.3447;1.5653;
316.5000;1.3439;1.5701;
316.8000;1.3439;1.5847;
317.1000;1.3488;1.5896;
317.4000;1.3439;1.5920;
317.7000;1.3455;1.5969;
318.0000;1.3439;1.5847;
318.3000;1.3472;1.5920;
318.6000;1.3464;1.5920;
318.9000;1.3439;1.5847;
319.2000;1.3455;1.5774;
319.5000;1.3464;1.5677;
319.8000;1.3455;1.5750;
320.1000;1.3439;1.5604;
320.4000;1.3447;1.5580;
320.7000;1.3464;1.5628;
321.0000;1.3439;1.5604;
321.3000;1.3415;1.5531;
321.6000;1.3512;1.5823;
321.9000;1.3512;1.5799;
322.2000;1.3382;1.5531;
322.5000;1.3464;1.5799;
322.8000;1.3447;1.5799;
323.1000;1.3439;1.5677;
323.4000;1.3464;1.5750;
323.7000;1.3447;1.5628;
324.0000;1.3480;1.5701;
324.3000;1.3455;1.5701;
324.6000;1.3464;1.5774;
324.9000;1.3480;1.5799;
325.2000;1.3472;1.5653;
325.5000;1.3439;1.5653;
325.8000;1.3423;1.5580;
326.1000;1.3447;1.5628;
326.4000;1.3488;1.5750;
326.7000;1.3439;1.5653;
327.0000;1.3504;1.5774;
327.3000;1.3472;1.5677;
327.6000;1.3455;1.5677;
327.9000;1.3447;1.5701;
328.2000;1.3447;1.5774;
328.5000;1.3447;1.5823;
328.8000;1.3431;1.5726;
329.1000;1.3439;1.5726;
329.4000;1.3431;1.5677;
329.7000;1.3472;1.5726;
330.0000;1.3366;1.5458;
330.3000;1.3439;1.5604;
330.6000;1.3431;1.5653;
330.9000;1.3455;1.5799;
331.2000;1.3455;1.5726;
331.5000;1.3447;1.5726;
331.8000;1.3447;1.5799;
332.1000;1.3464;1.5847;
332.4000;1.3455;1.5774;
332.7000;1.3488;1.5774;
333.0000;1.3439;1.5653;
333.3000;1.3488;1.5750;
333.6000;1.3423;1.5726;
333.9000;1.3439;1.5799;
334.2000;1.3431;1.5774;
334.5000;1.3447;1.5750;
334.8000;1.3398;1.5653;
335.1000;1.3447;1.5677;
335.4000;1.3431;1.5799;
335.7000;1.3439;1.5847;
336.0000;1.3447;1.5871;
336.3000;1.3415;1.5799;
336.6000;1.3447;1.5823;
336.9000;1.3415;1.5799;
337.2000;1.3464;1.5993;
337.5000;1.3464;1.5944;
337.8000;1.3439;1.5920;
338.1000;1.3439;1.5969;
338.4000;1.3504;1.6066;
338.7000;1.3439;1.5920;
339.0000;1.3464;1.5944;
339.3000;1.3447;1.5944;
339.6000;1.3480;1.5993;
339.9000;1.3455;1.5920;
340.2000;1.3447;1.5847;
340.5000;1.3447;1.5750;
340.8000;1.3431;1.5726;
341.1000;1.3455;1.5823;
341.4000;1.3431;1.5604;
341.7000;1.3431;1.5701;
342.0000;1.3431;1.5823;
342.3000;1.3464;1.5896;
342.6000;1.3464;1.5896;
342.9000;1.3423;1.5847;
343.2000;1.3439;1.5944;
343.5000;1.3464;1.6066;
343.8000;1.3431;1.6066;
344.1000;1.3431;1.6066;
344.4000;1.3447;1.6139;
344.7000;1.3537;1.6382;
345.0000;1.3439;1.6066;
345.3000;1.3455;1.6115;
345.6000;1.3439;1.6090;
345.9000;1.3439;1.6163;
346.2000;1.3431;1.6163;
346.5000;1.3545;1.6528;
346.8000;1.3431;1.6187;
347.1000;1.3439;1.6187;
347.4000;1.3455;1.6212;
347.7000;1.3455;1.6163;
348.0000;1.3439;1.6139;
348.3000;1.3439;1.6115;
348.6000;1.3472;1.6212;
348.9000;1.3407;1.6066;
349.2000;1.3415;1.6017;
349.5000;1.3439;1.5969;
349.8000;1.3455;1.5969;
350.1000;1.3447;1.5896;
350.4000;1.3447;1.5944;
350.7000;1.3431;1.5847;
351.0000;1.3447;1.5944;
351.3000;1.3431;1.5823;
351.6000;1.3447;1.5847;
351.9000;1.3537;1.6090;
352.2000;1.3447;1.5871;
352.5000;1.3447;1.5896;
352.8000;1.3447;1.5944;
353.1000;1.3455;1.5993;
353.4000;1.3464;1.5993;
353.7000;1.3464;1.5944;
354.0000;1.3455;1.5896;
354.3000;1.3529;1.6115;
354.6000;1.3447;1.5944;
354.9000;1.3464;1.5969;
355.2000;1.3455;1.5969;
355.5000;1.3439;1.5944;
355.8000;1.3447;1.6017;
356.1000;1.3431;1.6042;
356.4000;1.3439;1.6017;
356.7000;1.3431;1.5969;
357.0000;1.3431;1.5993;
357.3000;1.3455;1.6090;
357.6000;1.3447;1.6066;
357.9000;1.3447;1.6066;
358.2000;1.3455;1.6163;
358.5000;1.3455;1.6187;
358.8000;1.3447;1.6285;
359.1000;1.3439;1.6333;
359.4000;1.3431;1.6285;
359.7000;1.3439;1.6285;
360.0000;1.3447;1.6212;
360.3000;1.3447;1.6260;
360.6000;1.3431;1.6212;
360.9000;1.3431;1.6163;
361.2000;1.3480;1.6187;
361.5000;1.3455;1.6139;
361.8000;1.3447;1.6163;
362.1000;1.3447;1.6187;
362.4000;1.3439;1.6163;
362.7000;1.3439;1.6212;
363.0000;1.3455;1.6212;
363.3000;1.3439;1.6212;
363.6000;1.3447;1.6358;
363.9000;1.3464;1.6358;
364.2000;1.3431;1.6212;
364.5000;1.3423;1.6042;
364.8000;1.3447;1.6066;
365.1000;1.3447;1.6212;
365.4000;1.3545;1.6479;
365.7000;1.3415;1.6187;
366.0000;1.3545;1.6479;
366.3000;1.3407;1.5993;
366.6000;1.3504;1.6139;
366.9000;1.3455;1.5993;
367.2000;1.3439;1.5993;
367.5000;1.3480;1.6042;
367.8000;1.3464;1.6042;
368.1000;1.3464;1.5993;
368.4000;1.3415;1.5944;
368.7000;1.3382;1.5896;
369.0000;1.3447;1.6090;
369.3000;1.3480;1.6139;
369.6000;1.3390;1.5920;
369.9000;1.3464;1.6066;
370.2000;1.3472;1.6139;
370.5000;1.3415;1.5896;
370.8000;1.3472;1.5969;
371.1000;1.3439;1.5920;
371.4000;1.3415;1.5823;
371.7000;1.3464;1.5920;
372.0000;1.3439;1.5993;
372.3000;1.3447;1.6017;
372.6000;1.3455;1.5969;
372.9000;1.3415;1.5920;
373.2000;1.3447;1.6042;
373.5000;1.3447;1.6042;
373.8000;1.3480;1.6139;
374.1000;1.3455;1.6017;
374.4000;1.3447;1.6017;
374.7000;1.3447;1.5969;
375.0000;1.3447;1.5969;
375.3000;1.3447;1.5969;
375.6000;1.3464;1.5969;
375.9000;1.3455;1.5944;
376.2000;1.3431;1.5847;
376.5000;1.3455;1.5944;
376.8000;1.3447;1.5944;
377.1000;1.3439;1.5896;
377.4000;1.3439;1.5871;
377.7000;1.3447;1.5944;
378.0000;1.3455;1.6042;
378.3000;1.3464;1.6090;
378.6000;1.3447;1.5993;
378.9000;1.3439;1.5944;
379.2000;1.3455;1.5993;
379.5000;1.3464;1.5993;
379.8000;1.3447;1.5944;
380.1000;1.3439;1.5920;
380.4000;1.3447;1.6017;
380.7000;1.3455;1.6017;
381.0000;1.3431;1.6066;
381.3000;1.3423;1.6066;
381.6000;1.3439;1.6090;
381.9000;1.3439;1.5969;
382.2000;1.3439;1.5871;
382.5000;1.3447;1.5944;
382.8000;1.3439;1.5920;
383.1000;1.3455;1.5944;
383.4000;1.3447;1.5944;
383.7000;1.3472;1.6017;
384.0000;1.3455;1.6066;
384.3000;1.3464;1.6139;
384.6000;1.3455;1.6139;
384.9000;1.3455;1.6066;
385.2000;1.3439;1.5969;
385.5000;1.3423;1.5896;
385.8000;1.3447;1.6066;
386.1000;1.3455;1.6066;
386.4000;1.3423;1.5969;
386.7000;1.3455;1.5993;
387.0000;1.3455;1.6090;
387.3000;1.3415;1.5993;
387.6000;1.3431;1.6017;
387.9000;1.3447;1.6066;
388.2000;1.3423;1.5993;
388.5000;1.3455;1.6017;
388.8000;1.3423;1.6017;
389.1000;1.3439;1.6017;
389.4000;1.3464;1.6042;
389.7000;1.3447;1.5969;
390.0000;1.3439;1.5896;
390.3000;1.3455;1.5993;
390.6000;1.3464;1.6115;
390.9000;1.3439;1.6066;
391.2000;1.3390;1.5969;
391.5000;1.3431;1.5993;
391.8000;1.3439;1.6066;
392.1000;1.3455;1.6115;
392.4000;1.3382;1.5969;
392.7000;1.3431;1.6042;
393.0000;1.3439;1.5969;
393.3000;1.3447;1.5969;
393.6000;1.3464;1.6042;
393.9000;1.3447;1.6042;
394.2000;1.3447;1.6066;
394.5000;1.3390;1.6139;
394.8000;1.3407;1.6115;
395.1000;1.3447;1.6187;
395.4000;1.3423;1.6017;
395.7000;1.3439;1.6017;
396.0000;1.3455;1.6066;
396.3000;1.3455;1.6042;
396.6000;1.3439;1.6017;
396.9000;1.3480;1.6187;
397.2000;1.3455;1.6115;
397.5000;1.3569;1.6430;
397.8000;1.3496;1.6212;
398.1000;1.3447;1.6017;
398.4000;1.3447;1.6066;
398.7000;1.3464;1.5993;
399.0000;1.3382;1.5774;
399.3000;1.3455;1.5993;
399.6000;1.3455;1.6017;
399.9000;1.3496;1.6139;
400.2000;1.3455;1.6090;
400.5000;1.3431;1.6139;
400.8000;1.3455;1.6115;
401.1000;1.3455;1.6090;
401.4000;1.3447;1.5993;
401.7000;1.3447;1.5920;
402.0000;1.3439;1.5847;
402.3000;1.3439;1.5896;
402.6000;1.3439;1.5896;
402.9000;1.3439;1.5944;
403.2000;1.3447;1.5969;
403.5000;1.3439;1.5871;
403.8000;1.3455;1.5847;
404.1000;1.3423;1.5799;
404.4000;1.3423;1.5799;
404.7000;1.3447;1.5871;
405.0000;1.3455;1.5871;
405.3000;1.3439;1.5920;
405.6000;1.3439;1.5896;
405.9000;1.3447;1.5896;
406.2000;1.3447;1.6017;
406.5000;1.3455;1.6017;
406.8000;1.3447;1.6042;
407.1000;1.3472;1.5993;
407.4000;1.3439;1.5944;
407.7000;1.3431;1.5993;
408.0000;1.3439;1.6066;
408.3000;1.3423;1.6090;
408.6000;1.3455;1.6090;
408.9000;1.3447;1.6090;
409.2000;1.3439;1.6090;
409.5000;1.3455;1.6163;
409.8000;1.3431;1.6115;
410.1000;1.3447;1.6212;
410.4000;1.3447;1.6260;
410.7000;1.3431;1.6260;
411.0000;1.3447;1.6285;
411.3000;1.3496;1.6358;
411.6000;1.3464;1.6236;
411.9000;1.3439;1.6260;
412.2000;1.3447;1.6260;
412.5000;1.3455;1.6236;
412.8000;1.3431;1.6187;
413.1000;1.3415;1.6236;
413.4000;1.3455;1.6333;
413.7000;1.3447;1.6260;
414.0000;1.3439;1.6260;
414.3000;1.3439;1.6260;
414.6000;1.3496;1.6455;
414.9000;1.3464;1.6430;
415.2000;1.3447;1.6382;
415.5000;1.3398;1.6187;
415.8000;1.3431;1.6333;
416.1000;1.3431;1.6333;
416.4000;1.3423;1.6358;
416.7000;1.3423;1.6309;
417.0000;1.3447;1.6358;
417.3000;1.3496;1.6455;
417.6000;1.3439;1.6382;
417.9000;1.3480;1.6430;
418.2000;1.3423;1.6309;
418.5000;1.3415;1.6187;
418.8000;1.3423;1.6236;
419.1000;1.3415;1.6212;
419.4000;1.3431;1.6285;
419.7000;1.3472;1.6285;
420.0000;1.3464;1.6236;
420.3000;1.3439;1.6139;
420.6000;1.3455;1.6139;
420.9000;1.3529;1.6212;
421.2000;1.3529;1.6139;
421.5000;1.3472;1.6017;
421.8000;1.3455;1.5993;
422.1000;1.3431;1.6066;
422.4000;1.3447;1.6163;
422.7000;1.3447;1.6090;
423.0000;1.3423;1.6017;
423.3000;1.3415;1.6017;
423.6000;1.3423;1.6017;
423.9000;1.3333;1.5896;
424.2000;1.3496;1.6260;
424.5000;1.3447;1.6212;
424.8000;1.3439;1.6236;
425.1000;1.3447;1.6333;
425.4000;1.3447;1.6309;
425.7000;1.3423;1.6285;
426.0000;1.3423;1.6382;
426.3000;1.3439;1.6382;
426.6000;1.3447;1.6358;
426.9000;1.3488;1.6552;
427.2000;1.3431;1.6382;
427.5000;1.3455;1.6406;
427.8000;1.3447;1.6285;
428.1000;1.3423;1.6236;
428.4000;1.3423;1.6260;
428.7000;1.3423;1.6333;
429.0000;1.3439;1.6382;
429.3000;1.3439;1.6406;
429.6000;1.3431;1.6406;
429.9000;1.3488;1.6455;
430.2000;1.3504;1.6528;
430.5000;1.3431;1.6406;
430.8000;1.3439;1.6260;
431.1000;1.3350;1.6017;
431.4000;1.3439;1.6260;
431.7000;1.3431;1.6212;
432.0000;1.3455;1.6163;
432.3000;1.3447;1.6090;
432.6000;1.3431;1.6115;
432.9000;1.3447;1.6090;
433.2000;1.3447;1.6090;
433.5000;1.3431;1.5993;
433.8000;1.3431;1.6066;
434.1000;1.3455;1.6115;
434.4000;1.3431;1.6042;
434.7000;1.3439;1.6017;
435.0000;1.3447;1.6139;
435.3000;1.3447;1.6187;
435.6000;1.3464;1.6260;
435.9000;1.3455;1.6212;
436.2000;1.3447;1.6212;
436.5000;1.3439;1.6187;
436.8000;1.3431;1.6236;
437.1000;1.3407;1.6090;
437.4000;1.3464;1.6260;
437.7000;1.3455;1.6187;
438.0000;1.3455;1.6187;
438.3000;1.3431;1.6163;
438.6000;1.3439;1.6139;
438.9000;1.3415;1.6115;
439.2000;1.3464;1.6309;
439.5000;1.3423;1.6309;
439.8000;1.3415;1.6285;
440.1000;1.3407;1.6236;
440.4000;1.3423;1.6358;
440.7000;1.3415;1.6212;
441.0000;1.3439;1.6285;
441.3000;1.3447;1.6358;
441.6000;1.3447;1.6333;
441.9000;1.3431;1.6163;
442.2000;1.3439;1.6042;
442.5000;1.3447;1.6066;
442.8000;1.3423;1.5920;
443.1000;1.3423;1.5969;
443.4000;1.3455;1.6042;
443.7000;1.3423;1.5871;
444.0000;1.3407;1.5871;
444.3000;1.3496;1.6115;
444.6000;1.3455;1.6017;
444.9000;1.3496;1.6187;
445.2000;1.3439;1.6017;
445.5000;1.3488;1.6090;
445.8000;1.3464;1.5944;
446.1000;1.3439;1.5944;
446.4000;1.3439;1.5993;
446.7000;1.3431;1.6187;
447.0000;1.3472;1.6236;
447.3000;1.3447;1.6163;
447.6000;1.3447;1.6236;
447.9000;1.3455;1.6358;
448.2000;1.3431;1.6187;
448.5000;1.3480;1.6187;
448.8000;1.3447;1.6163;
449.1000;1.3455;1.6212;
449.4000;1.3447;1.6187;
449.7000;1.3447;1.6139;
450.0000;1.3415;1.6139;
450.3000;1.3431;1.6163;
450.6000;1.3447;1.6187;
450.9000;1.3455;1.6163;
451.2000;1.3439;1.6212;
451.5000;1.3439;1.6285;
451.8000;1.3439;1.6333;
452.1000;1.3407;1.6285;
452.4000;1.3439;1.6285;
452.7000;1.3439;1.6333;
453.0000;1.3496;1.6430;
453.3000;1.3431;1.6285;
453.6000;1.3382;1.6115;
453.9000;1.3431;1.6187;
454.2000;1.3390;1.6115;
454.5000;1.3439;1.6236;
454.8000;1.3423;1.6212;
455.1000;1.3447;1.6187;
455.4000;1.3464;1.6212;
455.7000;1.3447;1.6212;
456.0000;1.3464;1.6115;
456.3000;1.3447;1.6139;
456.6000;1.3431;1.6139;
456.9000;1.3415;1.6187;
457.2000;1.3447;1.6333;
457.5000;1.3423;1.6187;
457.8000;1.3415;1.6115;
458.1000;1.3431;1.6139;
458.4000;1.3472;1.6260;
458.7000;1.3415;1.6163;
459.0000;1.3423;1.6139;
459.3000;1.3431;1.6187;
459.6000;1.3439;1.6187;
459.9000;1.3431;1.6042;
460.2000;1.3423;1.5993;
460.5000;1.3431;1.6115;
460.8000;1.3423;1.6212;
461.1000;1.3447;1.6382;
461.4000;1.3447;1.6285;
461.7000;1.3447;1.6187;
462.0000;1.3431;1.6163;
462.3000;1.3447;1.6115;
462.6000;1.3464;1.6163;
462.9000;1.3455;1.6139;
463.2000;1.3455;1.6139;
463.5000;1.3431;1.6139;
463.8000;1.3423;1.6187;
464.1000;1.3431;1.6163;
464.4000;1.3431;1.6139;
464.7000;1.3447;1.6163;
465.0000;1.3431;1.6163;
465.3000;1.3439;1.6115;
465.6000;1.3464;1.6212;
465.9000;1.3439;1.6212;
466.2000;1.3464;1.6212;
466.5000;1.3455;1.6236;
466.8000;1.3455;1.6163;
467.1000;1.3472;1.6187;
467.4000;1.3464;1.6309;
467.7000;1.3431;1.6187;
468.0000;1.3447;1.6212;
468.3000;1.3464;1.6212;
468.6000;1.3472;1.6163;
468.9000;1.3439;1.6163;
469.2000;1.3447;1.6187;
469.5000;1.3439;1.6139;
469.8000;1.3423;1.6212;
470.1000;1.3431;1.6309;
470.4000;1.3415;1.6309;
470.7000;1.3439;1.6358;
471.0000;1.3447;1.6358;
471.3000;1.3447;1.6382;
471.6000;1.3439;1.6333;
471.9000;1.3439;1.6382;
472.2000;1.3447;1.6309;
472.5000;1.3439;1.6236;
472.8000;1.3439;1.6285;
473.1000;1.3439;1.6260;
473.4000;1.3439;1.6187;
473.7000;1.3407;1.6042;
474.0000;1.3431;1.6090;
474.3000;1.3423;1.6139;
474.6000;1.3423;1.6236;
474.9000;1.3447;1.6309;
475.2000;1.3439;1.6285;
475.5000;1.3423;1.6212;
475.8000;1.3431;1.6163;
476.1000;1.3480;1.6285;
476.4000;1.3455;1.6285;
476.7000;1.3455;1.6333;
477.0000;1.3447;1.6358;
477.3000;1.3472;1.6358;
477.6000;1.3472;1.6212;
477.9000;1.3447;1.6212;
478.2000;1.3439;1.6066;
478.5000;1.3455;1.6066;
478.8000;1.3455;1.6066;
479.1000;1.3431;1.6139;
479.4000;1.3415;1.5969;
479.7000;1.3464;1.6139;
480.0000;1.3439;1.6066;
480.3000;1.3464;1.6139;
480.6000;1.3431;1.6139;
480.9000;1.3415;1.6187;
481.2000;1.3447;1.6187;
481.5000;1.3447;1.6139;
481.8000;1.3447;1.6163;
482.1000;1.3439;1.6090;
482.4000;1.3447;1.6139;
482.7000;1.3398;1.6042;
483.0000;1.3407;1.6090;
483.3000;1.3447;1.6260;
483.6000;1.3439;1.6236;
483.9000;1.3455;1.6309;
484.2000;1.3431;1.6285;
484.5000;1.3439;1.6212;
484.8000;1.3431;1.6066;
485.1000;1.3464;1.6115;
485.4000;1.3439;1.6115;
485.7000;1.3374;1.5920;
486.0000;1.3439;1.6139;
486.3000;1.3480;1.6260;
486.6000;1.3358;1.5969;
486.9000;1.3472;1.6309;
487.2000;1.3431;1.6163;
487.5000;1.3488;1.6212;
487.8000;1.3398;1.5969;
488.1000;1.3398;1.5823;
488.4000;1.3431;1.5823;
488.7000;1.3423;1.5847;
489.0000;1.3455;1.5823;
489.3000;1.3431;1.5871;
489.6000;1.3439;1.5969;
489.9000;1.3439;1.5993;
490.2000;1.3439;1.6017;
490.5000;1.3455;1.6042;
490.8000;1.3423;1.6090;
491.1000;1.3447;1.6115;
491.4000;1.3447;1.6139;
491.7000;1.3447;1.6066;
492.0000;1.3439;1.6042;
492.3000;1.3431;1.5847;
492.6000;1.3439;1.5896;
492.9000;1.3455;1.5920;
493.2000;1.3439;1.5944;
493.5000;1.3398;1.5823;
493.8000;1.3447;1.5920;
494.1000;1.3423;1.5896;
494.4000;1.3439;1.5944;
494.7000;1.3439;1.5969;
495.0000;1.3431;1.5969;
495.3000;1.3439;1.6017;
495.6000;1.3447;1.6017;
495.9000;1.3431;1.5993;
496.2000;1.3439;1.5993;
496.5000;1.3447;1.5969;
496.8000;1.3423;1.6017;
497.1000;1.3431;1.6017;
497.4000;1.3431;1.5969;
497.7000;1.3415;1.6042;
498.0000;1.3439;1.5993;
498.3000;1.3423;1.5969;
498.6000;1.3431;1.5969;
498.9000;1.3464;1.6017;
499.2000;1.3447;1.6042;
499.5000;1.3439;1.6066;
499.8000;1.3431;1.5993;
500.1000;1.3431;1.5871;
500.4000;1.3431;1.5944;
500.7000;1.3439;1.6090;
501.0000;1.3439;1.5944;
501.3000;1.3423;1.5920;
501.6000;1.3439;1.5944;
501.9000;1.3439;1.5969;
502.2000;1.3447;1.6042;
502.5000;1.3439;1.6042;
502.8000;1.3439;1.5969;
503.1000;1.3447;1.6017;
503.4000;1.3431;1.6042;
503.7000;1.3488;1.6260;
504.0000;1.3423;1.6163;
504.3000;1.3447;1.6187;
504.6000;1.3431;1.6163;
504.9000;1.3431;1.6187;
505.2000;1.3439;1.6163;
505.5000;1.3447;1.6187;
505.8000;1.3447;1.6187;
506.1000;1.3431;1.6066;
506.4000;1.3415;1.5993;
506.7000;1.3447;1.5993;
507.0000;1.3447;1.5969;
507.3000;1.3439;1.5993;
507.6000;1.3431;1.6017;
507.9000;1.3431;1.6042;
508.2000;1.3439;1.6042;
508.5000;1.3374;1.5896;
508.8000;1.3423;1.6066;
509.1000;1.3382;1.5944;
509.4000;1.3512;1.6333;
509.7000;1.3447;1.6115;
510.0000;1.3447;1.6139;
510.3000;1.3415;1.6017;
510.6000;1.3464;1.6042;
510.9000;1.3455;1.6042;
511.2000;1.3455;1.5944;
511.5000;1.3439;1.5847;
511.8000;1.3455;1.5896;
512.1000;1.3439;1.5920;
512.4000;1.3447;1.5920;
512.7000;1.3431;1.5871;
513.0000;1.3431;1.5920;
513.3000;1.3439;1.5920;
513.6000;1.3423;1.5920;
513.9000;1.3439;1.5993;
514.2000;1.3439;1.5993;
514.5000;1.3390;1.5896;
514.8000;1.3431;1.6017;
515.1000;1.3537;1.6212;
515.4000;1.3447;1.5969;
515.7000;1.3423;1.5920;
516.0000;1.3431;1.5871;
516.3000;1.3407;1.5774;
516.6000;1.3455;1.5944;
516.9000;1.3439;1.6017;
517.2000;1.3431;1.5993;
517.5000;1.3415;1.5993;
517.8000;1.3496;1.6260;
518.1000;1.3366;1.5944;
518.4000;1.3415;1.6042;
518.7000;1.3423;1.5944;
519.0000;1.3439;1.6042;
519.3000;1.3431;1.6017;
519.6000;1.3415;1.5799;
519.9000;1.3398;1.5677;
520.2000;1.3415;1.5750;
520.5000;1.3472;1.5823;
520.8000;1.3431;1.5774;
521.1000;1.3358;1.5701;
521.4000;1.3423;1.5896;
521.7000;1.3472;1.5969;
522.0000;1.3423;1.5847;
522.3000;1.3439;1.5896;
522.6000;1.3439;1.5871;
522.9000;1.3431;1.5847;
523.2000;1.3439;1.5823;
523.5000;1.3496;1.6090;
523.8000;1.3455;1.5993;
524.1000;1.3431;1.5896;
524.4000;1.3431;1.5920;
524.7000;1.3398;1.5944;
525.0000;1.3439;1.5944;
525.3000;1.3423;1.5944;
525.6000;1.3431;1.5944;
525.9000;1.3439;1.5896;
526.2000;1.3439;1.5969;
526.5000;1.3423;1.5799;
526.8000;1.3415;1.5799;
527.1000;1.3423;1.5896;
527.4000;1.3439;1.5896;
527.7000;1.3439;1.5799;
528.0000;1.3439;1.5799;
528.3000;1.3431;1.5823;
528.6000;1.3447;1.5896;
528.9000;1.3439;1.5920;
529.2000;1.3374;1.5774;
529.5000;1.3447;1.5871;
529.8000;1.3407;1.5799;
530.1000;1.3464;1.5969;
530.4000;1.3423;1.5847;
530.7000;1.3439;1.5871;
531.0000;1.3431;1.5799;
531.3000;1.3431;1.5750;
531.6000;1.3423;1.5701;
531.9000;1.3439;1.5799;
532.2000;1.3415;1.5774;
532.5000;1.3423;1.5750;
532.8000;1.3407;1.5726;
533.1000;1.3431;1.5750;
533.4000;1.3423;1.5750;
533.7000;1.3431;1.5823;
534.0000;1.3431;1.5799;
534.3000;1.3439;1.5847;
534.6000;1.3415;1.5799;
534.9000;1.3423;1.5774;
535.2000;1.3431;1.5750;
535.5000;1.3439;1.5774;
535.8000;1.3423;1.5799;
536.1000;1.3431;1.5847;
536.4000;1.3415;1.5750;
536.7000;1.3431;1.5799;
537.0000;1.3423;1.5847;
537.3000;1.3439;1.5944;
537.6000;1.3431;1.5944;
537.9000;1.3407;1.5823;
538.2000;1.3431;1.5871;
538.5000;1.3415;1.5774;
538.8000;1.3439;1.5871;
539.1000;1.3431;1.5871;
539.4000;1.3415;1.5920;
539.7000;1.3415;1.6017;
540.0000;1.3415;1.5969;
540.3000;1.3415;1.5896;
540.6000;1.3415;1.5896;
540.9000;1.3423;1.5993;
541.2000;1.3423;1.6090;
541.5000;1.3415;1.6017;
541.8000;1.3407;1.6017;
542.1000;1.3398;1.6090;
542.4000;1.3431;1.6187;
542.7000;1.3407;1.6066;
543.0000;1.3415;1.6066;
543.3000;1.3423;1.6066;
543.6000;1.3398;1.6090;
543.9000;1.3423;1.6187;
544.2000;1.3407;1.6139;
544.5000;1.3415;1.6139;
544.8000;1.3423;1.6115;
545.1000;1.3423;1.6115;
545.4000;1.3415;1.6187;
545.7000;1.3455;1.6333;
546.0000;1.3431;1.6309;
546.3000;1.3431;1.6260;
546.6000;1.3431;1.6163;
546.9000;1.3398;1.6042;
547.2000;1.3350;1.5944;
547.5000;1.3431;1.6139;
547.8000;1.3472;1.6285;
548.1000;1.3439;1.6236;
548.4000;1.3415;1.6163;
548.7000;1.3423;1.6115;
549.0000;1.3439;1.6115;
549.3000;1.3423;1.6187;
549.6000;1.3407;1.6187;
549.9000;1.3439;1.6212;
550.2000;1.3415;1.6139;
550.5000;1.3415;1.6090;
550.8000;1.3423;1.6066;
551.1000;1.3423;1.6066;
551.4000;1.3431;1.6017;
551.7000;1.3423;1.5993;
552.0000;1.3431;1.5969;
552.3000;1.3464;1.6066;
552.6000;1.3431;1.6017;
552.9000;1.3488;1.6115;
553.2000;1.3423;1.5993;
553.5000;1.3423;1.5969;
553.8000;1.3407;1.5920;
554.1000;1.3431;1.5993;
554.4000;1.3415;1.6017;
554.7000;1.3407;1.5993;
555.0000;1.3382;1.5920;
555.3000;1.3431;1.5993;
555.6000;1.3431;1.5920;
555.9000;1.3407;1.5871;
556.2000;1.3415;1.5799;
556.5000;1.3423;1.5750;
556.8000;1.3431;1.5774;
557.1000;1.3439;1.5871;
557.4000;1.3415;1.6017;
557.7000;1.3415;1.5993;
558.0000;1.3447;1.6017;
558.3000;1.3423;1.5944;
558.6000;1.3439;1.6042;
558.9000;1.3455;1.6115;
559.2000;1.3439;1.6090;
559.5000;1.3390;1.5896;
559.8000;1.3423;1.6017;
560.1000;1.3431;1.6090;
560.4000;1.3504;1.6285;
560.7000;1.3423;1.6042;
561.0000;1.3439;1.6042;
561.3000;1.3374;1.5847;
561.6000;1.3431;1.5969;
561.9000;1.3431;1.5969;
562.2000;1.3423;1.5969;
562.5000;1.3415;1.5944;
562.8000;1.3423;1.5896;
563.1000;1.3415;1.5896;
563.4000;1.3423;1.5920;
563.7000;1.3423;1.5847;
564.0000;1.3455;1.5969;
564.3000;1.3439;1.5944;
564.6000;1.3423;1.5920;
564.9000;1.3431;1.5920;
565.2000;1.3382;1.5799;
565.5000;1.3431;1.5993;
565.8000;1.3447;1.5993;
566.1000;1.3407;1.5799;
566.4000;1.3431;1.5969;
566.7000;1.3431;1.6042;
567.0000;1.3464;1.6163;
567.3000;1.3415;1.6066;
567.6000;1.3398;1.6042;
567.9000;1.3431;1.6115;
568.2000;1.3415;1.6017;
568.5000;1.3423;1.6066;
568.8000;1.3472;1.6236;
569.1000;1.3390;1.6042;
569.4000;1.3431;1.6139;
569.7000;1.3415;1.6090;
570.0000;1.3407;1.6163;
570.3000;1.3447;1.6139;
570.6000;1.3431;1.6115;
570.9000;1.3431;1.6090;
571.2000;1.3407;1.6066;
571.5000;1.3423;1.6115;
571.8000;1.3439;1.6163;
572.1000;1.3398;1.5944;
572.4000;1.3431;1.6066;
572.7000;1.3447;1.6163;
573.0000;1.3447;1.6187;
573.3000;1.3472;1.6236;
573.6000;1.3529;1.6358;
573.9000;1.3423;1.6090;
574.2000;1.3407;1.5993;
574.5000;1.3407;1.5993;
574.8000;1.3431;1.6090;
575.1000;1.3423;1.6017;
575.4000;1.3415;1.6042;
575.7000;1.3407;1.5993;
576.0000;1.3398;1.5993;
576.3000;1.3407;1.5993;
576.6000;1.3390;1.5871;
576.9000;1.3366;1.5823;
577.2000;1.3415;1.5896;
577.5000;1.3341;1.5750;
577.8000;1.3382;1.5969;
578.1000;1.3439;1.6115;
578.4000;1.3423;1.6066;
578.7000;1.3415;1.5993;
579.0000;1.3415;1.6017;
579.3000;1.3415;1.5944;
579.6000;1.3423;1.5969;
579.9000;1.3407;1.5920;
580.2000;1.3390;1.5896;
580.5000;1.3423;1.6066;
580.8000;1.3439;1.6066;
581.1000;1.3407;1.5969;
581.4000;1.3382;1.5920;
581.7000;1.3431;1.5993;
582.0000;1.3423;1.5944;
582.3000;1.3382;1.5896;
582.6000;1.3407;1.6042;
582.9000;1.3415;1.6066;
583.2000;1.3415;1.6042;
583.5000;1.3431;1.6066;
583.8000;1.3390;1.6017;
584.1000;1.3398;1.6017;
584.4000;1.3390;1.6090;
584.7000;1.3423;1.6163;
585.0000;1.3407;1.6139;
585.3000;1.3407;1.6090;
585.6000;1.3398;1.6066;
585.9000;1.3398;1.6042;
586.2000;1.3439;1.6042;
586.5000;1.3415;1.5896;
586.8000;1.3415;1.5823;
587.1000;1.3415;1.5871;
587.4000;1.3390;1.5871;
587.7000;1.3398;1.5969;
588.0000;1.3423;1.6042;
588.3000;1.3415;1.6017;
588.6000;1.3415;1.6017;
588.9000;1.3415;1.6115;
589.2000;1.3423;1.6017;
589.5000;1.3431;1.5969;
589.8000;1.3423;1.5993;
590.1000;1.3423;1.5993;
590.4000;1.3407;1.5969;
590.7000;1.3423;1.6042;
591.0000;1.3423;1.5993;
591.3000;1.3415;1.5969;
591.6000;1.3407;1.5920;
591.9000;1.3431;1.5896;
592.2000;1.3431;1.5871;
592.5000;1.3447;1.5896;
592.8000;1.3472;1.5993;
593.1000;1.3439;1.5944;
593.4000;1.3447;1.5944;
593.7000;1.3366;1.5750;
594.0000;1.3447;1.6017;
594.3000;1.3447;1.6042;
594.6000;1.3455;1.6042;
594.9000;1.3431;1.5920;
595.2000;1.3407;1.5871;
595.5000;1.3390;1.5920;
595.8000;1.3407;1.5944;
596.1000;1.3415;1.5799;
596.4000;1.3415;1.5774;
596.7000;1.3382;1.5847;
597.0000;1.3398;1.6042;
597.3000;1.3415;1.6139;
597.6000;1.3431;1.6139;
597.9000;1.3407;1.6042;
598.2000;1.3464;1.6139;
598.5000;1.3407;1.5920;
598.8000;1.3407;1.5993;
599.1000;1.3398;1.5993;
599.4000;1.3431;1.6017;
599.7000;1.3415;1.5896;
600.0000;1.3415;1.5871;
600.3000;1.3398;1.5774;
600.6000;1.3309;1.5531;
600.9000;1.3268;1.5434;
601.2000;1.3097;1.5191;
601.5000;1.3008;1.4996;
601.8000;1.2877;1.4778;
602.1000;1.2707;1.4486;
602.4000;1.2698;1.4559;
602.7000;1.2479;1.4170;
603.0000;1.2381;1.4146;
603.3000;1.2283;1.3927;
603.6000;1.2186;1.3805;
603.9000;1.2072;1.3611;
604.2000;1.1982;1.3368;
604.5000;1.1893;1.3271;
604.8000;1.1852;1.3271;
605.1000;1.1738;1.3149;
605.4000;1.1640;1.3076;
605.7000;1.1591;1.3174;
606.0000;1.1502;1.3003;
606.3000;1.1429;1.2858;
606.6000;1.1355;1.2809;
606.9000;1.1290;1.2712;
607.2000;1.1217;1.2615;
607.5000;1.1168;1.2615;
607.8000;1.1079;1.2590;
608.1000;1.1013;1.2517;
608.4000;1.0981;1.2566;
608.7000;1.0932;1.2517;
609.0000;1.0875;1.2493;
609.3000;1.0851;1.2469;
609.6000;1.0753;1.2396;
609.9000;1.0712;1.2420;
610.2000;1.0680;1.2444;
610.5000;1.0631;1.2396;
610.8000;1.0566;1.2323;
611.1000;1.0509;1.2299;
611.4000;1.0476;1.2347;
611.7000;1.0452;1.2493;
612.0000;1.0379;1.2299;
612.3000;1.0338;1.2250;
612.6000;1.0330;1.2323;
612.9000;1.0281;1.2299;
613.2000;1.0216;1.2274;
613.5000;1.0175;1.2323;
613.8000;1.0159;1.2250;
614.1000;1.0061;1.1983;
614.4000;1.0094;1.2128;
614.7000;1.0028;1.2104;
615.0000;1.0012;1.2080;
615.3000;0.9963;1.2055;
615.6000;0.9923;1.1958;
615.9000;0.9874;1.1861;
616.2000;0.9858;1.1958;
616.5000;0.9833;1.1910;
616.8000;0.9825;1.1910;
617.1000;0.9768;1.1764;
617.4000;0.9719;1.1788;
617.7000;0.9662;1.1715;
618.0000;0.9654;1.1715;
618.3000;0.9638;1.1740;
618.6000;0.9605;1.1642;
618.9000;0.9589;1.1618;
619.2000;0.9516;1.1521;
619.5000;0.9524;1.1569;
619.8000;0.9491;1.1545;
620.1000;0.9459;1.1496;
620.4000;0.9434;1.1545;
620.7000;0.9410;1.1569;
621.0000;0.9369;1.1521;
621.3000;0.9353;1.1521;
621.6000;0.9312;1.1496;
621.9000;0.9288;1.1569;
622.2000;0.9263;1.1642;
622.5000;0.9280;1.1910;
622.8000;0.9223;1.1910;
623.1000;0.9214;1.1885;
623.4000;0.9166;1.1715;
623.7000;0.9158;1.1837;
624.0000;0.9141;1.1861;
624.3000;0.9109;1.1861;
624.6000;0.9044;1.1715;
624.9000;0.9052;1.1764;
625.2000;0.9060;1.1667;
625.5000;0.9084;1.1740;
625.8000;0.9011;1.1691;
626.1000;0.8987;1.1691;
626.4000;0.8978;1.1691;
626.7000;0.8954;1.1691;
627.0000;0.8897;1.1569;
627.3000;0.8930;1.1740;
627.6000;0.8897;1.1691;
627.9000;0.8807;1.1740;
628.2000;0.8856;1.1958;
628.5000;0.8799;1.1885;
628.8000;0.8881;1.2007;
629.1000;0.8824;1.1958;
629.4000;0.8816;1.1934;
629.7000;0.8783;1.1764;
630.0000;0.8759;1.1740;
630.3000;0.8767;1.1764;
630.6000;0.8759;1.1788;
630.9000;0.8694;1.1667;
631.2000;0.8694;1.1667;
631.5000;0.8694;1.1618;
631.8000;0.8685;1.1715;
632.1000;0.8653;1.1642;
632.4000;0.8694;1.1642;
632.7000;0.8620;1.1496;
633.0000;0.8620;1.1351;
633.3000;0.8514;1.1108;
633.6000;0.8580;1.1351;
633.9000;0.8588;1.1351;
634.2000;0.8571;1.1326;
634.5000;0.8539;1.1253;
634.8000;0.8547;1.1302;
635.1000;0.8506;1.1326;
635.4000;0.8474;1.1302;
635.7000;0.8498;1.1521;
636.0000;0.8482;1.1496;
636.3000;0.8474;1.1448;
636.6000;0.8457;1.1496;
636.9000;0.8449;1.1545;
637.2000;0.8368;1.1399;
637.5000;0.8409;1.1496;
637.8000;0.8417;1.1521;
638.1000;0.8400;1.1472;
638.4000;0.8400;1.1521;
638.7000;0.8376;1.1618;
639.0000;0.8352;1.1545;
639.3000;0.8368;1.1594;
639.6000;0.8360;1.1569;
639.9000;0.8344;1.1496;
640.2000;0.8319;1.1521;
640.5000;0.8311;1.1521;
640.8000;0.8303;1.1496;
641.1000;0.8295;1.1448;
641.4000;0.8278;1.1399;
641.7000;0.8262;1.1399;
642.0000;0.8262;1.1424;
642.3000;0.8254;1.1448;
642.6000;0.8246;1.1351;
642.9000;0.8230;1.1326;
643.2000;0.8221;1.1472;
643.5000;0.8189;1.1496;
643.8000;0.8132;1.1424;
644.1000;0.8238;1.1812;
644.4000;0.8189;1.1691;
644.7000;0.8156;1.1569;
645.0000;0.8091;1.1521;
645.3000;0.8173;1.1788;
645.6000;0.8173;1.1764;
645.9000;0.8067;1.1521;
646.2000;0.8132;1.1642;
646.5000;0.8124;1.1545;
646.8000;0.8116;1.1521;
647.1000;0.8042;1.1375;
647.4000;0.8067;1.1472;
647.7000;0.8018;1.1375;
648.0000;0.8083;1.1545;
648.3000;0.8059;1.1521;
648.6000;0.8067;1.1618;
648.9000;0.8075;1.1667;
649.2000;0.8034;1.1667;
649.5000;0.8067;1.1715;
649.8000;0.8050;1.1764;
650.1000;0.8034;1.1788;
650.4000;0.8010;1.1715;
650.7000;0.7993;1.1642;
651.0000;0.7953;1.1545;
651.3000;0.7993;1.1667;
651.6000;0.7969;1.1667;
651.9000;0.7969;1.1691;
652.2000;0.7896;1.1545;
652.5000;0.7969;1.1691;
652.8000;0.7961;1.1667;
653.1000;0.7912;1.1594;
653.4000;0.8042;1.1861;
653.7000;0.7896;1.1496;
654.0000;0.7839;1.1399;
654.3000;0.7928;1.1545;
654.6000;0.7920;1.1521;
654.9000;0.7904;1.1472;
655.2000;0.7896;1.1496;
655.5000;0.7896;1.1496;
655.8000;0.7880;1.1472;
656.1000;0.7888;1.1569;
656.4000;0.7871;1.1594;
656.7000;0.7847;1.1545;
657.0000;0.7831;1.1448;
657.3000;0.7847;1.1545;
657.6000;0.7839;1.1545;
657.9000;0.7847;1.1691;
658.2000;0.7806;1.1642;
658.5000;0.7823;1.1715;
658.8000;0.7814;1.1642;
659.1000;0.7814;1.1691;
659.4000;0.7806;1.1667;
659.7000;0.7790;1.1667;
660.0000;0.7814;1.1691;
660.3000;0.7790;1.1618;
660.6000;0.7774;1.1472;
660.9000;0.7774;1.1521;
661.2000;0.7782;1.1569;
661.5000;0.7766;1.1569;
661.8000;0.7766;1.1618;
662.1000;0.7806;1.1715;
662.4000;0.7741;1.1496;
662.7000;0.7741;1.1496;
663.0000;0.7733;1.1521;
663.3000;0.7725;1.1496;
663.6000;0.7749;1.1545;
663.9000;0.7733;1.1472;
664.2000;0.7717;1.1399;
664.5000;0.7725;1.1448;
664.8000;0.7709;1.1278;
665.1000;0.7692;1.1278;
665.4000;0.7700;1.1472;
665.7000;0.7692;1.1569;
666.0000;0.7700;1.1594;
666.3000;0.7692;1.1594;
666.6000;0.7676;1.1618;
666.9000;0.7627;1.1521;
667.2000;0.7684;1.1691;
667.5000;0.7643;1.1545;
667.8000;0.7652;1.1545;
668.1000;0.7635;1.1424;
668.4000;0.7619;1.1326;
668.7000;0.7635;1.1351;
669.0000;0.7554;1.1156;
669.3000;0.7619;1.1448;
669.6000;0.7652;1.1569;
669.9000;0.7660;1.1569;
670.2000;0.7619;1.1399;
670.5000;0.7578;1.1375;
670.8000;0.7578;1.1278;
671.1000;0.7586;1.1229;
671.4000;0.7497;1.1083;
671.7000;0.7611;1.1375;
672.0000;0.7603;1.1424;
672.3000;0.7578;1.1278;
672.6000;0.7603;1.1448;
672.9000;0.7538;1.1424;
673.2000;0.7570;1.1521;
673.5000;0.7562;1.1424;
673.8000;0.7562;1.1375;
674.1000;0.7578;1.1472;
674.4000;0.7538;1.1424;
674.7000;0.7530;1.1472;
675.0000;0.7538;1.1424;
675.3000;0.7538;1.1448;
675.6000;0.7586;1.1594;
675.9000;0.7530;1.1424;
676.2000;0.7595;1.1569;
676.5000;0.7538;1.1375;
676.8000;0.7538;1.1326;
677.1000;0.7513;1.1278;
677.4000;0.7464;1.1132;
677.7000;0.7505;1.1351;
678.0000;0.7497;1.1326;
678.3000;0.7489;1.1278;
678.6000;0.7489;1.1326;
678.9000;0.7473;1.1351;
679.2000;0.7456;1.1253;
679.5000;0.7578;1.1618;
679.8000;0.7456;1.1448;
680.1000;0.7456;1.1521;
680.4000;0.7481;1.1569;
680.7000;0.7481;1.1545;
681.0000;0.7464;1.1472;
681.3000;0.7456;1.1424;
681.6000;0.7440;1.1424;
681.9000;0.7424;1.1472;
682.2000;0.7432;1.1472;
682.5000;0.7424;1.1351;
682.8000;0.7440;1.1351;
683.1000;0.7407;1.1278;
683.4000;0.7407;1.1351;
683.7000;0.7432;1.1448;
684.0000;0.7440;1.1496;
684.3000;0.7424;1.1618;
684.6000;0.7416;1.1667;
684.9000;0.7416;1.1667;
685.2000;0.7489;1.1861;
685.5000;0.7399;1.1618;
685.8000;0.7399;1.1618;
686.1000;0.7432;1.1667;
686.4000;0.7399;1.1642;
686.7000;0.7432;1.1715;
687.0000;0.7383;1.1594;
687.3000;0.7342;1.1569;
687.6000;0.7367;1.1642;
687.9000;0.7391;1.1642;
688.2000;0.7342;1.1545;
688.5000;0.7367;1.1521;
688.8000;0.7334;1.1424;
689.1000;0.7326;1.1351;
689.4000;0.7367;1.1424;
689.7000;0.7359;1.1302;
690.0000;0.7342;1.1302;
690.3000;0.7359;1.1326;
690.6000;0.7342;1.1326;
690.9000;0.7334;1.1302;
691.2000;0.7326;1.1326;
691.5000;0.7326;1.1326;
691.8000;0.7383;1.1399;
692.1000;0.7302;1.1375;
692.4000;0.7318;1.1399;
692.7000;0.7293;1.1375;
693.0000;0.7318;1.1472;
693.3000;0.7359;1.1545;
693.6000;0.7293;1.1472;
693.9000;0.7310;1.1399;
694.2000;0.7350;1.1472;
694.5000;0.7302;1.1375;
694.8000;0.7334;1.1521;
695.1000;0.7269;1.1448;
695.4000;0.7269;1.1448;
695.7000;0.7310;1.1521;
696.0000;0.7277;1.1472;
696.3000;0.7318;1.1618;
696.6000;0.7277;1.1569;
696.9000;0.7285;1.1594;
697.2000;0.7318;1.1496;
697.5000;0.7204;1.1205;
697.8000;0.7277;1.1399;
698.1000;0.7261;1.1399;
698.4000;0.7212;1.1326;
698.7000;0.7261;1.1448;
699.0000;0.7245;1.1424;
699.3000;0.7245;1.1472;
699.6000;0.7228;1.1399;
699.9000;0.7285;1.1448;
700.2000;0.7228;1.1351;
700.5000;0.7228;1.1375;
700.8000;0.7228;1.1375;
701.1000;0.7245;1.1399;
701.4000;0.7253;1.1472;
701.7000;0.7245;1.1521;
702.0000;0.7253;1.1594;
702.3000;0.7171;1.1375;
702.6000;0.7220;1.1448;
702.9000;0.7245;1.1399;
703.2000;0.7228;1.1424;
703.5000;0.7212;1.1375;
703.8000;0.7220;1.1424;
704.1000;0.7212;1.1448;
704.4000;0.7220;1.1496;
704.7000;0.7236;1.1569;
705.0000;0.7196;1.1521;
705.3000;0.7212;1.1521;
705.6000;0.7188;1.1545;
705.9000;0.7196;1.1569;
706.2000;0.7188;1.1545;
706.5000;0.7212;1.1618;
706.8000;0.7171;1.1545;
707.1000;0.7212;1.1642;
707.4000;0.7163;1.1472;
707.7000;0.7179;1.1496;
708.0000;0.7196;1.1569;
708.3000;0.7188;1.1569;
708.6000;0.7196;1.1569;
708.9000;0.7179;1.1545;
709.2000;0.7147;1.1448;
709.5000;0.7171;1.1521;
709.8000;0.7188;1.1594;
710.1000;0.7163;1.1496;
710.4000;0.7147;1.1448;
710.7000;0.7179;1.1521;
711.0000;0.7147;1.1399;
711.3000;0.7179;1.1521;
711.6000;0.7196;1.1569;
711.9000;0.7139;1.1424;
712.2000;0.7188;1.1496;
712.5000;0.7147;1.1448;
712.8000;0.7155;1.1448;
713.1000;0.7163;1.1399;
713.4000;0.7155;1.1448;
713.7000;0.7147;1.1496;
714.0000;0.7123;1.1375;
714.3000;0.7114;1.1448;
714.6000;0.7139;1.1448;
714.9000;0.7131;1.1399;
715.2000;0.7090;1.1253;
715.5000;0.7131;1.1351;
715.8000;0.7139;1.1521;
716.1000;0.7131;1.1521;
716.4000;0.7106;1.1545;
716.7000;0.7123;1.1618;
717.0000;0.7123;1.1618;
717.3000;0.7114;1.1642;
717.6000;0.7123;1.1642;
717.9000;0.7114;1.1691;
718.2000;0.7074;1.1521;
718.5000;0.7123;1.1618;
718.8000;0.7098;1.1521;
719.1000;0.7106;1.1569;
719.4000;0.7123;1.1594;
719.7000;0.7098;1.1545;
720.0000;0.7090;1.1545;
720.3000;0.7082;1.1569;
720.6000;0.7082;1.1618;
720.9000;0.7106;1.1740;
721.2000;0.7074;1.1740;
721.5000;0.7049;1.1594;
721.8000;0.7074;1.1618;
722.1000;0.7074;1.1569;
722.4000;0.7163;1.1837;
722.7000;0.7074;1.1715;
723.0000;0.7074;1.1715;
723.3000;0.7123;1.1812;
723.6000;0.7082;1.1715;
723.9000;0.7057;1.1642;
724.2000;0.7066;1.1691;
724.5000;0.7074;1.1642;
724.8000;0.7057;1.1691;
725.1000;0.7057;1.1618;
725.4000;0.7049;1.1691;
725.7000;0.7041;1.1618;
726.0000;0.7057;1.1545;
726.3000;0.7049;1.1521;
726.6000;0.7049;1.1496;
726.9000;0.7057;1.1594;
727.2000;0.7057;1.1642;
727.5000;0.7041;1.1642;
727.8000;0.7041;1.1545;
728.1000;0.7033;1.1521;
728.4000;0.7033;1.1569;
728.7000;0.7041;1.1618;
729.0000;0.7033;1.1691;
729.3000;0.7033;1.1618;
729.6000;0.7057;1.1788;
729.9000;0.7041;1.1812;
730.2000;0.7049;1.1885;
730.5000;0.7009;1.1691;
730.8000;0.7000;1.1667;
731.1000;0.6992;1.1618;
731.4000;0.7033;1.1618;
731.7000;0.7025;1.1594;
732.0000;0.7033;1.1667;
732.3000;0.7017;1.1594;
732.6000;0.7017;1.1496;
732.9000;0.7025;1.1496;
733.2000;0.7009;1.1448;
733.5000;0.6976;1.1424;
733.8000;0.7000;1.1424;
734.1000;0.7017;1.1496;
734.4000;0.7017;1.1569;
734.7000;0.6911;1.1351;
735.0000;0.7009;1.1521;
735.3000;0.7025;1.1448;
735.6000;0.7017;1.1521;
735.9000;0.7000;1.1545;
736.2000;0.7025;1.1545;
736.5000;0.6992;1.1496;
736.8000;0.6992;1.1594;
737.1000;0.6992;1.1691;
737.4000;0.7000;1.1691;
737.7000;0.7000;1.1667;
738.0000;0.6984;1.1642;
738.3000;0.6976;1.1545;
738.6000;0.6976;1.1472;
738.9000;0.6984;1.1545;
739.2000;0.6976;1.1618;
739.5000;0.6976;1.1642;
739.8000;0.6952;1.1594;
740.1000;0.6976;1.1691;
740.4000;0.6976;1.1667;
740.7000;0.6968;1.1691;
741.0000;0.6968;1.1667;
741.3000;0.6968;1.1594;
741.6000;0.6984;1.1545;
741.9000;0.6968;1.1424;
742.2000;0.6976;1.1375;
742.5000;0.6976;1.1351;
742.8000;0.6927;1.1205;
743.1000;0.6960;1.1278;
743.4000;0.7009;1.1472;
743.7000;0.6960;1.1375;
744.0000;0.6960;1.1375;
744.3000;0.6968;1.1375;
744.6000;0.6935;1.1229;
744.9000;0.6968;1.1302;
745.2000;0.6968;1.1351;
745.5000;0.6952;1.1326;
745.8000;0.6968;1.1326;
746.1000;0.6968;1.1326;
746.4000;0.7017;1.1521;
746.7000;0.6952;1.1326;
747.0000;0.6919;1.1132;
747.3000;0.6903;1.1108;
747.6000;0.6952;1.1326;
747.9000;0.6927;1.1399;
748.2000;0.6935;1.1472;
748.5000;0.6935;1.1594;
748.8000;0.6952;1.1667;
749.1000;0.6935;1.1594;
749.4000;0.6886;1.1496;
749.7000;0.6935;1.1545;
750.0000;0.6968;1.1594;
750.3000;0.6927;1.1496;
750.6000;0.6927;1.1496;
750.9000;0.6935;1.1569;
751.2000;0.6952;1.1618;
751.5000;0.6935;1.1667;
751.8000;0.6952;1.1667;
752.1000;0.6935;1.1667;
752.4000;0.6919;1.1667;
752.7000;0.6935;1.1667;
753.0000;0.6919;1.1691;
753.3000;0.6903;1.1740;
753.6000;0.6919;1.1764;
753.9000;0.6911;1.1812;
754.2000;0.6911;1.1740;
754.5000;0.6911;1.1715;
754.8000;0.6911;1.1715;
755.1000;0.6903;1.1788;
755.4000;0.6911;1.1691;
755.7000;0.6903;1.1715;
756.0000;0.6903;1.1667;
756.3000;0.6903;1.1594;
756.6000;0.6919;1.1521;
756.9000;0.6927;1.1496;
757.2000;0.6943;1.1569;
757.5000;0.6903;1.1545;
757.8000;0.6911;1.1667;
758.1000;0.6919;1.1691;
758.4000;0.6935;1.1642;
758.7000;0.6903;1.1569;
759.0000;0.6911;1.1545;
759.3000;0.6895;1.1521;
759.6000;0.6895;1.1618;
759.9000;0.6903;1.1594;
760.2000;0.6886;1.1496;
760.5000;0.6870;1.1618;
760.8000;0.6846;1.1618;
761.1000;0.6878;1.1618;
761.4000;0.6878;1.1715;
761.7000;0.6886;1.1812;
762.0000;0.6927;1.1885;
762.3000;0.6862;1.1715;
762.6000;0.6878;1.1642;
762.9000;0.6886;1.1618;
763.2000;0.6878;1.1594;
763.5000;0.6886;1.1691;
763.8000;0.6870;1.1667;
764.1000;0.6838;1.1545;
764.4000;0.6878;1.1569;
764.7000;0.6870;1.1545;
765.0000;0.6862;1.1569;
765.3000;0.6813;1.1424;
765.6000;0.6878;1.1545;
765.9000;0.6813;1.1472;
766.2000;0.6862;1.1521;
766.5000;0.6895;1.1594;
766.8000;0.6862;1.1545;
767.1000;0.6870;1.1594;
767.4000;0.6846;1.1569;
767.7000;0.6862;1.1618;
768.0000;0.6878;1.1667;
768.3000;0.6886;1.1642;
768.6000;0.6886;1.1667;
768.9000;0.6878;1.1618;
769.2000;0.6838;1.1472;
769.5000;0.6846;1.1545;
769.8000;0.6870;1.1594;
770.1000;0.6870;1.1667;
770.4000;0.6862;1.1667;
770.7000;0.6838;1.1715;
771.0000;0.6854;1.1715;
771.3000;0.6846;1.1788;
771.6000;0.6838;1.1764;
771.9000;0.6838;1.1837;
772.2000;0.6846;1.1812;
772.5000;0.6870;1.1910;
772.8000;0.6838;1.1691;
773.1000;0.6854;1.1764;
773.4000;0.6854;1.1740;
773.7000;0.6854;1.1740;
774.0000;0.6846;1.1861;
774.3000;0.6838;1.1910;
774.6000;0.6838;1.1837;
774.9000;0.6829;1.1715;
775.2000;0.6829;1.1594;
775.5000;0.6821;1.1594;
775.8000;0.6829;1.1642;
776.1000;0.6805;1.1642;
776.4000;0.6813;1.1569;
776.7000;0.6821;1.1545;
777.0000;0.6829;1.1642;
777.3000;0.6838;1.1667;
777.6000;0.6805;1.1569;
777.9000;0.6870;1.1740;
778.2000;0.6821;1.1594;
778.5000;0.6838;1.1715;
778.8000;0.6846;1.1740;
779.1000;0.6838;1.1812;
779.4000;0.6829;1.1667;
779.7000;0.6829;1.1691;
780.0000;0.6781;1.1594;
780.3000;0.6829;1.1715;
780.6000;0.6838;1.1764;
780.9000;0.6813;1.1740;
781.2000;0.6846;1.1618;
781.5000;0.6821;1.1618;
781.8000;0.6813;1.1594;
782.1000;0.6821;1.1715;
782.4000;0.6838;1.1788;
782.7000;0.6829;1.1861;
783.0000;0.6789;1.1861;
783.3000;0.6813;1.1910;
783.6000;0.6805;1.1812;
783.9000;0.6797;1.1715;
784.2000;0.6797;1.1594;
784.5000;0.6797;1.1667;
784.8000;0.6805;1.1740;
785.1000;0.6797;1.1764;
785.4000;0.6789;1.1837;
785.7000;0.6870;1.2031;
786.0000;0.6789;1.1885;
786.3000;0.6724;1.1740;
786.6000;0.6797;1.1983;
786.9000;0.6781;1.1885;
787.2000;0.6838;1.1983;
787.5000;0.6805;1.1885;
787.8000;0.6789;1.1910;
788.1000;0.6748;1.1788;
788.4000;0.6829;1.2055;
788.7000;0.6789;1.1934;
789.0000;0.6756;1.1812;
789.3000;0.6781;1.1910;
789.6000;0.6805;1.2007;
789.9000;0.6789;1.1934;
790.2000;0.6781;1.1885;
790.5000;0.6813;1.1861;
790.8000;0.6781;1.1764;
791.1000;0.6789;1.1812;
791.4000;0.6764;1.1715;
791.7000;0.6772;1.1691;
792.0000;0.6789;1.1812;
792.3000;0.6748;1.1764;
792.6000;0.6772;1.1861;
792.9000;0.6854;1.2007;
793.2000;0.6764;1.1812;
793.5000;0.6772;1.1934;
793.8000;0.6821;1.2007;
794.1000;0.6732;1.1740;
794.4000;0.6764;1.1812;
794.7000;0.6781;1.1788;
795.0000;0.6821;1.1861;
795.3000;0.6748;1.1691;
795.6000;0.6772;1.1764;
795.9000;0.6764;1.1837;
796.2000;0.6797;1.2007;
796.5000;0.6756;1.1837;
796.8000;0.6748;1.1788;
797.1000;0.6699;1.1715;
797.4000;0.6781;1.1983;
797.7000;0.6772;1.1861;
798.0000;0.6756;1.1812;
798.3000;0.6772;1.1837;
798.6000;0.6789;1.1885;
798.9000;0.6740;1.1740;
799.2000;0.6772;1.1837;
799.5000;0.6764;1.1812;
799.8000;0.6764;1.1812;
800.1000;0.6740;1.1691;
800.4000;0.6748;1.1642;
800.7000;0.6748;1.1642;
801.0000;0.6732;1.1667;
801.3000;0.6748;1.1715;
801.6000;0.6764;1.1715;
801.9000;0.6707;1.1521;
802.2000;0.6756;1.1715;
802.5000;0.6764;1.1715;
802.8000;0.6748;1.1691;
803.1000;0.6764;1.1740;
803.4000;0.6756;1.1740;
803.7000;0.6756;1.1740;
804.0000;0.6781;1.1740;
804.3000;0.6756;1.1691;
804.6000;0.6740;1.1740;
804.9000;0.6764;1.1715;
805.2000;0.6772;1.1740;
805.5000;0.6756;1.1715;
805.8000;0.6724;1.1618;
806.1000;0.6748;1.1594;
806.4000;0.6724;1.1521;
806.7000;0.6748;1.1496;
807.0000;0.6724;1.1448;
807.3000;0.6740;1.1521;
807.6000;0.6756;1.1521;
807.9000;0.6740;1.1521;
808.2000;0.6716;1.1496;
808.5000;0.6707;1.1448;
808.8000;0.6716;1.1521;
809.1000;0.6732;1.1472;
809.4000;0.6732;1.1424;
809.7000;0.6732;1.1472;
810.0000;0.6732;1.1496;
810.3000;0.6707;1.1545;
810.6000;0.6748;1.1740;
810.9000;0.6724;1.1667;
811.2000;0.6691;1.1594;
811.5000;0.6707;1.1715;
811.8000;0.6748;1.1861;
812.1000;0.6748;1.1788;
812.4000;0.6707;1.1764;
812.7000;0.6724;1.1788;
813.0000;0.6732;1.1885;
813.3000;0.6748;1.1983;
813.6000;0.6683;1.1861;
813.9000;0.6732;1.1934;
814.2000;0.6724;1.1861;
814.5000;0.6789;1.1958;
814.8000;0.6732;1.1764;
815.1000;0.6707;1.1691;
815.4000;0.6675;1.1521;
815.7000;0.6707;1.1496;
816.0000;0.6707;1.1521;
816.3000;0.6610;1.1278;
816.6000;0.6748;1.1545;
816.9000;0.6716;1.1569;
817.2000;0.6691;1.1594;
817.5000;0.6707;1.1740;
817.8000;0.6707;1.1812;
818.1000;0.6707;1.1812;
818.4000;0.6707;1.1861;
818.7000;0.6707;1.1934;
819.0000;0.6699;1.1861;
819.3000;0.6699;1.1837;
819.6000;0.6724;1.1885;
819.9000;0.6707;1.1740;
820.2000;0.6699;1.1715;
820.5000;0.6707;1.1691;
820.8000;0.6716;1.1691;
821.1000;0.6716;1.1764;
821.4000;0.6699;1.1764;
821.7000;0.6691;1.1861;
822.0000;0.6659;1.1861;
822.3000;0.6675;1.1861;
822.6000;0.6675;1.1934;
822.9000;0.6683;1.1958;
823.2000;0.6732;1.2104;
823.5000;0.6699;1.1910;
823.8000;0.6699;1.1837;
824.1000;0.6707;1.1740;
824.4000;0.6699;1.1715;
824.7000;0.6716;1.1740;
825.0000;0.6691;1.1569;
825.3000;0.6691;1.1569;
825.6000;0.6707;1.1594;
825.9000;0.6675;1.1594;
826.2000;0.6683;1.1691;
826.5000;0.6699;1.1740;
826.8000;0.6732;1.1837;
827.1000;0.6756;1.1934;
827.4000;0.6683;1.1715;
827.7000;0.6683;1.1764;
828.0000;0.6683;1.1861;
828.3000;0.6740;1.1958;
828.6000;0.6659;1.1740;
828.9000;0.6707;1.1740;
829.2000;0.6699;1.1788;
829.5000;0.6691;1.1812;
829.8000;0.6724;1.1885;
830.1000;0.6683;1.1764;
830.4000;0.6707;1.1861;
830.7000;0.6691;1.1812;
831.0000;0.6683;1.1788;
831.3000;0.6683;1.1715;
831.6000;0.6683;1.1788;
831.9000;0.6691;1.1861;
832.2000;0.6691;1.1885;
832.5000;0.6683;1.1885;
832.8000;0.6691;1.1983;
833.1000;0.6691;1.2055;
833.4000;0.6675;1.2104;
833.7000;0.6675;1.1958;
834.0000;0.6659;1.1837;
834.3000;0.6716;1.2007;
834.6000;0.6699;1.1910;
834.9000;0.6683;1.1861;
835.2000;0.6650;1.1715;
835.5000;0.6634;1.1740;
835.8000;0.6683;1.1885;
836.1000;0.6683;1.1910;
836.4000;0.6683;1.1910;
836.7000;0.6675;1.1861;
837.0000;0.6675;1.1837;
837.3000;0.6667;1.1910;
837.6000;0.6675;1.1958;
837.9000;0.6675;1.2031;
838.2000;0.6667;1.2055;
838.5000;0.6659;1.2031;
838.8000;0.6675;1.2007;
839.1000;0.6659;1.1958;
839.4000;0.6659;1.1910;
839.7000;0.6659;1.1958;
840.0000;0.6650;1.1934;
840.3000;0.6667;1.2031;
840.6000;0.6659;1.2031;
840.9000;0.6626;1.2080;
841.2000;0.6659;1.2177;
841.5000;0.6610;1.2080;
841.8000;0.6642;1.2153;
842.1000;0.6667;1.2250;
842.4000;0.6691;1.2396;
842.7000;0.6634;1.2201;
843.0000;0.6650;1.2128;
843.3000;0.6732;1.2201;
843.6000;0.6650;1.2007;
843.9000;0.6650;1.2055;
844.2000;0.6659;1.2031;
844.5000;0.6642;1.1983;
844.8000;0.6659;1.2007;
845.1000;0.6634;1.2007;
845.4000;0.6634;1.1934;
845.7000;0.6650;1.1958;
846.0000;0.6650;1.2080;
846.3000;0.6634;1.1934;
846.6000;0.6650;1.1934;
846.9000;0.6667;1.2007;
847.2000;0.6602;1.1837;
847.5000;0.6659;1.2080;
847.8000;0.6642;1.2080;
848.1000;0.6659;1.2153;
848.4000;0.6650;1.2080;
848.7000;0.6642;1.1983;
849.0000;0.6659;1.1958;
849.3000;0.6659;1.1983;
849.6000;0.6626;1.2031;
849.9000;0.6642;1.2031;
850.2000;0.6642;1.2007;
850.5000;0.6634;1.1885;
850.8000;0.6650;1.1885;
851.1000;0.6610;1.1764;
851.4000;0.6626;1.1861;
851.7000;0.6683;1.1983;
852.0000;0.6634;1.1910;
852.3000;0.6683;1.2031;
852.6000;0.6642;1.1958;
852.9000;0.6634;1.1910;
853.2000;0.6650;1.1983;
853.5000;0.6642;1.1958;
853.8000;0.6642;1.1910;
854.1000;0.6634;1.1861;
854.4000;0.6634;1.1910;
854.7000;0.6610;1.1910;
855.0000;0.6618;1.2031;
855.3000;0.6626;1.2104;
855.6000;0.6634;1.2177;
855.9000;0.6650;1.2153;
856.2000;0.6642;1.2177;
856.5000;0.6626;1.2250;
856.8000;0.6618;1.2177;
857.1000;0.6610;1.2201;
857.4000;0.6724;1.2444;
857.7000;0.6618;1.2274;
858.0000;0.6642;1.2128;
858.3000;0.6642;1.2128;
858.6000;0.6642;1.2031;
858.9000;0.6618;1.1934;
859.2000;0.6626;1.1983;
859.5000;0.6618;1.2007;
859.8000;0.6634;1.2128;
860.1000;0.6634;1.2153;
860.4000;0.6626;1.2104;
860.7000;0.6626;1.2104;
861.0000;0.6634;1.2104;
861.3000;0.6659;1.2153;
861.6000;0.6634;1.2128;
861.9000;0.6634;1.2226;
862.2000;0.6626;1.2201;
862.5000;0.6675;1.2226;
862.8000;0.6618;1.1983;
863.1000;0.6602;1.1983;
863.4000;0.6626;1.2007;
863.7000;0.6626;1.1983;
864.0000;0.6618;1.1958;
864.3000;0.6675;1.2080;
864.6000;0.6626;1.1958;
864.9000;0.6642;1.2007;
865.2000;0.6626;1.1885;
865.5000;0.6659;1.2031;
865.8000;0.6650;1.2104;
866.1000;0.6642;1.2007;
866.4000;0.6626;1.1958;
866.7000;0.6610;1.2031;
867.0000;0.6618;1.2055;
867.3000;0.6618;1.1958;
867.6000;0.6626;1.2007;
867.9000;0.6618;1.2031;
868.2000;0.6610;1.2031;
868.5000;0.6593;1.2104;
868.8000;0.6634;1.2201;
869.1000;0.6610;1.2128;
869.4000;0.6626;1.2153;
869.7000;0.6618;1.2153;
870.0000;0.6634;1.2177;
870.3000;0.6626;1.2055;
870.6000;0.6626;1.2031;
870.9000;0.6634;1.2080;
871.2000;0.6650;1.2104;
871.5000;0.6610;1.2128;
871.8000;0.6610;1.2104;
872.1000;0.6626;1.2055;
872.4000;0.6610;1.1910;
872.7000;0.6626;1.1885;
873.0000;0.6675;1.2055;
873.3000;0.6602;1.1812;
873.6000;0.6618;1.1788;
873.9000;0.6626;1.1910;
874.2000;0.6626;1.1910;
874.5000;0.6626;1.1983;
874.8000;0.6602;1.1910;
875.1000;0.6626;1.1910;
875.4000;0.6626;1.1934;
875.7000;0.6536;1.1691;
876.0000;0.6577;1.1691;
876.3000;0.6716;1.2104;
876.6000;0.6602;1.1788;
876.9000;0.6610;1.1837;
877.2000;0.6593;1.1812;
877.5000;0.6602;1.1885;
877.8000;0.6602;1.1958;
878.1000;0.6585;1.1910;
878.4000;0.6602;1.1958;
878.7000;0.6585;1.2055;
879.0000;0.6602;1.2128;
879.3000;0.6602;1.2153;
879.6000;0.6610;1.2104;
879.9000;0.6699;1.2420;
880.2000;0.6618;1.2128;
880.5000;0.6585;1.2031;
880.8000;0.6610;1.2080;
881.1000;0.6585;1.2080;
881.4000;0.6618;1.2153;
881.7000;0.6602;1.1983;
882.0000;0.6593;1.1885;
882.3000;0.6618;1.2055;
882.6000;0.6634;1.2055;
882.9000;0.6593;1.1910;
883.2000;0.6569;1.1885;
883.5000;0.6593;1.1885;
883.8000;0.6585;1.1910;
884.1000;0.6585;1.1958;
884.4000;0.6577;1.1934;
884.7000;0.6593;1.1983;
885.0000;0.6561;1.1837;
885.3000;0.6642;1.1983;
885.6000;0.6496;1.1667;
885.9000;0.6602;1.1837;
886.2000;0.6602;1.1885;
886.5000;0.6561;1.1861;
886.8000;0.6585;1.1910;
887.1000;0.6585;1.1837;
887.4000;0.6585;1.1715;
887.7000;0.6577;1.1764;
888.0000;0.6602;1.1764;
888.3000;0.6593;1.1691;
888.6000;0.6585;1.1715;
888.9000;0.6602;1.1788;
889.2000;0.6585;1.1715;
889.5000;0.6545;1.1691;
889.8000;0.6585;1.1812;
890.1000;0.6577;1.1910;
890.4000;0.6553;1.1934;
890.7000;0.6585;1.1958;
891.0000;0.6699;1.2128;
891.3000;0.6577;1.1958;
891.6000;0.6577;1.2031;
891.9000;0.6561;1.2031;
892.2000;0.6577;1.1958;
892.5000;0.6577;1.1958;
892.8000;0.6585;1.1958;
893.1000;0.6602;1.1910;
893.4000;0.6585;1.1885;
893.7000;0.6569;1.1934;
894.0000;0.6585;1.1958;
894.3000;0.6585;1.2007;
894.6000;0.6569;1.2007;
894.9000;0.6577;1.2031;
895.2000;0.6585;1.2007;
895.5000;0.6585;1.1934;
895.8000;0.6691;1.2201;
896.1000;0.6618;1.2104;
896.4000;0.6585;1.2055;
896.7000;0.6618;1.2250;
897.0000;0.6585;1.2104;
897.3000;0.6471;1.1764;
897.6000;0.6593;1.1958;
897.9000;0.6496;1.1740;
898.2000;0.6561;1.1910;
898.5000;0.6593;1.2007;
898.8000;0.6528;1.1788;
899.1000;0.6716;1.2177;
899.4000;0.6569;1.1764;
899.7000;0.6577;1.1788;
900.0000;0.6593;1.1812;
900.3000;0.6585;1.1885;
900.6000;0.6569;1.1983;
900.9000;0.6561;1.2055;
901.2000;0.6569;1.2104;
901.5000;0.6569;1.2201;
901.8000;0.6561;1.2201;
902.1000;0.6561;1.2080;
902.4000;0.6536;1.2007;
902.7000;0.6585;1.2055;
903.0000;0.6561;1.2055;
903.3000;0.6577;1.2104;
903.6000;0.6577;1.2104;
903.9000;0.6585;1.2080;
904.2000;0.6602;1.2055;
904.5000;0.6536;1.1910;
904.8000;0.6569;1.1910;
905.1000;0.6569;1.1885;
905.4000;0.6553;1.1812;
905.7000;0.6569;1.1885;
906.0000;0.6569;1.1861;
906.3000;0.6553;1.1812;
906.6000;0.6577;1.1861;
906.9000;0.6561;1.1788;
907.2000;0.6569;1.1910;
907.5000;0.6561;1.1885;
907.8000;0.6561;1.1934;
908.1000;0.6561;1.1885;
908.4000;0.6553;1.1885;
908.7000;0.6561;1.1885;
909.0000;0.6545;1.1837;
909.3000;0.6569;1.1885;
909.6000;0.6569;1.1885;
909.9000;0.6545;1.1885;
910.2000;0.6553;1.1910;
910.5000;0.6553;1.1861;
910.8000;0.6569;1.1934;
911.1000;0.6479;1.1740;
911.4000;0.6504;1.1788;
911.7000;0.6569;1.2007;
912.0000;0.6545;1.1934;
912.3000;0.6602;1.2055;
912.6000;0.6577;1.1861;
912.9000;0.6536;1.1861;
913.2000;0.6561;1.1934;
913.5000;0.6561;1.1934;
913.8000;0.6577;1.2007;
914.1000;0.6602;1.2128;
914.4000;0.6642;1.2201;
914.7000;0.6577;1.1934;
915.0000;0.6553;1.1885;
915.3000;0.6553;1.1885;
915.6000;0.6585;1.1983;
915.9000;0.6577;1.1958;
916.2000;0.6488;1.1715;
916.5000;0.6545;1.1958;
916.8000;0.6545;1.2055;
917.1000;0.6528;1.2031;
917.4000;0.6545;1.1983;
917.7000;0.6545;1.1910;
918.0000;0.6520;1.1812;
918.3000;0.6561;1.1934;
918.6000;0.6536;1.1934;
918.9000;0.6610;1.2201;
919.2000;0.6545;1.2007;
919.5000;0.6455;1.1788;
919.8000;0.6545;1.2031;
920.1000;0.6545;1.2104;
920.4000;0.6545;1.2177;
920.7000;0.6553;1.2128;
921.0000;0.6512;1.2007;
921.3000;0.6545;1.2055;
921.6000;0.6577;1.2007;
921.9000;0.6545;1.1885;
922.2000;0.6545;1.1861;
922.5000;0.6545;1.1837;
922.8000;0.6545;1.1861;
923.1000;0.6520;1.1788;
923.4000;0.6536;1.1788;
923.7000;0.6561;1.1910;
924.0000;0.6528;1.1837;
924.3000;0.6545;1.1837;
924.6000;0.6545;1.1740;
924.9000;0.6553;1.1837;
925.2000;0.6536;1.1715;
925.5000;0.6553;1.1740;
925.8000;0.6536;1.1740;
926.1000;0.6553;1.1885;
926.4000;0.6561;1.1934;
926.7000;0.6536;1.2007;
927.0000;0.6536;1.2031;
927.3000;0.6545;1.2055;
927.6000;0.6553;1.2031;
927.9000;0.6536;1.1983;
928.2000;0.6520;1.1934;
928.5000;0.6536;1.1983;
928.8000;0.6561;1.1983;
929.1000;0.6504;1.1861;
929.4000;0.6520;1.1788;
929.7000;0.6545;1.1861;
930.0000;0.6545;1.1934;
930.3000;0.6545;1.1958;
930.6000;0.6561;1.1910;
930.9000;0.6536;1.1861;
931.2000;0.6520;1.1812;
931.5000;0.6536;1.1764;
931.8000;0.6545;1.1740;
932.1000;0.6545;1.1740;
932.4000;0.6520;1.1788;
932.7000;0.6536;1.1910;
933.0000;0.6545;1.1861;
933.3000;0.6520;1.1861;
933.6000;0.6569;1.1958;
933.9000;0.6536;1.1885;
934.2000;0.6569;1.2007;
934.5000;0.6536;1.1934;
934.8000;0.6536;1.1983;
935.1000;0.6553;1.2007;
935.4000;0.6536;1.2055;
935.7000;0.6545;1.2031;
936.0000;0.6545;1.2007;
936.3000;0.6553;1.1958;
936.6000;0.6545;1.1910;
936.9000;0.6561;1.2007;
937.2000;0.6512;1.2007;
937.5000;0.6447;1.1788;
937.8000;0.6545;1.2031;
938.1000;0.6512;1.2031;
938.4000;0.6520;1.2007;
938.7000;0.6520;1.1958;
939.0000;0.6553;1.2007;
939.3000;0.6512;1.1812;
939.6000;0.6512;1.1812;
939.9000;0.6520;1.1837;
940.2000;0.6512;1.1837;
940.5000;0.6545;1.1837;
940.8000;0.6520;1.1861;
941.1000;0.6471;1.1594;
941.4000;0.6520;1.1740;
941.7000;0.6520;1.1788;
942.0000;0.6528;1.1715;
942.3000;0.6512;1.1691;
942.6000;0.6520;1.1642;
942.9000;0.6520;1.1740;
943.2000;0.6553;1.1837;
943.5000;0.6512;1.1667;
943.8000;0.6520;1.1764;
944.1000;0.6528;1.1788;
944.4000;0.6536;1.1861;
944.7000;0.6414;1.1667;
945.0000;0.6504;1.1958;
945.3000;0.6512;1.1910;
945.6000;0.6496;1.1910;
945.9000;0.6512;1.1885;
946.2000;0.6512;1.1885;
946.5000;0.6520;1.2055;
946.8000;0.6528;1.2055;
947.1000;0.6520;1.2007;
947.4000;0.6504;1.1885;
947.7000;0.6528;1.1934;
948.0000;0.6520;1.1885;
948.3000;0.6504;1.1910;
948.6000;0.6496;1.1958;
948.9000;0.6512;1.1983;
949.2000;0.6569;1.2080;
949.5000;0.6512;1.1910;
949.8000;0.6488;1.1910;
950.1000;0.6520;1.2080;
950.4000;0.6463;1.1958;
950.7000;0.6528;1.2031;
951.0000;0.6528;1.2007;
951.3000;0.6520;1.2031;
951.6000;0.6528;1.1958;
951.9000;0.6520;1.1958;
952.2000;0.6463;1.1740;
952.5000;0.6496;1.1788;
952.8000;0.6520;1.1861;
953.1000;0.6528;1.1958;
953.4000;0.6577;1.2080;
953.7000;0.6520;1.1934;
954.0000;0.6504;1.1910;
954.3000;0.6536;1.1983;
954.6000;0.6528;1.1837;
954.9000;0.6520;1.1740;
955.2000;0.6504;1.1764;
955.5000;0.6545;1.1764;
955.8000;0.6520;1.1667;
956.1000;0.6512;1.1740;
956.4000;0.6536;1.1764;
956.7000;0.6512;1.1764;
957.0000;0.6488;1.1740;
957.3000;0.6593;1.2007;
957.6000;0.6504;1.1812;
957.9000;0.6520;1.1910;
958.2000;0.6479;1.1788;
958.5000;0.6512;1.2007;
958.8000;0.6553;1.2153;
959.1000;0.6439;1.1934;
959.4000;0.6528;1.2177;
959.7000;0.6504;1.2080;
960.0000;0.6504;1.1983;
960.3000;0.6512;1.1861;
960.6000;0.6520;1.1837;
960.9000;0.6536;1.1885;
961.2000;0.6504;1.1885;
961.5000;0.6512;1.1934;
961.8000;0.6504;1.1958;
962.1000;0.6512;1.2007;
962.4000;0.6520;1.2055;
962.7000;0.6512;1.1958;
963.0000;0.6520;1.1983;
963.3000;0.6512;1.1837;
963.6000;0.6504;1.1715;
963.9000;0.6504;1.1715;
964.2000;0.6504;1.1715;
964.5000;0.6479;1.1812;
964.8000;0.6504;1.1934;
965.1000;0.6496;1.1910;
965.4000;0.6520;1.1958;
965.7000;0.6463;1.1740;
966.0000;0.6512;1.1837;
966.3000;0.6512;1.1788;
966.6000;0.6520;1.1715;
966.9000;0.6520;1.1691;
967.2000;0.6512;1.1740;
967.5000;0.6488;1.1691;
967.8000;0.6561;1.1740;
968.1000;0.6504;1.1569;
968.4000;0.6512;1.1667;
968.7000;0.6528;1.1764;
969.0000;0.6504;1.1691;
969.3000;0.6488;1.1715;
969.6000;0.6512;1.1715;
969.9000;0.6512;1.1764;
970.2000;0.6504;1.1788;
970.5000;0.6504;1.1837;
970.8000;0.6504;1.1837;
971.1000;0.6512;1.1885;
971.4000;0.6512;1.1910;
971.7000;0.6504;1.1885;
972.0000;0.6488;1.1934;
972.3000;0.6488;1.1958;
972.6000;0.6496;1.1910;
972.9000;0.6504;1.2031;
973.2000;0.6504;1.2007;
973.5000;0.6496;1.2031;
973.8000;0.6512;1.2031;
974.1000;0.6496;1.2031;
974.4000;0.6512;1.1934;
974.7000;0.6512;1.1910;
975.0000;0.6496;1.1958;
975.3000;0.6488;1.1788;
975.6000;0.6504;1.1812;
975.9000;0.6496;1.1837;
976.2000;0.6512;1.1934;
976.5000;0.6479;1.1885;
976.8000;0.6545;1.2055;
977.1000;0.6479;1.1837;
977.4000;0.6471;1.1740;
977.7000;0.6471;1.1691;
978.0000;0.6471;1.1740;
978.3000;0.6496;1.1812;
978.6000;0.6496;1.1861;
978.9000;0.6488;1.1788;
979.2000;0.6463;1.1837;
979.5000;0.6504;1.2055;
979.8000;0.6504;1.2128;
980.1000;0.6479;1.2031;
980.4000;0.6471;1.1958;
980.7000;0.6561;1.2128;
981.0000;0.6496;1.1910;
981.3000;0.6504;1.1958;
981.6000;0.6488;1.1958;
981.9000;0.6504;1.2007;
982.2000;0.6455;1.1983;
982.5000;0.6496;1.2128;
982.8000;0.6488;1.2104;
983.1000;0.6463;1.1958;
983.4000;0.6439;1.1910;
983.7000;0.6488;1.1958;
984.0000;0.6471;1.1958;
984.3000;0.6431;1.1861;
984.6000;0.6496;1.2055;
984.9000;0.6439;1.1910;
985.2000;0.6479;1.2007;
985.5000;0.6479;1.2080;
985.8000;0.6488;1.2007;
986.1000;0.6504;1.1983;
986.4000;0.6504;1.2055;
986.7000;0.6488;1.2007;
987.0000;0.6512;1.2128;
987.3000;0.6520;1.2128;
987.6000;0.6504;1.2201;
987.9000;0.6496;1.2177;
988.2000;0.6471;1.2177;
988.5000;0.6504;1.2274;
988.8000;0.6471;1.2226;
989.1000;0.6471;1.2153;
989.4000;0.6488;1.2250;
989.7000;0.6471;1.2128;
990.0000;0.6463;1.2080;
990.3000;0.6488;1.2104;
990.6000;0.6479;1.1958;
990.9000;0.6504;1.1910;
991.2000;0.6479;1.1910;
991.5000;0.6496;1.1910;
991.8000;0.6496;1.1934;
992.1000;0.6431;1.1740;
992.4000;0.6479;1.1910;
992.7000;0.6504;1.2007;
993.0000;0.6471;1.1910;
993.3000;0.6488;1.2007;
993.6000;0.6488;1.2007;
993.9000;0.6496;1.2055;
994.2000;0.6520;1.2201;
994.5000;0.6488;1.2177;
994.8000;0.6504;1.2226;
995.1000;0.6479;1.2177;
995.4000;0.6520;1.2299;
995.7000;0.6431;1.1983;
996.0000;0.6496;1.2031;
996.3000;0.6479;1.2055;
996.6000;0.6496;1.2055;
996.9000;0.6414;1.1885;
997.2000;0.6512;1.2080;
997.5000;0.6455;1.1885;
997.8000;0.6504;1.1934;
998.1000;0.6463;1.1788;
998.4000;0.6496;1.1861;
998.7000;0.6496;1.1788;
999.0000;0.6528;1.1885;
999.3000;0.6479;1.1861;
999.6000;0.6488;1.1740;
999.9000;0.6488;1.1740;
1000.2000;0.6504;1.1812;
1000.5000;0.6496;1.1837;
1000.8000;0.6463;1.1812;
1001.1000;0.6479;1.1934;
1001.4000;0.6545;1.2104;
1001.7000;0.6479;1.2031;
1002.0000;0.6471;1.2080;
1002.3000;0.6496;1.2104;
1002.6000;0.6561;1.2201;
1002.9000;0.6471;1.1958;
1003.2000;0.6471;1.1934;
1003.5000;0.6471;1.1983;
1003.8000;0.6471;1.1958;
1004.1000;0.6479;1.2007;
1004.4000;0.6455;1.1983;
1004.7000;0.6569;1.2226;
1005.0000;0.6471;1.1934;
1005.3000;0.6479;1.1958;
1005.6000;0.6463;1.2031;
1005.9000;0.6471;1.1983;
1006.2000;0.6439;1.1983;
1006.5000;0.6479;1.2055;
1006.8000;0.6455;1.2031;
1007.1000;0.6504;1.2153;
1007.4000;0.6455;1.2055;
1007.7000;0.6471;1.2080;
1008.0000;0.6496;1.2055;
1008.3000;0.6455;1.1958;
1008.6000;0.6463;1.1958;
1008.9000;0.6479;1.2055;
1009.2000;0.6471;1.2080;
1009.5000;0.6463;1.2104;
1009.8000;0.6520;1.2226;
1010.1000;0.6471;1.2177;
1010.4000;0.6447;1.2080;
1010.7000;0.6463;1.2055;
1011.0000;0.6471;1.2104;
1011.3000;0.6488;1.2055;
1011.6000;0.6479;1.2007;
1011.9000;0.6455;1.1910;
1012.2000;0.6488;1.1983;
1012.5000;0.6463;1.2080;
1012.8000;0.6463;1.2080;
1013.1000;0.6553;1.2250;
1013.4000;0.6447;1.1958;
1013.7000;0.6488;1.2031;
1014.0000;0.6406;1.1812;
1014.3000;0.6496;1.2080;
1014.6000;0.6463;1.2031;
1014.9000;0.6422;1.1885;
1015.2000;0.6512;1.2177;
1015.5000;0.6479;1.1958;
1015.8000;0.6439;1.1910;
1016.1000;0.6512;1.2201;
1016.4000;0.6471;1.1983;
1016.7000;0.6455;1.1910;
1017.0000;0.6455;1.1861;
1017.3000;0.6488;1.2007;
1017.6000;0.6479;1.1837;
1017.9000;0.6439;1.1837;
1018.2000;0.6431;1.1812;
1018.5000;0.6471;1.1910;
1018.8000;0.6447;1.1934;
1019.1000;0.6479;1.2007;
1019.4000;0.6488;1.2080;
1019.7000;0.6463;1.1983;
1020.0000;0.6463;1.2031;
1020.3000;0.6463;1.2080;
1020.6000;0.6471;1.2031;
1020.9000;0.6463;1.2031;
1021.2000;0.6422;1.2007;
1021.5000;0.6455;1.2177;
1021.8000;0.6463;1.2299;
1022.1000;0.6431;1.2226;
1022.4000;0.6455;1.2299;
1022.7000;0.6439;1.2177;
1023.0000;0.6463;1.2201;
1023.3000;0.6471;1.2128;
1023.6000;0.6471;1.2226;
1023.9000;0.6455;1.2226;
1024.2000;0.6422;1.2153;
1024.5000;0.6439;1.2226;
1024.8000;0.6463;1.2201;
1025.1000;0.6479;1.2104;
1025.4000;0.6382;1.1861;
1025.7000;0.6455;1.2007;
1026.0000;0.6463;1.2007;
1026.3000;0.6447;1.1958;
1026.6000;0.6479;1.1861;
1026.9000;0.6463;1.1885;
1027.2000;0.6455;1.1934;
1027.5000;0.6455;1.1983;
1027.8000;0.6447;1.1861;
1028.1000;0.6447;1.1910;
1028.4000;0.6463;1.1983;
1028.7000;0.6431;1.1910;
1029.0000;0.6414;1.1837;
1029.3000;0.6439;1.1934;
1029.6000;0.6455;1.1885;
1029.9000;0.6455;1.1983;
1030.2000;0.6455;1.2080;
1030.5000;0.6439;1.2177;
1030.8000;0.6471;1.2371;
1031.1000;0.6422;1.2299;
1031.4000;0.6455;1.2371;
1031.7000;0.6439;1.2323;
1032.0000;0.6504;1.2444;
1032.3000;0.6455;1.2201;
1032.6000;0.6447;1.2104;
1032.9000;0.6439;1.2031;
1033.2000;0.6479;1.2055;
1033.5000;0.6455;1.2055;
1033.8000;0.6455;1.2104;
1034.1000;0.6431;1.2104;
1034.4000;0.6447;1.2104;
1034.7000;0.6431;1.2055;
1035.0000;0.6455;1.2104;
1035.3000;0.6414;1.2055;
1035.6000;0.6455;1.2128;
1035.9000;0.6447;1.2177;
1036.2000;0.6455;1.2201;
1036.5000;0.6455;1.2104;
1036.8000;0.6455;1.2031;
1037.1000;0.6382;1.1740;
1037.4000;0.6455;1.2007;
1037.7000;0.6512;1.2153;
1038.0000;0.6406;1.1885;
1038.3000;0.6463;1.1958;
1038.6000;0.6439;1.1934;
1038.9000;0.6471;1.1885;
1039.2000;0.6422;1.1812;
1039.5000;0.6471;1.1983;
1039.8000;0.6471;1.2007;
1040.1000;0.6431;1.1983;
1040.4000;0.6455;1.2080;
1040.7000;0.6447;1.2080;
1041.0000;0.6439;1.2128;
1041.3000;0.6455;1.2153;
1041.6000;0.6439;1.2177;
1041.9000;0.6431;1.2080;
1042.2000;0.6463;1.2153;
1042.5000;0.6455;1.2128;
1042.8000;0.6447;1.2177;
1043.1000;0.6455;1.2274;
1043.4000;0.6439;1.2250;
1043.7000;0.6463;1.2274;
1044.0000;0.6447;1.2274;
1044.3000;0.6447;1.2299;
1044.6000;0.6455;1.2226;
1044.9000;0.6431;1.2177;
1045.2000;0.6455;1.2080;
1045.5000;0.6447;1.2055;
1045.8000;0.6463;1.2104;
1046.1000;0.6455;1.2080;
1046.4000;0.6471;1.2080;
1046.7000;0.6447;1.2031;
1047.0000;0.6447;1.2031;
1047.3000;0.6471;1.2104;
1047.6000;0.6439;1.2080;
1047.9000;0.6431;1.2128;
1048.2000;0.6439;1.2153;
1048.5000;0.6422;1.2080;
1048.8000;0.6455;1.2128;
1049.1000;0.6439;1.2153;
1049.4000;0.6431;1.2104;
1049.7000;0.6447;1.2177;
1050.0000;0.6447;1.2226;
1050.3000;0.6447;1.2274;
1050.6000;0.6431;1.2250;
1050.9000;0.6439;1.2299;
1051.2000;0.6536;1.2542;
1051.5000;0.6496;1.2444;
1051.8000;0.6365;1.2153;
1052.1000;0.6463;1.2371;
1052.4000;0.6455;1.2323;
1052.7000;0.6447;1.2250;
1053.0000;0.6488;1.2323;
1053.3000;0.6479;1.2420;
1053.6000;0.6455;1.2226;
1053.9000;0.6455;1.2274;
1054.2000;0.6431;1.2250;
1054.5000;0.6439;1.2177;
1054.8000;0.6471;1.2274;
1055.1000;0.6455;1.2299;
1055.4000;0.6447;1.2274;
1055.7000;0.6431;1.2274;
1056.0000;0.6431;1.2299;
1056.3000;0.6439;1.2347;
1056.6000;0.6455;1.2444;
1056.9000;0.6439;1.2517;
1057.2000;0.6463;1.2566;
1057.5000;0.6439;1.2566;
1057.8000;0.6422;1.2542;
1058.1000;0.6447;1.2615;
1058.4000;0.6439;1.2517;
1058.7000;0.6439;1.2396;
1059.0000;0.6422;1.2371;
1059.3000;0.6447;1.2396;
1059.6000;0.6439;1.2420;
1059.9000;0.6422;1.2323;
1060.2000;0.6447;1.2469;
1060.5000;0.6431;1.2396;
1060.8000;0.6447;1.2347;
1061.1000;0.6447;1.2347;
1061.4000;0.6471;1.2420;
1061.7000;0.6422;1.2323;
1062.0000;0.6431;1.2201;
1062.3000;0.6439;1.2299;
1062.6000;0.6447;1.2299;
1062.9000;0.6447;1.2371;
1063.2000;0.6439;1.2323;
1063.5000;0.6439;1.2274;
1063.8000;0.6439;1.2250;
1064.1000;0.6447;1.2274;
1064.4000;0.6439;1.2201;
1064.7000;0.6447;1.2177;
1065.0000;0.6439;1.2153;
1065.3000;0.6463;1.2177;
1065.6000;0.6439;1.2104;
1065.9000;0.6439;1.2080;
1066.2000;0.6390;1.2031;
1066.5000;0.6447;1.2226;
1066.8000;0.6431;1.2201;
1067.1000;0.6431;1.2177;
1067.4000;0.6447;1.2177;
1067.7000;0.6382;1.2055;
1068.0000;0.6455;1.2250;
1068.3000;0.6439;1.2201;
1068.6000;0.6439;1.2201;
1068.9000;0.6365;1.2007;
1069.2000;0.6422;1.2104;
1069.5000;0.6414;1.2201;
1069.8000;0.6431;1.2250;
1070.1000;0.6414;1.2201;
1070.4000;0.6439;1.2177;
1070.7000;0.6447;1.2104;
1071.0000;0.6431;1.2080;
1071.3000;0.6431;1.2031;
1071.6000;0.6439;1.2007;
1071.9000;0.6422;1.1983;
1072.2000;0.6325;1.1837;
1072.5000;0.6422;1.2104;
1072.8000;0.6431;1.2080;
1073.1000;0.6439;1.1983;
1073.4000;0.6431;1.1910;
1073.7000;0.6422;1.1885;
1074.0000;0.6512;1.2201;
1074.3000;0.6463;1.1958;
1074.6000;0.6422;1.1837;
1074.9000;0.6406;1.1812;
1075.2000;0.6431;1.1812;
1075.5000;0.6365;1.1740;
1075.8000;0.6422;1.1764;
1076.1000;0.6439;1.1861;
1076.4000;0.6431;1.1934;
1076.7000;0.6439;1.1958;
1077.0000;0.6447;1.1885;
1077.3000;0.6365;1.1691;
1077.6000;0.6439;1.1861;
1077.9000;0.6455;1.1958;
1078.2000;0.6447;1.1958;
1078.5000;0.6447;1.1958;
1078.8000;0.6455;1.1934;
1079.1000;0.6447;1.2031;
1079.4000;0.6439;1.2055;
1079.7000;0.6431;1.2080;
1080.0000;0.6422;1.2104;
1080.3000;0.6439;1.2080;
1080.6000;0.6447;1.2080;
1080.9000;0.6422;1.2031;
1081.2000;0.6406;1.1885;
1081.5000;0.6414;1.1812;
1081.8000;0.6431;1.1861;
1082.1000;0.6439;1.1910;
1082.4000;0.6431;1.1934;
1082.7000;0.6431;1.1983;
1083.0000;0.6431;1.1983;
1083.3000;0.6357;1.1764;
1083.6000;0.6422;1.2007;
1083.9000;0.6431;1.2055;
1084.2000;0.6447;1.2055;
1084.5000;0.6447;1.2104;
1084.8000;0.6431;1.2080;
1085.1000;0.6520;1.2493;
1085.4000;0.6439;1.2347;
1085.7000;0.6406;1.2201;
1086.0000;0.6422;1.2226;
1086.3000;0.6398;1.2128;
1086.6000;0.6422;1.2104;
1086.9000;0.6439;1.2104;
1087.2000;0.6414;1.2104;
1087.5000;0.6422;1.2055;
1087.8000;0.6422;1.2031;
1088.1000;0.6439;1.2055;
1088.4000;0.6431;1.2055;
1088.7000;0.6447;1.1983;
1089.0000;0.6422;1.1934;
1089.3000;0.6414;1.2031;
1089.6000;0.6439;1.2080;
1089.9000;0.6414;1.2031;
1090.2000;0.6447;1.2128;
1090.5000;0.6439;1.1983;
1090.8000;0.6422;1.1934;
1091.1000;0.6439;1.1983;
1091.4000;0.6406;1.2080;
1091.7000;0.6406;1.2128;
1092.0000;0.6431;1.2177;
1092.3000;0.6431;1.2153;
1092.6000;0.6439;1.2201;
1092.9000;0.6406;1.2201;
1093.2000;0.6422;1.2153;
1093.5000;0.6422;1.2201;
1093.8000;0.6439;1.2250;
1094.1000;0.6431;1.2104;
1094.4000;0.6447;1.2128;
1094.7000;0.6431;1.2055;
1095.0000;0.6414;1.1983;
1095.3000;0.6414;1.2128;
1095.6000;0.6414;1.2055;
1095.9000;0.6439;1.2080;
1096.2000;0.6414;1.2128;
1096.5000;0.6414;1.2153;
1096.8000;0.6414;1.2128;
1097.1000;0.6398;1.2104;
1097.4000;0.6414;1.2128;
1097.7000;0.6406;1.2153;
1098.0000;0.6479;1.2371;
1098.3000;0.6422;1.2128;
1098.6000;0.6488;1.2250;
1098.9000;0.6422;1.2177;
1099.2000;0.6349;1.1983;
1099.5000;0.6414;1.2104;
1099.8000;0.6536;1.2420;
1100.1000;0.6349;1.1958;
1100.4000;0.6406;1.2007;
1100.7000;0.6414;1.2055;
1101.0000;0.6406;1.1983;
1101.3000;0.6406;1.1934;
1101.6000;0.6422;1.2007;
1101.9000;0.6422;1.1983;
1102.2000;0.6390;1.2007;
1102.5000;0.6422;1.2104;
1102.8000;0.6398;1.2128;
1103.1000;0.6422;1.2153;
1103.4000;0.6414;1.2201;
1103.7000;0.6422;1.2153;
1104.0000;0.6463;1.2274;
1104.3000;0.6406;1.2080;
1104.6000;0.6447;1.2055;
1104.9000;0.6422;1.1958;
1105.2000;0.6455;1.1983;
1105.5000;0.6406;1.1910;
1105.8000;0.6422;1.1934;
1106.1000;0.6431;1.2055;
1106.4000;0.6414;1.2128;
1106.7000;0.6414;1.2080;
1107.0000;0.6422;1.2104;
1107.3000;0.6463;1.2226;
1107.6000;0.6414;1.2031;
1107.9000;0.6488;1.2128;
1108.2000;0.6390;1.1934;
1108.5000;0.6414;1.2055;
1108.8000;0.6431;1.2055;
1109.1000;0.6406;1.1934;
1109.4000;0.6398;1.1910;
1109.7000;0.6422;1.2080;
1110.0000;0.6431;1.2128;
1110.3000;0.6414;1.2080;
1110.6000;0.6414;1.2128;
1110.9000;0.6439;1.2153;
1111.2000;0.6390;1.2031;
1111.5000;0.6406;1.2128;
1111.8000;0.6406;1.2177;
1112.1000;0.6479;1.2347;
1112.4000;0.6414;1.2104;
1112.7000;0.6431;1.2201;
1113.0000;0.6317;1.1934;
1113.3000;0.6422;1.2104;
1113.6000;0.6422;1.2104;
1113.9000;0.6357;1.1910;
1114.2000;0.6422;1.2031;
1114.5000;0.6463;1.2153;
1114.8000;0.6455;1.2201;
1115.1000;0.6414;1.2153;
1115.4000;0.6406;1.2250;
1115.7000;0.6414;1.2226;
1116.0000;0.6406;1.2104;
1116.3000;0.6447;1.2153;
1116.6000;0.6414;1.2031;
1116.9000;0.6471;1.2153;
1117.2000;0.6406;1.1983;
1117.5000;0.6422;1.2007;
1117.8000;0.6406;1.1958;
1118.1000;0.6374;1.1910;
1118.4000;0.6414;1.1910;
1118.7000;0.6414;1.1958;
1119.0000;0.6398;1.2007;
1119.3000;0.6431;1.2177;
1119.6000;0.6406;1.2104;
1119.9000;0.6390;1.1958;
1120.2000;0.6382;1.1958;
1120.5000;0.6414;1.1934;
1120.8000;0.6406;1.1885;
1121.1000;0.6439;1.2055;
1121.4000;0.6406;1.1983;
1121.7000;0.6398;1.2007;
1122.0000;0.6414;1.2080;
1122.3000;0.6390;1.2007;
1122.6000;0.6422;1.2104;
1122.9000;0.6365;1.1910;
1123.2000;0.6374;1.1885;
1123.5000;0.6414;1.1934;
1123.8000;0.6390;1.1910;
1124.1000;0.6422;1.1983;
1124.4000;0.6422;1.2007;
1124.7000;0.6414;1.1910;
1125.0000;0.6422;1.1983;
1125.3000;0.6414;1.1983;
1125.6000;0.6406;1.1910;
1125.9000;0.6471;1.2080;
1126.2000;0.6431;1.2007;
1126.5000;0.6406;1.1910;
1126.8000;0.6447;1.1910;
1127.1000;0.6439;1.1861;
1127.4000;0.6422;1.1837;
1127.7000;0.6414;1.1885;
1128.0000;0.6398;1.1885;
1128.3000;0.6439;1.1983;
1128.6000;0.6406;1.1812;
1128.9000;0.6431;1.1910;
1129.2000;0.6414;1.1934;
1129.5000;0.6414;1.1910;
1129.8000;0.6414;1.1934;
1130.1000;0.6349;1.1812;
1130.4000;0.6406;1.1983;
1130.7000;0.6398;1.1983;
1131.0000;0.6447;1.2128;
1131.3000;0.6431;1.2177;
1131.6000;0.6406;1.2128;
1131.9000;0.6406;1.2128;
1132.2000;0.6406;1.2177;
1132.5000;0.6398;1.2153;
1132.8000;0.6471;1.2299;
1133.1000;0.6414;1.2226;
1133.4000;0.6422;1.2299;
1133.7000;0.6422;1.2153;
1134.0000;0.6431;1.2153;
1134.3000;0.6398;1.2153;
1134.6000;0.6390;1.2177;
1134.9000;0.6382;1.2104;
1135.2000;0.6422;1.2226;
1135.5000;0.6406;1.2104;
1135.8000;0.6414;1.2104;
1136.1000;0.6349;1.1934;
1136.4000;0.6357;1.1934;
1136.7000;0.6414;1.2055;
1137.0000;0.6455;1.2177;
1137.3000;0.6398;1.2031;
1137.6000;0.6390;1.1983;
1137.9000;0.6398;1.1983;
1138.2000;0.6414;1.2007;
1138.5000;0.6398;1.2080;
1138.8000;0.6463;1.2250;
1139.1000;0.6390;1.2055;
1139.4000;0.6398;1.2104;
1139.7000;0.6398;1.2080;
1140.0000;0.6374;1.2031;
1140.3000;0.6382;1.2031;
1140.6000;0.6398;1.2128;
1140.9000;0.6382;1.2007;
1141.2000;0.6398;1.2055;
1141.5000;0.6398;1.2031;
1141.8000;0.6414;1.2031;
1142.1000;0.6390;1.1983;
1142.4000;0.6398;1.2104;
1142.7000;0.6382;1.2104;
1143.0000;0.6422;1.2104;
1143.3000;0.6414;1.2104;
1143.6000;0.6414;1.2153;
1143.9000;0.6398;1.2128;
1144.2000;0.6406;1.2274;
1144.5000;0.6414;1.2274;
1144.8000;0.6398;1.2177;
1145.1000;0.6447;1.2201;
1145.4000;0.6414;1.2153;
1145.7000;0.6390;1.2080;
1146.0000;0.6390;1.2055;
1146.3000;0.6422;1.2153;
1146.6000;0.6398;1.2104;
1146.9000;0.6488;1.2299;
1147.2000;0.6390;1.2128;
1147.5000;0.6455;1.2396;
1147.8000;0.6406;1.2274;
1148.1000;0.6447;1.2371;
1148.4000;0.6471;1.2444;
1148.7000;0.6398;1.2250;
1149.0000;0.6463;1.2323;
1149.3000;0.6382;1.2153;
1149.6000;0.6406;1.2128;
1149.9000;0.6406;1.2104;
1150.2000;0.6390;1.2031;
1150.5000;0.6406;1.1983;
1150.8000;0.6406;1.2031;
1151.1000;0.6406;1.1983;
1151.4000;0.6390;1.1934;
1151.7000;0.6398;1.1934;
1152.0000;0.6398;1.1983;
1152.3000;0.6406;1.1958;
1152.6000;0.6398;1.1861;
1152.9000;0.6390;1.1715;
1153.2000;0.6431;1.1764;
1153.5000;0.6398;1.1715;
1153.8000;0.6398;1.1667;
1154.1000;0.6390;1.1812;
1154.4000;0.6382;1.1837;
1154.7000;0.6512;1.2153;
1155.0000;0.6382;1.1861;
1155.3000;0.6398;1.1983;
1155.6000;0.6414;1.1983;
1155.9000;0.6398;1.1934;
1156.2000;0.6390;1.1885;
1156.5000;0.6374;1.1958;
1156.8000;0.6382;1.1958;
1157.1000;0.6398;1.2031;
1157.4000;0.6398;1.1958;
1157.7000;0.6414;1.1934;
1158.0000;0.6382;1.2007;
1158.3000;0.6398;1.2104;
1158.6000;0.6422;1.2177;
1158.9000;0.6406;1.2104;
1159.2000;0.6406;1.2177;
1159.5000;0.6406;1.2201;
1159.8000;0.6390;1.1983;
1160.1000;0.6406;1.2177;
1160.4000;0.6398;1.2104;
1160.7000;0.6398;1.2104;
1161.0000;0.6422;1.2153;
1161.3000;0.6390;1.2128;
1161.6000;0.6390;1.2080;
1161.9000;0.6406;1.2128;
1162.2000;0.6398;1.2007;
1162.5000;0.6406;1.2104;
1162.8000;0.6357;1.2104;
1163.1000;0.6390;1.2201;
1163.4000;0.6382;1.2250;
1163.7000;0.6390;1.2347;
1164.0000;0.6398;1.2347;
1164.3000;0.6398;1.2347;
1164.6000;0.6406;1.2371;
1164.9000;0.6382;1.2323;
1165.2000;0.6431;1.2274;
1165.5000;0.6382;1.2128;
1165.8000;0.6414;1.2299;
1166.1000;0.6406;1.2177;
1166.4000;0.6390;1.2080;
1166.7000;0.6390;1.2153;
1167.0000;0.6398;1.2128;
1167.3000;0.6349;1.1934;
1167.6000;0.6398;1.2104;
1167.9000;0.6349;1.1983;
1168.2000;0.6398;1.2080;
1168.5000;0.6382;1.1983;
1168.8000;0.6414;1.2055;
1169.1000;0.6325;1.1861;
1169.4000;0.6431;1.2153;
1169.7000;0.6398;1.2055;
1170.0000;0.6276;1.1740;
1170.3000;0.6414;1.1983;
1170.6000;0.6357;1.1910;
1170.9000;0.6439;1.2128;
1171.2000;0.6390;1.1983;
1171.5000;0.6398;1.2055;
1171.8000;0.6374;1.2055;
1172.1000;0.6455;1.2299;
1172.4000;0.6471;1.2274;
1172.7000;0.6406;1.2031;
1173.0000;0.6382;1.2080;
1173.3000;0.6390;1.2153;
1173.6000;0.6382;1.2153;
1173.9000;0.6431;1.2226;
1174.2000;0.6382;1.2153;
1174.5000;0.6414;1.2299;
1174.8000;0.6439;1.2347;
1175.1000;0.6422;1.2226;
1175.4000;0.6406;1.2226;
1175.7000;0.6390;1.2201;
1176.0000;0.6365;1.2153;
1176.3000;0.6390;1.2128;
1176.6000;0.6365;1.2104;
1176.9000;0.6365;1.2080;
1177.2000;0.6374;1.2104;
1177.5000;0.6398;1.2177;
1177.8000;0.6374;1.2104;
1178.1000;0.6357;1.2055;
1178.4000;0.6414;1.2153;
1178.7000;0.6398;1.2104;
1179.0000;0.6398;1.2031;
1179.3000;0.6382;1.2007;
1179.6000;0.6390;1.2055;
1179.9000;0.6390;1.2080;
1180.2000;0.6374;1.2055;
1180.5000;0.6390;1.2128;
1180.8000;0.6357;1.2104;
1181.1000;0.6390;1.2128;
1181.4000;0.6414;1.2177;
1181.7000;0.6349;1.2055;
1182.0000;0.6382;1.2104;
1182.3000;0.6374;1.2031;
1182.6000;0.6406;1.2104;
1182.9000;0.6390;1.2055;
1183.2000;0.6374;1.2031;
1183.5000;0.6365;1.1910;
1183.8000;0.6398;1.2031;
1184.1000;0.6390;1.2055;
1184.4000;0.6382;1.2153;
1184.7000;0.6390;1.2177;
1185.0000;0.6390;1.2177;
1185.3000;0.6390;1.2128;
1185.6000;0.6333;1.1958;
1185.9000;0.6398;1.1983;
1186.2000;0.6414;1.2080;
1186.5000;0.6390;1.1983;
1186.8000;0.6382;1.1910;
1187.1000;0.6382;1.1958;
1187.4000;0.6382;1.1983;
1187.7000;0.6349;1.1861;
1188.0000;0.6439;1.2031;
1188.3000;0.6374;1.1885;
1188.6000;0.6390;1.2055;
1188.9000;0.6406;1.2177;
1189.2000;0.6390;1.2226;
1189.5000;0.6365;1.2201;
1189.8000;0.6390;1.2299;
1190.1000;0.6398;1.2299;
1190.4000;0.6382;1.2226;
1190.7000;0.6382;1.2347;
1191.0000;0.6349;1.2250;
1191.3000;0.6406;1.2299;
1191.6000;0.6390;1.2250;
1191.9000;0.6374;1.2226;
1192.2000;0.6374;1.2201;
1192.5000;0.6374;1.2226;
1192.8000;0.6382;1.2274;
1193.1000;0.6365;1.2226;
1193.4000;0.6374;1.2250;
1193.7000;0.6382;1.2323;
1194.0000;0.6390;1.2250;
1194.3000;0.6382;1.2201;
1194.6000;0.6390;1.2104;
1194.9000;0.6382;1.2080;
1195.2000;0.6374;1.1983;
1195.5000;0.6374;1.1983;
1195.8000;0.6398;1.1910;
1196.1000;0.6284;1.1569;
1196.4000;0.6390;1.1812;
1196.7000;0.6398;1.1910;
1197.0000;0.6406;1.1958;
1197.3000;0.6365;1.1885;
1197.6000;0.6382;1.1910;
1197.9000;0.6390;1.1934;
1198.2000;0.6349;1.1958;
1198.5000;0.6374;1.1958;
1198.8000;0.6374;1.1910;
1199.1000;0.6390;1.2007;
1199.4000;0.6398;1.2055;
1199.7000;0.6374;1.2104;
1200.0000;0.6374;1.2153;
1200.3000;0.6390;1.2177;
1200.6000;0.6390;1.2177;
1200.9000;0.6390;1.2128;
1201.2000;0.6406;1.2299;
1201.5000;0.6406;1.2274;
1201.8000;0.6374;1.2274;
1202.1000;0.6382;1.2323;
1202.4000;0.6357;1.2274;
1202.7000;0.6390;1.2323;
1203.0000;0.6365;1.2250;
1203.3000;0.6374;1.2201;
1203.6000;0.6349;1.2055;
1203.9000;0.6374;1.2128;
1204.2000;0.6398;1.2128;
1204.5000;0.6382;1.2128;
1204.8000;0.6382;1.2104;
1205.1000;0.6374;1.2080;
1205.4000;0.6365;1.2104;
1205.7000;0.6382;1.2128;
1206.0000;0.6390;1.2031;
1206.3000;0.6357;1.1983;
1206.6000;0.6325;1.1885;
1206.9000;0.6398;1.2055;
1207.2000;0.6398;1.2031;
1207.5000;0.6382;1.2031;
1207.8000;0.6398;1.2007;
1208.1000;0.6374;1.2007;
1208.4000;0.6382;1.2104;
1208.7000;0.6390;1.2104;
1209.0000;0.6382;1.2104;
1209.3000;0.6382;1.2104;
1209.6000;0.6365;1.2153;
1209.9000;0.6382;1.2177;
1210.2000;0.6349;1.2080;
1210.5000;0.6382;1.2201;
1210.8000;0.6390;1.2128;
1211.1000;0.6390;1.2226;
1211.4000;0.6382;1.2274;
1211.7000;0.6382;1.2323;
1212.0000;0.6398;1.2274;
1212.3000;0.6406;1.2250;
1212.6000;0.6382;1.2177;
1212.9000;0.6382;1.2153;
1213.2000;0.6398;1.2177;
1213.5000;0.6349;1.2104;
1213.8000;0.6365;1.2055;
1214.1000;0.6365;1.2031;
1214.4000;0.6390;1.2055;
1214.7000;0.6398;1.2128;
1215.0000;0.6374;1.2080;
1215.3000;0.6382;1.2031;
1215.6000;0.6382;1.1958;
1215.9000;0.6406;1.2031;
1216.2000;0.6414;1.2080;
1216.5000;0.6390;1.2055;
1216.8000;0.6398;1.2080;
1217.1000;0.6382;1.2055;
1217.4000;0.6390;1.2007;
1217.7000;0.6357;1.1910;
1218.0000;0.6390;1.2104;
1218.3000;0.6382;1.2055;
1218.6000;0.6382;1.2031;
1218.9000;0.6382;1.1958;
1219.2000;0.6357;1.1910;
1219.5000;0.6374;1.1837;
1219.8000;0.6365;1.1812;
1220.1000;0.6431;1.2055;
1220.4000;0.6406;1.2007;
1220.7000;0.6382;1.1885;
1221.0000;0.6382;1.1910;
1221.3000;0.6341;1.1861;
1221.6000;0.6374;1.2007;
1221.9000;0.6382;1.2226;
1222.2000;0.6374;1.2250;
1222.5000;0.6365;1.2153;
1222.8000;0.6374;1.2128;
1223.1000;0.6349;1.1958;
1223.4000;0.6374;1.2007;
1223.7000;0.6374;1.2007;
1224.0000;0.6447;1.2201;
1224.3000;0.6365;1.2007;
1224.6000;0.6390;1.2080;
1224.9000;0.6357;1.2080;
1225.2000;0.6382;1.2055;
1225.5000;0.6390;1.2055;
1225.8000;0.6374;1.2104;
1226.1000;0.6382;1.2031;
1226.4000;0.6374;1.2031;
1226.7000;0.6382;1.1910;
1227.0000;0.6357;1.1910;
1227.3000;0.6374;1.1885;
1227.6000;0.6374;1.1910;
1227.9000;0.6341;1.1983;
1228.2000;0.6333;1.2031;
1228.5000;0.6365;1.2104;
1228.8000;0.6349;1.2128;
1229.1000;0.6365;1.2201;
1229.4000;0.6357;1.2250;
1229.7000;0.6382;1.2323;
1230.0000;0.6333;1.2153;
1230.3000;0.6390;1.2201;
1230.6000;0.6390;1.2201;
1230.9000;0.6357;1.2031;
1231.2000;0.6398;1.2031;
1231.5000;0.6317;1.1812;
1231.8000;0.6382;1.1910;
1232.1000;0.6390;1.1934;
1232.4000;0.6333;1.1812;
1232.7000;0.6374;1.2007;
1233.0000;0.6447;1.2250;
1233.3000;0.6398;1.2104;
1233.6000;0.6374;1.2031;
1233.9000;0.6382;1.2080;
1234.2000;0.6365;1.2007;
1234.5000;0.6365;1.2080;
1234.8000;0.6390;1.2226;
1235.1000;0.6374;1.2153;
1235.4000;0.6374;1.2177;
1235.7000;0.6374;1.2250;
1236.0000;0.6382;1.2201;
1236.3000;0.6390;1.2153;
1236.6000;0.6390;1.2177;
1236.9000;0.6341;1.2128;
1237.2000;0.6382;1.2153;
1237.5000;0.6382;1.2104;
1237.8000;0.6382;1.2153;
1238.1000;0.6341;1.2055;
1238.4000;0.6309;1.1861;
1238.7000;0.6390;1.2055;
1239.0000;0.6365;1.1983;
1239.3000;0.6357;1.2055;
1239.6000;0.6374;1.2080;
1239.9000;0.6455;1.2299;
1240.2000;0.6365;1.2080;
1240.5000;0.6365;1.2128;
1240.8000;0.6382;1.2153;
1241.1000;0.6406;1.2128;
1241.4000;0.6349;1.1934;
1241.7000;0.6382;1.2031;
1242.0000;0.6317;1.1885;
1242.3000;0.6374;1.2080;
1242.6000;0.6390;1.2007;
1242.9000;0.6317;1.1885;
1243.2000;0.6333;1.1885;
1243.5000;0.6374;1.1910;
1243.8000;0.6341;1.1861;
1244.1000;0.6325;1.1885;
1244.4000;0.6365;1.1983;
1244.7000;0.6382;1.1983;
1245.0000;0.6357;1.1983;
1245.3000;0.6365;1.1910;
1245.6000;0.6390;1.1885;
1245.9000;0.6349;1.1885;
1246.2000;0.6309;1.1788;
1246.5000;0.6365;1.1934;
1246.8000;0.6349;1.1958;
1247.1000;0.6349;1.2031;
1247.4000;0.6341;1.1837;
1247.7000;0.6374;1.1788;
1248.0000;0.6341;1.1715;
1248.3000;0.6374;1.1764;
1248.6000;0.6365;1.1740;
1248.9000;0.6374;1.1764;
1249.2000;0.6382;1.1740;
1249.5000;0.6382;1.1740;
1249.8000;0.6406;1.1740;
1250.1000;0.6365;1.1667;
1250.4000;0.6398;1.1715;
1250.7000;0.6374;1.1642;
1251.0000;0.6349;1.1618;
1251.3000;0.6398;1.1764;
1251.6000;0.6374;1.1740;
1251.9000;0.6382;1.1837;
1252.2000;0.6317;1.1764;
1252.5000;0.6349;1.1812;
1252.8000;0.6382;1.1910;
1253.1000;0.6341;1.1861;
1253.4000;0.6341;1.1812;
1253.7000;0.6292;1.1715;
1254.0000;0.6317;1.1740;
1254.3000;0.6357;1.1885;
1254.6000;0.6349;1.1837;
1254.9000;0.6398;1.2104;
1255.2000;0.6374;1.2055;
1255.5000;0.6325;1.1910;
1255.8000;0.6365;1.2007;
1256.1000;0.6374;1.2007;
1256.4000;0.6463;1.2201;
1256.7000;0.6390;1.2007;
1257.0000;0.6333;1.1885;
1257.3000;0.6374;1.1983;
1257.6000;0.6365;1.2007;
1257.9000;0.6349;1.2007;
1258.2000;0.6365;1.2080;
1258.5000;0.6374;1.2031;
1258.8000;0.6398;1.2080;
1259.1000;0.6357;1.2055;
1259.4000;0.6349;1.2007;
1259.7000;0.6365;1.2104;
1260.0000;0.6349;1.2007;
1260.3000;0.6374;1.2031;
1260.6000;0.6382;1.2104;
1260.9000;0.6341;1.2080;
1261.2000;0.6374;1.2080;
1261.5000;0.6382;1.2128;
1261.8000;0.6365;1.2128;
1262.1000;0.6390;1.2177;
1262.4000;0.6414;1.2201;
1262.7000;0.6414;1.2153;
1263.0000;0.6333;1.1934;
1263.3000;0.6317;1.1910;
1263.6000;0.6341;1.1934;
1263.9000;0.6349;1.1983;
1264.2000;0.6333;1.1934;
1264.5000;0.6300;1.1910;
1264.8000;0.6349;1.2080;
1265.1000;0.6365;1.2055;
1265.4000;0.6333;1.1934;
1265.7000;0.6374;1.1983;
1266.0000;0.6374;1.2031;
1266.3000;0.6357;1.1983;
1266.6000;0.6390;1.2007;
1266.9000;0.6382;1.2007;
1267.2000;0.6374;1.2055;
1267.5000;0.6365;1.2177;
1267.8000;0.6374;1.2250;
1268.1000;0.6374;1.2250;
1268.4000;0.6333;1.2080;
1268.7000;0.6431;1.2347;
1269.0000;0.6357;1.2128;
1269.3000;0.6357;1.2055;
1269.6000;0.6357;1.2007;
1269.9000;0.6219;1.1788;
1270.2000;0.6325;1.2055;
1270.5000;0.6374;1.2153;
1270.8000;0.6365;1.2104;
1271.1000;0.6374;1.2055;
1271.4000;0.6390;1.2055;
1271.7000;0.6333;1.1837;
1272.0000;0.6390;1.2007;
1272.3000;0.6390;1.2080;
1272.6000;0.6382;1.2031;
1272.9000;0.6365;1.2055;
1273.2000;0.6390;1.2031;
1273.5000;0.6333;1.1983;
1273.8000;0.6341;1.1837;
1274.1000;0.6357;1.1983;
1274.4000;0.6357;1.1983;
1274.7000;0.6357;1.1958;
1275.0000;0.6349;1.2031;
1275.3000;0.6365;1.2007;
1275.6000;0.6365;1.2080;
1275.9000;0.6300;1.2007;
1276.2000;0.6357;1.2128;
1276.5000;0.6374;1.2226;
1276.8000;0.6374;1.2177;
1277.1000;0.6382;1.2177;
1277.4000;0.6260;1.1812;
1277.7000;0.6382;1.2153;
1278.0000;0.6341;1.2201;
1278.3000;0.6365;1.2177;
1278.6000;0.6374;1.2201;
1278.9000;0.6365;1.2250;
1279.2000;0.6374;1.2299;
1279.5000;0.6382;1.2250;
1279.8000;0.6406;1.2347;
1280.1000;0.6357;1.2299;
1280.4000;0.6398;1.2420;
1280.7000;0.6382;1.2420;
1281.0000;0.6390;1.2371;
1281.3000;0.6374;1.2274;
1281.6000;0.6390;1.2299;
1281.9000;0.6390;1.2347;
1282.2000;0.6382;1.2299;
1282.5000;0.6374;1.2201;
1282.8000;0.6365;1.2128;
1283.1000;0.6365;1.2153;
1283.4000;0.6341;1.2031;
1283.7000;0.6365;1.2153;
1284.0000;0.6325;1.2080;
1284.3000;0.6374;1.2177;
1284.6000;0.6382;1.2128;
1284.9000;0.6309;1.2055;
1285.2000;0.6349;1.2104;
1285.5000;0.6365;1.2128;
1285.8000;0.6357;1.2080;
1286.1000;0.6357;1.2128;
1286.4000;0.6357;1.2153;
1286.7000;0.6374;1.2128;
1287.0000;0.6333;1.2080;
1287.3000;0.6374;1.2177;
1287.6000;0.6374;1.2201;
1287.9000;0.6406;1.2299;
1288.2000;0.6365;1.2128;
1288.5000;0.6374;1.2055;
1288.8000;0.6365;1.2007;
1289.1000;0.6349;1.1983;
1289.4000;0.6374;1.2128;
1289.7000;0.6325;1.2007;
1290.0000;0.6341;1.1885;
1290.3000;0.6382;1.1958;
1290.6000;0.6374;1.1934;
1290.9000;0.6325;1.1934;
1291.2000;0.6374;1.2080;
1291.5000;0.6341;1.2055;
1291.8000;0.6357;1.2128;
1292.1000;0.6349;1.2055;
1292.4000;0.6365;1.2104;
1292.7000;0.6349;1.2007;
1293.0000;0.6357;1.2080;
1293.3000;0.6431;1.2396;
1293.6000;0.6382;1.2274;
1293.9000;0.6357;1.2177;
1294.2000;0.6349;1.2201;
1294.5000;0.6349;1.2226;
1294.8000;0.6357;1.2274;
1295.1000;0.6422;1.2347;
1295.4000;0.6390;1.2226;
1295.7000;0.6382;1.2201;
1296.0000;0.6422;1.2274;
1296.3000;0.6390;1.2250;
1296.6000;0.6390;1.2201;
1296.9000;0.6374;1.2226;
1297.2000;0.6365;1.2299;
1297.5000;0.6341;1.2153;
1297.8000;0.6365;1.2177;
1298.1000;0.6341;1.2250;
1298.4000;0.6365;1.2371;
1298.7000;0.6374;1.2444;
1299.0000;0.6349;1.2299;
1299.3000;0.6341;1.2226;
1299.6000;0.6374;1.2299;
1299.9000;0.6349;1.2226;
1300.2000;0.6341;1.2274;
1300.5000;0.6357;1.2250;
1300.8000;0.6365;1.2226;
1301.1000;0.6333;1.2274;
1301.4000;0.6374;1.2299;
1301.7000;0.6349;1.2201;
1302.0000;0.6374;1.2226;
1302.3000;0.6252;1.1958;
1302.6000;0.6349;1.2274;
1302.9000;0.6333;1.2177;
1303.2000;0.6317;1.2250;
1303.5000;0.6365;1.2371;
1303.8000;0.6349;1.2274;
1304.1000;0.6357;1.2226;
1304.4000;0.6333;1.2201;
1304.7000;0.6349;1.2299;
1305.0000;0.6365;1.2323;
1305.3000;0.6365;1.2347;
1305.6000;0.6357;1.2420;
1305.9000;0.6365;1.2517;
1306.2000;0.6349;1.2542;
1306.5000;0.6374;1.2566;
1306.8000;0.6365;1.2493;
1307.1000;0.6349;1.2493;
1307.4000;0.6341;1.2371;
1307.7000;0.6365;1.2396;
1308.0000;0.6349;1.2323;
1308.3000;0.6365;1.2323;
1308.6000;0.6365;1.2323;
1308.9000;0.6374;1.2323;
1309.2000;0.6349;1.2201;
1309.5000;0.6333;1.2274;
1309.8000;0.6357;1.2226;
1310.1000;0.6374;1.2250;
1310.4000;0.6349;1.2250;
1310.7000;0.6284;1.2007;
1311.0000;0.6349;1.2201;
1311.3000;0.6374;1.2396;
1311.6000;0.6365;1.2420;
1311.9000;0.6341;1.2323;
1312.2000;0.6341;1.2323;
1312.5000;0.6365;1.2323;
1312.8000;0.6382;1.2299;
1313.1000;0.6341;1.2153;
1313.4000;0.6365;1.2153;
1313.7000;0.6341;1.2201;
1314.0000;0.6374;1.2299;
1314.3000;0.6349;1.2201;
1314.6000;0.6357;1.2274;
1314.9000;0.6357;1.2201;
1315.2000;0.6431;1.2469;
1315.5000;0.6349;1.2274;
1315.8000;0.6333;1.2274;
1316.1000;0.6365;1.2347;
1316.4000;0.6349;1.2274;
1316.7000;0.6357;1.2250;
1317.0000;0.6309;1.2177;
1317.3000;0.6398;1.2396;
1317.6000;0.6357;1.2371;
1317.9000;0.6357;1.2371;
1318.2000;0.6357;1.2299;
1318.5000;0.6374;1.2323;
1318.8000;0.6365;1.2323;
1319.1000;0.6365;1.2201;
1319.4000;0.6309;1.1983;
1319.7000;0.6341;1.2201;
1320.0000;0.6357;1.2396;
1320.3000;0.6349;1.2396;
1320.6000;0.6349;1.2299;
1320.9000;0.6382;1.2542;
1321.2000;0.6349;1.2469;
1321.5000;0.6333;1.2444;
1321.8000;0.6252;1.2201;
1322.1000;0.6357;1.2566;
1322.4000;0.6349;1.2566;
1322.7000;0.6365;1.2542;
1323.0000;0.6390;1.2444;
1323.3000;0.6382;1.2420;
1323.6000;0.6341;1.2274;
1323.9000;0.6349;1.2201;
1324.2000;0.6398;1.2201;
1324.5000;0.6357;1.2226;
1324.8000;0.6349;1.2250;
1325.1000;0.6365;1.2323;
1325.4000;0.6349;1.2250;
1325.7000;0.6390;1.2226;
1326.0000;0.6365;1.2226;
1326.3000;0.6374;1.2250;
1326.6000;0.6365;1.2201;
1326.9000;0.6374;1.2177;
1327.2000;0.6317;1.2007;
1327.5000;0.6365;1.2104;
1327.8000;0.6349;1.2080;
1328.1000;0.6357;1.2104;
1328.4000;0.6374;1.2128;
1328.7000;0.6382;1.2128;
1329.0000;0.6406;1.2153;
1329.3000;0.6365;1.2177;
1329.6000;0.6357;1.2153;
1329.9000;0.6349;1.2128;
1330.2000;0.6349;1.2177;
1330.5000;0.6374;1.2201;
1330.8000;0.6341;1.2128;
1331.1000;0.6357;1.2104;
1331.4000;0.6349;1.2007;
1331.7000;0.6349;1.2007;
1332.0000;0.6357;1.2007;
1332.3000;0.6422;1.2226;
1332.6000;0.6349;1.2104;
1332.9000;0.6365;1.2128;
1333.2000;0.6268;1.1934;
1333.5000;0.6382;1.2274;
1333.8000;0.6357;1.2323;
1334.1000;0.6349;1.2444;
1334.4000;0.6341;1.2444;
1334.7000;0.6349;1.2493;
1335.0000;0.6325;1.2469;
1335.3000;0.6349;1.2469;
1335.6000;0.6341;1.2371;
1335.9000;0.6268;1.2080;
1336.2000;0.6414;1.2323;
1336.5000;0.6382;1.2299;
1336.8000;0.6365;1.2371;
1337.1000;0.6309;1.2250;
1337.4000;0.6349;1.2420;
1337.7000;0.6341;1.2396;
1338.0000;0.6349;1.2469;
1338.3000;0.6398;1.2615;
1338.6000;0.6374;1.2444;
1338.9000;0.6325;1.2274;
1339.2000;0.6374;1.2444;
1339.5000;0.6374;1.2371;
1339.8000;0.6357;1.2323;
1340.1000;0.6333;1.2201;
1340.4000;0.6309;1.2104;
1340.7000;0.6357;1.2226;
1341.0000;0.6357;1.2250;
1341.3000;0.6382;1.2371;
1341.6000;0.6357;1.2226;
1341.9000;0.6309;1.2128;
1342.2000;0.6349;1.2226;
1342.5000;0.6357;1.2274;
1342.8000;0.6317;1.2153;
1343.1000;0.6357;1.2226;
1343.4000;0.6398;1.2299;
1343.7000;0.6365;1.2250;
1344.0000;0.6333;1.2250;
1344.3000;0.6341;1.2226;
1344.6000;0.6463;1.2444;
1344.9000;0.6325;1.2153;
1345.2000;0.6374;1.2250;
1345.5000;0.6333;1.2201;
1345.8000;0.6309;1.2080;
1346.1000;0.6382;1.2250;
1346.4000;0.6349;1.2128;
1346.7000;0.6365;1.2128;
1347.0000;0.6292;1.1983;
1347.3000;0.6349;1.2080;
1347.6000;0.6333;1.2031;
1347.9000;0.6325;1.1885;
1348.2000;0.6382;1.2055;
1348.5000;0.6463;1.2250;
1348.8000;0.6300;1.1812;
1349.1000;0.6357;1.1983;
1349.4000;0.6365;1.1910;
1349.7000;0.6357;1.1910;
1350.0000;0.6349;1.1983;
1350.3000;0.6260;1.1715;
1350.6000;0.6357;1.1910;
1350.9000;0.6357;1.1885;
1351.2000;0.6357;1.1910;
1351.5000;0.6349;1.2031;
1351.8000;0.6333;1.2055;
1352.1000;0.6349;1.2153;
1352.4000;0.6390;1.2250;
1352.7000;0.6341;1.2104;
1353.0000;0.6349;1.2201;
1353.3000;0.6365;1.2177;
1353.6000;0.6349;1.2104;
1353.9000;0.6382;1.2177;
1354.2000;0.6341;1.2055;
1354.5000;0.6349;1.2007;
1354.8000;0.6325;1.1885;
1355.1000;0.6374;1.2177;
1355.4000;0.6357;1.2104;
1355.7000;0.6341;1.2031;
1356.0000;0.6349;1.2007;
1356.3000;0.6357;1.2007;
1356.6000;0.6365;1.1983;
1356.9000;0.6325;1.1934;
1357.2000;0.6235;1.1740;
1357.5000;0.6260;1.1885;
1357.8000;0.6382;1.2201;
1358.1000;0.6422;1.2274;
1358.4000;0.6357;1.2055;
1358.7000;0.6365;1.2080;
1359.0000;0.6365;1.2226;
1359.3000;0.6341;1.2299;
1359.6000;0.6374;1.2274;
1359.9000;0.6309;1.2080;
1360.2000;0.6431;1.2469;
1360.5000;0.6341;1.2274;
1360.8000;0.6341;1.2274;
1361.1000;0.6365;1.2299;
1361.4000;0.6333;1.2153;
1361.7000;0.6349;1.2201;
1362.0000;0.6333;1.2201;
1362.3000;0.6398;1.2299;
1362.6000;0.6341;1.2201;
1362.9000;0.6349;1.2250;
1363.2000;0.6357;1.2177;
1363.5000;0.6374;1.2250;
1363.8000;0.6349;1.2299;
1364.1000;0.6357;1.2420;
1364.4000;0.6349;1.2323;
1364.7000;0.6374;1.2323;
1365.0000;0.6382;1.2371;
1365.3000;0.6333;1.2299;
1365.6000;0.6317;1.2299;
1365.9000;0.6357;1.2444;
1366.2000;0.6317;1.2371;
1366.5000;0.6317;1.2250;
1366.8000;0.6374;1.2371;
1367.1000;0.6341;1.2299;
1367.4000;0.6349;1.2274;
1367.7000;0.6341;1.2226;
1368.0000;0.6341;1.2250;
1368.3000;0.6325;1.2250;
1368.6000;0.6341;1.2226;
1368.9000;0.6284;1.2104;
1369.2000;0.6317;1.2153;
1369.5000;0.6325;1.2201;
1369.8000;0.6349;1.2299;
1370.1000;0.6341;1.2299;
1370.4000;0.6357;1.2420;
1370.7000;0.6325;1.2444;
1371.0000;0.6284;1.2347;
1371.3000;0.6317;1.2396;
1371.6000;0.6300;1.2274;
1371.9000;0.6325;1.2323;
1372.2000;0.6325;1.2201;
1372.5000;0.6349;1.2250;
1372.8000;0.6325;1.2201;
1373.1000;0.6357;1.2299;
1373.4000;0.6349;1.2299;
1373.7000;0.6439;1.2493;
1374.0000;0.6325;1.2226;
1374.3000;0.6333;1.2274;
1374.6000;0.6300;1.2177;
1374.9000;0.6365;1.2299;
1375.2000;0.6357;1.2299;
1375.5000;0.6365;1.2274;
1375.8000;0.6317;1.2323;
1376.1000;0.6365;1.2420;
1376.4000;0.6357;1.2420;
1376.7000;0.6422;1.2542;
1377.0000;0.6292;1.2055;
1377.3000;0.6300;1.2031;
1377.6000;0.6341;1.2177;
1377.9000;0.6349;1.2250;
1378.2000;0.6333;1.2201;
1378.5000;0.6398;1.2323;
1378.8000;0.6317;1.2201;
1379.1000;0.6325;1.2201;
1379.4000;0.6317;1.2128;
1379.7000;0.6333;1.2153;
1380.0000;0.6382;1.2274;
1380.3000;0.6357;1.2226;
1380.6000;0.6341;1.2226;
1380.9000;0.6341;1.2201;
1381.2000;0.6349;1.2250;
1381.5000;0.6341;1.2250;
1381.8000;0.6325;1.2128;
1382.1000;0.6341;1.2055;
1382.4000;0.6365;1.2177;
1382.7000;0.6374;1.2177;
1383.0000;0.6341;1.2128;
1383.3000;0.6341;1.2177;
1383.6000;0.6349;1.2201;
1383.9000;0.6349;1.2201;
1384.2000;0.6357;1.2274;
1384.5000;0.6341;1.2347;
1384.8000;0.6357;1.2371;
1385.1000;0.6349;1.2420;
1385.4000;0.6365;1.2323;
1385.7000;0.6349;1.2226;
1386.0000;0.6349;1.2250;
1386.3000;0.6349;1.2201;
1386.6000;0.6357;1.2226;
1386.9000;0.6333;1.2226;
1387.2000;0.6357;1.2250;
1387.5000;0.6349;1.2226;
1387.8000;0.6365;1.2299;
1388.1000;0.6357;1.2274;
1388.4000;0.6357;1.2299;
1388.7000;0.6349;1.2201;
1389.0000;0.6365;1.2153;
1389.3000;0.6341;1.2080;
1389.6000;0.6357;1.2104;
1389.9000;0.6341;1.2153;
1390.2000;0.6349;1.2128;
1390.5000;0.6357;1.2201;
1390.8000;0.6333;1.2250;
1391.1000;0.6333;1.2323;
1391.4000;0.6325;1.2396;
1391.7000;0.6325;1.2420;
1392.0000;0.6341;1.2299;
1392.3000;0.6317;1.2299;
1392.6000;0.6325;1.2226;
1392.9000;0.6333;1.2299;
1393.2000;0.6309;1.2153;
1393.5000;0.6325;1.2080;
1393.8000;0.6357;1.2080;
1394.1000;0.6333;1.2055;
1394.4000;0.6341;1.2080;
1394.7000;0.6357;1.2201;
1395.0000;0.6333;1.2177;
1395.3000;0.6349;1.2250;
1395.6000;0.6357;1.2250;
1395.9000;0.6333;1.2226;
1396.2000;0.6333;1.2250;
1396.5000;0.6341;1.2299;
1396.8000;0.6357;1.2250;
1397.1000;0.6341;1.2128;
1397.4000;0.6341;1.2080;
1397.7000;0.6317;1.2080;
1398.0000;0.6349;1.2128;
1398.3000;0.6365;1.2201;
1398.6000;0.6341;1.2128;
1398.9000;0.6349;1.2055;
1399.2000;0.6365;1.2080;
1399.5000;0.6357;1.2007;
1399.8000;0.6317;1.1861;
