time/ms;Fluo/V;P700 deltaI/I x10³;
-199.8000;0.7147;0.8094;
-199.5000;0.7147;0.8118;
-199.2000;0.7171;0.8240;
-198.9000;0.7147;0.8118;
-198.6000;0.7114;0.7972;
-198.3000;0.7066;0.7875;
-198.0000;0.7155;0.8118;
-197.7000;0.7171;0.8215;
-197.4000;0.7171;0.8118;
-197.1000;0.7163;0.8069;
-196.8000;0.7171;0.8094;
-196.5000;0.7171;0.8094;
-196.2000;0.7139;0.8045;
-195.9000;0.7171;0.8045;
-195.6000;0.7171;0.8069;
-195.3000;0.7131;0.7972;
-195.0000;0.7155;0.8118;
-194.7000;0.7147;0.8118;
-194.4000;0.7139;0.8069;
-194.1000;0.7131;0.7996;
-193.8000;0.7147;0.8045;
-193.5000;0.7074;0.7875;
-193.2000;0.7147;0.8069;
-192.9000;0.7171;0.8191;
-192.6000;0.7204;0.8167;
-192.3000;0.7147;0.8094;
-192.0000;0.7171;0.8142;
-191.7000;0.7179;0.8191;
-191.4000;0.7171;0.8240;
-191.1000;0.7155;0.8191;
-190.8000;0.7155;0.8191;
-190.5000;0.7220;0.8288;
-190.2000;0.7204;0.8191;
-189.9000;0.7155;0.7996;
-189.6000;0.7139;0.7972;
-189.3000;0.7163;0.8118;
-189.0000;0.7171;0.8142;
-188.7000;0.7171;0.8094;
-188.4000;0.7155;0.8021;
-188.1000;0.7147;0.7948;
-187.8000;0.7139;0.7972;
-187.5000;0.7163;0.8069;
-187.2000;0.7139;0.8069;
-186.9000;0.7163;0.8118;
-186.6000;0.7147;0.8045;
-186.3000;0.7163;0.8142;
-186.0000;0.7139;0.8118;
-185.7000;0.7139;0.8167;
-185.4000;0.7147;0.8167;
-185.1000;0.7155;0.8191;
-184.8000;0.7171;0.8240;
-184.5000;0.7171;0.8191;
-184.2000;0.7163;0.8118;
-183.9000;0.7163;0.8215;
-183.6000;0.7204;0.8361;
-183.3000;0.7139;0.8215;
-183.0000;0.7163;0.8312;
-182.7000;0.7163;0.8288;
-182.4000;0.7155;0.8215;
-182.1000;0.7155;0.8118;
-181.8000;0.7171;0.8094;
-181.5000;0.7163;0.8118;
-181.2000;0.7163;0.8069;
-180.9000;0.7147;0.7948;
-180.6000;0.7163;0.7972;
-180.3000;0.7179;0.7996;
-180.0000;0.7171;0.7996;
-179.7000;0.7147;0.7996;
-179.4000;0.7139;0.7996;
-179.1000;0.7163;0.8045;
-178.8000;0.7155;0.7948;
-178.5000;0.7147;0.7972;
-178.2000;0.7163;0.8069;
-177.9000;0.7163;0.8118;
-177.6000;0.7114;0.8094;
-177.3000;0.7155;0.8191;
-177.0000;0.7171;0.8288;
-176.7000;0.7163;0.8264;
-176.4000;0.7139;0.8191;
-176.1000;0.7155;0.8215;
-175.8000;0.7139;0.8094;
-175.5000;0.7155;0.8021;
-175.2000;0.7171;0.7996;
-174.9000;0.7147;0.7924;
-174.6000;0.7163;0.8045;
-174.3000;0.7171;0.8142;
-174.0000;0.7147;0.8094;
-173.7000;0.7147;0.8094;
-173.4000;0.7147;0.8094;
-173.1000;0.7139;0.8094;
-172.8000;0.7155;0.8094;
-172.5000;0.7147;0.8118;
-172.2000;0.7139;0.8118;
-171.9000;0.7155;0.8191;
-171.6000;0.7179;0.8240;
-171.3000;0.7171;0.8312;
-171.0000;0.7155;0.8215;
-170.7000;0.7155;0.8240;
-170.4000;0.7163;0.8167;
-170.1000;0.7171;0.8215;
-169.8000;0.7163;0.8288;
-169.5000;0.7131;0.8142;
-169.2000;0.7155;0.8215;
-168.9000;0.7155;0.8142;
-168.6000;0.7163;0.8118;
-168.3000;0.7155;0.8215;
-168.0000;0.7163;0.8191;
-167.7000;0.7163;0.8215;
-167.4000;0.7147;0.8167;
-167.1000;0.7163;0.8167;
-166.8000;0.7163;0.8094;
-166.5000;0.7163;0.8118;
-166.2000;0.7155;0.8094;
-165.9000;0.7163;0.8118;
-165.6000;0.7147;0.8069;
-165.3000;0.7155;0.8094;
-165.0000;0.7171;0.8191;
-164.7000;0.7155;0.8142;
-164.4000;0.7147;0.8118;
-164.1000;0.7139;0.8069;
-163.8000;0.7147;0.8045;
-163.5000;0.7147;0.7996;
-163.2000;0.7155;0.7996;
-162.9000;0.7155;0.8045;
-162.6000;0.7155;0.8021;
-162.3000;0.7155;0.8045;
-162.0000;0.7163;0.8118;
-161.7000;0.7147;0.8167;
-161.4000;0.7179;0.8337;
-161.1000;0.7131;0.8191;
-160.8000;0.7163;0.8264;
-160.5000;0.7163;0.8118;
-160.2000;0.7171;0.8215;
-159.9000;0.7163;0.8167;
-159.6000;0.7155;0.8167;
-159.3000;0.7163;0.8191;
-159.0000;0.7131;0.8191;
-158.7000;0.7163;0.8240;
-158.4000;0.7155;0.8215;
-158.1000;0.7147;0.8240;
-157.8000;0.7155;0.8385;
-157.5000;0.7163;0.8385;
-157.2000;0.7147;0.8288;
-156.9000;0.7155;0.8337;
-156.6000;0.7155;0.8385;
-156.3000;0.7171;0.8410;
-156.0000;0.7163;0.8458;
-155.7000;0.7171;0.8312;
-155.4000;0.7171;0.8142;
-155.1000;0.7196;0.8215;
-154.8000;0.7179;0.8215;
-154.5000;0.7147;0.8167;
-154.2000;0.7155;0.8118;
-153.9000;0.7114;0.7996;
-153.6000;0.7155;0.8094;
-153.3000;0.7171;0.8069;
-153.0000;0.7196;0.8191;
-152.7000;0.7155;0.8167;
-152.4000;0.7163;0.8142;
-152.1000;0.7139;0.8069;
-151.8000;0.7163;0.8167;
-151.5000;0.7155;0.8142;
-151.2000;0.7139;0.8167;
-150.9000;0.7163;0.8191;
-150.6000;0.7163;0.8288;
-150.3000;0.7147;0.8264;
-150.0000;0.7179;0.8264;
-149.7000;0.7139;0.8167;
-149.4000;0.7106;0.8118;
-149.1000;0.7155;0.8142;
-148.8000;0.7147;0.8191;
-148.5000;0.7139;0.8191;
-148.2000;0.7082;0.8021;
-147.9000;0.7163;0.8167;
-147.6000;0.7139;0.8264;
-147.3000;0.7155;0.8288;
-147.0000;0.7155;0.8215;
-146.7000;0.7155;0.8264;
-146.4000;0.7147;0.8264;
-146.1000;0.7147;0.8191;
-145.8000;0.7171;0.8337;
-145.5000;0.7179;0.8361;
-145.2000;0.7147;0.8191;
-144.9000;0.7139;0.8191;
-144.6000;0.7171;0.8312;
-144.3000;0.7155;0.8288;
-144.0000;0.7147;0.8288;
-143.7000;0.7139;0.8240;
-143.4000;0.7204;0.8361;
-143.1000;0.7155;0.8191;
-142.8000;0.7155;0.8118;
-142.5000;0.7147;0.8118;
-142.2000;0.7147;0.8142;
-141.9000;0.7155;0.8191;
-141.6000;0.7155;0.8312;
-141.3000;0.7139;0.8240;
-141.0000;0.7163;0.8288;
-140.7000;0.7163;0.8385;
-140.4000;0.7155;0.8337;
-140.1000;0.7147;0.8240;
-139.8000;0.7131;0.8069;
-139.5000;0.7139;0.8069;
-139.2000;0.7147;0.8118;
-138.9000;0.7163;0.8069;
-138.6000;0.7139;0.8167;
-138.3000;0.7139;0.8094;
-138.0000;0.7074;0.7899;
-137.7000;0.7131;0.7996;
-137.4000;0.7131;0.8021;
-137.1000;0.7147;0.8094;
-136.8000;0.7147;0.8167;
-136.5000;0.7147;0.8312;
-136.2000;0.7139;0.8240;
-135.9000;0.7163;0.8215;
-135.6000;0.7163;0.8240;
-135.3000;0.7155;0.8240;
-135.0000;0.7147;0.8240;
-134.7000;0.7139;0.8264;
-134.4000;0.7155;0.8361;
-134.1000;0.7163;0.8337;
-133.8000;0.7147;0.8264;
-133.5000;0.7179;0.8312;
-133.2000;0.7139;0.8167;
-132.9000;0.7212;0.8434;
-132.6000;0.7155;0.8240;
-132.3000;0.7155;0.8264;
-132.0000;0.7155;0.8215;
-131.7000;0.7171;0.8240;
-131.4000;0.7155;0.8240;
-131.1000;0.7131;0.8167;
-130.8000;0.7155;0.8215;
-130.5000;0.7163;0.8142;
-130.2000;0.7155;0.8191;
-129.9000;0.7171;0.8142;
-129.6000;0.7155;0.8118;
-129.3000;0.7171;0.8191;
-129.0000;0.7163;0.8167;
-128.7000;0.7155;0.8167;
-128.4000;0.7147;0.8191;
-128.1000;0.7163;0.8240;
-127.8000;0.7155;0.8337;
-127.5000;0.7163;0.8337;
-127.2000;0.7155;0.8288;
-126.9000;0.7163;0.8288;
-126.6000;0.7163;0.8337;
-126.3000;0.7147;0.8240;
-126.0000;0.7147;0.8264;
-125.7000;0.7163;0.8312;
-125.4000;0.7171;0.8288;
-125.1000;0.7147;0.8142;
-124.8000;0.7163;0.8142;
-124.5000;0.7155;0.8215;
-124.2000;0.7139;0.8240;
-123.9000;0.7139;0.8240;
-123.6000;0.7163;0.8240;
-123.3000;0.7155;0.8264;
-123.0000;0.7163;0.8215;
-122.7000;0.7171;0.8288;
-122.4000;0.7188;0.8240;
-122.1000;0.7106;0.8021;
-121.8000;0.7147;0.8094;
-121.5000;0.7147;0.8167;
-121.2000;0.7163;0.8361;
-120.9000;0.7131;0.8385;
-120.6000;0.7147;0.8434;
-120.3000;0.7163;0.8580;
-120.0000;0.7139;0.8483;
-119.7000;0.7188;0.8361;
-119.4000;0.7139;0.8240;
-119.1000;0.7163;0.8361;
-118.8000;0.7147;0.8337;
-118.5000;0.7147;0.8385;
-118.2000;0.7204;0.8458;
-117.9000;0.7163;0.8312;
-117.6000;0.7163;0.8385;
-117.3000;0.7163;0.8410;
-117.0000;0.7155;0.8361;
-116.7000;0.7155;0.8458;
-116.4000;0.7155;0.8483;
-116.1000;0.7155;0.8410;
-115.8000;0.7163;0.8434;
-115.5000;0.7163;0.8410;
-115.2000;0.7171;0.8337;
-114.9000;0.7147;0.8312;
-114.6000;0.7155;0.8385;
-114.3000;0.7155;0.8385;
-114.0000;0.7139;0.8191;
-113.7000;0.7163;0.8167;
-113.4000;0.7188;0.8288;
-113.1000;0.7147;0.8191;
-112.8000;0.7163;0.8191;
-112.5000;0.7163;0.8215;
-112.2000;0.7139;0.8167;
-111.9000;0.7155;0.8240;
-111.6000;0.7179;0.8312;
-111.3000;0.7155;0.8191;
-111.0000;0.7147;0.8215;
-110.7000;0.7155;0.8167;
-110.4000;0.7155;0.8191;
-110.1000;0.7155;0.8215;
-109.8000;0.7147;0.8191;
-109.5000;0.7155;0.8118;
-109.2000;0.7163;0.8167;
-108.9000;0.7147;0.8191;
-108.6000;0.7147;0.8215;
-108.3000;0.7131;0.8167;
-108.0000;0.7139;0.8215;
-107.7000;0.7139;0.8167;
-107.4000;0.7147;0.8069;
-107.1000;0.7147;0.7996;
-106.8000;0.7139;0.7875;
-106.5000;0.7163;0.7924;
-106.2000;0.7171;0.7924;
-105.9000;0.7171;0.8045;
-105.6000;0.7098;0.7948;
-105.3000;0.7163;0.8094;
-105.0000;0.7163;0.8045;
-104.7000;0.7155;0.8069;
-104.4000;0.7171;0.8142;
-104.1000;0.7147;0.8069;
-103.8000;0.7188;0.8191;
-103.5000;0.7179;0.8167;
-103.2000;0.7155;0.8118;
-102.9000;0.7155;0.8167;
-102.6000;0.7114;0.8069;
-102.3000;0.7171;0.8240;
-102.0000;0.7163;0.8361;
-101.7000;0.7147;0.8337;
-101.4000;0.7139;0.8385;
-101.1000;0.7147;0.8458;
-100.8000;0.7147;0.8434;
-100.5000;0.7204;0.8434;
-100.2000;0.7155;0.8288;
-99.9000;0.7188;0.8385;
-99.6000;0.7163;0.8410;
-99.3000;0.7147;0.8385;
-99.0000;0.7155;0.8337;
-98.7000;0.7163;0.8361;
-98.4000;0.7163;0.8410;
-98.1000;0.7155;0.8385;
-97.8000;0.7155;0.8288;
-97.5000;0.7147;0.8264;
-97.2000;0.7163;0.8361;
-96.9000;0.7212;0.8385;
-96.6000;0.7155;0.8312;
-96.3000;0.7163;0.8385;
-96.0000;0.7155;0.8361;
-95.7000;0.7163;0.8458;
-95.4000;0.7147;0.8458;
-95.1000;0.7261;0.8701;
-94.8000;0.7171;0.8361;
-94.5000;0.7163;0.8288;
-94.2000;0.7179;0.8240;
-93.9000;0.7163;0.8069;
-93.6000;0.7163;0.8167;
-93.3000;0.7155;0.8240;
-93.0000;0.7163;0.8240;
-92.7000;0.7155;0.8118;
-92.4000;0.7155;0.8118;
-92.1000;0.7163;0.8191;
-91.8000;0.7163;0.8191;
-91.5000;0.7131;0.8167;
-91.2000;0.7196;0.8312;
-90.9000;0.7179;0.8167;
-90.6000;0.7212;0.8264;
-90.3000;0.7155;0.8167;
-90.0000;0.7163;0.8167;
-89.7000;0.7179;0.8094;
-89.4000;0.7163;0.8094;
-89.1000;0.7179;0.8045;
-88.8000;0.7155;0.7924;
-88.5000;0.7179;0.7948;
-88.2000;0.7163;0.7948;
-87.9000;0.7139;0.7948;
-87.6000;0.7139;0.7899;
-87.3000;0.7220;0.8215;
-87.0000;0.7147;0.7996;
-86.7000;0.7155;0.8021;
-86.4000;0.7147;0.8167;
-86.1000;0.7155;0.8240;
-85.8000;0.7147;0.8240;
-85.5000;0.7139;0.8215;
-85.2000;0.7139;0.8240;
-84.9000;0.7171;0.8167;
-84.6000;0.7171;0.8240;
-84.3000;0.7155;0.8264;
-84.0000;0.7139;0.8264;
-83.7000;0.7139;0.8264;
-83.4000;0.7147;0.8264;
-83.1000;0.7155;0.8240;
-82.8000;0.7171;0.8240;
-82.5000;0.7139;0.8118;
-82.2000;0.7147;0.8094;
-81.9000;0.7155;0.8191;
-81.6000;0.7147;0.8167;
-81.3000;0.7147;0.8191;
-81.0000;0.7139;0.8215;
-80.7000;0.7179;0.8240;
-80.4000;0.7171;0.8288;
-80.1000;0.7147;0.8337;
-79.8000;0.7196;0.8361;
-79.5000;0.7147;0.8264;
-79.2000;0.7155;0.8288;
-78.9000;0.7171;0.8337;
-78.6000;0.7163;0.8337;
-78.3000;0.7147;0.8288;
-78.0000;0.7147;0.8337;
-77.7000;0.7188;0.8410;
-77.4000;0.7147;0.8312;
-77.1000;0.7131;0.8385;
-76.8000;0.7228;0.8653;
-76.5000;0.7147;0.8385;
-76.2000;0.7188;0.8385;
-75.9000;0.7147;0.8337;
-75.6000;0.7147;0.8312;
-75.3000;0.7114;0.8264;
-75.0000;0.7131;0.8240;
-74.7000;0.7131;0.8240;
-74.4000;0.7163;0.8264;
-74.1000;0.7171;0.8264;
-73.8000;0.7131;0.8142;
-73.5000;0.7147;0.8240;
-73.2000;0.7114;0.8167;
-72.9000;0.7155;0.8191;
-72.6000;0.7147;0.8240;
-72.3000;0.7082;0.7996;
-72.0000;0.7188;0.8361;
-71.7000;0.7171;0.8361;
-71.4000;0.7163;0.8337;
-71.1000;0.7171;0.8385;
-70.8000;0.7131;0.8264;
-70.5000;0.7155;0.8361;
-70.2000;0.7171;0.8410;
-69.9000;0.7163;0.8288;
-69.6000;0.7163;0.8264;
-69.3000;0.7171;0.8288;
-69.0000;0.7155;0.8288;
-68.7000;0.7139;0.8191;
-68.4000;0.7155;0.8240;
-68.1000;0.7204;0.8458;
-67.8000;0.7155;0.8312;
-67.5000;0.7171;0.8264;
-67.2000;0.7163;0.8215;
-66.9000;0.7147;0.8240;
-66.6000;0.7139;0.8191;
-66.3000;0.7171;0.8191;
-66.0000;0.7155;0.8215;
-65.7000;0.7179;0.8215;
-65.4000;0.7155;0.8215;
-65.1000;0.7139;0.8191;
-64.8000;0.7163;0.8264;
-64.5000;0.7147;0.8312;
-64.2000;0.7212;0.8434;
-63.9000;0.7155;0.8264;
-63.6000;0.7147;0.8167;
-63.3000;0.7155;0.8167;
-63.0000;0.7139;0.8215;
-62.7000;0.7163;0.8264;
-62.4000;0.7155;0.8215;
-62.1000;0.7155;0.8312;
-61.8000;0.7090;0.8094;
-61.5000;0.7155;0.8240;
-61.2000;0.7155;0.8215;
-60.9000;0.7155;0.8312;
-60.6000;0.7147;0.8288;
-60.3000;0.7163;0.8312;
-60.0000;0.7155;0.8288;
-59.7000;0.7171;0.8312;
-59.4000;0.7155;0.8191;
-59.1000;0.7163;0.8215;
-58.8000;0.7123;0.8167;
-58.5000;0.7139;0.8142;
-58.2000;0.7155;0.8167;
-57.9000;0.7147;0.8094;
-57.6000;0.7139;0.8069;
-57.3000;0.7155;0.8045;
-57.0000;0.7155;0.8045;
-56.7000;0.7155;0.7972;
-56.4000;0.7163;0.8045;
-56.1000;0.7196;0.8142;
-55.8000;0.7098;0.7948;
-55.5000;0.7171;0.8142;
-55.2000;0.7147;0.8045;
-54.9000;0.7188;0.8118;
-54.6000;0.7123;0.7924;
-54.3000;0.7131;0.7899;
-54.0000;0.7163;0.7948;
-53.7000;0.7163;0.7972;
-53.4000;0.7179;0.8021;
-53.1000;0.7139;0.7899;
-52.8000;0.7131;0.7996;
-52.5000;0.7204;0.8142;
-52.2000;0.7147;0.8021;
-51.9000;0.7131;0.7972;
-51.6000;0.7139;0.7899;
-51.3000;0.7090;0.7802;
-51.0000;0.7155;0.7996;
-50.7000;0.7147;0.7996;
-50.4000;0.7131;0.7948;
-50.1000;0.7171;0.8118;
-49.8000;0.7163;0.8021;
-49.5000;0.7139;0.7996;
-49.2000;0.7163;0.7996;
-48.9000;0.7188;0.7972;
-48.6000;0.7179;0.7924;
-48.3000;0.7139;0.7826;
-48.0000;0.7171;0.7924;
-47.7000;0.7163;0.7972;
-47.4000;0.7163;0.7924;
-47.1000;0.7163;0.7826;
-46.8000;0.7179;0.7826;
-46.5000;0.7171;0.7802;
-46.2000;0.7204;0.7899;
-45.9000;0.7131;0.7729;
-45.6000;0.7179;0.7826;
-45.3000;0.7163;0.7778;
-45.0000;0.7163;0.7802;
-44.7000;0.7155;0.7851;
-44.4000;0.7139;0.7753;
-44.1000;0.7155;0.7778;
-43.8000;0.7171;0.7924;
-43.5000;0.7163;0.7924;
-43.2000;0.7131;0.7778;
-42.9000;0.7139;0.7924;
-42.6000;0.7163;0.7851;
-42.3000;0.7147;0.7851;
-42.0000;0.7082;0.7729;
-41.7000;0.7123;0.7899;
-41.4000;0.7155;0.7948;
-41.1000;0.7139;0.7948;
-40.8000;0.7147;0.7924;
-40.5000;0.7147;0.7875;
-40.2000;0.7147;0.8021;
-39.9000;0.7123;0.8045;
-39.6000;0.7147;0.8167;
-39.3000;0.7139;0.8118;
-39.0000;0.7114;0.8021;
-38.7000;0.7155;0.8069;
-38.4000;0.7139;0.8045;
-38.1000;0.7147;0.8094;
-37.8000;0.7163;0.8191;
-37.5000;0.7139;0.8118;
-37.2000;0.7139;0.8142;
-36.9000;0.7131;0.8094;
-36.6000;0.7155;0.8167;
-36.3000;0.7155;0.8191;
-36.0000;0.7155;0.8215;
-35.7000;0.7147;0.8264;
-35.4000;0.7163;0.8288;
-35.1000;0.7163;0.8361;
-34.8000;0.7163;0.8385;
-34.5000;0.7147;0.8240;
-34.2000;0.7163;0.8240;
-33.9000;0.7155;0.8191;
-33.6000;0.7155;0.8167;
-33.3000;0.7163;0.8094;
-33.0000;0.7131;0.8021;
-32.7000;0.7131;0.7996;
-32.4000;0.7188;0.8094;
-32.1000;0.7171;0.7948;
-31.8000;0.7188;0.8045;
-31.5000;0.7139;0.7996;
-31.2000;0.7163;0.8045;
-30.9000;0.7155;0.8118;
-30.6000;0.7147;0.8215;
-30.3000;0.7114;0.8045;
-30.0000;0.7131;0.8069;
-29.7000;0.7139;0.8094;
-29.4000;0.7163;0.8069;
-29.1000;0.7147;0.8069;
-28.8000;0.7114;0.7996;
-28.5000;0.7131;0.8069;
-28.2000;0.7139;0.8118;
-27.9000;0.7155;0.8118;
-27.6000;0.7163;0.8118;
-27.3000;0.7188;0.8142;
-27.0000;0.7147;0.7948;
-26.7000;0.7114;0.7875;
-26.4000;0.7139;0.7875;
-26.1000;0.7131;0.7802;
-25.8000;0.7074;0.7753;
-25.5000;0.7139;0.7826;
-25.2000;0.7147;0.7802;
-24.9000;0.7163;0.7875;
-24.6000;0.7155;0.7875;
-24.3000;0.7147;0.7899;
-24.0000;0.7155;0.8069;
-23.7000;0.7155;0.8118;
-23.4000;0.7163;0.8094;
-23.1000;0.7139;0.8021;
-22.8000;0.7171;0.8118;
-22.5000;0.7155;0.8069;
-22.2000;0.7179;0.8191;
-21.9000;0.7179;0.8191;
-21.6000;0.7179;0.8240;
-21.3000;0.7139;0.8240;
-21.0000;0.7155;0.8337;
-20.7000;0.7179;0.8410;
-20.4000;0.7155;0.8337;
-20.1000;0.7123;0.8167;
-19.8000;0.7163;0.8191;
-19.5000;0.7139;0.8240;
-19.2000;0.7163;0.8191;
-18.9000;0.7139;0.8069;
-18.6000;0.7163;0.8094;
-18.3000;0.7147;0.8069;
-18.0000;0.7131;0.7996;
-17.7000;0.7147;0.7948;
-17.4000;0.7139;0.7899;
-17.1000;0.7147;0.7996;
-16.8000;0.7171;0.8069;
-16.5000;0.7131;0.8069;
-16.2000;0.7131;0.8045;
-15.9000;0.7114;0.7948;
-15.6000;0.7155;0.7996;
-15.3000;0.7155;0.8069;
-15.0000;0.7155;0.7996;
-14.7000;0.7171;0.7996;
-14.4000;0.7147;0.7948;
-14.1000;0.7139;0.7972;
-13.8000;0.7139;0.7996;
-13.5000;0.7163;0.8118;
-13.2000;0.7163;0.8142;
-12.9000;0.7139;0.8069;
-12.6000;0.7155;0.8021;
-12.3000;0.7163;0.8094;
-12.0000;0.7204;0.8191;
-11.7000;0.7155;0.8045;
-11.4000;0.7147;0.8094;
-11.1000;0.7163;0.8045;
-10.8000;0.7147;0.7972;
-10.5000;0.7139;0.7948;
-10.2000;0.7131;0.7899;
-9.9000;0.7155;0.7948;
-9.6000;0.7155;0.8021;
-9.3000;0.7155;0.7996;
-9.0000;0.7155;0.7948;
-8.7000;0.7123;0.8045;
-8.4000;0.7155;0.8045;
-8.1000;0.7163;0.7899;
-7.8000;0.7188;0.8045;
-7.5000;0.7131;0.7948;
-7.2000;0.7131;0.8021;
-6.9000;0.7114;0.8021;
-6.6000;0.7139;0.8142;
-6.3000;0.7114;0.8118;
-6.0000;0.7131;0.8094;
-5.7000;0.7123;0.7948;
-5.4000;0.7139;0.7924;
-5.1000;0.7123;0.7972;
-4.8000;0.7131;0.8045;
-4.5000;0.7139;0.7996;
-4.2000;0.7171;0.8069;
-3.9000;0.7131;0.8069;
-3.6000;0.7147;0.8045;
-3.3000;0.7090;0.7899;
-3.0000;0.7188;0.8167;
-2.7000;0.7155;0.8094;
-2.4000;0.7082;0.7875;
-2.1000;0.7147;0.8094;
-1.8000;0.7131;0.8045;
-1.5000;0.7147;0.8021;
-1.2000;0.7220;0.8215;
-0.9000;0.7098;0.7802;
-0.6000;0.7147;0.7875;
-0.3000;0.7155;0.7875;
0.0000;0.7155;0.7875;
0.3000;0.7546;0.8118;
0.6000;0.8360;0.8799;
0.9000;0.8995;0.9528;
1.2000;0.9508;0.9965;
1.5000;0.9882;1.0257;
1.8000;1.0199;1.0792;
2.1000;1.0468;1.1156;
2.4000;1.0655;1.1496;
2.7000;1.0810;1.1594;
3.0000;1.0956;1.1715;
3.3000;1.1111;1.1910;
3.6000;1.1217;1.1958;
3.9000;1.1315;1.2055;
4.2000;1.1396;1.2031;
4.5000;1.1486;1.2104;
4.8000;1.1575;1.2128;
5.1000;1.1738;1.2250;
5.4000;1.1746;1.2201;
5.7000;1.1844;1.2299;
6.0000;1.1852;1.2153;
6.3000;1.1998;1.2250;
6.6000;1.2031;1.2226;
6.9000;1.2096;1.2177;
7.2000;1.2218;1.2274;
7.5000;1.2275;1.2226;
7.8000;1.2357;1.2323;
8.1000;1.2422;1.2299;
8.4000;1.2470;1.2274;
8.7000;1.2544;1.2299;
9.0000;1.2601;1.2347;
9.3000;1.2666;1.2274;
9.6000;1.2755;1.2323;
9.9000;1.2812;1.2226;
10.2000;1.2869;1.2250;
10.5000;1.2951;1.2226;
10.8000;1.2983;1.2226;
11.1000;1.3048;1.2299;
11.4000;1.3097;1.2347;
11.7000;1.3171;1.2299;
12.0000;1.3236;1.2250;
12.3000;1.3317;1.2371;
12.6000;1.3333;1.2323;
12.9000;1.3374;1.2250;
13.2000;1.3398;1.2201;
13.5000;1.3455;1.2299;
13.8000;1.3504;1.2250;
14.1000;1.3545;1.2274;
14.4000;1.3602;1.2323;
14.7000;1.3602;1.2226;
15.0000;1.3675;1.2274;
15.3000;1.3667;1.2128;
15.6000;1.3781;1.2420;
15.9000;1.3797;1.2396;
16.2000;1.3846;1.2396;
16.5000;1.3887;1.2517;
16.8000;1.3911;1.2444;
17.1000;1.3936;1.2469;
17.4000;1.4009;1.2493;
17.7000;1.4017;1.2396;
18.0000;1.4050;1.2396;
18.3000;1.4082;1.2469;
18.6000;1.4123;1.2469;
18.9000;1.4147;1.2493;
19.2000;1.4188;1.2469;
19.5000;1.4196;1.2371;
19.8000;1.4212;1.2323;
20.1000;1.4294;1.2517;
20.4000;1.4286;1.2347;
20.7000;1.4318;1.2371;
21.0000;1.4359;1.2420;
21.3000;1.4383;1.2420;
21.6000;1.4424;1.2542;
21.9000;1.4424;1.2517;
22.2000;1.4449;1.2493;
22.5000;1.4465;1.2493;
22.8000;1.4505;1.2542;
23.1000;1.4514;1.2517;
23.4000;1.4530;1.2444;
23.7000;1.4546;1.2444;
24.0000;1.4505;1.2347;
24.3000;1.4595;1.2517;
24.6000;1.4611;1.2566;
24.9000;1.4652;1.2566;
25.2000;1.4652;1.2517;
25.5000;1.4668;1.2420;
25.8000;1.4603;1.2201;
26.1000;1.4595;1.2177;
26.4000;1.4709;1.2371;
26.7000;1.4742;1.2371;
27.0000;1.4733;1.2347;
27.3000;1.4717;1.2299;
27.6000;1.4774;1.2371;
27.9000;1.4750;1.2250;
28.2000;1.4799;1.2299;
28.5000;1.4904;1.2517;
28.8000;1.4937;1.2444;
29.1000;1.4823;1.2153;
29.4000;1.4831;1.2153;
29.7000;1.4856;1.2007;
30.0000;1.4872;1.2007;
30.3000;1.4888;1.2055;
30.6000;1.4969;1.2250;
30.9000;1.4937;1.2177;
31.2000;1.4929;1.2080;
31.5000;1.4921;1.1983;
31.8000;1.4912;1.2080;
32.1000;1.4945;1.2031;
32.4000;1.4945;1.1983;
32.7000;1.4961;1.2031;
33.0000;1.4969;1.2031;
33.3000;1.4994;1.2153;
33.6000;1.4986;1.2177;
33.9000;1.5002;1.2250;
34.2000;1.5026;1.2299;
34.5000;1.5018;1.2323;
34.8000;1.4986;1.2201;
35.1000;1.5051;1.2274;
35.4000;1.5018;1.2177;
35.7000;1.5035;1.2226;
36.0000;1.5059;1.2274;
36.3000;1.5116;1.2371;
36.6000;1.5067;1.2323;
36.9000;1.5075;1.2323;
37.2000;1.5075;1.2177;
37.5000;1.5092;1.2274;
37.8000;1.5108;1.2323;
38.1000;1.5116;1.2371;
38.4000;1.5116;1.2347;
38.7000;1.5116;1.2420;
39.0000;1.5140;1.2444;
39.3000;1.5132;1.2371;
39.6000;1.5124;1.2274;
39.9000;1.5124;1.2177;
40.2000;1.5132;1.2153;
40.5000;1.5157;1.2104;
40.8000;1.5157;1.2104;
41.1000;1.5157;1.2055;
41.4000;1.5165;1.2031;
41.7000;1.5214;1.2128;
42.0000;1.5181;1.2153;
42.3000;1.5173;1.2153;
42.6000;1.5189;1.2128;
42.9000;1.5222;1.2177;
43.2000;1.5222;1.2153;
43.5000;1.5206;1.2080;
43.8000;1.5181;1.1983;
44.1000;1.5238;1.2128;
44.4000;1.5238;1.2055;
44.7000;1.5197;1.1958;
45.0000;1.5230;1.2177;
45.3000;1.5238;1.2055;
45.6000;1.5222;1.1983;
45.9000;1.5254;1.2055;
46.2000;1.5295;1.2201;
46.5000;1.5246;1.2153;
46.8000;1.5303;1.2250;
47.1000;1.5263;1.2177;
47.4000;1.5254;1.2201;
47.7000;1.5263;1.2226;
48.0000;1.5263;1.2177;
48.3000;1.5279;1.2226;
48.6000;1.5279;1.2128;
48.9000;1.5279;1.2104;
49.2000;1.5303;1.2201;
49.5000;1.5303;1.2226;
49.8000;1.5344;1.2226;
50.1000;1.5279;1.2104;
50.4000;1.5295;1.2128;
50.7000;1.5303;1.2177;
51.0000;1.5319;1.2226;
51.3000;1.5303;1.2104;
51.6000;1.5344;1.2250;
51.9000;1.5271;1.2080;
52.2000;1.5319;1.2128;
52.5000;1.5311;1.2104;
52.8000;1.5401;1.2371;
53.1000;1.5328;1.2104;
53.4000;1.5344;1.2007;
53.7000;1.5319;1.1983;
54.0000;1.5344;1.2007;
54.3000;1.5328;1.2031;
54.6000;1.5344;1.2128;
54.9000;1.5319;1.2055;
55.2000;1.5360;1.2104;
55.5000;1.5344;1.2031;
55.8000;1.5352;1.2007;
56.1000;1.5344;1.2007;
56.4000;1.5344;1.2055;
56.7000;1.5368;1.2055;
57.0000;1.5360;1.2007;
57.3000;1.5385;1.2007;
57.6000;1.5368;1.1983;
57.9000;1.5376;1.1983;
58.2000;1.5385;1.2007;
58.5000;1.5401;1.2031;
58.8000;1.5376;1.1934;
59.1000;1.5393;1.1910;
59.4000;1.5401;1.1983;
59.7000;1.5393;1.1861;
60.0000;1.5393;1.1812;
60.3000;1.5393;1.1861;
60.6000;1.5409;1.1958;
60.9000;1.5401;1.1910;
61.2000;1.5409;1.1910;
61.5000;1.5409;1.1885;
61.8000;1.5401;1.1983;
62.1000;1.5401;1.1788;
62.4000;1.5417;1.1740;
62.7000;1.5401;1.1740;
63.0000;1.5433;1.1740;
63.3000;1.5450;1.1837;
63.6000;1.5401;1.1667;
63.9000;1.5401;1.1642;
64.2000;1.5442;1.1764;
64.5000;1.5482;1.1861;
64.8000;1.5433;1.1837;
65.1000;1.5417;1.1885;
65.4000;1.5417;1.1788;
65.7000;1.5474;1.1861;
66.0000;1.5450;1.1837;
66.3000;1.5417;1.1740;
66.6000;1.5417;1.1715;
66.9000;1.5409;1.1788;
67.2000;1.5450;1.1740;
67.5000;1.5458;1.1764;
67.8000;1.5466;1.1667;
68.1000;1.5466;1.1667;
68.4000;1.5458;1.1594;
68.7000;1.5482;1.1691;
69.0000;1.5466;1.1642;
69.3000;1.5450;1.1642;
69.6000;1.5466;1.1667;
69.9000;1.5474;1.1764;
70.2000;1.5482;1.1764;
70.5000;1.5499;1.1837;
70.8000;1.5490;1.1837;
71.1000;1.5466;1.1788;
71.4000;1.5474;1.1764;
71.7000;1.5482;1.1715;
72.0000;1.5490;1.1715;
72.3000;1.5474;1.1740;
72.6000;1.5482;1.1715;
72.9000;1.5474;1.1642;
73.2000;1.5515;1.1667;
73.5000;1.5531;1.1764;
73.8000;1.5490;1.1764;
74.1000;1.5482;1.1861;
74.4000;1.5523;1.1934;
74.7000;1.5425;1.1715;
75.0000;1.5474;1.1885;
75.3000;1.5499;1.1958;
75.6000;1.5507;1.1934;
75.9000;1.5539;1.2031;
76.2000;1.5490;1.1861;
76.5000;1.5499;1.1861;
76.8000;1.5499;1.1861;
77.1000;1.5474;1.1934;
77.4000;1.5499;1.2007;
77.7000;1.5499;1.2055;
78.0000;1.5507;1.2055;
78.3000;1.5507;1.2007;
78.6000;1.5499;1.1885;
78.9000;1.5531;1.2007;
79.2000;1.5499;1.1934;
79.5000;1.5523;1.1885;
79.8000;1.5531;1.1861;
80.1000;1.5515;1.1861;
80.4000;1.5523;1.1885;
80.7000;1.5515;1.1910;
81.0000;1.5531;1.1958;
81.3000;1.5531;1.1983;
81.6000;1.5539;1.1812;
81.9000;1.5523;1.1764;
82.2000;1.5507;1.1740;
82.5000;1.5482;1.1691;
82.8000;1.5539;1.1885;
83.1000;1.5539;1.1885;
83.4000;1.5539;1.1910;
83.7000;1.5547;1.1934;
84.0000;1.5556;1.1910;
84.3000;1.5539;1.1812;
84.6000;1.5523;1.1861;
84.9000;1.5531;1.1861;
85.2000;1.5523;1.1837;
85.5000;1.5588;1.1983;
85.8000;1.5539;1.1958;
86.1000;1.5547;1.1958;
86.4000;1.5564;1.1983;
86.7000;1.5547;1.1885;
87.0000;1.5547;1.1837;
87.3000;1.5547;1.1885;
87.6000;1.5556;1.1812;
87.9000;1.5564;1.1740;
88.2000;1.5556;1.1740;
88.5000;1.5531;1.1642;
88.8000;1.5572;1.1812;
89.1000;1.5539;1.1740;
89.4000;1.5564;1.1788;
89.7000;1.5572;1.1788;
90.0000;1.5588;1.1812;
90.3000;1.5564;1.1788;
90.6000;1.5556;1.1642;
90.9000;1.5564;1.1642;
91.2000;1.5564;1.1715;
91.5000;1.5588;1.1788;
91.8000;1.5564;1.1740;
92.1000;1.5531;1.1740;
92.4000;1.5564;1.1910;
92.7000;1.5580;1.1934;
93.0000;1.5588;1.1788;
93.3000;1.5580;1.1740;
93.6000;1.5588;1.1764;
93.9000;1.5515;1.1642;
94.2000;1.5588;1.1764;
94.5000;1.5588;1.1691;
94.8000;1.5596;1.1715;
95.1000;1.5596;1.1618;
95.4000;1.5580;1.1642;
95.7000;1.5588;1.1715;
96.0000;1.5588;1.1740;
96.3000;1.5580;1.1740;
96.6000;1.5596;1.1812;
96.9000;1.5564;1.1837;
97.2000;1.5588;1.1837;
97.5000;1.5556;1.1715;
97.8000;1.5580;1.1667;
98.1000;1.5588;1.1691;
98.4000;1.5499;1.1569;
98.7000;1.5580;1.1764;
99.0000;1.5580;1.1764;
99.3000;1.5588;1.1958;
99.6000;1.5572;1.1788;
99.9000;1.5580;1.1764;
100.2000;1.5596;1.1861;
100.5000;1.5604;1.1934;
100.8000;1.5596;1.1861;
101.1000;1.5588;1.1715;
101.4000;1.5596;1.1618;
101.7000;1.5588;1.1715;
102.0000;1.5645;1.1764;
102.3000;1.5580;1.1594;
102.6000;1.5653;1.1715;
102.9000;1.5588;1.1496;
103.2000;1.5613;1.1545;
103.5000;1.5613;1.1569;
103.8000;1.5580;1.1521;
104.1000;1.5604;1.1594;
104.4000;1.5613;1.1594;
104.7000;1.5596;1.1496;
105.0000;1.5604;1.1569;
105.3000;1.5629;1.1594;
105.6000;1.5621;1.1569;
105.9000;1.5718;1.1861;
106.2000;1.5629;1.1569;
106.5000;1.5613;1.1472;
106.8000;1.5621;1.1521;
107.1000;1.5613;1.1594;
107.4000;1.5604;1.1569;
107.7000;1.5629;1.1545;
108.0000;1.5604;1.1521;
108.3000;1.5604;1.1545;
108.6000;1.5596;1.1521;
108.9000;1.5613;1.1594;
109.2000;1.5629;1.1618;
109.5000;1.5564;1.1472;
109.8000;1.5621;1.1448;
110.1000;1.5613;1.1375;
110.4000;1.5621;1.1375;
110.7000;1.5637;1.1496;
111.0000;1.5613;1.1424;
111.3000;1.5604;1.1448;
111.6000;1.5613;1.1472;
111.9000;1.5661;1.1496;
112.2000;1.5653;1.1521;
112.5000;1.5621;1.1521;
112.8000;1.5621;1.1618;
113.1000;1.5621;1.1594;
113.4000;1.5629;1.1569;
113.7000;1.5637;1.1569;
114.0000;1.5572;1.1424;
114.3000;1.5621;1.1618;
114.6000;1.5645;1.1618;
114.9000;1.5637;1.1545;
115.2000;1.5547;1.1326;
115.5000;1.5613;1.1545;
115.8000;1.5629;1.1642;
116.1000;1.5629;1.1569;
116.4000;1.5613;1.1521;
116.7000;1.5637;1.1594;
117.0000;1.5645;1.1569;
117.3000;1.5645;1.1472;
117.6000;1.5661;1.1594;
117.9000;1.5653;1.1569;
118.2000;1.5645;1.1545;
118.5000;1.5653;1.1594;
118.8000;1.5645;1.1642;
119.1000;1.5686;1.1837;
119.4000;1.5653;1.1691;
119.7000;1.5637;1.1545;
120.0000;1.5670;1.1521;
120.3000;1.5637;1.1448;
120.6000;1.5596;1.1399;
120.9000;1.5645;1.1545;
121.2000;1.5645;1.1472;
121.5000;1.5621;1.1448;
121.8000;1.5645;1.1472;
122.1000;1.5645;1.1569;
122.4000;1.5637;1.1594;
122.7000;1.5637;1.1521;
123.0000;1.5645;1.1448;
123.3000;1.5637;1.1424;
123.6000;1.5637;1.1399;
123.9000;1.5637;1.1424;
124.2000;1.5637;1.1375;
124.5000;1.5678;1.1424;
124.8000;1.5653;1.1302;
125.1000;1.5678;1.1253;
125.4000;1.5645;1.1229;
125.7000;1.5670;1.1253;
126.0000;1.5661;1.1180;
126.3000;1.5751;1.1375;
126.6000;1.5645;1.1132;
126.9000;1.5637;1.1108;
127.2000;1.5604;1.0937;
127.5000;1.5645;1.1059;
127.8000;1.5653;1.1083;
128.1000;1.5645;1.1035;
128.4000;1.5653;1.1108;
128.7000;1.5661;1.1083;
129.0000;1.5645;1.1035;
129.3000;1.5629;1.1108;
129.6000;1.5653;1.1083;
129.9000;1.5670;1.1059;
130.2000;1.5686;1.1083;
130.5000;1.5645;1.1083;
130.8000;1.5645;1.1156;
131.1000;1.5661;1.1180;
131.4000;1.5653;1.1205;
131.7000;1.5645;1.1229;
132.0000;1.5653;1.1302;
132.3000;1.5670;1.1399;
132.6000;1.5645;1.1375;
132.9000;1.5661;1.1424;
133.2000;1.5670;1.1594;
133.5000;1.5653;1.1691;
133.8000;1.5653;1.1667;
134.1000;1.5653;1.1642;
134.4000;1.5645;1.1594;
134.7000;1.5637;1.1545;
135.0000;1.5661;1.1569;
135.3000;1.5645;1.1545;
135.6000;1.5653;1.1569;
135.9000;1.5653;1.1496;
136.2000;1.5645;1.1545;
136.5000;1.5645;1.1496;
136.8000;1.5580;1.1253;
137.1000;1.5710;1.1642;
137.4000;1.5653;1.1569;
137.7000;1.5670;1.1618;
138.0000;1.5613;1.1448;
138.3000;1.5637;1.1472;
138.6000;1.5759;1.1764;
138.9000;1.5653;1.1545;
139.2000;1.5653;1.1521;
139.5000;1.5670;1.1521;
139.8000;1.5694;1.1545;
140.1000;1.5678;1.1472;
140.4000;1.5661;1.1399;
140.7000;1.5661;1.1399;
141.0000;1.5661;1.1351;
141.3000;1.5686;1.1375;
141.6000;1.5670;1.1375;
141.9000;1.5678;1.1375;
142.2000;1.5670;1.1448;
142.5000;1.5694;1.1472;
142.8000;1.5653;1.1424;
143.1000;1.5694;1.1618;
143.4000;1.5694;1.1569;
143.7000;1.5686;1.1618;
144.0000;1.5653;1.1594;
144.3000;1.5686;1.1594;
144.6000;1.5653;1.1569;
144.9000;1.5670;1.1569;
145.2000;1.5686;1.1545;
145.5000;1.5694;1.1594;
145.8000;1.5670;1.1496;
146.1000;1.5694;1.1521;
146.4000;1.5694;1.1594;
146.7000;1.5686;1.1545;
147.0000;1.5686;1.1472;
147.3000;1.5678;1.1375;
147.6000;1.5694;1.1496;
147.9000;1.5686;1.1496;
148.2000;1.5678;1.1496;
148.5000;1.5686;1.1521;
148.8000;1.5686;1.1569;
149.1000;1.5686;1.1545;
149.4000;1.5670;1.1424;
149.7000;1.5670;1.1448;
150.0000;1.5735;1.1545;
150.3000;1.5678;1.1399;
150.6000;1.5645;1.1278;
150.9000;1.5661;1.1375;
151.2000;1.5670;1.1424;
151.5000;1.5670;1.1521;
151.8000;1.5670;1.1594;
152.1000;1.5678;1.1545;
152.4000;1.5670;1.1545;
152.7000;1.5678;1.1545;
153.0000;1.5686;1.1545;
153.3000;1.5670;1.1521;
153.6000;1.5670;1.1569;
153.9000;1.5751;1.1764;
154.2000;1.5678;1.1618;
154.5000;1.5661;1.1569;
154.8000;1.5661;1.1472;
155.1000;1.5678;1.1521;
155.4000;1.5686;1.1545;
155.7000;1.5751;1.1691;
156.0000;1.5686;1.1472;
156.3000;1.5694;1.1472;
156.6000;1.5718;1.1448;
156.9000;1.5670;1.1375;
157.2000;1.5670;1.1351;
157.5000;1.5604;1.1229;
157.8000;1.5694;1.1448;
158.1000;1.5621;1.1229;
158.4000;1.5661;1.1399;
158.7000;1.5710;1.1496;
159.0000;1.5653;1.1448;
159.3000;1.5751;1.1764;
159.6000;1.5678;1.1545;
159.9000;1.5686;1.1569;
160.2000;1.5661;1.1496;
160.5000;1.5694;1.1618;
160.8000;1.5743;1.1667;
161.1000;1.5678;1.1545;
161.4000;1.5702;1.1496;
161.7000;1.5710;1.1496;
162.0000;1.5702;1.1496;
162.3000;1.5718;1.1545;
162.6000;1.5759;1.1715;
162.9000;1.5686;1.1740;
163.2000;1.5686;1.1740;
163.5000;1.5702;1.1740;
163.8000;1.5694;1.1667;
164.1000;1.5694;1.1594;
164.4000;1.5678;1.1618;
164.7000;1.5710;1.1594;
165.0000;1.5702;1.1521;
165.3000;1.5702;1.1569;
165.6000;1.5702;1.1642;
165.9000;1.5678;1.1545;
166.2000;1.5759;1.1691;
166.5000;1.5702;1.1521;
166.8000;1.5678;1.1496;
167.1000;1.5653;1.1375;
167.4000;1.5726;1.1448;
167.7000;1.5670;1.1253;
168.0000;1.5710;1.1326;
168.3000;1.5678;1.1253;
168.6000;1.5702;1.1278;
168.9000;1.5702;1.1278;
169.2000;1.5661;1.1253;
169.5000;1.5702;1.1424;
169.8000;1.5694;1.1545;
170.1000;1.5686;1.1521;
170.4000;1.5694;1.1618;
170.7000;1.5686;1.1667;
171.0000;1.5718;1.1569;
171.3000;1.5694;1.1472;
171.6000;1.5710;1.1569;
171.9000;1.5751;1.1642;
172.2000;1.5694;1.1545;
172.5000;1.5694;1.1545;
172.8000;1.5702;1.1569;
173.1000;1.5702;1.1472;
173.4000;1.5694;1.1496;
173.7000;1.5702;1.1521;
174.0000;1.5637;1.1399;
174.3000;1.5694;1.1667;
174.6000;1.5710;1.1715;
174.9000;1.5710;1.1569;
175.2000;1.5718;1.1594;
175.5000;1.5718;1.1569;
175.8000;1.5629;1.1375;
176.1000;1.5710;1.1521;
176.4000;1.5694;1.1424;
176.7000;1.5702;1.1424;
177.0000;1.5718;1.1424;
177.3000;1.5726;1.1521;
177.6000;1.5702;1.1351;
177.9000;1.5694;1.1375;
178.2000;1.5710;1.1448;
178.5000;1.5710;1.1472;
178.8000;1.5694;1.1472;
179.1000;1.5694;1.1569;
179.4000;1.5694;1.1496;
179.7000;1.5710;1.1594;
180.0000;1.5702;1.1521;
180.3000;1.5661;1.1351;
180.6000;1.5694;1.1424;
180.9000;1.5670;1.1253;
181.2000;1.5637;1.1205;
181.5000;1.5694;1.1351;
181.8000;1.5629;1.1180;
182.1000;1.5735;1.1424;
182.4000;1.5694;1.1351;
182.7000;1.5743;1.1351;
183.0000;1.5743;1.1448;
183.3000;1.5694;1.1351;
183.6000;1.5702;1.1472;
183.9000;1.5694;1.1472;
184.2000;1.5686;1.1302;
184.5000;1.5710;1.1472;
184.8000;1.5645;1.1326;
185.1000;1.5775;1.1545;
185.4000;1.5694;1.1375;
185.7000;1.5694;1.1351;
186.0000;1.5694;1.1496;
186.3000;1.5678;1.1472;
186.6000;1.5686;1.1424;
186.9000;1.5718;1.1472;
187.2000;1.5710;1.1472;
187.5000;1.5710;1.1448;
187.8000;1.5710;1.1448;
188.1000;1.5710;1.1375;
188.4000;1.5710;1.1448;
188.7000;1.5694;1.1448;
189.0000;1.5702;1.1399;
189.3000;1.5702;1.1351;
189.6000;1.5702;1.1253;
189.9000;1.5694;1.1351;
190.2000;1.5702;1.1375;
190.5000;1.5702;1.1302;
190.8000;1.5694;1.1302;
191.1000;1.5694;1.1326;
191.4000;1.5686;1.1253;
191.7000;1.5678;1.1253;
192.0000;1.5694;1.1302;
192.3000;1.5726;1.1424;
192.6000;1.5710;1.1351;
192.9000;1.5726;1.1351;
193.2000;1.5702;1.1351;
193.5000;1.5710;1.1375;
193.8000;1.5702;1.1351;
194.1000;1.5710;1.1375;
194.4000;1.5718;1.1424;
194.7000;1.5710;1.1375;
195.0000;1.5686;1.1302;
195.3000;1.5694;1.1399;
195.6000;1.5702;1.1472;
195.9000;1.5686;1.1448;
196.2000;1.5702;1.1472;
196.5000;1.5702;1.1424;
196.8000;1.5653;1.1399;
197.1000;1.5645;1.1351;
197.4000;1.5702;1.1424;
197.7000;1.5694;1.1351;
198.0000;1.5694;1.1424;
198.3000;1.5645;1.1205;
198.6000;1.5702;1.1375;
198.9000;1.5694;1.1326;
199.2000;1.5629;1.1156;
199.5000;1.5710;1.1424;
199.8000;1.5710;1.1448;
200.1000;1.5800;1.1594;
200.4000;1.5702;1.1399;
200.7000;1.5735;1.1521;
201.0000;1.5710;1.1472;
201.3000;1.5718;1.1521;
201.6000;1.5702;1.1545;
201.9000;1.5661;1.1448;
202.2000;1.5710;1.1642;
202.5000;1.5718;1.1594;
202.8000;1.5702;1.1569;
203.1000;1.5702;1.1545;
203.4000;1.5702;1.1448;
203.7000;1.5686;1.1424;
204.0000;1.5718;1.1521;
204.3000;1.5702;1.1424;
204.6000;1.5702;1.1351;
204.9000;1.5767;1.1496;
205.2000;1.5718;1.1448;
205.5000;1.5694;1.1521;
205.8000;1.5710;1.1521;
206.1000;1.5710;1.1521;
206.4000;1.5621;1.1229;
206.7000;1.5702;1.1472;
207.0000;1.5710;1.1545;
207.3000;1.5735;1.1569;
207.6000;1.5735;1.1618;
207.9000;1.5694;1.1642;
208.2000;1.5751;1.1837;
208.5000;1.5694;1.1715;
208.8000;1.5775;1.1837;
209.1000;1.5710;1.1521;
209.4000;1.5694;1.1424;
209.7000;1.5702;1.1399;
210.0000;1.5694;1.1399;
210.3000;1.5678;1.1326;
210.6000;1.5702;1.1278;
210.9000;1.5702;1.1326;
211.2000;1.5702;1.1375;
211.5000;1.5710;1.1472;
211.8000;1.5718;1.1399;
212.1000;1.5710;1.1326;
212.4000;1.5702;1.1351;
212.7000;1.5735;1.1424;
213.0000;1.5710;1.1351;
213.3000;1.5718;1.1424;
213.6000;1.5808;1.1545;
213.9000;1.5751;1.1496;
214.2000;1.5718;1.1448;
214.5000;1.5702;1.1302;
214.8000;1.5824;1.1594;
215.1000;1.5735;1.1448;
215.4000;1.5718;1.1472;
215.7000;1.5735;1.1472;
216.0000;1.5702;1.1375;
216.3000;1.5726;1.1399;
216.6000;1.5718;1.1375;
216.9000;1.5710;1.1375;
217.2000;1.5718;1.1448;
217.5000;1.5726;1.1448;
217.8000;1.5686;1.1399;
218.1000;1.5702;1.1399;
218.4000;1.5694;1.1351;
218.7000;1.5702;1.1302;
219.0000;1.5710;1.1253;
219.3000;1.5743;1.1351;
219.6000;1.5710;1.1302;
219.9000;1.5751;1.1448;
220.2000;1.5686;1.1351;
220.5000;1.5710;1.1375;
220.8000;1.5718;1.1399;
221.1000;1.5775;1.1521;
221.4000;1.5702;1.1302;
221.7000;1.5694;1.1351;
222.0000;1.5702;1.1375;
222.3000;1.5710;1.1351;
222.6000;1.5751;1.1496;
222.9000;1.5702;1.1448;
223.2000;1.5710;1.1472;
223.5000;1.5702;1.1351;
223.8000;1.5702;1.1375;
224.1000;1.5710;1.1424;
224.4000;1.5710;1.1472;
224.7000;1.5686;1.1472;
225.0000;1.5710;1.1521;
225.3000;1.5735;1.1642;
225.6000;1.5710;1.1667;
225.9000;1.5718;1.1642;
226.2000;1.5653;1.1569;
226.5000;1.5767;1.1788;
226.8000;1.5726;1.1618;
227.1000;1.5726;1.1667;
227.4000;1.5718;1.1569;
227.7000;1.5686;1.1472;
228.0000;1.5767;1.1642;
228.3000;1.5702;1.1545;
228.6000;1.5767;1.1691;
228.9000;1.5694;1.1545;
229.2000;1.5710;1.1545;
229.5000;1.5710;1.1472;
229.8000;1.5686;1.1375;
230.1000;1.5686;1.1351;
230.4000;1.5743;1.1472;
230.7000;1.5694;1.1375;
231.0000;1.5702;1.1351;
231.3000;1.5710;1.1326;
231.6000;1.5718;1.1399;
231.9000;1.5702;1.1424;
232.2000;1.5702;1.1424;
232.5000;1.5702;1.1569;
232.8000;1.5670;1.1399;
233.1000;1.5710;1.1545;
233.4000;1.5678;1.1448;
233.7000;1.5694;1.1424;
234.0000;1.5702;1.1424;
234.3000;1.5718;1.1521;
234.6000;1.5710;1.1472;
234.9000;1.5694;1.1375;
235.2000;1.5726;1.1326;
235.5000;1.5702;1.1302;
235.8000;1.5661;1.1253;
236.1000;1.5702;1.1448;
236.4000;1.5710;1.1399;
236.7000;1.5718;1.1326;
237.0000;1.5743;1.1278;
237.3000;1.5726;1.1351;
237.6000;1.5710;1.1351;
237.9000;1.5718;1.1424;
238.2000;1.5726;1.1521;
238.5000;1.5718;1.1521;
238.8000;1.5718;1.1521;
239.1000;1.5710;1.1448;
239.4000;1.5718;1.1472;
239.7000;1.5686;1.1399;
240.0000;1.5710;1.1399;
240.3000;1.5710;1.1448;
240.6000;1.5710;1.1472;
240.9000;1.5735;1.1472;
241.2000;1.5702;1.1375;
241.5000;1.5710;1.1326;
241.8000;1.5718;1.1375;
242.1000;1.5718;1.1351;
242.4000;1.5726;1.1326;
242.7000;1.5702;1.1302;
243.0000;1.5718;1.1326;
243.3000;1.5686;1.1253;
243.6000;1.5710;1.1326;
243.9000;1.5702;1.1253;
244.2000;1.5661;1.1253;
244.5000;1.5702;1.1375;
244.8000;1.5718;1.1326;
245.1000;1.5710;1.1326;
245.4000;1.5710;1.1326;
245.7000;1.5702;1.1326;
246.0000;1.5702;1.1375;
246.3000;1.5800;1.1545;
246.6000;1.5702;1.1253;
246.9000;1.5702;1.1205;
247.2000;1.5718;1.1302;
247.5000;1.5718;1.1326;
247.8000;1.5702;1.1351;
248.1000;1.5694;1.1302;
248.4000;1.5718;1.1302;
248.7000;1.5702;1.1302;
249.0000;1.5694;1.1253;
249.3000;1.5686;1.1229;
249.6000;1.5702;1.1278;
249.9000;1.5726;1.1302;
250.2000;1.5718;1.1229;
250.5000;1.5710;1.1302;
250.8000;1.5718;1.1351;
251.1000;1.5678;1.1156;
251.4000;1.5702;1.1229;
251.7000;1.5783;1.1448;
252.0000;1.5718;1.1253;
252.3000;1.5824;1.1472;
252.6000;1.5702;1.1132;
252.9000;1.5702;1.1205;
253.2000;1.5718;1.1326;
253.5000;1.5710;1.1424;
253.8000;1.5735;1.1472;
254.1000;1.5775;1.1424;
254.4000;1.5702;1.1302;
254.7000;1.5686;1.1205;
255.0000;1.5686;1.1156;
255.3000;1.5637;1.1083;
255.6000;1.5702;1.1132;
255.9000;1.5694;1.1059;
256.2000;1.5694;1.1132;
256.5000;1.5686;1.1180;
256.8000;1.5710;1.1156;
257.1000;1.5702;1.1156;
257.4000;1.5702;1.1180;
257.7000;1.5694;1.1302;
258.0000;1.5678;1.1205;
258.3000;1.5702;1.1205;
258.6000;1.5718;1.1205;
258.9000;1.5718;1.1180;
259.2000;1.5710;1.1205;
259.5000;1.5702;1.1253;
259.8000;1.5694;1.1156;
260.1000;1.5718;1.1180;
260.4000;1.5702;1.1083;
260.7000;1.5670;1.1083;
261.0000;1.5718;1.1156;
261.3000;1.5718;1.1156;
261.6000;1.5726;1.1229;
261.9000;1.5710;1.1253;
262.2000;1.5718;1.1302;
262.5000;1.5710;1.1278;
262.8000;1.5702;1.1229;
263.1000;1.5710;1.1351;
263.4000;1.5710;1.1351;
263.7000;1.5686;1.1302;
264.0000;1.5743;1.1448;
264.3000;1.5702;1.1399;
264.6000;1.5767;1.1594;
264.9000;1.5718;1.1594;
265.2000;1.5686;1.1521;
265.5000;1.5702;1.1448;
265.8000;1.5694;1.1399;
266.1000;1.5661;1.1399;
266.4000;1.5694;1.1521;
266.7000;1.5702;1.1594;
267.0000;1.5718;1.1594;
267.3000;1.5702;1.1496;
267.6000;1.5710;1.1594;
267.9000;1.5718;1.1642;
268.2000;1.5710;1.1569;
268.5000;1.5694;1.1569;
268.8000;1.5670;1.1472;
269.1000;1.5710;1.1594;
269.4000;1.5726;1.1594;
269.7000;1.5726;1.1642;
270.0000;1.5702;1.1496;
270.3000;1.5702;1.1521;
270.6000;1.5726;1.1569;
270.9000;1.5718;1.1545;
271.2000;1.5702;1.1569;
271.5000;1.5678;1.1594;
271.8000;1.5710;1.1569;
272.1000;1.5694;1.1472;
272.4000;1.5702;1.1496;
272.7000;1.5800;1.1667;
273.0000;1.5710;1.1472;
273.3000;1.5686;1.1472;
273.6000;1.5710;1.1642;
273.9000;1.5702;1.1618;
274.2000;1.5645;1.1521;
274.5000;1.5694;1.1715;
274.8000;1.5678;1.1691;
275.1000;1.5694;1.1740;
275.4000;1.5710;1.1788;
275.7000;1.5678;1.1691;
276.0000;1.5686;1.1618;
276.3000;1.5710;1.1618;
276.6000;1.5670;1.1569;
276.9000;1.5702;1.1691;
277.2000;1.5686;1.1594;
277.5000;1.5702;1.1569;
277.8000;1.5710;1.1618;
278.1000;1.5751;1.1667;
278.4000;1.5710;1.1569;
278.7000;1.5726;1.1618;
279.0000;1.5726;1.1691;
279.3000;1.5759;1.1861;
279.6000;1.5694;1.1715;
279.9000;1.5710;1.1715;
280.2000;1.5710;1.1788;
280.5000;1.5726;1.1861;
280.8000;1.5702;1.1691;
281.1000;1.5710;1.1642;
281.4000;1.5702;1.1594;
281.7000;1.5710;1.1569;
282.0000;1.5710;1.1594;
282.3000;1.5702;1.1618;
282.6000;1.5710;1.1642;
282.9000;1.5702;1.1642;
283.2000;1.5694;1.1642;
283.5000;1.5678;1.1642;
283.8000;1.5702;1.1667;
284.1000;1.5678;1.1642;
284.4000;1.5678;1.1740;
284.7000;1.5702;1.1715;
285.0000;1.5710;1.1788;
285.3000;1.5710;1.1837;
285.6000;1.5735;1.1910;
285.9000;1.5710;1.1861;
286.2000;1.5702;1.1837;
286.5000;1.5686;1.1837;
286.8000;1.5678;1.1861;
287.1000;1.5694;1.1910;
287.4000;1.5694;1.1788;
287.7000;1.5694;1.1740;
288.0000;1.5637;1.1594;
288.3000;1.5743;1.1691;
288.6000;1.5702;1.1496;
288.9000;1.5694;1.1545;
289.2000;1.5678;1.1448;
289.5000;1.5686;1.1472;
289.8000;1.5678;1.1521;
290.1000;1.5694;1.1496;
290.4000;1.5751;1.1667;
290.7000;1.5710;1.1472;
291.0000;1.5686;1.1375;
291.3000;1.5702;1.1351;
291.6000;1.5710;1.1278;
291.9000;1.5702;1.1375;
292.2000;1.5678;1.1326;
292.5000;1.5686;1.1326;
292.8000;1.5718;1.1326;
293.1000;1.5718;1.1302;
293.4000;1.5710;1.1326;
293.7000;1.5710;1.1326;
294.0000;1.5735;1.1399;
294.3000;1.5694;1.1326;
294.6000;1.5710;1.1375;
294.9000;1.5710;1.1375;
295.2000;1.5702;1.1472;
295.5000;1.5800;1.1642;
295.8000;1.5670;1.1375;
296.1000;1.5726;1.1569;
296.4000;1.5694;1.1448;
296.7000;1.5686;1.1496;
297.0000;1.5702;1.1424;
297.3000;1.5678;1.1375;
297.6000;1.5694;1.1424;
297.9000;1.5702;1.1448;
298.2000;1.5702;1.1496;
298.5000;1.5710;1.1521;
298.8000;1.5702;1.1521;
299.1000;1.5686;1.1448;
299.4000;1.5694;1.1545;
299.7000;1.5710;1.1545;
300.0000;1.5694;1.1472;
300.3000;1.5661;1.1375;
300.6000;1.5702;1.1399;
300.9000;1.5694;1.1399;
301.2000;1.5678;1.1351;
301.5000;1.5694;1.1302;
301.8000;1.5645;1.1253;
302.1000;1.5702;1.1399;
302.4000;1.5670;1.1326;
302.7000;1.5686;1.1351;
303.0000;1.5694;1.1375;
303.3000;1.5718;1.1448;
303.6000;1.5710;1.1521;
303.9000;1.5694;1.1521;
304.2000;1.5735;1.1594;
304.5000;1.5718;1.1594;
304.8000;1.5710;1.1496;
305.1000;1.5718;1.1424;
305.4000;1.5678;1.1326;
305.7000;1.5694;1.1326;
306.0000;1.5702;1.1351;
306.3000;1.5702;1.1375;
306.6000;1.5670;1.1302;
306.9000;1.5694;1.1375;
307.2000;1.5694;1.1278;
307.5000;1.5670;1.1326;
307.8000;1.5686;1.1326;
308.1000;1.5702;1.1351;
308.4000;1.5718;1.1302;
308.7000;1.5702;1.1375;
309.0000;1.5702;1.1448;
309.3000;1.5726;1.1496;
309.6000;1.5710;1.1496;
309.9000;1.5694;1.1472;
310.2000;1.5710;1.1496;
310.5000;1.5702;1.1424;
310.8000;1.5702;1.1424;
311.1000;1.5686;1.1448;
311.4000;1.5694;1.1545;
311.7000;1.5710;1.1594;
312.0000;1.5718;1.1545;
312.3000;1.5702;1.1545;
312.6000;1.5686;1.1569;
312.9000;1.5694;1.1642;
313.2000;1.5775;1.1764;
313.5000;1.5710;1.1569;
313.8000;1.5710;1.1521;
314.1000;1.5702;1.1521;
314.4000;1.5694;1.1545;
314.7000;1.5694;1.1545;
315.0000;1.5686;1.1448;
315.3000;1.5710;1.1569;
315.6000;1.5702;1.1569;
315.9000;1.5726;1.1569;
316.2000;1.5678;1.1448;
316.5000;1.5686;1.1424;
316.8000;1.5726;1.1594;
317.1000;1.5726;1.1594;
317.4000;1.5702;1.1569;
317.7000;1.5678;1.1472;
318.0000;1.5767;1.1667;
318.3000;1.5726;1.1521;
318.6000;1.5702;1.1618;
318.9000;1.5743;1.1740;
319.2000;1.5726;1.1569;
319.5000;1.5718;1.1521;
319.8000;1.5718;1.1594;
320.1000;1.5710;1.1545;
320.4000;1.5702;1.1569;
320.7000;1.5735;1.1545;
321.0000;1.5710;1.1496;
321.3000;1.5686;1.1399;
321.6000;1.5800;1.1740;
321.9000;1.5751;1.1691;
322.2000;1.5702;1.1545;
322.5000;1.5694;1.1545;
322.8000;1.5686;1.1521;
323.1000;1.5686;1.1521;
323.4000;1.5694;1.1448;
323.7000;1.5735;1.1545;
324.0000;1.5702;1.1569;
324.3000;1.5694;1.1496;
324.6000;1.5710;1.1496;
324.9000;1.5702;1.1472;
325.2000;1.5710;1.1521;
325.5000;1.5686;1.1448;
325.8000;1.5710;1.1448;
326.1000;1.5694;1.1496;
326.4000;1.5702;1.1472;
326.7000;1.5702;1.1448;
327.0000;1.5702;1.1399;
327.3000;1.5686;1.1448;
327.6000;1.5726;1.1472;
327.9000;1.5726;1.1472;
328.2000;1.5694;1.1375;
328.5000;1.5686;1.1399;
328.8000;1.5718;1.1399;
329.1000;1.5702;1.1351;
329.4000;1.5678;1.1326;
329.7000;1.5718;1.1399;
330.0000;1.5775;1.1496;
330.3000;1.5718;1.1448;
330.6000;1.5702;1.1375;
330.9000;1.5710;1.1253;
331.2000;1.5726;1.1156;
331.5000;1.5661;1.1035;
331.8000;1.5694;1.1083;
332.1000;1.5726;1.1083;
332.4000;1.5678;1.1010;
332.7000;1.5710;1.1059;
333.0000;1.5702;1.1083;
333.3000;1.5702;1.1010;
333.6000;1.5702;1.1083;
333.9000;1.5718;1.1156;
334.2000;1.5710;1.1132;
334.5000;1.5710;1.1132;
334.8000;1.5710;1.1132;
335.1000;1.5710;1.1132;
335.4000;1.5670;1.1059;
335.7000;1.5718;1.1132;
336.0000;1.5694;1.1156;
336.3000;1.5702;1.1229;
336.6000;1.5710;1.1205;
336.9000;1.5718;1.1156;
337.2000;1.5670;1.1156;
337.5000;1.5694;1.1205;
337.8000;1.5702;1.1278;
338.1000;1.5661;1.1278;
338.4000;1.5686;1.1351;
338.7000;1.5686;1.1424;
339.0000;1.5710;1.1496;
339.3000;1.5686;1.1448;
339.6000;1.5718;1.1399;
339.9000;1.5604;1.1083;
340.2000;1.5645;1.1132;
340.5000;1.5694;1.1156;
340.8000;1.5710;1.1205;
341.1000;1.5702;1.1278;
341.4000;1.5710;1.1351;
341.7000;1.5702;1.1375;
342.0000;1.5694;1.1326;
342.3000;1.5702;1.1229;
342.6000;1.5702;1.1278;
342.9000;1.5686;1.1229;
343.2000;1.5702;1.1253;
343.5000;1.5686;1.1229;
343.8000;1.5686;1.1205;
344.1000;1.5694;1.1253;
344.4000;1.5710;1.1253;
344.7000;1.5702;1.1253;
345.0000;1.5710;1.1229;
345.3000;1.5702;1.1253;
345.6000;1.5718;1.1278;
345.9000;1.5670;1.1156;
346.2000;1.5718;1.1326;
346.5000;1.5686;1.1253;
346.8000;1.5694;1.1302;
347.1000;1.5661;1.1278;
347.4000;1.5670;1.1399;
347.7000;1.5702;1.1448;
348.0000;1.5686;1.1424;
348.3000;1.5694;1.1399;
348.6000;1.5686;1.1351;
348.9000;1.5702;1.1375;
349.2000;1.5710;1.1399;
349.5000;1.5670;1.1302;
349.8000;1.5702;1.1229;
350.1000;1.5718;1.1253;
350.4000;1.5694;1.1253;
350.7000;1.5686;1.1156;
351.0000;1.5702;1.1229;
351.3000;1.5694;1.1253;
351.6000;1.5702;1.1351;
351.9000;1.5686;1.1326;
352.2000;1.5702;1.1302;
352.5000;1.5678;1.1229;
352.8000;1.5718;1.1302;
353.1000;1.5702;1.1205;
353.4000;1.5718;1.1253;
353.7000;1.5694;1.1302;
354.0000;1.5702;1.1424;
354.3000;1.5718;1.1424;
354.6000;1.5670;1.1253;
354.9000;1.5718;1.1448;
355.2000;1.5718;1.1399;
355.5000;1.5710;1.1351;
355.8000;1.5702;1.1375;
356.1000;1.5710;1.1399;
356.4000;1.5686;1.1351;
356.7000;1.5694;1.1326;
357.0000;1.5678;1.1302;
357.3000;1.5702;1.1375;
357.6000;1.5678;1.1351;
357.9000;1.5694;1.1375;
358.2000;1.5661;1.1326;
358.5000;1.5678;1.1351;
358.8000;1.5661;1.1326;
359.1000;1.5678;1.1302;
359.4000;1.5686;1.1326;
359.7000;1.5686;1.1253;
360.0000;1.5678;1.1180;
360.3000;1.5694;1.1180;
360.6000;1.5678;1.1132;
360.9000;1.5694;1.1108;
361.2000;1.5621;1.0962;
361.5000;1.5678;1.1205;
361.8000;1.5694;1.1180;
362.1000;1.5653;1.1059;
362.4000;1.5686;1.1156;
362.7000;1.5670;1.1132;
363.0000;1.5694;1.1205;
363.3000;1.5694;1.1253;
363.6000;1.5694;1.1253;
363.9000;1.5686;1.1302;
364.2000;1.5678;1.1253;
364.5000;1.5702;1.1351;
364.8000;1.5694;1.1326;
365.1000;1.5767;1.1594;
365.4000;1.5694;1.1375;
365.7000;1.5718;1.1424;
366.0000;1.5694;1.1375;
366.3000;1.5670;1.1326;
366.6000;1.5710;1.1375;
366.9000;1.5759;1.1472;
367.2000;1.5661;1.1253;
367.5000;1.5670;1.1351;
367.8000;1.5702;1.1326;
368.1000;1.5686;1.1326;
368.4000;1.5678;1.1351;
368.7000;1.5735;1.1448;
369.0000;1.5726;1.1351;
369.3000;1.5661;1.1205;
369.6000;1.5694;1.1205;
369.9000;1.5702;1.1205;
370.2000;1.5670;1.1205;
370.5000;1.5694;1.1278;
370.8000;1.5661;1.1180;
371.1000;1.5686;1.1156;
371.4000;1.5694;1.1108;
371.7000;1.5735;1.1253;
372.0000;1.5694;1.1229;
372.3000;1.5694;1.1229;
372.6000;1.5702;1.1205;
372.9000;1.5710;1.1229;
373.2000;1.5726;1.1278;
373.5000;1.5726;1.1326;
373.8000;1.5686;1.1229;
374.1000;1.5702;1.1326;
374.4000;1.5694;1.1351;
374.7000;1.5718;1.1375;
375.0000;1.5694;1.1375;
375.3000;1.5702;1.1399;
375.6000;1.5702;1.1375;
375.9000;1.5702;1.1375;
376.2000;1.5710;1.1399;
376.5000;1.5686;1.1351;
376.8000;1.5694;1.1156;
377.1000;1.5702;1.1253;
377.4000;1.5694;1.1278;
377.7000;1.5670;1.1302;
378.0000;1.5686;1.1253;
378.3000;1.5694;1.1326;
378.6000;1.5726;1.1448;
378.9000;1.5670;1.1351;
379.2000;1.5678;1.1472;
379.5000;1.5670;1.1399;
379.8000;1.5718;1.1569;
380.1000;1.5726;1.1569;
380.4000;1.5694;1.1472;
380.7000;1.5686;1.1472;
381.0000;1.5710;1.1399;
381.3000;1.5710;1.1326;
381.6000;1.5702;1.1326;
381.9000;1.5661;1.1278;
382.2000;1.5678;1.1326;
382.5000;1.5702;1.1399;
382.8000;1.5670;1.1351;
383.1000;1.5710;1.1424;
383.4000;1.5718;1.1448;
383.7000;1.5670;1.1424;
384.0000;1.5702;1.1472;
384.3000;1.5702;1.1496;
384.6000;1.5702;1.1545;
384.9000;1.5718;1.1618;
385.2000;1.5800;1.1740;
385.5000;1.5694;1.1448;
385.8000;1.5686;1.1569;
386.1000;1.5735;1.1618;
386.4000;1.5694;1.1472;
386.7000;1.5702;1.1569;
387.0000;1.5735;1.1642;
387.3000;1.5686;1.1424;
387.6000;1.5678;1.1399;
387.9000;1.5735;1.1521;
388.2000;1.5678;1.1448;
388.5000;1.5702;1.1496;
388.8000;1.5718;1.1424;
389.1000;1.5726;1.1399;
389.4000;1.5702;1.1375;
389.7000;1.5645;1.1205;
390.0000;1.5686;1.1326;
390.3000;1.5735;1.1424;
390.6000;1.5702;1.1351;
390.9000;1.5702;1.1424;
391.2000;1.5783;1.1569;
391.5000;1.5694;1.1448;
391.8000;1.5702;1.1569;
392.1000;1.5751;1.1740;
392.4000;1.5710;1.1545;
392.7000;1.5629;1.1326;
393.0000;1.5694;1.1399;
393.3000;1.5694;1.1424;
393.6000;1.5645;1.1399;
393.9000;1.5710;1.1448;
394.2000;1.5670;1.1375;
394.5000;1.5686;1.1448;
394.8000;1.5702;1.1424;
395.1000;1.5702;1.1545;
395.4000;1.5718;1.1642;
395.7000;1.5775;1.1691;
396.0000;1.5718;1.1521;
396.3000;1.5694;1.1569;
396.6000;1.5694;1.1569;
396.9000;1.5775;1.1691;
397.2000;1.5694;1.1448;
397.5000;1.5710;1.1424;
397.8000;1.5686;1.1351;
398.1000;1.5686;1.1351;
398.4000;1.5678;1.1351;
398.7000;1.5686;1.1448;
399.0000;1.5702;1.1448;
399.3000;1.5702;1.1424;
399.6000;1.5670;1.1351;
399.9000;1.5726;1.1375;
400.2000;1.5718;1.1326;
400.5000;1.5702;1.1302;
400.8000;1.5702;1.1302;
401.1000;1.5678;1.1278;
401.4000;1.5694;1.1278;
401.7000;1.5694;1.1326;
402.0000;1.5718;1.1326;
402.3000;1.5678;1.1302;
402.6000;1.5686;1.1229;
402.9000;1.5792;1.1618;
403.2000;1.5678;1.1229;
403.5000;1.5670;1.1180;
403.8000;1.5670;1.1180;
404.1000;1.5678;1.1253;
404.4000;1.5718;1.1399;
404.7000;1.5694;1.1351;
405.0000;1.5678;1.1205;
405.3000;1.5710;1.1351;
405.6000;1.5678;1.1278;
405.9000;1.5702;1.1278;
406.2000;1.5678;1.1205;
406.5000;1.5718;1.1326;
406.8000;1.5686;1.1156;
407.1000;1.5670;1.1180;
407.4000;1.5670;1.1278;
407.7000;1.5686;1.1278;
408.0000;1.5686;1.1253;
408.3000;1.5702;1.1351;
408.6000;1.5694;1.1399;
408.9000;1.5710;1.1375;
409.2000;1.5775;1.1472;
409.5000;1.5710;1.1302;
409.8000;1.5670;1.1205;
410.1000;1.5637;1.1156;
410.4000;1.5702;1.1302;
410.7000;1.5686;1.1229;
411.0000;1.5694;1.1278;
411.3000;1.5694;1.1399;
411.6000;1.5702;1.1351;
411.9000;1.5702;1.1302;
412.2000;1.5694;1.1351;
412.5000;1.5694;1.1351;
412.8000;1.5694;1.1375;
413.1000;1.5694;1.1399;
413.4000;1.5686;1.1424;
413.7000;1.5613;1.1156;
414.0000;1.5678;1.1399;
414.3000;1.5686;1.1399;
414.6000;1.5670;1.1399;
414.9000;1.5694;1.1472;
415.2000;1.5678;1.1351;
415.5000;1.5686;1.1351;
415.8000;1.5694;1.1424;
416.1000;1.5686;1.1448;
416.4000;1.5694;1.1448;
416.7000;1.5694;1.1448;
417.0000;1.5702;1.1375;
417.3000;1.5702;1.1472;
417.6000;1.5686;1.1472;
417.9000;1.5678;1.1521;
418.2000;1.5653;1.1448;
418.5000;1.5661;1.1472;
418.8000;1.5678;1.1521;
419.1000;1.5686;1.1496;
419.4000;1.5718;1.1545;
419.7000;1.5686;1.1496;
420.0000;1.5694;1.1496;
420.3000;1.5702;1.1399;
420.6000;1.5718;1.1424;
420.9000;1.5702;1.1424;
421.2000;1.5702;1.1448;
421.5000;1.5702;1.1448;
421.8000;1.5694;1.1351;
422.1000;1.5702;1.1399;
422.4000;1.5694;1.1496;
422.7000;1.5686;1.1448;
423.0000;1.5702;1.1545;
423.3000;1.5686;1.1496;
423.6000;1.5661;1.1399;
423.9000;1.5702;1.1448;
424.2000;1.5678;1.1351;
424.5000;1.5686;1.1521;
424.8000;1.5670;1.1472;
425.1000;1.5686;1.1472;
425.4000;1.5670;1.1424;
425.7000;1.5694;1.1521;
426.0000;1.5694;1.1521;
426.3000;1.5710;1.1545;
426.6000;1.5702;1.1448;
426.9000;1.5726;1.1496;
427.2000;1.5686;1.1448;
427.5000;1.5694;1.1448;
427.8000;1.5702;1.1399;
428.1000;1.5702;1.1424;
428.4000;1.5702;1.1472;
428.7000;1.5694;1.1424;
429.0000;1.5694;1.1424;
429.3000;1.5653;1.1351;
429.6000;1.5686;1.1326;
429.9000;1.5718;1.1424;
430.2000;1.5694;1.1253;
430.5000;1.5686;1.1156;
430.8000;1.5694;1.1156;
431.1000;1.5702;1.1132;
431.4000;1.5686;1.1205;
431.7000;1.5686;1.1253;
432.0000;1.5621;1.1156;
432.3000;1.5678;1.1302;
432.6000;1.5702;1.1424;
432.9000;1.5718;1.1448;
433.2000;1.5670;1.1424;
433.5000;1.5686;1.1448;
433.8000;1.5596;1.1156;
434.1000;1.5686;1.1351;
434.4000;1.5686;1.1351;
434.7000;1.5694;1.1278;
435.0000;1.5694;1.1229;
435.3000;1.5661;1.1205;
435.6000;1.5686;1.1326;
435.9000;1.5694;1.1424;
436.2000;1.5621;1.1278;
436.5000;1.5686;1.1448;
436.8000;1.5694;1.1545;
437.1000;1.5710;1.1521;
437.4000;1.5710;1.1496;
437.7000;1.5653;1.1351;
438.0000;1.5694;1.1326;
438.3000;1.5686;1.1302;
438.6000;1.5678;1.1205;
438.9000;1.5670;1.1229;
439.2000;1.5670;1.1156;
439.5000;1.5670;1.1253;
439.8000;1.5710;1.1278;
440.1000;1.5686;1.1132;
440.4000;1.5678;1.1132;
440.7000;1.5686;1.1108;
441.0000;1.5710;1.1229;
441.3000;1.5694;1.1302;
441.6000;1.5694;1.1351;
441.9000;1.5686;1.1472;
442.2000;1.5702;1.1521;
442.5000;1.5694;1.1448;
442.8000;1.5702;1.1326;
443.1000;1.5686;1.1253;
443.4000;1.5694;1.1253;
443.7000;1.5702;1.1253;
444.0000;1.5653;1.1156;
444.3000;1.5686;1.1229;
444.6000;1.5710;1.1399;
444.9000;1.5653;1.1302;
445.2000;1.5702;1.1326;
445.5000;1.5653;1.1278;
445.8000;1.5670;1.1253;
446.1000;1.5718;1.1351;
446.4000;1.5710;1.1326;
446.7000;1.5702;1.1326;
447.0000;1.5678;1.1326;
447.3000;1.5710;1.1399;
447.6000;1.5702;1.1448;
447.9000;1.5661;1.1424;
448.2000;1.5670;1.1472;
448.5000;1.5670;1.1545;
448.8000;1.5661;1.1691;
449.1000;1.5621;1.1618;
449.4000;1.5661;1.1740;
449.7000;1.5629;1.1691;
450.0000;1.5694;1.1812;
450.3000;1.5686;1.1764;
450.6000;1.5710;1.1740;
450.9000;1.5726;1.1788;
451.2000;1.5678;1.1545;
451.5000;1.5702;1.1667;
451.8000;1.5686;1.1667;
452.1000;1.5694;1.1764;
452.4000;1.5678;1.1788;
452.7000;1.5686;1.1740;
453.0000;1.5686;1.1764;
453.3000;1.5678;1.1764;
453.6000;1.5678;1.1788;
453.9000;1.5694;1.1764;
454.2000;1.5670;1.1715;
454.5000;1.5670;1.1667;
454.8000;1.5670;1.1691;
455.1000;1.5686;1.1642;
455.4000;1.5637;1.1496;
455.7000;1.5678;1.1545;
456.0000;1.5702;1.1569;
456.3000;1.5718;1.1545;
456.6000;1.5686;1.1472;
456.9000;1.5694;1.1521;
457.2000;1.5686;1.1569;
457.5000;1.5702;1.1642;
457.8000;1.5702;1.1715;
458.1000;1.5678;1.1569;
458.4000;1.5678;1.1521;
458.7000;1.5613;1.1375;
459.0000;1.5670;1.1496;
459.3000;1.5670;1.1472;
459.6000;1.5678;1.1448;
459.9000;1.5702;1.1472;
460.2000;1.5694;1.1569;
460.5000;1.5678;1.1569;
460.8000;1.5653;1.1496;
461.1000;1.5670;1.1545;
461.4000;1.5710;1.1594;
461.7000;1.5572;1.1229;
462.0000;1.5678;1.1496;
462.3000;1.5686;1.1545;
462.6000;1.5686;1.1569;
462.9000;1.5661;1.1521;
463.2000;1.5670;1.1472;
463.5000;1.5702;1.1496;
463.8000;1.5686;1.1448;
464.1000;1.5694;1.1302;
464.4000;1.5670;1.1278;
464.7000;1.5686;1.1375;
465.0000;1.5694;1.1375;
465.3000;1.5702;1.1351;
465.6000;1.5686;1.1375;
465.9000;1.5670;1.1326;
466.2000;1.5686;1.1448;
466.5000;1.5702;1.1448;
466.8000;1.5702;1.1424;
467.1000;1.5694;1.1424;
467.4000;1.5710;1.1375;
467.7000;1.5678;1.1351;
468.0000;1.5653;1.1375;
468.3000;1.5686;1.1448;
468.6000;1.5694;1.1399;
468.9000;1.5702;1.1351;
469.2000;1.5686;1.1326;
469.5000;1.5678;1.1351;
469.8000;1.5678;1.1326;
470.1000;1.5670;1.1229;
470.4000;1.5694;1.1278;
470.7000;1.5686;1.1278;
471.0000;1.5678;1.1302;
471.3000;1.5678;1.1326;
471.6000;1.5686;1.1399;
471.9000;1.5678;1.1399;
472.2000;1.5686;1.1472;
472.5000;1.5678;1.1448;
472.8000;1.5694;1.1496;
473.1000;1.5694;1.1594;
473.4000;1.5653;1.1472;
473.7000;1.5653;1.1521;
474.0000;1.5670;1.1496;
474.3000;1.5678;1.1521;
474.6000;1.5694;1.1521;
474.9000;1.5694;1.1448;
475.2000;1.5686;1.1375;
475.5000;1.5694;1.1375;
475.8000;1.5694;1.1278;
476.1000;1.5678;1.1302;
476.4000;1.5694;1.1399;
476.7000;1.5702;1.1399;
477.0000;1.5702;1.1472;
477.3000;1.5751;1.1545;
477.6000;1.5694;1.1448;
477.9000;1.5686;1.1399;
478.2000;1.5686;1.1424;
478.5000;1.5629;1.1351;
478.8000;1.5694;1.1472;
479.1000;1.5702;1.1496;
479.4000;1.5702;1.1521;
479.7000;1.5694;1.1521;
480.0000;1.5678;1.1545;
480.3000;1.5702;1.1642;
480.6000;1.5661;1.1545;
480.9000;1.5686;1.1594;
481.2000;1.5735;1.1740;
481.5000;1.5735;1.1715;
481.8000;1.5694;1.1594;
482.1000;1.5678;1.1424;
482.4000;1.5678;1.1448;
482.7000;1.5637;1.1399;
483.0000;1.5751;1.1691;
483.3000;1.5694;1.1496;
483.6000;1.5678;1.1399;
483.9000;1.5694;1.1496;
484.2000;1.5694;1.1496;
484.5000;1.5735;1.1594;
484.8000;1.5670;1.1472;
485.1000;1.5653;1.1496;
485.4000;1.5678;1.1496;
485.7000;1.5661;1.1521;
486.0000;1.5670;1.1472;
486.3000;1.5670;1.1375;
486.6000;1.5678;1.1399;
486.9000;1.5678;1.1496;
487.2000;1.5678;1.1521;
487.5000;1.5678;1.1521;
487.8000;1.5694;1.1594;
488.1000;1.5678;1.1545;
488.4000;1.5678;1.1569;
488.7000;1.5670;1.1642;
489.0000;1.5678;1.1715;
489.3000;1.5694;1.1691;
489.6000;1.5694;1.1837;
489.9000;1.5678;1.1788;
490.2000;1.5661;1.1837;
490.5000;1.5678;1.1910;
490.8000;1.5694;1.1910;
491.1000;1.5678;1.1885;
491.4000;1.5686;1.1861;
491.7000;1.5726;1.1934;
492.0000;1.5686;1.1885;
492.3000;1.5686;1.1885;
492.6000;1.5661;1.1788;
492.9000;1.5751;1.2007;
493.2000;1.5694;1.1715;
493.5000;1.5702;1.1715;
493.8000;1.5661;1.1740;
494.1000;1.5678;1.1812;
494.4000;1.5661;1.1788;
494.7000;1.5783;1.2080;
495.0000;1.5678;1.1788;
495.3000;1.5694;1.1788;
495.6000;1.5678;1.1764;
495.9000;1.5694;1.1740;
496.2000;1.5661;1.1715;
496.5000;1.5653;1.1642;
496.8000;1.5678;1.1715;
497.1000;1.5686;1.1740;
497.4000;1.5686;1.1764;
497.7000;1.5678;1.1691;
498.0000;1.5678;1.1569;
498.3000;1.5678;1.1545;
498.6000;1.5653;1.1521;
498.9000;1.5702;1.1788;
499.2000;1.5670;1.1618;
499.5000;1.5678;1.1569;
499.8000;1.5694;1.1521;
500.1000;1.5743;1.1740;
500.4000;1.5686;1.1594;
500.7000;1.5710;1.1715;
501.0000;1.5751;1.1861;
501.3000;1.5637;1.1642;
501.6000;1.5686;1.1740;
501.9000;1.5678;1.1740;
502.2000;1.5572;1.1448;
502.5000;1.5726;1.1885;
502.8000;1.5670;1.1642;
503.1000;1.5661;1.1594;
503.4000;1.5710;1.1764;
503.7000;1.5678;1.1667;
504.0000;1.5718;1.1788;
504.3000;1.5670;1.1788;
504.6000;1.5735;1.1958;
504.9000;1.5678;1.1837;
505.2000;1.5678;1.1812;
505.5000;1.5670;1.1740;
505.8000;1.5661;1.1740;
506.1000;1.5661;1.1715;
506.4000;1.5670;1.1691;
506.7000;1.5694;1.1594;
507.0000;1.5637;1.1496;
507.3000;1.5678;1.1545;
507.6000;1.5637;1.1448;
507.9000;1.5678;1.1569;
508.2000;1.5670;1.1569;
508.5000;1.5686;1.1667;
508.8000;1.5678;1.1569;
509.1000;1.5678;1.1642;
509.4000;1.5670;1.1642;
509.7000;1.5653;1.1594;
510.0000;1.5686;1.1642;
510.3000;1.5686;1.1569;
510.6000;1.5653;1.1618;
510.9000;1.5661;1.1691;
511.2000;1.5694;1.1764;
511.5000;1.5670;1.1764;
511.8000;1.5670;1.1764;
512.1000;1.5686;1.1691;
512.4000;1.5710;1.1740;
512.7000;1.5686;1.1691;
513.0000;1.5686;1.1642;
513.3000;1.5686;1.1715;
513.6000;1.5670;1.1764;
513.9000;1.5678;1.1885;
514.2000;1.5678;1.1837;
514.5000;1.5645;1.1788;
514.8000;1.5710;1.1764;
515.1000;1.5661;1.1594;
515.4000;1.5645;1.1594;
515.7000;1.5678;1.1715;
516.0000;1.5678;1.1788;
516.3000;1.5670;1.1740;
516.6000;1.5670;1.1740;
516.9000;1.5653;1.1740;
517.2000;1.5661;1.1667;
517.5000;1.5678;1.1715;
517.8000;1.5653;1.1740;
518.1000;1.5743;1.1885;
518.4000;1.5670;1.1715;
518.7000;1.5686;1.1667;
519.0000;1.5726;1.1594;
519.3000;1.5670;1.1472;
519.6000;1.5686;1.1521;
519.9000;1.5670;1.1521;
520.2000;1.5686;1.1642;
520.5000;1.5678;1.1521;
520.8000;1.5661;1.1545;
521.1000;1.5694;1.1642;
521.4000;1.5686;1.1545;
521.7000;1.5670;1.1569;
522.0000;1.5613;1.1521;
522.3000;1.5686;1.1740;
522.6000;1.5686;1.1788;
522.9000;1.5686;1.1715;
523.2000;1.5694;1.1618;
523.5000;1.5702;1.1715;
523.8000;1.5775;1.1934;
524.1000;1.5710;1.1740;
524.4000;1.5670;1.1642;
524.7000;1.5670;1.1618;
525.0000;1.5653;1.1715;
525.3000;1.5694;1.1764;
525.6000;1.5661;1.1812;
525.9000;1.5670;1.1910;
526.2000;1.5670;1.1958;
526.5000;1.5661;1.1934;
526.8000;1.5670;1.1885;
527.1000;1.5637;1.1837;
527.4000;1.5653;1.1788;
527.7000;1.5686;1.1861;
528.0000;1.5678;1.1861;
528.3000;1.5645;1.1788;
528.6000;1.5686;1.1764;
528.9000;1.5621;1.1569;
529.2000;1.5686;1.1618;
529.5000;1.5678;1.1545;
529.8000;1.5678;1.1569;
530.1000;1.5678;1.1667;
530.4000;1.5661;1.1642;
530.7000;1.5653;1.1691;
531.0000;1.5645;1.1812;
531.3000;1.5694;1.1837;
531.6000;1.5678;1.1788;
531.9000;1.5645;1.1618;
532.2000;1.5661;1.1667;
532.5000;1.5629;1.1569;
532.8000;1.5670;1.1667;
533.1000;1.5694;1.1740;
533.4000;1.5653;1.1642;
533.7000;1.5670;1.1642;
534.0000;1.5678;1.1642;
534.3000;1.5670;1.1691;
534.6000;1.5637;1.1569;
534.9000;1.5702;1.1618;
535.2000;1.5678;1.1545;
535.5000;1.5678;1.1594;
535.8000;1.5653;1.1472;
536.1000;1.5678;1.1521;
536.4000;1.5678;1.1496;
536.7000;1.5661;1.1424;
537.0000;1.5670;1.1448;
537.3000;1.5670;1.1472;
537.6000;1.5629;1.1375;
537.9000;1.5653;1.1472;
538.2000;1.5670;1.1472;
538.5000;1.5670;1.1472;
538.8000;1.5596;1.1351;
539.1000;1.5645;1.1521;
539.4000;1.5710;1.1594;
539.7000;1.5694;1.1642;
540.0000;1.5751;1.1812;
540.3000;1.5718;1.1715;
540.6000;1.5645;1.1521;
540.9000;1.5645;1.1521;
541.2000;1.5653;1.1618;
541.5000;1.5661;1.1594;
541.8000;1.5637;1.1545;
542.1000;1.5629;1.1569;
542.4000;1.5653;1.1594;
542.7000;1.5637;1.1569;
543.0000;1.5678;1.1715;
543.3000;1.5726;1.1812;
543.6000;1.5588;1.1399;
543.9000;1.5661;1.1618;
544.2000;1.5678;1.1594;
544.5000;1.5686;1.1569;
544.8000;1.5661;1.1667;
545.1000;1.5670;1.1667;
545.4000;1.5678;1.1691;
545.7000;1.5694;1.1594;
546.0000;1.5670;1.1496;
546.3000;1.5694;1.1618;
546.6000;1.5694;1.1740;
546.9000;1.5759;1.1812;
547.2000;1.5686;1.1594;
547.5000;1.5694;1.1569;
547.8000;1.5694;1.1642;
548.1000;1.5686;1.1691;
548.4000;1.5694;1.1594;
548.7000;1.5670;1.1642;
549.0000;1.5686;1.1667;
549.3000;1.5694;1.1740;
549.6000;1.5678;1.1740;
549.9000;1.5678;1.1715;
550.2000;1.5637;1.1642;
550.5000;1.5678;1.1715;
550.8000;1.5678;1.1764;
551.1000;1.5653;1.1691;
551.4000;1.5645;1.1667;
551.7000;1.5670;1.1691;
552.0000;1.5686;1.1715;
552.3000;1.5670;1.1667;
552.6000;1.5645;1.1594;
552.9000;1.5678;1.1618;
553.2000;1.5670;1.1667;
553.5000;1.5670;1.1569;
553.8000;1.5661;1.1521;
554.1000;1.5645;1.1521;
554.4000;1.5678;1.1691;
554.7000;1.5678;1.1691;
555.0000;1.5678;1.1691;
555.3000;1.5653;1.1715;
555.6000;1.5686;1.1861;
555.9000;1.5678;1.1740;
556.2000;1.5686;1.1740;
556.5000;1.5670;1.1715;
556.8000;1.5596;1.1594;
557.1000;1.5661;1.1667;
557.4000;1.5670;1.1715;
557.7000;1.5670;1.1740;
558.0000;1.5702;1.1861;
558.3000;1.5694;1.1837;
558.6000;1.5694;1.1812;
558.9000;1.5670;1.1837;
559.2000;1.5653;1.1812;
559.5000;1.5678;1.1837;
559.8000;1.5637;1.1715;
560.1000;1.5678;1.1837;
560.4000;1.5670;1.1910;
560.7000;1.5678;1.1885;
561.0000;1.5653;1.1715;
561.3000;1.5661;1.1594;
561.6000;1.5653;1.1667;
561.9000;1.5621;1.1667;
562.2000;1.5653;1.1691;
562.5000;1.5629;1.1618;
562.8000;1.5645;1.1691;
563.1000;1.5653;1.1667;
563.4000;1.5670;1.1691;
563.7000;1.5670;1.1642;
564.0000;1.5743;1.1667;
564.3000;1.5653;1.1521;
564.6000;1.5678;1.1642;
564.9000;1.5686;1.1667;
565.2000;1.5653;1.1642;
565.5000;1.5710;1.1691;
565.8000;1.5661;1.1569;
566.1000;1.5629;1.1375;
566.4000;1.5661;1.1472;
566.7000;1.5661;1.1399;
567.0000;1.5710;1.1496;
567.3000;1.5661;1.1424;
567.6000;1.5686;1.1521;
567.9000;1.5661;1.1594;
568.2000;1.5653;1.1569;
568.5000;1.5670;1.1545;
568.8000;1.5678;1.1496;
569.1000;1.5678;1.1521;
569.4000;1.5686;1.1472;
569.7000;1.5694;1.1472;
570.0000;1.5686;1.1448;
570.3000;1.5686;1.1399;
570.6000;1.5678;1.1399;
570.9000;1.5678;1.1399;
571.2000;1.5686;1.1521;
571.5000;1.5661;1.1521;
571.8000;1.5710;1.1618;
572.1000;1.5678;1.1496;
572.4000;1.5670;1.1496;
572.7000;1.5653;1.1424;
573.0000;1.5670;1.1667;
573.3000;1.5661;1.1715;
573.6000;1.5686;1.1788;
573.9000;1.5661;1.1715;
574.2000;1.5653;1.1594;
574.5000;1.5629;1.1448;
574.8000;1.5670;1.1569;
575.1000;1.5767;1.1764;
575.4000;1.5670;1.1521;
575.7000;1.5653;1.1472;
576.0000;1.5670;1.1472;
576.3000;1.5678;1.1496;
576.6000;1.5670;1.1496;
576.9000;1.5702;1.1618;
577.2000;1.5661;1.1521;
577.5000;1.5653;1.1545;
577.8000;1.5653;1.1472;
578.1000;1.5670;1.1472;
578.4000;1.5678;1.1472;
578.7000;1.5678;1.1521;
579.0000;1.5686;1.1545;
579.3000;1.5670;1.1569;
579.6000;1.5661;1.1594;
579.9000;1.5670;1.1496;
580.2000;1.5694;1.1545;
580.5000;1.5678;1.1545;
580.8000;1.5670;1.1472;
581.1000;1.5637;1.1472;
581.4000;1.5670;1.1594;
581.7000;1.5653;1.1569;
582.0000;1.5678;1.1594;
582.3000;1.5670;1.1545;
582.6000;1.5661;1.1521;
582.9000;1.5670;1.1594;
583.2000;1.5670;1.1642;
583.5000;1.5670;1.1618;
583.8000;1.5678;1.1545;
584.1000;1.5678;1.1521;
584.4000;1.5661;1.1424;
584.7000;1.5670;1.1472;
585.0000;1.5678;1.1618;
585.3000;1.5580;1.1424;
585.6000;1.5661;1.1618;
585.9000;1.5670;1.1569;
586.2000;1.5580;1.1326;
586.5000;1.5653;1.1594;
586.8000;1.5661;1.1618;
587.1000;1.5653;1.1642;
587.4000;1.5637;1.1594;
587.7000;1.5645;1.1545;
588.0000;1.5678;1.1545;
588.3000;1.5653;1.1569;
588.6000;1.5694;1.1667;
588.9000;1.5670;1.1667;
589.2000;1.5686;1.1691;
589.5000;1.5621;1.1448;
589.8000;1.5678;1.1569;
590.1000;1.5678;1.1424;
590.4000;1.5653;1.1472;
590.7000;1.5661;1.1545;
591.0000;1.5670;1.1521;
591.3000;1.5653;1.1545;
591.6000;1.5661;1.1594;
591.9000;1.5637;1.1594;
592.2000;1.5637;1.1569;
592.5000;1.5653;1.1545;
592.8000;1.5653;1.1545;
593.1000;1.5670;1.1521;
593.4000;1.5661;1.1521;
593.7000;1.5661;1.1545;
594.0000;1.5670;1.1545;
594.3000;1.5670;1.1667;
594.6000;1.5637;1.1642;
594.9000;1.5653;1.1569;
595.2000;1.5629;1.1521;
595.5000;1.5678;1.1691;
595.8000;1.5678;1.1594;
596.1000;1.5670;1.1594;
596.4000;1.5653;1.1569;
596.7000;1.5678;1.1521;
597.0000;1.5775;1.1740;
597.3000;1.5661;1.1424;
597.6000;1.5661;1.1448;
597.9000;1.5670;1.1569;
598.2000;1.5686;1.1594;
598.5000;1.5670;1.1569;
598.8000;1.5661;1.1545;
599.1000;1.5702;1.1594;
599.4000;1.5661;1.1496;
599.7000;1.5726;1.1642;
600.0000;1.5686;1.1496;
600.3000;1.5686;1.1496;
600.6000;1.5637;1.1326;
600.9000;1.5556;1.1108;
601.2000;1.5401;1.0865;
601.5000;1.5140;1.0306;
601.8000;1.5083;1.0427;
602.1000;1.4937;1.0330;
602.4000;1.4790;1.0233;
602.7000;1.4660;1.0135;
603.0000;1.4530;0.9917;
603.3000;1.4383;0.9722;
603.6000;1.4278;0.9576;
603.9000;1.4164;0.9503;
604.2000;1.4058;0.9503;
604.5000;1.3944;0.9358;
604.8000;1.3838;0.9382;
605.1000;1.3757;0.9406;
605.4000;1.3667;0.9333;
605.7000;1.3578;0.9333;
606.0000;1.3480;0.9333;
606.3000;1.3415;0.9260;
606.6000;1.3333;0.9163;
606.9000;1.3219;0.8969;
607.2000;1.3154;0.8896;
607.5000;1.3097;0.8871;
607.8000;1.3016;0.8677;
608.1000;1.2959;0.8653;
608.4000;1.2886;0.8556;
608.7000;1.2837;0.8531;
609.0000;1.2780;0.8580;
609.3000;1.2698;0.8483;
609.6000;1.2658;0.8385;
609.9000;1.2568;0.8361;
610.2000;1.2511;0.8458;
610.5000;1.2470;0.8483;
610.8000;1.2430;0.8483;
611.1000;1.2308;0.8337;
611.4000;1.2259;0.8312;
611.7000;1.2194;0.8288;
612.0000;1.2161;0.8264;
612.3000;1.2080;0.8288;
612.6000;1.2047;0.8361;
612.9000;1.1909;0.8167;
613.2000;1.1941;0.8434;
613.5000;1.1893;0.8483;
613.8000;1.1795;0.8361;
614.1000;1.1770;0.8385;
614.4000;1.1738;0.8410;
614.7000;1.1689;0.8361;
615.0000;1.1600;0.8167;
615.3000;1.1632;0.8288;
615.6000;1.1559;0.8191;
615.9000;1.1518;0.8264;
616.2000;1.1518;0.8312;
616.5000;1.1445;0.8191;
616.8000;1.1412;0.8167;
617.1000;1.1355;0.8118;
617.4000;1.1323;0.8094;
617.7000;1.1290;0.8069;
618.0000;1.1193;0.7924;
618.3000;1.1241;0.8118;
618.6000;1.1176;0.7996;
618.9000;1.1136;0.7948;
619.2000;1.1168;0.8118;
619.5000;1.1079;0.8069;
619.8000;1.1046;0.8142;
620.1000;1.0948;0.7924;
620.4000;1.1079;0.8361;
620.7000;1.0924;0.7972;
621.0000;1.0940;0.8045;
621.3000;1.0875;0.7924;
621.6000;1.0842;0.7899;
621.9000;1.0818;0.7851;
622.2000;1.0802;0.7875;
622.5000;1.0737;0.7851;
622.8000;1.0672;0.7778;
623.1000;1.0672;0.7851;
623.4000;1.0647;0.7851;
623.7000;1.0615;0.7802;
624.0000;1.0590;0.7778;
624.3000;1.0558;0.7681;
624.6000;1.0492;0.7559;
624.9000;1.0501;0.7583;
625.2000;1.0476;0.7462;
625.5000;1.0460;0.7486;
625.8000;1.0444;0.7510;
626.1000;1.0427;0.7486;
626.4000;1.0370;0.7535;
626.7000;1.0338;0.7510;
627.0000;1.0322;0.7510;
627.3000;1.0313;0.7583;
627.6000;1.0281;0.7559;
627.9000;1.0256;0.7608;
628.2000;1.0265;0.7608;
628.5000;1.0224;0.7486;
628.8000;1.0159;0.7437;
629.1000;1.0151;0.7437;
629.4000;1.0151;0.7535;
629.7000;1.0134;0.7559;
630.0000;1.0102;0.7535;
630.3000;1.0094;0.7535;
630.6000;1.0020;0.7462;
630.9000;1.0069;0.7583;
631.2000;1.0037;0.7510;
631.5000;1.0020;0.7486;
631.8000;0.9996;0.7486;
632.1000;0.9972;0.7486;
632.4000;0.9939;0.7486;
632.7000;0.9915;0.7437;
633.0000;0.9996;0.7632;
633.3000;0.9882;0.7389;
633.6000;0.9874;0.7535;
633.9000;0.9833;0.7510;
634.2000;0.9825;0.7608;
634.5000;0.9809;0.7632;
634.8000;0.9801;0.7656;
635.1000;0.9776;0.7681;
635.4000;0.9809;0.7729;
635.7000;0.9744;0.7535;
636.0000;0.9735;0.7535;
636.3000;0.9646;0.7389;
636.6000;0.9711;0.7559;
636.9000;0.9662;0.7535;
637.2000;0.9654;0.7510;
637.5000;0.9638;0.7462;
637.8000;0.9605;0.7486;
638.1000;0.9605;0.7437;
638.4000;0.9589;0.7437;
638.7000;0.9581;0.7413;
639.0000;0.9589;0.7462;
639.3000;0.9548;0.7365;
639.6000;0.9540;0.7437;
639.9000;0.9524;0.7486;
640.2000;0.9508;0.7462;
640.5000;0.9499;0.7510;
640.8000;0.9467;0.7559;
641.1000;0.9516;0.7656;
641.4000;0.9467;0.7535;
641.7000;0.9451;0.7437;
642.0000;0.9426;0.7413;
642.3000;0.9426;0.7437;
642.6000;0.9385;0.7389;
642.9000;0.9402;0.7389;
643.2000;0.9312;0.7219;
643.5000;0.9353;0.7316;
643.8000;0.9345;0.7437;
644.1000;0.9320;0.7510;
644.4000;0.9312;0.7510;
644.7000;0.9304;0.7535;
645.0000;0.9263;0.7510;
645.3000;0.9271;0.7510;
645.6000;0.9280;0.7559;
645.9000;0.9255;0.7583;
646.2000;0.9247;0.7656;
646.5000;0.9231;0.7656;
646.8000;0.9255;0.7656;
647.1000;0.9214;0.7583;
647.4000;0.9190;0.7559;
647.7000;0.9206;0.7656;
648.0000;0.9149;0.7437;
648.3000;0.9141;0.7510;
648.6000;0.9141;0.7462;
648.9000;0.9125;0.7437;
649.2000;0.9117;0.7559;
649.5000;0.9125;0.7583;
649.8000;0.9109;0.7510;
650.1000;0.9109;0.7510;
650.4000;0.9092;0.7559;
650.7000;0.9060;0.7535;
651.0000;0.9084;0.7608;
651.3000;0.9068;0.7608;
651.6000;0.9060;0.7583;
651.9000;0.9019;0.7462;
652.2000;0.9027;0.7462;
652.5000;0.9019;0.7462;
652.8000;0.9027;0.7510;
653.1000;0.8995;0.7413;
653.4000;0.8970;0.7437;
653.7000;0.8970;0.7437;
654.0000;0.8978;0.7535;
654.3000;0.8970;0.7510;
654.6000;0.8938;0.7510;
654.9000;0.8930;0.7437;
655.2000;0.8938;0.7486;
655.5000;0.8938;0.7510;
655.8000;0.8824;0.7073;
656.1000;0.8889;0.7267;
656.4000;0.8897;0.7292;
656.7000;0.8889;0.7316;
657.0000;0.8881;0.7413;
657.3000;0.8848;0.7316;
657.6000;0.8881;0.7462;
657.9000;0.8848;0.7340;
658.2000;0.8767;0.7073;
658.5000;0.8751;0.7194;
658.8000;0.8832;0.7462;
659.1000;0.8807;0.7486;
659.4000;0.8710;0.7194;
659.7000;0.8710;0.7170;
660.0000;0.8775;0.7365;
660.3000;0.8767;0.7437;
660.6000;0.8742;0.7365;
660.9000;0.8767;0.7413;
661.2000;0.8759;0.7437;
661.5000;0.8751;0.7437;
661.8000;0.8751;0.7510;
662.1000;0.8751;0.7608;
662.4000;0.8734;0.7559;
662.7000;0.8734;0.7608;
663.0000;0.8775;0.7681;
663.3000;0.8710;0.7535;
663.6000;0.8702;0.7462;
663.9000;0.8702;0.7437;
664.2000;0.8694;0.7389;
664.5000;0.8669;0.7316;
664.8000;0.8685;0.7413;
665.1000;0.8702;0.7413;
665.4000;0.8669;0.7389;
665.7000;0.8628;0.7365;
666.0000;0.8645;0.7437;
666.3000;0.8628;0.7462;
666.6000;0.8677;0.7535;
666.9000;0.8620;0.7365;
667.2000;0.8604;0.7243;
667.5000;0.8612;0.7267;
667.8000;0.8612;0.7340;
668.1000;0.8588;0.7316;
668.4000;0.8596;0.7316;
668.7000;0.8563;0.7267;
669.0000;0.8604;0.7365;
669.3000;0.8571;0.7316;
669.6000;0.8555;0.7389;
669.9000;0.8555;0.7340;
670.2000;0.8555;0.7340;
670.5000;0.8555;0.7365;
670.8000;0.8555;0.7365;
671.1000;0.8555;0.7267;
671.4000;0.8531;0.7170;
671.7000;0.8506;0.7194;
672.0000;0.8531;0.7292;
672.3000;0.8498;0.7316;
672.6000;0.8482;0.7243;
672.9000;0.8449;0.7097;
673.2000;0.8514;0.7194;
673.5000;0.8482;0.7121;
673.8000;0.8474;0.7194;
674.1000;0.8441;0.7097;
674.4000;0.8490;0.7194;
674.7000;0.8531;0.7437;
675.0000;0.8441;0.7292;
675.3000;0.8433;0.7340;
675.6000;0.8433;0.7340;
675.9000;0.8449;0.7486;
676.2000;0.8433;0.7413;
676.5000;0.8425;0.7462;
676.8000;0.8425;0.7462;
677.1000;0.8400;0.7510;
677.4000;0.8417;0.7583;
677.7000;0.8400;0.7535;
678.0000;0.8400;0.7462;
678.3000;0.8498;0.7729;
678.6000;0.8392;0.7486;
678.9000;0.8376;0.7316;
679.2000;0.8368;0.7292;
679.5000;0.8368;0.7316;
679.8000;0.8368;0.7292;
680.1000;0.8360;0.7292;
680.4000;0.8368;0.7365;
680.7000;0.8352;0.7365;
681.0000;0.8352;0.7413;
681.3000;0.8319;0.7389;
681.6000;0.8360;0.7413;
681.9000;0.8319;0.7292;
682.2000;0.8344;0.7365;
682.5000;0.8360;0.7437;
682.8000;0.8287;0.7365;
683.1000;0.8278;0.7292;
683.4000;0.8311;0.7413;
683.7000;0.8311;0.7389;
684.0000;0.8303;0.7365;
684.3000;0.8287;0.7365;
684.6000;0.8287;0.7462;
684.9000;0.8287;0.7559;
685.2000;0.8287;0.7437;
685.5000;0.8262;0.7340;
685.8000;0.8197;0.7194;
686.1000;0.8278;0.7437;
686.4000;0.8270;0.7462;
686.7000;0.8287;0.7486;
687.0000;0.8246;0.7462;
687.3000;0.8303;0.7632;
687.6000;0.8262;0.7437;
687.9000;0.8238;0.7365;
688.2000;0.8254;0.7413;
688.5000;0.8254;0.7462;
688.8000;0.8238;0.7413;
689.1000;0.8230;0.7365;
689.4000;0.8213;0.7365;
689.7000;0.8221;0.7389;
690.0000;0.8213;0.7267;
690.3000;0.8246;0.7413;
690.6000;0.8197;0.7267;
690.9000;0.8205;0.7365;
691.2000;0.8140;0.7194;
691.5000;0.8181;0.7389;
691.8000;0.8181;0.7365;
692.1000;0.8173;0.7292;
692.4000;0.8181;0.7316;
692.7000;0.8181;0.7316;
693.0000;0.8173;0.7340;
693.3000;0.8189;0.7365;
693.6000;0.8181;0.7437;
693.9000;0.8156;0.7389;
694.2000;0.8132;0.7316;
694.5000;0.8148;0.7340;
694.8000;0.8132;0.7340;
695.1000;0.8124;0.7316;
695.4000;0.8140;0.7389;
695.7000;0.8124;0.7340;
696.0000;0.8124;0.7365;
696.3000;0.8124;0.7340;
696.6000;0.8132;0.7292;
696.9000;0.8116;0.7316;
697.2000;0.8132;0.7340;
697.5000;0.8132;0.7413;
697.8000;0.8205;0.7486;
698.1000;0.8140;0.7389;
698.4000;0.8107;0.7365;
698.7000;0.8124;0.7365;
699.0000;0.8116;0.7340;
699.3000;0.8083;0.7316;
699.6000;0.8083;0.7316;
699.9000;0.7993;0.7194;
700.2000;0.8067;0.7462;
700.5000;0.8083;0.7486;
700.8000;0.8075;0.7510;
701.1000;0.8091;0.7583;
701.4000;0.8083;0.7535;
701.7000;0.8059;0.7510;
702.0000;0.8059;0.7510;
702.3000;0.8010;0.7462;
702.6000;0.8059;0.7559;
702.9000;0.8050;0.7510;
703.2000;0.8018;0.7559;
703.5000;0.8026;0.7656;
703.8000;0.8034;0.7632;
704.1000;0.8026;0.7632;
704.4000;0.8010;0.7559;
704.7000;0.8010;0.7510;
705.0000;0.7985;0.7510;
705.3000;0.8034;0.7632;
705.6000;0.8026;0.7559;
705.9000;0.7937;0.7389;
706.2000;0.8010;0.7608;
706.5000;0.8026;0.7608;
706.8000;0.8018;0.7632;
707.1000;0.7953;0.7462;
707.4000;0.8018;0.7608;
707.7000;0.8002;0.7535;
708.0000;0.8010;0.7486;
708.3000;0.7985;0.7389;
708.6000;0.8026;0.7437;
708.9000;0.8002;0.7437;
709.2000;0.7993;0.7437;
709.5000;0.7969;0.7486;
709.8000;0.7969;0.7462;
710.1000;0.7985;0.7413;
710.4000;0.7969;0.7389;
710.7000;0.7993;0.7413;
711.0000;0.7961;0.7389;
711.3000;0.7985;0.7389;
711.6000;0.7969;0.7316;
711.9000;0.7969;0.7462;
712.2000;0.7953;0.7486;
712.5000;0.7969;0.7583;
712.8000;0.7969;0.7583;
713.1000;0.7993;0.7656;
713.4000;0.8010;0.7681;
713.7000;0.7945;0.7535;
714.0000;0.8059;0.7826;
714.3000;0.7953;0.7510;
714.6000;0.7937;0.7510;
714.9000;0.7961;0.7535;
715.2000;0.7985;0.7632;
715.5000;0.7945;0.7535;
715.8000;0.7937;0.7510;
716.1000;0.7928;0.7559;
716.4000;0.7937;0.7510;
716.7000;0.7928;0.7510;
717.0000;0.7904;0.7486;
717.3000;0.7945;0.7510;
717.6000;0.7928;0.7535;
717.9000;0.7945;0.7656;
718.2000;0.7904;0.7559;
718.5000;0.7912;0.7656;
718.8000;0.7920;0.7681;
719.1000;0.7896;0.7559;
719.4000;0.7896;0.7462;
719.7000;0.7880;0.7462;
720.0000;0.7888;0.7437;
720.3000;0.7888;0.7510;
720.6000;0.7888;0.7486;
720.9000;0.7888;0.7510;
721.2000;0.7871;0.7535;
721.5000;0.7888;0.7535;
721.8000;0.7855;0.7486;
722.1000;0.7871;0.7583;
722.4000;0.7871;0.7583;
722.7000;0.7896;0.7705;
723.0000;0.7904;0.7656;
723.3000;0.7855;0.7462;
723.6000;0.7863;0.7608;
723.9000;0.7904;0.7681;
724.2000;0.7880;0.7535;
724.5000;0.7880;0.7389;
724.8000;0.7880;0.7365;
725.1000;0.7896;0.7437;
725.4000;0.7839;0.7292;
725.7000;0.7855;0.7292;
726.0000;0.7790;0.7194;
726.3000;0.7863;0.7365;
726.6000;0.7847;0.7340;
726.9000;0.7847;0.7413;
727.2000;0.7847;0.7437;
727.5000;0.7782;0.7316;
727.8000;0.7839;0.7389;
728.1000;0.7863;0.7535;
728.4000;0.7831;0.7413;
728.7000;0.7814;0.7316;
729.0000;0.7823;0.7292;
729.3000;0.7855;0.7340;
729.6000;0.7823;0.7267;
729.9000;0.7823;0.7292;
730.2000;0.7823;0.7267;
730.5000;0.7831;0.7267;
730.8000;0.7814;0.7316;
731.1000;0.7806;0.7243;
731.4000;0.7823;0.7292;
731.7000;0.7814;0.7365;
732.0000;0.7847;0.7413;
732.3000;0.7798;0.7267;
732.6000;0.7790;0.7413;
732.9000;0.7814;0.7608;
733.2000;0.7790;0.7510;
733.5000;0.7798;0.7535;
733.8000;0.7774;0.7389;
734.1000;0.7814;0.7510;
734.4000;0.7863;0.7583;
734.7000;0.7798;0.7437;
735.0000;0.7774;0.7365;
735.3000;0.7798;0.7389;
735.6000;0.7766;0.7170;
735.9000;0.7790;0.7292;
736.2000;0.7757;0.7389;
736.5000;0.7774;0.7437;
736.8000;0.7871;0.7729;
737.1000;0.7741;0.7413;
737.4000;0.7757;0.7340;
737.7000;0.7757;0.7389;
738.0000;0.7855;0.7559;
738.3000;0.7790;0.7486;
738.6000;0.7782;0.7462;
738.9000;0.7766;0.7413;
739.2000;0.7766;0.7365;
739.5000;0.7757;0.7437;
739.8000;0.7782;0.7486;
740.1000;0.7757;0.7486;
740.4000;0.7766;0.7437;
740.7000;0.7733;0.7340;
741.0000;0.7766;0.7340;
741.3000;0.7741;0.7437;
741.6000;0.7684;0.7292;
741.9000;0.7741;0.7413;
742.2000;0.7766;0.7510;
742.5000;0.7733;0.7437;
742.8000;0.7733;0.7486;
743.1000;0.7749;0.7559;
743.4000;0.7757;0.7535;
743.7000;0.7814;0.7753;
744.0000;0.7725;0.7510;
744.3000;0.7717;0.7510;
744.6000;0.7741;0.7535;
744.9000;0.7790;0.7705;
745.2000;0.7757;0.7583;
745.5000;0.7725;0.7559;
745.8000;0.7733;0.7535;
746.1000;0.7717;0.7559;
746.4000;0.7741;0.7583;
746.7000;0.7717;0.7510;
747.0000;0.7766;0.7632;
747.3000;0.7725;0.7535;
747.6000;0.7725;0.7559;
747.9000;0.7692;0.7437;
748.2000;0.7725;0.7510;
748.5000;0.7757;0.7656;
748.8000;0.7725;0.7510;
749.1000;0.7660;0.7365;
749.4000;0.7676;0.7340;
749.7000;0.7725;0.7389;
750.0000;0.7692;0.7340;
750.3000;0.7733;0.7535;
750.6000;0.7725;0.7608;
750.9000;0.7733;0.7656;
751.2000;0.7709;0.7583;
751.5000;0.7806;0.7802;
751.8000;0.7692;0.7462;
752.1000;0.7668;0.7389;
752.4000;0.7717;0.7365;
752.7000;0.7700;0.7316;
753.0000;0.7660;0.7243;
753.3000;0.7692;0.7316;
753.6000;0.7627;0.7243;
753.9000;0.7684;0.7413;
754.2000;0.7692;0.7389;
754.5000;0.7692;0.7437;
754.8000;0.7676;0.7413;
755.1000;0.7700;0.7462;
755.4000;0.7684;0.7437;
755.7000;0.7676;0.7413;
756.0000;0.7668;0.7389;
756.3000;0.7660;0.7267;
756.6000;0.7643;0.7194;
756.9000;0.7668;0.7243;
757.2000;0.7684;0.7340;
757.5000;0.7668;0.7413;
757.8000;0.7660;0.7462;
758.1000;0.7700;0.7510;
758.4000;0.7652;0.7437;
758.7000;0.7676;0.7389;
759.0000;0.7668;0.7413;
759.3000;0.7643;0.7389;
759.6000;0.7660;0.7389;
759.9000;0.7652;0.7389;
760.2000;0.7668;0.7462;
760.5000;0.7668;0.7486;
760.8000;0.7643;0.7413;
761.1000;0.7692;0.7559;
761.4000;0.7643;0.7413;
761.7000;0.7627;0.7340;
762.0000;0.7643;0.7413;
762.3000;0.7627;0.7462;
762.6000;0.7643;0.7413;
762.9000;0.7627;0.7340;
763.2000;0.7627;0.7316;
763.5000;0.7635;0.7316;
763.8000;0.7619;0.7267;
764.1000;0.7668;0.7437;
764.4000;0.7635;0.7389;
764.7000;0.7643;0.7365;
765.0000;0.7643;0.7365;
765.3000;0.7643;0.7365;
765.6000;0.7619;0.7292;
765.9000;0.7643;0.7316;
766.2000;0.7643;0.7340;
766.5000;0.7538;0.7170;
766.8000;0.7635;0.7462;
767.1000;0.7643;0.7437;
767.4000;0.7627;0.7437;
767.7000;0.7635;0.7510;
768.0000;0.7619;0.7365;
768.3000;0.7652;0.7413;
768.6000;0.7627;0.7413;
768.9000;0.7627;0.7462;
769.2000;0.7635;0.7486;
769.5000;0.7627;0.7535;
769.8000;0.7619;0.7559;
770.1000;0.7603;0.7510;
770.4000;0.7627;0.7389;
770.7000;0.7619;0.7243;
771.0000;0.7611;0.7292;
771.3000;0.7635;0.7316;
771.6000;0.7643;0.7340;
771.9000;0.7570;0.7243;
772.2000;0.7595;0.7243;
772.5000;0.7595;0.7219;
772.8000;0.7619;0.7340;
773.1000;0.7652;0.7437;
773.4000;0.7546;0.7121;
773.7000;0.7619;0.7292;
774.0000;0.7603;0.7267;
774.3000;0.7562;0.7243;
774.6000;0.7603;0.7413;
774.9000;0.7595;0.7413;
775.2000;0.7595;0.7462;
775.5000;0.7570;0.7340;
775.8000;0.7603;0.7340;
776.1000;0.7578;0.7243;
776.4000;0.7546;0.7073;
776.7000;0.7562;0.7170;
777.0000;0.7570;0.7243;
777.3000;0.7611;0.7316;
777.6000;0.7562;0.7146;
777.9000;0.7595;0.7292;
778.2000;0.7570;0.7267;
778.5000;0.7619;0.7462;
778.8000;0.7586;0.7437;
779.1000;0.7586;0.7486;
779.4000;0.7586;0.7486;
779.7000;0.7595;0.7559;
780.0000;0.7586;0.7656;
780.3000;0.7603;0.7705;
780.6000;0.7603;0.7705;
780.9000;0.7595;0.7632;
781.2000;0.7635;0.7778;
781.5000;0.7595;0.7729;
781.8000;0.7595;0.7705;
782.1000;0.7578;0.7583;
782.4000;0.7521;0.7437;
782.7000;0.7562;0.7559;
783.0000;0.7586;0.7656;
783.3000;0.7530;0.7559;
783.6000;0.7570;0.7632;
783.9000;0.7562;0.7559;
784.2000;0.7570;0.7559;
784.5000;0.7578;0.7462;
784.8000;0.7554;0.7462;
785.1000;0.7578;0.7535;
785.4000;0.7603;0.7681;
785.7000;0.7481;0.7316;
786.0000;0.7578;0.7486;
786.3000;0.7570;0.7559;
786.6000;0.7570;0.7559;
786.9000;0.7562;0.7559;
787.2000;0.7546;0.7632;
787.5000;0.7570;0.7608;
787.8000;0.7538;0.7486;
788.1000;0.7570;0.7462;
788.4000;0.7554;0.7510;
788.7000;0.7562;0.7535;
789.0000;0.7627;0.7681;
789.3000;0.7546;0.7365;
789.6000;0.7554;0.7389;
789.9000;0.7562;0.7389;
790.2000;0.7570;0.7365;
790.5000;0.7586;0.7486;
790.8000;0.7530;0.7389;
791.1000;0.7554;0.7365;
791.4000;0.7562;0.7437;
791.7000;0.7562;0.7462;
792.0000;0.7554;0.7462;
792.3000;0.7562;0.7535;
792.6000;0.7546;0.7486;
792.9000;0.7562;0.7413;
793.2000;0.7554;0.7365;
793.5000;0.7562;0.7389;
793.8000;0.7546;0.7389;
794.1000;0.7538;0.7316;
794.4000;0.7546;0.7292;
794.7000;0.7554;0.7316;
795.0000;0.7554;0.7437;
795.3000;0.7554;0.7413;
795.6000;0.7586;0.7510;
795.9000;0.7546;0.7292;
796.2000;0.7505;0.7194;
796.5000;0.7530;0.7292;
796.8000;0.7546;0.7437;
797.1000;0.7538;0.7413;
797.4000;0.7521;0.7437;
797.7000;0.7521;0.7437;
798.0000;0.7513;0.7413;
798.3000;0.7530;0.7437;
798.6000;0.7538;0.7389;
798.9000;0.7554;0.7316;
799.2000;0.7546;0.7292;
799.5000;0.7538;0.7219;
799.8000;0.7530;0.7121;
800.1000;0.7546;0.7243;
800.4000;0.7530;0.7219;
800.7000;0.7530;0.7316;
801.0000;0.7530;0.7389;
801.3000;0.7473;0.7389;
801.6000;0.7505;0.7462;
801.9000;0.7546;0.7462;
802.2000;0.7521;0.7316;
802.5000;0.7513;0.7292;
802.8000;0.7521;0.7316;
803.1000;0.7603;0.7413;
803.4000;0.7538;0.7365;
803.7000;0.7538;0.7340;
804.0000;0.7530;0.7316;
804.3000;0.7464;0.7292;
804.6000;0.7521;0.7462;
804.9000;0.7530;0.7413;
805.2000;0.7497;0.7486;
805.5000;0.7513;0.7486;
805.8000;0.7538;0.7510;
806.1000;0.7497;0.7243;
806.4000;0.7505;0.7243;
806.7000;0.7489;0.7194;
807.0000;0.7489;0.7194;
807.3000;0.7513;0.7170;
807.6000;0.7489;0.7243;
807.9000;0.7481;0.7219;
808.2000;0.7530;0.7413;
808.5000;0.7497;0.7462;
808.8000;0.7521;0.7486;
809.1000;0.7505;0.7316;
809.4000;0.7497;0.7267;
809.7000;0.7367;0.6927;
810.0000;0.7489;0.7243;
810.3000;0.7497;0.7243;
810.6000;0.7497;0.7267;
810.9000;0.7497;0.7316;
811.2000;0.7513;0.7316;
811.5000;0.7489;0.7292;
811.8000;0.7497;0.7292;
812.1000;0.7456;0.7219;
812.4000;0.7497;0.7292;
812.7000;0.7481;0.7194;
813.0000;0.7481;0.7219;
813.3000;0.7521;0.7316;
813.6000;0.7497;0.7316;
813.9000;0.7464;0.7267;
814.2000;0.7513;0.7462;
814.5000;0.7489;0.7365;
814.8000;0.7489;0.7267;
815.1000;0.7473;0.7292;
815.4000;0.7489;0.7389;
815.7000;0.7497;0.7413;
816.0000;0.7497;0.7389;
816.3000;0.7489;0.7413;
816.6000;0.7464;0.7389;
816.9000;0.7473;0.7462;
817.2000;0.7481;0.7437;
817.5000;0.7481;0.7437;
817.8000;0.7505;0.7389;
818.1000;0.7489;0.7316;
818.4000;0.7489;0.7365;
818.7000;0.7513;0.7316;
819.0000;0.7481;0.7194;
819.3000;0.7481;0.7097;
819.6000;0.7497;0.7219;
819.9000;0.7473;0.7121;
820.2000;0.7497;0.7146;
820.5000;0.7456;0.7146;
820.8000;0.7473;0.7267;
821.1000;0.7489;0.7365;
821.4000;0.7481;0.7365;
821.7000;0.7464;0.7340;
822.0000;0.7546;0.7510;
822.3000;0.7473;0.7292;
822.6000;0.7407;0.7049;
822.9000;0.7497;0.7292;
823.2000;0.7464;0.7243;
823.5000;0.7481;0.7243;
823.8000;0.7473;0.7243;
824.1000;0.7464;0.7243;
824.4000;0.7481;0.7292;
824.7000;0.7489;0.7292;
825.0000;0.7481;0.7413;
825.3000;0.7473;0.7486;
825.6000;0.7464;0.7486;
825.9000;0.7497;0.7486;
826.2000;0.7489;0.7535;
826.5000;0.7473;0.7413;
826.8000;0.7448;0.7292;
827.1000;0.7473;0.7243;
827.4000;0.7464;0.7292;
827.7000;0.7464;0.7316;
828.0000;0.7456;0.7267;
828.3000;0.7497;0.7413;
828.6000;0.7473;0.7413;
828.9000;0.7464;0.7486;
829.2000;0.7464;0.7413;
829.5000;0.7448;0.7413;
829.8000;0.7513;0.7510;
830.1000;0.7464;0.7510;
830.4000;0.7481;0.7608;
830.7000;0.7456;0.7510;
831.0000;0.7473;0.7608;
831.3000;0.7448;0.7608;
831.6000;0.7448;0.7632;
831.9000;0.7464;0.7583;
832.2000;0.7456;0.7608;
832.5000;0.7448;0.7559;
832.8000;0.7456;0.7583;
833.1000;0.7448;0.7559;
833.4000;0.7448;0.7559;
833.7000;0.7473;0.7656;
834.0000;0.7448;0.7632;
834.3000;0.7440;0.7583;
834.6000;0.7505;0.7729;
834.9000;0.7440;0.7632;
835.2000;0.7440;0.7656;
835.5000;0.7448;0.7608;
835.8000;0.7440;0.7510;
836.1000;0.7513;0.7729;
836.4000;0.7448;0.7608;
836.7000;0.7432;0.7656;
837.0000;0.7497;0.7705;
837.3000;0.7432;0.7632;
837.6000;0.7448;0.7632;
837.9000;0.7416;0.7632;
838.2000;0.7448;0.7705;
838.5000;0.7424;0.7608;
838.8000;0.7448;0.7656;
839.1000;0.7424;0.7608;
839.4000;0.7440;0.7583;
839.7000;0.7440;0.7510;
840.0000;0.7440;0.7535;
840.3000;0.7448;0.7681;
840.6000;0.7416;0.7608;
840.9000;0.7432;0.7559;
841.2000;0.7432;0.7656;
841.5000;0.7448;0.7656;
841.8000;0.7399;0.7510;
842.1000;0.7424;0.7535;
842.4000;0.7456;0.7681;
842.7000;0.7440;0.7656;
843.0000;0.7432;0.7632;
843.3000;0.7424;0.7559;
843.6000;0.7407;0.7437;
843.9000;0.7440;0.7486;
844.2000;0.7424;0.7437;
844.5000;0.7424;0.7486;
844.8000;0.7473;0.7632;
845.1000;0.7391;0.7510;
845.4000;0.7481;0.7778;
845.7000;0.7416;0.7632;
846.0000;0.7391;0.7462;
846.3000;0.7424;0.7510;
846.6000;0.7424;0.7510;
846.9000;0.7440;0.7656;
847.2000;0.7407;0.7559;
847.5000;0.7570;0.7948;
847.8000;0.7440;0.7583;
848.1000;0.7432;0.7535;
848.4000;0.7424;0.7535;
848.7000;0.7424;0.7535;
849.0000;0.7424;0.7535;
849.3000;0.7424;0.7535;
849.6000;0.7424;0.7559;
849.9000;0.7407;0.7510;
850.2000;0.7407;0.7608;
850.5000;0.7375;0.7510;
850.8000;0.7383;0.7437;
851.1000;0.7489;0.7681;
851.4000;0.7407;0.7486;
851.7000;0.7407;0.7559;
852.0000;0.7407;0.7535;
852.3000;0.7424;0.7583;
852.6000;0.7448;0.7608;
852.9000;0.7440;0.7656;
853.2000;0.7416;0.7632;
853.5000;0.7416;0.7559;
853.8000;0.7375;0.7365;
854.1000;0.7407;0.7437;
854.4000;0.7424;0.7510;
854.7000;0.7448;0.7437;
855.0000;0.7416;0.7340;
855.3000;0.7416;0.7267;
855.6000;0.7432;0.7243;
855.9000;0.7407;0.7170;
856.2000;0.7416;0.7267;
856.5000;0.7383;0.7267;
856.8000;0.7407;0.7316;
857.1000;0.7407;0.7340;
857.4000;0.7399;0.7510;
857.7000;0.7399;0.7632;
858.0000;0.7383;0.7681;
858.3000;0.7391;0.7705;
858.6000;0.7407;0.7656;
858.9000;0.7424;0.7656;
859.2000;0.7416;0.7583;
859.5000;0.7399;0.7608;
859.8000;0.7399;0.7608;
860.1000;0.7407;0.7535;
860.4000;0.7424;0.7559;
860.7000;0.7424;0.7559;
861.0000;0.7416;0.7535;
861.3000;0.7407;0.7510;
861.6000;0.7399;0.7462;
861.9000;0.7432;0.7510;
862.2000;0.7391;0.7559;
862.5000;0.7399;0.7535;
862.8000;0.7399;0.7510;
863.1000;0.7399;0.7535;
863.4000;0.7375;0.7535;
863.7000;0.7383;0.7510;
864.0000;0.7416;0.7608;
864.3000;0.7416;0.7632;
864.6000;0.7391;0.7559;
864.9000;0.7375;0.7510;
865.2000;0.7399;0.7510;
865.5000;0.7416;0.7486;
865.8000;0.7407;0.7437;
866.1000;0.7416;0.7437;
866.4000;0.7416;0.7340;
866.7000;0.7489;0.7608;
867.0000;0.7383;0.7535;
867.3000;0.7375;0.7510;
867.6000;0.7407;0.7632;
867.9000;0.7383;0.7559;
868.2000;0.7375;0.7559;
868.5000;0.7407;0.7608;
868.8000;0.7399;0.7486;
869.1000;0.7326;0.7243;
869.4000;0.7293;0.7146;
869.7000;0.7383;0.7365;
870.0000;0.7375;0.7413;
870.3000;0.7350;0.7292;
870.6000;0.7383;0.7365;
870.9000;0.7432;0.7437;
871.2000;0.7383;0.7389;
871.5000;0.7407;0.7486;
871.8000;0.7326;0.7316;
872.1000;0.7416;0.7608;
872.4000;0.7359;0.7365;
872.7000;0.7383;0.7413;
873.0000;0.7375;0.7437;
873.3000;0.7367;0.7389;
873.6000;0.7367;0.7340;
873.9000;0.7359;0.7243;
874.2000;0.7391;0.7340;
874.5000;0.7399;0.7437;
874.8000;0.7407;0.7437;
875.1000;0.7383;0.7413;
875.4000;0.7326;0.7316;
875.7000;0.7359;0.7437;
876.0000;0.7391;0.7559;
876.3000;0.7391;0.7486;
876.6000;0.7407;0.7413;
876.9000;0.7407;0.7437;
877.2000;0.7383;0.7413;
877.5000;0.7367;0.7559;
877.8000;0.7359;0.7535;
878.1000;0.7375;0.7510;
878.4000;0.7383;0.7462;
878.7000;0.7391;0.7510;
879.0000;0.7367;0.7510;
879.3000;0.7383;0.7510;
879.6000;0.7391;0.7535;
879.9000;0.7424;0.7559;
880.2000;0.7367;0.7413;
880.5000;0.7367;0.7340;
880.8000;0.7367;0.7267;
881.1000;0.7407;0.7292;
881.4000;0.7375;0.7316;
881.7000;0.7383;0.7365;
882.0000;0.7318;0.7267;
882.3000;0.7375;0.7389;
882.6000;0.7367;0.7292;
882.9000;0.7383;0.7389;
883.2000;0.7391;0.7462;
883.5000;0.7407;0.7437;
883.8000;0.7350;0.7292;
884.1000;0.7375;0.7267;
884.4000;0.7367;0.7219;
884.7000;0.7375;0.7292;
885.0000;0.7350;0.7219;
885.3000;0.7399;0.7340;
885.6000;0.7407;0.7413;
885.9000;0.7464;0.7583;
886.2000;0.7407;0.7437;
886.5000;0.7375;0.7486;
886.8000;0.7375;0.7486;
887.1000;0.7310;0.7340;
887.4000;0.7383;0.7535;
887.7000;0.7391;0.7559;
888.0000;0.7367;0.7559;
888.3000;0.7367;0.7462;
888.6000;0.7285;0.7267;
888.9000;0.7375;0.7510;
889.2000;0.7359;0.7389;
889.5000;0.7375;0.7437;
889.8000;0.7342;0.7437;
890.1000;0.7399;0.7559;
890.4000;0.7350;0.7486;
890.7000;0.7367;0.7462;
891.0000;0.7359;0.7486;
891.3000;0.7350;0.7462;
891.6000;0.7367;0.7535;
891.9000;0.7350;0.7535;
892.2000;0.7326;0.7486;
892.5000;0.7350;0.7583;
892.8000;0.7326;0.7583;
893.1000;0.7342;0.7583;
893.4000;0.7326;0.7510;
893.7000;0.7302;0.7413;
894.0000;0.7342;0.7486;
894.3000;0.7310;0.7437;
894.6000;0.7334;0.7535;
894.9000;0.7359;0.7535;
895.2000;0.7367;0.7486;
895.5000;0.7318;0.7365;
895.8000;0.7359;0.7437;
896.1000;0.7359;0.7462;
896.4000;0.7359;0.7510;
896.7000;0.7350;0.7535;
897.0000;0.7350;0.7535;
897.3000;0.7359;0.7510;
897.6000;0.7359;0.7559;
897.9000;0.7342;0.7486;
898.2000;0.7359;0.7510;
898.5000;0.7350;0.7486;
898.8000;0.7375;0.7510;
899.1000;0.7359;0.7413;
899.4000;0.7424;0.7681;
899.7000;0.7326;0.7510;
900.0000;0.7342;0.7632;
900.3000;0.7383;0.7826;
900.6000;0.7318;0.7608;
900.9000;0.7350;0.7608;
901.2000;0.7334;0.7510;
901.5000;0.7359;0.7535;
901.8000;0.7342;0.7413;
902.1000;0.7342;0.7389;
902.4000;0.7350;0.7389;
902.7000;0.7342;0.7413;
903.0000;0.7350;0.7462;
903.3000;0.7342;0.7437;
903.6000;0.7342;0.7437;
903.9000;0.7334;0.7437;
904.2000;0.7342;0.7437;
904.5000;0.7334;0.7462;
904.8000;0.7334;0.7413;
905.1000;0.7359;0.7389;
905.4000;0.7359;0.7316;
905.7000;0.7326;0.7243;
906.0000;0.7285;0.7170;
906.3000;0.7424;0.7462;
906.6000;0.7359;0.7292;
906.9000;0.7367;0.7340;
907.2000;0.7326;0.7292;
907.5000;0.7342;0.7389;
907.8000;0.7350;0.7413;
908.1000;0.7350;0.7437;
908.4000;0.7367;0.7437;
908.7000;0.7342;0.7413;
909.0000;0.7359;0.7389;
909.3000;0.7334;0.7340;
909.6000;0.7326;0.7219;
909.9000;0.7342;0.7292;
910.2000;0.7334;0.7340;
910.5000;0.7350;0.7389;
910.8000;0.7350;0.7365;
911.1000;0.7342;0.7340;
911.4000;0.7350;0.7292;
911.7000;0.7342;0.7316;
912.0000;0.7334;0.7437;
912.3000;0.7359;0.7535;
912.6000;0.7350;0.7535;
912.9000;0.7342;0.7510;
913.2000;0.7326;0.7510;
913.5000;0.7326;0.7510;
913.8000;0.7342;0.7486;
914.1000;0.7342;0.7559;
914.4000;0.7318;0.7535;
914.7000;0.7310;0.7535;
915.0000;0.7318;0.7535;
915.3000;0.7367;0.7681;
915.6000;0.7326;0.7656;
915.9000;0.7326;0.7608;
916.2000;0.7277;0.7462;
916.5000;0.7342;0.7705;
916.8000;0.7375;0.7802;
917.1000;0.7342;0.7681;
917.4000;0.7334;0.7681;
917.7000;0.7326;0.7510;
918.0000;0.7342;0.7462;
918.3000;0.7342;0.7437;
918.6000;0.7318;0.7462;
918.9000;0.7269;0.7219;
919.2000;0.7342;0.7365;
919.5000;0.7310;0.7219;
919.8000;0.7302;0.7219;
920.1000;0.7310;0.7316;
920.4000;0.7342;0.7365;
920.7000;0.7350;0.7462;
921.0000;0.7318;0.7437;
921.3000;0.7310;0.7437;
921.6000;0.7342;0.7535;
921.9000;0.7391;0.7753;
922.2000;0.7367;0.7802;
922.5000;0.7302;0.7559;
922.8000;0.7318;0.7583;
923.1000;0.7326;0.7681;
923.4000;0.7318;0.7681;
923.7000;0.7293;0.7583;
924.0000;0.7334;0.7608;
924.3000;0.7318;0.7462;
924.6000;0.7318;0.7413;
924.9000;0.7318;0.7510;
925.2000;0.7277;0.7413;
925.5000;0.7350;0.7583;
925.8000;0.7391;0.7656;
926.1000;0.7310;0.7413;
926.4000;0.7310;0.7462;
926.7000;0.7342;0.7462;
927.0000;0.7334;0.7437;
927.3000;0.7326;0.7389;
927.6000;0.7334;0.7462;
927.9000;0.7350;0.7559;
928.2000;0.7342;0.7559;
928.5000;0.7310;0.7413;
928.8000;0.7318;0.7437;
929.1000;0.7334;0.7510;
929.4000;0.7326;0.7437;
929.7000;0.7310;0.7413;
930.0000;0.7310;0.7462;
930.3000;0.7293;0.7510;
930.6000;0.7350;0.7632;
930.9000;0.7334;0.7486;
931.2000;0.7334;0.7437;
931.5000;0.7310;0.7389;
931.8000;0.7342;0.7413;
932.1000;0.7326;0.7462;
932.4000;0.7318;0.7413;
932.7000;0.7302;0.7437;
933.0000;0.7302;0.7437;
933.3000;0.7326;0.7535;
933.6000;0.7302;0.7389;
933.9000;0.7302;0.7389;
934.2000;0.7334;0.7389;
934.5000;0.7302;0.7316;
934.8000;0.7318;0.7292;
935.1000;0.7326;0.7340;
935.4000;0.7310;0.7267;
935.7000;0.7318;0.7365;
936.0000;0.7285;0.7316;
936.3000;0.7269;0.7292;
936.6000;0.7310;0.7389;
936.9000;0.7277;0.7316;
937.2000;0.7326;0.7462;
937.5000;0.7318;0.7632;
937.8000;0.7342;0.7632;
938.1000;0.7359;0.7681;
938.4000;0.7285;0.7510;
938.7000;0.7310;0.7608;
939.0000;0.7277;0.7608;
939.3000;0.7326;0.7778;
939.6000;0.7310;0.7729;
939.9000;0.7302;0.7681;
940.2000;0.7310;0.7681;
940.5000;0.7326;0.7729;
940.8000;0.7293;0.7656;
941.1000;0.7326;0.7705;
941.4000;0.7285;0.7681;
941.7000;0.7228;0.7583;
942.0000;0.7318;0.7753;
942.3000;0.7318;0.7632;
942.6000;0.7293;0.7510;
942.9000;0.7302;0.7437;
943.2000;0.7318;0.7437;
943.5000;0.7220;0.7267;
943.8000;0.7326;0.7559;
944.1000;0.7302;0.7437;
944.4000;0.7326;0.7462;
944.7000;0.7318;0.7437;
945.0000;0.7302;0.7462;
945.3000;0.7302;0.7510;
945.6000;0.7318;0.7535;
945.9000;0.7310;0.7510;
946.2000;0.7318;0.7535;
946.5000;0.7293;0.7559;
946.8000;0.7302;0.7535;
947.1000;0.7293;0.7583;
947.4000;0.7253;0.7510;
947.7000;0.7310;0.7681;
948.0000;0.7285;0.7681;
948.3000;0.7302;0.7632;
948.6000;0.7302;0.7535;
948.9000;0.7318;0.7535;
949.2000;0.7310;0.7535;
949.5000;0.7302;0.7535;
949.8000;0.7334;0.7681;
950.1000;0.7310;0.7681;
950.4000;0.7310;0.7656;
950.7000;0.7293;0.7583;
951.0000;0.7334;0.7681;
951.3000;0.7318;0.7656;
951.6000;0.7302;0.7681;
951.9000;0.7310;0.7729;
952.2000;0.7302;0.7778;
952.5000;0.7310;0.7753;
952.8000;0.7285;0.7632;
953.1000;0.7302;0.7681;
953.4000;0.7310;0.7681;
953.7000;0.7293;0.7729;
954.0000;0.7261;0.7729;
954.3000;0.7293;0.7826;
954.6000;0.7293;0.7899;
954.9000;0.7253;0.7705;
955.2000;0.7350;0.7899;
955.5000;0.7302;0.7753;
955.8000;0.7302;0.7729;
956.1000;0.7318;0.7778;
956.4000;0.7302;0.7705;
956.7000;0.7293;0.7681;
957.0000;0.7285;0.7681;
957.3000;0.7334;0.7826;
957.6000;0.7334;0.7826;
957.9000;0.7350;0.7996;
958.2000;0.7277;0.7826;
958.5000;0.7285;0.7826;
958.8000;0.7326;0.7802;
959.1000;0.7293;0.7705;
959.4000;0.7302;0.7729;
959.7000;0.7310;0.7729;
960.0000;0.7375;0.7972;
960.3000;0.7318;0.7826;
960.6000;0.7416;0.7996;
960.9000;0.7236;0.7486;
961.2000;0.7326;0.7778;
961.5000;0.7293;0.7681;
961.8000;0.7293;0.7632;
962.1000;0.7098;0.7267;
962.4000;0.7277;0.7802;
962.7000;0.7277;0.7729;
963.0000;0.7285;0.7705;
963.3000;0.7302;0.7705;
963.6000;0.7302;0.7753;
963.9000;0.7375;0.7996;
964.2000;0.7293;0.7753;
964.5000;0.7342;0.7802;
964.8000;0.7293;0.7656;
965.1000;0.7277;0.7486;
965.4000;0.7155;0.7121;
965.7000;0.7277;0.7365;
966.0000;0.7245;0.7292;
966.3000;0.7293;0.7510;
966.6000;0.7269;0.7486;
966.9000;0.7277;0.7608;
967.2000;0.7236;0.7462;
967.5000;0.7293;0.7559;
967.8000;0.7277;0.7535;
968.1000;0.7302;0.7608;
968.4000;0.7228;0.7413;
968.7000;0.7359;0.7729;
969.0000;0.7285;0.7535;
969.3000;0.7261;0.7413;
969.6000;0.7285;0.7462;
969.9000;0.7318;0.7559;
970.2000;0.7277;0.7559;
970.5000;0.7285;0.7608;
970.8000;0.7269;0.7559;
971.1000;0.7285;0.7535;
971.4000;0.7285;0.7535;
971.7000;0.7253;0.7583;
972.0000;0.7245;0.7583;
972.3000;0.7277;0.7705;
972.6000;0.7293;0.7729;
972.9000;0.7261;0.7656;
973.2000;0.7310;0.7729;
973.5000;0.7302;0.7681;
973.8000;0.7261;0.7608;
974.1000;0.7310;0.7705;
974.4000;0.7269;0.7535;
974.7000;0.7285;0.7510;
975.0000;0.7253;0.7510;
975.3000;0.7285;0.7608;
975.6000;0.7269;0.7559;
975.9000;0.7285;0.7583;
976.2000;0.7277;0.7486;
976.5000;0.7261;0.7462;
976.8000;0.7277;0.7559;
977.1000;0.7269;0.7462;
977.4000;0.7285;0.7535;
977.7000;0.7253;0.7316;
978.0000;0.7253;0.7340;
978.3000;0.7302;0.7510;
978.6000;0.7293;0.7608;
978.9000;0.7277;0.7510;
979.2000;0.7318;0.7632;
979.5000;0.7310;0.7583;
979.8000;0.7293;0.7583;
980.1000;0.7285;0.7559;
980.4000;0.7269;0.7608;
980.7000;0.7261;0.7583;
981.0000;0.7318;0.7753;
981.3000;0.7269;0.7656;
981.6000;0.7310;0.7753;
981.9000;0.7293;0.7681;
982.2000;0.7326;0.7826;
982.5000;0.7236;0.7608;
982.8000;0.7285;0.7681;
983.1000;0.7293;0.7753;
983.4000;0.7285;0.7656;
983.7000;0.7285;0.7608;
984.0000;0.7293;0.7608;
984.3000;0.7261;0.7583;
984.6000;0.7245;0.7510;
984.9000;0.7277;0.7583;
985.2000;0.7310;0.7681;
985.5000;0.7236;0.7389;
985.8000;0.7261;0.7462;
986.1000;0.7236;0.7389;
986.4000;0.7277;0.7389;
986.7000;0.7269;0.7365;
987.0000;0.7277;0.7437;
987.3000;0.7196;0.7219;
987.6000;0.7277;0.7413;
987.9000;0.7277;0.7340;
988.2000;0.7269;0.7462;
988.5000;0.7269;0.7559;
988.8000;0.7269;0.7510;
989.1000;0.7285;0.7559;
989.4000;0.7293;0.7608;
989.7000;0.7269;0.7510;
990.0000;0.7277;0.7486;
990.3000;0.7261;0.7462;
990.6000;0.7277;0.7413;
990.9000;0.7261;0.7316;
991.2000;0.7269;0.7413;
991.5000;0.7326;0.7535;
991.8000;0.7253;0.7389;
992.1000;0.7277;0.7510;
992.4000;0.7277;0.7559;
992.7000;0.7277;0.7510;
993.0000;0.7293;0.7559;
993.3000;0.7293;0.7510;
993.6000;0.7285;0.7437;
993.9000;0.7293;0.7437;
994.2000;0.7277;0.7535;
994.5000;0.7285;0.7559;
994.8000;0.7277;0.7583;
995.1000;0.7269;0.7608;
995.4000;0.7261;0.7608;
995.7000;0.7261;0.7656;
996.0000;0.7277;0.7778;
996.3000;0.7269;0.7729;
996.6000;0.7285;0.7753;
996.9000;0.7261;0.7705;
997.2000;0.7293;0.7802;
997.5000;0.7245;0.7681;
997.8000;0.7253;0.7729;
998.1000;0.7293;0.7753;
998.4000;0.7196;0.7462;
998.7000;0.7326;0.7826;
999.0000;0.7261;0.7656;
999.3000;0.7261;0.7705;
999.6000;0.7269;0.7681;
999.9000;0.7196;0.7535;
1000.2000;0.7277;0.7583;
1000.5000;0.7269;0.7608;
1000.8000;0.7245;0.7632;
1001.1000;0.7212;0.7583;
1001.4000;0.7277;0.7729;
1001.7000;0.7269;0.7705;
1002.0000;0.7261;0.7656;
1002.3000;0.7261;0.7583;
1002.6000;0.7269;0.7583;
1002.9000;0.7253;0.7632;
1003.2000;0.7236;0.7583;
1003.5000;0.7277;0.7632;
1003.8000;0.7253;0.7608;
1004.1000;0.7236;0.7608;
1004.4000;0.7245;0.7802;
1004.7000;0.7269;0.7826;
1005.0000;0.7269;0.7778;
1005.3000;0.7269;0.7753;
1005.6000;0.7269;0.7753;
1005.9000;0.7269;0.7802;
1006.2000;0.7253;0.7778;
1006.5000;0.7261;0.7802;
1006.8000;0.7253;0.7802;
1007.1000;0.7245;0.7778;
1007.4000;0.7220;0.7826;
1007.7000;0.7212;0.7851;
1008.0000;0.7253;0.7972;
1008.3000;0.7318;0.8118;
1008.6000;0.7302;0.8118;
1008.9000;0.7269;0.7948;
1009.2000;0.7277;0.7972;
1009.5000;0.7261;0.7851;
1009.8000;0.7277;0.7802;
1010.1000;0.7269;0.7778;
1010.4000;0.7293;0.7778;
1010.7000;0.7253;0.7753;
1011.0000;0.7253;0.7729;
1011.3000;0.7293;0.7875;
1011.6000;0.7236;0.7681;
1011.9000;0.7236;0.7753;
1012.2000;0.7261;0.7826;
1012.5000;0.7196;0.7656;
1012.8000;0.7277;0.7826;
1013.1000;0.7261;0.7729;
1013.4000;0.7253;0.7705;
1013.7000;0.7261;0.7729;
1014.0000;0.7236;0.7656;
1014.3000;0.7277;0.7705;
1014.6000;0.7253;0.7559;
1014.9000;0.7277;0.7705;
1015.2000;0.7269;0.7681;
1015.5000;0.7261;0.7583;
1015.8000;0.7204;0.7559;
1016.1000;0.7245;0.7729;
1016.4000;0.7269;0.7851;
1016.7000;0.7236;0.7729;
1017.0000;0.7228;0.7705;
1017.3000;0.7261;0.7851;
1017.6000;0.7261;0.7924;
1017.9000;0.7269;0.7899;
1018.2000;0.7228;0.7826;
1018.5000;0.7253;0.7826;
1018.8000;0.7285;0.7924;
1019.1000;0.7253;0.7778;
1019.4000;0.7269;0.7802;
1019.7000;0.7245;0.7851;
1020.0000;0.7261;0.7802;
1020.3000;0.7269;0.7778;
1020.6000;0.7261;0.7753;
1020.9000;0.7253;0.7729;
1021.2000;0.7236;0.7656;
1021.5000;0.7253;0.7778;
1021.8000;0.7261;0.7802;
1022.1000;0.7245;0.7753;
1022.4000;0.7236;0.7802;
1022.7000;0.7245;0.7802;
1023.0000;0.7261;0.7899;
1023.3000;0.7269;0.7851;
1023.6000;0.7269;0.7851;
1023.9000;0.7245;0.7826;
1024.2000;0.7269;0.7729;
1024.5000;0.7245;0.7681;
1024.8000;0.7196;0.7486;
1025.1000;0.7261;0.7632;
1025.4000;0.7253;0.7583;
1025.7000;0.7261;0.7583;
1026.0000;0.7302;0.7705;
1026.3000;0.7236;0.7608;
1026.6000;0.7253;0.7608;
1026.9000;0.7228;0.7559;
1027.2000;0.7261;0.7705;
1027.5000;0.7261;0.7681;
1027.8000;0.7261;0.7729;
1028.1000;0.7236;0.7608;
1028.4000;0.7269;0.7778;
1028.7000;0.7253;0.7729;
1029.0000;0.7253;0.7802;
1029.3000;0.7261;0.7753;
1029.6000;0.7220;0.7681;
1029.9000;0.7261;0.7705;
1030.2000;0.7236;0.7632;
1030.5000;0.7245;0.7681;
1030.8000;0.7253;0.7705;
1031.1000;0.7245;0.7729;
1031.4000;0.7253;0.7802;
1031.7000;0.7236;0.7778;
1032.0000;0.7253;0.7729;
1032.3000;0.7253;0.7705;
1032.6000;0.7261;0.7778;
1032.9000;0.7253;0.7851;
1033.2000;0.7212;0.7753;
1033.5000;0.7236;0.7924;
1033.8000;0.7253;0.7899;
1034.1000;0.7245;0.7802;
1034.4000;0.7245;0.7753;
1034.7000;0.7261;0.7632;
1035.0000;0.7228;0.7632;
1035.3000;0.7236;0.7656;
1035.6000;0.7253;0.7705;
1035.9000;0.7245;0.7705;
1036.2000;0.7245;0.7778;
1036.5000;0.7236;0.7705;
1036.8000;0.7253;0.7826;
1037.1000;0.7228;0.7826;
1037.4000;0.7236;0.7851;
1037.7000;0.7277;0.7948;
1038.0000;0.7245;0.7826;
1038.3000;0.7212;0.7802;
1038.6000;0.7245;0.7778;
1038.9000;0.7245;0.7826;
1039.2000;0.7236;0.7899;
1039.5000;0.7236;0.7851;
1039.8000;0.7245;0.7826;
1040.1000;0.7236;0.7802;
1040.4000;0.7253;0.7802;
1040.7000;0.7228;0.7753;
1041.0000;0.7245;0.7875;
1041.3000;0.7228;0.7826;
1041.6000;0.7253;0.7899;
1041.9000;0.7253;0.7826;
1042.2000;0.7277;0.7826;
1042.5000;0.7236;0.7778;
1042.8000;0.7285;0.7851;
1043.1000;0.7253;0.7802;
1043.4000;0.7236;0.7778;
1043.7000;0.7253;0.7778;
1044.0000;0.7253;0.7705;
1044.3000;0.7245;0.7778;
1044.6000;0.7253;0.7826;
1044.9000;0.7253;0.7826;
1045.2000;0.7228;0.7826;
1045.5000;0.7236;0.7851;
1045.8000;0.7236;0.7753;
1046.1000;0.7220;0.7778;
1046.4000;0.7139;0.7559;
1046.7000;0.7228;0.7802;
1047.0000;0.7253;0.7899;
1047.3000;0.7245;0.7972;
1047.6000;0.7236;0.7948;
1047.9000;0.7236;0.7972;
1048.2000;0.7245;0.7996;
1048.5000;0.7236;0.7924;
1048.8000;0.7236;0.7996;
1049.1000;0.7212;0.8045;
1049.4000;0.7253;0.8215;
1049.7000;0.7228;0.8191;
1050.0000;0.7245;0.8191;
1050.3000;0.7236;0.8094;
1050.6000;0.7245;0.8045;
1050.9000;0.7220;0.8094;
1051.2000;0.7155;0.7899;
1051.5000;0.7228;0.8045;
1051.8000;0.7236;0.7996;
1052.1000;0.7220;0.7924;
1052.4000;0.7212;0.7851;
1052.7000;0.7228;0.7826;
1053.0000;0.7293;0.8021;
1053.3000;0.7245;0.7899;
1053.6000;0.7261;0.7996;
1053.9000;0.7310;0.8167;
1054.2000;0.7269;0.8118;
1054.5000;0.7245;0.8069;
1054.8000;0.7245;0.8167;
1055.1000;0.7204;0.8021;
1055.4000;0.7220;0.8021;
1055.7000;0.7236;0.7996;
1056.0000;0.7123;0.7608;
1056.3000;0.7188;0.7778;
1056.6000;0.7269;0.7924;
1056.9000;0.7236;0.7753;
1057.2000;0.7220;0.7729;
1057.5000;0.7179;0.7681;
1057.8000;0.7228;0.7802;
1058.1000;0.7220;0.7778;
1058.4000;0.7228;0.7826;
1058.7000;0.7236;0.7826;
1059.0000;0.7293;0.8021;
1059.3000;0.7253;0.7948;
1059.6000;0.7269;0.7924;
1059.9000;0.7269;0.7948;
1060.2000;0.7228;0.7826;
1060.5000;0.7228;0.7802;
1060.8000;0.7123;0.7559;
1061.1000;0.7228;0.7826;
1061.4000;0.7228;0.7802;
1061.7000;0.7155;0.7656;
1062.0000;0.7236;0.7802;
1062.3000;0.7261;0.7924;
1062.6000;0.7228;0.7826;
1062.9000;0.7236;0.7705;
1063.2000;0.7220;0.7705;
1063.5000;0.7228;0.7705;
1063.8000;0.7220;0.7753;
1064.1000;0.7236;0.7851;
1064.4000;0.7236;0.7875;
1064.7000;0.7220;0.7802;
1065.0000;0.7196;0.7851;
1065.3000;0.7220;0.7924;
1065.6000;0.7220;0.7924;
1065.9000;0.7228;0.7948;
1066.2000;0.7228;0.7972;
1066.5000;0.7220;0.7972;
1066.8000;0.7228;0.7972;
1067.1000;0.7196;0.7899;
1067.4000;0.7236;0.7948;
1067.7000;0.7228;0.7972;
1068.0000;0.7277;0.8118;
1068.3000;0.7228;0.7972;
1068.6000;0.7236;0.8021;
1068.9000;0.7269;0.8094;
1069.2000;0.7261;0.8045;
1069.5000;0.7220;0.7948;
1069.8000;0.7261;0.7948;
1070.1000;0.7220;0.7826;
1070.4000;0.7220;0.7851;
1070.7000;0.7228;0.7899;
1071.0000;0.7196;0.7826;
1071.3000;0.7236;0.7851;
1071.6000;0.7236;0.7875;
1071.9000;0.7236;0.7875;
1072.2000;0.7228;0.7851;
1072.5000;0.7228;0.7802;
1072.8000;0.7212;0.7802;
1073.1000;0.7179;0.7705;
1073.4000;0.7220;0.7778;
1073.7000;0.7212;0.7753;
1074.0000;0.7228;0.7924;
1074.3000;0.7220;0.7924;
1074.6000;0.7212;0.8021;
1074.9000;0.7253;0.8118;
1075.2000;0.7245;0.8045;
1075.5000;0.7196;0.7924;
1075.8000;0.7171;0.7875;
1076.1000;0.7245;0.7972;
1076.4000;0.7220;0.7802;
1076.7000;0.7245;0.7826;
1077.0000;0.7245;0.7753;
1077.3000;0.7212;0.7656;
1077.6000;0.7196;0.7632;
1077.9000;0.7212;0.7753;
1078.2000;0.7212;0.7729;
1078.5000;0.7204;0.7778;
1078.8000;0.7228;0.7851;
1079.1000;0.7171;0.7705;
1079.4000;0.7220;0.7802;
1079.7000;0.7228;0.7729;
1080.0000;0.7212;0.7632;
1080.3000;0.7236;0.7753;
1080.6000;0.7220;0.7802;
1080.9000;0.7220;0.7778;
1081.2000;0.7204;0.7729;
1081.5000;0.7220;0.7851;
1081.8000;0.7228;0.7826;
1082.1000;0.7212;0.7851;
1082.4000;0.7220;0.7899;
1082.7000;0.7228;0.7802;
1083.0000;0.7236;0.7875;
1083.3000;0.7147;0.7583;
1083.6000;0.7212;0.7802;
1083.9000;0.7196;0.7899;
1084.2000;0.7253;0.7924;
1084.5000;0.7220;0.7851;
1084.8000;0.7228;0.7826;
1085.1000;0.7220;0.7778;
1085.4000;0.7236;0.7851;
1085.7000;0.7245;0.7875;
1086.0000;0.7196;0.7778;
1086.3000;0.7236;0.7826;
1086.6000;0.7236;0.7802;
1086.9000;0.7204;0.7729;
1087.2000;0.7196;0.7729;
1087.5000;0.7220;0.7802;
1087.8000;0.7196;0.7753;
1088.1000;0.7228;0.7875;
1088.4000;0.7212;0.7851;
1088.7000;0.7212;0.7875;
1089.0000;0.7245;0.8069;
1089.3000;0.7188;0.8045;
1089.6000;0.7204;0.8021;
1089.9000;0.7220;0.7924;
1090.2000;0.7212;0.7851;
1090.5000;0.7212;0.7753;
1090.8000;0.7310;0.8021;
1091.1000;0.7228;0.7802;
1091.4000;0.7228;0.7826;
1091.7000;0.7228;0.7851;
1092.0000;0.7293;0.8021;
1092.3000;0.7228;0.7778;
1092.6000;0.7245;0.7851;
1092.9000;0.7220;0.7778;
1093.2000;0.7220;0.7851;
1093.5000;0.7228;0.7875;
1093.8000;0.7139;0.7608;
1094.1000;0.7228;0.7778;
1094.4000;0.7204;0.7608;
1094.7000;0.7220;0.7705;
1095.0000;0.7220;0.7753;
1095.3000;0.7212;0.7729;
1095.6000;0.7228;0.7753;
1095.9000;0.7179;0.7681;
1096.2000;0.7204;0.7681;
1096.5000;0.7220;0.7753;
1096.8000;0.7228;0.7826;
1097.1000;0.7212;0.7826;
1097.4000;0.7228;0.7826;
1097.7000;0.7220;0.7802;
1098.0000;0.7212;0.7778;
1098.3000;0.7204;0.7729;
1098.6000;0.7212;0.7705;
1098.9000;0.7204;0.7729;
1099.2000;0.7236;0.7851;
1099.5000;0.7220;0.7826;
1099.8000;0.7212;0.7753;
1100.1000;0.7228;0.7802;
1100.4000;0.7220;0.7924;
1100.7000;0.7245;0.7972;
1101.0000;0.7220;0.7851;
1101.3000;0.7220;0.7802;
1101.6000;0.7220;0.7778;
1101.9000;0.7220;0.7729;
1102.2000;0.7196;0.7656;
1102.5000;0.7253;0.7778;
1102.8000;0.7220;0.7681;
1103.1000;0.7196;0.7681;
1103.4000;0.7196;0.7656;
1103.7000;0.7196;0.7583;
1104.0000;0.7204;0.7729;
1104.3000;0.7204;0.7778;
1104.6000;0.7196;0.7851;
1104.9000;0.7204;0.7924;
1105.2000;0.7212;0.7948;
1105.5000;0.7253;0.8069;
1105.8000;0.7204;0.7996;
1106.1000;0.7204;0.7924;
1106.4000;0.7220;0.7948;
1106.7000;0.7212;0.7948;
1107.0000;0.7220;0.7948;
1107.3000;0.7204;0.7996;
1107.6000;0.7196;0.7924;
1107.9000;0.7220;0.8045;
1108.2000;0.7196;0.7996;
1108.5000;0.7220;0.8069;
1108.8000;0.7261;0.8142;
1109.1000;0.7204;0.7972;
1109.4000;0.7212;0.7996;
1109.7000;0.7236;0.7996;
1110.0000;0.7204;0.7875;
1110.3000;0.7220;0.7899;
1110.6000;0.7228;0.7924;
1110.9000;0.7212;0.7899;
1111.2000;0.7171;0.7753;
1111.5000;0.7196;0.7802;
1111.8000;0.7212;0.7826;
1112.1000;0.7236;0.7851;
1112.4000;0.7196;0.7802;
1112.7000;0.7196;0.7851;
1113.0000;0.7228;0.7924;
1113.3000;0.7188;0.7826;
1113.6000;0.7228;0.7899;
1113.9000;0.7245;0.7948;
1114.2000;0.7196;0.7851;
1114.5000;0.7171;0.7875;
1114.8000;0.7188;0.7996;
1115.1000;0.7188;0.7972;
1115.4000;0.7220;0.8021;
1115.7000;0.7204;0.7972;
1116.0000;0.7228;0.8021;
1116.3000;0.7204;0.7996;
1116.6000;0.7245;0.8045;
1116.9000;0.7196;0.7924;
1117.2000;0.7212;0.8021;
1117.5000;0.7171;0.7948;
1117.8000;0.7131;0.7875;
1118.1000;0.7204;0.7996;
1118.4000;0.7196;0.8045;
1118.7000;0.7220;0.8118;
1119.0000;0.7204;0.8118;
1119.3000;0.7220;0.8118;
1119.6000;0.7131;0.7948;
1119.9000;0.7179;0.8069;
1120.2000;0.7188;0.8094;
1120.5000;0.7212;0.8118;
1120.8000;0.7204;0.8142;
1121.1000;0.7196;0.8045;
1121.4000;0.7204;0.8021;
1121.7000;0.7269;0.8191;
1122.0000;0.7204;0.8021;
1122.3000;0.7163;0.7948;
1122.6000;0.7212;0.8021;
1122.9000;0.7204;0.8021;
1123.2000;0.7179;0.7851;
1123.5000;0.7245;0.7972;
1123.8000;0.7188;0.7875;
1124.1000;0.7188;0.7851;
1124.4000;0.7204;0.7851;
1124.7000;0.7196;0.7899;
1125.0000;0.7196;0.7924;
1125.3000;0.7188;0.7875;
1125.6000;0.7212;0.7996;
1125.9000;0.7196;0.8021;
1126.2000;0.7220;0.8021;
1126.5000;0.7212;0.8094;
1126.8000;0.7204;0.8021;
1127.1000;0.7220;0.7972;
1127.4000;0.7196;0.7948;
1127.7000;0.7188;0.7924;
1128.0000;0.7179;0.7972;
1128.3000;0.7212;0.8021;
1128.6000;0.7204;0.7996;
1128.9000;0.7204;0.7972;
1129.2000;0.7163;0.7851;
1129.5000;0.7196;0.7899;
1129.8000;0.7204;0.7875;
1130.1000;0.7212;0.7875;
1130.4000;0.7179;0.7753;
1130.7000;0.7204;0.7875;
1131.0000;0.7188;0.7851;
1131.3000;0.7188;0.7802;
1131.6000;0.7204;0.7875;
1131.9000;0.7212;0.7899;
1132.2000;0.7228;0.7972;
1132.5000;0.7188;0.7899;
1132.8000;0.7220;0.7996;
1133.1000;0.7171;0.7899;
1133.4000;0.7114;0.7778;
1133.7000;0.7188;0.7972;
1134.0000;0.7188;0.7924;
1134.3000;0.7179;0.7948;
1134.6000;0.7188;0.7972;
1134.9000;0.7188;0.7996;
1135.2000;0.7188;0.7899;
1135.5000;0.7204;0.7826;
1135.8000;0.7179;0.7778;
1136.1000;0.7188;0.7705;
1136.4000;0.7204;0.7656;
1136.7000;0.7310;0.7875;
1137.0000;0.7212;0.7681;
1137.3000;0.7228;0.7875;
1137.6000;0.7196;0.7851;
1137.9000;0.7179;0.7778;
1138.2000;0.7139;0.7583;
1138.5000;0.7196;0.7851;
1138.8000;0.7204;0.7851;
1139.1000;0.7212;0.7753;
1139.4000;0.7212;0.7753;
1139.7000;0.7204;0.7729;
1140.0000;0.7212;0.7753;
1140.3000;0.7212;0.7729;
1140.6000;0.7196;0.7729;
1140.9000;0.7179;0.7753;
1141.2000;0.7171;0.7802;
1141.5000;0.7204;0.7875;
1141.8000;0.7171;0.7802;
1142.1000;0.7204;0.7948;
1142.4000;0.7220;0.7972;
1142.7000;0.7196;0.8045;
1143.0000;0.7123;0.7729;
1143.3000;0.7212;0.7802;
1143.6000;0.7245;0.7972;
1143.9000;0.7188;0.7851;
1144.2000;0.7196;0.7851;
1144.5000;0.7163;0.7826;
1144.8000;0.7179;0.7899;
1145.1000;0.7212;0.7972;
1145.4000;0.7196;0.7875;
1145.7000;0.7220;0.7875;
1146.0000;0.7204;0.7875;
1146.3000;0.7114;0.7632;
1146.6000;0.7212;0.7972;
1146.9000;0.7179;0.8021;
1147.2000;0.7188;0.7948;
1147.5000;0.7236;0.8045;
1147.8000;0.7171;0.7924;
1148.1000;0.7155;0.7778;
1148.4000;0.7171;0.7826;
1148.7000;0.7204;0.7851;
1149.0000;0.7204;0.7778;
1149.3000;0.7171;0.7729;
1149.6000;0.7196;0.7753;
1149.9000;0.7179;0.7681;
1150.2000;0.7163;0.7729;
1150.5000;0.7188;0.7802;
1150.8000;0.7196;0.7899;
1151.1000;0.7098;0.7705;
1151.4000;0.7196;0.7948;
1151.7000;0.7196;0.7899;
1152.0000;0.7188;0.7851;
1152.3000;0.7204;0.7899;
1152.6000;0.7204;0.7875;
1152.9000;0.7163;0.7778;
1153.2000;0.7179;0.7948;
1153.5000;0.7171;0.7996;
1153.8000;0.7179;0.8021;
1154.1000;0.7188;0.8021;
1154.4000;0.7269;0.8094;
1154.7000;0.7188;0.8021;
1155.0000;0.7204;0.7948;
1155.3000;0.7220;0.7899;
1155.6000;0.7179;0.7851;
1155.9000;0.7196;0.7924;
1156.2000;0.7196;0.7972;
1156.5000;0.7212;0.7972;
1156.8000;0.7204;0.8021;
1157.1000;0.7188;0.7972;
1157.4000;0.7188;0.7924;
1157.7000;0.7188;0.7924;
1158.0000;0.7196;0.8118;
1158.3000;0.7179;0.8094;
1158.6000;0.7179;0.8045;
1158.9000;0.7204;0.8094;
1159.2000;0.7204;0.8094;
1159.5000;0.7188;0.8069;
1159.8000;0.7179;0.8021;
1160.1000;0.7204;0.7924;
1160.4000;0.7196;0.7924;
1160.7000;0.7179;0.7899;
1161.0000;0.7139;0.7899;
1161.3000;0.7188;0.7924;
1161.6000;0.7179;0.7996;
1161.9000;0.7228;0.8069;
1162.2000;0.7188;0.7972;
1162.5000;0.7196;0.7972;
1162.8000;0.7204;0.7972;
1163.1000;0.7163;0.7802;
1163.4000;0.7188;0.7802;
1163.7000;0.7188;0.7924;
1164.0000;0.7212;0.7996;
1164.3000;0.7179;0.7899;
1164.6000;0.7155;0.7875;
1164.9000;0.7228;0.8021;
1165.2000;0.7204;0.7948;
1165.5000;0.7204;0.8021;
1165.8000;0.7188;0.8118;
1166.1000;0.7171;0.8069;
1166.4000;0.7196;0.8167;
1166.7000;0.7188;0.8191;
1167.0000;0.7196;0.8167;
1167.3000;0.7188;0.8069;
1167.6000;0.7179;0.8045;
1167.9000;0.7196;0.8118;
1168.2000;0.7179;0.8069;
1168.5000;0.7188;0.8118;
1168.8000;0.7171;0.7972;
1169.1000;0.7212;0.8118;
1169.4000;0.7188;0.8021;
1169.7000;0.7179;0.7948;
1170.0000;0.7196;0.7924;
1170.3000;0.7236;0.7972;
1170.6000;0.7204;0.7948;
1170.9000;0.7171;0.7851;
1171.2000;0.7171;0.7802;
1171.5000;0.7204;0.7826;
1171.8000;0.7179;0.7875;
1172.1000;0.7179;0.7924;
1172.4000;0.7220;0.7972;
1172.7000;0.7123;0.7753;
1173.0000;0.7188;0.7972;
1173.3000;0.7188;0.7948;
1173.6000;0.7155;0.7899;
1173.9000;0.7196;0.7948;
1174.2000;0.7196;0.7899;
1174.5000;0.7204;0.7875;
1174.8000;0.7212;0.7899;
1175.1000;0.7163;0.7826;
1175.4000;0.7171;0.7826;
1175.7000;0.7171;0.7778;
1176.0000;0.7179;0.7826;
1176.3000;0.7196;0.7826;
1176.6000;0.7204;0.7802;
1176.9000;0.7123;0.7656;
1177.2000;0.7212;0.7996;
1177.5000;0.7163;0.7924;
1177.8000;0.7212;0.7972;
1178.1000;0.7171;0.7778;
1178.4000;0.7179;0.7802;
1178.7000;0.7098;0.7535;
1179.0000;0.7179;0.7778;
1179.3000;0.7204;0.7899;
1179.6000;0.7285;0.8069;
1179.9000;0.7131;0.7729;
1180.2000;0.7171;0.7778;
1180.5000;0.7179;0.7705;
1180.8000;0.7277;0.7948;
1181.1000;0.7139;0.7681;
1181.4000;0.7179;0.7778;
1181.7000;0.7188;0.7656;
1182.0000;0.7163;0.7632;
1182.3000;0.7179;0.7681;
1182.6000;0.7179;0.7802;
1182.9000;0.7163;0.7729;
1183.2000;0.7171;0.7802;
1183.5000;0.7188;0.7924;
1183.8000;0.7179;0.7851;
1184.1000;0.7196;0.7875;
1184.4000;0.7212;0.7948;
1184.7000;0.7188;0.7948;
1185.0000;0.7179;0.7948;
1185.3000;0.7171;0.7972;
1185.6000;0.7204;0.8045;
1185.9000;0.7196;0.8069;
1186.2000;0.7171;0.7996;
1186.5000;0.7171;0.7899;
1186.8000;0.7179;0.7826;
1187.1000;0.7212;0.7899;
1187.4000;0.7204;0.7899;
1187.7000;0.7196;0.7851;
1188.0000;0.7179;0.7826;
1188.3000;0.7204;0.7753;
1188.6000;0.7204;0.7778;
1188.9000;0.7188;0.7851;
1189.2000;0.7163;0.7851;
1189.5000;0.7204;0.7924;
1189.8000;0.7188;0.7948;
1190.1000;0.7171;0.8021;
1190.4000;0.7171;0.8142;
1190.7000;0.7171;0.8118;
1191.0000;0.7163;0.8191;
1191.3000;0.7196;0.8240;
1191.6000;0.7171;0.8045;
1191.9000;0.7179;0.7996;
1192.2000;0.7188;0.8045;
1192.5000;0.7196;0.8142;
1192.8000;0.7163;0.8021;
1193.1000;0.7147;0.7972;
1193.4000;0.7212;0.8167;
1193.7000;0.7179;0.8069;
1194.0000;0.7163;0.8045;
1194.3000;0.7179;0.7996;
1194.6000;0.7188;0.7972;
1194.9000;0.7179;0.7996;
1195.2000;0.7171;0.8045;
1195.5000;0.7155;0.8045;
1195.8000;0.7163;0.8069;
1196.1000;0.7204;0.8215;
1196.4000;0.7220;0.8191;
1196.7000;0.7171;0.8045;
1197.0000;0.7163;0.8069;
1197.3000;0.7196;0.8142;
1197.6000;0.7236;0.8264;
1197.9000;0.7179;0.8021;
1198.2000;0.7179;0.7996;
1198.5000;0.7228;0.8094;
1198.8000;0.7196;0.8021;
1199.1000;0.7106;0.7899;
1199.4000;0.7196;0.8215;
1199.7000;0.7155;0.8167;
1200.0000;0.7196;0.8167;
1200.3000;0.7155;0.8021;
1200.6000;0.7179;0.8069;
1200.9000;0.7212;0.8215;
1201.2000;0.7179;0.8118;
1201.5000;0.7179;0.8045;
1201.8000;0.7171;0.8094;
1202.1000;0.7188;0.8191;
1202.4000;0.7196;0.8215;
1202.7000;0.7139;0.8142;
1203.0000;0.7253;0.8385;
1203.3000;0.7188;0.8288;
1203.6000;0.7179;0.8167;
1203.9000;0.7123;0.7948;
1204.2000;0.7171;0.8021;
1204.5000;0.7196;0.7996;
1204.8000;0.7155;0.7972;
1205.1000;0.7171;0.8094;
1205.4000;0.7171;0.8045;
1205.7000;0.7188;0.8069;
1206.0000;0.7163;0.8045;
1206.3000;0.7196;0.8069;
1206.6000;0.7179;0.8069;
1206.9000;0.7188;0.8094;
1207.2000;0.7179;0.8118;
1207.5000;0.7188;0.8118;
1207.8000;0.7204;0.8142;
1208.1000;0.7171;0.8021;
1208.4000;0.7163;0.7972;
1208.7000;0.7163;0.7948;
1209.0000;0.7188;0.7924;
1209.3000;0.7188;0.7996;
1209.6000;0.7171;0.7924;
1209.9000;0.7188;0.7875;
1210.2000;0.7098;0.7778;
1210.5000;0.7171;0.7972;
1210.8000;0.7204;0.8021;
1211.1000;0.7228;0.8094;
1211.4000;0.7188;0.7996;
1211.7000;0.7163;0.7924;
1212.0000;0.7123;0.7729;
1212.3000;0.7196;0.7851;
1212.6000;0.7204;0.7972;
1212.9000;0.7196;0.7948;
1213.2000;0.7147;0.7826;
1213.5000;0.7188;0.7948;
1213.8000;0.7171;0.7924;
1214.1000;0.7188;0.7972;
1214.4000;0.7196;0.7972;
1214.7000;0.7188;0.7924;
1215.0000;0.7196;0.7924;
1215.3000;0.7188;0.7996;
1215.6000;0.7171;0.8021;
1215.9000;0.7163;0.8021;
1216.2000;0.7171;0.7996;
1216.5000;0.7155;0.7948;
1216.8000;0.7171;0.8045;
1217.1000;0.7171;0.8045;
1217.4000;0.7163;0.7996;
1217.7000;0.7171;0.7972;
1218.0000;0.7212;0.7948;
1218.3000;0.7171;0.7924;
1218.6000;0.7171;0.7996;
1218.9000;0.7179;0.7996;
1219.2000;0.7147;0.7996;
1219.5000;0.7220;0.8118;
1219.8000;0.7179;0.8118;
1220.1000;0.7171;0.8069;
1220.4000;0.7163;0.8069;
1220.7000;0.7155;0.8142;
1221.0000;0.7163;0.8021;
1221.3000;0.7147;0.8021;
1221.6000;0.7139;0.7972;
1221.9000;0.7196;0.8191;
1222.2000;0.7155;0.8094;
1222.5000;0.7188;0.8167;
1222.8000;0.7188;0.8118;
1223.1000;0.7139;0.7996;
1223.4000;0.7204;0.8191;
1223.7000;0.7310;0.8483;
1224.0000;0.7196;0.8118;
1224.3000;0.7163;0.7996;
1224.6000;0.7171;0.8045;
1224.9000;0.7179;0.8094;
1225.2000;0.7204;0.8264;
1225.5000;0.7171;0.8191;
1225.8000;0.7049;0.7899;
1226.1000;0.7196;0.8142;
1226.4000;0.7179;0.8045;
1226.7000;0.7171;0.8045;
1227.0000;0.7188;0.7996;
1227.3000;0.7147;0.7899;
1227.6000;0.7179;0.7924;
1227.9000;0.7139;0.7948;
1228.2000;0.7188;0.8045;
1228.5000;0.7179;0.7899;
1228.8000;0.7179;0.7924;
1229.1000;0.7204;0.8021;
1229.4000;0.7179;0.7996;
1229.7000;0.7155;0.7972;
1230.0000;0.7147;0.7972;
1230.3000;0.7163;0.8045;
1230.6000;0.7123;0.7948;
1230.9000;0.7163;0.7948;
1231.2000;0.7155;0.7972;
1231.5000;0.7171;0.7972;
1231.8000;0.7155;0.7875;
1232.1000;0.7204;0.8094;
1232.4000;0.7163;0.8118;
1232.7000;0.7163;0.8118;
1233.0000;0.7179;0.8215;
1233.3000;0.7188;0.8167;
1233.6000;0.7179;0.8215;
1233.9000;0.7179;0.8118;
1234.2000;0.7188;0.8118;
1234.5000;0.7188;0.8191;
1234.8000;0.7171;0.8142;
1235.1000;0.7155;0.8142;
1235.4000;0.7188;0.8215;
1235.7000;0.7163;0.8191;
1236.0000;0.7131;0.8094;
1236.3000;0.7147;0.8118;
1236.6000;0.7171;0.8094;
1236.9000;0.7171;0.8118;
1237.2000;0.7147;0.8069;
1237.5000;0.7171;0.8069;
1237.8000;0.7155;0.7972;
1238.1000;0.7179;0.7924;
1238.4000;0.7196;0.8045;
1238.7000;0.7196;0.8118;
1239.0000;0.7188;0.8094;
1239.3000;0.7155;0.8118;
1239.6000;0.7179;0.8191;
1239.9000;0.7179;0.8118;
1240.2000;0.7147;0.7972;
1240.5000;0.7171;0.7972;
1240.8000;0.7179;0.7972;
1241.1000;0.7155;0.7924;
1241.4000;0.7155;0.7851;
1241.7000;0.7163;0.7875;
1242.0000;0.7155;0.7924;
1242.3000;0.7171;0.7899;
1242.6000;0.7163;0.7899;
1242.9000;0.7171;0.7924;
1243.2000;0.7179;0.7924;
1243.5000;0.7171;0.7875;
1243.8000;0.7188;0.7875;
1244.1000;0.7188;0.7924;
1244.4000;0.7163;0.7948;
1244.7000;0.7196;0.7996;
1245.0000;0.7171;0.8021;
1245.3000;0.7163;0.7996;
1245.6000;0.7163;0.7996;
1245.9000;0.7171;0.8021;
1246.2000;0.7155;0.7948;
1246.5000;0.7163;0.7875;
1246.8000;0.7163;0.7851;
1247.1000;0.7171;0.7802;
1247.4000;0.7123;0.7681;
1247.7000;0.7228;0.7924;
1248.0000;0.7196;0.7851;
1248.3000;0.7236;0.7972;
1248.6000;0.7163;0.7826;
1248.9000;0.7163;0.7802;
1249.2000;0.7171;0.7802;
1249.5000;0.7171;0.7875;
1249.8000;0.7220;0.8021;
1250.1000;0.7155;0.7826;
1250.4000;0.7163;0.7826;
1250.7000;0.7139;0.7802;
1251.0000;0.7155;0.7802;
1251.3000;0.7139;0.7851;
1251.6000;0.7155;0.7899;
1251.9000;0.7228;0.8021;
1252.2000;0.7163;0.7826;
1252.5000;0.7155;0.7875;
1252.8000;0.7155;0.7851;
1253.1000;0.7171;0.7826;
1253.4000;0.7179;0.7802;
1253.7000;0.7139;0.7729;
1254.0000;0.7163;0.7826;
1254.3000;0.7171;0.7851;
1254.6000;0.7171;0.7899;
1254.9000;0.7131;0.7802;
1255.2000;0.7163;0.7948;
1255.5000;0.7163;0.7972;
1255.8000;0.7139;0.7948;
1256.1000;0.7179;0.8021;
1256.4000;0.7163;0.7948;
1256.7000;0.7212;0.8069;
1257.0000;0.7196;0.8045;
1257.3000;0.7171;0.7972;
1257.6000;0.7163;0.7899;
1257.9000;0.7155;0.7826;
1258.2000;0.7179;0.7948;
1258.5000;0.7196;0.7996;
1258.8000;0.7179;0.7972;
1259.1000;0.7171;0.7899;
1259.4000;0.7155;0.7899;
1259.7000;0.7163;0.7899;
1260.0000;0.7147;0.7875;
1260.3000;0.7163;0.7899;
1260.6000;0.7155;0.7899;
1260.9000;0.7179;0.8045;
1261.2000;0.7171;0.8021;
1261.5000;0.7147;0.7996;
1261.8000;0.7147;0.8021;
1262.1000;0.7131;0.8069;
1262.4000;0.7171;0.8094;
1262.7000;0.7171;0.8118;
1263.0000;0.7147;0.7972;
1263.3000;0.7147;0.8021;
1263.6000;0.7114;0.7851;
1263.9000;0.7155;0.7948;
1264.2000;0.7204;0.8045;
1264.5000;0.7204;0.8045;
1264.8000;0.7179;0.7996;
1265.1000;0.7196;0.8069;
1265.4000;0.7163;0.7972;
1265.7000;0.7155;0.7996;
1266.0000;0.7155;0.7996;
1266.3000;0.7261;0.8288;
1266.6000;0.7131;0.7996;
1266.9000;0.7155;0.7924;
1267.2000;0.7155;0.7924;
1267.5000;0.7179;0.8069;
1267.8000;0.7179;0.8045;
1268.1000;0.7163;0.7948;
1268.4000;0.7188;0.8021;
1268.7000;0.7204;0.8094;
1269.0000;0.7171;0.7972;
1269.3000;0.7253;0.8215;
1269.6000;0.7171;0.7972;
1269.9000;0.7179;0.7924;
1270.2000;0.7171;0.7924;
1270.5000;0.7163;0.7924;
1270.8000;0.7163;0.7899;
1271.1000;0.7179;0.7899;
1271.4000;0.7147;0.7851;
1271.7000;0.7114;0.7753;
1272.0000;0.7155;0.7899;
1272.3000;0.7147;0.7899;
1272.6000;0.7163;0.7972;
1272.9000;0.7163;0.7948;
1273.2000;0.7155;0.7948;
1273.5000;0.7147;0.7972;
1273.8000;0.7171;0.7996;
1274.1000;0.7147;0.7875;
1274.4000;0.7163;0.7899;
1274.7000;0.7171;0.7996;
1275.0000;0.7163;0.8045;
1275.3000;0.7163;0.8021;
1275.6000;0.7066;0.7753;
1275.9000;0.7163;0.8069;
1276.2000;0.7155;0.8069;
1276.5000;0.7147;0.8021;
1276.8000;0.7131;0.8021;
1277.1000;0.7171;0.8167;
1277.4000;0.7179;0.8191;
1277.7000;0.7171;0.8191;
1278.0000;0.7147;0.8142;
1278.3000;0.7139;0.8142;
1278.6000;0.7155;0.8167;
1278.9000;0.7163;0.8118;
1279.2000;0.7163;0.8118;
1279.5000;0.7171;0.8094;
1279.8000;0.7171;0.8167;
1280.1000;0.7163;0.8264;
1280.4000;0.7179;0.8264;
1280.7000;0.7155;0.8118;
1281.0000;0.7147;0.8094;
1281.3000;0.7179;0.8094;
1281.6000;0.7082;0.7875;
1281.9000;0.7269;0.8288;
1282.2000;0.7155;0.7924;
1282.5000;0.7155;0.7924;
1282.8000;0.7179;0.7972;
1283.1000;0.7114;0.7802;
1283.4000;0.7147;0.7875;
1283.7000;0.7147;0.7924;
1284.0000;0.7179;0.7996;
1284.3000;0.7163;0.7996;
1284.6000;0.7155;0.7924;
1284.9000;0.7155;0.7924;
1285.2000;0.7212;0.7996;
1285.5000;0.7196;0.7875;
1285.8000;0.7188;0.7875;
1286.1000;0.7171;0.7851;
1286.4000;0.7163;0.7778;
1286.7000;0.7155;0.7729;
1287.0000;0.7163;0.7802;
1287.3000;0.7155;0.7851;
1287.6000;0.7147;0.7875;
1287.9000;0.7163;0.7851;
1288.2000;0.7155;0.7851;
1288.5000;0.7098;0.7802;
1288.8000;0.7155;0.7851;
1289.1000;0.7171;0.7899;
1289.4000;0.7269;0.7996;
1289.7000;0.7171;0.7802;
1290.0000;0.7179;0.7899;
1290.3000;0.7163;0.7924;
1290.6000;0.7171;0.7875;
1290.9000;0.7163;0.7875;
1291.2000;0.7163;0.7875;
1291.5000;0.7220;0.8045;
1291.8000;0.7171;0.7948;
1292.1000;0.7147;0.7875;
1292.4000;0.7098;0.7729;
1292.7000;0.7163;0.7875;
1293.0000;0.7188;0.7875;
1293.3000;0.7188;0.7948;
1293.6000;0.7204;0.8094;
1293.9000;0.7163;0.7996;
1294.2000;0.7139;0.8021;
1294.5000;0.7171;0.8069;
1294.8000;0.7179;0.8021;
1295.1000;0.7098;0.7851;
1295.4000;0.7155;0.7924;
1295.7000;0.7123;0.7899;
1296.0000;0.7147;0.7899;
1296.3000;0.7163;0.7778;
1296.6000;0.7155;0.7802;
1296.9000;0.7098;0.7656;
1297.2000;0.7131;0.7753;
1297.5000;0.7155;0.7753;
1297.8000;0.7147;0.7802;
1298.1000;0.7155;0.7826;
1298.4000;0.7155;0.7826;
1298.7000;0.7090;0.7583;
1299.0000;0.7147;0.7778;
1299.3000;0.7163;0.7778;
1299.6000;0.7179;0.7778;
1299.9000;0.7188;0.7851;
1300.2000;0.7139;0.7778;
1300.5000;0.7179;0.7875;
1300.8000;0.7196;0.7899;
1301.1000;0.7147;0.7778;
1301.4000;0.7163;0.7753;
1301.7000;0.7163;0.7802;
1302.0000;0.7155;0.7729;
1302.3000;0.7163;0.7729;
1302.6000;0.7171;0.7851;
1302.9000;0.7155;0.7924;
1303.2000;0.7171;0.7948;
1303.5000;0.7171;0.7924;
1303.8000;0.7204;0.7948;
1304.1000;0.7123;0.7753;
1304.4000;0.7163;0.7924;
1304.7000;0.7163;0.7899;
1305.0000;0.7131;0.7851;
1305.3000;0.7171;0.7899;
1305.6000;0.7155;0.7924;
1305.9000;0.7147;0.7851;
1306.2000;0.7188;0.8021;
1306.5000;0.7139;0.7899;
1306.8000;0.7131;0.7899;
1307.1000;0.7155;0.8021;
1307.4000;0.7163;0.8094;
1307.7000;0.7155;0.7996;
1308.0000;0.7163;0.7972;
1308.3000;0.7155;0.7972;
1308.6000;0.7204;0.8069;
1308.9000;0.7155;0.7996;
1309.2000;0.7163;0.8069;
1309.5000;0.7171;0.8069;
1309.8000;0.7163;0.8069;
1310.1000;0.7171;0.8021;
1310.4000;0.7139;0.7972;
1310.7000;0.7155;0.7948;
1311.0000;0.7155;0.7924;
1311.3000;0.7171;0.8021;
1311.6000;0.7155;0.8021;
1311.9000;0.7131;0.7996;
1312.2000;0.7139;0.7972;
1312.5000;0.7139;0.7948;
1312.8000;0.7163;0.7996;
1313.1000;0.7155;0.8021;
1313.4000;0.7163;0.8094;
1313.7000;0.7147;0.8021;
1314.0000;0.7147;0.8045;
1314.3000;0.7171;0.8240;
1314.6000;0.7147;0.8191;
1314.9000;0.7163;0.8240;
1315.2000;0.7179;0.8264;
1315.5000;0.7123;0.8094;
1315.8000;0.7179;0.8312;
1316.1000;0.7188;0.8312;
1316.4000;0.7131;0.8167;
1316.7000;0.7147;0.8240;
1317.0000;0.7212;0.8434;
1317.3000;0.7163;0.8288;
1317.6000;0.7163;0.8361;
1317.9000;0.7171;0.8434;
1318.2000;0.7245;0.8628;
1318.5000;0.7163;0.8458;
1318.8000;0.7179;0.8483;
1319.1000;0.7131;0.8337;
1319.4000;0.7179;0.8507;
1319.7000;0.7228;0.8507;
1320.0000;0.7147;0.8337;
1320.3000;0.7204;0.8483;
1320.6000;0.7147;0.8385;
1320.9000;0.7106;0.8312;
1321.2000;0.7171;0.8458;
1321.5000;0.7155;0.8361;
1321.8000;0.7123;0.8264;
1322.1000;0.7139;0.8410;
1322.4000;0.7171;0.8507;
1322.7000;0.7066;0.8264;
1323.0000;0.7066;0.8215;
1323.3000;0.7155;0.8410;
1323.6000;0.7155;0.8410;
1323.9000;0.7139;0.8385;
1324.2000;0.7163;0.8410;
1324.5000;0.7163;0.8385;
1324.8000;0.7155;0.8361;
1325.1000;0.7196;0.8483;
1325.4000;0.7147;0.8312;
1325.7000;0.7163;0.8385;
1326.0000;0.7228;0.8628;
1326.3000;0.7204;0.8531;
1326.6000;0.7147;0.8337;
1326.9000;0.7147;0.8312;
1327.2000;0.7147;0.8312;
1327.5000;0.7163;0.8264;
1327.8000;0.7082;0.8118;
1328.1000;0.7123;0.8191;
1328.4000;0.7171;0.8288;
1328.7000;0.7163;0.8288;
1329.0000;0.7114;0.8191;
1329.3000;0.7155;0.8312;
1329.6000;0.7155;0.8337;
1329.9000;0.7155;0.8361;
1330.2000;0.7155;0.8337;
1330.5000;0.7163;0.8312;
1330.8000;0.7139;0.8264;
1331.1000;0.7179;0.8434;
1331.4000;0.7171;0.8458;
1331.7000;0.7147;0.8434;
1332.0000;0.7147;0.8385;
1332.3000;0.7155;0.8361;
1332.6000;0.7171;0.8385;
1332.9000;0.7163;0.8312;
1333.2000;0.7188;0.8410;
1333.5000;0.7155;0.8312;
1333.8000;0.7163;0.8434;
1334.1000;0.7163;0.8385;
1334.4000;0.7155;0.8288;
1334.7000;0.7163;0.8288;
1335.0000;0.7163;0.8385;
1335.3000;0.7171;0.8361;
1335.6000;0.7155;0.8312;
1335.9000;0.7139;0.8288;
1336.2000;0.7163;0.8337;
1336.5000;0.7163;0.8361;
1336.8000;0.7171;0.8361;
1337.1000;0.7228;0.8507;
1337.4000;0.7179;0.8458;
1337.7000;0.7179;0.8483;
1338.0000;0.7171;0.8458;
1338.3000;0.7139;0.8458;
1338.6000;0.7066;0.8215;
1338.9000;0.7155;0.8507;
1339.2000;0.7155;0.8434;
1339.5000;0.7147;0.8288;
1339.8000;0.7114;0.8240;
1340.1000;0.7196;0.8410;
1340.4000;0.7163;0.8361;
1340.7000;0.7179;0.8385;
1341.0000;0.7139;0.8288;
1341.3000;0.7245;0.8531;
1341.6000;0.7155;0.8264;
1341.9000;0.7171;0.8288;
1342.2000;0.7155;0.8264;
1342.5000;0.7155;0.8240;
1342.8000;0.7245;0.8434;
1343.1000;0.7155;0.8240;
1343.4000;0.7131;0.8240;
1343.7000;0.7131;0.8288;
1344.0000;0.7155;0.8385;
1344.3000;0.7114;0.8361;
1344.6000;0.7123;0.8385;
1344.9000;0.7196;0.8556;
1345.2000;0.7147;0.8483;
1345.5000;0.7155;0.8458;
1345.8000;0.7147;0.8434;
1346.1000;0.7139;0.8410;
1346.4000;0.7163;0.8458;
1346.7000;0.7106;0.8312;
1347.0000;0.7147;0.8410;
1347.3000;0.7139;0.8385;
1347.6000;0.7155;0.8385;
1347.9000;0.7155;0.8483;
1348.2000;0.7155;0.8483;
1348.5000;0.7139;0.8410;
1348.8000;0.7171;0.8434;
1349.1000;0.7196;0.8483;
1349.4000;0.7155;0.8337;
1349.7000;0.7147;0.8337;
1350.0000;0.7155;0.8361;
1350.3000;0.7179;0.8410;
1350.6000;0.7196;0.8458;
1350.9000;0.7179;0.8385;
1351.2000;0.7147;0.8361;
1351.5000;0.7179;0.8385;
1351.8000;0.7155;0.8337;
1352.1000;0.7139;0.8264;
1352.4000;0.7155;0.8337;
1352.7000;0.7155;0.8361;
1353.0000;0.7139;0.8458;
1353.3000;0.7147;0.8483;
1353.6000;0.7155;0.8483;
1353.9000;0.7155;0.8483;
1354.2000;0.7139;0.8434;
1354.5000;0.7155;0.8458;
1354.8000;0.7123;0.8458;
1355.1000;0.7163;0.8580;
1355.4000;0.7163;0.8531;
1355.7000;0.7123;0.8385;
1356.0000;0.7147;0.8458;
1356.3000;0.7147;0.8483;
1356.6000;0.7147;0.8458;
1356.9000;0.7163;0.8604;
1357.2000;0.7155;0.8628;
1357.5000;0.7139;0.8483;
1357.8000;0.7147;0.8531;
1358.1000;0.7188;0.8677;
1358.4000;0.7131;0.8483;
1358.7000;0.7131;0.8458;
1359.0000;0.7147;0.8458;
1359.3000;0.7155;0.8312;
1359.6000;0.7139;0.8240;
1359.9000;0.7196;0.8361;
1360.2000;0.7147;0.8337;
1360.5000;0.7155;0.8337;
1360.8000;0.7155;0.8337;
1361.1000;0.7163;0.8312;
1361.4000;0.7163;0.8385;
1361.7000;0.7155;0.8337;
1362.0000;0.7131;0.8312;
1362.3000;0.7155;0.8434;
1362.6000;0.7147;0.8434;
1362.9000;0.7171;0.8531;
1363.2000;0.7123;0.8385;
1363.5000;0.7147;0.8410;
1363.8000;0.7179;0.8434;
1364.1000;0.7139;0.8434;
1364.4000;0.7139;0.8361;
1364.7000;0.7179;0.8434;
1365.0000;0.7131;0.8337;
1365.3000;0.7139;0.8337;
1365.6000;0.7139;0.8240;
1365.9000;0.7057;0.8191;
1366.2000;0.7163;0.8434;
1366.5000;0.7139;0.8337;
1366.8000;0.7147;0.8337;
1367.1000;0.7147;0.8385;
1367.4000;0.7147;0.8361;
1367.7000;0.7139;0.8337;
1368.0000;0.7155;0.8337;
1368.3000;0.7155;0.8288;
1368.6000;0.7131;0.8337;
1368.9000;0.7155;0.8288;
1369.2000;0.7114;0.8288;
1369.5000;0.7139;0.8288;
1369.8000;0.7155;0.8288;
1370.1000;0.7155;0.8191;
1370.4000;0.7155;0.8167;
1370.7000;0.7147;0.8191;
1371.0000;0.7139;0.8167;
1371.3000;0.7155;0.8264;
1371.6000;0.7123;0.8191;
1371.9000;0.7147;0.8215;
1372.2000;0.7155;0.8264;
1372.5000;0.7139;0.8288;
1372.8000;0.7163;0.8434;
1373.1000;0.7155;0.8507;
1373.4000;0.7163;0.8483;
1373.7000;0.7139;0.8410;
1374.0000;0.7057;0.8142;
1374.3000;0.7147;0.8312;
1374.6000;0.7139;0.8215;
1374.9000;0.7179;0.8410;
1375.2000;0.7147;0.8385;
1375.5000;0.7131;0.8458;
1375.8000;0.7155;0.8434;
1376.1000;0.7147;0.8385;
1376.4000;0.7171;0.8434;
1376.7000;0.7131;0.8483;
1377.0000;0.7147;0.8507;
1377.3000;0.7123;0.8361;
1377.6000;0.7155;0.8483;
1377.9000;0.7139;0.8458;
1378.2000;0.7139;0.8458;
1378.5000;0.7139;0.8410;
1378.8000;0.7147;0.8434;
1379.1000;0.7163;0.8410;
1379.4000;0.7139;0.8264;
1379.7000;0.7155;0.8264;
1380.0000;0.7163;0.8288;
1380.3000;0.7155;0.8337;
1380.6000;0.7155;0.8483;
1380.9000;0.7163;0.8483;
1381.2000;0.7082;0.8215;
1381.5000;0.7155;0.8483;
1381.8000;0.7171;0.8458;
1382.1000;0.7123;0.8312;
1382.4000;0.7163;0.8410;
1382.7000;0.7139;0.8434;
1383.0000;0.7123;0.8434;
1383.3000;0.7163;0.8483;
1383.6000;0.7171;0.8483;
1383.9000;0.7147;0.8434;
1384.2000;0.7139;0.8434;
1384.5000;0.7139;0.8410;
1384.8000;0.7155;0.8385;
1385.1000;0.7155;0.8385;
1385.4000;0.7171;0.8410;
1385.7000;0.7123;0.8288;
1386.0000;0.7139;0.8361;
1386.3000;0.7155;0.8458;
1386.6000;0.7147;0.8385;
1386.9000;0.7188;0.8483;
1387.2000;0.7171;0.8361;
1387.5000;0.7171;0.8312;
1387.8000;0.7090;0.8094;
1388.1000;0.7155;0.8288;
1388.4000;0.7163;0.8337;
1388.7000;0.7131;0.8312;
1389.0000;0.7131;0.8312;
1389.3000;0.7066;0.8264;
1389.6000;0.7123;0.8410;
1389.9000;0.7098;0.8312;
1390.2000;0.7123;0.8434;
1390.5000;0.7123;0.8434;
1390.8000;0.7131;0.8483;
1391.1000;0.7139;0.8531;
1391.4000;0.7196;0.8556;
1391.7000;0.7147;0.8385;
1392.0000;0.7253;0.8653;
1392.3000;0.7098;0.8240;
1392.6000;0.7188;0.8434;
1392.9000;0.7090;0.8361;
1393.2000;0.7139;0.8458;
1393.5000;0.7131;0.8385;
1393.8000;0.7163;0.8458;
1394.1000;0.7139;0.8483;
1394.4000;0.7139;0.8434;
1394.7000;0.7139;0.8410;
1395.0000;0.7155;0.8458;
1395.3000;0.7155;0.8385;
1395.6000;0.7155;0.8337;
1395.9000;0.7179;0.8434;
1396.2000;0.7171;0.8483;
1396.5000;0.7139;0.8434;
1396.8000;0.7114;0.8361;
1397.1000;0.7139;0.8507;
1397.4000;0.7171;0.8653;
1397.7000;0.7131;0.8604;
1398.0000;0.7147;0.8653;
1398.3000;0.7147;0.8580;
1398.6000;0.7155;0.8531;
1398.9000;0.7155;0.8556;
1399.2000;0.7123;0.8507;
1399.5000;0.7090;0.8434;
1399.8000;0.7131;0.8507;
