time/ms;Fluo/V;P700 deltaI/I x10³;
-199.8000;0.6911;0.8361;
-199.5000;0.6895;0.8215;
-199.2000;0.6911;0.8312;
-198.9000;0.6911;0.8337;
-198.6000;0.6895;0.8312;
-198.3000;0.6862;0.8240;
-198.0000;0.6886;0.8410;
-197.7000;0.6895;0.8531;
-197.4000;0.6895;0.8604;
-197.1000;0.6903;0.8653;
-196.8000;0.6895;0.8604;
-196.5000;0.6911;0.8628;
-196.2000;0.6886;0.8556;
-195.9000;0.6903;0.8531;
-195.6000;0.6903;0.8580;
-195.3000;0.6903;0.8628;
-195.0000;0.6895;0.8628;
-194.7000;0.6903;0.8628;
-194.4000;0.6903;0.8653;
-194.1000;0.6903;0.8701;
-193.8000;0.6927;0.8774;
-193.5000;0.6886;0.8750;
-193.2000;0.6911;0.8847;
-192.9000;0.6919;0.8871;
-192.6000;0.6903;0.8847;
-192.3000;0.6919;0.8871;
-192.0000;0.6911;0.8823;
-191.7000;0.6911;0.8847;
-191.4000;0.6911;0.8871;
-191.1000;0.6895;0.8774;
-190.8000;0.6797;0.8507;
-190.5000;0.6895;0.8774;
-190.2000;0.6886;0.8677;
-189.9000;0.6911;0.8726;
-189.6000;0.6927;0.8823;
-189.3000;0.6886;0.8604;
-189.0000;0.6935;0.8726;
-188.7000;0.6927;0.8799;
-188.4000;0.6919;0.8799;
-188.1000;0.6911;0.8823;
-187.8000;0.6911;0.8847;
-187.5000;0.6919;0.8799;
-187.2000;0.6903;0.8774;
-186.9000;0.6903;0.8774;
-186.6000;0.6911;0.8677;
-186.3000;0.6952;0.8750;
-186.0000;0.6878;0.8531;
-185.7000;0.6911;0.8580;
-185.4000;0.6911;0.8580;
-185.1000;0.6903;0.8531;
-184.8000;0.6903;0.8580;
-184.5000;0.6919;0.8653;
-184.2000;0.6878;0.8628;
-183.9000;0.6903;0.8726;
-183.6000;0.6903;0.8653;
-183.3000;0.6903;0.8580;
-183.0000;0.6895;0.8604;
-182.7000;0.6911;0.8580;
-182.4000;0.6903;0.8483;
-182.1000;0.6919;0.8385;
-181.8000;0.6903;0.8385;
-181.5000;0.6878;0.8361;
-181.2000;0.6903;0.8385;
-180.9000;0.6911;0.8434;
-180.6000;0.6919;0.8434;
-180.3000;0.6919;0.8410;
-180.0000;0.6903;0.8434;
-179.7000;0.6935;0.8556;
-179.4000;0.6911;0.8458;
-179.1000;0.6903;0.8410;
-178.8000;0.6903;0.8385;
-178.5000;0.6895;0.8434;
-178.2000;0.6911;0.8556;
-177.9000;0.6911;0.8580;
-177.6000;0.6886;0.8556;
-177.3000;0.6911;0.8531;
-177.0000;0.6919;0.8580;
-176.7000;0.6813;0.8361;
-176.4000;0.6895;0.8604;
-176.1000;0.6886;0.8604;
-175.8000;0.6911;0.8677;
-175.5000;0.6895;0.8701;
-175.2000;0.6854;0.8628;
-174.9000;0.6886;0.8774;
-174.6000;0.6895;0.8701;
-174.3000;0.6927;0.8677;
-174.0000;0.6903;0.8677;
-173.7000;0.6878;0.8531;
-173.4000;0.6919;0.8628;
-173.1000;0.6927;0.8653;
-172.8000;0.6903;0.8531;
-172.5000;0.6903;0.8458;
-172.2000;0.6895;0.8385;
-171.9000;0.6968;0.8628;
-171.6000;0.6903;0.8556;
-171.3000;0.6886;0.8580;
-171.0000;0.6903;0.8604;
-170.7000;0.6927;0.8677;
-170.4000;0.6919;0.8677;
-170.1000;0.6911;0.8628;
-169.8000;0.6895;0.8604;
-169.5000;0.6895;0.8604;
-169.2000;0.6870;0.8580;
-168.9000;0.6919;0.8653;
-168.6000;0.6886;0.8604;
-168.3000;0.6903;0.8507;
-168.0000;0.6903;0.8604;
-167.7000;0.6903;0.8628;
-167.4000;0.6903;0.8531;
-167.1000;0.6911;0.8580;
-166.8000;0.6911;0.8580;
-166.5000;0.6911;0.8556;
-166.2000;0.6911;0.8580;
-165.9000;0.6911;0.8604;
-165.6000;0.6927;0.8701;
-165.3000;0.6903;0.8628;
-165.0000;0.6919;0.8653;
-164.7000;0.6886;0.8556;
-164.4000;0.6903;0.8604;
-164.1000;0.6911;0.8556;
-163.8000;0.6903;0.8580;
-163.5000;0.6903;0.8653;
-163.2000;0.6895;0.8677;
-162.9000;0.6935;0.8750;
-162.6000;0.6903;0.8604;
-162.3000;0.6911;0.8628;
-162.0000;0.6911;0.8653;
-161.7000;0.6919;0.8726;
-161.4000;0.6960;0.8969;
-161.1000;0.6886;0.8799;
-160.8000;0.6878;0.8701;
-160.5000;0.6911;0.8726;
-160.2000;0.6911;0.8726;
-159.9000;0.6911;0.8750;
-159.6000;0.6911;0.8677;
-159.3000;0.6911;0.8653;
-159.0000;0.6886;0.8677;
-158.7000;0.6878;0.8653;
-158.4000;0.6903;0.8750;
-158.1000;0.6895;0.8750;
-157.8000;0.6976;0.9017;
-157.5000;0.6903;0.8847;
-157.2000;0.6878;0.8726;
-156.9000;0.6886;0.8726;
-156.6000;0.6919;0.8799;
-156.3000;0.6903;0.8701;
-156.0000;0.6927;0.8701;
-155.7000;0.6927;0.8701;
-155.4000;0.6903;0.8750;
-155.1000;0.6943;0.9017;
-154.8000;0.6911;0.8969;
-154.5000;0.6919;0.8944;
-154.2000;0.6935;0.9042;
-153.9000;0.6903;0.8944;
-153.6000;0.6886;0.8823;
-153.3000;0.6878;0.8701;
-153.0000;0.6911;0.8823;
-152.7000;0.6911;0.8847;
-152.4000;0.6838;0.8653;
-152.1000;0.6886;0.8823;
-151.8000;0.6870;0.8774;
-151.5000;0.6903;0.8774;
-151.2000;0.6895;0.8774;
-150.9000;0.6895;0.8799;
-150.6000;0.6870;0.8774;
-150.3000;0.6895;0.8774;
-150.0000;0.6886;0.8799;
-149.7000;0.6895;0.8847;
-149.4000;0.6903;0.8847;
-149.1000;0.7017;0.9115;
-148.8000;0.6886;0.8823;
-148.5000;0.6838;0.8677;
-148.2000;0.6886;0.8823;
-147.9000;0.6895;0.8726;
-147.6000;0.6903;0.8750;
-147.3000;0.6911;0.8628;
-147.0000;0.6895;0.8653;
-146.7000;0.6911;0.8653;
-146.4000;0.6927;0.8653;
-146.1000;0.6911;0.8677;
-145.8000;0.6943;0.8701;
-145.5000;0.6870;0.8653;
-145.2000;0.6911;0.8701;
-144.9000;0.6927;0.8847;
-144.6000;0.6911;0.8799;
-144.3000;0.6911;0.8726;
-144.0000;0.6903;0.8726;
-143.7000;0.6943;0.8847;
-143.4000;0.6895;0.8774;
-143.1000;0.6992;0.8944;
-142.8000;0.6878;0.8677;
-142.5000;0.6927;0.8823;
-142.2000;0.6903;0.8750;
-141.9000;0.6895;0.8750;
-141.6000;0.6895;0.8701;
-141.3000;0.6911;0.8701;
-141.0000;0.6895;0.8701;
-140.7000;0.6895;0.8750;
-140.4000;0.6903;0.8774;
-140.1000;0.6895;0.8677;
-139.8000;0.6911;0.8653;
-139.5000;0.6903;0.8653;
-139.2000;0.6895;0.8604;
-138.9000;0.6870;0.8580;
-138.6000;0.6960;0.8750;
-138.3000;0.6862;0.8507;
-138.0000;0.6895;0.8677;
-137.7000;0.6935;0.8823;
-137.4000;0.6968;0.8871;
-137.1000;0.6903;0.8799;
-136.8000;0.6886;0.8726;
-136.5000;0.6886;0.8701;
-136.2000;0.6878;0.8628;
-135.9000;0.6903;0.8750;
-135.6000;0.6838;0.8653;
-135.3000;0.6911;0.8896;
-135.0000;0.6903;0.8920;
-134.7000;0.6903;0.8969;
-134.4000;0.6886;0.8969;
-134.1000;0.6895;0.9066;
-133.8000;0.6895;0.8993;
-133.5000;0.6911;0.8969;
-133.2000;0.6821;0.8677;
-132.9000;0.6895;0.8799;
-132.6000;0.6927;0.8823;
-132.3000;0.6895;0.8750;
-132.0000;0.6911;0.8799;
-131.7000;0.6895;0.8750;
-131.4000;0.6886;0.8677;
-131.1000;0.6895;0.8677;
-130.8000;0.6911;0.8677;
-130.5000;0.6911;0.8604;
-130.2000;0.6911;0.8628;
-129.9000;0.6846;0.8531;
-129.6000;0.6895;0.8701;
-129.3000;0.6829;0.8556;
-129.0000;0.6903;0.8701;
-128.7000;0.6911;0.8750;
-128.4000;0.6919;0.8701;
-128.1000;0.6903;0.8628;
-127.8000;0.6903;0.8677;
-127.5000;0.6911;0.8677;
-127.2000;0.6911;0.8701;
-126.9000;0.6903;0.8677;
-126.6000;0.6968;0.8750;
-126.3000;0.6919;0.8628;
-126.0000;0.6903;0.8556;
-125.7000;0.6895;0.8653;
-125.4000;0.6895;0.8677;
-125.1000;0.6903;0.8726;
-124.8000;0.6911;0.8726;
-124.5000;0.6862;0.8677;
-124.2000;0.6952;0.8871;
-123.9000;0.6895;0.8726;
-123.6000;0.6870;0.8677;
-123.3000;0.6903;0.8774;
-123.0000;0.6903;0.8726;
-122.7000;0.6886;0.8726;
-122.4000;0.6927;0.8920;
-122.1000;0.6911;0.8823;
-121.8000;0.6911;0.8799;
-121.5000;0.6903;0.8726;
-121.2000;0.6886;0.8653;
-120.9000;0.6919;0.8750;
-120.6000;0.6903;0.8774;
-120.3000;0.6895;0.8799;
-120.0000;0.6895;0.8847;
-119.7000;0.6895;0.8896;
-119.4000;0.6911;0.8823;
-119.1000;0.6960;0.8993;
-118.8000;0.6903;0.8871;
-118.5000;0.6903;0.8823;
-118.2000;0.6927;0.8847;
-117.9000;0.6903;0.8799;
-117.6000;0.6886;0.8750;
-117.3000;0.6919;0.8799;
-117.0000;0.6903;0.8774;
-116.7000;0.6919;0.8823;
-116.4000;0.6870;0.8774;
-116.1000;0.6886;0.8823;
-115.8000;0.6886;0.8774;
-115.5000;0.6903;0.8871;
-115.2000;0.6895;0.8871;
-114.9000;0.6895;0.8774;
-114.6000;0.6878;0.8847;
-114.3000;0.6886;0.8823;
-114.0000;0.6886;0.8799;
-113.7000;0.6903;0.8823;
-113.4000;0.6895;0.8847;
-113.1000;0.6927;0.8871;
-112.8000;0.6895;0.8847;
-112.5000;0.6911;0.8871;
-112.2000;0.6903;0.8896;
-111.9000;0.6903;0.8896;
-111.6000;0.6886;0.8799;
-111.3000;0.6829;0.8726;
-111.0000;0.6895;0.8896;
-110.7000;0.6895;0.8944;
-110.4000;0.6903;0.8969;
-110.1000;0.6903;0.9017;
-109.8000;0.6903;0.8944;
-109.5000;0.6903;0.8896;
-109.2000;0.6886;0.8896;
-108.9000;0.6895;0.8823;
-108.6000;0.6895;0.8750;
-108.3000;0.6895;0.8799;
-108.0000;0.6911;0.8774;
-107.7000;0.6911;0.8847;
-107.4000;0.6878;0.8774;
-107.1000;0.6919;0.8799;
-106.8000;0.6838;0.8604;
-106.5000;0.6895;0.8774;
-106.2000;0.6846;0.8653;
-105.9000;0.6903;0.8774;
-105.6000;0.6927;0.8871;
-105.3000;0.6805;0.8628;
-105.0000;0.6903;0.8871;
-104.7000;0.6895;0.8823;
-104.4000;0.6919;0.8847;
-104.1000;0.6919;0.8799;
-103.8000;0.6960;0.8823;
-103.5000;0.6903;0.8580;
-103.2000;0.6895;0.8556;
-102.9000;0.6911;0.8604;
-102.6000;0.6895;0.8604;
-102.3000;0.6927;0.8701;
-102.0000;0.6911;0.8653;
-101.7000;0.6911;0.8653;
-101.4000;0.6919;0.8726;
-101.1000;0.6903;0.8653;
-100.8000;0.6886;0.8628;
-100.5000;0.6903;0.8653;
-100.2000;0.6870;0.8556;
-99.9000;0.6911;0.8653;
-99.6000;0.6878;0.8556;
-99.3000;0.6952;0.8726;
-99.0000;0.6903;0.8628;
-98.7000;0.6895;0.8628;
-98.4000;0.6886;0.8628;
-98.1000;0.6854;0.8531;
-97.8000;0.6903;0.8628;
-97.5000;0.6895;0.8628;
-97.2000;0.6862;0.8483;
-96.9000;0.6878;0.8458;
-96.6000;0.6895;0.8531;
-96.3000;0.6903;0.8604;
-96.0000;0.6878;0.8556;
-95.7000;0.6886;0.8556;
-95.4000;0.6919;0.8604;
-95.1000;0.6911;0.8628;
-94.8000;0.6895;0.8701;
-94.5000;0.6886;0.8726;
-94.2000;0.6903;0.8774;
-93.9000;0.6895;0.8701;
-93.6000;0.6870;0.8701;
-93.3000;0.6903;0.8847;
-93.0000;0.6911;0.8823;
-92.7000;0.6943;0.8896;
-92.4000;0.6927;0.8823;
-92.1000;0.6903;0.8701;
-91.8000;0.6895;0.8580;
-91.5000;0.6895;0.8556;
-91.2000;0.6895;0.8531;
-90.9000;0.6895;0.8385;
-90.6000;0.6911;0.8385;
-90.3000;0.6911;0.8410;
-90.0000;0.6911;0.8361;
-89.7000;0.6895;0.8337;
-89.4000;0.6886;0.8410;
-89.1000;0.6911;0.8580;
-88.8000;0.6903;0.8507;
-88.5000;0.6903;0.8531;
-88.2000;0.6886;0.8507;
-87.9000;0.6935;0.8701;
-87.6000;0.6903;0.8726;
-87.3000;0.6878;0.8750;
-87.0000;0.6895;0.8750;
-86.7000;0.6903;0.8701;
-86.4000;0.6895;0.8677;
-86.1000;0.6903;0.8677;
-85.8000;0.6903;0.8677;
-85.5000;0.6886;0.8628;
-85.2000;0.6911;0.8653;
-84.9000;0.6911;0.8653;
-84.6000;0.6895;0.8556;
-84.3000;0.6911;0.8628;
-84.0000;0.6903;0.8750;
-83.7000;0.6895;0.8726;
-83.4000;0.6943;0.8774;
-83.1000;0.6911;0.8701;
-82.8000;0.6903;0.8677;
-82.5000;0.6870;0.8653;
-82.2000;0.6886;0.8653;
-81.9000;0.6886;0.8701;
-81.6000;0.6903;0.8726;
-81.3000;0.6968;0.8944;
-81.0000;0.6911;0.8701;
-80.7000;0.6911;0.8774;
-80.4000;0.6895;0.8774;
-80.1000;0.6927;0.8944;
-79.8000;0.6895;0.8750;
-79.5000;0.6903;0.8799;
-79.2000;0.6870;0.8701;
-78.9000;0.6911;0.8774;
-78.6000;0.6886;0.8799;
-78.3000;0.6903;0.8774;
-78.0000;0.6903;0.8774;
-77.7000;0.6911;0.8847;
-77.4000;0.6984;0.8993;
-77.1000;0.6903;0.8628;
-76.8000;0.6903;0.8653;
-76.5000;0.6911;0.8604;
-76.2000;0.6886;0.8580;
-75.9000;0.6895;0.8580;
-75.6000;0.6878;0.8556;
-75.3000;0.6960;0.8750;
-75.0000;0.6911;0.8677;
-74.7000;0.6903;0.8750;
-74.4000;0.6911;0.8726;
-74.1000;0.6903;0.8604;
-73.8000;0.6960;0.8701;
-73.5000;0.6911;0.8580;
-73.2000;0.6911;0.8580;
-72.9000;0.6903;0.8604;
-72.6000;0.6927;0.8726;
-72.3000;0.6935;0.8701;
-72.0000;0.6895;0.8628;
-71.7000;0.6976;0.8799;
-71.4000;0.6886;0.8556;
-71.1000;0.6911;0.8604;
-70.8000;0.6886;0.8556;
-70.5000;0.6878;0.8483;
-70.2000;0.6895;0.8531;
-69.9000;0.6895;0.8653;
-69.6000;0.6895;0.8604;
-69.3000;0.6870;0.8531;
-69.0000;0.6886;0.8653;
-68.7000;0.6903;0.8604;
-68.4000;0.6895;0.8507;
-68.1000;0.6919;0.8604;
-67.8000;0.6911;0.8580;
-67.5000;0.6911;0.8628;
-67.2000;0.6895;0.8580;
-66.9000;0.6895;0.8556;
-66.6000;0.6903;0.8580;
-66.3000;0.6927;0.8531;
-66.0000;0.6903;0.8483;
-65.7000;0.6895;0.8531;
-65.4000;0.6903;0.8507;
-65.1000;0.6903;0.8361;
-64.8000;0.6903;0.8264;
-64.5000;0.6911;0.8337;
-64.2000;0.6903;0.8361;
-63.9000;0.6911;0.8410;
-63.6000;0.6919;0.8458;
-63.3000;0.6927;0.8458;
-63.0000;0.6895;0.8507;
-62.7000;0.6903;0.8458;
-62.4000;0.6927;0.8483;
-62.1000;0.6919;0.8531;
-61.8000;0.6919;0.8531;
-61.5000;0.6919;0.8556;
-61.2000;0.6960;0.8604;
-60.9000;0.6903;0.8434;
-60.6000;0.6919;0.8507;
-60.3000;0.6911;0.8410;
-60.0000;0.6895;0.8385;
-59.7000;0.6895;0.8385;
-59.4000;0.6911;0.8385;
-59.1000;0.6895;0.8507;
-58.8000;0.6919;0.8580;
-58.5000;0.6935;0.8628;
-58.2000;0.7009;0.8774;
-57.9000;0.6911;0.8604;
-57.6000;0.6911;0.8531;
-57.3000;0.6943;0.8604;
-57.0000;0.6919;0.8483;
-56.7000;0.6911;0.8483;
-56.4000;0.6886;0.8531;
-56.1000;0.6911;0.8580;
-55.8000;0.6911;0.8628;
-55.5000;0.6903;0.8556;
-55.2000;0.6935;0.8677;
-54.9000;0.6903;0.8653;
-54.6000;0.6846;0.8458;
-54.3000;0.6895;0.8628;
-54.0000;0.6911;0.8556;
-53.7000;0.6935;0.8628;
-53.4000;0.6919;0.8580;
-53.1000;0.6911;0.8531;
-52.8000;0.6911;0.8556;
-52.5000;0.6903;0.8604;
-52.2000;0.6911;0.8653;
-51.9000;0.6911;0.8677;
-51.6000;0.6903;0.8604;
-51.3000;0.6886;0.8483;
-51.0000;0.6886;0.8410;
-50.7000;0.6968;0.8580;
-50.4000;0.6903;0.8410;
-50.1000;0.6903;0.8361;
-49.8000;0.6911;0.8434;
-49.5000;0.6895;0.8337;
-49.2000;0.6895;0.8385;
-48.9000;0.6903;0.8483;
-48.6000;0.6886;0.8458;
-48.3000;0.6911;0.8580;
-48.0000;0.6903;0.8531;
-47.7000;0.6895;0.8556;
-47.4000;0.6911;0.8677;
-47.1000;0.6903;0.8677;
-46.8000;0.6903;0.8677;
-46.5000;0.6903;0.8677;
-46.2000;0.6919;0.8677;
-45.9000;0.6911;0.8726;
-45.6000;0.6903;0.8774;
-45.3000;0.6911;0.8750;
-45.0000;0.6886;0.8653;
-44.7000;0.6878;0.8774;
-44.4000;0.6895;0.8750;
-44.1000;0.6903;0.8677;
-43.8000;0.6886;0.8653;
-43.5000;0.7000;0.8847;
-43.2000;0.6895;0.8677;
-42.9000;0.7009;0.8847;
-42.6000;0.6919;0.8653;
-42.3000;0.6927;0.8701;
-42.0000;0.6911;0.8604;
-41.7000;0.6919;0.8653;
-41.4000;0.6919;0.8677;
-41.1000;0.6903;0.8604;
-40.8000;0.6886;0.8604;
-40.5000;0.6903;0.8701;
-40.2000;0.6878;0.8604;
-39.9000;0.6895;0.8726;
-39.6000;0.6895;0.8847;
-39.3000;0.6903;0.8871;
-39.0000;0.6919;0.8823;
-38.7000;0.7000;0.8920;
-38.4000;0.6903;0.8628;
-38.1000;0.6943;0.8701;
-37.8000;0.6919;0.8701;
-37.5000;0.6911;0.8653;
-37.2000;0.6895;0.8604;
-36.9000;0.6903;0.8653;
-36.6000;0.6935;0.8726;
-36.3000;0.6919;0.8823;
-36.0000;0.6911;0.8774;
-35.7000;0.6927;0.8774;
-35.4000;0.6911;0.8726;
-35.1000;0.6976;0.8871;
-34.8000;0.6927;0.8726;
-34.5000;0.6895;0.8628;
-34.2000;0.6903;0.8580;
-33.9000;0.6911;0.8653;
-33.6000;0.6895;0.8653;
-33.3000;0.6903;0.8604;
-33.0000;0.6870;0.8556;
-32.7000;0.6911;0.8677;
-32.4000;0.6903;0.8653;
-32.1000;0.6870;0.8556;
-31.8000;0.6895;0.8701;
-31.5000;0.6895;0.8653;
-31.2000;0.6895;0.8726;
-30.9000;0.6886;0.8604;
-30.6000;0.6935;0.8604;
-30.3000;0.6919;0.8556;
-30.0000;0.6911;0.8604;
-29.7000;0.6878;0.8604;
-29.4000;0.6886;0.8580;
-29.1000;0.6911;0.8653;
-28.8000;0.6919;0.8653;
-28.5000;0.6903;0.8677;
-28.2000;0.6895;0.8677;
-27.9000;0.6895;0.8726;
-27.6000;0.6935;0.8774;
-27.3000;0.6895;0.8726;
-27.0000;0.6895;0.8604;
-26.7000;0.6903;0.8677;
-26.4000;0.6878;0.8580;
-26.1000;0.6886;0.8653;
-25.8000;0.6878;0.8677;
-25.5000;0.6903;0.8726;
-25.2000;0.6903;0.8726;
-24.9000;0.6878;0.8677;
-24.6000;0.6903;0.8847;
-24.3000;0.6878;0.8847;
-24.0000;0.6903;0.8896;
-23.7000;0.6870;0.8774;
-23.4000;0.6903;0.8701;
-23.1000;0.6903;0.8653;
-22.8000;0.6935;0.8774;
-22.5000;0.6952;0.8823;
-22.2000;0.6911;0.8750;
-21.9000;0.6903;0.8701;
-21.6000;0.6935;0.8847;
-21.3000;0.6805;0.8580;
-21.0000;0.6886;0.8653;
-20.7000;0.6943;0.8701;
-20.4000;0.6862;0.8604;
-20.1000;0.6895;0.8653;
-19.8000;0.6886;0.8628;
-19.5000;0.6935;0.8677;
-19.2000;0.6927;0.8580;
-18.9000;0.6895;0.8458;
-18.6000;0.6903;0.8531;
-18.3000;0.6895;0.8604;
-18.0000;0.6895;0.8701;
-17.7000;0.6886;0.8677;
-17.4000;0.6903;0.8677;
-17.1000;0.6935;0.8799;
-16.8000;0.6895;0.8774;
-16.5000;0.6911;0.8847;
-16.2000;0.6903;0.8823;
-15.9000;0.6911;0.8823;
-15.6000;0.6895;0.8847;
-15.3000;0.6886;0.8750;
-15.0000;0.6911;0.8701;
-14.7000;0.6911;0.8653;
-14.4000;0.6895;0.8677;
-14.1000;0.6927;0.8774;
-13.8000;0.6895;0.8871;
-13.5000;0.6895;0.8871;
-13.2000;0.6878;0.8774;
-12.9000;0.6911;0.8871;
-12.6000;0.6895;0.8799;
-12.3000;0.6927;0.8871;
-12.0000;0.6911;0.8799;
-11.7000;0.6903;0.8726;
-11.4000;0.6911;0.8750;
-11.1000;0.6895;0.8774;
-10.8000;0.6878;0.8677;
-10.5000;0.6886;0.8701;
-10.2000;0.6854;0.8750;
-9.9000;0.6911;0.8896;
-9.6000;0.6895;0.8701;
-9.3000;0.6895;0.8726;
-9.0000;0.6878;0.8653;
-8.7000;0.6862;0.8628;
-8.4000;0.6895;0.8726;
-8.1000;0.6870;0.8653;
-7.8000;0.6862;0.8677;
-7.5000;0.6903;0.8774;
-7.2000;0.6903;0.8774;
-6.9000;0.6903;0.8726;
-6.6000;0.6903;0.8726;
-6.3000;0.6886;0.8628;
-6.0000;0.6895;0.8628;
-5.7000;0.6886;0.8604;
-5.4000;0.6903;0.8701;
-5.1000;0.6960;0.8823;
-4.8000;0.6911;0.8701;
-4.5000;0.6895;0.8677;
-4.2000;0.6878;0.8580;
-3.9000;0.6911;0.8726;
-3.6000;0.6992;0.8993;
-3.3000;0.6886;0.8726;
-3.0000;0.6870;0.8677;
-2.7000;0.6870;0.8580;
-2.4000;0.6935;0.8580;
-2.1000;0.6911;0.8580;
-1.8000;0.6903;0.8580;
-1.5000;0.6927;0.8628;
-1.2000;0.6911;0.8531;
-0.9000;0.6927;0.8531;
-0.6000;0.6854;0.8361;
-0.3000;0.6886;0.8458;
0.0000;0.6886;0.8458;
0.3000;0.7326;0.8677;
0.6000;0.8116;0.9406;
0.9000;0.8710;0.9965;
1.2000;0.9190;1.0549;
1.5000;0.9621;1.1035;
1.8000;0.9915;1.1375;
2.1000;1.0151;1.1715;
2.4000;1.0305;1.1910;
2.7000;1.0501;1.2177;
3.0000;1.0631;1.2347;
3.3000;1.0696;1.2274;
3.6000;1.0867;1.2396;
3.9000;1.0965;1.2469;
4.2000;1.1103;1.2542;
4.5000;1.1168;1.2517;
4.8000;1.1282;1.2639;
5.1000;1.1339;1.2639;
5.4000;1.1429;1.2760;
5.7000;1.1518;1.2955;
6.0000;1.1567;1.2906;
6.3000;1.1640;1.2906;
6.6000;1.1705;1.3028;
6.9000;1.1803;1.2955;
7.2000;1.1860;1.2979;
7.5000;1.1925;1.2930;
7.8000;1.2063;1.2979;
8.1000;1.2080;1.2736;
8.4000;1.2137;1.2663;
8.7000;1.2202;1.2663;
9.0000;1.2275;1.2712;
9.3000;1.2373;1.2809;
9.6000;1.2365;1.2736;
9.9000;1.2454;1.2760;
10.2000;1.2544;1.2712;
10.5000;1.2593;1.2687;
10.8000;1.2633;1.2736;
11.1000;1.2723;1.2736;
11.4000;1.2772;1.2760;
11.7000;1.2877;1.2858;
12.0000;1.2902;1.2809;
12.3000;1.2934;1.2736;
12.6000;1.3048;1.2882;
12.9000;1.3032;1.2712;
13.2000;1.3097;1.2736;
13.5000;1.3114;1.2687;
13.8000;1.3179;1.2785;
14.1000;1.3244;1.2858;
14.4000;1.3276;1.2712;
14.7000;1.3317;1.2712;
15.0000;1.3358;1.2736;
15.3000;1.3390;1.2785;
15.6000;1.3447;1.2833;
15.9000;1.3480;1.2760;
16.2000;1.3545;1.2858;
16.5000;1.3561;1.2930;
16.8000;1.3618;1.3028;
17.1000;1.3643;1.2809;
17.4000;1.3691;1.2858;
17.7000;1.3683;1.2663;
18.0000;1.3732;1.2760;
18.3000;1.3765;1.2639;
18.6000;1.3830;1.2687;
18.9000;1.3854;1.2663;
19.2000;1.3919;1.2760;
19.5000;1.3936;1.2736;
19.8000;1.3944;1.2736;
20.1000;1.3985;1.2833;
20.4000;1.4009;1.2833;
20.7000;1.4050;1.2833;
21.0000;1.4050;1.2712;
21.3000;1.4082;1.2639;
21.6000;1.4082;1.2590;
21.9000;1.4155;1.2687;
22.2000;1.4180;1.2615;
22.5000;1.4172;1.2615;
22.8000;1.4196;1.2517;
23.1000;1.4229;1.2493;
23.4000;1.4261;1.2517;
23.7000;1.4261;1.2590;
24.0000;1.4286;1.2663;
24.3000;1.4310;1.2760;
24.6000;1.4326;1.2736;
24.9000;1.4359;1.2687;
25.2000;1.4367;1.2663;
25.5000;1.4392;1.2663;
25.8000;1.4392;1.2615;
26.1000;1.4432;1.2809;
26.4000;1.4432;1.2833;
26.7000;1.4530;1.3076;
27.0000;1.4465;1.3028;
27.3000;1.4481;1.3003;
27.6000;1.4497;1.2906;
27.9000;1.4505;1.2930;
28.2000;1.4514;1.2858;
28.5000;1.4587;1.2955;
28.8000;1.4554;1.2833;
29.1000;1.4562;1.2809;
29.4000;1.4579;1.2906;
29.7000;1.4603;1.2979;
30.0000;1.4611;1.2955;
30.3000;1.4628;1.2930;
30.6000;1.4644;1.2979;
30.9000;1.4660;1.2979;
31.2000;1.4660;1.3028;
31.5000;1.4685;1.3003;
31.8000;1.4685;1.2930;
32.1000;1.4766;1.3101;
32.4000;1.4717;1.3052;
32.7000;1.4709;1.2955;
33.0000;1.4701;1.2930;
33.3000;1.4742;1.3052;
33.6000;1.4790;1.3174;
33.9000;1.4750;1.3125;
34.2000;1.4758;1.3149;
34.5000;1.4782;1.3174;
34.8000;1.4782;1.3174;
35.1000;1.4790;1.3174;
35.4000;1.4790;1.3174;
35.7000;1.4815;1.3125;
36.0000;1.4815;1.3101;
36.3000;1.4823;1.3076;
36.6000;1.4815;1.3003;
36.9000;1.4823;1.3076;
37.2000;1.4847;1.3076;
37.5000;1.4856;1.3101;
37.8000;1.4807;1.2906;
38.1000;1.4847;1.3003;
38.4000;1.4937;1.3246;
38.7000;1.4847;1.2979;
39.0000;1.4872;1.2882;
39.3000;1.4921;1.2882;
39.6000;1.4945;1.2809;
39.9000;1.4969;1.2760;
40.2000;1.4888;1.2590;
40.5000;1.4921;1.2736;
40.8000;1.4937;1.2906;
41.1000;1.4953;1.2882;
41.4000;1.4880;1.2760;
41.7000;1.4945;1.2906;
42.0000;1.4937;1.2979;
42.3000;1.4961;1.3052;
42.6000;1.4978;1.3052;
42.9000;1.5035;1.3149;
43.2000;1.4961;1.2930;
43.5000;1.4969;1.2882;
43.8000;1.4969;1.2833;
44.1000;1.4986;1.2809;
44.4000;1.5002;1.2833;
44.7000;1.5067;1.3003;
45.0000;1.5010;1.2858;
45.3000;1.5010;1.2882;
45.6000;1.5010;1.2785;
45.9000;1.5026;1.2809;
46.2000;1.5018;1.2955;
46.5000;1.5026;1.3003;
46.8000;1.5035;1.2979;
47.1000;1.5026;1.2858;
47.4000;1.5035;1.2809;
47.7000;1.5051;1.2785;
48.0000;1.5026;1.2712;
48.3000;1.5051;1.2809;
48.6000;1.5043;1.2882;
48.9000;1.5059;1.2906;
49.2000;1.5051;1.2930;
49.5000;1.5059;1.2930;
49.8000;1.5083;1.2930;
50.1000;1.5083;1.3028;
50.4000;1.5083;1.3052;
50.7000;1.5100;1.3052;
51.0000;1.5083;1.3003;
51.3000;1.5108;1.2979;
51.6000;1.5075;1.2858;
51.9000;1.5100;1.2955;
52.2000;1.5092;1.2930;
52.5000;1.5100;1.2906;
52.8000;1.5092;1.2785;
53.1000;1.5092;1.2736;
53.4000;1.5100;1.2566;
53.7000;1.5124;1.2566;
54.0000;1.5116;1.2517;
54.3000;1.5116;1.2493;
54.6000;1.5051;1.2299;
54.9000;1.5149;1.2590;
55.2000;1.5157;1.2639;
55.5000;1.5157;1.2615;
55.8000;1.5140;1.2639;
56.1000;1.5149;1.2615;
56.4000;1.5157;1.2639;
56.7000;1.5124;1.2517;
57.0000;1.5140;1.2615;
57.3000;1.5149;1.2590;
57.6000;1.5132;1.2590;
57.9000;1.5157;1.2615;
58.2000;1.5165;1.2615;
58.5000;1.5173;1.2663;
58.8000;1.5230;1.2687;
59.1000;1.5165;1.2566;
59.4000;1.5165;1.2542;
59.7000;1.5173;1.2493;
60.0000;1.5173;1.2542;
60.3000;1.5197;1.2517;
60.6000;1.5165;1.2517;
60.9000;1.5173;1.2566;
61.2000;1.5206;1.2615;
61.5000;1.5173;1.2590;
61.8000;1.5206;1.2639;
62.1000;1.5189;1.2590;
62.4000;1.5173;1.2590;
62.7000;1.5181;1.2639;
63.0000;1.5206;1.2687;
63.3000;1.5206;1.2663;
63.6000;1.5197;1.2590;
63.9000;1.5214;1.2663;
64.2000;1.5222;1.2736;
64.5000;1.5222;1.2687;
64.8000;1.5222;1.2858;
65.1000;1.5222;1.2809;
65.4000;1.5230;1.2760;
65.7000;1.5303;1.2955;
66.0000;1.5238;1.2785;
66.3000;1.5222;1.2785;
66.6000;1.5246;1.2833;
66.9000;1.5230;1.2760;
67.2000;1.5238;1.2809;
67.5000;1.5222;1.2712;
67.8000;1.5238;1.2736;
68.1000;1.5246;1.2712;
68.4000;1.5124;1.2420;
68.7000;1.5230;1.2639;
69.0000;1.5246;1.2566;
69.3000;1.5246;1.2493;
69.6000;1.5230;1.2396;
69.9000;1.5238;1.2517;
70.2000;1.5246;1.2566;
70.5000;1.5295;1.2639;
70.8000;1.5271;1.2517;
71.1000;1.5254;1.2493;
71.4000;1.5254;1.2493;
71.7000;1.5271;1.2469;
72.0000;1.5254;1.2347;
72.3000;1.5246;1.2371;
72.6000;1.5271;1.2420;
72.9000;1.5271;1.2371;
73.2000;1.5393;1.2736;
73.5000;1.5311;1.2566;
73.8000;1.5263;1.2444;
74.1000;1.5246;1.2517;
74.4000;1.5287;1.2590;
74.7000;1.5328;1.2639;
75.0000;1.5271;1.2517;
75.3000;1.5295;1.2663;
75.6000;1.5271;1.2639;
75.9000;1.5287;1.2615;
76.2000;1.5271;1.2493;
76.5000;1.5271;1.2493;
76.8000;1.5271;1.2444;
77.1000;1.5295;1.2444;
77.4000;1.5279;1.2444;
77.7000;1.5328;1.2566;
78.0000;1.5295;1.2517;
78.3000;1.5303;1.2566;
78.6000;1.5303;1.2469;
78.9000;1.5295;1.2566;
79.2000;1.5254;1.2542;
79.5000;1.5295;1.2687;
79.8000;1.5311;1.2663;
80.1000;1.5311;1.2736;
80.4000;1.5319;1.2687;
80.7000;1.5311;1.2615;
81.0000;1.5311;1.2615;
81.3000;1.5336;1.2566;
81.6000;1.5311;1.2517;
81.9000;1.5328;1.2566;
82.2000;1.5319;1.2469;
82.5000;1.5311;1.2517;
82.8000;1.5319;1.2493;
83.1000;1.5319;1.2444;
83.4000;1.5360;1.2566;
83.7000;1.5319;1.2517;
84.0000;1.5319;1.2517;
84.3000;1.5311;1.2517;
84.6000;1.5319;1.2493;
84.9000;1.5344;1.2542;
85.2000;1.5271;1.2347;
85.5000;1.5336;1.2493;
85.8000;1.5336;1.2542;
86.1000;1.5368;1.2517;
86.4000;1.5336;1.2469;
86.7000;1.5336;1.2517;
87.0000;1.5352;1.2590;
87.3000;1.5352;1.2590;
87.6000;1.5344;1.2517;
87.9000;1.5319;1.2493;
88.2000;1.5360;1.2566;
88.5000;1.5344;1.2517;
88.8000;1.5303;1.2469;
89.1000;1.5336;1.2615;
89.4000;1.5433;1.2809;
89.7000;1.5254;1.2420;
90.0000;1.5376;1.2736;
90.3000;1.5336;1.2615;
90.6000;1.5376;1.2687;
90.9000;1.5360;1.2663;
91.2000;1.5344;1.2590;
91.5000;1.5336;1.2444;
91.8000;1.5344;1.2444;
92.1000;1.5352;1.2444;
92.4000;1.5344;1.2371;
92.7000;1.5376;1.2396;
93.0000;1.5344;1.2274;
93.3000;1.5376;1.2323;
93.6000;1.5360;1.2347;
93.9000;1.5360;1.2371;
94.2000;1.5328;1.2371;
94.5000;1.5360;1.2420;
94.8000;1.5368;1.2517;
95.1000;1.5385;1.2566;
95.4000;1.5376;1.2615;
95.7000;1.5352;1.2469;
96.0000;1.5385;1.2493;
96.3000;1.5376;1.2469;
96.6000;1.5401;1.2420;
96.9000;1.5385;1.2371;
97.2000;1.5385;1.2444;
97.5000;1.5360;1.2420;
97.8000;1.5368;1.2323;
98.1000;1.5385;1.2396;
98.4000;1.5393;1.2371;
98.7000;1.5393;1.2396;
99.0000;1.5336;1.2323;
99.3000;1.5376;1.2444;
99.6000;1.5368;1.2444;
99.9000;1.5393;1.2493;
100.2000;1.5507;1.2687;
100.5000;1.5368;1.2299;
100.8000;1.5376;1.2347;
101.1000;1.5401;1.2347;
101.4000;1.5385;1.2323;
101.7000;1.5393;1.2347;
102.0000;1.5368;1.2347;
102.3000;1.5336;1.2201;
102.6000;1.5360;1.2250;
102.9000;1.5393;1.2274;
103.2000;1.5368;1.2226;
103.5000;1.5385;1.2226;
103.8000;1.5376;1.2177;
104.1000;1.5393;1.2153;
104.4000;1.5442;1.2347;
104.7000;1.5409;1.2347;
105.0000;1.5393;1.2396;
105.3000;1.5401;1.2347;
105.6000;1.5401;1.2323;
105.9000;1.5376;1.2347;
106.2000;1.5311;1.2177;
106.5000;1.5417;1.2420;
106.8000;1.5385;1.2299;
107.1000;1.5401;1.2420;
107.4000;1.5393;1.2323;
107.7000;1.5376;1.2323;
108.0000;1.5466;1.2493;
108.3000;1.5385;1.2299;
108.6000;1.5409;1.2347;
108.9000;1.5417;1.2299;
109.2000;1.5450;1.2299;
109.5000;1.5401;1.2177;
109.8000;1.5417;1.2226;
110.1000;1.5433;1.2226;
110.4000;1.5515;1.2420;
110.7000;1.5385;1.2104;
111.0000;1.5368;1.2080;
111.3000;1.5490;1.2371;
111.6000;1.5433;1.2226;
111.9000;1.5401;1.2104;
112.2000;1.5474;1.2299;
112.5000;1.5425;1.2153;
112.8000;1.5393;1.2177;
113.1000;1.5401;1.2153;
113.4000;1.5401;1.2201;
113.7000;1.5401;1.2153;
114.0000;1.5531;1.2542;
114.3000;1.5433;1.2226;
114.6000;1.5433;1.2226;
114.9000;1.5433;1.2128;
115.2000;1.5442;1.2055;
115.5000;1.5425;1.2055;
115.8000;1.5450;1.2128;
116.1000;1.5450;1.2201;
116.4000;1.5433;1.2274;
116.7000;1.5442;1.2371;
117.0000;1.5442;1.2469;
117.3000;1.5433;1.2371;
117.6000;1.5442;1.2371;
117.9000;1.5433;1.2371;
118.2000;1.5417;1.2347;
118.5000;1.5417;1.2299;
118.8000;1.5442;1.2396;
119.1000;1.5433;1.2299;
119.4000;1.5409;1.2274;
119.7000;1.5417;1.2396;
120.0000;1.5442;1.2517;
120.3000;1.5442;1.2493;
120.6000;1.5442;1.2493;
120.9000;1.5433;1.2371;
121.2000;1.5442;1.2444;
121.5000;1.5433;1.2420;
121.8000;1.5433;1.2469;
122.1000;1.5425;1.2420;
122.4000;1.5442;1.2371;
122.7000;1.5417;1.2347;
123.0000;1.5499;1.2542;
123.3000;1.5417;1.2371;
123.6000;1.5417;1.2347;
123.9000;1.5442;1.2396;
124.2000;1.5433;1.2371;
124.5000;1.5425;1.2469;
124.8000;1.5417;1.2444;
125.1000;1.5433;1.2542;
125.4000;1.5450;1.2493;
125.7000;1.5433;1.2444;
126.0000;1.5450;1.2493;
126.3000;1.5466;1.2590;
126.6000;1.5368;1.2347;
126.9000;1.5433;1.2493;
127.2000;1.5450;1.2566;
127.5000;1.5490;1.2639;
127.8000;1.5499;1.2542;
128.1000;1.5417;1.2299;
128.4000;1.5442;1.2347;
128.7000;1.5450;1.2347;
129.0000;1.5466;1.2323;
129.3000;1.5433;1.2323;
129.6000;1.5417;1.2371;
129.9000;1.5466;1.2542;
130.2000;1.5442;1.2493;
130.5000;1.5458;1.2517;
130.8000;1.5433;1.2444;
131.1000;1.5409;1.2250;
131.4000;1.5417;1.2299;
131.7000;1.5450;1.2444;
132.0000;1.5442;1.2274;
132.3000;1.5458;1.2299;
132.6000;1.5458;1.2299;
132.9000;1.5458;1.2299;
133.2000;1.5629;1.2639;
133.5000;1.5450;1.2274;
133.8000;1.5490;1.2347;
134.1000;1.5458;1.2250;
134.4000;1.5344;1.2007;
134.7000;1.5450;1.2323;
135.0000;1.5482;1.2371;
135.3000;1.5564;1.2566;
135.6000;1.5450;1.2274;
135.9000;1.5450;1.2347;
136.2000;1.5458;1.2250;
136.5000;1.5466;1.2177;
136.8000;1.5474;1.2153;
137.1000;1.5466;1.2177;
137.4000;1.5474;1.2177;
137.7000;1.5507;1.2226;
138.0000;1.5482;1.2226;
138.3000;1.5474;1.2226;
138.6000;1.5466;1.2226;
138.9000;1.5466;1.2250;
139.2000;1.5458;1.2177;
139.5000;1.5450;1.2250;
139.8000;1.5466;1.2299;
140.1000;1.5466;1.2299;
140.4000;1.5474;1.2250;
140.7000;1.5458;1.2128;
141.0000;1.5474;1.2177;
141.3000;1.5433;1.2080;
141.6000;1.5442;1.2080;
141.9000;1.5466;1.2128;
142.2000;1.5466;1.2104;
142.5000;1.5433;1.2104;
142.8000;1.5474;1.2128;
143.1000;1.5474;1.2080;
143.4000;1.5474;1.2080;
143.7000;1.5474;1.2201;
144.0000;1.5466;1.2128;
144.3000;1.5482;1.2153;
144.6000;1.5507;1.2299;
144.9000;1.5474;1.2153;
145.2000;1.5442;1.2128;
145.5000;1.5466;1.2299;
145.8000;1.5458;1.2201;
146.1000;1.5466;1.2226;
146.4000;1.5466;1.2250;
146.7000;1.5474;1.2226;
147.0000;1.5490;1.2347;
147.3000;1.5458;1.2323;
147.6000;1.5425;1.2201;
147.9000;1.5466;1.2274;
148.2000;1.5482;1.2323;
148.5000;1.5499;1.2323;
148.8000;1.5482;1.2396;
149.1000;1.5466;1.2371;
149.4000;1.5515;1.2493;
149.7000;1.5393;1.2128;
150.0000;1.5417;1.2104;
150.3000;1.5588;1.2493;
150.6000;1.5482;1.2299;
150.9000;1.5482;1.2226;
151.2000;1.5482;1.2201;
151.5000;1.5490;1.2201;
151.8000;1.5458;1.2153;
152.1000;1.5482;1.2250;
152.4000;1.5482;1.2250;
152.7000;1.5490;1.2274;
153.0000;1.5490;1.2250;
153.3000;1.5490;1.2323;
153.6000;1.5474;1.2250;
153.9000;1.5474;1.2250;
154.2000;1.5531;1.2347;
154.5000;1.5482;1.2250;
154.8000;1.5499;1.2201;
155.1000;1.5417;1.2128;
155.4000;1.5482;1.2226;
155.7000;1.5482;1.2226;
156.0000;1.5556;1.2396;
156.3000;1.5490;1.2250;
156.6000;1.5482;1.2201;
156.9000;1.5482;1.2201;
157.2000;1.5490;1.2299;
157.5000;1.5539;1.2420;
157.8000;1.5474;1.2250;
158.1000;1.5490;1.2274;
158.4000;1.5490;1.2250;
158.7000;1.5474;1.2177;
159.0000;1.5474;1.2201;
159.3000;1.5490;1.2274;
159.6000;1.5482;1.2080;
159.9000;1.5482;1.2031;
160.2000;1.5458;1.2055;
160.5000;1.5458;1.2007;
160.8000;1.5490;1.2104;
161.1000;1.5482;1.2104;
161.4000;1.5490;1.2055;
161.7000;1.5490;1.2007;
162.0000;1.5482;1.2031;
162.3000;1.5490;1.2055;
162.6000;1.5490;1.2153;
162.9000;1.5482;1.2274;
163.2000;1.5490;1.2371;
163.5000;1.5482;1.2299;
163.8000;1.5482;1.2177;
164.1000;1.5474;1.2201;
164.4000;1.5499;1.2177;
164.7000;1.5482;1.2080;
165.0000;1.5490;1.2031;
165.3000;1.5490;1.2031;
165.6000;1.5490;1.2031;
165.9000;1.5490;1.1983;
166.2000;1.5482;1.1958;
166.5000;1.5490;1.1983;
166.8000;1.5588;1.2250;
167.1000;1.5499;1.2007;
167.4000;1.5490;1.1958;
167.7000;1.5507;1.2128;
168.0000;1.5490;1.2007;
168.3000;1.5482;1.1983;
168.6000;1.5417;1.1861;
168.9000;1.5490;1.1958;
169.2000;1.5499;1.1983;
169.5000;1.5482;1.2104;
169.8000;1.5499;1.2055;
170.1000;1.5515;1.2153;
170.4000;1.5490;1.2153;
170.7000;1.5507;1.2274;
171.0000;1.5507;1.2177;
171.3000;1.5580;1.2396;
171.6000;1.5507;1.2128;
171.9000;1.5450;1.1983;
172.2000;1.5499;1.2104;
172.5000;1.5523;1.2323;
172.8000;1.5409;1.2055;
173.1000;1.5490;1.2274;
173.4000;1.5474;1.2323;
173.7000;1.5474;1.2274;
174.0000;1.5499;1.2347;
174.3000;1.5490;1.2396;
174.6000;1.5490;1.2371;
174.9000;1.5499;1.2444;
175.2000;1.5474;1.2347;
175.5000;1.5490;1.2323;
175.8000;1.5393;1.2104;
176.1000;1.5523;1.2347;
176.4000;1.5499;1.2177;
176.7000;1.5417;1.1910;
177.0000;1.5564;1.2104;
177.3000;1.5499;1.1861;
177.6000;1.5490;1.1934;
177.9000;1.5564;1.2055;
178.2000;1.5490;1.1934;
178.5000;1.5499;1.2080;
178.8000;1.5515;1.2128;
179.1000;1.5474;1.2128;
179.4000;1.5499;1.2226;
179.7000;1.5499;1.2201;
180.0000;1.5499;1.2226;
180.3000;1.5507;1.2226;
180.6000;1.5482;1.2177;
180.9000;1.5490;1.2274;
181.2000;1.5499;1.2201;
181.5000;1.5539;1.2250;
181.8000;1.5482;1.2080;
182.1000;1.5490;1.2055;
182.4000;1.5499;1.2055;
182.7000;1.5499;1.2055;
183.0000;1.5507;1.2031;
183.3000;1.5490;1.1958;
183.6000;1.5474;1.1885;
183.9000;1.5507;1.1983;
184.2000;1.5466;1.1885;
184.5000;1.5490;1.1983;
184.8000;1.5482;1.1983;
185.1000;1.5499;1.2055;
185.4000;1.5515;1.2080;
185.7000;1.5499;1.2007;
186.0000;1.5490;1.1934;
186.3000;1.5499;1.1885;
186.6000;1.5466;1.1788;
186.9000;1.5490;1.1812;
187.2000;1.5482;1.1837;
187.5000;1.5499;1.1934;
187.8000;1.5531;1.2104;
188.1000;1.5507;1.2031;
188.4000;1.5507;1.2055;
188.7000;1.5507;1.2128;
189.0000;1.5539;1.2226;
189.3000;1.5499;1.2128;
189.6000;1.5637;1.2469;
189.9000;1.5507;1.2226;
190.2000;1.5507;1.2299;
190.5000;1.5499;1.2274;
190.8000;1.5499;1.2371;
191.1000;1.5482;1.2420;
191.4000;1.5499;1.2396;
191.7000;1.5499;1.2396;
192.0000;1.5490;1.2274;
192.3000;1.5490;1.2177;
192.6000;1.5499;1.2080;
192.9000;1.5515;1.2104;
193.2000;1.5490;1.2007;
193.5000;1.5499;1.2007;
193.8000;1.5499;1.2055;
194.1000;1.5507;1.2031;
194.4000;1.5621;1.2347;
194.7000;1.5580;1.2274;
195.0000;1.5499;1.2153;
195.3000;1.5474;1.2128;
195.6000;1.5490;1.2080;
195.9000;1.5490;1.2128;
196.2000;1.5499;1.2128;
196.5000;1.5515;1.2153;
196.8000;1.5523;1.2226;
197.1000;1.5490;1.2153;
197.4000;1.5499;1.2128;
197.7000;1.5466;1.2031;
198.0000;1.5515;1.2177;
198.3000;1.5507;1.2104;
198.6000;1.5490;1.2055;
198.9000;1.5499;1.2080;
199.2000;1.5507;1.2274;
199.5000;1.5507;1.2323;
199.8000;1.5515;1.2299;
200.1000;1.5539;1.2299;
200.4000;1.5507;1.2201;
200.7000;1.5531;1.2299;
201.0000;1.5490;1.2153;
201.3000;1.5499;1.2250;
201.6000;1.5507;1.2274;
201.9000;1.5507;1.2250;
202.2000;1.5433;1.2055;
202.5000;1.5539;1.2396;
202.8000;1.5523;1.2274;
203.1000;1.5507;1.2153;
203.4000;1.5425;1.1983;
203.7000;1.5490;1.2128;
204.0000;1.5490;1.2104;
204.3000;1.5507;1.2055;
204.6000;1.5507;1.2080;
204.9000;1.5499;1.2080;
205.2000;1.5385;1.1740;
205.5000;1.5629;1.2274;
205.8000;1.5490;1.1885;
206.1000;1.5507;1.1958;
206.4000;1.5515;1.1983;
206.7000;1.5523;1.2080;
207.0000;1.5523;1.2177;
207.3000;1.5507;1.2177;
207.6000;1.5523;1.2177;
207.9000;1.5490;1.2128;
208.2000;1.5442;1.1958;
208.5000;1.5531;1.2201;
208.8000;1.5507;1.2250;
209.1000;1.5507;1.2299;
209.4000;1.5539;1.2371;
209.7000;1.5539;1.2420;
210.0000;1.5523;1.2371;
210.3000;1.5499;1.2371;
210.6000;1.5515;1.2323;
210.9000;1.5515;1.2323;
211.2000;1.5515;1.2323;
211.5000;1.5499;1.2250;
211.8000;1.5531;1.2371;
212.1000;1.5490;1.2299;
212.4000;1.5507;1.2226;
212.7000;1.5490;1.2250;
213.0000;1.5499;1.2177;
213.3000;1.5507;1.2177;
213.6000;1.5507;1.2104;
213.9000;1.5507;1.2177;
214.2000;1.5499;1.2153;
214.5000;1.5523;1.2250;
214.8000;1.5515;1.2201;
215.1000;1.5515;1.2128;
215.4000;1.5474;1.2031;
215.7000;1.5507;1.1983;
216.0000;1.5515;1.2007;
216.3000;1.5523;1.2031;
216.6000;1.5507;1.1983;
216.9000;1.5523;1.2153;
217.2000;1.5499;1.2104;
217.5000;1.5507;1.2128;
217.8000;1.5499;1.2177;
218.1000;1.5490;1.2153;
218.4000;1.5523;1.2153;
218.7000;1.5515;1.2201;
219.0000;1.5490;1.2153;
219.3000;1.5507;1.2250;
219.6000;1.5507;1.2226;
219.9000;1.5499;1.2177;
220.2000;1.5507;1.2201;
220.5000;1.5507;1.2347;
220.8000;1.5507;1.2274;
221.1000;1.5458;1.2177;
221.4000;1.5490;1.2226;
221.7000;1.5499;1.2177;
222.0000;1.5515;1.2201;
222.3000;1.5515;1.2153;
222.6000;1.5531;1.2323;
222.9000;1.5401;1.2080;
223.2000;1.5490;1.2226;
223.5000;1.5482;1.2299;
223.8000;1.5507;1.2371;
224.1000;1.5490;1.2274;
224.4000;1.5490;1.2226;
224.7000;1.5515;1.2201;
225.0000;1.5515;1.2104;
225.3000;1.5507;1.2153;
225.6000;1.5499;1.2177;
225.9000;1.5482;1.2128;
226.2000;1.5539;1.2323;
226.5000;1.5466;1.2104;
226.8000;1.5490;1.2055;
227.1000;1.5507;1.2153;
227.4000;1.5539;1.2226;
227.7000;1.5425;1.1934;
228.0000;1.5499;1.2201;
228.3000;1.5499;1.2177;
228.6000;1.5507;1.2250;
228.9000;1.5482;1.2201;
229.2000;1.5580;1.2323;
229.5000;1.5523;1.2299;
229.8000;1.5499;1.2201;
230.1000;1.5531;1.2177;
230.4000;1.5556;1.2274;
230.7000;1.5523;1.2201;
231.0000;1.5499;1.2153;
231.3000;1.5515;1.2153;
231.6000;1.5499;1.2177;
231.9000;1.5499;1.2153;
232.2000;1.5523;1.2226;
232.5000;1.5507;1.2128;
232.8000;1.5490;1.2104;
233.1000;1.5499;1.2080;
233.4000;1.5515;1.2080;
233.7000;1.5515;1.2177;
234.0000;1.5515;1.2153;
234.3000;1.5490;1.2080;
234.6000;1.5474;1.1910;
234.9000;1.5523;1.2153;
235.2000;1.5507;1.2201;
235.5000;1.5490;1.2250;
235.8000;1.5539;1.2299;
236.1000;1.5499;1.2080;
236.4000;1.5515;1.2177;
236.7000;1.5490;1.2153;
237.0000;1.5482;1.2226;
237.3000;1.5531;1.2371;
237.6000;1.5515;1.2250;
237.9000;1.5499;1.2274;
238.2000;1.5507;1.2299;
238.5000;1.5531;1.2396;
238.8000;1.5499;1.2201;
239.1000;1.5515;1.2177;
239.4000;1.5507;1.2201;
239.7000;1.5523;1.2226;
240.0000;1.5515;1.2274;
240.3000;1.5507;1.2347;
240.6000;1.5515;1.2396;
240.9000;1.5523;1.2347;
241.2000;1.5482;1.2226;
241.5000;1.5515;1.2226;
241.8000;1.5523;1.2299;
242.1000;1.5507;1.2299;
242.4000;1.5515;1.2250;
242.7000;1.5539;1.2396;
243.0000;1.5507;1.2274;
243.3000;1.5458;1.2201;
243.6000;1.5466;1.2274;
243.9000;1.5531;1.2469;
244.2000;1.5556;1.2590;
244.5000;1.5515;1.2493;
244.8000;1.5450;1.2274;
245.1000;1.5490;1.2371;
245.4000;1.5531;1.2517;
245.7000;1.5490;1.2420;
246.0000;1.5482;1.2274;
246.3000;1.5515;1.2323;
246.6000;1.5523;1.2347;
246.9000;1.5547;1.2493;
247.2000;1.5556;1.2444;
247.5000;1.5515;1.2347;
247.8000;1.5499;1.2274;
248.1000;1.5523;1.2177;
248.4000;1.5531;1.2177;
248.7000;1.5515;1.2104;
249.0000;1.5531;1.2250;
249.3000;1.5490;1.2201;
249.6000;1.5515;1.2226;
249.9000;1.5539;1.2250;
250.2000;1.5539;1.2347;
250.5000;1.5564;1.2299;
250.8000;1.5515;1.2226;
251.1000;1.5458;1.2153;
251.4000;1.5499;1.2177;
251.7000;1.5515;1.2274;
252.0000;1.5507;1.2323;
252.3000;1.5490;1.2323;
252.6000;1.5507;1.2347;
252.9000;1.5499;1.2274;
253.2000;1.5507;1.2226;
253.5000;1.5490;1.2226;
253.8000;1.5490;1.2226;
254.1000;1.5523;1.2201;
254.4000;1.5515;1.2177;
254.7000;1.5507;1.2153;
255.0000;1.5515;1.2323;
255.3000;1.5515;1.2347;
255.6000;1.5515;1.2299;
255.9000;1.5507;1.2250;
256.2000;1.5515;1.2201;
256.5000;1.5482;1.2104;
256.8000;1.5499;1.2250;
257.1000;1.5507;1.2299;
257.4000;1.5515;1.2299;
257.7000;1.5515;1.2274;
258.0000;1.5547;1.2274;
258.3000;1.5515;1.2226;
258.6000;1.5490;1.2177;
258.9000;1.5515;1.2226;
259.2000;1.5507;1.2299;
259.5000;1.5490;1.2201;
259.8000;1.5621;1.2615;
260.1000;1.5515;1.2347;
260.4000;1.5515;1.2250;
260.7000;1.5588;1.2323;
261.0000;1.5572;1.2396;
261.3000;1.5515;1.2347;
261.6000;1.5507;1.2420;
261.9000;1.5523;1.2420;
262.2000;1.5507;1.2469;
262.5000;1.5499;1.2444;
262.8000;1.5507;1.2469;
263.1000;1.5499;1.2493;
263.4000;1.5499;1.2615;
263.7000;1.5474;1.2469;
264.0000;1.5490;1.2469;
264.3000;1.5507;1.2396;
264.6000;1.5499;1.2444;
264.9000;1.5490;1.2444;
265.2000;1.5499;1.2347;
265.5000;1.5556;1.2250;
265.8000;1.5547;1.2201;
266.1000;1.5515;1.2031;
266.4000;1.5531;1.2104;
266.7000;1.5515;1.2128;
267.0000;1.5539;1.2201;
267.3000;1.5539;1.2299;
267.6000;1.5507;1.2177;
267.9000;1.5515;1.2201;
268.2000;1.5499;1.2226;
268.5000;1.5507;1.2299;
268.8000;1.5564;1.2517;
269.1000;1.5523;1.2420;
269.4000;1.5515;1.2371;
269.7000;1.5507;1.2250;
270.0000;1.5531;1.2299;
270.3000;1.5523;1.2299;
270.6000;1.5523;1.2274;
270.9000;1.5523;1.2250;
271.2000;1.5523;1.2201;
271.5000;1.5564;1.2250;
271.8000;1.5507;1.2080;
272.1000;1.5621;1.2371;
272.4000;1.5490;1.2128;
272.7000;1.5490;1.2153;
273.0000;1.5515;1.2128;
273.3000;1.5499;1.2055;
273.6000;1.5515;1.2128;
273.9000;1.5401;1.1861;
274.2000;1.5531;1.2104;
274.5000;1.5507;1.2031;
274.8000;1.5499;1.2080;
275.1000;1.5515;1.2201;
275.4000;1.5490;1.2128;
275.7000;1.5523;1.2250;
276.0000;1.5515;1.2250;
276.3000;1.5515;1.2274;
276.6000;1.5499;1.2201;
276.9000;1.5499;1.2104;
277.2000;1.5499;1.2104;
277.5000;1.5507;1.2226;
277.8000;1.5515;1.2274;
278.1000;1.5507;1.2274;
278.4000;1.5523;1.2250;
278.7000;1.5547;1.2250;
279.0000;1.5490;1.2177;
279.3000;1.5490;1.2031;
279.6000;1.5507;1.2055;
279.9000;1.5499;1.2104;
280.2000;1.5515;1.2104;
280.5000;1.5490;1.2031;
280.8000;1.5507;1.2128;
281.1000;1.5523;1.2177;
281.4000;1.5523;1.2153;
281.7000;1.5466;1.2007;
282.0000;1.5507;1.2104;
282.3000;1.5515;1.2104;
282.6000;1.5490;1.1958;
282.9000;1.5490;1.1934;
283.2000;1.5515;1.1983;
283.5000;1.5653;1.2274;
283.8000;1.5490;1.1934;
284.1000;1.5499;1.1885;
284.4000;1.5523;1.1983;
284.7000;1.5507;1.1885;
285.0000;1.5507;1.2007;
285.3000;1.5499;1.2055;
285.6000;1.5515;1.2104;
285.9000;1.5507;1.2128;
286.2000;1.5507;1.2128;
286.5000;1.5499;1.2080;
286.8000;1.5523;1.2274;
287.1000;1.5507;1.2299;
287.4000;1.5523;1.2299;
287.7000;1.5482;1.2177;
288.0000;1.5499;1.2201;
288.3000;1.5531;1.2371;
288.6000;1.5515;1.2347;
288.9000;1.5507;1.2299;
289.2000;1.5523;1.2371;
289.5000;1.5515;1.2347;
289.8000;1.5523;1.2444;
290.1000;1.5515;1.2469;
290.4000;1.5523;1.2493;
290.7000;1.5515;1.2323;
291.0000;1.5515;1.2274;
291.3000;1.5556;1.2420;
291.6000;1.5515;1.2444;
291.9000;1.5499;1.2371;
292.2000;1.5507;1.2420;
292.5000;1.5499;1.2299;
292.8000;1.5499;1.2420;
293.1000;1.5507;1.2469;
293.4000;1.5507;1.2420;
293.7000;1.5507;1.2323;
294.0000;1.5507;1.2371;
294.3000;1.5539;1.2469;
294.6000;1.5515;1.2396;
294.9000;1.5531;1.2420;
295.2000;1.5588;1.2517;
295.5000;1.5499;1.2347;
295.8000;1.5515;1.2396;
296.1000;1.5523;1.2517;
296.4000;1.5531;1.2566;
296.7000;1.5556;1.2493;
297.0000;1.5474;1.2250;
297.3000;1.5499;1.2299;
297.6000;1.5531;1.2420;
297.9000;1.5507;1.2347;
298.2000;1.5482;1.2347;
298.5000;1.5482;1.2323;
298.8000;1.5507;1.2250;
299.1000;1.5523;1.2323;
299.4000;1.5499;1.2323;
299.7000;1.5507;1.2396;
300.0000;1.5507;1.2323;
300.3000;1.5507;1.2323;
300.6000;1.5507;1.2371;
300.9000;1.5499;1.2420;
301.2000;1.5515;1.2420;
301.5000;1.5523;1.2420;
301.8000;1.5499;1.2323;
302.1000;1.5499;1.2347;
302.4000;1.5482;1.2396;
302.7000;1.5507;1.2347;
303.0000;1.5474;1.2250;
303.3000;1.5515;1.2250;
303.6000;1.5564;1.2347;
303.9000;1.5507;1.2226;
304.2000;1.5564;1.2420;
304.5000;1.5515;1.2371;
304.8000;1.5490;1.2347;
305.1000;1.5507;1.2299;
305.4000;1.5515;1.2250;
305.7000;1.5572;1.2396;
306.0000;1.5507;1.2299;
306.3000;1.5523;1.2274;
306.6000;1.5499;1.2226;
306.9000;1.5507;1.2226;
307.2000;1.5507;1.2299;
307.5000;1.5507;1.2396;
307.8000;1.5507;1.2444;
308.1000;1.5499;1.2396;
308.4000;1.5507;1.2347;
308.7000;1.5531;1.2396;
309.0000;1.5515;1.2420;
309.3000;1.5499;1.2323;
309.6000;1.5490;1.2323;
309.9000;1.5499;1.2517;
310.2000;1.5474;1.2469;
310.5000;1.5482;1.2444;
310.8000;1.5515;1.2469;
311.1000;1.5507;1.2444;
311.4000;1.5515;1.2420;
311.7000;1.5507;1.2444;
312.0000;1.5499;1.2420;
312.3000;1.5490;1.2444;
312.6000;1.5499;1.2444;
312.9000;1.5523;1.2493;
313.2000;1.5507;1.2444;
313.5000;1.5523;1.2493;
313.8000;1.5490;1.2469;
314.1000;1.5515;1.2542;
314.4000;1.5580;1.2712;
314.7000;1.5515;1.2566;
315.0000;1.5515;1.2542;
315.3000;1.5523;1.2590;
315.6000;1.5523;1.2639;
315.9000;1.5523;1.2639;
316.2000;1.5531;1.2663;
316.5000;1.5531;1.2663;
316.8000;1.5507;1.2566;
317.1000;1.5523;1.2566;
317.4000;1.5539;1.2493;
317.7000;1.5499;1.2444;
318.0000;1.5507;1.2444;
318.3000;1.5433;1.2371;
318.6000;1.5490;1.2493;
318.9000;1.5507;1.2542;
319.2000;1.5507;1.2517;
319.5000;1.5507;1.2590;
319.8000;1.5621;1.2858;
320.1000;1.5499;1.2517;
320.4000;1.5507;1.2444;
320.7000;1.5515;1.2444;
321.0000;1.5499;1.2493;
321.3000;1.5507;1.2517;
321.6000;1.5539;1.2517;
321.9000;1.5564;1.2566;
322.2000;1.5515;1.2396;
322.5000;1.5507;1.2444;
322.8000;1.5474;1.2371;
323.1000;1.5507;1.2274;
323.4000;1.5490;1.2250;
323.7000;1.5499;1.2323;
324.0000;1.5490;1.2371;
324.3000;1.5458;1.2201;
324.6000;1.5482;1.2250;
324.9000;1.5490;1.2347;
325.2000;1.5507;1.2444;
325.5000;1.5490;1.2371;
325.8000;1.5499;1.2347;
326.1000;1.5507;1.2274;
326.4000;1.5499;1.2201;
326.7000;1.5515;1.2323;
327.0000;1.5515;1.2371;
327.3000;1.5507;1.2420;
327.6000;1.5507;1.2469;
327.9000;1.5507;1.2444;
328.2000;1.5523;1.2444;
328.5000;1.5499;1.2469;
328.8000;1.5515;1.2493;
329.1000;1.5507;1.2444;
329.4000;1.5499;1.2396;
329.7000;1.5507;1.2444;
330.0000;1.5531;1.2420;
330.3000;1.5499;1.2250;
330.6000;1.5531;1.2347;
330.9000;1.5507;1.2299;
331.2000;1.5523;1.2396;
331.5000;1.5515;1.2396;
331.8000;1.5515;1.2469;
332.1000;1.5629;1.2712;
332.4000;1.5490;1.2493;
332.7000;1.5466;1.2371;
333.0000;1.5499;1.2444;
333.3000;1.5499;1.2517;
333.6000;1.5507;1.2517;
333.9000;1.5499;1.2517;
334.2000;1.5523;1.2542;
334.5000;1.5499;1.2542;
334.8000;1.5450;1.2420;
335.1000;1.5499;1.2566;
335.4000;1.5499;1.2469;
335.7000;1.5499;1.2444;
336.0000;1.5507;1.2396;
336.3000;1.5499;1.2420;
336.6000;1.5515;1.2371;
336.9000;1.5515;1.2371;
337.2000;1.5596;1.2566;
337.5000;1.5523;1.2420;
337.8000;1.5499;1.2323;
338.1000;1.5499;1.2396;
338.4000;1.5499;1.2444;
338.7000;1.5604;1.2615;
339.0000;1.5523;1.2420;
339.3000;1.5499;1.2469;
339.6000;1.5515;1.2420;
339.9000;1.5507;1.2420;
340.2000;1.5433;1.2250;
340.5000;1.5466;1.2420;
340.8000;1.5490;1.2444;
341.1000;1.5547;1.2590;
341.4000;1.5458;1.2420;
341.7000;1.5474;1.2444;
342.0000;1.5531;1.2517;
342.3000;1.5425;1.2323;
342.6000;1.5433;1.2347;
342.9000;1.5523;1.2517;
343.2000;1.5564;1.2517;
343.5000;1.5523;1.2420;
343.8000;1.5547;1.2420;
344.1000;1.5507;1.2371;
344.4000;1.5523;1.2420;
344.7000;1.5515;1.2347;
345.0000;1.5523;1.2250;
345.3000;1.5499;1.2177;
345.6000;1.5507;1.2250;
345.9000;1.5523;1.2396;
346.2000;1.5515;1.2493;
346.5000;1.5507;1.2469;
346.8000;1.5482;1.2371;
347.1000;1.5507;1.2420;
347.4000;1.5482;1.2469;
347.7000;1.5523;1.2566;
348.0000;1.5515;1.2517;
348.3000;1.5515;1.2493;
348.6000;1.5523;1.2517;
348.9000;1.5515;1.2469;
349.2000;1.5490;1.2493;
349.5000;1.5507;1.2469;
349.8000;1.5499;1.2469;
350.1000;1.5490;1.2371;
350.4000;1.5490;1.2420;
350.7000;1.5490;1.2396;
351.0000;1.5499;1.2493;
351.3000;1.5515;1.2542;
351.6000;1.5507;1.2517;
351.9000;1.5507;1.2469;
352.2000;1.5474;1.2226;
352.5000;1.5507;1.2299;
352.8000;1.5507;1.2274;
353.1000;1.5515;1.2323;
353.4000;1.5515;1.2347;
353.7000;1.5507;1.2396;
354.0000;1.5490;1.2323;
354.3000;1.5507;1.2323;
354.6000;1.5507;1.2323;
354.9000;1.5490;1.2226;
355.2000;1.5507;1.2323;
355.5000;1.5507;1.2396;
355.8000;1.5499;1.2201;
356.1000;1.5507;1.2226;
356.4000;1.5490;1.2201;
356.7000;1.5442;1.2055;
357.0000;1.5499;1.2201;
357.3000;1.5507;1.2274;
357.6000;1.5515;1.2323;
357.9000;1.5499;1.2250;
358.2000;1.5507;1.2347;
358.5000;1.5458;1.2177;
358.8000;1.5515;1.2323;
359.1000;1.5490;1.2299;
359.4000;1.5499;1.2299;
359.7000;1.5523;1.2396;
360.0000;1.5515;1.2444;
360.3000;1.5507;1.2542;
360.6000;1.5507;1.2493;
360.9000;1.5490;1.2517;
361.2000;1.5507;1.2566;
361.5000;1.5507;1.2590;
361.8000;1.5499;1.2517;
362.1000;1.5507;1.2542;
362.4000;1.5523;1.2566;
362.7000;1.5523;1.2542;
363.0000;1.5507;1.2615;
363.3000;1.5490;1.2493;
363.6000;1.5515;1.2493;
363.9000;1.5499;1.2493;
364.2000;1.5507;1.2469;
364.5000;1.5507;1.2444;
364.8000;1.5507;1.2420;
365.1000;1.5474;1.2274;
365.4000;1.5515;1.2274;
365.7000;1.5507;1.2250;
366.0000;1.5490;1.2153;
366.3000;1.5490;1.2250;
366.6000;1.5515;1.2299;
366.9000;1.5547;1.2420;
367.2000;1.5499;1.2299;
367.5000;1.5556;1.2420;
367.8000;1.5507;1.2371;
368.1000;1.5507;1.2299;
368.4000;1.5556;1.2420;
368.7000;1.5507;1.2274;
369.0000;1.5515;1.2201;
369.3000;1.5490;1.2153;
369.6000;1.5482;1.2201;
369.9000;1.5499;1.2250;
370.2000;1.5474;1.2104;
370.5000;1.5531;1.2274;
370.8000;1.5507;1.2177;
371.1000;1.5499;1.2201;
371.4000;1.5499;1.2226;
371.7000;1.5515;1.2226;
372.0000;1.5515;1.2153;
372.3000;1.5507;1.2153;
372.6000;1.5515;1.2201;
372.9000;1.5515;1.2299;
373.2000;1.5515;1.2323;
373.5000;1.5507;1.2420;
373.8000;1.5499;1.2396;
374.1000;1.5515;1.2347;
374.4000;1.5499;1.2347;
374.7000;1.5490;1.2347;
375.0000;1.5499;1.2323;
375.3000;1.5499;1.2274;
375.6000;1.5539;1.2274;
375.9000;1.5482;1.2153;
376.2000;1.5507;1.2226;
376.5000;1.5499;1.2153;
376.8000;1.5523;1.2226;
377.1000;1.5507;1.2226;
377.4000;1.5490;1.2128;
377.7000;1.5499;1.2274;
378.0000;1.5507;1.2274;
378.3000;1.5515;1.2226;
378.6000;1.5523;1.2323;
378.9000;1.5450;1.2104;
379.2000;1.5531;1.2274;
379.5000;1.5499;1.2274;
379.8000;1.5490;1.2299;
380.1000;1.5490;1.2250;
380.4000;1.5523;1.2274;
380.7000;1.5490;1.2274;
381.0000;1.5499;1.2299;
381.3000;1.5482;1.2274;
381.6000;1.5564;1.2420;
381.9000;1.5499;1.2250;
382.2000;1.5499;1.2371;
382.5000;1.5515;1.2347;
382.8000;1.5564;1.2493;
383.1000;1.5539;1.2444;
383.4000;1.5490;1.2371;
383.7000;1.5499;1.2444;
384.0000;1.5507;1.2371;
384.3000;1.5499;1.2274;
384.6000;1.5490;1.2201;
384.9000;1.5490;1.2177;
385.2000;1.5474;1.2104;
385.5000;1.5482;1.2201;
385.8000;1.5515;1.2250;
386.1000;1.5539;1.2226;
386.4000;1.5482;1.2177;
386.7000;1.5531;1.2299;
387.0000;1.5523;1.2274;
387.3000;1.5531;1.2274;
387.6000;1.5531;1.2226;
387.9000;1.5515;1.2226;
388.2000;1.5507;1.2226;
388.5000;1.5507;1.2226;
388.8000;1.5523;1.2177;
389.1000;1.5515;1.2201;
389.4000;1.5556;1.2299;
389.7000;1.5515;1.2250;
390.0000;1.5507;1.2226;
390.3000;1.5499;1.2274;
390.6000;1.5515;1.2274;
390.9000;1.5604;1.2517;
391.2000;1.5515;1.2274;
391.5000;1.5515;1.2323;
391.8000;1.5507;1.2250;
392.1000;1.5515;1.2396;
392.4000;1.5499;1.2420;
392.7000;1.5490;1.2444;
393.0000;1.5507;1.2396;
393.3000;1.5515;1.2323;
393.6000;1.5499;1.2274;
393.9000;1.5499;1.2250;
394.2000;1.5490;1.2177;
394.5000;1.5507;1.2177;
394.8000;1.5490;1.2226;
395.1000;1.5482;1.2153;
395.4000;1.5490;1.2226;
395.7000;1.5515;1.2299;
396.0000;1.5515;1.2177;
396.3000;1.5499;1.2177;
396.6000;1.5490;1.2153;
396.9000;1.5507;1.2128;
397.2000;1.5490;1.2104;
397.5000;1.5531;1.2201;
397.8000;1.5499;1.2177;
398.1000;1.5507;1.2274;
398.4000;1.5515;1.2347;
398.7000;1.5474;1.2323;
399.0000;1.5490;1.2371;
399.3000;1.5499;1.2420;
399.6000;1.5474;1.2347;
399.9000;1.5490;1.2371;
400.2000;1.5499;1.2396;
400.5000;1.5490;1.2323;
400.8000;1.5507;1.2347;
401.1000;1.5499;1.2323;
401.4000;1.5482;1.2347;
401.7000;1.5499;1.2371;
402.0000;1.5458;1.2299;
402.3000;1.5515;1.2444;
402.6000;1.5490;1.2323;
402.9000;1.5499;1.2347;
403.2000;1.5507;1.2420;
403.5000;1.5507;1.2396;
403.8000;1.5499;1.2444;
404.1000;1.5499;1.2420;
404.4000;1.5490;1.2420;
404.7000;1.5507;1.2469;
405.0000;1.5490;1.2493;
405.3000;1.5409;1.2299;
405.6000;1.5523;1.2663;
405.9000;1.5466;1.2444;
406.2000;1.5482;1.2420;
406.5000;1.5474;1.2420;
406.8000;1.5482;1.2396;
407.1000;1.5490;1.2420;
407.4000;1.5507;1.2396;
407.7000;1.5482;1.2347;
408.0000;1.5466;1.2250;
408.3000;1.5433;1.2104;
408.6000;1.5490;1.2226;
408.9000;1.5499;1.2323;
409.2000;1.5490;1.2347;
409.5000;1.5482;1.2274;
409.8000;1.5499;1.2153;
410.1000;1.5482;1.2153;
410.4000;1.5490;1.2274;
410.7000;1.5482;1.2323;
411.0000;1.5499;1.2444;
411.3000;1.5507;1.2420;
411.6000;1.5482;1.2347;
411.9000;1.5515;1.2371;
412.2000;1.5515;1.2420;
412.5000;1.5482;1.2323;
412.8000;1.5442;1.2201;
413.1000;1.5490;1.2444;
413.4000;1.5499;1.2517;
413.7000;1.5499;1.2469;
414.0000;1.5556;1.2590;
414.3000;1.5499;1.2469;
414.6000;1.5580;1.2615;
414.9000;1.5499;1.2371;
415.2000;1.5490;1.2274;
415.5000;1.5490;1.2299;
415.8000;1.5515;1.2226;
416.1000;1.5507;1.2226;
416.4000;1.5499;1.2226;
416.7000;1.5515;1.2347;
417.0000;1.5499;1.2274;
417.3000;1.5499;1.2274;
417.6000;1.5507;1.2299;
417.9000;1.5490;1.2226;
418.2000;1.5490;1.2153;
418.5000;1.5482;1.2226;
418.8000;1.5515;1.2299;
419.1000;1.5515;1.2323;
419.4000;1.5499;1.2371;
419.7000;1.5474;1.2396;
420.0000;1.5499;1.2444;
420.3000;1.5490;1.2420;
420.6000;1.5482;1.2469;
420.9000;1.5507;1.2542;
421.2000;1.5499;1.2444;
421.5000;1.5482;1.2371;
421.8000;1.5499;1.2323;
422.1000;1.5490;1.2226;
422.4000;1.5499;1.2274;
422.7000;1.5507;1.2371;
423.0000;1.5442;1.2250;
423.3000;1.5490;1.2274;
423.6000;1.5499;1.2347;
423.9000;1.5499;1.2444;
424.2000;1.5490;1.2371;
424.5000;1.5466;1.2226;
424.8000;1.5490;1.2274;
425.1000;1.5507;1.2323;
425.4000;1.5507;1.2323;
425.7000;1.5507;1.2299;
426.0000;1.5499;1.2250;
426.3000;1.5490;1.2177;
426.6000;1.5490;1.2177;
426.9000;1.5474;1.2226;
427.2000;1.5499;1.2299;
427.5000;1.5482;1.2226;
427.8000;1.5490;1.2323;
428.1000;1.5531;1.2347;
428.4000;1.5490;1.2299;
428.7000;1.5507;1.2371;
429.0000;1.5499;1.2347;
429.3000;1.5499;1.2299;
429.6000;1.5499;1.2299;
429.9000;1.5507;1.2201;
430.2000;1.5507;1.2226;
430.5000;1.5499;1.2250;
430.8000;1.5442;1.2080;
431.1000;1.5490;1.2299;
431.4000;1.5515;1.2323;
431.7000;1.5393;1.2055;
432.0000;1.5490;1.2226;
432.3000;1.5539;1.2347;
432.6000;1.5507;1.2250;
432.9000;1.5523;1.2347;
433.2000;1.5515;1.2347;
433.5000;1.5474;1.2201;
433.8000;1.5507;1.2347;
434.1000;1.5474;1.2299;
434.4000;1.5499;1.2420;
434.7000;1.5507;1.2493;
435.0000;1.5490;1.2469;
435.3000;1.5433;1.2371;
435.6000;1.5499;1.2469;
435.9000;1.5507;1.2444;
436.2000;1.5507;1.2420;
436.5000;1.5499;1.2347;
436.8000;1.5482;1.2250;
437.1000;1.5556;1.2444;
437.4000;1.5482;1.2299;
437.7000;1.5490;1.2347;
438.0000;1.5490;1.2493;
438.3000;1.5507;1.2493;
438.6000;1.5564;1.2663;
438.9000;1.5490;1.2444;
439.2000;1.5499;1.2542;
439.5000;1.5474;1.2493;
439.8000;1.5539;1.2615;
440.1000;1.5474;1.2444;
440.4000;1.5499;1.2566;
440.7000;1.5474;1.2469;
441.0000;1.5507;1.2444;
441.3000;1.5490;1.2420;
441.6000;1.5499;1.2469;
441.9000;1.5482;1.2347;
442.2000;1.5499;1.2396;
442.5000;1.5482;1.2323;
442.8000;1.5466;1.2250;
443.1000;1.5507;1.2323;
443.4000;1.5474;1.2396;
443.7000;1.5482;1.2469;
444.0000;1.5499;1.2444;
444.3000;1.5482;1.2396;
444.6000;1.5531;1.2347;
444.9000;1.5482;1.2201;
445.2000;1.5490;1.2274;
445.5000;1.5458;1.2055;
445.8000;1.5515;1.2250;
446.1000;1.5490;1.2250;
446.4000;1.5507;1.2201;
446.7000;1.5482;1.2128;
447.0000;1.5482;1.2201;
447.3000;1.5482;1.2250;
447.6000;1.5490;1.2371;
447.9000;1.5466;1.2371;
448.2000;1.5458;1.2347;
448.5000;1.5482;1.2420;
448.8000;1.5466;1.2299;
449.1000;1.5474;1.2396;
449.4000;1.5507;1.2420;
449.7000;1.5499;1.2250;
450.0000;1.5482;1.2201;
450.3000;1.5458;1.2153;
450.6000;1.5474;1.2153;
450.9000;1.5474;1.2128;
451.2000;1.5482;1.2226;
451.5000;1.5499;1.2226;
451.8000;1.5507;1.2201;
452.1000;1.5523;1.2177;
452.4000;1.5499;1.2226;
452.7000;1.5499;1.2250;
453.0000;1.5507;1.2299;
453.3000;1.5515;1.2371;
453.6000;1.5425;1.2128;
453.9000;1.5507;1.2299;
454.2000;1.5523;1.2420;
454.5000;1.5507;1.2396;
454.8000;1.5385;1.2080;
455.1000;1.5499;1.2299;
455.4000;1.5490;1.2201;
455.7000;1.5523;1.2250;
456.0000;1.5499;1.2226;
456.3000;1.5466;1.2226;
456.6000;1.5490;1.2323;
456.9000;1.5499;1.2299;
457.2000;1.5458;1.2128;
457.5000;1.5507;1.2250;
457.8000;1.5482;1.2201;
458.1000;1.5482;1.2201;
458.4000;1.5499;1.2347;
458.7000;1.5474;1.2396;
459.0000;1.5490;1.2493;
459.3000;1.5490;1.2469;
459.6000;1.5499;1.2396;
459.9000;1.5507;1.2396;
460.2000;1.5482;1.2396;
460.5000;1.5482;1.2420;
460.8000;1.5499;1.2444;
461.1000;1.5499;1.2396;
461.4000;1.5490;1.2444;
461.7000;1.5490;1.2444;
462.0000;1.5507;1.2420;
462.3000;1.5515;1.2347;
462.6000;1.5442;1.2274;
462.9000;1.5482;1.2396;
463.2000;1.5499;1.2371;
463.5000;1.5515;1.2347;
463.8000;1.5515;1.2371;
464.1000;1.5474;1.2299;
464.4000;1.5490;1.2347;
464.7000;1.5499;1.2371;
465.0000;1.5490;1.2299;
465.3000;1.5499;1.2347;
465.6000;1.5507;1.2274;
465.9000;1.5450;1.2104;
466.2000;1.5507;1.2250;
466.5000;1.5507;1.2274;
466.8000;1.5531;1.2250;
467.1000;1.5499;1.2226;
467.4000;1.5499;1.2347;
467.7000;1.5556;1.2469;
468.0000;1.5490;1.2420;
468.3000;1.5499;1.2615;
468.6000;1.5490;1.2590;
468.9000;1.5474;1.2542;
469.2000;1.5499;1.2566;
469.5000;1.5507;1.2542;
469.8000;1.5596;1.2687;
470.1000;1.5482;1.2469;
470.4000;1.5515;1.2517;
470.7000;1.5507;1.2396;
471.0000;1.5490;1.2420;
471.3000;1.5490;1.2444;
471.6000;1.5450;1.2299;
471.9000;1.5490;1.2493;
472.2000;1.5490;1.2566;
472.5000;1.5539;1.2687;
472.8000;1.5490;1.2542;
473.1000;1.5466;1.2517;
473.4000;1.5450;1.2444;
473.7000;1.5499;1.2493;
474.0000;1.5474;1.2493;
474.3000;1.5482;1.2396;
474.6000;1.5474;1.2371;
474.9000;1.5515;1.2347;
475.2000;1.5499;1.2323;
475.5000;1.5490;1.2323;
475.8000;1.5507;1.2371;
476.1000;1.5499;1.2420;
476.4000;1.5507;1.2299;
476.7000;1.5515;1.2323;
477.0000;1.5490;1.2201;
477.3000;1.5515;1.2153;
477.6000;1.5393;1.1788;
477.9000;1.5490;1.2007;
478.2000;1.5442;1.2007;
478.5000;1.5482;1.2104;
478.8000;1.5474;1.2104;
479.1000;1.5482;1.2153;
479.4000;1.5499;1.2153;
479.7000;1.5490;1.2153;
480.0000;1.5490;1.2153;
480.3000;1.5499;1.2153;
480.6000;1.5499;1.2201;
480.9000;1.5482;1.2201;
481.2000;1.5499;1.2153;
481.5000;1.5490;1.2226;
481.8000;1.5482;1.2250;
482.1000;1.5458;1.2274;
482.4000;1.5499;1.2420;
482.7000;1.5507;1.2469;
483.0000;1.5499;1.2469;
483.3000;1.5490;1.2444;
483.6000;1.5507;1.2444;
483.9000;1.5515;1.2371;
484.2000;1.5515;1.2323;
484.5000;1.5499;1.2299;
484.8000;1.5515;1.2347;
485.1000;1.5507;1.2444;
485.4000;1.5409;1.2226;
485.7000;1.5482;1.2396;
486.0000;1.5499;1.2444;
486.3000;1.5490;1.2444;
486.6000;1.5515;1.2444;
486.9000;1.5499;1.2444;
487.2000;1.5499;1.2396;
487.5000;1.5474;1.2396;
487.8000;1.5466;1.2371;
488.1000;1.5507;1.2299;
488.4000;1.5499;1.2299;
488.7000;1.5523;1.2347;
489.0000;1.5507;1.2299;
489.3000;1.5482;1.2371;
489.6000;1.5482;1.2420;
489.9000;1.5482;1.2396;
490.2000;1.5474;1.2396;
490.5000;1.5499;1.2444;
490.8000;1.5507;1.2493;
491.1000;1.5482;1.2444;
491.4000;1.5515;1.2469;
491.7000;1.5490;1.2420;
492.0000;1.5482;1.2323;
492.3000;1.5466;1.2250;
492.6000;1.5450;1.2177;
492.9000;1.5499;1.2274;
493.2000;1.5499;1.2323;
493.5000;1.5490;1.2347;
493.8000;1.5499;1.2371;
494.1000;1.5515;1.2347;
494.4000;1.5450;1.2201;
494.7000;1.5490;1.2250;
495.0000;1.5499;1.2250;
495.3000;1.5556;1.2371;
495.6000;1.5499;1.2347;
495.9000;1.5490;1.2396;
496.2000;1.5499;1.2371;
496.5000;1.5499;1.2347;
496.8000;1.5474;1.2299;
497.1000;1.5482;1.2396;
497.4000;1.5474;1.2274;
497.7000;1.5482;1.2274;
498.0000;1.5482;1.2323;
498.3000;1.5596;1.2639;
498.6000;1.5507;1.2371;
498.9000;1.5474;1.2250;
499.2000;1.5499;1.2274;
499.5000;1.5499;1.2299;
499.8000;1.5499;1.2274;
500.1000;1.5507;1.2274;
500.4000;1.5499;1.2299;
500.7000;1.5474;1.2420;
501.0000;1.5490;1.2469;
501.3000;1.5482;1.2493;
501.6000;1.5490;1.2493;
501.9000;1.5490;1.2444;
502.2000;1.5458;1.2420;
502.5000;1.5474;1.2396;
502.8000;1.5482;1.2371;
503.1000;1.5482;1.2396;
503.4000;1.5490;1.2396;
503.7000;1.5507;1.2420;
504.0000;1.5450;1.2396;
504.3000;1.5450;1.2347;
504.6000;1.5507;1.2469;
504.9000;1.5466;1.2371;
505.2000;1.5482;1.2517;
505.5000;1.5490;1.2542;
505.8000;1.5474;1.2590;
506.1000;1.5466;1.2542;
506.4000;1.5482;1.2517;
506.7000;1.5499;1.2566;
507.0000;1.5482;1.2420;
507.3000;1.5474;1.2493;
507.6000;1.5507;1.2517;
507.9000;1.5490;1.2396;
508.2000;1.5474;1.2420;
508.5000;1.5474;1.2347;
508.8000;1.5490;1.2371;
509.1000;1.5499;1.2420;
509.4000;1.5466;1.2420;
509.7000;1.5482;1.2517;
510.0000;1.5474;1.2469;
510.3000;1.5499;1.2493;
510.6000;1.5466;1.2493;
510.9000;1.5482;1.2590;
511.2000;1.5482;1.2639;
511.5000;1.5515;1.2712;
511.8000;1.5507;1.2712;
512.1000;1.5507;1.2760;
512.4000;1.5482;1.2663;
512.7000;1.5474;1.2590;
513.0000;1.5482;1.2615;
513.3000;1.5482;1.2517;
513.6000;1.5539;1.2566;
513.9000;1.5499;1.2444;
514.2000;1.5499;1.2469;
514.5000;1.5499;1.2517;
514.8000;1.5450;1.2493;
515.1000;1.5499;1.2687;
515.4000;1.5482;1.2687;
515.7000;1.5507;1.2736;
516.0000;1.5474;1.2663;
516.3000;1.5482;1.2712;
516.6000;1.5499;1.2785;
516.9000;1.5531;1.2833;
517.2000;1.5499;1.2639;
517.5000;1.5523;1.2615;
517.8000;1.5490;1.2590;
518.1000;1.5466;1.2590;
518.4000;1.5523;1.2687;
518.7000;1.5482;1.2566;
519.0000;1.5482;1.2542;
519.3000;1.5458;1.2493;
519.6000;1.5466;1.2542;
519.9000;1.5499;1.2566;
520.2000;1.5507;1.2590;
520.5000;1.5507;1.2566;
520.8000;1.5482;1.2566;
521.1000;1.5482;1.2493;
521.4000;1.5499;1.2469;
521.7000;1.5482;1.2444;
522.0000;1.5490;1.2371;
522.3000;1.5458;1.2250;
522.6000;1.5499;1.2371;
522.9000;1.5490;1.2250;
523.2000;1.5474;1.2323;
523.5000;1.5482;1.2420;
523.8000;1.5474;1.2469;
524.1000;1.5474;1.2469;
524.4000;1.5458;1.2493;
524.7000;1.5499;1.2542;
525.0000;1.5482;1.2542;
525.3000;1.5490;1.2542;
525.6000;1.5474;1.2590;
525.9000;1.5539;1.2687;
526.2000;1.5482;1.2493;
526.5000;1.5474;1.2444;
526.8000;1.5482;1.2615;
527.1000;1.5425;1.2493;
527.4000;1.5474;1.2566;
527.7000;1.5474;1.2542;
528.0000;1.5458;1.2493;
528.3000;1.5482;1.2517;
528.6000;1.5523;1.2639;
528.9000;1.5474;1.2542;
529.2000;1.5474;1.2542;
529.5000;1.5482;1.2639;
529.8000;1.5499;1.2615;
530.1000;1.5490;1.2590;
530.4000;1.5547;1.2760;
530.7000;1.5490;1.2639;
531.0000;1.5499;1.2615;
531.3000;1.5490;1.2639;
531.6000;1.5433;1.2444;
531.9000;1.5499;1.2566;
532.2000;1.5482;1.2542;
532.5000;1.5482;1.2517;
532.8000;1.5507;1.2615;
533.1000;1.5490;1.2542;
533.4000;1.5482;1.2566;
533.7000;1.5450;1.2420;
534.0000;1.5490;1.2371;
534.3000;1.5474;1.2371;
534.6000;1.5499;1.2396;
534.9000;1.5507;1.2323;
535.2000;1.5482;1.2347;
535.5000;1.5490;1.2420;
535.8000;1.5466;1.2469;
536.1000;1.5499;1.2517;
536.4000;1.5556;1.2590;
536.7000;1.5507;1.2347;
537.0000;1.5515;1.2299;
537.3000;1.5499;1.2226;
537.6000;1.5482;1.2323;
537.9000;1.5572;1.2493;
538.2000;1.5482;1.2299;
538.5000;1.5466;1.2250;
538.8000;1.5474;1.2177;
539.1000;1.5474;1.2274;
539.4000;1.5458;1.2396;
539.7000;1.5490;1.2444;
540.0000;1.5499;1.2420;
540.3000;1.5490;1.2396;
540.6000;1.5539;1.2444;
540.9000;1.5490;1.2226;
541.2000;1.5450;1.2104;
541.5000;1.5515;1.2299;
541.8000;1.5490;1.2274;
542.1000;1.5474;1.2299;
542.4000;1.5499;1.2469;
542.7000;1.5474;1.2444;
543.0000;1.5466;1.2299;
543.3000;1.5474;1.2274;
543.6000;1.5499;1.2299;
543.9000;1.5490;1.2371;
544.2000;1.5499;1.2420;
544.5000;1.5490;1.2323;
544.8000;1.5507;1.2396;
545.1000;1.5515;1.2396;
545.4000;1.5564;1.2493;
545.7000;1.5499;1.2323;
546.0000;1.5507;1.2396;
546.3000;1.5499;1.2371;
546.6000;1.5466;1.2299;
546.9000;1.5482;1.2371;
547.2000;1.5490;1.2371;
547.5000;1.5466;1.2299;
547.8000;1.5547;1.2420;
548.1000;1.5490;1.2371;
548.4000;1.5458;1.2371;
548.7000;1.5490;1.2469;
549.0000;1.5474;1.2396;
549.3000;1.5482;1.2347;
549.6000;1.5490;1.2299;
549.9000;1.5474;1.2274;
550.2000;1.5539;1.2493;
550.5000;1.5482;1.2371;
550.8000;1.5474;1.2347;
551.1000;1.5450;1.2371;
551.4000;1.5474;1.2444;
551.7000;1.5499;1.2517;
552.0000;1.5474;1.2469;
552.3000;1.5531;1.2590;
552.6000;1.5482;1.2420;
552.9000;1.5482;1.2371;
553.2000;1.5409;1.2177;
553.5000;1.5507;1.2347;
553.8000;1.5482;1.2420;
554.1000;1.5531;1.2493;
554.4000;1.5490;1.2444;
554.7000;1.5490;1.2469;
555.0000;1.5482;1.2542;
555.3000;1.5499;1.2566;
555.6000;1.5466;1.2469;
555.9000;1.5482;1.2444;
556.2000;1.5515;1.2469;
556.5000;1.5523;1.2420;
556.8000;1.5499;1.2469;
557.1000;1.5490;1.2444;
557.4000;1.5482;1.2517;
557.7000;1.5482;1.2590;
558.0000;1.5499;1.2493;
558.3000;1.5490;1.2396;
558.6000;1.5474;1.2396;
558.9000;1.5474;1.2323;
559.2000;1.5466;1.2323;
559.5000;1.5482;1.2420;
559.8000;1.5482;1.2347;
560.1000;1.5482;1.2347;
560.4000;1.5499;1.2444;
560.7000;1.5482;1.2469;
561.0000;1.5490;1.2517;
561.3000;1.5507;1.2615;
561.6000;1.5499;1.2493;
561.9000;1.5490;1.2469;
562.2000;1.5474;1.2420;
562.5000;1.5482;1.2396;
562.8000;1.5523;1.2420;
563.1000;1.5474;1.2347;
563.4000;1.5466;1.2323;
563.7000;1.5474;1.2371;
564.0000;1.5482;1.2469;
564.3000;1.5547;1.2639;
564.6000;1.5515;1.2517;
564.9000;1.5466;1.2299;
565.2000;1.5425;1.2177;
565.5000;1.5507;1.2396;
565.8000;1.5450;1.2250;
566.1000;1.5482;1.2323;
566.4000;1.5507;1.2420;
566.7000;1.5490;1.2444;
567.0000;1.5474;1.2517;
567.3000;1.5466;1.2420;
567.6000;1.5490;1.2493;
567.9000;1.5490;1.2420;
568.2000;1.5499;1.2444;
568.5000;1.5482;1.2396;
568.8000;1.5474;1.2299;
569.1000;1.5482;1.2371;
569.4000;1.5507;1.2469;
569.7000;1.5539;1.2615;
570.0000;1.5490;1.2493;
570.3000;1.5531;1.2615;
570.6000;1.5458;1.2517;
570.9000;1.5466;1.2469;
571.2000;1.5490;1.2469;
571.5000;1.5490;1.2493;
571.8000;1.5466;1.2420;
572.1000;1.5482;1.2469;
572.4000;1.5482;1.2444;
572.7000;1.5507;1.2566;
573.0000;1.5490;1.2542;
573.3000;1.5490;1.2469;
573.6000;1.5482;1.2371;
573.9000;1.5474;1.2347;
574.2000;1.5531;1.2469;
574.5000;1.5466;1.2323;
574.8000;1.5466;1.2323;
575.1000;1.5474;1.2323;
575.4000;1.5474;1.2250;
575.7000;1.5499;1.2128;
576.0000;1.5490;1.2177;
576.3000;1.5490;1.2250;
576.6000;1.5482;1.2323;
576.9000;1.5499;1.2371;
577.2000;1.5499;1.2371;
577.5000;1.5482;1.2323;
577.8000;1.5466;1.2323;
578.1000;1.5482;1.2299;
578.4000;1.5547;1.2493;
578.7000;1.5490;1.2323;
579.0000;1.5499;1.2347;
579.3000;1.5482;1.2323;
579.6000;1.5474;1.2226;
579.9000;1.5482;1.2347;
580.2000;1.5482;1.2347;
580.5000;1.5482;1.2396;
580.8000;1.5482;1.2347;
581.1000;1.5450;1.2299;
581.4000;1.5474;1.2323;
581.7000;1.5482;1.2299;
582.0000;1.5450;1.2274;
582.3000;1.5474;1.2371;
582.6000;1.5474;1.2420;
582.9000;1.5474;1.2396;
583.2000;1.5507;1.2493;
583.5000;1.5523;1.2444;
583.8000;1.5482;1.2347;
584.1000;1.5474;1.2323;
584.4000;1.5490;1.2371;
584.7000;1.5482;1.2347;
585.0000;1.5466;1.2299;
585.3000;1.5474;1.2323;
585.6000;1.5474;1.2347;
585.9000;1.5490;1.2444;
586.2000;1.5490;1.2444;
586.5000;1.5490;1.2420;
586.8000;1.5425;1.2226;
587.1000;1.5490;1.2396;
587.4000;1.5474;1.2299;
587.7000;1.5482;1.2323;
588.0000;1.5482;1.2371;
588.3000;1.5482;1.2444;
588.6000;1.5458;1.2299;
588.9000;1.5482;1.2274;
589.2000;1.5474;1.2226;
589.5000;1.5474;1.2274;
589.8000;1.5507;1.2371;
590.1000;1.5482;1.2226;
590.4000;1.5474;1.2250;
590.7000;1.5450;1.2153;
591.0000;1.5490;1.2226;
591.3000;1.5588;1.2493;
591.6000;1.5474;1.2177;
591.9000;1.5474;1.2201;
592.2000;1.5482;1.2226;
592.5000;1.5482;1.2177;
592.8000;1.5482;1.2104;
593.1000;1.5490;1.2104;
593.4000;1.5450;1.2080;
593.7000;1.5490;1.2177;
594.0000;1.5482;1.2080;
594.3000;1.5466;1.2104;
594.6000;1.5490;1.2226;
594.9000;1.5474;1.2226;
595.2000;1.5490;1.2250;
595.5000;1.5458;1.2299;
595.8000;1.5572;1.2493;
596.1000;1.5490;1.2371;
596.4000;1.5482;1.2396;
596.7000;1.5482;1.2420;
597.0000;1.5490;1.2396;
597.3000;1.5490;1.2469;
597.6000;1.5482;1.2396;
597.9000;1.5490;1.2299;
598.2000;1.5490;1.2347;
598.5000;1.5490;1.2347;
598.8000;1.5490;1.2299;
599.1000;1.5482;1.2226;
599.4000;1.5499;1.2250;
599.7000;1.5482;1.2201;
600.0000;1.5458;1.2177;
600.3000;1.5482;1.2153;
600.6000;1.5425;1.2104;
600.9000;1.5336;1.2007;
601.2000;1.5222;1.1885;
601.5000;1.5059;1.1691;
601.8000;1.4904;1.1496;
602.1000;1.4790;1.1326;
602.4000;1.4644;1.1302;
602.7000;1.4497;1.1205;
603.0000;1.4359;1.1010;
603.3000;1.4212;1.0792;
603.6000;1.4107;1.0646;
603.9000;1.3993;1.0573;
604.2000;1.3895;1.0451;
604.5000;1.3805;1.0403;
604.8000;1.3683;1.0306;
605.1000;1.3586;1.0208;
605.4000;1.3488;1.0062;
605.7000;1.3398;0.9965;
606.0000;1.3293;0.9868;
606.3000;1.3228;0.9965;
606.6000;1.3146;0.9990;
606.9000;1.3073;0.9868;
607.2000;1.2991;0.9746;
607.5000;1.2894;0.9601;
607.8000;1.2861;0.9698;
608.1000;1.2845;0.9698;
608.4000;1.2698;0.9552;
608.7000;1.2625;0.9503;
609.0000;1.2568;0.9406;
609.3000;1.2503;0.9479;
609.6000;1.2430;0.9406;
609.9000;1.2373;0.9382;
610.2000;1.2324;0.9333;
610.5000;1.2145;0.9090;
610.8000;1.2186;0.9309;
611.1000;1.2153;0.9309;
611.4000;1.2080;0.9260;
611.7000;1.2047;0.9187;
612.0000;1.1990;0.9187;
612.3000;1.1901;0.9139;
612.6000;1.1819;0.9090;
612.9000;1.1787;0.9066;
613.2000;1.1754;0.9066;
613.5000;1.1705;0.9042;
613.8000;1.1673;0.8969;
614.1000;1.1632;0.8944;
614.4000;1.1575;0.8871;
614.7000;1.1510;0.8799;
615.0000;1.1477;0.8799;
615.3000;1.1412;0.8701;
615.6000;1.1404;0.8920;
615.9000;1.1347;0.8944;
616.2000;1.1282;0.8896;
616.5000;1.1274;0.8896;
616.8000;1.1249;0.8896;
617.1000;1.1193;0.8920;
617.4000;1.1160;0.8920;
617.7000;1.1127;0.8871;
618.0000;1.1111;0.8847;
618.3000;1.1046;0.8750;
618.6000;1.1005;0.8847;
618.9000;1.0965;0.8823;
619.2000;1.0924;0.8774;
619.5000;1.0883;0.8726;
619.8000;1.0851;0.8726;
620.1000;1.0810;0.8701;
620.4000;1.0786;0.8653;
620.7000;1.0729;0.8483;
621.0000;1.0729;0.8580;
621.3000;1.0672;0.8653;
621.6000;1.0696;0.8823;
621.9000;1.0615;0.8750;
622.2000;1.0598;0.8799;
622.5000;1.0574;0.8774;
622.8000;1.0501;0.8653;
623.1000;1.0517;0.8677;
623.4000;1.0541;0.8799;
623.7000;1.0435;0.8556;
624.0000;1.0387;0.8434;
624.3000;1.0403;0.8604;
624.6000;1.0313;0.8483;
624.9000;1.0313;0.8507;
625.2000;1.0297;0.8556;
625.5000;1.0248;0.8531;
625.8000;1.0232;0.8507;
626.1000;1.0208;0.8458;
626.4000;1.0191;0.8556;
626.7000;1.0175;0.8556;
627.0000;1.0151;0.8677;
627.3000;1.0142;0.8750;
627.6000;1.0118;0.8774;
627.9000;1.0069;0.8677;
628.2000;1.0061;0.8653;
628.5000;1.0012;0.8604;
628.8000;0.9972;0.8531;
629.1000;0.9996;0.8556;
629.4000;0.9955;0.8483;
629.7000;0.9947;0.8483;
630.0000;0.9915;0.8458;
630.3000;0.9898;0.8556;
630.6000;0.9890;0.8628;
630.9000;0.9841;0.8556;
631.2000;0.9849;0.8507;
631.5000;0.9817;0.8483;
631.8000;0.9801;0.8507;
632.1000;0.9833;0.8580;
632.4000;0.9752;0.8410;
632.7000;0.9744;0.8337;
633.0000;0.9735;0.8240;
633.3000;0.9678;0.8215;
633.6000;0.9646;0.8167;
633.9000;0.9638;0.8191;
634.2000;0.9646;0.8337;
634.5000;0.9621;0.8337;
634.8000;0.9646;0.8361;
635.1000;0.9573;0.8264;
635.4000;0.9548;0.8385;
635.7000;0.9540;0.8385;
636.0000;0.9540;0.8434;
636.3000;0.9516;0.8385;
636.6000;0.9565;0.8556;
636.9000;0.9491;0.8385;
637.2000;0.9459;0.8312;
637.5000;0.9442;0.8215;
637.8000;0.9434;0.8264;
638.1000;0.9402;0.8215;
638.4000;0.9394;0.8215;
638.7000;0.9377;0.8288;
639.0000;0.9361;0.8337;
639.3000;0.9369;0.8264;
639.6000;0.9345;0.8215;
639.9000;0.9280;0.8118;
640.2000;0.9271;0.8191;
640.5000;0.9304;0.8361;
640.8000;0.9263;0.8361;
641.1000;0.9271;0.8483;
641.4000;0.9247;0.8410;
641.7000;0.9239;0.8385;
642.0000;0.9231;0.8361;
642.3000;0.9198;0.8337;
642.6000;0.9198;0.8240;
642.9000;0.9190;0.8191;
643.2000;0.9158;0.8191;
643.5000;0.9149;0.8240;
643.8000;0.9141;0.8385;
644.1000;0.9084;0.8385;
644.4000;0.9117;0.8458;
644.7000;0.9092;0.8312;
645.0000;0.9076;0.8288;
645.3000;0.9084;0.8361;
645.6000;0.9109;0.8361;
645.9000;0.9027;0.8142;
646.2000;0.8970;0.8142;
646.5000;0.9019;0.8288;
646.8000;0.9011;0.8288;
647.1000;0.9019;0.8264;
647.4000;0.8987;0.8240;
647.7000;0.8987;0.8240;
648.0000;0.8995;0.8312;
648.3000;0.8978;0.8288;
648.6000;0.8962;0.8337;
648.9000;0.8938;0.8264;
649.2000;0.8921;0.8094;
649.5000;0.8954;0.8215;
649.8000;0.8921;0.8142;
650.1000;0.8905;0.8118;
650.4000;0.8938;0.8240;
650.7000;0.8856;0.8215;
651.0000;0.8856;0.8312;
651.3000;0.8824;0.8191;
651.6000;0.8848;0.8312;
651.9000;0.8799;0.8240;
652.2000;0.8816;0.8312;
652.5000;0.8816;0.8337;
652.8000;0.8791;0.8264;
653.1000;0.8791;0.8264;
653.4000;0.8767;0.8094;
653.7000;0.8775;0.8118;
654.0000;0.8840;0.8434;
654.3000;0.8751;0.8312;
654.6000;0.8751;0.8264;
654.9000;0.8726;0.8288;
655.2000;0.8718;0.8167;
655.5000;0.8710;0.8215;
655.8000;0.8702;0.8240;
656.1000;0.8702;0.8191;
656.4000;0.8677;0.8240;
656.7000;0.8653;0.8215;
657.0000;0.8661;0.8264;
657.3000;0.8694;0.8312;
657.6000;0.8645;0.8142;
657.9000;0.8645;0.8094;
658.2000;0.8620;0.8094;
658.5000;0.8645;0.8215;
658.8000;0.8612;0.8142;
659.1000;0.8628;0.8142;
659.4000;0.8677;0.8240;
659.7000;0.8596;0.8069;
660.0000;0.8588;0.8045;
660.3000;0.8555;0.7972;
660.6000;0.8571;0.8069;
660.9000;0.8580;0.8142;
661.2000;0.8539;0.8191;
661.5000;0.8571;0.8191;
661.8000;0.8563;0.8215;
662.1000;0.8555;0.8167;
662.4000;0.8580;0.8215;
662.7000;0.8604;0.8312;
663.0000;0.8506;0.8118;
663.3000;0.8498;0.8094;
663.6000;0.8417;0.7875;
663.9000;0.8506;0.8021;
664.2000;0.8474;0.7996;
664.5000;0.8466;0.8021;
664.8000;0.8482;0.8118;
665.1000;0.8449;0.8142;
665.4000;0.8457;0.8240;
665.7000;0.8449;0.8118;
666.0000;0.8457;0.8118;
666.3000;0.8376;0.7972;
666.6000;0.8409;0.8045;
666.9000;0.8400;0.8142;
667.2000;0.8457;0.8264;
667.5000;0.8376;0.8094;
667.8000;0.8392;0.8069;
668.1000;0.8400;0.8118;
668.4000;0.8376;0.8191;
668.7000;0.8376;0.8094;
669.0000;0.8392;0.8191;
669.3000;0.8335;0.8069;
669.6000;0.8335;0.7996;
669.9000;0.8352;0.7996;
670.2000;0.8360;0.8021;
670.5000;0.8327;0.8045;
670.8000;0.8319;0.8094;
671.1000;0.8335;0.8191;
671.4000;0.8278;0.8142;
671.7000;0.8287;0.8167;
672.0000;0.8311;0.8191;
672.3000;0.8278;0.8215;
672.6000;0.8295;0.8215;
672.9000;0.8278;0.8215;
673.2000;0.8287;0.8191;
673.5000;0.8287;0.8167;
673.8000;0.8287;0.8240;
674.1000;0.8083;0.7681;
674.4000;0.8254;0.8142;
674.7000;0.8270;0.8288;
675.0000;0.8238;0.8191;
675.3000;0.8254;0.8215;
675.6000;0.8238;0.8094;
675.9000;0.8230;0.8094;
676.2000;0.8238;0.8215;
676.5000;0.8230;0.8215;
676.8000;0.8205;0.8069;
677.1000;0.8246;0.8240;
677.4000;0.8221;0.8215;
677.7000;0.8205;0.8240;
678.0000;0.8181;0.8118;
678.3000;0.8173;0.8240;
678.6000;0.8238;0.8361;
678.9000;0.8270;0.8483;
679.2000;0.8254;0.8483;
679.5000;0.8099;0.8045;
679.8000;0.8148;0.8167;
680.1000;0.8164;0.8215;
680.4000;0.8148;0.8215;
680.7000;0.8181;0.8312;
681.0000;0.8173;0.8240;
681.3000;0.8148;0.8215;
681.6000;0.8116;0.8118;
681.9000;0.8124;0.8191;
682.2000;0.8116;0.8264;
682.5000;0.8124;0.8264;
682.8000;0.8116;0.8264;
683.1000;0.8083;0.8240;
683.4000;0.8107;0.8337;
683.7000;0.8132;0.8410;
684.0000;0.8083;0.8240;
684.3000;0.8083;0.8312;
684.6000;0.8083;0.8167;
684.9000;0.8091;0.8215;
685.2000;0.8067;0.8069;
685.5000;0.8083;0.8191;
685.8000;0.8050;0.8118;
686.1000;0.8050;0.8094;
686.4000;0.8059;0.8167;
686.7000;0.8107;0.8240;
687.0000;0.8042;0.8069;
687.3000;0.8059;0.8069;
687.6000;0.8018;0.8021;
687.9000;0.8042;0.8069;
688.2000;0.8042;0.7996;
688.5000;0.8116;0.8264;
688.8000;0.8018;0.7948;
689.1000;0.8026;0.7875;
689.4000;0.7985;0.7851;
689.7000;0.7985;0.7851;
690.0000;0.8059;0.8021;
690.3000;0.7977;0.7826;
690.6000;0.7993;0.7826;
690.9000;0.7993;0.7778;
691.2000;0.7969;0.7681;
691.5000;0.7961;0.7705;
691.8000;0.7977;0.7851;
692.1000;0.7977;0.7826;
692.4000;0.7961;0.7851;
692.7000;0.7953;0.7924;
693.0000;0.7993;0.8021;
693.3000;0.7953;0.7924;
693.6000;0.7937;0.7924;
693.9000;0.7953;0.8045;
694.2000;0.7945;0.8045;
694.5000;0.7920;0.7948;
694.8000;0.7920;0.7899;
695.1000;0.7937;0.7826;
695.4000;0.7920;0.7826;
695.7000;0.7928;0.7875;
696.0000;0.7912;0.7802;
696.3000;0.7937;0.7705;
696.6000;0.7912;0.7608;
696.9000;0.7928;0.7705;
697.2000;0.7945;0.7826;
697.5000;0.7904;0.7681;
697.8000;0.7912;0.7802;
698.1000;0.7863;0.7729;
698.4000;0.7928;0.7875;
698.7000;0.7937;0.7948;
699.0000;0.7880;0.7826;
699.3000;0.7912;0.7948;
699.6000;0.7880;0.7826;
699.9000;0.7888;0.7924;
700.2000;0.7871;0.7924;
700.5000;0.7863;0.7851;
700.8000;0.7871;0.7875;
701.1000;0.7855;0.7899;
701.4000;0.7855;0.7924;
701.7000;0.7847;0.7899;
702.0000;0.7855;0.7972;
702.3000;0.7847;0.7996;
702.6000;0.7831;0.7996;
702.9000;0.7806;0.8045;
703.2000;0.7880;0.8264;
703.5000;0.7814;0.8142;
703.8000;0.7790;0.7948;
704.1000;0.7814;0.8118;
704.4000;0.7831;0.8094;
704.7000;0.7863;0.8118;
705.0000;0.7766;0.7899;
705.3000;0.7839;0.8142;
705.6000;0.7814;0.8118;
705.9000;0.7749;0.8069;
706.2000;0.7839;0.8288;
706.5000;0.7814;0.8264;
706.8000;0.7790;0.8264;
707.1000;0.7790;0.8337;
707.4000;0.7757;0.8264;
707.7000;0.7790;0.8361;
708.0000;0.7766;0.8264;
708.3000;0.7806;0.8264;
708.6000;0.7782;0.8094;
708.9000;0.7774;0.8167;
709.2000;0.7782;0.8094;
709.5000;0.7774;0.8215;
709.8000;0.7766;0.8264;
710.1000;0.7757;0.8191;
710.4000;0.7766;0.8045;
710.7000;0.7774;0.8094;
711.0000;0.7741;0.7996;
711.3000;0.7749;0.8045;
711.6000;0.7741;0.8069;
711.9000;0.7757;0.8118;
712.2000;0.7757;0.8118;
712.5000;0.7782;0.8264;
712.8000;0.7733;0.8312;
713.1000;0.7741;0.8385;
713.4000;0.7741;0.8434;
713.7000;0.7749;0.8337;
714.0000;0.7725;0.8240;
714.3000;0.7733;0.8240;
714.6000;0.7766;0.8240;
714.9000;0.7733;0.8191;
715.2000;0.7725;0.8142;
715.5000;0.7700;0.8142;
715.8000;0.7725;0.8167;
716.1000;0.7741;0.8215;
716.4000;0.7700;0.8094;
716.7000;0.7700;0.8118;
717.0000;0.7692;0.8069;
717.3000;0.7684;0.8069;
717.6000;0.7700;0.8191;
717.9000;0.7660;0.8094;
718.2000;0.7684;0.8094;
718.5000;0.7700;0.8094;
718.8000;0.7692;0.8142;
719.1000;0.7700;0.8094;
719.4000;0.7692;0.8094;
719.7000;0.7709;0.8142;
720.0000;0.7700;0.8069;
720.3000;0.7652;0.7924;
720.6000;0.7676;0.8069;
720.9000;0.7692;0.8118;
721.2000;0.7676;0.8094;
721.5000;0.7676;0.8069;
721.8000;0.7684;0.8094;
722.1000;0.7652;0.8069;
722.4000;0.7652;0.7996;
722.7000;0.7660;0.8191;
723.0000;0.7660;0.8215;
723.3000;0.7627;0.8167;
723.6000;0.7643;0.8118;
723.9000;0.7676;0.8191;
724.2000;0.7709;0.8312;
724.5000;0.7668;0.8191;
724.8000;0.7643;0.8215;
725.1000;0.7635;0.8240;
725.4000;0.7627;0.8240;
725.7000;0.7684;0.8410;
726.0000;0.7692;0.8483;
726.3000;0.7652;0.8385;
726.6000;0.7554;0.8069;
726.9000;0.7652;0.8264;
727.2000;0.7611;0.8167;
727.5000;0.7668;0.8288;
727.8000;0.7603;0.8215;
728.1000;0.7676;0.8385;
728.4000;0.7725;0.8531;
728.7000;0.7627;0.8337;
729.0000;0.7627;0.8337;
729.3000;0.7611;0.8264;
729.6000;0.7627;0.8385;
729.9000;0.7652;0.8385;
730.2000;0.7595;0.8191;
730.5000;0.7619;0.8264;
730.8000;0.7643;0.8312;
731.1000;0.7603;0.8264;
731.4000;0.7570;0.8288;
731.7000;0.7570;0.8288;
732.0000;0.7595;0.8215;
732.3000;0.7611;0.8240;
732.6000;0.7586;0.8215;
732.9000;0.7611;0.8385;
733.2000;0.7578;0.8288;
733.5000;0.7586;0.8337;
733.8000;0.7595;0.8410;
734.1000;0.7603;0.8361;
734.4000;0.7578;0.8215;
734.7000;0.7562;0.8118;
735.0000;0.7578;0.8069;
735.3000;0.7578;0.8118;
735.6000;0.7570;0.8069;
735.9000;0.7554;0.7996;
736.2000;0.7562;0.7996;
736.5000;0.7586;0.8045;
736.8000;0.7562;0.7875;
737.1000;0.7562;0.7899;
737.4000;0.7578;0.7948;
737.7000;0.7554;0.7875;
738.0000;0.7546;0.7899;
738.3000;0.7538;0.7851;
738.6000;0.7538;0.7875;
738.9000;0.7546;0.7875;
739.2000;0.7554;0.8021;
739.5000;0.7530;0.8045;
739.8000;0.7562;0.8069;
740.1000;0.7546;0.8021;
740.4000;0.7538;0.8094;
740.7000;0.7554;0.8142;
741.0000;0.7546;0.8215;
741.3000;0.7546;0.8142;
741.6000;0.7530;0.8142;
741.9000;0.7530;0.8069;
742.2000;0.7530;0.8069;
742.5000;0.7546;0.8118;
742.8000;0.7530;0.8094;
743.1000;0.7497;0.8045;
743.4000;0.7521;0.8094;
743.7000;0.7521;0.8045;
744.0000;0.7513;0.8021;
744.3000;0.7521;0.8094;
744.6000;0.7554;0.8337;
744.9000;0.7538;0.8264;
745.2000;0.7530;0.8240;
745.5000;0.7546;0.8191;
745.8000;0.7497;0.8045;
746.1000;0.7521;0.8069;
746.4000;0.7513;0.8045;
746.7000;0.7513;0.8118;
747.0000;0.7546;0.8094;
747.3000;0.7497;0.7948;
747.6000;0.7554;0.8167;
747.9000;0.7489;0.8045;
748.2000;0.7505;0.8094;
748.5000;0.7505;0.8094;
748.8000;0.7489;0.8045;
749.1000;0.7513;0.8094;
749.4000;0.7497;0.7996;
749.7000;0.7497;0.7948;
750.0000;0.7505;0.7899;
750.3000;0.7505;0.7924;
750.6000;0.7513;0.7948;
750.9000;0.7513;0.8021;
751.2000;0.7473;0.7996;
751.5000;0.7505;0.8118;
751.8000;0.7464;0.8069;
752.1000;0.7505;0.8094;
752.4000;0.7530;0.8094;
752.7000;0.7456;0.7875;
753.0000;0.7481;0.7972;
753.3000;0.7473;0.7972;
753.6000;0.7456;0.7948;
753.9000;0.7489;0.7996;
754.2000;0.7481;0.7948;
754.5000;0.7456;0.7948;
754.8000;0.7456;0.7972;
755.1000;0.7473;0.8021;
755.4000;0.7391;0.7705;
755.7000;0.7456;0.7875;
756.0000;0.7473;0.7899;
756.3000;0.7440;0.7899;
756.6000;0.7464;0.7996;
756.9000;0.7456;0.8021;
757.2000;0.7456;0.8069;
757.5000;0.7497;0.8215;
757.8000;0.7464;0.8167;
758.1000;0.7456;0.8142;
758.4000;0.7448;0.8142;
758.7000;0.7448;0.8021;
759.0000;0.7464;0.8118;
759.3000;0.7464;0.8094;
759.6000;0.7448;0.8118;
759.9000;0.7432;0.8094;
760.2000;0.7440;0.8094;
760.5000;0.7350;0.7778;
760.8000;0.7440;0.8045;
761.1000;0.7407;0.8118;
761.4000;0.7440;0.8118;
761.7000;0.7424;0.8118;
762.0000;0.7432;0.8094;
762.3000;0.7416;0.8191;
762.6000;0.7424;0.8215;
762.9000;0.7424;0.8069;
763.2000;0.7432;0.8167;
763.5000;0.7481;0.8337;
763.8000;0.7456;0.8191;
764.1000;0.7432;0.8142;
764.4000;0.7440;0.8240;
764.7000;0.7440;0.8288;
765.0000;0.7407;0.8118;
765.3000;0.7416;0.8021;
765.6000;0.7432;0.8021;
765.9000;0.7416;0.8069;
766.2000;0.7424;0.8069;
766.5000;0.7473;0.8167;
766.8000;0.7416;0.7948;
767.1000;0.7383;0.7802;
767.4000;0.7399;0.7996;
767.7000;0.7407;0.8167;
768.0000;0.7407;0.8167;
768.3000;0.7456;0.8167;
768.6000;0.7424;0.8045;
768.9000;0.7399;0.8118;
769.2000;0.7416;0.8045;
769.5000;0.7432;0.8118;
769.8000;0.7399;0.8069;
770.1000;0.7407;0.8191;
770.4000;0.7399;0.8142;
770.7000;0.7407;0.8142;
771.0000;0.7326;0.7899;
771.3000;0.7383;0.8118;
771.6000;0.7391;0.8094;
771.9000;0.7383;0.8021;
772.2000;0.7481;0.8240;
772.5000;0.7375;0.7948;
772.8000;0.7375;0.7924;
773.1000;0.7464;0.8069;
773.4000;0.7407;0.7875;
773.7000;0.7448;0.8045;
774.0000;0.7334;0.7826;
774.3000;0.7391;0.7996;
774.6000;0.7391;0.7996;
774.9000;0.7391;0.7996;
775.2000;0.7342;0.7899;
775.5000;0.7399;0.7996;
775.8000;0.7391;0.7972;
776.1000;0.7391;0.7948;
776.4000;0.7375;0.7924;
776.7000;0.7350;0.7802;
777.0000;0.7383;0.7851;
777.3000;0.7318;0.7753;
777.6000;0.7367;0.7899;
777.9000;0.7375;0.8021;
778.2000;0.7375;0.8045;
778.5000;0.7399;0.8094;
778.8000;0.7367;0.7972;
779.1000;0.7367;0.8021;
779.4000;0.7464;0.8240;
779.7000;0.7367;0.8045;
780.0000;0.7359;0.7972;
780.3000;0.7350;0.7972;
780.6000;0.7367;0.8021;
780.9000;0.7375;0.8021;
781.2000;0.7375;0.8021;
781.5000;0.7407;0.8191;
781.8000;0.7367;0.8142;
782.1000;0.7383;0.8142;
782.4000;0.7350;0.8094;
782.7000;0.7383;0.8045;
783.0000;0.7359;0.7948;
783.3000;0.7383;0.7996;
783.6000;0.7367;0.7924;
783.9000;0.7375;0.7899;
784.2000;0.7359;0.7851;
784.5000;0.7334;0.7851;
784.8000;0.7391;0.8021;
785.1000;0.7350;0.7924;
785.4000;0.7367;0.7996;
785.7000;0.7334;0.7899;
786.0000;0.7367;0.7996;
786.3000;0.7359;0.8021;
786.6000;0.7367;0.8021;
786.9000;0.7350;0.7948;
787.2000;0.7359;0.7924;
787.5000;0.7350;0.7972;
787.8000;0.7334;0.7924;
788.1000;0.7326;0.7948;
788.4000;0.7326;0.7948;
788.7000;0.7359;0.7972;
789.0000;0.7350;0.7899;
789.3000;0.7334;0.7972;
789.6000;0.7391;0.8094;
789.9000;0.7334;0.8021;
790.2000;0.7310;0.8069;
790.5000;0.7326;0.8045;
790.8000;0.7359;0.8191;
791.1000;0.7310;0.7948;
791.4000;0.7293;0.7948;
791.7000;0.7326;0.7899;
792.0000;0.7318;0.7899;
792.3000;0.7326;0.7924;
792.6000;0.7310;0.7851;
792.9000;0.7318;0.7948;
793.2000;0.7302;0.7996;
793.5000;0.7326;0.8021;
793.8000;0.7334;0.8021;
794.1000;0.7359;0.8021;
794.4000;0.7302;0.7924;
794.7000;0.7416;0.8240;
795.0000;0.7269;0.7899;
795.3000;0.7302;0.8094;
795.6000;0.7269;0.8045;
795.9000;0.7302;0.8118;
796.2000;0.7310;0.8118;
796.5000;0.7310;0.8118;
796.8000;0.7326;0.8167;
797.1000;0.7310;0.8191;
797.4000;0.7334;0.8167;
797.7000;0.7407;0.8240;
798.0000;0.7285;0.7899;
798.3000;0.7277;0.7899;
798.6000;0.7318;0.7996;
798.9000;0.7318;0.8045;
799.2000;0.7293;0.7924;
799.5000;0.7302;0.7899;
799.8000;0.7293;0.7851;
800.1000;0.7302;0.7924;
800.4000;0.7293;0.7899;
800.7000;0.7261;0.7778;
801.0000;0.7302;0.7899;
801.3000;0.7302;0.7972;
801.6000;0.7293;0.7996;
801.9000;0.7277;0.7924;
802.2000;0.7293;0.7875;
802.5000;0.7302;0.7851;
802.8000;0.7302;0.7826;
803.1000;0.7277;0.7802;
803.4000;0.7285;0.7924;
803.7000;0.7302;0.7972;
804.0000;0.7302;0.8021;
804.3000;0.7261;0.7996;
804.6000;0.7302;0.8069;
804.9000;0.7293;0.8045;
805.2000;0.7293;0.7972;
805.5000;0.7302;0.8045;
805.8000;0.7302;0.8021;
806.1000;0.7310;0.8021;
806.4000;0.7293;0.8045;
806.7000;0.7293;0.8045;
807.0000;0.7302;0.8094;
807.3000;0.7277;0.7996;
807.6000;0.7293;0.7924;
807.9000;0.7293;0.7924;
808.2000;0.7293;0.7972;
808.5000;0.7277;0.7948;
808.8000;0.7269;0.7948;
809.1000;0.7285;0.7996;
809.4000;0.7277;0.8021;
809.7000;0.7285;0.7972;
810.0000;0.7285;0.7948;
810.3000;0.7302;0.7996;
810.6000;0.7253;0.7851;
810.9000;0.7285;0.7972;
811.2000;0.7302;0.7996;
811.5000;0.7285;0.7948;
811.8000;0.7261;0.7948;
812.1000;0.7269;0.7972;
812.4000;0.7277;0.7948;
812.7000;0.7285;0.7948;
813.0000;0.7285;0.7972;
813.3000;0.7261;0.7948;
813.6000;0.7277;0.7972;
813.9000;0.7310;0.8094;
814.2000;0.7253;0.7948;
814.5000;0.7261;0.8118;
814.8000;0.7253;0.8142;
815.1000;0.7310;0.8240;
815.4000;0.7277;0.8167;
815.7000;0.7253;0.8142;
816.0000;0.7253;0.8021;
816.3000;0.7245;0.7996;
816.6000;0.7253;0.8021;
816.9000;0.7253;0.7996;
817.2000;0.7228;0.7851;
817.5000;0.7253;0.7899;
817.8000;0.7261;0.7924;
818.1000;0.7220;0.7802;
818.4000;0.7261;0.7899;
818.7000;0.7302;0.8118;
819.0000;0.7293;0.8021;
819.3000;0.7253;0.7899;
819.6000;0.7228;0.7802;
819.9000;0.7253;0.7972;
820.2000;0.7245;0.7948;
820.5000;0.7253;0.8021;
820.8000;0.7253;0.7972;
821.1000;0.7228;0.7948;
821.4000;0.7245;0.8069;
821.7000;0.7277;0.8069;
822.0000;0.7236;0.7972;
822.3000;0.7277;0.7972;
822.6000;0.7228;0.7972;
822.9000;0.7245;0.8045;
823.2000;0.7245;0.8021;
823.5000;0.7236;0.7924;
823.8000;0.7245;0.7996;
824.1000;0.7236;0.8021;
824.4000;0.7236;0.7972;
824.7000;0.7236;0.7996;
825.0000;0.7236;0.8021;
825.3000;0.7228;0.7996;
825.6000;0.7245;0.8118;
825.9000;0.7253;0.8069;
826.2000;0.7236;0.7996;
826.5000;0.7261;0.8045;
826.8000;0.7228;0.7996;
827.1000;0.7228;0.8021;
827.4000;0.7228;0.8021;
827.7000;0.7228;0.7948;
828.0000;0.7245;0.8045;
828.3000;0.7236;0.8094;
828.6000;0.7253;0.8167;
828.9000;0.7228;0.8118;
829.2000;0.7261;0.8240;
829.5000;0.7228;0.8118;
829.8000;0.7228;0.8094;
830.1000;0.7245;0.8094;
830.4000;0.7245;0.8069;
830.7000;0.7261;0.8167;
831.0000;0.7155;0.7875;
831.3000;0.7228;0.8094;
831.6000;0.7212;0.7972;
831.9000;0.7220;0.7948;
832.2000;0.7228;0.8021;
832.5000;0.7220;0.7996;
832.8000;0.7220;0.7948;
833.1000;0.7228;0.8045;
833.4000;0.7236;0.8069;
833.7000;0.7236;0.8069;
834.0000;0.7220;0.8045;
834.3000;0.7220;0.8094;
834.6000;0.7188;0.7972;
834.9000;0.7220;0.8142;
835.2000;0.7245;0.8215;
835.5000;0.7155;0.8094;
835.8000;0.7293;0.8458;
836.1000;0.7204;0.8167;
836.4000;0.7204;0.8264;
836.7000;0.7220;0.8312;
837.0000;0.7236;0.8410;
837.3000;0.7204;0.8337;
837.6000;0.7228;0.8483;
837.9000;0.7228;0.8531;
838.2000;0.7245;0.8531;
838.5000;0.7196;0.8385;
838.8000;0.7212;0.8410;
839.1000;0.7196;0.8337;
839.4000;0.7236;0.8312;
839.7000;0.7236;0.8288;
840.0000;0.7212;0.8288;
840.3000;0.7236;0.8361;
840.6000;0.7188;0.8167;
840.9000;0.7236;0.8312;
841.2000;0.7212;0.8191;
841.5000;0.7212;0.8118;
841.8000;0.7245;0.8191;
842.1000;0.7228;0.8215;
842.4000;0.7220;0.8240;
842.7000;0.7212;0.8118;
843.0000;0.7196;0.8118;
843.3000;0.7212;0.8118;
843.6000;0.7220;0.8288;
843.9000;0.7212;0.8312;
844.2000;0.7196;0.8240;
844.5000;0.7196;0.8215;
844.8000;0.7196;0.8191;
845.1000;0.7204;0.8215;
845.4000;0.7179;0.8094;
845.7000;0.7179;0.8069;
846.0000;0.7196;0.8069;
846.3000;0.7293;0.8240;
846.6000;0.7196;0.8069;
846.9000;0.7204;0.8167;
847.2000;0.7212;0.8191;
847.5000;0.7179;0.8094;
847.8000;0.7196;0.8094;
848.1000;0.7188;0.8191;
848.4000;0.7196;0.8215;
848.7000;0.7212;0.8191;
849.0000;0.7196;0.8045;
849.3000;0.7171;0.8094;
849.6000;0.7212;0.8167;
849.9000;0.7196;0.8167;
850.2000;0.7196;0.8118;
850.5000;0.7188;0.8118;
850.8000;0.7228;0.8240;
851.1000;0.7204;0.8142;
851.4000;0.7188;0.8069;
851.7000;0.7196;0.8021;
852.0000;0.7236;0.8142;
852.3000;0.7171;0.8021;
852.6000;0.7228;0.8167;
852.9000;0.7179;0.8045;
853.2000;0.7196;0.8069;
853.5000;0.7171;0.8045;
853.8000;0.7196;0.8021;
854.1000;0.7188;0.7948;
854.4000;0.7212;0.7948;
854.7000;0.7188;0.7851;
855.0000;0.7196;0.7924;
855.3000;0.7179;0.7924;
855.6000;0.7155;0.7899;
855.9000;0.7188;0.7996;
856.2000;0.7179;0.8021;
856.5000;0.7179;0.7972;
856.8000;0.7196;0.8045;
857.1000;0.7188;0.7972;
857.4000;0.7204;0.7996;
857.7000;0.7196;0.7948;
858.0000;0.7196;0.7875;
858.3000;0.7188;0.7875;
858.6000;0.7139;0.7753;
858.9000;0.7179;0.7948;
859.2000;0.7147;0.7948;
859.5000;0.7277;0.8142;
859.8000;0.7147;0.7924;
860.1000;0.7179;0.8021;
860.4000;0.7171;0.8021;
860.7000;0.7188;0.8045;
861.0000;0.7196;0.8069;
861.3000;0.7171;0.8045;
861.6000;0.7171;0.8069;
861.9000;0.7179;0.8094;
862.2000;0.7188;0.8094;
862.5000;0.7196;0.8118;
862.8000;0.7204;0.8118;
863.1000;0.7196;0.8118;
863.4000;0.7188;0.8191;
863.7000;0.7188;0.8191;
864.0000;0.7196;0.8288;
864.3000;0.7277;0.8434;
864.6000;0.7155;0.8240;
864.9000;0.7179;0.8167;
865.2000;0.7147;0.8021;
865.5000;0.7163;0.8094;
865.8000;0.7163;0.8069;
866.1000;0.7163;0.8069;
866.4000;0.7179;0.8118;
866.7000;0.7188;0.8288;
867.0000;0.7171;0.8167;
867.3000;0.7163;0.8215;
867.6000;0.7188;0.8361;
867.9000;0.7204;0.8385;
868.2000;0.7114;0.8240;
868.5000;0.7155;0.8215;
868.8000;0.7163;0.8215;
869.1000;0.7106;0.8045;
869.4000;0.7147;0.8118;
869.7000;0.7155;0.8167;
870.0000;0.7188;0.8264;
870.3000;0.7188;0.8240;
870.6000;0.7163;0.8191;
870.9000;0.7204;0.8240;
871.2000;0.7155;0.8069;
871.5000;0.7188;0.8142;
871.8000;0.7179;0.8118;
872.1000;0.7179;0.8118;
872.4000;0.7163;0.8142;
872.7000;0.7147;0.8118;
873.0000;0.7155;0.8215;
873.3000;0.7171;0.8264;
873.6000;0.7147;0.8337;
873.9000;0.7147;0.8288;
874.2000;0.7171;0.8361;
874.5000;0.7066;0.8142;
874.8000;0.7123;0.8288;
875.1000;0.7139;0.8434;
875.4000;0.7147;0.8434;
875.7000;0.7171;0.8434;
876.0000;0.7155;0.8337;
876.3000;0.7204;0.8458;
876.6000;0.7155;0.8385;
876.9000;0.7131;0.8312;
877.2000;0.7147;0.8288;
877.5000;0.7163;0.8410;
877.8000;0.7171;0.8434;
878.1000;0.7163;0.8385;
878.4000;0.7163;0.8410;
878.7000;0.7163;0.8312;
879.0000;0.7139;0.8337;
879.3000;0.7196;0.8507;
879.6000;0.7163;0.8385;
879.9000;0.7179;0.8361;
880.2000;0.7139;0.8337;
880.5000;0.7139;0.8240;
880.8000;0.7155;0.8264;
881.1000;0.7123;0.8167;
881.4000;0.7131;0.8264;
881.7000;0.7155;0.8288;
882.0000;0.7131;0.8240;
882.3000;0.7155;0.8264;
882.6000;0.7147;0.8361;
882.9000;0.7123;0.8458;
883.2000;0.7147;0.8361;
883.5000;0.7155;0.8288;
883.8000;0.7147;0.8264;
884.1000;0.7147;0.8240;
884.4000;0.7155;0.8167;
884.7000;0.7139;0.8094;
885.0000;0.7147;0.8191;
885.3000;0.7147;0.8240;
885.6000;0.7163;0.8215;
885.9000;0.7171;0.8142;
886.2000;0.7147;0.8240;
886.5000;0.7155;0.8240;
886.8000;0.7131;0.8094;
887.1000;0.7114;0.8021;
887.4000;0.7139;0.8069;
887.7000;0.7106;0.7996;
888.0000;0.7123;0.8021;
888.3000;0.7147;0.8094;
888.6000;0.7147;0.8094;
888.9000;0.7155;0.8167;
889.2000;0.7147;0.8118;
889.5000;0.7155;0.8094;
889.8000;0.7123;0.8045;
890.1000;0.7123;0.8142;
890.4000;0.7114;0.8094;
890.7000;0.7147;0.8167;
891.0000;0.7082;0.7996;
891.3000;0.7074;0.7996;
891.6000;0.7228;0.8410;
891.9000;0.7114;0.8045;
892.2000;0.7074;0.7899;
892.5000;0.7098;0.7972;
892.8000;0.7139;0.8191;
893.1000;0.7155;0.8215;
893.4000;0.7188;0.8215;
893.7000;0.7131;0.8045;
894.0000;0.7163;0.8215;
894.3000;0.7106;0.8118;
894.6000;0.7147;0.8118;
894.9000;0.7131;0.8142;
895.2000;0.7220;0.8337;
895.5000;0.7163;0.8264;
895.8000;0.7139;0.8191;
896.1000;0.7179;0.8240;
896.4000;0.7163;0.8240;
896.7000;0.7147;0.8240;
897.0000;0.7131;0.8191;
897.3000;0.7082;0.8021;
897.6000;0.7131;0.8191;
897.9000;0.7139;0.8240;
898.2000;0.7155;0.8288;
898.5000;0.7147;0.8240;
898.8000;0.7131;0.8191;
899.1000;0.7114;0.8191;
899.4000;0.7155;0.8240;
899.7000;0.7139;0.8264;
900.0000;0.7147;0.8240;
900.3000;0.7114;0.8191;
900.6000;0.7139;0.8191;
900.9000;0.7123;0.8240;
901.2000;0.7131;0.8094;
901.5000;0.7098;0.7972;
901.8000;0.7123;0.8045;
902.1000;0.7147;0.8118;
902.4000;0.7131;0.8118;
902.7000;0.7123;0.8167;
903.0000;0.7147;0.8142;
903.3000;0.7147;0.8240;
903.6000;0.7171;0.8264;
903.9000;0.7131;0.8118;
904.2000;0.7098;0.7948;
904.5000;0.7114;0.7826;
904.8000;0.7131;0.7851;
905.1000;0.7131;0.7924;
905.4000;0.7033;0.7778;
905.7000;0.7098;0.7899;
906.0000;0.7131;0.8069;
906.3000;0.7131;0.8167;
906.6000;0.7131;0.8118;
906.9000;0.7114;0.7996;
907.2000;0.7171;0.8021;
907.5000;0.7139;0.8069;
907.8000;0.7131;0.8094;
908.1000;0.7131;0.8215;
908.4000;0.7179;0.8361;
908.7000;0.7017;0.7924;
909.0000;0.7131;0.8142;
909.3000;0.7123;0.8142;
909.6000;0.7131;0.8118;
909.9000;0.7114;0.8118;
910.2000;0.7123;0.8094;
910.5000;0.7163;0.8094;
910.8000;0.7123;0.8021;
911.1000;0.7057;0.7899;
911.4000;0.7131;0.8094;
911.7000;0.7139;0.8167;
912.0000;0.7106;0.8142;
912.3000;0.7114;0.8142;
912.6000;0.7114;0.8191;
912.9000;0.7098;0.8142;
913.2000;0.7228;0.8458;
913.5000;0.7033;0.7996;
913.8000;0.7098;0.8118;
914.1000;0.7098;0.8167;
914.4000;0.7131;0.8264;
914.7000;0.7123;0.8361;
915.0000;0.7123;0.8385;
915.3000;0.7098;0.8361;
915.6000;0.7114;0.8385;
915.9000;0.7114;0.8337;
916.2000;0.7114;0.8385;
916.5000;0.7033;0.8191;
916.8000;0.7123;0.8337;
917.1000;0.7106;0.8264;
917.4000;0.7082;0.8264;
917.7000;0.7114;0.8264;
918.0000;0.7106;0.8167;
918.3000;0.7123;0.8288;
918.6000;0.7123;0.8264;
918.9000;0.7114;0.8288;
919.2000;0.7188;0.8361;
919.5000;0.7106;0.8094;
919.8000;0.7114;0.8142;
920.1000;0.7123;0.8264;
920.4000;0.7090;0.8191;
920.7000;0.7090;0.8191;
921.0000;0.7114;0.8264;
921.3000;0.7090;0.8312;
921.6000;0.7082;0.8240;
921.9000;0.7106;0.8337;
922.2000;0.7082;0.8288;
922.5000;0.7179;0.8507;
922.8000;0.7098;0.8361;
923.1000;0.7090;0.8337;
923.4000;0.7106;0.8385;
923.7000;0.7106;0.8434;
924.0000;0.7114;0.8483;
924.3000;0.7057;0.8385;
924.6000;0.7131;0.8458;
924.9000;0.7098;0.8483;
925.2000;0.7155;0.8580;
925.5000;0.7106;0.8483;
925.8000;0.7098;0.8458;
926.1000;0.7179;0.8653;
926.4000;0.7090;0.8434;
926.7000;0.7114;0.8458;
927.0000;0.7090;0.8337;
927.3000;0.7098;0.8385;
927.6000;0.7123;0.8410;
927.9000;0.7074;0.8434;
928.2000;0.7074;0.8434;
928.5000;0.7106;0.8458;
928.8000;0.7082;0.8361;
929.1000;0.7123;0.8434;
929.4000;0.6992;0.8142;
929.7000;0.7082;0.8483;
930.0000;0.7098;0.8458;
930.3000;0.7155;0.8556;
930.6000;0.7057;0.8288;
930.9000;0.7114;0.8361;
931.2000;0.7090;0.8361;
931.5000;0.7123;0.8507;
931.8000;0.7155;0.8653;
932.1000;0.7090;0.8604;
932.4000;0.7066;0.8483;
932.7000;0.7074;0.8531;
933.0000;0.7090;0.8507;
933.3000;0.7082;0.8458;
933.6000;0.7098;0.8531;
933.9000;0.7082;0.8458;
934.2000;0.7082;0.8385;
934.5000;0.7098;0.8385;
934.8000;0.7082;0.8410;
935.1000;0.7017;0.8240;
935.4000;0.7074;0.8337;
935.7000;0.7114;0.8312;
936.0000;0.7106;0.8312;
936.3000;0.7082;0.8264;
936.6000;0.7123;0.8312;
936.9000;0.7090;0.8264;
937.2000;0.7074;0.8240;
937.5000;0.7098;0.8288;
937.8000;0.7074;0.8240;
938.1000;0.7082;0.8361;
938.4000;0.7082;0.8337;
938.7000;0.7082;0.8337;
939.0000;0.7090;0.8385;
939.3000;0.7098;0.8385;
939.6000;0.7082;0.8337;
939.9000;0.7082;0.8410;
940.2000;0.7131;0.8604;
940.5000;0.7114;0.8507;
940.8000;0.7082;0.8507;
941.1000;0.7098;0.8531;
941.4000;0.7090;0.8483;
941.7000;0.7090;0.8361;
942.0000;0.7082;0.8337;
942.3000;0.7123;0.8458;
942.6000;0.7082;0.8434;
942.9000;0.7090;0.8483;
943.2000;0.7074;0.8434;
943.5000;0.7090;0.8434;
943.8000;0.7090;0.8458;
944.1000;0.7090;0.8458;
944.4000;0.7066;0.8410;
944.7000;0.7098;0.8458;
945.0000;0.7082;0.8385;
945.3000;0.7131;0.8531;
945.6000;0.7074;0.8458;
945.9000;0.7098;0.8434;
946.2000;0.7090;0.8410;
946.5000;0.7074;0.8312;
946.8000;0.7106;0.8264;
947.1000;0.7106;0.8385;
947.4000;0.7074;0.8337;
947.7000;0.7066;0.8361;
948.0000;0.7082;0.8385;
948.3000;0.7074;0.8337;
948.6000;0.7074;0.8240;
948.9000;0.7082;0.8264;
949.2000;0.7082;0.8312;
949.5000;0.7082;0.8410;
949.8000;0.7066;0.8458;
950.1000;0.7066;0.8507;
950.4000;0.7074;0.8507;
950.7000;0.7106;0.8556;
951.0000;0.7074;0.8483;
951.3000;0.7114;0.8507;
951.6000;0.7074;0.8385;
951.9000;0.7098;0.8312;
952.2000;0.7106;0.8288;
952.5000;0.7074;0.8215;
952.8000;0.7082;0.8240;
953.1000;0.7082;0.8215;
953.4000;0.7179;0.8483;
953.7000;0.7082;0.8167;
954.0000;0.7082;0.8215;
954.3000;0.7082;0.8142;
954.6000;0.7082;0.8118;
954.9000;0.7106;0.8240;
955.2000;0.7090;0.8337;
955.5000;0.7098;0.8458;
955.8000;0.7082;0.8434;
956.1000;0.7082;0.8434;
956.4000;0.7155;0.8750;
956.7000;0.7074;0.8653;
957.0000;0.7098;0.8774;
957.3000;0.7074;0.8604;
957.6000;0.7082;0.8556;
957.9000;0.7057;0.8483;
958.2000;0.7082;0.8531;
958.5000;0.7090;0.8507;
958.8000;0.7131;0.8507;
959.1000;0.7057;0.8264;
959.4000;0.7057;0.8385;
959.7000;0.7066;0.8458;
960.0000;0.7057;0.8434;
960.3000;0.7074;0.8483;
960.6000;0.7000;0.8337;
960.9000;0.7066;0.8385;
961.2000;0.7066;0.8312;
961.5000;0.7066;0.8264;
961.8000;0.7074;0.8240;
962.1000;0.7049;0.8264;
962.4000;0.7074;0.8361;
962.7000;0.7066;0.8361;
963.0000;0.7025;0.8361;
963.3000;0.7049;0.8434;
963.6000;0.7049;0.8434;
963.9000;0.7049;0.8361;
964.2000;0.7074;0.8385;
964.5000;0.7066;0.8361;
964.8000;0.7057;0.8361;
965.1000;0.7074;0.8361;
965.4000;0.7074;0.8410;
965.7000;0.7066;0.8458;
966.0000;0.7057;0.8434;
966.3000;0.7106;0.8531;
966.6000;0.7041;0.8385;
966.9000;0.7041;0.8361;
967.2000;0.7098;0.8434;
967.5000;0.7057;0.8385;
967.8000;0.7066;0.8458;
968.1000;0.7066;0.8458;
968.4000;0.7066;0.8507;
968.7000;0.7066;0.8410;
969.0000;0.7049;0.8312;
969.3000;0.7066;0.8410;
969.6000;0.7074;0.8458;
969.9000;0.7049;0.8483;
970.2000;0.7066;0.8483;
970.5000;0.7074;0.8483;
970.8000;0.7082;0.8580;
971.1000;0.7082;0.8556;
971.4000;0.7106;0.8531;
971.7000;0.7041;0.8337;
972.0000;0.7066;0.8312;
972.3000;0.7066;0.8410;
972.6000;0.7066;0.8410;
972.9000;0.7049;0.8288;
973.2000;0.7057;0.8337;
973.5000;0.7074;0.8410;
973.8000;0.7066;0.8240;
974.1000;0.7049;0.8215;
974.4000;0.7090;0.8337;
974.7000;0.7033;0.8167;
975.0000;0.7049;0.8240;
975.3000;0.7057;0.8264;
975.6000;0.7049;0.8264;
975.9000;0.7066;0.8312;
976.2000;0.7098;0.8410;
976.5000;0.7049;0.8264;
976.8000;0.7049;0.8337;
977.1000;0.7066;0.8434;
977.4000;0.7049;0.8434;
977.7000;0.7049;0.8604;
978.0000;0.7049;0.8556;
978.3000;0.7057;0.8483;
978.6000;0.7066;0.8531;
978.9000;0.7041;0.8458;
979.2000;0.7057;0.8507;
979.5000;0.7057;0.8507;
979.8000;0.7041;0.8385;
980.1000;0.7057;0.8410;
980.4000;0.7066;0.8434;
980.7000;0.7041;0.8434;
981.0000;0.7025;0.8312;
981.3000;0.7049;0.8361;
981.6000;0.7066;0.8337;
981.9000;0.7041;0.8337;
982.2000;0.7066;0.8361;
982.5000;0.7066;0.8312;
982.8000;0.7066;0.8337;
983.1000;0.7066;0.8361;
983.4000;0.7057;0.8410;
983.7000;0.7066;0.8458;
984.0000;0.7049;0.8458;
984.3000;0.7033;0.8483;
984.6000;0.7009;0.8483;
984.9000;0.7074;0.8701;
985.2000;0.7082;0.8677;
985.5000;0.7041;0.8556;
985.8000;0.7017;0.8434;
986.1000;0.7025;0.8410;
986.4000;0.7009;0.8337;
986.7000;0.7041;0.8361;
987.0000;0.7025;0.8361;
987.3000;0.7057;0.8434;
987.6000;0.7041;0.8361;
987.9000;0.7033;0.8410;
988.2000;0.7049;0.8531;
988.5000;0.7041;0.8531;
988.8000;0.7041;0.8458;
989.1000;0.7033;0.8531;
989.4000;0.6984;0.8458;
989.7000;0.7057;0.8701;
990.0000;0.7025;0.8677;
990.3000;0.7009;0.8628;
990.6000;0.7057;0.8653;
990.9000;0.7025;0.8628;
991.2000;0.7041;0.8628;
991.5000;0.7041;0.8556;
991.8000;0.7049;0.8604;
992.1000;0.7041;0.8653;
992.4000;0.7049;0.8580;
992.7000;0.7090;0.8604;
993.0000;0.7074;0.8531;
993.3000;0.7049;0.8556;
993.6000;0.7033;0.8531;
993.9000;0.7041;0.8507;
994.2000;0.7041;0.8556;
994.5000;0.7049;0.8580;
994.8000;0.7033;0.8458;
995.1000;0.7033;0.8337;
995.4000;0.7057;0.8361;
995.7000;0.7098;0.8458;
996.0000;0.7041;0.8410;
996.3000;0.7049;0.8434;
996.6000;0.7041;0.8385;
996.9000;0.7041;0.8288;
997.2000;0.7074;0.8361;
997.5000;0.7041;0.8337;
997.8000;0.7009;0.8337;
998.1000;0.7049;0.8434;
998.4000;0.7041;0.8385;
998.7000;0.7033;0.8312;
999.0000;0.7025;0.8361;
999.3000;0.7033;0.8410;
999.6000;0.7033;0.8337;
999.9000;0.7041;0.8434;
1000.2000;0.7041;0.8361;
1000.5000;0.7098;0.8483;
1000.8000;0.7049;0.8434;
1001.1000;0.7033;0.8337;
1001.4000;0.7033;0.8264;
1001.7000;0.7033;0.8264;
1002.0000;0.7041;0.8264;
1002.3000;0.7033;0.8288;
1002.6000;0.7041;0.8240;
1002.9000;0.7049;0.8264;
1003.2000;0.7025;0.8288;
1003.5000;0.7057;0.8361;
1003.8000;0.7049;0.8385;
1004.1000;0.7049;0.8434;
1004.4000;0.7049;0.8483;
1004.7000;0.7017;0.8410;
1005.0000;0.7066;0.8483;
1005.3000;0.7057;0.8458;
1005.6000;0.7041;0.8531;
1005.9000;0.7033;0.8434;
1006.2000;0.7009;0.8385;
1006.5000;0.7025;0.8434;
1006.8000;0.7009;0.8434;
1007.1000;0.7074;0.8604;
1007.4000;0.7033;0.8361;
1007.7000;0.7106;0.8507;
1008.0000;0.7033;0.8361;
1008.3000;0.7066;0.8385;
1008.6000;0.7066;0.8410;
1008.9000;0.6935;0.8142;
1009.2000;0.7025;0.8410;
1009.5000;0.7066;0.8604;
1009.8000;0.7025;0.8507;
1010.1000;0.7025;0.8458;
1010.4000;0.7049;0.8556;
1010.7000;0.7033;0.8580;
1011.0000;0.7123;0.8799;
1011.3000;0.6984;0.8458;
1011.6000;0.7033;0.8507;
1011.9000;0.7025;0.8483;
1012.2000;0.7041;0.8580;
1012.5000;0.7017;0.8483;
1012.8000;0.7017;0.8434;
1013.1000;0.7033;0.8531;
1013.4000;0.7025;0.8580;
1013.7000;0.7025;0.8531;
1014.0000;0.7025;0.8507;
1014.3000;0.7025;0.8580;
1014.6000;0.7033;0.8653;
1014.9000;0.7033;0.8653;
1015.2000;0.7041;0.8726;
1015.5000;0.7049;0.8628;
1015.8000;0.7033;0.8580;
1016.1000;0.7025;0.8507;
1016.4000;0.7041;0.8507;
1016.7000;0.7033;0.8385;
1017.0000;0.7057;0.8458;
1017.3000;0.7049;0.8458;
1017.6000;0.7049;0.8604;
1017.9000;0.7025;0.8556;
1018.2000;0.7033;0.8507;
1018.5000;0.7041;0.8556;
1018.8000;0.7017;0.8507;
1019.1000;0.7033;0.8556;
1019.4000;0.7049;0.8556;
1019.7000;0.7025;0.8507;
1020.0000;0.7017;0.8434;
1020.3000;0.7049;0.8483;
1020.6000;0.7025;0.8580;
1020.9000;0.7066;0.8677;
1021.2000;0.7049;0.8604;
1021.5000;0.7017;0.8531;
1021.8000;0.7041;0.8556;
1022.1000;0.7000;0.8458;
1022.4000;0.7041;0.8556;
1022.7000;0.7017;0.8385;
1023.0000;0.7017;0.8410;
1023.3000;0.7025;0.8410;
1023.6000;0.7025;0.8507;
1023.9000;0.7000;0.8458;
1024.2000;0.7017;0.8483;
1024.5000;0.7033;0.8580;
1024.8000;0.7033;0.8628;
1025.1000;0.7025;0.8677;
1025.4000;0.7049;0.8677;
1025.7000;0.7049;0.8701;
1026.0000;0.7033;0.8604;
1026.3000;0.7025;0.8726;
1026.6000;0.6992;0.8726;
1026.9000;0.7017;0.8726;
1027.2000;0.7025;0.8701;
1027.5000;0.7009;0.8604;
1027.8000;0.7033;0.8750;
1028.1000;0.7057;0.8823;
1028.4000;0.7025;0.8653;
1028.7000;0.7009;0.8604;
1029.0000;0.7017;0.8653;
1029.3000;0.7025;0.8580;
1029.6000;0.6992;0.8507;
1029.9000;0.7017;0.8677;
1030.2000;0.7000;0.8701;
1030.5000;0.7057;0.8799;
1030.8000;0.7017;0.8701;
1031.1000;0.6952;0.8531;
1031.4000;0.7025;0.8701;
1031.7000;0.7090;0.8993;
1032.0000;0.7025;0.8726;
1032.3000;0.7025;0.8726;
1032.6000;0.7017;0.8701;
1032.9000;0.6984;0.8701;
1033.2000;0.6984;0.8677;
1033.5000;0.6992;0.8677;
1033.8000;0.7009;0.8701;
1034.1000;0.7009;0.8701;
1034.4000;0.7000;0.8653;
1034.7000;0.7000;0.8604;
1035.0000;0.7000;0.8531;
1035.3000;0.7049;0.8653;
1035.6000;0.7009;0.8507;
1035.9000;0.7017;0.8434;
1036.2000;0.7017;0.8458;
1036.5000;0.7017;0.8507;
1036.8000;0.7025;0.8531;
1037.1000;0.7025;0.8507;
1037.4000;0.7033;0.8580;
1037.7000;0.7000;0.8507;
1038.0000;0.7009;0.8483;
1038.3000;0.7025;0.8628;
1038.6000;0.7041;0.8628;
1038.9000;0.7009;0.8628;
1039.2000;0.7025;0.8653;
1039.5000;0.7009;0.8628;
1039.8000;0.7017;0.8628;
1040.1000;0.7017;0.8580;
1040.4000;0.7000;0.8410;
1040.7000;0.7000;0.8434;
1041.0000;0.7009;0.8507;
1041.3000;0.7000;0.8434;
1041.6000;0.7033;0.8507;
1041.9000;0.7017;0.8531;
1042.2000;0.6992;0.8531;
1042.5000;0.7033;0.8653;
1042.8000;0.7009;0.8628;
1043.1000;0.6992;0.8628;
1043.4000;0.7025;0.8677;
1043.7000;0.7017;0.8580;
1044.0000;0.7009;0.8580;
1044.3000;0.7017;0.8580;
1044.6000;0.7000;0.8531;
1044.9000;0.7000;0.8483;
1045.2000;0.6976;0.8410;
1045.5000;0.7041;0.8604;
1045.8000;0.7000;0.8507;
1046.1000;0.6960;0.8458;
1046.4000;0.6992;0.8580;
1046.7000;0.6992;0.8604;
1047.0000;0.7000;0.8531;
1047.3000;0.7009;0.8580;
1047.6000;0.6976;0.8531;
1047.9000;0.7009;0.8653;
1048.2000;0.7000;0.8604;
1048.5000;0.7000;0.8628;
1048.8000;0.7000;0.8677;
1049.1000;0.7025;0.8701;
1049.4000;0.7000;0.8701;
1049.7000;0.7000;0.8750;
1050.0000;0.7000;0.8701;
1050.3000;0.7017;0.8677;
1050.6000;0.6943;0.8507;
1050.9000;0.7025;0.8701;
1051.2000;0.6976;0.8628;
1051.5000;0.7025;0.8701;
1051.8000;0.7017;0.8653;
1052.1000;0.7017;0.8604;
1052.4000;0.6992;0.8604;
1052.7000;0.7033;0.8726;
1053.0000;0.7025;0.8677;
1053.3000;0.6984;0.8580;
1053.6000;0.7009;0.8701;
1053.9000;0.7009;0.8653;
1054.2000;0.7000;0.8628;
1054.5000;0.7009;0.8604;
1054.8000;0.7009;0.8653;
1055.1000;0.7057;0.8799;
1055.4000;0.7082;0.8847;
1055.7000;0.7017;0.8701;
1056.0000;0.7000;0.8531;
1056.3000;0.7017;0.8483;
1056.6000;0.7033;0.8531;
1056.9000;0.7033;0.8507;
1057.2000;0.7025;0.8507;
1057.5000;0.7025;0.8483;
1057.8000;0.7017;0.8556;
1058.1000;0.7009;0.8604;
1058.4000;0.6960;0.8434;
1058.7000;0.6992;0.8507;
1059.0000;0.7033;0.8628;
1059.3000;0.7000;0.8556;
1059.6000;0.7009;0.8556;
1059.9000;0.6992;0.8531;
1060.2000;0.7000;0.8556;
1060.5000;0.7000;0.8531;
1060.8000;0.7000;0.8580;
1061.1000;0.6984;0.8531;
1061.4000;0.6976;0.8556;
1061.7000;0.6968;0.8580;
1062.0000;0.7017;0.8750;
1062.3000;0.6984;0.8653;
1062.6000;0.7017;0.8726;
1062.9000;0.7000;0.8604;
1063.2000;0.7033;0.8677;
1063.5000;0.6984;0.8531;
1063.8000;0.7009;0.8604;
1064.1000;0.7017;0.8701;
1064.4000;0.6992;0.8531;
1064.7000;0.6984;0.8556;
1065.0000;0.6976;0.8531;
1065.3000;0.6992;0.8507;
1065.6000;0.7009;0.8580;
1065.9000;0.7049;0.8653;
1066.2000;0.6952;0.8410;
1066.5000;0.7017;0.8531;
1066.8000;0.6968;0.8410;
1067.1000;0.7049;0.8701;
1067.4000;0.6968;0.8507;
1067.7000;0.7009;0.8580;
1068.0000;0.6952;0.8385;
1068.3000;0.7017;0.8604;
1068.6000;0.7000;0.8580;
1068.9000;0.7017;0.8677;
1069.2000;0.7017;0.8653;
1069.5000;0.6992;0.8531;
1069.8000;0.6992;0.8507;
1070.1000;0.6976;0.8507;
1070.4000;0.7017;0.8604;
1070.7000;0.7000;0.8580;
1071.0000;0.7009;0.8483;
1071.3000;0.6976;0.8312;
1071.6000;0.7009;0.8385;
1071.9000;0.7000;0.8385;
1072.2000;0.6935;0.8167;
1072.5000;0.7009;0.8385;
1072.8000;0.6992;0.8385;
1073.1000;0.7000;0.8458;
1073.4000;0.6984;0.8410;
1073.7000;0.7000;0.8483;
1074.0000;0.7009;0.8507;
1074.3000;0.7009;0.8458;
1074.6000;0.6976;0.8361;
1074.9000;0.6935;0.8312;
1075.2000;0.7000;0.8458;
1075.5000;0.6992;0.8410;
1075.8000;0.7009;0.8507;
1076.1000;0.7000;0.8434;
1076.4000;0.7000;0.8337;
1076.7000;0.6976;0.8337;
1077.0000;0.7000;0.8410;
1077.3000;0.6984;0.8337;
1077.6000;0.6992;0.8385;
1077.9000;0.6927;0.8312;
1078.2000;0.7049;0.8604;
1078.5000;0.6984;0.8483;
1078.8000;0.6984;0.8410;
1079.1000;0.6984;0.8434;
1079.4000;0.7090;0.8823;
1079.7000;0.7000;0.8507;
1080.0000;0.6992;0.8458;
1080.3000;0.7000;0.8556;
1080.6000;0.7000;0.8580;
1080.9000;0.6984;0.8580;
1081.2000;0.7017;0.8556;
1081.5000;0.6927;0.8385;
1081.8000;0.7009;0.8677;
1082.1000;0.6992;0.8653;
1082.4000;0.7009;0.8628;
1082.7000;0.7000;0.8604;
1083.0000;0.7009;0.8677;
1083.3000;0.7066;0.8774;
1083.6000;0.6927;0.8410;
1083.9000;0.7000;0.8604;
1084.2000;0.6992;0.8580;
1084.5000;0.6992;0.8483;
1084.8000;0.7009;0.8434;
1085.1000;0.6984;0.8410;
1085.4000;0.6976;0.8556;
1085.7000;0.7009;0.8701;
1086.0000;0.7000;0.8677;
1086.3000;0.7000;0.8701;
1086.6000;0.7000;0.8604;
1086.9000;0.7009;0.8726;
1087.2000;0.7000;0.8677;
1087.5000;0.7000;0.8701;
1087.8000;0.6992;0.8701;
1088.1000;0.6992;0.8701;
1088.4000;0.6984;0.8604;
1088.7000;0.6976;0.8556;
1089.0000;0.6976;0.8458;
1089.3000;0.6984;0.8507;
1089.6000;0.6976;0.8556;
1089.9000;0.6984;0.8507;
1090.2000;0.6968;0.8483;
1090.5000;0.6976;0.8531;
1090.8000;0.7017;0.8556;
1091.1000;0.6992;0.8410;
1091.4000;0.6992;0.8410;
1091.7000;0.6992;0.8458;
1092.0000;0.6984;0.8410;
1092.3000;0.6968;0.8361;
1092.6000;0.6992;0.8507;
1092.9000;0.7000;0.8483;
1093.2000;0.7000;0.8531;
1093.5000;0.6992;0.8531;
1093.8000;0.6984;0.8410;
1094.1000;0.6984;0.8337;
1094.4000;0.6992;0.8385;
1094.7000;0.7009;0.8483;
1095.0000;0.6960;0.8385;
1095.3000;0.6976;0.8337;
1095.6000;0.7000;0.8361;
1095.9000;0.6992;0.8434;
1096.2000;0.6976;0.8434;
1096.5000;0.6968;0.8385;
1096.8000;0.6968;0.8458;
1097.1000;0.6984;0.8483;
1097.4000;0.7009;0.8483;
1097.7000;0.6992;0.8434;
1098.0000;0.6968;0.8385;
1098.3000;0.6992;0.8361;
1098.6000;0.7000;0.8410;
1098.9000;0.6976;0.8312;
1099.2000;0.7000;0.8385;
1099.5000;0.6960;0.8410;
1099.8000;0.6984;0.8434;
1100.1000;0.6960;0.8361;
1100.4000;0.6992;0.8434;
1100.7000;0.6984;0.8434;
1101.0000;0.7033;0.8483;
1101.3000;0.6984;0.8385;
1101.6000;0.6992;0.8434;
1101.9000;0.6992;0.8337;
1102.2000;0.7000;0.8361;
1102.5000;0.6984;0.8337;
1102.8000;0.7033;0.8458;
1103.1000;0.6960;0.8385;
1103.4000;0.6984;0.8410;
1103.7000;0.6992;0.8434;
1104.0000;0.6984;0.8458;
1104.3000;0.6984;0.8458;
1104.6000;0.6968;0.8361;
1104.9000;0.6976;0.8434;
1105.2000;0.6968;0.8385;
1105.5000;0.7000;0.8531;
1105.8000;0.6952;0.8507;
1106.1000;0.6992;0.8628;
1106.4000;0.6960;0.8531;
1106.7000;0.6968;0.8604;
1107.0000;0.6976;0.8580;
1107.3000;0.6968;0.8580;
1107.6000;0.6976;0.8580;
1107.9000;0.6992;0.8677;
1108.2000;0.6984;0.8677;
1108.5000;0.6976;0.8653;
1108.8000;0.7033;0.8726;
1109.1000;0.6992;0.8653;
1109.4000;0.6992;0.8628;
1109.7000;0.7009;0.8604;
1110.0000;0.6976;0.8556;
1110.3000;0.6976;0.8458;
1110.6000;0.7000;0.8507;
1110.9000;0.6968;0.8458;
1111.2000;0.6984;0.8580;
1111.5000;0.7000;0.8628;
1111.8000;0.7009;0.8677;
1112.1000;0.6992;0.8604;
1112.4000;0.6992;0.8726;
1112.7000;0.6976;0.8653;
1113.0000;0.7000;0.8604;
1113.3000;0.6992;0.8604;
1113.6000;0.6992;0.8556;
1113.9000;0.6968;0.8507;
1114.2000;0.6968;0.8483;
1114.5000;0.6968;0.8434;
1114.8000;0.7049;0.8677;
1115.1000;0.6984;0.8458;
1115.4000;0.6943;0.8385;
1115.7000;0.6968;0.8531;
1116.0000;0.6968;0.8677;
1116.3000;0.6984;0.8653;
1116.6000;0.7017;0.8677;
1116.9000;0.6968;0.8458;
1117.2000;0.6968;0.8458;
1117.5000;0.6968;0.8531;
1117.8000;0.6968;0.8483;
1118.1000;0.6968;0.8458;
1118.4000;0.6984;0.8483;
1118.7000;0.6960;0.8385;
1119.0000;0.6984;0.8507;
1119.3000;0.6984;0.8458;
1119.6000;0.6976;0.8385;
1119.9000;0.6984;0.8361;
1120.2000;0.6952;0.8312;
1120.5000;0.6984;0.8385;
1120.8000;0.6984;0.8434;
1121.1000;0.6976;0.8361;
1121.4000;0.7000;0.8434;
1121.7000;0.6960;0.8361;
1122.0000;0.6984;0.8434;
1122.3000;0.7000;0.8507;
1122.6000;0.7000;0.8507;
1122.9000;0.6976;0.8458;
1123.2000;0.6984;0.8434;
1123.5000;0.6984;0.8385;
1123.8000;0.6976;0.8385;
1124.1000;0.6976;0.8385;
1124.4000;0.6968;0.8385;
1124.7000;0.6968;0.8337;
1125.0000;0.6976;0.8361;
1125.3000;0.7017;0.8507;
1125.6000;0.6984;0.8361;
1125.9000;0.7057;0.8628;
1126.2000;0.6968;0.8361;
1126.5000;0.6968;0.8288;
1126.8000;0.6976;0.8337;
1127.1000;0.6919;0.8191;
1127.4000;0.6976;0.8312;
1127.7000;0.6968;0.8361;
1128.0000;0.6976;0.8312;
1128.3000;0.6960;0.8312;
1128.6000;0.6960;0.8288;
1128.9000;0.6943;0.8288;
1129.2000;0.6984;0.8361;
1129.5000;0.6968;0.8434;
1129.8000;0.6976;0.8483;
1130.1000;0.6976;0.8531;
1130.4000;0.6976;0.8507;
1130.7000;0.6968;0.8507;
1131.0000;0.6968;0.8458;
1131.3000;0.6952;0.8337;
1131.6000;0.6968;0.8458;
1131.9000;0.6952;0.8410;
1132.2000;0.6976;0.8458;
1132.5000;0.7009;0.8483;
1132.8000;0.6960;0.8385;
1133.1000;0.6992;0.8458;
1133.4000;0.7000;0.8458;
1133.7000;0.7000;0.8410;
1134.0000;0.6992;0.8458;
1134.3000;0.6960;0.8312;
1134.6000;0.6976;0.8288;
1134.9000;0.6968;0.8312;
1135.2000;0.6976;0.8264;
1135.5000;0.7000;0.8288;
1135.8000;0.7009;0.8312;
1136.1000;0.6976;0.8191;
1136.4000;0.6984;0.8215;
1136.7000;0.6984;0.8337;
1137.0000;0.6960;0.8264;
1137.3000;0.6984;0.8312;
1137.6000;0.6903;0.8167;
1137.9000;0.6984;0.8458;
1138.2000;0.6952;0.8458;
1138.5000;0.6886;0.8142;
1138.8000;0.6968;0.8288;
1139.1000;0.6919;0.8215;
1139.4000;0.6903;0.8312;
1139.7000;0.6952;0.8458;
1140.0000;0.6952;0.8458;
1140.3000;0.6968;0.8556;
1140.6000;0.6952;0.8531;
1140.9000;0.6943;0.8556;
1141.2000;0.7000;0.8726;
1141.5000;0.6984;0.8726;
1141.8000;0.6935;0.8604;
1142.1000;0.7049;0.8750;
1142.4000;0.6968;0.8507;
1142.7000;0.6984;0.8434;
1143.0000;0.6968;0.8385;
1143.3000;0.6968;0.8361;
1143.6000;0.6992;0.8410;
1143.9000;0.6968;0.8361;
1144.2000;0.6984;0.8410;
1144.5000;0.7009;0.8483;
1144.8000;0.6976;0.8385;
1145.1000;0.6968;0.8312;
1145.4000;0.6984;0.8385;
1145.7000;0.6984;0.8361;
1146.0000;0.6968;0.8361;
1146.3000;0.6992;0.8434;
1146.6000;0.6984;0.8337;
1146.9000;0.6935;0.8240;
1147.2000;0.6976;0.8361;
1147.5000;0.6984;0.8337;
1147.8000;0.6984;0.8361;
1148.1000;0.6968;0.8337;
1148.4000;0.6976;0.8337;
1148.7000;0.6943;0.8191;
1149.0000;0.6992;0.8240;
1149.3000;0.6952;0.8191;
1149.6000;0.6984;0.8288;
1149.9000;0.7000;0.8288;
1150.2000;0.6960;0.8240;
1150.5000;0.6976;0.8288;
1150.8000;0.6960;0.8240;
1151.1000;0.6960;0.8288;
1151.4000;0.6952;0.8312;
1151.7000;0.6943;0.8312;
1152.0000;0.6976;0.8361;
1152.3000;0.6952;0.8312;
1152.6000;0.6960;0.8288;
1152.9000;0.6976;0.8434;
1153.2000;0.6960;0.8531;
1153.5000;0.6952;0.8507;
1153.8000;0.6960;0.8556;
1154.1000;0.6968;0.8556;
1154.4000;0.6878;0.8312;
1154.7000;0.6960;0.8507;
1155.0000;0.6952;0.8410;
1155.3000;0.6968;0.8264;
1155.6000;0.7033;0.8361;
1155.9000;0.6968;0.8337;
1156.2000;0.6960;0.8337;
1156.5000;0.6968;0.8483;
1156.8000;0.6960;0.8507;
1157.1000;0.6960;0.8531;
1157.4000;0.6960;0.8483;
1157.7000;0.6976;0.8507;
1158.0000;0.6984;0.8483;
1158.3000;0.6976;0.8483;
1158.6000;0.6984;0.8531;
1158.9000;0.6968;0.8628;
1159.2000;0.6968;0.8604;
1159.5000;0.6903;0.8337;
1159.8000;0.6960;0.8458;
1160.1000;0.7025;0.8628;
1160.4000;0.6952;0.8458;
1160.7000;0.6968;0.8507;
1161.0000;0.6968;0.8531;
1161.3000;0.6903;0.8288;
1161.6000;0.6968;0.8434;
1161.9000;0.6935;0.8361;
1162.2000;0.6976;0.8483;
1162.5000;0.6952;0.8458;
1162.8000;0.6960;0.8507;
1163.1000;0.6984;0.8507;
1163.4000;0.6968;0.8483;
1163.7000;0.6976;0.8434;
1164.0000;0.6992;0.8458;
1164.3000;0.6968;0.8337;
1164.6000;0.6976;0.8264;
1164.9000;0.6984;0.8337;
1165.2000;0.6960;0.8312;
1165.5000;0.6968;0.8215;
1165.8000;0.6992;0.8264;
1166.1000;0.6960;0.8264;
1166.4000;0.6968;0.8264;
1166.7000;0.6952;0.8264;
1167.0000;0.6952;0.8288;
1167.3000;0.6960;0.8288;
1167.6000;0.6984;0.8458;
1167.9000;0.6960;0.8507;
1168.2000;0.6960;0.8531;
1168.5000;0.6968;0.8531;
1168.8000;0.6984;0.8507;
1169.1000;0.6960;0.8458;
1169.4000;0.6968;0.8483;
1169.7000;0.6968;0.8434;
1170.0000;0.6984;0.8458;
1170.3000;0.6976;0.8434;
1170.6000;0.6968;0.8410;
1170.9000;0.6984;0.8385;
1171.2000;0.6976;0.8458;
1171.5000;0.6960;0.8458;
1171.8000;0.6960;0.8483;
1172.1000;0.6960;0.8604;
1172.4000;0.6968;0.8701;
1172.7000;0.6943;0.8531;
1173.0000;0.6952;0.8434;
1173.3000;0.6935;0.8434;
1173.6000;0.6968;0.8507;
1173.9000;0.6968;0.8434;
1174.2000;0.6984;0.8458;
1174.5000;0.6960;0.8410;
1174.8000;0.6935;0.8385;
1175.1000;0.6968;0.8483;
1175.4000;0.6903;0.8264;
1175.7000;0.6960;0.8483;
1176.0000;0.6952;0.8556;
1176.3000;0.6976;0.8556;
1176.6000;0.6952;0.8556;
1176.9000;0.6984;0.8604;
1177.2000;0.6952;0.8531;
1177.5000;0.6870;0.8385;
1177.8000;0.6968;0.8653;
1178.1000;0.6960;0.8628;
1178.4000;0.6960;0.8556;
1178.7000;0.6952;0.8556;
1179.0000;0.6952;0.8628;
1179.3000;0.6968;0.8628;
1179.6000;0.6976;0.8677;
1179.9000;0.6943;0.8653;
1180.2000;0.6960;0.8823;
1180.5000;0.6968;0.8677;
1180.8000;0.6862;0.8385;
1181.1000;0.6960;0.8556;
1181.4000;0.6984;0.8580;
1181.7000;0.6952;0.8556;
1182.0000;0.6960;0.8483;
1182.3000;0.6968;0.8531;
1182.6000;0.6984;0.8531;
1182.9000;0.6919;0.8458;
1183.2000;0.6960;0.8507;
1183.5000;0.6952;0.8604;
1183.8000;0.7000;0.8774;
1184.1000;0.6943;0.8701;
1184.4000;0.6960;0.8628;
1184.7000;0.6927;0.8531;
1185.0000;0.6943;0.8556;
1185.3000;0.6976;0.8556;
1185.6000;0.6903;0.8385;
1185.9000;0.6943;0.8483;
1186.2000;0.6960;0.8507;
1186.5000;0.6968;0.8531;
1186.8000;0.6952;0.8434;
1187.1000;0.6960;0.8507;
1187.4000;0.6976;0.8531;
1187.7000;0.6943;0.8531;
1188.0000;0.6952;0.8556;
1188.3000;0.6968;0.8556;
1188.6000;0.6960;0.8458;
1188.9000;0.6935;0.8507;
1189.2000;0.6960;0.8580;
1189.5000;0.6976;0.8556;
1189.8000;0.6976;0.8604;
1190.1000;0.6976;0.8556;
1190.4000;0.6952;0.8507;
1190.7000;0.6935;0.8556;
1191.0000;0.6960;0.8628;
1191.3000;0.6952;0.8628;
1191.6000;0.6960;0.8580;
1191.9000;0.6976;0.8604;
1192.2000;0.6935;0.8556;
1192.5000;0.6943;0.8677;
1192.8000;0.6943;0.8677;
1193.1000;0.6968;0.8677;
1193.4000;0.6968;0.8604;
1193.7000;0.6960;0.8458;
1194.0000;0.6960;0.8434;
1194.3000;0.6968;0.8556;
1194.6000;0.6952;0.8507;
1194.9000;0.6960;0.8556;
1195.2000;0.6927;0.8410;
1195.5000;0.6984;0.8580;
1195.8000;0.6952;0.8531;
1196.1000;0.6952;0.8434;
1196.4000;0.6960;0.8507;
1196.7000;0.7000;0.8556;
1197.0000;0.6960;0.8410;
1197.3000;0.6943;0.8410;
1197.6000;0.6927;0.8288;
1197.9000;0.6992;0.8458;
1198.2000;0.6960;0.8410;
1198.5000;0.6895;0.8361;
1198.8000;0.6952;0.8507;
1199.1000;0.6960;0.8556;
1199.4000;0.6992;0.8604;
1199.7000;0.6976;0.8604;
1200.0000;0.6952;0.8507;
1200.3000;0.6952;0.8458;
1200.6000;0.6960;0.8458;
1200.9000;0.6960;0.8458;
1201.2000;0.6943;0.8385;
1201.5000;0.6952;0.8434;
1201.8000;0.6943;0.8361;
1202.1000;0.6927;0.8361;
1202.4000;0.6943;0.8361;
1202.7000;0.6960;0.8337;
1203.0000;0.6952;0.8312;
1203.3000;0.6952;0.8361;
1203.6000;0.6968;0.8434;
1203.9000;0.7000;0.8604;
1204.2000;0.6968;0.8556;
1204.5000;0.6927;0.8507;
1204.8000;0.6952;0.8556;
1205.1000;0.6960;0.8458;
1205.4000;0.6952;0.8458;
1205.7000;0.6968;0.8507;
1206.0000;0.6960;0.8458;
1206.3000;0.6952;0.8434;
1206.6000;0.6952;0.8434;
1206.9000;0.6927;0.8361;
1207.2000;0.6943;0.8337;
1207.5000;0.6952;0.8264;
1207.8000;0.6976;0.8434;
1208.1000;0.6952;0.8458;
1208.4000;0.6952;0.8507;
1208.7000;0.6952;0.8580;
1209.0000;0.6952;0.8604;
1209.3000;0.6838;0.8337;
1209.6000;0.6952;0.8604;
1209.9000;0.6927;0.8604;
1210.2000;0.6935;0.8556;
1210.5000;0.6960;0.8604;
1210.8000;0.6952;0.8653;
1211.1000;0.6952;0.8628;
1211.4000;0.6952;0.8677;
1211.7000;0.6911;0.8531;
1212.0000;0.6919;0.8434;
1212.3000;0.6943;0.8458;
1212.6000;0.6952;0.8458;
1212.9000;0.6935;0.8434;
1213.2000;0.6960;0.8458;
1213.5000;0.6952;0.8385;
1213.8000;0.6911;0.8312;
1214.1000;0.6927;0.8434;
1214.4000;0.6935;0.8410;
1214.7000;0.6984;0.8556;
1215.0000;0.6960;0.8410;
1215.3000;0.6919;0.8385;
1215.6000;0.6943;0.8458;
1215.9000;0.6960;0.8580;
1216.2000;0.6952;0.8531;
1216.5000;0.6943;0.8458;
1216.8000;0.6960;0.8507;
1217.1000;0.6960;0.8458;
1217.4000;0.6968;0.8434;
1217.7000;0.6952;0.8434;
1218.0000;0.7025;0.8750;
1218.3000;0.6976;0.8653;
1218.6000;0.6960;0.8556;
1218.9000;0.6976;0.8580;
1219.2000;0.6960;0.8556;
1219.5000;0.6960;0.8556;
1219.8000;0.6960;0.8531;
1220.1000;0.6960;0.8458;
1220.4000;0.6952;0.8361;
1220.7000;0.6960;0.8337;
1221.0000;0.6919;0.8288;
1221.3000;0.6878;0.8264;
1221.6000;0.6935;0.8410;
1221.9000;0.6952;0.8434;
1222.2000;0.6968;0.8361;
1222.5000;0.6992;0.8361;
1222.8000;0.6927;0.8191;
1223.1000;0.6943;0.8264;
1223.4000;0.6935;0.8337;
1223.7000;0.6952;0.8434;
1224.0000;0.6943;0.8434;
1224.3000;0.6943;0.8458;
1224.6000;0.6952;0.8483;
1224.9000;0.6952;0.8483;
1225.2000;0.6943;0.8507;
1225.5000;0.6960;0.8556;
1225.8000;0.7009;0.8628;
1226.1000;0.6952;0.8483;
1226.4000;0.6943;0.8483;
1226.7000;0.6927;0.8434;
1227.0000;0.6960;0.8556;
1227.3000;0.6960;0.8507;
1227.6000;0.6952;0.8410;
1227.9000;0.6952;0.8458;
1228.2000;0.6935;0.8385;
1228.5000;0.6960;0.8434;
1228.8000;0.6968;0.8531;
1229.1000;0.6960;0.8458;
1229.4000;0.6943;0.8434;
1229.7000;0.6960;0.8385;
1230.0000;0.6984;0.8483;
1230.3000;0.6943;0.8312;
1230.6000;0.6927;0.8337;
1230.9000;0.6943;0.8410;
1231.2000;0.6960;0.8507;
1231.5000;0.6952;0.8580;
1231.8000;0.6919;0.8531;
1232.1000;0.6952;0.8580;
1232.4000;0.6943;0.8507;
1232.7000;0.6976;0.8604;
1233.0000;0.6992;0.8701;
1233.3000;0.6935;0.8628;
1233.6000;0.7057;0.8944;
1233.9000;0.6968;0.8750;
1234.2000;0.6935;0.8750;
1234.5000;0.6935;0.8604;
1234.8000;0.6935;0.8604;
1235.1000;0.6960;0.8653;
1235.4000;0.6927;0.8580;
1235.7000;0.6927;0.8483;
1236.0000;0.6927;0.8483;
1236.3000;0.6992;0.8604;
1236.6000;0.6886;0.8483;
1236.9000;0.6927;0.8701;
1237.2000;0.6943;0.8750;
1237.5000;0.6919;0.8677;
1237.8000;0.6943;0.8653;
1238.1000;0.6952;0.8653;
1238.4000;0.6943;0.8628;
1238.7000;0.6960;0.8628;
1239.0000;0.6911;0.8531;
1239.3000;0.6952;0.8531;
1239.6000;0.6952;0.8604;
1239.9000;0.6952;0.8726;
1240.2000;0.6960;0.8799;
1240.5000;0.6968;0.8774;
1240.8000;0.6968;0.8750;
1241.1000;0.6968;0.8701;
1241.4000;0.6952;0.8774;
1241.7000;0.6943;0.8799;
1242.0000;0.6992;0.8847;
1242.3000;0.6935;0.8750;
1242.6000;0.6935;0.8774;
1242.9000;0.7009;0.8774;
1243.2000;0.6952;0.8701;
1243.5000;0.6935;0.8701;
1243.8000;0.6952;0.8604;
1244.1000;0.6960;0.8677;
1244.4000;0.6976;0.8726;
1244.7000;0.6943;0.8604;
1245.0000;0.6976;0.8701;
1245.3000;0.6927;0.8677;
1245.6000;0.6952;0.8628;
1245.9000;0.6935;0.8604;
1246.2000;0.6952;0.8653;
1246.5000;0.6935;0.8653;
1246.8000;0.6943;0.8653;
1247.1000;0.6927;0.8531;
1247.4000;0.6943;0.8628;
1247.7000;0.6984;0.8701;
1248.0000;0.6960;0.8604;
1248.3000;0.6943;0.8628;
1248.6000;0.6943;0.8628;
1248.9000;0.6976;0.8604;
1249.2000;0.6943;0.8604;
1249.5000;0.6927;0.8628;
1249.8000;0.6952;0.8628;
1250.1000;0.6952;0.8628;
1250.4000;0.6943;0.8653;
1250.7000;0.6952;0.8628;
1251.0000;0.6960;0.8701;
1251.3000;0.6935;0.8677;
1251.6000;0.6984;0.8774;
1251.9000;0.7033;0.8823;
1252.2000;0.6952;0.8653;
1252.5000;0.6952;0.8628;
1252.8000;0.6943;0.8653;
1253.1000;0.6935;0.8580;
1253.4000;0.6895;0.8604;
1253.7000;0.6935;0.8677;
1254.0000;0.6943;0.8701;
1254.3000;0.6927;0.8701;
1254.6000;0.6968;0.8628;
1254.9000;0.6935;0.8483;
1255.2000;0.6854;0.8385;
1255.5000;0.6943;0.8677;
1255.8000;0.6927;0.8701;
1256.1000;0.6919;0.8726;
1256.4000;0.6927;0.8701;
1256.7000;0.6952;0.8750;
1257.0000;0.6927;0.8653;
1257.3000;0.6919;0.8628;
1257.6000;0.7009;0.8847;
1257.9000;0.6935;0.8677;
1258.2000;0.6927;0.8677;
1258.5000;0.6919;0.8750;
1258.8000;0.6927;0.8750;
1259.1000;0.6952;0.8774;
1259.4000;0.6943;0.8701;
1259.7000;0.6943;0.8653;
1260.0000;0.6952;0.8628;
1260.3000;0.6952;0.8580;
1260.6000;0.6968;0.8580;
1260.9000;0.6952;0.8531;
1261.2000;0.6927;0.8458;
1261.5000;0.6943;0.8483;
1261.8000;0.6935;0.8628;
1262.1000;0.6984;0.8799;
1262.4000;0.6935;0.8726;
1262.7000;0.6992;0.8896;
1263.0000;0.6943;0.8799;
1263.3000;0.6943;0.8750;
1263.6000;0.6927;0.8726;
1263.9000;0.6943;0.8750;
1264.2000;0.6927;0.8604;
1264.5000;0.6935;0.8677;
1264.8000;0.6927;0.8750;
1265.1000;0.6992;0.8799;
1265.4000;0.6943;0.8677;
1265.7000;0.6943;0.8750;
1266.0000;0.6952;0.8799;
1266.3000;0.6943;0.8847;
1266.6000;0.6943;0.8920;
1266.9000;0.7041;0.9090;
1267.2000;0.6919;0.8774;
1267.5000;0.6935;0.8774;
1267.8000;0.6943;0.8823;
1268.1000;0.6960;0.8871;
1268.4000;0.6935;0.8726;
1268.7000;0.6960;0.8847;
1269.0000;0.6927;0.8604;
1269.3000;0.6984;0.8677;
1269.6000;0.6919;0.8653;
1269.9000;0.6919;0.8604;
1270.2000;0.6927;0.8701;
1270.5000;0.6886;0.8604;
1270.8000;0.6952;0.8774;
1271.1000;0.6952;0.8774;
1271.4000;0.6911;0.8677;
1271.7000;0.6911;0.8677;
1272.0000;0.6952;0.8726;
1272.3000;0.6960;0.8677;
1272.6000;0.6919;0.8580;
1272.9000;0.6943;0.8604;
1273.2000;0.6935;0.8628;
1273.5000;0.6927;0.8531;
1273.8000;0.6927;0.8580;
1274.1000;0.6919;0.8483;
1274.4000;0.6943;0.8507;
1274.7000;0.6935;0.8434;
1275.0000;0.6935;0.8507;
1275.3000;0.6943;0.8580;
1275.6000;0.6943;0.8483;
1275.9000;0.6968;0.8507;
1276.2000;0.6927;0.8410;
1276.5000;0.6903;0.8264;
1276.8000;0.6992;0.8458;
1277.1000;0.6960;0.8434;
1277.4000;0.6968;0.8410;
1277.7000;0.6911;0.8337;
1278.0000;0.6952;0.8483;
1278.3000;0.6968;0.8483;
1278.6000;0.6927;0.8288;
1278.9000;0.6919;0.8264;
1279.2000;0.6927;0.8240;
1279.5000;0.6935;0.8312;
1279.8000;0.6927;0.8361;
1280.1000;0.6911;0.8385;
1280.4000;0.6943;0.8434;
1280.7000;0.6927;0.8410;
1281.0000;0.6960;0.8361;
1281.3000;0.6943;0.8337;
1281.6000;0.6935;0.8361;
1281.9000;0.6960;0.8410;
1282.2000;0.6943;0.8337;
1282.5000;0.6952;0.8337;
1282.8000;0.6943;0.8337;
1283.1000;0.6943;0.8361;
1283.4000;0.6935;0.8410;
1283.7000;0.6943;0.8458;
1284.0000;0.6935;0.8507;
1284.3000;0.6976;0.8726;
1284.6000;0.6968;0.8677;
1284.9000;0.6960;0.8556;
1285.2000;0.6943;0.8580;
1285.5000;0.6968;0.8604;
1285.8000;0.6952;0.8483;
1286.1000;0.6935;0.8361;
1286.4000;0.6952;0.8337;
1286.7000;0.6935;0.8337;
1287.0000;0.6935;0.8410;
1287.3000;0.6943;0.8458;
1287.6000;0.6919;0.8434;
1287.9000;0.6927;0.8434;
1288.2000;0.6960;0.8580;
1288.5000;0.6943;0.8628;
1288.8000;0.6911;0.8483;
1289.1000;0.6952;0.8604;
1289.4000;0.6935;0.8580;
1289.7000;0.6935;0.8604;
1290.0000;0.6935;0.8653;
1290.3000;0.6943;0.8726;
1290.6000;0.6960;0.8726;
1290.9000;0.6952;0.8774;
1291.2000;0.6968;0.8799;
1291.5000;0.6935;0.8799;
1291.8000;0.6919;0.8823;
1292.1000;0.6935;0.8774;
1292.4000;0.6984;0.8871;
1292.7000;0.6935;0.8750;
1293.0000;0.6919;0.8823;
1293.3000;0.6935;0.8774;
1293.6000;0.6952;0.8823;
1293.9000;0.6935;0.8774;
1294.2000;0.6952;0.8774;
1294.5000;0.6952;0.8750;
1294.8000;0.6935;0.8726;
1295.1000;0.6927;0.8774;
1295.4000;0.6943;0.8896;
1295.7000;0.6943;0.8920;
1296.0000;0.6895;0.8726;
1296.3000;0.6952;0.8774;
1296.6000;0.6927;0.8653;
1296.9000;0.6919;0.8750;
1297.2000;0.6927;0.8750;
1297.5000;0.6927;0.8677;
1297.8000;0.6952;0.8677;
1298.1000;0.6927;0.8750;
1298.4000;0.6935;0.8774;
1298.7000;0.6919;0.8750;
1299.0000;0.6943;0.8847;
1299.3000;0.6935;0.8823;
1299.6000;0.6935;0.8871;
1299.9000;0.6935;0.8896;
1300.2000;0.6935;0.8701;
1300.5000;0.6927;0.8677;
1300.8000;0.6919;0.8604;
1301.1000;0.6927;0.8604;
1301.4000;0.6919;0.8604;
1301.7000;0.6903;0.8507;
1302.0000;0.6935;0.8556;
1302.3000;0.6870;0.8507;
1302.6000;0.6919;0.8653;
1302.9000;0.6927;0.8628;
1303.2000;0.6927;0.8677;
1303.5000;0.6927;0.8774;
1303.8000;0.6911;0.8774;
1304.1000;0.6952;0.8847;
1304.4000;0.6919;0.8701;
1304.7000;0.6911;0.8653;
1305.0000;0.6935;0.8774;
1305.3000;0.6952;0.8823;
1305.6000;0.6919;0.8823;
1305.9000;0.6935;0.8944;
1306.2000;0.6935;0.8871;
1306.5000;0.6943;0.8750;
1306.8000;0.6960;0.8774;
1307.1000;0.6927;0.8750;
1307.4000;0.6927;0.8701;
1307.7000;0.6919;0.8580;
1308.0000;0.6943;0.8701;
1308.3000;0.6895;0.8531;
1308.6000;0.6935;0.8580;
1308.9000;0.6927;0.8628;
1309.2000;0.6952;0.8701;
1309.5000;0.6935;0.8628;
1309.8000;0.6960;0.8677;
1310.1000;0.6927;0.8701;
1310.4000;0.6911;0.8556;
1310.7000;0.6927;0.8628;
1311.0000;0.6911;0.8556;
1311.3000;0.6927;0.8531;
1311.6000;0.6968;0.8556;
1311.9000;0.6927;0.8483;
1312.2000;0.6862;0.8337;
1312.5000;0.6935;0.8531;
1312.8000;0.6952;0.8507;
1313.1000;0.6935;0.8580;
1313.4000;0.6968;0.8628;
1313.7000;0.6935;0.8458;
1314.0000;0.6935;0.8458;
1314.3000;0.6960;0.8580;
1314.6000;0.6943;0.8556;
1314.9000;0.6919;0.8531;
1315.2000;0.6854;0.8434;
1315.5000;0.6919;0.8531;
1315.8000;0.6984;0.8750;
1316.1000;0.6911;0.8628;
1316.4000;0.6935;0.8701;
1316.7000;0.6919;0.8653;
1317.0000;0.6919;0.8653;
1317.3000;0.6927;0.8556;
1317.6000;0.6911;0.8604;
1317.9000;0.6984;0.8799;
1318.2000;0.6935;0.8507;
1318.5000;0.6927;0.8385;
1318.8000;0.6919;0.8361;
1319.1000;0.6927;0.8410;
1319.4000;0.6919;0.8434;
1319.7000;0.6943;0.8483;
1320.0000;0.6919;0.8507;
1320.3000;0.6943;0.8580;
1320.6000;0.6927;0.8653;
1320.9000;0.6911;0.8653;
1321.2000;0.6935;0.8677;
1321.5000;0.6919;0.8726;
1321.8000;0.6935;0.8871;
1322.1000;0.6927;0.8823;
1322.4000;0.6911;0.8677;
1322.7000;0.6960;0.8774;
1323.0000;0.6952;0.8677;
1323.3000;0.6927;0.8604;
1323.6000;0.6927;0.8507;
1323.9000;0.6943;0.8385;
1324.2000;0.6895;0.8312;
1324.5000;0.6838;0.8240;
1324.8000;0.6968;0.8628;
1325.1000;0.6919;0.8580;
1325.4000;0.6943;0.8628;
1325.7000;0.6935;0.8653;
1326.0000;0.6968;0.8701;
1326.3000;0.6927;0.8458;
1326.6000;0.6943;0.8556;
1326.9000;0.6927;0.8653;
1327.2000;0.6919;0.8628;
1327.5000;0.6919;0.8701;
1327.8000;0.6911;0.8653;
1328.1000;0.6935;0.8701;
1328.4000;0.6927;0.8677;
1328.7000;0.6927;0.8653;
1329.0000;0.6927;0.8580;
1329.3000;0.6927;0.8604;
1329.6000;0.6919;0.8580;
1329.9000;0.6992;0.8823;
1330.2000;0.6911;0.8628;
1330.5000;0.6927;0.8653;
1330.8000;0.6935;0.8653;
1331.1000;0.6919;0.8556;
1331.4000;0.6935;0.8580;
1331.7000;0.6968;0.8726;
1332.0000;0.6927;0.8556;
1332.3000;0.6943;0.8531;
1332.6000;0.6935;0.8483;
1332.9000;0.6927;0.8458;
1333.2000;0.6943;0.8556;
1333.5000;0.6911;0.8580;
1333.8000;0.6960;0.8580;
1334.1000;0.6943;0.8483;
1334.4000;0.6935;0.8531;
1334.7000;0.6895;0.8556;
1335.0000;0.6911;0.8556;
1335.3000;0.6927;0.8701;
1335.6000;0.6878;0.8774;
1335.9000;0.6919;0.8944;
1336.2000;0.6919;0.8871;
1336.5000;0.6927;0.8823;
1336.8000;0.6935;0.8799;
1337.1000;0.6911;0.8726;
1337.4000;0.6935;0.8677;
1337.7000;0.6927;0.8653;
1338.0000;0.6935;0.8604;
1338.3000;0.6895;0.8507;
1338.6000;0.6919;0.8556;
1338.9000;0.6878;0.8483;
1339.2000;0.6911;0.8531;
1339.5000;0.6927;0.8628;
1339.8000;0.6927;0.8604;
1340.1000;0.6903;0.8556;
1340.4000;0.6870;0.8483;
1340.7000;0.6895;0.8507;
1341.0000;0.6854;0.8434;
1341.3000;0.6870;0.8507;
1341.6000;0.6943;0.8750;
1341.9000;0.6919;0.8580;
1342.2000;0.6935;0.8604;
1342.5000;0.6919;0.8556;
1342.8000;0.6919;0.8677;
1343.1000;0.6919;0.8677;
1343.4000;0.6952;0.8750;
1343.7000;0.6911;0.8556;
1344.0000;0.6919;0.8556;
1344.3000;0.6927;0.8677;
1344.6000;0.6919;0.8604;
1344.9000;0.6943;0.8628;
1345.2000;0.6919;0.8580;
1345.5000;0.6895;0.8556;
1345.8000;0.6895;0.8531;
1346.1000;0.6968;0.8726;
1346.4000;0.6935;0.8653;
1346.7000;0.6903;0.8604;
1347.0000;0.6919;0.8580;
1347.3000;0.6911;0.8556;
1347.6000;0.6919;0.8628;
1347.9000;0.6911;0.8580;
1348.2000;0.6927;0.8580;
1348.5000;0.6960;0.8653;
1348.8000;0.6919;0.8604;
1349.1000;0.6903;0.8677;
1349.4000;0.6886;0.8677;
1349.7000;0.6927;0.8726;
1350.0000;0.6935;0.8653;
1350.3000;0.6895;0.8507;
1350.6000;0.6919;0.8653;
1350.9000;0.6903;0.8653;
1351.2000;0.6911;0.8556;
1351.5000;0.6911;0.8556;
1351.8000;0.6927;0.8628;
1352.1000;0.6911;0.8653;
1352.4000;0.6927;0.8604;
1352.7000;0.6919;0.8580;
1353.0000;0.6927;0.8483;
1353.3000;0.6919;0.8531;
1353.6000;0.6943;0.8580;
1353.9000;0.6911;0.8531;
1354.2000;0.6935;0.8580;
1354.5000;0.6935;0.8531;
1354.8000;0.6911;0.8458;
1355.1000;0.6952;0.8556;
1355.4000;0.6952;0.8531;
1355.7000;0.6919;0.8507;
1356.0000;0.6927;0.8507;
1356.3000;0.6968;0.8483;
1356.6000;0.6919;0.8361;
1356.9000;0.6935;0.8458;
1357.2000;0.6919;0.8628;
1357.5000;0.6935;0.8799;
1357.8000;0.6927;0.8701;
1358.1000;0.6952;0.8677;
1358.4000;0.6911;0.8628;
1358.7000;0.6927;0.8628;
1359.0000;0.6862;0.8483;
1359.3000;0.6927;0.8653;
1359.6000;0.6968;0.8750;
1359.9000;0.6919;0.8556;
1360.2000;0.6911;0.8580;
1360.5000;0.6903;0.8531;
1360.8000;0.6919;0.8531;
1361.1000;0.6943;0.8701;
1361.4000;0.6911;0.8604;
1361.7000;0.6903;0.8556;
1362.0000;0.6919;0.8556;
1362.3000;0.6943;0.8604;
1362.6000;0.6919;0.8677;
1362.9000;0.6960;0.8774;
1363.2000;0.6927;0.8677;
1363.5000;0.6911;0.8653;
1363.8000;0.6911;0.8701;
1364.1000;0.6935;0.8847;
1364.4000;0.6935;0.8847;
1364.7000;0.6919;0.8799;
1365.0000;0.6927;0.8750;
1365.3000;0.6919;0.8580;
1365.6000;0.6943;0.8701;
1365.9000;0.6935;0.8701;
1366.2000;0.6935;0.8653;
1366.5000;0.7017;0.8847;
1366.8000;0.6919;0.8677;
1367.1000;0.6919;0.8750;
1367.4000;0.6943;0.8701;
1367.7000;0.6935;0.8701;
1368.0000;0.6911;0.8726;
1368.3000;0.6935;0.8677;
1368.6000;0.6943;0.8604;
1368.9000;0.6992;0.8750;
1369.2000;0.6919;0.8604;
1369.5000;0.6878;0.8458;
1369.8000;0.6919;0.8556;
1370.1000;0.6960;0.8750;
1370.4000;0.6919;0.8677;
1370.7000;0.6968;0.8847;
1371.0000;0.6927;0.8799;
1371.3000;0.6935;0.8774;
1371.6000;0.6919;0.8774;
1371.9000;0.6895;0.8726;
1372.2000;0.6927;0.8774;
1372.5000;0.6927;0.8726;
1372.8000;0.6927;0.8677;
1373.1000;0.6927;0.8677;
1373.4000;0.6919;0.8628;
1373.7000;0.6943;0.8750;
1374.0000;0.6960;0.8847;
1374.3000;0.6919;0.8653;
1374.6000;0.6919;0.8580;
1374.9000;0.6911;0.8556;
1375.2000;0.6927;0.8604;
1375.5000;0.6903;0.8507;
1375.8000;0.6935;0.8531;
1376.1000;0.6911;0.8556;
1376.4000;0.6927;0.8531;
1376.7000;0.6903;0.8458;
1377.0000;0.6927;0.8507;
1377.3000;0.6903;0.8580;
1377.6000;0.6935;0.8726;
1377.9000;0.6935;0.8726;
1378.2000;0.6927;0.8677;
1378.5000;0.6927;0.8628;
1378.8000;0.6935;0.8604;
1379.1000;0.6935;0.8604;
1379.4000;0.6935;0.8628;
1379.7000;0.6895;0.8483;
1380.0000;0.6919;0.8628;
1380.3000;0.6919;0.8701;
1380.6000;0.6911;0.8628;
1380.9000;0.6911;0.8653;
1381.2000;0.6911;0.8604;
1381.5000;0.6911;0.8531;
1381.8000;0.6903;0.8507;
1382.1000;0.6952;0.8580;
1382.4000;0.6919;0.8483;
1382.7000;0.6854;0.8385;
1383.0000;0.6903;0.8604;
1383.3000;0.6968;0.8750;
1383.6000;0.6903;0.8653;
1383.9000;0.6911;0.8701;
1384.2000;0.6927;0.8726;
1384.5000;0.6903;0.8604;
1384.8000;0.6886;0.8556;
1385.1000;0.6919;0.8628;
1385.4000;0.6878;0.8507;
1385.7000;0.6911;0.8580;
1386.0000;0.6927;0.8531;
1386.3000;0.6927;0.8580;
1386.6000;0.6903;0.8483;
1386.9000;0.6911;0.8410;
1387.2000;0.6911;0.8483;
1387.5000;0.6903;0.8507;
1387.8000;0.6911;0.8556;
1388.1000;0.6976;0.8653;
1388.4000;0.6919;0.8507;
1388.7000;0.6919;0.8531;
1389.0000;0.6935;0.8556;
1389.3000;0.6935;0.8556;
1389.6000;0.6911;0.8458;
1389.9000;0.6919;0.8385;
1390.2000;0.6919;0.8531;
1390.5000;0.6927;0.8604;
1390.8000;0.6919;0.8556;
1391.1000;0.6895;0.8580;
1391.4000;0.6919;0.8628;
1391.7000;0.6911;0.8628;
1392.0000;0.6919;0.8604;
1392.3000;0.6911;0.8653;
1392.6000;0.6903;0.8677;
1392.9000;0.6927;0.8653;
1393.2000;0.6895;0.8580;
1393.5000;0.6935;0.8604;
1393.8000;0.6919;0.8653;
1394.1000;0.6911;0.8604;
1394.4000;0.6943;0.8726;
1394.7000;0.6943;0.8726;
1395.0000;0.6919;0.8677;
1395.3000;0.6927;0.8823;
1395.6000;0.6952;0.8896;
1395.9000;0.6919;0.8726;
1396.2000;0.6919;0.8750;
1396.5000;0.6919;0.8677;
1396.8000;0.6911;0.8677;
1397.1000;0.6919;0.8653;
1397.4000;0.6919;0.8701;
1397.7000;0.6911;0.8774;
1398.0000;0.6919;0.8774;
1398.3000;0.6919;0.8823;
1398.6000;0.6935;0.8823;
1398.9000;0.6919;0.8847;
1399.2000;0.6927;0.8823;
1399.5000;0.6935;0.8823;
1399.8000;0.6919;0.8677;
