time/ms;Fluo/V;P700 deltaI/I x10³;
-199.8000;0.4998;-3.3895;
-199.5000;0.5006;-3.3970;
-199.2000;0.4990;-3.4069;
-198.9000;0.4974;-3.4044;
-198.6000;0.4990;-3.3994;
-198.3000;0.5006;-3.4044;
-198.0000;0.4982;-3.4094;
-197.7000;0.4990;-3.4094;
-197.4000;0.5006;-3.3970;
-197.1000;0.5014;-3.3920;
-196.8000;0.5006;-3.4019;
-196.5000;0.4998;-3.4094;
-196.2000;0.5014;-3.4094;
-195.9000;0.5006;-3.4044;
-195.6000;0.4990;-3.4144;
-195.3000;0.4998;-3.4144;
-195.0000;0.5031;-3.4119;
-194.7000;0.5006;-3.4119;
-194.4000;0.4990;-3.4094;
-194.1000;0.4998;-3.4119;
-193.8000;0.4998;-3.4044;
-193.5000;0.4998;-3.4144;
-193.2000;0.5006;-3.4193;
-192.9000;0.4990;-3.4193;
-192.6000;0.4990;-3.4144;
-192.3000;0.5014;-3.4119;
-192.0000;0.5006;-3.4119;
-191.7000;0.4998;-3.4119;
-191.4000;0.4982;-3.4094;
-191.1000;0.4990;-3.4044;
-190.8000;0.4998;-3.3945;
-190.5000;0.4982;-3.3970;
-190.2000;0.4998;-3.3945;
-189.9000;0.5014;-3.3970;
-189.6000;0.5006;-3.4019;
-189.3000;0.4982;-3.4119;
-189.0000;0.4990;-3.4193;
-188.7000;0.4990;-3.4094;
-188.4000;0.5006;-3.4044;
-188.1000;0.5014;-3.3994;
-187.8000;0.4990;-3.4069;
-187.5000;0.4982;-3.4019;
-187.2000;0.4990;-3.4044;
-186.9000;0.4982;-3.4069;
-186.6000;0.4998;-3.4019;
-186.3000;0.4982;-3.4044;
-186.0000;0.4998;-3.4094;
-185.7000;0.5006;-3.4119;
-185.4000;0.4998;-3.4119;
-185.1000;0.4990;-3.4144;
-184.8000;0.4998;-3.4144;
-184.5000;0.5006;-3.4094;
-184.2000;0.4998;-3.4094;
-183.9000;0.5006;-3.4119;
-183.6000;0.4982;-3.4094;
-183.3000;0.5014;-3.4069;
-183.0000;0.4982;-3.4169;
-182.7000;0.4974;-3.4218;
-182.4000;0.4990;-3.4119;
-182.1000;0.5006;-3.4044;
-181.8000;0.5006;-3.3970;
-181.5000;0.4990;-3.4069;
-181.2000;0.4982;-3.4119;
-180.9000;0.5006;-3.4094;
-180.6000;0.4990;-3.3994;
-180.3000;0.5014;-3.3945;
-180.0000;0.4982;-3.4044;
-179.7000;0.4990;-3.4094;
-179.4000;0.4998;-3.4094;
-179.1000;0.5006;-3.4094;
-178.8000;0.5006;-3.4044;
-178.5000;0.5006;-3.3994;
-178.2000;0.5006;-3.3970;
-177.9000;0.5006;-3.3970;
-177.6000;0.4982;-3.3994;
-177.3000;0.4998;-3.3945;
-177.0000;0.4998;-3.3870;
-176.7000;0.5006;-3.3845;
-176.4000;0.4990;-3.3746;
-176.1000;0.4974;-3.3771;
-175.8000;0.4982;-3.3820;
-175.5000;0.4990;-3.3870;
-175.2000;0.4998;-3.3870;
-174.9000;0.4998;-3.3994;
-174.6000;0.4974;-3.4119;
-174.3000;0.4998;-3.4094;
-174.0000;0.5006;-3.4119;
-173.7000;0.5006;-3.4069;
-173.4000;0.4998;-3.3994;
-173.1000;0.4998;-3.3994;
-172.8000;0.4998;-3.3970;
-172.5000;0.4990;-3.4044;
-172.2000;0.4982;-3.4044;
-171.9000;0.4990;-3.4044;
-171.6000;0.4998;-3.4044;
-171.3000;0.4998;-3.3970;
-171.0000;0.4990;-3.4019;
-170.7000;0.4982;-3.3994;
-170.4000;0.4990;-3.4119;
-170.1000;0.4990;-3.4169;
-169.8000;0.4982;-3.4144;
-169.5000;0.4998;-3.4094;
-169.2000;0.4998;-3.4119;
-168.9000;0.5014;-3.4069;
-168.6000;0.4998;-3.4044;
-168.3000;0.4998;-3.3994;
-168.0000;0.5006;-3.4019;
-167.7000;0.4998;-3.4019;
-167.4000;0.4998;-3.3994;
-167.1000;0.4998;-3.3970;
-166.8000;0.4998;-3.4019;
-166.5000;0.4990;-3.3994;
-166.2000;0.5014;-3.3994;
-165.9000;0.4982;-3.4069;
-165.6000;0.4990;-3.4019;
-165.3000;0.4998;-3.3994;
-165.0000;0.5096;-3.3771;
-164.7000;0.5006;-3.4019;
-164.4000;0.5014;-3.3994;
-164.1000;0.5014;-3.3945;
-163.8000;0.5071;-3.3820;
-163.5000;0.5014;-3.3994;
-163.2000;0.5006;-3.4069;
-162.9000;0.5014;-3.4044;
-162.6000;0.4982;-3.3970;
-162.3000;0.4965;-3.3895;
-162.0000;0.5022;-3.3746;
-161.7000;0.4998;-3.3796;
-161.4000;0.4998;-3.3920;
-161.1000;0.4949;-3.4044;
-160.8000;0.4998;-3.3920;
-160.5000;0.5014;-3.3920;
-160.2000;0.5022;-3.3895;
-159.9000;0.4998;-3.3970;
-159.6000;0.5006;-3.3945;
-159.3000;0.4998;-3.3870;
-159.0000;0.4990;-3.3820;
-158.7000;0.5031;-3.3696;
-158.4000;0.4933;-3.3994;
-158.1000;0.4974;-3.3994;
-157.8000;0.4998;-3.3895;
-157.5000;0.4982;-3.3945;
-157.2000;0.4998;-3.3895;
-156.9000;0.5022;-3.3870;
-156.6000;0.5006;-3.3746;
-156.3000;0.4990;-3.3771;
-156.0000;0.4941;-3.3920;
-155.7000;0.5006;-3.3845;
-155.4000;0.4998;-3.3845;
-155.1000;0.4974;-3.3945;
-154.8000;0.4998;-3.3870;
-154.5000;0.5006;-3.3895;
-154.2000;0.5031;-3.3895;
-153.9000;0.5022;-3.3796;
-153.6000;0.4990;-3.3920;
-153.3000;0.4990;-3.3945;
-153.0000;0.5022;-3.3820;
-152.7000;0.4974;-3.3820;
-152.4000;0.4982;-3.3845;
-152.1000;0.4982;-3.3870;
-151.8000;0.4957;-3.3945;
-151.5000;0.4982;-3.3820;
-151.2000;0.4990;-3.3845;
-150.9000;0.4990;-3.3920;
-150.6000;0.4998;-3.3970;
-150.3000;0.5006;-3.3970;
-150.0000;0.4982;-3.4019;
-149.7000;0.4990;-3.3994;
-149.4000;0.5014;-3.3945;
-149.1000;0.4990;-3.3920;
-148.8000;0.4990;-3.3920;
-148.5000;0.5014;-3.3820;
-148.2000;0.4990;-3.3845;
-147.9000;0.4998;-3.3820;
-147.6000;0.4990;-3.3796;
-147.3000;0.4998;-3.3796;
-147.0000;0.4974;-3.3796;
-146.7000;0.5006;-3.3746;
-146.4000;0.5014;-3.3746;
-146.1000;0.4990;-3.3845;
-145.8000;0.5014;-3.3721;
-145.5000;0.5014;-3.3721;
-145.2000;0.4998;-3.3746;
-144.9000;0.5014;-3.3920;
-144.6000;0.5006;-3.3945;
-144.3000;0.4957;-3.4119;
-144.0000;0.5022;-3.3970;
-143.7000;0.4998;-3.3994;
-143.4000;0.4998;-3.3994;
-143.1000;0.4998;-3.3970;
-142.8000;0.4998;-3.3970;
-142.5000;0.4990;-3.3970;
-142.2000;0.4982;-3.3945;
-141.9000;0.5006;-3.3845;
-141.6000;0.4990;-3.3820;
-141.3000;0.4998;-3.3771;
-141.0000;0.5014;-3.3721;
-140.7000;0.4982;-3.3671;
-140.4000;0.4965;-3.3771;
-140.1000;0.4949;-3.3870;
-139.8000;0.4990;-3.3820;
-139.5000;0.4998;-3.4044;
-139.2000;0.5031;-3.3970;
-138.9000;0.5006;-3.3994;
-138.6000;0.5014;-3.4019;
-138.3000;0.5006;-3.4069;
-138.0000;0.5006;-3.4044;
-137.7000;0.5104;-3.3771;
-137.4000;0.5022;-3.3945;
-137.1000;0.5022;-3.3845;
-136.8000;0.4957;-3.3845;
-136.5000;0.4990;-3.3796;
-136.2000;0.5039;-3.3621;
-135.9000;0.4998;-3.3646;
-135.6000;0.4998;-3.3696;
-135.3000;0.4998;-3.3746;
-135.0000;0.4990;-3.3820;
-134.7000;0.4949;-3.3970;
-134.4000;0.5063;-3.3796;
-134.1000;0.4998;-3.3970;
-133.8000;0.5022;-3.3920;
-133.5000;0.4982;-3.3994;
-133.2000;0.5006;-3.3870;
-132.9000;0.5014;-3.3870;
-132.6000;0.4974;-3.3895;
-132.3000;0.4990;-3.3895;
-132.0000;0.5006;-3.3870;
-131.7000;0.4998;-3.3870;
-131.4000;0.4998;-3.3895;
-131.1000;0.5006;-3.3845;
-130.8000;0.4990;-3.3870;
-130.5000;0.4982;-3.3920;
-130.2000;0.4990;-3.3870;
-129.9000;0.4982;-3.3870;
-129.6000;0.4998;-3.3970;
-129.3000;0.5006;-3.3920;
-129.0000;0.4990;-3.3895;
-128.7000;0.4998;-3.3945;
-128.4000;0.5006;-3.3994;
-128.1000;0.5014;-3.3994;
-127.8000;0.4949;-3.4094;
-127.5000;0.4998;-3.4019;
-127.2000;0.4982;-3.4094;
-126.9000;0.4982;-3.4193;
-126.6000;0.5006;-3.4169;
-126.3000;0.4974;-3.4218;
-126.0000;0.4982;-3.4218;
-125.7000;0.4998;-3.4218;
-125.4000;0.4998;-3.4169;
-125.1000;0.4990;-3.4094;
-124.8000;0.4990;-3.4069;
-124.5000;0.5006;-3.3920;
-124.2000;0.4974;-3.3994;
-123.9000;0.5006;-3.3945;
-123.6000;0.4990;-3.4019;
-123.3000;0.4974;-3.3994;
-123.0000;0.4990;-3.4044;
-122.7000;0.4990;-3.3945;
-122.4000;0.4949;-3.3945;
-122.1000;0.4990;-3.3845;
-121.8000;0.4974;-3.3771;
-121.5000;0.4982;-3.3771;
-121.2000;0.4998;-3.3796;
-120.9000;0.5006;-3.3870;
-120.6000;0.4998;-3.3845;
-120.3000;0.5014;-3.3696;
-120.0000;0.5006;-3.3721;
-119.7000;0.5006;-3.3796;
-119.4000;0.4998;-3.3845;
-119.1000;0.5039;-3.3796;
-118.8000;0.4982;-3.3895;
-118.5000;0.4998;-3.3895;
-118.2000;0.4908;-3.4169;
-117.9000;0.4998;-3.3845;
-117.6000;0.4982;-3.3845;
-117.3000;0.4974;-3.3845;
-117.0000;0.5039;-3.3820;
-116.7000;0.4998;-3.3970;
-116.4000;0.4982;-3.4044;
-116.1000;0.4998;-3.3994;
-115.8000;0.4998;-3.3994;
-115.5000;0.5014;-3.3895;
-115.2000;0.5031;-3.3746;
-114.9000;0.4990;-3.3920;
-114.6000;0.5006;-3.3870;
-114.3000;0.4998;-3.3845;
-114.0000;0.5014;-3.3820;
-113.7000;0.4957;-3.3920;
-113.4000;0.4965;-3.3771;
-113.1000;0.5006;-3.3696;
-112.8000;0.4941;-3.3820;
-112.5000;0.5006;-3.3646;
-112.2000;0.5088;-3.3497;
-111.9000;0.4990;-3.3771;
-111.6000;0.5006;-3.3696;
-111.3000;0.5014;-3.3646;
-111.0000;0.4982;-3.3696;
-110.7000;0.5006;-3.3746;
-110.4000;0.4974;-3.3845;
-110.1000;0.5006;-3.3820;
-109.8000;0.4990;-3.3845;
-109.5000;0.4990;-3.3870;
-109.2000;0.4998;-3.3870;
-108.9000;0.4998;-3.3920;
-108.6000;0.5063;-3.3646;
-108.3000;0.5006;-3.3696;
-108.0000;0.5006;-3.3646;
-107.7000;0.4990;-3.3671;
-107.4000;0.4990;-3.3771;
-107.1000;0.5006;-3.3845;
-106.8000;0.4990;-3.3895;
-106.5000;0.4974;-3.3970;
-106.2000;0.5006;-3.3945;
-105.9000;0.4990;-3.3920;
-105.6000;0.4982;-3.3895;
-105.3000;0.4982;-3.3920;
-105.0000;0.5014;-3.3845;
-104.7000;0.4949;-3.3920;
-104.4000;0.4998;-3.3845;
-104.1000;0.5006;-3.3796;
-103.8000;0.4990;-3.3771;
-103.5000;0.4990;-3.3696;
-103.2000;0.4908;-3.3970;
-102.9000;0.4990;-3.3796;
-102.6000;0.4925;-3.4044;
-102.3000;0.5006;-3.3845;
-102.0000;0.5014;-3.3746;
-101.7000;0.4998;-3.3721;
-101.4000;0.4998;-3.3696;
-101.1000;0.4974;-3.3771;
-100.8000;0.5006;-3.3696;
-100.5000;0.4982;-3.3796;
-100.2000;0.4998;-3.3820;
-99.9000;0.4982;-3.3845;
-99.6000;0.5014;-3.3796;
-99.3000;0.5071;-3.3621;
-99.0000;0.4982;-3.3771;
-98.7000;0.4974;-3.3771;
-98.4000;0.5006;-3.3696;
-98.1000;0.5006;-3.3721;
-97.8000;0.5006;-3.3696;
-97.5000;0.4990;-3.3671;
-97.2000;0.4990;-3.3646;
-96.9000;0.5006;-3.3671;
-96.6000;0.4990;-3.3671;
-96.3000;0.4990;-3.3796;
-96.0000;0.5006;-3.3870;
-95.7000;0.4990;-3.3845;
-95.4000;0.5006;-3.3746;
-95.1000;0.4998;-3.3646;
-94.8000;0.4990;-3.3671;
-94.5000;0.4974;-3.3721;
-94.2000;0.5006;-3.3646;
-93.9000;0.4990;-3.3721;
-93.6000;0.4990;-3.3746;
-93.3000;0.4998;-3.3796;
-93.0000;0.4949;-3.3895;
-92.7000;0.4957;-3.3845;
-92.4000;0.5014;-3.3721;
-92.1000;0.5006;-3.3746;
-91.8000;0.4982;-3.3920;
-91.5000;0.5022;-3.3820;
-91.2000;0.5022;-3.3870;
-90.9000;0.5006;-3.3970;
-90.6000;0.4990;-3.4019;
-90.3000;0.5104;-3.3696;
-90.0000;0.5006;-3.3845;
-89.7000;0.4990;-3.3746;
-89.4000;0.4998;-3.3671;
-89.1000;0.5006;-3.3621;
-88.8000;0.4974;-3.3771;
-88.5000;0.5047;-3.3572;
-88.2000;0.4990;-3.3721;
-87.9000;0.4998;-3.3547;
-87.6000;0.4998;-3.3621;
-87.3000;0.4990;-3.3746;
-87.0000;0.4965;-3.3721;
-86.7000;0.5006;-3.3646;
-86.4000;0.5055;-3.3597;
-86.1000;0.5006;-3.3771;
-85.8000;0.5014;-3.3820;
-85.5000;0.4982;-3.3845;
-85.2000;0.4990;-3.3771;
-84.9000;0.5006;-3.3721;
-84.6000;0.5014;-3.3646;
-84.3000;0.4982;-3.3746;
-84.0000;0.4998;-3.3696;
-83.7000;0.5014;-3.3597;
-83.4000;0.4982;-3.3646;
-83.1000;0.5006;-3.3572;
-82.8000;0.5014;-3.3522;
-82.5000;0.4982;-3.3646;
-82.2000;0.4990;-3.3646;
-81.9000;0.4990;-3.3572;
-81.6000;0.4892;-3.3820;
-81.3000;0.4998;-3.3721;
-81.0000;0.5006;-3.3696;
-80.7000;0.5006;-3.3671;
-80.4000;0.4998;-3.3696;
-80.1000;0.5006;-3.3671;
-79.8000;0.5047;-3.3547;
-79.5000;0.5006;-3.3646;
-79.2000;0.5014;-3.3646;
-78.9000;0.4998;-3.3646;
-78.6000;0.5006;-3.3621;
-78.3000;0.4998;-3.3721;
-78.0000;0.4982;-3.3796;
-77.7000;0.4982;-3.3721;
-77.4000;0.4990;-3.3820;
-77.1000;0.5006;-3.3845;
-76.8000;0.4982;-3.3945;
-76.5000;0.5006;-3.3895;
-76.2000;0.4990;-3.3945;
-75.9000;0.4990;-3.3945;
-75.6000;0.4982;-3.3920;
-75.3000;0.4982;-3.3945;
-75.0000;0.4998;-3.3920;
-74.7000;0.5006;-3.3820;
-74.4000;0.5014;-3.3746;
-74.1000;0.4998;-3.3746;
-73.8000;0.5006;-3.3696;
-73.5000;0.4998;-3.3721;
-73.2000;0.5022;-3.3771;
-72.9000;0.4998;-3.3820;
-72.6000;0.4982;-3.3870;
-72.3000;0.4990;-3.3920;
-72.0000;0.5014;-3.3870;
-71.7000;0.5006;-3.3845;
-71.4000;0.5006;-3.3845;
-71.1000;0.4990;-3.3845;
-70.8000;0.5047;-3.3820;
-70.5000;0.5006;-3.3870;
-70.2000;0.4990;-3.3945;
-69.9000;0.4982;-3.3994;
-69.6000;0.5006;-3.3845;
-69.3000;0.5006;-3.3796;
-69.0000;0.5006;-3.3796;
-68.7000;0.5006;-3.3820;
-68.4000;0.5014;-3.3771;
-68.1000;0.4925;-3.3895;
-67.8000;0.5006;-3.3646;
-67.5000;0.4990;-3.3721;
-67.2000;0.4998;-3.3696;
-66.9000;0.5006;-3.3696;
-66.6000;0.4982;-3.3820;
-66.3000;0.4990;-3.3771;
-66.0000;0.4982;-3.3820;
-65.7000;0.4900;-3.3945;
-65.4000;0.4998;-3.3621;
-65.1000;0.5014;-3.3597;
-64.8000;0.5047;-3.3597;
-64.5000;0.4998;-3.3696;
-64.2000;0.5006;-3.3721;
-63.9000;0.5014;-3.3746;
-63.6000;0.4974;-3.3771;
-63.3000;0.4990;-3.3621;
-63.0000;0.4998;-3.3572;
-62.7000;0.5014;-3.3572;
-62.4000;0.5055;-3.3497;
-62.1000;0.4982;-3.3671;
-61.8000;0.4990;-3.3721;
-61.5000;0.4990;-3.3621;
-61.2000;0.4908;-3.3820;
-60.9000;0.5096;-3.3298;
-60.6000;0.4982;-3.3671;
-60.3000;0.4990;-3.3646;
-60.0000;0.5006;-3.3597;
-59.7000;0.5055;-3.3497;
-59.4000;0.4982;-3.3721;
-59.1000;0.4982;-3.3696;
-58.8000;0.5014;-3.3621;
-58.5000;0.4982;-3.3621;
-58.2000;0.4982;-3.3646;
-57.9000;0.4982;-3.3597;
-57.6000;0.5104;-3.3298;
-57.3000;0.4990;-3.3621;
-57.0000;0.4998;-3.3646;
-56.7000;0.4998;-3.3646;
-56.4000;0.4998;-3.3671;
-56.1000;0.4998;-3.3721;
-55.8000;0.4982;-3.3771;
-55.5000;0.4998;-3.3870;
-55.2000;0.4974;-3.3920;
-54.9000;0.4998;-3.3845;
-54.6000;0.4965;-3.3895;
-54.3000;0.4974;-3.3845;
-54.0000;0.4998;-3.3845;
-53.7000;0.5022;-3.3746;
-53.4000;0.4998;-3.3845;
-53.1000;0.4982;-3.3920;
-52.8000;0.4990;-3.4044;
-52.5000;0.4990;-3.3994;
-52.2000;0.4965;-3.3994;
-51.9000;0.4982;-3.3920;
-51.6000;0.4998;-3.3845;
-51.3000;0.4982;-3.3870;
-51.0000;0.4998;-3.3820;
-50.7000;0.4998;-3.3845;
-50.4000;0.4982;-3.3870;
-50.1000;0.5014;-3.3845;
-49.8000;0.5006;-3.3945;
-49.5000;0.4998;-3.3994;
-49.2000;0.4998;-3.4019;
-48.9000;0.4998;-3.3945;
-48.6000;0.4998;-3.3895;
-48.3000;0.4982;-3.3994;
-48.0000;0.4982;-3.4119;
-47.7000;0.4974;-3.3970;
-47.4000;0.5014;-3.3796;
-47.1000;0.5006;-3.3771;
-46.8000;0.5006;-3.3671;
-46.5000;0.4998;-3.3646;
-46.2000;0.4998;-3.3721;
-45.9000;0.4998;-3.3771;
-45.6000;0.4998;-3.3771;
-45.3000;0.5014;-3.3696;
-45.0000;0.4990;-3.3721;
-44.7000;0.5006;-3.3796;
-44.4000;0.5014;-3.3696;
-44.1000;0.5014;-3.3646;
-43.8000;0.5014;-3.3696;
-43.5000;0.5014;-3.3771;
-43.2000;0.4941;-3.4019;
-42.9000;0.4990;-3.3870;
-42.6000;0.4998;-3.3820;
-42.3000;0.5022;-3.3771;
-42.0000;0.4990;-3.3845;
-41.7000;0.4884;-3.4144;
-41.4000;0.4998;-3.3920;
-41.1000;0.5055;-3.3746;
-40.8000;0.5022;-3.3845;
-40.5000;0.5022;-3.3771;
-40.2000;0.4965;-3.3895;
-39.9000;0.4990;-3.3820;
-39.6000;0.5022;-3.3771;
-39.3000;0.4998;-3.3845;
-39.0000;0.5006;-3.3796;
-38.7000;0.4892;-3.4094;
-38.4000;0.4990;-3.3845;
-38.1000;0.5006;-3.3721;
-37.8000;0.4998;-3.3746;
-37.5000;0.4998;-3.3796;
-37.2000;0.5014;-3.3870;
-36.9000;0.4998;-3.3945;
-36.6000;0.4965;-3.3945;
-36.3000;0.4990;-3.3945;
-36.0000;0.4982;-3.3895;
-35.7000;0.4998;-3.3870;
-35.4000;0.5014;-3.3895;
-35.1000;0.4998;-3.3945;
-34.8000;0.5031;-3.3920;
-34.5000;0.4990;-3.3920;
-34.2000;0.4998;-3.3920;
-33.9000;0.4990;-3.3920;
-33.6000;0.4998;-3.3920;
-33.3000;0.5014;-3.3920;
-33.0000;0.4990;-3.3970;
-32.7000;0.4998;-3.3945;
-32.4000;0.5014;-3.3920;
-32.1000;0.5006;-3.3920;
-31.8000;0.4974;-3.3970;
-31.5000;0.4982;-3.3895;
-31.2000;0.4990;-3.3920;
-30.9000;0.4990;-3.3895;
-30.6000;0.4982;-3.3870;
-30.3000;0.4990;-3.3771;
-30.0000;0.4998;-3.3671;
-29.7000;0.5022;-3.3671;
-29.4000;0.5006;-3.3746;
-29.1000;0.4982;-3.3746;
-28.8000;0.4990;-3.3696;
-28.5000;0.5006;-3.3746;
-28.2000;0.4998;-3.3721;
-27.9000;0.4998;-3.3671;
-27.6000;0.5006;-3.3671;
-27.3000;0.4990;-3.3696;
-27.0000;0.4998;-3.3721;
-26.7000;0.5071;-3.3522;
-26.4000;0.5006;-3.3771;
-26.1000;0.4998;-3.3671;
-25.8000;0.4982;-3.3572;
-25.5000;0.4957;-3.3597;
-25.2000;0.4982;-3.3522;
-24.9000;0.5014;-3.3547;
-24.6000;0.5014;-3.3572;
-24.3000;0.4990;-3.3472;
-24.0000;0.4965;-3.3422;
-23.7000;0.4974;-3.3522;
-23.4000;0.4965;-3.3547;
-23.1000;0.4982;-3.3597;
-22.8000;0.4990;-3.3646;
-22.5000;0.5006;-3.3621;
-22.2000;0.4990;-3.3621;
-21.9000;0.4990;-3.3572;
-21.6000;0.4990;-3.3696;
-21.3000;0.4990;-3.3721;
-21.0000;0.4925;-3.3845;
-20.7000;0.5006;-3.3597;
-20.4000;0.4974;-3.3621;
-20.1000;0.4998;-3.3572;
-19.8000;0.5039;-3.3497;
-19.5000;0.5006;-3.3572;
-19.2000;0.4998;-3.3621;
-18.9000;0.5006;-3.3646;
-18.6000;0.4990;-3.3771;
-18.3000;0.4982;-3.3746;
-18.0000;0.4990;-3.3746;
-17.7000;0.4982;-3.3671;
-17.4000;0.5014;-3.3646;
-17.1000;0.5006;-3.3796;
-16.8000;0.5006;-3.3746;
-16.5000;0.4982;-3.3820;
-16.2000;0.4982;-3.3845;
-15.9000;0.4982;-3.3820;
-15.6000;0.4998;-3.3820;
-15.3000;0.4965;-3.3820;
-15.0000;0.4990;-3.3820;
-14.7000;0.5014;-3.3646;
-14.4000;0.4990;-3.3572;
-14.1000;0.4990;-3.3597;
-13.8000;0.4990;-3.3671;
-13.5000;0.4990;-3.3696;
-13.2000;0.4974;-3.3671;
-12.9000;0.4998;-3.3646;
-12.6000;0.5022;-3.3621;
-12.3000;0.4990;-3.3696;
-12.0000;0.4990;-3.3671;
-11.7000;0.5006;-3.3696;
-11.4000;0.4998;-3.3721;
-11.1000;0.5014;-3.3771;
-10.8000;0.4998;-3.3870;
-10.5000;0.5006;-3.3796;
-10.2000;0.5006;-3.3721;
-9.9000;0.5006;-3.3845;
-9.6000;0.5014;-3.3721;
-9.3000;0.5014;-3.3771;
-9.0000;0.5006;-3.3845;
-8.7000;0.5006;-3.3820;
-8.4000;0.4990;-3.3870;
-8.1000;0.4990;-3.3994;
-7.8000;0.4998;-3.3870;
-7.5000;0.5006;-3.3845;
-7.2000;0.4974;-3.3870;
-6.9000;0.4998;-3.3796;
-6.6000;0.4917;-3.3920;
-6.3000;0.4998;-3.3721;
-6.0000;0.4998;-3.3671;
-5.7000;0.5031;-3.3597;
-5.4000;0.4990;-3.3696;
-5.1000;0.5022;-3.3621;
-4.8000;0.5022;-3.3572;
-4.5000;0.5006;-3.3597;
-4.2000;0.5014;-3.3597;
-3.9000;0.4990;-3.3696;
-3.6000;0.5014;-3.3696;
-3.3000;0.4965;-3.3895;
-3.0000;0.4965;-3.3820;
-2.7000;0.4990;-3.3845;
-2.4000;0.4990;-3.3796;
-2.1000;0.4990;-3.3796;
-1.8000;0.5006;-3.3771;
-1.5000;0.5006;-3.3820;
-1.2000;0.4998;-3.3820;
-0.9000;0.4982;-3.3870;
-0.6000;0.4998;-3.3895;
-0.3000;0.5006;-3.3870;
0.0000;0.5006;-3.3870;
0.3000;0.5250;-3.3323;
0.6000;0.5560;-3.3049;
0.9000;0.5804;-3.2751;
1.2000;0.6007;-3.2478;
1.5000;0.6170;-3.2229;
1.8000;0.6309;-3.2055;
2.1000;0.6382;-3.1980;
2.4000;0.6504;-3.1806;
2.7000;0.6634;-3.1533;
3.0000;0.6675;-3.1383;
3.3000;0.6650;-3.1557;
3.6000;0.6797;-3.1259;
3.9000;0.6821;-3.1334;
4.2000;0.6886;-3.1334;
4.5000;0.6911;-3.1309;
4.8000;0.6943;-3.1334;
5.1000;0.6976;-3.1309;
5.4000;0.7017;-3.1209;
5.7000;0.7041;-3.1160;
6.0000;0.7049;-3.1160;
6.3000;0.7098;-3.1060;
6.6000;0.7114;-3.1060;
6.9000;0.7123;-3.0985;
7.2000;0.7155;-3.0985;
7.5000;0.7163;-3.1060;
7.8000;0.7212;-3.0936;
8.1000;0.7228;-3.1035;
8.4000;0.7236;-3.1010;
8.7000;0.7236;-3.0985;
9.0000;0.7245;-3.1110;
9.3000;0.7261;-3.1184;
9.6000;0.7285;-3.1135;
9.9000;0.7285;-3.1085;
10.2000;0.7302;-3.1035;
10.5000;0.7326;-3.1085;
10.8000;0.7334;-3.0985;
11.1000;0.7318;-3.1135;
11.4000;0.7269;-3.1309;
11.7000;0.7342;-3.1234;
12.0000;0.7375;-3.1160;
12.3000;0.7424;-3.1085;
12.6000;0.7456;-3.0985;
12.9000;0.7359;-3.1135;
13.2000;0.7424;-3.0911;
13.5000;0.7424;-3.0911;
13.8000;0.7424;-3.0861;
14.1000;0.7448;-3.0737;
14.4000;0.7464;-3.0662;
14.7000;0.7456;-3.0836;
15.0000;0.7464;-3.0836;
15.3000;0.7464;-3.0836;
15.6000;0.7473;-3.0836;
15.9000;0.7456;-3.0886;
16.2000;0.7473;-3.0911;
16.5000;0.7497;-3.0886;
16.8000;0.7489;-3.0985;
17.1000;0.7489;-3.0985;
17.4000;0.7554;-3.0836;
17.7000;0.7497;-3.0985;
18.0000;0.7497;-3.0961;
18.3000;0.7521;-3.0911;
18.6000;0.7489;-3.0961;
18.9000;0.7530;-3.0811;
19.2000;0.7521;-3.0861;
19.5000;0.7521;-3.0861;
19.8000;0.7546;-3.0886;
20.1000;0.7530;-3.0936;
20.4000;0.7530;-3.0936;
20.7000;0.7489;-3.1060;
21.0000;0.7497;-3.1085;
21.3000;0.7554;-3.0886;
21.6000;0.7538;-3.0936;
21.9000;0.7505;-3.1035;
22.2000;0.7562;-3.0836;
22.5000;0.7570;-3.0886;
22.8000;0.7578;-3.0985;
23.1000;0.7586;-3.0961;
23.4000;0.7586;-3.1035;
23.7000;0.7586;-3.1010;
24.0000;0.7578;-3.1035;
24.3000;0.7595;-3.0985;
24.6000;0.7611;-3.0836;
24.9000;0.7603;-3.0911;
25.2000;0.7554;-3.1035;
25.5000;0.7603;-3.0911;
25.8000;0.7603;-3.0936;
26.1000;0.7570;-3.1010;
26.4000;0.7643;-3.0861;
26.7000;0.7611;-3.0961;
27.0000;0.7611;-3.0936;
27.3000;0.7505;-3.1135;
27.6000;0.7619;-3.0911;
27.9000;0.7643;-3.0861;
28.2000;0.7586;-3.1110;
28.5000;0.7619;-3.1010;
28.8000;0.7627;-3.1010;
29.1000;0.7603;-3.1085;
29.4000;0.7595;-3.1060;
29.7000;0.7643;-3.0985;
30.0000;0.7643;-3.1035;
30.3000;0.7676;-3.0936;
30.6000;0.7652;-3.0936;
30.9000;0.7635;-3.1010;
31.2000;0.7643;-3.0911;
31.5000;0.7660;-3.0886;
31.8000;0.7643;-3.0985;
32.1000;0.7643;-3.1010;
32.4000;0.7660;-3.0961;
32.7000;0.7652;-3.0936;
33.0000;0.7660;-3.0936;
33.3000;0.7652;-3.1035;
33.6000;0.7635;-3.1184;
33.9000;0.7668;-3.1035;
34.2000;0.7652;-3.1135;
34.5000;0.7676;-3.0985;
34.8000;0.7643;-3.0936;
35.1000;0.7652;-3.0886;
35.4000;0.7700;-3.0836;
35.7000;0.7595;-3.1010;
36.0000;0.7668;-3.0786;
36.3000;0.7660;-3.0687;
36.6000;0.7603;-3.0786;
36.9000;0.7676;-3.0588;
37.2000;0.7700;-3.0612;
37.5000;0.7684;-3.0662;
37.8000;0.7684;-3.0612;
38.1000;0.7652;-3.0662;
38.4000;0.7676;-3.0612;
38.7000;0.7676;-3.0612;
39.0000;0.7684;-3.0612;
39.3000;0.7684;-3.0637;
39.6000;0.7684;-3.0712;
39.9000;0.7684;-3.0836;
40.2000;0.7692;-3.0786;
40.5000;0.7709;-3.0786;
40.8000;0.7692;-3.0836;
41.1000;0.7700;-3.0811;
41.4000;0.7684;-3.0861;
41.7000;0.7692;-3.0811;
42.0000;0.7684;-3.0861;
42.3000;0.7676;-3.0936;
42.6000;0.7709;-3.0836;
42.9000;0.7692;-3.0762;
43.2000;0.7692;-3.0762;
43.5000;0.7692;-3.0811;
43.8000;0.7700;-3.0786;
44.1000;0.7709;-3.0712;
44.4000;0.7700;-3.0762;
44.7000;0.7692;-3.0786;
45.0000;0.7709;-3.0786;
45.3000;0.7692;-3.0836;
45.6000;0.7717;-3.0786;
45.9000;0.7660;-3.0985;
46.2000;0.7700;-3.0886;
46.5000;0.7700;-3.0861;
46.8000;0.7684;-3.0985;
47.1000;0.7692;-3.0936;
47.4000;0.7709;-3.0861;
47.7000;0.7717;-3.0886;
48.0000;0.7717;-3.0911;
48.3000;0.7725;-3.0861;
48.6000;0.7725;-3.0886;
48.9000;0.7709;-3.0961;
49.2000;0.7717;-3.0961;
49.5000;0.7684;-3.1060;
49.8000;0.7709;-3.0961;
50.1000;0.7684;-3.1035;
50.4000;0.7790;-3.0811;
50.7000;0.7717;-3.0911;
51.0000;0.7725;-3.0911;
51.3000;0.7635;-3.1160;
51.6000;0.7709;-3.0961;
51.9000;0.7782;-3.0762;
52.2000;0.7660;-3.1135;
52.5000;0.7725;-3.0911;
52.8000;0.7717;-3.1010;
53.1000;0.7725;-3.1110;
53.4000;0.7741;-3.0936;
53.7000;0.7725;-3.0911;
54.0000;0.7709;-3.0861;
54.3000;0.7660;-3.0961;
54.6000;0.7700;-3.0936;
54.9000;0.7741;-3.0886;
55.2000;0.7741;-3.0911;
55.5000;0.7725;-3.0861;
55.8000;0.7733;-3.0786;
56.1000;0.7741;-3.0886;
56.4000;0.7733;-3.0836;
56.7000;0.7700;-3.0811;
57.0000;0.7733;-3.0861;
57.3000;0.7717;-3.0911;
57.6000;0.7749;-3.0836;
57.9000;0.7660;-3.1060;
58.2000;0.7725;-3.0886;
58.5000;0.7725;-3.0836;
58.8000;0.7700;-3.0861;
59.1000;0.7709;-3.0911;
59.4000;0.7774;-3.0811;
59.7000;0.7709;-3.0886;
60.0000;0.7725;-3.0886;
60.3000;0.7749;-3.0886;
60.6000;0.7717;-3.0911;
60.9000;0.7725;-3.0936;
61.2000;0.7741;-3.0936;
61.5000;0.7741;-3.0936;
61.8000;0.7733;-3.0861;
62.1000;0.7709;-3.1010;
62.4000;0.7709;-3.1060;
62.7000;0.7725;-3.1060;
63.0000;0.7741;-3.0961;
63.3000;0.7725;-3.1085;
63.6000;0.7733;-3.1110;
63.9000;0.7733;-3.1010;
64.2000;0.7741;-3.0985;
64.5000;0.7749;-3.0985;
64.8000;0.7741;-3.0936;
65.1000;0.7725;-3.0985;
65.4000;0.7741;-3.0936;
65.7000;0.7749;-3.0961;
66.0000;0.7766;-3.0786;
66.3000;0.7717;-3.0861;
66.6000;0.7766;-3.0811;
66.9000;0.7782;-3.0687;
67.2000;0.7757;-3.0762;
67.5000;0.7741;-3.0836;
67.8000;0.7749;-3.0762;
68.1000;0.7749;-3.0836;
68.4000;0.7749;-3.0836;
68.7000;0.7741;-3.0836;
69.0000;0.7692;-3.0911;
69.3000;0.7733;-3.0886;
69.6000;0.7733;-3.0936;
69.9000;0.7741;-3.0985;
70.2000;0.7741;-3.0936;
70.5000;0.7766;-3.0911;
70.8000;0.7749;-3.0961;
71.1000;0.7741;-3.1035;
71.4000;0.7749;-3.0985;
71.7000;0.7749;-3.1060;
72.0000;0.7749;-3.0961;
72.3000;0.7749;-3.0985;
72.6000;0.7749;-3.1060;
72.9000;0.7749;-3.1010;
73.2000;0.7725;-3.1110;
73.5000;0.7766;-3.0961;
73.8000;0.7741;-3.0936;
74.1000;0.7766;-3.0886;
74.4000;0.7766;-3.0911;
74.7000;0.7774;-3.0861;
75.0000;0.7749;-3.0836;
75.3000;0.7749;-3.0811;
75.6000;0.7741;-3.0861;
75.9000;0.7741;-3.0936;
76.2000;0.7774;-3.0762;
76.5000;0.7741;-3.0811;
76.8000;0.7676;-3.1085;
77.1000;0.7774;-3.0861;
77.4000;0.7774;-3.0886;
77.7000;0.7741;-3.0961;
78.0000;0.7749;-3.0911;
78.3000;0.7798;-3.0886;
78.6000;0.7757;-3.0985;
78.9000;0.7749;-3.0961;
79.2000;0.7733;-3.0936;
79.5000;0.7733;-3.0911;
79.8000;0.7774;-3.0762;
80.1000;0.7741;-3.0836;
80.4000;0.7700;-3.1060;
80.7000;0.7725;-3.1010;
81.0000;0.7741;-3.0936;
81.3000;0.7782;-3.0786;
81.6000;0.7766;-3.0861;
81.9000;0.7749;-3.0886;
82.2000;0.7741;-3.0861;
82.5000;0.7741;-3.0836;
82.8000;0.7725;-3.0811;
83.1000;0.7749;-3.0737;
83.4000;0.7741;-3.0836;
83.7000;0.7757;-3.0762;
84.0000;0.7741;-3.0811;
84.3000;0.7733;-3.0786;
84.6000;0.7741;-3.0737;
84.9000;0.7757;-3.0687;
85.2000;0.7749;-3.0687;
85.5000;0.7749;-3.0737;
85.8000;0.7749;-3.0762;
86.1000;0.7741;-3.0737;
86.4000;0.7749;-3.0712;
86.7000;0.7749;-3.0712;
87.0000;0.7733;-3.0712;
87.3000;0.7749;-3.0637;
87.6000;0.7757;-3.0762;
87.9000;0.7733;-3.0811;
88.2000;0.7741;-3.0786;
88.5000;0.7725;-3.0861;
88.8000;0.7749;-3.0886;
89.1000;0.7757;-3.0911;
89.4000;0.7766;-3.0886;
89.7000;0.7733;-3.0961;
90.0000;0.7757;-3.0836;
90.3000;0.7749;-3.0836;
90.6000;0.7741;-3.0836;
90.9000;0.7741;-3.0786;
91.2000;0.7757;-3.0687;
91.5000;0.7806;-3.0463;
91.8000;0.7757;-3.0662;
92.1000;0.7733;-3.0786;
92.4000;0.7749;-3.0762;
92.7000;0.7668;-3.0936;
93.0000;0.7749;-3.0811;
93.3000;0.7749;-3.0836;
93.6000;0.7749;-3.0762;
93.9000;0.7749;-3.0687;
94.2000;0.7749;-3.0712;
94.5000;0.7749;-3.0737;
94.8000;0.7749;-3.0811;
95.1000;0.7774;-3.0836;
95.4000;0.7749;-3.0985;
95.7000;0.7757;-3.0886;
96.0000;0.7725;-3.1110;
96.3000;0.7709;-3.1110;
96.6000;0.7766;-3.0961;
96.9000;0.7757;-3.0985;
97.2000;0.7749;-3.0985;
97.5000;0.7749;-3.0985;
97.8000;0.7757;-3.0985;
98.1000;0.7749;-3.0936;
98.4000;0.7757;-3.0911;
98.7000;0.7766;-3.0961;
99.0000;0.7806;-3.0911;
99.3000;0.7757;-3.1010;
99.6000;0.7757;-3.1010;
99.9000;0.7798;-3.0861;
100.2000;0.7757;-3.0985;
100.5000;0.7757;-3.0936;
100.8000;0.7766;-3.0811;
101.1000;0.7806;-3.0662;
101.4000;0.7749;-3.0836;
101.7000;0.7749;-3.0861;
102.0000;0.7717;-3.0985;
102.3000;0.7757;-3.0936;
102.6000;0.7749;-3.1010;
102.9000;0.7757;-3.1060;
103.2000;0.7692;-3.1234;
103.5000;0.7700;-3.1110;
103.8000;0.7757;-3.0985;
104.1000;0.7749;-3.0936;
104.4000;0.7733;-3.1010;
104.7000;0.7749;-3.1085;
105.0000;0.7766;-3.1085;
105.3000;0.7741;-3.1259;
105.6000;0.7741;-3.1110;
105.9000;0.7757;-3.1035;
106.2000;0.7757;-3.1035;
106.5000;0.7757;-3.1060;
106.8000;0.7749;-3.0886;
107.1000;0.7757;-3.0836;
107.4000;0.7749;-3.0861;
107.7000;0.7774;-3.0861;
108.0000;0.7741;-3.0861;
108.3000;0.7741;-3.0811;
108.6000;0.7749;-3.0886;
108.9000;0.7749;-3.0836;
109.2000;0.7709;-3.1010;
109.5000;0.7863;-3.0637;
109.8000;0.7766;-3.0836;
110.1000;0.7757;-3.0762;
110.4000;0.7749;-3.0762;
110.7000;0.7766;-3.0687;
111.0000;0.7741;-3.0737;
111.3000;0.7757;-3.0861;
111.6000;0.7757;-3.0936;
111.9000;0.7757;-3.1010;
112.2000;0.7766;-3.0985;
112.5000;0.7823;-3.0911;
112.8000;0.7757;-3.1035;
113.1000;0.7733;-3.1060;
113.4000;0.7749;-3.1060;
113.7000;0.7749;-3.1160;
114.0000;0.7733;-3.1135;
114.3000;0.7774;-3.0985;
114.6000;0.7774;-3.0985;
114.9000;0.7733;-3.1135;
115.2000;0.7766;-3.0936;
115.5000;0.7741;-3.0886;
115.8000;0.7733;-3.0861;
116.1000;0.7766;-3.0886;
116.4000;0.7749;-3.0936;
116.7000;0.7749;-3.0985;
117.0000;0.7741;-3.0985;
117.3000;0.7741;-3.1035;
117.6000;0.7757;-3.1060;
117.9000;0.7766;-3.1035;
118.2000;0.7757;-3.1060;
118.5000;0.7749;-3.0961;
118.8000;0.7757;-3.1010;
119.1000;0.7757;-3.1060;
119.4000;0.7782;-3.1060;
119.7000;0.7757;-3.1010;
120.0000;0.7700;-3.1110;
120.3000;0.7741;-3.1010;
120.6000;0.7741;-3.0985;
120.9000;0.7741;-3.0985;
121.2000;0.7733;-3.0985;
121.5000;0.7774;-3.0985;
121.8000;0.7766;-3.0936;
122.1000;0.7749;-3.1010;
122.4000;0.7684;-3.1085;
122.7000;0.7741;-3.0985;
123.0000;0.7749;-3.0985;
123.3000;0.7774;-3.0985;
123.6000;0.7766;-3.1010;
123.9000;0.7790;-3.0985;
124.2000;0.7741;-3.1010;
124.5000;0.7782;-3.0936;
124.8000;0.7774;-3.0985;
125.1000;0.7766;-3.1060;
125.4000;0.7798;-3.0985;
125.7000;0.7798;-3.0886;
126.0000;0.7749;-3.1010;
126.3000;0.7741;-3.1085;
126.6000;0.7749;-3.1110;
126.9000;0.7766;-3.1085;
127.2000;0.7741;-3.1184;
127.5000;0.7749;-3.1135;
127.8000;0.7725;-3.1160;
128.1000;0.7749;-3.1110;
128.4000;0.7798;-3.1010;
128.7000;0.7749;-3.1110;
129.0000;0.7741;-3.0985;
129.3000;0.7757;-3.0961;
129.6000;0.7823;-3.0811;
129.9000;0.7766;-3.0911;
130.2000;0.7725;-3.0961;
130.5000;0.7749;-3.0861;
130.8000;0.7766;-3.0861;
131.1000;0.7766;-3.0836;
131.4000;0.7757;-3.0811;
131.7000;0.7766;-3.0861;
132.0000;0.7766;-3.0886;
132.3000;0.7888;-3.0588;
132.6000;0.7757;-3.0961;
132.9000;0.7766;-3.0886;
133.2000;0.7749;-3.0936;
133.5000;0.7766;-3.0936;
133.8000;0.7766;-3.1010;
134.1000;0.7774;-3.1010;
134.4000;0.7733;-3.1160;
134.7000;0.7749;-3.1184;
135.0000;0.7757;-3.1085;
135.3000;0.7749;-3.1035;
135.6000;0.7741;-3.1110;
135.9000;0.7766;-3.0985;
136.2000;0.7757;-3.1035;
136.5000;0.7684;-3.1334;
136.8000;0.7741;-3.1284;
137.1000;0.7660;-3.1483;
137.4000;0.7749;-3.1284;
137.7000;0.7749;-3.1234;
138.0000;0.7757;-3.1184;
138.3000;0.7749;-3.1085;
138.6000;0.7782;-3.0936;
138.9000;0.7766;-3.0936;
139.2000;0.7757;-3.0886;
139.5000;0.7766;-3.0886;
139.8000;0.7757;-3.0836;
140.1000;0.7766;-3.0861;
140.4000;0.7749;-3.0861;
140.7000;0.7766;-3.0886;
141.0000;0.7757;-3.0911;
141.3000;0.7766;-3.0911;
141.6000;0.7749;-3.0936;
141.9000;0.7823;-3.0762;
142.2000;0.7757;-3.0961;
142.5000;0.7757;-3.0961;
142.8000;0.7782;-3.0985;
143.1000;0.7766;-3.0961;
143.4000;0.7766;-3.0961;
143.7000;0.7749;-3.0961;
144.0000;0.7766;-3.0886;
144.3000;0.7741;-3.0961;
144.6000;0.7757;-3.0985;
144.9000;0.7749;-3.0961;
145.2000;0.7774;-3.0936;
145.5000;0.7766;-3.0961;
145.8000;0.7749;-3.1010;
146.1000;0.7725;-3.1085;
146.4000;0.7766;-3.1010;
146.7000;0.7774;-3.1060;
147.0000;0.7676;-3.1309;
147.3000;0.7725;-3.1135;
147.6000;0.7733;-3.1259;
147.9000;0.7766;-3.1135;
148.2000;0.7757;-3.1135;
148.5000;0.7749;-3.1135;
148.8000;0.7757;-3.1060;
149.1000;0.7782;-3.0886;
149.4000;0.7700;-3.1085;
149.7000;0.7733;-3.0985;
150.0000;0.7757;-3.0861;
150.3000;0.7766;-3.0786;
150.6000;0.7725;-3.0911;
150.9000;0.7749;-3.0936;
151.2000;0.7749;-3.0836;
151.5000;0.7757;-3.0861;
151.8000;0.7766;-3.0911;
152.1000;0.7749;-3.1010;
152.4000;0.7766;-3.1035;
152.7000;0.7757;-3.1010;
153.0000;0.7717;-3.1184;
153.3000;0.7741;-3.1135;
153.6000;0.7774;-3.1010;
153.9000;0.7757;-3.1010;
154.2000;0.7733;-3.1060;
154.5000;0.7757;-3.0961;
154.8000;0.7766;-3.1010;
155.1000;0.7749;-3.1035;
155.4000;0.7717;-3.1135;
155.7000;0.7725;-3.1110;
156.0000;0.7749;-3.1035;
156.3000;0.7806;-3.0911;
156.6000;0.7757;-3.1010;
156.9000;0.7766;-3.1010;
157.2000;0.7733;-3.1135;
157.5000;0.7774;-3.1060;
157.8000;0.7757;-3.1135;
158.1000;0.7741;-3.1135;
158.4000;0.7766;-3.1010;
158.7000;0.7766;-3.1010;
159.0000;0.7766;-3.0961;
159.3000;0.7757;-3.0985;
159.6000;0.7798;-3.0886;
159.9000;0.7749;-3.0985;
160.2000;0.7749;-3.0985;
160.5000;0.7757;-3.0936;
160.8000;0.7766;-3.0961;
161.1000;0.7757;-3.1010;
161.4000;0.7749;-3.1160;
161.7000;0.7782;-3.1184;
162.0000;0.7766;-3.1135;
162.3000;0.7757;-3.1135;
162.6000;0.7766;-3.1209;
162.9000;0.7749;-3.1060;
163.2000;0.7766;-3.1035;
163.5000;0.7774;-3.0985;
163.8000;0.7798;-3.0886;
164.1000;0.7757;-3.0985;
164.4000;0.7741;-3.0985;
164.7000;0.7733;-3.0985;
165.0000;0.7757;-3.0985;
165.3000;0.7757;-3.0985;
165.6000;0.7741;-3.1010;
165.9000;0.7766;-3.0961;
166.2000;0.7757;-3.1035;
166.5000;0.7749;-3.1160;
166.8000;0.7757;-3.1234;
167.1000;0.7725;-3.1234;
167.4000;0.7757;-3.1184;
167.7000;0.7766;-3.1184;
168.0000;0.7757;-3.1259;
168.3000;0.7823;-3.1010;
168.6000;0.7766;-3.1085;
168.9000;0.7766;-3.0936;
169.2000;0.7741;-3.0985;
169.5000;0.7733;-3.1160;
169.8000;0.7757;-3.1060;
170.1000;0.7717;-3.1135;
170.4000;0.7725;-3.1085;
170.7000;0.7757;-3.0961;
171.0000;0.7806;-3.0886;
171.3000;0.7798;-3.0861;
171.6000;0.7766;-3.1010;
171.9000;0.7717;-3.1160;
172.2000;0.7757;-3.1085;
172.5000;0.7766;-3.1085;
172.8000;0.7774;-3.0961;
173.1000;0.7782;-3.0811;
173.4000;0.7741;-3.0861;
173.7000;0.7766;-3.0712;
174.0000;0.7774;-3.0737;
174.3000;0.7757;-3.0712;
174.6000;0.7741;-3.0762;
174.9000;0.7757;-3.0786;
175.2000;0.7749;-3.0861;
175.5000;0.7766;-3.0911;
175.8000;0.7741;-3.0985;
176.1000;0.7749;-3.0961;
176.4000;0.7766;-3.0886;
176.7000;0.7766;-3.0936;
177.0000;0.7774;-3.0985;
177.3000;0.7757;-3.1160;
177.6000;0.7749;-3.1209;
177.9000;0.7766;-3.1085;
178.2000;0.7782;-3.0961;
178.5000;0.7749;-3.1010;
178.8000;0.7749;-3.0961;
179.1000;0.7757;-3.0961;
179.4000;0.7782;-3.0911;
179.7000;0.7757;-3.1085;
180.0000;0.7774;-3.0961;
180.3000;0.7757;-3.0961;
180.6000;0.7774;-3.0961;
180.9000;0.7709;-3.1085;
181.2000;0.7766;-3.0861;
181.5000;0.7757;-3.0836;
181.8000;0.7749;-3.0762;
182.1000;0.7741;-3.0687;
182.4000;0.7741;-3.0712;
182.7000;0.7766;-3.0712;
183.0000;0.7749;-3.0762;
183.3000;0.7757;-3.0786;
183.6000;0.7766;-3.0786;
183.9000;0.7757;-3.0712;
184.2000;0.7757;-3.0762;
184.5000;0.7766;-3.0737;
184.8000;0.7757;-3.0687;
185.1000;0.7880;-3.0364;
185.4000;0.7757;-3.0637;
185.7000;0.7790;-3.0637;
186.0000;0.7749;-3.0712;
186.3000;0.7749;-3.0737;
186.6000;0.7700;-3.0836;
186.9000;0.7757;-3.0811;
187.2000;0.7790;-3.0737;
187.5000;0.7790;-3.0762;
187.8000;0.7766;-3.0786;
188.1000;0.7749;-3.0836;
188.4000;0.7790;-3.0737;
188.7000;0.7766;-3.0737;
189.0000;0.7757;-3.0786;
189.3000;0.7757;-3.0861;
189.6000;0.7782;-3.0836;
189.9000;0.7774;-3.0886;
190.2000;0.7749;-3.0936;
190.5000;0.7749;-3.0936;
190.8000;0.7757;-3.0861;
191.1000;0.7668;-3.0985;
191.4000;0.7717;-3.0836;
191.7000;0.7749;-3.0936;
192.0000;0.7725;-3.1035;
192.3000;0.7741;-3.0911;
192.6000;0.7741;-3.0911;
192.9000;0.7757;-3.0836;
193.2000;0.7757;-3.0985;
193.5000;0.7741;-3.1035;
193.8000;0.7766;-3.0985;
194.1000;0.7725;-3.1035;
194.4000;0.7757;-3.0861;
194.7000;0.7757;-3.0836;
195.0000;0.7782;-3.0811;
195.3000;0.7766;-3.0936;
195.6000;0.7757;-3.0961;
195.9000;0.7766;-3.0961;
196.2000;0.7774;-3.0861;
196.5000;0.7757;-3.0836;
196.8000;0.7757;-3.0861;
197.1000;0.7749;-3.0836;
197.4000;0.7717;-3.0961;
197.7000;0.7757;-3.0786;
198.0000;0.7766;-3.0861;
198.3000;0.7766;-3.0911;
198.6000;0.7749;-3.0811;
198.9000;0.7766;-3.0811;
199.2000;0.7766;-3.0687;
199.5000;0.7757;-3.0737;
199.8000;0.7749;-3.0737;
200.1000;0.7757;-3.0737;
200.4000;0.7749;-3.0737;
200.7000;0.7774;-3.0836;
201.0000;0.7741;-3.0861;
201.3000;0.7757;-3.0786;
201.6000;0.7741;-3.0786;
201.9000;0.7684;-3.1085;
202.2000;0.7741;-3.0836;
202.5000;0.7652;-3.1035;
202.8000;0.7741;-3.0936;
203.1000;0.7766;-3.0961;
203.4000;0.7749;-3.0936;
203.7000;0.7733;-3.0936;
204.0000;0.7749;-3.0911;
204.3000;0.7741;-3.0886;
204.6000;0.7749;-3.0861;
204.9000;0.7757;-3.0786;
205.2000;0.7741;-3.0836;
205.5000;0.7790;-3.0737;
205.8000;0.7757;-3.0786;
206.1000;0.7741;-3.0786;
206.4000;0.7766;-3.0762;
206.7000;0.7766;-3.0786;
207.0000;0.7782;-3.0712;
207.3000;0.7782;-3.0662;
207.6000;0.7847;-3.0488;
207.9000;0.7757;-3.0737;
208.2000;0.7774;-3.0786;
208.5000;0.7757;-3.0861;
208.8000;0.7749;-3.0886;
209.1000;0.7709;-3.1035;
209.4000;0.7766;-3.0936;
209.7000;0.7749;-3.0985;
210.0000;0.7733;-3.1060;
210.3000;0.7757;-3.0961;
210.6000;0.7766;-3.0985;
210.9000;0.7774;-3.0985;
211.2000;0.7766;-3.1010;
211.5000;0.7757;-3.1010;
211.8000;0.7766;-3.0961;
212.1000;0.7766;-3.1010;
212.4000;0.7766;-3.1085;
212.7000;0.7749;-3.1060;
213.0000;0.7709;-3.1209;
213.3000;0.7766;-3.1085;
213.6000;0.7741;-3.1160;
213.9000;0.7757;-3.1085;
214.2000;0.7749;-3.1110;
214.5000;0.7806;-3.0911;
214.8000;0.7798;-3.0936;
215.1000;0.7652;-3.1284;
215.4000;0.7749;-3.0936;
215.7000;0.7741;-3.0936;
216.0000;0.7766;-3.0911;
216.3000;0.7757;-3.0961;
216.6000;0.7757;-3.1060;
216.9000;0.7749;-3.0985;
217.2000;0.7757;-3.0961;
217.5000;0.7749;-3.0985;
217.8000;0.7749;-3.1010;
218.1000;0.7757;-3.1035;
218.4000;0.7782;-3.0961;
218.7000;0.7766;-3.0911;
219.0000;0.7774;-3.0861;
219.3000;0.7782;-3.0886;
219.6000;0.7757;-3.0886;
219.9000;0.7766;-3.0861;
220.2000;0.7757;-3.0985;
220.5000;0.7757;-3.0985;
220.8000;0.7757;-3.0936;
221.1000;0.7774;-3.0911;
221.4000;0.7766;-3.0836;
221.7000;0.7766;-3.0886;
222.0000;0.7741;-3.0911;
222.3000;0.7782;-3.0911;
222.6000;0.7757;-3.0961;
222.9000;0.7766;-3.0936;
223.2000;0.7757;-3.0886;
223.5000;0.7806;-3.0762;
223.8000;0.7757;-3.0811;
224.1000;0.7774;-3.0737;
224.4000;0.7766;-3.0786;
224.7000;0.7749;-3.0861;
225.0000;0.7741;-3.0836;
225.3000;0.7733;-3.0811;
225.6000;0.7749;-3.0786;
225.9000;0.7741;-3.0836;
226.2000;0.7757;-3.0911;
226.5000;0.7749;-3.0886;
226.8000;0.7749;-3.0861;
227.1000;0.7798;-3.0662;
227.4000;0.7749;-3.0712;
227.7000;0.7766;-3.0687;
228.0000;0.7733;-3.0786;
228.3000;0.7749;-3.0836;
228.6000;0.7766;-3.0836;
228.9000;0.7766;-3.0961;
229.2000;0.7766;-3.0985;
229.5000;0.7749;-3.1035;
229.8000;0.7766;-3.1085;
230.1000;0.7766;-3.1060;
230.4000;0.7766;-3.1035;
230.7000;0.7798;-3.0961;
231.0000;0.7749;-3.0985;
231.3000;0.7757;-3.0936;
231.6000;0.7733;-3.1035;
231.9000;0.7757;-3.1010;
232.2000;0.7757;-3.0961;
232.5000;0.7823;-3.0762;
232.8000;0.7774;-3.0936;
233.1000;0.7766;-3.0886;
233.4000;0.7741;-3.0961;
233.7000;0.7766;-3.0886;
234.0000;0.7757;-3.0811;
234.3000;0.7757;-3.0786;
234.6000;0.7757;-3.0712;
234.9000;0.7757;-3.0786;
235.2000;0.7749;-3.0836;
235.5000;0.7749;-3.0861;
235.8000;0.7757;-3.0786;
236.1000;0.7749;-3.0762;
236.4000;0.7757;-3.0762;
236.7000;0.7749;-3.0961;
237.0000;0.7749;-3.0985;
237.3000;0.7749;-3.0985;
237.6000;0.7700;-3.1035;
237.9000;0.7741;-3.0936;
238.2000;0.7766;-3.0861;
238.5000;0.7741;-3.0936;
238.8000;0.7725;-3.0911;
239.1000;0.7766;-3.0886;
239.4000;0.7757;-3.0911;
239.7000;0.7709;-3.1110;
240.0000;0.7774;-3.0985;
240.3000;0.7757;-3.0961;
240.6000;0.7749;-3.0911;
240.9000;0.7766;-3.0936;
241.2000;0.7733;-3.1135;
241.5000;0.7749;-3.1209;
241.8000;0.7741;-3.1259;
242.1000;0.7774;-3.1160;
242.4000;0.7774;-3.1110;
242.7000;0.7733;-3.1135;
243.0000;0.7749;-3.1135;
243.3000;0.7766;-3.1010;
243.6000;0.7749;-3.1209;
243.9000;0.7733;-3.1209;
244.2000;0.7766;-3.1209;
244.5000;0.7766;-3.1035;
244.8000;0.7766;-3.0961;
245.1000;0.7847;-3.0811;
245.4000;0.7749;-3.1110;
245.7000;0.7749;-3.1110;
246.0000;0.7741;-3.1085;
246.3000;0.7782;-3.0936;
246.6000;0.7757;-3.0936;
246.9000;0.7749;-3.0961;
247.2000;0.7757;-3.1035;
247.5000;0.7814;-3.0985;
247.8000;0.7790;-3.1035;
248.1000;0.7782;-3.1060;
248.4000;0.7757;-3.1085;
248.7000;0.7741;-3.1110;
249.0000;0.7733;-3.1085;
249.3000;0.7757;-3.1035;
249.6000;0.7684;-3.1209;
249.9000;0.7700;-3.1209;
250.2000;0.7774;-3.1010;
250.5000;0.7766;-3.1209;
250.8000;0.7757;-3.1234;
251.1000;0.7749;-3.1209;
251.4000;0.7782;-3.1160;
251.7000;0.7749;-3.1184;
252.0000;0.7749;-3.1160;
252.3000;0.7757;-3.1160;
252.6000;0.7757;-3.1135;
252.9000;0.7782;-3.1160;
253.2000;0.7766;-3.1160;
253.5000;0.7741;-3.1184;
253.8000;0.7774;-3.1110;
254.1000;0.7774;-3.1060;
254.4000;0.7757;-3.1060;
254.7000;0.7766;-3.1010;
255.0000;0.7749;-3.1035;
255.3000;0.7684;-3.1234;
255.6000;0.7766;-3.0985;
255.9000;0.7749;-3.0961;
256.2000;0.7766;-3.0911;
256.5000;0.7782;-3.0911;
256.8000;0.7749;-3.0961;
257.1000;0.7676;-3.1110;
257.4000;0.7766;-3.0911;
257.7000;0.7766;-3.0886;
258.0000;0.7782;-3.0911;
258.3000;0.7766;-3.0886;
258.6000;0.7766;-3.0961;
258.9000;0.7774;-3.0961;
259.2000;0.7782;-3.0836;
259.5000;0.7749;-3.0911;
259.8000;0.7757;-3.0886;
260.1000;0.7741;-3.0985;
260.4000;0.7774;-3.1035;
260.7000;0.7749;-3.1060;
261.0000;0.7741;-3.1060;
261.3000;0.7741;-3.1085;
261.6000;0.7766;-3.1110;
261.9000;0.7757;-3.0985;
262.2000;0.7660;-3.1259;
262.5000;0.7766;-3.0961;
262.8000;0.7766;-3.1060;
263.1000;0.7782;-3.1010;
263.4000;0.7766;-3.1035;
263.7000;0.7749;-3.1085;
264.0000;0.7757;-3.0985;
264.3000;0.7774;-3.0961;
264.6000;0.7749;-3.1060;
264.9000;0.7757;-3.1085;
265.2000;0.7733;-3.1060;
265.5000;0.7766;-3.0985;
265.8000;0.7782;-3.0911;
266.1000;0.7766;-3.0836;
266.4000;0.7774;-3.0886;
266.7000;0.7757;-3.0936;
267.0000;0.7790;-3.0861;
267.3000;0.7766;-3.0861;
267.6000;0.7774;-3.0861;
267.9000;0.7774;-3.0861;
268.2000;0.7757;-3.0811;
268.5000;0.7741;-3.0861;
268.8000;0.7757;-3.0911;
269.1000;0.7766;-3.0936;
269.4000;0.7741;-3.0985;
269.7000;0.7733;-3.0961;
270.0000;0.7741;-3.0911;
270.3000;0.7725;-3.0961;
270.6000;0.7806;-3.0861;
270.9000;0.7782;-3.0985;
271.2000;0.7766;-3.1060;
271.5000;0.7725;-3.1234;
271.8000;0.7766;-3.1010;
272.1000;0.7790;-3.0936;
272.4000;0.7749;-3.0961;
272.7000;0.7749;-3.1010;
273.0000;0.7741;-3.0961;
273.3000;0.7757;-3.0911;
273.6000;0.7766;-3.0886;
273.9000;0.7749;-3.1010;
274.2000;0.7749;-3.0985;
274.5000;0.7749;-3.0911;
274.8000;0.7766;-3.0886;
275.1000;0.7766;-3.1010;
275.4000;0.7757;-3.1160;
275.7000;0.7749;-3.1184;
276.0000;0.7766;-3.1135;
276.3000;0.7766;-3.1160;
276.6000;0.7766;-3.1060;
276.9000;0.7660;-3.1284;
277.2000;0.7757;-3.1085;
277.5000;0.7757;-3.1035;
277.8000;0.7741;-3.1035;
278.1000;0.7766;-3.1060;
278.4000;0.7774;-3.1010;
278.7000;0.7774;-3.1010;
279.0000;0.7757;-3.1035;
279.3000;0.7790;-3.1010;
279.6000;0.7741;-3.1184;
279.9000;0.7749;-3.1184;
280.2000;0.7806;-3.1035;
280.5000;0.7741;-3.1234;
280.8000;0.7766;-3.1135;
281.1000;0.7766;-3.1010;
281.4000;0.7749;-3.0985;
281.7000;0.7733;-3.1035;
282.0000;0.7757;-3.1035;
282.3000;0.7741;-3.1035;
282.6000;0.7757;-3.1010;
282.9000;0.7782;-3.1010;
283.2000;0.7684;-3.1234;
283.5000;0.7749;-3.1085;
283.8000;0.7757;-3.1010;
284.1000;0.7757;-3.0961;
284.4000;0.7757;-3.0961;
284.7000;0.7741;-3.0985;
285.0000;0.7733;-3.0985;
285.3000;0.7823;-3.0811;
285.6000;0.7823;-3.0886;
285.9000;0.7749;-3.1160;
286.2000;0.7839;-3.0836;
286.5000;0.7766;-3.1085;
286.8000;0.7757;-3.1060;
287.1000;0.7757;-3.1010;
287.4000;0.7749;-3.0911;
287.7000;0.7790;-3.0911;
288.0000;0.7757;-3.1035;
288.3000;0.7749;-3.1060;
288.6000;0.7749;-3.1085;
288.9000;0.7757;-3.0985;
289.2000;0.7733;-3.0936;
289.5000;0.7749;-3.0936;
289.8000;0.7757;-3.0911;
290.1000;0.7749;-3.0961;
290.4000;0.7749;-3.0985;
290.7000;0.7692;-3.1135;
291.0000;0.7757;-3.0985;
291.3000;0.7774;-3.1060;
291.6000;0.7749;-3.1010;
291.9000;0.7749;-3.0911;
292.2000;0.7757;-3.0886;
292.5000;0.7733;-3.0886;
292.8000;0.7757;-3.0836;
293.1000;0.7733;-3.0911;
293.4000;0.7757;-3.0911;
293.7000;0.7733;-3.0961;
294.0000;0.7757;-3.0911;
294.3000;0.7749;-3.0911;
294.6000;0.7741;-3.0936;
294.9000;0.7757;-3.0936;
295.2000;0.7757;-3.0936;
295.5000;0.7749;-3.0836;
295.8000;0.7749;-3.0886;
296.1000;0.7733;-3.0886;
296.4000;0.7741;-3.0861;
296.7000;0.7749;-3.0886;
297.0000;0.7741;-3.0911;
297.3000;0.7741;-3.0886;
297.6000;0.7676;-3.1160;
297.9000;0.7643;-3.1309;
298.2000;0.7749;-3.1035;
298.5000;0.7774;-3.0936;
298.8000;0.7741;-3.1060;
299.1000;0.7774;-3.0961;
299.4000;0.7749;-3.1060;
299.7000;0.7766;-3.1110;
300.0000;0.7757;-3.1160;
300.3000;0.7741;-3.1135;
300.6000;0.7733;-3.1135;
300.9000;0.7757;-3.1085;
301.2000;0.7757;-3.1035;
301.5000;0.7749;-3.0961;
301.8000;0.7749;-3.0936;
302.1000;0.7766;-3.0911;
302.4000;0.7741;-3.0961;
302.7000;0.7749;-3.0911;
303.0000;0.7757;-3.0886;
303.3000;0.7757;-3.0911;
303.6000;0.7749;-3.0985;
303.9000;0.7757;-3.0936;
304.2000;0.7733;-3.1035;
304.5000;0.7757;-3.1035;
304.8000;0.7766;-3.1010;
305.1000;0.7806;-3.0836;
305.4000;0.7749;-3.1010;
305.7000;0.7774;-3.0985;
306.0000;0.7774;-3.0961;
306.3000;0.7774;-3.1010;
306.6000;0.7766;-3.1060;
306.9000;0.7749;-3.1110;
307.2000;0.7863;-3.0836;
307.5000;0.7790;-3.1035;
307.8000;0.7749;-3.1110;
308.1000;0.7725;-3.1209;
308.4000;0.7749;-3.1160;
308.7000;0.7766;-3.0985;
309.0000;0.7774;-3.0961;
309.3000;0.7757;-3.1110;
309.6000;0.7749;-3.1110;
309.9000;0.7757;-3.1060;
310.2000;0.7774;-3.0985;
310.5000;0.7749;-3.1085;
310.8000;0.7766;-3.1010;
311.1000;0.7757;-3.0936;
311.4000;0.7766;-3.0886;
311.7000;0.7749;-3.0936;
312.0000;0.7741;-3.0911;
312.3000;0.7725;-3.1060;
312.6000;0.7782;-3.0936;
312.9000;0.7766;-3.0961;
313.2000;0.7766;-3.0985;
313.5000;0.7733;-3.0985;
313.8000;0.7806;-3.0762;
314.1000;0.7749;-3.0911;
314.4000;0.7733;-3.1085;
314.7000;0.7741;-3.0911;
315.0000;0.7766;-3.0936;
315.3000;0.7749;-3.0861;
315.6000;0.7782;-3.0836;
315.9000;0.7790;-3.0786;
316.2000;0.7741;-3.1035;
316.5000;0.7790;-3.1010;
316.8000;0.7782;-3.0961;
317.1000;0.7757;-3.0985;
317.4000;0.7766;-3.0936;
317.7000;0.7757;-3.1035;
318.0000;0.7757;-3.0985;
318.3000;0.7757;-3.1060;
318.6000;0.7684;-3.1259;
318.9000;0.7749;-3.1035;
319.2000;0.7749;-3.1010;
319.5000;0.7774;-3.0936;
319.8000;0.7741;-3.1035;
320.1000;0.7741;-3.1035;
320.4000;0.7652;-3.1160;
320.7000;0.7855;-3.0737;
321.0000;0.7766;-3.1010;
321.3000;0.7757;-3.0985;
321.6000;0.7717;-3.1135;
321.9000;0.7798;-3.0911;
322.2000;0.7782;-3.0961;
322.5000;0.7766;-3.1085;
322.8000;0.7749;-3.1035;
323.1000;0.7766;-3.0985;
323.4000;0.7782;-3.0936;
323.7000;0.7766;-3.1010;
324.0000;0.7774;-3.1060;
324.3000;0.7782;-3.1035;
324.6000;0.7725;-3.1234;
324.9000;0.7749;-3.1135;
325.2000;0.7757;-3.1010;
325.5000;0.7757;-3.1035;
325.8000;0.7766;-3.1010;
326.1000;0.7757;-3.1085;
326.4000;0.7757;-3.1060;
326.7000;0.7733;-3.1135;
327.0000;0.7766;-3.1010;
327.3000;0.7692;-3.1234;
327.6000;0.7782;-3.0961;
327.9000;0.7749;-3.1010;
328.2000;0.7782;-3.0911;
328.5000;0.7749;-3.1010;
328.8000;0.7757;-3.0936;
329.1000;0.7757;-3.0911;
329.4000;0.7766;-3.0961;
329.7000;0.7798;-3.0911;
330.0000;0.7749;-3.1035;
330.3000;0.7749;-3.1110;
330.6000;0.7757;-3.1035;
330.9000;0.7757;-3.1060;
331.2000;0.7766;-3.1010;
331.5000;0.7741;-3.1060;
331.8000;0.7757;-3.1010;
332.1000;0.7741;-3.1010;
332.4000;0.7766;-3.1010;
332.7000;0.7749;-3.1110;
333.0000;0.7757;-3.1010;
333.3000;0.7782;-3.0961;
333.6000;0.7741;-3.1035;
333.9000;0.7733;-3.1184;
334.2000;0.7741;-3.1110;
334.5000;0.7749;-3.0985;
334.8000;0.7741;-3.0985;
335.1000;0.7733;-3.1085;
335.4000;0.7766;-3.1010;
335.7000;0.7749;-3.1160;
336.0000;0.7766;-3.1160;
336.3000;0.7733;-3.1234;
336.6000;0.7709;-3.1259;
336.9000;0.7741;-3.1184;
337.2000;0.7855;-3.0961;
337.5000;0.7757;-3.1135;
337.8000;0.7774;-3.1035;
338.1000;0.7749;-3.0985;
338.4000;0.7749;-3.0961;
338.7000;0.7725;-3.1010;
339.0000;0.7733;-3.0985;
339.3000;0.7757;-3.0936;
339.6000;0.7749;-3.0886;
339.9000;0.7766;-3.0886;
340.2000;0.7774;-3.1060;
340.5000;0.7733;-3.1309;
340.8000;0.7749;-3.1184;
341.1000;0.7774;-3.1110;
341.4000;0.7774;-3.1085;
341.7000;0.7757;-3.1135;
342.0000;0.7774;-3.0985;
342.3000;0.7757;-3.1010;
342.6000;0.7790;-3.0911;
342.9000;0.7749;-3.1035;
343.2000;0.7749;-3.1010;
343.5000;0.7798;-3.0786;
343.8000;0.7733;-3.0911;
344.1000;0.7782;-3.0786;
344.4000;0.7749;-3.0811;
344.7000;0.7733;-3.0886;
345.0000;0.7741;-3.0936;
345.3000;0.7741;-3.0961;
345.6000;0.7757;-3.0985;
345.9000;0.7725;-3.1110;
346.2000;0.7766;-3.1035;
346.5000;0.7782;-3.0961;
346.8000;0.7766;-3.0961;
347.1000;0.7757;-3.0911;
347.4000;0.7757;-3.0911;
347.7000;0.7741;-3.0985;
348.0000;0.7749;-3.1035;
348.3000;0.7757;-3.0985;
348.6000;0.7749;-3.0985;
348.9000;0.7741;-3.0985;
349.2000;0.7733;-3.1035;
349.5000;0.7766;-3.0911;
349.8000;0.7725;-3.0911;
350.1000;0.7725;-3.0911;
350.4000;0.7684;-3.1010;
350.7000;0.7741;-3.0811;
351.0000;0.7741;-3.0886;
351.3000;0.7741;-3.0985;
351.6000;0.7725;-3.0985;
351.9000;0.7757;-3.0861;
352.2000;0.7814;-3.0712;
352.5000;0.7749;-3.0786;
352.8000;0.7741;-3.0737;
353.1000;0.7806;-3.0563;
353.4000;0.7709;-3.0836;
353.7000;0.7741;-3.0737;
354.0000;0.7684;-3.0886;
354.3000;0.7749;-3.0687;
354.6000;0.7733;-3.0786;
354.9000;0.7733;-3.0836;
355.2000;0.7757;-3.0886;
355.5000;0.7725;-3.0985;
355.8000;0.7749;-3.1010;
356.1000;0.7749;-3.1010;
356.4000;0.7782;-3.0911;
356.7000;0.7766;-3.1010;
357.0000;0.7749;-3.1085;
357.3000;0.7766;-3.1060;
357.6000;0.7741;-3.1135;
357.9000;0.7757;-3.1184;
358.2000;0.7749;-3.1135;
358.5000;0.7757;-3.1010;
358.8000;0.7774;-3.0961;
359.1000;0.7700;-3.1135;
359.4000;0.7766;-3.0961;
359.7000;0.7798;-3.0961;
360.0000;0.7766;-3.0985;
360.3000;0.7741;-3.0985;
360.6000;0.7749;-3.0886;
360.9000;0.7766;-3.0836;
361.2000;0.7806;-3.0811;
361.5000;0.7757;-3.0936;
361.8000;0.7741;-3.0911;
362.1000;0.7725;-3.1060;
362.4000;0.7757;-3.0961;
362.7000;0.7757;-3.0936;
363.0000;0.7668;-3.1184;
363.3000;0.7733;-3.1010;
363.6000;0.7757;-3.0961;
363.9000;0.7766;-3.0985;
364.2000;0.7725;-3.1135;
364.5000;0.7774;-3.1010;
364.8000;0.7749;-3.1010;
365.1000;0.7757;-3.1060;
365.4000;0.7741;-3.1135;
365.7000;0.7741;-3.1160;
366.0000;0.7766;-3.0985;
366.3000;0.7749;-3.1110;
366.6000;0.7725;-3.1259;
366.9000;0.7741;-3.1160;
367.2000;0.7741;-3.1085;
367.5000;0.7757;-3.1035;
367.8000;0.7766;-3.1010;
368.1000;0.7757;-3.0961;
368.4000;0.7749;-3.0936;
368.7000;0.7757;-3.0886;
369.0000;0.7757;-3.0936;
369.3000;0.7749;-3.0936;
369.6000;0.7757;-3.0911;
369.9000;0.7749;-3.0961;
370.2000;0.7766;-3.1010;
370.5000;0.7757;-3.0911;
370.8000;0.7749;-3.0911;
371.1000;0.7741;-3.0886;
371.4000;0.7733;-3.0861;
371.7000;0.7782;-3.0712;
372.0000;0.7757;-3.0737;
372.3000;0.7741;-3.0737;
372.6000;0.7766;-3.0762;
372.9000;0.7749;-3.0836;
373.2000;0.7757;-3.0762;
373.5000;0.7757;-3.0861;
373.8000;0.7774;-3.0811;
374.1000;0.7757;-3.0911;
374.4000;0.7757;-3.0911;
374.7000;0.7757;-3.0911;
375.0000;0.7757;-3.0985;
375.3000;0.7749;-3.1035;
375.6000;0.7766;-3.0985;
375.9000;0.7766;-3.0961;
376.2000;0.7790;-3.0961;
376.5000;0.7757;-3.1035;
376.8000;0.7766;-3.0961;
377.1000;0.7782;-3.0936;
377.4000;0.7749;-3.1035;
377.7000;0.7749;-3.0961;
378.0000;0.7741;-3.0985;
378.3000;0.7766;-3.0836;
378.6000;0.7757;-3.0836;
378.9000;0.7741;-3.0811;
379.2000;0.7717;-3.0886;
379.5000;0.7733;-3.0911;
379.8000;0.7774;-3.0712;
380.1000;0.7700;-3.0836;
380.4000;0.7847;-3.0413;
380.7000;0.7766;-3.0637;
381.0000;0.7741;-3.0662;
381.3000;0.7757;-3.0687;
381.6000;0.7741;-3.0687;
381.9000;0.7766;-3.0662;
382.2000;0.7766;-3.0612;
382.5000;0.7725;-3.0687;
382.8000;0.7741;-3.0612;
383.1000;0.7806;-3.0513;
383.4000;0.7766;-3.0563;
383.7000;0.7749;-3.0612;
384.0000;0.7741;-3.0637;
384.3000;0.7806;-3.0563;
384.6000;0.7660;-3.0936;
384.9000;0.7766;-3.0662;
385.2000;0.7700;-3.0836;
385.5000;0.7652;-3.0961;
385.8000;0.7749;-3.0811;
386.1000;0.7741;-3.0911;
386.4000;0.7749;-3.0936;
386.7000;0.7741;-3.0911;
387.0000;0.7741;-3.0936;
387.3000;0.7749;-3.0911;
387.6000;0.7749;-3.0911;
387.9000;0.7757;-3.0936;
388.2000;0.7749;-3.0961;
388.5000;0.7766;-3.0985;
388.8000;0.7749;-3.1010;
389.1000;0.7741;-3.0936;
389.4000;0.7757;-3.0911;
389.7000;0.7749;-3.0886;
390.0000;0.7741;-3.0886;
390.3000;0.7725;-3.0961;
390.6000;0.7733;-3.0936;
390.9000;0.7757;-3.0961;
391.2000;0.7757;-3.0985;
391.5000;0.7652;-3.1234;
391.8000;0.7757;-3.1010;
392.1000;0.7749;-3.0985;
392.4000;0.7733;-3.1060;
392.7000;0.7741;-3.0911;
393.0000;0.7749;-3.0961;
393.3000;0.7749;-3.0961;
393.6000;0.7733;-3.0936;
393.9000;0.7749;-3.0886;
394.2000;0.7766;-3.0886;
394.5000;0.7757;-3.0936;
394.8000;0.7725;-3.0961;
395.1000;0.7757;-3.0936;
395.4000;0.7749;-3.0961;
395.7000;0.7741;-3.0936;
396.0000;0.7733;-3.0936;
396.3000;0.7766;-3.0836;
396.6000;0.7757;-3.0811;
396.9000;0.7749;-3.0836;
397.2000;0.7757;-3.0861;
397.5000;0.7741;-3.0886;
397.8000;0.7766;-3.0886;
398.1000;0.7766;-3.0985;
398.4000;0.7782;-3.0861;
398.7000;0.7766;-3.0936;
399.0000;0.7757;-3.0961;
399.3000;0.7741;-3.0936;
399.6000;0.7741;-3.0936;
399.9000;0.7741;-3.0911;
400.2000;0.7709;-3.1010;
400.5000;0.7725;-3.0886;
400.8000;0.7749;-3.0886;
401.1000;0.7741;-3.0985;
401.4000;0.7676;-3.1209;
401.7000;0.7700;-3.1259;
402.0000;0.7790;-3.0936;
402.3000;0.7725;-3.1010;
402.6000;0.7741;-3.0985;
402.9000;0.7774;-3.0911;
403.2000;0.7741;-3.0911;
403.5000;0.7774;-3.0811;
403.8000;0.7749;-3.0886;
404.1000;0.7741;-3.0886;
404.4000;0.7766;-3.0836;
404.7000;0.7749;-3.0811;
405.0000;0.7757;-3.0811;
405.3000;0.7749;-3.0811;
405.6000;0.7757;-3.0662;
405.9000;0.7749;-3.0712;
406.2000;0.7757;-3.0712;
406.5000;0.7741;-3.0811;
406.8000;0.7725;-3.0811;
407.1000;0.7692;-3.0961;
407.4000;0.7733;-3.0811;
407.7000;0.7660;-3.0985;
408.0000;0.7741;-3.0886;
408.3000;0.7741;-3.0911;
408.6000;0.7774;-3.0836;
408.9000;0.7749;-3.0886;
409.2000;0.7749;-3.0886;
409.5000;0.7676;-3.0985;
409.8000;0.7741;-3.0737;
410.1000;0.7766;-3.0687;
410.4000;0.7725;-3.0786;
410.7000;0.7749;-3.0836;
411.0000;0.7766;-3.0786;
411.3000;0.7733;-3.0786;
411.6000;0.7725;-3.0786;
411.9000;0.7717;-3.0811;
412.2000;0.7725;-3.0836;
412.5000;0.7782;-3.0737;
412.8000;0.7839;-3.0563;
413.1000;0.7741;-3.0786;
413.4000;0.7725;-3.0886;
413.7000;0.7741;-3.0911;
414.0000;0.7733;-3.0961;
414.3000;0.7733;-3.0911;
414.6000;0.7733;-3.0811;
414.9000;0.7749;-3.0737;
415.2000;0.7749;-3.0687;
415.5000;0.7733;-3.0737;
415.8000;0.7733;-3.0762;
416.1000;0.7741;-3.0811;
416.4000;0.7733;-3.0886;
416.7000;0.7741;-3.0811;
417.0000;0.7757;-3.0762;
417.3000;0.7757;-3.0712;
417.6000;0.7741;-3.0712;
417.9000;0.7725;-3.0712;
418.2000;0.7709;-3.0762;
418.5000;0.7733;-3.0762;
418.8000;0.7741;-3.0811;
419.1000;0.7741;-3.0811;
419.4000;0.7733;-3.0836;
419.7000;0.7749;-3.0811;
420.0000;0.7733;-3.0911;
420.3000;0.7749;-3.0961;
420.6000;0.7757;-3.0961;
420.9000;0.7749;-3.1035;
421.2000;0.7749;-3.0985;
421.5000;0.7749;-3.0985;
421.8000;0.7733;-3.0936;
422.1000;0.7741;-3.0861;
422.4000;0.7782;-3.0737;
422.7000;0.7749;-3.0762;
423.0000;0.7774;-3.0737;
423.3000;0.7741;-3.0811;
423.6000;0.7741;-3.0836;
423.9000;0.7749;-3.0811;
424.2000;0.7757;-3.0811;
424.5000;0.7749;-3.0861;
424.8000;0.7733;-3.0861;
425.1000;0.7757;-3.0836;
425.4000;0.7741;-3.0961;
425.7000;0.7749;-3.0961;
426.0000;0.7741;-3.0911;
426.3000;0.7749;-3.0836;
426.6000;0.7749;-3.0836;
426.9000;0.7749;-3.0886;
427.2000;0.7725;-3.0936;
427.5000;0.7790;-3.0762;
427.8000;0.7741;-3.0886;
428.1000;0.7823;-3.0637;
428.4000;0.7790;-3.0762;
428.7000;0.7749;-3.1010;
429.0000;0.7757;-3.0961;
429.3000;0.7757;-3.0985;
429.6000;0.7725;-3.1060;
429.9000;0.7741;-3.1060;
430.2000;0.7757;-3.1135;
430.5000;0.7766;-3.1135;
430.8000;0.7725;-3.1259;
431.1000;0.7749;-3.1234;
431.4000;0.7717;-3.1184;
431.7000;0.7749;-3.1060;
432.0000;0.7741;-3.1035;
432.3000;0.7757;-3.1060;
432.6000;0.7757;-3.1035;
432.9000;0.7741;-3.1060;
433.2000;0.7749;-3.1060;
433.5000;0.7766;-3.0985;
433.8000;0.7741;-3.1110;
434.1000;0.7757;-3.1110;
434.4000;0.7725;-3.1135;
434.7000;0.7766;-3.1035;
435.0000;0.7733;-3.1085;
435.3000;0.7766;-3.0985;
435.6000;0.7766;-3.0936;
435.9000;0.7733;-3.1010;
436.2000;0.7774;-3.0936;
436.5000;0.7749;-3.1010;
436.8000;0.7749;-3.1135;
437.1000;0.7757;-3.1110;
437.4000;0.7741;-3.1110;
437.7000;0.7733;-3.1184;
438.0000;0.7684;-3.1234;
438.3000;0.7757;-3.1160;
438.6000;0.7757;-3.1035;
438.9000;0.7798;-3.1060;
439.2000;0.7757;-3.1135;
439.5000;0.7749;-3.1060;
439.8000;0.7757;-3.1010;
440.1000;0.7733;-3.1110;
440.4000;0.7749;-3.0936;
440.7000;0.7741;-3.0936;
441.0000;0.7741;-3.0985;
441.3000;0.7733;-3.1085;
441.6000;0.7782;-3.0961;
441.9000;0.7725;-3.1010;
442.2000;0.7749;-3.0985;
442.5000;0.7733;-3.1060;
442.8000;0.7709;-3.1209;
443.1000;0.7733;-3.1309;
443.4000;0.7757;-3.1259;
443.7000;0.7725;-3.1184;
444.0000;0.7741;-3.1160;
444.3000;0.7741;-3.1110;
444.6000;0.7725;-3.1060;
444.9000;0.7741;-3.1085;
445.2000;0.7741;-3.1060;
445.5000;0.7725;-3.1035;
445.8000;0.7749;-3.0936;
446.1000;0.7757;-3.0936;
446.4000;0.7733;-3.1035;
446.7000;0.7733;-3.1010;
447.0000;0.7725;-3.1010;
447.3000;0.7741;-3.1035;
447.6000;0.7749;-3.0985;
447.9000;0.7749;-3.1135;
448.2000;0.7733;-3.1135;
448.5000;0.7733;-3.1085;
448.8000;0.7749;-3.1110;
449.1000;0.7741;-3.1085;
449.4000;0.7700;-3.1259;
449.7000;0.7700;-3.1209;
450.0000;0.7749;-3.1060;
450.3000;0.7749;-3.1085;
450.6000;0.7733;-3.1135;
450.9000;0.7741;-3.1110;
451.2000;0.7749;-3.1010;
451.5000;0.7725;-3.1160;
451.8000;0.7749;-3.1060;
452.1000;0.7749;-3.1110;
452.4000;0.7782;-3.1060;
452.7000;0.7839;-3.0886;
453.0000;0.7749;-3.0985;
453.3000;0.7749;-3.0985;
453.6000;0.7700;-3.1184;
453.9000;0.7741;-3.1060;
454.2000;0.7733;-3.1035;
454.5000;0.7749;-3.0985;
454.8000;0.7741;-3.0911;
455.1000;0.7733;-3.0936;
455.4000;0.7733;-3.1060;
455.7000;0.7717;-3.1085;
456.0000;0.7749;-3.1060;
456.3000;0.7741;-3.1085;
456.6000;0.7741;-3.1035;
456.9000;0.7741;-3.0936;
457.2000;0.7766;-3.0886;
457.5000;0.7749;-3.0886;
457.8000;0.7757;-3.0936;
458.1000;0.7749;-3.1010;
458.4000;0.7725;-3.1110;
458.7000;0.7749;-3.1060;
459.0000;0.7717;-3.1160;
459.3000;0.7725;-3.1234;
459.6000;0.7725;-3.1309;
459.9000;0.7757;-3.1160;
460.2000;0.7725;-3.1184;
460.5000;0.7741;-3.1135;
460.8000;0.7757;-3.1135;
461.1000;0.7749;-3.1085;
461.4000;0.7733;-3.1160;
461.7000;0.7757;-3.1184;
462.0000;0.7733;-3.1259;
462.3000;0.7757;-3.1160;
462.6000;0.7733;-3.1160;
462.9000;0.7749;-3.1110;
463.2000;0.7749;-3.1160;
463.5000;0.7749;-3.1259;
463.8000;0.7733;-3.1284;
464.1000;0.7749;-3.1259;
464.4000;0.7725;-3.1309;
464.7000;0.7725;-3.1184;
465.0000;0.7741;-3.1060;
465.3000;0.7733;-3.1085;
465.6000;0.7733;-3.1085;
465.9000;0.7741;-3.1085;
466.2000;0.7725;-3.1259;
466.5000;0.7733;-3.1309;
466.8000;0.7766;-3.1284;
467.1000;0.7757;-3.1358;
467.4000;0.7741;-3.1334;
467.7000;0.7766;-3.1284;
468.0000;0.7741;-3.1259;
468.3000;0.7757;-3.1259;
468.6000;0.7741;-3.1309;
468.9000;0.7749;-3.1284;
469.2000;0.7725;-3.1309;
469.5000;0.7741;-3.1284;
469.8000;0.7749;-3.1209;
470.1000;0.7749;-3.1259;
470.4000;0.7733;-3.1309;
470.7000;0.7676;-3.1433;
471.0000;0.7757;-3.1209;
471.3000;0.7741;-3.1259;
471.6000;0.7766;-3.1135;
471.9000;0.7741;-3.1259;
472.2000;0.7684;-3.1458;
472.5000;0.7741;-3.1284;
472.8000;0.7741;-3.1234;
473.1000;0.7717;-3.1334;
473.4000;0.7831;-3.1010;
473.7000;0.7733;-3.1309;
474.0000;0.7749;-3.1309;
474.3000;0.7733;-3.1358;
474.6000;0.7733;-3.1284;
474.9000;0.7757;-3.1160;
475.2000;0.7766;-3.1234;
475.5000;0.7741;-3.1209;
475.8000;0.7741;-3.1209;
476.1000;0.7741;-3.1309;
476.4000;0.7692;-3.1433;
476.7000;0.7741;-3.1334;
477.0000;0.7741;-3.1358;
477.3000;0.7725;-3.1334;
477.6000;0.7757;-3.1358;
477.9000;0.7733;-3.1483;
478.2000;0.7757;-3.1508;
478.5000;0.7733;-3.1508;
478.8000;0.7749;-3.1458;
479.1000;0.7741;-3.1433;
479.4000;0.7733;-3.1383;
479.7000;0.7749;-3.1284;
480.0000;0.7774;-3.1309;
480.3000;0.7766;-3.1259;
480.6000;0.7733;-3.1259;
480.9000;0.7757;-3.1234;
481.2000;0.7733;-3.1309;
481.5000;0.7749;-3.1334;
481.8000;0.7749;-3.1334;
482.1000;0.7741;-3.1358;
482.4000;0.7741;-3.1234;
482.7000;0.7757;-3.1259;
483.0000;0.7725;-3.1284;
483.3000;0.7733;-3.1234;
483.6000;0.7774;-3.1085;
483.9000;0.7733;-3.1209;
484.2000;0.7749;-3.1234;
484.5000;0.7749;-3.1284;
484.8000;0.7749;-3.1259;
485.1000;0.7733;-3.1209;
485.4000;0.7717;-3.1259;
485.7000;0.7692;-3.1334;
486.0000;0.7741;-3.1184;
486.3000;0.7733;-3.1184;
486.6000;0.7741;-3.1209;
486.9000;0.7749;-3.1135;
487.2000;0.7717;-3.1135;
487.5000;0.7717;-3.1184;
487.8000;0.7709;-3.1259;
488.1000;0.7749;-3.1135;
488.4000;0.7749;-3.1085;
488.7000;0.7733;-3.1110;
489.0000;0.7717;-3.1184;
489.3000;0.7766;-3.1060;
489.6000;0.7741;-3.1135;
489.9000;0.7733;-3.1135;
490.2000;0.7733;-3.1160;
490.5000;0.7749;-3.1135;
490.8000;0.7749;-3.1160;
491.1000;0.7733;-3.1135;
491.4000;0.7757;-3.1234;
491.7000;0.7790;-3.1110;
492.0000;0.7774;-3.1135;
492.3000;0.7749;-3.1060;
492.6000;0.7757;-3.1010;
492.9000;0.7757;-3.1035;
493.2000;0.7717;-3.1234;
493.5000;0.7749;-3.1209;
493.8000;0.7725;-3.1259;
494.1000;0.7733;-3.1184;
494.4000;0.7741;-3.0985;
494.7000;0.7782;-3.0811;
495.0000;0.7676;-3.1060;
495.3000;0.7709;-3.1010;
495.6000;0.7757;-3.0985;
495.9000;0.7733;-3.1060;
496.2000;0.7749;-3.1110;
496.5000;0.7749;-3.1110;
496.8000;0.7725;-3.1259;
497.1000;0.7782;-3.1060;
497.4000;0.7847;-3.1010;
497.7000;0.7749;-3.1110;
498.0000;0.7733;-3.1160;
498.3000;0.7725;-3.1259;
498.6000;0.7741;-3.1209;
498.9000;0.7766;-3.1085;
499.2000;0.7806;-3.1010;
499.5000;0.7749;-3.1085;
499.8000;0.7741;-3.1184;
500.1000;0.7717;-3.1234;
500.4000;0.7790;-3.1035;
500.7000;0.7717;-3.1234;
501.0000;0.7725;-3.1284;
501.3000;0.7749;-3.1234;
501.6000;0.7741;-3.1309;
501.9000;0.7774;-3.1184;
502.2000;0.7774;-3.1184;
502.5000;0.7741;-3.1309;
502.8000;0.7749;-3.1284;
503.1000;0.7733;-3.1284;
503.4000;0.7741;-3.1383;
503.7000;0.7806;-3.1135;
504.0000;0.7749;-3.1259;
504.3000;0.7717;-3.1334;
504.6000;0.7741;-3.1309;
504.9000;0.7717;-3.1309;
505.2000;0.7749;-3.1209;
505.5000;0.7741;-3.1184;
505.8000;0.7749;-3.1209;
506.1000;0.7741;-3.1284;
506.4000;0.7741;-3.1309;
506.7000;0.7749;-3.1309;
507.0000;0.7741;-3.1284;
507.3000;0.7733;-3.1259;
507.6000;0.7766;-3.1135;
507.9000;0.7749;-3.1234;
508.2000;0.7741;-3.1259;
508.5000;0.7733;-3.1309;
508.8000;0.7749;-3.1209;
509.1000;0.7741;-3.1160;
509.4000;0.7741;-3.1160;
509.7000;0.7733;-3.1135;
510.0000;0.7627;-3.1358;
510.3000;0.7749;-3.1085;
510.6000;0.7749;-3.1035;
510.9000;0.7741;-3.1085;
511.2000;0.7733;-3.1060;
511.5000;0.7741;-3.1135;
511.8000;0.7741;-3.1060;
512.1000;0.7741;-3.1035;
512.4000;0.7725;-3.1060;
512.7000;0.7749;-3.1184;
513.0000;0.7733;-3.1135;
513.3000;0.7741;-3.1085;
513.6000;0.7733;-3.1035;
513.9000;0.7725;-3.1085;
514.2000;0.7766;-3.0985;
514.5000;0.7749;-3.0936;
514.8000;0.7733;-3.0961;
515.1000;0.7741;-3.0911;
515.4000;0.7733;-3.0961;
515.7000;0.7741;-3.1010;
516.0000;0.7733;-3.1085;
516.3000;0.7709;-3.1135;
516.6000;0.7741;-3.1010;
516.9000;0.7741;-3.0985;
517.2000;0.7749;-3.1010;
517.5000;0.7741;-3.1010;
517.8000;0.7733;-3.1035;
518.1000;0.7733;-3.1085;
518.4000;0.7725;-3.1135;
518.7000;0.7741;-3.1110;
519.0000;0.7717;-3.1110;
519.3000;0.7757;-3.1060;
519.6000;0.7741;-3.1160;
519.9000;0.7717;-3.1135;
520.2000;0.7741;-3.1160;
520.5000;0.7741;-3.1085;
520.8000;0.7749;-3.0961;
521.1000;0.7733;-3.1060;
521.4000;0.7717;-3.1160;
521.7000;0.7725;-3.1135;
522.0000;0.7733;-3.1060;
522.3000;0.7725;-3.1035;
522.6000;0.7725;-3.1010;
522.9000;0.7733;-3.1010;
523.2000;0.7757;-3.1035;
523.5000;0.7717;-3.1035;
523.8000;0.7733;-3.0985;
524.1000;0.7717;-3.1035;
524.4000;0.7790;-3.0886;
524.7000;0.7741;-3.0985;
525.0000;0.7757;-3.0985;
525.3000;0.7725;-3.1160;
525.6000;0.7725;-3.1184;
525.9000;0.7725;-3.1184;
526.2000;0.7814;-3.0911;
526.5000;0.7741;-3.1110;
526.8000;0.7749;-3.1085;
527.1000;0.7749;-3.1209;
527.4000;0.7749;-3.1259;
527.7000;0.7749;-3.1284;
528.0000;0.7733;-3.1284;
528.3000;0.7741;-3.1383;
528.6000;0.7733;-3.1284;
528.9000;0.7749;-3.1135;
529.2000;0.7725;-3.1110;
529.5000;0.7692;-3.1234;
529.8000;0.7733;-3.1135;
530.1000;0.7733;-3.1035;
530.4000;0.7733;-3.1160;
530.7000;0.7717;-3.1184;
531.0000;0.7814;-3.0911;
531.3000;0.7725;-3.1085;
531.6000;0.7725;-3.1085;
531.9000;0.7725;-3.1085;
532.2000;0.7725;-3.1160;
532.5000;0.7741;-3.1135;
532.8000;0.7749;-3.1184;
533.1000;0.7749;-3.1209;
533.4000;0.7660;-3.1408;
533.7000;0.7741;-3.1110;
534.0000;0.7733;-3.1035;
534.3000;0.7725;-3.1010;
534.6000;0.7725;-3.1085;
534.9000;0.7741;-3.1110;
535.2000;0.7757;-3.1184;
535.5000;0.7749;-3.1209;
535.8000;0.7749;-3.1209;
536.1000;0.7749;-3.1209;
536.4000;0.7749;-3.1209;
536.7000;0.7749;-3.1259;
537.0000;0.7725;-3.1309;
537.3000;0.7749;-3.1309;
537.6000;0.7733;-3.1483;
537.9000;0.7733;-3.1433;
538.2000;0.7798;-3.1334;
538.5000;0.7774;-3.1309;
538.8000;0.7733;-3.1284;
539.1000;0.7741;-3.1259;
539.4000;0.7749;-3.1209;
539.7000;0.7733;-3.1160;
540.0000;0.7725;-3.1234;
540.3000;0.7733;-3.1184;
540.6000;0.7741;-3.1209;
540.9000;0.7733;-3.1209;
541.2000;0.7749;-3.1135;
541.5000;0.7709;-3.1184;
541.8000;0.7709;-3.1184;
542.1000;0.7733;-3.1234;
542.4000;0.7733;-3.1209;
542.7000;0.7733;-3.1160;
543.0000;0.7741;-3.1160;
543.3000;0.7733;-3.1209;
543.6000;0.7790;-3.1209;
543.9000;0.7725;-3.1433;
544.2000;0.7717;-3.1408;
544.5000;0.7733;-3.1408;
544.8000;0.7814;-3.1209;
545.1000;0.7725;-3.1408;
545.4000;0.7733;-3.1334;
545.7000;0.7741;-3.1383;
546.0000;0.7741;-3.1458;
546.3000;0.7725;-3.1383;
546.6000;0.7733;-3.1458;
546.9000;0.7749;-3.1334;
547.2000;0.7733;-3.1334;
547.5000;0.7709;-3.1334;
547.8000;0.7733;-3.1284;
548.1000;0.7741;-3.1259;
548.4000;0.7725;-3.1309;
548.7000;0.7749;-3.1309;
549.0000;0.7725;-3.1309;
549.3000;0.7733;-3.1284;
549.6000;0.7757;-3.1284;
549.9000;0.7709;-3.1334;
550.2000;0.7733;-3.1234;
550.5000;0.7749;-3.1209;
550.8000;0.7749;-3.1284;
551.1000;0.7749;-3.1383;
551.4000;0.7709;-3.1309;
551.7000;0.7749;-3.1160;
552.0000;0.7733;-3.1259;
552.3000;0.7749;-3.1334;
552.6000;0.7766;-3.1309;
552.9000;0.7782;-3.1234;
553.2000;0.7749;-3.1259;
553.5000;0.7717;-3.1309;
553.8000;0.7733;-3.1284;
554.1000;0.7741;-3.1309;
554.4000;0.7660;-3.1433;
554.7000;0.7774;-3.1259;
555.0000;0.7757;-3.1234;
555.3000;0.7757;-3.1209;
555.6000;0.7700;-3.1309;
555.9000;0.7725;-3.1284;
556.2000;0.7766;-3.1160;
556.5000;0.7814;-3.1060;
556.8000;0.7741;-3.1234;
557.1000;0.7757;-3.1184;
557.4000;0.7766;-3.1060;
557.7000;0.7749;-3.1135;
558.0000;0.7725;-3.1135;
558.3000;0.7741;-3.1060;
558.6000;0.7725;-3.1035;
558.9000;0.7741;-3.0961;
559.2000;0.7725;-3.0961;
559.5000;0.7766;-3.0861;
559.8000;0.7733;-3.0961;
560.1000;0.7741;-3.1060;
560.4000;0.7741;-3.1085;
560.7000;0.7725;-3.1035;
561.0000;0.7733;-3.1060;
561.3000;0.7749;-3.1035;
561.6000;0.7749;-3.1085;
561.9000;0.7725;-3.1010;
562.2000;0.7733;-3.1010;
562.5000;0.7733;-3.1035;
562.8000;0.7749;-3.0936;
563.1000;0.7749;-3.0936;
563.4000;0.7766;-3.0936;
563.7000;0.7749;-3.0985;
564.0000;0.7741;-3.1035;
564.3000;0.7733;-3.1010;
564.6000;0.7741;-3.1110;
564.9000;0.7709;-3.1184;
565.2000;0.7709;-3.1085;
565.5000;0.7725;-3.0936;
565.8000;0.7725;-3.1010;
566.1000;0.7741;-3.0936;
566.4000;0.7733;-3.0737;
566.7000;0.7741;-3.0762;
567.0000;0.7741;-3.0737;
567.3000;0.7774;-3.0687;
567.6000;0.7741;-3.0886;
567.9000;0.7749;-3.0886;
568.2000;0.7733;-3.0961;
568.5000;0.7725;-3.1010;
568.8000;0.7717;-3.1010;
569.1000;0.7709;-3.0985;
569.4000;0.7741;-3.0961;
569.7000;0.7725;-3.0985;
570.0000;0.7741;-3.0936;
570.3000;0.7725;-3.0911;
570.6000;0.7725;-3.0961;
570.9000;0.7757;-3.0961;
571.2000;0.7733;-3.1010;
571.5000;0.7766;-3.0886;
571.8000;0.7741;-3.0936;
572.1000;0.7741;-3.0961;
572.4000;0.7749;-3.1035;
572.7000;0.7733;-3.1135;
573.0000;0.7733;-3.1135;
573.3000;0.7725;-3.1234;
573.6000;0.7798;-3.1085;
573.9000;0.7749;-3.1259;
574.2000;0.7741;-3.1234;
574.5000;0.7757;-3.1184;
574.8000;0.7733;-3.1259;
575.1000;0.7725;-3.1234;
575.4000;0.7709;-3.1259;
575.7000;0.7700;-3.1309;
576.0000;0.7741;-3.1184;
576.3000;0.7741;-3.1209;
576.6000;0.7668;-3.1358;
576.9000;0.7733;-3.1209;
577.2000;0.7733;-3.1160;
577.5000;0.7741;-3.1135;
577.8000;0.7725;-3.1085;
578.1000;0.7733;-3.1060;
578.4000;0.7766;-3.1035;
578.7000;0.7741;-3.1060;
579.0000;0.7684;-3.1209;
579.3000;0.7725;-3.1160;
579.6000;0.7766;-3.1010;
579.9000;0.7766;-3.0985;
580.2000;0.7749;-3.1035;
580.5000;0.7774;-3.0886;
580.8000;0.7733;-3.0886;
581.1000;0.7676;-3.1060;
581.4000;0.7749;-3.0911;
581.7000;0.7749;-3.0936;
582.0000;0.7733;-3.0985;
582.3000;0.7725;-3.1035;
582.6000;0.7733;-3.1110;
582.9000;0.7709;-3.1209;
583.2000;0.7717;-3.1259;
583.5000;0.7749;-3.1234;
583.8000;0.7733;-3.1259;
584.1000;0.7790;-3.1184;
584.4000;0.7749;-3.1234;
584.7000;0.7757;-3.1209;
585.0000;0.7757;-3.1184;
585.3000;0.7725;-3.1209;
585.6000;0.7611;-3.1582;
585.9000;0.7717;-3.1334;
586.2000;0.7757;-3.1309;
586.5000;0.7717;-3.1383;
586.8000;0.7725;-3.1358;
587.1000;0.7717;-3.1284;
587.4000;0.7700;-3.1284;
587.7000;0.7733;-3.1209;
588.0000;0.7684;-3.1259;
588.3000;0.7717;-3.1035;
588.6000;0.7717;-3.1110;
588.9000;0.7741;-3.1160;
589.2000;0.7733;-3.1110;
589.5000;0.7725;-3.1060;
589.8000;0.7676;-3.1160;
590.1000;0.7733;-3.1035;
590.4000;0.7717;-3.1284;
590.7000;0.7733;-3.1160;
591.0000;0.7733;-3.1135;
591.3000;0.7717;-3.0985;
591.6000;0.7733;-3.1035;
591.9000;0.7725;-3.0985;
592.2000;0.7717;-3.1010;
592.5000;0.7660;-3.1184;
592.8000;0.7733;-3.1010;
593.1000;0.7725;-3.0985;
593.4000;0.7741;-3.0936;
593.7000;0.7831;-3.0786;
594.0000;0.7725;-3.1010;
594.3000;0.7733;-3.0985;
594.6000;0.7692;-3.1160;
594.9000;0.7717;-3.1085;
595.2000;0.7733;-3.1110;
595.5000;0.7741;-3.0961;
595.8000;0.7717;-3.0985;
596.1000;0.7717;-3.0911;
596.4000;0.7692;-3.1010;
596.7000;0.7717;-3.1010;
597.0000;0.7741;-3.0961;
597.3000;0.7733;-3.1035;
597.6000;0.7733;-3.0936;
597.9000;0.7741;-3.0961;
598.2000;0.7741;-3.1035;
598.5000;0.7733;-3.1085;
598.8000;0.7757;-3.1035;
599.1000;0.7717;-3.1085;
599.4000;0.7725;-3.1010;
599.7000;0.7717;-3.1035;
600.0000;0.7717;-3.1035;
600.3000;0.7749;-3.1110;
600.6000;0.7733;-3.1209;
600.9000;0.7725;-3.1209;
601.2000;0.7700;-3.1259;
601.5000;0.7660;-3.1483;
601.8000;0.7611;-3.1607;
602.1000;0.7505;-3.1831;
602.4000;0.7521;-3.1781;
602.7000;0.7440;-3.1930;
603.0000;0.7416;-3.2055;
603.3000;0.7367;-3.2129;
603.6000;0.7326;-3.2204;
603.9000;0.7293;-3.2328;
604.2000;0.7245;-3.2428;
604.5000;0.7228;-3.2527;
604.8000;0.7188;-3.2652;
605.1000;0.7196;-3.2627;
605.4000;0.7114;-3.2826;
605.7000;0.7057;-3.3000;
606.0000;0.7074;-3.2900;
606.3000;0.7017;-3.3000;
606.6000;0.6992;-3.3074;
606.9000;0.6976;-3.3025;
607.2000;0.6927;-3.3025;
607.5000;0.6919;-3.3025;
607.8000;0.6895;-3.3149;
608.1000;0.6935;-3.3099;
608.4000;0.6854;-3.3199;
608.7000;0.6829;-3.3199;
609.0000;0.6772;-3.3224;
609.3000;0.6764;-3.3273;
609.6000;0.6772;-3.3174;
609.9000;0.6740;-3.3224;
610.2000;0.6724;-3.3273;
610.5000;0.6691;-3.3298;
610.8000;0.6683;-3.3348;
611.1000;0.6650;-3.3422;
611.4000;0.6634;-3.3447;
611.7000;0.6626;-3.3398;
612.0000;0.6577;-3.3572;
612.3000;0.6585;-3.3547;
612.6000;0.6561;-3.3547;
612.9000;0.6528;-3.3597;
613.2000;0.6520;-3.3572;
613.5000;0.6496;-3.3497;
613.8000;0.6488;-3.3522;
614.1000;0.6471;-3.3522;
614.4000;0.6455;-3.3472;
614.7000;0.6447;-3.3422;
615.0000;0.6422;-3.3422;
615.3000;0.6390;-3.3472;
615.6000;0.6390;-3.3497;
615.9000;0.6374;-3.3572;
616.2000;0.6276;-3.3746;
616.5000;0.6341;-3.3597;
616.8000;0.6333;-3.3646;
617.1000;0.6309;-3.3696;
617.4000;0.6300;-3.3746;
617.7000;0.6284;-3.3796;
618.0000;0.6268;-3.3721;
618.3000;0.6276;-3.3646;
618.6000;0.6178;-3.3771;
618.9000;0.6227;-3.3696;
619.2000;0.6235;-3.3597;
619.5000;0.6219;-3.3621;
619.8000;0.6203;-3.3671;
620.1000;0.6186;-3.3696;
620.4000;0.6170;-3.3696;
620.7000;0.6121;-3.3796;
621.0000;0.6138;-3.3746;
621.3000;0.6129;-3.3771;
621.6000;0.6097;-3.3845;
621.9000;0.6089;-3.3895;
622.2000;0.6064;-3.3970;
622.5000;0.6089;-3.3845;
622.8000;0.6072;-3.3895;
623.1000;0.6056;-3.3870;
623.4000;0.6032;-3.3895;
623.7000;0.6040;-3.3845;
624.0000;0.6032;-3.3820;
624.3000;0.6032;-3.3746;
624.6000;0.6097;-3.3572;
624.9000;0.5975;-3.3820;
625.2000;0.5983;-3.3870;
625.5000;0.5999;-3.3945;
625.8000;0.5967;-3.3994;
626.1000;0.5958;-3.4044;
626.4000;0.5958;-3.3970;
626.7000;0.5942;-3.3994;
627.0000;0.5934;-3.3920;
627.3000;0.5942;-3.3870;
627.6000;0.5910;-3.3895;
627.9000;0.5910;-3.3845;
628.2000;0.5910;-3.3820;
628.5000;0.5885;-3.3920;
628.8000;0.5861;-3.3945;
629.1000;0.5869;-3.3970;
629.4000;0.5845;-3.3970;
629.7000;0.5836;-3.4069;
630.0000;0.5861;-3.4069;
630.3000;0.5910;-3.3895;
630.6000;0.5828;-3.3895;
630.9000;0.5845;-3.3796;
631.2000;0.5812;-3.3820;
631.5000;0.5812;-3.3820;
631.8000;0.5828;-3.3845;
632.1000;0.5812;-3.3820;
632.4000;0.5796;-3.3845;
632.7000;0.5796;-3.3771;
633.0000;0.5788;-3.3746;
633.3000;0.5796;-3.3696;
633.6000;0.5771;-3.3746;
633.9000;0.5755;-3.3721;
634.2000;0.5763;-3.3746;
634.5000;0.5755;-3.3771;
634.8000;0.5747;-3.3771;
635.1000;0.5722;-3.3870;
635.4000;0.5698;-3.3895;
635.7000;0.5706;-3.3920;
636.0000;0.5722;-3.3796;
636.3000;0.5690;-3.3721;
636.6000;0.5804;-3.3547;
636.9000;0.5698;-3.3721;
637.2000;0.5747;-3.3572;
637.5000;0.5690;-3.3646;
637.8000;0.5657;-3.3721;
638.1000;0.5600;-3.3945;
638.4000;0.5665;-3.3771;
638.7000;0.5649;-3.3696;
639.0000;0.5649;-3.3721;
639.3000;0.5633;-3.3646;
639.6000;0.5608;-3.3746;
639.9000;0.5625;-3.3696;
640.2000;0.5641;-3.3646;
640.5000;0.5617;-3.3696;
640.8000;0.5608;-3.3746;
641.1000;0.5625;-3.3696;
641.4000;0.5608;-3.3696;
641.7000;0.5592;-3.3796;
642.0000;0.5608;-3.3771;
642.3000;0.5657;-3.3572;
642.6000;0.5608;-3.3696;
642.9000;0.5568;-3.3746;
643.2000;0.5568;-3.3845;
643.5000;0.5592;-3.3771;
643.8000;0.5551;-3.3796;
644.1000;0.5551;-3.3796;
644.4000;0.5495;-3.3895;
644.7000;0.5543;-3.3721;
645.0000;0.5551;-3.3671;
645.3000;0.5551;-3.3646;
645.6000;0.5543;-3.3721;
645.9000;0.5519;-3.3771;
646.2000;0.5535;-3.3771;
646.5000;0.5519;-3.3721;
646.8000;0.5527;-3.3746;
647.1000;0.5503;-3.3820;
647.4000;0.5519;-3.3796;
647.7000;0.5503;-3.3820;
648.0000;0.5519;-3.3870;
648.3000;0.5511;-3.3820;
648.6000;0.5503;-3.3771;
648.9000;0.5511;-3.3721;
649.2000;0.5503;-3.3696;
649.5000;0.5486;-3.3895;
649.8000;0.5470;-3.3870;
650.1000;0.5486;-3.3870;
650.4000;0.5462;-3.3895;
650.7000;0.5462;-3.3920;
651.0000;0.5478;-3.3895;
651.3000;0.5462;-3.3870;
651.6000;0.5470;-3.3945;
651.9000;0.5454;-3.3994;
652.2000;0.5446;-3.4019;
652.5000;0.5429;-3.4094;
652.8000;0.5438;-3.4119;
653.1000;0.5413;-3.4119;
653.4000;0.5438;-3.4069;
653.7000;0.5389;-3.4094;
654.0000;0.5397;-3.4094;
654.3000;0.5389;-3.4169;
654.6000;0.5421;-3.4094;
654.9000;0.5397;-3.4094;
655.2000;0.5405;-3.4069;
655.5000;0.5405;-3.3945;
655.8000;0.5397;-3.3994;
656.1000;0.5405;-3.3970;
656.4000;0.5397;-3.4119;
656.7000;0.5397;-3.4044;
657.0000;0.5397;-3.4044;
657.3000;0.5397;-3.3970;
657.6000;0.5389;-3.3920;
657.9000;0.5315;-3.4019;
658.2000;0.5397;-3.3771;
658.5000;0.5372;-3.3870;
658.8000;0.5356;-3.3771;
659.1000;0.5348;-3.3696;
659.4000;0.5356;-3.3721;
659.7000;0.5348;-3.3721;
660.0000;0.5340;-3.3746;
660.3000;0.5340;-3.3796;
660.6000;0.5356;-3.3796;
660.9000;0.5381;-3.3796;
661.2000;0.5348;-3.3920;
661.5000;0.5364;-3.3845;
661.8000;0.5348;-3.3945;
662.1000;0.5364;-3.3895;
662.4000;0.5340;-3.3920;
662.7000;0.5332;-3.3970;
663.0000;0.5340;-3.3970;
663.3000;0.5315;-3.3945;
663.6000;0.5348;-3.3771;
663.9000;0.5324;-3.3771;
664.2000;0.5291;-3.3771;
664.5000;0.5332;-3.3621;
664.8000;0.5291;-3.3721;
665.1000;0.5299;-3.3771;
665.4000;0.5307;-3.3721;
665.7000;0.5381;-3.3547;
666.0000;0.5291;-3.3646;
666.3000;0.5250;-3.3671;
666.6000;0.5307;-3.3572;
666.9000;0.5283;-3.3621;
667.2000;0.5315;-3.3572;
667.5000;0.5332;-3.3547;
667.8000;0.5275;-3.3721;
668.1000;0.5267;-3.3746;
668.4000;0.5299;-3.3820;
668.7000;0.5283;-3.3771;
669.0000;0.5275;-3.3746;
669.3000;0.5291;-3.3696;
669.6000;0.5275;-3.3746;
669.9000;0.5258;-3.3796;
670.2000;0.5267;-3.3870;
670.5000;0.5250;-3.3895;
670.8000;0.5234;-3.3895;
671.1000;0.5275;-3.3820;
671.4000;0.5267;-3.3845;
671.7000;0.5267;-3.3796;
672.0000;0.5267;-3.3796;
672.3000;0.5267;-3.3771;
672.6000;0.5258;-3.3746;
672.9000;0.5275;-3.3746;
673.2000;0.5283;-3.3796;
673.5000;0.5258;-3.3870;
673.8000;0.5275;-3.3920;
674.1000;0.5315;-3.3820;
674.4000;0.5250;-3.3920;
674.7000;0.5234;-3.3895;
675.0000;0.5234;-3.3895;
675.3000;0.5356;-3.3547;
675.6000;0.5250;-3.3845;
675.9000;0.5291;-3.3746;
676.2000;0.5250;-3.3895;
676.5000;0.5234;-3.4019;
676.8000;0.5226;-3.3970;
677.1000;0.5226;-3.3994;
677.4000;0.5210;-3.3994;
677.7000;0.5242;-3.3994;
678.0000;0.5218;-3.4044;
678.3000;0.5226;-3.4069;
678.6000;0.5226;-3.4094;
678.9000;0.5218;-3.4094;
679.2000;0.5275;-3.3970;
679.5000;0.5234;-3.4069;
679.8000;0.5218;-3.4094;
680.1000;0.5210;-3.3994;
680.4000;0.5242;-3.3970;
680.7000;0.5218;-3.3994;
681.0000;0.5193;-3.4044;
681.3000;0.5193;-3.3994;
681.6000;0.5185;-3.4144;
681.9000;0.5193;-3.4144;
682.2000;0.5177;-3.4243;
682.5000;0.5201;-3.4119;
682.8000;0.5169;-3.4193;
683.1000;0.5201;-3.4119;
683.4000;0.5177;-3.4169;
683.7000;0.5185;-3.4119;
684.0000;0.5201;-3.4019;
684.3000;0.5193;-3.3994;
684.6000;0.5201;-3.3945;
684.9000;0.5201;-3.3920;
685.2000;0.5242;-3.3845;
685.5000;0.5242;-3.3945;
685.8000;0.5210;-3.3994;
686.1000;0.5193;-3.3970;
686.4000;0.5193;-3.3870;
686.7000;0.5210;-3.3796;
687.0000;0.5177;-3.3970;
687.3000;0.5218;-3.3920;
687.6000;0.5177;-3.4094;
687.9000;0.5169;-3.4044;
688.2000;0.5128;-3.4094;
688.5000;0.5169;-3.3870;
688.8000;0.5153;-3.3945;
689.1000;0.5177;-3.3820;
689.4000;0.5161;-3.3845;
689.7000;0.5161;-3.3820;
690.0000;0.5177;-3.3746;
690.3000;0.5112;-3.3920;
690.6000;0.5185;-3.3696;
690.9000;0.5177;-3.3721;
691.2000;0.5153;-3.3746;
691.5000;0.5218;-3.3621;
691.8000;0.5169;-3.3721;
692.1000;0.5120;-3.3845;
692.4000;0.5144;-3.3796;
692.7000;0.5169;-3.3820;
693.0000;0.5144;-3.3820;
693.3000;0.5153;-3.3845;
693.6000;0.5153;-3.3895;
693.9000;0.5144;-3.3895;
694.2000;0.5136;-3.3970;
694.5000;0.5153;-3.3945;
694.8000;0.5161;-3.3845;
695.1000;0.5144;-3.3820;
695.4000;0.5144;-3.3820;
695.7000;0.5112;-3.3945;
696.0000;0.5136;-3.3771;
696.3000;0.5153;-3.3796;
696.6000;0.5153;-3.3845;
696.9000;0.5136;-3.3895;
697.2000;0.5161;-3.3796;
697.5000;0.5144;-3.3870;
697.8000;0.5153;-3.3870;
698.1000;0.5153;-3.3920;
698.4000;0.5153;-3.3771;
698.7000;0.5161;-3.3671;
699.0000;0.5136;-3.3746;
699.3000;0.5120;-3.3796;
699.6000;0.5153;-3.3796;
699.9000;0.5161;-3.3845;
700.2000;0.5112;-3.4019;
700.5000;0.5136;-3.3920;
700.8000;0.5128;-3.3945;
701.1000;0.5144;-3.3870;
701.4000;0.5144;-3.3920;
701.7000;0.5136;-3.3920;
702.0000;0.5136;-3.3920;
702.3000;0.5128;-3.3945;
702.6000;0.5120;-3.4019;
702.9000;0.5136;-3.4069;
703.2000;0.5104;-3.4169;
703.5000;0.5096;-3.4094;
703.8000;0.5128;-3.4044;
704.1000;0.5104;-3.3970;
704.4000;0.5088;-3.4019;
704.7000;0.5218;-3.3621;
705.0000;0.5079;-3.3895;
705.3000;0.5096;-3.3820;
705.6000;0.5104;-3.3845;
705.9000;0.5104;-3.3845;
706.2000;0.5128;-3.3671;
706.5000;0.5120;-3.3597;
706.8000;0.5136;-3.3746;
707.1000;0.5128;-3.3895;
707.4000;0.5104;-3.3920;
707.7000;0.5120;-3.3845;
708.0000;0.5128;-3.3845;
708.3000;0.5112;-3.3870;
708.6000;0.5112;-3.3895;
708.9000;0.5096;-3.3895;
709.2000;0.5112;-3.3870;
709.5000;0.5096;-3.3920;
709.8000;0.5104;-3.3895;
710.1000;0.5071;-3.3920;
710.4000;0.5096;-3.3845;
710.7000;0.5112;-3.3820;
711.0000;0.5112;-3.3820;
711.3000;0.5136;-3.3696;
711.6000;0.5088;-3.3870;
711.9000;0.5088;-3.3870;
712.2000;0.5096;-3.3771;
712.5000;0.5088;-3.3870;
712.8000;0.5088;-3.3870;
713.1000;0.5096;-3.3796;
713.4000;0.5096;-3.3771;
713.7000;0.5112;-3.3771;
714.0000;0.5104;-3.3820;
714.3000;0.5096;-3.3820;
714.6000;0.5079;-3.3895;
714.9000;0.5088;-3.3920;
715.2000;0.5079;-3.3945;
715.5000;0.5096;-3.3920;
715.8000;0.5096;-3.3895;
716.1000;0.5088;-3.3845;
716.4000;0.5088;-3.3845;
716.7000;0.5128;-3.3746;
717.0000;0.5088;-3.3895;
717.3000;0.5079;-3.3945;
717.6000;0.5063;-3.3945;
717.9000;0.5088;-3.3920;
718.2000;0.5088;-3.3895;
718.5000;0.5088;-3.3970;
718.8000;0.5079;-3.4019;
719.1000;0.5055;-3.4069;
719.4000;0.5063;-3.4119;
719.7000;0.5088;-3.3994;
720.0000;0.5014;-3.4119;
720.3000;0.5063;-3.3895;
720.6000;0.5063;-3.3895;
720.9000;0.5096;-3.3696;
721.2000;0.4998;-3.3870;
721.5000;0.5071;-3.3796;
721.8000;0.5071;-3.3771;
722.1000;0.5071;-3.3771;
722.4000;0.5088;-3.3671;
722.7000;0.5079;-3.3621;
723.0000;0.5047;-3.3746;
723.3000;0.5039;-3.3845;
723.6000;0.5047;-3.3820;
723.9000;0.5055;-3.3870;
724.2000;0.5039;-3.3920;
724.5000;0.5071;-3.3895;
724.8000;0.5079;-3.3870;
725.1000;0.5071;-3.3820;
725.4000;0.5071;-3.3796;
725.7000;0.5071;-3.3771;
726.0000;0.5079;-3.3746;
726.3000;0.5088;-3.3771;
726.6000;0.5088;-3.3845;
726.9000;0.5071;-3.3920;
727.2000;0.5071;-3.3820;
727.5000;0.5079;-3.3746;
727.8000;0.5079;-3.3721;
728.1000;0.5055;-3.3796;
728.4000;0.5055;-3.3870;
728.7000;0.5071;-3.3721;
729.0000;0.5079;-3.3671;
729.3000;0.5063;-3.3671;
729.6000;0.5047;-3.3721;
729.9000;0.5071;-3.3621;
730.2000;0.5055;-3.3621;
730.5000;0.5055;-3.3671;
730.8000;0.5047;-3.3746;
731.1000;0.5055;-3.3721;
731.4000;0.5063;-3.3721;
731.7000;0.5039;-3.3721;
732.0000;0.5063;-3.3671;
732.3000;0.5071;-3.3597;
732.6000;0.5039;-3.3646;
732.9000;0.5063;-3.3646;
733.2000;0.5055;-3.3696;
733.5000;0.5039;-3.3771;
733.8000;0.5047;-3.3746;
734.1000;0.5071;-3.3696;
734.4000;0.5079;-3.3621;
734.7000;0.5055;-3.3646;
735.0000;0.5071;-3.3597;
735.3000;0.5055;-3.3621;
735.6000;0.5055;-3.3621;
735.9000;0.5055;-3.3721;
736.2000;0.5047;-3.3771;
736.5000;0.5055;-3.3721;
736.8000;0.5047;-3.3771;
737.1000;0.5055;-3.3746;
737.4000;0.5047;-3.3820;
737.7000;0.5120;-3.3522;
738.0000;0.5047;-3.3746;
738.3000;0.5047;-3.3771;
738.6000;0.5031;-3.3845;
738.9000;0.5055;-3.3845;
739.2000;0.5063;-3.3870;
739.5000;0.5031;-3.3970;
739.8000;0.5039;-3.3920;
740.1000;0.5039;-3.3945;
740.4000;0.5039;-3.3920;
740.7000;0.5071;-3.3671;
741.0000;0.5055;-3.3646;
741.3000;0.5055;-3.3572;
741.6000;0.5031;-3.3621;
741.9000;0.5047;-3.3621;
742.2000;0.5071;-3.3621;
742.5000;0.5039;-3.3771;
742.8000;0.5031;-3.3895;
743.1000;0.5039;-3.3945;
743.4000;0.5022;-3.3994;
743.7000;0.5014;-3.3970;
744.0000;0.5071;-3.3895;
744.3000;0.5055;-3.3920;
744.6000;0.5039;-3.4019;
744.9000;0.5031;-3.4019;
745.2000;0.5039;-3.4019;
745.5000;0.5128;-3.3646;
745.8000;0.5055;-3.3796;
746.1000;0.5055;-3.3746;
746.4000;0.5039;-3.3820;
746.7000;0.4941;-3.4119;
747.0000;0.5039;-3.3945;
747.3000;0.5006;-3.3945;
747.6000;0.5031;-3.3895;
747.9000;0.5055;-3.3895;
748.2000;0.5031;-3.3895;
748.5000;0.5047;-3.3845;
748.8000;0.5039;-3.3870;
749.1000;0.5031;-3.3870;
749.4000;0.5014;-3.3920;
749.7000;0.5047;-3.3771;
750.0000;0.5055;-3.3721;
750.3000;0.5022;-3.3746;
750.6000;0.5031;-3.3746;
750.9000;0.5031;-3.3671;
751.2000;0.5128;-3.3472;
751.5000;0.5039;-3.3646;
751.8000;0.5022;-3.3721;
752.1000;0.5022;-3.3746;
752.4000;0.5055;-3.3621;
752.7000;0.5022;-3.3621;
753.0000;0.5022;-3.3646;
753.3000;0.5022;-3.3621;
753.6000;0.5031;-3.3597;
753.9000;0.4965;-3.3771;
754.2000;0.5006;-3.3671;
754.5000;0.5039;-3.3621;
754.8000;0.5031;-3.3621;
755.1000;0.5039;-3.3646;
755.4000;0.5022;-3.3746;
755.7000;0.5022;-3.3721;
756.0000;0.5006;-3.3771;
756.3000;0.5031;-3.3671;
756.6000;0.4965;-3.3945;
756.9000;0.5014;-3.3870;
757.2000;0.5022;-3.3870;
757.5000;0.5014;-3.3845;
757.8000;0.5031;-3.3820;
758.1000;0.5022;-3.3920;
758.4000;0.5022;-3.3970;
758.7000;0.5022;-3.4019;
759.0000;0.5079;-3.3771;
759.3000;0.5022;-3.3970;
759.6000;0.5022;-3.3945;
759.9000;0.5014;-3.3970;
760.2000;0.5022;-3.3870;
760.5000;0.5039;-3.3820;
760.8000;0.5022;-3.3845;
761.1000;0.5014;-3.3771;
761.4000;0.5047;-3.3746;
761.7000;0.5039;-3.3771;
762.0000;0.5022;-3.3796;
762.3000;0.5006;-3.3771;
762.6000;0.5022;-3.3796;
762.9000;0.5031;-3.3721;
763.2000;0.5031;-3.3870;
763.5000;0.5031;-3.3945;
763.8000;0.5006;-3.3994;
764.1000;0.5031;-3.3796;
764.4000;0.5022;-3.3771;
764.7000;0.5031;-3.3845;
765.0000;0.5022;-3.3845;
765.3000;0.4990;-3.3820;
765.6000;0.5014;-3.3746;
765.9000;0.5006;-3.3945;
766.2000;0.5014;-3.3870;
766.5000;0.5014;-3.3945;
766.8000;0.5014;-3.3920;
767.1000;0.5055;-3.3845;
767.4000;0.5022;-3.3920;
767.7000;0.5039;-3.3845;
768.0000;0.5022;-3.3895;
768.3000;0.5047;-3.3845;
768.6000;0.4990;-3.3994;
768.9000;0.5014;-3.3920;
769.2000;0.5031;-3.3945;
769.5000;0.5022;-3.4119;
769.8000;0.5006;-3.4094;
770.1000;0.4957;-3.4293;
770.4000;0.5022;-3.4119;
770.7000;0.5006;-3.4044;
771.0000;0.5031;-3.3970;
771.3000;0.5039;-3.3895;
771.6000;0.5022;-3.3994;
771.9000;0.5022;-3.3920;
772.2000;0.5047;-3.3746;
772.5000;0.5014;-3.3870;
772.8000;0.5014;-3.3920;
773.1000;0.5022;-3.3895;
773.4000;0.4990;-3.3994;
773.7000;0.5006;-3.3920;
774.0000;0.5014;-3.3796;
774.3000;0.4974;-3.3945;
774.6000;0.5006;-3.3820;
774.9000;0.4998;-3.3820;
775.2000;0.4982;-3.3895;
775.5000;0.5006;-3.3845;
775.8000;0.5031;-3.3771;
776.1000;0.4998;-3.3845;
776.4000;0.4998;-3.3796;
776.7000;0.4925;-3.4044;
777.0000;0.5079;-3.3721;
777.3000;0.5031;-3.3746;
777.6000;0.5006;-3.3796;
777.9000;0.4990;-3.3895;
778.2000;0.5014;-3.3920;
778.5000;0.4982;-3.3920;
778.8000;0.5014;-3.3920;
779.1000;0.5006;-3.3845;
779.4000;0.5006;-3.3796;
779.7000;0.5006;-3.3771;
780.0000;0.5031;-3.3646;
780.3000;0.5006;-3.3771;
780.6000;0.5014;-3.3721;
780.9000;0.4990;-3.3721;
781.2000;0.5022;-3.3646;
781.5000;0.4998;-3.3572;
781.8000;0.5014;-3.3572;
782.1000;0.4998;-3.3696;
782.4000;0.4998;-3.3721;
782.7000;0.5014;-3.3696;
783.0000;0.4998;-3.3820;
783.3000;0.5022;-3.3845;
783.6000;0.5039;-3.3870;
783.9000;0.5031;-3.3895;
784.2000;0.5022;-3.3895;
784.5000;0.4990;-3.3970;
784.8000;0.5079;-3.3820;
785.1000;0.5022;-3.3895;
785.4000;0.4998;-3.3920;
785.7000;0.5006;-3.3895;
786.0000;0.4990;-3.3920;
786.3000;0.5006;-3.3945;
786.6000;0.5006;-3.3945;
786.9000;0.4990;-3.3870;
787.2000;0.4998;-3.3870;
787.5000;0.5055;-3.3746;
787.8000;0.5022;-3.3796;
788.1000;0.5006;-3.3646;
788.4000;0.5006;-3.3696;
788.7000;0.5014;-3.3696;
789.0000;0.4982;-3.3746;
789.3000;0.5022;-3.3671;
789.6000;0.5014;-3.3621;
789.9000;0.5031;-3.3621;
790.2000;0.5031;-3.3621;
790.5000;0.5014;-3.3721;
790.8000;0.5022;-3.3771;
791.1000;0.5006;-3.3796;
791.4000;0.5006;-3.3746;
791.7000;0.5022;-3.3721;
792.0000;0.5022;-3.3796;
792.3000;0.5047;-3.3646;
792.6000;0.4990;-3.3696;
792.9000;0.4998;-3.3696;
793.2000;0.5006;-3.3671;
793.5000;0.4998;-3.3771;
793.8000;0.5006;-3.3696;
794.1000;0.4998;-3.3696;
794.4000;0.5006;-3.3696;
794.7000;0.4957;-3.3895;
795.0000;0.5022;-3.3895;
795.3000;0.4974;-3.3994;
795.6000;0.5022;-3.3771;
795.9000;0.5006;-3.3746;
796.2000;0.5006;-3.3671;
796.5000;0.5014;-3.3646;
796.8000;0.5055;-3.3597;
797.1000;0.5022;-3.3597;
797.4000;0.4982;-3.3721;
797.7000;0.5006;-3.3721;
798.0000;0.4998;-3.3721;
798.3000;0.5055;-3.3572;
798.6000;0.5022;-3.3646;
798.9000;0.4949;-3.3845;
799.2000;0.4998;-3.3771;
799.5000;0.4949;-3.3945;
799.8000;0.5006;-3.3820;
800.1000;0.4974;-3.3820;
800.4000;0.4990;-3.3696;
800.7000;0.4990;-3.3721;
801.0000;0.5022;-3.3671;
801.3000;0.4990;-3.3746;
801.6000;0.4965;-3.3820;
801.9000;0.4998;-3.3870;
802.2000;0.5006;-3.3895;
802.5000;0.5014;-3.3845;
802.8000;0.4998;-3.3746;
803.1000;0.4982;-3.3771;
803.4000;0.4998;-3.3671;
803.7000;0.4990;-3.3597;
804.0000;0.4974;-3.3746;
804.3000;0.4982;-3.3721;
804.6000;0.5006;-3.3771;
804.9000;0.5006;-3.3746;
805.2000;0.4982;-3.3746;
805.5000;0.4949;-3.3845;
805.8000;0.4998;-3.3845;
806.1000;0.4982;-3.3895;
806.4000;0.5006;-3.3870;
806.7000;0.5006;-3.3845;
807.0000;0.5014;-3.3870;
807.3000;0.4998;-3.4019;
807.6000;0.5006;-3.3970;
807.9000;0.4998;-3.3895;
808.2000;0.4998;-3.3895;
808.5000;0.5063;-3.3771;
808.8000;0.5006;-3.3895;
809.1000;0.4982;-3.3945;
809.4000;0.4990;-3.3920;
809.7000;0.5031;-3.3796;
810.0000;0.4990;-3.3895;
810.3000;0.5006;-3.3820;
810.6000;0.5104;-3.3597;
810.9000;0.4998;-3.3796;
811.2000;0.4998;-3.3845;
811.5000;0.5006;-3.3870;
811.8000;0.4982;-3.3920;
812.1000;0.5006;-3.3945;
812.4000;0.5022;-3.3870;
812.7000;0.4998;-3.3845;
813.0000;0.5022;-3.3771;
813.3000;0.4998;-3.3845;
813.6000;0.5006;-3.3870;
813.9000;0.4982;-3.3895;
814.2000;0.4990;-3.3796;
814.5000;0.5014;-3.3771;
814.8000;0.4990;-3.3920;
815.1000;0.4982;-3.3945;
815.4000;0.4965;-3.4069;
815.7000;0.4949;-3.4019;
816.0000;0.5031;-3.3870;
816.3000;0.5006;-3.3970;
816.6000;0.5047;-3.3796;
816.9000;0.5014;-3.3870;
817.2000;0.4974;-3.3920;
817.5000;0.5006;-3.3870;
817.8000;0.5014;-3.3746;
818.1000;0.5047;-3.3671;
818.4000;0.4998;-3.3796;
818.7000;0.4982;-3.3870;
819.0000;0.4990;-3.3746;
819.3000;0.5031;-3.3621;
819.6000;0.4982;-3.3771;
819.9000;0.5014;-3.3621;
820.2000;0.5014;-3.3597;
820.5000;0.4974;-3.3671;
820.8000;0.4941;-3.3771;
821.1000;0.4974;-3.3597;
821.4000;0.4990;-3.3597;
821.7000;0.4965;-3.3671;
822.0000;0.4957;-3.3671;
822.3000;0.4957;-3.3771;
822.6000;0.4990;-3.3721;
822.9000;0.5047;-3.3597;
823.2000;0.4941;-3.3771;
823.5000;0.4982;-3.3721;
823.8000;0.4965;-3.3771;
824.1000;0.5006;-3.3746;
824.4000;0.4982;-3.3945;
824.7000;0.4998;-3.3870;
825.0000;0.4998;-3.3870;
825.3000;0.5055;-3.3646;
825.6000;0.4990;-3.3721;
825.9000;0.4998;-3.3721;
826.2000;0.5039;-3.3646;
826.5000;0.5031;-3.3671;
826.8000;0.4982;-3.3746;
827.1000;0.4965;-3.3721;
827.4000;0.4949;-3.3845;
827.7000;0.4990;-3.3870;
828.0000;0.4949;-3.3945;
828.3000;0.4990;-3.3746;
828.6000;0.4949;-3.3895;
828.9000;0.4974;-3.3771;
829.2000;0.5014;-3.3696;
829.5000;0.4982;-3.3746;
829.8000;0.4982;-3.3796;
830.1000;0.5014;-3.3721;
830.4000;0.4941;-3.3796;
830.7000;0.4982;-3.3646;
831.0000;0.4998;-3.3696;
831.3000;0.4998;-3.3796;
831.6000;0.4965;-3.3920;
831.9000;0.4990;-3.3820;
832.2000;0.5006;-3.3845;
832.5000;0.4998;-3.3870;
832.8000;0.4998;-3.3945;
833.1000;0.5006;-3.3870;
833.4000;0.5006;-3.3771;
833.7000;0.5063;-3.3497;
834.0000;0.4998;-3.3671;
834.3000;0.4982;-3.3771;
834.6000;0.4998;-3.3796;
834.9000;0.5022;-3.3771;
835.2000;0.4990;-3.3721;
835.5000;0.4990;-3.3721;
835.8000;0.4990;-3.3796;
836.1000;0.4998;-3.3746;
836.4000;0.4990;-3.3746;
836.7000;0.5031;-3.3597;
837.0000;0.5014;-3.3671;
837.3000;0.4990;-3.3796;
837.6000;0.5006;-3.3771;
837.9000;0.5088;-3.3522;
838.2000;0.4974;-3.3771;
838.5000;0.4957;-3.3746;
838.8000;0.4990;-3.3696;
839.1000;0.4949;-3.3820;
839.4000;0.4974;-3.3771;
839.7000;0.5039;-3.3696;
840.0000;0.4933;-3.4019;
840.3000;0.5006;-3.3721;
840.6000;0.4949;-3.3796;
840.9000;0.4998;-3.3572;
841.2000;0.5006;-3.3522;
841.5000;0.4982;-3.3472;
841.8000;0.4998;-3.3398;
842.1000;0.5071;-3.3248;
842.4000;0.4990;-3.3348;
842.7000;0.4982;-3.3348;
843.0000;0.4982;-3.3248;
843.3000;0.4957;-3.3323;
843.6000;0.4965;-3.3472;
843.9000;0.4982;-3.3572;
844.2000;0.4974;-3.3671;
844.5000;0.4982;-3.3646;
844.8000;0.4917;-3.3845;
845.1000;0.4990;-3.3696;
845.4000;0.4998;-3.3671;
845.7000;0.4998;-3.3696;
846.0000;0.4990;-3.3721;
846.3000;0.4990;-3.3696;
846.6000;0.5006;-3.3646;
846.9000;0.4998;-3.3621;
847.2000;0.5022;-3.3646;
847.5000;0.4925;-3.3845;
847.8000;0.5031;-3.3621;
848.1000;0.5014;-3.3696;
848.4000;0.5014;-3.3820;
848.7000;0.4998;-3.3746;
849.0000;0.5006;-3.3646;
849.3000;0.4982;-3.3721;
849.6000;0.5039;-3.3597;
849.9000;0.4998;-3.3696;
850.2000;0.5006;-3.3771;
850.5000;0.4990;-3.3845;
850.8000;0.4990;-3.3970;
851.1000;0.4990;-3.3970;
851.4000;0.4998;-3.3845;
851.7000;0.4965;-3.3845;
852.0000;0.5006;-3.3820;
852.3000;0.4990;-3.3746;
852.6000;0.5006;-3.3671;
852.9000;0.4998;-3.3721;
853.2000;0.5006;-3.3771;
853.5000;0.4998;-3.3796;
853.8000;0.4990;-3.3845;
854.1000;0.4998;-3.3746;
854.4000;0.4990;-3.3820;
854.7000;0.4990;-3.3746;
855.0000;0.4982;-3.3721;
855.3000;0.4990;-3.3820;
855.6000;0.4990;-3.3721;
855.9000;0.4998;-3.3621;
856.2000;0.4998;-3.3721;
856.5000;0.4974;-3.3771;
856.8000;0.4990;-3.3820;
857.1000;0.4982;-3.3870;
857.4000;0.4990;-3.3945;
857.7000;0.4990;-3.3870;
858.0000;0.4998;-3.3796;
858.3000;0.5006;-3.3721;
858.6000;0.4982;-3.3796;
858.9000;0.5014;-3.3820;
859.2000;0.4974;-3.3920;
859.5000;0.4990;-3.3796;
859.8000;0.5014;-3.3721;
860.1000;0.4990;-3.3721;
860.4000;0.4990;-3.3696;
860.7000;0.4957;-3.3721;
861.0000;0.5014;-3.3572;
861.3000;0.5006;-3.3597;
861.6000;0.4974;-3.3746;
861.9000;0.4998;-3.3721;
862.2000;0.4965;-3.3845;
862.5000;0.4990;-3.3696;
862.8000;0.5006;-3.3721;
863.1000;0.4974;-3.3771;
863.4000;0.4998;-3.3646;
863.7000;0.4990;-3.3671;
864.0000;0.4908;-3.3945;
864.3000;0.5071;-3.3572;
864.6000;0.5039;-3.3646;
864.9000;0.4949;-3.3920;
865.2000;0.5022;-3.3771;
865.5000;0.4990;-3.3895;
865.8000;0.4876;-3.4218;
866.1000;0.5006;-3.3845;
866.4000;0.5006;-3.3820;
866.7000;0.4998;-3.3845;
867.0000;0.4974;-3.3845;
867.3000;0.4884;-3.4119;
867.6000;0.4982;-3.3945;
867.9000;0.4982;-3.3895;
868.2000;0.4990;-3.3870;
868.5000;0.4990;-3.3870;
868.8000;0.4949;-3.3895;
869.1000;0.4982;-3.3696;
869.4000;0.4998;-3.3572;
869.7000;0.4990;-3.3547;
870.0000;0.4990;-3.3572;
870.3000;0.4982;-3.3721;
870.6000;0.4982;-3.3646;
870.9000;0.4965;-3.3721;
871.2000;0.4982;-3.3746;
871.5000;0.4998;-3.3696;
871.8000;0.4990;-3.3746;
872.1000;0.4990;-3.3646;
872.4000;0.4998;-3.3597;
872.7000;0.4998;-3.3597;
873.0000;0.4998;-3.3597;
873.3000;0.4990;-3.3696;
873.6000;0.4982;-3.3796;
873.9000;0.4998;-3.3796;
874.2000;0.5006;-3.3671;
874.5000;0.4974;-3.3721;
874.8000;0.4965;-3.3820;
875.1000;0.4990;-3.3771;
875.4000;0.4974;-3.3721;
875.7000;0.5006;-3.3572;
876.0000;0.4990;-3.3646;
876.3000;0.4990;-3.3646;
876.6000;0.4990;-3.3572;
876.9000;0.5006;-3.3547;
877.2000;0.5006;-3.3621;
877.5000;0.4998;-3.3597;
877.8000;0.5014;-3.3597;
878.1000;0.5014;-3.3621;
878.4000;0.4917;-3.3820;
878.7000;0.4982;-3.3746;
879.0000;0.4982;-3.3696;
879.3000;0.4974;-3.3771;
879.6000;0.4974;-3.3721;
879.9000;0.4974;-3.3845;
880.2000;0.4982;-3.3796;
880.5000;0.5006;-3.3721;
880.8000;0.4965;-3.3696;
881.1000;0.5031;-3.3572;
881.4000;0.4974;-3.3721;
881.7000;0.4998;-3.3696;
882.0000;0.4990;-3.3696;
882.3000;0.4998;-3.3671;
882.6000;0.4925;-3.3796;
882.9000;0.4957;-3.3746;
883.2000;0.4982;-3.3721;
883.5000;0.4998;-3.3796;
883.8000;0.5014;-3.3820;
884.1000;0.5006;-3.3870;
884.4000;0.4998;-3.3870;
884.7000;0.4998;-3.3870;
885.0000;0.5047;-3.3746;
885.3000;0.4998;-3.3721;
885.6000;0.4998;-3.3646;
885.9000;0.4998;-3.3696;
886.2000;0.4990;-3.3696;
886.5000;0.4982;-3.3646;
886.8000;0.5006;-3.3597;
887.1000;0.4982;-3.3646;
887.4000;0.4998;-3.3597;
887.7000;0.4982;-3.3671;
888.0000;0.5063;-3.3522;
888.3000;0.4998;-3.3696;
888.6000;0.4982;-3.3796;
888.9000;0.4974;-3.3945;
889.2000;0.5006;-3.3746;
889.5000;0.4982;-3.3746;
889.8000;0.5022;-3.3696;
890.1000;0.4949;-3.3920;
890.4000;0.4990;-3.3746;
890.7000;0.4990;-3.3721;
891.0000;0.4957;-3.3820;
891.3000;0.4982;-3.3845;
891.6000;0.4998;-3.3746;
891.9000;0.4998;-3.3746;
892.2000;0.4982;-3.3820;
892.5000;0.4990;-3.3870;
892.8000;0.4990;-3.3870;
893.1000;0.4974;-3.3870;
893.4000;0.4965;-3.3945;
893.7000;0.4990;-3.3845;
894.0000;0.4982;-3.3820;
894.3000;0.4974;-3.3920;
894.6000;0.4982;-3.3870;
894.9000;0.4998;-3.3870;
895.2000;0.4982;-3.3945;
895.5000;0.4982;-3.3945;
895.8000;0.4974;-3.3920;
896.1000;0.4990;-3.3920;
896.4000;0.4965;-3.3945;
896.7000;0.4990;-3.3895;
897.0000;0.4965;-3.3920;
897.3000;0.4974;-3.3945;
897.6000;0.4974;-3.3895;
897.9000;0.4974;-3.3771;
898.2000;0.4982;-3.3771;
898.5000;0.4982;-3.3696;
898.8000;0.4990;-3.3671;
899.1000;0.4998;-3.3721;
899.4000;0.4949;-3.3870;
899.7000;0.4998;-3.3771;
900.0000;0.4982;-3.3845;
900.3000;0.4990;-3.3870;
900.6000;0.4990;-3.3796;
900.9000;0.4974;-3.3746;
901.2000;0.5014;-3.3671;
901.5000;0.4998;-3.3671;
901.8000;0.4974;-3.3796;
902.1000;0.4998;-3.3771;
902.4000;0.4998;-3.3721;
902.7000;0.4982;-3.3796;
903.0000;0.5006;-3.3671;
903.3000;0.4982;-3.3671;
903.6000;0.4982;-3.3621;
903.9000;0.4990;-3.3597;
904.2000;0.4990;-3.3621;
904.5000;0.4974;-3.3696;
904.8000;0.4998;-3.3671;
905.1000;0.4998;-3.3746;
905.4000;0.5006;-3.3796;
905.7000;0.4990;-3.3796;
906.0000;0.4990;-3.3820;
906.3000;0.4974;-3.3771;
906.6000;0.4982;-3.3721;
906.9000;0.4990;-3.3696;
907.2000;0.4974;-3.3696;
907.5000;0.4974;-3.3820;
907.8000;0.5022;-3.3696;
908.1000;0.4982;-3.3746;
908.4000;0.4974;-3.3696;
908.7000;0.4974;-3.3696;
909.0000;0.4998;-3.3696;
909.3000;0.4998;-3.3771;
909.6000;0.5014;-3.3820;
909.9000;0.5014;-3.3895;
910.2000;0.4982;-3.3945;
910.5000;0.4990;-3.3870;
910.8000;0.4998;-3.3820;
911.1000;0.4990;-3.3671;
911.4000;0.4965;-3.3646;
911.7000;0.4998;-3.3646;
912.0000;0.4990;-3.3572;
912.3000;0.5006;-3.3497;
912.6000;0.4965;-3.3621;
912.9000;0.4982;-3.3572;
913.2000;0.4990;-3.3597;
913.5000;0.4965;-3.3696;
913.8000;0.4982;-3.3646;
914.1000;0.4998;-3.3646;
914.4000;0.5014;-3.3646;
914.7000;0.5006;-3.3746;
915.0000;0.4998;-3.3696;
915.3000;0.4974;-3.3771;
915.6000;0.5014;-3.3621;
915.9000;0.4957;-3.3796;
916.2000;0.4917;-3.3994;
916.5000;0.4990;-3.3845;
916.8000;0.4949;-3.3945;
917.1000;0.4998;-3.3820;
917.4000;0.4974;-3.3845;
917.7000;0.4892;-3.3920;
918.0000;0.4974;-3.3621;
918.3000;0.4982;-3.3547;
918.6000;0.4974;-3.3547;
918.9000;0.4982;-3.3522;
919.2000;0.4990;-3.3497;
919.5000;0.4990;-3.3472;
919.8000;0.4998;-3.3497;
920.1000;0.4990;-3.3547;
920.4000;0.4982;-3.3597;
920.7000;0.4990;-3.3547;
921.0000;0.4982;-3.3572;
921.3000;0.4974;-3.3597;
921.6000;0.5022;-3.3522;
921.9000;0.4974;-3.3646;
922.2000;0.4990;-3.3621;
922.5000;0.4982;-3.3671;
922.8000;0.4982;-3.3696;
923.1000;0.4982;-3.3621;
923.4000;0.4998;-3.3572;
923.7000;0.4998;-3.3597;
924.0000;0.5006;-3.3621;
924.3000;0.4974;-3.3696;
924.6000;0.4957;-3.3796;
924.9000;0.4998;-3.3671;
925.2000;0.4933;-3.3845;
925.5000;0.4965;-3.3820;
925.8000;0.4990;-3.3771;
926.1000;0.4974;-3.3746;
926.4000;0.4998;-3.3621;
926.7000;0.4990;-3.3671;
927.0000;0.4982;-3.3696;
927.3000;0.4982;-3.3696;
927.6000;0.4974;-3.3696;
927.9000;0.4982;-3.3646;
928.2000;0.4990;-3.3621;
928.5000;0.4998;-3.3646;
928.8000;0.4998;-3.3671;
929.1000;0.4982;-3.3547;
929.4000;0.5006;-3.3547;
929.7000;0.4982;-3.3671;
930.0000;0.4990;-3.3621;
930.3000;0.4982;-3.3547;
930.6000;0.4982;-3.3646;
930.9000;0.4949;-3.3671;
931.2000;0.4974;-3.3721;
931.5000;0.4998;-3.3671;
931.8000;0.4998;-3.3671;
932.1000;0.4982;-3.3646;
932.4000;0.4965;-3.3621;
932.7000;0.4982;-3.3547;
933.0000;0.4998;-3.3522;
933.3000;0.5014;-3.3522;
933.6000;0.4990;-3.3696;
933.9000;0.4998;-3.3746;
934.2000;0.4998;-3.3771;
934.5000;0.4965;-3.3895;
934.8000;0.4974;-3.3845;
935.1000;0.5014;-3.3696;
935.4000;0.4974;-3.3696;
935.7000;0.4998;-3.3572;
936.0000;0.4990;-3.3597;
936.3000;0.4998;-3.3572;
936.6000;0.5014;-3.3572;
936.9000;0.4982;-3.3597;
937.2000;0.4974;-3.3696;
937.5000;0.4990;-3.3721;
937.8000;0.4998;-3.3746;
938.1000;0.4982;-3.3746;
938.4000;0.4982;-3.3771;
938.7000;0.4982;-3.3771;
939.0000;0.4982;-3.3721;
939.3000;0.4868;-3.3970;
939.6000;0.4998;-3.3721;
939.9000;0.4990;-3.3845;
940.2000;0.5006;-3.3870;
940.5000;0.4998;-3.3895;
940.8000;0.4990;-3.3771;
941.1000;0.4998;-3.3721;
941.4000;0.5006;-3.3646;
941.7000;0.4974;-3.3696;
942.0000;0.4990;-3.3621;
942.3000;0.4982;-3.3597;
942.6000;0.4990;-3.3621;
942.9000;0.4965;-3.3646;
943.2000;0.4982;-3.3621;
943.5000;0.4982;-3.3621;
943.8000;0.4974;-3.3621;
944.1000;0.4974;-3.3696;
944.4000;0.4965;-3.3621;
944.7000;0.5071;-3.3398;
945.0000;0.4965;-3.3646;
945.3000;0.4982;-3.3621;
945.6000;0.5022;-3.3572;
945.9000;0.4957;-3.3721;
946.2000;0.4974;-3.3746;
946.5000;0.4982;-3.3845;
946.8000;0.4974;-3.3771;
947.1000;0.4982;-3.3820;
947.4000;0.4974;-3.3945;
947.7000;0.4990;-3.3895;
948.0000;0.4974;-3.3920;
948.3000;0.4982;-3.3820;
948.6000;0.4990;-3.3746;
948.9000;0.4965;-3.3721;
949.2000;0.4892;-3.3895;
949.5000;0.4974;-3.3696;
949.8000;0.4982;-3.3696;
950.1000;0.4990;-3.3671;
950.4000;0.4974;-3.3696;
950.7000;0.4974;-3.3671;
951.0000;0.4974;-3.3721;
951.3000;0.4974;-3.3746;
951.6000;0.4998;-3.3646;
951.9000;0.4982;-3.3671;
952.2000;0.4965;-3.3671;
952.5000;0.4974;-3.3696;
952.8000;0.4949;-3.3771;
953.1000;0.4974;-3.3721;
953.4000;0.4990;-3.3721;
953.7000;0.4982;-3.3746;
954.0000;0.4998;-3.3671;
954.3000;0.4998;-3.3746;
954.6000;0.5014;-3.3771;
954.9000;0.4965;-3.3870;
955.2000;0.5014;-3.3870;
955.5000;0.4974;-3.4044;
955.8000;0.4974;-3.4044;
956.1000;0.5047;-3.3820;
956.4000;0.4982;-3.4019;
956.7000;0.4990;-3.3920;
957.0000;0.4982;-3.3895;
957.3000;0.5006;-3.3771;
957.6000;0.4998;-3.3746;
957.9000;0.5088;-3.3497;
958.2000;0.5006;-3.3696;
958.5000;0.4990;-3.3771;
958.8000;0.4974;-3.3796;
959.1000;0.5055;-3.3547;
959.4000;0.5006;-3.3721;
959.7000;0.4990;-3.3771;
960.0000;0.4982;-3.3746;
960.3000;0.4990;-3.3721;
960.6000;0.4982;-3.3845;
960.9000;0.4974;-3.3820;
961.2000;0.4974;-3.3820;
961.5000;0.4998;-3.3771;
961.8000;0.4974;-3.3820;
962.1000;0.4982;-3.3771;
962.4000;0.4990;-3.3771;
962.7000;0.4965;-3.3820;
963.0000;0.4974;-3.3920;
963.3000;0.4949;-3.3994;
963.6000;0.4957;-3.3870;
963.9000;0.4965;-3.3845;
964.2000;0.4933;-3.3945;
964.5000;0.4982;-3.3845;
964.8000;0.4982;-3.3771;
965.1000;0.4990;-3.3870;
965.4000;0.4990;-3.3771;
965.7000;0.4982;-3.3646;
966.0000;0.4974;-3.3721;
966.3000;0.5047;-3.3597;
966.6000;0.4957;-3.3820;
966.9000;0.4990;-3.3845;
967.2000;0.4974;-3.3845;
967.5000;0.4990;-3.3870;
967.8000;0.4974;-3.3920;
968.1000;0.4957;-3.3845;
968.4000;0.4974;-3.3796;
968.7000;0.4990;-3.3771;
969.0000;0.4998;-3.3771;
969.3000;0.4974;-3.3771;
969.6000;0.4998;-3.3771;
969.9000;0.4982;-3.3771;
970.2000;0.4990;-3.3746;
970.5000;0.4982;-3.3845;
970.8000;0.4982;-3.3771;
971.1000;0.4941;-3.3895;
971.4000;0.4990;-3.3746;
971.7000;0.4965;-3.3796;
972.0000;0.4982;-3.3771;
972.3000;0.4982;-3.3696;
972.6000;0.4998;-3.3597;
972.9000;0.4990;-3.3597;
973.2000;0.4949;-3.3746;
973.5000;0.4990;-3.3671;
973.8000;0.4990;-3.3721;
974.1000;0.4876;-3.4044;
974.4000;0.4990;-3.3820;
974.7000;0.4982;-3.3920;
975.0000;0.4949;-3.3970;
975.3000;0.4982;-3.3895;
975.6000;0.4982;-3.3870;
975.9000;0.4982;-3.3895;
976.2000;0.4998;-3.3870;
976.5000;0.4990;-3.3920;
976.8000;0.4974;-3.3945;
977.1000;0.4998;-3.3895;
977.4000;0.4990;-3.4019;
977.7000;0.4974;-3.3970;
978.0000;0.4965;-3.3945;
978.3000;0.4974;-3.3895;
978.6000;0.4990;-3.3870;
978.9000;0.5006;-3.3845;
979.2000;0.4965;-3.3945;
979.5000;0.4957;-3.3920;
979.8000;0.5022;-3.3646;
980.1000;0.4957;-3.3771;
980.4000;0.4982;-3.3696;
980.7000;0.4998;-3.3671;
981.0000;0.4974;-3.3746;
981.3000;0.5006;-3.3746;
981.6000;0.5031;-3.3646;
981.9000;0.4998;-3.3696;
982.2000;0.4990;-3.3771;
982.5000;0.5006;-3.3796;
982.8000;0.4957;-3.3920;
983.1000;0.4974;-3.3845;
983.4000;0.4990;-3.3820;
983.7000;0.4998;-3.3721;
984.0000;0.4990;-3.3746;
984.3000;0.4982;-3.3796;
984.6000;0.4982;-3.3746;
984.9000;0.5006;-3.3746;
985.2000;0.4998;-3.3746;
985.5000;0.4998;-3.3721;
985.8000;0.4990;-3.3671;
986.1000;0.5014;-3.3597;
986.4000;0.4998;-3.3746;
986.7000;0.4998;-3.3696;
987.0000;0.4990;-3.3721;
987.3000;0.4982;-3.3796;
987.6000;0.4990;-3.3820;
987.9000;0.4990;-3.3796;
988.2000;0.5006;-3.3820;
988.5000;0.5063;-3.3696;
988.8000;0.4982;-3.3945;
989.1000;0.4990;-3.3895;
989.4000;0.4868;-3.4169;
989.7000;0.4965;-3.3970;
990.0000;0.4990;-3.3820;
990.3000;0.5014;-3.3771;
990.6000;0.4982;-3.3820;
990.9000;0.4974;-3.3796;
991.2000;0.4974;-3.3696;
991.5000;0.4982;-3.3721;
991.8000;0.4998;-3.3646;
992.1000;0.4965;-3.3671;
992.4000;0.4982;-3.3597;
992.7000;0.4941;-3.3696;
993.0000;0.4990;-3.3547;
993.3000;0.4982;-3.3547;
993.6000;0.4982;-3.3646;
993.9000;0.4982;-3.3646;
994.2000;0.5031;-3.3646;
994.5000;0.4965;-3.3771;
994.8000;0.5014;-3.3646;
995.1000;0.4982;-3.3671;
995.4000;0.4982;-3.3646;
995.7000;0.4990;-3.3621;
996.0000;0.4957;-3.3696;
996.3000;0.4974;-3.3621;
996.6000;0.4974;-3.3671;
996.9000;0.4892;-3.3820;
997.2000;0.4974;-3.3671;
997.5000;0.4982;-3.3646;
997.8000;0.4982;-3.3547;
998.1000;0.4982;-3.3547;
998.4000;0.4974;-3.3572;
998.7000;0.4965;-3.3572;
999.0000;0.4965;-3.3597;
999.3000;0.4998;-3.3522;
999.6000;0.4982;-3.3522;
999.9000;0.4990;-3.3621;
1000.2000;0.4974;-3.3646;
1000.5000;0.4982;-3.3572;
1000.8000;0.4974;-3.3547;
1001.1000;0.4982;-3.3547;
1001.4000;0.4957;-3.3547;
1001.7000;0.4982;-3.3472;
1002.0000;0.4974;-3.3522;
1002.3000;0.4998;-3.3447;
1002.6000;0.5031;-3.3447;
1002.9000;0.4998;-3.3497;
1003.2000;0.4998;-3.3472;
1003.5000;0.4933;-3.3721;
1003.8000;0.5022;-3.3472;
1004.1000;0.5006;-3.3497;
1004.4000;0.4974;-3.3472;
1004.7000;0.4974;-3.3497;
1005.0000;0.5071;-3.3273;
1005.3000;0.5022;-3.3472;
1005.6000;0.4965;-3.3597;
1005.9000;0.4982;-3.3646;
1006.2000;0.4998;-3.3671;
1006.5000;0.5006;-3.3721;
1006.8000;0.4917;-3.4044;
1007.1000;0.4957;-3.3870;
1007.4000;0.4982;-3.3771;
1007.7000;0.4998;-3.3696;
1008.0000;0.5039;-3.3497;
1008.3000;0.4974;-3.3646;
1008.6000;0.4965;-3.3671;
1008.9000;0.5022;-3.3522;
1009.2000;0.4965;-3.3572;
1009.5000;0.4990;-3.3597;
1009.8000;0.4965;-3.3671;
1010.1000;0.5006;-3.3671;
1010.4000;0.4941;-3.3820;
1010.7000;0.5031;-3.3522;
1011.0000;0.4990;-3.3646;
1011.3000;0.4908;-3.3796;
1011.6000;0.4998;-3.3547;
1011.9000;0.4917;-3.3746;
1012.2000;0.4965;-3.3646;
1012.5000;0.4957;-3.3621;
1012.8000;0.5055;-3.3497;
1013.1000;0.4982;-3.3671;
1013.4000;0.4949;-3.3746;
1013.7000;0.4974;-3.3721;
1014.0000;0.4990;-3.3696;
1014.3000;0.4974;-3.3721;
1014.6000;0.4990;-3.3646;
1014.9000;0.4949;-3.3696;
1015.2000;0.4965;-3.3696;
1015.5000;0.4990;-3.3646;
1015.8000;0.4965;-3.3721;
1016.1000;0.4974;-3.3646;
1016.4000;0.4998;-3.3671;
1016.7000;0.4990;-3.3721;
1017.0000;0.4917;-3.3895;
1017.3000;0.4982;-3.3671;
1017.6000;0.4974;-3.3646;
1017.9000;0.4998;-3.3572;
1018.2000;0.4982;-3.3522;
1018.5000;0.4974;-3.3621;
1018.8000;0.4957;-3.3646;
1019.1000;0.5006;-3.3646;
1019.4000;0.4974;-3.3696;
1019.7000;0.4982;-3.3671;
1020.0000;0.4998;-3.3646;
1020.3000;0.4998;-3.3721;
1020.6000;0.4965;-3.3820;
1020.9000;0.4982;-3.3870;
1021.2000;0.4990;-3.3820;
1021.5000;0.4982;-3.3796;
1021.8000;0.5006;-3.3696;
1022.1000;0.4982;-3.3820;
1022.4000;0.4925;-3.4044;
1022.7000;0.4982;-3.3945;
1023.0000;0.4974;-3.3945;
1023.3000;0.4974;-3.3920;
1023.6000;0.4974;-3.3920;
1023.9000;0.4965;-3.3945;
1024.2000;0.4974;-3.4044;
1024.5000;0.4982;-3.4019;
1024.8000;0.4965;-3.4094;
1025.1000;0.4965;-3.3970;
1025.4000;0.4974;-3.3870;
1025.7000;0.4965;-3.3895;
1026.0000;0.4990;-3.3796;
1026.3000;0.4965;-3.3820;
1026.6000;0.4925;-3.4094;
1026.9000;0.4998;-3.3970;
1027.2000;0.4982;-3.3945;
1027.5000;0.5014;-3.3895;
1027.8000;0.4990;-3.3945;
1028.1000;0.4982;-3.3870;
1028.4000;0.5063;-3.3671;
1028.7000;0.4974;-3.3820;
1029.0000;0.4998;-3.3721;
1029.3000;0.4974;-3.3721;
1029.6000;0.5063;-3.3547;
1029.9000;0.4965;-3.3870;
1030.2000;0.4965;-3.3895;
1030.5000;0.4933;-3.4019;
1030.8000;0.4957;-3.3945;
1031.1000;0.4917;-3.4069;
1031.4000;0.5022;-3.3796;
1031.7000;0.4982;-3.3870;
1032.0000;0.4974;-3.3771;
1032.3000;0.5014;-3.3696;
1032.6000;0.4982;-3.3696;
1032.9000;0.4982;-3.3597;
1033.2000;0.4974;-3.3522;
1033.5000;0.4990;-3.3497;
1033.8000;0.4917;-3.3721;
1034.1000;0.4982;-3.3547;
1034.4000;0.4974;-3.3572;
1034.7000;0.5014;-3.3497;
1035.0000;0.4957;-3.3572;
1035.3000;0.4957;-3.3572;
1035.6000;0.4982;-3.3522;
1035.9000;0.4974;-3.3497;
1036.2000;0.4974;-3.3497;
1036.5000;0.4998;-3.3447;
1036.8000;0.4998;-3.3522;
1037.1000;0.4957;-3.3646;
1037.4000;0.4965;-3.3572;
1037.7000;0.4982;-3.3547;
1038.0000;0.4965;-3.3621;
1038.3000;0.4957;-3.3671;
1038.6000;0.4982;-3.3597;
1038.9000;0.4990;-3.3621;
1039.2000;0.4998;-3.3671;
1039.5000;0.5071;-3.3547;
1039.8000;0.4998;-3.3771;
1040.1000;0.4957;-3.3721;
1040.4000;0.4990;-3.3597;
1040.7000;0.4998;-3.3572;
1041.0000;0.4965;-3.3621;
1041.3000;0.4982;-3.3696;
1041.6000;0.4965;-3.3671;
1041.9000;0.4974;-3.3671;
1042.2000;0.4965;-3.3597;
1042.5000;0.4965;-3.3572;
1042.8000;0.4965;-3.3497;
1043.1000;0.4965;-3.3572;
1043.4000;0.5014;-3.3472;
1043.7000;0.4965;-3.3646;
1044.0000;0.4974;-3.3696;
1044.3000;0.4982;-3.3671;
1044.6000;0.4974;-3.3696;
1044.9000;0.4990;-3.3696;
1045.2000;0.4974;-3.3746;
1045.5000;0.4949;-3.3746;
1045.8000;0.4965;-3.3671;
1046.1000;0.4982;-3.3621;
1046.4000;0.4974;-3.3671;
1046.7000;0.4982;-3.3522;
1047.0000;0.4974;-3.3497;
1047.3000;0.4965;-3.3572;
1047.6000;0.4965;-3.3597;
1047.9000;0.4990;-3.3621;
1048.2000;0.4974;-3.3597;
1048.5000;0.4965;-3.3671;
1048.8000;0.4949;-3.3721;
1049.1000;0.4982;-3.3646;
1049.4000;0.4949;-3.3746;
1049.7000;0.4949;-3.3646;
1050.0000;0.4982;-3.3621;
1050.3000;0.4974;-3.3646;
1050.6000;0.4998;-3.3597;
1050.9000;0.4990;-3.3671;
1051.2000;0.4982;-3.3696;
1051.5000;0.4941;-3.3796;
1051.8000;0.4998;-3.3771;
1052.1000;0.4965;-3.3845;
1052.4000;0.4974;-3.3820;
1052.7000;0.4974;-3.3870;
1053.0000;0.4949;-3.3895;
1053.3000;0.4965;-3.3696;
1053.6000;0.4974;-3.3572;
1053.9000;0.4982;-3.3597;
1054.2000;0.4917;-3.3796;
1054.5000;0.4982;-3.3646;
1054.8000;0.4990;-3.3597;
1055.1000;0.4965;-3.3646;
1055.4000;0.4965;-3.3696;
1055.7000;0.4982;-3.3597;
1056.0000;0.4974;-3.3671;
1056.3000;0.4982;-3.3646;
1056.6000;0.4990;-3.3572;
1056.9000;0.4998;-3.3572;
1057.2000;0.4990;-3.3572;
1057.5000;0.4990;-3.3572;
1057.8000;0.4982;-3.3621;
1058.1000;0.4974;-3.3696;
1058.4000;0.4990;-3.3671;
1058.7000;0.4925;-3.3870;
1059.0000;0.4965;-3.3721;
1059.3000;0.4965;-3.3771;
1059.6000;0.4974;-3.3820;
1059.9000;0.4990;-3.3696;
1060.2000;0.4990;-3.3771;
1060.5000;0.5006;-3.3696;
1060.8000;0.5047;-3.3597;
1061.1000;0.4982;-3.3820;
1061.4000;0.4990;-3.3771;
1061.7000;0.5039;-3.3646;
1062.0000;0.4974;-3.3796;
1062.3000;0.4908;-3.3970;
1062.6000;0.4990;-3.3746;
1062.9000;0.4990;-3.3696;
1063.2000;0.4982;-3.3771;
1063.5000;0.4990;-3.3796;
1063.8000;0.5006;-3.3796;
1064.1000;0.4990;-3.3746;
1064.4000;0.4957;-3.3845;
1064.7000;0.4990;-3.3895;
1065.0000;0.4990;-3.3820;
1065.3000;0.4998;-3.3771;
1065.6000;0.4965;-3.3895;
1065.9000;0.4990;-3.3771;
1066.2000;0.4982;-3.3870;
1066.5000;0.4982;-3.3796;
1066.8000;0.4998;-3.3771;
1067.1000;0.4990;-3.3771;
1067.4000;0.4974;-3.3746;
1067.7000;0.4982;-3.3721;
1068.0000;0.5063;-3.3547;
1068.3000;0.4965;-3.3746;
1068.6000;0.4998;-3.3646;
1068.9000;0.4965;-3.3671;
1069.2000;0.4982;-3.3572;
1069.5000;0.4998;-3.3621;
1069.8000;0.4974;-3.3721;
1070.1000;0.5014;-3.3621;
1070.4000;0.4998;-3.3597;
1070.7000;0.4982;-3.3696;
1071.0000;0.4974;-3.3746;
1071.3000;0.4982;-3.3671;
1071.6000;0.4990;-3.3671;
1071.9000;0.4941;-3.3771;
1072.2000;0.4974;-3.3646;
1072.5000;0.5079;-3.3348;
1072.8000;0.4974;-3.3671;
1073.1000;0.4974;-3.3796;
1073.4000;0.4957;-3.3920;
1073.7000;0.4974;-3.3845;
1074.0000;0.5071;-3.3547;
1074.3000;0.4998;-3.3746;
1074.6000;0.4965;-3.3746;
1074.9000;0.5031;-3.3646;
1075.2000;0.5006;-3.3696;
1075.5000;0.4957;-3.3721;
1075.8000;0.5014;-3.3547;
1076.1000;0.4998;-3.3621;
1076.4000;0.4998;-3.3597;
1076.7000;0.4990;-3.3646;
1077.0000;0.5055;-3.3472;
1077.3000;0.5006;-3.3646;
1077.6000;0.5022;-3.3572;
1077.9000;0.4974;-3.3771;
1078.2000;0.4965;-3.3796;
1078.5000;0.4965;-3.3796;
1078.8000;0.4925;-3.3845;
1079.1000;0.4949;-3.3845;
1079.4000;0.4990;-3.3721;
1079.7000;0.4982;-3.3721;
1080.0000;0.4982;-3.3621;
1080.3000;0.4900;-3.3796;
1080.6000;0.4965;-3.3646;
1080.9000;0.4974;-3.3572;
1081.2000;0.4933;-3.3646;
1081.5000;0.4965;-3.3522;
1081.8000;0.4990;-3.3572;
1082.1000;0.4974;-3.3597;
1082.4000;0.4982;-3.3597;
1082.7000;0.5055;-3.3398;
1083.0000;0.4990;-3.3572;
1083.3000;0.4965;-3.3597;
1083.6000;0.4990;-3.3547;
1083.9000;0.4974;-3.3671;
1084.2000;0.4957;-3.3721;
1084.5000;0.4990;-3.3671;
1084.8000;0.4982;-3.3646;
1085.1000;0.4965;-3.3646;
1085.4000;0.5014;-3.3597;
1085.7000;0.4982;-3.3696;
1086.0000;0.4974;-3.3597;
1086.3000;0.4990;-3.3597;
1086.6000;0.4974;-3.3597;
1086.9000;0.5006;-3.3472;
1087.2000;0.4965;-3.3547;
1087.5000;0.4982;-3.3621;
1087.8000;0.4974;-3.3671;
1088.1000;0.4965;-3.3621;
1088.4000;0.4965;-3.3547;
1088.7000;0.4917;-3.3696;
1089.0000;0.4925;-3.3746;
1089.3000;0.4974;-3.3547;
1089.6000;0.4974;-3.3646;
1089.9000;0.4990;-3.3597;
1090.2000;0.5031;-3.3572;
1090.5000;0.4974;-3.3671;
1090.8000;0.4965;-3.3746;
1091.1000;0.4933;-3.3845;
1091.4000;0.4974;-3.3696;
1091.7000;0.4965;-3.3746;
1092.0000;0.4965;-3.3820;
1092.3000;0.4965;-3.3696;
1092.6000;0.4965;-3.3696;
1092.9000;0.4941;-3.3696;
1093.2000;0.4982;-3.3646;
1093.5000;0.5031;-3.3472;
1093.8000;0.4982;-3.3447;
1094.1000;0.4941;-3.3447;
1094.4000;0.4957;-3.3422;
1094.7000;0.4974;-3.3422;
1095.0000;0.4990;-3.3447;
1095.3000;0.4965;-3.3597;
1095.6000;0.4982;-3.3522;
1095.9000;0.4990;-3.3547;
1096.2000;0.4982;-3.3547;
1096.5000;0.4982;-3.3547;
1096.8000;0.4990;-3.3597;
1097.1000;0.4982;-3.3597;
1097.4000;0.4974;-3.3447;
1097.7000;0.4949;-3.3572;
1098.0000;0.4974;-3.3547;
1098.3000;0.4974;-3.3522;
1098.6000;0.4990;-3.3497;
1098.9000;0.5039;-3.3348;
1099.2000;0.4974;-3.3497;
1099.5000;0.4982;-3.3398;
1099.8000;0.4990;-3.3398;
1100.1000;0.5014;-3.3373;
1100.4000;0.4974;-3.3497;
1100.7000;0.4982;-3.3547;
1101.0000;0.4982;-3.3522;
1101.3000;0.4925;-3.3522;
1101.6000;0.4941;-3.3472;
1101.9000;0.4990;-3.3373;
1102.2000;0.4974;-3.3398;
1102.5000;0.4974;-3.3323;
1102.8000;0.4965;-3.3447;
1103.1000;0.4982;-3.3398;
1103.4000;0.4974;-3.3398;
1103.7000;0.4965;-3.3497;
1104.0000;0.4974;-3.3497;
1104.3000;0.4982;-3.3497;
1104.6000;0.4982;-3.3447;
1104.9000;0.4990;-3.3373;
1105.2000;0.4957;-3.3422;
1105.5000;0.4982;-3.3447;
1105.8000;0.4998;-3.3497;
1106.1000;0.4974;-3.3497;
1106.4000;0.4982;-3.3497;
1106.7000;0.4990;-3.3497;
1107.0000;0.4998;-3.3472;
1107.3000;0.4982;-3.3497;
1107.6000;0.4965;-3.3447;
1107.9000;0.4965;-3.3398;
1108.2000;0.4982;-3.3447;
1108.5000;0.4965;-3.3522;
1108.8000;0.4982;-3.3497;
1109.1000;0.4990;-3.3497;
1109.4000;0.4974;-3.3621;
1109.7000;0.4990;-3.3547;
1110.0000;0.4990;-3.3472;
1110.3000;0.4974;-3.3422;
1110.6000;0.4965;-3.3497;
1110.9000;0.5006;-3.3447;
1111.2000;0.4933;-3.3646;
1111.5000;0.4974;-3.3497;
1111.8000;0.4974;-3.3522;
1112.1000;0.4965;-3.3497;
1112.4000;0.4957;-3.3572;
1112.7000;0.4965;-3.3447;
1113.0000;0.4974;-3.3447;
1113.3000;0.4982;-3.3373;
1113.6000;0.4933;-3.3373;
1113.9000;0.4990;-3.3248;
1114.2000;0.4933;-3.3572;
1114.5000;0.4974;-3.3472;
1114.8000;0.4982;-3.3547;
1115.1000;0.4974;-3.3646;
1115.4000;0.4965;-3.3646;
1115.7000;0.4974;-3.3572;
1116.0000;0.4965;-3.3621;
1116.3000;0.4982;-3.3522;
1116.6000;0.4982;-3.3522;
1116.9000;0.4957;-3.3597;
1117.2000;0.4974;-3.3572;
1117.5000;0.4990;-3.3522;
1117.8000;0.4982;-3.3696;
1118.1000;0.4982;-3.3621;
1118.4000;0.4974;-3.3621;
1118.7000;0.4965;-3.3671;
1119.0000;0.4982;-3.3671;
1119.3000;0.4974;-3.3646;
1119.6000;0.4965;-3.3671;
1119.9000;0.5014;-3.3522;
1120.2000;0.4974;-3.3547;
1120.5000;0.4974;-3.3522;
1120.8000;0.4982;-3.3497;
1121.1000;0.4990;-3.3497;
1121.4000;0.4974;-3.3522;
1121.7000;0.4965;-3.3597;
1122.0000;0.5071;-3.3373;
1122.3000;0.4982;-3.3572;
1122.6000;0.4982;-3.3547;
1122.9000;0.4982;-3.3547;
1123.2000;0.4965;-3.3572;
1123.5000;0.4974;-3.3572;
1123.8000;0.4957;-3.3597;
1124.1000;0.4974;-3.3547;
1124.4000;0.4974;-3.3547;
1124.7000;0.4957;-3.3547;
1125.0000;0.4982;-3.3398;
1125.3000;0.4990;-3.3348;
1125.6000;0.4998;-3.3373;
1125.9000;0.4982;-3.3447;
1126.2000;0.4965;-3.3547;
1126.5000;0.4974;-3.3422;
1126.8000;0.4990;-3.3472;
1127.1000;0.5014;-3.3398;
1127.4000;0.4982;-3.3547;
1127.7000;0.4990;-3.3572;
1128.0000;0.4974;-3.3597;
1128.3000;0.5031;-3.3398;
1128.6000;0.4982;-3.3497;
1128.9000;0.4998;-3.3373;
1129.2000;0.4965;-3.3472;
1129.5000;0.4982;-3.3497;
1129.8000;0.4990;-3.3497;
1130.1000;0.4990;-3.3472;
1130.4000;0.4974;-3.3497;
1130.7000;0.4982;-3.3422;
1131.0000;0.4998;-3.3422;
1131.3000;0.4982;-3.3547;
1131.6000;0.4990;-3.3497;
1131.9000;0.4990;-3.3472;
1132.2000;0.4949;-3.3522;
1132.5000;0.4974;-3.3497;
1132.8000;0.4917;-3.3671;
1133.1000;0.4982;-3.3597;
1133.4000;0.4998;-3.3547;
1133.7000;0.4990;-3.3597;
1134.0000;0.4982;-3.3621;
1134.3000;0.4990;-3.3572;
1134.6000;0.4990;-3.3597;
1134.9000;0.4982;-3.3646;
1135.2000;0.4982;-3.3671;
1135.5000;0.4965;-3.3746;
1135.8000;0.4998;-3.3621;
1136.1000;0.4982;-3.3646;
1136.4000;0.4941;-3.3746;
1136.7000;0.4957;-3.3671;
1137.0000;0.4982;-3.3572;
1137.3000;0.4974;-3.3621;
1137.6000;0.4974;-3.3646;
1137.9000;0.4982;-3.3572;
1138.2000;0.4982;-3.3671;
1138.5000;0.4965;-3.3721;
1138.8000;0.4965;-3.3696;
1139.1000;0.4965;-3.3696;
1139.4000;0.4982;-3.3696;
1139.7000;0.4990;-3.3721;
1140.0000;0.4998;-3.3671;
1140.3000;0.4982;-3.3646;
1140.6000;0.4990;-3.3646;
1140.9000;0.5031;-3.3422;
1141.2000;0.4965;-3.3547;
1141.5000;0.4974;-3.3497;
1141.8000;0.4974;-3.3472;
1142.1000;0.4982;-3.3447;
1142.4000;0.4957;-3.3547;
1142.7000;0.4990;-3.3497;
1143.0000;0.4965;-3.3572;
1143.3000;0.4974;-3.3547;
1143.6000;0.4990;-3.3522;
1143.9000;0.4990;-3.3447;
1144.2000;0.4974;-3.3547;
1144.5000;0.4990;-3.3497;
1144.8000;0.4957;-3.3621;
1145.1000;0.4982;-3.3646;
1145.4000;0.4998;-3.3646;
1145.7000;0.4990;-3.3746;
1146.0000;0.4982;-3.3746;
1146.3000;0.4998;-3.3522;
1146.6000;0.4974;-3.3597;
1146.9000;0.4965;-3.3597;
1147.2000;0.4998;-3.3547;
1147.5000;0.4990;-3.3572;
1147.8000;0.4982;-3.3621;
1148.1000;0.4949;-3.3721;
1148.4000;0.4982;-3.3721;
1148.7000;0.4949;-3.3646;
1149.0000;0.4982;-3.3522;
1149.3000;0.4982;-3.3771;
1149.6000;0.4965;-3.3771;
1149.9000;0.4982;-3.3746;
1150.2000;0.4941;-3.3796;
1150.5000;0.4949;-3.3746;
1150.8000;0.4974;-3.3721;
1151.1000;0.4982;-3.3696;
1151.4000;0.4917;-3.3870;
1151.7000;0.4965;-3.3646;
1152.0000;0.4982;-3.3597;
1152.3000;0.4982;-3.3572;
1152.6000;0.4982;-3.3621;
1152.9000;0.4974;-3.3696;
1153.2000;0.5047;-3.3572;
1153.5000;0.4965;-3.3746;
1153.8000;0.4982;-3.3746;
1154.1000;0.4965;-3.3895;
1154.4000;0.4949;-3.3945;
1154.7000;0.4982;-3.3845;
1155.0000;0.4982;-3.3820;
1155.3000;0.4965;-3.3870;
1155.6000;0.4990;-3.3771;
1155.9000;0.4974;-3.3696;
1156.2000;0.4965;-3.3671;
1156.5000;0.4965;-3.3597;
1156.8000;0.4974;-3.3547;
1157.1000;0.4982;-3.3547;
1157.4000;0.4965;-3.3597;
1157.7000;0.4965;-3.3597;
1158.0000;0.4957;-3.3646;
1158.3000;0.4957;-3.3696;
1158.6000;0.4982;-3.3572;
1158.9000;0.4965;-3.3671;
1159.2000;0.4974;-3.3721;
1159.5000;0.4965;-3.3746;
1159.8000;0.4982;-3.3696;
1160.1000;0.4965;-3.3746;
1160.4000;0.4974;-3.3746;
1160.7000;0.4990;-3.3646;
1161.0000;0.4965;-3.3646;
1161.3000;0.4974;-3.3671;
1161.6000;0.4941;-3.3820;
1161.9000;0.4990;-3.3646;
1162.2000;0.4957;-3.3671;
1162.5000;0.4908;-3.3796;
1162.8000;0.4982;-3.3671;
1163.1000;0.4974;-3.3696;
1163.4000;0.5055;-3.3447;
1163.7000;0.4941;-3.3621;
1164.0000;0.4974;-3.3547;
1164.3000;0.4998;-3.3621;
1164.6000;0.4982;-3.3621;
1164.9000;0.4949;-3.3746;
1165.2000;0.4998;-3.3646;
1165.5000;0.4974;-3.3646;
1165.8000;0.4965;-3.3671;
1166.1000;0.4982;-3.3671;
1166.4000;0.4982;-3.3721;
1166.7000;0.4892;-3.4019;
1167.0000;0.5014;-3.3621;
1167.3000;0.4949;-3.3746;
1167.6000;0.4965;-3.3721;
1167.9000;0.4933;-3.3796;
1168.2000;0.4982;-3.3696;
1168.5000;0.4990;-3.3746;
1168.8000;0.4917;-3.3895;
1169.1000;0.4990;-3.3721;
1169.4000;0.4974;-3.3796;
1169.7000;0.4982;-3.3746;
1170.0000;0.5022;-3.3746;
1170.3000;0.4941;-3.3870;
1170.6000;0.4974;-3.3721;
1170.9000;0.4957;-3.3895;
1171.2000;0.4974;-3.3845;
1171.5000;0.4982;-3.3845;
1171.8000;0.4982;-3.3796;
1172.1000;0.4998;-3.3746;
1172.4000;0.4990;-3.3746;
1172.7000;0.4933;-3.3920;
1173.0000;0.4949;-3.3796;
1173.3000;0.4974;-3.3671;
1173.6000;0.4998;-3.3547;
1173.9000;0.4990;-3.3621;
1174.2000;0.4974;-3.3646;
1174.5000;0.4982;-3.3621;
1174.8000;0.4990;-3.3522;
1175.1000;0.4965;-3.3621;
1175.4000;0.4965;-3.3547;
1175.7000;0.4957;-3.3671;
1176.0000;0.4990;-3.3646;
1176.3000;0.4941;-3.3771;
1176.6000;0.4998;-3.3547;
1176.9000;0.4965;-3.3547;
1177.2000;0.4974;-3.3572;
1177.5000;0.4982;-3.3522;
1177.8000;0.4884;-3.3671;
1178.1000;0.4998;-3.3472;
1178.4000;0.4957;-3.3547;
1178.7000;0.4998;-3.3472;
1179.0000;0.4990;-3.3522;
1179.3000;0.4982;-3.3472;
1179.6000;0.4982;-3.3597;
1179.9000;0.4957;-3.3646;
1180.2000;0.4982;-3.3646;
1180.5000;0.4965;-3.3621;
1180.8000;0.4998;-3.3547;
1181.1000;0.4990;-3.3522;
1181.4000;0.4998;-3.3547;
1181.7000;0.4990;-3.3621;
1182.0000;0.4957;-3.3696;
1182.3000;0.4974;-3.3621;
1182.6000;0.4965;-3.3646;
1182.9000;0.4982;-3.3621;
1183.2000;0.4982;-3.3646;
1183.5000;0.4949;-3.3820;
1183.8000;0.4965;-3.3845;
1184.1000;0.4982;-3.3870;
1184.4000;0.5022;-3.3696;
1184.7000;0.4990;-3.3671;
1185.0000;0.4998;-3.3671;
1185.3000;0.4949;-3.3845;
1185.6000;0.5006;-3.3721;
1185.9000;0.4974;-3.3845;
1186.2000;0.5063;-3.3572;
1186.5000;0.4990;-3.3671;
1186.8000;0.4982;-3.3771;
1187.1000;0.4965;-3.3796;
1187.4000;0.4965;-3.3796;
1187.7000;0.5006;-3.3696;
1188.0000;0.4974;-3.3696;
1188.3000;0.4974;-3.3696;
1188.6000;0.4851;-3.3994;
1188.9000;0.4957;-3.3820;
1189.2000;0.4974;-3.3746;
1189.5000;0.4990;-3.3696;
1189.8000;0.4974;-3.3696;
1190.1000;0.4974;-3.3746;
1190.4000;0.5006;-3.3696;
1190.7000;0.4990;-3.3597;
1191.0000;0.5014;-3.3522;
1191.3000;0.4974;-3.3646;
1191.6000;0.4957;-3.3671;
1191.9000;0.4974;-3.3721;
1192.2000;0.4974;-3.3820;
1192.5000;0.4965;-3.3870;
1192.8000;0.4949;-3.3820;
1193.1000;0.4990;-3.3746;
1193.4000;0.4965;-3.3820;
1193.7000;0.4965;-3.3746;
1194.0000;0.4941;-3.3771;
1194.3000;0.4974;-3.3671;
1194.6000;0.4974;-3.3646;
1194.9000;0.4965;-3.3671;
1195.2000;0.4982;-3.3621;
1195.5000;0.4949;-3.3696;
1195.8000;0.4974;-3.3572;
1196.1000;0.4974;-3.3572;
1196.4000;0.4974;-3.3572;
1196.7000;0.4957;-3.3671;
1197.0000;0.5014;-3.3522;
1197.3000;0.4982;-3.3621;
1197.6000;0.4974;-3.3522;
1197.9000;0.4974;-3.3547;
1198.2000;0.4965;-3.3547;
1198.5000;0.4982;-3.3422;
1198.8000;0.4974;-3.3422;
1199.1000;0.4974;-3.3422;
1199.4000;0.4974;-3.3398;
1199.7000;0.5014;-3.3248;
1200.0000;0.4949;-3.3447;
1200.3000;0.4957;-3.3472;
1200.6000;0.4965;-3.3472;
1200.9000;0.4965;-3.3422;
1201.2000;0.4982;-3.3472;
1201.5000;0.4974;-3.3597;
1201.8000;0.4998;-3.3696;
1202.1000;0.4982;-3.3771;
1202.4000;0.4990;-3.3696;
1202.7000;0.4982;-3.3696;
1203.0000;0.4965;-3.3746;
1203.3000;0.4974;-3.3696;
1203.6000;0.4974;-3.3646;
1203.9000;0.4990;-3.3597;
1204.2000;0.4982;-3.3547;
1204.5000;0.4974;-3.3547;
1204.8000;0.4949;-3.3721;
1205.1000;0.4949;-3.3721;
1205.4000;0.4965;-3.3771;
1205.7000;0.4982;-3.3796;
1206.0000;0.5063;-3.3597;
1206.3000;0.4974;-3.3820;
1206.6000;0.4974;-3.3746;
1206.9000;0.4990;-3.3671;
1207.2000;0.4925;-3.3820;
1207.5000;0.4974;-3.3671;
1207.8000;0.4982;-3.3721;
1208.1000;0.4982;-3.3696;
1208.4000;0.4974;-3.3646;
1208.7000;0.4974;-3.3621;
1209.0000;0.4990;-3.3597;
1209.3000;0.4990;-3.3572;
1209.6000;0.4974;-3.3696;
1209.9000;0.4990;-3.3621;
1210.2000;0.4990;-3.3646;
1210.5000;0.4982;-3.3671;
1210.8000;0.4982;-3.3696;
1211.1000;0.4957;-3.3820;
1211.4000;0.4974;-3.3796;
1211.7000;0.4974;-3.3746;
1212.0000;0.4957;-3.3796;
1212.3000;0.4949;-3.3746;
1212.6000;0.4868;-3.3870;
1212.9000;0.4974;-3.3597;
1213.2000;0.4965;-3.3522;
1213.5000;0.4957;-3.3522;
1213.8000;0.4974;-3.3472;
1214.1000;0.4990;-3.3597;
1214.4000;0.4990;-3.3671;
1214.7000;0.4974;-3.3646;
1215.0000;0.4974;-3.3621;
1215.3000;0.4998;-3.3597;
1215.6000;0.4974;-3.3671;
1215.9000;0.4974;-3.3671;
1216.2000;0.4965;-3.3696;
1216.5000;0.4982;-3.3646;
1216.8000;0.5022;-3.3547;
1217.1000;0.4974;-3.3646;
1217.4000;0.4982;-3.3646;
1217.7000;0.4974;-3.3671;
1218.0000;0.4974;-3.3796;
1218.3000;0.4998;-3.3721;
1218.6000;0.4965;-3.3796;
1218.9000;0.4941;-3.3895;
1219.2000;0.5006;-3.3746;
1219.5000;0.4990;-3.3796;
1219.8000;0.5039;-3.3572;
1220.1000;0.4982;-3.3671;
1220.4000;0.4974;-3.3671;
1220.7000;0.4974;-3.3771;
1221.0000;0.5014;-3.3646;
1221.3000;0.4933;-3.3771;
1221.6000;0.4982;-3.3646;
1221.9000;0.4982;-3.3671;
1222.2000;0.5006;-3.3547;
1222.5000;0.4884;-3.3746;
1222.8000;0.4974;-3.3547;
1223.1000;0.4974;-3.3522;
1223.4000;0.4974;-3.3547;
1223.7000;0.4965;-3.3572;
1224.0000;0.4974;-3.3597;
1224.3000;0.4974;-3.3671;
1224.6000;0.4990;-3.3572;
1224.9000;0.4982;-3.3572;
1225.2000;0.4925;-3.3671;
1225.5000;0.4974;-3.3472;
1225.8000;0.4982;-3.3497;
1226.1000;0.4949;-3.3522;
1226.4000;0.4974;-3.3422;
1226.7000;0.4965;-3.3422;
1227.0000;0.4990;-3.3323;
1227.3000;0.4974;-3.3472;
1227.6000;0.4990;-3.3447;
1227.9000;0.4941;-3.3696;
1228.2000;0.4998;-3.3547;
1228.5000;0.4982;-3.3547;
1228.8000;0.4982;-3.3646;
1229.1000;0.4965;-3.3696;
1229.4000;0.4998;-3.3646;
1229.7000;0.4982;-3.3696;
1230.0000;0.5047;-3.3522;
1230.3000;0.4990;-3.3597;
1230.6000;0.4974;-3.3621;
1230.9000;0.4982;-3.3522;
1231.2000;0.4965;-3.3621;
1231.5000;0.4974;-3.3572;
1231.8000;0.4965;-3.3572;
1232.1000;0.4811;-3.3970;
1232.4000;0.4965;-3.3547;
1232.7000;0.4990;-3.3497;
1233.0000;0.5014;-3.3522;
1233.3000;0.4998;-3.3572;
1233.6000;0.4990;-3.3621;
1233.9000;0.4965;-3.3721;
1234.2000;0.5039;-3.3547;
1234.5000;0.4949;-3.3671;
1234.8000;0.4957;-3.3671;
1235.1000;0.4974;-3.3646;
1235.4000;0.4982;-3.3671;
1235.7000;0.4957;-3.3696;
1236.0000;0.4974;-3.3547;
1236.3000;0.4965;-3.3646;
1236.6000;0.4982;-3.3671;
1236.9000;0.4965;-3.3671;
1237.2000;0.4990;-3.3671;
1237.5000;0.4990;-3.3671;
1237.8000;0.4998;-3.3696;
1238.1000;0.5006;-3.3746;
1238.4000;0.4965;-3.3796;
1238.7000;0.4965;-3.3746;
1239.0000;0.4990;-3.3696;
1239.3000;0.4990;-3.3671;
1239.6000;0.4974;-3.3696;
1239.9000;0.4949;-3.3746;
1240.2000;0.4974;-3.3646;
1240.5000;0.4974;-3.3597;
1240.8000;0.4957;-3.3597;
1241.1000;0.4965;-3.3646;
1241.4000;0.4982;-3.3597;
1241.7000;0.4933;-3.3621;
1242.0000;0.4949;-3.3522;
1242.3000;0.4957;-3.3671;
1242.6000;0.5071;-3.3472;
1242.9000;0.4990;-3.3721;
1243.2000;0.4957;-3.3746;
1243.5000;0.4974;-3.3746;
1243.8000;0.4974;-3.3746;
1244.1000;0.4990;-3.3621;
1244.4000;0.4990;-3.3572;
1244.7000;0.5014;-3.3447;
1245.0000;0.4982;-3.3572;
1245.3000;0.4884;-3.3796;
1245.6000;0.4982;-3.3422;
1245.9000;0.4998;-3.3373;
1246.2000;0.4957;-3.3522;
1246.5000;0.4974;-3.3547;
1246.8000;0.4965;-3.3572;
1247.1000;0.4982;-3.3522;
1247.4000;0.4965;-3.3547;
1247.7000;0.5063;-3.3273;
1248.0000;0.4957;-3.3522;
1248.3000;0.4982;-3.3422;
1248.6000;0.4982;-3.3572;
1248.9000;0.4965;-3.3547;
1249.2000;0.4974;-3.3597;
1249.5000;0.4990;-3.3522;
1249.8000;0.4974;-3.3547;
1250.1000;0.4974;-3.3597;
1250.4000;0.4974;-3.3522;
1250.7000;0.4974;-3.3522;
1251.0000;0.4974;-3.3547;
1251.3000;0.4965;-3.3646;
1251.6000;0.4982;-3.3646;
1251.9000;0.4982;-3.3522;
1252.2000;0.4990;-3.3447;
1252.5000;0.4957;-3.3522;
1252.8000;0.4982;-3.3547;
1253.1000;0.4974;-3.3547;
1253.4000;0.5006;-3.3447;
1253.7000;0.4949;-3.3497;
1254.0000;0.4982;-3.3522;
1254.3000;0.5071;-3.3373;
1254.6000;0.4982;-3.3497;
1254.9000;0.4957;-3.3621;
1255.2000;0.4949;-3.3696;
1255.5000;0.4965;-3.3497;
1255.8000;0.4965;-3.3447;
1256.1000;0.4982;-3.3348;
1256.4000;0.4974;-3.3298;
1256.7000;0.4974;-3.3323;
1257.0000;0.4941;-3.3323;
1257.3000;0.4957;-3.3472;
1257.6000;0.4998;-3.3398;
1257.9000;0.4982;-3.3447;
1258.2000;0.4965;-3.3497;
1258.5000;0.5047;-3.3248;
1258.8000;0.4998;-3.3422;
1259.1000;0.4982;-3.3422;
1259.4000;0.4965;-3.3447;
1259.7000;0.4974;-3.3447;
1260.0000;0.4990;-3.3422;
1260.3000;0.4982;-3.3398;
1260.6000;0.4990;-3.3398;
1260.9000;0.4974;-3.3398;
1261.2000;0.4982;-3.3398;
1261.5000;0.4925;-3.3522;
1261.8000;0.4998;-3.3323;
1262.1000;0.4965;-3.3422;
1262.4000;0.4974;-3.3447;
1262.7000;0.4965;-3.3522;
1263.0000;0.4982;-3.3522;
1263.3000;0.4998;-3.3572;
1263.6000;0.4974;-3.3547;
1263.9000;0.4974;-3.3422;
1264.2000;0.4974;-3.3422;
1264.5000;0.4982;-3.3398;
1264.8000;0.4982;-3.3348;
1265.1000;0.4949;-3.3497;
1265.4000;0.4998;-3.3373;
1265.7000;0.4957;-3.3547;
1266.0000;0.4982;-3.3447;
1266.3000;0.4982;-3.3497;
1266.6000;0.4990;-3.3497;
1266.9000;0.4965;-3.3572;
1267.2000;0.4990;-3.3522;
1267.5000;0.4982;-3.3572;
1267.8000;0.4941;-3.3646;
1268.1000;0.4982;-3.3597;
1268.4000;0.4982;-3.3621;
1268.7000;0.4982;-3.3522;
1269.0000;0.4982;-3.3497;
1269.3000;0.4974;-3.3497;
1269.6000;0.4957;-3.3447;
1269.9000;0.4949;-3.3621;
1270.2000;0.4965;-3.3646;
1270.5000;0.5006;-3.3547;
1270.8000;0.4933;-3.3746;
1271.1000;0.4965;-3.3696;
1271.4000;0.5006;-3.3646;
1271.7000;0.4965;-3.3696;
1272.0000;0.4965;-3.3621;
1272.3000;0.4982;-3.3572;
1272.6000;0.4974;-3.3547;
1272.9000;0.4990;-3.3572;
1273.2000;0.4990;-3.3522;
1273.5000;0.4990;-3.3547;
1273.8000;0.4982;-3.3547;
1274.1000;0.4974;-3.3522;
1274.4000;0.4990;-3.3522;
1274.7000;0.4982;-3.3597;
1275.0000;0.4982;-3.3522;
1275.3000;0.4982;-3.3497;
1275.6000;0.4998;-3.3497;
1275.9000;0.4974;-3.3646;
1276.2000;0.4998;-3.3621;
1276.5000;0.4974;-3.3646;
1276.8000;0.4990;-3.3646;
1277.1000;0.4982;-3.3572;
1277.4000;0.4982;-3.3646;
1277.7000;0.4982;-3.3547;
1278.0000;0.4990;-3.3447;
1278.3000;0.4982;-3.3497;
1278.6000;0.4974;-3.3497;
1278.9000;0.4957;-3.3572;
1279.2000;0.4974;-3.3547;
1279.5000;0.4965;-3.3597;
1279.8000;0.4965;-3.3547;
1280.1000;0.4933;-3.3597;
1280.4000;0.4957;-3.3671;
1280.7000;0.4957;-3.3621;
1281.0000;0.4974;-3.3621;
1281.3000;0.4974;-3.3721;
1281.6000;0.4965;-3.3746;
1281.9000;0.4982;-3.3671;
1282.2000;0.4982;-3.3696;
1282.5000;0.4974;-3.3721;
1282.8000;0.4957;-3.3721;
1283.1000;0.4974;-3.3671;
1283.4000;0.4990;-3.3646;
1283.7000;0.4982;-3.3671;
1284.0000;0.4998;-3.3646;
1284.3000;0.4974;-3.3696;
1284.6000;0.5014;-3.3572;
1284.9000;0.4998;-3.3547;
1285.2000;0.4974;-3.3646;
1285.5000;0.4957;-3.3696;
1285.8000;0.4957;-3.3820;
1286.1000;0.4990;-3.3796;
1286.4000;0.5022;-3.3671;
1286.7000;0.4998;-3.3696;
1287.0000;0.4982;-3.3721;
1287.3000;0.4957;-3.3796;
1287.6000;0.4990;-3.3721;
1287.9000;0.4974;-3.3696;
1288.2000;0.4990;-3.3646;
1288.5000;0.4974;-3.3646;
1288.8000;0.5014;-3.3522;
1289.1000;0.4974;-3.3597;
1289.4000;0.4974;-3.3721;
1289.7000;0.5022;-3.3522;
1290.0000;0.4957;-3.3646;
1290.3000;0.4974;-3.3646;
1290.6000;0.4957;-3.3646;
1290.9000;0.4925;-3.3696;
1291.2000;0.4974;-3.3597;
1291.5000;0.4974;-3.3671;
1291.8000;0.4974;-3.3721;
1292.1000;0.4941;-3.3796;
1292.4000;0.4974;-3.3671;
1292.7000;0.4990;-3.3646;
1293.0000;0.4974;-3.3572;
1293.3000;0.4974;-3.3621;
1293.6000;0.5071;-3.3422;
1293.9000;0.4982;-3.3572;
1294.2000;0.4990;-3.3597;
1294.5000;0.4965;-3.3721;
1294.8000;0.4965;-3.3696;
1295.1000;0.4949;-3.3746;
1295.4000;0.4974;-3.3646;
1295.7000;0.4974;-3.3547;
1296.0000;0.4982;-3.3472;
1296.3000;0.4974;-3.3522;
1296.6000;0.4998;-3.3522;
1296.9000;0.4990;-3.3522;
1297.2000;0.4998;-3.3497;
1297.5000;0.4974;-3.3547;
1297.8000;0.4965;-3.3522;
1298.1000;0.4982;-3.3572;
1298.4000;0.4974;-3.3621;
1298.7000;0.4982;-3.3547;
1299.0000;0.4965;-3.3522;
1299.3000;0.4974;-3.3547;
1299.6000;0.4982;-3.3671;
1299.9000;0.4982;-3.3646;
1300.2000;0.4974;-3.3671;
1300.5000;0.4974;-3.3621;
1300.8000;0.4998;-3.3597;
1301.1000;0.4982;-3.3621;
1301.4000;0.4957;-3.3597;
1301.7000;0.4998;-3.3522;
1302.0000;0.4998;-3.3472;
1302.3000;0.4998;-3.3472;
1302.6000;0.5006;-3.3398;
1302.9000;0.4982;-3.3472;
1303.2000;0.4998;-3.3447;
1303.5000;0.4990;-3.3447;
1303.8000;0.4941;-3.3572;
1304.1000;0.4982;-3.3522;
1304.4000;0.4974;-3.3597;
1304.7000;0.4965;-3.3597;
1305.0000;0.4965;-3.3522;
1305.3000;0.4974;-3.3522;
1305.6000;0.5014;-3.3447;
1305.9000;0.5014;-3.3497;
1306.2000;0.4974;-3.3522;
1306.5000;0.4974;-3.3572;
1306.8000;0.4974;-3.3597;
1307.1000;0.4990;-3.3572;
1307.4000;0.4965;-3.3696;
1307.7000;0.4982;-3.3646;
1308.0000;0.4998;-3.3572;
1308.3000;0.4990;-3.3597;
1308.6000;0.5006;-3.3447;
1308.9000;0.4974;-3.3497;
1309.2000;0.4990;-3.3447;
1309.5000;0.4998;-3.3447;
1309.8000;0.4990;-3.3522;
1310.1000;0.4974;-3.3597;
1310.4000;0.4982;-3.3572;
1310.7000;0.4908;-3.3746;
1311.0000;0.4974;-3.3572;
1311.3000;0.4965;-3.3572;
1311.6000;0.4957;-3.3522;
1311.9000;0.4982;-3.3373;
1312.2000;0.4965;-3.3472;
1312.5000;0.4982;-3.3422;
1312.8000;0.5006;-3.3422;
1313.1000;0.4908;-3.3621;
1313.4000;0.4982;-3.3398;
1313.7000;0.4974;-3.3348;
1314.0000;0.5063;-3.3174;
1314.3000;0.4900;-3.3646;
1314.6000;0.4982;-3.3447;
1314.9000;0.4974;-3.3522;
1315.2000;0.4965;-3.3497;
1315.5000;0.4982;-3.3398;
1315.8000;0.4957;-3.3447;
1316.1000;0.5031;-3.3298;
1316.4000;0.4974;-3.3472;
1316.7000;0.4998;-3.3398;
1317.0000;0.4957;-3.3522;
1317.3000;0.4982;-3.3522;
1317.6000;0.4974;-3.3547;
1317.9000;0.4998;-3.3472;
1318.2000;0.4982;-3.3497;
1318.5000;0.4974;-3.3497;
1318.8000;0.4965;-3.3597;
1319.1000;0.4982;-3.3572;
1319.4000;0.4949;-3.3572;
1319.7000;0.5006;-3.3522;
1320.0000;0.4965;-3.3522;
1320.3000;0.4974;-3.3422;
1320.6000;0.4957;-3.3373;
1320.9000;0.4949;-3.3422;
1321.2000;0.4957;-3.3447;
1321.5000;0.4957;-3.3447;
1321.8000;0.4974;-3.3447;
1322.1000;0.4957;-3.3472;
1322.4000;0.4949;-3.3597;
1322.7000;0.4965;-3.3621;
1323.0000;0.4957;-3.3597;
1323.3000;0.4965;-3.3671;
1323.6000;0.4965;-3.3671;
1323.9000;0.4974;-3.3621;
1324.2000;0.4982;-3.3522;
1324.5000;0.4957;-3.3572;
1324.8000;0.4957;-3.3522;
1325.1000;0.4974;-3.3472;
1325.4000;0.4965;-3.3373;
1325.7000;0.4965;-3.3348;
1326.0000;0.4965;-3.3422;
1326.3000;0.4965;-3.3497;
1326.6000;0.4974;-3.3522;
1326.9000;0.4990;-3.3422;
1327.2000;0.4957;-3.3497;
1327.5000;0.4965;-3.3497;
1327.8000;0.4982;-3.3447;
1328.1000;0.4965;-3.3522;
1328.4000;0.4990;-3.3522;
1328.7000;0.4990;-3.3547;
1329.0000;0.4974;-3.3597;
1329.3000;0.5006;-3.3522;
1329.6000;0.4990;-3.3497;
1329.9000;0.4965;-3.3671;
1330.2000;0.4965;-3.3671;
1330.5000;0.4982;-3.3721;
1330.8000;0.4982;-3.3696;
1331.1000;0.4974;-3.3746;
1331.4000;0.4974;-3.3721;
1331.7000;0.4982;-3.3721;
1332.0000;0.4965;-3.3696;
1332.3000;0.4982;-3.3572;
1332.6000;0.4941;-3.3621;
1332.9000;0.4974;-3.3522;
1333.2000;0.4974;-3.3447;
1333.5000;0.4974;-3.3398;
1333.8000;0.4965;-3.3422;
1334.1000;0.4974;-3.3472;
1334.4000;0.4949;-3.3522;
1334.7000;0.4957;-3.3497;
1335.0000;0.4949;-3.3497;
1335.3000;0.4965;-3.3497;
1335.6000;0.4917;-3.3472;
1335.9000;0.4990;-3.3298;
1336.2000;0.5079;-3.3149;
1336.5000;0.4965;-3.3348;
1336.8000;0.4965;-3.3348;
1337.1000;0.5014;-3.3323;
1337.4000;0.4982;-3.3422;
1337.7000;0.4908;-3.3547;
1338.0000;0.4998;-3.3323;
1338.3000;0.4982;-3.3422;
1338.6000;0.4965;-3.3472;
1338.9000;0.4982;-3.3447;
1339.2000;0.4876;-3.3671;
1339.5000;0.4965;-3.3447;
1339.8000;0.4998;-3.3398;
1340.1000;0.4990;-3.3422;
1340.4000;0.4982;-3.3472;
1340.7000;0.4957;-3.3597;
1341.0000;0.4990;-3.3472;
1341.3000;0.5022;-3.3323;
1341.6000;0.4990;-3.3298;
1341.9000;0.4982;-3.3298;
1342.2000;0.4990;-3.3248;
1342.5000;0.5006;-3.3273;
1342.8000;0.4990;-3.3373;
1343.1000;0.4982;-3.3422;
1343.4000;0.4982;-3.3447;
1343.7000;0.4990;-3.3447;
1344.0000;0.4974;-3.3472;
1344.3000;0.4974;-3.3497;
1344.6000;0.4965;-3.3522;
1344.9000;0.4965;-3.3547;
1345.2000;0.4990;-3.3398;
1345.5000;0.4982;-3.3298;
1345.8000;0.4957;-3.3298;
1346.1000;0.4974;-3.3348;
1346.4000;0.4990;-3.3398;
1346.7000;0.5079;-3.3199;
1347.0000;0.4925;-3.3547;
1347.3000;0.4957;-3.3497;
1347.6000;0.4982;-3.3422;
1347.9000;0.4974;-3.3422;
1348.2000;0.4998;-3.3348;
1348.5000;0.5063;-3.3224;
1348.8000;0.4965;-3.3422;
1349.1000;0.5006;-3.3323;
1349.4000;0.4982;-3.3447;
1349.7000;0.5079;-3.3248;
1350.0000;0.4974;-3.3497;
1350.3000;0.4990;-3.3472;
1350.6000;0.5006;-3.3373;
1350.9000;0.4974;-3.3398;
1351.2000;0.4965;-3.3348;
1351.5000;0.5006;-3.3273;
1351.8000;0.4965;-3.3348;
1352.1000;0.4974;-3.3348;
1352.4000;0.4974;-3.3348;
1352.7000;0.4982;-3.3298;
1353.0000;0.4982;-3.3348;
1353.3000;0.4990;-3.3273;
1353.6000;0.4974;-3.3273;
1353.9000;0.4998;-3.3199;
1354.2000;0.4990;-3.3199;
1354.5000;0.4974;-3.3224;
1354.8000;0.4957;-3.3273;
1355.1000;0.4982;-3.3199;
1355.4000;0.5006;-3.3224;
1355.7000;0.4998;-3.3248;
1356.0000;0.4990;-3.3373;
1356.3000;0.4965;-3.3472;
1356.6000;0.4974;-3.3373;
1356.9000;0.4998;-3.3273;
1357.2000;0.4990;-3.3298;
1357.5000;0.4974;-3.3348;
1357.8000;0.5006;-3.3348;
1358.1000;0.4965;-3.3547;
1358.4000;0.4965;-3.3497;
1358.7000;0.4982;-3.3447;
1359.0000;0.4965;-3.3447;
1359.3000;0.4974;-3.3373;
1359.6000;0.4917;-3.3572;
1359.9000;0.4941;-3.3472;
1360.2000;0.4974;-3.3422;
1360.5000;0.4974;-3.3472;
1360.8000;0.4974;-3.3497;
1361.1000;0.4957;-3.3422;
1361.4000;0.4990;-3.3422;
1361.7000;0.4949;-3.3472;
1362.0000;0.4974;-3.3447;
1362.3000;0.5071;-3.3273;
1362.6000;0.4990;-3.3547;
1362.9000;0.5031;-3.3447;
1363.2000;0.5063;-3.3373;
1363.5000;0.4974;-3.3597;
1363.8000;0.4957;-3.3696;
1364.1000;0.4974;-3.3621;
1364.4000;0.4965;-3.3621;
1364.7000;0.4949;-3.3547;
1365.0000;0.4965;-3.3447;
1365.3000;0.4974;-3.3398;
1365.6000;0.4965;-3.3398;
1365.9000;0.4957;-3.3323;
1366.2000;0.4957;-3.3248;
1366.5000;0.4990;-3.3099;
1366.8000;0.4990;-3.3099;
1367.1000;0.4982;-3.3224;
1367.4000;0.4982;-3.3273;
1367.7000;0.4990;-3.3273;
1368.0000;0.4974;-3.3323;
1368.3000;0.4965;-3.3298;
1368.6000;0.4982;-3.3323;
1368.9000;0.4982;-3.3348;
1369.2000;0.4925;-3.3497;
1369.5000;0.4965;-3.3422;
1369.8000;0.4957;-3.3398;
1370.1000;0.4965;-3.3398;
1370.4000;0.4949;-3.3447;
1370.7000;0.4974;-3.3323;
1371.0000;0.4965;-3.3348;
1371.3000;0.4974;-3.3273;
1371.6000;0.4965;-3.3273;
1371.9000;0.4982;-3.3323;
1372.2000;0.4998;-3.3323;
1372.5000;0.4990;-3.3398;
1372.8000;0.4982;-3.3422;
1373.1000;0.4990;-3.3447;
1373.4000;0.4982;-3.3348;
1373.7000;0.4933;-3.3447;
1374.0000;0.5031;-3.3174;
1374.3000;0.4982;-3.3323;
1374.6000;0.4990;-3.3323;
1374.9000;0.4998;-3.3348;
1375.2000;0.4990;-3.3298;
1375.5000;0.4982;-3.3398;
1375.8000;0.4957;-3.3373;
1376.1000;0.5031;-3.3149;
1376.4000;0.4982;-3.3298;
1376.7000;0.4982;-3.3298;
1377.0000;0.4974;-3.3298;
1377.3000;0.4998;-3.3298;
1377.6000;0.5047;-3.3224;
1377.9000;0.4982;-3.3422;
1378.2000;0.4982;-3.3298;
1378.5000;0.4974;-3.3348;
1378.8000;0.4957;-3.3373;
1379.1000;0.4990;-3.3298;
1379.4000;0.4990;-3.3248;
1379.7000;0.4925;-3.3348;
1380.0000;0.4949;-3.3323;
1380.3000;0.4974;-3.3224;
1380.6000;0.5022;-3.3124;
1380.9000;0.4965;-3.3199;
1381.2000;0.4974;-3.3174;
1381.5000;0.4990;-3.3124;
1381.8000;0.4998;-3.3099;
1382.1000;0.4982;-3.3124;
1382.4000;0.4933;-3.3298;
1382.7000;0.4957;-3.3248;
1383.0000;0.4908;-3.3422;
1383.3000;0.4965;-3.3348;
1383.6000;0.4957;-3.3422;
1383.9000;0.4965;-3.3472;
1384.2000;0.4982;-3.3497;
1384.5000;0.4998;-3.3547;
1384.8000;0.4974;-3.3547;
1385.1000;0.4965;-3.3472;
1385.4000;0.4974;-3.3447;
1385.7000;0.4990;-3.3422;
1386.0000;0.4965;-3.3472;
1386.3000;0.4990;-3.3398;
1386.6000;0.4974;-3.3398;
1386.9000;0.4974;-3.3422;
1387.2000;0.4982;-3.3373;
1387.5000;0.4949;-3.3547;
1387.8000;0.4990;-3.3398;
1388.1000;0.4982;-3.3472;
1388.4000;0.4974;-3.3547;
1388.7000;0.4998;-3.3572;
1389.0000;0.4982;-3.3597;
1389.3000;0.4974;-3.3547;
1389.6000;0.4965;-3.3472;
1389.9000;0.4941;-3.3522;
1390.2000;0.4957;-3.3398;
1390.5000;0.4998;-3.3224;
1390.8000;0.4982;-3.3323;
1391.1000;0.4990;-3.3373;
1391.4000;0.4982;-3.3373;
1391.7000;0.4949;-3.3497;
1392.0000;0.4990;-3.3373;
1392.3000;0.4933;-3.3447;
1392.6000;0.4949;-3.3572;
1392.9000;0.5022;-3.3422;
1393.2000;0.4982;-3.3422;
1393.5000;0.4965;-3.3398;
1393.8000;0.4949;-3.3447;
1394.1000;0.4982;-3.3398;
1394.4000;0.4965;-3.3472;
1394.7000;0.4965;-3.3398;
1395.0000;0.4982;-3.3323;
1395.3000;0.4941;-3.3398;
1395.6000;0.4965;-3.3348;
1395.9000;0.4941;-3.3472;
1396.2000;0.4974;-3.3422;
1396.5000;0.4957;-3.3447;
1396.8000;0.4957;-3.3522;
1397.1000;0.4949;-3.3547;
1397.4000;0.5006;-3.3373;
1397.7000;0.4990;-3.3398;
1398.0000;0.4965;-3.3497;
1398.3000;0.4982;-3.3572;
1398.6000;0.4982;-3.3547;
1398.9000;0.4974;-3.3671;
1399.2000;0.4974;-3.3721;
1399.5000;0.4965;-3.3721;
1399.8000;0.4957;-3.3646;
