time/ms;Fluo/V;P700 deltaI/I x10³;
-199.8000;0.6561;-3.3373;
-199.5000;0.6536;-3.3373;
-199.2000;0.6561;-3.3447;
-198.9000;0.6561;-3.3422;
-198.6000;0.6561;-3.3447;
-198.3000;0.6553;-3.3497;
-198.0000;0.6561;-3.3447;
-197.7000;0.6569;-3.3422;
-197.4000;0.6561;-3.3422;
-197.1000;0.6553;-3.3422;
-196.8000;0.6626;-3.3298;
-196.5000;0.6553;-3.3497;
-196.2000;0.6561;-3.3522;
-195.9000;0.6585;-3.3373;
-195.6000;0.6536;-3.3472;
-195.3000;0.6545;-3.3422;
-195.0000;0.6553;-3.3323;
-194.7000;0.6585;-3.3248;
-194.4000;0.6528;-3.3398;
-194.1000;0.6545;-3.3348;
-193.8000;0.6553;-3.3348;
-193.5000;0.6545;-3.3522;
-193.2000;0.6553;-3.3547;
-192.9000;0.6545;-3.3572;
-192.6000;0.6536;-3.3522;
-192.3000;0.6553;-3.3422;
-192.0000;0.6577;-3.3298;
-191.7000;0.6553;-3.3373;
-191.4000;0.6536;-3.3447;
-191.1000;0.6561;-3.3447;
-190.8000;0.6553;-3.3547;
-190.5000;0.6545;-3.3696;
-190.2000;0.6545;-3.3820;
-189.9000;0.6545;-3.3771;
-189.6000;0.6536;-3.3746;
-189.3000;0.6553;-3.3696;
-189.0000;0.6528;-3.3696;
-188.7000;0.6545;-3.3671;
-188.4000;0.6561;-3.3646;
-188.1000;0.6553;-3.3721;
-187.8000;0.6561;-3.3746;
-187.5000;0.6536;-3.3796;
-187.2000;0.6545;-3.3721;
-186.9000;0.6561;-3.3696;
-186.6000;0.6545;-3.3696;
-186.3000;0.6553;-3.3597;
-186.0000;0.6553;-3.3646;
-185.7000;0.6561;-3.3597;
-185.4000;0.6536;-3.3572;
-185.1000;0.6545;-3.3572;
-184.8000;0.6545;-3.3597;
-184.5000;0.6577;-3.3472;
-184.2000;0.6553;-3.3447;
-183.9000;0.6536;-3.3447;
-183.6000;0.6545;-3.3422;
-183.3000;0.6545;-3.3422;
-183.0000;0.6545;-3.3398;
-182.7000;0.6528;-3.3398;
-182.4000;0.6545;-3.3398;
-182.1000;0.6545;-3.3422;
-181.8000;0.6536;-3.3422;
-181.5000;0.6561;-3.3348;
-181.2000;0.6545;-3.3373;
-180.9000;0.6553;-3.3398;
-180.6000;0.6545;-3.3373;
-180.3000;0.6561;-3.3323;
-180.0000;0.6553;-3.3398;
-179.7000;0.6610;-3.3248;
-179.4000;0.6545;-3.3422;
-179.1000;0.6569;-3.3472;
-178.8000;0.6545;-3.3522;
-178.5000;0.6561;-3.3422;
-178.2000;0.6536;-3.3422;
-177.9000;0.6545;-3.3422;
-177.6000;0.6536;-3.3472;
-177.3000;0.6545;-3.3497;
-177.0000;0.6536;-3.3572;
-176.7000;0.6561;-3.3547;
-176.4000;0.6577;-3.3547;
-176.1000;0.6569;-3.3572;
-175.8000;0.6553;-3.3621;
-175.5000;0.6545;-3.3572;
-175.2000;0.6553;-3.3547;
-174.9000;0.6545;-3.3572;
-174.6000;0.6561;-3.3472;
-174.3000;0.6553;-3.3447;
-174.0000;0.6553;-3.3373;
-173.7000;0.6553;-3.3472;
-173.4000;0.6553;-3.3398;
-173.1000;0.6536;-3.3447;
-172.8000;0.6561;-3.3323;
-172.5000;0.6553;-3.3422;
-172.2000;0.6553;-3.3348;
-171.9000;0.6569;-3.3323;
-171.6000;0.6528;-3.3273;
-171.3000;0.6536;-3.3373;
-171.0000;0.6553;-3.3422;
-170.7000;0.6553;-3.3497;
-170.4000;0.6585;-3.3398;
-170.1000;0.6553;-3.3447;
-169.8000;0.6545;-3.3422;
-169.5000;0.6553;-3.3422;
-169.2000;0.6553;-3.3398;
-168.9000;0.6553;-3.3422;
-168.6000;0.6569;-3.3422;
-168.3000;0.6545;-3.3398;
-168.0000;0.6536;-3.3447;
-167.7000;0.6536;-3.3472;
-167.4000;0.6545;-3.3447;
-167.1000;0.6545;-3.3323;
-166.8000;0.6536;-3.3298;
-166.5000;0.6553;-3.3248;
-166.2000;0.6553;-3.3248;
-165.9000;0.6553;-3.3298;
-165.6000;0.6545;-3.3273;
-165.3000;0.6512;-3.3273;
-165.0000;0.6553;-3.3149;
-164.7000;0.6536;-3.3199;
-164.4000;0.6471;-3.3298;
-164.1000;0.6536;-3.3149;
-163.8000;0.6536;-3.3149;
-163.5000;0.6561;-3.3149;
-163.2000;0.6561;-3.3224;
-162.9000;0.6528;-3.3224;
-162.6000;0.6536;-3.3224;
-162.3000;0.6528;-3.3174;
-162.0000;0.6536;-3.3199;
-161.7000;0.6553;-3.3149;
-161.4000;0.6471;-3.3348;
-161.1000;0.6545;-3.3149;
-160.8000;0.6561;-3.3174;
-160.5000;0.6479;-3.3348;
-160.2000;0.6545;-3.3298;
-159.9000;0.6553;-3.3273;
-159.6000;0.6553;-3.3248;
-159.3000;0.6561;-3.3199;
-159.0000;0.6553;-3.3248;
-158.7000;0.6553;-3.3224;
-158.4000;0.6553;-3.3248;
-158.1000;0.6561;-3.3199;
-157.8000;0.6553;-3.3149;
-157.5000;0.6545;-3.3199;
-157.2000;0.6569;-3.3074;
-156.9000;0.6561;-3.3099;
-156.6000;0.6545;-3.3174;
-156.3000;0.6512;-3.3298;
-156.0000;0.6536;-3.3199;
-155.7000;0.6528;-3.3298;
-155.4000;0.6528;-3.3273;
-155.1000;0.6545;-3.3248;
-154.8000;0.6528;-3.3248;
-154.5000;0.6569;-3.3099;
-154.2000;0.6545;-3.3099;
-153.9000;0.6553;-3.3174;
-153.6000;0.6545;-3.3298;
-153.3000;0.6545;-3.3373;
-153.0000;0.6561;-3.3248;
-152.7000;0.6561;-3.3298;
-152.4000;0.6545;-3.3373;
-152.1000;0.6553;-3.3323;
-151.8000;0.6561;-3.3298;
-151.5000;0.6553;-3.3224;
-151.2000;0.6545;-3.3174;
-150.9000;0.6536;-3.3199;
-150.6000;0.6528;-3.3199;
-150.3000;0.6536;-3.3248;
-150.0000;0.6536;-3.3298;
-149.7000;0.6545;-3.3323;
-149.4000;0.6553;-3.3323;
-149.1000;0.6536;-3.3422;
-148.8000;0.6545;-3.3472;
-148.5000;0.6553;-3.3447;
-148.2000;0.6536;-3.3447;
-147.9000;0.6553;-3.3323;
-147.6000;0.6569;-3.3273;
-147.3000;0.6561;-3.3273;
-147.0000;0.6553;-3.3273;
-146.7000;0.6553;-3.3273;
-146.4000;0.6520;-3.3224;
-146.1000;0.6553;-3.3124;
-145.8000;0.6545;-3.3199;
-145.5000;0.6561;-3.3149;
-145.2000;0.6553;-3.3124;
-144.9000;0.6553;-3.3124;
-144.6000;0.6553;-3.3224;
-144.3000;0.6536;-3.3224;
-144.0000;0.6545;-3.3224;
-143.7000;0.6536;-3.3248;
-143.4000;0.6545;-3.3099;
-143.1000;0.6536;-3.3174;
-142.8000;0.6553;-3.3224;
-142.5000;0.6569;-3.3224;
-142.2000;0.6536;-3.3348;
-141.9000;0.6553;-3.3398;
-141.6000;0.6553;-3.3298;
-141.3000;0.6536;-3.3373;
-141.0000;0.6536;-3.3348;
-140.7000;0.6553;-3.3323;
-140.4000;0.6536;-3.3398;
-140.1000;0.6545;-3.3323;
-139.8000;0.6553;-3.3248;
-139.5000;0.6545;-3.3298;
-139.2000;0.6577;-3.3248;
-138.9000;0.6536;-3.3323;
-138.6000;0.6545;-3.3323;
-138.3000;0.6545;-3.3224;
-138.0000;0.6561;-3.3199;
-137.7000;0.6545;-3.3273;
-137.4000;0.6561;-3.3273;
-137.1000;0.6553;-3.3298;
-136.8000;0.6536;-3.3323;
-136.5000;0.6553;-3.3199;
-136.2000;0.6593;-3.3025;
-135.9000;0.6577;-3.3049;
-135.6000;0.6553;-3.3074;
-135.3000;0.6553;-3.3099;
-135.0000;0.6569;-3.3149;
-134.7000;0.6569;-3.3124;
-134.4000;0.6561;-3.3074;
-134.1000;0.6561;-3.3124;
-133.8000;0.6545;-3.3224;
-133.5000;0.6536;-3.3273;
-133.2000;0.6512;-3.3398;
-132.9000;0.6536;-3.3373;
-132.6000;0.6528;-3.3373;
-132.3000;0.6536;-3.3248;
-132.0000;0.6561;-3.3298;
-131.7000;0.6545;-3.3373;
-131.4000;0.6536;-3.3398;
-131.1000;0.6536;-3.3323;
-130.8000;0.6561;-3.3174;
-130.5000;0.6545;-3.3174;
-130.2000;0.6528;-3.3248;
-129.9000;0.6528;-3.3273;
-129.6000;0.6528;-3.3298;
-129.3000;0.6504;-3.3298;
-129.0000;0.6553;-3.3199;
-128.7000;0.6536;-3.3199;
-128.4000;0.6553;-3.3174;
-128.1000;0.6593;-3.3224;
-127.8000;0.6553;-3.3398;
-127.5000;0.6545;-3.3298;
-127.2000;0.6496;-3.3348;
-126.9000;0.6577;-3.3124;
-126.6000;0.6553;-3.3224;
-126.3000;0.6561;-3.3174;
-126.0000;0.6553;-3.3273;
-125.7000;0.6561;-3.3273;
-125.4000;0.6561;-3.3323;
-125.1000;0.6593;-3.3273;
-124.8000;0.6545;-3.3398;
-124.5000;0.6545;-3.3398;
-124.2000;0.6569;-3.3398;
-123.9000;0.6545;-3.3373;
-123.6000;0.6536;-3.3323;
-123.3000;0.6528;-3.3224;
-123.0000;0.6545;-3.3224;
-122.7000;0.6512;-3.3373;
-122.4000;0.6545;-3.3248;
-122.1000;0.6536;-3.3174;
-121.8000;0.6536;-3.3124;
-121.5000;0.6553;-3.3149;
-121.2000;0.6561;-3.3224;
-120.9000;0.6553;-3.3174;
-120.6000;0.6536;-3.3149;
-120.3000;0.6618;-3.2900;
-120.0000;0.6545;-3.3074;
-119.7000;0.6528;-3.3124;
-119.4000;0.6528;-3.3149;
-119.1000;0.6545;-3.3124;
-118.8000;0.6504;-3.3199;
-118.5000;0.6536;-3.3099;
-118.2000;0.6545;-3.3049;
-117.9000;0.6561;-3.3049;
-117.6000;0.6569;-3.3025;
-117.3000;0.6553;-3.3124;
-117.0000;0.6545;-3.3149;
-116.7000;0.6528;-3.3298;
-116.4000;0.6528;-3.3348;
-116.1000;0.6536;-3.3348;
-115.8000;0.6528;-3.3398;
-115.5000;0.6545;-3.3273;
-115.2000;0.6561;-3.3174;
-114.9000;0.6569;-3.3099;
-114.6000;0.6545;-3.3099;
-114.3000;0.6545;-3.3099;
-114.0000;0.6569;-3.2925;
-113.7000;0.6569;-3.2975;
-113.4000;0.6536;-3.3049;
-113.1000;0.6553;-3.3074;
-112.8000;0.6553;-3.3099;
-112.5000;0.6545;-3.3124;
-112.2000;0.6553;-3.3124;
-111.9000;0.6561;-3.3025;
-111.6000;0.6553;-3.3074;
-111.3000;0.6545;-3.3124;
-111.0000;0.6593;-3.3149;
-110.7000;0.6569;-3.3149;
-110.4000;0.6512;-3.3248;
-110.1000;0.6536;-3.3149;
-109.8000;0.6569;-3.3049;
-109.5000;0.6488;-3.3174;
-109.2000;0.6536;-3.3049;
-108.9000;0.6536;-3.3099;
-108.6000;0.6536;-3.3174;
-108.3000;0.6545;-3.3199;
-108.0000;0.6496;-3.3323;
-107.7000;0.6545;-3.3248;
-107.4000;0.6528;-3.3273;
-107.1000;0.6528;-3.3323;
-106.8000;0.6536;-3.3323;
-106.5000;0.6553;-3.3323;
-106.2000;0.6545;-3.3298;
-105.9000;0.6561;-3.3174;
-105.6000;0.6561;-3.3273;
-105.3000;0.6536;-3.3422;
-105.0000;0.6545;-3.3398;
-104.7000;0.6577;-3.3298;
-104.4000;0.6545;-3.3348;
-104.1000;0.6553;-3.3373;
-103.8000;0.6545;-3.3422;
-103.5000;0.6528;-3.3422;
-103.2000;0.6561;-3.3373;
-102.9000;0.6577;-3.3323;
-102.6000;0.6545;-3.3398;
-102.3000;0.6553;-3.3422;
-102.0000;0.6545;-3.3472;
-101.7000;0.6553;-3.3422;
-101.4000;0.6561;-3.3298;
-101.1000;0.6455;-3.3472;
-100.8000;0.6553;-3.3174;
-100.5000;0.6553;-3.3224;
-100.2000;0.6545;-3.3298;
-99.9000;0.6536;-3.3348;
-99.6000;0.6528;-3.3422;
-99.3000;0.6520;-3.3398;
-99.0000;0.6471;-3.3447;
-98.7000;0.6536;-3.3323;
-98.4000;0.6528;-3.3472;
-98.1000;0.6528;-3.3422;
-97.8000;0.6545;-3.3298;
-97.5000;0.6545;-3.3248;
-97.2000;0.6536;-3.3149;
-96.9000;0.6536;-3.3174;
-96.6000;0.6528;-3.3199;
-96.3000;0.6545;-3.3174;
-96.0000;0.6553;-3.3174;
-95.7000;0.6553;-3.3149;
-95.4000;0.6512;-3.3224;
-95.1000;0.6536;-3.3273;
-94.8000;0.6528;-3.3224;
-94.5000;0.6593;-3.3099;
-94.2000;0.6553;-3.3149;
-93.9000;0.6545;-3.3099;
-93.6000;0.6536;-3.3074;
-93.3000;0.6618;-3.2776;
-93.0000;0.6553;-3.3025;
-92.7000;0.6561;-3.3074;
-92.4000;0.6602;-3.3000;
-92.1000;0.6528;-3.3174;
-91.8000;0.6561;-3.3174;
-91.5000;0.6545;-3.3199;
-91.2000;0.6577;-3.3124;
-90.9000;0.6536;-3.3248;
-90.6000;0.6553;-3.3199;
-90.3000;0.6569;-3.3199;
-90.0000;0.6553;-3.3199;
-89.7000;0.6545;-3.3323;
-89.4000;0.6561;-3.3298;
-89.1000;0.6553;-3.3348;
-88.8000;0.6569;-3.3298;
-88.5000;0.6512;-3.3422;
-88.2000;0.6536;-3.3323;
-87.9000;0.6439;-3.3522;
-87.6000;0.6553;-3.3273;
-87.3000;0.6545;-3.3273;
-87.0000;0.6561;-3.3273;
-86.7000;0.6577;-3.3224;
-86.4000;0.6585;-3.3199;
-86.1000;0.6536;-3.3323;
-85.8000;0.6536;-3.3248;
-85.5000;0.6463;-3.3422;
-85.2000;0.6536;-3.3224;
-84.9000;0.6479;-3.3472;
-84.6000;0.6528;-3.3398;
-84.3000;0.6536;-3.3472;
-84.0000;0.6561;-3.3348;
-83.7000;0.6553;-3.3348;
-83.4000;0.6536;-3.3373;
-83.1000;0.6561;-3.3348;
-82.8000;0.6561;-3.3323;
-82.5000;0.6553;-3.3273;
-82.2000;0.6536;-3.3248;
-81.9000;0.6553;-3.3273;
-81.6000;0.6561;-3.3273;
-81.3000;0.6520;-3.3398;
-81.0000;0.6520;-3.3348;
-80.7000;0.6536;-3.3298;
-80.4000;0.6520;-3.3174;
-80.1000;0.6545;-3.3199;
-79.8000;0.6545;-3.3248;
-79.5000;0.6536;-3.3199;
-79.2000;0.6602;-3.3000;
-78.9000;0.6536;-3.3099;
-78.6000;0.6536;-3.3149;
-78.3000;0.6553;-3.3248;
-78.0000;0.6545;-3.3323;
-77.7000;0.6553;-3.3348;
-77.4000;0.6553;-3.3422;
-77.1000;0.6553;-3.3472;
-76.8000;0.6561;-3.3522;
-76.5000;0.6553;-3.3547;
-76.2000;0.6553;-3.3572;
-75.9000;0.6536;-3.3547;
-75.6000;0.6520;-3.3621;
-75.3000;0.6528;-3.3621;
-75.0000;0.6545;-3.3597;
-74.7000;0.6545;-3.3621;
-74.4000;0.6536;-3.3547;
-74.1000;0.6528;-3.3497;
-73.8000;0.6536;-3.3348;
-73.5000;0.6553;-3.3298;
-73.2000;0.6553;-3.3323;
-72.9000;0.6553;-3.3348;
-72.6000;0.6496;-3.3522;
-72.3000;0.6536;-3.3522;
-72.0000;0.6561;-3.3398;
-71.7000;0.6536;-3.3522;
-71.4000;0.6561;-3.3522;
-71.1000;0.6545;-3.3547;
-70.8000;0.6553;-3.3547;
-70.5000;0.6528;-3.3597;
-70.2000;0.6536;-3.3547;
-69.9000;0.6536;-3.3497;
-69.6000;0.6504;-3.3472;
-69.3000;0.6536;-3.3472;
-69.0000;0.6553;-3.3472;
-68.7000;0.6634;-3.3224;
-68.4000;0.6520;-3.3522;
-68.1000;0.6512;-3.3547;
-67.8000;0.6536;-3.3447;
-67.5000;0.6569;-3.3348;
-67.2000;0.6545;-3.3447;
-66.9000;0.6545;-3.3447;
-66.6000;0.6553;-3.3447;
-66.3000;0.6553;-3.3572;
-66.0000;0.6536;-3.3597;
-65.7000;0.6553;-3.3398;
-65.4000;0.6528;-3.3373;
-65.1000;0.6553;-3.3248;
-64.8000;0.6504;-3.3273;
-64.5000;0.6585;-3.3174;
-64.2000;0.6553;-3.3273;
-63.9000;0.6569;-3.3149;
-63.6000;0.6528;-3.3224;
-63.3000;0.6520;-3.3323;
-63.0000;0.6545;-3.3398;
-62.7000;0.6545;-3.3522;
-62.4000;0.6528;-3.3547;
-62.1000;0.6536;-3.3497;
-61.8000;0.6520;-3.3522;
-61.5000;0.6536;-3.3472;
-61.2000;0.6561;-3.3422;
-60.9000;0.6536;-3.3373;
-60.6000;0.6545;-3.3298;
-60.3000;0.6528;-3.3273;
-60.0000;0.6528;-3.3273;
-59.7000;0.6577;-3.3174;
-59.4000;0.6545;-3.3398;
-59.1000;0.6545;-3.3398;
-58.8000;0.6561;-3.3472;
-58.5000;0.6536;-3.3572;
-58.2000;0.6553;-3.3522;
-57.9000;0.6536;-3.3497;
-57.6000;0.6545;-3.3497;
-57.3000;0.6553;-3.3497;
-57.0000;0.6536;-3.3522;
-56.7000;0.6528;-3.3497;
-56.4000;0.6545;-3.3398;
-56.1000;0.6553;-3.3348;
-55.8000;0.6561;-3.3348;
-55.5000;0.6536;-3.3373;
-55.2000;0.6545;-3.3323;
-54.9000;0.6553;-3.3224;
-54.6000;0.6569;-3.3074;
-54.3000;0.6553;-3.3248;
-54.0000;0.6545;-3.3298;
-53.7000;0.6553;-3.3298;
-53.4000;0.6561;-3.3273;
-53.1000;0.6553;-3.3224;
-52.8000;0.6553;-3.3273;
-52.5000;0.6536;-3.3447;
-52.2000;0.6545;-3.3472;
-51.9000;0.6528;-3.3472;
-51.6000;0.6553;-3.3398;
-51.3000;0.6528;-3.3522;
-51.0000;0.6569;-3.3348;
-50.7000;0.6536;-3.3422;
-50.4000;0.6569;-3.3422;
-50.1000;0.6569;-3.3373;
-49.8000;0.6545;-3.3422;
-49.5000;0.6528;-3.3472;
-49.2000;0.6553;-3.3447;
-48.9000;0.6545;-3.3522;
-48.6000;0.6504;-3.3497;
-48.3000;0.6553;-3.3422;
-48.0000;0.6545;-3.3497;
-47.7000;0.6536;-3.3447;
-47.4000;0.6553;-3.3323;
-47.1000;0.6545;-3.3248;
-46.8000;0.6545;-3.3273;
-46.5000;0.6504;-3.3373;
-46.2000;0.6536;-3.3323;
-45.9000;0.6553;-3.3298;
-45.6000;0.6504;-3.3398;
-45.3000;0.6561;-3.3373;
-45.0000;0.6561;-3.3348;
-44.7000;0.6569;-3.3323;
-44.4000;0.6553;-3.3323;
-44.1000;0.6577;-3.3273;
-43.8000;0.6561;-3.3298;
-43.5000;0.6561;-3.3298;
-43.2000;0.6577;-3.3224;
-42.9000;0.6569;-3.3224;
-42.6000;0.6569;-3.3248;
-42.3000;0.6553;-3.3224;
-42.0000;0.6553;-3.3273;
-41.7000;0.6553;-3.3248;
-41.4000;0.6553;-3.3323;
-41.1000;0.6528;-3.3398;
-40.8000;0.6545;-3.3348;
-40.5000;0.6553;-3.3373;
-40.2000;0.6536;-3.3447;
-39.9000;0.6528;-3.3447;
-39.6000;0.6545;-3.3323;
-39.3000;0.6536;-3.3298;
-39.0000;0.6545;-3.3348;
-38.7000;0.6528;-3.3373;
-38.4000;0.6512;-3.3398;
-38.1000;0.6536;-3.3398;
-37.8000;0.6577;-3.3248;
-37.5000;0.6553;-3.3273;
-37.2000;0.6545;-3.3224;
-36.9000;0.6553;-3.3273;
-36.6000;0.6553;-3.3298;
-36.3000;0.6593;-3.3174;
-36.0000;0.6545;-3.3373;
-35.7000;0.6577;-3.3373;
-35.4000;0.6561;-3.3298;
-35.1000;0.6536;-3.3348;
-34.8000;0.6545;-3.3273;
-34.5000;0.6536;-3.3298;
-34.2000;0.6553;-3.3298;
-33.9000;0.6553;-3.3273;
-33.6000;0.6553;-3.3248;
-33.3000;0.6561;-3.3174;
-33.0000;0.6553;-3.3273;
-32.7000;0.6545;-3.3273;
-32.4000;0.6569;-3.3323;
-32.1000;0.6553;-3.3447;
-31.8000;0.6561;-3.3398;
-31.5000;0.6577;-3.3373;
-31.2000;0.6585;-3.3323;
-30.9000;0.6561;-3.3447;
-30.6000;0.6569;-3.3373;
-30.3000;0.6463;-3.3597;
-30.0000;0.6561;-3.3373;
-29.7000;0.6561;-3.3398;
-29.4000;0.6569;-3.3398;
-29.1000;0.6545;-3.3348;
-28.8000;0.6512;-3.3497;
-28.5000;0.6553;-3.3373;
-28.2000;0.6512;-3.3398;
-27.9000;0.6553;-3.3248;
-27.6000;0.6536;-3.3224;
-27.3000;0.6577;-3.3248;
-27.0000;0.6528;-3.3174;
-26.7000;0.6553;-3.3199;
-26.4000;0.6536;-3.3298;
-26.1000;0.6504;-3.3422;
-25.8000;0.6553;-3.3224;
-25.5000;0.6561;-3.3224;
-25.2000;0.6536;-3.3248;
-24.9000;0.6545;-3.3298;
-24.6000;0.6553;-3.3323;
-24.3000;0.6561;-3.3298;
-24.0000;0.6553;-3.3323;
-23.7000;0.6561;-3.3298;
-23.4000;0.6593;-3.3199;
-23.1000;0.6561;-3.3298;
-22.8000;0.6553;-3.3373;
-22.5000;0.6528;-3.3373;
-22.2000;0.6561;-3.3273;
-21.9000;0.6561;-3.3248;
-21.6000;0.6561;-3.3273;
-21.3000;0.6561;-3.3298;
-21.0000;0.6561;-3.3373;
-20.7000;0.6553;-3.3348;
-20.4000;0.6553;-3.3373;
-20.1000;0.6569;-3.3398;
-19.8000;0.6561;-3.3422;
-19.5000;0.6536;-3.3572;
-19.2000;0.6553;-3.3497;
-18.9000;0.6577;-3.3497;
-18.6000;0.6561;-3.3472;
-18.3000;0.6642;-3.3298;
-18.0000;0.6545;-3.3547;
-17.7000;0.6553;-3.3547;
-17.4000;0.6553;-3.3572;
-17.1000;0.6561;-3.3497;
-16.8000;0.6536;-3.3497;
-16.5000;0.6545;-3.3447;
-16.2000;0.6569;-3.3447;
-15.9000;0.6512;-3.3572;
-15.6000;0.6528;-3.3547;
-15.3000;0.6528;-3.3621;
-15.0000;0.6520;-3.3621;
-14.7000;0.6593;-3.3422;
-14.4000;0.6561;-3.3522;
-14.1000;0.6536;-3.3621;
-13.8000;0.6528;-3.3447;
-13.5000;0.6553;-3.3348;
-13.2000;0.6553;-3.3224;
-12.9000;0.6553;-3.3199;
-12.6000;0.6553;-3.3273;
-12.3000;0.6593;-3.3199;
-12.0000;0.6536;-3.3398;
-11.7000;0.6569;-3.3348;
-11.4000;0.6536;-3.3398;
-11.1000;0.6536;-3.3447;
-10.8000;0.6561;-3.3398;
-10.5000;0.6545;-3.3447;
-10.2000;0.6536;-3.3398;
-9.9000;0.6536;-3.3373;
-9.6000;0.6536;-3.3373;
-9.3000;0.6561;-3.3348;
-9.0000;0.6561;-3.3248;
-8.7000;0.6553;-3.3224;
-8.4000;0.6561;-3.3149;
-8.1000;0.6577;-3.3149;
-7.8000;0.6561;-3.3174;
-7.5000;0.6545;-3.3224;
-7.2000;0.6561;-3.3273;
-6.9000;0.6545;-3.3348;
-6.6000;0.6569;-3.3348;
-6.3000;0.6536;-3.3422;
-6.0000;0.6528;-3.3497;
-5.7000;0.6536;-3.3422;
-5.4000;0.6553;-3.3447;
-5.1000;0.6520;-3.3572;
-4.8000;0.6553;-3.3497;
-4.5000;0.6528;-3.3597;
-4.2000;0.6561;-3.3497;
-3.9000;0.6561;-3.3497;
-3.6000;0.6545;-3.3497;
-3.3000;0.6561;-3.3422;
-3.0000;0.6545;-3.3497;
-2.7000;0.6569;-3.3447;
-2.4000;0.6545;-3.3373;
-2.1000;0.6545;-3.3373;
-1.8000;0.6561;-3.3323;
-1.5000;0.6553;-3.3224;
-1.2000;0.6545;-3.3323;
-0.9000;0.6545;-3.3273;
-0.6000;0.6553;-3.3199;
-0.3000;0.6520;-3.3273;
0.0000;0.6520;-3.3273;
0.3000;0.6577;-3.3796;
0.6000;0.6545;-3.3746;
0.9000;0.6650;-3.3348;
1.2000;0.6716;-3.3000;
1.5000;0.6707;-3.2900;
1.8000;0.6764;-3.2552;
2.1000;0.6772;-3.2353;
2.4000;0.6829;-3.2179;
2.7000;0.6821;-3.2080;
3.0000;0.6829;-3.2005;
3.3000;0.6838;-3.1906;
3.6000;0.6846;-3.1707;
3.9000;0.6854;-3.1632;
4.2000;0.6870;-3.1483;
4.5000;0.6943;-3.1334;
4.8000;0.6862;-3.1508;
5.1000;0.6886;-3.1433;
5.4000;0.6878;-3.1408;
5.7000;0.6854;-3.1483;
6.0000;0.6870;-3.1433;
6.3000;0.6911;-3.1433;
6.6000;0.6846;-3.1557;
6.9000;0.6911;-3.1334;
7.2000;0.6903;-3.1433;
7.5000;0.6903;-3.1358;
7.8000;0.6919;-3.1358;
8.1000;0.6911;-3.1433;
8.4000;0.6935;-3.1309;
8.7000;0.6919;-3.1334;
9.0000;0.6927;-3.1383;
9.3000;0.6862;-3.1508;
9.6000;0.6870;-3.1533;
9.9000;0.6911;-3.1408;
10.2000;0.6903;-3.1582;
10.5000;0.6919;-3.1632;
10.8000;0.6919;-3.1607;
11.1000;0.6911;-3.1657;
11.4000;0.6919;-3.1557;
11.7000;0.6952;-3.1408;
12.0000;0.6935;-3.1557;
12.3000;0.6935;-3.1632;
12.6000;0.6943;-3.1557;
12.9000;0.6919;-3.1731;
13.2000;0.6952;-3.1632;
13.5000;0.6943;-3.1657;
13.8000;0.6935;-3.1731;
14.1000;0.6943;-3.1756;
14.4000;0.6968;-3.1657;
14.7000;0.6968;-3.1582;
15.0000;0.6968;-3.1632;
15.3000;0.6943;-3.1781;
15.6000;0.6952;-3.1881;
15.9000;0.6943;-3.1881;
16.2000;0.6943;-3.1831;
16.5000;0.6952;-3.1756;
16.8000;0.6960;-3.1731;
17.1000;0.6960;-3.1781;
17.4000;0.6952;-3.1806;
17.7000;0.6960;-3.1781;
18.0000;0.6984;-3.1781;
18.3000;0.6976;-3.1707;
18.6000;0.6952;-3.1657;
18.9000;0.6943;-3.1557;
19.2000;0.6960;-3.1458;
19.5000;0.6952;-3.1483;
19.8000;0.6935;-3.1483;
20.1000;0.6952;-3.1458;
20.4000;0.6911;-3.1557;
20.7000;0.6919;-3.1458;
21.0000;0.6943;-3.1433;
21.3000;0.6968;-3.1408;
21.6000;0.6935;-3.1533;
21.9000;0.6919;-3.1582;
22.2000;0.6968;-3.1483;
22.5000;0.6976;-3.1508;
22.8000;0.7025;-3.1433;
23.1000;0.6968;-3.1508;
23.4000;0.6976;-3.1508;
23.7000;0.6984;-3.1582;
24.0000;0.6984;-3.1533;
24.3000;0.6935;-3.1557;
24.6000;0.6984;-3.1358;
24.9000;0.6968;-3.1458;
25.2000;0.6976;-3.1433;
25.5000;0.7041;-3.1259;
25.8000;0.6895;-3.1557;
26.1000;0.6976;-3.1408;
26.4000;0.6976;-3.1508;
26.7000;0.6976;-3.1483;
27.0000;0.6976;-3.1458;
27.3000;0.7000;-3.1383;
27.6000;0.7009;-3.1433;
27.9000;0.6960;-3.1458;
28.2000;0.6976;-3.1408;
28.5000;0.6984;-3.1483;
28.8000;0.6960;-3.1533;
29.1000;0.6952;-3.1508;
29.4000;0.6976;-3.1458;
29.7000;0.6952;-3.1533;
30.0000;0.6976;-3.1408;
30.3000;0.6984;-3.1483;
30.6000;0.7000;-3.1383;
30.9000;0.6960;-3.1508;
31.2000;0.7025;-3.1383;
31.5000;0.6976;-3.1433;
31.8000;0.6984;-3.1458;
32.1000;0.6976;-3.1483;
32.4000;0.6992;-3.1433;
32.7000;0.6943;-3.1582;
33.0000;0.6960;-3.1458;
33.3000;0.6903;-3.1582;
33.6000;0.6984;-3.1334;
33.9000;0.6984;-3.1309;
34.2000;0.6976;-3.1334;
34.5000;0.6960;-3.1458;
34.8000;0.7009;-3.1408;
35.1000;0.6952;-3.1557;
35.4000;0.6976;-3.1582;
35.7000;0.6960;-3.1582;
36.0000;0.6976;-3.1582;
36.3000;0.6976;-3.1557;
36.6000;0.6968;-3.1557;
36.9000;0.6984;-3.1483;
37.2000;0.6976;-3.1458;
37.5000;0.6968;-3.1483;
37.8000;0.6984;-3.1483;
38.1000;0.6960;-3.1533;
38.4000;0.6960;-3.1533;
38.7000;0.6992;-3.1458;
39.0000;0.6984;-3.1508;
39.3000;0.6976;-3.1533;
39.6000;0.6976;-3.1557;
39.9000;0.6984;-3.1632;
40.2000;0.6976;-3.1632;
40.5000;0.6911;-3.1756;
40.8000;0.6976;-3.1582;
41.1000;0.6984;-3.1607;
41.4000;0.6984;-3.1682;
41.7000;0.6976;-3.1707;
42.0000;0.6984;-3.1756;
42.3000;0.6968;-3.1781;
42.6000;0.6960;-3.1731;
42.9000;0.6968;-3.1707;
43.2000;0.6943;-3.1707;
43.5000;0.6992;-3.1458;
43.8000;0.6984;-3.1458;
44.1000;0.6984;-3.1383;
44.4000;0.6984;-3.1358;
44.7000;0.6952;-3.1483;
45.0000;0.6935;-3.1508;
45.3000;0.6960;-3.1533;
45.6000;0.6960;-3.1508;
45.9000;0.6976;-3.1508;
46.2000;0.6960;-3.1533;
46.5000;0.7009;-3.1408;
46.8000;0.7000;-3.1358;
47.1000;0.6952;-3.1433;
47.4000;0.6952;-3.1408;
47.7000;0.6976;-3.1334;
48.0000;0.7000;-3.1284;
48.3000;0.6935;-3.1508;
48.6000;0.6968;-3.1458;
48.9000;0.6935;-3.1533;
49.2000;0.6976;-3.1483;
49.5000;0.6992;-3.1458;
49.8000;0.6976;-3.1483;
50.1000;0.6968;-3.1557;
50.4000;0.6968;-3.1607;
50.7000;0.6976;-3.1533;
51.0000;0.6984;-3.1533;
51.3000;0.6968;-3.1632;
51.6000;0.6968;-3.1508;
51.9000;0.6992;-3.1557;
52.2000;0.6984;-3.1533;
52.5000;0.6984;-3.1557;
52.8000;0.6984;-3.1582;
53.1000;0.6960;-3.1682;
53.4000;0.6992;-3.1533;
53.7000;0.6992;-3.1508;
54.0000;0.6968;-3.1508;
54.3000;0.6952;-3.1582;
54.6000;0.6992;-3.1408;
54.9000;0.6952;-3.1508;
55.2000;0.6976;-3.1508;
55.5000;0.6968;-3.1508;
55.8000;0.6976;-3.1483;
56.1000;0.6984;-3.1458;
56.4000;0.6984;-3.1508;
56.7000;0.6968;-3.1632;
57.0000;0.6960;-3.1582;
57.3000;0.6992;-3.1557;
57.6000;0.6992;-3.1483;
57.9000;0.6976;-3.1533;
58.2000;0.7057;-3.1358;
58.5000;0.6984;-3.1483;
58.8000;0.6976;-3.1408;
59.1000;0.6976;-3.1408;
59.4000;0.6984;-3.1358;
59.7000;0.6960;-3.1408;
60.0000;0.6992;-3.1408;
60.3000;0.6984;-3.1358;
60.6000;0.6984;-3.1458;
60.9000;0.6968;-3.1483;
61.2000;0.6976;-3.1458;
61.5000;0.6984;-3.1408;
61.8000;0.6984;-3.1383;
62.1000;0.6984;-3.1383;
62.4000;0.6968;-3.1433;
62.7000;0.6976;-3.1408;
63.0000;0.6976;-3.1383;
63.3000;0.7009;-3.1284;
63.6000;0.6968;-3.1433;
63.9000;0.6984;-3.1383;
64.2000;0.7009;-3.1309;
64.5000;0.6960;-3.1458;
64.8000;0.6976;-3.1483;
65.1000;0.6992;-3.1458;
65.4000;0.6984;-3.1483;
65.7000;0.7000;-3.1408;
66.0000;0.6992;-3.1408;
66.3000;0.7000;-3.1334;
66.6000;0.6919;-3.1533;
66.9000;0.6984;-3.1408;
67.2000;0.6935;-3.1483;
67.5000;0.6976;-3.1358;
67.8000;0.6960;-3.1358;
68.1000;0.6968;-3.1309;
68.4000;0.6984;-3.1309;
68.7000;0.6960;-3.1358;
69.0000;0.6968;-3.1458;
69.3000;0.6968;-3.1433;
69.6000;0.6976;-3.1458;
69.9000;0.6976;-3.1458;
70.2000;0.6952;-3.1508;
70.5000;0.6935;-3.1458;
70.8000;0.6878;-3.1607;
71.1000;0.6968;-3.1458;
71.4000;0.6854;-3.1657;
71.7000;0.6984;-3.1309;
72.0000;0.6976;-3.1334;
72.3000;0.6976;-3.1433;
72.6000;0.6960;-3.1408;
72.9000;0.6968;-3.1358;
73.2000;0.6976;-3.1383;
73.5000;0.6976;-3.1483;
73.8000;0.6960;-3.1483;
74.1000;0.6968;-3.1383;
74.4000;0.6984;-3.1334;
74.7000;0.6968;-3.1334;
75.0000;0.6960;-3.1284;
75.3000;0.6976;-3.1259;
75.6000;0.6976;-3.1284;
75.9000;0.6976;-3.1309;
76.2000;0.6960;-3.1358;
76.5000;0.6952;-3.1309;
76.8000;0.6968;-3.1234;
77.1000;0.6976;-3.1160;
77.4000;0.6984;-3.1234;
77.7000;0.6968;-3.1309;
78.0000;0.6968;-3.1334;
78.3000;0.7009;-3.1309;
78.6000;0.6976;-3.1408;
78.9000;0.6992;-3.1334;
79.2000;0.7009;-3.1284;
79.5000;0.6976;-3.1383;
79.8000;0.6992;-3.1358;
80.1000;0.6968;-3.1433;
80.4000;0.6984;-3.1458;
80.7000;0.6984;-3.1408;
81.0000;0.6968;-3.1408;
81.3000;0.6943;-3.1582;
81.6000;0.6968;-3.1508;
81.9000;0.6943;-3.1557;
82.2000;0.6968;-3.1483;
82.5000;0.6984;-3.1334;
82.8000;0.6960;-3.1508;
83.1000;0.6960;-3.1557;
83.4000;0.6960;-3.1607;
83.7000;0.7009;-3.1458;
84.0000;0.6952;-3.1483;
84.3000;0.6943;-3.1557;
84.6000;0.6968;-3.1383;
84.9000;0.6968;-3.1408;
85.2000;0.6960;-3.1433;
85.5000;0.6976;-3.1358;
85.8000;0.6960;-3.1433;
86.1000;0.6952;-3.1408;
86.4000;0.6976;-3.1483;
86.7000;0.6927;-3.1557;
87.0000;0.6952;-3.1483;
87.3000;0.6943;-3.1458;
87.6000;0.6976;-3.1383;
87.9000;0.6943;-3.1433;
88.2000;0.6952;-3.1483;
88.5000;0.6968;-3.1483;
88.8000;0.6984;-3.1458;
89.1000;0.6976;-3.1458;
89.4000;0.6984;-3.1433;
89.7000;0.6952;-3.1508;
90.0000;0.6976;-3.1358;
90.3000;0.6952;-3.1358;
90.6000;0.6952;-3.1408;
90.9000;0.6943;-3.1483;
91.2000;0.6992;-3.1358;
91.5000;0.6968;-3.1508;
91.8000;0.6943;-3.1557;
92.1000;0.6952;-3.1508;
92.4000;0.6952;-3.1508;
92.7000;0.6935;-3.1582;
93.0000;0.6960;-3.1483;
93.3000;0.6911;-3.1582;
93.6000;0.6952;-3.1582;
93.9000;0.6976;-3.1483;
94.2000;0.6960;-3.1508;
94.5000;0.6943;-3.1607;
94.8000;0.6927;-3.1632;
95.1000;0.6960;-3.1533;
95.4000;0.6968;-3.1533;
95.7000;0.6911;-3.1657;
96.0000;0.6968;-3.1632;
96.3000;0.6968;-3.1582;
96.6000;0.7000;-3.1508;
96.9000;0.6968;-3.1582;
97.2000;0.6960;-3.1607;
97.5000;0.6952;-3.1508;
97.8000;0.7041;-3.1259;
98.1000;0.6984;-3.1433;
98.4000;0.6968;-3.1433;
98.7000;0.7000;-3.1483;
99.0000;0.6968;-3.1607;
99.3000;0.6960;-3.1533;
99.6000;0.6960;-3.1533;
99.9000;0.6968;-3.1557;
100.2000;0.6984;-3.1508;
100.5000;0.6968;-3.1533;
100.8000;0.6976;-3.1533;
101.1000;0.6976;-3.1508;
101.4000;0.6968;-3.1533;
101.7000;0.6984;-3.1557;
102.0000;0.6968;-3.1607;
102.3000;0.6960;-3.1508;
102.6000;0.6952;-3.1458;
102.9000;0.6952;-3.1508;
103.2000;0.6960;-3.1557;
103.5000;0.6968;-3.1657;
103.8000;0.6960;-3.1707;
104.1000;0.6960;-3.1607;
104.4000;0.6968;-3.1657;
104.7000;0.6960;-3.1657;
105.0000;0.6952;-3.1657;
105.3000;0.7000;-3.1358;
105.6000;0.6935;-3.1483;
105.9000;0.6984;-3.1334;
106.2000;0.6976;-3.1408;
106.5000;0.6960;-3.1433;
106.8000;0.6960;-3.1483;
107.1000;0.6992;-3.1284;
107.4000;0.6976;-3.1234;
107.7000;0.7066;-3.1035;
108.0000;0.6952;-3.1334;
108.3000;0.6968;-3.1309;
108.6000;0.6976;-3.1334;
108.9000;0.6960;-3.1458;
109.2000;0.6943;-3.1508;
109.5000;0.6976;-3.1433;
109.8000;0.6976;-3.1483;
110.1000;0.6968;-3.1533;
110.4000;0.6976;-3.1533;
110.7000;0.6952;-3.1508;
111.0000;0.6976;-3.1383;
111.3000;0.6960;-3.1458;
111.6000;0.6960;-3.1433;
111.9000;0.6960;-3.1383;
112.2000;0.7000;-3.1259;
112.5000;0.6968;-3.1259;
112.8000;0.6968;-3.1259;
113.1000;0.6968;-3.1234;
113.4000;0.6952;-3.1284;
113.7000;0.6976;-3.1309;
114.0000;0.6952;-3.1383;
114.3000;0.6903;-3.1582;
114.6000;0.6968;-3.1358;
114.9000;0.6943;-3.1334;
115.2000;0.6952;-3.1259;
115.5000;0.6943;-3.1334;
115.8000;0.6992;-3.1209;
116.1000;0.6943;-3.1209;
116.4000;0.6992;-3.1160;
116.7000;0.6968;-3.1259;
117.0000;0.6968;-3.1234;
117.3000;0.6960;-3.1284;
117.6000;0.6976;-3.1309;
117.9000;0.6952;-3.1483;
118.2000;0.6968;-3.1483;
118.5000;0.6952;-3.1533;
118.8000;0.6968;-3.1408;
119.1000;0.6968;-3.1533;
119.4000;0.6943;-3.1607;
119.7000;0.6960;-3.1582;
120.0000;0.6968;-3.1607;
120.3000;0.6952;-3.1607;
120.6000;0.6960;-3.1533;
120.9000;0.6960;-3.1682;
121.2000;0.6968;-3.1632;
121.5000;0.6976;-3.1632;
121.8000;0.6976;-3.1682;
122.1000;0.6976;-3.1707;
122.4000;0.6968;-3.1707;
122.7000;0.6960;-3.1731;
123.0000;0.6960;-3.1632;
123.3000;0.6952;-3.1657;
123.6000;0.6960;-3.1707;
123.9000;0.6952;-3.1657;
124.2000;0.6976;-3.1657;
124.5000;0.6960;-3.1582;
124.8000;0.7049;-3.1234;
125.1000;0.6960;-3.1383;
125.4000;0.6984;-3.1383;
125.7000;0.6911;-3.1557;
126.0000;0.6943;-3.1433;
126.3000;0.6952;-3.1433;
126.6000;0.6960;-3.1358;
126.9000;0.6968;-3.1358;
127.2000;0.6952;-3.1309;
127.5000;0.6952;-3.1358;
127.8000;0.6943;-3.1483;
128.1000;0.6984;-3.1408;
128.4000;0.6952;-3.1433;
128.7000;0.6943;-3.1458;
129.0000;0.6919;-3.1483;
129.3000;0.6952;-3.1358;
129.6000;0.6952;-3.1408;
129.9000;0.6943;-3.1458;
130.2000;0.6968;-3.1358;
130.5000;0.6927;-3.1383;
130.8000;0.6976;-3.1309;
131.1000;0.6960;-3.1284;
131.4000;0.6960;-3.1309;
131.7000;0.6968;-3.1309;
132.0000;0.6976;-3.1383;
132.3000;0.6960;-3.1458;
132.6000;0.6935;-3.1508;
132.9000;0.6952;-3.1408;
133.2000;0.6960;-3.1358;
133.5000;0.6968;-3.1433;
133.8000;0.6943;-3.1557;
134.1000;0.6968;-3.1408;
134.4000;0.6943;-3.1408;
134.7000;0.6911;-3.1334;
135.0000;0.6952;-3.1284;
135.3000;0.6976;-3.1259;
135.6000;0.6935;-3.1433;
135.9000;0.6952;-3.1408;
136.2000;0.6968;-3.1408;
136.5000;0.6968;-3.1358;
136.8000;0.6943;-3.1508;
137.1000;0.6968;-3.1557;
137.4000;0.6952;-3.1582;
137.7000;0.6935;-3.1632;
138.0000;0.6992;-3.1458;
138.3000;0.6960;-3.1508;
138.6000;0.6960;-3.1483;
138.9000;0.6927;-3.1582;
139.2000;0.6992;-3.1433;
139.5000;0.6895;-3.1707;
139.8000;0.7025;-3.1433;
140.1000;0.6960;-3.1508;
140.4000;0.6968;-3.1557;
140.7000;0.6960;-3.1657;
141.0000;0.6935;-3.1682;
141.3000;0.6984;-3.1557;
141.6000;0.6960;-3.1632;
141.9000;0.6976;-3.1582;
142.2000;0.6952;-3.1533;
142.5000;0.6935;-3.1508;
142.8000;0.7049;-3.1135;
143.1000;0.6968;-3.1408;
143.4000;0.6968;-3.1334;
143.7000;0.6968;-3.1334;
144.0000;0.6960;-3.1383;
144.3000;0.6976;-3.1309;
144.6000;0.6911;-3.1433;
144.9000;0.7033;-3.1160;
145.2000;0.6960;-3.1334;
145.5000;0.7025;-3.1234;
145.8000;0.6960;-3.1358;
146.1000;0.6952;-3.1309;
146.4000;0.6960;-3.1334;
146.7000;0.6943;-3.1334;
147.0000;0.6960;-3.1284;
147.3000;0.6960;-3.1234;
147.6000;0.6968;-3.1160;
147.9000;0.6960;-3.1209;
148.2000;0.6952;-3.1259;
148.5000;0.6976;-3.1234;
148.8000;0.6960;-3.1209;
149.1000;0.6960;-3.1209;
149.4000;0.6968;-3.1209;
149.7000;0.6960;-3.1259;
150.0000;0.6952;-3.1309;
150.3000;0.6992;-3.1160;
150.6000;0.6943;-3.1334;
150.9000;0.6952;-3.1309;
151.2000;0.6960;-3.1334;
151.5000;0.6952;-3.1334;
151.8000;0.6960;-3.1234;
152.1000;0.6943;-3.1309;
152.4000;0.6952;-3.1234;
152.7000;0.6960;-3.1234;
153.0000;0.6960;-3.1259;
153.3000;0.6943;-3.1259;
153.6000;0.6919;-3.1433;
153.9000;0.6976;-3.1259;
154.2000;0.6952;-3.1358;
154.5000;0.6943;-3.1408;
154.8000;0.6960;-3.1408;
155.1000;0.6919;-3.1483;
155.4000;0.6960;-3.1334;
155.7000;0.6952;-3.1508;
156.0000;0.7009;-3.1433;
156.3000;0.6935;-3.1657;
156.6000;0.6984;-3.1483;
156.9000;0.6943;-3.1533;
157.2000;0.6943;-3.1508;
157.5000;0.6968;-3.1483;
157.8000;0.6960;-3.1433;
158.1000;0.6968;-3.1433;
158.4000;0.7066;-3.1209;
158.7000;0.6952;-3.1508;
159.0000;0.7025;-3.1383;
159.3000;0.6960;-3.1533;
159.6000;0.6927;-3.1607;
159.9000;0.6935;-3.1632;
160.2000;0.6911;-3.1731;
160.5000;0.6943;-3.1607;
160.8000;0.6960;-3.1557;
161.1000;0.6960;-3.1458;
161.4000;0.6927;-3.1483;
161.7000;0.6935;-3.1458;
162.0000;0.6935;-3.1358;
162.3000;0.6878;-3.1557;
162.6000;0.6927;-3.1483;
162.9000;0.6968;-3.1259;
163.2000;0.6960;-3.1334;
163.5000;0.7057;-3.1010;
163.8000;0.6976;-3.1209;
164.1000;0.6935;-3.1408;
164.4000;0.6919;-3.1433;
164.7000;0.6968;-3.1408;
165.0000;0.7000;-3.1433;
165.3000;0.7000;-3.1408;
165.6000;0.6952;-3.1433;
165.9000;0.6960;-3.1408;
166.2000;0.6952;-3.1309;
166.5000;0.6886;-3.1408;
166.8000;0.6927;-3.1284;
167.1000;0.6960;-3.1234;
167.4000;0.6935;-3.1259;
167.7000;0.6935;-3.1284;
168.0000;0.6943;-3.1433;
168.3000;0.6952;-3.1533;
168.6000;0.6952;-3.1557;
168.9000;0.6943;-3.1607;
169.2000;0.6935;-3.1657;
169.5000;0.6935;-3.1557;
169.8000;0.6952;-3.1483;
170.1000;0.6935;-3.1483;
170.4000;0.6943;-3.1533;
170.7000;0.6935;-3.1607;
171.0000;0.6935;-3.1533;
171.3000;0.6927;-3.1483;
171.6000;0.6943;-3.1483;
171.9000;0.6935;-3.1533;
172.2000;0.6960;-3.1533;
172.5000;0.6935;-3.1557;
172.8000;0.6984;-3.1408;
173.1000;0.6935;-3.1483;
173.4000;0.6935;-3.1458;
173.7000;0.6935;-3.1383;
174.0000;0.6927;-3.1408;
174.3000;0.6952;-3.1284;
174.6000;0.6952;-3.1309;
174.9000;0.6935;-3.1334;
175.2000;0.6935;-3.1408;
175.5000;0.6903;-3.1533;
175.8000;0.6927;-3.1433;
176.1000;0.6911;-3.1508;
176.4000;0.6952;-3.1334;
176.7000;0.6943;-3.1284;
177.0000;0.6952;-3.1358;
177.3000;0.6968;-3.1358;
177.6000;0.6952;-3.1433;
177.9000;0.6935;-3.1508;
178.2000;0.6952;-3.1508;
178.5000;0.6927;-3.1483;
178.8000;0.6943;-3.1458;
179.1000;0.6943;-3.1458;
179.4000;0.6984;-3.1284;
179.7000;0.6935;-3.1358;
180.0000;0.6952;-3.1358;
180.3000;0.6927;-3.1458;
180.6000;0.6960;-3.1334;
180.9000;0.6952;-3.1358;
181.2000;0.6968;-3.1334;
181.5000;0.6960;-3.1433;
181.8000;0.6952;-3.1358;
182.1000;0.6935;-3.1358;
182.4000;0.6927;-3.1458;
182.7000;0.6960;-3.1383;
183.0000;0.6960;-3.1408;
183.3000;0.6968;-3.1433;
183.6000;0.6960;-3.1433;
183.9000;0.6952;-3.1383;
184.2000;0.6919;-3.1483;
184.5000;0.6960;-3.1458;
184.8000;0.6960;-3.1533;
185.1000;0.6943;-3.1582;
185.4000;0.6895;-3.1731;
185.7000;0.6911;-3.1707;
186.0000;0.6960;-3.1533;
186.3000;0.6870;-3.1682;
186.6000;0.6935;-3.1582;
186.9000;0.6952;-3.1557;
187.2000;0.6943;-3.1557;
187.5000;0.6943;-3.1533;
187.8000;0.6943;-3.1582;
188.1000;0.6960;-3.1557;
188.4000;0.6968;-3.1533;
188.7000;0.6960;-3.1533;
189.0000;0.6952;-3.1582;
189.3000;0.6943;-3.1607;
189.6000;0.6960;-3.1657;
189.9000;0.6903;-3.1806;
190.2000;0.6952;-3.1682;
190.5000;0.7009;-3.1533;
190.8000;0.6952;-3.1731;
191.1000;0.6943;-3.1682;
191.4000;0.6927;-3.1607;
191.7000;0.6927;-3.1533;
192.0000;0.6943;-3.1533;
192.3000;0.6943;-3.1408;
192.6000;0.6943;-3.1533;
192.9000;0.6960;-3.1582;
193.2000;0.6952;-3.1483;
193.5000;0.6943;-3.1458;
193.8000;0.6968;-3.1458;
194.1000;0.6952;-3.1483;
194.4000;0.6960;-3.1533;
194.7000;0.6960;-3.1533;
195.0000;0.6968;-3.1508;
195.3000;0.6911;-3.1707;
195.6000;0.6952;-3.1682;
195.9000;0.6935;-3.1731;
196.2000;0.6968;-3.1582;
196.5000;0.6968;-3.1508;
196.8000;0.6935;-3.1731;
197.1000;0.6903;-3.1707;
197.4000;0.6960;-3.1508;
197.7000;0.6919;-3.1508;
198.0000;0.6919;-3.1557;
198.3000;0.6943;-3.1557;
198.6000;0.6943;-3.1607;
198.9000;0.6952;-3.1607;
199.2000;0.6960;-3.1632;
199.5000;0.6935;-3.1582;
199.8000;0.6952;-3.1557;
200.1000;0.6935;-3.1508;
200.4000;0.6935;-3.1557;
200.7000;0.6943;-3.1582;
201.0000;0.6976;-3.1607;
201.3000;0.6960;-3.1607;
201.6000;0.6952;-3.1533;
201.9000;0.6952;-3.1508;
202.2000;0.6960;-3.1533;
202.5000;0.6968;-3.1632;
202.8000;0.6960;-3.1707;
203.1000;0.6968;-3.1632;
203.4000;0.6895;-3.1707;
203.7000;0.6943;-3.1657;
204.0000;0.6960;-3.1657;
204.3000;0.6935;-3.1707;
204.6000;0.6935;-3.1682;
204.9000;0.6903;-3.1756;
205.2000;0.6960;-3.1682;
205.5000;0.6935;-3.1707;
205.8000;0.6935;-3.1707;
206.1000;0.6935;-3.1607;
206.4000;0.6952;-3.1632;
206.7000;0.6960;-3.1632;
207.0000;0.6968;-3.1707;
207.3000;0.6984;-3.1657;
207.6000;0.6960;-3.1657;
207.9000;0.6960;-3.1632;
208.2000;0.6952;-3.1632;
208.5000;0.6952;-3.1657;
208.8000;0.6927;-3.1707;
209.1000;0.6935;-3.1707;
209.4000;0.6943;-3.1707;
209.7000;0.6984;-3.1557;
210.0000;0.6935;-3.1682;
210.3000;0.6952;-3.1582;
210.6000;0.6927;-3.1632;
210.9000;0.6935;-3.1557;
211.2000;0.6952;-3.1533;
211.5000;0.6927;-3.1533;
211.8000;0.6960;-3.1582;
212.1000;0.6943;-3.1607;
212.4000;0.6943;-3.1632;
212.7000;0.6952;-3.1607;
213.0000;0.6919;-3.1707;
213.3000;0.6935;-3.1632;
213.6000;0.6927;-3.1731;
213.9000;0.6943;-3.1682;
214.2000;0.6943;-3.1682;
214.5000;0.6943;-3.1582;
214.8000;0.6919;-3.1731;
215.1000;0.6935;-3.1781;
215.4000;0.6935;-3.1806;
215.7000;0.6935;-3.1731;
216.0000;0.6943;-3.1831;
216.3000;0.6927;-3.1831;
216.6000;0.7017;-3.1607;
216.9000;0.6935;-3.1781;
217.2000;0.6927;-3.1607;
217.5000;0.6952;-3.1607;
217.8000;0.6927;-3.1607;
218.1000;0.6952;-3.1557;
218.4000;0.6960;-3.1508;
218.7000;0.6976;-3.1408;
219.0000;0.6952;-3.1483;
219.3000;0.6952;-3.1533;
219.6000;0.6943;-3.1632;
219.9000;0.6960;-3.1632;
220.2000;0.6943;-3.1632;
220.5000;0.6992;-3.1533;
220.8000;0.6960;-3.1707;
221.1000;0.6952;-3.1657;
221.4000;0.6935;-3.1682;
221.7000;0.6919;-3.1682;
222.0000;0.6952;-3.1632;
222.3000;0.6952;-3.1582;
222.6000;0.6935;-3.1607;
222.9000;0.6927;-3.1731;
223.2000;0.6919;-3.1682;
223.5000;0.6943;-3.1657;
223.8000;0.6943;-3.1657;
224.1000;0.6911;-3.1806;
224.4000;0.6968;-3.1682;
224.7000;0.6935;-3.1682;
225.0000;0.6968;-3.1657;
225.3000;0.6943;-3.1707;
225.6000;0.6919;-3.1707;
225.9000;0.6935;-3.1582;
226.2000;0.6911;-3.1557;
226.5000;0.6935;-3.1458;
226.8000;0.7025;-3.1234;
227.1000;0.6895;-3.1607;
227.4000;0.6952;-3.1458;
227.7000;0.6943;-3.1533;
228.0000;0.6935;-3.1557;
228.3000;0.6895;-3.1607;
228.6000;0.6935;-3.1508;
228.9000;0.6935;-3.1458;
229.2000;0.6919;-3.1533;
229.5000;0.7000;-3.1309;
229.8000;0.6895;-3.1533;
230.1000;0.6984;-3.1358;
230.4000;0.6935;-3.1458;
230.7000;0.6943;-3.1358;
231.0000;0.6960;-3.1309;
231.3000;0.6952;-3.1383;
231.6000;0.6952;-3.1383;
231.9000;0.6943;-3.1557;
232.2000;0.6952;-3.1582;
232.5000;0.6919;-3.1557;
232.8000;0.6952;-3.1458;
233.1000;0.6952;-3.1533;
233.4000;0.6960;-3.1582;
233.7000;0.6960;-3.1582;
234.0000;0.6952;-3.1607;
234.3000;0.6943;-3.1557;
234.6000;0.6935;-3.1582;
234.9000;0.6895;-3.1756;
235.2000;0.6952;-3.1508;
235.5000;0.6870;-3.1831;
235.8000;0.6911;-3.1607;
236.1000;0.6935;-3.1582;
236.4000;0.6968;-3.1607;
236.7000;0.6943;-3.1582;
237.0000;0.6952;-3.1533;
237.3000;0.6927;-3.1582;
237.6000;0.6862;-3.1781;
237.9000;0.6919;-3.1582;
238.2000;0.6952;-3.1508;
238.5000;0.6935;-3.1508;
238.8000;0.6927;-3.1508;
239.1000;0.6943;-3.1582;
239.4000;0.6943;-3.1632;
239.7000;0.6919;-3.1682;
240.0000;0.6943;-3.1657;
240.3000;0.6935;-3.1508;
240.6000;0.6935;-3.1508;
240.9000;0.6943;-3.1483;
241.2000;0.6927;-3.1533;
241.5000;0.6952;-3.1533;
241.8000;0.6968;-3.1483;
242.1000;0.6952;-3.1632;
242.4000;0.6952;-3.1657;
242.7000;0.6960;-3.1582;
243.0000;0.6960;-3.1533;
243.3000;0.6952;-3.1582;
243.6000;0.6960;-3.1483;
243.9000;0.6960;-3.1458;
244.2000;0.6943;-3.1508;
244.5000;0.7000;-3.1284;
244.8000;0.6927;-3.1533;
245.1000;0.6943;-3.1533;
245.4000;0.6919;-3.1557;
245.7000;0.6943;-3.1458;
246.0000;0.6927;-3.1483;
246.3000;0.6935;-3.1458;
246.6000;0.6935;-3.1433;
246.9000;0.6927;-3.1458;
247.2000;0.6943;-3.1408;
247.5000;0.6927;-3.1334;
247.8000;0.6952;-3.1309;
248.1000;0.6968;-3.1284;
248.4000;0.6935;-3.1358;
248.7000;0.6927;-3.1383;
249.0000;0.6943;-3.1334;
249.3000;0.6935;-3.1458;
249.6000;0.6952;-3.1358;
249.9000;0.6927;-3.1433;
250.2000;0.6927;-3.1483;
250.5000;0.6919;-3.1533;
250.8000;0.6878;-3.1707;
251.1000;0.6927;-3.1508;
251.4000;0.6935;-3.1483;
251.7000;0.6919;-3.1557;
252.0000;0.6935;-3.1533;
252.3000;0.6952;-3.1557;
252.6000;0.6927;-3.1533;
252.9000;0.6943;-3.1383;
253.2000;0.6968;-3.1259;
253.5000;0.6976;-3.1284;
253.8000;0.6927;-3.1358;
254.1000;0.6935;-3.1383;
254.4000;0.6943;-3.1383;
254.7000;0.6927;-3.1383;
255.0000;0.6952;-3.1358;
255.3000;0.6878;-3.1657;
255.6000;0.6911;-3.1508;
255.9000;0.6919;-3.1458;
256.2000;0.6935;-3.1483;
256.5000;0.6935;-3.1582;
256.8000;0.6952;-3.1508;
257.1000;0.6935;-3.1632;
257.4000;0.6976;-3.1508;
257.7000;0.6952;-3.1483;
258.0000;0.6968;-3.1408;
258.3000;0.6943;-3.1582;
258.6000;0.6943;-3.1458;
258.9000;0.6976;-3.1383;
259.2000;0.6935;-3.1433;
259.5000;0.6911;-3.1557;
259.8000;0.6878;-3.1582;
260.1000;0.6935;-3.1408;
260.4000;0.6911;-3.1433;
260.7000;0.6903;-3.1433;
261.0000;0.6886;-3.1383;
261.3000;0.6919;-3.1309;
261.6000;0.6927;-3.1259;
261.9000;0.6935;-3.1309;
262.2000;0.6919;-3.1184;
262.5000;0.6968;-3.1110;
262.8000;0.6935;-3.1110;
263.1000;0.6927;-3.1209;
263.4000;0.6943;-3.1259;
263.7000;0.7009;-3.1184;
264.0000;0.6927;-3.1334;
264.3000;0.6952;-3.1358;
264.6000;0.6927;-3.1383;
264.9000;0.6935;-3.1508;
265.2000;0.6960;-3.1508;
265.5000;0.6952;-3.1557;
265.8000;0.6935;-3.1483;
266.1000;0.6943;-3.1458;
266.4000;0.6952;-3.1334;
266.7000;0.6935;-3.1309;
267.0000;0.6952;-3.1383;
267.3000;0.6943;-3.1483;
267.6000;0.6952;-3.1533;
267.9000;0.6927;-3.1557;
268.2000;0.6952;-3.1483;
268.5000;0.6935;-3.1533;
268.8000;0.6927;-3.1483;
269.1000;0.7000;-3.1309;
269.4000;0.6927;-3.1433;
269.7000;0.6927;-3.1533;
270.0000;0.6927;-3.1508;
270.3000;0.6919;-3.1582;
270.6000;0.6927;-3.1582;
270.9000;0.6903;-3.1582;
271.2000;0.6903;-3.1483;
271.5000;0.6911;-3.1508;
271.8000;0.6895;-3.1557;
272.1000;0.6927;-3.1632;
272.4000;0.6943;-3.1582;
272.7000;0.6935;-3.1557;
273.0000;0.6943;-3.1508;
273.3000;0.6927;-3.1408;
273.6000;0.6943;-3.1309;
273.9000;0.6984;-3.1035;
274.2000;0.6943;-3.1135;
274.5000;0.6960;-3.1085;
274.8000;0.6895;-3.1209;
275.1000;0.6960;-3.1110;
275.4000;0.6927;-3.1110;
275.7000;0.6943;-3.1085;
276.0000;0.6943;-3.1085;
276.3000;0.6935;-3.1135;
276.6000;0.6952;-3.1010;
276.9000;0.6935;-3.1110;
277.2000;0.6943;-3.1234;
277.5000;0.6935;-3.1259;
277.8000;0.6935;-3.1160;
278.1000;0.6943;-3.1085;
278.4000;0.6984;-3.0911;
278.7000;0.6927;-3.1184;
279.0000;0.6927;-3.1309;
279.3000;0.6984;-3.1284;
279.6000;0.6943;-3.1334;
279.9000;0.6935;-3.1358;
280.2000;0.6952;-3.1433;
280.5000;0.6952;-3.1383;
280.8000;0.6927;-3.1334;
281.1000;0.6952;-3.1358;
281.4000;0.6895;-3.1383;
281.7000;0.6919;-3.1334;
282.0000;0.6935;-3.1383;
282.3000;0.6968;-3.1284;
282.6000;0.6943;-3.1383;
282.9000;0.6903;-3.1433;
283.2000;0.6911;-3.1408;
283.5000;0.6935;-3.1358;
283.8000;0.6903;-3.1383;
284.1000;0.6927;-3.1408;
284.4000;0.6911;-3.1408;
284.7000;0.6935;-3.1383;
285.0000;0.6935;-3.1358;
285.3000;0.6952;-3.1234;
285.6000;0.6935;-3.1209;
285.9000;0.6919;-3.1184;
286.2000;0.6919;-3.1234;
286.5000;0.6935;-3.1085;
286.8000;0.6927;-3.1035;
287.1000;0.6927;-3.1010;
287.4000;0.6943;-3.0886;
287.7000;0.6943;-3.0936;
288.0000;0.6960;-3.0886;
288.3000;0.6968;-3.0861;
288.6000;0.6952;-3.0911;
288.9000;0.6952;-3.1035;
289.2000;0.6943;-3.1135;
289.5000;0.6943;-3.1160;
289.8000;0.6927;-3.1160;
290.1000;0.6943;-3.1160;
290.4000;0.6919;-3.1209;
290.7000;0.6911;-3.1209;
291.0000;0.6911;-3.1060;
291.3000;0.6919;-3.1085;
291.6000;0.6935;-3.1160;
291.9000;0.6935;-3.1284;
292.2000;0.6935;-3.1284;
292.5000;0.7000;-3.1010;
292.8000;0.6935;-3.1284;
293.1000;0.6911;-3.1408;
293.4000;0.6943;-3.1358;
293.7000;0.6943;-3.1358;
294.0000;0.6952;-3.1408;
294.3000;0.6943;-3.1358;
294.6000;0.6919;-3.1557;
294.9000;0.6911;-3.1508;
295.2000;0.6935;-3.1383;
295.5000;0.6919;-3.1383;
295.8000;0.6935;-3.1408;
296.1000;0.6886;-3.1433;
296.4000;0.6911;-3.1458;
296.7000;0.6927;-3.1433;
297.0000;0.6886;-3.1557;
297.3000;0.6935;-3.1433;
297.6000;0.6935;-3.1383;
297.9000;0.7000;-3.1234;
298.2000;0.6935;-3.1383;
298.5000;0.6943;-3.1433;
298.8000;0.6911;-3.1433;
299.1000;0.6935;-3.1458;
299.4000;0.6927;-3.1483;
299.7000;0.6927;-3.1533;
300.0000;0.6927;-3.1557;
300.3000;0.6935;-3.1582;
300.6000;0.6943;-3.1458;
300.9000;0.6935;-3.1483;
301.2000;0.6919;-3.1607;
301.5000;0.6919;-3.1682;
301.8000;0.6984;-3.1533;
302.1000;0.6911;-3.1607;
302.4000;0.6943;-3.1557;
302.7000;0.6927;-3.1657;
303.0000;0.6919;-3.1607;
303.3000;0.6927;-3.1607;
303.6000;0.6935;-3.1508;
303.9000;0.6919;-3.1632;
304.2000;0.6919;-3.1682;
304.5000;0.6935;-3.1533;
304.8000;0.6927;-3.1483;
305.1000;0.6927;-3.1458;
305.4000;0.6943;-3.1408;
305.7000;0.6935;-3.1408;
306.0000;0.6943;-3.1408;
306.3000;0.6935;-3.1284;
306.6000;0.6846;-3.1483;
306.9000;0.6919;-3.1284;
307.2000;0.6927;-3.1259;
307.5000;0.6935;-3.1284;
307.8000;0.6927;-3.1309;
308.1000;0.6927;-3.1259;
308.4000;0.6960;-3.1234;
308.7000;0.6919;-3.1284;
309.0000;0.6919;-3.1309;
309.3000;0.6935;-3.1110;
309.6000;0.6919;-3.1234;
309.9000;0.6935;-3.1234;
310.2000;0.6927;-3.1309;
310.5000;0.6919;-3.1284;
310.8000;0.6927;-3.1309;
311.1000;0.6943;-3.1259;
311.4000;0.6935;-3.1309;
311.7000;0.6919;-3.1284;
312.0000;0.6903;-3.1358;
312.3000;0.6935;-3.1358;
312.6000;0.6919;-3.1334;
312.9000;0.6919;-3.1334;
313.2000;0.6935;-3.1284;
313.5000;0.6895;-3.1433;
313.8000;0.7041;-3.1135;
314.1000;0.6911;-3.1533;
314.4000;0.6927;-3.1657;
314.7000;0.6935;-3.1582;
315.0000;0.6919;-3.1632;
315.3000;0.6903;-3.1707;
315.6000;0.6976;-3.1508;
315.9000;0.6927;-3.1682;
316.2000;0.6927;-3.1682;
316.5000;0.6943;-3.1632;
316.8000;0.6919;-3.1632;
317.1000;0.6919;-3.1682;
317.4000;0.6919;-3.1707;
317.7000;0.6943;-3.1707;
318.0000;0.6911;-3.1731;
318.3000;0.6919;-3.1707;
318.6000;0.6911;-3.1682;
318.9000;0.6960;-3.1582;
319.2000;0.6911;-3.1632;
319.5000;0.6903;-3.1657;
319.8000;0.6919;-3.1731;
320.1000;0.6927;-3.1756;
320.4000;0.6935;-3.1657;
320.7000;0.6927;-3.1632;
321.0000;0.6927;-3.1682;
321.3000;0.6935;-3.1632;
321.6000;0.6960;-3.1508;
321.9000;0.6878;-3.1582;
322.2000;0.6927;-3.1458;
322.5000;0.6935;-3.1483;
322.8000;0.6952;-3.1458;
323.1000;0.6935;-3.1508;
323.4000;0.6943;-3.1458;
323.7000;0.6911;-3.1383;
324.0000;0.6935;-3.1309;
324.3000;0.6935;-3.1309;
324.6000;0.6919;-3.1408;
324.9000;0.6927;-3.1433;
325.2000;0.6919;-3.1458;
325.5000;0.6952;-3.1458;
325.8000;0.6919;-3.1557;
326.1000;0.6919;-3.1682;
326.4000;0.6960;-3.1408;
326.7000;0.6927;-3.1433;
327.0000;0.6919;-3.1458;
327.3000;0.6935;-3.1483;
327.6000;0.6935;-3.1358;
327.9000;0.6943;-3.1358;
328.2000;0.6952;-3.1284;
328.5000;0.6952;-3.1160;
328.8000;0.6927;-3.1309;
329.1000;0.6952;-3.1284;
329.4000;0.6935;-3.1234;
329.7000;0.6927;-3.1259;
330.0000;0.6927;-3.1234;
330.3000;0.6927;-3.1234;
330.6000;0.6943;-3.1184;
330.9000;0.6935;-3.1234;
331.2000;0.6927;-3.1284;
331.5000;0.6911;-3.1234;
331.8000;0.6927;-3.1234;
332.1000;0.6911;-3.1259;
332.4000;0.6886;-3.1458;
332.7000;0.6927;-3.1309;
333.0000;0.6919;-3.1334;
333.3000;0.6935;-3.1309;
333.6000;0.6919;-3.1284;
333.9000;0.6919;-3.1309;
334.2000;0.6935;-3.1284;
334.5000;0.6935;-3.1358;
334.8000;0.6976;-3.1209;
335.1000;0.6927;-3.1234;
335.4000;0.6927;-3.1259;
335.7000;0.6935;-3.1209;
336.0000;0.6943;-3.1209;
336.3000;0.6927;-3.1309;
336.6000;0.6862;-3.1483;
336.9000;0.6935;-3.1259;
337.2000;0.6960;-3.1135;
337.5000;0.6935;-3.1209;
337.8000;0.6919;-3.1284;
338.1000;0.6903;-3.1358;
338.4000;0.6919;-3.1309;
338.7000;0.6927;-3.1259;
339.0000;0.6927;-3.1334;
339.3000;0.6984;-3.1160;
339.6000;0.6919;-3.1309;
339.9000;0.6911;-3.1358;
340.2000;0.6911;-3.1284;
340.5000;0.6976;-3.1035;
340.8000;0.6935;-3.1259;
341.1000;0.6943;-3.1209;
341.4000;0.6846;-3.1433;
341.7000;0.6911;-3.1259;
342.0000;0.6870;-3.1383;
342.3000;0.6919;-3.1309;
342.6000;0.6984;-3.1060;
342.9000;0.6895;-3.1358;
343.2000;0.6927;-3.1383;
343.5000;0.6927;-3.1408;
343.8000;0.6976;-3.1259;
344.1000;0.6911;-3.1483;
344.4000;0.6927;-3.1433;
344.7000;0.6862;-3.1458;
345.0000;0.6927;-3.1284;
345.3000;0.6927;-3.1259;
345.6000;0.6943;-3.1259;
345.9000;0.6919;-3.1259;
346.2000;0.6935;-3.1284;
346.5000;0.6943;-3.1458;
346.8000;0.6943;-3.1483;
347.1000;0.6927;-3.1458;
347.4000;0.6935;-3.1383;
347.7000;0.6952;-3.1259;
348.0000;0.6911;-3.1334;
348.3000;0.6935;-3.1234;
348.6000;0.6919;-3.1284;
348.9000;0.6895;-3.1160;
349.2000;0.6927;-3.0985;
349.5000;0.6919;-3.0961;
349.8000;0.6935;-3.1060;
350.1000;0.6927;-3.1110;
350.4000;0.6854;-3.1284;
350.7000;0.6903;-3.1085;
351.0000;0.6927;-3.1110;
351.3000;0.6927;-3.1135;
351.6000;0.6935;-3.1209;
351.9000;0.6968;-3.1135;
352.2000;0.6976;-3.1135;
352.5000;0.6886;-3.1383;
352.8000;0.6960;-3.1234;
353.1000;0.6919;-3.1358;
353.4000;0.6927;-3.1383;
353.7000;0.6903;-3.1433;
354.0000;0.6919;-3.1334;
354.3000;0.6935;-3.1284;
354.6000;0.6919;-3.1234;
354.9000;0.6919;-3.1234;
355.2000;0.6919;-3.1135;
355.5000;0.7000;-3.0961;
355.8000;0.6943;-3.1160;
356.1000;0.6927;-3.1209;
356.4000;0.6976;-3.1135;
356.7000;0.6943;-3.1259;
357.0000;0.7041;-3.1010;
357.3000;0.6927;-3.1309;
357.6000;0.6919;-3.1334;
357.9000;0.6935;-3.1160;
358.2000;0.6935;-3.1085;
358.5000;0.6854;-3.1433;
358.8000;0.6911;-3.1334;
359.1000;0.6911;-3.1433;
359.4000;0.6919;-3.1383;
359.7000;0.6911;-3.1408;
360.0000;0.6911;-3.1433;
360.3000;0.6919;-3.1433;
360.6000;0.6919;-3.1433;
360.9000;0.6919;-3.1383;
361.2000;0.6927;-3.1209;
361.5000;0.6919;-3.1209;
361.8000;0.6935;-3.1160;
362.1000;0.6895;-3.1234;
362.4000;0.6927;-3.1234;
362.7000;0.6911;-3.1234;
363.0000;0.6927;-3.1160;
363.3000;0.6935;-3.1035;
363.6000;0.6911;-3.1060;
363.9000;0.6927;-3.0961;
364.2000;0.6952;-3.0861;
364.5000;0.6927;-3.0985;
364.8000;0.6943;-3.0985;
365.1000;0.6919;-3.1060;
365.4000;0.6927;-3.1060;
365.7000;0.6911;-3.1184;
366.0000;0.6927;-3.1010;
366.3000;0.6927;-3.1184;
366.6000;0.6927;-3.1160;
366.9000;0.6919;-3.1309;
367.2000;0.6919;-3.1334;
367.5000;0.6927;-3.1309;
367.8000;0.6935;-3.1259;
368.1000;0.6943;-3.1259;
368.4000;0.6911;-3.1334;
368.7000;0.6903;-3.1383;
369.0000;0.6952;-3.1184;
369.3000;0.6903;-3.1209;
369.6000;0.6968;-3.1010;
369.9000;0.6903;-3.1234;
370.2000;0.6927;-3.1284;
370.5000;0.6903;-3.1334;
370.8000;0.6813;-3.1582;
371.1000;0.6919;-3.1209;
371.4000;0.6903;-3.1234;
371.7000;0.6935;-3.1160;
372.0000;0.6895;-3.1334;
372.3000;0.6886;-3.1433;
372.6000;0.6919;-3.1334;
372.9000;0.6976;-3.1160;
373.2000;0.6935;-3.1184;
373.5000;0.6952;-3.1160;
373.8000;0.6943;-3.1234;
374.1000;0.6927;-3.1259;
374.4000;0.6919;-3.1309;
374.7000;0.6838;-3.1657;
375.0000;0.6919;-3.1483;
375.3000;0.6781;-3.1731;
375.6000;0.6911;-3.1458;
375.9000;0.6911;-3.1383;
376.2000;0.6911;-3.1334;
376.5000;0.6919;-3.1433;
376.8000;0.6903;-3.1557;
377.1000;0.6911;-3.1557;
377.4000;0.6935;-3.1483;
377.7000;0.6919;-3.1408;
378.0000;0.6878;-3.1582;
378.3000;0.6886;-3.1557;
378.6000;0.6927;-3.1433;
378.9000;0.6878;-3.1483;
379.2000;0.6903;-3.1483;
379.5000;0.6919;-3.1383;
379.8000;0.6960;-3.1284;
380.1000;0.6927;-3.1358;
380.4000;0.6943;-3.1334;
380.7000;0.6927;-3.1334;
381.0000;0.6911;-3.1383;
381.3000;0.6919;-3.1358;
381.6000;0.6911;-3.1309;
381.9000;0.6911;-3.1334;
382.2000;0.6903;-3.1433;
382.5000;0.6895;-3.1408;
382.8000;0.6911;-3.1334;
383.1000;0.6903;-3.1408;
383.4000;0.6895;-3.1383;
383.7000;0.6919;-3.1383;
384.0000;0.6919;-3.1483;
384.3000;0.6903;-3.1533;
384.6000;0.6943;-3.1458;
384.9000;0.6911;-3.1557;
385.2000;0.6919;-3.1557;
385.5000;0.6976;-3.1334;
385.8000;0.6919;-3.1483;
386.1000;0.6919;-3.1533;
386.4000;0.6911;-3.1557;
386.7000;0.6919;-3.1582;
387.0000;0.6952;-3.1408;
387.3000;0.6927;-3.1557;
387.6000;0.6919;-3.1557;
387.9000;0.6911;-3.1557;
388.2000;0.6903;-3.1582;
388.5000;0.6919;-3.1533;
388.8000;0.6903;-3.1533;
389.1000;0.6903;-3.1533;
389.4000;0.6911;-3.1557;
389.7000;0.6886;-3.1508;
390.0000;0.6911;-3.1408;
390.3000;0.6911;-3.1334;
390.6000;0.6919;-3.1334;
390.9000;0.6976;-3.1085;
391.2000;0.6895;-3.1284;
391.5000;0.6919;-3.1284;
391.8000;0.6895;-3.1334;
392.1000;0.6927;-3.1259;
392.4000;0.6911;-3.1259;
392.7000;0.6927;-3.1259;
393.0000;0.6919;-3.1259;
393.3000;0.6919;-3.1234;
393.6000;0.6911;-3.1334;
393.9000;0.6968;-3.1259;
394.2000;0.6895;-3.1557;
394.5000;0.6903;-3.1458;
394.8000;0.6911;-3.1458;
395.1000;0.6919;-3.1508;
395.4000;0.6911;-3.1483;
395.7000;0.6911;-3.1557;
396.0000;0.6935;-3.1483;
396.3000;0.6935;-3.1334;
396.6000;0.6846;-3.1582;
396.9000;0.6911;-3.1433;
397.2000;0.6911;-3.1408;
397.5000;0.6911;-3.1309;
397.8000;0.6919;-3.1383;
398.1000;0.6927;-3.1408;
398.4000;0.6911;-3.1483;
398.7000;0.6911;-3.1408;
399.0000;0.6919;-3.1408;
399.3000;0.6903;-3.1408;
399.6000;0.6878;-3.1508;
399.9000;0.6919;-3.1383;
400.2000;0.6911;-3.1358;
400.5000;0.6903;-3.1259;
400.8000;0.6911;-3.1184;
401.1000;0.6919;-3.1234;
401.4000;0.6854;-3.1508;
401.7000;0.6911;-3.1383;
402.0000;0.6911;-3.1533;
402.3000;0.6919;-3.1458;
402.6000;0.6895;-3.1458;
402.9000;0.6927;-3.1284;
403.2000;0.6903;-3.1309;
403.5000;0.6903;-3.1334;
403.8000;0.6919;-3.1334;
404.1000;0.6895;-3.1334;
404.4000;0.6903;-3.1284;
404.7000;0.6895;-3.1334;
405.0000;0.6911;-3.1259;
405.3000;0.6919;-3.1259;
405.6000;0.6919;-3.1259;
405.9000;0.6903;-3.1309;
406.2000;0.6903;-3.1309;
406.5000;0.6895;-3.1334;
406.8000;0.6911;-3.1309;
407.1000;0.6886;-3.1334;
407.4000;0.6911;-3.1209;
407.7000;0.6903;-3.1284;
408.0000;0.6903;-3.1234;
408.3000;0.6911;-3.1184;
408.6000;0.6903;-3.1259;
408.9000;0.6911;-3.1184;
409.2000;0.6927;-3.1160;
409.5000;0.6911;-3.1234;
409.8000;0.6895;-3.1234;
410.1000;0.6903;-3.1184;
410.4000;0.6927;-3.1060;
410.7000;0.6911;-3.1085;
411.0000;0.6919;-3.1085;
411.3000;0.6919;-3.1110;
411.6000;0.6919;-3.1209;
411.9000;0.6960;-3.1035;
412.2000;0.6895;-3.1234;
412.5000;0.6911;-3.1184;
412.8000;0.6919;-3.1209;
413.1000;0.6919;-3.1358;
413.4000;0.6903;-3.1483;
413.7000;0.6903;-3.1458;
414.0000;0.6919;-3.1433;
414.3000;0.6927;-3.1557;
414.6000;0.6870;-3.1806;
414.9000;0.6903;-3.1657;
415.2000;0.6895;-3.1533;
415.5000;0.6960;-3.1358;
415.8000;0.6919;-3.1383;
416.1000;0.6911;-3.1408;
416.4000;0.6903;-3.1458;
416.7000;0.6895;-3.1383;
417.0000;0.6821;-3.1533;
417.3000;0.6895;-3.1358;
417.6000;0.6919;-3.1334;
417.9000;0.6878;-3.1458;
418.2000;0.6895;-3.1383;
418.5000;0.6927;-3.1383;
418.8000;0.6911;-3.1508;
419.1000;0.6895;-3.1557;
419.4000;0.6911;-3.1533;
419.7000;0.6927;-3.1533;
420.0000;0.6911;-3.1557;
420.3000;0.6911;-3.1582;
420.6000;0.6919;-3.1533;
420.9000;0.6935;-3.1508;
421.2000;0.6919;-3.1433;
421.5000;0.6984;-3.1309;
421.8000;0.6903;-3.1533;
422.1000;0.6911;-3.1533;
422.4000;0.6919;-3.1533;
422.7000;0.6903;-3.1557;
423.0000;0.6911;-3.1508;
423.3000;0.6911;-3.1508;
423.6000;0.6903;-3.1483;
423.9000;0.6903;-3.1483;
424.2000;0.6903;-3.1508;
424.5000;0.6919;-3.1433;
424.8000;0.6927;-3.1408;
425.1000;0.6911;-3.1483;
425.4000;0.6903;-3.1508;
425.7000;0.6903;-3.1508;
426.0000;0.6927;-3.1433;
426.3000;0.6919;-3.1408;
426.6000;0.6911;-3.1309;
426.9000;0.6927;-3.1259;
427.2000;0.6903;-3.1334;
427.5000;0.6854;-3.1533;
427.8000;0.6911;-3.1433;
428.1000;0.6919;-3.1383;
428.4000;0.6919;-3.1358;
428.7000;0.6919;-3.1309;
429.0000;0.6895;-3.1383;
429.3000;0.6927;-3.1284;
429.6000;0.6919;-3.1259;
429.9000;0.6919;-3.1358;
430.2000;0.6903;-3.1334;
430.5000;0.6886;-3.1408;
430.8000;0.6895;-3.1433;
431.1000;0.6903;-3.1458;
431.4000;0.6927;-3.1408;
431.7000;0.6919;-3.1358;
432.0000;0.6911;-3.1334;
432.3000;0.6911;-3.1309;
432.6000;0.6919;-3.1383;
432.9000;0.6919;-3.1358;
433.2000;0.6895;-3.1383;
433.5000;0.6903;-3.1334;
433.8000;0.6919;-3.1309;
434.1000;0.6984;-3.1085;
434.4000;0.6878;-3.1358;
434.7000;0.6886;-3.1334;
435.0000;0.6886;-3.1284;
435.3000;0.6935;-3.1184;
435.6000;0.6903;-3.1259;
435.9000;0.6927;-3.1234;
436.2000;0.6886;-3.1334;
436.5000;0.6895;-3.1383;
436.8000;0.6903;-3.1334;
437.1000;0.6903;-3.1309;
437.4000;0.6943;-3.1234;
437.7000;0.6935;-3.1458;
438.0000;0.6911;-3.1557;
438.3000;0.6886;-3.1483;
438.6000;0.6895;-3.1483;
438.9000;0.6895;-3.1433;
439.2000;0.6919;-3.1358;
439.5000;0.6927;-3.1334;
439.8000;0.6919;-3.1334;
440.1000;0.6919;-3.1358;
440.4000;0.6911;-3.1284;
440.7000;0.6911;-3.1259;
441.0000;0.6911;-3.1309;
441.3000;0.6886;-3.1408;
441.6000;0.6895;-3.1433;
441.9000;0.6952;-3.1408;
442.2000;0.6903;-3.1557;
442.5000;0.6911;-3.1508;
442.8000;0.6935;-3.1458;
443.1000;0.6919;-3.1483;
443.4000;0.6886;-3.1433;
443.7000;0.6919;-3.1284;
444.0000;0.6919;-3.1383;
444.3000;0.6911;-3.1483;
444.6000;0.6919;-3.1483;
444.9000;0.6911;-3.1557;
445.2000;0.6895;-3.1682;
445.5000;0.6886;-3.1682;
445.8000;0.6911;-3.1582;
446.1000;0.6903;-3.1533;
446.4000;0.6886;-3.1533;
446.7000;0.6911;-3.1533;
447.0000;0.6903;-3.1483;
447.3000;0.6903;-3.1433;
447.6000;0.6911;-3.1433;
447.9000;0.6886;-3.1483;
448.2000;0.6846;-3.1607;
448.5000;0.6911;-3.1483;
448.8000;0.6919;-3.1508;
449.1000;0.6878;-3.1632;
449.4000;0.6911;-3.1632;
449.7000;0.6911;-3.1557;
450.0000;0.6903;-3.1508;
450.3000;0.6903;-3.1557;
450.6000;0.6903;-3.1632;
450.9000;0.6895;-3.1657;
451.2000;0.6919;-3.1657;
451.5000;0.6903;-3.1607;
451.8000;0.6911;-3.1632;
452.1000;0.6911;-3.1657;
452.4000;0.6886;-3.1707;
452.7000;0.6895;-3.1607;
453.0000;0.6895;-3.1582;
453.3000;0.6895;-3.1582;
453.6000;0.6919;-3.1557;
453.9000;0.6870;-3.1657;
454.2000;0.6886;-3.1557;
454.5000;0.6927;-3.1458;
454.8000;0.6911;-3.1458;
455.1000;0.6895;-3.1433;
455.4000;0.6911;-3.1458;
455.7000;0.6886;-3.1458;
456.0000;0.6984;-3.1209;
456.3000;0.6960;-3.1358;
456.6000;0.6903;-3.1458;
456.9000;0.6903;-3.1458;
457.2000;0.6886;-3.1508;
457.5000;0.6886;-3.1433;
457.8000;0.6903;-3.1309;
458.1000;0.6829;-3.1483;
458.4000;0.6903;-3.1408;
458.7000;0.6903;-3.1383;
459.0000;0.6992;-3.1060;
459.3000;0.6886;-3.1309;
459.6000;0.6886;-3.1309;
459.9000;0.6911;-3.1383;
460.2000;0.6968;-3.1259;
460.5000;0.6911;-3.1383;
460.8000;0.6911;-3.1234;
461.1000;0.6895;-3.1309;
461.4000;0.6903;-3.1259;
461.7000;0.6919;-3.1184;
462.0000;0.6895;-3.1334;
462.3000;0.6903;-3.1383;
462.6000;0.6895;-3.1358;
462.9000;0.6919;-3.1309;
463.2000;0.6903;-3.1284;
463.5000;0.6919;-3.1284;
463.8000;0.6903;-3.1234;
464.1000;0.6886;-3.1160;
464.4000;0.6886;-3.1209;
464.7000;0.6886;-3.1284;
465.0000;0.6903;-3.1358;
465.3000;0.6895;-3.1408;
465.6000;0.6968;-3.1309;
465.9000;0.6886;-3.1557;
466.2000;0.6886;-3.1582;
466.5000;0.6919;-3.1533;
466.8000;0.6935;-3.1483;
467.1000;0.6911;-3.1557;
467.4000;0.6895;-3.1508;
467.7000;0.6878;-3.1408;
468.0000;0.6903;-3.1334;
468.3000;0.6895;-3.1334;
468.6000;0.6919;-3.1334;
468.9000;0.6895;-3.1458;
469.2000;0.6878;-3.1508;
469.5000;0.6911;-3.1508;
469.8000;0.6886;-3.1582;
470.1000;0.6903;-3.1557;
470.4000;0.6927;-3.1458;
470.7000;0.6903;-3.1557;
471.0000;0.6903;-3.1533;
471.3000;0.6919;-3.1458;
471.6000;0.6895;-3.1433;
471.9000;0.6886;-3.1383;
472.2000;0.6878;-3.1383;
472.5000;0.6878;-3.1433;
472.8000;0.6919;-3.1383;
473.1000;0.6895;-3.1383;
473.4000;0.6878;-3.1433;
473.7000;0.6895;-3.1508;
474.0000;0.6886;-3.1508;
474.3000;0.6911;-3.1483;
474.6000;0.6895;-3.1483;
474.9000;0.6886;-3.1483;
475.2000;0.6895;-3.1358;
475.5000;0.6911;-3.1334;
475.8000;0.6886;-3.1334;
476.1000;0.6911;-3.1284;
476.4000;0.6886;-3.1334;
476.7000;0.6943;-3.1234;
477.0000;0.6911;-3.1284;
477.3000;0.6870;-3.1284;
477.6000;0.6895;-3.1284;
477.9000;0.6870;-3.1383;
478.2000;0.6878;-3.1383;
478.5000;0.6927;-3.1284;
478.8000;0.6895;-3.1483;
479.1000;0.6895;-3.1483;
479.4000;0.6862;-3.1582;
479.7000;0.6895;-3.1607;
480.0000;0.6895;-3.1582;
480.3000;0.6935;-3.1533;
480.6000;0.6895;-3.1607;
480.9000;0.6903;-3.1582;
481.2000;0.6903;-3.1557;
481.5000;0.6870;-3.1632;
481.8000;0.6895;-3.1533;
482.1000;0.6911;-3.1483;
482.4000;0.6886;-3.1508;
482.7000;0.6886;-3.1483;
483.0000;0.6903;-3.1383;
483.3000;0.6903;-3.1383;
483.6000;0.6886;-3.1408;
483.9000;0.6903;-3.1358;
484.2000;0.6895;-3.1557;
484.5000;0.6903;-3.1557;
484.8000;0.6911;-3.1433;
485.1000;0.6903;-3.1458;
485.4000;0.6895;-3.1508;
485.7000;0.6903;-3.1533;
486.0000;0.6903;-3.1483;
486.3000;0.6911;-3.1458;
486.6000;0.6911;-3.1483;
486.9000;0.6911;-3.1408;
487.2000;0.6886;-3.1433;
487.5000;0.6903;-3.1458;
487.8000;0.6911;-3.1433;
488.1000;0.6952;-3.1309;
488.4000;0.6903;-3.1433;
488.7000;0.6919;-3.1483;
489.0000;0.6903;-3.1533;
489.3000;0.6935;-3.1483;
489.6000;0.6903;-3.1607;
489.9000;0.6895;-3.1607;
490.2000;0.6870;-3.1682;
490.5000;0.6903;-3.1632;
490.8000;0.6903;-3.1657;
491.1000;0.6911;-3.1632;
491.4000;0.6911;-3.1582;
491.7000;0.6911;-3.1607;
492.0000;0.6903;-3.1607;
492.3000;0.6911;-3.1508;
492.6000;0.6886;-3.1557;
492.9000;0.6911;-3.1557;
493.2000;0.6878;-3.1582;
493.5000;0.6911;-3.1682;
493.8000;0.6878;-3.1781;
494.1000;0.6886;-3.1731;
494.4000;0.6895;-3.1657;
494.7000;0.6878;-3.1707;
495.0000;0.6886;-3.1707;
495.3000;0.6911;-3.1707;
495.6000;0.6903;-3.1657;
495.9000;0.6878;-3.1607;
496.2000;0.6870;-3.1508;
496.5000;0.6886;-3.1483;
496.8000;0.6886;-3.1383;
497.1000;0.6895;-3.1358;
497.4000;0.6903;-3.1433;
497.7000;0.6878;-3.1533;
498.0000;0.6903;-3.1383;
498.3000;0.6895;-3.1383;
498.6000;0.6895;-3.1483;
498.9000;0.6878;-3.1557;
499.2000;0.6927;-3.1433;
499.5000;0.6886;-3.1408;
499.8000;0.6895;-3.1309;
500.1000;0.6903;-3.1309;
500.4000;0.6903;-3.1334;
500.7000;0.6919;-3.1309;
501.0000;0.6903;-3.1259;
501.3000;0.6886;-3.1334;
501.6000;0.6927;-3.1309;
501.9000;0.6903;-3.1458;
502.2000;0.6919;-3.1483;
502.5000;0.6927;-3.1607;
502.8000;0.6886;-3.1731;
503.1000;0.6895;-3.1657;
503.4000;0.6886;-3.1731;
503.7000;0.6895;-3.1731;
504.0000;0.6870;-3.1756;
504.3000;0.6862;-3.1731;
504.6000;0.6838;-3.1806;
504.9000;0.6911;-3.1533;
505.2000;0.6952;-3.1383;
505.5000;0.6886;-3.1508;
505.8000;0.6862;-3.1483;
506.1000;0.6903;-3.1383;
506.4000;0.6870;-3.1508;
506.7000;0.6903;-3.1458;
507.0000;0.6870;-3.1533;
507.3000;0.6911;-3.1483;
507.6000;0.6886;-3.1508;
507.9000;0.6911;-3.1458;
508.2000;0.6870;-3.1508;
508.5000;0.6895;-3.1458;
508.8000;0.6919;-3.1433;
509.1000;0.6886;-3.1458;
509.4000;0.6911;-3.1383;
509.7000;0.6886;-3.1433;
510.0000;0.6911;-3.1383;
510.3000;0.6886;-3.1508;
510.6000;0.6886;-3.1433;
510.9000;0.6829;-3.1483;
511.2000;0.6919;-3.1209;
511.5000;0.6903;-3.1284;
511.8000;0.6829;-3.1508;
512.1000;0.6895;-3.1284;
512.4000;0.6903;-3.1234;
512.7000;0.6911;-3.1259;
513.0000;0.6886;-3.1334;
513.3000;0.6927;-3.1309;
513.6000;0.6895;-3.1483;
513.9000;0.6960;-3.1334;
514.2000;0.6878;-3.1508;
514.5000;0.6895;-3.1483;
514.8000;0.6886;-3.1458;
515.1000;0.6886;-3.1483;
515.4000;0.6895;-3.1508;
515.7000;0.6878;-3.1557;
516.0000;0.6903;-3.1458;
516.3000;0.6911;-3.1458;
516.6000;0.6895;-3.1458;
516.9000;0.6960;-3.1259;
517.2000;0.6895;-3.1334;
517.5000;0.6878;-3.1383;
517.8000;0.6870;-3.1383;
518.1000;0.6870;-3.1408;
518.4000;0.6878;-3.1458;
518.7000;0.6886;-3.1508;
519.0000;0.6895;-3.1508;
519.3000;0.6886;-3.1582;
519.6000;0.6903;-3.1533;
519.9000;0.6895;-3.1508;
520.2000;0.6895;-3.1557;
520.5000;0.6919;-3.1433;
520.8000;0.6911;-3.1433;
521.1000;0.6919;-3.1483;
521.4000;0.6895;-3.1483;
521.7000;0.6911;-3.1533;
522.0000;0.6878;-3.1607;
522.3000;0.6903;-3.1632;
522.6000;0.6903;-3.1607;
522.9000;0.6927;-3.1557;
523.2000;0.6886;-3.1657;
523.5000;0.6886;-3.1731;
523.8000;0.6862;-3.1856;
524.1000;0.6903;-3.1682;
524.4000;0.6895;-3.1707;
524.7000;0.6870;-3.1707;
525.0000;0.6886;-3.1682;
525.3000;0.6895;-3.1682;
525.6000;0.6919;-3.1533;
525.9000;0.6895;-3.1607;
526.2000;0.6895;-3.1632;
526.5000;0.6886;-3.1657;
526.8000;0.6886;-3.1682;
527.1000;0.6846;-3.1806;
527.4000;0.6878;-3.1682;
527.7000;0.6886;-3.1632;
528.0000;0.6838;-3.1806;
528.3000;0.6878;-3.1582;
528.6000;0.6927;-3.1533;
528.9000;0.6870;-3.1707;
529.2000;0.6870;-3.1607;
529.5000;0.6878;-3.1508;
529.8000;0.6903;-3.1557;
530.1000;0.6870;-3.1657;
530.4000;0.6895;-3.1483;
530.7000;0.6895;-3.1408;
531.0000;0.6886;-3.1383;
531.3000;0.6886;-3.1334;
531.6000;0.6886;-3.1284;
531.9000;0.6862;-3.1383;
532.2000;0.6895;-3.1259;
532.5000;0.6895;-3.1309;
532.8000;0.6886;-3.1309;
533.1000;0.6903;-3.1259;
533.4000;0.6903;-3.1309;
533.7000;0.6935;-3.1259;
534.0000;0.6886;-3.1408;
534.3000;0.6911;-3.1433;
534.6000;0.6927;-3.1458;
534.9000;0.6903;-3.1557;
535.2000;0.6878;-3.1632;
535.5000;0.6935;-3.1458;
535.8000;0.6886;-3.1483;
536.1000;0.6911;-3.1433;
536.4000;0.6870;-3.1508;
536.7000;0.6886;-3.1508;
537.0000;0.6878;-3.1557;
537.3000;0.6968;-3.1433;
537.6000;0.6886;-3.1682;
537.9000;0.6886;-3.1756;
538.2000;0.6895;-3.1831;
538.5000;0.6846;-3.1806;
538.8000;0.6870;-3.1756;
539.1000;0.6886;-3.1707;
539.4000;0.6903;-3.1632;
539.7000;0.6895;-3.1657;
540.0000;0.6903;-3.1607;
540.3000;0.6919;-3.1607;
540.6000;0.6911;-3.1582;
540.9000;0.6903;-3.1632;
541.2000;0.6895;-3.1582;
541.5000;0.6886;-3.1607;
541.8000;0.6878;-3.1781;
542.1000;0.6878;-3.1707;
542.4000;0.6838;-3.1707;
542.7000;0.6886;-3.1582;
543.0000;0.6895;-3.1557;
543.3000;0.6878;-3.1557;
543.6000;0.6895;-3.1533;
543.9000;0.6903;-3.1557;
544.2000;0.6895;-3.1632;
544.5000;0.6903;-3.1582;
544.8000;0.6895;-3.1607;
545.1000;0.6919;-3.1557;
545.4000;0.6903;-3.1582;
545.7000;0.6886;-3.1607;
546.0000;0.6878;-3.1557;
546.3000;0.6870;-3.1557;
546.6000;0.6919;-3.1433;
546.9000;0.6854;-3.1557;
547.2000;0.6862;-3.1508;
547.5000;0.6895;-3.1433;
547.8000;0.6935;-3.1408;
548.1000;0.6870;-3.1557;
548.4000;0.6878;-3.1607;
548.7000;0.6878;-3.1607;
549.0000;0.6919;-3.1458;
549.3000;0.6903;-3.1508;
549.6000;0.6903;-3.1533;
549.9000;0.6911;-3.1458;
550.2000;0.6895;-3.1383;
550.5000;0.6878;-3.1408;
550.8000;0.6886;-3.1408;
551.1000;0.6862;-3.1408;
551.4000;0.6878;-3.1458;
551.7000;0.6895;-3.1483;
552.0000;0.6862;-3.1508;
552.3000;0.6870;-3.1582;
552.6000;0.6870;-3.1632;
552.9000;0.6862;-3.1582;
553.2000;0.6870;-3.1408;
553.5000;0.6870;-3.1408;
553.8000;0.6862;-3.1408;
554.1000;0.6903;-3.1458;
554.4000;0.6895;-3.1458;
554.7000;0.6878;-3.1408;
555.0000;0.6886;-3.1383;
555.3000;0.6886;-3.1433;
555.6000;0.6895;-3.1508;
555.9000;0.6968;-3.1483;
556.2000;0.6895;-3.1607;
556.5000;0.6895;-3.1582;
556.8000;0.6927;-3.1533;
557.1000;0.6903;-3.1533;
557.4000;0.6895;-3.1582;
557.7000;0.6903;-3.1557;
558.0000;0.6919;-3.1508;
558.3000;0.6903;-3.1508;
558.6000;0.6919;-3.1458;
558.9000;0.6903;-3.1582;
559.2000;0.6895;-3.1582;
559.5000;0.6903;-3.1508;
559.8000;0.6927;-3.1408;
560.1000;0.6903;-3.1408;
560.4000;0.6919;-3.1383;
560.7000;0.6838;-3.1557;
561.0000;0.6895;-3.1383;
561.3000;0.6895;-3.1334;
561.6000;0.6846;-3.1408;
561.9000;0.6886;-3.1284;
562.2000;0.6886;-3.1284;
562.5000;0.6886;-3.1358;
562.8000;0.6886;-3.1334;
563.1000;0.6862;-3.1408;
563.4000;0.6878;-3.1483;
563.7000;0.6862;-3.1533;
564.0000;0.6870;-3.1483;
564.3000;0.6903;-3.1334;
564.6000;0.6895;-3.1284;
564.9000;0.6886;-3.1309;
565.2000;0.6862;-3.1458;
565.5000;0.6878;-3.1557;
565.8000;0.6870;-3.1607;
566.1000;0.6878;-3.1657;
566.4000;0.6903;-3.1557;
566.7000;0.6878;-3.1557;
567.0000;0.6862;-3.1557;
567.3000;0.6895;-3.1433;
567.6000;0.6878;-3.1408;
567.9000;0.6862;-3.1383;
568.2000;0.6862;-3.1358;
568.5000;0.6838;-3.1458;
568.8000;0.6886;-3.1334;
569.1000;0.6870;-3.1358;
569.4000;0.6870;-3.1383;
569.7000;0.6903;-3.1209;
570.0000;0.6919;-3.1259;
570.3000;0.6870;-3.1358;
570.6000;0.6895;-3.1284;
570.9000;0.6895;-3.1284;
571.2000;0.6886;-3.1184;
571.5000;0.6886;-3.1234;
571.8000;0.6878;-3.1334;
572.1000;0.6878;-3.1309;
572.4000;0.6805;-3.1483;
572.7000;0.6895;-3.1259;
573.0000;0.6903;-3.1309;
573.3000;0.6886;-3.1358;
573.6000;0.6829;-3.1408;
573.9000;0.6870;-3.1383;
574.2000;0.6870;-3.1383;
574.5000;0.6886;-3.1334;
574.8000;0.6878;-3.1358;
575.1000;0.6870;-3.1483;
575.4000;0.6870;-3.1508;
575.7000;0.6878;-3.1508;
576.0000;0.6862;-3.1533;
576.3000;0.6862;-3.1557;
576.6000;0.6878;-3.1433;
576.9000;0.6878;-3.1458;
577.2000;0.6862;-3.1533;
577.5000;0.6854;-3.1557;
577.8000;0.6886;-3.1508;
578.1000;0.6903;-3.1458;
578.4000;0.6911;-3.1358;
578.7000;0.6886;-3.1383;
579.0000;0.6886;-3.1358;
579.3000;0.6911;-3.1334;
579.6000;0.6886;-3.1383;
579.9000;0.6870;-3.1358;
580.2000;0.6870;-3.1408;
580.5000;0.6903;-3.1508;
580.8000;0.6903;-3.1533;
581.1000;0.6886;-3.1483;
581.4000;0.6903;-3.1458;
581.7000;0.6854;-3.1632;
582.0000;0.6895;-3.1458;
582.3000;0.6886;-3.1483;
582.6000;0.6895;-3.1408;
582.9000;0.6935;-3.1334;
583.2000;0.6903;-3.1408;
583.5000;0.6870;-3.1458;
583.8000;0.6846;-3.1483;
584.1000;0.6943;-3.1234;
584.4000;0.6862;-3.1458;
584.7000;0.6813;-3.1607;
585.0000;0.6895;-3.1408;
585.3000;0.6911;-3.1408;
585.6000;0.6870;-3.1508;
585.9000;0.6870;-3.1433;
586.2000;0.6829;-3.1508;
586.5000;0.6878;-3.1408;
586.8000;0.6878;-3.1458;
587.1000;0.6878;-3.1508;
587.4000;0.6821;-3.1657;
587.7000;0.6886;-3.1458;
588.0000;0.6895;-3.1483;
588.3000;0.6927;-3.1433;
588.6000;0.6886;-3.1508;
588.9000;0.6878;-3.1533;
589.2000;0.6870;-3.1582;
589.5000;0.6886;-3.1582;
589.8000;0.6911;-3.1582;
590.1000;0.6878;-3.1607;
590.4000;0.6886;-3.1533;
590.7000;0.6911;-3.1433;
591.0000;0.6878;-3.1309;
591.3000;0.6870;-3.1358;
591.6000;0.6870;-3.1309;
591.9000;0.6895;-3.1284;
592.2000;0.6886;-3.1184;
592.5000;0.6878;-3.1209;
592.8000;0.6870;-3.1234;
593.1000;0.6797;-3.1458;
593.4000;0.6886;-3.1309;
593.7000;0.6870;-3.1408;
594.0000;0.6870;-3.1458;
594.3000;0.6895;-3.1383;
594.6000;0.6854;-3.1533;
594.9000;0.6935;-3.1334;
595.2000;0.6870;-3.1458;
595.5000;0.6846;-3.1458;
595.8000;0.6870;-3.1408;
596.1000;0.6895;-3.1433;
596.4000;0.6895;-3.1458;
596.7000;0.6870;-3.1358;
597.0000;0.6862;-3.1358;
597.3000;0.6878;-3.1334;
597.6000;0.6829;-3.1458;
597.9000;0.6854;-3.1458;
598.2000;0.6886;-3.1383;
598.5000;0.6895;-3.1309;
598.8000;0.6862;-3.1383;
599.1000;0.6886;-3.1383;
599.4000;0.6895;-3.1358;
599.7000;0.6878;-3.1284;
600.0000;0.6870;-3.1309;
600.3000;0.6813;-3.1408;
600.6000;0.6838;-3.1508;
600.9000;0.6838;-3.1483;
601.2000;0.6821;-3.1607;
601.5000;0.6756;-3.1756;
601.8000;0.6732;-3.1856;
602.1000;0.6659;-3.2104;
602.4000;0.6634;-3.2353;
602.7000;0.6602;-3.2453;
603.0000;0.6569;-3.2577;
603.3000;0.6504;-3.2726;
603.6000;0.6463;-3.2851;
603.9000;0.6382;-3.3074;
604.2000;0.6382;-3.3124;
604.5000;0.6317;-3.3273;
604.8000;0.6309;-3.3248;
605.1000;0.6300;-3.3348;
605.4000;0.6227;-3.3497;
605.7000;0.6121;-3.3671;
606.0000;0.6186;-3.3447;
606.3000;0.6138;-3.3522;
606.6000;0.6113;-3.3547;
606.9000;0.6138;-3.3472;
607.2000;0.6089;-3.3547;
607.5000;0.5999;-3.3746;
607.8000;0.6072;-3.3572;
608.1000;0.5975;-3.3796;
608.4000;0.5950;-3.3721;
608.7000;0.5958;-3.3746;
609.0000;0.5926;-3.3771;
609.3000;0.5893;-3.3870;
609.6000;0.5869;-3.3870;
609.9000;0.5845;-3.3845;
610.2000;0.5836;-3.3870;
610.5000;0.5804;-3.3845;
610.8000;0.5788;-3.3895;
611.1000;0.5763;-3.3895;
611.4000;0.5722;-3.3920;
611.7000;0.5731;-3.3870;
612.0000;0.5714;-3.3920;
612.3000;0.5706;-3.3920;
612.6000;0.5698;-3.3870;
612.9000;0.5674;-3.3895;
613.2000;0.5665;-3.3820;
613.5000;0.5641;-3.3845;
613.8000;0.5617;-3.3994;
614.1000;0.5641;-3.3920;
614.4000;0.5600;-3.3994;
614.7000;0.5592;-3.3994;
615.0000;0.5568;-3.4094;
615.3000;0.5551;-3.4094;
615.6000;0.5543;-3.4094;
615.9000;0.5503;-3.4169;
616.2000;0.5503;-3.4144;
616.5000;0.5503;-3.4144;
616.8000;0.5454;-3.4218;
617.1000;0.5470;-3.4193;
617.4000;0.5454;-3.4218;
617.7000;0.5454;-3.4144;
618.0000;0.5429;-3.4193;
618.3000;0.5421;-3.4218;
618.6000;0.5429;-3.4169;
618.9000;0.5381;-3.4193;
619.2000;0.5429;-3.4193;
619.5000;0.5372;-3.4392;
619.8000;0.5324;-3.4492;
620.1000;0.5348;-3.4467;
620.4000;0.5315;-3.4417;
620.7000;0.5291;-3.4367;
621.0000;0.5315;-3.4243;
621.3000;0.5291;-3.4243;
621.6000;0.5210;-3.4442;
621.9000;0.5332;-3.4119;
622.2000;0.5315;-3.4193;
622.5000;0.5250;-3.4293;
622.8000;0.5307;-3.4044;
623.1000;0.5169;-3.4318;
623.4000;0.5226;-3.4193;
623.7000;0.5185;-3.4343;
624.0000;0.5210;-3.4318;
624.3000;0.5185;-3.4293;
624.6000;0.5169;-3.4318;
624.9000;0.5210;-3.4144;
625.2000;0.5193;-3.4243;
625.5000;0.5193;-3.4218;
625.8000;0.5161;-3.4318;
626.1000;0.5136;-3.4318;
626.4000;0.5153;-3.4293;
626.7000;0.5144;-3.4343;
627.0000;0.5144;-3.4467;
627.3000;0.5120;-3.4517;
627.6000;0.5136;-3.4442;
627.9000;0.5169;-3.4268;
628.2000;0.5112;-3.4367;
628.5000;0.5144;-3.4243;
628.8000;0.5104;-3.4218;
629.1000;0.5096;-3.4193;
629.4000;0.5104;-3.4193;
629.7000;0.5031;-3.4293;
630.0000;0.5112;-3.4144;
630.3000;0.5055;-3.4243;
630.6000;0.5047;-3.4293;
630.9000;0.5039;-3.4318;
631.2000;0.5031;-3.4318;
631.5000;0.4982;-3.4442;
631.8000;0.5022;-3.4367;
632.1000;0.4998;-3.4392;
632.4000;0.5014;-3.4442;
632.7000;0.4990;-3.4517;
633.0000;0.5014;-3.4517;
633.3000;0.4990;-3.4517;
633.6000;0.4990;-3.4467;
633.9000;0.4965;-3.4542;
634.2000;0.4965;-3.4566;
634.5000;0.4957;-3.4566;
634.8000;0.4941;-3.4641;
635.1000;0.4974;-3.4591;
635.4000;0.4917;-3.4691;
635.7000;0.4933;-3.4616;
636.0000;0.4925;-3.4542;
636.3000;0.4933;-3.4417;
636.6000;0.4949;-3.4392;
636.9000;0.4933;-3.4318;
637.2000;0.4933;-3.4318;
637.5000;0.4908;-3.4343;
637.8000;0.4933;-3.4318;
638.1000;0.4900;-3.4392;
638.4000;0.4900;-3.4392;
638.7000;0.4884;-3.4392;
639.0000;0.4884;-3.4492;
639.3000;0.4933;-3.4492;
639.6000;0.4917;-3.4542;
639.9000;0.4884;-3.4616;
640.2000;0.4876;-3.4517;
640.5000;0.4876;-3.4542;
640.8000;0.4868;-3.4517;
641.1000;0.4868;-3.4467;
641.4000;0.4827;-3.4542;
641.7000;0.4892;-3.4343;
642.0000;0.4892;-3.4268;
642.3000;0.4843;-3.4417;
642.6000;0.4819;-3.4467;
642.9000;0.4843;-3.4367;
643.2000;0.4868;-3.4367;
643.5000;0.4868;-3.4492;
643.8000;0.4843;-3.4517;
644.1000;0.4811;-3.4641;
644.4000;0.4827;-3.4517;
644.7000;0.4803;-3.4591;
645.0000;0.4794;-3.4566;
645.3000;0.4827;-3.4442;
645.6000;0.4689;-3.4840;
645.9000;0.4803;-3.4442;
646.2000;0.4746;-3.4542;
646.5000;0.4786;-3.4467;
646.8000;0.4762;-3.4517;
647.1000;0.4803;-3.4417;
647.4000;0.4754;-3.4591;
647.7000;0.4754;-3.4616;
648.0000;0.4778;-3.4492;
648.3000;0.4762;-3.4542;
648.6000;0.4697;-3.4740;
648.9000;0.4778;-3.4542;
649.2000;0.4819;-3.4467;
649.5000;0.4778;-3.4542;
649.8000;0.4786;-3.4442;
650.1000;0.4713;-3.4641;
650.4000;0.4746;-3.4616;
650.7000;0.4746;-3.4517;
651.0000;0.4770;-3.4467;
651.3000;0.4746;-3.4467;
651.6000;0.4737;-3.4492;
651.9000;0.4729;-3.4442;
652.2000;0.4705;-3.4442;
652.5000;0.4729;-3.4442;
652.8000;0.4721;-3.4392;
653.1000;0.4705;-3.4343;
653.4000;0.4713;-3.4293;
653.7000;0.4729;-3.4318;
654.0000;0.4729;-3.4193;
654.3000;0.4721;-3.4243;
654.6000;0.4721;-3.4268;
654.9000;0.4721;-3.4318;
655.2000;0.4713;-3.4417;
655.5000;0.4721;-3.4517;
655.8000;0.4713;-3.4417;
656.1000;0.4697;-3.4442;
656.4000;0.4705;-3.4417;
656.7000;0.4705;-3.4442;
657.0000;0.4664;-3.4566;
657.3000;0.4689;-3.4566;
657.6000;0.4672;-3.4492;
657.9000;0.4672;-3.4492;
658.2000;0.4689;-3.4492;
658.5000;0.4681;-3.4442;
658.8000;0.4664;-3.4467;
659.1000;0.4672;-3.4517;
659.4000;0.4632;-3.4591;
659.7000;0.4664;-3.4517;
660.0000;0.4681;-3.4467;
660.3000;0.4672;-3.4542;
660.6000;0.4656;-3.4566;
660.9000;0.4664;-3.4566;
661.2000;0.4648;-3.4641;
661.5000;0.4656;-3.4616;
661.8000;0.4648;-3.4517;
662.1000;0.4672;-3.4517;
662.4000;0.4632;-3.4591;
662.7000;0.4656;-3.4417;
663.0000;0.4648;-3.4492;
663.3000;0.4656;-3.4467;
663.6000;0.4648;-3.4442;
663.9000;0.4648;-3.4367;
664.2000;0.4632;-3.4442;
664.5000;0.4632;-3.4492;
664.8000;0.4648;-3.4542;
665.1000;0.4624;-3.4566;
665.4000;0.4656;-3.4492;
665.7000;0.4640;-3.4442;
666.0000;0.4632;-3.4367;
666.3000;0.4624;-3.4343;
666.6000;0.4624;-3.4243;
666.9000;0.4624;-3.4218;
667.2000;0.4624;-3.4243;
667.5000;0.4632;-3.4268;
667.8000;0.4640;-3.4268;
668.1000;0.4607;-3.4293;
668.4000;0.4607;-3.4318;
668.7000;0.4591;-3.4293;
669.0000;0.4607;-3.4318;
669.3000;0.4591;-3.4442;
669.6000;0.4567;-3.4542;
669.9000;0.4640;-3.4268;
670.2000;0.4550;-3.4492;
670.5000;0.4591;-3.4417;
670.8000;0.4656;-3.4318;
671.1000;0.4591;-3.4517;
671.4000;0.4599;-3.4492;
671.7000;0.4591;-3.4392;
672.0000;0.4640;-3.4268;
672.3000;0.4599;-3.4268;
672.6000;0.4567;-3.4243;
672.9000;0.4575;-3.4218;
673.2000;0.4599;-3.4218;
673.5000;0.4591;-3.4293;
673.8000;0.4607;-3.4243;
674.1000;0.4583;-3.4293;
674.4000;0.4599;-3.4268;
674.7000;0.4567;-3.4417;
675.0000;0.4591;-3.4392;
675.3000;0.4534;-3.4467;
675.6000;0.4542;-3.4566;
675.9000;0.4583;-3.4417;
676.2000;0.4550;-3.4467;
676.5000;0.4591;-3.4367;
676.8000;0.4575;-3.4492;
677.1000;0.4599;-3.4417;
677.4000;0.4640;-3.4392;
677.7000;0.4599;-3.4467;
678.0000;0.4550;-3.4517;
678.3000;0.4583;-3.4467;
678.6000;0.4575;-3.4492;
678.9000;0.4567;-3.4566;
679.2000;0.4599;-3.4442;
679.5000;0.4567;-3.4492;
679.8000;0.4567;-3.4467;
680.1000;0.4550;-3.4566;
680.4000;0.4493;-3.4691;
680.7000;0.4575;-3.4442;
681.0000;0.4591;-3.4392;
681.3000;0.4615;-3.4318;
681.6000;0.4567;-3.4417;
681.9000;0.4558;-3.4392;
682.2000;0.4607;-3.4243;
682.5000;0.4550;-3.4367;
682.8000;0.4550;-3.4442;
683.1000;0.4558;-3.4467;
683.4000;0.4575;-3.4442;
683.7000;0.4558;-3.4442;
684.0000;0.4558;-3.4442;
684.3000;0.4534;-3.4467;
684.6000;0.4550;-3.4442;
684.9000;0.4542;-3.4417;
685.2000;0.4550;-3.4367;
685.5000;0.4542;-3.4293;
685.8000;0.4526;-3.4318;
686.1000;0.4542;-3.4218;
686.4000;0.4550;-3.4193;
686.7000;0.4526;-3.4144;
687.0000;0.4542;-3.4193;
687.3000;0.4542;-3.4193;
687.6000;0.4591;-3.4193;
687.9000;0.4518;-3.4343;
688.2000;0.4534;-3.4218;
688.5000;0.4542;-3.4243;
688.8000;0.4542;-3.4243;
689.1000;0.4550;-3.4218;
689.4000;0.4542;-3.4293;
689.7000;0.4583;-3.4144;
690.0000;0.4550;-3.4169;
690.3000;0.4501;-3.4268;
690.6000;0.4526;-3.4218;
690.9000;0.4534;-3.4169;
691.2000;0.4518;-3.4144;
691.5000;0.4453;-3.4293;
691.8000;0.4453;-3.4193;
692.1000;0.4493;-3.4069;
692.4000;0.4510;-3.4169;
692.7000;0.4526;-3.4243;
693.0000;0.4518;-3.4218;
693.3000;0.4501;-3.4193;
693.6000;0.4501;-3.4119;
693.9000;0.4526;-3.4094;
694.2000;0.4526;-3.4144;
694.5000;0.4542;-3.4193;
694.8000;0.4501;-3.4293;
695.1000;0.4534;-3.4218;
695.4000;0.4518;-3.4218;
695.7000;0.4526;-3.4218;
696.0000;0.4420;-3.4591;
696.3000;0.4501;-3.4417;
696.6000;0.4526;-3.4367;
696.9000;0.4526;-3.4243;
697.2000;0.4485;-3.4318;
697.5000;0.4510;-3.4293;
697.8000;0.4526;-3.4293;
698.1000;0.4518;-3.4268;
698.4000;0.4526;-3.4243;
698.7000;0.4567;-3.4144;
699.0000;0.4518;-3.4417;
699.3000;0.4518;-3.4517;
699.6000;0.4599;-3.4268;
699.9000;0.4428;-3.4616;
700.2000;0.4510;-3.4343;
700.5000;0.4518;-3.4293;
700.8000;0.4501;-3.4343;
701.1000;0.4493;-3.4293;
701.4000;0.4526;-3.4144;
701.7000;0.4493;-3.4193;
702.0000;0.4501;-3.4169;
702.3000;0.4461;-3.4318;
702.6000;0.4534;-3.4169;
702.9000;0.4477;-3.4293;
703.2000;0.4518;-3.4268;
703.5000;0.4493;-3.4318;
703.8000;0.4501;-3.4318;
704.1000;0.4485;-3.4367;
704.4000;0.4510;-3.4318;
704.7000;0.4436;-3.4542;
705.0000;0.4493;-3.4467;
705.3000;0.4469;-3.4467;
705.6000;0.4485;-3.4343;
705.9000;0.4493;-3.4367;
706.2000;0.4461;-3.4318;
706.5000;0.4510;-3.4293;
706.8000;0.4485;-3.4243;
707.1000;0.4510;-3.4193;
707.4000;0.4558;-3.4094;
707.7000;0.4485;-3.4218;
708.0000;0.4485;-3.4094;
708.3000;0.4469;-3.4044;
708.6000;0.4469;-3.4044;
708.9000;0.4469;-3.4044;
709.2000;0.4485;-3.4044;
709.5000;0.4477;-3.4094;
709.8000;0.4485;-3.4094;
710.1000;0.4493;-3.4094;
710.4000;0.4485;-3.3970;
710.7000;0.4493;-3.3895;
711.0000;0.4493;-3.3895;
711.3000;0.4493;-3.3920;
711.6000;0.4461;-3.4019;
711.9000;0.4493;-3.4019;
712.2000;0.4510;-3.3994;
712.5000;0.4493;-3.4094;
712.8000;0.4518;-3.4094;
713.1000;0.4493;-3.4193;
713.4000;0.4485;-3.4243;
713.7000;0.4493;-3.4169;
714.0000;0.4477;-3.4169;
714.3000;0.4501;-3.4169;
714.6000;0.4428;-3.4367;
714.9000;0.4493;-3.4218;
715.2000;0.4444;-3.4367;
715.5000;0.4469;-3.4343;
715.8000;0.4469;-3.4343;
716.1000;0.4453;-3.4318;
716.4000;0.4469;-3.4268;
716.7000;0.4453;-3.4367;
717.0000;0.4485;-3.4343;
717.3000;0.4493;-3.4268;
717.6000;0.4485;-3.4318;
717.9000;0.4493;-3.4367;
718.2000;0.4485;-3.4392;
718.5000;0.4485;-3.4268;
718.8000;0.4477;-3.4218;
719.1000;0.4485;-3.4144;
719.4000;0.4469;-3.4094;
719.7000;0.4485;-3.4169;
720.0000;0.4477;-3.4169;
720.3000;0.4485;-3.4243;
720.6000;0.4420;-3.4417;
720.9000;0.4444;-3.4318;
721.2000;0.4461;-3.4293;
721.5000;0.4501;-3.4193;
721.8000;0.4477;-3.4218;
722.1000;0.4518;-3.4243;
722.4000;0.4477;-3.4293;
722.7000;0.4493;-3.4243;
723.0000;0.4501;-3.4293;
723.3000;0.4469;-3.4442;
723.6000;0.4444;-3.4566;
723.9000;0.4387;-3.4716;
724.2000;0.4469;-3.4442;
724.5000;0.4485;-3.4417;
724.8000;0.4453;-3.4442;
725.1000;0.4428;-3.4591;
725.4000;0.4461;-3.4517;
725.7000;0.4526;-3.4442;
726.0000;0.4453;-3.4517;
726.3000;0.4469;-3.4492;
726.6000;0.4461;-3.4492;
726.9000;0.4444;-3.4566;
727.2000;0.4453;-3.4542;
727.5000;0.4461;-3.4542;
727.8000;0.4444;-3.4591;
728.1000;0.4453;-3.4591;
728.4000;0.4461;-3.4542;
728.7000;0.4477;-3.4517;
729.0000;0.4453;-3.4492;
729.3000;0.4453;-3.4467;
729.6000;0.4444;-3.4442;
729.9000;0.4461;-3.4392;
730.2000;0.4444;-3.4367;
730.5000;0.4444;-3.4467;
730.8000;0.4461;-3.4467;
731.1000;0.4461;-3.4517;
731.4000;0.4461;-3.4492;
731.7000;0.4444;-3.4492;
732.0000;0.4477;-3.4467;
732.3000;0.4453;-3.4517;
732.6000;0.4436;-3.4566;
732.9000;0.4453;-3.4517;
733.2000;0.4461;-3.4517;
733.5000;0.4469;-3.4517;
733.8000;0.4436;-3.4616;
734.1000;0.4444;-3.4517;
734.4000;0.4444;-3.4442;
734.7000;0.4444;-3.4417;
735.0000;0.4444;-3.4392;
735.3000;0.4461;-3.4467;
735.6000;0.4436;-3.4492;
735.9000;0.4469;-3.4517;
736.2000;0.4469;-3.4467;
736.5000;0.4461;-3.4467;
736.8000;0.4444;-3.4492;
737.1000;0.4436;-3.4591;
737.4000;0.4453;-3.4591;
737.7000;0.4436;-3.4542;
738.0000;0.4477;-3.4517;
738.3000;0.4461;-3.4542;
738.6000;0.4444;-3.4591;
738.9000;0.4436;-3.4566;
739.2000;0.4444;-3.4616;
739.5000;0.4444;-3.4591;
739.8000;0.4444;-3.4591;
740.1000;0.4428;-3.4542;
740.4000;0.4453;-3.4467;
740.7000;0.4412;-3.4566;
741.0000;0.4428;-3.4517;
741.3000;0.4493;-3.4367;
741.6000;0.4436;-3.4467;
741.9000;0.4428;-3.4467;
742.2000;0.4493;-3.4367;
742.5000;0.4453;-3.4542;
742.8000;0.4436;-3.4566;
743.1000;0.4461;-3.4517;
743.4000;0.4444;-3.4492;
743.7000;0.4453;-3.4492;
744.0000;0.4453;-3.4517;
744.3000;0.4436;-3.4467;
744.6000;0.4493;-3.4343;
744.9000;0.4436;-3.4492;
745.2000;0.4444;-3.4442;
745.5000;0.4444;-3.4442;
745.8000;0.4436;-3.4442;
746.1000;0.4461;-3.4343;
746.4000;0.4469;-3.4268;
746.7000;0.4444;-3.4392;
747.0000;0.4428;-3.4392;
747.3000;0.4436;-3.4467;
747.6000;0.4461;-3.4442;
747.9000;0.4444;-3.4442;
748.2000;0.4436;-3.4343;
748.5000;0.4436;-3.4318;
748.8000;0.4436;-3.4293;
749.1000;0.4412;-3.4392;
749.4000;0.4436;-3.4467;
749.7000;0.4428;-3.4492;
750.0000;0.4412;-3.4417;
750.3000;0.4420;-3.4417;
750.6000;0.4363;-3.4641;
750.9000;0.4428;-3.4467;
751.2000;0.4412;-3.4417;
751.5000;0.4428;-3.4293;
751.8000;0.4453;-3.4268;
752.1000;0.4420;-3.4293;
752.4000;0.4444;-3.4243;
752.7000;0.4428;-3.4144;
753.0000;0.4428;-3.4218;
753.3000;0.4436;-3.4144;
753.6000;0.4436;-3.4193;
753.9000;0.4420;-3.4243;
754.2000;0.4444;-3.4144;
754.5000;0.4436;-3.4119;
754.8000;0.4444;-3.4144;
755.1000;0.4428;-3.4218;
755.4000;0.4428;-3.4268;
755.7000;0.4428;-3.4293;
756.0000;0.4436;-3.4343;
756.3000;0.4444;-3.4467;
756.6000;0.4428;-3.4542;
756.9000;0.4436;-3.4566;
757.2000;0.4444;-3.4492;
757.5000;0.4428;-3.4517;
757.8000;0.4436;-3.4517;
758.1000;0.4436;-3.4492;
758.4000;0.4347;-3.4641;
758.7000;0.4453;-3.4417;
759.0000;0.4420;-3.4467;
759.3000;0.4453;-3.4467;
759.6000;0.4428;-3.4542;
759.9000;0.4428;-3.4616;
760.2000;0.4404;-3.4616;
760.5000;0.4420;-3.4517;
760.8000;0.4444;-3.4442;
761.1000;0.4412;-3.4517;
761.4000;0.4444;-3.4492;
761.7000;0.4461;-3.4392;
762.0000;0.4428;-3.4492;
762.3000;0.4461;-3.4367;
762.6000;0.4428;-3.4542;
762.9000;0.4404;-3.4641;
763.2000;0.4436;-3.4641;
763.5000;0.4420;-3.4666;
763.8000;0.4282;-3.5014;
764.1000;0.4396;-3.4591;
764.4000;0.4420;-3.4467;
764.7000;0.4436;-3.4318;
765.0000;0.4404;-3.4442;
765.3000;0.4396;-3.4367;
765.6000;0.4412;-3.4293;
765.9000;0.4404;-3.4268;
766.2000;0.4436;-3.4293;
766.5000;0.4428;-3.4343;
766.8000;0.4412;-3.4442;
767.1000;0.4428;-3.4467;
767.4000;0.4404;-3.4566;
767.7000;0.4436;-3.4517;
768.0000;0.4404;-3.4467;
768.3000;0.4420;-3.4367;
768.6000;0.4412;-3.4442;
768.9000;0.4404;-3.4492;
769.2000;0.4428;-3.4467;
769.5000;0.4412;-3.4542;
769.8000;0.4436;-3.4566;
770.1000;0.4347;-3.4840;
770.4000;0.4412;-3.4542;
770.7000;0.4420;-3.4542;
771.0000;0.4412;-3.4542;
771.3000;0.4444;-3.4467;
771.6000;0.4428;-3.4417;
771.9000;0.4428;-3.4318;
772.2000;0.4420;-3.4318;
772.5000;0.4444;-3.4293;
772.8000;0.4412;-3.4318;
773.1000;0.4420;-3.4343;
773.4000;0.4436;-3.4293;
773.7000;0.4396;-3.4318;
774.0000;0.4436;-3.4293;
774.3000;0.4420;-3.4243;
774.6000;0.4428;-3.4293;
774.9000;0.4436;-3.4293;
775.2000;0.4420;-3.4268;
775.5000;0.4428;-3.4343;
775.8000;0.4436;-3.4442;
776.1000;0.4436;-3.4467;
776.4000;0.4436;-3.4492;
776.7000;0.4436;-3.4492;
777.0000;0.4436;-3.4517;
777.3000;0.4412;-3.4517;
777.6000;0.4420;-3.4517;
777.9000;0.4428;-3.4467;
778.2000;0.4420;-3.4417;
778.5000;0.4396;-3.4392;
778.8000;0.4420;-3.4367;
779.1000;0.4420;-3.4442;
779.4000;0.4404;-3.4392;
779.7000;0.4379;-3.4442;
780.0000;0.4428;-3.4442;
780.3000;0.4420;-3.4517;
780.6000;0.4371;-3.4616;
780.9000;0.4396;-3.4641;
781.2000;0.4412;-3.4616;
781.5000;0.4412;-3.4616;
781.8000;0.4412;-3.4641;
782.1000;0.4420;-3.4641;
782.4000;0.4420;-3.4542;
782.7000;0.4404;-3.4517;
783.0000;0.4420;-3.4442;
783.3000;0.4404;-3.4517;
783.6000;0.4412;-3.4392;
783.9000;0.4396;-3.4417;
784.2000;0.4428;-3.4392;
784.5000;0.4404;-3.4542;
784.8000;0.4396;-3.4616;
785.1000;0.4412;-3.4566;
785.4000;0.4420;-3.4616;
785.7000;0.4428;-3.4566;
786.0000;0.4420;-3.4666;
786.3000;0.4420;-3.4591;
786.6000;0.4387;-3.4716;
786.9000;0.4420;-3.4591;
787.2000;0.4510;-3.4318;
787.5000;0.4412;-3.4566;
787.8000;0.4404;-3.4566;
788.1000;0.4420;-3.4517;
788.4000;0.4428;-3.4517;
788.7000;0.4420;-3.4467;
789.0000;0.4428;-3.4492;
789.3000;0.4387;-3.4517;
789.6000;0.4404;-3.4566;
789.9000;0.4420;-3.4542;
790.2000;0.4453;-3.4367;
790.5000;0.4412;-3.4492;
790.8000;0.4412;-3.4492;
791.1000;0.4420;-3.4517;
791.4000;0.4371;-3.4591;
791.7000;0.4428;-3.4492;
792.0000;0.4412;-3.4566;
792.3000;0.4461;-3.4517;
792.6000;0.4412;-3.4591;
792.9000;0.4404;-3.4517;
793.2000;0.4396;-3.4591;
793.5000;0.4420;-3.4542;
793.8000;0.4428;-3.4517;
794.1000;0.4461;-3.4343;
794.4000;0.4396;-3.4517;
794.7000;0.4412;-3.4517;
795.0000;0.4371;-3.4641;
795.3000;0.4387;-3.4666;
795.6000;0.4387;-3.4616;
795.9000;0.4396;-3.4591;
796.2000;0.4436;-3.4517;
796.5000;0.4412;-3.4492;
796.8000;0.4387;-3.4566;
797.1000;0.4396;-3.4517;
797.4000;0.4412;-3.4392;
797.7000;0.4396;-3.4467;
798.0000;0.4428;-3.4417;
798.3000;0.4404;-3.4392;
798.6000;0.4436;-3.4392;
798.9000;0.4396;-3.4566;
799.2000;0.4428;-3.4566;
799.5000;0.4428;-3.4616;
799.8000;0.4396;-3.4616;
800.1000;0.4404;-3.4566;
800.4000;0.4404;-3.4517;
800.7000;0.4396;-3.4566;
801.0000;0.4412;-3.4442;
801.3000;0.4404;-3.4417;
801.6000;0.4396;-3.4467;
801.9000;0.4404;-3.4517;
802.2000;0.4412;-3.4492;
802.5000;0.4347;-3.4591;
802.8000;0.4404;-3.4417;
803.1000;0.4428;-3.4417;
803.4000;0.4412;-3.4442;
803.7000;0.4404;-3.4542;
804.0000;0.4412;-3.4542;
804.3000;0.4404;-3.4591;
804.6000;0.4404;-3.4666;
804.9000;0.4420;-3.4616;
805.2000;0.4420;-3.4591;
805.5000;0.4420;-3.4616;
805.8000;0.4404;-3.4666;
806.1000;0.4412;-3.4740;
806.4000;0.4420;-3.4765;
806.7000;0.4412;-3.4815;
807.0000;0.4428;-3.4815;
807.3000;0.4355;-3.5039;
807.6000;0.4428;-3.4740;
807.9000;0.4428;-3.4666;
808.2000;0.4420;-3.4691;
808.5000;0.4428;-3.4765;
808.8000;0.4428;-3.4740;
809.1000;0.4420;-3.4666;
809.4000;0.4420;-3.4691;
809.7000;0.4420;-3.4716;
810.0000;0.4420;-3.4616;
810.3000;0.4396;-3.4616;
810.6000;0.4412;-3.4542;
810.9000;0.4501;-3.4392;
811.2000;0.4420;-3.4691;
811.5000;0.4428;-3.4641;
811.8000;0.4412;-3.4641;
812.1000;0.4412;-3.4517;
812.4000;0.4347;-3.4691;
812.7000;0.4396;-3.4691;
813.0000;0.4387;-3.4815;
813.3000;0.4412;-3.4815;
813.6000;0.4493;-3.4542;
813.9000;0.4396;-3.4716;
814.2000;0.4420;-3.4616;
814.5000;0.4420;-3.4591;
814.8000;0.4396;-3.4641;
815.1000;0.4396;-3.4716;
815.4000;0.4339;-3.4815;
815.7000;0.4428;-3.4666;
816.0000;0.4412;-3.4666;
816.3000;0.4404;-3.4716;
816.6000;0.4404;-3.4691;
816.9000;0.4461;-3.4542;
817.2000;0.4412;-3.4666;
817.5000;0.4420;-3.4566;
817.8000;0.4404;-3.4566;
818.1000;0.4420;-3.4467;
818.4000;0.4412;-3.4492;
818.7000;0.4404;-3.4467;
819.0000;0.4404;-3.4417;
819.3000;0.4404;-3.4492;
819.6000;0.4428;-3.4417;
819.9000;0.4412;-3.4367;
820.2000;0.4412;-3.4343;
820.5000;0.4387;-3.4442;
820.8000;0.4412;-3.4343;
821.1000;0.4420;-3.4367;
821.4000;0.4404;-3.4467;
821.7000;0.4420;-3.4442;
822.0000;0.4404;-3.4467;
822.3000;0.4412;-3.4467;
822.6000;0.4404;-3.4442;
822.9000;0.4404;-3.4367;
823.2000;0.4444;-3.4218;
823.5000;0.4347;-3.4442;
823.8000;0.4428;-3.4293;
824.1000;0.4404;-3.4392;
824.4000;0.4412;-3.4392;
824.7000;0.4396;-3.4392;
825.0000;0.4379;-3.4467;
825.3000;0.4387;-3.4442;
825.6000;0.4396;-3.4392;
825.9000;0.4412;-3.4392;
826.2000;0.4396;-3.4367;
826.5000;0.4387;-3.4467;
826.8000;0.4363;-3.4691;
827.1000;0.4404;-3.4566;
827.4000;0.4453;-3.4417;
827.7000;0.4396;-3.4517;
828.0000;0.4387;-3.4591;
828.3000;0.4420;-3.4517;
828.6000;0.4404;-3.4566;
828.9000;0.4314;-3.4790;
829.2000;0.4412;-3.4591;
829.5000;0.4412;-3.4542;
829.8000;0.4396;-3.4467;
830.1000;0.4436;-3.4367;
830.4000;0.4404;-3.4442;
830.7000;0.4396;-3.4442;
831.0000;0.4412;-3.4367;
831.3000;0.4396;-3.4392;
831.6000;0.4461;-3.4218;
831.9000;0.4404;-3.4392;
832.2000;0.4387;-3.4367;
832.5000;0.4379;-3.4417;
832.8000;0.4404;-3.4517;
833.1000;0.4363;-3.4641;
833.4000;0.4387;-3.4517;
833.7000;0.4404;-3.4566;
834.0000;0.4363;-3.4666;
834.3000;0.4453;-3.4492;
834.6000;0.4518;-3.4218;
834.9000;0.4396;-3.4542;
835.2000;0.4347;-3.4616;
835.5000;0.4404;-3.4517;
835.8000;0.4396;-3.4591;
836.1000;0.4396;-3.4641;
836.4000;0.4412;-3.4616;
836.7000;0.4330;-3.4815;
837.0000;0.4306;-3.4939;
837.3000;0.4396;-3.4765;
837.6000;0.4404;-3.4765;
837.9000;0.4412;-3.4740;
838.2000;0.4420;-3.4666;
838.5000;0.4404;-3.4616;
838.8000;0.4412;-3.4666;
839.1000;0.4396;-3.4740;
839.4000;0.4436;-3.4616;
839.7000;0.4420;-3.4566;
840.0000;0.4412;-3.4616;
840.3000;0.4379;-3.4616;
840.6000;0.4412;-3.4542;
840.9000;0.4396;-3.4566;
841.2000;0.4404;-3.4591;
841.5000;0.4396;-3.4616;
841.8000;0.4404;-3.4641;
842.1000;0.4420;-3.4666;
842.4000;0.4420;-3.4666;
842.7000;0.4420;-3.4666;
843.0000;0.4428;-3.4666;
843.3000;0.4387;-3.4765;
843.6000;0.4412;-3.4542;
843.9000;0.4396;-3.4716;
844.2000;0.4363;-3.4790;
844.5000;0.4347;-3.4890;
844.8000;0.4412;-3.4740;
845.1000;0.4396;-3.4691;
845.4000;0.4396;-3.4641;
845.7000;0.4387;-3.4616;
846.0000;0.4404;-3.4566;
846.3000;0.4396;-3.4542;
846.6000;0.4404;-3.4616;
846.9000;0.4404;-3.4666;
847.2000;0.4387;-3.4641;
847.5000;0.4347;-3.4765;
847.8000;0.4396;-3.4641;
848.1000;0.4387;-3.4716;
848.4000;0.4387;-3.4641;
848.7000;0.4387;-3.4591;
849.0000;0.4387;-3.4641;
849.3000;0.4412;-3.4641;
849.6000;0.4363;-3.4865;
849.9000;0.4412;-3.4765;
850.2000;0.4396;-3.4840;
850.5000;0.4404;-3.4765;
850.8000;0.4412;-3.4815;
851.1000;0.4420;-3.4740;
851.4000;0.4396;-3.4790;
851.7000;0.4387;-3.4740;
852.0000;0.4396;-3.4790;
852.3000;0.4396;-3.4790;
852.6000;0.4387;-3.4815;
852.9000;0.4444;-3.4591;
853.2000;0.4363;-3.4716;
853.5000;0.4396;-3.4691;
853.8000;0.4371;-3.4790;
854.1000;0.4428;-3.4566;
854.4000;0.4396;-3.4616;
854.7000;0.4396;-3.4641;
855.0000;0.4387;-3.4666;
855.3000;0.4379;-3.4716;
855.6000;0.4493;-3.4392;
855.9000;0.4453;-3.4542;
856.2000;0.4396;-3.4641;
856.5000;0.4404;-3.4716;
856.8000;0.4379;-3.4691;
857.1000;0.4428;-3.4542;
857.4000;0.4363;-3.4641;
857.7000;0.4371;-3.4591;
858.0000;0.4347;-3.4542;
858.3000;0.4371;-3.4542;
858.6000;0.4379;-3.4542;
858.9000;0.4363;-3.4542;
859.2000;0.4330;-3.4616;
859.5000;0.4387;-3.4492;
859.8000;0.4436;-3.4467;
860.1000;0.4396;-3.4517;
860.4000;0.4379;-3.4616;
860.7000;0.4355;-3.4666;
861.0000;0.4322;-3.4666;
861.3000;0.4404;-3.4417;
861.6000;0.4412;-3.4442;
861.9000;0.4412;-3.4492;
862.2000;0.4347;-3.4666;
862.5000;0.4404;-3.4566;
862.8000;0.4379;-3.4591;
863.1000;0.4396;-3.4591;
863.4000;0.4387;-3.4566;
863.7000;0.4420;-3.4517;
864.0000;0.4387;-3.4566;
864.3000;0.4396;-3.4542;
864.6000;0.4387;-3.4542;
864.9000;0.4420;-3.4542;
865.2000;0.4387;-3.4765;
865.5000;0.4379;-3.4740;
865.8000;0.4412;-3.4815;
866.1000;0.4412;-3.4865;
866.4000;0.4420;-3.4840;
866.7000;0.4436;-3.4691;
867.0000;0.4420;-3.4666;
867.3000;0.4404;-3.4740;
867.6000;0.4396;-3.4716;
867.9000;0.4396;-3.4716;
868.2000;0.4412;-3.4691;
868.5000;0.4387;-3.4641;
868.8000;0.4412;-3.4691;
869.1000;0.4420;-3.4591;
869.4000;0.4420;-3.4666;
869.7000;0.4404;-3.4716;
870.0000;0.4404;-3.4666;
870.3000;0.4404;-3.4666;
870.6000;0.4347;-3.4740;
870.9000;0.4387;-3.4566;
871.2000;0.4387;-3.4591;
871.5000;0.4477;-3.4417;
871.8000;0.4396;-3.4641;
872.1000;0.4233;-3.5014;
872.4000;0.4420;-3.4517;
872.7000;0.4412;-3.4467;
873.0000;0.4412;-3.4392;
873.3000;0.4404;-3.4318;
873.6000;0.4404;-3.4367;
873.9000;0.4404;-3.4367;
874.2000;0.4396;-3.4467;
874.5000;0.4420;-3.4417;
874.8000;0.4412;-3.4417;
875.1000;0.4404;-3.4417;
875.4000;0.4412;-3.4442;
875.7000;0.4371;-3.4492;
876.0000;0.4396;-3.4591;
876.3000;0.4387;-3.4691;
876.6000;0.4379;-3.4691;
876.9000;0.4371;-3.4591;
877.2000;0.4387;-3.4616;
877.5000;0.4371;-3.4716;
877.8000;0.4355;-3.4790;
878.1000;0.4387;-3.4716;
878.4000;0.4412;-3.4591;
878.7000;0.4396;-3.4641;
879.0000;0.4412;-3.4616;
879.3000;0.4314;-3.4790;
879.6000;0.4404;-3.4517;
879.9000;0.4379;-3.4616;
880.2000;0.4396;-3.4591;
880.5000;0.4387;-3.4591;
880.8000;0.4404;-3.4492;
881.1000;0.4404;-3.4492;
881.4000;0.4396;-3.4517;
881.7000;0.4387;-3.4492;
882.0000;0.4330;-3.4641;
882.3000;0.4387;-3.4442;
882.6000;0.4461;-3.4318;
882.9000;0.4396;-3.4392;
883.2000;0.4387;-3.4367;
883.5000;0.4412;-3.4392;
883.8000;0.4379;-3.4467;
884.1000;0.4404;-3.4417;
884.4000;0.4396;-3.4367;
884.7000;0.4387;-3.4392;
885.0000;0.4477;-3.4119;
885.3000;0.4387;-3.4293;
885.6000;0.4396;-3.4293;
885.9000;0.4371;-3.4367;
886.2000;0.4387;-3.4367;
886.5000;0.4387;-3.4343;
886.8000;0.4379;-3.4343;
887.1000;0.4387;-3.4293;
887.4000;0.4396;-3.4268;
887.7000;0.4396;-3.4417;
888.0000;0.4363;-3.4467;
888.3000;0.4363;-3.4442;
888.6000;0.4396;-3.4442;
888.9000;0.4412;-3.4467;
889.2000;0.4404;-3.4442;
889.5000;0.4420;-3.4467;
889.8000;0.4396;-3.4517;
890.1000;0.4396;-3.4492;
890.4000;0.4428;-3.4492;
890.7000;0.4387;-3.4566;
891.0000;0.4412;-3.4591;
891.3000;0.4412;-3.4467;
891.6000;0.4387;-3.4467;
891.9000;0.4420;-3.4343;
892.2000;0.4396;-3.4367;
892.5000;0.4396;-3.4318;
892.8000;0.4396;-3.4467;
893.1000;0.4396;-3.4442;
893.4000;0.4379;-3.4467;
893.7000;0.4379;-3.4492;
894.0000;0.4379;-3.4467;
894.3000;0.4412;-3.4392;
894.6000;0.4379;-3.4467;
894.9000;0.4387;-3.4492;
895.2000;0.4412;-3.4492;
895.5000;0.4453;-3.4392;
895.8000;0.4412;-3.4367;
896.1000;0.4453;-3.4243;
896.4000;0.4396;-3.4417;
896.7000;0.4420;-3.4467;
897.0000;0.4396;-3.4517;
897.3000;0.4420;-3.4442;
897.6000;0.4363;-3.4591;
897.9000;0.4412;-3.4492;
898.2000;0.4404;-3.4492;
898.5000;0.4420;-3.4442;
898.8000;0.4420;-3.4467;
899.1000;0.4396;-3.4492;
899.4000;0.4453;-3.4343;
899.7000;0.4396;-3.4318;
900.0000;0.4404;-3.4293;
900.3000;0.4396;-3.4318;
900.6000;0.4412;-3.4293;
900.9000;0.4330;-3.4492;
901.2000;0.4396;-3.4268;
901.5000;0.4396;-3.4367;
901.8000;0.4396;-3.4392;
902.1000;0.4396;-3.4343;
902.4000;0.4314;-3.4492;
902.7000;0.4396;-3.4318;
903.0000;0.4420;-3.4293;
903.3000;0.4371;-3.4367;
903.6000;0.4387;-3.4343;
903.9000;0.4404;-3.4243;
904.2000;0.4379;-3.4293;
904.5000;0.4379;-3.4268;
904.8000;0.4404;-3.4218;
905.1000;0.4396;-3.4343;
905.4000;0.4420;-3.4293;
905.7000;0.4396;-3.4343;
906.0000;0.4436;-3.4193;
906.3000;0.4379;-3.4243;
906.6000;0.4387;-3.4293;
906.9000;0.4387;-3.4293;
907.2000;0.4363;-3.4392;
907.5000;0.4396;-3.4293;
907.8000;0.4396;-3.4218;
908.1000;0.4387;-3.4268;
908.4000;0.4330;-3.4367;
908.7000;0.4453;-3.4094;
909.0000;0.4371;-3.4392;
909.3000;0.4379;-3.4318;
909.6000;0.4404;-3.4193;
909.9000;0.4412;-3.4169;
910.2000;0.4371;-3.4293;
910.5000;0.4387;-3.4318;
910.8000;0.4404;-3.4268;
911.1000;0.4379;-3.4243;
911.4000;0.4379;-3.4268;
911.7000;0.4420;-3.4293;
912.0000;0.4404;-3.4367;
912.3000;0.4396;-3.4318;
912.6000;0.4396;-3.4318;
912.9000;0.4274;-3.4542;
913.2000;0.4387;-3.4343;
913.5000;0.4379;-3.4293;
913.8000;0.4387;-3.4268;
914.1000;0.4379;-3.4268;
914.4000;0.4387;-3.4243;
914.7000;0.4420;-3.4094;
915.0000;0.4371;-3.4268;
915.3000;0.4396;-3.4318;
915.6000;0.4379;-3.4417;
915.9000;0.4404;-3.4467;
916.2000;0.4428;-3.4417;
916.5000;0.4412;-3.4343;
916.8000;0.4379;-3.4343;
917.1000;0.4404;-3.4268;
917.4000;0.4396;-3.4318;
917.7000;0.4363;-3.4343;
918.0000;0.4363;-3.4343;
918.3000;0.4387;-3.4367;
918.6000;0.4371;-3.4467;
918.9000;0.4396;-3.4367;
919.2000;0.4396;-3.4392;
919.5000;0.4387;-3.4367;
919.8000;0.4396;-3.4268;
920.1000;0.4412;-3.4169;
920.4000;0.4396;-3.4268;
920.7000;0.4355;-3.4442;
921.0000;0.4387;-3.4417;
921.3000;0.4396;-3.4343;
921.6000;0.4404;-3.4293;
921.9000;0.4379;-3.4293;
922.2000;0.4396;-3.4293;
922.5000;0.4379;-3.4343;
922.8000;0.4404;-3.4268;
923.1000;0.4379;-3.4343;
923.4000;0.4387;-3.4243;
923.7000;0.4396;-3.4193;
924.0000;0.4396;-3.4318;
924.3000;0.4396;-3.4268;
924.6000;0.4412;-3.4169;
924.9000;0.4363;-3.4268;
925.2000;0.4396;-3.4169;
925.5000;0.4355;-3.4343;
925.8000;0.4396;-3.4144;
926.1000;0.4363;-3.4243;
926.4000;0.4387;-3.4243;
926.7000;0.4404;-3.4218;
927.0000;0.4404;-3.4169;
927.3000;0.4404;-3.4144;
927.6000;0.4396;-3.4094;
927.9000;0.4387;-3.4193;
928.2000;0.4412;-3.4144;
928.5000;0.4404;-3.4193;
928.8000;0.4379;-3.4318;
929.1000;0.4412;-3.4268;
929.4000;0.4371;-3.4193;
929.7000;0.4379;-3.4119;
930.0000;0.4379;-3.4193;
930.3000;0.4387;-3.4144;
930.6000;0.4404;-3.4169;
930.9000;0.4412;-3.4019;
931.2000;0.4306;-3.4268;
931.5000;0.4314;-3.4243;
931.8000;0.4379;-3.4094;
932.1000;0.4404;-3.3945;
932.4000;0.4396;-3.3920;
932.7000;0.4339;-3.4019;
933.0000;0.4396;-3.3994;
933.3000;0.4396;-3.4069;
933.6000;0.4404;-3.3970;
933.9000;0.4436;-3.3920;
934.2000;0.4387;-3.4094;
934.5000;0.4396;-3.4094;
934.8000;0.4387;-3.4144;
935.1000;0.4371;-3.4293;
935.4000;0.4387;-3.4392;
935.7000;0.4396;-3.4417;
936.0000;0.4396;-3.4343;
936.3000;0.4387;-3.4268;
936.6000;0.4396;-3.4268;
936.9000;0.4322;-3.4318;
937.2000;0.4387;-3.4218;
937.5000;0.4387;-3.4193;
937.8000;0.4404;-3.4218;
938.1000;0.4387;-3.4318;
938.4000;0.4420;-3.4243;
938.7000;0.4412;-3.4218;
939.0000;0.4412;-3.4268;
939.3000;0.4469;-3.4119;
939.6000;0.4387;-3.4343;
939.9000;0.4396;-3.4392;
940.2000;0.4379;-3.4318;
940.5000;0.4412;-3.4169;
940.8000;0.4396;-3.4094;
941.1000;0.4371;-3.4144;
941.4000;0.4396;-3.4119;
941.7000;0.4396;-3.4044;
942.0000;0.4387;-3.4044;
942.3000;0.4379;-3.4069;
942.6000;0.4404;-3.4069;
942.9000;0.4363;-3.4193;
943.2000;0.4404;-3.4169;
943.5000;0.4396;-3.4193;
943.8000;0.4290;-3.4467;
944.1000;0.4387;-3.4243;
944.4000;0.4347;-3.4417;
944.7000;0.4387;-3.4293;
945.0000;0.4396;-3.4318;
945.3000;0.4396;-3.4367;
945.6000;0.4428;-3.4367;
945.9000;0.4387;-3.4492;
946.2000;0.4387;-3.4492;
946.5000;0.4404;-3.4442;
946.8000;0.4396;-3.4318;
947.1000;0.4396;-3.4318;
947.4000;0.4330;-3.4442;
947.7000;0.4436;-3.4169;
948.0000;0.4404;-3.4218;
948.3000;0.4371;-3.4293;
948.6000;0.4420;-3.4144;
948.9000;0.4420;-3.4193;
949.2000;0.4387;-3.4293;
949.5000;0.4396;-3.4293;
949.8000;0.4453;-3.4169;
950.1000;0.4404;-3.4318;
950.4000;0.4412;-3.4144;
950.7000;0.4420;-3.4094;
951.0000;0.4453;-3.4019;
951.3000;0.4469;-3.4069;
951.6000;0.4298;-3.4517;
951.9000;0.4387;-3.4169;
952.2000;0.4379;-3.4218;
952.5000;0.4396;-3.4218;
952.8000;0.4396;-3.4243;
953.1000;0.4363;-3.4367;
953.4000;0.4379;-3.4268;
953.7000;0.4371;-3.4169;
954.0000;0.4387;-3.4069;
954.3000;0.4387;-3.4119;
954.6000;0.4371;-3.4218;
954.9000;0.4404;-3.4268;
955.2000;0.4379;-3.4268;
955.5000;0.4379;-3.4268;
955.8000;0.4387;-3.4343;
956.1000;0.4371;-3.4318;
956.4000;0.4355;-3.4268;
956.7000;0.4436;-3.4044;
957.0000;0.4363;-3.4119;
957.3000;0.4412;-3.4044;
957.6000;0.4371;-3.4119;
957.9000;0.4371;-3.4119;
958.2000;0.4371;-3.4119;
958.5000;0.4387;-3.4044;
958.8000;0.4387;-3.3994;
959.1000;0.4453;-3.3895;
959.4000;0.4412;-3.4019;
959.7000;0.4371;-3.4119;
960.0000;0.4387;-3.4069;
960.3000;0.4396;-3.4019;
960.6000;0.4379;-3.4193;
960.9000;0.4428;-3.4119;
961.2000;0.4379;-3.4243;
961.5000;0.4330;-3.4367;
961.8000;0.4363;-3.4293;
962.1000;0.4396;-3.4293;
962.4000;0.4371;-3.4492;
962.7000;0.4371;-3.4492;
963.0000;0.4387;-3.4492;
963.3000;0.4396;-3.4392;
963.6000;0.4412;-3.4268;
963.9000;0.4379;-3.4193;
964.2000;0.4412;-3.4069;
964.5000;0.4461;-3.3895;
964.8000;0.4387;-3.4094;
965.1000;0.4387;-3.4069;
965.4000;0.4371;-3.4169;
965.7000;0.4322;-3.4268;
966.0000;0.4387;-3.4044;
966.3000;0.4347;-3.4193;
966.6000;0.4396;-3.4119;
966.9000;0.4379;-3.4169;
967.2000;0.4387;-3.4169;
967.5000;0.4322;-3.4392;
967.8000;0.4412;-3.4144;
968.1000;0.4404;-3.4193;
968.4000;0.4339;-3.4417;
968.7000;0.4387;-3.4268;
969.0000;0.4371;-3.4318;
969.3000;0.4379;-3.4318;
969.6000;0.4363;-3.4343;
969.9000;0.4387;-3.4343;
970.2000;0.4412;-3.4243;
970.5000;0.4379;-3.4318;
970.8000;0.4412;-3.4343;
971.1000;0.4396;-3.4392;
971.4000;0.4396;-3.4392;
971.7000;0.4404;-3.4367;
972.0000;0.4363;-3.4467;
972.3000;0.4396;-3.4343;
972.6000;0.4379;-3.4343;
972.9000;0.4355;-3.4343;
973.2000;0.4387;-3.4318;
973.5000;0.4396;-3.4318;
973.8000;0.4469;-3.4119;
974.1000;0.4396;-3.4268;
974.4000;0.4379;-3.4343;
974.7000;0.4355;-3.4442;
975.0000;0.4371;-3.4367;
975.3000;0.4371;-3.4343;
975.6000;0.4339;-3.4417;
975.9000;0.4330;-3.4392;
976.2000;0.4387;-3.4293;
976.5000;0.4379;-3.4367;
976.8000;0.4420;-3.4268;
977.1000;0.4379;-3.4492;
977.4000;0.4387;-3.4417;
977.7000;0.4396;-3.4467;
978.0000;0.4322;-3.4542;
978.3000;0.4387;-3.4343;
978.6000;0.4387;-3.4218;
978.9000;0.4396;-3.4218;
979.2000;0.4396;-3.4367;
979.5000;0.4396;-3.4392;
979.8000;0.4387;-3.4367;
980.1000;0.4396;-3.4392;
980.4000;0.4379;-3.4343;
980.7000;0.4412;-3.4367;
981.0000;0.4379;-3.4542;
981.3000;0.4387;-3.4467;
981.6000;0.4412;-3.4367;
981.9000;0.4387;-3.4343;
982.2000;0.4379;-3.4243;
982.5000;0.4387;-3.4193;
982.8000;0.4412;-3.4144;
983.1000;0.4396;-3.4218;
983.4000;0.4396;-3.4293;
983.7000;0.4363;-3.4343;
984.0000;0.4347;-3.4367;
984.3000;0.4396;-3.4318;
984.6000;0.4355;-3.4318;
984.9000;0.4387;-3.4169;
985.2000;0.4396;-3.4243;
985.5000;0.4396;-3.4218;
985.8000;0.4379;-3.4169;
986.1000;0.4396;-3.4144;
986.4000;0.4404;-3.4144;
986.7000;0.4404;-3.4094;
987.0000;0.4396;-3.4218;
987.3000;0.4371;-3.4293;
987.6000;0.4379;-3.4243;
987.9000;0.4396;-3.4218;
988.2000;0.4379;-3.4169;
988.5000;0.4371;-3.4268;
988.8000;0.4387;-3.4243;
989.1000;0.4387;-3.4144;
989.4000;0.4396;-3.4119;
989.7000;0.4436;-3.4069;
990.0000;0.4396;-3.4119;
990.3000;0.4379;-3.4169;
990.6000;0.4396;-3.4119;
990.9000;0.4371;-3.4094;
991.2000;0.4379;-3.4019;
991.5000;0.4477;-3.3820;
991.8000;0.4387;-3.4094;
992.1000;0.4412;-3.4119;
992.4000;0.4396;-3.4144;
992.7000;0.4379;-3.4119;
993.0000;0.4412;-3.4094;
993.3000;0.4387;-3.4094;
993.6000;0.4396;-3.4119;
993.9000;0.4387;-3.4169;
994.2000;0.4355;-3.4169;
994.5000;0.4371;-3.4119;
994.8000;0.4404;-3.3945;
995.1000;0.4404;-3.4019;
995.4000;0.4396;-3.4119;
995.7000;0.4396;-3.4094;
996.0000;0.4396;-3.4144;
996.3000;0.4396;-3.4218;
996.6000;0.4379;-3.4343;
996.9000;0.4379;-3.4343;
997.2000;0.4387;-3.4318;
997.5000;0.4404;-3.4318;
997.8000;0.4428;-3.4243;
998.1000;0.4363;-3.4318;
998.4000;0.4339;-3.4392;
998.7000;0.4396;-3.4318;
999.0000;0.4379;-3.4343;
999.3000;0.4379;-3.4367;
999.6000;0.4379;-3.4268;
999.9000;0.4396;-3.4169;
1000.2000;0.4379;-3.4144;
1000.5000;0.4396;-3.4119;
1000.8000;0.4379;-3.4119;
1001.1000;0.4412;-3.4094;
1001.4000;0.4396;-3.4193;
1001.7000;0.4387;-3.4268;
1002.0000;0.4396;-3.4268;
1002.3000;0.4412;-3.4144;
1002.6000;0.4387;-3.4144;
1002.9000;0.4396;-3.4193;
1003.2000;0.4363;-3.4318;
1003.5000;0.4379;-3.4293;
1003.8000;0.4371;-3.4193;
1004.1000;0.4379;-3.4193;
1004.4000;0.4330;-3.4392;
1004.7000;0.4371;-3.4243;
1005.0000;0.4371;-3.4243;
1005.3000;0.4412;-3.4243;
1005.6000;0.4396;-3.4268;
1005.9000;0.4420;-3.4144;
1006.2000;0.4379;-3.4144;
1006.5000;0.4404;-3.4069;
1006.8000;0.4363;-3.4119;
1007.1000;0.4339;-3.4243;
1007.4000;0.4355;-3.4169;
1007.7000;0.4396;-3.4144;
1008.0000;0.4379;-3.4218;
1008.3000;0.4387;-3.4218;
1008.6000;0.4404;-3.4144;
1008.9000;0.4396;-3.4169;
1009.2000;0.4387;-3.4169;
1009.5000;0.4404;-3.4169;
1009.8000;0.4379;-3.4193;
1010.1000;0.4379;-3.4169;
1010.4000;0.4387;-3.4169;
1010.7000;0.4387;-3.4268;
1011.0000;0.4387;-3.4318;
1011.3000;0.4396;-3.4268;
1011.6000;0.4428;-3.4119;
1011.9000;0.4379;-3.4268;
1012.2000;0.4396;-3.4193;
1012.5000;0.4404;-3.4144;
1012.8000;0.4387;-3.4119;
1013.1000;0.4420;-3.4094;
1013.4000;0.4396;-3.4119;
1013.7000;0.4363;-3.4218;
1014.0000;0.4396;-3.4243;
1014.3000;0.4396;-3.4243;
1014.6000;0.4412;-3.4218;
1014.9000;0.4404;-3.4268;
1015.2000;0.4387;-3.4293;
1015.5000;0.4387;-3.4343;
1015.8000;0.4412;-3.4367;
1016.1000;0.4387;-3.4417;
1016.4000;0.4387;-3.4367;
1016.7000;0.4428;-3.4293;
1017.0000;0.4404;-3.4293;
1017.3000;0.4404;-3.4268;
1017.6000;0.4387;-3.4318;
1017.9000;0.4396;-3.4367;
1018.2000;0.4404;-3.4417;
1018.5000;0.4428;-3.4268;
1018.8000;0.4355;-3.4467;
1019.1000;0.4387;-3.4367;
1019.4000;0.4453;-3.4218;
1019.7000;0.4387;-3.4367;
1020.0000;0.4379;-3.4318;
1020.3000;0.4379;-3.4367;
1020.6000;0.4379;-3.4367;
1020.9000;0.4355;-3.4442;
1021.2000;0.4412;-3.4417;
1021.5000;0.4387;-3.4492;
1021.8000;0.4387;-3.4442;
1022.1000;0.4387;-3.4492;
1022.4000;0.4387;-3.4517;
1022.7000;0.4379;-3.4492;
1023.0000;0.4355;-3.4442;
1023.3000;0.4404;-3.4343;
1023.6000;0.4404;-3.4367;
1023.9000;0.4387;-3.4442;
1024.2000;0.4396;-3.4442;
1024.5000;0.4412;-3.4343;
1024.8000;0.4379;-3.4417;
1025.1000;0.4396;-3.4318;
1025.4000;0.4404;-3.4318;
1025.7000;0.4396;-3.4343;
1026.0000;0.4420;-3.4293;
1026.3000;0.4396;-3.4442;
1026.6000;0.4404;-3.4467;
1026.9000;0.4379;-3.4417;
1027.2000;0.4387;-3.4392;
1027.5000;0.4371;-3.4442;
1027.8000;0.4371;-3.4517;
1028.1000;0.4396;-3.4467;
1028.4000;0.4379;-3.4517;
1028.7000;0.4371;-3.4492;
1029.0000;0.4371;-3.4492;
1029.3000;0.4379;-3.4492;
1029.6000;0.4404;-3.4467;
1029.9000;0.4387;-3.4517;
1030.2000;0.4379;-3.4442;
1030.5000;0.4404;-3.4343;
1030.8000;0.4379;-3.4392;
1031.1000;0.4339;-3.4367;
1031.4000;0.4371;-3.4318;
1031.7000;0.4387;-3.4318;
1032.0000;0.4436;-3.4243;
1032.3000;0.4387;-3.4268;
1032.6000;0.4371;-3.4268;
1032.9000;0.4404;-3.4193;
1033.2000;0.4396;-3.4367;
1033.5000;0.4371;-3.4467;
1033.8000;0.4387;-3.4392;
1034.1000;0.4387;-3.4293;
1034.4000;0.4355;-3.4367;
1034.7000;0.4387;-3.4268;
1035.0000;0.4371;-3.4193;
1035.3000;0.4387;-3.4144;
1035.6000;0.4371;-3.4193;
1035.9000;0.4371;-3.4193;
1036.2000;0.4371;-3.4193;
1036.5000;0.4379;-3.4119;
1036.8000;0.4379;-3.4144;
1037.1000;0.4379;-3.4169;
1037.4000;0.4371;-3.4193;
1037.7000;0.4420;-3.4169;
1038.0000;0.4387;-3.4367;
1038.3000;0.4363;-3.4467;
1038.6000;0.4371;-3.4392;
1038.9000;0.4387;-3.4318;
1039.2000;0.4396;-3.4243;
1039.5000;0.4387;-3.4318;
1039.8000;0.4387;-3.4343;
1040.1000;0.4371;-3.4268;
1040.4000;0.4396;-3.4243;
1040.7000;0.4379;-3.4268;
1041.0000;0.4387;-3.4318;
1041.3000;0.4330;-3.4442;
1041.6000;0.4396;-3.4367;
1041.9000;0.4420;-3.4367;
1042.2000;0.4371;-3.4492;
1042.5000;0.4379;-3.4467;
1042.8000;0.4363;-3.4492;
1043.1000;0.4379;-3.4517;
1043.4000;0.4387;-3.4542;
1043.7000;0.4404;-3.4517;
1044.0000;0.4371;-3.4666;
1044.3000;0.4396;-3.4542;
1044.6000;0.4428;-3.4392;
1044.9000;0.4379;-3.4417;
1045.2000;0.4396;-3.4318;
1045.5000;0.4387;-3.4343;
1045.8000;0.4404;-3.4343;
1046.1000;0.4387;-3.4392;
1046.4000;0.4477;-3.4293;
1046.7000;0.4444;-3.4293;
1047.0000;0.4396;-3.4392;
1047.3000;0.4412;-3.4467;
1047.6000;0.4379;-3.4591;
1047.9000;0.4396;-3.4591;
1048.2000;0.4396;-3.4517;
1048.5000;0.4428;-3.4367;
1048.8000;0.4371;-3.4517;
1049.1000;0.4355;-3.4566;
1049.4000;0.4387;-3.4517;
1049.7000;0.4387;-3.4467;
1050.0000;0.4371;-3.4517;
1050.3000;0.4420;-3.4392;
1050.6000;0.4396;-3.4517;
1050.9000;0.4347;-3.4616;
1051.2000;0.4387;-3.4566;
1051.5000;0.4387;-3.4566;
1051.8000;0.4396;-3.4442;
1052.1000;0.4396;-3.4417;
1052.4000;0.4387;-3.4392;
1052.7000;0.4396;-3.4417;
1053.0000;0.4453;-3.4169;
1053.3000;0.4404;-3.4318;
1053.6000;0.4387;-3.4343;
1053.9000;0.4396;-3.4392;
1054.2000;0.4396;-3.4392;
1054.5000;0.4387;-3.4442;
1054.8000;0.4428;-3.4293;
1055.1000;0.4396;-3.4343;
1055.4000;0.4420;-3.4268;
1055.7000;0.4412;-3.4293;
1056.0000;0.4396;-3.4392;
1056.3000;0.4396;-3.4318;
1056.6000;0.4371;-3.4417;
1056.9000;0.4379;-3.4367;
1057.2000;0.4371;-3.4343;
1057.5000;0.4387;-3.4343;
1057.8000;0.4379;-3.4343;
1058.1000;0.4387;-3.4243;
1058.4000;0.4387;-3.4218;
1058.7000;0.4355;-3.4367;
1059.0000;0.4404;-3.4193;
1059.3000;0.4387;-3.4318;
1059.6000;0.4371;-3.4268;
1059.9000;0.4387;-3.4169;
1060.2000;0.4412;-3.4169;
1060.5000;0.4404;-3.4144;
1060.8000;0.4396;-3.4119;
1061.1000;0.4404;-3.3994;
1061.4000;0.4396;-3.3994;
1061.7000;0.4363;-3.4044;
1062.0000;0.4379;-3.4094;
1062.3000;0.4396;-3.4019;
1062.6000;0.4404;-3.3970;
1062.9000;0.4396;-3.4044;
1063.2000;0.4379;-3.4119;
1063.5000;0.4363;-3.4169;
1063.8000;0.4387;-3.4119;
1064.1000;0.4396;-3.4094;
1064.4000;0.4396;-3.4019;
1064.7000;0.4387;-3.4019;
1065.0000;0.4371;-3.4144;
1065.3000;0.4363;-3.4218;
1065.6000;0.4420;-3.4144;
1065.9000;0.4379;-3.4218;
1066.2000;0.4396;-3.4169;
1066.5000;0.4379;-3.4169;
1066.8000;0.4355;-3.4193;
1067.1000;0.4379;-3.4193;
1067.4000;0.4387;-3.4069;
1067.7000;0.4379;-3.4144;
1068.0000;0.4387;-3.4094;
1068.3000;0.4371;-3.4094;
1068.6000;0.4379;-3.3970;
1068.9000;0.4371;-3.4119;
1069.2000;0.4379;-3.4069;
1069.5000;0.4379;-3.4119;
1069.8000;0.4371;-3.4044;
1070.1000;0.4379;-3.3994;
1070.4000;0.4371;-3.4069;
1070.7000;0.4404;-3.4094;
1071.0000;0.4363;-3.4193;
1071.3000;0.4379;-3.4193;
1071.6000;0.4404;-3.4218;
1071.9000;0.4379;-3.4318;
1072.2000;0.4396;-3.4268;
1072.5000;0.4379;-3.4293;
1072.8000;0.4412;-3.4218;
1073.1000;0.4298;-3.4467;
1073.4000;0.4363;-3.4343;
1073.7000;0.4387;-3.4169;
1074.0000;0.4387;-3.4144;
1074.3000;0.4387;-3.4218;
1074.6000;0.4396;-3.4144;
1074.9000;0.4379;-3.4169;
1075.2000;0.4404;-3.4144;
1075.5000;0.4371;-3.4243;
1075.8000;0.4379;-3.4094;
1076.1000;0.4387;-3.4044;
1076.4000;0.4379;-3.4119;
1076.7000;0.4379;-3.4119;
1077.0000;0.4396;-3.4268;
1077.3000;0.4387;-3.4367;
1077.6000;0.4379;-3.4343;
1077.9000;0.4412;-3.4218;
1078.2000;0.4412;-3.4193;
1078.5000;0.4444;-3.4044;
1078.8000;0.4387;-3.4293;
1079.1000;0.4387;-3.4193;
1079.4000;0.4363;-3.4243;
1079.7000;0.4379;-3.4218;
1080.0000;0.4387;-3.4293;
1080.3000;0.4371;-3.4442;
1080.6000;0.4396;-3.4343;
1080.9000;0.4396;-3.4367;
1081.2000;0.4412;-3.4392;
1081.5000;0.4371;-3.4417;
1081.8000;0.4363;-3.4367;
1082.1000;0.4396;-3.4367;
1082.4000;0.4412;-3.4243;
1082.7000;0.4436;-3.4218;
1083.0000;0.4396;-3.4169;
1083.3000;0.4396;-3.4094;
1083.6000;0.4412;-3.4044;
1083.9000;0.4387;-3.4094;
1084.2000;0.4371;-3.4169;
1084.5000;0.4387;-3.4218;
1084.8000;0.4387;-3.4268;
1085.1000;0.4371;-3.4193;
1085.4000;0.4371;-3.4218;
1085.7000;0.4379;-3.4218;
1086.0000;0.4396;-3.4144;
1086.3000;0.4387;-3.4243;
1086.6000;0.4387;-3.4318;
1086.9000;0.4379;-3.4343;
1087.2000;0.4371;-3.4343;
1087.5000;0.4387;-3.4343;
1087.8000;0.4396;-3.4343;
1088.1000;0.4396;-3.4367;
1088.4000;0.4404;-3.4367;
1088.7000;0.4396;-3.4392;
1089.0000;0.4396;-3.4243;
1089.3000;0.4412;-3.4243;
1089.6000;0.4396;-3.4243;
1089.9000;0.4404;-3.4169;
1090.2000;0.4379;-3.4243;
1090.5000;0.4379;-3.4243;
1090.8000;0.4371;-3.4243;
1091.1000;0.4396;-3.4169;
1091.4000;0.4396;-3.4169;
1091.7000;0.4379;-3.4293;
1092.0000;0.4396;-3.4343;
1092.3000;0.4379;-3.4343;
1092.6000;0.4379;-3.4293;
1092.9000;0.4396;-3.4293;
1093.2000;0.4387;-3.4318;
1093.5000;0.4379;-3.4343;
1093.8000;0.4404;-3.4218;
1094.1000;0.4453;-3.4144;
1094.4000;0.4355;-3.4417;
1094.7000;0.4387;-3.4343;
1095.0000;0.4396;-3.4318;
1095.3000;0.4387;-3.4367;
1095.6000;0.4371;-3.4442;
1095.9000;0.4387;-3.4467;
1096.2000;0.4396;-3.4442;
1096.5000;0.4379;-3.4467;
1096.8000;0.4404;-3.4467;
1097.1000;0.4379;-3.4467;
1097.4000;0.4371;-3.4442;
1097.7000;0.4404;-3.4343;
1098.0000;0.4363;-3.4367;
1098.3000;0.4379;-3.4318;
1098.6000;0.4371;-3.4367;
1098.9000;0.4314;-3.4442;
1099.2000;0.4396;-3.4119;
1099.5000;0.4387;-3.4218;
1099.8000;0.4371;-3.4218;
1100.1000;0.4379;-3.4243;
1100.4000;0.4387;-3.4144;
1100.7000;0.4387;-3.4218;
1101.0000;0.4306;-3.4442;
1101.3000;0.4363;-3.4392;
1101.6000;0.4387;-3.4367;
1101.9000;0.4379;-3.4392;
1102.2000;0.4387;-3.4268;
1102.5000;0.4387;-3.4367;
1102.8000;0.4379;-3.4442;
1103.1000;0.4379;-3.4367;
1103.4000;0.4379;-3.4318;
1103.7000;0.4379;-3.4318;
1104.0000;0.4387;-3.4193;
1104.3000;0.4404;-3.4094;
1104.6000;0.4363;-3.4243;
1104.9000;0.4371;-3.4218;
1105.2000;0.4444;-3.3994;
1105.5000;0.4387;-3.4169;
1105.8000;0.4396;-3.4169;
1106.1000;0.4355;-3.4268;
1106.4000;0.4396;-3.4069;
1106.7000;0.4355;-3.4243;
1107.0000;0.4379;-3.4218;
1107.3000;0.4436;-3.4119;
1107.6000;0.4420;-3.4119;
1107.9000;0.4387;-3.4169;
1108.2000;0.4387;-3.4169;
1108.5000;0.4387;-3.4119;
1108.8000;0.4387;-3.4193;
1109.1000;0.4363;-3.4268;
1109.4000;0.4363;-3.4193;
1109.7000;0.4485;-3.3970;
1110.0000;0.4371;-3.4169;
1110.3000;0.4355;-3.4243;
1110.6000;0.4461;-3.4044;
1110.9000;0.4387;-3.4218;
1111.2000;0.4396;-3.4268;
1111.5000;0.4396;-3.4268;
1111.8000;0.4363;-3.4417;
1112.1000;0.4387;-3.4268;
1112.4000;0.4428;-3.4193;
1112.7000;0.4396;-3.4268;
1113.0000;0.4371;-3.4343;
1113.3000;0.4387;-3.4218;
1113.6000;0.4387;-3.4144;
1113.9000;0.4379;-3.4069;
1114.2000;0.4387;-3.4044;
1114.5000;0.4379;-3.4044;
1114.8000;0.4387;-3.4019;
1115.1000;0.4387;-3.4044;
1115.4000;0.4404;-3.4119;
1115.7000;0.4363;-3.4343;
1116.0000;0.4355;-3.4293;
1116.3000;0.4379;-3.4268;
1116.6000;0.4387;-3.4268;
1116.9000;0.4396;-3.4268;
1117.2000;0.4396;-3.4318;
1117.5000;0.4412;-3.4243;
1117.8000;0.4477;-3.4019;
1118.1000;0.4387;-3.4169;
1118.4000;0.4379;-3.4169;
1118.7000;0.4387;-3.4243;
1119.0000;0.4396;-3.4243;
1119.3000;0.4371;-3.4343;
1119.6000;0.4355;-3.4268;
1119.9000;0.4387;-3.4243;
1120.2000;0.4363;-3.4193;
1120.5000;0.4371;-3.4193;
1120.8000;0.4371;-3.4144;
1121.1000;0.4396;-3.4193;
1121.4000;0.4330;-3.4367;
1121.7000;0.4371;-3.4243;
1122.0000;0.4379;-3.4218;
1122.3000;0.4387;-3.4169;
1122.6000;0.4387;-3.4193;
1122.9000;0.4428;-3.4069;
1123.2000;0.4379;-3.4169;
1123.5000;0.4363;-3.4169;
1123.8000;0.4387;-3.4119;
1124.1000;0.4404;-3.4119;
1124.4000;0.4444;-3.4019;
1124.7000;0.4363;-3.4169;
1125.0000;0.4420;-3.4069;
1125.3000;0.4387;-3.4119;
1125.6000;0.4379;-3.4243;
1125.9000;0.4436;-3.4144;
1126.2000;0.4379;-3.4243;
1126.5000;0.4387;-3.4144;
1126.8000;0.4404;-3.4169;
1127.1000;0.4379;-3.4293;
1127.4000;0.4379;-3.4293;
1127.7000;0.4387;-3.4243;
1128.0000;0.4412;-3.4243;
1128.3000;0.4387;-3.4218;
1128.6000;0.4363;-3.4144;
1128.9000;0.4363;-3.4169;
1129.2000;0.4396;-3.4119;
1129.5000;0.4396;-3.4144;
1129.8000;0.4387;-3.4268;
1130.1000;0.4387;-3.4293;
1130.4000;0.4371;-3.4318;
1130.7000;0.4363;-3.4343;
1131.0000;0.4379;-3.4343;
1131.3000;0.4387;-3.4293;
1131.6000;0.4355;-3.4293;
1131.9000;0.4371;-3.4268;
1132.2000;0.4379;-3.4169;
1132.5000;0.4396;-3.4119;
1132.8000;0.4387;-3.4019;
1133.1000;0.4371;-3.4094;
1133.4000;0.4371;-3.4094;
1133.7000;0.4379;-3.4094;
1134.0000;0.4347;-3.4169;
1134.3000;0.4379;-3.4144;
1134.6000;0.4371;-3.4169;
1134.9000;0.4379;-3.4193;
1135.2000;0.4387;-3.4218;
1135.5000;0.4461;-3.4044;
1135.8000;0.4396;-3.4318;
1136.1000;0.4371;-3.4343;
1136.4000;0.4387;-3.4343;
1136.7000;0.4379;-3.4392;
1137.0000;0.4412;-3.4417;
1137.3000;0.4396;-3.4467;
1137.6000;0.4379;-3.4616;
1137.9000;0.4371;-3.4517;
1138.2000;0.4396;-3.4442;
1138.5000;0.4461;-3.4243;
1138.8000;0.4412;-3.4293;
1139.1000;0.4371;-3.4417;
1139.4000;0.4363;-3.4367;
1139.7000;0.4387;-3.4268;
1140.0000;0.4371;-3.4169;
1140.3000;0.4371;-3.4069;
1140.6000;0.4387;-3.3970;
1140.9000;0.4396;-3.3895;
1141.2000;0.4387;-3.3895;
1141.5000;0.4396;-3.3945;
1141.8000;0.4379;-3.4019;
1142.1000;0.4387;-3.4044;
1142.4000;0.4387;-3.4044;
1142.7000;0.4379;-3.4144;
1143.0000;0.4363;-3.4343;
1143.3000;0.4363;-3.4417;
1143.6000;0.4371;-3.4442;
1143.9000;0.4396;-3.4343;
1144.2000;0.4428;-3.4268;
1144.5000;0.4387;-3.4293;
1144.8000;0.4396;-3.4144;
1145.1000;0.4355;-3.4169;
1145.4000;0.4379;-3.4193;
1145.7000;0.4379;-3.4218;
1146.0000;0.4379;-3.4243;
1146.3000;0.4387;-3.4243;
1146.6000;0.4379;-3.4243;
1146.9000;0.4436;-3.4069;
1147.2000;0.4379;-3.4268;
1147.5000;0.4371;-3.4193;
1147.8000;0.4387;-3.4144;
1148.1000;0.4396;-3.4169;
1148.4000;0.4379;-3.4293;
1148.7000;0.4379;-3.4343;
1149.0000;0.4420;-3.4169;
1149.3000;0.4404;-3.4268;
1149.6000;0.4363;-3.4293;
1149.9000;0.4461;-3.4094;
1150.2000;0.4387;-3.4193;
1150.5000;0.4379;-3.4268;
1150.8000;0.4396;-3.4417;
1151.1000;0.4387;-3.4442;
1151.4000;0.4379;-3.4367;
1151.7000;0.4396;-3.4343;
1152.0000;0.4379;-3.4343;
1152.3000;0.4387;-3.4293;
1152.6000;0.4363;-3.4268;
1152.9000;0.4387;-3.4293;
1153.2000;0.4396;-3.4343;
1153.5000;0.4371;-3.4367;
1153.8000;0.4387;-3.4318;
1154.1000;0.4379;-3.4318;
1154.4000;0.4387;-3.4318;
1154.7000;0.4444;-3.4119;
1155.0000;0.4379;-3.4293;
1155.3000;0.4379;-3.4343;
1155.6000;0.4387;-3.4392;
1155.9000;0.4355;-3.4417;
1156.2000;0.4379;-3.4417;
1156.5000;0.4387;-3.4293;
1156.8000;0.4396;-3.4343;
1157.1000;0.4379;-3.4367;
1157.4000;0.4387;-3.4293;
1157.7000;0.4282;-3.4566;
1158.0000;0.4396;-3.4243;
1158.3000;0.4371;-3.4293;
1158.6000;0.4396;-3.4243;
1158.9000;0.4371;-3.4318;
1159.2000;0.4363;-3.4367;
1159.5000;0.4322;-3.4417;
1159.8000;0.4387;-3.4293;
1160.1000;0.4387;-3.4243;
1160.4000;0.4396;-3.4193;
1160.7000;0.4428;-3.4169;
1161.0000;0.4371;-3.4318;
1161.3000;0.4396;-3.4218;
1161.6000;0.4379;-3.4243;
1161.9000;0.4387;-3.4243;
1162.2000;0.4412;-3.4169;
1162.5000;0.4379;-3.4218;
1162.8000;0.4371;-3.4243;
1163.1000;0.4404;-3.4218;
1163.4000;0.4387;-3.4268;
1163.7000;0.4387;-3.4318;
1164.0000;0.4428;-3.4218;
1164.3000;0.4387;-3.4243;
1164.6000;0.4371;-3.4343;
1164.9000;0.4379;-3.4442;
1165.2000;0.4371;-3.4392;
1165.5000;0.4379;-3.4293;
1165.8000;0.4363;-3.4392;
1166.1000;0.4428;-3.4293;
1166.4000;0.4363;-3.4367;
1166.7000;0.4387;-3.4318;
1167.0000;0.4396;-3.4268;
1167.3000;0.4379;-3.4268;
1167.6000;0.4396;-3.4318;
1167.9000;0.4387;-3.4392;
1168.2000;0.4379;-3.4343;
1168.5000;0.4404;-3.4293;
1168.8000;0.4387;-3.4293;
1169.1000;0.4387;-3.4268;
1169.4000;0.4363;-3.4268;
1169.7000;0.4412;-3.4144;
1170.0000;0.4396;-3.4218;
1170.3000;0.4396;-3.4218;
1170.6000;0.4387;-3.4193;
1170.9000;0.4387;-3.4119;
1171.2000;0.4396;-3.4119;
1171.5000;0.4379;-3.4144;
1171.8000;0.4412;-3.4094;
1172.1000;0.4379;-3.4243;
1172.4000;0.4396;-3.4169;
1172.7000;0.4428;-3.4094;
1173.0000;0.4371;-3.4243;
1173.3000;0.4396;-3.4218;
1173.6000;0.4387;-3.4243;
1173.9000;0.4396;-3.4169;
1174.2000;0.4404;-3.4144;
1174.5000;0.4379;-3.4119;
1174.8000;0.4387;-3.4044;
1175.1000;0.4396;-3.4119;
1175.4000;0.4387;-3.4218;
1175.7000;0.4371;-3.4268;
1176.0000;0.4396;-3.4218;
1176.3000;0.4396;-3.4193;
1176.6000;0.4306;-3.4392;
1176.9000;0.4379;-3.4144;
1177.2000;0.4363;-3.4119;
1177.5000;0.4396;-3.4144;
1177.8000;0.4379;-3.4144;
1178.1000;0.4387;-3.4144;
1178.4000;0.4379;-3.4193;
1178.7000;0.4526;-3.3845;
1179.0000;0.4387;-3.4144;
1179.3000;0.4396;-3.4144;
1179.6000;0.4404;-3.4019;
1179.9000;0.4412;-3.4044;
1180.2000;0.4396;-3.4044;
1180.5000;0.4322;-3.4268;
1180.8000;0.4404;-3.4044;
1181.1000;0.4387;-3.4144;
1181.4000;0.4379;-3.4193;
1181.7000;0.4371;-3.4293;
1182.0000;0.4387;-3.4318;
1182.3000;0.4379;-3.4343;
1182.6000;0.4396;-3.4243;
1182.9000;0.4387;-3.4218;
1183.2000;0.4396;-3.4243;
1183.5000;0.4387;-3.4268;
1183.8000;0.4379;-3.4268;
1184.1000;0.4396;-3.4268;
1184.4000;0.4396;-3.4243;
1184.7000;0.4387;-3.4243;
1185.0000;0.4396;-3.4169;
1185.3000;0.4379;-3.4268;
1185.6000;0.4379;-3.4218;
1185.9000;0.4412;-3.4193;
1186.2000;0.4396;-3.4343;
1186.5000;0.4396;-3.4293;
1186.8000;0.4396;-3.4343;
1187.1000;0.4404;-3.4268;
1187.4000;0.4379;-3.4318;
1187.7000;0.4371;-3.4268;
1188.0000;0.4371;-3.4268;
1188.3000;0.4379;-3.4243;
1188.6000;0.4379;-3.4268;
1188.9000;0.4387;-3.4218;
1189.2000;0.4412;-3.4193;
1189.5000;0.4396;-3.4193;
1189.8000;0.4387;-3.4144;
1190.1000;0.4387;-3.4243;
1190.4000;0.4371;-3.4343;
1190.7000;0.4363;-3.4318;
1191.0000;0.4363;-3.4417;
1191.3000;0.4363;-3.4268;
1191.6000;0.4355;-3.4193;
1191.9000;0.4355;-3.4243;
1192.2000;0.4469;-3.3870;
1192.5000;0.4363;-3.4218;
1192.8000;0.4355;-3.4293;
1193.1000;0.4379;-3.4218;
1193.4000;0.4461;-3.4069;
1193.7000;0.4371;-3.4293;
1194.0000;0.4396;-3.4218;
1194.3000;0.4355;-3.4218;
1194.6000;0.4501;-3.3820;
1194.9000;0.4363;-3.4144;
1195.2000;0.4371;-3.4169;
1195.5000;0.4306;-3.4343;
1195.8000;0.4371;-3.4293;
1196.1000;0.4371;-3.4293;
1196.4000;0.4363;-3.4268;
1196.7000;0.4387;-3.4218;
1197.0000;0.4379;-3.4243;
1197.3000;0.4396;-3.4293;
1197.6000;0.4396;-3.4218;
1197.9000;0.4379;-3.4193;
1198.2000;0.4396;-3.4193;
1198.5000;0.4453;-3.3970;
1198.8000;0.4404;-3.4169;
1199.1000;0.4379;-3.4193;
1199.4000;0.4379;-3.4094;
1199.7000;0.4412;-3.4094;
1200.0000;0.4371;-3.4193;
1200.3000;0.4371;-3.4169;
1200.6000;0.4379;-3.4243;
1200.9000;0.4355;-3.4318;
1201.2000;0.4396;-3.4268;
1201.5000;0.4314;-3.4417;
1201.8000;0.4355;-3.4343;
1202.1000;0.4379;-3.4367;
1202.4000;0.4379;-3.4417;
1202.7000;0.4412;-3.4293;
1203.0000;0.4363;-3.4293;
1203.3000;0.4387;-3.4268;
1203.6000;0.4355;-3.4367;
1203.9000;0.4347;-3.4367;
1204.2000;0.4355;-3.4243;
1204.5000;0.4363;-3.4144;
1204.8000;0.4404;-3.4094;
1205.1000;0.4371;-3.4144;
1205.4000;0.4379;-3.4144;
1205.7000;0.4387;-3.4144;
1206.0000;0.4379;-3.4218;
1206.3000;0.4404;-3.4193;
1206.6000;0.4371;-3.4218;
1206.9000;0.4387;-3.4218;
1207.2000;0.4396;-3.4218;
1207.5000;0.4404;-3.4144;
1207.8000;0.4379;-3.4218;
1208.1000;0.4379;-3.4169;
1208.4000;0.4363;-3.4293;
1208.7000;0.4396;-3.4169;
1209.0000;0.4387;-3.4169;
1209.3000;0.4379;-3.4218;
1209.6000;0.4371;-3.4268;
1209.9000;0.4387;-3.4243;
1210.2000;0.4363;-3.4318;
1210.5000;0.4379;-3.4293;
1210.8000;0.4379;-3.4367;
1211.1000;0.4387;-3.4467;
1211.4000;0.4371;-3.4467;
1211.7000;0.4404;-3.4318;
1212.0000;0.4363;-3.4417;
1212.3000;0.4387;-3.4293;
1212.6000;0.4396;-3.4218;
1212.9000;0.4379;-3.4119;
1213.2000;0.4379;-3.4169;
1213.5000;0.4387;-3.4119;
1213.8000;0.4355;-3.4268;
1214.1000;0.4314;-3.4243;
1214.4000;0.4379;-3.4144;
1214.7000;0.4363;-3.4293;
1215.0000;0.4436;-3.4169;
1215.3000;0.4396;-3.4293;
1215.6000;0.4444;-3.4044;
1215.9000;0.4379;-3.4193;
1216.2000;0.4396;-3.4169;
1216.5000;0.4387;-3.4268;
1216.8000;0.4404;-3.4293;
1217.1000;0.4387;-3.4343;
1217.4000;0.4404;-3.4243;
1217.7000;0.4371;-3.4367;
1218.0000;0.4477;-3.4044;
1218.3000;0.4379;-3.4193;
1218.6000;0.4355;-3.4318;
1218.9000;0.4396;-3.4293;
1219.2000;0.4379;-3.4293;
1219.5000;0.4461;-3.4119;
1219.8000;0.4387;-3.4293;
1220.1000;0.4379;-3.4318;
1220.4000;0.4420;-3.4268;
1220.7000;0.4404;-3.4293;
1221.0000;0.4404;-3.4243;
1221.3000;0.4396;-3.4243;
1221.6000;0.4412;-3.4268;
1221.9000;0.4404;-3.4293;
1222.2000;0.4387;-3.4343;
1222.5000;0.4412;-3.4318;
1222.8000;0.4387;-3.4392;
1223.1000;0.4396;-3.4293;
1223.4000;0.4396;-3.4293;
1223.7000;0.4387;-3.4318;
1224.0000;0.4387;-3.4268;
1224.3000;0.4387;-3.4318;
1224.6000;0.4396;-3.4268;
1224.9000;0.4387;-3.4318;
1225.2000;0.4379;-3.4293;
1225.5000;0.4428;-3.4094;
1225.8000;0.4387;-3.4094;
1226.1000;0.4371;-3.4144;
1226.4000;0.4371;-3.4169;
1226.7000;0.4379;-3.4144;
1227.0000;0.4355;-3.4169;
1227.3000;0.4371;-3.4169;
1227.6000;0.4363;-3.4169;
1227.9000;0.4396;-3.4193;
1228.2000;0.4371;-3.4193;
1228.5000;0.4379;-3.4119;
1228.8000;0.4469;-3.3895;
1229.1000;0.4379;-3.4119;
1229.4000;0.4347;-3.4243;
1229.7000;0.4387;-3.4193;
1230.0000;0.4387;-3.4169;
1230.3000;0.4379;-3.4094;
1230.6000;0.4387;-3.4119;
1230.9000;0.4379;-3.4144;
1231.2000;0.4387;-3.4119;
1231.5000;0.4387;-3.4218;
1231.8000;0.4371;-3.4193;
1232.1000;0.4363;-3.4268;
1232.4000;0.4387;-3.4144;
1232.7000;0.4379;-3.4169;
1233.0000;0.4379;-3.4144;
1233.3000;0.4396;-3.4044;
1233.6000;0.4404;-3.4044;
1233.9000;0.4404;-3.4044;
1234.2000;0.4404;-3.4019;
1234.5000;0.4396;-3.4019;
1234.8000;0.4396;-3.4069;
1235.1000;0.4396;-3.4069;
1235.4000;0.4396;-3.4094;
1235.7000;0.4396;-3.4243;
1236.0000;0.4396;-3.4293;
1236.3000;0.4371;-3.4367;
1236.6000;0.4396;-3.4343;
1236.9000;0.4444;-3.4243;
1237.2000;0.4387;-3.4367;
1237.5000;0.4387;-3.4367;
1237.8000;0.4379;-3.4442;
1238.1000;0.4379;-3.4467;
1238.4000;0.4404;-3.4392;
1238.7000;0.4355;-3.4517;
1239.0000;0.4371;-3.4517;
1239.3000;0.4387;-3.4417;
1239.6000;0.4436;-3.4243;
1239.9000;0.4387;-3.4367;
1240.2000;0.4396;-3.4268;
1240.5000;0.4387;-3.4268;
1240.8000;0.4387;-3.4218;
1241.1000;0.4396;-3.4144;
1241.4000;0.4420;-3.4169;
1241.7000;0.4379;-3.4343;
1242.0000;0.4379;-3.4318;
1242.3000;0.4387;-3.4367;
1242.6000;0.4306;-3.4566;
1242.9000;0.4371;-3.4442;
1243.2000;0.4379;-3.4318;
1243.5000;0.4314;-3.4492;
1243.8000;0.4379;-3.4367;
1244.1000;0.4379;-3.4392;
1244.4000;0.4428;-3.4318;
1244.7000;0.4387;-3.4392;
1245.0000;0.4387;-3.4417;
1245.3000;0.4387;-3.4367;
1245.6000;0.4379;-3.4268;
1245.9000;0.4396;-3.4193;
1246.2000;0.4379;-3.4243;
1246.5000;0.4387;-3.4268;
1246.8000;0.4404;-3.4243;
1247.1000;0.4371;-3.4243;
1247.4000;0.4387;-3.4169;
1247.7000;0.4379;-3.4193;
1248.0000;0.4379;-3.4169;
1248.3000;0.4379;-3.4069;
1248.6000;0.4387;-3.4169;
1248.9000;0.4379;-3.4268;
1249.2000;0.4387;-3.4343;
1249.5000;0.4387;-3.4442;
1249.8000;0.4396;-3.4392;
1250.1000;0.4404;-3.4318;
1250.4000;0.4396;-3.4343;
1250.7000;0.4379;-3.4367;
1251.0000;0.4396;-3.4243;
1251.3000;0.4396;-3.4318;
1251.6000;0.4387;-3.4268;
1251.9000;0.4379;-3.4218;
1252.2000;0.4379;-3.4268;
1252.5000;0.4387;-3.4193;
1252.8000;0.4379;-3.4218;
1253.1000;0.4379;-3.4193;
1253.4000;0.4404;-3.4169;
1253.7000;0.4387;-3.4094;
1254.0000;0.4404;-3.4144;
1254.3000;0.4371;-3.4318;
1254.6000;0.4396;-3.4367;
1254.9000;0.4339;-3.4517;
1255.2000;0.4379;-3.4367;
1255.5000;0.4363;-3.4367;
1255.8000;0.4339;-3.4442;
1256.1000;0.4379;-3.4293;
1256.4000;0.4379;-3.4268;
1256.7000;0.4387;-3.4193;
1257.0000;0.4387;-3.4169;
1257.3000;0.4404;-3.4169;
1257.6000;0.4363;-3.4343;
1257.9000;0.4379;-3.4318;
1258.2000;0.4379;-3.4343;
1258.5000;0.4404;-3.4218;
1258.8000;0.4387;-3.4268;
1259.1000;0.4379;-3.4293;
1259.4000;0.4371;-3.4318;
1259.7000;0.4396;-3.4343;
1260.0000;0.4379;-3.4367;
1260.3000;0.4379;-3.4293;
1260.6000;0.4387;-3.4318;
1260.9000;0.4404;-3.4343;
1261.2000;0.4355;-3.4492;
1261.5000;0.4379;-3.4367;
1261.8000;0.4371;-3.4392;
1262.1000;0.4396;-3.4268;
1262.4000;0.4387;-3.4268;
1262.7000;0.4404;-3.4318;
1263.0000;0.4396;-3.4218;
1263.3000;0.4387;-3.4193;
1263.6000;0.4387;-3.4169;
1263.9000;0.4379;-3.4144;
1264.2000;0.4387;-3.4094;
1264.5000;0.4371;-3.4169;
1264.8000;0.4387;-3.4193;
1265.1000;0.4387;-3.4193;
1265.4000;0.4396;-3.4119;
1265.7000;0.4404;-3.4069;
1266.0000;0.4379;-3.4144;
1266.3000;0.4387;-3.4119;
1266.6000;0.4363;-3.4218;
1266.9000;0.4371;-3.4268;
1267.2000;0.4363;-3.4318;
1267.5000;0.4387;-3.4318;
1267.8000;0.4387;-3.4293;
1268.1000;0.4387;-3.4293;
1268.4000;0.4379;-3.4293;
1268.7000;0.4379;-3.4318;
1269.0000;0.4396;-3.4318;
1269.3000;0.4387;-3.4268;
1269.6000;0.4379;-3.4318;
1269.9000;0.4396;-3.4243;
1270.2000;0.4404;-3.4169;
1270.5000;0.4371;-3.4193;
1270.8000;0.4371;-3.4193;
1271.1000;0.4371;-3.4218;
1271.4000;0.4387;-3.4243;
1271.7000;0.4379;-3.4243;
1272.0000;0.4371;-3.4343;
1272.3000;0.4371;-3.4218;
1272.6000;0.4404;-3.4094;
1272.9000;0.4379;-3.4144;
1273.2000;0.4379;-3.4119;
1273.5000;0.4387;-3.4218;
1273.8000;0.4379;-3.4169;
1274.1000;0.4371;-3.4218;
1274.4000;0.4404;-3.4144;
1274.7000;0.4265;-3.4492;
1275.0000;0.4371;-3.4243;
1275.3000;0.4371;-3.4243;
1275.6000;0.4387;-3.4268;
1275.9000;0.4371;-3.4243;
1276.2000;0.4363;-3.4318;
1276.5000;0.4363;-3.4367;
1276.8000;0.4412;-3.4218;
1277.1000;0.4363;-3.4243;
1277.4000;0.4379;-3.4293;
1277.7000;0.4371;-3.4318;
1278.0000;0.4387;-3.4268;
1278.3000;0.4453;-3.4144;
1278.6000;0.4379;-3.4343;
1278.9000;0.4396;-3.4318;
1279.2000;0.4355;-3.4442;
1279.5000;0.4314;-3.4566;
1279.8000;0.4420;-3.4293;
1280.1000;0.4379;-3.4367;
1280.4000;0.4371;-3.4417;
1280.7000;0.4396;-3.4417;
1281.0000;0.4355;-3.4542;
1281.3000;0.4396;-3.4293;
1281.6000;0.4379;-3.4318;
1281.9000;0.4306;-3.4542;
1282.2000;0.4387;-3.4293;
1282.5000;0.4387;-3.4343;
1282.8000;0.4379;-3.4293;
1283.1000;0.4387;-3.4193;
1283.4000;0.4404;-3.4119;
1283.7000;0.4396;-3.4044;
1284.0000;0.4363;-3.4069;
1284.3000;0.4387;-3.3994;
1284.6000;0.4387;-3.3970;
1284.9000;0.4396;-3.3970;
1285.2000;0.4371;-3.4069;
1285.5000;0.4387;-3.4069;
1285.8000;0.4387;-3.4193;
1286.1000;0.4396;-3.4268;
1286.4000;0.4396;-3.4243;
1286.7000;0.4379;-3.4268;
1287.0000;0.4363;-3.4343;
1287.3000;0.4371;-3.4343;
1287.6000;0.4371;-3.4367;
1287.9000;0.4330;-3.4417;
1288.2000;0.4371;-3.4293;
1288.5000;0.4404;-3.4193;
1288.8000;0.4355;-3.4392;
1289.1000;0.4387;-3.4367;
1289.4000;0.4420;-3.4318;
1289.7000;0.4371;-3.4442;
1290.0000;0.4371;-3.4343;
1290.3000;0.4371;-3.4367;
1290.6000;0.4339;-3.4392;
1290.9000;0.4387;-3.4243;
1291.2000;0.4371;-3.4268;
1291.5000;0.4396;-3.4144;
1291.8000;0.4371;-3.4193;
1292.1000;0.4379;-3.4169;
1292.4000;0.4404;-3.4193;
1292.7000;0.4387;-3.4193;
1293.0000;0.4363;-3.4243;
1293.3000;0.4314;-3.4318;
1293.6000;0.4404;-3.4069;
1293.9000;0.4387;-3.4169;
1294.2000;0.4412;-3.4094;
1294.5000;0.4363;-3.4193;
1294.8000;0.4355;-3.4293;
1295.1000;0.4371;-3.4218;
1295.4000;0.4379;-3.4218;
1295.7000;0.4314;-3.4318;
1296.0000;0.4379;-3.4193;
1296.3000;0.4379;-3.4169;
1296.6000;0.4396;-3.4169;
1296.9000;0.4396;-3.4144;
1297.2000;0.4387;-3.4193;
1297.5000;0.4314;-3.4417;
1297.8000;0.4371;-3.4343;
1298.1000;0.4379;-3.4392;
1298.4000;0.4371;-3.4442;
1298.7000;0.4444;-3.4193;
1299.0000;0.4396;-3.4293;
1299.3000;0.4371;-3.4367;
1299.6000;0.4396;-3.4293;
1299.9000;0.4379;-3.4268;
1300.2000;0.4396;-3.4343;
1300.5000;0.4363;-3.4417;
1300.8000;0.4404;-3.4392;
1301.1000;0.4371;-3.4492;
1301.4000;0.4387;-3.4542;
1301.7000;0.4404;-3.4467;
1302.0000;0.4404;-3.4517;
1302.3000;0.4404;-3.4492;
1302.6000;0.4387;-3.4467;
1302.9000;0.4404;-3.4343;
1303.2000;0.4396;-3.4318;
1303.5000;0.4396;-3.4293;
1303.8000;0.4387;-3.4119;
1304.1000;0.4387;-3.4169;
1304.4000;0.4387;-3.4193;
1304.7000;0.4396;-3.4094;
1305.0000;0.4404;-3.4019;
1305.3000;0.4420;-3.3920;
1305.6000;0.4387;-3.4119;
1305.9000;0.4379;-3.4119;
1306.2000;0.4347;-3.4144;
1306.5000;0.4428;-3.4019;
1306.8000;0.4298;-3.4442;
1307.1000;0.4371;-3.4268;
1307.4000;0.4379;-3.4218;
1307.7000;0.4379;-3.4218;
1308.0000;0.4355;-3.4318;
1308.3000;0.4396;-3.4318;
1308.6000;0.4387;-3.4343;
1308.9000;0.4371;-3.4417;
1309.2000;0.4371;-3.4367;
1309.5000;0.4396;-3.4318;
1309.8000;0.4379;-3.4318;
1310.1000;0.4355;-3.4367;
1310.4000;0.4420;-3.4293;
1310.7000;0.4355;-3.4343;
1311.0000;0.4412;-3.4193;
1311.3000;0.4330;-3.4417;
1311.6000;0.4371;-3.4392;
1311.9000;0.4371;-3.4442;
1312.2000;0.4379;-3.4318;
1312.5000;0.4396;-3.4343;
1312.8000;0.4363;-3.4268;
1313.1000;0.4355;-3.4343;
1313.4000;0.4396;-3.4169;
1313.7000;0.4477;-3.3920;
1314.0000;0.4379;-3.4243;
1314.3000;0.4371;-3.4218;
1314.6000;0.4436;-3.3970;
1314.9000;0.4477;-3.3920;
1315.2000;0.4355;-3.4268;
1315.5000;0.4379;-3.4268;
1315.8000;0.4363;-3.4318;
1316.1000;0.4371;-3.4243;
1316.4000;0.4387;-3.4218;
1316.7000;0.4339;-3.4293;
1317.0000;0.4387;-3.4094;
1317.3000;0.4379;-3.4044;
1317.6000;0.4379;-3.4044;
1317.9000;0.4347;-3.4193;
1318.2000;0.4387;-3.4069;
1318.5000;0.4387;-3.4094;
1318.8000;0.4387;-3.4044;
1319.1000;0.4371;-3.4069;
1319.4000;0.4387;-3.4144;
1319.7000;0.4379;-3.4193;
1320.0000;0.4396;-3.4144;
1320.3000;0.4436;-3.3970;
1320.6000;0.4387;-3.4094;
1320.9000;0.4387;-3.4144;
1321.2000;0.4477;-3.3895;
1321.5000;0.4339;-3.4144;
1321.8000;0.4379;-3.4044;
1322.1000;0.4322;-3.4193;
1322.4000;0.4355;-3.4069;
1322.7000;0.4379;-3.4019;
1323.0000;0.4412;-3.3920;
1323.3000;0.4404;-3.3970;
1323.6000;0.4363;-3.4044;
1323.9000;0.4379;-3.3920;
1324.2000;0.4371;-3.3994;
1324.5000;0.4363;-3.4069;
1324.8000;0.4306;-3.4218;
1325.1000;0.4396;-3.4069;
1325.4000;0.4379;-3.4094;
1325.7000;0.4371;-3.4144;
1326.0000;0.4396;-3.4119;
1326.3000;0.4371;-3.4193;
1326.6000;0.4396;-3.4094;
1326.9000;0.4387;-3.4094;
1327.2000;0.4379;-3.4193;
1327.5000;0.4387;-3.4193;
1327.8000;0.4339;-3.4293;
1328.1000;0.4363;-3.4119;
1328.4000;0.4387;-3.4119;
1328.7000;0.4379;-3.4144;
1329.0000;0.4347;-3.4218;
1329.3000;0.4404;-3.4144;
1329.6000;0.4347;-3.4367;
1329.9000;0.4461;-3.4119;
1330.2000;0.4379;-3.4293;
1330.5000;0.4387;-3.4243;
1330.8000;0.4396;-3.4243;
1331.1000;0.4379;-3.4169;
1331.4000;0.4436;-3.4019;
1331.7000;0.4412;-3.4044;
1332.0000;0.4404;-3.3994;
1332.3000;0.4387;-3.4094;
1332.6000;0.4363;-3.4243;
1332.9000;0.4387;-3.4193;
1333.2000;0.4379;-3.4268;
1333.5000;0.4404;-3.4293;
1333.8000;0.4396;-3.4293;
1334.1000;0.4387;-3.4343;
1334.4000;0.4363;-3.4268;
1334.7000;0.4396;-3.4193;
1335.0000;0.4371;-3.4318;
1335.3000;0.4379;-3.4268;
1335.6000;0.4339;-3.4318;
1335.9000;0.4379;-3.4193;
1336.2000;0.4387;-3.4144;
1336.5000;0.4387;-3.4169;
1336.8000;0.4387;-3.4094;
1337.1000;0.4404;-3.4044;
1337.4000;0.4396;-3.3945;
1337.7000;0.4412;-3.3945;
1338.0000;0.4469;-3.3845;
1338.3000;0.4387;-3.4119;
1338.6000;0.4379;-3.4044;
1338.9000;0.4396;-3.4069;
1339.2000;0.4363;-3.4069;
1339.5000;0.4387;-3.3945;
1339.8000;0.4379;-3.3920;
1340.1000;0.4396;-3.3870;
1340.4000;0.4396;-3.3945;
1340.7000;0.4428;-3.3870;
1341.0000;0.4379;-3.3970;
1341.3000;0.4379;-3.4019;
1341.6000;0.4379;-3.3994;
1341.9000;0.4363;-3.4044;
1342.2000;0.4404;-3.4069;
1342.5000;0.4314;-3.4343;
1342.8000;0.4379;-3.4218;
1343.1000;0.4404;-3.4144;
1343.4000;0.4387;-3.4243;
1343.7000;0.4396;-3.4218;
1344.0000;0.4404;-3.4169;
1344.3000;0.4379;-3.4243;
1344.6000;0.4396;-3.4243;
1344.9000;0.4396;-3.4218;
1345.2000;0.4379;-3.4243;
1345.5000;0.4355;-3.4293;
1345.8000;0.4371;-3.4268;
1346.1000;0.4412;-3.4193;
1346.4000;0.4461;-3.4119;
1346.7000;0.4371;-3.4293;
1347.0000;0.4387;-3.4243;
1347.3000;0.4355;-3.4367;
1347.6000;0.4363;-3.4293;
1347.9000;0.4355;-3.4367;
1348.2000;0.4371;-3.4293;
1348.5000;0.4363;-3.4268;
1348.8000;0.4371;-3.4293;
1349.1000;0.4355;-3.4293;
1349.4000;0.4371;-3.4243;
1349.7000;0.4379;-3.4243;
1350.0000;0.4363;-3.4243;
1350.3000;0.4387;-3.4144;
1350.6000;0.4371;-3.4169;
1350.9000;0.4379;-3.4119;
1351.2000;0.4387;-3.4119;
1351.5000;0.4379;-3.4094;
1351.8000;0.4412;-3.4044;
1352.1000;0.4379;-3.4019;
1352.4000;0.4314;-3.4268;
1352.7000;0.4387;-3.4144;
1353.0000;0.4363;-3.4243;
1353.3000;0.4428;-3.4119;
1353.6000;0.4371;-3.4318;
1353.9000;0.4379;-3.4318;
1354.2000;0.4387;-3.4293;
1354.5000;0.4347;-3.4392;
1354.8000;0.4387;-3.4367;
1355.1000;0.4387;-3.4467;
1355.4000;0.4347;-3.4641;
1355.7000;0.4379;-3.4566;
1356.0000;0.4347;-3.4616;
1356.3000;0.4363;-3.4591;
1356.6000;0.4396;-3.4392;
1356.9000;0.4396;-3.4293;
1357.2000;0.4363;-3.4367;
1357.5000;0.4306;-3.4517;
1357.8000;0.4371;-3.4318;
1358.1000;0.4371;-3.4417;
1358.4000;0.4387;-3.4417;
1358.7000;0.4363;-3.4542;
1359.0000;0.4428;-3.4343;
1359.3000;0.4387;-3.4442;
1359.6000;0.4396;-3.4467;
1359.9000;0.4371;-3.4517;
1360.2000;0.4379;-3.4517;
1360.5000;0.4379;-3.4417;
1360.8000;0.4404;-3.4367;
1361.1000;0.4379;-3.4367;
1361.4000;0.4396;-3.4318;
1361.7000;0.4371;-3.4367;
1362.0000;0.4355;-3.4417;
1362.3000;0.4371;-3.4343;
1362.6000;0.4396;-3.4293;
1362.9000;0.4379;-3.4367;
1363.2000;0.4412;-3.4193;
1363.5000;0.4371;-3.4243;
1363.8000;0.4371;-3.4293;
1364.1000;0.4396;-3.4293;
1364.4000;0.4396;-3.4318;
1364.7000;0.4453;-3.4243;
1365.0000;0.4396;-3.4318;
1365.3000;0.4363;-3.4343;
1365.6000;0.4396;-3.4268;
1365.9000;0.4387;-3.4318;
1366.2000;0.4371;-3.4218;
1366.5000;0.4387;-3.4169;
1366.8000;0.4396;-3.4119;
1367.1000;0.4396;-3.4218;
1367.4000;0.4379;-3.4243;
1367.7000;0.4379;-3.4268;
1368.0000;0.4379;-3.4318;
1368.3000;0.4371;-3.4392;
1368.6000;0.4396;-3.4318;
1368.9000;0.4412;-3.4243;
1369.2000;0.4379;-3.4343;
1369.5000;0.4396;-3.4293;
1369.8000;0.4371;-3.4367;
1370.1000;0.4363;-3.4367;
1370.4000;0.4363;-3.4293;
1370.7000;0.4355;-3.4268;
1371.0000;0.4371;-3.4243;
1371.3000;0.4371;-3.4293;
1371.6000;0.4396;-3.4169;
1371.9000;0.4379;-3.4243;
1372.2000;0.4371;-3.4193;
1372.5000;0.4444;-3.3920;
1372.8000;0.4355;-3.4293;
1373.1000;0.4371;-3.4318;
1373.4000;0.4371;-3.4318;
1373.7000;0.4379;-3.4343;
1374.0000;0.4412;-3.4268;
1374.3000;0.4379;-3.4318;
1374.6000;0.4396;-3.4318;
1374.9000;0.4412;-3.4268;
1375.2000;0.4363;-3.4318;
1375.5000;0.4371;-3.4343;
1375.8000;0.4363;-3.4343;
1376.1000;0.4371;-3.4268;
1376.4000;0.4387;-3.4243;
1376.7000;0.4387;-3.4243;
1377.0000;0.4379;-3.4293;
1377.3000;0.4339;-3.4293;
1377.6000;0.4387;-3.4218;
1377.9000;0.4444;-3.4144;
1378.2000;0.4339;-3.4417;
1378.5000;0.4363;-3.4268;
1378.8000;0.4396;-3.4218;
1379.1000;0.4387;-3.4268;
1379.4000;0.4371;-3.4293;
1379.7000;0.4379;-3.4318;
1380.0000;0.4396;-3.4218;
1380.3000;0.4379;-3.4193;
1380.6000;0.4387;-3.4243;
1380.9000;0.4404;-3.4268;
1381.2000;0.4371;-3.4193;
1381.5000;0.4371;-3.4094;
1381.8000;0.4371;-3.4094;
1382.1000;0.4371;-3.4144;
1382.4000;0.4371;-3.4169;
1382.7000;0.4379;-3.4119;
1383.0000;0.4379;-3.4169;
1383.3000;0.4371;-3.4193;
1383.6000;0.4355;-3.4119;
1383.9000;0.4347;-3.4218;
1384.2000;0.4371;-3.4243;
1384.5000;0.4412;-3.4268;
1384.8000;0.4339;-3.4392;
1385.1000;0.4412;-3.4268;
1385.4000;0.4387;-3.4343;
1385.7000;0.4282;-3.4666;
1386.0000;0.4387;-3.4318;
1386.3000;0.4371;-3.4268;
1386.6000;0.4379;-3.4243;
1386.9000;0.4379;-3.4268;
1387.2000;0.4379;-3.4268;
1387.5000;0.4396;-3.4193;
1387.8000;0.4404;-3.4144;
1388.1000;0.4379;-3.4169;
1388.4000;0.4387;-3.4144;
1388.7000;0.4461;-3.4019;
1389.0000;0.4396;-3.4218;
1389.3000;0.4396;-3.4243;
1389.6000;0.4347;-3.4442;
1389.9000;0.4387;-3.4293;
1390.2000;0.4387;-3.4193;
1390.5000;0.4347;-3.4318;
1390.8000;0.4387;-3.4218;
1391.1000;0.4396;-3.4268;
1391.4000;0.4371;-3.4467;
1391.7000;0.4290;-3.4591;
1392.0000;0.4379;-3.4293;
1392.3000;0.4387;-3.4343;
1392.6000;0.4355;-3.4367;
1392.9000;0.4363;-3.4343;
1393.2000;0.4347;-3.4343;
1393.5000;0.4371;-3.4268;
1393.8000;0.4355;-3.4293;
1394.1000;0.4396;-3.4218;
1394.4000;0.4330;-3.4367;
1394.7000;0.4363;-3.4243;
1395.0000;0.4404;-3.4193;
1395.3000;0.4347;-3.4293;
1395.6000;0.4379;-3.4193;
1395.9000;0.4387;-3.4268;
1396.2000;0.4379;-3.4218;
1396.5000;0.4355;-3.4243;
1396.8000;0.4363;-3.4318;
1397.1000;0.4339;-3.4367;
1397.4000;0.4404;-3.4218;
1397.7000;0.4387;-3.4218;
1398.0000;0.4371;-3.4169;
1398.3000;0.4347;-3.4193;
1398.6000;0.4371;-3.4169;
1398.9000;0.4379;-3.4119;
1399.2000;0.4330;-3.4218;
1399.5000;0.4412;-3.4019;
1399.8000;0.4404;-3.4069;
